BOXY.EXE: ISS Imagent and Oximeter Data Acquisition Program Version 0.80
Ascii Record File

#ACQ INFORMATION
2  Detector Channels 
16  External MUX Channels 
1  Auxiliary Channels 
5000  Waveform (CCF) Frequency (Hz)
1  Waveforms Skipped 
30  Waveforms Averaged 
1  Cycles Averaged 
16  Acquisitions per Waveform 
10.0806  Updata Rate (Hz) 

#FILE INFORMATION
TRUE -- External MUX Channel results are PARSED.
FALSE -- AC DC and Phase are NOT grouped.
TRUE -- Companion Program Settings File CREATED.
FALSE -- AC data not excluded
FALSE -- DC data not excluded
FALSE -- Phase data not excluded
FALSE -- Auxillary Chn. data not excluded
Tab delimiters

#CALIBRATION STATE
TRUE -- Waveform Calibration Values APPLIED.


#AUX CALIBRATION VALUES
Val Type	aux-1	

Term	1.0000e+00	
Factor	0.0000e+00	


#WF CALIBRATION VALUES
A = Detector Channel
Val Type	A-AC1	A-AC2	A-AC3	A-AC4	A-AC5	A-AC6	A-AC7	A-AC8	A-AC9	A-AC10	A-AC11	A-AC12	A-AC13	A-AC14	A-AC15	A-AC16	A-DC1	A-DC2	A-DC3	A-DC4	A-DC5	A-DC6	A-DC7	A-DC8	A-DC9	A-DC10	A-DC11	A-DC12	A-DC13	A-DC14	A-DC15	A-DC16	A-Ph1	A-Ph2	A-Ph3	A-Ph4	A-Ph5	A-Ph6	A-Ph7	A-Ph8	A-Ph9	A-Ph10	A-Ph11	A-Ph12	A-Ph13	A-Ph14	A-Ph15	A-Ph16	

Term	0.00000e+00	0.00000e+00	0.00000e+00	0.00000e+00	0.00000e+00	0.00000e+00	0.00000e+00	0.00000e+00	0.00000e+00	0.00000e+00	0.00000e+00	0.00000e+00	0.00000e+00	0.00000e+00	0.00000e+00	0.00000e+00	0.00000e+00	0.00000e+00	0.00000e+00	0.00000e+00	0.00000e+00	0.00000e+00	0.00000e+00	0.00000e+00	0.00000e+00	0.00000e+00	0.00000e+00	0.00000e+00	0.00000e+00	0.00000e+00	0.00000e+00	0.00000e+00	0.00000e+00	0.00000e+00	0.00000e+00	0.00000e+00	0.00000e+00	0.00000e+00	0.00000e+00	0.00000e+00	0.00000e+00	0.00000e+00	0.00000e+00	0.00000e+00	0.00000e+00	0.00000e+00	0.00000e+00	0.00000e+00	
Factor	1.00000e+00	1.00000e+00	1.00000e+00	1.00000e+00	1.00000e+00	1.00000e+00	1.00000e+00	1.00000e+00	1.00000e+00	1.00000e+00	1.00000e+00	1.00000e+00	1.00000e+00	1.00000e+00	1.00000e+00	1.00000e+00	1.00000e+00	1.00000e+00	1.00000e+00	1.00000e+00	1.00000e+00	1.00000e+00	1.00000e+00	1.00000e+00	1.00000e+00	1.00000e+00	1.00000e+00	1.00000e+00	1.00000e+00	1.00000e+00	1.00000e+00	1.00000e+00	X	X	X	X	X	X	X	X	X	X	X	X	X	X	X	X	

B = Detector Channel
Val Type	B-AC1	B-AC2	B-AC3	B-AC4	B-AC5	B-AC6	B-AC7	B-AC8	B-AC9	B-AC10	B-AC11	B-AC12	B-AC13	B-AC14	B-AC15	B-AC16	B-DC1	B-DC2	B-DC3	B-DC4	B-DC5	B-DC6	B-DC7	B-DC8	B-DC9	B-DC10	B-DC11	B-DC12	B-DC13	B-DC14	B-DC15	B-DC16	B-Ph1	B-Ph2	B-Ph3	B-Ph4	B-Ph5	B-Ph6	B-Ph7	B-Ph8	B-Ph9	B-Ph10	B-Ph11	B-Ph12	B-Ph13	B-Ph14	B-Ph15	B-Ph16	

Term	0.00000e+00	0.00000e+00	0.00000e+00	0.00000e+00	0.00000e+00	0.00000e+00	0.00000e+00	0.00000e+00	0.00000e+00	0.00000e+00	0.00000e+00	0.00000e+00	0.00000e+00	0.00000e+00	0.00000e+00	0.00000e+00	0.00000e+00	0.00000e+00	0.00000e+00	0.00000e+00	0.00000e+00	0.00000e+00	0.00000e+00	0.00000e+00	0.00000e+00	0.00000e+00	0.00000e+00	0.00000e+00	0.00000e+00	0.00000e+00	0.00000e+00	0.00000e+00	-1.54582e+01	-1.31826e+02	-1.18987e+02	-1.83770e+02	-1.30688e+02	-8.11710e+01	-1.58254e+02	-1.62015e+02	4.03488e+00	-7.49322e+01	-1.70683e+02	-1.70651e+02	-1.78365e+02	-1.76938e+02	-7.39507e+01	-1.49895e+02	
Factor	3.55145e-05	9.56148e-05	2.78179e-05	1.65747e-01	1.12877e-06	1.04670e-06	1.79515e-01	5.89105e-02	1.19376e-06	1.16421e-06	9.76336e-02	3.40614e-02	3.16364e-02	1.08962e-02	1.16736e-06	1.55437e-02	9.88457e-07	1.01235e-06	2.82120e-07	8.20202e-02	1.10315e-08	1.10754e-08	8.33426e-02	2.89522e-02	1.10356e-08	1.10748e-08	4.58140e-02	1.59180e-02	1.53075e-02	5.26684e-03	1.10529e-08	7.23307e-03	X	X	X	X	X	X	X	X	X	X	X	X	X	X	X	X	



#DISTANCE SETTINGS
A = Detector Channel
A-1	A-2	A-3	A-4	A-5	A-6	A-7	A-8	A-9	A-10	A-11	A-12	A-13	A-14	A-15	A-16	

2.5000e+00	3.0000e+00	2.5000e+00	3.0000e+00	2.0000e+00	3.0000e+00	1.5000e+00	3.0000e+00	3.0000e+00	3.0000e+00	3.0000e+00	3.0000e+00	3.0000e+00	3.0000e+00	1.5000e+00	3.0000e+00	

B = Detector Channel
B-1	B-2	B-3	B-4	B-5	B-6	B-7	B-8	B-9	B-10	B-11	B-12	B-13	B-14	B-15	B-16	

1.0000e+01	1.0000e+01	1.0000e+01	1.4400e+00	1.0000e+01	1.0000e+01	1.5100e+00	1.9400e+00	1.0000e+01	1.0000e+01	1.9900e+00	2.4900e+00	2.4100e+00	2.9000e+00	1.0000e+01	2.9800e+00	




#DATA BEGINS
time	group	step	mark	flag	A-AC1	A-AC2	A-AC3	A-AC4	A-AC5	A-AC6	A-AC7	A-AC8	A-AC9	A-AC10	A-AC11	A-AC12	A-AC13	A-AC14	A-AC15	A-AC16	A-DC1	A-DC2	A-DC3	A-DC4	A-DC5	A-DC6	A-DC7	A-DC8	A-DC9	A-DC10	A-DC11	A-DC12	A-DC13	A-DC14	A-DC15	A-DC16	A-Ph1	A-Ph2	A-Ph3	A-Ph4	A-Ph5	A-Ph6	A-Ph7	A-Ph8	A-Ph9	A-Ph10	A-Ph11	A-Ph12	A-Ph13	A-Ph14	A-Ph15	A-Ph16	B-AC1	B-AC2	B-AC3	B-AC4	B-AC5	B-AC6	B-AC7	B-AC8	B-AC9	B-AC10	B-AC11	B-AC12	B-AC13	B-AC14	B-AC15	B-AC16	B-DC1	B-DC2	B-DC3	B-DC4	B-DC5	B-DC6	B-DC7	B-DC8	B-DC9	B-DC10	B-DC11	B-DC12	B-DC13	B-DC14	B-DC15	B-DC16	B-Ph1	B-Ph2	B-Ph3	B-Ph4	B-Ph5	B-Ph6	B-Ph7	B-Ph8	B-Ph9	B-Ph10	B-Ph11	B-Ph12	B-Ph13	B-Ph14	B-Ph15	B-Ph16	aux-1	digaux	

18123.377	1	1	0	768	0.046269	0.086839	0.10871	0.15284	0.034371	0.19314	0.1012	0.24965	0.18608	0.2153	0.086466	0.21392	0.10501	0.060059	0.15363	0.13823	-2.4604	-3.0438	-2.4604	-3.0062	-3	-2.4208	-3.3396	-2.5875	-2.8854	-2.975	-2.475	-3.1167	-2.9604	-2.5646	-3.1813	-2.6021	44.992	70.670	-6.490	-21.409	129.660	-27.943	28.909	20.357	-26.408	50.100	-67.827	-86.784	-90.919	251.335	-23.468	130.918	0.00069546	0.00057883	0.00046496	294.34	4.4434e-06	1.4704e-05	281.32	90.209	2.1464e-05	2.6129e-05	112.61	41.35	29.707	11.291	1.1455e-05	19.079	0.0059114	0.005701	0.0017908	828.7	6.4685e-05	6.1594e-05	827.97	272.8	6.2928e-05	6.0915e-05	400.26	137.25	113.97	40.078	6.7119e-05	61.381	62.467	94.158	137.607	-89.545	239.725	195.677	-89.856	-83.185	79.127	195.960	-85.812	-79.852	-79.059	-74.341	157.259	-75.912	-8191	255	
18123.473	1	1	0	0	0.31521	0.095141	0.095254	0.089083	0.1436	0.1588	0.16529	0.15747	0.11852	0.18351	0.23955	0.091954	0.13158	0.13399	0.18724	0.21183	-2.2521	-3.0604	-2.3625	-2.8417	-2.8646	-2.6312	-3.2083	-2.7875	-2.5875	-3.2	-2.6354	-2.9688	-3.0083	-2.4042	-3.1479	-2.5312	5.976	183.233	150.675	-72.239	11.503	163.187	-98.942	180.919	55.249	140.066	163.688	156.949	124.876	234.147	137.749	126.853	0.00042635	0.0028571	0.00058535	291.39	1.8898e-05	2.372e-05	286.98	91.749	6.0255e-06	2.5789e-05	113.94	41.813	29.396	11.233	1.6363e-05	19.257	0.0053856	0.0055277	0.0017421	788.71	6.0909e-05	6.2782e-05	836.86	269.84	6.2279e-05	6.5466e-05	414.29	139.3	116.14	43.339	7.1403e-05	63.146	113.594	176.076	221.929	-89.203	-44.632	207.391	-90.624	-83.612	67.027	220.146	-86.270	-80.799	-78.765	-74.959	56.279	-77.079	-8191	255	
18123.568	1	1	0	0	0.22808	0.12286	0.34685	0.25745	0.22362	0.15939	0.12893	0.15624	0.021109	0.11444	0.23455	0.06804	0.10718	0.23259	0.28236	0.10663	-2.2667	-3.2021	-2.3667	-2.825	-3.1333	-2.4583	-3.1562	-2.8438	-2.5167	-3.0563	-2.6875	-2.7104	-2.9958	-2.3458	-2.7687	-2.8812	-43.193	100.448	-101.440	197.272	212.899	16.919	2.535	92.944	201.828	86.391	-74.529	-86.652	0.320	86.100	-76.164	162.089	0.00020205	0.0020857	0.00063382	292.77	1.0407e-05	2.321e-05	288.15	91.449	1.6712e-05	4.0961e-05	114.48	41.79	29.16	11.194	1.9167e-05	19.55	0.0055627	0.0061815	0.0018232	801.19	6.2003e-05	6.8806e-05	844.18	270.22	6.2285e-05	6.9999e-05	411.12	138	115.39	44.895	6.8583e-05	61.321	146.728	132.900	-24.439	-88.799	-93.743	208.990	-90.639	-83.508	27.312	212.435	-85.234	-80.491	-79.137	-74.186	25.139	-76.367	-8191	255	
18123.664	1	1	0	0	0.20867	0.24918	0.26677	0.23828	0.22185	0.2422	0.25253	0.16166	0.23559	0.084141	0.08505	0.166	0.025937	0.26325	0.20354	0.19353	-2.0667	-3.1792	-2.5396	-2.7604	-2.9271	-2.6021	-3.1937	-2.9604	-2.6104	-3.2229	-2.7104	-2.7104	-3.2292	-2.3604	-3.0083	-3.0417	82.294	200.434	243.044	-89.190	185.029	-10.608	251.857	219.850	169.965	21.090	192.093	30.019	256.149	216.155	51.525	108.729	0.00053829	0.0025099	0.00070644	289.15	3.2399e-05	1.2147e-05	287.49	90.857	2.2382e-05	2.5061e-05	113.85	41.655	27.915	11.556	2.8749e-05	19.346	0.0053608	0.0062046	0.0016743	757.07	5.8292e-05	6.6068e-05	779.87	248.15	5.7018e-05	6.4778e-05	370.22	124.79	108.28	42.25	6.0216e-05	56.584	-86.152	165.614	-59.681	-89.391	133.632	232.728	-89.354	-83.775	-49.085	190.677	-85.546	-79.866	-78.611	-73.499	38.918	-75.349	-8191	255	
18123.762	1	1	0	0	0.25082	0.16319	0.087097	0.13824	0.32726	0.1784	0.16612	0.0676	0.093519	0.14711	0.14507	0.18771	0.18027	0.17864	0.22976	0.21411	-2.1104	-3.0146	-2.6688	-2.6	-3.125	-2.4771	-3.0167	-3.0604	-2.5479	-3.1479	-2.675	-2.6083	-3.025	-2.5479	-2.5771	-3.0812	-66.509	110.419	0.603	52.110	-63.502	-39.628	59.948	-2.762	-17.832	41.483	27.276	17.762	-92.324	-92.241	-6.927	52.715	0.0013325	0.00069379	0.00030029	289.4	2.1397e-05	2.7373e-05	285.74	90.441	3.2409e-05	6.8842e-06	113.93	41.793	28.22	11.747	9.5185e-06	19.32	0.005125	0.0058634	0.0015193	718.27	5.7752e-05	6.3423e-05	745.43	237.97	5.7545e-05	6.2289e-05	353.98	119.96	110.39	41.297	5.7071e-05	54.689	-101.452	-24.402	-43.856	-89.212	141.826	41.529	-90.144	-83.514	-52.026	-8.818	-85.366	-80.051	-78.692	-73.903	23.291	-76.085	-8191	255	
18123.857	1	1	0	0	0.075321	0.22588	0.032242	0.13331	0.1162	0.06179	0.23292	0.27762	0.1313	0.2626	0.18708	0.088831	0.25191	0.15788	0.24719	0.094677	-1.8438	-3.1396	-2.5521	-2.5229	-3.175	-2.5625	-2.8563	-2.9417	-2.575	-3.1375	-2.8521	-2.5375	-3.1146	-2.4917	-2.825	-2.9833	101.422	224.718	238.798	111.937	256.335	235.484	120.376	76.479	158.516	62.347	-44.600	168.043	-10.247	129.949	46.954	81.934	0.0008729	0.00056393	0.00019547	287.89	2.2996e-05	1.4166e-05	287.08	89.371	3.0978e-05	1.9582e-05	114.85	41.877	28.521	11.752	1.1762e-05	19.719	0.0052432	0.0055763	0.0014334	698.14	5.9266e-05	6.0515e-05	726.05	234.23	6.0245e-05	6.0654e-05	348.92	119.94	113.45	40.138	5.4682e-05	54.432	-101.596	88.391	-86.221	-89.048	165.293	10.415	-90.287	-83.630	-72.531	41.175	-85.879	-80.381	-78.822	-73.561	46.310	-76.278	-8191	255	
18123.977	1	1	0	0	0.037523	0.17866	0.10403	0.1286	0.063396	0.14042	0.23692	0.031168	0.24953	0.046444	0.24541	0.29508	0.13786	0.32023	0.069486	0.083736	-1.9438	-2.8688	-2.7229	-2.4646	-3.0479	-2.6813	-2.6437	-3.1792	-2.4604	-2.9583	-2.9146	-2.4375	-2.9833	-2.7292	-2.7771	-3.0417	61.323	103.701	-84.590	-73.486	237.288	-37.653	80.978	-54.492	-39.541	58.498	-26.266	97.627	49.775	-29.606	185.527	243.316	0.00068207	0.0010309	0.00023221	283.45	2.6124e-05	2.035e-05	289.23	90.371	3.5223e-06	1.6519e-05	116.23	41.712	29.846	12.041	8.8146e-06	19.513	0.0053234	0.0053017	0.0013707	696.53	5.9894e-05	5.691e-05	702.19	233.73	5.9404e-05	5.5983e-05	333.24	119.44	110.95	37.766	5.0038e-05	54.097	230.155	-12.851	6.413	-89.262	147.699	55.463	-89.968	-84.367	-93.487	-27.963	-85.367	-79.876	-78.664	-74.530	40.141	-76.634	-8191	255	
18124.072	1	1	0	0	0.16368	0.13395	0.19519	0.18316	0.1107	0.072303	0.24145	0.13173	0.068612	0.30157	0.17039	0.20385	0.097527	0.10429	0.069311	0.109	-2.0854	-2.6771	-2.9875	-2.4104	-3.0104	-2.4938	-2.6437	-3.1	-2.4938	-2.6542	-2.8354	-2.4625	-2.9958	-2.5958	-2.5146	-3.2042	71.239	21.153	238.029	-66.913	33.084	137.546	25.064	60.694	54.115	13.587	-90.095	-19.724	174.038	76.935	69.920	90.525	7.5196e-05	0.0016302	0.00017543	286.7	6.8762e-06	5.1243e-06	285.56	89.555	1.6362e-05	4.2299e-06	113.91	41.732	29.554	11.822	7.4329e-06	19.634	0.0049671	0.004681	0.0012077	671.42	5.2613e-05	4.8184e-05	635.24	219.16	4.9433e-05	4.5303e-05	290.89	109.76	95.956	32.913	4.0602e-05	50.059	140.687	-8.259	-88.357	-88.975	57.447	18.672	-90.257	-83.998	146.853	51.218	-85.398	-80.611	-77.547	-74.299	43.497	-75.896	-8191	255	
18124.170	1	1	0	0	0.21748	0.23314	0.057937	0.062406	0.1414	0.13508	0.11111	0.10566	0.16222	0.043945	0.12817	0.057755	0.12953	0.272	0.12017	0.12197	-2.0687	-2.8979	-2.8729	-2.3479	-3.0583	-2.7313	-2.4792	-3.2375	-2.4354	-2.7188	-3.0979	-2.3542	-3.0729	-2.8375	-2.4229	-3.0021	77.660	147.377	30.686	144.499	200.874	-31.274	21.123	172.800	174.138	-49.819	189.150	156.015	-17.679	20.513	-54.794	-76.253	0.00020541	0.0021223	0.00020092	288.07	1.2694e-05	5.6354e-06	287.35	91.456	5.7402e-06	2.0395e-05	113.55	42.244	29.63	12.145	1.6411e-05	19.894	0.0041174	0.0039235	0.0010292	644.88	4.5829e-05	4.2838e-05	609.84	218.17	4.5637e-05	4.3139e-05	290.88	112.88	94.681	32.86	4.2374e-05	52.28	-5.131	19.955	174.317	-89.733	-8.219	-17.388	-89.903	-83.411	92.678	45.598	-85.794	-80.215	-79.059	-73.379	200.989	-76.580	-8191	255	
18124.266	1	1	0	0	0.057696	0.20947	0.094858	0.32266	0.060547	0.14198	0.26712	0.31845	0.031476	0.34328	0.081918	0.3211	0.21528	0.09287	0.13555	0.33031	-2.1021	-2.5438	-3.0667	-2.5375	-2.8979	-2.8771	-2.3396	-3.0625	-2.7292	-2.6333	-3.1813	-2.4583	-2.9479	-2.9583	-2.5146	-3.0083	172.217	44.443	100.598	-74.741	237.056	194.509	187.035	215.781	227.053	64.117	-18.000	177.559	244.369	181.042	137.500	103.809	0.00012081	0.0003913	0.00048068	289.3	4.6811e-06	1.7767e-05	280.23	91.914	1.0098e-05	9.9704e-06	114.38	42.499	30.319	12.094	2.2305e-05	19.98	0.0041161	0.0039616	0.0011003	671.05	4.6405e-05	4.3687e-05	637.74	226.33	4.5914e-05	4.3349e-05	304.72	115.27	93.764	32.529	4.4556e-05	52.11	200.685	42.746	204.060	-89.219	220.117	-0.800	-90.409	-83.827	108.609	-12.676	-86.074	-79.555	-78.397	-73.645	204.630	-75.315	-8191	255	
18124.361	1	1	0	0	0.13187	0.14229	0.1576	0.29834	0.1315	0.056967	0.30359	0.1879	0.13974	0.15902	0.096895	0.26339	0.17273	0.14529	0.21277	0.13603	-2.3271	-2.4083	-3.0042	-2.3646	-2.8042	-3.1125	-2.6333	-3.0479	-2.7562	-2.7104	-3.1146	-2.5438	-2.6917	-3.1292	-2.5521	-3.0021	66.302	145.944	-53.095	-70.761	128.987	37.740	-77.269	102.886	202.138	-13.306	195.600	235.664	29.028	193.401	164.335	111.238	0.00017531	0.0015269	0.0008091	289.75	7.4227e-06	5.6168e-06	286.16	92.786	6.1331e-06	7.7181e-06	113	43.549	29.793	12.161	9.0558e-06	20.614	0.003907	0.0037111	0.0010965	640.3	4.1278e-05	3.8135e-05	619.22	209.34	3.8968e-05	3.6345e-05	286.51	102.76	81.697	28.662	3.7748e-05	45.261	-75.892	-7.696	178.907	-89.494	-35.599	160.691	-89.936	-83.148	44.067	229.402	-85.559	-79.685	-78.566	-73.661	-99.680	-75.355	-8191	255	
18124.457	1	1	0	0	0.13106	0.1559	0.26401	0.29644	0.13204	0.036722	0.31929	0.3815	0.12103	0.087527	0.18215	0.22411	0.22064	0.14069	0.31928	0.055146	-2.3917	-2.4938	-3.0083	-2.6854	-2.6833	-3.0167	-2.425	-3.0062	-2.6708	-2.5271	-2.9208	-2.3812	-2.6292	-3.0771	-2.4333	-3.0271	223.548	-19.886	256.060	195.078	-60.175	92.611	219.660	214.962	-34.026	-20.336	243.559	-72.836	-33.687	68.057	-21.169	-37.351	0.00013472	0.00031252	0.00020873	290.23	8.4583e-06	1.8225e-05	286.05	92.759	9.9757e-06	1.5878e-05	116.23	43.627	30.573	11.951	3.3289e-06	20.483	0.0030414	0.002932	0.00092125	566.28	3.2522e-05	3.0995e-05	567.7	183.68	3.0225e-05	2.9418e-05	258.16	89.013	70.243	25.83	3.1135e-05	40.014	15.771	94.591	157.299	-88.698	-42.592	209.819	-89.610	-83.118	135.260	192.169	-85.248	-78.688	-77.707	-72.949	-99.145	-75.008	-8191	255	
18124.555	1	1	0	0	0.10188	0.16931	0.060861	0.090924	0.10462	0.14385	0.171	0.14613	0.055914	0.072079	0.065459	0.20549	0.20928	0.17755	0.1321	0.15012	-2.5833	-2.4146	-2.9958	-2.775	-2.6875	-3.1437	-2.5	-2.8563	-2.9125	-2.3354	-3.0812	-2.6813	-2.6083	-3.2083	-2.4917	-2.725	223.174	50.271	182.686	-69.080	150.894	-89.186	59.491	154.449	254.070	177.177	-21.216	-64.204	179.848	174.651	214.930	114.895	0.00027806	0.00088447	0.00016471	291.68	6.0006e-06	1.2144e-05	291.71	93.214	4.637e-06	1.0663e-05	118.63	44.155	30.339	12.025	6.7863e-06	20.579	0.0024113	0.0024967	0.00077364	514.57	2.6177e-05	2.7286e-05	534.44	170.81	2.5765e-05	2.7581e-05	247.29	85.572	67.186	26.008	2.986e-05	39.512	-35.772	128.809	20.811	-88.386	197.410	160.758	-89.383	-82.889	124.656	183.074	-84.712	-79.081	-77.683	-73.130	56.148	-75.524	-8191	255	
18124.672	1	1	0	0	0.35677	0.16888	0.1221	0.24671	0.12705	0.15515	0.26286	0.17448	0.18797	0.1922	0.095184	0.13798	0.15818	0.10349	0.30091	0.21569	-2.6479	-2.3479	-2.9542	-2.7333	-2.5729	-3.1937	-2.4625	-2.8583	-2.9813	-2.325	-2.9771	-2.8146	-2.4188	-3.0958	-2.6229	-2.6292	116.570	47.731	-80.397	-35.388	45.507	52.736	-54.602	107.705	-62.798	183.131	20.689	-67.632	62.477	145.756	234.194	24.337	0.00039137	0.0019074	0.00031888	292.07	6.6905e-06	8.3032e-06	294.16	93.68	9.6606e-06	1.6046e-05	120.46	43.964	30.471	12.101	2.0181e-05	20.932	0.0023383	0.0026549	0.00077413	516.45	2.6466e-05	2.9705e-05	538.86	172.49	2.6471e-05	3.0107e-05	250.63	86.676	68.955	27.294	3.0084e-05	39.985	20.511	135.950	-74.380	-88.523	217.845	168.367	-89.580	-82.593	-28.029	218.203	-84.612	-79.159	-78.265	-72.897	36.399	-74.847	-8191	255	
18124.770	1	1	0	0	0.16074	0.14871	0.32752	0.13335	0.099553	0.17366	0.19146	0.11654	0.10955	0.1297	0.14548	0.019302	0.19963	0.031452	0.22127	0.20693	-2.6042	-2.4479	-2.9854	-2.7333	-2.3292	-3.2479	-2.6479	-2.8438	-2.9854	-2.2875	-2.9229	-3.0375	-2.5021	-3.2958	-2.7125	-2.5667	-38.490	231.881	-50.385	163.090	35.355	73.786	206.118	97.638	-16.722	162.635	242.606	51.440	-99.760	-52.108	-95.875	69.658	0.00035764	0.00027676	0.00061219	292.29	1.429e-05	8.9651e-06	293.69	94.052	1.2089e-05	2.0368e-06	122.13	44.464	30.404	12.293	1.4825e-05	20.598	0.0024478	0.0028615	0.00077988	521.82	2.8102e-05	3.2104e-05	542.8	174.19	2.8508e-05	3.2491e-05	251.54	86.788	71.841	28.281	3.0451e-05	39.991	-73.656	220.227	20.305	-88.103	132.480	237.087	-88.325	-82.394	245.543	-60.730	-85.113	-79.283	-78.192	-73.603	51.475	-75.510	-8191	255	
18124.865	1	1	0	0	0.28714	0.31954	0.14669	0.29399	0.10895	0.15517	0.272	0.2322	0.057494	0.16399	0.31386	0.20981	0.17442	0.24268	0.30857	0.16821	-2.6333	-2.6521	-2.8771	-2.8396	-2.4271	-2.9917	-2.825	-2.7333	-3.0417	-2.6854	-2.8792	-2.9792	-2.3812	-2.9729	-2.8146	-2.5083	124.300	201.459	212.110	126.116	63.840	218.394	201.444	231.115	151.892	43.133	-57.172	83.260	199.465	-95.910	146.786	163.827	0.00065749	0.00079357	0.00030337	294.65	1.6101e-05	3.4718e-06	293.38	93.932	2.0051e-05	1.6751e-05	120.93	43.877	30.589	12.277	1.34e-05	20.486	0.0026736	0.0030412	0.00079411	523.9	3.0706e-05	3.3637e-05	544.76	175.93	3.1891e-05	3.409e-05	256.25	88.661	77.274	29.16	3.2207e-05	41.088	249.768	1.521	-18.357	-88.614	159.568	109.420	-89.578	-83.268	-72.352	36.885	-85.711	-79.638	-77.588	-73.461	34.230	-75.310	-8191	255	
18124.938	1	1	0	0	0.060574	0.022125	0.19756	0.12758	0.2917	0.050435	0.088289	0.16945	0.25367	0.042727	0.059648	0.19409	0.33547	0.14821	0.29728	0.13707	-2.8063	-2.3354	-2.7229	-3.0125	-2.4021	-3.0208	-2.8104	-2.5896	-3.2646	-2.5229	-2.7083	-3.0979	-2.3792	-3.0187	-2.9479	-2.5229	137.467	-40.679	201.907	-54.758	160.412	-5.657	80.101	-61.780	-67.994	199.978	-1.216	180.544	-10.685	206.140	-27.897	-25.822	0.00069065	0.00075712	0.00030133	295.62	1.4797e-05	1.5445e-05	292.03	93.816	9.0206e-06	1.8295e-05	119.43	43.26	30.619	12.313	1.7455e-05	20.595	0.0030488	0.0032179	0.00084389	542.69	3.5458e-05	3.6185e-05	563.05	184.3	3.7241e-05	3.7118e-05	268.76	94.514	85.886	30.958	3.6266e-05	44.456	-81.292	19.518	-67.741	-88.981	175.279	7.154	-89.368	-83.472	-54.255	-16.611	-84.537	-79.844	-78.345	-72.889	55.186	-76.989	-8191	255	
18125.057	1	1	0	0	0.076692	0.17358	0.24223	0.1438	0.033084	0.22767	0.29242	0.10819	0.13532	0.19684	0.086391	0.058502	0.25441	0.080789	0.095424	0.098648	-2.6792	-2.5792	-2.5938	-2.9146	-2.4167	-3.1542	-2.7792	-2.4875	-2.8708	-2.5229	-2.4521	-3.0583	-2.5521	-2.9083	-2.8479	-2.6479	251.900	86.257	214.655	80.500	33.707	-18.285	205.009	-38.222	-70.964	53.651	7.524	164.125	179.255	0.495	-73.088	181.522	0.00043262	0.002336	0.00050431	292.88	9.8976e-06	7.206e-06	294.69	93.527	8.3124e-06	8.2995e-06	120.67	43.412	30.722	12.427	1.3735e-05	20.508	0.0036704	0.0036396	0.00095826	587.96	4.2434e-05	4.0792e-05	595.09	201.19	4.3703e-05	4.1373e-05	285.38	103.71	93.431	32.545	3.9114e-05	48.08	-36.241	-52.040	-18.831	-88.869	164.853	7.529	-89.368	-84.249	112.214	-40.090	-85.625	-80.028	-78.958	-74.006	-1.329	-75.721	-8191	255	
18125.152	1	1	0	0	0.090603	0.19055	0.24827	0.15595	0.20495	0.27006	0.13216	0.22592	0.060254	0.39643	0.029646	0.12915	0.05875	0.10435	0.036447	0.048024	-2.5875	-2.5938	-2.5604	-3.0042	-2.5625	-2.7438	-3.1667	-2.4188	-2.8833	-2.875	-2.6188	-3.0083	-2.6125	-2.5917	-2.9833	-2.5146	-48.799	-4.745	-31.206	36.142	27.238	-91.681	142.684	20.083	169.586	241.806	125.985	250.212	128.758	89.395	-48.891	176.825	0.00041553	0.00094835	0.0002163	290.46	7.5168e-06	1.6324e-06	285.88	92.708	1.5882e-05	1.4072e-05	117.59	42.624	30.858	12.049	6.9009e-06	19.768	0.0040245	0.003835	0.0010029	621.94	4.5263e-05	4.289e-05	603.75	213.01	4.5408e-05	4.2072e-05	282.52	106.33	91.3	31.727	3.7811e-05	48.323	147.928	-23.087	-62.627	-88.933	-46.593	-40.128	-89.392	-83.197	96.122	17.836	-86.039	-80.002	-78.737	-73.146	202.916	-76.942	-8191	255	
18125.248	1	1	0	0	0.19442	0.18402	0.17763	0.25922	0.19123	0.091185	0.31617	0.10448	0.090394	0.19217	0.26961	0.22595	0.13579	0.2586	0.10309	0.41305	-2.7271	-2.7854	-2.4146	-3.0979	-2.5604	-2.7188	-2.9	-2.5021	-2.8417	-2.875	-2.4437	-3.1854	-2.6292	-2.4688	-3.1292	-2.6042	115.467	252.980	56.335	-67.575	117.094	161.390	-64.899	144.531	-99.529	11.919	33.891	185.363	-15.217	109.838	167.819	228.904	0.0003118	0.0016113	0.00011622	288.37	6.4854e-06	1.9458e-05	282.43	91.783	2.4044e-05	1.2532e-05	114.71	42.115	30.262	11.983	1.2716e-05	20.046	0.0038444	0.0036811	0.00097835	628.65	4.315e-05	4.0801e-05	592.34	212.83	4.3068e-05	4.0509e-05	283.2	109.3	91.151	31.774	4.0394e-05	50.237	50.628	1.925	164.186	-88.514	-79.641	14.220	-89.631	-83.867	50.309	2.722	-85.779	-79.720	-78.811	-73.381	183.604	-75.941	-8191	255	
18125.369	1	1	0	0	0.17997	0.095168	0.33925	0.10347	0.25391	0.15552	0.047785	0.13979	0.047033	0.12728	0.13973	0.12731	0.24761	0.10984	0.095225	0.098212	-2.4604	-2.7938	-2.4146	-3.1146	-2.7042	-2.6771	-3.1188	-2.4583	-2.9104	-3.0792	-2.4875	-3.1792	-2.7729	-2.4625	-3.1542	-2.4313	147.793	-72.040	-47.666	38.334	9.283	-5.975	152.719	156.036	159.277	151.720	5.788	-65.526	36.150	-4.974	71.842	90.368	0.00049624	0.00077442	0.00046723	288.95	1.8725e-05	1.7378e-05	281.88	92.09	1.6927e-05	3.0495e-05	115.16	42.565	29.656	12.094	2.4601e-05	19.841	0.0038749	0.0036953	0.0010349	641.05	4.232e-05	4.0269e-05	612.44	217.79	4.3468e-05	4.0629e-05	296.17	111.05	91.103	31.603	4.3159e-05	50.276	39.119	242.350	226.132	-88.622	-2.463	28.259	-89.943	-83.640	77.197	21.218	-85.432	-79.746	-78.689	-73.744	193.619	-75.641	-8191	255	
18125.467	1	1	0	0	0.20961	0.1325	0.1915	0.27252	0.34085	0.023295	0.17909	0.17769	0.15046	0.20803	0.059682	0.12023	0.12954	0.11785	0.14492	0.27075	-2.2896	-2.9417	-2.2708	-3.0396	-2.625	-2.55	-3.1521	-2.6375	-2.5812	-2.9479	-2.4813	-3.0958	-2.7833	-2.3812	-3.1542	-2.5292	25.702	56.439	63.634	-100.642	244.007	252.048	212.508	-88.899	0.206	176.653	55.091	107.493	171.473	2.710	51.396	177.748	0.00058985	0.0016572	0.0006617	287.44	6.0177e-06	9.0621e-06	282.67	93.337	1.0685e-05	9.7985e-06	114.91	42.92	29.593	11.746	1.4097e-05	19.71	0.0038114	0.0036208	0.0010945	637.45	4.148e-05	3.9141e-05	626.08	212.67	4.1368e-05	3.8739e-05	300.17	108.09	88.181	30.98	4.4482e-05	49.103	236.784	254.512	163.529	-88.824	21.012	-19.091	-89.801	-82.897	70.097	225.761	-85.362	-78.873	-78.206	-72.844	213.181	-75.908	-8191	255	
18125.537	1	1	0	0	0.24506	0.18205	0.18585	0.13752	0.08546	0.1366	0.12177	0.14599	0.14326	0.14833	0.037097	0.1165	0.25387	0.023708	0.038317	0.248	-2.3417	-3.0229	-2.175	-3.1021	-2.7354	-2.4688	-3.325	-2.6083	-2.7229	-3.1771	-2.6229	-2.9813	-2.8479	-2.3333	-3.2625	-2.6979	66.197	-41.081	149.891	178.577	34.203	184.425	-66.034	-82.408	104.085	-86.773	57.370	181.282	135.216	101.792	170.908	61.261	0.00031031	0.0012103	0.00034218	285.35	1.4979e-05	1.9968e-05	280.9	91.902	6.4251e-06	1.671e-05	113.69	42.172	29.444	11.512	8.3051e-06	19.597	0.0037018	0.0036029	0.0011423	629	4.064e-05	3.9557e-05	633.68	208.01	3.9815e-05	3.9045e-05	299.78	103.71	84.716	30.68	4.3958e-05	47.177	119.869	190.510	135.898	-88.756	8.169	203.625	-89.626	-83.263	63.815	212.231	-84.863	-79.827	-78.298	-74.182	50.251	-75.603	-8191	255	
18125.658	1	1	0	0	0.1135	0.20017	0.13815	0.10916	0.10152	0.2972	0.31041	0.16127	0.37113	0.27377	0.049977	0.14406	0.041065	0.27485	0.23937	0.28325	-2.2729	-2.9958	-2.4417	-2.7438	-2.9875	-2.6417	-3.1104	-2.7896	-2.675	-3.1542	-2.4292	-2.8396	-2.8833	-2.3104	-3	-2.8875	208.560	74.288	73.484	73.048	160.456	23.841	117.652	209.467	-10.821	78.699	252.434	-73.658	-57.697	137.122	178.702	252.470	0.00032359	0.0016526	0.00038427	286.77	5.9949e-06	1.9755e-05	279.61	91.261	9.6797e-06	2.7845e-05	114.71	41.94	29.665	11.465	1.6153e-05	19.401	0.0034848	0.0036566	0.001128	612.32	3.8854e-05	4.087e-05	635.4	205.81	3.9126e-05	4.1971e-05	303.35	103.46	83.995	32.062	4.4287e-05	46.964	71.882	151.319	-14.892	-88.709	-16.984	182.300	-89.663	-83.633	91.331	200.757	-85.496	-80.170	-78.436	-73.899	53.725	-75.303	-8191	255	
18125.754	1	1	0	0	0.012829	0.10579	0.16209	0.2024	0.086726	0.26073	0.26724	0.077022	0.30113	0.24283	0.098602	0.029481	0.37842	0.24547	0.095126	0.028692	-2.2125	-3.1312	-2.5271	-2.8063	-3.1583	-2.3292	-3.2167	-2.8417	-2.5083	-3.2229	-2.5521	-2.8396	-3.1562	-2.4854	-3.1583	-3.0542	106.981	15.513	97.646	196.911	157.508	106.600	247.093	193.149	17.756	-80.625	211.801	-23.626	142.727	-15.194	232.842	94.357	0.00021773	0.001839	0.00027533	286.51	1.2073e-05	1.8779e-05	282.43	91.267	1.3576e-05	9.7251e-06	113.36	42.006	28.99	11.424	1.6284e-05	19.284	0.0034495	0.0039195	0.0011247	609.22	3.8935e-05	4.3782e-05	634.02	205.07	3.9792e-05	4.5501e-05	306.5	105.22	87.228	34.206	4.611e-05	48.087	8.931	152.049	23.215	-88.978	86.380	167.301	-89.244	-82.645	-25.388	187.396	-85.166	-79.540	-77.906	-73.706	47.888	-75.466	-8191	255	
18125.850	1	1	0	0	0.14662	0.11081	0.18392	0.16003	0.25997	0.30981	0.12799	0.1603	0.0084063	0.082337	0.17899	0.15406	0.10701	0.14862	0.063495	0.2807	-2.1792	-3.025	-2.8063	-2.6917	-3.2375	-2.5729	-2.9333	-2.9208	-2.4604	-3.0208	-2.7229	-2.65	-3.1333	-2.4396	-2.9854	-3.1646	45.744	32.282	63.291	156.120	-74.738	108.611	227.142	-66.583	62.097	-14.417	160.319	30.925	-0.745	149.153	-0.076	117.209	0.00089873	0.0014419	0.00051757	284.99	1.2191e-05	1.2198e-05	280.7	90.476	1.5235e-05	1.1231e-05	113.14	40.795	28.623	11.551	2.0982e-05	19.106	0.0037564	0.0043752	0.0011766	623.31	4.2668e-05	4.8831e-05	652.05	210.35	4.4014e-05	4.9713e-05	312.15	106.84	93.21	36.113	4.8319e-05	49.29	-99.861	123.951	-6.570	-88.229	185.678	192.014	-89.439	-82.934	-76.124	160.192	-85.019	-79.926	-78.600	-72.969	36.174	-75.209	-8191	255	
18125.971	1	1	0	0	0.11816	0.080074	0.21091	0.17994	0.055125	0.20757	0.21648	0.11924	0.15937	0.18565	0.19385	0.18417	0.21629	0.066268	0.17973	0.20178	-2.1104	-3.0042	-2.7854	-2.4604	-3.1562	-2.4021	-2.8521	-3.1146	-2.5667	-3.1583	-2.8667	-2.4604	-2.9646	-2.3271	-2.7896	-3.0708	252.903	248.162	10.281	73.839	-51.280	217.073	164.706	114.262	-31.181	104.007	-80.993	89.790	230.027	-7.294	-87.265	-55.405	0.00078476	0.00090387	0.0004502	286.53	2.611e-05	1.1165e-05	276.99	90.426	1.2398e-05	2.2229e-05	112.83	40.367	28.287	11.382	1.6967e-05	18.683	0.0042609	0.0048074	0.0012618	645.37	4.9618e-05	5.3632e-05	676.28	218.58	5.1386e-05	5.4846e-05	328.04	111.49	103.62	38.24	5.2321e-05	51.516	-100.829	239.059	-25.104	-88.707	128.815	101.963	-89.824	-82.908	-96.497	22.519	-85.587	-79.631	-77.362	-73.613	20.837	-75.659	-8191	255	
18126.066	1	1	0	0	0.20093	0.015582	0.13844	0.40288	0.14058	0.18164	0.25915	0.19419	0.175	0.26714	0.046341	0.13217	0.11577	0.16441	0.089581	0.078935	-2.0563	-3.1	-2.8354	-2.5021	-3.1104	-2.6021	-2.8979	-3.1979	-2.475	-3.1042	-2.8083	-2.7458	-3.0375	-2.4583	-2.7167	-3.0812	-83.082	92.082	87.993	-17.337	108.871	18.975	217.330	166.632	87.100	236.013	246.784	64.749	-44.218	-47.048	209.834	237.851	0.00061154	0.0020998	0.00019008	279.03	1.7664e-05	4.9067e-06	274.35	88.977	2.0487e-05	1.5431e-05	110.36	40.06	28.308	11.478	2.8576e-05	18.675	0.0048968	0.0051406	0.0013465	671.47	5.6739e-05	5.7407e-05	700.7	229.93	5.8961e-05	5.8779e-05	342.75	118.51	113.39	39.798	5.5383e-05	55.072	226.947	-76.199	45.932	-88.736	155.108	-38.488	-89.037	-83.445	-55.106	17.763	-84.928	-80.720	-77.662	-73.092	3.611	-76.687	-8191	255	
18126.162	1	1	0	0	0.07755	0.055553	0.17317	0.12368	0.20806	0.19046	0.16336	0.13502	0.27508	0.21373	0.1258	0.2061	0.1722	0.070194	0.37536	0.027609	-2.1604	-2.7875	-2.9833	-2.4271	-3.1188	-2.5667	-2.8146	-3.0167	-2.4458	-2.9396	-3.0708	-2.3458	-3.0854	-2.6813	-2.6437	-3.1708	86.069	-50.811	258.034	156.807	108.841	93.528	154.635	-96.304	152.480	90.932	66.785	85.693	179.365	-47.625	-52.706	-75.851	0.00066105	0.0025902	0.0002028	279.61	1.6706e-05	2.5762e-05	275.39	88.818	6.7214e-06	2.121e-05	110.37	39.541	28.85	11.438	8.5243e-06	18.553	0.0055194	0.0054734	0.0014357	718.09	6.3962e-05	6.1335e-05	730.03	249.92	6.6487e-05	6.333e-05	358.37	129.76	121.74	41.348	5.781e-05	59.203	-73.031	0.814	-20.202	-88.842	113.880	12.630	-90.363	-83.283	-68.772	-4.599	-84.876	-80.478	-77.835	-73.308	99.864	-77.024	-8191	255	
18126.234	1	1	0	0	0.53653	0.027229	0.092585	0.1826	0.11257	0.27576	0.31955	0.076306	0.043693	0.09823	0.14803	0.13085	0.10113	0.15955	0.28326	0.1174	-2.0625	-2.8229	-2.9604	-2.3771	-3.0292	-2.9458	-2.6	-3.0917	-2.3729	-2.7646	-3.1521	-2.4271	-3.0062	-2.8312	-2.5542	-3.25	88.949	28.837	156.507	-72.954	-78.073	220.931	229.931	177.833	221.226	-94.407	155.807	245.973	101.052	-67.698	120.065	40.411	0.00010671	0.0007436	5.7162e-05	279.65	1.4683e-05	1.188e-05	275.44	86.56	2.3507e-05	2.5281e-05	109.77	40.217	28.951	11.469	6.1083e-06	18.479	0.0057964	0.0055546	0.0014416	749.29	6.4517e-05	6.0411e-05	714.9	253.82	6.3026e-05	5.9506e-05	343.79	130.57	116.32	39.611	5.5013e-05	60.098	216.070	-21.379	70.270	-88.794	-62.406	11.321	-89.645	-83.625	136.816	49.048	-85.862	-79.604	-78.500	-73.734	23.350	-76.244	-8191	255	
18126.354	1	1	0	0	0.35954	0.10875	0.067259	0.19555	0.10733	0.031004	0.05426	0.054396	0.17975	0.098844	0.059279	0.16618	0.16457	0.058605	0.1432	0.19675	-2.3312	-2.7771	-3.1437	-2.5708	-3.0833	-2.9229	-2.4521	-3.2083	-2.4708	-2.7625	-3.0312	-2.525	-2.9146	-2.95	-2.6396	-3.0833	222.470	16.898	252.500	175.251	244.434	-100.292	121.113	223.482	212.692	97.957	32.374	214.307	225.884	-8.179	210.811	64.098	0.00071098	0.00093526	0.00025363	276.53	1.7759e-05	1.5218e-05	272.96	88.657	3.2313e-06	2.3772e-05	110.11	39.388	28.917	11.615	2.4134e-05	18.781	0.005565	0.0053612	0.0014225	765.67	6.2101e-05	5.8099e-05	711.37	259.57	6.123e-05	5.7977e-05	348.38	134.05	115.05	39.333	5.7482e-05	62.121	61.519	-34.650	211.828	-89.251	-55.113	-4.822	-90.150	-83.535	180.362	26.502	-85.274	-80.078	-78.047	-73.802	209.330	-76.156	-8191	255	
18126.449	1	1	0	0	0.15923	0.11554	0.17147	0.31556	0.22341	0.32827	0.11301	0.12006	0.1606	0.092149	0.067518	0.17678	0.23166	0.11563	0.27495	0.18237	-2.0333	-2.6396	-3.0833	-2.3521	-2.7917	-3.0167	-2.475	-3.1208	-2.5667	-2.6146	-3.2042	-2.5187	-2.7917	-2.8292	-2.3771	-3.2521	82.257	38.217	114.271	22.742	89.340	165.864	-53.945	-17.299	150.062	2.472	102.110	144.939	-24.436	31.150	83.128	239.528	0.00040012	0.0018998	0.0007596	278.6	1.4946e-05	2.1075e-05	271.14	89.912	1.5527e-05	6.8399e-06	107.52	40.793	28.975	11.508	2.6976e-05	18.926	0.0055287	0.005321	0.0014993	783.97	6.156e-05	5.7526e-05	741.95	266.68	6.2073e-05	5.9153e-05	374.77	140.97	120.21	41.074	6.6635e-05	66.052	86.038	-34.521	174.349	-88.494	18.784	33.389	-90.510	-83.974	52.039	71.053	-85.753	-79.816	-78.715	-74.118	216.454	-76.150	-8191	255	
18126.547	1	1	0	0	0.14642	0.10921	0.16133	0.26002	0.088437	0.13221	0.14859	0.20278	0.24628	0.043531	0.10549	0.22745	0.087061	0.026095	0.20395	0.36973	-2.3521	-2.5292	-3.1479	-2.6917	-2.85	-3.2167	-2.6021	-3.0625	-2.8042	-2.6083	-3.2042	-2.425	-2.5625	-2.9	-2.3771	-3.125	22.512	177.490	174.823	-77.073	124.110	214.719	180.460	255.634	76.633	236.447	156.495	40.704	-71.605	229.356	-25.755	-54.762	0.00036901	0.00051195	0.00085208	282.48	1.8645e-05	1.4002e-05	274.26	89.409	5.6025e-06	1.4286e-05	108.29	40.301	28.909	11.231	2.0043e-05	18.957	0.0059357	0.0056623	0.0017276	821.84	6.6464e-05	6.2313e-05	812.67	279.28	6.5752e-05	6.2236e-05	405.28	143.53	121.13	41.598	7.0856e-05	65.791	80.071	11.907	163.753	-88.483	-2.376	-0.477	-90.528	-83.357	131.161	162.074	-85.725	-80.155	-78.480	-73.322	193.529	-75.915	-8191	255	
18126.643	1	1	0	0	0.10787	0.15834	0.12879	0.17739	0.011273	0.12827	0.056895	0.13298	0.081189	0.079173	0.40974	0.13937	0.17445	0.04157	0.1722	0.13808	-2.3521	-2.3667	-3.0458	-2.6729	-2.7208	-3.0646	-2.4354	-2.9625	-2.8875	-2.5625	-3.0417	-2.6813	-2.5896	-3.075	-2.5271	-2.9625	256.275	241.566	-43.756	225.464	195.148	139.514	114.330	140.480	-11.367	73.530	162.616	86.786	-84.616	44.834	122.563	233.513	0.00050337	0.0011972	0.00049155	285.83	2.3458e-05	2.5935e-06	272.21	89.009	1.9372e-05	2.0823e-05	108.48	40.517	28.939	11.045	6.7585e-06	18.663	0.0059409	0.0058589	0.0018525	819.67	6.5271e-05	6.338e-05	827.89	272.01	6.3142e-05	6.2308e-05	403.63	136.99	115.63	41.698	6.9762e-05	62.639	83.969	132.581	131.379	-88.778	-20.435	87.466	-89.789	-83.269	127.343	214.896	-86.016	-79.725	-78.234	-74.305	149.721	-75.795	-8191	255	
18126.762	1	1	0	0	0.10517	0.047724	0.21846	0.20039	0.081531	0.15164	0.11974	0.15585	0.049594	0.14094	0.11815	0.24021	0.058314	0.14305	0.19671	0.23367	-2.4625	-2.45	-3.1354	-2.7438	-2.5312	-3.1688	-2.6625	-3.0271	-2.8563	-2.4	-3.0646	-2.7604	-2.6979	-3.0875	-2.6104	-2.8146	184.334	169.209	123.244	-23.662	144.421	-81.269	-15.483	-72.329	168.801	122.853	-96.707	126.746	-49.737	-61.674	-49.021	206.355	0.0004517	0.0034866	0.0002539	284.14	5.7284e-06	2.3855e-05	272.56	88.515	1.6102e-05	2.6805e-05	109.45	40.584	28.46	10.991	1.9987e-05	18.866	0.0055057	0.0058157	0.0017776	781.24	6.0694e-05	6.4035e-05	810.86	262.72	5.9638e-05	6.3993e-05	393.98	131.82	109.53	41.685	6.4587e-05	59.161	142.437	157.579	49.422	-88.185	60.151	210.127	-89.361	-83.527	-3.364	222.058	-84.845	-79.505	-78.287	-73.524	23.943	-75.611	-8191	255	
18126.836	1	1	0	0	0.22661	0.21867	0.17458	0.3227	0.053559	0.19999	0.10697	0.1274	0.12688	0.14416	0.24499	0.16906	0.13328	0.13542	0.096438	0.3214	-2.5354	-2.1312	-3.0979	-2.6958	-2.6083	-3.0979	-2.55	-2.625	-2.875	-2.2646	-2.9375	-2.6708	-2.4167	-3.3833	-2.6479	-2.6688	102.118	23.095	244.322	204.128	-79.328	229.702	204.505	93.161	86.415	109.464	156.354	194.455	-49.953	-7.952	30.765	103.613	0.00015127	0.002998	0.00028109	283.77	1.1795e-05	2.3426e-05	275.6	89.299	1.8384e-05	2.1531e-05	114.42	41.401	28.166	11.26	1.5575e-05	19.029	0.005035	0.0057117	0.0016398	741.81	5.6457e-05	6.3752e-05	777.85	251.83	5.742e-05	6.5238e-05	384.07	130.48	111.15	43.936	6.5433e-05	59.815	-75.519	126.714	19.459	-88.438	6.396	192.312	-89.390	-83.469	-60.634	188.437	-85.121	-80.190	-78.205	-73.672	9.547	-77.082	-8191	255	
18126.932	1	1	0	0	0.36529	0.057301	0.10713	0.39391	0.12878	0.13358	0.10123	0.16824	0.099881	0.17381	0.10837	0.13068	0.015168	0.10878	0.26171	0.15508	-2.9417	-2.5312	-2.8875	-2.8833	-2.3333	-3.1479	-2.7375	-2.7458	-3.2292	-2.5167	-2.9458	-2.8375	-2.4562	-2.8812	-2.6688	-2.7354	65.556	-9.864	188.619	-60.621	257.815	88.761	22.036	77.921	-76.950	63.071	113.054	-90.504	43.288	121.974	121.029	65.768	0.00085787	0.0013362	0.00055905	284.14	2.6963e-05	8.5033e-06	283.53	88.751	3.9137e-05	9.021e-06	113.18	41.066	28.083	11.559	3.6838e-06	19.307	0.0052955	0.0060945	0.0016327	736.31	5.8148e-05	6.5033e-05	756.45	242.18	5.6398e-05	6.2418e-05	358.85	120.22	105.66	40.42	5.5381e-05	53.377	-96.044	147.935	-51.350	-88.998	126.729	234.635	-89.949	-83.939	-70.679	159.136	-85.104	-79.294	-78.546	-73.524	-38.981	-75.450	-8191	255	
18127.051	1	1	0	0	0.12892	0.20599	0.077167	0.038998	0.21383	0.11727	0.10409	0.10718	0.037475	0.13145	0.14421	0.032751	0.047459	0.13193	0.053764	0.045898	-2.9125	-2.475	-2.9229	-2.8979	-2.4688	-3.0438	-2.9146	-2.6229	-3.1771	-2.4688	-2.9625	-2.9437	-2.5229	-3.0854	-2.9271	-2.6958	-26.446	-7.642	218.739	-38.907	-85.074	55.724	238.290	-21.540	191.286	-21.274	47.418	-99.242	99.498	174.796	179.830	138.165	0.00097442	0.00046223	7.1649e-05	280.66	2.1325e-05	2.2076e-05	280.79	87.95	2.8551e-05	2.3216e-05	113.78	40.473	27.396	11.58	1.2808e-05	19.5	0.0047808	0.0052513	0.0013653	661.2	5.2156e-05	5.5333e-05	675.23	215.16	5.0631e-05	5.2776e-05	320.49	108.55	99.067	36.551	4.789e-05	49.463	-84.446	165.092	-6.995	-88.527	133.064	3.710	-89.381	-82.726	-73.439	51.434	-84.161	-79.432	-78.556	-73.786	131.867	-75.559	-8191	255	
18127.146	1	1	0	0	0.10337	0.082642	0.15011	0.14017	0.22853	0.028551	0.052315	0.065142	0.015654	0.24124	0.099689	0.15931	0.084398	0.022906	0.19988	0.079252	-2.6875	-2.4938	-2.6937	-3.0417	-2.4292	-2.9062	-2.9354	-2.5479	-3.0833	-2.5292	-2.6604	-2.9437	-2.4167	-3.0375	-2.8937	-2.4938	117.397	16.220	55.126	-28.979	150.123	68.584	82.161	-38.432	102.708	70.728	52.893	-61.434	-4.038	60.325	256.736	-41.428	0.00060568	0.0012722	0.0002556	281.69	1.5137e-05	1.6109e-05	283.73	88.062	7.5898e-06	1.743e-05	114.23	40.814	28.596	11.664	1.5533e-05	19.161	0.0045083	0.0046347	0.0012139	630.35	5.0575e-05	5.0893e-05	656.81	213.83	5.2129e-05	5.0903e-05	314.66	109.95	102.28	36.205	4.7234e-05	50.529	254.276	-12.709	-9.086	-88.618	157.725	63.781	-89.764	-83.940	-59.092	29.782	-84.876	-79.892	-77.941	-73.731	5.088	-76.590	-8191	255	
18127.242	1	1	0	0	0.073886	0.12518	0.1183	0.099468	0.1343	0.16059	0.057488	0.34095	0.23585	0.33961	0.076658	0.020757	0.08617	0.36525	0.071218	0.1354	-2.8438	-2.6854	-2.6188	-3.15	-2.5167	-2.8667	-2.9104	-2.3875	-3.1583	-2.8354	-2.6396	-3.1604	-2.5146	-2.9688	-2.9021	-2.4354	206.061	113.678	250.756	251.355	148.044	179.579	170.584	242.427	-24.163	-82.318	-31.372	255.374	-64.007	96.920	66.497	215.606	0.00010989	0.0011696	0.00036102	280.73	1.8821e-05	1.0618e-05	280.03	87.847	9.689e-06	6.8314e-06	113.48	40.955	29.462	11.664	2.1133e-05	19.331	0.004709	0.0045679	0.0011889	645.67	5.1961e-05	4.9542e-05	643.97	217.85	5.2195e-05	4.8934e-05	306.9	112.28	102.08	35.323	4.5591e-05	52.06	-50.340	-43.582	-16.695	-89.366	-10.055	7.600	-89.422	-83.567	48.863	77.365	-85.795	-79.841	-78.036	-73.435	68.529	-75.750	-8191	255	
18127.338	1	1	0	0	0.31748	0.13781	0.22868	0.14849	0.15215	0.23699	0.13529	0.071176	0.26273	0.1283	0.35963	0.22721	0.057357	0.086387	0.17902	0.16378	-2.5292	-2.7396	-2.6958	-3.15	-2.5292	-2.8458	-3.1583	-2.5958	-3.1125	-2.725	-2.6104	-3.3479	-2.6104	-2.7854	-2.8812	-2.3833	-43.616	29.898	-68.779	202.253	69.955	-100.038	185.959	32.392	105.319	-14.797	177.098	-85.508	-58.243	190.756	134.313	136.542	0.00016844	0.001667	7.599e-05	282.42	1.5612e-05	6.4608e-06	282.49	89.046	5.3827e-06	1.2688e-05	114.07	40.939	29.495	11.617	1.1889e-05	19.142	0.0046652	0.0044441	0.0011552	665.97	5.0974e-05	4.8107e-05	635.57	224.86	5.0961e-05	4.7935e-05	304.85	116.61	101.08	34.931	4.5226e-05	53.441	-15.714	-27.652	70.478	-88.770	-6.137	56.167	-89.701	-83.649	185.402	-62.363	-85.267	-80.240	-77.483	-73.517	-44.044	-76.635	-8191	255	
18127.436	1	1	0	0	0.22973	0.11853	0.22495	0.14534	0.18712	0.17453	0.096684	0.092857	0.29039	0.10039	0.1117	0.25257	0.13407	0.18318	0.18949	0.18874	-2.7062	-2.8667	-2.5312	-3.2417	-2.5396	-2.8583	-3.0667	-2.5125	-2.9479	-2.7979	-2.7521	-3.0042	-2.5812	-2.775	-2.9854	-2.3042	255.917	-99.527	210.975	-71.888	-89.342	254.069	205.855	-85.793	184.751	-2.428	-94.241	146.144	-56.571	99.059	44.775	163.267	0.00035551	0.00052099	0.0002689	282.28	2.109e-05	1.3666e-05	277.65	89.252	4.258e-06	1.6765e-05	111.52	41.012	29.169	11.735	2.6728e-05	19.315	0.0045429	0.0043238	0.0011579	681.27	4.9597e-05	4.6731e-05	635.13	228.06	4.8546e-05	4.5162e-05	300.78	115.15	95.294	33.118	4.4475e-05	52.361	-70.435	-56.192	121.903	-88.754	-32.022	31.915	-89.852	-83.447	87.366	68.256	-85.821	-79.688	-78.311	-74.685	239.714	-75.881	-8191	255	
18127.531	1	1	0	0	0.091969	0.13128	0.050114	0.24519	0.031515	0.05296	0.28083	0.21201	0.13725	0.099673	0.030073	0.21957	0.15501	0.05866	0.25755	0.080633	-2.6208	-2.825	-2.3917	-3.0771	-2.5521	-2.6917	-3.0187	-2.5062	-2.925	-3.1375	-2.4562	-2.9938	-2.7125	-2.5125	-3.1771	-2.6396	144.970	217.315	-98.785	258.541	32.407	-22.814	-92.427	148.360	-92.675	240.141	219.178	142.597	-35.712	201.175	19.296	219.679	0.00039302	0.00057333	0.00050427	285.94	6.9007e-06	6.9093e-06	280.35	90.975	9.5052e-06	5.419e-06	112.42	41.503	29.146	11.367	2.4947e-05	19.406	0.004206	0.0039942	0.0011411	670.26	4.5893e-05	4.2984e-05	635.14	222.16	4.4805e-05	4.1342e-05	300.75	110.64	90.005	31.098	4.3628e-05	49.498	-49.319	-68.121	176.162	-88.966	-12.877	36.993	-90.117	-83.348	124.822	64.549	-85.567	-79.871	-78.549	-73.784	205.027	-76.370	-8191	255	
18127.650	1	1	0	0	0.065967	0.19971	0.23066	0.30212	0.22534	0.011928	0.14646	0.19954	0.080225	0.27332	0.21311	0.20834	0.072232	0.091858	0.15639	0.17775	-2.2542	-2.8896	-2.4375	-2.9708	-2.6063	-2.5875	-3.1042	-2.4854	-2.7167	-3.0333	-2.3167	-3.1771	-2.8667	-2.5979	-3.0917	-2.4708	-86.972	64.648	242.677	-94.856	17.759	124.470	213.336	95.960	242.602	144.546	168.178	-16.978	94.611	251.233	-83.314	101.428	0.00059299	0.00077038	0.00058665	285.43	1.5713e-05	7.4341e-06	285.08	92.266	1.0054e-05	8.2925e-06	113.73	41.946	29.694	11.46	2.4026e-05	19.653	0.0037895	0.0035608	0.0010964	630.02	4.0851e-05	3.8285e-05	623.24	207.83	3.9596e-05	3.7202e-05	292.43	103	83.111	29.232	4.0898e-05	45.919	3.125	27.272	147.941	-88.783	18.433	116.903	-89.730	-83.437	143.363	182.409	-85.298	-79.025	-78.340	-74.197	194.543	-75.720	-8191	255	
18127.746	1	1	0	0	0.21073	0.14723	0.17308	0.19811	0.15989	0.053294	0.22135	0.18206	0.017651	0.11201	0.195	0.35854	0.11183	0.19426	0.11265	0.082427	-2.35	-2.9646	-2.2375	-2.8833	-2.7625	-2.5292	-3.1437	-2.5917	-2.7458	-3.0083	-2.4958	-2.9521	-2.9896	-2.4	-3.1417	-2.7375	153.509	170.922	79.116	201.314	-50.464	155.405	139.208	232.277	27.648	20.987	45.057	47.420	-90.431	246.945	-9.407	13.733	0.00033302	0.0015378	0.00022862	288.45	9.5382e-06	7.8082e-06	285.51	91.777	8.3913e-06	1.0998e-05	117.85	42.316	29.76	11.51	8.0956e-06	19.648	0.0033243	0.0032642	0.0010319	592.47	3.6101e-05	3.5773e-05	607.36	196.03	3.5432e-05	3.5587e-05	284.85	97.679	78.447	28.96	3.9537e-05	44.06	2.378	93.755	145.540	-88.769	-68.680	-80.294	-89.228	-83.270	69.574	220.071	-85.713	-80.225	-78.348	-73.787	118.046	-76.321	-8191	255	
18127.842	1	1	0	0	0.23046	0.064424	0.14111	0.051655	0.15333	0.22461	0.08983	0.14834	0.057748	0.0413	0.1333	0.20795	0.19297	0.19771	0.24547	0.14239	-2.2542	-3.0479	-2.3312	-2.8063	-2.7938	-2.4229	-3.0812	-2.6	-2.3625	-3.125	-2.5271	-2.7271	-2.825	-2.4875	-2.9104	-2.7167	-70.027	-73.885	-74.405	197.717	-73.930	55.054	189.551	113.766	29.653	-29.607	-23.377	141.019	210.545	-56.901	242.053	-89.477	0.00046486	0.00096177	0.00022757	287.69	7.1112e-06	1.5725e-05	289.53	92.919	1.0426e-05	1.7414e-05	117.53	42.721	29.61	11.503	1.3298e-05	19.554	0.0030745	0.0032671	0.00098943	571.78	3.3484e-05	3.5961e-05	594.53	190.89	3.3689e-05	3.6645e-05	280.12	95.652	76.582	29.661	3.8346e-05	43.501	-4.705	191.019	-42.150	-88.869	27.523	209.769	-89.853	-83.417	118.296	197.282	-85.583	-79.919	-79.199	-73.342	46.460	-75.894	-8191	255	
18127.938	1	1	0	0	0.17487	0.14409	0.056721	0.25617	0.15942	0.29423	0.22899	0.10109	0.1624	0.14324	0.18014	0.37285	0.12295	0.1506	0.076871	0.13243	-1.9958	-3.0292	-2.5	-2.6479	-3.0854	-2.4083	-3.0312	-2.6396	-2.3021	-3.0833	-2.4813	-2.4792	-3.2646	-2.3604	-2.9542	-2.6521	47.049	257.242	21.193	232.931	-48.492	-76.098	105.113	26.286	-59.196	224.245	152.542	157.734	143.524	-82.822	-40.741	47.700	0.00045786	0.0012488	0.00024598	289.49	1.3592e-05	1.5572e-05	289.26	93.147	1.2957e-05	1.3991e-05	119.27	42.506	29.409	11.603	7.0444e-06	19.754	0.0029915	0.0034317	0.00096141	565.93	3.278e-05	3.7222e-05	583.6	186.19	3.2417e-05	3.689e-05	270.28	92.243	75.05	29.471	3.5377e-05	41.575	-39.683	188.068	46.183	-88.544	130.300	180.346	-89.453	-83.368	-55.231	195.816	-85.128	-80.259	-78.657	-73.899	0.282	-75.780	-8191	255	
18128.059	1	1	0	0	0.082105	0.066778	0.081785	0.38316	0.023745	0.19004	0.14814	0.16772	0.2024	0.24467	0.05472	0.072115	0.022832	0.21004	0.26071	0.13468	-2.0625	-2.9354	-2.5417	-2.6625	-3.0563	-2.3833	-2.95	-2.7875	-2.5458	-2.9958	-2.5917	-2.4958	-2.9667	-2.4062	-2.6042	-3.0771	221.118	183.502	78.517	-94.257	-19.411	109.375	-70.597	113.419	204.014	255.776	245.515	99.014	-42.191	-81.249	239.367	-21.621	0.00060181	0.00083084	8.2943e-05	292.86	2.093e-05	5.7156e-06	294.94	93.562	1.282e-05	7.1176e-06	121.02	43.567	29.495	11.652	1.8023e-05	19.796	0.0028855	0.0033518	0.00088541	545.56	3.2184e-05	3.6478e-05	566.61	180.36	3.2226e-05	3.5805e-05	261.21	89.31	75.626	28.993	3.3216e-05	40.441	-88.675	90.314	-56.028	-89.301	152.433	-85.207	-89.958	-83.014	-54.932	51.757	-85.326	-80.108	-78.504	-73.471	3.125	-75.669	-8191	255	
18128.131	1	1	0	0	0.28969	0.14019	0.14356	0.27822	0.27543	0.10054	0.15698	0.17605	0.17504	0.11412	0.1045	0.14468	0.24023	0.30896	0.18519	0.21119	-2.0812	-2.8229	-2.5833	-2.6937	-3.0833	-2.5125	-2.9062	-2.9583	-2.3917	-3.0146	-2.8583	-2.3792	-3.0187	-2.2625	-2.6604	-2.9583	11.244	13.864	20.811	-93.941	-23.920	-30.754	34.509	106.045	131.592	11.623	-51.736	224.519	222.842	-16.222	114.330	122.371	0.00054006	0.00095905	0.00018531	291.43	1.6189e-05	1.5466e-05	292.47	92.705	1.6479e-05	8.3205e-06	118.11	42.089	29.453	11.788	7.1706e-06	19.612	0.0029467	0.0032449	0.00084398	532.3	3.3145e-05	3.5057e-05	554.41	176.42	3.3593e-05	3.5082e-05	256.17	87.994	78.267	28.712	3.2997e-05	40.371	-65.358	-50.503	-39.998	-89.254	214.046	3.405	-90.165	-83.428	-57.332	45.407	-85.626	-80.207	-78.024	-73.889	-31.148	-76.176	-8191	255	
18128.227	1	1	0	0	0.072917	0.043417	0.042207	0.17276	0.045096	0.069885	0.16185	0.13934	0.16221	0.20396	0.45214	0.16428	0.29541	0.11829	0.23312	0.16284	-1.9771	-2.8896	-2.8917	-2.6271	-3.1042	-2.5896	-2.6021	-3.0062	-2.5646	-3.1583	-2.8417	-2.5396	-3.0812	-2.5187	-2.5521	-2.9625	242.173	82.399	9.589	-11.526	9.958	105.949	106.495	0.103	238.305	131.265	84.083	32.410	-47.497	-4.169	-43.567	25.291	0.00076647	0.00023943	6.599e-05	289.01	1.7651e-05	8.6686e-06	294.12	92.345	2.3591e-05	1.35e-05	115.98	42.149	29.472	11.604	1.2131e-05	19.31	0.0031737	0.0032639	0.00085092	540.55	3.6211e-05	3.5612e-05	556.29	180.97	3.6464e-05	3.5594e-05	258.47	91.03	82.588	29.087	3.3942e-05	42.102	249.695	25.903	-48.039	-88.841	140.743	27.902	-89.782	-83.354	-93.274	18.384	-85.235	-80.220	-78.904	-73.575	-23.010	-77.155	-8191	255	
18128.322	1	1	0	0	0.29273	0.098948	0.078523	0.29242	0.16588	0.18705	0.17827	0.13118	0.12847	0.10271	0.28379	0.11517	0.16041	0.24174	0.18531	0.24021	-2.0792	-3.0271	-2.9042	-2.4375	-3.0292	-2.7583	-2.5771	-3.0979	-2.2687	-2.9229	-3.0479	-2.3354	-3.0187	-2.8021	-2.7458	-3.0271	219.596	116.719	-45.183	226.782	176.115	94.379	240.668	182.153	66.234	225.098	79.136	212.862	18.161	124.222	159.061	77.655	0.00013	0.00040261	0.00020608	289.86	1.4908e-06	5.192e-06	293.09	92.124	8.2885e-06	3.8782e-06	116.91	41.682	30.25	11.7	1.2441e-05	19.066	0.0034412	0.0033656	0.00088092	569.84	3.9871e-05	3.793e-05	574.52	194.96	4.0569e-05	3.8481e-05	268.35	98.383	87.28	29.944	3.5437e-05	44.809	-58.308	202.934	-30.994	-89.436	95.104	79.781	-90.041	-84.407	165.188	12.377	-85.416	-80.670	-78.825	-73.990	20.648	-77.076	-8191	255	
18128.443	1	1	0	0	0.097906	0.098817	0.14792	0.20861	0.099586	0.063612	0.14397	0.21185	0.21353	0.35227	0.13903	0.05828	0.11543	0.23627	0.26765	0.30347	-1.825	-2.8292	-2.9479	-2.6375	-2.9708	-2.8083	-2.4354	-3.0146	-2.45	-2.6521	-3.0542	-2.5062	-2.9708	-2.7875	-2.4583	-3.0854	103.154	-21.604	213.087	-14.856	-66.386	176.956	-92.422	187.555	192.485	-56.733	-14.491	-39.447	212.445	225.685	139.490	-72.263	0.00010288	0.0011299	0.00032807	292.68	1.8024e-05	1.3219e-05	294.03	93.462	8.0702e-06	1.0966e-05	118.74	42.274	30.017	11.614	6.4668e-06	19.054	0.0035981	0.0034609	0.00088839	591.99	3.9715e-05	3.7097e-05	566.93	198.41	3.8932e-05	3.6547e-05	261.76	98.861	83.515	28.726	3.3364e-05	44.464	36.229	-79.536	3.747	-89.137	-25.955	51.310	-90.110	-84.241	135.609	-7.841	-85.898	-80.793	-78.777	-73.914	172.618	-76.364	-8191	255	
18128.539	1	1	0	0	0.10981	0.18351	0.13535	0.24362	0.24859	0.10865	0.064414	0.16999	0.19124	0.05998	0.27295	0.075123	0.059255	0.14311	0.21169	0.14233	-2.1458	-2.7104	-2.8937	-2.5396	-2.7667	-2.75	-2.4104	-3.0833	-2.5229	-2.5083	-3.0208	-2.4833	-2.9354	-2.7729	-2.4521	-3.1104	218.292	-23.036	33.694	-55.929	72.738	131.380	-0.814	-82.342	106.638	226.840	167.274	123.134	219.853	85.853	-39.227	160.199	0.00063774	0.00082629	0.00013567	289.81	1.176e-05	1.348e-05	288.9	92.792	1.8631e-05	9.1562e-06	116.76	41.905	29.814	11.562	8.3263e-06	19.093	0.0033037	0.0031488	0.00083527	578.61	3.5653e-05	3.3113e-05	547.01	192.26	3.4471e-05	3.2278e-05	251.92	94.513	76.708	26.542	3.1528e-05	42.392	18.256	2.698	100.589	-89.269	-57.035	9.101	-90.821	-83.692	97.801	15.209	-85.977	-80.626	-78.641	-73.721	-50.650	-76.554	-8191	255	
18128.637	1	1	0	0	0.07718	0.2805	0.052488	0.055885	0.063822	0.077503	0.26774	0.25094	0.16203	0.24203	0.1211	0.40147	0.083089	0.19138	0.18061	0.050288	-2.2833	-2.6146	-3.0583	-2.5438	-2.7542	-2.7979	-2.2417	-3.0771	-2.6833	-2.5042	-3.1125	-2.5458	-2.7833	-2.9146	-2.2812	-3.1042	101.113	141.750	73.730	-40.492	-26.167	51.062	-61.020	-59.639	190.384	81.356	64.641	126.824	83.983	151.580	151.514	-51.259	0.00041911	0.00089964	0.00049196	292.08	1.1132e-06	1.1275e-05	290.84	94.008	1.7601e-05	1.3337e-05	116.47	42.232	29.77	11.356	2.3726e-05	19.316	0.0029083	0.0027657	0.0007912	556.16	3.1593e-05	2.9296e-05	539.05	185.13	3.093e-05	2.8923e-05	249.9	90.604	72.471	25.094	3.0889e-05	40.531	191.722	16.503	176.344	-89.782	-19.041	-33.284	-90.208	-83.945	86.129	67.824	-85.837	-80.342	-78.844	-73.780	200.462	-75.843	-8191	255	
18128.732	1	1	0	0	0.24408	0.35767	0.22528	0.087528	0.11176	0.13321	0.15306	0.12455	0.091765	0.11606	0.1278	0.18899	0.15707	0.091573	0.1328	0.14423	-2.4042	-2.3667	-3.1708	-2.4938	-2.6937	-3.1396	-2.5687	-3.0875	-2.8146	-2.6042	-3.1646	-2.55	-2.7396	-2.8417	-2.4396	-2.9104	44.272	211.267	127.790	144.564	-48.615	119.244	245.426	-46.902	-99.097	250.839	71.610	8.348	90.638	116.187	127.347	155.282	0.00022897	0.00027683	0.00026829	293.13	1.0684e-05	7.9603e-06	294.5	93.847	1.6651e-05	8.8894e-06	117.75	42.285	29.973	11.38	3.6571e-06	19.584	0.0026545	0.002532	0.00078764	538.13	2.9266e-05	2.7503e-05	541.28	178.95	2.8733e-05	2.7401e-05	250.16	87.21	69.557	24.665	3.101e-05	39.356	9.043	71.532	138.287	-89.079	-17.181	93.073	-90.258	-83.417	117.400	200.539	-86.136	-79.792	-79.236	-74.183	124.203	-76.001	-8191	255	
18128.828	1	1	0	0	0.022336	0.10482	0.027319	0.2469	0.032899	0.19927	0.17861	0.2558	0.033395	0.09856	0.24967	0.114	0.25193	0.051901	0.28162	0.14801	-2.2292	-2.2896	-3.1104	-2.5542	-2.6688	-3.0292	-2.4875	-2.7812	-2.9479	-2.4729	-3.0521	-2.4792	-2.5938	-2.9708	-2.4458	-2.7438	196.228	-30.028	240.779	-80.164	182.926	85.154	162.339	83.982	69.283	203.227	95.726	7.238	-43.394	109.778	66.251	233.080	0.00042621	0.0010864	0.00017721	292.33	1.3108e-05	1.0341e-05	295.62	94.61	4.3569e-06	9.5624e-06	118.36	42.556	29.904	11.327	7.893e-06	19.278	0.00249	0.0024914	0.0007906	524.48	2.7443e-05	2.7138e-05	541.02	173.8	2.6568e-05	2.7207e-05	247.92	84.241	66.619	24.594	2.9853e-05	37.642	43.223	143.553	174.932	-89.371	-39.347	221.261	-90.105	-83.886	90.661	202.396	-85.276	-79.992	-78.782	-73.733	-19.591	-75.600	-8191	255	
18128.922	1	1	0	0	0.18711	0.11834	0.058458	0.1299	0.12437	0.17992	0.23016	0.32166	0.13937	0.25056	0.030162	0.1385	0.061881	0.13253	0.097792	0.067298	-2.5396	-2.325	-2.9875	-2.6708	-2.6146	-3.1729	-2.5687	-2.6688	-2.9083	-2.4646	-2.9958	-2.5167	-2.375	-3.0563	-2.5229	-2.7521	192.689	92.630	60.816	222.849	-95.211	45.470	118.284	183.541	9.824	36.991	87.120	212.900	156.375	-86.699	18.513	9.033	0.00017485	0.00080597	9.0527e-05	293.37	7.1721e-06	1.6021e-05	295.56	94.685	9.8824e-06	4.3535e-06	118.61	41.971	29.855	11.101	3.8338e-06	19.202	0.0022984	0.0024873	0.00075033	506.12	2.5224e-05	2.7181e-05	523.4	167.84	2.4548e-05	2.7112e-05	237.87	80.632	63.526	24.46	2.7303e-05	36.019	159.460	187.291	-49.257	-89.758	-13.729	145.739	-90.242	-83.935	113.251	224.699	-85.952	-80.079	-79.476	-73.683	-1.519	-76.021	-8191	255	
18129.020	1	1	0	0	0.033168	0.14493	0.068352	0.25925	0.247	0.04654	0.082482	0.15217	0.075951	0.089059	0.013916	0.096497	0.18983	0.11604	0.06273	0.0282	-2.5354	-2.2917	-2.825	-2.925	-2.6875	-3.1354	-2.5563	-2.7896	-2.9	-2.4354	-3.0438	-2.7625	-2.3104	-3.0042	-2.4917	-2.5917	-99.552	25.685	41.161	19.739	1.437	-39.460	80.266	257.037	13.019	124.079	201.144	-21.528	176.043	224.102	-5.188	-64.459	6.7833e-05	0.0009891	0.00023893	295.01	7.2788e-06	1.2174e-05	297.29	94.903	4.7084e-06	8.9396e-06	119.29	42.522	29.608	11.408	2.9866e-06	19.401	0.0021141	0.0024355	0.00068172	488.45	2.3209e-05	2.6448e-05	503.8	161.45	2.2946e-05	2.6417e-05	228.24	77.667	62.575	24.311	2.53e-05	35.063	155.774	182.164	26.250	-89.174	78.954	196.078	-90.113	-84.209	-76.390	153.042	-85.034	-81.024	-79.044	-74.271	213.514	-76.400	-8191	255	
18129.139	1	1	0	0	0.058469	0.1165	0.12214	0.17514	0.1876	0.037546	0.075464	0.13641	0.31576	0.10634	0.2628	0.20494	0.083489	0.14468	0.16737	0.025568	-2.7083	-2.1417	-2.7354	-2.7958	-2.5687	-3.05	-2.6229	-2.5646	-3.1542	-2.4667	-2.8479	-2.7875	-2.3208	-2.9604	-2.5417	-2.4646	-96.782	220.944	248.525	62.437	-33.133	175.496	-77.411	-24.324	160.334	119.153	60.356	133.850	88.523	178.825	-8.398	109.511	0.00013093	0.0007424	2.0147e-05	294.16	9.3304e-06	8.2103e-06	300.73	95.874	1.5427e-05	6.614e-06	121.29	42.657	29.541	11.587	1.2851e-06	19.479	0.0020894	0.0024231	0.00063813	479.37	2.3463e-05	2.6342e-05	497.73	159.53	2.3575e-05	2.6161e-05	224.87	76.209	63.376	23.988	2.3714e-05	34.177	-78.898	154.110	206.011	-89.301	193.394	194.151	-90.084	-83.671	-66.448	229.219	-85.744	-80.999	-78.855	-73.770	104.088	-76.692	-8191	255	
18129.234	1	1	0	0	0.18955	0.14582	0.20262	0.09809	0.12036	0.17068	0.17728	0.21837	0.095314	0.026171	0.063994	0.025862	0.18852	0.12762	0.19659	0.24638	-2.7604	-2.5542	-2.8667	-3.0146	-2.4583	-2.9833	-2.7604	-2.4625	-3.025	-2.3208	-2.5312	-2.9188	-2.2479	-3.0583	-2.6021	-2.4021	254.976	28.861	103.511	133.504	240.163	250.229	142.006	159.245	-12.717	51.696	26.740	-33.409	38.926	-33.139	204.489	149.416	0.00055144	0.00093355	0.00014894	298.33	1.2068e-05	4.9932e-06	304.33	96.685	1.6571e-05	6.6011e-06	122.27	42.745	29.7	11.545	9.0392e-06	19.417	0.0021153	0.0023103	0.00059934	471.98	2.3972e-05	2.5168e-05	490.57	156.78	2.4321e-05	2.4813e-05	219	74.783	63.85	23.214	2.2243e-05	33.481	-64.118	-53.556	4.203	-89.674	195.693	10.721	-90.230	-84.209	255.992	-46.290	-86.101	-80.985	-79.379	-73.848	143.348	-76.674	-8191	255	
18129.330	1	1	0	0	0.18582	0.30354	0.1438	0.1027	0.34771	0.29186	0.31337	0.1676	0.31481	0.13119	0.25038	0.083248	0.13713	0.14384	0.20931	0.0034579	-2.6854	-2.7021	-2.7396	-3.0792	-2.4521	-2.9979	-2.8063	-2.6708	-3.0896	-2.5396	-2.6	-3.0208	-2.4458	-2.8208	-2.7146	-2.3271	-78.520	183.091	211.662	203.464	53.786	206.418	207.592	52.792	189.645	176.995	167.944	153.597	253.420	59.778	161.769	131.315	0.00068313	0.00089124	0.00027134	295.24	7.8369e-06	5.9417e-06	299.13	95.146	3.3647e-06	4.5911e-06	121.35	41.808	29.713	11.631	9.1677e-06	19.477	0.0021522	0.0021638	0.00056238	463.46	2.388e-05	2.327e-05	473.5	154.35	2.3968e-05	2.2862e-05	211.06	74.099	63.592	22.547	2.1011e-05	33.644	-70.949	26.409	35.238	-89.487	163.724	-22.371	-90.203	-84.422	-93.315	98.122	-85.908	-80.430	-79.095	-74.264	74.884	-76.834	-8191	255	
18129.428	1	1	0	0	0.1092	0.13554	0.10303	0.16157	0.20906	0.16538	0.086117	0.06374	0.11606	0.27775	0.15307	0.077285	0.41089	0.042446	0.24933	0.26466	-2.7833	-2.7104	-2.5271	-3.0958	-2.4479	-2.9146	-2.9646	-2.5563	-3.2604	-2.6667	-2.5896	-2.9208	-2.5583	-2.7896	-3.0021	-2.2812	-75.696	118.489	252.082	136.625	11.264	73.042	-94.446	234.095	246.603	11.375	187.259	170.227	95.273	170.730	245.956	118.699	0.0001243	0.0011462	0.00016846	296.03	4.6931e-06	1.552e-06	302.85	95.493	8.2798e-06	6.8854e-06	122.92	42.632	30.444	11.511	7.5392e-06	19.442	0.0021462	0.0020463	0.00053049	468.67	2.3641e-05	2.2182e-05	468.53	156.78	2.3598e-05	2.1868e-05	209.04	75.833	63.167	22.222	2.0329e-05	34.576	-10.058	2.007	243.061	-88.835	-53.523	235.191	-89.689	-84.566	97.463	98.670	-86.096	-80.496	-78.379	-73.724	42.081	-76.082	-8191	255	
18129.523	1	1	0	0	0.1024	0.19929	0.095179	0.12228	0.058601	0.12184	0.066841	0.19515	0.23245	0.045542	0.20739	0.26033	0.30067	0.087093	0.026152	0.12245	-2.5625	-2.6188	-2.5729	-2.9354	-2.6083	-2.7	-2.8896	-2.2979	-2.9938	-2.7667	-2.3979	-3.0583	-2.4667	-2.6021	-2.9979	-2.3875	81.509	-28.195	0.228	184.454	99.648	235.993	50.706	-39.074	-0.140	202.570	34.494	-90.661	206.163	-42.839	98.563	223.264	9.2068e-05	0.00088956	9.9812e-05	296.82	2.9059e-06	7.5772e-06	302.38	97.127	1.2877e-05	8.5273e-07	123.72	43.289	30.224	11.681	4.4408e-06	19.613	0.002115	0.0020109	0.00052354	483.15	2.3595e-05	2.217e-05	473.63	163.09	2.3659e-05	2.2028e-05	212.89	79.337	63.718	22.333	2.0871e-05	35.615	-68.407	2.768	207.088	-89.587	84.518	48.985	-90.340	-83.424	101.879	28.491	-86.168	-80.267	-78.435	-73.938	-25.102	-76.678	-8191	255	
18129.619	1	1	0	0	0.07986	0.10441	0.33771	0.23101	0.23392	0.13051	0.14426	0.12808	0.24166	0.18375	0.15316	0.020202	0.25449	0.14823	0.29838	0.18952	-2.5604	-2.6896	-2.5083	-3.15	-2.5438	-2.5042	-3.0771	-2.3604	-2.9437	-2.9229	-2.5771	-3.1125	-2.5771	-2.5312	-3.0312	-2.3979	-93.200	8.271	-82.305	-44.609	52.349	-20.711	217.671	34.040	97.808	46.819	215.812	148.138	164.778	165.895	185.714	-53.022	0.00025009	0.0010198	0.00037911	298.97	8.2573e-06	3.6651e-06	301.06	97.088	1.2582e-05	1.1012e-05	120.04	42.877	30.514	11.526	1.549e-05	19.421	0.002085	0.0019787	0.00053757	492.77	2.3006e-05	2.1641e-05	476.97	164.68	2.2849e-05	2.1121e-05	213.2	78.776	61.749	21.654	2.1275e-05	35.019	12.645	-74.202	193.586	-89.432	8.849	104.034	-90.245	-83.602	99.936	7.508	-86.111	-80.257	-78.660	-73.865	233.196	-76.352	-8191	255	
18129.740	1	1	0	0	0.087223	0.11266	0.39516	0.1732	0.1418	0.16283	0.34865	0.26937	0.053229	0.26678	0.23271	0.10844	0.14667	0.083742	0.24179	0.047633	-2.5104	-2.7958	-2.3667	-3.1729	-2.6479	-2.6146	-2.8667	-2.4021	-2.8063	-3.0771	-2.4229	-3.0479	-2.8646	-2.6188	-3.2812	-2.4604	-52.035	186.512	177.079	-90.621	157.715	-95.456	174.976	195.306	56.862	63.286	254.475	183.583	228.172	-35.238	122.782	-18.286	0.00020182	0.00025265	0.0001542	296.46	9.4659e-06	6.9223e-06	301.83	97.104	1.6213e-06	7.1665e-06	121.76	43.883	30.397	11.474	6.1785e-06	19.55	0.0019632	0.0018419	0.00054234	483.29	2.1465e-05	2.0064e-05	478.01	161.66	2.1627e-05	2.0029e-05	216.98	78.128	60.617	21.397	2.2409e-05	34.938	36.211	18.236	179.568	-89.186	12.216	1.250	-90.032	-83.895	57.494	24.225	-85.968	-80.475	-78.423	-74.577	224.001	-76.322	-8191	255	
18129.836	1	1	0	0	0.14835	0.23096	0.15572	0.13942	0.29141	0.1177	0.16276	0.090549	0.28876	0.11556	0.12817	0.20573	0.086639	0.091717	0.043099	0.18137	-2.5521	-2.9208	-2.1604	-2.9729	-2.6854	-2.3854	-3.1021	-2.5729	-2.775	-3.0375	-2.3271	-2.9583	-2.7562	-2.3063	-3.0854	-2.4604	30.402	205.046	36.170	-65.024	33.929	82.816	139.000	-0.975	151.460	210.679	-78.072	230.746	227.422	160.158	-73.539	15.341	0.00018686	0.00043638	2.334e-05	299.82	1.7421e-06	5.8043e-06	300.07	97.501	9.2591e-06	8.7927e-06	121.89	43.793	30.928	11.521	1.8207e-06	19.697	0.0019342	0.0018374	0.00058181	482.74	2.1264e-05	2.0236e-05	490.1	161.18	2.1271e-05	2.0244e-05	222.09	77.646	60.323	21.775	2.3774e-05	34.864	20.479	-41.773	107.306	-88.893	104.834	61.549	-90.454	-83.666	87.447	211.910	-86.151	-80.109	-78.881	-73.668	52.792	-76.574	-8191	255	
18129.932	1	1	0	0	0.36834	0.092505	0.17723	0.030842	0.2111	0.031533	0.165	0.11943	0.072778	0.076612	0.15241	0.12205	0.19919	0.19875	0.12389	0.21353	-2.2396	-2.925	-2.35	-2.8396	-2.8583	-2.5896	-3.05	-2.5958	-2.4917	-3.1604	-2.5938	-2.8688	-2.7917	-2.3375	-3.125	-2.7229	-21.723	-40.660	107.879	184.938	25.786	-36.223	2.102	170.236	206.406	-33.981	156.281	176.679	103.408	126.231	71.084	257.802	0.00036916	0.00065103	6.7146e-05	302.95	9.8461e-06	4.1931e-06	310.12	99.075	8.4257e-06	1.5158e-05	124.86	44.617	30.894	11.672	6.7876e-06	19.7	0.0019069	0.0019263	0.00061256	483.19	2.1017e-05	2.1362e-05	502.13	160.65	2.0829e-05	2.1496e-05	226.72	77.7	60.195	22.466	2.4197e-05	34.889	20.481	147.535	-78.036	-89.159	-9.559	-35.497	-89.436	-83.821	113.938	204.220	-86.290	-80.319	-79.431	-73.892	100.394	-75.891	-8191	255	
18130.004	1	1	0	0	0.15544	0.039184	0.031642	0.16548	0.24446	0.34317	0.22784	0.20114	0.14988	0.19593	0.10076	0.27203	0.1545	0.17129	0.20518	0.16294	-2.2687	-3.0958	-2.3958	-2.6375	-2.9188	-2.475	-3.2521	-2.7458	-2.5792	-3.2167	-2.7	-2.9333	-3.0854	-2.3604	-2.9792	-2.7792	103.392	40.474	79.766	-53.354	227.412	224.915	150.243	95.546	-16.648	196.459	175.295	-94.058	31.168	-2.715	31.492	11.337	0.00017241	0.00043852	0.00033517	300.48	5.5371e-06	1.7184e-05	304.31	97.32	6.8735e-06	8.4332e-06	122.34	43.512	30.617	11.55	6.806e-06	19.695	0.0018777	0.0020722	0.00062032	481.1	2.0802e-05	2.3198e-05	500.45	160.46	2.1127e-05	2.3715e-05	226.13	77.426	60.286	23.274	2.4256e-05	34.542	-2.672	156.529	-8.134	-89.315	-43.268	194.663	-89.939	-84.305	62.032	-75.296	-85.966	-80.024	-78.926	-73.528	3.630	-76.124	-8191	255	
18130.123	1	1	0	0	0.1492	0.17641	0.080907	0.074064	0.13274	0.10666	0.10539	0.10269	0.15892	0.14973	0.11812	0.041236	0.15582	0.27537	0.11029	0.15494	-2	-3.0896	-2.45	-2.5583	-3.0417	-2.4854	-2.9208	-2.7958	-2.5187	-3.0146	-2.4708	-2.6854	-3.0771	-2.3812	-2.7667	-2.8187	192.473	-5.617	61.748	112.653	52.015	11.716	11.956	-2.267	174.445	111.781	101.076	-20.862	114.038	235.940	138.182	-62.483	0.00014715	0.0012804	0.00022005	300.49	6.6597e-06	5.1386e-06	304.5	97.522	6.8069e-06	5.8459e-06	123.84	43.959	30.441	11.516	1.1765e-05	19.594	0.0019117	0.0022319	0.00061451	479.93	2.1315e-05	2.4637e-05	497.18	160.06	2.1762e-05	2.5105e-05	224.85	76.923	61.755	23.899	2.4032e-05	34.458	-43.713	190.359	18.726	-89.114	106.281	190.958	-90.235	-84.222	27.389	205.816	-85.415	-79.998	-79.453	-74.434	27.959	-76.508	-8191	255	
18130.219	1	1	0	0	0.10467	0.2492	0.18459	0.10188	0.28238	0.27035	0.02986	0.30107	0.04004	0.074798	0.19179	0.25727	0.075824	0.19007	0.27112	0.12922	-2.025	-2.9125	-2.6458	-2.5417	-3.1063	-2.4333	-2.9562	-2.9292	-2.5354	-3.0875	-2.6833	-2.5	-3.1292	-2.3417	-2.8458	-3.1188	146.722	18.262	62.920	246.857	-59.109	200.145	-23.309	-39.087	-56.565	93.307	252.251	-0.359	110.222	-84.378	-91.370	240.462	0.00038584	0.00049606	0.0003212	299.9	9.7076e-06	4.7867e-06	306.55	98.764	1.2869e-05	3.764e-06	123.94	43.915	30.55	11.828	2.69e-06	19.824	0.002023	0.0023422	0.000611	477.93	2.2907e-05	2.5786e-05	498.53	159.94	2.345e-05	2.5687e-05	224.73	76.726	64.238	24.039	2.3674e-05	34.281	-86.558	-70.515	-40.639	-89.127	76.306	-34.426	-89.981	-83.734	-74.592	-3.403	-85.921	-80.136	-78.688	-74.285	32.365	-76.099	-8191	255	
18130.316	1	1	0	0	0.29164	0.17561	0.16659	0.11147	0.1035	0.18006	0.040347	0.33018	0.055373	0.07435	0.077112	0.087655	0.14427	0.21545	0.13753	0.16503	-1.9813	-2.9625	-2.6917	-2.5	-3.1562	-2.4167	-2.6917	-2.9979	-2.3771	-2.9771	-2.7833	-2.4646	-3.1854	-2.5	-2.7042	-2.9208	-20.365	184.210	214.802	173.811	20.882	40.982	-8.174	220.947	57.661	70.271	156.325	190.402	4.489	219.678	255.744	50.670	0.00044781	0.00097201	9.7417e-05	302.88	6.2015e-06	1.2906e-05	307.37	98.216	4.5245e-06	1.2451e-05	124.79	44.353	30.735	11.777	6.5638e-06	19.547	0.0021402	0.0022985	0.00059176	474.87	2.3792e-05	2.4521e-05	492.12	157.87	2.393e-05	2.4275e-05	220.11	75.947	65.189	23.575	2.2825e-05	34.169	-70.141	22.354	-23.885	-89.348	67.507	6.629	-90.281	-84.000	-89.097	84.125	-85.917	-80.691	-78.768	-73.909	-1.915	-76.841	-8191	255	
18130.412	1	1	0	0	0.14961	0.073233	0.18905	0.1821	0.098334	0.23402	0.12872	0.17208	0.13851	0.15523	0.24954	0.11269	0.14607	0.15817	0.16336	0.2122	-2.0458	-3.0938	-2.7396	-2.5125	-3.0563	-2.3708	-2.7333	-3.0771	-2.6292	-3.0271	-2.7646	-2.3667	-3.0458	-2.5542	-2.5208	-3.075	86.367	-57.977	-60.466	-59.442	24.579	51.183	-85.371	174.106	-82.322	164.395	75.250	255.495	204.279	10.369	222.189	180.822	0.00050349	0.00080931	0.00025248	300.36	5.0223e-06	4.3239e-06	305.12	97.289	4.2934e-06	6.6377e-06	122.32	43.018	30.539	11.774	6.4404e-06	19.306	0.0022275	0.0022294	0.00057801	474.78	2.4968e-05	2.3973e-05	483.94	159.24	2.4974e-05	2.3762e-05	215.3	76.277	65.833	22.925	2.1565e-05	34.206	-96.434	-53.433	25.777	-89.017	166.087	54.327	-90.038	-83.978	-33.938	-31.766	-85.795	-80.205	-78.987	-73.779	49.791	-76.914	-8191	255	
18130.531	1	1	0	0	0.19521	0.15092	0.1684	0.2019	0.1082	0.18734	0.25869	0.30024	0.109	0.1088	0.053416	0.096552	0.039161	0.12743	0.15668	0.10573	-2.0375	-2.8333	-2.8812	-2.4167	-3.1063	-2.7938	-2.5729	-3.1	-2.4604	-2.875	-3.0458	-2.3958	-3.0333	-2.6583	-2.4333	-3.15	117.053	102.184	242.963	-7.872	221.199	40.988	-88.314	-42.974	-7.409	57.011	80.650	135.093	169.723	30.110	-67.686	-12.333	0.00010434	0.0007872	0.00031142	299.36	1.4669e-05	1.1266e-05	304.67	98.126	8.6823e-07	6.0847e-06	123.04	43.009	31.262	11.791	5.6715e-06	19.298	0.0022049	0.0020997	0.00054052	479.01	2.4373e-05	2.2777e-05	476.64	162.13	2.445e-05	2.2811e-05	212.08	77.867	65.184	22.592	2.0775e-05	35.156	-53.907	-91.397	-11.569	-89.327	145.193	41.329	-90.028	-83.875	256.002	126.463	-86.377	-80.346	-78.211	-74.258	54.384	-77.091	-8191	255	
18130.604	1	1	0	0	0.21153	0.15511	0.15713	0.30917	0.08504	0.26078	0.2185	0.14092	0.14998	0.080453	0.22024	0.040559	0.14858	0.18475	0.25104	0.087839	-2.075	-2.6104	-2.9938	-2.2562	-3.0458	-2.7042	-2.4333	-3.2188	-2.5646	-2.6833	-3.0771	-2.5	-2.875	-2.725	-2.5146	-3.0896	82.836	116.508	-56.564	120.327	-36.673	252.271	-83.010	196.186	-82.065	-10.226	16.881	-93.625	11.118	56.692	-46.084	227.829	0.00019395	0.0010894	0.00016005	301.48	3.2385e-06	9.1446e-06	304.79	98.556	5.8471e-06	7.4477e-06	124.38	44.051	31.363	11.745	8.8639e-06	19.884	0.0021497	0.0020506	0.00053271	491.96	2.397e-05	2.2159e-05	477.11	165.02	2.3465e-05	2.1922e-05	213.16	79.409	63.871	22.285	2.0837e-05	35.939	12.707	-42.082	-46.845	-89.244	243.175	54.446	-90.107	-83.971	94.349	-23.077	-85.168	-80.652	-78.905	-74.040	256.459	-76.162	-8191	255	
18130.699	1	1	0	0	0.049957	0.04061	0.22258	0.15387	0.099159	0.10952	0.21604	0.13785	0.21221	0.16886	0.30023	0.24332	0.19067	0.18299	0.11517	0.13228	-2.3833	-2.6896	-3.1125	-2.6813	-2.8792	-2.7604	-2.4542	-3.0604	-2.4437	-2.7896	-3.0833	-2.4104	-2.7417	-2.8917	-2.2854	-3.1333	15.210	235.955	-68.870	200.986	149.005	-67.863	18.461	-43.447	121.919	63.530	204.473	-69.183	215.440	-59.637	-23.817	-84.079	0.00021333	0.00063543	0.00013341	303.56	6.9319e-06	4.7992e-06	305.89	98.943	1.1772e-05	2.9801e-06	124.22	43.91	30.9	11.69	1.7167e-05	19.837	0.0020675	0.0019624	0.00054161	496.84	2.2954e-05	2.1349e-05	483.97	166.77	2.268e-05	2.1173e-05	217.02	79.983	62.915	21.948	2.2155e-05	36.115	44.221	7.012	133.327	-89.503	-26.664	72.563	-90.462	-84.338	108.504	-12.037	-85.626	-80.488	-78.714	-74.071	208.259	-76.057	-8191	255	
18130.820	1	1	0	0	0.24383	0.11318	0.26333	0.19793	0.23154	0.20884	0.10196	0.17989	0.10774	0.19088	0.11526	0.12062	0.10744	0.25239	0.095998	0.0988	-2.1479	-2.5083	-3.0312	-2.3354	-2.6312	-2.9854	-2.4229	-2.9562	-2.7188	-2.5042	-2.9854	-2.5125	-2.7021	-3.0229	-2.4188	-2.9333	220.572	91.113	24.279	-94.657	-61.704	-82.307	97.042	156.507	225.391	-16.237	23.766	87.988	122.379	212.611	-101.198	103.845	0.00035937	0.00077774	0.000243	299.55	8.9361e-06	4.8303e-06	302.71	97.825	7.5037e-06	3.4514e-06	122.06	44.06	30.75	11.875	4.8891e-06	20.064	0.0020385	0.0019419	0.00058245	496.91	2.3109e-05	2.1572e-05	496.35	167.42	2.3246e-05	2.1804e-05	226.36	81.502	64.024	22.601	2.5267e-05	37.188	21.829	-99.168	172.401	-89.101	-34.426	60.865	-89.831	-83.837	54.381	13.848	-85.412	-79.986	-78.933	-74.552	135.436	-75.879	-8191	255	
18130.914	1	1	0	0	0.30119	0.26254	0.2028	0.28626	0.098931	0.045927	0.22365	0.15707	0.097942	0.12772	0.074169	0.19392	0.3507	0.13951	0.22092	0.14414	-2.4104	-2.4396	-2.9375	-2.5854	-2.5375	-2.8917	-2.4521	-2.975	-2.8521	-2.4667	-3.1479	-2.5687	-2.7812	-2.9938	-2.3812	-2.9083	111.945	27.602	-23.492	140.373	35.278	171.904	184.526	110.484	218.381	208.625	-37.267	128.692	192.871	241.931	241.014	134.395	0.00028619	0.00067313	0.00013152	300.99	1.0152e-05	6.7199e-06	304.34	97.432	1.0507e-05	1.1079e-05	122.97	43.887	31.425	11.758	1.0881e-05	20.017	0.0021567	0.0020952	0.00067148	507.23	2.4499e-05	2.3479e-05	522.82	171.54	2.5182e-05	2.4943e-05	246.67	85.628	68.161	24.674	3.0053e-05	39.315	97.957	143.424	141.511	-89.255	13.435	178.747	-90.377	-84.067	86.781	249.833	-86.459	-79.616	-78.968	-73.564	162.624	-76.291	-8191	255	
18131.012	1	1	0	0	0.29109	0.13487	0.27083	0.33496	0.15116	0.26459	0.28948	0.15209	0.17355	0.070767	0.21547	0.082864	0.18208	0.22176	0.13626	0.20204	-2.3917	-2.5042	-2.95	-2.5021	-2.6167	-3.0062	-2.5667	-2.8792	-2.8063	-2.3104	-3.0292	-2.6167	-2.6625	-3.1292	-2.4854	-2.7729	92.712	204.941	22.251	164.845	-25.603	56.917	4.815	157.089	185.641	25.910	231.887	-42.228	16.103	102.420	-69.772	190.647	0.00036722	0.0015105	3.8718e-05	300.61	1.4093e-05	2.0267e-05	306.61	98.145	9.3695e-06	6.9684e-06	124.59	44.347	30.921	11.864	6.4922e-06	20.047	0.0024288	0.0025099	0.00079729	532.8	2.7806e-05	2.8707e-05	562.78	181.46	2.8218e-05	2.9841e-05	263.67	89.9	71.343	26.855	3.3226e-05	40.921	17.256	122.228	-1.528	-88.839	-36.371	219.161	-89.876	-83.845	95.027	246.557	-86.367	-79.573	-78.804	-73.484	195.969	-76.063	-8191	255	
18131.133	1	1	0	0	0.043899	0.021147	0.15681	0.082852	0.093797	0.12931	0.18933	0.089491	0.14062	0.23238	0.048072	0.07977	0.053268	0.051794	0.13928	0.068215	-2.3812	-2.325	-2.9521	-2.6979	-2.5687	-3.175	-2.7896	-2.7667	-3.1688	-2.6729	-3.0187	-2.7083	-2.4875	-3.0958	-2.4125	-2.5646	-98.618	-54.626	104.297	-86.429	147.073	176.047	159.733	133.616	151.049	-35.063	25.897	152.058	166.613	182.768	63.552	11.275	0.00016631	0.0016563	9.6594e-05	300.74	6.1341e-06	1.6743e-05	302.71	98.539	8.8825e-06	1.6046e-05	122.72	43.453	30.739	11.655	9.2521e-06	19.893	0.0026047	0.0029314	0.00087024	550.61	2.965e-05	3.3001e-05	573.4	184.87	2.9621e-05	3.3495e-05	266.94	90.653	73.009	28.282	3.39e-05	40.881	16.281	135.023	71.292	-89.470	214.820	192.128	-90.079	-83.681	94.661	236.354	-85.285	-80.232	-79.036	-73.806	-4.452	-76.354	-8191	255	
18131.229	1	1	0	0	0.21052	0.24263	0.16152	0.24798	0.027919	0.19067	0.1507	0.21775	0.39335	0.26386	0.16373	0.1341	0.18342	0.18222	0.05199	0.15734	-2.6646	-2.3688	-2.7188	-2.6667	-2.3333	-3.1063	-2.6688	-2.4771	-2.875	-2.5104	-2.975	-2.9708	-2.4688	-3.0646	-2.5062	-2.7021	146.019	-2.114	-73.097	-85.533	4.552	111.042	95.938	-13.357	136.699	164.006	183.685	-38.989	223.132	195.344	17.002	55.083	0.00035279	0.000768	0.0004467	298.17	1.2963e-05	7.0893e-06	297.38	96.26	1.4301e-05	7.6856e-06	119.55	43.51	30.199	11.645	5.7191e-06	19.905	0.0027013	0.0031457	0.00086501	544.26	3.0528e-05	3.5036e-05	568.31	184.18	3.115e-05	3.5689e-05	264.81	90.063	74.666	28.815	3.294e-05	40.157	-38.988	175.775	-29.269	-88.722	142.476	182.222	-89.583	-84.004	225.013	238.908	-86.061	-80.423	-78.708	-73.672	108.362	-75.902	-8191	255	
18131.301	1	1	0	0	0.23407	0.078206	0.14864	0.10752	0.011773	0.14464	0.17219	0.16799	0.19053	0.3127	0.044151	0.076255	0.035504	0.13186	0.015521	0.23713	-2.7604	-2.4958	-2.7812	-2.8979	-2.2229	-2.9458	-2.8083	-2.6271	-3.1729	-2.5229	-2.7458	-2.8729	-2.3396	-2.8875	-2.7333	-2.3875	129.499	177.451	113.079	253.294	250.592	-77.556	156.562	209.161	-33.281	90.251	192.823	233.840	142.227	9.628	117.977	248.342	0.00055905	0.00081938	0.00021942	295.06	1.7212e-05	5.6266e-06	298.71	95.634	2.0362e-05	1.3629e-05	120.23	43.647	29.78	11.619	1.0205e-05	19.824	0.0027886	0.0031537	0.00082199	527.98	3.082e-05	3.4124e-05	552.1	176.75	3.1281e-05	3.3966e-05	255.72	86.54	74.772	28.046	3.1195e-05	39.033	-60.111	147.104	-30.977	-89.108	163.733	79.191	-90.060	-83.660	-77.519	23.599	-85.792	-80.517	-78.778	-74.680	63.194	-75.817	-8191	255	
18131.420	1	1	0	0	0.11408	0.28979	0.17765	0.18621	0.15693	0.23191	0.25511	0.29886	0.041345	0.047863	0.29634	0.10141	0.025398	0.19962	0.068584	0.38418	-2.5292	-2.3625	-2.8438	-3.0396	-2.4313	-2.9583	-2.6521	-2.5354	-3.2062	-2.5125	-2.7417	-2.9292	-2.2917	-2.9625	-2.8146	-2.4625	0.849	90.017	-37.307	168.320	-98.664	-67.265	94.220	52.576	28.260	61.434	-33.726	173.068	153.043	164.845	-12.439	183.402	0.00057867	0.0013128	6.9609e-05	295.62	2.2794e-05	6.8689e-06	298.79	96.357	1.5649e-05	1.9108e-05	121.22	43.302	29.677	11.657	1.2188e-05	19.461	0.0028565	0.0030261	0.00078605	521.58	3.2011e-05	3.2583e-05	542.03	174.4	3.2094e-05	3.2293e-05	249.99	85.568	76.212	27.361	2.9793e-05	38.839	-88.093	-45.798	-49.749	-89.010	138.560	37.655	-89.386	-83.680	-82.543	53.812	-85.775	-80.611	-78.654	-74.490	33.169	-76.734	-8191	255	
18131.518	1	1	0	0	0.16568	0.1301	0.1414	0.34737	0.10211	0.14434	0.19363	0.14115	0.11136	0.16885	0.1408	0.18452	0.20852	0.13285	0.08763	0.31527	-2.7583	-2.4562	-2.7458	-2.9938	-2.5625	-2.9625	-2.7896	-2.4375	-3.1979	-2.6729	-2.7792	-2.9938	-2.4354	-2.8125	-2.8833	-2.4062	-39.888	214.628	25.558	237.161	221.050	-26.987	216.801	183.339	195.318	226.341	-68.495	-12.388	-18.002	38.258	-70.967	-53.106	0.0004238	0.00074984	0.00033989	290.43	1.0416e-05	9.8324e-06	298.55	94.647	1.6761e-05	5.4143e-06	119.32	42.4	29.854	11.599	1.7309e-05	19.214	0.002939	0.0028903	0.00075122	519.72	3.2503e-05	3.1258e-05	529.54	174.96	3.2888e-05	3.1029e-05	242.62	86.254	75.549	26.406	2.7999e-05	38.722	-93.575	53.212	9.252	-89.047	107.367	-12.683	-90.049	-84.303	200.682	75.272	-85.606	-79.901	-78.453	-73.589	20.768	-76.374	-8191	255	
18131.613	1	1	0	0	0.0080715	0.209	0.078067	0.13194	0.13771	0.24477	0.39836	0.21589	0.26203	0.074834	0.35081	0.18662	0.14203	0.064195	0.096655	0.39526	-2.675	-2.65	-2.5229	-3.2188	-2.4562	-2.8417	-2.9292	-2.3542	-3.0896	-2.7875	-2.6271	-3.1729	-2.4646	-2.75	-3.1	-2.5187	196.344	39.766	36.728	251.756	-93.355	4.327	167.383	126.403	-99.139	256.247	132.752	255.822	-54.334	71.283	256.619	172.145	0.00012018	0.00026334	0.00016298	290.34	7.1778e-06	1.1915e-05	295.89	93.929	2.9621e-06	6.412e-06	120.26	42.702	30.275	11.589	6.7501e-06	19.517	0.0028539	0.0027311	0.00070834	524.28	3.2113e-05	3.0179e-05	519.16	177.85	3.1908e-05	2.9879e-05	237.94	88.506	75.049	26.138	2.7823e-05	40.427	255.776	-85.890	7.868	-89.159	-12.652	37.117	-89.974	-84.261	-75.221	94.225	-85.663	-79.863	-78.309	-74.169	79.628	-76.325	-8191	255	
18131.709	1	1	0	0	0.18592	0.147	0.19476	0.17618	0.21895	0.08706	0.23803	0.25279	0.1476	0.047155	0.18834	0.2036	0.16592	0.14198	0.10384	0.071954	-2.5896	-2.7708	-2.4437	-3.0438	-2.5167	-2.7375	-3.0229	-2.2958	-2.9667	-2.6833	-2.4979	-3.0062	-2.4938	-2.6437	-2.9833	-2.2667	242.759	14.577	114.403	178.112	-20.946	253.880	223.087	186.797	-59.440	58.033	206.754	-70.672	98.239	-22.162	-90.305	-4.087	0.0001458	0.00099534	0.00013556	292.57	4.4413e-06	1.8013e-05	295.68	94.695	1.1361e-05	1.2058e-05	118.55	42.227	30.123	11.632	1.6283e-05	19.199	0.002892	0.0027595	0.00072844	545.63	3.2174e-05	3.0411e-05	525.72	184.35	3.2216e-05	3.0074e-05	242.57	91.651	75.012	26.176	2.935e-05	41.667	56.970	-42.757	126.944	-89.562	51.347	0.183	-90.326	-84.452	41.455	68.671	-85.998	-80.048	-78.766	-73.822	186.221	-76.781	-8191	255	
18131.803	1	1	0	0	0.49258	0.14675	0.26669	0.054062	0.20213	0.068239	0.053931	0.29327	0.14699	0.27746	0.15673	0.25839	0.33734	0.022148	0.17457	0.37589	-2.4833	-2.7542	-2.3812	-3.0479	-2.7062	-2.8229	-3.0542	-2.5625	-2.9625	-2.9	-2.4021	-3.2062	-2.6375	-2.575	-3.0042	-2.5167	257.920	118.014	190.357	237.942	135.884	151.132	-80.360	180.590	24.735	36.593	-90.634	23.728	215.313	-25.135	36.122	-60.870	0.00027686	0.00064059	0.00030684	293.79	9.2294e-06	1.1714e-05	293.62	95.866	4.6924e-06	1.0483e-05	118.76	42.977	30.252	11.49	1.2921e-05	19.412	0.0028746	0.0027315	0.00075709	557.55	3.1678e-05	2.9805e-05	538.34	188.26	3.1803e-05	2.9553e-05	249.19	92.454	73.492	25.464	3.0228e-05	41.03	86.808	-57.863	131.772	-89.204	-31.282	33.638	-89.749	-83.989	118.504	65.642	-86.047	-80.164	-79.962	-74.139	226.658	-76.301	-8191	255	
18131.898	1	1	0	0	0.20342	0.10886	0.12845	0.06099	0.071104	0.064283	0.38925	0.11044	0.25972	0.182	0.11838	0.074868	0.16538	0.13353	0.11272	0.2975	-2.4562	-2.8604	-2.2021	-2.975	-2.7458	-2.6354	-3.1437	-2.5	-2.7667	-2.9271	-2.3875	-2.9167	-2.8042	-2.4958	-3.0042	-2.3875	173.308	-47.001	253.705	85.928	83.136	47.743	-46.753	68.081	167.608	-10.396	137.520	130.356	75.929	252.755	-40.567	165.301	9.7223e-05	0.00069833	0.00025611	292.47	1.3794e-06	2.7602e-06	288.61	94.44	7.9405e-06	4.8983e-06	117.63	42.552	30.17	11.36	1.5949e-05	19.301	0.0027428	0.0025908	0.00077937	546.82	3.0109e-05	2.8073e-05	537.67	181.53	2.9466e-05	2.7296e-05	246.94	88.172	70.426	24.618	3.0608e-05	39.413	17.300	82.743	155.101	-89.601	-50.223	-89.680	-90.308	-83.412	103.760	0.011	-85.392	-80.090	-78.867	-74.374	231.710	-76.172	-8191	255	
18131.996	1	1	0	0	0.11727	0.14873	0.15296	0.13717	0.24013	0.18862	0.15208	0.18213	0.13382	0.18489	0.21517	0.33157	0.076751	0.4734	0.15926	0.11531	-2.2667	-2.8312	-2.5292	-3.0833	-2.7021	-2.4271	-3.1042	-2.625	-2.7458	-2.9417	-2.4313	-2.8583	-2.9583	-2.5542	-3.1542	-2.5833	-8.718	144.961	219.227	-34.091	62.487	23.795	129.830	81.323	-7.724	134.464	216.315	-61.064	-89.282	-44.434	139.281	90.086	0.00020945	0.00075956	0.00016203	292.01	1.0814e-06	7.7511e-06	292.76	94.607	1.5501e-05	1.0109e-05	118.22	42.623	30.278	11.3	1.4868e-05	19.473	0.0025508	0.0024447	0.00077346	526.73	2.7566e-05	2.658e-05	536.8	175.11	2.7357e-05	2.6653e-05	247.96	85.572	67.638	24.517	3.03e-05	38.244	55.937	175.057	-99.680	-88.866	156.956	179.269	-90.020	-84.145	46.782	203.444	-85.501	-80.171	-78.792	-74.036	230.525	-76.588	-8191	255	
18132.092	1	1	0	0	0.06276	0.15765	0.14902	0.2211	0.15749	0.2155	0.25351	0.15136	0.10519	0.27668	0.051079	0.087585	0.30876	0.47614	0.032178	0.04313	-2.3021	-2.8917	-2.2958	-2.8604	-2.9396	-2.5687	-3.0292	-2.5583	-2.5583	-3.0312	-2.4688	-2.8021	-2.8792	-2.3417	-2.9896	-2.85	225.139	83.562	-97.825	142.334	231.088	41.856	-12.749	-87.881	54.613	1.530	-51.917	228.760	107.987	-73.412	187.487	181.199	0.00017881	0.001243	0.00016126	292.35	6.0004e-06	1.6791e-05	296.62	93.728	1.8296e-05	8.4031e-06	119.61	42.763	29.732	11.325	5.9974e-06	19.746	0.0023884	0.0024644	0.000769	514.28	2.6208e-05	2.7354e-05	538.74	172.26	2.6176e-05	2.7609e-05	246	84.121	65.825	24.965	2.959e-05	37.785	59.423	137.615	197.423	-89.009	-35.077	201.280	-90.094	-83.706	129.222	206.391	-85.902	-79.807	-79.603	-73.807	48.616	-76.971	-8191	255	
18132.213	1	1	0	0	0.12702	0.22565	0.23065	0.21044	0.18975	0.087529	0.24361	0.30072	0.36761	0.21997	0.29325	0.082412	0.21127	0.15346	0.21865	0.13316	-2.1729	-3.1188	-2.4583	-2.7396	-2.9562	-2.5687	-3.1083	-2.6188	-2.5062	-3	-2.5812	-2.7417	-3.0458	-2.4333	-2.9792	-2.7667	-54.617	45.689	207.002	-72.420	169.000	-27.003	254.349	77.936	-86.612	-78.087	177.018	247.705	216.302	29.112	171.199	184.427	0.00033096	0.0014205	0.00025777	292.49	2.4824e-06	9.3905e-06	299.35	94.741	2.6955e-06	1.3303e-05	120.55	43.125	29.629	11.373	1.8143e-05	19.747	0.0022936	0.0025657	0.00075027	510.5	2.5397e-05	2.8723e-05	536.35	170.2	2.5694e-05	2.9154e-05	244.62	83.403	66.117	25.753	2.9086e-05	37.531	242.263	182.227	-9.534	-89.538	123.513	210.617	-89.830	-83.489	251.492	137.705	-85.797	-79.800	-78.113	-74.398	46.743	-76.116	-8191	255	
18132.309	1	1	0	0	0.27118	0.12385	0.12417	0.16758	0.048199	0.15983	0.19584	0.33449	0.20911	0.13029	0.18875	0.12378	0.02459	0.19832	0.18775	0.1129	-1.9771	-2.9562	-2.5896	-2.7708	-2.95	-2.5833	-3.0187	-2.6937	-2.3625	-2.9562	-2.5354	-2.6208	-3.1688	-2.5354	-2.8521	-2.9062	147.511	17.723	9.914	-83.319	210.508	-1.504	244.783	249.868	255.048	112.398	136.762	243.982	246.540	20.173	-73.786	223.716	0.00038141	0.00072227	0.00040016	293.12	8.3854e-06	7.4601e-06	297.81	94.763	1.1327e-05	1.3089e-05	119.73	42.718	29.548	11.369	1.9561e-05	19.571	0.0023267	0.0027068	0.00072933	503.06	2.5937e-05	2.9587e-05	523.99	166.88	2.6128e-05	2.973e-05	238.15	81.564	66.776	25.848	2.746e-05	36.552	-67.367	-69.459	37.093	-88.746	95.944	98.122	-89.726	-83.415	-68.035	155.289	-85.435	-80.103	-78.692	-73.743	41.905	-76.697	-8191	255	
18132.404	1	1	0	0	0.22635	0.056977	0.20926	0.27327	0.12153	0.10464	0.18051	0.15246	0.09329	0.14099	0.14947	0.17563	0.060479	0.079629	0.11791	0.075711	-2.0333	-3.1375	-2.4583	-2.5542	-3.1354	-2.4021	-2.8	-2.8333	-2.2729	-3.0167	-2.7562	-2.5667	-3.0563	-2.4437	-2.7104	-2.9771	-74.323	146.253	-88.119	192.427	219.322	-91.866	177.407	175.762	66.597	39.973	94.220	62.353	175.600	-59.416	245.802	119.984	0.00037452	0.0012164	0.00011084	293.45	1.5382e-05	7.6193e-06	300.86	94.714	1.2108e-05	6.7142e-06	121.01	43.332	29.329	11.604	6.7179e-06	19.528	0.0023536	0.002663	0.00068786	492.44	2.6301e-05	2.8577e-05	513.06	162.86	2.6412e-05	2.825e-05	231.29	79.34	67.107	25.05	2.5876e-05	35.713	-83.587	6.066	39.886	-88.704	187.182	-20.933	-90.181	-83.756	-63.926	-55.988	-85.698	-80.281	-78.216	-74.459	42.188	-76.529	-8191	255	
18132.502	1	1	0	0	0.15223	0.11819	0.28322	0.20791	0.27967	0.16063	0.35115	0.15856	0.16149	0.23283	0.26046	0.20516	0.054712	0.23664	0.22077	0.095646	-1.8687	-2.8729	-2.775	-2.5312	-3.0187	-2.5479	-2.5333	-2.8646	-2.4646	-2.9083	-2.7313	-2.4688	-2.9646	-2.6708	-2.7458	-3.0292	47.181	111.512	65.132	180.457	-83.777	112.242	124.247	-63.980	-62.036	-20.536	25.449	22.845	193.357	239.253	119.305	200.366	0.00026631	0.0009292	0.0005092	292.23	5.4121e-06	1.2862e-05	302.32	94.769	6.9078e-06	8.2928e-06	122.85	42.926	30.228	11.738	1.5313e-05	19.854	0.0023979	0.0025137	0.00065179	484.49	2.7099e-05	2.7429e-05	508.51	162.65	2.7275e-05	2.7118e-05	228.86	79.085	68.639	24.557	2.4636e-05	35.725	-87.772	9.566	-7.186	-89.498	138.710	50.406	-90.188	-84.188	-66.424	10.373	-85.473	-80.151	-78.926	-73.881	44.123	-77.272	-8191	255	
18132.598	1	1	0	0	0.36691	0.1195	0.057167	0.32309	0.20459	0.063709	0.13632	0.064768	0.3735	0.18134	0.19381	0.097909	0.082036	0.12987	0.13647	0.1252	-2.1042	-2.8792	-2.8271	-2.5271	-3.1083	-2.7167	-2.725	-2.8646	-2.4604	-2.9375	-2.7854	-2.3854	-2.9437	-2.6708	-2.5417	-3.1917	-0.431	58.909	-78.507	214.296	28.287	9.291	71.567	136.311	195.536	-37.802	102.901	22.887	-88.058	192.747	164.921	-36.002	0.00052204	0.00074107	0.00024364	295.32	5.1282e-06	1.1695e-05	303.3	95.242	7.8436e-06	9.605e-06	123.13	42.639	30.299	11.709	1.0199e-05	19.497	0.0024397	0.0023903	0.00061667	485.61	2.7064e-05	2.5635e-05	495.57	162.72	2.6972e-05	2.5502e-05	221.92	79.587	68.056	23.797	2.3192e-05	35.934	-98.475	23.041	-1.881	-89.023	129.682	20.832	-90.038	-83.726	-24.875	119.981	-85.118	-80.348	-78.778	-73.421	62.521	-76.190	-8191	255	
18132.693	1	1	0	0	0.24782	0.12316	0.13908	0.14572	0.16213	0.12657	0.13	0.32284	0.10685	0.16726	0.17656	0.10512	0.017694	0.17004	0.29745	0.20843	-2.1562	-2.8583	-2.8521	-2.4833	-3.0125	-2.7271	-2.5208	-3.0896	-2.6	-2.85	-3.0021	-2.275	-2.9604	-2.7729	-2.3667	-3.25	168.973	247.879	93.261	208.385	44.153	-40.451	18.823	-78.700	104.872	217.302	56.584	173.403	131.067	6.577	109.257	206.541	0.00025087	0.0016519	0.00016831	290.53	5.5539e-06	5.2148e-06	298.78	94.295	1.3831e-05	6.885e-06	120.6	43.128	30.436	11.612	1.4603e-06	19.655	0.0023627	0.0022428	0.00057463	484.51	2.5848e-05	2.4157e-05	481.44	162.96	2.5711e-05	2.4049e-05	216.39	80.294	66.097	23.202	2.2335e-05	36.836	113.899	-35.967	10.119	-88.998	-17.792	41.256	-90.178	-84.102	163.101	116.889	-85.327	-80.612	-78.877	-73.348	252.726	-76.893	-8191	255	
18132.814	1	1	0	0	0.084801	0.090483	0.22679	0.056405	0.1288	0.14674	0.16191	0.24686	0.11664	0.16764	0.0066636	0.056717	0.063839	0.12537	0.12335	0.043004	-2.0917	-2.5979	-3.1521	-2.5479	-3.1667	-2.9771	-2.5062	-3.2333	-2.6792	-2.7	-2.8292	-2.4813	-2.8896	-2.7771	-2.2708	-3.1271	-44.157	11.617	148.977	179.845	83.434	9.234	-24.647	228.121	-87.351	210.088	24.253	162.300	9.892	58.150	254.354	41.873	0.00034759	0.0005457	0.00022835	290.11	7.3312e-06	1.3413e-05	302.98	94.629	2.1195e-06	2.694e-06	122.13	43.708	30.613	11.889	1.0077e-05	20.171	0.0022813	0.0021789	0.00057414	497.21	2.5406e-05	2.373e-05	486.97	167.41	2.522e-05	2.3649e-05	220.78	82.988	66.14	23.261	2.3358e-05	37.77	48.251	-2.143	-53.488	-89.533	-72.297	14.226	-90.426	-84.194	27.547	22.462	-85.851	-80.222	-78.565	-74.171	186.330	-75.785	-8191	255	
18132.908	1	1	0	0	0.26052	0.10955	0.075191	0.30917	0.37475	0.1015	0.12244	0.15585	0.20231	0.099444	0.23464	0.13523	0.099809	0.14795	0.11198	0.18504	-2.0187	-2.6646	-3.15	-2.5979	-2.8667	-2.7375	-2.4688	-2.9833	-2.8333	-2.6312	-3.1583	-2.4458	-2.75	-2.9146	-2.3354	-3.0938	-6.993	235.371	-92.043	248.284	-56.474	187.879	-61.279	213.328	-71.081	-24.492	-37.177	133.226	42.454	74.167	55.581	189.740	0.00023852	0.00059053	0.00047683	294.88	1.1314e-05	8.2364e-06	303.24	96.634	1.0752e-05	9.8971e-06	123.88	44.38	30.588	11.802	1.6651e-05	20.317	0.0022245	0.0021078	0.00059089	501.22	2.4281e-05	2.2574e-05	494.84	168.38	2.3962e-05	2.2539e-05	225.29	82.808	64.566	22.697	2.3731e-05	37.314	61.278	-28.779	183.766	-89.329	-59.901	0.258	-90.528	-83.491	89.516	59.379	-85.450	-80.273	-78.389	-73.596	210.396	-76.098	-8191	255	
18133.004	1	1	0	0	0.067555	0.19829	0.11862	0.27318	0.084144	0.042525	0.27171	0.18679	0.37846	0.094939	0.034013	0.15148	0.051851	0.16656	0.11628	0.18276	-2.1125	-2.3875	-3.1896	-2.2354	-2.8292	-2.9104	-2.4104	-3.0042	-2.5833	-2.4042	-2.9875	-2.425	-2.6354	-2.9375	-2.25	-2.8792	109.024	82.135	-15.030	-77.500	159.817	-50.135	52.220	224.830	128.215	121.593	94.609	175.935	23.500	239.564	26.714	-64.592	0.00017083	0.00048054	0.00016787	294.07	1.1349e-05	3.2628e-06	301.86	95.735	8.0061e-06	7.0686e-06	121.45	43.84	30.629	11.787	4.6064e-06	20.032	0.0021031	0.002002	0.00061383	494.34	2.3405e-05	2.1845e-05	500.94	165.59	2.3231e-05	2.1864e-05	227.55	80.652	62.936	22.458	2.4867e-05	36.688	15.170	-14.268	159.056	-89.205	-65.945	-38.979	-89.585	-83.584	86.407	117.977	-85.653	-80.420	-78.000	-73.923	160.181	-76.282	-8191	255	
18133.100	1	1	0	0	0.24396	0.18944	0.10356	0.093723	0.21567	0.12334	0.22677	0.22887	0.11898	0.21914	0.1701	0.097106	0.28834	0.20316	0.29164	0.060824	-2.375	-2.6271	-3.0292	-2.3667	-2.5062	-2.9417	-2.2792	-2.9229	-2.7562	-2.5104	-3.2354	-2.5854	-2.6354	-3.075	-2.5083	-2.9167	131.824	-68.242	84.610	95.454	10.844	-60.203	257.816	124.723	-101.372	-14.092	210.210	-22.124	-9.997	118.550	40.986	-37.233	8.9791e-05	0.00033624	0.00033462	293.67	8.7718e-06	1.1503e-05	302.81	96.523	7.1941e-06	1.2725e-05	122.42	43.969	30.742	11.562	1.8204e-05	20.142	0.0020567	0.0020261	0.00064872	490.2	2.314e-05	2.2604e-05	511.41	164.71	2.3084e-05	2.2983e-05	234.56	80.838	63.2	23.272	2.6374e-05	36.771	116.135	210.605	197.151	-88.870	249.154	230.894	-89.741	-83.671	127.984	230.031	-85.461	-80.769	-78.219	-73.530	139.079	-76.173	-8191	255	
18133.197	1	1	0	0	0.12295	0.019561	0.21212	0.12848	0.41774	0.17413	0.16154	0.078873	0.16176	0.070309	0.14495	0.23261	0.21588	0.17141	0.049727	0.33752	-2.5521	-2.4104	-3.0187	-2.5312	-2.55	-3.0167	-2.45	-2.8354	-2.9083	-2.4792	-3.075	-2.7083	-2.5563	-3.1813	-2.4604	-2.8417	107.089	-55.815	113.744	-70.575	-9.703	18.396	239.121	225.034	62.543	97.040	31.686	-39.737	226.143	36.548	-30.442	250.988	0.00018135	0.0009278	0.00013416	292.7	1.3122e-05	3.9482e-06	302.31	96.107	9.6223e-06	1.2454e-05	123.22	43.948	30.543	11.756	1.5311e-05	20.119	0.002067	0.0021934	0.00068048	489.98	2.3051e-05	2.4311e-05	518.33	165.42	2.3065e-05	2.5017e-05	238.2	81.259	63.425	24.357	2.6803e-05	36.978	16.877	184.057	38.730	-89.194	-29.694	195.707	-89.858	-83.346	59.037	185.330	-85.939	-79.851	-79.154	-73.414	47.919	-75.951	-8191	255	
#DATA ENDS
