BOXY.EXE: ISS Imagent and Oximeter Data Acquisition Program Version 0.80
Ascii Record File

#ACQ INFORMATION
2  Detector Channels 
16  External MUX Channels 
1  Auxiliary Channels 
5000  Waveform (CCF) Frequency (Hz)
1  Waveforms Skipped 
30  Waveforms Averaged 
1  Cycles Averaged 
16  Acquisitions per Waveform 
10.0806  Updata Rate (Hz) 

#FILE INFORMATION
TRUE -- External MUX Channel results are PARSED.
FALSE -- AC DC and Phase are NOT grouped.
TRUE -- Companion Program Settings File CREATED.
FALSE -- AC data not excluded
FALSE -- DC data not excluded
FALSE -- Phase data not excluded
FALSE -- Auxillary Chn. data not excluded
Tab delimiters

#CALIBRATION STATE
TRUE -- Waveform Calibration Values APPLIED.


#AUX CALIBRATION VALUES
Val Type	aux-1	

Term	1.0000e+00	
Factor	0.0000e+00	


#WF CALIBRATION VALUES
A = Detector Channel
Val Type	A-AC1	A-AC2	A-AC3	A-AC4	A-AC5	A-AC6	A-AC7	A-AC8	A-AC9	A-AC10	A-AC11	A-AC12	A-AC13	A-AC14	A-AC15	A-AC16	A-DC1	A-DC2	A-DC3	A-DC4	A-DC5	A-DC6	A-DC7	A-DC8	A-DC9	A-DC10	A-DC11	A-DC12	A-DC13	A-DC14	A-DC15	A-DC16	A-Ph1	A-Ph2	A-Ph3	A-Ph4	A-Ph5	A-Ph6	A-Ph7	A-Ph8	A-Ph9	A-Ph10	A-Ph11	A-Ph12	A-Ph13	A-Ph14	A-Ph15	A-Ph16	

Term	0.00000e+00	0.00000e+00	0.00000e+00	0.00000e+00	0.00000e+00	0.00000e+00	0.00000e+00	0.00000e+00	0.00000e+00	0.00000e+00	0.00000e+00	0.00000e+00	0.00000e+00	0.00000e+00	0.00000e+00	0.00000e+00	0.00000e+00	0.00000e+00	0.00000e+00	0.00000e+00	0.00000e+00	0.00000e+00	0.00000e+00	0.00000e+00	0.00000e+00	0.00000e+00	0.00000e+00	0.00000e+00	0.00000e+00	0.00000e+00	0.00000e+00	0.00000e+00	0.00000e+00	0.00000e+00	0.00000e+00	0.00000e+00	0.00000e+00	0.00000e+00	0.00000e+00	0.00000e+00	0.00000e+00	0.00000e+00	0.00000e+00	0.00000e+00	0.00000e+00	0.00000e+00	0.00000e+00	0.00000e+00	
Factor	1.00000e+00	1.00000e+00	1.00000e+00	1.00000e+00	1.00000e+00	1.00000e+00	1.00000e+00	1.00000e+00	1.00000e+00	1.00000e+00	1.00000e+00	1.00000e+00	1.00000e+00	1.00000e+00	1.00000e+00	1.00000e+00	1.00000e+00	1.00000e+00	1.00000e+00	1.00000e+00	1.00000e+00	1.00000e+00	1.00000e+00	1.00000e+00	1.00000e+00	1.00000e+00	1.00000e+00	1.00000e+00	1.00000e+00	1.00000e+00	1.00000e+00	1.00000e+00	X	X	X	X	X	X	X	X	X	X	X	X	X	X	X	X	

B = Detector Channel
Val Type	B-AC1	B-AC2	B-AC3	B-AC4	B-AC5	B-AC6	B-AC7	B-AC8	B-AC9	B-AC10	B-AC11	B-AC12	B-AC13	B-AC14	B-AC15	B-AC16	B-DC1	B-DC2	B-DC3	B-DC4	B-DC5	B-DC6	B-DC7	B-DC8	B-DC9	B-DC10	B-DC11	B-DC12	B-DC13	B-DC14	B-DC15	B-DC16	B-Ph1	B-Ph2	B-Ph3	B-Ph4	B-Ph5	B-Ph6	B-Ph7	B-Ph8	B-Ph9	B-Ph10	B-Ph11	B-Ph12	B-Ph13	B-Ph14	B-Ph15	B-Ph16	

Term	0.00000e+00	0.00000e+00	0.00000e+00	0.00000e+00	0.00000e+00	0.00000e+00	0.00000e+00	0.00000e+00	0.00000e+00	0.00000e+00	0.00000e+00	0.00000e+00	0.00000e+00	0.00000e+00	0.00000e+00	0.00000e+00	0.00000e+00	0.00000e+00	0.00000e+00	0.00000e+00	0.00000e+00	0.00000e+00	0.00000e+00	0.00000e+00	0.00000e+00	0.00000e+00	0.00000e+00	0.00000e+00	0.00000e+00	0.00000e+00	0.00000e+00	0.00000e+00	-2.90631e+01	-1.25552e+02	-1.34417e+02	-1.83772e+02	-7.20645e+01	-6.10955e+01	-1.58193e+02	-1.62015e+02	-3.23909e+01	-1.01832e+02	-1.70609e+02	-1.70696e+02	-1.78180e+02	-1.76850e+02	-4.40641e+01	-1.49933e+02	
Factor	3.20294e-05	1.37736e-04	3.60325e-05	1.67790e-01	1.23194e-06	1.40486e-06	1.82739e-01	6.01972e-02	1.41033e-06	1.15288e-06	1.00393e-01	3.50361e-02	3.11072e-02	1.11864e-02	1.47115e-06	1.60536e-02	1.28001e-06	1.31859e-06	3.66219e-07	8.30035e-02	1.44006e-08	1.44477e-08	8.47747e-02	2.96083e-02	1.44213e-08	1.44501e-08	4.73672e-02	1.64815e-02	1.52180e-02	5.44559e-03	1.43905e-08	7.51965e-03	X	X	X	X	X	X	X	X	X	X	X	X	X	X	X	X	



#DISTANCE SETTINGS
A = Detector Channel
A-1	A-2	A-3	A-4	A-5	A-6	A-7	A-8	A-9	A-10	A-11	A-12	A-13	A-14	A-15	A-16	

2.5000e+00	3.0000e+00	2.5000e+00	3.0000e+00	2.0000e+00	3.0000e+00	1.5000e+00	3.0000e+00	3.0000e+00	3.0000e+00	3.0000e+00	3.0000e+00	3.0000e+00	3.0000e+00	1.5000e+00	3.0000e+00	

B = Detector Channel
B-1	B-2	B-3	B-4	B-5	B-6	B-7	B-8	B-9	B-10	B-11	B-12	B-13	B-14	B-15	B-16	

1.0000e+01	1.0000e+01	1.0000e+01	1.4400e+00	1.0000e+01	1.0000e+01	1.5100e+00	1.9400e+00	1.0000e+01	1.0000e+01	1.9900e+00	2.4900e+00	2.4100e+00	2.9000e+00	1.0000e+01	2.9800e+00	




#DATA BEGINS
time	group	step	mark	flag	A-AC1	A-AC2	A-AC3	A-AC4	A-AC5	A-AC6	A-AC7	A-AC8	A-AC9	A-AC10	A-AC11	A-AC12	A-AC13	A-AC14	A-AC15	A-AC16	A-DC1	A-DC2	A-DC3	A-DC4	A-DC5	A-DC6	A-DC7	A-DC8	A-DC9	A-DC10	A-DC11	A-DC12	A-DC13	A-DC14	A-DC15	A-DC16	A-Ph1	A-Ph2	A-Ph3	A-Ph4	A-Ph5	A-Ph6	A-Ph7	A-Ph8	A-Ph9	A-Ph10	A-Ph11	A-Ph12	A-Ph13	A-Ph14	A-Ph15	A-Ph16	B-AC1	B-AC2	B-AC3	B-AC4	B-AC5	B-AC6	B-AC7	B-AC8	B-AC9	B-AC10	B-AC11	B-AC12	B-AC13	B-AC14	B-AC15	B-AC16	B-DC1	B-DC2	B-DC3	B-DC4	B-DC5	B-DC6	B-DC7	B-DC8	B-DC9	B-DC10	B-DC11	B-DC12	B-DC13	B-DC14	B-DC15	B-DC16	B-Ph1	B-Ph2	B-Ph3	B-Ph4	B-Ph5	B-Ph6	B-Ph7	B-Ph8	B-Ph9	B-Ph10	B-Ph11	B-Ph12	B-Ph13	B-Ph14	B-Ph15	B-Ph16	aux-1	digaux	

11009.253	1	1	0	768	0.27152	0.12138	0.14854	0.24117	0.20208	0.2589	0.23663	0.11473	0.20742	0.077022	0.17212	0.40604	0.22044	0.19825	0.18447	0.11988	-2.5208	-2.5375	-3.1125	-2.8458	-2.6625	-3.0125	-2.6979	-3.2396	-2.8438	-2.5187	-3.1604	-2.7083	-2.8917	-3.2	-2.5542	-3.0521	197.547	423.279	428.349	433.268	198.145	274.930	144.495	484.042	182.218	396.766	192.863	368.136	179.638	487.673	172.714	497.268	0.00079939	0.00070611	5.8664e-05	1344.7	6.5296e-06	4.6612e-06	1339.3	361.37	2.4826e-06	1.5208e-06	411.18	138.52	120.8	41.213	7.9372e-06	51.017	0.00054329	0.00050017	0.00015269	1378.6	5.8975e-06	5.5175e-06	1376.2	373.03	5.8593e-06	5.5523e-06	426.26	143.24	124.29	42.693	6.2695e-06	53.168	295.120	229.341	497.962	153.582	325.055	216.950	153.407	158.406	401.852	274.255	157.777	162.226	162.804	167.435	360.095	166.466	-8191	255	
11009.349	1	1	0	0	0.18565	0.11903	0.37684	0.21928	0.08775	0.13644	0.035718	0.26402	0.16424	0.18861	0.20338	0.33112	0.21881	0.093943	0.26693	0.14086	-2.6604	-2.4	-3.0125	-2.7479	-2.6542	-3.0083	-2.6542	-3.0417	-3.0438	-2.4542	-3.0812	-2.9896	-2.7146	-3.1896	-2.5729	-2.8479	443.654	263.780	194.375	468.853	424.287	216.355	352.430	405.217	146.278	214.511	475.981	425.981	470.962	233.882	355.934	482.486	0.00080281	0.00036935	8.0403e-05	1335.9	2.4535e-06	8.0827e-06	1345.7	363.67	5.8392e-06	5.723e-06	413.67	138.69	121.29	41.349	1.2254e-05	51.357	0.00053315	0.00050988	0.0001592	1375.9	5.6766e-06	5.6442e-06	1379	373.42	5.6158e-06	5.6883e-06	427.06	143.03	124.07	42.812	6.2288e-06	53.06	287.589	237.811	203.278	153.625	332.082	267.132	153.378	158.097	317.895	238.830	157.688	162.163	162.377	167.132	323.651	166.071	-8191	255	
11009.445	1	1	0	0	0.11718	0.12903	0.28138	0.25399	0.13706	0.12372	0.097668	0.049411	0.234	0.13297	0.26612	0.34479	0.22034	0.05342	0.41899	0.14132	-2.7042	-2.3875	-2.9542	-2.9188	-2.5042	-3.2333	-2.8583	-2.7229	-3.0854	-2.5396	-3.0542	-2.9938	-2.4917	-3.2938	-2.6937	-2.9292	469.313	189.235	325.798	367.228	168.670	262.274	434.977	141.981	373.843	263.120	407.231	423.268	367.937	338.308	393.644	187.207	0.00077793	0.00047605	0.00012027	1335	4.6969e-06	3.3374e-06	1340.4	362.49	3.0657e-06	7.8348e-06	413.74	138.98	121.25	41.514	3.3867e-06	51.13	0.00050652	0.00052518	0.00015692	1373.5	5.4294e-06	5.7856e-06	1375.3	372.9	5.4122e-06	5.8396e-06	426.28	142.62	123.82	42.921	6.0343e-06	52.907	288.034	198.798	228.480	153.735	291.670	301.286	153.400	158.520	264.129	223.265	157.815	162.265	162.453	167.023	387.065	166.064	-8191	255	
11009.541	1	1	0	0	0.19393	0.092349	0.29521	0.22644	0.098632	0.094036	0.17718	0.16025	0.28321	0.1198	0.012216	0.24908	0.21955	0.092224	0.34404	0.14029	-2.5771	-2.4042	-2.9521	-3.0792	-2.475	-3.0417	-3.0667	-2.7562	-3.1229	-2.5687	-3.0229	-2.9917	-2.5125	-3.0938	-2.6188	-2.5896	154.216	183.777	392.179	486.129	466.006	360.903	399.128	457.090	198.077	234.519	206.905	363.410	444.533	492.789	273.070	318.772	0.00076426	0.00015938	0.00021782	1338	1.048e-05	3.5174e-06	1339.2	363.54	8.1104e-06	5.8755e-06	415.19	139.32	121.06	41.285	8.712e-07	51.256	0.00049763	0.0005443	0.00015238	1373.6	5.411e-06	6.107e-06	1375.1	372.54	5.4371e-06	6.1242e-06	426.29	142.83	123.83	42.984	5.9067e-06	52.84	284.727	180.108	224.736	153.785	246.674	294.650	153.662	158.408	317.123	237.435	157.588	162.206	162.518	167.296	261.965	166.185	-8191	255	
11009.637	1	1	0	0	0.30273	0.12157	0.057341	0.13437	0.24038	0.15467	0.35769	0.2672	0.22888	0.19434	0.043356	0.31063	0.029916	0.33411	0.055112	0.084801	-2.8646	-2.4167	-2.9271	-3.2208	-2.4146	-2.9458	-3.0396	-2.7458	-3.0792	-2.6292	-2.9229	-2.9771	-2.3937	-3.0687	-2.9437	-2.6125	397.874	249.629	467.097	152.694	253.097	261.600	354.615	461.996	403.390	276.196	445.510	454.523	350.473	146.055	233.557	339.167	0.00074032	0.00071034	0.00015325	1335.5	7.9377e-06	3.6918e-06	1342.7	362.7	7.5563e-06	6.5057e-06	413.09	138.83	120.25	41.387	1.0896e-05	51.141	0.00051476	0.00056573	0.00014924	1371.5	5.6457e-06	6.1867e-06	1373.8	372.43	5.662e-06	6.2149e-06	425.66	142.48	123.83	43.028	5.7844e-06	52.838	281.425	251.571	208.366	153.718	266.273	361.361	153.420	158.110	297.779	231.633	157.788	162.171	162.727	167.380	357.805	166.313	-8191	255	
11009.733	1	1	0	0	0.21478	0.29378	0.082106	0.12828	0.18814	0.26658	0.48129	0.22819	0.20681	0.033517	0.25924	0.259	0.18527	0.33365	0.14877	0.11235	-2.7583	-2.6479	-2.7583	-3.1188	-2.3396	-3.1604	-2.925	-2.5312	-3.25	-2.6979	-2.8271	-3.05	-2.725	-3.0604	-2.9229	-2.6188	143.725	466.891	464.447	228.654	465.732	452.058	461.577	412.137	348.676	336.685	434.037	148.021	408.807	471.857	153.353	469.294	0.00088273	0.00018861	9.7301e-05	1340	7.5423e-06	4.0176e-06	1339.5	363.76	6.7696e-06	5.7357e-06	413.38	139.57	120.91	41.27	2.3405e-06	50.998	0.00053426	0.00056062	0.00014674	1371.2	5.8679e-06	6.0427e-06	1371.9	371.91	5.9259e-06	5.9957e-06	425.41	142.49	124.42	42.874	5.6105e-06	52.728	286.885	444.335	291.607	154.002	214.237	372.655	153.595	158.264	316.105	246.551	157.881	162.515	162.727	167.358	439.170	166.298	-8191	255	
11009.852	1	1	0	0	0.19313	0.13914	0.12536	0.22332	0.2128	0.11979	0.04461	0.21378	0.31843	0.17474	0.083089	0.18779	0.20886	0.28632	0.023431	0.20624	-2.6542	-2.7062	-2.7396	-3.2917	-2.6083	-3.1	-3.2354	-2.6667	-3.0625	-2.5833	-2.6958	-3.0958	-2.5354	-2.9062	-2.9583	-2.5896	245.892	455.752	246.673	443.314	210.955	150.577	427.057	384.899	351.818	415.208	463.384	411.777	431.695	183.654	304.253	412.104	0.0008516	0.00047364	8.397e-05	1341.3	1.8953e-06	3.7464e-06	1344.5	363.59	6.4434e-06	9.6228e-07	414.15	139.23	120.86	41.078	5.0452e-06	50.993	0.00055608	0.00054499	0.00014321	1371.8	6.0815e-06	5.927e-06	1372.5	371.89	6.1433e-06	5.8408e-06	425.76	142.72	124.58	42.817	5.459e-06	52.877	283.791	221.207	254.570	153.539	248.742	292.941	153.525	158.118	388.063	247.882	158.060	162.368	163.131	167.306	333.519	165.936	-8191	255	
11009.948	1	1	0	0	0.18272	0.27175	0.1468	0.18267	0.15092	0.099558	0.21611	0.1606	0.086785	0.19049	0.21482	0.30651	0.12465	0.28409	0.23193	0.14644	-2.6688	-2.6604	-2.5104	-3.375	-2.4396	-2.8917	-3.2979	-2.5708	-3.0938	-2.8167	-2.6708	-3.2479	-2.6708	-2.8646	-3.0938	-2.4896	353.837	181.310	360.863	188.542	484.796	421.688	451.190	439.440	377.041	488.179	470.528	437.482	184.580	364.520	457.722	227.600	0.00077192	0.00089946	0.000243	1335.8	6.8818e-06	4.4639e-06	1341.2	361.03	7.6136e-06	5.233e-06	412.88	139.24	120.86	40.939	3.1934e-06	51.184	0.00056958	0.00052856	0.00013844	1371.7	6.162e-06	5.7958e-06	1370.8	372.03	6.1609e-06	5.7664e-06	424.73	143.21	124.7	42.823	5.3776e-06	53.055	290.788	254.260	232.093	153.692	207.389	400.545	153.456	158.220	327.578	291.592	157.814	162.376	162.847	167.249	326.619	166.046	-8191	255	
11010.045	1	1	0	0	0.097393	0.25318	0.21735	0.32996	0.14011	0.29092	0.050666	0.41853	0.15659	0.15902	0.17383	0.19981	0.12775	0.20407	0.088618	0.22909	-2.7458	-2.7854	-2.4208	-3.1063	-2.7167	-2.8417	-3.2417	-2.6063	-3.0875	-2.9688	-2.5563	-3.1979	-2.5917	-2.6688	-2.9958	-2.5083	191.081	147.090	372.384	464.584	435.521	339.320	466.204	466.546	209.850	295.736	452.811	305.019	191.079	396.815	173.508	238.850	0.00089946	0.00047331	0.00022878	1341.6	5.7541e-06	5.8511e-06	1344.6	362.66	1.7546e-06	4.5895e-06	411.27	139.93	121.22	41.318	5.1225e-06	50.858	0.00056852	0.0005243	0.0001369	1376.8	6.0595e-06	5.6921e-06	1372.3	373.13	6.028e-06	5.6544e-06	424.13	143.45	124.49	42.797	5.4341e-06	53.092	287.434	224.045	243.455	153.635	296.322	298.973	153.528	158.297	361.082	261.081	157.954	162.093	162.776	167.117	315.249	166.517	-8191	255	
11010.141	1	1	0	0	0.044497	0.089049	0.072103	0.054676	0.19337	0.1059	0.098566	0.21074	0.2688	0.29419	0.18318	0.17527	0.21126	0.097474	0.11884	0.22169	-2.3854	-3.0854	-2.4229	-3.2021	-2.6	-2.475	-3.2708	-2.5896	-2.8333	-3.075	-2.6729	-2.9854	-2.8354	-2.5854	-3.0938	-2.7083	295.728	351.552	185.067	428.182	475.983	460.182	431.372	406.015	341.903	422.453	265.662	490.545	317.387	296.863	469.585	396.342	0.00085575	0.00040317	8.0805e-05	1340	5.3009e-06	2.4733e-06	1339.5	361.85	3.6169e-06	1.0086e-06	412.27	139.05	120.85	41.211	6.6254e-06	50.872	0.00055012	0.00050801	0.00014031	1378	5.9188e-06	5.5009e-06	1371.6	373.74	5.8942e-06	5.4681e-06	424.69	143.29	124.22	42.735	5.7261e-06	53.149	292.097	185.974	272.222	153.775	256.543	293.235	153.745	158.492	279.142	393.267	157.719	162.445	162.877	167.284	265.307	166.414	-8191	255	
11010.237	1	1	0	0	0.20022	0.13222	0.065031	0.33096	0.23177	0.23629	0.32174	0.36392	0.31095	0.19244	0.30717	0.10367	0.219	0.11343	0.2643	0.20075	-2.425	-2.9729	-2.3375	-3.1562	-2.7708	-2.4896	-3.1146	-2.7667	-2.6292	-3.05	-2.5646	-3.0792	-2.9083	-2.4583	-3.1979	-2.6708	254.326	210.384	334.081	456.251	486.961	424.432	418.190	461.421	245.652	387.143	168.383	442.914	423.417	432.949	500.219	174.806	0.0007836	0.00036435	0.00011797	1335.1	8.0086e-06	5.6154e-06	1345.7	363.81	6.0252e-06	4.9808e-06	413.08	139.71	121.14	40.979	3.1201e-06	51.136	0.0005382	0.00049442	0.00014752	1374.7	5.7752e-06	5.3665e-06	1375.7	373.81	5.7993e-06	5.3738e-06	425.18	143.5	124.16	42.63	5.9254e-06	53.045	289.956	216.950	224.974	153.522	277.782	427.489	153.317	158.258	334.553	247.064	157.931	162.434	162.928	167.072	298.207	166.375	-8191	255	
11010.333	1	1	0	0	0.22631	0.11433	0.21897	0.38127	0.17046	0.20031	0.089583	0.43483	0.28563	0.26792	0.20449	0.042963	0.31642	0.26017	0.14366	0.24414	-2.1979	-2.9354	-2.5354	-3.0521	-2.9396	-2.5417	-3.2396	-2.7938	-2.6271	-3.2083	-2.5729	-2.7896	-2.8833	-2.5896	-2.9792	-2.5438	203.011	171.925	167.892	462.643	423.971	244.782	434.198	401.646	284.320	424.425	497.630	328.157	444.404	152.992	311.595	485.420	0.00078001	0.00064246	0.00018051	1335.8	1.7959e-06	5.5228e-06	1340.1	362	5.2098e-06	3.9963e-06	411.69	138.69	120.7	40.973	4.0157e-06	50.764	0.00052229	0.00048655	0.00015316	1373.7	5.6597e-06	5.3803e-06	1374.3	373.09	5.6273e-06	5.4552e-06	426.64	143.26	124.01	42.698	6.1881e-06	52.929	288.191	245.026	190.819	153.766	207.912	249.643	153.584	158.371	345.977	250.545	157.659	162.361	162.950	167.189	299.835	166.524	-8191	255	
11010.454	1	1	0	0	0.12295	0.088813	0.25691	0.14267	0.070362	0.15582	0.25648	0.022867	0.12644	0.16091	0.11518	0.17423	0.15456	0.11485	0.16977	0.25815	-2.0896	-3.2354	-2.2833	-3.0396	-3.1729	-2.4208	-3.2354	-2.8	-2.5583	-3.0729	-2.7125	-2.9354	-2.9646	-2.7104	-3.0812	-3.0354	369.358	346.989	362.126	436.315	362.294	267.974	417.699	463.842	148.695	222.463	463.443	450.101	446.050	164.501	354.540	181.766	0.00082573	0.0003168	0.00014833	1334.8	2.1386e-06	7.306e-06	1342.6	365.2	9.5461e-06	2.7524e-06	412.84	139.12	120.44	41.186	1.9189e-06	51.244	0.00051823	0.0005117	0.0001591	1372.7	5.5287e-06	5.6899e-06	1377.3	373.92	5.5216e-06	5.7472e-06	427.38	143.05	123.81	42.765	6.1619e-06	53.054	288.508	287.890	210.923	153.707	344.558	332.797	153.464	158.305	319.467	257.217	157.806	162.290	162.687	167.036	187.671	166.078	-8191	255	
11010.548	1	1	0	0	0.1323	0.23161	0.1441	0.15656	0.23022	0.26937	0.22399	0.22441	0.10565	0.21028	0.074351	0.032622	0.13139	0.33171	0.18115	0.17455	-2.1125	-3.1937	-2.5146	-2.7812	-2.9208	-2.5333	-3.1271	-2.9667	-2.5312	-3.1	-2.7917	-2.7542	-3.05	-2.5229	-2.9229	-2.9958	260.515	346.784	261.658	437.457	155.813	242.737	449.838	190.500	396.884	285.920	268.491	416.676	493.066	463.953	230.284	163.763	0.00080383	0.0008056	0.0001044	1341.4	6.9387e-06	4.1774e-06	1345.6	363.01	6.0317e-06	1.659e-06	415.56	140.38	120.96	41.346	2.6998e-06	51.149	0.0005008	0.00053769	0.00015515	1373.3	5.3398e-06	5.9241e-06	1376	372.42	5.3562e-06	5.9225e-06	426.02	143.02	123.68	42.928	5.9226e-06	52.96	302.914	166.572	194.078	153.540	303.110	288.442	153.281	158.556	323.686	223.924	157.542	162.181	162.977	167.018	312.459	166.173	-8191	255	
11010.644	1	1	0	0	0.14879	0.21765	0.098206	0.42007	0.098111	0.10604	0.23151	0.33999	0.16517	0.19276	0.12023	0.16394	0.13338	0.22575	0.26549	0.19051	-1.925	-3.1021	-2.6562	-2.9313	-3.2062	-2.6125	-3.0625	-3.0938	-2.4646	-3.0896	-2.8958	-2.5104	-3.0771	-2.6583	-2.8417	-3.0938	237.707	425.800	447.976	463.958	413.158	500.270	463.620	400.115	272.319	376.363	403.415	160.679	245.743	220.817	486.760	445.173	0.00087441	0.00064746	0.00025265	1335.3	3.156e-06	3.0661e-06	1341.6	364.01	7.4651e-06	3.151e-06	415.4	139.64	120.75	41.321	8.9075e-06	51.32	0.00049724	0.0005534	0.00014943	1372.1	5.4332e-06	6.0587e-06	1375.1	372.42	5.5333e-06	6.1515e-06	426	142.9	123.97	43.006	5.7775e-06	52.897	291.542	201.767	277.373	153.580	303.436	241.155	153.559	158.550	317.184	189.095	157.959	161.814	162.870	167.543	304.628	166.405	-8191	255	
11010.740	1	1	0	0	0.22132	0.18908	0.13337	0.08939	0.088062	0.30394	0.28589	0.34649	0.070643	0.075175	0.13867	0.37043	0.16581	0.013238	0.093441	0.081573	-2.1958	-2.7708	-2.6833	-2.5917	-3.2062	-2.6333	-2.9625	-3.0625	-2.3812	-3.1	-2.6937	-2.75	-3.375	-2.6604	-2.6083	-3.1396	356.402	295.082	221.055	443.127	220.316	143.788	433.539	448.656	345.532	423.885	436.601	445.671	417.105	496.428	305.605	146.122	0.00087762	0.00039432	9.5799e-05	1336.7	8.1217e-06	7.0397e-06	1341.7	362.44	5.0826e-06	4.3483e-06	412.72	139.46	120.77	41.095	8.0428e-06	50.987	0.00052304	0.00056335	0.00014677	1371.5	5.6595e-06	6.1476e-06	1375.2	372.06	5.8364e-06	6.072e-06	425.18	142.58	124.51	42.93	5.7171e-06	52.719	286.739	284.123	252.277	153.826	270.266	330.257	153.399	158.458	282.913	250.865	157.862	162.269	162.921	167.409	278.867	166.312	-8191	255	
11010.814	1	1	0	0	0.069328	0.10861	0.10085	0.16732	0.19264	0.10212	0.22236	0.037572	0.23236	0.13017	0.066384	0.13701	0.13942	0.062027	0.066643	0.15091	-1.7188	-3.1208	-2.8479	-2.5417	-3.175	-2.4625	-2.9521	-3.2313	-2.3208	-2.8187	-2.9542	-2.5729	-3.0438	-2.5729	-2.5854	-3.225	498.680	147.775	152.177	421.226	403.655	366.824	146.617	493.795	446.390	470.689	358.281	417.210	212.082	164.747	336.150	462.515	0.00077358	0.00054153	0.00011773	1336.6	6.9365e-06	2.7886e-06	1344.9	362.86	5.399e-06	1.5798e-06	411.63	138.61	120.23	41.232	2.1087e-06	50.93	0.00055212	0.0005534	0.00014547	1371.6	6.0289e-06	6.0134e-06	1374.4	371.75	6.0508e-06	5.9765e-06	425.15	142.15	124.38	42.908	5.6075e-06	52.762	291.469	233.203	223.071	153.663	264.249	197.024	153.510	158.456	278.752	409.650	158.078	162.306	162.782	167.447	328.644	166.301	-8191	255	
11010.933	1	1	0	0	0.26728	0.064673	0.19137	0.23528	0.22024	0.071632	0.27402	0.1768	0.15509	0.12881	0.42579	0.090205	0.080336	0.37086	0.13048	0.055288	-2	-3.1208	-3.025	-2.5729	-3.0458	-2.5104	-2.7687	-3.2479	-2.4646	-2.9354	-3.1271	-2.3417	-3.0333	-2.8521	-2.5521	-3.1646	335.357	157.331	497.849	448.065	414.472	313.688	368.629	492.235	224.620	164.903	387.811	469.402	255.371	157.920	406.879	212.989	0.00072402	0.00016162	0.00014674	1335.4	3.3768e-06	4.9864e-06	1344.4	363.62	6.262e-06	5.5361e-06	412.45	140.12	120.71	41.15	8.3431e-06	51.156	0.00056781	0.0005428	0.00014098	1371.9	6.2202e-06	5.9309e-06	1371.6	372.5	6.209e-06	5.8909e-06	424.27	143.12	124.6	42.849	5.4812e-06	52.999	292.581	211.749	276.901	153.657	321.595	284.244	153.190	158.290	333.736	294.345	158.044	162.077	162.588	167.306	269.847	166.301	-8191	255	
11011.029	1	1	0	0	0.42665	0.10184	0.10854	0.22245	0.2152	0.020009	0.29042	0.045499	0.29693	0.08201	0.17656	0.31071	0.3283	0.082908	0.25713	0.14177	-2.1333	-2.6708	-3.0438	-2.6042	-3.0208	-2.8563	-2.6729	-3.2708	-2.5792	-2.9021	-3.1146	-2.5292	-2.9396	-3.0333	-2.6333	-3.1979	143.369	393.516	309.857	482.582	418.164	307.582	175.692	409.589	386.908	276.479	426.996	220.631	426.896	468.366	356.809	226.890	0.00071104	0.00018858	8.8881e-05	1338.2	5.8376e-07	1.8577e-06	1339.1	362.53	4.537e-06	6.6023e-07	411.55	139.09	121.04	41.168	6.1644e-06	51.023	0.00056617	0.00053473	0.00013748	1375	6.1396e-06	5.8201e-06	1369.7	373.41	6.1238e-06	5.7867e-06	423.45	143.25	124.69	42.814	5.4132e-06	53.183	293.845	269.223	266.959	153.614	283.861	269.052	153.547	158.573	295.736	432.566	157.960	162.173	162.595	167.224	303.095	166.266	-8191	255	
11011.125	1	1	0	0	0.22612	0.086484	0.18195	0.1798	0.073813	0.10643	0.26735	0.1335	0.046103	0.13222	0.082271	0.12704	0.14665	0.20012	0.10803	0.12008	-2.1646	-2.775	-2.9542	-2.5917	-3.0417	-2.9479	-2.5312	-3.2042	-2.5021	-2.75	-3.0812	-2.6104	-2.975	-2.9354	-2.425	-3.1875	239.326	465.262	281.823	453.222	248.589	287.500	306.115	355.791	351.279	352.232	198.256	411.437	343.021	142.689	340.794	415.785	0.00069812	0.00084181	0.00014343	1335.8	1.3773e-06	4.582e-06	1342.7	362.36	9.2483e-06	7.8546e-06	412.67	138.96	121.19	41.182	9.9562e-06	51.264	0.00055904	0.00052332	0.00013761	1375.6	5.988e-06	5.6176e-06	1370.7	373.46	5.9525e-06	5.6274e-06	424.76	143.5	124.48	42.689	5.5702e-06	53.191	291.398	268.430	206.304	153.579	216.869	304.499	153.306	158.439	321.463	244.664	158.048	162.161	162.711	167.291	311.900	166.390	-8191	255	
11011.246	1	1	0	0	0.16373	0.031215	0.15286	0.25189	0.098402	0.10696	0.10326	0.25866	0.10533	0.16453	0.16824	0.14022	0.074827	0.23536	0.12181	0.27894	-2.2687	-2.6021	-3.0187	-2.7604	-2.7292	-3.1521	-2.5542	-3.0312	-2.7646	-2.6979	-3.2562	-2.6312	-2.8312	-3.0187	-2.4021	-3.0896	430.566	331.641	462.032	440.375	244.479	234.577	413.721	444.107	198.154	328.755	386.105	465.649	303.385	411.498	321.325	459.683	0.0007942	0.00042295	0.00023474	1341.1	5.1496e-06	7.5252e-06	1345.8	363.98	8.0723e-06	5.7675e-06	416.51	139.55	121.72	41.414	6.5767e-06	51.341	0.00054292	0.00049723	0.00014297	1377	5.8324e-06	5.4373e-06	1374.8	373.88	5.8095e-06	5.4059e-06	426.42	143.53	124.51	42.692	5.8681e-06	53.172	288.992	308.920	176.919	153.664	298.465	312.188	153.451	158.206	287.653	336.236	157.472	161.983	162.868	167.182	301.005	165.781	-8191	255	
11011.342	1	1	0	0	0.18773	0.21918	0.1517	0.13874	0.09637	0.031706	0.102	0.12248	0.28665	0.19054	0.40359	0.03879	0.2819	0.12963	0.23361	0.16957	-2.3812	-2.4625	-2.9479	-2.8125	-2.7083	-3.15	-2.5604	-3.075	-3.025	-2.475	-3.1708	-2.7583	-2.6583	-3.1458	-2.5667	-3.1479	153.925	275.556	399.406	419.579	442.996	199.381	495.743	458.872	353.001	491.790	154.193	485.498	179.286	445.104	189.659	164.668	0.00071232	7.1518e-05	0.0002219	1341.7	8.8711e-06	2.6644e-06	1349.4	362.95	6.3696e-06	1.3125e-06	414.72	139.9	121.52	41.377	1.6822e-06	51.655	0.00053286	0.00049215	0.00015028	1375.6	5.7165e-06	5.3582e-06	1376.9	373.14	5.7128e-06	5.3912e-06	427.04	143.15	124.35	42.724	6.1415e-06	53.232	290.156	207.768	217.883	153.620	273.089	239.321	153.274	158.257	405.631	271.026	157.838	161.983	162.906	167.114	199.359	166.135	-8191	255	
11011.413	1	1	0	0	0.23189	0.12779	0.22582	0.15204	0.07971	0.14952	0.15223	0.14608	0.21932	0.12682	0.089867	0.22389	0.23386	0.13043	0.24827	0.19397	-2.6063	-2.4146	-3.0625	-2.7188	-2.3542	-3.1312	-2.6604	-3.1229	-2.925	-2.5729	-3.1479	-2.7583	-2.7604	-3.1833	-2.675	-2.6833	395.591	410.991	246.117	476.375	417.094	167.054	310.994	392.549	455.785	309.001	475.189	406.492	395.229	415.781	381.154	221.717	0.00079134	0.00022521	0.00018916	1339.8	3.5473e-06	2.821e-06	1347.2	362.91	6.1956e-06	5.0064e-06	412.9	139.31	120.84	41.295	7.0903e-06	51.362	0.00051908	0.00050464	0.00015628	1374.1	5.6044e-06	5.5324e-06	1376.9	373.39	5.5621e-06	5.6532e-06	426.91	143.14	123.91	42.848	6.2476e-06	53.093	291.514	312.053	199.918	153.761	261.598	242.934	153.464	158.164	300.536	238.492	157.753	161.931	162.973	167.339	314.129	165.968	-8191	255	
11011.534	1	1	0	0	0.19939	0.17635	0.11357	0.10377	0.13172	0.2994	0.017766	0.26927	0.25334	0.23527	0.16661	0.069887	0.21219	0.25672	0.16398	0.14726	-2.7104	-2.425	-2.9875	-2.85	-2.4958	-3.0292	-2.6771	-2.9375	-3.1333	-2.5896	-3.3125	-2.8229	-2.5354	-3.3104	-2.6562	-2.8125	278.569	376.935	439.340	488.932	208.225	267.184	453.346	445.440	214.906	262.864	268.828	415.766	497.208	471.599	465.036	363.908	0.0008087	0.00038887	0.00018386	1339.4	6.9919e-06	4.4203e-06	1348.7	364.72	8.124e-06	2.8485e-06	412.78	139.03	120.41	41.336	1.0516e-06	51.228	0.00051318	0.00053061	0.00015816	1375.2	5.542e-06	5.9086e-06	1377.9	373.78	5.4964e-06	5.9846e-06	427.27	142.76	123.75	42.952	6.1243e-06	53.012	293.199	205.919	207.929	153.735	268.830	321.790	153.344	158.232	332.239	268.033	157.584	162.253	162.763	167.315	312.795	166.173	-8191	255	
11011.628	1	1	0	0	0.23303	0.12636	0.049744	0.26345	0.06029	0.10088	0.33971	0.23248	0.14688	0.16168	0.022447	0.23554	0.14536	0.1137	0.065574	0.17416	-2.6771	-2.3792	-3.0167	-2.9896	-2.5062	-3.1312	-2.6854	-2.7479	-3.0687	-2.5042	-3.0292	-3.0646	-2.6208	-3.1979	-2.6813	-2.7979	210.846	423.354	404.831	469.884	495.708	188.329	477.020	483.383	185.003	482.841	342.276	499.805	420.131	178.914	402.607	226.581	0.0007816	0.00051647	5.9057e-05	1342.9	6.9202e-06	2.7516e-06	1346.9	363.49	3.9183e-06	5.1514e-06	414.63	139.27	121.35	41.367	4.544e-06	51.102	0.00050596	0.00055578	0.00015711	1373	5.4667e-06	6.1624e-06	1377.3	373.26	5.493e-06	6.2536e-06	427.45	143.03	124.06	43.066	6.0746e-06	52.928	281.653	209.938	480.297	153.569	250.040	175.954	153.390	158.307	350.124	239.385	157.500	162.396	162.610	167.292	359.222	166.057	-8191	255	
11011.725	1	1	0	0	0.11599	0.1672	0.23532	0.11128	0.25113	0.10608	0.29561	0.09073	0.3188	0.029038	0.16288	0.14841	0.24126	0.28358	0.18111	0.085553	-2.7771	-2.5271	-2.7292	-3.1958	-2.3646	-3.0583	-3.0792	-2.6	-3.0583	-2.525	-3.0542	-3.0292	-2.4875	-3.0167	-2.7875	-2.6979	271.998	432.026	283.853	475.136	168.975	422.645	432.083	456.798	265.386	290.453	379.428	305.245	181.238	351.568	187.768	486.311	0.00085563	0.00058769	0.00019401	1342.1	8.0157e-06	3.9662e-06	1347.7	364.08	2.8304e-06	1.3241e-06	415.43	139.45	121.93	41.451	4.139e-06	51.345	0.00052671	0.00057774	0.00015227	1373.8	5.7496e-06	6.3409e-06	1376.4	373.17	5.8083e-06	6.3029e-06	426.83	142.7	124.56	43.136	5.9072e-06	52.846	283.142	182.540	226.432	153.445	281.555	253.663	153.470	158.278	325.416	250.509	157.458	162.228	162.491	167.521	376.447	165.959	-8191	255	
11011.845	1	1	0	0	0.33255	0.056366	0.19907	0.15369	0.25259	0.16791	0.087405	0.26291	0.16004	0.067582	0.059594	0.27103	0.082606	0.14866	0.24172	0.48257	-2.7354	-2.5104	-2.6875	-3.0646	-2.2896	-2.9813	-3.0708	-2.7125	-3.1813	-2.7083	-2.6875	-3.25	-2.6063	-2.9604	-2.8521	-2.5062	210.938	195.329	401.571	469.727	277.074	337.141	370.376	430.843	293.541	491.903	433.253	399.493	342.696	155.569	296.662	448.229	0.0008499	0.0007376	0.00018755	1345.5	8.7514e-06	1.9923e-06	1348.5	365.9	9.1236e-06	4.9688e-06	416.05	139.83	121.27	41.481	4.1211e-06	51.534	0.0005508	0.00056707	0.00014861	1373.7	5.9346e-06	6.1144e-06	1375.1	372.63	6.0005e-06	6.0691e-06	425.95	142.57	124.78	43.03	5.6617e-06	52.9	284.655	196.606	203.065	153.731	271.718	416.041	153.353	158.165	341.215	301.827	157.613	162.131	162.787	167.232	311.608	165.889	-8191	255	
11011.941	1	1	0	0	0.092009	0.19542	0.22052	0.26594	0.42123	0.11783	0.30087	0.2034	0.16991	0.10188	0.15483	0.29108	0.062072	0.14827	0.13412	0.057114	-2.6583	-2.4688	-2.3875	-3.1542	-2.3937	-3.0312	-3.1458	-2.5062	-2.9083	-2.7188	-2.65	-3.1417	-2.55	-2.9042	-2.9229	-2.5312	490.452	210.201	288.581	458.671	202.648	246.837	498.464	446.421	317.590	399.417	383.730	436.485	184.340	162.108	346.057	321.643	0.00085254	0.00039796	6.4114e-05	1345.3	4.5686e-06	3.1818e-06	1350.9	366.99	7.8856e-06	2.974e-06	416.01	140.11	121.01	41.409	6.8279e-06	51.287	0.00056431	0.00055095	0.0001442	1373.5	6.226e-06	5.9905e-06	1377.1	373.8	6.3029e-06	6.0041e-06	426.45	143.29	125.02	43.066	5.6263e-06	53.031	291.352	221.751	372.449	153.502	301.403	290.634	153.123	158.105	287.311	259.746	157.626	161.825	162.662	167.174	338.302	166.028	-8191	255	
11012.037	1	1	0	0	0.12506	0.17621	0.11817	0.065252	0.080973	0.14473	0.1773	0.049521	0.15349	0.26685	0.15145	0.093165	0.22685	0.38277	0.10066	0.26268	-2.6042	-2.7792	-2.3812	-3.4979	-2.4813	-2.9417	-3.1562	-2.4917	-3.0875	-2.9167	-2.6813	-3.1583	-2.8375	-2.6083	-3.0958	-2.4292	458.587	463.986	238.287	208.113	198.726	255.814	470.337	351.964	259.247	450.564	418.343	390.672	459.066	473.357	311.278	310.570	0.00074389	0.00074455	6.6807e-05	1344.9	5.3182e-06	4.0536e-06	1351.4	364.93	2.5243e-06	2.4447e-06	416.95	139.81	122.07	41.362	4.9359e-06	51.172	0.00058782	0.00055098	0.00014213	1378.3	6.3329e-06	6.0155e-06	1375.6	373.57	6.3626e-06	6.0327e-06	425.94	143.38	125.16	43.021	5.5452e-06	53.17	286.822	311.759	252.299	153.489	265.722	362.487	153.410	158.150	170.200	266.430	157.680	162.146	162.623	167.343	304.304	166.076	-8191	255	
11012.109	1	1	0	0	0.039269	0.032851	0.12993	0.1391	0.20753	0.25349	0.16275	0.23698	0.087996	0.2246	0.2739	0.17284	0.37796	0.33731	0.1095	0.084463	-2.725	-2.7854	-2.3063	-3.2625	-2.4958	-2.6083	-3.2708	-2.5958	-2.8604	-2.8812	-2.55	-3.1604	-2.6437	-2.9208	-3.1896	-2.4875	307.023	446.350	368.671	336.125	284.626	173.735	475.215	202.929	249.983	258.097	423.211	276.345	146.574	400.197	322.004	150.682	0.000708	0.0010396	0.00012882	1346.5	2.8779e-06	5.8888e-06	1351.5	366.83	7.7097e-06	5.4486e-06	414.74	139.81	121.1	41.546	8.1889e-06	51.419	0.00058117	0.00054356	0.0001419	1380.3	6.2975e-06	5.9107e-06	1375.1	374.8	6.235e-06	5.8587e-06	425.72	143.99	124.72	42.96	5.6315e-06	53.303	284.200	222.782	226.381	153.675	257.263	336.131	153.413	158.042	326.499	189.025	157.748	162.164	162.598	167.176	251.879	165.887	-8191	255	
11012.230	1	1	0	0	0.24468	0.18535	0.29061	0.088956	0.10158	0.042117	0.16384	0.13674	0.25951	0.28759	0.19716	0.21838	0.29797	0.20233	0.21554	0.32127	-2.5417	-3.0062	-2.2979	-3.2042	-2.8354	-2.4625	-3.3542	-2.6875	-2.8688	-2.9979	-2.6708	-3.1583	-2.8708	-2.7521	-3.1833	-2.7604	144.266	241.637	327.674	146.568	366.353	322.042	465.457	455.012	229.164	404.919	443.271	497.223	496.184	182.866	170.732	354.524	0.00070722	0.00074759	0.00014917	1345	1.0017e-06	1.7558e-06	1349.6	364.94	7.6505e-06	3.0097e-06	413.32	139.49	121.58	41.513	2.1549e-06	51.449	0.0005659	0.00053169	0.00014436	1380.1	6.1189e-06	5.7318e-06	1376.2	374.69	6.1207e-06	5.6857e-06	426.36	143.75	124.7	42.901	5.922e-06	53.299	288.332	223.007	156.147	153.534	195.533	277.540	153.314	158.393	308.184	307.323	157.662	162.238	162.458	167.053	305.607	166.117	-8191	255	
11012.326	1	1	0	0	0.20536	0.084569	0.16918	0.039303	0.097762	0.11774	0.22166	0.22987	0.075595	0.1303	0.34227	0.23143	0.081929	0.099506	0.25808	0.16832	-2.4208	-2.9854	-2.4167	-3.1646	-2.7583	-2.5854	-3.3396	-2.9021	-2.7	-3.0667	-2.6771	-3.0312	-2.8729	-2.4813	-3.1729	-2.6396	153.219	270.152	370.947	146.752	366.038	432.344	444.522	427.821	307.312	193.663	450.395	154.808	416.530	354.277	449.391	276.513	0.00083597	0.00038008	0.00010056	1344	8.795e-06	3.6941e-06	1350.1	363.9	3.1048e-06	3.8262e-06	416.38	140.26	122.59	41.243	9.3417e-06	51.649	0.00055827	0.00051325	0.000153	1380.3	6.0564e-06	5.6247e-06	1379.6	374.3	6.0061e-06	5.5723e-06	428.39	143.62	124.93	42.775	6.2495e-06	53.254	295.536	492.296	231.016	153.508	284.482	315.166	153.274	158.257	299.654	278.511	157.382	161.877	162.575	166.745	307.317	166.082	-8191	255	
11012.422	1	1	0	0	0.10014	0.074783	0.15374	0.17071	0.021235	0.29849	0.054245	0.16319	0.18978	0.12239	0.02754	0.33655	0.22648	0.17156	0.049681	0.15885	-2.3812	-3.1854	-2.4437	-3.1458	-2.8271	-2.5646	-3.1396	-2.8521	-2.6	-2.8812	-2.5062	-2.8937	-2.9375	-2.6896	-3.0417	-2.7833	316.826	355.821	483.916	442.404	149.528	350.571	404.213	460.004	430.110	414.236	235.916	256.830	445.058	461.252	378.939	476.380	0.00079397	0.00079346	0.00017164	1344.4	7.6235e-06	3.1908e-06	1350	365.21	7.3936e-06	4.955e-06	415.03	139.63	121.53	41.558	8.7773e-06	51.455	0.00054913	0.00051271	0.00016076	1379.5	5.8611e-06	5.6507e-06	1379.1	374.27	5.8629e-06	5.6646e-06	428.53	143.5	124.21	42.925	6.3629e-06	53.189	284.480	163.306	169.757	153.427	284.629	267.838	153.267	158.088	345.003	282.137	157.644	162.197	162.696	166.990	341.651	165.870	-8191	255	
11012.518	1	1	0	0	0.19564	0.27464	0.11421	0.26112	0.27507	0.41739	0.22872	0.099683	0.31656	0.3255	0.1702	0.26121	0.23927	0.1182	0.13368	0.079321	-2.2833	-3.1063	-2.45	-3.0125	-2.9979	-2.6	-3.3021	-3.0021	-2.4979	-3.2125	-2.6542	-2.9062	-3.0896	-2.3333	-3.0104	-2.9417	248.857	228.190	375.653	484.644	334.571	452.818	466.589	443.066	245.300	354.121	422.316	190.955	447.691	166.274	421.050	324.196	0.00077228	0.0002106	4.111e-05	1352.2	3.7168e-06	3.6542e-06	1348.3	363.23	3.8141e-06	2.3378e-06	417.55	140.08	120.73	41.073	3.998e-06	51.207	0.00052515	0.00052571	0.00016246	1380.7	5.7056e-06	5.8776e-06	1381.6	373.51	5.6381e-06	5.9561e-06	428.24	143.37	124	42.885	6.3304e-06	53.065	295.000	266.974	388.795	153.566	223.767	307.391	153.271	158.371	393.170	202.942	157.642	162.156	163.109	166.991	334.409	165.945	-8191	255	
11012.637	1	1	0	0	0.20994	0.30938	0.18364	0.30086	0.0911	0.14173	0.21881	0.23305	0.17583	0.06664	0.19695	0.10274	0.14997	0.13092	0.13973	0.20814	-2.1979	-3.1937	-2.4542	-2.775	-2.9292	-2.5812	-3.0979	-2.9104	-2.4875	-3.1521	-2.6437	-2.6937	-3.1271	-2.35	-2.8729	-2.8979	152.350	269.315	153.221	146.696	319.967	311.443	495.683	437.858	392.840	388.901	438.567	302.750	469.347	487.603	481.467	494.803	0.00099347	0.00047907	0.00012878	1361.9	6.1254e-06	3.4879e-06	1366.7	367.74	9.654e-06	2.0842e-06	422.01	141.73	122.34	42.02	9.7175e-06	51.807	0.00052039	0.00055851	0.00016224	1381.2	5.6497e-06	6.297e-06	1383.8	374.47	5.6786e-06	6.2815e-06	428.63	143.37	124	43.204	6.278e-06	53.106	285.525	287.385	234.995	152.956	269.871	261.305	152.957	157.820	306.596	337.475	157.265	161.754	162.556	166.448	272.761	165.917	-8191	255	
11012.710	1	1	0	0	0.044186	0.22354	0.1095	0.2189	0.087473	0.11235	0.31618	0.30694	0.048727	0.041455	0.17097	0.043915	0.063242	0.073252	0.098977	0.033075	-2.1083	-3.0104	-2.6708	-2.7062	-3.0042	-2.6083	-3.1104	-3.0854	-2.4562	-3.0792	-2.8417	-2.6896	-3.0917	-2.5625	-2.8125	-2.875	440.526	361.319	257.214	460.575	350.688	222.115	454.968	445.018	255.160	378.281	447.053	355.994	467.825	389.386	334.257	430.605	0.00095665	0.0010666	4.1749e-05	1363.1	6.3594e-06	2.7448e-06	1364.5	369.74	9.0358e-06	2.4031e-06	418.64	141.48	123.04	41.823	3.0609e-06	51.746	0.00053136	0.0005862	0.00015812	1380.3	5.76e-06	6.4493e-06	1379.9	374.01	5.823e-06	6.4337e-06	427.37	143.19	124.63	43.137	6.0802e-06	53.047	284.545	229.725	274.441	153.027	249.151	246.805	152.828	157.665	309.939	226.339	157.139	161.735	162.249	166.727	285.091	165.697	-8191	255	
11012.807	1	1	0	0	0.064567	0.10254	0.122	0.44222	0.092392	0.2387	0.23561	0.24299	0.11554	0.15267	0.21751	0.29556	0.23592	0.33175	0.10954	0.15015	-2.0375	-3.0021	-2.7438	-2.4708	-3.1229	-2.4229	-2.8688	-3.1042	-2.2917	-2.8729	-2.8146	-2.6937	-3.0542	-2.6604	-2.5438	-3.1958	209.318	353.531	270.319	422.399	333.183	498.493	406.406	464.335	329.196	225.302	396.699	160.115	140.904	438.117	428.078	374.271	0.00091218	0.00037759	5.144e-05	1361.7	8.5745e-06	3.0668e-06	1365.1	368.87	4.2185e-06	3.9345e-06	419.8	141.65	123.63	41.939	7.8557e-06	51.769	0.00054947	0.00058908	0.00015423	1378.7	6.0183e-06	6.3765e-06	1378.5	373.43	6.1307e-06	6.3797e-06	427.36	143.19	125	43.186	5.9969e-06	52.935	299.462	281.232	234.763	152.991	262.626	276.586	152.835	157.884	323.803	303.679	157.093	161.232	162.206	166.820	363.048	165.736	-8191	255	
11012.926	1	1	0	0	0.23386	0.11324	0.24506	0.15228	0.12093	0.015924	0.56232	0.26534	0.05817	0.12416	0.37701	0.18893	0.22821	0.30035	0.23246	0.18228	-1.9813	-2.9208	-2.8042	-2.7625	-3.0333	-2.5271	-2.675	-3.1688	-2.3979	-2.8708	-3.0833	-2.5146	-3.1479	-2.6312	-2.4375	-3.125	248.775	207.797	173.867	426.667	195.488	474.369	442.232	455.885	214.693	477.522	159.161	431.399	365.583	148.513	433.392	363.991	0.00086964	0.0003973	0.00014401	1363.9	5.7433e-06	5.7438e-06	1361.7	369.94	4.7404e-06	4.9148e-06	420.82	141.35	123.37	41.828	5.751e-06	51.848	0.0005785	0.00057719	0.00015187	1378.2	6.2833e-06	6.2846e-06	1377.9	373.96	6.3788e-06	6.2253e-06	426.67	143.02	125.22	43.056	5.8458e-06	53.069	281.389	276.301	192.003	153.070	319.973	312.416	152.819	157.727	314.968	195.694	157.144	161.622	162.237	166.688	323.074	165.666	-8191	255	
11013.022	1	1	0	0	0.11296	0.16	0.24098	0.53145	0.16653	0.15636	0.24268	0.11902	0.19799	0.28505	0.10025	0.044185	0.2124	0.082733	0.13175	0.2302	-2.0479	-2.7458	-2.825	-2.5833	-2.8292	-2.6833	-2.7667	-3.1188	-2.4396	-2.7958	-3.05	-2.3854	-2.9042	-2.7854	-2.575	-3.2458	475.253	311.122	495.284	445.820	195.454	390.660	424.362	476.307	486.530	272.003	414.368	433.756	143.889	411.967	199.321	414.351	0.00089171	0.00044455	0.00010139	1363.8	5.6635e-06	3.8176e-06	1370.3	369.35	6.739e-06	3.1495e-06	420.4	141.73	122.83	42.033	8.1353e-06	51.966	0.00059297	0.00056731	0.00014906	1379.1	6.4956e-06	6.1868e-06	1378.7	374.34	6.5663e-06	6.1393e-06	426.84	143.38	125.04	43.047	5.764e-06	53.273	288.424	392.438	234.006	153.040	305.735	321.361	152.747	157.844	253.016	330.388	157.202	161.379	162.083	166.652	319.216	165.454	-8191	255	
11013.118	1	1	0	0	0.33225	0.4332	0.090226	0.11414	0.13661	0.084161	0.17128	0.12176	0.31148	0.20149	0.092698	0.31306	0.20973	0.081654	0.17167	0.19372	-2.1479	-2.7625	-2.9479	-2.6167	-2.7687	-2.8667	-2.8167	-3.3542	-2.2833	-2.5375	-3.0833	-2.4708	-3.0104	-2.8625	-2.4896	-3.0021	243.103	412.953	240.059	434.276	480.365	448.334	458.611	445.823	274.463	226.225	493.892	491.404	146.167	210.439	434.751	436.028	0.00091512	0.00033355	9.3404e-05	1365	1.1636e-05	4.5548e-06	1368.1	371.59	1.3385e-06	4.5885e-06	419.95	142	122.98	41.934	7.3315e-06	51.812	0.0006014	0.00055743	0.00014394	1382	6.4592e-06	6.0749e-06	1378.6	375.52	6.4112e-06	6.0861e-06	426.06	144.09	125.11	42.913	5.6865e-06	53.352	300.369	306.758	222.707	152.949	304.177	287.042	152.779	157.833	169.297	250.514	157.392	161.527	162.342	166.777	236.821	165.803	-8191	255	
11013.214	1	1	0	0	0.13302	0.30229	0.22019	0.3394	0.3031	0.18402	0.096524	0.18205	0.21633	0.10245	0.0253	0.23563	0.23895	0.12382	0.12461	0.10337	-2.1458	-2.5312	-3.0667	-2.5625	-2.7875	-3.1604	-2.8354	-3.2604	-2.8708	-2.5875	-3.2354	-2.6146	-2.9646	-2.8083	-2.5438	-3.3563	147.165	427.298	384.798	471.553	286.468	153.948	486.453	432.969	283.050	480.851	218.853	167.898	182.582	142.019	330.251	257.242	0.00078698	0.0002793	0.00014922	1366.5	1.177e-05	4.7601e-06	1373.8	370.56	6.2239e-06	4.1925e-06	422.87	141.85	123.27	41.976	5.4754e-06	51.975	0.00058258	0.00054384	0.00014426	1383.1	6.3124e-06	5.9352e-06	1379.9	375.84	6.2532e-06	5.8825e-06	427.29	143.89	124.85	42.829	5.8401e-06	53.434	282.603	256.766	195.960	152.887	311.078	293.414	152.832	157.894	259.405	254.783	157.089	161.321	161.792	166.328	303.310	165.659	-8191	255	
11013.310	1	1	0	0	0.083599	0.072659	0.16035	0.27865	0.28379	0.28082	0.39046	0.24341	0.1306	0.24888	0.12709	0.056164	0.23343	0.054156	0.22097	0.31183	-2.3167	-2.5458	-3.0354	-2.6104	-2.7333	-2.8438	-2.5812	-3.0917	-2.7979	-2.4833	-3.2208	-2.6708	-2.8812	-3.1104	-2.5104	-3.1417	312.588	449.536	267.106	459.022	243.082	385.836	421.434	366.940	469.595	267.452	464.907	428.420	153.476	498.778	287.709	437.891	0.00070614	0.0006286	0.00025612	1362.6	6.3447e-06	5.5971e-06	1368.3	369.61	6.1538e-06	4.925e-06	418.99	140.85	122.83	41.985	8.0219e-06	51.924	0.00057021	0.00052566	0.00014929	1383.4	6.0798e-06	5.6663e-06	1380.5	375.46	6.063e-06	5.6491e-06	426.61	143.5	124.69	42.869	6.1133e-06	53.336	300.201	259.567	184.008	153.078	263.311	242.310	152.952	157.612	341.233	316.319	157.459	161.871	162.205	166.680	274.639	165.721	-8191	255	
11013.406	1	1	0	0	0.23605	0.25153	0.17486	0.27054	0.082322	0.20374	0.22377	0.076444	0.18622	0.073892	0.22624	0.14217	0.049559	0.18046	0.21955	0.091182	-2.375	-2.4479	-2.9729	-2.7583	-2.6229	-3.0354	-2.6729	-3.1583	-2.8229	-2.4354	-3.1229	-2.5146	-2.7396	-3.0583	-2.4167	-2.8937	360.940	372.342	236.158	149.419	161.058	190.130	450.180	491.581	368.240	341.508	139.721	388.585	276.434	179.815	495.335	369.470	0.00084176	0.00057701	1.4704e-05	1358.5	2.6262e-06	4.9738e-06	1366.3	369.93	6.6333e-06	1.8409e-06	419.38	141.2	122.69	41.95	4.0774e-06	51.746	0.000556	0.00051608	0.00015709	1381.7	5.9638e-06	5.6319e-06	1381.2	374.95	5.9599e-06	5.6042e-06	428.48	143.79	124.5	42.776	6.2844e-06	53.294	287.145	248.089	357.845	153.148	242.605	295.415	152.802	157.625	252.526	185.974	157.129	161.641	162.290	166.695	333.971	165.749	-8191	255	
11013.527	1	1	0	0	0.26874	0.13847	0.078948	0.31689	0.25197	0.27166	0.38834	0.13915	0.052343	0.14875	0.38264	0.15916	0.052571	0.054752	0.1574	0.13948	-2.5458	-2.3292	-3.0187	-2.9646	-2.6646	-3.1813	-2.8271	-2.7604	-3.0354	-2.525	-3.0438	-2.6854	-2.6354	-3.3479	-2.3896	-2.9229	254.549	426.755	255.534	447.005	479.633	286.811	419.768	459.867	305.582	417.840	443.425	489.887	220.201	490.701	230.852	225.302	0.00068076	0.0013269	4.904e-05	1355	3.3274e-06	5.2242e-06	1361	369.2	6.2654e-06	6.57e-06	420.66	140.24	122.36	41.747	3.5648e-06	51.586	0.00053784	0.00052497	0.00016226	1379	5.7908e-06	5.7431e-06	1380.3	374.63	5.7381e-06	5.8408e-06	428.94	142.98	124.22	42.907	6.3918e-06	53.033	294.070	209.880	237.122	153.126	256.269	243.611	153.020	157.731	362.791	210.394	157.308	161.828	162.203	166.670	362.016	165.599	-8191	255	
11013.623	1	1	0	0	0.17749	0.17038	0.21762	0.18117	0.17723	0.20451	0.36095	0.090661	0.096239	0.077539	0.074882	0.061703	0.039149	0.25593	0.23461	0.22944	-2.4167	-2.1979	-3.0708	-3.0208	-2.4833	-2.8896	-2.6063	-2.7687	-2.8688	-2.4875	-3.0458	-2.9042	-2.6042	-3.2	-2.525	-2.6708	207.685	311.168	387.963	434.112	487.973	178.151	456.696	427.497	482.156	148.651	496.594	422.330	159.540	143.367	316.306	477.920	0.00076098	0.00011858	0.00017361	1355.1	6.6017e-06	4.6662e-06	1362.4	369.07	3.2547e-06	4.1303e-06	419.28	141.34	122.96	41.855	9.3945e-06	51.756	0.00052827	0.00055399	0.0001638	1378.6	5.7089e-06	6.1233e-06	1379.6	374.03	5.6518e-06	6.1957e-06	428.47	143.02	124.27	43.082	6.3363e-06	53.1	289.054	218.307	309.040	153.216	300.586	230.053	152.552	157.817	344.746	253.703	157.277	161.852	162.148	166.906	293.157	165.254	-8191	255	
11013.717	1	1	0	0	0.22946	0.18852	0.028758	0.17799	0.072855	0.14715	0.11051	0.029129	0.090574	0.21388	0.061336	0.083687	0.13312	0.13994	0.017651	0.078658	-2.8021	-2.3458	-2.8479	-3.125	-2.6042	-3.0771	-2.8396	-2.6354	-3.2375	-2.5146	-2.925	-2.8458	-2.6229	-3.1083	-2.6896	-2.7833	278.178	206.637	418.151	473.257	258.964	286.761	378.340	455.125	305.656	401.491	379.862	170.739	483.675	484.804	265.532	155.619	0.00081528	0.00078326	0.00013811	1361.6	2.6289e-06	5.3324e-06	1363.4	368.51	6.9071e-06	4.1887e-06	419.95	141.14	122.68	41.806	5.4887e-06	51.749	0.00051874	0.00057672	0.00016044	1378.9	5.6785e-06	6.321e-06	1378.5	374.33	5.6594e-06	6.3625e-06	428.24	143.04	124.4	43.15	6.1196e-06	52.973	292.897	239.340	228.787	153.260	225.748	324.112	152.789	157.760	299.391	272.903	157.233	161.880	162.138	166.802	343.511	165.855	-8191	255	
11013.814	1	1	0	0	0.24525	0.21305	0.12646	0.057844	0.08938	0.38499	0.23206	0.29185	0.04879	0.31325	0.36166	0.24762	0.28274	0.083455	0.19256	0.14765	-2.7375	-2.4104	-2.8583	-3.1437	-2.4938	-3.1	-2.8187	-2.625	-2.9813	-2.6063	-2.8125	-3.1167	-2.5312	-3.2229	-2.7562	-2.6125	452.842	241.472	196.701	499.522	312.391	224.347	449.458	463.343	197.577	405.634	483.072	189.026	436.588	172.980	327.012	202.894	0.00078616	0.00042566	0.00020687	1361.9	1.0179e-05	3.0711e-06	1365.6	370.25	3.4554e-06	6.4788e-06	422.12	141.37	123.32	41.947	5.4254e-06	51.771	0.00053254	0.00058263	0.00015312	1377	5.8636e-06	6.3466e-06	1378.2	373.6	5.8731e-06	6.3167e-06	427.84	142.89	124.59	43.117	5.9863e-06	52.96	283.988	237.727	264.723	153.146	250.271	251.944	152.777	157.535	280.226	316.191	157.066	161.593	161.984	166.713	310.718	165.669	-8191	255	
11013.934	1	1	0	0	0.30636	0.28482	0.29099	0.21668	0.19404	0.012806	0.2276	0.031128	0.077045	0.16702	0.12472	0.2891	0.22959	0.057685	0.19142	0.018278	-2.85	-2.5729	-2.7167	-3.175	-2.4813	-3.0542	-2.9771	-2.5687	-3.2521	-2.7479	-2.6083	-3.1813	-2.3375	-2.8646	-2.9271	-2.5479	262.564	330.069	438.586	422.755	319.057	303.211	390.020	379.754	166.660	339.290	163.693	433.347	245.600	468.776	492.418	165.769	0.00088117	0.00045562	0.00011243	1364.8	9.6276e-06	5.7767e-06	1370.8	369.1	5.3307e-06	4.9163e-06	423.14	141.58	123.47	42.19	4.3202e-06	52.087	0.00055539	0.00057924	0.00015181	1378	6.1065e-06	6.2639e-06	1378.1	373.27	6.157e-06	6.2103e-06	427.53	142.82	124.96	43.092	5.7847e-06	53.009	280.786	260.891	355.112	153.146	237.899	381.234	152.683	157.414	286.613	228.198	156.812	161.664	161.898	166.726	351.695	165.615	-8191	255	
11014.006	1	1	0	0	0.12667	0.22196	0.29904	0.14367	0.066078	0.13153	0.36892	0.15988	0.26717	0.14401	0.20164	0.042824	0.19799	0.1765	0.21777	0.1199	-2.6979	-2.4917	-2.7146	-3.2958	-2.3333	-2.8792	-3.1917	-2.4833	-3.1021	-2.55	-2.6396	-3.1958	-2.4979	-2.8833	-2.975	-2.3312	191.520	173.051	388.365	376.622	163.566	348.146	413.345	487.552	365.769	300.371	416.864	265.577	423.333	452.958	487.165	378.434	0.0010218	0.00051965	0.00010168	1364.4	4.234e-06	4.9448e-06	1369.8	371.08	1.0322e-05	5.9443e-07	420.88	141.54	122.86	42.1	4.7234e-06	51.825	0.00057618	0.00056585	0.0001483	1377.9	6.3299e-06	6.1008e-06	1377.5	374.05	6.2954e-06	6.0345e-06	426.65	143.06	125.09	43.111	5.5904e-06	52.957	285.270	237.160	258.474	153.097	226.967	332.266	152.909	157.802	288.905	486.310	157.130	161.564	162.029	166.424	365.485	165.541	-8191	255	
11014.102	1	1	0	0	0.084946	0.14199	0.21344	0.38146	0.18856	0.18009	0.16362	0.42338	0.06365	0.18041	0.046281	0.19605	0.11767	0.21074	0.3191	0.21282	-2.5458	-2.7708	-2.4708	-3.1146	-2.3042	-2.75	-3.1396	-2.5208	-2.8417	-2.7292	-2.4021	-3.1792	-2.5938	-2.7729	-2.9938	-2.3812	257.366	188.785	171.767	151.007	302.723	324.798	473.728	493.778	357.890	358.557	178.114	206.149	292.969	158.821	230.858	217.592	0.00082163	0.0004296	0.00010761	1365.8	5.5087e-06	6.5776e-06	1371.7	370.94	7.1257e-06	6.0865e-06	421.24	142.28	122.74	41.879	1.0263e-05	51.875	0.00058762	0.00054793	0.00014129	1379.9	6.296e-06	5.952e-06	1378.6	374.55	6.266e-06	5.9151e-06	425.73	143.69	125.01	42.954	5.5226e-06	53.236	286.884	211.310	260.977	153.012	298.502	320.705	152.837	157.673	346.152	291.898	156.972	161.514	162.035	166.616	354.171	165.539	-8191	255	
11014.198	1	1	0	0	0.31499	0.15045	0.066717	0.18421	0.1523	0.084398	0.30263	0.1659	0.26345	0.0853	0.30177	0.11737	0.3791	0.20514	0.11619	0.15988	-2.5958	-2.75	-2.3333	-3.3521	-2.6625	-2.6	-3.1479	-2.4562	-2.7979	-2.9604	-2.5667	-3.1354	-2.7208	-2.6667	-3.0208	-2.5771	208.128	367.568	282.053	477.564	486.783	307.382	350.370	435.690	261.825	204.644	210.227	453.762	162.499	147.948	251.446	389.832	0.00071508	0.00078785	0.00014015	1364.2	8.1429e-06	3.3961e-06	1363.8	371	7.507e-06	3.1136e-06	423.08	141.73	123.35	41.809	7.6016e-06	52.151	0.00057456	0.00053708	0.00014092	1380.4	6.2456e-06	5.885e-06	1374.7	375.6	6.1564e-06	5.8336e-06	426.56	143.74	124.83	42.909	5.6268e-06	53.405	298.743	231.461	210.697	153.045	287.535	287.227	152.944	157.683	318.296	313.592	157.267	161.700	162.090	166.640	295.857	165.606	-8191	255	
11014.319	1	1	0	0	0.063446	0.11316	0.16904	0.19499	0.0087529	0.074513	0.2909	0.27323	0.14854	0.014264	0.12011	0.19968	0.41963	0.096678	0.13481	0.28467	-2.4167	-2.9354	-2.3125	-3.2167	-2.6292	-2.5375	-3.0854	-2.4521	-2.7646	-2.9688	-2.5125	-3.1083	-2.6958	-2.5479	-3.1063	-2.6417	177.078	461.484	283.669	157.078	338.317	490.773	443.167	199.577	392.049	322.948	459.941	478.382	441.179	191.756	215.419	385.018	0.0006908	0.00033456	0.00019941	1356.9	3.9398e-06	5.7699e-06	1366.8	369.64	2.3924e-06	4.7975e-06	420.87	141.35	122.75	41.865	6.8444e-06	51.93	0.00056645	0.00052572	0.00014561	1379.2	6.066e-06	5.6643e-06	1377.4	375.19	6.0265e-06	5.6156e-06	426.49	143.71	124.57	42.839	5.877e-06	53.307	284.371	215.553	152.890	153.086	306.152	310.864	152.916	157.757	322.502	350.355	157.225	161.639	162.263	166.574	309.727	165.695	-8191	255	
11014.415	1	1	0	0	0.15471	0.25114	0.12361	0.29316	0.17162	0.1463	0.28556	0.028591	0.28191	0.24221	0.067166	0.1341	0.25403	0.17357	0.33802	0.15282	-2.5146	-3.0625	-2.4146	-3.1875	-2.85	-2.5	-3.25	-2.5792	-2.8812	-3.0229	-2.5687	-3.0375	-2.7458	-2.4771	-2.9021	-2.6729	445.972	227.943	457.480	477.995	307.178	410.293	435.747	412.624	435.108	454.751	368.531	413.784	367.649	452.819	314.506	480.207	0.00078417	0.00021002	0.00014016	1366.1	5.2632e-06	4.9392e-06	1363.4	370.23	5.3699e-06	1.6548e-06	421.48	140.75	123.23	41.944	9.0914e-06	51.934	0.00055243	0.00050874	0.00015148	1382.9	5.9505e-06	5.5101e-06	1378.9	375.02	5.9373e-06	5.5871e-06	428.23	143.23	124.67	42.769	6.1059e-06	53.366	292.411	205.142	180.270	153.284	293.838	336.976	152.834	157.785	365.363	220.964	157.092	161.534	162.068	166.739	248.411	165.669	-8191	255	
11014.511	1	1	0	0	0.21605	0.12878	0.12338	0.34438	0.36878	0.077876	0.084658	0.26223	0.25358	0.25416	0.32616	0.14515	0.14247	0.047234	0.023069	0.059349	-2.15	-2.9896	-2.4542	-2.8167	-2.7188	-2.5417	-3.1792	-2.8	-2.5104	-3.1604	-2.6792	-2.9188	-3.0563	-2.4062	-3.1417	-2.6958	178.370	442.556	450.297	447.967	152.082	173.087	490.844	491.045	495.924	159.727	466.340	395.483	454.471	445.594	416.479	412.495	0.00091014	0.00047875	3.2127e-05	1362.7	4.5012e-06	5.4747e-06	1366.2	368.47	1.0748e-05	6.6478e-06	420.31	141.48	122.91	41.998	8.8825e-06	51.918	0.00054001	0.00050103	0.00015678	1380.6	5.7845e-06	5.5193e-06	1381.2	374.16	5.7009e-06	5.5738e-06	428.28	143.4	124.32	42.859	6.3066e-06	53.073	294.632	271.753	165.031	153.149	277.243	272.070	152.947	157.749	353.429	223.717	157.285	161.505	162.131	166.492	277.071	165.647	-8191	255	
11014.607	1	1	0	0	0.33003	0.087782	0.11142	0.0091132	0.12434	0.24803	0.083074	0.1129	0.24047	0.10522	0.36245	0.14276	0.16697	0.095382	0.023939	0.1723	-2.1979	-2.9521	-2.4396	-2.775	-2.8708	-2.7167	-3.0583	-2.65	-2.5083	-3.125	-2.7438	-2.8563	-3.0667	-2.3979	-2.875	-2.7771	327.118	471.730	424.853	426.040	285.737	451.656	359.341	156.837	228.634	470.791	457.753	158.735	425.580	390.295	494.615	193.025	0.00065392	0.00054694	9.5234e-05	1362.4	1.8211e-06	3.9446e-06	1365.3	369.7	5.2564e-06	2.5088e-06	419.93	141.01	123.21	41.902	6.377e-06	51.822	0.00052092	0.00052051	0.00016043	1379.5	5.6324e-06	5.8024e-06	1381.3	374.48	5.5262e-06	5.9e-06	428.61	143.28	124.42	42.981	6.239e-06	53.053	290.282	220.568	277.823	153.122	282.736	159.657	152.943	157.699	285.447	199.827	157.117	161.868	162.356	166.389	296.909	165.546	-8191	255	
11014.702	1	1	0	0	0.21117	0.13979	0.13385	0.19982	0.31636	0.17379	0.10707	0.3117	0.1667	0.27839	0.36988	0.17808	0.28554	0.074923	0.26251	0.21487	-2.1479	-3.1	-2.6312	-2.9229	-2.8312	-2.2896	-3.1188	-3.0771	-2.4021	-3.0375	-2.6333	-2.6229	-3.125	-2.4021	-2.9021	-3.0521	225.364	213.986	434.895	435.448	352.102	142.643	409.790	453.313	439.067	277.681	464.176	398.840	462.414	463.759	216.067	328.554	0.00082177	0.00038738	0.00010369	1359.6	4.7816e-06	3.834e-06	1372.1	369.32	8.1445e-06	2.0968e-06	419.88	141.14	123.24	41.935	1.1388e-05	51.706	0.00050991	0.00055475	0.00015899	1376.4	5.5321e-06	6.1244e-06	1382.5	374.2	5.5304e-06	6.1873e-06	427.83	143.11	124.3	43.072	6.1247e-06	53.078	289.076	223.585	204.716	152.940	257.820	270.924	152.763	157.964	340.512	300.437	157.214	161.734	162.442	166.764	333.876	166.011	-8191	255	
11014.798	1	1	0	0	0.22067	0.086446	0.063071	0.13122	0.10539	0.053196	0.28989	0.13221	0.085239	0.25504	0.12671	0.10186	0.11396	0.14306	0.11543	0.24072	-2.075	-2.8833	-2.5646	-2.8417	-3.0396	-2.4208	-2.9271	-3.0438	-2.425	-3.1667	-2.8396	-2.55	-3.0625	-2.6604	-2.6229	-2.9	405.882	412.907	316.482	465.711	366.845	372.067	400.807	490.365	141.238	498.505	239.873	490.014	402.018	404.243	364.831	432.009	0.00082756	0.00056541	0.00014095	1353.7	3.8991e-06	7.069e-06	1360.7	367.59	1.2594e-05	4.2539e-06	420.5	140.49	122.43	41.846	2.9138e-06	51.65	0.00051957	0.00057242	0.00015431	1376	5.6415e-06	6.3439e-06	1379.1	373.69	5.7166e-06	6.3147e-06	427.81	142.68	124.25	43.108	5.9037e-06	52.905	283.144	208.545	255.791	153.299	211.868	302.736	152.861	157.988	301.211	310.092	157.242	161.685	162.355	166.640	233.261	165.920	-8191	255	
11014.896	1	1	0	0	0.056904	0.22897	0.23619	0.11944	0.17548	0.09343	0.1499	0.32576	0.046575	0.26159	0.074371	0.069062	0.17954	0.15078	0.15126	0.094951	-1.9021	-3.0146	-2.6312	-2.45	-2.875	-2.5833	-3.0583	-3.0729	-2.4542	-3.0708	-2.8417	-2.5896	-3.2062	-2.6354	-2.6458	-2.9208	400.773	282.920	171.518	164.006	392.838	223.355	161.410	450.816	251.979	312.880	410.751	405.129	152.655	363.691	387.708	420.056	0.00083664	0.00033814	0.00016836	1356.8	4.5356e-06	3.0063e-06	1361.4	368.25	2.1093e-06	5.6142e-06	418.53	141.09	122.71	41.729	7.916e-06	51.923	0.00054238	0.00057907	0.00015133	1376.6	5.8823e-06	6.3141e-06	1376.9	373.22	5.9852e-06	6.2636e-06	425.48	142.85	124.59	43.038	5.8856e-06	52.981	284.011	265.453	176.608	152.871	258.513	244.534	152.874	158.107	355.085	255.527	157.206	161.556	162.531	166.936	258.875	165.754	-8191	255	
11015.015	1	1	0	0	0.19682	0.033655	0.049654	0.1534	0.26146	0.17048	0.23269	0.50717	0.30956	0.10884	0.14481	0.081163	0.17106	0.20304	0.28778	0.27354	-2.0958	-3.0667	-2.7375	-2.6271	-3.0583	-2.6542	-3.0563	-3.3167	-2.2958	-2.8667	-2.9458	-2.5062	-3.0396	-2.7313	-2.6562	-3.1417	187.352	178.559	144.160	477.120	172.872	371.218	496.702	384.458	491.177	354.290	181.534	419.560	449.785	327.856	303.244	401.755	0.00086326	0.00049822	0.00014045	1359	5.5159e-06	1.325e-05	1360.8	369.17	7.1349e-06	6.6847e-06	422.3	141.16	122.71	41.861	4.3352e-07	52.027	0.00056755	0.00056238	0.00014691	1376.3	6.2098e-06	6.1156e-06	1378.4	373.14	6.2265e-06	6.0803e-06	426.28	142.76	124.88	43.006	5.6807e-06	52.995	288.151	216.191	186.430	153.163	241.075	324.769	152.998	157.834	295.626	250.123	157.209	161.700	162.234	166.628	177.876	165.435	-8191	255	
11015.111	1	1	0	0	0.17378	0.36364	0.21174	0.25343	0.16757	0.14414	0.37701	0.20006	0.094109	0.087191	0.29084	0.041136	0.12575	0.353	0.19085	0.14927	-2.0521	-2.7687	-2.9958	-2.5083	-3.0438	-2.5646	-2.6021	-3.3542	-2.3771	-2.7958	-2.9271	-2.5583	-3.0417	-2.8458	-2.5062	-3.2687	322.800	340.448	488.742	451.796	172.464	392.567	475.245	459.614	477.251	217.553	454.905	374.656	240.023	468.840	485.023	429.974	0.00085014	5.4243e-05	8.5804e-05	1355.9	5.8997e-06	6.2815e-06	1364.3	368.99	3.3658e-06	6.941e-06	419.3	141.34	123.19	41.738	8.4161e-06	52.05	0.0005793	0.00055266	0.00014347	1375.1	6.2962e-06	6.006e-06	1376.6	373.78	6.3844e-06	5.9778e-06	426.02	143.33	125.26	42.928	5.6299e-06	53.159	277.204	498.277	272.821	152.787	300.433	330.074	152.861	157.823	313.919	253.100	157.533	161.553	162.359	166.497	290.354	165.638	-8191	255	
11015.207	1	1	0	0	0.14418	0.14029	0.087161	0.15621	0.21572	0.077005	0.27031	0.073231	0.22303	0.2139	0.18984	0.1225	0.19733	0.11517	0.14745	0.2433	-2.1729	-2.6958	-2.9188	-2.6854	-2.975	-2.9396	-2.5979	-3.2062	-2.3812	-2.6917	-3.0667	-2.425	-3.0896	-2.9125	-2.4229	-3.0354	424.895	434.195	319.199	445.382	194.153	458.422	469.784	324.001	283.216	140.092	437.882	363.944	441.330	477.562	431.964	310.575	0.00076961	0.0001457	0.00023439	1356.5	2.0787e-06	8.1413e-06	1361.9	368.56	4.1171e-06	3.1533e-06	416.78	140.67	121.76	41.705	8.2371e-06	51.517	0.00058196	0.00054848	0.00014146	1378.7	6.3306e-06	5.9951e-06	1375.9	374.48	6.3767e-06	5.9828e-06	425.72	143.56	124.75	42.894	5.5972e-06	53.197	287.064	147.863	241.161	153.200	171.856	336.710	152.724	157.901	303.971	263.702	157.512	161.837	162.203	166.909	306.417	165.854	-8191	255	
11015.303	1	1	0	0	0.032266	0.037695	0.1378	0.22446	0.15511	0.23776	0.12988	0.2503	0.045321	0.022835	0.051794	0.097511	0.26094	0.17804	0.13835	0.25053	-2.2875	-2.5792	-2.9417	-2.7	-2.8604	-2.9229	-2.5208	-3.0729	-2.6479	-2.6479	-3.1292	-2.6083	-3.0187	-3.0771	-2.5417	-3.1437	152.409	307.120	370.265	470.652	471.822	168.532	453.342	450.609	144.854	488.059	424.344	214.523	465.705	186.780	260.824	499.212	0.00086262	0.00070569	0.00014184	1357.8	4.8458e-06	7.7253e-06	1361.7	366.57	6.2654e-06	4.1884e-07	417.29	140.71	122.06	41.688	1.9233e-06	51.282	0.00057485	0.00053814	0.00014118	1381.3	6.1583e-06	5.856e-06	1377	374.75	6.1546e-06	5.8013e-06	425.78	143.6	124.6	42.765	5.8262e-06	53.348	292.562	251.056	184.121	153.215	285.235	327.044	152.999	158.089	313.371	183.167	157.321	161.727	162.296	167.035	266.054	165.956	-8191	255	
11015.399	1	1	0	0	0.2246	0.1831	0.12918	0.37807	0.28718	0.20714	0.15804	0.22712	0.22629	0.17001	0.26786	0.21353	0.29424	0.021625	0.15454	0.12476	-2.1312	-2.45	-2.9542	-2.5812	-2.9042	-3.05	-2.6958	-3.1458	-2.7646	-2.3771	-3.3667	-2.4	-2.7479	-3.0187	-2.5354	-3.0292	421.706	267.577	313.046	424.841	315.189	370.377	411.235	398.897	422.930	378.893	277.376	407.396	157.157	149.519	300.313	492.403	0.00084473	0.0008456	0.0001177	1349.2	6.2054e-06	2.6705e-06	1355.8	367.29	8.0622e-06	5.7088e-06	419.17	139.73	122.24	41.594	8.1021e-06	51.771	0.00056541	0.00052186	0.0001493	1379.8	6.0909e-06	5.6651e-06	1377.6	375.17	6.1229e-06	5.6546e-06	428.36	143.52	124.7	42.733	6.1802e-06	53.368	294.621	259.346	227.474	153.307	329.974	289.081	152.960	157.993	356.401	257.264	157.279	161.835	162.345	167.018	297.952	165.933	-8191	255	
11015.495	1	1	0	0	0.22676	0.13562	0.13643	0.31099	0.094095	0.20294	0.11321	0.095192	0.19148	0.048198	0.41598	0.13789	0.063431	0.14483	0.15414	0.044258	-2.3292	-2.3958	-3.0125	-2.7042	-2.6583	-2.875	-2.6917	-2.9479	-2.6896	-2.4271	-3.1229	-2.6417	-2.5917	-3.0563	-2.2687	-3.0354	380.559	496.184	367.191	456.963	200.604	499.580	395.645	171.004	436.225	452.753	455.086	423.876	423.218	158.738	261.069	355.008	0.00087777	0.00013008	9.9516e-05	1349.2	6.1477e-06	6.4699e-06	1356.6	366.33	1.8015e-06	6.9464e-06	416.09	139.94	122.09	41.653	6.5996e-06	51.309	0.00055927	0.00051801	0.00015837	1380.1	6.0739e-06	5.6331e-06	1380.9	374.91	6.0099e-06	5.711e-06	428.61	143.35	124.46	42.823	6.4699e-06	53.258	286.656	190.729	224.734	153.565	329.623	260.255	153.145	158.048	403.792	236.590	157.583	161.893	162.509	166.981	269.087	165.684	-8191	255	
11015.591	1	1	0	0	0.19374	0.057691	0.057049	0.098074	0.24842	0.066147	0.12356	0.013444	0.1476	0.12262	0.04431	0.1015	0.21966	0.087488	0.031497	0.25499	-2.5312	-2.3542	-2.9646	-2.7583	-2.4958	-3.0521	-2.625	-2.8812	-2.9146	-2.3958	-3.1958	-2.6521	-2.5125	-3.1479	-2.3042	-2.7417	461.792	481.190	360.678	413.336	417.583	203.812	228.261	450.036	254.198	220.483	246.996	445.162	165.906	372.377	355.880	459.698	0.0007038	0.00075772	0.0001368	1360	5.2562e-06	5.2767e-06	1363.6	368.18	6.4851e-06	6.3057e-06	418.11	139.9	122	41.728	6.7032e-06	51.582	0.00054672	0.00052936	0.00016342	1380.4	5.8885e-06	5.7957e-06	1382.8	374.88	5.779e-06	5.8968e-06	429.27	143.19	124.18	43.009	6.5027e-06	53.191	287.697	251.380	201.411	153.189	226.875	305.754	153.013	157.953	358.315	283.316	157.542	161.881	162.266	166.901	321.627	165.884	-8191	255	
11015.710	1	1	0	0	0.25346	0.20153	0.11033	0.14521	0.15471	0.065374	0.15709	0.091295	0.29115	0.080081	0.17275	0.2559	0.49074	0.27377	0.14792	0.10802	-2.7292	-2.3396	-2.9062	-2.9646	-2.3896	-3.1292	-2.825	-2.7687	-2.8729	-2.5083	-3.0312	-2.7729	-2.4708	-3.0021	-2.5021	-2.675	251.805	356.050	340.264	474.363	151.757	213.810	486.499	164.028	237.092	328.015	161.793	484.351	465.116	410.445	260.233	481.871	0.00076541	0.00029475	0.00015181	1349.7	2.8057e-06	8.2192e-06	1354.1	366.41	7.5599e-06	3.053e-06	420.75	140.71	122.83	41.699	2.0604e-06	51.836	0.00052863	0.00055299	0.00016477	1379.7	5.7319e-06	6.1503e-06	1381	374.25	5.6491e-06	6.2094e-06	429.59	143.15	124.26	43.048	6.3381e-06	53.163	284.877	142.393	243.530	153.329	264.382	285.028	153.089	158.089	297.761	242.769	157.373	161.833	162.293	166.982	343.074	165.544	-8191	255	
11015.807	1	1	0	0	0.051036	0.23833	0.26375	0.51791	0.29591	0.22918	0.10399	0.31888	0.086569	0.20077	0.019992	0.063344	0.033989	0.17058	0.05451	0.11722	-2.4542	-2.3083	-2.8958	-3.1979	-2.5917	-2.9854	-2.7354	-2.6854	-2.9854	-2.4667	-2.9813	-2.9625	-2.4417	-3.1813	-2.5521	-2.7	419.224	474.501	445.304	485.467	160.666	211.620	364.561	448.385	244.476	239.201	157.949	151.170	161.803	347.233	337.024	141.885	0.00083227	0.00058833	0.00010212	1355.3	7.4772e-06	9.1924e-06	1356.6	368.3	3.5178e-06	9.1143e-07	416.62	140.44	122.11	41.767	9.1179e-06	51.847	0.00052182	0.00057703	0.0001601	1380.2	5.643e-06	6.3088e-06	1380.2	374.39	5.6832e-06	6.3446e-06	427.54	142.99	124.1	43.165	6.1464e-06	52.995	291.466	224.518	224.056	153.209	273.901	269.676	153.139	157.871	307.228	374.287	157.152	161.971	162.385	167.019	312.852	165.415	-8191	255	
11015.878	1	1	0	0	0.088658	0.047264	0.13626	0.11676	0.27961	0.073587	0.084538	0.20173	0.17867	0.1223	0.10233	0.19438	0.10503	0.37324	0.11182	0.19613	-2.5771	-2.4062	-2.7417	-3.0521	-2.5042	-2.9271	-2.8271	-2.5875	-3.0458	-2.4604	-2.7396	-3.0667	-2.6229	-2.9188	-2.7417	-2.7146	337.945	371.555	268.965	191.738	208.001	485.035	387.487	443.466	361.830	169.599	463.761	161.383	439.506	228.018	319.171	411.796	0.00086249	0.00052482	6.6341e-05	1352.9	4.975e-06	7.8918e-06	1357.1	367.32	5.9512e-06	4.0174e-06	418	140.48	122	41.612	6.7803e-06	51.623	0.00053075	0.00058853	0.00015498	1377.4	5.8648e-06	6.3938e-06	1379.5	373.64	5.8887e-06	6.4207e-06	427.36	142.7	124.42	43.007	6.0059e-06	52.911	284.952	475.594	302.918	153.385	216.955	342.404	153.081	157.914	239.586	234.659	157.580	162.065	162.301	166.999	295.247	165.852	-8191	255	
11015.999	1	1	0	0	0.045895	0.20312	0.11883	0.056274	0.13047	0.23451	0.18188	0.28821	0.22611	0.2884	0.15691	0.034309	0.17311	0.25688	0.27231	0.23531	-2.7958	-2.6625	-2.7438	-3.3083	-2.3583	-2.9271	-3.0167	-2.6979	-3.3292	-2.5187	-2.7479	-3.0979	-2.5333	-2.9583	-2.8312	-2.5271	421.802	181.205	346.240	200.855	277.219	271.191	423.212	498.030	255.331	369.473	493.701	285.471	335.902	148.475	214.351	351.020	0.00076268	2.6188e-05	0.00010835	1356.7	7.8377e-06	7.189e-06	1361.4	368.51	5.0482e-06	2.5547e-06	416.53	140.84	122.05	41.646	1.4776e-06	51.424	0.00055482	0.00057801	0.00015293	1376.7	6.1683e-06	6.2781e-06	1378.6	373.43	6.2184e-06	6.2724e-06	426.42	142.76	124.87	43.061	5.8907e-06	52.9	285.653	189.970	246.508	153.344	272.301	322.086	153.186	157.653	268.698	372.772	157.314	161.878	162.101	166.752	347.345	165.855	-8191	255	
11016.095	1	1	0	0	0.1665	0.14307	0.071863	0.16026	0.089891	0.19389	0.35524	0.13204	0.33455	0.0524	0.1317	0.093623	0.091766	0.14034	0.046248	0.18005	-2.6979	-2.525	-2.5312	-3.1604	-2.4542	-2.5583	-3.1625	-2.5083	-2.9188	-2.7896	-2.5167	-2.9521	-2.4979	-2.7625	-2.8396	-2.4458	145.133	427.581	283.996	417.323	290.187	395.682	441.953	385.395	301.948	423.653	359.736	484.430	374.852	434.387	385.844	428.658	0.0008551	0.00061642	3.5427e-05	1355.5	1.8926e-06	2.486e-06	1356.7	366.26	9.6871e-06	4.5078e-06	418.81	140.44	122.43	41.544	3.2049e-06	51.462	0.00058067	0.00056354	0.0001467	1378	6.3425e-06	6.118e-06	1375.3	373.34	6.2987e-06	6.0594e-06	426.57	142.86	125.08	42.925	5.6708e-06	52.99	280.453	318.812	186.310	153.320	336.530	241.877	153.173	157.821	357.204	227.610	157.476	161.889	162.326	166.922	300.585	165.732	-8191	255	
11016.191	1	1	0	0	0.18667	0.29895	0.053924	0.10304	0.13682	0.21424	0.25941	0.37343	0.12859	0.0065371	0.14703	0.37362	0.21212	0.087481	0.14331	0.16581	-2.4708	-2.6688	-2.3875	-2.9813	-2.3688	-2.7104	-3.1333	-2.4562	-2.8458	-2.6	-2.5354	-2.9479	-2.4667	-2.6458	-2.8583	-2.4479	232.826	287.712	263.307	374.133	238.538	330.242	466.159	458.865	330.728	354.176	469.684	450.206	491.746	491.133	232.714	469.228	0.00075415	9.5184e-05	0.00012442	1353.8	4.4413e-06	5.2613e-06	1364.7	368.42	6.1746e-06	4.7538e-06	418.91	140.8	122.02	41.59	7.973e-06	51.523	0.00058567	0.00055144	0.00014301	1379.9	6.3447e-06	6.0525e-06	1377.8	374.08	6.3417e-06	6.041e-06	425.93	143.51	124.9	43.047	5.6183e-06	53.239	291.114	195.101	234.572	153.296	212.718	289.124	153.047	157.588	276.584	241.757	157.226	161.649	162.412	166.432	305.145	165.607	-8191	255	
11016.287	1	1	0	0	0.13346	0.1484	0.11026	0.21513	0.13035	0.30969	0.24045	0.17593	0.1009	0.28376	0.11087	0.23554	0.28483	0.053603	0.10016	0.21552	-2.4854	-2.7562	-2.3812	-3.1292	-2.4958	-2.7333	-3.1375	-2.5583	-2.7792	-2.8458	-2.4896	-3.0479	-2.6667	-2.4917	-2.9042	-2.4125	253.638	447.401	333.895	374.347	448.497	346.818	420.040	429.182	204.923	216.664	404.771	444.570	159.021	404.013	414.149	376.900	0.00084026	0.00033603	0.00016906	1358.8	3.2136e-06	6.9288e-06	1365.6	369.06	3.6413e-06	2.7129e-06	418.48	140.67	122.08	41.689	3.4522e-06	51.725	0.00058062	0.00054712	0.00014311	1382.3	6.276e-06	5.9789e-06	1378.5	375.27	6.2339e-06	5.9045e-06	426.18	143.71	124.97	42.939	5.657e-06	53.455	285.804	339.661	216.622	153.095	293.759	304.777	153.031	157.966	327.402	264.378	157.440	161.887	162.466	166.768	207.895	165.801	-8191	255	
11016.408	1	1	0	0	0.12893	0.079355	0.21518	0.12098	0.20597	0.16676	0.20169	0.47022	0.081772	0.13175	0.38475	0.17894	0.18747	0.28492	0.12363	0.13287	-2.3833	-2.7917	-2.3354	-3.0938	-2.6479	-2.4	-3.0583	-2.575	-2.8708	-2.8812	-2.4542	-2.9458	-2.5604	-2.6292	-3.0542	-2.4521	275.715	223.633	209.768	432.078	428.364	397.614	427.527	405.204	323.254	282.139	445.575	398.725	360.473	480.287	222.027	411.023	0.00085189	0.00073689	0.00019236	1355.4	1.9174e-06	6.1264e-06	1362.8	366.43	1.1485e-06	8.6864e-06	416.15	141.64	122.55	41.744	8.1671e-06	51.713	0.00057364	0.00053346	0.00014736	1381.7	6.1209e-06	5.6996e-06	1378.2	374.51	6.0935e-06	5.666e-06	425.93	143.97	124.83	42.874	5.8679e-06	53.409	296.251	278.618	194.816	153.325	239.302	286.112	153.125	158.005	220.931	288.779	157.476	161.796	162.463	166.737	276.281	166.104	-8191	255	
11016.480	1	1	0	0	0.1154	0.35679	0.19658	0.24264	0.11196	0.15805	0.26718	0.21179	0.014951	0.1007	0.14803	0.0961	0.24836	0.16387	0.16133	0.2788	-2.3792	-2.8625	-2.1917	-3.0583	-2.8271	-2.4833	-3.3646	-2.5792	-2.7458	-2.9729	-2.35	-2.975	-2.9062	-2.5833	-3.1479	-2.5062	289.497	264.791	163.832	405.793	336.828	428.679	460.453	440.807	485.077	289.695	398.222	202.914	476.438	192.040	220.936	441.023	0.00081756	0.00017007	0.00011921	1353.9	7.1537e-06	6.0751e-06	1358.3	367.55	7.932e-06	4.834e-06	418.27	139.96	121.91	41.532	6.0739e-06	51.604	0.00055375	0.00051113	0.00015246	1382.7	5.9451e-06	5.5471e-06	1379.2	374.77	5.9486e-06	5.5808e-06	427.63	143.52	124.55	42.71	6.1642e-06	53.222	288.822	179.380	215.316	153.282	281.998	391.215	153.210	157.856	366.206	319.984	157.498	161.698	162.481	166.860	257.329	165.787	-8191	255	
11016.576	1	1	0	0	0.13613	0.097352	0.11683	0.24004	0.35602	0.10798	0.046504	0.17434	0.2574	0.0229	0.11422	0.10133	0.0082742	0.12471	0.1617	0.089648	-2.0896	-2.9708	-2.4	-2.9458	-2.7062	-2.4167	-3.2917	-2.6771	-2.6312	-2.9875	-2.4396	-2.9021	-3.0042	-2.5687	-3.0146	-2.5792	395.534	226.221	151.520	383.793	266.804	362.294	375.611	399.693	350.406	363.307	412.830	339.256	245.319	378.026	298.335	366.645	0.00080569	0.00033756	0.00033325	1359.8	2.1986e-06	9.9507e-06	1356.1	366.75	6.497e-06	3.4344e-06	417.26	140.32	121.7	41.613	8.7125e-06	51.763	0.00053894	0.00050394	0.00015896	1382.1	5.8499e-06	5.6459e-06	1380.8	374.38	5.8082e-06	5.6799e-06	428.1	143.42	124.26	42.891	6.3406e-06	53.24	288.704	172.256	186.943	153.152	221.030	262.678	153.153	158.043	349.908	267.813	156.987	161.922	162.472	166.722	287.798	165.842	-8191	255	
11016.696	1	1	0	0	0.32824	0.053015	0.31043	0.19109	0.041152	0.14429	0.15721	0.17447	0.28838	0.37564	0.10999	0.08768	0.18682	0.010891	0.093268	0.097859	-1.9729	-2.825	-2.3917	-3.0292	-2.7208	-2.4646	-2.9833	-2.6875	-2.3625	-3.05	-2.5771	-2.7167	-3.0146	-2.3646	-3.0375	-2.8229	146.798	425.456	146.441	442.959	218.093	412.925	475.785	478.866	316.546	242.833	303.211	321.417	455.644	166.062	245.439	292.527	0.00079503	0.00052663	0.00013445	1359.2	6.9676e-06	2.8244e-06	1363.7	366.71	8.7049e-06	6.7708e-06	417.59	141.22	122	41.534	8.3454e-06	51.568	0.00053071	0.00052738	0.00016263	1381.4	5.6649e-06	5.8559e-06	1384.5	374.29	5.6957e-06	5.9231e-06	428.3	143.45	124.16	42.966	6.3773e-06	53.076	293.997	218.155	226.717	153.284	329.833	147.396	153.062	157.953	325.830	242.340	157.456	161.972	162.275	166.885	257.440	166.160	-8191	255	
11016.791	1	1	0	0	0.32878	0.081548	0.074255	0.18406	0.15271	0.14751	0.15186	0.19381	0.12851	0.18095	0.017933	0.18263	0.1471	0.05485	0.096522	0.25447	-1.9083	-2.9375	-2.3812	-2.7	-2.8604	-2.5375	-3.0292	-2.9208	-2.4313	-3.0479	-2.7854	-2.6417	-3.1625	-2.3417	-2.8083	-2.8875	499.462	393.886	444.875	487.678	488.550	353.374	426.650	361.467	254.652	236.935	284.795	442.591	148.880	443.267	429.582	499.609	0.00079089	0.00034253	0.00016396	1346.4	6.3895e-06	6.9028e-06	1361.7	366.56	1.5779e-05	3.2123e-06	417.47	140.78	122.16	41.639	3.3844e-06	51.576	0.00051569	0.00055208	0.00015967	1378.6	5.5369e-06	6.1018e-06	1381.7	373.54	5.5419e-06	6.2158e-06	428.09	143.21	124.02	43.041	6.1764e-06	53.029	283.329	239.600	218.076	153.406	272.929	235.149	152.997	158.074	315.757	200.680	157.533	161.623	162.551	167.042	310.615	165.895	-8191	255	
11016.887	1	1	0	0	0.17967	0.18785	0.015283	0.22809	0.23997	0.056327	0.14425	0.43562	0.043542	0.33059	0.12791	0.078756	0.23496	0.017004	0.11517	0.074586	-2.0354	-3.0021	-2.7875	-2.6979	-2.9917	-2.4479	-2.9646	-3.0958	-2.3708	-3.0375	-2.7375	-2.5271	-3.1583	-2.575	-2.7229	-2.8875	306.272	358.916	415.837	490.042	450.617	403.091	302.138	407.525	421.578	151.146	422.484	317.702	416.876	396.544	388.455	209.429	0.00081444	0.00069643	0.0001558	1351.1	7.5335e-06	8.3969e-06	1357.9	366.5	7.0063e-06	2.0785e-06	419.38	141.03	122.19	42.005	2.6054e-06	51.866	0.00052036	0.00057982	0.00015679	1377.8	5.7017e-06	6.3841e-06	1381.4	373.63	5.7602e-06	6.3463e-06	427.88	143.13	124.44	43.194	5.9957e-06	52.961	295.209	253.646	254.565	153.248	253.892	259.878	153.132	157.919	286.011	452.061	157.420	161.828	162.356	166.600	252.274	165.536	-8191	255	
11017.008	1	1	0	0	0.14157	0.14812	0.34001	0.24147	0.11827	0.18288	0.21788	0.16291	0.1538	0.19023	0.28157	0.31404	0.09105	0.40246	0.091602	0.10938	-2.1542	-2.9417	-2.4938	-2.5833	-2.8937	-2.475	-2.8667	-3.15	-2.3312	-3.1208	-2.6396	-2.5167	-3	-2.475	-2.5542	-3.0958	255.779	314.902	285.171	428.178	192.220	347.464	339.409	445.605	331.553	490.355	171.476	295.769	491.668	350.549	295.472	442.777	0.00086299	0.00062196	0.00015744	1370.6	2.8802e-06	6.4118e-06	1371	370.08	6.2351e-06	5.0311e-06	420.55	141.64	123.05	42.229	6.5706e-06	51.967	0.00054099	0.00057748	0.00015134	1382	5.9231e-06	6.3187e-06	1382	373.53	6.0967e-06	6.3262e-06	427.38	143	125.01	43.224	5.9183e-06	52.967	287.405	203.712	201.566	153.082	225.556	234.942	152.830	157.826	334.106	288.569	157.351	161.786	161.991	166.638	282.417	165.764	-8191	255	
11017.104	1	1	0	0	0.11582	0.10736	0.40963	0.12937	0.19923	0.22715	0.023191	0.16415	0.077962	0.19202	0.12824	0.095035	0.053231	0.12133	0.1412	0.15497	-1.9042	-2.8646	-2.6458	-2.5583	-2.8354	-2.5396	-2.8125	-3.0521	-2.4479	-2.9333	-3.1292	-2.4521	-2.975	-2.8354	-2.5583	-3.1	343.759	387.236	449.845	456.129	196.861	185.632	187.925	156.911	306.010	416.347	171.476	490.980	404.767	478.955	267.108	478.147	0.00088135	0.00047233	0.00012313	1367.5	6.0394e-06	5.1855e-06	1370.9	370.58	8.4432e-06	3.5426e-06	420.67	141.73	123.74	41.938	6.0908e-06	52.089	0.0005723	0.00056889	0.00014919	1380.8	6.221e-06	6.2349e-06	1382.6	374.08	6.2848e-06	6.1646e-06	427.01	143.08	125.42	43.133	5.7862e-06	53.031	292.886	297.998	248.065	153.117	285.521	208.093	152.587	157.553	277.207	260.915	157.323	161.638	162.287	166.618	357.583	165.574	-8191	255	
11017.175	1	1	0	0	0.035982	0.14375	0.12659	0.28519	0.15991	0.34158	0.29504	0.20844	0.16524	0.023229	0.24065	0.0075333	0.18539	0.28341	0.13378	0.10108	-2.05	-2.7646	-2.8271	-2.6625	-3.0396	-2.7021	-2.7979	-3.2062	-2.5271	-2.8563	-3	-2.6063	-3.1312	-2.775	-2.4521	-3.1042	386.700	372.713	139.788	470.277	319.838	173.685	443.312	468.739	443.887	201.202	441.776	462.576	259.078	459.364	337.640	476.416	0.00082325	0.0009193	0.00012385	1365.7	4.174e-06	3.0674e-06	1367.1	368.9	4.4674e-06	6.9444e-06	420.42	142.05	123.25	41.946	1.1504e-05	52.173	0.00058948	0.00055615	0.00014481	1381.3	6.3887e-06	6.088e-06	1380.1	373.76	6.391e-06	6.0281e-06	426.47	143.47	125.22	43.048	5.6388e-06	53.206	291.805	235.444	219.117	153.004	267.874	152.914	152.695	157.742	313.458	273.707	157.203	161.308	162.232	166.619	352.081	165.567	-8191	255	
11017.296	1	1	0	0	0.17043	0.13451	0.1037	0.29162	0.21368	0.20494	0.28154	0.097739	0.15989	0.18843	0.13266	0.37437	0.46597	0.12653	0.27254	0.23263	-2.1479	-2.7042	-2.9875	-2.575	-3.0583	-2.7687	-2.4375	-3.1125	-2.575	-2.7188	-3.0854	-2.3375	-2.8625	-2.9875	-2.5271	-3.2062	219.823	367.420	366.459	452.327	286.811	447.303	421.804	469.235	176.909	455.826	406.877	426.103	460.654	160.635	213.750	436.136	0.00084757	0.0006729	2.5644e-05	1366.1	3.0256e-06	4.1003e-06	1369.4	369.05	1.1794e-05	3.8815e-06	423.07	141.49	123	41.932	7.1145e-06	52.354	0.00059013	0.0005543	0.00014328	1383.7	6.3438e-06	5.9871e-06	1379.5	374.74	6.3742e-06	5.9461e-06	426.93	143.78	125.09	42.948	5.5555e-06	53.467	290.280	196.844	264.463	152.914	214.778	375.761	152.826	157.708	284.536	405.620	157.236	161.554	162.169	166.779	318.966	165.513	-8191	255	
11017.392	1	1	0	0	0.13039	0.31433	0.17191	0.22243	0.096872	0.018068	0.25802	0.15869	0.13343	0.22462	0.19536	0.2748	0.29996	0.1111	0.062433	0.17881	-2.3146	-2.5146	-2.9188	-2.4417	-2.9083	-2.6854	-2.3875	-3.0938	-2.6771	-2.6042	-3.175	-2.4896	-2.8417	-2.9125	-2.3958	-3.1042	180.583	384.343	169.967	454.369	345.668	445.394	439.049	191.933	247.100	442.916	144.869	447.651	159.480	391.559	213.992	355.367	0.00078303	0.00064463	4.4518e-05	1362.4	7.6734e-06	5.1435e-06	1365	370.51	3.1517e-06	5.9163e-06	421.44	141.75	123.02	41.668	6.0797e-06	51.87	0.00057222	0.00053976	0.00014173	1384.6	6.2324e-06	5.8285e-06	1380.1	375.76	6.1643e-06	5.7783e-06	426.57	144.02	124.99	42.814	5.7331e-06	53.437	289.671	229.764	249.033	153.214	332.493	345.340	152.881	157.825	385.431	256.312	157.389	162.011	162.163	166.631	302.666	165.955	-8191	255	
11017.488	1	1	0	0	0.16449	0.30368	0.02925	0.27585	0.044579	0.2542	0.29364	0.17852	0.075282	0.15967	0.15169	0.18703	0.195	0.20419	0.37287	0.17643	-2.3292	-2.3958	-2.9521	-2.6542	-2.7104	-2.9167	-2.4625	-3.0167	-2.7729	-2.5396	-2.9333	-2.5521	-2.65	-2.9938	-2.2146	-3.1125	363.424	344.407	397.510	150.961	146.893	185.209	487.411	350.697	441.426	173.154	150.617	179.170	489.731	169.852	475.331	386.372	0.00085642	0.00057214	7.0957e-05	1352.6	7.0347e-06	4.9464e-06	1365.5	367.57	6.3735e-07	5.9743e-06	419.74	140.12	122.23	41.82	5.987e-06	51.806	0.00055665	0.00051901	0.00014756	1381.7	5.9949e-06	5.5847e-06	1378.9	375.38	5.9671e-06	5.5992e-06	427.06	143.71	124.58	42.802	6.0286e-06	53.295	294.232	249.051	212.112	153.367	279.138	263.261	152.886	157.977	373.719	259.235	157.212	161.805	162.560	166.651	287.129	165.683	-8191	255	
11017.584	1	1	0	0	0.22163	0.009714	0.23948	0.51676	0.069375	0.24774	0.26937	0.24551	0.23381	0.21238	0.34635	0.14364	0.0087673	0.24313	0.23765	0.09495	-2.3312	-2.425	-3.0125	-2.7708	-2.5854	-3.075	-2.5542	-2.9479	-2.7958	-2.3438	-3.0687	-2.7333	-2.8479	-3.0979	-2.4646	-2.9708	482.086	294.486	171.597	448.953	358.605	276.094	401.055	384.851	141.115	360.478	461.878	499.664	198.790	483.035	195.216	435.046	0.00071815	0.00054196	4.7485e-05	1355.9	1.8419e-06	4.3606e-06	1365.2	368.6	5.7359e-06	3.843e-06	419.26	140.74	122.76	41.643	9.6684e-06	51.794	0.00054724	0.00050752	0.00015479	1380.6	5.9176e-06	5.5126e-06	1380.5	375.37	5.8388e-06	5.5609e-06	427.99	143.58	124.54	42.783	6.2648e-06	53.177	292.073	240.682	173.353	153.287	298.588	309.362	152.975	157.859	300.860	246.264	157.289	161.764	162.408	166.850	364.275	165.645	-8191	255	
11017.679	1	1	0	0	0.086571	0.12172	0.12616	0.46592	0.21767	0.14814	0.22845	0.30566	0.34692	0.091038	0.10225	0.20087	0.030558	0.12776	0.23572	0.048518	-2.4896	-2.2667	-3.0792	-2.8729	-2.4521	-3.1271	-2.5646	-2.8333	-3.0062	-2.4458	-3.1125	-2.75	-2.4979	-3.1479	-2.5729	-2.8458	243.539	434.518	242.067	460.206	296.248	200.804	384.520	464.361	376.878	431.802	145.992	437.730	312.632	389.841	276.578	408.069	0.00076629	0.0010753	4.4984e-05	1358.9	5.4749e-06	7.472e-06	1365.7	368.69	2.5053e-06	3.8742e-06	417.76	141	122.36	41.859	4.227e-06	51.869	0.00052918	0.0005098	0.00015886	1380.3	5.7195e-06	5.6054e-06	1380.3	374.02	5.6196e-06	5.7208e-06	428.06	143.38	124.21	42.878	6.1756e-06	53.163	294.582	231.744	324.318	153.224	319.449	301.032	153.124	157.945	329.911	488.851	157.394	161.872	162.057	166.891	329.028	165.686	-8191	255	
11017.775	1	1	0	0	0.12927	0.046201	0.26513	0.42119	0.33132	0.1584	0.15134	0.070266	0.21733	0.12341	0.16499	0.26695	0.45809	0.063133	0.11168	0.16348	-2.525	-2.4271	-2.9083	-2.8521	-2.5021	-3.1708	-2.8312	-2.7729	-2.9542	-2.3708	-3.125	-3.0896	-2.5167	-3.125	-2.6125	-2.7687	402.028	231.076	297.888	464.017	174.481	319.600	484.421	144.188	373.384	371.408	257.646	463.853	362.144	333.280	498.868	407.982	0.00081593	0.00069797	7.9712e-05	1358	5.4401e-06	8.1136e-06	1361.1	366.74	1.4442e-05	7.2464e-06	419.98	141.03	121.88	41.926	7.6821e-06	51.585	0.00050788	0.00052571	0.00015716	1378.3	5.4441e-06	5.858e-06	1380.1	373.7	5.4299e-06	5.9272e-06	428.2	143.06	123.83	43.043	6.0761e-06	52.997	288.967	257.301	148.509	153.137	234.878	268.359	153.272	158.265	307.962	211.257	157.455	161.796	162.358	166.770	312.315	165.826	-8191	255	
11017.871	1	1	0	0	0.17212	0.32603	0.11425	0.30611	0.17143	0.10793	0.16096	0.099738	0.11596	0.12576	0.06705	0.11499	0.16988	0.072471	0.069168	0.1422	-2.3167	-2.4562	-2.8563	-2.9437	-2.3917	-3.2354	-2.6229	-2.7313	-3.1188	-2.5479	-2.8625	-3.0646	-2.4167	-3.1271	-2.7833	-2.6604	492.639	291.534	388.427	149.568	268.401	147.328	338.101	468.891	444.212	201.240	479.665	442.401	469.519	363.452	479.369	454.988	0.00080551	0.00032943	0.00012415	1353.9	4.7056e-06	7.0694e-06	1355.1	366.1	5.8354e-06	1.7574e-06	420.1	141.21	123.13	42.029	8.8093e-06	51.955	0.00049846	0.00054958	0.00015368	1375.3	5.4378e-06	6.1275e-06	1376.1	373.22	5.5056e-06	6.1848e-06	427.07	142.95	124.31	43.129	5.971e-06	52.948	289.707	198.699	179.473	153.197	284.659	281.612	152.893	157.964	300.260	337.989	157.194	161.660	162.134	167.016	333.868	165.595	-8191	255	
11017.967	1	1	0	0	0.23061	0.089959	0.21376	0.2923	0.088419	0.14117	0.15785	0.30537	0.18755	0.16614	0.072738	0.18211	0.14378	0.26204	0.12162	0.18165	-2.8	-2.4396	-2.7188	-3.0563	-2.4562	-3.1333	-3	-2.7562	-3.2354	-2.7167	-2.85	-3.0396	-2.55	-3.1417	-2.8	-2.6458	430.994	322.545	200.373	434.371	192.076	368.706	454.237	402.123	165.035	182.636	234.528	369.367	363.066	469.580	315.586	464.760	0.00077966	0.00094216	0.00011361	1360	1.5921e-06	4.288e-06	1372.7	370.57	2.4053e-06	3.9051e-06	421.74	141.41	122.6	42.001	4.7497e-06	52.258	0.00052076	0.00057332	0.00015107	1376.1	5.7563e-06	6.2657e-06	1380.3	373.96	5.7824e-06	6.3131e-06	427.44	142.89	124.29	43.094	5.9112e-06	52.991	282.699	247.624	235.271	153.221	183.986	334.297	152.815	157.619	319.829	270.126	156.988	161.710	162.023	166.601	251.231	165.562	-8191	255	
11018.088	1	1	0	0	0.11611	0.12343	0.11764	0.34113	0.14633	0.055228	0.31748	0.2067	0.19678	0.1405	0.30833	0.24215	0.26386	0.16185	0.056981	0.16906	-2.8479	-2.6083	-2.6729	-3.2625	-2.4062	-3.1729	-2.9396	-2.6271	-3.1375	-2.4688	-2.6583	-3.3021	-2.5979	-3.0333	-2.9396	-2.5938	450.007	392.565	384.808	157.385	319.332	190.955	463.008	412.764	351.683	389.941	181.568	496.217	455.331	411.034	223.712	423.142	0.00095307	0.00086487	9.8943e-05	1366.2	5.0442e-06	5.7663e-06	1374.8	370.71	6.2699e-06	5.364e-06	421.11	141.55	123.29	42.056	4.3267e-06	52.236	0.00054879	0.00057185	0.00014836	1378.3	6.009e-06	6.1774e-06	1381	373.72	6.1621e-06	6.2407e-06	427.09	142.86	124.86	43.079	5.8194e-06	53.042	277.692	265.145	284.704	152.979	198.060	306.422	152.861	157.766	342.640	287.640	157.021	161.675	162.059	166.674	304.362	165.483	-8191	255	
11018.184	1	1	0	0	0.084444	0.026878	0.18734	0.4081	0.24187	0.067089	0.034426	0.17358	0.23425	0.010549	0.17968	0.35595	0.21239	0.17765	0.14449	0.28863	-2.6688	-2.6229	-2.7	-3.1396	-2.2417	-2.8458	-3.1396	-2.6604	-2.9042	-2.8458	-2.6896	-3.1292	-2.5312	-2.9896	-3.0646	-2.5708	274.082	464.920	152.046	468.179	148.089	180.750	358.892	157.332	366.529	432.969	367.739	487.050	419.002	473.774	402.603	408.764	0.00094352	0.00070395	0.00015099	1370.2	7.4807e-06	2.5733e-06	1373.9	371.21	3.2489e-06	6.8487e-06	422.04	142.15	123.73	42.149	3.3137e-06	52.157	0.00057727	0.0005663	0.00014882	1378.9	6.3348e-06	6.1575e-06	1379.5	374.14	6.3996e-06	6.1012e-06	426.85	143.1	125.3	43.094	5.7206e-06	53.118	291.383	273.294	240.962	152.979	248.482	401.318	152.751	157.444	371.634	313.110	157.078	161.525	162.135	166.627	488.606	165.829	-8191	255	
11018.280	1	1	0	0	0.30361	0.23373	0.14805	0.27346	0.22289	0.19527	0.14632	0.16141	0.04047	0.17622	0.093717	0.23332	0.31512	0.10094	0.07449	0.27126	-2.6167	-2.5521	-2.3042	-3.2292	-2.4646	-2.85	-3.1875	-2.5396	-2.9604	-2.5896	-2.5583	-3.1396	-2.5896	-2.8292	-3.0146	-2.475	363.311	439.632	479.334	454.460	375.789	223.477	143.546	190.875	319.561	373.541	404.569	473.086	215.084	386.559	179.841	476.749	0.00084485	0.00062792	0.00012036	1365.8	7.1265e-06	9.1239e-06	1372.5	370.48	7.8566e-06	5.8695e-07	418.61	141.12	122.9	41.963	1.046e-05	52.145	0.00058834	0.00055303	0.00014481	1382.1	6.3774e-06	6.0325e-06	1378.7	375.18	6.3626e-06	5.9866e-06	425.98	143.23	125.04	42.946	5.5943e-06	53.215	286.173	224.663	303.531	153.024	279.981	266.975	153.059	157.682	289.878	232.436	157.254	161.571	162.217	166.806	304.374	165.639	-8191	255	
11018.376	1	1	0	0	0.099656	0.24307	0.19886	0.26712	0.28097	0.19487	0.22349	0.35276	0.10265	0.16164	0.17706	0.1406	0.42859	0.14097	0.035097	0.13472	-2.675	-2.9417	-2.3896	-3.0729	-2.7083	-2.7313	-3.2313	-2.5021	-2.7958	-2.8417	-2.6542	-3.1604	-2.6667	-2.6958	-3.0979	-2.6708	155.370	482.611	327.389	457.849	429.192	339.805	480.784	476.112	279.892	449.008	458.317	433.847	484.127	346.549	356.059	202.162	0.00091109	0.00029339	0.00013724	1363.4	5.8458e-06	3.5596e-06	1363.3	367.7	7.2555e-06	4.4179e-06	419.94	141.27	122.82	41.774	5.0041e-06	51.496	0.00057927	0.00054356	0.00014081	1383.3	6.2814e-06	5.9521e-06	1378.7	374.91	6.2356e-06	5.8595e-06	426.63	143.71	124.94	42.909	5.6744e-06	53.246	280.124	262.574	181.473	153.281	237.905	332.767	153.160	157.696	296.749	312.425	157.258	161.699	162.360	167.032	215.233	165.621	-8191	255	
11018.473	1	1	0	0	0.28659	0.1895	0.31262	0.20721	0.087702	0.054716	0.021846	0.075698	0.1358	0.16764	0.16189	0.18405	0.061257	0.22564	0.1974	0.23955	-2.4771	-3.025	-2.3854	-3.2792	-2.7354	-2.7771	-3.2896	-2.5438	-2.8354	-2.9729	-2.5521	-3.1125	-2.7708	-2.6813	-3.1354	-2.5667	361.316	373.300	398.161	493.660	201.923	375.760	436.015	499.060	179.454	149.074	352.922	479.537	488.959	392.680	168.645	317.168	0.00075104	0.00074213	0.00013372	1371.7	3.5053e-06	5.3831e-06	1364.5	368.27	6.9105e-07	2.7627e-06	419.35	141.76	123.03	41.84	4.8846e-06	51.706	0.00056921	0.00052968	0.00014587	1386.1	6.1351e-06	5.7999e-06	1378.1	375.34	6.0921e-06	5.6922e-06	427.06	143.96	124.93	42.824	5.9425e-06	53.345	293.701	242.152	227.302	152.928	283.934	343.615	152.991	157.881	479.927	300.470	157.070	161.496	162.011	166.536	273.004	165.912	-8191	255	
11018.569	1	1	0	0	0.26411	0.18799	0.11839	0.11917	0.067035	0.19347	0.094606	0.10593	0.023887	0.12111	0.1445	0.33443	0.36635	0.15294	0.027878	0.039092	-2.4104	-3.0187	-2.2042	-3.2708	-2.7792	-2.6896	-3.325	-2.65	-2.8917	-3.0417	-2.5375	-3.2146	-2.9375	-2.7521	-3.1021	-2.8417	306.910	172.042	148.749	438.464	208.532	309.219	474.134	475.183	195.685	324.874	187.074	469.061	448.679	187.222	478.176	231.847	0.00092534	0.00069075	0.00015225	1366.5	4.016e-06	5.5061e-06	1370.7	370.17	6.8423e-06	4.5941e-06	421.68	141.46	123.18	41.937	6.0797e-06	52.063	0.00056229	0.00051199	0.00015272	1383.3	6.0408e-06	5.6163e-06	1383.1	375.22	5.9889e-06	5.5868e-06	428.66	143.83	124.59	42.821	6.1249e-06	53.34	289.989	278.223	185.293	153.081	312.830	301.817	152.728	157.636	341.590	257.095	157.135	161.418	162.294	166.459	322.322	165.387	-8191	255	
11018.689	1	1	0	0	0.14694	0.20703	0.34472	0.3022	0.10568	0.097336	0.13496	0.10736	0.37164	0.14663	0.17201	0.13848	0.19945	0.26742	0.14644	0.39328	-2.175	-3.0667	-2.4188	-3.1104	-2.9979	-2.4521	-3.3229	-2.6229	-2.6604	-3.0479	-2.5729	-2.9604	-2.9792	-2.4	-3.0083	-2.7021	164.582	324.342	428.366	434.033	256.653	342.889	175.657	353.107	163.695	350.843	216.366	443.801	151.757	479.167	313.520	347.950	0.00072859	0.00059645	0.00010276	1365.8	3.367e-06	7.0057e-07	1371	371.01	8.1876e-06	1.7857e-06	421.72	142.18	123.18	42.001	6.7172e-06	52.018	0.00053934	0.00050696	0.00015762	1382.1	5.8002e-06	5.5357e-06	1382.7	374.49	5.7301e-06	5.5766e-06	428.68	143.57	124.1	42.917	6.3379e-06	53.241	288.522	203.947	186.287	153.087	283.170	323.239	152.837	157.854	352.328	286.245	157.139	161.314	162.149	166.499	338.883	165.938	-8191	255	
11018.784	1	1	0	0	0.068658	0.061963	0.065495	0.30989	0.39335	0.14418	0.077532	0.39319	0.092198	0.13132	0.17418	0.10308	0.10943	0.25931	0.21266	0.1586	-2.1958	-2.8583	-2.4708	-2.9646	-3.0021	-2.4771	-2.9833	-2.9708	-2.4208	-3.0271	-2.5625	-2.85	-2.975	-2.4625	-3.0167	-2.9083	205.455	301.708	477.403	493.286	329.576	270.675	384.873	412.208	196.629	164.935	149.525	414.477	350.086	428.214	236.178	391.060	0.0008477	0.00089728	0.00017285	1368.9	6.3748e-06	7.7653e-06	1369.1	369.95	5.6284e-06	7.1786e-06	419.3	140.56	122.47	41.826	6.2636e-06	52.014	0.00052369	0.00052274	0.00016062	1382.3	5.6067e-06	5.8064e-06	1383.1	374.46	5.5943e-06	5.8921e-06	428.62	143.01	123.89	42.928	6.3009e-06	53.118	291.405	200.186	239.067	153.088	277.460	263.784	152.698	157.907	302.906	223.774	157.158	161.828	162.418	166.615	377.272	165.517	-8191	255	
11018.880	1	1	0	0	0.16184	0.065264	0.20832	0.10687	0.068804	0.16162	0.028682	0.092608	0.18534	0.25214	0.3351	0.25663	0.19092	0.004714	0.1882	0.28404	-2.0854	-3.025	-2.3375	-2.7229	-2.9333	-2.4667	-3.1896	-2.8688	-2.3292	-3.0375	-2.5125	-2.6333	-3.1437	-2.3083	-2.7583	-2.9208	472.413	474.246	443.429	159.210	430.868	181.892	496.899	437.896	399.654	312.135	437.158	245.823	157.999	248.761	284.964	361.693	0.00072352	0.0010906	0.00015634	1362.4	6.0117e-06	2.8563e-06	1372.8	370.5	3.4966e-06	5.3086e-07	421.91	141.41	123	42.138	3.4275e-06	51.964	0.00051457	0.00055652	0.00015998	1379.2	5.56e-06	6.1408e-06	1383.1	374.35	5.6135e-06	6.2666e-06	428.43	143.19	124.19	43.125	6.1784e-06	53.049	298.176	259.305	217.770	153.046	250.092	257.947	152.797	157.802	293.508	389.840	157.108	161.526	161.952	166.504	329.843	165.649	-8191	255	
11018.976	1	1	0	0	0.14364	0.019875	0.1991	0.26978	0.034459	0.3316	0.12362	0.28298	0.19723	0.14088	0.22972	0.13586	0.20233	0.13408	0.09215	0.029198	-2.025	-2.8521	-2.5083	-2.7687	-3.0146	-2.3771	-3.0271	-3.0521	-2.3667	-2.9854	-2.7458	-2.5	-2.9479	-2.5021	-2.8646	-2.8229	141.679	497.943	359.948	467.459	351.587	450.149	356.923	184.110	271.086	461.292	431.792	160.347	142.620	499.094	192.803	469.439	0.00076357	0.00057306	0.00015296	1371.6	9.3844e-06	7.0226e-06	1378.3	369.99	1.1034e-05	1.2918e-06	423.68	142.25	123.97	42.18	2.004e-06	52.393	0.00051765	0.00057331	0.00015565	1379.4	5.6413e-06	6.3683e-06	1381.7	373.6	5.711e-06	6.3496e-06	428.22	143	124.48	43.112	6.0439e-06	53.049	289.183	288.373	143.100	152.962	271.020	252.568	152.743	157.494	317.971	287.652	156.915	161.161	161.919	166.399	358.793	165.334	-8191	255	
11019.072	1	1	0	0	0.17762	0.15037	0.19062	0.1864	0.18593	0.082856	0.29802	0.20259	0.14896	0.15033	0.12252	0.21927	0.25303	0.24829	0.10368	0.27299	-1.8917	-2.8125	-2.6708	-2.6771	-2.9625	-2.4896	-2.7625	-3.1104	-2.3979	-3.0292	-2.85	-2.4833	-3.2313	-2.6271	-2.5271	-3.1979	290.490	263.516	310.217	437.168	213.631	379.457	454.774	444.603	261.650	331.187	420.761	466.762	445.505	492.767	220.725	435.043	0.00083644	0.00068296	0.0002783	1378.3	9.6535e-06	2.0077e-06	1382.9	372.48	7.8213e-06	2.4081e-06	420.9	141.85	123.45	41.843	2.1517e-06	51.976	0.00054595	0.00058039	0.00015378	1380.5	5.9881e-06	6.3496e-06	1382.6	373.95	5.9674e-06	6.3078e-06	427.15	142.72	124.66	43.037	5.9631e-06	52.939	282.957	358.173	233.893	152.758	242.513	216.039	152.408	157.580	302.384	314.209	157.054	161.135	161.845	166.561	247.123	165.778	-8191	255	
#DATA ENDS
