BOXY.EXE: ISS Imagent and Oximeter Data Acquisition Program Version 0.80
Ascii Record File

#ACQ INFORMATION
2  Detector Channels 
16  External MUX Channels 
1  Auxiliary Channels 
5000  Waveform (CCF) Frequency (Hz)
1  Waveforms Skipped 
30  Waveforms Averaged 
1  Cycles Averaged 
16  Acquisitions per Waveform 
10.0806  Updata Rate (Hz) 

#FILE INFORMATION
TRUE -- External MUX Channel results are PARSED.
FALSE -- AC DC and Phase are NOT grouped.
TRUE -- Companion Program Settings File CREATED.
FALSE -- AC data not excluded
FALSE -- DC data not excluded
FALSE -- Phase data not excluded
FALSE -- Auxillary Chn. data not excluded
Tab delimiters

#CALIBRATION STATE
TRUE -- Waveform Calibration Values APPLIED.


#AUX CALIBRATION VALUES
Val Type	aux-1	

Term	1.0000e+00	
Factor	0.0000e+00	


#WF CALIBRATION VALUES
A = Detector Channel
Val Type	A-AC1	A-AC2	A-AC3	A-AC4	A-AC5	A-AC6	A-AC7	A-AC8	A-AC9	A-AC10	A-AC11	A-AC12	A-AC13	A-AC14	A-AC15	A-AC16	A-DC1	A-DC2	A-DC3	A-DC4	A-DC5	A-DC6	A-DC7	A-DC8	A-DC9	A-DC10	A-DC11	A-DC12	A-DC13	A-DC14	A-DC15	A-DC16	A-Ph1	A-Ph2	A-Ph3	A-Ph4	A-Ph5	A-Ph6	A-Ph7	A-Ph8	A-Ph9	A-Ph10	A-Ph11	A-Ph12	A-Ph13	A-Ph14	A-Ph15	A-Ph16	

Term	0.00000e+00	0.00000e+00	0.00000e+00	0.00000e+00	0.00000e+00	0.00000e+00	0.00000e+00	0.00000e+00	0.00000e+00	0.00000e+00	0.00000e+00	0.00000e+00	0.00000e+00	0.00000e+00	0.00000e+00	0.00000e+00	0.00000e+00	0.00000e+00	0.00000e+00	0.00000e+00	0.00000e+00	0.00000e+00	0.00000e+00	0.00000e+00	0.00000e+00	0.00000e+00	0.00000e+00	0.00000e+00	0.00000e+00	0.00000e+00	0.00000e+00	0.00000e+00	0.00000e+00	0.00000e+00	0.00000e+00	0.00000e+00	0.00000e+00	0.00000e+00	0.00000e+00	0.00000e+00	0.00000e+00	0.00000e+00	0.00000e+00	0.00000e+00	0.00000e+00	0.00000e+00	0.00000e+00	0.00000e+00	
Factor	1.00000e+00	1.00000e+00	1.00000e+00	1.00000e+00	1.00000e+00	1.00000e+00	1.00000e+00	1.00000e+00	1.00000e+00	1.00000e+00	1.00000e+00	1.00000e+00	1.00000e+00	1.00000e+00	1.00000e+00	1.00000e+00	1.00000e+00	1.00000e+00	1.00000e+00	1.00000e+00	1.00000e+00	1.00000e+00	1.00000e+00	1.00000e+00	1.00000e+00	1.00000e+00	1.00000e+00	1.00000e+00	1.00000e+00	1.00000e+00	1.00000e+00	1.00000e+00	X	X	X	X	X	X	X	X	X	X	X	X	X	X	X	X	

B = Detector Channel
Val Type	B-AC1	B-AC2	B-AC3	B-AC4	B-AC5	B-AC6	B-AC7	B-AC8	B-AC9	B-AC10	B-AC11	B-AC12	B-AC13	B-AC14	B-AC15	B-AC16	B-DC1	B-DC2	B-DC3	B-DC4	B-DC5	B-DC6	B-DC7	B-DC8	B-DC9	B-DC10	B-DC11	B-DC12	B-DC13	B-DC14	B-DC15	B-DC16	B-Ph1	B-Ph2	B-Ph3	B-Ph4	B-Ph5	B-Ph6	B-Ph7	B-Ph8	B-Ph9	B-Ph10	B-Ph11	B-Ph12	B-Ph13	B-Ph14	B-Ph15	B-Ph16	

Term	0.00000e+00	0.00000e+00	0.00000e+00	0.00000e+00	0.00000e+00	0.00000e+00	0.00000e+00	0.00000e+00	0.00000e+00	0.00000e+00	0.00000e+00	0.00000e+00	0.00000e+00	0.00000e+00	0.00000e+00	0.00000e+00	0.00000e+00	0.00000e+00	0.00000e+00	0.00000e+00	0.00000e+00	0.00000e+00	0.00000e+00	0.00000e+00	0.00000e+00	0.00000e+00	0.00000e+00	0.00000e+00	0.00000e+00	0.00000e+00	0.00000e+00	0.00000e+00	-2.90631e+01	-1.25552e+02	-1.34417e+02	-1.83772e+02	-7.20645e+01	-6.10955e+01	-1.58193e+02	-1.62015e+02	-3.23909e+01	-1.01832e+02	-1.70609e+02	-1.70696e+02	-1.78180e+02	-1.76850e+02	-4.40641e+01	-1.49933e+02	
Factor	3.20294e-05	1.37736e-04	3.60325e-05	1.67790e-01	1.23194e-06	1.40486e-06	1.82739e-01	6.01972e-02	1.41033e-06	1.15288e-06	1.00393e-01	3.50361e-02	3.11072e-02	1.11864e-02	1.47115e-06	1.60536e-02	1.28001e-06	1.31859e-06	3.66219e-07	8.30035e-02	1.44006e-08	1.44477e-08	8.47747e-02	2.96083e-02	1.44213e-08	1.44501e-08	4.73672e-02	1.64815e-02	1.52180e-02	5.44559e-03	1.43905e-08	7.51965e-03	X	X	X	X	X	X	X	X	X	X	X	X	X	X	X	X	



#DISTANCE SETTINGS
A = Detector Channel
A-1	A-2	A-3	A-4	A-5	A-6	A-7	A-8	A-9	A-10	A-11	A-12	A-13	A-14	A-15	A-16	

2.5000e+00	3.0000e+00	2.5000e+00	3.0000e+00	2.0000e+00	3.0000e+00	1.5000e+00	3.0000e+00	3.0000e+00	3.0000e+00	3.0000e+00	3.0000e+00	3.0000e+00	3.0000e+00	1.5000e+00	3.0000e+00	

B = Detector Channel
B-1	B-2	B-3	B-4	B-5	B-6	B-7	B-8	B-9	B-10	B-11	B-12	B-13	B-14	B-15	B-16	

1.0000e+01	1.0000e+01	1.0000e+01	1.4400e+00	1.0000e+01	1.0000e+01	1.5100e+00	1.9400e+00	1.0000e+01	1.0000e+01	1.9900e+00	2.4900e+00	2.4100e+00	2.9000e+00	1.0000e+01	2.9800e+00	




#DATA BEGINS
time	group	step	mark	flag	A-AC1	A-AC2	A-AC3	A-AC4	A-AC5	A-AC6	A-AC7	A-AC8	A-AC9	A-AC10	A-AC11	A-AC12	A-AC13	A-AC14	A-AC15	A-AC16	A-DC1	A-DC2	A-DC3	A-DC4	A-DC5	A-DC6	A-DC7	A-DC8	A-DC9	A-DC10	A-DC11	A-DC12	A-DC13	A-DC14	A-DC15	A-DC16	A-Ph1	A-Ph2	A-Ph3	A-Ph4	A-Ph5	A-Ph6	A-Ph7	A-Ph8	A-Ph9	A-Ph10	A-Ph11	A-Ph12	A-Ph13	A-Ph14	A-Ph15	A-Ph16	B-AC1	B-AC2	B-AC3	B-AC4	B-AC5	B-AC6	B-AC7	B-AC8	B-AC9	B-AC10	B-AC11	B-AC12	B-AC13	B-AC14	B-AC15	B-AC16	B-DC1	B-DC2	B-DC3	B-DC4	B-DC5	B-DC6	B-DC7	B-DC8	B-DC9	B-DC10	B-DC11	B-DC12	B-DC13	B-DC14	B-DC15	B-DC16	B-Ph1	B-Ph2	B-Ph3	B-Ph4	B-Ph5	B-Ph6	B-Ph7	B-Ph8	B-Ph9	B-Ph10	B-Ph11	B-Ph12	B-Ph13	B-Ph14	B-Ph15	B-Ph16	aux-1	digaux	

11051.723	1	1	0	256	0.34233	0.2741	0.12566	0.087972	0.045112	0.078036	0.24427	0.23832	0.29697	0.12802	0.13267	0.084962	0.14393	0.22666	0.071972	0.13984	-2.0896	-3.1125	-2.5312	-2.8917	-2.8458	-2.3354	-3.0771	-2.7687	-2.2646	-3.0125	-2.4771	-2.7833	-3.0875	-2.4292	-3	-2.8187	275.032	320.403	397.840	463.959	167.830	493.935	365.580	375.268	326.212	442.858	393.034	242.962	422.311	147.504	430.172	428.893	0.00066154	0.00090912	0.00013682	1290.9	2.5918e-06	1.0924e-05	1308.2	361.63	9.7527e-06	5.0675e-06	415.05	139.35	119.3	41.251	9.4974e-06	51.949	0.00071508	0.00073399	0.00022172	1324.1	7.6644e-06	8.1253e-06	1340.6	371.17	7.6551e-06	8.3302e-06	431.56	143.89	123.17	43.157	8.6253e-06	54.14	291.850	202.913	247.822	153.322	309.313	254.817	153.028	157.933	345.505	202.613	157.523	161.854	162.608	167.207	324.679	165.481	-8191	255	
11051.819	1	1	0	0	0.30771	0.17764	0.30524	0.44036	0.08739	0.04053	0.27281	0.33615	0.18856	0.074035	0.11434	0.098274	0.32056	0.31203	0.17428	0.06805	-1.975	-3.1688	-2.7458	-2.7104	-3.0958	-2.3604	-2.8979	-2.9562	-2.4604	-3.0542	-2.5333	-2.6146	-3.0792	-2.5312	-2.9271	-3.0167	314.542	163.035	182.142	452.802	229.423	250.743	426.762	426.898	146.715	352.012	487.058	230.963	405.996	172.793	178.558	146.052	0.00088879	0.00044512	0.00013165	1286.4	6.1555e-06	9.4246e-06	1304.8	361.71	1.048e-05	9.6581e-06	416.18	139.63	119.74	40.992	3.4404e-06	51.63	0.00070316	0.00077648	0.00021768	1321.1	7.6836e-06	8.5723e-06	1336.6	370.48	7.694e-06	8.6306e-06	431	143.59	123.26	43.225	8.4546e-06	53.996	288.201	188.352	249.492	153.390	281.747	262.974	153.140	158.265	276.180	220.363	157.312	162.019	162.653	166.982	187.131	165.872	-8191	255	
11051.915	1	1	0	0	0.021158	0.108	0.26997	0.17889	0.21205	0.18709	0.3206	0.2214	0.12186	0.12782	0.33906	0.16402	0.29186	0.016297	0.14047	0.085544	-2.025	-3.0812	-2.7167	-2.7938	-2.9604	-2.5979	-3.0583	-2.9833	-2.4271	-3.0438	-2.6833	-2.5438	-3.0146	-2.4854	-2.7625	-3.0479	232.630	485.595	416.035	182.321	209.408	290.545	438.274	498.218	407.856	379.913	387.826	186.633	140.502	448.002	210.208	392.273	0.00095041	0.00081834	0.00021168	1291	5.0227e-06	6.4981e-06	1311	361.75	1.5108e-05	6.8666e-06	415.3	139.45	120.21	41.306	6.8977e-06	51.676	0.00071766	0.00080308	0.0002123	1320.1	7.9587e-06	8.7801e-06	1340	370.08	8.0442e-06	8.8627e-06	430.35	143.45	124.07	43.321	8.3711e-06	53.867	294.039	163.282	290.110	153.341	234.665	331.600	153.040	158.105	299.167	269.058	157.517	161.539	162.538	167.048	315.601	165.676	-8191	255	
11052.036	1	1	0	0	0.080309	0.042994	0.24975	0.25145	0.13409	0.068119	0.26925	0.0087612	0.18769	0.21289	0.28162	0.19854	0.33884	0.26951	0.17712	0.17717	-1.8854	-2.9167	-2.6792	-2.5833	-3.0563	-2.7042	-2.6937	-3.1271	-2.275	-3.0542	-3.0292	-2.4729	-3.2229	-2.5167	-2.5687	-3.2208	424.192	167.188	241.303	477.958	224.204	346.056	492.810	315.234	222.128	310.119	491.402	471.548	226.371	481.616	223.600	434.523	0.00090912	0.00042232	0.00019109	1298.6	6.0917e-06	4.3205e-06	1310.9	361.16	6.9599e-06	5.0759e-06	417.52	139.48	119.84	41.137	3.9417e-06	51.509	0.0007643	0.00080697	0.00021127	1323.2	8.4381e-06	8.8164e-06	1341.3	370.46	8.6075e-06	8.8262e-06	430.33	143.49	124.73	43.3	8.2737e-06	53.909	289.186	202.712	243.838	153.195	215.641	349.743	153.023	158.162	273.121	298.427	157.351	162.080	162.408	167.207	461.877	166.357	-8191	255	
11052.108	1	1	0	0	0.24201	0.20716	0.23279	0.36491	0.24566	0.18238	0.46297	0.21063	0.13949	0.075606	0.21006	0.26215	0.2814	0.13008	0.18381	0.17543	-2.0458	-2.8646	-2.8771	-2.6208	-3.0271	-2.575	-2.7417	-3.1583	-2.4396	-2.7417	-3.0687	-2.7375	-2.9958	-2.7708	-2.5271	-3.2333	450.112	401.245	235.898	486.984	429.141	485.279	427.824	422.840	422.993	378.651	437.297	244.620	431.680	252.701	423.873	191.260	0.00079102	0.00072861	6.5822e-05	1298.9	4.0951e-06	8.7928e-06	1319.9	363.3	1.2161e-05	2.7085e-06	414.6	139.24	119.74	41.108	7.8838e-06	51.673	0.00080426	0.00079438	0.00020748	1326	8.857e-06	8.6301e-06	1340.6	371.56	8.919e-06	8.5203e-06	429.45	143.69	124.84	43.128	7.9871e-06	54.139	289.066	242.702	197.200	153.109	297.502	316.419	152.921	158.093	263.348	193.228	157.498	161.869	162.671	166.948	186.235	165.955	-8191	255	
11052.204	1	1	0	0	0.13814	0.14466	0.029798	0.095027	0.20877	0.13624	0.39837	0.32833	0.24454	0.15579	0.19327	0.12392	0.13022	0.11859	0.15461	0.2657	-2.0125	-2.7479	-3.0375	-2.4771	-2.9333	-2.8542	-2.5979	-3.1146	-2.5563	-2.8438	-3.2229	-2.4938	-3.0625	-2.7896	-2.6729	-3.1771	275.675	451.275	144.285	154.875	227.306	396.022	465.900	465.080	359.164	200.352	425.049	262.052	491.373	185.824	300.724	318.402	0.0007291	0.0011841	0.00019676	1291.5	1.2224e-06	6.7042e-06	1314.3	361.59	7.995e-06	4.9656e-06	416.38	139.54	120.02	41.062	6.478e-06	51.746	0.00081393	0.00077321	0.00020177	1325.9	8.9594e-06	8.4594e-06	1340.5	371.58	8.9273e-06	8.3914e-06	429.22	144.08	124.74	43.116	7.7741e-06	54.323	294.358	276.110	298.352	153.291	253.176	362.507	152.905	158.047	297.020	233.052	157.530	161.863	162.569	166.785	314.721	165.727	-8191	255	
11052.300	1	1	0	0	0.14235	0.14745	0.30082	0.34654	0.1471	0.11084	0.14286	0.12518	0.16579	0.32846	0.25002	0.087751	0.19856	0.11691	0.24427	0.28241	-1.9479	-2.6813	-2.9396	-2.5792	-2.8312	-2.8021	-2.725	-3.2208	-2.5812	-2.3312	-3.05	-2.4458	-2.9375	-2.9125	-2.4375	-3.1437	338.706	430.688	376.733	436.865	185.779	206.242	447.911	347.814	167.941	273.601	421.572	289.762	188.791	393.295	216.734	375.242	0.00083747	0.00076153	0.00025907	1311.5	5.0302e-06	6.2091e-06	1329.1	366.1	1.066e-05	1.3337e-06	420.59	140.68	120.98	41.596	3.7734e-06	52.106	0.00080436	0.00076038	0.00019785	1334.2	8.7529e-06	8.2762e-06	1341.2	373.29	8.7277e-06	8.2753e-06	429.43	144.92	124.78	43.144	7.8489e-06	54.499	293.385	314.115	206.747	153.032	314.279	251.964	152.586	157.645	331.069	242.409	156.937	161.515	162.041	166.452	246.341	165.874	-8191	255	
11052.421	1	1	0	0	0.14947	0.027787	0.14852	0.38229	0.19981	0.12192	0.44563	0.24678	0.097251	0.074484	0.16252	0.16757	0.081674	0.043636	0.12987	0.034357	-2.1896	-2.5833	-3.15	-2.5875	-3.0458	-3.0083	-2.8104	-3.3083	-2.6792	-2.6771	-3.3854	-2.6354	-2.7958	-3.0667	-2.6479	-3.1021	186.978	305.375	475.363	478.728	140.254	251.566	428.540	463.900	352.711	374.042	435.931	250.963	186.262	250.320	411.167	406.271	0.00087572	0.00014013	0.00015764	1299.5	6.1408e-06	7.396e-06	1309.4	363.3	1.3254e-05	7.9085e-06	414.39	139.28	120.11	40.98	9.2415e-06	51.683	0.00078037	0.00073497	0.0001998	1331.8	8.4431e-06	7.9158e-06	1339.5	373.29	8.3639e-06	7.8515e-06	428.84	144.6	124.53	42.886	8.1591e-06	54.381	286.521	439.211	170.757	153.340	283.203	325.004	153.207	158.002	273.655	308.638	157.635	162.013	162.745	167.255	242.544	165.849	-8191	255	
11052.517	1	1	0	0	0.28597	0.13704	0.14218	0.32167	0.16939	0.37689	0.17055	0.10029	0.19017	0.13012	0.14275	0.086687	0.064195	0.096558	0.095789	0.32384	-2.4104	-2.6937	-3.1521	-2.7125	-2.675	-3.0854	-2.5958	-3.0854	-2.8667	-2.7083	-3.2417	-2.7	-2.85	-3.0875	-2.6229	-3.0417	213.701	354.135	160.466	497.477	235.666	383.733	466.571	253.920	441.452	429.719	437.415	456.365	454.585	148.582	293.567	457.232	0.00071402	0.00029194	0.00014666	1294.9	2.9085e-06	3.6294e-06	1315	362.31	5.6845e-06	1.0219e-05	416.18	140.2	119.99	41.328	7.7819e-06	51.682	0.00076135	0.00071233	0.00021012	1330.1	8.3181e-06	7.8158e-06	1341.4	372.74	8.3153e-06	7.745e-06	431.2	144.72	124.29	42.994	8.6467e-06	54.443	291.565	201.498	227.746	153.356	394.464	255.405	153.220	158.201	347.442	269.526	157.624	161.750	162.625	167.214	349.929	165.900	-8191	255	
11052.613	1	1	0	0	0.03718	0.13721	0.11193	0.22648	0.13573	0.10825	0.29725	0.12896	0.10389	0.20723	0.27657	0.22847	0.087351	0.23804	0.2238	0.14571	-2.675	-2.4854	-3.0854	-2.8063	-2.5229	-3.0625	-2.6479	-3.1	-2.8708	-2.5146	-3.1583	-2.8042	-2.6188	-3.2271	-2.5042	-2.925	254.001	271.640	238.930	199.360	365.356	358.627	431.276	485.304	169.217	203.578	428.890	185.689	461.224	473.309	195.125	377.156	0.00079218	0.000983	0.0002096	1294.5	2.2567e-06	4.4809e-06	1317.9	361.47	2.4827e-06	1.1289e-05	416.3	139.22	119.66	41.115	4.4249e-06	51.949	0.00074551	0.00071291	0.00022211	1329.8	8.1364e-06	7.7884e-06	1344.8	372.33	8.0922e-06	7.8875e-06	432.3	144.28	124.02	43.042	8.849e-06	54.322	294.234	194.032	239.742	153.504	207.135	345.048	152.887	157.837	145.880	208.491	157.532	161.901	162.351	167.201	303.992	165.832	-8191	255	
11052.709	1	1	0	0	0.013525	0.20736	0.043147	0.25393	0.09001	0.108	0.05738	0.084808	0.27613	0.218	0.074121	0.15533	0.15931	0.18288	0.12479	0.29483	-2.6625	-2.4583	-3.0833	-2.9458	-2.75	-3.1188	-2.6667	-2.8854	-3.1271	-2.5812	-3.2167	-2.7792	-2.7042	-3.275	-2.5667	-2.8146	277.901	461.390	435.608	438.845	321.273	390.866	448.056	472.852	269.765	226.258	427.754	385.315	195.907	261.696	329.284	409.987	0.00094035	0.00068641	0.00018074	1293.5	1.0847e-06	3.4397e-06	1322.6	363.08	2.7301e-06	1.7234e-07	417.41	139.55	120.33	41.344	3.4288e-06	51.729	0.0007237	0.00074284	0.00022622	1330.2	7.8641e-06	8.1635e-06	1348.4	372.63	7.8393e-06	8.2666e-06	433.08	144.27	124	43.211	8.7745e-06	54.232	302.361	251.769	435.114	153.438	366.286	254.539	152.894	157.998	173.710	378.175	157.353	162.035	162.431	167.185	333.234	166.019	-8191	255	
11052.803	1	1	0	0	0.15429	0.10449	0.063193	0.15437	0.11185	0.12422	0.30784	0.24282	0.23612	0.31438	0.076965	0.26819	0.32966	0.16836	0.086571	0.109	-2.675	-2.3375	-3.1396	-3.0167	-2.5583	-3.1708	-2.7167	-2.8812	-3.1937	-2.6083	-3.1292	-3.1083	-2.6896	-3.2938	-2.6667	-2.8875	439.490	206.803	460.738	445.531	148.721	380.805	417.285	144.406	410.263	477.557	158.386	480.961	488.969	298.075	339.791	481.268	0.00078903	0.00078627	0.00034523	1303.5	5.8757e-06	1.2404e-05	1313.3	362.2	8.4643e-06	6.068e-06	415.3	139.96	119.74	41.347	7.0217e-06	51.451	0.00071171	0.00077731	0.00022309	1329	7.776e-06	8.5736e-06	1343.7	371.91	7.7846e-06	8.7357e-06	431.37	144.13	123.77	43.426	8.5846e-06	54.069	287.958	208.687	246.945	153.283	273.337	251.564	152.988	157.941	342.715	263.651	157.720	161.956	162.298	167.092	374.776	165.882	-8191	255	
11052.900	1	1	0	0	0.12294	0.04662	0.1361	0.31051	0.28581	0.15283	0.22856	0.089245	0.17552	0.041298	0.10159	0.037522	0.0046307	0.13605	0.058944	0.12859	-2.7479	-2.2479	-2.8729	-3.1729	-2.4417	-2.9688	-3.0646	-2.8875	-3.1437	-2.575	-3.0062	-3.2146	-2.4667	-2.9396	-2.8167	-2.5479	314.817	478.172	171.835	178.222	201.007	293.331	434.538	420.967	483.483	452.099	443.186	471.865	275.430	463.233	381.693	398.506	0.00076307	0.00076604	8.5408e-05	1296.6	3.2525e-06	5.2594e-06	1315.4	363.9	5.2251e-06	7.5499e-06	417.08	140.2	120.11	41.163	2.9866e-06	51.611	0.00071979	0.00081092	0.00021894	1327.3	7.9979e-06	8.9186e-06	1342.8	372.21	8.0442e-06	8.9658e-06	431.96	144.04	124.36	43.478	8.5119e-06	53.97	282.441	185.649	246.189	153.276	345.349	355.532	153.228	157.974	257.311	239.316	157.393	162.175	162.204	167.079	324.148	165.747	-8191	255	
11053.020	1	1	0	0	0.22704	0.067159	0.14482	0.089119	0.1665	0.17381	0.33819	0.060746	0.18246	0.19133	0.34534	0.20313	0.18009	0.35964	0.09197	0.10175	-2.75	-2.5542	-2.5979	-3.1958	-2.3875	-3.1792	-2.9417	-2.6229	-3.1667	-2.55	-2.8667	-3.1604	-2.5917	-3.1125	-2.8083	-2.4938	390.886	422.376	398.715	424.648	183.846	241.227	485.898	280.698	189.620	211.232	464.111	178.843	471.048	413.871	358.045	303.502	0.00069941	0.0010247	0.00014372	1298.5	9.2808e-06	4.964e-06	1314.4	360.84	3.452e-06	6.2928e-06	416.64	139.62	120.5	41.385	5e-06	51.92	0.00075978	0.000822	0.00021573	1324.9	8.4665e-06	8.9374e-06	1341.4	371.18	8.4922e-06	8.8683e-06	431.51	143.67	124.74	43.371	8.2851e-06	53.945	284.650	281.637	204.990	153.230	231.162	387.828	153.131	158.040	255.026	289.325	157.408	161.884	162.509	167.168	316.637	165.925	-8191	255	
11053.116	1	1	0	0	0.14236	0.29793	0.25135	0.14326	0.12993	0.15994	0.10013	0.21495	0.15738	0.35547	0.27977	0.27303	0.17416	0.098708	0.1384	0.12108	-2.8708	-2.5312	-2.5312	-3.2042	-2.4083	-2.8854	-3.0792	-2.65	-3.0896	-2.7188	-2.7729	-3.2167	-2.4562	-2.9646	-2.8854	-2.4562	154.797	167.385	243.874	224.653	493.083	258.325	449.899	163.394	338.163	182.847	427.057	407.434	399.896	385.325	373.901	215.154	0.00099982	0.00082069	0.00019977	1297.8	4.8772e-06	5.0589e-06	1312.7	363.6	9.2743e-06	4.6864e-06	417.34	139.86	120.94	41.639	9.5222e-06	52.123	0.00079438	0.0007962	0.0002101	1324.7	8.7614e-06	8.7311e-06	1339.8	371.32	8.8885e-06	8.7307e-06	431.26	143.68	125.24	43.36	8.0649e-06	54.147	284.237	279.918	241.146	153.414	287.999	273.168	153.373	158.160	338.905	285.306	157.400	161.604	162.113	166.773	267.792	165.879	-8191	255	
11053.212	1	1	0	0	0.24187	0.19616	0.23946	0.072919	0.13994	0.071268	0.11574	0.13837	0.24319	0.15958	0.080731	0.20792	0.15906	0.24945	0.33477	0.302	-2.6063	-2.6354	-2.4146	-3.3125	-2.5312	-2.8979	-3.0833	-2.5604	-2.7562	-2.9521	-2.6479	-3.2833	-2.7458	-2.7208	-3.1896	-2.5938	296.923	346.084	335.990	408.197	225.256	386.358	295.463	374.739	356.588	314.125	409.434	448.382	189.299	161.966	395.922	157.455	0.00087028	0.001222	6.0665e-05	1305.7	1.0426e-05	7.7517e-06	1324.3	364.59	3.4698e-06	3.1603e-06	419.58	140.83	120.37	41.524	5.805e-06	51.837	0.00081623	0.00077766	0.00020483	1325.8	8.9364e-06	8.505e-06	1340.7	372.31	8.9409e-06	8.4919e-06	430.2	144.32	124.88	43.237	7.8529e-06	54.149	293.769	295.007	322.134	152.904	248.135	349.109	152.968	157.718	265.261	229.067	157.306	161.751	162.137	166.958	356.372	165.749	-8191	255	
11053.333	1	1	0	0	0.27986	0.19785	0.064776	0.06877	0.14772	0.19102	0.28846	0.10794	0.050087	0.14255	0.10563	0.071202	0.14871	0.06429	0.085487	0.18262	-2.675	-2.75	-2.6104	-3.3542	-2.6542	-2.6875	-3.1333	-2.6188	-2.925	-2.9792	-2.6479	-3.3	-2.8729	-2.7729	-3.15	-2.5521	300.363	298.397	477.957	489.978	409.272	367.731	445.111	403.038	384.548	432.736	492.569	267.212	199.600	147.147	435.687	372.865	0.00085683	0.00045488	0.00013187	1300.1	2.9982e-06	1.1314e-05	1326.5	364.48	6.8846e-06	2.4104e-06	418.65	140.34	120.85	41.485	1.2229e-05	52.319	0.00081319	0.00076722	0.0001978	1328.4	8.8029e-06	8.3279e-06	1340.2	373.46	8.8584e-06	8.2981e-06	429.74	144.84	124.94	43.165	7.8209e-06	54.538	286.348	296.813	225.119	153.092	343.503	338.274	153.098	157.855	319.241	269.555	157.010	162.032	162.416	166.880	265.701	165.577	-8191	255	
11053.405	1	1	0	0	0.41453	0.19824	0.056577	0.18358	0.081408	0.30149	0.21396	0.19486	0.29952	0.15696	0.2155	0.02674	0.13513	0.043542	0.12768	0.16125	-2.3104	-2.8667	-2.4	-3.2458	-2.6937	-2.7375	-3.3833	-2.6604	-2.9646	-2.9042	-2.55	-3.1417	-2.6729	-2.6896	-3.0458	-2.5229	449.565	168.958	463.080	490.447	221.803	256.696	446.375	497.406	237.350	263.028	381.364	311.585	416.848	460.624	158.579	346.379	0.00084589	0.00035343	0.00029734	1302.5	2.9003e-06	7.3298e-06	1319.9	365.74	2.8041e-06	4.2868e-06	419.59	140.18	120.89	41.281	9.2368e-06	51.982	0.00079716	0.00075499	0.00020383	1332.9	8.7488e-06	8.1989e-06	1340.1	373.93	8.6419e-06	8.1204e-06	430.36	145.09	124.62	43.012	8.191e-06	54.591	293.197	361.363	214.968	153.195	181.131	338.051	152.901	157.903	373.631	265.394	157.212	161.667	162.543	166.809	252.545	165.715	-8191	255	
11053.501	1	1	0	0	0.15899	0.091783	0.097258	0.34231	0.15946	0.13946	0.43212	0.14997	0.2114	0.11608	0.40617	0.14332	0.41758	0.18319	0.17439	0.13821	-2.4271	-2.8438	-2.4062	-3.1479	-2.8563	-2.5687	-3.1875	-2.6458	-2.8	-3.1063	-2.6083	-3.0583	-2.8896	-2.775	-3.2396	-2.7667	382.317	391.725	436.364	479.748	161.001	270.655	435.819	488.777	414.518	268.595	474.799	384.193	455.840	176.712	150.634	205.201	0.00082206	0.00093398	9.0863e-05	1304	7.7281e-06	5.8779e-06	1329.3	364.4	5.6447e-06	1.7757e-06	419.95	140.91	120.61	41.31	2.9764e-06	52.179	0.00077385	0.00073211	0.00021185	1333.3	8.4916e-06	7.9375e-06	1345.4	373.57	8.4692e-06	7.9001e-06	431.91	145.02	124.36	42.866	8.599e-06	54.432	287.835	274.924	149.262	153.133	277.794	325.364	152.769	158.002	372.188	379.778	157.024	161.660	162.472	166.932	326.745	165.973	-8191	255	
11053.597	1	1	0	0	0.064342	0.44483	0.2374	0.24964	0.039982	0.12771	0.32782	0.293	0.13652	0.11421	0.11113	0.12968	0.24874	0.26204	0.22762	0.26678	-2.2042	-3.0062	-2.3833	-3.1854	-2.9542	-2.4604	-3.3812	-2.85	-2.6208	-3.0542	-2.4917	-3.1	-3.1188	-2.6521	-3.1271	-2.8021	181.173	382.878	239.392	476.684	204.576	333.069	398.259	432.426	324.708	425.362	454.046	449.763	451.544	313.427	172.421	191.841	0.00086587	0.00088678	0.00024332	1298.8	7.7834e-06	9.2495e-06	1316.2	363.64	2.837e-06	3.6185e-06	418.05	140.24	120.71	41.509	6.8916e-06	51.79	0.00075843	0.000708	0.0002197	1328.4	8.249e-06	7.7816e-06	1341.5	372.64	8.1814e-06	7.8261e-06	432.21	144.25	123.85	42.932	8.8281e-06	54.214	285.749	248.202	182.964	153.280	333.483	353.295	153.025	157.861	266.228	222.646	157.407	161.512	162.209	166.534	206.861	165.648	-8191	255	
11053.716	1	1	0	0	0.065812	0.13796	0.18517	0.36259	0.11878	0.12825	0.24265	0.25502	0.20435	0.24556	0.23987	0.18753	0.18442	0.036623	0.1029	0.24607	-2.2458	-3.1063	-2.3875	-3.0896	-2.8937	-2.4938	-3.2167	-2.7646	-2.4854	-3.0708	-2.6875	-2.8396	-3.0542	-2.4208	-3.0125	-2.8958	478.172	175.743	295.067	399.428	414.406	499.619	185.241	378.937	347.906	411.973	452.293	172.826	292.987	453.116	329.806	431.786	0.00088256	0.0013307	5.9887e-05	1306.3	3.3538e-06	7.2417e-06	1325.8	365.64	1.0253e-05	8.452e-06	417.5	140.67	120.61	41.043	5.6913e-06	51.723	0.00073487	0.00072172	0.00022598	1329.5	7.98e-06	7.9887e-06	1345.7	372.31	7.942e-06	8.155e-06	432.66	144.29	123.67	43.073	8.9261e-06	54.193	284.645	183.627	325.748	152.861	272.050	281.114	152.813	157.783	330.738	223.437	157.194	161.882	162.357	166.826	342.826	165.881	-8191	255	
11053.812	1	1	0	0	0.21355	0.073031	0.11636	0.40612	0.17978	0.15376	0.2216	0.13683	0.21617	0.051259	0.21905	0.21638	0.14157	0.14963	0.21837	0.17634	-2.1542	-3.1083	-2.5146	-2.9813	-3.0438	-2.2833	-3.0917	-3.0104	-2.6396	-3.1667	-2.5021	-2.6813	-3.1208	-2.375	-2.8917	-3.0083	171.996	234.055	293.836	146.414	467.913	184.826	202.747	456.475	178.172	398.891	328.259	423.275	431.284	390.895	254.522	423.304	0.00099469	0.00060078	6.3196e-05	1302	3.5488e-06	5.334e-06	1321.6	362.26	5.5375e-06	2.537e-06	419.72	139.82	120.62	41.257	8.4166e-06	51.681	0.00072395	0.00077956	0.00022699	1330.1	7.8742e-06	8.6354e-06	1348.2	372.42	7.9282e-06	8.7723e-06	433.44	144.16	123.97	43.313	8.8844e-06	54.276	286.605	329.789	336.234	153.125	203.752	286.445	153.068	158.265	326.367	169.913	157.217	161.817	162.649	166.909	262.333	166.015	-8191	255	
11053.908	1	1	0	0	0.14397	0.11924	0.15209	0.050983	0.24923	0.28574	0.15502	0.44442	0.19804	0.18373	0.075587	0.26649	0.27569	0.041649	0.31467	0.21213	-2.0563	-3.0187	-2.625	-2.8958	-3.0417	-2.3958	-3.1312	-3.0438	-2.5062	-3.1854	-2.9042	-2.7625	-3.0625	-2.5854	-2.8479	-3.0083	305.456	394.246	146.305	410.472	477.727	381.861	455.083	450.362	296.803	144.561	179.689	451.878	499.130	334.102	454.030	438.253	0.00073912	0.00059581	0.0001021	1304.7	9.239e-06	5.0298e-06	1323.4	365.14	5.075e-06	6.4998e-06	417.36	140.51	120.49	41.412	6.8525e-06	51.925	0.00073333	0.00082197	0.00022519	1334.3	8.0426e-06	9.1403e-06	1349.2	373.02	8.1606e-06	9.2482e-06	432.84	144.2	124.18	43.583	8.8295e-06	54.18	283.519	266.910	255.717	153.215	225.884	249.658	152.953	157.722	267.008	219.206	157.442	161.970	162.637	166.668	314.696	165.861	-8191	255	
11053.982	1	1	0	0	0.13584	0.093084	0.11599	0.46234	0.17276	0.12494	0.20699	0.38369	0.15858	0.080525	0.13999	0.36381	0.23608	0.27464	0.07921	0.11389	-2.0667	-3.0062	-2.825	-2.7708	-3.0458	-2.6021	-3.0042	-3.15	-2.4396	-3.0333	-2.9688	-2.6562	-3.0896	-2.4562	-2.8417	-3.1875	235.860	237.994	264.240	143.513	285.236	481.679	445.282	448.080	283.897	180.863	476.772	402.524	477.228	452.560	459.285	253.167	0.00072478	0.0005391	9.6399e-05	1310.9	5.2732e-06	2.6189e-06	1320.8	364.9	1.318e-05	4.1473e-06	419.44	139.75	121.18	41.269	4.4336e-06	52.085	0.00076873	0.00085236	0.00022173	1333	8.5649e-06	9.2161e-06	1349.5	373.16	8.6784e-06	9.2728e-06	433.22	143.73	125.03	43.492	8.6285e-06	54.069	281.225	159.023	216.301	152.960	239.912	213.085	153.083	157.897	324.144	211.043	157.203	161.852	162.496	166.745	376.049	165.757	-8191	255	
11054.101	1	1	0	0	0.18134	0.17887	0.20955	0.26993	0.29153	0.11897	0.10717	0.0974	0.13005	0.017428	0.25646	0.21494	0.12364	0.23192	0.19979	0.22379	-2.0229	-3.0542	-2.6958	-2.7875	-3.1813	-2.8167	-2.9125	-3.1354	-2.5563	-3.1729	-3.1	-2.6542	-3.1312	-2.7896	-2.5917	-2.9646	235.574	365.627	212.221	465.617	337.020	164.479	419.522	170.593	349.779	195.072	438.662	144.921	374.787	482.828	298.562	469.984	0.00079596	0.00037881	0.00025189	1312.5	7.6971e-06	7.1668e-06	1328.5	365.41	6.6729e-06	6.7816e-06	416.27	140.17	120.95	41.343	8.4168e-06	51.869	0.00080782	0.00083626	0.0002194	1331.6	9.0154e-06	9.0449e-06	1349.1	372.01	9.1001e-06	8.9862e-06	431.43	144.05	125.2	43.364	8.4137e-06	54.019	288.526	264.162	212.173	152.966	241.813	322.390	152.824	157.972	343.027	394.114	157.491	161.797	162.097	166.607	290.466	165.936	-8191	255	
11054.197	1	1	0	0	0.055371	0.17255	0.3286	0.45083	0.13998	0.11712	0.21988	0.11689	0.16141	0.054474	0.034933	0.13391	0.3046	0.15608	0.25642	0.17365	-1.9188	-2.7958	-2.9229	-2.7083	-2.9688	-2.8688	-2.725	-3.1021	-2.3958	-2.8667	-2.9938	-2.6312	-3.1312	-2.9833	-2.5292	-3.2125	366.715	437.361	229.633	425.661	279.076	202.240	462.635	376.437	301.177	367.810	149.380	372.565	151.804	411.332	371.337	200.277	0.00086513	0.00073882	0.00010115	1307.9	8.0152e-06	6.302e-06	1322.7	365.74	5.3953e-06	6.3253e-06	419.97	139.68	120.55	41.271	8.096e-07	51.922	0.00083505	0.00081201	0.0002104	1332.3	9.2249e-06	8.7671e-06	1346.5	373.19	9.1818e-06	8.7312e-06	431.47	144.05	125.22	43.205	8.0047e-06	54.229	287.584	189.330	269.517	152.994	303.436	277.645	152.857	158.003	329.837	317.484	157.511	161.628	162.370	166.823	245.619	165.718	-8191	255	
11054.293	1	1	0	0	0.15578	0.11307	0.19663	0.11846	0.038322	0.099935	0.089534	0.13596	0.18376	0.26291	0.1877	0.019293	0.14771	0.071433	0.12677	0.15305	-2.1521	-2.65	-3.1125	-2.5687	-2.8625	-2.6958	-2.6792	-3.4208	-2.6604	-2.6729	-3.1479	-2.5333	-2.9958	-2.925	-2.5479	-3.2375	327.102	287.109	266.396	180.826	194.326	367.099	455.029	414.234	172.157	471.841	493.923	444.121	145.446	372.510	485.595	430.184	0.00086005	0.0006523	7.4864e-05	1300.1	7.3629e-06	5.0015e-06	1322.3	365.85	5.5198e-06	6.6633e-06	417.08	139.42	120.24	41.049	4.3561e-06	51.907	0.00082685	0.00077888	0.00020192	1330.9	8.9391e-06	8.4457e-06	1341.2	373.76	8.853e-06	8.3396e-06	429.03	144.24	124.66	42.964	7.8307e-06	54.345	280.507	169.877	255.082	153.172	291.854	358.950	152.956	158.198	364.664	306.964	157.190	161.725	162.521	166.894	376.133	165.602	-8191	255	
11054.413	1	1	0	0	0.048865	0.085848	0.077516	0.1424	0.2878	0.12925	0.15476	0.054818	0.14944	0.12786	0.21012	0.3019	0.15828	0.26326	0.31771	0.15465	-2.2104	-2.6354	-3.0896	-2.7	-2.8812	-2.9042	-2.5917	-3.2062	-2.7812	-2.6188	-3.2271	-2.5458	-2.8	-3.1125	-2.4271	-3.2729	176.578	173.839	345.584	424.410	232.392	350.938	408.339	370.757	292.553	158.998	259.231	465.976	362.066	424.533	245.364	393.295	0.00072989	0.00030996	0.00012542	1299.8	3.238e-06	3.4327e-06	1321.8	363.21	7.0256e-06	2.6712e-06	417.94	139.34	120.27	41.188	6.4659e-06	51.646	0.00079904	0.00075535	0.00019919	1331.8	8.7169e-06	8.1996e-06	1340.7	373.41	8.6245e-06	8.1116e-06	429.66	144.46	124.4	42.893	8.0448e-06	54.336	278.559	147.016	486.490	153.272	168.029	340.874	152.950	157.905	173.265	325.297	157.367	161.494	162.236	166.954	249.754	166.071	-8191	255	
11054.510	1	1	0	0	0.17314	0.0079747	0.056106	0.087677	0.087789	0.1062	0.054355	0.21092	0.12365	0.20224	0.18532	0.43311	0.14388	0.015024	0.31407	0.079517	-2.3542	-2.5875	-3.0667	-2.7562	-2.8563	-2.9458	-2.5604	-3.1146	-2.7438	-2.6604	-3.2896	-2.6083	-2.8688	-3.1125	-2.4771	-3.1312	461.921	260.891	285.285	425.124	375.485	421.091	441.835	210.478	276.459	418.015	166.356	476.382	219.446	426.580	355.660	425.652	0.00075263	0.00072088	0.00017526	1305.8	5.8939e-06	4.2307e-06	1320.4	363.97	9.5155e-06	3.9803e-06	418.85	139.06	120.19	41.138	7.8411e-06	52.225	0.00077912	0.00073161	0.00020739	1334.5	8.4942e-06	7.9506e-06	1342.3	373.83	8.4723e-06	7.9129e-06	431.28	144.46	124.02	42.849	8.417e-06	54.411	291.517	290.616	189.460	153.340	357.817	361.398	152.878	157.821	338.536	262.468	157.378	161.976	162.385	166.782	259.447	165.830	-8191	255	
11054.581	1	1	0	0	0.07273	0.024492	0.18816	0.36565	0.07879	0.10792	0.1809	0.13657	0.21686	0.18128	0.37379	0.26918	0.071734	0.063155	0.054448	0.17231	-2.4958	-2.3271	-3.0563	-2.8417	-2.5958	-2.9583	-2.5958	-3.0208	-2.8812	-2.625	-3.0583	-2.8646	-2.6604	-3.1604	-2.6396	-3.0917	173.838	462.850	313.536	475.137	259.246	482.954	419.141	499.117	404.253	257.464	446.321	171.264	415.145	247.508	211.752	461.661	0.00079527	0.0010053	0.00020392	1314.8	4.1007e-06	9.0079e-06	1328.6	364.59	2.8179e-06	4.1187e-06	421.91	140.59	120.89	41.336	8.2462e-06	52.111	0.00076747	0.00071426	0.00021763	1333.9	8.3288e-06	7.7632e-06	1346.2	373.18	8.2015e-06	7.8343e-06	433.37	144.4	124.17	42.841	8.807e-06	54.326	287.601	225.665	168.015	152.552	236.702	230.366	152.483	157.477	298.477	220.369	156.813	161.150	161.907	166.369	335.529	165.331	-8191	255	
11054.702	1	1	0	0	0.13965	0.14411	0.34468	0.4052	0.20326	0.094922	0.35176	0.15928	0.25599	0.11565	0.094517	0.19256	0.084919	0.19312	0.090805	0.053955	-2.5354	-2.3	-3.0479	-2.8729	-2.5604	-3.0104	-2.6167	-3.1312	-2.9437	-2.4396	-3.0896	-2.8604	-2.6896	-3.1625	-2.5958	-3.0354	411.496	473.235	149.530	450.371	269.571	200.880	411.514	483.790	209.719	335.562	487.242	445.388	455.320	378.152	331.656	177.651	0.0009037	0.0016105	0.00017154	1308.9	1.5531e-06	7.1434e-06	1323.7	365.48	9.4786e-06	7.2948e-06	421.38	140.43	120.95	41.277	4.1481e-06	51.975	0.00074728	0.00072189	0.0002259	1331.9	8.0523e-06	7.9563e-06	1345.5	372.9	7.9936e-06	8.0309e-06	433.98	144.11	123.59	42.971	8.9347e-06	54.134	294.161	203.349	233.578	152.711	264.999	265.371	152.451	157.447	307.978	239.413	156.738	161.273	161.948	166.284	285.657	165.530	-8191	255	
11054.796	1	1	0	0	0.016904	0.042727	0.2027	0.38172	0.18279	0.022082	0.32671	0.066051	0.24225	0.16132	0.058764	0.3899	0.25767	0.050814	0.10455	0.43714	-2.6042	-2.3292	-2.9646	-2.7583	-2.3542	-3.0729	-2.7771	-2.9229	-2.8354	-2.5083	-2.9875	-2.9854	-2.3667	-3.0062	-2.6396	-2.7646	188.820	288.258	369.892	145.696	206.010	254.839	431.253	347.131	257.929	250.036	328.611	433.881	153.260	206.811	456.149	152.465	0.00075114	0.00086229	5.4806e-05	1303.8	3.5675e-06	3.8165e-06	1320.7	364.11	1.1938e-05	6.6881e-06	420.46	140.88	120.95	41.281	6.1657e-06	51.661	0.00071636	0.00075442	0.00022509	1327.2	7.8447e-06	8.3751e-06	1344	372.09	7.7052e-06	8.4105e-06	432.52	143.99	123.5	43.081	8.6506e-06	53.861	294.030	205.308	203.137	152.671	276.284	222.707	152.463	157.302	267.328	253.058	156.977	161.249	161.798	166.692	380.001	165.236	-8191	255	
11054.892	1	1	0	0	0.15822	0.19285	0.1069	0.204	0.23215	0.10214	0.26228	0.18416	0.029321	0.13737	0.1592	0.14202	0.10334	0.24622	0.01949	0.23923	-2.7417	-2.3854	-3.0021	-3.1021	-2.3833	-3.2125	-2.9479	-2.8354	-3.1437	-2.6542	-2.9792	-2.9167	-2.4104	-3.1854	-2.6083	-2.7208	387.693	405.511	323.304	410.128	294.541	471.072	424.573	420.302	147.491	456.165	313.085	402.139	277.240	473.500	451.285	430.378	0.00084615	0.00060019	6.3798e-05	1307.5	5.796e-06	4.0385e-06	1326.3	364.93	5.7426e-06	3.9698e-06	419.49	139.48	120.23	41.514	7.0663e-06	51.724	0.00070239	0.00078264	0.00021898	1326.5	7.7047e-06	8.6655e-06	1342.4	371.76	7.6936e-06	8.7266e-06	431.18	143.24	123.26	43.188	8.3829e-06	53.746	292.578	174.705	321.063	152.784	246.893	437.526	152.566	157.551	384.653	203.848	156.662	161.397	161.896	166.251	291.377	165.238	-8191	255	
11055.013	1	1	0	0	0.22596	0.28149	0.047614	0.20132	0.14376	0.057275	0.22151	0.091044	0.12391	0.11398	0.047275	0.23	0.33495	0.14752	0.039098	0.14051	-2.6937	-2.625	-2.7167	-3.1521	-2.3854	-3.1417	-2.8583	-2.4917	-3.0396	-2.5979	-2.925	-3.1104	-2.4625	-2.875	-2.7708	-2.6813	477.458	169.077	412.460	147.904	270.459	147.921	421.097	395.773	290.029	223.544	301.776	464.593	488.071	436.873	193.580	155.833	0.0010249	0.00038624	0.00018084	1307.2	9.5727e-06	8.869e-06	1324.1	365.21	5.2855e-06	7.1194e-06	420.11	139.95	121.07	41.364	3.3837e-06	51.577	0.00071757	0.00080668	0.00021229	1324.1	7.9801e-06	8.7454e-06	1340.7	371.28	8.0318e-06	8.7424e-06	430.56	143.02	123.75	43.206	8.1598e-06	53.581	285.353	229.233	179.996	153.001	244.003	458.549	152.756	157.597	236.332	234.486	157.265	161.536	162.110	166.785	275.242	165.661	-8191	255	
11055.109	1	1	0	0	0.061052	0.031956	0.091667	0.15761	0.071716	0.13672	0.37995	0.047309	0.098477	0.14659	0.05071	0.16573	0.27426	0.18214	0.21409	0.15792	-2.7188	-2.4833	-2.7354	-3.2021	-2.4042	-2.9396	-2.9729	-2.4938	-3.0542	-2.6875	-2.6292	-3.175	-2.4437	-2.8812	-2.8167	-2.375	408.614	496.207	450.744	168.967	177.137	181.773	397.876	168.907	421.145	402.798	266.373	440.251	417.670	177.152	200.987	474.978	0.00093813	0.00039378	0.00012399	1299	6.3581e-06	2.7435e-06	1318.6	362.87	1.0194e-05	4.8372e-06	416.54	138.35	118.99	40.786	1.2809e-06	51.225	0.00075987	0.00079241	0.00020861	1321.9	8.4339e-06	8.6707e-06	1336.7	369.99	8.394e-06	8.5534e-06	429.1	142.63	123.86	42.961	8.0006e-06	53.452	293.106	229.898	168.522	153.367	294.384	361.693	152.937	157.704	254.312	273.537	157.641	162.056	162.764	167.087	283.161	165.955	-8191	255	
11055.205	1	1	0	0	0.13415	0.035721	0.18944	0.3057	0.14479	0.080156	0.06883	0.13292	0.059025	0.14933	0.25126	0.16885	0.16905	0.037572	0.11974	0.08868	-2.6167	-2.6583	-2.4792	-3.2125	-2.3417	-3.0479	-3.1854	-2.4271	-3.1292	-2.7271	-2.7229	-3.1437	-2.5896	-2.9125	-2.9125	-2.3771	460.709	307.977	144.076	445.690	241.680	302.633	349.887	352.391	220.887	489.888	450.546	371.339	142.188	325.991	445.867	259.326	0.0007049	0.00028254	0.00024885	1296.2	7.2111e-06	4.0144e-06	1311.1	361.39	1.4756e-05	4.0305e-06	415.54	138.48	119.88	41.074	1.1703e-05	51.707	0.00077941	0.00077014	0.0002011	1323.5	8.6453e-06	8.4327e-06	1334.6	370.05	8.7025e-06	8.3649e-06	427.9	142.78	124.23	42.93	7.732e-06	53.67	291.487	306.873	320.838	153.194	254.684	350.457	153.118	158.092	323.585	230.247	157.316	161.860	162.579	167.063	384.690	165.687	-8191	255	
11055.277	1	1	0	0	0.12592	0.086114	0.25469	0.1819	0.016431	0.058955	0.423	0.36727	0.19885	0.1478	0.32545	0.13382	0.062753	0.30449	0.21971	0.028142	-2.5146	-2.6417	-2.4938	-3.1729	-2.4562	-2.8479	-3.2917	-2.5729	-3.1208	-2.7625	-2.7771	-3.1833	-2.5167	-2.6562	-2.9167	-2.4479	226.772	457.922	327.075	447.708	281.401	494.360	444.513	465.133	294.399	337.295	438.171	386.121	153.960	178.314	203.856	351.979	0.00089649	0.00056147	6.674e-05	1288.7	3.1571e-06	2.8295e-06	1306.9	362.34	1.0934e-05	7.8061e-06	413.09	138.79	118.45	40.833	6.6827e-06	51.48	0.00078971	0.00074797	0.00019406	1320.8	8.6184e-06	8.1134e-06	1331.7	370.22	8.5638e-06	8.0507e-06	426.64	143.35	123.62	42.8	7.4995e-06	53.924	295.212	308.981	291.065	153.294	352.318	342.245	153.072	157.961	282.021	264.743	157.226	162.050	162.609	167.206	304.105	165.874	-8191	255	
11055.398	1	1	0	0	0.073624	0.062639	0.25342	0.09964	0.046639	0.12316	0.19086	0.17864	0.15588	0.064909	0.33023	0.30972	0.29161	0.39874	0.063966	0.25688	-2.5375	-2.7146	-2.4688	-3.3083	-2.6937	-2.7125	-3.2062	-2.4854	-3.0604	-3.0062	-2.6937	-3.275	-2.5167	-2.8208	-3.1396	-2.6208	452.769	384.317	170.276	150.223	493.108	275.737	434.328	459.603	272.743	156.203	479.798	491.760	498.274	454.635	394.561	334.603	0.00086063	0.00065416	0.00023058	1290.4	3.8944e-06	3.1565e-06	1306.7	360.28	1.0044e-05	4.3463e-06	415.52	139.29	119.6	40.992	3.4944e-06	51.17	0.00077065	0.00073105	0.00019143	1324.7	8.3864e-06	7.991e-06	1332.3	371.18	8.4472e-06	7.9563e-06	426.75	143.84	123.6	42.752	7.5928e-06	53.896	296.244	196.794	228.041	153.444	340.142	290.447	153.177	157.953	360.243	280.042	157.492	161.844	162.641	166.894	221.483	165.787	-8191	255	
11055.494	1	1	0	0	0.10044	0.16989	0.14486	0.31729	0.20195	0.10085	0.15998	0.25045	0.18171	0.09632	0.12668	0.10355	0.11696	0.025056	0.069599	0.15792	-2.5542	-2.8875	-2.3458	-3.3833	-2.8542	-2.5479	-3.3688	-2.8146	-2.7729	-3.0312	-2.5333	-3.1167	-2.8	-2.625	-3.1271	-2.6562	375.216	413.145	385.727	492.525	253.643	237.370	399.106	476.903	324.454	419.075	171.949	404.741	473.554	352.537	361.565	431.092	0.00083269	0.00085244	0.00017926	1291.1	5.1725e-06	8.238e-06	1311	360.79	1.3433e-05	9.0411e-06	417.2	139.67	119.71	41.095	2.1978e-06	51.508	0.00075323	0.00071227	0.00019415	1326	8.1941e-06	7.6551e-06	1334.2	371.39	8.1863e-06	7.6344e-06	428.78	143.69	123.43	42.642	7.9284e-06	53.897	290.531	250.247	163.687	153.282	250.223	305.408	153.126	157.999	303.802	286.197	157.195	161.651	162.511	166.811	327.597	165.857	-8191	255	
11055.590	1	1	0	0	0.21815	0.012634	0.034385	0.15709	0.055717	0.21376	0.23522	0.19081	0.18419	0.15192	0.2593	0.058318	0.13062	0.37674	0.20488	0.16324	-2.2375	-3.1813	-2.6479	-3.3104	-2.7542	-2.6292	-3.1958	-2.7458	-2.6604	-3.0979	-2.4062	-3.1625	-2.9125	-2.5938	-3.0563	-2.5583	396.044	152.581	288.834	379.894	480.985	486.262	431.245	435.067	288.740	283.174	478.082	288.769	444.069	444.858	374.156	421.246	0.00071244	0.00035237	0.00018668	1298.9	4.4841e-06	7.5873e-06	1317.9	361.59	2.6789e-06	1.5582e-06	418.16	140.52	120.16	41.5	5.4446e-06	51.614	0.00073126	0.0006794	0.00020266	1326.4	7.9067e-06	7.3557e-06	1336.6	370.53	7.9261e-06	7.3886e-06	428.68	143.61	123.22	42.603	8.2167e-06	53.739	279.296	224.017	191.724	153.159	265.853	289.516	152.933	157.921	327.545	144.619	156.849	161.449	162.010	166.257	270.932	165.428	-8191	255	
11055.686	1	1	0	0	0.14516	0.08638	0.41255	0.22178	0.17429	0.13379	0.14641	0.29367	0.075274	0.15114	0.0058089	0.077721	0.19336	0.37188	0.21661	0.20528	-2.3625	-3.2271	-2.2562	-3.0292	-2.9125	-2.5687	-3.2271	-2.6875	-2.5417	-3.0542	-2.6437	-2.9917	-3.2062	-2.45	-3.0875	-2.9437	216.651	164.161	418.667	158.378	290.451	394.159	474.777	437.296	167.033	315.991	229.832	424.928	420.195	396.525	228.996	340.689	0.00072446	0.00069324	0.00021286	1302.6	3.9181e-06	4.3627e-06	1322.2	362.88	2.8953e-06	6.6816e-06	418.65	139.61	120.55	41.085	7.3416e-06	51.894	0.00070976	0.00067209	0.00020868	1323.2	7.682e-06	7.4037e-06	1338.9	370.28	7.6091e-06	7.4712e-06	430.04	142.82	122.69	42.603	8.366e-06	53.635	285.381	239.278	213.065	152.773	262.473	259.360	152.570	157.661	402.480	219.428	157.048	161.423	162.266	166.633	218.262	165.801	-8191	255	
11055.805	1	1	0	0	0.10005	0.13903	0.025019	0.21685	0.29577	0.17154	0.26245	0.35384	0.092688	0.40001	0.26937	0.20221	0.086021	0.10382	0.13301	0.090741	-2.1271	-3.1667	-2.5062	-3.0146	-2.9542	-2.425	-3.1896	-2.9229	-2.5354	-3.1375	-2.5667	-2.8	-3.2771	-2.4667	-3.2188	-2.9333	394.658	285.603	346.255	437.657	175.202	415.920	456.353	414.623	141.127	403.716	495.549	465.261	444.422	377.679	495.061	342.775	0.000766	0.000534	0.00010113	1294.1	3.2226e-06	5.401e-06	1307.3	358.9	1.1044e-05	7.0322e-06	411.35	138.06	119.26	40.767	3.9279e-06	51.115	0.00068796	0.00069772	0.00021259	1320.2	7.4124e-06	7.7252e-06	1333.7	369.05	7.3616e-06	7.8122e-06	427.82	142.56	122.23	42.62	8.2286e-06	53.355	291.428	161.682	173.771	153.081	279.829	273.639	153.223	158.213	303.012	202.640	157.571	161.818	162.452	166.778	329.378	166.369	-8191	255	
11055.877	1	1	0	0	0.08081	0.070612	0.12548	0.21512	0.12	0.18567	0.076251	0.28063	0.15679	0.33011	0.12627	0.11415	0.16152	0.074375	0.1118	0.34842	-2.1125	-3.1229	-2.5896	-2.7396	-3.0021	-2.5229	-3.2083	-3.15	-2.5208	-3.2208	-2.8979	-2.5812	-3.1354	-2.5438	-2.9562	-3.0417	377.351	153.028	165.180	459.166	253.976	421.526	429.803	468.396	174.154	158.514	361.561	437.973	176.537	366.739	486.473	445.670	0.00060991	0.00071368	4.8136e-05	1284.5	6.1391e-07	1.3079e-05	1306.5	360.76	8.838e-06	7.5504e-06	413.77	138.27	118.99	40.843	4.7683e-06	51.303	0.00067253	0.00073328	0.00020872	1317.4	7.2756e-06	8.1928e-06	1332.5	368.96	7.3582e-06	8.2614e-06	428.38	142.41	122.36	42.82	8.1108e-06	53.292	295.261	235.389	485.529	153.306	293.093	257.168	153.002	158.179	313.209	266.873	157.730	161.821	162.611	167.180	367.617	165.888	-8191	255	
11055.975	1	1	0	0	0.37976	0.17978	0.03193	0.28367	0.14707	0.25304	0.19037	0.050424	0.27164	0.22028	0.1827	0.31424	0.28411	0.060503	0.14482	0.22893	-2.0062	-3.0146	-2.55	-2.7125	-3.1208	-2.5896	-3.1146	-3.1	-2.4	-3.1292	-2.8167	-2.5687	-2.9375	-2.4917	-2.7708	-3.0312	481.359	203.797	371.562	467.545	382.043	327.427	349.768	422.482	213.307	173.423	362.244	142.527	420.425	162.394	250.053	184.369	0.00082795	0.00083159	6.0088e-05	1287	7.4128e-06	5.5534e-06	1309.8	360.51	2.2807e-06	2.4427e-06	414.62	138.32	119.4	40.836	6.9633e-06	51.346	0.00068272	0.00076628	0.00020537	1315.4	7.5582e-06	8.4234e-06	1333.2	368.66	7.7023e-06	8.4475e-06	427.75	142.1	122.84	42.887	8.0105e-06	53.171	283.800	191.521	293.595	153.290	206.021	313.704	152.888	157.990	245.444	333.300	157.529	162.116	162.272	166.966	293.101	166.020	-8191	255	
11056.093	1	1	0	0	0.24579	0.13893	0.19091	0.40547	0.1177	0.13707	0.36916	0.13314	0.10555	0.14046	0.074739	0.20524	0.21778	0.3453	0.1787	0.057737	-2.1667	-3.1729	-2.8583	-2.6	-3.0396	-2.6562	-3.0521	-3.4292	-2.3271	-2.975	-2.9437	-2.5625	-3.2812	-2.7146	-2.7188	-3.1167	192.307	476.969	447.091	471.584	437.141	278.075	496.986	478.096	243.447	291.710	310.292	467.349	186.147	448.402	326.767	402.928	0.00083746	0.00021781	0.00024266	1284.1	3.5564e-06	8.8417e-06	1307.2	361.49	5.589e-06	3.1416e-06	416.6	139	119.71	41.051	9.3891e-06	50.969	0.00071755	0.00077125	0.0002024	1313.3	7.9445e-06	8.3688e-06	1332.5	368.48	8.0934e-06	8.3509e-06	427.14	142.18	123.22	42.863	7.8463e-06	53.028	286.799	263.166	265.776	153.295	213.818	334.378	152.940	157.765	280.761	314.907	156.982	161.454	162.309	166.949	311.208	165.854	-8191	255	
11056.190	1	1	0	0	0.20194	0.23776	0.12589	0.15303	0.1173	0.093893	0.32456	0.29042	0.194	0.20412	0.038566	0.19354	0.16495	0.19385	0.19922	0.18873	-2.0771	-2.8063	-2.925	-2.6792	-3.1583	-2.6771	-2.8104	-3.2188	-2.3708	-2.7125	-3.0458	-2.4688	-2.9958	-2.6729	-2.6292	-3.1333	345.420	236.210	377.246	453.073	497.516	368.392	410.888	403.306	358.035	400.602	203.220	163.393	477.879	337.247	348.230	479.751	0.00080932	0.0008435	0.00018455	1282.6	7.0134e-06	5.5535e-06	1305.1	359.86	6.7985e-06	3.8407e-06	415.43	138.34	120.07	40.833	9.1028e-06	50.64	0.00075969	0.00075312	0.00019597	1315.8	8.3187e-06	8.2295e-06	1331.9	368.28	8.4214e-06	8.1826e-06	426.41	142.27	123.7	42.688	7.5971e-06	53.18	291.908	271.637	234.078	153.510	279.580	330.694	153.213	158.033	322.824	316.035	157.606	161.644	162.471	167.109	334.254	165.886	-8191	255	
11056.286	1	1	0	0	0.055887	0.21658	0.28569	0.16457	0.23069	0.3033	0.20219	0.27373	0.31693	0.021478	0.20933	0.15824	0.12206	0.28601	0.10737	0.10171	-2.1021	-2.8917	-2.9542	-2.6208	-3.0208	-2.7583	-2.8542	-3.2917	-2.5542	-2.7375	-3.1646	-2.5354	-3.1146	-2.7125	-2.5438	-3.2271	443.710	306.680	266.796	472.923	350.215	486.511	443.756	384.081	402.854	262.590	458.330	208.536	272.476	240.672	213.096	309.423	0.00071494	0.00030974	0.00017046	1279.1	8.5261e-06	9.753e-06	1296.9	359.28	5.179e-06	6.5258e-06	413.06	137.72	118.02	40.825	9.7667e-06	50.847	0.00077488	0.00073354	0.00019021	1314.8	8.3789e-06	7.9312e-06	1327.1	368.78	8.4245e-06	7.9114e-06	425.16	142.27	123.28	42.638	7.3174e-06	53.351	296.731	290.441	243.622	153.524	285.239	359.097	153.258	158.429	361.562	348.218	157.893	162.092	162.837	167.261	339.875	166.045	-8191	255	
11056.382	1	1	0	0	0.16308	0.17006	0.15863	0.096702	0.046225	0.08079	0.17221	0.026969	0.029187	0.079437	0.12551	0.20012	0.303	0.016043	0.055145	0.093908	-2.2708	-2.6104	-2.9583	-2.6125	-3.0687	-2.8375	-2.6771	-3.1979	-2.5979	-2.7583	-3.1354	-2.5854	-2.9771	-2.7146	-2.5146	-3.175	356.683	396.747	190.831	145.312	448.998	234.804	429.751	181.972	498.628	198.004	426.514	230.827	470.000	153.556	488.077	197.979	0.00079713	0.00053105	0.00010874	1282.9	6.602e-06	5.0121e-06	1302.9	358.44	7.8759e-06	1.7339e-06	410.84	137.18	118.9	40.604	1.1007e-05	50.828	0.00075536	0.00071087	0.00018372	1316.4	8.1445e-06	7.7263e-06	1325.5	369.13	8.0888e-06	7.6544e-06	423.74	142.31	123.07	42.507	7.1934e-06	53.493	296.249	276.465	229.021	153.450	284.418	330.600	153.042	158.283	236.994	278.258	157.997	162.101	162.660	167.291	309.801	166.000	-8191	255	
11056.503	1	1	0	0	0.135	0.34732	0.092199	0.29425	0.11928	0.13732	0.28232	0.15697	0.21997	0.23076	0.25609	0.35192	0.33054	0.050418	0.22206	0.14661	-2.3292	-2.5146	-2.9583	-2.5021	-2.8521	-2.9271	-2.6708	-3.1813	-2.6583	-2.525	-3.15	-2.7083	-2.8604	-3.1792	-2.3271	-3.0583	155.764	241.358	316.840	493.949	481.773	447.275	474.705	394.088	463.656	287.231	450.470	467.904	350.126	329.047	357.952	333.939	0.0006534	0.0012049	0.00015062	1283.6	1.8763e-06	3.76e-06	1294.8	359.61	8.3205e-07	3.2261e-06	414.03	138.49	118.97	40.916	3.1872e-06	51.24	0.00072631	0.00068306	0.00018387	1316.4	7.8942e-06	7.3716e-06	1323.9	369.52	7.9155e-06	7.3787e-06	424.74	142.68	122.67	42.434	7.5269e-06	53.438	281.211	264.112	236.105	153.307	380.371	446.949	153.298	158.215	483.862	258.250	157.404	161.997	162.462	167.252	202.640	165.551	-8191	255	
11056.574	1	1	0	0	0.14958	0.015647	0.043892	0.1186	0.23817	0.079814	0.24818	0.29685	0.12262	0.017753	0.096503	0.20611	0.11272	0.026938	0.22131	0.30316	-2.3021	-2.5292	-3.0917	-2.7208	-2.8521	-2.9104	-2.6167	-3.2	-2.7729	-2.4729	-3.1396	-2.7938	-2.8521	-3.0812	-2.6063	-3.0458	178.528	221.276	441.057	430.095	291.345	456.801	486.469	423.659	151.403	403.623	277.111	473.811	390.660	226.908	274.849	425.590	0.0006526	0.00050028	0.00016376	1291	2.4847e-06	1.0242e-05	1311.3	364.6	5.5883e-06	6.24e-06	418.86	139.15	119.15	41.048	1.1844e-05	50.801	0.00071206	0.00066321	0.00019465	1316.3	7.7245e-06	7.241e-06	1327.9	370.25	7.7099e-06	7.1988e-06	427.27	142.74	122.53	42.268	7.9456e-06	53.36	294.141	282.479	183.914	153.442	399.810	346.976	152.760	157.889	355.671	264.553	156.987	161.480	162.337	167.009	306.152	166.230	-8191	255	
11056.695	1	1	0	0	0.11396	0.069738	0.29043	0.50968	0.22499	0.16549	0.12298	0.24321	0.14039	0.074784	0.21125	0.33967	0.35738	0.19767	0.17811	0.15214	-2.2604	-2.4542	-3.0312	-2.7188	-2.7625	-3.0917	-2.5854	-3.1896	-3.1417	-2.5563	-3.4146	-2.7875	-2.6813	-3.1583	-2.5208	-2.9708	434.665	166.788	321.443	438.462	431.432	470.605	157.721	492.290	492.045	437.874	407.578	371.288	399.770	495.916	269.387	362.490	0.00083789	0.00019159	0.00021036	1284.5	6.9631e-06	2.689e-06	1300.8	360.83	5.1092e-06	5.9677e-06	413.84	138.55	119.07	40.974	6.0961e-06	51.048	0.00069547	0.00065681	0.00020371	1315	7.5539e-06	7.1559e-06	1328.7	368.87	7.517e-06	7.2233e-06	427.3	142.28	122.16	42.367	8.1517e-06	53.254	285.778	234.016	181.671	153.244	277.672	371.906	153.110	158.233	335.035	277.923	157.417	161.577	162.243	166.538	287.319	165.758	-8191	255	
11056.791	1	1	0	0	0.15892	0.033339	0.18369	0.24605	0.27954	0.10282	0.14082	0.17811	0.12379	0.12507	0.25741	0.19247	0.17853	0.16111	0.071099	0.14639	-2.6125	-2.45	-3.0646	-2.9771	-2.4625	-2.9313	-2.7479	-2.9667	-2.9958	-2.4521	-3.1188	-2.8688	-2.7438	-3.2583	-2.4875	-2.6813	237.308	363.657	305.785	494.791	378.611	212.709	415.179	381.014	353.854	465.685	480.606	370.934	415.551	417.931	372.946	141.329	0.00089966	0.00069284	0.00026357	1296.7	1.2095e-06	5.0468e-06	1311.7	362.26	1.0084e-05	8.1372e-06	412.99	138.39	119.02	40.767	3.5757e-06	51.226	0.00067183	0.00067217	0.00020682	1316.1	7.3643e-06	7.4818e-06	1332.1	368.53	7.2939e-06	7.6058e-06	426.9	142.11	122.21	42.496	8.157e-06	53.285	293.167	222.185	268.467	152.995	441.283	226.844	152.764	157.689	342.729	210.501	157.229	162.010	162.370	166.933	385.101	165.952	-8191	255	
11056.885	1	1	0	0	0.022279	0.11253	0.14197	0.19469	0.2528	0.12259	0.34853	0.43262	0.12117	0.18061	0.094174	0.13712	0.069913	0.10672	0.26335	0.18776	-2.7104	-2.3396	-2.9292	-2.9062	-2.5042	-3.0583	-2.8146	-2.7917	-3.0521	-2.5708	-2.9813	-2.9188	-2.4813	-3.1021	-2.6375	-2.6167	210.394	309.318	284.679	488.486	277.359	442.304	419.692	402.416	496.452	216.000	225.360	397.018	279.162	489.622	331.070	418.767	0.00090461	0.00077334	0.00010835	1283.2	9.0129e-06	7.813e-06	1304.2	362.01	6.6488e-06	5.0514e-06	414.69	138.82	119.12	40.906	5.5237e-06	51.538	0.00065965	0.00071807	0.00020721	1311.9	7.2079e-06	7.8572e-06	1329.7	368.28	7.2236e-06	8.0476e-06	426.95	142.06	122.13	42.727	8.0171e-06	53.205	290.453	196.073	321.727	153.470	285.682	249.528	152.996	157.814	293.757	217.949	157.316	161.735	162.379	166.941	327.917	165.514	-8191	255	
11056.982	1	1	0	0	0.13161	0.060236	0.11563	0.18258	0.063784	0.23761	0.066196	0.10858	0.094906	0.26925	0.055873	0.33059	0.15414	0.35389	0.23913	0.11107	-2.6271	-2.3729	-2.9083	-3.1167	-2.4771	-3.2417	-2.7854	-2.6583	-2.9938	-2.5312	-2.8125	-3.125	-2.6542	-3.075	-2.5792	-2.7583	236.927	191.710	254.945	490.330	366.820	242.272	282.079	472.768	263.754	223.103	188.280	464.362	479.727	456.867	463.684	231.892	0.00087729	0.00063504	0.00020529	1289.5	8.7304e-06	4.5715e-06	1302.2	360.71	1.2841e-05	5.0308e-06	412.26	139.11	118.63	40.927	1.0384e-05	51.008	0.00066141	0.0007468	0.00020349	1312.4	7.2626e-06	8.1881e-06	1328.6	368.03	7.3738e-06	8.2831e-06	426.47	141.89	122.13	42.745	7.8768e-06	52.867	285.471	243.179	253.798	153.155	219.377	182.926	153.007	157.953	266.342	233.172	157.548	162.040	162.281	166.738	283.427	165.847	-8191	255	
11057.078	1	1	0	0	0.31718	0.061653	0.17819	0.077662	0.25989	0.051644	0.20286	0.31307	0.14654	0.075891	0.13092	0.033692	0.26363	0.21585	0.10601	0.26079	-2.7625	-2.4188	-2.6333	-3.1063	-2.4708	-3.0458	-2.9625	-2.7146	-3.3896	-2.5104	-2.7458	-3.1521	-2.5187	-3.0563	-2.8688	-2.7104	219.429	206.657	426.589	189.493	239.148	428.187	418.125	149.572	292.858	182.619	318.722	304.889	147.622	158.069	468.802	143.910	0.00086184	0.00058266	0.00013084	1289.9	2.5184e-06	1.0864e-05	1308.8	360.97	6.8797e-06	2.7941e-06	418.34	138.51	118.96	40.726	3.5234e-06	50.745	0.00069018	0.00075423	0.00019765	1310.6	7.635e-06	8.2278e-06	1327.2	367.26	7.7708e-06	8.1229e-06	425.91	141.33	122.55	42.666	7.5432e-06	52.775	290.553	216.711	294.939	153.288	251.686	321.056	152.830	157.930	272.638	277.865	156.914	161.943	162.607	166.871	326.917	166.058	-8191	255	
11057.174	1	1	0	0	0.13164	0.20401	0.14549	0.15113	0.17148	0.23551	0.07282	0.15754	0.22726	0.31599	0.27376	0.25454	0.15086	0.11267	0.054681	0.28918	-2.8604	-2.4896	-2.675	-3.1792	-2.4854	-2.9333	-3.0687	-2.6354	-3.1458	-2.8208	-2.8208	-3.225	-2.5958	-2.9521	-2.8896	-2.6083	223.772	175.476	430.808	344.830	310.374	179.445	426.758	485.516	391.327	431.297	463.821	415.240	418.354	483.346	142.714	303.391	0.00094285	0.0011044	0.00015584	1287.6	4.8234e-06	6.2012e-06	1300.9	359.35	1.195e-05	4.2507e-06	412.81	137.42	118.79	40.761	4.8346e-06	50.886	0.00072368	0.00073204	0.00019314	1309.4	7.9926e-06	7.9873e-06	1325.2	366.5	8.0944e-06	7.9232e-06	424.8	141.25	122.82	42.531	7.4715e-06	52.913	284.947	284.200	213.919	153.371	299.291	330.283	153.084	158.043	255.205	243.555	157.495	161.988	162.463	166.971	353.238	166.046	-8191	255	
11057.270	1	1	0	0	0.26935	0.12369	0.21965	0.29741	0.097291	0.13927	0.23841	0.14025	0.24818	0.18571	0.15959	0.32821	0.090068	0.30879	0.15805	0.13418	-2.6479	-2.6104	-2.6458	-3.1708	-2.4771	-3.0625	-3.1396	-2.4583	-2.9771	-2.625	-2.7167	-3.2313	-2.6854	-2.8667	-3.0417	-2.5625	206.223	143.121	486.778	384.577	148.229	288.045	407.910	384.751	331.814	239.539	172.660	460.856	462.749	468.764	230.105	353.203	0.00080996	0.00036155	3.816e-05	1290.6	4.2645e-06	8.9036e-06	1308	359.58	4.4175e-06	1.9477e-06	411.68	138.85	118.69	40.706	7.8663e-06	51.026	0.0007432	0.00072066	0.00018681	1312.8	8.1645e-06	7.7534e-06	1324.5	367.43	8.1577e-06	7.766e-06	424.52	142.1	122.66	42.54	7.1346e-06	53.153	292.364	260.089	463.658	153.260	334.643	368.481	153.015	157.875	368.908	217.127	157.257	162.102	162.524	167.223	324.927	165.973	-8191	255	
11057.366	1	1	0	0	0.22519	0.052985	0.25765	0.20041	0.19348	0.16726	0.14069	0.10253	0.18441	0.40727	0.06012	0.14525	0.18002	0.28709	0.26189	0.1152	-2.6854	-2.8375	-2.6875	-3.2833	-2.45	-2.6937	-3.2333	-2.5729	-2.9562	-2.7375	-2.6042	-3.2	-2.5167	-2.7729	-3.1354	-2.3417	488.144	376.409	168.517	227.404	493.542	435.795	370.215	462.630	227.825	178.006	436.587	367.918	434.328	486.209	415.632	150.104	0.00089991	0.0004978	0.00020492	1294	6.6995e-06	1.9541e-06	1313.9	363.63	7.9985e-06	4.6939e-06	414.68	138.65	119.12	40.99	7.3922e-06	50.852	0.00074336	0.00070398	0.00018348	1314.5	8.0953e-06	7.6871e-06	1324.8	368.56	8.0979e-06	7.5926e-06	423.58	142.37	122.63	42.508	7.1311e-06	53.217	285.926	250.401	208.590	153.170	245.589	278.260	152.842	157.821	288.284	358.982	157.271	161.638	162.247	166.940	269.965	165.753	-8191	255	
11057.462	1	1	0	0	0.12273	0.23052	0.28831	0.1475	0.14696	0.36712	0.288	0.12937	0.18989	0.14331	0.032563	0.17059	0.064587	0.11515	0.19712	0.2421	-2.4938	-2.8063	-2.4521	-3.2771	-2.6458	-2.7646	-3.3479	-2.5896	-2.8708	-3.0646	-2.6229	-3.3333	-2.7	-2.7042	-3.25	-2.5125	348.858	222.286	448.494	253.727	388.992	377.457	449.210	196.318	254.242	496.248	244.601	426.971	148.843	377.828	302.644	443.252	0.00086028	0.00085784	0.00020519	1276.7	4.663e-06	3.0831e-06	1299.9	356.49	3.0146e-06	1.6654e-06	409.99	137.03	117.82	40.652	5.7395e-06	50.967	0.00072771	0.00067952	0.00018334	1314.5	7.8257e-06	7.4377e-06	1321.5	368.18	7.8523e-06	7.3421e-06	423.07	142.28	122.25	42.289	7.3397e-06	53.355	295.049	229.566	448.375	153.522	323.071	400.592	153.341	158.117	444.150	484.610	157.566	162.139	162.571	167.164	285.862	166.158	-8191	255	
11057.583	1	1	0	0	0.12299	0.31171	0.1151	0.20668	0.065579	0.11403	0.2341	0.01683	0.11808	0.049709	0.12456	0.19119	0.29038	0.12606	0.043729	0.24083	-2.3458	-3.1292	-2.4771	-3.3208	-2.7771	-2.625	-3.3	-2.7729	-2.8563	-3.0146	-2.675	-3.0833	-2.9271	-2.4771	-3.1958	-2.5687	285.790	159.305	315.905	398.315	202.538	194.190	397.072	217.539	444.250	174.108	410.181	478.246	401.180	190.883	350.138	476.670	0.00081535	0.00042584	0.00013073	1279.6	5.0123e-06	4.3121e-06	1297.3	358.45	3.3002e-06	4.5973e-06	410.94	136.5	117.51	40.773	9.7956e-06	50.887	0.00070124	0.00066549	0.00018771	1312.5	7.6839e-06	7.1849e-06	1323.1	368.22	7.674e-06	7.1396e-06	424.83	141.98	122.04	42.225	7.6884e-06	53.247	292.844	205.494	146.521	153.300	361.328	238.354	153.287	158.068	205.747	281.388	157.327	162.262	162.717	166.823	271.360	165.949	-8191	255	
11057.679	1	1	0	0	0.13618	0.025193	0.42828	0.37873	0.18437	0.10648	0.2445	0.09374	0.13733	0.16069	0.11982	0.23741	0.19011	0.075892	0.25991	0.14529	-2.325	-2.8812	-2.3438	-3.1583	-3.0792	-2.6646	-3.1646	-2.6375	-2.5792	-2.9688	-2.4104	-3.1875	-2.9333	-2.5604	-3.0125	-2.7625	226.691	468.473	266.952	486.809	329.492	235.614	415.331	471.531	418.757	337.525	357.011	424.228	468.697	466.833	142.988	493.859	0.00086214	0.00050166	4.5108e-05	1275.4	6.5756e-06	6.1822e-06	1294.4	359.87	3.3087e-06	2.629e-06	412	138.62	118.74	40.621	2.4834e-06	50.897	0.00068988	0.00064136	0.00019773	1311.2	7.4841e-06	7.0314e-06	1324.5	367.97	7.4575e-06	7.0787e-06	425.7	142.08	121.91	42.184	7.9388e-06	53.048	285.679	287.942	202.690	153.473	311.617	263.882	153.192	157.911	327.503	157.327	157.549	161.749	162.398	166.999	313.004	165.929	-8191	255	
11057.775	1	1	0	0	0.084821	0.19457	0.16458	0.29056	0.12369	0.093484	0.26131	0.26473	0.17512	0.19861	0.34873	0.10595	0.083527	0.26097	0.095353	0.25969	-2.2479	-3.0417	-2.4292	-2.9833	-2.9188	-2.3104	-3.2625	-2.8521	-2.5417	-3.1042	-2.5896	-2.8208	-3.1083	-2.4125	-3.0542	-2.8875	284.685	182.840	348.440	491.486	155.187	381.689	385.404	430.644	485.095	416.118	141.901	215.087	353.034	369.762	281.443	449.034	0.00062687	0.00026978	5.498e-05	1285.3	6.5782e-06	4.2203e-06	1300.1	359.48	6.7921e-06	4.2853e-06	412.07	138.19	118.36	40.861	9.0594e-06	50.909	0.00067507	0.00065626	0.00020465	1309.9	7.2587e-06	7.2189e-06	1326	367.37	7.2531e-06	7.3147e-06	425.82	141.97	121.52	42.351	8.0414e-06	53.022	297.977	185.458	152.050	153.081	308.551	333.361	153.008	157.991	290.978	275.256	157.515	161.795	162.411	166.705	303.742	165.837	-8191	255	
11057.871	1	1	0	0	0.26113	0.07802	0.18831	0.38654	0.049075	0.3722	0.14866	0.17255	0.25019	0.19093	0.18906	0.093911	0.15359	0.3086	0.10693	0.27991	-1.9583	-3.0146	-2.4708	-2.7875	-2.9271	-2.3625	-3.1125	-2.8854	-2.4938	-3.1146	-2.475	-2.7729	-2.9604	-2.5917	-2.9979	-3.0729	320.376	336.875	422.610	461.830	355.760	157.293	436.244	199.909	284.322	461.009	405.290	394.992	481.772	140.160	407.516	399.939	0.00091587	0.00063422	0.00012876	1280.1	1.7265e-06	1.1582e-05	1296.1	359.29	4.4549e-06	6.4718e-06	413.16	137.8	118.04	40.748	3.16e-06	51.115	0.00065111	0.0006904	0.00020338	1308.2	7.0907e-06	7.6945e-06	1325.9	366.8	7.053e-06	7.6913e-06	425.93	141.56	121.43	42.527	7.9873e-06	52.963	288.872	226.413	179.129	153.241	396.848	259.906	153.043	158.107	342.063	202.594	157.612	161.661	162.558	166.852	397.650	165.872	-8191	255	
11057.966	1	1	0	0	0.15297	0.17405	0.21319	0.086127	0.17069	0.13592	0.26529	0.17909	0.059825	0.043954	0.067215	0.11298	0.27829	0.13041	0.23424	0.26861	-2.0667	-2.8479	-2.625	-2.725	-3.0708	-2.5542	-3.1146	-3.0292	-2.6021	-3.1937	-2.6917	-2.5812	-2.9417	-2.6458	-2.9021	-3.0917	396.006	224.636	268.171	162.449	179.765	329.257	476.672	472.408	484.750	177.868	415.765	402.765	457.706	483.850	356.491	362.941	0.00073984	0.00085571	0.00012439	1279.4	8.5607e-06	6.8316e-06	1306.3	359.72	1.1285e-05	3.1472e-07	414.93	138.28	118.68	40.642	8.9121e-06	50.703	0.00064885	0.00072434	0.00019946	1307.8	7.1027e-06	7.9599e-06	1324.9	367	7.1249e-06	7.9297e-06	425.18	141.29	121.73	42.542	7.6649e-06	52.802	288.652	162.891	467.421	153.344	281.007	262.722	152.902	157.999	275.154	312.331	157.326	161.682	162.440	167.218	301.540	166.096	-8191	255	
11058.062	1	1	0	0	0.086188	0.13343	0.27452	0.036118	0.16573	0.18205	0.28655	0.27883	0.15654	0.18695	0.19664	0.032949	0.14701	0.089492	0.29276	0.1774	-2.1542	-3.0729	-2.6375	-2.7792	-3.0875	-2.6792	-2.8458	-3.0958	-2.3229	-3.0625	-2.8937	-2.5396	-3.2375	-2.5271	-2.6917	-2.9562	259.124	225.337	141.581	448.955	256.658	247.955	447.853	435.404	444.320	288.793	450.909	223.978	282.603	471.229	204.521	177.280	0.00066515	0.0007626	0.00025012	1272.6	7.3157e-06	5.1199e-06	1290.8	356.45	9.6591e-06	6.2834e-06	410.61	138.18	118.69	40.637	1.3692e-05	50.761	0.00066996	0.00073811	0.00019447	1303.2	7.399e-06	8.1135e-06	1321.8	365.34	7.4722e-06	8.036e-06	423.71	141.07	122.23	42.454	7.5302e-06	52.644	284.022	192.080	223.506	153.372	223.822	212.645	153.228	158.590	265.208	228.193	157.376	161.704	162.310	167.100	317.967	166.297	-8191	255	
11058.183	1	1	0	0	0.12865	0.086713	0.18036	0.21666	0.108	0.31142	0.092023	0.16575	0.29084	0.29857	0.21367	0.34843	0.18676	0.14194	0.21755	0.21733	-1.9125	-2.9354	-2.6479	-2.5604	-3	-2.3688	-2.775	-3.1375	-2.3	-2.875	-2.9604	-2.4625	-3.1333	-2.6792	-2.6479	-3.0687	441.803	441.655	492.956	398.864	205.851	213.125	189.251	471.307	364.297	301.123	481.770	442.866	454.371	437.187	223.722	371.534	0.00090784	0.00074574	0.00027459	1276.2	8.1616e-06	2.5958e-06	1301.8	359.25	1.5033e-05	2.5529e-06	412.61	138.03	118.26	40.494	4.931e-06	50.94	0.00070485	0.00072194	0.00019004	1301.8	7.7344e-06	7.9474e-06	1322.1	365.83	7.8422e-06	7.8936e-06	423.26	141.15	122.31	42.371	7.3322e-06	52.748	284.140	270.815	216.247	153.394	266.510	240.750	153.156	158.020	303.236	342.188	157.069	161.633	162.742	166.945	377.544	166.001	-8191	255	
11058.279	1	1	0	0	0.18408	0.077548	0.12501	0.55526	0.14591	0.098392	0.25933	0.14094	0.16954	0.10346	0.45253	0.33313	0.21189	0.1443	0.17259	0.12154	-2.0187	-2.8771	-3.0042	-2.2542	-3.0604	-2.6167	-2.8667	-3.1625	-2.3792	-2.6458	-3.1354	-2.5604	-2.9542	-2.7042	-2.4417	-3.2021	370.696	404.744	404.815	466.040	438.394	455.358	427.619	423.757	442.899	326.243	440.130	437.923	468.253	422.245	264.408	482.326	0.000879	0.00030444	0.00021085	1278.7	8.9105e-06	9.4874e-06	1291.2	356.94	5.8623e-06	6.7105e-06	412.35	137.96	118.52	40.694	3.84e-06	50.762	0.00073028	0.00070961	0.00018454	1304.7	7.9822e-06	7.6979e-06	1318.4	365.62	8.0367e-06	7.5847e-06	422.74	141.36	122.54	42.324	7.026e-06	52.806	285.749	232.884	246.543	153.381	221.455	368.244	153.186	158.206	292.432	283.763	157.591	161.812	162.673	167.056	271.581	166.250	-8191	255	
11058.375	1	1	0	0	0.066826	0.10112	0.07157	0.22046	0.22057	0.10558	0.28148	0.19004	0.089784	0.097925	0.25995	0.24402	0.25404	0.2348	0.15071	0.24209	-2.25	-2.4854	-3.0021	-2.6479	-2.9646	-2.6979	-2.625	-3.2854	-2.5229	-2.7062	-3.2812	-2.5271	-2.9375	-2.9833	-2.4396	-3.2542	189.153	195.374	241.070	446.084	296.495	456.345	386.049	374.661	188.588	341.873	490.658	448.166	144.998	165.462	430.337	144.919	0.00068109	0.00065035	0.00012704	1274.5	3.784e-06	4.7094e-06	1294.3	357.21	9.676e-06	3.1962e-06	409.44	137.57	117.51	40.496	1.8017e-06	50.639	0.00072475	0.00068601	0.00017808	1305.1	7.9227e-06	7.4958e-06	1317.8	366.59	7.9116e-06	7.4606e-06	421.23	141.45	122.08	42.272	6.9337e-06	53.048	288.835	287.382	279.276	153.295	306.554	468.468	153.265	158.204	296.448	255.040	157.642	162.077	162.830	167.384	215.592	165.997	-8191	255	
11058.471	1	1	0	0	0.09717	0.15232	0.15323	0.36583	0.25987	0.11318	0.32632	0.11521	0.12364	0.049614	0.034639	0.24531	0.055376	0.10248	0.14116	0.18909	-2.1063	-2.5062	-3.15	-2.6917	-2.925	-2.8896	-2.7854	-3.2375	-2.4917	-2.5812	-3.2083	-2.4313	-2.8625	-2.9271	-2.4688	-3.05	358.546	165.252	221.814	458.554	387.001	422.083	446.818	322.975	495.981	247.341	163.346	474.484	259.719	380.783	395.540	144.298	0.00085234	0.00079734	0.0002633	1273.3	5.8715e-06	2.7045e-06	1294.3	356.61	5.6403e-06	3.6726e-06	411.66	137.05	118.16	40.781	8.501e-06	50.848	0.00070981	0.00066729	0.00017429	1305.6	7.6969e-06	7.2525e-06	1316	366.94	7.6322e-06	7.2142e-06	421.66	141.57	122.02	42.218	7.0314e-06	53.099	282.877	293.107	264.378	153.485	267.357	425.636	153.046	158.303	342.999	337.589	157.593	161.914	162.584	166.955	274.696	165.931	-8191	255	
11058.567	1	1	0	0	0.098816	0.15047	0.27408	0.19891	0.12528	0.26066	0.11104	0.47779	0.066599	0.35045	0.101	0.15664	0.48474	0.23577	0.19661	0.24259	-2.2229	-2.5042	-3.0625	-2.6625	-2.9583	-2.8917	-2.7	-3.1896	-2.5771	-2.4667	-3.2917	-2.6792	-2.6792	-2.8771	-2.5375	-3.0875	420.170	309.042	226.941	460.622	433.647	252.582	403.598	455.334	335.546	456.713	413.494	144.606	433.302	478.598	490.566	193.279	0.00075866	0.00018473	8.5392e-05	1276.6	4.9389e-06	6.9955e-06	1307.9	359.84	6.4904e-06	7.4535e-06	412.73	138.12	117.97	40.568	1.1076e-05	50.85	0.00068662	0.00064227	0.0001803	1307.5	7.5061e-06	7.0228e-06	1318.7	367.06	7.4689e-06	7.0084e-06	422.82	141.7	121.78	42.028	7.4267e-06	53.109	291.908	186.827	195.573	153.239	272.860	256.268	152.783	158.057	279.304	271.406	157.607	161.824	162.515	167.039	276.009	165.853	-8191	255	
11058.663	1	1	0	0	0.10447	0.12725	0.29678	0.20297	0.089025	0.23914	0.19818	0.20296	0.11109	0.072751	0.25125	0.16781	0.25234	0.33035	0.12151	0.21849	-2.3354	-2.5333	-3.1688	-2.7792	-2.5812	-3.0667	-2.5083	-2.9729	-2.8646	-2.3896	-3.2833	-2.5958	-2.6063	-3.0833	-2.5125	-3.0792	344.563	371.979	178.520	489.258	449.768	316.711	459.438	490.442	472.298	440.372	456.152	436.949	476.183	452.288	342.831	476.172	0.00084012	0.00080859	0.00018585	1271.9	3.9124e-06	3.7719e-06	1301	358.6	1.0531e-05	6.3045e-06	410.83	137.91	118.21	40.942	3.2922e-06	51.077	0.00067717	0.00063065	0.0001901	1305	7.3482e-06	6.8788e-06	1319.9	366.41	7.3396e-06	6.883e-06	423.09	141.5	121.55	42.141	7.7169e-06	53.025	289.845	260.658	167.120	153.270	352.637	195.225	152.930	158.082	331.955	287.101	157.097	162.179	162.394	167.070	276.790	166.002	-8191	255	
11058.759	1	1	0	0	0.1457	0.16293	0.15759	0.15806	0.070901	0.054326	0.13198	0.12293	0.14549	0.2658	0.24681	0.22168	0.16743	0.31098	0.14493	0.18011	-2.5125	-2.375	-2.9271	-2.7854	-2.775	-3.0042	-2.6521	-3.0021	-3.1	-2.4979	-3.0417	-2.8312	-2.5229	-3.1562	-2.3479	-2.9708	345.062	313.233	304.552	439.543	240.809	338.646	168.880	482.445	339.414	416.662	471.390	447.606	332.780	432.912	141.304	396.331	0.00087372	0.00090617	6.4923e-05	1278	1.151e-06	3.3191e-06	1299.5	357.25	1.0708e-05	2.8028e-06	410.09	138.05	118.42	40.798	4.4476e-06	51.037	0.00066259	0.00063178	0.00019847	1304.7	7.1711e-06	7.0333e-06	1321.5	365.92	7.1323e-06	7.0672e-06	423.93	141.51	121.2	42.158	7.9136e-06	52.983	281.042	230.963	267.351	153.350	288.789	332.145	152.912	157.796	366.252	201.057	157.628	161.833	162.551	166.837	236.665	165.899	-8191	255	
11058.878	1	1	0	0	0.15263	0.29105	0.16349	0.24168	0.22362	0.24536	0.21244	0.23437	0.3158	0.23152	0.28598	0.27722	0.29107	0.19803	0.12612	0.13169	-2.6625	-2.4333	-2.9125	-2.8563	-2.6125	-3.2375	-2.7021	-2.7833	-3.0229	-2.3146	-2.9833	-2.8792	-2.5208	-3.2271	-2.7	-2.9917	258.389	409.641	152.876	463.767	395.259	402.911	398.299	410.972	435.734	224.989	444.486	205.254	476.194	179.006	323.659	229.048	0.00075561	0.00056328	0.00010287	1287.3	6.1132e-06	1.6158e-06	1307.7	361.64	5.231e-06	6.0051e-06	414.81	139.16	119.36	41.032	4.9357e-06	51.535	0.00064568	0.0006664	0.00020154	1304.8	7.0315e-06	7.4475e-06	1323.5	366.92	7.0017e-06	7.599e-06	425.41	141.37	121.46	42.447	7.8172e-06	53.038	291.677	169.263	281.186	153.086	277.664	147.803	152.732	157.677	351.469	165.223	157.017	161.539	162.182	166.766	252.945	165.548	-8191	255	
11058.974	1	1	0	0	0.049918	0.087396	0.032982	0.15516	0.10895	0.11026	0.21577	0.074462	0.11551	0.084395	0.2825	0.024226	0.13895	0.23279	0.24216	0.16848	-2.5479	-2.4625	-2.925	-2.9313	-2.5646	-3.1646	-2.8104	-2.6333	-2.9771	-2.4667	-2.9521	-2.9813	-2.425	-3.1208	-2.6437	-2.6646	412.926	280.003	480.019	150.777	481.663	151.387	469.653	165.729	250.164	223.656	477.033	482.159	439.099	438.146	427.804	479.176	0.00079819	0.00035103	0.00012423	1289.2	5.6472e-06	5.9346e-06	1305.2	361.68	2.5667e-06	7.098e-06	414.47	138.99	119.16	40.949	2.9478e-06	50.972	0.00064475	0.00070582	0.00019777	1304	6.974e-06	7.8337e-06	1321.1	366.22	6.9831e-06	7.8938e-06	424.15	141.15	121.51	42.532	7.665e-06	52.709	283.689	191.704	250.382	153.076	262.325	260.404	152.633	157.550	279.065	211.527	157.185	161.621	162.028	166.778	288.358	165.437	-8191	255	
11059.046	1	1	0	0	0.079763	0.099889	0.24652	0.4539	0.20134	0.18609	0.35957	0.28629	0.031195	0.22901	0.10153	0.16028	0.15371	0.17078	0.26361	0.1081	-2.625	-2.4021	-2.725	-3.0042	-2.5021	-2.8438	-2.7646	-2.7	-2.9938	-2.4708	-2.8854	-2.9938	-2.4729	-2.9708	-2.7667	-2.7	370.034	186.148	236.585	438.815	454.010	470.248	472.666	476.812	383.404	452.975	223.158	377.430	268.504	438.842	475.289	390.413	0.00085368	0.00069972	0.00012182	1289.6	1.9422e-06	8.5233e-06	1305.1	360.48	7.9403e-06	4.9028e-06	414.74	139.04	119.48	41.09	8.1274e-06	51.354	0.00065374	0.00073154	0.00019227	1302.7	7.1851e-06	7.966e-06	1318.3	365.74	7.2608e-06	7.9793e-06	423.45	141.03	121.83	42.565	7.4931e-06	52.748	290.738	252.533	383.463	152.941	227.325	368.958	152.708	157.699	278.706	267.503	157.117	161.707	162.175	166.668	244.033	165.565	-8191	255	
11059.142	1	1	0	0	0.086121	0.16604	0.21726	0.079227	0.19296	0.056537	0.13607	0.14303	0.1041	0.045249	0.22446	0.13962	0.1233	0.1848	0.15332	0.074324	-2.6854	-2.5729	-2.6396	-3.2396	-2.5417	-2.9271	-2.825	-2.6896	-3.1854	-2.4688	-2.7271	-3.1437	-2.4375	-3.0312	-2.8063	-2.5354	331.211	313.936	368.433	305.265	411.802	310.421	466.002	422.930	313.920	486.761	356.514	380.098	450.700	459.571	201.790	327.234	0.00089873	0.00035633	0.00020223	1286.8	4.961e-06	9.6578e-06	1309.2	360.15	4.2479e-06	7.6781e-06	413.08	138.29	119.37	40.893	7.3275e-06	51.457	0.00068745	0.00072141	0.0001908	1301.8	7.5962e-06	7.8767e-06	1318.3	365.28	7.6508e-06	7.843e-06	422.98	140.55	122.14	42.488	7.3083e-06	52.705	282.573	227.876	213.898	153.200	283.283	315.299	152.824	157.586	175.727	281.461	157.137	161.870	162.283	166.871	359.690	165.581	-8191	255	
11059.263	1	1	0	0	0.15058	0.066705	0.15169	0.17743	0.17616	0.13689	0.18089	0.1625	0.075491	0.078276	0.45481	0.074219	0.12264	0.27437	0.22622	0.14749	-2.6	-2.5187	-2.6188	-3.2229	-2.3833	-2.9292	-2.9521	-2.5854	-3.0125	-2.8063	-2.7271	-3.0958	-2.4313	-2.9396	-2.975	-2.6188	207.260	433.493	267.484	459.628	401.236	383.593	441.194	459.984	389.232	293.421	159.948	456.844	224.310	458.490	253.968	439.661	0.00087747	0.0011076	0.00014256	1282.5	5.8917e-06	1.2531e-05	1294.5	358.65	9.415e-06	4.2264e-06	411.18	137.53	118.05	40.334	6.1896e-06	50.447	0.00071332	0.00070303	0.00018533	1302.4	7.8134e-06	7.5981e-06	1315.6	364.96	7.8299e-06	7.5964e-06	421.52	140.7	122.03	42.285	6.9631e-06	52.648	294.209	254.585	232.173	153.355	280.781	374.366	153.082	157.982	309.115	310.716	157.668	162.051	162.710	167.242	308.686	165.968	-8191	255	
11059.359	1	1	0	0	0.083737	0.16578	0.15624	0.20738	0.14504	0.15931	0.38649	0.2476	0.1462	0.069003	0.054932	0.071799	0.12772	0.19247	0.14512	0.25573	-2.6333	-2.7104	-2.6292	-3.2938	-2.5604	-2.6333	-3.2313	-2.6375	-3.0708	-2.7042	-2.6583	-3.0667	-2.5375	-2.8583	-3.05	-2.4542	209.621	492.126	402.867	192.887	360.489	285.295	423.997	468.117	375.157	406.830	272.716	388.135	378.770	373.832	186.161	380.881	0.00081639	0.00048107	3.7069e-05	1273.5	1.0834e-06	4.3718e-06	1292.4	358	1.011e-05	5.3371e-06	411.54	137.48	118.24	40.645	2.8524e-06	50.877	0.00071421	0.00067805	0.00017655	1299.3	7.7959e-06	7.3874e-06	1311	365.34	7.719e-06	7.285e-06	419.97	140.9	121.76	42.19	6.701e-06	52.827	285.103	269.240	400.202	153.397	449.224	300.358	152.943	158.026	288.382	263.655	157.209	161.795	162.436	166.849	392.087	165.685	-8191	255	
11059.455	1	1	0	0	0.20153	0.11999	0.11562	0.20787	0.085598	0.19061	0.25737	0.14655	0.012794	0.22796	0.351	0.041323	0.091468	0.13112	0.23944	0.15447	-2.55	-2.9313	-2.4958	-3.2062	-2.4604	-2.7375	-3.3167	-2.4813	-2.9479	-2.95	-2.3417	-3.1979	-2.8354	-2.4813	-3.1312	-2.5917	326.999	200.316	318.611	450.646	454.091	491.709	423.977	431.522	175.744	211.102	449.358	398.106	195.160	212.297	327.259	379.625	0.00095355	0.00044894	8.8664e-05	1272.8	7.3391e-06	6.5332e-06	1286.4	356.67	1.1775e-05	3.2529e-06	406.97	137.21	117.61	40.353	1.0385e-06	50.645	0.00069034	0.00065054	0.00017064	1299.2	7.5087e-06	7.0855e-06	1307.9	365.11	7.4173e-06	7.0086e-06	418.65	141.19	121.2	41.99	6.7223e-06	52.852	282.783	253.450	149.891	153.423	270.454	313.144	153.186	158.006	303.141	343.964	157.675	162.006	162.634	167.092	197.973	166.193	-8191	255	
11059.576	1	1	0	0	0.043167	0.023107	0.15664	0.17595	0.29955	0.15946	0.1803	0.3718	0.25256	0.23021	0.25349	0.21339	0.18663	0.22676	0.063445	0.23597	-2.4938	-2.8438	-2.3604	-3.1958	-2.6875	-2.5979	-3.2958	-2.5271	-2.8354	-3.0875	-2.6167	-3.1771	-2.8	-2.3708	-3.1479	-2.5833	178.380	175.934	141.053	429.957	481.310	361.348	447.943	391.461	249.374	349.794	495.114	493.762	464.557	415.802	368.157	494.091	0.00088474	0.00048757	0.00021726	1268.5	5.0147e-06	7.9152e-06	1283.5	355.1	6.0033e-06	5.0722e-06	408.91	137.07	118.39	40.728	8.0055e-06	50.376	0.00067531	0.00063168	0.00017313	1298.9	7.2801e-06	6.8854e-06	1308	364.79	7.2769e-06	6.8256e-06	419.97	141.18	121.28	42.002	7.1482e-06	52.868	295.983	250.625	169.633	153.308	241.651	339.315	153.279	158.231	326.433	305.672	157.343	161.925	162.572	167.163	261.926	165.998	-8191	255	
11059.670	1	1	0	0	0.088277	0.072218	0.084939	0.19221	0.25429	0.19288	0.092997	0.21347	0.27618	0.037721	0.42428	0.25028	0.28246	0.11531	0.4015	0.068958	-2.4958	-3.0396	-2.3771	-3.1042	-2.9167	-2.5938	-3.2896	-2.7	-2.7229	-2.9938	-2.5479	-3.0479	-2.7625	-2.6479	-3.0479	-2.7583	339.630	385.103	216.544	375.970	235.287	498.857	490.324	463.727	356.859	338.110	462.108	399.998	459.174	173.848	386.258	336.366	0.00060896	0.00051424	5.0009e-05	1266.3	7.0262e-06	3.0673e-06	1287.9	355.67	1.8035e-06	4.3193e-06	408.45	137.03	116.99	40.382	7.869e-06	50.669	0.00066071	0.00061688	0.00018304	1298.5	7.2405e-06	6.7662e-06	1310.9	364.79	7.2217e-06	6.7131e-06	420.98	140.94	120.76	41.893	7.5065e-06	52.831	292.749	289.296	153.953	153.599	286.089	240.817	153.223	158.047	369.590	284.147	157.444	162.129	162.537	167.385	275.711	165.982	-8191	255	
11059.744	1	1	0	0	0.36254	0.3664	0.21458	0.27303	0.12368	0.16661	0.42561	0.17917	0.054976	0.23522	0.22172	0.081204	0.25108	0.24587	0.17207	0.25393	-2.2292	-2.9896	-2.325	-3.0187	-2.9479	-2.3292	-3.1167	-2.8375	-2.5312	-3.0292	-2.7625	-2.8417	-3.0292	-2.3229	-3.0146	-2.7292	463.151	244.450	496.897	368.732	198.532	477.746	460.987	389.503	188.341	367.864	407.191	406.299	416.390	417.273	397.083	400.688	0.0007421	0.00055532	0.00013414	1263.7	6.3372e-06	4.213e-06	1285.5	355.42	9.449e-06	2.7941e-06	408.58	136.76	116.83	40.386	5.4399e-06	50.771	0.00065989	0.00061823	0.00019366	1299.2	7.0633e-06	6.8489e-06	1312.7	364.73	7.0531e-06	6.8413e-06	422.42	140.98	120.82	41.985	7.688e-06	52.652	297.974	226.719	264.262	153.726	294.447	319.621	153.173	158.277	372.252	301.395	157.530	161.992	162.575	167.317	294.683	166.049	-8191	255	
11059.863	1	1	0	0	0.30428	0.19036	0.090963	0.21197	0.34039	0.2212	0.40194	0.18336	0.056806	0.045867	0.095941	0.072079	0.28124	0.15777	0.20387	0.2771	-1.9792	-3.0563	-2.3708	-2.8417	-2.9542	-2.4854	-3.1042	-2.8208	-2.5333	-3.0438	-2.5563	-2.8583	-3.0875	-2.475	-2.9146	-2.8854	207.914	280.780	191.559	452.207	425.302	152.934	451.947	148.699	466.948	166.503	435.724	396.581	412.973	473.531	296.831	170.050	0.00076133	0.00045078	3.8864e-05	1268.7	5.9673e-06	9.2396e-06	1283.8	355.74	8.4539e-06	5.8624e-06	408.62	136.93	118.68	40.627	7.8455e-06	50.861	0.00063337	0.00064101	0.00019687	1298.2	6.875e-06	7.1113e-06	1314.1	364.36	6.8463e-06	7.1926e-06	421.82	140.82	120.64	42.15	7.6528e-06	52.668	293.031	216.622	222.965	153.550	322.053	292.749	153.392	158.368	378.713	261.181	157.726	161.762	162.331	166.972	317.216	166.209	-8191	255	
11059.959	1	1	0	0	0.20017	0.22816	0.14949	0.30961	0.09641	0.072419	0.42547	0.21492	0.14038	0.19398	0.17986	0.23557	0.3243	0.20635	0.083372	0.14568	-1.9896	-3.1208	-2.4938	-2.8604	-3.1479	-2.525	-3.2417	-3.1458	-2.65	-3.1167	-2.7708	-2.6875	-3.1375	-2.4833	-2.8792	-3.0375	219.484	305.761	296.329	480.293	421.474	465.430	354.473	383.193	435.634	288.425	495.468	415.724	375.865	420.433	386.933	485.362	0.00073194	0.00068629	0.00032157	1272.9	3.1728e-06	5.5698e-06	1291.9	355.92	4.1119e-06	7.9985e-06	408.52	136.87	117.21	40.33	8.0111e-06	50.157	0.00062443	0.00068418	0.00019601	1298.7	6.8469e-06	7.539e-06	1315.3	364.54	6.8404e-06	7.6329e-06	421.27	140.57	120.65	42.268	7.5802e-06	52.564	290.293	208.118	171.391	153.278	314.877	261.681	153.172	158.261	300.784	237.152	157.693	162.001	162.856	166.942	369.941	165.999	-8191	255	
11060.055	1	1	0	0	0.22067	0.04594	0.067623	0.30897	0.22076	0.29731	0.29014	0.18933	0.12904	0.10494	0.1656	0.045783	0.14508	0.22917	0.10264	0.30214	-1.9813	-2.9146	-2.6688	-2.4917	-3.1042	-2.5208	-3.0687	-3.1354	-2.4479	-3.1688	-2.9917	-2.7229	-3.0771	-2.7208	-2.6708	-2.9896	377.787	186.086	314.550	491.572	483.910	470.480	372.838	466.929	454.807	329.682	178.012	422.903	498.348	477.092	428.686	451.748	0.00078857	0.0011182	0.00015552	1271.3	2.4164e-06	6.4998e-06	1290.7	356.46	7.2491e-06	2.312e-06	409.88	136.87	117.96	40.6	5.6544e-06	50.72	0.00063284	0.00071048	0.00019086	1298.4	6.9526e-06	7.8578e-06	1316.2	363.96	7.0783e-06	7.8714e-06	421.82	140.43	121.28	42.334	7.3604e-06	52.574	292.246	160.461	276.712	153.331	238.588	251.860	153.037	158.091	292.734	463.700	157.566	162.043	162.535	166.965	339.684	166.190	-8191	255	
11060.175	1	1	0	0	0.16916	0.093104	0.053279	0.32438	0.14978	0.06255	0.23949	0.28688	0.087428	0.20221	0.25991	0.26889	0.0090652	0.071856	0.17082	0.20673	-1.8771	-3.0438	-2.9646	-2.65	-3.2104	-2.5479	-2.8417	-3.1125	-2.4417	-2.9437	-2.7583	-2.6146	-3.1604	-2.7396	-2.7354	-3.0438	403.440	455.710	239.150	455.298	156.887	202.337	310.123	486.861	313.663	228.226	455.349	166.503	319.484	259.498	296.830	353.983	0.0009846	0.00032892	9.9353e-05	1277.8	7.7316e-06	5.5554e-06	1293.4	358.57	1.0593e-05	1.1368e-06	412.02	138.36	118.59	40.822	8.5177e-06	51.044	0.00066722	0.00070859	0.00018786	1297.8	7.3715e-06	7.7517e-06	1313.7	364.25	7.4175e-06	7.7077e-06	421.29	140.37	121.73	42.379	7.1275e-06	52.479	290.990	169.236	280.359	153.309	261.235	332.110	153.133	157.975	322.321	326.964	157.248	161.713	162.194	166.738	339.295	165.734	-8191	255	
11060.272	1	1	0	0	0.13521	0.044569	0.10013	0.31856	0.13426	0.24563	0.1669	0.13624	0.14387	0.1127	0.15042	0.48158	0.26675	0.12163	0.23244	0.092928	-1.8208	-3.0417	-2.8208	-2.7479	-3.1208	-2.6813	-2.7396	-3.1083	-2.6083	-2.9313	-2.9792	-2.7125	-3.1042	-2.7812	-2.7896	-3.1271	405.539	212.306	489.892	164.951	349.652	207.866	365.774	457.969	361.505	154.222	484.590	480.914	424.690	169.650	201.934	444.557	0.00079196	0.00063883	0.00018511	1285.2	8.1958e-06	5.9105e-06	1303.7	360.82	5.0514e-06	6.0047e-06	414.26	139.14	119.45	40.919	8.2266e-06	51.29	0.00069021	0.00069188	0.00018125	1297.6	7.5739e-06	7.5637e-06	1314.8	365.11	7.6641e-06	7.4531e-06	420.98	140.62	122.25	42.259	6.975e-06	52.609	287.306	258.401	226.692	153.066	223.651	343.835	152.694	157.777	294.001	289.396	157.108	161.444	162.325	167.031	322.926	165.877	-8191	255	
11060.343	1	1	0	0	0.19738	0.20982	0.039823	0.28188	0.13059	0.038729	0.13601	0.13676	0.1928	0.12141	0.097109	0.24371	0.048045	0.28898	0.13908	0.088283	-2.1958	-2.7438	-2.9042	-2.8312	-2.9313	-2.7313	-2.6	-3.2396	-2.3854	-2.7292	-2.9917	-2.4042	-3.0792	-3.0042	-2.5	-3.1625	250.016	342.624	390.614	396.039	272.756	404.902	391.196	412.273	463.904	381.052	489.993	199.539	228.406	162.426	475.582	454.067	0.00088187	0.00047258	6.1669e-05	1289.9	2.0175e-06	8.1646e-06	1305.1	360.54	8.086e-06	3.3654e-06	411.74	138.79	119.33	40.864	7.259e-06	51.047	0.00070741	0.00067489	0.00017611	1300.6	7.7068e-06	7.3124e-06	1314.6	365.09	7.7595e-06	7.3408e-06	419.38	141.09	122.06	42.173	6.7744e-06	52.754	286.666	283.155	193.664	152.790	208.308	253.883	152.835	157.642	324.909	320.726	157.379	161.474	162.053	166.762	287.395	165.708	-8191	255	
11060.439	1	1	0	0	0.098422	0.24642	0.064783	0.14648	0.10298	0.12956	0.2472	0.090051	0.29059	0.227	0.11768	0.16508	0.041833	0.071949	0.14989	0.17382	-2.1021	-2.6437	-2.9813	-2.4917	-2.9875	-2.8438	-2.6271	-3.2188	-2.6104	-2.5229	-3.0833	-2.6958	-2.9875	-2.7896	-2.3812	-3.1875	289.092	402.778	305.799	469.782	475.006	151.616	371.787	448.663	218.638	310.227	215.733	431.540	261.907	274.434	485.234	333.464	0.00077289	0.00059025	0.00018883	1287.3	7.8264e-06	2.1794e-06	1308.1	361.41	5.4512e-06	1.7771e-06	414.29	138.82	119.32	40.883	1.0858e-05	51.33	0.00070366	0.00066221	0.00017125	1301.8	7.5831e-06	7.218e-06	1313.6	366.44	7.5595e-06	7.1353e-06	419.77	141.16	121.81	42.153	6.7407e-06	52.945	288.300	323.891	234.363	152.830	254.738	319.944	152.497	157.581	317.126	303.866	157.230	161.455	162.047	166.621	307.124	165.418	-8191	255	
11060.560	1	1	0	0	0.27131	0.29715	0.29059	0.19178	0.11076	0.23254	0.347	0.41096	0.015918	0.02611	0.34388	0.033791	0.10475	0.08234	0.044163	0.18858	-2.3167	-2.7	-2.9562	-2.475	-2.7062	-3.0167	-2.525	-3.2354	-2.6854	-2.4896	-2.9833	-2.65	-2.7625	-3.1312	-2.3875	-2.9979	462.997	293.682	458.435	464.983	151.056	237.041	444.715	496.237	449.805	319.218	452.995	451.426	382.831	366.150	413.062	493.057	0.00072347	0.00073236	7.7862e-05	1282.8	4.7895e-06	9.505e-06	1305.7	359.56	1.1465e-05	8.8838e-06	412.24	138.99	118.83	41.014	8.9856e-06	51.234	0.00068116	0.000639	0.00017283	1302.6	7.4391e-06	7.0429e-06	1313.1	365.89	7.4028e-06	6.8852e-06	420.2	141.71	121.51	41.995	7.0732e-06	52.944	295.116	248.755	484.301	152.901	298.320	289.915	152.697	157.708	329.748	254.349	157.277	161.543	162.270	166.967	270.858	165.938	-8191	255	
11060.656	1	1	0	0	0.14047	0.15038	0.178	0.33609	0.083811	0.043824	0.17122	0.029133	0.17462	0.35816	0.32229	0.32476	0.26101	0.27346	0.018158	0.12596	-2.4062	-2.5542	-3.0417	-2.7417	-2.7729	-2.975	-2.5938	-2.8604	-2.6396	-2.3812	-3.1688	-2.3521	-2.675	-3.0354	-2.5021	-2.9417	243.263	448.941	269.683	414.872	275.234	492.630	414.346	466.773	273.046	170.941	154.973	178.378	140.017	453.319	148.527	379.052	0.00069718	0.00031941	0.00022755	1283.7	9.8166e-06	5.6881e-06	1303	358.51	1.0488e-05	4.2704e-07	411.55	138.48	118.25	40.836	6.7424e-06	51.135	0.00066543	0.00062314	0.0001802	1301.9	7.2376e-06	6.7155e-06	1312.4	365.63	7.2321e-06	6.7398e-06	421.54	141.27	121.16	41.967	7.4634e-06	52.893	287.488	235.917	190.749	153.005	267.082	381.410	152.908	157.890	353.823	251.752	157.339	161.931	162.324	166.843	147.194	165.723	-8191	255	
11060.751	1	1	0	0	0.26295	0.26168	0.26211	0.1137	0.26454	0.23711	0.36807	0.16635	0.14656	0.13222	0.10561	0.2207	0.20824	0.21778	0.18063	0.19591	-2.45	-2.3333	-3.0438	-2.9667	-2.6437	-2.8479	-2.5771	-3.1667	-2.6813	-2.4521	-3.275	-2.6312	-2.5271	-3.1188	-2.3812	-2.9896	352.200	406.507	199.849	464.447	302.490	399.020	405.334	147.966	458.679	327.840	338.102	460.211	466.145	496.448	151.627	162.100	0.00073407	0.00067398	8.2497e-05	1265.8	7.9469e-06	5.6905e-06	1291.9	357.51	7.2482e-06	7.1262e-06	409.75	137.15	117.72	40.463	6.7021e-06	50.925	0.0006618	0.00061693	0.00019103	1296.6	7.1625e-06	6.7612e-06	1316.1	365.91	7.1019e-06	6.8954e-06	422.94	141.29	121.01	41.961	7.811e-06	52.865	299.281	209.152	204.424	153.382	209.628	273.645	153.251	158.192	440.853	248.108	157.497	162.033	162.467	167.290	248.473	166.011	-8191	255	
11060.847	1	1	0	0	0.29712	0.27839	0.11903	0.063227	0.050747	0.13264	0.29112	0.14249	0.14928	0.061362	0.38225	0.21323	0.469	0.14901	0.25728	0.054829	-2.5896	-2.3833	-3.0896	-2.7167	-2.4958	-3.0208	-2.6646	-2.9938	-3.025	-2.4708	-3.2104	-2.8292	-2.6167	-3.1083	-2.4458	-2.8729	484.308	451.980	314.069	197.313	316.990	223.820	181.924	427.781	473.209	178.072	395.788	437.447	152.854	154.290	400.165	265.349	0.00077895	0.00057293	0.00015243	1275.7	6.1766e-06	7.9291e-06	1293.1	357.85	5.3856e-06	6.3128e-06	410.67	136.81	118.32	40.682	6.1903e-06	50.857	0.00064582	0.00064406	0.00019768	1299.8	6.9522e-06	7.0875e-06	1316	364.98	6.9395e-06	7.2037e-06	423.48	140.85	120.79	42.198	7.7162e-06	52.88	288.413	193.748	158.663	153.073	332.327	272.757	153.047	158.057	375.506	238.087	157.516	162.136	162.473	167.185	336.412	165.993	-8191	255	
11060.943	1	1	0	0	0.17131	0.31149	0.14508	0.21936	0.065864	0.14497	0.23756	0.049371	0.22362	0.29468	0.16818	0.24554	0.21943	0.011392	0.087757	0.13878	-2.6979	-2.2125	-3.0062	-2.9938	-2.5917	-3.1312	-2.8021	-2.8542	-2.9667	-2.3187	-3.0208	-2.8167	-2.5708	-3.225	-2.6333	-2.6792	257.169	165.630	409.521	474.073	196.199	224.118	402.729	451.313	364.623	277.278	497.005	386.118	484.582	265.763	247.310	431.534	0.00079144	0.00091824	0.00023659	1277	5.834e-06	5.5984e-06	1297.8	358.3	4.3564e-06	4.417e-06	408.16	136.91	117.01	40.309	4.84e-06	50.526	0.00062879	0.00067192	0.00019574	1299.1	6.8284e-06	7.4241e-06	1317	365.39	6.7357e-06	7.4786e-06	421.88	140.75	120.6	42.167	7.4974e-06	52.578	288.968	174.713	195.185	153.247	317.391	249.082	152.922	157.976	277.318	241.433	157.734	162.292	162.642	167.488	303.856	165.907	-8191	255	
11061.039	1	1	0	0	0.19462	0.16001	0.022116	0.23426	0.066997	0.043087	0.2086	0.13573	0.17668	0.078813	0.11363	0.42866	0.16365	0.21293	0.19962	0.04872	-2.6292	-2.3521	-3.0708	-3.1208	-2.5417	-3.1875	-2.8563	-2.6896	-3.025	-2.6188	-2.9583	-3.0646	-2.5958	-3.2021	-2.8042	-2.7625	289.646	270.234	329.129	457.603	224.675	353.056	474.538	490.056	336.763	395.592	302.491	438.365	449.368	486.872	293.814	306.017	0.00082783	0.00072733	9.3609e-05	1269.3	6.1514e-06	2.2996e-06	1288.5	357.21	8.7043e-06	4.8777e-06	408.14	136.3	117.16	40.091	3.5839e-06	50.448	0.00061493	0.00069481	0.00018807	1294.4	6.7847e-06	7.5922e-06	1311.1	363.89	6.7679e-06	7.526e-06	420.7	140.09	120.56	42.105	7.1096e-06	52.325	283.363	232.692	351.021	153.470	286.201	425.832	153.223	158.212	338.884	305.176	157.732	162.381	162.807	167.108	246.453	165.942	-8191	255	
11061.135	1	1	0	0	0.30087	0.25976	0.23254	0.17588	0.20689	0.016288	0.25562	0.197	0.071329	0.011517	0.049316	0.12811	0.28903	0.082796	0.16816	0.36412	-2.7562	-2.4688	-2.9792	-3.1833	-2.2708	-3.0771	-3.0375	-2.7125	-3.3187	-2.5083	-2.95	-3.0938	-2.5938	-3.1417	-2.8042	-2.4729	439.399	280.024	397.062	485.828	370.036	423.939	493.235	494.650	143.450	460.678	180.153	142.513	418.253	303.522	420.177	371.835	0.00084787	0.00010001	0.00017882	1259.7	4.8708e-06	5.1212e-06	1291.4	355.85	1.0404e-05	1.175e-06	407.75	137.1	118.25	40.331	3.6562e-06	50.661	0.00062602	0.00068127	0.00017942	1289.7	6.9066e-06	7.4076e-06	1308.5	362.99	6.9966e-06	7.4036e-06	419.37	140.03	121.2	42.14	6.9779e-06	52.278	289.676	319.490	236.574	153.662	279.535	203.403	153.229	158.201	303.982	391.279	157.389	161.997	162.419	167.163	214.434	165.866	-8191	255	
11061.256	1	1	0	0	0.13544	0.096729	0.031535	0.27532	0.29319	0.1494	0.33916	0.34537	0.13816	0.20823	0.022906	0.2229	0.061263	0.16667	0.11905	0.22255	-2.6875	-2.6792	-2.6437	-3.2042	-2.5062	-2.9062	-2.9813	-2.5812	-3.0875	-2.6917	-3.0354	-3.1917	-2.6583	-3.0625	-2.9	-2.5854	434.525	431.900	483.361	452.053	459.203	445.967	415.913	420.023	413.395	369.195	231.913	457.801	333.340	460.716	499.442	418.285	0.00076967	0.00025084	7.3414e-05	1258.6	7.3997e-06	6.1689e-06	1278.6	354.9	9.0383e-06	5.512e-06	407.07	136.32	117.93	40.215	7.7857e-06	50.64	0.00066216	0.00067724	0.00017835	1288.2	7.3817e-06	7.3854e-06	1306.9	362.95	7.4963e-06	7.4172e-06	419.26	139.94	121.71	42.153	6.9249e-06	52.414	282.673	453.122	272.628	153.434	215.802	328.215	153.503	158.050	328.228	256.956	157.566	162.151	162.776	167.117	315.484	165.801	-8191	255	
11061.350	1	1	0	0	0.12201	0.14275	0.15204	0.33432	0.035624	0.12035	0.1572	0.45683	0.18906	0.22891	0.10692	0.19023	0.21752	0.082551	0.15404	0.14895	-2.7313	-2.6917	-2.7708	-3.3458	-2.4646	-2.8521	-3.0792	-2.5187	-3.0625	-2.6958	-2.65	-3.1875	-2.5833	-2.8604	-3.1021	-2.525	439.028	201.667	279.126	481.060	372.367	221.610	428.081	430.095	193.190	326.230	281.594	489.387	431.567	298.202	418.660	161.838	0.00087693	0.00030051	3.8974e-05	1262.7	1.0754e-06	6.7771e-06	1286.3	354.72	7.8467e-06	4.8525e-06	407.89	137.54	117.84	40.35	2.4448e-06	50.613	0.00069256	0.00067288	0.00017398	1292.1	7.6508e-06	7.2846e-06	1308.5	363.65	7.5981e-06	7.272e-06	419.09	140.61	121.61	42.093	6.7467e-06	52.574	285.288	308.416	326.510	153.483	286.260	324.911	153.470	158.147	324.128	279.224	157.366	162.235	162.528	167.142	347.782	166.067	-8191	255	
11061.446	1	1	0	0	0.292	0.18347	0.1217	0.19984	0.14039	0.069047	0.35561	0.060456	0.13693	0.15714	0.28792	0.17546	0.13388	0.10222	0.22539	0.13088	-2.5729	-2.5521	-2.6271	-3.1792	-2.5667	-2.6583	-3.1625	-2.7021	-2.7687	-2.85	-2.5312	-3.1875	-2.6063	-2.8125	-3.0479	-2.2979	455.700	368.228	400.629	144.507	262.754	498.869	403.512	435.367	366.750	224.725	460.776	452.348	498.677	166.795	253.598	407.286	0.00081472	9.4953e-05	0.00011172	1269.5	4.4008e-06	3.6307e-06	1289.6	356.91	9.4943e-06	4.2127e-06	409.72	137.9	118.55	40.586	1.1393e-05	50.704	0.00069551	0.00065847	0.00016948	1297.2	7.6473e-06	7.2002e-06	1307.3	364.95	7.6627e-06	7.1473e-06	418.99	141.19	121.71	41.994	6.7115e-06	52.768	291.615	355.156	457.234	153.309	321.508	244.819	153.406	157.875	303.869	274.299	157.469	162.340	162.206	167.213	342.339	165.864	-8191	255	
11061.543	1	1	0	0	0.098662	0.25544	0.11978	0.15733	0.088556	0.14141	0.18496	0.13476	0.154	0.147	0.32221	0.15318	0.28331	0.084491	0.1988	0.10621	-2.425	-2.8646	-2.3479	-3.2875	-2.6521	-2.6146	-3.2792	-2.5396	-3.0646	-2.9167	-2.6	-3.2562	-2.7021	-2.5917	-2.9396	-2.4729	166.643	276.538	306.054	147.463	225.621	266.385	407.077	220.703	283.467	479.068	481.652	408.429	309.057	431.667	149.514	146.267	0.00087903	0.0011722	9.8064e-05	1266	6.7073e-06	6.6571e-06	1290.4	355.76	8.9215e-06	3.5133e-06	412.3	138.94	119.51	40.882	3.0407e-06	51.369	0.00068868	0.00064929	0.0001736	1297.9	7.5073e-06	7.0596e-06	1309.3	364.8	7.4196e-06	7.0122e-06	419.43	141.58	121.6	42.082	6.9595e-06	53.006	291.561	289.137	486.429	153.262	287.574	346.751	153.243	158.180	314.085	350.055	157.034	161.651	162.328	166.636	306.342	165.352	-8191	255	
#DATA ENDS
