BOXY.EXE: ISS Imagent and Oximeter Data Acquisition Program Version 0.80
Ascii Record File

#ACQ INFORMATION
2  Detector Channels 
16  External MUX Channels 
1  Auxiliary Channels 
5000  Waveform (CCF) Frequency (Hz)
1  Waveforms Skipped 
30  Waveforms Averaged 
1  Cycles Averaged 
16  Acquisitions per Waveform 
10.0806  Updata Rate (Hz) 

#FILE INFORMATION
TRUE -- External MUX Channel results are PARSED.
FALSE -- AC DC and Phase are NOT grouped.
TRUE -- Companion Program Settings File CREATED.
FALSE -- AC data not excluded
FALSE -- DC data not excluded
FALSE -- Phase data not excluded
FALSE -- Auxillary Chn. data not excluded
Tab delimiters

#CALIBRATION STATE
TRUE -- Waveform Calibration Values APPLIED.


#AUX CALIBRATION VALUES
Val Type	aux-1	

Term	1.0000e+00	
Factor	0.0000e+00	


#WF CALIBRATION VALUES
A = Detector Channel
Val Type	A-AC1	A-AC2	A-AC3	A-AC4	A-AC5	A-AC6	A-AC7	A-AC8	A-AC9	A-AC10	A-AC11	A-AC12	A-AC13	A-AC14	A-AC15	A-AC16	A-DC1	A-DC2	A-DC3	A-DC4	A-DC5	A-DC6	A-DC7	A-DC8	A-DC9	A-DC10	A-DC11	A-DC12	A-DC13	A-DC14	A-DC15	A-DC16	A-Ph1	A-Ph2	A-Ph3	A-Ph4	A-Ph5	A-Ph6	A-Ph7	A-Ph8	A-Ph9	A-Ph10	A-Ph11	A-Ph12	A-Ph13	A-Ph14	A-Ph15	A-Ph16	

Term	0.00000e+00	0.00000e+00	0.00000e+00	0.00000e+00	0.00000e+00	0.00000e+00	0.00000e+00	0.00000e+00	0.00000e+00	0.00000e+00	0.00000e+00	0.00000e+00	0.00000e+00	0.00000e+00	0.00000e+00	0.00000e+00	0.00000e+00	0.00000e+00	0.00000e+00	0.00000e+00	0.00000e+00	0.00000e+00	0.00000e+00	0.00000e+00	0.00000e+00	0.00000e+00	0.00000e+00	0.00000e+00	0.00000e+00	0.00000e+00	0.00000e+00	0.00000e+00	0.00000e+00	0.00000e+00	0.00000e+00	0.00000e+00	0.00000e+00	0.00000e+00	0.00000e+00	0.00000e+00	0.00000e+00	0.00000e+00	0.00000e+00	0.00000e+00	0.00000e+00	0.00000e+00	0.00000e+00	0.00000e+00	
Factor	1.00000e+00	1.00000e+00	1.00000e+00	1.00000e+00	1.00000e+00	1.00000e+00	1.00000e+00	1.00000e+00	1.00000e+00	1.00000e+00	1.00000e+00	1.00000e+00	1.00000e+00	1.00000e+00	1.00000e+00	1.00000e+00	1.00000e+00	1.00000e+00	1.00000e+00	1.00000e+00	1.00000e+00	1.00000e+00	1.00000e+00	1.00000e+00	1.00000e+00	1.00000e+00	1.00000e+00	1.00000e+00	1.00000e+00	1.00000e+00	1.00000e+00	1.00000e+00	X	X	X	X	X	X	X	X	X	X	X	X	X	X	X	X	

B = Detector Channel
Val Type	B-AC1	B-AC2	B-AC3	B-AC4	B-AC5	B-AC6	B-AC7	B-AC8	B-AC9	B-AC10	B-AC11	B-AC12	B-AC13	B-AC14	B-AC15	B-AC16	B-DC1	B-DC2	B-DC3	B-DC4	B-DC5	B-DC6	B-DC7	B-DC8	B-DC9	B-DC10	B-DC11	B-DC12	B-DC13	B-DC14	B-DC15	B-DC16	B-Ph1	B-Ph2	B-Ph3	B-Ph4	B-Ph5	B-Ph6	B-Ph7	B-Ph8	B-Ph9	B-Ph10	B-Ph11	B-Ph12	B-Ph13	B-Ph14	B-Ph15	B-Ph16	

Term	0.00000e+00	0.00000e+00	0.00000e+00	0.00000e+00	0.00000e+00	0.00000e+00	0.00000e+00	0.00000e+00	0.00000e+00	0.00000e+00	0.00000e+00	0.00000e+00	0.00000e+00	0.00000e+00	0.00000e+00	0.00000e+00	0.00000e+00	0.00000e+00	0.00000e+00	0.00000e+00	0.00000e+00	0.00000e+00	0.00000e+00	0.00000e+00	0.00000e+00	0.00000e+00	0.00000e+00	0.00000e+00	0.00000e+00	0.00000e+00	0.00000e+00	0.00000e+00	-2.52595e+02	-1.26487e+02	-1.31810e+02	-1.83580e+02	-9.53217e+01	-7.04341e+01	-1.58163e+02	-1.62015e+02	-9.38048e+01	-7.07157e+01	-1.70649e+02	-1.71149e+02	-1.78736e+02	-1.76810e+02	-6.95905e+01	-1.49929e+02	
Factor	6.57577e-05	1.42588e-04	3.98813e-05	1.59387e-01	2.26321e-06	1.63867e-06	1.78960e-01	5.86508e-02	1.89516e-06	1.75252e-06	9.77644e-02	3.36656e-02	3.08182e-02	1.06301e-02	1.65800e-06	1.51188e-02	3.52109e-06	3.79331e-06	1.05871e-06	7.47961e-02	4.09069e-08	4.16821e-08	7.88279e-02	2.75229e-02	4.08750e-08	4.15652e-08	4.44068e-02	1.52238e-02	1.45320e-02	5.00993e-03	4.13229e-08	6.90354e-03	X	X	X	X	X	X	X	X	X	X	X	X	X	X	X	X	



#DISTANCE SETTINGS
A = Detector Channel
A-1	A-2	A-3	A-4	A-5	A-6	A-7	A-8	A-9	A-10	A-11	A-12	A-13	A-14	A-15	A-16	

2.5000e+00	3.0000e+00	2.5000e+00	3.0000e+00	2.0000e+00	3.0000e+00	1.5000e+00	3.0000e+00	3.0000e+00	3.0000e+00	3.0000e+00	3.0000e+00	3.0000e+00	3.0000e+00	1.5000e+00	3.0000e+00	

B = Detector Channel
B-1	B-2	B-3	B-4	B-5	B-6	B-7	B-8	B-9	B-10	B-11	B-12	B-13	B-14	B-15	B-16	

1.0000e+01	1.0000e+01	1.0000e+01	1.4400e+00	1.0000e+01	1.0000e+01	1.5100e+00	1.9400e+00	1.0000e+01	1.0000e+01	1.9900e+00	2.4900e+00	2.4100e+00	2.9000e+00	1.0000e+01	2.9800e+00	




#DATA BEGINS
time	group	step	mark	flag	A-AC1	A-AC2	A-AC3	A-AC4	A-AC5	A-AC6	A-AC7	A-AC8	A-AC9	A-AC10	A-AC11	A-AC12	A-AC13	A-AC14	A-AC15	A-AC16	A-DC1	A-DC2	A-DC3	A-DC4	A-DC5	A-DC6	A-DC7	A-DC8	A-DC9	A-DC10	A-DC11	A-DC12	A-DC13	A-DC14	A-DC15	A-DC16	A-Ph1	A-Ph2	A-Ph3	A-Ph4	A-Ph5	A-Ph6	A-Ph7	A-Ph8	A-Ph9	A-Ph10	A-Ph11	A-Ph12	A-Ph13	A-Ph14	A-Ph15	A-Ph16	B-AC1	B-AC2	B-AC3	B-AC4	B-AC5	B-AC6	B-AC7	B-AC8	B-AC9	B-AC10	B-AC11	B-AC12	B-AC13	B-AC14	B-AC15	B-AC16	B-DC1	B-DC2	B-DC3	B-DC4	B-DC5	B-DC6	B-DC7	B-DC8	B-DC9	B-DC10	B-DC11	B-DC12	B-DC13	B-DC14	B-DC15	B-DC16	B-Ph1	B-Ph2	B-Ph3	B-Ph4	B-Ph5	B-Ph6	B-Ph7	B-Ph8	B-Ph9	B-Ph10	B-Ph11	B-Ph12	B-Ph13	B-Ph14	B-Ph15	B-Ph16	aux-1	digaux	

52878.043	1	1	0	256	0.0689	0.078332	0.13908	0.083049	0.12911	0.27269	0.12077	0.1958	0.11138	0.11283	0.11254	0.13212	0.12497	0.1628	0.24298	0.22339	-4.6083	-3.8875	-4.6896	-4.6354	-4.0104	-4.9542	-4.1125	-4.3854	-4.8458	-4.0146	-4.9	-4.8167	-4.2646	-4.9708	-4.0792	-4.475	123.665	-38.773	160.587	-45.211	-1.196	110.951	114.345	223.705	72.049	89.426	200.183	232.729	220.170	11.001	75.667	241.666	0.00071341	0.0004627	9.6508e-05	556.79	4.721e-06	3.5368e-06	729.13	182.65	3.1045e-06	3.3682e-06	286.79	126.83	70.735	32.831	4.1306e-06	65.997	0.00018553	0.00014347	3.8689e-05	572.96	1.5347e-06	1.5092e-06	751.3	189.68	1.5158e-06	1.5376e-06	296.62	131.44	73.94	34.41	1.5508e-06	68.874	47.947	13.964	-3.412	-66.912	54.276	29.838	-67.465	-61.706	11.477	74.818	-62.197	-57.223	-56.251	-50.796	80.150	-52.645	-8191	255	
52878.164	1	1	0	0	0.043146	0.24662	0.33747	0.31009	0.1679	0.19347	0.12629	0.11397	0.17764	0.14704	0.034252	0.33321	0.10082	0.18028	0.21181	0.17885	-4.6188	-4.0583	-4.9042	-4.7083	-4.1625	-5.1125	-4.2646	-4.4729	-4.9812	-4.0062	-4.7792	-4.8438	-4.3104	-5.1312	-4.3854	-4.4354	23.585	123.123	194.452	-74.448	212.559	71.598	196.206	142.560	163.620	1.172	207.904	173.026	-47.939	241.847	130.377	159.586	0.00083848	0.00061892	9.5143e-05	554.74	3.0355e-06	4.6039e-06	730.21	183.47	3.039e-06	3.7721e-06	287.64	127.26	72.112	33.235	2.5169e-06	66.86	0.00018134	0.00014026	3.9741e-05	570.85	1.5258e-06	1.5057e-06	752.01	190.33	1.5067e-06	1.5331e-06	297.35	132.23	74.761	34.819	1.5801e-06	69.69	51.688	13.543	-0.214	-67.070	41.908	51.626	-67.245	-61.785	19.812	45.016	-62.300	-56.857	-56.513	-50.514	74.104	-52.469	-8191	255	
52878.262	1	1	0	0	0.095238	0.072952	0.15816	0.23702	0.1186	0.052661	0.089577	0.1061	0.2393	0.25801	0.072762	0.11124	0.0046492	0.10866	0.11358	0.11533	-4.7167	-4.1813	-4.5437	-4.7167	-4.0333	-4.8875	-4.5479	-4.3	-5.0062	-4.1771	-4.6083	-5.0458	-4.1375	-5.0458	-4.5687	-4.3396	103.495	-16.686	165.583	-32.080	254.267	145.327	276.274	191.618	-34.463	90.993	193.985	-76.235	86.747	152.907	274.351	147.123	0.00076603	0.00038399	0.0001088	554.55	6.1616e-06	5.4326e-06	732.07	183.86	3.943e-06	2.8789e-06	289.48	127.52	71.558	33.104	3.7672e-06	66.647	0.00018218	0.00013756	3.7562e-05	571.89	1.5214e-06	1.5277e-06	753.75	190.88	1.5201e-06	1.5642e-06	298.16	132.42	74.667	34.801	1.5293e-06	69.581	47.295	-10.070	8.550	-67.317	49.197	70.679	-67.464	-61.733	37.027	42.259	-62.197	-57.021	-56.146	-50.601	76.813	-52.527	-8191	255	
52878.355	1	1	0	0	0.082783	0.059705	0.27272	0.058341	0.10148	0.19936	0.31625	0.067791	0.15166	0.016589	0.16445	0.098172	0.17004	0.093924	0.17846	0.22162	-4.7979	-4.1708	-4.5667	-4.9292	-3.9854	-4.8417	-4.6479	-4.3479	-4.8979	-4.1458	-4.4396	-4.9938	-4.0896	-4.8667	-4.8083	-4.1521	169.980	207.357	61.383	249.497	44.853	131.434	210.310	55.742	23.352	29.922	32.754	-44.320	-23.146	-45.508	262.234	190.401	0.00081581	0.00031388	6.4545e-05	555.11	3.1093e-06	4.4256e-06	732.45	184.19	1.5868e-06	3.643e-06	288.35	127.21	71.09	33.158	4.071e-06	66.448	0.00018126	0.0001382	3.7006e-05	572.58	1.5467e-06	1.4902e-06	753.86	190.56	1.5541e-06	1.5152e-06	298.29	132.46	74.417	34.662	1.4978e-06	69.335	54.175	-3.247	17.176	-67.010	63.553	69.200	-67.265	-61.526	62.078	100.706	-62.240	-56.968	-56.232	-51.035	55.520	-52.220	-8191	255	
52878.453	1	1	0	0	0.19511	0.14302	0.27326	0.18505	0.23161	0.06988	0.12229	0.15674	0.096546	0.072199	0.15649	0.30087	0.11122	0.13092	0.091671	0.19977	-4.8583	-4.2917	-4.3375	-5.1188	-3.9417	-4.7188	-4.7063	-4.0667	-4.9542	-4.4208	-4.3187	-5.025	-4.0938	-4.7063	-4.8375	-4.0958	265.224	216.809	258.811	136.392	-46.546	25.950	242.670	2.424	48.571	122.695	-67.343	-66.470	-22.720	195.128	165.457	278.389	0.00087684	0.00034442	9.885e-05	553.89	2.3156e-06	3.942e-06	733	183.33	2.6698e-06	5.4143e-06	287.73	126.1	71.234	32.628	4.0474e-06	65.865	0.00018405	0.00013771	3.8394e-05	573.3	1.5034e-06	1.4577e-06	753.22	190.15	1.4896e-06	1.4545e-06	298.01	131.38	74.075	34.23	1.4964e-06	68.684	52.308	16.523	6.072	-66.986	42.076	80.885	-67.340	-61.768	12.549	85.425	-62.240	-57.064	-56.373	-50.699	63.818	-52.369	-8191	255	
52878.570	1	1	0	0	0.046574	0.16214	0.081606	0.2048	0.1658	0.050863	0.058627	0.12403	0.036615	0.16875	0.19062	0.1933	0.046356	0.15662	0.082508	0.079837	-4.6208	-4.3438	-4.225	-5.0875	-4.1604	-4.7229	-5.0854	-4.1062	-4.9479	-4.5979	-4.3104	-4.975	-4.2937	-4.525	-4.9333	-4.1896	-43.926	-66.931	100.799	255.073	217.421	141.745	153.803	-54.805	205.490	115.590	229.810	145.767	-27.173	211.744	102.184	232.899	0.00079992	0.00047584	0.00010298	555.85	4.8727e-06	3.5212e-06	725.99	184.15	4.0928e-06	2.9594e-06	288.13	126.79	71.129	32.803	1.6691e-06	66.086	0.00018251	0.00013478	3.7302e-05	571.39	1.5107e-06	1.4521e-06	750.07	190.49	1.4878e-06	1.4527e-06	298.59	131.85	74.441	34.513	1.4916e-06	69.081	53.738	17.609	-1.600	-67.207	48.773	63.562	-67.329	-61.844	41.342	79.130	-62.305	-57.220	-56.211	-50.774	61.338	-52.691	-8191	255	
52878.668	1	1	0	0	0.1575	0.096102	0.15327	0.30368	0.12215	0.11414	0.069421	0.15465	0.14963	0.17753	0.039462	0.18474	0.10204	0.19253	0.10603	0.36434	-4.4583	-4.5125	-4.0208	-5.0271	-4.1958	-4.4354	-5.0458	-4.0208	-4.6125	-4.6979	-4.0521	-4.9563	-4.3771	-4.4542	-4.8479	-4.3854	182.441	64.796	-2.235	266.701	-39.008	-63.870	-15.438	134.225	220.822	87.829	-4.171	278.133	276.928	255.306	-43.220	219.244	0.00085595	0.00045275	0.00013943	554.65	2.4698e-06	4.4204e-06	725.95	183.65	4.0752e-06	5.0208e-06	287.46	127.23	71.468	33.181	3.5321e-06	66.436	0.00018231	0.0001359	3.8652e-05	571.5	1.516e-06	1.4523e-06	751.31	190.89	1.5141e-06	1.4295e-06	298.28	132.08	74.619	34.612	1.5276e-06	69.342	50.314	19.220	5.724	-67.021	15.107	70.140	-67.378	-61.763	34.874	56.690	-61.871	-56.844	-56.332	-50.818	85.540	-52.705	-8191	255	
52878.766	1	1	0	0	0.14368	0.10975	0.22065	0.20434	0.18118	0.10323	0.13197	0.17436	0.089923	0.19954	0.14392	0.32602	0.055919	0.20447	0.21304	0.12236	-4.4333	-4.6792	-4.0479	-5.0312	-4.2375	-4.2667	-5.0729	-4.1479	-4.8042	-4.7771	-4.2458	-5.1646	-4.6021	-4.2917	-4.9333	-4.2417	191.116	125.044	275.566	273.502	-79.239	36.417	-0.340	81.612	259.782	202.233	217.266	218.463	186.068	191.912	276.105	87.097	0.00090569	0.00040273	6.6883e-05	555.26	6.8673e-06	2.4865e-06	729.2	184.52	5.0499e-06	2.7742e-06	289.27	127.01	71.081	33.064	4.6744e-06	66.444	0.00018656	0.00013647	3.9159e-05	572.51	1.4859e-06	1.4821e-06	751.97	190.91	1.512e-06	1.4829e-06	298.87	132.02	74.251	34.486	1.5473e-06	69.284	54.177	8.939	15.737	-67.237	49.446	54.548	-67.274	-61.523	43.827	44.474	-62.371	-56.938	-56.099	-50.690	63.816	-52.556	-8191	255	
52878.859	1	1	0	0	0.22209	0.020167	0.14438	0.029351	0.14281	0.087424	0.19638	0.21494	0.13232	0.10432	0.057381	0.11889	0.16	0.054951	0.11638	0.2204	-4.25	-4.875	-4.0188	-4.8958	-4.6062	-4.2958	-5.1479	-4.2375	-4.4417	-4.9417	-4.0271	-4.9208	-4.6687	-4.0417	-5.1042	-4.2958	26.672	130.031	106.599	105.721	67.669	-54.701	235.842	110.062	142.593	174.083	61.648	21.222	-12.243	264.183	128.753	256.092	0.00084566	0.00042065	8.8236e-05	557.74	5.9796e-06	1.4722e-06	732.23	183.22	3.4111e-06	4.0687e-06	288.25	126.31	71.306	33.063	3.3871e-06	66.227	0.00018326	0.00013281	3.7928e-05	572.96	1.4651e-06	1.5111e-06	753.02	190.17	1.4883e-06	1.4507e-06	298.21	131.61	74.355	34.551	1.5474e-06	69.144	52.296	35.975	1.641	-67.480	50.635	45.444	-67.549	-61.813	43.525	82.798	-62.223	-57.153	-56.600	-50.825	66.200	-52.677	-8191	255	
52878.957	1	1	0	0	0.25617	0.17163	0.1295	0.25128	0.090647	0.23116	0.052195	0.16446	0.24356	0.093734	0.14842	0.1023	0.128	0.052206	0.079888	0.051033	-4.0875	-4.9021	-4.0437	-4.8896	-4.7292	-4.2167	-5.1083	-4.3646	-4.4083	-4.925	-4.0771	-4.9104	-4.9	-4.1062	-5.05	-4.5292	125.431	130.416	267.773	-63.858	111.016	214.399	214.328	174.296	256.660	133.941	273.214	-62.111	-11.643	64.457	-68.376	-65.315	0.0007796	0.00040492	0.00012968	557.36	3.8072e-06	3.6924e-06	732.1	184.15	3.5625e-06	4.0678e-06	288.19	127.28	71.377	33.224	3.6654e-06	66.723	0.00018117	0.00013419	3.7995e-05	574.73	1.4735e-06	1.5031e-06	753.83	190.8	1.4919e-06	1.437e-06	297.33	132.03	74.43	34.809	1.4941e-06	69.562	51.528	-1.213	24.182	-67.213	78.989	73.747	-67.682	-61.456	21.247	38.544	-62.084	-57.050	-56.201	-51.236	64.240	-52.563	-8191	255	
52879.051	1	1	0	0	0.28768	0.28227	0.25257	0.33	0.27761	0.15134	0.084484	0.24299	0.0816	0.15415	0.26271	0.23083	0.070818	0.082673	0.058311	0.25439	-4.0979	-5.0667	-4.1937	-4.7375	-4.7354	-4.025	-5.1229	-4.5646	-4.2208	-5.1375	-4.1479	-4.6312	-4.7833	-4.325	-4.8	-4.6125	99.402	169.566	1.095	-57.099	21.754	35.656	248.950	237.139	158.511	251.962	229.194	90.723	142.075	190.357	168.618	184.075	0.00087823	0.0003489	8.2698e-05	557.89	2.8266e-06	3.3553e-06	734.1	184.08	2.708e-06	5.5147e-06	289.17	127.91	72.368	33.486	4.8188e-06	66.926	0.00018137	0.00013789	3.9287e-05	576.05	1.5194e-06	1.5251e-06	756.71	191.14	1.5424e-06	1.4772e-06	297.97	132.59	74.955	35.056	1.5054e-06	69.901	53.197	13.682	19.937	-67.163	28.254	85.268	-67.602	-61.563	40.252	78.652	-62.015	-57.172	-56.387	-50.808	86.912	-52.375	-8191	255	
52879.172	1	1	0	0	0.1768	0.12013	0.19928	0.31188	0.13109	0.10492	0.1941	0.23111	0.37456	0.14696	0.12562	0.027296	0.079116	0.15403	0.14616	0.2691	-3.6979	-5.1188	-4.1	-4.5687	-4.9542	-4.1083	-5.05	-4.7333	-4.1854	-5.0938	-4.3208	-4.4104	-4.8604	-4.25	-4.9313	-4.8667	2.272	-51.450	194.322	183.266	88.642	169.347	40.632	252.177	-43.899	280.360	8.841	207.212	254.771	14.454	3.409	39.943	0.0008426	0.00035185	0.0001262	561.73	3.9584e-06	3.2057e-06	733.3	183.97	3.4517e-06	3.3205e-06	288.34	127.37	71.46	33.51	4.0448e-06	67.116	0.00018422	0.00013499	3.8877e-05	576.27	1.5049e-06	1.5032e-06	756.77	191.52	1.5343e-06	1.5158e-06	298.68	132.64	74.707	34.914	1.582e-06	69.665	55.436	3.377	-9.695	-67.252	27.952	84.173	-67.318	-61.619	-7.797	51.411	-61.980	-56.944	-56.483	-50.928	45.645	-52.364	-8191	255	
52879.270	1	1	0	0	0.16412	0.058028	0.20515	0.33449	0.26246	0.20112	0.027997	0.12117	0.21988	0.13863	0.046395	0.15452	0.20374	0.09813	0.078429	0.066358	-3.9208	-5.0021	-4.3271	-4.3625	-5.0292	-4.0479	-4.9396	-4.7	-4.2271	-5.1021	-4.4875	-4.3458	-5.0854	-4.1729	-4.6792	-4.825	210.840	-34.298	130.880	227.348	62.026	181.282	223.393	29.776	-36.811	-26.267	-32.759	256.502	-70.503	133.488	104.342	137.508	0.00080367	0.00037841	7.9999e-05	558.49	8.2208e-06	3.9524e-06	733.45	185.91	2.7624e-06	5.178e-06	290.39	128.59	72.175	33.497	3.856e-06	66.808	0.00018382	0.00013544	3.7915e-05	574.87	1.5409e-06	1.5375e-06	757.46	192.32	1.5772e-06	1.4881e-06	300.7	133.05	75.376	34.971	1.5376e-06	69.925	56.692	5.475	13.575	-67.326	43.397	53.121	-67.614	-61.730	19.024	86.107	-62.009	-57.010	-56.249	-50.753	81.066	-52.606	-8191	255	
52879.340	1	1	0	0	0.2236	0.11375	0.061596	0.14984	0.14073	0.066116	0.10569	0.12305	0.16799	0.23802	0.018299	0.14363	0.13642	0.22722	0.27014	0.1998	-3.7521	-5.0958	-4.3708	-4.3187	-4.9604	-4.1062	-4.5312	-4.9854	-3.9542	-4.8104	-4.6167	-4.1146	-5.0938	-4.3167	-4.4333	-5.0042	-20.338	166.859	50.656	255.147	78.051	247.607	94.479	191.726	275.952	197.017	40.881	211.523	-72.903	-67.052	-75.766	243.172	0.00080106	0.00026087	0.00014004	560.7	4.0267e-06	3.0345e-06	734.49	185.87	2.1897e-06	2.5996e-06	290.74	127.73	72.196	33.073	2.6145e-06	66.627	0.00018168	0.00013737	3.8001e-05	576.14	1.498e-06	1.4872e-06	756.58	192.26	1.5975e-06	1.4673e-06	300.36	132.69	75.356	34.851	1.5247e-06	69.633	53.811	-9.434	23.082	-67.389	30.392	62.671	-67.577	-61.743	43.389	70.627	-61.892	-57.025	-56.576	-50.850	81.769	-52.632	-8191	255	
52879.461	1	1	0	0	0.16323	0.36827	0.20253	0.23849	0.14949	0.18569	0.25317	0.02017	0.12998	0.10869	0.23747	0.073333	0.172	0.067036	0.28836	0.33156	-3.6229	-4.875	-4.5167	-4.2042	-4.875	-4.1792	-4.5229	-5.05	-3.9125	-4.6458	-4.725	-4.2667	-5.1542	-4.2438	-4.2063	-5.075	-13.499	-4.624	242.737	-76.628	255.709	144.829	270.666	63.092	98.649	1.064	119.584	-61.287	105.523	247.360	247.282	225.103	0.00084394	0.00053663	7.332e-05	559.91	4.8425e-06	1.3652e-07	732.81	184.11	2.7968e-06	5.6658e-06	289.55	127.35	71.981	33.405	3.3914e-06	66.533	0.00018445	0.00013884	3.7584e-05	573.79	1.5027e-06	1.5098e-06	754.67	191.66	1.55e-06	1.4965e-06	298.94	132.34	75.115	34.923	1.5625e-06	69.484	54.687	10.372	45.659	-67.266	27.555	55.291	-67.516	-61.373	39.138	77.071	-61.955	-57.140	-56.765	-50.766	37.910	-52.415	-8191	255	
52879.555	1	1	0	0	0.22467	0.17392	0.10941	0.17783	0.046179	0.21198	0.13434	0.034775	0.14067	0.22415	0.05139	0.20995	0.050458	0.14328	0.22529	0.17858	-3.7167	-4.6792	-4.7979	-4.0708	-4.9583	-4.4187	-4.3812	-5.05	-4.1958	-4.6937	-4.8479	-4.2	-4.8771	-4.4854	-4.2562	-5.15	-46.571	-26.264	138.565	270.329	65.398	245.109	18.396	-10.719	273.210	-66.337	-66.199	-34.606	170.137	220.768	231.224	271.934	0.00087238	0.00051987	7.1572e-05	556.98	4.603e-06	2.7123e-06	730.71	185.32	2.8917e-06	3.8367e-06	289.22	127.29	72.251	33.267	5.0508e-06	66.7	0.00018718	0.00013737	3.8568e-05	574.75	1.5184e-06	1.4841e-06	753.95	191.68	1.5379e-06	1.486e-06	298.89	132.38	74.992	34.8	1.5471e-06	69.552	52.807	11.818	0.602	-67.391	42.618	74.928	-67.547	-61.671	31.364	54.080	-62.093	-57.088	-56.609	-50.552	52.515	-52.500	-8191	255	
52879.652	1	1	0	0	0.052182	0.22234	0.11926	0.033472	0.16444	0.18234	0.13759	0.12139	0.12477	0.12486	0.18218	0.18484	0.11097	0.13555	0.064412	0.048475	-3.8708	-4.6167	-4.825	-4.0437	-4.8792	-4.5021	-4.2562	-5.1604	-4.1583	-4.5417	-4.9896	-4.075	-4.9	-4.7083	-4.0604	-5.2021	173.273	251.615	125.184	236.538	129.277	114.651	267.339	187.665	278.491	44.941	-51.636	-54.206	-33.864	185.278	29.532	42.725	0.00081787	0.00033801	0.00010731	557.89	6.2011e-06	1.7926e-06	738.11	184.94	2.1429e-06	3.0949e-06	290.58	127.34	71.596	33.283	2.5863e-06	67.075	0.00018594	0.00013956	3.7609e-05	575.81	1.4884e-06	1.4823e-06	758.44	192.1	1.5372e-06	1.4881e-06	299.75	132.59	75.068	34.819	1.5225e-06	69.917	49.994	25.592	2.137	-67.240	18.720	69.273	-67.508	-61.789	92.292	63.957	-61.870	-57.215	-56.458	-51.027	55.398	-52.581	-8191	255	
52879.746	1	1	0	0	0.2122	0.03321	0.15827	0.21761	0.081756	0.024127	0.22495	0.26316	0.12856	0.21564	0.083172	0.1396	0.23489	0.31295	0.075231	0.05548	-3.8292	-4.3417	-4.8021	-4.1625	-4.7667	-4.6396	-4.1042	-5.0854	-4.0813	-4.3146	-5.075	-4.2167	-4.7333	-4.8479	-3.9	-4.9625	-51.629	236.310	235.473	-27.392	194.128	232.372	186.068	180.231	185.218	66.031	-0.271	68.961	269.002	24.901	5.203	77.778	0.00080016	0.00023225	6.1697e-05	559.67	4.1728e-06	5.351e-06	733.34	184.57	5.1572e-06	5.2295e-06	288.76	127.68	72.28	33.404	3.7683e-06	66.927	0.00018446	0.00013773	3.7878e-05	576.53	1.5073e-06	1.5081e-06	755.78	191.91	1.4924e-06	1.529e-06	298.41	132.64	75.2	34.975	1.5886e-06	69.797	51.726	-9.059	-12.210	-67.130	21.855	88.273	-67.664	-61.711	46.559	69.257	-61.717	-57.233	-56.418	-50.986	77.267	-52.580	-8191	255	
52879.867	1	1	0	0	0.15315	0.079834	0.11558	0.25726	0.14182	0.18566	0.17513	0.2552	0.11122	0.17076	0.062796	0.094567	0.137	0.15287	0.085683	0.23633	-4.0271	-4.2583	-4.9583	-4.2146	-4.5667	-4.7083	-4.125	-5.0396	-4.3938	-4.2271	-5.1667	-4.0813	-4.6271	-4.8646	-3.8771	-4.9708	61.006	89.277	247.014	167.298	140.318	128.770	142.712	234.385	32.422	-22.037	43.391	4.920	178.972	-70.241	208.862	182.249	0.00084347	0.00038875	8.0585e-05	558.25	5.0024e-06	4.6136e-06	732.75	185.27	2.1092e-06	3.7709e-06	288.62	127.36	71.913	33.35	3.9473e-06	66.757	0.00018401	0.00013874	3.7871e-05	576.48	1.4888e-06	1.5551e-06	755.93	192.03	1.5062e-06	1.5142e-06	297.76	132.37	75.015	34.955	1.5852e-06	69.735	60.076	5.558	-4.849	-67.294	39.889	60.389	-67.456	-61.583	50.436	78.396	-61.938	-57.093	-56.419	-50.905	53.666	-52.589	-8191	255	
52879.965	1	1	0	0	0.10667	0.089729	0.061221	0.063293	0.12039	0.028369	0.3957	0.14248	0.048577	0.036361	0.13955	0.28247	0.25381	0.22563	0.17546	0.19187	-4.0583	-4.0771	-5.125	-4.2667	-4.4333	-4.9125	-4.1708	-4.8167	-4.5792	-4.2417	-5.1667	-4.4771	-4.4729	-4.8021	-3.9562	-5.0563	271.149	175.835	60.971	277.294	25.582	-50.412	203.989	278.098	139.089	43.865	225.279	263.807	231.945	-46.422	20.160	227.697	0.00082694	0.00033834	0.00011353	558.88	7.3426e-06	3.0717e-06	736.13	185.23	3.2333e-06	3.0603e-06	287.82	127.47	71.706	33.269	2.5323e-06	66.608	0.000186	0.00013694	3.8376e-05	576.32	1.5142e-06	1.4994e-06	757.15	191.8	1.5492e-06	1.5252e-06	297.59	132.18	74.768	34.838	1.5772e-06	69.419	55.115	-1.754	9.552	-66.955	27.456	73.257	-67.533	-61.714	53.803	85.011	-62.499	-57.023	-56.309	-50.792	41.373	-52.439	-8191	255	
52880.035	1	1	0	0	0.14987	0.24865	0.15831	0.28202	0.054513	0.15462	0.21879	0.19555	0.088709	0.041036	0.085241	0.19164	0.23364	0.081865	0.12011	0.14998	-4.3021	-4.1083	-5.0208	-4.3125	-4.2937	-4.8896	-4.1646	-4.7333	-4.675	-4	-5.325	-4.6271	-4.2021	-4.9146	-3.9	-4.8063	122.099	-46.617	-50.269	217.897	43.201	169.518	176.195	103.929	266.206	138.260	274.175	77.256	139.333	-58.325	260.014	-44.493	0.00076672	0.00022483	5.6707e-05	559.88	6.6163e-06	2.5128e-06	733.42	184.67	3.1634e-06	2.3164e-06	287.01	127.29	71.627	33.322	1.5706e-06	67.022	0.00018423	0.00013817	3.8376e-05	575.68	1.5278e-06	1.4698e-06	755.98	191.3	1.528e-06	1.5056e-06	297.69	132.12	74.886	34.931	1.5587e-06	69.713	51.890	16.237	33.400	-67.181	66.200	71.632	-67.404	-61.872	72.213	81.837	-62.221	-57.273	-56.649	-50.649	60.172	-52.645	-8191	255	
52880.133	1	1	0	0	0.032264	0.14925	0.17539	0.14455	0.24741	0.16439	0.078908	0.1019	0.13303	0.16995	0.2102	0.1488	0.13269	0.11646	0.26534	0.01974	-4.5292	-4.1458	-4.9958	-4.4229	-4.0437	-5.1646	-4.2937	-4.7854	-4.7458	-4.1354	-4.9812	-4.6167	-4.2354	-5.1292	-4.2354	-4.4625	-69.448	-14.891	203.475	189.485	131.754	-78.254	7.662	250.543	-6.368	174.796	260.344	203.571	223.964	114.832	-33.948	135.544	0.00084993	0.00041288	0.00010244	558.27	4.4508e-06	2.4744e-06	731.96	184.01	1.3455e-06	4.0825e-06	287.85	127.04	71.54	33.211	3.1337e-06	66.498	0.00018507	0.00013935	3.7525e-05	575.47	1.5429e-06	1.4895e-06	755.05	191.07	1.5479e-06	1.5152e-06	297.25	131.69	74.51	34.757	1.5171e-06	69.233	51.246	-1.101	4.071	-67.193	34.113	64.673	-67.548	-61.862	51.274	73.303	-62.079	-57.520	-56.125	-51.078	84.773	-52.390	-8191	255	
52880.254	1	1	0	0	0.079565	0.19678	0.19925	0.018365	0.24045	0.062848	0.11418	0.11539	0.089212	0.088524	0.13152	0.095124	0.050642	0.19283	0.11294	0.21689	-4.6771	-3.9458	-4.7438	-4.3083	-4.1271	-4.9	-4.3375	-4.3521	-5.0646	-3.9021	-4.8333	-4.6042	-3.9583	-5.075	-4.3625	-4.4896	140.075	-35.381	-4.246	174.626	200.090	-15.391	-22.183	-51.906	-43.635	225.290	266.892	253.921	105.599	-69.216	44.941	107.314	0.00091445	0.00041135	0.00012245	559.72	3.4888e-06	3.7705e-06	733.36	183.66	3.4005e-06	4.0906e-06	287.72	125.95	71.268	33.156	2.6341e-06	66.183	0.00018425	0.00013959	3.7481e-05	574.17	1.5603e-06	1.4735e-06	753.01	190.38	1.4622e-06	1.4803e-06	295.74	131.2	74.368	34.68	1.534e-06	69.18	48.322	15.557	-10.012	-66.991	54.494	63.331	-67.579	-61.993	56.031	52.898	-62.081	-57.335	-56.457	-50.716	103.114	-52.761	-8191	255	
52880.348	1	1	0	0	0.14446	0.12585	0.14472	0.061055	0.15893	0.21931	0.11403	0.17431	0.10175	0.23568	0.16182	0.25335	0.25063	0.16456	0.15973	0.12592	-4.6813	-4.0687	-4.8396	-4.8187	-4.1271	-4.9396	-4.4958	-4.4104	-4.8021	-3.9542	-4.6542	-4.9604	-4.1521	-5.0958	-4.3375	-4.2604	-73.250	19.428	-31.237	60.443	65.053	-68.882	168.569	238.392	105.482	225.782	194.100	206.377	247.012	198.701	-52.448	193.297	0.00085699	0.00040067	8.6446e-05	554.86	3.5728e-06	4.7099e-06	729.82	184.38	2.8703e-06	3.9372e-06	285.69	126.78	71.699	33.154	2.3897e-06	66.372	0.00018036	0.00013531	3.8685e-05	573.7	1.5679e-06	1.4872e-06	752.49	190.66	1.5227e-06	1.4948e-06	296.01	131.48	74.526	34.813	1.5152e-06	69.345	59.906	47.514	23.176	-67.173	73.796	54.519	-67.448	-61.523	92.609	46.367	-62.709	-57.185	-56.546	-50.731	80.667	-52.799	-8191	255	
52880.445	1	1	0	0	0.15713	0.19667	0.10899	0.15571	0.15773	0.20563	0.12656	0.31109	0.32324	0.10671	0.033392	0.15786	0.073197	0.13455	0.025572	0.19934	-4.6792	-4.0958	-4.5833	-4.8375	-4.1479	-4.8354	-4.6854	-4.2792	-4.8729	-4.2917	-4.3792	-4.8104	-4.1188	-4.9	-4.6167	-4.1417	143.189	278.395	-19.228	-32.926	137.502	118.911	212.129	-62.894	19.693	219.947	154.202	-77.214	126.648	247.011	76.990	248.680	0.00079778	0.00027012	7.8005e-05	557.47	4.0437e-06	4.6988e-06	729.76	184.63	3.6819e-06	2.0348e-06	286.95	126.54	71.528	33.361	4.0794e-06	66.256	0.0001825	0.00013935	3.8711e-05	573.42	1.5401e-06	1.5061e-06	751.58	190.66	1.52e-06	1.489e-06	296.92	131.63	74.6	34.802	1.5816e-06	69.274	55.813	17.845	1.287	-67.543	41.427	57.856	-67.457	-61.803	54.164	40.507	-62.440	-57.262	-56.407	-50.731	74.495	-52.683	-8191	255	
52880.566	1	1	0	0	0.17243	0.30598	0.018673	0.14707	0.093479	0.036304	0.25707	0.10281	0.095241	0.11156	0.13121	0.12304	0.085674	0.14948	0.091133	0.060628	-4.7792	-4.1813	-4.3625	-4.8167	-3.95	-4.9313	-4.7854	-4.1042	-5.0271	-4.2875	-4.4708	-4.925	-3.9896	-4.8	-4.6604	-4.1438	183.572	149.004	-53.157	262.019	-77.154	-37.063	211.912	110.877	-20.616	250.321	-73.158	190.857	250.848	-13.926	273.773	248.891	0.00085218	0.00021767	8.1183e-05	556.09	8.426e-06	4.7336e-06	732.91	183.97	5.766e-06	4.4985e-06	285.58	127.01	71.821	33.523	4.316e-06	66.769	0.00018346	0.00014102	3.8381e-05	573.72	1.5784e-06	1.5078e-06	754.25	190.64	1.4894e-06	1.5138e-06	296.51	132.23	74.951	35.027	1.5319e-06	69.714	55.682	3.153	-2.283	-67.399	36.946	67.621	-67.532	-61.719	54.358	80.235	-62.261	-57.079	-56.210	-50.758	79.443	-52.679	-8191	255	
52880.637	1	1	0	0	0.13115	0.1	0.033476	0.10393	0.083461	0.058206	0.17758	0.16509	0.10042	0.20263	0.020437	0.090646	0.19025	0.047662	0.088796	0.085553	-4.7354	-4.2708	-4.3688	-5.0125	-3.9271	-4.6521	-4.925	-4.0875	-4.7896	-4.3458	-4.2667	-5.0729	-4.0833	-4.5146	-4.7937	-4.175	121.647	37.840	271.802	121.641	218.038	222.533	198.459	211.189	159.206	252.818	-18.552	160.322	-16.325	63.351	173.433	216.373	0.00081525	0.0003652	6.7188e-05	556.34	7.2194e-06	5.0704e-06	727.71	184.98	2.8553e-06	5.2565e-06	285.37	127.34	71.364	33.299	3.4128e-06	66.524	0.00018277	0.00013907	3.9336e-05	573.69	1.5172e-06	1.5052e-06	752.09	191.01	1.5111e-06	1.4937e-06	296.23	131.89	74.684	34.856	1.4995e-06	69.347	49.241	14.135	-5.987	-67.226	47.119	56.285	-67.468	-61.559	26.993	83.312	-62.117	-57.017	-56.298	-50.850	81.800	-52.593	-8191	255	
52880.734	1	1	0	0	0.093696	0.18176	0.13098	0.27497	0.20975	0.15354	0.23199	0.17246	0.070961	0.072469	0.077654	0.16462	0.13972	0.29763	0.082033	0.22178	-4.5854	-4.4271	-4.2104	-5.0042	-4.15	-4.5188	-4.9667	-4.0646	-4.75	-4.6062	-4.225	-5.1292	-4.2438	-4.4688	-4.7292	-4.1958	247.289	-79.406	178.727	159.568	199.784	36.370	171.186	219.919	140.906	202.902	18.284	-71.037	102.695	248.650	260.191	-72.201	0.00082533	0.00042732	7.4919e-05	557.05	4.0655e-06	4.4661e-06	729.53	183.15	3.2254e-06	5.313e-06	285.26	126.59	71.582	33.444	3.9085e-06	66.849	0.00018104	0.00013938	3.8621e-05	573.82	1.5219e-06	1.5489e-06	751.78	190.4	1.5062e-06	1.4755e-06	295.43	131.71	74.85	34.922	1.5365e-06	69.433	49.456	-3.833	11.303	-67.097	34.764	95.892	-67.524	-61.794	14.540	60.008	-62.365	-56.983	-56.589	-50.647	62.213	-52.616	-8191	255	
52880.852	1	1	0	0	0.13682	0.01344	0.14027	0.18977	0.061057	0.14356	0.30659	0.10529	0.018057	0.069447	0.071813	0.093713	0.029433	0.14961	0.1332	0.065246	-4.425	-4.6229	-4.0917	-4.9354	-4.1188	-4.2937	-5.0062	-4.0479	-4.6417	-4.8063	-4.1875	-5.0521	-4.45	-4.1917	-5.0687	-4.2708	102.130	-41.763	148.136	-78.948	173.729	272.302	236.055	-57.424	34.939	-25.260	-20.876	108.887	248.919	48.156	36.889	172.087	0.00089381	0.00052729	0.00011248	555.01	3.8577e-06	3.6569e-06	729.43	184.2	4.9086e-06	3.9334e-06	286.51	127.72	72.246	33.494	1.0059e-06	66.837	0.00018565	0.00013903	4.063e-05	573.44	1.5681e-06	1.521e-06	753.68	191.27	1.5705e-06	1.4985e-06	296.18	132.36	75.142	35.045	1.5224e-06	69.69	57.001	0.099	8.506	-67.197	84.061	48.077	-67.344	-61.770	28.815	73.695	-62.280	-57.103	-56.466	-50.820	82.320	-52.781	-8191	255	
52880.949	1	1	0	0	0.12523	0.12578	0.080466	0.20499	0.28718	0.038527	0.25698	0.28063	0.055732	0.096033	0.21734	0.2035	0.19257	0.025175	0.096121	0.077126	-4.3667	-4.7417	-4.0292	-5.0875	-4.4083	-4.2188	-5.0229	-4.2875	-4.5792	-4.775	-4.0667	-4.9812	-4.5625	-4.2292	-4.9771	-4.5125	262.869	107.528	234.166	236.750	-31.241	-35.815	-66.949	-39.357	76.551	-28.170	227.324	-73.956	-10.328	259.579	48.285	8.835	0.00087196	0.00031807	6.6923e-05	557.79	5.7266e-06	3.6554e-06	732.96	184.4	4.5357e-06	2.1799e-06	287.65	127.29	71.529	33.309	1.9114e-06	66.877	0.0001839	0.0001374	3.8332e-05	573.98	1.5603e-06	1.5475e-06	754.73	191.5	1.5566e-06	1.4659e-06	297.05	132.3	74.766	34.976	1.5358e-06	69.639	50.731	29.861	-4.864	-67.226	13.493	71.914	-67.281	-61.481	45.741	59.579	-61.998	-57.204	-56.243	-50.832	3.656	-52.437	-8191	255	
52881.047	1	1	0	0	0.12522	0.14217	0.21121	0.36085	0.12505	0.17195	0.15942	0.10773	0.10135	0.22203	0.091724	0.1221	0.1273	0.11631	0.091267	0.16389	-4.2417	-4.8	-4.0146	-5.0542	-4.5479	-4.1438	-5.1687	-4.3604	-4.4812	-4.9333	-3.9625	-5.0229	-4.8417	-4.0854	-5.0125	-4.4729	91.052	30.002	92.097	228.986	61.295	-56.101	167.829	153.443	-31.501	-0.797	212.083	214.433	274.157	-23.747	172.563	-12.328	0.00090989	0.00033837	0.00014137	556.93	6.0494e-06	3.4798e-06	732.71	184.63	3.5211e-06	4.6302e-06	287.86	126.5	72.091	33.391	3.2898e-06	66.368	0.00018429	0.00013687	3.8431e-05	573.85	1.5574e-06	1.492e-06	754.6	191.22	1.57e-06	1.4473e-06	296.9	132.03	75.05	34.897	1.5271e-06	69.347	52.729	3.648	8.525	-67.544	32.887	16.522	-67.272	-61.497	31.336	31.721	-62.034	-57.040	-56.353	-50.661	51.800	-52.812	-8191	255	
52881.164	1	1	0	0	0.098388	0.12969	0.027315	0.14158	0.10752	0.16459	0.059376	0.22357	0.033992	0.081635	0.22169	0.21934	0.16049	0.17283	0.25853	0.25196	-4.1271	-5.0667	-4.1875	-4.8208	-4.8979	-4.0167	-5.0437	-4.4125	-4.3479	-4.8979	-4.3146	-4.7271	-4.9042	-4.0208	-4.8458	-4.4104	175.998	164.564	274.498	219.899	170.774	242.018	-40.639	-50.603	52.093	248.732	269.667	226.787	4.610	216.236	231.436	262.563	0.00087876	0.0002967	0.00014213	558.53	2.1079e-06	3.0019e-06	733.09	185.02	2.3519e-06	3.5974e-06	287.11	127.31	71.689	33.314	3.5302e-06	66.813	0.00018584	0.00013865	3.9155e-05	574.12	1.4951e-06	1.5209e-06	753.52	191.18	1.5532e-06	1.4572e-06	296.57	131.75	74.906	34.923	1.5425e-06	69.529	55.924	6.974	-0.942	-67.201	39.538	116.223	-67.385	-61.808	80.355	75.031	-61.963	-57.036	-56.361	-50.826	96.988	-52.489	-8191	255	
52881.238	1	1	0	0	0.22612	0.065591	0.25574	0.15752	0.13724	0.27491	0.20586	0.20618	0.028504	0.13201	0.056958	0.053494	0.03713	0.13343	0.067294	0.071359	-3.9208	-5.0271	-4.2021	-4.5917	-4.7375	-4.2063	-5.1333	-4.6792	-4.1458	-4.9812	-4.3375	-4.5	-4.8875	-4.0104	-4.9563	-4.7375	160.533	258.758	70.859	-26.269	188.939	117.297	252.505	222.450	29.250	81.405	128.761	-59.102	128.699	5.269	118.993	165.691	0.00083199	0.00026442	2.364e-05	559.4	4.0073e-06	2.3929e-06	729.34	184.41	2.7635e-06	2.3524e-06	287.52	126.86	72.356	33.506	2.257e-06	66.513	0.0001851	0.00013943	3.9155e-05	574.78	1.4821e-06	1.4709e-06	753.14	191.19	1.5575e-06	1.4847e-06	296.8	131.97	75.118	34.996	1.5425e-06	69.459	54.935	5.666	44.709	-67.361	48.918	97.688	-67.631	-61.647	48.086	50.589	-62.046	-57.394	-56.112	-50.750	68.568	-52.535	-8191	255	
52881.336	1	1	0	0	0.2099	0.15115	0.062831	0.24692	0.050341	0.011029	0.10788	0.12022	0.14414	0.17326	0.11666	0.15902	0.11928	0.061218	0.21643	0.11534	-3.8604	-4.9625	-4.2979	-4.3771	-4.9583	-4.0167	-4.8292	-4.8187	-4.1458	-5.1333	-4.3458	-4.4938	-4.9667	-4.1104	-4.6062	-4.8229	-62.792	128.822	209.412	-46.634	268.986	76.638	100.604	220.204	-50.532	13.713	-65.226	278.814	215.485	-69.481	262.458	270.122	0.00078605	0.0003638	0.00013729	559.72	1.188e-06	3.9446e-06	733.85	184.08	2.545e-06	3.418e-06	287.9	127.14	72.302	33.464	1.8675e-06	66.666	0.00018594	0.00013568	3.8268e-05	575.28	1.5027e-06	1.4908e-06	754.72	191.03	1.5278e-06	1.4744e-06	297.1	132.19	75.027	34.96	1.5525e-06	69.545	57.300	20.228	3.516	-67.122	18.289	97.036	-67.411	-61.354	12.840	88.758	-62.047	-57.236	-56.326	-50.790	71.152	-52.474	-8191	255	
52881.430	1	1	0	0	0.1509	0.018098	0.031583	0.075809	0.15495	0.059124	0.13801	0.01602	0.09937	0.24363	0.085569	0.21671	0.099484	0.087136	0.29628	0.043001	-3.85	-4.8917	-4.5604	-4.3271	-4.9375	-3.9708	-4.8396	-4.9146	-4.0208	-5.0417	-4.4479	-4.2896	-5.1125	-4.0042	-4.4479	-4.95	74.935	65.575	49.928	88.772	-56.376	257.887	213.582	-11.755	55.615	-79.125	270.872	164.171	193.530	122.752	171.489	275.945	0.00076802	0.00053458	0.0001143	554.75	4.8115e-06	3.708e-06	728.35	184.55	3.8993e-06	6.3046e-06	288.57	126.88	71.985	33.261	4.868e-06	66.407	0.00019006	0.00013651	3.9605e-05	573.45	1.5199e-06	1.4907e-06	753.67	191.59	1.5544e-06	1.5285e-06	298.08	132.06	75.029	34.893	1.5648e-06	69.436	52.465	19.256	25.183	-67.184	69.767	67.272	-67.567	-61.435	35.219	93.492	-62.480	-57.288	-56.491	-50.592	51.331	-52.523	-8191	255	
52881.551	1	1	0	0	0.2723	0.24374	0.088641	0.25284	0.13021	0.17347	0.010128	0.2184	0.11303	0.09922	0.076329	0.12041	0.23769	0.0021089	0.15573	0.045657	-3.8104	-4.6625	-4.4104	-4.1542	-4.8938	-4.2125	-4.5437	-5.0333	-4.0312	-4.9604	-4.6708	-4.2208	-4.975	-4.2604	-4.4604	-5.0333	4.376	268.272	38.674	-58.549	232.741	-65.819	113.940	248.506	-44.326	189.822	160.130	42.602	-9.259	180.000	255.155	107.422	0.00093193	0.00032419	0.00011738	561.32	4.5368e-06	3.8255e-06	729.63	185.07	7.0663e-06	2.8967e-06	286.79	126.79	71.936	33.299	5.2159e-06	66.502	0.00018597	0.00013863	3.988e-05	575.73	1.4881e-06	1.5376e-06	752.49	191.76	1.5836e-06	1.479e-06	296.79	131.9	75.216	35.049	1.5657e-06	69.433	53.817	25.322	-5.939	-67.353	73.816	74.097	-67.619	-61.513	18.163	78.155	-62.056	-56.973	-56.291	-50.707	86.856	-52.672	-8191	255	
52881.645	1	1	0	0	0.19195	0.068992	0.10013	0.29892	0.24665	0.171	0.069543	0.33365	0.041129	0.15619	0.22953	0.17674	0.083669	0.063496	0.17265	0.10119	-3.7479	-4.7438	-4.4708	-4.1458	-5.1354	-4.2979	-4.3	-4.9542	-4.0271	-4.6792	-4.9313	-4.1792	-5.1667	-4.4729	-4.3271	-5.075	190.523	230.612	35.511	254.184	98.865	50.413	-54.669	251.162	-50.520	123.838	208.406	19.655	71.517	192.044	-17.316	255.726	0.00095034	0.00040599	8.8526e-05	558.45	4.4068e-06	2.7048e-06	733.8	185	2.5457e-06	5.8899e-06	289.15	127.33	71.573	33.689	3.3735e-06	67.332	0.00018684	0.00013924	3.7578e-05	574.84	1.5163e-06	1.5179e-06	755.26	191.81	1.54e-06	1.531e-06	297.51	132.27	75.242	35.288	1.5549e-06	69.863	56.799	24.903	-9.636	-67.046	39.001	52.658	-67.452	-61.796	-1.689	71.383	-62.407	-57.073	-56.145	-50.721	99.739	-52.552	-8191	255	
52881.742	1	1	0	0	0.10965	0.21611	0.14736	0.054361	0.19669	0.027728	0.04502	0.12257	0.074556	0.14296	0.078394	0.14011	0.10129	0.070697	0.10955	0.24729	-3.6896	-4.6937	-4.8042	-3.9917	-4.9417	-4.4875	-4.2063	-4.9417	-4.1542	-4.7417	-5.0771	-4.1896	-5.0208	-4.5938	-4.1937	-5.1229	150.609	247.716	26.539	162.845	249.574	15.008	-54.334	-1.389	176.068	166.314	-46.562	236.633	-68.073	153.003	64.312	239.414	0.00089248	0.00025945	0.00010184	557.1	3.3912e-06	6.061e-06	733.71	185.43	2.0855e-06	3.0684e-06	286.91	127.62	72.192	33.617	2.4901e-06	67.071	0.00018607	0.00014086	3.8449e-05	575.62	1.5123e-06	1.5162e-06	756.25	192.03	1.5767e-06	1.5168e-06	297.32	132.54	75.361	35.25	1.5534e-06	69.896	54.134	15.607	22.622	-67.355	28.544	71.591	-67.487	-61.400	15.258	58.801	-62.105	-57.259	-56.370	-50.673	57.797	-52.394	-8191	255	
52881.836	1	1	0	0	0.16612	0.04763	0.22286	0.15351	0.21232	0.024817	0.22288	0.15519	0.081832	0.041428	0.10075	0.11372	0.21028	0.14335	0.097725	0.099629	-3.8792	-4.4708	-4.7896	-4.075	-4.7542	-4.6896	-4.0771	-5.0708	-4.25	-4.3667	-4.8646	-4.1958	-4.6854	-4.7771	-4.0687	-5.0687	256.071	-48.855	103.401	223.683	121.963	-32.186	98.573	262.330	74.431	135.541	55.757	-77.534	236.379	164.094	277.640	185.633	0.00085269	0.00042395	0.00011226	559.31	3.6919e-06	3.4277e-06	737.57	185.8	4.2925e-06	1.1782e-06	289.94	128.09	72.492	33.874	2.8451e-06	67.276	0.0001885	0.00014293	3.7807e-05	576.05	1.5783e-06	1.5131e-06	757.43	192.03	1.5707e-06	1.4964e-06	298.43	132.81	75.469	35.355	1.5495e-06	70.143	60.326	13.082	-9.931	-67.193	60.900	81.007	-67.394	-61.458	52.216	29.245	-61.803	-57.371	-56.590	-50.905	54.211	-52.454	-8191	255	
52881.934	1	1	0	0	0.087349	0.3049	0.097938	0.16653	0.10718	0.14495	0.13623	0.098471	0.066092	0.1883	0.20866	0.14529	0.16701	0.21074	0.066636	0.19894	-3.9708	-4.2646	-5.1062	-4.2458	-4.7917	-4.7604	-4.1417	-5.0938	-4.2937	-4.3104	-5.1167	-4.2354	-4.7625	-4.9938	-3.875	-5.1854	-27.953	239.710	229.990	115.585	110.675	37.824	223.333	-2.870	218.133	83.464	211.745	256.469	-54.387	279.818	108.742	243.232	0.00083739	0.00041973	8.8322e-05	559.21	4.8807e-06	3.7162e-06	735.46	184.8	7.3581e-06	5.9072e-06	286.98	128.07	72.526	33.876	2.2254e-06	67.04	0.00018441	0.00013993	3.7827e-05	577.19	1.5259e-06	1.4964e-06	757.64	192.34	1.4944e-06	1.4917e-06	297.53	132.83	75.621	35.44	1.5308e-06	69.824	50.153	2.414	18.547	-67.235	49.408	63.917	-67.832	-61.611	55.365	54.235	-62.058	-57.069	-56.369	-50.610	10.483	-52.659	-8191	255	
52882.027	1	1	0	0	0.17665	0.18018	0.084994	0.16383	0.014909	0.049728	0.072408	0.097944	0.31614	0.17815	0.087134	0.07747	0.084192	0.21526	0.23779	0.044228	-4.2063	-4.2646	-4.9563	-4.2208	-4.6312	-4.8583	-4.0917	-4.9229	-4.4271	-4.0771	-5.0729	-4.1292	-4.6542	-4.9604	-3.9604	-4.9417	-48.347	117.142	138.321	264.407	128.189	-18.383	226.619	175.429	167.269	266.631	198.696	13.341	271.568	-26.620	70.875	-64.573	0.00086664	0.00037514	0.00010911	558.5	5.0973e-06	3.3988e-06	734.17	186.18	3.4526e-06	1.7213e-06	287.63	127.82	72.703	33.586	3.6694e-06	66.709	0.0001888	0.00013736	3.6872e-05	576.85	1.5357e-06	1.5147e-06	756.29	192.71	1.5355e-06	1.4804e-06	297.95	132.71	75.674	35.294	1.5251e-06	69.769	50.526	7.903	7.154	-67.455	65.661	70.008	-67.533	-61.747	39.395	71.203	-62.191	-57.151	-56.356	-50.506	134.756	-52.570	-8191	255	
52882.125	1	1	0	0	0.24308	0.079359	0.20107	0.1679	0.19872	0.13819	0.13943	0.032008	0.028011	0.12549	0.044444	0.36354	0.14654	0.098297	0.17353	0.024961	-4.2896	-4.125	-4.8688	-4.4208	-4.4062	-4.9479	-4.0104	-4.7625	-4.6625	-4.0042	-5.1062	-4.4812	-4.2625	-4.9104	-3.9042	-4.7604	-63.971	97.862	138.200	218.461	-27.988	157.270	157.077	180.462	95.538	62.153	-5.639	241.901	210.027	-36.826	238.304	253.456	0.00088833	0.00033856	0.00011821	560.5	7.4353e-06	4.0952e-06	731.77	186.64	1.2242e-06	2.3905e-06	289.15	127.32	72.35	33.615	3.2277e-06	67.338	0.00018854	0.00013867	3.8105e-05	577.18	1.5383e-06	1.4664e-06	757.63	192.93	1.5209e-06	1.4815e-06	298.56	132.79	75.733	35.337	1.5625e-06	70.212	55.211	19.124	3.394	-67.222	23.905	72.558	-67.462	-61.568	-32.234	88.325	-62.284	-57.251	-56.223	-50.862	51.285	-52.676	-8191	255	
52882.246	1	1	0	0	0.078185	0.13061	0.05544	0.17145	0.090907	0.14234	0.14839	0.12811	0.16387	0.14633	0.1849	0.1013	0.19231	0.17603	0.032736	0.055456	-4.5625	-3.9875	-5.0292	-4.4521	-4.2229	-5.1292	-4.2146	-4.7208	-4.7479	-4	-5.1042	-4.5125	-4.2917	-5.1312	-4.1979	-4.5292	21.028	-71.528	-55.509	270.145	-75.523	37.061	136.266	-50.017	231.622	42.007	-64.762	211.197	-61.847	242.565	-11.737	155.764	0.00074266	0.00017428	5.1887e-05	561.04	5.952e-06	3.6719e-06	736.46	187.1	3.1098e-06	3.5177e-06	289.45	128.43	72.671	33.891	4.2786e-06	67.264	0.00018697	0.00013767	3.8411e-05	577.29	1.5324e-06	1.4557e-06	759.73	193.22	1.5026e-06	1.4981e-06	299.37	133.22	75.872	35.556	1.5599e-06	70.443	52.091	4.022	32.808	-67.132	62.821	58.024	-67.630	-61.517	24.788	92.803	-62.302	-57.062	-56.707	-50.753	45.488	-52.632	-8191	255	
52882.344	1	1	0	0	0.16908	0.098918	0.17337	0.10813	0.18274	0.26753	0.04453	0.42081	0.060663	0.062235	0.1095	0.19377	0.09869	0.10987	0.053669	0.25269	-4.6354	-3.95	-4.9187	-4.7479	-4.2167	-5.15	-4.3688	-4.5104	-4.9479	-4.0771	-5.0646	-4.625	-4.1771	-5.0542	-4.0625	-4.4062	59.567	60.155	206.884	-23.187	-7.511	-69.297	266.690	213.910	-62.945	-12.393	163.217	170.375	61.092	-20.393	209.709	263.479	0.00089449	0.00035645	0.00013335	562.14	4.2981e-06	4.9621e-06	738.56	186.82	1.7511e-06	5.129e-06	289.05	127.62	72.701	33.999	5.5548e-06	67.223	0.00018182	0.00014301	3.8182e-05	578.32	1.5547e-06	1.4845e-06	760.18	193.38	1.5062e-06	1.5105e-06	299.04	133.21	75.865	35.534	1.558e-06	70.123	54.662	31.670	-1.769	-67.254	53.230	92.682	-67.412	-61.365	41.101	27.934	-61.989	-57.125	-56.175	-50.783	74.705	-52.717	-8191	255	
52882.438	1	1	0	0	0.22453	0.17673	0.11874	0.10247	0.19247	0.090306	0.14325	0.1377	0.046829	0.35494	0.058158	0.15855	0.14291	0.26905	0.26743	0.2883	-4.6937	-4.0042	-4.7562	-4.6021	-3.9813	-4.9479	-4.3458	-4.3896	-4.8562	-4.1708	-4.7125	-4.7833	-3.9521	-4.95	-4.2417	-4.2708	94.162	154.086	-12.336	107.448	182.449	246.956	235.458	248.659	170.066	125.707	184.215	271.230	249.843	-59.563	109.102	137.449	0.00081762	0.00043932	4.4613e-05	561.83	3.7768e-06	4.9954e-06	738.02	187.26	2.9006e-06	3.7165e-06	289.18	127.58	72.762	33.761	2.8708e-06	66.663	0.0001827	0.00014149	3.8453e-05	578.84	1.5093e-06	1.4941e-06	759.56	192.84	1.5143e-06	1.5105e-06	298.12	132.63	75.833	35.469	1.5451e-06	69.815	53.174	5.843	19.618	-67.161	24.035	72.107	-67.618	-61.653	78.091	77.289	-62.472	-57.051	-56.389	-50.870	89.582	-52.805	-8191	255	
52882.535	1	1	0	0	0.19845	0.078987	0.2406	0.14618	0.41207	0.096589	0.26857	0.087583	0.063011	0.21958	0.01139	0.16229	0.059168	0.14381	0.10924	0.27247	-4.875	-4.1458	-4.6229	-4.7604	-3.9917	-4.85	-4.5792	-4.3229	-5.0167	-4.175	-4.4313	-4.8542	-3.9646	-4.9833	-4.5917	-4.3208	261.369	124.388	-76.454	231.814	-14.910	45.199	241.947	153.198	-31.326	101.734	55.887	227.882	-66.274	244.485	-54.675	168.253	0.00083034	0.00027602	8.5464e-05	560.77	6.8143e-06	2.6308e-06	731.66	186.59	5.2465e-06	4.5821e-06	287.75	127.7	73.076	34.111	2.3768e-06	66.936	0.00018498	0.00013912	3.8217e-05	577.75	1.4949e-06	1.4364e-06	757.53	192.73	1.504e-06	1.4992e-06	297.95	132.91	76.079	35.554	1.5413e-06	70.024	55.012	-17.036	8.798	-67.026	47.507	73.509	-67.416	-61.821	27.451	76.596	-62.126	-57.005	-56.113	-50.999	57.858	-52.812	-8191	255	
52882.629	1	1	0	0	0.083946	0.2024	0.23485	0.10966	0.038174	0.025153	0.2095	0.057317	0.28953	0.20911	0.13735	0.25591	0.059048	0.12236	0.033618	0.30527	-4.7479	-4.1813	-4.4646	-4.8958	-3.8875	-4.9542	-4.6937	-4.1521	-5.0229	-4.2354	-4.3792	-4.9833	-4.2771	-4.8396	-4.7354	-4.25	262.217	154.705	85.665	190.306	-41.318	37.467	186.989	-70.507	161.952	48.928	229.455	8.913	-4.752	91.244	276.195	109.870	0.00080427	0.00028183	9.2832e-05	560.98	3.3677e-06	3.9566e-06	733.07	186.32	2.1151e-06	4.9676e-06	289.14	128.24	72.311	34.068	3.71e-06	67.356	0.00018055	0.00013563	3.8142e-05	577.53	1.4914e-06	1.5092e-06	757.78	192.46	1.4816e-06	1.495e-06	298.23	133.19	75.75	35.538	1.5018e-06	70.048	45.652	20.092	-3.131	-67.137	37.939	76.258	-67.558	-61.715	30.491	60.762	-62.143	-57.193	-56.666	-51.005	45.118	-52.480	-8191	255	
52882.727	1	1	0	0	0.055065	0.061424	0.17929	0.10712	0.065714	0.10359	0.17618	0.15139	0.20442	0.047283	0.15913	0.22235	0.088032	0.091266	0.14436	0.14812	-4.7646	-4.3354	-4.2458	-5.0188	-3.9271	-4.7146	-4.8146	-4.1146	-4.8875	-4.3292	-4.1937	-5.0917	-4.1771	-4.8167	-4.8021	-4.2854	29.053	-68.889	-52.140	170.281	111.015	-72.823	199.902	117.796	3.311	150.758	265.361	130.002	102.724	278.020	-12.115	252.720	0.00083873	0.00039927	0.0001326	561.59	5.0934e-06	4.0068e-06	737.82	186.27	1.6969e-06	3.5272e-06	288.75	128.31	72.713	33.718	2.3572e-06	66.764	0.00018112	0.00013652	3.7997e-05	577.47	1.5517e-06	1.5016e-06	758.7	192.65	1.5213e-06	1.5148e-06	298.62	133.11	75.79	35.372	1.4902e-06	69.817	54.455	28.354	22.869	-66.921	72.457	76.113	-67.657	-61.431	86.701	48.628	-62.489	-57.034	-56.466	-50.771	55.958	-52.859	-8191	255	
52882.848	1	1	0	0	0.21814	0.1128	0.081143	0.18333	0.2318	0.21662	0.18985	0.088611	0.26346	0.17949	0.044978	0.20632	0.17581	0.21759	0.1595	0.095791	-4.6687	-4.2958	-4.375	-4.8938	-4.0479	-4.6771	-4.8396	-3.8958	-4.6875	-4.5333	-4.1104	-5.1125	-4.1604	-4.3625	-4.9396	-4.2021	-15.745	144.014	101.823	88.301	123.951	-33.682	185.306	252.323	271.518	113.908	130.210	246.355	-68.491	-23.897	-70.956	161.958	0.0008411	0.00039359	8.7415e-05	559.31	4.9771e-06	4.9047e-06	732.46	186.26	3.7047e-06	4.6126e-06	288.93	127.99	72.948	33.922	3.4001e-06	66.943	0.00018588	0.00013838	3.8883e-05	576.12	1.5522e-06	1.4849e-06	756.5	192.47	1.5441e-06	1.5224e-06	297.87	132.85	75.959	35.567	1.548e-06	69.834	53.488	14.706	-6.079	-67.177	35.774	50.680	-67.254	-61.961	25.211	84.926	-62.632	-57.097	-56.184	-50.990	83.674	-52.695	-8191	255	
52882.941	1	1	0	0	0.13738	0.15172	0.24126	0.18196	0.11402	0.12307	0.24333	0.17691	0.27141	0.14945	0.18026	0.098287	0.14435	0.086156	0.24345	0.31734	-4.5104	-4.6062	-3.8979	-4.95	-4.1958	-4.3521	-5.0375	-4.2458	-4.8271	-4.5625	-4.2167	-5.0208	-4.1896	-4.2333	-4.875	-4.0896	3.359	214.662	200.320	155.135	244.839	163.469	192.845	-15.909	67.310	-47.798	230.375	273.661	97.118	272.476	17.336	213.316	0.00085471	0.00035309	0.00010071	561.49	5.8127e-06	4.4396e-06	736.04	185.57	2.507e-06	5.0526e-06	286.71	127.75	72.572	34.191	3.7452e-06	67.175	0.00018846	0.00013706	3.9664e-05	578.84	1.5109e-06	1.5397e-06	759.1	192.66	1.5689e-06	1.5073e-06	297.21	132.85	76.019	35.729	1.4998e-06	70.078	54.106	8.618	40.827	-67.244	57.133	70.116	-67.510	-61.662	16.962	50.172	-62.110	-57.227	-56.308	-50.745	83.584	-52.699	-8191	255	
52883.039	1	1	0	0	0.1308	0.18348	0.13729	0.032378	0.12635	0.1528	0.049674	0.19474	0.071046	0.18345	0.22656	0.058057	0.21652	0.12899	0.21686	0.32059	-4.3896	-4.7417	-3.9125	-5.0667	-4.3583	-4.2729	-5.0062	-4.1333	-4.6396	-4.5458	-4.0583	-4.9896	-4.5125	-4.2917	-4.8625	-4.1667	208.538	234.669	65.084	257.514	177.389	103.281	165.074	118.091	22.013	105.621	227.068	130.521	188.223	-12.375	224.171	205.244	0.00079928	0.00036768	0.00012638	562.94	4.9888e-06	3.3346e-06	733.86	185.55	3.222e-06	5.0112e-06	286.37	128.05	72.412	33.928	3.5758e-06	67.272	0.00018429	0.0001389	3.8394e-05	578.38	1.5338e-06	1.5006e-06	757.49	192.6	1.5454e-06	1.5238e-06	296.99	132.75	75.664	35.613	1.5437e-06	70.116	45.904	5.322	15.136	-67.132	55.841	65.359	-67.467	-61.878	35.710	58.064	-62.472	-57.039	-56.470	-50.694	81.138	-52.724	-8191	255	
52883.133	1	1	0	0	0.12018	0.09519	0.16341	0.14269	0.10548	0.083472	0.30033	0.12322	0.20684	0.1278	0.12395	0.33677	0.12529	0.10474	0.2047	0.11942	-4.425	-4.8958	-3.9896	-4.9563	-4.4042	-4.1958	-5.1312	-4.2271	-4.4583	-4.7833	-4.1354	-4.9583	-4.6229	-4.0938	-5.0333	-4.3667	127.057	4.628	-68.772	276.169	261.950	206.799	213.015	213.276	207.346	-51.635	132.537	236.293	22.475	270.117	108.833	87.579	0.0008622	0.00039455	7.9177e-05	559.6	4.8502e-06	2.7703e-06	734.86	184.89	3.5343e-06	6.1588e-06	288.14	127.65	72.825	33.89	3.3202e-06	67.052	0.00018456	0.00013985	4.0055e-05	578.39	1.5435e-06	1.5012e-06	758.88	192.39	1.5596e-06	1.493e-06	297.43	132.84	75.786	35.57	1.5653e-06	70.009	56.711	19.553	8.147	-67.184	32.976	71.510	-67.611	-61.758	-6.674	63.570	-62.273	-57.175	-56.398	-50.726	31.075	-52.600	-8191	255	
52883.230	1	1	0	0	0.04454	0.15627	0.15991	0.23141	0.06061	0.072039	0.12702	0.11118	0.17326	0.076464	0.25977	0.1362	0.0090749	0.21787	0.083133	0.014253	-3.9271	-5.0021	-3.9104	-4.575	-4.6687	-4.1792	-5.1	-4.4417	-4.375	-5.0042	-3.9354	-4.6917	-4.8562	-4.0042	-4.7896	-4.5938	146.648	26.250	-7.580	263.939	211.208	276.437	174.773	260.915	40.962	55.942	243.405	-13.123	242.818	262.983	54.534	162.301	0.00087229	0.00042816	8.3419e-05	562.08	3.3641e-06	4.9515e-06	737.79	185.74	3.0952e-06	2.8582e-06	288.47	127.66	72.821	34.077	3.4075e-06	67.124	0.00018794	0.000135	4.0593e-05	578.69	1.5309e-06	1.5151e-06	759.85	192.45	1.5371e-06	1.4703e-06	297.02	132.88	75.976	35.741	1.5389e-06	70.037	59.141	8.549	11.387	-67.175	41.369	76.922	-67.627	-61.756	32.174	101.387	-62.127	-57.325	-56.193	-51.013	59.645	-52.626	-8191	255	
52883.328	1	1	0	0	0.025586	0.054675	0.15679	0.090743	0.1072	0.017407	0.07229	0.23002	0.1141	0.16676	0.13008	0.14916	0.059589	0.23161	0.17544	0.32729	-3.8604	-4.8812	-3.9708	-4.7083	-4.7021	-3.8917	-4.9187	-4.4542	-4.1375	-5.0813	-4.1271	-4.6708	-4.7354	-4.0896	-4.9292	-4.6875	54.387	171.530	-22.125	-35.996	213.179	-45.104	240.312	144.328	-73.182	-55.463	-65.809	193.906	263.623	47.198	169.328	191.658	0.0008407	0.00030095	5.5609e-05	562.22	3.9693e-06	2.4766e-06	736.9	185.77	2.4466e-06	4.4707e-06	283.68	127.89	72.492	34.012	3.8648e-06	66.963	0.00018488	0.00013831	3.7875e-05	577.03	1.5034e-06	1.5011e-06	757.06	191.99	1.5195e-06	1.4828e-06	295.55	132.65	75.776	35.595	1.5511e-06	69.854	55.710	13.408	-18.879	-67.422	32.803	89.658	-67.692	-61.719	62.978	69.952	-62.313	-57.321	-56.247	-50.728	76.015	-52.969	-8191	255	
52883.422	1	1	0	0	0.17613	0.10683	0.025446	0.068246	0.24778	0.1642	0.23234	0.11617	0.27131	0.13836	0.17112	0.12938	0.1092	0.051193	0.23499	0.13864	-3.7542	-5.0333	-4.1458	-4.6062	-4.9062	-3.9896	-4.9833	-4.5458	-4.1646	-4.8688	-4.1896	-4.4042	-4.9229	-4.0729	-4.6875	-4.6542	228.196	260.200	-13.699	230.871	111.777	22.294	179.462	176.612	119.853	0.773	183.086	58.784	208.757	87.327	-41.536	243.612	0.00084086	0.00047489	0.00013222	559.76	4.7907e-06	2.6212e-06	735.43	185.14	3.69e-06	2.7836e-06	286.68	127.24	72.46	34.155	3.2912e-06	67.394	0.00018528	0.00013816	3.9611e-05	576.98	1.5485e-06	1.5295e-06	756.79	191.94	1.5476e-06	1.4807e-06	296.07	132.5	75.799	35.809	1.5599e-06	70.221	55.911	5.664	3.321	-67.254	52.611	85.438	-67.473	-61.624	21.161	57.991	-62.016	-57.185	-56.145	-50.904	88.349	-52.693	-8191	255	
52883.520	1	1	0	0	0.1602	0.0906	0.077142	0.20258	0.091994	0.1267	0.059772	0.087485	0.21257	0.078486	0.14142	0.2094	0.17188	0.18376	0.11141	0.019854	-3.7583	-5.0208	-4.1604	-4.4417	-4.9042	-3.9958	-4.6521	-4.7333	-3.9396	-4.8042	-4.4125	-4.2479	-5.0958	-4.1937	-4.5833	-4.8458	191.950	126.605	70.915	226.499	-21.457	14.551	78.712	243.627	-61.461	176.763	229.104	194.881	-64.249	50.105	267.295	127.650	0.000783	0.00029163	0.0001221	561.6	5.8022e-06	3.0419e-06	736.39	185.28	3.3107e-06	4.4129e-06	285.99	128.16	73.119	34.38	5.4899e-06	67.602	0.00018884	0.00013746	3.9164e-05	577.68	1.4886e-06	1.552e-06	758.17	192.39	1.5487e-06	1.4961e-06	296.06	132.8	76.178	35.921	1.5576e-06	70.468	52.693	3.610	3.717	-67.175	44.228	73.032	-67.664	-61.744	43.127	72.764	-62.167	-57.425	-56.411	-50.709	72.331	-52.465	-8191	255	
52883.613	1	1	0	0	0.3332	0.099552	0.11131	0.12291	0.072197	0.15868	0.14468	0.26957	0.20357	0.36653	0.20573	0.050249	0.14727	0.18597	0.27157	0.1723	-3.7521	-4.8917	-4.5229	-4.3104	-5.0354	-4.0333	-4.6604	-4.9875	-3.9979	-5.025	-4.65	-4.2417	-4.9333	-4.1229	-4.6021	-5.0604	165.440	263.712	-22.885	232.203	274.607	-6.505	-24.977	218.926	119.425	123.650	110.692	-55.468	97.497	-53.914	84.459	-11.742	0.00086443	0.0004691	8.0246e-05	561.14	3.9386e-06	4.4371e-06	738.58	186.39	2.6578e-06	4.901e-06	286.34	127.48	72.79	34.01	3.6073e-06	67.301	0.00018406	0.00013905	3.8548e-05	577.75	1.5414e-06	1.5593e-06	759.97	192.27	1.5442e-06	1.5166e-06	296.51	132.76	75.969	35.677	1.5531e-06	70.149	54.291	1.635	4.248	-67.373	69.142	58.660	-67.510	-61.429	-10.837	70.587	-62.088	-57.243	-56.610	-50.849	69.402	-52.803	-8191	255	
52883.734	1	1	0	0	0.048462	0.20125	0.24714	0.1797	0.06756	0.11784	0.18561	0.13247	0.17306	0.20802	0.29833	0.24181	0.20626	0.0612	0.034565	0.097139	-3.65	-4.8292	-4.5667	-4.1771	-5.0146	-4.3021	-4.4688	-4.7312	-3.9625	-4.9521	-4.7417	-4.0208	-4.9146	-4.25	-4.3042	-5.1375	157.928	160.381	98.271	227.913	27.524	41.288	137.912	-55.441	70.761	-79.440	-34.472	179.228	-35.964	-62.421	174.997	169.975	0.00076587	0.00035432	9.9378e-05	561.44	5.8772e-06	4.2465e-06	733.98	185.3	3.063e-06	3.5663e-06	286.15	127.57	72.509	34.104	1.9076e-06	66.934	0.00019254	0.00013889	3.8019e-05	577.18	1.5001e-06	1.5442e-06	755.4	191.79	1.5429e-06	1.4694e-06	295.08	132.39	75.714	35.772	1.542e-06	69.925	52.979	4.423	1.860	-67.238	37.026	75.678	-67.620	-61.694	53.426	46.156	-62.218	-57.106	-56.341	-50.667	72.094	-52.830	-8191	255	
52883.809	1	1	0	0	0.058589	0.063136	0.19653	0.13119	0.086547	0.053856	0.041217	0.30833	0.13353	0.045001	0.12485	0.36605	0.087253	0.091193	0.24891	0.20936	-3.7938	-4.5667	-4.6062	-4.1438	-4.8833	-4.35	-4.25	-4.95	-3.9104	-4.5896	-4.8667	-4.2167	-5.0042	-4.4479	-4.3083	-5.1375	205.781	219.477	-14.017	153.500	-17.714	72.965	-74.865	188.394	11.339	268.978	87.045	264.519	233.588	-36.597	84.772	-38.038	0.00087136	0.00028022	0.00011055	559.18	3.5769e-06	3.9194e-06	731.51	184.65	4.8062e-06	2.3866e-06	286.07	127.47	72.408	34.109	3.3471e-06	67.081	0.00018723	0.000138	3.7664e-05	576.32	1.4922e-06	1.5078e-06	756.11	191.53	1.5726e-06	1.4696e-06	294.89	132.37	75.768	35.766	1.522e-06	69.977	52.505	12.205	30.771	-67.082	55.537	89.362	-67.736	-61.445	55.867	57.521	-61.976	-57.056	-56.326	-51.064	60.858	-52.695	-8191	255	
52883.926	1	1	0	0	0.041483	0.09445	0.24326	0.22746	0.13612	0.13333	0.19548	0.10537	0.19587	0.060056	0.031716	0.3172	0.15982	0.08109	0.05	0.15649	-3.8187	-4.55	-4.6438	-4.0958	-4.9104	-4.6	-4.2854	-5.0479	-4.1646	-4.2896	-4.9479	-4.2	-4.7771	-4.6208	-4.1667	-5.1667	91.661	10.131	-15.402	201.041	1.455	260.934	215.416	83.902	69.521	107.959	103.664	-54.212	-31.278	130.225	202.921	-42.109	0.00076913	0.00037239	0.00014775	559.4	5.0846e-06	3.9009e-06	736.22	185.38	4.7599e-06	2.7021e-06	284.92	127.65	72.719	34.282	3.0684e-06	67.198	0.0001863	0.00013823	3.6689e-05	577.22	1.5194e-06	1.5116e-06	757.86	192.3	1.5418e-06	1.4943e-06	295.3	132.53	75.893	35.792	1.5412e-06	70.085	47.544	-9.585	17.922	-67.437	45.173	77.389	-67.637	-61.640	27.249	86.241	-62.225	-57.595	-56.422	-50.895	90.427	-52.762	-8191	255	
52884.023	1	1	0	0	0.14339	0.13856	0.28424	0.22839	0.057614	0.079266	0.18528	0.10177	0.042747	0.053491	0.22811	0.20401	0.092253	0.080259	0.3016	0.18567	-3.9792	-4.4042	-4.9083	-4.1	-4.7708	-4.7396	-4.1625	-4.8417	-4.3625	-4.3833	-4.9104	-4.1542	-4.7125	-4.7688	-4.2125	-4.9917	183.146	-30.117	-30.851	202.603	249.407	70.448	255.006	57.404	171.862	117.613	-54.784	239.628	-46.614	120.743	35.923	214.442	0.00086602	0.00040672	4.9588e-05	560.91	4.2259e-06	2.8976e-06	735.56	185.76	2.92e-06	4.4901e-06	285.9	128.02	72.793	34.129	4.0941e-06	67.595	0.00018489	0.00013911	3.717e-05	578.52	1.5321e-06	1.4643e-06	759.99	192.51	1.5882e-06	1.4666e-06	295.88	133.02	76.089	35.839	1.5363e-06	70.459	58.804	14.436	-48.453	-67.055	67.488	72.973	-67.212	-61.634	34.576	62.858	-62.178	-57.288	-56.411	-50.680	57.343	-52.648	-8191	255	
52884.117	1	1	0	0	0.17406	0.10984	0.088756	0.15343	0.16608	0.10659	0.036594	0.14186	0.18143	0.18184	0.12089	0.076896	0.081051	0.10756	0.099279	0.13878	-4.0813	-4.2104	-5.0062	-4.1312	-4.5938	-4.8167	-4.0521	-5.0437	-4.3167	-4.1229	-4.9667	-4.075	-4.4563	-4.7292	-3.9521	-4.9458	3.914	229.247	-31.917	-34.268	20.790	179.965	178.696	99.975	-78.970	39.410	262.115	7.852	189.141	275.669	-77.018	265.177	0.00076859	0.00037524	4.5263e-05	560.55	5.0986e-06	3.6033e-06	737.41	185.09	4.105e-06	3.4745e-06	286.37	127.92	72.998	34.181	3.6202e-06	67.258	0.00018587	0.00013825	3.9254e-05	578.13	1.5219e-06	1.451e-06	759.07	192.06	1.5413e-06	1.5007e-06	295.9	132.59	75.909	35.778	1.5858e-06	70.025	49.072	18.564	41.364	-67.187	35.937	89.200	-67.420	-61.699	18.090	73.014	-62.465	-57.308	-56.501	-50.899	71.008	-52.764	-8191	255	
52884.215	1	1	0	0	0.28688	0.16993	0.35464	0.03989	0.21108	0.10991	0.057702	0.034905	0.18624	0.17721	0.055898	0.1706	0.079596	0.15772	0.048857	0.074675	-4.225	-4.1687	-5.0625	-4.2438	-4.3187	-4.8167	-4.0833	-4.7958	-4.6208	-4.0646	-5.1708	-4.25	-4.5021	-4.9521	-3.9813	-4.8938	76.931	62.510	273.319	169.255	270.716	24.122	198.854	5.688	159.585	-14.187	187.743	-2.913	-43.239	-58.432	149.414	159.076	0.00084047	0.0003946	7.5025e-05	560.23	5.049e-06	2.9855e-06	736.58	185.63	3.9324e-06	2.8976e-06	285.98	127.25	72.818	34.168	3.8331e-06	67.161	0.00018833	0.00013974	3.8868e-05	577.42	1.5687e-06	1.4366e-06	757.4	192.16	1.4763e-06	1.5019e-06	294.99	132.05	75.871	35.81	1.5637e-06	69.96	57.836	3.266	27.096	-67.181	48.078	73.849	-67.572	-61.644	37.349	83.028	-62.169	-57.137	-56.434	-50.767	37.653	-52.530	-8191	255	
52884.336	1	1	0	0	0.13388	0.1716	0.13474	0.14146	0.21997	0.24846	0.19343	0.057772	0.10191	0.13747	0.080926	0.079537	0.095131	0.063586	0.10253	0.029079	-4.2063	-4.1354	-5.0833	-4.3896	-4.2854	-4.9667	-4.1479	-4.7354	-4.7604	-3.8896	-5	-4.3917	-4.2604	-5.0667	-4.1542	-4.65	-50.105	-78.520	143.704	193.804	91.886	105.457	221.009	156.698	-43.040	251.974	230.879	185.292	-46.098	-33.382	247.578	21.041	0.00068689	0.0002889	9.3028e-05	559.42	4.4635e-06	2.7124e-06	732.15	185.53	1.1929e-06	4.2995e-06	285.38	127.7	72.604	34.195	3.5413e-06	66.678	0.00018248	0.00013801	3.8846e-05	576.69	1.5135e-06	1.5151e-06	756.97	192.24	1.5011e-06	1.5137e-06	295.22	132.47	75.935	35.842	1.5493e-06	70.006	61.269	12.948	17.574	-67.392	49.132	71.516	-67.542	-62.013	-29.085	71.483	-62.326	-57.391	-56.842	-50.778	68.525	-52.770	-8191	255	
52884.406	1	1	0	0	0.19048	0.051762	0.10127	0.20622	0.14789	0.3063	0.1759	0.090338	0.060661	0.15674	0.1826	0.09071	0.11039	0.20206	0.11901	0.20002	-4.5542	-3.8917	-4.8875	-4.5542	-4.15	-5.0521	-4.1438	-4.4896	-4.7083	-4.2167	-4.9125	-4.5625	-4.0167	-5.0437	-4.0437	-4.5146	231.368	172.882	222.065	193.407	48.490	230.616	-73.365	136.610	150.953	151.433	250.625	227.883	87.737	-76.637	89.017	169.875	0.00080535	0.00033582	8.5322e-05	560.95	5.0528e-06	3.9378e-06	736.99	185.77	3.4817e-06	5.4627e-06	286.57	127.25	72.874	34.323	4.9228e-06	67.393	0.0001824	0.00014003	3.9049e-05	577.48	1.5054e-06	1.4681e-06	758.16	192.37	1.5424e-06	1.5183e-06	296.53	132.67	76.038	35.866	1.5793e-06	70.315	46.965	15.035	24.384	-67.278	45.602	38.473	-67.491	-61.771	17.734	95.560	-62.079	-57.047	-56.366	-50.593	83.368	-52.754	-8191	255	
52884.527	1	1	0	0	0.10424	0.13592	0.23221	0.16448	0.11087	0.10777	0.094789	0.10149	0.19337	0.018787	0.20888	0.07365	0.058591	0.18679	0.12883	0.10825	-4.625	-4.0021	-4.6833	-4.6354	-3.9771	-5.0104	-4.3917	-4.3771	-4.9375	-4.0104	-4.8458	-4.825	-4.2625	-5.1042	-4.3208	-4.4187	124.557	225.493	-62.565	276.315	-61.962	-65.166	261.102	187.529	263.470	274.354	-25.397	40.836	45.846	98.872	7.675	-42.284	0.00088379	0.00039862	0.00010614	560.83	2.3943e-06	3.9689e-06	735.56	185.84	6.2169e-06	2.9564e-06	287.62	128.32	73.352	34.338	4.1034e-06	67.258	0.00018467	0.00013949	3.8819e-05	579.8	1.5206e-06	1.4754e-06	758.18	192.53	1.5476e-06	1.5349e-06	296.71	132.97	76.247	35.921	1.5335e-06	70.244	49.218	29.616	-11.195	-67.006	23.756	75.331	-67.606	-62.021	26.824	97.772	-62.125	-56.975	-56.581	-50.908	102.694	-52.806	-8191	255	
52884.625	1	1	0	0	0.27696	0.18423	0.13959	0.23732	0.2568	0.092747	0.20497	0.17516	0.12297	0.091766	0.081807	0.32456	0.17276	0.32307	0.13811	0.03051	-4.6958	-4.1062	-4.6271	-4.7292	-4.1083	-4.9875	-4.5917	-4.2375	-4.9896	-4.1521	-4.6229	-4.7979	-3.9188	-5.1188	-4.2542	-4.2875	184.390	23.593	241.371	220.258	228.509	95.020	-65.119	190.846	140.957	56.925	205.988	258.572	273.268	202.177	32.212	-47.177	0.00077916	0.00045331	0.00011167	564.12	4.3481e-06	3.6798e-06	732.65	185.73	4.9636e-06	3.7219e-06	286.56	127.76	73.1	34.178	3.337e-06	67.411	0.00018385	0.00014248	3.874e-05	578.88	1.548e-06	1.4598e-06	757.41	192.37	1.5521e-06	1.5432e-06	296.07	132.64	76.133	35.922	1.5225e-06	70.26	51.054	22.184	30.149	-67.149	19.344	76.855	-67.358	-61.691	56.154	60.729	-62.161	-56.919	-56.510	-50.706	95.176	-52.755	-8191	255	
52884.719	1	1	0	0	0.18097	0.16774	0.24756	0.16255	0.064569	0.14405	0.17037	0.21406	0.038812	0.037726	0.18974	0.23891	0.048323	0.079347	0.054608	0.10335	-4.7417	-4.2396	-4.4792	-4.9875	-4.0042	-4.9396	-4.4812	-4.1312	-4.9979	-4.3688	-4.6354	-4.9479	-4.1104	-4.8417	-4.5813	-4.2188	122.742	-66.873	58.667	254.934	-14.212	189.130	176.277	160.070	204.680	276.004	234.727	273.446	-22.963	-37.290	38.010	246.726	0.00081413	0.00039635	6.5419e-05	560.16	5.2638e-06	3.5301e-06	736.45	186.21	1.8996e-06	4.8282e-06	286.25	128.68	73.469	34.449	4.3671e-06	67.557	0.00018682	0.00014038	3.8612e-05	578.46	1.5368e-06	1.4864e-06	759.34	192.7	1.5234e-06	1.5282e-06	296.04	133.02	76.388	36.047	1.5467e-06	70.355	52.257	36.069	15.600	-67.123	47.647	79.490	-67.297	-61.832	17.225	74.858	-62.312	-57.391	-56.608	-50.853	55.182	-52.756	-8191	255	
52884.812	1	1	0	0	0.12902	0.12191	0.15086	0.12434	0.30859	0.16204	0.080663	0.2798	0.15374	0.15861	0.26189	0.28217	0.13818	0.10193	0.068626	0.19664	-4.775	-4.1167	-4.3729	-5.1125	-3.9667	-4.8854	-4.8667	-4.3354	-4.9771	-4.275	-4.5542	-5.1021	-4.1146	-4.925	-4.8167	-4.2979	0.533	124.286	59.790	248.192	-79.647	-39.134	79.760	269.649	-70.405	242.028	228.057	239.593	-35.252	254.497	203.160	182.394	0.00089763	0.00026398	7.8091e-05	563.95	5.6949e-06	3.0751e-06	737.63	186.88	3.8392e-06	2.0646e-06	286.02	127.47	73.43	34.224	1.6199e-06	67.438	0.00018197	0.00013798	3.889e-05	579.76	1.5845e-06	1.4757e-06	760.7	193.07	1.5229e-06	1.5044e-06	296.36	132.95	76.457	35.921	1.5179e-06	70.478	48.566	4.475	10.117	-67.277	12.689	81.698	-67.504	-61.938	48.043	75.887	-62.225	-57.236	-56.536	-50.863	36.371	-52.878	-8191	255	
52884.910	1	1	0	0	0.063095	0.15111	0.16395	0.18049	0.24132	0.14213	0.13714	0.11526	0.18566	0.15417	0.23463	0.29811	0.22398	0.16583	0.26016	0.20923	-4.6833	-4.3042	-4.4021	-5.1021	-4.0667	-4.6188	-5.025	-4.1667	-4.8688	-4.525	-4.2667	-5.0271	-4.2438	-4.5229	-4.95	-4.1458	13.560	180.264	197.263	33.346	-74.693	164.018	233.815	207.229	94.038	-65.286	277.094	250.838	-77.739	194.946	-56.018	182.073	0.00082954	0.00028044	8.2421e-05	561.86	3.3809e-06	1.4822e-06	738.02	185.83	3.3686e-06	4.3612e-06	287.73	128.23	73.658	34.414	4.3657e-06	67.578	0.00018484	0.00013756	3.803e-05	579.51	1.5418e-06	1.4994e-06	762.07	193.18	1.5224e-06	1.4644e-06	297.05	133.22	76.602	36.062	1.5328e-06	70.603	53.703	15.995	12.637	-67.334	72.240	17.977	-67.564	-61.618	54.207	63.034	-62.299	-57.382	-56.367	-50.483	65.678	-52.894	-8191	255	
52885.031	1	1	0	0	0.093136	0.11604	0.08889	0.082775	0.11469	0.086119	0.24904	0.087589	0.25258	0.21598	0.15175	0.030052	0.11303	0.22673	0.3228	0.13864	-4.6229	-4.4729	-4.0292	-5.0917	-4.2792	-4.425	-5.0042	-4.1104	-4.8562	-4.4729	-4.2021	-5.1292	-4.3229	-4.3417	-5.0375	-4.0458	197.056	64.853	158.601	54.005	213.043	249.697	105.247	212.678	-61.359	-14.620	215.625	17.054	46.578	-54.332	224.777	156.508	0.0007624	0.00045174	0.00016048	562.97	2.8751e-06	3.6269e-06	737.11	186.65	2.7715e-06	4.6619e-06	285.9	127.68	73.399	34.245	4.3756e-06	67.165	0.00018763	0.00013744	3.923e-05	580.48	1.5573e-06	1.4987e-06	760.8	192.98	1.5344e-06	1.4793e-06	296.67	132.83	76.45	35.961	1.5403e-06	70.253	52.384	-25.141	18.828	-66.950	47.647	60.392	-67.468	-62.114	75.744	91.925	-62.323	-57.229	-56.203	-51.100	56.799	-52.653	-8191	255	
52885.102	1	1	0	0	0.18095	0.040054	0.063259	0.13298	0.1158	0.12997	0.068033	0.16764	0.097019	0.16673	0.079165	0.11753	0.14309	0.32071	0.024473	0.038365	-4.4625	-4.7208	-4.1146	-5.1375	-4.25	-4.2417	-5.1271	-4.1125	-4.6146	-4.6729	-4.1958	-5.0188	-4.6146	-4.1271	-4.9458	-4.0458	-62.308	-15.868	144.494	186.326	73.188	-45.004	11.669	115.442	-18.759	13.594	43.807	252.111	176.852	-18.300	255.981	73.716	0.00089613	0.00026616	7.123e-05	563.36	4.4216e-06	3.4121e-06	741.41	185.92	4.1588e-06	4.3799e-06	286.13	128.33	73.217	34.559	4.0706e-06	67.518	0.00018569	0.00013858	3.8147e-05	580.8	1.5191e-06	1.5023e-06	761.83	193.09	1.5211e-06	1.446e-06	296.19	133.01	76.431	36.031	1.5368e-06	70.271	51.894	14.276	7.787	-67.134	60.520	51.036	-67.483	-61.323	20.111	65.057	-62.207	-57.140	-56.235	-50.899	71.448	-52.608	-8191	255	
52885.199	1	1	0	0	0.17369	0.12158	0.12321	0.25149	0.17562	0.19639	0.11767	0.15358	0.17077	0.092333	0.099271	0.011932	0.13391	0.11996	0.3384	0.17774	-4.3979	-4.7417	-4.0667	-5.0188	-4.3708	-4.225	-5.1438	-4.2667	-4.5813	-4.8938	-4.1062	-4.9417	-4.4333	-4.2625	-5.1271	-4.1687	-31.658	-79.088	251.490	-75.401	71.725	-44.645	214.616	240.615	255.998	123.647	-51.031	-26.060	221.750	129.336	185.307	220.060	0.00078742	0.00030486	9.5771e-05	562.69	4.3979e-06	4.1171e-06	738.46	185.41	2.379e-06	3.7534e-06	285.78	128.79	73.093	34.408	3.1604e-06	67.871	0.00018535	0.00013661	3.9252e-05	580.89	1.5347e-06	1.5312e-06	761.42	193.22	1.5272e-06	1.4808e-06	296.7	133.23	76.435	36.074	1.5639e-06	70.58	45.459	24.957	12.491	-67.137	42.548	62.087	-67.564	-61.464	36.952	55.223	-62.206	-57.151	-56.219	-51.055	51.876	-52.671	-8191	255	
52885.297	1	1	0	0	0.18429	9.4497e-05	0.057594	0.20771	0.050339	0.13766	0.21817	0.14551	0.024194	0.085586	0.23227	0.03578	0.052933	0.23001	0.17573	0.13839	-3.9146	-4.8667	-3.8479	-4.8	-4.6208	-4.1458	-5.1	-4.3542	-4.3208	-4.8646	-4.0125	-4.9729	-4.6937	-4.1	-5.0021	-4.4125	83.650	180.000	97.872	190.337	42.669	38.353	-43.641	-17.627	-47.602	164.931	194.948	61.906	17.955	159.456	107.970	208.770	0.00096181	0.00029666	8.7462e-05	562.72	3.5949e-06	3.3833e-06	742.11	186.34	3.3396e-06	4.206e-06	287.42	127.99	73.592	34.496	2.3784e-06	68.069	0.00018693	0.00013944	4.0218e-05	580.26	1.5292e-06	1.5203e-06	761.69	193	1.5326e-06	1.4767e-06	296.83	133.15	76.647	36.089	1.5445e-06	70.677	47.185	17.110	22.895	-67.304	6.695	45.740	-67.460	-61.754	30.997	45.533	-62.120	-57.324	-56.441	-50.883	52.361	-52.601	-8191	255	
52885.414	1	1	0	0	0.14241	0.14125	0.072302	0.078669	0.15061	0.17037	0.28078	0.13495	0.11852	0.13371	0.20701	0.15515	0.12361	0.1231	0.012052	0.048894	-3.925	-5.0125	-3.9104	-4.8021	-4.575	-4.1438	-4.9458	-4.275	-4.2021	-4.9104	-4.025	-4.6354	-4.8187	-3.9875	-5.0083	-4.45	0.452	-35.242	170.376	119.612	170.509	206.991	-66.487	211.769	18.445	70.087	213.989	276.705	249.239	235.887	7.766	199.551	0.00078215	0.00026953	9.2792e-05	560.96	3.0497e-06	3.6682e-06	738.69	186.06	3.9415e-06	5.0147e-06	287.36	128.65	73.696	34.532	4.4371e-06	67.638	0.00018725	0.00013959	4.0213e-05	580.67	1.5386e-06	1.523e-06	760.75	192.94	1.5632e-06	1.5051e-06	296.97	133.33	76.634	36.106	1.529e-06	70.586	54.234	24.098	-2.099	-67.148	54.884	65.651	-67.436	-61.565	18.082	55.630	-62.159	-57.401	-56.059	-50.741	65.509	-52.782	-8191	255	
52885.512	1	1	0	0	0.075738	0.24587	0.10185	0.1081	0.21999	0.11436	0.2359	0.10997	0.11283	0.22698	0.099362	0.084347	0.19944	0.21995	0.19054	0.089952	-3.975	-4.85	-4.1333	-4.5437	-4.7021	-3.9771	-4.9583	-4.6229	-4.0125	-5.1375	-4.3812	-4.5354	-4.8333	-4.0312	-4.7521	-4.5083	42.896	186.071	151.248	147.125	248.563	173.222	231.276	205.681	22.927	215.581	246.373	250.188	-30.738	88.971	129.624	96.825	0.00090536	0.00035355	9.6093e-05	564.14	3.9416e-06	4.1801e-06	740.1	186.02	2.7079e-06	4.0622e-06	288.02	128.27	73.539	34.408	1.9557e-06	67.575	0.00018901	0.00014044	3.9256e-05	581.04	1.5318e-06	1.5256e-06	763.27	193.11	1.575e-06	1.4601e-06	297.02	133.29	76.668	36.119	1.5333e-06	70.544	52.100	8.202	7.872	-67.497	36.094	99.173	-67.593	-61.648	1.602	108.652	-62.265	-57.290	-56.355	-50.925	48.751	-52.722	-8191	255	
52885.609	1	1	0	0	0.050998	0.15612	0.31139	0.168	0.17719	0.045763	0.058098	0.097538	0.10419	0.29493	0.16115	0.19968	0.24623	0.16279	0.090178	0.19563	-3.9062	-4.8938	-4.3396	-4.5125	-4.7583	-4.0729	-4.975	-4.6542	-4.05	-5.125	-4.25	-4.5292	-5.0854	-3.9958	-4.6687	-4.8333	192.963	-38.953	175.312	-75.559	143.765	-47.105	187.587	142.304	124.395	-67.861	232.106	166.767	277.350	222.783	123.419	176.776	0.00085928	0.00049822	0.00013499	563.13	5.0195e-06	4.189e-06	739.88	186.02	4.7055e-06	3.9945e-06	286.86	129.22	73.473	34.617	4.2435e-06	67.527	0.00018899	0.00013664	3.9358e-05	581.03	1.5591e-06	1.5574e-06	761.59	193.37	1.5366e-06	1.5126e-06	296.68	133.59	76.681	36.182	1.5446e-06	70.538	53.542	13.944	18.067	-67.452	48.632	70.063	-67.467	-61.557	58.895	29.891	-62.333	-57.377	-56.327	-50.954	63.268	-52.752	-8191	255	
52885.703	1	1	0	0	0.11939	0.074912	0.23745	0.096537	0.058783	0.2272	0.14602	0.022602	0.16035	0.17465	0.23328	0.0079521	0.036721	0.064873	0.048588	0.076029	-3.8625	-5.0271	-4.325	-4.3708	-4.9792	-4.1167	-4.6458	-4.8604	-4.2354	-4.8667	-4.5729	-4.375	-5.1208	-4.2188	-4.4688	-4.8833	74.720	191.976	-63.886	193.756	156.408	136.767	223.557	13.370	75.273	243.450	240.569	262.518	199.886	172.046	157.603	219.092	0.00097834	0.0002756	0.00012391	564.89	5.0759e-06	2.2715e-06	740.77	186.61	3.0141e-06	3.513e-06	286.67	128.74	74.037	34.744	3.5505e-06	67.773	0.00019114	0.00013716	3.8398e-05	581.83	1.5475e-06	1.5759e-06	764.56	193.69	1.5644e-06	1.4846e-06	297.26	133.64	76.936	36.311	1.6092e-06	70.902	51.223	-4.556	21.652	-67.263	24.285	61.074	-67.646	-61.763	50.999	22.157	-62.137	-57.297	-56.443	-50.597	70.520	-52.552	-8191	255	
52885.801	1	1	0	0	0.068582	0.078697	0.19609	0.1538	0.217	0.16661	0.27028	0.11846	0.12883	0.20786	0.070437	0.24918	0.27404	0.016092	0.22088	0.2081	-3.6917	-4.875	-4.4646	-4.1396	-4.85	-4.0979	-4.6333	-4.9583	-4.0958	-4.9042	-4.6708	-4.1604	-5.0125	-4.3792	-4.3875	-5.075	100.487	0.364	127.219	221.435	-56.708	276.508	249.791	158.066	28.497	250.076	237.334	213.991	169.770	234.859	48.395	195.285	0.00092199	0.00039829	0.00013855	566	5.5206e-06	4.9933e-06	741.78	187.27	4.5811e-06	4.3473e-06	289.16	128.64	73.477	34.435	3.4844e-06	67.867	0.00018916	0.00013387	3.8343e-05	582.1	1.5206e-06	1.5441e-06	765.02	193.97	1.5699e-06	1.5043e-06	298.04	133.61	76.687	36.167	1.5699e-06	70.689	47.950	55.893	18.373	-67.287	41.617	72.439	-67.434	-61.495	40.497	80.397	-62.160	-57.072	-56.158	-50.658	61.638	-52.792	-8191	255	
52885.895	1	1	0	0	0.1553	0.088392	0.31942	0.068935	0.14687	0.11499	0.18619	0.070291	0.093703	0.086126	0.034232	0.16446	0.25594	0.067156	0.17737	0.02756	-3.7	-4.5875	-4.6333	-4.1438	-4.9083	-4.2479	-4.5375	-4.9875	-4.1167	-4.6667	-4.8292	-4.15	-4.9313	-4.4208	-4.1813	-5.0896	64.430	71.984	275.449	66.394	-29.901	54.613	128.537	-32.248	228.122	218.419	180.651	149.844	-41.953	-74.512	158.624	-78.961	0.00085217	0.00026763	0.00014142	563.95	5.1168e-06	4.3466e-06	739.08	186.4	4.3377e-06	5.3422e-06	287.68	128.08	73.755	34.414	3.9862e-06	67.694	0.0001895	0.0001363	3.9503e-05	581.93	1.5296e-06	1.5006e-06	762.36	193.49	1.5448e-06	1.4988e-06	297.08	132.98	76.733	36.136	1.5759e-06	70.557	58.342	2.590	35.164	-67.112	49.665	80.653	-67.464	-61.665	40.064	56.036	-62.105	-57.285	-56.352	-51.090	73.213	-52.678	-8191	255	
52886.016	1	1	0	0	0.15378	0.22165	0.044022	0.18499	0.22668	0.23076	0.21254	0.28685	0.17099	0.086668	0.096286	0.23598	0.20076	0.32998	0.081173	0.17014	-3.8	-4.5917	-4.7	-4.1708	-5.0021	-4.45	-4.4167	-5.0729	-4.1771	-4.6062	-4.9271	-4.2458	-4.9167	-4.6396	-4.15	-5.1229	155.300	89.149	-41.261	-36.093	163.984	175.773	144.227	31.111	135.701	-24.922	65.314	229.787	242.212	259.602	228.241	218.491	0.00084255	0.00033951	5.9647e-05	567.45	7.6295e-06	2.8326e-06	740.71	186.27	4.4237e-06	2.9096e-06	285.14	128.07	73.158	34.428	2.2392e-06	67.421	0.00018439	0.00013953	3.8956e-05	581.98	1.5194e-06	1.5158e-06	761.64	193.26	1.567e-06	1.4841e-06	296.57	132.96	76.526	36.069	1.5699e-06	70.295	57.521	21.370	-15.308	-67.156	54.278	88.855	-67.490	-61.715	57.543	91.835	-62.165	-57.334	-56.721	-50.689	42.288	-52.732	-8191	255	
52886.109	1	1	0	0	0.2317	0.29942	0.14301	0.33313	0.087315	0.08704	0.18314	0.043246	0.043857	0.15088	0.17463	0.066778	0.13877	0.082225	0.021388	0.087451	-3.925	-4.4542	-4.8063	-4.1333	-4.8833	-4.4917	-4.0979	-5.0604	-4.1438	-4.3313	-4.9521	-4.1062	-4.8604	-4.8354	-4.1542	-5.0917	114.080	-4.508	169.856	201.126	32.549	274.543	151.578	223.130	68.137	34.105	-27.426	150.632	7.560	85.835	249.248	239.155	0.00079091	0.00029446	0.00010442	567.39	2.9086e-06	4.0601e-06	737.94	186.11	3.4132e-06	3.722e-06	286.89	128.14	73.479	34.416	4.3718e-06	67.81	0.00018503	0.00014073	3.8912e-05	581.01	1.5134e-06	1.5205e-06	762.04	193.27	1.5246e-06	1.5127e-06	296.96	133.1	76.602	36.092	1.6147e-06	70.64	57.273	15.547	14.309	-67.395	6.372	96.193	-67.830	-61.747	18.553	82.906	-62.328	-57.270	-56.440	-50.695	88.293	-52.860	-8191	255	
52886.207	1	1	0	0	0.097733	0.11307	0.13938	0.17832	0.067034	0.15824	0.3069	0.2208	0.15833	0.082997	0.12404	0.15307	0.18243	0.047921	0.1189	0.29478	-3.9042	-4.3438	-5.025	-4.1208	-4.5875	-4.6229	-4.0646	-5.0792	-4.375	-4.275	-5.0125	-4.1062	-4.7896	-4.8229	-4.0167	-4.9625	-4.105	219.578	256.261	21.484	-2.838	28.798	199.020	190.349	83.326	279.285	-24.437	261.828	263.533	187.928	178.049	239.735	0.00081291	0.00035173	0.00010752	565.76	5.6047e-06	3.3419e-06	741.67	186.78	5.4507e-06	5.2224e-06	288.53	128.08	73.068	34.689	1.9678e-06	68.02	0.00018455	0.000142	3.9126e-05	581.76	1.5608e-06	1.5359e-06	765.26	193.42	1.5556e-06	1.5513e-06	297.4	133.17	76.613	36.315	1.5982e-06	70.934	53.132	17.819	15.017	-67.295	16.118	58.765	-67.580	-61.692	41.147	56.885	-62.159	-57.268	-56.336	-51.044	70.824	-52.721	-8191	255	
52886.328	1	1	0	0	0.11709	0.22005	0.1541	0.21127	0.096895	0.24188	0.23529	0.035146	0.21859	0.081949	0.17193	0.2104	0.17038	0.18063	0.1076	0.082115	-4.1333	-4.1167	-5.0938	-4.1687	-4.5375	-4.9292	-4.1792	-5.0208	-4.55	-4.1333	-5.0604	-4.2604	-4.5875	-4.95	-4.0271	-5.1	0.640	151.182	172.966	252.839	129.452	153.751	250.490	12.292	149.566	9.321	203.542	-1.897	-69.687	226.133	239.302	136.359	0.00082704	0.00036905	0.00010261	563.57	4.4952e-06	2.0669e-06	738.25	186.2	4.1763e-06	2.0878e-06	286.59	128.01	73.613	34.752	4.6799e-06	68.023	0.00018774	0.00014224	3.8451e-05	581.8	1.5406e-06	1.5088e-06	762.08	193.34	1.5871e-06	1.5301e-06	295.81	133.03	76.691	36.308	1.5863e-06	70.746	55.233	33.004	38.011	-66.993	34.096	64.860	-67.570	-61.517	15.523	47.048	-62.083	-57.409	-56.201	-50.940	53.043	-52.555	-8191	255	
52886.398	1	1	0	0	0.12302	0.13986	0.086807	0.2247	0.10493	0.2684	0.19822	0.13423	0.16474	0.10417	0.10263	0.061628	0.086495	0.14636	0.17718	0.3561	-4.2333	-4.1271	-4.9896	-4.2271	-4.2771	-4.9167	-4.1542	-4.8479	-4.6208	-4.0854	-5.1167	-4.3583	-4.4062	-5.0687	-4.2333	-4.8458	276.742	68.646	-31.719	268.456	221.371	-41.079	204.360	80.508	115.138	16.313	208.638	226.879	226.403	20.844	-58.243	256.036	0.0008625	0.00033711	0.00012467	565.29	5.6548e-06	2.753e-06	734.72	185.26	5.9851e-06	3.6514e-06	285.67	128.36	73.409	34.709	3.9679e-06	68.193	0.00018661	0.00013842	3.8903e-05	581.86	1.5477e-06	1.4796e-06	761.76	192.82	1.556e-06	1.5609e-06	296.18	133.19	76.763	36.335	1.5358e-06	70.977	52.411	10.771	17.366	-67.253	69.955	51.823	-67.434	-61.407	32.889	43.467	-62.161	-57.041	-56.268	-50.878	23.249	-52.808	-8191	255	
52886.496	1	1	0	0	0.10656	0.15347	0.068522	0.24954	0.17469	0.044491	0.097275	0.051239	0.19441	0.23166	0.2217	0.24011	0.3009	0.1951	0.059426	0.21816	-4.3604	-4.0875	-4.8708	-4.5625	-4.2104	-5.0437	-4.2438	-4.7292	-4.7729	-4.175	-5.0083	-4.5563	-4.3208	-5.0354	-4.2	-4.7021	164.053	224.963	179.800	229.480	214.326	55.395	-15.848	260.577	225.727	-24.273	265.171	0.355	272.399	269.198	70.121	270.315	0.00085994	0.00035126	0.00014301	567.05	2.7798e-06	3.0799e-06	736.53	186.11	4.1081e-06	6.0888e-06	286.72	128.59	73.888	34.736	7.8737e-07	67.881	0.00018428	0.00014234	3.9053e-05	582.39	1.5459e-06	1.5053e-06	762.32	192.95	1.5628e-06	1.57e-06	296.32	133.45	76.894	36.338	1.5863e-06	71.034	63.595	-2.162	7.243	-66.964	23.282	79.745	-67.389	-61.727	6.739	60.695	-62.176	-57.121	-56.362	-50.946	31.898	-52.868	-8191	255	
52886.594	1	1	0	0	0.15142	0.096289	0.15523	0.14969	0.072475	0.07312	0.3297	0.27527	0.11585	0.21578	0.024266	0.19979	0.058327	0.11492	0.15462	0.14313	-4.5813	-3.8167	-4.8396	-4.5687	-4.2104	-4.9187	-4.3958	-4.5229	-4.8896	-4.0792	-4.9292	-4.7937	-4.2521	-5.0312	-4.3187	-4.4792	269.237	16.919	-65.940	-73.560	-43.871	168.372	183.531	150.222	19.060	129.742	92.918	132.295	-37.384	233.814	133.628	269.144	0.00086968	0.00027923	0.00011003	564.5	2.9191e-06	2.7964e-06	740.57	186.58	4.3175e-06	3.3108e-06	286.2	128.86	73.431	34.61	2.8383e-06	68.205	0.00018707	0.00014228	3.9155e-05	581.33	1.5828e-06	1.5498e-06	762.2	193.29	1.5224e-06	1.5277e-06	296.4	133.65	76.745	36.321	1.5665e-06	71.061	53.434	26.646	0.482	-67.295	42.288	42.522	-67.446	-61.624	11.880	106.973	-62.206	-57.215	-56.427	-50.647	65.552	-52.769	-8191	255	
52886.711	1	1	0	0	0.28898	0.05894	0.04546	0.12333	0.028816	0.057689	0.17794	0.083836	0.12603	0.15017	0.048252	0.11312	0.13341	0.065314	0.16465	0.13504	-4.4354	-4.0062	-4.6896	-4.6104	-4.0687	-5.0354	-4.5167	-4.2896	-4.9833	-4.025	-4.9354	-4.8417	-4.1	-5.1042	-4.4083	-4.3688	245.319	-49.016	250.588	177.964	-46.785	27.132	263.705	-44.956	40.007	90.728	228.856	209.078	133.571	-40.325	233.105	172.680	0.00086363	0.00038297	0.00011276	563.29	3.8163e-06	4.9946e-06	736.52	186.93	4.386e-06	6.3118e-06	286.84	128.78	73.561	34.627	5.0432e-06	67.834	0.00018724	0.00014226	3.8718e-05	579.7	1.5605e-06	1.4918e-06	760.1	193.21	1.5567e-06	1.5351e-06	296.48	133.4	76.83	36.316	1.554e-06	70.882	57.100	-0.970	-0.590	-67.089	58.606	75.760	-67.622	-61.374	42.768	85.797	-62.073	-57.211	-56.168	-50.727	38.508	-52.877	-8191	255	
52886.809	1	1	0	0	0.064306	0.21345	0.18926	0.23232	0.14035	0.096333	0.017258	0.049158	0.075991	0.27594	0.22655	0.099326	0.09076	0.27851	0.10068	0.16408	-4.675	-4.1125	-4.6312	-4.6729	-4.2229	-5.0208	-4.7312	-4.3542	-5.0333	-4.2312	-4.6979	-5.0979	-4.1542	-5.0271	-4.4917	-4.2396	258.769	96.506	72.907	262.692	181.255	39.804	43.402	233.112	161.379	44.416	244.106	-27.249	-62.257	274.512	-10.178	273.911	0.00084271	0.0005658	0.00013426	559.69	3.5181e-06	3.5045e-06	735.3	186.12	3.0206e-06	4.8253e-06	286.1	128.42	73.956	34.633	3.1409e-06	67.741	0.00018937	0.00014157	3.8976e-05	578.38	1.6031e-06	1.509e-06	759.4	193.07	1.5416e-06	1.5372e-06	296.48	133.33	76.847	36.325	1.5913e-06	70.714	55.815	5.803	28.201	-67.179	58.538	39.093	-67.364	-61.715	79.382	72.037	-62.581	-56.988	-56.154	-50.919	55.124	-52.944	-8191	255	
52886.902	1	1	0	0	0.18595	0.23463	0.12303	0.047276	0.20099	0.11496	0.11289	0.23804	0.14859	0.099158	0.16765	0.15303	0.079295	0.16013	0.14191	0.088	-4.6583	-4.1229	-4.3562	-5.05	-3.9521	-4.9167	-4.6854	-4.0771	-5.1271	-4.2312	-4.3812	-4.9313	-3.8958	-4.8063	-4.5521	-4.125	165.802	121.725	31.291	232.636	-26.072	77.357	196.351	192.922	127.564	-64.103	55.252	221.206	61.552	54.403	52.230	215.339	0.0007884	0.00032328	9.7557e-05	563	3.321e-06	2.9555e-06	737.25	186.64	3.3174e-06	3.5347e-06	286.38	128.65	73.868	34.701	2.928e-06	68.166	0.00018549	0.00013861	4.0299e-05	579.67	1.5373e-06	1.5206e-06	760.65	193.56	1.5242e-06	1.5039e-06	296.92	133.74	76.96	36.373	1.5196e-06	70.987	52.662	3.188	-13.218	-67.146	72.265	67.133	-67.375	-61.872	63.172	71.387	-62.266	-56.987	-56.379	-51.143	63.607	-52.676	-8191	255	
52886.977	1	1	0	0	0.10324	0.2675	0.083401	0.072853	0.15466	0.053698	0.27081	0.25242	0.047106	0.17584	0.14702	0.23858	0.33968	0.22455	0.13522	0.11978	-4.8208	-4.3375	-4.3229	-5.125	-3.9229	-4.6667	-4.7771	-4.2583	-4.9958	-4.4771	-4.3708	-5.1271	-4.0604	-4.5958	-4.6937	-4.2833	-27.189	66.789	247.071	20.436	262.296	101.931	201.182	251.764	263.998	-37.436	204.528	224.514	268.376	-28.099	73.246	241.233	0.00083232	0.00021698	0.00012525	566.24	5.4072e-06	3.4084e-06	740.44	186.4	1.6327e-06	4.2973e-06	287.43	129.18	73.67	34.864	4.1465e-06	68.744	0.00018877	0.00014301	3.9704e-05	580.63	1.565e-06	1.5563e-06	762.17	193.33	1.5439e-06	1.5418e-06	297.37	134.07	77.119	36.582	1.5998e-06	71.485	56.945	26.699	27.392	-67.130	30.057	55.166	-67.413	-61.811	38.967	50.594	-62.301	-57.183	-56.475	-50.913	83.557	-52.715	-8191	255	
52887.098	1	1	0	0	0.021042	0.13011	0.16053	0.071692	0.10638	0.20923	0.076538	0.036044	0.18646	0.057935	0.19619	0.068708	0.15206	0.21671	0.2395	0.16602	-4.6875	-4.5813	-4.1729	-5.0563	-4.2708	-4.6312	-4.9667	-4.1625	-4.8917	-4.5771	-4.2	-5.2021	-4.2771	-4.5188	-4.8958	-4.1625	-44.755	76.830	-63.183	122.085	30.109	217.566	69.371	125.575	242.603	36.147	1.089	49.926	231.194	239.529	154.320	182.854	0.0007989	0.0002047	0.00010016	564.04	5.5696e-06	4.1611e-06	744.19	187.35	3.0248e-06	4.8718e-06	287.93	129.35	73.986	34.964	2.0752e-06	68.598	0.00019046	0.00014007	4.0921e-05	581.03	1.5659e-06	1.5081e-06	764.44	194.09	1.5355e-06	1.5417e-06	297.77	134.5	77.255	36.651	1.5871e-06	71.551	50.431	31.472	-7.159	-67.182	57.960	91.433	-67.310	-61.863	1.536	43.118	-62.333	-56.877	-56.497	-50.849	75.751	-52.868	-8191	255	
52887.191	1	1	0	0	0.20266	0.16197	0.14602	0.27602	0.2268	0.083197	0.22843	0.11037	0.1626	0.1683	0.032137	0.088964	0.071623	0.15983	0.138	0.10136	-4.7646	-4.6979	-4.0833	-5.1333	-4.1208	-4.3854	-5.1312	-4.0167	-4.8125	-4.6958	-4.2271	-5.1271	-4.3708	-4.5583	-4.9792	-4.1417	2.389	243.679	184.044	239.176	23.940	-34.505	98.298	225.374	255.964	188.482	165.783	174.706	-76.502	-61.374	129.378	265.137	0.00081212	0.00056477	7.6668e-05	562.29	3.0065e-06	4.2545e-06	740.46	187.2	3.6018e-06	2.0314e-06	287.66	129.16	73.862	34.829	3.5699e-06	68.141	0.0001883	0.0001409	4.0174e-05	580.42	1.5424e-06	1.5414e-06	762.63	193.87	1.6085e-06	1.5716e-06	297.37	134.25	77.18	36.508	1.602e-06	71.069	50.939	23.005	39.615	-67.150	56.588	84.474	-67.617	-61.620	63.120	83.007	-62.261	-57.161	-56.300	-50.980	69.842	-52.752	-8191	255	
52887.289	1	1	0	0	0.27729	0.10988	0.14223	0.13822	0.13187	0.081	0.26782	0.15562	0.058807	0.15386	0.067025	0.13356	0.067194	0.22708	0.019757	0.13845	-4.4	-4.8646	-4.1833	-5.05	-4.3333	-4.2812	-5.15	-4.1917	-4.6333	-4.8042	-4.0021	-4.9396	-4.5625	-4.4688	-5.0938	-4.3083	-65.149	66.333	242.230	-63.063	102.487	266.301	208.092	245.618	262.954	191.351	242.055	259.515	41.192	125.184	215.004	256.276	0.00078273	0.00034391	0.00011935	563.04	6.6956e-06	2.4931e-06	740.97	187.49	2.2696e-06	2.1137e-06	286.98	129.52	74.135	34.858	1.2852e-06	68.308	0.00018886	0.00014425	3.9737e-05	580.03	1.5886e-06	1.5272e-06	762.22	193.63	1.5771e-06	1.4814e-06	297	134.37	77.321	36.464	1.5769e-06	71.258	49.569	14.304	0.283	-67.290	52.787	71.644	-67.435	-61.730	18.687	44.155	-62.382	-57.280	-56.345	-50.943	54.715	-52.607	-8191	255	
52887.410	1	1	0	0	0.064497	0.31172	0.15261	0.12338	0.04121	0.14476	0.16692	0.16533	0.14622	0.18843	0.18428	0.12057	0.19038	0.41283	0.14646	0.12586	-4.2333	-4.8917	-4.0146	-4.9583	-4.4979	-4.0083	-4.9792	-4.25	-4.4396	-4.9521	-4.1833	-4.8688	-4.7542	-4.0917	-4.9	-4.325	171.094	-58.094	217.570	225.707	32.890	103.675	-56.857	263.512	265.250	67.590	-64.478	251.153	230.082	277.215	-30.442	133.606	0.00077881	0.00021282	6.0983e-05	563.26	5.1664e-06	2.8581e-06	736.07	186.75	2.5066e-06	4.8864e-06	289.77	129.23	73.983	34.847	2.5796e-06	68.34	0.0001882	0.00014022	4.0412e-05	580.26	1.5713e-06	1.5619e-06	762.32	193.41	1.6105e-06	1.5041e-06	298.72	134.33	77.277	36.52	1.6051e-06	71.391	55.495	-1.621	-24.757	-67.410	47.384	65.823	-67.384	-61.384	0.320	66.969	-62.015	-57.224	-56.374	-50.892	71.211	-52.699	-8191	255	
52887.504	1	1	0	0	0.090085	0.18761	0.12568	0.11028	0.14487	0.076281	0.033696	0.066832	0.019779	0.030857	0.23474	0.11952	0.36052	0.27666	0.24766	0.15218	-4.1062	-4.9521	-4.0563	-4.8917	-4.675	-4.2229	-5.1875	-4.4771	-4.2229	-4.9708	-4.0667	-4.7896	-4.725	-4.0375	-4.9396	-4.4333	216.940	64.090	92.545	125.491	153.506	42.571	56.562	157.255	231.681	-69.372	-66.888	164.031	247.769	275.854	-36.835	266.487	0.00083578	0.00035827	0.00012733	565.16	4.3327e-06	6.125e-06	738.18	187.26	2.7275e-06	4.714e-06	289.53	129.37	73.998	34.81	2.0914e-06	68.665	0.00018938	0.00014044	3.9519e-05	581.96	1.5378e-06	1.5718e-06	761.99	193.87	1.5894e-06	1.5105e-06	298.46	134.6	77.245	36.404	1.5708e-06	71.528	51.091	5.793	19.993	-67.615	29.475	76.534	-67.391	-61.555	81.841	76.539	-62.056	-56.970	-56.503	-50.976	71.448	-52.735	-8191	255	
52887.574	1	1	0	0	0.12853	0.026938	0.12882	0.10716	0.16321	0.18095	0.070734	0.13277	0.11019	0.13153	0.20216	0.092301	0.36091	0.19949	0.10045	0.18035	-3.9146	-5.0479	-4.225	-4.7562	-4.6167	-4.1167	-4.8917	-4.625	-4.1438	-4.9375	-4.1958	-4.5792	-4.8562	-4.0312	-4.8604	-4.7896	245.275	276.358	-78.786	80.026	155.211	40.963	162.226	253.247	56.352	-57.947	44.144	137.912	252.165	195.825	-4.316	256.836	0.00086595	0.00031275	0.00011424	561.48	3.9626e-06	4.7142e-06	739.39	186.88	2.7394e-06	5.2523e-06	288.4	129.2	73.795	34.573	3.6405e-06	68.222	0.00019232	0.00014207	3.9843e-05	578.93	1.5688e-06	1.523e-06	762.3	193.53	1.5787e-06	1.4931e-06	297.71	134.14	77.052	36.231	1.5661e-06	71.101	52.913	13.586	12.449	-67.313	34.958	101.210	-67.518	-61.685	61.641	71.569	-62.427	-57.069	-56.253	-50.820	85.341	-52.546	-8191	255	
52887.695	1	1	0	0	0.27298	0.10339	0.10249	0.25291	0.163	0.25585	0.21151	0.18361	0.082685	0.19073	0.26026	0.1501	0.10733	0.010794	0.0058008	0.31528	-3.7958	-4.9437	-4.3083	-4.3521	-4.9125	-4.1271	-5	-4.7083	-4.1542	-5.1104	-4.3417	-4.5604	-4.8646	-4.0729	-4.7979	-4.6792	59.252	181.261	248.487	241.821	87.259	-75.949	70.727	252.450	41.989	33.613	1.210	273.044	228.285	155.072	123.927	211.393	0.00078808	0.00036532	9.2092e-05	559.86	4.3947e-06	1.6572e-06	736.73	186.51	5.5853e-06	3.2203e-06	288.56	129.13	73.823	34.446	3.5321e-06	68.122	0.00018541	0.00013846	3.9375e-05	578.13	1.5626e-06	1.5182e-06	760.38	193.49	1.5393e-06	1.4957e-06	297.52	133.94	76.993	36.188	1.5436e-06	70.884	48.158	7.217	8.518	-67.291	59.673	72.768	-67.427	-61.332	34.643	76.383	-62.031	-57.188	-56.159	-50.911	102.136	-52.641	-8191	255	
52887.793	1	1	0	0	0.14472	0.15997	0.044555	0.067596	0.11699	0.088917	0.069404	0.020458	0.12862	0.097696	0.18008	0.26635	0.046444	0.099644	0.10102	0.19827	-3.6542	-5.075	-4.3083	-4.3354	-4.9229	-4.0667	-4.8792	-4.6271	-3.9813	-4.9375	-4.3833	-4.3938	-4.9938	-4.1937	-4.4708	-5.0208	178.263	-3.155	69.152	-65.909	127.712	157.124	272.489	258.938	101.776	-26.856	96.005	200.091	201.525	262.883	267.889	-65.375	0.00083399	0.00029269	0.00011977	558.32	3.8032e-06	4.3352e-06	736.24	186.17	4.0192e-06	3.3209e-06	289.29	129.16	74.166	34.463	5.5053e-06	68.096	0.00018921	0.00014064	4.0275e-05	577.06	1.5387e-06	1.5305e-06	759.74	193.38	1.5737e-06	1.526e-06	298.26	134.1	77.037	36.194	1.5853e-06	71	51.302	18.990	-17.629	-67.394	72.167	62.939	-67.510	-61.466	14.862	35.624	-62.231	-56.991	-56.106	-51.201	55.160	-52.719	-8191	255	
52887.887	1	1	0	0	0.19666	0.143	0.18043	0.18584	0.19588	0.15024	0.2311	0.23054	0.29314	0.066097	0.13316	0.18304	0.082454	0.21947	0.24487	0.086906	-3.7375	-4.8458	-4.3375	-4.1958	-4.9125	-4.2854	-4.6979	-4.7854	-3.9437	-4.9437	-4.5813	-4.3583	-5.0875	-4.2	-4.3771	-5.1687	-27.095	5.713	270.165	-66.602	106.577	26.057	246.318	136.359	15.711	-3.992	116.620	60.501	203.328	257.642	196.992	-3.557	0.00083909	0.00020148	8.7448e-05	564.19	2.0047e-06	3.6277e-06	736.83	187.46	3.8464e-06	4.7704e-06	289.38	129.82	73.666	34.322	2.7039e-06	68.111	0.00018916	0.00013852	3.8764e-05	578.71	1.5505e-06	1.558e-06	760.85	193.84	1.5719e-06	1.5379e-06	298.59	134.38	76.932	36.084	1.5876e-06	71.06	58.550	39.503	15.323	-67.153	6.631	61.649	-67.721	-61.532	56.319	65.961	-62.461	-57.167	-55.919	-51.026	64.476	-52.647	-8191	255	
#DATA ENDS
