BOXY.EXE: ISS Imagent and Oximeter Data Acquisition Program Version 0.80
Ascii Record File

#ACQ INFORMATION
2  Detector Channels 
16  External MUX Channels 
1  Auxiliary Channels 
5000  Waveform (CCF) Frequency (Hz)
1  Waveforms Skipped 
30  Waveforms Averaged 
1  Cycles Averaged 
16  Acquisitions per Waveform 
10.0806  Updata Rate (Hz) 

#FILE INFORMATION
TRUE -- External MUX Channel results are PARSED.
FALSE -- AC DC and Phase are NOT grouped.
TRUE -- Companion Program Settings File CREATED.
FALSE -- AC data not excluded
FALSE -- DC data not excluded
FALSE -- Phase data not excluded
FALSE -- Auxillary Chn. data not excluded
Tab delimiters

#CALIBRATION STATE
TRUE -- Waveform Calibration Values APPLIED.


#AUX CALIBRATION VALUES
Val Type	aux-1	

Term	1.0000e+00	
Factor	0.0000e+00	


#WF CALIBRATION VALUES
A = Detector Channel
Val Type	A-AC1	A-AC2	A-AC3	A-AC4	A-AC5	A-AC6	A-AC7	A-AC8	A-AC9	A-AC10	A-AC11	A-AC12	A-AC13	A-AC14	A-AC15	A-AC16	A-DC1	A-DC2	A-DC3	A-DC4	A-DC5	A-DC6	A-DC7	A-DC8	A-DC9	A-DC10	A-DC11	A-DC12	A-DC13	A-DC14	A-DC15	A-DC16	A-Ph1	A-Ph2	A-Ph3	A-Ph4	A-Ph5	A-Ph6	A-Ph7	A-Ph8	A-Ph9	A-Ph10	A-Ph11	A-Ph12	A-Ph13	A-Ph14	A-Ph15	A-Ph16	

Term	0.00000e+00	0.00000e+00	0.00000e+00	0.00000e+00	0.00000e+00	0.00000e+00	0.00000e+00	0.00000e+00	0.00000e+00	0.00000e+00	0.00000e+00	0.00000e+00	0.00000e+00	0.00000e+00	0.00000e+00	0.00000e+00	0.00000e+00	0.00000e+00	0.00000e+00	0.00000e+00	0.00000e+00	0.00000e+00	0.00000e+00	0.00000e+00	0.00000e+00	0.00000e+00	0.00000e+00	0.00000e+00	0.00000e+00	0.00000e+00	0.00000e+00	0.00000e+00	0.00000e+00	0.00000e+00	0.00000e+00	0.00000e+00	0.00000e+00	0.00000e+00	0.00000e+00	0.00000e+00	0.00000e+00	0.00000e+00	0.00000e+00	0.00000e+00	0.00000e+00	0.00000e+00	0.00000e+00	0.00000e+00	
Factor	1.00000e+00	1.00000e+00	1.00000e+00	1.00000e+00	1.00000e+00	1.00000e+00	1.00000e+00	1.00000e+00	1.00000e+00	1.00000e+00	1.00000e+00	1.00000e+00	1.00000e+00	1.00000e+00	1.00000e+00	1.00000e+00	1.00000e+00	1.00000e+00	1.00000e+00	1.00000e+00	1.00000e+00	1.00000e+00	1.00000e+00	1.00000e+00	1.00000e+00	1.00000e+00	1.00000e+00	1.00000e+00	1.00000e+00	1.00000e+00	1.00000e+00	1.00000e+00	X	X	X	X	X	X	X	X	X	X	X	X	X	X	X	X	

B = Detector Channel
Val Type	B-AC1	B-AC2	B-AC3	B-AC4	B-AC5	B-AC6	B-AC7	B-AC8	B-AC9	B-AC10	B-AC11	B-AC12	B-AC13	B-AC14	B-AC15	B-AC16	B-DC1	B-DC2	B-DC3	B-DC4	B-DC5	B-DC6	B-DC7	B-DC8	B-DC9	B-DC10	B-DC11	B-DC12	B-DC13	B-DC14	B-DC15	B-DC16	B-Ph1	B-Ph2	B-Ph3	B-Ph4	B-Ph5	B-Ph6	B-Ph7	B-Ph8	B-Ph9	B-Ph10	B-Ph11	B-Ph12	B-Ph13	B-Ph14	B-Ph15	B-Ph16	

Term	0.00000e+00	0.00000e+00	0.00000e+00	0.00000e+00	0.00000e+00	0.00000e+00	0.00000e+00	0.00000e+00	0.00000e+00	0.00000e+00	0.00000e+00	0.00000e+00	0.00000e+00	0.00000e+00	0.00000e+00	0.00000e+00	0.00000e+00	0.00000e+00	0.00000e+00	0.00000e+00	0.00000e+00	0.00000e+00	0.00000e+00	0.00000e+00	0.00000e+00	0.00000e+00	0.00000e+00	0.00000e+00	0.00000e+00	0.00000e+00	0.00000e+00	0.00000e+00	5.06194e+01	-1.29438e+02	-1.31290e+02	-1.83563e+02	-6.55746e+01	-6.95186e+01	-1.58231e+02	-1.62015e+02	-5.78124e+01	-7.32865e+01	-1.70600e+02	-1.70833e+02	-1.78671e+02	-1.76838e+02	-6.47668e+01	-1.49876e+02	
Factor	6.06753e-05	1.77433e-04	4.50731e-05	1.61896e-01	2.38399e-06	1.84020e-06	1.81550e-01	5.88728e-02	2.84769e-06	1.77999e-06	1.01125e-01	3.33508e-02	3.05324e-02	1.05122e-02	2.09870e-06	1.49555e-02	1.12874e-05	1.48015e-05	4.16755e-06	7.72785e-02	1.51997e-07	1.66052e-07	8.13358e-02	2.81645e-02	1.53049e-07	1.66029e-07	4.70097e-02	1.54312e-02	1.47354e-02	5.07175e-03	1.59162e-07	7.00736e-03	X	X	X	X	X	X	X	X	X	X	X	X	X	X	X	X	



#DISTANCE SETTINGS
A = Detector Channel
A-1	A-2	A-3	A-4	A-5	A-6	A-7	A-8	A-9	A-10	A-11	A-12	A-13	A-14	A-15	A-16	

2.5000e+00	3.0000e+00	2.5000e+00	3.0000e+00	2.0000e+00	3.0000e+00	1.5000e+00	3.0000e+00	3.0000e+00	3.0000e+00	3.0000e+00	3.0000e+00	3.0000e+00	3.0000e+00	1.5000e+00	3.0000e+00	

B = Detector Channel
B-1	B-2	B-3	B-4	B-5	B-6	B-7	B-8	B-9	B-10	B-11	B-12	B-13	B-14	B-15	B-16	

1.0000e+01	1.0000e+01	1.0000e+01	1.4400e+00	1.0000e+01	1.0000e+01	1.5100e+00	1.9400e+00	1.0000e+01	1.0000e+01	1.9900e+00	2.4900e+00	2.4100e+00	2.9000e+00	1.0000e+01	2.9800e+00	




#DATA BEGINS
time	group	step	mark	flag	A-AC1	A-AC2	A-AC3	A-AC4	A-AC5	A-AC6	A-AC7	A-AC8	A-AC9	A-AC10	A-AC11	A-AC12	A-AC13	A-AC14	A-AC15	A-AC16	A-DC1	A-DC2	A-DC3	A-DC4	A-DC5	A-DC6	A-DC7	A-DC8	A-DC9	A-DC10	A-DC11	A-DC12	A-DC13	A-DC14	A-DC15	A-DC16	A-Ph1	A-Ph2	A-Ph3	A-Ph4	A-Ph5	A-Ph6	A-Ph7	A-Ph8	A-Ph9	A-Ph10	A-Ph11	A-Ph12	A-Ph13	A-Ph14	A-Ph15	A-Ph16	B-AC1	B-AC2	B-AC3	B-AC4	B-AC5	B-AC6	B-AC7	B-AC8	B-AC9	B-AC10	B-AC11	B-AC12	B-AC13	B-AC14	B-AC15	B-AC16	B-DC1	B-DC2	B-DC3	B-DC4	B-DC5	B-DC6	B-DC7	B-DC8	B-DC9	B-DC10	B-DC11	B-DC12	B-DC13	B-DC14	B-DC15	B-DC16	B-Ph1	B-Ph2	B-Ph3	B-Ph4	B-Ph5	B-Ph6	B-Ph7	B-Ph8	B-Ph9	B-Ph10	B-Ph11	B-Ph12	B-Ph13	B-Ph14	B-Ph15	B-Ph16	aux-1	digaux	

46435.547	1	1	0	768	0.074527	0.047162	0.20189	0.11022	0.16429	0.11278	0.23836	0.14096	0.11037	0.15489	0.093195	0.068738	0.21845	0.34809	0.15503	0.1531	-3.7896	-4.8625	-4.0333	-4.4583	-4.625	-3.9271	-4.9667	-4.3104	-4.0854	-4.825	-3.9021	-4.5104	-4.7292	-4.0542	-4.9333	-4.5312	153.424	460.919	309.326	283.606	219.909	469.860	464.233	477.159	172.248	509.959	262.845	463.915	388.497	243.098	433.979	159.545	0.0019197	0.00022025	0.00016034	571.98	6.0462e-06	3.3555e-06	663.04	181.43	1.0608e-05	4.7074e-06	304.12	122.33	66.309	29.694	6.4191e-06	64.056	0.00083668	0.000732	0.0002141	533.15	7.7784e-06	8.368e-06	618.08	170.45	7.7621e-06	8.1403e-06	285.55	114.73	62.165	28.229	8.0881e-06	61.148	373.227	242.965	211.346	165.443	293.265	302.633	164.938	171.186	305.232	287.444	170.311	175.291	176.128	182.096	285.207	179.808	-8191	255	
46435.641	1	1	0	0	0.17117	0.17689	0.077465	0.26307	0.081988	0.057994	0.18114	0.11866	0.068344	0.10285	0.11121	0.21089	0.039571	0.14157	0.046624	0.21639	-3.7021	-4.9417	-4.1104	-4.4833	-4.8063	-3.8146	-4.8542	-4.5646	-3.7333	-4.9146	-4.2312	-4.4354	-4.825	-4.0563	-4.6125	-4.6667	378.568	315.714	376.739	419.500	501.822	368.206	403.128	300.372	208.335	435.707	305.689	424.926	160.161	462.022	407.040	178.780	0.0020175	0.00040821	0.00014191	569.39	5.3872e-06	3.7686e-06	667.07	181.74	4.1135e-06	3.8835e-06	304.8	122.63	66.276	29.445	2.3281e-06	64.177	0.0007908	0.00073376	0.00020598	529.86	7.655e-06	8.0995e-06	619.45	170.11	7.5829e-06	7.9151e-06	286.5	114.79	62.249	28.165	7.6524e-06	61.227	368.695	271.346	218.423	165.127	276.785	295.730	165.090	171.296	330.026	306.516	170.372	175.105	176.341	182.271	263.005	179.557	-8191	255	
46435.738	1	1	0	0	0.26292	0.086216	0.29808	0.34532	0.15681	0.29436	0.1144	0.14796	0.21373	0.22816	0.037997	0.20794	0.078622	0.19733	0.035423	0.14328	-3.7042	-4.7792	-4.1521	-4.2958	-4.6438	-4.1	-4.6833	-4.5833	-4.0437	-4.9354	-4.4208	-4.2708	-4.9958	-4.0104	-4.5396	-4.6896	325.863	351.807	371.325	512.777	357.611	455.908	430.870	220.505	352.731	489.750	361.654	352.072	480.449	371.089	313.139	365.327	0.00191	0.0004841	0.00013589	568	6.8336e-06	4.0984e-06	661.36	181.63	8.5111e-06	6.1595e-06	304.16	122.36	66.047	29.648	5.2238e-06	64.111	0.00076651	0.00069009	0.00019394	529.6	7.0023e-06	7.3568e-06	614.12	169.89	7.0342e-06	7.0849e-06	285.38	114.41	62.033	28.172	6.907e-06	60.958	372.963	229.620	244.618	165.406	312.554	315.398	165.064	171.171	292.975	294.764	170.370	175.535	176.288	182.501	251.910	179.971	-8191	255	
46435.836	1	1	0	0	0.17283	0.090682	0.15059	0.11422	0.13646	0.2431	0.18573	0.20284	0.085141	0.0085859	0.17562	0.24621	0.37978	0.12124	0.19507	0.18912	-3.6104	-4.8083	-4.4729	-4.0354	-4.9458	-4.1146	-4.5458	-4.7542	-3.8333	-4.7479	-4.6062	-4.1687	-4.9917	-4.0771	-4.2958	-4.8417	234.810	192.125	422.292	454.713	293.359	441.378	489.612	220.528	478.620	443.207	175.590	458.547	221.558	512.891	240.005	232.420	0.0019525	0.00034553	6.7897e-05	569.83	7.4468e-06	3.9193e-06	662.43	182.76	7.1866e-06	3.5952e-06	302.45	121.48	66.171	29.548	6.798e-06	64.123	0.00075489	0.00064806	0.00018345	531.34	6.6727e-06	7.2105e-06	615.1	170.08	6.8798e-06	7.1576e-06	284.26	114.12	62.11	28.142	7.1908e-06	61.001	370.650	266.869	238.110	165.547	296.800	333.848	165.291	171.364	309.253	285.171	170.753	175.382	176.145	181.995	308.340	179.710	-8191	255	
46435.930	1	1	0	0	0.060213	0.090414	0.3039	0.10244	0.088751	0.17188	0.079676	0.22811	0.18656	0.22827	0.089715	0.019751	0.12772	0.033925	0.031818	0.25313	-3.5563	-4.6667	-4.5208	-4.0854	-4.9646	-4.2646	-4.2854	-4.8812	-3.8187	-4.5896	-4.6083	-3.9479	-4.8729	-4.2667	-4.2521	-5.0437	289.395	498.412	219.134	461.849	170.658	230.250	300.515	384.059	161.663	297.580	209.800	199.515	281.592	222.817	369.309	438.103	0.0018549	0.00069136	7.7696e-05	566.45	4.7393e-06	3.7406e-06	661.88	181.65	1.3286e-05	4.6404e-06	306.92	123.24	66.723	30.184	5.246e-06	65.234	0.00076063	0.00066046	0.00018256	527.25	6.8468e-06	7.5267e-06	615.14	170.33	6.9816e-06	7.352e-06	287.15	115.53	62.772	28.598	7.2919e-06	62.03	370.423	240.222	219.017	165.483	295.056	293.769	165.198	171.462	289.125	306.547	170.622	175.447	176.114	182.274	290.519	179.896	-8191	255	
46436.027	1	1	0	0	0.12528	0.17893	0.21568	0.14221	0.16655	0.065074	0.17421	0.17458	0.22253	0.27515	0.14121	0.082425	0.18847	0.077099	0.17243	0.12969	-3.5812	-4.4125	-4.4437	-3.9188	-4.9583	-4.0917	-4.3896	-4.8854	-4.1167	-4.5542	-4.9604	-3.9771	-4.7854	-4.3542	-4.0354	-4.9125	339.038	374.410	288.560	172.704	259.365	437.431	399.108	308.590	490.787	282.986	436.548	447.918	363.255	351.008	264.658	393.534	0.0019951	0.00059369	0.0001648	567.12	6.1206e-06	1.8985e-06	661.46	181.85	1.1912e-05	7.1146e-06	306.81	124.06	66.85	30.304	7.5688e-06	65.35	0.00077356	0.00066906	0.00019409	526.71	7.0653e-06	7.6581e-06	616.43	170.39	7.4356e-06	7.6522e-06	288.16	116.21	62.963	28.809	7.4999e-06	62.372	370.779	235.991	250.392	165.352	299.995	303.558	164.950	171.326	309.219	334.815	170.375	175.214	176.241	182.242	303.294	179.733	-8191	255	
46436.148	1	1	0	0	0.13647	0.096946	0.096657	0.023329	0.069119	0.11927	0.26216	0.076208	0.085592	0.16201	0.033905	0.11805	0.23459	0.29898	0.29374	0.077464	-3.4771	-4.3354	-4.7521	-4.0021	-4.7521	-4.4271	-4.1646	-4.9313	-3.9083	-4.2937	-4.875	-3.8521	-4.7625	-4.6229	-3.8312	-4.8438	413.935	495.785	250.096	402.391	346.224	251.655	409.744	398.282	321.513	182.614	390.072	166.295	441.493	465.013	349.998	194.023	0.0019905	0.000498	0.00018315	565.19	7.5709e-06	5.3804e-06	660.71	182.37	6.2276e-06	5.4391e-06	306.88	124.08	67.445	30.628	6.02e-06	66.272	0.00081046	0.00071112	0.0002037	525.35	7.8126e-06	8.0515e-06	613.01	170.52	7.9241e-06	8.1444e-06	287.71	116.25	63.39	29.197	8.6534e-06	62.968	373.419	242.377	254.166	165.496	303.706	289.420	165.287	171.588	300.673	279.880	170.437	175.463	176.530	182.084	281.813	179.411	-8191	255	
46436.242	1	1	0	0	0.12661	0.097218	0.098366	0.24898	0.082151	0.014223	0.10668	0.032967	0.043107	0.31958	0.14195	0.14771	0.23676	0.12105	0.21041	0.24265	-3.9104	-4.1646	-4.925	-3.8688	-4.6708	-4.6229	-4.075	-4.9667	-4.2854	-4.3104	-4.8604	-4.0375	-4.5208	-4.8771	-3.9917	-5.0729	423.254	317.351	423.990	404.243	365.074	374.026	397.399	373.464	257.673	425.970	197.520	225.651	384.714	431.343	267.368	166.998	0.0019877	0.0004462	9.8722e-05	553	6.9147e-06	4.7528e-06	653.59	182.26	6.0847e-06	2.4168e-06	309.14	126.12	68.677	31.342	7.3929e-06	67.447	0.00086068	0.0008032	0.0002201	517.69	8.4783e-06	9.0564e-06	610.17	170.92	8.7327e-06	9.3972e-06	291.03	118.42	64.334	30.017	9.4579e-06	64.373	372.258	252.185	259.225	165.503	294.958	291.307	165.315	171.673	288.642	287.559	170.260	175.428	176.428	182.352	316.690	179.508	-8191	255	
46436.340	1	1	0	0	0.17176	0.14871	0.15953	0.057567	0.14081	0.13812	0.15985	0.26298	0.13374	0.073612	0.12633	0.20797	0.011203	0.2804	0.22495	0.24898	-4.0417	-4.1854	-4.9375	-3.9958	-4.4958	-4.7812	-3.9229	-4.8833	-4.2521	-4.0542	-4.7812	-3.9938	-4.3688	-4.7208	-3.8208	-4.8667	196.318	236.889	183.119	445.141	349.124	167.957	271.904	167.963	224.497	352.345	322.257	480.061	288.179	164.172	241.455	451.870	0.0020447	0.00052393	0.00011262	551.05	2.8172e-06	5.681e-06	658.95	182.86	8.406e-06	4.8732e-06	310.24	126.98	68.665	31.666	7.7842e-06	67.817	0.00094068	0.00087159	0.00024806	515.35	9.2506e-06	9.9265e-06	611.51	171.65	9.2802e-06	1.005e-05	292.15	119.08	64.614	30.108	9.9032e-06	64.622	370.625	238.412	240.607	165.871	320.164	308.947	165.223	171.684	283.452	287.200	170.498	175.375	176.381	182.244	300.313	179.747	-8191	255	
46436.438	1	1	0	0	0.18586	0.21478	0.13841	0.049162	0.097724	0.053227	0.13909	0.14407	0.28161	0.0575	0.1611	0.083928	0.1945	0.22556	0.11234	0.098203	-4.0604	-3.9667	-4.8771	-4.1333	-4.2146	-4.7646	-3.9146	-4.8417	-4.4	-4.0146	-5.1396	-4.1687	-4.2333	-4.8333	-3.8063	-4.7021	325.286	313.829	413.695	498.737	508.573	455.022	182.460	168.232	158.186	299.731	428.441	218.923	204.853	218.544	474.003	185.944	0.0019877	0.00054583	0.00011035	555.76	5.3345e-06	4.0504e-06	654.19	183.81	1.0131e-05	3.1801e-06	312.08	126.66	68.551	31.45	3.3577e-06	67.814	0.00095357	0.00091325	0.00025218	517.82	9.4371e-06	1.022e-05	612.59	171.88	9.6558e-06	1.0145e-05	293.01	119.24	64.643	30.046	1.0225e-05	64.662	371.649	250.958	185.464	165.723	308.765	323.295	165.313	171.455	292.660	295.192	170.843	175.447	176.257	182.557	365.145	179.548	-8191	255	
46436.531	1	1	0	0	0.21051	0.24454	0.077461	0.081393	0.15299	0.24618	0.093851	0.079908	0.11365	0.13346	0.19935	0.050169	0.12329	0.1622	0.017876	0.011951	-4.2229	-3.9458	-4.775	-4.3187	-3.9896	-4.7104	-3.9104	-4.4938	-4.6771	-3.7875	-4.9146	-4.3146	-3.9875	-4.9146	-3.7708	-4.4563	171.195	468.075	353.129	499.790	341.995	282.500	179.183	260.419	479.194	472.438	175.413	475.850	399.145	460.540	234.249	187.213	0.002012	0.00053729	0.00017724	558.07	8.3308e-06	5.761e-06	655.79	183.3	9.9502e-06	5.5159e-06	310.2	126.76	68.732	31.499	6.3137e-06	67.618	0.0009463	0.00091881	0.00025695	519.92	9.7392e-06	1.0194e-05	612.38	171.94	9.7285e-06	1.0237e-05	292.81	118.77	64.662	30.126	1.0004e-05	64.535	373.983	213.147	249.272	165.198	301.363	290.394	165.257	171.453	314.499	313.558	170.493	175.453	176.601	182.585	311.638	179.639	-8191	255	
46436.625	1	1	0	0	0.19671	0.11744	0.17023	0.19328	0.10485	0.036145	0.057509	0.075239	0.13812	0.17729	0.11063	0.171	0.094272	0.17049	0.2107	0.14687	-4.2688	-3.8375	-4.7812	-4.2021	-4.0125	-4.6792	-3.9979	-4.3771	-4.5979	-3.7562	-4.9604	-4.5208	-3.9375	-4.8417	-4.1813	-4.4021	398.481	245.243	299.621	211.942	428.958	440.602	153.986	426.569	479.498	469.456	154.609	465.026	446.306	244.801	241.106	484.703	0.0019735	0.00052574	0.00015726	550.96	6.309e-06	5.9158e-06	652.22	182.51	1.3098e-05	3.3854e-06	312.1	127.16	69.755	32.028	5.3882e-06	68.64	0.00094492	0.00094079	0.00025877	516.43	9.7006e-06	1.016e-05	609.24	171.8	9.4657e-06	1.0283e-05	293.37	119.44	65.259	30.499	1.0176e-05	65.334	370.574	253.049	210.092	165.323	334.026	326.528	165.226	171.485	304.624	279.538	170.586	175.389	176.201	182.290	313.985	179.873	-8191	255	
46436.723	1	1	0	0	0.20072	0.16969	0.12537	0.142	0.30554	0.15416	0.19408	0.1475	0.15492	0.082871	0.17478	0.12894	0.12817	0.18978	0.1518	0.17982	-4.4708	-3.7792	-4.4958	-4.4917	-3.9938	-4.825	-4.1312	-4.2167	-4.8167	-3.8667	-4.5312	-4.6229	-3.9062	-4.8187	-4.0333	-4.1854	155.603	439.502	202.893	431.025	241.276	291.923	478.809	188.072	335.363	448.509	471.226	451.055	168.171	475.879	189.790	421.004	0.0021037	0.00066507	0.00014272	552.62	7.6165e-06	5.4369e-06	656.21	183.02	6.7074e-06	3.1268e-06	312.67	127.91	69.507	32.129	5.6522e-06	68.974	0.00098155	0.00095794	0.00026222	515.93	9.6467e-06	1.0449e-05	611.73	172.42	9.7256e-06	1.0301e-05	294.79	120.37	65.431	30.702	1.029e-05	65.642	372.400	237.200	251.885	165.611	327.252	313.355	165.476	171.450	319.855	308.388	170.354	175.400	176.598	182.667	302.170	179.730	-8191	255	
46436.844	1	1	0	0	0.018864	0.2514	0.13141	0.037149	0.281	0.078647	0.14653	0.33263	0.13878	0.24738	0.14186	0.17595	0.081553	0.082395	0.15754	0.20657	-4.6062	-3.8604	-4.4542	-4.7604	-3.8063	-4.7417	-4.2875	-4.2125	-4.8667	-3.7958	-4.4062	-4.6917	-3.8125	-4.8292	-4.25	-4.1208	260.010	449.383	317.074	393.268	365.723	271.020	457.666	472.286	330.501	193.782	169.325	333.318	354.529	467.641	260.052	458.815	0.0020633	0.00054538	0.00014893	549.2	6.4784e-06	4.8738e-06	657.31	183.72	9.9466e-06	6.0468e-06	313.48	127.65	69.272	32.057	7.1731e-06	68.403	0.00096667	0.00094258	0.00026443	515.23	9.9783e-06	1.0429e-05	612.6	172.55	9.9249e-06	1.0594e-05	294.87	119.92	64.958	30.534	1.048e-05	65.293	369.695	272.478	225.320	165.686	282.051	271.796	165.670	171.623	315.384	288.378	170.465	175.606	176.607	182.331	323.999	179.404	-8191	255	
46436.938	1	1	0	0	0.16565	0.31554	0.10012	0.31675	0.22165	0.2485	0.18213	0.14275	0.1769	0.1039	0.085822	0.040812	0.20343	0.032172	0.023095	0.055446	-4.6208	-4.0521	-4.2042	-4.8875	-3.8708	-4.6896	-4.4479	-4.0792	-4.6375	-4.0875	-4.2729	-4.7396	-3.8229	-4.6979	-4.4167	-4.075	216.981	183.949	386.094	487.275	282.487	477.805	450.331	313.738	227.379	290.868	497.279	410.942	510.175	447.047	499.546	454.006	0.0021304	0.00033737	8.9215e-05	553.58	7.1728e-06	3.6429e-06	654.34	183.34	9.4442e-06	3.8964e-06	311.58	126.95	68.187	31.497	8.1747e-06	67.744	0.0010059	0.00097419	0.00027743	515.46	1.0114e-05	1.1062e-05	610.81	172.07	1.0066e-05	1.1014e-05	292.65	119.12	64.449	30.107	1.0583e-05	64.493	369.892	253.303	204.684	165.511	298.619	280.874	165.547	171.624	295.619	278.321	170.698	175.657	176.287	182.530	332.561	179.769	-8191	255	
46437.035	1	1	0	0	0.047049	0.21921	0.2767	0.043981	0.034442	0.27513	0.17866	0.090293	0.18964	0.1515	0.34232	0.28422	0.075776	0.076301	0.1851	0.20253	-4.5271	-4.0687	-4.1042	-4.9333	-3.9333	-4.4917	-4.6979	-3.9104	-4.6792	-4.2333	-4.2521	-4.8771	-4.0708	-4.7104	-4.5167	-3.9938	338.569	201.133	212.614	189.155	209.920	404.196	400.949	279.595	400.238	474.323	415.100	408.204	268.634	377.854	380.033	360.980	0.0021162	0.0004843	0.00017637	550.92	3.877e-06	3.791e-06	648.91	181.65	1.1284e-05	6.4006e-06	308.38	126.35	68.368	31.748	5.7894e-06	67.261	0.0010113	0.00098156	0.00027564	515.11	1.0145e-05	1.1046e-05	607.15	170.86	1.0166e-05	1.1022e-05	291.32	118.66	64.441	30.207	1.0569e-05	64.392	371.164	256.890	218.688	165.460	309.333	282.184	165.747	171.696	327.501	299.331	170.322	175.743	176.536	182.586	347.762	179.533	-8191	255	
46437.105	1	1	0	0	0.11381	0.091644	0.15593	0.23238	0.17846	0.057816	0.31853	0.13632	0.11045	0.19379	0.14357	0.008464	0.2042	0.16054	0.084475	0.14816	-4.3646	-4.3958	-4.0833	-4.7292	-3.8063	-4.6562	-4.7438	-3.85	-4.5687	-4.25	-4.0292	-4.8792	-4.0604	-4.3979	-4.7208	-4	165.088	472.796	378.771	457.312	413.505	217.191	403.231	477.833	230.172	444.625	155.055	313.708	189.263	429.693	254.127	432.843	0.0020144	0.00044558	0.00013439	550.98	5.7502e-06	5.422e-06	652.53	183.14	4.998e-06	6.8054e-06	308.81	126.31	68.298	31.898	6.946e-06	68.165	0.0010231	0.00097178	0.0002663	515.17	1.0065e-05	1.0737e-05	607.27	171.75	1.0262e-05	1.0862e-05	291.82	119.05	64.772	30.379	1.0405e-05	64.886	372.012	246.927	267.780	165.753	281.652	300.535	165.680	171.521	353.313	275.807	170.615	175.684	176.739	182.741	282.315	180.092	-8191	255	
46437.227	1	1	0	0	0.056012	0.16576	0.06112	0.06896	0.092613	0.07767	0.118	0.096353	0.13053	0.21881	0.10102	0.07685	0.10817	0.039043	0.094161	0.10144	-4.4	-4.4167	-3.9083	-4.8521	-3.9667	-4.2104	-4.7688	-4.0542	-4.6375	-4.5104	-4.0604	-4.8187	-4.0333	-4.1667	-4.8	-4.05	455.287	298.223	173.784	422.535	244.249	234.227	413.340	274.754	353.533	415.211	396.641	474.896	361.681	457.079	384.681	448.461	0.0020101	0.00048215	7.56e-05	551.28	5.2087e-06	3.4108e-06	650.39	183.64	3.7057e-06	1.9129e-06	313.4	127.65	69.538	31.992	5.378e-06	68.513	0.0010111	0.0009786	0.00027041	513.87	1.0312e-05	1.0759e-05	607.37	172.11	1.0206e-05	1.0822e-05	294.08	119.87	65.212	30.541	1.0599e-05	65.307	371.144	247.570	241.533	165.729	295.819	306.432	165.474	171.676	259.009	328.553	170.595	175.808	176.323	182.600	305.117	179.568	-8191	255	
46437.324	1	1	0	0	0.071936	0.089168	0.13303	0.20012	0.14661	0.14449	0.089032	0.1643	0.09008	0.048604	0.13656	0.24233	0.21239	0.21274	0.18022	0.048057	-4.275	-4.5521	-3.9667	-4.8812	-4.1208	-4.0708	-4.9104	-4.0687	-4.475	-4.5854	-3.9437	-4.8292	-4.2458	-4.1292	-4.7125	-3.9667	250.334	368.989	477.614	452.227	381.500	217.408	166.959	214.191	443.643	471.809	441.899	467.255	496.630	209.842	283.410	315.380	0.002039	0.00024583	0.00017561	552.38	6.1906e-06	6.9124e-06	654.12	182.08	9.2584e-06	3.5439e-06	312.26	127.16	69.213	31.85	5.6312e-06	68.259	0.0010259	0.00097749	0.00027589	514.55	1.0197e-05	1.0813e-05	610.87	171.99	1.0098e-05	1.0968e-05	294.06	119.66	65.057	30.446	1.0712e-05	65.068	369.847	260.745	228.167	165.945	301.649	299.719	165.917	171.787	332.300	298.396	171.119	175.574	176.359	182.599	292.738	179.861	-8191	255	
46437.422	1	1	0	0	0.17529	0.089562	0.11893	0.022621	0.20666	0.034946	0.22428	0.10908	0.057231	0.029944	0.05713	0.30951	0.2678	0.36053	0.24117	0.1391	-4.1417	-4.5625	-3.8563	-4.8979	-4.3479	-3.9333	-4.7958	-4.0188	-4.1604	-4.75	-3.8875	-4.6562	-4.6083	-3.8937	-4.7812	-4.0167	436.108	442.171	279.607	243.962	314.820	333.095	466.212	231.492	415.058	164.119	196.661	510.798	446.660	460.912	501.231	496.916	0.0020716	0.00031723	0.00010887	554.07	4.6221e-06	4.1409e-06	653.03	182.33	1.0989e-05	5.8494e-06	309.19	126.43	68.756	31.675	5.5759e-06	67.425	0.0010191	0.00096108	0.00027383	516.47	1.0049e-05	1.088e-05	607.17	171.44	1.0163e-05	1.0783e-05	291.49	118.59	64.501	30.192	1.0703e-05	64.308	373.435	217.068	226.287	165.695	294.708	326.126	165.671	171.886	308.477	325.971	170.619	175.569	176.955	182.537	324.391	179.992	-8191	255	
46437.539	1	1	0	0	0.24978	0.14684	0.2627	0.24521	0.19217	0.25262	0.08683	0.12369	0.14206	0.091851	0.1642	0.067449	0.081096	0.1142	0.066951	0.072837	-4.0938	-4.7708	-3.9708	-4.7729	-4.3979	-3.8958	-4.9292	-4.2937	-4.1208	-4.8	-3.9583	-4.7167	-4.5062	-3.9354	-4.7104	-4.2229	290.599	282.596	246.087	469.325	407.378	195.330	467.347	317.442	231.431	248.857	505.375	446.266	332.988	332.791	505.395	479.473	0.0020854	0.00049625	0.00012733	550.56	6.2598e-06	4.4613e-06	649.12	181.99	8.8787e-06	6.3608e-06	308.14	126.67	68.151	31.373	5.4762e-06	66.921	0.001017	0.00097986	0.00027454	514.52	1.0031e-05	1.0627e-05	607.01	171.03	1.0427e-05	1.0924e-05	290.64	118.39	64.105	29.943	1.0414e-05	63.893	370.877	229.943	260.860	165.868	272.654	288.985	165.405	171.778	283.188	256.471	170.746	175.482	176.405	182.594	286.842	179.951	-8191	255	
46437.637	1	1	0	0	0.013312	0.21033	0.163	0.12481	0.14529	0.059122	0.2122	0.033385	0.10498	0.28028	0.25436	0.061298	0.028963	0.26387	0.14865	0.12239	-3.8604	-4.8792	-3.6562	-4.5021	-4.6813	-3.8771	-4.8667	-4.3375	-4.0521	-4.8917	-4.1229	-4.3833	-4.6625	-3.8438	-4.8542	-4.3917	162.605	187.408	399.741	359.587	226.659	490.824	401.215	312.243	324.540	298.249	172.859	294.829	368.500	488.994	501.002	382.607	0.0020115	0.0007532	7.6178e-05	554.42	6.506e-06	3.4751e-06	650.33	180.48	1.136e-05	5.4304e-06	305.5	125.15	67.693	30.713	7.2966e-06	66.405	0.00099773	0.00099038	0.00027631	517.12	1.0078e-05	1.1149e-05	607.47	170.22	1.0195e-05	1.0975e-05	289.46	117.42	63.744	29.442	1.0557e-05	63.168	370.470	251.060	238.688	165.643	295.971	263.541	165.283	171.566	320.657	294.095	170.531	175.344	176.394	182.576	301.180	179.630	-8191	255	
46437.711	1	1	0	0	0.014671	0.14679	0.046872	0.058955	0.096318	0.18807	0.10745	0.1401	0.13028	0.15903	0.20648	0.065884	0.022152	0.16316	0.14011	0.15258	-3.7687	-4.8542	-3.9979	-4.2042	-4.8021	-3.8979	-4.7104	-4.4521	-3.8438	-4.9417	-4.3479	-4.2729	-4.7771	-4.0583	-4.6312	-4.6771	476.328	273.278	481.243	327.783	304.337	434.045	336.805	491.486	469.784	299.040	413.882	423.320	248.087	478.075	353.239	469.747	0.0020879	0.00045194	0.00012474	554.43	6.9409e-06	5.1767e-06	654.09	180.41	8.4253e-06	2.99e-06	305.9	123.98	66.898	30.363	6.5027e-06	65.814	0.0010189	0.00097224	0.00027396	519.63	9.7981e-06	1.0969e-05	609.82	170.12	1.0357e-05	1.103e-05	288.39	116.53	63.192	29.048	1.0711e-05	62.692	373.083	235.271	239.476	165.593	285.152	304.317	165.310	171.697	270.799	341.309	170.332	175.303	176.246	182.398	300.704	179.605	-8191	255	
46437.828	1	1	0	0	0.20912	0.17366	0.063752	0.18934	0.03984	0.1346	0.098142	0.055729	0.2943	0.071634	0.021666	0.218	0.16591	0.04215	0.218	0.2124	-3.5458	-4.7979	-4.0667	-4.2167	-4.7896	-3.8792	-4.5771	-4.6271	-3.8	-4.9187	-4.2417	-4.2083	-4.9708	-3.8979	-4.4271	-4.6479	413.785	437.616	293.823	419.184	248.231	389.022	282.488	302.059	311.271	203.502	208.553	188.398	244.644	155.992	319.086	422.099	0.0019051	0.000661	0.00010627	558.19	4.4524e-06	2.8579e-06	649.36	181.14	8.6908e-06	2.3828e-06	303.63	123.66	67.14	30.497	4.1881e-06	65.712	0.0010108	0.00099297	0.00027447	521.55	1.0159e-05	1.0869e-05	608.53	170.14	1.0443e-05	1.1059e-05	286.81	116.31	63.197	29.215	1.0507e-05	62.653	370.597	242.446	221.043	165.280	337.235	315.989	165.059	171.415	269.543	351.147	170.389	175.390	176.330	182.048	291.622	179.547	-8191	255	
46437.926	1	1	0	0	0.19452	0.21437	0.20045	0.24553	0.17416	0.036281	0.16361	0.13625	0.22129	0.14997	0.1445	0.034609	0.2021	0.025868	0.19243	0.23542	-3.5792	-4.7854	-4.2146	-4.1167	-4.8375	-3.9667	-4.4771	-4.7354	-3.9083	-4.7708	-4.2083	-4.1042	-4.8104	-4.0833	-4.3167	-4.95	479.948	309.779	244.968	507.987	508.136	488.405	204.427	451.741	391.214	265.590	443.100	377.070	214.851	313.674	282.371	386.977	0.0021891	0.00065245	0.0001164	552.49	6.2031e-06	4.5344e-06	647.38	180.81	8.2215e-06	4.7627e-06	305.42	124.23	67.345	30.641	5.9239e-06	66.282	0.001032	0.00098008	0.00027339	516.82	1.0171e-05	1.0952e-05	605.58	169.9	1.0182e-05	1.1173e-05	288.02	116.78	63.623	29.392	1.0654e-05	63.074	370.383	251.639	227.590	165.445	304.865	286.582	165.116	171.474	284.396	295.056	170.688	175.331	176.197	182.069	306.520	179.567	-8191	255	
46438.020	1	1	0	0	0.1371	0.15211	0.18939	0.24225	0.15251	0.025827	0.12793	0.22313	0.12198	0.083247	0.084318	0.18139	0.079843	0.13644	0.17081	0.33515	-3.6771	-4.7542	-4.5417	-4.0771	-4.8604	-4.1333	-4.3542	-4.775	-3.8937	-4.5708	-4.4396	-4.0813	-4.9708	-4.1417	-4.3417	-4.8562	328.837	446.079	338.143	400.730	394.266	402.384	330.645	454.627	283.907	309.780	348.849	426.238	290.158	236.354	170.730	503.136	0.0020147	0.00040596	4.5517e-05	554.78	4.3922e-06	4.5384e-06	651.61	182.77	9.2424e-06	3.9407e-06	306.79	126.1	68.427	31.222	1.1324e-06	67.091	0.0010162	0.00097397	0.00027689	517.47	1.0083e-05	1.0911e-05	608.44	171.06	1.0359e-05	1.1024e-05	290.01	117.94	64.363	29.843	1.0582e-05	64.043	371.905	258.569	224.740	165.681	312.554	302.897	165.095	171.133	269.608	259.988	170.635	175.037	175.852	182.044	300.811	179.920	-8191	255	
46438.141	1	1	0	0	0.1001	0.072266	0.052621	0.097793	0.051092	0.22647	0.15048	0.15069	0.080388	0.11293	0.27775	0.087644	0.34039	0.1914	0.18421	0.12376	-3.5354	-4.5604	-4.4667	-3.7917	-4.7042	-4.1708	-4.1208	-4.85	-3.9625	-4.4417	-4.7458	-4	-4.7958	-4.4437	-3.9729	-4.8313	463.818	248.870	186.687	244.578	180.854	201.615	426.673	200.241	173.508	176.318	444.868	175.470	199.907	477.468	228.495	451.282	0.0018568	0.00034196	8.6598e-05	550.95	5.0265e-06	3.7242e-06	654.62	182.44	5.7327e-06	2.3786e-06	310.34	125.89	68.167	31.392	4.6007e-06	67.243	0.0010089	0.00097965	0.00027143	516.51	1.0097e-05	1.1053e-05	608.77	171.4	1.0423e-05	1.0844e-05	290.87	118.14	64.336	29.935	1.0802e-05	64.093	374.599	220.516	247.388	165.614	273.185	271.282	164.908	171.437	282.890	306.550	170.377	175.218	176.069	182.280	320.573	179.738	-8191	255	
46438.238	1	1	0	0	0.099981	0.085581	0.077216	0.07378	0.16437	0.17065	0.19523	0.10392	0.13043	0.16896	0.13909	0.10457	0.15594	0.10238	0.060845	0.19223	-3.55	-4.4	-4.6417	-3.8312	-4.8083	-4.3021	-4.1583	-4.825	-4.175	-4.3521	-4.8854	-3.8521	-4.5292	-4.475	-3.9313	-4.9229	201.479	301.655	174.617	157.683	417.473	174.224	176.542	506.508	407.112	263.767	275.331	482.224	197.811	291.716	495.089	247.353	0.0020271	0.00030132	0.00010445	554.94	1.4215e-06	4.3572e-06	654.47	181.54	1.1925e-05	1.1412e-06	306.13	124.12	67.648	30.604	4.29e-06	65.853	0.0010054	0.00097076	0.00027963	518.96	1.0258e-05	1.0728e-05	608.95	170.97	1.0479e-05	1.0901e-05	288.28	116.65	63.663	29.323	1.0618e-05	62.717	370.138	275.038	237.268	165.555	288.260	309.570	165.096	171.342	302.820	370.298	170.447	175.260	176.472	182.141	310.504	179.724	-8191	255	
46438.332	1	1	0	0	0.21093	0.13169	0.13864	0.27282	0.17789	0.16174	0.13471	0.057426	0.22815	0.068849	0.089963	0.088159	0.14399	0.062659	0.15292	0.19889	-3.7188	-4.0229	-4.7042	-3.9271	-4.5604	-4.4583	-3.9938	-4.7979	-4.2458	-4.1354	-4.8313	-3.8917	-4.5813	-4.6	-4.0125	-4.925	287.083	359.409	295.829	379.751	325.886	290.332	436.782	447.048	167.262	304.889	452.389	248.480	296.207	448.883	255.408	417.414	0.0019161	0.00030393	0.00014263	556.62	1.7659e-06	4.3354e-06	648.25	181.15	1.1762e-05	4.4483e-06	302.44	123.12	66.659	30.37	5.2694e-06	65.057	0.0010229	0.00098076	0.00027949	520.3	1.0311e-05	1.1059e-05	604.59	170.14	1.0294e-05	1.1202e-05	285.15	115.5	63.037	29.031	1.0688e-05	62.24	371.990	264.659	213.969	165.171	325.673	306.474	164.873	171.231	305.676	266.823	170.282	174.937	176.189	182.270	276.107	179.490	-8191	255	
46438.402	1	1	0	0	0.06667	0.34669	0.14802	0.13822	0.23768	0.029276	0.13205	0.14001	0.10246	0.040618	0.10928	0.14447	0.11597	0.127	0.22723	0.0896	-3.9813	-3.8979	-4.9083	-3.8083	-4.375	-4.4729	-4.0354	-4.6958	-4.1958	-4.0354	-4.8833	-4.0563	-4.325	-4.7729	-3.9354	-4.7958	455.332	262.429	260.887	490.570	439.231	299.712	479.736	470.533	235.460	316.360	178.929	156.456	231.867	503.426	303.280	383.892	0.0020163	0.00056879	0.00012936	552.5	7.5063e-06	4.7384e-06	647.84	179.52	1.2077e-05	3.7501e-06	304.7	124.04	66.838	30.655	4.5602e-06	65.839	0.0010176	0.0010037	0.00027271	518.13	1.0348e-05	1.109e-05	604.22	169.62	1.0199e-05	1.1194e-05	286.8	116.17	63.447	29.23	1.0733e-05	62.719	368.781	249.327	221.686	165.206	300.212	338.385	165.044	171.088	294.607	300.448	170.297	175.162	176.059	182.186	267.496	179.344	-8191	255	
46438.523	1	1	0	0	0.15329	0.078978	0.09551	0.11098	0.14073	0.15115	0.16515	0.17665	0.11586	0.27656	0.18053	0.22935	0.15907	0.28483	0.27104	0.15067	-4.0917	-4.0271	-4.8583	-4.0771	-4.2833	-4.6208	-3.7708	-4.6708	-4.4333	-3.9	-4.9042	-4.0146	-4.275	-4.7646	-3.6792	-4.6813	229.913	399.512	266.056	242.175	457.572	480.190	174.939	484.354	188.372	330.197	177.663	286.615	394.450	498.289	390.189	309.462	0.0020398	0.00042736	0.00014643	547.95	4.1981e-06	3.5978e-06	641.68	179.9	6.3252e-06	4.6861e-06	304.32	123.58	67.082	30.608	5.3502e-06	66.202	0.0010081	0.00098227	0.0002748	512.9	1.0294e-05	1.1077e-05	601.23	169.11	1.0234e-05	1.1204e-05	286.76	116.15	63.101	29.273	1.0712e-05	62.968	365.663	268.418	210.360	165.136	326.488	326.289	165.202	171.282	282.936	285.997	170.378	175.216	176.102	182.366	313.286	179.507	-8191	255	
46438.617	1	1	0	0	0.24207	0.059085	0.19562	0.25156	0.22037	0.091876	0.13476	0.082554	0.36738	0.303	0.35388	0.093306	0.093216	0.16649	0.19957	0.2477	-4.1646	-3.7667	-4.8542	-4.0896	-4.0708	-4.7083	-4.0292	-4.5542	-4.4854	-3.9792	-4.975	-4.4625	-4.0417	-4.9125	-3.9792	-4.4938	203.773	195.847	482.867	379.079	216.526	470.737	157.359	179.047	367.757	246.992	387.230	449.694	440.020	196.540	231.420	453.567	0.001958	0.00073094	6.2494e-05	548.78	5.4778e-06	4.9355e-06	641.74	179.09	1.1999e-05	4.722e-06	302.79	122.35	66.377	30.497	4.4918e-06	65.164	0.00098247	0.00097897	0.00027319	512.49	9.8719e-06	1.0798e-05	599.68	168.42	1.012e-05	1.0983e-05	285.07	115.37	62.612	28.974	1.0618e-05	62.022	372.813	231.956	262.560	165.211	287.484	301.516	164.792	171.293	323.188	282.741	170.576	175.190	175.846	182.026	281.827	179.634	-8191	255	
46438.715	1	1	0	0	0.13243	0.31404	0.2001	0.096767	0.22915	0.27433	0.23029	0.11304	0.33464	0.27818	0.22257	0.2452	0.047218	0.14614	0.065761	0.1636	-4.3417	-3.8271	-4.7979	-4.2167	-4.1042	-4.8021	-3.9792	-4.4625	-4.5479	-3.975	-4.7167	-4.2937	-4.0792	-4.8229	-3.975	-4.3792	293.797	383.378	161.290	449.189	188.194	359.822	490.571	185.234	350.700	268.708	193.678	486.008	251.688	175.033	358.607	371.205	0.0021398	0.00027447	0.00017854	541.43	4.743e-06	4.6173e-06	639.59	177.75	1.0655e-05	2.5674e-06	301.47	122.76	66.455	30.308	2.2443e-06	65.292	0.00099764	0.0009819	0.00027397	507.62	9.8975e-06	1.0718e-05	595.82	167.44	1.0047e-05	1.08e-05	284.44	115.29	62.584	29.068	1.0395e-05	62.278	373.687	230.907	261.545	165.576	275.430	295.012	165.149	171.445	298.523	300.715	170.123	175.253	176.526	182.487	376.308	179.595	-8191	255	
46438.812	1	1	0	0	0.14798	0.18775	0.23135	0.16884	0.22478	0.046084	0.19937	0.21082	0.077951	0.083203	0.26182	0.097587	0.13112	0.2259	0.16424	0.24101	-4.2688	-3.7208	-4.7125	-4.3917	-3.9313	-4.6104	-4.0563	-4.2833	-4.6458	-3.8583	-4.6542	-4.675	-3.9208	-4.7479	-3.9521	-4.3396	366.549	410.005	386.749	350.313	345.769	235.453	455.354	243.103	285.761	301.103	451.556	331.623	507.832	434.273	406.282	160.289	0.0020002	0.00033927	0.00014916	542.36	6.4318e-06	5.4323e-06	632.27	178.08	5.3373e-06	4.6795e-06	301.6	123.5	66.908	30.574	1.7787e-06	65.825	0.0010016	0.00096219	0.00026467	506.5	1.0129e-05	1.0717e-05	594.32	167.49	1.0102e-05	1.0917e-05	285.02	116.11	62.953	29.249	1.0492e-05	62.702	371.414	229.928	247.504	165.363	294.853	309.756	165.248	171.356	312.622	314.861	170.391	175.622	176.062	182.155	316.990	179.755	-8191	255	
46438.934	1	1	0	0	0.11452	0.20034	0.20296	0.04219	0.28799	0.10139	0.012794	0.2937	0.13043	0.21471	0.153	0.2065	0.1193	0.10174	0.23807	0.14603	-4.5854	-3.8667	-4.5208	-4.5458	-3.7708	-4.7854	-4.2146	-4.2271	-4.6375	-3.7833	-4.3583	-4.7479	-3.7583	-4.7125	-4.175	-4.0917	397.134	205.518	210.327	442.978	273.355	505.353	268.677	450.010	400.929	464.065	482.057	439.962	217.111	510.503	438.339	352.045	0.0019101	0.00049468	0.00013997	543.2	6.1213e-06	3.3801e-06	636.42	178.2	7.0749e-06	2.0464e-06	303.86	123.2	66.708	30.363	4.9409e-06	65.635	0.00099747	0.00098146	0.00026707	507.17	1.0184e-05	1.102e-05	596.26	167.69	9.9389e-06	1.0753e-05	285.11	115.72	62.692	28.997	1.0413e-05	62.438	374.142	272.915	222.867	165.348	292.727	318.375	165.162	171.536	298.533	297.675	170.215	175.420	176.325	182.468	282.554	179.743	-8191	255	
46439.004	1	1	0	0	0.14872	0.13147	0.11149	0.16916	0.16204	0.17596	0.019692	0.23214	0.2179	0.15814	0.18431	0.11151	0.21145	0.037116	0.27971	0.13795	-4.4375	-3.7792	-4.5021	-4.6958	-3.85	-4.6479	-4.35	-4.0271	-4.8271	-3.9583	-4.1958	-4.6958	-3.9167	-4.6792	-4.3479	-3.9583	190.773	409.000	396.412	508.165	489.228	324.092	335.756	500.745	338.165	480.967	452.797	482.557	244.938	469.904	438.811	400.813	0.002003	0.00029902	0.00012741	543.8	5.4668e-06	6.36e-06	643.24	178.96	5.2878e-06	4.429e-06	301.64	122.37	66.755	30.197	6.3478e-06	65.055	0.00099171	0.00095843	0.00027294	507.72	1.0023e-05	1.0652e-05	599.54	167.84	1.0155e-05	1.1071e-05	284.28	115.31	62.69	28.848	1.0388e-05	62.11	369.232	290.607	255.294	165.788	334.532	338.290	165.275	171.404	296.975	293.676	170.386	175.255	176.350	182.388	320.325	179.510	-8191	255	
46439.102	1	1	0	0	0.12429	0.10624	0.061081	0.089122	0.24505	0.013123	0.14629	0.072202	0.14826	0.065785	0.32392	0.29108	0.16226	0.1491	0.1726	0.1966	-4.5104	-3.9938	-4.0917	-4.9313	-3.7958	-4.425	-4.5646	-3.9667	-4.6562	-4.1708	-4.0958	-4.8333	-3.9542	-4.4625	-4.5854	-4.0396	285.675	293.847	247.512	485.681	502.362	274.607	487.059	384.173	407.149	466.119	438.734	187.821	203.100	215.738	324.285	482.847	0.001954	0.0004666	0.00013553	546	7.3604e-06	6.3481e-06	639.58	178.41	4.4644e-06	6.8755e-06	300.1	121.96	66.493	30.36	6.1756e-06	65.067	0.00099058	0.00098402	0.00026944	508.35	1.0081e-05	1.0946e-05	595.35	167.57	9.9663e-06	1.0527e-05	283.88	115.1	62.61	29.004	1.0267e-05	62.196	371.640	228.333	258.572	165.470	230.481	291.420	165.130	171.198	260.370	289.721	170.329	175.242	175.468	182.247	315.319	179.302	-8191	255	
46439.223	1	1	0	0	0.042587	0.15266	0.1458	0.021536	0.1398	0.069095	0.18495	0.20327	0.15805	0.18836	0.2478	0.20122	0.15074	0.081135	0.24898	0.1609	-4.45	-4.1292	-4.0667	-4.7792	-3.9083	-4.4104	-4.725	-3.7292	-4.6417	-4.3021	-3.9625	-4.9688	-3.8271	-4.3042	-4.6604	-3.8729	428.857	355.770	373.134	443.490	347.027	405.515	326.530	304.277	511.952	417.905	296.357	496.791	354.089	493.021	461.507	474.640	0.0019152	0.00041377	0.00011452	538.41	9.4895e-06	3.0975e-06	634.3	178.41	9.7745e-06	3.7432e-06	303.45	123.64	67.444	30.532	5.2511e-06	65.588	0.0009915	0.00098045	0.00026804	504.91	1.0075e-05	1.0758e-05	594.75	167.95	9.8866e-06	1.0616e-05	285.61	116.16	63.252	29.301	1.0403e-05	62.686	369.942	235.443	241.225	165.659	273.468	313.183	165.282	171.230	308.609	333.112	170.476	175.228	176.038	182.166	330.786	179.548	-8191	255	
46439.316	1	1	0	0	0.21799	0.14366	0.096472	0.15954	0.074134	0.24381	0.063952	0.24227	0.18854	0.21131	0.084271	0.20995	0.066837	0.24002	0.16005	0.16177	-4.3875	-4.2438	-3.9188	-4.8354	-3.9792	-4.2688	-4.8146	-3.8917	-4.6229	-4.3833	-3.8958	-4.7896	-4.1292	-4.3146	-4.7312	-3.8292	250.608	169.919	329.925	206.628	302.545	179.248	472.816	502.473	434.256	331.520	294.155	465.057	339.640	494.173	279.658	395.052	0.0020025	0.00023026	9.4029e-05	542.64	5.7728e-06	5.7333e-06	639.22	179.24	7.7514e-06	4.1948e-06	303.62	124.08	67.324	30.575	4.594e-06	65.511	0.0010021	0.0009464	0.00026922	506.57	9.9476e-06	1.0742e-05	596.99	168.32	9.8959e-06	1.0668e-05	286.14	116.43	63.236	29.276	1.0516e-05	62.776	370.738	253.355	203.713	165.536	324.697	317.722	165.425	171.613	271.541	314.350	170.322	175.652	176.496	182.188	330.294	179.724	-8191	255	
46439.414	1	1	0	0	0.24901	0.094806	0.17941	0.052717	0.048597	0.20098	0.24446	0.43982	0.16609	0.10639	0.19678	0.091051	0.087871	0.077773	0.016693	0.085596	-4.2896	-4.3938	-3.8604	-4.9354	-4.1333	-4.2833	-4.7688	-3.9333	-4.4875	-4.5833	-3.8146	-4.9458	-4.1979	-4.2167	-4.8438	-3.8083	279.584	254.671	460.417	159.048	186.280	236.717	475.013	418.351	484.765	294.619	396.542	242.935	295.414	466.883	330.284	191.582	0.0020077	0.00055283	6.1285e-05	547.2	9.2792e-06	4.2244e-06	640.69	178.78	1.0899e-05	4.5498e-06	302.43	123.15	66.649	30.475	5.3213e-06	65.64	0.00099787	0.00097006	0.00027685	509.4	1.0093e-05	1.0829e-05	599.07	167.96	1.0058e-05	1.0774e-05	284.94	115.94	62.797	29.09	1.0444e-05	62.656	372.460	251.458	263.335	165.558	274.692	287.681	165.648	171.477	269.391	331.402	170.308	175.550	176.350	182.019	293.844	179.466	-8191	255	
46439.508	1	1	0	0	0.083327	0.064368	0.11369	0.17933	0.034884	0.11814	0.093075	0.37291	0.21801	0.19347	0.20465	0.31728	0.21048	0.026932	0.089522	0.12846	-4.1042	-4.5708	-3.6979	-4.6438	-4.2458	-3.8729	-4.9688	-3.975	-4.2854	-4.7708	-3.8771	-4.7604	-4.2937	-3.9958	-4.8104	-4.1271	335.401	170.299	464.906	504.790	184.421	211.289	476.861	423.200	501.206	176.553	506.254	432.125	452.440	300.442	458.719	415.126	0.0020452	0.00057081	0.00010929	546.45	6.9246e-06	4.3479e-06	639.51	177.76	1.0905e-05	3.3676e-06	301.58	123.43	66.503	30.487	3.295e-06	65.327	0.00099402	0.00095279	0.00027508	509.64	9.9276e-06	1.0806e-05	597.93	168.09	1.0023e-05	1.0794e-05	285.02	115.84	62.74	29.152	1.0343e-05	62.441	368.634	227.060	205.593	165.632	298.397	319.546	165.195	171.251	283.340	250.114	170.648	175.352	176.218	181.960	352.422	179.595	-8191	255	
46439.605	1	1	0	0	0.095935	0.065802	0.15393	0.076233	0.15197	0.091829	0.19492	0.16703	0.014855	0.21151	0.17754	0.050866	0.0786	0.29953	0.19926	0.044361	-3.9875	-4.6896	-3.7583	-4.5833	-4.4187	-3.9146	-4.8604	-3.9896	-4.0979	-4.7667	-3.9646	-4.775	-4.3208	-3.9688	-4.8542	-4.25	443.179	355.722	234.309	432.224	300.630	306.998	490.441	168.166	368.275	303.397	448.720	403.882	394.662	447.715	258.093	336.631	0.0020149	0.00077912	0.00014379	542.84	2.0047e-06	5.171e-06	638.45	179.22	5.4054e-06	6.4804e-06	301.01	123.17	66.809	30.269	2.2309e-06	64.858	0.0009958	0.00096614	0.00027455	508.3	1.0053e-05	1.0615e-05	597.03	167.92	1.0043e-05	1.085e-05	284.92	115.54	62.736	28.954	1.0467e-05	62.229	373.039	275.049	232.166	165.668	308.643	270.623	165.351	171.658	311.835	292.379	170.095	175.317	176.465	182.334	352.369	179.806	-8191	255	
46439.699	1	1	0	0	0.053238	0.16332	0.092792	0.13902	0.10648	0.092655	0.26689	0.15568	0.29377	0.20668	0.061305	0.16462	0.17503	0.030672	0.15151	0.26261	-3.7375	-4.7438	-3.8729	-4.4333	-4.6312	-3.8312	-4.7667	-4.3354	-4.0208	-4.8979	-4.0958	-4.4688	-4.8042	-3.9333	-4.7292	-4.4458	314.235	399.810	222.196	181.218	459.834	358.801	500.227	447.254	262.203	283.348	484.092	383.249	433.415	511.111	287.515	487.945	0.0019869	0.00044049	0.00015802	541.97	3.8547e-06	5.1456e-06	641.32	178.28	8.1342e-06	5.2281e-06	302.51	124.03	66.762	30.587	3.8373e-06	65.957	0.00098779	0.0009567	0.00027154	508.53	1.0014e-05	1.0824e-05	598.35	167.89	1.0009e-05	1.0754e-05	285.03	116.16	62.959	29.214	1.0504e-05	62.814	370.152	220.719	259.914	165.175	388.387	251.543	165.197	171.607	323.722	267.376	170.277	175.587	175.958	182.036	291.560	179.542	-8191	255	
46439.820	1	1	0	0	0.024853	0.13582	0.094078	0.18852	0.10144	0.13497	0.19809	0.048051	0.17835	0.089356	0.26755	0.14579	0.099807	0.18723	0.087136	0.20187	-3.6896	-4.8479	-3.975	-4.4125	-4.7083	-3.725	-4.7729	-4.4271	-3.8833	-4.7833	-4.0813	-4.3688	-4.7812	-3.8271	-4.6792	-4.5167	163.638	470.353	339.494	189.159	488.198	170.377	401.069	330.219	180.918	364.064	335.234	223.613	447.992	444.306	490.349	353.905	0.0018867	0.00050315	0.00011856	542.83	7.1835e-06	4.2072e-06	639.7	179.41	9.9838e-06	2.1369e-06	304.7	124.56	67.339	30.912	6.3718e-06	66.818	0.0010056	0.00095905	0.00027248	507.97	1.0133e-05	1.0881e-05	597.44	168.42	1.0101e-05	1.0809e-05	287.17	116.93	63.361	29.477	1.0256e-05	63.632	370.568	276.630	245.408	165.411	311.624	315.128	165.170	171.616	273.611	276.665	170.354	175.142	176.110	182.215	283.610	179.771	-8191	255	
46439.918	1	1	0	0	0.087387	0.010409	0.14193	0.014244	0.12316	0.12132	0.22506	0.035775	0.081247	0.07653	0.2438	0.14532	0.25912	0.20387	0.25199	0.11185	-3.5958	-4.9208	-4.1833	-4.2646	-4.7667	-3.7979	-4.4771	-4.6667	-3.8104	-4.775	-4.1354	-4.2958	-4.8938	-3.8896	-4.3979	-4.6271	327.823	174.032	258.302	364.228	375.697	184.784	268.520	412.091	501.080	486.639	429.065	419.937	410.155	457.182	224.807	364.236	0.0020094	0.00042945	0.00012995	542.97	8.3104e-07	5.7258e-06	641.89	179.88	1.0197e-05	4.125e-06	303.29	125.41	67.71	31.164	4.6395e-06	66.767	0.001005	0.00095562	0.00027139	506.66	9.717e-06	1.0836e-05	598.65	168.93	1.032e-05	1.068e-05	287.32	117.43	63.839	29.769	1.0453e-05	63.708	371.589	261.689	269.011	165.552	171.254	345.615	165.303	171.839	296.360	269.817	170.656	175.320	176.397	182.382	313.527	179.657	-8191	255	
46440.012	1	1	0	0	0.033773	0.15557	0.31057	0.16408	0.10093	0.062221	0.18057	0.15663	0.070936	0.082256	0.2098	0.1774	0.10129	0.20985	0.15419	0.038512	-3.6562	-4.6813	-4.2917	-4.0604	-4.8792	-3.7771	-4.5146	-4.725	-3.8729	-4.7854	-4.2604	-4	-4.9604	-4.0875	-4.1521	-4.85	364.010	154.877	431.454	158.123	347.677	288.073	457.941	482.125	434.564	353.691	417.785	377.267	309.846	160.625	459.633	501.246	0.0020605	0.00034166	0.00012091	542.05	6.1907e-06	2.8721e-06	638.79	180.09	1.0192e-05	8.4735e-07	306.98	126.32	68.747	31.918	4.1766e-06	68.035	0.0010106	0.00096275	0.00027178	505.56	1.0142e-05	1.086e-05	596.38	169.47	9.9214e-06	1.0751e-05	289.11	118.82	64.715	30.535	1.0577e-05	65.008	375.151	172.084	256.883	165.600	337.005	338.245	165.234	171.601	294.279	240.803	170.446	174.933	176.291	182.318	291.031	179.581	-8191	255	
46440.109	1	1	0	0	0.062421	0.27262	0.072426	0.048071	0.10491	0.25471	0.09158	0.16233	0.083055	0.10329	0.27482	0.12989	0.071345	0.15096	0.30478	0.043112	-3.6479	-4.7375	-4.3271	-4.0104	-4.8562	-4.0292	-4.3958	-4.9542	-3.7354	-4.7	-4.5125	-4.0104	-4.8938	-4.0979	-4.1771	-4.7646	168.591	334.445	287.908	206.882	255.548	382.595	360.649	346.377	334.612	441.402	481.593	451.462	470.103	249.314	451.503	263.047	0.0021122	0.00032958	0.00014773	539.71	5.2683e-06	5.9483e-06	641.97	182.48	8.9869e-06	6.6687e-06	308.28	128.51	69.548	32.543	5.5846e-06	68.969	0.0010234	0.00095084	0.00026856	504.06	1.0045e-05	1.0873e-05	597.84	170.89	1.0167e-05	1.082e-05	292.05	120.44	65.509	31.097	1.0769e-05	65.863	372.567	307.350	234.834	165.683	305.588	254.835	165.350	171.573	293.343	296.183	170.651	175.445	176.492	182.282	331.672	179.512	-8191	255	
46440.230	1	1	0	0	0.19251	0.25416	0.064937	0.12246	0.044997	0.14023	0.14815	0.041679	0.1779	0.21226	0.26448	0.031017	0.12509	0.16584	0.09624	0.1862	-3.5708	-4.7479	-4.6167	-4.0875	-4.9062	-4.025	-4.1562	-4.9229	-4.0563	-4.5563	-4.7375	-3.8604	-4.7854	-4.35	-4.0042	-5.0333	491.583	332.175	293.454	475.253	388.099	164.190	196.638	206.987	230.722	398.055	407.862	202.275	451.283	462.316	295.009	362.204	0.0020669	0.00055138	0.00021588	539.25	6.8695e-06	4.1885e-06	646.11	182.9	9.885e-06	1.1588e-06	312.05	129.31	70.034	32.912	4.7334e-06	69.868	0.0010089	0.00098683	0.00027511	504.44	9.978e-06	1.0823e-05	600.49	172.15	1.0161e-05	1.0798e-05	294.21	121.72	66.229	31.448	1.0597e-05	66.762	369.689	227.877	221.720	165.367	295.929	271.720	165.402	171.417	299.001	250.135	170.665	175.383	176.153	182.546	285.804	179.549	-8191	255	
46440.301	1	1	0	0	0.2064	0.12365	0.1209	0.11483	0.17437	0.10474	0.16681	0.070572	0.21257	0.17626	0.21578	0.19203	0.10875	0.12904	0.23234	0.12491	-3.6042	-4.4729	-4.5188	-4.1083	-4.8354	-4.3542	-4.0979	-4.9417	-3.8521	-4.3417	-4.7729	-3.8646	-4.7458	-4.4271	-3.9646	-5.0417	369.565	292.930	346.672	493.627	478.349	382.052	418.613	158.679	283.436	183.476	462.384	446.886	229.994	506.620	381.250	454.900	0.0021959	0.00029977	0.00010574	542.06	8.0547e-06	3.7351e-06	643.79	183.5	1.2483e-05	4.4798e-06	309.87	128.68	70.463	32.925	4.7276e-06	69.764	0.0010267	0.00098279	0.00026583	505.99	1.0094e-05	1.0709e-05	601.71	172.64	1.0171e-05	1.0839e-05	293.63	121.21	66.243	31.358	1.0417e-05	66.365	369.976	207.313	235.316	165.565	274.443	287.817	165.133	171.664	332.403	330.863	170.497	175.373	176.025	182.269	294.453	179.664	-8191	255	
46440.398	1	1	0	0	0.11047	0.13252	0.25275	0.16723	0.12343	0.15782	0.22325	0.066919	0.1146	0.17835	0.17626	0.23101	0.094127	0.069	0.1769	0.24604	-3.6021	-4.2833	-4.6937	-3.9479	-4.5333	-4.5479	-4.0833	-4.7625	-4.1833	-4.2063	-4.8146	-3.9562	-4.5188	-4.6312	-3.8396	-4.9771	355.190	348.816	230.219	498.984	279.899	273.091	351.962	477.710	270.240	467.046	388.949	503.949	489.182	476.537	282.297	374.516	0.0020831	0.00030285	3.9936e-05	540.74	3.6742e-06	5.0334e-06	644.25	183.58	7.9587e-06	3.1567e-06	311.37	129.18	70.204	33.252	4.635e-06	69.834	0.0010226	0.00098282	0.00027412	504.91	9.9596e-06	1.0715e-05	599.53	172.77	1.0165e-05	1.0881e-05	293.33	121.49	66.414	31.692	1.0674e-05	66.75	371.081	291.777	260.919	165.559	233.051	332.011	165.373	171.308	298.824	294.266	170.422	175.130	175.935	182.146	244.782	179.307	-8191	255	
46440.492	1	1	0	0	0.093136	0.13997	0.10687	0.14322	0.079624	0.24411	0.11121	0.13851	0.14382	0.13482	0.075781	0.26011	0.19297	0.050467	0.068047	0.088953	-3.9	-3.9896	-4.7688	-3.9125	-4.3729	-4.6354	-3.8646	-4.8417	-4.2604	-4.0167	-4.9583	-3.9417	-4.4708	-4.7833	-3.6896	-4.8438	202.254	230.417	248.893	237.824	156.426	391.388	444.324	472.551	444.206	231.701	290.102	481.448	416.439	359.397	402.068	473.181	0.0021426	0.00051789	0.0001111	534.76	5.0245e-06	9.0017e-07	644.52	183.72	5.4946e-06	5.9288e-06	312.45	130.05	70.576	33.152	8.5364e-06	70.351	0.0010185	0.00097366	0.00026896	502.2	1.0306e-05	1.0798e-05	599.94	173.05	1.0151e-05	1.0956e-05	294.9	122.01	66.601	31.778	1.074e-05	67.095	370.230	212.828	286.325	165.466	294.339	285.742	165.389	171.724	286.359	276.758	170.454	175.129	176.544	182.485	267.132	179.569	-8191	255	
46440.613	1	1	0	0	0.1911	0.041876	0.24358	0.22249	0.22972	0.31629	0.086493	0.19452	0.26765	0.10057	0.21668	0.22731	0.06839	0.079892	0.27849	0.20837	-3.9813	-3.9167	-4.8333	-3.9917	-4.3063	-4.7271	-3.8104	-4.5229	-4.3604	-3.975	-4.7312	-4.1729	-4.2208	-4.8854	-3.8625	-4.6312	164.876	458.804	193.875	286.038	336.339	154.074	460.229	490.488	371.211	494.548	207.153	384.561	207.661	381.015	468.062	459.180	0.0020714	0.00032396	6.9397e-05	535.81	7.8606e-06	6.657e-06	641.62	183.35	7.2287e-06	4.1082e-06	311.93	129.22	70.496	33.022	3.2224e-06	70.289	0.001	0.00098097	0.00027957	503.26	1.0243e-05	1.0767e-05	600.03	172.75	1.0361e-05	1.1002e-05	295.13	121.69	66.528	31.599	1.0806e-05	66.932	370.309	263.930	232.475	165.327	281.075	282.362	165.274	171.646	300.234	305.323	170.731	174.997	176.239	182.008	311.223	179.712	-8191	255	
46440.707	1	1	0	0	0.28621	0.13309	0.29994	0.22325	0.40131	0.18485	0.37194	0.19446	0.16937	0.012794	0.079795	0.16979	0.089894	0.41504	0.10918	0.079963	-4.1188	-3.8792	-4.6646	-4.2562	-4.1292	-4.6896	-3.9021	-4.5458	-4.6458	-3.8917	-4.7937	-4.1542	-4.0917	-4.725	-3.7729	-4.5458	220.920	512.880	258.400	508.294	324.907	398.867	157.044	440.360	208.524	432.233	362.102	367.787	431.034	442.076	365.759	503.679	0.0020326	0.00047251	0.00014517	538.31	5.6234e-06	5.7228e-06	645.02	185.34	1.0732e-05	5.603e-06	316.06	130.08	71.047	33.242	7.7492e-06	70.553	0.0010021	0.00097764	0.00027074	504.48	1.024e-05	1.0765e-05	603.03	173.51	1.0174e-05	1.1108e-05	296.15	122.06	66.847	31.87	1.0749e-05	67.243	372.230	229.148	269.114	165.715	331.004	314.617	165.341	171.352	311.219	357.900	170.352	175.219	176.415	182.175	297.995	179.561	-8191	255	
46440.805	1	1	0	0	0.1766	0.10508	0.11144	0.052899	0.050978	0.13829	0.081215	0.20323	0.10728	0.242	0.21475	0.14441	0.13819	0.13167	0.026156	0.32382	-4.1521	-3.7792	-4.6813	-4.3125	-3.975	-4.8396	-3.7458	-4.3833	-4.6229	-3.9292	-4.7562	-4.4396	-3.9208	-4.8021	-4.0813	-4.2625	313.993	288.631	306.980	475.520	201.988	256.789	459.567	476.437	171.825	407.169	499.300	449.539	198.441	391.714	350.930	441.557	0.0021712	0.00027523	0.00013197	539.83	5.5288e-06	4.3146e-06	640.68	184.25	4.6516e-06	7.5037e-06	313.33	130.44	71.665	33.762	8.3598e-06	70.669	0.0010345	0.00098285	0.00027263	505.29	1.018e-05	1.0605e-05	599.67	173.47	1.0218e-05	1.0791e-05	294.62	122.17	67.11	32.134	1.0636e-05	67.431	371.871	211.571	246.255	165.792	259.545	281.375	165.506	171.409	280.559	294.860	170.533	175.365	176.475	182.232	273.846	179.537	-8191	255	
46440.902	1	1	0	0	0.12344	0.079651	0.066118	0.045161	0.094437	0.075975	0.25829	0.35947	0.077154	0.14947	0.10961	0.22381	0.16802	0.13305	0.071373	0.067504	-4.5125	-3.8833	-4.6417	-4.5	-3.8729	-4.7812	-4.0229	-4.2583	-4.7354	-3.8063	-4.7271	-4.4688	-3.9813	-4.9021	-4.0521	-4.2333	295.260	450.765	486.718	332.546	262.346	513.687	438.189	498.686	212.448	401.971	402.713	174.303	389.813	166.992	377.358	207.059	0.0020059	0.00030759	0.00013576	538.46	8.5464e-06	4.7385e-06	645.28	184.89	7.3347e-06	2.3683e-06	313.44	131.05	71.555	33.795	6.6274e-06	70.894	0.0010212	0.00097012	0.00027538	502.9	1.0191e-05	1.0839e-05	600.64	173.85	1.029e-05	1.0862e-05	296.16	122.75	67.392	32.268	1.0757e-05	67.646	370.963	211.151	232.507	165.793	292.548	333.453	165.504	171.762	312.510	281.074	170.608	175.351	176.071	182.332	299.907	179.619	-8191	255	
46440.996	1	1	0	0	0.047976	0.19954	0.1811	0.012486	0.090188	0.085331	0.24476	0.088694	0.02696	0.092276	0.32548	0.16029	0.30945	0.087007	0.15854	0.30684	-4.5687	-3.7479	-4.5146	-4.5625	-3.9	-4.7333	-4.1729	-4.1646	-4.7042	-3.9417	-4.6188	-4.7958	-3.8146	-4.7792	-4.2562	-4.0813	398.867	342.724	290.971	423.686	383.527	304.679	482.706	209.897	446.637	265.875	162.354	154.619	472.343	210.486	489.149	491.010	0.0020963	0.00059129	0.00017188	540.45	8.7479e-06	5.4134e-06	645.04	185.79	9.9264e-06	2.7342e-06	314.07	131.13	70.977	33.963	5.6214e-06	71.532	0.0010227	0.00098436	0.00027648	504.16	1.0237e-05	1.0855e-05	601.68	174.36	1.0303e-05	1.0931e-05	296.45	123.42	67.429	32.45	1.0664e-05	68.069	371.463	243.453	228.756	165.688	321.590	319.340	165.256	171.557	275.318	316.335	170.695	175.394	176.522	182.419	285.244	179.528	-8191	255	
46441.094	1	1	0	0	0.30072	0.1649	0.039546	0.18608	0.2823	0.1747	0.1391	0.21804	0.21958	0.21361	0.15409	0.33888	0.1359	0.16188	0.12824	0.077724	-4.6	-3.8542	-4.2146	-4.6771	-3.6583	-4.7729	-4.3292	-3.7938	-4.7292	-4.1167	-4.1875	-4.9625	-3.7104	-4.7167	-4.3271	-4.0646	301.246	511.084	226.723	430.165	241.249	328.287	456.884	423.306	367.187	248.555	474.998	489.949	165.408	506.540	480.683	409.917	0.0021661	0.00052009	0.00010336	540.27	2.6003e-06	4.1512e-06	644.33	185.05	6.873e-06	4.7367e-06	315.09	131.33	71.134	33.882	4.5019e-06	70.807	0.0010284	0.00099827	0.00028076	504.26	1.003e-05	1.0793e-05	601.78	174.33	1.0153e-05	1.103e-05	297.35	123.1	67.315	32.267	1.0553e-05	67.665	371.685	232.805	245.178	165.700	309.023	290.456	165.269	171.604	325.937	290.587	170.566	175.541	176.759	182.271	305.692	179.606	-8191	255	
46441.188	1	1	0	0	0.2291	0.096989	0.27745	0.11506	0.091898	0.088781	0.098012	0.11094	0.059238	0.15902	0.12903	0.097298	0.27063	0.21237	0.14397	0.34458	-4.3521	-4.1458	-4.1958	-4.6375	-3.8833	-4.4896	-4.4958	-3.7812	-4.8375	-3.9375	-4.1875	-4.6167	-3.7271	-4.5167	-4.5083	-3.8063	201.805	273.246	269.964	482.507	296.078	293.832	330.675	382.260	189.644	280.690	498.090	224.201	406.424	199.782	358.930	476.811	0.0021862	0.00049865	0.00015876	540.77	5.9437e-06	5.5788e-06	646.12	184.36	7.9549e-06	1.0428e-06	311.61	129.54	70.286	33.162	6.2289e-06	70.084	0.001015	0.00098162	0.00027817	505.97	1.0452e-05	1.0944e-05	600.96	173.37	1.0176e-05	1.0936e-05	294.17	121.64	66.489	31.657	1.085e-05	66.565	371.355	235.011	252.839	165.698	293.826	268.627	165.216	171.566	298.063	278.507	170.718	175.444	176.646	182.146	297.812	179.388	-8191	255	
46441.309	1	1	0	0	0.29572	0.10013	0.075326	0.13417	0.15152	0.20695	0.094418	0.22821	0.033717	0.13701	0.28523	0.20507	0.15734	0.12032	0.19599	0.090127	-4.4812	-4.1833	-4.075	-4.9062	-3.6813	-4.3521	-4.6062	-3.7062	-4.7521	-4.2229	-4.0437	-5.0021	-4.1	-4.3167	-4.5771	-4.0229	262.763	475.035	313.112	440.227	222.632	259.854	422.284	472.234	450.439	281.306	426.224	310.978	469.900	479.944	315.431	422.806	0.0021004	0.00055184	0.00012991	538.87	7.5948e-06	5.1391e-06	637.32	183.36	8.3297e-06	3.3907e-06	309.72	129.6	70.587	33.17	7.2053e-06	69.692	0.0010207	0.00099735	0.00028119	504.25	1.0254e-05	1.0964e-05	597.91	172.42	1.0468e-05	1.1165e-05	293.14	121.57	66.473	31.68	1.0839e-05	66.617	369.204	238.894	302.120	165.697	295.391	282.702	165.448	171.530	309.269	308.541	170.927	175.410	176.300	182.461	268.702	179.497	-8191	255	
46441.406	1	1	0	0	0.10947	0.16286	0.14333	0.036782	0.26258	0.10861	0.12897	0.20296	0.3031	0.12371	0.092083	0.14131	0.25484	0.095868	0.083295	0.2522	-4.2896	-4.3625	-3.8937	-4.8333	-3.7875	-4.2667	-4.7479	-3.9188	-4.5479	-4.2333	-3.9979	-4.9896	-4.0208	-4.2542	-4.5667	-3.925	154.078	425.339	294.182	356.657	185.275	476.457	220.021	422.356	339.764	203.298	494.485	228.063	510.532	249.744	477.918	472.410	0.0021302	0.00041486	0.00013082	537.68	4.8518e-06	4.4072e-06	639.01	182.54	1.1387e-05	6.4609e-06	310.34	128.85	70.395	32.961	6.215e-06	70.227	0.0010345	0.00099442	0.00027418	502.7	1.0388e-05	1.1066e-05	596.54	171.88	1.0342e-05	1.1024e-05	293.08	121.32	66.251	31.585	1.0721e-05	66.755	371.022	235.416	208.342	165.786	316.982	250.885	165.425	171.694	328.111	329.906	170.472	175.336	176.172	182.346	281.106	179.444	-8191	255	
46441.504	1	1	0	0	0.14714	0.10152	0.16014	0.02917	0.061595	0.21742	0.27084	0.064083	0.097282	0.25967	0.18695	0.02816	0.067922	0.11844	0.17447	0.16045	-4.325	-4.4187	-3.9188	-4.7438	-3.9917	-3.9458	-4.8	-3.8771	-4.4396	-4.4375	-3.8792	-4.8625	-4.2917	-4.1333	-4.8146	-3.8229	416.007	216.014	466.787	428.068	479.939	209.828	441.073	480.184	502.328	437.845	332.749	371.699	190.222	497.432	511.308	432.769	0.0021969	0.0004297	0.00013372	535.3	4.2697e-06	8.4107e-06	639.54	182.59	8.3576e-06	6.7303e-06	313.41	129.16	70.295	33.103	6.2942e-06	70.179	0.0010328	0.00099176	0.00027732	500.35	1.0329e-05	1.0882e-05	597.15	171.86	1.0371e-05	1.0842e-05	294.71	121.51	66.196	31.649	1.0581e-05	66.869	370.149	272.750	268.049	165.591	282.019	322.535	165.787	171.634	316.845	329.569	170.616	175.499	176.131	182.152	307.677	179.542	-8191	255	
46441.598	1	1	0	0	0.15916	0.19826	0.16353	0.041182	0.2433	0.14189	0.059229	0.1759	0.26592	0.23858	0.083701	0.23081	0.16556	0.16238	0.08058	0.26061	-4.1729	-4.4271	-3.8396	-4.8667	-4.1771	-3.9938	-4.6458	-3.9562	-4.3125	-4.7229	-3.8896	-4.8479	-4.2979	-3.9167	-4.9042	-4.0375	359.883	228.349	269.319	234.629	457.618	492.033	270.903	415.566	402.459	341.797	342.500	465.840	454.282	425.564	262.545	359.715	0.0020928	0.00044855	0.00013532	533.19	1.0722e-05	4.5333e-06	638.83	181.93	5.3596e-06	3.3955e-06	309.71	128.86	69.734	32.648	3.6712e-06	69.353	0.0010128	0.00097548	0.00027397	499.14	9.8751e-06	1.0825e-05	595.55	170.98	1.0218e-05	1.0882e-05	292.12	120.94	65.697	31.23	1.0299e-05	65.999	367.416	208.094	198.175	165.590	276.274	293.455	165.250	171.645	307.493	336.417	170.610	175.501	176.630	182.410	295.114	179.616	-8191	255	
46441.691	1	1	0	0	0.13295	0.17129	0.14957	0.050031	0.17443	0.25715	0.22419	0.22788	0.2614	0.21077	0.29956	0.13882	0.11508	0.11586	0.29439	0.063504	-4.0354	-4.8063	-3.8979	-4.8063	-4.4354	-3.8604	-5.0208	-4.0312	-4.3021	-4.8187	-4.0042	-4.6167	-4.4187	-3.8187	-4.8979	-4.1062	448.442	393.843	286.618	343.106	347.181	154.017	402.664	370.614	435.159	459.240	425.727	281.267	166.879	166.792	222.810	434.060	0.0021667	0.00053921	0.0002041	530.4	3.8407e-06	4.5197e-06	634.01	180.97	1.3094e-05	2.1199e-06	309.43	128.37	69.998	32.819	4.5845e-06	69.52	0.0010109	0.00095236	0.0002728	497.19	9.9488e-06	1.0822e-05	592.18	170.3	1.0178e-05	1.0613e-05	291.45	120.77	65.73	31.343	1.0179e-05	66.338	371.783	228.474	236.571	165.644	312.593	301.643	165.660	171.801	283.189	303.891	170.339	175.471	176.543	182.294	284.566	179.683	-8191	255	
46441.789	1	1	0	0	0.040979	0.13933	0.13403	0.11267	0.13986	0.076077	0.07024	0.23438	0.11759	0.18099	0.1363	0.13946	0.12673	0.18566	0.27276	0.27072	-3.8937	-4.7208	-3.7896	-4.5458	-4.4917	-3.8375	-5.0062	-4.1625	-4.0625	-4.75	-3.8146	-4.4437	-4.4604	-3.8833	-4.6583	-4.3375	435.150	395.455	170.843	476.647	461.212	389.515	510.986	430.780	289.651	207.894	168.070	260.182	477.085	497.198	207.561	403.567	0.0022159	0.00052749	6.423e-05	530.44	6.4468e-06	3.9395e-06	632.84	181.29	8.6538e-06	3.3853e-06	309.97	128.79	69.758	32.893	6.8679e-06	69.824	0.0010239	0.00094671	0.00027414	495.7	9.977e-06	1.0604e-05	594.47	170.5	1.0317e-05	1.0775e-05	292.43	120.98	65.682	31.381	1.0558e-05	66.417	372.116	271.606	242.384	165.602	299.698	286.832	165.462	171.726	302.335	322.214	170.383	175.324	176.230	182.256	298.008	179.556	-8191	255	
46441.910	1	1	0	0	0.041695	0.20437	0.10441	0.14478	0.2393	0.084569	0.077022	0.071245	0.36039	0.13788	0.16527	0.10251	0.22145	0.012641	0.066875	0.10725	-3.825	-4.8146	-3.8312	-4.3021	-4.7562	-3.7583	-4.7479	-4.325	-3.7771	-4.6333	-4.0875	-4.2875	-4.8104	-3.8083	-4.5021	-4.4083	459.343	296.817	181.332	314.026	366.585	411.308	491.237	351.562	189.588	291.092	464.745	471.532	493.893	276.253	183.321	391.304	0.0020985	0.00036056	0.00013767	531.71	5.4698e-06	4.2169e-06	638.31	181.4	6.4519e-06	7.092e-06	310.58	128.94	70.302	32.912	2.8755e-06	69.736	0.0010113	0.00094832	0.00027533	497.61	9.9089e-06	1.0978e-05	596.17	170.58	1.0102e-05	1.066e-05	292.53	121.04	65.902	31.385	1.0341e-05	66.487	373.364	219.013	282.963	165.603	299.116	313.347	165.455	171.701	326.472	276.259	170.716	175.344	176.240	182.314	283.014	179.777	-8191	255	
46442.008	1	1	0	0	0.044831	0.1541	0.14283	0.18814	0.15127	0.078115	0.20289	0.13331	0.12784	0.19575	0.157	0.021097	0.23932	0.16783	0.44609	0.16028	-3.6958	-4.7667	-3.8854	-4.1958	-4.8271	-3.7021	-4.7188	-4.5521	-3.6312	-4.5563	-4.1354	-4.0375	-4.5646	-3.8229	-4.3812	-4.5771	482.300	265.433	278.858	484.172	448.759	256.004	263.385	415.667	162.834	472.738	442.098	263.171	433.650	445.895	380.023	414.280	0.0020941	0.00063889	0.00012479	535.21	8.5516e-06	4.9611e-06	640.13	181.78	1.1954e-05	5.2091e-06	309.41	128.34	69.509	32.573	6.6221e-06	68.919	0.0010178	0.00094283	0.00028032	499.72	9.8823e-06	1.0679e-05	596.25	170.53	1.0291e-05	1.0696e-05	291.46	120.41	65.604	31.14	1.0553e-05	65.826	373.162	218.378	222.612	165.407	267.279	318.730	165.353	171.828	309.791	306.463	170.618	175.306	176.546	182.263	307.411	179.632	-8191	255	
46442.102	1	1	0	0	0.056469	0.29335	0.14991	0.26552	0.19097	0.16984	0.27795	0.12617	0.063785	0.17502	0.038594	0.21819	0.12239	0.13742	0.10176	0.23153	-3.4833	-4.7167	-4.1312	-4.1208	-4.8521	-3.9958	-4.5188	-4.5125	-3.7333	-4.7354	-4.25	-4.1562	-4.7542	-3.8625	-4.2771	-4.9208	429.379	171.010	375.584	202.026	235.597	344.800	167.701	184.259	239.634	331.248	409.198	477.106	425.814	172.032	280.422	453.986	0.002048	0.00066485	2.9842e-05	534.06	7.6926e-06	4.5743e-06	634.77	181.74	7.2001e-06	2.8837e-06	308.25	128.35	69.788	32.469	4.5498e-06	69.087	0.0010019	0.00098054	0.00027132	499.47	9.9805e-06	1.0829e-05	593.03	170.71	1.0174e-05	1.072e-05	290.35	120.23	65.58	31.126	1.0414e-05	65.868	370.447	212.445	236.566	165.497	299.592	332.625	165.346	171.671	305.277	334.214	170.758	175.198	176.799	182.192	269.196	179.864	-8191	255	
46442.172	1	1	0	0	0.077494	0.078447	0.053952	0.11319	0.14399	0.10301	0.15523	0.10458	0.048002	0.27094	0.10917	0.070921	0.35285	0.3022	0.073801	0.23198	-3.55	-4.5854	-4.2625	-3.9708	-4.8146	-3.9167	-4.4083	-4.5646	-3.8375	-4.5292	-4.5917	-3.9896	-4.8458	-4.1375	-4.2625	-4.8396	279.353	419.868	254.703	473.581	316.982	264.365	389.224	160.968	508.504	306.653	469.381	476.202	457.248	411.873	198.853	502.251	0.0021604	0.00032461	0.00015675	532.29	6.8194e-06	6.4267e-06	638.77	182.19	1.5965e-06	4.7679e-06	308.2	127.78	69.488	32.586	4.6584e-06	69.156	0.00099872	0.00095365	0.00026634	498.67	1.005e-05	1.0921e-05	596.13	170.93	1.0103e-05	1.0824e-05	291.49	120.11	65.562	31.134	1.0372e-05	65.867	370.423	222.864	222.800	165.635	299.537	311.366	165.287	171.867	282.990	342.276	170.776	175.487	176.526	182.314	307.828	179.935	-8191	255	
46442.293	1	1	0	0	0.17813	0.24303	0.1006	0.16995	0.015606	0.19943	0.16486	0.094055	0.11567	0.088428	0.14885	0.092883	0.22041	0.22198	0.086956	0.31476	-3.4458	-4.4896	-4.4688	-3.9646	-4.6604	-4.2104	-4.1458	-4.8	-3.7542	-4.3938	-4.6583	-3.9062	-4.8958	-4.2208	-3.8958	-4.7771	284.929	225.634	156.819	388.350	276.031	165.277	263.415	191.465	501.203	289.358	207.703	451.772	173.220	465.478	475.137	411.528	0.002102	0.00049881	0.00019163	536.12	7.5953e-06	7.9007e-07	638.69	181.63	9.1213e-06	4.9361e-06	310.27	127.29	69.224	32.255	3.8445e-06	68.72	0.0009974	0.00093934	0.00027139	498.85	9.8307e-06	1.0581e-05	596.34	170.7	1.02e-05	1.0623e-05	291.94	119.98	65.184	30.865	1.0502e-05	65.729	371.203	218.017	241.735	165.655	290.293	339.037	165.708	171.583	308.771	299.127	170.956	175.616	176.732	182.417	256.678	179.825	-8191	255	
46442.391	1	1	0	0	0.22812	0.21166	0.14494	0.096953	0.11011	0.14757	0.16829	0.025055	0.25853	0.14641	0.10867	0.1435	0.11729	0.089627	0.10966	0.12301	-3.5312	-4.5479	-4.5958	-3.8208	-4.4917	-4.2917	-3.9667	-4.9771	-3.9938	-4.2521	-4.55	-3.8854	-4.6167	-4.3042	-3.8375	-4.9792	202.273	346.357	190.206	507.500	176.241	279.829	424.376	470.905	402.745	347.393	449.279	416.706	401.079	496.124	388.091	510.179	0.002189	0.0006196	0.00019821	533.86	5.7338e-06	4.4936e-06	639.36	182.01	8.7535e-06	3.1823e-06	308.47	127.12	69.527	32.389	6.6549e-06	68.798	0.0010161	0.00095892	0.00026875	499.68	1.0158e-05	1.0806e-05	597.4	170.58	9.9182e-06	1.0826e-05	291.51	119.75	65.292	30.892	1.047e-05	65.556	371.885	222.447	237.609	165.922	290.491	308.912	165.383	171.653	294.091	316.470	170.976	175.551	176.444	182.417	298.595	179.856	-8191	255	
46442.484	1	1	0	0	0.16069	0.14971	0.094443	0.21537	0.019004	0.072426	0.24259	0.11552	0.12636	0.048082	0.15001	0.14316	0.18221	0.15627	0.16656	0.22194	-3.6854	-4.0938	-4.5333	-3.8271	-4.5417	-4.5083	-3.9667	-4.85	-4.0271	-4.1604	-4.625	-3.9813	-4.5375	-4.4771	-3.7708	-4.8812	382.573	360.274	311.771	173.903	447.290	162.943	163.934	345.164	158.839	477.707	421.664	416.364	218.902	219.531	331.906	213.838	0.0020708	0.00051999	0.00014352	535.68	7.6783e-06	5.2148e-06	638.71	181.46	6.7793e-06	3.7337e-06	307.79	127.38	68.694	32.164	3.9535e-06	68.373	0.0010039	0.00096043	0.00027139	500.16	9.8792e-06	1.1046e-05	595.42	170.68	1.0046e-05	1.0754e-05	289.92	119.35	64.932	30.738	1.03e-05	65.387	373.600	201.062	267.055	165.382	249.879	286.440	165.319	171.747	304.752	336.342	170.875	175.464	176.442	182.716	302.204	179.685	-8191	255	
46442.582	1	1	0	0	0.1281	0.043594	0.20442	0.20951	0.086523	0.23329	0.13733	0.15719	0.18988	0.24379	0.15539	0.14188	0.17601	0.2017	0.090416	0.10447	-3.7375	-4.0792	-4.8167	-3.9854	-4.5104	-4.6917	-3.8771	-4.7937	-4.1958	-3.875	-4.825	-3.9708	-4.4521	-4.575	-3.8354	-4.8875	162.789	321.574	364.306	468.280	334.541	311.457	315.784	431.912	424.788	330.520	488.545	437.925	453.116	482.709	296.942	473.131	0.0019939	0.00027334	3.4732e-05	533.05	7.2847e-06	6.023e-06	635.63	180.67	1.0089e-05	2.2824e-06	308.2	127.23	69.273	32.191	6.4069e-06	68.891	0.0010001	0.00095547	0.00026335	498.85	1.0047e-05	1.0508e-05	594.53	170.03	1.0321e-05	1.0544e-05	290.88	119.62	65.243	30.915	1.0788e-05	65.628	371.415	227.482	279.609	165.857	305.043	269.974	165.197	171.503	306.283	280.290	170.779	175.569	176.728	182.580	321.817	179.711	-8191	255	
46442.699	1	1	0	0	0.17462	0.04279	0.15215	0.056601	0.090733	0.18061	0.29317	0.26989	0.070424	0.15586	0.16255	0.1245	0.19197	0.29387	0.2473	0.23752	-4.0104	-3.9792	-4.8938	-4.075	-4.4042	-4.6	-3.8187	-4.6896	-4.275	-3.95	-4.9125	-4.1896	-4.3083	-4.7625	-3.7333	-4.7958	351.459	413.990	267.220	324.041	315.797	310.813	432.343	447.710	386.530	186.218	505.247	439.012	473.970	487.979	233.207	438.093	0.0020025	0.00039629	6.648e-05	529.18	3.9022e-06	5.7516e-06	638	179.08	5.0565e-06	2.1847e-06	307.91	127.08	68.622	31.792	6.1482e-06	68.057	0.0010144	0.00096901	0.00026739	496.39	1.0005e-05	1.0673e-05	596.01	169.11	9.9421e-06	1.0718e-05	290.48	119.28	64.587	30.438	1.0802e-05	64.891	370.170	225.160	263.703	165.982	304.287	290.348	165.627	171.746	301.306	340.279	171.033	175.772	176.273	182.802	300.658	179.875	-8191	255	
46442.773	1	1	0	0	0.041124	0.20373	0.16706	0.29847	0.029243	0.31914	0.088927	0.12535	0.047329	0.25285	0.095723	0.1675	0.18073	0.15123	0.11353	0.029821	-4.2188	-3.8792	-4.6646	-4.0521	-4.1604	-4.8229	-3.8833	-4.5583	-4.4396	-3.8063	-4.8771	-4.3063	-4.0771	-4.8521	-3.9313	-4.4771	164.506	320.293	211.434	462.038	324.345	310.421	482.146	400.431	410.747	459.950	400.546	499.047	190.902	454.686	413.961	177.598	0.0021647	0.00059465	0.00014934	530.88	5.09e-06	3.2436e-06	639.8	179.18	1.2932e-05	3.3173e-06	305.98	124.39	67.235	30.839	6.3685e-06	66.488	0.00099787	0.00096568	0.00026791	497.89	1.0122e-05	1.0566e-05	595.52	167.95	1.0245e-05	1.0869e-05	287.79	116.98	63.199	29.472	1.0665e-05	63.36	372.136	245.662	247.985	165.433	324.221	221.566	165.152	171.427	332.301	304.063	170.846	175.743	176.451	182.405	317.333	179.806	-8191	255	
46442.867	1	1	0	0	0.2438	0.16606	0.12425	0.12474	0.21989	0.1297	0.076945	0.17806	0.20813	0.22487	0.30239	0.2579	0.16543	0.21246	0.18105	0.15084	-4.2854	-3.9729	-4.9021	-4.4208	-3.9437	-4.8271	-4.0417	-4.4667	-4.4667	-3.8271	-4.8729	-4.2458	-3.9458	-4.7833	-4.0083	-4.3792	165.575	378.641	198.325	174.712	253.031	250.482	456.348	500.824	454.452	433.174	206.762	489.706	406.727	423.074	463.319	166.812	0.0019807	0.00036736	0.00011609	534.02	4.1718e-06	4.9312e-06	635.32	178.36	1.0139e-05	5.0004e-06	302.98	124.23	67.106	30.99	4.9407e-06	65.849	0.00099341	0.0009629	0.00026908	500.86	9.8485e-06	1.0374e-05	593.17	167.13	1.003e-05	1.0404e-05	284.87	116.51	63.064	29.538	1.0547e-05	63.179	369.985	218.765	242.219	165.719	269.710	264.285	165.429	171.745	317.294	291.119	170.863	175.871	176.360	182.385	302.761	179.611	-8191	255	
46442.988	1	1	0	0	0.083629	0.070371	0.12224	0.076544	0.081402	0.12955	0.21516	0.2003	0.10444	0.11508	0.19162	0.26736	0.025925	0.088548	0.23839	0.39329	-4.3833	-3.7354	-4.7188	-4.3063	-3.8438	-4.9042	-4.0208	-4.3479	-4.7792	-3.8292	-4.7104	-4.475	-3.8312	-4.8979	-4.1312	-4.2667	393.348	306.985	205.169	428.386	326.989	496.760	367.929	466.955	158.318	506.007	237.934	158.968	266.349	507.083	391.689	163.446	0.0020913	0.0001707	0.00011651	535.34	7.4377e-06	5.1185e-06	634.5	178.53	9.1043e-06	4.0641e-06	305.02	124.4	67.454	31.219	5.6345e-06	67.283	0.00099663	0.00095451	0.00026714	498.91	9.9295e-06	1.0486e-05	591.69	167.67	9.9976e-06	1.0727e-05	287.12	117.31	63.592	29.884	1.055e-05	64.114	370.284	230.657	260.366	165.944	278.197	294.296	165.583	171.746	310.754	308.128	170.665	175.770	176.128	182.771	304.033	179.906	-8191	255	
46443.086	1	1	0	0	0.36054	0.062631	0.070392	0.13146	0.11826	0.3889	0.0079973	0.19271	0.16445	0.15515	0.1469	0.034849	0.27008	0.18867	0.01867	0.21319	-4.4479	-3.7458	-4.3479	-4.5896	-3.6917	-4.7521	-4.1583	-3.9938	-4.7792	-4.0229	-4.4021	-4.5104	-3.8042	-4.6583	-4.0167	-3.8229	364.875	504.607	249.438	450.091	508.693	428.664	353.222	387.126	452.241	352.231	474.807	320.359	414.529	350.925	441.341	442.285	0.0020438	0.00047003	0.00011078	533.59	4.1756e-06	3.3409e-06	636.9	179.12	1.0322e-05	5.1765e-06	307.08	125.67	68.049	31.412	5.6901e-06	67.445	0.00101	0.00095291	0.00026959	500.54	9.8054e-06	1.0753e-05	593.72	168.37	9.9864e-06	1.0721e-05	288	118	64.041	30.082	1.0566e-05	64.384	371.243	228.154	199.566	165.825	306.056	258.713	165.734	171.841	276.880	364.497	170.685	175.554	176.355	182.531	300.973	179.674	-8191	255	
46443.184	1	1	0	0	0.14166	0.058958	0.084221	0.27314	0.2444	0.28304	0.17089	0.094723	0.16497	0.045341	0.19256	0.35847	0.014421	0.081342	0.056527	0.08641	-4.55	-3.7167	-4.2812	-4.6021	-3.7333	-4.6062	-4.1896	-3.9792	-4.6813	-3.8104	-4.4542	-4.5542	-3.65	-4.6062	-4.3917	-3.9542	468.635	395.038	461.029	365.721	396.580	361.726	466.290	182.642	201.144	310.331	443.715	492.551	325.578	168.210	300.355	283.799	0.0021152	0.00046564	0.00012889	536.02	6.1131e-06	3.3989e-06	636.51	178.88	6.5635e-06	4.333e-06	306.36	125.89	68.191	31.409	5.3355e-06	67.486	0.00099416	0.00096232	0.00026939	501.15	1.0082e-05	1.0829e-05	595.24	168.4	9.974e-06	1.0671e-05	288.87	118.12	64.105	30.084	1.0307e-05	64.407	369.947	244.437	221.671	165.721	294.357	304.287	165.580	171.592	332.438	306.358	170.885	175.529	176.286	182.846	273.092	179.635	-8191	255	
46443.305	1	1	0	0	0.075332	0.099053	0.081746	0.11871	0.19803	0.1676	0.29463	0.069147	0.047522	0.20089	0.15643	0.10173	0.096996	0.11807	0.26839	0.23919	-4.4229	-3.9208	-4.0958	-4.5062	-3.6562	-4.5604	-4.4417	-3.95	-4.7729	-4.0104	-4.1458	-4.6979	-3.65	-4.5042	-4.5458	-3.8875	237.690	399.083	229.168	493.909	260.715	405.799	384.871	255.025	364.614	415.977	164.877	203.861	363.057	397.891	302.259	483.391	0.0021636	0.00026179	0.00019407	538.19	5.6797e-06	4.959e-06	641.02	179.62	8.9907e-06	5.1191e-06	305.36	125.91	67.849	31.66	7.5092e-06	67.427	0.00099672	0.00095806	0.00026645	502.81	9.9558e-06	1.0491e-05	595.81	168.74	1.0096e-05	1.0665e-05	287.76	118.07	64.084	30.143	1.0272e-05	64.265	370.133	250.031	227.454	166.012	280.806	318.976	165.817	171.450	322.510	284.134	170.700	175.700	176.185	182.551	277.742	179.842	-8191	255	
46443.398	1	1	0	0	0.076312	0.16338	0.19614	0.33957	0.032783	0.22125	0.086392	0.3597	0.17952	0.22039	0.1146	0.15092	0.30496	0.20266	0.12195	0.17365	-4.5312	-4.0479	-3.9542	-4.8333	-3.7146	-4.2875	-4.6375	-3.7604	-4.6521	-4.2542	-4.0188	-4.7271	-3.8292	-4.4646	-4.6854	-3.8271	500.793	433.844	232.485	450.805	464.619	237.252	460.776	494.471	499.830	358.763	228.762	188.461	458.875	486.662	283.510	357.139	0.0021039	0.00032259	0.00011245	536.67	5.1705e-06	5.8663e-06	635.59	179.83	7.4234e-06	3.8886e-06	308.02	126.97	69.092	32.009	7.9946e-06	68.06	0.00098612	0.0009361	0.00026666	501.61	9.8478e-06	1.0534e-05	593.88	169.07	9.813e-06	1.0431e-05	289.64	119.08	64.797	30.58	1.0088e-05	65.042	373.980	248.000	272.551	165.643	322.639	279.697	165.744	172.024	314.794	310.422	170.694	175.497	176.753	182.520	268.435	179.820	-8191	255	
46443.473	1	1	0	0	0.050678	0.11595	0.3133	0.16157	0.041014	0.03674	0.19489	0.24926	0.10758	0.024923	0.020858	0.11314	0.26309	0.25008	0.25308	0.2249	-4.3167	-4.1375	-3.7812	-4.8063	-3.9417	-4.2292	-4.7271	-3.8312	-4.6375	-4.3021	-3.8937	-4.825	-3.8833	-4.1667	-4.7625	-3.9604	188.107	446.902	216.491	411.985	371.898	492.045	351.132	191.694	190.658	338.582	164.164	216.836	168.032	170.800	356.500	417.999	0.0021915	0.00041356	0.00012842	535.47	2.7342e-06	4.027e-06	641.83	180.29	7.8326e-06	7.1267e-06	306.56	127.63	68.948	32.213	6.507e-06	68.314	0.00099879	0.00093385	0.00026963	501.66	1.0067e-05	1.0521e-05	596.15	170.03	9.8136e-06	1.0745e-05	290.03	119.46	64.837	30.708	1.0468e-05	65.18	368.891	257.095	238.217	165.799	314.057	256.149	165.392	171.638	306.756	311.906	170.787	175.610	176.628	182.268	325.087	179.647	-8191	255	
46443.566	1	1	0	0	0.21647	0.11364	0.079959	0.2932	0.11153	0.013825	0.13585	0.06061	0.17694	0.031799	0.23387	0.1197	0.25386	0.19542	0.14607	0.091106	-4.35	-4.2979	-3.8375	-4.7021	-4.0813	-4.0729	-4.7375	-3.925	-4.5437	-4.4062	-3.85	-4.8042	-4.1188	-4.1792	-4.6292	-3.9104	389.347	425.531	304.612	406.610	293.454	482.499	408.267	503.615	305.513	216.112	341.348	408.852	483.716	461.236	279.544	420.398	0.0020803	0.00043754	5.2975e-05	535.87	5.9126e-06	2.8795e-06	638.06	181.12	9.6961e-06	4.8084e-06	308.91	127.27	68.907	32.099	6.5945e-06	68.669	0.00098184	0.00095081	0.00026867	501.37	1.0095e-05	1.06e-05	596.34	170.13	1.0125e-05	1.0688e-05	290.92	119.67	65.08	30.679	1.0317e-05	65.442	371.759	279.534	241.721	165.662	263.122	279.478	165.710	171.404	281.052	303.606	170.726	175.090	176.370	182.304	315.402	179.652	-8191	255	
46443.688	1	1	0	0	0.24637	0.14087	0.17205	0.14741	0.13025	0.34709	0.10169	0.11747	0.26369	0.25541	0.33612	0.067905	0.20888	0.12914	0.19492	0.015097	-4.1125	-4.4604	-3.8667	-4.7729	-4.1354	-3.8667	-4.8917	-3.8812	-4.275	-4.6229	-3.9125	-4.7646	-4.3896	-3.9083	-4.7875	-4.0938	163.395	203.357	224.800	502.677	513.275	212.617	366.515	357.038	156.785	217.088	499.140	399.783	449.672	426.480	234.243	200.585	0.0019788	0.00050186	0.00015858	540.07	8.8126e-06	6.6502e-06	641.5	181.01	1.0402e-05	3.6885e-06	307.22	126.9	68.805	32.019	6.2141e-06	68.154	0.00099938	0.00094853	0.00027121	504.69	9.9346e-06	1.0479e-05	597.72	170.33	1.0094e-05	1.0711e-05	289.42	119.37	64.937	30.599	1.0545e-05	65.046	369.694	277.079	268.301	165.599	290.274	286.961	165.365	171.554	289.708	314.146	170.667	175.307	176.278	182.180	293.886	179.675	-8191	255	
46443.781	1	1	0	0	0.08517	0.046759	0.12707	0.058945	0.14201	0.26678	0.081286	0.29366	0.079471	0.11834	0.077906	0.1514	0.27827	0.25343	0.02631	0.2477	-3.925	-4.6271	-3.8	-4.6646	-4.3187	-3.8583	-4.7917	-4.0917	-4.1021	-4.9104	-3.8521	-4.4854	-4.3938	-3.8021	-4.75	-4.1292	421.542	464.975	207.757	437.676	390.899	248.136	253.100	507.739	423.700	219.874	373.381	154.035	425.810	472.120	326.589	416.851	0.0020524	0.00024979	0.00010074	537.66	4.0488e-06	3.0516e-06	637.64	180.97	7.8936e-06	4.1966e-06	305.02	126.76	68.732	32.093	5.1259e-06	68.609	0.0010016	0.00095189	0.00027611	503.18	9.7715e-06	1.0631e-05	594.12	169.96	1.0118e-05	1.0502e-05	288.41	119	65.001	30.668	1.0362e-05	65.243	369.224	198.331	270.373	165.291	316.148	270.485	165.388	171.563	316.502	278.174	170.456	175.489	176.145	182.165	281.598	179.652	-8191	255	
46443.879	1	1	0	0	0.059205	0.23334	0.039902	0.20605	0.12931	0.11965	0.22895	0.13062	0.34219	0.056736	0.075546	0.25043	0.19583	0.069273	0.077869	0.21242	-3.7271	-4.6396	-3.9313	-4.5146	-4.3542	-3.7292	-4.6854	-4.2458	-3.9396	-4.6667	-3.9417	-4.3583	-4.6771	-3.7458	-4.6875	-4.2542	209.158	379.518	241.390	171.573	239.160	328.247	322.741	176.160	196.305	245.223	498.297	437.957	451.245	404.378	372.462	497.172	0.0020553	0.00046421	0.00013033	535.81	7.7752e-06	3.1539e-06	636.81	181.23	1.4368e-05	5.5216e-06	307.18	127.33	69.238	32.324	5.387e-06	68.685	0.00099766	0.00094995	0.00027462	501.52	9.7744e-06	1.0842e-05	595.16	170.24	1.0163e-05	1.0745e-05	289.88	119.45	65.154	30.822	1.0606e-05	65.467	373.310	204.437	240.112	165.683	317.223	281.776	165.547	171.300	291.300	270.206	170.547	174.985	176.084	182.397	273.025	179.714	-8191	255	
46444.000	1	1	0	0	0.37607	0.23962	0.10231	0.1226	0.22449	0.030912	0.096349	0.045986	0.15227	0.32778	0.23314	0.060651	0.2028	0.15325	0.070072	0.22385	-3.6437	-4.7125	-3.8458	-4.3313	-4.6271	-3.7521	-4.6292	-4.1104	-3.7646	-4.825	-3.9125	-4.3604	-4.7479	-3.6583	-4.6458	-4.4542	278.278	430.773	299.955	392.685	480.694	227.717	399.457	447.924	160.922	308.279	501.443	331.433	442.412	165.109	503.913	436.451	0.0020346	0.0007892	0.0001466	537.11	7.7168e-06	3.62e-06	638.68	181.42	1.0423e-05	4.9448e-06	307.81	127.48	69.42	32.454	5.6902e-06	69.053	0.00099503	0.00096972	0.00027429	502.88	1.0037e-05	1.0936e-05	596.64	170.83	1.0169e-05	1.0924e-05	291.5	120.12	65.381	30.997	1.0594e-05	65.602	369.546	216.227	219.140	165.370	317.094	318.077	165.186	171.616	285.602	295.924	170.461	175.168	176.102	182.148	305.443	179.652	-8191	255	
46444.070	1	1	0	0	0.035473	0.031204	0.064616	0.14588	0.19008	0.087706	0.092672	0.037781	0.065873	0.1247	0.17864	0.11405	0.063551	0.09938	0.07523	0.14536	-3.4583	-4.725	-3.7896	-4.2146	-4.6125	-3.6771	-4.5521	-4.5083	-3.7438	-4.8042	-4.1583	-3.9917	-4.725	-3.775	-4.4625	-4.6208	333.564	164.633	169.280	486.272	411.712	208.651	230.239	268.144	214.219	244.700	341.372	358.461	492.493	268.204	206.596	461.641	0.0021666	0.0003143	0.00018047	535.36	5.6208e-06	3.7854e-06	639.34	180.99	1.1692e-05	9.3506e-06	307.49	127.2	68.738	32.094	8.956e-06	68.225	0.0010283	0.00098313	0.00027728	503.22	1.0247e-05	1.1031e-05	597.48	170.49	1.0173e-05	1.1054e-05	289.54	119.2	64.851	30.666	1.0745e-05	64.936	368.972	232.882	234.520	165.562	302.069	327.665	165.145	171.307	284.835	304.482	170.478	175.317	176.099	182.296	327.452	179.396	-8191	255	
46444.164	1	1	0	0	0.31687	0.030403	0.09844	0.32786	0.022643	0.063524	0.058449	0.10482	0.14613	0.24814	0.19732	0.098628	0.10663	0.1928	0.23304	0.11191	-3.5292	-4.6083	-4.0437	-4.1875	-4.775	-3.8479	-4.3854	-4.6271	-3.7167	-4.6625	-4.2417	-3.9354	-4.8271	-3.8542	-4.1917	-4.7396	212.292	347.391	405.101	163.047	367.258	385.116	250.909	463.955	386.403	292.005	283.137	194.501	381.033	482.892	457.543	183.025	0.0021296	0.00045197	7.7242e-05	539.92	8.6542e-06	3.2648e-06	638.7	179.95	8.3343e-06	3.5753e-06	306.52	127.84	69.509	32.551	4.7825e-06	68.725	0.0010189	0.00099164	0.00028079	504.59	9.9796e-06	1.0834e-05	594.71	170.26	1.012e-05	1.0882e-05	289.16	119.62	65.366	30.989	1.0626e-05	65.65	370.965	263.916	245.903	165.498	309.696	305.088	165.307	171.878	306.642	277.932	170.406	175.356	176.243	182.194	317.191	179.775	-8191	255	
46444.262	1	1	0	0	0.11804	0.088932	0.15173	0.13999	0.23321	0.13129	0.11174	0.15861	0.2495	0.12566	0.24223	0.080603	0.25541	0.084299	0.30288	0.2765	-3.5854	-4.4958	-4.2042	-4.0813	-4.8083	-4.0104	-4.4042	-4.7	-3.7604	-4.4938	-4.3604	-3.8646	-4.6625	-4.0521	-4.1604	-4.8667	345.199	317.709	217.341	243.038	170.479	258.144	384.684	436.209	387.522	472.046	448.734	470.078	500.784	339.779	453.509	474.577	0.0021366	0.00054111	0.00011152	534.09	8.3227e-06	7.4683e-06	637.33	183.12	9.7565e-06	4.786e-06	308.09	128.47	69.654	32.967	5.5864e-06	69.431	0.001037	0.00097468	0.00027778	500.43	1.0111e-05	1.0993e-05	595.06	171.6	1.0287e-05	1.096e-05	291.46	120.52	65.847	31.34	1.0657e-05	65.931	373.593	230.911	227.645	165.484	315.342	274.226	165.343	171.675	300.641	305.995	170.700	175.161	176.429	182.430	310.408	179.463	-8191	255	
46444.383	1	1	0	0	0.12301	0.13564	0.17274	0.18354	0.034595	0.12835	0.18563	0.31685	0.15633	0.15307	0.13953	0.21797	0.24533	0.27186	0.15163	0.11446	-3.525	-4.4896	-4.3583	-3.7562	-4.7083	-3.9854	-4.0312	-4.7333	-3.9188	-4.5	-4.5771	-3.7708	-4.7688	-4.2375	-3.8812	-4.9479	315.744	229.621	273.513	488.948	237.784	219.049	405.778	447.245	445.165	254.314	282.538	164.203	438.966	397.617	291.002	354.251	0.0021721	0.00056845	9.9431e-05	535.28	1.2331e-05	2.9904e-06	635.51	181.32	4.6003e-06	4.324e-06	307.31	126.67	68.994	31.982	4.4666e-06	68.089	0.0010278	0.0010041	0.00027562	501.86	1.0432e-05	1.1268e-05	594.17	170.84	1.043e-05	1.1106e-05	289.7	119.25	64.93	30.612	1.0626e-05	64.952	370.236	262.156	183.753	165.481	270.299	271.138	165.639	171.529	309.925	287.301	170.426	175.285	176.451	182.288	301.491	179.410	-8191	255	
46444.477	1	1	0	0	0.13828	0.14547	0.18958	0.075692	0.26535	0.16224	0.16453	0.14236	0.17879	0.038511	0.1591	0.11325	0.050255	0.074425	0.1755	0.090788	-3.625	-4.3229	-4.5	-3.8563	-4.7458	-4.2625	-3.8937	-4.725	-3.8271	-4.2688	-4.5042	-3.7625	-4.9	-4.2333	-3.8833	-4.8896	158.096	298.937	327.418	489.396	223.670	453.448	175.910	332.400	445.178	311.483	183.566	493.582	457.066	464.209	312.968	474.502	0.0020271	0.00051063	0.00013219	534.9	6.3631e-06	2.0844e-06	635.72	180.34	1.0731e-05	4.3472e-06	307.48	126.43	68.624	31.784	6.6834e-06	67.872	0.0010252	0.00099004	0.00027362	500.67	1.0423e-05	1.089e-05	594.41	170.19	1.0363e-05	1.1129e-05	289.42	119.01	64.714	30.464	1.0593e-05	64.863	372.509	277.794	261.815	165.560	298.574	278.333	165.067	171.577	309.832	259.712	170.574	175.076	176.327	182.667	284.301	179.665	-8191	255	
46444.574	1	1	0	0	0.076277	0.023955	0.12499	0.20556	0.1208	0.088652	0.18689	0.088081	0.079646	0.25077	0.22806	0.10183	0.12337	0.18842	0.029811	0.11281	-3.5875	-4.1604	-4.5	-3.9167	-4.5417	-4.4083	-3.9	-4.8396	-3.8729	-4.1188	-4.6687	-3.8604	-4.5146	-4.5667	-3.8729	-4.8396	386.966	457.865	246.571	513.276	369.524	500.983	420.471	427.289	186.841	420.393	395.716	297.704	294.337	219.312	383.467	434.664	0.0020373	0.00052852	9.682e-05	531.29	6.425e-06	4.7155e-06	630.05	178.72	1.0438e-05	4.5562e-06	304.13	125.92	68.114	31.821	4.6324e-06	67.355	0.001025	0.00097567	0.00027688	499.12	1.0155e-05	1.0738e-05	589.29	168.69	1.0158e-05	1.0804e-05	287.03	118.18	64.307	30.376	1.065e-05	64.344	367.213	221.545	284.877	165.274	285.670	304.721	165.458	171.404	300.470	239.012	170.572	175.350	176.173	181.954	267.519	179.785	-8191	255	
46444.672	1	1	0	0	0.088153	0.29817	0.20186	0.27337	0.021675	0.086363	0.14317	0.24094	0.19162	0.22097	0.18068	0.35891	0.069693	0.20052	0.11741	0.06057	-3.7562	-4.0188	-4.5813	-3.7021	-4.3375	-4.4625	-3.7583	-4.7833	-4.1521	-3.9792	-4.8917	-3.8896	-4.4083	-4.575	-3.7646	-4.7688	509.875	218.492	405.796	511.493	489.215	477.631	171.851	482.776	163.528	381.977	189.157	484.971	288.916	196.315	443.660	302.154	0.0020781	0.00052767	6.1733e-05	527.52	4.7038e-06	4.0362e-06	627.61	178.68	1.0051e-05	4.7973e-06	303.87	125.09	67.747	31.537	5.3799e-06	67.299	0.0010221	0.00097218	0.000272	495.09	1.0232e-05	1.0971e-05	587.27	168.04	1.0092e-05	1.0878e-05	286.07	117.76	64.09	30.196	1.082e-05	64.31	371.782	239.225	246.463	165.628	281.971	284.372	165.741	171.870	274.413	312.652	170.723	175.526	176.465	182.456	285.174	179.475	-8191	255	
46444.766	1	1	0	0	0.11458	0.19441	0.05055	0.19698	0.24416	0.12552	0.065761	0.14036	0.023512	0.19721	0.081705	0.10443	0.056158	0.12043	0.10588	0.1177	-3.9458	-3.7542	-4.8146	-3.9021	-4.4042	-4.5292	-3.5979	-4.6396	-4.2333	-3.7938	-4.9229	-3.9833	-4.1875	-4.8083	-3.6312	-4.5938	155.856	302.075	451.112	440.775	205.183	314.582	187.172	430.757	365.098	379.846	486.644	352.437	355.259	448.592	249.941	487.509	0.0020828	0.00014988	0.00015326	527.64	5.7388e-06	5.2229e-06	634.27	179.11	6.3573e-06	3.6546e-06	306.4	125.41	68.519	31.86	6.4418e-06	67.991	0.0010205	0.00096447	0.00027143	494.83	1.0033e-05	1.0726e-05	590.22	168.43	1.0067e-05	1.0832e-05	287.98	118.14	64.5	30.389	1.0839e-05	64.767	370.065	207.827	186.074	165.226	302.888	301.519	165.195	171.484	267.200	249.437	170.637	175.222	176.060	182.383	297.472	179.489	-8191	255	
46444.863	1	1	0	0	0.14246	0.076009	0.24965	0.2633	0.14199	0.13317	0.13052	0.21646	0.019939	0.20493	0.18601	0.2082	0.31536	0.16394	0.13856	0.099522	-4.1333	-3.9188	-4.7625	-4.1021	-4.1771	-4.7542	-3.9792	-4.4229	-4.3167	-3.9896	-4.8854	-4.0896	-3.9604	-4.7479	-3.8021	-4.6125	365.995	467.156	178.320	153.941	264.674	245.291	360.783	450.852	265.782	181.973	483.318	444.518	489.197	435.124	191.869	214.762	0.0020665	0.00071194	0.00012229	530.44	8.0426e-06	3.5741e-06	632.66	180.51	6.2732e-06	5.1761e-06	305.71	125.76	68.665	32.057	4.3342e-06	68.232	0.0010105	0.00098803	0.00027778	495.54	1.0031e-05	1.0906e-05	590.64	169.23	1.0265e-05	1.0976e-05	288.55	118.63	64.734	30.619	1.086e-05	65.089	374.902	251.320	296.643	165.508	310.280	286.555	165.374	171.370	293.682	293.474	170.511	175.179	176.122	182.385	306.288	179.615	-8191	255	
46444.984	1	1	0	0	0.183	0.11315	0.12833	0.2253	0.22737	0.13019	0.20068	0.12662	0.2053	0.1178	0.15212	0.13121	0.31813	0.33121	0.30078	0.25568	-4.125	-3.6292	-4.6438	-4.3646	-3.9729	-4.8354	-4.0354	-4.3979	-4.5417	-3.9292	-4.7	-4.3	-3.9771	-4.8417	-3.9604	-4.575	385.314	345.413	163.559	187.040	347.138	292.802	363.910	424.017	461.676	157.163	489.768	233.952	286.761	457.682	177.503	190.035	0.0020439	0.00046167	0.00012519	533.53	5.2912e-06	4.248e-06	632.83	180.91	1.2028e-05	4.827e-06	304.94	126.29	69.216	31.763	4.2879e-06	67.898	0.0010135	0.00098606	0.00028174	498.46	1.0208e-05	1.0832e-05	590.8	169.76	1.0197e-05	1.0807e-05	287.69	118.5	64.825	30.461	1.0637e-05	64.571	371.620	247.796	240.612	165.583	294.926	341.633	165.562	171.499	310.675	277.496	170.609	175.346	176.238	182.643	298.170	179.408	-8191	255	
46445.078	1	1	0	0	0.10304	0.044263	0.20007	0.033451	0.12316	0.19149	0.15031	0.25473	0.20565	0.02745	0.25641	0.11782	0.090571	0.022573	0.1754	0.013222	-4.4354	-3.8563	-4.7292	-4.4729	-3.8958	-4.8208	-4.0437	-4.2583	-4.7708	-3.8271	-4.6562	-4.4812	-3.8812	-4.7854	-3.9979	-4.1396	359.321	503.272	246.565	461.080	371.413	501.572	379.646	312.165	351.196	478.020	319.940	410.795	490.518	177.869	260.245	154.187	0.0019219	0.00048137	0.00016849	532.37	3.8956e-06	2.6535e-06	630.06	179.61	6.767e-06	3.1815e-06	305.62	125.7	68.531	31.949	6.7015e-07	67.943	0.0010079	0.00098529	0.00027626	498.42	1.029e-05	1.0727e-05	589.4	169.14	1.0389e-05	1.1053e-05	287.82	118.43	64.786	30.53	1.0649e-05	64.783	370.398	260.014	255.516	165.543	295.206	268.321	165.574	171.386	299.395	365.038	170.583	175.120	176.208	182.418	271.184	179.321	-8191	255	
46445.176	1	1	0	0	0.068593	0.18888	0.18227	0.19975	0.10765	0.25056	0.11243	0.19259	0.12533	0.2974	0.1413	0.14259	0.032645	0.084082	0.084423	0.076256	-4.5167	-3.8563	-4.5917	-4.6083	-3.8458	-4.6979	-4.1438	-4.0354	-4.7625	-3.9729	-4.5312	-4.7354	-3.8833	-4.6583	-4.0729	-4.1646	320.657	468.744	228.933	471.453	424.976	363.754	468.099	261.370	347.625	292.676	389.184	437.512	337.085	480.487	366.253	405.496	0.0020595	0.00055577	9.3111e-05	529.9	8.2519e-06	3.4725e-06	631.41	179.9	8.6526e-06	4.023e-06	304.43	126.83	68.536	32.081	4.3389e-06	68.169	0.0010136	0.0009893	0.00027595	497.5	1.0275e-05	1.0833e-05	590.39	169.33	1.0227e-05	1.1117e-05	287.6	118.82	64.702	30.633	1.0689e-05	64.904	369.517	235.938	279.787	165.486	300.689	297.488	165.729	171.787	282.954	291.074	170.358	175.266	176.302	182.402	278.644	179.647	-8191	255	
46445.270	1	1	0	0	0.096904	0.099952	0.17721	0.17553	0.059156	0.2524	0.092928	0.20659	0.092816	0.081715	0.16854	0.07638	0.20159	0.21837	0.15553	0.03315	-4.5646	-3.8354	-4.2229	-4.7146	-3.7896	-4.8042	-4.3313	-4.0271	-4.7479	-3.9792	-4.3	-4.9021	-3.6979	-4.7208	-4.4062	-4.0062	347.495	407.747	240.188	154.101	480.207	211.333	269.615	192.258	503.556	250.570	380.354	461.814	501.485	265.551	467.470	204.834	0.0021843	0.0004915	0.00013393	531.88	9.7493e-06	5.3233e-06	633.87	180.58	1.424e-05	4.0712e-06	307.73	126.45	68.378	32.082	3.7071e-06	68.345	0.00101	0.00098224	0.00027444	498.28	1.0184e-05	1.0828e-05	592.46	169.56	1.052e-05	1.1172e-05	289.16	118.97	64.727	30.524	1.0648e-05	65.146	371.934	253.551	246.520	165.777	315.822	296.490	165.605	171.603	283.287	330.680	170.538	175.352	176.588	182.582	343.475	179.518	-8191	255	
46445.367	1	1	0	0	0.07797	0.068107	0.15759	0.19209	0.033606	0.064165	0.10484	0.13193	0.035685	0.15396	0.043267	0.28358	0.087557	0.044217	0.23586	0.23831	-4.4979	-3.9625	-4.0146	-4.725	-3.7812	-4.4667	-4.5979	-3.9354	-4.8417	-4.1	-4.2292	-4.8833	-3.7958	-4.6312	-4.4542	-3.9458	271.115	293.761	159.595	306.529	245.037	405.662	470.196	512.925	462.053	460.120	417.533	497.728	378.155	195.608	492.565	463.008	0.0019914	0.00032628	0.00012223	534.79	9.6073e-06	2.2719e-06	635.12	180.16	9.53e-06	5.1863e-06	305.37	126	68.603	32.089	2.7512e-06	68.355	0.0010192	0.0010026	0.00028731	501.62	1.0224e-05	1.0988e-05	592.42	169.58	1.0297e-05	1.1019e-05	287.25	118.65	64.713	30.576	1.0563e-05	64.888	371.783	237.221	247.178	165.748	325.082	271.852	165.614	171.538	360.551	319.879	170.644	175.431	176.271	182.355	326.892	179.460	-8191	255	
#DATA ENDS
