BOXY.EXE: ISS Imagent and Oximeter Data Acquisition Program Version 0.80
Ascii Record File

#ACQ INFORMATION
2  Detector Channels 
16  External MUX Channels 
1  Auxiliary Channels 
5000  Waveform (CCF) Frequency (Hz)
1  Waveforms Skipped 
30  Waveforms Averaged 
1  Cycles Averaged 
16  Acquisitions per Waveform 
10.0806  Updata Rate (Hz) 

#FILE INFORMATION
TRUE -- External MUX Channel results are PARSED.
FALSE -- AC DC and Phase are NOT grouped.
TRUE -- Companion Program Settings File CREATED.
FALSE -- AC data not excluded
FALSE -- DC data not excluded
FALSE -- Phase data not excluded
FALSE -- Auxillary Chn. data not excluded
Tab delimiters

#CALIBRATION STATE
TRUE -- Waveform Calibration Values APPLIED.


#AUX CALIBRATION VALUES
Val Type	aux-1	

Term	1.0000e+00	
Factor	0.0000e+00	


#WF CALIBRATION VALUES
A = Detector Channel
Val Type	A-AC1	A-AC2	A-AC3	A-AC4	A-AC5	A-AC6	A-AC7	A-AC8	A-AC9	A-AC10	A-AC11	A-AC12	A-AC13	A-AC14	A-AC15	A-AC16	A-DC1	A-DC2	A-DC3	A-DC4	A-DC5	A-DC6	A-DC7	A-DC8	A-DC9	A-DC10	A-DC11	A-DC12	A-DC13	A-DC14	A-DC15	A-DC16	A-Ph1	A-Ph2	A-Ph3	A-Ph4	A-Ph5	A-Ph6	A-Ph7	A-Ph8	A-Ph9	A-Ph10	A-Ph11	A-Ph12	A-Ph13	A-Ph14	A-Ph15	A-Ph16	

Term	0.00000e+00	0.00000e+00	0.00000e+00	0.00000e+00	0.00000e+00	0.00000e+00	0.00000e+00	0.00000e+00	0.00000e+00	0.00000e+00	0.00000e+00	0.00000e+00	0.00000e+00	0.00000e+00	0.00000e+00	0.00000e+00	0.00000e+00	0.00000e+00	0.00000e+00	0.00000e+00	0.00000e+00	0.00000e+00	0.00000e+00	0.00000e+00	0.00000e+00	0.00000e+00	0.00000e+00	0.00000e+00	0.00000e+00	0.00000e+00	0.00000e+00	0.00000e+00	0.00000e+00	0.00000e+00	0.00000e+00	0.00000e+00	0.00000e+00	0.00000e+00	0.00000e+00	0.00000e+00	0.00000e+00	0.00000e+00	0.00000e+00	0.00000e+00	0.00000e+00	0.00000e+00	0.00000e+00	0.00000e+00	
Factor	1.00000e+00	1.00000e+00	1.00000e+00	1.00000e+00	1.00000e+00	1.00000e+00	1.00000e+00	1.00000e+00	1.00000e+00	1.00000e+00	1.00000e+00	1.00000e+00	1.00000e+00	1.00000e+00	1.00000e+00	1.00000e+00	1.00000e+00	1.00000e+00	1.00000e+00	1.00000e+00	1.00000e+00	1.00000e+00	1.00000e+00	1.00000e+00	1.00000e+00	1.00000e+00	1.00000e+00	1.00000e+00	1.00000e+00	1.00000e+00	1.00000e+00	1.00000e+00	X	X	X	X	X	X	X	X	X	X	X	X	X	X	X	X	

B = Detector Channel
Val Type	B-AC1	B-AC2	B-AC3	B-AC4	B-AC5	B-AC6	B-AC7	B-AC8	B-AC9	B-AC10	B-AC11	B-AC12	B-AC13	B-AC14	B-AC15	B-AC16	B-DC1	B-DC2	B-DC3	B-DC4	B-DC5	B-DC6	B-DC7	B-DC8	B-DC9	B-DC10	B-DC11	B-DC12	B-DC13	B-DC14	B-DC15	B-DC16	B-Ph1	B-Ph2	B-Ph3	B-Ph4	B-Ph5	B-Ph6	B-Ph7	B-Ph8	B-Ph9	B-Ph10	B-Ph11	B-Ph12	B-Ph13	B-Ph14	B-Ph15	B-Ph16	

Term	0.00000e+00	0.00000e+00	0.00000e+00	0.00000e+00	0.00000e+00	0.00000e+00	0.00000e+00	0.00000e+00	0.00000e+00	0.00000e+00	0.00000e+00	0.00000e+00	0.00000e+00	0.00000e+00	0.00000e+00	0.00000e+00	0.00000e+00	0.00000e+00	0.00000e+00	0.00000e+00	0.00000e+00	0.00000e+00	0.00000e+00	0.00000e+00	0.00000e+00	0.00000e+00	0.00000e+00	0.00000e+00	0.00000e+00	0.00000e+00	0.00000e+00	0.00000e+00	-1.70766e+02	-1.55360e+02	-1.36989e+02	-1.83556e+02	-7.39167e+01	-1.11136e+02	-1.57958e+02	-1.62015e+02	-8.77219e+01	-9.53084e+01	-1.70441e+02	-1.71054e+02	-1.79201e+02	-1.76666e+02	-9.97883e+01	-1.49357e+02	
Factor	2.98084e-05	1.06056e-04	3.44200e-05	1.51934e-01	8.83417e-07	1.01984e-06	1.64616e-01	5.40301e-02	8.79708e-07	1.14181e-06	8.93439e-02	3.10184e-02	2.90158e-02	9.72131e-03	1.45861e-06	1.37752e-02	7.84505e-07	7.99803e-07	2.22624e-07	7.65306e-02	8.71945e-09	8.76617e-09	7.79789e-02	2.70018e-02	8.73877e-09	8.78194e-09	4.25643e-02	1.47342e-02	1.42478e-02	4.76412e-03	8.78011e-09	6.51403e-03	X	X	X	X	X	X	X	X	X	X	X	X	X	X	X	X	



#DISTANCE SETTINGS
A = Detector Channel
A-1	A-2	A-3	A-4	A-5	A-6	A-7	A-8	A-9	A-10	A-11	A-12	A-13	A-14	A-15	A-16	

2.5000e+00	3.0000e+00	2.5000e+00	3.0000e+00	2.0000e+00	3.0000e+00	1.5000e+00	3.0000e+00	3.0000e+00	3.0000e+00	3.0000e+00	3.0000e+00	3.0000e+00	3.0000e+00	1.5000e+00	3.0000e+00	

B = Detector Channel
B-1	B-2	B-3	B-4	B-5	B-6	B-7	B-8	B-9	B-10	B-11	B-12	B-13	B-14	B-15	B-16	

1.0000e+01	1.0000e+01	1.0000e+01	1.4400e+00	1.0000e+01	1.0000e+01	1.5100e+00	1.9400e+00	1.0000e+01	1.0000e+01	1.9900e+00	2.4900e+00	2.4100e+00	2.9000e+00	1.0000e+01	2.9800e+00	




#DATA BEGINS
time	group	step	mark	flag	A-AC1	A-AC2	A-AC3	A-AC4	A-AC5	A-AC6	A-AC7	A-AC8	A-AC9	A-AC10	A-AC11	A-AC12	A-AC13	A-AC14	A-AC15	A-AC16	A-DC1	A-DC2	A-DC3	A-DC4	A-DC5	A-DC6	A-DC7	A-DC8	A-DC9	A-DC10	A-DC11	A-DC12	A-DC13	A-DC14	A-DC15	A-DC16	A-Ph1	A-Ph2	A-Ph3	A-Ph4	A-Ph5	A-Ph6	A-Ph7	A-Ph8	A-Ph9	A-Ph10	A-Ph11	A-Ph12	A-Ph13	A-Ph14	A-Ph15	A-Ph16	B-AC1	B-AC2	B-AC3	B-AC4	B-AC5	B-AC6	B-AC7	B-AC8	B-AC9	B-AC10	B-AC11	B-AC12	B-AC13	B-AC14	B-AC15	B-AC16	B-DC1	B-DC2	B-DC3	B-DC4	B-DC5	B-DC6	B-DC7	B-DC8	B-DC9	B-DC10	B-DC11	B-DC12	B-DC13	B-DC14	B-DC15	B-DC16	B-Ph1	B-Ph2	B-Ph3	B-Ph4	B-Ph5	B-Ph6	B-Ph7	B-Ph8	B-Ph9	B-Ph10	B-Ph11	B-Ph12	B-Ph13	B-Ph14	B-Ph15	B-Ph16	aux-1	digaux	

23918.516	1	1	0	256	0.10599	0.21775	0.016745	0.11066	0.057573	0.30917	0.18441	0.10267	0.10739	0.15607	0.18585	0.070857	0.27637	0.17658	0.074427	0.32636	-3.9562	-3.425	-4.4688	-3.9437	-3.5687	-4.3604	-3.8042	-4.0146	-4.2188	-3.3021	-4.3625	-3.9896	-3.4062	-4.6146	-3.6021	-3.7979	-116.925	171.432	96.381	191.144	111.753	69.210	56.996	173.464	-98.014	119.796	-67.155	157.043	162.849	152.813	-134.813	-124.242	0.00070095	0.00030527	0.00018513	641.86	2.3663e-06	3.1285e-06	1075.4	209.75	2.023e-06	1.8302e-06	392.45	130.06	57.887	23.369	7.307e-06	65.817	5.4768e-05	5.2171e-05	1.3979e-05	570.68	4.9419e-07	5.6732e-07	961.24	184.97	4.867e-07	5.8921e-07	341.7	113.28	50.304	20.471	5.5571e-07	57.155	160.541	-53.578	-87.561	-137.318	-118.480	-57.635	-137.811	-132.776	-26.160	8.995	-132.252	-127.863	-128.503	-121.355	-33.735	-122.792	-8191	255	
23918.611	1	1	0	0	0.069759	0.21007	0.18532	0.14305	0.092739	0.086286	0.25438	0.083638	0.22577	0.29959	0.17696	0.32454	0.20847	0.17509	0.27384	0.21646	-4.175	-3.2062	-4.2896	-4.1813	-3.2708	-4.5	-3.8917	-3.8333	-4.4083	-3.1854	-4.1562	-4.2208	-3.3542	-4.6188	-3.7396	-3.9313	28.522	52.313	-36.151	-134.523	129.688	-14.820	110.426	148.198	-109.369	138.125	160.168	153.815	-31.553	194.737	107.759	108.143	0.00068906	0.00051351	0.00018262	663.71	3.3797e-06	2.3081e-06	1140.1	224.58	4.8124e-06	1.9006e-06	423.72	143.02	65.274	27.276	2.7291e-06	74.505	6.2139e-05	5.9242e-05	1.4324e-05	590.66	5.9708e-07	6.6217e-07	1014.4	198.98	6.459e-07	6.7414e-07	368.36	124.6	57.26	23.893	6.7726e-07	64.494	159.939	-67.132	-75.739	-137.659	-33.552	-108.313	-138.216	-133.086	-45.590	-69.775	-133.366	-128.363	-129.248	-122.590	-77.056	-123.262	-8191	255	
23918.711	1	1	0	0	0.071157	0.090031	0.13189	0.22075	0.091309	0.077375	0.25696	0.05507	0.082088	0.075854	0.12349	0.22076	0.19822	0.22828	0.21845	0.2766	-3.9938	-3.4792	-4.0604	-4.2292	-3.2042	-4.35	-3.8104	-3.6354	-4.3958	-3.45	-4.1896	-4.3521	-3.4521	-4.375	-3.9854	-3.8333	-47.077	-81.372	-8.585	172.571	29.670	97.642	179.040	191.430	115.641	28.648	170.108	-130.205	-21.110	77.716	179.321	102.357	0.000811	0.00026883	0.00016216	782.57	9.4856e-07	9.6328e-07	1279.5	241.51	5.3523e-06	7.5223e-06	442.01	146.34	68.104	28.304	9.5483e-06	74.801	8.0456e-05	6.9433e-05	1.7797e-05	698.63	8.0123e-07	7.8521e-07	1146.1	213.76	8.1444e-07	7.8578e-07	386.97	128.36	59.614	24.626	6.9324e-07	65.276	159.329	-91.107	-72.366	-138.858	35.461	-35.477	-139.143	-133.950	-18.034	-30.767	-133.494	-128.736	-129.269	-122.694	-14.494	-123.332	-8191	255	
23918.828	1	1	0	0	0.034552	0.056215	0.027176	0.16762	0.057181	0.1686	0.14184	0.083031	0.040532	0.14948	0.18664	0.069412	0.1479	0.043227	0.18028	0.20851	-4.1917	-3.4375	-3.825	-4.3375	-3.3812	-4.3125	-4.2521	-3.6958	-4.3542	-3.6854	-3.9896	-4.4646	-3.4958	-4.3167	-4.1125	-3.4333	-76.480	-40.847	115.230	79.648	25.395	-41.242	129.058	202.702	158.872	72.647	204.479	122.856	147.772	-108.406	12.587	129.480	0.00075336	0.00050689	0.00018799	790.77	4.3763e-06	4.116e-06	1289	246.36	1.4411e-06	5.1237e-06	449	147.06	68.916	28.287	3.9538e-06	75.709	8.8879e-05	6.5534e-05	1.7304e-05	704.1	8.3365e-07	7.4304e-07	1154.4	217.93	8.0244e-07	7.1845e-07	390.51	128.99	60.207	24.643	6.5353e-07	65.674	166.132	-100.089	-64.829	-138.903	-17.132	-43.370	-139.276	-134.145	-22.791	-24.781	-133.680	-129.014	-128.880	-122.434	-64.772	-123.326	-8191	255	
23918.900	1	1	0	0	0.17418	0.099819	0.23159	0.19888	0.072995	0.18259	0.31257	0.088785	0.20739	0.15118	0.1976	0.23732	0.13882	0.31498	0.08959	0.22312	-4.0854	-3.65	-3.7833	-4.4917	-3.5062	-4.2083	-4.3208	-3.5146	-4.3146	-3.9104	-3.7188	-4.5208	-3.5438	-4.0396	-4.1042	-3.4417	185.953	5.235	-98.287	-126.434	160.832	194.331	86.132	78.328	-35.931	56.186	-146.154	118.772	134.766	-102.912	39.336	142.399	0.00077298	0.00046377	0.00015589	799.37	4.0686e-06	7.1427e-06	1306	245.82	2.8562e-06	2.2016e-06	449.83	148.77	69.176	28.381	4.6389e-06	75.979	8.7489e-05	6.5666e-05	1.7311e-05	714.14	8.3894e-07	7.4343e-07	1167.4	218.72	8.4131e-07	7.0223e-07	392.67	130.4	60.34	24.807	6.5774e-07	66.01	163.068	-59.789	-42.883	-139.006	8.976	-17.300	-139.289	-134.224	-17.559	-58.439	-133.772	-128.748	-128.947	-122.692	-32.189	-123.350	-8191	255	
23919.021	1	1	0	0	0.051518	0.1385	0.23139	0.27573	0.073584	0.079316	0.209	0.019136	0.087454	0.19608	0.20013	0.17261	0.015883	0.13858	0.16247	0.23752	-4.1417	-3.9229	-3.5812	-4.3979	-3.4667	-3.8354	-4.3333	-3.5292	-4.2937	-3.9604	-3.6792	-4.5958	-3.6937	-4.0062	-4.35	-3.4354	-70.843	11.296	57.212	146.370	-30.618	140.554	135.150	-55.373	5.143	121.351	75.599	172.373	5.286	102.764	130.878	102.744	0.00075889	0.0002131	0.0001639	778.51	4.3384e-06	4.3029e-06	1268.2	243.44	1.7336e-06	1.7254e-06	441.94	146.8	68.398	28.339	4.7385e-06	75.456	8.2453e-05	6.2338e-05	1.6795e-05	695.91	7.5082e-07	6.4857e-07	1130.7	215.18	7.2089e-07	6.5416e-07	385.27	129.15	59.472	24.725	6.4596e-07	65.66	163.357	-77.274	-77.523	-139.091	3.431	-65.185	-139.339	-133.587	-77.071	-117.745	-133.970	-128.898	-128.949	-122.788	-73.165	-123.765	-8191	255	
23919.117	1	1	0	0	0.070886	0.2308	0.14521	0.057649	0.04384	0.018534	0.31938	0.21079	0.12731	0.048124	0.31204	0.23202	0.11592	0.062266	0.041734	0.20707	-3.9708	-3.95	-3.4667	-4.5563	-3.5479	-3.6604	-4.6104	-3.6375	-4.3646	-4.175	-3.6083	-4.5917	-3.8854	-3.7417	-4.5563	-3.6896	125.141	-21.998	110.407	-87.817	-56.789	200.915	138.905	68.328	35.599	146.005	-55.999	196.857	-96.882	-145.955	203.391	182.960	0.00075417	0.00024487	8.5108e-05	732.28	2.9197e-06	4.4295e-06	1198.5	237.23	3.0988e-06	5.1499e-06	434.16	147.85	67.999	28.959	5.7876e-06	77.654	7.4378e-05	5.4745e-05	1.6805e-05	654.35	6.4213e-07	5.9791e-07	1070	210.06	6.3822e-07	5.6408e-07	378.9	129.34	59.19	25.259	6.1333e-07	67.51	164.457	-79.820	-84.361	-138.616	29.359	-6.205	-138.672	-133.820	-75.577	-22.849	-133.419	-128.685	-129.004	-122.733	-64.410	-123.418	-8191	255	
23919.213	1	1	0	0	0.10185	0.14481	0.15398	0.1541	0.085765	0.28319	0.090422	0.16611	0.19671	0.16664	0.44221	0.20221	0.1897	0.32338	0.17131	0.21247	-3.7792	-4.1729	-3.2917	-4.5292	-3.725	-3.6417	-4.5667	-3.4792	-3.9667	-4.2229	-3.6229	-4.4375	-3.9208	-3.6208	-4.5333	-3.6208	112.076	200.253	96.849	104.849	-10.199	72.872	112.067	-73.347	-149.709	-46.142	149.429	-139.469	172.800	65.054	21.326	129.499	0.00084892	0.00051298	9.8374e-05	685.85	2.0514e-06	3.2851e-06	1140.8	234.09	3.1231e-06	3.7785e-06	436.02	153.55	70.064	30.66	5.9411e-06	82.224	6.5268e-05	4.6755e-05	1.571e-05	610.45	5.6032e-07	4.9518e-07	1020.8	207	5.6245e-07	5.1513e-07	380.15	133.97	60.727	26.771	6.3583e-07	71.514	158.448	-93.165	-130.795	-138.125	37.279	-63.052	-138.529	-133.598	-7.697	-23.912	-133.441	-128.890	-129.637	-122.974	-42.107	-123.745	-8191	255	
23919.311	1	1	0	0	0.17053	0.082329	0.15317	0.31773	0.027148	0.18245	0.12281	0.20056	0.14555	0.077877	0.083896	0.23219	0.13547	0.14494	0.20823	0.19718	-3.6562	-4.2771	-3.4938	-4.5292	-3.7979	-3.6875	-4.7292	-3.7021	-3.8187	-4.5521	-3.6083	-4.3583	-4.1646	-3.5396	-4.5854	-3.7375	-106.454	151.910	-17.344	205.110	-148.769	-110.481	194.140	-132.700	63.473	-84.740	126.494	205.458	112.055	-110.992	-99.082	192.899	0.00075856	0.00025212	8.4108e-05	696.79	4.2159e-06	3.6561e-06	1169.2	239.71	4.2117e-06	3.1029e-06	447.72	158.41	72.924	32.382	3.9942e-06	85.22	6.4119e-05	4.8281e-05	1.6017e-05	619.51	5.3988e-07	5.3112e-07	1043.8	212.56	5.5316e-07	5.3114e-07	390.68	138.34	62.887	28.153	6.5628e-07	74.177	168.045	-107.345	-77.235	-138.569	-12.811	-42.201	-138.256	-133.437	-20.463	-49.342	-133.140	-128.336	-128.794	-122.790	-50.708	-123.394	-8191	255	
23919.430	1	1	0	0	0.10935	0.055776	0.08794	0.16867	0.13747	0.1709	0.24653	0.1875	0.068086	0.14873	0.25986	0.24807	0.10932	0.13961	0.16158	0.13086	-3.3583	-4.3396	-3.5187	-4.2708	-3.8542	-3.4229	-4.6958	-3.7875	-3.6833	-4.5792	-3.6896	-4.1729	-4.425	-3.5271	-4.4	-3.9479	-137.665	56.647	167.941	-119.491	166.646	-109.151	119.355	200.018	46.340	-139.768	169.781	111.457	189.137	109.084	-68.656	197.685	0.00093245	0.00035818	0.0001447	701.56	1.1178e-06	1.9347e-06	1174.4	243.29	3.7518e-06	1.4473e-06	447.52	159.43	73.399	32.563	3.5065e-06	85.45	6.507e-05	5.2542e-05	1.6939e-05	625.21	5.2071e-07	5.8995e-07	1048.9	213.81	5.4011e-07	5.861e-07	389.64	139.29	63.273	28.41	6.1245e-07	74.065	163.062	-83.294	-75.531	-138.296	-18.064	-58.061	-138.617	-133.576	2.739	-57.494	-133.293	-128.785	-128.811	-122.563	-51.639	-123.562	-8191	255	
23919.502	1	1	0	0	0.13786	0.074575	0.17451	0.10436	0.10212	0.1369	0.4473	0.15944	0.21517	0.084052	0.18721	0.063646	0.21616	0.10088	0.083803	0.31197	-3.3896	-4.45	-3.3521	-4.0667	-4.2354	-3.2771	-4.525	-3.8688	-3.55	-4.4021	-3.5187	-4.0583	-4.3854	-3.4958	-4.4	-4.2208	-96.757	116.769	158.335	-130.903	41.742	25.363	166.031	-52.540	118.101	-109.163	191.414	-21.470	156.814	-58.519	138.987	107.141	0.00085743	0.00038751	9.936e-05	697.51	1.6691e-06	2.3637e-06	1169.9	242.8	2.2022e-06	4.2671e-06	448.5	159.33	73.388	32.758	6.3145e-06	86.085	6.3759e-05	5.5561e-05	1.5287e-05	620.7	5.1919e-07	6.3153e-07	1043.2	214.17	5.3401e-07	5.8877e-07	391.13	139.43	63.694	28.751	5.9028e-07	74.863	165.459	-87.802	-90.782	-138.421	-26.701	-53.580	-138.181	-133.372	-10.505	-55.816	-133.271	-128.416	-128.422	-122.301	-38.342	-123.549	-8191	255	
23919.598	1	1	0	0	0.19428	0.10498	0.088148	0.045376	0.19077	0.14769	0.31123	0.23058	0.11044	0.23895	0.30785	0.51775	0.15672	0.08209	0.19737	0.19615	-3.2438	-4.5542	-3.6417	-3.8354	-4.3146	-3.4958	-4.3625	-4.175	-3.6063	-4.4854	-3.7646	-3.9771	-4.4396	-3.5958	-4.0583	-4.3562	186.929	38.679	-70.266	11.527	174.791	-0.594	132.011	178.841	136.353	128.229	132.256	164.372	127.652	-116.217	-83.833	62.512	0.00081445	0.00049925	0.00017177	694.43	3.0965e-06	6.0194e-06	1169	243.08	1.4214e-06	5.1913e-06	451.28	161.95	74.452	33.157	3.0646e-06	86.213	6.572e-05	5.8924e-05	1.4735e-05	621	5.4735e-07	6.2839e-07	1044.3	215.29	5.7933e-07	6.4061e-07	393.26	140.89	64.314	28.986	5.8847e-07	75.105	161.350	197.629	-74.715	-137.907	-15.178	-50.025	-138.395	-133.262	16.783	-44.278	-132.971	-128.526	-128.876	-122.188	-64.563	-123.224	-8191	255	
23919.691	1	1	0	0	0.12354	0.052898	0.15578	0.15791	0.075552	0.22825	0.3928	0.20743	0.16999	0.072606	0.25613	0.37638	0.21297	0.18688	0.15461	0.25743	-3.0896	-4.35	-3.8042	-3.7042	-4.4896	-3.4021	-4.4563	-4.2646	-3.5083	-4.4938	-3.9354	-3.8021	-4.5062	-3.4646	-4.0708	-4.4854	20.090	35.798	25.372	126.992	38.316	89.751	153.359	131.222	159.425	-81.781	148.231	-140.078	114.118	-127.051	149.988	169.755	0.00082909	0.00043222	0.00017899	704.44	1.2684e-06	2.1793e-06	1180.9	245.52	3.5771e-06	3.588e-06	455.27	162.52	73.818	33.112	8.699e-06	86.621	7.1269e-05	5.7916e-05	1.4372e-05	626.53	5.945e-07	6.2119e-07	1051.7	216.8	6.4321e-07	6.1375e-07	395.69	142.04	64.475	29.032	5.4243e-07	75.451	160.546	-119.813	-80.443	-138.373	-42.469	-35.591	-138.253	-133.211	-51.562	18.743	-132.647	-128.642	-128.957	-122.632	-33.097	-123.215	-8191	255	
23919.812	1	1	0	0	0.083499	0.13908	0.13269	0.074125	0.21608	0.13417	0.27931	0.28338	0.18172	0.026942	0.17129	0.091114	0.14597	0.30716	0.048251	0.22959	-2.9771	-4.5042	-4.1042	-3.7479	-4.5604	-3.8229	-4.2771	-4.5229	-3.4292	-4.425	-4.2562	-3.6688	-4.6729	-3.5625	-3.9458	-4.6042	-70.150	-130.937	177.920	122.440	81.828	86.789	131.908	133.914	-19.254	155.009	120.249	69.166	99.227	86.656	-96.361	-148.187	0.00088306	0.00033384	0.00013474	701.65	2.7253e-06	2.9499e-06	1174.6	244.95	2.5835e-06	7.5119e-06	453.52	161.48	73.382	32.99	3.4321e-06	86.235	7.2702e-05	5.6318e-05	1.3484e-05	624.4	6.3879e-07	5.8795e-07	1046.6	216.22	6.6218e-07	5.8539e-07	394.38	141.1	64.265	28.883	5.4751e-07	75.027	158.520	-119.078	-84.532	-138.095	-30.169	-81.456	-138.358	-133.759	-115.573	-25.593	-133.081	-128.609	-128.190	-122.401	-4.519	-123.130	-8191	255	
23919.908	1	1	0	0	0.088726	0.21832	0.034976	0.21417	0.19525	0.28952	0.10101	0.07003	0.073589	0.30173	0.05416	0.13908	0.16641	0.2058	0.15695	0.017281	-3.0771	-4.3229	-4.0375	-3.5208	-4.5333	-3.6854	-3.9792	-4.5563	-3.4354	-4.2583	-4.4062	-3.5687	-4.3771	-3.8104	-3.725	-4.6312	-145.226	-119.167	-11.841	116.553	32.518	121.013	148.536	160.696	155.757	-150.852	169.665	-55.236	180.085	58.921	-58.752	147.358	0.00095503	0.00053462	0.00016035	701.69	4.0822e-06	4.4147e-06	1174.8	243.87	2.3769e-06	4.7194e-06	451.07	160.87	73.247	32.731	4.9799e-06	85.453	7.5695e-05	5.1819e-05	1.3315e-05	625.99	6.3065e-07	5.5477e-07	1046.4	216.63	6.362e-07	5.6018e-07	393.53	140.67	64.007	28.638	5.2159e-07	74.465	156.852	-91.803	-79.381	-138.412	-12.327	-41.092	-138.576	-133.094	-17.182	4.540	-132.957	-128.792	-128.135	-122.077	-59.381	-123.384	-8191	255	
23920.004	1	1	0	0	0.10778	0.034204	0.20343	0.14027	0.17136	0.13058	0.30902	0.24415	0.30708	0.12897	0.14474	0.24214	0.11737	0.24242	0.20767	0.2223	-3.1854	-4.1042	-4.2583	-3.6188	-4.5312	-3.8563	-3.9167	-4.7	-3.4042	-4.1625	-4.4104	-3.3667	-4.2375	-3.9917	-3.6333	-4.7125	104.720	-20.296	188.387	-20.038	26.283	44.240	125.830	142.630	42.569	-83.010	123.610	205.264	-94.816	196.088	-126.655	144.549	0.0009028	0.0005914	6.2487e-05	709.4	4.4879e-06	4.3339e-06	1185.2	246.46	7.5577e-07	3.7317e-06	452.2	160.36	73.656	32.373	8.9569e-06	86.02	7.3673e-05	5.0929e-05	1.2992e-05	630.91	6.04e-07	5.4555e-07	1053.9	217.65	6.1962e-07	5.4483e-07	396	140.59	64.103	28.366	5.3743e-07	74.52	163.497	-76.898	-59.431	-138.006	19.408	-49.808	-138.503	-133.291	-35.960	10.946	-132.896	-128.648	-128.814	-122.371	-37.876	-123.306	-8191	255	
23920.102	1	1	0	0	0.18371	0.04897	0.086639	0.13379	0.13964	0.19099	0.18643	0.054385	0.14593	0.083953	0.18465	0.024937	0.12498	0.10222	0.22548	0.059685	-3.3042	-3.8958	-4.2312	-3.5896	-4.4	-3.9354	-3.7979	-4.4979	-3.6208	-3.8	-4.5083	-3.7646	-4.2771	-4.1438	-3.4625	-4.6854	28.535	176.675	207.756	6.264	18.861	64.604	102.083	-54.978	57.281	170.159	-139.985	56.264	-148.249	91.763	-122.885	20.544	0.0009234	8.8304e-05	0.00017818	709.31	2.4773e-06	3.6637e-06	1178	245.81	2.9621e-06	4.6343e-06	451.97	161.29	73.707	32.322	1.7563e-06	85.417	6.9708e-05	4.9236e-05	1.3135e-05	632.35	5.8451e-07	5.1797e-07	1051.7	217.99	5.6656e-07	5.2432e-07	395.74	140.97	64.001	28.154	5.5232e-07	74.062	164.317	-109.109	-116.809	-137.845	-13.650	-47.843	-138.262	-133.128	-45.386	-60.648	-132.845	-128.180	-128.523	-121.982	-58.532	-123.299	-8191	255	
23920.195	1	1	0	0	0.13874	0.20757	0.1825	0.109	0.04864	0.18919	0.12112	0.10946	0.34465	0.25769	0.26319	0.2551	0.039267	0.080759	0.13636	0.056314	-3.3083	-3.7771	-4.4167	-3.6625	-4.0396	-4.2271	-3.7375	-4.7854	-3.7562	-3.7854	-4.5979	-3.5792	-4.0292	-4.2167	-3.2583	-4.6396	55.388	-96.078	-74.589	198.952	32.876	45.425	-142.602	153.432	17.802	-65.904	135.099	181.734	-72.531	203.502	-54.890	-145.375	0.00088281	0.00033161	0.00016892	705.35	4.7208e-06	3.0742e-06	1176.4	245.06	3.7903e-06	3.0134e-06	448.67	160.19	73.12	32.331	3.3937e-06	84.44	6.5782e-05	4.5567e-05	1.4011e-05	628.93	5.3203e-07	4.9165e-07	1048	217.09	5.2445e-07	4.8187e-07	392.19	139.9	63.512	28.124	5.8827e-07	73.411	163.807	-28.078	-61.626	-138.130	9.795	-21.679	-137.963	-133.099	10.551	-40.470	-133.198	-128.111	-128.700	-122.294	-62.221	-123.397	-8191	255	
23920.293	1	1	0	0	0.17363	0.077932	0.099333	0.24979	0.12247	0.096245	0.25407	0.041164	0.15597	0.18722	0.19661	0.24239	0.31219	0.27671	0.11758	0.17545	-3.5312	-3.6125	-4.4917	-3.7396	-4.0938	-4.2896	-3.85	-4.5708	-4.0271	-3.725	-4.6521	-3.65	-3.8354	-4.4354	-3.3104	-4.5479	-5.558	59.731	-47.577	166.667	30.421	90.320	113.532	153.422	167.402	5.157	85.858	163.118	-57.419	43.164	74.704	198.137	0.00093379	0.00037703	0.00015696	711.47	2.726e-06	3.2644e-06	1171.1	245.25	3.1156e-06	2.944e-06	449.29	161.07	73.103	32.4	5.0773e-06	84.488	6.2893e-05	4.4626e-05	1.4201e-05	628.21	5.125e-07	4.8683e-07	1042.9	216.51	5.0428e-07	4.938e-07	392.8	140.22	63.662	28.219	6.217e-07	73.557	159.973	-86.649	-87.886	-138.009	-1.807	-6.214	-138.072	-133.361	-27.995	-63.628	-133.052	-128.234	-128.789	-122.280	-44.387	-123.208	-8191	255	
23920.389	1	1	0	0	0.30537	0.21443	0.10174	0.12602	0.24064	0.067653	0.43575	0.23165	0.17227	0.1073	0.13999	0.10287	0.26657	0.06415	0.16348	0.23378	-3.7542	-3.4542	-4.5625	-3.55	-3.7562	-4.5125	-3.5604	-4.3812	-4.1604	-3.45	-4.5896	-3.8312	-3.8229	-4.4563	-3.5833	-4.4375	138.581	149.345	40.703	-141.546	135.350	-109.600	148.240	-93.278	181.214	176.219	183.608	116.336	36.414	-147.963	197.713	-127.454	0.0009031	0.00048633	0.00021109	709.47	3.4241e-06	3.3798e-06	1168.4	245.07	3.0869e-06	3.57e-06	452.3	160.49	72.475	32.436	6.5964e-06	85.109	6.2528e-05	4.7577e-05	1.494e-05	627.97	5.1227e-07	5.3032e-07	1042.7	217.39	5.0326e-07	5.3788e-07	395.23	140.47	63.433	28.329	6.1746e-07	74.045	158.956	-73.193	-103.088	-137.978	31.236	-52.899	-138.538	-133.150	-23.558	-17.293	-132.769	-128.563	-129.247	-122.651	18.880	-123.660	-8191	255	
23920.510	1	1	0	0	0.050596	0.13919	0.058026	0.13005	0.21016	0.24303	0.035905	0.042784	0.17321	0.18357	0.074785	0.18651	0.11208	0.080349	0.13408	0.25078	-3.95	-3.3292	-4.475	-3.8833	-3.7646	-4.5437	-3.8146	-4.0354	-4.4313	-3.4021	-4.4021	-4.0896	-3.7479	-4.4396	-3.55	-4.0312	121.290	109.756	56.392	184.950	-69.944	-50.663	-87.429	71.271	108.454	198.157	120.970	-70.530	158.641	199.081	128.004	86.850	0.00089219	0.00018102	6.6144e-05	706.86	3.0765e-06	1.1163e-06	1169.1	245.79	2.4806e-06	5.8502e-06	451.62	161.28	73.457	32.137	6.4977e-06	84.718	6.1151e-05	5.2337e-05	1.4606e-05	628.25	4.947e-07	5.6505e-07	1045.3	216.74	5.0031e-07	5.6508e-07	394.03	140.69	63.679	28.082	5.6542e-07	73.508	161.745	-112.298	-71.605	-138.236	-68.079	-14.664	-138.441	-133.849	-26.356	-31.829	-133.560	-128.666	-128.685	-122.685	-27.882	-123.730	-8191	255	
23920.605	1	1	0	0	0.16964	0.269	0.13888	0.37725	0.16203	0.17056	0.17129	0.16491	0.29224	0.061527	0.14971	0.096964	0.1608	0.15584	0.045866	0.13393	-3.8583	-3.3875	-4.1771	-4.0604	-3.4271	-4.4625	-3.8271	-4.1312	-4.3875	-3.35	-4.3667	-4.0396	-3.5687	-4.5104	-3.6188	-3.9396	53.643	45.374	198.502	158.652	-4.072	40.428	139.647	-124.828	5.384	7.670	155.419	123.144	135.887	-145.533	-25.138	76.621	0.00085079	0.00045525	0.00013021	715.2	1.29e-06	4.9278e-06	1179	245.33	3.0066e-06	2.4909e-06	454.02	162.42	73.505	32.193	5.7112e-06	84.364	6.0567e-05	5.4925e-05	1.4371e-05	633.38	5.0324e-07	6.0521e-07	1050.8	217.39	5.011e-07	6.1298e-07	394.94	141.16	63.855	28.212	5.3109e-07	73.318	163.642	-77.446	-60.075	-138.299	-13.474	-25.199	-138.595	-133.462	-60.993	-40.307	-133.375	-128.560	-129.004	-122.843	-33.526	-123.977	-8191	255	
23920.701	1	1	0	0	0.11409	0.31326	0.084352	0.12349	0.14087	0.1086	0.17623	0.15499	0.059109	0.10286	0.26053	0.17245	0.049329	0.08784	0.13664	0.18963	-3.9458	-3.375	-4.1208	-4.2438	-3.5812	-4.3562	-3.8187	-3.8354	-4.4542	-3.4396	-4.2292	-4.2583	-3.6042	-4.6625	-3.7083	-3.9396	-77.913	36.982	-105.132	113.400	159.261	-20.117	145.687	122.752	-40.787	116.882	130.284	169.066	81.320	134.506	163.650	117.203	0.00090293	0.00028398	0.00012204	717.7	2.7749e-06	1.9164e-06	1184.4	248.07	2.9426e-06	2.8041e-06	456.3	161.59	73.312	32.147	8.6078e-06	84.693	6.2651e-05	5.5223e-05	1.3786e-05	636.39	5.5025e-07	5.6529e-07	1054.7	218.4	5.5351e-07	5.8455e-07	395.81	140.73	63.841	28.124	5.2426e-07	73.632	163.445	-94.982	-96.134	-138.234	-37.814	-11.596	-138.439	-133.606	-81.302	-100.250	-133.184	-128.531	-128.384	-122.539	-30.179	-123.473	-8191	255	
23920.797	1	1	0	0	0.088815	0.071257	0.20922	0.12283	0.18104	0.057527	0.11986	0.19917	0.16282	0.050954	0.057571	0.15717	0.086487	0.33147	0.04372	0.095887	-4.1833	-3.5208	-4.0896	-4.325	-3.2396	-4.3771	-4.1771	-3.5458	-4.2979	-3.5271	-4.0729	-4.3667	-3.3438	-4.4	-3.9542	-3.8042	-39.611	112.993	129.532	201.353	-84.918	-128.564	164.265	172.710	-36.703	130.990	28.818	98.194	103.508	202.876	20.338	136.231	0.00092544	0.00029885	0.00013516	717.16	1.9098e-06	4.3065e-06	1183.1	248.64	2.857e-06	2.9354e-06	459.61	163.18	73.981	32.402	4.787e-06	86.019	6.8353e-05	5.2997e-05	1.3113e-05	637.58	5.9539e-07	5.7124e-07	1056.5	219.13	6.1546e-07	5.6704e-07	398.76	142.41	64.398	28.326	5.1825e-07	74.301	160.394	-59.142	-89.877	-138.108	9.414	-93.122	-138.789	-133.602	-50.438	-9.974	-133.327	-128.439	-128.823	-122.160	-66.121	-122.759	-8191	255	
23920.893	1	1	0	0	0.067855	0.23002	0.13431	0.25829	0.1321	0.049933	0.33825	0.18963	0.10246	0.098918	0.088563	0.25474	0.25402	0.066837	0.11119	0.30338	-4.2312	-3.6583	-3.9292	-4.5479	-3.3083	-4.3063	-4.0875	-3.8146	-4.4229	-3.6604	-3.8729	-4.6208	-3.45	-4.1625	-4.2063	-3.6104	99.238	44.810	-98.703	144.080	92.633	-114.755	149.981	160.482	-87.171	-133.907	184.011	150.337	197.470	163.041	183.253	192.347	0.0008611	0.00022914	0.00014469	724.31	5.5914e-06	2.1282e-06	1197.6	248.38	2.6821e-06	5.8743e-06	459.01	163.47	73.672	32.64	4.8469e-06	86.069	7.2304e-05	5.2124e-05	1.3579e-05	642.48	6.151e-07	5.6615e-07	1063.9	219.7	6.3697e-07	5.6296e-07	399.14	142.97	64.649	28.522	5.2986e-07	74.324	164.252	-63.375	-97.470	-137.421	-26.398	-13.598	-137.746	-133.020	9.972	-36.617	-133.047	-128.152	-128.106	-122.447	-41.920	-123.188	-8191	255	
23920.990	1	1	0	0	0.16124	0.16165	0.081815	0.13824	0.21636	0.31073	0.3374	0.080458	0.13265	0.14181	0.027172	0.10611	0.14554	0.26432	0.11201	0.081127	-4.1958	-3.7125	-3.8063	-4.6479	-3.4396	-4.1604	-4.2583	-3.5583	-4.6104	-3.7604	-3.7625	-4.5542	-3.4229	-4.1438	-4.1062	-3.4813	74.145	-50.683	197.025	108.516	-70.408	87.397	145.630	-148.016	68.255	163.993	-70.962	161.698	161.848	-149.147	-94.417	-119.342	0.00092516	0.0005888	0.0001619	727.92	4.2574e-06	4.9888e-06	1193.6	250.43	2.981e-06	4.382e-06	456.9	163.08	73.932	32.622	5.1303e-06	85.133	7.2263e-05	5.1282e-05	1.3357e-05	645.8	6.2208e-07	5.4285e-07	1061.4	220.81	6.2207e-07	5.4117e-07	397.68	142.54	64.507	28.482	5.2236e-07	74.141	162.232	-94.610	-108.625	-137.968	22.617	-15.242	-138.005	-133.379	-10.303	6.184	-133.452	-128.533	-128.708	-122.492	-41.428	-123.073	-8191	255	
23921.109	1	1	0	0	0.20009	0.097228	0.22288	0.13567	0.034799	0.25114	0.14792	0.4673	0.26578	0.067692	0.20214	0.11903	0.13402	0.17524	0.21452	0.22426	-4.1083	-3.8146	-3.5812	-4.6917	-3.5875	-3.9333	-4.4229	-3.5021	-4.3812	-4.0021	-3.6479	-4.6146	-3.6667	-3.8104	-4.2146	-3.5604	-89.130	-138.253	-5.669	93.761	-27.721	28.202	117.160	184.290	204.007	-136.801	139.614	5.468	17.295	197.286	49.199	200.606	0.00092604	0.00067481	9.5546e-05	724.63	2.8079e-06	5.7089e-06	1198.3	249.72	3.4561e-06	4.2754e-06	459.82	166.17	74.972	33.085	5.491e-06	86.42	7.4278e-05	4.9548e-05	1.3727e-05	646.77	6.1668e-07	5.7071e-07	1067.8	221.31	6.0418e-07	5.6629e-07	400.53	145.01	65.251	28.919	5.6901e-07	75.194	162.999	-76.728	-65.227	-137.885	23.214	-53.284	-138.225	-133.312	-27.310	-25.813	-133.392	-128.309	-128.336	-122.301	-75.464	-123.072	-8191	255	
23921.205	1	1	0	0	0.15597	0.19867	0.11855	0.13305	0.053572	0.14847	0.0034923	0.051101	0.12518	0.19726	0.1074	0.21592	0.26279	0.091977	0.062719	0.088313	-3.9146	-4.0583	-3.3625	-4.5625	-3.5396	-3.9083	-4.5583	-3.5625	-4.1542	-4.2354	-3.6875	-4.6042	-3.825	-3.7917	-4.5125	-3.6479	-22.040	-106.016	-41.674	143.475	63.093	101.603	-92.908	-49.673	-98.071	-42.192	-138.953	148.242	14.362	169.835	-150.892	14.938	0.00087006	0.00049286	0.00018025	726.99	2.1782e-06	5.5484e-06	1201.4	250	1.5872e-06	3.3547e-06	464.41	167.5	76.075	33.356	2.9711e-06	87.195	6.9646e-05	5.0346e-05	1.4087e-05	647.03	5.9243e-07	5.4255e-07	1071.9	222.08	6.0055e-07	5.3272e-07	404.56	145.86	65.882	29.162	6.2739e-07	75.917	160.130	-88.904	-57.441	-138.194	-49.984	-39.123	-138.528	-133.654	-35.898	-48.391	-133.444	-128.388	-128.612	-122.653	29.463	-123.637	-8191	255	
23921.301	1	1	0	0	0.086986	0.10263	0.20473	0.23897	0.18195	0.035233	0.095322	0.13343	0.21992	0.18346	0.15096	0.12823	0.061396	0.23236	0.13045	0.2022	-3.7125	-4.0521	-3.2375	-4.4688	-3.7313	-3.8146	-4.5583	-3.4479	-4.0271	-4.3729	-3.4875	-4.5188	-3.9875	-3.6104	-4.4833	-3.7896	-86.979	-120.309	59.419	136.868	121.027	39.478	158.666	104.034	-35.458	26.738	-145.002	174.954	-41.955	-144.275	34.410	195.367	0.00079602	0.0005242	0.00015255	730.2	4.4982e-06	2.5936e-06	1205.4	251.73	2.4793e-06	3.4048e-06	465.96	168.94	76.512	33.823	6.8012e-06	87.966	7.0955e-05	4.9408e-05	1.6668e-05	651.27	5.9167e-07	5.511e-07	1077.3	223.54	5.7858e-07	5.3978e-07	407	147.53	66.512	29.585	6.8765e-07	76.475	166.148	-94.304	-77.228	-137.820	-4.139	-99.658	-138.263	-133.713	-79.407	-13.913	-133.268	-128.361	-128.608	-122.346	-38.510	-123.575	-8191	255	
23921.396	1	1	0	0	0.097622	0.096534	0.18587	0.15189	0.094125	0.09412	0.35771	0.19436	0.083276	0.029614	0.17707	0.19864	0.13063	0.22551	0.298	0.13194	-3.7104	-4.1729	-3.2875	-4.4125	-3.85	-3.5792	-4.7125	-3.6604	-3.8708	-4.2521	-3.6708	-4.3354	-4.0146	-3.5646	-4.2854	-3.7458	95.620	129.004	15.664	9.398	-146.882	31.105	146.852	118.360	77.905	48.538	-90.333	121.186	44.733	115.102	115.673	-145.652	0.00087996	0.00041459	9.5007e-05	737.63	1.5956e-07	4.4661e-06	1219	256.14	3.2791e-06	3.0203e-06	474.55	171.2	78.333	34.567	6.3963e-06	89.507	7.0954e-05	5.2252e-05	1.847e-05	658.47	6.0257e-07	5.9586e-07	1091.6	226.66	6.0314e-07	6.0678e-07	412.17	149.7	68.051	30.173	7.1236e-07	77.808	162.800	-87.129	-65.380	-138.543	7.460	-56.695	-138.382	-133.424	-64.086	-55.076	-133.126	-128.238	-128.536	-122.974	-54.681	-123.101	-8191	255	
23921.492	1	1	0	0	0.073588	0.29269	0.34376	0.21092	0.12094	0.084082	0.40762	0.16279	0.3222	0.043988	0.16344	0.24903	0.14441	0.13798	0.11016	0.19897	-3.4375	-4.4417	-3.3604	-4.2646	-3.95	-3.5875	-4.7146	-3.7604	-3.6188	-4.3938	-3.5792	-4.3167	-4.2812	-3.4646	-4.4938	-4.0833	89.727	-74.855	90.372	-142.696	199.903	-96.252	144.707	180.109	154.162	30.253	132.009	149.346	177.442	131.700	-7.499	147.274	0.00090003	0.00034021	4.8217e-05	758.75	4.2499e-06	3.6809e-06	1238.7	260.75	4.9086e-06	3.2184e-06	479.44	175.04	79.535	35.457	9.4581e-06	91.16	7.0323e-05	5.8634e-05	1.8656e-05	672.56	5.965e-07	6.7938e-07	1106.5	229.91	6.2315e-07	6.8075e-07	418.3	153.2	69.311	30.998	7.1463e-07	79.41	162.257	-102.585	194.079	-138.182	-4.556	8.729	-138.170	-133.460	-26.317	0.722	-132.786	-128.246	-128.110	-122.151	-45.824	-123.431	-8191	255	
23921.590	1	1	0	0	0.022451	0.072297	0.12311	0.19113	0.20229	0.22021	0.2668	0.099885	0.13994	0.19506	0.11178	0.12393	0.1307	0.1029	0.12571	0.24962	-3.4313	-4.3187	-3.4542	-4.1542	-4.35	-3.4354	-4.4792	-3.8021	-3.5333	-4.3854	-3.7083	-4.0729	-4.3521	-3.425	-4.4208	-4.0208	21.301	148.541	-138.279	-66.086	207.557	33.884	152.353	-119.326	63.912	-119.636	129.709	134.507	8.503	-123.534	-148.296	145.091	0.00090574	0.00010569	0.00013813	756.44	3.3618e-06	3.4743e-06	1251	262.34	1.4497e-06	4.3655e-06	486.47	175.83	80.84	35.553	6.0087e-06	92.181	7.4467e-05	6.8283e-05	1.8301e-05	678.54	6.3114e-07	7.4469e-07	1115.5	232.15	6.4281e-07	7.6525e-07	423.27	154.32	70.086	31.166	6.8048e-07	80.102	162.017	149.915	-77.201	-138.199	-38.994	-83.508	-138.304	-133.278	-42.955	-6.824	-133.042	-128.487	-128.525	-122.514	-20.174	-123.290	-8191	255	
23921.686	1	1	0	0	0.3093	0.092034	0.13226	0.20927	0.11135	0.23026	0.060496	0.24332	0.037535	0.25686	0.10547	0.33228	0.30525	0.20554	0.095921	0.11062	-3.2708	-4.4083	-3.7333	-3.9021	-4.3208	-3.4958	-4.5542	-4.1813	-3.6333	-4.4625	-3.7562	-3.9646	-4.5375	-3.6042	-4.1646	-4.1771	44.215	152.999	92.984	16.147	153.227	88.220	119.701	34.281	183.391	-82.126	51.813	131.231	145.644	92.675	206.784	39.210	0.00077928	0.00034676	0.00017423	762.66	1.152e-06	2.163e-06	1238.2	260.53	4.6898e-06	4.3203e-06	480.63	174.46	80.102	35.418	6.3889e-06	90.758	7.4928e-05	6.836e-05	1.7309e-05	676.82	6.4339e-07	7.307e-07	1106.1	230.5	6.6038e-07	7.2843e-07	418.17	153.63	69.884	30.9	6.6465e-07	78.758	160.295	-92.763	-74.059	-138.455	29.807	-5.735	-138.274	-133.300	-48.137	-28.521	-133.031	-128.342	-128.632	-121.944	-33.733	-123.362	-8191	255	
23921.781	1	1	0	0	0.14631	0.051008	0.26662	0.15447	0.27724	0.1663	0.16297	0.099682	0.046895	0.18697	0.25839	0.20826	0.16991	0.12686	0.11228	0.2701	-3.1521	-4.4563	-3.7042	-3.8521	-4.4833	-3.3167	-4.1937	-4.1958	-3.1458	-4.4292	-3.8542	-3.7354	-4.4979	-3.5312	-4.1896	-4.3521	144.786	92.998	28.439	177.084	48.001	126.042	110.384	156.289	148.820	-84.734	91.192	205.798	-10.918	37.853	122.772	127.951	0.00096427	0.00042639	0.00016764	757.3	2.8304e-06	4.8377e-06	1237.7	261.77	4.8295e-06	2.8579e-06	482.65	176.07	80.381	35.62	7.2884e-06	91.615	8.1468e-05	6.7475e-05	1.6212e-05	675.05	7.1276e-07	7.4421e-07	1104.4	231.1	7.3295e-07	7.1853e-07	420.53	154.4	70.485	31.245	6.4859e-07	79.509	158.789	-28.602	-40.475	-138.207	12.586	-43.831	-138.185	-133.116	-38.150	-65.400	-132.639	-128.270	-128.494	-121.609	-32.401	-123.225	-8191	255	
23921.900	1	1	0	0	0.067507	0.23859	0.080377	0.27598	0.13576	0.22594	0.070943	0.061252	0.057984	0.062415	0.38624	0.28908	0.062864	0.29792	0.18354	0.22905	-2.9708	-4.3604	-3.85	-3.6875	-4.5146	-3.4604	-4.1833	-4.4333	-3.2521	-4.2646	-4.1104	-3.4188	-4.5229	-3.6667	-3.9458	-4.3354	-48.011	-28.015	88.876	205.048	-80.170	134.791	-147.417	145.252	-4.516	-113.738	187.255	119.743	-7.799	-81.684	-23.560	123.331	0.0008119	0.00050087	0.00013094	758.98	3.2081e-06	6.5242e-06	1248.1	262.37	4.7275e-06	2.028e-06	485.87	179.22	81.625	35.775	8.7508e-06	92.744	8.6742e-05	6.5644e-05	1.6014e-05	677.36	7.5378e-07	6.9105e-07	1113	233.1	8.0095e-07	6.9701e-07	423.01	156.36	71.556	31.469	6.8289e-07	80.72	161.845	-53.607	-50.836	-138.037	-43.485	-8.661	-138.221	-133.185	-37.334	-59.744	-132.729	-128.285	-128.304	-121.615	-20.280	-123.012	-8191	255	
23921.996	1	1	0	0	0.11736	0.071994	0.062848	0.11913	0.2398	0.22021	0.1284	0.28381	0.009684	0.050808	0.1896	0.19613	0.13973	0.075211	0.11252	0.10196	-3.1083	-4.1729	-4.1125	-3.5167	-4.4021	-3.6542	-3.9854	-4.4875	-3.3583	-4.2542	-4.2271	-3.5917	-4.3417	-3.8063	-3.8146	-4.525	-15.673	1.347	-91.526	12.809	-77.769	175.507	104.987	-145.994	22.490	57.079	169.972	139.417	179.615	-75.002	82.878	56.329	0.0010176	0.00050685	0.00023202	766.17	4.401e-06	2.9872e-06	1257.6	267.19	5.1034e-06	2.3228e-06	488.36	179.38	82.051	36.18	8.007e-06	92.697	9.2962e-05	6.6182e-05	1.6441e-05	684.1	8.0909e-07	7.1873e-07	1122.1	235.71	7.9108e-07	7.0109e-07	425.27	157.43	71.508	31.57	6.5278e-07	80.508	159.901	-89.379	-77.962	-138.108	24.207	-41.754	-138.563	-132.806	-26.644	-65.771	-132.715	-128.169	-128.664	-122.209	-49.028	-122.843	-8191	255	
23922.070	1	1	0	0	0.082836	0.2039	0.10403	0.24557	0.11068	0.086176	0.17563	0.10633	0.19818	0.19662	0.16585	0.16252	0.21494	0.090599	0.082766	0.17135	-3.0292	-3.9771	-4.2542	-3.2438	-4.3812	-3.8312	-3.7333	-4.4979	-3.5083	-3.9292	-4.2312	-3.3937	-4.25	-3.8187	-3.4833	-4.5458	-82.814	203.133	-136.468	-140.078	168.203	-2.147	124.454	-147.027	185.649	-89.931	83.177	35.369	5.823	-47.650	6.980	80.066	0.00097004	0.00069536	0.00015969	768.34	4.3065e-06	4.7407e-06	1254.6	264.32	2.9042e-06	4.6994e-06	486.17	178.21	82.169	35.879	5.3987e-06	91.944	8.7093e-05	6.156e-05	1.5748e-05	683.74	7.5609e-07	6.5293e-07	1119.2	234.12	7.565e-07	6.6126e-07	423.16	156.4	71.548	31.407	6.8523e-07	80.095	164.989	-63.577	-71.827	-138.195	-28.021	-64.986	-138.193	-133.248	-26.407	-19.663	-132.892	-128.307	-128.402	-122.081	-24.456	-123.200	-8191	255	
23922.189	1	1	0	0	0.08149	0.1873	0.1405	0.019926	0.37624	0.013648	0.1143	0.15646	0.29864	0.16651	0.23107	0.20431	0.040861	0.13406	0.075052	0.059146	-3.2583	-3.9021	-4.1979	-3.5208	-4.3	-4.2104	-3.6979	-4.525	-3.6292	-3.8854	-4.4375	-3.6	-4.2312	-4.2458	-3.4021	-4.5958	193.546	-46.447	103.274	202.201	-97.304	81.539	154.674	132.246	57.879	-129.595	164.539	-92.332	182.920	113.710	140.000	183.761	0.00098145	0.0004184	0.00014652	771.47	3.6352e-06	1.0741e-06	1257.6	264.33	3.1895e-06	7.3276e-06	486.07	179.37	82.344	36.192	5.3696e-06	92.709	8.4689e-05	5.9787e-05	1.6874e-05	688.49	7.3661e-07	6.4101e-07	1122.1	235.28	7.3409e-07	6.688e-07	424.61	157.02	71.885	31.57	7.543e-07	80.648	166.499	-96.488	-83.957	-138.350	12.347	-107.224	-138.605	-133.188	-57.266	-46.889	-132.965	-128.194	-128.745	-121.976	-54.346	-122.946	-8191	255	
23922.285	1	1	0	0	0.13261	0.091331	0.11276	0.097042	0.088407	0.29552	0.14456	0.188	0.2488	0.046429	0.14487	0.15462	0.13361	0.20384	0.12562	0.20588	-3.3063	-3.675	-4.2667	-3.6958	-4.0437	-4.05	-3.4771	-4.5708	-3.6312	-3.5375	-4.45	-3.6	-4.0708	-4.2562	-3.3688	-4.4479	150.146	-96.127	176.427	179.275	57.597	-134.540	156.291	149.185	30.227	-113.474	165.839	-133.904	178.209	90.177	191.596	117.701	0.00095075	0.00019231	0.00012167	782.17	4.4753e-06	4.8647e-06	1267.4	269.07	3.7873e-06	5.3198e-06	490.92	180.29	82.994	36.301	9.0027e-06	93.374	8.3568e-05	6.2321e-05	1.9189e-05	695.56	7.3834e-07	6.7607e-07	1137.4	238.25	7.4312e-07	6.9e-07	430.72	158.42	72.425	31.857	8.3493e-07	81.353	159.219	-91.167	-107.192	-138.414	-21.916	-18.026	-138.310	-133.197	-59.499	-37.519	-132.936	-128.505	-128.448	-122.242	-36.046	-123.318	-8191	255	
23922.381	1	1	0	0	0.074741	0.056383	0.026697	0.24164	0.15666	0.04644	0.26079	0.082203	0.16975	0.090136	0.26054	0.33392	0.22056	0.18334	0.13833	0.17835	-3.3312	-3.575	-4.2937	-3.4938	-3.9208	-4.2562	-3.6104	-4.325	-3.8042	-3.5687	-4.5125	-3.4313	-3.9208	-4.2854	-3.4292	-4.3333	149.526	151.536	205.090	66.915	-104.859	-23.719	146.121	80.654	45.669	152.277	152.965	112.422	-88.526	204.195	140.546	173.605	0.00094453	0.00089487	0.00016338	784	4.3953e-06	2.9664e-06	1278.4	269.92	1.8507e-06	6.0512e-06	495.41	182.52	83.717	36.744	4.1982e-06	93.497	8.4264e-05	6.4792e-05	2.0635e-05	700.93	7.3129e-07	6.9289e-07	1145.5	239.15	7.2606e-07	7.1251e-07	434.31	159.51	72.694	32.099	8.8681e-07	81.581	166.181	-98.153	-83.469	-138.334	4.278	-36.141	-138.561	-133.661	-46.717	-32.497	-132.927	-128.181	-128.700	-122.132	-74.941	-123.248	-8191	255	
23922.502	1	1	0	0	0.1334	0.084128	0.079401	0.17444	0.11158	0.072939	0.14483	0.26046	0.099578	0.11067	0.05771	0.011418	0.11685	0.35411	0.087344	0.10424	-3.6146	-3.4437	-4.5208	-3.6937	-3.7854	-4.3479	-3.6188	-4.2729	-4.2271	-3.4167	-4.6042	-3.9	-3.7979	-4.6562	-3.5104	-3.9938	204.524	179.369	-139.476	-141.983	39.754	-105.388	107.807	154.741	189.461	197.177	206.091	-18.699	177.821	167.303	194.933	57.073	0.00093199	0.00040639	0.0001033	783.97	3.7533e-06	4.9234e-06	1270.9	269	4.2864e-06	3.1766e-06	491.77	179.9	82.582	36.257	7.2789e-06	92.062	8.15e-05	6.9095e-05	2.179e-05	699.32	7.2704e-07	7.4474e-07	1139.5	237.89	6.7716e-07	7.4802e-07	429.75	157.74	72.021	31.67	8.1178e-07	80.384	158.373	-52.893	-31.065	-138.127	-28.387	-16.767	-138.660	-133.661	-18.788	-33.379	-133.043	-128.238	-129.070	-122.137	-45.630	-123.393	-8191	255	
23922.598	1	1	0	0	0.086555	0.26283	0.20167	0.33455	0.12853	0.10553	0.23152	0.078702	0.054443	0.068891	0.084829	0.14643	0.073978	0.1682	0.11513	0.06871	-3.7146	-3.2646	-4.4417	-3.8646	-3.7479	-4.4812	-3.5417	-4.0563	-4.0521	-3.4042	-4.4583	-4.0312	-3.825	-4.4417	-3.6604	-4.2042	-131.947	191.026	-65.186	194.053	10.125	79.128	97.352	-71.817	-84.335	63.942	118.269	-129.400	118.954	176.461	81.360	67.240	0.00098123	0.00044869	0.00011743	783.82	4.5897e-06	2.0261e-06	1276.6	268.09	2.944e-06	2.1395e-06	492.83	180.37	82.661	36.451	5.4262e-06	93.086	7.6102e-05	6.9821e-05	1.9779e-05	695.43	6.7114e-07	7.5628e-07	1137.2	237.59	6.5601e-07	7.8503e-07	430.42	157.5	71.84	31.837	7.5781e-07	80.873	166.623	-75.885	-84.390	-138.102	-14.433	-38.109	-138.281	-133.693	-38.811	-55.279	-132.977	-128.329	-128.393	-122.133	-19.256	-123.236	-8191	255	
23922.670	1	1	0	0	0.164	0.097766	0.10827	0.0886	0.25033	0.088142	0.18697	0.28441	0.22077	0.12791	0.18046	0.12791	0.22391	0.027967	0.058516	0.33072	-4.0354	-3.3438	-4.3271	-4.0917	-3.6021	-4.475	-3.8937	-3.8937	-4.2271	-3.5083	-4.3271	-4.1583	-3.5938	-4.3833	-3.7	-3.9583	91.630	102.457	-127.052	192.997	-17.846	190.126	-137.558	-142.920	11.644	160.323	191.779	203.413	187.686	-123.416	-9.866	173.322	0.001	0.00035872	0.00015206	783.78	1.9224e-06	4.6495e-06	1269.6	268.57	3.8678e-06	1.4027e-06	492.39	180.59	83.393	36.486	3.4566e-06	93.565	7.9106e-05	7.6013e-05	1.9744e-05	698.49	6.9914e-07	8.1062e-07	1136.8	237.83	7.1583e-07	8.5487e-07	431.33	157.81	72.46	31.918	7.5642e-07	81.186	162.943	-55.805	-61.233	-138.249	21.091	-78.053	-138.410	-133.503	-43.906	-51.451	-133.040	-128.216	-128.373	-121.820	-33.330	-123.251	-8191	255	
23922.789	1	1	0	0	0.13281	0.20122	0.092663	0.36987	0.048783	0.072717	0.45192	0.31254	0.1001	0.13196	0.27196	0.14633	0.29145	0.23014	0.17746	0.12902	-4.0729	-3.5021	-4.0687	-4.0188	-3.3646	-4.2542	-3.9771	-3.9083	-4.4396	-3.4146	-4.2604	-4.3292	-3.3333	-4.3063	-3.65	-3.7188	64.452	116.498	87.336	205.678	9.210	13.575	122.367	-138.890	13.296	159.107	160.934	-114.016	98.601	182.131	-142.313	128.153	0.00099065	0.00053164	5.7737e-05	780.95	1.7835e-06	5.0609e-06	1267.6	268.4	2.0395e-06	4.4795e-06	494.17	181.44	82.64	36.224	4.02e-06	92.613	8.1633e-05	7.4383e-05	1.8252e-05	695.67	7.5351e-07	8.0187e-07	1137.8	237.33	7.6703e-07	8.3163e-07	430.6	158.04	72.316	31.722	7.2785e-07	80.485	163.550	-84.039	-79.145	-138.246	-32.965	-23.395	-138.157	-133.125	-44.129	3.506	-133.312	-128.781	-128.858	-122.596	-21.778	-123.513	-8191	255	
23922.887	1	1	0	0	0.065247	0.19938	0.24598	0.22467	0.14151	0.0512	0.065727	0.030202	0.18878	0.041203	0.32688	0.091918	0.12037	0.097859	0.19064	0.39276	-3.9854	-3.4792	-4.0625	-4.4187	-3.3229	-4.3938	-4.0979	-3.7646	-4.4437	-3.4625	-4.1292	-4.3063	-3.3	-4.425	-3.8354	-3.5875	-47.411	-118.686	31.126	192.335	-51.160	103.714	-82.956	-93.398	29.224	-22.113	173.607	-128.978	139.334	-125.102	96.549	34.607	0.0009554	0.00057558	9.9036e-05	791.04	5.5021e-06	7.393e-06	1280.8	268.84	4.0912e-06	4.86e-06	494.45	180.59	83.513	36.44	6.3846e-06	92.545	9.2153e-05	7.2486e-05	1.7548e-05	703.04	8.3523e-07	7.8812e-07	1144.4	238.58	8.2862e-07	7.7374e-07	430.68	157.88	72.585	31.776	7.3292e-07	80.35	155.878	-81.291	-102.105	-138.003	-6.361	-33.991	-138.694	-133.787	-56.631	-32.630	-133.118	-128.342	-128.630	-122.020	-29.313	-123.360	-8191	255	
23922.980	1	1	0	0	0.028539	0.16716	0.11775	0.14154	0.1433	0.29673	0.48623	0.053404	0.20474	0.23134	0.25517	0.27747	0.079142	0.28264	0.2065	0.19222	-4.1542	-3.525	-4.0292	-4.4875	-3.2	-4.4896	-4.2104	-3.5708	-4.5167	-3.7021	-4.0083	-4.4542	-3.3625	-4.2333	-4.1146	-3.5187	21.082	-148.564	119.990	147.861	38.531	73.062	120.064	-13.829	129.987	-148.215	17.576	205.806	150.850	53.321	31.458	146.263	0.00093753	0.00054381	0.00014056	797.45	5.7953e-06	1.6456e-06	1295.5	271.7	3.8358e-06	3.4502e-06	501.01	182.64	84.217	36.947	8.2403e-06	93.519	9.7437e-05	7.0144e-05	1.8859e-05	711	8.8254e-07	7.6249e-07	1158.4	241.07	8.8817e-07	7.6496e-07	436.83	159.92	73.397	32.196	7.1005e-07	81.474	161.829	-74.865	-41.095	-138.167	-7.041	-117.223	-138.311	-133.165	5.564	-66.178	-133.006	-128.415	-128.560	-121.913	-7.006	-122.932	-8191	255	
23923.078	1	1	0	0	0.21719	0.19355	0.18747	0.097759	0.053804	0.076559	0.18171	0.10417	0.21334	0.23427	0.11306	0.16442	0.08192	0.044005	0.45749	0.20573	-4.2083	-3.7417	-3.7125	-4.5021	-3.6458	-4.1188	-4.2292	-3.3979	-4.3771	-3.7833	-3.7458	-4.6438	-3.4771	-4.1458	-4.1312	-3.4021	88.385	168.202	31.487	122.124	79.808	-111.202	188.585	94.119	30.461	88.289	200.276	-139.476	135.331	-4.075	78.543	-147.942	0.00079551	0.00035625	0.00016986	793.27	3.7973e-06	2.3309e-06	1290.5	271.37	2.2818e-06	4.84e-06	500.01	183.65	84.441	36.879	6.8123e-06	93.944	9.561e-05	6.9305e-05	1.7201e-05	708.67	8.227e-07	7.5659e-07	1154.1	240.8	8.4342e-07	7.2751e-07	435.2	160.71	73.479	32.125	6.8282e-07	81.788	163.095	-95.718	-65.883	-137.811	-14.220	-40.963	-138.137	-133.291	-26.900	-10.933	-132.684	-127.875	-127.848	-121.944	-56.282	-122.550	-8191	255	
23923.197	1	1	0	0	0.20923	0.24642	0.19396	0.23469	0.21468	0.15235	0.20846	0.051978	0.30281	0.053037	0.33795	0.2558	0.21323	0.038228	0.062034	0.2234	-3.8937	-3.8583	-3.5125	-4.4792	-3.5771	-4.0062	-4.35	-3.5458	-4.2833	-3.8583	-3.5583	-4.6625	-3.5417	-3.9771	-4.3771	-3.5667	-128.453	116.969	63.946	142.043	-61.596	-75.522	125.406	-85.767	-131.460	178.893	160.778	157.441	-127.024	140.550	172.750	99.491	0.00094476	0.0005211	7.0884e-05	799.36	1.8296e-06	4.0725e-06	1295.8	271.55	2.1604e-06	6.9815e-06	500.52	182.09	84.194	36.803	4.0915e-06	93.071	8.9747e-05	6.5269e-05	1.8225e-05	711.56	8.0838e-07	7.1979e-07	1154.7	241.27	7.971e-07	7.19e-07	435.98	160.34	73.293	32.074	7.3043e-07	81.339	169.087	-74.810	-56.119	-137.748	93.052	-19.519	-137.702	-132.896	-68.976	-22.820	-132.849	-128.264	-128.427	-121.931	3.761	-122.883	-8191	255	
23923.295	1	1	0	0	0.18901	0.1386	0.2783	0.21677	0.2537	0.060342	0.26483	0.016752	0.11497	0.099355	0.24843	0.28495	0.044621	0.14557	0.12189	0.28605	-3.8146	-4.0021	-3.4875	-4.5062	-3.5667	-3.7542	-4.6375	-3.65	-4.225	-4.2042	-3.5146	-4.3875	-3.6271	-3.6729	-4.3292	-3.625	194.554	169.089	172.551	188.995	89.697	136.204	141.830	23.537	188.428	103.116	172.511	172.891	113.882	-74.069	140.502	172.304	0.0008734	0.00051375	0.00011813	800.21	2.4741e-06	4.1604e-06	1297.8	272.83	4.9802e-06	2.0668e-06	499.63	184.52	84.07	36.657	4.4504e-06	93.497	8.7392e-05	6.3259e-05	1.9139e-05	711.77	7.6513e-07	6.9357e-07	1159.8	242.17	7.8141e-07	7.0764e-07	436.56	161.19	73.497	32.103	8.1311e-07	81.386	158.969	-97.796	-70.406	-137.997	10.119	-55.808	-138.344	-133.592	-23.445	-70.776	-133.237	-128.057	-128.187	-122.068	-40.317	-122.874	-8191	255	
23923.365	1	1	0	0	0.11466	0.089046	0.11584	0.21923	0.15569	0.29256	0.25994	0.18646	0.10238	0.20847	0.2072	0.15329	0.0111	0.15292	0.076847	0.13621	-3.8583	-4.1937	-3.5604	-4.5625	-3.8354	-3.5792	-4.5625	-3.6312	-4.0667	-4.3438	-3.4604	-4.3083	-3.9042	-3.5187	-4.3854	-3.7042	-147.067	-41.187	3.260	123.005	188.154	-60.987	173.424	134.080	-78.542	82.978	169.940	170.820	52.564	67.482	-14.598	136.139	0.00093222	0.00035402	8.7651e-05	799.85	4.0309e-06	4.4391e-06	1300.3	274.23	2.4066e-06	6.6211e-06	501.83	183.88	84.704	36.806	5.41e-06	93.631	8.6116e-05	6.3563e-05	2.0929e-05	714.22	7.3549e-07	7.077e-07	1159.8	242.3	7.6344e-07	6.8111e-07	436.65	161.15	73.762	32.201	8.5835e-07	81.71	164.100	-101.692	-43.198	-137.778	37.727	-61.216	-138.282	-133.198	-29.529	-46.721	-132.978	-128.133	-128.165	-121.773	-56.105	-122.720	-8191	255	
23923.463	1	1	0	0	0.2038	0.095903	0.17683	0.19174	0.10204	0.25296	0.32587	0.13762	0.2462	0.090376	0.085269	0.15929	0.26345	0.074554	0.12712	0.21735	-3.6604	-4.2438	-3.2042	-4.4187	-3.875	-3.5	-4.75	-3.6688	-3.6917	-4.3354	-3.6125	-4.2729	-4.175	-3.5667	-4.5104	-3.8854	19.626	-58.522	45.298	-134.490	-43.046	-49.434	55.801	177.950	-20.411	-47.177	57.405	136.905	137.912	132.239	-3.666	162.011	0.00089345	0.00021091	0.00024915	799.39	4.2861e-06	1.194e-06	1293.5	274.85	3.873e-06	1.262e-06	501.41	185.27	84.606	37.152	7.1947e-06	94.849	8.3757e-05	6.2548e-05	2.1895e-05	711.88	7.244e-07	7.4503e-07	1160	241.93	7.318e-07	7.6489e-07	439.39	161.99	73.982	32.489	8.8139e-07	82.384	161.478	-19.806	-78.921	-137.916	-15.461	7.489	-137.704	-133.210	-71.780	-42.802	-132.474	-127.724	-127.881	-122.010	-32.266	-122.742	-8191	255	
23923.582	1	1	0	0	0.18273	0.2031	0.15607	0.058114	0.05989	0.20828	0.063432	0.15117	0.0559	0.053775	0.14454	0.27707	0.13725	0.23594	0.27905	0.20657	-3.3125	-4.375	-3.4604	-4.1333	-4.0854	-3.3792	-4.5229	-3.8646	-3.6312	-4.4521	-3.5542	-4.2354	-4.1813	-3.2958	-4.3083	-3.9979	31.160	71.242	-64.551	-127.418	96.386	91.791	-130.694	173.228	-145.136	-14.904	98.163	189.953	106.718	-138.456	144.614	160.620	0.00094443	0.00056024	0.00011805	805.88	3.7489e-06	2.9682e-06	1302.8	273.17	1.776e-06	3.0156e-06	501.15	183.3	84.143	36.879	6.6756e-06	93.343	8.4176e-05	7.4688e-05	2.239e-05	718.38	7.0965e-07	8.0658e-07	1164.1	242.46	7.2115e-07	8.472e-07	438.3	161.16	73.668	32.343	8.5793e-07	81.729	156.055	-56.443	-82.851	-138.077	-3.327	-118.962	-138.311	-133.169	-49.617	-25.063	-133.083	-128.322	-129.092	-122.038	-26.074	-123.484	-8191	255	
23923.678	1	1	0	0	0.14395	0.12488	0.088194	0.28304	0.10204	0.079645	0.10822	0.26875	0.31382	0.12066	0.14458	0.2769	0.12599	0.26785	0.09844	0.20892	-3.375	-4.4354	-3.4417	-3.9542	-4.1625	-3.2375	-4.4208	-4.025	-3.5563	-4.5146	-3.6042	-3.9229	-4.3562	-3.3292	-4.175	-4.0646	-62.316	150.956	55.434	-145.817	46.027	-15.839	175.944	183.051	-24.927	28.295	139.919	-148.726	87.399	-101.844	74.625	-143.977	0.00099663	0.00028198	0.00014423	796.64	2.0629e-06	7.1899e-06	1292.4	271.71	4.6924e-06	6.3636e-06	498.76	182.51	84.056	36.896	4.3655e-06	93.969	8.3403e-05	7.7643e-05	2.0769e-05	710.38	7.1948e-07	8.5971e-07	1155.2	240.94	7.2444e-07	8.5763e-07	436.13	160.16	73.119	32.104	7.9372e-07	81.508	164.140	-52.436	-49.159	-138.528	26.264	-31.952	-138.619	-133.518	-40.963	-54.265	-133.033	-128.524	-129.203	-122.433	-44.472	-123.244	-8191	255	
23923.773	1	1	0	0	0.17986	0.2543	0.062325	0.1864	0.21271	0.29263	0.044872	0.17754	0.064454	0.077465	0.23526	0.27804	0.14054	0.13933	0.2195	0.3316	-3.2417	-4.3917	-3.4354	-3.9167	-4.1813	-3.1917	-4.4125	-4.0729	-3.1104	-4.5833	-3.9771	-3.8708	-4.3063	-3.625	-4.0708	-4.3208	140.236	-66.990	-64.503	105.006	152.851	44.225	164.053	169.505	154.763	-119.417	108.844	178.325	161.597	126.053	98.017	202.488	0.0010188	0.00039408	0.00014955	800.78	2.8437e-06	4.2273e-06	1299.3	274.72	3.5696e-06	7.9653e-06	500.61	183.89	85.171	36.8	8.9623e-06	94.17	8.5942e-05	7.7946e-05	1.9558e-05	711.01	7.5926e-07	8.7284e-07	1160.2	242.41	8.1065e-07	8.7794e-07	438.48	160.93	73.911	32.281	7.8878e-07	81.842	162.362	-72.908	-64.661	-138.721	-83.942	-51.221	-138.686	-133.655	-31.309	-40.892	-133.091	-128.559	-128.703	-122.461	-47.394	-123.069	-8191	255	
23923.871	1	1	0	0	0.055984	0.10476	0.26427	0.15695	0.034108	0.13954	0.16308	0.13413	0.18267	0.099503	0.12935	0.23141	0.16617	0.095627	0.20004	0.4338	-3.1292	-4.4187	-3.6667	-3.8646	-4.4292	-3.3583	-4.2458	-4.1687	-3.3583	-4.4229	-4.1292	-3.6083	-4.3979	-3.5021	-4.0896	-4.3375	49.308	-111.343	26.141	144.548	97.300	149.055	151.698	30.296	2.417	15.247	158.730	100.591	115.431	-14.681	37.387	158.376	0.0010319	0.00076246	0.00013236	800.61	3.053e-06	3.4865e-06	1301.4	272.73	3.4215e-06	3.8738e-06	501.09	185.05	84.539	36.903	4.7994e-06	94.172	9.4286e-05	7.8672e-05	1.9776e-05	715.01	8.6646e-07	8.9525e-07	1163.9	242.45	9.0086e-07	8.6262e-07	439.68	162.1	73.945	32.339	7.7623e-07	82.115	162.028	-115.353	-82.404	-138.525	-11.783	-35.134	-138.563	-133.402	-19.320	-5.630	-133.078	-128.331	-128.625	-122.486	-57.976	-123.008	-8191	255	
23923.967	1	1	0	0	0.18965	0.11531	0.10258	0.24443	0.10467	0.23272	0.22484	0.26846	0.1227	0.15785	0.20929	0.24615	0.093302	0.055592	0.13067	0.18818	-2.9354	-4.3667	-3.8125	-3.6042	-4.5563	-3.4562	-4.2438	-4.4563	-3.3833	-4.2521	-4.1229	-3.6104	-4.6271	-3.7021	-3.7583	-4.4271	-8.675	81.200	0.330	-143.371	-77.837	17.230	183.524	87.694	58.886	-55.455	163.553	186.803	-128.272	78.437	150.147	170.419	0.0010701	0.00082041	0.00013336	804.04	8.6413e-07	5.5293e-06	1299.7	273.5	3.6039e-06	5.9837e-06	501.02	184.37	84.294	36.748	9.7093e-06	94.064	9.8102e-05	7.7363e-05	1.8896e-05	715.64	8.8217e-07	7.9027e-07	1160.8	241.96	8.9512e-07	7.7049e-07	437.4	161.31	73.717	32.255	7.3244e-07	81.767	166.233	-65.779	-79.788	-138.237	-39.370	-40.140	-138.339	-132.872	-33.602	-37.054	-132.924	-128.152	-128.309	-122.022	-24.030	-123.063	-8191	255	
23924.062	1	1	0	0	0.10353	0.13977	0.1278	0.28455	0.047747	0.11324	0.27516	0.036499	0.033345	0.025793	0.18923	0.21474	0.14704	0.30039	0.19723	0.28638	-3.1229	-4.1104	-4.0146	-3.4646	-4.3979	-3.4979	-3.9708	-4.6271	-3.2792	-4.0854	-4.2146	-3.5458	-4.5167	-3.7625	-3.6708	-4.6896	-138.588	-72.280	-115.359	-127.890	-125.094	0.078	164.260	-20.062	-17.235	193.348	112.868	119.517	71.573	162.852	-29.158	139.797	0.00095494	0.00054107	0.00013591	801.15	6.0952e-06	2.6198e-06	1290.8	271.88	5.2221e-06	5.1785e-06	502.11	183.75	83.806	36.967	3.9677e-06	93.53	9.8004e-05	6.9423e-05	1.8042e-05	713.52	8.7202e-07	7.5305e-07	1155.7	240.95	8.6213e-07	7.5093e-07	436.77	161.02	73.423	32.155	7.359e-07	81.474	164.286	-74.950	-77.111	-138.247	-6.554	-70.168	-138.242	-133.033	-67.264	-24.847	-132.723	-127.982	-127.815	-121.965	-31.299	-123.156	-8191	255	
23924.182	1	1	0	0	0.021622	0.21904	0.10092	0.25274	0.015179	0.060533	0.42097	0.26189	0.17397	0.083397	0.17778	0.19634	0.080062	0.30419	0.06861	0.15498	-3.0667	-4.1458	-4.3083	-3.4958	-4.3146	-3.7979	-3.8563	-4.6854	-3.3542	-3.9188	-4.2479	-3.3479	-4.4792	-4.0021	-3.4417	-4.5792	-15.152	39.684	-26.820	127.509	56.054	-95.628	169.008	163.378	137.938	202.311	182.366	159.087	197.859	196.922	204.587	196.253	0.00098668	0.00040237	0.00016635	794.93	3.3589e-06	6.0783e-06	1290.9	271.45	4.0213e-06	3.6812e-06	502.79	183.68	84.53	36.698	3.7407e-06	94.308	9.2614e-05	6.7253e-05	1.773e-05	710.27	8.4731e-07	7.2995e-07	1155.3	241.98	8.3102e-07	7.4048e-07	438.46	161.4	73.878	32.161	7.4805e-07	82.072	160.201	-128.574	-84.537	-138.295	-41.915	-33.189	-138.715	-133.442	15.159	-18.903	-133.060	-128.313	-128.575	-122.106	-4.158	-123.147	-8191	255	
23924.277	1	1	0	0	0.14561	0.099107	0.22794	0.1434	0.17819	0.11488	0.20748	0.012558	0.059753	0.025434	0.18833	0.08908	0.13693	0.023669	0.03558	0.16806	-3.2292	-3.7812	-4.2667	-3.5979	-4.2417	-4.2792	-3.6208	-4.6104	-3.7146	-3.8812	-4.5271	-3.4813	-4.1646	-4.0833	-3.4188	-4.7125	-135.546	204.319	161.337	114.968	54.033	76.940	172.202	6.053	-21.338	-8.700	116.073	163.629	178.057	-144.718	-113.861	-132.028	0.00090417	0.00026533	8.3249e-05	800.32	3.8565e-06	4.9841e-06	1298.4	272.99	5.1174e-06	7.0591e-06	505.67	185.43	85.549	37.237	3.5555e-06	94.767	8.913e-05	6.6832e-05	1.8697e-05	715.51	8.0384e-07	7.1603e-07	1161.3	243.31	8.12e-07	7.2744e-07	441.48	162.63	74.262	32.461	8.2469e-07	82.603	162.610	-54.894	-19.131	-138.545	12.932	-17.645	-138.327	-133.039	2.943	-24.006	-132.913	-128.290	-128.180	-121.752	-34.297	-122.626	-8191	255	
23924.373	1	1	0	0	0.16458	0.089041	0.21061	0.21591	0.072772	0.050489	0.27402	0.045495	0.1002	0.061289	0.10464	0.052746	0.188	0.17809	0.10268	0.13184	-3.4396	-3.7146	-4.2479	-3.5333	-4.2229	-4.1292	-3.6833	-4.4333	-3.7354	-3.7021	-4.7396	-3.5083	-4.0458	-4.2958	-3.3958	-4.6646	185.850	141.357	65.505	102.580	4.617	70.450	57.159	156.715	4.170	119.956	94.898	102.442	94.162	196.018	-116.338	181.626	0.0010362	0.00020365	0.00016714	793.13	5.3954e-06	6.703e-06	1296.6	271.5	4.9739e-06	5.3425e-06	500.24	183.94	84.687	36.762	2.4383e-06	93.999	8.8504e-05	6.5434e-05	1.9814e-05	710.78	7.9441e-07	6.8776e-07	1158	241.4	7.4534e-07	7.1472e-07	438.2	161.67	73.796	32.241	8.646e-07	81.954	166.449	-87.223	-90.724	-137.971	-22.199	-47.149	-138.145	-133.042	-5.115	-72.879	-132.584	-128.064	-128.587	-121.631	29.290	-122.856	-8191	255	
23924.471	1	1	0	0	0.051085	0.26596	0.19297	0.27184	0.18891	0.20053	0.16754	0.012652	0.039116	0.076044	0.14787	0.43968	0.092395	0.18689	0.26866	0.068196	-3.6083	-3.4979	-4.4604	-3.7021	-3.9437	-4.3292	-3.6125	-4.475	-3.8833	-3.575	-4.45	-3.6688	-3.9458	-4.5958	-3.4188	-4.3333	109.672	-67.334	-78.915	188.594	200.662	43.477	153.200	-41.143	206.402	-17.571	-11.200	160.880	-137.349	125.986	128.091	173.142	0.000966	0.00039115	0.00012539	793.02	4.1875e-06	1.998e-06	1294	270.96	3.2514e-06	3.3516e-06	503.68	184.84	84.814	36.766	6.3986e-06	94.283	8.4998e-05	6.639e-05	2.2262e-05	711.33	7.5294e-07	7.3552e-07	1157.2	240.81	7.4265e-07	7.3324e-07	438.96	162.11	73.701	32.227	9.0302e-07	82.18	167.273	-51.036	-36.238	-138.072	-26.557	-38.869	-138.065	-133.126	-37.436	-18.656	-132.712	-128.427	-128.353	-121.788	-43.875	-123.156	-8191	255	
23924.592	1	1	0	0	0.26663	0.2311	0.068715	0.11103	0.19444	0.067816	0.20695	0.094304	0.29282	0.21399	0.15446	0.05228	0.15175	0.050823	0.19293	0.10863	-3.7021	-3.5167	-4.3917	-3.775	-3.775	-4.4625	-3.5938	-4.3167	-4.1292	-3.4	-4.6042	-3.8042	-4	-4.4833	-3.4	-4.2271	34.834	-42.706	-20.689	15.241	195.950	97.233	117.601	-113.531	178.826	100.159	26.228	57.847	-48.892	29.165	-82.054	163.635	0.0010106	0.0005021	0.00021415	794.46	7.0914e-06	1.8894e-06	1292.6	271.1	7.6107e-06	3.6264e-06	502.89	186.44	85.634	37.242	8.4653e-06	95.487	8.2832e-05	7.0816e-05	2.2519e-05	711.25	7.2617e-07	7.7718e-07	1158	241.44	7.1501e-07	7.9228e-07	440.18	162.93	74.253	32.553	9.0364e-07	82.891	162.975	-80.565	-64.102	-138.065	-8.040	-32.286	-138.164	-133.362	-35.649	-29.440	-133.054	-128.381	-128.426	-122.081	12.216	-123.084	-8191	255	
23924.662	1	1	0	0	0.11542	0.035539	0.13584	0.16351	0.27978	0.26578	0.01867	0.20747	0.22809	0.1216	0.11567	0.27704	0.13511	0.067083	0.1104	0.090468	-3.7479	-3.2583	-4.4896	-3.7125	-3.6146	-4.3938	-3.4792	-4.1813	-4.1354	-3.375	-4.4437	-4.0479	-3.7583	-4.7167	-3.5271	-4.0958	-17.501	98.315	198.695	137.680	-100.762	162.718	134.472	162.724	197.392	15.922	-128.609	-127.990	-85.265	147.494	118.630	62.018	0.00099591	0.00051277	0.00016638	798.93	4.6845e-06	2.7965e-06	1299.9	272.37	1.7048e-06	3.8547e-06	505.9	186.55	85.58	37.507	4.6829e-07	95.074	8.2507e-05	7.6824e-05	2.1745e-05	713.64	7.2346e-07	8.3746e-07	1162.2	242.39	7.0662e-07	8.6112e-07	442.71	163.66	74.635	32.734	8.1498e-07	82.754	163.220	-60.534	-80.275	-138.045	-28.060	-81.350	-138.536	-133.484	-53.480	-51.062	-133.221	-128.307	-128.189	-122.152	82.429	-123.142	-8191	255	
23924.760	1	1	0	0	0.42338	0.078456	0.16491	0.14743	0.18799	0.065131	0.09647	0.2122	0.14985	0.035384	0.22372	0.25782	0.29062	0.033915	0.11945	0.20976	-4.0875	-3.4583	-4.175	-4.1833	-3.5021	-4.575	-3.7146	-3.9979	-4.225	-3.25	-4.3271	-4.15	-3.4729	-4.5604	-3.6042	-4.0271	-94.986	-77.508	-101.920	208.387	195.105	190.636	193.282	114.891	110.614	122.972	146.784	75.679	144.664	-64.129	189.054	92.232	0.00096056	6.6713e-05	8.816e-05	805.54	2.7494e-06	8.963e-06	1294.3	272	6.02e-06	2.415e-06	501.81	186.33	85.203	37.255	2.3566e-06	94.41	8.54e-05	8.2388e-05	2.0775e-05	714.06	7.7156e-07	8.7446e-07	1156.2	241.72	7.6634e-07	8.8226e-07	438.95	162.77	74.315	32.535	8.0342e-07	82.218	161.963	184.709	-64.553	-137.956	-73.566	-45.482	-138.563	-133.282	-53.130	-75.411	-132.972	-128.353	-128.723	-122.137	-18.432	-123.386	-8191	255	
23924.855	1	1	0	0	0.080411	0.18636	0.14657	0.09073	0.19723	0.14849	0.059186	0.1824	0.10359	0.07052	0.27789	0.17104	0.133	0.2071	0.18105	0.098777	-4.1	-3.3729	-4.2917	-4.2333	-3.4542	-4.5188	-3.9083	-3.7917	-4.3854	-3.4917	-4.2792	-4.3146	-3.4958	-4.475	-3.9375	-3.7354	108.708	43.435	-49.981	65.089	198.097	-146.488	187.727	-11.826	198.372	-2.631	145.453	132.602	3.815	189.584	-66.871	51.207	0.001094	0.00028679	0.00014222	799.56	2.1494e-06	4.8347e-06	1290.8	271.57	1.3085e-06	4.8749e-06	504.5	184.9	85.385	37.086	9.3117e-06	94.299	8.8116e-05	7.9975e-05	1.9621e-05	711.19	8.2101e-07	8.6586e-07	1155.5	241.14	8.2847e-07	8.5783e-07	439.61	162.39	74.651	32.522	7.8445e-07	82.273	162.008	-51.471	-41.154	-138.440	22.929	15.731	-138.492	-133.491	-78.573	-27.065	-133.276	-128.349	-128.602	-121.866	-64.064	-123.102	-8191	255	
23924.975	1	1	0	0	0.089699	0.061946	0.11529	0.25114	0.054726	0.017342	0.17922	0.015583	0.27615	0.19014	0.16304	0.21522	0.1771	0.062488	0.17834	0.34012	-4.1208	-3.4375	-4.0792	-4.2292	-3.2542	-4.475	-4.1125	-3.5604	-4.4208	-3.45	-4.0104	-4.2937	-3.3771	-4.2771	-3.9875	-3.8979	-89.758	75.483	-36.758	175.394	135.901	-138.020	112.134	-31.343	122.401	-148.168	190.693	127.820	-135.193	-90.061	207.349	113.602	0.00089305	0.00042068	0.00019603	803.42	3.2261e-06	3.7559e-06	1300.9	275.22	4.2279e-06	4.6774e-06	505.88	185.98	85.257	37.005	5.4535e-06	95.671	9.5291e-05	7.9172e-05	2.0302e-05	716.8	9.0117e-07	8.2944e-07	1163.9	243.34	8.9755e-07	8.1893e-07	441.43	163.34	74.65	32.6	7.4018e-07	82.982	162.105	-129.036	-75.093	-138.496	-49.021	-92.083	-138.337	-133.324	-63.932	-55.325	-132.890	-128.205	-128.777	-122.256	-53.247	-123.492	-8191	255	
23925.070	1	1	0	0	0.039583	0.145	0.13213	0.12616	0.046579	0.16817	0.23786	0.16742	0.18285	0.18359	0.13275	0.21935	0.34064	0.16753	0.14337	0.17871	-4.225	-3.675	-3.9604	-4.3938	-3.1979	-4.2188	-4.0417	-3.3812	-4.5104	-3.5187	-3.8937	-4.4708	-3.4437	-4.1521	-4.025	-3.4354	94.648	48.548	161.726	-37.775	-54.604	63.940	152.157	173.616	101.317	-27.464	108.162	186.752	75.124	96.968	-112.109	-60.313	0.00091398	0.00035719	0.00011809	804.49	6.4035e-06	3.8617e-06	1305.5	274.34	2.6958e-06	8.3107e-06	507.08	186.83	85.047	37.191	5.7239e-06	94.264	0.00010057	7.5651e-05	1.9212e-05	715.29	9.2301e-07	8.1235e-07	1164.8	243.19	9.1469e-07	8.0055e-07	441.53	162.96	74.512	32.554	7.2502e-07	82.325	162.467	-64.090	-54.463	-138.522	-30.017	-65.055	-138.319	-133.523	-46.829	-24.550	-133.514	-128.543	-129.092	-122.394	-10.536	-123.268	-8191	255	
23925.166	1	1	0	0	0.02813	0.040096	0.20502	0.13023	0.33508	0.25486	0.28421	0.20318	0.15032	0.082148	0.26729	0.37342	0.066879	0.11808	0.19261	0.078181	-4.0042	-3.6479	-3.5521	-4.5188	-3.5083	-4.0687	-4.2042	-3.4688	-4.375	-3.7417	-3.7667	-4.4375	-3.5604	-4.0938	-4.25	-3.4667	-114.456	-96.073	-25.744	-133.062	118.630	-123.452	153.606	-141.475	-95.737	-102.146	91.357	206.894	-52.594	86.570	163.519	118.032	0.0010812	0.00040806	0.00023487	803.53	4.6643e-06	1.5686e-06	1291.6	272.65	5.77e-06	4.8423e-06	502.65	184.86	84.893	36.858	6.5125e-06	94.205	9.9251e-05	7.1342e-05	1.8854e-05	716.94	8.8225e-07	7.8581e-07	1158.6	242.43	8.7619e-07	7.85e-07	438.87	162	74.14	32.319	7.4668e-07	81.919	162.028	-82.646	-52.903	-138.832	-17.699	-90.690	-138.431	-133.554	-32.830	-21.945	-133.211	-128.120	-128.270	-121.986	-21.617	-123.333	-8191	255	
23925.262	1	1	0	0	0.23249	0.0749	0.079477	0.2749	0.18381	0.13109	0.091297	0.17955	0.088445	0.12152	0.1595	0.11276	0.22375	0.051991	0.068398	0.040175	-4.0604	-3.8312	-3.4917	-4.525	-3.5417	-3.75	-4.475	-3.2938	-4.1958	-3.9042	-3.6667	-4.3417	-3.6979	-3.7625	-4.375	-3.575	83.278	0.055	75.666	149.709	-129.252	26.608	-101.233	144.751	116.461	163.869	205.191	-148.988	-107.823	-43.974	187.166	-148.336	0.00095402	0.00043363	0.00013896	797.66	2.5393e-06	4.8849e-06	1296	272.16	2.4443e-06	2.5915e-06	501.93	185.05	84.698	36.956	3.5968e-06	94.055	9.4132e-05	6.756e-05	1.9026e-05	716.03	8.2208e-07	7.4878e-07	1158.7	242.24	8.5188e-07	7.4123e-07	439.01	162.46	74.11	32.323	8.075e-07	82.141	166.331	-61.233	-97.224	-138.456	-0.657	-38.457	-138.504	-133.742	-40.133	-6.028	-133.198	-128.470	-128.404	-122.250	127.841	-123.497	-8191	255	
23925.357	1	1	0	0	0.054459	0.29278	0.10595	0.22001	0.082022	0.14178	0.1502	0.3248	0.099514	0.21244	0.1565	0.21569	0.24814	0.11949	0.21757	0.21927	-4.0375	-4.1917	-3.5271	-4.5813	-3.7042	-3.8438	-4.6542	-3.4708	-4.075	-4.2271	-3.4562	-4.5813	-3.7021	-3.7438	-4.4896	-3.4208	-107.653	87.678	-147.653	202.609	-28.135	-36.238	148.843	45.877	22.988	-3.515	-133.646	124.847	-120.895	206.684	180.226	184.780	0.00098695	0.00035479	0.00021926	805.47	9.1651e-07	4.1192e-06	1310.9	273.13	2.7262e-06	3.713e-06	504.61	184.35	85.033	37.141	7.1388e-06	94.885	9.06e-05	6.9223e-05	2.1019e-05	719.59	7.9901e-07	7.2843e-07	1168.2	243.23	8.0353e-07	7.3862e-07	441.85	162.75	74.411	32.48	8.8449e-07	82.664	159.467	-94.119	-48.418	-138.794	-51.557	-44.216	-138.630	-133.485	-20.938	-31.932	-132.925	-128.475	-128.274	-122.126	-62.773	-123.051	-8191	255	
23925.455	1	1	0	0	0.18292	0.065582	0.079299	0.35148	0.31581	0.19339	0.30096	0.14281	0.050208	0.12085	0.2489	0.048514	0.22917	0.16142	0.036142	0.20248	-3.7812	-4.175	-3.4167	-4.325	-3.7271	-3.7333	-4.5729	-3.4458	-4.0229	-4.2521	-3.4188	-4.3938	-3.8875	-3.5104	-4.4708	-3.8396	-54.321	-12.472	-138.727	204.743	-122.471	-76.476	175.534	-127.982	103.968	-90.366	162.625	-58.123	103.967	-140.429	39.146	136.449	0.00095478	0.00054127	0.00015135	807.54	2.9355e-06	6.4612e-06	1307.1	274.83	6.4865e-06	3.3439e-06	503.86	184.82	84.751	36.995	2.1097e-06	94.183	9.1473e-05	6.946e-05	2.3196e-05	719.96	8.0849e-07	7.8954e-07	1169	243.6	7.9861e-07	7.6326e-07	440.91	162.62	73.971	32.388	9.4236e-07	82.31	164.322	-82.502	-97.257	-138.371	-1.734	-17.579	-138.414	-133.439	-42.266	-17.372	-133.083	-128.631	-128.810	-122.434	-26.608	-123.318	-8191	255	
23925.551	1	1	0	0	0.21999	0.15949	0.2551	0.058996	0.065398	0.10157	0.17035	0.19866	0.16674	0.10701	0.25857	0.011577	0.19975	0.22864	0.22931	0.38924	-3.5625	-4.4021	-3.2833	-4.3229	-3.9021	-3.3563	-4.7167	-3.7458	-3.9521	-4.4083	-3.5396	-4.4292	-4.1167	-3.5417	-4.4354	-3.7792	79.771	170.587	-112.061	-85.676	120.109	106.492	151.848	128.197	105.030	200.607	188.813	-83.481	164.804	-112.320	-75.964	166.803	0.00098809	0.00046948	8.5154e-05	808.54	2.9562e-06	1.1779e-06	1302.4	274.33	3.5868e-06	4.0195e-06	502.47	184	84.814	36.764	8.9938e-06	93.395	8.8111e-05	7.1119e-05	2.3697e-05	718.15	7.5603e-07	8.0024e-07	1167	242.74	7.8949e-07	8.0128e-07	440.22	161.54	73.74	32.251	9.3561e-07	81.69	163.409	-115.210	-100.221	-138.630	22.805	-72.588	-138.373	-133.383	-53.962	-41.302	-132.924	-128.454	-128.652	-122.236	-11.651	-123.237	-8191	255	
23925.672	1	1	0	0	0.20199	0.2863	0.20952	0.11725	0.1239	0.11951	0.40825	0.10261	0.11781	0.05585	0.24598	0.24653	0.10906	0.21044	0.14215	0.28521	-3.4417	-4.4083	-3.45	-4.2188	-4.175	-3.3312	-4.6312	-3.7313	-3.6479	-4.5062	-3.425	-4.2104	-4.2708	-3.4875	-4.3521	-3.9667	138.110	-94.870	139.389	84.964	155.619	-98.546	129.346	87.676	-56.440	46.829	-36.334	-128.780	194.693	-65.587	157.869	177.292	0.00093564	0.00058481	0.00023073	802.49	4.2092e-06	3.7493e-06	1304	273.69	3.0467e-06	4.7221e-06	501.17	186.35	85.149	36.905	4.7012e-06	94.195	8.574e-05	7.7411e-05	2.3754e-05	716.52	7.5725e-07	8.8493e-07	1165.8	242.37	7.7247e-07	8.9353e-07	439.77	162.65	74.103	32.371	9.1973e-07	82.149	164.580	-76.005	-62.910	-138.506	-26.631	-36.195	-138.591	-133.326	-59.853	-78.548	-133.226	-128.263	-128.065	-121.917	-81.841	-123.101	-8191	255	
23925.768	1	1	0	0	0.26001	0.13204	0.25012	0.06158	0.049832	0.090367	0.11484	0.18065	0.16331	0.09549	0.13171	0.1522	0.30616	0.26395	0.14896	0.31301	-3.3021	-4.6667	-3.575	-4.0437	-4.1813	-3.3729	-4.5896	-4.1417	-3.5729	-4.5625	-3.8396	-3.9938	-4.2875	-3.4729	-4.2	-4.2312	35.246	-128.244	160.244	-144.289	-65.901	185.932	99.692	168.730	-81.171	-39.177	-82.459	203.844	173.015	170.059	32.083	139.553	0.00096262	0.00044557	0.00011609	805.46	4.0583e-06	1.1347e-06	1304.1	273.93	3.0655e-06	3.7057e-06	506.6	186.64	85.123	37.394	8.308e-06	95.494	8.9455e-05	8.4384e-05	2.2324e-05	717.43	7.7863e-07	9.3763e-07	1168.2	243.22	8.1236e-07	9.2845e-07	443.2	163.54	74.575	32.824	8.4174e-07	83.203	163.429	-58.407	-80.159	-138.293	-41.733	16.920	-138.642	-133.425	-9.043	-49.343	-132.925	-128.302	-128.561	-122.435	-39.770	-123.219	-8191	255	
23925.863	1	1	0	0	0.16032	0.25526	0.16142	0.0070452	0.05074	0.11865	0.08965	0.20218	0.11106	0.10498	0.36879	0.32588	0.25548	0.12846	0.099553	0.1822	-3.1688	-4.375	-3.5938	-3.7562	-4.0896	-3.3479	-4.3875	-4.1479	-3.5396	-4.4771	-3.8375	-3.6333	-4.3979	-3.6	-4.025	-4.1292	-36.583	-90.067	97.847	-113.897	-41.237	202.732	172.597	155.353	-34.207	-17.436	129.586	-146.044	153.623	-87.912	-53.061	82.872	0.00095429	0.00021651	0.00017385	805.87	2.4352e-06	4.7631e-06	1307.9	275.19	5.1242e-06	3.9964e-06	506.88	186.72	85.696	37.416	3.7658e-06	95.527	9.2282e-05	8.6292e-05	2.1441e-05	718.57	8.148e-07	9.2439e-07	1169.2	243.84	8.7626e-07	9.3555e-07	443.15	163.64	74.638	32.809	8.1875e-07	82.979	161.693	-58.009	-40.905	-138.342	13.551	-53.827	-138.650	-133.620	-21.219	-2.851	-133.422	-128.856	-128.013	-122.424	-30.397	-123.176	-8191	255	
23925.961	1	1	0	0	0.13955	0.091885	0.14857	0.33401	0.14566	0.14139	0.17267	0.074873	0.27023	0.25551	0.18859	0.13129	0.30556	0.077713	0.17472	0.040513	-3.0563	-4.3771	-3.7479	-3.6521	-4.4354	-3.4708	-4.1646	-4.35	-3.4354	-4.225	-4.0667	-3.7188	-4.3875	-3.5354	-3.9313	-4.3292	-89.912	2.692	98.984	175.434	59.941	169.382	173.034	122.479	54.614	-29.237	-127.244	198.865	195.863	106.254	-138.634	-140.654	0.00097839	0.001006	0.00016936	801.92	3.1894e-06	5.1744e-06	1297.8	273.75	2.2745e-06	6.0027e-06	504.51	185.4	85.898	37.246	5.9877e-06	94.566	9.8969e-05	8.2868e-05	1.976e-05	715.85	8.8517e-07	8.8343e-07	1161.2	242.89	9.1976e-07	8.6764e-07	440.36	162.85	74.81	32.686	7.738e-07	82.737	162.514	-91.226	-92.262	-138.372	-37.745	-33.700	-138.516	-133.490	-73.852	-40.426	-132.915	-128.641	-128.669	-122.104	-22.896	-123.220	-8191	255	
23926.055	1	1	0	0	0.30704	0.35715	0.1567	0.088224	0.22158	0.14835	0.092309	0.10374	0.042485	0.13152	0.11638	0.053274	0.18911	0.15716	0.25081	0.36272	-3.0896	-4.3771	-3.9979	-3.6833	-4.4521	-3.5104	-4.2021	-4.4625	-3.5521	-4.1438	-4.3688	-3.575	-4.3979	-3.7354	-3.7104	-4.4792	-1.622	102.802	2.640	134.646	-17.276	182.906	123.185	96.274	55.843	162.720	67.299	91.956	-113.058	124.510	-98.270	141.043	0.00094412	0.00048519	0.00015505	800.92	3.3306e-06	5.1839e-06	1303.8	273.97	4.3753e-06	3.7166e-06	504.7	186.9	85.625	37.253	4.5725e-06	95.14	0.00010041	7.6378e-05	1.9124e-05	714.87	9.0165e-07	8.369e-07	1160	242.7	9.4135e-07	8.2333e-07	440.63	163.42	74.742	32.629	7.8326e-07	83.041	163.929	-90.112	-68.984	-138.331	-41.412	-60.107	-138.455	-133.273	-38.941	-40.731	-132.915	-128.502	-128.348	-121.986	-10.416	-123.026	-8191	255	
23926.150	1	1	0	0	0.078517	0.12503	0.20536	0.18605	0.16427	0.068155	0.18058	0.04771	0.10532	0.16129	0.29951	0.026542	0.20704	0.090954	0.15117	0.18533	-3.0917	-4.1917	-4.1542	-3.5354	-4.4771	-3.6667	-3.8	-4.4146	-3.4292	-4.1229	-4.1875	-3.4875	-4.55	-3.7479	-3.6583	-4.4458	-68.714	-79.549	-16.407	151.195	85.388	99.951	148.809	182.943	-100.278	74.365	107.000	-49.998	-108.237	86.828	-0.224	86.725	0.00098332	0.00036965	9.4539e-05	797.87	1.1134e-06	3.3277e-06	1307.4	275.56	2.5934e-06	5.3547e-06	506.39	186.8	84.838	37.257	6.8033e-06	95.546	0.0001012	7.4132e-05	1.8135e-05	714.39	9.1138e-07	8.0126e-07	1161.6	244.1	8.8637e-07	7.8093e-07	442.63	163.78	74.535	32.557	7.5522e-07	83.151	158.621	-114.121	-84.318	-137.942	-31.836	-50.248	-138.276	-132.996	-13.248	4.245	-133.046	-128.272	-128.301	-122.241	-66.680	-122.558	-8191	255	
23926.271	1	1	0	0	0.089355	0.17457	0.10643	0.1702	0.1253	0.16058	0.25749	0.26414	0.087364	0.21541	0.22705	0.10561	0.13399	0.1323	0.24668	0.21866	-3.0375	-4.0208	-4.0771	-3.5479	-4.1833	-3.8729	-3.75	-4.4875	-3.5042	-4.0146	-4.3458	-3.5396	-4.3854	-4.0958	-3.4708	-4.4792	56.566	-127.493	-88.786	188.009	-150.777	173.521	160.161	199.084	118.426	93.185	-140.320	-149.509	-110.467	127.289	-120.551	134.573	0.0009093	0.00045184	0.00017619	804.76	3.8722e-06	4.2505e-06	1302.9	273.5	4.3789e-06	6.8469e-06	505.06	185.41	85.816	36.83	1.0357e-05	93.923	9.8238e-05	7.0573e-05	1.9256e-05	716.47	8.5445e-07	7.6101e-07	1162.6	243.51	8.5995e-07	7.6871e-07	440.37	162.94	74.555	32.233	7.9881e-07	81.962	163.765	-78.758	-36.559	-137.724	9.717	-30.009	-138.584	-133.609	3.714	-23.411	-133.372	-128.243	-128.942	-121.883	-48.531	-123.041	-8191	255	
23926.367	1	1	0	0	0.17677	0.27914	0.10684	0.2001	0.14421	0.070578	0.076043	0.19532	0.093066	0.1301	0.15554	0.094345	0.16336	0.065391	0.13978	0.05149	-3.1813	-3.8396	-4.2208	-3.4021	-4.4083	-4.1229	-3.5458	-4.6479	-3.8021	-3.7646	-4.4563	-3.625	-4.2542	-4.2042	-3.4104	-4.4563	-11.388	17.178	-13.527	138.033	-148.857	-85.428	131.549	8.794	-127.281	-6.892	-127.130	-140.867	141.806	139.897	199.791	-125.722	0.00098644	0.00067127	0.00012383	809.17	3.2489e-06	3.3047e-06	1298.4	274.16	5.3871e-06	4.5978e-06	505.8	185.13	85.787	37.148	1.3847e-05	94.148	9.3951e-05	7.0161e-05	2.0343e-05	720.2	8.2372e-07	7.37e-07	1162.7	243.19	8.3413e-07	7.5195e-07	441.47	162.79	74.409	32.405	8.7556e-07	82.214	166.854	-108.929	-88.569	-138.347	22.803	-41.736	-138.574	-133.544	0.495	-91.215	-133.206	-128.287	-128.207	-121.879	-60.757	-123.150	-8191	255	
23926.463	1	1	0	0	0.35345	0.069756	0.27498	0.21348	0.19226	0.1804	0.26425	0.18917	0.082201	0.024153	0.11106	0.1277	0.1847	0.19356	0.20833	0.066879	-3.4167	-3.6542	-4.4104	-3.2562	-4.0021	-4.1292	-3.5	-4.4458	-3.6896	-3.6583	-4.5813	-3.6229	-4.1354	-4.2729	-3.3167	-4.5417	3.773	-146.287	153.086	-124.853	77.851	156.347	126.086	-79.742	191.852	-143.674	91.144	131.512	164.055	102.536	111.746	101.262	0.0010819	0.00042584	0.00010731	810.26	5.4924e-06	6.5356e-06	1308.6	275.49	3.9668e-06	4.0716e-06	506.54	186.19	85.317	36.984	4.0703e-06	94.495	9.3281e-05	7.0558e-05	2.2283e-05	722.38	8.199e-07	7.706e-07	1167.8	244.35	8.2073e-07	7.7867e-07	443.75	163.55	74.647	32.374	9.6111e-07	82.67	160.518	-73.124	-40.300	-138.315	-2.316	-29.877	-138.288	-133.472	-41.995	-29.478	-132.910	-128.769	-129.063	-122.079	-80.032	-123.273	-8191	255	
23926.535	1	1	0	0	0.12361	0.060649	0.13264	0.16836	0.27535	0.24472	0.27926	0.11023	0.037379	0.091945	0.27033	0.14588	0.20259	0.019504	0.27349	0.075174	-3.5062	-3.4354	-4.4979	-3.5875	-3.8396	-4.2333	-3.4604	-4.4333	-3.9646	-3.5917	-4.6354	-3.6937	-4.0146	-4.3333	-3.4208	-4.2646	-42.794	30.017	-137.435	-128.346	-76.815	-57.488	127.792	147.784	197.367	-50.735	182.368	143.091	183.782	-131.532	78.695	3.565	0.00098168	0.00033698	0.00017567	807.02	2.8391e-06	2.8562e-06	1308.2	276.79	3.4189e-06	4.0296e-06	508.15	185.88	85.669	37.17	4.6163e-06	94.23	9.1244e-05	7.2184e-05	2.3684e-05	722.15	8.3055e-07	7.9427e-07	1173.1	244.59	8.0297e-07	8.2285e-07	444.93	163.26	74.758	32.523	9.7002e-07	82.261	163.505	-63.814	-51.806	-138.399	-27.673	-14.874	-138.630	-133.522	-46.628	0.117	-132.865	-128.375	-128.204	-121.898	-59.836	-123.388	-8191	255	
23926.656	1	1	0	0	0.097747	0.41016	0.22034	0.22243	0.25674	0.14592	0.44102	0.083742	0.19976	0.14633	0.20572	0.14501	0.18686	0.24627	0.017283	0.0731	-3.9875	-3.3083	-4.4812	-3.7833	-3.6979	-4.3708	-3.5021	-4.3187	-4.2208	-3.4521	-4.4771	-3.9813	-3.7417	-4.4354	-3.3937	-4.2146	-130.928	-66.063	-135.805	99.235	77.827	-16.375	103.987	-15.279	110.031	181.557	116.099	186.369	63.028	172.851	-3.244	176.872	0.00092802	0.00028709	0.0002173	808.67	4.6048e-06	3.6162e-06	1302	275.18	3.7622e-06	2.8634e-06	502.64	184.59	84.751	36.765	4.3992e-06	93.893	8.8339e-05	7.7671e-05	2.4201e-05	721.3	7.8188e-07	8.4802e-07	1166.3	243.54	7.5975e-07	8.8123e-07	441.38	162.33	74.046	32.226	9.5621e-07	81.881	164.587	-87.219	-84.878	-138.475	-11.738	-58.346	-138.469	-133.305	-36.795	-79.505	-132.738	-128.273	-128.107	-121.839	-29.954	-122.963	-8191	255	
23926.752	1	1	0	0	0.19386	0.052014	0.20961	0.089594	0.07406	0.10563	0.283	0.087244	0.17147	0.12573	0.16513	0.068348	0.027356	0.077779	0.11615	0.211	-3.7396	-3.3688	-4.4833	-3.8563	-3.7708	-4.475	-3.7208	-4.1208	-4.2438	-3.5792	-4.35	-4.0667	-3.4813	-4.3417	-3.6104	-4.1896	-19.015	-61.374	25.432	198.233	54.705	-101.456	127.382	-144.479	38.221	19.177	194.186	130.526	89.173	-9.848	-13.791	158.135	0.00092483	0.00047521	0.0002682	812.57	1.6911e-06	1.7361e-06	1306.9	276.12	3.9726e-06	8.0437e-06	505.43	185.1	84.779	36.853	6.0321e-06	94.051	8.8924e-05	8.5966e-05	2.3634e-05	723.08	8.0323e-07	9.4116e-07	1172.5	244.09	8.1325e-07	9.6234e-07	442.92	162.5	74.085	32.373	9.1139e-07	81.896	163.177	-94.789	-62.065	-138.293	-13.118	-73.030	-138.337	-133.417	-35.021	-34.083	-132.915	-128.257	-128.376	-121.923	-57.878	-123.184	-8191	255	
23926.848	1	1	0	0	0.067185	0.22794	0.24054	0.334	0.074705	0.33131	0.2562	0.085367	0.14105	0.16084	0.2172	0.17858	0.33014	0.18548	0.15915	0.31353	-4.1438	-3.5125	-4.1771	-4.1021	-3.3312	-4.5417	-3.8438	-4.0188	-4.4271	-3.4771	-4.4729	-4.2021	-3.5146	-4.4812	-3.6375	-3.8292	22.834	124.657	-51.487	-134.526	-14.454	42.280	207.118	112.428	50.106	17.838	38.728	178.232	125.701	167.014	-72.164	125.180	0.00089233	0.00049147	0.00013456	816.27	2.2447e-06	4.0335e-06	1307.6	275.1	2.144e-06	2.0353e-06	506.64	186.58	85.38	37.178	6.2176e-06	94.955	9.3263e-05	8.8873e-05	2.2162e-05	725.39	8.3781e-07	9.6682e-07	1172.7	243.75	8.3521e-07	9.653e-07	444.19	163.25	74.554	32.554	8.5037e-07	82.543	165.270	-72.783	-103.462	-138.133	-49.142	-45.173	-138.418	-133.414	-99.187	-33.514	-132.753	-128.304	-128.503	-121.574	-22.804	-123.298	-8191	255	
23926.943	1	1	0	0	0.13747	0.086346	0.1882	0.04827	0.21002	0.21085	0.33442	0.18242	0.054493	0.095428	0.11961	0.22774	0.31341	0.092922	0.10624	0.28784	-4.125	-3.3812	-4.1104	-4.25	-3.4104	-4.5167	-3.8458	-3.8896	-4.3479	-3.3937	-4.075	-4.2604	-3.3583	-4.4458	-3.7208	-3.675	-130.704	-97.742	51.147	-144.851	-60.303	-117.079	194.287	68.922	-1.028	59.576	27.457	-73.078	-59.844	-139.837	-108.351	190.449	0.0010307	0.00044045	0.00012541	813.14	1.9509e-06	4.6745e-06	1309.4	274.94	7.1267e-07	5.266e-06	506.46	186.66	85.426	36.935	4.0502e-06	94.655	9.6788e-05	8.8163e-05	2.143e-05	724.45	9.1629e-07	9.3652e-07	1175	244.09	9.2207e-07	9.1458e-07	444.13	163.31	74.623	32.393	8.0735e-07	82.455	161.017	-65.568	-70.857	-138.210	-32.135	-19.336	-138.174	-133.390	-105.217	3.954	-132.818	-128.381	-128.335	-122.118	-83.345	-123.078	-8191	255	
23927.062	1	1	0	0	0.21419	0.17657	0.13731	0.088625	0.034621	0.14425	0.18022	0.17288	0.11898	0.07493	0.067782	0.15899	0.083795	0.34554	0.11731	0.123	-4.1625	-3.45	-3.8146	-4.3229	-3.3542	-4.2667	-4.0875	-3.6583	-4.5083	-3.675	-4.0417	-4.4542	-3.3729	-4.2479	-4.0813	-3.5708	-60.035	128.151	79.114	148.466	-64.979	-118.025	156.124	123.909	146.383	-42.844	76.538	134.137	50.405	200.450	108.995	-143.271	0.00095692	0.00046654	0.00014237	810.23	3.4325e-06	2.5355e-06	1310.9	274.19	2.772e-06	4.328e-06	502.68	185.28	84.52	36.81	3.7794e-06	94.014	0.00010358	8.1772e-05	2.0087e-05	722.93	9.7887e-07	8.921e-07	1171.3	243.71	9.8127e-07	8.927e-07	440.78	162.13	74.41	32.17	7.7614e-07	81.82	161.250	-95.793	-83.345	-137.835	-20.672	-63.529	-138.159	-133.333	-42.529	-22.479	-133.100	-128.131	-128.363	-121.696	-111.134	-123.054	-8191	255	
23927.135	1	1	0	0	0.079625	0.19432	0.13849	0.24894	0.21047	0.26476	0.25226	0.11637	0.12892	0.20414	0.093649	0.086771	0.19034	0.15531	0.09456	0.31923	-4.2583	-3.5354	-3.7792	-4.3417	-3.4437	-4.2146	-4.1896	-3.7021	-4.3271	-3.5667	-3.7333	-4.5333	-3.3333	-4.1917	-4.0771	-3.575	149.905	-132.833	-122.984	193.626	111.225	94.476	87.344	187.456	185.385	-63.757	73.431	123.859	-109.665	-29.075	202.800	177.133	0.00095549	0.00072582	0.00018294	810.56	3.2787e-06	3.1849e-06	1302.2	273.38	3.6766e-06	4.0365e-06	509.18	185.01	84.812	36.708	7.116e-06	94.432	0.00010509	7.8816e-05	2.0064e-05	722.92	9.7236e-07	8.4535e-07	1169.9	243.12	9.6742e-07	8.3154e-07	442.8	162.8	74.309	32.231	7.5926e-07	82.312	167.394	-68.441	-60.190	-138.123	0.378	-49.161	-138.265	-133.204	-92.964	-15.473	-132.989	-128.164	-128.279	-121.935	-80.182	-123.026	-8191	255	
23927.232	1	1	0	0	0.19346	0.15314	0.27469	0.053812	0.067671	0.066193	0.347	0.13922	0.22146	0.33592	0.1832	0.15275	0.11231	0.30957	0.045097	0.17038	-4.0583	-3.875	-3.7271	-4.625	-3.5687	-4.0417	-4.4542	-3.4083	-4.4	-3.8375	-3.6729	-4.6458	-3.5458	-3.9375	-4.3104	-3.5062	71.189	157.152	91.861	139.925	101.837	30.375	128.234	1.534	14.485	127.123	186.749	131.520	-124.550	-150.362	-47.953	170.111	0.00096771	0.00048868	0.00014749	810.86	2.5556e-06	2.7612e-06	1320.4	276.01	1.0997e-06	3.8298e-06	508.33	187.01	85.369	37.026	3.102e-06	95.255	0.00010301	7.7271e-05	2.0353e-05	725.5	9.2809e-07	8.4749e-07	1177.2	245	9.516e-07	8.4213e-07	444.31	163.9	74.609	32.298	8.1671e-07	82.821	164.051	-92.679	-66.200	-138.363	11.089	-32.198	-138.261	-133.347	182.147	-56.979	-132.848	-128.052	-128.202	-122.351	3.423	-123.211	-8191	255	
23927.352	1	1	0	0	0.203	0.1646	0.12126	0.20673	0.27023	0.13643	0.32498	0.090373	0.16561	0.14292	0.14786	0.19321	0.21352	0.2373	0.15512	0.23432	-4.0042	-3.8708	-3.6604	-4.4958	-3.6188	-3.8979	-4.5312	-3.4729	-4.2771	-4.1083	-3.4813	-4.4917	-3.6	-3.9437	-4.2896	-3.6292	128.677	62.514	-35.062	147.506	-125.525	172.428	133.415	191.124	153.531	-86.957	203.396	199.104	125.648	186.832	-147.788	206.059	0.0009789	0.00048152	0.00017728	813.95	1.1055e-06	5.1454e-07	1320.8	276.03	2.8198e-06	2.3111e-06	511.76	186.12	85.148	36.983	7.3027e-06	94.304	0.00010095	7.4115e-05	2.0851e-05	727.76	9.0642e-07	8.1429e-07	1181.8	245.12	9.0708e-07	8.0141e-07	445.53	163.74	74.407	32.343	8.8721e-07	82.377	163.513	-36.396	-26.819	-138.197	27.148	-67.185	-138.416	-133.493	-15.460	-76.968	-133.137	-128.174	-128.161	-121.505	-44.238	-122.914	-8191	255	
23927.447	1	1	0	0	0.13142	0.14848	0.17858	0.2902	0.071429	0.048977	0.36765	0.27434	0.29065	0.06027	0.10045	0.037429	0.15202	0.29658	0.16051	0.26289	-4.0333	-4.1396	-3.6146	-4.5458	-3.6229	-3.8396	-4.7042	-3.425	-4.0604	-4.1729	-3.4292	-4.55	-3.8646	-3.7479	-4.6583	-3.7	203.498	-137.193	19.615	154.163	79.134	-122.704	151.148	88.391	-128.929	87.052	161.595	78.910	166.450	204.831	-56.833	162.664	0.00090784	0.00069629	9.843e-05	812	2.5098e-06	3.3344e-06	1317.5	275.51	4.5712e-06	5.3726e-06	506.17	185.8	85.165	36.698	7.7004e-06	94.137	9.5664e-05	7.1754e-05	2.296e-05	725.8	8.2822e-07	7.9285e-07	1176.6	244.3	8.5096e-07	7.8736e-07	442.97	163.01	74.277	32.227	9.3728e-07	81.976	156.668	-92.430	-86.152	-137.890	14.172	9.841	-138.296	-133.338	-43.160	-72.503	-132.879	-128.152	-127.839	-121.949	-34.308	-122.637	-8191	255	
23927.545	1	1	0	0	0.19519	0.13592	0.087158	0.26761	0.074121	0.16593	0.20895	0.34927	0.028486	0.13967	0.31794	0.010563	0.16278	0.13955	0.18711	0.095348	-3.825	-4.1083	-3.4562	-4.4187	-3.9562	-3.5583	-4.6875	-3.6542	-3.9583	-4.2937	-3.5125	-4.4875	-4.1937	-3.5708	-4.5687	-3.875	-128.031	-108.532	32.850	171.469	116.409	-7.139	96.372	-148.486	31.160	94.882	103.795	-127.813	131.574	32.392	-106.758	110.750	0.00094734	0.00026035	0.00013789	813.66	2.0014e-06	3.9031e-06	1317.5	273.66	3.4444e-06	4.5208e-06	506.56	185.75	85.908	37.005	7.8845e-06	94.562	9.1504e-05	7.3312e-05	2.4628e-05	724.87	8.4312e-07	8.1905e-07	1176.9	243.77	8.2798e-07	7.9969e-07	444.1	163.58	74.263	32.336	1.0079e-06	82.415	164.382	-40.898	-68.867	-137.925	4.079	-9.600	-138.278	-133.226	-16.360	-37.839	-132.913	-127.728	-128.136	-122.139	-79.998	-122.617	-8191	255	
23927.664	1	1	0	0	0.20973	0.15483	0.045058	0.12397	0.18531	0.11689	0.061366	0.2686	0.24224	0.11335	0.2004	0.40069	0.23131	0.094659	0.10698	0.20521	-3.6417	-4.35	-3.3417	-4.3021	-4.0333	-3.5104	-4.5979	-3.6729	-3.7958	-4.5312	-3.4958	-4.2417	-4.1958	-3.3229	-4.4646	-3.8875	-15.328	-72.262	-80.287	10.557	-62.020	131.569	150.675	99.104	-140.951	-119.171	176.647	131.809	140.891	-119.334	175.081	160.481	0.0010056	0.00021446	0.00010821	811.5	2.7343e-06	3.618e-06	1317.7	275.8	3.0627e-06	4.4253e-06	508.68	186.91	85.391	37.053	4.8895e-06	94.615	9.1114e-05	7.9041e-05	2.5552e-05	724.55	8.0177e-07	8.7322e-07	1179.1	244.69	8.3457e-07	8.8789e-07	445.9	164.07	74.484	32.48	9.914e-07	82.732	163.594	-79.713	-64.411	-137.988	28.249	-53.196	-137.952	-133.339	-128.855	-32.643	-132.656	-127.938	-128.356	-122.130	-23.321	-122.865	-8191	255	
23927.760	1	1	0	0	0.15727	0.24836	0.23623	0.10256	0.29154	0.028629	0.38202	0.1997	0.20115	0.25236	0.30423	0.1583	0.20243	0.22945	0.10652	0.083169	-3.45	-4.5208	-3.3979	-4.2667	-4.1354	-3.6333	-4.5104	-3.8125	-3.7313	-4.5396	-3.5729	-3.9896	-4.2979	-3.4729	-4.3104	-4.0479	-123.964	208.480	104.479	10.627	153.258	-120.147	167.206	146.604	15.447	-117.674	162.823	198.178	-150.724	176.607	178.367	120.529	0.00098344	0.00033637	6.9657e-05	814.18	2.2772e-06	4.584e-06	1318.1	275.6	4.5825e-06	3.8274e-06	508.7	185.96	85.678	36.675	2.6033e-06	94.39	9.2444e-05	8.6056e-05	2.47e-05	727.05	8.1367e-07	9.6205e-07	1181.4	244.69	8.5372e-07	9.9917e-07	445.61	163.25	74.555	32.378	9.6662e-07	82.251	162.411	-113.135	-68.689	-138.202	-50.429	-91.279	-138.259	-133.330	-28.566	-6.758	-132.470	-128.125	-127.844	-121.971	-75.621	-122.392	-8191	255	
23927.832	1	1	0	0	0.2936	0.27665	0.23127	0.26709	0.071507	0.21031	0.11181	0.14782	0.12812	0.12226	0.19934	0.079398	0.082663	0.11279	0.055618	0.16969	-3.2167	-4.3875	-3.5292	-3.8875	-4.2312	-3.3542	-4.6729	-4.0458	-3.6625	-4.4542	-3.625	-3.9521	-4.4292	-3.5396	-4.0854	-4.0625	53.676	43.157	-66.287	154.095	-92.128	-72.706	175.572	33.985	171.722	159.784	-149.774	169.413	87.065	-102.367	-27.812	130.949	0.00097639	0.00050189	0.00012219	822.03	2.2137e-06	4.2256e-06	1316.4	276.16	2.8001e-06	5.3366e-06	508.19	185.75	84.789	36.838	6.0529e-06	94.213	9.5991e-05	9.0698e-05	2.4101e-05	731	8.5703e-07	1.023e-06	1179.9	244.89	9.0055e-07	1.0194e-06	444.45	162.74	74.25	32.371	9.1867e-07	81.976	159.720	-61.752	-86.568	-138.047	-115.106	-39.291	-137.949	-132.963	-52.085	-24.117	-132.838	-127.970	-128.159	-122.010	-25.863	-122.467	-8191	255	
23927.953	1	1	0	0	0.12005	0.098796	0.078597	0.053409	0.12401	0.20539	0.30616	0.13303	0.28294	0.094149	0.18367	0.071593	0.10461	0.26852	0.15886	0.11897	-3.1167	-4.3167	-3.7354	-3.9729	-4.3229	-3.4354	-4.3875	-4.2729	-3.4042	-4.3583	-3.9167	-3.7583	-4.4104	-3.5812	-3.8708	-4.2292	45.791	4.205	162.264	-134.774	53.574	160.769	119.025	-121.964	-54.354	14.467	159.265	126.210	150.981	205.212	9.818	82.984	0.00092942	0.00039378	0.00012963	816.99	2.8499e-06	3.9027e-06	1318.7	276.23	4.6853e-06	6.2745e-06	513.97	187.59	85.901	36.853	6.1665e-06	94.655	0.00010268	9.4352e-05	2.328e-05	729.35	9.3885e-07	1.0269e-06	1183.4	245.18	9.65e-07	1.0157e-06	447.46	163.9	75.118	32.41	9.1463e-07	82.57	163.166	-74.324	-64.871	-137.903	-30.693	-3.899	-138.033	-132.966	-22.940	-17.782	-132.454	-127.871	-127.404	-121.193	-33.958	-122.293	-8191	255	
23928.047	1	1	0	0	0.14621	0.26876	0.15797	0.23362	0.049453	0.18325	0.16756	0.25427	0.16147	0.096464	0.26046	0.051264	0.11764	0.14938	0.1149	0.2877	-3.1021	-4.3938	-3.8354	-3.6792	-4.3625	-3.4292	-4.2208	-4.3125	-3.3521	-4.1771	-4.0542	-3.6813	-4.6167	-3.5896	-3.7396	-4.5375	69.993	-46.416	-105.076	123.335	6.122	-55.108	134.429	145.998	83.259	-44.127	196.446	124.737	102.514	119.279	-121.713	-143.558	0.00097177	0.00053967	0.00014515	818.79	2.5276e-06	4.2437e-06	1329.8	277.1	5.6719e-06	5.2334e-06	516.46	188.77	86.537	37.273	4.725e-06	95.462	0.00010825	9.2184e-05	2.2262e-05	732.45	1.0409e-06	1.0159e-06	1188.9	246.2	1.0724e-06	9.7831e-07	449.99	165.17	75.625	32.756	8.8339e-07	83.254	165.692	-150.638	-73.511	-138.176	-9.568	-56.744	-137.991	-132.919	-58.985	-52.717	-132.377	-128.208	-127.843	-121.445	-11.404	-122.295	-8191	255	
23928.143	1	1	0	0	0.11369	0.1495	0.066045	0.11854	0.069242	0.12319	0.17133	0.32265	0.13454	0.27645	0.15608	0.10421	0.032001	0.11482	0.21957	0.22799	-3.1208	-4.2937	-4.0146	-3.6312	-4.5167	-3.6667	-4.0896	-4.4833	-3.4583	-4.2979	-4.3646	-3.7042	-4.4083	-3.7521	-3.8042	-4.4646	164.119	-3.218	187.980	118.708	-12.029	156.713	-141.330	154.115	-101.350	-29.136	-137.715	148.379	-5.465	171.447	-62.993	148.295	0.0010163	0.00076316	0.00020439	822.7	1.3327e-06	4.9801e-06	1332.6	279.51	3.036e-06	1.8496e-06	512.82	186.91	85.366	37.403	3.6257e-06	95.201	0.00011684	9.0221e-05	2.207e-05	734.96	1.0959e-06	9.4596e-07	1192	246.97	1.0767e-06	9.2251e-07	448.96	164.44	75.207	32.758	8.7492e-07	83.122	167.835	-77.689	-37.973	-137.915	9.303	-41.969	-138.344	-132.967	2.608	-40.967	-132.554	-128.211	-127.601	-121.501	22.050	-122.483	-8191	255	
23928.238	1	1	0	0	0.082882	0.13936	0.30561	0.066416	0.044021	0.33299	0.23047	0.18042	0.077178	0.29335	0.19692	0.15203	0.29568	0.1018	0.17297	0.062907	-3.0208	-4.025	-4.0625	-3.4688	-4.4521	-3.7667	-3.9604	-4.7188	-3.5021	-4.1875	-4.4125	-3.5917	-4.4979	-3.8917	-3.5771	-4.7708	4.467	176.742	-31.295	148.464	-92.102	52.664	117.568	127.712	208.491	134.916	179.447	-129.694	-119.444	199.160	-127.065	98.407	0.0009592	0.00059946	0.00015289	822.77	3.1323e-06	2.6956e-06	1322.1	277.17	2.9358e-06	6.0896e-06	511.08	187.18	86.33	37.609	3.6181e-06	95.94	0.0001134	8.5124e-05	2.1901e-05	735.04	1.0462e-06	9.1661e-07	1183.4	246.48	9.802e-07	8.6412e-07	447.04	164.97	75.382	32.896	8.6356e-07	83.755	166.543	-69.540	-84.165	-138.114	14.384	-67.141	-138.263	-132.987	-61.899	-17.680	-132.767	-128.198	-128.204	-122.072	-53.942	-122.854	-8191	255	
23928.359	1	1	0	0	0.27417	0.1188	0.069765	0.12722	0.17846	0.1245	0.22794	0.19485	0.2206	0.17972	0.10196	0.21974	0.1245	0.25574	0.047334	0.11437	-3.0229	-3.7938	-4.2688	-3.4271	-4.2937	-3.8646	-3.9396	-4.6021	-3.6292	-3.9583	-4.4354	-3.5083	-4.35	-3.9437	-3.3271	-4.4229	57.035	91.167	201.756	-115.660	40.593	58.544	179.586	147.609	135.399	84.967	101.192	159.019	79.111	185.227	-28.833	186.756	0.00090022	0.00047835	0.00014114	824.2	3.6501e-06	6.5102e-06	1338.8	277.71	6.1597e-06	3.6942e-06	509.56	188.21	86.458	37.427	1.4292e-06	96.434	0.00010675	8.1333e-05	2.1359e-05	736.77	9.4757e-07	8.4502e-07	1192.5	246.69	9.5187e-07	8.5981e-07	448.09	165.61	75.574	32.899	9.0867e-07	84.122	162.467	-52.949	-74.647	-138.122	5.613	-54.936	-138.266	-132.927	-28.210	-20.038	-133.074	-128.097	-128.325	-122.318	-78.394	-123.553	-8191	255	
#DATA ENDS
