BOXY.EXE: ISS Imagent and Oximeter Data Acquisition Program Version 0.80
Ascii Record File

#ACQ INFORMATION
2  Detector Channels 
16  External MUX Channels 
1  Auxiliary Channels 
5000  Waveform (CCF) Frequency (Hz)
1  Waveforms Skipped 
30  Waveforms Averaged 
1  Cycles Averaged 
16  Acquisitions per Waveform 
10.0806  Updata Rate (Hz) 

#FILE INFORMATION
TRUE -- External MUX Channel results are PARSED.
FALSE -- AC DC and Phase are NOT grouped.
TRUE -- Companion Program Settings File CREATED.
FALSE -- AC data not excluded
FALSE -- DC data not excluded
FALSE -- Phase data not excluded
FALSE -- Auxillary Chn. data not excluded
Tab delimiters

#CALIBRATION STATE
TRUE -- Waveform Calibration Values APPLIED.


#AUX CALIBRATION VALUES
Val Type	aux-1	

Term	1.0000e+00	
Factor	0.0000e+00	


#WF CALIBRATION VALUES
A = Detector Channel
Val Type	A-AC1	A-AC2	A-AC3	A-AC4	A-AC5	A-AC6	A-AC7	A-AC8	A-AC9	A-AC10	A-AC11	A-AC12	A-AC13	A-AC14	A-AC15	A-AC16	A-DC1	A-DC2	A-DC3	A-DC4	A-DC5	A-DC6	A-DC7	A-DC8	A-DC9	A-DC10	A-DC11	A-DC12	A-DC13	A-DC14	A-DC15	A-DC16	A-Ph1	A-Ph2	A-Ph3	A-Ph4	A-Ph5	A-Ph6	A-Ph7	A-Ph8	A-Ph9	A-Ph10	A-Ph11	A-Ph12	A-Ph13	A-Ph14	A-Ph15	A-Ph16	

Term	0.00000e+00	0.00000e+00	0.00000e+00	0.00000e+00	0.00000e+00	0.00000e+00	0.00000e+00	0.00000e+00	0.00000e+00	0.00000e+00	0.00000e+00	0.00000e+00	0.00000e+00	0.00000e+00	0.00000e+00	0.00000e+00	0.00000e+00	0.00000e+00	0.00000e+00	0.00000e+00	0.00000e+00	0.00000e+00	0.00000e+00	0.00000e+00	0.00000e+00	0.00000e+00	0.00000e+00	0.00000e+00	0.00000e+00	0.00000e+00	0.00000e+00	0.00000e+00	0.00000e+00	0.00000e+00	0.00000e+00	0.00000e+00	0.00000e+00	0.00000e+00	0.00000e+00	0.00000e+00	0.00000e+00	0.00000e+00	0.00000e+00	0.00000e+00	0.00000e+00	0.00000e+00	0.00000e+00	0.00000e+00	
Factor	1.00000e+00	1.00000e+00	1.00000e+00	1.00000e+00	1.00000e+00	1.00000e+00	1.00000e+00	1.00000e+00	1.00000e+00	1.00000e+00	1.00000e+00	1.00000e+00	1.00000e+00	1.00000e+00	1.00000e+00	1.00000e+00	1.00000e+00	1.00000e+00	1.00000e+00	1.00000e+00	1.00000e+00	1.00000e+00	1.00000e+00	1.00000e+00	1.00000e+00	1.00000e+00	1.00000e+00	1.00000e+00	1.00000e+00	1.00000e+00	1.00000e+00	1.00000e+00	X	X	X	X	X	X	X	X	X	X	X	X	X	X	X	X	

B = Detector Channel
Val Type	B-AC1	B-AC2	B-AC3	B-AC4	B-AC5	B-AC6	B-AC7	B-AC8	B-AC9	B-AC10	B-AC11	B-AC12	B-AC13	B-AC14	B-AC15	B-AC16	B-DC1	B-DC2	B-DC3	B-DC4	B-DC5	B-DC6	B-DC7	B-DC8	B-DC9	B-DC10	B-DC11	B-DC12	B-DC13	B-DC14	B-DC15	B-DC16	B-Ph1	B-Ph2	B-Ph3	B-Ph4	B-Ph5	B-Ph6	B-Ph7	B-Ph8	B-Ph9	B-Ph10	B-Ph11	B-Ph12	B-Ph13	B-Ph14	B-Ph15	B-Ph16	

Term	0.00000e+00	0.00000e+00	0.00000e+00	0.00000e+00	0.00000e+00	0.00000e+00	0.00000e+00	0.00000e+00	0.00000e+00	0.00000e+00	0.00000e+00	0.00000e+00	0.00000e+00	0.00000e+00	0.00000e+00	0.00000e+00	0.00000e+00	0.00000e+00	0.00000e+00	0.00000e+00	0.00000e+00	0.00000e+00	0.00000e+00	0.00000e+00	0.00000e+00	0.00000e+00	0.00000e+00	0.00000e+00	0.00000e+00	0.00000e+00	0.00000e+00	0.00000e+00	-2.52595e+02	-1.26487e+02	-1.31810e+02	-1.83580e+02	-9.53217e+01	-7.04341e+01	-1.58163e+02	-1.62015e+02	-9.38048e+01	-7.07157e+01	-1.70649e+02	-1.71149e+02	-1.78736e+02	-1.76810e+02	-6.95905e+01	-1.49929e+02	
Factor	6.57577e-05	1.42588e-04	3.98813e-05	1.59387e-01	2.26321e-06	1.63867e-06	1.78960e-01	5.86508e-02	1.89516e-06	1.75252e-06	9.77644e-02	3.36656e-02	3.08182e-02	1.06301e-02	1.65800e-06	1.51188e-02	3.52109e-06	3.79331e-06	1.05871e-06	7.47961e-02	4.09069e-08	4.16821e-08	7.88279e-02	2.75229e-02	4.08750e-08	4.15652e-08	4.44068e-02	1.52238e-02	1.45320e-02	5.00993e-03	4.13229e-08	6.90354e-03	X	X	X	X	X	X	X	X	X	X	X	X	X	X	X	X	



#DISTANCE SETTINGS
A = Detector Channel
A-1	A-2	A-3	A-4	A-5	A-6	A-7	A-8	A-9	A-10	A-11	A-12	A-13	A-14	A-15	A-16	

2.5000e+00	3.0000e+00	2.5000e+00	3.0000e+00	2.0000e+00	3.0000e+00	1.5000e+00	3.0000e+00	3.0000e+00	3.0000e+00	3.0000e+00	3.0000e+00	3.0000e+00	3.0000e+00	1.5000e+00	3.0000e+00	

B = Detector Channel
B-1	B-2	B-3	B-4	B-5	B-6	B-7	B-8	B-9	B-10	B-11	B-12	B-13	B-14	B-15	B-16	

1.0000e+01	1.0000e+01	1.0000e+01	1.4400e+00	1.0000e+01	1.0000e+01	1.5100e+00	1.9400e+00	1.0000e+01	1.0000e+01	1.9900e+00	2.4900e+00	2.4100e+00	2.9000e+00	1.0000e+01	2.9800e+00	




#DATA BEGINS
time	group	step	mark	flag	A-AC1	A-AC2	A-AC3	A-AC4	A-AC5	A-AC6	A-AC7	A-AC8	A-AC9	A-AC10	A-AC11	A-AC12	A-AC13	A-AC14	A-AC15	A-AC16	A-DC1	A-DC2	A-DC3	A-DC4	A-DC5	A-DC6	A-DC7	A-DC8	A-DC9	A-DC10	A-DC11	A-DC12	A-DC13	A-DC14	A-DC15	A-DC16	A-Ph1	A-Ph2	A-Ph3	A-Ph4	A-Ph5	A-Ph6	A-Ph7	A-Ph8	A-Ph9	A-Ph10	A-Ph11	A-Ph12	A-Ph13	A-Ph14	A-Ph15	A-Ph16	B-AC1	B-AC2	B-AC3	B-AC4	B-AC5	B-AC6	B-AC7	B-AC8	B-AC9	B-AC10	B-AC11	B-AC12	B-AC13	B-AC14	B-AC15	B-AC16	B-DC1	B-DC2	B-DC3	B-DC4	B-DC5	B-DC6	B-DC7	B-DC8	B-DC9	B-DC10	B-DC11	B-DC12	B-DC13	B-DC14	B-DC15	B-DC16	B-Ph1	B-Ph2	B-Ph3	B-Ph4	B-Ph5	B-Ph6	B-Ph7	B-Ph8	B-Ph9	B-Ph10	B-Ph11	B-Ph12	B-Ph13	B-Ph14	B-Ph15	B-Ph16	aux-1	digaux	

52860.301	1	1	0	256	0.24662	0.30777	0.14697	0.17543	0.13094	0.035953	0.14743	0.11315	0.065952	0.13939	0.094136	0.31411	0.090373	0.2439	0.14851	0.17357	-3.8667	-5.0146	-4.4896	-4.3771	-5.0042	-4.1979	-4.8521	-4.8604	-3.9833	-4.9313	-4.7021	-4.3646	-5.0687	-4.2438	-4.4646	-5.1167	30.427	234.492	23.456	155.081	40.752	94.323	233.056	235.666	-0.852	179.539	-52.696	246.221	40.753	249.750	123.815	272.854	0.00075046	0.00034346	8.0762e-05	564.65	5.4722e-06	3.6238e-06	730.69	184.16	5.9716e-06	3.5398e-06	281.76	123.23	70.184	32.446	3.69e-06	64.311	0.00017535	0.00013064	3.6671e-05	583.49	1.4875e-06	1.4454e-06	751.53	190.58	1.5344e-06	1.4344e-06	291.24	127.69	73.025	33.917	1.4769e-06	66.835	57.948	34.751	35.367	-67.072	68.865	56.811	-67.585	-61.456	18.347	77.844	-62.344	-57.119	-56.281	-50.881	84.606	-52.732	-8191	255	
52860.398	1	1	0	0	0.28746	0.17403	0.22653	0.11806	0.049295	0.0097492	0.020866	0.11618	0.18213	0.1451	0.020938	0.041348	0.011998	0.16782	0.071813	0.25759	-3.8979	-4.7229	-4.65	-4.3875	-4.9583	-4.3542	-4.3688	-4.9958	-4.0083	-4.8708	-4.7729	-4.3125	-4.9833	-4.4437	-4.3104	-4.9688	228.837	18.236	84.805	-79.268	109.595	-35.406	174.566	75.676	175.954	-37.373	257.479	-39.077	201.492	211.096	7.939	205.941	0.00079519	0.0002579	8.5823e-05	563.88	3.1489e-06	3.1141e-06	730.09	184.4	2.9149e-06	3.3391e-06	283.05	122.87	70.236	32.585	2.2623e-06	63.993	0.00017726	0.00013484	3.5968e-05	583.29	1.4927e-06	1.4693e-06	752.23	190.64	1.4782e-06	1.4382e-06	292.53	127.58	73.047	33.909	1.4714e-06	66.803	51.792	5.142	-10.514	-67.250	51.282	51.748	-67.814	-61.661	46.025	52.968	-62.360	-57.094	-56.313	-51.083	77.618	-52.671	-8191	255	
52860.492	1	1	0	0	0.06789	0.022416	0.0321	0.069031	0.10867	0.29365	0.20517	0.15661	0.11516	0.10029	0.13532	0.11704	0.086416	0.14083	0.11134	0.19539	-3.6292	-4.5687	-4.7312	-4.1271	-5.0062	-4.3542	-4.4062	-5.1979	-4.1083	-4.5396	-4.9938	-4.2625	-4.8125	-4.6312	-4.2708	-5.1875	120.462	188.450	166.693	185.074	87.639	31.939	41.752	86.189	113.052	219.491	-74.670	169.545	-32.713	182.894	153.782	85.590	0.00080226	0.00028891	0.00012802	566.18	7.694e-06	4.626e-06	729.11	183.38	2.4883e-06	4.6095e-06	283.03	122.74	69.961	32.29	5.109e-06	64.242	0.00018029	0.00013177	3.5932e-05	583.97	1.4863e-06	1.4147e-06	752.2	190.56	1.4678e-06	1.4234e-06	292.69	127.62	72.862	33.751	1.4751e-06	66.829	51.752	22.624	8.166	-67.182	44.451	34.651	-67.725	-61.653	10.782	72.407	-62.316	-57.234	-56.317	-50.571	105.551	-52.326	-8191	255	
52860.613	1	1	0	0	0.17967	0.20971	0.1407	0.15021	0.066091	0.19375	0.049281	0.18641	0.12586	0.038691	0.053122	0.13591	0.13988	0.17648	0.10643	0.2582	-3.9083	-4.5646	-4.9146	-4.1042	-4.8667	-4.5917	-4.4583	-5.1604	-4.3646	-4.5167	-4.925	-4.1146	-4.9187	-4.5875	-4.3979	-5.1604	50.343	107.519	-28.686	276.290	243.680	-4.788	143.158	71.251	272.406	66.936	235.466	241.254	253.199	73.191	38.732	256.070	0.000824	0.00028171	7.4009e-05	566.17	3.7348e-06	3.934e-06	731.26	184.51	4.3171e-06	5.2401e-06	284.06	123.01	70.05	32.371	4.3065e-06	64.02	0.00017809	0.00013097	3.6907e-05	583.08	1.4507e-06	1.4571e-06	752.75	191.33	1.4924e-06	1.4653e-06	293.15	127.84	73.018	33.792	1.4521e-06	66.867	61.167	14.160	-1.565	-67.346	22.108	56.288	-67.716	-61.955	42.172	81.529	-62.117	-57.096	-56.243	-50.775	56.458	-52.415	-8191	255	
52860.711	1	1	0	0	0.04946	0.13895	0.12044	0.20846	0.26743	0.21994	0.19157	0.12324	0.25236	0.1243	0.1468	0.097771	0.086577	0.074973	0.069602	0.20392	-4.0146	-4.4542	-5.0354	-4.0396	-4.7854	-4.7542	-4.2771	-5.0437	-4.3708	-4.2375	-4.8667	-4.1229	-4.7792	-4.9313	-4.0979	-5.1292	-69.594	-55.830	103.151	-20.982	250.903	-48.677	247.688	214.577	148.200	217.941	176.438	210.109	221.410	159.772	-12.203	237.531	0.00082255	0.0004782	0.00010716	565.78	3.7998e-06	2.5816e-06	730.86	185.1	3.0457e-06	3.0908e-06	283.86	123.65	70.151	32.514	2.8037e-06	64.169	0.00017932	0.00013039	3.6451e-05	584.52	1.4591e-06	1.3972e-06	752.89	191.06	1.4773e-06	1.4369e-06	293.19	127.86	73.069	33.931	1.4685e-06	66.818	54.451	-4.604	18.849	-67.423	63.475	44.011	-67.734	-61.523	38.368	74.130	-62.500	-57.173	-55.711	-50.771	6.429	-52.554	-8191	255	
52860.809	1	1	0	0	0.23999	0.17052	0.15242	0.22069	0.21614	0.12342	0.1106	0.10746	0.11225	0.123	0.11176	0.16823	0.23447	0.15222	0.10168	0.11971	-4.1479	-4.1667	-4.8833	-4.2167	-4.6646	-4.9	-4.2375	-5.0312	-4.4563	-4.1312	-5.1292	-4.2271	-4.6958	-4.925	-3.9	-5.0417	190.520	241.794	242.828	-70.580	278.084	246.635	222.024	36.994	40.436	37.186	279.109	259.814	278.085	-50.401	177.501	249.322	0.00074294	0.00046534	8.4371e-05	565.69	5.0582e-06	2.894e-06	729.71	183.97	1.9445e-06	3.8764e-06	284.86	123.13	70.5	32.343	4.1562e-06	64.281	0.00017548	0.00012674	3.5811e-05	584.44	1.4888e-06	1.4295e-06	753.12	190.43	1.4698e-06	1.4583e-06	292.36	127.75	73.084	33.856	1.4751e-06	66.989	54.733	12.035	36.511	-67.433	51.079	68.583	-67.582	-61.491	22.637	67.877	-62.342	-57.249	-56.441	-50.683	80.334	-52.505	-8191	255	
52860.902	1	1	0	0	0.17445	0.17203	0.12138	0.23597	0.15826	0.15125	0.2284	0.13111	0.21005	0.091423	0.068545	0.24861	0.24337	0.054087	0.18347	0.13697	-4.3042	-4.0396	-5.0625	-4.3792	-4.4833	-4.9479	-4.0687	-4.8521	-4.7396	-4.2479	-5.2438	-4.2167	-4.4313	-5.0854	-3.9479	-4.9125	206.034	222.963	-31.295	185.262	277.523	-32.627	186.823	178.222	22.730	250.813	219.532	177.471	260.294	48.509	279.350	200.608	0.00078166	0.00036676	0.0001243	568.28	4.4386e-06	3.7055e-06	733.96	184.28	2.383e-06	3.086e-06	283.66	123.17	70.243	32.328	1.6366e-06	64.408	0.00017722	0.00013386	3.6689e-05	584.57	1.4688e-06	1.4598e-06	755.63	191.14	1.4593e-06	1.4374e-06	293.04	127.97	73.052	33.912	1.5068e-06	66.975	51.381	-1.449	9.852	-67.054	33.253	58.341	-67.859	-61.452	35.635	60.360	-62.465	-57.123	-56.205	-50.777	95.295	-52.232	-8191	255	
52861.000	1	1	0	0	0.23255	0.16414	0.095894	0.14328	0.089178	0.12287	0.17079	0.25273	0.10105	0.13358	0.17671	0.02213	0.11617	0.11858	0.16004	0.22924	-4.4542	-4.1375	-4.9479	-4.4042	-4.4313	-5.0229	-4.2083	-4.8	-4.7812	-4.0188	-5.1146	-4.5083	-4.3417	-5.1271	-4.3125	-4.8917	10.980	73.104	117.250	39.676	9.767	57.465	-45.710	155.668	37.449	188.502	270.110	253.045	227.167	222.997	264.834	-60.455	0.00084016	0.00035115	7.2048e-05	572.14	1.3292e-06	3.7295e-06	733.82	184.27	4.0521e-06	3.5842e-06	284.19	123.62	70.23	32.621	3.8165e-06	64.42	0.00017361	0.00013491	3.681e-05	586.45	1.4771e-06	1.4211e-06	755.91	191.42	1.4576e-06	1.4515e-06	293.93	128.36	73.235	34.013	1.4907e-06	67.151	56.271	0.942	-10.811	-67.206	66.268	62.523	-67.586	-61.716	26.600	93.604	-62.415	-57.052	-56.865	-50.643	95.623	-52.586	-8191	255	
52861.094	1	1	0	0	0.12516	0.088823	0.24591	0.2152	0.20352	0.028143	0.20885	0.12772	0.10444	0.048743	0.2248	0.076852	0.29128	0.097292	0.25269	0.10954	-4.6333	-4.0542	-4.9958	-4.5813	-4.3771	-5.0188	-4.25	-4.6958	-4.7688	-4.1229	-4.7542	-4.5917	-4.1	-5.1146	-4.2979	-4.5542	233.994	103.765	201.612	259.382	-68.747	141.133	183.505	132.178	127.805	-34.991	242.122	84.443	239.561	275.746	243.186	172.374	0.00081334	0.00034407	8.5256e-05	568.04	4.5188e-06	3.2803e-06	733.01	184.71	3.527e-06	6.3099e-06	283.13	123.42	70.446	32.468	2.3759e-06	63.969	0.00017654	0.00013664	3.7609e-05	585.75	1.4799e-06	1.4533e-06	754.36	191.44	1.4287e-06	1.4589e-06	293.37	128.06	73.14	33.893	1.4829e-06	66.897	56.284	14.942	-5.399	-67.330	41.893	60.389	-67.831	-61.700	22.782	52.917	-62.256	-56.789	-56.447	-50.482	41.122	-52.785	-8191	255	
52861.188	1	1	0	0	0.20605	0.19573	0.017378	0.34113	0.16399	0.19143	0.29895	0.2662	0.18953	0.11619	0.066956	0.08809	0.11167	0.098389	0.23327	0.058353	-4.4708	-3.8688	-4.9646	-4.6771	-4.1312	-4.8938	-4.325	-4.5062	-4.9417	-4.0167	-5.0604	-4.8042	-4.2312	-5.1438	-4.4021	-4.5458	57.117	90.274	210.242	260.370	147.722	-45.078	196.985	-75.808	-72.428	75.271	153.925	-19.833	42.987	259.605	-5.792	9.907	0.00082241	0.00024248	7.3177e-05	569.73	4.85e-06	2.4932e-06	734.88	184.81	2.0671e-06	4.0886e-06	282.13	123.82	69.957	32.344	5.6402e-06	64.021	0.00017369	0.00013207	3.6076e-05	586.01	1.4905e-06	1.4193e-06	754.44	191.46	1.4514e-06	1.4173e-06	292.99	128.15	73.014	33.936	1.4753e-06	66.812	52.425	23.033	2.071	-67.203	41.814	94.792	-67.664	-61.741	38.453	52.129	-62.144	-57.129	-56.286	-50.732	67.401	-52.634	-8191	255	
52861.285	1	1	0	0	0.16044	0.088037	0.081163	0.15746	0.25259	0.29018	0.026333	0.13777	0.15442	0.20161	0.11367	0.10749	0.12487	0.10919	0.21357	0.15775	-4.6979	-3.9729	-4.7167	-4.6979	-3.9896	-4.9604	-4.5021	-4.2521	-5.0042	-4.1312	-4.7354	-4.9042	-4.1625	-4.9271	-4.4375	-4.3375	167.154	130.355	172.583	204.244	19.491	244.920	75.715	-69.778	206.679	39.249	246.493	89.451	175.370	235.943	215.531	240.084	0.00071743	0.00019597	0.00011829	569.27	5.636e-06	5.9443e-06	732.25	184.68	3.4424e-06	5.3299e-06	284.67	123.37	70.356	32.617	4.8553e-06	64.599	0.00017746	0.00013522	3.6958e-05	586.07	1.5204e-06	1.5122e-06	755.23	191.62	1.4739e-06	1.4794e-06	293.97	128.24	73.337	34.071	1.5053e-06	67.203	50.784	37.889	1.485	-67.138	39.982	85.144	-67.566	-61.736	44.414	64.035	-62.261	-57.133	-56.612	-50.948	65.124	-52.556	-8191	255	
52861.406	1	1	0	0	0.065797	0.10817	0.2242	0.1117	0.10375	0.044735	0.29476	0.44531	0.086051	0.11605	0.049945	0.092616	0.079516	0.503	0.1797	0.18699	-4.8125	-4.2125	-4.5333	-5.0188	-4.0979	-5.0125	-4.7083	-4.1687	-5.1083	-4.3167	-4.6438	-5.1583	-4.1687	-4.7958	-4.5729	-4.3604	30.002	43.562	77.699	260.904	-56.826	94.263	227.049	227.737	-76.215	164.134	12.071	8.440	154.597	242.921	5.298	-35.625	0.00085062	0.00034734	9.1753e-05	570.16	3.1236e-06	3.6748e-06	735.04	185.54	2.7209e-06	4.4676e-06	285.33	123.29	69.791	32.584	3.4061e-06	64.234	0.00017686	0.00013341	3.6982e-05	586.66	1.4723e-06	1.4577e-06	757	192.3	1.4706e-06	1.444e-06	294.56	128.21	73.12	33.957	1.4371e-06	67.015	51.012	36.169	2.141	-67.247	-16.432	96.283	-67.639	-61.532	48.482	92.561	-62.177	-57.107	-56.299	-50.936	85.194	-52.627	-8191	255	
52861.504	1	1	0	0	0.1767	0.27999	0.22218	0.060311	0.19483	0.29449	0.12744	0.15368	0.12713	0.1254	0.1024	0.20535	0.13829	0.16185	0.18915	0.011696	-4.8792	-4.325	-4.4	-5.0062	-3.8479	-4.7021	-4.8438	-4.125	-4.9812	-4.3104	-4.4521	-5.2042	-4.0625	-4.7438	-4.8396	-4.3083	247.836	64.196	209.743	277.942	185.980	-71.534	-67.558	87.453	3.117	103.548	174.715	254.124	-59.805	76.432	62.169	120.370	0.00078449	0.00043733	0.00013506	569.22	4.9223e-06	2.6676e-06	731.73	184.12	3.8993e-06	2.7655e-06	284.55	123.45	70.349	32.37	2.6372e-06	64.224	0.00017893	0.00013497	3.7496e-05	586.24	1.5234e-06	1.416e-06	756.01	191.55	1.4983e-06	1.4634e-06	294.05	128.38	73.264	33.973	1.4848e-06	67.025	53.171	45.127	18.051	-67.408	47.001	80.421	-67.748	-61.902	59.600	38.318	-62.241	-56.996	-56.336	-50.777	89.460	-52.613	-8191	255	
52861.574	1	1	0	0	0.16941	0.13629	0.093189	0.060165	0.14232	0.18637	0.20216	0.1316	0.030637	0.13804	0.14425	0.3075	0.2419	0.16426	0.1524	0.30882	-4.7937	-4.4583	-4.1333	-5.1896	-4.1	-4.5979	-4.8833	-4.1083	-4.8333	-4.5667	-4.2271	-4.8938	-4.0521	-4.6062	-4.7958	-4.0479	-43.336	138.013	12.503	102.749	88.919	135.817	221.417	-74.466	190.581	252.083	206.264	165.047	-49.986	-57.925	-29.276	271.766	0.00078814	0.00032336	9.3769e-05	568.54	4.9979e-06	3.4942e-06	731.66	185.17	4.5337e-06	4.9585e-06	283.09	123.42	70.376	32.588	4.6419e-06	63.927	0.00017628	0.00013296	3.6995e-05	585.08	1.4925e-06	1.4076e-06	754.64	191.72	1.4646e-06	1.4178e-06	293.41	128.13	73.255	34.005	1.4777e-06	66.914	53.636	10.410	-4.479	-67.310	35.877	71.263	-67.542	-61.856	32.708	65.206	-62.541	-57.013	-56.086	-50.654	94.215	-52.338	-8191	255	
52861.695	1	1	0	0	0.033084	0.13668	0.11126	0.12201	0.2076	0.18103	0.061572	0.19259	0.12001	0.080408	0.055592	0.079021	0.064277	0.020018	0.24434	0.11879	-4.5312	-4.6146	-4.225	-5.2708	-4.3187	-4.4583	-5.1188	-4.1896	-4.8042	-4.8604	-4.2917	-5.2	-4.3375	-4.4979	-4.9563	-4.1687	91.021	21.207	-56.261	68.433	54.297	90.519	227.993	254.899	-12.508	208.143	191.590	-13.470	175.971	-69.283	202.816	80.782	0.00083933	0.00039099	0.0001244	568.46	6.4452e-06	3.1937e-06	734.51	185.45	5.0073e-06	3.5348e-06	284.3	123.92	70.779	32.862	1.9898e-06	64.208	0.00017779	0.00013071	3.7595e-05	586.94	1.4889e-06	1.4269e-06	757.4	191.99	1.4627e-06	1.4232e-06	294	128.65	73.533	34.219	1.4902e-06	67.159	52.578	15.096	13.084	-67.205	51.655	96.534	-67.546	-61.621	30.950	107.015	-62.172	-57.194	-56.380	-50.575	31.657	-52.582	-8191	255	
52861.789	1	1	0	0	0.2289	0.15999	0.059984	0.096103	0.17651	0.14227	0.16362	0.15237	0.092528	0.19245	0.24345	0.11752	0.10333	0.17797	0.014251	0.071527	-4.5375	-4.7458	-4.2	-5.2146	-4.4271	-4.2	-5.0417	-4.1104	-4.6062	-4.7583	-4.2688	-5.1083	-4.425	-4.2229	-5.0125	-4.1937	-61.994	263.207	29.775	213.310	-13.734	272.748	195.450	231.084	276.206	1.296	136.939	233.270	160.467	-68.840	234.621	133.013	0.00083708	0.00041917	0.00012412	571.08	4.2862e-06	3.153e-06	737.16	185.75	2.1575e-06	2.3311e-06	284.72	123.82	69.874	32.55	1.0501e-06	64.009	0.00017715	0.00013025	3.7381e-05	589	1.5109e-06	1.4747e-06	760.27	191.93	1.4719e-06	1.474e-06	293.93	128.34	73.103	34.015	1.4801e-06	67.013	51.736	2.198	-10.571	-67.204	41.387	43.066	-67.840	-61.906	11.198	78.507	-62.366	-57.119	-56.302	-51.069	85.529	-52.489	-8191	255	
52861.887	1	1	0	0	0.075916	0.19296	0.20932	0.11021	0.079757	0.1777	0.20621	0.23226	0.11957	0.084263	0.16752	0.059106	0.14837	0.16899	0.24686	0.22935	-4.2854	-4.9688	-4.0708	-5.0458	-4.5833	-4.2417	-5.1042	-4.4875	-4.6958	-4.9792	-4.2271	-4.9917	-4.6438	-4.2208	-4.8958	-4.3792	-26.870	-50.306	245.852	193.024	1.944	105.666	216.983	221.276	14.283	219.489	261.067	-19.806	196.949	54.268	-65.832	276.012	0.00078151	0.00024648	0.00011291	572.32	6.0363e-06	3.3418e-06	741.05	184.17	3.3655e-06	3.3525e-06	285.14	123.31	70.173	32.577	5.0795e-06	64.511	0.00017724	0.00013285	3.8056e-05	588.94	1.47e-06	1.4504e-06	761.14	191.46	1.4419e-06	1.392e-06	294.31	128.47	73.137	34.022	1.4551e-06	67.239	51.656	43.489	-0.817	-67.359	58.014	59.691	-67.759	-61.861	51.890	49.925	-62.575	-57.150	-56.383	-51.144	62.623	-52.514	-8191	255	
52862.008	1	1	0	0	0.14759	0.12193	0.3517	0.18952	0.16516	0.04261	0.32703	0.17079	0.078785	0.15609	0.093852	0.14453	0.24104	0.081795	0.033343	0.15944	-4.1792	-4.9208	-4.0771	-4.9083	-4.6042	-4.2438	-5.0271	-4.4458	-4.4167	-4.9688	-4.1792	-5.0312	-4.7937	-4.1896	-5.1208	-4.5917	9.682	63.757	119.279	244.597	94.475	181.823	165.903	267.814	50.495	-37.420	207.104	269.125	124.770	-16.034	53.167	99.540	0.00079383	0.00024303	9.2741e-05	574.82	3.3857e-06	5.3052e-06	738.38	184.89	2.688e-06	5.2124e-06	283.92	122.75	70.2	32.741	4.347e-06	64.031	0.00017189	0.00012997	3.7776e-05	590.41	1.4959e-06	1.464e-06	761.69	191.58	1.532e-06	1.4356e-06	292.64	127.74	73.008	34.017	1.4897e-06	66.801	54.975	26.687	-1.231	-67.263	51.935	60.601	-67.766	-61.938	70.856	99.738	-62.582	-57.210	-56.455	-50.633	93.338	-52.837	-8191	255	
52862.102	1	1	0	0	0.20952	0.19288	0.23308	0.21476	0.14624	0.087332	0.16052	0.14083	0.11554	0.068962	0.040565	0.095444	0.10313	0.1695	0.17706	0.096578	-4.0875	-4.9688	-4.1479	-4.9104	-5.0042	-4.0146	-5.1625	-4.5437	-4.3708	-5.0521	-4.2417	-4.7688	-4.9333	-4.1604	-5.1438	-4.6354	0.754	88.431	-38.372	190.403	179.115	-1.281	251.212	205.514	-11.304	147.324	-48.484	165.283	196.886	211.975	126.340	225.833	0.00082959	0.00048397	0.00010212	572.58	5.555e-06	3.5343e-06	734.48	184.56	2.3638e-06	2.6933e-06	284.13	123.18	69.952	32.361	2.659e-06	64.098	0.00017707	0.00013435	3.8109e-05	589.21	1.4204e-06	1.4135e-06	758.74	190.88	1.5187e-06	1.3912e-06	292.37	127.8	72.788	33.865	1.4321e-06	66.784	58.918	37.415	-4.595	-67.098	28.143	84.437	-67.543	-61.669	-2.756	55.265	-62.141	-57.232	-56.131	-51.181	31.736	-52.618	-8191	255	
52862.176	1	1	0	0	0.19151	0.13497	0.17085	0.14572	0.17662	0.10785	0.21613	0.076299	0.086536	0.11232	0.19057	0.03694	0.14135	0.070264	0.095064	0.13315	-4.0375	-5.0604	-4.2396	-4.5333	-4.8271	-4.1687	-5.0708	-4.725	-4.1062	-5.1042	-4.275	-4.6083	-5.075	-4.1479	-4.9896	-4.7875	217.538	57.703	231.790	200.493	152.713	263.343	181.477	-71.065	100.270	-29.747	101.181	18.998	273.991	-71.277	-12.924	-76.542	0.00082385	0.00048015	0.00012571	572.75	2.9733e-06	3.4585e-06	737.55	184.33	3.2695e-06	4.8287e-06	282.68	122.76	69.913	32.454	1.4682e-06	64.304	0.00017864	0.00013108	3.6334e-05	589.5	1.4974e-06	1.4583e-06	759.87	190.74	1.4844e-06	1.453e-06	291.64	127.71	72.787	33.891	1.459e-06	66.932	53.578	8.295	9.300	-67.230	0.574	54.314	-67.783	-61.846	35.480	76.092	-62.233	-57.214	-56.494	-50.989	42.475	-52.489	-8191	255	
52862.270	1	1	0	0	0.096522	0.17096	0.060619	0.12101	0.17395	0.089779	0.15532	0.19074	0.15204	0.091514	0.082038	0.15813	0.23911	0.073078	0.12802	0.10876	-3.9583	-5.0125	-4.3667	-4.3583	-5.0333	-4.0271	-4.8854	-4.7625	-4.15	-5.0687	-4.4938	-4.5354	-5.025	-4.1687	-4.7271	-4.8958	20.270	246.795	245.964	258.301	208.830	216.236	230.214	160.926	-73.608	193.757	3.467	-68.470	267.155	51.146	151.570	232.650	0.00083494	0.00027508	0.00011594	571.97	2.5489e-06	4.7299e-06	736.59	184.12	1.7974e-06	2.8834e-06	283.55	123.08	69.931	32.373	3.3549e-06	63.963	0.00018219	0.00013375	3.7428e-05	588.5	1.4364e-06	1.463e-06	759.5	190.57	1.4867e-06	1.441e-06	292.04	127.59	72.804	33.86	1.4761e-06	66.864	51.466	-7.614	17.384	-67.230	42.177	67.552	-67.987	-61.596	78.545	65.590	-62.404	-57.209	-56.381	-50.585	78.298	-52.712	-8191	255	
52862.391	1	1	0	0	0.084475	0.2442	0.15712	0.079414	0.27606	0.26576	0.35167	0.14689	0.11932	0.10643	0.14315	0.19627	0.24036	0.19768	0.14823	0.15796	-3.7229	-5.0729	-4.4229	-4.5729	-5.0854	-4.2021	-4.6979	-4.8396	-3.9833	-4.8979	-4.5792	-4.2479	-5.1521	-4.2625	-4.5375	-5.0833	47.162	216.864	98.259	181.851	196.566	202.691	251.495	237.603	225.803	-3.485	135.251	-48.549	215.874	215.985	1.660	193.838	0.00081751	0.00039727	0.00012422	569.02	3.6041e-06	5.0418e-06	737.12	183.78	3.9102e-06	3.4802e-06	280.05	122.87	69.61	32.223	4.6098e-06	63.771	0.0001804	0.00013552	3.765e-05	586.82	1.4661e-06	1.4723e-06	758.89	190.35	1.5131e-06	1.4043e-06	290.6	127.48	72.726	33.749	1.4868e-06	66.612	57.202	-1.893	-21.040	-67.449	47.704	52.047	-67.410	-61.969	67.713	56.114	-62.127	-57.374	-56.210	-50.848	89.622	-52.844	-8191	255	
52862.488	1	1	0	0	0.020643	0.060342	0.039256	0.12916	0.13965	0.19919	0.056188	0.058507	0.045214	0.098375	0.15228	0.068905	0.13807	0.20485	0.037607	0.13621	-3.6854	-5.0167	-4.8042	-4.2604	-5.1625	-4.3167	-4.5625	-4.9979	-4.0354	-5.0042	-4.8125	-4.25	-5.0958	-4.5021	-4.3979	-5.0229	279.090	180.085	-56.913	-45.930	87.279	141.563	-69.488	77.574	25.863	-15.849	-40.322	62.123	48.318	-68.023	134.064	261.691	0.00083541	0.00039212	5.6811e-05	567.48	7.05e-06	2.8956e-06	732.06	182.34	3.9992e-06	3.9931e-06	282.73	122.16	69.197	32.018	2.5151e-06	63.385	0.0001776	0.00013076	3.6982e-05	585.8	1.4994e-06	1.4316e-06	754.32	189.63	1.5055e-06	1.4123e-06	290.55	126.99	72.499	33.591	1.4643e-06	66.24	59.028	6.481	37.166	-67.448	35.759	68.539	-67.663	-61.823	27.860	83.809	-62.398	-57.362	-56.226	-50.967	60.883	-52.530	-8191	255	
52862.582	1	1	0	0	0.17373	0.10858	0.11482	0.078302	0.18073	0.20448	0.11686	0.010478	0.026852	0.1114	0.20992	0.20651	0.25792	0.06255	0.13264	0.15726	-3.7375	-4.7646	-4.6708	-3.9646	-5.0333	-4.3938	-4.475	-5.0687	-4.1229	-4.8729	-4.7312	-4.1542	-5.0938	-4.3792	-4.3292	-5.1729	-62.928	57.182	196.803	75.896	-78.902	12.868	240.661	171.257	274.986	252.550	240.213	154.220	-36.625	44.500	-27.967	100.183	0.00075562	0.00027396	0.00014058	566.68	3.0276e-06	3.5298e-06	729.49	183.05	5.4322e-06	3.426e-06	280.14	122.51	69.398	31.922	3.5205e-06	63.505	0.00017963	0.00013198	3.5926e-05	583.7	1.463e-06	1.4258e-06	753.26	189.61	1.4595e-06	1.4223e-06	290.17	126.9	72.255	33.47	1.4695e-06	66.158	56.251	0.544	14.671	-67.414	16.086	56.587	-67.742	-61.979	48.598	81.810	-62.266	-57.416	-56.363	-50.686	77.621	-52.592	-8191	255	
52862.703	1	1	0	0	0.12532	0.063442	0.091445	0.023154	0.15062	0.058229	0.10398	0.079814	0.23342	0.24351	0.1349	0.17291	0.17641	0.066809	0.13591	0.012668	-3.9646	-4.6	-4.9062	-4.1292	-4.9542	-4.475	-4.5146	-5.2875	-4.1917	-4.6292	-4.7958	-3.95	-4.8521	-4.6271	-4.1667	-5.2146	196.887	189.807	198.676	125.972	96.374	73.145	162.045	142.919	96.772	204.883	26.851	180.705	-52.230	231.286	123.476	252.558	0.00087985	0.00055597	9.843e-05	564.37	4.4104e-06	4.1917e-06	731.85	183.07	2.9581e-06	4.2999e-06	281.13	122.15	69.145	32.029	3.6812e-06	63.654	0.00017467	0.00013017	3.7028e-05	582	1.4696e-06	1.4359e-06	754.53	189.53	1.4496e-06	1.465e-06	290.35	126.66	72.338	33.461	1.5357e-06	66.259	58.129	7.406	18.428	-67.237	24.391	59.973	-67.453	-61.904	50.334	71.749	-62.511	-57.395	-56.037	-50.769	67.388	-52.656	-8191	255	
52862.801	1	1	0	0	0.029408	0.14497	0.21549	0.23967	0.21206	0.065145	0.098431	0.13649	0.085274	0.073151	0.11982	0.17492	0.076284	0.12558	0.34752	0.067459	-3.9354	-4.425	-4.9479	-4.2083	-4.9667	-4.7312	-4.3021	-5.1958	-4.3354	-4.4854	-5.1	-4.0938	-4.8187	-4.8354	-4.0938	-5.1208	-50.753	123.603	223.109	211.916	4.454	-69.550	-22.361	111.664	215.369	42.095	277.349	-1.286	-19.504	263.262	213.883	181.470	0.00080446	0.00042132	0.00010963	564.13	5.5364e-06	3.0247e-06	727.72	182.62	3.8392e-06	4.4893e-06	281.92	121.9	69.149	31.787	3.843e-06	63.309	0.0001796	0.00013239	3.7465e-05	581.64	1.4591e-06	1.4484e-06	751.31	189.17	1.45e-06	1.4325e-06	291.11	126.44	72.062	33.244	1.4795e-06	65.969	61.756	10.228	19.824	-67.268	76.616	68.552	-67.707	-61.857	45.523	62.172	-62.350	-57.095	-56.074	-50.907	56.901	-52.591	-8191	255	
52862.871	1	1	0	0	0.16601	0.15403	0.10767	0.18439	0.1497	0.13047	0.077611	0.29325	0.19169	0.087856	0.1187	0.054897	0.10613	0.13899	0.086935	0.099266	-4.1771	-4.2208	-5.0396	-4.1021	-4.7063	-4.7688	-4.2021	-5.1937	-4.4042	-4.2375	-5.1813	-4.3646	-4.7937	-4.9229	-4.0792	-5.0708	112.137	138.488	257.141	-41.866	-8.956	129.049	-67.057	212.379	29.808	-28.181	35.372	156.424	113.156	19.198	226.892	149.165	0.00078591	0.00025909	0.00011456	562.29	2.8757e-06	3.5361e-06	730.52	181.8	4.9314e-06	3.4842e-06	280.52	121.83	68.918	31.725	3.3459e-06	62.817	0.00017795	0.00013062	3.651e-05	580.03	1.4536e-06	1.4228e-06	750.7	188.9	1.501e-06	1.4354e-06	290.16	126.32	71.968	33.294	1.4662e-06	65.663	50.221	46.745	-3.620	-67.219	56.533	74.112	-67.584	-61.798	44.103	64.303	-62.290	-57.100	-56.316	-50.828	79.733	-52.726	-8191	255	
52862.969	1	1	0	0	0.073708	0.16976	0.076337	0.079494	0.29246	0.080436	0.27859	0.22679	0.045206	0.14004	0.22956	0.12114	0.12201	0.17383	0.10214	0.12312	-4.2167	-4.2854	-5.1042	-4.1896	-4.5687	-5.0583	-4.1854	-4.9812	-4.5792	-4.1458	-5.3187	-4.4042	-4.5625	-4.8896	-3.9479	-4.9104	-18.075	-19.724	-9.560	-61.925	144.027	223.864	129.110	173.267	62.016	172.079	-23.548	244.536	198.117	263.092	274.603	208.408	0.00077132	0.00030212	9.2036e-05	565.02	3.1092e-06	4.6436e-06	726.75	182.83	5.6439e-06	4.1814e-06	280.26	121.52	69.138	31.78	2.8399e-06	63.355	0.00017328	0.00013103	3.6673e-05	581.23	1.4663e-06	1.4201e-06	750.08	189.35	1.4706e-06	1.4118e-06	290.48	126.33	72.064	33.279	1.4398e-06	65.837	53.489	-6.564	3.815	-67.008	83.049	63.439	-67.810	-61.603	52.118	68.204	-62.069	-57.113	-56.077	-50.583	51.414	-52.706	-8191	255	
52863.090	1	1	0	0	0.30905	0.030079	0.10558	0.10726	0.14175	0.18542	0.25649	0.037142	0.045041	0.045069	0.13926	0.012241	0.21729	0.11389	0.051803	0.037442	-4.35	-4.0708	-5.0146	-4.3	-4.5042	-5.0146	-4.3396	-4.9083	-4.7354	-4.1312	-5.2	-4.7083	-4.5	-5.2271	-4.3104	-4.8104	119.924	-72.055	34.078	-17.574	-35.353	-76.954	228.164	231.129	206.289	-46.753	251.008	71.987	42.373	214.056	232.469	204.161	0.00083924	0.00036601	7.9669e-05	561.11	5.2459e-06	2.8162e-06	724.79	182.46	4.7377e-06	2.3138e-06	282.5	121.69	69.742	31.757	2.7862e-06	63.167	0.00017311	0.00013094	3.6195e-05	580.1	1.4496e-06	1.3878e-06	748.72	188.86	1.4547e-06	1.4152e-06	291.13	126.51	72.271	33.266	1.4734e-06	65.826	47.574	24.791	-22.608	-67.309	39.380	58.635	-67.669	-61.584	32.073	66.621	-62.228	-56.944	-56.332	-50.690	73.453	-52.673	-8191	255	
52863.184	1	1	0	0	0.18803	0.20246	0.055564	0.15438	0.22489	0.072581	0.11118	0.17585	0.042956	0.18562	0.20604	0.13611	0.14045	0.086365	0.23147	0.11974	-4.5938	-4.0813	-5.0479	-4.5417	-4.1708	-5.0896	-4.1875	-4.8958	-4.9979	-4.2146	-5.1667	-4.6146	-4.3	-5.125	-4.2125	-4.6479	111.856	47.703	-22.701	210.886	173.891	182.262	197.226	147.133	267.420	216.411	207.549	170.663	257.767	-50.057	165.267	-44.294	0.0007855	0.00031573	0.00010162	562.72	5.447e-06	5.1144e-06	729.39	182.4	3.3244e-06	2.6642e-06	282.98	122.1	68.794	31.59	3.2845e-06	63.408	0.00017341	0.00013234	3.6162e-05	580.22	1.4772e-06	1.4022e-06	750.27	189.03	1.4635e-06	1.4119e-06	291.36	126.45	71.758	33.128	1.4571e-06	65.805	55.445	-7.129	-7.205	-67.308	9.613	77.698	-67.725	-61.961	10.875	65.215	-62.384	-57.069	-56.303	-50.431	84.833	-52.534	-8191	255	
52863.277	1	1	0	0	0.049238	0.059502	0.12006	0.13748	0.073954	0.27312	0.30174	0.070498	0.021892	0.098304	0.1265	0.13063	0.098111	0.28182	0.036872	0.10491	-4.6271	-4.2583	-4.85	-4.6229	-4.1583	-4.9417	-4.3958	-4.525	-4.8167	-4.0042	-5.1167	-4.8271	-4.1333	-5.2438	-4.2312	-4.4708	60.715	79.556	107.961	164.206	38.332	39.889	200.155	73.885	-22.119	14.923	158.316	167.291	246.017	-65.006	104.065	157.378	0.00080168	0.00026044	9.8759e-05	562.47	3.0234e-06	4.04e-06	726.66	183.15	1.0438e-06	5.2116e-06	280.46	121.05	68.775	31.721	2.2838e-06	62.766	0.00017166	0.00012706	3.6283e-05	580.01	1.4314e-06	1.3749e-06	749.44	189.14	1.4382e-06	1.4085e-06	290.69	125.81	71.774	33.013	1.4725e-06	65.264	52.464	18.968	21.024	-67.103	8.127	90.894	-67.666	-61.711	71.863	56.428	-62.436	-57.129	-56.381	-50.523	79.785	-52.733	-8191	255	
52863.375	1	1	0	0	0.064612	0.13188	0.10672	0.039981	0.099064	0.10842	0.13911	0.17145	0.29	0.14954	0.13619	0.19833	0.020043	0.12853	0.2226	0.22497	-4.7958	-4.1312	-4.8313	-4.9792	-4.1646	-5.1292	-4.6042	-4.3583	-5.1438	-3.95	-4.8792	-4.8438	-4.0896	-5.2	-4.6979	-4.5479	15.900	190.094	142.962	191.138	265.257	249.605	147.258	44.503	226.117	225.440	204.568	243.613	-39.072	121.742	130.324	239.240	0.00077416	0.00026307	5.1942e-05	563.11	2.6785e-06	4.3463e-06	726.78	183.16	2.0264e-06	3.8763e-06	281.85	121.26	68.551	31.799	2.5974e-06	63.001	0.00016686	0.00013209	3.7088e-05	578.7	1.4228e-06	1.4053e-06	747.54	189.11	1.4206e-06	1.4496e-06	290.9	126.01	71.546	33.118	1.4515e-06	65.585	59.609	-2.591	6.563	-66.917	55.439	61.560	-67.578	-61.723	50.352	78.923	-61.957	-57.078	-56.411	-50.685	51.248	-52.593	-8191	255	
52863.473	1	1	0	0	0.10208	0.058292	0.094711	0.11408	0.19632	0.13451	0.20612	0.045745	0.15743	0.13451	0.021622	0.21365	0.23978	0.040078	0.14516	0.11345	-4.925	-4.1542	-4.5583	-4.9458	-4.1125	-5	-4.5854	-4.1396	-5.15	-4.1875	-4.5854	-4.9021	-4.1604	-5.0167	-4.6542	-4.4	222.362	-40.012	-25.734	177.268	250.974	119.588	123.094	62.156	110.682	133.008	217.122	209.818	7.601	213.647	-29.422	-34.746	0.00074805	0.00021425	9.6117e-05	566.41	4.7155e-06	3.355e-06	728.63	182.56	2.5933e-06	2.5203e-06	284.13	121.34	69.112	31.825	3.1149e-06	63.187	0.00017135	0.00013153	3.7622e-05	581.45	1.4511e-06	1.4261e-06	750.57	189.52	1.4193e-06	1.4607e-06	292.32	126.29	71.954	33.15	1.498e-06	65.745	56.645	19.838	10.576	-67.064	39.496	41.067	-67.465	-61.801	37.536	49.053	-62.465	-57.038	-56.431	-51.061	61.261	-52.594	-8191	255	
52863.566	1	1	0	0	0.14385	0.07036	0.14243	0.04287	0.2681	0.14495	0.14528	0.1885	0.24292	0.042133	0.42974	0.060932	0.090701	0.042872	0.17859	0.15684	-4.7063	-4.3542	-4.4729	-5.025	-3.975	-4.9208	-4.7896	-4.1875	-4.9271	-4.4896	-4.4229	-5.1979	-4.2438	-4.8083	-4.7562	-4.2479	88.812	177.170	12.775	80.500	-12.905	37.451	200.266	221.766	53.274	241.264	233.312	122.343	11.314	-58.970	272.854	169.262	0.00074592	0.00045142	9.0323e-05	566.38	3.8788e-06	4.8571e-06	725.9	183.28	3.8298e-06	3.0026e-06	283.33	121.09	69.052	31.688	3.9435e-06	63.121	0.00017319	0.00013801	3.7472e-05	581.43	1.4717e-06	1.4149e-06	751.42	189.67	1.4403e-06	1.4421e-06	291.82	126.09	71.84	33.143	1.4275e-06	65.672	45.977	6.199	14.067	-67.381	66.220	62.778	-67.612	-61.827	0.318	43.987	-62.367	-57.327	-56.382	-50.846	57.134	-52.498	-8191	255	
52863.688	1	1	0	0	0.16399	0.17391	0.048105	0.22007	0.12854	0.037767	0.17508	0.01811	0.12166	0.086292	0.079518	0.19622	0.12389	0.11413	0.13814	0.46288	-4.7146	-4.4563	-4.2854	-5.1625	-4.3562	-4.6521	-4.8625	-4.2458	-5.0375	-4.5667	-4.3542	-5.3479	-4.2562	-4.8063	-4.9042	-4.1708	252.654	1.846	123.817	-37.900	235.570	6.972	95.812	-50.840	255.014	-3.955	268.090	254.189	194.363	-9.152	-49.906	216.529	0.0007343	0.00043673	9.5034e-05	561.6	3.5743e-06	3.5371e-06	732.69	182.8	4.4632e-06	5.0993e-06	280.88	121.74	68.637	31.485	4.0048e-06	62.659	0.00017277	0.00013518	3.7681e-05	579.63	1.4594e-06	1.4011e-06	751.74	189.34	1.4515e-06	1.4106e-06	291.62	126	71.621	32.905	1.4592e-06	65.269	52.013	21.619	41.159	-67.185	14.424	36.326	-67.445	-61.654	29.956	63.321	-62.518	-57.012	-56.353	-50.737	69.569	-52.453	-8191	255	
52863.785	1	1	0	0	0.25813	0.095137	0.2322	0.23148	0.063285	0.11091	0.19899	0.083213	0.081431	0.25673	0.051344	0.16442	0.18288	0.12437	0.10833	0.088296	-4.8083	-4.7583	-4.325	-5.2521	-4.1438	-4.5729	-5.2312	-4.2854	-4.7979	-4.7	-4.3063	-5.1188	-4.2188	-4.6771	-4.9792	-4.2063	272.772	76.782	-49.300	245.984	-9.107	125.196	246.419	94.724	157.359	239.959	178.780	233.263	218.594	144.020	254.564	-3.966	0.00079479	0.00031538	9.6174e-05	563.77	2.8303e-06	3.5445e-06	728.7	182.58	3.272e-06	5.2251e-06	281.42	121.75	68.855	31.346	2.7465e-06	62.368	0.0001738	0.0001275	3.7017e-05	579.85	1.4748e-06	1.4506e-06	750.43	189.32	1.4316e-06	1.4247e-06	291.27	125.67	71.678	32.952	1.4023e-06	65.192	54.004	-3.002	15.318	-67.287	39.949	63.442	-67.469	-62.026	-6.387	76.505	-62.392	-57.172	-56.252	-50.650	82.402	-52.552	-8191	255	
52863.879	1	1	0	0	0.17446	0.27533	0.25329	0.18421	0.066467	0.079374	0.21453	0.044279	0.095434	0.18791	0.16993	0.13432	0.062291	0.21756	0.21477	0.049598	-4.6583	-4.7562	-4.2438	-5.2042	-4.4896	-4.5583	-5.2438	-4.2479	-4.7979	-4.9062	-4.2167	-5.1896	-4.5396	-4.3854	-5.0667	-4.3292	-72.017	-71.770	263.258	172.950	16.869	229.843	148.385	107.323	194.387	-57.746	29.004	240.921	-11.621	212.497	116.478	-22.573	0.00078879	0.00039727	9.1463e-05	560.17	4.1158e-06	3.8075e-06	728.09	183.54	1.465e-07	3.9886e-06	282.78	121.51	68.823	31.4	4.2495e-06	62.578	0.00017538	0.00013062	3.6254e-05	577.96	1.4319e-06	1.4172e-06	749.39	189.24	1.4736e-06	1.4068e-06	291.35	126.16	71.688	32.947	1.4231e-06	65.296	49.066	8.194	5.634	-67.222	26.163	77.782	-67.513	-61.849	150.263	79.027	-62.421	-57.167	-56.239	-50.840	68.120	-52.423	-8191	255	
52863.977	1	1	0	0	0.1811	0.19943	0.10182	0.12485	0.083385	0.18873	0.19093	0.21102	0.028736	0.079607	0.28332	0.14381	0.12817	0.045281	0.046878	0.085968	-4.5625	-5.0792	-4.1896	-5.1687	-4.5875	-4.3854	-5.1646	-4.3313	-4.6396	-5.0583	-4.1042	-4.95	-4.7208	-4.2958	-5.0458	-4.375	89.670	222.944	25.424	69.023	102.480	126.297	-60.769	246.616	-52.914	5.432	221.736	157.113	-42.613	161.785	1.707	134.910	0.00086833	0.00028735	0.00011553	565.2	6.2943e-06	2.9962e-06	729.97	182.66	3.5794e-06	2.2455e-06	282.58	121.6	68.673	31.475	4.3027e-06	62.373	0.00017355	0.00012714	3.5685e-05	580.95	1.4597e-06	1.4515e-06	749.92	189.53	1.4855e-06	1.4148e-06	291.38	126.26	71.798	32.95	1.4353e-06	65.205	49.904	22.823	23.289	-67.464	42.535	56.948	-67.416	-61.766	1.636	24.418	-62.512	-57.617	-56.613	-50.780	78.905	-52.633	-8191	255	
52864.094	1	1	0	0	0.070212	0.245	0.10877	0.093721	0.18548	0.14229	0.19061	0.091406	0.14112	0.1502	0.21901	0.022306	0.20233	0.19655	0.11464	0.14983	-4.2896	-5.0167	-4.0792	-4.9875	-4.7458	-4.3708	-5.35	-4.4479	-4.525	-4.9708	-4.2167	-4.9875	-4.9917	-4.2771	-5.1479	-4.5604	3.119	196.852	-51.980	-70.713	194.843	-26.350	254.698	90.604	203.345	90.636	230.739	-16.473	176.498	197.229	252.354	97.438	0.00069875	0.00032078	0.00013537	563.6	3.3458e-06	2.465e-06	730.23	183.17	3.8251e-06	4.6028e-06	282.72	122.01	68.828	31.602	3.7387e-06	62.911	0.00017614	0.00012942	3.6773e-05	579.86	1.4562e-06	1.4735e-06	751.71	189.72	1.4631e-06	1.4394e-06	292.36	126.79	72.006	33.128	1.4435e-06	65.721	59.010	6.307	1.286	-67.157	59.941	91.626	-67.670	-61.795	41.726	74.879	-62.277	-57.237	-56.110	-50.587	57.109	-52.714	-8191	255	
52864.168	1	1	0	0	0.17505	0.082659	0.18047	0.12425	0.10063	0.089762	0.14446	0.078498	0.16519	0.13818	0.10859	0.14974	0.27981	0.28673	0.11372	0.1293	-4.1646	-5.1583	-4.2854	-4.8542	-4.8646	-4.1958	-5.2667	-4.5646	-4.3521	-5.1479	-4.2	-4.7542	-5.0417	-4.1667	-5.0312	-4.4771	-24.220	90.329	-13.123	191.070	-7.021	134.069	185.658	62.661	225.683	21.218	259.531	-69.782	189.605	235.512	-21.479	71.587	0.00078382	0.00020787	0.00011299	565.77	6.413e-06	5.0691e-06	730.43	182.82	4.3895e-06	4.1647e-06	282.32	121.83	68.826	31.64	3.3329e-06	62.987	0.00017652	0.000127	3.7717e-05	582.26	1.4761e-06	1.4342e-06	752.75	189.71	1.4952e-06	1.4073e-06	291.36	126.28	72.023	33.079	1.4546e-06	65.506	52.471	23.352	18.908	-67.453	47.928	52.952	-67.671	-61.845	64.270	78.726	-62.222	-57.210	-56.570	-50.779	45.674	-52.346	-8191	255	
52864.262	1	1	0	0	0.28799	0.06648	0.3187	0.20995	0.22706	0.14585	0.15731	0.063091	0.17728	0.095439	0.061518	0.17143	0.10451	0.079783	0.14347	0.061081	-3.9125	-5.1312	-4.0604	-4.7708	-4.8854	-3.975	-5.1375	-4.6521	-4.1125	-5.1937	-4.3792	-4.7667	-5.0542	-4.0167	-4.7667	-4.8667	-33.361	29.656	-37.901	-18.138	-3.071	236.990	215.818	9.946	-2.829	31.689	191.937	-70.387	-78.891	197.635	139.096	169.649	0.00074201	0.00023284	0.00011702	567.01	2.3708e-06	3.7361e-06	729.7	183.01	2.6852e-06	4.5706e-06	283.15	121.25	68.773	31.606	3.8454e-06	62.808	0.00017407	0.00013052	3.7172e-05	581.22	1.4467e-06	1.4455e-06	751.6	189.26	1.4724e-06	1.3888e-06	291.65	126.13	71.924	33.043	1.4419e-06	65.419	55.520	-2.255	17.858	-67.101	42.588	54.340	-67.599	-61.554	47.776	66.634	-62.381	-57.355	-56.410	-50.558	126.917	-52.369	-8191	255	
52864.359	1	1	0	0	0.20775	0.16562	0.13041	0.19414	0.10954	0.035912	0.14958	0.079823	0.15825	0.17716	0.12526	0.26159	0.0077051	0.18386	0.012097	0.18746	-3.9292	-4.9771	-4.2271	-4.5437	-4.9771	-4.0458	-4.9333	-4.9583	-4.1667	-5.0687	-4.4417	-4.4479	-5.1271	-4.1792	-4.7167	-4.9229	104.555	-43.673	112.109	185.001	72.610	212.387	277.787	257.704	54.577	-72.805	77.791	224.796	237.363	240.548	141.606	175.558	0.00071941	0.00041172	0.00011228	562.69	5.768e-06	3.1429e-06	730.01	182.99	1.9197e-06	3.7697e-06	284.39	122.32	69.474	31.658	3.7143e-06	63.05	0.00017472	0.00013087	3.792e-05	580.51	1.4127e-06	1.4619e-06	753.28	190.12	1.4343e-06	1.3889e-06	292.58	126.94	72.34	33.3	1.4449e-06	65.85	53.278	-5.274	41.676	-67.131	32.810	95.715	-67.575	-61.720	-6.576	74.110	-62.152	-57.253	-56.485	-50.521	112.287	-52.207	-8191	255	
52864.480	1	1	0	0	0.14324	0.23783	0.055658	0.30254	0.067925	0.17047	0.18234	0.24009	0.19575	0.020843	0.36491	0.41272	0.14173	0.10514	0.096114	0.1853	-3.8187	-5.0417	-4.45	-4.4437	-5.0125	-4.2396	-4.9062	-4.9208	-4.1188	-4.9604	-4.6667	-4.3354	-5.2354	-4.3458	-4.6833	-4.9167	132.434	84.645	53.734	276.272	242.982	195.981	154.971	74.007	-46.902	273.330	233.074	-36.518	270.024	-4.053	-40.012	237.181	0.00071736	0.00041706	8.7219e-05	565.53	1.9607e-06	3.3803e-06	735.52	182.96	3.2687e-06	4.1467e-06	282.65	121.62	69.674	31.808	3.0774e-06	63.049	0.00018157	0.00013455	3.7895e-05	583.67	1.3951e-06	1.4429e-06	754.6	189.97	1.5113e-06	1.473e-06	293.07	126.66	72.368	33.235	1.5048e-06	65.714	50.284	40.951	0.799	-67.365	37.076	43.164	-67.786	-61.618	29.195	82.167	-62.306	-57.213	-56.251	-50.594	48.707	-52.594	-8191	255	
52864.574	1	1	0	0	0.18521	0.083135	0.12889	0.14171	0.12323	0.36473	0.13535	0.070728	0.09728	0.12534	0.11168	0.049015	0.058418	0.084623	0.11982	0.22752	-3.7958	-4.8812	-4.5188	-4.3604	-5.0188	-4.3333	-4.7	-5.1083	-4.05	-4.9125	-4.8979	-4.2729	-5.0125	-4.2396	-4.3375	-5.0938	226.026	122.814	-48.297	137.529	-6.026	34.916	215.546	279.096	175.122	194.251	157.001	-20.848	-43.473	-60.582	-41.262	203.862	0.00079736	0.00036514	0.00011652	563.42	6.066e-06	2.9585e-06	730.25	183.62	2.4935e-06	3.0369e-06	285.02	121.68	68.932	31.864	3.0306e-06	63.099	0.00017734	0.00013322	3.5904e-05	581.3	1.4617e-06	1.5056e-06	753.02	190.36	1.4748e-06	1.4135e-06	292.6	126.67	72.187	33.236	1.4485e-06	65.622	52.880	6.899	4.416	-67.269	46.299	54.121	-67.683	-61.565	12.007	105.161	-62.184	-57.492	-56.229	-50.468	73.408	-52.401	-8191	255	
52864.672	1	1	0	0	0.13892	0.24948	0.14347	0.060644	0.14265	0.32292	0.083904	0.052066	0.16681	0.086154	0.047879	0.22723	0.045019	0.32719	0.19458	0.1101	-3.8396	-4.7937	-4.7771	-4.2604	-5.0958	-4.4104	-4.5188	-5.1646	-4.2271	-4.7167	-4.8208	-4.2	-5.0354	-4.4771	-4.475	-5.1937	-75.707	20.650	-28.946	-16.443	104.521	184.578	-24.043	-24.564	45.052	22.180	-7.586	263.407	204.275	237.302	22.628	215.771	0.00075342	0.00042244	0.00010583	563.6	3.4418e-06	4.0362e-06	729.63	182.88	4.067e-06	2.7308e-06	282.5	121.67	69.679	31.694	2.1745e-06	63.035	0.00017393	0.00013552	3.6781e-05	580.9	1.4313e-06	1.4375e-06	752.45	190.16	1.537e-06	1.4408e-06	291.83	126.47	72.363	33.198	1.4856e-06	65.536	51.714	8.647	-6.599	-67.293	42.322	67.354	-67.753	-61.668	38.273	83.250	-62.472	-57.188	-55.843	-50.751	44.807	-52.342	-8191	255	
52864.770	1	1	0	0	0.31625	0.064211	0.109	0.30045	0.29551	0.060796	0.16813	0.045807	0.27404	0.16947	0.074391	0.11578	0.23814	0.14388	0.2612	0.15179	-3.7271	-4.7542	-5.0167	-4.2229	-5.1687	-4.4563	-4.2771	-5.1375	-4.0188	-4.7042	-5.0979	-4.1583	-4.8708	-4.5646	-4.275	-5.2083	125.819	234.280	140.779	250.728	193.676	76.222	198.683	94.918	38.364	160.320	107.083	-5.101	267.180	144.356	250.531	23.690	0.00076091	0.00031951	8.8715e-05	564.69	3.1916e-06	3.8267e-06	730.57	183.52	1.9442e-06	3.45e-06	284.1	122.2	69.472	31.989	3.9263e-06	63.351	0.000176	0.00013248	3.5438e-05	581.46	1.4524e-06	1.4251e-06	752.96	190.12	1.4835e-06	1.4614e-06	292.8	126.79	72.528	33.432	1.4669e-06	65.878	56.089	18.852	-14.593	-67.231	4.333	60.999	-67.756	-61.450	-20.119	66.698	-62.186	-57.172	-56.608	-50.532	76.026	-52.524	-8191	255	
52864.863	1	1	0	0	0.10637	0.09709	0.096317	0.041591	0.26113	0.17455	0.20829	0.27415	0.21613	0.2634	0.09572	0.10046	0.12078	0.11162	0.094941	0.29054	-4.0104	-4.4604	-4.9083	-4.1604	-4.8104	-4.7229	-4.4167	-5.0563	-4.2792	-4.3375	-5.0813	-4.0813	-4.7979	-4.9104	-4.2146	-5.0854	118.895	221.724	-24.066	218.981	260.400	-63.903	196.594	243.296	68.876	93.092	178.099	240.620	-79.105	246.683	200.274	235.758	0.00083793	0.00027631	0.00015544	566.35	7.4864e-06	3.5146e-06	732.42	184.02	2.6377e-06	1.8907e-06	284.08	122.09	69.356	32.18	5.1188e-06	63.544	0.00017754	0.00013002	3.5601e-05	583.32	1.4464e-06	1.4561e-06	756.46	190.66	1.5031e-06	1.4631e-06	292.92	127	72.533	33.558	1.4843e-06	66.242	48.543	6.041	4.046	-67.263	75.428	78.161	-67.779	-61.495	82.185	57.764	-62.283	-57.418	-56.143	-50.646	76.957	-52.853	-8191	255	
52864.961	1	1	0	0	0.18229	0.24574	0.17421	0.092113	0.099642	0.11576	0.21255	0.08146	0.3802	0.2831	0.061325	0.32817	0.10485	0.1694	0.1257	0.026302	-4.0062	-4.2521	-5.0271	-4.1062	-4.6	-4.6354	-4.1625	-5.0104	-4.4875	-4.3542	-5.0687	-4.1312	-4.7688	-4.7521	-4.0167	-5.0563	-36.528	71.447	-76.648	213.869	-72.921	240.071	253.702	202.004	206.806	-8.805	-6.530	255.087	212.534	200.393	70.454	122.639	0.00070707	0.00033449	0.00012367	567.91	2.7041e-06	2.7819e-06	735.69	184.07	1.8635e-06	1.6079e-06	283.13	122.46	69.009	31.855	2.8e-06	63.047	0.00017635	0.00013403	3.6124e-05	586.05	1.4714e-06	1.4657e-06	757.88	190.58	1.516e-06	1.4465e-06	292.31	126.76	72.189	33.326	1.4803e-06	65.736	56.293	39.715	-1.854	-67.361	51.211	66.554	-67.944	-61.817	36.937	56.096	-62.402	-57.214	-56.645	-51.039	102.105	-52.852	-8191	255	
52865.055	1	1	0	0	0.20458	0.10049	0.14284	0.20776	0.086888	0.10584	0.18082	0.11082	0.24393	0.15223	0.31991	0.16978	0.19957	0.056018	0.16608	0.036533	-4.2417	-4.2521	-4.9604	-4.3646	-4.5146	-4.8646	-4.15	-5.0354	-4.5729	-4.225	-5.2583	-4.2146	-4.6	-5.1687	-3.9875	-5.0667	-22.549	75.888	154.313	237.534	107.842	227.425	209.509	-35.646	35.626	260.869	197.641	-54.726	172.545	-12.861	179.798	134.213	0.00073606	0.00031251	9.7486e-05	567.81	4.661e-06	4.2464e-06	734.98	183.62	4.1622e-06	4.6742e-06	282.84	120.72	68.996	31.8	4.569e-06	62.882	0.00017481	0.00013164	3.6488e-05	583.83	1.4402e-06	1.3928e-06	755.46	189.85	1.4746e-06	1.4425e-06	291.08	125.91	71.991	33.302	1.5315e-06	65.366	53.607	39.120	1.058	-67.263	3.893	63.844	-67.639	-61.859	58.912	71.921	-62.331	-57.026	-56.293	-50.414	59.676	-52.617	-8191	255	
52865.176	1	1	0	0	0.072672	0.09306	0.098633	0.24322	0.018016	0.014898	0.18466	0.082977	0.077533	0.089415	0.1263	0.18432	0.30765	0.10801	0.17753	0.19997	-4.5062	-4.1417	-5.1188	-4.4812	-4.5188	-5.0854	-4.15	-4.9271	-4.8292	-4.0542	-5.0333	-4.4313	-4.3167	-5.1875	-4.2458	-4.8083	88.129	53.562	-2.023	274.706	-20.534	201.314	155.786	250.968	172.556	47.062	233.762	222.352	237.406	177.226	-20.970	246.167	0.00074589	0.00033611	0.00015485	565.19	2.2159e-06	1.516e-06	732	183.59	3.5334e-06	3.5964e-06	280.95	121.55	68.983	31.792	3.3584e-06	62.829	0.00017921	0.00013171	3.6382e-05	582.58	1.4848e-06	1.3816e-06	754.32	189.76	1.4269e-06	1.3884e-06	290.16	125.92	71.863	33.227	1.4813e-06	65.433	51.792	-22.452	14.378	-67.315	57.779	69.596	-67.727	-61.793	46.621	43.151	-62.143	-57.232	-56.355	-50.617	60.976	-52.747	-8191	255	
52865.270	1	1	0	0	0.12811	0.18684	0.12632	0.13464	0.22963	0.10744	0.27454	0.093777	0.098136	0.20268	0.10223	0.22741	0.14253	0.10139	0.19544	0.1638	-4.5917	-4.0375	-4.9812	-4.6292	-4.2521	-5.0458	-4.3167	-4.7021	-4.9646	-4.1312	-5	-4.5479	-4.3417	-4.9875	-4.1396	-4.6917	263.002	24.066	-72.101	-50.215	-48.228	-29.249	-7.682	109.080	122.363	-60.852	229.689	219.376	51.507	198.969	80.435	142.560	0.00069304	0.00033933	0.00010923	568.86	5.8028e-06	5.3133e-06	731.77	183.43	3.8371e-06	4.6212e-06	281.46	121.65	68.976	31.774	4.0441e-06	62.841	0.00017197	0.00013098	3.7189e-05	584.04	1.4456e-06	1.4213e-06	755.18	189.73	1.4143e-06	1.4479e-06	290.46	126.13	71.953	33.354	1.5023e-06	65.551	54.640	13.460	-8.343	-67.280	28.649	82.909	-67.720	-61.908	0.267	42.536	-62.639	-57.066	-56.312	-50.795	72.756	-52.887	-8191	255	
52865.367	1	1	0	0	0.089969	0.14825	0.043578	0.1791	0.09168	0.30706	0.30856	0.076186	0.23825	0.18781	0.27248	0.13183	0.024014	0.16036	0.097679	0.13728	-4.6896	-4.0583	-4.9104	-4.6042	-4.1208	-5.125	-4.4146	-4.6354	-4.9646	-3.95	-5.0271	-4.5687	-4.1	-5.1646	-4.2917	-4.5437	-9.681	211.854	34.319	123.274	-9.676	-57.631	110.620	153.602	-29.676	241.375	-33.906	53.642	275.710	266.837	217.733	215.736	0.00079072	0.00035314	7.0009e-05	563.97	5.1689e-06	5.0437e-06	732.39	183.72	3.3996e-06	6.4112e-06	281	121.74	69.32	31.758	3.6412e-06	62.667	0.00017344	0.0001354	3.7053e-05	581.97	1.4429e-06	1.4333e-06	755.98	189.68	1.4342e-06	1.4295e-06	291.22	126.21	71.97	33.229	1.5352e-06	65.472	53.125	-3.716	-3.251	-67.222	52.942	62.282	-67.442	-61.835	36.141	67.597	-62.511	-57.383	-56.260	-50.785	56.485	-52.667	-8191	255	
52865.465	1	1	0	0	0.16776	0.14288	0.10292	0.022613	0.067614	0.24545	0.26964	0.11724	0.15388	0.032046	0.22479	0.12398	0.1326	0.21383	0.048909	0.11441	-4.7812	-4.1375	-4.6875	-4.8667	-4.2	-5.0896	-4.5229	-4.4479	-4.9104	-4.1125	-4.8896	-4.9146	-4.2063	-4.9833	-4.5833	-4.5146	-34.059	173.220	135.590	-3.073	191.787	78.646	205.607	115.576	31.342	35.549	217.889	105.349	194.130	-21.387	234.976	-48.139	0.00074192	0.0003335	9.2095e-05	565.8	5.4826e-06	4.8606e-06	730.63	182.69	2.0708e-06	3.4477e-06	280.77	121.38	68.45	31.58	3.1444e-06	62.674	0.00017014	0.00013142	3.6601e-05	581.66	1.4396e-06	1.4164e-06	753.44	189.12	1.4022e-06	1.4365e-06	290.28	125.7	71.691	33.144	1.4682e-06	65.346	55.044	0.360	-4.846	-67.097	55.029	53.568	-67.495	-61.898	67.197	64.859	-62.512	-57.108	-56.426	-50.775	71.937	-52.579	-8191	255	
52865.559	1	1	0	0	0.10525	0.30943	0.19468	0.12554	0.11696	0.059216	0.060629	0.081195	0.12843	0.063049	0.081388	0.22441	0.1012	0.065411	0.013166	0.14719	-4.7083	-4.1229	-4.7146	-4.8229	-4.1375	-4.9729	-4.6333	-4.4812	-5.1188	-4.2125	-4.6479	-4.9646	-4.125	-5.0521	-4.7229	-4.375	104.315	73.429	-18.948	267.476	-34.671	-72.631	256.710	-47.711	-15.633	213.887	211.403	121.251	241.851	74.728	274.182	18.286	0.00078804	0.00031887	7.5134e-05	562.94	3.8812e-06	3.3082e-06	727.03	181.86	2.2518e-06	5.098e-06	279.79	121.57	68.728	31.719	2.0089e-06	62.767	0.00017099	0.00013443	3.6305e-05	581.08	1.4491e-06	1.4469e-06	750.59	188.99	1.4431e-06	1.4511e-06	289.48	125.84	71.822	33.314	1.4646e-06	65.399	54.150	15.778	18.940	-67.345	36.867	67.954	-67.487	-61.764	51.982	65.062	-62.279	-57.310	-56.266	-50.657	39.009	-52.415	-8191	255	
52865.656	1	1	0	0	0.16962	0.1491	0.034907	0.062508	0.21008	0.15733	0.061088	0.10001	0.10567	0.085085	0.19569	0.13775	0.094299	0.084022	0.31888	0.097233	-4.8187	-4.2521	-4.3729	-5.0021	-4.0458	-4.9604	-4.6667	-4.1146	-5.0146	-4.4563	-4.5458	-5.0104	-4.0938	-4.7625	-4.7375	-4.1625	91.878	-58.257	57.866	-41.362	238.445	166.091	73.112	211.475	122.686	84.681	257.521	268.011	-43.977	179.005	46.188	186.337	0.00075209	0.00036992	8.6031e-05	562.04	4.1775e-06	3.7922e-06	730.04	181.95	3.3665e-06	4.8142e-06	282.24	121.38	68.69	31.773	2.4869e-06	63.166	0.00017132	0.00013361	3.6294e-05	580.31	1.46e-06	1.397e-06	752.58	189.06	1.4321e-06	1.4521e-06	291.06	126.11	71.959	33.271	1.4349e-06	65.514	55.724	17.945	15.713	-66.873	51.204	71.606	-67.575	-61.602	-4.142	77.999	-62.373	-57.164	-56.559	-50.804	82.629	-52.565	-8191	255	
52865.777	1	1	0	0	0.18681	0.039399	0.21169	0.12081	0.32025	0.098193	0.16304	0.12816	0.21427	0.17248	0.097951	0.13872	0.20101	0.14951	0.19318	0.19438	-4.8771	-4.35	-4.3313	-5.0417	-4.1146	-4.7312	-4.9646	-4.0375	-5.0062	-4.5062	-4.475	-5.1312	-4.2271	-4.6271	-4.9292	-4.3146	104.025	-32.294	120.059	121.456	99.878	78.871	1.937	87.869	236.280	171.938	-55.790	-21.891	-28.935	78.123	68.011	196.401	0.00081876	0.00027113	0.00014378	562.15	3.2449e-06	5.3709e-06	728.73	183.72	3.7736e-06	2.6639e-06	281.94	121.28	69.283	32.004	3.8809e-06	63.151	0.00017733	0.00013596	3.6795e-05	580.17	1.4537e-06	1.4245e-06	751.07	189.82	1.4676e-06	1.422e-06	291.42	126.34	72.216	33.351	1.4345e-06	65.726	53.745	20.981	16.473	-67.259	47.391	50.950	-67.571	-61.785	28.048	68.968	-62.724	-57.116	-56.391	-50.786	47.751	-52.764	-8191	255	
52865.871	1	1	0	0	0.20047	0.1569	0.17058	0.1744	0.17813	0.11507	0.022654	0.21245	0.24199	0.23989	0.13731	0.22469	0.18351	0.059541	0.16163	0.078323	-4.75	-4.6375	-4.2771	-5.1542	-4.1167	-4.3458	-4.8812	-4.2438	-4.9896	-4.6333	-4.2438	-5.0875	-4.225	-4.4938	-4.95	-4.1458	262.165	121.010	52.681	107.565	-58.538	72.462	-20.959	252.833	272.891	105.013	244.330	237.671	60.881	-69.772	28.855	224.464	0.00068486	0.0003181	9.9768e-05	563.98	6.965e-06	3.857e-06	731.09	182.97	3.8704e-06	1.9816e-06	282.75	121.94	69.256	31.865	2.4733e-06	63.048	0.0001707	0.00013032	3.6887e-05	580.93	1.4941e-06	1.4363e-06	752.46	189.88	1.4373e-06	1.3569e-06	291.57	126.45	72.203	33.454	1.427e-06	65.7	49.888	-8.613	-8.786	-67.114	33.692	68.959	-67.426	-61.695	61.834	24.477	-62.293	-57.188	-56.721	-50.686	110.760	-52.693	-8191	255	
52865.969	1	1	0	0	0.29153	0.094744	0.034274	0.13345	0.079232	0.10647	0.05241	0.29422	0.10143	0.15209	0.24672	0.12884	0.16074	0.082597	0.010865	0.2283	-4.525	-4.8292	-4.0312	-5.1417	-4.2458	-4.2583	-5.1208	-3.8646	-4.6458	-4.7146	-4.0875	-5.0813	-4.3708	-4.4979	-4.875	-4.1167	-39.118	-42.036	-6.015	-24.810	12.957	250.938	272.226	243.922	252.693	78.658	152.042	145.938	98.073	135.979	-31.087	195.885	0.00076438	0.00045303	9.3189e-05	563.47	4.844e-06	3.6915e-06	730.44	182.94	4.5436e-06	1.1201e-06	281.62	121.67	69.403	31.859	4.8326e-06	63.026	0.00017367	0.00013031	3.6325e-05	580.26	1.4727e-06	1.4077e-06	751.95	189.8	1.4425e-06	1.3542e-06	291.14	126.34	72.459	33.395	1.4262e-06	65.597	51.322	16.503	12.688	-67.145	37.796	88.852	-67.737	-61.815	34.923	81.945	-62.689	-57.140	-56.496	-50.949	74.730	-52.450	-8191	255	
52866.039	1	1	0	0	0.32223	0.052259	0.23891	0.14979	0.094823	0.067285	0.22004	0.099708	0.17884	0.17635	0.065596	0.17402	0.12596	0.30918	0.11402	0.21945	-4.4958	-4.8313	-4.0833	-5.0292	-4.4229	-4.2812	-4.9583	-4.1292	-4.5062	-4.8354	-4.0396	-4.9688	-4.4646	-4.3812	-5.0687	-4.1396	49.532	272.688	109.116	95.530	150.781	227.482	248.294	245.688	251.415	190.180	150.111	17.926	98.174	-70.317	59.047	191.854	0.00077909	0.00036961	9.0036e-05	564.44	6.1659e-06	5.6471e-06	731.33	182.99	5.0574e-06	4.1994e-06	281.55	121.94	69.49	31.941	1.3076e-06	63.043	0.00017363	0.00012737	3.6351e-05	581.62	1.4536e-06	1.4049e-06	751.68	190.13	1.439e-06	1.4086e-06	291.48	126.63	72.614	33.513	1.4324e-06	65.79	49.628	16.502	-21.494	-67.410	51.373	68.542	-67.508	-62.182	18.182	56.202	-62.495	-57.114	-55.995	-50.973	21.318	-52.708	-8191	255	
52866.160	1	1	0	0	0.1989	0.12929	0.17485	0.070471	0.083398	0.21932	0.19773	0.048154	0.096375	0.029619	0.45	0.10002	0.086016	0.17699	0.049164	0.093457	-4.1958	-4.9812	-3.9958	-4.8833	-4.5146	-4.1375	-5.1625	-4.1979	-4.4688	-4.8542	-4.0125	-4.9396	-4.6833	-4.3063	-4.9146	-4.3458	157.574	161.242	184.626	-34.846	192.035	-8.246	274.969	-34.554	223.657	61.791	158.964	-25.097	42.040	70.758	-73.639	233.224	0.00081515	0.00042538	3.7379e-05	566.34	2.7738e-06	2.8844e-06	728.24	183.86	1.5656e-06	4.2751e-06	284.35	122.62	70.019	32.432	4.317e-06	63.351	0.00017638	0.00012967	3.6387e-05	581.88	1.4588e-06	1.4062e-06	752.72	190.61	1.4341e-06	1.3672e-06	292.61	127.43	72.9	33.817	1.4961e-06	66.331	51.821	16.266	3.640	-67.329	50.472	37.680	-67.469	-61.705	54.698	77.327	-62.560	-57.202	-56.287	-50.704	75.472	-52.562	-8191	255	
52866.258	1	1	0	0	0.029739	0.13161	0.12797	0.10992	0.053808	0.072333	0.082789	0.096168	0.16449	0.061732	0.26989	0.042404	0.16697	0.084109	0.050885	0.11958	-4.0854	-4.9083	-3.9604	-4.775	-4.7	-4.1104	-5.1479	-4.6708	-4.2292	-4.85	-4.0646	-4.7875	-4.7333	-4.2146	-5.0104	-4.6146	271.557	115.945	216.872	36.793	208.523	-69.347	254.757	34.656	6.591	44.800	-58.466	249.319	170.423	256.062	248.838	263.030	0.00080588	0.00033767	0.00012411	565.77	5.4862e-06	4.981e-06	732.54	184.19	3.6022e-06	4.5531e-06	286.42	123.11	70.654	32.366	3.0018e-06	63.677	0.00017358	0.00013268	3.6548e-05	582.66	1.4076e-06	1.4377e-06	755.32	190.94	1.4534e-06	1.3646e-06	294	127.83	73.276	33.846	1.4841e-06	66.35	57.935	5.293	14.227	-67.415	67.833	49.834	-67.733	-61.662	11.136	74.858	-62.493	-57.491	-56.000	-50.832	85.855	-52.582	-8191	255	
52866.352	1	1	0	0	0.21579	0.12826	0.14188	0.27244	0.015708	0.17244	0.19253	0.13659	0.13391	0.27273	0.23496	0.082499	0.022809	0.14514	0.049758	0.29166	-4.0437	-5.0375	-4.0896	-4.6146	-4.6792	-4.1708	-4.9062	-4.5687	-4.2188	-5.0104	-4.0938	-4.6021	-4.9458	-4.1104	-4.8938	-4.6208	255.628	47.829	192.900	-12.890	198.254	26.180	231.447	80.646	10.051	112.589	-51.946	-43.655	102.377	20.257	-45.328	203.902	0.00075254	0.00032686	8.24e-05	570.38	4.2219e-06	3.3392e-06	730.42	184.74	2.1558e-06	4.926e-06	283.24	122.28	69.874	32.069	2.8757e-06	63.463	0.00017451	0.00012978	3.6457e-05	583.42	1.4067e-06	1.4264e-06	754.94	191.22	1.4589e-06	1.3654e-06	292.38	127.15	72.996	33.746	1.4541e-06	66.048	54.452	6.471	-11.945	-67.176	44.644	62.119	-67.405	-61.609	38.125	80.348	-62.199	-57.354	-56.165	-51.001	71.640	-52.485	-8191	255	
52866.449	1	1	0	0	0.27059	0.21298	0.033475	0.1476	0.033808	0.042115	0.22218	0.086577	0.15667	0.33121	0.23484	0.033633	0.15852	0.2441	0.10294	0.16116	-3.8396	-5.0333	-4.225	-4.4167	-4.9625	-4.0208	-4.8938	-4.8771	-4.1312	-5.1729	-4.2917	-4.4062	-4.975	-4.1104	-4.7083	-4.8625	-62.447	3.392	215.048	-17.575	248.976	-76.685	257.874	160.056	0.072	39.037	6.699	135.182	37.247	203.116	-29.971	-66.640	0.00069952	0.0004067	6.8234e-05	565.3	3.9154e-06	5.1355e-06	732.42	183.25	2.7646e-06	4.4481e-06	283.23	122.44	70.124	32.471	3.6483e-06	63.771	0.00017127	0.00013103	3.6605e-05	582.55	1.4306e-06	1.463e-06	753.04	190.74	1.4892e-06	1.367e-06	292.3	127.44	73.058	33.916	1.5045e-06	66.369	46.622	21.638	30.325	-67.358	55.664	63.687	-67.528	-61.558	40.441	68.156	-62.286	-57.252	-56.370	-50.411	84.347	-52.659	-8191	255	
52866.570	1	1	0	0	0.14302	0.15997	0.14531	0.23058	0.14585	0.085502	0.14257	0.18429	0.05412	0.14547	0.15744	0.15863	0.32899	0.095777	0.076346	0.25161	-3.8917	-4.9771	-4.4917	-4.35	-5.0563	-4.2562	-5.0083	-4.8438	-4.2042	-4.9458	-4.4812	-4.3812	-5.0771	-4.325	-4.6958	-4.8958	38.764	-48.147	-47.595	197.392	262.258	40.235	190.687	165.494	237.651	72.305	-77.313	168.148	-57.301	158.874	254.926	215.365	0.00076788	0.00028164	0.00014998	568.97	5.6135e-06	5.4066e-06	733.69	184.45	3.6211e-06	4.1466e-06	284.32	122.29	70.566	32.511	2.2578e-06	63.811	0.00017509	0.0001337	3.6642e-05	582.28	1.4385e-06	1.4475e-06	754.49	190.86	1.4618e-06	1.3706e-06	293.3	127.63	73.301	33.942	1.4596e-06	66.374	56.411	15.620	17.823	-67.024	46.357	63.003	-67.741	-61.528	26.452	71.987	-62.620	-57.164	-56.216	-50.811	61.138	-52.616	-8191	255	
52866.641	1	1	0	0	0.37814	0.1926	0.2085	0.078379	0.19049	0.06424	0.065094	0.15905	0.13602	0.30853	0.018522	0.14142	0.071527	0.15623	0.058543	0.13903	-3.8479	-4.9062	-4.3896	-4.3313	-5.1458	-4.3313	-4.6542	-4.9167	-3.9979	-5.0188	-4.7354	-4.4292	-5.0729	-4.2125	-4.3771	-4.9396	19.049	26.482	49.980	-18.349	134.132	113.188	-44.528	234.831	-60.645	269.074	248.450	256.277	99.686	217.507	184.907	173.108	0.00082278	0.00038138	0.00012137	567.05	3.707e-06	2.9929e-06	736.76	185.41	2.932e-06	4.0219e-06	284.68	122.91	70.264	32.387	4.2881e-06	63.499	0.00017677	0.00013095	3.5425e-05	583.01	1.4303e-06	1.4087e-06	755.6	191.69	1.4907e-06	1.4291e-06	293.09	127.89	73.204	33.857	1.4306e-06	66.288	51.360	-2.158	2.550	-67.527	41.691	57.577	-67.822	-61.630	57.106	42.006	-62.357	-57.233	-56.331	-50.920	74.555	-52.745	-8191	255	
52866.734	1	1	0	0	0.061849	0.32714	0.035883	0.22341	0.034949	0.022467	0.13927	0.22068	0.22447	0.11639	0.12569	0.23341	0.12887	0.062736	0.07795	0.064668	-3.5667	-4.8688	-4.8063	-4.2833	-5.0146	-4.3292	-4.3667	-5.1604	-4.0667	-4.7417	-4.8396	-4.1896	-5.0083	-4.4208	-4.4083	-5.1	154.952	-67.401	127.567	-29.261	29.407	46.741	-34.894	251.628	-13.990	134.057	255.978	227.108	234.364	250.269	33.839	225.462	0.00083796	0.00044886	8.0182e-05	566.52	4.8955e-06	3.3159e-06	735.12	184.17	3.23e-06	6.1311e-06	284.19	121.96	69.785	32.177	2.7588e-06	63.31	0.00017722	0.00013263	3.572e-05	583.54	1.4224e-06	1.4289e-06	756.14	191.04	1.4691e-06	1.3881e-06	292.65	126.87	72.911	33.652	1.4301e-06	65.937	50.445	3.671	11.899	-67.361	66.835	83.253	-67.508	-61.579	70.795	52.371	-62.312	-57.569	-56.345	-50.706	68.890	-52.669	-8191	255	
52866.855	1	1	0	0	0.13672	0.1899	0.092211	0.201	0.043461	0.096785	0.2514	0.048559	0.019189	0.014796	0.14215	0.13467	0.12709	0.10052	0.095751	0.12018	-3.7708	-4.8542	-4.775	-4.1375	-5.0146	-4.525	-4.2208	-5.0938	-4.1875	-4.6125	-4.8667	-4.0042	-5.0146	-4.5583	-4.0083	-5.125	170.854	53.139	-9.240	200.935	235.957	33.082	209.546	17.237	60.241	60.948	276.336	-65.244	116.271	151.114	65.467	276.722	0.00076159	0.0002404	0.00012568	565.98	3.6906e-06	4.2554e-06	734.43	183.81	1.9667e-06	4.5099e-06	283.31	121.79	70.178	32.29	5.005e-06	63.02	0.0001793	0.00012623	3.6806e-05	582.83	1.4403e-06	1.4152e-06	754.71	190.36	1.472e-06	1.3803e-06	292.26	126.64	72.787	33.613	1.4406e-06	65.817	55.622	48.203	3.127	-67.458	26.452	71.770	-67.547	-62.004	37.177	81.844	-62.109	-56.936	-56.388	-50.522	72.311	-52.581	-8191	255	
52866.953	1	1	0	0	0.14866	0.2356	0.22386	0.20634	0.30172	0.14381	0.18961	0.18797	0.20292	0.071242	0.22517	0.1386	0.092129	0.14194	0.27315	0.20496	-3.9313	-4.5583	-4.9354	-4.1042	-4.7812	-4.5354	-4.2521	-5.1583	-4.125	-4.3958	-5.0917	-4.1125	-4.875	-4.7688	-4.0625	-5.0312	126.655	162.613	218.772	138.486	103.547	190.995	256.939	260.187	-67.108	-4.948	228.457	-39.642	186.824	19.383	264.232	222.845	0.00075345	0.00038229	0.00012185	564.14	2.1087e-06	4.6913e-06	731.06	183.19	3.058e-06	3.6295e-06	282.37	121.07	69.311	31.941	2.9926e-06	62.962	0.00017536	0.00013152	3.4971e-05	582	1.4123e-06	1.3879e-06	754.39	190.04	1.4433e-06	1.3626e-06	291.4	126.2	72.403	33.414	1.4029e-06	65.618	50.163	2.400	-16.730	-67.422	51.882	68.333	-67.664	-61.897	5.818	68.905	-62.341	-57.366	-56.548	-50.514	42.999	-52.544	-8191	255	
52867.051	1	1	0	0	0.17684	0.22281	0.061794	0.16729	0.11205	0.18737	0.10978	0.16053	0.18404	0.12571	0.11375	0.18027	0.15317	0.0725	0.2393	0.10748	-4.0312	-4.3292	-4.9167	-4.3688	-4.6917	-4.8833	-4.1771	-5.0062	-4.4271	-4.4125	-5.2	-4.1417	-4.8083	-4.925	-4.0083	-5.2063	215.243	248.208	-35.640	239.022	123.714	129.876	18.330	232.656	50.329	124.726	279.819	-4.392	-55.312	140.576	143.803	76.188	0.00076508	0.00019973	0.00013293	564.68	4.3077e-06	4.3012e-06	733.77	184.52	3.6256e-06	2.1806e-06	282.2	122.5	69.337	32.138	2.7826e-06	62.997	0.00017093	0.00012824	3.4836e-05	582.89	1.4155e-06	1.3579e-06	755.89	190.72	1.4279e-06	1.4168e-06	292.16	126.67	72.404	33.547	1.4623e-06	65.936	47.141	12.938	-5.333	-67.136	19.716	71.710	-67.929	-62.017	32.828	80.614	-62.447	-57.077	-56.466	-50.623	65.260	-52.767	-8191	255	
52867.168	1	1	0	0	0.15898	0.20553	0.21359	0.28431	0.25437	0.087376	0.22749	0.18093	0.033668	0.068476	0.020034	0.07814	0.38655	0.067408	0.030721	0.023473	-4.15	-3.9604	-5.0083	-4.2208	-4.5396	-4.9667	-4.1229	-4.9229	-4.4417	-4.1562	-5.0312	-4.2417	-4.5854	-5.0896	-4.1937	-5.0292	175.588	229.170	-22.838	192.526	49.355	6.390	256.895	168.308	90.039	22.316	200.825	-65.912	-33.299	179.694	279.920	153.731	0.00072575	0.00041703	0.00010755	567.31	6.1821e-06	3.6928e-06	739.22	184.41	4.4381e-06	2.796e-06	283.39	121.87	69.812	31.985	3.581e-06	63.067	0.00017245	0.00012872	3.5723e-05	583.83	1.4082e-06	1.3665e-06	757.12	190.59	1.4286e-06	1.4124e-06	291.94	126.63	72.562	33.519	1.4408e-06	65.617	52.575	1.539	16.901	-67.339	50.515	59.284	-67.640	-61.982	61.831	77.894	-62.660	-57.012	-56.139	-50.703	91.106	-52.924	-8191	255	
52867.266	1	1	0	0	0.11725	0.1467	0.083692	0.20899	0.10536	0.094536	0.083174	0.09425	0.16049	0.094856	0.16808	0.15077	0.20527	0.062538	0.072897	0.25058	-4.3167	-4.1604	-5.0958	-4.2604	-4.5625	-5.0813	-4.2375	-5.1417	-4.6396	-4.1625	-5.2354	-4.3396	-4.3354	-4.9604	-4.1125	-4.8021	82.382	79.032	-29.870	-24.050	-6.244	89.247	67.317	150.586	209.752	259.666	-69.191	-44.137	257.267	-8.025	142.743	253.550	0.00075783	0.00027735	0.0001356	567.54	3.5172e-06	3.7169e-06	735.13	184.73	3.3046e-06	2.7915e-06	281.44	121.36	69.544	32.007	3.5709e-06	62.714	0.00016817	0.00013031	3.6402e-05	583.67	1.4086e-06	1.3418e-06	756.4	190.56	1.4271e-06	1.424e-06	291.39	126.13	72.268	33.4	1.4637e-06	65.408	54.786	34.488	-11.061	-67.251	69.656	67.474	-67.749	-61.558	45.541	86.231	-62.333	-57.213	-56.562	-50.734	87.954	-52.478	-8191	255	
52867.336	1	1	0	0	0.057587	0.077945	0.03063	0.23466	0.08239	0.14005	0.21555	0.11846	0.018497	0.16078	0.079837	0.10775	0.078781	0.08909	0.13399	0.17403	-4.3292	-4.0979	-5.0188	-4.4229	-4.2583	-5.0458	-4.075	-4.6375	-4.6792	-4.1875	-5.0125	-4.4333	-4.3562	-5.0104	-4.1333	-4.6792	277.734	5.900	-28.895	248.703	-5.678	218.953	194.617	84.518	37.631	210.173	268.754	-58.118	118.023	88.192	208.171	-66.880	0.00080364	0.00035154	0.00010179	565.9	2.2694e-06	2.5153e-06	733.17	183.17	2.6833e-06	2.6614e-06	283.15	121.06	69.164	32.161	4.163e-06	63.22	0.00016961	0.00013043	3.4878e-05	583.79	1.4243e-06	1.3739e-06	756.69	190.38	1.4352e-06	1.4033e-06	291.37	126.25	72.57	33.564	1.4718e-06	65.772	54.691	11.456	-1.320	-67.308	41.795	42.423	-67.480	-61.894	63.129	100.078	-62.482	-57.167	-56.364	-50.824	97.463	-52.583	-8191	255	
52867.457	1	1	0	0	0.10352	0.32786	0.067809	0.068121	0.062992	0.13628	0.11959	0.28026	0.084846	0.21875	0.10972	0.17172	0.18162	0.17366	0.20727	0.16428	-4.5021	-4.0875	-4.9854	-4.5583	-4.1937	-5.0896	-4.2708	-4.5375	-4.8917	-3.9854	-4.9479	-4.6771	-4.1125	-5.0188	-4.2583	-4.5375	130.796	57.827	264.347	130.134	7.224	-22.576	-49.058	257.629	197.442	82.376	62.985	-7.332	-13.436	-77.976	223.442	279.475	0.00078985	0.00039445	9.5832e-05	567.2	5.6514e-06	3.1626e-06	734.68	184.03	4.3751e-06	3.9779e-06	281.34	122.02	69.83	32.174	2.0498e-06	63.102	0.00017095	0.00013004	3.5293e-05	585.07	1.4314e-06	1.3681e-06	758.97	190.7	1.4328e-06	1.4008e-06	291.37	126.55	72.535	33.628	1.4543e-06	65.905	49.755	7.564	12.411	-67.120	22.548	94.988	-67.921	-61.768	65.310	69.556	-62.427	-57.277	-56.556	-50.582	27.330	-52.758	-8191	255	
52867.555	1	1	0	0	0.13737	0.18774	0.091202	0.15576	0.10075	0.18157	0.15703	0.1015	0.061007	0.15236	0.15818	0.14804	0.062556	0.15493	0.088526	0.13101	-4.6208	-4.2562	-4.7312	-4.7625	-4.1917	-5.0896	-4.4146	-4.2833	-5.0458	-4.0458	-4.8521	-4.8187	-4.1104	-5.1813	-4.3479	-4.5292	-14.553	-62.294	78.981	124.827	177.691	234.784	-32.365	151.823	212.652	204.081	-6.446	-59.992	239.106	-71.207	3.312	56.364	0.00081137	0.00039028	0.00012217	567.52	4.8993e-06	3.2981e-06	737.33	185.7	2.9104e-06	3.7355e-06	283.45	121.67	69.651	32.219	2.4335e-06	63.128	0.00017165	0.00013434	3.5959e-05	584.82	1.4611e-06	1.3925e-06	760.04	191.51	1.4444e-06	1.4035e-06	292.69	126.71	72.76	33.635	1.4523e-06	65.869	54.753	4.008	6.775	-67.318	52.685	89.358	-67.759	-61.636	63.215	72.278	-62.616	-57.262	-56.669	-50.860	124.714	-52.860	-8191	255	
52867.648	1	1	0	0	0.012693	0.2118	0.10881	0.24473	0.028616	0.13784	0.079297	0.055178	0.02379	0.13979	0.068657	0.32032	0.28088	0.11713	0.16997	0.065188	-4.7979	-4.0667	-4.8	-5.0146	-4.0604	-4.9146	-4.5354	-4.3208	-5.1396	-4.1708	-4.775	-4.9604	-4.1583	-5.2375	-4.6958	-4.4771	76.810	94.671	24.342	230.204	135.714	51.381	154.129	48.094	88.021	143.201	205.985	123.340	-75.854	237.394	-8.759	172.518	0.00084302	0.00033123	7.8217e-05	569.81	2.2227e-06	3.5699e-06	738.92	184.61	2.3877e-06	3.9539e-06	283.12	122.22	69.868	32.226	1.4619e-06	62.942	0.00016969	0.00013229	3.5877e-05	586.13	1.4459e-06	1.3785e-06	759.66	191.25	1.4357e-06	1.4033e-06	292.26	126.71	72.71	33.697	1.433e-06	65.79	56.599	11.410	10.618	-67.133	74.627	57.630	-67.536	-61.628	27.990	73.382	-62.584	-57.153	-56.244	-50.849	98.068	-52.900	-8191	255	
52867.746	1	1	0	0	0.06724	0.032011	0.14067	0.18303	0.18205	0.045895	0.11609	0.32373	0.18773	0.28561	0.081583	0.12686	0.097494	0.19154	0.33645	0.31504	-4.85	-4.2646	-4.5396	-4.9833	-3.9271	-4.9646	-4.6583	-4.1292	-5.0583	-4.1854	-4.4583	-5.0167	-4.1562	-4.9583	-4.7042	-4.2875	-60.788	239.035	229.640	-78.542	21.035	206.003	246.261	243.761	212.364	152.982	87.731	-25.477	-55.176	-17.331	33.809	147.301	0.00080663	0.00040847	0.00013977	570.5	4.2643e-06	5.9142e-06	735.05	185.06	3.126e-06	4.5842e-06	282.4	122.98	69.877	32.373	2.9423e-06	63.321	0.00017136	0.00013045	3.5835e-05	585.87	1.4685e-06	1.3888e-06	757.91	191.13	1.435e-06	1.4337e-06	292.28	127.08	72.897	33.856	1.4385e-06	66.113	54.806	26.624	5.485	-67.247	82.968	65.708	-67.864	-61.786	51.217	80.739	-62.733	-57.122	-56.236	-51.180	42.422	-52.502	-8191	255	
52867.867	1	1	0	0	0.16824	0.058877	0.11859	0.15684	0.16921	0.1679	0.12642	0.26405	0.25982	0.20134	0.21347	0.058491	0.092458	0.21413	0.17838	0.12304	-4.8396	-4.4646	-4.4271	-5.1062	-4.0687	-4.7312	-4.7646	-4.1979	-5.0271	-4.4396	-4.3604	-5.0813	-4.1521	-4.8438	-4.7688	-4.1729	-69.003	102.037	204.568	97.338	191.941	146.468	267.266	280.141	41.122	-45.152	205.845	-36.748	-21.614	-54.515	108.982	161.873	0.0007593	0.00029574	0.00014418	570.69	6.2917e-06	3.6139e-06	738.08	185.72	2.3276e-06	4.5297e-06	283.23	121.99	69.909	32.416	5.4567e-06	63.427	0.00017407	0.00012903	3.6532e-05	586.13	1.4732e-06	1.3951e-06	759.31	191.69	1.4562e-06	1.3994e-06	292.7	127.07	73.015	33.919	1.4568e-06	66.297	45.410	25.902	14.658	-67.256	41.872	68.836	-67.597	-61.706	-6.533	61.649	-62.731	-57.273	-56.289	-50.854	85.255	-52.500	-8191	255	
52867.938	1	1	0	0	0.25861	0.13671	0.11648	0.11003	0.10631	0.23101	0.061388	0.11086	0.13753	0.069809	0.25179	0.0047832	0.021376	0.12263	0.098391	0.15402	-4.8187	-4.2458	-4.1396	-5.0563	-4.1979	-4.4938	-5.0521	-4.0479	-4.9667	-4.5437	-4.2875	-5.2688	-4.225	-4.5729	-4.8438	-4.1229	234.112	122.391	48.797	-61.467	73.866	172.521	-38.173	-52.721	65.816	38.775	-77.092	92.417	91.557	54.658	122.892	128.781	0.00082999	0.0004071	6.632e-05	568.15	4.8182e-06	4.5571e-06	738.78	185.31	2.634e-06	3.4968e-06	283.91	122.93	70.389	32.477	4.4588e-06	63.846	0.00017598	0.00013296	3.7289e-05	585.98	1.483e-06	1.458e-06	760.88	191.92	1.4463e-06	1.4324e-06	293.02	127.45	73.198	34.037	1.4398e-06	66.514	54.715	17.536	21.338	-67.184	40.511	74.622	-67.451	-61.896	57.375	77.259	-62.497	-57.428	-56.361	-50.587	42.997	-52.587	-8191	255	
52868.035	1	1	0	0	0.061981	0.26411	0.26852	0.13985	0.17243	0.27173	0.12351	0.14018	0.19362	0.098834	0.29888	0.16746	0.082599	0.17703	0.05624	0.29853	-4.5917	-4.5708	-4.0021	-4.9854	-4.1813	-4.4542	-5.0583	-4.075	-4.8396	-4.5563	-4.2854	-5.2542	-4.5292	-4.3479	-5.0146	-4.2562	35.737	137.190	-27.847	-53.290	45.665	-38.186	279.469	77.788	80.426	-8.155	240.638	103.634	47.460	-58.759	45.749	221.763	0.00082156	0.00032782	7.4766e-05	570.32	2.7862e-06	2.8316e-06	738.84	184.89	4.4113e-06	4.1308e-06	283.81	122.23	70.347	32.443	6.1334e-07	63.459	0.00017593	0.0001333	3.6883e-05	585.47	1.4812e-06	1.4499e-06	758.02	191.75	1.4832e-06	1.4344e-06	292.61	127.37	73.393	34.066	1.4553e-06	66.256	51.057	19.627	3.398	-67.254	47.573	53.834	-67.629	-61.872	33.194	70.379	-62.618	-57.220	-56.271	-50.605	96.595	-52.908	-8191	255	
52868.129	1	1	0	0	0.15946	0.095662	0.05345	0.20579	0.23569	0.11981	0.19263	0.054204	0.30686	0.035923	0.17177	0.20243	0.080502	0.18378	0.041606	0.011389	-4.5083	-4.6729	-3.9958	-5.1146	-4.1833	-4.3562	-5.0771	-4.1521	-4.7125	-4.7875	-3.9792	-4.875	-4.5396	-4.1062	-5.0917	-4.1188	-77.076	-61.574	18.399	261.637	202.462	22.246	189.000	150.564	274.156	250.974	79.428	7.312	-73.646	-79.691	22.468	-76.152	0.00075224	0.00046294	0.00016412	566.79	4.3443e-06	3.8406e-06	736.25	185.29	5.5873e-06	2.7534e-06	282.92	122.72	70.504	32.717	3.6191e-06	63.604	0.00017881	0.00013559	3.7159e-05	585.32	1.5003e-06	1.4666e-06	757.31	191.95	1.4525e-06	1.4233e-06	291.37	127.5	73.515	34.151	1.5016e-06	66.406	56.020	-1.951	4.331	-67.159	77.538	83.100	-67.584	-61.763	52.764	98.721	-62.613	-57.533	-56.508	-50.499	61.916	-52.453	-8191	255	
52868.250	1	1	0	0	0.20641	0.29416	0.16427	0.32931	0.060953	0.08936	0.23848	0.20324	0.18242	0.15675	0.18537	0.10519	0.17702	0.048009	0.2463	0.17668	-4.4021	-4.8438	-3.9938	-4.9396	-4.2937	-4.0792	-5.1667	-4.3083	-4.2937	-4.9375	-3.8708	-5.0062	-4.6417	-4.3042	-4.9917	-4.3896	-37.162	-1.826	257.876	-17.543	126.816	190.852	252.140	207.740	192.031	146.919	232.747	137.018	-19.169	237.214	8.050	186.288	0.00070325	0.00035766	8.405e-05	569.12	5.7743e-06	2.9916e-06	733.75	185.64	2.7555e-06	5.1094e-06	282.72	123.63	70.428	32.873	2.9185e-06	63.953	0.00017839	0.00013239	3.7503e-05	584.93	1.4481e-06	1.4518e-06	757.26	191.88	1.5003e-06	1.4157e-06	292.32	128.05	73.703	34.271	1.4767e-06	66.607	55.940	9.613	36.940	-68.124	57.250	86.759	-67.506	-61.966	22.484	63.382	-62.539	-57.101	-56.315	-50.879	54.942	-52.528	-8191	255	
52868.344	1	1	0	0	0.03511	0.26841	0.19578	0.19621	0.10137	0.2974	0.10869	0.23518	0.13735	0.082427	0.11275	0.03436	0.18125	0.05032	0.074899	0.079418	-4.1521	-4.9208	-3.9479	-4.8375	-4.6271	-4.0687	-4.9812	-4.4521	-4.3458	-4.8979	-4.0375	-4.8229	-4.725	-4.2188	-5.1438	-4.4271	264.895	145.856	-25.141	162.475	147.096	-38.291	-5.395	242.327	267.553	213.611	111.005	45.330	176.564	-77.743	-45.066	135.263	0.00080694	0.00034643	9.5416e-05	566.86	2.7837e-06	3.5636e-06	732.01	185.47	3.5805e-06	4.1178e-06	283.05	123.18	70.961	32.749	3.3436e-06	63.944	0.0001764	0.00012948	3.7628e-05	583.7	1.4487e-06	1.4304e-06	755.48	191.79	1.4463e-06	1.4124e-06	292.52	127.89	73.897	34.291	1.471e-06	66.86	51.117	20.698	-4.075	-67.103	45.766	58.446	-67.581	-61.674	48.713	81.238	-62.367	-57.449	-56.230	-50.760	86.813	-52.561	-8191	255	
52868.441	1	1	0	0	0.08591	0.12719	0.06542	0.19066	0.051836	0.17384	0.15892	0.091062	0.076612	0.087699	0.13998	0.17506	0.20583	0.14043	0.28532	0.13914	-3.9021	-5.0312	-4.0354	-4.825	-4.7917	-3.9604	-5.2208	-4.5708	-4.2688	-4.9437	-4.2937	-4.7521	-4.8125	-4.1604	-4.7208	-4.7333	131.270	35.137	132.584	262.287	256.005	47.536	171.064	-75.251	173.283	-77.619	216.610	159.049	50.671	-76.502	-79.357	98.564	0.00070188	0.0003392	7.4896e-05	565.3	2.8214e-06	2.7421e-06	732.19	185.39	3.6557e-06	3.4019e-06	284.15	123.27	71.061	32.733	3.4599e-06	63.872	0.00017435	0.00013154	3.6903e-05	582.62	1.4677e-06	1.4672e-06	754.79	192.17	1.4957e-06	1.442e-06	292.53	127.97	73.741	34.267	1.5046e-06	66.504	58.457	14.196	-21.600	-66.984	31.702	66.850	-67.838	-61.552	41.772	45.799	-62.388	-57.410	-55.978	-50.814	69.190	-52.613	-8191	255	
52868.535	1	1	0	0	0.02511	0.061898	0.032571	0.068182	0.051162	0.1901	0.08881	0.21152	0.18847	0.12531	0.2546	0.059085	0.072526	0.094602	0.016853	0.16069	-4.1146	-5.0167	-4.2375	-4.5646	-4.8833	-4.0979	-4.8604	-4.5333	-4.0417	-4.9104	-4.3271	-4.4417	-5.0229	-4.0583	-4.6729	-4.8	-42.963	-42.783	-19.642	140.091	262.482	-70.765	-51.791	161.745	214.110	5.473	191.255	99.779	160.879	44.488	189.593	240.871	0.0008381	0.00033821	0.00010665	564.62	6.1553e-06	2.4151e-06	733.8	185.03	2.4039e-06	2.048e-06	281.38	123.07	70.484	32.863	3.1346e-06	64.059	0.00017794	0.00013325	3.647e-05	582.79	1.4852e-06	1.4565e-06	753.43	192.24	1.4991e-06	1.4248e-06	291.99	127.87	73.816	34.359	1.4819e-06	66.764	52.501	9.191	-17.310	-67.393	33.677	31.349	-67.545	-61.450	19.373	74.672	-62.488	-57.257	-56.378	-50.802	70.607	-52.470	-8191	255	
52868.633	1	1	0	0	0.051207	0.081619	0.14189	0.14002	0.11074	0.15105	0.21913	0.155	0.11625	0.017339	0.10143	0.28387	0.30083	0.048135	0.20395	0.073439	-3.8021	-4.9938	-4.2792	-4.525	-4.8771	-4.0375	-4.9313	-4.8729	-4.0979	-5.0437	-4.425	-4.3604	-5.1687	-4.0917	-4.5792	-4.8729	163.660	256.877	115.547	6.810	33.084	118.371	190.433	256.617	58.699	-31.507	-69.460	264.411	251.788	35.190	49.512	112.947	0.00079093	0.0004307	0.0001114	567.02	4.2867e-06	3.5931e-06	736.63	186.25	1.7219e-06	4.2841e-06	283.76	123.46	70.813	33.064	3.6846e-06	64.666	0.00017999	0.00013145	3.8151e-05	583.74	1.4891e-06	1.4605e-06	756.18	192.32	1.5011e-06	1.4205e-06	292.52	128.43	73.964	34.594	1.4778e-06	67.076	51.233	9.756	24.937	-67.105	43.636	79.338	-67.308	-61.741	20.508	94.292	-62.401	-57.044	-56.299	-51.006	93.788	-52.573	-8191	255	
52868.730	1	1	0	0	0.15168	0.10628	0.10717	0.18203	0.11422	0.030966	0.15056	0.015228	0.15522	0.18249	0.1895	0.17792	0.14046	0.18455	0.13371	0.30421	-3.7875	-5.1062	-4.4167	-4.3771	-4.9208	-4.1208	-4.6312	-4.85	-3.925	-4.9542	-4.6208	-4.1708	-5.0667	-4.2063	-4.4313	-5.0125	15.479	42.402	44.227	207.590	-24.368	263.849	-10.689	221.816	116.439	215.095	70.895	28.984	66.231	-32.379	263.468	-62.774	0.00083548	0.00038808	9.6487e-05	566.49	6.0153e-06	3.9059e-06	735.74	185.76	1.8128e-06	4.138e-06	283.33	123.71	71.26	33.21	4.1821e-06	64.564	0.00018261	0.00013265	3.7099e-05	585.29	1.4567e-06	1.4753e-06	755.63	192.27	1.5105e-06	1.4276e-06	293.54	128.56	74.239	34.66	1.5179e-06	67.341	47.987	17.553	31.546	-67.273	45.119	70.577	-67.795	-61.480	20.262	66.711	-62.782	-57.428	-56.291	-50.662	69.462	-52.699	-8191	255	
52868.852	1	1	0	0	0.2076	0.092927	0.08677	0.11384	0.099546	0.23722	0.31162	0.083889	0.33802	0.047043	0.032118	0.13553	0.15095	0.13617	0.073372	0.043097	-3.8271	-4.6958	-4.7125	-4.35	-5.0813	-4.2646	-4.5333	-5.0062	-3.9875	-4.8	-4.8104	-4.2271	-5.0708	-4.5521	-4.3354	-5.025	220.346	189.392	63.345	193.169	-31.895	94.114	215.299	136.613	17.457	172.588	182.447	89.596	204.538	59.363	15.696	208.509	0.00085775	0.00021883	0.00011595	568.34	2.9101e-06	5.5862e-06	736.85	185.69	5.3832e-06	5.4388e-06	284.47	124.41	71.158	33.162	4.3176e-06	64.373	0.00017989	0.00013899	3.8409e-05	585.16	1.4588e-06	1.4418e-06	758.73	193.24	1.5208e-06	1.4553e-06	293.6	129	74.226	34.693	1.5065e-06	67.193	48.952	6.402	4.291	-67.327	70.781	65.203	-67.487	-61.523	26.807	81.443	-62.185	-57.493	-56.266	-50.572	90.761	-52.667	-8191	255	
52868.945	1	1	0	0	0.11756	0.067679	0.10135	0.20112	0.12576	0.14965	0.16016	0.21627	0.12419	0.096439	0.096928	0.21158	0.17563	0.074296	0.10345	0.12811	-3.7958	-4.6521	-4.7042	-4.3	-5.15	-4.4104	-4.6271	-5.175	-3.9813	-4.5563	-4.925	-4.1562	-5.0708	-4.4833	-4.2812	-5.0833	-10.766	-57.808	75.441	-26.072	83.150	180.852	9.538	-68.611	46.478	226.686	166.449	267.816	-77.746	45.221	44.674	212.203	0.0008793	0.00047748	0.00011863	567.3	4.3255e-06	1.7636e-06	738.94	186.46	2.5853e-06	3.3891e-06	283.84	124.02	70.808	32.975	3.5665e-06	64.019	0.00017797	0.00013548	3.6651e-05	585.59	1.4986e-06	1.4437e-06	758.65	193.08	1.5049e-06	1.4357e-06	292.37	128.35	74.086	34.482	1.5095e-06	66.86	53.823	-14.980	8.021	-67.425	78.768	20.590	-67.362	-61.450	19.267	59.526	-62.190	-57.159	-56.248	-51.138	103.760	-52.603	-8191	255	
52869.039	1	1	0	0	0.14481	0.05042	0.040438	0.29435	0.054271	0.08955	0.034921	0.12222	0.045659	0.22661	0.16971	0.23936	0.24166	0.092893	0.10262	0.11477	-4.0375	-4.5292	-4.7833	-4.1458	-4.9563	-4.6	-4.375	-5.1375	-4.2688	-4.5437	-5.1687	-4	-4.9187	-4.9396	-4.2354	-5.2292	56.492	-33.484	30.568	-19.270	-5.150	222.555	150.593	243.189	236.791	117.052	107.805	213.035	192.127	14.711	-48.549	168.626	0.00082238	0.00043959	0.00012357	567.96	6.3293e-06	2.3538e-06	732.66	185.72	2.6954e-06	3.3739e-06	283.51	123.28	70.731	32.792	2.8576e-06	64.063	0.00018268	0.00013697	3.6561e-05	584.23	1.4628e-06	1.4491e-06	756.44	192.43	1.5082e-06	1.434e-06	292.66	128.08	74.081	34.435	1.4913e-06	66.894	57.243	-2.384	-3.880	-66.977	36.886	57.976	-67.582	-61.612	-3.452	83.307	-62.451	-56.801	-56.123	-50.663	41.555	-52.670	-8191	255	
52869.137	1	1	0	0	0.086316	0.036804	0.071443	0.07617	0.10451	0.054755	0.03487	0.095342	0.11543	0.09894	0.15868	0.13422	0.073879	0.099167	0.032634	0.088515	-3.9875	-4.4292	-4.9896	-4.3146	-4.9208	-4.725	-4.3167	-5.0542	-4.3	-4.3917	-5.1583	-4.1229	-4.8708	-4.8625	-4.1271	-5.0437	241.039	252.033	-27.567	185.621	202.032	62.071	129.319	-17.777	185.451	206.572	219.891	265.380	-9.478	-15.632	117.464	279.824	0.00075848	0.00040308	8.1648e-05	568.53	3.3115e-06	4.3122e-06	736.85	185.99	2.0822e-06	3.4198e-06	282.92	123.44	70.897	32.859	2.3841e-06	64.223	0.00018028	0.0001369	3.7483e-05	584.9	1.4807e-06	1.4517e-06	758.3	192.59	1.5002e-06	1.4632e-06	292.59	128.16	73.972	34.407	1.503e-06	66.704	49.195	35.598	26.054	-67.270	38.287	53.469	-67.751	-61.740	41.290	70.510	-62.231	-57.281	-56.725	-50.828	63.464	-52.513	-8191	255	
52869.234	1	1	0	0	0.1625	0.2052	0.13456	0.23253	0.14386	0.17417	0.13483	0.21582	0.15267	0.14801	0.16167	0.030244	0.040151	0.16102	0.10168	0.17655	-4.1625	-4.3146	-5.0167	-4.0188	-4.6792	-4.8729	-4.1771	-4.9854	-4.3542	-4.2438	-5.2021	-4.0229	-4.6687	-5.0583	-4.0917	-5.1458	104.358	261.338	166.055	243.504	249.615	15.556	200.518	101.168	-30.837	52.571	-39.066	204.189	18.977	188.893	102.701	161.270	0.0007442	0.00037714	0.00012765	572.28	5.3036e-06	3.3974e-06	740.43	186.24	1.8089e-06	3.3855e-06	284.31	123.64	70.645	32.986	2.7951e-06	64.223	0.0001766	0.00013348	3.7271e-05	587.5	1.5079e-06	1.4244e-06	761.57	192.59	1.4697e-06	1.4114e-06	293.23	128.18	73.834	34.457	1.5261e-06	66.86	55.860	8.151	6.362	-67.242	73.951	89.794	-67.838	-61.646	35.257	46.111	-62.469	-57.032	-56.217	-50.560	75.669	-52.637	-8191	255	
52869.328	1	1	0	0	0.24915	0.17606	0.094933	0.21567	0.10889	0.14373	0.10598	0.089334	0.17635	0.22695	0.12497	0.14513	0.14133	0.069053	0.15576	0.27863	-4.3583	-4.3375	-5.0875	-4.3688	-4.6042	-5.0896	-4.0979	-5.0708	-4.6479	-4.1833	-5.0146	-4.3833	-4.6125	-5.225	-3.9917	-5.0979	214.191	25.943	68.447	-76.525	-59.814	158.998	-54.563	135.540	218.256	111.790	-13.641	194.574	236.906	-9.560	10.774	272.727	0.00081316	0.0003376	0.00010614	569.17	5.6964e-06	4.7849e-06	738.26	186.06	2.1155e-06	2.6076e-06	283.45	123.72	70.966	32.973	2.9826e-06	64.046	0.00017944	0.00013507	3.6151e-05	587.86	1.4846e-06	1.4175e-06	762.95	193.24	1.4974e-06	1.4285e-06	293.27	128.22	74.084	34.452	1.4911e-06	66.855	59.071	11.092	-6.664	-67.339	42.319	74.771	-67.628	-61.873	4.190	63.986	-62.265	-57.436	-56.483	-50.535	43.311	-52.719	-8191	255	
52869.426	1	1	0	0	0.11242	0.2038	0.17924	0.31659	0.052067	0.092289	0.24089	0.24373	0.23047	0.1043	0.25641	0.20391	0.19733	0.18031	0.12019	0.1405	-4.3875	-4.2542	-5.1167	-4.4583	-4.3854	-5.075	-4.2792	-4.9583	-4.7708	-4.0979	-5.0542	-4.45	-4.3938	-5.2146	-4.2208	-4.6937	85.415	268.707	234.739	224.900	-30.715	251.818	216.766	31.354	262.862	-20.229	-77.413	-74.827	25.492	126.014	-5.725	125.336	0.0007976	0.00039602	0.00013711	570.23	4.9167e-06	1.8571e-06	739.98	187.55	3.0915e-06	2.2187e-06	283.5	123.78	71.512	33.112	1.8813e-06	64.639	0.00017842	0.00013657	3.7443e-05	588.37	1.5357e-06	1.4635e-06	761.78	193.55	1.5217e-06	1.4769e-06	292.48	128.54	74.415	34.713	1.5908e-06	67.301	49.793	-4.891	7.722	-67.340	43.374	82.118	-67.406	-61.941	9.771	77.664	-62.058	-57.164	-56.424	-50.884	90.725	-52.830	-8191	255	
52869.520	1	1	0	0	0.21102	0.09435	0.18725	0.12556	0.039159	0.024257	0.20016	0.16644	0.14362	0.22369	0.077378	0.35671	0.11675	0.058933	0.21805	0.092889	-4.5312	-4.1	-4.9479	-4.5771	-4.3271	-5.1125	-4.2479	-4.7	-4.9625	-4.0167	-4.9771	-4.6292	-4.2833	-5.1458	-4.2042	-4.5896	166.427	204.157	38.279	242.527	168.661	126.467	177.951	217.551	-7.432	212.089	119.936	240.791	25.243	265.613	239.773	71.401	0.0008246	0.00027678	0.00012032	571.87	4.3998e-06	5.3004e-06	741.09	187.52	4.4069e-06	3.4816e-06	283.7	124.09	71.426	33.404	3.3983e-06	64.728	0.00018083	0.00014113	3.7789e-05	588.6	1.5811e-06	1.4636e-06	763.6	193.69	1.5504e-06	1.5724e-06	293.36	129.13	74.707	34.969	1.5778e-06	67.645	57.585	10.680	-1.145	-67.278	74.837	64.256	-67.773	-61.811	23.582	49.665	-62.512	-57.200	-56.625	-50.635	42.090	-52.713	-8191	255	
52869.641	1	1	0	0	0.15699	0.074801	0.080071	0.19531	0.358	0.066763	0.16199	0.34526	0.040306	0.18029	0.14456	0.094773	0.2076	0.14977	0.037559	0.26049	-4.7479	-4.1875	-4.9667	-4.9417	-4.2063	-5.1	-4.5042	-4.4688	-4.9104	-4.1646	-4.8521	-4.7937	-4.2021	-5.175	-4.2771	-4.55	0.316	224.441	45.692	232.521	189.865	-6.659	122.818	142.066	34.693	29.446	169.878	140.451	-35.759	26.369	118.642	175.013	0.00081855	0.00036979	7.9276e-05	575.42	4.7329e-06	2.3936e-06	742.32	186.72	1.6669e-06	5.9669e-06	285.4	125.02	72.059	33.607	4.8016e-06	65.219	0.00017761	0.00014198	3.7928e-05	590.79	1.6059e-06	1.4949e-06	765.63	193.89	1.5738e-06	1.55e-06	294.19	129.61	74.997	35.196	1.6181e-06	68.039	58.288	36.597	0.319	-67.506	36.907	71.374	-67.388	-61.874	52.950	72.317	-62.316	-57.240	-56.561	-50.769	65.720	-52.614	-8191	255	
52869.738	1	1	0	0	0.19793	0.058145	0.12324	0.25784	0.018212	0.035763	0.19296	0.13028	0.10187	0.23739	0.19117	0.086342	0.15189	0.071546	0.12752	0.030886	-4.7479	-4.0333	-4.9396	-4.7979	-4.1	-5.1125	-4.5792	-4.3146	-5.1125	-4.1083	-4.625	-4.8771	-4.2	-5.125	-4.5875	-4.4812	22.207	-19.773	-41.966	146.931	92.178	14.242	195.065	174.021	161.245	-78.436	-47.877	135.073	266.588	193.010	-8.856	228.157	0.0008572	0.00039183	0.00010283	573.59	2.7271e-06	2.2927e-06	745.93	187.21	4.8141e-06	4.152e-06	286.42	125.13	72.348	33.745	2.2034e-06	65.261	0.00018557	0.00014404	4.039e-05	591.74	1.5855e-06	1.5169e-06	767.29	194.34	1.6039e-06	1.5639e-06	295.08	130.01	75.167	35.228	1.5744e-06	68.024	50.907	2.530	-8.515	-67.174	61.055	31.114	-67.472	-62.150	-5.396	72.071	-62.486	-57.169	-56.630	-50.727	63.985	-52.609	-8191	255	
52869.809	1	1	0	0	0.12996	0.10328	0.13816	0.34237	0.12004	0.046066	0.30031	0.12208	0.16317	0.076092	0.15188	0.17067	0.1158	0.056452	0.16475	0.14876	-4.8375	-4.2688	-4.6958	-5.0083	-4.0896	-4.9375	-4.8229	-4.2688	-5.025	-4.2167	-4.5833	-5.2125	-4.3562	-4.8792	-4.75	-4.2625	123.143	237.495	140.883	243.217	106.145	79.307	181.199	51.524	3.971	-38.141	208.157	265.952	146.456	-36.650	105.946	129.423	0.00080036	0.00021056	0.00014243	575.45	4.8411e-06	2.3816e-06	743.57	187.57	3.2995e-06	2.1392e-06	283.91	125.28	72.048	33.703	2.1172e-06	65.537	0.00018681	0.00014788	3.9986e-05	592.19	1.5914e-06	1.5487e-06	766.82	194.5	1.6046e-06	1.5884e-06	294.47	129.88	75.163	35.37	1.6504e-06	68.135	51.440	10.509	25.930	-66.929	25.866	48.052	-67.671	-61.960	58.395	86.457	-62.470	-56.940	-56.639	-50.711	77.335	-52.746	-8191	255	
52869.930	1	1	0	0	0.17525	0.16293	0.15765	0.182	0.18114	0.077069	0.0032529	0.24834	0.14475	0.069407	0.088551	0.20081	0.17102	0.13677	0.086413	0.1781	-4.8354	-4.3208	-4.3812	-5.1083	-4.1042	-4.8521	-4.8167	-4.0396	-4.9437	-4.3083	-4.5208	-5.1562	-4.2354	-4.8562	-4.9083	-4.2708	66.720	52.325	16.995	190.328	23.842	89.859	35.523	262.257	-14.349	-63.278	196.432	274.531	-35.129	192.718	210.769	61.084	0.0007849	0.00043015	0.0001412	576.43	3.6881e-06	4.1968e-06	744.07	186.48	3.6753e-06	4.4211e-06	285.18	125.43	72.373	33.775	3.7818e-06	65.128	0.00018653	0.00014613	4.082e-05	592.95	1.6059e-06	1.5829e-06	767.4	194.2	1.6024e-06	1.6365e-06	294.47	130.21	75.261	35.392	1.6403e-06	68.151	58.266	14.075	0.173	-67.059	73.646	97.870	-67.549	-61.769	17.886	71.040	-62.495	-57.222	-56.232	-50.765	56.173	-52.780	-8191	255	
52870.027	1	1	0	0	0.27102	0.12766	0.10874	0.15241	0.098782	0.21833	0.039057	0.26125	0.082315	0.14553	0.25592	0.33907	0.19646	0.20479	0.18981	0.16007	-4.6479	-4.5104	-4.4354	-5.0375	-4.1771	-4.8187	-5.175	-4.2812	-5.075	-4.6083	-4.4729	-5.2292	-4.1354	-4.6854	-5.0167	-4.2271	266.939	277.670	-65.805	-74.123	62.688	69.507	157.861	-31.665	157.029	192.836	275.387	228.089	-51.575	-70.259	-19.206	276.435	0.00081692	0.00038333	9.461e-05	577.03	5.9569e-06	4.6909e-06	746.91	188.38	2.5133e-06	3.7707e-06	285.07	125.38	72.249	33.765	3.5602e-06	65.77	0.00019048	0.00014963	4.0125e-05	594.19	1.6633e-06	1.6204e-06	770.08	194.7	1.637e-06	1.6043e-06	294.95	130.56	75.501	35.538	1.6636e-06	68.675	47.313	8.882	2.390	-67.258	23.834	83.713	-67.857	-61.753	116.267	66.021	-62.361	-57.238	-56.523	-50.886	71.114	-52.783	-8191	255	
52870.121	1	1	0	0	0.076505	0.19265	0.080834	0.21408	0.072223	0.13325	0.032298	0.11362	0.11791	0.21711	0.064357	0.087791	0.19926	0.12087	0.15672	0.14838	-4.5979	-4.5708	-4.2063	-5.0917	-4.3104	-4.5813	-5.2208	-4.1625	-4.8187	-4.6958	-4.3542	-5.1625	-4.3479	-4.5375	-4.9854	-4.2292	-35.344	117.347	3.741	159.402	9.538	-75.073	210.249	184.316	41.567	-54.704	198.609	-79.599	261.211	23.737	12.016	248.196	0.00086043	0.00036999	0.00012527	576.9	6.6213e-06	3.9859e-06	750.42	187.67	4.2574e-06	4.0585e-06	285.32	126.5	72.19	34.279	6.3553e-06	66.021	0.00019441	0.000151	4.1263e-05	595.38	1.7028e-06	1.6062e-06	772.61	194.91	1.6571e-06	1.6415e-06	295.24	130.89	75.468	35.804	1.6807e-06	68.994	55.746	6.680	28.760	-67.111	43.587	106.734	-67.600	-61.669	33.905	63.760	-62.441	-57.095	-56.183	-50.766	62.205	-52.911	-8191	255	
#DATA ENDS
