BOXY.EXE: ISS Imagent and Oximeter Data Acquisition Program Version 0.80
Ascii Record File

#ACQ INFORMATION
2  Detector Channels 
16  External MUX Channels 
1  Auxiliary Channels 
5000  Waveform (CCF) Frequency (Hz)
1  Waveforms Skipped 
30  Waveforms Averaged 
1  Cycles Averaged 
16  Acquisitions per Waveform 
10.0806  Updata Rate (Hz) 

#FILE INFORMATION
TRUE -- External MUX Channel results are PARSED.
FALSE -- AC DC and Phase are NOT grouped.
TRUE -- Companion Program Settings File CREATED.
FALSE -- AC data not excluded
FALSE -- DC data not excluded
FALSE -- Phase data not excluded
FALSE -- Auxillary Chn. data not excluded
Tab delimiters

#CALIBRATION STATE
TRUE -- Waveform Calibration Values APPLIED.


#AUX CALIBRATION VALUES
Val Type	aux-1	

Term	1.0000e+00	
Factor	0.0000e+00	


#WF CALIBRATION VALUES
A = Detector Channel
Val Type	A-AC1	A-AC2	A-AC3	A-AC4	A-AC5	A-AC6	A-AC7	A-AC8	A-AC9	A-AC10	A-AC11	A-AC12	A-AC13	A-AC14	A-AC15	A-AC16	A-DC1	A-DC2	A-DC3	A-DC4	A-DC5	A-DC6	A-DC7	A-DC8	A-DC9	A-DC10	A-DC11	A-DC12	A-DC13	A-DC14	A-DC15	A-DC16	A-Ph1	A-Ph2	A-Ph3	A-Ph4	A-Ph5	A-Ph6	A-Ph7	A-Ph8	A-Ph9	A-Ph10	A-Ph11	A-Ph12	A-Ph13	A-Ph14	A-Ph15	A-Ph16	

Term	0.00000e+00	0.00000e+00	0.00000e+00	0.00000e+00	0.00000e+00	0.00000e+00	0.00000e+00	0.00000e+00	0.00000e+00	0.00000e+00	0.00000e+00	0.00000e+00	0.00000e+00	0.00000e+00	0.00000e+00	0.00000e+00	0.00000e+00	0.00000e+00	0.00000e+00	0.00000e+00	0.00000e+00	0.00000e+00	0.00000e+00	0.00000e+00	0.00000e+00	0.00000e+00	0.00000e+00	0.00000e+00	0.00000e+00	0.00000e+00	0.00000e+00	0.00000e+00	0.00000e+00	0.00000e+00	0.00000e+00	0.00000e+00	0.00000e+00	0.00000e+00	0.00000e+00	0.00000e+00	0.00000e+00	0.00000e+00	0.00000e+00	0.00000e+00	0.00000e+00	0.00000e+00	0.00000e+00	0.00000e+00	
Factor	1.00000e+00	1.00000e+00	1.00000e+00	1.00000e+00	1.00000e+00	1.00000e+00	1.00000e+00	1.00000e+00	1.00000e+00	1.00000e+00	1.00000e+00	1.00000e+00	1.00000e+00	1.00000e+00	1.00000e+00	1.00000e+00	1.00000e+00	1.00000e+00	1.00000e+00	1.00000e+00	1.00000e+00	1.00000e+00	1.00000e+00	1.00000e+00	1.00000e+00	1.00000e+00	1.00000e+00	1.00000e+00	1.00000e+00	1.00000e+00	1.00000e+00	1.00000e+00	X	X	X	X	X	X	X	X	X	X	X	X	X	X	X	X	

B = Detector Channel
Val Type	B-AC1	B-AC2	B-AC3	B-AC4	B-AC5	B-AC6	B-AC7	B-AC8	B-AC9	B-AC10	B-AC11	B-AC12	B-AC13	B-AC14	B-AC15	B-AC16	B-DC1	B-DC2	B-DC3	B-DC4	B-DC5	B-DC6	B-DC7	B-DC8	B-DC9	B-DC10	B-DC11	B-DC12	B-DC13	B-DC14	B-DC15	B-DC16	B-Ph1	B-Ph2	B-Ph3	B-Ph4	B-Ph5	B-Ph6	B-Ph7	B-Ph8	B-Ph9	B-Ph10	B-Ph11	B-Ph12	B-Ph13	B-Ph14	B-Ph15	B-Ph16	

Term	0.00000e+00	0.00000e+00	0.00000e+00	0.00000e+00	0.00000e+00	0.00000e+00	0.00000e+00	0.00000e+00	0.00000e+00	0.00000e+00	0.00000e+00	0.00000e+00	0.00000e+00	0.00000e+00	0.00000e+00	0.00000e+00	0.00000e+00	0.00000e+00	0.00000e+00	0.00000e+00	0.00000e+00	0.00000e+00	0.00000e+00	0.00000e+00	0.00000e+00	0.00000e+00	0.00000e+00	0.00000e+00	0.00000e+00	0.00000e+00	0.00000e+00	0.00000e+00	-2.52595e+02	-1.26487e+02	-1.31810e+02	-1.83580e+02	-9.53217e+01	-7.04341e+01	-1.58163e+02	-1.62015e+02	-9.38048e+01	-7.07157e+01	-1.70649e+02	-1.71149e+02	-1.78736e+02	-1.76810e+02	-6.95905e+01	-1.49929e+02	
Factor	6.57577e-05	1.42588e-04	3.98813e-05	1.59387e-01	2.26321e-06	1.63867e-06	1.78960e-01	5.86508e-02	1.89516e-06	1.75252e-06	9.77644e-02	3.36656e-02	3.08182e-02	1.06301e-02	1.65800e-06	1.51188e-02	3.52109e-06	3.79331e-06	1.05871e-06	7.47961e-02	4.09069e-08	4.16821e-08	7.88279e-02	2.75229e-02	4.08750e-08	4.15652e-08	4.44068e-02	1.52238e-02	1.45320e-02	5.00993e-03	4.13229e-08	6.90354e-03	X	X	X	X	X	X	X	X	X	X	X	X	X	X	X	X	



#DISTANCE SETTINGS
A = Detector Channel
A-1	A-2	A-3	A-4	A-5	A-6	A-7	A-8	A-9	A-10	A-11	A-12	A-13	A-14	A-15	A-16	

2.5000e+00	3.0000e+00	2.5000e+00	3.0000e+00	2.0000e+00	3.0000e+00	1.5000e+00	3.0000e+00	3.0000e+00	3.0000e+00	3.0000e+00	3.0000e+00	3.0000e+00	3.0000e+00	1.5000e+00	3.0000e+00	

B = Detector Channel
B-1	B-2	B-3	B-4	B-5	B-6	B-7	B-8	B-9	B-10	B-11	B-12	B-13	B-14	B-15	B-16	

1.0000e+01	1.0000e+01	1.0000e+01	1.4400e+00	1.0000e+01	1.0000e+01	1.5100e+00	1.9400e+00	1.0000e+01	1.0000e+01	1.9900e+00	2.4900e+00	2.4100e+00	2.9000e+00	1.0000e+01	2.9800e+00	




#DATA BEGINS
time	group	step	mark	flag	A-AC1	A-AC2	A-AC3	A-AC4	A-AC5	A-AC6	A-AC7	A-AC8	A-AC9	A-AC10	A-AC11	A-AC12	A-AC13	A-AC14	A-AC15	A-AC16	A-DC1	A-DC2	A-DC3	A-DC4	A-DC5	A-DC6	A-DC7	A-DC8	A-DC9	A-DC10	A-DC11	A-DC12	A-DC13	A-DC14	A-DC15	A-DC16	A-Ph1	A-Ph2	A-Ph3	A-Ph4	A-Ph5	A-Ph6	A-Ph7	A-Ph8	A-Ph9	A-Ph10	A-Ph11	A-Ph12	A-Ph13	A-Ph14	A-Ph15	A-Ph16	B-AC1	B-AC2	B-AC3	B-AC4	B-AC5	B-AC6	B-AC7	B-AC8	B-AC9	B-AC10	B-AC11	B-AC12	B-AC13	B-AC14	B-AC15	B-AC16	B-DC1	B-DC2	B-DC3	B-DC4	B-DC5	B-DC6	B-DC7	B-DC8	B-DC9	B-DC10	B-DC11	B-DC12	B-DC13	B-DC14	B-DC15	B-DC16	B-Ph1	B-Ph2	B-Ph3	B-Ph4	B-Ph5	B-Ph6	B-Ph7	B-Ph8	B-Ph9	B-Ph10	B-Ph11	B-Ph12	B-Ph13	B-Ph14	B-Ph15	B-Ph16	aux-1	digaux	

52204.680	1	1	0	768	0.21302	0.059816	0.094985	0.18871	0.11986	0.24317	0.26778	0.26387	0.12683	0.052195	0.25157	0.16218	0.19642	0.11459	0.14435	0.22664	-3.9771	-5.1229	-4.2167	-4.7208	-4.975	-4.1625	-5.0125	-4.9396	-4.1521	-5.0604	-4.6083	-4.4542	-5.1167	-4.1958	-4.8417	-4.9833	1.914	189.229	94.944	109.064	-19.319	-120.967	170.613	188.699	160.709	-73.607	207.948	120.544	-102.394	194.506	-8.165	71.960	0.0008552	0.00010845	0.0001151	1369.2	2.8908e-06	6.4775e-06	1360.1	368.27	6.9465e-06	8.3469e-06	419.7	140.58	122.62	41.876	2.9561e-06	51.389	0.0005463	0.00054148	0.00015299	1383.2	5.9993e-06	5.8495e-06	1380.9	374.23	5.898e-06	5.8428e-06	426.77	143.35	124.65	42.952	5.9257e-06	53.147	79.384	-32.943	-38.763	-111.054	-113.571	6.601	-111.113	-106.257	-22.356	-17.831	-106.748	-102.516	-101.911	-97.306	-17.500	-98.111	-8191	255	
52204.777	1	1	0	0	0.090733	0.22192	0.20509	0.27633	0.18593	0.099099	0.20795	0.1882	0.2655	0.19109	0.095834	0.26626	0.10319	0.22571	0.19862	0.2153	-3.9	-5.0437	-4.3667	-4.4146	-5.0604	-4.075	-4.9375	-5.0458	-4.0917	-4.8812	-4.6625	-4.1875	-5.2104	-4.2667	-4.5271	-5.0417	5.030	10.683	70.032	205.733	-60.261	26.645	197.324	181.993	192.623	-85.974	203.808	192.699	201.048	229.473	-116.170	169.893	0.00084229	0.00040392	2.8464e-05	1361.8	7.3914e-06	5.1659e-06	1359.3	367.64	3.5968e-06	5.2829e-06	417.88	139.9	122.35	41.928	5.0827e-06	51.893	0.00054484	0.00053925	0.00015296	1381.1	5.9497e-06	5.904e-06	1380.8	374.58	5.9001e-06	5.924e-06	426.47	143.14	124.74	43.049	5.8515e-06	53.297	90.244	-20.075	-109.971	-110.953	-22.881	-10.442	-111.039	-106.212	-62.921	16.758	-106.394	-102.902	-102.147	-97.216	19.595	-97.990	-8191	255	
52204.871	1	1	0	0	0.13126	0.1354	0.26086	0.25948	0.067635	0.076712	0.20331	0.22071	0.14635	0.22834	0.15788	0.093522	0.04659	0.12047	0.22681	0.02193	-3.8458	-4.7417	-4.5854	-4.2521	-5.0104	-4.2833	-4.8104	-5.1729	-3.9708	-4.875	-4.5979	-4.325	-5.2333	-4.5854	-4.3812	-5.1979	30.969	-82.607	-104.854	191.773	67.439	137.692	176.457	211.388	-77.268	207.516	124.335	200.390	87.011	-14.304	21.912	-39.327	0.00083515	0.00038947	8.0109e-05	1362.7	7.0938e-06	5.5037e-06	1360.6	367.01	7.1807e-06	6.0805e-06	417.34	139.75	121.77	41.606	4.3159e-06	51.44	0.00055	0.0005393	0.00015108	1383.5	5.9516e-06	6.0215e-06	1382	374.14	6.004e-06	5.9813e-06	426.84	143.22	124.5	42.97	5.9451e-06	53.083	79.063	-4.523	-50.465	-110.625	24.971	64.547	-110.793	-106.221	-34.622	41.515	-106.576	-102.691	-102.127	-97.189	12.070	-98.078	-8191	255	
52204.969	1	1	0	0	0.040328	0.077903	0.1425	0.19987	0.23942	0.2643	0.29729	0.14496	0.065887	0.1573	0.25195	0.11927	0.21538	0.040648	0.15479	0.093328	-3.8896	-4.7708	-4.8729	-4.2188	-5.1312	-4.3292	-4.6125	-5.2312	-4.2208	-4.7833	-5.0125	-4.1167	-5.1021	-4.4479	-4.5687	-5.2771	51.943	-23.922	156.354	-96.027	178.120	212.563	211.307	172.574	90.650	51.643	192.624	151.138	134.330	-81.141	11.875	232.310	0.00077407	0.00022085	0.00014292	1367.6	4.6256e-06	3.5865e-06	1359.8	368.7	4.8564e-06	2.469e-06	419.77	140.54	122.56	41.813	2.0208e-06	51.744	0.00054655	0.00054036	0.00015181	1384.4	5.8808e-06	6.0272e-06	1381.9	374.71	5.9339e-06	6.005e-06	427.69	143.27	124.87	42.983	5.8958e-06	53.266	82.517	-64.688	-63.516	-110.775	-15.397	32.451	-111.078	-106.352	-32.685	31.156	-106.637	-102.923	-101.904	-97.106	-60.914	-98.042	-8191	255	
52205.062	1	1	0	0	0.11883	0.086748	0.010162	0.26367	0.1526	0.16263	0.36427	0.1837	0.08652	0.22733	0.093264	0.14284	0.098721	0.031363	0.21151	0.038789	-3.9771	-4.6667	-4.7958	-4.2604	-5.0333	-4.7063	-4.5312	-5.2583	-4.2688	-4.6188	-5.2583	-4.1729	-5.0437	-4.6833	-4.2333	-5.2958	33.953	-110.668	-35.171	145.947	-101.678	201.139	146.917	-94.002	-59.774	-59.055	120.766	-123.159	-50.887	221.031	-115.240	-83.412	0.0009608	0.00079181	0.00016469	1364.7	1.6366e-06	3.9336e-06	1357.8	368.27	3.1661e-06	3.4235e-06	417.75	140.31	122.1	41.716	7.51e-06	51.79	0.00055133	0.00054062	0.00015323	1382.7	5.9183e-06	5.9439e-06	1380.7	374.51	5.9405e-06	5.946e-06	427.13	143.18	124.71	42.961	5.9727e-06	53.274	76.151	-30.503	-80.292	-110.712	60.494	-21.963	-110.904	-106.369	-45.526	43.548	-106.587	-102.603	-102.094	-97.118	33.511	-97.873	-8191	255	
52205.160	1	1	0	0	0.14101	0.048796	0.25148	0.069404	0.20082	0.016186	0.2413	0.1654	0.15971	0.12605	0.14968	0.055749	0.10871	0.033145	0.0254	0.22165	-4.0875	-4.5042	-4.9938	-4.2396	-4.7896	-4.7562	-4.35	-5.2667	-4.2958	-4.3146	-5.1208	-4.3417	-4.7604	-4.9208	-4.15	-5.0417	121.713	-89.547	130.146	226.304	-42.056	-15.900	175.150	166.703	-76.720	-7.068	184.002	-18.058	109.500	187.167	148.532	144.038	0.0009352	0.00044837	0.00014457	1366.6	2.785e-06	4.3841e-06	1363.5	367.22	2.322e-06	4.2582e-06	417.42	140.02	122.51	41.971	7.0682e-06	51.765	0.00055261	0.00054077	0.00014996	1383.4	6.0432e-06	5.8329e-06	1383.6	374.68	6.0084e-06	6.0076e-06	426.7	143.22	124.62	42.969	5.9055e-06	53.161	82.286	-42.042	-23.108	-110.650	32.963	8.644	-111.114	-106.234	-24.571	30.178	-106.451	-102.646	-102.158	-97.236	0.314	-97.839	-8191	255	
52205.281	1	1	0	0	0.12798	0.37106	0.42425	0.094928	0.049111	0.14608	0.14411	0.30054	0.22095	0.28793	0.040058	0.072794	0.2273	0.074899	0.13653	0.093556	-4.1125	-4.4208	-4.9583	-4.4167	-4.8938	-4.8104	-4.5479	-5.1146	-4.5188	-4.3438	-5.3354	-4.4021	-4.8667	-5.0854	-4.1312	-5.0208	23.921	153.882	-23.680	195.530	-53.682	-12.666	222.713	192.315	157.540	28.129	0.855	196.850	197.776	216.027	158.489	189.971	0.00085835	6.9244e-05	0.00013576	1367	7.4366e-06	5.6957e-06	1365.3	368.56	5.2263e-06	5.7697e-06	419.7	139.75	121.61	41.894	3.8884e-06	51.667	0.00055031	0.00053901	0.0001506	1384.8	5.9138e-06	5.9398e-06	1381.9	374.99	5.9192e-06	5.9041e-06	428.09	143.43	124.57	42.986	5.8853e-06	53.22	85.541	-66.059	-60.205	-110.753	-12.900	26.026	-111.000	-106.221	7.162	11.663	-106.701	-102.449	-101.972	-97.040	43.929	-97.428	-8191	255	
52205.379	1	1	0	0	0.22629	0.16839	0.20669	0.060478	0.21412	0.30888	0.32253	0.39105	0.28002	0.21351	0.16574	0.19951	0.081563	0.031403	0.039893	0.10898	-4.3354	-4.2667	-5.0542	-4.6333	-4.3771	-4.9333	-4.3271	-5.0312	-4.5375	-4.3917	-5.2583	-4.4583	-4.6271	-4.9292	-4.3146	-4.9333	107.571	-51.230	133.665	191.796	11.897	196.904	152.458	161.516	45.710	-54.570	102.821	124.698	50.355	235.346	-123.986	97.557	0.00095467	0.00032477	0.00010533	1362	6.3979e-06	6.1432e-06	1362.3	369.38	1.2099e-05	8.8686e-06	420.12	139.96	122.53	42.018	8.2438e-06	51.774	0.00054553	0.00053828	0.00014824	1382.3	6.0292e-06	5.8553e-06	1383.4	374.94	5.8855e-06	5.8344e-06	428.14	143.26	124.82	43.028	5.8448e-06	53.229	75.116	2.107	-37.478	-110.691	-31.454	-1.579	-110.806	-106.528	-39.390	41.810	-106.625	-102.713	-102.147	-97.249	6.844	-97.960	-8191	255	
52205.473	1	1	0	0	0.21718	0.27165	0.10644	0.064572	0.13775	0.10742	0.16176	0.2874	0.027396	0.11767	0.032999	0.13162	0.19304	0.18177	0.14352	0.18178	-4.4396	-4.0708	-4.9917	-4.6229	-4.3104	-5.175	-4.2937	-4.8479	-4.7312	-4.0875	-5.0687	-4.6771	-4.3771	-5.1917	-4.2833	-4.7542	-26.221	-86.668	-14.562	153.101	108.746	-99.175	171.849	176.911	101.383	119.588	53.598	209.086	170.100	-73.379	155.610	91.217	0.00082302	0.00058046	0.00011223	1361.4	1.0231e-05	5.7577e-06	1358.7	367.3	1.0366e-06	1.9707e-06	419.3	140.25	122.69	41.848	3.9651e-06	51.912	0.00054666	0.00053544	0.00014891	1381.6	5.9889e-06	5.8963e-06	1382	374.51	5.7796e-06	5.8649e-06	428.33	143.45	124.8	42.956	5.9632e-06	53.276	80.750	-14.595	-36.674	-110.573	-29.638	11.896	-110.975	-106.290	233.312	-13.859	-106.651	-102.562	-102.124	-97.264	-17.169	-97.817	-8191	255	
52205.570	1	1	0	0	0.089531	0.18222	0.05183	0.1185	0.12167	0.13579	0.20197	0.22864	0.093224	0.044316	0.095662	0.15083	0.12238	0.1109	0.16095	0.2018	-4.6375	-4.25	-4.8729	-4.6417	-4.0583	-5.2604	-4.4375	-4.7708	-4.8646	-4.0979	-5.1229	-4.7792	-4.3833	-5.1771	-4.3917	-4.5875	31.091	-120.260	126.236	197.211	232.610	-90.682	75.152	163.692	163.224	47.726	45.342	113.635	220.340	-50.691	46.534	-87.239	0.00092964	0.00013457	9.342e-05	1365.1	7.1651e-06	5.635e-06	1364.6	368.28	2.028e-06	7.816e-06	419.24	139.78	122.05	41.79	7.34e-07	51.652	0.00055295	0.00053354	0.00014911	1384.3	5.9276e-06	5.8265e-06	1383.1	374.92	5.8669e-06	5.796e-06	427.45	143.19	124.53	43.019	5.9653e-06	53.211	83.065	-37.545	-32.068	-110.676	20.359	25.948	-111.009	-106.348	-55.597	21.860	-106.467	-102.740	-102.256	-97.089	153.464	-98.271	-8191	255	
52205.664	1	1	0	0	0.20025	0.13732	0.11436	0.36779	0.079935	0.10311	0.27846	0.11671	0.18654	0.16934	0.10381	0.15865	0.14354	0.17768	0.12688	0.24668	-4.6958	-4.0437	-5.0167	-4.8792	-4.2438	-5.0583	-4.6438	-4.4875	-4.9583	-4.1896	-4.9313	-4.9208	-4.1875	-5.1875	-4.3833	-4.6167	-68.850	-37.421	24.788	186.763	41.679	221.486	133.700	123.320	114.067	90.150	219.110	-61.758	47.228	141.995	52.580	191.535	0.00092737	0.00064805	0.00016517	1367.2	6.9364e-06	7.276e-06	1361.3	368.14	7.1631e-06	6.0162e-06	419.76	140.6	122.67	41.943	5.1442e-06	51.685	0.00054399	0.00053969	0.00014967	1383.6	5.9134e-06	5.8813e-06	1382.1	374.71	5.7875e-06	5.8306e-06	428.35	143.37	124.47	43.018	5.856e-06	53.174	73.898	-12.272	-55.238	-110.739	-21.452	11.920	-110.902	-106.235	11.081	11.822	-106.698	-102.623	-102.417	-97.275	-21.633	-97.832	-8191	255	
52205.762	1	1	0	0	0.099808	0.15995	0.1231	0.33115	0.13132	0.13645	0.082319	0.14381	0.19196	0.056503	0.049813	0.12386	0.054916	0.22473	0.083533	0.25588	-4.825	-4.4417	-4.8083	-4.9563	-4.2729	-5.0167	-4.8458	-4.2708	-4.9896	-4.1958	-4.925	-5.0312	-4.2917	-5.1604	-4.6646	-4.1958	7.539	-62.160	230.392	182.459	135.401	174.756	-60.687	115.881	221.571	220.619	96.771	1.183	154.360	232.456	-51.144	215.218	0.00078617	0.00059794	9.949e-05	1366.4	2.6661e-06	1.5709e-06	1358.8	367.82	4.6521e-06	7.1316e-06	419.89	140.27	121.75	41.899	4.417e-06	51.659	0.00054078	0.00053798	0.0001485	1384.2	5.8545e-06	5.8991e-06	1381.7	374.51	5.8854e-06	5.8925e-06	428.32	143.19	124.57	43.016	5.8287e-06	53.218	71.286	-41.268	-5.624	-110.634	28.597	21.979	-110.926	-106.412	-55.926	17.357	-106.833	-102.774	-102.145	-97.109	26.272	-97.912	-8191	255	
52205.855	1	1	0	0	0.22672	0.098366	0.073673	0.091056	0.12704	0.050043	0.15041	0.14243	0.23754	0.078081	0.25616	0.04994	0.17577	0.22779	0.075846	0.090342	-4.7125	-4.3854	-4.525	-5.0896	-4.0917	-4.9187	-5.0229	-4.3833	-5.0437	-4.3167	-4.6271	-4.9708	-4.2458	-4.975	-4.8042	-4.2937	-92.652	196.271	3.582	30.990	65.165	-89.520	108.671	220.467	7.372	23.511	-99.228	86.242	229.200	224.571	-50.851	27.747	0.00099652	0.0004596	0.00018798	1362.5	4.6225e-06	3.2878e-06	1359.2	368.24	4.3418e-06	1.0327e-05	420.58	140.61	122.1	41.908	2.0839e-06	52.034	0.00054567	0.00053997	0.00015062	1383.8	5.851e-06	5.877e-06	1382.9	374.8	5.7804e-06	5.9172e-06	427.88	143.42	124.94	43.035	5.8457e-06	53.299	77.002	-76.179	-46.638	-110.679	-55.064	1.155	-110.865	-106.258	-39.753	30.237	-106.818	-102.734	-102.047	-96.813	79.466	-97.868	-8191	255	
52205.977	1	1	0	0	0.17811	0.14892	0.070424	0.2879	0.10861	0.054551	0.40305	0.18985	0.15322	0.13362	0.064942	0.20005	0.18875	0.074726	0.11439	0.18928	-4.75	-4.4479	-4.5104	-5.2958	-4.2146	-4.8583	-5.1042	-4.35	-4.9437	-4.4896	-4.4437	-5.2771	-4.3875	-4.8792	-4.925	-4.2604	-27.741	85.260	-47.508	206.337	-55.446	-83.989	210.957	194.600	52.982	188.969	97.884	202.879	211.814	168.228	220.035	112.088	0.00094764	0.00067605	0.00011788	1363.7	9.3821e-07	4.3642e-06	1351.8	368.76	6.0098e-06	5.491e-06	419.41	140.05	121.96	42.045	4.7698e-06	51.693	0.00054585	0.00053595	0.00015027	1383.1	5.9549e-06	5.9133e-06	1380.1	375.2	5.9728e-06	5.963e-06	427.42	143.45	124.49	43.042	5.9316e-06	53.178	76.076	-50.802	-69.589	-110.543	43.298	71.952	-110.790	-105.979	-95.938	26.387	-106.639	-102.467	-102.462	-97.206	18.128	-98.069	-8191	255	
52206.070	1	1	0	0	0.39402	0.08787	0.28746	0.12223	0.066928	0.022112	0.17042	0.28015	0.18342	0.11505	0.085467	0.29103	0.10707	0.33762	0.20921	0.27878	-4.6979	-4.5292	-4.3708	-5.2812	-4.1625	-4.6104	-5.2417	-4.3604	-5.0854	-4.6729	-4.3271	-5.3125	-4.2979	-4.6583	-4.95	-4.1354	184.642	-35.894	232.474	199.419	28.959	142.033	-118.182	134.749	40.163	86.080	158.259	217.132	135.613	-119.828	129.685	191.789	0.00095618	0.00039512	6.8479e-05	1365.8	3.4884e-06	7.7788e-06	1362.1	366.86	6.8438e-06	8.7651e-06	420.63	139.96	122.29	41.714	4.334e-06	51.533	0.00055005	0.00053801	0.00015134	1383.5	5.9129e-06	5.9713e-06	1382.8	374.11	5.9252e-06	5.9105e-06	427.86	143.31	124.51	43.015	5.9316e-06	53.116	87.385	-22.120	-53.565	-110.632	-26.668	7.038	-110.904	-106.197	-34.658	21.241	-106.884	-102.774	-102.112	-97.187	-64.925	-97.910	-8191	255	
52206.168	1	1	0	0	0.11643	0.21017	0.13411	0.17545	0.18722	0.06236	0.086422	0.095711	0.10824	0.19415	0.27937	0.10827	0.17827	0.28854	0.029194	0.26326	-4.5437	-4.8271	-4.2354	-5.475	-4.4187	-4.3167	-5.1979	-4.2854	-4.8292	-4.8667	-4.3542	-5.0646	-4.6521	-4.4854	-5.1875	-4.2354	40.045	192.962	30.320	172.433	43.015	-67.224	114.625	135.861	-35.982	132.415	134.322	230.233	120.681	217.640	-73.195	121.547	0.00084393	0.00017427	0.00014554	1364.7	8.1757e-06	3.4162e-06	1359.9	368.32	5.2629e-06	7.0963e-06	420.99	140.62	122.27	41.655	1.8386e-06	51.8	0.0005565	0.00054189	0.00015111	1385.1	5.9617e-06	5.954e-06	1382.6	374.34	5.9678e-06	5.9531e-06	427.95	143.54	124.6	42.987	5.8556e-06	53.153	75.482	-48.383	-48.440	-110.427	-18.815	-16.219	-110.894	-106.230	-46.648	13.710	-106.645	-102.561	-102.140	-97.280	-16.239	-98.118	-8191	255	
52206.242	1	1	0	0	0.11788	0.12155	0.21502	0.21902	0.14767	0.21799	0.27614	0.28844	0.068164	0.33255	0.16192	0.2132	0.23733	0.15363	0.20448	0.11699	-4.5583	-4.875	-4.1354	-5.3229	-4.4458	-4.3896	-5.3333	-4.3333	-4.7729	-4.8063	-4.2812	-5.1333	-4.6125	-4.4833	-5.2083	-4.3146	-63.695	45.737	58.261	-122.797	85.441	-72.426	149.838	154.454	-1.569	175.630	151.804	216.635	28.497	195.837	127.352	120.025	0.00087072	0.00064061	7.554e-05	1365.4	4.3649e-06	7.6712e-06	1361.1	367.66	4.3526e-06	6.8436e-06	419.14	140.2	121.47	42.056	2.0394e-06	51.631	0.00055477	0.00054729	0.000152	1382.8	5.9992e-06	5.9556e-06	1382	374.36	5.974e-06	5.8525e-06	427.35	143.31	124.46	43.013	5.9255e-06	53.151	76.860	1.424	-20.944	-110.658	-83.207	0.352	-111.014	-106.194	-6.310	8.303	-106.895	-102.444	-102.048	-97.124	-8.839	-98.045	-8191	255	
52206.359	1	1	0	0	0.13702	0.20892	0.030569	0.31153	0.2348	0.12278	0.09621	0.25881	0.036305	0.20413	0.37529	0.20377	0.065324	0.21358	0.028513	0.17355	-4.2042	-4.9208	-4.1542	-5.0917	-4.7708	-4.1396	-5.4083	-4.425	-4.7292	-5.0167	-4.1521	-5.0938	-4.7771	-4.2562	-5.0437	-4.475	-82.355	196.339	-78.357	191.471	123.154	204.090	215.516	-114.041	212.915	-33.645	204.143	162.814	214.479	195.908	127.114	-119.128	0.00087011	0.00038766	0.00011136	1363.6	7.8821e-06	1.2677e-06	1358.7	366.7	8.9164e-06	5.0508e-06	420.2	140.28	121.7	41.645	5.4823e-06	51.608	0.00055641	0.00054112	0.00015304	1382.6	6.0258e-06	5.9726e-06	1380.5	374.14	6.0194e-06	5.9288e-06	427.37	143.15	124.54	42.925	6.0195e-06	53.179	71.171	-69.889	-75.460	-110.766	-60.695	3.932	-110.941	-106.234	-96.677	23.484	-106.667	-102.771	-101.981	-97.239	0.207	-97.746	-8191	255	
52206.457	1	1	0	0	0.031408	0.16254	0.052983	0.21266	0.1483	0.037223	0.22318	0.06619	0.093769	0.11935	0.163	0.07795	0.21322	0.10388	0.12114	0.11887	-4.0437	-5.0292	-4.0687	-4.9521	-4.6333	-4.1979	-5.2833	-4.6562	-4.2438	-5.0667	-4.2521	-4.7458	-4.9812	-4.0521	-5.1125	-4.6521	68.878	-92.461	91.720	193.239	55.315	27.611	213.530	137.136	187.479	-63.636	190.076	65.208	168.586	86.255	-86.062	180.173	0.00093278	0.00032344	0.00014693	1362	4.0436e-06	8.1298e-06	1354	368.91	5.7352e-06	4.4299e-06	419.29	140.44	121.73	41.914	6.5153e-06	51.557	0.00055773	0.00054531	0.00015415	1382.6	5.9936e-06	5.9973e-06	1381	374.79	5.8563e-06	5.8768e-06	427.29	143.48	124.51	42.969	5.985e-06	53.103	76.307	-34.072	27.449	-110.727	-12.401	44.678	-111.155	-106.114	-30.704	12.388	-106.452	-102.893	-101.948	-97.117	73.940	-97.668	-8191	255	
52206.555	1	1	0	0	0.12291	0.098407	0.11151	0.24071	0.0807	0.39246	0.21622	0.28517	0.036679	0.083972	0.1061	0.20537	0.15757	0.10709	0.22522	0.071854	-3.9396	-5.1333	-4.2333	-4.8979	-4.95	-4.1229	-5.2208	-4.6687	-4.2417	-5.1021	-4.4333	-4.6708	-5.0771	-4.1625	-4.8229	-4.7729	-70.109	137.833	-46.553	178.419	202.825	-37.010	196.096	218.939	-28.203	-5.905	202.675	121.615	158.891	-88.126	-14.763	84.569	0.00098657	0.00044055	0.00010875	1366	2.4283e-06	5.4845e-06	1360.7	368.75	5.4625e-06	3.1234e-06	418.01	139.94	121.53	41.729	6.6793e-06	51.893	0.00055354	0.00054373	0.00015552	1384.6	5.9715e-06	5.9436e-06	1381.8	375.03	5.9591e-06	5.9999e-06	427.24	143.19	124.5	42.964	5.9821e-06	53.206	77.589	-26.572	10.577	-110.837	-0.706	35.296	-110.950	-106.140	-26.834	-8.838	-106.894	-102.750	-102.061	-97.334	-24.024	-97.988	-8191	255	
52206.676	1	1	0	0	0.13901	0.054978	0.022904	0.22004	0.18851	0.17606	0.21244	0.19126	0.045506	0.15649	0.21626	0.24269	0.18668	0.097906	0.1075	0.20007	-4.0021	-5.0146	-4.3313	-4.6896	-5.0229	-4.1083	-4.9771	-5.0208	-4.1583	-5.0208	-4.5583	-4.4437	-5.1292	-4.1625	-4.8812	-4.9458	214.999	13.453	-24.661	172.055	126.819	133.506	199.768	140.415	210.725	-33.374	153.775	156.188	227.161	201.825	-114.393	196.747	0.0010383	0.0008129	0.00012098	1363.8	6.9556e-06	4.0324e-06	1357.5	367.07	6.1363e-06	5.6603e-06	419.16	139.82	121.65	41.589	2.4609e-06	51.567	0.0005521	0.00055068	0.0001525	1383.7	5.9133e-06	6.015e-06	1381.8	374.28	5.9371e-06	5.9202e-06	427.01	143.1	124.51	42.868	5.9912e-06	53.061	80.130	-33.499	-97.346	-110.792	-51.103	43.944	-110.989	-106.187	-15.060	36.415	-106.654	-102.747	-102.199	-97.004	-20.605	-97.676	-8191	255	
52206.770	1	1	0	0	0.15694	0.054695	0.17502	0.073704	0.11866	0.16039	0.18304	0.10328	0.17199	0.050165	0.20245	0.1505	0.16041	0.22696	0.37152	0.13917	-3.8958	-5.1333	-4.45	-4.4958	-5.2146	-4.275	-4.9333	-4.9625	-4.3021	-5.0625	-4.6438	-4.4437	-5.1958	-4.3292	-4.55	-4.9458	-83.219	-57.810	-25.595	173.481	-59.983	-18.207	-103.928	115.749	57.547	40.711	207.113	217.663	225.005	223.574	75.207	112.155	0.00088873	0.00069417	0.00013492	1365.1	6.3868e-06	6.9036e-06	1360.2	369.17	5.6203e-06	7.0013e-06	417.08	140.13	121.04	41.997	2.7259e-06	51.618	0.00055587	0.00054236	0.00015067	1383.3	5.7945e-06	5.977e-06	1381.3	374.75	5.9201e-06	5.9213e-06	426.67	143.34	124.34	43.03	5.9215e-06	53.164	80.669	-13.714	-43.099	-110.945	-45.187	75.294	-111.080	-105.952	-60.415	10.702	-106.495	-102.833	-101.993	-97.259	65.171	-97.843	-8191	255	
52206.844	1	1	0	0	0.1215	0.068168	0.13506	0.36796	0.188	0.1132	0.046227	0.10586	0.10605	0.077597	0.2105	0.18289	0.20187	0.097799	0.27823	0.12293	-3.775	-4.8521	-4.7188	-4.3646	-5.0396	-4.2812	-4.6167	-5.2625	-4.1729	-4.8604	-4.6396	-4.3063	-5.0875	-4.5146	-4.4104	-5.1042	50.538	-59.791	122.684	168.827	77.661	-50.901	194.298	206.052	-30.388	-123.130	167.710	179.013	-112.889	110.407	201.392	227.503	0.00087372	0.00049541	0.00016131	1364.1	3.0624e-06	3.794e-06	1362.9	367.35	6.1227e-06	6.7703e-06	419.48	140.21	121.72	42.024	7.6634e-06	51.609	0.00054591	0.00053722	0.00015042	1382.6	5.9067e-06	5.8548e-06	1382.9	374.39	5.8177e-06	5.8556e-06	426.92	143.33	124.56	43.048	5.8302e-06	53.17	83.865	-26.226	-48.807	-110.867	-59.208	79.284	-111.129	-106.260	-48.826	1.480	-106.767	-102.767	-101.993	-97.220	-4.315	-97.912	-8191	255	
52206.961	1	1	0	0	0.10232	0.078937	0.24393	0.16788	0.05104	0.15838	0.14927	0.099451	0.20554	0.081692	0.25477	0.16462	0.21723	0.025068	0.029111	0.1416	-3.6896	-4.7375	-4.8542	-4.4812	-4.9917	-4.4708	-4.6042	-5.1312	-4.0563	-4.825	-5.0604	-4.275	-5.15	-4.6271	-4.2625	-5.2708	167.354	81.415	131.224	202.887	-54.207	-47.155	174.397	193.423	89.505	-89.626	89.637	-89.453	165.259	233.514	-84.234	122.396	0.00085255	0.00059613	9.8336e-05	1366.1	4.9322e-06	4.448e-06	1365.4	367.63	3.5697e-06	5.1137e-06	419.92	139.89	121.74	41.714	4.3555e-06	51.599	0.00053603	0.0005306	0.00014854	1382.3	5.8921e-06	5.8209e-06	1384.8	374.37	5.8383e-06	5.8106e-06	427.38	143.12	124.69	42.926	5.924e-06	53.194	72.104	-35.556	-71.296	-110.902	-22.742	37.596	-111.009	-106.221	-12.337	9.853	-106.413	-102.731	-102.263	-97.100	40.047	-98.102	-8191	255	
52207.059	1	1	0	0	0.066121	0.1186	0.1953	0.25142	0.16444	0.19365	0.15277	0.18736	0.050256	0.093485	0.10196	0.16903	0.11411	0.38865	0.022678	0.16394	-3.8458	-4.625	-4.9437	-4.4437	-4.9271	-4.5354	-4.5687	-5.3125	-4.2042	-4.5167	-5.0896	-4.2104	-5.0354	-4.8479	-4.1792	-5.225	-2.477	11.732	90.271	-121.488	187.942	145.473	153.447	185.169	197.703	222.609	128.901	223.808	112.489	211.738	45.044	-78.385	0.0010865	0.00052223	0.00027337	1367.3	2.964e-06	4.3707e-06	1359	367.01	6.6429e-06	5.5099e-06	419.59	140.57	122.19	41.817	4.181e-06	51.666	0.00055095	0.0005392	0.0001485	1384.6	5.8911e-06	5.8338e-06	1382	374.32	5.8983e-06	5.8381e-06	427.55	143.07	124.65	42.95	5.7786e-06	53.194	78.803	1.819	-52.021	-110.732	-27.640	66.677	-110.999	-106.129	-36.135	23.683	-106.566	-103.027	-102.178	-96.954	28.293	-97.955	-8191	255	
52207.152	1	1	0	0	0.19603	0.11316	0.14235	0.2373	0.10948	0.11091	0.17974	0.24525	0.12971	0.12182	0.24319	0.10921	0.15614	0.25214	0.13653	0.1884	-3.9646	-4.4771	-5.0021	-4.3479	-4.9417	-4.7792	-4.4208	-5.225	-4.5125	-4.5479	-5.2937	-4.1792	-4.9187	-5.0292	-3.9813	-5.2042	6.033	-27.939	210.662	-107.663	-75.971	-13.376	200.452	225.992	-122.456	-70.916	140.578	-46.692	-50.707	134.595	15.338	139.459	0.0010051	0.00024523	0.00013133	1363.4	5.5006e-06	5.1598e-06	1362.2	369.63	6.425e-06	3.1931e-06	420.51	140.56	121.77	42.023	4.9115e-06	51.683	0.00054734	0.00053477	0.00014773	1383.8	5.8254e-06	5.8007e-06	1381.9	374.96	5.8241e-06	5.8664e-06	427.37	143.27	124.64	43.009	5.7784e-06	53.216	78.210	-4.737	-35.183	-110.824	-33.172	40.820	-111.141	-106.314	-23.391	31.510	-106.476	-102.938	-102.036	-97.411	8.250	-97.770	-8191	255	
52207.273	1	1	0	0	0.25289	0.014811	0.14842	0.13625	0.15221	0.18973	0.21129	0.07822	0.27211	0.091892	0.09787	0.092845	0.12185	0.07814	0.18709	0.14565	-4.2917	-4.4313	-4.9896	-4.4021	-4.5854	-4.9542	-4.1958	-5.2125	-4.5333	-4.2583	-5.2812	-4.3104	-4.8125	-5.0813	-4.1813	-5.075	-121.136	116.014	99.117	170.997	-73.081	-101.215	196.070	102.706	71.009	-66.891	180.121	227.200	-104.840	201.872	133.342	232.794	0.0010094	0.00035202	0.00013793	1367.9	3.5346e-06	5.3531e-06	1359.9	367.63	2.6607e-06	3.471e-07	420.5	140.13	122.21	41.84	8.6655e-06	51.918	0.00054521	0.00053696	0.00014614	1383.9	5.7813e-06	5.7358e-06	1384.4	374.36	5.8375e-06	5.7152e-06	427.98	143.34	124.75	42.964	5.8591e-06	53.222	78.693	-10.085	-39.065	-110.768	40.107	44.338	-111.144	-106.208	1.714	-61.302	-106.545	-102.714	-102.132	-97.126	3.095	-97.967	-8191	255	
52207.371	1	1	0	0	0.20518	0.075085	0.13974	0.2986	0.36192	0.28052	0.20755	0.12994	0.26774	0.37116	0.095202	0.069068	0.053509	0.1492	0.098756	0.061598	-4.2604	-4.2042	-5.0062	-4.6042	-4.4396	-5.0229	-4.2583	-5.0542	-4.675	-4.2688	-5.2021	-4.3562	-4.4917	-4.9271	-4.0375	-4.9708	99.919	-3.664	38.735	191.451	226.104	-85.064	224.267	-79.455	66.151	170.730	77.186	-92.505	17.854	68.331	-65.416	139.687	0.00099898	0.00025306	0.00022276	1367.5	1.1125e-05	7.6154e-06	1361.2	369.38	3.3506e-06	6.145e-06	419.31	140.74	122.58	42.02	5.892e-06	51.935	0.0005286	0.00052398	0.0001476	1385.2	5.7784e-06	5.6297e-06	1383.2	374.72	5.7063e-06	5.5895e-06	428.09	143.4	124.93	43.074	5.7378e-06	53.27	78.359	-29.164	-56.198	-110.786	-25.335	22.247	-110.874	-106.069	-20.426	39.240	-107.027	-102.633	-102.251	-97.159	0.126	-98.035	-8191	255	
52207.465	1	1	0	0	0.14685	0.37444	0.084168	0.072234	0.078871	0.14737	0.34049	0.0076363	0.065127	0.20994	0.17456	0.20202	0.23221	0.21208	0.030549	0.27833	-4.5542	-4.1583	-5.0687	-4.6146	-4.3208	-5.2458	-4.4437	-4.9104	-4.7875	-4.1792	-5.1958	-4.6167	-4.4375	-5.1917	-4.1583	-4.7438	110.878	24.752	100.247	137.492	-117.930	235.157	170.134	38.636	106.757	155.403	28.744	185.209	202.047	225.507	3.504	-99.543	0.0010228	0.00018644	0.00017486	1364.8	7.0939e-06	2.7235e-06	1365.4	368.73	3.146e-06	2.4662e-06	421.06	140.67	121.54	41.852	5.0671e-06	51.258	0.00053749	0.00052283	0.00014615	1383.3	5.7651e-06	5.6788e-06	1383	374.92	5.7503e-06	5.8081e-06	427.71	143.46	124.53	42.971	5.9286e-06	53.081	70.899	80.404	-42.955	-110.604	-64.234	-66.048	-111.077	-106.049	57.085	-39.326	-106.442	-102.661	-102.141	-96.903	7.799	-98.041	-8191	255	
52207.535	1	1	0	0	0.07687	0.26262	0.15587	0.31093	0.0053652	0.078728	0.19258	0.14482	0.095417	0.18289	0.05279	0.10471	0.01869	0.10273	0.12906	0.074554	-4.6042	-4.0292	-5.2042	-4.8271	-4.2438	-5.1521	-4.3812	-4.7812	-4.8979	-4	-5.1146	-4.7646	-4.4542	-5.2479	-4.2333	-4.6333	205.243	-5.675	-14.154	194.313	227.226	78.176	163.051	197.543	33.416	155.025	90.635	160.544	91.107	210.707	-8.788	45.167	0.00088572	0.00038207	0.00020572	1363.6	6.7934e-06	4.3609e-06	1360.8	367.51	7.5271e-06	6.8406e-06	420.46	140.27	122.77	41.902	5.8565e-06	51.719	0.00054121	0.0005369	0.00015127	1382.5	5.8243e-06	5.9027e-06	1380.2	374.29	5.8209e-06	5.8691e-06	427.49	143.11	124.88	43.049	5.84e-06	53.162	70.875	-26.923	-0.742	-110.578	16.186	73.754	-110.977	-106.338	-10.821	-7.081	-106.710	-102.654	-102.249	-97.079	20.380	-97.848	-8191	255	
52207.656	1	1	0	0	0.13284	0.12589	0.19278	0.26845	0.05135	0.18657	0.32944	0.27554	0.23726	0.21844	0.24361	0.12832	0.28659	0.16247	0.089337	0.16395	-4.7396	-4.0729	-4.9354	-4.9979	-4.275	-5.1083	-4.5958	-4.5833	-5.1167	-4.3187	-4.8875	-5.0167	-4.2021	-5.1375	-4.35	-4.5	145.759	214.886	-8.771	223.662	18.845	-40.630	160.375	160.780	-76.119	162.888	198.801	111.187	167.980	230.336	-30.845	147.345	0.00097087	0.00058337	0.00012853	1361.9	7.6502e-06	4.5576e-06	1365.4	367.82	7.5094e-06	3.2302e-06	418.41	140.29	122.4	41.837	9.6064e-07	51.595	0.00053576	0.00053715	0.000151	1382.3	5.8087e-06	5.7852e-06	1384	374.13	5.7447e-06	5.8817e-06	427.19	143.24	124.69	43.037	5.8201e-06	53.229	84.972	-8.859	-10.274	-110.669	-3.338	-40.289	-111.144	-106.402	-58.066	4.764	-106.916	-102.651	-102.136	-97.215	-106.324	-98.145	-8191	255	
52207.754	1	1	0	0	0.15476	0.1099	0.059171	0.18479	0.099276	0.14371	0.2231	0.18835	0.12597	0.035453	0.14107	0.17834	0.23842	0.065653	0.057111	0.23	-4.6979	-4.275	-4.8458	-5.0875	-4.1646	-5.0104	-4.6979	-4.3833	-5.0208	-4.1312	-4.8021	-5.0813	-4.2771	-5.1167	-4.5646	-4.3833	3.781	-32.517	93.424	220.489	-29.201	-44.229	171.564	121.021	143.114	158.306	198.589	188.553	227.877	-111.004	-100.699	6.164	0.0010141	0.00034458	0.00016926	1369.4	5.4905e-06	6.096e-06	1361.3	367.05	4.7178e-06	8.1395e-06	420.68	140.47	122.44	41.71	3.9894e-06	51.641	0.00053705	0.00053991	0.00014928	1385.6	5.8505e-06	5.81e-06	1383.2	374.12	5.7912e-06	5.884e-06	427.88	143.4	124.76	42.953	5.8882e-06	53.154	83.540	-66.401	-57.263	-110.616	-34.000	54.536	-110.999	-106.501	-37.812	-7.384	-106.793	-102.419	-102.169	-97.396	0.937	-98.093	-8191	255	
52207.852	1	1	0	0	0.11355	0.072841	0.11134	0.15339	0.036658	0.19535	0.16231	0.15701	0.16725	0.027063	0.14784	0.10741	0.12046	0.25688	0.16296	0.26574	-4.8021	-4.3042	-4.4958	-5.175	-4.2979	-5.0125	-4.9104	-4.3208	-5.1792	-4.4208	-4.6708	-5.2021	-4.0896	-4.9375	-4.7208	-4.2958	224.496	87.958	-110.081	205.019	-29.399	153.862	180.521	223.320	87.426	32.855	127.545	-92.391	-15.953	221.059	235.279	92.825	0.00097619	0.00070257	9.8208e-05	1367.8	9.3636e-06	3.8675e-06	1365.4	367.82	4.4234e-06	4.8683e-06	419.07	139.65	121.81	41.719	4.6035e-06	51.581	0.00054768	0.00055044	0.00015057	1385.6	6.0431e-06	5.9426e-06	1385.5	374.64	6.0293e-06	5.996e-06	428.06	143.24	124.43	42.959	5.9429e-06	53.16	76.043	-12.929	17.514	-110.567	-51.018	17.064	-110.825	-106.253	20.796	19.296	-106.960	-102.707	-102.198	-97.317	40.963	-98.280	-8191	255	
52207.945	1	1	0	0	0.042641	0.13286	0.005117	0.19314	0.11909	0.11751	0.096529	0.21058	0.25233	0.17391	0.15481	0.088756	0.20027	0.15944	0.10376	0.13103	-4.9125	-4.3354	-4.4354	-5.1625	-4.0771	-4.6708	-5.1417	-4.2688	-5.1729	-4.4854	-4.5813	-5.3354	-4.3292	-4.7354	-4.9917	-4.2396	9.461	-12.160	135.942	203.086	-84.740	231.284	190.146	215.995	-71.828	204.272	205.330	44.787	172.919	209.506	-50.956	209.752	0.00081647	0.00021247	7.3801e-05	1369	4.0436e-06	3.6395e-06	1356.9	368.01	1.9036e-06	2.6126e-06	419.8	139.91	121.78	41.804	3.0344e-06	51.817	0.00054933	0.000547	0.0001482	1384.6	5.9055e-06	5.8205e-06	1382.6	374.34	5.8182e-06	5.7996e-06	427.98	143.29	124.55	43.007	5.7268e-06	53.217	83.843	23.850	-19.585	-110.671	-12.382	54.758	-110.849	-106.312	-25.290	24.837	-106.652	-102.506	-102.097	-97.398	-0.348	-97.982	-8191	255	
52208.066	1	1	0	0	0.1593	0.15728	0.084156	0.28032	0.16518	0.068743	0.14039	0.31859	0.19127	0.096866	0.34752	0.26626	0.10757	0.18022	0.26699	0.25427	-4.7875	-4.525	-4.3708	-5.1792	-4.3042	-4.5833	-5.125	-4.15	-4.9229	-4.5458	-4.3896	-5.2417	-4.4167	-4.5875	-5.0771	-4.2333	-75.043	114.718	224.540	-116.650	149.860	-87.120	193.723	184.733	147.662	66.080	152.498	146.538	16.194	228.536	-87.288	40.703	0.00091462	0.00046161	0.00015623	1371	5.8076e-06	3.9229e-06	1363	367.65	1.5415e-06	5.282e-06	421.51	140.96	122.26	41.963	3.2246e-06	51.783	0.00053727	0.00052823	0.00014508	1386.5	5.8648e-06	5.7088e-06	1382.8	374.67	5.7914e-06	5.7051e-06	428.43	143.62	124.83	43.05	5.5969e-06	53.246	74.242	-65.040	-42.930	-110.639	-16.008	5.477	-111.092	-106.274	-95.005	16.660	-106.827	-102.674	-102.188	-96.925	-13.100	-98.189	-8191	255	
52208.137	1	1	0	0	0.077027	0.34012	0.19101	0.37056	0.064846	0.099863	0.15766	0.016935	0.27044	0.14684	0.27095	0.081118	0.070291	0.22062	0.05114	0.012434	-4.6062	-4.7021	-4.1354	-5.2646	-4.3187	-4.3938	-5.2917	-4.1104	-4.7937	-4.8375	-4.2917	-5.25	-4.4	-4.4708	-5.0646	-4.3229	159.095	107.491	7.227	169.980	220.260	-120.050	122.012	-20.490	-4.366	222.661	-20.779	-11.718	131.096	-41.362	-104.634	187.442	0.0010472	0.00040577	6.4754e-05	1369.7	1.2119e-05	5.4631e-06	1362.2	367.96	8.297e-06	4.6623e-06	421	141.04	122.54	42.127	6.9944e-07	51.85	0.00053184	0.00051679	0.00014264	1387.5	5.5363e-06	5.5258e-06	1385.6	374.93	5.5998e-06	5.4069e-06	428.51	143.74	124.96	43.208	5.452e-06	53.376	77.373	-6.977	-41.514	-110.741	-28.476	-3.337	-110.969	-106.558	-59.308	16.596	-106.738	-102.585	-101.928	-97.318	26.413	-97.989	-8191	255	
52208.234	1	1	0	0	0.096506	0.13516	0.1486	0.23478	0.11775	0.10193	0.18057	0.16621	0.14616	0.11443	0.012807	0.040301	0.07809	0.21294	0.14088	0.030788	-4.5563	-4.8896	-4.0354	-5.2792	-4.5458	-4.3521	-5.4375	-4.2083	-4.7417	-4.8313	-4.3833	-5.0375	-4.7521	-4.4625	-5.0542	-4.3146	209.444	201.317	-29.772	165.902	-120.727	143.450	128.181	231.206	-17.948	44.208	-93.608	142.057	97.916	-109.269	140.029	207.108	0.00084625	0.00062595	0.00022584	1371.5	8.1392e-06	2.0201e-06	1365.9	368.83	3.4652e-06	5.7773e-06	422.41	140.71	122.95	42.211	9.2651e-06	52.015	0.00051287	0.00048792	0.00013806	1387.8	5.3903e-06	5.3084e-06	1384.8	375.39	5.3687e-06	5.2232e-06	429.04	143.99	125.39	43.289	5.2363e-06	53.454	83.068	-32.236	-22.160	-110.840	84.148	48.967	-110.886	-106.256	2.258	48.514	-106.744	-102.653	-101.996	-97.245	20.635	-98.004	-8191	255	
52208.355	1	1	0	0	0.24416	0.11534	0.1303	0.18183	0.084899	0.084137	0.19667	0.078317	0.023086	0.17483	0.023232	0.1221	0.16663	0.16325	0.1154	0.072933	-4.5208	-4.975	-4.1354	-5.2521	-4.7292	-4.1083	-5.3979	-4.6396	-4.5479	-5.1646	-4.2688	-4.9146	-4.9208	-4.3063	-5.0583	-4.5042	160.835	116.844	4.454	189.623	-99.733	1.979	215.647	103.328	106.353	111.301	-93.426	-113.804	169.533	143.945	-105.462	-34.675	0.00083767	0.00016775	6.7763e-05	1371	5.7728e-06	5.8295e-06	1369.2	369.37	5.1984e-06	3.847e-06	420.54	141.45	122.58	42.18	5.5529e-06	51.932	0.00049598	0.000476	0.0001341	1384.6	5.2644e-06	5.224e-06	1385.5	375.56	5.2205e-06	5.21e-06	428.51	144.18	125.19	43.254	5.2784e-06	53.364	99.632	-45.168	-34.431	-110.893	8.119	16.416	-111.056	-106.323	-70.887	28.304	-106.791	-102.834	-102.146	-97.346	40.825	-97.959	-8191	255	
52208.449	1	1	0	0	0.078171	0.15589	0.10883	0.016391	0.27233	0.18221	0.08535	0.066271	0.16621	0.098341	0.11952	0.2775	0.1282	0.088614	0.050276	0.11349	-3.9708	-4.925	-4.1687	-5.0062	-4.8354	-4.1687	-5.2	-4.5021	-4.5687	-5.0708	-4.3521	-4.8604	-5.0125	-4.3458	-4.9917	-4.7292	7.210	43.116	221.774	206.632	203.537	-43.138	-0.877	-26.313	-98.404	-80.861	178.859	208.809	153.383	-79.015	52.569	138.078	0.00093727	0.00035873	0.00029057	1369.4	7.5383e-06	4.1474e-06	1362.5	370.5	5.3804e-06	7.5392e-06	421.87	140.71	123.53	42.124	5.1442e-06	52.1	0.00048791	0.00047779	0.00013513	1385.2	5.1246e-06	5.2228e-06	1384.2	375.56	5.2661e-06	5.3352e-06	428.85	143.88	125.21	43.201	5.3472e-06	53.379	71.657	-29.891	-55.987	-110.656	-12.906	1.403	-110.862	-106.211	-46.597	23.448	-106.669	-102.795	-102.090	-96.896	-0.466	-97.733	-8191	255	
52208.547	1	1	0	0	0.213	0.29426	0.18836	0.12167	0.15053	0.14833	0.2182	0.10206	0.11738	0.17947	0.119	0.08642	0.076313	0.13716	0.10218	0.18128	-3.825	-5.1438	-4.1729	-4.9062	-4.9563	-4.1708	-5.2125	-4.7542	-4.2292	-5.1062	-4.3854	-4.5271	-5.0667	-4.1375	-4.8792	-4.7396	228.421	-3.417	64.650	-96.762	19.208	-63.024	192.892	172.626	143.749	-107.377	215.133	186.507	72.402	128.379	183.397	212.920	0.00095306	0.00036463	0.00013749	1370.4	2.0909e-06	3.8653e-06	1366	370.89	8.2607e-06	4.2579e-06	421.21	141.24	122.99	42.161	3.233e-06	51.921	0.00049327	0.00048853	0.00013559	1385.2	5.2659e-06	5.4085e-06	1384.8	376.23	5.2754e-06	5.2758e-06	428.63	143.8	125.24	43.205	5.4375e-06	53.368	78.186	37.135	-4.123	-110.832	-119.471	50.339	-111.103	-106.127	-48.026	-1.086	-106.828	-102.836	-101.983	-97.220	82.235	-98.006	-8191	255	
52208.641	1	1	0	0	0.16697	0.10753	0.24458	0.31754	0.045317	0.045404	0.10907	0.29151	0.11982	0.14234	0.14037	0.10724	0.1755	0.36309	0.09018	0.18046	-3.9188	-5.1396	-4.2688	-4.6062	-5.0958	-3.9833	-5.0917	-4.8438	-4.1208	-5.0708	-4.6542	-4.6562	-5.0521	-4.1188	-4.7458	-5.1375	-102.122	46.388	166.880	171.303	229.104	-53.395	177.827	200.581	106.058	87.937	-105.337	209.440	217.126	-94.970	116.190	222.477	0.0010122	0.00033434	0.00013594	1365.2	4.9452e-06	5.235e-06	1363.2	369.94	6.7614e-06	8.126e-06	423.34	141.33	123.07	42.016	6.5601e-06	51.85	0.00050033	0.00049479	0.00013585	1384.7	5.3551e-06	5.355e-06	1384.2	375.55	5.2999e-06	5.3638e-06	428.75	143.83	125.26	43.102	5.2786e-06	53.297	81.767	-17.575	-74.876	-110.670	43.351	56.627	-111.095	-106.234	-26.486	39.036	-106.507	-102.979	-102.012	-97.101	33.291	-98.100	-8191	255	
52208.738	1	1	0	0	0.11314	0.30491	0.12191	0.12527	0.037483	0.058581	0.14385	0.26442	0.32994	0.080241	0.20777	0.22824	0.11339	0.14356	0.11511	0.096255	-3.8625	-4.9542	-4.4021	-4.5208	-4.9938	-4.0833	-4.9958	-5.0083	-4.1521	-5.1396	-4.7229	-4.3354	-5.1562	-4.4	-4.6667	-5.1583	-87.942	211.579	66.183	147.604	-73.706	208.431	210.349	184.136	-19.096	68.078	110.871	188.177	-106.350	224.260	73.542	155.347	0.00096727	0.00032621	0.0001027	1365.9	8.3384e-06	3.8272e-06	1366.9	370.76	4.1956e-06	4.2566e-06	420.42	140.73	123.06	42.089	5.6763e-07	51.989	0.00049429	0.00048259	0.00013436	1385.9	5.258e-06	5.238e-06	1385.5	376.21	5.3091e-06	5.3189e-06	428.71	143.91	125.11	43.129	5.3195e-06	53.439	85.654	-87.075	10.026	-110.916	-15.840	34.116	-111.036	-106.144	-14.166	40.792	-106.811	-102.959	-101.940	-97.299	-115.882	-97.879	-8191	255	
52208.836	1	1	0	0	0.2969	0.22054	0.11359	0.267	0.056264	0.12658	0.2088	0.1744	0.090911	0.12814	0.1524	0.14663	0.10565	0.17353	0.12171	0.081675	-3.7646	-4.8812	-4.6521	-4.4313	-5.0479	-4.2833	-4.6562	-4.9688	-4.2312	-4.7979	-4.7438	-4.2771	-5.3896	-4.4187	-4.4688	-5.3812	172.733	-30.313	-15.190	226.508	25.839	92.523	217.219	168.736	152.198	-102.899	133.478	122.453	214.062	51.088	34.621	152.010	0.00095532	0.00054145	0.00015167	1366.3	3.9646e-07	3.2467e-06	1364.2	370.56	4.498e-06	3.6043e-06	422.43	141.27	123.07	42.19	2.8989e-06	51.934	0.00048781	0.00047996	0.00013068	1385.3	5.2018e-06	5.2831e-06	1385.5	375.91	5.297e-06	5.2003e-06	428.32	143.99	125.28	43.196	5.1804e-06	53.323	86.828	-66.024	-40.506	-110.826	210.922	-40.783	-111.014	-105.957	-20.663	-8.657	-106.652	-103.014	-102.200	-97.178	3.741	-98.258	-8191	255	
52208.953	1	1	0	0	0.2027	0.069755	0.051126	0.28083	0.11676	0.063051	0.086953	0.19849	0.26869	0.054848	0.21705	0.13417	0.085544	0.32602	0.14539	0.16161	-3.95	-4.775	-4.825	-4.4104	-4.9688	-4.3646	-4.5417	-5.2167	-4.1375	-4.9083	-4.9187	-4.3	-5.2188	-4.5854	-4.2479	-5.2021	47.502	144.701	144.270	-102.160	104.337	157.204	210.311	208.568	47.710	29.059	168.223	-124.081	145.592	189.282	16.564	153.254	0.00084909	0.00060743	0.00014516	1367.4	3.1558e-06	8.0655e-06	1362.8	370.04	7.2124e-06	8.4431e-06	422.06	140.07	122.37	42.075	4.7377e-06	52.327	0.00049457	0.00048207	0.00013254	1384.8	5.3282e-06	5.2645e-06	1384.1	375.52	5.3623e-06	5.361e-06	428.64	143.36	125.06	43.065	5.2493e-06	53.46	73.807	-11.211	-21.598	-110.589	-7.252	36.470	-111.025	-106.182	-14.651	33.596	-106.586	-102.749	-102.040	-97.086	-7.687	-97.715	-8191	255	
52209.051	1	1	0	0	0.09347	0.049107	0.050352	0.19614	0.19618	0.069353	0.21232	0.22724	0.17396	0.15178	0.15799	0.20144	0.082685	0.28592	0.20304	0.18336	-3.7812	-4.7521	-5.0021	-4.3021	-4.9792	-4.6396	-4.5771	-5.1771	-4.0729	-4.5021	-5.2	-4.2021	-5.0521	-4.8417	-4.2646	-5.2125	19.798	-44.027	-104.463	227.000	165.736	-114.569	167.045	165.770	106.535	37.077	-53.608	-77.516	139.540	224.402	-81.810	115.646	0.00092498	0.00038798	0.00017056	1364.1	8.2539e-06	1.9984e-06	1360.2	368.01	3.4447e-06	5.7267e-06	420.58	140.9	123.03	42.209	3.8865e-06	51.848	0.00050692	0.00048487	0.00013311	1383	5.3326e-06	5.2631e-06	1381.5	375.21	5.4099e-06	5.3119e-06	427.91	143.57	124.93	43.083	5.3001e-06	53.232	74.399	10.447	-13.643	-110.747	-10.734	10.709	-110.848	-106.392	-48.622	28.056	-106.716	-102.692	-102.066	-97.227	-8.137	-98.044	-8191	255	
52209.145	1	1	0	0	0.15253	0.012694	0.10248	0.39637	0.25874	0.098548	0.14373	0.15515	0.13639	0.065943	0.16188	0.14574	0.028409	0.066094	0.12253	0.10512	-4.1979	-4.4729	-5.0521	-4.3313	-4.8292	-4.6792	-4.5417	-5.2333	-4.3438	-4.5083	-5.2438	-4.1062	-5.0104	-4.925	-4.2354	-5.1813	133.179	217.190	98.545	214.551	-58.494	212.158	-110.200	179.143	36.683	-100.534	38.354	106.867	-57.282	149.826	158.359	164.651	0.0010037	0.00020688	0.00017573	1368.8	3.477e-06	5.8025e-06	1363.7	369.06	3.06e-06	5.96e-06	421.73	140.83	123.03	42.134	5.6503e-06	51.768	0.00050512	0.00048185	0.00013299	1384.3	5.2935e-06	5.2632e-06	1382.8	375.05	5.2087e-06	5.1395e-06	428.4	143.74	125.05	43.125	5.223e-06	53.264	74.528	-6.945	-39.936	-110.818	-60.535	-0.884	-111.046	-106.135	61.614	26.896	-106.507	-102.677	-101.909	-97.184	30.949	-98.136	-8191	255	
52209.242	1	1	0	0	0.082229	0.073351	0.044299	0.062475	0.21074	0.074492	0.16148	0.13305	0.08392	0.14398	0.28576	0.066112	0.32069	0.04818	0.24326	0.077004	-4.375	-4.3479	-4.9708	-4.3875	-4.8229	-4.7875	-4.375	-5.225	-4.5188	-4.1708	-4.9854	-4.2167	-4.7479	-5.0875	-4.0125	-4.9646	-76.165	101.164	-122.289	187.313	-111.683	84.323	-122.805	150.817	117.988	168.196	182.887	211.951	228.241	93.405	-65.309	152.354	0.00093053	0.00049527	8.0659e-05	1365	8.556e-06	5.7634e-06	1359.2	369.44	7.014e-06	6.8842e-06	421.11	141.41	122.68	42.036	5.3273e-06	51.782	0.00048125	0.00046909	0.00012998	1383.4	5.1115e-06	5.0573e-06	1381.8	375.84	5.0367e-06	5.0122e-06	428.46	143.68	124.99	43.126	5.1804e-06	53.231	77.046	-47.319	-46.146	-110.808	-6.391	14.485	-111.067	-106.327	-57.856	9.772	-106.436	-102.830	-102.228	-97.088	43.951	-97.868	-8191	255	
52209.363	1	1	0	0	0.24483	0.17067	0.139	0.39172	0.05924	0.066427	0.2244	0.2406	0.17473	0.063015	0.15832	0.22112	0.083061	0.11781	0.22438	0.058711	-4.3021	-4.1188	-5.1646	-4.4688	-4.3646	-4.9833	-4.2667	-5.0667	-4.7812	-4.2896	-5.25	-4.4979	-4.5896	-4.9833	-4.1646	-5.0521	-82.413	-124.147	-33.867	-107.739	-75.044	-40.377	192.319	-107.876	99.760	92.384	206.121	-45.174	52.208	-103.756	183.836	206.684	0.00088476	0.00019102	8.9858e-05	1367.7	3.6715e-06	4.6001e-06	1359.9	369.15	3.237e-06	3.5999e-06	421.56	140.66	123.32	42.231	6.0278e-06	51.963	0.00048328	0.00046201	0.00012965	1383.4	5.0855e-06	4.9992e-06	1382.6	375.8	5.0843e-06	5.075e-06	428.28	143.72	125.22	43.132	5.2166e-06	53.261	81.649	-70.755	-18.236	-110.655	35.867	-3.518	-110.926	-106.230	-31.710	27.281	-106.754	-102.792	-101.859	-96.946	17.577	-98.390	-8191	255	
52209.434	1	1	0	0	0.19789	0.19679	0.055157	0.1051	0.2709	0.31499	0.28828	0.13371	0.26495	0.13998	0.17093	0.15869	0.19047	0.10729	0.2611	0.13934	-4.2979	-4.3167	-5.0729	-4.5188	-4.3812	-4.925	-4.3521	-5.1854	-4.8167	-4.0354	-5.0479	-4.6188	-4.3521	-5.1542	-4.2583	-4.7229	10.024	188.399	126.149	120.723	-22.786	55.946	215.639	142.514	79.494	10.366	157.524	198.709	-59.034	202.946	-93.520	227.906	0.0010511	0.00048993	0.00016831	1365.7	3.9522e-06	7.038e-06	1367.2	369.13	2.8401e-06	4.4982e-06	422.13	141.2	123.08	42.269	6.6149e-06	52.069	0.00047951	0.00046813	0.00012937	1382.4	5.0956e-06	5.149e-06	1382.4	375.41	5.0696e-06	5.0771e-06	428.81	143.83	124.96	43.189	5.0602e-06	53.307	87.521	-35.966	26.145	-110.802	-7.358	15.699	-111.223	-106.282	-49.032	-18.380	-106.789	-102.481	-101.996	-97.400	40.406	-98.112	-8191	255	
52209.531	1	1	0	0	0.11466	0.14709	0.11965	0.15164	0.22711	0.084803	0.034197	0.30938	0.11283	0.068898	0.071537	0.047051	0.18355	0.28584	0.23982	0.28416	-4.65	-4.2312	-5.0938	-4.7688	-4.2646	-5.1167	-4.4125	-4.775	-5.0708	-3.9646	-5.1312	-4.6896	-4.3667	-5.2625	-4.2729	-4.6708	197.386	186.103	180.157	-121.199	78.091	-85.127	161.381	233.595	-84.302	-56.720	-121.217	-46.866	-85.120	167.533	2.682	132.636	0.00093132	0.00018208	0.00015059	1365.8	6.8335e-06	7.9636e-06	1365	369.09	9.1565e-06	5.4317e-06	423.22	141.23	123.27	42.205	6.6093e-06	52.142	0.00047133	0.00046729	0.00012757	1384	5.03e-06	4.9951e-06	1384.1	375.57	4.9916e-06	5.0338e-06	428.75	143.88	125.26	43.179	5.075e-06	53.338	85.078	-16.125	-38.594	-110.657	-25.651	22.351	-110.746	-106.366	-43.065	58.081	-106.455	-102.617	-102.163	-97.202	2.104	-97.979	-8191	255	
52209.625	1	1	0	0	0.11619	0.12726	0.095914	0.27993	0.17294	0.16964	0.25261	0.26513	0.13379	0.14724	0.20579	0.091411	0.10025	0.097727	0.18894	0.083623	-4.7667	-4.2104	-5.0167	-4.9833	-4.1979	-5.1458	-4.7354	-4.5708	-5.0604	-4.3792	-5.025	-5.0083	-4.075	-5.1917	-4.4896	-4.4479	127.968	76.731	156.901	-122.042	27.034	-94.783	121.056	134.797	191.463	-49.644	218.035	136.851	-26.583	208.380	170.156	161.130	0.00096585	0.00021847	0.00015401	1372.5	6.2794e-06	3.6339e-06	1358.2	370.19	5.462e-06	7.2336e-06	422.96	141.22	123.14	41.982	6.4507e-06	51.959	0.00047473	0.0004645	0.0001301	1383.8	5.0218e-06	5.0494e-06	1380.8	375.52	5.1469e-06	5.0916e-06	429.35	143.77	125.18	43.14	5.1392e-06	53.329	68.017	-49.658	-36.880	-110.770	24.973	-4.257	-110.963	-106.409	-56.698	49.152	-107.111	-102.629	-102.129	-97.143	50.187	-98.076	-8191	255	
52209.746	1	1	0	0	0.1368	0.24337	0.12602	0.058504	0.068959	0.15127	0.26861	0.08101	0.083335	0.10372	0.21932	0.056794	0.10505	0.12191	0.13479	0.093287	-4.7854	-4.1104	-4.6854	-4.975	-4.2396	-4.925	-4.7604	-4.3896	-5.0792	-4.0875	-4.7542	-5.0354	-4.2688	-4.9812	-4.5417	-4.3063	92.437	55.707	-21.333	113.086	233.000	131.350	152.092	-90.126	141.292	29.165	-73.963	118.991	201.315	-89.184	-76.242	218.293	0.00092841	0.00025888	8.3668e-05	1361.1	7.9166e-06	6.314e-06	1362.8	370.37	7.1346e-06	5.3358e-06	423.49	140.77	122.72	42.112	5.8876e-06	51.836	0.00048053	0.00046346	0.00012979	1380.9	5.0488e-06	5.0481e-06	1382.5	375.98	5.0913e-06	5.0743e-06	429.03	143.96	124.95	43.183	4.9939e-06	53.342	86.375	-80.674	-14.799	-110.861	-22.450	5.308	-111.100	-106.553	-21.786	5.282	-106.438	-102.738	-101.962	-97.160	-11.362	-98.222	-8191	255	
52209.844	1	1	0	0	0.18212	0.16692	0.10169	0.43298	0.043822	0.053515	0.17036	0.25374	0.10119	0.10097	0.12551	0.13626	0.1065	0.044602	0.15249	0.083428	-4.7958	-4.1667	-4.5312	-5.3542	-4.1125	-4.9958	-4.8167	-4.2438	-5.0563	-4.3375	-4.6917	-5.0667	-4.1937	-4.9229	-4.6479	-4.3021	196.279	4.433	84.272	208.242	-31.678	-14.870	149.420	216.761	-24.611	13.657	-107.056	79.716	193.712	207.944	-76.664	-52.649	0.0010069	0.00055987	9.3858e-05	1369.8	1.0238e-06	5.542e-06	1366.1	369.68	4.9468e-06	6.3518e-06	421.03	141.43	123.16	41.963	4.1923e-06	52.083	0.00046997	0.00045805	0.00012673	1384.1	5.0949e-06	5.0381e-06	1381.7	375.2	5.0207e-06	4.8928e-06	428.4	144.11	125.1	43.151	4.9068e-06	53.29	76.017	-34.045	34.345	-110.841	204.054	37.144	-111.022	-106.306	-58.967	42.931	-106.923	-102.599	-102.161	-97.344	20.996	-97.856	-8191	255	
52209.938	1	1	0	0	0.16812	0.14388	0.20048	0.17596	0.29571	0.10256	0.12145	0.19895	0.072176	0.038131	0.34433	0.081682	0.16241	0.010192	0.20241	0.18279	-4.8583	-4.3917	-4.45	-5.2896	-4.0729	-5.0083	-4.9604	-4.2229	-5.0813	-4.3083	-4.4	-5.3125	-4.3083	-4.6917	-5	-4.0875	-55.303	-53.611	-65.359	142.575	-37.512	231.277	142.786	49.393	123.160	-42.668	-106.237	-88.028	-53.764	146.837	-66.751	167.647	0.0010291	0.00050256	7.9324e-05	1364.9	7.4289e-06	7.9742e-06	1359	369.53	4.6846e-06	3.852e-06	423.87	141.29	123.18	42.213	4.5987e-06	52.053	0.00047692	0.00045419	0.00012435	1383.4	4.9891e-06	4.9477e-06	1382.2	375.96	4.9498e-06	4.9718e-06	429.5	144	125.36	43.285	4.9398e-06	53.4	68.442	-20.231	-86.823	-110.886	7.129	12.825	-110.982	-106.236	6.518	-1.980	-106.563	-102.843	-102.202	-97.066	4.518	-97.902	-8191	255	
52210.035	1	1	0	0	0.17266	0.05223	0.17547	0.03731	0.097762	0.15086	0.089069	0.17489	0.096435	0.23383	0.11286	0.10842	0.085844	0.18118	0.10162	0.16211	-4.8354	-4.5771	-4.2458	-5.3562	-4.2667	-4.5646	-5.1417	-4.1396	-4.8146	-4.7	-4.3313	-5.2396	-4.3562	-4.5625	-4.9625	-4.1542	86.290	50.575	195.970	50.901	-33.632	219.307	118.929	150.382	131.637	-31.564	-115.999	-32.514	-77.090	217.180	-96.764	119.145	0.00079895	0.00058582	9.8087e-05	1366.7	8.4601e-06	5.2621e-06	1368.1	371.23	2.3815e-06	6.2369e-06	421.92	141.77	123.13	42.181	4.5709e-06	52.072	0.00047276	0.00045451	0.0001276	1382.9	5.0225e-06	5.0211e-06	1385.6	376.65	4.973e-06	4.8734e-06	428.94	144.32	125.21	43.261	4.9975e-06	53.332	69.623	-73.645	-37.495	-110.675	-6.114	13.186	-110.990	-106.283	-33.488	4.197	-106.759	-102.574	-102.321	-97.160	23.272	-98.088	-8191	255	
52210.129	1	1	0	0	0.12278	0.078737	0.18074	0.04998	0.098294	0.14431	0.14718	0.29405	0.20805	0.072203	0.12591	0.1322	0.21036	0.26207	0.28988	0.057257	-4.5188	-4.8438	-4.2479	-5.2104	-4.3229	-4.3521	-5.25	-4.3354	-4.8708	-4.8479	-4.3125	-5.35	-4.4708	-4.4917	-5.0271	-4.3917	-86.128	25.209	16.522	-39.624	101.349	-34.699	-117.801	215.305	-61.069	233.304	233.592	-47.407	230.497	215.158	174.908	166.838	0.00087695	0.00061823	0.00015473	1371.5	2.5553e-06	1.6321e-06	1367.3	372.02	3.0793e-06	5.1368e-06	422.44	141.32	123.54	42.26	1.9641e-06	52.129	0.0004663	0.000452	0.00012765	1384.9	4.9048e-06	4.9224e-06	1386	377.01	5.0502e-06	4.9605e-06	428.78	144.24	125.5	43.228	5.0979e-06	53.54	73.343	8.456	-34.539	-110.781	-48.520	-42.965	-111.044	-106.255	-55.470	39.763	-106.693	-102.808	-102.223	-97.129	-4.404	-97.837	-8191	255	
52210.227	1	1	0	0	0.17573	0.28409	0.058539	0.1117	0.12796	0.16951	0.33199	0.30481	0.20277	0.17134	0.137	0.26821	0.063467	0.077649	0.15785	0.39008	-4.4708	-4.8292	-4.1062	-5.2625	-4.4146	-4.325	-5.2792	-4.3417	-4.65	-4.9688	-4.1083	-5.2188	-4.6333	-4.4271	-5.0729	-4.3896	-57.968	-46.334	223.679	95.587	127.292	45.956	170.754	167.555	-114.013	-75.393	159.555	-105.113	-53.804	145.586	2.170	191.245	0.00099895	0.00058371	0.00013457	1370.5	1.3219e-05	7.0667e-06	1363.6	370.95	2.8035e-06	2.3283e-06	422.04	140.94	122.98	42.267	7.356e-06	52.084	0.0004773	0.00045553	0.00012948	1385	5.0182e-06	4.987e-06	1385.3	377.01	5.0149e-06	5.0103e-06	428.95	144.14	125.07	43.22	5.1197e-06	53.466	75.568	-38.711	-28.910	-110.891	-6.405	61.794	-110.934	-106.416	-30.425	7.618	-106.475	-102.659	-102.329	-97.156	22.554	-97.810	-8191	255	
52210.320	1	1	0	0	0.096796	0.051894	0.047785	0.10217	0.16991	0.14161	0.22731	0.18436	0.33423	0.23545	0.17914	0.21992	0.27893	0.11904	0.22889	0.083213	-4.4021	-4.975	-3.9542	-5.0292	-4.5875	-4.2479	-5.4437	-4.4833	-4.3896	-4.8521	-4.3333	-5.0854	-4.6604	-4.2625	-5.15	-4.3583	-19.857	38.117	136.112	-28.954	133.628	-14.356	160.815	145.660	-44.073	231.336	-85.136	171.261	167.100	129.357	159.311	-27.138	0.00084251	0.00030113	0.00010113	1369.1	7.0266e-06	5.2333e-06	1359.8	369.37	9.7046e-06	7.9793e-06	421.59	141.55	122.92	42.272	4.1478e-06	51.842	0.00047924	0.00045347	0.00012968	1386.4	5.0312e-06	5.0757e-06	1385	375.78	5.0346e-06	5.1024e-06	429.18	144.43	125.16	43.251	5.1374e-06	53.351	79.573	15.234	-61.973	-110.584	40.417	18.659	-111.068	-106.432	-42.852	17.161	-106.351	-102.803	-102.219	-97.150	19.078	-98.170	-8191	255	
52210.441	1	1	0	0	0.18994	0.1211	0.15171	0.11825	0.24661	0.11752	0.15088	0.24624	0.18741	0.084278	0.10994	0.17805	0.042554	0.10664	0.19771	0.10989	-4.2396	-5.0208	-4.1979	-4.9979	-4.9146	-4.2229	-5.1333	-4.7021	-4.3854	-4.9667	-4.2292	-4.725	-4.8667	-4.2812	-5.0208	-4.5104	111.545	184.967	110.632	206.380	226.877	68.765	-118.142	181.596	-39.161	-2.208	77.465	157.266	14.703	7.619	76.596	122.619	0.0010295	0.00039585	6.9592e-05	1367.8	3.5215e-06	3.3783e-06	1361.6	368.81	7.3173e-06	8.7092e-06	420.72	141.04	122.73	42.195	7.1603e-06	52.325	0.0004704	0.0004608	0.00012914	1384	5.1209e-06	5.1863e-06	1383.7	375.86	5.07e-06	5.0458e-06	429.39	144.02	125.18	43.199	5.1036e-06	53.407	76.424	-39.516	-40.381	-110.761	-6.494	51.133	-111.002	-106.260	-32.672	6.762	-106.602	-102.744	-102.240	-97.077	-18.071	-97.952	-8191	255	
52210.539	1	1	0	0	0.16511	0.23733	0.11162	0.20677	0.058707	0.27975	0.10346	0.15752	0.078687	0.11542	0.066876	0.22631	0.20147	0.29542	0.17096	0.1818	-4.0521	-5.0896	-4.2542	-4.8604	-4.7771	-4.1604	-5.2042	-4.7812	-4.0271	-5.2917	-4.3354	-4.5917	-5.0104	-4.2	-4.9042	-4.8187	146.877	22.257	171.801	-95.664	10.205	-49.536	185.044	73.325	78.032	231.622	100.293	33.433	164.341	219.253	135.894	216.119	0.00089241	0.00042286	0.00013485	1372.2	5.7201e-06	7.2794e-06	1365.5	369.2	4.423e-06	6.607e-06	422.03	141.29	122.75	42.06	3.4624e-06	52.049	0.000478	0.00046741	0.00013056	1387	5.0656e-06	5.1828e-06	1385	376.17	5.1447e-06	5.0962e-06	429.09	144.25	125.21	43.205	5.13e-06	53.422	83.098	-22.024	-46.535	-110.841	53.946	33.835	-111.160	-106.425	-58.493	18.318	-106.802	-102.843	-102.124	-97.381	-21.033	-97.793	-8191	255	
52210.637	1	1	0	0	0.10443	0.28061	0.10298	0.21607	0.15374	0.11714	0.10658	0.28612	0.23117	0.031775	0.17641	0.19618	0.12301	0.11195	0.1289	0.031522	-3.9958	-5.1271	-4.2812	-4.8375	-5.0625	-4.0458	-5.3063	-5.0021	-4.1229	-5.175	-4.6708	-4.5917	-4.9854	-4.1583	-4.8333	-4.9146	-75.637	-7.464	165.786	233.118	167.203	157.421	233.985	221.741	119.335	234.913	138.853	152.370	-75.363	176.415	155.021	134.340	0.00086064	0.00039296	5.9416e-05	1368.2	4.2645e-06	3.0181e-06	1362	370.16	5.1943e-06	6.6097e-06	421.24	141.32	122.95	42.136	7.5712e-06	52.23	0.00048685	0.00047094	0.00012974	1385.9	5.1572e-06	5.1847e-06	1383.9	376.29	5.192e-06	5.1968e-06	428.62	143.98	125.4	43.222	5.1266e-06	53.362	77.043	-54.298	-65.410	-110.804	-13.794	-5.589	-111.007	-106.326	-59.669	79.347	-106.572	-102.658	-101.607	-97.211	40.014	-97.737	-8191	255	
52210.730	1	1	0	0	0.22269	0.19324	0.088132	0.19983	0.075181	0.042118	0.17148	0.37376	0.20901	0.19027	0.27161	0.30123	0.14894	0.15034	0.19242	0.17906	-3.9417	-5.0021	-4.4979	-4.5521	-4.9375	-4.2208	-4.8812	-5.0646	-4.0188	-4.9812	-4.65	-4.3854	-5.1521	-4.2417	-4.5542	-5.0917	194.112	101.760	179.627	169.323	38.963	229.070	168.203	183.820	125.142	-109.940	124.909	153.932	174.276	218.093	-109.125	114.425	0.00092503	0.000784	0.00013211	1368.3	7.4518e-06	6.6864e-06	1370.4	371.7	5.5013e-06	7.2416e-06	422.12	142.03	122.35	42.214	4.6017e-06	52.007	0.00048892	0.00047435	0.00013217	1385.3	5.2201e-06	5.2842e-06	1386.8	377.02	5.2435e-06	5.1989e-06	429.36	144.32	125.22	43.21	5.174e-06	53.373	74.618	-24.708	-83.389	-110.943	18.121	46.561	-110.978	-106.400	-60.296	24.811	-106.847	-103.015	-102.204	-97.185	12.892	-97.925	-8191	255	
52210.828	1	1	0	0	0.19423	0.14695	0.15588	0.15146	0.12108	0.11081	0.11724	0.0989	0.18232	0.099235	0.14172	0.25035	0.19857	0.062934	0.11914	0.22313	-3.8292	-5.0875	-4.6604	-4.4375	-5.1813	-4.2583	-4.6208	-5.05	-4.1813	-4.9812	-4.7625	-4.2792	-5.2688	-4.4938	-4.6271	-5.05	38.526	-87.302	130.242	-92.726	-22.995	114.529	221.775	117.322	167.128	-20.296	128.309	117.395	-80.407	82.047	175.883	156.946	0.00091227	0.00048225	4.2842e-05	1368.5	4.5222e-06	3.2954e-06	1357.5	371.61	4.2916e-06	4.7683e-06	423.26	141.14	123.27	42.084	2.9741e-06	52.022	0.00049647	0.00048236	0.00013076	1386.1	5.1975e-06	5.2218e-06	1384.6	376.53	5.2644e-06	5.2585e-06	428.92	144.06	125.45	43.221	5.1366e-06	53.412	80.031	-29.940	114.857	-110.866	-106.197	-5.994	-111.000	-106.118	24.023	57.274	-106.721	-102.783	-102.242	-97.218	-10.346	-98.017	-8191	255	
52210.926	1	1	0	0	0.25288	0.1794	0.1393	0.15683	0.12763	0.10961	0.088875	0.13177	0.087598	0.12851	0.04498	0.22797	0.17802	0.06962	0.12836	0.11124	-3.9104	-4.825	-4.8896	-4.425	-5.1687	-4.3396	-4.6625	-5.1625	-4.1333	-4.7562	-4.8812	-4.2479	-5.1042	-4.6625	-4.2896	-5.0708	6.027	64.062	122.489	223.479	-86.497	-116.798	232.730	184.690	129.158	-97.346	153.211	119.936	177.063	-117.740	160.274	-117.819	0.00089115	0.00030925	0.00017449	1368	2.2419e-06	5.1929e-06	1362.1	369.96	4.6096e-06	8.1524e-06	422.78	141.37	123.07	42.088	4.7613e-06	51.786	0.00048844	0.0004741	0.00013155	1385.8	5.2552e-06	5.1828e-06	1384.9	376.26	5.2246e-06	5.1349e-06	429.15	143.94	125.23	43.168	5.2323e-06	53.319	77.229	-47.064	-29.623	-110.900	128.255	39.937	-111.114	-106.499	-66.624	32.941	-106.498	-102.522	-101.990	-97.076	22.806	-97.575	-8191	255	
52211.043	1	1	0	0	0.12665	0.17219	0.081775	0.1677	0.23334	0.17163	0.076365	0.28195	0.059782	0.057663	0.076146	0.12063	0.21581	0.31805	0.26863	0.14777	-3.9437	-4.5604	-4.7604	-4.1958	-5.0312	-4.6896	-4.4437	-5.2896	-4.1208	-4.575	-4.9458	-4.2042	-4.975	-4.7562	-4.2188	-5.2646	96.740	119.739	163.754	109.878	-39.760	-118.385	107.613	193.171	-47.404	-68.851	168.981	-1.576	218.584	223.555	101.368	140.262	0.00095053	0.00012478	0.00018308	1368.9	3.4706e-06	4.6261e-06	1364.8	370.44	3.6717e-06	3.1056e-06	419.97	141.32	123.43	41.93	4.2761e-06	51.721	0.00049568	0.00047865	0.00013359	1385	5.2599e-06	5.1239e-06	1384.3	376.7	5.3025e-06	5.2109e-06	428.35	143.9	125.32	43.128	5.3095e-06	53.329	77.303	-36.187	-24.918	-110.689	-38.170	-3.044	-110.949	-106.188	-3.136	96.464	-106.585	-102.675	-101.857	-97.278	-26.398	-97.961	-8191	255	
52211.141	1	1	0	0	0.11147	0.2159	0.033781	0.40189	0.17139	0.018028	0.17593	0.074109	0.1259	0.10934	0.19213	0.21332	0.050429	0.2588	0.19818	0.11131	-3.9625	-4.275	-5.0333	-4.2146	-4.9021	-4.6625	-4.3271	-5.2375	-4.275	-4.5208	-5.1708	-4.225	-4.8021	-4.75	-4.0667	-5.225	1.710	174.632	-68.975	216.819	-122.094	117.067	-119.687	172.825	217.713	-108.482	200.967	-48.754	151.241	162.657	-4.115	62.230	0.0010123	0.00049859	0.0001786	1365.6	4.6536e-06	7.9184e-06	1361.4	370.19	1.0531e-05	4.4139e-06	423.2	140.96	122.74	42.103	3.6028e-06	52.103	0.00049297	0.00047873	0.00013362	1383.7	5.2247e-06	5.1546e-06	1384.7	376.81	5.17e-06	5.1645e-06	428.82	143.98	125.25	43.156	5.2175e-06	53.414	80.459	-17.018	-49.294	-110.587	-10.191	24.433	-110.927	-106.388	-73.788	11.615	-106.642	-102.630	-102.226	-96.995	22.344	-97.986	-8191	255	
52211.234	1	1	0	0	0.12955	0.12394	0.12653	0.13473	0.11523	0.12721	0.36514	0.14887	0.176	0.062393	0.095251	0.21784	0.15336	0.086818	0.20639	0.067499	-4.2292	-4.5188	-4.9333	-4.2771	-4.5667	-4.8562	-4.2729	-4.9563	-4.525	-4.2625	-5.2458	-4.2792	-4.7375	-4.9729	-4.175	-5.2646	86.926	-38.677	177.677	227.005	228.384	75.394	143.844	141.793	-23.079	173.610	181.525	189.769	-97.966	182.998	161.794	80.764	0.0009783	0.00048875	0.00016287	1367.8	1.0445e-05	5.8172e-06	1362.6	370.15	7.1108e-06	1.1352e-05	420.76	141.75	122.36	42.151	6.5856e-06	51.923	0.00049376	0.0004805	0.00013348	1384.9	5.2974e-06	5.2794e-06	1383.7	376.5	5.2815e-06	5.3261e-06	428.84	143.81	124.92	43.133	5.3959e-06	53.263	77.344	-28.213	-11.911	-110.813	-23.423	2.408	-110.950	-106.229	43.009	19.251	-106.664	-102.463	-102.217	-97.329	-25.420	-98.076	-8191	255	
52211.305	1	1	0	0	0.28415	0.09052	0.076169	0.1809	0.14908	0.087323	0.19164	0.24442	0.10861	0.075675	0.12113	0.19005	0.36166	0.050314	0.031391	0.10322	-4.3167	-4.3	-5.1833	-4.4958	-4.5312	-4.8917	-4.2896	-5.0458	-4.7417	-4.1375	-5.4	-4.4104	-4.5	-5.1979	-4.0792	-4.8104	161.276	-102.903	201.596	219.175	-101.209	168.649	182.943	171.221	17.345	108.845	-117.211	222.394	221.363	-101.053	15.432	190.135	0.00085901	0.00054655	0.00011876	1369.7	7.2017e-06	7.0219e-06	1364.2	369.28	2.2841e-06	4.9802e-06	419.84	140.61	122.63	41.994	3.046e-06	52.1	0.00049852	0.00049296	0.00013553	1384	5.3136e-06	5.3204e-06	1384.8	375.84	5.3113e-06	5.3903e-06	428.17	143.62	125.09	43.063	5.3611e-06	53.344	77.137	-2.882	3.217	-110.844	18.865	29.971	-111.015	-106.106	-14.813	26.215	-106.560	-102.626	-101.941	-97.287	-5.736	-98.053	-8191	255	
52211.402	1	1	0	0	0.12071	0.37849	0.16487	0.24574	0.19868	0.080692	0.2978	0.23716	0.28416	0.12016	0.23708	0.14053	0.098227	0.15724	0.096528	0.17088	-4.5333	-4.1958	-5.1896	-4.6542	-4.35	-5.0083	-4.375	-4.8167	-4.7167	-4.0583	-5.2646	-4.5333	-4.4833	-5.1208	-4.1833	-4.8167	162.973	110.242	136.893	217.661	45.633	-51.075	183.591	216.365	94.467	124.832	-51.156	220.344	170.176	170.723	78.065	227.305	0.00099897	0.00018627	0.00014283	1367.9	6.0742e-06	3.2606e-06	1364.1	367.92	8.9345e-06	4.7532e-06	420.84	141.28	122.8	42.166	5.3381e-06	51.949	0.00049828	0.00049147	0.0001379	1383.8	5.3234e-06	5.2803e-06	1382.3	375.56	5.2855e-06	5.4229e-06	428.46	143.78	125.01	43.151	5.3289e-06	53.29	82.520	2.438	-36.398	-110.720	-48.133	16.428	-110.778	-106.478	-30.634	-2.248	-106.499	-102.809	-102.229	-97.345	0.462	-97.783	-8191	255	
52211.523	1	1	0	0	0.050067	0.10656	0.11444	0.13357	0.045841	0.29124	0.34987	0.067551	0.22637	0.14374	0.17815	0.20515	0.070853	0.07829	0.13353	0.21446	-4.5167	-4.0083	-4.8979	-4.7812	-4.2229	-5.0667	-4.4021	-4.8521	-5.025	-4.1604	-5.225	-4.7604	-4.2958	-5.3479	-4.1292	-4.4354	1.862	147.310	210.989	177.780	86.458	32.785	205.806	-107.675	191.983	142.215	222.511	123.220	-78.079	68.688	200.649	225.811	0.0010546	0.00032127	9.89e-05	1363.3	5.4799e-06	7.2446e-06	1361.2	369.74	4.0796e-06	5.9503e-06	421.08	140.68	122.61	42.195	6.2063e-06	52.092	0.00049432	0.00048596	0.00013578	1383	5.2769e-06	5.2641e-06	1383	375.23	5.2969e-06	5.3132e-06	428.17	143.62	125.02	43.153	5.3171e-06	53.323	73.623	-71.152	-35.601	-110.815	-21.469	11.217	-111.098	-106.291	-3.725	23.896	-106.732	-102.491	-102.151	-97.356	-8.636	-98.045	-8191	255	
52211.617	1	1	0	0	0.13765	0.12421	0.15744	0.11017	0.20109	0.27065	0.21411	0.18328	0.083567	0.22408	0.15584	0.12362	0.18247	0.28115	0.27475	0.19771	-4.6208	-4.1167	-5.0271	-5.0292	-4.25	-4.975	-4.6312	-4.7333	-5.1062	-4.0521	-4.775	-4.8313	-4.2688	-5.2521	-4.3646	-4.5479	225.459	22.333	-96.932	193.686	28.524	36.139	208.632	157.276	141.644	84.448	-79.488	96.057	190.834	184.001	142.048	60.743	0.00113	0.00061974	0.00013837	1369.6	5.6043e-06	7.1107e-06	1363.6	370.18	4.5444e-06	7.0272e-06	420.01	140.74	122.51	42.041	2.4371e-06	51.679	0.00049407	0.00048688	0.00013522	1385.2	5.3903e-06	5.3384e-06	1382.9	375.5	5.2908e-06	5.3294e-06	427.71	143.72	124.77	43.037	5.247e-06	53.253	72.605	-38.020	-9.719	-110.720	-51.831	54.323	-110.962	-106.465	-30.020	23.184	-106.906	-102.605	-102.076	-97.077	10.074	-98.082	-8191	255	
52211.715	1	1	0	0	0.19185	0.1725	0.29598	0.29834	0.1184	0.058481	0.29002	0.066237	0.11778	0.08856	0.040528	0.16778	0.21308	0.23709	0.088922	0.29466	-4.6083	-4.0708	-4.6604	-4.9187	-4.0521	-4.9812	-4.7	-4.4646	-5.1896	-4.2417	-4.6354	-4.9521	-4.1333	-5.2667	-4.5938	-4.4896	-17.599	102.481	21.670	172.046	55.453	154.741	184.817	175.529	6.412	95.098	-94.446	179.895	-90.004	181.690	-29.889	225.904	0.00092574	0.00067561	0.00013478	1361.2	7.1632e-06	4.1242e-06	1360.3	368.63	7.1729e-06	2.6239e-06	420.74	141.26	122.69	41.896	2.4738e-06	51.769	0.00050123	0.00049855	0.00013561	1381.2	5.3402e-06	5.3652e-06	1379.7	374.96	5.3369e-06	5.3194e-06	428.46	143.64	125.04	43.031	5.3135e-06	53.181	84.073	-14.171	-51.116	-110.555	13.005	-2.283	-110.977	-106.325	-40.127	64.703	-106.817	-102.597	-102.179	-97.226	6.705	-97.881	-8191	255	
52211.836	1	1	0	0	0.10913	0.15616	0.12112	0.23001	0.24487	0.28738	0.14865	0.046066	0.26049	0.051791	0.28979	0.18466	0.13167	0.17984	0.10955	0.28223	-4.8042	-4.1542	-4.6229	-5.1479	-4.1125	-4.8875	-4.8042	-4.425	-5.0437	-4.2042	-4.675	-5.1375	-4.1375	-4.7708	-4.7688	-4.2542	115.491	173.782	24.092	-102.063	19.431	-93.876	101.505	-65.520	9.371	213.247	155.095	93.080	148.024	177.408	49.617	166.022	0.0010814	0.00048535	9.7761e-05	1370.4	7.084e-06	4.7793e-06	1360.1	369.55	5.8142e-06	4.1513e-06	420.69	140.55	121.9	41.931	2.3506e-06	51.794	0.0005045	0.00048661	0.00013502	1384.4	5.3339e-06	5.2297e-06	1382.1	375.4	5.346e-06	5.2884e-06	428.43	143.34	124.59	43.03	5.322e-06	53.219	76.300	-29.709	-43.953	-110.749	5.005	32.805	-110.953	-106.327	-57.339	-0.099	-106.722	-102.796	-102.001	-97.330	13.841	-97.886	-8191	255	
52211.906	1	1	0	0	0.12071	0.022522	0.10512	0.17149	0.31304	0.18627	0.15376	0.12417	0.10542	0.19993	0.050949	0.13823	0.030236	0.21467	0.053517	0.3402	-4.7479	-4.4563	-4.2979	-5.2042	-4.1875	-4.7937	-4.9833	-4.2083	-5.0708	-4.2438	-4.4729	-5.1062	-4.1458	-4.7333	-4.8021	-4.1396	-67.334	66.705	12.058	175.213	-62.125	0.470	171.083	195.952	82.675	178.620	166.895	148.729	164.767	-46.495	108.981	115.097	0.00093476	0.00057155	0.00018285	1360.5	1.4173e-06	4.3305e-06	1363.6	368.52	6.1844e-06	2.7053e-06	420.91	140.47	122.29	42.05	6.6011e-06	51.811	0.00049838	0.00047926	0.00013655	1381.5	5.4153e-06	5.3429e-06	1382	375	5.4062e-06	5.2717e-06	428.31	143.53	124.75	43.013	5.3474e-06	53.224	65.648	-18.309	-35.660	-110.569	-25.129	-13.995	-110.990	-106.354	-16.378	-15.713	-106.795	-102.757	-102.254	-97.199	14.498	-98.151	-8191	255	
52212.004	1	1	0	0	0.095052	0.07682	0.1259	0.35551	0.058976	0.24397	0.11531	0.17002	0.065393	0.073151	0.16756	0.14271	0.03001	0.33129	0.15322	0.21952	-4.7	-4.4604	-4.275	-5.3042	-4.1562	-4.55	-5.1021	-4.2188	-5.0833	-4.5542	-4.3333	-5.0083	-4.2479	-4.725	-4.8729	-4.0771	145.914	75.451	-62.835	172.322	175.703	166.889	120.636	175.454	160.982	150.014	189.168	-102.467	111.896	229.219	89.522	-73.414	0.0010148	0.00027948	0.00015929	1365.1	5.1535e-06	6.593e-06	1366.2	368.45	6.0436e-06	3.9395e-06	421.51	141.36	122.45	42.009	6.2218e-06	51.592	0.00050114	0.0004883	0.00013568	1382.2	5.3522e-06	5.268e-06	1384	374.14	5.2961e-06	5.3206e-06	427.81	143.78	124.78	43.018	5.3945e-06	53.154	76.903	-36.224	-33.086	-110.632	-56.834	-2.056	-110.908	-106.452	-51.656	49.185	-106.818	-102.670	-102.128	-97.358	36.107	-98.013	-8191	255	
52212.121	1	1	0	0	0.11981	0.11027	0.091886	0.28971	0.17979	0.068346	0.39605	0.17283	0.043716	0.11514	0.14741	0.20096	0.32425	0.21675	0.17254	0.031097	-4.6375	-4.6354	-4.075	-5.4625	-4.3542	-4.3333	-5.3333	-4.2125	-4.6771	-4.8292	-4.2271	-5.1542	-4.4917	-4.5229	-5.1521	-4.3625	170.622	37.415	-73.431	132.086	204.701	208.700	175.197	160.138	92.211	138.675	228.219	-87.376	200.324	-120.838	-117.733	218.923	0.00085728	0.00068682	0.00013509	1367.8	2.5014e-06	4.9645e-06	1367.9	369.35	3.2567e-06	5.5214e-06	420.38	140.28	122.36	41.868	6.9019e-06	51.884	0.00050112	0.00047981	0.00013697	1383.4	5.3048e-06	5.3268e-06	1383.5	374.63	5.2708e-06	5.2893e-06	428.05	143.23	124.57	43.028	5.3223e-06	53.281	70.544	-46.721	-40.146	-110.798	-22.592	-8.761	-111.017	-106.587	-50.760	18.830	-106.811	-102.710	-102.248	-97.340	41.010	-97.827	-8191	255	
52212.219	1	1	0	0	0.10766	0.031036	0.2902	0.11358	0.2454	0.077874	0.12314	0.06725	0.34803	0.14357	0.13155	0.26003	0.21791	0.1705	0.29249	0.17684	-4.4771	-4.9083	-4.1604	-5.2	-4.4104	-4.3812	-5.2979	-4.4729	-4.6229	-4.925	-4.4437	-5.1167	-4.7937	-4.3292	-5.0458	-4.4521	127.776	36.455	113.625	186.478	102.587	91.163	215.375	-120.875	111.260	117.208	201.215	197.077	158.922	37.467	52.071	97.834	0.00094975	0.00022952	0.00016452	1364.6	3.8382e-06	5.3537e-06	1359.3	366.72	6.1032e-06	2.8383e-06	418.72	140.75	122.38	42.005	2.8989e-06	51.919	0.00049772	0.00048275	0.00013499	1381.7	5.3016e-06	5.2842e-06	1383.3	373.99	5.2294e-06	5.2738e-06	427.83	143.63	124.83	43.05	5.33e-06	53.172	86.772	-81.549	2.070	-110.937	-70.302	30.200	-110.980	-106.171	-52.120	-5.276	-106.921	-102.653	-102.134	-97.087	12.307	-98.035	-8191	255	
52212.316	1	1	0	0	0.19267	0.052774	0.10419	0.11919	0.064933	0.19373	0.12834	0.041344	0.067275	0.069065	0.22047	0.04463	0.028976	0.20448	0.1552	0.18727	-4.3812	-5.0167	-4.0083	-5.1021	-4.6375	-4.25	-5.2583	-4.4729	-4.5479	-4.9646	-3.9771	-4.8958	-4.8104	-4.1458	-5.1083	-4.4354	-51.316	108.916	157.487	232.621	-18.638	195.148	206.880	123.995	60.428	181.176	185.401	109.610	121.088	124.391	63.262	168.912	0.00089757	0.00031444	2.5212e-05	1366	9.9555e-06	5.0166e-06	1358.4	369.63	1.875e-06	4.8288e-06	419.08	140.96	122.45	41.733	1.839e-06	51.779	0.00049455	0.00047518	0.00013209	1383.3	5.2505e-06	5.2529e-06	1380.6	374.8	5.219e-06	5.1985e-06	427.98	143.57	124.86	42.997	5.2288e-06	53.177	85.925	-76.595	-31.922	-110.734	21.523	-19.083	-110.795	-106.447	58.515	-16.088	-106.794	-102.731	-101.697	-97.355	50.979	-97.732	-8191	255	
52212.438	1	1	0	0	0.19215	0.064994	0.25298	0.14492	0.20566	0.11753	0.046045	0.066278	0.14367	0.3386	0.11807	0.024944	0.1845	0.29448	0.078853	0.20781	-4.175	-4.9396	-4.1521	-4.9104	-4.7396	-4.0042	-5.2479	-4.65	-4.3333	-4.9938	-4.3604	-4.8688	-4.9167	-4.3187	-4.8958	-4.6083	185.597	114.968	176.645	-86.083	74.991	82.969	-87.889	229.686	-75.840	64.783	147.561	187.407	57.197	103.863	190.899	158.383	0.0010251	0.00045297	0.00022174	1362.3	5.0877e-06	3.7533e-06	1359.1	369.1	4.6751e-06	6.9536e-06	419.07	140.31	123.11	42.087	1.3577e-06	52.111	0.00049368	0.000477	0.00013511	1381.1	5.2363e-06	5.2829e-06	1382.2	375.54	5.2525e-06	5.2157e-06	427.31	143.62	125.07	43.092	5.1716e-06	53.24	81.383	-58.888	-26.936	-110.700	-14.901	20.418	-110.949	-106.191	-37.253	36.280	-106.803	-102.826	-101.802	-97.123	-16.147	-98.265	-8191	255	
52212.531	1	1	0	0	0.096186	0.16529	0.059257	0.17613	0.17953	0.21403	0.12182	0.10257	0.17585	0.13791	0.17348	0.062851	0.15937	0.18656	0.19585	0.19256	-4.0271	-5.1229	-4.1333	-4.8688	-4.8833	-3.9	-5.2063	-4.8688	-4.2271	-5.1729	-4.4167	-4.6292	-4.925	-4.2146	-4.7438	-4.6917	12.172	-63.518	212.642	-105.260	-56.448	-36.135	171.481	139.032	-81.401	-65.791	164.867	-8.496	214.990	196.353	-103.219	129.657	0.00094448	0.00065125	0.00011882	1370.1	4.2469e-06	5.0398e-06	1359.2	370.72	7.3457e-06	4.2947e-06	422.1	141.02	122.43	42.082	5.7521e-06	51.841	0.00049214	0.00048017	0.00013151	1384.7	5.2521e-06	5.2367e-06	1382	375.56	5.2471e-06	5.2101e-06	428.29	143.64	124.99	43.097	5.2119e-06	53.187	79.540	-60.671	-63.543	-110.608	10.308	-11.295	-110.938	-106.211	-12.317	34.531	-106.607	-102.997	-101.942	-97.101	-49.265	-97.905	-8191	255	
52212.605	1	1	0	0	0.36655	0.12526	0.020901	0.16188	0.16811	0.23574	0.29065	0.22068	0.23059	0.037028	0.032436	0.18232	0.036929	0.28486	0.14057	0.2704	-3.8625	-5.1042	-4.3833	-4.6562	-4.8604	-4	-5.1896	-4.925	-4.2667	-5.1458	-4.4187	-4.6104	-5.0104	-4.1542	-4.7167	-4.7521	158.698	37.363	-7.692	193.180	-117.652	16.761	130.105	209.136	95.305	22.417	-65.600	206.928	10.059	126.704	140.575	-72.684	0.0008369	0.00027563	0.0001446	1365.7	4.0335e-06	4.2161e-06	1367.3	369.85	5.3175e-06	6.527e-06	420.24	140.79	122.65	42.186	1.641e-06	51.775	0.00049247	0.00047299	0.00013345	1383.9	5.2042e-06	5.2172e-06	1384.8	375.55	5.2046e-06	5.1355e-06	427.72	143.68	125.1	43.138	5.2039e-06	53.272	75.947	-53.636	-45.560	-110.880	-58.251	38.929	-111.171	-106.302	-32.518	77.887	-106.885	-102.862	-102.265	-96.934	47.656	-97.858	-8191	255	
52212.699	1	1	0	0	0.076704	0.088619	0.12232	0.13575	0.2791	0.17352	0.17725	0.10941	0.15081	0.16665	0.067019	0.22994	0.020461	0.19698	0.086177	0.14122	-3.7583	-4.7417	-4.35	-4.4812	-5.0396	-4.1188	-4.7729	-5.0604	-4.1833	-5.0625	-4.6813	-4.2125	-5.3688	-4.2208	-4.4729	-5.1083	160.688	110.550	190.824	202.177	163.440	140.236	200.148	-89.966	-102.131	119.652	51.749	185.781	1.245	-93.277	231.867	201.299	0.00098462	0.00032507	0.00012536	1364.1	2.7231e-06	2.9086e-06	1363.6	369.52	3.8924e-06	9.6813e-06	420.63	141.36	122.71	42.14	4.4064e-06	51.923	0.00048587	0.00047029	0.00013134	1383.1	5.1502e-06	5.1775e-06	1383.3	374.91	5.2374e-06	5.0808e-06	428.06	143.8	124.99	43.056	5.093e-06	53.262	83.122	-33.434	-41.580	-110.919	-76.974	-4.663	-111.211	-106.265	-31.812	38.733	-106.716	-102.800	-101.851	-97.110	-4.084	-98.023	-8191	255	
52212.820	1	1	0	0	0.10432	0.09596	0.084609	0.17583	0.056176	0.20427	0.12649	0.36816	0.23674	0.28952	0.063169	0.092617	0.080258	0.23974	0.085868	0.023854	-3.7062	-5.0354	-4.7	-4.2292	-5.1167	-4.2521	-4.7417	-5.1604	-4.1062	-4.8708	-4.9146	-4.3625	-5.0646	-4.4417	-4.3521	-5.0583	6.082	133.229	60.498	201.081	124.150	58.819	214.411	174.543	58.143	-88.869	21.248	-122.121	234.708	55.169	125.104	-124.316	0.00091757	0.00038132	0.00013959	1365.9	5.3322e-06	3.6846e-06	1358.1	368.54	5.7541e-06	1.6805e-06	420.49	140.96	122.98	42.246	2.4652e-06	51.99	0.0004779	0.00046577	0.00012931	1380.6	5.1081e-06	5.0331e-06	1380.2	375.28	4.9825e-06	5.0049e-06	427.92	143.83	124.86	43.142	5.0172e-06	53.23	79.711	-92.206	-48.435	-110.736	-27.682	32.741	-111.075	-106.377	-74.210	-27.024	-106.604	-102.782	-101.910	-97.311	-20.662	-97.957	-8191	255	
52212.914	1	1	0	0	0.18874	0.085559	0.16452	0.2356	0.13567	0.11184	0.20251	0.32542	0.17102	0.063197	0.22443	0.1185	0.14604	0.24296	0.13153	0.2186	-3.7604	-4.9208	-4.6438	-4.2979	-4.9313	-4.4833	-4.4771	-5.0833	-4.0938	-4.5938	-5.0771	-4.3688	-5.0792	-4.5354	-4.2854	-5.3042	189.097	-61.449	131.382	177.637	11.467	90.413	-120.162	209.029	74.285	217.738	153.409	-122.489	213.796	220.654	-44.279	130.885	0.00074916	0.00068371	0.00023105	1365.3	6.087e-06	2.6499e-06	1359.5	368.83	2.729e-06	2.1452e-06	418.78	140.65	122.36	42.054	6.2973e-06	51.61	0.00047324	0.00046048	0.00012857	1379.5	5.0725e-06	5.0773e-06	1379.7	374.8	5.133e-06	5.0792e-06	426.9	143.65	124.93	42.993	5.1776e-06	53.247	75.229	-46.249	-48.524	-110.778	-69.550	-24.693	-111.112	-106.244	-2.194	9.020	-106.763	-102.821	-102.053	-97.017	39.231	-97.719	-8191	255	
52213.012	1	1	0	0	0.10542	0.071138	0.10983	0.25874	0.13482	0.11305	0.1503	0.1595	0.19973	0.024374	0.11323	0.30791	0.2344	0.11578	0.13396	0.1293	-3.7979	-4.6771	-4.8021	-4.2771	-5.0417	-4.5167	-4.4333	-5.2063	-4.2354	-4.625	-5.0542	-4.1792	-4.9604	-4.8562	-4.1417	-5.2146	150.709	7.229	-107.810	227.379	2.652	76.663	178.456	-60.750	-86.472	-35.244	1.349	199.080	185.201	-21.487	-13.190	112.476	0.00088735	5.1228e-05	0.00019343	1362.3	1.5714e-06	2.9182e-06	1357.9	369.44	2.8316e-06	6.5638e-06	421.8	140.54	122.26	41.86	3.4896e-06	51.92	0.00048155	0.00048042	0.00013153	1380.4	5.1654e-06	5.1746e-06	1379.4	375.4	5.2379e-06	5.1503e-06	427.43	143.54	124.7	42.932	5.2298e-06	53.247	84.426	39.010	-9.739	-110.730	106.949	22.232	-111.008	-106.385	-68.790	11.063	-106.793	-102.850	-102.114	-97.072	-19.644	-98.131	-8191	255	
52213.105	1	1	0	0	0.26727	0.11187	0.16917	0.23471	0.17781	0.034903	0.19759	0.20247	0.061926	0.18874	0.22453	0.26568	0.065215	0.058757	0.21266	0.10182	-3.8875	-4.525	-4.9771	-4.45	-4.9271	-4.6792	-4.4083	-5.2063	-4.2979	-4.5188	-5.0792	-4.0979	-5.0146	-4.8479	-4.0854	-5.1979	37.111	-59.318	130.054	193.267	-80.373	218.611	140.694	155.834	95.577	220.036	231.180	214.790	134.641	189.171	100.511	-64.772	0.00093571	0.00056414	0.00018053	1363.2	8.3696e-06	4.8779e-06	1359.7	368.58	4.9283e-06	6.3654e-06	421.74	140.51	122.81	41.947	4.6677e-06	51.627	0.00048459	0.00047475	0.00013373	1379.3	5.2073e-06	5.1348e-06	1379.4	374.96	5.2087e-06	5.2147e-06	427.88	143.52	124.91	43.026	5.1923e-06	53.185	89.125	-4.207	-46.158	-110.788	-11.709	23.373	-111.116	-106.189	-17.078	16.220	-106.437	-102.673	-101.975	-97.121	5.949	-97.920	-8191	255	
52213.203	1	1	0	0	0.11137	0.21453	0.1092	0.24814	0.1347	0.048812	0.20911	0.12316	0.1409	0.17688	0.14833	0.12372	0.22431	0.073806	0.10555	0.17485	-4.0979	-4.2688	-5.0479	-4.1438	-4.6521	-4.8896	-4.3313	-5.1958	-4.3083	-4.2417	-5.0479	-4.1917	-4.6729	-5.0333	-4.2229	-5.0687	-53.415	119.287	121.238	212.274	219.901	73.911	148.193	97.377	-20.597	70.309	140.766	162.397	183.610	-38.161	136.562	193.037	0.00084473	0.00022829	0.0001407	1363.3	6.7398e-06	6.7973e-06	1360.9	368.8	4.5529e-06	1.8016e-06	419.42	140.62	122.55	42.042	5.081e-06	51.776	0.00048471	0.00047568	0.00013131	1380	5.2542e-06	5.1785e-06	1379	374.98	5.2193e-06	5.1524e-06	427.45	143.29	124.79	43.044	5.2339e-06	53.2	76.669	57.087	-52.113	-110.774	-31.114	42.422	-110.969	-106.089	-28.065	28.245	-106.751	-102.772	-102.203	-96.942	33.254	-98.160	-8191	255	
52213.301	1	1	0	0	0.10695	0.21562	0.28275	0.13849	0.048893	0.20257	0.15365	0.15937	0.032627	0.1881	0.10047	0.15565	0.07274	0.14407	0.2578	0.036419	-4.2937	-4.3771	-5.0125	-4.4313	-4.4938	-4.9563	-4.3208	-4.9208	-4.5312	-4.2521	-5.3521	-4.3104	-4.7375	-5.1354	-4.1417	-4.8896	201.297	-113.242	87.008	58.054	125.508	-85.508	153.878	198.599	-8.489	-94.843	212.451	179.061	231.561	143.869	235.342	-21.059	0.0009365	0.00053416	0.00016226	1362	4.161e-06	7.5829e-06	1356.7	369	3.9305e-06	9.0659e-06	419.86	140.5	122.44	42.196	3.3678e-06	51.955	0.00048785	0.0004754	0.00013174	1380.6	5.2184e-06	5.2041e-06	1379.9	375.3	5.1352e-06	5.1592e-06	428.12	143.51	124.84	43.063	5.2459e-06	53.292	84.820	-25.740	-19.328	-110.612	-36.744	7.846	-111.046	-106.586	18.728	36.134	-106.751	-102.611	-102.133	-97.041	-4.039	-97.941	-8191	255	
52213.395	1	1	0	0	0.28855	0.1778	0.091288	0.16831	0.11253	0.076813	0.1369	0.19479	0.069551	0.06759	0.042686	0.035889	0.041442	0.21323	0.27621	0.07429	-4.4625	-4.1542	-5.1375	-4.4771	-4.4792	-5.075	-4.1979	-4.9271	-4.6958	-4.225	-5.3021	-4.6625	-4.3146	-5.1708	-4.1771	-4.8208	-17.911	141.640	108.844	212.115	209.875	169.493	198.114	-61.302	-92.293	-103.947	4.208	48.936	-28.743	188.051	204.587	70.907	0.00088941	0.0003005	0.0001066	1362.9	9.2657e-06	6.5518e-06	1358.3	370.12	3.6943e-06	1.9887e-06	419.93	141.07	122.75	42.057	1.2892e-06	51.73	0.00048445	0.00047831	0.00013069	1379.6	5.2159e-06	5.1584e-06	1379.3	375.32	5.1707e-06	5.1905e-06	428.27	143.55	124.87	43.038	5.2163e-06	53.191	72.902	-17.792	-27.057	-110.705	-19.139	-3.972	-111.133	-106.295	24.128	13.396	-106.584	-102.674	-101.987	-96.901	-9.731	-97.795	-8191	255	
52213.516	1	1	0	0	0.18786	0.2082	0.053811	0.1755	0.10445	0.12861	0.26671	0.20582	0.1386	0.19025	0.27427	0.35259	0.12753	0.22655	0.12598	0.081126	-4.5729	-3.9917	-5.2104	-4.8146	-4.3896	-5.1312	-4.4917	-4.6562	-5.1229	-3.9917	-5.1417	-4.7063	-4.3771	-5.2458	-4.3479	-4.7583	-50.670	159.900	205.786	213.618	199.997	37.423	201.544	-115.076	27.844	-27.369	70.324	-117.231	-91.547	-92.389	212.777	222.517	0.00092916	0.00015893	0.00011617	1364.4	6.048e-06	7.3697e-06	1358.1	367.73	4.2745e-06	7.1484e-06	421.96	141.27	122.67	42.084	4.2927e-06	51.703	0.00048807	0.00047778	0.00013292	1379.9	5.2646e-06	5.2575e-06	1378.2	374.76	5.1549e-06	5.1998e-06	428.7	143.47	124.91	43.033	5.227e-06	53.218	89.134	-45.066	-10.609	-110.681	-6.810	57.350	-111.070	-106.212	-22.896	9.073	-106.746	-102.636	-102.097	-97.215	-20.901	-98.006	-8191	255	
52213.613	1	1	0	0	0.21541	0.10805	0.14553	0.12811	0.22208	0.23387	0.2272	0.15017	0.10137	0.13433	0.16634	0.25266	0.22099	0.055425	0.091141	0.1041	-4.7875	-4.1417	-4.9583	-4.9	-4.3438	-4.9708	-4.6146	-4.6396	-5.075	-4.1375	-4.9979	-4.85	-4.3292	-5.2229	-4.3604	-4.5167	-48.031	-53.627	132.858	-30.613	-83.054	83.395	179.511	218.075	-11.310	44.636	179.286	142.574	177.718	5.170	19.987	66.688	0.0010421	0.00054107	0.00022248	1366.5	6.3371e-06	6.8848e-06	1357.5	370.6	6.9e-06	6.0208e-06	420.7	141.08	122.23	42.013	7.785e-06	51.827	0.00049121	0.00047842	0.00013306	1381.7	5.2738e-06	5.1582e-06	1377.3	375.35	5.2058e-06	5.2004e-06	427.33	143.46	124.76	42.99	5.2397e-06	53.148	83.107	-22.533	-35.310	-110.977	12.653	61.888	-110.924	-106.215	-12.394	4.257	-106.707	-102.515	-102.059	-97.187	-4.936	-98.322	-8191	255	
52213.707	1	1	0	0	0.21133	0.16097	0.071609	0.22339	0.056045	0.11412	0.16665	0.24003	0.27011	0.18437	0.047447	0.1282	0.087682	0.32389	0.17527	0.053481	-4.9521	-4.3333	-4.7417	-4.9729	-4.2688	-5.1438	-4.7271	-4.4521	-5.1	-4.2458	-4.9708	-5.2063	-4.3229	-5.1271	-4.6396	-4.2688	130.774	-44.750	-44.473	139.209	-68.869	109.567	229.577	206.961	19.498	171.648	207.695	199.934	-122.459	-51.391	133.861	164.370	0.00096986	0.00064966	0.00017759	1363	5.917e-06	4.5968e-06	1357.8	368.76	5.7873e-06	6.6561e-06	419.83	140.21	122.7	41.882	4.5521e-06	51.93	0.00049397	0.00048107	0.00013567	1377.9	5.2294e-06	5.2434e-06	1379.2	374.69	5.3105e-06	5.2571e-06	427.29	143.32	124.79	42.917	5.388e-06	53.16	72.620	-35.236	-49.888	-110.536	-28.079	-10.361	-110.991	-106.366	-29.454	3.743	-106.773	-102.567	-102.322	-97.363	18.551	-98.142	-8191	255	
52213.805	1	1	0	0	0.37358	0.078422	0.13054	0.38099	0.2584	0.1203	0.26919	0.27809	0.039278	0.06725	0.23238	0.14753	0.086276	0.27317	0.11572	0.16317	-4.9125	-4.2208	-4.5188	-5.1271	-4.1729	-4.9958	-4.9333	-4.3854	-5.1188	-4.3042	-4.6021	-5.1333	-4.1708	-4.8479	-4.7354	-4.25	-96.498	98.920	148.257	-116.800	-96.037	167.275	185.849	207.145	-97.812	188.678	224.363	128.081	134.267	-121.086	112.937	-15.139	0.00086623	0.00047143	8.4683e-05	1363.1	4.7235e-06	4.8867e-06	1358	367.51	4.1153e-06	2.134e-06	422.63	140.06	122.49	42.067	3.9556e-06	51.782	0.00049806	0.00048512	0.00013696	1380.3	5.4177e-06	5.3459e-06	1378	373.78	5.3433e-06	5.3683e-06	427.95	143.22	124.79	42.979	5.3783e-06	53.216	66.849	-5.347	-47.475	-110.625	16.617	33.665	-110.865	-106.339	-45.750	-17.051	-106.780	-102.695	-102.190	-97.218	-40.840	-97.990	-8191	255	
52213.902	1	1	0	0	0.22711	0.13382	0.027834	0.05695	0.072643	0.11428	0.191	0.23398	0.10364	0.27906	0.12521	0.079245	0.19098	0.082264	0.18284	0.2623	-4.8375	-4.2292	-4.4229	-5.2646	-4.0792	-4.7937	-5.0229	-4.1813	-5.0563	-4.5	-4.6042	-5.2354	-4.2917	-4.8562	-4.7167	-4.125	-64.641	24.612	76.729	227.062	7.426	-47.211	180.348	177.413	169.087	-114.711	163.872	196.832	-36.554	219.583	107.900	-115.255	0.00088181	0.00021721	6.8317e-05	1363.1	5.5392e-06	5.1219e-06	1353.2	368.57	1.8646e-06	6.3657e-06	418.15	140.68	121.98	41.85	2.6567e-06	51.547	0.00050176	0.0004956	0.00013733	1380.3	5.4707e-06	5.4321e-06	1378.1	374.35	5.4593e-06	5.5261e-06	427.23	143.32	124.51	42.951	5.4405e-06	53.063	67.665	-30.195	-60.315	-110.456	-8.712	16.054	-110.853	-106.199	-74.791	34.413	-106.770	-102.617	-102.133	-97.104	27.562	-98.256	-8191	255	
52213.996	1	1	0	0	0.024589	0.12185	0.19665	0.27612	0.077157	0.19144	0.093128	0.28553	0.081364	0.10463	0.12857	0.25477	0.070111	0.04518	0.30577	0.30061	-4.8146	-4.5479	-4.1229	-5.2375	-4.2562	-4.4667	-5.0437	-4.2417	-4.8313	-4.5854	-4.4375	-5.0667	-4.3333	-4.6708	-4.9375	-4.0813	49.866	122.365	128.984	-115.046	-68.403	-106.138	-14.645	179.230	154.825	61.074	128.228	177.882	-54.329	11.366	71.669	198.178	0.00098996	0.00046267	9.404e-05	1360.3	2.7323e-06	3.0475e-06	1354.1	366.73	3.1369e-06	2.8921e-06	418.1	140.54	122.27	41.746	2.5755e-06	51.83	0.00051456	0.00050217	0.00014142	1378.8	5.6168e-06	5.7011e-06	1377.2	373.64	5.6065e-06	5.5922e-06	426.49	143.39	124.39	42.884	5.6903e-06	53.077	77.436	-13.078	-74.798	-110.648	-31.953	30.943	-111.123	-106.263	-34.692	12.823	-106.769	-102.599	-101.930	-97.385	-33.798	-97.984	-8191	255	
52214.117	1	1	0	0	0.28149	0.17231	0.03444	0.29992	0.093885	0.11229	0.26414	0.21135	0.18495	0.045766	0.33278	0.12682	0.1742	0.23489	0.10429	0.2332	-4.8542	-4.7333	-4.175	-5.3646	-4.3187	-4.5521	-5.175	-4.1083	-4.7958	-4.85	-4.0458	-5.2229	-4.35	-4.3854	-4.9313	-4.2604	-103.422	148.059	191.157	216.990	21.668	106.884	94.667	139.928	205.571	199.418	-119.689	-101.890	148.965	229.165	75.662	84.674	0.0010273	0.00048006	0.000156	1361	6.6673e-06	5.6836e-06	1357.3	366.97	1.8728e-06	5.1331e-06	418.36	140.26	121.58	41.967	4.5684e-06	51.693	0.00052445	0.00051387	0.00014434	1380	5.709e-06	5.6824e-06	1376.4	373.72	5.6284e-06	5.6041e-06	426.87	143.08	124.35	42.928	5.6058e-06	53.068	65.179	-62.032	-39.321	-110.743	-6.537	-2.051	-110.852	-106.256	-49.594	53.604	-106.763	-102.619	-102.059	-97.276	1.249	-98.162	-8191	255	
52214.211	1	1	0	0	0.054433	0.14457	0.15685	0.32073	0.21148	0.11159	0.26358	0.12534	0.052894	0.099262	0.13431	0.069	0.012484	0.061444	0.060071	0.35346	-4.3708	-4.8958	-3.95	-5.0708	-4.5375	-4.325	-5.0917	-4.2729	-4.6375	-4.9708	-4.1521	-5.1292	-4.6417	-4.425	-4.9708	-4.3917	216.745	181.453	-82.672	201.228	179.825	-18.411	154.462	224.277	-115.307	-64.019	211.706	167.117	140.104	-75.490	169.757	171.979	0.0011217	0.00046558	0.00011109	1362.6	7.8483e-06	3.672e-06	1356	367.65	5.1183e-06	3.6459e-06	421.23	140.11	121.55	41.64	2.6359e-06	51.862	0.00052822	0.00051836	0.00014381	1379.7	5.6567e-06	5.6905e-06	1378.2	373.68	5.6257e-06	5.6708e-06	426.94	143.2	124.19	42.821	5.6309e-06	53.101	78.664	-35.445	-81.871	-110.905	-87.892	50.535	-110.956	-106.255	-23.715	-25.065	-106.735	-102.604	-101.771	-96.851	1.415	-98.047	-8191	255	
52214.309	1	1	0	0	0.097913	0.16717	0.24171	0.11444	0.045359	0.17107	0.18389	0.18512	0.19021	0.088441	0.022223	0.085443	0.12902	0.16829	0.13665	0.17737	-4.2937	-4.9271	-3.9625	-5.0125	-4.5625	-4.0479	-5.3604	-4.5188	-4.5458	-4.9083	-4.1375	-4.9646	-4.9938	-4.1292	-4.9646	-4.3958	40.711	12.355	96.926	-101.758	-120.357	-38.472	152.685	-124.257	162.722	184.475	36.782	220.522	193.199	216.264	-59.949	139.382	0.0009516	0.0007466	0.00014493	1357.9	5.4037e-06	4.5717e-06	1364.6	366.45	7.2258e-06	4.0336e-06	416.2	140.41	121.71	41.692	2.8871e-06	51.431	0.00053278	0.00051411	0.00014403	1378.7	5.783e-06	5.7727e-06	1378.3	373.01	5.6905e-06	5.6182e-06	425.94	143.22	124.4	42.915	5.6699e-06	52.998	81.291	-17.876	-31.385	-110.810	-44.457	35.776	-111.002	-106.471	-4.584	41.268	-106.649	-102.742	-102.133	-96.986	51.754	-98.230	-8191	255	
52214.402	1	1	0	0	0.14194	0.19826	0.072572	0.2972	0.095805	0.071192	0.21923	0.09788	0.3067	0.052159	0.16889	0.1939	0.10186	0.20876	0.10577	0.14556	-4.1687	-5.0958	-4.15	-4.9563	-4.8438	-4.025	-5.1937	-4.4458	-4.375	-4.9458	-4.3583	-4.8646	-5.0271	-4.2396	-5.1854	-4.4688	2.644	-51.030	-28.697	162.120	11.233	78.432	112.161	-119.316	134.126	68.812	174.263	160.599	-71.444	209.765	-117.181	-47.556	0.00087402	0.00067397	0.00011183	1367.3	1.0386e-05	7.0639e-06	1363.2	365.93	7.448e-06	6.2974e-06	419.1	139.7	121.41	42.027	6.9951e-06	51.705	0.00053467	0.00051423	0.0001438	1382.2	5.7582e-06	5.7398e-06	1379.2	373.01	5.6864e-06	5.6257e-06	427.08	142.85	124.33	42.913	5.7252e-06	52.995	79.482	-25.007	-87.842	-110.857	-24.523	-27.565	-111.024	-106.028	-56.841	57.108	-106.615	-102.622	-101.850	-97.135	-3.628	-97.869	-8191	255	
52214.500	1	1	0	0	0.12314	0.25043	0.14455	0.14464	0.27209	0.2889	0.099655	0.05499	0.044678	0.068551	0.17825	0.10879	0.074006	0.34199	0.10476	0.13655	-4.0437	-4.9833	-4.2333	-4.9625	-4.8146	-3.8187	-5.025	-4.6771	-4.175	-5.0896	-4.4125	-4.6521	-5.0312	-4.225	-4.7604	-4.7438	125.782	113.754	198.020	170.628	171.103	148.690	134.734	-107.549	71.014	78.630	210.025	-49.430	219.358	-96.894	-101.919	147.557	0.0010199	0.00049228	0.00015241	1361.5	4.6308e-06	7.0632e-06	1358.5	365.72	9.7322e-06	4.146e-06	419.2	139.95	121.99	41.826	3.1384e-06	51.881	0.00052483	0.0005138	0.00014301	1378.7	5.5869e-06	5.6636e-06	1378.9	372.92	5.6527e-06	5.587e-06	426.41	142.97	124.34	42.827	5.564e-06	53.119	75.574	-37.914	2.931	-110.564	25.878	26.630	-110.930	-106.219	-42.523	6.634	-106.817	-102.738	-102.057	-97.287	75.607	-97.791	-8191	255	
#DATA ENDS
