BOXY.EXE: ISS Imagent and Oximeter Data Acquisition Program Version 0.80
Ascii Record File

#ACQ INFORMATION
2  Detector Channels 
16  External MUX Channels 
1  Auxiliary Channels 
5000  Waveform (CCF) Frequency (Hz)
1  Waveforms Skipped 
30  Waveforms Averaged 
1  Cycles Averaged 
16  Acquisitions per Waveform 
10.0806  Updata Rate (Hz) 

#FILE INFORMATION
TRUE -- External MUX Channel results are PARSED.
FALSE -- AC DC and Phase are NOT grouped.
TRUE -- Companion Program Settings File CREATED.
FALSE -- AC data not excluded
FALSE -- DC data not excluded
FALSE -- Phase data not excluded
FALSE -- Auxillary Chn. data not excluded
Tab delimiters

#CALIBRATION STATE
TRUE -- Waveform Calibration Values APPLIED.


#AUX CALIBRATION VALUES
Val Type	aux-1	

Term	1.0000e+00	
Factor	0.0000e+00	


#WF CALIBRATION VALUES
A = Detector Channel
Val Type	A-AC1	A-AC2	A-AC3	A-AC4	A-AC5	A-AC6	A-AC7	A-AC8	A-AC9	A-AC10	A-AC11	A-AC12	A-AC13	A-AC14	A-AC15	A-AC16	A-DC1	A-DC2	A-DC3	A-DC4	A-DC5	A-DC6	A-DC7	A-DC8	A-DC9	A-DC10	A-DC11	A-DC12	A-DC13	A-DC14	A-DC15	A-DC16	A-Ph1	A-Ph2	A-Ph3	A-Ph4	A-Ph5	A-Ph6	A-Ph7	A-Ph8	A-Ph9	A-Ph10	A-Ph11	A-Ph12	A-Ph13	A-Ph14	A-Ph15	A-Ph16	

Term	0.00000e+00	0.00000e+00	0.00000e+00	0.00000e+00	0.00000e+00	0.00000e+00	0.00000e+00	0.00000e+00	0.00000e+00	0.00000e+00	0.00000e+00	0.00000e+00	0.00000e+00	0.00000e+00	0.00000e+00	0.00000e+00	0.00000e+00	0.00000e+00	0.00000e+00	0.00000e+00	0.00000e+00	0.00000e+00	0.00000e+00	0.00000e+00	0.00000e+00	0.00000e+00	0.00000e+00	0.00000e+00	0.00000e+00	0.00000e+00	0.00000e+00	0.00000e+00	0.00000e+00	0.00000e+00	0.00000e+00	0.00000e+00	0.00000e+00	0.00000e+00	0.00000e+00	0.00000e+00	0.00000e+00	0.00000e+00	0.00000e+00	0.00000e+00	0.00000e+00	0.00000e+00	0.00000e+00	0.00000e+00	
Factor	1.00000e+00	1.00000e+00	1.00000e+00	1.00000e+00	1.00000e+00	1.00000e+00	1.00000e+00	1.00000e+00	1.00000e+00	1.00000e+00	1.00000e+00	1.00000e+00	1.00000e+00	1.00000e+00	1.00000e+00	1.00000e+00	1.00000e+00	1.00000e+00	1.00000e+00	1.00000e+00	1.00000e+00	1.00000e+00	1.00000e+00	1.00000e+00	1.00000e+00	1.00000e+00	1.00000e+00	1.00000e+00	1.00000e+00	1.00000e+00	1.00000e+00	1.00000e+00	X	X	X	X	X	X	X	X	X	X	X	X	X	X	X	X	

B = Detector Channel
Val Type	B-AC1	B-AC2	B-AC3	B-AC4	B-AC5	B-AC6	B-AC7	B-AC8	B-AC9	B-AC10	B-AC11	B-AC12	B-AC13	B-AC14	B-AC15	B-AC16	B-DC1	B-DC2	B-DC3	B-DC4	B-DC5	B-DC6	B-DC7	B-DC8	B-DC9	B-DC10	B-DC11	B-DC12	B-DC13	B-DC14	B-DC15	B-DC16	B-Ph1	B-Ph2	B-Ph3	B-Ph4	B-Ph5	B-Ph6	B-Ph7	B-Ph8	B-Ph9	B-Ph10	B-Ph11	B-Ph12	B-Ph13	B-Ph14	B-Ph15	B-Ph16	

Term	0.00000e+00	0.00000e+00	0.00000e+00	0.00000e+00	0.00000e+00	0.00000e+00	0.00000e+00	0.00000e+00	0.00000e+00	0.00000e+00	0.00000e+00	0.00000e+00	0.00000e+00	0.00000e+00	0.00000e+00	0.00000e+00	0.00000e+00	0.00000e+00	0.00000e+00	0.00000e+00	0.00000e+00	0.00000e+00	0.00000e+00	0.00000e+00	0.00000e+00	0.00000e+00	0.00000e+00	0.00000e+00	0.00000e+00	0.00000e+00	0.00000e+00	0.00000e+00	-4.82867e+01	-1.31521e+02	-1.29090e+02	-1.82778e+02	-5.00932e+01	-6.85385e+01	-1.59964e+02	-1.62015e+02	-3.45550e+01	-6.98819e+01	-1.78192e+02	-1.73211e+02	-1.80356e+02	-1.77624e+02	-4.73150e+01	-1.50550e+02	
Factor	2.03344e-05	1.89891e-04	5.74514e-05	1.58307e-01	1.90108e-06	2.09202e-06	1.94733e-01	5.79786e-02	1.52646e-06	2.11415e-06	3.21294e-01	3.10011e-02	3.06678e-02	9.11195e-03	1.92150e-06	1.28799e-02	1.37867e-05	2.61164e-05	7.30315e-06	8.26885e-02	2.52523e-07	2.92360e-07	9.52919e-02	3.04267e-02	2.52502e-07	2.89608e-07	1.62620e-01	1.57850e-02	1.63068e-02	4.82875e-03	2.67683e-07	6.59689e-03	X	X	X	X	X	X	X	X	X	X	X	X	X	X	X	X	



#DISTANCE SETTINGS
A = Detector Channel
A-1	A-2	A-3	A-4	A-5	A-6	A-7	A-8	A-9	A-10	A-11	A-12	A-13	A-14	A-15	A-16	

2.5000e+00	3.0000e+00	2.5000e+00	3.0000e+00	2.0000e+00	3.0000e+00	1.5000e+00	3.0000e+00	3.0000e+00	3.0000e+00	3.0000e+00	3.0000e+00	3.0000e+00	3.0000e+00	1.5000e+00	3.0000e+00	

B = Detector Channel
B-1	B-2	B-3	B-4	B-5	B-6	B-7	B-8	B-9	B-10	B-11	B-12	B-13	B-14	B-15	B-16	

1.0000e+01	1.0000e+01	1.0000e+01	1.4400e+00	1.0000e+01	1.0000e+01	1.5100e+00	1.9400e+00	1.0000e+01	1.0000e+01	1.9900e+00	2.4900e+00	2.4100e+00	2.9000e+00	1.0000e+01	2.9800e+00	




#DATA BEGINS
time	group	step	mark	flag	A-AC1	A-AC2	A-AC3	A-AC4	A-AC5	A-AC6	A-AC7	A-AC8	A-AC9	A-AC10	A-AC11	A-AC12	A-AC13	A-AC14	A-AC15	A-AC16	A-DC1	A-DC2	A-DC3	A-DC4	A-DC5	A-DC6	A-DC7	A-DC8	A-DC9	A-DC10	A-DC11	A-DC12	A-DC13	A-DC14	A-DC15	A-DC16	A-Ph1	A-Ph2	A-Ph3	A-Ph4	A-Ph5	A-Ph6	A-Ph7	A-Ph8	A-Ph9	A-Ph10	A-Ph11	A-Ph12	A-Ph13	A-Ph14	A-Ph15	A-Ph16	B-AC1	B-AC2	B-AC3	B-AC4	B-AC5	B-AC6	B-AC7	B-AC8	B-AC9	B-AC10	B-AC11	B-AC12	B-AC13	B-AC14	B-AC15	B-AC16	B-DC1	B-DC2	B-DC3	B-DC4	B-DC5	B-DC6	B-DC7	B-DC8	B-DC9	B-DC10	B-DC11	B-DC12	B-DC13	B-DC14	B-DC15	B-DC16	B-Ph1	B-Ph2	B-Ph3	B-Ph4	B-Ph5	B-Ph6	B-Ph7	B-Ph8	B-Ph9	B-Ph10	B-Ph11	B-Ph12	B-Ph13	B-Ph14	B-Ph15	B-Ph16	aux-1	digaux	

1227.992	1	1	0	512	0.18571	0.099428	0.18011	0.38445	0.19437	0.17897	0.19156	0.15529	0.14365	0.10231	0.18864	0.076181	0.11886	0.19038	0.085851	0.13659	-1.6854	-2.5458	-2.3917	-2.2021	-2.6833	-2.0292	-2.3375	-2.7833	-2.1667	-2.6667	-2.3688	-2.2458	-2.8063	-2.3312	-2.4813	-2.9375	254.818	65.826	177.255	199.370	-25.834	24.179	264.191	233.381	-27.916	226.342	108.183	-86.663	224.773	208.877	172.491	-73.715	0.00042315	0.0046691	0.0019734	1010.3	4.0186e-05	0.00012296	1045.1	381.23	9.624e-05	0.00012723	452.76	154.55	126.81	54.158	3.3961e-05	63.701	0.14364	0.27032	0.074316	1746.3	0.0026431	0.0030286	1898.2	652.65	0.0026409	0.0030236	2069.2	302.29	285.42	98.411	0.0027745	126.82	169.824	228.963	268.257	-76.593	211.697	84.787	-76.845	-71.074	42.950	55.298	-73.557	-68.543	-65.787	-62.085	-6.230	-65.316	-8191	255	
1228.088	1	1	0	0	0.24685	0.28947	0.13446	0.31911	0.14397	0.11047	0.01286	0.31367	0.23137	0.15877	0.096448	0.053363	0.25706	0.13018	0.13165	0.30451	-1.7104	-2.6708	-2.625	-2.0563	-2.9854	-2.2146	-2.4188	-2.9375	-2.0354	-2.6604	-2.6542	-2.2625	-2.8479	-2.5	-2.1167	-2.9646	167.801	121.381	209.407	187.740	17.154	262.147	170.581	266.362	3.987	60.143	87.499	256.541	201.842	-26.520	95.396	204.273	0.00072005	0.0044617	0.0010092	1000.2	4.4888e-05	8.8518e-05	1040.4	383.94	5.6553e-05	2.488e-05	458.85	155.59	127.4	53.766	4.7869e-06	63.789	0.14658	0.27459	0.076525	1758.7	0.0026986	0.003072	1926.6	663.73	0.0026937	0.0030542	2114.7	307.88	286.91	98.705	0.0028017	127.17	-51.343	236.604	210.767	-76.572	242.038	-66.301	-76.832	-70.746	51.516	136.678	-72.649	-68.158	-65.291	-61.646	136.350	-64.741	-8191	255	
1228.185	1	1	0	0	0.19265	0.13925	0.088032	0.20971	0.090286	0.15494	0.13387	0.25741	0.12752	0.19699	0.17284	0.30335	0.38125	0.028866	0.2279	0.20887	-1.5042	-2.4938	-2.6417	-2.2313	-2.7333	-2.3	-2.1688	-2.8812	-2.3021	-2.5292	-2.8042	-2.2021	-2.7604	-2.6667	-2.2208	-3.0104	-38.642	-20.517	268.862	210.201	-83.219	178.575	235.183	223.321	109.518	122.656	-49.252	229.269	250.587	155.916	111.873	197.216	0.00061024	0.0061911	0.00099155	993.5	1.9633e-05	8.2998e-05	1049.1	380.18	4.3861e-05	2.7751e-05	459.74	153.19	126.41	53.6	5.8541e-05	63.093	0.14557	0.27124	0.076277	1752.5	0.0026554	0.0030106	1914.5	657.86	0.0026284	0.0029951	2093.9	303.13	281.86	97.343	0.0027963	125.78	268.118	-83.706	169.223	-76.827	97.850	159.523	-76.827	-70.397	54.736	163.897	-72.399	-68.307	-65.947	-61.400	138.773	-64.513	-8191	255	
1228.305	1	1	0	0	0.21288	0.15283	0.24034	0.12411	0.11531	0.45465	0.23181	0.058414	0.24721	0.17898	0.45945	0.1491	0.12428	0.15806	0.23431	0.21896	-1.8167	-2.5417	-2.6875	-2.0062	-2.6229	-2.5187	-2.2979	-3.0417	-2.2	-2.45	-2.8563	-2.0271	-2.7313	-2.6417	-2.1979	-2.8729	-46.758	3.562	-46.702	-22.101	164.692	183.531	244.210	-82.325	107.712	-41.323	117.334	260.155	-70.627	197.206	92.135	115.324	0.00044127	0.0068155	0.0027599	1007.7	3.4699e-05	0.00011725	1043.9	378.99	3.9215e-05	7.913e-05	447.81	154.28	125.56	53.388	4.9052e-05	63.893	0.14351	0.271	0.077295	1764.5	0.002642	0.0030473	1925.2	658.45	0.0026175	0.0030143	2105.4	302.83	280.99	97.51	0.002823	125.94	22.403	71.606	92.042	-76.045	52.938	-55.447	-76.447	-70.738	19.573	-45.397	-71.425	-68.070	-66.009	-61.494	-12.261	-64.498	-8191	255	
1228.400	1	1	0	0	0.18978	0.27641	0.25569	0.2223	0.29534	0.33449	0.3234	0.13227	0.041105	0.11093	0.21342	0.057359	0.22367	0.17189	0.25009	0.068462	-1.8479	-2.4125	-2.9	-2.1917	-2.5167	-2.6771	-2.2417	-2.8146	-2.4208	-2.1771	-2.9583	-2.2271	-2.6229	-2.9396	-2.1437	-2.8792	16.813	-85.981	109.431	239.333	81.444	54.387	194.732	250.515	17.191	36.550	233.874	127.457	259.375	231.938	24.894	196.581	0.00037028	0.011561	0.0036701	1013.2	6.9212e-06	1.6076e-05	1048.9	378.59	3.4186e-05	3.7084e-05	441.12	153.01	125.19	53.412	3.9316e-05	63.82	0.14293	0.27243	0.077418	1762.4	0.0026141	0.0030451	1933.1	653.76	0.0025817	0.0030089	2104.2	300.32	278.05	97.355	0.0027749	124.4	180.384	186.312	156.035	-76.354	139.749	92.632	-76.990	-71.023	78.442	120.230	-73.323	-68.917	-65.784	-61.386	202.626	-64.914	-8191	255	
1228.496	1	1	0	0	0.33345	0.16987	0.19107	0.12957	0.13232	0.087834	0.22319	0.14005	0.39682	0.25097	0.34643	0.19966	0.14476	0.10506	0.16884	0.21722	-1.9458	-2.2042	-2.8396	-2.2375	-2.4667	-2.8125	-2.2583	-2.6771	-2.4938	-2.0875	-2.8479	-2.4062	-2.3312	-2.8917	-2.0375	-2.8063	239.820	46.635	193.763	212.465	209.284	217.911	37.729	141.337	-11.064	132.566	-51.766	252.535	202.839	14.606	110.768	215.605	4.7798e-05	0.0046386	0.00073277	1022.4	1.0633e-05	7.7383e-05	1058.2	379.57	1.0545e-05	2.833e-05	462.46	154.54	125.89	52.966	2.0658e-05	63.323	0.13984	0.26924	0.075367	1735.4	0.0025372	0.002993	1901.2	641.99	0.0025131	0.0029266	2039.5	293.35	272.54	95.934	0.0026652	121.13	132.348	157.843	142.250	-76.321	49.317	124.349	-76.891	-70.885	201.691	42.802	-72.744	-68.966	-65.717	-61.415	119.145	-64.397	-8191	255	
1228.592	1	1	0	0	0.093189	0.19344	0.054593	0.12892	0.30977	0.083703	0.049507	0.14931	0.17322	0.28499	0.21185	0.16362	0.1826	0.10588	0.141	0.11592	-2.0854	-2.0417	-2.8979	-2.375	-2.5333	-2.7792	-2.0917	-2.6167	-2.5833	-2.1562	-2.8333	-2.4125	-2.2938	-2.8312	-2.1396	-2.7646	183.254	64.905	107.133	187.867	-36.069	156.075	111.045	215.458	188.811	12.227	81.257	97.858	256.140	58.367	150.687	27.015	0.00036131	0.006822	0.0020733	1006.4	3.3325e-05	3.4394e-05	1046.4	378.43	2.0145e-05	6.0698e-05	441.79	155.07	125.8	53.466	0.00010255	63.919	0.13462	0.25916	0.072582	1689.6	0.002454	0.002899	1856.6	626.48	0.0024427	0.0028359	1976.8	287.7	268.79	95.044	0.0025875	119.58	266.784	173.902	1.220	-76.662	28.126	-49.654	-77.136	-70.601	6.714	-7.834	-72.572	-68.400	-66.064	-61.570	159.197	-65.030	-8191	255	
1228.688	1	1	0	0	0.12635	0.18623	0.15203	0.14829	0.088411	0.096548	0.11143	0.11661	0.16266	0.27433	0.046034	0.17847	0.11032	0.22556	0.062128	0.22615	-2.2208	-1.8813	-2.7875	-2.2271	-2.3688	-2.7562	-2.15	-2.575	-2.6688	-2.15	-2.775	-2.4458	-2.1979	-2.8625	-2.2438	-2.5229	-12.891	78.445	127.976	270.738	48.699	93.764	237.303	151.747	-31.587	77.731	61.469	0.001	200.946	222.284	-39.974	175.188	0.00028171	0.0052034	0.00086471	1008.5	4.6809e-05	7.4261e-05	1045.9	380.53	4.577e-05	7.3789e-05	457.18	154.98	125.61	53.663	4.4513e-05	63.812	0.13434	0.25625	0.071374	1679.5	0.0024435	0.0028559	1832.2	622.66	0.0024044	0.0027674	1923.2	283.35	265.24	93.348	0.0024872	117.53	-65.142	-75.813	-87.790	-76.816	110.531	160.714	-77.652	-71.039	47.549	51.877	-72.067	-69.129	-65.920	-61.734	232.271	-65.443	-8191	255	
1228.784	1	1	0	0	0.20606	0.31737	0.1494	0.15825	0.15298	0.1769	0.30517	0.13605	0.18629	0.15009	0.095597	0.50571	0.12954	0.040121	0.23523	0.051894	-2.1875	-2.1417	-2.675	-2.4521	-2.0083	-2.8333	-2.3854	-2.475	-2.8667	-2.1333	-2.8812	-2.5521	-2.05	-2.8521	-2.225	-2.4542	81.973	119.796	49.412	178.707	148.001	248.902	151.488	-88.044	260.786	158.522	-77.242	185.710	-23.069	249.393	75.163	240.130	0.00046327	0.0063349	0.0015298	1008.1	3.3671e-05	2.6447e-05	1055.5	382.09	5.2258e-05	4.5632e-05	470.11	155.78	126.65	53.505	3.5954e-05	65.034	0.13013	0.24709	0.068138	1653.4	0.0023791	0.0027652	1808.9	619.12	0.0023744	0.0027414	1908.8	285.78	266.64	93.651	0.0024817	119.52	229.936	-9.593	86.817	-76.923	7.764	252.130	-76.944	-71.207	-63.006	26.949	-72.495	-68.620	-65.823	-61.702	191.496	-64.559	-8191	255	
1228.905	1	1	0	0	0.048985	0.044903	0.18905	0.069896	0.275	0.10263	0.15829	0.12149	0.13755	0.34094	0.15034	0.14046	0.33687	0.19068	0.22292	0.26202	-2.4229	-2.1417	-2.5167	-2.6188	-2.2	-2.9208	-2.1021	-2.3458	-2.8812	-2.1375	-2.6813	-2.6562	-2.2792	-2.9437	-2.1604	-2.4188	226.917	100.851	10.655	35.913	154.514	249.767	191.354	260.330	-81.649	248.401	202.307	188.541	202.799	-77.373	115.817	219.642	0.00093899	0.0084428	0.0021428	1008.4	6.4893e-05	7.134e-05	1058.7	380.73	1.184e-05	5.8196e-05	454.04	158.12	127.13	54.271	1.0133e-05	63.885	0.13167	0.24754	0.068173	1660.1	0.0023894	0.0027424	1803.9	618.86	0.0023639	0.0026948	1894	285.45	265.04	92.719	0.0024405	118.62	82.408	-8.855	249.278	-76.964	82.633	233.569	-77.348	-71.200	173.865	7.141	-73.222	-68.902	-65.380	-61.874	143.795	-65.513	-8191	255	
1229.001	1	1	0	0	0.22611	0.26296	0.052339	0.24814	0.068866	0.17144	0.38297	0.15855	0.058466	0.11791	0.18991	0.078837	0.074918	0.15127	0.1248	0.117	-2.5646	-2.0375	-2.5542	-2.8187	-2.025	-2.9333	-2.4396	-2.1792	-2.8792	-2.2229	-2.4146	-2.8792	-2.2146	-2.7625	-2.4062	-2.2292	87.647	116.388	78.064	261.047	-0.444	126.710	232.624	-80.707	118.641	53.458	161.102	-79.127	-37.168	236.505	46.408	202.726	0.00058165	0.0031432	0.00043363	997.44	6.2342e-05	5.04e-05	1053.3	380.67	1.2306e-05	2.7123e-05	453.5	154.79	125.99	54.11	6.8578e-05	64.089	0.12931	0.24179	0.067461	1654.6	0.0023799	0.0027344	1802.8	622.31	0.002381	0.0026938	1906.7	286.54	265.49	92.754	0.002469	118.98	-40.509	137.206	21.407	-76.826	122.626	-16.107	-77.240	-70.627	124.587	-26.916	-73.346	-68.578	-65.617	-61.075	-37.155	-65.077	-8191	255	
1229.097	1	1	0	0	0.14895	0.04345	0.11015	0.11606	0.21375	0.19084	0.20191	0.1294	0.15047	0.066095	0.18717	0.13999	0.30275	0.15765	0.278	0.10672	-2.3708	-2.0083	-2.4896	-2.7875	-2.1417	-2.7167	-2.5958	-2.3625	-2.9458	-2.0938	-2.3208	-2.7562	-2.1208	-2.7979	-2.5333	-2.2375	216.580	87.479	0.421	132.692	117.093	80.651	265.990	197.030	218.947	192.769	250.550	191.198	199.978	218.239	20.460	187.892	0.00020164	0.0061626	0.0043996	1004.1	1.9744e-05	2.938e-05	1052	381.67	2.9015e-05	6.6822e-05	460.65	157.48	127.39	53.602	5.0676e-05	64.683	0.13001	0.24121	0.068215	1667.9	0.0023838	0.0027324	1826.2	628.71	0.0024072	0.0027217	1953.3	290.83	267.54	93.252	0.0025344	120.19	243.759	-71.005	201.149	-76.828	70.882	152.648	-76.967	-70.939	106.285	-65.361	-73.926	-69.102	-66.092	-62.023	76.955	-65.406	-8191	255	
1229.169	1	1	0	0	0.21335	0.09643	0.11432	0.10187	0.18998	0.16376	0.30641	0.14012	0.029284	0.055639	0.17373	0.27127	0.09475	0.15986	0.17897	0.040298	-2.5646	-2.3292	-2.4646	-2.8	-2.0354	-2.6521	-2.7979	-2.1396	-2.7646	-2.4062	-2.2687	-2.9083	-2.1688	-2.6167	-2.6229	-2.0625	94.968	103.823	5.971	41.718	266.815	196.276	146.365	170.961	209.096	77.718	-82.693	198.031	3.696	209.560	102.702	187.683	0.00065263	0.0090263	0.0011384	1001.3	4.7751e-05	1.8967e-05	1058.8	381.89	2.3895e-05	1.2866e-05	457.24	156.77	126.78	53.965	5.258e-05	64.669	0.13011	0.24303	0.068968	1667.1	0.002351	0.002721	1825.3	623.51	0.0023451	0.0026814	1938.6	289.31	263.91	93.25	0.0025364	119.83	0.974	105.252	122.198	-76.536	27.162	-18.532	-77.080	-70.664	120.868	263.786	-72.779	-68.372	-65.935	-61.723	114.230	-65.564	-8191	255	
1229.265	1	1	0	0	0.10362	0.40456	0.047148	0.15595	0.11972	0.10687	0.19653	0.15154	0.11792	0.13632	0.15771	0.17992	0.19327	0.015951	0.062639	0.13624	-2.4646	-2.2625	-2.15	-3.0687	-2.1312	-2.5479	-2.7792	-1.9688	-2.7833	-2.3396	-2.1146	-2.8646	-2.3083	-2.4646	-2.65	-2.3125	144.272	188.612	216.096	241.482	-56.804	50.590	112.681	-69.927	-49.317	181.054	267.706	174.923	-74.655	172.789	80.757	139.437	0.00083027	0.0051078	0.0025321	1012.6	2.7412e-05	5.6327e-05	1060.8	383.15	3.2117e-05	6.0617e-05	457.78	156.69	127.17	53.949	3.786e-05	63.915	0.12848	0.2435	0.069123	1665.9	0.0023244	0.0027234	1821.8	620.55	0.0023035	0.0026581	1914.7	283.95	259.18	92.346	0.002465	117.14	225.001	5.715	35.689	-77.082	30.731	123.383	-76.992	-71.375	99.582	125.292	-72.111	-68.623	-66.283	-61.475	-27.129	-65.787	-8191	255	
1229.386	1	1	0	0	0.18067	0.10569	0.065435	0.21917	0.27877	0.1795	0.41225	0.10513	0.13253	0.22776	0.23938	0.19027	0.11086	0.1633	0.25531	0.07173	-2.2354	-2.4417	-2.0417	-2.9375	-2.1354	-2.4458	-2.9021	-2.0417	-2.45	-2.5187	-1.9896	-2.8438	-2.2521	-2.4125	-2.7938	-2.2021	-63.838	64.007	-13.286	266.163	183.838	-69.114	235.464	214.388	149.763	-19.404	101.667	184.560	126.637	-88.030	162.335	-8.782	7.519e-05	0.0036042	0.0023584	990.02	2.1063e-05	2.7851e-05	1043.5	382.45	5.4857e-05	6.8751e-06	469.96	155.79	125.57	54.136	2.6598e-05	64.617	0.12397	0.23759	0.066774	1612.1	0.0022315	0.0026204	1771.2	603.52	0.0021883	0.0025436	1822.7	273.9	250.03	89.011	0.0022507	111.41	64.684	210.108	199.775	-76.899	127.932	222.619	-76.983	-71.247	-77.101	92.605	-73.104	-68.790	-65.824	-62.355	78.908	-66.225	-8191	255	
1229.480	1	1	0	0	0.31165	0.12771	0.19433	0.3408	0.082982	0.075225	0.19636	0.12421	0.20984	0.29168	0.16363	0.11535	0.10916	0.16995	0.050312	0.19123	-2.1792	-2.6292	-2.0354	-2.7979	-2.1646	-2.3937	-3	-2.3063	-2.5771	-2.7625	-2.0167	-2.7792	-2.425	-2.1708	-2.7854	-2.0938	47.238	-80.386	152.294	-78.978	75.527	259.879	169.526	203.888	-9.397	39.773	157.475	204.149	200.114	230.668	205.332	240.721	0.00052504	0.0055983	0.00078803	979.37	3.166e-05	5.3256e-05	1039.1	382.02	3.726e-05	5.5844e-06	451.58	159.08	125.7	54.239	4.5929e-05	64.858	0.11293	0.21517	0.060039	1525	0.0020095	0.0023633	1675.2	572.8	0.0019884	0.002319	1696.5	263.41	240.3	86.974	0.0021283	109.08	33.580	11.413	0.390	-77.154	161.754	136.328	-77.944	-71.632	55.485	20.681	-73.534	-69.398	-67.573	-62.690	4.831	-65.714	-8191	255	
1229.576	1	1	0	0	0.18173	0.33573	0.43005	0.24776	0.1315	0.057734	0.32503	0.47617	0.25492	0.27782	0.13105	0.17551	0.1875	0.1219	0.33431	0.11328	-2.1063	-2.6	-2.0521	-2.8833	-2.4167	-2.1167	-2.9917	-2.1271	-2.3438	-2.7604	-1.8354	-2.7354	-2.6021	-2.0875	-2.9125	-2.3604	180.212	-0.664	62.249	170.430	83.992	135.745	140.322	206.831	87.780	-32.249	79.807	169.887	237.830	184.383	16.662	-18.890	0.00039507	0.0040139	0.00045475	981.67	3.4247e-05	6.8511e-05	1043.9	376.74	2.3763e-05	3.9588e-05	469.92	159.08	125.84	55.098	3.8637e-05	65.188	0.10913	0.20831	0.057659	1505.4	0.0019736	0.0023171	1663.3	567.79	0.0019657	0.0022684	1663.1	261.82	239.05	85.964	0.0020391	107.71	202.850	246.481	132.799	-77.513	246.820	-45.441	-77.713	-72.049	235.438	218.596	-74.177	-70.167	-66.675	-62.648	70.580	-65.993	-8191	255	
1229.674	1	1	0	0	0.034553	0.067355	0.098931	0.18458	0.23619	0.17948	0.073505	0.22766	0.13906	0.017734	0.21867	0.13853	0.24259	0.35937	0.24252	0.27792	-1.8292	-2.8187	-2.0958	-2.8354	-2.6021	-2.1021	-2.9229	-2.6375	-2.2896	-2.9583	-2.2104	-2.7667	-2.6437	-2.0646	-2.8563	-2.4333	144.622	52.785	-48.106	158.495	159.713	163.261	-37.528	169.162	66.255	145.331	148.732	142.360	255.356	174.280	64.099	155.956	0.00020825	0.0051644	0.0015803	979.69	5.3682e-05	2.9744e-05	1044.5	381.1	4.026e-05	4.969e-05	454.09	158.01	126.5	54.445	2.5802e-05	64.432	0.10585	0.20138	0.055087	1483.9	0.0019216	0.0022211	1635	562.02	0.0019106	0.0021896	1612.7	256.8	235.1	84.628	0.0019684	105.8	83.502	128.024	243.629	-77.379	77.847	-44.930	-77.772	-72.133	142.266	230.173	-74.138	-69.776	-67.569	-62.711	188.933	-66.110	-8191	255	
1229.768	1	1	0	0	0.12105	0.084177	0.1176	0.045059	0.43646	0.14122	0.13647	0.14433	0.041962	0.24334	0.023403	0.21664	0.074578	0.21714	0.16021	0.1944	-1.6542	-2.8354	-1.9208	-2.5438	-2.6979	-2.0354	-3.0542	-2.4875	-2.3583	-2.9625	-2.2979	-2.5646	-2.7167	-2.1	-2.7833	-2.5812	53.173	138.816	227.078	-85.925	44.307	-36.870	238.725	227.760	24.021	92.648	248.959	210.852	7.844	-29.164	115.335	267.813	0.00076858	0.0053158	0.00048999	986.43	3.4724e-05	3.7722e-05	1057	378.64	1.5511e-05	9.8648e-05	451.99	156.87	125.18	53.513	1.7725e-05	64.677	0.10362	0.19626	0.053596	1484	0.0018955	0.0021799	1622.3	558.48	0.0018859	0.0021454	1587.9	256.81	233.74	83.862	0.0019833	106.49	3.501	242.976	159.238	-77.167	89.783	-9.178	-77.948	-71.790	116.254	95.873	-74.001	-69.222	-66.273	-62.189	103.975	-65.749	-8191	255	
1229.865	1	1	0	0	0.21266	0.09123	0.10586	0.41733	0.16691	0.26554	0.10403	0.14357	0.17837	0.1639	0.070902	0.35703	0.031102	0.098352	0.15996	0.12339	-1.8729	-2.8292	-2.1208	-2.5979	-2.7375	-2.0083	-2.8021	-2.6104	-2.1771	-2.9104	-2.1667	-2.5667	-2.9208	-2.2896	-2.7729	-2.5563	-58.585	26.169	209.226	229.760	43.946	-66.891	20.851	249.164	174.995	207.205	-15.182	-30.643	250.952	-23.902	35.221	136.652	0.00026086	0.0035009	0.0014892	993.46	2.7478e-05	7.512e-05	1057.4	380.32	5.5228e-05	2.867e-05	448.91	157.44	125.16	53.448	2.3801e-05	65.256	0.10482	0.19634	0.054544	1503.2	0.0019097	0.0021853	1643.8	564.97	0.0019105	0.0021717	1609.2	258.94	234.91	83.847	0.0020028	107.74	-80.509	209.245	32.291	-77.440	-82.362	23.834	-77.635	-71.744	-61.906	253.514	-74.743	-69.456	-66.646	-62.100	89.423	-65.921	-8191	255	
1229.985	1	1	0	0	0.19129	0.066421	0.063732	0.29961	0.24037	0.34818	0.13318	0.44018	0.25291	0.14121	0.048383	0.13746	0.33292	0.15296	0.092974	0.15826	-1.7167	-2.8604	-2.2833	-2.4708	-2.8625	-2.1833	-2.7188	-2.7542	-1.9229	-2.9667	-2.1667	-2.5062	-3.0208	-2.1437	-2.5167	-2.7646	67.082	46.787	-86.166	252.766	-28.039	158.200	-21.284	206.978	215.493	-72.015	65.208	229.084	196.874	204.476	22.217	-45.674	0.00034762	0.0014339	0.001488	1005.4	6.4286e-05	3.9505e-05	1067.4	382.46	0.00010172	3.8981e-05	445.42	156.45	126.33	53.629	3.3933e-05	64.315	0.10549	0.19667	0.055159	1515.6	0.0019273	0.0021917	1654.7	567.54	0.001904	0.0021559	1620.3	258.08	234.06	83.492	0.0020101	107.07	-84.844	150.342	35.421	-76.797	208.031	73.130	-77.959	-71.750	137.724	98.303	-75.395	-69.164	-66.236	-62.557	229.120	-66.062	-8191	255	
1230.081	1	1	0	0	0.14422	0.019208	0.14696	0.13463	0.040666	0.063056	0.33574	0.22897	0.24751	0.19649	0.065207	0.27074	0.12913	0.2113	0.18406	0.071562	-1.5208	-2.8542	-2.6312	-2.2604	-2.8396	-2.0208	-2.6771	-2.7042	-2.0271	-2.8563	-2.3833	-2.2917	-2.9688	-2.2417	-2.5271	-3	-36.912	37.007	155.037	242.687	265.569	127.673	176.261	146.344	208.168	-52.731	-69.550	-83.695	-61.756	-54.909	114.213	-84.327	0.00065461	0.0031906	0.0027953	994.61	3.8944e-05	1.6877e-05	1049.9	377.28	2.4999e-05	7.2625e-05	438.33	154.84	125.69	53.781	4.6498e-05	63.849	0.10346	0.19549	0.055344	1508.4	0.0019159	0.0021994	1652.6	567.78	0.0019175	0.0021908	1637.4	257.9	233.42	83.677	0.002031	106.53	265.724	-53.215	248.275	-77.001	-73.950	16.248	-77.446	-71.616	30.139	124.424	-73.121	-68.924	-66.089	-62.426	-34.034	-65.473	-8191	255	
1230.178	1	1	0	0	0.027146	0.14077	0.035849	0.32757	0.25606	0.080012	0.21858	0.095622	0.14753	0.10852	0.20804	0.20639	0.091111	0.35232	0.20348	0.29124	-1.6063	-2.6667	-2.5604	-2.1937	-2.7917	-2.1896	-2.5583	-2.9229	-2.0812	-2.7396	-2.6063	-2.2729	-2.6667	-2.2125	-2.2083	-2.8563	60.368	-67.564	248.792	-21.485	39.960	-59.459	244.950	131.545	-63.591	19.869	138.597	171.400	-40.978	-65.943	49.784	-61.968	0.00038816	0.006249	0.0026814	998.25	1.9799e-05	3.1281e-05	1039.8	377.48	2.2287e-05	6.6316e-05	449.82	156.24	124.78	53.744	1.9908e-05	65.187	0.10239	0.19457	0.055214	1499.1	0.0018708	0.0021737	1637.7	562.9	0.0018643	0.0021636	1620.8	256.49	231.08	83.517	0.0019915	105.69	-66.833	137.839	242.776	-77.020	106.893	46.436	-77.432	-71.218	65.968	164.283	-72.684	-68.510	-66.316	-62.512	197.705	-65.350	-8191	255	
1230.274	1	1	0	0	0.077382	0.19429	0.19596	0.11749	0.15932	0.17229	0.25093	0.18988	0.14957	0.22472	0.16299	0.44155	0.1572	0.15026	0.027475	0.10424	-1.5479	-2.4542	-2.3333	-2.175	-3.0667	-2.4417	-2.4354	-2.9208	-2.0021	-2.4833	-2.725	-2.0333	-2.7292	-2.2292	-2.1333	-2.9167	231.408	104.686	96.702	133.795	252.342	-23.133	-63.285	46.995	133.543	108.122	-58.943	259.595	-80.419	257.687	259.020	-67.417	0.00061881	0.0087103	0.0025896	1008.7	4.6089e-05	2.7911e-05	1051.4	377.69	2.6155e-05	5.9638e-05	444.31	154.45	126.47	53.339	4.0864e-05	64.225	0.10016	0.19191	0.053976	1482.2	0.0018234	0.0021412	1629.5	555.35	0.0018336	0.0021435	1608.2	254.07	231.87	83.867	0.0020266	106.95	190.471	144.088	-37.564	-77.703	-86.953	200.919	-77.244	-71.744	244.307	155.894	-73.814	-68.854	-65.811	-61.830	243.815	-65.053	-8191	255	
1230.394	1	1	0	0	0.10188	0.20905	0.15781	0.12936	0.21094	0.046776	0.20357	0.4778	0.24266	0.1361	0.13208	0.21614	0.12646	0.13238	0.061106	0.13883	-1.8604	-2.3167	-2.7208	-2.1688	-2.4896	-2.3271	-2.2542	-2.9688	-2.0625	-2.4167	-2.6958	-2.0729	-2.7271	-2.5896	-1.8792	-3.1479	-11.644	249.598	260.751	257.559	-62.489	10.026	262.014	173.337	160.487	237.670	251.545	261.481	171.080	235.017	61.526	208.066	0.00061792	0.0048489	0.0006915	1024.2	4.0103e-05	4.1975e-05	1071.4	379.86	4.1465e-05	3.7102e-05	455.35	155.38	125	53.21	6.3487e-05	63.156	0.10387	0.20153	0.056441	1522.2	0.001915	0.0022437	1668	563.98	0.0018965	0.0022194	1633.3	254.95	233.76	84.287	0.0020309	105.8	49.751	261.851	114.754	-77.265	57.909	185.462	-77.255	-71.443	195.340	152.400	-74.069	-68.829	-66.165	-61.704	-3.440	-65.626	-8191	255	
1230.466	1	1	0	0	0.13289	0.18379	0.11196	0.060625	0.13952	0.060479	0.19431	0.21671	0.16464	0.075917	0.11057	0.14046	0.056037	0.16105	0.1504	0.30382	-1.9958	-2.3854	-2.8438	-2.0375	-2.7583	-2.5271	-2.0854	-2.9	-2.1396	-2.3187	-2.9167	-2.2521	-2.6375	-2.7375	-2.025	-2.9646	113.022	2.292	-23.437	-78.675	-9.922	125.633	180.225	216.432	78.706	193.448	43.893	39.358	37.527	221.640	9.215	208.272	0.00048685	0.0067169	0.00040565	1018	2.4165e-05	9.1926e-05	1050.3	378.99	2.0322e-05	4.0327e-05	451.44	153.9	124.88	53.085	8.209e-05	63.28	0.10467	0.20247	0.05625	1522.1	0.0019418	0.0022874	1666.4	567.33	0.0019682	0.0022856	1664.6	258	239.43	85.368	0.0020921	107.43	-88.094	260.321	237.746	-77.116	133.356	-49.738	-77.500	-71.449	141.913	111.922	-73.119	-69.275	-65.350	-61.579	45.979	-65.006	-8191	255	
1230.585	1	1	0	0	0.24316	0.072088	0.2672	0.14396	0.064659	0.26806	0.15907	0.59834	0.039369	0.21503	0.10987	0.41492	0.056077	0.38701	0.1753	0.021069	-1.9	-2.2958	-2.8125	-2.1792	-2.5667	-2.7271	-2.3042	-2.8563	-2.35	-2.2438	-2.775	-2.075	-2.6958	-2.8771	-2.1188	-2.8417	56.662	-48.608	213.602	222.675	257.928	265.343	-65.972	210.971	-35.462	-44.913	71.518	107.625	-24.587	259.661	265.613	202.845	0.00049956	0.0010027	0.00070376	1025.4	1.6557e-05	4.7167e-05	1056.9	380.08	1.5657e-05	4.3629e-05	451.74	152.77	124.57	52.281	6.3584e-05	62.707	0.10861	0.20739	0.057211	1541.2	0.0019955	0.0023203	1674.5	573.13	0.0020063	0.0023203	1675.6	259.74	242.04	85.72	0.0021233	109.2	41.319	190.765	173.558	-77.355	-58.938	-85.429	-77.389	-71.857	127.140	120.365	-71.973	-69.371	-66.486	-62.643	236.010	-65.748	-8191	255	
1230.681	1	1	0	0	0.14749	0.03649	0.19899	0.16466	0.3178	0.22331	0.20063	0.18082	0.13835	0.16623	0.16649	0.39215	0.41281	0.13729	0.086332	0.055114	-1.9312	-2.1771	-2.675	-2.0667	-2.3229	-2.7292	-1.9771	-2.9417	-2.5167	-2.0979	-2.6792	-2.1375	-2.2687	-2.7458	-1.9979	-2.9479	86.577	27.534	66.709	168.304	31.521	202.233	226.785	232.977	-72.119	64.600	7.590	217.378	245.768	218.729	-17.346	11.060	0.00011264	0.0020702	0.0015545	1030.8	4.0729e-05	0.00010094	1063.3	380.66	2.8573e-05	4.3178e-05	433.21	154.75	124.3	52.71	2.4543e-05	63.264	0.11236	0.21312	0.058952	1576.4	0.0020841	0.0024233	1708.9	587.96	0.0021061	0.0024067	1733.2	268.05	247.96	87.151	0.0021918	111.15	-89.472	218.217	0.646	-77.903	144.868	-8.164	-77.853	-71.515	106.038	130.817	-73.560	-69.597	-67.135	-61.921	-28.462	-65.505	-8191	255	
1230.777	1	1	0	0	0.043733	0.037877	0.2579	0.14336	0.069267	0.21275	0.28134	0.35579	0.14527	0.24045	0.31459	0.20239	0.19049	0.25263	0.15486	0.30057	-2.2583	-2.1021	-2.7521	-2.3771	-2.2313	-2.8771	-2.1375	-2.7854	-2.7938	-1.9771	-2.6146	-2.3229	-2.3375	-2.9062	-2.2042	-2.7875	170.914	230.414	-7.462	247.507	-69.480	65.640	120.643	181.627	63.985	230.503	188.457	164.030	-62.180	224.153	198.159	-88.382	0.00053028	0.0050584	0.0029162	1027.1	6.41e-05	4.6316e-05	1049.9	378.99	3.8151e-05	4.6587e-05	439.44	151.68	123.5	52.042	2.8827e-05	62.063	0.11435	0.21368	0.058994	1578.6	0.0020743	0.0023787	1701.8	586.41	0.0021084	0.0024126	1748.5	269.07	250.23	88.115	0.0022833	113.17	224.225	14.992	76.645	-77.794	88.554	87.048	-77.805	-72.037	64.965	110.268	-74.002	-70.034	-66.625	-62.476	118.319	-66.018	-8191	255	
1230.873	1	1	0	0	0.21915	0.28176	0.21345	0.097932	0.19731	0.062607	0.33426	0.26134	0.023354	0.11051	0.07017	0.073814	0.079983	0.14539	0.0589	0.19885	-2.3812	-1.875	-2.7979	-2.3187	-2.2583	-3.0292	-2.1125	-2.5729	-2.6292	-2.025	-2.9188	-2.5667	-2.2667	-3.1167	-2.125	-2.4979	93.251	255.092	-54.619	157.677	192.259	117.975	148.114	209.311	44.693	116.836	209.996	237.407	100.189	221.043	112.210	180.697	0.00060758	0.0029685	0.0023419	1014.8	5.9173e-05	4.2411e-05	1045.2	379.99	1.256e-05	3.8167e-05	448.31	151.79	125.3	53.49	5.472e-05	64.09	0.12005	0.22482	0.063513	1625.3	0.0022206	0.0025502	1753.4	603.98	0.0022066	0.0024822	1793.6	272.07	251.46	88.232	0.0022817	113	30.055	-6.731	237.410	-77.466	68.063	128.530	-77.543	-71.896	169.286	105.454	-74.522	-69.834	-67.016	-61.987	206.013	-65.964	-8191	255	
1230.969	1	1	0	0	0.1197	0.098978	0.21253	0.018387	0.20539	0.098662	0.044703	0.23455	0.076637	0.15594	0.11163	0.10301	0.020184	0.13573	0.14163	0.14421	-2.5583	-2.0979	-2.6917	-2.6271	-1.9021	-2.6937	-2.1229	-2.4771	-2.6312	-1.9542	-2.6521	-2.6667	-2.1875	-2.8458	-2.1729	-2.6458	-4.238	13.058	160.384	-21.425	86.685	16.699	153.830	174.186	78.504	-12.223	53.888	82.213	246.852	220.140	200.833	189.807	0.00081158	0.0057344	0.0014179	1001.5	2.8014e-05	4.4664e-05	1047.1	383.07	4.5565e-05	5.5669e-05	442.94	155.63	126.97	53.703	6.5311e-05	64.892	0.11724	0.21901	0.062128	1591.4	0.0021228	0.0024333	1719.9	591.47	0.0020757	0.0023813	1751.8	268.89	245.68	87.581	0.0022011	111.85	-83.314	42.104	208.281	-77.485	182.255	113.053	-77.648	-71.506	-70.143	133.383	-74.021	-69.208	-66.982	-62.585	-41.072	-65.597	-8191	255	
1231.066	1	1	0	0	0.057752	0.096036	0.10647	0.2738	0.095895	0.21458	0.11421	0.34985	0.17408	0.24027	0.21941	0.066593	0.16385	0.19458	0.072319	0.13018	-2.3354	-1.9542	-2.6583	-2.6625	-2.0187	-2.7271	-2.4938	-2.2979	-2.9562	-2.0979	-2.4208	-2.7917	-2.0771	-2.7729	-2.2375	-2.1917	-65.902	-61.785	266.483	-87.720	71.617	-19.168	160.389	198.585	26.601	28.949	125.048	128.683	270.058	195.134	242.938	168.938	0.00025506	0.005638	0.0014057	1012.9	5.5574e-05	2.2113e-05	1052.4	387.26	1.9975e-05	2.5683e-05	460.14	157.38	126.47	54.161	1.1163e-05	64.263	0.11221	0.21264	0.060373	1569.6	0.0020519	0.0023817	1716.7	589.31	0.0020415	0.0023532	1738.8	267.83	243.35	87.329	0.0021808	110.6	35.451	8.799	46.730	-76.889	23.061	253.466	-77.356	-71.767	34.558	158.473	-73.026	-69.115	-66.077	-61.871	7.944	-65.618	-8191	255	
1231.162	1	1	0	0	0.10783	0.069115	0.21283	0.23451	0.17514	0.17487	0.089189	0.19611	0.11082	0.070392	0.24509	0.14403	0.10286	0.4226	0.11613	0.28863	-2.3667	-2.0083	-2.6521	-2.5938	-2.1479	-2.6458	-2.6813	-2.2792	-2.9104	-2.1479	-2.3667	-2.8083	-2.1354	-2.8083	-2.4417	-2.275	219.448	75.846	41.420	-38.035	153.768	237.019	145.444	270.108	205.870	108.666	260.957	261.714	-73.326	248.849	198.247	247.542	0.00023845	0.0064055	0.00079651	1002.9	3.6154e-05	4.815e-05	1038.4	379.07	3.2033e-05	1.6087e-05	454.2	154.85	126.56	53.77	4.4701e-05	63.051	0.11047	0.21158	0.060004	1558.1	0.0020492	0.0024247	1707.9	586.54	0.0020696	0.0024247	1758.9	268.66	246.68	88.388	0.0022288	110.57	170.586	42.898	212.423	-77.336	-42.975	48.579	-77.604	-71.425	184.490	18.690	-73.677	-70.035	-66.444	-62.009	256.128	-65.761	-8191	255	
1231.258	1	1	0	0	0.16605	0.20076	0.20909	0.1855	0.085795	0.15357	0.10237	0.037876	0.1173	0.085958	0.16144	0.16314	0.22587	0.22001	0.13221	0.19545	-2.35	-2.1437	-2.4437	-3.0687	-1.8292	-2.5646	-2.6875	-2.2542	-2.8958	-2.2021	-2.325	-2.8333	-2.075	-2.725	-2.6604	-2.1125	23.250	155.870	47.564	-77.846	188.093	184.698	-55.572	107.282	-24.370	261.468	216.588	-82.862	198.615	223.153	149.538	236.605	0.00050233	0.0037677	0.00093604	998.09	6.6428e-05	3.0188e-05	1051.5	377.34	1.8053e-05	5.0957e-05	452.6	156.19	126.24	54.114	3.2087e-05	63.086	0.11279	0.21587	0.060287	1544.4	0.0020242	0.0023726	1687.4	575.45	0.0020069	0.0023409	1706.1	263.28	242.39	87.41	0.0021645	109.17	193.649	220.229	-28.389	-77.525	-67.918	-65.660	-77.377	-71.669	236.436	62.488	-74.202	-68.896	-66.804	-62.543	262.440	-65.620	-8191	255	
1231.354	1	1	0	0	0.17305	0.1842	0.083849	0.31981	0.28341	0.25948	0.11272	0.027555	0.20374	0.1422	0.12559	0.18468	0.40295	0.081005	0.069902	0.22951	-2.3729	-2.15	-2.1583	-2.6875	-1.8979	-2.5521	-2.8271	-2.1063	-2.7333	-2.2625	-2.375	-2.8833	-2.2208	-2.6854	-2.7375	-2.1813	36.770	188.798	-62.949	200.044	88.446	193.928	195.312	238.060	-52.555	-87.119	-20.623	-58.685	209.191	229.716	113.641	135.591	0.00069552	0.0019772	0.00064125	994.51	2.1206e-05	5.5411e-05	1041.5	377.58	6.2916e-05	1.9006e-06	455.75	156.36	126.82	53.823	3.7631e-05	64.494	0.11121	0.21318	0.059551	1540.6	0.0020449	0.0024134	1691.8	579.46	0.002051	0.0023703	1715.7	264.18	243.27	87.356	0.0021316	109.26	269.266	130.241	56.668	-77.243	132.036	-18.322	-77.750	-71.517	240.622	197.593	-74.170	-68.852	-65.808	-62.116	116.940	-65.307	-8191	255	
1231.473	1	1	0	0	0.10858	0.24716	0.1414	0.14081	0.23412	0.12524	0.2099	0.34587	0.1231	0.11782	0.059769	0.10145	0.27365	0.25366	0.19682	0.19104	-2.3208	-2.3396	-2.0917	-2.8896	-2.0667	-2.5292	-2.9688	-2.1104	-2.6917	-2.5042	-2.1583	-3.0604	-2.3354	-2.5	-2.7479	-2.0375	-12.056	158.764	175.296	245.442	249.139	-28.122	186.990	144.552	179.347	131.524	146.605	-72.212	-82.730	267.039	196.455	-72.398	0.00021435	0.006449	0.0025987	1003.4	4.6267e-05	4.0353e-05	1054	380	6.3318e-05	2.6365e-05	456.59	156.15	127.4	54.322	7.4193e-06	64.403	0.1108	0.2103	0.058127	1533.7	0.0020033	0.0023285	1664.1	571.54	0.0019623	0.0022457	1623.8	257.14	236.08	84.468	0.0019562	105.4	85.863	8.587	-29.534	-77.474	127.104	269.203	-77.488	-70.901	248.616	8.134	-74.131	-69.272	-66.544	-62.194	51.735	-65.334	-8191	255	
1231.569	1	1	0	0	0.070529	0.2229	0.070114	0.20373	0.242	0.23413	0.020834	0.295	0.19639	0.25241	0.066887	0.21536	0.081421	0.16571	0.10838	0.18279	-2.2042	-2.4667	-1.8375	-2.8771	-2.1521	-2.1312	-2.8979	-2.2396	-2.4333	-2.6021	-2.1	-2.9021	-2.275	-2.2521	-2.7938	-2.2479	-83.907	16.291	23.893	206.497	135.374	-11.223	-47.039	251.664	37.726	241.910	222.187	-7.800	189.341	156.627	255.714	141.039	0.00036988	0.0064392	0.0020602	992.57	1.9201e-05	3.015e-05	1033.4	382.16	4.6992e-05	6.3964e-05	451.21	154.82	127.61	53.858	2.8866e-05	64.021	0.10224	0.19187	0.052721	1473.2	0.0018479	0.0021313	1590.5	555.37	0.0018458	0.002097	1553.7	251.55	230.59	82.869	0.0018844	103.65	167.053	-62.857	182.898	-76.785	-87.846	214.525	-77.405	-71.145	-0.165	-2.061	-73.930	-69.425	-66.745	-61.953	13.600	-65.191	-8191	255	
1231.665	1	1	0	0	0.022276	0.17466	0.028408	0.18775	0.11696	0.058426	0.10199	0.29401	0.11572	0.12614	0.13954	0.37337	0.21517	0.12592	0.13257	0.1096	-2.2979	-2.5687	-2.1646	-2.7896	-2.4313	-2.1437	-2.8833	-2.2208	-2.5104	-2.525	-2.0833	-2.9667	-2.2687	-2.4083	-2.9542	-2.1917	68.758	35.782	66.831	83.520	130.432	-3.723	253.050	207.698	-10.506	150.419	194.594	204.929	85.150	-75.254	207.811	222.897	0.0004007	0.0040816	0.0010653	979.05	2.8189e-05	2.425e-05	1027.5	378.1	3.687e-05	5.513e-05	452.34	158.07	127.18	55.075	5.2118e-05	65.618	0.098544	0.1842	0.050792	1445.2	0.001783	0.0020414	1564.8	546.94	0.0017808	0.0020063	1519	250.52	226.37	82.014	0.0018174	102.64	256.387	-56.999	164.000	-77.397	58.030	-37.824	-77.501	-71.993	48.554	57.576	-73.911	-69.219	-66.902	-62.233	33.857	-65.794	-8191	255	
1231.761	1	1	0	0	0.16213	0.025074	0.15714	0.16628	0.14843	0.32308	0.18407	0.15131	0.2889	0.059188	0.016295	0.23398	0.20751	0.085235	0.19614	0.038688	-1.9583	-2.7875	-1.9354	-2.7896	-2.4792	-2.0438	-2.7979	-2.1458	-2.3729	-2.7438	-2.0125	-2.7792	-2.575	-1.9458	-2.8604	-2.0812	188.256	224.523	263.895	182.691	-6.818	54.372	-63.256	253.371	218.803	64.669	80.379	247.847	175.006	211.646	57.575	-80.934	0.00027567	0.0040429	0.0010134	972.17	3.3986e-05	3.9535e-05	1026.7	377.24	1.151e-05	3.5406e-05	453.87	161.19	130.66	55.547	1.666e-05	66.043	0.094181	0.17529	0.048941	1411.1	0.0017029	0.0019406	1538.9	538.68	0.0016942	0.0019145	1488.7	249.66	224.04	81.511	0.0017876	103.1	-14.750	122.599	120.166	-77.031	141.058	-22.136	-77.814	-71.125	-75.449	-51.616	-73.331	-68.955	-66.510	-62.417	235.708	-65.876	-8191	255	
1231.858	1	1	0	0	0.43447	0.1736	0.067302	0.092203	0.10259	0.21741	0.14207	0.18199	0.14243	0.10176	0.042414	0.078155	0.19087	0.071658	0.028184	0.082736	-1.7583	-2.7729	-1.8917	-2.6271	-2.5125	-2.2083	-2.85	-2.5042	-2.1104	-2.7062	-2.1083	-2.6729	-2.6188	-2.0417	-2.7521	-2.2167	134.070	208.142	179.407	263.330	155.230	-32.679	-79.972	212.462	166.204	246.433	178.705	230.511	205.543	211.790	261.059	120.444	0.00088287	0.0056622	0.0020301	976.15	9.8954e-06	3.0107e-05	1030.3	380.28	3.0927e-05	8.9601e-05	462.89	161.98	129.57	55.092	3.5831e-05	65.841	0.092497	0.17346	0.049377	1415	0.0017063	0.001954	1558.4	542.05	0.0017113	0.0019573	1521.3	252.14	226.01	82.272	0.001845	103.4	216.563	-72.019	266.029	-76.504	38.642	258.444	-77.317	-71.759	25.239	107.130	-71.909	-69.482	-66.797	-61.799	236.198	-65.423	-8191	255	
1231.954	1	1	0	0	0.064185	0.11735	0.063564	0.16506	0.11587	0.16776	0.18954	0.28867	0.23634	0.22456	0.048902	0.08502	0.12016	0.38089	0.1727	0.18417	-1.5458	-2.8667	-2.1083	-2.5958	-2.5625	-1.9771	-2.9354	-2.4542	-2.0187	-2.8583	-2.2583	-2.4875	-2.7771	-2.1146	-2.6875	-2.5687	226.785	237.786	-51.828	218.137	86.277	-68.877	266.877	-86.985	-30.805	-54.208	63.624	95.429	233.583	260.580	-44.358	243.863	0.00068472	0.001631	0.00229	973.77	4.8813e-05	2.6804e-05	1031.7	381.23	1.4344e-05	3.7973e-05	449	160.56	128.23	55.043	1.0066e-05	65.097	0.093938	0.17746	0.05059	1422.2	0.001704	0.0019721	1558.4	541.53	0.0016871	0.0019463	1504.2	248.76	223.03	81.596	0.001835	102.54	-56.681	-62.001	-54.761	-76.807	115.209	130.778	-77.834	-71.518	248.214	154.765	-71.912	-68.897	-66.328	-61.736	-29.327	-65.235	-8191	255	
1232.074	1	1	0	0	0.10219	0.082778	0.38947	0.12135	0.034539	0.14109	0.11492	0.15086	0.24159	0.077852	0.091317	0.23213	0.16025	0.19141	0.11334	0.18432	-1.6979	-2.8729	-2.2417	-2.3812	-2.825	-1.9417	-2.7521	-2.3479	-1.9854	-2.7771	-2.0833	-2.2313	-3.0312	-2.2375	-2.7417	-2.5563	269.554	84.998	110.220	257.808	160.035	254.579	212.594	181.069	99.520	16.677	-18.848	215.993	214.355	11.991	249.956	181.146	0.00052639	0.0019949	0.00099235	990.25	4.7165e-05	5.3631e-05	1051.5	381.77	2.2464e-05	2.5856e-05	448.15	159.42	129.2	54.798	3.8938e-05	64.553	0.093111	0.17971	0.050849	1446.7	0.0017307	0.002042	1598.5	550.61	0.0017538	0.0020771	1579.3	254.47	231.93	84.468	0.0019992	105.87	226.578	250.966	48.942	-76.516	-82.654	131.365	-77.646	-71.322	171.169	33.082	-73.816	-68.699	-66.489	-62.461	226.404	-65.566	-8191	255	
1232.171	1	1	0	0	0.16091	0.22661	0.20343	0.20383	0.054783	0.047581	0.13237	0.21513	0.21422	0.31389	0.27796	0.055264	0.2536	0.068038	0.091113	0.15233	-1.5083	-2.7438	-2.0021	-2.3646	-2.6979	-2.0292	-2.7604	-2.7792	-2.0167	-2.8521	-2.425	-2.2542	-2.9542	-2.2208	-2.5396	-2.9437	-16.017	-53.694	13.521	249.842	-28.857	228.657	186.294	225.907	89.476	138.176	29.128	228.650	246.375	-29.533	37.295	191.346	0.00031773	0.0037463	0.00040476	1017.9	9.4988e-06	4.3401e-05	1063.5	385.95	2.4478e-05	1.1846e-05	454.28	158.9	129.33	54.776	3.2235e-05	65.354	0.10202	0.19821	0.05532	1509.3	0.0018891	0.0022303	1660.1	569.27	0.0019011	0.0022358	1649.6	259.1	238.02	85.842	0.0020445	106.76	25.194	-56.037	217.863	-76.730	99.904	54.390	-77.473	-71.280	94.901	253.077	-73.025	-69.096	-66.536	-62.449	78.022	-66.047	-8191	255	
1232.267	1	1	0	0	0.28662	0.18063	0.19245	0.19387	0.15734	0.062567	0.094753	0.36627	0.23943	0.16043	0.21526	0.091222	0.32848	0.072851	0.12114	0.23661	-1.5292	-2.6333	-2.2667	-2.1479	-2.7271	-2.3271	-2.7021	-2.875	-1.5854	-2.6771	-2.475	-2.2854	-2.8208	-2.3542	-2.3396	-2.8	-10.487	23.110	189.620	-75.810	154.223	86.190	215.470	186.047	3.429	256.419	-78.213	-65.851	243.554	-16.323	63.456	237.004	0.00025706	0.0031047	0.00036134	1012.8	4.8321e-05	3.5159e-05	1060.1	387.65	1.6802e-05	5.5874e-05	462.12	156.4	127.76	55.189	2.758e-05	63.622	0.10418	0.20164	0.055959	1520.8	0.0019397	0.0022834	1668.4	573.62	0.0019617	0.0023139	1684.6	261.92	243.51	87.153	0.0021166	108.25	-26.763	-2.111	259.016	-76.916	117.503	30.193	-77.320	-71.313	121.653	84.280	-74.127	-69.093	-66.165	-62.978	144.135	-65.455	-8191	255	
1232.363	1	1	0	0	0.23022	0.083325	0.19895	0.014508	0.15584	0.32801	0.19814	0.21078	0.082451	0.22321	0.1883	0.23831	0.15417	0.17653	0.23247	0.013873	-1.6938	-2.5312	-2.4292	-2.3667	-2.7979	-2.05	-2.3812	-2.7646	-2.1208	-2.75	-2.55	-2.05	-2.7	-2.3583	-2.2812	-2.8854	-70.705	135.263	157.145	118.525	-49.144	92.530	216.195	204.969	120.974	21.726	184.599	-81.029	227.853	237.743	-11.899	239.977	0.00045767	0.010405	0.0012464	1009.2	3.8809e-05	2.4363e-05	1049.7	386.14	5.7151e-05	8.2832e-05	455.5	155.16	127.27	54.642	5.2748e-05	63.456	0.10966	0.20837	0.057191	1531	0.0019946	0.0022978	1660.7	573.21	0.001962	0.0022518	1639	257.33	239.63	85.57	0.002025	106.39	228.559	-6.595	17.379	-77.817	90.747	-80.203	-77.640	-72.000	251.025	134.049	-74.342	-69.859	-66.573	-62.935	216.420	-65.596	-8191	255	
1232.457	1	1	0	0	0.25431	0.20172	0.099133	0.14614	0.17872	0.12417	0.29138	0.049018	0.12403	0.21654	0.071952	0.23809	0.21993	0.090466	0.23945	0.20257	-1.6542	-2.4604	-2.5833	-2.1083	-2.7792	-2.3396	-2.3875	-2.6917	-1.975	-2.4354	-2.7229	-2.0521	-2.9104	-2.4583	-2.0479	-2.9375	36.742	154.884	218.009	215.536	-38.054	73.887	212.603	-46.667	-79.107	264.882	219.806	261.122	-29.600	181.066	117.709	231.428	0.00011717	0.0025837	0.0015629	1016.3	3.8886e-05	7.3266e-05	1061.2	383.28	2.6607e-05	4.5484e-05	459.98	155.16	128.05	54.82	3.6343e-05	64.456	0.10639	0.20125	0.055426	1520.3	0.0019498	0.0022557	1650	574.39	0.0019657	0.0022483	1641.3	259.74	241.69	85.812	0.0020304	107.5	222.988	-84.104	-43.951	-77.362	111.691	4.555	-77.923	-71.645	54.421	34.778	-74.542	-69.337	-66.645	-62.166	46.875	-65.561	-8191	255	
1232.553	1	1	0	0	0.14753	0.18684	0.31128	0.21182	0.18653	0.069501	0.25612	0.23335	0.2013	0.28504	0.16198	0.54709	0.091242	0.22748	0.11819	0.28244	-1.3937	-2.1979	-2.5875	-2.1771	-2.7687	-2.3312	-2.2083	-2.9208	-2.1813	-2.3646	-2.6937	-1.9458	-2.7083	-2.3667	-1.825	-2.8854	236.940	246.293	204.947	-53.972	-80.092	-45.197	226.144	151.069	83.711	23.451	61.755	-60.805	7.726	139.969	266.053	103.522	0.00051225	0.0036163	0.0019718	1004.1	2.736e-05	3.2969e-05	1056.6	387.15	6.2788e-05	9.7088e-05	452.43	156.31	128.04	54.938	4.3778e-05	64.563	0.10614	0.1988	0.054847	1516.5	0.0019167	0.002199	1633.4	568.66	0.0018845	0.0021311	1590.1	256.07	234.25	83.699	0.001933	105.7	217.654	233.188	-12.634	-76.969	-65.243	184.741	-77.904	-71.230	94.402	-28.800	-74.607	-68.546	-66.331	-62.054	112.865	-66.069	-8191	255	
1232.650	1	1	0	0	0.026978	0.11133	0.15577	0.34192	0.15054	0.13336	0.37749	0.15212	0.23439	0.24575	0.16574	0.033156	0.40028	0.15071	0.11881	0.1735	-1.875	-2.275	-2.8625	-2.0167	-2.4437	-2.4771	-2.25	-2.7417	-2.1667	-2.35	-2.9875	-1.9917	-2.6646	-2.6625	-2.0458	-2.9479	-8.680	3.625	-77.741	266.165	-73.423	-54.415	195.957	97.882	136.167	256.833	156.117	-1.249	204.996	243.853	153.161	-69.458	0.00047429	0.00068878	0.0017252	1005.4	1.934e-05	3.8944e-05	1053.1	386.04	4.1881e-05	4.1041e-05	463.51	155.37	127.86	55.174	1.6222e-05	63.89	0.10082	0.18864	0.052977	1498.3	0.0018685	0.0021406	1628.9	569.93	0.0019055	0.0021592	1631.8	258.92	238.61	85.25	0.0020506	107.8	182.509	-42.549	121.573	-77.411	266.981	121.608	-77.634	-71.780	261.660	122.124	-74.566	-69.401	-66.988	-62.383	243.837	-65.427	-8191	255	
1232.770	1	1	0	0	0.29226	0.15011	0.17843	0.20966	0.07376	0.089601	0.27662	0.17687	0.31011	0.074525	0.20944	0.19216	0.26908	0.13518	0.10875	0.21523	-1.8646	-2.1833	-2.7771	-2.1562	-2.4292	-2.6437	-1.9562	-2.9583	-2.3229	-2.1167	-2.7417	-2.0583	-2.6375	-2.7917	-1.9813	-2.8854	29.283	-21.926	-5.840	222.888	153.666	16.461	103.230	232.986	59.874	165.762	3.173	-43.449	74.396	32.018	265.827	-71.677	0.00043247	0.00083341	0.0027966	1011.1	2.3195e-05	2.3336e-05	1052.8	385.46	2.7384e-05	5.1689e-05	446.61	155.3	128.46	54.55	2.4462e-05	63.702	0.10579	0.19849	0.05612	1524.1	0.0019247	0.0021826	1639.3	572.16	0.0018694	0.0021344	1616.1	255.33	234.08	83.806	0.0019855	105.63	-69.619	63.354	4.474	-76.790	96.630	76.508	-77.034	-71.185	59.585	84.439	-72.841	-69.682	-66.691	-62.513	256.666	-65.777	-8191	255	
1232.866	1	1	0	0	0.16067	0.30879	0.082335	0.1411	0.17981	0.0092981	0.030134	0.19872	0.27896	0.071499	0.21678	0.23859	0.18982	0.084095	0.022696	0.056548	-1.9208	-2.0812	-2.6396	-2.1854	-2.4271	-2.975	-2.1417	-2.6979	-2.1688	-1.9229	-2.9604	-2.2021	-2.4354	-2.8812	-1.9667	-2.9	189.584	132.424	23.780	248.892	-75.422	66.336	-31.426	217.336	-83.745	185.687	248.316	213.251	47.448	204.673	105.415	212.053	0.0001617	0.0029413	0.0020658	1017	5.7332e-05	6.1553e-06	1060.9	387.23	3.5087e-05	3.4311e-05	460.85	155.08	129.52	54.17	7.9762e-05	64.482	0.10093	0.19188	0.054502	1507.8	0.0018577	0.0021733	1649.9	572.29	0.0018849	0.0021846	1650	258.56	237.56	85.472	0.0020696	107.94	-55.351	119.460	-8.011	-77.064	102.689	246.641	-77.868	-71.627	218.108	169.742	-73.876	-69.499	-66.173	-62.579	35.371	-65.924	-8191	255	
1232.938	1	1	0	0	0.219	0.13588	0.21383	0.2728	0.088829	0.33148	0.26678	0.1417	0.12601	0.24561	0.19839	0.17718	0.15269	0.16621	0.15452	0.21247	-2.0292	-2.0542	-2.8646	-2.3854	-2.1333	-2.7604	-2.0083	-2.6458	-2.475	-2.0083	-3.0083	-2.2812	-2.2542	-2.875	-1.8729	-2.525	183.575	107.985	168.434	257.151	179.734	260.962	233.442	261.768	175.200	-42.952	27.249	189.774	187.293	-71.561	35.262	220.730	0.00074431	0.0015487	0.0014286	1022.7	5.9838e-05	3.2013e-05	1056.6	385.66	1.4056e-05	4.7816e-05	456.32	155.54	127.89	54.471	3.7815e-05	64.143	0.10476	0.20082	0.056856	1527.3	0.0019142	0.0022424	1667.5	575.51	0.0019067	0.0022436	1670	260.43	239.53	86.757	0.0021201	108.45	-42.167	130.085	104.410	-77.702	265.308	-57.412	-78.076	-71.030	-58.411	209.129	-73.761	-69.487	-66.941	-62.193	-5.319	-65.902	-8191	255	
1233.034	1	1	0	0	0.14592	0.15167	0.16502	0.10982	0.078789	0.17936	0.28899	0.18604	0.16372	0.10389	0.044508	0.30531	0.077477	0.14605	0.14518	0.16642	-2.0646	-1.9708	-2.5708	-2.3417	-2.2438	-2.775	-1.9854	-2.2687	-2.7396	-1.925	-2.8187	-2.4938	-1.9708	-2.9271	-1.8438	-2.4562	258.745	23.334	160.518	-81.175	69.530	42.068	128.804	221.430	75.193	-67.049	2.288	-85.920	64.949	201.292	154.414	206.067	0.00040562	0.0018277	0.0010721	1023.9	5.1088e-05	9.6355e-05	1056.1	390.46	1.6888e-05	8.0195e-05	451.44	151.81	127.73	54.561	3.2923e-05	62.514	0.1083	0.20923	0.058886	1546.5	0.0019883	0.0023592	1693.6	584.45	0.0020098	0.0023522	1725.5	261.14	244.85	88.244	0.0021771	108.49	175.404	79.125	217.450	-77.520	189.531	161.088	-77.530	-71.504	130.748	76.379	-73.263	-69.227	-66.620	-61.704	10.147	-65.323	-8191	255	
1233.155	1	1	0	0	0.24278	0.038566	0.11399	0.13136	0.10454	0.206	0.086051	0.25426	0.064445	0.13936	0.080687	0.33298	0.096397	0.050783	0.16531	0.024945	-2.3021	-1.9729	-2.8083	-2.4833	-2.0583	-2.9188	-2.25	-2.3229	-2.7667	-2.0687	-2.725	-2.5146	-2.1083	-2.85	-1.9458	-2.1937	225.382	181.700	150.703	223.707	137.669	60.456	36.687	198.439	262.086	47.202	12.464	236.499	73.644	42.898	30.505	237.854	0.00047594	0.0020245	0.0027642	1019.4	4.0916e-05	4.4206e-05	1058.8	388.57	1.756e-05	3.1963e-05	459.02	153.19	127.4	53.844	8.7126e-05	62.174	0.11081	0.21213	0.058974	1548.7	0.002014	0.0023786	1690	583.25	0.0020141	0.0023467	1705.3	259.92	243.17	87.16	0.0021144	107.36	214.353	253.947	-15.964	-77.265	76.444	100.709	-77.341	-71.110	-34.701	217.788	-74.094	-69.001	-66.217	-62.497	130.573	-65.960	-8191	255	
1233.251	1	1	0	0	0.1838	0.15381	0.19242	0.15084	0.21876	0.18227	0.29017	0.21937	0.23439	0.2335	0.15904	0.1702	0.1319	0.18676	0.20999	0.24928	-2.4437	-1.9583	-2.5792	-2.6292	-1.9042	-2.7938	-2.2229	-2.3	-2.9375	-2.1396	-2.4146	-2.6854	-2.1562	-2.675	-2.2542	-2.2271	133.894	244.605	-12.537	241.331	-78.859	102.239	168.568	197.268	205.223	68.624	-44.637	125.764	-59.907	242.546	152.734	195.396	0.0010029	0.0054403	0.0031354	1027.7	3.1124e-05	4.144e-05	1056.1	389.54	2.4244e-05	9.2232e-06	456.84	152.63	127.37	54.839	2.8254e-05	63.284	0.10928	0.20792	0.057228	1541.4	0.0019799	0.0023196	1670	578.73	0.0019946	0.0022904	1671.3	259.35	243.1	86.941	0.0020835	108.08	-74.080	-11.553	2.045	-77.156	199.310	158.234	-78.051	-71.094	10.623	34.117	-73.018	-69.094	-65.877	-62.073	223.140	-65.434	-8191	255	
1233.347	1	1	0	0	0.18501	0.29864	0.039484	0.15949	0.1175	0.030673	0.058581	0.10882	0.12311	0.020357	0.069143	0.1691	0.088969	0.19313	0.17786	0.26885	-2.5208	-1.8292	-2.4458	-2.7646	-1.8833	-2.6833	-2.4583	-2.0625	-2.6833	-2.0229	-2.3354	-2.9104	-1.9375	-2.7167	-2.15	-2.3146	157.685	114.327	127.492	142.221	110.371	46.700	74.016	-55.747	52.313	-26.058	127.932	27.165	260.273	230.986	102.319	117.208	0.00038905	0.0061449	0.0010681	1025.3	9.2307e-05	3.8192e-05	1054.9	388.65	4.5142e-06	7.2023e-05	443.43	151.96	127.27	54.866	4.1298e-05	62.462	0.11011	0.20753	0.057563	1549.4	0.0020325	0.0023553	1674.3	586.95	0.0020525	0.0023433	1704.2	262.66	246.64	87.945	0.0021531	109.56	208.650	50.529	169.264	-77.156	-78.409	130.812	-77.153	-71.529	11.327	-80.152	-74.788	-68.598	-66.589	-62.219	99.333	-65.750	-8191	255	
1233.466	1	1	0	0	0.056898	0.074475	0.16005	0.22088	0.14641	0.059351	0.17338	0.086215	0.15524	0.24649	0.31586	0.30691	0.01534	0.14738	0.20187	0.12668	-2.5083	-2.1167	-2.2375	-2.7938	-1.9646	-2.6083	-2.65	-2.2938	-2.6896	-2.3063	-2.3354	-2.7667	-2.1208	-2.6271	-2.7333	-2.1771	250.557	171.158	-4.568	198.551	258.430	184.010	213.590	201.197	-37.703	20.722	-47.509	267.382	163.174	238.342	121.621	-59.347	0.0006965	0.0026067	0.0016542	1002.1	9.4012e-05	2.5886e-05	1039.2	387.2	2.249e-05	6.2985e-05	447.92	153.56	129.15	54.085	6.4025e-05	62.967	0.11431	0.21409	0.059271	1563.5	0.0020876	0.0023894	1677	589.02	0.002069	0.0023238	1692.8	261.94	244.35	86.168	0.0020814	107.54	206.305	66.420	-27.743	-76.928	216.593	103.588	-77.348	-71.450	-4.561	-16.168	-73.645	-69.159	-67.494	-61.947	149.423	-65.269	-8191	255	
1233.562	1	1	0	0	0.12212	0.28257	0.092477	0.21813	0.25334	0.2034	0.34605	0.27494	0.22839	0.31736	0.044003	0.46118	0.14961	0.30268	0.33273	0.25238	-2.5104	-2.3292	-2.1	-2.9437	-2.1625	-2.6229	-2.8563	-2.2604	-2.8521	-2.3417	-2.2292	-2.8438	-2.1167	-2.4979	-2.5521	-2.0271	96.217	81.958	214.575	241.810	256.091	121.878	205.168	177.659	111.116	-88.770	69.177	167.794	30.450	250.998	136.040	128.316	0.00034238	0.0032628	0.0022652	1001.3	1.4939e-05	3.6166e-05	1026.1	385.55	5.6094e-05	3.6706e-05	457.05	155.6	128.81	54.572	0.00011687	63.791	0.10896	0.20198	0.056492	1529.3	0.0019714	0.00225	1648.2	579.28	0.0019844	0.002243	1667.3	262.3	242.3	86.227	0.0020903	108.33	267.288	60.650	-63.534	-76.740	21.276	103.629	-77.322	-71.250	188.937	89.349	-72.221	-69.292	-66.584	-62.330	159.249	-65.833	-8191	255	
1233.635	1	1	0	0	0.017678	0.13538	0.087315	0.12456	0.059159	0.26379	0.30595	0.1035	0.21626	0.14654	0.17366	0.10056	0.25284	0.2386	0.1832	0.16833	-2.2438	-2.1813	-2.1562	-2.7708	-2.1292	-2.3625	-2.9208	-2.1875	-2.625	-2.3312	-1.9792	-2.8375	-2.1729	-2.1979	-2.8	-2.0812	210.339	-33.170	-37.463	-75.587	92.830	127.853	197.801	255.368	150.720	-56.962	225.378	143.795	179.266	212.781	146.035	-50.161	0.00041028	0.0012234	0.0011054	1015.7	1.7321e-05	2.2769e-05	1048.4	390.7	7.2371e-06	3.6598e-05	468.38	155.28	128.74	54.671	5.5805e-05	63.806	0.10792	0.20076	0.05672	1536.8	0.0019579	0.0022516	1666	583.34	0.0019754	0.0022445	1689.2	262.94	242.46	86.8	0.0021298	109.26	218.521	48.311	227.331	-76.880	135.644	158.842	-77.930	-71.783	-85.237	42.726	-72.233	-69.267	-66.511	-62.249	117.087	-66.227	-8191	255	
1233.754	1	1	0	0	0.040941	0.059974	0.10014	0.19115	0.18396	0.27462	0.17138	0.12532	0.075621	0.18949	0.18163	0.11528	0.11565	0.31007	0.27817	0.16315	-2.1604	-2.5021	-1.8771	-2.85	-2.0917	-2.2521	-2.8354	-2.3604	-2.4437	-2.6083	-1.9813	-2.8083	-2.1354	-2.2062	-2.9521	-2.1104	92.040	139.509	128.527	211.990	20.671	-62.466	256.931	241.492	-85.894	-71.249	135.732	239.290	1.262	239.111	-39.078	251.433	0.00062364	0.0074914	0.00069509	1012.8	2.6501e-05	4.374e-05	1049.5	385.26	1.8201e-05	5.0252e-05	444.95	153.94	127.08	54.225	1.8415e-05	63.703	0.10866	0.20399	0.057762	1537.2	0.0019502	0.0022498	1655.3	573.87	0.0019	0.0021828	1634.8	256.04	234.4	84.533	0.0020314	105.61	-0.368	-87.662	-13.545	-77.343	107.279	63.922	-78.068	-71.441	-24.768	136.046	-73.974	-69.228	-66.316	-61.874	139.770	-65.900	-8191	255	
1233.851	1	1	0	0	0.1377	0.22809	0.29022	0.28612	0.28446	0.16219	0.05254	0.28958	0.11556	0.074772	0.2588	0.010107	0.27562	0.060561	0.047716	0.32494	-2.1646	-2.5667	-1.7583	-2.9479	-2.1417	-2.1125	-2.9292	-2.0938	-2.4896	-2.6688	-2.0896	-2.9292	-2.6167	-2.2854	-2.7812	-2.1104	10.798	172.489	28.485	166.310	216.817	-37.399	168.770	221.317	-61.337	51.560	-28.328	-22.104	-72.457	212.160	-3.213	137.721	0.00074861	0.0039557	0.00074938	1007	3.9744e-05	4.9148e-05	1031.2	383.24	8.0479e-06	2.9182e-05	448.45	154.54	126.32	54.12	3.3957e-05	63.552	0.10272	0.19595	0.055467	1499.8	0.0018534	0.0021779	1617.6	561.7	0.0018215	0.0021211	1587.8	249.93	228.08	82.673	0.0019278	102.27	-52.638	131.306	208.593	-77.321	-52.147	235.197	-77.737	-71.728	131.175	-16.053	-72.721	-69.171	-66.819	-62.152	123.751	-65.443	-8191	255	
1233.947	1	1	0	0	0.20458	0.14616	0.18045	0.1082	0.31795	0.19834	0.19387	0.38126	0.077446	0.19964	0.28335	0.23223	0.032007	0.34092	0.14778	0.18829	-1.8896	-2.5958	-2.0521	-2.6688	-2.3688	-2.1604	-2.7958	-2.1958	-2.2333	-2.8229	-1.9708	-2.7229	-2.6417	-2.3	-2.7812	-2.325	-79.995	177.301	77.050	240.456	9.757	127.369	-49.822	240.510	169.468	-88.834	-61.948	-8.602	147.780	265.032	74.578	174.899	0.00060527	0.0015464	0.00032869	1010.8	1.1123e-05	5.4495e-05	1036.8	382.34	5.2069e-05	6.9608e-06	442.49	152.89	126.89	53.739	6.8143e-05	62.995	0.096887	0.18655	0.052214	1470.6	0.0017687	0.002099	1599.8	552.41	0.0017956	0.0021215	1578.4	249.3	230.43	83.695	0.0019822	103.79	264.537	118.692	-15.079	-77.055	117.425	-29.241	-77.215	-71.475	-46.781	-84.750	-73.298	-68.671	-66.485	-61.697	48.725	-65.228	-8191	255	
1234.067	1	1	0	0	0.090509	0.045215	0.19069	0.13511	0.11767	0.18074	0.1748	0.14508	0.15975	0.28466	0.21917	0.067208	0.14279	0.126	0.11424	0.32608	-1.7708	-2.7167	-2.1562	-2.825	-2.4833	-2.0292	-2.9062	-2.4562	-2.1021	-2.675	-2.0125	-2.7292	-2.8792	-2.0333	-2.9125	-2.4083	123.182	45.808	48.778	196.056	207.105	235.883	222.917	216.877	-10.837	44.582	-77.959	-85.457	171.887	113.995	125.449	237.105	0.00043696	0.0035727	0.003232	1036.7	3.8138e-05	5.3506e-05	1064.3	384.46	1.4125e-05	3.9359e-05	450.47	151.78	124.28	53.463	4.944e-05	61.925	0.10189	0.19621	0.054859	1517.2	0.0018774	0.0022002	1638.4	563.29	0.0018645	0.0021721	1598.6	249.42	232.67	83.655	0.0019734	102.94	196.586	113.867	-42.979	-76.738	14.789	194.990	-77.220	-71.379	248.198	75.686	-72.408	-68.782	-66.931	-61.669	50.902	-65.302	-8191	255	
1234.163	1	1	0	0	0.26403	0.054979	0.48241	0.046904	0.21914	0.22458	0.26578	0.36257	0.13166	0.17751	0.34907	0.1423	0.12737	0.19332	0.22206	0.19903	-1.7854	-2.8125	-2.0833	-2.5083	-2.5771	-1.9813	-2.8271	-2.4333	-2.1875	-2.9375	-2.1229	-2.5187	-2.7188	-2.0417	-2.675	-2.5729	155.854	-79.982	258.960	259.182	2.063	152.049	-86.164	185.449	92.749	70.850	169.052	12.682	219.718	-81.290	23.502	-88.819	0.00047331	0.0021356	0.0028719	1039.6	6.1038e-05	1.176e-05	1051.7	382.69	2.2336e-05	5.4818e-05	440.4	147.25	124.78	52.681	2.2456e-05	61.574	0.10194	0.19407	0.053332	1509.2	0.0018534	0.0021592	1615.5	558.54	0.001862	0.0021569	1581.2	248.14	233.58	83.537	0.0020019	103.48	230.781	158.229	11.048	-76.836	260.917	16.553	-77.185	-71.323	151.747	181.528	-74.040	-68.514	-66.189	-62.202	45.673	-65.104	-8191	255	
1234.235	1	1	0	0	0.2315	0.072015	0.31466	0.21996	0.26143	0.16853	0.077284	0.28935	0.3254	0.24298	0.43105	0.15134	0.29656	0.047364	0.14838	0.15222	-1.6667	-2.8958	-2.1667	-2.3229	-2.7	-1.9667	-2.8542	-2.4167	-2.0542	-2.8396	-2.2208	-2.3	-2.9562	-2.2667	-2.6	-2.8896	27.126	70.228	161.117	205.760	106.115	-82.576	151.969	221.246	86.021	-38.577	-31.950	240.645	-89.094	98.548	-13.482	223.329	0.00051368	0.0077572	0.0011847	1043.4	5.1212e-05	1.6296e-05	1058.7	389.05	1.5125e-05	2.5419e-05	448.95	147.15	126.45	53.136	5.3923e-05	62.075	0.10549	0.2001	0.054771	1547.7	0.0019385	0.0022394	1643.7	572.27	0.0019453	0.0022322	1616.1	252.27	238.32	84.239	0.0020169	104.89	26.830	215.938	60.272	-77.287	265.494	157.147	-77.747	-71.543	90.060	-65.199	-74.233	-68.702	-66.070	-61.402	250.314	-65.112	-8191	255	
1234.331	1	1	0	0	0.13512	0.10066	0.19147	0.22966	0.19837	0.18559	0.055211	0.2948	0.16481	0.094831	0.18131	0.16509	0.048045	0.070713	0.15807	0.28146	-1.6792	-2.7375	-2.3417	-2.3354	-2.8312	-1.9646	-2.7729	-2.6562	-2.0208	-2.5292	-2.4062	-2.1417	-2.8396	-2.1688	-2.4083	-2.7917	260.171	232.742	-37.451	242.331	-5.425	236.660	221.208	178.202	243.112	1.825	170.782	177.121	247.407	204.229	112.681	264.278	0.00019629	0.0019859	0.0014156	1043.6	3.976e-05	5.2401e-05	1066.2	387.04	2.7813e-05	2.4665e-05	452.11	149.56	124.45	53.116	2.1545e-05	62.552	0.1064	0.19915	0.054944	1548.6	0.0019342	0.0022064	1643.6	572.58	0.001909	0.0021598	1591.2	250.96	234.29	83.125	0.0019792	104.8	-15.653	127.014	-65.196	-76.615	159.688	96.614	-76.948	-71.084	-22.032	120.160	-73.894	-68.729	-65.376	-61.512	108.735	-64.225	-8191	255	
1234.450	1	1	0	0	0.11863	0.36205	0.066238	0.16002	0.10445	0.060305	0.10147	0.21031	0.11211	0.08145	0.19403	0.24449	0.13985	0.2604	0.11516	0.18445	-1.675	-2.6729	-2.3125	-2.1875	-2.9208	-1.9292	-2.5729	-2.6646	-1.9438	-2.6292	-2.3875	-2.2667	-2.8417	-2.2812	-2.0167	-2.8833	-10.051	121.332	221.527	238.930	249.365	109.415	222.351	257.703	84.138	111.488	161.247	161.900	197.318	-67.577	270.872	189.880	0.00017349	0.0055487	0.0012026	1050.5	1.5798e-05	5.9985e-05	1051	387.67	1.8387e-05	1.0268e-05	443.91	148.76	125.12	52.966	5.1227e-05	61.838	0.10496	0.19654	0.055041	1558.5	0.001961	0.0022482	1664.1	581.82	0.001988	0.0022459	1657.7	257.07	239.89	84.53	0.0020769	106.51	-48.756	-31.953	69.660	-76.794	69.504	219.034	-77.135	-70.876	268.796	186.792	-72.800	-68.566	-65.990	-61.729	77.430	-64.478	-8191	255	
1234.546	1	1	0	0	0.095354	0.11311	0.23113	0.11611	0.30235	0.092936	0.092003	0.27855	0.14823	0.15983	0.0937	0.33124	0.095822	0.094196	0.19814	0.054931	-1.4062	-2.3958	-2.4521	-2.0979	-2.6688	-2.2583	-2.3771	-2.9021	-1.8771	-2.5354	-2.5229	-2.0875	-2.6562	-2.1771	-2.2792	-2.8417	175.262	72.471	113.169	235.849	-8.305	-65.393	102.458	168.030	-54.354	-54.013	242.351	229.155	188.906	226.521	246.722	101.588	0.00036497	0.001276	0.00036475	1043.6	3.6787e-05	3.6559e-05	1045.9	384.15	2.9311e-05	2.2025e-05	441.39	150.61	126.95	53.117	1.4579e-05	61.976	0.10776	0.2	0.056309	1552.1	0.0019324	0.0021957	1640.2	572.86	0.0018931	0.0021465	1601.6	251.87	232.65	82.548	0.0019717	103.45	-86.194	11.512	188.014	-76.413	-47.709	-16.673	-76.577	-71.229	182.216	-43.613	-74.135	-68.455	-66.674	-61.356	-61.340	-65.275	-8191	255	
1234.642	1	1	0	0	0.12764	0.13895	0.054771	0.064226	0.15568	0.093571	0.24682	0.14074	0.047059	0.27787	0.21939	0.30807	0.18915	0.14222	0.062342	0.18057	-1.5646	-2.7313	-2.4292	-1.9917	-2.7979	-2.3646	-2.3063	-2.9042	-2.0271	-2.4833	-2.6771	-2.0187	-2.9375	-2.4333	-2.1396	-2.8604	-41.349	1.908	120.628	269.946	170.022	11.350	255.185	225.932	127.856	196.887	188.908	256.321	43.308	-86.514	260.223	-27.175	0.00057135	0.00042628	0.0019434	1034.4	1.2167e-05	4.8578e-05	1041.5	385.14	3.9478e-05	7.9951e-05	435.68	152.45	127.33	53.266	4.5142e-05	62.835	0.10023	0.18774	0.053338	1505.9	0.0018093	0.002088	1609.5	560.51	0.0018053	0.0020722	1574.9	248.62	228.69	81.996	0.0019493	103.16	-65.257	46.454	33.939	-76.439	28.474	218.226	-76.977	-70.639	177.207	127.193	-73.153	-68.808	-65.838	-61.897	-28.741	-65.175	-8191	255	
1234.739	1	1	0	0	0.11706	0.078483	0.2475	0.17469	0.28559	0.11665	0.39076	0.11262	0.15888	0.24893	0.048121	0.17738	0.1121	0.090615	0.22091	0.26358	-1.6042	-2.5438	-2.7667	-2.2562	-2.7125	-2.4083	-2.1958	-2.9479	-2.1083	-2.4146	-2.7667	-2.2771	-2.5958	-2.5375	-1.9875	-2.8187	151.590	244.597	218.652	251.808	230.891	48.717	206.320	196.023	-19.575	-60.927	136.214	-81.040	267.734	-73.450	178.043	255.814	0.00044706	0.0026938	0.0023299	1041.8	7.4641e-05	6.8159e-05	1055.5	387.29	1.5831e-05	3.4351e-05	443.06	148.28	122.84	51.998	1.7442e-05	61.272	0.098576	0.19013	0.054012	1523.9	0.0018467	0.0021744	1654.3	572.23	0.0018953	0.0022306	1658.1	252.81	235.08	83.947	0.0020947	104.79	-7.560	181.075	110.594	-76.874	114.857	54.865	-76.546	-70.946	-63.629	207.911	-73.291	-67.831	-65.557	-61.054	-46.475	-64.868	-8191	255	
1234.835	1	1	0	0	0.040192	0.12391	0.27478	0.23795	0.086625	0.18131	0.13423	0.34053	0.20485	0.25045	0.17427	0.084956	0.16464	0.17507	0.11081	0.24211	-1.7188	-2.1937	-2.7229	-2.1646	-2.5583	-2.3771	-2.125	-2.9458	-2.2938	-2.0958	-2.8625	-2.0708	-2.5646	-2.6667	-1.9667	-2.7938	176.250	197.238	253.708	221.116	256.249	18.423	-74.568	249.494	139.565	88.780	-55.293	255.925	-30.603	-75.293	208.510	174.151	0.00056095	0.0094109	0.0022466	1073.3	4.173e-05	5.4962e-05	1060.1	387.77	6.9253e-05	1.1923e-05	432.51	143.85	124.02	51.737	3.3415e-05	59.99	0.10533	0.20295	0.056971	1570.7	0.0019263	0.0022728	1676.5	573.73	0.0019204	0.0022436	1640.5	247.28	232.72	82.888	0.0020546	102.73	70.575	6.431	266.490	-76.662	230.622	103.042	-76.232	-70.870	204.205	205.622	-73.171	-68.176	-65.278	-61.287	-23.929	-64.556	-8191	255	
1234.931	1	1	0	0	0.077938	0.1435	0.01521	0.089428	0.12958	0.28984	0.34797	0.16711	0.049352	0.084893	0.22285	0.14858	0.094884	0.34916	0.24639	0.37069	-1.8125	-2.1104	-2.6937	-2.175	-2.5458	-2.5854	-2.0521	-2.7667	-2.1604	-2.1958	-2.8875	-2.1312	-2.3833	-2.8187	-2.0604	-2.6688	15.293	262.466	-75.135	-35.711	168.482	135.099	190.049	211.481	-85.092	240.694	-53.148	206.421	-38.987	258.562	129.818	188.349	0.00029637	0.0040756	0.0031476	1065.1	3.2453e-05	1.0309e-05	1059.3	384.62	2.6037e-05	3.7806e-05	440.15	146.47	124.34	52.057	8.2617e-05	60.648	0.10438	0.2015	0.056278	1559.9	0.0019201	0.0022697	1661.5	571.68	0.00193	0.0022547	1641.4	248.71	235.89	84.129	0.0020757	104.13	116.804	-7.645	-20.719	-76.638	72.025	154.082	-76.719	-70.830	31.428	208.028	-71.908	-68.285	-65.883	-61.360	-1.183	-64.103	-8191	255	
1235.027	1	1	0	0	0.093447	0.18076	0.31135	0.090636	0.02716	0.10267	0.38406	0.076292	0.27515	0.2574	0.11088	0.19656	0.30181	0.13973	0.17066	0.20032	-2.075	-2.0812	-3.0646	-2.3792	-2.4146	-2.6292	-2.2083	-2.8708	-2.4208	-2.0125	-2.7729	-2.3208	-2.4083	-2.9521	-1.8708	-2.7729	108.867	-62.830	223.676	205.204	11.787	179.034	241.847	94.562	-51.887	112.563	236.251	-46.540	180.344	190.808	22.847	116.656	0.00039789	0.0060539	0.0005122	1051.1	2.972e-05	0.00010343	1062	387.74	2.3537e-05	1.7242e-05	443.24	146.88	125.48	52.805	2.2859e-05	62.009	0.10731	0.20501	0.05674	1561.8	0.0019606	0.0022821	1661.1	575.47	0.0019477	0.0022476	1635.1	249.67	236.19	84.18	0.0020241	104.69	17.916	235.596	174.948	-76.530	158.107	31.701	-76.858	-71.357	25.254	25.300	-72.782	-68.724	-66.314	-61.799	214.672	-65.075	-8191	255	
1235.148	1	1	0	0	0.031538	0.29747	0.10914	0.051842	0.11228	0.10895	0.07883	0.093986	0.061071	0.21265	0.074711	0.22135	0.28562	0.18496	0.29554	0.25993	-2.1479	-2.1646	-2.8292	-2.4396	-2.25	-2.8229	-2.2	-2.6771	-2.6625	-2.0021	-2.8396	-2.2938	-2.3312	-2.7875	-2.0875	-2.6875	169.167	-54.233	260.789	115.273	-28.685	265.961	-76.075	-53.127	169.370	56.741	249.694	222.513	-79.106	28.449	253.820	222.300	0.00019203	0.007444	0.0023374	1050.8	6.2861e-05	5.0934e-06	1066.3	389.15	6.2755e-05	7.2015e-05	453.07	148.08	125.51	53.386	2.8521e-05	61.365	0.10554	0.20092	0.055095	1549.5	0.0019366	0.0022345	1644.6	572.75	0.0019152	0.0021989	1601.7	249.64	234.05	83.571	0.0019739	103.99	112.421	51.546	-60.650	-76.557	206.665	238.010	-76.945	-71.139	198.121	80.032	-74.445	-68.615	-65.538	-61.725	95.082	-64.702	-8191	255	
1235.244	1	1	0	0	0.099407	0.10457	0.017427	0.14761	0.12024	0.045506	0.097183	0.19058	0.21109	0.047255	0.12804	0.17417	0.24533	0.27387	0.14326	0.29362	-2.3	-2.1771	-2.6833	-2.5771	-2.1146	-2.7938	-2.15	-2.4854	-2.7146	-2.2292	-2.7687	-2.4	-2.1063	-2.8875	-2.1646	-2.5708	48.291	193.586	-80.321	215.207	-77.514	75.593	99.826	162.668	268.149	229.654	49.718	-49.486	63.708	250.955	-78.923	225.619	5.5304e-05	0.0039129	0.00057895	1039	6.7464e-05	3.4998e-05	1049.8	387.01	3.8173e-05	2.1559e-05	437.7	148.35	126.26	52.726	2.0174e-05	61.824	0.10439	0.19602	0.0538	1532.9	0.0019065	0.0021792	1624.6	568.92	0.0018824	0.0021296	1571.3	246.72	231.1	81.951	0.0019153	102.48	99.676	229.619	162.855	-76.962	4.828	101.638	-76.768	-71.186	237.112	-20.415	-74.815	-68.852	-65.311	-61.189	-40.950	-64.702	-8191	255	
1235.340	1	1	0	0	0.11035	0.29166	0.17671	0.2355	0.14237	0.12079	0.25942	0.13289	0.14567	0.45368	0.19719	0.17029	0.21637	0.12308	0.021467	0.1005	-2.3333	-2.0229	-2.5729	-2.6354	-2.1021	-2.8438	-2.3146	-2.2188	-2.7021	-1.9458	-2.575	-2.5208	-2.0812	-2.8604	-2.1458	-2.3042	-17.675	162.047	237.289	201.694	212.640	-15.106	261.883	48.394	75.939	118.816	94.041	197.013	180.434	236.595	123.230	225.616	0.00055526	0.0047775	0.00035978	1043.9	2.8344e-06	1.2536e-05	1040.3	384.17	5.556e-05	2.3761e-05	449.14	149.43	125.69	53.362	3.2126e-05	62.354	0.099445	0.18438	0.0514	1503.2	0.0017877	0.0020369	1582.2	555.19	0.0017845	0.002008	1528.6	244.66	228.28	81.626	0.0019071	103.46	184.731	72.784	49.120	-76.485	111.822	-27.424	-77.002	-70.908	57.945	206.652	-73.786	-68.191	-65.972	-61.445	17.772	-64.660	-8191	255	
1235.436	1	1	0	0	0.17055	0.12291	0.15564	0.28306	0.045044	0.058923	0.21993	0.30865	0.1234	0.16957	0.11285	0.19537	0.030789	0.25383	0.2038	0.026853	-2.2854	-1.9646	-2.4854	-2.5771	-1.9979	-2.7438	-2.425	-2.3292	-2.7146	-2.0792	-2.4896	-2.6688	-2.0396	-2.8	-2.3833	-2.0542	147.274	209.256	5.940	-87.389	45.179	135.728	171.909	205.327	144.431	-19.749	222.168	250.580	202.525	206.558	269.752	158.714	0.00046024	0.0057015	0.0014205	1045.7	2.6887e-05	1.5478e-05	1058.4	391.71	6.9042e-05	1.0294e-05	458.11	153.07	129.73	54.764	2.6476e-05	63.224	0.10119	0.18941	0.05417	1541.7	0.0019187	0.0021968	1654.6	582.77	0.0019455	0.0022278	1676	261.17	242.88	86.636	0.0021504	109.7	-35.462	30.562	6.468	-76.225	200.462	76.561	-76.533	-71.084	51.897	237.322	-73.040	-69.013	-66.221	-62.050	257.892	-65.218	-8191	255	
1235.531	1	1	0	0	0.22775	0.12374	0.26729	0.27446	0.086174	0.16277	0.35249	0.067652	0.22062	0.097008	0.18876	0.2516	0.18784	0.078611	0.34305	0.097155	-2.5229	-2.0625	-2.4688	-2.7438	-2.0521	-2.6646	-2.5854	-2.2062	-2.8833	-2.0458	-2.5354	-2.8438	-1.9292	-2.85	-2.3979	-2.1875	119.788	102.293	-25.363	254.722	180.155	217.281	222.222	-22.628	68.682	55.019	-4.501	121.969	-84.285	211.103	-35.175	34.647	0.00061757	0.0054246	0.0021259	1037.4	2.0146e-05	1.1247e-05	1057.7	393.62	3.6652e-05	5.7559e-05	462.23	153.06	127.8	53.999	2.6259e-05	62.268	0.1111	0.2096	0.059953	1590.2	0.0020577	0.0023818	1726.1	602.93	0.0020876	0.0024047	1783.3	269.36	250.82	89.251	0.0023002	112.56	122.868	204.382	82.647	-77.350	112.621	-71.723	-77.104	-71.279	158.666	235.353	-73.472	-69.274	-66.294	-61.337	-40.460	-64.983	-8191	255	
1235.627	1	1	0	0	0.21779	0.251	0.17636	0.11726	0.36081	0.1528	0.11083	0.19976	0.23886	0.16138	0.20756	0.042629	0.134	0.22509	0.16408	0.087326	-2.4083	-2.4521	-2.2042	-2.9917	-2.2083	-2.6375	-2.7271	-2.0833	-2.7354	-2.3042	-2.1896	-2.7812	-2.1083	-2.7146	-2.5979	-2.325	60.557	91.960	-10.214	-51.704	-61.914	172.384	199.311	167.675	114.856	59.514	231.172	49.261	228.151	-79.181	-39.809	-85.824	0.00022225	0.0046835	0.00041979	1048.3	6.1315e-05	8.2974e-05	1057.5	398.58	3.7286e-05	5.7509e-05	464	147.38	127.67	53.59	6.0974e-05	60.978	0.11768	0.22581	0.064573	1650.1	0.0021882	0.0025772	1787.7	623.42	0.0022397	0.0026089	1886.9	274.44	259.65	92.221	0.0024773	114.8	92.196	243.118	10.701	-76.935	191.025	255.938	-76.901	-71.222	-15.213	28.446	-73.484	-69.249	-66.226	-61.620	-0.744	-65.507	-8191	255	
1235.747	1	1	0	0	0.39588	0.19963	0.10956	0.15695	0.17957	0.18434	0.085332	0.24104	0.062372	0.019347	0.20787	0.11799	0.070626	0.298	0.14796	0.2658	-2.4062	-2.2229	-2.2396	-3.0208	-1.9771	-2.3229	-2.7458	-2.2958	-2.7625	-2.3396	-2.1188	-2.9417	-2.0729	-2.6063	-2.6979	-2.2604	-58.305	-82.801	115.503	198.162	-56.383	11.199	-29.320	156.819	-75.230	83.818	-82.616	201.561	67.975	207.949	-52.983	197.890	0.0004467	0.0053442	0.00025705	1080.1	2.6239e-05	6.3829e-05	1077.9	399.2	4.4817e-05	4.7735e-05	446.79	143.7	123.65	52.818	4.4712e-05	60.149	0.12688	0.24543	0.069761	1733.4	0.0023818	0.0028431	1874.2	648.19	0.0024729	0.0029189	2047.4	286.73	276.49	97.512	0.0027894	121.49	176.450	36.092	-9.440	-76.733	37.240	245.617	-77.447	-71.193	-61.692	106.267	-72.001	-68.635	-66.223	-61.261	238.979	-65.058	-8191	255	
1235.843	1	1	0	0	0.20939	0.12485	0.23088	0.27732	0.13956	0.1627	0.21896	0.29786	0.20831	0.090806	0.050346	0.29904	0.1864	0.30959	0.099822	0.010199	-2.4125	-2.3688	-2.0604	-2.725	-2.1771	-2.4688	-2.9042	-2.1958	-2.7583	-2.6625	-2.1146	-3.0146	-2.1208	-2.2479	-2.8688	-2.2479	61.391	36.145	174.868	240.238	58.123	199.264	129.423	197.415	111.510	233.575	-8.247	207.883	48.891	262.098	13.353	199.331	0.00051487	0.010093	0.00082556	1104.2	3.3027e-05	4.5057e-05	1079.3	401.79	3.8921e-05	2.8993e-05	459.72	141.84	124.65	52.75	3.97e-05	59.584	0.14284	0.27447	0.076339	1818.4	0.0025786	0.0030099	1918.8	656.96	0.0025148	0.0029127	2008.8	280.29	272.04	95.171	0.0026331	117	224.252	121.181	120.752	-76.472	146.298	-33.088	-76.967	-71.572	189.669	-6.558	-73.532	-67.821	-66.279	-60.722	138.938	-64.714	-8191	255	
1235.940	1	1	0	0	0.17988	0.32555	0.15097	0.1289	0.27235	0.29668	0.28954	0.10973	0.10829	0.28092	0.080896	0.22252	0.16188	0.086619	0.27379	0.27349	-2.2313	-2.4958	-2.1875	-2.9167	-2.1667	-2.3042	-2.9646	-2.1208	-2.6854	-2.6354	-2.3271	-2.8604	-2.3937	-2.4167	-2.7271	-2.2958	128.122	-3.371	154.020	235.811	20.564	156.508	192.567	-36.284	31.547	-63.015	234.680	145.654	226.091	270.355	115.184	149.895	0.00033886	0.00268	0.0018439	1108.2	7.263e-05	2.055e-05	1074.4	395.6	5.2729e-07	0.00016286	424.26	137.51	124.24	51.754	3.2315e-05	58.341	0.1364	0.2602	0.07228	1786.5	0.0025392	0.0029994	1915.1	662.46	0.0026355	0.0030848	2090.2	288.4	284.44	97.89	0.0028209	121.09	-81.839	120.461	-32.889	-76.693	232.180	163.907	-77.250	-71.004	82.919	8.031	-72.364	-68.499	-64.965	-61.365	-8.531	-64.684	-8191	255	
1236.036	1	1	0	0	0.22749	0.1048	0.2538	0.081151	0.18743	0.1419	0.22888	0.4488	0.099574	0.18027	0.26951	0.18329	0.25529	0.1219	0.087918	0.12946	-2.2396	-2.5875	-1.9875	-2.8375	-2.2854	-2.2062	-2.7708	-2.4646	-2.5938	-2.7687	-2.1562	-2.6271	-2.5417	-2.3229	-3.0375	-2.3604	237.377	197.437	-18.797	15.133	124.196	137.731	242.344	213.083	108.968	91.491	210.614	216.415	-71.801	106.890	160.504	147.237	0.0011686	0.0078073	0.0012583	1116.5	2.9261e-05	9.6825e-06	1060.1	400.86	5.8484e-05	7.0633e-05	426.48	139.63	123.74	52.664	4.8429e-05	59.154	0.14737	0.27885	0.076613	1851.7	0.0026783	0.0031192	1935.4	672.82	0.0026816	0.0030745	2080.1	289.47	282.36	97.182	0.0027282	120.64	-3.276	-50.998	-41.075	-76.773	154.533	67.209	-76.409	-70.934	138.416	131.827	-73.155	-68.250	-65.309	-61.265	234.557	-64.926	-8191	255	
1236.132	1	1	0	0	0.20053	0.14816	0.070627	0.01248	0.25511	0.11369	0.20687	0.35068	0.25552	0.12232	0.14356	0.46831	0.2368	0.095451	0.21584	0.21705	-2.0875	-2.6854	-2.0375	-2.8583	-2.6292	-1.9562	-2.9417	-2.2875	-2.5	-2.8729	-1.8583	-2.5687	-2.7313	-2.1437	-2.8479	-2.4521	-45.840	49.719	113.281	-24.212	52.940	214.035	230.651	165.146	142.980	-15.208	-38.797	-84.741	210.964	183.896	50.129	199.568	0.00055079	0.0067961	0.0028966	1116.7	8.567e-05	8.8271e-05	1076.6	404.59	5.1151e-05	5.1459e-05	439.89	143.13	124.7	52.827	4.1958e-05	60.993	0.14311	0.2685	0.073641	1825.5	0.0025767	0.0029495	1890.4	660.11	0.0025271	0.0028748	1979.4	283.55	273.37	94.674	0.0025848	118.51	240.742	245.359	-56.397	-75.824	144.002	124.970	-77.136	-70.975	-69.595	241.227	-70.048	-68.175	-65.700	-61.038	262.833	-64.261	-8191	255	
1236.228	1	1	0	0	0.11268	0.14255	0.10198	0.27944	0.075571	0.21566	0.29306	0.18694	0.1134	0.19008	0.13009	0.27539	0.23952	0.079713	0.19298	0.24082	-1.9271	-2.8021	-2.0917	-2.6271	-2.8104	-2.0417	-3	-2.4667	-2.2354	-2.7208	-2.1	-2.475	-2.8063	-2.1354	-2.7792	-2.4062	123.237	-76.689	196.879	200.140	97.918	-81.187	230.906	180.356	60.802	-84.907	246.624	180.852	-43.793	20.866	119.346	146.312	0.00043162	0.0012899	0.0018226	1089.8	2.5013e-05	6.7204e-05	1082.8	402.93	7.5544e-05	6.9778e-05	448.54	147.35	127.42	54.128	6.2104e-05	62.083	0.13528	0.2519	0.06962	1768.9	0.00244	0.0027818	1852.2	645.58	0.0023918	0.0026885	1900.7	277.86	262.78	91.253	0.0023898	113.97	-40.443	220.567	150.129	-76.671	49.573	106.728	-76.763	-70.809	38.036	264.268	-72.360	-68.540	-65.541	-60.699	145.490	-64.328	-8191	255	
1236.324	1	1	0	0	0.0067587	0.13467	0.10399	0.10795	0.17609	0.17957	0.2433	0.13215	0.14546	0.12839	0.019594	0.082581	0.25673	0.32484	0.086477	0.1811	-1.7979	-2.7812	-2.1958	-2.7208	-2.8896	-2.0354	-2.9	-2.325	-1.8833	-2.9458	-2.1604	-2.6083	-2.775	-2.1625	-2.7375	-2.6583	42.124	96.117	215.646	232.148	-47.121	259.820	204.645	56.114	167.073	-17.773	219.432	192.496	265.796	268.836	-22.410	250.926	0.00051478	0.0046213	0.0022242	1059.3	4.3665e-05	4.314e-05	1057.6	400.87	3.2942e-05	7.7496e-05	443.15	149.64	127.67	54.381	4.8188e-05	62.504	0.12197	0.22293	0.062122	1632.3	0.002106	0.0023786	1703.9	598.56	0.0020174	0.0022893	1696.1	258.91	242.73	86.517	0.0021405	108.42	248.946	117.716	120.836	-76.281	14.316	117.311	-76.135	-70.438	-19.625	177.590	-71.893	-68.645	-65.105	-61.243	129.420	-64.567	-8191	255	
1236.420	1	1	0	0	0.14844	0.14089	0.096891	0.16784	0.10963	0.17605	0.18833	0.16316	0.19637	0.15274	0.12769	0.088348	0.30688	0.28434	0.25749	0.076525	-1.7479	-2.8	-2.2792	-2.3042	-2.725	-2.1396	-2.6271	-2.575	-2.1937	-2.9021	-2.2417	-2.3125	-2.8625	-2.0771	-2.5875	-2.8521	249.345	264.055	41.091	244.462	-65.422	-65.011	209.634	-46.818	22.885	197.651	-47.117	142.864	203.254	177.798	267.139	-63.460	0.00025548	0.0020048	0.0011486	1043.5	8.1653e-05	1.7831e-05	1051.1	396.06	7.4252e-05	5.0063e-05	454.34	150.84	129.27	54.906	3.2102e-05	63.239	0.10944	0.20613	0.058709	1581.4	0.0020032	0.0023229	1695.1	596.84	0.002019	0.0023248	1732.1	262.97	245.53	87.713	0.0022045	110.14	-72.701	181.875	-73.732	-76.240	136.710	-0.451	-76.550	-70.952	197.750	47.148	-71.556	-68.289	-65.180	-61.313	80.594	-65.110	-8191	255	
1236.539	1	1	0	0	0.18512	0.12565	0.31995	0.39954	0.27469	0.23324	0.19753	0.33347	0.31426	0.073352	0.1159	0.074741	0.22461	0.24291	0.14114	0.14462	-1.6396	-2.8125	-2.3271	-2.2562	-2.7542	-2.075	-2.7708	-2.9208	-2.0396	-2.6646	-2.5708	-2.2	-3.0042	-2.2479	-2.5229	-2.7792	187.179	148.323	156.688	246.072	84.070	193.201	226.588	151.880	-81.551	135.243	188.240	172.717	228.501	258.722	139.815	179.926	2.1823e-05	0.0056151	0.00085032	1055.4	3.2187e-05	2.5966e-05	1073.4	401.69	6.7488e-05	5.5121e-05	463.92	152.11	127.62	54.585	4.7809e-05	62.655	0.11178	0.21458	0.060998	1615.4	0.0020759	0.0024301	1740.9	609.29	0.0020941	0.0024702	1810.1	271.26	254.59	91.023	0.0024062	114.67	42.957	10.287	-1.651	-75.565	75.386	50.948	-76.139	-70.038	222.984	108.209	-74.790	-68.257	-65.110	-61.403	-49.621	-64.670	-8191	255	
1236.635	1	1	0	0	0.19292	0.15338	0.21932	0.11012	0.083824	0.1312	0.12696	0.23302	0.044448	0.092079	0.12024	0.20277	0.028529	0.33228	0.16694	0.012991	-1.6146	-2.6271	-2.3875	-2.3729	-2.7812	-2.2375	-2.5604	-2.8833	-1.8708	-2.8479	-2.6396	-2.2542	-2.85	-2.3646	-2.4667	-2.7479	21.016	261.852	-65.039	167.899	110.236	62.951	158.741	28.991	225.141	58.277	240.702	203.049	-18.670	214.258	-39.392	161.605	0.00074013	0.0037908	0.0013254	1061.6	3.9444e-05	6.6331e-05	1069.4	399.74	7.7652e-05	1.9167e-05	460.45	149.54	128.01	54.289	2.0184e-05	62.177	0.12216	0.23614	0.066909	1686.2	0.0022999	0.0027229	1836.8	634.7	0.0023288	0.0027611	1945.6	282.19	267.66	94.687	0.0025714	118.03	230.058	-68.923	-45.780	-76.064	13.388	260.961	-76.258	-70.338	-72.317	121.027	-74.054	-67.867	-65.724	-61.380	130.901	-64.900	-8191	255	
1236.732	1	1	0	0	0.13725	0.26853	0.061175	0.38093	0.12555	0.26755	0.18562	0.1981	0.068074	0.093518	0.18623	0.13834	0.19993	0.12672	0.11158	0.14235	-1.6417	-2.6979	-2.6604	-2.1271	-2.7271	-2.0958	-2.3896	-2.9604	-2.0771	-2.5167	-2.5854	-2.0938	-2.9375	-2.4667	-2.225	-2.8854	235.741	113.610	253.181	154.995	235.189	187.056	237.600	252.647	212.884	-3.227	70.374	228.729	213.683	151.043	75.128	18.150	0.00090252	0.006582	0.0019189	1052.4	1.9232e-05	8.4103e-05	1052.6	396.73	7.8806e-06	2.868e-05	449.32	148.81	127.69	53.95	5.3259e-05	62.069	0.1316	0.25479	0.071453	1720.8	0.0024585	0.0028936	1873.1	646.82	0.0024934	0.0029189	2029.5	288.51	276.61	96.783	0.0026667	120.05	192.190	267.735	-31.046	-76.712	121.850	123.604	-77.151	-70.672	5.228	183.347	-74.147	-67.961	-66.145	-61.607	159.305	-64.947	-8191	255	
1236.828	1	1	0	0	0.18146	0.061748	0.17931	0.2999	0.16877	0.07306	0.016881	0.29256	0.1067	0.23837	0.24952	0.14371	0.24242	0.25804	0.082038	0.086872	-1.6812	-2.6	-2.5854	-2.1875	-2.7667	-2.2125	-2.4292	-2.8187	-2.0604	-2.5812	-2.5979	-2.0083	-2.8187	-2.4104	-2.125	-2.9792	63.481	238.426	159.267	210.944	-81.689	178.430	177.168	194.943	165.153	75.753	177.490	-81.136	-89.072	-71.354	193.258	246.048	0.00062711	0.004358	0.0020226	1045.8	7.3852e-05	4.2306e-05	1063.2	398.96	1.1736e-05	3.3767e-05	458.19	149.83	128.02	53.874	9.5665e-05	62.089	0.13626	0.26066	0.071755	1721.6	0.002468	0.0028648	1850.1	642.33	0.0024568	0.0028289	1969.3	283.35	271.92	95.205	0.0025663	118.48	167.421	34.300	99.409	-76.607	256.918	145.624	-76.627	-71.570	263.237	250.635	-73.913	-68.295	-65.752	-61.487	255.679	-65.122	-8191	255	
1236.924	1	1	0	0	0.4205	0.077049	0.23916	0.11955	0.17577	0.19279	0.1151	0.036962	0.17646	0.1751	0.16991	0.19027	0.13338	0.19798	0.16772	0.24591	-1.8083	-2.3083	-2.8958	-2.0333	-2.9167	-2.2917	-2.1063	-3.0083	-2.3021	-2.325	-2.7229	-2.1208	-2.8021	-2.5771	-2.0125	-2.9437	-31.414	245.794	35.624	-26.733	248.752	-62.806	224.077	175.154	23.813	-47.364	206.422	230.023	-83.771	215.062	152.629	209.184	0.00087183	0.0019011	0.0013914	1058.5	5.0769e-05	8.7908e-05	1077.7	398.76	3.0221e-05	6.6006e-05	454.76	149.49	128.78	53.877	3.1192e-05	61.65	0.13384	0.25463	0.069833	1715.9	0.0024592	0.0028482	1855.6	645.95	0.0024798	0.002855	1977.9	287.1	276.8	96.217	0.0026356	120.94	-48.922	83.430	179.563	-76.940	99.189	13.387	-76.285	-71.099	254.327	26.696	-73.367	-68.807	-66.688	-61.616	263.517	-65.505	-8191	255	
1237.020	1	1	0	0	0.14315	0.18888	0.099734	0.066299	0.19265	0.38938	0.26965	0.43823	0.25042	0.17352	0.14581	0.2194	0.28014	0.25977	0.20902	0.14656	-1.9646	-2.0854	-2.7833	-2.2	-2.6958	-2.6896	-2.2229	-2.9667	-2.1854	-2.3771	-2.7687	-2.2062	-2.8125	-2.7	-1.9729	-2.8458	116.360	184.269	210.965	-82.744	-27.311	201.568	197.902	215.540	88.555	-78.611	-78.275	-46.640	13.557	231.225	126.473	268.893	0.00054375	0.0058092	0.00024673	1057.5	2.7317e-05	6.9482e-05	1054.6	394.19	5.3804e-05	2.9545e-05	451.72	148.22	125.94	53.846	5.1949e-05	61.615	0.13966	0.26316	0.072726	1763.3	0.0025638	0.002948	1884.2	659.27	0.0025648	0.0029265	2026.3	290.06	278.25	96.126	0.0026328	120.97	205.176	250.032	263.911	-76.580	-75.919	-68.874	-76.836	-70.852	-70.510	-77.126	-72.428	-69.063	-65.807	-61.033	268.956	-64.865	-8191	255	
1237.116	1	1	0	0	0.19196	0.083997	0.20764	0.2589	0.080138	0.15374	0.27968	0.37954	0.11186	0.077649	0.16955	0.10868	0.12987	0.084681	0.25183	0.045135	-2.0792	-1.9562	-2.7542	-2.0979	-2.4146	-2.525	-2.1729	-2.8271	-2.3937	-2.0396	-2.875	-2.175	-2.4688	-2.9437	-1.9875	-2.8146	-0.002	119.480	244.267	252.387	-67.832	213.808	179.876	239.555	30.709	-10.306	60.252	166.578	261.723	-47.634	147.531	263.771	0.00020516	0.010673	0.0017009	1051.8	6.4082e-05	3.643e-05	1057	395.96	2.8605e-05	3.7097e-06	448.22	148.28	127.8	53.73	4.2429e-05	62.005	0.13807	0.25787	0.071658	1746.6	0.0025092	0.0028421	1851.5	649.68	0.0024728	0.0027862	1964.3	285.23	271.36	93.852	0.0025463	118.82	28.871	-21.821	-2.568	-76.604	4.349	3.696	-76.656	-70.775	74.009	214.799	-72.584	-68.805	-65.417	-61.097	260.519	-65.012	-8191	255	
1237.237	1	1	0	0	0.20755	0.2057	0.22443	0.21447	0.27398	0.095144	0.21247	0.22411	0.16602	0.17237	0.18352	0.23475	0.072774	0.30901	0.05062	0.3545	-2.0021	-2.0375	-2.8042	-2.175	-2.3375	-2.9625	-2.0563	-2.95	-2.5646	-2.0292	-2.7687	-2.3042	-2.2146	-2.7875	-2.0292	-2.7333	38.794	238.544	-55.915	-19.218	230.819	119.682	226.512	233.086	258.986	216.329	123.108	-61.848	217.968	241.974	-55.474	-79.966	0.00044837	0.0013396	0.0017086	1049.2	8.7955e-05	3.0219e-05	1057.6	394.32	6.5339e-06	1.3024e-05	444.42	150.15	127.01	54.248	5.7343e-06	63.997	0.13226	0.24481	0.069055	1704.4	0.0023606	0.0026876	1800.9	632.61	0.0023218	0.0026285	1891.4	278.27	261.62	91.724	0.0024436	116.53	228.896	-21.747	142.929	-76.032	113.186	240.298	-76.703	-70.579	142.877	121.940	-73.749	-68.734	-66.295	-61.929	30.266	-64.844	-8191	255	
1237.331	1	1	0	0	0.11688	0.1835	0.26871	0.089106	0.18528	0.10398	0.22311	0.37938	0.017613	0.069361	0.18209	0.2706	0.10493	0.14446	0.096524	0.042594	-2.3396	-1.9583	-2.9625	-2.4792	-2.2271	-2.9354	-2.2479	-2.7125	-2.6771	-2.0021	-2.8479	-2.4292	-2.3708	-2.9813	-2.0667	-2.5604	6.777	-5.276	64.769	206.593	198.488	-69.412	165.986	254.057	1.089	253.769	-85.076	257.037	11.150	-43.500	-43.797	93.320	0.00055386	0.001644	0.0010609	1049.2	4.958e-05	5.6696e-05	1053.3	394.59	5.2376e-05	1.5263e-05	457.16	152.8	128.18	53.879	4.0693e-05	62.599	0.12471	0.23547	0.066985	1671.3	0.0022759	0.0026328	1795	625.45	0.002242	0.0025775	1874.7	277.99	259.31	91.599	0.0024446	116.41	204.281	-82.608	14.467	-76.274	29.420	60.333	-76.412	-70.969	224.686	268.931	-72.898	-68.713	-65.776	-61.527	52.733	-64.963	-8191	255	
1237.405	1	1	0	0	0.034834	0.16489	0.22014	0.13795	0.10644	0.11267	0.21352	0.13866	0.16511	0.10855	0.17314	0.05182	0.15585	0.073278	0.25611	0.21821	-2.1375	-2.1125	-2.6958	-2.5167	-2.2021	-2.9313	-2.3375	-2.5542	-2.8354	-2.1479	-2.8792	-2.75	-2.0708	-2.9542	-2.1479	-2.6583	120.464	39.004	153.433	219.129	169.709	29.128	201.679	255.599	51.643	-47.734	32.657	-73.556	223.514	257.288	182.355	193.148	0.00043847	0.0068853	0.0010943	1005.9	9.7431e-05	6.4172e-05	1037.4	392.39	3.5958e-05	0.0001328	459.35	149.22	128.15	53.445	8.7967e-05	63.117	0.12493	0.23888	0.068451	1659.8	0.0023274	0.0027433	1814.1	635.5	0.0023652	0.0027564	1976.7	285.49	268.32	94.288	0.0025645	118.15	240.273	186.427	-66.733	-76.572	58.361	-30.707	-76.605	-70.579	5.060	102.505	-73.381	-69.102	-65.674	-61.835	218.386	-64.737	-8191	255	
1237.523	1	1	0	0	0.12388	0.15975	0.14453	0.20768	0.23787	0.14219	0.36204	0.43762	0.075469	0.20974	0.18244	0.050251	0.13228	0.15468	0.31366	0.061083	-2.5833	-2.0438	-2.7562	-2.6854	-2.1458	-2.9104	-2.3333	-2.375	-2.7562	-2.0312	-2.5167	-2.7625	-2.1458	-2.9729	-2.375	-2.3958	40.449	101.597	-7.328	173.439	-13.169	162.559	124.356	216.567	101.278	124.500	-35.212	138.095	229.292	256.925	85.573	226.452	0.00066399	0.0042814	0.0016067	1005.7	7.3106e-05	6.8147e-05	1024.3	390.2	1.9237e-05	2.5437e-05	453.58	152.7	128.87	54.072	2.2535e-05	62.513	0.12851	0.24676	0.0692	1647.6	0.0023153	0.0027262	1794.3	626.34	0.0023163	0.0027132	1937	282.43	266.61	94.553	0.0025596	118.6	211.984	57.805	200.507	-76.838	152.788	9.783	-77.601	-70.994	-47.556	212.472	-74.868	-68.572	-65.762	-61.535	119.459	-65.578	-8191	255	
1237.620	1	1	0	0	0.11207	0.19718	0.20804	0.45364	0.19937	0.29139	0.23153	0.29412	0.086739	0.057322	0.30216	0.048457	0.13048	0.20332	0.13433	0.3153	-2.5271	-2.1583	-2.6458	-2.8146	-2.0042	-2.9208	-2.5354	-2.4771	-2.7917	-2.1708	-2.5125	-2.7625	-2.2104	-2.825	-2.5021	-2.1875	63.642	136.669	227.588	201.224	34.812	180.120	227.870	230.911	-34.978	248.564	94.376	126.269	-87.296	-83.019	-65.827	244.676	0.00080195	0.0027518	0.0018933	997.19	3.2745e-05	8.4003e-05	1038.8	392.4	3.219e-05	5.5481e-05	468.28	154.29	129.54	54.679	4.3795e-05	63.525	0.13162	0.25471	0.071283	1675.5	0.0024254	0.0028799	1842	639.78	0.0024298	0.00283	1986.1	287.28	271.89	95.847	0.0025759	119.18	-44.255	99.336	8.278	-76.089	78.775	19.158	-77.359	-70.956	200.666	194.581	-72.519	-68.930	-66.102	-61.847	4.467	-64.628	-8191	255	
1237.716	1	1	0	0	0.16156	0.32707	0.097731	0.20804	0.34212	0.35557	0.22741	0.09873	0.23126	0.2758	0.045756	0.16846	0.24512	0.038152	0.25857	0.099803	-2.5104	-2.1188	-2.5396	-2.7313	-1.9833	-2.7208	-2.5938	-2.1813	-2.9042	-2.0979	-2.3937	-2.9188	-2.1354	-2.9833	-2.4667	-2.0021	118.659	85.846	65.532	-82.762	202.034	232.426	20.020	2.006	53.197	106.313	156.011	230.291	-53.843	23.215	148.923	205.191	0.00041221	0.002818	0.0021629	1003.4	4.3301e-05	3.3778e-05	1045.8	391.05	6.6688e-05	3.932e-05	461.32	154.24	129.94	55.016	1.8983e-05	64.198	0.13257	0.25304	0.070017	1657.9	0.0023882	0.0027817	1807.1	629.74	0.0023796	0.0027396	1930.3	284.19	270.22	95.078	0.0025012	118.69	-59.338	-61.869	-83.620	-77.071	115.086	74.840	-76.984	-70.771	156.619	-35.258	-74.776	-69.055	-65.771	-62.271	-31.231	-64.932	-8191	255	
1237.836	1	1	0	0	0.045647	0.1321	0.084403	0.21064	0.20873	0.2409	0.16443	0.28052	0.22259	0.14894	0.23157	0.18128	0.066593	0.35015	0.17569	0.10513	-2.4646	-2.2687	-2.3396	-3.0563	-1.9021	-2.5604	-2.7958	-2.275	-2.9083	-2.4542	-2.3521	-2.8542	-2.2208	-2.8042	-2.5417	-2.1188	160.842	89.063	-26.771	-33.155	-59.876	59.839	232.952	-71.901	163.838	137.516	-81.968	253.472	258.620	-76.618	237.376	217.025	0.00023055	0.0072076	0.0009185	1007.9	8.5478e-05	4.2797e-05	1045.9	394.21	2.6449e-05	8.1988e-05	466.9	153.55	130.1	54.874	3.9699e-05	63.739	0.13189	0.24925	0.068918	1664.7	0.0024195	0.0028162	1811.4	637.56	0.0024282	0.0027705	1943.2	286.23	271.36	95.195	0.0024981	118.7	146.304	-18.204	13.104	-76.572	29.614	87.680	-76.451	-70.858	239.065	72.290	-70.849	-68.973	-66.119	-61.479	243.745	-64.905	-8191	255	
#DATA ENDS
