BOXY.EXE: ISS Imagent and Oximeter Data Acquisition Program Version 0.80
Ascii Record File

#ACQ INFORMATION
2  Detector Channels 
16  External MUX Channels 
1  Auxiliary Channels 
5000  Waveform (CCF) Frequency (Hz)
1  Waveforms Skipped 
30  Waveforms Averaged 
1  Cycles Averaged 
16  Acquisitions per Waveform 
10.0806  Updata Rate (Hz) 

#FILE INFORMATION
TRUE -- External MUX Channel results are PARSED.
FALSE -- AC DC and Phase are NOT grouped.
TRUE -- Companion Program Settings File CREATED.
FALSE -- AC data not excluded
FALSE -- DC data not excluded
FALSE -- Phase data not excluded
FALSE -- Auxillary Chn. data not excluded
Tab delimiters

#CALIBRATION STATE
TRUE -- Waveform Calibration Values APPLIED.


#AUX CALIBRATION VALUES
Val Type	aux-1	

Term	1.0000e+00	
Factor	0.0000e+00	


#WF CALIBRATION VALUES
A = Detector Channel
Val Type	A-AC1	A-AC2	A-AC3	A-AC4	A-AC5	A-AC6	A-AC7	A-AC8	A-AC9	A-AC10	A-AC11	A-AC12	A-AC13	A-AC14	A-AC15	A-AC16	A-DC1	A-DC2	A-DC3	A-DC4	A-DC5	A-DC6	A-DC7	A-DC8	A-DC9	A-DC10	A-DC11	A-DC12	A-DC13	A-DC14	A-DC15	A-DC16	A-Ph1	A-Ph2	A-Ph3	A-Ph4	A-Ph5	A-Ph6	A-Ph7	A-Ph8	A-Ph9	A-Ph10	A-Ph11	A-Ph12	A-Ph13	A-Ph14	A-Ph15	A-Ph16	

Term	0.00000e+00	0.00000e+00	0.00000e+00	0.00000e+00	0.00000e+00	0.00000e+00	0.00000e+00	0.00000e+00	0.00000e+00	0.00000e+00	0.00000e+00	0.00000e+00	0.00000e+00	0.00000e+00	0.00000e+00	0.00000e+00	0.00000e+00	0.00000e+00	0.00000e+00	0.00000e+00	0.00000e+00	0.00000e+00	0.00000e+00	0.00000e+00	0.00000e+00	0.00000e+00	0.00000e+00	0.00000e+00	0.00000e+00	0.00000e+00	0.00000e+00	0.00000e+00	0.00000e+00	0.00000e+00	0.00000e+00	0.00000e+00	0.00000e+00	0.00000e+00	0.00000e+00	0.00000e+00	0.00000e+00	0.00000e+00	0.00000e+00	0.00000e+00	0.00000e+00	0.00000e+00	0.00000e+00	0.00000e+00	
Factor	1.00000e+00	1.00000e+00	1.00000e+00	1.00000e+00	1.00000e+00	1.00000e+00	1.00000e+00	1.00000e+00	1.00000e+00	1.00000e+00	1.00000e+00	1.00000e+00	1.00000e+00	1.00000e+00	1.00000e+00	1.00000e+00	1.00000e+00	1.00000e+00	1.00000e+00	1.00000e+00	1.00000e+00	1.00000e+00	1.00000e+00	1.00000e+00	1.00000e+00	1.00000e+00	1.00000e+00	1.00000e+00	1.00000e+00	1.00000e+00	1.00000e+00	1.00000e+00	X	X	X	X	X	X	X	X	X	X	X	X	X	X	X	X	

B = Detector Channel
Val Type	B-AC1	B-AC2	B-AC3	B-AC4	B-AC5	B-AC6	B-AC7	B-AC8	B-AC9	B-AC10	B-AC11	B-AC12	B-AC13	B-AC14	B-AC15	B-AC16	B-DC1	B-DC2	B-DC3	B-DC4	B-DC5	B-DC6	B-DC7	B-DC8	B-DC9	B-DC10	B-DC11	B-DC12	B-DC13	B-DC14	B-DC15	B-DC16	B-Ph1	B-Ph2	B-Ph3	B-Ph4	B-Ph5	B-Ph6	B-Ph7	B-Ph8	B-Ph9	B-Ph10	B-Ph11	B-Ph12	B-Ph13	B-Ph14	B-Ph15	B-Ph16	

Term	0.00000e+00	0.00000e+00	0.00000e+00	0.00000e+00	0.00000e+00	0.00000e+00	0.00000e+00	0.00000e+00	0.00000e+00	0.00000e+00	0.00000e+00	0.00000e+00	0.00000e+00	0.00000e+00	0.00000e+00	0.00000e+00	0.00000e+00	0.00000e+00	0.00000e+00	0.00000e+00	0.00000e+00	0.00000e+00	0.00000e+00	0.00000e+00	0.00000e+00	0.00000e+00	0.00000e+00	0.00000e+00	0.00000e+00	0.00000e+00	0.00000e+00	0.00000e+00	-4.82867e+01	-1.31521e+02	-1.29090e+02	-1.82778e+02	-5.00932e+01	-6.85385e+01	-1.59964e+02	-1.62015e+02	-3.45550e+01	-6.98819e+01	-1.78192e+02	-1.73211e+02	-1.80356e+02	-1.77624e+02	-4.73150e+01	-1.50550e+02	
Factor	2.03344e-05	1.89891e-04	5.74514e-05	1.58307e-01	1.90108e-06	2.09202e-06	1.94733e-01	5.79786e-02	1.52646e-06	2.11415e-06	3.21294e-01	3.10011e-02	3.06678e-02	9.11195e-03	1.92150e-06	1.28799e-02	1.37867e-05	2.61164e-05	7.30315e-06	8.26885e-02	2.52523e-07	2.92360e-07	9.52919e-02	3.04267e-02	2.52502e-07	2.89608e-07	1.62620e-01	1.57850e-02	1.63068e-02	4.82875e-03	2.67683e-07	6.59689e-03	X	X	X	X	X	X	X	X	X	X	X	X	X	X	X	X	



#DISTANCE SETTINGS
A = Detector Channel
A-1	A-2	A-3	A-4	A-5	A-6	A-7	A-8	A-9	A-10	A-11	A-12	A-13	A-14	A-15	A-16	

2.5000e+00	3.0000e+00	2.5000e+00	3.0000e+00	2.0000e+00	3.0000e+00	1.5000e+00	3.0000e+00	3.0000e+00	3.0000e+00	3.0000e+00	3.0000e+00	3.0000e+00	3.0000e+00	1.5000e+00	3.0000e+00	

B = Detector Channel
B-1	B-2	B-3	B-4	B-5	B-6	B-7	B-8	B-9	B-10	B-11	B-12	B-13	B-14	B-15	B-16	

1.0000e+01	1.0000e+01	1.0000e+01	1.4400e+00	1.0000e+01	1.0000e+01	1.5100e+00	1.9400e+00	1.0000e+01	1.0000e+01	1.9900e+00	2.4900e+00	2.4100e+00	2.9000e+00	1.0000e+01	2.9800e+00	




#DATA BEGINS
time	group	step	mark	flag	A-AC1	A-AC2	A-AC3	A-AC4	A-AC5	A-AC6	A-AC7	A-AC8	A-AC9	A-AC10	A-AC11	A-AC12	A-AC13	A-AC14	A-AC15	A-AC16	A-DC1	A-DC2	A-DC3	A-DC4	A-DC5	A-DC6	A-DC7	A-DC8	A-DC9	A-DC10	A-DC11	A-DC12	A-DC13	A-DC14	A-DC15	A-DC16	A-Ph1	A-Ph2	A-Ph3	A-Ph4	A-Ph5	A-Ph6	A-Ph7	A-Ph8	A-Ph9	A-Ph10	A-Ph11	A-Ph12	A-Ph13	A-Ph14	A-Ph15	A-Ph16	B-AC1	B-AC2	B-AC3	B-AC4	B-AC5	B-AC6	B-AC7	B-AC8	B-AC9	B-AC10	B-AC11	B-AC12	B-AC13	B-AC14	B-AC15	B-AC16	B-DC1	B-DC2	B-DC3	B-DC4	B-DC5	B-DC6	B-DC7	B-DC8	B-DC9	B-DC10	B-DC11	B-DC12	B-DC13	B-DC14	B-DC15	B-DC16	B-Ph1	B-Ph2	B-Ph3	B-Ph4	B-Ph5	B-Ph6	B-Ph7	B-Ph8	B-Ph9	B-Ph10	B-Ph11	B-Ph12	B-Ph13	B-Ph14	B-Ph15	B-Ph16	aux-1	digaux	

574.735	1	1	0	768	0.22503	0.19072	0.1123	0.066609	0.1125	0.17737	0.11132	0.1536	0.23255	0.089028	0.17939	0.22615	0.10827	0.3274	0.17735	0.39031	-2.3688	-2.7	-2.3	-3.0667	-2.5167	-2.3229	-3.15	-2.3333	-2.9083	-2.8479	-2.1854	-2.8896	-2.8208	-2.4062	-2.7896	-2.0583	492.908	413.525	241.968	468.108	186.662	355.565	479.538	196.834	306.869	364.874	499.802	477.424	377.269	194.955	390.346	489.698	0.00031113	0.00028922	0.00012193	1088.7	3.4744e-06	3.3668e-06	1198.8	233.07	3.1254e-06	2.7576e-06	297.32	85.247	66.434	19.605	3.2714e-06	27.416	0.00025155	0.0001894	5.6949e-05	1074.4	2.38e-06	2.1019e-06	1185.7	232.34	2.3125e-06	1.9464e-06	297.42	85.19	66.435	19.828	1.9853e-06	27.858	277.067	263.371	244.488	176.091	318.759	342.179	176.061	183.759	318.095	319.329	183.331	190.280	189.983	198.079	323.753	197.380	-8191	255	
574.830	1	1	0	0	0.038183	0.2615	0.1587	0.13872	0.15766	0.16922	0.10618	0.31666	0.09219	0.14384	0.15054	0.20883	0.40563	0.19246	0.24966	0.14299	-1.9458	-2.7708	-2.0312	-3.0812	-2.8917	-2.2917	-3.2167	-2.4479	-2.4938	-2.7812	-2.2021	-2.7396	-2.5062	-2.1375	-2.8354	-2.3104	460.727	255.044	233.385	199.179	222.634	260.758	406.503	497.146	448.243	371.136	415.797	373.752	193.175	281.839	447.586	318.337	0.00031243	0.00032786	0.00011844	1091.1	2.7076e-06	2.3133e-06	1199.4	235.76	3.6306e-06	3.1893e-06	300.67	84.301	66.398	19.659	3.6132e-06	27.376	0.00026083	0.00019174	5.5337e-05	1075.9	2.3437e-06	2.1178e-06	1188.5	233.11	2.303e-06	1.9349e-06	297.92	84.875	66.21	19.825	1.9496e-06	27.804	279.442	244.395	244.413	176.270	321.657	277.359	176.426	183.834	339.740	293.203	183.300	189.550	190.178	197.192	319.700	196.271	-8191	255	
574.928	1	1	0	0	0.40433	0.21855	0.082637	0.31254	0.32454	0.013897	0.36084	0.19422	0.08238	0.18035	0.1435	0.048877	0.12778	0.27204	0.010652	0.19191	-2.0792	-2.9271	-2.2042	-2.8667	-2.5792	-2.1375	-3.3	-2.6333	-2.4271	-3.0687	-2.3292	-2.8479	-2.7875	-2.1188	-2.9854	-2.4729	374.497	205.566	258.702	465.584	166.304	457.402	386.452	454.979	435.671	264.949	490.143	301.094	214.426	244.206	420.657	273.335	0.0003285	0.00033454	9.8511e-05	1086.1	3.5608e-06	1.9343e-06	1196.7	234.61	3.7757e-06	3.2404e-06	298.35	84.596	66.132	19.376	2.7397e-06	27.317	0.00026014	0.0001863	5.7071e-05	1071.5	2.3953e-06	2.1251e-06	1185.1	233.24	2.3551e-06	1.9102e-06	298.29	84.973	66.234	19.777	1.9362e-06	27.747	276.336	254.395	274.656	175.860	302.755	296.401	176.179	183.337	339.190	315.953	183.689	189.862	190.362	197.678	310.577	197.279	-8191	255	
575.024	1	1	0	0	0.29425	0.10971	0.17456	0.048829	0.17015	0.10901	0.13223	0.15482	0.035012	0.067346	0.18663	0.26597	0.15341	0.098816	0.039028	0.22061	-1.9667	-2.9188	-2.1625	-2.8812	-2.8812	-2.3833	-3.0646	-2.5896	-2.3563	-3.0687	-2.4771	-2.6333	-2.8917	-2.2313	-2.9562	-2.6146	509.273	396.443	336.865	491.125	165.449	316.214	500.292	433.344	368.808	298.051	424.189	200.099	516.258	506.794	178.935	391.346	0.0003049	0.00014241	0.00012072	1083.6	3.7424e-06	3.8634e-06	1201.8	233.75	3.1167e-06	4.7389e-06	299.37	84.759	66.264	19.577	3.9726e-06	27.573	0.00025574	0.00017335	5.4226e-05	1072.2	2.3727e-06	2.0666e-06	1186.5	233.11	2.3057e-06	1.9693e-06	298.59	84.888	66.276	19.8	2.0411e-06	27.816	275.916	268.716	257.013	175.858	298.096	316.250	176.237	183.137	312.561	299.358	183.069	190.151	190.390	197.732	305.266	196.709	-8191	255	
575.118	1	1	0	0	0.13678	0.33417	0.28813	0.27015	0.083396	0.15881	0.38307	0.24174	0.18962	0.1768	0.2103	0.1432	0.26475	0.28593	0.14345	0.20064	-1.8042	-2.825	-2.1271	-2.5563	-3.0021	-1.8542	-2.9917	-2.4979	-2.2625	-2.7417	-2.3021	-2.1917	-2.7625	-1.9813	-2.6896	-2.7313	253.891	379.333	375.465	519.771	211.772	480.364	432.622	266.483	378.975	411.469	363.281	293.090	314.588	485.466	494.125	480.215	0.00032296	0.0002893	0.00010091	1091.6	3.2959e-06	2.6997e-06	1199.5	234.69	2.9393e-06	2.598e-06	301.18	84.638	66.256	19.51	1.802e-06	27.566	0.00027068	0.00018412	5.345e-05	1076.8	2.2653e-06	2.2554e-06	1186.8	233.06	2.4182e-06	1.8517e-06	299.05	85.1	66.377	19.813	2.1063e-06	27.865	278.299	266.728	252.377	176.395	329.457	318.749	176.217	183.500	315.476	294.128	183.171	190.141	190.615	197.862	342.388	197.403	-8191	255	
575.214	1	1	0	0	0.11405	0.13406	0.085412	0.10091	0.27885	0.13124	0.272	0.10529	0.18139	0.22106	0.18942	0.1573	0.25168	0.25866	0.25085	0.1137	-1.6208	-2.9417	-2.3375	-2.5604	-2.7917	-2.2938	-2.7812	-2.7854	-2.0042	-2.7438	-2.3896	-2.1917	-2.8563	-1.9604	-2.5812	-2.7583	244.877	211.711	203.356	345.964	249.126	448.392	476.873	187.115	372.172	274.698	461.577	488.433	430.982	194.325	492.230	399.026	0.00033829	0.00033334	9.2549e-05	1087.9	3.9055e-06	2.8099e-06	1202.1	235.2	3.8825e-06	2.581e-06	301.62	84.78	66.325	19.589	3.567e-06	27.429	0.00027117	0.00016938	5.2096e-05	1075.3	2.3916e-06	2.1543e-06	1187.4	233.03	2.4945e-06	1.944e-06	299.38	85.015	66.07	19.818	2.1961e-06	27.817	277.338	238.881	242.362	176.111	321.621	323.630	176.196	183.118	342.323	296.467	183.440	189.514	190.212	197.297	322.686	196.893	-8191	255	
575.335	1	1	0	0	0.16456	0.2252	0.14112	0.23983	0.20488	0.11739	0.058197	0.14266	0.30041	0.094768	0.26577	0.16564	0.031885	0.21477	0.19526	0.039534	-1.6375	-2.7146	-2.4583	-2.4104	-2.9521	-2.4437	-2.6771	-3.0083	-2.1562	-3.0521	-2.7125	-2.4625	-3.0896	-2.2479	-2.5583	-2.9562	430.154	176.076	204.152	459.153	248.247	518.120	378.200	172.942	173.127	362.759	319.925	211.011	276.770	345.600	321.972	518.040	0.0002919	0.00032898	9.8401e-05	1090.6	4.1836e-06	4.4589e-06	1203.8	234.53	2.712e-06	3.4967e-06	298.81	84.646	66.08	19.633	4.7796e-06	27.278	0.00025221	0.00017868	5.1685e-05	1077	2.4005e-06	2.1927e-06	1189.1	233.14	2.3383e-06	2.0454e-06	297.66	84.895	66.139	19.804	2.2619e-06	27.74	278.161	249.496	253.949	176.255	318.438	323.097	176.089	183.552	319.465	315.837	183.265	190.442	190.585	197.492	317.708	196.550	-8191	255	
575.431	1	1	0	0	0.19739	0.10202	0.11986	0.11747	0.19113	0.095243	0.11007	0.19862	0.14756	0.27566	0.17143	0.14432	0.075529	0.14571	0.14635	0.037227	-1.8646	-2.9479	-2.6396	-2.3625	-2.6667	-2.3375	-2.5938	-3.0687	-2.0917	-2.8438	-2.8896	-2.2958	-2.9958	-2.6104	-2.3875	-2.8792	225.353	494.847	212.739	341.361	238.886	425.341	498.189	413.342	175.129	342.387	181.776	188.920	419.380	167.081	338.990	366.194	0.00028431	0.00025088	5.2544e-05	1090.3	3.1772e-06	3.3528e-06	1205.3	235	2.9458e-06	3.7622e-06	298.23	84.637	66.326	19.525	2.9966e-06	27.554	0.00024853	0.00017438	4.8809e-05	1076.5	2.2301e-06	2.1903e-06	1189.6	233.24	2.4177e-06	2.1196e-06	296.89	84.98	66.261	19.736	2.379e-06	27.869	280.200	251.079	282.949	176.014	313.803	318.221	175.892	183.288	326.095	298.726	182.885	190.013	190.165	197.482	297.447	196.742	-8191	255	
575.527	1	1	0	0	0.10702	0.037605	0.163	0.15902	0.092399	0.041416	0.049574	0.12748	0.1739	0.12707	0.11467	0.11017	0.14159	0.16494	0.16083	0.33642	-1.7583	-2.6458	-2.8458	-2.3771	-3.0458	-2.6646	-2.4771	-3.1042	-2.3604	-2.6417	-2.9375	-2.3063	-3.05	-2.6188	-2.2604	-2.8896	319.558	457.821	446.845	479.628	218.081	225.901	478.331	346.546	355.599	257.412	366.243	221.225	325.612	431.987	304.532	393.914	0.00031136	0.00035579	7.3924e-05	1087.4	3.3008e-06	3.0134e-06	1203.5	235.62	2.5378e-06	3.999e-06	299	84.962	66.29	19.534	2.8018e-06	27.491	0.00026154	0.0001993	4.9722e-05	1074.7	2.308e-06	2.0045e-06	1188.9	233.26	2.3041e-06	2.1733e-06	297.46	85.014	66.084	19.728	2.1621e-06	27.815	279.053	254.808	284.075	176.655	316.628	333.554	176.277	184.032	349.381	324.509	183.872	190.520	190.427	197.748	341.317	197.582	-8191	255	
575.623	1	1	0	0	0.056162	0.039163	0.050495	0.32293	0.2685	0.16381	0.13378	0.123	0.16388	0.31979	0.26582	0.257	0.20674	0.36313	0.2071	0.13126	-2.0229	-2.4667	-2.7875	-2.1396	-2.7292	-2.5917	-2.3438	-2.9583	-2.3625	-2.6417	-2.7771	-1.9229	-2.7083	-2.7083	-2.1917	-2.9688	447.723	430.011	266.587	524.524	314.404	270.853	426.990	364.027	277.286	329.863	459.605	414.515	234.414	225.196	326.926	508.449	0.0003219	0.00033839	7.5807e-05	1088.6	4.3344e-06	3.2513e-06	1199.4	234.38	2.503e-06	1.953e-06	298.33	84.006	66.309	19.508	2.1333e-06	27.392	0.00025804	0.00019255	5.2294e-05	1076.3	2.4684e-06	2.2213e-06	1187.1	233.21	2.2615e-06	2.204e-06	296.98	84.833	66.217	19.712	2.3517e-06	27.751	277.751	248.483	263.502	176.348	311.424	337.929	176.066	183.763	331.914	319.994	183.868	189.829	190.885	198.180	305.694	197.172	-8191	255	
575.720	1	1	0	0	0.44407	0.085291	0.10135	0.11284	0.10973	0.20707	0.24729	0.14463	0.25792	0.083999	0.16259	0.22894	0.098496	0.11808	0.089206	0.24988	-1.9083	-2.3646	-3.0229	-2.3979	-2.8375	-2.8125	-2.3063	-2.9792	-2.6583	-2.4667	-3.1646	-2.1417	-2.625	-2.9167	-2.1083	-2.9208	492.955	248.632	184.426	461.566	448.956	294.486	419.019	494.359	455.102	462.548	329.331	426.264	519.939	368.415	508.178	464.884	0.00033242	0.00032348	7.7414e-05	1086.2	4.4111e-06	3.3445e-06	1202.6	233.62	3.0128e-06	3.7617e-06	296.05	84.531	66.128	19.477	3.2825e-06	27.402	0.00025436	0.00021029	5.415e-05	1073.7	2.2674e-06	2.0617e-06	1186.4	232.41	2.4098e-06	2.1093e-06	296.25	84.732	65.99	19.754	2.1543e-06	27.757	278.329	239.773	263.019	176.202	309.539	316.054	176.237	183.706	315.560	313.678	183.128	190.039	190.234	197.787	339.116	196.972	-8191	255	
575.816	1	1	0	0	0.082033	0.16953	0.12745	0.20082	0.068987	0.040355	0.10614	0.28637	0.10597	0.24788	0.095474	0.17451	0.18958	0.14244	0.22255	0.20451	-2.2479	-2.375	-2.8812	-2.4875	-2.8417	-2.8396	-2.3792	-2.9458	-2.4854	-2.4167	-3.2979	-2.3604	-2.5438	-3.0646	-2.1562	-2.9688	488.820	291.995	399.994	385.503	293.696	260.816	454.214	465.385	343.392	231.228	208.756	369.929	349.836	521.416	372.825	384.719	0.00032017	0.0002027	7.2289e-05	1089.6	5.4523e-06	2.2789e-06	1197.8	234.62	3.3345e-06	3.2047e-06	299.83	84.212	66.121	19.634	4.1113e-06	27.438	0.00024885	0.000195	5.1198e-05	1074.7	2.5484e-06	2.0258e-06	1185.5	232.72	2.1999e-06	2.0948e-06	296.94	84.653	66.122	19.768	2.2837e-06	27.768	274.851	261.301	241.657	176.426	310.796	340.826	176.460	183.481	325.324	317.143	183.940	190.381	190.841	197.849	316.613	197.154	-8191	255	
575.935	1	1	0	0	0.16111	0.132	0.28395	0.31733	0.11419	0.12791	0.17322	0.19333	0.076349	0.061214	0.36824	0.28432	0.17482	0.39724	0.14909	0.22734	-2.3167	-2.3125	-2.6937	-2.5312	-2.5792	-3.0604	-2.4042	-3.0021	-2.8021	-2.1792	-3.025	-2.4333	-2.5229	-3.0417	-1.9583	-2.7125	233.501	481.866	480.967	483.538	294.082	351.486	425.013	171.013	402.000	168.878	239.924	282.087	349.061	351.201	367.624	280.881	0.00030506	0.00021197	0.00010672	1088.6	3.5778e-06	3.1751e-06	1203.9	235.17	3.8906e-06	3.2684e-06	299.77	84.55	66.171	19.517	3.4909e-06	27.302	0.00025278	0.00018826	4.5766e-05	1074.8	2.3742e-06	1.9497e-06	1188.5	233.28	2.312e-06	2.2698e-06	297.52	84.875	66.127	19.798	2.1749e-06	27.754	276.428	261.165	243.864	176.225	324.422	297.941	176.372	183.763	315.804	306.785	183.359	190.482	190.811	197.874	323.020	197.266	-8191	255	
576.031	1	1	0	0	0.052267	0.085096	0.23697	0.24184	0.19724	0.16805	0.27609	0.14284	0.073447	0.22153	0.14972	0.29273	0.051503	0.06687	0.13046	0.19836	-2.3958	-2.2104	-2.8042	-2.4458	-2.0667	-2.8604	-2.3854	-2.5729	-2.6708	-2.2396	-2.9542	-2.7146	-2.2479	-3	-2.2917	-2.5833	423.651	482.684	385.621	479.036	372.558	435.238	484.635	441.681	471.116	284.926	275.577	459.024	334.439	462.828	474.731	471.374	0.00030673	0.00033606	8.3365e-05	1089.8	2.2151e-06	1.945e-06	1204.7	233.94	2.2556e-06	2.8336e-06	296.88	85.022	66.039	19.488	3.8837e-06	27.344	0.00025301	0.0002104	4.8323e-05	1076.4	2.4942e-06	2.1147e-06	1188.4	232.8	2.3141e-06	2.2071e-06	296.83	84.995	66.215	19.824	2.2313e-06	27.839	274.065	254.143	248.584	176.151	306.520	351.161	176.347	183.770	323.775	314.019	183.360	190.179	190.489	197.622	342.297	197.199	-8191	255	
576.127	1	1	0	0	0.13821	0.10758	0.094697	0.32133	0.041802	0.046297	0.17862	0.45432	0.2291	0.15559	0.31052	0.22261	0.11938	0.10636	0.077876	0.048062	-2.3729	-1.9271	-2.6792	-2.6083	-2.1583	-2.975	-2.5312	-2.5917	-3.1167	-2.2938	-2.8167	-2.7146	-2.3167	-2.9854	-2.3917	-2.1833	198.851	213.364	380.894	467.490	227.070	401.583	500.852	488.655	189.740	502.700	199.956	520.525	376.407	220.581	347.796	480.702	0.00030883	0.00016764	7.8537e-05	1092.1	3.4976e-06	1.7243e-06	1201.6	234.36	3.2764e-06	4.2263e-06	300.81	84.367	66.061	19.604	2.8533e-06	27.286	0.00024905	0.00020463	5.2872e-05	1075.3	2.5205e-06	1.9144e-06	1188.1	233.02	2.2115e-06	2.23e-06	298.32	84.932	66.162	19.8	2.3578e-06	27.754	275.445	257.334	273.880	176.210	310.656	289.569	176.297	183.429	329.449	328.810	182.894	190.094	190.507	197.358	294.605	197.301	-8191	255	
576.223	1	1	0	0	0.18563	0.20424	0.16165	0.59675	0.15347	0.14409	0.2109	0.26488	0.034625	0.064687	0.062404	0.11627	0.13409	0.28628	0.1319	0.18621	-2.2896	-2.1562	-2.6854	-2.8688	-2.2125	-3.0875	-2.5271	-2.5604	-3.0354	-2.1937	-2.725	-2.6521	-2.1354	-3.1208	-2.5146	-2.4167	391.985	414.322	270.297	523.959	222.020	307.423	496.619	476.350	241.464	464.922	218.748	493.539	288.945	378.701	328.964	449.458	0.00031465	0.00037141	0.00011508	1089.6	2.8971e-06	5.27e-06	1201.6	233.88	4.0803e-06	1.2041e-06	300.17	83.96	66.102	19.679	2.1292e-06	27.406	0.00024845	0.0001863	4.6679e-05	1076.2	2.41e-06	1.9302e-06	1187.7	232.74	2.1468e-06	2.2215e-06	297.98	84.78	66.214	19.849	2.1521e-06	27.786	277.255	261.901	259.856	176.174	337.166	325.676	176.184	183.627	319.536	340.829	183.367	190.091	190.534	197.670	332.908	196.665	-8191	255	
576.295	1	1	0	0	0.28307	0.066555	0.26656	0.12971	0.080811	0.11323	0.24676	0.18225	0.097385	0.35147	0.14457	0.068658	0.25582	0.16939	0.25097	0.2341	-2.4417	-2.0917	-2.7229	-2.9792	-2.0938	-2.9562	-2.5958	-2.3417	-2.9542	-2.3125	-2.8354	-2.8042	-1.95	-2.8104	-2.6688	-2.1917	428.234	196.509	487.105	492.432	181.620	336.404	201.973	220.296	382.062	260.827	521.646	201.783	250.000	182.099	371.678	250.405	0.00032137	0.00026455	0.00012785	1088.2	3.059e-06	2.2987e-06	1202	235.38	1.5742e-06	3.1034e-06	296.82	84.25	65.631	19.379	3.2357e-06	27.142	0.00025396	0.0002055	5.3754e-05	1075.1	2.4695e-06	1.9533e-06	1188.5	233	2.0916e-06	2.0629e-06	296.76	84.655	66.055	19.771	2.069e-06	27.659	275.631	263.896	259.392	175.978	308.468	346.493	176.092	183.244	325.953	337.962	182.963	189.814	190.271	197.502	331.290	196.675	-8191	255	
576.415	1	1	0	0	0.38355	0.1351	0.081268	0.28636	0.0588	0.082264	0.17519	0.1865	0.22639	0.24366	0.1258	0.2025	0.31702	0.23848	0.3194	0.13852	-2.6625	-2.0917	-2.5	-3.0625	-2.2417	-2.8333	-2.7875	-2.2458	-2.9125	-2.4708	-2.3688	-2.7958	-2.1229	-2.7729	-2.7708	-2.1146	197.774	510.664	308.922	401.646	344.354	278.681	457.681	410.153	177.096	476.620	223.148	175.901	519.487	481.256	203.142	361.883	0.00033301	0.00030423	0.00010685	1089.3	4.0365e-06	5.0706e-06	1201	233.11	3.2121e-06	1.8442e-06	300.07	84.115	66.114	19.391	2.9073e-06	27.167	0.00025304	0.00019424	5.345e-05	1075	2.5068e-06	2.1434e-06	1187.1	232.28	2.1384e-06	1.8233e-06	297.73	84.857	65.921	19.727	2.0896e-06	27.682	277.044	264.595	252.711	175.947	312.655	325.617	175.945	183.841	317.852	310.625	183.465	190.300	190.527	197.750	322.277	197.330	-8191	255	
576.512	1	1	0	0	0.065736	0.072484	0.17243	0.26025	0.06983	0.19756	0.19181	0.31036	0.25511	0.18219	0.16918	0.058793	0.12872	0.20573	0.12555	0.17048	-2.4667	-2.2375	-2.5667	-3.0687	-2.1917	-2.5687	-2.9813	-2.0812	-3.0042	-2.5521	-2.3979	-2.9375	-2.3396	-2.65	-2.9062	-2.1542	340.949	412.031	291.911	496.800	476.489	308.860	415.023	394.206	327.417	236.738	361.638	287.698	168.343	478.338	300.294	451.592	0.00030447	0.00024065	8.0142e-05	1085.8	1.8198e-06	2.5277e-06	1199	233.65	3.0376e-06	3.9139e-06	297.64	84.012	66.078	19.527	3.1016e-06	27.334	0.00025264	0.00018717	5.2978e-05	1074.1	2.2569e-06	2.013e-06	1185.5	232.53	2.1284e-06	2.0665e-06	297.22	84.416	66.082	19.765	2.0863e-06	27.791	278.814	266.074	268.860	176.316	327.005	302.768	176.419	183.913	318.913	338.828	183.512	190.083	190.651	198.051	313.006	197.135	-8191	255	
576.608	1	1	0	0	0.19012	0.043526	0.16769	0.26135	0.096407	0.28507	0.029841	0.15416	0.23452	0.002634	0.16353	0.14674	0.034706	0.073356	0.12159	0.34257	-2.4188	-2.4333	-2.2313	-3.1146	-2.375	-2.6229	-2.9729	-2.2833	-2.825	-2.6208	-2.225	-2.8833	-2.2062	-2.4896	-2.7188	-2.1813	219.068	420.888	322.321	509.722	251.434	353.449	270.010	178.910	311.548	209.114	496.297	442.975	505.422	268.218	386.534	222.719	0.00031824	0.00027285	9.0185e-05	1088.1	2.8522e-06	2.2225e-06	1197.4	233.14	3.1577e-06	3.2551e-06	298.38	84.725	65.923	19.516	3.3538e-06	27.289	0.00025623	0.00018385	5.6219e-05	1073.8	2.4979e-06	2.0404e-06	1186	231.77	2.1237e-06	2.1166e-06	297.33	84.853	65.845	19.754	2.1325e-06	27.684	277.083	251.262	220.311	176.486	322.531	281.734	176.530	183.735	332.269	311.272	182.724	190.341	191.059	198.142	325.663	197.466	-8191	255	
576.728	1	1	0	0	0.12405	0.099656	0.41838	0.080283	0.090927	0.061318	0.22001	0.17089	0.18509	0.13035	0.19124	0.052933	0.065998	0.12293	0.18237	0.20623	-2.4521	-2.675	-2.2333	-3.2958	-2.4208	-2.4771	-3.1083	-2.0312	-2.6146	-2.5521	-2.1333	-3.1458	-2.3458	-2.4271	-3.0729	-2.2687	335.156	377.713	194.238	433.348	446.087	434.134	193.171	427.284	413.199	179.164	413.196	519.773	203.880	379.335	457.521	301.081	0.0003216	0.00017982	8.8176e-05	1089.5	4.1435e-06	3.0325e-06	1198.8	233.84	3.3531e-06	3.0272e-06	298.25	84.466	65.923	19.533	4.7093e-06	27.503	0.00024621	0.00017384	5.6767e-05	1074.4	2.5305e-06	2.041e-06	1187.7	232.44	2.312e-06	1.9983e-06	296.2	84.608	65.955	19.797	1.9496e-06	27.742	279.132	259.204	257.909	176.687	310.128	325.781	176.711	184.186	314.159	309.259	183.737	190.420	191.287	198.114	343.449	197.740	-8191	255	
576.823	1	1	0	0	0.032748	0.17604	0.14687	0.32446	0.20372	0.25269	0.23044	0.34052	0.11515	0.086771	0.069937	0.19092	0.11633	0.12209	0.026729	0.083194	-2.2208	-2.8438	-2.2021	-3.0125	-2.2812	-2.2354	-3.0667	-2.0917	-2.6083	-2.7938	-2.1646	-2.8542	-2.4313	-2.1375	-2.8333	-2.2083	468.776	401.046	264.186	457.485	468.893	245.094	434.946	208.414	356.872	201.787	518.926	337.045	205.675	478.273	233.624	375.079	0.00031259	0.00028977	9.042e-05	1083.1	4.091e-06	2.2933e-06	1206.6	233.7	3.6504e-06	3.9752e-06	295.47	84.302	66.281	19.483	2.469e-06	27.366	0.00025215	0.00016687	6.089e-05	1073.6	2.3585e-06	2.0544e-06	1190.5	232.31	2.3772e-06	2.0224e-06	296.44	84.706	66.061	19.776	2.1348e-06	27.73	278.970	257.350	224.945	175.987	325.578	331.765	176.258	183.449	326.806	328.639	182.927	190.361	191.089	198.273	339.587	197.494	-8191	255	
576.896	1	1	0	0	0.10448	0.067809	0.16484	0.39466	0.14666	0.089963	0.1308	0.13024	0.14511	0.092853	0.09024	0.088378	0.13006	0.12936	0.11401	0.097604	-2.0771	-2.6833	-2.0833	-2.875	-2.3771	-2.2021	-3.1083	-2.4229	-2.4	-3.0042	-2.1521	-2.8833	-2.8708	-2.2604	-2.9083	-2.2812	284.011	382.984	310.424	484.423	407.016	293.816	494.741	368.680	381.058	327.252	481.130	469.214	257.607	320.031	371.647	174.289	0.00032074	0.00035124	8.8713e-05	1086.1	3.5275e-06	2.201e-06	1201.3	232.89	2.8509e-06	3.3099e-06	296.35	84.207	66.132	19.506	4.0033e-06	27.425	0.00026511	0.00018869	5.345e-05	1073.9	2.4805e-06	2.1306e-06	1189.5	231.42	2.3909e-06	1.9096e-06	295.86	84.662	65.979	19.752	2.04e-06	27.793	276.906	277.232	250.644	176.863	300.944	338.960	176.635	183.900	312.638	322.346	183.669	190.690	191.663	198.349	339.818	197.492	-8191	255	
577.015	1	1	0	0	0.24328	0.14973	0.22577	0.23007	0.072472	0.11323	0.22005	0.12212	0.076246	0.095547	0.12451	0.13911	0.2446	0.16437	0.1946	0.060612	-2	-2.7083	-2.2188	-2.9083	-2.825	-2.0563	-3.1354	-2.5104	-2.5021	-3.0938	-2.15	-2.7542	-2.7938	-2.1896	-2.6208	-2.7125	218.198	413.187	213.342	416.162	266.532	514.042	176.916	440.272	455.755	381.393	358.856	492.188	465.864	476.389	500.946	397.426	0.00030597	0.00039147	0.00010313	1086.6	3.054e-06	3.4733e-06	1200.3	233.3	3.3364e-06	3.2559e-06	296.54	84.754	65.984	19.406	2.9545e-06	27.437	0.00024902	0.00017705	5.4515e-05	1075.5	2.3353e-06	1.9893e-06	1186.8	231.74	2.2857e-06	1.9476e-06	296.84	85.041	65.983	19.713	2.0902e-06	27.781	277.261	254.043	281.422	177.094	321.989	332.045	176.452	184.046	311.994	307.727	183.242	190.172	190.815	197.919	325.172	197.120	-8191	255	
577.111	1	1	0	0	0.10728	0.27899	0.11973	0.25195	0.077252	0.14206	0.21068	0.20201	0.18787	0.38644	0.2147	0.32883	0.25254	0.207	0.04024	0.022776	-1.8375	-2.7042	-2.2875	-2.7438	-2.9042	-2.2083	-3.0062	-2.6708	-2.3354	-3.0563	-2.2729	-2.4854	-2.8104	-2.1625	-2.8167	-2.6604	437.286	335.006	269.948	434.939	450.789	471.867	223.821	520.417	457.895	492.891	352.090	524.910	199.860	339.894	410.239	406.107	0.00029835	0.0002635	8.6781e-05	1086.4	5.1071e-06	4.2711e-06	1196.9	233.64	4.4338e-06	4.1073e-06	296.82	83.655	65.946	19.41	3.0609e-06	27.251	0.00025666	0.00017362	5.5276e-05	1075.4	2.3853e-06	2.2299e-06	1186.1	231.96	2.444e-06	1.8203e-06	296.27	84.599	65.869	19.715	1.8565e-06	27.674	279.334	242.076	250.879	176.705	326.752	331.633	177.124	184.183	330.987	308.675	183.670	190.864	190.791	198.478	330.578	197.383	-8191	255	
577.207	1	1	0	0	0.28234	0.29887	0.25912	0.053504	0.11615	0.15709	0.069237	0.15304	0.37279	0.15834	0.25822	0.0091253	0.037603	0.032278	0.16788	0.067154	-1.8521	-2.9333	-2.2125	-2.5938	-2.85	-2.3583	-3.0542	-2.7646	-2.2021	-2.9188	-2.2708	-2.3	-3.0604	-2.2354	-2.5271	-2.7313	232.628	233.633	200.383	468.367	503.048	243.144	257.392	451.043	502.628	519.552	447.757	297.778	486.016	240.651	297.944	174.535	0.00030008	0.00030542	8.7806e-05	1090.1	2.6305e-06	2.591e-06	1201.3	233.32	2.5666e-06	2.591e-06	299.51	84.753	65.833	19.545	2.9975e-06	27.329	0.00025109	0.00017422	5.3267e-05	1074.2	2.3332e-06	1.957e-06	1186.3	231.91	2.2215e-06	1.8294e-06	297.3	84.957	65.932	19.723	2.0584e-06	27.674	275.177	272.788	239.906	177.006	347.882	294.444	176.651	184.000	317.290	318.435	182.661	190.081	190.134	197.906	336.704	196.563	-8191	255	
577.328	1	1	0	0	0.20172	0.19939	0.058157	0.1105	0.08794	0.086275	0.26095	0.20302	0.40259	0.078744	0.13105	0.15247	0.16634	0.24705	0.19138	0.11325	-1.5688	-2.6937	-2.3458	-2.1708	-2.8958	-1.9438	-2.7792	-2.7667	-1.9125	-2.9167	-2.5417	-2.3708	-2.9542	-2.4229	-2.7146	-2.7229	452.125	464.346	514.369	210.790	237.204	517.355	436.791	406.373	430.239	406.678	272.397	410.912	495.518	510.268	166.976	274.110	0.00031918	0.00022144	8.5429e-05	1088.7	4.7245e-06	3.1642e-06	1201.1	232.81	2.5638e-06	1.7656e-06	297.95	83.985	65.656	19.242	1.0796e-06	27.216	0.00025459	0.0001685	5.5276e-05	1074.8	2.4105e-06	2.1616e-06	1186.5	231.46	2.3883e-06	1.9054e-06	296.71	84.518	65.873	19.642	2.0545e-06	27.629	274.837	238.421	241.271	176.492	303.211	283.383	176.061	183.264	329.979	297.070	183.050	190.010	190.456	197.535	314.815	196.719	-8191	255	
577.424	1	1	0	0	0.1501	0.1866	0.17001	0.28346	0.16186	0.12616	0.31066	0.23366	0.13351	0.18726	0.19065	0.21528	0.11096	0.19098	0.21003	0.038517	-1.6646	-2.9437	-2.4604	-2.4188	-2.8812	-2.2562	-2.5604	-3.0042	-2.1333	-3.0479	-2.6542	-2.3375	-3.0438	-2.2812	-2.4083	-2.8104	182.391	187.240	502.372	188.675	308.663	441.849	446.486	284.018	368.764	337.595	252.359	168.480	408.987	176.178	249.292	194.991	0.00029884	0.00017997	0.00013111	1080.6	4.1981e-06	3.2422e-06	1197.9	233.36	4.0546e-06	3.804e-06	296.84	84.019	65.704	19.543	3.8181e-06	27.284	0.00024848	0.00018276	4.957e-05	1071	2.2227e-06	2.1281e-06	1184.8	231.76	2.3709e-06	1.9724e-06	296.61	84.373	65.876	19.676	2.2898e-06	27.661	273.631	253.950	243.199	175.844	301.608	327.737	175.935	182.985	330.737	315.062	183.295	189.799	190.294	197.294	334.381	196.944	-8191	255	
577.520	1	1	0	0	0.29642	0.081298	0.21262	0.21653	0.26692	0.31686	0.13208	0.12116	0.1125	0.0037608	0.27389	0.252	0.28475	0.12327	0.085375	0.097069	-1.6875	-2.6542	-2.5604	-2.2229	-2.7979	-2.2479	-2.475	-3.0271	-2.0417	-2.7271	-2.7938	-2.3937	-3.1729	-2.4104	-2.4167	-2.9792	444.655	466.316	299.490	502.089	200.144	180.359	484.880	442.475	292.945	442.659	310.494	174.635	180.532	296.829	400.587	383.412	0.00032035	0.00025718	6.5835e-05	1087.4	4.7656e-06	3.3351e-06	1195.7	233.29	2.2948e-06	2.4728e-06	297.7	83.767	65.963	19.379	2.6479e-06	27.267	0.00025919	0.00018222	5.1457e-05	1074	2.4032e-06	2.0106e-06	1184.4	232.01	2.3998e-06	2.0508e-06	297.54	84.618	65.874	19.678	2.0054e-06	27.718	276.853	253.887	249.938	176.016	316.834	322.960	175.927	183.234	344.436	314.427	183.077	189.958	190.111	197.734	309.958	197.193	-8191	255	
577.592	1	1	0	0	0.10441	0.13197	0.19265	0.056046	0.034751	0.097607	0.37567	0.20133	0.076308	0.20618	0.03771	0.37328	0.26264	0.03792	0.26105	0.07946	-1.7521	-2.4188	-2.6771	-2.2146	-2.7896	-2.4292	-2.4417	-3.0125	-2.3979	-2.5646	-2.8958	-2.1625	-2.9562	-2.4562	-2.2271	-2.9875	247.281	442.149	334.624	514.497	321.067	457.678	469.631	369.970	314.148	416.236	249.172	331.823	328.879	306.748	394.660	361.767	0.00029782	0.00022953	8.3999e-05	1085.4	2.8836e-06	2.5971e-06	1196.2	233.02	3.4547e-06	4.5676e-06	296.85	83.955	66.143	19.364	1.6692e-06	27.278	0.0002552	0.00019125	5.2476e-05	1073	2.2317e-06	1.8839e-06	1184.5	231.69	2.2541e-06	2.0375e-06	296.22	84.419	66.129	19.656	2.045e-06	27.654	277.802	233.497	272.823	175.954	313.123	303.511	176.110	183.450	315.364	318.808	183.611	190.060	190.336	197.217	316.336	197.037	-8191	255	
577.711	1	1	0	0	0.083967	0.066675	0.32312	0.15866	0.23754	0.22835	0.31593	0.29296	0.13521	0.16974	0.099658	0.34476	0.25927	0.11574	0.23729	0.15271	-1.6938	-2.3958	-2.7333	-2.525	-2.5375	-2.5021	-2.3521	-3.0312	-2.4292	-2.4917	-2.9	-2.4458	-2.8708	-2.7042	-2.3979	-3.0646	268.940	189.332	489.220	454.551	176.925	241.301	523.121	492.246	168.442	311.494	509.160	444.111	315.358	166.615	377.350	301.156	0.00029239	0.00035833	4.7307e-05	1084.3	3.0126e-06	2.5622e-06	1195.2	233.13	2.8438e-06	2.1643e-06	294.2	84.435	65.605	19.581	2.3356e-06	27.373	0.00024871	0.00019658	4.7394e-05	1071.8	2.4132e-06	2.1269e-06	1184	231.5	2.2904e-06	1.9929e-06	295.57	84.665	65.995	19.731	2.0372e-06	27.682	275.388	262.140	256.711	175.589	330.373	313.251	175.590	183.028	344.898	299.460	183.284	189.712	190.339	197.062	305.381	196.826	-8191	255	
577.809	1	1	0	0	0.10998	0.16137	0.16849	0.12854	0.1486	0.069045	0.0832	0.063496	0.32625	0.1274	0.075339	0.10818	0.21003	0.053128	0.22565	0.10702	-1.8396	-2.3167	-2.8375	-2.2354	-2.7729	-2.8583	-2.3812	-2.9188	-2.2708	-2.1875	-2.8646	-2.2792	-2.4813	-2.9062	-2.1229	-2.9688	215.806	325.682	446.121	426.847	226.464	187.580	399.265	504.600	439.560	309.209	352.470	183.612	517.483	467.726	383.691	516.774	0.00031246	0.00033374	6.2419e-05	1085.3	4.0011e-06	2.9923e-06	1197.4	232.47	2.9402e-06	2.9171e-06	295.12	84.263	65.6	19.357	2.4394e-06	27.578	0.00025721	0.00019413	5.2598e-05	1071	2.4074e-06	2.0691e-06	1184.6	231.51	2.1705e-06	2.1208e-06	295.05	84.635	65.964	19.669	2.2552e-06	27.78	277.087	256.890	274.435	175.740	303.257	313.122	175.910	183.430	327.226	310.687	182.367	189.682	190.319	197.519	295.469	197.254	-8191	255	
577.903	1	1	0	0	0.28074	0.18527	0.15757	0.32935	0.30714	0.32518	0.092846	0.029532	0.089865	0.1309	0.15253	0.061179	0.090893	0.29639	0.19406	0.03758	-2.3042	-2.3229	-2.9875	-2.3812	-2.5917	-2.7313	-2.4333	-2.7	-2.5771	-1.9979	-2.9437	-2.2417	-2.275	-2.8042	-1.9375	-2.6229	177.469	218.382	285.874	479.070	475.999	286.284	484.236	197.413	406.874	231.289	182.714	378.941	196.992	497.965	240.570	522.020	0.00029007	0.0002769	9.9387e-05	1086	3.87e-06	3.5343e-06	1195.7	232.83	3.7283e-06	3.0866e-06	295.69	84.003	65.813	19.567	3.1856e-06	27.318	0.00024621	0.00019212	4.5371e-05	1073	2.3979e-06	1.8705e-06	1184.9	231.62	2.3136e-06	2.0918e-06	296.07	84.629	65.875	19.71	2.1521e-06	27.702	279.496	251.652	256.506	176.290	320.869	319.919	176.521	183.666	333.082	318.320	183.004	190.069	190.219	197.463	325.568	196.983	-8191	255	
577.999	1	1	0	0	0.18796	0.19948	0.20378	0.28094	0.1641	0.028651	0.24376	0.11669	0.15235	0.13915	0.17215	0.12954	0.1556	0.13072	0.065174	0.075703	-2.0187	-2.1271	-2.8458	-2.4354	-2.2562	-2.9521	-2.1104	-2.8125	-2.7188	-2.1292	-2.6896	-2.35	-2.225	-3.0396	-2.2229	-2.6625	182.265	336.865	173.137	447.709	365.211	489.247	466.012	174.476	332.996	285.509	257.750	407.325	410.667	414.259	485.390	451.443	0.00031498	0.00018098	0.00016125	1084.9	3.3923e-06	3.0189e-06	1196.1	232.57	2.9696e-06	2.1812e-06	298.84	84.618	65.959	19.393	2.6779e-06	27.324	0.00024891	0.00019348	5.0955e-05	1070.8	2.4474e-06	1.6744e-06	1185.5	231.56	2.0347e-06	2.119e-06	296.07	84.575	65.847	19.699	2.035e-06	27.636	275.366	259.771	262.915	176.183	324.201	340.785	176.084	183.945	329.917	293.897	183.680	190.359	190.463	198.466	333.289	196.994	-8191	255	
578.120	1	1	0	0	0.18758	0.21257	0.33461	0.24965	0.30775	0.34353	0.14601	0.15243	0.22257	0.059061	0.17597	0.3049	0.13149	0.050685	0.058734	0.029321	-2.5021	-2.4333	-2.8333	-2.6917	-2.3688	-2.9875	-2.4458	-2.7333	-2.8354	-2.0667	-2.8583	-2.5438	-2.2313	-2.8958	-2.2104	-2.4625	521.457	511.090	510.099	512.417	511.203	295.476	475.632	173.595	356.576	204.872	387.749	493.030	422.501	381.916	176.053	348.611	0.0003055	0.0002282	0.00013362	1086.1	4.3495e-06	3.2637e-06	1196.9	232.95	2.4065e-06	2.5923e-06	298.15	84.043	65.99	19.52	3.0495e-06	27.359	0.00024069	0.00018728	5.0377e-05	1072.1	2.4005e-06	1.7621e-06	1183.2	232.15	2.1242e-06	2.0707e-06	296.23	84.656	66.126	19.731	1.9959e-06	27.709	274.928	236.274	252.247	176.261	322.852	324.732	176.273	183.793	330.088	298.875	183.919	190.371	190.478	197.643	315.347	197.312	-8191	255	
578.192	1	1	0	0	0.11891	0.19686	0.043653	0.06175	0.26956	0.23825	0.17275	0.060214	0.15098	0.058532	0.097917	0.30687	0.086751	0.21083	0.048378	0.10737	-2.5	-2.2333	-2.8917	-2.5708	-2.2354	-3.0833	-2.5396	-2.6312	-2.9917	-2.3063	-2.8583	-2.6271	-2.2979	-3.2146	-2.45	-2.5083	275.364	313.336	181.206	506.525	313.724	370.987	176.233	269.429	506.038	434.273	438.881	515.981	369.840	491.535	179.511	201.060	0.00031316	0.00035779	9.45e-05	1087.4	2.3391e-06	3.3101e-06	1203.2	234.35	3.5103e-06	4.1734e-06	297.86	84.274	66.022	19.572	2.3869e-06	27.279	0.00023345	0.00019326	4.7136e-05	1073.8	2.3243e-06	1.9369e-06	1187	232.63	2.1073e-06	2.0532e-06	297.05	84.627	65.985	19.76	1.8375e-06	27.687	276.955	247.801	261.124	175.891	303.428	335.514	176.429	183.530	344.132	319.630	183.103	189.854	190.169	197.940	333.981	197.495	-8191	255	
578.288	1	1	0	0	0.2024	0.14938	0.15906	0.28296	0.073003	0.092129	0.064195	0.15836	0.15051	0.18239	0.20259	0.14444	0.19225	0.079115	0.20906	0.095403	-2.65	-2.3187	-2.8042	-2.8271	-2.2396	-2.8229	-2.4917	-2.3958	-2.8625	-2.2542	-2.7188	-2.8771	-2.0438	-2.9375	-2.5187	-2.2708	310.180	400.757	516.030	179.404	258.710	398.826	439.640	438.360	398.654	200.063	418.244	479.484	409.448	171.882	252.416	473.011	0.0002959	0.00026977	0.0001072	1084.9	3.761e-06	2.6171e-06	1199.9	233.4	3.4763e-06	2.9363e-06	295.71	84.218	65.677	19.594	4.0891e-06	27.362	0.00023541	0.00018951	5.3541e-05	1074.8	2.43e-06	1.8742e-06	1187.3	232.07	2.1215e-06	2.0435e-06	296.05	84.669	65.823	19.769	2.2418e-06	27.753	274.861	248.364	241.616	175.740	304.671	321.214	175.900	183.684	324.817	324.841	182.888	189.985	190.283	197.788	335.914	197.157	-8191	255	
578.408	1	1	0	0	0.19356	0.021616	0.20215	0.16358	0.25391	0.31464	0.33206	0.1758	0.078825	0.091861	0.084069	0.16503	0.012669	0.18867	0.029161	0.15736	-2.6833	-2.1417	-2.4917	-2.8854	-2.1437	-2.8104	-2.5104	-2.1646	-2.9479	-2.1479	-2.2979	-2.7771	-2.2979	-2.7625	-2.6	-2.25	256.627	457.428	454.866	518.167	203.389	426.996	489.438	225.064	483.247	243.267	168.263	221.889	339.127	474.344	340.214	286.231	0.00030616	0.00037431	9.8952e-05	1087.3	4.338e-06	3.787e-06	1198.3	232.88	3.1217e-06	1.695e-06	297.23	84.369	65.774	19.468	3.6936e-06	27.269	0.00023759	0.00020115	5.2446e-05	1073.8	2.5305e-06	1.9643e-06	1183.8	231.65	2.2157e-06	1.985e-06	296.29	84.663	65.811	19.701	2.0305e-06	27.683	278.997	231.054	278.293	175.873	312.629	311.226	176.169	183.359	318.176	306.447	183.259	189.960	190.161	197.744	325.399	196.964	-8191	255	
578.504	1	1	0	0	0.20817	0.15187	0.16824	0.17592	0.27712	0.11248	0.059532	0.22435	0.22159	0.16417	0.10497	0.33172	0.23196	0.20332	0.11423	0.11149	-2.8042	-2.3646	-2.3979	-3.0958	-2.0333	-2.6375	-2.8563	-2.3479	-3.1063	-2.3417	-2.4271	-3.0396	-2.2604	-2.6979	-2.6562	-2.1021	243.682	265.020	256.153	460.377	307.460	252.292	518.482	349.895	231.222	270.050	182.688	479.199	460.839	238.918	404.245	383.229	0.00030519	0.00029875	6.6659e-05	1088.3	3.9232e-06	3.9149e-06	1200.1	233.28	2.5243e-06	3.1952e-06	297.5	84.644	65.864	19.428	3.8668e-06	27.295	0.00023081	0.00018456	5.2552e-05	1072.8	2.4847e-06	1.9101e-06	1183.7	231.9	2.2026e-06	2.0188e-06	297.21	84.591	66.059	19.714	1.8766e-06	27.68	276.819	254.033	271.141	175.821	287.868	318.736	176.137	183.795	339.100	298.852	183.063	190.103	190.457	197.929	317.128	197.187	-8191	255	
578.601	1	1	0	0	0.13494	0.14235	0.15354	0.11427	0.28312	0.011055	0.21909	0.31438	0.27453	0.1267	0.13958	0.097356	0.22213	0.23556	0.19414	0.27299	-2.325	-2.3396	-2.3104	-2.9521	-2.2104	-2.6125	-2.9938	-2.2188	-2.8375	-2.6792	-2.3563	-3.0979	-2.5354	-2.6375	-3.0125	-2.1167	403.378	416.391	367.819	221.359	283.772	324.234	170.956	366.616	202.048	458.797	300.511	503.900	363.499	168.927	493.159	432.842	0.00029348	0.00023079	6.6473e-05	1089.3	2.2071e-06	3.0227e-06	1198.7	233.12	3.8151e-06	3.6364e-06	297.83	84.127	65.741	19.421	4.5027e-06	27.008	0.00023337	0.00019576	5.4652e-05	1072.1	2.3274e-06	1.9966e-06	1184.7	231.34	2.1731e-06	1.7817e-06	296.13	84.546	65.764	19.677	2.0612e-06	27.651	276.910	224.009	278.233	176.289	325.010	306.110	176.155	183.758	304.983	312.565	183.774	190.032	190.438	198.023	332.148	197.051	-8191	255	
578.697	1	1	0	0	0.15137	0.22736	0.13902	0.072846	0.076638	0.13834	0.18443	0.087392	0.30405	0.13024	0.20928	0.23967	0.15965	0.11828	0.089825	0.13907	-2.4562	-2.5271	-2.3146	-3.0604	-2.2583	-2.5625	-3.1896	-2.4417	-2.9396	-2.6917	-2.2875	-3.0979	-2.4771	-2.5667	-2.9688	-2.3583	303.208	188.019	401.634	255.715	199.464	296.626	498.144	167.040	369.025	322.400	508.590	181.196	281.905	441.330	439.721	243.612	0.00031508	0.00027027	7.4452e-05	1084.1	4.2021e-06	2.8203e-06	1197.7	232.99	3.2303e-06	3.8099e-06	297.81	83.282	65.966	19.283	2.0284e-06	27.351	0.00024759	0.00018303	4.9753e-05	1071.6	2.3679e-06	1.9503e-06	1184.7	231.58	2.1373e-06	1.7642e-06	296.68	84.32	65.767	19.67	1.9585e-06	27.703	280.346	257.191	263.964	176.411	307.674	323.332	175.992	183.547	324.218	315.078	183.274	190.131	190.368	197.719	347.473	197.041	-8191	255	
578.793	1	1	0	0	0.10006	0.036822	0.17321	0.22207	0.16125	0.095496	0.11111	0.19785	0.2198	0.24883	0.059443	0.070172	0.087617	0.12513	0.048272	0.18411	-2.3604	-2.7375	-2.2188	-2.9917	-2.4188	-2.2958	-3.1	-2.3688	-2.7979	-2.8625	-2.2188	-3.075	-2.5625	-2.3312	-2.7812	-2.2792	183.009	218.023	481.304	479.360	414.350	394.288	258.179	392.075	372.816	290.883	431.379	332.428	173.962	319.485	418.178	418.735	0.00030902	0.00037572	0.00010306	1082.4	2.2592e-06	1.8308e-06	1198.3	233.39	2.9224e-06	2.9654e-06	296.95	83.813	65.692	19.446	3.5377e-06	27.14	0.0002454	0.00017623	5.2948e-05	1070.9	2.3048e-06	2.0825e-06	1183.6	231.76	2.0937e-06	1.845e-06	295.92	84.513	65.791	19.669	2.0461e-06	27.707	277.874	238.884	259.933	176.170	307.385	305.358	176.034	183.541	316.238	311.582	182.858	190.007	190.245	197.752	325.069	196.975	-8191	255	
578.889	1	1	0	0	0.16935	0.25428	0.28033	0.31245	0.10672	0.12207	0.10536	0.16022	0.15976	0.18182	0.060885	0.114	0.13619	0.15787	0.015395	0.13586	-2.1646	-2.9062	-2.125	-3.1	-2.5833	-2.2625	-3.1625	-2.3375	-2.4792	-2.7083	-2.3208	-2.9188	-2.5979	-2.2375	-2.8979	-2.3417	197.306	437.069	408.849	484.115	193.408	501.580	477.339	387.810	267.087	233.858	340.795	210.140	486.596	449.078	352.371	360.774	0.00033359	0.00019285	0.00011441	1088	2.8009e-06	2.3028e-06	1199.5	233.45	3.1252e-06	2.1844e-06	297.9	84.663	65.66	19.303	1.7383e-06	27.238	0.00025942	0.00016508	5.1928e-05	1072.6	2.3869e-06	2.1026e-06	1184.3	231.66	2.2204e-06	1.7437e-06	297.33	84.583	65.855	19.636	1.9636e-06	27.64	278.990	207.381	253.259	175.986	329.541	303.588	176.024	183.448	340.015	313.972	183.836	190.159	190.540	197.518	341.612	197.430	-8191	255	
579.008	1	1	0	0	0.10028	0.052578	0.23797	0.1204	0.22699	0.17442	0.28294	0.13757	0.1335	0.090852	0.21295	0.13761	0.23513	0.17367	0.12797	0.096278	-2.125	-2.9354	-2.0375	-2.9958	-2.5667	-2.1958	-3.0271	-2.5812	-2.5771	-3.0542	-2.2	-2.8854	-2.9083	-2.1875	-2.8229	-2.4354	351.199	200.787	522.294	403.355	479.166	465.718	457.329	452.363	347.882	496.191	351.543	364.291	426.690	182.156	285.507	523.461	0.00030367	0.00027664	0.00013051	1085.3	2.5402e-06	1.491e-06	1202.2	233.58	3.6594e-06	2.7844e-06	296.15	84.032	65.623	19.266	3.0073e-06	27.366	0.00024692	0.00017155	5.3906e-05	1072.7	2.2222e-06	2.0088e-06	1185.4	231.41	2.3204e-06	1.7889e-06	296.83	84.649	65.897	19.672	1.992e-06	27.733	276.560	244.948	256.889	176.311	334.865	334.976	176.694	183.658	334.369	300.420	183.483	190.198	190.250	198.171	332.022	197.771	-8191	255	
579.104	1	1	0	0	0.066673	0.18885	0.27416	0.078034	0.23253	0.094596	0.27646	0.086352	0.20031	0.15347	0.31708	0.14398	0.077331	0.15127	0.033065	0.12817	-2.1521	-2.9771	-2.1437	-2.875	-2.7396	-2.1937	-3.1375	-2.5583	-2.3187	-2.9583	-2.175	-2.8	-2.9354	-2.0438	-2.7646	-2.5771	517.745	237.680	267.077	331.949	446.945	239.561	276.469	478.714	259.554	312.982	469.494	167.942	345.379	378.031	502.299	404.321	0.00031514	0.00022201	6.5021e-05	1083.7	4.1904e-06	3.5332e-06	1197.1	233.08	3.8944e-06	1.6949e-06	298.11	84.627	65.768	19.601	3.3667e-06	27.155	0.0002512	0.00018488	5.4713e-05	1071.7	2.319e-06	2.0349e-06	1184.7	231.69	2.3072e-06	1.8463e-06	297.26	84.741	65.962	19.747	1.9128e-06	27.652	276.669	242.732	227.295	176.111	297.285	319.290	176.314	183.826	326.523	302.524	183.091	190.731	190.896	197.763	305.346	197.269	-8191	255	
579.200	1	1	0	0	0.2082	0.17165	0.27323	0.038067	0.11695	0.23405	0.022543	0.16448	0.17957	0.20902	0.21965	0.093579	0.16953	0.21355	0.083077	0.14817	-1.6708	-2.8021	-1.9813	-2.4354	-2.7792	-2.1125	-3.0479	-2.675	-2.3604	-2.9125	-2.4896	-2.5375	-3.0375	-2.3187	-2.8729	-2.7146	334.300	465.580	356.247	449.352	376.444	250.797	426.361	480.418	276.055	390.884	410.646	219.746	181.339	264.725	244.239	504.464	0.00028015	0.00030482	6.7321e-05	1086.5	2.9767e-06	3.251e-06	1197.5	233.55	3.4807e-06	3.1469e-06	298.98	84.847	66.097	19.531	2.7763e-06	27.179	0.00024032	0.00016948	4.9966e-05	1073	2.2475e-06	2.0343e-06	1184.5	232.13	2.2767e-06	1.8553e-06	297.27	84.912	65.986	19.753	2.0974e-06	27.642	277.591	245.065	258.156	176.780	323.966	307.961	176.656	183.926	326.768	310.016	183.537	190.470	190.999	198.080	324.452	197.541	-8191	255	
579.296	1	1	0	0	0.168	0.22701	0.020463	0.099807	0.23513	0.018226	0.12275	0.043464	0.098182	0.01006	0.20015	0.010673	0.29054	0.038968	0.091746	0.080732	-1.9042	-2.8438	-2.4833	-2.6042	-3.1292	-2.275	-2.8563	-2.9833	-2.3167	-3.0021	-2.5125	-2.4	-3.0625	-1.8792	-2.7562	-2.6208	361.842	202.677	453.828	215.001	191.533	429.507	186.581	212.995	279.404	501.248	420.088	220.573	367.547	350.529	373.685	258.304	0.0002988	0.00036328	5.2658e-05	1087.5	4.1484e-06	2.5335e-06	1199.9	232.18	2.2048e-06	4.2124e-06	295.26	84.379	66.004	19.428	2.8068e-06	27.234	0.0002502	0.00017427	4.9616e-05	1074.3	2.2106e-06	2.0051e-06	1186.3	231.62	2.1642e-06	1.8125e-06	294.89	85.002	65.908	19.694	2.2045e-06	27.658	277.029	266.944	221.828	176.497	303.736	328.800	176.625	183.822	303.107	341.029	184.153	190.368	190.580	197.802	319.196	197.153	-8191	255	
579.417	1	1	0	0	0.28046	0.18208	0.10477	0.24588	0.045185	0.054157	0.12465	0.15346	0.070007	0.068322	0.18618	0.24976	0.061835	0.27154	0.12373	0.10999	-1.7521	-2.8708	-2.4771	-2.3583	-2.7854	-2.1375	-2.8438	-2.7854	-2.2562	-2.95	-2.4104	-2.2104	-2.8583	-2.2708	-2.3667	-2.8563	401.780	270.260	368.478	377.188	227.485	322.883	452.404	472.888	252.663	178.562	506.114	441.510	397.350	438.490	424.098	328.032	0.00032229	0.00029935	7.5967e-05	1087.6	4.61e-06	3.2324e-06	1199.7	233.59	2.929e-06	3.0847e-06	296.44	84.349	66.197	19.534	1.985e-06	27.375	0.00025807	0.00016742	4.7334e-05	1073.2	2.278e-06	2.1208e-06	1187.2	231.82	2.3404e-06	1.8843e-06	295.41	84.482	66.025	19.691	2.0639e-06	27.763	276.436	265.253	235.595	176.357	296.989	290.725	176.460	183.615	338.450	327.193	183.419	190.353	190.770	197.971	332.602	196.905	-8191	255	
579.489	1	1	0	0	0.2521	0.19253	0.09299	0.14137	0.11885	0.057288	0.37438	0.010942	0.1851	0.098506	0.027334	0.11536	0.12655	0.037878	0.16507	0.10149	-1.5708	-2.8833	-2.6604	-2.3167	-2.9167	-2.3354	-2.5187	-2.8479	-2.1021	-2.6792	-2.6208	-2.3229	-2.9375	-2.4292	-2.5521	-3.125	426.756	419.782	490.866	197.920	395.920	291.879	487.816	236.004	188.579	402.560	328.235	347.496	423.179	397.581	488.493	366.505	0.00031667	0.00036625	7.3359e-05	1084.9	4.2072e-06	1.2955e-06	1198	232.21	4.5192e-06	2.6687e-06	298.7	83.58	65.823	19.484	2.7e-06	27.242	0.00025224	0.00017601	5.0377e-05	1074.8	2.2753e-06	2.0234e-06	1184.3	231.2	2.2204e-06	2.0291e-06	295.84	84.352	65.894	19.739	2.1002e-06	27.702	277.991	259.083	244.788	176.377	295.775	366.768	176.050	183.843	317.320	307.171	183.265	190.244	190.549	197.740	305.911	197.000	-8191	255	
579.585	1	1	0	0	0.051119	0.27227	0.06715	0.19567	0.26737	0.056598	0.10046	0.17468	0.16823	0.17061	0.042642	0.052268	0.18353	0.2707	0.061596	0.077261	-1.8021	-2.7083	-2.4437	-2.1208	-2.7438	-2.3	-2.325	-3.2417	-2.2625	-2.6562	-2.8354	-2.1813	-2.8792	-2.5687	-2.4125	-3.075	240.296	207.226	445.824	455.884	471.648	265.008	515.653	516.956	299.339	222.491	400.372	456.404	176.489	383.261	211.010	194.255	0.00032619	0.00032738	7.3037e-05	1085.2	3.2048e-06	2.7858e-06	1199.4	233.14	2.5461e-06	3.3163e-06	297.89	84.269	65.931	19.431	4.014e-06	27.256	0.00026361	0.00017808	4.7623e-05	1071.5	2.2916e-06	2.0776e-06	1185.3	231.58	2.2972e-06	1.9036e-06	296.88	84.661	66.051	19.698	2.2234e-06	27.708	277.209	252.240	251.727	176.532	302.873	308.139	176.323	183.552	326.981	301.706	183.053	190.290	190.892	197.836	318.389	197.232	-8191	255	
579.681	1	1	0	0	0.19959	0.18679	0.10687	0.35558	0.052076	0.093976	0.19642	0.23113	0.15444	0.098003	0.15588	0.12831	0.1566	0.11389	0.13601	0.13251	-1.8479	-2.45	-2.8229	-2.2896	-2.9375	-2.4542	-2.2646	-2.9125	-2.1688	-2.6167	-2.875	-2.2979	-2.8083	-2.5875	-2.0875	-3.1375	481.575	414.981	460.603	460.952	214.036	328.948	499.179	494.084	480.966	452.318	193.151	292.230	502.481	344.585	428.284	357.916	0.00030065	0.00031051	0.00010215	1083.4	2.8033e-06	2.2959e-06	1195.9	233.94	2.1424e-06	3.0047e-06	300.81	84.294	65.888	19.576	2.6311e-06	27.131	0.00026117	0.00018015	4.5751e-05	1071.7	2.2417e-06	1.8711e-06	1183.9	232.04	2.1836e-06	1.9374e-06	296.91	84.53	66.059	19.761	2.1721e-06	27.724	279.009	269.765	263.694	176.273	322.260	327.642	176.525	183.814	310.975	307.427	183.512	190.374	190.876	197.918	308.312	197.452	-8191	255	
579.800	1	1	0	0	0.14193	0.15923	0.10123	0.11617	0.19512	0.18946	0.22204	0.20289	0.08013	0.070519	0.16736	0.32131	0.12358	0.088034	0.07162	0.24633	-2.2708	-2.3167	-2.8958	-2.4208	-2.8875	-2.9208	-2.3417	-2.9417	-2.2125	-2.2188	-2.8667	-2.1333	-2.7792	-2.8583	-2.175	-3.1042	467.210	331.523	193.613	223.297	458.088	452.767	447.524	451.775	331.015	433.319	475.502	175.441	248.680	494.723	314.699	378.749	0.00030854	0.00022889	4.7991e-05	1084.2	4.5557e-06	2.6439e-06	1196.9	233.16	3.7205e-06	2.4821e-06	293.88	84.138	66.428	19.575	2.8675e-06	27.299	0.00024856	0.00019011	5.0194e-05	1072.8	2.3279e-06	2.0173e-06	1183.9	232.06	2.3925e-06	1.9874e-06	296.35	84.792	65.976	19.75	2.1381e-06	27.812	273.043	272.764	261.906	176.669	308.065	287.494	176.639	184.205	329.116	321.549	183.362	190.141	190.968	198.049	325.708	197.862	-8191	255	
579.896	1	1	0	0	0.072483	0.19315	0.070693	0.14271	0.20458	0.18548	0.091896	0.13284	0.18665	0.20432	0.096859	0.034269	0.25658	0.13224	0.060815	0.19484	-1.9188	-2.0833	-2.975	-2.1854	-2.7146	-2.8792	-2.4229	-3.0938	-2.3812	-2.225	-2.9625	-2.325	-2.3979	-2.6208	-2.0687	-2.825	412.270	229.389	196.014	392.605	251.983	188.512	286.912	520.563	322.110	328.232	296.972	170.317	318.673	241.554	293.494	434.629	0.0003209	0.00043088	0.000123	1083.8	4.3402e-06	3.1364e-06	1202.4	234.26	3.5638e-06	3.8831e-06	300.02	84.613	65.587	19.428	4.1666e-06	27.438	0.00024397	0.00018053	4.5356e-05	1072.1	2.4169e-06	1.7907e-06	1187.2	232.81	2.2983e-06	1.9283e-06	296.24	84.924	66.057	19.76	2.2363e-06	27.777	275.663	258.966	256.910	176.877	335.879	330.936	177.189	184.685	323.081	322.174	183.880	190.325	191.022	198.159	322.325	197.559	-8191	255	
579.992	1	1	0	0	0.28794	0.075458	0.040075	0.078392	0.33064	0.16821	0.2181	0.017824	0.078985	0.19754	0.14774	0.098496	0.11488	0.18642	0.24927	0.26752	-2.3104	-2.3333	-3.0542	-2.4292	-2.5896	-2.6958	-2.0583	-2.7687	-2.5646	-2.2208	-2.9479	-2.6958	-2.5146	-2.8396	-2.0667	-2.7854	422.034	498.848	399.558	172.133	412.114	171.359	430.320	242.336	493.510	323.444	224.725	451.802	287.964	452.255	252.402	384.443	0.00031501	0.00035387	0.00010109	1093.6	4.3214e-06	2.1711e-06	1197.1	234.05	4.7127e-06	3.2502e-06	298.51	84.29	65.725	19.425	2.4044e-06	27.253	0.00024807	0.00018896	4.8794e-05	1074.5	2.4532e-06	1.8455e-06	1186.5	232.68	2.3015e-06	2.02e-06	296.65	84.71	66.084	19.765	2.1805e-06	27.754	278.878	233.744	248.145	176.310	327.647	300.216	176.286	183.509	328.385	289.608	183.479	189.991	190.906	197.905	308.370	197.601	-8191	255	
580.088	1	1	0	0	0.1298	0.10657	0.16833	0.18436	0.03801	0.12324	0.086339	0.14112	0.41892	0.12275	0.21406	0.23154	0.035684	0.09946	0.03735	0.18487	-2.2521	-2.1708	-2.8667	-2.6396	-2.4479	-3.0917	-2.3104	-2.6813	-2.5292	-2.1854	-2.925	-2.5104	-2.2062	-3.0146	-2.175	-2.7	338.209	245.797	251.221	496.035	182.931	214.913	495.866	176.658	189.501	198.997	269.918	490.800	372.555	402.326	283.548	491.819	0.00030209	0.00021529	6.2701e-05	1088.6	4.4765e-06	2.568e-06	1201.3	235.81	3.9269e-06	2.7749e-06	298.79	84.721	65.99	19.645	2.9616e-06	27.475	0.00024704	0.00020659	4.569e-05	1072.9	2.4247e-06	1.8711e-06	1186.6	232.61	2.2662e-06	2.2209e-06	295.72	84.728	65.986	19.777	2.3088e-06	27.773	278.414	246.604	251.501	177.095	317.059	309.836	176.894	184.289	329.017	302.735	183.725	190.687	191.131	198.115	344.595	197.687	-8191	255	
580.185	1	1	0	0	0.34644	0.11945	0.20976	0.12785	0.1737	0.12326	0.1786	0.27379	0.19526	0.17949	0.10172	0.13231	0.12417	0.21196	0.11768	0.17691	-2.3438	-2.2354	-2.7604	-2.6312	-2.0146	-2.8812	-2.4125	-2.7812	-2.8021	-2.1229	-2.95	-2.2958	-2.1312	-3.0292	-2.2917	-2.6	333.635	252.193	199.327	453.414	215.229	288.267	516.738	456.771	455.486	338.521	500.316	484.171	360.688	454.352	438.920	389.333	0.00031658	0.0002153	7.6387e-05	1085.2	3.0077e-06	2.6095e-06	1201.6	234.45	3.6171e-06	4.1685e-06	299.94	84.377	65.421	19.529	2.669e-06	27.425	0.00024336	0.00019663	4.6984e-05	1071.3	2.4432e-06	1.7639e-06	1184.9	232.58	2.1426e-06	2.1027e-06	296.87	84.74	65.786	19.75	2.1872e-06	27.796	276.682	252.320	251.991	176.657	292.094	294.199	176.211	184.343	317.296	310.435	184.066	190.619	191.056	198.313	347.575	197.673	-8191	255	
580.281	1	1	0	0	0.21908	0.051846	0.10697	0.13555	0.03672	0.18512	0.40277	0.041146	0.20462	0.16393	0.090016	0.17347	0.17692	0.23239	0.10727	0.27115	-2.4167	-1.9604	-2.7292	-2.6708	-2.2229	-2.8563	-2.5417	-2.3521	-2.7333	-2.15	-2.8708	-2.7375	-2.0875	-2.9125	-2.2812	-2.3854	280.120	433.037	312.946	490.655	480.832	285.296	510.293	278.935	279.405	454.335	211.672	210.207	491.232	206.991	411.833	485.054	0.00030742	0.00033542	9.3461e-05	1088.7	3.8522e-06	2.6943e-06	1197.7	233.96	3.3318e-06	2.0184e-06	301.01	84.241	65.979	19.649	2.3374e-06	27.036	0.00024359	0.00019734	5.1655e-05	1073.5	2.5073e-06	1.8778e-06	1183.4	232.7	2.0505e-06	1.9802e-06	297.11	84.591	66.133	19.796	2.1911e-06	27.728	274.552	287.280	261.956	176.851	306.146	316.635	176.821	184.141	315.918	321.396	183.317	190.681	190.889	198.334	330.953	197.470	-8191	255	
580.377	1	1	0	0	0.22923	0.2393	0.18689	0.10362	0.17632	0.25381	0.049636	0.17322	0.14152	0.18193	0.072223	0.12466	0.1678	0.083812	0.10176	0.068313	-2.5312	-2.3021	-2.7521	-3.0312	-1.9792	-2.8625	-2.4729	-2.2271	-3.0271	-2.2229	-2.5271	-3.0479	-2.1896	-2.8979	-2.6542	-2.3292	195.085	475.201	421.318	465.823	207.722	407.660	329.679	416.851	191.705	347.373	459.079	168.571	371.918	338.441	303.487	389.116	0.00031127	0.00021303	0.00013667	1086.4	3.5775e-06	3.292e-06	1197.6	234.35	3.2042e-06	1.8012e-06	297.36	84.613	65.936	19.639	2.2429e-06	27.278	0.00024589	0.00018668	5.1807e-05	1070.8	2.3053e-06	1.96e-06	1183.8	232.89	2.1531e-06	2.0182e-06	296.45	84.586	65.969	19.824	1.9719e-06	27.778	277.862	230.139	256.669	176.512	315.264	335.599	176.548	183.916	338.065	309.849	183.596	190.337	190.925	197.817	362.363	196.853	-8191	255	
580.497	1	1	0	0	0.1324	0.064013	0.30555	0.21754	0.35428	0.26574	0.11131	0.054628	0.16894	0.087901	0.21318	0.18	0.11915	0.20235	0.1016	0.19417	-2.6854	-2.2812	-2.7687	-2.9313	-2.1333	-2.6771	-2.3917	-2.0771	-3.0479	-2.3104	-2.4396	-3.0396	-2.1708	-2.8146	-2.7313	-2.3396	185.531	361.255	314.303	170.648	513.340	515.859	293.045	424.961	174.254	458.305	474.185	457.068	495.158	189.490	298.320	187.332	0.00031719	0.00036428	5.9842e-05	1081	3.5833e-06	4.079e-06	1193.9	234.51	2.6546e-06	3.1299e-06	296.56	84.469	65.668	19.552	2.8991e-06	27.414	0.00024747	0.00019658	4.852e-05	1072.1	2.5999e-06	1.9247e-06	1184	232.87	2.04e-06	1.9784e-06	295.98	84.908	66.029	19.8	2.0366e-06	27.83	276.503	268.029	272.622	176.270	307.150	318.664	176.413	183.825	340.163	329.982	183.707	190.394	190.811	198.018	330.388	197.472	-8191	255	
580.594	1	1	0	0	0.1106	0.038389	0.1491	0.15773	0.18221	0.028231	0.12481	0.2785	0.025876	0.072518	0.1751	0.21392	0.08909	0.14731	0.10282	0.41776	-2.4938	-2.1958	-2.4146	-3.125	-2.1021	-2.6625	-2.8979	-2.15	-2.9292	-2.3729	-2.4313	-2.9583	-2.2583	-2.5396	-2.7375	-2.0604	331.842	335.949	229.355	525.460	401.827	208.135	210.163	453.322	443.506	239.367	438.348	479.153	496.697	452.026	327.203	389.971	0.00032557	0.00027863	7.974e-05	1086.9	2.5379e-06	2.4983e-06	1193.9	233.48	2.6963e-06	3.4586e-06	296.11	84.941	66.154	19.583	4.6604e-06	27.442	0.00024348	0.00019669	4.8733e-05	1073.1	2.4021e-06	1.9101e-06	1183.7	232.66	2.1862e-06	2.1425e-06	296.87	85.045	66.114	19.799	1.9892e-06	27.763	277.952	250.929	264.015	176.442	311.197	291.395	176.201	183.705	329.952	300.553	183.730	190.505	191.211	198.463	330.189	198.140	-8191	255	
580.690	1	1	0	0	0.060012	0.18984	0.21237	0.091659	0.16563	0.016956	0.25783	0.21441	0.25887	0.28483	0.13564	0.15533	0.025333	0.11769	0.28868	0.22463	-2.3458	-2.3104	-2.2521	-2.9667	-2.1667	-2.6188	-3.0104	-2.1667	-2.7125	-2.4958	-2.3479	-2.9604	-2.5042	-2.6646	-2.8563	-2.2042	270.049	444.636	286.792	440.666	393.226	296.170	427.824	235.762	305.955	192.384	455.381	489.212	211.877	440.440	433.043	477.490	0.0003162	0.00031108	4.188e-05	1088.9	3.6279e-06	2.3646e-06	1195.6	234.25	3.539e-06	4.5155e-06	298.73	84.22	66.043	19.469	3.9436e-06	27.254	0.0002479	0.00018722	5.1152e-05	1072.5	2.5326e-06	1.8443e-06	1182.3	232.8	2.2026e-06	1.9265e-06	296.84	84.713	65.955	19.683	1.9585e-06	27.736	276.416	267.910	243.719	176.618	299.083	335.687	176.407	184.005	324.656	314.366	183.361	190.636	191.268	198.459	324.145	197.784	-8191	255	
580.786	1	1	0	0	0.15393	0.23159	0.14348	0.3059	0.2863	0.20865	0.18841	0.20648	0.21788	0.19906	0.07246	0.13766	0.1872	0.36075	0.094171	0.15968	-2.4542	-2.7229	-2.0125	-2.8896	-2.0896	-2.3917	-2.7146	-2.0083	-2.5167	-2.4229	-2.0792	-2.7687	-2.3083	-2.4229	-2.7979	-2.0354	481.473	196.683	389.046	480.146	470.327	524.575	463.552	516.992	388.808	217.257	185.376	246.102	465.212	477.397	396.645	378.105	0.00031359	0.00031234	8.9608e-05	1080.3	4.1978e-06	4.6563e-06	1201.7	233.44	2.9069e-06	2.6856e-06	297.56	83.98	65.8	19.724	2.7648e-06	27.356	0.00025083	0.00019092	5.2659e-05	1070.7	2.4842e-06	2.1312e-06	1183.5	232.29	2.1052e-06	1.8969e-06	296.08	84.688	65.918	19.806	1.968e-06	27.719	277.252	254.435	248.629	176.598	304.363	337.368	176.893	184.368	332.296	308.360	183.035	190.834	191.191	198.242	353.921	197.639	-8191	255	
580.880	1	1	0	0	0.16277	0.07037	0.042092	0.15461	0.02374	0.18644	0.013928	0.18479	0.12105	0.20894	0.053581	0.14884	0.11023	0.19807	0.10402	0.43867	-2.2646	-2.6562	-2.0708	-3.1271	-2.4625	-2.4583	-3.0563	-2.3625	-2.6021	-2.9479	-2.1437	-3.0312	-2.3854	-2.3667	-2.9042	-2.075	206.217	471.016	474.682	513.809	281.340	407.917	184.710	330.677	443.557	462.086	409.369	518.070	399.896	168.712	180.667	502.294	0.00031888	0.0003079	7.3757e-05	1084.8	3.0262e-06	3.3213e-06	1198.5	233.33	4.1017e-06	2.4224e-06	296.11	85.032	65.842	19.573	3.1996e-06	27.329	0.0002556	0.00018156	5.5291e-05	1072	2.3911e-06	2.1294e-06	1185.9	232.38	2.141e-06	1.9428e-06	296.29	85.148	66.053	19.817	1.9926e-06	27.785	276.796	255.241	236.506	176.799	304.104	326.081	176.870	184.210	322.525	340.968	183.655	190.613	191.178	198.051	309.906	197.687	-8191	255	
580.976	1	1	0	0	0.11422	0.1915	0.21698	0.15012	0.26185	0.15899	0.22618	0.16311	0.19878	0.063696	0.18554	0.080931	0.24483	0.29385	0.086309	0.21269	-2.0229	-2.8083	-2.0646	-2.9354	-2.4208	-2.2687	-3.1021	-2.5104	-2.5583	-2.8812	-2.3292	-2.8792	-2.7167	-2.325	-3.0104	-2.4104	500.014	323.138	223.656	448.688	393.802	338.928	448.461	194.832	278.110	261.478	474.203	329.298	476.060	219.513	445.209	469.644	0.00031432	0.00032127	7.7258e-05	1091.8	3.8239e-06	2.6589e-06	1197.3	235.67	3.8471e-06	3.6621e-06	298.45	84.539	66.363	19.63	2.334e-06	27.268	0.00024962	0.00017558	5.5184e-05	1074.4	2.3311e-06	2.0867e-06	1186.2	233.11	2.1521e-06	1.9585e-06	296.39	84.907	66.223	19.837	1.8476e-06	27.769	276.472	247.802	238.795	177.026	306.440	297.131	176.893	184.300	323.611	312.479	183.653	190.421	190.906	198.249	339.284	197.340	-8191	255	
581.097	1	1	0	0	0.33686	0.077067	0.079921	0.28828	0.087121	0.16412	0.28687	0.25108	0.055647	0.083929	0.24913	0.088739	0.035682	0.18209	0.028636	0.27271	-2.1354	-2.8208	-2.325	-2.9583	-2.7438	-2.3604	-3.1937	-2.4458	-2.4646	-2.9958	-2.2417	-2.8833	-2.7125	-2.2375	-2.9104	-2.5312	435.213	285.560	448.739	475.198	291.718	493.944	457.517	452.980	484.325	411.993	471.793	402.578	492.523	465.887	249.778	491.828	0.00031315	0.00029733	9.3221e-05	1091.1	2.6354e-06	2.9675e-06	1200.8	234.82	3.2787e-06	3.7212e-06	295.03	84.597	66.008	19.551	3.7782e-06	27.305	0.00024718	0.00017895	5.342e-05	1076.9	2.3164e-06	1.9996e-06	1186.3	232.66	2.2467e-06	1.807e-06	296.66	84.868	66.052	19.796	1.9379e-06	27.763	277.754	262.682	238.437	176.557	328.443	309.840	176.621	183.956	303.788	307.279	184.229	191.003	191.334	198.063	339.939	197.658	-8191	255	
581.193	1	1	0	0	0.1228	0.13343	0.10007	0.42546	0.17868	0.12201	0.17957	0.28921	0.209	0.30089	0.34458	0.19154	0.28437	0.091092	0.073702	0.091798	-2.0792	-3.1146	-2.1583	-2.9354	-3.0125	-2.3396	-2.9792	-2.6417	-2.4104	-2.9521	-2.3083	-2.6854	-2.7583	-1.9479	-2.8417	-2.6813	466.844	460.710	328.874	504.290	525.934	437.920	388.190	449.720	506.571	468.784	331.340	172.056	508.109	311.805	461.371	471.469	0.00030331	0.0002595	5.6324e-05	1091.7	4.0637e-06	2.9848e-06	1206.3	234.46	3.587e-06	2.3715e-06	299.2	84.765	66.124	19.617	2.1597e-06	27.534	0.00024184	0.0001666	5.2461e-05	1075	2.3374e-06	2.1391e-06	1187.1	232.71	2.2368e-06	1.6031e-06	296.81	84.677	66.021	19.798	2.0478e-06	27.862	276.312	268.473	265.987	176.789	299.889	296.961	176.903	184.059	315.134	307.058	183.868	191.118	191.307	198.458	338.253	198.150	-8191	255	
581.289	1	1	0	0	0.15561	0.12046	0.22664	0.16635	0.15625	0.18157	0.35987	0.094081	0.25035	0.1679	0.12273	0.030212	0.11203	0.29352	0.035798	0.181	-1.925	-2.8688	-2.3563	-2.575	-2.8542	-2.2146	-2.9396	-2.7833	-2.1729	-2.8958	-2.3104	-2.5021	-2.7396	-2.1188	-2.7458	-2.6771	487.404	450.719	248.374	256.180	513.626	429.241	449.561	326.987	247.885	359.788	347.133	428.770	169.965	516.524	449.769	443.001	0.00031666	0.00023678	0.00011415	1083.4	2.364e-06	2.7505e-06	1200	234.24	4.0002e-06	2.5284e-06	297.98	83.608	66.233	19.562	3.1139e-06	27.503	0.00025373	0.00017716	5.3496e-05	1071.2	2.3037e-06	2.0593e-06	1185.7	232.71	2.4025e-06	1.8595e-06	296.9	84.555	66.11	19.767	2.0071e-06	27.802	275.793	240.881	270.768	176.493	311.232	300.191	176.473	183.657	323.147	336.159	183.519	190.617	190.889	198.415	340.263	198.098	-8191	255	
581.361	1	1	0	0	0.16314	0.069598	0.30848	0.20413	0.13318	0.27464	0.082815	0.097081	0.046941	0.14956	0.19504	0.15364	0.080275	0.1282	0.25187	0.21391	-1.8354	-2.9938	-2.4188	-2.7167	-3.0417	-2.4104	-2.8458	-2.8958	-2.2708	-2.8604	-2.3104	-2.3438	-3.1292	-2.2354	-2.7333	-2.925	425.899	323.352	370.499	398.558	317.481	307.458	194.934	449.747	253.082	371.215	346.350	504.248	198.267	518.543	327.087	222.750	0.00030298	0.00023284	9.4851e-05	1088.1	4.3262e-06	1.5654e-06	1202.4	233.88	3.7343e-06	4.0096e-06	296.2	84.103	65.617	19.497	2.9177e-06	27.465	0.00025278	0.00017732	5.3541e-05	1073.8	2.1059e-06	2.1001e-06	1186.6	232.89	2.1862e-06	1.8257e-06	296.63	84.678	65.889	19.772	1.8844e-06	27.743	275.924	268.645	272.556	176.778	303.517	359.728	177.169	184.566	320.927	294.948	183.922	190.686	191.300	198.556	313.658	197.629	-8191	255	
581.482	1	1	0	0	0.22704	0.075878	0.31864	0.19819	0.06578	0.1146	0.20608	0.26215	0.22688	0.28873	0.22225	0.27014	0.084901	0.13869	0.43046	0.20489	-1.7563	-2.9104	-2.4979	-2.5292	-2.975	-2.2188	-2.7771	-3.0938	-2.275	-2.9458	-2.4062	-2.1604	-2.8688	-2.1521	-2.3771	-2.7167	314.238	209.194	510.571	413.464	288.848	289.173	486.280	450.204	362.120	506.542	505.507	455.687	390.355	177.255	202.729	426.222	0.00031515	0.00032079	4.6331e-05	1083.2	2.809e-06	3.0763e-06	1204.7	234.68	3.3745e-06	3.1712e-06	298.86	84.412	66.845	19.539	3.7604e-06	27.338	0.00025399	0.00017242	4.7775e-05	1073.2	2.3211e-06	1.9363e-06	1187	232.8	2.2378e-06	1.757e-06	297.29	84.79	66.286	19.724	2.1392e-06	27.729	276.296	240.430	249.837	177.747	295.268	305.962	176.697	183.981	333.762	310.069	184.119	190.440	191.058	198.081	315.246	197.382	-8191	255	
581.578	1	1	0	0	0.1746	0.070839	0.085721	0.13682	0.098287	0.14333	0.11944	0.2072	0.055338	0.047298	0.080747	0.051522	0.16654	0.060612	0.26342	0.063484	-1.5771	-2.7521	-2.4854	-2.1042	-2.7979	-2.4479	-2.6312	-2.9833	-2.0625	-2.8854	-2.6771	-2.0104	-2.7604	-2.3854	-2.1896	-3.1125	503.977	323.639	362.560	519.673	242.508	332.346	228.487	310.541	461.889	239.858	453.762	414.980	229.990	296.545	483.926	242.994	0.0003097	0.00027518	0.0001096	1087	3.2394e-06	3.6276e-06	1204.8	234.79	2.2922e-06	3.047e-06	301.18	84.295	66.429	19.473	2.8838e-06	27.502	0.00025703	0.00016704	4.8885e-05	1072.8	2.1922e-06	1.999e-06	1189	233.25	2.4056e-06	1.9168e-06	297.54	84.875	66.013	19.742	2.0416e-06	27.788	273.076	238.965	257.365	176.610	308.283	323.600	176.466	183.819	333.068	299.062	183.181	190.298	190.711	197.795	315.624	197.047	-8191	255	
581.674	1	1	0	0	0.12297	0.16916	0.14998	0.20227	0.092713	0.12429	0.1786	0.19734	0.27706	0.019176	0.082275	0.18007	0.13367	0.25052	0.30046	0.17714	-1.6625	-2.6583	-2.4938	-2.2667	-2.9	-2.4146	-2.6646	-3.0958	-2.0875	-2.5687	-2.7583	-2.1083	-2.8271	-2.2396	-2.0312	-3.0604	179.313	425.494	374.124	457.833	306.919	496.804	454.229	258.366	426.070	183.739	386.084	238.756	384.369	342.286	518.059	322.778	0.00031327	0.00034579	4.6093e-05	1088.6	3.4268e-06	3.4402e-06	1202.3	234.94	3.7555e-06	3.1803e-06	297.48	84.16	66.088	19.471	3.639e-06	27.401	0.00025057	0.00018809	4.8018e-05	1073.4	2.2096e-06	1.9144e-06	1186.2	233.2	2.282e-06	1.906e-06	295.16	84.742	65.979	19.778	2.2006e-06	27.781	275.240	264.495	244.271	176.594	328.661	321.508	176.496	183.825	326.127	331.111	183.547	190.280	191.054	197.991	337.904	196.939	-8191	255	
581.770	1	1	0	0	0.042421	0.23704	0.13027	0.095858	0.34748	0.25228	0.24271	0.11329	0.21219	0.16745	0.070572	0.089904	0.092251	0.24692	0.14886	0.24111	-1.7917	-2.5604	-2.5438	-2.3333	-2.8208	-2.5687	-2.3812	-3.0563	-2.1375	-2.425	-3	-2.0458	-2.7021	-2.6104	-2.1396	-3.0729	194.919	248.853	401.935	429.192	225.187	498.745	457.268	343.735	279.975	444.965	187.332	312.181	483.013	201.618	500.593	199.194	0.00028968	0.00022026	0.00010502	1089.4	3.8797e-06	3.2642e-06	1203	234.39	3.5525e-06	3.3847e-06	296.3	84.407	66.201	19.48	3.2094e-06	27.37	0.00025141	0.000187	4.496e-05	1074.2	2.1112e-06	1.8857e-06	1186.8	232.88	2.2173e-06	2.0248e-06	294.83	84.807	66.109	19.72	2.1811e-06	27.764	275.207	248.221	263.311	176.442	296.276	331.814	176.597	184.089	336.931	352.125	184.214	190.918	191.705	198.861	343.574	197.913	-8191	255	
581.889	1	1	0	0	0.052581	0.13239	0.13456	0.19347	0.12819	0.1375	0.20173	0.23192	0.18832	0.171	0.13422	0.20313	0.10253	0.14036	0.17044	0.058582	-1.9937	-2.3937	-3.0479	-2.2125	-2.8708	-2.6	-2.1813	-2.9646	-2.5167	-2.4562	-2.6688	-2.1083	-2.8542	-2.6167	-1.9354	-2.8417	506.763	302.900	292.496	397.774	218.439	198.651	317.080	472.110	396.969	418.190	211.068	476.026	495.295	289.774	218.539	505.035	0.0002936	0.00031967	0.00012299	1086.4	3.5352e-06	2.6885e-06	1197	234.24	3.4054e-06	4.5852e-06	298.2	84.335	66.003	19.296	2.8253e-06	27.498	0.00024532	0.00017585	4.4641e-05	1072.6	2.1885e-06	1.8364e-06	1186.3	232.55	2.3214e-06	1.9772e-06	296.99	84.918	66.004	19.683	2.0612e-06	27.785	279.608	257.738	287.483	176.394	310.018	321.064	176.422	183.405	339.849	322.640	183.480	190.261	190.212	197.573	331.099	196.996	-8191	255	
581.962	1	1	0	0	0.4377	0.17842	0.059203	0.20826	0.099725	0.13588	0.14148	0.034059	0.20043	0.15173	0.084296	0.28577	0.37952	0.068039	0.16021	0.25115	-1.9125	-2.1896	-2.8917	-2.3187	-2.4271	-2.5	-2.1521	-2.7896	-2.3167	-2.2625	-2.8688	-2.1542	-2.3333	-2.6063	-1.875	-2.9062	419.786	244.317	312.678	482.380	200.285	403.371	281.828	209.173	287.185	318.032	340.773	462.575	393.357	455.087	359.186	422.705	0.00029864	0.00026936	9.558e-05	1090.3	3.2153e-06	3.3313e-06	1202	234.08	2.7834e-06	3.1437e-06	295.05	84.235	66.32	19.598	3.646e-06	27.231	0.00024942	0.00017939	4.6238e-05	1073.8	2.38e-06	1.943e-06	1187.4	232.76	2.2062e-06	2.0906e-06	296.77	84.775	66.303	19.742	2.2095e-06	27.796	277.313	246.646	237.782	176.053	279.859	308.592	176.364	183.794	303.081	300.758	183.412	189.826	190.396	197.611	328.046	197.227	-8191	255	
582.059	1	1	0	0	0.15955	0.19928	0.19755	0.035842	0.21513	0.089166	0.083843	0.1204	0.050268	0.30203	0.16374	0.14057	0.1686	0.049194	0.072983	0.044018	-1.9229	-1.9937	-2.5833	-2.3	-2.2938	-2.7854	-2.2	-2.7271	-2.4208	-1.9833	-2.8604	-2.1333	-2.3667	-2.7125	-2.1375	-2.6875	525.366	364.624	223.191	445.386	453.018	242.076	437.646	169.036	452.304	370.002	434.339	484.433	200.148	265.341	310.498	367.902	0.00031521	0.00025932	0.00010407	1084.5	3.7722e-06	3.8316e-06	1199.7	234.41	3.1024e-06	3.0994e-06	299.97	84.215	66.034	19.609	3.1443e-06	27.203	0.0002552	0.00019783	5.1594e-05	1073.4	2.3174e-06	1.8065e-06	1185.3	233.02	2.1805e-06	2.0544e-06	297.29	84.808	66.059	19.791	2.04e-06	27.716	276.107	231.097	266.080	176.219	303.510	302.082	176.239	183.546	335.716	303.032	184.095	190.946	191.823	198.678	330.646	198.236	-8191	255	
582.177	1	1	0	0	0.15828	0.12156	0.048644	0.12408	0.15005	0.08452	0.17822	0.16213	0.14141	0.21486	0.29802	0.14223	0.075949	0.024589	0.13022	0.049284	-2.2625	-2.1188	-2.8458	-2.35	-2.2021	-2.8875	-2.1562	-2.6396	-2.4271	-1.6562	-2.7958	-2.2292	-2.0438	-2.9	-1.9167	-2.2833	352.519	521.702	523.489	323.666	184.850	435.561	437.578	220.083	262.661	508.277	329.307	395.430	338.502	514.414	178.860	391.970	0.00031925	0.00022067	0.00010721	1086.7	3.9401e-06	3.4739e-06	1205.1	234.36	3.4771e-06	2.2922e-06	297.27	84.591	66.392	19.61	3.3632e-06	27.424	0.0002485	0.00019419	4.4975e-05	1074.7	2.4363e-06	1.8802e-06	1189.1	233.23	2.1194e-06	2.2686e-06	296.62	85.011	66.042	19.819	2.118e-06	27.823	277.089	246.649	254.183	177.224	291.969	296.818	177.192	184.766	327.234	309.606	183.656	190.808	191.722	198.471	322.228	198.044	-8191	255	
582.274	1	1	0	0	0.26917	0.14967	0.14502	0.15186	0.1456	0.23162	0.26105	0.13494	0.13565	0.11843	0.10698	0.16588	0.21365	0.089559	0.093875	0.21322	-2.3208	-2.1042	-2.8729	-2.5563	-2.2229	-2.8479	-2.2521	-2.5812	-2.7083	-1.8604	-2.5917	-2.2458	-2.0458	-2.8792	-2.2	-2.6146	468.184	288.171	186.784	234.411	467.168	371.710	446.879	456.992	495.104	492.601	206.910	375.332	453.912	460.418	300.408	425.638	0.00030274	0.00033039	6.8312e-05	1090.9	5.3068e-06	2.6685e-06	1198.3	234.5	3.9882e-06	2.6988e-06	297.42	83.95	65.724	19.42	2.4486e-06	27.467	0.00023394	0.000182	4.7896e-05	1073.1	2.4605e-06	1.7487e-06	1184.8	233	2.0137e-06	2.0417e-06	296.97	84.533	65.976	19.77	2.031e-06	27.79	278.463	243.177	256.346	177.092	322.271	307.739	176.582	184.022	319.884	320.224	184.219	191.077	191.337	198.415	342.887	198.144	-8191	255	
582.370	1	1	0	0	0.034585	0.097348	0.22577	0.31344	0.068858	0.23565	0.13216	0.1401	0.17	0.09999	0.26118	0.28107	0.1441	0.1319	0.19796	0.23877	-2.4396	-2.0417	-2.675	-2.7375	-2.0583	-2.8625	-2.4292	-2.4188	-3.0062	-2.0542	-2.5583	-2.625	-2.1354	-2.9854	-2.2646	-2.2438	467.062	412.381	290.129	491.451	418.583	193.564	469.519	508.094	492.747	390.095	186.671	419.295	391.341	248.647	181.069	498.013	0.00029835	0.00024991	8.4012e-05	1087.1	3.7385e-06	2.9238e-06	1198	234.68	3.7651e-06	4.0855e-06	298.83	84.022	65.568	19.521	1.5138e-06	27.52	0.0002365	0.00018749	4.9007e-05	1072.8	2.4958e-06	1.9077e-06	1186.4	232.6	2.2047e-06	2.1274e-06	297.55	84.655	65.974	19.774	2.1688e-06	27.741	277.997	263.111	258.622	177.100	316.752	340.700	177.346	185.201	342.931	322.817	183.781	190.143	190.636	197.866	348.630	197.202	-8191	255	
582.490	1	1	0	0	0.19672	0.12626	0.19699	0.27434	0.39497	0.30365	0.28892	0.081687	0.28071	0.19294	0.2574	0.085427	0.21249	0.20979	0.2809	0.1437	-2.4188	-2.2208	-2.7271	-2.7979	-2.0042	-2.7625	-2.6021	-2.2562	-2.9583	-2.0542	-2.4833	-2.6146	-1.9646	-2.85	-2.5208	-2.4146	370.616	497.377	237.949	188.819	241.340	525.382	478.327	494.415	413.432	201.921	301.906	233.215	412.210	194.449	189.846	302.505	0.00029987	0.00037479	9.608e-05	1087.9	3.9784e-06	2.705e-06	1197.9	235.64	3.8823e-06	1.878e-06	301.6	84.81	65.639	19.434	4.4711e-06	27.446	0.00023693	0.00018129	4.6055e-05	1072.7	2.4532e-06	1.9137e-06	1185.9	233.42	2.0789e-06	1.8849e-06	297.08	84.915	65.965	19.763	2.0667e-06	27.806	280.661	242.329	270.515	176.233	315.862	335.861	176.450	183.687	320.197	301.076	183.619	190.270	190.759	197.945	327.931	197.580	-8191	255	
582.587	1	1	0	0	0.10762	0.056956	0.040969	0.25349	0.29093	0.15175	0.16137	0.36624	0.18029	0.21679	0.18643	0.077093	0.42579	0.057211	0.1661	0.17309	-2.4917	-2.1646	-2.3792	-2.9833	-2.2021	-2.8583	-2.6771	-2.1646	-2.9188	-2.1771	-2.2562	-2.9375	-2.2229	-2.7583	-2.5792	-2.2042	388.382	315.117	279.088	489.301	190.978	435.475	485.818	404.075	331.168	365.660	484.493	489.065	490.270	402.542	524.439	170.703	0.00028586	0.00027445	7.7514e-05	1087.9	3.25e-06	3.4651e-06	1199.1	233.99	2.4342e-06	3.2466e-06	300.42	84.37	66.286	19.597	3.2368e-06	27.282	0.00023647	0.00019	4.9981e-05	1073.9	2.4237e-06	1.8059e-06	1185.5	232.88	2.0931e-06	2.1093e-06	297.5	84.707	66.086	19.783	2.0305e-06	27.715	274.170	264.425	267.631	176.298	313.070	331.936	176.363	184.110	329.031	322.036	183.705	189.961	190.732	198.163	328.661	197.242	-8191	255	
582.658	1	1	0	0	0.17044	0.24471	0.16511	0.30516	0.2713	0.24775	0.14579	0.085754	0.18129	0.049581	0.050222	0.07135	0.41336	0.084806	0.18036	0.18949	-2.5563	-2.1604	-2.1396	-3.1604	-2.2125	-2.6354	-2.7458	-1.975	-2.8875	-2.475	-2.3229	-2.9417	-2.1688	-2.4271	-2.7687	-2.1937	393.863	492.386	409.678	482.270	312.888	181.676	467.966	518.052	432.406	310.584	351.031	368.089	442.017	235.015	370.248	470.736	0.00031218	0.00026842	9.2813e-05	1087.2	3.6208e-06	3.3762e-06	1199.2	234.01	3.7113e-06	3.5047e-06	297.41	84.579	65.896	19.444	3.0225e-06	27.502	0.0002386	0.00019897	5.0011e-05	1074.1	2.4237e-06	1.9259e-06	1185.6	232.69	2.172e-06	1.9446e-06	296.93	84.796	65.977	19.775	2.1677e-06	27.844	277.302	270.677	266.046	176.444	300.881	361.672	176.377	183.776	318.662	324.750	182.864	190.200	190.705	197.846	339.710	197.476	-8191	255	
582.754	1	1	0	0	0.19538	0.1028	0.10674	0.18687	0.21807	0.17403	0.12254	0.16669	0.048591	0.083088	0.12993	0.34301	0.26722	0.070673	0.1807	0.24217	-2.4771	-2.1771	-2.0896	-2.9542	-2.1937	-2.6667	-2.9146	-2.1167	-2.7	-2.4125	-2.2313	-2.9813	-1.8917	-2.3958	-2.9125	-2.225	438.398	453.113	191.140	499.049	447.671	368.953	455.819	503.618	241.001	426.595	384.755	457.094	378.089	181.965	351.543	430.211	0.00029417	0.00035587	6.3137e-05	1088.8	4.3292e-06	2.7133e-06	1196.1	234.34	3.3341e-06	4.577e-06	297.44	84.307	65.704	19.443	3.8269e-06	27.375	0.00023133	0.00017269	5.1898e-05	1073.2	2.3832e-06	2.0106e-06	1185.5	232.76	2.0637e-06	1.9223e-06	297.24	84.765	65.852	19.715	2.0244e-06	27.722	277.924	272.964	252.713	176.261	320.041	289.586	176.098	183.801	334.473	306.143	183.871	190.351	190.194	198.440	337.060	197.340	-8191	255	
582.873	1	1	0	0	0.16483	0.042904	0.2181	0.10817	0.15479	0.11161	0.12017	0.29735	0.068525	0.08611	0.17375	0.068597	0.28746	0.21481	0.21655	0.10011	-2.2979	-2.3917	-1.9562	-3.0438	-2.2687	-2.3667	-2.8812	-2.1958	-2.7417	-2.5354	-2.1813	-2.8312	-2.2833	-2.0833	-2.7833	-2.1042	453.982	358.376	178.473	460.997	338.274	413.783	401.190	206.697	526.196	401.439	172.385	409.885	521.936	491.526	259.974	494.658	0.00031474	0.00038199	5.9425e-05	1091.5	2.8784e-06	3.2162e-06	1200.6	233.27	3.9264e-06	3.139e-06	298.08	84.197	66.328	19.561	2.1001e-06	27.412	0.00025566	0.00019196	4.814e-05	1076.8	2.4973e-06	2.0222e-06	1187.5	232.67	2.1841e-06	1.7588e-06	296.07	85.027	66.308	19.809	1.7595e-06	27.781	278.527	258.847	273.924	176.771	319.760	317.681	176.972	184.353	323.459	337.704	184.575	191.021	190.956	198.267	319.886	198.171	-8191	255	
582.969	1	1	0	0	0.11535	0.12136	0.28613	0.099156	0.29843	0.11391	0.12981	0.29252	0.24551	0.056308	0.26898	0.19215	0.081319	0.065731	0.13555	0.20237	-2.2792	-2.5792	-1.9979	-2.9146	-2.4188	-2.2292	-3.1083	-2.2271	-2.5833	-2.5167	-1.9646	-2.7875	-2.575	-2.15	-3.0438	-2	173.266	425.411	285.061	371.723	253.143	254.030	240.241	362.663	267.917	207.704	385.482	416.342	494.429	265.606	276.099	316.479	0.00031702	0.00027173	7.1546e-05	1089.6	2.8157e-06	3.9081e-06	1200.1	232.78	3.7775e-06	3.4972e-06	297.89	84.194	66.194	19.56	2.9772e-06	27.479	0.00024563	0.0001728	5.3709e-05	1074.1	2.4042e-06	2.1056e-06	1188.6	232.17	2.2951e-06	1.9048e-06	296.15	84.8	66.211	19.765	1.8676e-06	27.808	273.705	252.895	275.537	177.390	301.239	345.052	177.310	184.439	320.521	313.970	184.119	190.984	191.301	198.211	311.320	198.360	-8191	255	
583.066	1	1	0	0	0.073148	0.14473	0.19241	0.20327	0.202	0.10407	0.27761	0.13442	0.057266	0.1515	0.21346	0.078363	0.27994	0.12073	0.24977	0.063832	-2.2062	-2.9583	-2.2917	-2.7854	-2.4083	-2.2396	-2.9667	-2.2667	-2.5042	-2.7938	-2.1958	-2.7333	-2.4729	-2.0208	-2.8417	-2.2104	334.187	350.424	241.264	494.143	457.838	433.689	494.235	424.507	505.116	220.925	224.527	452.724	506.195	322.465	241.537	375.229	0.00031267	0.0001544	8.9436e-05	1088.1	5.9561e-06	2.8958e-06	1205	234.33	3.3282e-06	1.8351e-06	300.1	84.58	66.034	19.678	3.4101e-06	27.163	0.00024578	0.00016524	5.4241e-05	1073.4	2.4405e-06	1.9917e-06	1189.7	232.92	2.2667e-06	1.792e-06	297.79	84.784	66.091	19.859	1.9652e-06	27.635	275.480	254.524	246.737	177.359	316.464	327.957	176.671	183.912	337.992	289.061	183.456	190.710	190.994	198.077	350.228	197.669	-8191	255	
583.186	1	1	0	0	0.020915	0.12849	0.19604	0.12625	0.1409	0.059379	0.24987	0.35099	0.14829	0.0073076	0.014858	0.057136	0.15828	0.17703	0.27784	0.22728	-2.0479	-2.8542	-2.0604	-2.8063	-2.7375	-2.1354	-2.9	-2.3979	-2.2771	-2.7708	-2.0104	-2.7875	-2.5271	-2.2333	-2.65	-2.2896	247.619	184.898	379.155	415.556	411.169	227.385	503.442	515.464	317.832	369.301	415.203	176.329	430.585	511.122	424.147	506.323	0.00030803	0.00026591	9.901e-05	1087.6	3.9714e-06	1.1233e-06	1205.4	233.35	3.8958e-06	2.2689e-06	297.58	85.065	65.744	19.595	2.6645e-06	27.384	0.00025617	0.00017269	5.3633e-05	1073.4	2.1685e-06	2.0258e-06	1188.5	232.33	2.2941e-06	1.7636e-06	296.8	85.044	66.003	19.787	2.0054e-06	27.791	278.596	258.347	262.771	177.489	298.841	297.964	177.040	184.539	335.203	326.989	183.530	190.465	190.957	198.340	303.809	198.580	-8191	255	
583.258	1	1	0	0	0.063939	0.085715	0.1886	0.17754	0.10524	0.053284	0.15504	0.25237	0.12888	0.074504	0.18525	0.08488	0.30104	0.49502	0.10642	0.079832	-2.0521	-2.8708	-2.0333	-2.7812	-2.7729	-2.0479	-2.9333	-2.7021	-2.25	-2.9771	-2.2708	-2.4833	-2.8063	-2.1104	-2.6292	-2.6708	264.029	513.464	220.242	255.329	187.895	186.644	494.113	469.465	463.404	346.308	292.807	210.582	181.975	224.920	367.084	243.365	0.00027598	0.00016883	7.9151e-05	1092	4.9143e-06	2.3281e-06	1201.9	233.29	3.5535e-06	1.7963e-06	299.08	84.1	65.849	19.395	3.1267e-06	27.31	0.00023943	0.00016976	5.4287e-05	1075	2.2091e-06	1.9174e-06	1187.5	232.2	2.2257e-06	1.8438e-06	296.72	84.706	65.942	19.76	1.852e-06	27.782	274.634	275.872	233.133	177.286	329.179	300.135	176.727	183.820	315.707	321.815	182.977	190.263	190.609	198.029	351.603	197.783	-8191	255	
583.354	1	1	0	0	0.14047	0.15555	0.16353	0.074127	0.054331	0.10293	0.15371	0.13408	0.028003	0.12255	0.041502	0.1038	0.16961	0.18615	0.1952	0.10466	-1.5104	-2.6542	-2.1896	-2.5438	-2.7729	-2.0542	-2.775	-2.5417	-1.8937	-2.9688	-2.1917	-2.4104	-2.6479	-2.0229	-2.6417	-2.6188	478.427	255.753	333.729	300.505	173.323	294.752	497.963	473.001	190.040	248.766	430.364	498.381	304.652	167.088	229.525	234.677	0.00030974	0.00020684	0.00013393	1087.7	3.7364e-06	2.4572e-06	1202.7	233.43	3.6125e-06	2.632e-06	295.64	83.976	66.086	19.44	1.9937e-06	27.404	0.00025632	0.00017231	5.2461e-05	1073.2	2.2154e-06	2.0678e-06	1185.1	231.97	2.3304e-06	1.8993e-06	295.84	84.79	65.997	19.745	1.8582e-06	27.714	278.859	252.640	275.984	176.697	303.660	303.773	176.639	183.737	326.918	316.924	183.496	190.515	191.134	197.674	312.219	197.229	-8191	255	
583.450	1	1	0	0	0.24748	0.16937	0.066363	0.20128	0.12563	0.15162	0.23961	0.10674	0.24979	0.066492	0.22002	0.12709	0.040308	0.16301	0.2907	0.12577	-1.5292	-2.6188	-2.2896	-2.3854	-2.8167	-2.4208	-2.775	-2.7375	-1.9667	-2.775	-2.2313	-2.4917	-3.0458	-2.2125	-2.6312	-2.7375	495.831	438.154	433.512	218.971	319.055	495.925	439.429	331.422	349.508	218.498	407.594	299.700	312.736	491.996	391.370	191.587	0.00029244	0.00029764	9.3725e-05	1086.2	3.905e-06	1.3833e-06	1203	233.06	4.2571e-06	1.5035e-06	297.22	84.098	65.866	19.491	2.6908e-06	27.427	0.00025118	0.00017112	5.1229e-05	1072.4	2.2774e-06	1.8297e-06	1185.7	232.12	2.1978e-06	1.7449e-06	295.6	84.551	65.835	19.733	2.06e-06	27.725	277.416	257.115	267.415	176.735	307.944	355.081	176.882	183.794	323.894	330.860	183.865	190.821	190.967	197.863	318.098	197.132	-8191	255	
583.571	1	1	0	0	0.077167	0.091235	0.28176	0.50568	0.13007	0.11944	0.059114	0.11158	0.13887	0.30273	0.12164	0.16204	0.08228	0.098431	0.098693	0.1991	-1.6938	-2.8083	-2.6042	-2.4917	-2.8438	-2.225	-2.6396	-2.9479	-2.0812	-3.0125	-2.4458	-2.2	-2.8854	-2.3167	-2.5583	-3.0729	282.138	208.153	403.645	474.302	284.151	189.561	213.076	463.590	381.447	411.221	173.384	253.603	257.165	282.729	497.458	343.577	0.00032892	0.0002381	8.9293e-05	1088.7	3.7755e-06	3.9897e-06	1194.8	234.85	3.7193e-06	4.0216e-06	298.23	84.362	65.75	19.473	3.7753e-06	27.256	0.00025591	0.00015273	4.9327e-05	1072.7	2.3269e-06	1.9089e-06	1181.3	232.65	2.2005e-06	1.8698e-06	296.53	84.731	66.002	19.755	2.1359e-06	27.66	274.045	275.056	264.942	176.689	298.209	319.963	176.614	183.900	325.604	310.110	183.496	190.577	190.937	198.387	315.169	197.590	-8191	255	
583.667	1	1	0	0	0.11535	0.2066	0.30148	0.25264	0.16616	0.14414	0.33955	0.1413	0.17222	0.19507	0.1317	0.25209	0.13534	0.065502	0.11808	0.032311	-1.9354	-2.7542	-2.4938	-2.1188	-3.0833	-2.3708	-2.3604	-2.7917	-1.9958	-2.775	-2.6667	-2.1417	-2.8458	-2.2833	-2.3021	-2.7042	283.307	348.100	511.462	467.400	242.796	430.261	364.851	325.622	446.142	256.522	250.574	474.710	249.562	520.650	450.446	377.727	0.00031718	0.00013442	8.0326e-05	1085.3	3.4237e-06	1.6997e-06	1198.3	234.28	3.2893e-06	2.8738e-06	296.78	84.267	66.305	19.474	2.5426e-06	27.192	0.00025603	0.00017438	5.3982e-05	1071.1	2.299e-06	1.7633e-06	1184.4	232.59	2.3756e-06	1.7684e-06	295.89	84.602	66.029	19.715	2.1548e-06	27.691	275.828	267.747	255.259	176.722	303.214	320.460	176.760	183.580	317.995	299.528	183.685	190.175	191.102	197.941	357.362	197.846	-8191	255	
583.763	1	1	0	0	0.27692	0.18433	0.26337	0.22816	0.27769	0.075441	0.21086	0.29307	0.04622	0.079273	0.14198	0.035624	0.012286	0.38554	0.12192	0.2904	-1.6437	-2.5771	-2.8438	-2.2208	-2.6833	-2.1458	-2.3854	-3.15	-2.0792	-2.625	-2.6167	-2.0167	-2.8479	-2.4042	-2.2646	-3.0396	230.876	521.851	475.753	168.294	179.646	405.064	318.581	399.960	336.251	230.370	459.257	223.284	284.406	419.880	300.792	489.681	0.00029744	0.00020368	9.0875e-05	1091	3.2919e-06	2.602e-06	1201.3	233.14	3.0387e-06	3.155e-06	296.1	84.489	65.813	19.343	3.0882e-06	27.418	0.00024649	0.0001715	4.7029e-05	1073.6	2.3769e-06	1.9813e-06	1186.3	232.07	2.2609e-06	1.865e-06	295.47	84.852	65.9	19.713	2.1086e-06	27.751	275.928	237.168	272.163	176.738	299.441	329.417	177.065	184.321	335.022	308.894	184.201	190.949	191.024	198.095	338.923	197.541	-8191	255	
583.859	1	1	0	0	0.34816	0.10544	0.23476	0.22389	0.22087	0.14634	0.13217	0.24671	0.26186	0.1174	0.19098	0.21813	0.19607	0.020372	0.071022	0.19385	-1.8479	-2.4271	-2.5521	-2.0604	-2.6917	-2.5125	-2.3792	-2.9083	-2.25	-2.5229	-2.625	-1.975	-2.8438	-2.6813	-2.0875	-2.8187	499.379	518.873	332.716	495.649	503.103	443.663	440.422	209.344	252.557	217.132	508.091	291.562	499.358	253.519	323.364	242.304	0.00031792	0.00030464	7.3595e-05	1085.4	4.4889e-06	2.919e-06	1209.2	233.51	3.0644e-06	3.6675e-06	298.32	84.36	66.027	19.385	2.3276e-06	27.44	0.00024965	0.0001863	4.6908e-05	1073.1	2.3611e-06	2.1019e-06	1188.6	232.39	2.1494e-06	1.9506e-06	296.49	84.627	65.988	19.699	2.0472e-06	27.726	279.283	242.861	268.469	176.195	317.810	329.696	176.339	183.792	318.531	333.326	183.872	190.263	190.771	197.362	345.752	196.291	-8191	255	
583.954	1	1	0	0	0.08491	0.25016	0.16244	0.29884	0.13401	0.1728	0.23108	0.18494	0.12388	0.12318	0.21088	0.15515	0.30393	0.041784	0.23176	0.081097	-1.8667	-2.2208	-2.5646	-2.1958	-2.5083	-2.6688	-2.2833	-2.95	-2.3333	-2.1875	-2.5896	-2.0104	-2.5958	-2.4625	-1.9021	-2.9	279.908	292.701	297.637	481.661	190.902	512.075	443.661	276.767	434.717	285.654	474.626	508.196	365.289	437.617	402.354	287.761	0.00031024	0.00034389	0.00010696	1081.3	5.1519e-06	2.8486e-06	1203.2	234.17	2.8541e-06	1.4904e-06	296.99	83.944	65.805	19.478	4.225e-06	27.094	0.00024744	0.00019691	5.1168e-05	1071.1	2.3906e-06	1.9375e-06	1186.7	232.8	2.3898e-06	2.0804e-06	295.29	84.577	65.942	19.735	2.2848e-06	27.729	275.367	247.387	273.333	175.790	298.287	318.867	175.987	183.276	346.889	285.888	182.860	190.022	190.531	197.327	321.655	197.148	-8191	255	
584.050	1	1	0	0	0.16409	0.23684	0.17331	0.22536	0.028714	0.22536	0.38188	0.16523	0.079933	0.11737	0.28912	0.12106	0.30657	0.31087	0.1061	0.23978	-2	-2.1083	-2.8896	-2.3104	-2.2979	-2.6562	-2.1167	-2.8771	-2.5146	-2.2479	-2.7771	-2.1521	-2.65	-2.8521	-2.1042	-2.6688	437.289	218.799	358.534	502.230	284.484	172.590	427.043	488.146	293.479	205.096	512.846	468.765	171.391	496.468	355.680	497.876	0.00030392	0.00036637	9.6846e-05	1086.3	3.1147e-06	3.4537e-06	1202.6	233.02	2.9642e-06	3.5613e-06	298.77	84.126	66.108	19.508	2.8224e-06	27.504	0.00024555	0.00019718	5.1229e-05	1072.6	2.3606e-06	2.133e-06	1185.5	232.11	2.1168e-06	2.0538e-06	296.59	84.386	66.029	19.728	2.3355e-06	27.756	277.968	256.755	288.858	175.844	313.567	309.507	175.781	183.437	319.098	322.029	182.276	189.371	190.636	197.172	345.917	196.539	-8191	255	
584.170	1	1	0	0	0.26566	0.22341	0.063955	0.38206	0.11947	0.28035	0.51979	0.21477	0.27011	0.45855	0.22935	0.177	0.23864	0.25822	0.10289	0.072592	-2.05	-2.1688	-2.6729	-2.2938	-2.5458	-2.6667	-2.25	-2.7708	-2.3875	-1.9521	-2.8833	-2.3979	-2.2354	-2.6604	-2.1667	-2.85	383.599	366.732	327.291	473.252	204.744	494.973	453.237	428.482	408.494	294.154	478.228	471.477	207.066	457.492	406.831	379.256	0.00028881	0.00021246	4.64e-05	1081.8	3.4938e-06	2.2136e-06	1198.8	233.22	2.8932e-06	3.3674e-06	296	84.842	66.187	19.332	2.8569e-06	27.393	0.00024724	0.00019707	4.7029e-05	1071.2	2.3516e-06	1.8784e-06	1185.9	232.17	2.1405e-06	1.9971e-06	296.46	84.859	66.023	19.719	2.0138e-06	27.684	278.194	284.036	250.277	175.731	313.634	310.509	175.863	183.255	312.217	335.052	182.537	189.272	189.801	196.965	339.378	196.269	-8191	255	
584.267	1	1	0	0	0.14972	0.090685	0.2639	0.035312	0.05161	0.054216	0.20482	0.17945	0.076463	0.25974	0.13878	0.1076	0.32559	0.054612	0.1185	0.084017	-2.2667	-1.95	-2.7896	-2.4229	-2.4688	-2.9979	-2.3854	-2.6854	-2.7313	-2.0271	-2.8438	-2.3604	-2.2562	-3.0083	-2.2729	-2.5438	424.952	473.933	251.229	352.635	235.599	251.182	481.741	494.252	295.425	325.050	493.204	243.933	474.276	272.796	305.849	402.802	0.00032262	0.00025979	7.8807e-05	1082.8	4.0603e-06	3.7548e-06	1199.6	234.25	2.8033e-06	3.5944e-06	294.65	84.361	65.842	19.57	3.7398e-06	27.373	0.00025132	0.00017231	4.8079e-05	1072.2	2.4605e-06	1.7651e-06	1185.8	232.73	2.0432e-06	2.1431e-06	296	84.598	65.926	19.763	2.031e-06	27.791	276.228	264.491	241.244	175.200	296.862	297.385	175.756	183.126	320.115	308.396	182.515	189.223	190.134	196.935	300.537	196.625	-8191	255	
584.363	1	1	0	0	0.16974	0.096368	0.14201	0.19639	0.12183	0.082376	0.18657	0.11607	0.020388	0.32525	0.10998	0.19316	0.16884	0.10927	0.24461	0.1891	-2.3083	-1.9333	-2.5729	-2.5125	-2.2667	-2.8729	-2.2562	-2.2521	-2.6937	-2.2167	-2.725	-2.7208	-2.125	-2.8438	-2.1312	-2.4896	427.579	427.184	205.507	499.297	268.616	313.117	362.922	212.575	243.233	324.415	182.720	460.801	413.217	348.594	501.039	508.997	0.00030155	0.00028046	9.4625e-05	1085.1	3.8758e-06	2.5731e-06	1191.6	232.05	4.0251e-06	2.282e-06	295.87	84.492	65.762	19.338	2.5088e-06	27.438	0.0002336	0.0001907	4.7881e-05	1071.8	2.4405e-06	1.728e-06	1182	231.92	2.2604e-06	2.0532e-06	295.58	84.642	65.71	19.671	2.1013e-06	27.783	278.488	231.941	259.889	175.554	314.428	335.862	175.358	183.191	327.628	329.830	183.370	189.764	190.022	196.785	326.914	196.949	-8191	255	
584.459	1	1	0	0	0.074769	0.12503	0.31021	0.15552	0.028156	0.21821	0.08296	0.20763	0.13561	0.1244	0.01564	0.2704	0.14535	0.049283	0.14597	0.28024	-2.6625	-2.1104	-2.7125	-2.5896	-2.0354	-2.7167	-2.4271	-2.2125	-2.4771	-2.0563	-2.8063	-2.8771	-1.9271	-2.9313	-2.4167	-2.3854	319.589	372.724	260.117	353.335	368.546	488.002	446.331	513.805	261.011	238.314	509.506	291.233	322.000	463.727	287.213	270.506	0.00033375	0.00018442	9.5173e-05	1086.6	2.7753e-06	3.1639e-06	1197.4	232.53	3.063e-06	3.2783e-06	294.81	84.499	65.97	19.411	3.8617e-06	27.423	0.0002456	0.00017498	5.4987e-05	1070.6	2.3953e-06	1.8729e-06	1183.7	231.87	2.0621e-06	1.9319e-06	295.28	84.71	65.995	19.706	2.1766e-06	27.761	277.439	254.975	262.884	175.659	304.777	329.564	175.681	183.206	321.832	310.437	182.787	189.570	190.523	197.557	343.524	196.652	-8191	255	
584.555	1	1	0	0	0.19264	0.13577	0.18488	0.091765	0.1588	0.24832	0.22225	0.052354	0.10952	0.33863	0.12893	0.32281	0.084094	0.44308	0.19946	0.16572	-2.6479	-2.2042	-2.3688	-2.6813	-2.0104	-2.6896	-2.4417	-2.2417	-2.7896	-2.2875	-2.6208	-2.8521	-2.1354	-2.7104	-2.6083	-2.1104	309.055	431.460	480.980	511.382	266.416	188.594	470.133	509.887	195.147	450.961	478.813	448.821	349.666	516.511	461.788	510.235	0.0003021	0.00030059	7.0121e-05	1084.1	3.0978e-06	2.3376e-06	1192	232.84	4.0694e-06	3.2295e-06	298.22	84.638	65.871	19.549	2.8394e-06	27.351	0.00024652	0.00017977	5.0726e-05	1071.4	2.3558e-06	1.9582e-06	1182.3	231.97	2.1089e-06	2.1371e-06	296.7	84.733	65.899	19.749	1.9937e-06	27.762	273.944	239.780	267.493	175.545	308.682	360.587	175.656	183.141	315.945	316.040	182.825	189.267	190.351	197.277	311.692	196.443	-8191	255	
#DATA ENDS
