BOXY.EXE: ISS Imagent and Oximeter Data Acquisition Program Version 0.80
Ascii Record File

#ACQ INFORMATION
2  Detector Channels 
16  External MUX Channels 
1  Auxiliary Channels 
5000  Waveform (CCF) Frequency (Hz)
1  Waveforms Skipped 
30  Waveforms Averaged 
1  Cycles Averaged 
16  Acquisitions per Waveform 
10.0806  Updata Rate (Hz) 

#FILE INFORMATION
TRUE -- External MUX Channel results are PARSED.
FALSE -- AC DC and Phase are NOT grouped.
TRUE -- Companion Program Settings File CREATED.
FALSE -- AC data not excluded
FALSE -- DC data not excluded
FALSE -- Phase data not excluded
FALSE -- Auxillary Chn. data not excluded
Tab delimiters

#CALIBRATION STATE
TRUE -- Waveform Calibration Values APPLIED.


#AUX CALIBRATION VALUES
Val Type	aux-1	

Term	1.0000e+00	
Factor	0.0000e+00	


#WF CALIBRATION VALUES
A = Detector Channel
Val Type	A-AC1	A-AC2	A-AC3	A-AC4	A-AC5	A-AC6	A-AC7	A-AC8	A-AC9	A-AC10	A-AC11	A-AC12	A-AC13	A-AC14	A-AC15	A-AC16	A-DC1	A-DC2	A-DC3	A-DC4	A-DC5	A-DC6	A-DC7	A-DC8	A-DC9	A-DC10	A-DC11	A-DC12	A-DC13	A-DC14	A-DC15	A-DC16	A-Ph1	A-Ph2	A-Ph3	A-Ph4	A-Ph5	A-Ph6	A-Ph7	A-Ph8	A-Ph9	A-Ph10	A-Ph11	A-Ph12	A-Ph13	A-Ph14	A-Ph15	A-Ph16	

Term	0.00000e+00	0.00000e+00	0.00000e+00	0.00000e+00	0.00000e+00	0.00000e+00	0.00000e+00	0.00000e+00	0.00000e+00	0.00000e+00	0.00000e+00	0.00000e+00	0.00000e+00	0.00000e+00	0.00000e+00	0.00000e+00	0.00000e+00	0.00000e+00	0.00000e+00	0.00000e+00	0.00000e+00	0.00000e+00	0.00000e+00	0.00000e+00	0.00000e+00	0.00000e+00	0.00000e+00	0.00000e+00	0.00000e+00	0.00000e+00	0.00000e+00	0.00000e+00	0.00000e+00	0.00000e+00	0.00000e+00	0.00000e+00	0.00000e+00	0.00000e+00	0.00000e+00	0.00000e+00	0.00000e+00	0.00000e+00	0.00000e+00	0.00000e+00	0.00000e+00	0.00000e+00	0.00000e+00	0.00000e+00	
Factor	1.00000e+00	1.00000e+00	1.00000e+00	1.00000e+00	1.00000e+00	1.00000e+00	1.00000e+00	1.00000e+00	1.00000e+00	1.00000e+00	1.00000e+00	1.00000e+00	1.00000e+00	1.00000e+00	1.00000e+00	1.00000e+00	1.00000e+00	1.00000e+00	1.00000e+00	1.00000e+00	1.00000e+00	1.00000e+00	1.00000e+00	1.00000e+00	1.00000e+00	1.00000e+00	1.00000e+00	1.00000e+00	1.00000e+00	1.00000e+00	1.00000e+00	1.00000e+00	X	X	X	X	X	X	X	X	X	X	X	X	X	X	X	X	

B = Detector Channel
Val Type	B-AC1	B-AC2	B-AC3	B-AC4	B-AC5	B-AC6	B-AC7	B-AC8	B-AC9	B-AC10	B-AC11	B-AC12	B-AC13	B-AC14	B-AC15	B-AC16	B-DC1	B-DC2	B-DC3	B-DC4	B-DC5	B-DC6	B-DC7	B-DC8	B-DC9	B-DC10	B-DC11	B-DC12	B-DC13	B-DC14	B-DC15	B-DC16	B-Ph1	B-Ph2	B-Ph3	B-Ph4	B-Ph5	B-Ph6	B-Ph7	B-Ph8	B-Ph9	B-Ph10	B-Ph11	B-Ph12	B-Ph13	B-Ph14	B-Ph15	B-Ph16	

Term	0.00000e+00	0.00000e+00	0.00000e+00	0.00000e+00	0.00000e+00	0.00000e+00	0.00000e+00	0.00000e+00	0.00000e+00	0.00000e+00	0.00000e+00	0.00000e+00	0.00000e+00	0.00000e+00	0.00000e+00	0.00000e+00	0.00000e+00	0.00000e+00	0.00000e+00	0.00000e+00	0.00000e+00	0.00000e+00	0.00000e+00	0.00000e+00	0.00000e+00	0.00000e+00	0.00000e+00	0.00000e+00	0.00000e+00	0.00000e+00	0.00000e+00	0.00000e+00	-4.82867e+01	-1.31521e+02	-1.29090e+02	-1.82778e+02	-5.00932e+01	-6.85385e+01	-1.59964e+02	-1.62015e+02	-3.45550e+01	-6.98819e+01	-1.78192e+02	-1.73211e+02	-1.80356e+02	-1.77624e+02	-4.73150e+01	-1.50550e+02	
Factor	2.03344e-05	1.89891e-04	5.74514e-05	1.58307e-01	1.90108e-06	2.09202e-06	1.94733e-01	5.79786e-02	1.52646e-06	2.11415e-06	3.21294e-01	3.10011e-02	3.06678e-02	9.11195e-03	1.92150e-06	1.28799e-02	1.37867e-05	2.61164e-05	7.30315e-06	8.26885e-02	2.52523e-07	2.92360e-07	9.52919e-02	3.04267e-02	2.52502e-07	2.89608e-07	1.62620e-01	1.57850e-02	1.63068e-02	4.82875e-03	2.67683e-07	6.59689e-03	X	X	X	X	X	X	X	X	X	X	X	X	X	X	X	X	



#DISTANCE SETTINGS
A = Detector Channel
A-1	A-2	A-3	A-4	A-5	A-6	A-7	A-8	A-9	A-10	A-11	A-12	A-13	A-14	A-15	A-16	

2.5000e+00	3.0000e+00	2.5000e+00	3.0000e+00	2.0000e+00	3.0000e+00	1.5000e+00	3.0000e+00	3.0000e+00	3.0000e+00	3.0000e+00	3.0000e+00	3.0000e+00	3.0000e+00	1.5000e+00	3.0000e+00	

B = Detector Channel
B-1	B-2	B-3	B-4	B-5	B-6	B-7	B-8	B-9	B-10	B-11	B-12	B-13	B-14	B-15	B-16	

1.0000e+01	1.0000e+01	1.0000e+01	1.4400e+00	1.0000e+01	1.0000e+01	1.5100e+00	1.9400e+00	1.0000e+01	1.0000e+01	1.9900e+00	2.4900e+00	2.4100e+00	2.9000e+00	1.0000e+01	2.9800e+00	




#DATA BEGINS
time	group	step	mark	flag	A-AC1	A-AC2	A-AC3	A-AC4	A-AC5	A-AC6	A-AC7	A-AC8	A-AC9	A-AC10	A-AC11	A-AC12	A-AC13	A-AC14	A-AC15	A-AC16	A-DC1	A-DC2	A-DC3	A-DC4	A-DC5	A-DC6	A-DC7	A-DC8	A-DC9	A-DC10	A-DC11	A-DC12	A-DC13	A-DC14	A-DC15	A-DC16	A-Ph1	A-Ph2	A-Ph3	A-Ph4	A-Ph5	A-Ph6	A-Ph7	A-Ph8	A-Ph9	A-Ph10	A-Ph11	A-Ph12	A-Ph13	A-Ph14	A-Ph15	A-Ph16	B-AC1	B-AC2	B-AC3	B-AC4	B-AC5	B-AC6	B-AC7	B-AC8	B-AC9	B-AC10	B-AC11	B-AC12	B-AC13	B-AC14	B-AC15	B-AC16	B-DC1	B-DC2	B-DC3	B-DC4	B-DC5	B-DC6	B-DC7	B-DC8	B-DC9	B-DC10	B-DC11	B-DC12	B-DC13	B-DC14	B-DC15	B-DC16	B-Ph1	B-Ph2	B-Ph3	B-Ph4	B-Ph5	B-Ph6	B-Ph7	B-Ph8	B-Ph9	B-Ph10	B-Ph11	B-Ph12	B-Ph13	B-Ph14	B-Ph15	B-Ph16	aux-1	digaux	

1264.575	1	1	0	768	0.15979	0.2171	0.14158	0.13057	0.38975	0.17332	0.11632	0.28651	0.16804	0.20618	0.15037	0.16045	0.097965	0.35102	0.27035	0.16176	-2.4062	-1.8937	-2.5167	-2.6875	-1.9813	-2.8833	-2.6354	-2.1875	-2.7229	-2.1729	-2.5646	-2.8	-2.1083	-2.7833	-2.175	-2.25	69.709	41.291	95.217	94.175	133.170	11.507	184.784	227.281	-4.036	-13.235	55.983	-71.057	-90.667	-7.326	56.616	-38.469	0.00032718	0.0019461	0.0005354	1320.9	5.7586e-06	5.3885e-06	1184.1	455.13	2.5962e-05	6.1646e-06	429.69	125.43	132.32	47.618	3.4692e-05	51.574	0.098	0.1863	0.051518	1725.8	0.0017549	0.0020613	1695.8	606.41	0.0017422	0.0020194	1494.1	218.7	229.12	75.623	0.0018321	89.963	227.590	157.815	19.847	-97.400	192.524	-20.816	-97.631	-91.476	163.930	60.963	-94.487	-88.954	-85.813	-81.505	54.128	-84.851	-8191	255	
1264.671	1	1	0	0	0.089817	0.079143	0.18886	0.25115	0.14698	0.12815	0.15032	0.28311	0.33307	0.070888	0.053407	0.32813	0.13971	0.052668	0.1806	0.079127	-2.3271	-2.1	-2.3625	-2.8104	-1.9021	-2.8021	-2.5104	-2.1042	-2.8083	-2.1208	-2.3063	-2.9188	-1.9833	-2.9437	-2.5542	-2.075	196.590	170.824	84.259	209.140	10.366	131.062	-44.293	177.253	-40.499	248.532	122.149	181.082	-70.210	136.623	31.743	33.109	0.00074716	0.0046475	0.00049379	1309.2	6.1442e-05	6.3803e-05	1175.2	447.54	2.1468e-05	5.3339e-05	428.49	125.12	130.34	46.914	4.0759e-05	50.158	0.095402	0.18104	0.049909	1711.3	0.0017447	0.0020352	1686.5	602.04	0.0017511	0.0020103	1482.8	217.88	227.72	74.636	0.0018137	89.304	198.594	169.950	99.930	-97.244	-54.991	126.836	-97.698	-91.075	-34.198	79.211	-93.601	-88.045	-85.786	-80.831	-28.081	-84.567	-8191	255	
1264.765	1	1	0	0	0.19388	0.12443	0.098708	0.32113	0.18247	0.18532	0.1428	0.20528	0.20374	0.17242	0.23655	0.071399	0.16491	0.26867	0.072542	0.21327	-2.5083	-2.2854	-2.2083	-3.1104	-1.9937	-2.6708	-2.6646	-1.9688	-2.6875	-2.1583	-2.2417	-2.8208	-2.1312	-2.6958	-2.6708	-2.1937	-53.929	144.163	51.036	244.997	-8.160	233.056	143.699	117.297	247.683	-98.733	137.161	91.676	185.544	215.740	-49.775	120.150	0.00039812	0.0028223	0.00075799	1294.2	6.4489e-05	6.7727e-05	1163.6	439.11	3.9516e-05	8.1758e-05	417.68	120.21	127.22	45.477	6.7134e-05	48.416	0.095708	0.18028	0.049382	1701.6	0.0017439	0.0020263	1667.3	598.08	0.0017644	0.0020081	1475.9	216.4	226.8	73.811	0.0018454	89.112	81.520	-7.078	-84.159	-97.433	67.983	59.233	-97.788	-91.604	227.800	-15.329	-94.163	-88.465	-85.624	-80.959	-61.687	-84.701	-8191	255	
1264.863	1	1	0	0	0.061724	0.20648	0.10021	0.1853	0.058156	0.02168	0.10035	0.28557	0.17235	0.20664	0.062043	0.1715	0.21462	0.26497	0.052214	0.092351	-2.3146	-2.2708	-2.1813	-3.1104	-1.8833	-2.5125	-2.5729	-2.1042	-2.8021	-2.3354	-2.2583	-2.8521	-1.9271	-2.5958	-2.7562	-2.0604	243.033	-83.270	-7.855	209.660	159.417	44.451	131.671	243.567	59.645	99.369	9.837	-80.956	229.114	208.626	-4.512	193.280	0.00049197	0.00079336	0.0014901	1307.7	3.5831e-05	6.7422e-05	1166.3	447.27	5.8844e-05	6.2281e-05	425.32	125.98	132.48	47.574	4.7551e-05	52.045	0.097257	0.18127	0.0504	1723.3	0.0017798	0.0020472	1685.7	611.52	0.0018009	0.0020495	1515.8	224.94	233.59	76.737	0.0018952	93.764	8.923	-2.534	189.718	-97.005	19.219	97.412	-97.354	-91.231	35.145	32.275	-92.917	-88.084	-84.922	-81.041	131.309	-85.020	-8191	255	
1264.958	1	1	0	0	0.051104	0.30547	0.27344	0.31701	0.10709	0.2927	0.17991	0.06201	0.023271	0.31472	0.14287	0.27727	0.15433	0.14207	0.16408	0.19718	-2.1813	-2.3771	-1.9688	-3.0854	-2.0917	-2.4104	-2.8625	-2.3312	-2.7313	-2.2583	-2.0917	-2.8042	-2.3042	-2.5292	-2.7396	-1.9625	227.334	9.394	53.447	225.480	-104.762	86.164	-91.957	141.256	208.005	87.817	18.845	-3.448	238.112	164.562	178.561	-104.541	0.00094222	0.0070517	0.0012499	1318.5	2.2038e-05	2.7653e-05	1208.7	460.85	1.5514e-05	6.344e-05	446.32	133.42	137.47	49.664	3.4226e-05	53.856	0.10033	0.18723	0.052711	1769.7	0.0018593	0.0021352	1756.7	635.05	0.0018916	0.0021333	1607.5	238.87	244.4	79.968	0.0020107	98.079	-43.946	-76.239	-9.232	-97.031	-27.558	219.399	-97.949	-91.611	210.582	154.553	-93.378	-88.137	-85.554	-81.559	213.346	-84.522	-8191	255	
1265.056	1	1	0	0	0.22951	0.11877	0.056781	0.19596	0.16409	0.11961	0.086083	0.31058	0.20162	0.1539	0.28463	0.21364	0.065853	0.11218	0.086257	0.22093	-2.2833	-2.4125	-2.0146	-2.8083	-2.1708	-2.3667	-3.05	-1.9833	-2.5438	-2.5479	-2.1396	-2.8	-2.3771	-2.2125	-2.7313	-2.0667	156.135	205.108	89.196	177.656	239.901	-75.562	86.311	184.796	117.490	-13.707	5.699	-96.076	108.352	-71.687	-36.192	122.014	0.00065821	0.0006612	0.001701	1314.1	7.3112e-05	7.6207e-05	1199.4	460.08	5.7837e-05	4.1812e-05	433.93	131.47	134.83	48.647	1.0225e-05	52.144	0.10463	0.19452	0.055423	1791.2	0.0018985	0.0021847	1777.9	638.4	0.001914	0.0021861	1636.7	238.03	242.7	79.59	0.0020662	96.957	-12.120	233.991	21.329	-97.130	226.057	4.673	-97.684	-91.938	89.967	240.804	-93.325	-88.179	-85.570	-81.413	24.867	-84.465	-8191	255	
1265.175	1	1	0	0	0.17133	0.11712	0.091577	0.39807	0.17919	0.12951	0.20879	0.1925	0.20964	0.22823	0.19516	0.16113	0.29821	0.1735	0.16639	0.24457	-2.2354	-2.5146	-2.075	-2.8375	-2.3271	-2.0771	-2.8979	-2.1896	-2.5729	-2.7604	-2.125	-2.7438	-2.4854	-2.1729	-2.9396	-2.2438	-21.035	148.976	73.768	-106.211	-41.233	244.366	232.921	238.046	-54.655	162.774	236.098	39.730	205.885	-41.800	-104.253	-109.444	0.00047082	0.0017631	0.0022922	1321.9	2.8992e-05	2.9507e-05	1188.1	456.62	4.6752e-05	9.3745e-05	424.65	127.14	130.98	46.815	3.3278e-05	49.693	0.10468	0.19746	0.05629	1797.9	0.0019009	0.0022055	1776.3	634.49	0.001897	0.0021875	1623	232.98	237.62	77.868	0.0020296	94.041	217.270	-9.512	28.778	-97.164	180.177	229.031	-97.346	-91.506	106.220	247.629	-93.270	-88.585	-86.248	-80.804	-22.437	-84.393	-8191	255	
1265.271	1	1	0	0	0.14	0.24751	0.29599	0.07159	0.12852	0.1939	0.23268	0.19525	0.27359	0.2589	0.24553	0.062359	0.16651	0.22588	0.18157	0.16508	-1.7167	-2.6813	-1.975	-2.6813	-2.5083	-2.0125	-2.9354	-2.3688	-2.4396	-2.7542	-2.1208	-2.65	-2.4854	-2.225	-2.7104	-2.2708	122.346	148.097	56.428	35.866	-11.393	-92.095	144.749	126.588	99.424	45.572	170.831	202.343	-57.654	169.538	-35.341	2.735	0.00028628	0.0067585	0.001292	1325.4	9.0737e-05	9.1901e-05	1184.8	450.71	4.2053e-05	7.96e-05	418.94	123.94	130.49	46.072	4.6286e-05	49.091	0.10268	0.19781	0.055985	1787.8	0.0018999	0.002254	1780.8	634.19	0.0019353	0.0022692	1653.5	233.24	241.18	79.02	0.0021051	94.368	176.454	174.390	143.182	-97.047	-101.556	2.278	-97.064	-91.000	-1.980	145.339	-93.118	-88.428	-86.981	-81.709	102.983	-84.536	-8191	255	
1265.367	1	1	0	0	0.10602	0.07015	0.079096	0.33926	0.079894	0.066482	0.29689	0.075032	0.15554	0.17233	0.091588	0.33049	0.2432	0.21451	0.16719	0.28596	-1.8479	-2.6583	-2.0438	-2.7521	-2.4458	-2.0667	-2.8438	-2.3104	-2.0312	-2.7979	-2.0104	-2.5896	-2.6375	-2.0646	-2.6354	-2.2396	175.728	73.021	-100.987	204.189	-48.514	66.062	-91.923	235.700	-61.449	240.880	47.185	192.132	171.607	233.076	-15.938	-106.388	0.0011646	0.0034931	0.00027894	1329.2	3.9904e-05	3.1033e-05	1180.1	453.94	2.0748e-05	4.5678e-05	423.34	125.73	131.62	47.123	3.8766e-05	50.991	0.1058	0.20339	0.057052	1803	0.0019202	0.0022701	1779.1	627.9	0.0019251	0.0022456	1629.2	230.85	240.67	79.501	0.0020695	94.942	-22.886	83.926	163.623	-96.945	-28.050	218.001	-97.173	-91.741	236.924	97.779	-92.825	-88.689	-86.055	-81.305	235.917	-84.690	-8191	255	
1265.463	1	1	0	0	0.062331	0.14158	0.16983	0.20501	0.27677	0.13627	0.20065	0.41421	0.16684	0.17238	0.10331	0.34507	0.10806	0.033335	0.035623	0.18262	-1.7521	-2.7417	-2.0646	-2.6167	-2.7062	-1.8458	-2.9333	-2.5625	-2.0333	-2.9188	-2.0958	-2.6021	-2.7542	-2.0646	-2.6708	-2.4833	188.486	244.578	16.003	245.849	4.146	121.588	185.544	171.860	-3.745	109.825	188.863	189.265	223.778	-71.486	30.665	44.124	0.00083996	0.0090934	0.0012426	1329.1	1.2225e-05	4.6118e-05	1191.2	458.37	7.5379e-05	4.1779e-05	450.65	132.76	135.73	48.221	2.4159e-05	52.592	0.10553	0.20336	0.056074	1793.1	0.0019211	0.0022599	1781.5	631.86	0.001914	0.0022328	1626.5	235.51	244.82	80.464	0.002047	96.606	-72.887	-95.342	0.916	-97.011	50.691	146.177	-97.401	-91.586	37.716	129.883	-91.976	-87.537	-85.030	-80.683	214.580	-84.674	-8191	255	
1265.559	1	1	0	0	0.28657	0.10662	0.10977	0.22252	0.24282	0.085473	0.19165	0.16911	0.014196	0.061956	0.10919	0.14411	0.28564	0.06233	0.22704	0.097467	-1.7062	-2.7375	-2.0312	-2.5271	-2.7271	-2.1813	-2.7625	-2.6604	-1.8604	-2.8896	-2.2188	-2.4042	-2.9521	-2.2979	-2.7271	-2.7167	4.864	92.589	-42.456	201.110	213.570	164.755	224.950	-70.454	5.818	-108.530	-22.975	240.677	-94.392	202.689	-64.073	1.744	0.00069232	0.0042312	0.0015833	1332	4.2217e-05	4.2889e-05	1196.8	462.29	6.7559e-06	2.2137e-05	438.05	132.21	134.12	48.334	7.8883e-05	52.235	0.10648	0.20371	0.05608	1798.3	0.0019378	0.0022489	1773.6	633.11	0.0018995	0.0021843	1581.2	232.52	241.88	79.414	0.0019752	95.411	228.952	-61.040	-48.316	-95.989	-32.437	236.824	-96.504	-91.242	-100.042	52.826	-93.014	-88.870	-85.425	-80.710	9.317	-84.850	-8191	255	
1265.655	1	1	0	0	0.13771	0.24239	0.13977	0.35861	0.1558	0.12415	0.14014	0.4257	0.2114	0.15345	0.30704	0.38813	0.21412	0.28477	0.20311	0.21049	-1.6042	-2.6542	-1.9208	-2.3875	-2.5896	-2.1125	-2.7604	-2.7792	-1.875	-2.7938	-2.2396	-2.2917	-2.85	-2.1	-2.5417	-2.5042	35.386	-9.025	-69.888	186.167	-10.347	-108.398	219.591	-87.590	-60.077	77.144	-0.147	197.018	184.849	230.213	250.239	123.096	0.0002073	0.0046209	0.0017454	1325.9	3.8025e-05	2.3507e-05	1204.5	462.22	6.5967e-05	6.0201e-05	447.87	130.66	135.68	48.614	6.3325e-05	52.535	0.10504	0.19874	0.054573	1792.4	0.0019358	0.0022371	1772.1	636.66	0.0019247	0.0021957	1587.7	234.53	243.43	79.409	0.0019773	95.422	248.454	233.148	-9.793	-96.701	40.403	51.835	-96.888	-91.356	36.410	15.926	-93.100	-88.168	-85.620	-80.827	144.642	-84.353	-8191	255	
1265.776	1	1	0	0	0.17496	0.25639	0.30966	0.23635	0.17038	0.17745	0.12409	0.35215	0.24208	0.027924	0.15419	0.24663	0.13751	0.060743	0.11975	0.1294	-1.4625	-2.6917	-2.2875	-2.2375	-2.8187	-1.8458	-2.4042	-2.7021	-2	-2.5875	-2.375	-2.0771	-2.7021	-2.225	-2.2646	-2.9083	221.142	196.615	166.055	202.183	-100.208	94.355	187.598	170.271	129.747	150.684	117.627	204.532	214.060	8.685	173.051	142.743	0.00050602	0.0017205	0.0011203	1336.9	4.6801e-05	6.6887e-05	1196.5	456.93	4.8511e-05	1.4795e-05	439.19	130.21	132.48	47.96	4.01e-05	51.643	0.10398	0.19462	0.053341	1784.9	0.0018863	0.0021496	1748.5	629.24	0.001867	0.0021081	1557.2	231.02	238.29	77.32	0.0019346	94.416	81.928	79.442	-33.031	-96.939	-5.409	12.632	-97.528	-91.670	-40.626	-65.948	-94.442	-88.089	-86.087	-81.352	228.042	-84.982	-8191	255	
1265.870	1	1	0	0	0.16786	0.11957	0.17233	0.17735	0.12421	0.11708	0.37538	0.10405	0.035459	0.13201	0.068856	0.2571	0.028566	0.36073	0.11103	0.25487	-1.6271	-2.65	-2.5896	-2.2292	-2.6458	-2.2729	-2.5208	-2.7979	-1.8125	-2.6	-2.4938	-1.9271	-2.825	-2.3604	-2.0583	-2.9104	242.804	183.916	-72.383	-23.715	231.599	24.396	142.125	-28.496	110.769	-56.374	-15.045	-65.441	228.344	228.672	199.850	191.526	0.0001887	0.0031569	0.0013663	1331.5	2.8926e-05	5.379e-05	1201.4	456.13	2.5521e-05	9.6305e-05	438.86	128.77	132.37	47.346	2.2714e-05	51.169	0.10119	0.18869	0.05252	1771.8	0.0018354	0.0020861	1729.4	622.6	0.001807	0.0020251	1521	225.96	230.65	74.945	0.0018217	90.603	173.046	126.455	-75.265	-96.782	218.973	23.123	-97.212	-91.369	58.491	-11.982	-94.892	-87.991	-85.827	-81.199	76.749	-84.454	-8191	255	
1265.966	1	1	0	0	0.13638	0.12197	0.084369	0.19071	0.13219	0.17585	0.24129	0.12954	0.076728	0.058425	0.23459	0.40442	0.21874	0.22698	0.091055	0.1415	-1.4688	-2.3542	-2.4188	-2.0521	-2.7354	-2.2875	-2.4896	-2.7958	-2.0271	-2.5458	-2.4188	-2.0604	-2.8083	-2.2667	-2.0396	-2.8833	184.777	187.044	-43.132	-77.807	98.910	-107.014	204.016	123.626	107.190	-66.309	149.582	232.659	241.680	-84.861	35.393	-41.848	0.00047806	0.0015677	0.0020175	1307.5	4.4944e-05	9.381e-06	1175.4	449.05	5.6756e-05	6.1306e-05	424.65	126.71	130.4	46.948	2.6721e-06	52.164	0.093107	0.17202	0.048218	1692.1	0.0016477	0.0018692	1640.4	593.34	0.0015998	0.001826	1418.1	214.14	218.59	71.979	0.0016976	87.469	-70.690	193.293	-78.016	-97.179	86.475	228.219	-97.307	-91.161	69.142	102.495	-93.753	-88.623	-86.588	-81.662	-84.171	-84.791	-8191	255	
1266.063	1	1	0	0	0.048559	0.17539	0.18173	0.17809	0.077645	0.1767	0.090025	0.17245	0.18229	0.40578	0.026267	0.1172	0.29209	0.31932	0.17649	0.30459	-1.6667	-2.3458	-2.5021	-1.875	-2.7292	-2.5125	-2.3375	-2.7667	-2.1021	-2.2792	-2.6437	-1.9396	-2.7208	-2.4667	-2.0396	-2.9604	29.220	-67.380	71.011	-40.551	231.990	121.820	-27.391	236.100	80.791	135.866	125.445	250.959	-24.369	259.985	-14.532	-64.168	0.00023382	0.002912	0.00017902	1296	5.5027e-05	3.0206e-05	1173.7	459.13	2.0099e-05	1.5719e-05	394.39	116.35	118.57	43.365	4.9449e-05	46.652	0.086019	0.16236	0.046201	1654.7	0.0015496	0.0017909	1622.1	609.26	0.0014756	0.0016306	1269.2	193.2	195.48	65.445	0.0014999	78.845	45.191	260.931	-49.316	-96.666	51.928	210.217	-97.359	-80.299	-91.739	174.282	-90.537	-86.994	-84.568	-80.407	169.797	-83.481	-8191	255	
1266.159	1	1	0	0	0.043826	0.035624	0.12128	0.3044	0.14159	0.12333	0.076559	0.51263	0.11109	0.10564	0.18169	0.057893	0.25415	0.18268	0.043042	0.28642	-1.6583	-2.3833	-2.7188	-2.1833	-2.5875	-2.475	-2.3292	-2.85	-2.3833	-2.4062	-2.8812	-1.9583	-2.5646	-2.5021	-2.1167	-2.7917	220.728	56.989	-57.047	183.446	200.188	60.568	89.805	221.975	-24.626	-55.348	92.626	8.151	244.843	202.557	3.804	142.222	0.00014995	0.0032567	0.00065417	1165	2.5483e-05	3.2846e-05	1070.7	408.05	7.068e-06	6.8819e-05	398.85	120.68	121.31	43.346	1.2907e-05	48.037	0.074993	0.14334	0.040784	1497.5	0.0013663	0.0016154	1489.3	535.13	0.0013678	0.0016006	1259.9	193.59	196.55	65.914	0.0014728	78.387	128.275	137.050	-60.777	-95.426	-92.527	183.418	-95.851	-90.020	116.310	7.356	-92.361	-87.808	-84.734	-80.718	190.528	-83.906	-8191	255	
1266.255	1	1	0	0	0.13911	0.094546	0.106	0.13791	0.3394	0.017916	0.23321	0.10083	0.14039	0.13733	0.17855	0.11855	0.20744	0.038902	0.33438	0.092322	-1.8625	-2.2229	-2.7438	-2.0896	-2.3833	-2.6667	-2.2104	-2.8229	-2.2875	-2.1813	-2.6937	-2.1708	-2.3729	-2.6583	-1.8438	-2.7292	53.739	252.352	200.938	-2.400	-67.806	-0.650	91.654	140.433	247.157	144.987	46.029	222.294	244.369	166.955	23.307	-75.618	0.00047069	0.0015241	0.001732	1104	5.3778e-05	3.4926e-05	956.37	365.51	3.4822e-06	5.1719e-05	344.4	104.94	105.98	38.481	4.1723e-05	41.563	0.073971	0.14206	0.04097	1436.3	0.0012332	0.0014481	1340.8	479.58	0.0012215	0.0014325	1120.1	172.66	176.63	59.203	0.0013148	69.725	-20.763	7.068	-30.357	-86.942	244.838	72.075	-94.830	-88.843	80.810	-55.015	-92.240	-86.219	-83.524	-79.165	-81.697	-82.516	-8191	255	
1266.351	1	1	0	0	0.092818	0.078295	0.32777	0.14555	0.080698	0.055461	0.16251	0.24841	0.21676	0.063216	0.15765	0.21357	0.37027	0.30549	0.056478	0.31238	-1.6646	-2.1167	-2.5354	-2.2208	-2.2333	-2.7438	-2.0146	-2.7687	-2.3	-2.1208	-2.7771	-2.1708	-2.1333	-2.6958	-1.9312	-2.5208	33.098	128.014	121.282	75.873	-54.760	11.416	-18.979	233.542	-54.759	-99.802	223.400	-42.024	-64.535	-87.815	131.113	233.281	0.0003042	0.0034534	0.00055165	1042.1	6.231e-05	5.2375e-05	951.19	361.09	1.6758e-05	4.7842e-05	333.79	102.16	104.16	37.4	2.6588e-05	40.964	0.067066	0.12863	0.035805	1336.6	0.0012143	0.0014258	1320.6	470.46	0.0011904	0.0013884	1082.8	165.72	172.47	57.364	0.0012561	67.733	195.619	-78.266	167.189	-94.711	181.495	156.258	-94.861	-89.188	67.623	111.442	-88.833	-86.593	-83.569	-78.890	86.441	-82.318	-8191	255	
1266.447	1	1	0	0	0.11151	0.1794	0.033736	0.14975	0.34008	0.28798	0.23898	0.29364	0.16242	0.23123	0.12051	0.16222	0.19155	0.12485	0.14167	0.16585	-2.05	-1.9833	-2.6375	-1.9813	-2.0896	-2.6458	-2.0229	-2.65	-2.5708	-1.925	-2.6729	-2.2188	-2.2958	-2.7938	-1.7958	-2.3396	16.281	212.734	171.304	200.756	31.956	51.486	245.638	157.148	-38.993	243.022	80.487	176.579	212.276	-36.453	196.209	14.985	0.0005958	0.0042636	0.0011976	1047.8	2.5468e-05	6.2578e-05	961.3	364.81	1.192e-05	1.8447e-05	348.43	105	107.06	38.411	8.7296e-06	41.736	0.065339	0.12481	0.034571	1334.6	0.0011994	0.0014149	1320.8	474.65	0.0012198	0.0014106	1099.7	171.22	177.06	59.065	0.001275	70.018	226.807	3.550	59.820	-94.722	189.623	-61.720	-95.066	-88.836	40.410	-92.659	-90.701	-86.051	-83.537	-78.933	-98.607	-82.544	-8191	255	
1266.543	1	1	0	0	0.21129	0.04245	0.20937	0.19345	0.11238	0.092044	0.38801	0.16051	0.25511	0.22188	0.14035	0.32147	0.095329	0.044685	0.18408	0.1585	-2.15	-1.775	-2.5292	-2.5521	-1.9771	-2.6979	-2.0708	-2.4729	-2.5542	-1.9479	-2.6729	-2.3479	-2.1208	-2.85	-2.0333	-2.4729	168.836	213.799	138.673	173.696	33.256	124.139	-96.615	190.379	231.630	242.863	167.101	240.219	237.928	215.838	8.995	242.810	0.00035976	0.0031013	0.0011033	1047.5	3.3039e-05	3.3503e-05	965.97	363.26	2.8778e-05	5.3428e-05	347.14	103.35	106.92	38.617	1.6177e-05	41.868	0.067243	0.12641	0.034543	1337.9	0.0012142	0.0013988	1314	473.22	0.0012047	0.0013732	1072.4	170.02	175.32	58.12	0.0012483	69.55	-27.414	91.219	63.980	-94.897	173.761	96.795	-94.948	-88.970	-39.082	-81.582	-93.368	-86.399	-83.577	-78.796	198.009	-82.349	-8191	255	
1266.664	1	1	0	0	0.24337	0.13895	0.13174	0.19998	0.085123	0.27545	0.24294	0.27522	0.07346	0.18515	0.063055	0.0375	0.29991	0.18491	0.012501	0.078849	-2.2062	-1.9583	-2.4354	-2.4917	-1.9042	-2.7833	-2.1292	-2.4583	-2.6396	-1.7854	-2.6604	-2.4562	-2.1562	-2.8292	-1.9271	-2.3354	185.243	3.705	-97.985	111.816	218.227	6.633	202.260	-99.285	-105.462	66.642	188.688	212.142	-33.299	-44.665	3.258	-71.776	0.000317	0.002647	0.0010443	1042	4.475e-05	2.3734e-05	949.88	361.5	2.5447e-05	4.5487e-05	344.23	103.65	105.31	38.348	3.2935e-05	41.385	0.066528	0.12451	0.034555	1337.2	0.0012254	0.0014032	1312.9	477.07	0.0012349	0.0013986	1097.4	172.21	177.35	58.602	0.001293	70.385	-67.990	40.926	136.382	-94.770	131.228	8.532	-94.848	-88.935	93.112	168.838	-90.618	-86.654	-83.801	-78.365	93.063	-82.629	-8191	255	
1266.736	1	1	0	0	0.30751	0.09847	0.051963	0.12585	0.086717	0.038812	0.064283	0.20505	0.090269	0.066953	0.17087	0.19576	0.014089	0.29419	0.25646	0.1409	-2.1708	-1.7854	-2.4688	-2.5708	-1.9208	-2.7	-2.2938	-2.2396	-2.8167	-1.8312	-2.4688	-2.5896	-2.0021	-2.6937	-2.1708	-2.0292	-88.490	32.367	115.841	-92.216	93.266	-5.390	130.356	127.787	135.232	110.635	88.357	43.633	-84.172	251.546	-40.085	233.299	0.00017758	0.0049134	0.0004137	1042.7	4.58e-05	1.937e-05	944.87	359.83	3.3641e-05	2.6773e-05	346.33	102.91	105.21	37.908	5.3173e-05	41.08	0.068488	0.12787	0.035735	1350.6	0.0012536	0.0014364	1324.6	481.67	0.0012702	0.0014275	1123.3	173.92	177.99	58.738	0.0013323	71.062	253.169	100.790	199.742	-94.574	-3.962	23.279	-95.039	-88.802	63.668	230.638	-92.026	-86.805	-83.208	-78.550	43.970	-82.230	-8191	255	
1266.856	1	1	0	0	0.16066	0.22243	0.14894	0.15824	0.10871	0.03869	0.048421	0.093913	0.076568	0.38621	0.031988	0.13198	0.092577	0.28664	0.15301	0.1691	-2.4188	-1.8188	-2.2292	-2.7292	-2.0396	-2.5667	-2.1333	-2.0812	-2.7438	-2.0521	-2.4354	-2.5896	-1.8646	-2.7604	-2.3021	-2.2104	175.827	44.210	-28.635	-105.245	77.238	-100.013	143.668	-54.063	-62.886	174.418	-29.205	-71.769	-90.334	221.344	1.512	87.043	8.002e-05	0.002633	0.0013816	1036.3	2.6326e-05	2.6725e-05	937.8	357.18	1.8293e-05	1.3534e-05	335.18	100.22	102.43	37.27	9.7187e-06	40.844	0.069269	0.1285	0.036401	1353.8	0.0012525	0.0014345	1326.4	477.43	0.001252	0.0014113	1117.7	171.34	174.58	57.824	0.001324	70.126	-60.789	74.875	76.844	-94.597	-5.834	-93.932	-95.820	-88.904	15.907	172.621	-89.975	-86.552	-83.856	-79.018	197.708	-82.633	-8191	255	
1266.951	1	1	0	0	0.051346	0.2326	0.15609	0.18762	0.084142	0.13663	0.059076	0.14637	0.052006	0.19988	0.16299	0.087524	0.052273	0.14141	0.21192	0.014596	-2.3146	-2.1917	-2.0042	-2.8063	-1.7625	-2.5021	-2.6146	-2.2104	-2.7021	-2.2271	-2.1604	-2.7083	-2.0438	-2.5167	-2.5187	-2.2562	-20.001	147.947	210.681	143.128	-84.035	208.883	208.625	-78.752	192.638	1.220	172.753	250.245	249.778	117.396	9.503	159.106	7.562e-05	0.00051892	0.0005931	1042.2	4.8942e-05	5.5622e-05	945.58	354.47	2.9155e-05	8.2535e-06	334.09	99.457	101.64	36.688	3.4912e-05	39.593	0.067681	0.12759	0.036437	1350.9	0.0012375	0.0014308	1329	473.31	0.0012274	0.0014088	1111.3	168.59	171.65	57.022	0.0013123	68.131	237.558	161.273	212.700	-94.645	14.910	132.549	-95.330	-88.733	121.480	106.664	-90.436	-86.028	-83.189	-78.712	-12.086	-81.557	-8191	255	
1267.047	1	1	0	0	0.14686	0.17362	0.050907	0.34613	0.12867	0.12449	0.33846	0.20624	0.06559	0.18935	0.22289	0.06188	0.16319	0.3264	0.12271	0.13834	-2.4062	-2.1646	-1.9062	-2.7792	-1.8958	-2.4146	-2.5854	-2.1042	-2.5771	-2.1646	-2.0563	-2.8688	-2.0187	-2.5792	-2.5583	-2.1479	149.641	241.109	-25.703	244.544	33.594	-11.874	116.526	-20.040	-68.785	137.764	144.922	149.638	239.091	247.761	-90.754	153.846	0.00035613	0.0015561	0.00063461	1027.3	1.1735e-05	2.143e-05	931.93	349.97	1.1529e-05	2.4843e-05	339.65	98.303	101.11	36.185	2.8606e-05	39.324	0.066137	0.12572	0.035797	1333.1	0.0012053	0.0014181	1309.4	466.66	0.0011987	0.0013992	1094.2	165.59	169.68	56.68	0.0013019	67.238	2.083	198.953	14.027	-94.800	224.496	17.633	-95.352	-88.822	72.919	165.384	-89.721	-85.987	-83.237	-78.563	220.122	-82.205	-8191	255	
1267.143	1	1	0	0	0.10275	0.12707	0.20305	0.18698	0.17461	0.16514	0.15518	0.20056	0.21111	0.057984	0.34214	0.20234	0.1872	0.14946	0.19259	0.24783	-2.2042	-2.3042	-2.0854	-2.9083	-1.8646	-2.4792	-2.5542	-2.1979	-2.7167	-2.4396	-1.9708	-2.9083	-2.1292	-2.4021	-2.7229	-2.0687	125.164	191.832	190.354	234.276	207.330	-37.410	121.099	176.669	252.912	169.152	222.771	221.526	164.413	-51.972	-35.529	74.039	0.00022275	0.0022603	0.0010519	1032.8	2.1785e-05	6.1434e-05	919.06	348.95	2.8678e-05	4.7902e-05	331.36	99.551	102.11	36.583	3.2095e-05	39.69	0.065743	0.12665	0.035737	1324.3	0.0011998	0.0014209	1301.1	461.97	0.0011921	0.0013996	1084.1	164.46	169.46	56.718	0.0012658	66.853	2.063	126.916	11.632	-94.677	209.335	215.082	-94.944	-88.578	35.804	-98.053	-89.306	-85.580	-83.322	-78.252	185.857	-82.124	-8191	255	
1267.264	1	1	0	0	0.27151	0.2371	0.013325	0.10167	0.20309	0.16293	0.12608	0.20984	0.14739	0.093483	0.037946	0.063518	0.14484	0.10425	0.12449	0.18927	-2.2188	-2.3917	-1.9188	-2.8917	-2.0208	-2.4521	-2.8292	-2	-2.575	-2.5542	-2.1396	-2.7125	-2.2313	-2.2875	-2.7771	-2.0792	84.039	56.141	38.972	-66.367	128.871	178.641	-37.181	154.963	-102.596	99.569	226.657	47.618	180.855	188.534	-16.988	6.391	0.00016611	0.0061063	0.0014844	1018.6	5.0064e-05	5.3802e-05	933.51	352.5	3.094e-05	3.5949e-05	340.02	101.59	103.48	37.69	6.1872e-06	40.326	0.064039	0.12277	0.034132	1298.4	0.0011551	0.0013618	1286	458.56	0.0011488	0.0013322	1049.2	163.39	167.99	56.462	0.0012126	66.461	128.164	89.015	71.065	-94.739	138.583	75.903	-94.931	-88.474	-51.219	-25.256	-90.196	-86.054	-83.425	-79.148	185.113	-82.454	-8191	255	
1267.360	1	1	0	0	0.074232	0.2046	0.12931	0.053025	0.36869	0.43281	0.24916	0.21364	0.21846	0.25746	0.26111	0.1245	0.047948	0.15156	0.20813	0.23343	-2.0563	-2.4896	-1.9062	-2.8771	-2.2458	-2.2625	-2.9104	-2.1042	-2.4333	-2.6896	-2.0958	-2.8042	-2.3812	-1.9833	-2.5646	-2.2667	199.437	-55.469	87.248	167.810	161.001	73.872	182.106	193.644	-81.827	215.599	226.959	-49.024	-44.106	239.766	167.366	81.885	0.00017749	0.0030224	0.00049132	1029.6	4.2486e-05	1.3119e-05	935.21	349.54	1.9149e-05	3.0874e-05	329.06	97.95	100.88	36.208	2.5642e-05	39.396	0.062678	0.11981	0.032895	1296	0.0011444	0.0013397	1271.9	452.79	0.0011488	0.0013262	1031.2	160.38	166.72	55.292	0.0011995	65.542	-87.130	62.935	207.842	-94.670	93.233	-38.304	-95.158	-89.017	-61.089	139.247	-91.883	-86.173	-83.643	-78.895	73.763	-82.599	-8191	255	
1267.431	1	1	0	0	0.15028	0.29059	0.1078	0.33251	0.14742	0.11111	0.10568	0.05934	0.22769	0.32587	0.05811	0.13203	0.11299	0.05728	0.20183	0.21681	-2.1542	-2.7521	-1.8	-2.7771	-2.2833	-1.8312	-2.7021	-2.0729	-2.1708	-2.7146	-1.8979	-2.5167	-2.4729	-2.1063	-2.7917	-2.1958	245.539	43.922	-52.931	214.700	11.514	191.848	143.407	-40.143	-33.268	128.529	-79.909	196.647	129.905	117.343	149.550	132.653	0.00044836	0.0029616	0.00048755	1008.5	1.138e-05	3.8671e-05	916.52	347.11	3.0108e-05	7.466e-06	335.18	99.387	100.82	37.362	2.353e-05	40.087	0.063057	0.11953	0.03266	1285	0.001148	0.0013281	1257.7	450.5	0.001143	0.0013051	1017	161.43	166.69	55.536	0.0011757	66.139	-53.520	14.817	250.631	-94.550	182.832	118.016	-95.206	-88.556	152.019	-103.693	-90.247	-86.004	-82.938	-78.259	-35.651	-83.049	-8191	255	
1267.552	1	1	0	0	0.051444	0.24505	0.17615	0.16971	0.058548	0.1194	0.32661	0.22289	0.26446	0.13822	0.1219	0.11329	0.13252	0.16589	0.21837	0.36402	-1.9271	-2.8333	-2.0062	-2.8604	-2.4458	-2.1792	-3.0146	-2.1667	-2.0792	-2.7	-2.0021	-2.7354	-2.4896	-2.0021	-2.6063	-2.2562	-77.468	67.336	-43.484	-78.040	187.083	233.648	231.256	219.407	218.432	239.590	-41.319	56.333	82.447	71.507	-81.749	184.543	0.00047588	0.0038592	0.00060866	1003.3	1.5859e-05	2.6835e-05	930.4	351.78	4.6233e-05	4.3303e-05	342.97	101.78	102.53	37.415	3.0007e-05	41.109	0.062195	0.11671	0.032185	1277	0.0011352	0.0013006	1258.9	453.64	0.0011368	0.0012856	1025.3	164.06	166.74	55.53	0.0011759	67.039	-14.968	137.721	120.376	-94.545	-2.804	40.052	-95.025	-88.823	162.065	78.793	-91.067	-85.500	-83.280	-78.573	157.268	-81.578	-8191	255	
1267.648	1	1	0	0	0.26774	0.17708	0.23549	0.089579	0.15706	0.1253	0.14728	0.29027	0.14623	0.027459	0.33908	0.028045	0.11527	0.22037	0.1329	0.10761	-1.6896	-2.6125	-1.8625	-2.5042	-2.2771	-1.9	-2.8	-2.4896	-2.1542	-2.6042	-1.8125	-2.3958	-2.6271	-1.9646	-2.6208	-2.4292	243.795	94.648	207.424	127.888	-106.594	58.949	177.511	205.596	-85.164	-92.411	46.691	47.382	208.238	-54.979	48.707	-28.721	0.0002657	0.0038686	0.0006078	1011.1	3.3654e-05	3.9109e-05	940.86	355.19	1.7717e-05	3.4283e-05	344.79	103.4	103.7	38.041	1.6701e-05	41.877	0.061843	0.11506	0.032205	1284.4	0.0011198	0.0012818	1270.8	456.29	0.0011299	0.0012793	1033	165.19	167.54	55.829	0.0011967	67.974	-5.088	-94.559	81.452	-94.138	116.083	183.889	-94.483	-88.844	99.537	88.520	-90.449	-85.385	-83.496	-78.794	-88.905	-82.802	-8191	255	
1267.744	1	1	0	0	0.12889	0.099777	0.16711	0.15986	0.14352	0.12134	0.18068	0.22985	0.29616	0.10373	0.21028	0.0441	0.080599	0.09998	0.20988	0.17786	-1.4708	-2.7396	-1.9729	-2.4938	-2.7625	-1.8937	-2.7729	-2.4125	-1.8875	-2.8542	-2.0625	-2.4021	-2.7271	-2.0438	-2.6104	-2.5896	171.144	-105.831	-95.460	-11.967	98.702	136.774	149.787	199.440	55.446	165.063	-35.411	-63.051	200.541	112.395	106.908	152.687	6.4145e-05	0.0051613	0.00099003	1014.7	2.5029e-05	1.5566e-05	941.69	352.41	2.1797e-05	1.754e-05	340.41	104.54	103.18	37.68	2.3035e-05	41.605	0.062294	0.11615	0.032798	1291.4	0.0011462	0.001304	1278.9	458.89	0.0011385	0.0012972	1046.1	166.47	168.41	56.113	0.0012096	68.047	17.953	247.704	11.660	-94.604	200.873	-49.898	-95.080	-89.325	57.666	203.167	-93.276	-86.371	-83.867	-79.292	-78.953	-82.590	-8191	255	
1267.839	1	1	0	0	0.26126	0.23062	0.080694	0.24502	0.027915	0.067899	0.14836	0.1542	0.07835	0.4007	0.13962	0.045027	0.11497	0.20819	0.24883	0.15956	-1.5396	-2.6479	-2.175	-2.1875	-2.7812	-2.0792	-2.5938	-2.7	-1.8729	-2.5583	-2.1854	-2.1813	-2.8979	-1.8687	-2.3979	-2.6167	127.078	13.302	-20.385	227.002	194.528	16.269	126.260	205.993	-22.138	142.017	-49.616	54.775	112.903	156.824	197.504	215.889	0.00013872	0.00070913	0.0011922	999.81	2.7143e-05	1.0896e-05	940.2	356.73	2.8852e-05	6.2286e-05	364.07	108.78	106.65	38.674	2.0676e-05	43.771	0.061536	0.1166	0.03292	1280	0.0011294	0.0013032	1283.4	462.45	0.001129	0.0012898	1061.6	170.51	170.17	57.407	0.0012144	69.5	114.123	80.654	248.906	-94.614	66.235	-60.255	-94.868	-88.681	163.091	-86.127	-90.845	-86.263	-83.422	-79.348	72.210	-82.423	-8191	255	
1267.959	1	1	0	0	0.10173	0.2132	0.13525	0.37384	0.11603	0.18689	0.16587	0.24761	0.11756	0.18097	0.17118	0.16205	0.16911	0.093271	0.16042	0.16089	-1.475	-2.5208	-2.3646	-2.1188	-2.775	-2.0708	-2.6188	-2.6229	-2.1063	-2.6792	-2.3208	-2.1312	-2.6729	-1.9333	-2.4437	-2.7542	13.684	-37.152	53.552	244.403	59.047	-53.113	238.661	154.454	63.186	16.432	54.550	205.850	-37.452	-66.337	184.673	-83.559	0.00092118	0.002175	0.0014247	1001.9	3.7329e-05	2.2266e-05	954.59	361.46	3.9529e-05	4.0875e-05	364.38	110.65	106.59	39.336	3.8079e-05	44.12	0.06113	0.11687	0.033174	1279.1	0.0011192	0.0013064	1297.5	464.98	0.00112	0.0013011	1065.9	171.61	170.48	57.982	0.0012208	69.97	-87.281	-85.923	43.890	-94.238	153.754	4.074	-94.557	-88.494	192.081	30.663	-91.227	-86.198	-83.510	-79.133	93.193	-82.561	-8191	255	
1268.031	1	1	0	0	0.17938	0.080686	0.22475	0.60496	0.2103	0.32615	0.22486	0.26311	0.12682	0.23041	0.21825	0.054082	0.1331	0.06325	0.1486	0.13038	-1.4813	-2.5875	-2.3792	-2.0062	-2.7687	-1.8125	-2.2042	-2.6521	-2.0333	-2.5396	-2.2958	-2.1146	-2.8833	-2.1229	-2.2104	-2.7729	142.370	211.132	105.931	190.762	210.951	41.092	-83.705	203.686	-49.649	111.408	183.330	189.809	-25.745	140.976	181.855	146.770	0.00021095	0.0040666	0.00080434	1007.9	3.7354e-05	3.0209e-05	959.47	357.25	2.8502e-05	3.3122e-05	358.88	106.7	104.78	38.195	1.9346e-05	42.253	0.061686	0.11876	0.033374	1281.7	0.0011332	0.0013397	1305.6	461.83	0.0011487	0.0013489	1081.1	170.01	171.09	57.88	0.0012607	69.102	119.771	-49.870	-77.110	-94.566	-19.770	175.380	-94.831	-89.077	221.785	50.999	-90.952	-86.437	-83.219	-79.002	63.839	-81.965	-8191	255	
1268.127	1	1	0	0	0.1002	0.044148	0.24715	0.30691	0.13632	0.081202	0.25067	0.30769	0.28793	0.23443	0.16637	0.28374	0.15226	0.10781	0.15806	0.10491	-1.5021	-2.5167	-2.4729	-2.1	-2.7979	-2.175	-2.1271	-2.875	-1.925	-2.4417	-2.5	-1.975	-2.9021	-2.3417	-2.1354	-2.8792	228.268	12.306	-43.054	241.707	125.887	85.145	212.800	192.779	72.412	29.145	182.167	-78.608	-76.207	133.250	252.839	157.757	0.00082638	0.0031271	0.00079407	1010.3	1.1148e-05	4.1129e-05	951.35	353.55	2.2969e-05	3.5045e-05	350.87	104.41	104.8	38.028	4.644e-05	41.837	0.0638	0.12305	0.034234	1291.6	0.0011753	0.0013833	1307.9	463.67	0.001181	0.0013834	1090.7	169.81	172.92	58.268	0.0012784	69.673	-67.921	152.449	58.774	-94.436	152.262	180.579	-94.905	-89.157	-42.851	-47.422	-90.823	-86.093	-83.759	-78.724	103.780	-82.594	-8191	255	
1268.223	1	1	0	0	0.19	0.15146	0.16999	0.22444	0.075366	0.11076	0.21658	0.080854	0.078973	0.14509	0.13083	0.07883	0.12945	0.096701	0.16518	0.082731	-1.4979	-2.3604	-2.575	-2.0125	-2.6354	-2.25	-2	-2.7438	-1.9	-2.3292	-2.5646	-1.9479	-2.7667	-2.1188	-2.1917	-2.8333	80.850	55.301	30.985	-85.478	164.507	87.868	221.496	150.003	-4.063	217.140	220.229	-70.818	212.290	-49.539	243.406	136.779	0.00019114	0.00084305	0.00050683	1008.1	4.3131e-05	7.8558e-05	950.78	355.29	1.3612e-05	3.711e-05	354.17	104.59	102.69	37.486	3.1706e-05	41.331	0.066189	0.12727	0.035231	1307.5	0.0012268	0.0014327	1317.6	468.99	0.0012362	0.0014421	1115.5	171.8	176.42	58.676	0.0013303	70.651	-10.206	-19.698	101.546	-94.313	48.475	37.811	-94.422	-88.867	197.866	234.921	-91.700	-86.303	-83.214	-78.791	95.143	-82.223	-8191	255	
1268.344	1	1	0	0	0.12367	0.15817	0.18924	0.10156	0.16949	0.12064	0.088035	0.17143	0.077767	0.30881	0.35667	0.16427	0.094777	0.13173	0.30729	0.31536	-1.5896	-2.1771	-2.55	-1.9729	-2.4625	-2.2104	-1.9813	-2.8208	-1.9042	-2.0896	-2.5104	-2.0646	-2.4896	-2.3354	-1.9479	-2.7104	-99.449	216.527	-74.084	-93.091	-105.955	159.409	-37.358	225.485	110.353	150.958	172.141	166.864	203.901	126.477	166.581	167.125	0.00046913	0.0024508	0.0011955	1011.7	3.086e-05	4.9363e-05	951.85	351.67	3.8254e-05	1.7347e-05	350.09	104.97	103.23	37.87	2.7606e-05	42.339	0.069835	0.13291	0.036592	1329.2	0.001291	0.0014846	1334.5	473.66	0.001277	0.001463	1117.6	173.94	176.72	58.779	0.001308	71.19	229.521	-40.723	46.095	-94.611	168.001	-2.732	-94.916	-88.920	96.390	24.789	-90.796	-86.428	-83.495	-79.008	151.558	-82.413	-8191	255	
1268.440	1	1	0	0	0.11628	0.17665	0.096416	0.12405	0.28253	0.10215	0.28351	0.18354	0.14502	0.29508	0.16528	0.16509	0.16776	0.2124	0.054476	0.48651	-1.6792	-1.8604	-2.6688	-2.0854	-2.4896	-2.4229	-2.1	-2.775	-2.2	-1.9917	-2.75	-2.0875	-2.4542	-2.5875	-1.9688	-2.6958	-32.558	37.727	-73.841	25.017	-87.002	-53.251	77.191	197.955	33.268	22.840	4.124	231.430	210.573	93.503	67.402	-104.454	0.00061065	0.0031543	0.00063402	1005.9	4.5354e-05	2.1374e-05	950.77	355.95	3.3185e-05	6.4673e-06	350.34	107.89	107.52	38.917	4.3129e-05	43.165	0.06901	0.12948	0.035681	1315.9	0.0012622	0.001449	1326.3	476.14	0.0012571	0.0014256	1119.4	176.46	178.79	59.638	0.001312	72.714	-51.947	-68.585	58.183	-94.753	36.911	-6.330	-94.522	-88.681	-68.491	63.967	-91.817	-86.856	-83.096	-78.975	79.047	-82.478	-8191	255	
1268.536	1	1	0	0	0.16625	0.045725	0.12292	0.18894	0.14688	0.22389	0.37026	0.10119	0.17766	0.2167	0.049892	0.11086	0.076589	0.29906	0.16999	0.25399	-1.975	-1.9917	-2.8187	-2.1375	-2.4292	-2.5792	-1.9062	-2.8167	-2.2375	-2.0792	-2.9292	-2.2646	-2.4167	-2.6542	-1.8792	-2.6458	1.640	19.223	157.123	190.930	171.251	162.243	189.748	224.652	188.701	188.203	216.731	216.883	247.268	136.322	119.983	176.987	0.00035233	0.0042727	0.0019148	1011.7	2.8482e-05	1.8492e-05	970.07	363.63	5.4051e-05	5.046e-05	359.65	110.11	107.2	39.863	2.1745e-05	43.943	0.069801	0.1311	0.036617	1342.2	0.0012916	0.0014835	1361.4	488.23	0.0013079	0.0014759	1167.3	183.3	184.24	61.099	0.0013614	74.63	103.457	9.569	119.511	-94.542	69.547	9.934	-95.325	-89.006	112.484	102.134	-91.633	-86.109	-82.897	-79.332	-49.686	-82.442	-8191	255	
1268.632	1	1	0	0	0.091877	0.058049	0.20221	0.22361	0.16199	0.20781	0.034804	0.38824	0.13612	0.14208	0.2326	0.13897	0.03522	0.43333	0.12442	0.17148	-2.0208	-1.9292	-2.7875	-2.1188	-2.1396	-2.6792	-2.1208	-2.6375	-2.3312	-1.9354	-2.7125	-2.3063	-2.1479	-2.7729	-1.9583	-2.5333	17.496	-51.196	-75.982	236.525	-66.534	-43.839	118.455	157.819	77.817	243.453	60.501	147.988	172.132	232.986	178.343	-56.588	0.00011274	0.0010733	0.0005546	1010.2	9.0578e-06	3.7169e-05	976.31	362.87	1.8977e-05	1.2282e-05	365.7	110.78	107.78	39.916	3.888e-05	43.909	0.070733	0.13108	0.036967	1335.5	0.0012708	0.0014472	1359	483.56	0.0012528	0.0014166	1137.6	179.76	178.69	59.826	0.0013176	72.754	159.211	158.150	157.084	-94.142	-63.578	-39.669	-94.676	-88.687	-97.620	-12.946	-90.428	-85.865	-83.009	-79.026	28.579	-82.153	-8191	255	
1268.729	1	1	0	0	0.16165	0.15446	0.062045	0.19222	0.40961	0.29299	0.16097	0.27516	0.16372	0.087101	0.097401	0.18381	0.16817	0.20863	0.27158	0.21322	-2.0729	-1.8354	-2.6354	-2.4	-2.0979	-2.7313	-1.9937	-2.425	-2.4917	-1.9979	-2.6604	-2.3563	-2.0979	-2.7104	-1.9854	-2.4437	-3.411	-46.524	53.712	-104.535	182.838	-95.716	221.683	194.471	-58.905	-23.268	239.424	199.868	-80.660	-91.064	4.225	147.261	0.0002489	0.0035504	0.00090834	1015.2	3.0889e-06	2.5791e-05	977.42	362.9	3.7483e-06	3.1742e-05	367.92	107.55	105.9	38.598	2.0503e-05	42.861	0.066598	0.12519	0.035503	1320	0.0012039	0.0013855	1339.5	475.44	0.0011879	0.0013694	1107.6	173.83	173.7	58.349	0.0012836	71.041	-71.409	-97.133	178.767	-93.834	146.056	167.897	-94.581	-88.567	143.469	-2.383	-90.759	-85.906	-83.180	-78.791	78.016	-82.155	-8191	255	
1268.825	1	1	0	0	0.20825	0.25734	0.14281	0.10982	0.11506	0.11528	0.076138	0.30657	0.098965	0.10793	0.36995	0.11923	0.094085	0.20218	0.23372	0.11309	-2.3125	-1.9396	-2.6937	-2.4458	-2.0542	-2.7083	-2.1646	-2.4313	-2.7292	-2	-2.5729	-2.3563	-1.8917	-2.7604	-2.125	-2.1667	130.539	206.421	-91.723	169.600	-51.133	18.707	107.379	232.380	109.199	105.927	9.179	155.810	-103.399	-104.755	70.187	17.418	0.00024917	0.0041627	0.00086491	1016.6	5.9821e-05	2.9859e-05	967.25	358.62	2.0044e-05	4.3663e-06	364.73	107.03	106.28	39.3	8.586e-06	43.196	0.064817	0.12346	0.035247	1313.9	0.0011763	0.0013837	1330.4	471.6	0.0011725	0.0013688	1104	172.73	172.59	58.614	0.0012584	69.957	-33.431	-8.841	177.653	-94.205	43.561	-72.964	-94.630	-88.579	0.188	243.575	-91.358	-86.317	-82.857	-78.517	-85.300	-82.365	-8191	255	
1268.944	1	1	0	0	0.10596	0.21815	0.15179	0.31209	0.074863	0.20231	0.19507	0.21188	0.27585	0.12486	0.14084	0.058185	0.15847	0.15298	0.15374	0.21671	-2.2917	-1.7875	-2.6333	-2.5958	-1.7896	-2.6917	-2.2833	-2.2917	-2.6937	-1.9958	-2.5458	-2.6917	-1.8917	-2.8063	-2.1542	-2.2167	165.938	50.517	-98.961	217.581	-50.911	-1.484	225.102	-62.988	179.042	142.811	221.034	208.890	-68.653	215.069	53.936	167.433	0.00040571	0.0020608	0.0018511	1010.5	1.0497e-05	7.368e-05	970.88	363.44	3.6131e-05	3.3459e-05	360.72	109.52	106.82	39.574	2.1265e-05	43.389	0.063251	0.12083	0.034098	1293.2	0.0011409	0.0013469	1318.5	465.92	0.001131	0.0013233	1068.7	170.33	170.61	58.304	0.0012229	69.431	-94.312	-10.048	63.323	-94.372	-48.471	44.298	-94.781	-88.351	18.129	43.230	-91.270	-85.968	-82.437	-78.313	149.826	-81.290	-8191	255	
1269.040	1	1	0	0	0.17314	0.093399	0.17656	0.29427	0.19402	0.11123	0.13658	0.14938	0.054546	0.30213	0.28808	0.17636	0.20631	0.1441	0.078135	0.16539	-2.3312	-2.0458	-2.3792	-2.6937	-1.8854	-2.6813	-2.3563	-2.2167	-2.8875	-1.9438	-2.6396	-2.5708	-1.9479	-2.8979	-2.3146	-2.2208	31.855	83.407	-75.290	155.971	6.814	-97.669	221.285	165.933	-14.110	-51.182	113.809	-44.614	35.487	-36.619	206.973	-79.512	0.00031503	0.0069236	0.00062616	1018.2	1.9524e-05	3.9638e-05	975.2	365.53	1.7271e-05	2.0464e-05	370.02	111.14	106.36	40.139	3.8306e-05	44.492	0.062378	0.12084	0.033722	1291.2	0.0011474	0.0013537	1321.2	467.59	0.0011523	0.0013359	1077.4	172.18	172.35	59.066	0.0012185	70.286	194.660	251.962	-24.450	-93.165	80.906	10.065	-93.739	-88.110	229.933	70.772	-89.892	-85.512	-83.045	-77.907	106.830	-82.181	-8191	255	
1269.136	1	1	0	0	0.18327	0.117	0.059471	0.35942	0.38873	0.10914	0.2092	0.28197	0.12807	0.081473	0.13771	0.31826	0.045304	0.19507	0.2292	0.2616	-2.4688	-2.2125	-2.3625	-2.7229	-2.0542	-2.8229	-2.5917	-1.9688	-2.8646	-2.2104	-2.3542	-2.7104	-2.0854	-2.7896	-2.4021	-2.0292	-11.710	65.874	-42.669	-102.743	228.731	-89.146	176.302	212.583	93.495	12.393	46.555	216.224	24.586	231.739	-0.248	245.051	0.00021608	0.0018308	0.0013294	1011.6	3.5185e-05	1.4073e-05	964.76	362.01	1.5764e-05	4.6233e-05	366.52	110.83	107.56	39.599	4.1008e-05	43.92	0.063353	0.12042	0.033439	1288.8	0.0011536	0.001355	1316.6	468.08	0.0011658	0.0013481	1075.2	172.6	174.14	59.124	0.0012231	70.312	123.475	-52.526	-47.589	-92.896	-78.645	49.673	-94.359	-88.385	-77.188	-103.382	-90.172	-85.812	-82.914	-78.286	197.761	-82.488	-8191	255	
1269.257	1	1	0	0	0.075315	0.15012	0.10034	0.29692	0.12939	0.20276	0.16637	0.16442	0.26384	0.17793	0.18025	0.14525	0.16045	0.22207	0.057399	0.1794	-2.3708	-2.1688	-2.3438	-2.7021	-1.8667	-2.5083	-2.8125	-2.175	-2.8688	-2.0854	-2.2667	-2.8604	-2.1625	-2.5854	-2.6312	-2.3875	205.412	149.161	184.676	193.452	194.692	-10.951	41.535	-38.912	200.968	169.187	130.104	153.391	105.034	174.302	-33.153	-105.827	0.00018819	0.0071064	0.00031226	1012.1	2.8346e-05	2.7551e-05	967.64	359.7	1.5192e-05	2.8442e-05	365.44	108.27	106.11	39.474	3.7363e-05	43.775	0.064783	0.12255	0.033729	1295.2	0.0011817	0.0013793	1311.4	468.41	0.0011878	0.0013639	1075.6	172.23	173.6	58.691	0.0012303	70.654	-85.441	-28.472	-63.729	-93.987	40.653	-44.706	-94.502	-88.095	110.176	105.906	-90.708	-85.823	-82.561	-78.649	6.595	-81.680	-8191	255	
1269.328	1	1	0	0	0.094555	0.089645	0.11118	0.14257	0.38776	0.19369	0.20261	0.11092	0.15186	0.21114	0.033129	0.20468	0.093	0.096948	0.11043	0.29295	-2.1958	-2.3708	-2.1292	-2.8604	-2.1604	-2.4792	-2.7854	-2.1937	-2.6396	-2.5292	-2.125	-2.8146	-2.0021	-2.4396	-2.6521	-2.2062	211.119	171.179	83.962	249.329	-68.888	-43.165	208.915	197.407	125.182	35.317	-105.747	-44.544	-100.438	112.242	-2.665	-54.786	0.00038256	0.0036374	0.00065281	1008.1	2.6384e-05	4.8001e-05	959.48	361.4	2.275e-05	6.2083e-05	365.27	108.61	106.11	39.539	4.0251e-05	43.582	0.065252	0.12274	0.033835	1298.4	0.0011892	0.0013654	1308.9	469.34	0.0011892	0.0013409	1070.5	172.15	172.68	57.958	0.0012166	70.081	200.561	201.015	156.966	-94.030	-11.664	-4.917	-94.566	-88.332	-92.552	-90.974	-90.566	-85.686	-82.937	-78.584	181.239	-81.329	-8191	255	
1269.424	1	1	0	0	0.10795	0.28838	0.26477	0.15131	0.18533	0.18942	0.1903	0.097047	0.13233	0.12866	0.11928	0.14603	0.09145	0.18746	0.063038	0.10723	-2.3833	-2.4896	-2.1125	-2.9271	-2.0146	-2.225	-2.7313	-2.0354	-2.5146	-2.5187	-2.0521	-2.6854	-2.2938	-2.2917	-2.8812	-1.9792	-91.274	128.633	163.313	-28.759	36.258	-37.045	-79.648	209.151	228.175	176.684	60.808	93.869	236.351	-73.433	-29.317	168.308	0.00025827	0.0056638	0.0010255	1010.2	3.968e-05	2.2946e-05	956.43	355.14	8.152e-06	2.5292e-05	351.61	105.27	105.43	38.731	2.8536e-05	42.719	0.06383	0.11866	0.032879	1289.8	0.0011589	0.0013254	1299.4	462.74	0.0011587	0.0013026	1053.9	169.68	169.7	56.949	0.0011982	69.148	-66.319	-60.265	-23.580	-93.725	-8.528	59.306	-93.928	-88.391	-95.649	65.414	-90.506	-85.924	-82.950	-78.721	186.865	-81.936	-8191	255	
1269.520	1	1	0	0	0.283	0.16777	0.244	0.074624	0.13971	0.087633	0.10005	0.076204	0.16898	0.22775	0.23775	0.28814	0.3278	0.1186	0.18131	0.25934	-2.1833	-2.5292	-1.8042	-2.9479	-2.4021	-2.1937	-2.9875	-2.2042	-2.6083	-2.5917	-2.0687	-2.6667	-2.2479	-2.2521	-2.875	-2.1667	14.217	46.855	-68.342	171.791	143.011	107.016	217.484	210.546	186.549	109.228	146.200	247.561	215.429	129.004	-38.715	158.726	0.00036445	0.0047421	0.0012075	997.63	2.6374e-06	1.0524e-05	945.61	352.01	1.5829e-05	3.342e-05	351.7	105.58	103.68	38.412	3.0958e-05	42.382	0.06284	0.11591	0.032828	1277.7	0.0011362	0.0012957	1282.7	457.29	0.0011262	0.0012731	1040.9	166.71	166.71	56.219	0.0011832	67.836	223.032	-69.169	234.738	-94.084	204.547	-105.028	-94.333	-88.366	33.880	-105.621	-89.232	-86.056	-83.354	-78.281	197.189	-82.252	-8191	255	
1269.641	1	1	0	0	0.052299	0.24761	0.33505	0.15305	0.16225	0.22797	0.19653	0.21612	0.23979	0.19609	0.16191	0.04553	0.21933	0.16213	0.1727	0.37854	-2.0021	-2.5271	-2.0854	-3.0854	-2.2625	-2.225	-3.0083	-2.3396	-2.6042	-2.8229	-1.9875	-2.6667	-2.6229	-2.1521	-2.7438	-2.1896	-88.404	6.294	49.840	-46.151	124.610	175.893	244.487	142.266	-48.496	228.636	133.565	121.579	107.411	175.470	235.128	185.343	0.00018664	0.0017664	0.00050207	998.15	3.0314e-05	4.2671e-05	949.64	357.38	1.9085e-05	4.2957e-05	364.49	108.81	105.52	39.022	8.3497e-06	43.662	0.060438	0.11281	0.031957	1266.5	0.0010859	0.0012566	1274.5	455.77	0.001082	0.0012369	1030.2	166.11	165.67	56.382	0.0011585	68.086	21.936	13.796	112.791	-93.180	-64.147	170.278	-94.358	-88.095	166.922	-43.654	-89.892	-85.234	-82.688	-78.199	33.802	-81.987	-8191	255	
1269.736	1	1	0	0	0.18963	0.12909	0.33934	0.12742	0.16108	0.19105	0.085321	0.31661	0.15628	0.048222	0.21212	0.087425	0.10346	0.42954	0.18073	0.1449	-2.0083	-2.6125	-1.8854	-2.7417	-2.4875	-2.0083	-2.9896	-2.2375	-2.2417	-2.7104	-2.0583	-2.7979	-2.6583	-1.9979	-2.9437	-2.3292	233.502	50.717	186.623	142.118	11.680	8.072	229.521	62.781	-14.943	129.666	215.730	176.646	-73.738	211.737	82.569	-103.500	0.00018569	0.0024051	0.00047217	1005.8	2.52e-05	1.2596e-05	963.06	359.34	1.1269e-05	2.0052e-05	360.28	108.84	106.58	39.737	6.5241e-05	44.239	0.058075	0.11099	0.031483	1258.3	0.0010525	0.0012353	1280.3	455.35	0.0010542	0.0012238	1021.4	166.32	165.42	56.714	0.0011454	68.219	243.166	0.892	-91.102	-93.378	53.328	36.532	-93.241	-87.730	224.251	-47.332	-88.321	-85.638	-83.430	-78.698	97.878	-82.058	-8191	255	
1269.832	1	1	0	0	0.26442	0.33983	0.26335	0.18197	0.097232	0.01763	0.020673	0.1692	0.20936	0.16958	0.23532	0.13752	0.20666	0.10293	0.23244	0.30294	-1.7479	-2.7042	-2	-2.8292	-2.5396	-2.1	-3.0208	-2.2958	-2.1917	-2.8833	-2.0062	-2.5687	-2.6063	-2.1188	-2.5667	-2.3875	80.407	225.760	-95.627	229.811	-58.975	92.932	-80.669	-96.587	-11.762	71.205	-69.924	161.197	115.851	-65.890	-50.403	62.763	0.00047465	0.0011627	0.0014764	1000.7	2.1005e-05	2.1367e-05	971.95	362.95	1.2723e-05	2.6821e-05	374.39	110.75	107.52	40.127	2.7544e-05	44.035	0.05762	0.11063	0.031183	1250.3	0.0010505	0.0012366	1282.6	455.34	0.0010439	0.0012239	1018.5	165.59	165.5	56.98	0.0011244	67.527	-48.095	91.281	-47.501	-93.715	183.099	70.857	-94.709	-88.666	164.385	215.850	-89.787	-86.082	-82.773	-78.628	215.329	-81.684	-8191	255	
1269.905	1	1	0	0	0.038015	0.035747	0.10198	0.11794	0.1499	0.13942	0.095166	0.21452	0.22836	0.18125	0.11712	0.23535	0.19203	0.17059	0.12432	0.18279	-1.6875	-2.9125	-2.1979	-2.3792	-2.7833	-1.8917	-2.9271	-2.5042	-1.9479	-2.7438	-2.3417	-2.3708	-2.8563	-2.2979	-2.6833	-2.5979	198.027	4.117	65.936	-85.938	-23.677	-81.985	112.691	192.363	231.189	110.755	134.259	237.871	-17.529	-91.600	33.830	152.240	0.00063995	0.002183	0.00081325	1009.8	1.9921e-05	4.2843e-05	958.79	360.56	5.1824e-05	7.9927e-06	371.1	109.04	106.07	39.805	1.5174e-05	44.199	0.056942	0.11021	0.030723	1245.6	0.0010387	0.0012276	1269	452.16	0.001035	0.0012142	1004.4	163.48	164.23	56.722	0.001105	66.675	-89.007	-52.754	-14.007	-93.870	213.932	226.688	-94.451	-88.512	-25.777	-21.392	-90.374	-86.213	-82.952	-78.511	77.997	-81.735	-8191	255	
1270.024	1	1	0	0	0.035891	0.11676	0.10829	0.17219	0.11851	0.14864	0.070044	0.18377	0.21081	0.25248	0.1494	0.11491	0.29471	0.39605	0.11364	0.18186	-1.6729	-2.8042	-2.1208	-2.4667	-2.5604	-2.0521	-2.7958	-2.4792	-2.0187	-2.7167	-2.3646	-2.2125	-2.7646	-2.1146	-2.5292	-2.5375	181.729	-94.129	-69.668	135.741	-64.804	82.260	-93.667	152.955	28.276	3.275	3.799	178.981	249.139	246.228	39.841	251.817	0.0003011	0.0041697	0.0016592	1003.6	2.3131e-05	4.4434e-05	958.03	358.7	2.2277e-05	7.155e-06	355.14	107.32	105.89	39.529	4.1775e-05	43.636	0.056846	0.10901	0.030071	1238.3	0.0010392	0.0012177	1255.4	448.36	0.0010426	0.0012005	989.16	162.13	164.43	56.258	0.0010955	66.769	-66.056	-52.763	91.702	-93.986	156.787	17.491	-94.081	-88.746	-20.995	-103.763	-90.536	-85.237	-82.067	-77.712	201.554	-81.649	-8191	255	
1270.120	1	1	0	0	0.21049	0.093864	0.065623	0.05762	0.15078	0.11591	0.15221	0.17773	0.20119	0.22159	0.06732	0.045031	0.16168	0.20486	0.14573	0.22074	-1.6625	-2.6583	-2.1792	-2.2542	-2.7188	-1.9188	-2.6667	-2.6396	-1.9271	-2.6937	-2.1896	-2.0729	-2.7708	-2.2958	-2.3146	-2.5646	-65.952	225.983	22.057	71.695	-52.485	200.692	87.947	193.711	13.694	-104.070	-53.430	151.549	-4.639	-100.095	124.589	202.626	0.00035051	0.0021308	0.00041069	995.53	1.0026e-05	9.9526e-06	961.29	355.32	1.8604e-05	1.7499e-05	357.18	108.04	106.08	39.117	2.4391e-05	43.377	0.057535	0.10884	0.029938	1236.9	0.0010536	0.0012175	1253	446.73	0.0010561	0.0012157	990.44	163.08	164.5	56.131	0.0011	66.965	244.323	48.093	-20.182	-94.163	-63.594	168.205	-94.210	-88.881	80.138	219.771	-90.385	-85.919	-82.754	-78.873	171.414	-82.004	-8191	255	
1270.216	1	1	0	0	0.11469	0.18476	0.20528	0.046579	0.18968	0.20543	0.40635	0.1371	0.29475	0.3128	0.026889	0.17381	0.11407	0.31871	0.24927	0.15111	-1.6958	-2.6521	-2.4729	-2.1167	-2.8375	-2.0771	-2.4771	-2.8708	-1.9646	-2.6583	-2.3292	-2.1958	-2.5875	-2.2833	-2.1417	-2.6792	-18.263	-2.384	42.810	-62.641	77.604	-56.053	176.318	-36.425	174.716	151.965	109.798	162.974	43.899	-35.731	-67.093	161.558	0.00028928	0.0057555	0.00077388	995.05	3.7118e-05	2.0648e-05	957.41	352.16	1.3421e-05	2.1722e-05	352.61	105.84	104.79	38.984	3.851e-05	43.107	0.058049	0.10895	0.029972	1240.1	0.0010576	0.0012136	1252.9	448.63	0.0010578	0.0012007	987.05	162.8	163.79	55.818	0.0010968	66.763	233.232	40.216	109.009	-93.830	109.916	150.496	-94.488	-88.728	68.868	222.131	-90.835	-85.665	-83.370	-78.624	157.610	-82.229	-8191	255	
1270.337	1	1	0	0	0.091268	0.087281	0.14069	0.13807	0.19099	0.049674	0.08016	0.15957	0.25541	0.079748	0.15365	0.16424	0.32441	0.17667	0.17411	0.086898	-1.5063	-2.5917	-2.3312	-2.0125	-2.8875	-2.1333	-2.3854	-2.8521	-1.9438	-2.6188	-2.4104	-2.0958	-2.7562	-2.3479	-2.0271	-2.9896	-92.320	-59.322	62.425	229.189	6.223	146.974	193.690	250.194	219.160	-16.858	-65.321	152.272	175.541	176.308	-37.539	-30.431	0.00040372	0.00075632	0.0009705	993.68	3.5162e-05	8.9247e-06	944.64	352.93	4.649e-05	4.7987e-05	349.94	104.27	103.64	38.429	5.8807e-05	42.673	0.058188	0.10838	0.030084	1241.4	0.0010637	0.0012097	1245	448.3	0.0010627	0.0012013	992.98	162.09	163.52	55.244	0.0011096	66.639	141.177	-48.030	191.282	-94.040	173.666	77.279	-94.190	-88.262	60.457	-18.056	-91.066	-85.784	-82.817	-78.619	73.141	-81.926	-8191	255	
1270.433	1	1	0	0	0.1454	0.38384	0.11282	0.18326	0.095175	0.13603	0.15939	0.39779	0.12177	0.047902	0.014416	0.25647	0.084533	0.27085	0.20383	0.21152	-1.7292	-2.4292	-2.3604	-2.1021	-2.8354	-2.3354	-2.3937	-2.8917	-2.0396	-2.5021	-2.7042	-1.9083	-2.6854	-2.4562	-1.9792	-2.9333	24.955	33.200	-8.826	216.930	-20.236	-15.090	203.356	229.452	95.133	150.417	-46.175	45.405	-66.427	221.129	13.620	146.571	0.00058956	0.0019277	0.00043451	990.32	3.9182e-05	3.6448e-05	946.92	354.47	3.9045e-05	2.3135e-05	361.26	107.34	104.48	38.94	2.8549e-05	43.345	0.058083	0.10795	0.030474	1242.7	0.0010562	0.0012085	1254.3	450.27	0.0010555	0.0011973	1001.3	164.05	163.52	55.502	0.0011196	67.315	230.329	191.569	-67.045	-93.401	-13.078	29.800	-94.238	-88.643	98.309	-30.419	-91.046	-85.950	-82.947	-78.590	49.458	-82.399	-8191	255	
1270.529	1	1	0	0	0.14421	0.07275	0.20522	0.20517	0.072451	0.24455	0.1345	0.054671	0.22765	0.16364	0.13598	0.064748	0.19202	0.22764	0.1615	0.14467	-1.7563	-2.3229	-2.7271	-2.0938	-2.5729	-2.525	-2.0521	-2.8438	-1.9833	-2.3479	-2.7875	-2.1	-2.6479	-2.7687	-1.9292	-2.9375	163.359	-49.395	-79.687	223.289	90.091	-47.381	184.904	247.358	115.270	165.359	135.364	-93.832	63.923	210.096	217.291	-63.686	0.00037026	0.0020746	0.0017072	986.47	1.1828e-05	9.8538e-06	947.04	359.38	2.143e-05	1.0336e-05	354.47	107.86	106.91	39.34	1.0653e-05	43.621	0.057505	0.10764	0.030753	1243.7	0.0010477	0.0012085	1260.5	453.73	0.0010487	0.0012077	1016.1	165.3	164.63	56.118	0.0011355	67.606	170.834	144.935	132.128	-94.073	30.037	209.239	-94.520	-88.555	250.748	162.605	-90.131	-85.889	-82.448	-78.278	-9.117	-82.397	-8191	255	
1270.625	1	1	0	0	0.29725	0.19522	0.078537	0.39331	0.23843	0.16498	0.32665	0.208	0.031198	0.11881	0.16913	0.18704	0.087263	0.1001	0.087123	0.090954	-1.7146	-2.275	-2.7354	-2.1583	-2.4083	-2.6479	-1.9438	-2.8438	-2.1229	-2.1312	-2.7229	-2.0917	-2.4208	-2.5708	-1.95	-2.6479	218.304	164.102	-98.899	231.814	148.864	189.558	208.723	198.614	-48.247	4.425	-82.964	177.467	-40.175	166.926	-98.280	-98.333	0.00030995	0.0037418	0.00033683	980.19	1.8844e-05	3.5619e-05	948.18	354.74	2.0855e-05	4.6779e-05	364.13	106.56	105.19	38.765	2.8381e-05	42.756	0.057446	0.10909	0.031166	1241.6	0.0010465	0.0012255	1266.3	451.47	0.0010484	0.0012267	1021.4	163.21	163.86	55.899	0.0011553	66.69	-38.502	-30.683	-103.281	-93.762	7.083	49.001	-93.403	-87.314	-51.893	185.392	-90.525	-84.788	-81.578	-77.411	249.947	-80.900	-8191	255	
1270.722	1	1	0	0	0.32542	0.18749	0.076663	0.3242	0.11494	0.19224	0.06912	0.045794	0.099362	0.11605	0.23101	0.22141	0.1234	0.33111	0.25026	0.084793	-1.9021	-2.1146	-2.6667	-2.125	-2.3479	-2.6167	-1.9771	-2.9125	-2.1937	-2.0687	-2.8167	-2.1604	-2.4479	-2.7583	-1.9562	-2.7458	200.042	152.151	50.765	226.397	-55.084	34.200	253.945	163.227	247.177	-64.746	-10.740	-24.354	-82.091	182.210	248.909	-92.463	0.00015372	0.0038316	0.00060151	987.58	3.6386e-05	3.8603e-05	936.91	351.58	4.4367e-05	4.5525e-05	356.86	103.71	103.13	37.728	2.5938e-05	41.773	0.058203	0.11189	0.031776	1245.9	0.0010713	0.0012653	1260.7	449.04	0.0010727	0.0012604	1026	162.47	164	55.983	0.0011766	66.323	190.535	-37.508	43.098	-93.085	224.578	170.239	-93.586	-87.434	57.786	31.252	-90.469	-84.704	-82.186	-77.518	-66.352	-81.154	-8191	255	
1270.818	1	1	0	0	0.055227	0.16527	0.14043	0.29228	0.24406	0.19944	0.24141	0.22441	0.2364	0.14762	0.19285	0.13307	0.23233	0.15075	0.12827	0.21799	-2.0458	-1.8896	-2.6396	-2.1708	-2.2333	-2.675	-1.85	-2.6458	-2.3208	-1.7938	-2.6625	-2.0563	-2.1542	-2.8375	-1.7812	-2.525	88.308	-71.921	84.041	195.995	-0.247	-47.363	157.394	179.724	-77.824	49.621	-49.945	-78.281	190.254	207.231	-77.357	203.226	0.00039592	0.0032216	0.00058499	986.48	8.9268e-06	2.3654e-05	932.44	343.88	1.3471e-05	2.4539e-06	345.2	100.01	100.79	37.167	2.2646e-05	40.867	0.06003	0.11717	0.032778	1253.3	0.0011181	0.0013268	1269.6	447.64	0.0011282	0.0013191	1045.8	161.92	165.24	55.991	0.0012183	66.371	-0.521	135.761	-20.980	-94.072	64.123	77.249	-94.965	-88.113	-3.422	-44.565	-90.833	-85.605	-82.852	-78.958	147.327	-81.937	-8191	255	
1270.937	1	1	0	0	0.1197	0.076529	0.089029	0.27053	0.22563	0.10795	0.18743	0.19407	0.32185	0.12919	0.18429	0.098462	0.1708	0.21455	0.049591	0.31544	-2.0062	-1.8813	-2.6146	-2.3708	-2.2354	-2.6688	-2.0375	-2.5271	-2.3812	-1.9771	-2.7208	-2.1479	-2.0938	-2.725	-2.0479	-2.5604	215.714	251.366	-90.960	194.841	150.065	152.672	246.345	171.481	41.772	107.888	22.503	136.261	-38.506	199.825	211.831	238.071	0.00019125	0.0031667	0.001344	994.73	4.6251e-05	1.7896e-05	920.91	341.3	9.9437e-06	2.1827e-05	328.62	95.657	96.449	35.144	4.1893e-05	38.422	0.0626	0.12026	0.033492	1262.4	0.0011564	0.0013564	1272.2	446.59	0.0011785	0.0013681	1057	160.6	165.71	55.203	0.0012451	65.701	52.392	2.292	45.016	-93.792	-81.682	25.077	-94.424	-88.103	160.496	-13.258	-89.619	-85.890	-82.572	-78.173	84.736	-81.232	-8191	255	
1271.033	1	1	0	0	0.13113	0.21996	0.19321	0.26905	0.20439	0.148	0.14585	0.11807	0.051305	0.25714	0.11831	0.22292	0.073697	0.18669	0.14782	0.21645	-2.3	-1.8708	-2.6958	-2.4021	-2.1104	-2.8854	-2.0187	-2.5354	-2.7667	-1.8625	-2.8187	-2.6437	-2.0833	-2.9042	-2.1396	-2.4292	153.093	133.489	-81.440	236.045	204.866	-41.734	141.287	172.439	-81.666	142.614	196.438	145.633	91.152	-56.104	4.585	172.010	0.0002795	0.0015445	0.00037966	982.03	2.9443e-05	2.3494e-05	901.02	334.96	1.0261e-05	5.1008e-05	317.48	91.97	94.757	34.178	4.5351e-05	36.953	0.065513	0.12426	0.034233	1271.4	0.0012062	0.0014041	1266.4	448.67	0.0012189	0.0013988	1059.2	159.41	165.81	54.673	0.0012689	64.98	-11.128	25.130	145.931	-93.845	155.957	219.646	-94.499	-88.386	-38.079	83.086	-89.626	-85.065	-82.128	-77.086	52.243	-80.885	-8191	255	
1271.129	1	1	0	0	0.18251	0.22278	0.084037	0.40286	0.14197	0.22825	0.48843	0.28242	0.16563	0.11058	0.15902	0.24968	0.15336	0.12649	0.36482	0.10201	-2.2792	-2.1625	-2.6437	-2.5896	-1.9521	-2.85	-2.1646	-2.2479	-2.5875	-2.0104	-2.6229	-2.6458	-1.8458	-2.9062	-2.1312	-2.2792	60.015	-10.197	212.844	-25.221	202.681	223.395	233.990	174.743	-67.240	-19.633	-55.803	109.043	12.724	107.107	161.919	-64.095	0.00029312	0.00076142	0.00076399	978.54	1.3467e-05	1.9692e-05	898.9	335.92	4.6496e-05	1.2815e-05	327.44	94.673	96.905	35.478	3.7344e-05	38.048	0.06664	0.12509	0.034197	1271.9	0.0012007	0.0013771	1252.1	447.19	0.0011915	0.0013516	1043.1	159.82	164.86	54.711	0.0012253	65.471	-103.526	11.748	204.379	-94.379	207.968	197.496	-94.437	-88.498	41.200	219.450	-90.861	-85.192	-82.380	-78.262	-97.259	-81.338	-8191	255	
1271.201	1	1	0	0	0.14109	0.26125	0.12028	0.085705	0.29379	0.24586	0.15948	0.15752	0.042975	0.23669	0.087289	0.2047	0.22407	0.11929	0.18432	0.070092	-2.3458	-2.0083	-2.4729	-2.5583	-1.825	-2.6625	-2.3792	-2.3312	-2.5833	-1.9417	-2.3688	-2.825	-1.9833	-2.8042	-2.5	-2.1625	72.740	78.499	206.918	212.849	-6.197	-84.094	60.069	118.671	-5.131	-41.519	8.850	-91.430	170.847	244.722	65.263	-82.301	0.00036058	0.0044897	0.0010325	979.29	1.8547e-05	8.6141e-05	914.64	340.34	2.3758e-05	2.1627e-05	333.24	97.918	98.96	36.901	4.3623e-05	39.839	0.064584	0.1199	0.033199	1265.8	0.0011653	0.0013268	1249.4	447.6	0.0011554	0.001295	1026.3	161.14	164.5	55.047	0.0011897	66.037	125.111	6.950	-81.289	-94.048	181.441	134.456	-93.680	-87.925	44.085	5.507	-91.830	-85.761	-83.431	-78.435	208.792	-82.039	-8191	255	
1271.321	1	1	0	0	0.19686	0.10852	0.26665	0.046746	0.22876	0.34211	0.20155	0.045811	0.069188	0.24092	0.35339	0.16806	0.10969	0.082545	0.11049	0.15192	-2.3937	-1.975	-2.3417	-2.7625	-1.9125	-2.7604	-2.3833	-2.1937	-2.7604	-2.0042	-2.2375	-2.6146	-2.0042	-2.5771	-2.375	-2.0646	-21.622	3.156	-13.596	189.968	64.853	-49.781	-57.281	252.108	103.704	163.225	-43.273	211.713	9.019	-38.930	249.918	-97.501	0.00037792	0.0040235	0.00098055	989.44	3.9415e-05	2.0897e-05	923.41	341.59	5.1184e-05	3.0302e-05	333.28	98.595	99.798	36.405	2.8676e-05	39.294	0.062628	0.11687	0.032967	1271.3	0.0011449	0.0013124	1263.3	449.59	0.0011458	0.0012904	1041	162.17	165.16	55.207	0.0012202	66.091	160.511	99.077	122.056	-94.013	130.125	76.963	-94.590	-88.223	96.350	45.990	-88.922	-86.186	-83.397	-77.821	85.983	-81.467	-8191	255	
1271.417	1	1	0	0	0.25863	0.061331	0.096702	0.23324	0.28788	0.1658	0.12984	0.27809	0.23406	0.15026	0.099667	0.42775	0.29276	0.13582	0.070961	0.096664	-2.4313	-1.825	-2.3229	-2.7354	-1.9937	-2.5354	-2.7583	-2.1688	-2.8354	-2.3125	-2.2396	-2.8229	-2.1625	-2.6083	-2.6208	-1.9854	54.925	154.630	58.732	203.836	54.265	54.019	189.141	195.152	-61.255	93.669	-82.013	147.531	250.954	195.915	97.389	37.944	0.00027044	0.0015926	0.00049532	982.57	3.4307e-05	4.2433e-05	912.69	340.4	3.4985e-05	6.313e-05	325.69	98.725	99.718	36.535	3.2081e-05	39.519	0.062576	0.11744	0.033346	1267.9	0.0011438	0.0013138	1257.9	449.1	0.0011461	0.001309	1046.5	161.84	164.01	55.43	0.0012351	66.202	222.173	-1.956	33.569	-94.207	141.304	88.625	-94.670	-88.306	231.465	226.761	-91.414	-86.197	-82.356	-77.802	243.018	-81.552	-8191	255	
1271.513	1	1	0	0	0.22551	0.21467	0.083695	0.12175	0.21792	0.10975	0.026637	0.1759	0.17254	0.18804	0.12347	0.19503	0.088538	0.28057	0.03722	0.21151	-2.5229	-2.1188	-2.3021	-2.8688	-2.0229	-2.4583	-2.8104	-1.925	-2.5542	-2.1937	-1.975	-2.7521	-1.8167	-2.4062	-2.5958	-1.9875	28.689	34.775	25.656	189.639	-23.588	-31.636	83.202	104.714	-27.894	160.961	54.429	196.839	133.644	-38.354	10.877	246.569	0.00032652	0.0027976	0.0014341	976.51	4.0086e-05	3.7236e-05	901.16	338.2	2.0696e-05	2.9252e-05	321.37	97.218	98.32	36.028	1.7246e-05	38.767	0.062637	0.11851	0.033769	1260.7	0.0011413	0.0013384	1257.1	448.61	0.0011551	0.0013336	1059.3	162.27	164.32	55.495	0.0012626	66.178	252.596	95.823	200.272	-94.042	-50.370	170.351	-94.444	-88.143	28.465	-88.642	-91.110	-85.808	-82.756	-78.745	11.760	-81.903	-8191	255	
1271.610	1	1	0	0	0.13775	0.14889	0.3651	0.21196	0.15959	0.20145	0.1655	0.40135	0.13851	0.3274	0.092238	0.18507	0.14896	0.20292	0.17688	0.20397	-2.0396	-2.1792	-2.0604	-2.9313	-1.8438	-2.3792	-2.7521	-2.0687	-2.6771	-2.4729	-1.8875	-2.9	-2.15	-2.2896	-2.6688	-1.9875	160.070	-11.971	162.941	243.324	78.349	-92.335	252.373	185.433	161.076	99.125	123.497	146.431	215.058	248.316	135.713	-90.272	0.00082794	0.0045942	0.0016344	951.94	3.0794e-05	5.2203e-05	885.15	335.68	3.4209e-05	4.7467e-05	331.12	99.24	100.4	36.922	2.4446e-05	40.669	0.06374	0.12228	0.034485	1254	0.0011581	0.001371	1251.4	445.55	0.0011515	0.0013436	1057.4	162.56	164.64	55.753	0.0012193	66.264	-78.700	-23.394	-30.074	-94.146	-73.832	16.622	-94.898	-88.390	224.023	245.299	-90.475	-85.598	-83.130	-78.245	87.345	-82.102	-8191	255	
1271.706	1	1	0	0	0.21539	0.20441	0.18984	0.14892	0.10894	0.25612	0.095132	0.12024	0.081778	0.19987	0.15159	0.47282	0.1855	0.091147	0.070339	0.23895	-2.15	-2.2729	-1.8458	-2.9729	-2.0542	-2.1833	-2.8167	-2.2583	-2.6917	-2.4354	-1.9	-2.6625	-2.1896	-2.1146	-2.7208	-1.9438	-99.269	70.248	241.976	174.251	154.739	-86.324	145.804	140.628	245.098	195.753	235.986	210.325	-93.466	105.580	-31.942	245.203	0.00065622	0.0026388	0.00036627	974.53	5.7272e-05	2.0613e-05	911.75	346.87	7.7041e-06	1.6515e-05	350.37	102.28	102.73	37.785	6.4054e-06	40.631	0.061357	0.11745	0.032737	1240.7	0.0011084	0.0013129	1246.8	447.13	0.001112	0.0012984	1039.1	162.49	165.37	56.414	0.001191	65.923	-96.386	189.943	114.080	-93.915	207.627	205.195	-94.852	-88.414	26.683	118.341	-90.020	-85.869	-82.257	-78.413	74.015	-82.034	-8191	255	
1271.802	1	1	0	0	0.20098	0.10186	0.054968	0.34508	0.081076	0.23183	0.28767	0.20067	0.32242	0.31349	0.13411	0.27554	0.45519	0.094163	0.18854	0.15647	-2.0396	-2.3542	-1.8792	-2.8521	-2.0938	-2.1063	-2.8792	-2.2375	-2.2479	-2.6875	-2.0229	-2.75	-2.3	-2.15	-2.8	-2.0896	157.849	-84.206	99.149	218.510	-82.501	-59.824	197.519	244.929	74.260	-7.381	237.105	-93.888	117.171	-84.105	-91.724	183.850	9.0332e-05	0.0010681	0.0010899	959.16	3.0283e-05	3.2884e-05	900.96	343.04	2.388e-05	2.8183e-05	344.68	102.27	101.71	37.453	6.0943e-05	40.469	0.061024	0.1171	0.032394	1225.1	0.0011103	0.0013012	1237.5	445.59	0.001114	0.0012897	1019.3	161.63	164.61	55.962	0.0011774	65.789	140.665	-100.465	229.078	-93.536	108.067	-96.113	-94.594	-88.363	238.708	223.450	-90.364	-86.272	-82.965	-78.168	25.897	-82.126	-8191	255	
1271.898	1	1	0	0	0.096406	0.068711	0.25851	0.24298	0.16889	0.040445	0.16501	0.18939	0.2662	0.17891	0.023624	0.21165	0.22767	0.34359	0.21812	0.24615	-2.0854	-2.6396	-2.0083	-2.7625	-2.3354	-1.9062	-2.7583	-2.0875	-2.2146	-2.6688	-1.9479	-2.5	-2.4	-2.0021	-2.5312	-2.125	185.537	-48.386	225.031	-83.044	242.638	44.694	171.237	208.896	-29.909	-32.607	135.192	-1.342	190.196	237.509	105.329	137.323	0.00047639	0.0054588	0.00098159	951.96	1.8045e-05	2.7273e-05	914.3	347.53	3.7253e-05	8.218e-06	346.1	102.35	101.74	37.675	2.7694e-05	41.095	0.061346	0.11655	0.032024	1226.9	0.0011204	0.0013008	1241.9	446.8	0.0011227	0.0012884	1022.9	162.63	165.31	55.876	0.0011769	66.389	-94.929	-65.200	134.990	-94.175	-103.238	141.742	-94.570	-88.063	-57.595	-13.044	-90.313	-85.941	-83.256	-78.202	213.016	-82.119	-8191	255	
1272.017	1	1	0	0	0.15946	0.086438	0.23458	0.036145	0.25031	0.3018	0.21485	0.23024	0.1241	0.24331	0.13404	0.25382	0.1827	0.25195	0.05777	0.14787	-1.65	-2.6792	-2.05	-2.5958	-2.3875	-1.9042	-2.7417	-2.1562	-1.9896	-2.4979	-1.9042	-2.3979	-2.5021	-2.0229	-2.8563	-2.2958	231.881	147.678	-100.653	154.256	74.414	50.909	26.170	104.556	208.511	144.492	-26.228	-36.881	122.159	209.962	15.737	194.758	0.00032233	0.0021132	0.00061628	983.02	3.5544e-05	2.928e-05	927.97	350.56	1.0787e-05	3.4251e-05	349.32	104.43	103.15	38.21	3.9419e-05	41.665	0.06177	0.11609	0.031899	1246	0.0011212	0.0012969	1255.2	450.9	0.0011256	0.0012757	1020.5	164.69	166.77	56.102	0.0011636	66.901	165.183	-46.579	199.654	-93.619	113.965	193.140	-94.135	-87.946	159.711	212.362	-89.636	-85.198	-82.478	-78.053	-66.267	-81.533	-8191	255	
1272.113	1	1	0	0	0.13209	0.085425	0.050666	0.22489	0.18922	0.12096	0.031021	0.094532	0.10344	0.20977	0.13976	0.21996	0.077197	0.27856	0.12676	0.29875	-1.6604	-2.725	-1.8937	-2.3812	-2.5104	-1.8771	-2.7146	-2.4583	-1.9562	-2.7188	-1.8708	-2.4208	-2.7542	-1.9458	-2.6083	-2.575	112.334	-65.154	66.568	232.286	-89.384	120.078	176.482	122.730	134.409	150.671	34.631	69.847	234.991	129.089	3.554	154.862	0.00035548	0.00075194	0.00086675	971.99	1.1009e-05	3.4712e-05	922.74	344.56	1.685e-05	4.3222e-05	336.35	100.87	100.32	36.585	1.7207e-05	39.781	0.061538	0.11459	0.03167	1247.4	0.0011179	0.0012788	1250.1	448.39	0.0011225	0.0012707	1019.6	162.43	164.97	55.08	0.0011823	66.124	-32.131	234.192	-41.673	-94.136	249.263	6.167	-94.335	-88.409	134.881	-4.688	-90.311	-85.777	-83.477	-78.576	-54.353	-82.298	-8191	255	
1272.209	1	1	0	0	0.21135	0.1047	0.10667	0.21107	0.05063	0.16477	0.21053	0.36215	0.11481	0.12094	0.20264	0.09625	0.11455	0.12986	0.13374	0.18187	-1.3687	-2.7104	-2.0042	-2.3458	-2.6958	-2.1188	-2.6208	-2.6188	-2.0187	-2.6979	-2.1708	-2.3812	-2.7354	-1.9396	-2.3729	-2.5417	56.354	67.589	-20.390	170.709	109.810	38.540	148.442	-105.524	253.473	90.138	-41.085	121.657	90.810	-35.901	245.018	217.116	0.00016015	0.0032974	0.00065579	968.7	4.3449e-05	3.447e-05	899.58	337.67	2.3546e-05	1.1354e-05	324.45	98.379	98.425	36.373	4.6604e-05	39.118	0.062484	0.11673	0.032815	1249.7	0.0011508	0.0013148	1249.1	445.23	0.0011505	0.0012968	1030.9	161.43	163.42	54.62	0.0012002	65.643	242.697	-80.402	34.533	-94.168	226.600	68.363	-94.481	-88.037	87.287	-57.593	-90.346	-85.162	-82.670	-77.952	95.280	-81.477	-8191	255	
1272.305	1	1	0	0	0.34169	0.11735	0.10604	0.22874	0.13742	0.16085	0.25803	0.14709	0.17921	0.29695	0.19091	0.19576	0.087631	0.11345	0.081718	0.053616	-1.6437	-2.7521	-2.2458	-2.3187	-2.7042	-1.9521	-2.5438	-2.6458	-1.9479	-2.7542	-2.3396	-2.4375	-2.9188	-2.0583	-2.3167	-2.5958	71.257	125.174	-70.767	193.054	43.933	-78.232	114.196	193.612	-83.482	173.719	184.405	176.353	-55.277	-104.582	-41.572	137.670	6.6672e-05	0.001151	0.00023804	963.37	2.5119e-05	4.3229e-05	907.5	337.99	4.9174e-05	9.0237e-06	341.51	100.13	100.3	36.732	4.5539e-05	39.832	0.061972	0.1151	0.032713	1241.8	0.00112	0.0012811	1242.7	442.57	0.0011034	0.0012606	1025	160.54	162.27	54.54	0.0011812	65.468	-7.981	245.567	-74.958	-94.559	34.401	-24.894	-94.863	-88.300	157.505	67.073	-89.851	-85.800	-82.397	-78.740	155.120	-81.951	-8191	255	
1272.426	1	1	0	0	0.32379	0.36651	0.11075	0.16469	0.27602	0.15854	0.24891	0.097133	0.054993	0.21903	0.21746	0.14365	0.331	0.0412	0.31262	0.15896	-1.3708	-2.7562	-2.1562	-2.1854	-2.8917	-1.8854	-2.5396	-2.7104	-2.0458	-2.8438	-2.4938	-1.8813	-2.8729	-2.1604	-2.3958	-2.9021	247.606	30.181	-85.022	180.404	168.039	241.390	-95.400	-51.107	84.304	-5.157	86.238	47.983	-98.773	151.790	65.637	-77.658	0.00022436	0.0022933	0.0012946	969.38	1.839e-05	2.3699e-05	915.91	340.37	2.9038e-05	4.9795e-05	344.23	100.76	100.82	36.767	1.8195e-05	39.768	0.059891	0.11317	0.032135	1235.4	0.0010904	0.0012639	1249.3	442.89	0.0010766	0.0012605	1025.2	160.87	162	54.698	0.0011893	65.303	-16.948	-43.602	19.211	-94.099	12.506	251.082	-94.375	-88.364	-80.336	9.306	-91.341	-85.635	-82.213	-78.263	229.753	-82.176	-8191	255	
1272.498	1	1	0	0	0.12114	0.079902	0.14477	0.17592	0.18008	0.29951	0.063182	0.25412	0.39295	0.19938	0.14494	0.073829	0.079213	0.20306	0.15009	0.14561	-1.5396	-2.7458	-2.05	-2.0542	-2.7125	-2.1708	-2.3625	-2.8667	-2.0083	-2.4583	-2.2792	-1.9417	-2.9042	-2.1104	-2.0646	-2.5854	-105.529	147.678	-102.412	163.558	95.656	87.039	-106.115	168.439	128.621	6.848	36.371	-98.755	-36.317	236.629	146.318	159.811	0.00013582	0.0032614	0.00049693	970.94	1.5669e-05	2.4995e-05	912.98	341.03	4.4699e-05	2.757e-05	339.12	97.521	98.583	36.115	2.6036e-05	39.195	0.06017	0.11622	0.032814	1243.7	0.0011141	0.0013097	1253.5	444.81	0.0011206	0.0013174	1044.4	160.37	163.72	55.208	0.0012296	65.386	-31.493	134.445	41.314	-93.843	12.875	220.115	-94.312	-88.421	145.742	-55.462	-89.423	-85.891	-82.635	-78.635	-65.470	-82.151	-8191	255	
1272.618	1	1	0	0	0.13744	0.1008	0.043874	0.34372	0.30179	0.31355	0.21519	0.11236	0.1946	0.13926	0.237	0.14741	0.1453	0.2031	0.11821	0.11372	-1.4438	-2.4562	-2.6271	-1.9042	-2.7333	-2.2313	-2.3063	-2.9042	-1.925	-2.5312	-2.575	-2.0396	-2.6708	-2.4625	-2.0417	-2.8	162.008	87.933	-25.328	210.640	182.302	37.281	243.825	211.550	118.662	198.451	171.800	113.010	238.715	-65.938	231.861	253.923	0.00065061	0.0043218	0.0012723	977.78	4.4811e-05	5.3574e-05	915.21	343.32	2.6573e-05	4.4352e-05	343.42	99.004	99.596	36.761	4.0182e-05	39.63	0.062042	0.12001	0.03362	1255	0.0011398	0.001342	1265.6	447.34	0.0011345	0.0013297	1051.4	161.34	165.37	55.92	0.0012214	65.972	-20.565	170.082	46.785	-93.829	80.793	81.592	-94.548	-87.684	228.834	179.778	-89.979	-85.597	-82.623	-78.081	55.097	-82.537	-8191	255	
1272.714	1	1	0	0	0.14975	0.087658	0.2638	0.50189	0.26939	0.17588	0.034934	0.1123	0.25446	0.22396	0.20988	0.15437	0.035566	0.37592	0.13254	0.1808	-1.6812	-2.3917	-2.6167	-2.1354	-2.6875	-2.3125	-2.2229	-2.8187	-2.0312	-2.4646	-2.7875	-2.0104	-2.5833	-2.4167	-1.8667	-2.8458	132.237	142.977	56.342	181.712	-73.849	-8.483	180.386	-100.187	89.685	203.228	20.955	221.417	254.311	-54.020	220.214	120.232	0.00060194	0.0029402	0.00086734	986.57	1.3192e-05	3.7755e-05	932.59	345.52	1.0929e-05	3.3431e-05	344.44	102.49	101.46	37.489	6.3362e-05	40.768	0.062053	0.11962	0.033105	1258.8	0.0011395	0.0013314	1271.8	449.68	0.0011356	0.001321	1040.4	163.13	166.98	56.342	0.0011931	66.282	-91.612	252.405	7.527	-93.724	36.887	12.035	-93.627	-87.276	250.154	36.676	-91.560	-85.427	-82.899	-78.108	-14.141	-82.033	-8191	255	
1272.811	1	1	0	0	0.14654	0.10842	0.1524	0.27387	0.14082	0.23552	0.11386	0.10773	0.20531	0.062877	0.21014	0.22476	0.22556	0.016024	0.1099	0.069601	-1.4271	-2.1271	-2.6333	-1.975	-2.7625	-2.4917	-1.8625	-2.7542	-2.175	-2.2042	-2.8458	-2.0604	-2.4688	-2.6917	-1.9167	-2.7938	100.133	194.464	6.831	194.335	201.139	252.678	248.850	186.485	114.694	-70.362	238.137	227.849	164.001	-50.525	-105.229	175.961	0.00026659	0.0024111	0.00063558	995.53	2.4261e-05	7.7254e-05	935.9	351.28	3.0468e-05	1.941e-05	336.09	101.58	102.6	38.017	3.8301e-05	40.285	0.062072	0.11809	0.032466	1261.9	0.0011383	0.001323	1266.6	452.24	0.0011363	0.0013041	1028.5	162.4	167.42	56.5	0.0011763	66.232	-77.851	170.413	37.624	-93.855	41.014	77.542	-93.921	-88.231	144.619	-76.065	-90.950	-86.170	-82.339	-77.923	-32.769	-81.823	-8191	255	
1272.905	1	1	0	0	0.2358	0.2247	0.12415	0.17212	0.18877	0.17121	0.084075	0.35341	0.34165	0.15952	0.13966	0.35721	0.13376	0.30494	0.25698	0.30959	-1.7646	-2.15	-2.7042	-2.1479	-2.6063	-2.4437	-2.0625	-2.8167	-2.2208	-1.9646	-2.6792	-2.0167	-2.4667	-2.5938	-1.8021	-2.6396	211.539	-103.586	17.690	143.944	61.466	-103.593	142.892	193.601	-6.376	20.848	-79.704	-93.246	189.640	-45.281	24.201	132.093	0.00010276	0.0013032	0.0011419	988.06	1.3117e-05	4.37e-05	930.36	349.53	1.6904e-05	3.0826e-05	349.55	102.22	103.29	38.351	3.6556e-05	41.22	0.062043	0.11759	0.032059	1258.2	0.0011357	0.0013041	1255	453.74	0.0011339	0.0012885	1023.9	163.56	168.07	56.514	0.0011653	66.843	-58.739	-65.347	229.174	-93.680	108.349	-79.241	-93.985	-87.892	188.921	-57.116	-90.730	-84.324	-82.347	-77.413	108.246	-80.660	-8191	255	
1273.026	1	1	0	0	0.22145	0.2146	0.093379	0.22802	0.11489	0.068169	0.10518	0.41483	0.24009	0.046075	0.17888	0.19323	0.30703	0.34523	0.12295	0.20748	-1.9979	-2.0896	-2.8167	-1.9104	-2.2292	-2.6104	-1.95	-2.525	-2.1875	-1.9271	-2.7583	-2.3833	-2.3312	-2.6792	-2.075	-2.8542	25.678	-72.293	214.099	220.232	-50.394	-33.056	225.595	-98.212	86.366	-88.632	-35.661	-75.422	-51.096	154.408	71.681	133.074	0.00044675	0.0043715	0.00035934	995.86	4.4764e-05	2.0205e-05	951.74	356.54	8.3562e-06	6.669e-05	355.11	106.03	106.49	39.556	1.0319e-05	42.489	0.061421	0.11522	0.031796	1262.1	0.0011218	0.0012813	1268.8	458	0.0011186	0.0012655	1029.5	166.87	169.27	57.323	0.0011639	67.917	-74.460	216.024	103.479	-92.754	105.898	108.555	-93.670	-87.315	221.035	-46.035	-89.793	-85.630	-82.675	-78.367	37.091	-81.617	-8191	255	
1273.097	1	1	0	0	0.19327	0.18101	0.23164	0.18108	0.17868	0.24311	0.050157	0.29865	0.28049	0.10955	0.14023	0.051581	0.13298	0.093067	0.21177	0.19277	-2.0771	-2.0896	-2.6937	-2.3542	-2.1771	-2.8563	-2.1917	-2.6479	-2.7271	-1.875	-2.8479	-2.3312	-2.3021	-2.7396	-2.0292	-2.5187	67.714	6.103	84.196	213.945	-20.339	-60.268	161.373	216.359	144.942	-43.028	-103.501	-26.033	141.954	60.246	11.111	113.772	0.00033053	0.0010414	0.0012073	997.95	4.0465e-05	2.818e-05	950.89	361.13	1.2069e-05	4.3934e-05	360.25	107.52	105.42	39.308	1.8184e-05	41.994	0.061003	0.11317	0.031706	1266	0.0011102	0.0012664	1276.9	461.07	0.0011146	0.0012586	1041.3	167.6	169.19	57.129	0.001189	68.224	164.488	249.362	208.010	-93.601	-3.407	0.913	-94.292	-87.801	99.625	-5.348	-89.390	-85.328	-82.388	-77.478	-103.941	-81.317	-8191	255	
1273.193	1	1	0	0	0.057901	0.22315	0.18217	0.13622	0.20775	0.039064	0.070063	0.12522	0.1419	0.18262	0.19998	0.077101	0.068576	0.12764	0.18198	0.10115	-2.1042	-1.8729	-2.525	-2.1188	-2.0312	-2.925	-2.0521	-2.6125	-2.7854	-1.9333	-2.5438	-2.3125	-2.2125	-2.9583	-1.9708	-2.4729	246.210	-9.046	-5.161	217.786	-10.520	-6.999	78.374	201.081	54.418	-26.121	-49.946	-66.061	84.897	132.611	69.992	102.871	0.00037613	0.0019094	0.00090082	1001.5	4.5497e-05	4.0648e-05	944.16	356.6	4.5699e-05	2.8737e-05	352.51	104.57	105.56	38.804	6.091e-05	41.768	0.061595	0.11518	0.032754	1273.3	0.0011238	0.0012908	1282.4	460.31	0.0011221	0.0012808	1050.7	166.32	168.48	56.894	0.0012048	67.581	46.609	25.735	133.256	-93.493	19.113	87.206	-93.773	-87.601	23.605	66.546	-90.320	-85.028	-82.016	-77.769	199.025	-81.156	-8191	255	
1273.290	1	1	0	0	0.018817	0.12072	0.16066	0.10101	0.32278	0.091435	0.20264	0.34787	0.08855	0.21137	0.31629	0.22056	0.069245	0.11951	0.16207	0.02246	-2.2396	-2.0104	-2.6125	-2.4917	-1.8958	-2.8479	-2.4479	-2.4229	-2.5938	-1.8708	-2.3875	-2.5479	-1.8438	-2.9229	-2.1854	-2.2729	74.263	71.775	78.735	162.330	126.552	200.663	-105.422	-95.808	99.688	-85.918	-88.547	233.258	-41.146	-56.852	-92.278	-91.048	0.00053125	0.0040281	0.00057651	990.48	2.4353e-05	4.2731e-05	930.02	352.26	1.7339e-05	3.5069e-05	342.27	102.1	102.74	38.312	2.361e-05	41.311	0.06111	0.11554	0.03309	1268.7	0.0011175	0.0013032	1273.5	456.95	0.0011082	0.0012846	1047.9	164.03	166.43	56.85	0.0012122	67.006	121.444	27.954	-61.787	-93.287	114.193	110.950	-94.151	-87.487	170.894	-81.851	-89.164	-85.469	-81.611	-77.500	76.292	-80.888	-8191	255	
1273.386	1	1	0	0	0.09586	0.18251	0.20239	0.083608	0.27311	0.16415	0.35458	0.28227	0.12937	0.043148	0.24239	0.10489	0.30164	0.10594	0.11657	0.062401	-2.2333	-1.9021	-2.4729	-2.5229	-1.9708	-2.7417	-2.1521	-2.2083	-2.7646	-1.7854	-2.5521	-2.6083	-2.0438	-2.7417	-2.1854	-2.0854	173.631	-72.500	-10.929	151.669	-19.521	135.840	-92.042	194.280	-78.356	-16.740	-36.974	92.882	210.324	237.760	15.926	-98.290	0.00039601	0.0025929	0.00036798	999.67	4.0732e-05	5.6128e-05	934.48	353.74	2.0797e-05	3.2085e-05	344.29	104	104.06	38.463	8.2941e-06	41.938	0.061231	0.11679	0.033044	1269.4	0.0011088	0.0013075	1276.7	456.55	0.0011032	0.0012934	1042.1	163.54	166.77	57.036	0.0011954	66.748	-62.008	10.877	209.036	-93.083	224.540	148.882	-93.837	-87.040	-13.289	92.967	-90.840	-85.228	-81.395	-77.979	228.053	-81.744	-8191	255	
1273.506	1	1	0	0	0.31241	0.19045	0.12992	0.27985	0.12573	0.41101	0.36183	0.20846	0.096115	0.24014	0.22328	0.02108	0.060664	0.30171	0.18577	0.15574	-2.2417	-1.9875	-2.3083	-2.7229	-1.95	-2.6688	-2.4813	-2.1354	-2.6167	-2.075	-2.3063	-2.5271	-2.05	-2.65	-2.1604	-2.0667	20.152	82.934	-2.912	210.894	-94.602	85.813	169.717	134.557	22.729	170.396	193.309	173.316	41.809	-87.805	121.507	233.600	0.00063863	0.0040916	0.00094639	1009.2	2.8474e-05	5.1183e-05	954.99	361.12	2.399e-05	5.3761e-05	343.85	105.48	106.25	39.079	7.339e-05	42.046	0.060404	0.11644	0.03264	1272.3	0.0011088	0.0013076	1284.9	458.81	0.0011025	0.0012979	1044.1	164.51	168.72	57.768	0.0011896	66.985	-98.970	234.725	-85.494	-92.924	213.310	188.701	-93.837	-87.855	6.162	16.772	-89.258	-85.445	-81.658	-77.234	86.122	-81.500	-8191	255	
1273.603	1	1	0	0	0.068538	0.14363	0.072129	0.15118	0.19855	0.23091	0.26528	0.23994	0.10021	0.16308	0.15339	0.20479	0.19827	0.30631	0.31406	0.17979	-2.4125	-1.9583	-2.2354	-2.7604	-2.0812	-2.6875	-2.3979	-1.9354	-2.8646	-1.9604	-2.0542	-2.7792	-1.8792	-2.5104	-2.4167	-1.9062	141.282	117.636	174.080	-92.487	167.247	182.399	230.921	231.397	-90.707	67.967	189.589	113.328	147.892	232.328	30.269	189.438	0.00044727	0.003898	0.0008932	1004.1	1.9636e-05	2.5702e-05	946.41	358.75	5.4689e-05	6.3018e-05	349.18	103.59	105.55	39.046	5.3351e-05	40.711	0.060933	0.1167	0.032504	1270.3	0.0011151	0.0013147	1275.5	456.23	0.0011186	0.0012982	1036.8	163.29	168.77	57.439	0.0011838	66.27	-105.225	-16.860	16.205	-93.338	253.555	-22.723	-94.207	-87.626	74.590	103.895	-89.448	-85.489	-82.816	-78.355	4.626	-81.745	-8191	255	
1273.699	1	1	0	0	0.038836	0.11213	0.37477	0.064391	0.15943	0.11934	0.32071	0.52274	0.098692	0.25254	0.28979	0.077339	0.097059	0.31555	0.13495	0.23437	-2.2271	-2.125	-2.2208	-2.6542	-1.9438	-2.3521	-2.5604	-2.0542	-2.5312	-2.1917	-2.0042	-2.625	-1.9729	-2.1854	-2.4708	-1.8354	250.664	59.118	-0.336	249.104	187.307	243.656	185.603	211.962	160.375	182.942	157.055	196.186	173.356	-85.206	235.218	198.892	0.00046241	0.0051239	0.0023126	1000.4	2.415e-06	3.6768e-05	940.55	354.9	2.2197e-05	1.5287e-05	351.21	103.57	104.89	39.166	2.2394e-05	41.284	0.061915	0.11739	0.032195	1266.4	0.0011284	0.0013139	1264.5	455.37	0.0011286	0.001295	1030	163.38	168.41	57.254	0.001172	66.644	-53.750	-3.210	-69.817	-94.171	-89.618	103.937	-94.634	-87.908	216.092	250.407	-90.878	-85.824	-82.979	-77.951	-29.410	-82.345	-8191	255	
1273.795	1	1	0	0	0.13559	0.22956	0.45017	0.17153	0.090035	0.058929	0.24153	0.16623	0.12812	0.091693	0.094471	0.12538	0.26817	0.0991	0.12847	0.17663	-2.2792	-1.9167	-2.0104	-2.7792	-1.8958	-2.4458	-2.7	-1.9458	-2.5167	-2.4562	-2.0062	-2.8146	-2.1792	-2.2479	-2.6333	-2.0042	-50.805	130.723	99.732	208.747	16.671	-72.243	115.744	225.316	-8.238	-72.451	-28.852	186.665	147.586	163.094	-69.067	223.972	0.00025152	0.00396	0.00069052	998.83	3.4232e-05	4.2801e-05	942.03	359.35	4.5687e-05	6.5337e-05	354.84	104.41	106.15	39.449	5.9134e-05	42.51	0.062181	0.11646	0.031965	1267.3	0.001126	0.0012994	1266.4	458.52	0.0011239	0.0012804	1025.4	165.54	169.36	57.406	0.0011569	67.484	220.342	-80.637	-93.726	-93.859	-103.801	13.272	-94.125	-88.117	196.229	146.752	-90.330	-85.689	-82.615	-77.937	205.355	-82.071	-8191	255	
1273.889	1	1	0	0	0.1496	0.25789	0.010163	0.036783	0.24105	0.26473	0.11818	0.095072	0.098623	0.10173	0.29352	0.090723	0.15817	0.25586	0.25446	0.28407	-2.2021	-2.3771	-1.9	-2.7812	-2.0146	-2.1312	-2.7646	-2.0104	-2.4729	-2.3833	-1.875	-2.8063	-2.15	-2.2667	-2.6875	-2.0792	-97.341	55.614	-76.835	218.151	208.318	-76.509	240.868	-58.308	153.572	-0.880	-72.567	-100.873	-8.346	-100.889	-8.667	226.741	6.1546e-05	0.0055842	0.0010572	1008.3	2.6736e-05	2.8574e-05	948.68	360.26	2.1508e-05	3.2021e-05	354.2	104.26	105.91	39.287	4.1874e-05	41.349	0.061332	0.11417	0.031607	1273.7	0.0011112	0.001273	1268.1	460.13	0.0011179	0.0012654	1026.1	165.52	168.82	57.36	0.0011682	67.359	13.522	-13.895	108.388	-93.560	121.656	245.663	-94.857	-88.011	-48.633	208.781	-90.976	-85.382	-82.587	-77.717	-62.258	-82.347	-8191	255	
1273.987	1	1	0	0	0.43363	0.10626	0.25141	0.01915	0.11941	0.36392	0.14963	0.098906	0.12998	0.15405	0.22271	0.094871	0.13022	0.10619	0.087051	0.34619	-2.1375	-2.5458	-2.0354	-2.7125	-2.2562	-1.9854	-3.0167	-2.2521	-2.4562	-2.6167	-1.8958	-2.7083	-2.325	-2.1542	-2.7438	-2.0583	194.474	-46.040	96.551	211.539	-82.959	-69.043	195.009	231.919	184.887	97.521	216.457	-59.002	175.152	181.195	-84.465	88.162	0.00035799	0.0019416	0.0006492	994.25	1.987e-05	1.5958e-05	931.18	353.68	1.1756e-05	2.4686e-05	341.17	103.34	104.68	38.803	6.204e-06	40.647	0.061215	0.11359	0.031997	1267.1	0.0011167	0.0012756	1257.6	456.86	0.0011167	0.0012578	1027.3	163.91	167.02	56.611	0.0011753	66.479	-43.591	-34.342	189.123	-93.495	56.592	-55.437	-94.182	-88.046	-17.015	94.704	-89.713	-85.754	-82.711	-77.959	155.241	-82.176	-8191	255	
1274.106	1	1	0	0	0.1627	0.10908	0.11848	0.15472	0.10726	0.2417	0.10027	0.13342	0.16095	0.1187	0.17725	0.32886	0.10247	0.13872	0.15747	0.071888	-2.0563	-2.6042	-2.1083	-2.7271	-2.3667	-2.0646	-2.6792	-2.1542	-2.3312	-2.6146	-2.0125	-2.6896	-2.6396	-2.0021	-2.725	-2.1021	-61.490	106.182	-106.235	-68.603	136.995	45.227	197.348	243.325	55.254	61.649	71.612	59.650	-84.669	204.549	112.273	221.645	0.00050667	0.0029268	0.00064001	992.28	4.0009e-05	9.5615e-06	928.03	355.75	4.0323e-05	5.5558e-05	339.97	102.34	103.54	38.85	3.3086e-05	41.169	0.060641	0.11305	0.032057	1262.9	0.0010942	0.0012624	1257.9	456.08	0.001094	0.0012479	1024.9	162.41	165.7	56.471	0.0011797	66.411	6.338	14.400	240.242	-93.731	166.287	-9.604	-94.649	-88.429	59.835	162.852	-91.268	-85.818	-82.894	-78.191	186.681	-82.144	-8191	255	
1274.202	1	1	0	0	0.33979	0.26731	0.10213	0.12742	0.28032	0.25715	0.15664	0.34344	0.20197	0.13435	0.10935	0.086491	0.28135	0.046004	0.22117	0.15943	-1.7687	-2.5854	-1.7812	-2.6917	-2.6667	-1.95	-2.725	-2.3292	-2.0896	-2.7646	-1.9375	-2.5375	-2.7062	-2.1562	-2.7271	-2.2562	85.565	133.123	164.264	211.878	136.384	148.050	161.246	152.973	122.630	80.463	-35.817	186.727	222.745	57.975	130.220	217.557	0.00036262	0.0022568	0.00058175	997.79	3.5304e-05	3.1698e-05	935.1	353.19	3.6816e-05	7.3967e-06	349.57	103.33	104.6	38.956	1.8895e-05	41.269	0.059827	0.11312	0.032487	1269.7	0.0010993	0.0012776	1269.8	456.41	0.0011011	0.0012754	1043.1	164.03	166.66	56.971	0.0012009	66.823	229.559	-86.707	180.317	-94.163	63.112	127.254	-94.395	-88.152	9.279	-23.140	-89.936	-85.865	-83.063	-78.176	74.167	-82.304	-8191	255	
1274.298	1	1	0	0	0.54955	0.10202	0.10903	0.27009	0.1167	0.19037	0.030265	0.22449	0.066428	0.1499	0.13257	0.29486	0.18693	0.39104	0.17772	0.1496	-1.5729	-2.9042	-1.8104	-2.3521	-2.5667	-1.9312	-2.8292	-2.4646	-2.0125	-2.8354	-1.9625	-2.4375	-2.5583	-2.1354	-2.6	-2.5021	85.844	209.567	189.343	-46.819	0.840	15.329	-65.729	160.001	-81.360	215.058	113.751	236.112	109.229	218.801	235.976	218.284	0.00044735	0.0032325	0.00093874	998.05	3.278e-05	6.6215e-06	942.96	357.35	1.9036e-05	6.2327e-05	346.05	101.3	104.41	38.736	5.9543e-05	40.655	0.060379	0.11617	0.032727	1269.1	0.001103	0.001296	1274.4	456.74	0.0011097	0.0012903	1038.2	162.5	166.93	57.184	0.0012113	66.075	3.816	34.036	-78.002	-93.660	-3.988	-41.021	-93.966	-87.767	-104.920	31.684	-89.342	-84.992	-82.411	-77.796	33.625	-81.943	-8191	255	
1274.394	1	1	0	0	0.17615	0.33874	0.094814	0.1476	0.13608	0.18936	0.23116	0.55921	0.046962	0.20515	0.078872	0.21735	0.29651	0.22055	0.13172	0.2203	-1.6979	-2.8	-2.2229	-2.4479	-2.7083	-2.0479	-2.6854	-2.4917	-2.075	-2.725	-2.2021	-2.2604	-2.7687	-2.0875	-2.6333	-2.5667	-78.520	132.015	58.399	0.285	-22.762	18.579	185.860	212.238	-46.124	240.734	205.025	138.093	-47.452	154.719	77.590	53.660	0.00064886	0.0020052	0.00040014	1002.5	1.2995e-05	1.4023e-05	926.9	356.46	3.0732e-05	2.7243e-05	345.57	101.26	104.22	38.599	5.21e-05	40.496	0.061263	0.1184	0.03322	1271	0.0011252	0.0013305	1274.9	459.29	0.0011332	0.0013335	1054.7	163.21	169.36	57.801	0.0012366	66.492	251.065	146.027	213.602	-93.591	201.553	22.364	-94.158	-87.721	21.973	61.930	-90.710	-86.002	-82.255	-78.108	141.629	-81.659	-8191	255	
#DATA ENDS
