BOXY.EXE: ISS Imagent and Oximeter Data Acquisition Program Version 0.80
Ascii Record File

#ACQ INFORMATION
2  Detector Channels 
16  External MUX Channels 
1  Auxiliary Channels 
5000  Waveform (CCF) Frequency (Hz)
1  Waveforms Skipped 
30  Waveforms Averaged 
1  Cycles Averaged 
16  Acquisitions per Waveform 
10.0806  Updata Rate (Hz) 

#FILE INFORMATION
TRUE -- External MUX Channel results are PARSED.
FALSE -- AC DC and Phase are NOT grouped.
TRUE -- Companion Program Settings File CREATED.
FALSE -- AC data not excluded
FALSE -- DC data not excluded
FALSE -- Phase data not excluded
FALSE -- Auxillary Chn. data not excluded
Tab delimiters

#CALIBRATION STATE
TRUE -- Waveform Calibration Values APPLIED.


#AUX CALIBRATION VALUES
Val Type	aux-1	

Term	1.0000e+00	
Factor	0.0000e+00	


#WF CALIBRATION VALUES
A = Detector Channel
Val Type	A-AC1	A-AC2	A-AC3	A-AC4	A-AC5	A-AC6	A-AC7	A-AC8	A-AC9	A-AC10	A-AC11	A-AC12	A-AC13	A-AC14	A-AC15	A-AC16	A-DC1	A-DC2	A-DC3	A-DC4	A-DC5	A-DC6	A-DC7	A-DC8	A-DC9	A-DC10	A-DC11	A-DC12	A-DC13	A-DC14	A-DC15	A-DC16	A-Ph1	A-Ph2	A-Ph3	A-Ph4	A-Ph5	A-Ph6	A-Ph7	A-Ph8	A-Ph9	A-Ph10	A-Ph11	A-Ph12	A-Ph13	A-Ph14	A-Ph15	A-Ph16	

Term	0.00000e+00	0.00000e+00	0.00000e+00	0.00000e+00	0.00000e+00	0.00000e+00	0.00000e+00	0.00000e+00	0.00000e+00	0.00000e+00	0.00000e+00	0.00000e+00	0.00000e+00	0.00000e+00	0.00000e+00	0.00000e+00	0.00000e+00	0.00000e+00	0.00000e+00	0.00000e+00	0.00000e+00	0.00000e+00	0.00000e+00	0.00000e+00	0.00000e+00	0.00000e+00	0.00000e+00	0.00000e+00	0.00000e+00	0.00000e+00	0.00000e+00	0.00000e+00	0.00000e+00	0.00000e+00	0.00000e+00	0.00000e+00	0.00000e+00	0.00000e+00	0.00000e+00	0.00000e+00	0.00000e+00	0.00000e+00	0.00000e+00	0.00000e+00	0.00000e+00	0.00000e+00	0.00000e+00	0.00000e+00	
Factor	1.00000e+00	1.00000e+00	1.00000e+00	1.00000e+00	1.00000e+00	1.00000e+00	1.00000e+00	1.00000e+00	1.00000e+00	1.00000e+00	1.00000e+00	1.00000e+00	1.00000e+00	1.00000e+00	1.00000e+00	1.00000e+00	1.00000e+00	1.00000e+00	1.00000e+00	1.00000e+00	1.00000e+00	1.00000e+00	1.00000e+00	1.00000e+00	1.00000e+00	1.00000e+00	1.00000e+00	1.00000e+00	1.00000e+00	1.00000e+00	1.00000e+00	1.00000e+00	X	X	X	X	X	X	X	X	X	X	X	X	X	X	X	X	

B = Detector Channel
Val Type	B-AC1	B-AC2	B-AC3	B-AC4	B-AC5	B-AC6	B-AC7	B-AC8	B-AC9	B-AC10	B-AC11	B-AC12	B-AC13	B-AC14	B-AC15	B-AC16	B-DC1	B-DC2	B-DC3	B-DC4	B-DC5	B-DC6	B-DC7	B-DC8	B-DC9	B-DC10	B-DC11	B-DC12	B-DC13	B-DC14	B-DC15	B-DC16	B-Ph1	B-Ph2	B-Ph3	B-Ph4	B-Ph5	B-Ph6	B-Ph7	B-Ph8	B-Ph9	B-Ph10	B-Ph11	B-Ph12	B-Ph13	B-Ph14	B-Ph15	B-Ph16	

Term	0.00000e+00	0.00000e+00	0.00000e+00	0.00000e+00	0.00000e+00	0.00000e+00	0.00000e+00	0.00000e+00	0.00000e+00	0.00000e+00	0.00000e+00	0.00000e+00	0.00000e+00	0.00000e+00	0.00000e+00	0.00000e+00	0.00000e+00	0.00000e+00	0.00000e+00	0.00000e+00	0.00000e+00	0.00000e+00	0.00000e+00	0.00000e+00	0.00000e+00	0.00000e+00	0.00000e+00	0.00000e+00	0.00000e+00	0.00000e+00	0.00000e+00	0.00000e+00	-4.82867e+01	-1.31521e+02	-1.29090e+02	-1.82778e+02	-5.00932e+01	-6.85385e+01	-1.59964e+02	-1.62015e+02	-3.45550e+01	-6.98819e+01	-1.78192e+02	-1.73211e+02	-1.80356e+02	-1.77624e+02	-4.73150e+01	-1.50550e+02	
Factor	2.03344e-05	1.89891e-04	5.74514e-05	1.58307e-01	1.90108e-06	2.09202e-06	1.94733e-01	5.79786e-02	1.52646e-06	2.11415e-06	3.21294e-01	3.10011e-02	3.06678e-02	9.11195e-03	1.92150e-06	1.28799e-02	1.37867e-05	2.61164e-05	7.30315e-06	8.26885e-02	2.52523e-07	2.92360e-07	9.52919e-02	3.04267e-02	2.52502e-07	2.89608e-07	1.62620e-01	1.57850e-02	1.63068e-02	4.82875e-03	2.67683e-07	6.59689e-03	X	X	X	X	X	X	X	X	X	X	X	X	X	X	X	X	



#DISTANCE SETTINGS
A = Detector Channel
A-1	A-2	A-3	A-4	A-5	A-6	A-7	A-8	A-9	A-10	A-11	A-12	A-13	A-14	A-15	A-16	

2.5000e+00	3.0000e+00	2.5000e+00	3.0000e+00	2.0000e+00	3.0000e+00	1.5000e+00	3.0000e+00	3.0000e+00	3.0000e+00	3.0000e+00	3.0000e+00	3.0000e+00	3.0000e+00	1.5000e+00	3.0000e+00	

B = Detector Channel
B-1	B-2	B-3	B-4	B-5	B-6	B-7	B-8	B-9	B-10	B-11	B-12	B-13	B-14	B-15	B-16	

1.0000e+01	1.0000e+01	1.0000e+01	1.4400e+00	1.0000e+01	1.0000e+01	1.5100e+00	1.9400e+00	1.0000e+01	1.0000e+01	1.9900e+00	2.4900e+00	2.4100e+00	2.9000e+00	1.0000e+01	2.9800e+00	




#DATA BEGINS
time	group	step	mark	flag	A-AC1	A-AC2	A-AC3	A-AC4	A-AC5	A-AC6	A-AC7	A-AC8	A-AC9	A-AC10	A-AC11	A-AC12	A-AC13	A-AC14	A-AC15	A-AC16	A-DC1	A-DC2	A-DC3	A-DC4	A-DC5	A-DC6	A-DC7	A-DC8	A-DC9	A-DC10	A-DC11	A-DC12	A-DC13	A-DC14	A-DC15	A-DC16	A-Ph1	A-Ph2	A-Ph3	A-Ph4	A-Ph5	A-Ph6	A-Ph7	A-Ph8	A-Ph9	A-Ph10	A-Ph11	A-Ph12	A-Ph13	A-Ph14	A-Ph15	A-Ph16	B-AC1	B-AC2	B-AC3	B-AC4	B-AC5	B-AC6	B-AC7	B-AC8	B-AC9	B-AC10	B-AC11	B-AC12	B-AC13	B-AC14	B-AC15	B-AC16	B-DC1	B-DC2	B-DC3	B-DC4	B-DC5	B-DC6	B-DC7	B-DC8	B-DC9	B-DC10	B-DC11	B-DC12	B-DC13	B-DC14	B-DC15	B-DC16	B-Ph1	B-Ph2	B-Ph3	B-Ph4	B-Ph5	B-Ph6	B-Ph7	B-Ph8	B-Ph9	B-Ph10	B-Ph11	B-Ph12	B-Ph13	B-Ph14	B-Ph15	B-Ph16	aux-1	digaux	

1009.702	1	1	0	256	0.24146	0.22102	0.20775	0.12834	0.27349	0.26644	0.070218	0.10734	0.19982	0.067616	0.2081	0.041479	0.13491	0.12771	0.058859	0.17474	-2.1562	-1.9208	-2.525	-2.65	-1.8813	-2.6979	-2.225	-2.1229	-2.6271	-1.8417	-2.5062	-2.6042	-1.9875	-2.7979	-2.1146	-2.0708	198.055	128.112	-50.699	-137.417	35.664	127.615	-128.879	-91.705	-26.408	99.986	-71.987	135.533	128.665	124.103	-132.707	129.629	0.00039633	0.0011076	0.00037081	535.49	1.0494e-05	3.2833e-05	605.72	187.56	4.9445e-06	3.0198e-05	237.63	91.21	75.325	30.426	2.102e-05	36.234	0.068576	0.1255	0.034024	918.24	0.0011893	0.0013259	1014.3	321.99	0.0011213	0.0012337	915.05	158.17	144.16	50.331	0.0010856	63.795	-65.317	-56.070	12.660	-140.851	51.037	40.037	-141.269	-134.451	127.998	48.257	-136.861	-132.224	-129.480	-125.127	-37.104	-127.983	-8191	255	
1009.798	1	1	0	0	0.26972	0.10093	0.15263	0.31022	0.23648	0.028695	0.12643	0.060641	0.2	0.19529	0.36634	0.12893	0.15393	0.046575	0.16731	0.10077	-2.2417	-1.8813	-2.3646	-2.6042	-1.9875	-2.6063	-2.2625	-2.0312	-2.7208	-2.0083	-2.3229	-2.5875	-1.8917	-2.725	-2.3625	-2.025	39.778	-10.667	60.588	206.531	-35.265	-82.543	83.004	113.084	9.162	115.397	-13.084	21.430	-124.729	206.814	117.220	-41.678	0.00016239	0.0010802	0.0004064	534.6	4.8326e-05	3.5326e-05	608.65	184.63	1.6427e-05	4.9084e-06	234.43	92.886	74.756	30.772	1.6944e-05	36.419	0.057474	0.10425	0.029064	865.68	0.0010247	0.0011469	975.15	307.72	0.0010194	0.0011253	875.79	155.44	139.58	49.409	0.0010569	63.1	-61.050	108.699	158.955	-140.465	32.214	101.048	-141.375	-134.170	14.543	9.234	-137.054	-132.375	-129.546	-125.087	-120.513	-128.697	-8191	255	
1009.918	1	1	0	0	0.22713	0.23679	0.15694	0.098474	0.20221	0.2014	0.30674	0.25186	0.08984	0.15855	0.066294	0.23092	0.28179	0.18695	0.24057	0.18747	-2.3875	-1.9417	-2.2562	-2.8229	-1.8042	-2.5958	-2.5062	-1.9708	-2.7042	-2.0229	-2.1562	-2.8083	-2.0708	-2.5625	-2.2667	-1.875	145.548	-91.197	100.411	36.305	-11.780	73.218	139.135	161.356	104.240	42.928	7.998	-138.480	-83.500	126.148	134.522	55.161	0.0001449	0.0036885	0.0011317	535.97	1.5037e-05	3.0669e-05	610.05	184.42	1.6344e-05	2.0816e-05	233.8	90.831	73.661	30.498	1.8419e-05	36.01	0.055347	0.10153	0.029226	866.33	0.0010243	0.0011698	991.98	312.04	0.0010513	0.0011834	920.91	157.44	140.86	49.806	0.0010929	62.65	-118.741	16.534	-87.931	-140.728	11.765	-21.942	-140.868	-134.140	127.908	176.850	-136.609	-132.266	-129.432	-125.545	-80.123	-128.568	-8191	255	
1010.013	1	1	0	0	0.23455	0.10505	0.14098	0.13906	0.12366	0.098154	0.094299	0.15023	0.18401	0.14962	0.47353	0.31803	0.056005	0.064852	0.2142	0.11182	-2.3917	-2.0042	-2.0563	-2.7021	-1.8979	-2.3354	-2.5958	-2.0458	-2.6792	-2.1833	-2.0292	-2.8354	-1.8208	-2.5312	-2.6583	-2.0167	-52.875	203.043	109.315	-41.273	-61.806	-148.743	-58.707	-117.999	-127.176	35.564	-71.337	-105.013	-148.165	112.124	-75.015	-121.171	0.00031992	0.0033638	0.00021868	535.08	3.2803e-05	2.5455e-05	604.29	182.2	2.5329e-05	2.5815e-05	233.78	90.42	72.976	31.179	4.8756e-06	36.941	0.053289	0.097708	0.027863	834.14	0.00089998	0.0010264	936.04	288	0.00084933	0.00096823	786.04	143.62	124.98	46.508	0.00087331	57.74	-22.484	151.864	-42.582	-140.786	61.640	19.827	-141.156	-134.530	97.428	-133.250	-135.564	-132.385	-129.813	-125.258	66.749	-128.460	-8191	255	
1010.109	1	1	0	0	0.19843	0.24759	0.14014	0.12232	0.080101	0.10503	0.19091	0.18724	0.15106	0.17127	0.24357	0.18494	0.19269	0.090008	0.30245	0.24574	-2.1521	-2.1708	-1.9125	-2.8146	-1.9979	-2.2896	-2.6729	-2.1375	-2.6188	-2.3333	-1.8375	-2.8375	-2.1167	-2.2625	-2.6896	-2.1417	153.527	-148.603	157.778	166.361	-60.517	103.653	119.822	5.008	-96.039	-4.215	157.434	116.514	183.725	-123.108	135.188	160.053	0.00043829	0.0012364	0.0002834	529.25	1.5302e-05	1.9863e-05	610.16	179.75	2.1307e-05	1.9403e-05	238.3	92.7	72.806	31.488	1.8617e-05	37.652	0.041926	0.078944	0.022405	766.2	0.00071095	0.00082906	870.82	261.97	0.00067712	0.00079145	686.61	135.08	116.36	44.918	0.00075871	55.858	-92.828	98.052	-28.943	-140.373	123.567	-80.341	-141.006	-133.896	171.485	101.871	-137.358	-132.266	-130.264	-125.696	-67.176	-128.392	-8191	255	
1010.205	1	1	0	0	0.28429	0.15523	0.11857	0.068111	0.091978	0.12248	0.42562	0.10963	0.21238	0.20379	0.050987	0.43277	0.28858	0.18363	0.14559	0.21131	-2.3937	-2.4167	-1.9417	-2.7042	-2.0958	-2.2292	-2.7625	-2.0021	-2.4708	-2.45	-1.8167	-2.8937	-2.1604	-2.35	-2.7417	-1.8979	-93.712	37.722	-99.896	103.570	95.683	119.391	148.276	60.361	13.567	102.040	192.257	96.285	194.506	-141.691	-121.043	101.321	0.0004793	0.0010732	0.00068957	530.99	1.8474e-05	1.7532e-05	604.34	178.59	1.5624e-05	3.0915e-05	231.06	91.746	72.662	31.35	1.6159e-05	37.28	0.038104	0.07471	0.021202	753.72	0.0007095	0.00086117	879.95	263.44	0.00071624	0.00085508	709.1	135.75	117.45	45.22	0.00074755	54.332	-81.848	116.191	-34.607	-141.067	81.171	-1.224	-141.736	-134.861	32.023	106.340	-136.882	-132.815	-130.043	-125.423	49.529	-128.814	-8191	255	
1010.301	1	1	0	0	0.20434	0.14796	0.1216	0.15625	0.1849	0.13143	0.21088	0.094598	0.11533	0.048519	0.10476	0.061405	0.26304	0.087592	0.22016	0.23702	-2.1104	-2.5187	-1.8813	-2.6021	-2.3125	-2	-2.8646	-2.0771	-2.5563	-2.4521	-1.9625	-2.6479	-2.0312	-2.0917	-2.5187	-2.1937	17.828	138.968	168.302	-111.067	-112.909	123.357	-53.628	141.115	-113.444	28.235	186.792	-52.838	184.028	166.881	65.793	161.257	0.00052055	0.00094101	0.0003355	525.41	2.2597e-05	1.6996e-05	602.01	170.1	1.6446e-05	7.6351e-06	226.1	88.767	67.272	31.442	2.9081e-06	38.345	0.035414	0.067123	0.017736	699.67	0.00054716	0.00062677	781.19	223.85	0.00044999	0.00050824	487.64	111.23	91.575	38.303	0.00036666	46.507	-65.174	-118.299	199.802	-140.768	-120.683	-91.514	-141.715	-134.782	-51.004	-109.679	-136.865	-132.226	-130.291	-125.460	-7.809	-129.107	-8191	255	
1010.397	1	1	0	0	0.040828	0.032372	0.40703	0.062228	0.10584	0.17626	0.11039	0.17585	0.18182	0.13194	0.12921	0.050589	0.30598	0.062595	0.1181	0.044047	-1.925	-2.5958	-1.8542	-2.5812	-2.1479	-2.1104	-2.7792	-2.0979	-2.3375	-3.0271	-2.1021	-2.5958	-2.2708	-1.9958	-2.8354	-2.1958	166.380	-66.151	-41.017	183.001	48.413	-52.973	97.457	-150.365	-130.008	2.265	-15.473	-99.404	-59.696	153.080	29.639	116.436	0.00025111	0.0023312	0.0004041	509.49	1.9992e-05	1.1024e-05	601.59	164.12	1.2513e-05	1.0991e-05	226.29	88.605	64.809	32.202	5.223e-06	41.273	0.018039	0.03331	0.0088478	594.62	0.00029542	0.00034005	690.02	193.6	0.00027181	0.00030625	382.92	102.51	80.41	36.737	0.00024775	46.955	-105.141	-55.146	-1.290	-140.619	40.292	45.268	-141.323	-134.943	25.573	-81.178	-137.065	-132.342	-130.003	-125.915	19.624	-129.393	-8191	255	
1010.494	1	1	0	0	0.21268	0.12768	0.03756	0.22417	0.1506	0.24201	0.14021	0.15952	0.10711	0.18084	0.122	0.27135	0.1656	0.013438	0.052592	0.13526	-1.7875	-2.7604	-1.8687	-2.775	-2.4271	-1.8979	-2.7375	-2.0854	-1.9833	-2.8771	-2.0917	-2.4917	-2.5854	-2.0729	-2.6625	-2.1917	150.280	182.810	-115.925	204.502	49.995	-99.197	200.522	9.534	21.957	39.776	-97.190	120.897	193.828	47.538	-22.314	130.796	0.00032357	0.00094064	0.00014233	496.26	5.0544e-06	1.7164e-05	591.68	163.19	4.3194e-06	1.0866e-05	228.4	86.895	63.068	32.03	5.8001e-06	42.246	0.013166	0.024344	0.0065192	559.23	0.00023333	0.00026705	663.75	186.93	0.00022634	0.00025441	358.93	99.746	76.852	36.116	0.00022204	47.526	-71.849	-100.225	53.740	-140.817	91.372	-69.715	-141.541	-134.824	-109.264	-26.053	-137.257	-132.858	-130.252	-126.138	-53.916	-129.585	-8191	255	
1010.614	1	1	0	0	0.13263	0.18181	0.22558	0.24746	0.27081	0.188	0.021433	0.14137	0.35823	0.32718	0.47013	0.36663	0.2975	0.35422	0.1462	0.074657	-1.5583	-2.7438	-1.7271	-2.5333	-2.6	-1.775	-2.7229	-2.35	-1.9708	-2.8063	-1.9625	-2.2104	-2.6625	-1.9188	-2.6229	-2.5396	-63.565	14.071	38.669	203.257	-108.379	-76.185	-99.188	24.434	132.417	145.894	132.395	174.184	-11.653	97.976	-65.204	168.100	0.00030973	0.0013649	0.00043027	493.89	7.7082e-06	1.4361e-05	606.35	155.5	6.4512e-06	9.8358e-06	214.35	92.122	64.065	31.49	1.1527e-05	41.663	0.012211	0.022441	0.0060915	555.6	0.00022325	0.00025212	671.86	179.25	0.00022539	0.00025247	350.25	104.73	77.961	35.736	0.0002336	47.326	-79.870	-87.844	-138.834	-140.885	37.701	-148.138	-141.535	-134.136	-25.074	-45.757	-136.726	-132.920	-130.251	-126.050	-14.517	-129.463	-8191	255	
1010.710	1	1	0	0	0.051182	0.17301	0.20631	0.28229	0.33619	0.12308	0.085782	0.11349	0.094083	0.25951	0.18251	0.16744	0.18874	0.14703	0.15081	0.078779	-1.5688	-2.5896	-1.8229	-2.1604	-2.6021	-1.9042	-2.6542	-2.4833	-1.8271	-2.8875	-2.0083	-2.0542	-2.975	-2.0292	-2.3167	-2.4792	-72.525	107.397	175.661	-114.490	199.553	60.277	110.351	121.725	108.584	-79.130	139.155	193.524	-142.959	38.014	204.771	71.360	0.00044502	0.00023071	0.00010111	529.02	1.79e-05	3.3741e-06	635.4	158.8	1.0477e-05	6.3799e-06	225.84	94.225	66.418	32.289	5.06e-06	42.741	0.012606	0.023112	0.0064622	593.27	0.00022893	0.00025853	706.41	183.72	0.00023013	0.00025998	365.73	107.69	80.905	36.676	0.00024772	48.448	-80.813	99.364	-37.776	-140.490	31.580	-20.483	-141.542	-134.531	61.574	-22.753	-136.836	-132.571	-130.273	-125.836	-56.985	-129.219	-8191	255	
1010.782	1	1	0	0	0.18519	0.18093	0.10805	0.19242	0.035775	0.10332	0.21083	0.29889	0.36593	0.19463	0.35681	0.10596	0.1121	0.18562	0.25267	0.1183	-1.1979	-2.6792	-2.0187	-2.0979	-2.5958	-2.1083	-2.4458	-2.4854	-1.8375	-2.5958	-2.025	-2.1729	-2.7646	-1.8646	-2.2854	-2.6229	-76.414	121.531	-84.812	182.817	-87.087	96.697	149.187	-114.570	-49.679	-62.457	202.079	56.376	109.768	3.312	-44.905	193.612	0.00040405	0.0024784	0.00046829	502.61	4.0531e-06	1.0179e-05	610.59	168.76	4.8107e-06	1.0329e-05	244.4	95.653	68.064	31.647	2.0079e-05	40.484	0.013249	0.024778	0.0070686	576.13	0.00025535	0.00029361	695.83	198.93	0.00026979	0.00030682	417.36	112.03	85.454	36.95	0.00030513	47.786	-86.678	-41.432	-137.292	-140.945	52.030	-45.017	-141.271	-135.283	-107.853	124.367	-137.919	-132.874	-130.676	-126.425	16.261	-129.433	-8191	255	
1010.878	1	1	0	0	0.1003	0.19703	0.20703	0.065033	0.12746	0.28449	0.18054	0.12142	0.31285	0.042502	0.10908	0.264	0.12006	0.20009	0.1443	0.16896	-1.4042	-2.5125	-2.1229	-2.0438	-2.6125	-1.7667	-2.4333	-2.6292	-1.8792	-2.6396	-2.1958	-1.9333	-2.8271	-2.0917	-2.2313	-2.5938	111.494	178.556	193.263	197.945	182.597	-126.648	-65.086	52.610	-93.414	159.735	22.085	133.824	-70.057	156.047	195.129	204.825	0.00021912	0.00076202	0.00031193	506.92	7.3325e-06	2.6889e-05	624.13	169.95	5.0556e-06	1.6895e-05	232.3	88.257	66.233	30.843	5.0669e-06	38.437	0.016156	0.030712	0.0089248	600.88	0.00032348	0.00038205	741.19	210.91	0.00036061	0.00042947	478.73	111.58	91.161	38.612	0.00043264	48.598	-87.905	-50.171	-21.047	-140.384	18.874	19.321	-141.290	-135.244	144.591	-16.952	-136.445	-132.611	-130.062	-125.615	-17.049	-128.942	-8191	255	
1010.997	1	1	0	0	0.14814	0.14072	0.14334	0.1861	0.085579	0.1189	0.21133	0.3281	0.15433	0.25394	0.20083	0.089633	0.051857	0.21889	0.16354	0.13803	-1.1	-2.4813	-2.4625	-2.0521	-2.5292	-2.0812	-2.4292	-2.5708	-1.8479	-2.3458	-2.2729	-2	-2.7521	-2.05	-1.9312	-2.7896	112.461	19.594	-92.784	45.190	127.361	65.410	-83.914	56.921	-60.118	50.997	-152.134	141.617	192.931	95.738	41.503	74.480	0.00029352	0.00037951	0.00030166	533.5	1.9239e-05	1.9858e-05	615.46	174.6	2.0042e-05	2.0564e-05	238.15	90.974	69.058	32.513	1.0019e-05	39.42	0.022058	0.041877	0.011807	653.17	0.00039377	0.00046037	756.2	219.85	0.00039416	0.00045593	490.63	114.36	93.905	39.836	0.00042225	49.169	-81.725	-19.363	-99.322	-140.675	8.852	-10.608	-141.694	-135.229	130.319	166.977	-136.837	-132.598	-130.327	-126.262	-39.995	-128.962	-8191	255	
1011.093	1	1	0	0	0.10768	0.14769	0.12919	0.19097	0.094452	0.10638	0.20253	0.23366	0.070588	0.14041	0.34837	0.08283	0.25421	0.065863	0.28552	0.18188	-1.4208	-2.4125	-2.4292	-1.8292	-2.4813	-2.1542	-2.2042	-2.6854	-2.0875	-2.2604	-2.6083	-1.9729	-2.6125	-2.2146	-2.0854	-2.8333	176.502	179.749	-121.431	-24.551	198.010	-110.773	64.423	203.372	-80.136	-110.422	104.792	-101.424	-121.955	-16.975	-0.115	-120.949	0.00029081	0.0012777	6.5788e-05	524.97	1.2287e-05	1.0461e-05	623.49	178.19	6.2821e-06	1.9448e-05	245.37	92.829	70.909	33.407	1.6065e-05	40.762	0.020966	0.039483	0.010858	633.67	0.00035842	0.0004184	743.38	217.63	0.00034821	0.00040799	469.19	114	93.045	40.141	0.0003806	49.466	-83.467	42.904	95.417	-140.808	-75.893	-59.782	-141.657	-135.215	61.461	95.342	-137.333	-132.905	-130.875	-126.324	-147.844	-129.123	-8191	255	
1011.189	1	1	0	0	0.28576	0.020961	0.38809	0.016076	0.062721	0.28443	0.21535	0.17897	0.072517	0.36609	0.0072352	0.095612	0.10411	0.28296	0.066673	0.14545	-1.5229	-2.3	-2.4354	-1.9479	-2.4688	-2.3542	-2.0229	-2.8458	-2.0771	-2.2	-2.5958	-1.9583	-2.5771	-2.4167	-1.8021	-2.8187	-57.612	-139.426	166.077	34.430	136.885	-117.482	146.279	87.206	-80.316	205.024	123.032	49.400	-21.478	200.252	162.183	48.730	0.00018927	0.00026979	0.00065525	531.88	7.733e-06	3.3885e-06	632.52	182.9	1.3554e-05	1.3462e-05	255.01	98.667	73.221	34.663	1.0724e-05	42.347	0.019262	0.036466	0.010064	629.91	0.00033541	0.00038544	742.29	218.34	0.00030464	0.00034909	439.17	115.19	91.491	40.087	0.00030907	49.661	-97.213	-116.716	-34.039	-140.718	-64.609	-150.274	-141.413	-135.039	167.464	-49.453	-136.989	-133.164	-130.842	-126.310	13.226	-129.427	-8191	255	
1011.285	1	1	0	0	0.09641	0.096641	0.11941	0.18735	0.053525	0.12675	0.23432	0.11921	0.16448	0.07101	0.19536	0.29991	0.084193	0.13506	0.080605	0.11347	-1.5917	-2.2125	-2.5875	-2.0104	-2.4104	-2.2958	-1.9146	-2.8875	-2.125	-2.1708	-2.5854	-1.9208	-2.6083	-2.4562	-1.7583	-2.6396	-116.256	-105.795	-35.767	-58.795	-136.705	66.061	105.290	72.266	149.211	65.805	27.350	153.325	190.754	136.273	-82.042	-97.902	0.00032031	0.00053582	0.00032203	527.02	5.5889e-06	2.2061e-05	631.9	187.18	5.1945e-06	1.7538e-05	253.32	98.623	73.908	34.537	5.3233e-06	42.414	0.016519	0.031527	0.0088124	615.69	0.00030839	0.00035176	734.09	218.85	0.00028991	0.0003269	426.89	114.02	90.321	39.429	0.00026633	48.414	-82.939	-60.127	93.894	-140.443	41.517	-59.938	-141.464	-135.057	-119.954	-16.575	-137.471	-132.730	-131.054	-126.297	-86.442	-129.625	-8191	255	
1011.406	1	1	0	0	0.031456	0.096193	0.21775	0.041064	0.27914	0.10541	0.06702	0.10301	0.068091	0.24345	0.083716	0.33712	0.23735	0.11704	0.28822	0.24617	-1.6708	-1.9958	-2.6771	-1.9917	-2.2708	-2.6146	-1.8354	-2.5167	-2.2479	-1.9312	-2.6083	-2.1292	-2.2667	-2.5125	-1.925	-2.6271	200.950	-67.864	-90.136	-98.403	-33.385	113.964	-88.731	-131.966	176.169	-15.501	-74.684	169.629	-115.594	39.146	-79.231	140.928	0.0002973	0.00043359	0.0002144	515.09	1.4433e-05	1.4128e-05	629.54	182.68	3.5649e-06	7.4399e-06	257.86	100.12	73.001	35.721	6.4883e-06	45.75	0.013442	0.024521	0.0066697	576.74	0.00022638	0.00025683	698.32	205.45	0.00021175	0.00024206	384.17	111.9	85.921	39.414	0.00021563	50.303	-93.919	21.457	-36.876	-140.991	-53.143	183.368	-141.373	-135.260	102.217	-41.317	-138.258	-133.140	-131.079	-126.653	-52.539	-129.331	-8191	255	
1011.478	1	1	0	0	0.05578	0.064209	0.27148	0.13419	0.3254	0.15356	0.072092	0.10566	0.213	0.16735	0.15142	0.27368	0.27311	0.28899	0.18632	0.11577	-1.8312	-1.9917	-2.6104	-2.1437	-2.2396	-2.5896	-1.9188	-2.5563	-2.3312	-1.8854	-2.6854	-2.15	-2.3271	-2.6958	-1.8521	-2.8292	48.244	19.614	38.584	125.920	-75.950	-43.525	111.115	43.803	-150.076	-64.729	21.728	178.485	-145.406	168.746	-53.595	120.238	0.00036207	0.0012816	0.00041921	506.59	9.0455e-06	1.8154e-06	625.4	180.89	4.0965e-06	9.6913e-06	259.71	102.28	73.354	35.951	1.6512e-05	46.528	0.011343	0.020917	0.0057098	558.95	0.0001998	0.00022937	684.8	201.74	0.00019867	0.00022427	378.98	113.07	85.467	39.633	0.00020857	51.444	-70.349	-129.791	-33.475	-140.641	44.207	-110.998	-141.564	-135.252	-146.200	61.875	-137.257	-133.098	-131.203	-126.537	57.189	-129.426	-8191	255	
1011.598	1	1	0	0	0.23564	0.053661	0.14155	0.22951	0.25539	0.17309	0.069843	0.12792	0.23034	0.030874	0.10493	0.2614	0.16743	0.04675	0.20249	0.10566	-2.0542	-1.5479	-2.5458	-2.0458	-1.9979	-2.4583	-1.8687	-2.3312	-2.2125	-1.9771	-2.5896	-2.2354	-2	-2.5583	-1.7875	-2.4688	151.742	125.919	137.576	202.631	-29.430	139.984	123.085	114.380	165.160	131.347	161.281	97.293	-129.665	135.833	-111.307	101.331	0.00047539	0.0010096	0.00030714	511.56	1.1512e-05	1.9672e-05	643.99	189.93	1.0992e-05	8.6414e-06	268.21	105.04	76.687	36.053	4.9852e-06	44.343	0.011123	0.020475	0.0057302	563.26	0.00020511	0.00023608	707.03	213.19	0.00022061	0.00025394	409.92	118.12	91.529	40.466	0.0002576	50.653	-62.268	-84.398	186.028	-140.470	-73.195	21.993	-141.546	-135.372	-21.671	-57.448	-137.507	-133.278	-130.769	-126.744	-139.438	-129.297	-8191	255	
1011.695	1	1	0	0	0.17957	0.21812	0.059374	0.15753	0.15117	0.11351	0.086869	0.0092725	0.17589	0.21221	0.13201	0.047771	0.23728	0.32134	0.30362	0.15442	-2.1437	-1.8146	-2.5563	-2.2542	-2.0646	-2.6271	-1.8771	-2.2854	-2.5708	-2.0021	-2.575	-2.2646	-1.8146	-2.7479	-1.7458	-2.4292	-101.467	14.311	121.702	-142.734	-70.817	46.841	110.473	174.122	123.274	-48.513	-75.908	169.779	158.323	-143.220	-47.686	3.055	0.00023912	0.00022426	0.00045449	531.2	4.7645e-06	1.1323e-05	644.37	189.03	1.165e-05	1.0745e-05	266.06	102.52	75.799	36.494	8.525e-06	46.805	0.013976	0.026154	0.0073851	603.17	0.00025581	0.00028872	726.68	216.05	0.0002364	0.00025836	399.24	114.64	88.001	39.945	0.00019886	51.065	-50.111	117.800	-26.787	-140.664	-9.836	119.512	-141.568	-135.346	17.650	-20.182	-137.320	-133.329	-130.929	-126.727	17.196	-129.662	-8191	255	
1011.791	1	1	0	0	0.23132	0.11176	0.25354	0.12418	0.089998	0.17688	0.20576	0.23474	0.22614	0.18406	0.076705	0.084911	0.1286	0.036368	0.14207	0.063442	-2.05	-1.8396	-2.5563	-2.4458	-1.9083	-2.6542	-2.0687	-2.0375	-2.7354	-1.8979	-2.5896	-2.6083	-1.9312	-2.6979	-2.0917	-2.1813	-89.414	98.762	-31.385	97.632	91.353	160.459	205.488	192.297	107.116	-122.066	-111.755	76.418	115.158	-81.437	86.326	81.374	0.00048956	0.0010663	0.00024247	486.87	3.9365e-06	5.0032e-06	607.56	176.69	1.8715e-06	3.0108e-06	254.47	105.92	74.51	37.242	7.1433e-06	49.318	0.0097195	0.017312	0.0048392	528.74	0.00015772	0.00018117	651.84	192.26	0.00015294	0.00017415	348.77	114.02	83.598	39.727	0.00016141	52.772	-82.831	-82.740	-92.561	-141.211	38.791	-78.949	-141.404	-135.205	47.596	82.876	-137.607	-133.546	-131.485	-126.702	-60.533	-129.870	-8191	255	
1011.887	1	1	0	0	0.15626	0.23	0.14074	0.16173	0.21656	0.23337	0.15292	0.15758	0.119	0.17008	0.14203	0.17793	0.12216	0.34963	0.1852	0.055473	-2.3542	-1.9417	-2.525	-2.5125	-1.9646	-2.6167	-2.3	-2.1917	-2.6646	-2.1771	-2.4146	-2.6271	-2.1917	-2.8458	-2.1354	-2.0062	-98.077	-118.628	-89.015	127.098	40.186	-62.983	-151.806	147.872	132.949	95.763	103.233	204.437	2.825	169.936	-19.568	103.628	0.0003145	0.00078619	0.00051916	480.62	8.1402e-06	1.165e-05	616.92	182.33	3.9887e-06	1.445e-05	265.07	104.97	76.321	37.282	8.6609e-06	46.105	0.0084192	0.015547	0.0044545	520.1	0.0001549	0.00017967	663.83	198.64	0.00016233	0.00019394	371.11	115.22	87.129	40.738	0.00021094	50.668	-89.632	167.796	-22.841	-140.763	-95.933	9.632	-141.494	-134.964	-117.508	-39.656	-137.632	-133.274	-130.475	-126.632	-151.370	-129.604	-8191	255	
1012.006	1	1	0	0	0.17205	0.22354	0.047844	0.33171	0.054834	0.28778	0.14548	0.22517	0.091596	0.3523	0.12662	0.17012	0.36286	0.12093	0.18167	0.10525	-2.3521	-2.0354	-2.3229	-2.6104	-1.9167	-2.5646	-2.3688	-1.9583	-2.5104	-2.0187	-2.1792	-2.375	-2.0812	-2.5479	-2.2104	-2.1562	-27.515	-22.453	72.810	155.130	125.366	-122.673	4.827	-146.181	124.564	43.766	117.147	-113.020	204.381	-87.809	152.998	70.504	0.00023831	0.001647	0.00043727	502.49	1.1237e-05	1.3087e-05	611.17	181.43	1.9608e-05	8.6971e-06	251.12	96.845	74.089	33.603	3.11e-06	39.383	0.011661	0.02237	0.0064709	563.71	0.00022752	0.00026895	686.76	206.85	0.00023579	0.00027725	401.6	110.8	89.742	38.613	0.00028589	46.208	-74.559	77.246	-1.222	-140.692	41.500	-57.321	-141.185	-135.265	-1.750	-98.074	-136.984	-133.350	-130.738	-126.375	3.913	-129.436	-8191	255	
1012.077	1	1	0	0	0.19836	0.041055	0.23135	0.071093	0.079536	0.035601	0.23656	0.16549	0.15548	0.17098	0.25003	0.070969	0.318	0.39574	0.042016	0.21288	-2.3792	-2.1958	-2.0312	-2.9437	-2.0812	-2.6708	-2.5708	-1.9479	-2.6833	-2.1229	-2.3187	-2.725	-1.9062	-2.6	-2.4313	-1.9146	80.171	-38.192	42.217	160.232	135.495	197.368	103.658	-27.302	-25.036	100.970	154.430	184.454	199.241	-112.928	-10.582	203.177	0.00041942	0.0012092	0.0001845	499.22	9.5101e-06	1.3904e-05	583.71	185.98	1.7845e-05	2.5642e-05	242.18	85.676	69.402	30.704	1.258e-05	34.803	0.015884	0.031625	0.0092294	593.37	0.00034581	0.00042535	716.18	231.67	0.0004232	0.00053052	562.9	119.5	109.06	43.935	0.00081232	56.075	-70.579	-40.351	100.329	-140.550	65.551	64.516	-141.673	-134.927	130.852	4.957	-138.072	-132.863	-130.583	-125.839	114.315	-129.126	-8191	255	
1012.174	1	1	0	0	0.066823	0.24909	0.16443	0.063098	0.17615	0.31415	0.16791	0.13376	0.11287	0.36242	0.10473	0.25701	0.17832	0.086233	0.075819	0.10094	-2.275	-2.0167	-2.0062	-2.875	-1.9854	-2.5021	-2.7729	-2.0625	-2.7	-2.2667	-2.0479	-2.7875	-2.1667	-2.4521	-2.5604	-2.0708	-142.820	-89.142	67.626	194.826	-91.984	-101.008	-144.607	-36.576	-108.159	-58.304	150.158	-95.596	-103.369	25.170	-94.298	-79.064	0.00044325	0.0040103	0.0004207	514.23	1.9721e-06	1.4057e-05	581.12	191.32	7.1715e-06	3.3664e-05	237.77	78.866	66.121	30.265	4.6864e-05	33.4	0.048891	0.098929	0.028763	837.76	0.0010637	0.0012616	985.4	319.93	0.0010874	0.0012373	905.03	141.21	130.99	49.071	0.0010135	57.847	-46.642	-85.233	-13.099	-140.924	-127.517	184.747	-141.833	-135.175	-77.771	137.112	-137.088	-133.025	-131.026	-125.247	-18.354	-128.799	-8191	255	
1012.294	1	1	0	0	0.095187	0.1128	0.057425	0.13514	0.099682	0.20775	0.17934	0.1706	0.059447	0.15571	0.085996	0.35032	0.2541	0.37826	0.062406	0.05856	-2.2896	-2.3646	-2.0958	-2.7604	-1.8875	-2.3667	-2.6667	-1.9917	-2.6583	-2.4917	-1.9125	-2.9021	-2	-2.2875	-2.8292	-2.0771	196.193	-141.160	167.709	194.507	152.492	-12.256	97.264	171.179	156.434	-43.746	48.015	-46.871	179.749	-151.904	52.265	52.561	0.00016727	0.001603	0.00041269	515.55	1.198e-05	1.9656e-05	595.87	193.4	7.7919e-06	3.6283e-06	247.74	88.36	72.613	31.737	9.3829e-06	37.747	0.050935	0.09336	0.024876	780.24	0.00080642	0.00087827	848.79	268.51	0.00060296	0.00062316	554.13	115.53	98.801	38.582	0.0003476	45.155	-134.418	198.193	201.875	-140.839	-9.054	10.150	-141.143	-134.587	69.908	144.474	-138.229	-133.051	-130.475	-125.910	-34.971	-128.567	-8191	255	
1012.390	1	1	0	0	0.080935	0.15598	0.10659	0.18706	0.1702	0.21081	0.36726	0.20139	0.2261	0.12217	0.10691	0.2656	0.20367	0.29686	0.1342	0.044347	-2.175	-2.4583	-1.9875	-2.8792	-2.1063	-2.2583	-2.9104	-1.9937	-2.4583	-2.4146	-1.9729	-2.8187	-2.2812	-2.1	-2.6021	-1.9458	63.187	3.388	-108.642	153.441	56.880	-70.724	93.611	61.213	124.913	95.689	-128.004	10.498	133.574	62.321	43.906	-48.891	0.00026293	0.00078832	0.00021971	521.17	9.4876e-06	1.7377e-05	620.67	198.36	8.1969e-06	4.3223e-06	268.15	103.17	77.084	33.995	6.4827e-06	42.456	0.015774	0.027258	0.0069594	584.23	0.00021574	0.00023406	679.11	216.8	0.00017276	0.00018808	361.43	111.64	86.116	36.599	0.00015059	45.795	-78.245	-32.682	135.349	-140.317	127.337	146.042	-141.382	-135.220	51.092	69.503	-137.702	-133.131	-130.587	-125.790	-24.996	-129.005	-8191	255	
1012.486	1	1	0	0	0.2729	0.1273	0.12349	0.19364	0.24322	0.10801	0.1445	0.28402	0.22459	0.24635	0.19667	0.054821	0.11872	0.043419	0.075247	0.064672	-1.9562	-2.475	-2.0167	-2.7333	-2.0208	-2.1229	-2.9396	-2.1104	-2.3375	-2.6979	-1.9625	-2.625	-2.4292	-2.0729	-2.6771	-2.0375	78.206	-85.481	48.230	180.640	43.660	-30.901	108.680	73.452	-82.574	148.949	170.583	173.612	34.581	116.428	-120.857	16.009	0.00041729	0.00079707	0.00014988	510.05	8.955e-06	7.1773e-06	627.32	194.99	5.2175e-06	9.1791e-06	267.87	104.22	76.227	32.922	5.8627e-06	41.836	0.0079156	0.014413	0.0039887	545.81	0.00014099	0.00016172	665.04	209.33	0.00014258	0.00015958	352.52	112.05	84.984	35.583	0.00014982	45.232	-79.483	5.164	6.615	-140.292	32.545	70.185	-141.350	-134.936	121.572	-38.297	-136.977	-132.831	-130.319	-125.375	192.072	-128.801	-8191	255	
1012.583	1	1	0	0	0.14362	0.1898	0.028506	0.15118	0.2538	0.11151	0.094898	0.30881	0.29531	0.17639	0.28268	0.19619	0.18837	0.24183	0.16034	0.14097	-1.8312	-2.5812	-1.8417	-2.5833	-2.3375	-2.0542	-2.8042	-2.0979	-2.1333	-2.5833	-1.8937	-2.5917	-2.4437	-2.1729	-2.6375	-2.2167	138.769	171.404	-97.498	50.188	-145.544	-7.812	-75.042	-114.903	162.411	28.400	135.513	-134.750	161.199	-80.059	40.743	119.727	0.00032717	0.00038566	8.2211e-05	529.01	6.5158e-06	1.0316e-05	633.81	195.03	8.0799e-06	1.32e-05	268.82	103.21	76.096	31.801	1.1616e-05	40.051	0.0080458	0.014453	0.0041262	562.51	0.00014547	0.00016698	679.38	210.1	0.00015522	0.00017842	365.65	112.43	86.966	34.996	0.00019676	44.931	-85.999	72.851	179.659	-140.397	-13.138	-15.168	-140.673	-134.362	35.991	28.452	-137.190	-132.432	-130.739	-125.180	-8.216	-128.348	-8191	255	
1012.679	1	1	0	0	0.17167	0.09892	0.051841	0.091348	0.23827	0.16907	0.052154	0.14665	0.38596	0.23846	0.21245	0.19056	0.19611	0.23403	0.12972	0.16529	-1.8354	-2.6854	-1.8792	-2.4729	-2.5812	-1.85	-2.9062	-2.1479	-2.175	-2.8312	-1.9229	-2.5396	-2.6333	-1.8021	-2.6271	-2.3917	-75.546	-146.439	-143.023	163.525	80.564	-50.416	-97.041	43.142	-102.199	135.930	14.104	3.834	206.597	143.153	-26.070	154.936	0.00050596	0.00074931	0.00046723	553.81	1.6831e-05	1.0455e-05	652.51	200.96	3.4761e-06	6.0975e-06	265.7	96.921	74.826	29.853	1.8254e-05	36.437	0.011063	0.02124	0.0063648	615.93	0.00024012	0.00029336	743.47	233.51	0.00031655	0.00039646	513.18	123.29	104.85	40.1	0.00066584	54.629	-66.121	-85.817	-30.720	-140.306	40.516	68.431	-141.296	-134.551	179.896	197.448	-137.783	-132.169	-130.212	-125.294	-27.970	-128.443	-8191	255	
1012.773	1	1	0	0	0.13894	0.13336	0.045032	0.081325	0.23378	0.30873	0.203	0.30967	0.2629	0.18368	0.12777	0.087198	0.15893	0.24201	0.13082	0.12537	-1.6542	-2.8146	-2.0792	-2.5354	-2.6708	-1.9771	-2.6688	-2.3292	-1.9625	-2.7958	-2.0604	-2.3625	-2.6167	-2.0125	-2.6854	-2.4521	-117.101	158.604	-146.793	70.375	17.803	-86.348	172.172	161.587	-151.809	-103.046	68.190	188.591	-73.851	-70.385	-60.902	-129.902	0.00026276	0.0021032	0.00045994	564.41	1.6204e-05	1.0534e-05	648.47	205.93	2.1376e-05	1.7496e-05	259.82	85.099	68.598	29.758	1.564e-05	34.827	0.041335	0.0852	0.026591	872.15	0.00099041	0.0012269	1073.3	346.89	0.0012051	0.001487	1156.9	174.73	162.6	60.132	0.0017764	79.274	-102.268	201.647	-112.579	-140.435	5.302	203.312	-141.130	-134.485	35.540	-64.167	-136.730	-131.897	-130.637	-125.163	98.636	-127.948	-8191	255	
1012.869	1	1	0	0	0.30334	0.033936	0.094733	0.10891	0.15089	0.14385	0.097073	0.36799	0.075447	0.20329	0.15026	0.21577	0.11223	0.26919	0.11904	0.087853	-1.675	-2.6208	-2.0167	-2.2583	-2.8375	-2.0542	-2.6729	-2.5187	-1.9396	-2.5958	-2.1063	-2.1625	-2.8125	-2.0833	-2.5792	-2.6813	193.801	188.162	-88.350	-119.976	-23.955	-136.696	84.221	181.745	164.951	-52.775	47.669	194.848	-74.190	-96.746	124.165	-36.575	0.00055926	0.00027362	0.0012434	554.22	3.6474e-05	3.2463e-05	635.35	201.62	1.7656e-05	3.62e-05	249.11	82.247	67.491	29.244	2.5597e-05	34.352	0.091613	0.1832	0.052532	1127.5	0.0017289	0.0020817	1314.2	409.95	0.0017189	0.0020554	1392.8	186.5	172.51	61.929	0.0017781	75.771	-49.599	130.372	-112.665	-140.198	203.705	-136.019	-141.144	-134.857	35.195	-89.619	-139.302	-132.494	-130.992	-125.775	85.625	-128.093	-8191	255	
1012.965	1	1	0	0	0.26327	0.16001	0.084059	0.12021	0.025446	0.088978	0.22856	0.11568	0.075421	0.11199	0.22022	0.16459	0.11427	0.12687	0.081775	0.029921	-1.5646	-2.7271	-2.1792	-2.2042	-2.7458	-1.9542	-2.6646	-2.5938	-2.175	-2.7292	-2.3604	-2.0875	-2.8125	-1.9917	-2.3438	-2.8396	-2.532	113.942	-85.014	-109.431	122.961	164.728	-125.463	158.927	-58.730	-138.383	149.811	33.595	-138.007	150.629	15.386	-4.986	0.00039385	0.00054715	0.00029202	548.92	4.5208e-05	2.6051e-05	635.9	199.49	8.277e-06	3.4702e-05	255.8	86.886	70.262	29.163	8.3507e-06	34.37	0.085982	0.17219	0.047668	1051.5	0.0015508	0.0018865	1224.2	370.9	0.0014219	0.0016553	1115.9	162	147.72	52.342	0.0012328	62.779	-105.231	91.760	18.586	-140.463	-116.743	195.378	-140.652	-134.604	171.788	175.407	-136.478	-132.132	-130.730	-125.023	68.384	-128.837	-8191	255	
1013.086	1	1	0	0	0.25878	0.30804	0.045767	0.24197	0.21374	0.14508	0.11668	0.098581	0.18655	0.14248	0.32043	0.33856	0.2825	0.212	0.19553	0.25424	-1.4937	-2.6562	-2.175	-2.1042	-2.7167	-2.0208	-2.475	-2.6021	-2.1333	-2.7438	-2.3729	-1.9479	-2.8812	-2.0062	-2.2438	-2.75	150.355	-142.857	189.733	150.924	12.513	-89.496	-102.347	-30.270	-83.064	-70.331	-135.730	150.505	-133.469	126.863	-2.265	112.919	0.00050787	0.0021532	0.001469	553.49	1.1406e-05	1.9333e-05	639.87	197.48	3.6286e-06	7.6152e-05	253.33	83.452	67.958	27.647	1.3675e-05	32.594	0.063144	0.12613	0.035066	935.12	0.001296	0.0015742	1131.1	353.2	0.0013706	0.0015957	1100.1	163.79	154.07	52.926	0.0013023	63.92	-110.796	-57.495	-76.372	-140.740	195.820	-31.124	-141.191	-135.085	46.606	-1.421	-137.580	-132.574	-130.827	-125.188	64.083	-128.058	-8191	255	
1013.182	1	1	0	0	0.3147	0.10096	0.34277	0.031987	0.15255	0.16919	0.073661	0.19423	0.3039	0.097114	0.10738	0.3458	0.10031	0.13001	0.32713	0.12204	-1.6167	-2.65	-2.3375	-2.2396	-2.8146	-2.325	-2.2562	-2.9458	-1.9083	-2.5812	-2.2542	-1.8917	-2.9938	-2.1896	-2.0354	-2.6937	145.059	-93.910	30.266	2.181	24.509	-9.557	-61.822	159.832	165.557	-102.563	-91.045	118.037	-73.354	-31.662	-106.301	176.619	0.00051429	0.0011648	0.0007565	558.04	1.1363e-05	5.9161e-06	636.1	196.84	1.7137e-05	4.5508e-05	248.07	86.391	69.41	28.25	1.5994e-05	34.088	0.066048	0.11984	0.03077	880.73	0.001016	0.0011241	964.33	299.65	0.00086937	0.00094912	732.61	131.58	115.6	41.26	0.00067085	50.551	-132.140	-14.963	-47.109	-140.526	152.693	22.747	-141.341	-134.646	156.811	21.265	-137.153	-132.699	-130.538	-124.891	23.173	-129.060	-8191	255	
1013.278	1	1	0	0	0.21784	0.1242	0.26852	0.14467	0.197	0.1834	0.1866	0.15402	0.18303	0.084302	0.11463	0.11374	0.23835	0.21266	0.15646	0.015678	-1.3042	-2.3958	-2.5062	-1.9271	-2.625	-2.2125	-2.0625	-2.5687	-1.9708	-2.2396	-2.5354	-2.0042	-2.6208	-2.2354	-1.9521	-2.8125	65.435	99.375	65.589	143.716	64.999	67.672	139.455	106.990	111.343	-40.428	-11.492	69.502	-128.186	45.814	-81.747	-90.242	0.00048049	0.001176	0.00045081	543.5	7.889e-06	1.7165e-05	626.35	197.34	1.4836e-06	2.1457e-05	245.44	83.777	67.031	28.182	1.8676e-05	33.198	0.035423	0.064893	0.017589	741.97	0.00066931	0.00077813	872.34	281.08	0.00075475	0.00087052	730.96	132.81	119.98	43.491	0.00081721	53.094	-79.786	-87.530	-87.487	-140.227	168.732	-99.524	-141.208	-134.814	-64.676	-45.026	-137.101	-132.560	-130.541	-125.068	-106.961	-128.555	-8191	255	
1013.375	1	1	0	0	0.12347	0.21246	0.31483	0.16396	0.061197	0.1328	0.14582	0.11144	0.29871	0.17162	0.11365	0.14283	0.011217	0.17186	0.051458	0.12503	-1.7646	-2.2708	-2.3375	-2.1771	-2.6479	-2.2292	-2.0458	-2.8146	-2.2188	-2.3708	-2.7417	-1.9833	-2.4583	-2.6083	-1.925	-2.85	-124.042	62.633	46.097	114.205	45.135	-87.529	139.343	114.253	-126.974	-148.739	202.299	179.192	98.465	127.371	198.007	92.067	0.00046723	0.0029499	0.00029978	532.65	1.8241e-05	1.5788e-05	615.4	190.85	1.0931e-05	1.402e-05	245.93	89.751	72.017	30.373	1.4269e-05	35.345	0.039637	0.067783	0.01745	709.39	0.00054567	0.00058107	781.76	247.89	0.00047433	0.00052165	534.17	119.05	102.79	39.336	0.00053288	49.272	-69.212	-30.824	178.611	-140.719	69.540	-151.823	-141.178	-134.818	173.114	58.276	-137.338	-132.231	-130.274	-125.458	100.995	-128.696	-8191	255	
1013.469	1	1	0	0	0.024041	0.24044	0.13894	0.23268	0.20875	0.20133	0.1125	0.22098	0.21816	0.040686	0.058478	0.11073	0.12064	0.13947	0.17998	0.13426	-1.7188	-2.2	-2.6792	-1.9417	-2.4542	-2.3229	-1.9062	-2.7938	-2.1937	-2.1688	-2.85	-2.1583	-2.5833	-2.7208	-1.8833	-2.6708	-1.767	-28.436	4.628	54.890	1.628	169.250	65.255	173.167	80.943	-41.649	98.919	-90.814	-147.975	-143.829	-138.711	138.440	0.00033827	0.0015912	0.00026864	516.88	1.252e-05	1.165e-05	597.95	189.88	1.2533e-05	1.3197e-05	240.5	87.167	71.973	29.836	2.0286e-05	33.809	0.030962	0.059111	0.017666	722.7	0.00067948	0.00078731	860.58	277.56	0.0007489	0.00085192	738.5	137.41	124.23	45.53	0.00091938	57.138	-75.617	-137.986	174.969	-140.551	125.877	6.536	-141.455	-135.037	64.635	-99.122	-137.712	-133.112	-130.237	-125.495	-87.967	-128.722	-8191	255	
1013.565	1	1	0	0	0.19502	0.33666	0.22069	0.10397	0.12885	0.17165	0.20199	0.03386	0.18276	0.18957	0.096216	0.1892	0.097669	0.16383	0.20497	0.052782	-1.9062	-2.1312	-2.8333	-1.9979	-2.4396	-2.6583	-2.0333	-2.7396	-2.3563	-2.2167	-2.7729	-2.1958	-2.4958	-2.8063	-1.9604	-2.8063	58.671	74.893	84.129	-24.878	-35.921	76.187	101.040	189.619	16.370	-48.198	46.127	37.487	110.740	-131.186	197.768	182.248	0.000304	0.002851	0.00050133	514.4	4.4741e-06	3.6367e-05	595.59	187.17	1.549e-05	8.2181e-06	235.19	84.829	70.667	29.077	2.8464e-05	33.149	0.047951	0.090259	0.026523	813.52	0.00094473	0.0011248	979.86	318.91	0.0011433	0.0013759	1078.5	169.94	158.15	56.097	0.0015613	71.859	-34.344	-63.843	-139.684	-140.518	-54.285	80.235	-141.505	-134.795	-103.099	125.736	-136.811	-132.978	-130.547	-125.633	1.349	-128.893	-8191	255	
1013.686	1	1	0	0	0.079601	0.08298	0.027483	0.16717	0.067759	0.083354	0.054776	0.28585	0.026218	0.1325	0.19021	0.18499	0.075428	0.27791	0.1449	0.21137	-2.125	-2.0292	-2.925	-2.2833	-2.3312	-2.6833	-2.1417	-2.825	-2.4917	-2.2333	-2.9562	-2.1292	-2.4229	-2.7062	-2.1458	-2.6979	-86.168	-15.125	-9.522	139.515	119.086	-99.871	156.484	141.469	-99.318	13.331	70.991	-35.855	139.306	154.675	-81.000	148.413	0.00030385	0.0022358	0.00042292	514.67	3.1118e-05	2.772e-05	582.72	186.54	1.6197e-05	2.8253e-05	230.07	81.822	69.247	28.341	3.9237e-05	31.624	0.078913	0.15148	0.043878	999.68	0.0014524	0.0017203	1157.9	371.54	0.0015109	0.0018135	1296.6	186.21	176.15	62.181	0.0019501	80.243	2.092	155.108	26.667	-140.388	129.586	-126.660	-141.080	-134.671	115.007	203.413	-136.608	-132.522	-129.332	-125.665	44.951	-128.217	-8191	255	
1013.782	1	1	0	0	0.31716	0.16728	0.29266	0.15131	0.14235	0.17882	0.11434	0.080212	0.10404	0.10647	0.09364	0.14017	0.21697	0.08636	0.070845	0.1093	-2.0729	-1.9562	-2.7562	-2.2875	-2.2167	-2.9375	-2.0729	-2.6083	-2.6813	-2.0208	-2.7229	-2.5187	-2.1937	-2.8312	-2.0854	-2.6937	52.089	-113.408	-3.204	67.145	-78.723	-13.871	-87.584	-120.087	158.405	98.535	-114.585	156.553	-90.020	-149.727	115.047	-1.280	0.00053393	0.0058424	0.00020146	515.97	3.9297e-05	7.767e-05	577.43	186.44	1.7776e-05	8.2076e-06	228.98	80.259	67.861	28.336	1.4427e-05	31.454	0.1006	0.1979	0.055818	1114.7	0.0017698	0.0020771	1243.7	391.35	0.0016981	0.0020422	1394.8	191.21	183.17	64.078	0.0019888	79.55	-57.661	166.324	-50.765	-141.172	-28.739	207.146	-141.805	-134.807	172.642	49.665	-137.734	-132.619	-130.431	-125.642	181.425	-128.777	-8191	255	
1013.878	1	1	0	0	0.11187	0.16487	0.096648	0.24185	0.17886	0.063174	0.30094	0.22375	0.19062	0.18022	0.032809	0.12928	0.26471	0.22694	0.098186	0.14964	-2.2667	-1.9833	-2.8521	-2.4083	-2.1833	-2.8937	-2.2729	-2.525	-2.8187	-1.9604	-2.7729	-2.6021	-2.2667	-2.9938	-2.1958	-2.4583	-72.097	196.026	113.236	156.134	103.102	-79.629	139.567	25.851	119.313	192.199	73.812	199.202	-151.891	-150.481	-46.921	11.465	0.00074607	0.00047318	0.0011244	502.88	6.1327e-05	2.6333e-05	565.66	181.42	1.5883e-05	2.3465e-05	225.77	78.15	67.126	28.333	3.2447e-05	30.69	0.10206	0.20366	0.057535	1136.4	0.0019585	0.0023559	1323.8	417	0.0020097	0.0024071	1565.7	204.76	203.11	70.388	0.0023343	87.492	-102.941	69.996	-16.398	-140.503	-101.506	-84.935	-141.297	-134.806	-112.502	87.591	-135.989	-132.805	-130.954	-125.410	46.172	-128.936	-8191	255	
1013.950	1	1	0	0	0.27694	0.10367	0.16598	0.40315	0.16327	0.11766	0.14582	0.23065	0.20212	0.12112	0.33978	0.24301	0.23317	0.13925	0.44788	0.12436	-2.3063	-2.0271	-2.8708	-2.5	-1.9083	-2.85	-2.3896	-2.3521	-2.9583	-2.0333	-2.7583	-2.7562	-2.0187	-2.8542	-2.2292	-2.2271	-11.579	-71.760	-77.050	164.111	146.909	167.967	175.981	200.300	170.942	192.662	-19.494	168.697	23.133	-127.629	-82.055	15.317	0.00051565	0.0036741	0.001883	498.39	1.8233e-05	5.3463e-05	547.95	175.34	4.1905e-06	5.457e-05	212.37	72.866	63.306	27.693	3.1923e-05	29.608	0.12411	0.2448	0.068357	1255.6	0.0024377	0.0029259	1491.3	476.97	0.0026295	0.0031083	1933.5	240.12	246.27	82.729	0.0029555	102.61	-120.072	8.251	-42.498	-141.292	-80.557	40.889	-141.338	-134.623	-16.699	63.113	-134.628	-132.945	-130.860	-125.601	3.116	-128.347	-8191	255	
1014.070	1	1	0	0	0.077105	0.086266	0.17724	0.25561	0.10282	0.12312	0.17232	0.095526	0.16112	0.082315	0.095406	0.15441	0.28708	0.30141	0.22362	0.16586	-2.5312	-2.0083	-2.6896	-2.6604	-2.1229	-2.8	-2.5521	-2.2104	-2.7646	-2.0687	-2.3542	-2.8604	-2.1375	-2.8125	-2.2333	-2.3042	-57.822	43.598	26.220	174.122	40.891	5.586	195.976	-72.968	122.027	70.733	20.927	-76.290	126.524	-132.691	83.931	-31.845	0.00057535	0.0016478	0.0015902	491.53	4.3948e-05	9.9505e-05	540.34	174.93	2.2359e-05	3.7119e-05	216.14	70.431	62.772	27.137	3.0379e-05	28.296	0.158	0.29573	0.078653	1363.2	0.0027565	0.0031884	1540	498.48	0.0027932	0.0031828	1939.8	242.29	247.97	82.165	0.0029994	106.22	-105.796	-36.456	-48.062	-141.413	-92.605	58.057	-141.084	-135.532	-68.810	14.980	-139.002	-132.664	-130.252	-124.895	8.839	-129.339	-8191	255	
1014.166	1	1	0	0	0.22798	0.20237	0.32596	0.2405	0.12332	0.39071	0.089843	0.3201	0.14349	0.16319	0.22247	0.25913	0.092728	0.16104	0.11483	0.18516	-2.4646	-2.2292	-2.4042	-2.8646	-2.1312	-2.8542	-2.5812	-2.2208	-2.9583	-2.55	-2.5958	-2.9	-2.2354	-2.9354	-2.6937	-2.3042	-39.041	57.670	-49.894	181.547	188.385	140.883	-51.901	107.766	94.664	71.096	-151.615	133.800	128.032	-81.653	0.313	157.664	0.00063461	0.0056345	0.00018208	489.74	4.3432e-05	6.3711e-05	521.12	172.03	1.7313e-05	0.00014479	195.81	65.443	61.463	25.939	3.8815e-05	26.549	0.17209	0.33056	0.092264	1592.1	0.0035304	0.0040923	1842.6	645.95	0.0041647	0.0046537	2776.2	335.63	352.39	110.85	0.0046376	147.34	-59.431	-52.512	5.596	-140.796	-151.932	80.046	-141.901	-135.445	20.571	15.280	-137.815	-134.337	-130.935	-125.308	-130.663	-129.504	-8191	255	
1014.263	1	1	0	0	0.099963	0.26839	0.17292	0.18628	0.064263	0.097772	0.1473	0.14136	0.029209	0.14616	0.14068	0.082579	0.1471	0.31779	0.17792	0.11313	-2.6104	-2.3688	-2.3604	-3.1167	-2.1521	-2.7313	-2.7417	-2.1604	-2.9375	-2.4875	-2.3042	-3.0979	-2.2271	-2.5812	-2.85	-2.05	1.912	76.703	-65.919	-71.629	85.016	78.172	170.027	154.073	-47.544	66.400	145.487	12.554	-22.540	158.498	187.764	75.332	0.00048349	0.0026766	0.00099543	482.56	3.9695e-05	3.2501e-05	502.48	167.43	3.4301e-05	6.2662e-05	195.59	66.859	62.191	25.22	3.5213e-05	25.924	0.25743	0.47389	0.13188	2041.8	0.0046712	0.0051138	2139.7	709.06	0.0044055	0.0048279	2902.9	341.7	341.01	104.23	0.0043685	137.7	116.412	-68.036	-39.312	-141.669	148.227	62.507	-142.327	-135.275	-23.435	-34.300	-138.637	-132.947	-130.576	-125.201	-92.688	-128.975	-8191	255	
1014.359	1	1	0	0	0.37272	0.22323	0.19595	0.040058	0.15359	0.15618	0.29529	0.15499	0.18693	0.2233	0.14192	0.039245	0.22912	0.15076	0.079872	0.26213	-2.5938	-2.3937	-2.1958	-2.8937	-2.1146	-2.5687	-2.9167	-2.1917	-3.0292	-2.3917	-2.3292	-3.0375	-2.2729	-2.5729	-2.7771	-2.3625	23.269	-4.283	195.895	-111.914	85.226	6.605	-8.050	58.551	-133.320	13.953	80.592	-61.069	-34.150	-47.797	-149.964	157.746	0.00055232	0.0020746	0.0012461	469.85	1.8084e-05	3.3583e-05	506.51	168.14	4.5275e-05	6.2937e-05	200.44	72.541	65.631	25.911	4.779e-05	27.664	0.22615	0.4061	0.11458	1805.9	0.003889	0.0042623	1916.7	623.44	0.0036387	0.0040068	2518.1	302.86	297.27	93.436	0.0038422	124.29	-20.183	-120.403	133.653	-141.468	65.206	-7.062	-142.079	-135.053	89.304	15.352	-138.903	-133.213	-130.480	-125.945	-147.400	-129.327	-8191	255	
1014.478	1	1	0	0	0.10154	0.12419	0.21799	0.28112	0.20054	0.2476	0.16003	0.1422	0.11448	0.11433	0.33724	0.24446	0.24012	0.10063	0.21656	0.11152	-2.4792	-2.4146	-2.1208	-3.075	-2.1688	-2.3354	-2.9083	-2.0438	-2.6042	-2.6875	-1.9125	-2.9667	-2.1167	-2.5083	-2.9292	-2.1542	133.164	63.938	-148.937	148.891	-78.849	-34.956	117.367	-82.361	8.908	-106.340	151.008	-6.865	164.281	-48.799	23.058	107.921	0.0006764	0.0068519	0.0013023	489.16	3.2549e-05	5.2427e-05	519.9	170.64	8.7386e-06	3.2203e-05	200.62	76.447	66.906	27.574	2.1659e-05	29.705	0.19549	0.36045	0.10378	1650.3	0.0033149	0.0036067	1664.5	510.19	0.0025354	0.002694	1669.1	209.32	189.48	61.793	0.0018222	71.118	-28.225	137.369	4.519	-140.944	82.396	-88.955	-141.755	-135.137	-16.163	-146.031	-138.842	-133.259	-130.684	-125.692	29.654	-128.798	-8191	255	
1014.574	1	1	0	0	0.17285	0.3341	0.099667	0.18198	0.18887	0.028565	0.26738	0.14748	0.18233	0.25139	0.053761	0.029641	0.19762	0.34362	0.10651	0.20498	-2.1542	-2.4688	-1.75	-2.9813	-2.0417	-2.1292	-2.7125	-1.9896	-2.4208	-2.5646	-2.1125	-2.7542	-2.1375	-2.1125	-2.8292	-2.1875	-136.832	31.369	6.796	172.965	-61.964	-68.731	101.427	58.935	-2.779	50.778	110.518	123.557	136.529	-117.723	11.055	191.453	0.00032391	0.0039989	0.0006937	477.57	2.1375e-05	1.0321e-05	544.15	169.71	1.0895e-05	2.0523e-05	219.53	86.398	69.681	31.441	2.4272e-06	36.812	0.076341	0.1339	0.035491	832.02	0.00096078	0.0010195	839.82	253.44	0.00060742	0.0006216	527.32	111.44	92.284	37.606	0.00031968	43.41	-75.383	178.709	176.245	-140.808	54.875	168.375	-141.950	-134.617	78.343	-130.014	-137.436	-132.684	-130.314	-125.595	-51.427	-128.780	-8191	255	
1014.647	1	1	0	0	0.15623	0.13398	0.22176	0.053196	0.16252	0.15007	0.081609	0.16096	0.33523	0.21152	0.036882	0.10189	0.14017	0.2229	0.21239	0.066283	-2.1833	-2.4896	-2.0812	-2.8875	-2.1521	-1.9667	-2.8042	-2.0771	-2.2771	-2.6625	-2.0792	-2.7229	-2.4	-2.0938	-2.7313	-2.1833	-1.736	93.801	62.578	-71.602	90.355	-117.720	-70.699	90.855	-32.045	85.091	20.472	105.007	-139.786	185.401	157.721	-113.400	0.00040775	0.001363	0.00041512	482.63	6.9724e-06	7.5395e-06	591.75	174.04	5.3134e-06	1.0965e-05	243.96	96.41	70.79	37.554	3.1777e-06	46.694	0.013171	0.023682	0.0064178	540.19	0.00019303	0.0002291	654.82	194.3	0.0001846	0.00021812	362.13	106.95	81.827	40.974	0.00020198	51.216	-59.075	-149.808	3.615	-140.572	-147.989	122.399	-141.466	-135.272	-104.780	40.290	-137.691	-132.761	-130.758	-126.257	-11.843	-129.461	-8191	255	
1014.766	1	1	0	0	0.094693	0.10359	0.12622	0.3287	0.15252	0.25641	0.30559	0.12495	0.17847	0.1275	0.1369	0.046942	0.041181	0.25761	0.05406	0.25689	-1.9708	-2.5	-2.0875	-2.7188	-2.4542	-2.125	-2.8833	-2.0521	-2.3646	-2.6562	-2.125	-2.6688	-2.5354	-2.0833	-2.8646	-2.325	83.391	-19.709	96.080	91.959	-124.908	136.718	176.148	65.310	-33.450	7.250	-6.185	-73.965	48.000	108.258	34.665	-114.966	0.00044783	0.00064483	0.00014963	481.72	3.9935e-06	2.0118e-05	599.01	173.48	3.5994e-06	4.5102e-06	241.88	97.215	70.81	38.505	2.1326e-05	45.652	0.010184	0.019773	0.0055119	530.47	0.00018422	0.00022202	657.16	192.22	0.00018796	0.00022288	360.77	107.93	82.738	42.028	0.00020854	50.441	-97.339	-60.059	-66.991	-140.419	83.826	36.537	-141.292	-135.180	-59.272	110.112	-137.375	-132.769	-130.488	-126.147	-35.968	-129.374	-8191	255	
1014.862	1	1	0	0	0.22416	0.19444	0.23413	0.20168	0.19787	0.081578	0.071048	0.098308	0.062652	0.045928	0.1955	0.25855	0.093667	0.13869	0.17513	0.27527	-1.5667	-2.7542	-2.1542	-2.7479	-2.6437	-2.1063	-2.6583	-2.4813	-2.0312	-2.775	-1.8667	-2.5208	-2.6479	-1.9292	-2.6625	-2.5	175.792	-86.752	85.392	138.005	21.840	-47.800	116.793	124.647	-9.419	12.580	136.372	-107.649	175.429	113.929	-26.102	29.131	0.00028088	0.000561	0.00024128	485.46	7.6853e-06	1.5801e-05	575.33	168.59	5.3508e-06	2.2391e-05	233.72	92.761	69.868	36.281	7.5101e-06	42.542	0.010871	0.020971	0.0057991	538.76	0.00020259	0.00023895	640.48	190.87	0.00020523	0.00023833	360.55	104.41	82.398	40.203	0.00022509	47.852	-75.094	53.941	-108.038	-140.452	-55.505	-1.256	-141.219	-134.782	53.152	25.838	-137.959	-133.064	-130.415	-126.273	-73.670	-129.807	-8191	255	
1014.958	1	1	0	0	0.1193	0.097148	0.076118	0.075121	0.20547	0.23122	0.12869	0.24381	0.079905	0.28458	0.13765	0.18778	0.11728	0.28557	0.1099	0.27129	-1.6313	-2.7104	-2.0729	-2.3167	-2.5083	-2.0104	-2.8833	-2.35	-2.0563	-2.6771	-2.0438	-2.3896	-2.8208	-2.0125	-2.5354	-2.5333	145.002	74.330	98.395	85.259	60.489	-69.745	83.934	191.946	-42.171	117.336	-76.091	133.380	139.143	77.287	81.328	116.833	0.00037804	0.00099355	9.7823e-05	466.73	8.4435e-06	1.0347e-05	544.68	163.49	1.9585e-05	6.691e-06	226.14	89.235	66.8	34.806	6.53e-06	41.992	0.012108	0.02306	0.0063464	527.83	0.00022441	0.0002586	615.71	186.37	0.00022115	0.00024902	353.94	101.04	79.998	38.456	0.00020336	46.797	-77.620	-13.784	-126.381	-140.663	10.937	-81.457	-141.145	-135.079	29.314	-85.096	-137.144	-133.065	-130.316	-126.130	84.871	-129.465	-8191	255	
1015.079	1	1	0	0	0.089157	0.10914	0.13767	0.19648	0.12864	0.22989	0.08913	0.21407	0.22783	0.039399	0.2181	0.10632	0.2822	0.24988	0.23791	0.18491	-1.6521	-2.575	-2.1063	-2.1813	-2.6625	-2.0146	-2.5854	-2.5542	-1.8792	-2.6917	-2.1917	-2.1292	-2.9333	-1.9417	-2.4146	-2.6625	154.554	51.378	149.101	-74.180	17.252	-25.733	200.795	187.663	-126.198	96.268	12.144	188.609	135.479	-99.682	202.561	109.455	0.00031184	0.00071941	0.00025183	455.69	9.9522e-06	2.6082e-06	543.85	162.13	1.1007e-05	7.5493e-06	225.38	92.909	68.748	36.047	1.7277e-05	44.852	0.01065	0.019733	0.0052757	506.83	0.00018773	0.00021372	598.63	181.22	0.00018172	0.00020284	331.11	102.1	79.234	39.183	0.00017535	48.713	-91.036	-12.966	-73.340	-140.485	-55.112	28.038	-141.143	-134.973	-68.306	-106.699	-137.255	-132.633	-130.428	-126.029	-72.072	-129.336	-8191	255	
1015.175	1	1	0	0	0.020291	0.12861	0.2123	0.079653	0.22401	0.15875	0.2739	0.1671	0.11777	0.23357	0.11078	0.18779	0.18494	0.20938	0.22503	0.1752	-1.6625	-2.6437	-2.2229	-2.3604	-2.625	-1.9604	-2.3583	-2.5563	-1.9792	-2.6271	-2.3542	-2.2042	-2.8021	-2.075	-2.2104	-2.8021	-77.071	178.930	67.406	-85.565	-117.870	147.824	84.207	135.906	-41.661	-132.771	111.222	178.980	164.202	177.571	-72.284	110.378	0.00044303	0.0015696	0.0001556	461.36	9.0749e-06	6.1457e-06	550.71	164.85	1.5479e-05	1.5828e-05	228.26	95.067	70.731	36.281	1.0845e-05	45.24	0.0093751	0.016802	0.0046511	506.31	0.0001638	0.00018526	595.16	182.07	0.00015912	0.00017679	320.15	103.63	80.014	39.016	0.00015825	48.943	-81.809	-17.842	49.880	-140.649	82.012	-16.998	-141.215	-134.604	4.834	41.332	-137.472	-132.734	-130.765	-126.073	-56.014	-129.445	-8191	255	
1015.247	1	1	0	0	0.10467	0.09925	0.20888	0.13766	0.19925	0.26454	0.12246	0.36269	0.19228	0.26625	0.35559	0.20696	0.10927	0.22283	0.11389	0.18791	-1.6854	-2.6792	-2.2375	-2.0146	-2.7562	-2.1167	-2.3229	-2.5542	-1.8125	-2.6521	-2.3333	-1.9937	-2.7604	-2.0979	-2.2771	-2.9646	-129.447	53.373	-62.742	-93.257	93.124	134.691	-92.453	180.043	114.196	99.997	169.411	141.432	-115.259	-142.050	-14.925	59.861	0.00038023	0.0010619	0.0002402	464.5	1.993e-06	1.3465e-05	549.71	165.63	9.4061e-06	7.9948e-06	226.26	96.729	70.105	36.185	9.774e-06	46.059	0.0084032	0.015225	0.0042596	501.64	0.00014851	0.00016729	591.55	180.24	0.00014754	0.00016561	314.85	104.61	79.416	38.668	0.00015718	49.484	-70.783	113.076	-107.164	-140.360	-63.880	47.572	-140.961	-134.791	-31.064	0.344	-137.533	-133.199	-130.540	-126.181	32.663	-129.581	-8191	255	
1015.367	1	1	0	0	0.13724	0.10014	0.11443	0.11635	0.18454	0.17331	0.10273	0.031095	0.17954	0.17523	0.014569	0.14674	0.19422	0.41512	0.12601	0.082078	-1.4042	-2.4125	-2.4833	-1.9917	-2.6104	-2.1813	-2.3396	-2.8708	-2.0292	-2.5792	-2.3333	-1.9854	-2.7875	-2.325	-1.975	-2.7562	115.630	150.587	142.957	3.109	-57.405	-11.519	103.707	116.550	190.841	143.288	200.881	-100.869	173.021	-137.681	50.140	67.923	0.00044832	0.0013946	0.00020119	475.32	3.1593e-06	4.9823e-06	573.77	153.78	8.5612e-07	6.1533e-06	215.31	95.313	67.363	34.902	8.9317e-06	46.209	0.0083116	0.015115	0.0042954	513.55	0.00014779	0.00016789	614.4	170.14	0.00014591	0.00016529	304.13	103.2	76.328	37.552	0.00015722	49.671	-72.069	46.943	-22.235	-140.390	148.101	169.029	-141.146	-134.465	53.697	-73.097	-136.590	-132.954	-130.482	-125.854	-112.268	-129.583	-8191	255	
1015.462	1	1	0	0	0.085131	0.48653	0.26866	0.030217	0.10929	0.19746	0.25768	0.11546	0.056902	0.10816	0.16683	0.099838	0.22264	0.07229	0.16178	0.26788	-1.5396	-2.3375	-2.6042	-2.0708	-2.6146	-2.4083	-2.1	-2.7708	-2.1271	-2.4229	-2.6167	-1.9083	-2.7812	-2.4604	-2.1854	-2.7938	173.102	-137.468	168.696	105.883	168.638	-118.233	200.160	30.358	-122.984	-70.865	164.306	173.042	-32.297	15.937	-105.548	124.583	0.00032393	0.0010667	0.00021038	494.44	9.4184e-06	6.5169e-06	566.81	151.45	1.337e-05	7.5203e-06	208.86	94.596	67.617	35.128	7.4957e-06	44.611	0.0082392	0.015233	0.0043813	533.6	0.00015016	0.00017383	612.99	167.45	0.00015114	0.00017655	304.8	103.09	77.063	37.91	0.00016621	48.346	-69.396	31.426	-85.478	-140.659	-49.914	67.653	-141.088	-134.590	90.373	-49.915	-136.910	-132.571	-130.254	-125.655	40.784	-129.106	-8191	255	
1015.558	1	1	0	0	0.1145	0.21004	0.084862	0.10963	0.16444	0.10387	0.21967	0.19578	0.045861	0.090343	0.077299	0.17945	0.21667	0.062789	0.13631	0.2236	-1.7396	-2.3708	-2.575	-1.9333	-2.5833	-2.2292	-2.0125	-2.8	-2.0729	-2.3438	-2.6937	-1.8875	-2.6208	-2.5667	-1.7896	-2.8375	95.635	-45.767	109.633	119.475	80.520	-100.460	182.725	120.475	147.851	24.395	98.724	-120.323	-99.265	86.432	-29.551	166.370	0.00043907	0.0014115	0.00023199	479.88	1.1779e-05	5.8226e-06	536.65	148.4	1.2507e-05	4.2815e-06	204.19	93.523	67.371	34.679	5.8471e-06	43.979	0.0085718	0.016317	0.004568	519.17	0.00015548	0.00018346	587.69	164.9	0.00015637	0.00018227	300.23	101.84	76.99	37.477	0.00017014	47.718	-79.415	-65.480	22.880	-140.528	4.969	110.177	-141.245	-133.840	-35.881	-23.850	-137.552	-132.895	-129.861	-125.943	87.123	-129.509	-8191	255	
1015.654	1	1	0	0	0.3804	0.18625	0.064926	0.080973	0.1852	0.20099	0.17359	0.10631	0.10021	0.27365	0.10158	0.23984	0.079813	0.17673	0.12316	0.21236	-1.7833	-2.0938	-2.6833	-1.8896	-2.5979	-2.5208	-2.15	-2.7292	-2.2875	-2.0896	-2.6354	-1.9604	-2.5146	-2.6562	-1.8167	-2.8292	153.038	113.105	17.695	134.748	-9.517	119.227	169.592	14.162	148.080	85.839	129.277	-80.728	-134.176	189.434	101.719	144.386	0.00031696	0.0012356	0.0003939	464.33	1.969e-06	8.3796e-06	519.27	152.43	4.0939e-06	2.0661e-05	208.9	93.479	68.541	34.372	5.0624e-06	42.845	0.0087193	0.016677	0.0046286	503.79	0.0001584	0.0001852	569.64	168.58	0.00015788	0.00018523	308.15	102.06	78.414	37.428	0.000176	46.729	-83.022	157.051	-103.917	-140.338	138.574	-80.398	-141.197	-134.087	23.396	-10.329	-136.784	-132.626	-130.294	-125.979	-93.279	-129.705	-8191	255	
1015.775	1	1	0	0	0.29164	0.1759	0.049455	0.35076	0.067464	0.0018622	0.062412	0.12021	0.080423	0.17497	0.13824	0.28688	0.18582	0.1702	0.19825	0.2155	-1.7083	-1.9271	-2.7458	-2.2687	-2.3458	-2.7396	-2.0708	-2.6479	-2.4625	-2.0667	-2.8979	-2.3187	-2.3917	-2.6875	-1.8333	-2.7438	17.918	-91.941	107.912	126.364	85.750	180.000	-143.675	-87.220	-115.924	-100.640	-98.803	148.168	-130.011	-110.949	-6.062	190.320	0.00049262	0.00096281	0.00011509	444.75	7.6737e-06	1.5281e-05	504.64	160.23	1.0312e-05	1.3727e-05	218.98	91.13	67.347	34.083	9.1338e-06	41.48	0.0093159	0.017781	0.0048961	489.03	0.00016993	0.00019933	558.56	178.56	0.00017013	0.00019598	323.99	100.28	78.197	37.31	0.00018773	45.692	-82.068	-31.671	142.749	-140.297	116.030	8.982	-141.140	-134.537	39.239	48.712	-137.602	-132.685	-130.373	-126.412	59.714	-128.892	-8191	255	
1015.871	1	1	0	0	0.23478	0.1504	0.10025	0.13119	0.025342	0.088728	0.30895	0.091434	0.12874	0.20026	0.24958	0.14794	0.16802	0.21435	0.090564	0.19128	-2.0208	-2.0146	-2.5583	-2.1813	-2.2938	-2.6937	-1.9271	-2.6375	-2.1917	-2.25	-2.8229	-2.2167	-2.0854	-2.7292	-2.1083	-2.7042	-1.604	2.868	-96.634	206.269	154.143	137.942	157.654	-104.771	-82.515	141.611	19.154	-151.197	-117.604	73.133	41.193	101.102	0.00030253	0.00020955	0.00025911	444.95	8.4187e-06	6.6098e-06	504.84	159.18	4.2087e-06	9.5586e-06	214.43	85.489	64.872	33.539	8.9352e-06	39.637	0.010254	0.019435	0.0055225	496.3	0.00019582	0.00022956	565.68	180.34	0.00019932	0.00022984	335.1	96.893	77.613	37.245	0.00021237	44.503	-68.286	162.811	33.179	-140.743	164.144	13.809	-141.020	-134.760	-144.302	94.721	-137.348	-133.053	-130.583	-126.057	43.023	-129.401	-8191	255	
1015.943	1	1	0	0	0.12195	0.19606	0.11611	0.011308	0.13934	0.43541	0.22898	0.29598	0.21594	0.13187	0.14741	0.061781	0.11697	0.055828	0.11307	0.09114	-2.1229	-1.9167	-2.775	-2.1813	-2.1042	-2.6813	-1.8937	-2.3396	-2.4583	-2.0208	-2.7729	-2.2062	-2.0521	-2.5687	-2.0167	-2.3333	-34.313	70.301	-25.574	124.122	19.369	82.472	-151.503	164.721	95.714	-6.965	179.127	105.167	88.285	4.114	-104.676	107.963	0.00037289	0.001484	0.00010165	444.9	1.5569e-05	1.0383e-05	498.37	154.72	6.2719e-06	1.7637e-05	203.33	78.671	61.204	32.206	8.4613e-06	36.617	0.011391	0.021202	0.0058113	501.24	0.00020533	0.00023776	565.63	177.52	0.00021574	0.00025153	341.19	92.014	75.737	36.562	0.00025714	42.536	-78.675	-145.456	102.005	-140.607	-43.024	21.467	-141.071	-135.013	-35.994	-25.582	-136.097	-133.226	-130.446	-126.293	-62.672	-129.528	-8191	255	
1016.039	1	1	0	0	0.13465	0.2319	0.18087	0.12358	0.1103	0.13413	0.1353	0.035906	0.14566	0.12288	0.18644	0.14475	0.14488	0.10343	0.10921	0.21606	-2.0542	-1.7896	-2.5542	-2.1917	-1.9583	-2.7062	-2.0292	-2.2583	-2.575	-1.9292	-2.5792	-2.45	-2.0146	-2.7292	-2.2708	-2.325	171.497	93.233	59.191	79.420	-5.420	18.193	168.882	180.095	-150.576	-71.334	-100.092	202.556	63.222	-119.934	206.200	174.107	0.00041708	0.00043707	0.00023004	450.86	1.4413e-05	1.6978e-05	486.95	150.75	8.3697e-06	1.0525e-05	181.51	65.994	55.003	27.534	1.826e-05	28.655	0.014071	0.026588	0.0075983	533.02	0.00029446	0.00035939	603.02	192.75	0.00041658	0.00052083	497.5	99.787	93.349	39.688	0.00074139	48.882	-85.244	155.376	-51.883	-140.597	108.361	-11.461	-141.618	-134.650	-73.229	-80.599	-136.195	-132.706	-129.700	-125.807	116.756	-129.273	-8191	255	
1016.159	1	1	0	0	0.22648	0.23549	0.12053	0.20217	0.10162	0.15707	0.21048	0.18887	0.1402	0.097239	0.14565	0.23639	0.17317	0.32771	0.18909	0.14617	-2.4062	-1.8479	-2.3917	-2.5687	-1.85	-2.8167	-2.1896	-2.2917	-2.8688	-2.0312	-2.5854	-2.6813	-2.2646	-3.0833	-2.2042	-2.3208	138.045	-17.311	144.674	-99.683	-126.927	-89.492	-114.147	12.407	123.381	-104.174	7.303	192.457	-103.336	107.957	110.160	166.963	0.00039195	0.00028581	0.00056303	452.49	2.7163e-05	5.9989e-05	445.6	141.4	4.6281e-05	8.775e-05	153.09	56.758	52.682	27.019	4.9118e-05	26.931	0.04643	0.094102	0.028959	811.31	0.0011924	0.00145	951.54	322.68	0.0016441	0.002015	1410.5	192.8	204.02	74.867	0.0028843	103.23	-94.187	160.145	-9.451	-140.558	-45.839	70.190	-141.506	-134.108	-8.598	27.989	-136.967	-132.855	-129.874	-125.483	188.014	-129.747	-8191	255	
1016.256	1	1	0	0	0.18548	0.10095	0.050521	0.22727	0.033333	0.24129	0.2981	0.13731	0.13656	0.095806	0.22719	0.11941	0.004688	0.048918	0.14121	0.29596	-2.4979	-2.0333	-2.7271	-2.7438	-2.1354	-2.8854	-2.5521	-2.3625	-2.7896	-2.2083	-2.4938	-3.0292	-2.0771	-2.8104	-2.4729	-2.2333	-133.984	-84.673	69.527	168.774	103.726	-38.582	87.181	125.641	170.288	10.278	-83.061	153.834	-31.157	-62.167	-31.402	193.368	0.00028552	0.0076013	0.00028439	480.74	3.6856e-05	2.0826e-05	457.02	148.81	3.8483e-05	8.3286e-05	159.75	56.288	55.401	26.669	2.5742e-05	26.326	0.16247	0.30983	0.090555	1535.1	0.0031653	0.0036277	1668.8	540.2	0.0031583	0.0035619	2215.7	255.13	250.19	83.643	0.0032138	104.83	19.052	-56.953	-113.583	-141.281	75.244	40.495	-142.663	-135.472	54.420	-21.255	-136.788	-133.936	-129.974	-126.287	156.158	-129.172	-8191	255	
1016.352	1	1	0	0	0.23805	0.21118	0.11874	0.15966	0.14812	0.28309	0.019986	0.30555	0.15488	0.1655	0.34109	0.15889	0.25973	0.13106	0.21417	0.11866	-2.5917	-2.0563	-2.4229	-2.7938	-2.225	-2.5896	-2.5771	-2.0646	-2.8125	-2.15	-2.4188	-2.625	-2.1625	-2.7292	-2.6104	-2.0646	-51.293	201.991	-20.417	-104.422	29.737	-98.138	134.311	113.188	108.802	175.493	131.251	-76.419	-130.509	206.486	41.282	-144.003	0.00029214	0.0013819	0.00073988	466.62	8.2478e-06	9.092e-05	457.99	152.27	1.7421e-05	1.3515e-05	166.69	63.443	58.942	27.041	3.9569e-05	28.013	0.15553	0.29154	0.084378	1415	0.0027539	0.0031788	1520.7	484.14	0.0025968	0.0029453	1835.5	217.21	204.56	69.674	0.0023112	82.16	-36.380	-49.776	192.244	-140.633	132.226	107.649	-141.608	-135.317	1.642	192.358	-140.345	-132.664	-130.946	-126.228	-119.251	-129.007	-8191	255	
1016.448	1	1	0	0	0.07725	0.13677	0.10394	0.069769	0.20743	0.32027	0.10076	0.22398	0.16479	0.24954	0.069456	0.2569	0.24135	0.21657	0.065102	0.18129	-2.5625	-2.3896	-2.1729	-2.9667	-1.875	-2.3563	-2.6667	-2.0229	-2.7354	-2.2417	-2.2792	-2.8812	-2.0146	-2.4313	-2.7271	-2.1458	-5.804	101.442	70.576	196.293	173.293	136.430	108.317	127.187	49.165	57.151	112.445	110.574	-84.146	180.784	-149.090	-109.211	0.00022409	0.001747	0.0014846	477.88	2.1651e-05	5.1391e-05	481.47	162.4	1.2223e-05	3.1758e-05	186.58	71.827	63.38	28.35	3.0101e-05	30.428	0.10481	0.1979	0.05606	1084.5	0.0017895	0.0021223	1182.2	379.36	0.0017635	0.0021052	1386.5	183.02	174.68	62.943	0.0018992	75.227	4.376	141.989	-147.698	-140.466	47.397	-122.733	-141.543	-134.525	92.099	-29.752	-138.045	-133.447	-130.715	-125.978	-76.107	-128.774	-8191	255	
1016.542	1	1	0	0	0.17323	0.012477	0.084232	0.10126	0.25581	0.38329	0.16318	0.052645	0.05946	0.073258	0.02687	0.1526	0.26343	0.042977	0.18093	0.11527	-2.2521	-2.2292	-2.0208	-3.0062	-2.0563	-2.275	-2.6875	-2.0729	-2.75	-2.1792	-2.0104	-2.8708	-2.0229	-2.6042	-2.6833	-1.9292	-6.216	167.578	-149.839	119.725	-81.256	-52.490	-151.830	-42.453	-100.519	43.686	-27.967	196.013	104.048	173.208	-135.702	182.147	0.00026199	0.0056335	0.00053975	484.41	2.9089e-05	2.7159e-05	492.14	163.01	2.2076e-05	4.156e-05	193.06	70.838	62.795	27.744	5.4379e-05	28.595	0.093364	0.18529	0.052674	1063.6	0.0018051	0.0022388	1233.5	397.68	0.0019918	0.0024431	1586.9	203.36	204.17	72.352	0.0024692	87.95	-24.989	-148.242	-32.192	-140.529	-94.233	-93.928	-141.413	-134.876	56.343	-105.148	-135.867	-133.042	-130.607	-125.876	67.805	-128.793	-8191	255	
1016.640	1	1	0	0	0.11377	0.053614	0.1071	0.040102	0.024046	0.15105	0.18434	0.23765	0.30573	0.18337	0.11285	0.11543	0.18751	0.37397	0.17658	0.10154	-2.275	-2.3771	-1.9979	-2.8354	-2.1562	-2.3	-2.9062	-1.9062	-2.4854	-2.6021	-1.8687	-2.9354	-2.35	-2.4	-2.8625	-2.2125	-122.069	-16.712	-8.812	-13.817	63.015	-95.292	55.857	91.672	206.742	181.130	-146.316	144.813	175.623	180.689	56.270	171.471	0.0004756	0.0010095	0.0012085	478.09	2.3633e-05	4.6396e-05	480.53	160.09	8.2838e-06	4.3648e-05	179.22	64.454	58.82	26.919	4.3657e-05	27.281	0.12794	0.2536	0.070378	1243.3	0.0024251	0.0029198	1420.7	453.41	0.0025725	0.0030968	1907.8	230.65	240.12	83.258	0.0030337	101.44	-123.912	8.431	-36.794	-140.871	-5.112	-89.967	-141.121	-134.352	206.239	18.919	-136.832	-132.904	-131.422	-125.395	29.356	-129.611	-8191	255	
1016.759	1	1	0	0	0.26399	0.18474	0.37759	0.17751	0.095642	0.18077	0.080002	0.01355	0.11516	0.1792	0.25996	0.11873	0.13694	0.17855	0.23633	0.15325	-2.2792	-2.6792	-1.9312	-2.7354	-2.1896	-2.3	-3.0292	-2.0604	-2.6188	-2.9542	-1.9375	-2.8958	-2.5542	-2.0583	-2.9917	-2.2104	114.072	103.617	-48.149	-129.623	121.841	-136.621	-32.940	-29.073	151.649	97.391	26.613	-143.984	-143.652	78.705	177.928	-29.094	0.00035384	0.0028636	0.00063834	474.77	3.3826e-05	6.2822e-05	461.06	155.1	1.3618e-05	4.2265e-05	171.41	58.911	55.037	26.624	5.7739e-05	26.37	0.16212	0.31345	0.085238	1430.7	0.0030541	0.0035887	1601.5	516.16	0.0031602	0.0036719	2175.8	256.61	270.13	91.165	0.003414	111.94	-146.421	-29.937	-13.319	-141.420	-62.924	20.099	-141.503	-134.944	127.845	-93.077	-138.155	-132.960	-130.852	-125.812	18.094	-129.973	-8191	255	
1016.855	1	1	0	0	0.11641	0.15062	0.18729	0.14835	0.35977	0.20356	0.20502	0.20039	0.23812	0.24244	0.040893	0.23347	0.10047	0.21322	0.11267	0.22312	-2.1208	-2.7708	-1.9792	-2.7896	-2.5479	-2.3229	-2.8937	-2.1979	-2.55	-2.8083	-2.1146	-2.7896	-2.475	-2.1188	-2.8063	-2.2562	-132.788	51.247	38.383	186.497	-102.428	144.256	71.324	138.946	17.707	-139.181	103.529	34.791	203.883	-89.422	40.475	112.563	0.00077075	0.0024731	0.002325	471.56	9.9874e-07	1.5539e-05	459.32	151.1	3.6546e-05	4.9478e-05	162.89	57.492	55.045	26.13	3.7038e-05	26.405	0.18634	0.35042	0.094064	1560	0.0034065	0.0038788	1657.7	537.15	0.0032286	0.0035556	2045.5	241.22	242.97	78.727	0.0027341	93.797	-135.329	10.299	-51.631	-141.109	151.911	138.694	-141.158	-135.105	195.449	39.240	-136.428	-133.373	-130.844	-125.725	-134.912	-129.990	-8191	255	
1016.951	1	1	0	0	0.094549	0.11663	0.16387	0.10458	0.084678	0.057228	0.055295	0.18248	0.12704	0.085774	0.2052	0.22004	0.18575	0.37705	0.151	0.13336	-1.8229	-2.7313	-1.8188	-2.8396	-2.3417	-1.9104	-2.9146	-2.3271	-2.2417	-2.7542	-2.0062	-2.5771	-2.6458	-1.9312	-2.8208	-2.3979	83.283	-131.140	-65.535	-90.578	-31.326	137.629	70.006	11.029	-28.004	-84.291	-87.721	203.385	-102.149	41.382	106.526	-69.234	0.00047448	0.0049857	0.00093179	466.83	3.0606e-05	4.5964e-05	464.34	152.1	2.9331e-05	5.2166e-05	172.06	60.295	56.744	26.261	3.498e-05	26.002	0.14019	0.25299	0.068212	1254.7	0.0024354	0.0027351	1342.1	443.65	0.0024423	0.0027302	1690.4	214.7	216.1	71.314	0.0024729	88.786	102.586	-103.937	178.016	-141.212	186.994	-15.444	-141.750	-135.607	204.223	-6.584	-137.511	-133.278	-130.797	-125.703	-115.450	-129.084	-8191	255	
1017.047	1	1	0	0	0.18945	0.14901	0.13132	0.19712	0.25866	0.035117	0.18388	0.26692	0.10701	0.15395	0.22981	0.091875	0.20335	0.28387	0.14273	0.31521	-1.8937	-2.8229	-2.0125	-2.4062	-2.5146	-2.0938	-2.7062	-2.4042	-2.1292	-2.7104	-2.0417	-2.3438	-2.7354	-2.0687	-2.6021	-2.3479	-98.687	96.021	-124.137	106.328	-17.484	2.482	-54.310	87.610	158.307	31.099	172.852	88.565	-111.703	-40.737	-98.628	49.093	0.00093674	0.0050672	0.0016768	472.4	1.4555e-05	2.7971e-05	477.55	155.46	3.0609e-05	2.919e-05	181.03	65.888	59.407	26.888	1.9647e-05	27.752	0.12868	0.22985	0.063139	1192.9	0.0021191	0.0022838	1208.5	386.52	0.0018494	0.0019943	1288.6	173.12	166.47	56.955	0.0016649	68.835	-49.022	-69.411	194.296	-140.290	-20.059	21.919	-141.739	-135.085	-28.556	125.127	-137.728	-132.599	-130.143	-125.926	101.376	-129.236	-8191	255	
1017.144	1	1	0	0	0.20061	0.16093	0.12105	0.075035	0.13847	0.13793	0.2651	0.091061	0.15477	0.14063	0.13346	0.2293	0.23177	0.16019	0.20495	0.039531	-1.6521	-2.7479	-2.1208	-2.45	-2.8229	-1.9042	-2.6375	-2.4437	-1.9625	-2.9271	-2.1292	-2.2875	-2.7604	-2.2229	-2.8042	-2.5875	161.047	-140.302	100.443	159.845	163.995	-42.608	165.218	194.082	137.241	-20.941	100.939	-129.923	-129.060	144.044	-98.580	56.658	0.00041837	0.001017	0.00050246	476.76	1.2066e-05	7.0867e-05	504.07	155.57	5.2647e-06	1.5421e-05	184.21	72.812	62.609	27.991	5.1231e-06	29.677	0.082751	0.14954	0.041771	940.35	0.001351	0.0014846	978.89	304.97	0.0011786	0.0013027	919.55	141.9	131.11	47.813	0.0011191	56.834	-36.628	-86.738	138.839	-140.746	-30.893	150.221	-141.259	-135.101	-117.651	42.152	-137.705	-132.916	-129.581	-125.275	-38.082	-128.650	-8191	255	
1017.240	1	1	0	0	0.26947	0.009927	0.14768	0.24093	0.13758	0.29352	0.20156	0.2235	0.33329	0.079605	0.12432	0.28126	0.066286	0.35908	0.17231	0.28425	-1.6875	-2.7292	-2.1208	-2.4188	-2.725	-1.9604	-2.5938	-2.6521	-1.9021	-2.8	-2.1917	-2.075	-2.9167	-1.9896	-2.5125	-2.6667	-98.787	70.678	132.486	-149.257	-144.089	-91.691	161.444	158.458	85.133	-49.087	184.973	-118.858	114.704	-88.358	-78.902	114.334	0.0001172	0.0040007	0.0009411	481.26	6.927e-06	2.5113e-05	514.69	159.38	1.396e-05	2.9244e-05	192.13	76.035	63.384	28.328	3.9119e-05	30.471	0.054667	0.10142	0.028829	797.12	0.00093985	0.0010751	861.83	267.79	0.0008799	0.0010024	761.25	128.71	117.35	44.386	0.00089787	52.07	62.484	-128.298	-12.975	-140.660	30.555	46.173	-140.867	-134.839	-119.528	10.809	-138.049	-132.090	-130.072	-125.818	-151.239	-128.498	-8191	255	
1017.336	1	1	0	0	0.30793	0.062645	0.086139	0.19108	0.37521	0.1139	0.13486	0.11526	0.20171	0.10365	0.14796	0.14652	0.038275	0.19891	0.078363	0.11905	-1.3958	-2.8896	-2.0438	-2.2271	-2.7521	-2.2062	-2.4021	-2.6708	-1.9188	-2.7708	-2.3833	-1.9917	-2.9042	-2.1896	-2.3292	-2.7208	-145.230	98.042	191.151	115.396	-37.514	-115.300	-132.855	-141.998	69.406	23.890	50.417	-91.239	145.608	-132.961	-42.400	-30.552	0.0002644	0.00038978	0.00039334	487.5	6.3919e-06	2.4372e-06	525.86	162.12	1.0501e-05	8.9356e-06	201.11	77.546	64.432	29.075	2.8885e-05	32.589	0.043629	0.082412	0.022942	729.73	0.00073053	0.00083548	782.63	240.75	0.00064391	0.00073234	598.59	113.85	100.86	40.115	0.00059665	46.47	-130.256	-95.953	-72.404	-140.383	72.890	-79.780	-141.374	-134.130	-79.917	-18.463	-137.000	-132.362	-129.822	-126.049	170.223	-128.863	-8191	255	
1017.455	1	1	0	0	0.10782	0.15229	0.38646	0.21986	0.17018	0.090163	0.23313	0.25651	0.31408	0.07723	0.13741	0.29027	0.032022	0.14034	0.2646	0.15922	-1.5312	-2.6188	-2.1667	-1.9646	-2.8271	-2.0771	-2.4042	-2.7417	-1.9146	-2.7521	-2.5167	-2.0458	-2.825	-2.2	-2.1958	-2.725	66.164	-43.984	126.225	197.049	-107.670	-149.525	-116.904	132.210	103.523	31.358	63.812	117.977	141.690	7.006	0.056	-71.133	0.00033623	0.0011919	0.0008658	492.45	2.2626e-05	2.473e-05	537.56	165.34	1.9235e-05	7.0395e-06	210.87	80.353	65.326	29.893	5.0631e-06	33.312	0.029076	0.055028	0.015189	646.72	0.00049831	0.00057674	712.87	219.51	0.00046728	0.00054509	504.61	108.1	94.449	38.639	0.00049451	45.02	-70.055	-34.551	83.746	-140.551	184.222	133.298	-141.449	-134.154	4.134	-117.719	-137.757	-132.448	-129.996	-125.549	104.196	-129.006	-8191	255	
1017.551	1	1	0	0	0.24514	0.12861	0.11885	0.4036	0.27586	0.13575	0.19266	0.36718	0.20078	0.16372	0.092724	0.16599	0.14435	0.1278	0.17335	0.059082	-1.6021	-2.4792	-2.6104	-2.2667	-2.5354	-2.0667	-2.1208	-2.7292	-1.8729	-2.5521	-2.5917	-1.8958	-2.6396	-2.3271	-1.9917	-2.6792	32.537	-98.832	181.480	166.142	94.248	-136.231	105.893	138.066	-18.011	-118.641	113.098	154.262	38.311	163.349	-3.402	130.462	0.00047324	0.0013067	4.2618e-05	493.59	7.4442e-06	7.6563e-06	540.64	164.06	6.074e-06	4.1908e-06	207.88	79.082	64.577	29.485	1.1285e-05	32.721	0.025368	0.04857	0.013514	632.24	0.00046806	0.00054985	709.69	217.63	0.00047524	0.0005538	508.91	107.86	95.215	38.605	0.00051636	45.056	-69.093	185.637	94.911	-140.208	-27.568	-140.797	-140.845	-134.457	121.693	-28.186	-137.810	-132.435	-130.163	-125.784	206.906	-129.281	-8191	255	
1017.647	1	1	0	0	0.099733	0.21519	0.074544	0.15087	0.16485	0.087649	0.23728	0.15896	0.13935	0.029202	0.14354	0.19999	0.33397	0.1457	0.1145	0.07439	-1.5125	-2.1958	-2.5021	-1.8771	-2.6875	-2.3896	-2.2042	-2.6708	-2.025	-2.2479	-2.7542	-2.0021	-2.6042	-2.5938	-1.825	-2.8458	143.803	-14.804	114.399	-117.297	198.686	-5.624	151.330	150.263	150.766	-138.201	38.203	-16.802	124.418	97.797	-87.225	42.716	0.00024006	9.5485e-05	0.00035729	487.92	7.938e-06	1.0497e-05	539.97	161.97	1.0066e-05	1.1612e-05	203.5	77.687	63.419	29.243	2.8527e-05	32.569	0.027078	0.051966	0.014424	641.66	0.00051061	0.00059227	715.98	219.41	0.00051316	0.00059414	526.18	108.43	96.498	39.016	0.00053518	45.535	-81.283	-27.694	101.955	-140.179	-109.358	-88.815	-141.509	-134.311	206.049	-33.085	-138.077	-132.562	-130.165	-125.811	20.787	-128.859	-8191	255	
1017.743	1	1	0	0	0.21377	0.19779	0.13762	0.36473	0.099492	0.34216	0.035352	0.23808	0.1657	0.24204	0.37309	0.033487	0.15935	0.08871	0.17867	0.12169	-1.7792	-2.2625	-2.5938	-2.0333	-2.4917	-2.3792	-2.0083	-2.7083	-2.1	-2.3104	-2.525	-2.0312	-2.6188	-2.6937	-1.9688	-2.6542	176.397	157.773	-103.942	-76.212	159.955	-86.038	89.254	161.822	37.599	-35.756	86.548	117.448	183.745	64.775	-46.941	31.154	0.00028695	0.00018432	0.0002013	489.29	2.3665e-05	2.3237e-05	531.97	159.1	4.0015e-06	2.6014e-05	199.39	77.525	63.023	28.936	1.3958e-05	32.138	0.027985	0.052195	0.014241	640.42	0.00050347	0.00057553	709.77	216.13	0.000501	0.00057409	513.82	107.83	95.297	38.481	0.00052849	45.353	-34.735	-141.444	-74.023	-140.520	-68.810	21.040	-141.188	-134.635	46.405	-25.288	-136.211	-132.300	-129.548	-125.757	157.204	-128.694	-8191	255	
1017.839	1	1	0	0	0.11499	0.047629	0.1703	0.15542	0.12495	0.20842	0.079013	0.16745	0.34342	0.075261	0.072004	0.18442	0.19693	0.2918	0.098639	0.17436	-1.6437	-2.1354	-2.7583	-2.0792	-2.4833	-2.4333	-2.0229	-2.7521	-2.2792	-2.1292	-2.8063	-2.0812	-2.4521	-2.5708	-2.0062	-2.7167	197.651	42.412	4.619	161.447	10.244	47.729	-83.064	173.246	5.731	-112.772	61.738	142.117	184.258	-128.486	-3.337	201.604	0.0002755	0.0015326	0.00085643	494.41	1.7508e-05	2.2713e-05	544.45	157.93	7.7253e-06	4.1275e-06	206.64	77.535	62.979	28.646	1.2372e-05	32.205	0.028056	0.052387	0.014346	646.93	0.00050101	0.00056635	713.14	213.14	0.00048226	0.00054167	501.57	106.51	93.368	37.7	0.00050468	44.927	-92.975	156.558	179.805	-140.514	-22.494	16.313	-141.090	-134.381	-97.598	148.223	-136.243	-132.034	-129.751	-125.466	-28.712	-128.847	-8191	255	
1017.936	1	1	0	0	0.25146	0.042786	0.20638	0.077783	0.18322	0.29816	0.11737	0.086973	0.18213	0.15232	0.037605	0.046099	0.080343	0.2106	0.13928	0.13948	-1.9646	-2.1917	-2.7854	-2.0375	-2.3625	-2.5687	-2.0958	-2.5375	-2.2687	-2.1063	-2.6604	-2.1292	-2.4188	-2.6562	-2.0625	-2.5875	60.866	64.664	74.126	-134.128	88.519	28.517	118.712	151.135	-16.664	64.128	-105.655	-30.481	-30.728	-97.371	50.248	12.233	0.00030344	0.0026026	0.00014919	501.92	1.5734e-05	2.6156e-05	550.17	158.04	2.7879e-06	2.4011e-05	204.76	78.144	62.427	29.47	1.5333e-05	34.892	0.027194	0.050069	0.013972	648.1	0.00047741	0.00053201	711.16	210.02	0.00043562	0.00047662	462.76	102.67	87.107	36.203	0.00037706	43.301	-47.942	-43.992	49.037	-140.304	-24.576	57.121	-140.909	-134.385	60.083	6.320	-137.565	-131.979	-129.179	-125.489	142.194	-128.653	-8191	255	
1018.032	1	1	0	0	0.22112	0.085619	0.20732	0.16392	0.2442	0.091285	0.24114	0.33115	0.094834	0.28632	0.061831	0.11189	0.16818	0.11937	0.12407	0.17701	-2.1417	-1.9917	-2.7417	-2.1813	-2.3083	-2.5875	-1.7938	-2.5458	-2.5583	-1.9271	-2.75	-2.4125	-2.1771	-2.8375	-2.0271	-2.5375	12.654	-98.469	170.133	98.635	20.140	150.658	181.165	136.144	28.700	33.749	-134.721	12.502	-24.395	-135.780	164.555	195.283	0.00044225	0.001688	0.00038311	488.16	1.0512e-05	2.2353e-05	563.48	158.78	9.3681e-06	1.0353e-05	220.44	86.031	64.649	32.099	9.6246e-06	40.479	0.017861	0.031015	0.0084594	569.4	0.00026463	0.00028952	643.03	184.95	0.00022954	0.00025282	353.23	98.3	77.434	35.721	0.00020983	45.468	-78.479	-139.416	-135.929	-140.553	-37.076	28.857	-141.048	-134.403	140.629	40.687	-137.214	-132.515	-129.877	-126.317	180.410	-128.968	-8191	255	
1018.128	1	1	0	0	0.22153	0.070661	0.13095	0.37533	0.13648	0.17036	0.063195	0.18965	0.10441	0.12185	0.20268	0.21163	0.093397	0.17356	0.13217	0.3456	-2.2167	-1.8875	-2.7438	-2.2958	-2.0625	-2.8896	-1.9438	-2.3542	-2.7792	-1.9667	-2.4958	-2.3937	-2.225	-2.725	-2.1917	-2.2625	168.124	-74.964	75.585	-144.155	6.677	-130.179	-27.252	155.461	-88.394	148.025	43.126	142.575	-110.671	-117.802	-121.593	134.773	0.00042148	0.00059787	0.00023056	482.78	1.6871e-05	8.6108e-06	568.12	163.64	2.4022e-06	6.2449e-06	223.14	89.293	65.992	32.515	8.134e-06	42.335	0.010397	0.019034	0.0053565	529.17	0.0001808	0.00020625	623.07	183.06	0.00017904	0.00020492	339.72	100.08	76.87	35.943	0.00019875	46.991	-70.180	-75.734	-121.325	-140.371	17.085	39.607	-141.003	-134.821	69.747	115.510	-136.694	-132.579	-130.655	-125.567	-98.231	-128.792	-8191	255	
1018.247	1	1	0	0	0.044854	0.028864	0.21257	0.16162	0.15399	0.15587	0.17646	0.25868	0.19745	0.19183	0.15895	0.24671	0.093576	0.3014	0.29204	0.037124	-2.2333	-2.0104	-2.6146	-2.4688	-2.0167	-2.775	-2.2667	-2.2333	-2.8583	-2.075	-2.8333	-2.5854	-1.9833	-2.7417	-1.9979	-2.3937	97.752	-136.121	160.014	-130.316	78.191	129.838	153.950	-41.856	35.652	87.697	96.399	71.654	-7.296	182.757	32.395	195.037	0.00027252	0.0011988	0.00031048	477.05	2.1852e-06	7.3175e-06	562.85	166.36	9.3643e-06	3.6243e-06	230.92	90.39	67.235	32.501	6.7421e-06	41.197	0.010316	0.019367	0.0054674	527.63	0.00018722	0.00022105	624.18	186.85	0.00019247	0.00022822	355.19	102.02	79.27	36.416	0.00022489	46.432	-53.107	-40.479	-35.643	-140.507	179.934	13.071	-141.116	-134.067	-13.954	-4.707	-137.026	-132.309	-130.102	-125.483	59.047	-128.864	-8191	255	
1018.343	1	1	0	0	0.17532	0.20198	0.21236	0.26702	0.22576	0.13649	0.20937	0.20366	0.11007	0.20717	0.12608	0.1068	0.076289	0.21754	0.023065	0.20702	-2.275	-1.8708	-2.4854	-2.6542	-2.025	-2.8042	-2.2479	-2.3729	-2.7396	-1.8771	-2.5	-2.7208	-1.9542	-2.8271	-2.2042	-2.2896	148.041	103.977	77.637	70.583	195.357	70.164	102.243	130.138	180.542	0.660	-60.954	203.457	81.706	90.760	35.775	146.565	0.00040742	0.0011377	0.00024458	486.04	1.1812e-05	5.5267e-06	568.14	170.66	2.3907e-06	1.5546e-05	230.65	89.32	67.579	32.329	8.9937e-06	40.053	0.012014	0.023232	0.0066844	549.97	0.00023593	0.00028416	650.91	197.86	0.00025175	0.00029902	396.96	105.01	84.164	37.53	0.00030034	47.216	-78.750	-131.301	-138.366	-140.559	-111.732	-49.299	-141.046	-134.621	41.308	-44.021	-137.355	-132.780	-130.639	-125.863	-47.004	-128.864	-8191	255	
1018.441	1	1	0	0	0.11953	0.10177	0.091452	0.087538	0.18997	0.14311	0.1483	0.16217	0.12359	0.06633	0.12576	0.17762	0.098905	0.17257	0.13335	0.1405	-2.3729	-1.9583	-2.4458	-2.6229	-2.0271	-2.6292	-2.4708	-2.1937	-2.7396	-2.0167	-2.3375	-2.7729	-2.1646	-2.7062	-2.4437	-2.0333	151.655	157.873	134.551	13.069	72.265	-35.072	152.508	-148.110	4.462	-32.563	-40.507	129.208	190.419	170.858	38.146	51.299	0.00028572	0.00075356	0.00028936	492.57	2.2098e-05	1.2667e-05	566.11	170.07	1.7376e-06	1.1495e-05	231.34	89.388	67.269	32.416	7.6264e-06	40.991	0.015523	0.029298	0.0081336	569.98	0.00027377	0.00031983	658.81	199.02	0.00026692	0.00030813	395.72	104.5	83.506	37.21	0.00027401	47.047	-77.944	-80.596	-82.178	-140.353	-3.130	177.389	-140.614	-134.526	-75.654	-90.650	-137.203	-132.370	-129.831	-125.740	119.420	-128.464	-8191	255	
1018.535	1	1	0	0	0.18197	0.11573	0.30682	0.18075	0.11008	0.18969	0.015443	0.16432	0.28062	0.1005	0.23524	0.090018	0.13186	0.24573	0.19523	0.25277	-2.4604	-2.0042	-2.2375	-2.7771	-1.8667	-2.6917	-2.3917	-1.8771	-2.8167	-2.3292	-2.2104	-2.7354	-2.0521	-2.6	-2.5479	-1.9542	120.160	147.420	64.574	144.062	120.919	32.427	134.712	-92.200	127.443	120.058	-96.772	49.618	186.757	-115.369	96.186	171.729	0.00033946	0.00033506	0.00038041	483.08	8.8062e-06	5.712e-06	566.93	169.36	1.6008e-06	9.5187e-06	230.44	90.573	66.622	32.215	1.4973e-05	41.163	0.014096	0.026137	0.0070883	552.56	0.00024005	0.00027304	640.88	193.3	0.00022259	0.00025126	362.41	102.38	79.764	35.945	0.00021429	46.063	-69.351	146.975	-85.847	-140.566	178.872	-8.197	-140.930	-134.860	129.647	-43.122	-136.501	-132.550	-129.825	-125.461	97.910	-128.232	-8191	255	
1018.631	1	1	0	0	0.26203	0.27639	0.26186	0.081885	0.074652	0.17835	0.19533	0.1119	0.094111	0.23125	0.098369	0.087794	0.047614	0.16543	0.17484	0.37674	-2.2083	-2.1833	-1.9792	-2.8271	-2.0104	-2.5458	-2.4688	-1.975	-2.5104	-2.1896	-2.0812	-2.8333	-1.9542	-2.4125	-2.5667	-1.8042	44.573	-29.136	140.530	52.083	188.621	36.706	74.449	92.977	-16.714	173.748	190.611	-120.190	-132.659	177.715	-68.130	52.681	0.00038341	0.00069636	0.00029788	477.55	2.374e-06	1.0754e-05	556.2	168.55	4.4741e-06	1.5166e-05	232.21	90.262	66.718	31.538	1.1433e-05	40.219	0.011312	0.020849	0.0057092	531.56	0.00019736	0.00022847	616.65	188.51	0.00019557	0.00022134	346.66	100.62	78.399	34.971	0.00020144	44.982	-70.364	-99.150	-27.488	-140.262	99.235	-41.676	-140.849	-134.145	52.074	45.349	-136.118	-132.335	-129.497	-125.013	186.619	-128.056	-8191	255	
1018.727	1	1	0	0	0.1639	0.21441	0.15535	0.21436	0.14261	0.15595	0.26134	0.20523	0.21636	0.050917	0.052286	0.16633	0.08493	0.12485	0.18201	0.27115	-2.0354	-2.1854	-2.0229	-2.6896	-2.1021	-2.2729	-2.6583	-1.8917	-2.6729	-2.4125	-1.975	-2.7208	-2.05	-2.3229	-2.7729	-1.9979	-81.654	-3.267	206.456	149.301	37.102	76.783	189.264	79.281	-130.019	160.842	207.341	202.543	-95.726	136.012	138.283	162.715	0.00026387	0.0013391	0.00055307	484.12	1.4509e-05	5.539e-06	564.67	176.1	3.3432e-06	1.4601e-05	234.36	90.226	68.434	29.57	1.239e-05	37.561	0.011004	0.0207	0.0058469	540.17	0.00021999	0.00025954	639.39	202.99	0.000266	0.00032168	423.95	110.19	90.998	36.831	0.00043564	48.964	-84.350	-86.792	-98.417	-140.292	89.040	10.492	-140.887	-134.586	-79.466	24.470	-137.579	-132.011	-129.781	-124.568	-104.357	-127.692	-8191	255	
1018.848	1	1	0	0	0.19747	0.069599	0.18773	0.074181	0.08064	0.20505	0.057438	0.4361	0.016479	0.15664	0.13041	0.13127	0.34273	0.096039	0.13842	0.15723	-2.0917	-2.3979	-1.8708	-2.9042	-1.9833	-2.1479	-2.7208	-2.1729	-2.3875	-2.2958	-2.0187	-2.6833	-2.0771	-2.0938	-2.7083	-2.0354	-60.897	185.682	181.878	147.641	-40.860	-70.264	-133.821	167.246	144.615	193.794	-10.435	-97.284	94.030	33.176	154.127	101.069	0.0002979	0.0032182	0.00022868	503.11	9.0436e-06	3.2757e-05	574.68	179.94	1.3105e-05	5.1156e-06	240.55	89.144	69.2	29.415	3.0019e-06	37.01	0.026729	0.05214	0.015476	678.41	0.00060706	0.00071983	813.34	262.8	0.00072924	0.00084818	730.21	139.75	122.07	45.372	0.00091366	60.502	-98.268	-4.902	104.534	-140.649	-88.068	0.092	-140.886	-134.269	-35.975	30.817	-135.558	-131.960	-129.853	-125.020	-61.537	-127.732	-8191	255	
1018.944	1	1	0	0	0.11559	0.15329	0.12461	0.31078	0.072953	0.41836	0.22454	0.23116	0.10204	0.032117	0.34564	0.20934	0.042171	0.15894	0.073161	0.3124	-1.95	-2.625	-2.025	-2.6521	-2.2313	-2.2542	-2.9375	-1.9417	-2.475	-2.4896	-2.0917	-2.8271	-2.3229	-2.0979	-2.6063	-2.1292	65.875	147.911	-125.681	72.258	-116.575	101.075	85.075	150.030	-58.229	-25.412	-15.091	202.073	152.198	-117.026	-63.106	70.391	0.00061739	0.00019069	0.00041302	498.25	2.1933e-05	2.4629e-05	574.71	174.65	1.3884e-05	2.0248e-05	229.96	90.334	66.795	31.031	1.887e-06	40.247	0.048894	0.089755	0.025025	761.53	0.00076196	0.00079123	798.76	239.13	0.00046309	0.00045412	450.87	107.5	82.759	35.155	0.00022758	45.063	-26.491	89.633	-118.692	-140.441	122.250	68.140	-140.778	-134.479	144.400	-144.961	-136.512	-131.842	-129.971	-125.138	-35.447	-128.340	-8191	255	
1019.040	1	1	0	0	0.1749	0.18539	0.13019	0.20384	0.25972	0.13662	0.037585	0.29014	0.26525	0.23572	0.36997	0.2825	0.13707	0.16525	0.14089	0.22959	-2.1271	-2.6208	-1.9458	-2.7104	-2.1937	-1.9312	-2.8833	-2.0354	-2.2354	-2.7854	-1.9979	-2.5792	-2.3292	-2.1104	-2.7333	-2.0542	65.257	-100.207	-148.147	199.565	-11.593	-93.020	180.510	133.091	197.831	93.312	-58.927	186.901	-72.818	76.056	107.812	110.677	0.00045301	0.00056121	0.00038674	467.67	7.1417e-06	7.8678e-06	547.4	158.93	9.1541e-06	1.9278e-05	222.21	89.1	64.854	31.21	1.0564e-05	40.791	0.010468	0.018689	0.0052277	515.19	0.00017379	0.00020036	602.62	177.76	0.00017363	0.00020023	332.15	99.244	75.459	34.43	0.00018925	45.018	-92.302	-48.355	-97.517	-139.937	-94.971	35.694	-140.509	-133.780	-22.750	-67.678	-136.381	-132.259	-130.231	-125.388	-50.504	-128.238	-8191	255	
1019.112	1	1	0	0	0.20205	0.18381	0.38367	0.1007	0.12693	0.041097	0.18857	0.29986	0.13165	0.30084	0.24313	0.26699	0.061546	0.071171	0.036751	0.21227	-1.7479	-2.6188	-1.9458	-2.7	-2.375	-1.8542	-2.7146	-2.0583	-2.0938	-2.6167	-2.0042	-2.6813	-2.5167	-2.0229	-2.7854	-2.2875	140.375	-56.448	-72.761	-129.627	-89.085	2.991	147.764	-136.045	-89.402	87.519	-25.576	-137.451	83.823	181.069	-81.734	141.008	0.0003173	0.001058	0.00017616	473.09	1.2501e-05	1.6703e-05	567.16	176.38	2.3979e-06	8.109e-06	240.4	92.402	69.34	29.653	9.6697e-06	37.318	0.0098029	0.01862	0.0053443	521.89	0.00018576	0.00022312	630.89	197.69	0.00021593	0.0002647	397.62	108.86	88.05	36.224	0.00043557	49.821	-75.130	-12.625	-129.943	-140.232	-48.926	-12.880	-140.387	-134.107	-126.101	-11.246	-136.033	-132.361	-129.917	-124.866	65.440	-128.003	-8191	255	
1019.233	1	1	0	0	0.1561	0.35886	0.14529	0.28597	0.20214	0.048828	0.18411	0.282	0.26266	0.27377	0.18865	0.23943	0.27713	0.036294	0.2269	0.33436	-1.8333	-2.6688	-1.8625	-2.4667	-2.6688	-2.1583	-2.8812	-2.5312	-2.0917	-2.7521	-2.0583	-2.5625	-2.7875	-2.0625	-2.6979	-2.5812	29.329	115.432	16.287	141.960	200.150	10.447	138.954	202.121	143.581	27.914	-109.805	104.706	-60.906	-28.924	-62.980	104.038	0.00055129	0.0025334	0.00044696	511.15	1.301e-05	1.6072e-05	599.6	188.84	2.1462e-05	4.7388e-05	250	87.173	68.343	27.431	1.0175e-05	34.642	0.031071	0.072456	0.024278	822.13	0.0011328	0.0015601	1169.5	385.74	0.001762	0.0021936	1500.7	206.62	191.22	64.396	0.0019492	78.769	-56.640	-10.958	68.214	-139.959	113.974	5.226	-140.093	-134.508	206.008	178.971	-137.596	-131.929	-130.217	-124.792	-75.365	-127.589	-8191	255	
1019.329	1	1	0	0	0.31659	0.30176	0.10776	0.27077	0.10853	0.32284	0.21232	0.20611	0.17385	0.15026	0.26194	0.21436	0.13369	0.23695	0.15076	0.035889	-1.7396	-2.9917	-2.0271	-2.3354	-2.7167	-1.9104	-2.7417	-2.5604	-1.9479	-2.5938	-2.075	-2.3458	-2.8375	-2	-2.6146	-2.6771	42.456	-121.314	-137.322	156.465	-102.456	196.825	138.259	120.679	-70.790	104.331	-99.164	-103.147	-31.532	144.452	-130.078	-126.428	0.00043566	0.0024297	0.00075612	511.11	4.0824e-05	2.0477e-05	586.13	182.24	2.493e-05	1.8017e-05	235	90.866	68.273	29.775	1.7011e-05	38.579	0.08832	0.16197	0.041317	919.55	0.0011756	0.0012596	928.88	274.09	0.00067619	0.00064714	523.84	112.16	87.915	34.845	0.00025297	43.974	-94.482	140.909	73.684	-140.332	195.431	-31.985	-140.938	-134.319	-118.490	-0.409	-136.319	-132.067	-129.538	-124.682	-14.556	-127.909	-8191	255	
1019.423	1	1	0	0	0.11676	0.20948	0.1423	0.22616	0.21408	0.092978	0.21472	0.14128	0.072549	0.1545	0.18386	0.18277	0.099087	0.17615	0.12216	0.24233	-1.6667	-2.7062	-2.0292	-2.1083	-2.7417	-2.0312	-2.4688	-2.6771	-1.9354	-2.8875	-2.2083	-2.1104	-2.7979	-1.9333	-2.5667	-2.675	-97.059	60.957	175.323	-63.589	-63.116	-86.412	137.589	-118.672	127.599	-18.182	150.948	-51.486	-113.128	-15.660	64.653	96.247	0.0002494	0.00068611	0.00052447	468.94	1.2868e-05	1.8091e-05	550.68	160.66	1.143e-05	1.6374e-05	224.49	90.971	66.048	31.003	3.4069e-06	41.01	0.011378	0.02033	0.0053548	517.17	0.00018083	0.0002052	603.19	178.75	0.00017232	0.00019723	326.2	100.72	76.649	34.15	0.00017985	44.956	-75.600	85.405	103.515	-140.112	-13.909	-95.995	-140.497	-133.944	52.500	-34.031	-136.024	-131.976	-129.647	-124.833	-6.283	-128.302	-8191	255	
1019.521	1	1	0	0	0.10386	0.27492	0.35054	0.077486	0.15731	0.26851	0.11946	0.057276	0.12175	0.19184	0.093049	0.20699	0.12582	0.082192	0.22601	0.23481	-1.5521	-2.6417	-2.1146	-2.0958	-2.7562	-1.9958	-2.4229	-2.5354	-1.7292	-2.4938	-2.2313	-2.2417	-2.8333	-2.0604	-2.4375	-2.7	172.542	179.494	7.903	-138.662	191.883	192.367	133.291	177.466	86.630	51.748	-58.211	-113.551	-114.098	66.276	59.223	-117.672	0.00030062	0.001079	1.4153e-05	458.89	9.7969e-06	3.4369e-06	557.92	170.28	1.4051e-05	9.385e-06	243.36	94.619	70.088	30.042	5.7739e-06	38.316	0.0096186	0.01799	0.0049428	503.83	0.00017708	0.00020255	611.29	188.17	0.00018077	0.00020838	354.91	105.92	82.059	33.871	0.00022743	44.183	-87.787	-105.637	133.561	-139.923	-20.063	-82.832	-140.616	-134.106	121.905	23.245	-136.544	-131.812	-129.678	-125.247	66.772	-127.899	-8191	255	
#DATA ENDS
