BOXY.EXE: ISS Imagent and Oximeter Data Acquisition Program Version 0.80
Ascii Record File

#ACQ INFORMATION
2  Detector Channels 
16  External MUX Channels 
1  Auxiliary Channels 
5000  Waveform (CCF) Frequency (Hz)
1  Waveforms Skipped 
30  Waveforms Averaged 
1  Cycles Averaged 
16  Acquisitions per Waveform 
10.0806  Updata Rate (Hz) 

#FILE INFORMATION
TRUE -- External MUX Channel results are PARSED.
FALSE -- AC DC and Phase are NOT grouped.
TRUE -- Companion Program Settings File CREATED.
FALSE -- AC data not excluded
FALSE -- DC data not excluded
FALSE -- Phase data not excluded
FALSE -- Auxillary Chn. data not excluded
Tab delimiters

#CALIBRATION STATE
TRUE -- Waveform Calibration Values APPLIED.


#AUX CALIBRATION VALUES
Val Type	aux-1	

Term	1.0000e+00	
Factor	0.0000e+00	


#WF CALIBRATION VALUES
A = Detector Channel
Val Type	A-AC1	A-AC2	A-AC3	A-AC4	A-AC5	A-AC6	A-AC7	A-AC8	A-AC9	A-AC10	A-AC11	A-AC12	A-AC13	A-AC14	A-AC15	A-AC16	A-DC1	A-DC2	A-DC3	A-DC4	A-DC5	A-DC6	A-DC7	A-DC8	A-DC9	A-DC10	A-DC11	A-DC12	A-DC13	A-DC14	A-DC15	A-DC16	A-Ph1	A-Ph2	A-Ph3	A-Ph4	A-Ph5	A-Ph6	A-Ph7	A-Ph8	A-Ph9	A-Ph10	A-Ph11	A-Ph12	A-Ph13	A-Ph14	A-Ph15	A-Ph16	

Term	0.00000e+00	0.00000e+00	0.00000e+00	0.00000e+00	0.00000e+00	0.00000e+00	0.00000e+00	0.00000e+00	0.00000e+00	0.00000e+00	0.00000e+00	0.00000e+00	0.00000e+00	0.00000e+00	0.00000e+00	0.00000e+00	0.00000e+00	0.00000e+00	0.00000e+00	0.00000e+00	0.00000e+00	0.00000e+00	0.00000e+00	0.00000e+00	0.00000e+00	0.00000e+00	0.00000e+00	0.00000e+00	0.00000e+00	0.00000e+00	0.00000e+00	0.00000e+00	0.00000e+00	0.00000e+00	0.00000e+00	0.00000e+00	0.00000e+00	0.00000e+00	0.00000e+00	0.00000e+00	0.00000e+00	0.00000e+00	0.00000e+00	0.00000e+00	0.00000e+00	0.00000e+00	0.00000e+00	0.00000e+00	
Factor	1.00000e+00	1.00000e+00	1.00000e+00	1.00000e+00	1.00000e+00	1.00000e+00	1.00000e+00	1.00000e+00	1.00000e+00	1.00000e+00	1.00000e+00	1.00000e+00	1.00000e+00	1.00000e+00	1.00000e+00	1.00000e+00	1.00000e+00	1.00000e+00	1.00000e+00	1.00000e+00	1.00000e+00	1.00000e+00	1.00000e+00	1.00000e+00	1.00000e+00	1.00000e+00	1.00000e+00	1.00000e+00	1.00000e+00	1.00000e+00	1.00000e+00	1.00000e+00	X	X	X	X	X	X	X	X	X	X	X	X	X	X	X	X	

B = Detector Channel
Val Type	B-AC1	B-AC2	B-AC3	B-AC4	B-AC5	B-AC6	B-AC7	B-AC8	B-AC9	B-AC10	B-AC11	B-AC12	B-AC13	B-AC14	B-AC15	B-AC16	B-DC1	B-DC2	B-DC3	B-DC4	B-DC5	B-DC6	B-DC7	B-DC8	B-DC9	B-DC10	B-DC11	B-DC12	B-DC13	B-DC14	B-DC15	B-DC16	B-Ph1	B-Ph2	B-Ph3	B-Ph4	B-Ph5	B-Ph6	B-Ph7	B-Ph8	B-Ph9	B-Ph10	B-Ph11	B-Ph12	B-Ph13	B-Ph14	B-Ph15	B-Ph16	

Term	0.00000e+00	0.00000e+00	0.00000e+00	0.00000e+00	0.00000e+00	0.00000e+00	0.00000e+00	0.00000e+00	0.00000e+00	0.00000e+00	0.00000e+00	0.00000e+00	0.00000e+00	0.00000e+00	0.00000e+00	0.00000e+00	0.00000e+00	0.00000e+00	0.00000e+00	0.00000e+00	0.00000e+00	0.00000e+00	0.00000e+00	0.00000e+00	0.00000e+00	0.00000e+00	0.00000e+00	0.00000e+00	0.00000e+00	0.00000e+00	0.00000e+00	0.00000e+00	-2.34514e+02	-1.29768e+02	-1.30127e+02	-1.84443e+02	-8.22941e+01	-6.40824e+01	-1.56720e+02	-1.62015e+02	-7.26260e+01	-6.78743e+01	-1.72091e+02	-1.69816e+02	-1.86035e+02	-1.76734e+02	-7.55040e+01	-1.49635e+02	
Factor	5.55501e-05	1.82107e-04	4.65506e-05	3.36067e-01	2.21863e-06	2.08987e-06	1.79340e-01	5.49720e-02	3.07935e-06	1.85942e-06	9.27168e-02	3.06035e-02	5.57620e-02	9.79774e-03	2.10663e-06	1.41981e-02	8.47988e-06	1.03975e-05	2.90508e-06	1.65852e-01	1.11247e-07	1.15048e-07	8.36732e-02	2.73498e-02	1.08864e-07	1.14871e-07	4.47458e-02	1.47719e-02	2.76586e-02	4.92130e-03	1.11357e-07	6.90630e-03	X	X	X	X	X	X	X	X	X	X	X	X	X	X	X	X	



#DISTANCE SETTINGS
A = Detector Channel
A-1	A-2	A-3	A-4	A-5	A-6	A-7	A-8	A-9	A-10	A-11	A-12	A-13	A-14	A-15	A-16	

2.5000e+00	3.0000e+00	2.5000e+00	3.0000e+00	2.0000e+00	3.0000e+00	1.5000e+00	3.0000e+00	3.0000e+00	3.0000e+00	3.0000e+00	3.0000e+00	3.0000e+00	3.0000e+00	1.5000e+00	3.0000e+00	

B = Detector Channel
B-1	B-2	B-3	B-4	B-5	B-6	B-7	B-8	B-9	B-10	B-11	B-12	B-13	B-14	B-15	B-16	

1.0000e+01	1.0000e+01	1.0000e+01	1.4400e+00	1.0000e+01	1.0000e+01	1.5100e+00	1.9400e+00	1.0000e+01	1.0000e+01	1.9900e+00	2.4900e+00	2.4100e+00	2.9000e+00	1.0000e+01	2.9800e+00	




#DATA BEGINS
time	group	step	mark	flag	A-AC1	A-AC2	A-AC3	A-AC4	A-AC5	A-AC6	A-AC7	A-AC8	A-AC9	A-AC10	A-AC11	A-AC12	A-AC13	A-AC14	A-AC15	A-AC16	A-DC1	A-DC2	A-DC3	A-DC4	A-DC5	A-DC6	A-DC7	A-DC8	A-DC9	A-DC10	A-DC11	A-DC12	A-DC13	A-DC14	A-DC15	A-DC16	A-Ph1	A-Ph2	A-Ph3	A-Ph4	A-Ph5	A-Ph6	A-Ph7	A-Ph8	A-Ph9	A-Ph10	A-Ph11	A-Ph12	A-Ph13	A-Ph14	A-Ph15	A-Ph16	B-AC1	B-AC2	B-AC3	B-AC4	B-AC5	B-AC6	B-AC7	B-AC8	B-AC9	B-AC10	B-AC11	B-AC12	B-AC13	B-AC14	B-AC15	B-AC16	B-DC1	B-DC2	B-DC3	B-DC4	B-DC5	B-DC6	B-DC7	B-DC8	B-DC9	B-DC10	B-DC11	B-DC12	B-DC13	B-DC14	B-DC15	B-DC16	B-Ph1	B-Ph2	B-Ph3	B-Ph4	B-Ph5	B-Ph6	B-Ph7	B-Ph8	B-Ph9	B-Ph10	B-Ph11	B-Ph12	B-Ph13	B-Ph14	B-Ph15	B-Ph16	aux-1	digaux	

2576.928	1	1	0	512	0.26179	0.087887	0.19119	0.14702	0.1813	0.16437	0.14474	0.29972	0.093784	0.15391	0.3918	0.16378	0.18839	0.23054	0.20384	0.25789	-2.875	-2.7354	-2.8083	-3.2062	-2.6854	-3.2021	-3.225	-2.925	-3.0083	-3	-3.075	-3.2583	-2.8125	-3.1688	-3.1562	-2.7479	55.000	-35.488	100.972	214.724	74.344	279.030	259.845	160.725	196.440	97.624	218.107	161.503	158.890	-36.256	144.926	234.846	0.00039736	0.0022907	0.00012438	822.65	4.738e-06	2.6144e-05	1176.2	227.78	1.9105e-05	1.1146e-05	364.14	145.67	67.103	26.43	1.2365e-05	70.003	0.026794	0.032548	0.0090603	1299	0.00034251	0.00035536	1382.8	301.23	0.00033598	0.00035366	488.69	186.62	149.41	40.653	0.00034239	88.72	94.842	242.506	138.590	-46.642	-27.711	145.038	-47.242	-42.584	66.671	205.406	-42.813	-38.231	-38.236	-33.528	168.662	-34.249	-8191	255	
2577.047	1	1	0	0	0.1728	0.1421	0.1905	0.074366	0.058665	0.12506	0.20455	0.18938	0.18005	0.15751	0.25001	0.18358	0.13086	0.1428	0.10872	0.36813	-2.7083	-2.9625	-2.7896	-3.2625	-2.75	-3.1104	-3.3542	-2.8854	-3.2708	-3.0146	-3.1042	-3.3354	-2.85	-3.1208	-3.1688	-2.9271	189.021	117.264	55.523	294.736	259.571	-53.224	165.087	247.936	16.088	288.980	-32.159	204.288	101.927	2.655	28.914	201.996	0.00060739	0.0031739	0.00027552	819.23	1.9125e-05	9.7094e-06	1173	225.55	2.8675e-05	1.1142e-05	364.14	146.03	67.428	26.287	2.5128e-05	69.4	0.025897	0.031449	0.0087231	1278.8	0.00033079	0.00034322	1371.6	299	0.00032892	0.00034843	484.47	185.61	148.61	40.439	0.00033949	88.017	59.036	10.863	78.007	-46.931	161.223	294.174	-47.179	-42.538	223.598	1.542	-42.563	-38.059	-37.809	-33.424	58.574	-34.143	-8191	255	
2577.143	1	1	0	0	0.09917	0.057907	0.11649	0.093158	0.46898	0.12543	0.11374	0.19992	0.26139	0.19639	0.15191	0.19059	0.16052	0.089989	0.15648	0.09714	-2.6688	-2.9271	-2.9333	-3.175	-2.9437	-3.1396	-3.3292	-2.8333	-3.1667	-3.0583	-2.8292	-3.2146	-2.9688	-3.0687	-3.3354	-3.0896	175.261	-27.444	178.241	272.478	-0.882	8.004	177.599	195.380	105.758	133.381	216.319	285.970	-52.318	228.230	197.193	-45.771	0.00079615	0.0026688	0.00075635	816.34	1.0262e-05	2.8767e-05	1168.6	225.01	1.2652e-05	2.2494e-05	363.62	145.81	67.274	26.072	1.0091e-05	69.456	0.026049	0.031648	0.008794	1286.5	0.00034036	0.00035433	1376.1	301.24	0.00034013	0.00036139	487.35	186.91	151.22	40.814	0.0003509	88.885	30.365	49.064	-28.194	-46.741	28.149	24.410	-47.407	-42.794	108.992	111.868	-42.701	-38.450	-38.009	-33.592	5.894	-34.381	-8191	255	
2577.239	1	1	0	0	0.097761	0.112	0.15026	0.16975	0.075244	0.31116	0.15397	0.098758	0.18851	0.2029	0.10073	0.16537	0.25598	0.26159	0.084791	0.17551	-2.6583	-3.1542	-3.0458	-3.3396	-2.9292	-2.9333	-3.3104	-2.9958	-3.1479	-3.0771	-2.9208	-3.3438	-3.0021	-3.0479	-3.2375	-2.9917	119.197	-2.970	-55.586	105.862	216.947	15.782	216.675	205.943	82.704	184.479	-15.472	142.749	34.743	209.369	129.315	-26.691	0.001396	0.0010943	0.00025092	812.59	2.4491e-06	2.5522e-05	1163	224.23	2.7937e-05	1.077e-05	364.25	144.93	66.369	26.073	1.8021e-05	69.707	0.026891	0.032673	0.0091153	1298.8	0.00035219	0.0003655	1384.4	302.71	0.00034934	0.00036898	490.84	187.4	152.14	40.883	0.0003537	89.231	59.250	151.244	225.300	-47.226	196.966	13.554	-47.221	-42.019	244.902	-26.991	-42.697	-38.067	-38.468	-33.353	0.570	-34.128	-8191	255	
2577.335	1	1	0	0	0.30143	0.1498	0.15224	0.21747	0.32249	0.085524	0.20348	0.14493	0.2852	0.18196	0.27548	0.39033	0.19298	0.1562	0.028988	0.46587	-2.5896	-3.2104	-2.7146	-3.2875	-2.9437	-2.9062	-3.3729	-2.8875	-3.0229	-3.225	-3.0167	-3.25	-3.1562	-3	-3.1625	-3.1167	173.107	228.206	180.874	229.299	-57.175	-51.086	223.622	262.045	-58.876	97.987	-31.796	274.864	65.153	138.135	192.506	-58.211	0.00021277	0.0014391	0.00041006	813.41	3.6366e-06	1.9181e-05	1167.7	225.15	1.7617e-05	3.2782e-05	361.2	145.55	67.246	26.172	2.4476e-05	69.494	0.027273	0.033429	0.0094004	1322.6	0.0003661	0.00038017	1397.1	306.52	0.00036468	0.00038619	498	189.88	156.36	41.63	0.0003733	90.613	208.065	-20.078	26.008	-46.980	284.061	115.662	-47.403	-42.521	61.223	-42.477	-42.763	-38.115	-37.761	-33.662	119.116	-33.941	-8191	255	
2577.431	1	1	0	0	0.025337	0.19605	0.12999	0.19858	0.072256	0.046229	0.22869	0.051685	0.10073	0.29939	0.14807	0.33517	0.073151	0.24564	0.1571	0.12903	-2.6458	-3.1646	-2.8333	-3.1875	-3.1813	-2.9042	-3.4646	-3.1188	-3.1708	-3.1479	-3.2062	-3.3312	-3.1792	-2.9729	-3.275	-3.2562	89.716	-14.605	160.043	14.502	-60.303	45.486	227.868	-49.823	-40.279	-22.679	256.686	226.894	296.761	206.540	224.430	299.390	0.00054404	0.0012583	0.00047126	810.16	1.6443e-05	1.6866e-05	1170.3	224.85	1.2333e-05	2.2695e-06	363.35	145.14	66.189	25.763	1.1702e-05	69.136	0.028618	0.034988	0.0098058	1342.6	0.00037838	0.00039005	1404.7	307.91	0.00036882	0.00038945	499.4	190.26	158.59	42.177	0.00039049	91.466	48.855	297.641	2.364	-47.547	177.141	43.147	-47.367	-42.361	57.157	16.092	-43.009	-38.244	-37.127	-33.606	297.868	-33.793	-8191	255	
2577.527	1	1	0	0	0.09131	0.063305	0.10481	0.073071	0.27228	0.23909	0.19036	0.21608	0.31557	0.1364	0.1098	0.30624	0.15419	0.24558	0.15045	0.25272	-2.6125	-3.3125	-2.9979	-3.1312	-3.1292	-2.925	-3.4437	-3.125	-3.0979	-3.1667	-3.1396	-3.125	-3.1896	-3.1146	-3.3937	-3.35	151.103	117.940	69.053	248.978	215.294	41.942	254.425	270.459	231.680	267.252	15.712	249.381	286.317	135.946	30.856	247.646	0.00085177	0.0020033	0.0003821	814.5	3.4143e-06	1.0299e-05	1164	225.05	3.1049e-05	1.216e-05	359.96	144.68	65.137	25.817	2.4909e-05	69.454	0.030012	0.036903	0.010316	1367.9	0.00039754	0.00040907	1417.5	312.86	0.0003874	0.00041328	508.46	193.44	164.03	43.097	0.0004125	92.714	20.976	-20.880	-39.171	-46.747	-51.860	-8.754	-47.176	-42.628	158.908	179.115	-42.741	-38.342	-39.506	-33.474	-4.168	-33.873	-8191	255	
2577.648	1	1	0	0	0.34509	0.38197	0.26392	0.20547	0.28149	0.072391	0.24882	0.20496	0.088491	0.1053	0.15693	0.10477	0.049353	0.30712	0.10977	0.24558	-2.7479	-3.1063	-3.0167	-3.2625	-3.0667	-2.875	-3.2604	-3.2167	-3.0729	-3.2313	-3.0646	-3.125	-3.3563	-2.9813	-3.2604	-3.0854	124.040	292.909	90.034	-40.423	180.266	-52.334	204.179	212.483	243.039	-6.012	-33.357	227.609	-57.449	-46.600	211.946	222.119	0.00057043	0.0014256	0.00015139	819.38	7.0724e-06	1.5949e-05	1173	224.55	3.666e-05	2.2277e-05	359.83	144.56	65.551	25.98	8.3199e-06	69.105	0.031742	0.039061	0.010973	1408.1	0.00042359	0.00043894	1445.5	319.55	0.00041638	0.0004404	517.72	195.48	168.07	43.736	0.00042542	93.159	83.565	2.450	190.610	-46.553	89.991	12.626	-47.583	-42.329	87.529	32.222	-42.585	-38.207	-38.771	-33.074	-28.618	-34.019	-8191	255	
2577.742	1	1	0	0	0.24591	0.16944	0.2527	0.049197	0.20293	0.1729	0.42468	0.28777	0.054613	0.14727	0.11326	0.14226	0.14541	0.17342	0.075586	0.30647	-2.6604	-3.3438	-2.8479	-3.1104	-3.2812	-3.1063	-3.5312	-3.2146	-3.0292	-3.2229	-3.2062	-3.1833	-3.2854	-3.2062	-3.3187	-3.4	203.620	66.196	18.616	119.444	230.956	224.125	242.944	151.781	35.844	3.169	26.910	54.666	74.004	-24.497	183.550	282.019	0.00019462	0.00094077	0.00097877	812.82	7.6834e-06	2.98e-05	1169.6	224.77	3.1833e-05	1.1986e-05	362.68	144.43	66.035	25.781	1.3845e-05	69.21	0.031889	0.039293	0.010911	1397.8	0.00041729	0.00043202	1438.7	316.92	0.00040657	0.00043201	516.44	194.61	165.54	43.172	0.00040877	92.112	207.849	-20.101	42.629	-46.784	273.467	182.510	-47.202	-42.847	-23.549	55.624	-42.906	-38.273	-37.967	-33.448	32.709	-34.582	-8191	255	
2577.838	1	1	0	0	0.063111	0.39268	0.14957	0.13707	0.050198	0.093349	0.1365	0.24753	0.13092	0.090777	0.33445	0.17009	0.096224	0.11697	0.19008	0.18381	-2.5167	-3.0312	-3.0354	-3.0271	-3.275	-2.9313	-3.3667	-3.1667	-2.8646	-3.4292	-3.2417	-3.0583	-3.4021	-2.85	-3.0667	-3.3979	0.593	13.478	220.490	67.896	-48.174	69.549	187.285	264.438	109.572	-33.508	191.976	258.658	235.314	150.055	45.830	285.436	0.0007368	0.0028994	0.0003	818.28	1.4018e-05	1.1652e-05	1171.3	223.5	3.2218e-05	1.1356e-05	363.01	145.17	66.091	25.924	7.0579e-06	68.993	0.030407	0.03734	0.01036	1367.2	0.00039578	0.00040917	1419.8	311.14	0.00038045	0.00040304	503.53	190.87	158.86	42.076	0.00038774	90.843	116.535	32.917	3.649	-47.081	243.094	163.728	-47.186	-42.463	20.074	292.080	-42.702	-38.361	-38.315	-33.813	74.102	-34.014	-8191	255	
2577.935	1	1	0	0	0.17574	0.14174	0.17971	0.035629	0.062789	0.19622	0.19937	0.092473	0.12464	0.28315	0.21352	0.092364	0.08479	0.071898	0.17386	0.45437	-2.6083	-3.2271	-3.0646	-2.9188	-3.2333	-3.1188	-3.1917	-3.175	-2.9146	-3.15	-3.3271	-2.9104	-3.2458	-3.175	-2.8375	-3.4125	216.676	9.664	32.248	273.763	24.645	114.914	277.554	162.214	219.746	283.877	297.782	242.645	298.898	155.389	119.789	234.343	0.0001424	0.0012101	0.00060237	806.57	3.9846e-05	1.1412e-05	1166.7	222.95	4.3623e-05	3.2104e-05	362.21	144.26	64.851	25.814	3.7505e-05	68.234	0.02992	0.03696	0.010307	1360.9	0.00039489	0.00040925	1416.1	309.55	0.00038169	0.00040446	503.42	190.11	159.83	42.155	0.00039417	90.985	52.176	106.240	137.537	-47.132	36.864	206.166	-47.452	-42.203	180.562	49.897	-42.473	-38.216	-38.249	-33.630	75.427	-34.041	-8191	255	
2578.031	1	1	0	0	0.12808	0.071301	0.10758	0.2576	0.18777	0.16804	0.11312	0.3861	0.11458	0.21341	0.17206	0.11349	0.062838	0.092057	0.24959	0.057259	-2.5229	-3.2	-2.9771	-2.9562	-3.2854	-3.1146	-3.0292	-3.3458	-3.0167	-3.1729	-3.3292	-3.0833	-3.2562	-3.1625	-3.1375	-3.575	-14.516	-35.778	197.744	144.552	0.706	266.337	-28.847	249.624	262.441	198.342	97.263	13.841	-39.458	282.886	235.131	165.914	0.0002128	0.00079822	0.00061281	808.66	2.6392e-05	1.3083e-05	1167.5	221.46	2.5528e-05	1.3559e-05	359.38	143.72	64.717	25.4	3.1246e-05	68.632	0.030526	0.037875	0.010685	1384.9	0.00041743	0.00043224	1433.5	314.04	0.00040257	0.00042429	509.24	191.99	164.03	42.789	0.00040741	91.94	-2.294	44.863	264.561	-46.967	177.753	236.347	-47.021	-42.565	-16.148	61.156	-42.698	-38.106	-37.759	-33.410	10.573	-34.380	-8191	255	
2578.127	1	1	0	0	0.18011	0.15043	0.10174	0.33966	0.19343	0.26816	0.15663	0.056013	0.25349	0.14309	0.16813	0.16597	0.12017	0.13278	0.065343	0.091747	-2.6813	-3.0229	-3.075	-3.0208	-3.2917	-3.0875	-3.3229	-3.3917	-3.0896	-3.1667	-3.2625	-3.1542	-3.1521	-3.025	-3.0479	-3.3438	29.193	27.656	35.361	-11.908	280.594	-23.622	294.245	-44.629	239.489	115.215	-25.912	222.726	50.320	237.043	211.853	-31.485	0.00085534	0.0011297	0.0010455	803.07	2.201e-06	1.9393e-05	1162.2	219.49	1.9291e-05	2.0088e-05	361.62	143.23	65.476	25.805	9.2849e-06	69.226	0.031685	0.039249	0.011005	1396.6	0.00042587	0.00043921	1434.4	315.65	0.00041638	0.00044078	517.23	195.33	169.57	43.95	0.00043151	93.939	91.429	232.002	41.331	-46.751	116.259	-38.726	-47.311	-42.580	46.314	165.501	-42.597	-38.396	-38.066	-33.617	207.443	-34.074	-8191	255	
2578.223	1	1	0	0	0.059775	0.021608	0.27919	0.26971	0.052379	0.079137	0.18378	0.33714	0.22211	0.28861	0.1923	0.24559	0.26763	0.3117	0.18538	0.26007	-2.375	-3.1	-3.2896	-3.0979	-3.2104	-2.9583	-3.2083	-3.1458	-2.9771	-2.9562	-3.2938	-3.2687	-3.2438	-3.1125	-2.9833	-3.5979	136.124	259.749	-35.138	193.372	277.952	281.795	-52.854	143.266	-2.659	85.350	269.286	146.015	116.994	101.795	105.002	208.146	0.000323	0.0010913	0.00037382	799.17	2.3315e-05	1.1384e-05	1157.2	220.26	1.8151e-05	1.4813e-05	358.77	144.38	65.494	26.023	2.1726e-05	69.407	0.032941	0.04018	0.011076	1384.2	0.00041608	0.00042345	1412.7	308.99	0.00038584	0.00040656	504.94	191.8	162.69	42.954	0.00040885	93.106	115.448	-9.058	-15.233	-46.614	80.176	143.663	-47.087	-42.437	161.515	136.617	-43.088	-38.312	-38.220	-33.377	295.332	-34.377	-8191	255	
2578.319	1	1	0	0	0.17314	0.09401	0.15221	0.17076	0.098852	0.14494	0.13872	0.22389	0.10405	0.061202	0.31549	0.24678	0.11381	0.07909	0.36681	0.16726	-2.6729	-2.9542	-3.0958	-3.1042	-3.2333	-3.0667	-3.0229	-3.2229	-3.0354	-3.1458	-3.5875	-3.0312	-3.0979	-3.1813	-2.8542	-3.4188	283.899	178.147	-50.215	189.919	34.551	186.322	249.492	196.334	-9.766	173.919	-42.341	294.967	122.911	113.159	-59.861	-19.967	0.00098615	0.0015563	0.00030601	795.71	2.2801e-05	4.92e-05	1155.9	220.01	1.8945e-05	6.6564e-06	359.99	144.87	64.876	25.985	3.1346e-05	69.363	0.031734	0.039054	0.010945	1387.1	0.00041873	0.00042996	1419.4	312.95	0.00040836	0.00043184	514.91	195.15	168.43	43.882	0.00042696	94.076	19.823	208.078	171.128	-46.813	22.560	84.631	-47.264	-42.366	-11.970	229.527	-42.678	-38.420	-37.831	-33.634	182.006	-34.233	-8191	255	
2578.440	1	1	0	0	0.1579	0.054074	0.095409	0.22345	0.17737	0.1657	0.28664	0.1522	0.18821	0.31896	0.085111	0.13998	0.16055	0.13233	0.28083	0.081805	-2.7062	-2.9688	-3.3021	-3.0812	-3.2208	-3.3229	-3.05	-3.3187	-3.075	-2.9021	-3.3521	-3.0083	-3.1021	-3.2042	-2.7229	-3.325	190.907	119.382	288.868	7.567	-47.426	110.362	274.548	203.615	34.318	160.932	10.016	164.211	295.215	17.508	75.817	11.245	0.0012617	0.0012702	7.8584e-05	802.14	1.9375e-05	8.1397e-06	1163.7	219.6	2.5288e-05	1.5801e-05	359.82	142.95	64.67	25.546	3.2342e-05	68.751	0.033442	0.041118	0.011555	1423.9	0.00044351	0.00045882	1448.2	320.44	0.00043229	0.00045238	521.98	196.38	170.75	44.058	0.00042905	93.47	44.940	-33.500	267.748	-47.223	58.500	98.081	-47.399	-42.234	210.088	13.712	-42.861	-38.490	-38.042	-33.718	141.026	-34.316	-8191	255	
2578.536	1	1	0	0	0.16823	0.10989	0.19309	0.12593	0.14061	0.2601	0.20295	0.11998	0.21793	0.11244	0.07561	0.23149	0.10656	0.14038	0.21154	0.28109	-2.7687	-2.7687	-3.1646	-3.1042	-3.1417	-3.2125	-2.9479	-3.2938	-3.1333	-2.9396	-3.5708	-3.0583	-3.125	-3.2333	-2.9146	-3.175	54.833	239.445	5.909	-28.004	204.823	25.798	270.198	232.812	57.427	3.013	95.491	160.449	28.769	19.646	76.471	224.343	0.00063183	0.0012438	0.00029702	789.03	1.2515e-05	2.4263e-05	1167.4	219.43	5.1686e-05	3.7523e-05	358.54	143.52	64.676	25.482	8.9438e-06	68.448	0.032382	0.039489	0.011085	1396.5	0.00042727	0.00044604	1444	318.58	0.0004327	0.00046042	527.01	197.61	172.94	44.263	0.00044201	93.919	27.390	155.938	254.311	-47.123	-37.916	-55.420	-47.397	-42.374	172.060	125.065	-42.665	-38.210	-38.170	-33.945	188.954	-33.988	-8191	255	
2578.608	1	1	0	0	0.090179	0.082069	0.10323	0.16735	0.14831	0.096294	0.062213	0.090548	0.14189	0.13628	0.36652	0.20019	0.2341	0.32757	0.12921	0.074107	-2.8312	-2.9021	-3.2354	-2.8667	-3.1146	-3.4146	-3.0875	-3.2417	-3.2625	-3.0792	-3.3563	-3.0958	-3.0417	-3.2833	-2.8917	-3.3542	-0.404	-8.453	65.296	282.859	60.279	215.417	258.427	78.553	238.571	4.671	217.731	0.216	272.440	243.822	145.839	274.651	0.00054259	0.0024717	0.00021253	800.79	9.4937e-06	1.6186e-05	1172.5	217.57	2.4214e-05	1.328e-05	362.35	142.14	64.5	25.308	2.7817e-05	68.1	0.033455	0.040963	0.011562	1425.8	0.00044814	0.00046817	1461.8	320.41	0.00043965	0.00046075	524.4	195.41	168.46	43.182	0.00041796	91.959	53.356	-12.390	67.123	-47.245	270.420	133.593	-47.341	-42.637	8.487	-51.926	-42.919	-38.253	-38.434	-33.615	49.501	-34.267	-8191	255	
2578.728	1	1	0	0	0.17488	0.25683	0.23612	0.14365	0.1599	0.086921	0.054787	0.13966	0.21195	0.22389	0.18696	0.21199	0.066993	0.1583	0.046469	0.14173	-2.8458	-2.9604	-3.1375	-3.0604	-3.0271	-3.3438	-3.1937	-3.1562	-3.0979	-3.025	-3.1854	-3.0958	-2.8604	-3.1583	-3.0812	-3.1979	92.107	251.034	180.016	90.362	286.392	176.117	-20.236	293.231	110.092	-58.967	143.294	-35.757	248.289	189.311	137.717	212.035	0.00089261	0.00077532	0.00010859	794.31	2.487e-05	1.1222e-05	1163.2	214.44	3.2748e-06	1.5139e-05	358.22	141.89	63.826	24.72	1.0106e-05	66.246	0.031695	0.038901	0.011011	1385.3	0.00042077	0.00043333	1424	306.84	0.00038706	0.00039744	495.1	185.35	151.55	39.918	0.00036483	87.11	62.937	177.563	118.420	-47.306	-9.570	-57.085	-47.345	-42.611	27.412	102.404	-42.361	-38.351	-38.496	-33.382	130.888	-34.076	-8191	255	
2578.823	1	1	0	0	0.21889	0.15598	0.09028	0.17011	0.042549	0.097193	0.092909	0.18416	0.19427	0.20174	0.083834	0.10793	0.11004	0.34524	0.17707	0.15354	-2.85	-2.9813	-3.2354	-3.0812	-3.1271	-3.2313	-3.1125	-3.1208	-3.1188	-3.0958	-3.2438	-3.1937	-2.925	-3.3	-2.9729	-2.9729	129.734	-41.275	229.320	-31.736	154.568	79.657	284.789	144.998	41.130	253.035	162.074	286.261	83.454	-9.308	92.637	-44.006	0.00083248	0.0032574	0.00035432	787.8	1.4418e-06	1.4933e-05	1168.5	213.28	4.884e-05	1.5938e-05	355.59	139.59	62.642	24.718	2.498e-05	66.326	0.028304	0.034834	0.0098997	1317.4	0.00037819	0.00039614	1406.2	300.01	0.00037994	0.0004053	502.12	188.66	163.23	42.434	0.00043022	91.348	10.599	-57.092	54.842	-47.118	36.935	51.455	-47.209	-42.671	183.099	219.678	-42.837	-38.328	-37.153	-33.535	57.126	-33.936	-8191	255	
2578.921	1	1	0	0	0.20494	0.16663	0.20765	0.14312	0.10704	0.19654	0.12526	0.18137	0.17216	0.16164	0.36552	0.18771	0.05172	0.25658	0.13747	0.25084	-2.8854	-2.8812	-3.0458	-3.2229	-2.8937	-3.225	-3.1292	-3.0062	-3.2521	-2.8688	-3.1042	-3.2458	-3.0125	-3.2667	-3.0792	-3.0771	33.455	-20.745	109.458	178.861	86.000	56.623	299.540	17.436	252.573	12.314	252.457	242.364	297.952	120.276	-17.477	171.996	0.00051572	0.0017377	0.00036868	786.82	3.9753e-05	2.2092e-05	1163	213.74	3.8708e-06	1.4975e-05	353.87	140.12	62.205	24.351	1.0627e-05	66.139	0.033443	0.041249	0.011563	1409.6	0.00043979	0.00045977	1451.1	314.42	0.00043683	0.00046508	521.41	194.71	171.63	43.503	0.00044743	92.192	-6.342	252.536	74.074	-46.952	111.931	10.335	-47.353	-42.374	245.643	292.321	-42.684	-38.235	-37.317	-33.581	279.074	-34.165	-8191	255	
2579.039	1	1	0	0	0.14433	0.074093	0.14173	0.13125	0.10979	0.26752	0.19867	0.18519	0.11918	0.15194	0.056942	0.32392	0.16339	0.25169	0.14006	0.20783	-2.825	-2.9104	-2.8542	-3.1937	-3.0792	-3.1729	-3.1729	-3.1437	-3.3646	-3.1333	-3.0312	-3.4	-2.95	-3.1375	-3.0687	-3.0625	-4.173	61.493	41.814	165.026	189.508	154.436	232.651	259.479	-34.098	270.698	-11.599	-25.272	251.304	291.652	4.919	-8.681	0.00035068	0.0024649	7.2285e-05	781.91	4.0451e-05	2.3396e-05	1166.3	214.24	9.8306e-06	1.6006e-05	352.12	139.6	63.546	24.371	2.0768e-05	66.587	0.034353	0.042391	0.012003	1439.8	0.00046461	0.00048323	1472	317.16	0.00044692	0.00046559	517.51	192.04	165.42	42.061	0.00041194	89.737	89.144	34.825	130.284	-47.053	7.382	227.026	-47.395	-42.440	114.600	119.254	-43.075	-38.309	-38.460	-33.130	122.050	-34.268	-8191	255	
2579.136	1	1	0	0	0.28632	0.31002	0.1256	0.098819	0.041486	0.15724	0.3132	0.14955	0.11676	0.10983	0.11756	0.12956	0.32797	0.046087	0.13003	0.14303	-2.8292	-2.9188	-2.9313	-3.3146	-2.9125	-3.2438	-3.4375	-2.9854	-3.1625	-3.2375	-3.0062	-3.3417	-2.8542	-3.0917	-3.3271	-3.0208	238.819	113.192	168.279	257.374	266.492	82.955	266.577	-50.561	230.577	80.308	-28.483	202.339	24.464	19.797	255.774	270.896	0.00061141	0.0011506	0.00067175	784.27	1.3264e-05	2.1598e-05	1160.4	212.1	1.6059e-05	1.3872e-05	351.11	139.08	61.591	24.443	4.5856e-06	66.022	0.031537	0.03859	0.010777	1364.3	0.00041188	0.00042494	1417.2	301.21	0.00038868	0.00040718	495.09	185.65	155.63	40.621	0.00038995	88.429	14.992	25.739	41.107	-47.635	280.954	201.421	-47.356	-42.636	7.358	50.840	-42.650	-38.114	-38.447	-33.636	2.822	-34.107	-8191	255	
2579.232	1	1	0	0	0.22048	0.13564	0.033903	0.13251	0.26799	0.25599	0.17073	0.14967	0.17685	0.26602	0.11166	0.15488	0.1874	0.11866	0.30621	0.19096	-2.8917	-2.8771	-2.9875	-3.2104	-3.0563	-3.1708	-3.2125	-2.8417	-3.1792	-3.2125	-3.0354	-3.4458	-2.8417	-3.075	-3.2479	-2.9396	39.758	150.573	167.419	-6.328	-22.735	111.048	171.676	-36.798	107.784	183.024	32.844	210.227	101.758	-22.399	190.581	95.723	0.00072483	0.00064236	0.00076811	778.17	1.6394e-05	1.1493e-05	1154.3	210.88	1.8674e-05	8.3863e-06	352.91	138.57	61.938	24.498	2.8178e-05	66.154	0.030441	0.03748	0.010565	1352.1	0.00040715	0.00042256	1416.6	302.34	0.00040142	0.00042203	503.21	188.9	161.68	41.954	0.00041826	90.344	85.898	283.016	-7.698	-47.852	222.183	203.716	-47.487	-42.798	230.245	-13.077	-43.061	-38.139	-37.321	-33.962	81.522	-34.374	-8191	255	
2579.328	1	1	0	0	0.1173	0.16491	0.089244	0.063898	0.066062	0.21572	0.0891	0.028441	0.29449	0.11312	0.17038	0.16947	0.14452	0.19338	0.070859	0.1695	-2.7354	-3.1396	-3.0021	-3.25	-2.9292	-3.0396	-3.4688	-2.9042	-2.9146	-3.15	-3.0354	-3.4958	-3.0021	-3.0875	-3.1292	-3.1271	156.637	193.371	0.871	105.738	183.293	-12.899	20.510	-36.044	-30.826	182.626	253.388	14.067	80.423	40.072	-57.347	109.275	0.00091394	0.001981	0.00037959	778.18	2.7757e-05	8.0158e-06	1148.8	210.37	5.7791e-05	1.1098e-05	351.92	140.08	63.115	24.514	9.2306e-06	67.075	0.032417	0.039418	0.011046	1370.2	0.00041758	0.00043088	1418.1	303.75	0.00040264	0.00042068	501.02	189.2	161.6	41.877	0.00041536	90.777	13.943	282.264	-17.249	-47.630	59.985	182.111	-47.293	-42.271	3.076	105.815	-42.722	-38.070	-37.989	-33.909	251.580	-34.309	-8191	255	
2579.424	1	1	0	0	0.11966	0.055766	0.1361	0.22584	0.31118	0.16375	0.2836	0.17952	0.28842	0.10668	0.14152	0.31115	0.15376	0.33646	0.12835	0.12904	-2.5625	-3.0979	-2.8958	-3.2125	-3.0417	-3.1708	-3.4188	-2.9875	-3.225	-3.2458	-3.1125	-3.375	-3.0979	-3.1125	-3.3104	-3.0833	-56.931	1.792	273.450	277.342	206.300	280.240	238.681	-56.383	83.165	95.009	226.840	232.297	-28.990	48.627	138.945	198.607	0.0010606	0.00055826	0.00073855	777.51	9.4248e-06	8.9625e-06	1158	211.19	4.9476e-05	1.2267e-05	354.37	139.06	63.018	24.194	8.4282e-06	65.854	0.032367	0.03975	0.011179	1387.3	0.00043565	0.00045705	1448.2	313.49	0.0004451	0.00047225	523.61	195.38	174.09	43.806	0.00046233	92.816	113.010	108.864	-35.172	-46.948	67.891	215.297	-47.238	-42.725	254.692	180.421	-42.569	-38.240	-37.649	-33.447	48.331	-34.144	-8191	255	
2579.520	1	1	0	0	0.022195	0.1134	0.16812	0.32394	0.1943	0.077044	0.10436	0.23133	0.28109	0.088603	0.37692	0.086029	0.20627	0.23901	0.274	0.23622	-2.5667	-3.2229	-2.8833	-3.2875	-2.9813	-3	-3.4917	-2.8896	-3.0563	-3.1521	-2.9354	-3.1896	-3.0438	-2.9979	-3.2771	-3.0812	79.724	-47.399	217.580	295.763	10.752	117.014	51.721	254.775	65.737	74.517	288.394	-13.013	247.859	-37.977	12.885	139.161	0.0015682	0.0032038	0.00069583	770.37	1.2592e-05	1.258e-05	1162.5	209.52	1.9562e-05	2.9936e-05	352.33	138.25	62.198	24.317	1.0207e-05	66.274	0.035425	0.04327	0.012014	1425.6	0.00044888	0.00045838	1438.8	305.94	0.00041188	0.00043259	504.8	188.61	162.17	41.678	0.00041394	89.775	96.601	168.996	226.893	-46.877	-7.933	128.315	-47.252	-42.903	36.332	256.969	-42.776	-37.838	-38.032	-33.450	29.520	-34.697	-8191	255	
2579.616	1	1	0	0	0.046461	0.06809	0.13203	0.031764	0.20098	0.088531	0.17325	0.1792	0.17117	0.017498	0.23089	0.067546	0.26153	0.14596	0.16218	0.29317	-2.5792	-3.1208	-2.8208	-3.3854	-3.0083	-3.0146	-3.5667	-3.1688	-2.8417	-3.4708	-3.0708	-3.4542	-3.0646	-2.9583	-3.2542	-3.125	275.420	-51.557	223.500	287.955	212.552	243.105	266.140	232.609	197.390	134.669	-16.883	246.781	-47.081	214.864	209.120	194.006	0.00015096	0.0016748	0.00059976	773.31	1.9525e-05	1.065e-05	1146	209.66	4.1303e-05	1.2095e-05	351.88	139.86	61.59	24.642	1.8868e-05	66.704	0.031324	0.037966	0.010455	1327.2	0.00038947	0.000397	1385.1	293.46	0.00036649	0.00038816	489.08	184.83	154.36	40.565	0.00038691	88.465	19.282	12.678	-33.579	-46.967	146.839	201.842	-47.464	-42.587	-41.436	288.055	-42.912	-38.271	-38.476	-33.538	92.916	-34.076	-8191	255	
2579.735	1	1	0	0	0.59726	0.16724	0.053823	0.1512	0.090652	0.17357	0.30001	0.115	0.057931	0.039844	0.089702	0.38571	0.16547	0.26427	0.34249	0.030276	-2.5125	-3.2271	-3.0583	-3.1	-3.1354	-3.0292	-3.2562	-2.9708	-3.0729	-3.3625	-3.0854	-3.1542	-3.2562	-3.0458	-3.1625	-3.0229	276.144	-30.827	98.662	159.011	-10.734	-18.504	203.651	269.383	241.687	137.669	87.666	272.230	-60.390	286.479	65.946	183.780	0.00041631	0.0020778	0.00044384	769.89	2.4286e-05	1.4475e-05	1147.5	208.73	3.3193e-05	2.3264e-05	349.87	139.33	62.349	24.579	1.052e-05	66.749	0.029327	0.035806	0.0099389	1300.7	0.00037681	0.00038758	1383.9	293.34	0.00037162	0.00039506	490.17	185.2	154.92	40.571	0.0003821	88.147	32.151	121.092	78.886	-46.512	205.231	72.444	-47.248	-42.663	77.438	-1.336	-42.628	-37.923	-37.686	-33.048	159.404	-34.371	-8191	255	
2579.831	1	1	0	0	0.15923	0.038923	0.054171	0.10318	0.17029	0.27109	0.30203	0.27772	0.26378	0.29613	0.13281	0.19579	0.080975	0.14286	0.21087	0.19957	-2.6292	-3.2687	-2.8563	-3.0146	-3.1104	-3.0938	-3.4771	-3.2083	-2.9542	-3.4021	-3.2458	-3.1833	-3.0792	-3.2062	-3.3042	-3.1542	194.826	237.707	48.722	5.823	-29.690	-19.237	232.096	-9.035	2.085	226.215	256.508	218.065	46.359	253.121	223.967	253.706	0.00034566	0.0013075	0.00019438	772.78	1.2562e-05	2.6566e-05	1146.1	208.16	2.8317e-05	3.5192e-05	354.18	139.73	61.8	24.692	2.5283e-05	66.886	0.028786	0.035129	0.0097826	1295.9	0.00037582	0.00038831	1383.1	293.35	0.00036781	0.00038793	488.46	184.06	151.56	39.882	0.00036288	87.107	94.323	107.422	88.984	-47.207	282.084	206.604	-47.355	-42.289	156.135	129.888	-42.739	-38.155	-38.664	-33.653	67.680	-34.092	-8191	255	
2579.905	1	1	0	0	0.10603	0.059911	0.03403	0.070781	0.13706	0.073606	0.13228	0.20172	0.18903	0.050964	0.31246	0.053448	0.1952	0.03737	0.16365	0.14643	-2.5896	-3.1542	-3.025	-3.0417	-3.1688	-2.925	-3.3104	-3.1	-3.0542	-3.1437	-3.0104	-3.2875	-3.2896	-2.9417	-3.1417	-3.2479	246.432	22.832	274.587	225.402	0.857	12.730	63.023	247.404	263.145	208.391	208.526	75.862	220.774	191.357	249.118	203.958	0.00014453	0.00062494	0.00016617	768.75	7.6114e-06	1.2264e-05	1145.9	210.2	5.3085e-05	2.055e-05	350.08	138.48	61.241	24.206	1.9015e-05	66.262	0.027397	0.033595	0.0093052	1267.5	0.00035696	0.00036974	1367.4	290.09	0.00035182	0.0003758	482.2	181.78	148.93	39.284	0.00035612	85.719	-20.941	210.714	89.762	-47.107	96.470	168.225	-47.701	-42.419	192.748	78.085	-42.940	-38.509	-38.485	-33.494	100.895	-34.395	-8191	255	
2580.001	1	1	0	0	0.22047	0.18905	0.1257	0.27887	0.28891	0.1583	0.075859	0.24625	0.15157	0.2068	0.20899	0.14002	0.019902	0.20232	0.18861	0.080885	-2.5792	-3.2604	-3.0583	-3.0438	-3.4792	-3.0479	-3.2438	-3.0792	-2.8854	-3.3646	-3.0833	-3.0271	-3.2938	-3.1229	-3.1417	-3.2042	181.947	288.095	-14.849	157.737	138.259	229.420	290.744	196.809	150.780	12.170	165.843	218.965	12.925	162.182	7.621	8.842	0.0009293	0.0014872	9.7078e-05	771.96	6.5495e-06	1.5289e-05	1143.2	211.96	8.5359e-06	6.2511e-06	354.75	139.12	62.753	24.169	2.2301e-05	65.495	0.02617	0.031568	0.0086361	1218.4	0.000315	0.00031563	1320.9	272.39	0.00026846	0.0002758	444.42	167.31	121.62	33.951	0.00023446	77.553	30.107	66.519	-28.624	-47.246	296.727	115.726	-47.341	-42.342	101.577	232.859	-42.830	-38.207	-37.982	-32.827	60.798	-34.291	-8191	255	
2580.120	1	1	0	0	0.30295	0.18223	0.034758	0.13327	0.0752	0.084791	0.12514	0.052915	0.068971	0.13484	0.11118	0.20496	0.096293	0.23518	0.035087	0.22894	-2.4917	-3.2021	-3.2104	-2.9938	-3.1208	-3.0125	-3.225	-3.3271	-2.9458	-3.0062	-3.1625	-3.1146	-3.1917	-2.9917	-3.1896	-3.1688	104.690	33.347	289.795	129.692	123.134	177.080	175.168	276.390	91.590	92.726	132.510	-48.285	234.955	-37.476	-52.928	243.684	0.00075877	0.00069738	0.00025608	785.49	2.8064e-05	1.6552e-05	1159.7	215.08	2.7219e-05	2.0598e-05	355.25	140.07	62.708	24.23	1.1682e-05	65.893	0.016824	0.019897	0.0054178	1047.2	0.00020265	0.00020674	1257.5	254.21	0.00019453	0.0002052	419.56	159.99	107.32	31.563	0.00018097	74.459	42.991	202.987	103.298	-46.923	76.471	203.642	-47.126	-42.647	104.387	104.651	-42.838	-38.013	-38.052	-33.547	239.714	-33.999	-8191	255	
2580.216	1	1	0	0	0.048159	0.12051	0.20284	0.025457	0.2824	0.12737	0.36064	0.18015	0.059535	0.2181	0.12607	0.20513	0.11557	0.14726	0.067801	0.052624	-2.5312	-3.0333	-3.1333	-2.825	-3.2812	-2.8542	-3.1333	-3.3792	-2.9271	-3.0583	-3.2979	-3.0042	-3.0833	-2.9875	-2.9583	-3.2562	-48.328	124.700	242.651	263.973	-33.792	85.854	185.591	253.607	-39.201	52.162	142.319	-23.043	2.464	105.326	126.963	59.523	0.00078852	0.0016177	0.00039087	791.72	1.4999e-05	7.0306e-06	1173.8	217.13	2.5212e-05	2.56e-05	359.67	139.95	62.744	24.28	9.5255e-06	65.137	0.013414	0.016122	0.0045173	1011	0.0001757	0.000182	1254	250.38	0.00017502	0.00018559	415.15	157.76	104.52	30.928	0.00017438	73.557	40.798	279.383	-26.752	-46.816	140.633	208.298	-47.388	-42.503	70.225	89.619	-42.532	-38.037	-38.451	-33.205	269.509	-33.962	-8191	255	
2580.312	1	1	0	0	0.28398	0.35364	0.29555	0.063401	0.1013	0.019507	0.15534	0.04766	0.099773	0.30819	0.31781	0.093073	0.16518	0.19847	0.25996	0.14005	-2.55	-3.0125	-3.0771	-3.0333	-3.3042	-3.1354	-3.0229	-3.2687	-2.9271	-3.1896	-3.125	-2.8563	-3.3146	-3.1021	-2.8688	-3.3292	-31.669	171.322	141.666	116.830	149.645	166.730	204.292	230.261	280.732	120.361	256.854	228.552	254.224	205.320	187.395	199.134	0.00043051	0.00074766	0.00010995	792.84	3.3683e-05	1.293e-05	1177.6	216.26	5.8062e-06	4.7662e-06	357.76	137.96	62.202	23.669	1.2741e-05	64.336	0.013341	0.016297	0.0045744	1014.1	0.00017599	0.00018232	1257.2	249.42	0.00016989	0.00018011	411.7	155.53	101.47	29.956	0.00015971	71.867	32.640	55.966	217.102	-46.956	75.566	246.329	-47.194	-42.427	87.313	44.161	-42.686	-38.272	-37.830	-33.464	131.700	-33.737	-8191	255	
2580.408	1	1	0	0	0.14861	0.074024	0.079535	0.17161	0.1527	0.066497	0.082721	0.091326	0.12567	0.053529	0.2244	0.10841	0.070191	0.087366	0.31927	0.17983	-2.5646	-2.85	-2.9	-2.9938	-3.275	-3.1604	-3.1	-3.1875	-3.1042	-3.0458	-3.4188	-3.025	-3.1021	-3.0438	-2.7917	-3.2708	26.501	48.923	197.719	130.843	156.249	267.745	-32.023	12.383	-45.751	183.219	272.239	125.819	261.680	-42.291	98.053	-42.283	0.00040839	0.00069692	0.00024403	794.5	2.6102e-05	6.2789e-07	1176.8	217.12	9.8012e-06	1.0481e-05	358.32	139.03	62.434	23.663	7.8388e-06	64.652	0.011756	0.014108	0.0039283	976.4	0.00014935	0.00015398	1234.5	243.32	0.00014504	0.00015357	403	152.82	96.044	29.093	0.0001413	70.945	30.849	-51.770	-20.597	-47.170	107.284	111.318	-47.208	-42.581	198.212	110.495	-42.514	-38.345	-37.760	-33.410	271.618	-34.052	-8191	255	
2580.504	1	1	0	0	0.29828	0.053858	0.087566	0.1371	0.3624	0.15074	0.10057	0.16827	0.22767	0.22421	0.14809	0.36339	0.13851	0.16465	0.087315	0.27554	-2.5146	-3.0208	-3.2021	-3	-3.2167	-3.325	-3.0563	-3.0833	-3.0708	-2.8688	-3.4	-2.9854	-3.0396	-3.1583	-2.8708	-3.3708	95.165	-18.044	-43.349	-46.164	229.455	-59.295	268.550	99.580	-46.349	122.864	201.793	299.618	-14.512	188.916	63.785	232.284	0.00054406	0.00066591	0.00017596	797.42	1.3139e-05	8.3582e-06	1189	214.72	5.2619e-06	7.7042e-06	359.87	137.63	62.297	23.449	8.2565e-06	64.165	0.010726	0.012968	0.0036453	961.9	0.00014084	0.00014547	1237.7	241.54	0.00014034	0.00015056	403.06	152.14	96.197	29.087	0.00014786	70.96	93.042	113.000	17.887	-46.458	14.240	287.506	-47.114	-42.051	-28.753	142.871	-42.616	-38.414	-37.747	-33.322	88.066	-34.077	-8191	255	
2580.601	1	1	0	0	0.15307	0.16151	0.20839	0.12181	0.26247	0.042455	0.24792	0.17125	0.093507	0.19452	0.035142	0.14837	0.071402	0.24674	0.039645	0.18008	-2.6979	-2.9333	-3.1083	-2.9708	-3.0354	-3.3	-2.9188	-3.3042	-3.0958	-2.9229	-3.2917	-2.9375	-2.9375	-3.3625	-2.75	-3.2896	101.888	100.948	81.501	210.730	283.175	-51.118	261.403	10.996	155.851	245.168	86.876	20.641	120.210	-2.582	59.076	276.751	0.00075195	0.00055419	6.7633e-05	796.37	1.2038e-05	1.1471e-05	1190.1	214.82	1.0407e-05	1.1724e-05	362.63	138.21	62.494	23.503	1.9801e-05	64.096	0.011301	0.013644	0.0038064	972.01	0.00014429	0.00014865	1242.2	241.55	0.00013933	0.00014832	402.84	152.11	95.995	28.966	0.00014565	70.895	77.361	293.253	261.151	-46.848	188.019	147.103	-47.391	-42.190	153.396	70.224	-42.997	-38.117	-37.724	-33.155	39.271	-33.833	-8191	255	
2580.721	1	1	0	0	0.2101	0.021835	0.23333	0.11613	0.28549	0.13893	0.091003	0.20755	0.16671	0.25243	0.089335	0.17935	0.12477	0.16883	0.20528	0.10794	-2.7521	-2.9083	-3.2375	-3.0396	-3.1083	-3.2604	-3.0896	-3.2021	-3.0833	-2.8229	-3.2021	-3.1833	-2.9583	-3.3146	-2.8333	-3.2333	209.942	33.898	47.338	-28.949	75.506	98.766	203.224	86.661	63.315	49.379	154.710	238.892	125.600	239.216	224.082	215.839	0.00063685	0.0010025	0.00020347	806.79	1.3296e-05	2.117e-05	1196.9	216.98	1.9479e-05	7.2234e-06	362.25	138.14	62.661	23.544	2.0465e-05	64.024	0.011259	0.013649	0.0038542	982.05	0.00014834	0.0001541	1251.8	244.36	0.00014637	0.00015603	407.18	152.96	97.948	29.546	0.00015446	71.728	42.681	97.000	6.703	-46.943	83.769	80.471	-47.305	-42.514	9.584	26.805	-42.758	-38.059	-38.348	-33.626	5.376	-34.145	-8191	255	
2580.816	1	1	0	0	0.10964	0.12648	0.1012	0.18864	0.11691	0.14667	0.128	0.12608	0.067052	0.12065	0.1481	0.25501	0.094645	0.046597	0.0036355	0.15691	-2.7167	-2.8937	-3.2896	-3.0687	-2.7833	-3.1542	-2.9083	-3.0521	-3.0229	-2.7313	-3.1354	-2.9396	-2.9	-3.2354	-2.8917	-3.1833	142.612	90.727	-24.996	255.957	-12.628	296.586	-19.075	207.533	54.619	108.894	189.851	217.823	99.562	251.946	212.824	24.513	0.00052093	0.001559	0.00049986	805.43	7.0215e-06	4.3793e-06	1197.7	217.83	2.3062e-05	1.0322e-05	365.03	138.39	62.929	23.686	2.3822e-05	65.222	0.011943	0.014424	0.004092	1000.6	0.00015671	0.00016292	1263.4	247.33	0.00015492	0.00016257	410.11	153.8	98.883	29.842	0.00015598	72.634	62.587	35.375	34.193	-46.908	249.595	75.482	-47.186	-42.158	41.272	154.362	-42.654	-38.129	-38.408	-33.538	-27.122	-33.750	-8191	255	
2580.912	1	1	0	0	0.1808	0.30028	0.069812	0.17533	0.22276	0.37982	0.40537	0.082157	0.096495	0.038863	0.35922	0.20505	0.19529	0.11266	0.015736	0.08909	-2.7521	-2.9042	-2.9917	-3.1396	-2.8417	-3.1167	-2.9604	-2.9083	-3.0979	-2.9604	-3.2583	-3.1937	-2.8042	-3.1063	-3.1021	-3.0375	118.069	27.877	94.531	262.212	-20.703	65.432	256.134	-31.102	166.965	33.276	246.370	-49.538	-31.935	-40.889	47.509	262.908	0.00076734	0.0013924	0.00018183	808.88	1.638e-05	1.9528e-05	1203	219.18	1.0748e-05	1.3676e-05	365.05	140.32	62.972	24.079	1.234e-05	65.374	0.012229	0.014933	0.004217	1012.6	0.00016067	0.00016513	1263.6	247.96	0.00015013	0.00015622	409.23	154.05	97.23	29.644	0.00014868	72.459	75.588	92.665	277.235	-46.992	82.961	207.912	-47.251	-42.529	165.974	97.905	-42.447	-38.014	-37.539	-33.349	80.522	-34.042	-8191	255	
2581.010	1	1	0	0	0.20454	0.18443	0.092602	0.1347	0.21403	0.082557	0.27235	0.24895	0.093078	0.19938	0.21347	0.16933	0.23768	0.23306	0.14255	0.20941	-2.8854	-2.8063	-3.0542	-3.1333	-2.9313	-3.3063	-3.0458	-3.0729	-3.1479	-2.9854	-3.1458	-3.1583	-2.7062	-3.3354	-2.9479	-3.1104	191.390	57.849	-41.972	80.096	176.293	251.425	264.663	276.573	46.266	128.147	269.781	62.880	208.235	291.426	14.970	203.120	0.00059603	0.0016107	0.00026466	813.9	3.099e-06	2.6428e-05	1204.3	220.46	2.1918e-05	1.0716e-05	367.31	140.42	63.667	24.3	1.1181e-05	66.135	0.01171	0.014307	0.0040511	1008.3	0.00015506	0.00016038	1267.5	248.68	0.00014996	0.00015789	412.87	155.43	99.447	30.312	0.00015915	73.581	57.158	52.719	67.420	-46.975	-31.359	93.154	-47.179	-42.693	63.132	79.843	-42.706	-37.746	-37.351	-33.216	94.892	-34.002	-8191	255	
2581.129	1	1	0	0	0.29409	0.098919	0.06119	0.15365	0.16622	0.13548	0.084236	0.27621	0.20769	0.25052	0.22692	0.28647	0.18153	0.12569	0.1658	0.119	-2.7417	-2.9667	-3.1521	-3.2583	-2.7625	-3.1271	-3.0625	-2.9292	-3.0875	-2.975	-2.9229	-3.0938	-2.9292	-3.1375	-3.075	-3.1146	114.459	257.376	31.821	-25.026	7.022	106.758	269.723	184.832	286.790	44.417	-17.724	238.445	-50.568	155.420	-6.160	184.915	0.00090075	0.0013391	8.6251e-05	815.88	2.6413e-05	1.6049e-05	1208.5	218.51	1.062e-05	1.2609e-05	364.07	139.78	63.277	24.194	1.4663e-05	65.312	0.012622	0.015403	0.0043776	1025.3	0.00016653	0.00017082	1275.5	249.78	0.00015508	0.00016021	410.61	154.06	97.792	29.822	0.00014806	72.362	30.120	60.994	192.426	-46.795	125.407	94.094	-47.284	-42.294	113.537	-3.786	-42.661	-38.202	-38.279	-33.348	92.717	-33.790	-8191	255	
2581.200	1	1	0	0	0.1206	0.13817	0.028302	0.21224	0.20641	0.16711	0.15355	0.46838	0.24813	0.30757	0.045707	0.040009	0.053886	0.11456	0.28956	0.10631	-2.7521	-2.8458	-3	-3.075	-2.9167	-3.1437	-3.225	-2.9917	-3.2729	-2.8833	-3.0229	-3.1771	-2.8688	-3.1375	-3.0417	-3.0062	3.461	170.123	21.642	270.051	59.016	142.366	136.555	-36.542	-11.939	-28.115	262.064	223.243	-17.237	6.532	107.829	1.422	0.00082081	0.00067676	2.1794e-05	812.83	1.3277e-05	1.7024e-05	1194.8	220.3	2.4037e-05	2.2862e-06	367.67	140.6	63.718	24.425	1.0526e-05	66.452	0.011298	0.0137	0.0038161	990.36	0.00014403	0.000148	1249.7	244.4	0.00013295	0.00013549	401.51	152.04	92.754	29.206	0.00012797	72.073	55.304	101.792	227.357	-47.155	204.614	128.246	-47.247	-42.455	115.273	277.598	-42.840	-38.061	-38.154	-33.218	2.521	-33.968	-8191	255	
2581.296	1	1	0	0	0.034955	0.15979	0.051743	0.054359	0.080449	0.16907	0.28439	0.21901	0.029156	0.049957	0.18138	0.27522	0.16906	0.15824	0.31189	0.23222	-2.875	-2.9208	-2.7896	-3.325	-2.875	-3.1021	-3.3312	-3.0875	-3.1146	-2.9625	-2.9625	-3.1292	-2.8604	-3.1125	-3.2771	-2.9146	-10.943	64.898	137.642	73.487	124.857	238.403	264.803	184.382	79.283	4.643	162.128	242.362	-8.182	113.704	206.400	157.655	0.00036413	0.00092256	0.00032246	813.63	1.7097e-05	6.674e-06	1198.6	221.03	1.0549e-05	1.7736e-05	365.45	140.22	63.442	24.445	1.0505e-05	66.767	0.0099271	0.011959	0.0033294	958.05	0.00012503	0.00012867	1232.3	241.13	0.00011967	0.00012509	399.17	151.43	91.53	29.141	0.00012268	72.236	61.146	65.811	19.965	-47.247	-37.165	242.594	-47.436	-42.536	49.830	58.314	-42.596	-37.848	-38.020	-33.395	109.888	-34.189	-8191	255	
2581.393	1	1	0	0	0.21203	0.17168	0.13892	0.12709	0.17911	0.20338	0.33346	0.19062	0.078062	0.12942	0.22671	0.23269	0.2479	0.071878	0.043676	0.069075	-2.625	-2.8937	-2.9708	-3.2292	-2.9229	-3.0292	-3.4646	-2.8854	-3.1583	-3.05	-3.2833	-3.3563	-2.95	-3.0292	-3.1833	-2.9458	-42.403	267.158	34.886	124.982	-45.460	137.719	210.602	3.136	263.720	58.788	290.896	240.927	72.001	138.303	197.664	161.105	0.00095771	0.0010352	0.00025281	814.17	1.6505e-05	1.2614e-05	1197.8	220.82	9.019e-06	3.0706e-06	365.95	140.55	63.266	24.527	1.4551e-05	66.059	0.0094929	0.011465	0.003203	954.74	0.00012195	0.00012709	1235.2	241.12	0.00011947	0.00012553	398.64	150.97	90.905	28.921	0.00012068	71.298	39.733	49.268	169.643	-47.047	47.995	39.335	-47.273	-42.512	68.441	13.410	-42.638	-38.141	-37.966	-32.851	1.325	-33.946	-8191	255	
2581.513	1	1	0	0	0.12382	0.084065	0.18826	0.16951	0.13847	0.11547	0.066388	0.075945	0.18271	0.34193	0.31228	0.36459	0.16887	0.36346	0.22268	0.32243	-2.7521	-3.0708	-3.0042	-3.2188	-2.9021	-3.1396	-3.375	-2.9875	-3.1979	-2.9958	-3.0396	-3.1583	-2.8958	-3.05	-3.1771	-3	174.911	99.652	222.658	-35.844	75.567	-27.081	-51.433	170.320	150.997	20.762	238.422	215.621	155.320	278.821	253.532	218.302	0.0004833	0.0009527	7.8528e-05	815.89	1.835e-05	7.2166e-06	1196.8	220.1	2.3297e-05	6.6983e-06	364.89	138.29	62.89	24.148	1.5141e-05	65.794	0.0093442	0.011401	0.003202	959.44	0.00012425	0.00012981	1238.8	240.84	0.00012273	0.00012939	398.69	149.5	91.15	28.596	0.00012218	70.757	42.120	56.356	-22.984	-47.029	35.262	165.497	-47.332	-42.347	157.814	283.355	-42.484	-38.220	-37.976	-33.507	216.868	-33.874	-8191	255	
2581.609	1	1	0	0	0.25625	0.16284	0.043965	0.35137	0.17403	0.088785	0.19049	0.35999	0.040906	0.16875	0.1737	0.21527	0.2232	0.21211	0.10971	0.11989	-2.5521	-2.9979	-2.7521	-3.2083	-2.9833	-2.8521	-3.3542	-2.8	-2.9771	-3.1333	-2.8083	-3.25	-3.0625	-2.8854	-3.2271	-3.0458	-18.897	245.929	199.919	9.588	118.497	120.303	274.652	231.099	274.561	-54.389	237.022	249.679	118.780	4.317	279.647	-20.780	0.00051609	0.0001206	0.00019071	810.12	7.2088e-06	5.3378e-06	1203.4	219.64	8.6758e-06	2.6441e-06	363.47	138.07	62.221	24.069	1.9332e-05	65.539	0.0094209	0.011458	0.0032177	956.84	0.00012708	0.00013317	1247.6	241.83	0.00012954	0.00013742	401.28	150.2	93.054	28.938	0.00013258	71.377	70.626	-9.666	-46.853	-46.775	-20.372	29.222	-47.339	-42.553	299.300	22.359	-42.726	-38.157	-38.136	-33.456	174.054	-33.998	-8191	255	
2581.705	1	1	0	0	0.084049	0.14992	0.024333	0.19488	0.12411	0.11796	0.32393	0.16852	0.18954	0.27539	0.27655	0.035738	0.062825	0.10343	0.16887	0.17109	-2.5104	-2.9667	-2.7854	-3.2042	-3.0729	-3.0062	-3.3854	-2.8833	-3.0208	-3.3125	-2.7958	-3.2313	-3.0896	-2.8167	-3.1229	-3.0938	156.300	173.017	-39.102	61.096	214.397	151.058	215.499	-7.408	64.860	-15.132	224.364	195.902	50.523	204.481	-16.868	242.590	0.00063588	0.00016573	0.0002239	801.28	5.6932e-06	2.3997e-06	1194.7	218.88	1.5584e-05	9.734e-06	363.3	137.81	62.371	24.235	3.9393e-06	66.095	0.010321	0.012726	0.0035848	978.69	0.00014368	0.00015076	1253.3	245.59	0.00014679	0.00015369	406.19	152.22	96.207	29.709	0.00014534	72.932	54.781	272.541	6.340	-47.054	14.117	266.115	-47.591	-42.890	35.885	128.632	-42.804	-38.162	-38.139	-33.236	263.806	-34.202	-8191	255	
2581.802	1	1	0	0	0.10175	0.059023	0.15361	0.13531	0.14565	0.20989	0.21695	0.066407	0.053014	0.17974	0.20821	0.27606	0.19521	0.049788	0.12683	0.35595	-2.6	-2.9938	-2.9437	-3.0667	-3.0667	-3.0083	-3.2687	-2.9625	-2.8771	-3.1625	-2.925	-3.0771	-3.1083	-2.8333	-3.1354	-3.1229	56.583	175.664	64.699	113.576	298.806	207.417	235.489	288.320	64.365	180.631	147.773	261.502	93.792	256.070	96.936	170.876	0.0003824	0.00078858	0.00024463	807.47	1.9279e-05	2.2675e-05	1192.4	217.69	3.0385e-05	1.1204e-06	362.05	138.61	62.62	24.14	2.2699e-05	65.98	0.011534	0.014225	0.0039777	999.1	0.00015624	0.00016011	1256.2	245.95	0.00014928	0.00015703	408.02	152.98	97.826	30.091	0.00015539	73.298	95.760	153.968	93.709	-47.383	122.510	70.334	-47.351	-42.431	143.314	-40.522	-42.852	-38.257	-37.417	-33.095	85.784	-34.092	-8191	255	
2581.896	1	1	0	0	0.047794	0.17563	0.14224	0.16955	0.22891	0.14433	0.1094	0.16326	0.18198	0.2207	0.18124	0.21613	0.19246	0.017913	0.31584	0.098306	-2.3708	-3.0438	-2.8063	-2.9521	-3.1937	-2.9813	-3.4646	-3.1333	-2.9	-3.2583	-2.9	-3.1542	-3.2708	-2.9437	-3.0958	-3.2042	139.128	51.126	128.858	263.213	8.717	-37.235	-5.221	45.731	92.772	26.164	216.763	242.410	163.560	26.600	82.318	-7.427	0.00080841	0.00050871	0.00016329	802.92	1.7362e-05	1.1166e-05	1196.5	216.59	5.2345e-06	8.8856e-06	362.97	137.78	62.502	23.862	7.3883e-06	65.588	0.011952	0.014482	0.0040229	992.41	0.00015205	0.00015534	1254.5	243.69	0.00014472	0.00015305	406.15	151.57	96.411	29.622	0.00014745	72.339	43.976	190.807	131.462	-47.157	99.244	153.694	-47.414	-42.581	52.985	93.061	-42.561	-38.150	-37.871	-33.271	11.486	-33.928	-8191	255	
2581.992	1	1	0	0	0.12387	0.16391	0.17347	0.013741	0.10953	0.18906	0.29015	0.11164	0.1689	0.054149	0.055844	0.08355	0.018756	0.17938	0.080323	0.30419	-2.5583	-3.1521	-2.9104	-2.9896	-3.0854	-2.9	-3.1958	-3.0646	-2.7521	-3.2479	-2.85	-2.8896	-3.1354	-2.9188	-2.9708	-3.1917	247.288	180.732	274.978	265.187	69.887	286.184	228.271	235.249	134.750	162.892	246.976	279.311	249.994	41.791	179.859	205.975	0.00070496	0.00053268	0.00062669	800.62	4.2501e-06	1.1764e-05	1197.6	216.71	2.5322e-06	1.0193e-05	362.81	137.82	62.017	24.194	1.0672e-05	66.382	0.011161	0.013569	0.0037651	979.41	0.00014454	0.00014939	1252.5	242.7	0.00014369	0.00015361	406.66	151.78	96.681	29.806	0.00014964	72.884	87.988	3.025	30.089	-47.000	220.754	120.362	-47.358	-42.298	145.051	81.621	-42.588	-38.503	-37.607	-33.499	96.594	-34.114	-8191	255	
2582.090	1	1	0	0	0.11837	0.075417	0.10936	0.14072	0.038912	0.19732	0.057228	0.25591	0.097368	0.31411	0.11753	0.15183	0.15628	0.19235	0.068584	0.17586	-2.3333	-3.1479	-2.9542	-3.0208	-3.1042	-3.0021	-3.225	-3.0479	-2.8	-3.1625	-3.1083	-2.9292	-3.2812	-2.8771	-2.8875	-3.2354	133.637	-17.794	-54.351	-47.940	7.259	141.792	11.846	234.916	18.484	278.878	62.251	296.895	297.650	145.999	190.807	249.154	0.00054502	0.0011074	0.0002641	800.84	1.8679e-05	6.8167e-06	1192.9	216.58	1.7682e-05	1.4722e-05	364.18	138.05	62.311	24.227	4.849e-06	66.208	0.011462	0.014035	0.0039202	987.17	0.00015081	0.00015518	1256.3	243.97	0.00014734	0.00015598	407.7	152.26	96.681	29.886	0.00015116	73.309	45.781	65.510	115.888	-47.091	60.365	12.252	-47.402	-42.515	111.314	95.468	-42.626	-38.231	-37.658	-33.717	259.096	-34.158	-8191	255	
2582.209	1	1	0	0	0.087444	0.30295	0.08331	0.13641	0.1081	0.05712	0.20985	0.099504	0.1062	0.22078	0.07798	0.24335	0.13815	0.067005	0.11418	0.091869	-2.3542	-3.0938	-2.9167	-3.0625	-3.175	-2.9604	-3.0146	-3.1271	-2.8083	-3.1354	-3.0667	-2.7542	-2.9646	-3.0292	-3.0208	-3.2229	288.294	147.899	120.046	290.453	185.240	219.153	223.850	234.248	-56.486	153.911	229.325	-36.992	70.604	53.338	99.119	187.906	0.00060049	0.0011153	0.0003798	794.13	2.3649e-05	1.7596e-05	1196.2	215.4	1.7922e-05	1.8404e-05	360.35	136.82	62.342	24.192	1.4831e-05	66.08	0.011792	0.014631	0.0041137	996.69	0.00015805	0.00016343	1259.2	245.13	0.00015234	0.00016171	408.96	152.73	98.718	30.318	0.00016216	73.766	8.365	42.987	-57.848	-46.827	118.184	71.335	-47.295	-42.754	27.485	5.841	-42.609	-38.061	-37.844	-33.621	-10.020	-34.094	-8191	255	
2582.305	1	1	0	0	0.058954	0.013153	0.15165	0.12932	0.029013	0.074502	0.10572	0.1986	0.18855	0.22941	0.099754	0.021171	0.092998	0.15247	0.12527	0.15456	-2.4833	-3.0083	-2.925	-2.6229	-2.975	-2.8396	-2.9667	-3.2167	-2.9562	-3.2396	-3.1625	-3.0042	-3.2542	-3.0458	-2.7875	-3.2521	-56.324	199.462	53.380	298.071	-58.023	11.750	207.884	171.693	187.313	113.084	264.923	187.907	49.942	263.828	115.447	182.658	0.00089382	0.001372	0.0005475	800.44	1.6353e-05	1.3262e-05	1192.1	216.45	1.4921e-05	8.9291e-06	362.46	137.81	62.763	24.07	2.0548e-05	65.663	0.012516	0.015369	0.0042657	1000.3	0.00016219	0.00016656	1257.3	246.44	0.00015748	0.0001678	411.51	153.48	100.51	30.425	0.00016323	73.451	42.064	222.920	74.059	-47.247	-5.489	19.479	-47.340	-42.651	-18.779	88.076	-42.895	-38.363	-37.315	-33.396	49.413	-33.923	-8191	255	
2582.401	1	1	0	0	0.099395	0.10555	0.092342	0.14633	0.15992	0.11716	0.10337	0.065943	0.31451	0.14002	0.14223	0.26289	0.15091	0.15485	0.22718	0.17734	-2.4792	-2.9771	-3.0729	-2.9104	-3.1292	-3.025	-2.9333	-3.1542	-2.8271	-2.9583	-3.2042	-2.8917	-3.1396	-3.0104	-2.7854	-3.1937	284.441	129.559	162.625	237.997	99.525	-55.782	248.171	120.023	199.951	106.250	166.955	88.553	132.550	225.485	60.683	256.185	0.00034613	0.0017017	0.0005241	802.56	1.1726e-05	9.0292e-06	1198	218.6	9.4304e-06	9.7332e-06	366.96	137.59	62.468	24.198	1.6234e-05	65.689	0.012283	0.014902	0.0041503	1000	0.00015938	0.0001658	1263.2	248.57	0.00015815	0.00016766	414.42	153.02	99.375	29.988	0.00015024	72.451	38.761	196.938	295.945	-47.250	0.339	144.194	-47.341	-42.566	198.711	104.329	-42.621	-38.166	-37.165	-33.504	266.850	-33.689	-8191	255	
2582.497	1	1	0	0	0.11652	0.049263	0.11009	0.091021	0.049096	0.063807	0.37439	0.2906	0.18623	0.22685	0.13132	0.20382	0.1316	0.056128	0.081343	0.11223	-2.5896	-2.9417	-3.0542	-2.9167	-3.1417	-3.1375	-2.9729	-3.3563	-2.9854	-3.075	-3.0958	-2.9354	-3.0729	-3.1146	-2.8625	-3.4188	256.390	61.153	-20.381	218.080	72.961	-25.566	232.072	222.398	-24.304	68.275	210.520	269.225	178.999	246.652	-26.718	205.873	0.00078144	0.0012789	0.00022046	805.95	8.9469e-06	8.2615e-06	1206.1	221.44	2.2826e-05	1.1404e-05	369.9	138.81	63.549	23.889	7.4817e-06	65.112	0.011008	0.012975	0.0035276	963.43	0.00012949	0.00013058	1240.3	241.41	0.00011536	0.00011886	397.94	147.39	87.34	27.542	0.00010043	68.779	15.503	50.660	142.910	-46.371	-33.929	111.489	-47.259	-42.579	127.596	50.561	-42.947	-38.019	-37.841	-33.506	33.275	-33.832	-8191	255	
2582.594	1	1	0	0	0.18862	0.33177	0.16076	0.089996	0.044803	0.41936	0.24785	0.080544	0.1355	0.13109	0.11561	0.17169	0.14904	0.36167	0.17728	0.11819	-2.3875	-2.8875	-3.2604	-2.7562	-3.2562	-3.1208	-3.15	-3.3146	-3.0146	-2.9437	-3.2208	-2.9208	-3.0542	-3.0438	-2.8125	-3.0896	94.086	71.990	135.612	185.329	149.988	280.815	247.759	-37.368	127.546	228.673	233.843	254.851	104.687	283.326	226.573	-44.109	0.00070218	0.0011664	0.00017229	827.12	1.0451e-05	1.3403e-05	1228.1	228.73	2.4843e-05	8.3308e-06	375.86	138.21	63.673	22.932	8.0179e-06	62.161	0.0074297	0.0087691	0.0023953	917.79	8.7509e-05	8.8027e-05	1232	237.75	7.7144e-05	7.8803e-05	389.78	142.05	78.907	25.27	6.8266e-05	64.152	90.930	-9.503	103.550	-47.064	-12.862	116.495	-47.137	-42.589	179.328	81.551	-42.765	-37.992	-37.334	-33.070	162.604	-34.048	-8191	255	
2582.690	1	1	0	0	0.3247	0.058206	0.066686	0.10376	0.2011	0.11219	0.076849	0.050351	0.10085	0.18179	0.28243	0.14661	0.066014	0.18718	0.16181	0.29886	-2.5729	-2.8958	-3.1562	-2.7479	-2.9313	-3.2313	-2.9229	-3.3917	-3.1437	-2.9437	-3.275	-2.8771	-2.9083	-3.1458	-2.9708	-3.1854	227.403	9.644	17.325	236.216	261.397	255.629	283.748	-40.484	297.788	140.482	232.914	-58.831	91.506	-37.226	79.356	-13.997	0.00074016	0.00016075	0.00024337	858.34	1.5396e-05	5.4928e-06	1260.9	234.21	7.3936e-06	6.101e-06	385.62	136.73	64.288	22.726	1.1789e-05	60.908	0.0050914	0.0059656	0.0016419	905.45	6.1129e-05	6.2465e-05	1245	238.15	5.8438e-05	6.0103e-05	390.61	138.67	75.814	24.255	5.7285e-05	61.996	46.210	10.605	12.624	-46.992	171.267	151.793	-47.167	-42.740	-59.368	-1.858	-42.901	-38.057	-37.868	-33.067	107.816	-33.589	-8191	255	
2582.810	1	1	0	0	0.32013	0.156	0.07659	0.036626	0.14231	0.18505	0.17995	0.40459	0.023857	0.27742	0.1584	0.15646	0.17798	0.11736	0.12975	0.091445	-2.4417	-2.9979	-3.3167	-2.9896	-2.9938	-3.3229	-3.1042	-3.2104	-3.0271	-2.9604	-3.3021	-3.0062	-2.9333	-3.2062	-2.8688	-3.2833	215.784	188.103	37.568	22.588	63.167	140.781	-50.353	-55.544	75.702	164.295	219.567	45.564	-6.653	259.998	12.113	-30.371	0.00044822	0.0012155	0.00015998	886.33	5.3657e-06	7.6937e-06	1289.6	238.89	1.2055e-05	8.5724e-06	392.24	137.29	64.903	22.741	1.1012e-05	60.952	0.0044835	0.0053098	0.001483	925.17	5.6288e-05	5.7784e-05	1273.6	242.4	5.4402e-05	5.6425e-05	396.87	139.04	75.658	24.181	5.4017e-05	62.197	51.794	46.163	40.586	-46.826	170.681	28.297	-47.384	-42.331	159.928	49.881	-42.749	-38.156	-37.752	-33.055	17.908	-33.982	-8191	255	
2582.905	1	1	0	0	0.35888	0.34421	0.11883	0.20746	0.16496	0.21741	0.31982	0.208	0.31463	0.13343	0.21358	0.20891	0.19162	0.26313	0.094219	0.2721	-2.6375	-2.7979	-3.125	-2.9188	-3.0042	-3.2062	-3.0354	-3.0771	-3.1146	-2.9417	-3.2896	-3.0438	-2.9146	-3.0854	-2.8438	-3.1188	189.628	158.208	240.545	257.785	-11.018	-23.279	202.702	256.557	12.384	179.712	269.584	231.589	173.245	281.262	73.985	-15.357	0.00031195	0.00075094	0.00016773	919.39	1.4376e-05	5.5946e-06	1314.4	245.54	1.2602e-05	8.0506e-06	398.4	140.21	66.883	23.21	5.1928e-06	61.683	0.0042112	0.005035	0.0014264	947.01	5.4099e-05	5.6266e-05	1295	247.5	5.3301e-05	5.591e-05	403.72	141.21	77.343	24.694	5.4572e-05	62.86	30.842	-25.992	72.499	-46.952	111.147	62.565	-46.926	-42.279	99.805	187.454	-42.797	-38.052	-37.680	-33.079	53.866	-33.640	-8191	255	
2583.001	1	1	0	0	0.083614	0.17005	0.30287	0.30235	0.066126	0.21816	0.039883	0.33355	0.0943	0.064391	0.02143	0.25671	0.24597	0.055625	0.18554	0.071742	-2.6312	-2.8229	-3.0167	-3.0229	-2.7812	-3.2458	-2.9938	-3.0833	-3.1312	-2.8354	-3.2854	-2.9875	-2.8563	-3.2375	-2.7438	-3.0271	112.891	248.605	3.922	-27.066	25.315	213.063	-53.255	231.831	281.149	115.336	68.832	18.737	-52.754	158.177	143.797	71.076	0.00065359	0.00069484	0.00030296	932.5	9.3782e-06	1.0002e-05	1321	247.39	1.4523e-06	9.5206e-06	400.48	140.37	68.036	23.287	9.902e-06	61.756	0.0043511	0.0051265	0.0014665	961.75	5.5241e-05	5.7206e-05	1303.6	249.64	5.38e-05	5.6481e-05	405.58	141.54	77.943	24.906	5.5375e-05	63.037	43.535	60.614	-7.050	-46.958	-0.150	49.986	-47.201	-42.572	83.486	111.234	-42.690	-38.143	-37.660	-32.966	142.373	-33.815	-8191	255	
2583.073	1	1	0	0	0.085147	0.29153	0.087566	0.22327	0.24344	0.16074	0.23402	0.22753	0.13299	0.096679	0.22633	0.20886	0.060198	0.052159	0.1549	0.054092	-2.6417	-2.7708	-3.0625	-2.9792	-2.9229	-3.4104	-3.1688	-2.9479	-3.1646	-2.9062	-3.2083	-3.2354	-2.8646	-3.0563	-2.8771	-3.0479	223.359	-10.083	211.842	298.509	-31.866	105.325	201.388	196.383	265.720	108.760	216.798	254.438	-33.805	0.666	72.014	46.087	0.00057909	0.00074898	0.00029126	926.94	6.6111e-06	4.7153e-06	1323	247.92	1.3976e-05	4.8023e-06	400.72	140.7	67.009	23.503	4.1462e-06	62.213	0.0042819	0.0051028	0.0014505	961.56	5.4608e-05	5.7012e-05	1303.4	250.54	5.3823e-05	5.6427e-05	405.78	141.93	77.713	24.972	5.4456e-05	63.063	78.507	235.731	-11.162	-46.942	256.503	94.918	-47.358	-42.429	29.246	52.356	-42.633	-38.023	-37.677	-33.119	91.974	-33.742	-8191	255	
2583.193	1	1	0	0	0.094767	0.28168	0.16205	0.071534	0.15305	0.36795	0.15818	0.3623	0.020241	0.27458	0.023119	0.063784	0.11599	0.237	0.096542	0.30456	-2.6396	-3.0354	-3.0958	-3.1167	-2.8229	-3.1229	-3.1396	-3.0729	-3.2354	-2.8708	-3.0083	-3.2292	-2.7896	-3.1667	-2.9354	-3.0167	139.395	-55.276	62.078	211.422	227.458	99.682	236.645	258.034	12.501	238.919	157.440	66.485	102.579	238.854	-0.510	284.738	0.00060206	0.00052155	0.00016172	927.12	7.203e-06	7.6127e-06	1328.7	249.97	1.6147e-05	2.6104e-06	402.32	140.72	67.604	23.618	8.5767e-06	62.604	0.0042407	0.0050679	0.0014209	963.21	5.4213e-05	5.6903e-05	1304.9	252.2	5.2844e-05	5.4923e-05	406.83	142.54	77.98	25.069	5.3233e-05	63.445	25.413	81.902	2.090	-47.039	122.679	115.034	-47.262	-42.050	81.176	99.610	-42.840	-38.004	-37.188	-32.843	83.372	-33.880	-8191	255	
2583.289	1	1	0	0	0.15304	0.27977	0.017403	0.10004	0.10776	0.21996	0.30798	0.14591	0.10649	0.14737	0.22112	0.24754	0.084204	0.12272	0.17002	0.25782	-2.8375	-2.775	-3.0729	-3.3604	-2.7875	-3.025	-3.2021	-2.9208	-3.1813	-2.9125	-2.9688	-3.3083	-2.9292	-3.2896	-3.05	-2.9562	149.816	256.245	1.886	-17.649	-7.352	-21.430	299.285	245.286	197.139	-48.759	-44.955	270.773	-55.532	-2.282	11.346	253.235	0.00047197	0.0010899	0.00033624	937.28	8.1842e-06	5.7229e-06	1332.3	251.35	6.9598e-07	6.476e-06	406.29	141.55	68.207	23.711	9.0091e-06	62.909	0.0041659	0.0049618	0.0013975	964.78	5.3071e-05	5.5487e-05	1306.8	253.17	5.2968e-05	5.5187e-05	409.42	142.89	78.544	25.193	5.4037e-05	63.69	65.431	-15.650	49.002	-46.711	108.955	140.839	-47.310	-42.485	250.271	196.335	-42.675	-37.984	-37.058	-32.677	143.785	-33.772	-8191	255	
2583.385	1	1	0	0	0.042914	0.076229	0.088358	0.1671	0.12068	0.24103	0.18783	0.10749	0.040181	0.23467	0.14116	0.041204	0.074674	0.39329	0.054723	0.034325	-2.6979	-3.0875	-2.6896	-3.4292	-2.9479	-3.2646	-3.1208	-2.8312	-3.2146	-3.1125	-2.9042	-3.3271	-3.0104	-3.1042	-3.1354	-3.0396	261.565	282.003	225.608	168.556	23.363	62.890	188.749	232.880	-10.063	-28.723	95.439	145.875	-17.645	175.126	13.521	179.287	0.00066176	0.00038445	0.00017429	933.22	8.7686e-06	1.3446e-05	1329.3	251.74	4.6912e-06	7.8406e-06	404.23	141.51	67.66	23.672	1.1508e-05	62.189	0.0042043	0.0049857	0.001397	967.6	5.3269e-05	5.5862e-05	1308.7	253.31	5.2968e-05	5.5854e-05	408.21	142.82	78.461	25.147	5.3756e-05	63.323	39.887	-27.580	43.578	-46.852	183.662	260.472	-47.337	-42.201	117.358	44.830	-42.806	-37.967	-38.095	-32.731	221.553	-33.893	-8191	255	
2583.482	1	1	0	0	0.14361	0.12384	0.28434	0.29397	0.10913	0.096533	0.28949	0.063844	0.17312	0.21361	0.2189	0.19853	0.3538	0.38407	0.01744	0.083022	-2.6208	-2.8021	-2.7438	-3.2542	-2.7896	-2.9479	-3.3688	-2.9792	-3.0167	-3.0792	-3.1771	-3.1771	-2.9896	-3.0104	-3.1625	-2.9354	277.730	216.698	-26.403	196.313	20.732	77.244	264.887	201.850	43.945	259.174	168.810	285.754	130.067	267.501	-50.365	243.380	0.00082109	0.0012267	0.00020241	936.45	3.352e-06	1.1649e-05	1327	252.74	5.3413e-06	1.5341e-05	404.37	141.67	68.086	23.904	1.1134e-05	62.563	0.0042715	0.0050727	0.0014024	968.76	5.4208e-05	5.7159e-05	1306.6	253.85	5.5058e-05	5.7312e-05	407.95	143.12	79	25.337	5.55e-05	63.698	42.105	3.464	296.780	-46.780	264.564	122.004	-47.049	-42.173	94.348	113.436	-42.783	-38.023	-37.588	-32.941	129.287	-33.897	-8191	255	
2583.602	1	1	0	0	0.17509	0.093631	0.33042	0.25169	0.044148	0.087548	0.22087	0.066604	0.25247	0.21972	0.041259	0.22714	0.24472	0.025232	0.10762	0.11296	-2.9104	-2.7687	-2.7604	-3.3854	-2.8688	-2.8833	-3.2146	-3.0333	-2.9875	-3.0625	-2.8896	-3.2875	-2.9271	-2.8771	-3.1604	-3.0708	98.865	-50.120	-19.625	-22.807	-5.180	4.499	276.909	131.563	66.087	128.725	-43.195	258.745	-27.672	-12.074	237.838	242.587	0.00070007	0.00050564	6.2171e-05	934.35	8.7554e-06	9.7263e-06	1330.8	249.09	1.9613e-05	5.2294e-06	402.55	140.73	66.865	23.79	4.3915e-06	62.897	0.0043634	0.0051512	0.0014478	969.97	5.691e-05	5.9168e-05	1310.4	253.02	5.7527e-05	6.0542e-05	407.72	143.28	79.489	25.528	6.0209e-05	64.256	55.082	-20.322	-43.994	-46.953	39.703	12.844	-47.265	-42.373	77.885	21.959	-42.555	-38.146	-37.827	-33.265	187.481	-33.846	-8191	255	
2583.674	1	1	0	0	0.18467	0.077732	0.086426	0.15406	0.1257	0.075797	0.12152	0.19229	0.057525	0.17723	0.059009	0.27237	0.16043	0.3578	0.23037	0.14801	-2.5354	-3.1875	-2.9042	-3.2625	-2.9271	-2.8979	-3.225	-3.1542	-3.1792	-3.0792	-2.8729	-3.2938	-3.025	-2.9542	-3.0438	-3.0125	141.476	215.882	251.107	255.150	155.605	163.600	-59.933	199.273	66.683	198.482	205.719	200.762	206.779	297.762	-19.567	197.116	0.00094989	0.00061636	0.00018547	929.76	6.8517e-06	4.5378e-06	1330.3	249.01	2.3414e-05	1.1296e-05	403.58	140.66	67.242	23.743	3.0509e-06	62.869	0.0046989	0.0056176	0.0015541	973.25	5.9831e-05	6.1254e-05	1309.6	252.7	5.8281e-05	6.0574e-05	408.3	143.06	79.86	25.522	6.0582e-05	64.202	60.467	197.514	72.037	-47.052	50.286	120.925	-47.161	-42.166	27.081	16.780	-42.730	-38.214	-37.493	-32.914	176.354	-33.762	-8191	255	
2583.770	1	1	0	0	0.098534	0.16979	0.20224	0.22114	0.0010909	0.19764	0.20064	0.17576	0.12104	0.15717	0.45631	0.29409	0.055208	0.14821	0.11815	0.29413	-2.4979	-3.1021	-2.6896	-3.1083	-3.125	-2.9062	-3.4562	-2.9583	-3.1104	-3.2667	-2.8979	-3.1854	-3.1	-2.8438	-3.1562	-2.9396	222.448	153.688	14.205	25.900	180.000	46.582	263.877	-53.939	234.031	-0.282	271.487	251.137	-56.185	293.626	249.005	221.637	0.0005498	0.0015079	0.00021593	929.84	9.2544e-06	4.9111e-06	1329.1	250.23	2.2387e-05	9.5296e-06	403.35	140.53	67.68	23.62	6.2485e-06	62.63	0.0047167	0.0056681	0.0015774	972.14	6.0505e-05	6.1935e-05	1310.4	253.76	5.9328e-05	6.3089e-05	408.33	142.85	79.839	25.428	6.1644e-05	63.935	72.021	6.383	95.909	-46.815	31.764	186.760	-47.233	-42.390	-35.260	74.074	-42.875	-38.101	-37.686	-33.102	215.446	-33.667	-8191	255	
2583.891	1	1	0	0	0.15082	0.24995	0.093149	0.10718	0.17699	0.16653	0.24811	0.11145	0.1502	0.16041	0.18356	0.32349	0.056858	0.079484	0.17496	0.07686	-2.6937	-3.0958	-3.0125	-3.1854	-3.225	-2.875	-3.1667	-3.1167	-3.0708	-3.1375	-2.9125	-3.0812	-3.1229	-2.8042	-3.2896	-3.15	191.744	13.020	-16.219	-20.340	-37.551	27.349	227.615	175.919	103.389	265.118	168.237	-58.555	16.759	281.117	89.362	200.819	0.00049749	0.00049661	0.00024992	931.7	1.158e-05	9.3299e-06	1331.1	250.2	6.9679e-06	8.1044e-06	403.13	141.63	67.876	24.124	5.8904e-06	63.148	0.004726	0.0056975	0.0015701	976.56	6.1146e-05	6.306e-05	1312.7	254.23	6.0577e-05	6.4185e-05	409.59	143.63	80.59	25.87	6.3699e-05	64.735	41.948	63.427	17.271	-46.754	-27.342	131.752	-47.226	-42.270	110.485	159.233	-42.918	-38.188	-37.400	-33.429	5.713	-33.880	-8191	255	
2583.985	1	1	0	0	0.069646	0.26009	0.14886	0.17789	0.23132	0.087457	0.18812	0.18227	0.24286	0.11824	0.15423	0.055012	0.076606	0.12712	0.090909	0.093995	-2.575	-3.1562	-2.8708	-3.1792	-3.1375	-2.9958	-3.5	-3.0542	-2.975	-3.1063	-2.9188	-3.0292	-3.1375	-2.8375	-3.1354	-3.0521	41.008	254.777	-25.295	190.203	35.504	162.533	204.700	227.197	182.046	281.602	271.086	261.119	32.565	238.106	141.038	142.654	0.00043554	0.00034091	0.00018475	935.88	5.9156e-06	1.4909e-05	1332	251.39	1.7851e-05	1.1448e-05	405.1	142.43	68.868	24.371	4.761e-06	63.77	0.0048731	0.0059424	0.0016481	983.03	6.4385e-05	6.6127e-05	1318.1	255.91	6.3848e-05	6.7748e-05	412.23	145.05	81.651	26.267	6.7394e-05	65.847	74.457	86.494	-25.255	-46.956	101.452	44.698	-47.233	-42.328	110.085	129.903	-42.914	-38.092	-37.882	-33.216	132.557	-34.169	-8191	255	
2584.081	1	1	0	0	0.24728	0.040699	0.25334	0.050006	0.26111	0.12418	0.32118	0.26123	0.22897	0.1423	0.1952	0.18187	0.17874	0.12495	0.15775	0.3172	-2.25	-3.0625	-2.8312	-3.0187	-3.2417	-2.8875	-3.2167	-3.0271	-2.8792	-3.1437	-2.8812	-2.9333	-3.15	-2.7938	-3.2125	-3.0917	-8.533	273.365	47.792	204.116	22.500	64.476	224.115	254.190	130.650	82.726	276.018	-37.019	20.292	257.073	234.538	195.741	0.00038666	0.00089827	9.769e-05	930.48	5.2045e-06	1.3596e-05	1325.3	251.29	1.1349e-05	1.1643e-05	404.29	142.69	68.99	24.45	1.1153e-05	64.88	0.0052292	0.006479	0.0018189	988.68	7.0285e-05	7.2925e-05	1320.4	256.69	6.8995e-05	7.3563e-05	414.67	146.25	83.336	26.719	7.251e-05	66.914	49.363	37.988	119.123	-46.896	-54.429	212.084	-47.315	-42.461	285.552	140.957	-42.638	-38.138	-37.766	-32.911	92.133	-33.578	-8191	255	
2584.202	1	1	0	0	0.087145	0.10892	0.015214	0.096857	0.15831	0.089589	0.18105	0.21828	0.02187	0.08999	0.1395	0.19616	0.01128	0.11129	0.11399	0.25719	-2.5167	-3.0292	-2.9813	-2.8167	-3.0979	-3.0167	-3.3292	-3.2833	-2.8	-3.1063	-3.0208	-3.1312	-3.3958	-2.7667	-2.9583	-3.1958	-36.090	40.075	244.614	55.482	67.853	105.480	224.968	171.750	291.015	153.652	199.639	208.547	94.231	238.990	287.812	-15.196	0.00059408	0.00084247	0.00019282	932.66	9.3568e-06	1.9211e-05	1319	249.76	7.9108e-06	4.8577e-06	401.38	141.74	68.003	24.613	6.7575e-06	64.905	0.005651	0.006916	0.0019378	995.14	7.5465e-05	7.8081e-05	1317.8	256.71	7.3633e-05	7.9724e-05	414.13	146.18	84.332	26.991	7.878e-05	67.258	63.115	43.905	92.702	-47.046	52.150	125.496	-46.973	-42.228	244.027	133.086	-42.996	-38.294	-38.258	-33.487	69.033	-33.778	-8191	255	
2584.298	1	1	0	0	0.13884	0.176	0.03819	0.087754	0.1579	0.23193	0.24863	0.057512	0.017192	0.1525	0.14206	0.30033	0.15033	0.13789	0.23334	0.1715	-2.2542	-3.1042	-2.9896	-2.8354	-3.2625	-2.7896	-3.2062	-3.2	-2.7771	-3.0625	-3.0479	-3.0146	-3.0812	-3.0229	-3.0438	-3.1833	53.465	-16.742	-31.689	199.576	216.111	223.782	247.263	116.670	14.848	70.277	200.051	-45.893	193.358	-16.861	257.170	165.933	0.00052187	0.0013206	0.00021038	923.22	5.5474e-06	5.0766e-06	1316.9	247.85	1.6081e-05	1.6279e-05	398.51	141.3	67.409	24.552	1.5976e-05	65.02	0.0061258	0.0075132	0.0020893	996.6	8.0352e-05	8.2619e-05	1317.4	256.02	7.8438e-05	8.3088e-05	413.56	146.84	85.647	27.305	8.3985e-05	67.906	54.670	97.060	194.413	-46.701	71.740	131.535	-47.340	-42.529	83.027	103.064	-42.670	-37.931	-37.747	-32.901	155.286	-33.720	-8191	255	
2584.370	1	1	0	0	0.14266	0.28518	0.22676	0.096995	0.1862	0.44424	0.089474	0.20856	0.098224	0.19246	0.25603	0.17411	0.087245	0.021569	0.082076	0.10081	-2.3521	-3.0438	-2.8542	-2.7542	-3.3271	-3.1354	-3.0938	-3.2458	-2.8333	-3.1896	-2.9042	-2.8937	-3.0729	-2.9688	-3.1063	-3.3979	134.967	227.224	124.355	195.505	54.099	20.686	248.798	265.685	176.862	60.556	199.989	263.964	1.000	247.910	155.905	191.440	0.00059972	0.00042895	0.00033737	913.91	3.3659e-06	1.3996e-05	1315.9	246.52	5.6278e-06	6.1517e-06	396.69	141.34	67.946	24.98	4.8325e-06	65.466	0.0066217	0.0081804	0.0022973	1007.5	9.1837e-05	9.588e-05	1325.3	258.66	9.5052e-05	0.0001019	419.71	148.98	89.671	28.27	0.00010086	69.477	48.802	59.264	51.652	-46.874	234.646	152.738	-47.384	-42.131	-1.474	53.427	-42.719	-37.944	-37.798	-33.390	172.090	-33.866	-8191	255	
2584.490	1	1	0	0	0.093503	0.054742	0.40171	0.24706	0.18949	0.21293	0.20573	0.041011	0.30853	0.22278	0.081527	0.07253	0.069747	0.15753	0.13047	0.18482	-2.3396	-2.8792	-2.7812	-2.7854	-3.1771	-2.975	-2.95	-3.2792	-2.8563	-3.0958	-3.1646	-2.95	-2.9688	-2.9313	-2.9958	-3.175	290.443	21.527	117.509	235.448	206.437	162.380	173.264	97.161	43.903	59.656	-20.062	-40.290	-10.671	292.133	0.070	-3.151	0.0004224	0.00107	0.0002588	915.64	1.498e-05	4.6691e-06	1313.5	245.74	8.4102e-06	3.0298e-06	399.36	142.5	67.446	24.822	1.9869e-06	66.065	0.007916	0.0097275	0.0027131	1027	0.00010524	0.00010895	1329.6	260.36	0.00010177	0.00010784	422.64	149.75	90.917	28.497	0.00010702	70.196	38.472	122.169	-27.421	-46.936	209.108	136.025	-47.320	-42.407	246.132	108.641	-42.906	-37.805	-37.931	-33.389	206.801	-33.744	-8191	255	
2584.586	1	1	0	0	0.23182	0.051503	0.042856	0.14009	0.045303	0.13829	0.087489	0.18474	0.08847	0.12082	0.10235	0.2669	0.11762	0.30785	0.19265	0.14138	-2.5083	-3.0354	-2.9708	-2.9146	-3.1833	-3.175	-2.9521	-3.2313	-2.9875	-3.0208	-3.3542	-2.9375	-3.0521	-2.9542	-2.8688	-3.4021	13.718	59.630	274.260	196.629	216.540	79.214	-56.499	187.271	285.492	152.844	85.334	-8.334	-17.940	295.879	149.269	234.066	0.00039422	0.0020937	0.00015391	913.15	7.3851e-06	2.1081e-05	1309.8	243.61	2.6814e-05	6.554e-06	397.66	140.94	67.98	25.004	1.7077e-05	65.46	0.0084295	0.01029	0.0029182	1036.8	0.00011273	0.00011696	1334.8	262.32	0.00011421	0.00012228	427.07	151.29	94.817	29.361	0.00012351	71.077	12.938	-37.183	-11.687	-47.234	34.049	187.301	-47.197	-42.515	158.459	-14.633	-42.709	-38.204	-38.321	-32.812	-10.783	-33.761	-8191	255	
2584.683	1	1	0	0	0.21333	0.087884	0.11298	0.16794	0.15923	0.092689	0.28089	0.13241	0.13458	0.13273	0.20585	0.11544	0.2216	0.15094	0.08471	0.27758	-2.4771	-3.0229	-3.2438	-3.1021	-3.1688	-3.1396	-3.1729	-3.3	-2.9167	-2.8521	-3.1583	-2.9625	-3.0896	-3.1625	-2.8146	-3.3812	192.376	72.204	123.337	190.347	275.345	76.527	274.338	218.069	262.363	118.529	231.937	273.104	46.704	-20.226	124.348	210.505	0.00053619	0.0010106	6.6505e-05	911.75	7.9485e-07	2.8448e-06	1306.4	242.9	2.2006e-05	6.0009e-06	396.29	141.73	66.112	24.735	8.7717e-06	66.153	0.0096591	0.011735	0.0033177	1057.5	0.00012918	0.00013344	1345.1	265.01	0.00012787	0.00013642	431.71	153.32	97.694	29.857	0.00013364	72.029	61.728	87.005	199.788	-46.909	178.290	88.978	-47.324	-42.662	174.137	125.970	-42.684	-38.328	-37.732	-33.445	58.040	-33.909	-8191	255	
2584.779	1	1	0	0	0.24932	0.19932	0.092425	0.16624	0.040995	0.23681	0.068095	0.3024	0.0087657	0.030394	0.43453	0.16883	0.24935	0.30216	0.30575	0.14539	-2.3333	-2.9542	-3.1375	-2.9417	-3.0604	-3.0625	-3.0271	-3.1333	-3.1813	-3.0042	-3.2812	-3.0104	-2.8979	-3.2729	-2.9354	-3.1979	273.138	123.512	175.498	165.113	246.070	24.368	168.039	251.842	-55.956	-44.349	286.940	32.960	10.597	276.249	214.308	-18.588	0.00079978	0.00016768	0.00025238	911.34	1.6711e-05	5.9229e-06	1308	242.57	7.2804e-06	1.6793e-05	395.59	141.72	67.421	24.998	1.67e-05	66.357	0.010292	0.01243	0.0034919	1064.2	0.00013436	0.00013963	1346.9	266.58	0.00013567	0.00014516	436.06	155.36	100.62	30.58	0.00014759	73.229	45.219	-5.295	-42.059	-46.905	15.330	147.374	-47.236	-42.544	210.347	40.419	-42.720	-38.311	-38.199	-33.123	50.672	-33.952	-8191	255	
2584.898	1	1	0	0	0.073182	0.17438	0.21589	0.21653	0.15984	0.12207	0.25763	0.080258	0.10261	0.11892	0.09601	0.16168	0.23542	0.034814	0.39678	0.13397	-2.6646	-2.8958	-3.1771	-3.0583	-3.1625	-3.0833	-3.0333	-3.1792	-3.1667	-2.6646	-3.4167	-2.9521	-2.9792	-3.2604	-2.9021	-3.3563	161.562	-47.123	123.745	288.219	170.892	280.174	290.194	285.600	85.011	197.379	-21.919	171.286	244.066	-51.298	181.367	200.202	0.00076709	0.0011513	0.000291	906.19	2.3954e-05	9.6684e-06	1306.6	242.53	6.2376e-06	5.2339e-06	393.37	141.09	67.344	25.118	8.6456e-06	66.547	0.011298	0.01369	0.003869	1083.2	0.00014863	0.00015477	1357	269.4	0.00014715	0.00015508	438.12	155.84	101.75	30.858	0.00015043	73.679	49.877	180.238	48.722	-47.258	-44.496	102.895	-47.466	-42.604	80.966	222.174	-42.757	-38.101	-37.617	-33.514	196.914	-33.635	-8191	255	
2584.969	1	1	0	0	0.19789	0.30183	0.060886	0.12592	0.17953	0.26519	0.24234	0.17916	0.22011	0.14257	0.059008	0.35647	0.14572	0.27936	0.18666	0.26134	-2.6271	-2.6333	-3.1146	-3.1042	-2.9417	-3.1875	-3.1188	-3.2417	-3.1875	-2.8896	-3.1542	-3.1875	-2.875	-3.2667	-2.7208	-3.2271	294.386	-39.487	210.788	-16.211	150.468	115.892	201.526	273.837	169.457	291.122	-34.430	228.834	88.757	264.891	126.501	273.358	0.00082362	0.0011347	0.00038636	903.21	6.7368e-06	5.7621e-06	1296.9	241.69	2.8792e-05	8.1395e-06	391.61	140.38	67.109	25.142	8.3013e-06	66.18	0.011688	0.014261	0.0040713	1092	0.00015724	0.00016502	1357.8	270.95	0.00015718	0.00016458	439.96	155.76	103	31.027	0.00015721	73.651	67.140	42.139	78.987	-46.935	2.926	-53.061	-47.153	-42.343	127.631	110.471	-42.780	-38.177	-38.298	-33.288	211.925	-33.824	-8191	255	
2585.065	1	1	0	0	0.16267	0.14334	0.065127	0.31836	0.10665	0.24118	0.06913	0.17648	0.067994	0.3087	0.14831	0.19298	0.069938	0.2432	0.15569	0.29892	-2.6437	-2.9521	-3.1729	-3.0521	-2.9229	-3.2417	-2.9875	-3.1271	-3.1042	-2.9	-3.1333	-3.025	-2.6833	-3.2021	-2.9562	-3.0896	166.578	-53.672	12.166	277.096	121.464	271.384	128.246	249.804	-35.000	78.348	255.677	289.612	70.606	-5.979	231.720	62.927	0.00094424	0.0013518	7.1774e-05	905.6	8.2906e-06	1.0881e-05	1287.7	241.83	1.0562e-05	2.6615e-05	392.66	140.76	66.363	25.145	1.6456e-05	66.386	0.012106	0.014792	0.0041787	1093.6	0.00016015	0.00016748	1351.9	270.47	0.00015964	0.00016882	441.05	156.71	105.06	31.517	0.00016623	74.498	75.778	-39.605	0.925	-47.078	-2.854	272.150	-47.343	-42.442	-3.361	36.928	-43.083	-38.397	-37.786	-33.143	58.433	-34.020	-8191	255	
2585.163	1	1	0	0	0.17919	0.35994	0.18846	0.11281	0.37362	0.078362	0.18985	0.20827	0.38671	0.21843	0.060071	0.16835	0.26613	0.095801	0.23746	0.087092	-2.7333	-2.8021	-3.0979	-3.2562	-2.8833	-2.8917	-3.0563	-2.95	-3.1188	-3.0062	-3.1312	-3.0521	-2.7771	-3.2979	-2.9333	-3.3042	6.939	-58.006	279.909	240.809	92.284	84.169	-22.082	155.715	29.091	28.443	162.802	167.747	-1.282	157.619	50.599	174.437	0.00082177	0.00098754	0.00036378	897.09	8.9864e-06	1.0241e-05	1286	240.57	4.0295e-05	1.6951e-05	388.96	140.02	66.476	25.146	1.7219e-05	66.361	0.013044	0.015946	0.0045226	1111.3	0.00017404	0.00018247	1361.8	273.62	0.00017663	0.00018813	448.32	160.01	110.68	32.74	0.00019802	76.875	59.861	44.688	29.436	-47.043	42.344	141.505	-47.342	-42.678	11.412	-6.706	-42.929	-38.144	-37.802	-33.473	8.425	-33.956	-8191	255	
2585.282	1	1	0	0	0.059967	0.10902	0.18797	0.053219	0.16838	0.14378	0.16741	0.080628	0.15177	0.30117	0.13393	0.1921	0.15871	0.23219	0.29962	0.12596	-2.8729	-2.7729	-3.1	-3.0417	-2.7354	-3.1208	-3.125	-3.0521	-3.3021	-2.8354	-3.2208	-3.3312	-2.8583	-3.0771	-3.0833	-3.1625	168.842	-7.482	76.525	-29.216	182.277	283.663	165.401	140.433	-58.547	99.730	293.245	174.440	270.723	165.813	284.202	46.718	0.00086457	0.00084517	0.00034446	890.44	2.1624e-05	1.372e-05	1282.5	239.24	3.6571e-05	4.904e-06	390.55	140.78	66.419	25.11	1.5471e-05	66.787	0.015709	0.019233	0.0054093	1160.9	0.00020994	0.000219	1386.6	281.26	0.00020855	0.00021905	459.47	163.33	116.3	33.686	0.00021216	77.604	11.331	292.475	-16.372	-47.154	119.529	-11.837	-47.466	-42.588	53.756	141.558	-42.742	-38.375	-37.891	-33.418	116.888	-34.040	-8191	255	
2585.378	1	1	0	0	0.2804	0.21793	0.23669	0.070758	0.23352	0.11587	0.32989	0.0454	0.32131	0.30097	0.11127	0.1187	0.11369	0.20138	0.070033	0.13285	-2.8021	-2.8896	-3.0812	-3.1458	-2.9062	-3.2188	-3.2583	-3.0125	-3.1854	-3.1729	-3.1437	-3.3125	-2.8	-3.1917	-2.9417	-2.9146	277.297	63.463	221.918	117.410	233.744	282.179	296.576	252.240	221.067	83.176	254.649	187.150	3.007	289.592	3.044	223.773	0.0010395	0.00041968	0.00011919	904.08	1.3473e-05	2.9283e-06	1283.4	239.14	3.6906e-05	1.0333e-05	387.83	139.79	65.666	25.166	2.18e-05	66.905	0.016227	0.01962	0.005471	1163.5	0.00020992	0.00022117	1387.5	281.88	0.00021191	0.00022378	457.38	163.14	116.32	33.707	0.00021332	77.563	50.855	144.511	82.659	-47.194	20.977	11.579	-47.484	-42.456	134.965	183.277	-43.093	-38.219	-37.519	-33.246	286.091	-34.032	-8191	255	
2585.475	1	1	0	0	0.10733	0.16077	0.083138	0.076425	0.16199	0.12803	0.29289	0.23249	0.26227	0.31899	0.14613	0.27243	0.36316	0.1068	0.096832	0.10655	-2.7812	-2.8875	-2.9833	-3.2687	-2.9917	-3.0771	-3.2833	-2.9833	-3.1958	-3.0812	-3.0229	-3.3604	-2.9771	-3.1083	-3.2021	-2.8375	238.352	195.954	290.093	84.239	-19.704	88.108	229.274	-23.467	-7.797	138.343	266.959	273.002	52.892	165.111	-45.069	97.823	0.00077898	0.0023379	0.00020673	890.25	6.5979e-06	2.5929e-05	1288	238.82	1.896e-05	8.7651e-06	389.24	140.65	66.295	25.264	1.415e-05	67.181	0.016443	0.020028	0.0056156	1172.5	0.00021619	0.00022517	1392.4	282.47	0.00021631	0.00022791	460.95	164.35	118.07	34.026	0.00021736	78.308	34.954	62.819	274.911	-47.221	-6.900	126.562	-47.416	-42.271	29.549	44.882	-42.822	-38.014	-38.217	-33.458	76.975	-33.865	-8191	255	
2585.571	1	1	0	0	0.15332	0.033509	0.14468	0.39178	0.055066	0.22676	0.14438	0.15445	0.12117	0.17717	0.14017	0.13602	0.10059	0.08747	0.10465	0.13331	-2.825	-2.8917	-2.925	-3.1646	-3.0896	-3.0229	-3.4104	-2.975	-3.2354	-3.0646	-3.0792	-3.1625	-2.9667	-3.2042	-3.2062	-3.0812	242.800	-22.122	9.043	238.417	101.888	220.635	285.418	294.653	85.760	-12.378	153.766	-13.321	220.827	-16.635	250.196	273.031	0.00081191	0.0013688	0.0003906	886.63	5.485e-06	2.3592e-06	1275.8	238.42	3.7412e-05	1.5217e-05	390.62	140.89	66.179	25.45	2.089e-05	67.398	0.016874	0.020629	0.0057497	1174	0.00022094	0.00022995	1389.1	283.26	0.00021813	0.00022884	460.88	164.93	118.78	34.311	0.00022347	78.89	35.347	-31.498	8.227	-47.091	62.476	145.803	-47.219	-42.620	162.440	-60.588	-42.696	-37.871	-38.435	-33.669	92.734	-33.884	-8191	255	
2585.667	1	1	0	0	0.087871	0.035763	0.18944	0.16064	0.06174	0.14106	0.27667	0.18365	0.083345	0.027227	0.078674	0.24712	0.2298	0.21389	0.24338	0.095332	-2.5396	-3.1042	-2.6875	-3.2188	-2.9042	-3.05	-3.2792	-2.825	-3.2104	-3.1542	-3.0646	-3.2958	-2.9979	-2.8917	-3.2333	-2.8688	161.494	-25.207	183.477	19.608	215.538	187.237	153.904	196.905	-19.828	163.295	154.242	280.815	226.263	274.559	37.626	128.192	0.000816	0.0020384	0.00042627	892.1	5.4015e-06	9.9647e-06	1280.7	238.73	1.3482e-05	1.4989e-05	389.59	140.96	67.085	25.236	9.6085e-06	67.13	0.017372	0.021133	0.0059486	1189.2	0.00023024	0.00023823	1397.4	284.98	0.00022601	0.00023717	464.06	165.84	120.07	34.549	0.00022788	79.017	39.766	230.000	-13.377	-47.375	48.473	192.977	-47.303	-42.707	-34.916	88.693	-42.756	-37.983	-37.509	-33.236	250.294	-33.874	-8191	255	
2585.763	1	1	0	0	0.22948	0.1711	0.086469	0.116	0.092955	0.17408	0.21396	0.30215	0.14335	0.17765	0.32686	0.14386	0.081317	0.041185	0.18923	0.22742	-2.8271	-2.8479	-2.8958	-3.2271	-2.9521	-2.9417	-3.3167	-2.8896	-3.0375	-3.2229	-3.1083	-3.2062	-3.0375	-3	-3.2938	-3.0854	-49.028	203.896	133.659	161.439	40.008	192.143	131.851	-31.704	7.335	194.651	264.312	-35.272	190.434	192.210	114.334	253.823	0.0012826	0.0016823	0.00024295	885.68	3.2788e-05	1.4773e-05	1270.7	237.95	2.379e-05	9.3348e-06	386.85	139.95	65.361	25.407	9.6209e-06	67.029	0.017454	0.021472	0.0060268	1191.9	0.00023452	0.00024445	1397.1	286.36	0.0002363	0.00025028	466.93	167.17	123.16	35.022	0.0002412	79.407	56.717	153.895	25.570	-47.153	107.677	165.697	-47.715	-42.784	96.776	124.726	-42.984	-38.386	-37.794	-33.585	-22.979	-33.966	-8191	255	
2585.884	1	1	0	0	0.079983	0.14957	0.054432	0.26571	0.27214	0.034957	0.075042	0.23811	0.06724	0.17324	0.14784	0.18677	0.1357	0.22314	0.15894	0.11338	-2.5312	-3.2208	-2.9771	-3.3458	-3.0375	-2.9083	-3.3229	-3.0146	-3.1	-3.0854	-3.0062	-3.2917	-3.1583	-2.8833	-3.1417	-3.125	235.129	44.810	263.324	41.654	-1.092	146.229	174.295	-38.418	262.835	281.800	224.014	276.833	-54.854	55.266	-3.734	250.521	0.00049023	0.0016954	0.00030038	881.43	7.8836e-06	1.234e-05	1270.2	236.56	2.9415e-05	1.8722e-05	388.36	140.07	66.56	25.388	1.0192e-05	66.862	0.018169	0.022028	0.0061004	1187.9	0.00023152	0.00023813	1388	282.5	0.00022338	0.00023693	463.4	165.65	121.85	34.775	0.00023983	79.596	41.178	78.506	173.798	-46.812	133.611	103.512	-47.332	-42.407	63.097	-0.563	-42.768	-37.958	-37.904	-33.618	211.602	-34.128	-8191	255	
2585.978	1	1	0	0	0.21879	0.095255	0.21256	0.023156	0.16355	0.10928	0.080299	0.058186	0.10905	0.23647	0.087322	0.1394	0.10766	0.37236	0.18577	0.1592	-2.6208	-2.9625	-3	-3.2125	-3.1813	-2.7646	-3.2875	-3.0792	-2.9021	-3.3021	-2.9833	-3.2146	-3.1271	-2.8229	-3.2354	-3.2125	120.434	232.300	257.385	-34.546	112.833	125.857	175.803	116.898	-4.528	4.709	47.044	165.848	215.614	30.574	117.517	162.289	0.00010321	0.0026233	0.00019723	873.4	2.5285e-05	1.6661e-05	1276.8	236.27	1.7904e-05	1.6082e-05	386.14	140.07	65.326	25.176	2.0454e-05	67.385	0.018365	0.022391	0.0062239	1190.8	0.00023499	0.00024176	1392.5	283.04	0.00022514	0.00023833	462.37	165.35	120.23	34.414	0.00022991	78.992	115.791	-40.675	201.813	-46.888	-55.495	-2.142	-47.547	-42.312	60.769	10.142	-42.850	-38.209	-37.836	-33.621	168.647	-34.050	-8191	255	
2586.074	1	1	0	0	0.092854	0.18809	0.052194	0.097768	0.041887	0.306	0.22907	0.13186	0.23164	0.1344	0.12726	0.17166	0.09956	0.34417	0.3051	0.27867	-2.5333	-3.1979	-2.9625	-3.225	-3.1292	-3.0521	-3.2479	-3.1479	-3.0208	-3.2792	-2.9208	-3.2875	-3.1354	-2.8792	-3.1083	-3.0708	188.504	36.048	52.739	160.255	216.644	230.336	193.370	158.173	112.710	151.765	43.957	189.772	227.355	232.316	41.029	219.868	0.0002928	0.00092354	0.00045241	880.78	1.2811e-05	1.0809e-05	1268.2	235.35	7.399e-06	2.0653e-05	383.75	140.26	65.364	25.283	2.2763e-05	67.097	0.017512	0.02133	0.0059379	1176	0.00022681	0.00023424	1384.6	282.04	0.00022594	0.00024178	463.67	166.44	123.32	35.185	0.00024782	80.314	27.955	-55.146	162.163	-47.228	110.255	-52.186	-47.676	-42.439	58.647	122.317	-43.046	-38.268	-38.036	-33.573	282.195	-34.102	-8191	255	
2586.170	1	1	0	0	0.20305	0.10294	0.17936	0.058135	0.11619	0.19499	0.29311	0.12436	0.20294	0.13053	0.065463	0.10807	0.1045	0.27273	0.12195	0.10832	-2.6354	-3.2375	-2.9833	-3.1333	-3.225	-3.1125	-3.1875	-3.1458	-2.7479	-3.2792	-3.0771	-3.1083	-3.0917	-2.7896	-3.0583	-3.1542	68.662	49.988	38.456	166.626	38.319	295.280	264.525	-39.558	177.925	55.015	277.356	236.167	223.271	-40.358	30.346	-51.759	0.00080594	0.0021688	5.3763e-05	875.87	2.0254e-05	1.5492e-05	1264.7	234.01	1.5673e-05	1.076e-05	382.28	138.73	65.833	25.222	3.1074e-06	66.772	0.019141	0.0235	0.0065366	1207.7	0.00024911	0.00025716	1396.2	286.61	0.00024365	0.0002606	467.76	167.67	125.85	35.421	0.000255	80.358	75.776	35.112	83.311	-46.974	256.517	206.498	-47.494	-42.619	239.130	159.004	-42.804	-37.869	-38.319	-33.397	128.577	-34.144	-8191	255	
2586.266	1	1	0	0	0.11521	0.014211	0.055441	0.17552	0.16281	0.04628	0.32515	0.27787	0.040507	0.20323	0.11114	0.10465	0.16924	0.14871	0.10159	0.22851	-2.3688	-3.3354	-2.8167	-3.2229	-3.2708	-3.0604	-3.3792	-3.1729	-2.7438	-3.1937	-3.1437	-3.0521	-3.1188	-2.9854	-3.2521	-3.3625	61.007	289.564	27.118	232.831	-33.410	255.633	242.670	284.121	257.977	-4.099	-5.927	296.285	190.666	123.647	281.404	7.474	0.0010163	0.0014036	0.00013094	884.03	1.6684e-05	5.6026e-06	1263.8	234.69	9.1837e-06	2.3411e-05	383.29	139.52	64.95	25.326	1.3067e-05	67.228	0.019385	0.023879	0.0066424	1212.7	0.00025519	0.00026254	1399.8	287.32	0.00024648	0.0002607	468.13	167.85	125.8	35.524	0.00025431	80.763	76.131	298.046	132.718	-46.977	60.918	223.775	-47.252	-42.665	92.497	181.024	-42.907	-37.924	-38.169	-33.391	3.507	-34.096	-8191	255	
2586.363	1	1	0	0	0.12389	0.040957	0.35035	0.11353	0.14728	0.29325	0.15668	0.08591	0.28734	0.149	0.19396	0.12895	0.22835	0.28519	0.05446	0.18565	-2.4896	-3.2104	-2.9625	-3.1271	-2.9854	-2.8563	-3.2333	-3.2729	-2.7354	-3.1521	-3.0979	-2.9938	-3.3667	-2.8646	-3.1229	-3.1312	125.400	260.900	105.218	177.500	25.164	83.483	280.699	-3.159	65.698	187.223	39.110	96.698	191.750	287.946	-58.428	270.065	0.00086458	0.0016064	0.00024089	873.76	1.326e-05	1.4461e-05	1272.1	235.94	1.5174e-06	2.5382e-06	385.61	140.68	65.514	25.328	1.0617e-05	67.72	0.019346	0.023787	0.0066021	1209.7	0.00025238	0.00025919	1402.1	287.04	0.00024227	0.00025901	468.57	168.09	124.71	35.373	0.00024676	80.477	63.837	60.682	97.292	-47.454	109.336	83.128	-47.366	-42.137	190.894	40.332	-42.767	-38.110	-37.780	-32.760	99.831	-34.059	-8191	255	
2586.459	1	1	0	0	0.060139	0.12405	0.26942	0.2223	0.10824	0.25771	0.32796	0.018733	0.1925	0.086134	0.11467	0.19859	0.20942	0.21605	0.11926	0.14769	-2.4667	-3.0896	-3.0167	-2.8646	-3.1646	-2.8646	-3.0167	-3.3042	-2.8521	-3.2021	-3.2188	-2.9396	-3.1896	-2.8771	-2.9958	-3.3292	-39.967	130.657	62.133	195.997	-52.495	48.377	278.520	71.852	200.519	47.084	244.895	-18.912	57.665	-27.983	68.251	265.448	0.00071562	0.0005644	0.00032887	872.49	1.7648e-05	2.691e-05	1269.9	236.16	1.5052e-05	1.1886e-05	387.39	141.29	66.411	25.43	3.7519e-05	66.8	0.018598	0.022644	0.0062503	1185.3	0.00023721	0.00024306	1391.9	283.11	0.00022477	0.00023695	461.58	165.52	120.17	34.45	0.00022636	79.026	54.354	167.288	-16.495	-46.961	18.896	45.715	-47.329	-42.630	45.509	82.662	-42.786	-37.881	-37.631	-33.303	80.267	-33.918	-8191	255	
2586.555	1	1	0	0	0.15196	0.11977	0.12168	0.15657	0.096397	0.18988	0.20791	0.18469	0.07968	0.20101	0.15515	0.19813	0.25544	0.31952	0.090887	0.22579	-2.6813	-3.1875	-2.9417	-3.0438	-3.2687	-3.1417	-2.9583	-3.35	-3.075	-3.1167	-3.2438	-3.0125	-3.0438	-3.0938	-2.9396	-3.1833	92.400	30.380	30.789	210.766	-3.105	76.958	295.885	194.660	-7.222	127.636	262.991	244.704	-22.357	-19.251	22.943	210.684	0.00025893	0.00040813	0.00053743	870.78	1.2601e-05	1.0147e-05	1262.4	234.96	1.1593e-05	1.5524e-05	384.5	141	65.728	25.325	6.6495e-06	67.479	0.017257	0.021019	0.0058446	1164.8	0.00022201	0.00022744	1374.7	278.91	0.00021209	0.00022326	453.44	162.81	115.47	33.622	0.00020484	77.677	97.447	275.250	227.699	-47.168	47.236	-37.773	-47.430	-42.604	41.204	-56.828	-42.658	-37.872	-38.115	-33.652	-29.632	-33.880	-8191	255	
2586.676	1	1	0	0	0.24756	0.090316	0.11355	0.31892	0.15128	0.14976	0.27006	0.050138	0.14067	0.050658	0.11276	0.20871	0.14389	0.2012	0.15564	0.22254	-2.5563	-3.0083	-3.0583	-2.9188	-3.0875	-2.9667	-3.025	-3.3937	-2.8479	-3.0375	-3.1708	-2.8958	-3.2021	-3.0375	-2.8979	-3.2917	81.614	258.382	14.067	-22.938	110.255	225.079	208.258	-25.699	-43.718	266.405	288.410	-18.361	16.434	-43.477	115.387	214.535	0.00085748	0.0016403	0.00039863	871.93	1.7214e-05	1.2821e-05	1257.2	234.87	2.9943e-05	1.8603e-05	383.57	140.05	65.649	25.345	7.8289e-06	67.513	0.015484	0.018839	0.0052415	1128.3	0.00020201	0.00020847	1356.5	275.28	0.00019927	0.0002119	449.21	161.84	114.33	33.493	0.00020448	77.794	52.700	13.394	163.851	-47.145	161.592	-33.105	-47.395	-42.499	160.361	84.034	-42.725	-38.317	-38.134	-33.154	139.866	-33.786	-8191	255	
2586.772	1	1	0	0	0.31756	0.042013	0.032348	0.11971	0.32526	0.21558	0.33157	0.23024	0.14591	0.18506	0.091126	0.18002	0.15571	0.093168	0.16775	0.024004	-2.5021	-2.9396	-3.1667	-2.7917	-3.2917	-3.075	-3.0312	-3.2917	-3.1833	-2.8792	-3.1979	-3.025	-3.2042	-3.0917	-2.8937	-3.1667	42.271	224.360	215.072	221.458	292.134	229.162	255.736	237.990	226.253	280.601	282.418	143.141	-43.268	205.416	273.591	48.601	0.00036648	0.0019323	0.00028237	870.79	2.5155e-05	1.7691e-05	1260.6	236.26	3.0461e-05	1.9706e-05	384.05	139.58	65.6	25.063	1.313e-05	66.908	0.015767	0.019446	0.0054949	1145.8	0.00021591	0.00022561	1371	279.16	0.00021541	0.00022447	452.84	162.01	114.58	33.241	0.00020102	77.283	28.904	2.505	52.120	-47.265	-26.142	36.295	-47.596	-42.685	94.192	204.555	-43.061	-38.348	-38.395	-33.362	-48.865	-34.193	-8191	255	
#DATA ENDS
