BOXY.EXE: ISS Imagent and Oximeter Data Acquisition Program Version 0.80
Ascii Record File

#ACQ INFORMATION
2  Detector Channels 
16  External MUX Channels 
1  Auxiliary Channels 
5000  Waveform (CCF) Frequency (Hz)
1  Waveforms Skipped 
30  Waveforms Averaged 
1  Cycles Averaged 
16  Acquisitions per Waveform 
10.0806  Updata Rate (Hz) 

#FILE INFORMATION
TRUE -- External MUX Channel results are PARSED.
FALSE -- AC DC and Phase are NOT grouped.
TRUE -- Companion Program Settings File CREATED.
FALSE -- AC data not excluded
FALSE -- DC data not excluded
FALSE -- Phase data not excluded
FALSE -- Auxillary Chn. data not excluded
Tab delimiters

#CALIBRATION STATE
TRUE -- Waveform Calibration Values APPLIED.


#AUX CALIBRATION VALUES
Val Type	aux-1	

Term	1.0000e+00	
Factor	0.0000e+00	


#WF CALIBRATION VALUES
A = Detector Channel
Val Type	A-AC1	A-AC2	A-AC3	A-AC4	A-AC5	A-AC6	A-AC7	A-AC8	A-AC9	A-AC10	A-AC11	A-AC12	A-AC13	A-AC14	A-AC15	A-AC16	A-DC1	A-DC2	A-DC3	A-DC4	A-DC5	A-DC6	A-DC7	A-DC8	A-DC9	A-DC10	A-DC11	A-DC12	A-DC13	A-DC14	A-DC15	A-DC16	A-Ph1	A-Ph2	A-Ph3	A-Ph4	A-Ph5	A-Ph6	A-Ph7	A-Ph8	A-Ph9	A-Ph10	A-Ph11	A-Ph12	A-Ph13	A-Ph14	A-Ph15	A-Ph16	

Term	0.00000e+00	0.00000e+00	0.00000e+00	0.00000e+00	0.00000e+00	0.00000e+00	0.00000e+00	0.00000e+00	0.00000e+00	0.00000e+00	0.00000e+00	0.00000e+00	0.00000e+00	0.00000e+00	0.00000e+00	0.00000e+00	0.00000e+00	0.00000e+00	0.00000e+00	0.00000e+00	0.00000e+00	0.00000e+00	0.00000e+00	0.00000e+00	0.00000e+00	0.00000e+00	0.00000e+00	0.00000e+00	0.00000e+00	0.00000e+00	0.00000e+00	0.00000e+00	0.00000e+00	0.00000e+00	0.00000e+00	0.00000e+00	0.00000e+00	0.00000e+00	0.00000e+00	0.00000e+00	0.00000e+00	0.00000e+00	0.00000e+00	0.00000e+00	0.00000e+00	0.00000e+00	0.00000e+00	0.00000e+00	
Factor	1.00000e+00	1.00000e+00	1.00000e+00	1.00000e+00	1.00000e+00	1.00000e+00	1.00000e+00	1.00000e+00	1.00000e+00	1.00000e+00	1.00000e+00	1.00000e+00	1.00000e+00	1.00000e+00	1.00000e+00	1.00000e+00	1.00000e+00	1.00000e+00	1.00000e+00	1.00000e+00	1.00000e+00	1.00000e+00	1.00000e+00	1.00000e+00	1.00000e+00	1.00000e+00	1.00000e+00	1.00000e+00	1.00000e+00	1.00000e+00	1.00000e+00	1.00000e+00	X	X	X	X	X	X	X	X	X	X	X	X	X	X	X	X	

B = Detector Channel
Val Type	B-AC1	B-AC2	B-AC3	B-AC4	B-AC5	B-AC6	B-AC7	B-AC8	B-AC9	B-AC10	B-AC11	B-AC12	B-AC13	B-AC14	B-AC15	B-AC16	B-DC1	B-DC2	B-DC3	B-DC4	B-DC5	B-DC6	B-DC7	B-DC8	B-DC9	B-DC10	B-DC11	B-DC12	B-DC13	B-DC14	B-DC15	B-DC16	B-Ph1	B-Ph2	B-Ph3	B-Ph4	B-Ph5	B-Ph6	B-Ph7	B-Ph8	B-Ph9	B-Ph10	B-Ph11	B-Ph12	B-Ph13	B-Ph14	B-Ph15	B-Ph16	

Term	0.00000e+00	0.00000e+00	0.00000e+00	0.00000e+00	0.00000e+00	0.00000e+00	0.00000e+00	0.00000e+00	0.00000e+00	0.00000e+00	0.00000e+00	0.00000e+00	0.00000e+00	0.00000e+00	0.00000e+00	0.00000e+00	0.00000e+00	0.00000e+00	0.00000e+00	0.00000e+00	0.00000e+00	0.00000e+00	0.00000e+00	0.00000e+00	0.00000e+00	0.00000e+00	0.00000e+00	0.00000e+00	0.00000e+00	0.00000e+00	0.00000e+00	0.00000e+00	-2.34514e+02	-1.29768e+02	-1.30127e+02	-1.84443e+02	-8.22941e+01	-6.40824e+01	-1.56720e+02	-1.62015e+02	-7.26260e+01	-6.78743e+01	-1.72091e+02	-1.69816e+02	-1.86035e+02	-1.76734e+02	-7.55040e+01	-1.49635e+02	
Factor	5.55501e-05	1.82107e-04	4.65506e-05	3.36067e-01	2.21863e-06	2.08987e-06	1.79340e-01	5.49720e-02	3.07935e-06	1.85942e-06	9.27168e-02	3.06035e-02	5.57620e-02	9.79774e-03	2.10663e-06	1.41981e-02	8.47988e-06	1.03975e-05	2.90508e-06	1.65852e-01	1.11247e-07	1.15048e-07	8.36732e-02	2.73498e-02	1.08864e-07	1.14871e-07	4.47458e-02	1.47719e-02	2.76586e-02	4.92130e-03	1.11357e-07	6.90630e-03	X	X	X	X	X	X	X	X	X	X	X	X	X	X	X	X	



#DISTANCE SETTINGS
A = Detector Channel
A-1	A-2	A-3	A-4	A-5	A-6	A-7	A-8	A-9	A-10	A-11	A-12	A-13	A-14	A-15	A-16	

2.5000e+00	3.0000e+00	2.5000e+00	3.0000e+00	2.0000e+00	3.0000e+00	1.5000e+00	3.0000e+00	3.0000e+00	3.0000e+00	3.0000e+00	3.0000e+00	3.0000e+00	3.0000e+00	1.5000e+00	3.0000e+00	

B = Detector Channel
B-1	B-2	B-3	B-4	B-5	B-6	B-7	B-8	B-9	B-10	B-11	B-12	B-13	B-14	B-15	B-16	

1.0000e+01	1.0000e+01	1.0000e+01	1.4400e+00	1.0000e+01	1.0000e+01	1.5100e+00	1.9400e+00	1.0000e+01	1.0000e+01	1.9900e+00	2.4900e+00	2.4100e+00	2.9000e+00	1.0000e+01	2.9800e+00	




#DATA BEGINS
time	group	step	mark	flag	A-AC1	A-AC2	A-AC3	A-AC4	A-AC5	A-AC6	A-AC7	A-AC8	A-AC9	A-AC10	A-AC11	A-AC12	A-AC13	A-AC14	A-AC15	A-AC16	A-DC1	A-DC2	A-DC3	A-DC4	A-DC5	A-DC6	A-DC7	A-DC8	A-DC9	A-DC10	A-DC11	A-DC12	A-DC13	A-DC14	A-DC15	A-DC16	A-Ph1	A-Ph2	A-Ph3	A-Ph4	A-Ph5	A-Ph6	A-Ph7	A-Ph8	A-Ph9	A-Ph10	A-Ph11	A-Ph12	A-Ph13	A-Ph14	A-Ph15	A-Ph16	B-AC1	B-AC2	B-AC3	B-AC4	B-AC5	B-AC6	B-AC7	B-AC8	B-AC9	B-AC10	B-AC11	B-AC12	B-AC13	B-AC14	B-AC15	B-AC16	B-DC1	B-DC2	B-DC3	B-DC4	B-DC5	B-DC6	B-DC7	B-DC8	B-DC9	B-DC10	B-DC11	B-DC12	B-DC13	B-DC14	B-DC15	B-DC16	B-Ph1	B-Ph2	B-Ph3	B-Ph4	B-Ph5	B-Ph6	B-Ph7	B-Ph8	B-Ph9	B-Ph10	B-Ph11	B-Ph12	B-Ph13	B-Ph14	B-Ph15	B-Ph16	aux-1	digaux	

2262.088	1	1	0	768	0.15432	0.19685	0.12207	0.038773	0.14729	0.27693	0.013301	0.24317	0.052325	0.32873	0.40709	0.099994	0.11865	0.16034	0.1303	0.21843	-2.8187	-3.0542	-2.6979	-3.1688	-2.9062	-2.7729	-3.2729	-3.0521	-2.9917	-3.0917	-2.9792	-3.2438	-3.0375	-3.0438	-3.3583	-3.2792	142.118	153.216	261.575	5.719	61.581	107.077	249.147	221.497	-25.209	288.547	40.080	263.799	115.736	227.540	-14.370	229.945	0.00097058	0.00099388	0.00021493	793.54	1.3081e-05	1.1605e-05	1084	282.64	8.9482e-06	2.1876e-06	477.12	200.32	105.18	48.49	5.4023e-06	107.97	0.0033765	0.0039567	0.0010924	817.04	4.2449e-05	4.4011e-05	1066	280.35	4.1401e-05	4.3194e-05	472.85	198.4	111.25	48.72	4.1797e-05	106.58	32.490	81.963	31.750	-27.978	77.928	154.072	-27.821	-22.718	165.097	76.265	-23.228	-19.186	-18.989	-14.788	39.861	-15.824	-8191	255	
2262.184	1	1	0	0	0.07986	0.061518	0.1605	0.17374	0.24542	0.084024	0.25406	0.22973	0.093289	0.31248	0.22458	0.16904	0.0030524	0.099879	0.083631	0.2352	-2.5896	-3.1271	-2.9917	-3.3958	-2.9437	-2.8458	-3.4229	-2.9125	-3.0021	-3.1312	-2.9688	-3.1625	-3.0792	-2.8771	-3.1833	-3.0708	-17.176	304.832	36.099	243.396	-9.004	146.215	250.205	-32.653	126.080	-22.256	251.813	277.364	294.372	290.361	-26.099	218.530	0.0010156	0.00076512	0.00033179	792.95	6.617e-06	1.6112e-05	1083.9	282.51	1.1487e-05	3.6278e-06	476.65	201.02	105.81	48.969	1.0171e-05	107.88	0.0033413	0.0038732	0.0010746	814.88	4.1139e-05	4.2747e-05	1067	280.62	4.0516e-05	4.2862e-05	474.22	198.93	111.45	48.926	4.1307e-05	106.9	51.180	-21.886	61.679	-27.324	161.978	88.778	-27.810	-22.866	93.517	59.652	-23.411	-19.094	-18.310	-14.902	33.875	-15.800	-8191	255	
2262.280	1	1	0	0	0.15918	0.19107	0.23427	0.045198	0.23059	0.1913	0.20259	0.071726	0.069245	0.076755	0.095037	0.12933	0.081125	0.197	0.17198	0.19126	-2.7083	-3.2917	-3.025	-3.1083	-3.0312	-2.9625	-3.4	-3.1104	-3.0875	-3.2771	-3.0729	-3.2104	-3.3208	-3.0667	-3.3104	-3.1396	315.297	226.029	9.711	-31.083	56.801	62.869	267.992	289.537	291.878	-18.988	286.330	300.352	313.202	311.651	90.654	216.255	0.0010397	0.001156	5.8497e-05	786.85	5.9133e-06	5.6276e-06	1089.7	284.8	1.2314e-05	7.185e-06	478.32	202.93	106.6	49.214	1.2295e-05	109.06	0.003387	0.0038925	0.0010757	816.82	4.1366e-05	4.248e-05	1070.8	282.06	4.0123e-05	4.1784e-05	475.51	200.35	111.95	49.179	4.0982e-05	107.65	36.507	73.548	29.742	-27.653	69.924	94.008	-27.768	-22.810	89.415	103.494	-23.327	-19.100	-18.687	-14.739	114.480	-15.547	-8191	255	
2262.377	1	1	0	0	0.20992	0.12996	0.0342	0.21998	0.2566	0.21431	0.21163	0.20754	0.21552	0.11571	0.13518	0.15196	0.09061	0.28469	0.16668	0.078727	-2.4542	-3.0187	-2.6542	-3.1479	-3.2292	-3.0979	-3.3521	-3.1042	-2.7896	-3.3271	-3.1	-3.3021	-3.1958	-2.8812	-3.2438	-3.15	224.837	130.288	226.035	288.859	54.373	50.502	252.256	277.367	134.104	252.296	244.926	134.753	285.670	288.045	51.319	210.795	0.0010756	0.00026316	4.2318e-05	795.71	1.1013e-05	1.4403e-05	1089	285.56	1.6284e-05	1.2032e-05	480.53	202.56	105.57	49.33	1.3989e-05	109.15	0.0032944	0.003844	0.0010753	817.21	4.0827e-05	4.162e-05	1073.5	282.8	3.9664e-05	4.1641e-05	477.99	200.6	111.82	49.23	4.0921e-05	107.67	43.487	22.944	235.826	-28.035	108.514	61.090	-28.069	-22.743	120.332	122.148	-23.252	-19.111	-18.632	-14.749	120.675	-15.611	-8191	255	
2262.473	1	1	0	0	0.2296	0.1322	0.058649	0.11445	0.1909	0.28142	0.36446	0.2307	0.041502	0.27356	0.012251	0.12392	0.069757	0.34099	0.063415	0.29134	-2.5521	-3.1417	-2.825	-3.0083	-3.0687	-2.8708	-3.1854	-3.4062	-2.9771	-3.2	-3.0958	-3.2083	-3.2792	-2.9729	-3.1958	-3.2583	39.932	299.767	3.615	268.948	-10.416	78.649	239.157	267.529	186.716	63.930	128.489	-27.312	191.209	296.511	-1.851	283.970	0.0013149	0.0010309	0.00022702	795.6	1.197e-05	1.0464e-05	1087.8	282.84	1.0613e-05	1.2485e-05	477.58	200.75	105.67	48.962	1.3249e-05	107.99	0.0033043	0.0037707	0.0010635	817.43	4.016e-05	4.1913e-05	1067.9	281.18	3.9392e-05	4.1794e-05	473.27	198.63	111.29	48.989	4.1127e-05	106.96	46.558	81.847	60.816	-27.926	103.051	82.659	-27.655	-22.577	70.621	125.202	-23.277	-19.072	-18.271	-14.903	110.228	-15.604	-8191	255	
2262.569	1	1	0	0	0.25112	0.19881	0.1759	0.0692	0.11942	0.13345	0.064959	0.18508	0.39558	0.16755	0.21502	0.25506	0.10995	0.19165	0.2077	0.20067	-2.3417	-3.1104	-3.0417	-2.9646	-3.15	-2.8604	-3.3104	-3	-2.8667	-3.3604	-3.0083	-3.2521	-3.2188	-2.8771	-3.1667	-3.2604	229.130	-21.528	-7.308	194.892	15.965	46.029	53.821	23.177	128.190	93.857	263.332	217.230	182.457	227.191	42.516	-38.300	0.0012096	0.00057007	0.00037818	796.05	7.9941e-06	8.3029e-06	1086.9	283.01	8.7117e-06	4.0203e-06	476.93	200.8	106.79	49.052	6.211e-06	108.77	0.0032707	0.0038292	0.001062	814.75	4.0485e-05	4.1645e-05	1066.3	280.66	3.9501e-05	4.1845e-05	474.14	199.24	111.67	48.99	4.0683e-05	107.41	36.676	45.379	54.873	-27.632	47.329	93.021	-27.794	-22.720	238.922	71.786	-23.101	-19.038	-18.840	-14.592	112.072	-15.750	-8191	255	
2262.689	1	1	0	0	0.26872	0.048396	0.097065	0.12125	0.14777	0.043381	0.21667	0.070806	0.093864	0.18112	0.19495	0.24129	0.042381	0.23453	0.071792	0.349	-2.4646	-3.1875	-3.1375	-2.9604	-3.1333	-2.8521	-3.0458	-3.2333	-2.8625	-3.2708	-3.2313	-3.1042	-3.0667	-3.1979	-3.2646	-3.5958	197.921	207.875	207.186	282.194	94.345	81.989	290.351	250.859	-32.479	144.037	206.359	305.975	61.665	-34.768	317.225	282.060	0.0010267	0.00068661	0.00016794	795.56	1.0045e-05	1.4483e-05	1083.7	284.64	1.7712e-05	3.7026e-07	479.94	202.5	106.72	49.192	1.1563e-05	108.75	0.0032679	0.0038068	0.0010601	816.84	4.033e-05	4.2016e-05	1066.8	281.87	3.8983e-05	4.125e-05	476.16	199.68	111.67	49.177	4.0049e-05	107.66	46.653	-9.619	19.365	-28.057	108.613	88.110	-27.815	-22.378	76.229	232.487	-23.389	-19.028	-18.391	-14.767	105.023	-15.641	-8191	255	
2262.786	1	1	0	0	0.16178	0.10904	0.17054	0.41017	0.01995	0.098231	0.18812	0.19446	0.017161	0.23018	0.23752	0.14843	0.10054	0.20875	0.095932	0.28162	-2.425	-3.1292	-3.125	-2.9437	-3.2417	-3.0396	-3.1854	-3.3521	-3.1458	-3.2667	-3.3875	-3.15	-3.4104	-3.0563	-3.0271	-3.4083	157.825	51.435	-25.395	170.341	257.993	203.415	272.113	215.699	162.152	192.069	268.669	286.793	235.856	278.565	103.468	266.849	0.0010511	0.00078394	0.00012983	801.39	9.9681e-06	9.6447e-06	1091.2	286.1	9.8239e-06	9.9883e-06	479.84	202.95	106.62	49.249	2.2984e-05	108.68	0.0031884	0.0036942	0.001039	819.68	3.9244e-05	4.1116e-05	1073.5	282.51	3.8739e-05	4.0636e-05	477.21	200.59	111.66	49.317	3.9192e-05	107.58	27.976	16.578	15.475	-27.976	82.783	97.815	-27.849	-22.639	141.399	72.198	-23.336	-19.285	-18.537	-14.829	89.701	-15.611	-8191	255	
2262.882	1	1	0	0	0.22324	0.10516	0.023742	0.14397	0.072459	0.25544	0.13212	0.050638	0.19246	0.18976	0.19352	0.27768	0.16515	0.23813	0.1825	0.21245	-2.5979	-3.1583	-3.0417	-2.9104	-3.0646	-2.9854	-3.1375	-3.3104	-2.8187	-3.1896	-3.4042	-2.9958	-3.0583	-3.1333	-2.8917	-3.3563	73.334	134.990	120.610	297.682	307.557	105.378	139.082	279.355	-33.322	292.842	-26.737	276.864	319.412	259.492	246.915	-20.273	0.0012146	0.0013148	0.00034986	798.36	9.1967e-06	6.6253e-06	1089.2	283.24	1.0139e-05	1.0819e-05	476.18	201.18	106.66	49.057	8.5894e-06	108.19	0.0031793	0.0036749	0.0010139	815.09	3.8964e-05	3.9547e-05	1066.9	280.73	3.8132e-05	4.0045e-05	473.26	198.73	111.23	48.917	3.8763e-05	106.93	39.206	56.263	52.332	-27.675	59.006	72.696	-27.658	-22.467	125.400	97.036	-23.254	-19.298	-18.429	-14.832	177.722	-15.661	-8191	255	
2262.978	1	1	0	0	0.22287	0.19554	0.098622	0.15584	0.15504	0.30388	0.10694	0.18172	0.24024	0.099289	0.15386	0.20082	0.14747	0.14783	0.23109	0.29383	-2.6146	-3.0333	-3.2042	-2.9083	-3.3438	-3.2375	-2.9667	-3.1021	-2.8979	-3.0938	-3.275	-3.1729	-3.1813	-3.2854	-2.8917	-3.2583	228.427	-21.037	108.152	46.289	243.133	-9.124	211.212	297.852	232.813	270.603	180.904	284.916	292.291	266.608	306.545	295.063	0.00085811	0.00082194	0.00029662	795.06	3.183e-06	5.1696e-06	1085.5	283.65	1.1055e-05	1.0093e-05	478.29	201.23	106.33	49.134	1.1498e-05	108.45	0.0031689	0.0036545	0.0010185	815.48	3.9191e-05	4.1015e-05	1066	281.25	3.838e-05	4.0662e-05	473.26	198.89	111.17	49.078	3.9265e-05	107.44	45.017	41.653	11.389	-27.511	204.285	133.556	-28.327	-22.613	155.338	157.086	-22.955	-19.029	-18.584	-14.711	137.493	-15.573	-8191	255	
2263.074	1	1	0	0	0.22285	0.13772	0.34238	0.021266	0.051142	0.12192	0.095595	0.096836	0.12243	0.25132	0.11584	0.19456	0.046502	0.14399	0.24912	0.29116	-2.5271	-2.9792	-3.2229	-2.8375	-3.1271	-3.0625	-3.1479	-3.3417	-2.8875	-3.1562	-3.4229	-3.0438	-3.225	-3.1271	-2.9792	-3.3438	46.045	299.191	112.722	88.425	234.571	-26.357	246.981	-36.414	165.630	144.338	262.287	243.305	177.428	-10.528	311.943	265.761	0.0009209	0.00060842	0.00021253	799.65	9.8448e-06	7.7863e-06	1087.5	283.73	1.0791e-05	9.4855e-06	479.53	201.85	105.86	49.301	1.7692e-05	109.16	0.0031856	0.0036896	0.0010185	815.88	4.0002e-05	4.0882e-05	1068.2	281.7	3.8679e-05	4.0749e-05	475.57	199.9	111.66	49.296	3.9975e-05	107.91	36.771	158.119	29.130	-28.079	51.122	51.447	-27.837	-22.803	212.171	104.753	-23.229	-19.201	-18.422	-14.549	95.505	-15.518	-8191	255	
2263.168	1	1	0	0	0.24335	0.19506	0.005766	0.12908	0.11774	0.10636	0.14028	0.36184	0.18906	0.17048	0.015296	0.11564	0.23375	0.19402	0.18353	0.39078	-2.6521	-2.9917	-3.3375	-2.9979	-3.1354	-3.2188	-3.0333	-3.2604	-2.9062	-3.175	-3.4313	-2.9125	-2.9896	-3.1417	-2.8438	-3.4146	8.627	-8.708	187.847	69.080	317.976	212.779	289.343	-21.609	42.601	293.651	295.829	270.181	288.027	205.135	90.420	251.489	0.0011008	0.00033983	0.00016251	799.58	1.4605e-05	1.2287e-05	1089.3	285.49	1.0225e-05	5.3223e-06	483.26	203.4	106.87	49.576	5.5848e-06	109.65	0.0032435	0.0036823	0.0010427	816.49	4.0401e-05	4.1405e-05	1070.9	282.59	3.9325e-05	4.136e-05	477.99	200.77	111.97	49.548	4.0574e-05	108.25	34.732	-19.398	308.519	-27.604	106.344	117.845	-27.814	-22.503	92.965	35.484	-23.270	-19.319	-18.194	-14.552	100.287	-15.708	-8191	255	
2263.266	1	1	0	0	0.18082	0.052684	0.1957	0.15096	0.31983	0.25957	0.072625	0.12292	0.065675	0.042048	0.098926	0.22278	0.18093	0.37285	0.24278	0.38336	-2.4917	-2.8042	-3.2104	-2.825	-3.2417	-3.1792	-3.0604	-3.2833	-3.0563	-2.8375	-3.4708	-3.1417	-3.1125	-3.3937	-3.0083	-3.2938	239.382	-23.087	205.683	122.908	194.794	258.471	-19.771	283.106	29.164	224.272	256.490	282.731	11.550	34.421	219.413	-29.543	0.0011908	0.00090759	0.0001743	796.84	4.9827e-06	8.437e-06	1083.6	282.99	1.3174e-05	7.6337e-06	477.5	200.58	106.28	49.138	8.7507e-06	108.49	0.0032619	0.0037911	0.0010699	816.92	4.0862e-05	4.1732e-05	1067.1	280.97	3.9742e-05	4.1657e-05	474.07	198.63	111.47	49.039	4.0626e-05	107.18	36.827	52.870	56.894	-28.012	135.512	86.939	-27.699	-22.726	117.778	85.659	-22.949	-18.908	-18.286	-14.957	-28.944	-15.681	-8191	255	
2263.385	1	1	0	0	0.060437	0.18388	0.16913	0.0567	0.064272	0.20976	0.43313	0.21437	0.043496	0.12842	0.24279	0.07564	0.21728	0.12626	0.057924	0.15982	-2.5687	-2.8729	-3.2125	-2.8646	-2.8708	-3.3333	-2.8979	-3.2729	-3.1813	-2.8896	-3.1896	-3.1542	-3.0125	-3.2812	-2.9875	-3.2271	-34.450	245.488	287.858	275.553	122.824	204.043	222.698	7.522	170.234	176.664	294.315	253.260	16.696	-28.944	143.212	276.968	0.0010267	0.00013639	0.00016384	792.9	1.452e-05	1.7082e-05	1081.5	283.46	1.0477e-05	6.3127e-06	478.74	201.44	105.11	49.067	1.4795e-05	108.53	0.0033148	0.00383	0.0010811	815.67	4.1321e-05	4.2989e-05	1065.4	281.41	4.0458e-05	4.2435e-05	473.76	198.61	110.97	49.089	4.1483e-05	107.44	54.970	-35.509	20.937	-28.084	137.442	71.990	-27.824	-22.578	216.873	78.510	-23.375	-19.077	-18.663	-14.532	100.558	-15.728	-8191	255	
2263.481	1	1	0	0	0.11815	0.17007	0.12525	0.13403	0.048148	0.35171	0.11496	0.34543	0.085712	0.2063	0.19793	0.10102	0.18114	0.20843	0.099659	0.27187	-2.7125	-2.8271	-3.2083	-2.9542	-2.9083	-3.0854	-2.9875	-3.1875	-3.1542	-2.9604	-3.3792	-3.1021	-2.9979	-3.175	-2.9875	-3.2292	257.180	221.621	42.411	198.266	197.606	123.663	55.929	294.422	193.527	113.126	-26.216	257.572	201.039	286.894	113.635	200.357	0.0011112	0.0011238	2.2057e-05	796.69	7.1671e-06	7.3606e-06	1085.7	282.82	1.9141e-05	6.5046e-06	479.11	201.83	105.92	49.181	1.089e-05	108.85	0.003345	0.0039307	0.0010861	819.94	4.2361e-05	4.3896e-05	1068.8	281.65	4.1289e-05	4.3158e-05	475.74	199.75	111.93	49.257	4.1534e-05	107.84	37.433	-6.967	-19.574	-28.175	49.990	142.804	-27.764	-22.772	122.498	162.377	-23.383	-19.504	-18.381	-14.765	133.557	-15.507	-8191	255	
2263.578	1	1	0	0	0.085894	0.18184	0.17412	0.16104	0.14863	0.12599	0.10109	0.14411	0.040766	0.16212	0.12668	0.25149	0.08649	0.27617	0.30952	0.22406	-2.7333	-2.7979	-3.2188	-3.0396	-2.9854	-3.3104	-3.0833	-3.1542	-3.275	-2.7625	-3.2333	-3.0687	-2.8771	-3.3417	-2.9146	-3.1354	207.847	54.925	87.248	239.933	8.210	274.370	185.168	234.669	269.866	150.484	235.229	258.244	87.951	311.338	13.412	304.961	0.00092023	0.00091783	0.00022707	793.42	1.316e-05	1.0605e-05	1091.9	285.53	8.3752e-06	4.8254e-06	481.48	202.63	106.95	49.316	8.0205e-06	109.11	0.0033134	0.0038658	0.0010817	818.9	4.1361e-05	4.3449e-05	1073.6	283.35	4.1483e-05	4.396e-05	478.28	200.52	112.83	49.535	4.3205e-05	108.16	53.374	56.024	108.369	-28.141	116.073	100.080	-28.023	-22.772	312.540	134.345	-23.350	-19.146	-18.177	-14.761	131.330	-15.413	-8191	255	
2263.649	1	1	0	0	0.098618	0.11445	0.10616	0.13733	0.084112	0.013324	0.1442	0.16953	0.18418	0.20366	0.18597	0.071977	0.17045	0.079197	0.1073	0.2844	-2.6125	-2.8146	-2.8354	-2.9188	-2.7542	-3.1	-3.1125	-2.9958	-3.1813	-2.8458	-3.2271	-3.3042	-2.8125	-3.2542	-2.9979	-3.2292	274.989	297.603	205.360	-0.566	218.613	18.265	282.736	279.842	-25.497	167.378	281.404	222.982	221.948	183.110	31.527	234.924	0.00098617	0.0017247	0.00015845	795.67	5.3158e-06	1.2054e-05	1088.8	283.77	7.1458e-06	1.3571e-05	479.25	200.61	105.1	48.826	1.0792e-05	108.28	0.0034626	0.0040287	0.0011322	819.62	4.3077e-05	4.4344e-05	1069.1	282.61	4.2351e-05	4.4489e-05	475.58	199.12	111.79	49.112	4.4088e-05	107.16	56.740	49.585	8.871	-27.860	131.357	136.948	-27.810	-22.630	168.820	69.591	-23.242	-19.440	-18.531	-14.481	50.512	-15.705	-8191	255	
2263.770	1	1	0	0	0.10762	0.29357	0.059681	0.10789	0.21605	0.10657	0.12891	0.28872	0.15259	0.066514	0.056346	0.18419	0.031944	0.16894	0.13798	0.17937	-2.7604	-2.775	-2.9667	-3.2458	-2.6188	-3.1146	-3.1	-2.8271	-3.1437	-2.8958	-3.0542	-3.1063	-2.8667	-3.1958	-3.0083	-3.0729	213.733	262.636	294.647	41.211	220.501	91.647	140.745	254.083	244.681	37.214	278.106	-19.229	261.426	152.659	280.204	272.081	0.0011465	0.00090719	0.00012635	795.87	4.2297e-06	9.5811e-06	1081.7	283.86	1.5338e-05	9.9387e-06	476	201.73	105.77	48.989	6.5798e-06	108.2	0.0035178	0.004086	0.0011427	818.77	4.3764e-05	4.5231e-05	1065.6	281.89	4.2723e-05	4.5368e-05	474.25	199.38	112.07	49.196	4.4328e-05	107.51	51.461	77.772	47.479	-27.865	70.270	68.792	-27.863	-22.831	140.368	80.048	-23.168	-19.282	-18.804	-14.741	85.740	-15.624	-8191	255	
2263.866	1	1	0	0	0.10194	0.1786	0.078055	0.15341	0.052254	0.10445	0.26951	0.060471	0.26395	0.22629	0.40675	0.28469	0.24446	0.26589	0.1345	0.28914	-2.8021	-2.9583	-3.025	-3.0729	-2.8542	-3.2167	-2.9771	-2.8854	-3.1667	-2.8854	-3.1271	-3.3417	-2.8917	-3.1667	-2.9354	-3.0771	82.263	86.044	9.754	259.227	257.499	234.762	266.288	270.192	112.814	312.340	269.320	287.441	272.471	289.497	141.743	250.841	0.00085641	0.0016011	0.00026921	795.71	1.8051e-05	1.3878e-05	1085.8	284.12	1.8812e-05	1.0283e-05	479.58	201.17	106.11	48.955	8.18e-06	108.69	0.0035693	0.0041359	0.0011483	819.53	4.4427e-05	4.63e-05	1070.7	283.21	4.4122e-05	4.6005e-05	477.1	200.06	112.76	49.309	4.4283e-05	107.82	35.762	40.126	44.480	-27.637	78.299	135.476	-27.820	-22.631	90.319	121.615	-23.120	-19.159	-18.565	-14.686	-21.394	-15.417	-8191	255	
2263.962	1	1	0	0	0.13513	0.10607	0.24495	0.090599	0.24038	0.12078	0.25014	0.22164	0.098786	0.32256	0.24652	0.069669	0.06434	0.32041	0.13364	0.078693	-2.6688	-2.9333	-2.8729	-3.175	-3.0271	-3.0479	-3.4292	-3.0604	-3.1292	-2.9688	-2.8187	-3.4	-3.0167	-3.2917	-2.9542	-3.0021	103.379	255.902	7.888	177.794	264.154	319.167	162.138	242.531	40.609	263.383	-22.087	180.340	17.974	-33.347	201.999	238.978	0.0010552	0.00075293	0.0002391	798.28	6.983e-06	1.2596e-05	1089.5	286.09	1.0629e-05	9.8453e-06	481.78	202.56	105.8	48.981	1.1135e-05	108.77	0.003594	0.004181	0.0011524	822.52	4.4681e-05	4.6317e-05	1073.7	284.13	4.4413e-05	4.6728e-05	479.16	201.17	112.81	49.474	4.5032e-05	107.86	50.484	86.998	49.304	-27.497	100.808	147.099	-27.962	-22.574	118.713	112.228	-23.182	-19.089	-18.699	-14.627	117.465	-15.386	-8191	255	
2264.058	1	1	0	0	0.17293	0.063965	0.13395	0.33446	0.14514	0.1274	0.38578	0.21713	0.13403	0.22232	0.17091	0.16742	0.26472	0.047859	0.20807	0.15133	-2.7583	-3.0708	-2.6937	-3.1	-2.8396	-3.0604	-3.3417	-3.0271	-3.0292	-3.1479	-3.2604	-3.3688	-2.8479	-2.8729	-3.1854	-3.1188	-7.159	-16.273	230.008	91.058	-25.044	286.450	273.455	284.454	32.620	9.717	158.248	241.897	28.104	275.897	67.961	192.090	0.00098539	0.00039096	0.00024508	794.37	3.7116e-06	1.2888e-05	1082.8	284.14	1.4577e-05	8.749e-06	477.74	201.39	106.19	48.863	8.0888e-06	107.6	0.003636	0.0041679	0.0011705	821.9	4.523e-05	4.6642e-05	1069.8	283.01	4.4466e-05	4.6395e-05	475.52	199.83	112.3	49.026	4.4865e-05	106.83	43.559	87.217	1.784	-28.121	95.931	41.585	-27.800	-22.525	137.924	96.084	-23.164	-19.110	-18.833	-14.701	120.280	-15.575	-8191	255	
2264.177	1	1	0	0	0.12663	0.24991	0.035303	0.12905	0.070236	0.18408	0.12711	0.31132	0.070738	0.06413	0.30431	0.12194	0.14902	0.11423	0.18633	0.20808	-2.7438	-2.9708	-2.8812	-3.2396	-2.8792	-3.2625	-3.375	-3.0792	-3.0812	-3.0375	-3.1875	-3.225	-2.9313	-2.9333	-3.2271	-3.0375	112.381	75.574	286.666	306.249	13.166	20.733	157.951	230.801	273.279	218.960	307.639	62.681	97.353	184.613	183.863	217.442	0.00099466	0.00026976	0.00025797	791.83	1.2914e-05	1.2794e-05	1081.1	284.01	1.1619e-05	9.1335e-06	480.31	200.71	105.65	48.852	1.7607e-05	108.36	0.0035699	0.0041002	0.0011508	817.79	4.431e-05	4.5255e-05	1065.9	282.47	4.34e-05	4.5376e-05	475.81	199.1	112.14	49.025	4.4443e-05	107.2	38.304	152.384	40.988	-27.632	57.642	59.845	-27.680	-22.438	105.788	135.380	-23.233	-19.168	-18.325	-14.589	146.856	-15.606	-8191	255	
2264.251	1	1	0	0	0.10674	0.21858	0.16627	0.13934	0.20773	0.18449	0.16767	0.33215	0.14876	0.095512	0.090915	0.23846	0.076366	0.10364	0.12792	0.048951	-2.5146	-3.0542	-2.8354	-3.3083	-2.8563	-2.8417	-3.1188	-2.8958	-3.0458	-3.0979	-2.8875	-3.2583	-2.9375	-3.0062	-2.9708	-3.1542	202.775	63.037	10.998	289.895	131.363	101.614	177.149	291.891	204.956	286.854	237.714	312.058	123.094	289.757	24.552	232.228	0.00096425	0.00073224	0.00020468	788.92	8.3901e-06	4.6659e-06	1081.2	284.05	1.2214e-05	4.7395e-06	478.36	202.66	105.45	49.16	8.5299e-06	109.08	0.0035408	0.0040885	0.0011449	816.5	4.3522e-05	4.5762e-05	1066.2	282.49	4.3785e-05	4.5737e-05	476.52	200.5	112.71	49.37	4.4634e-05	107.75	38.984	77.213	-32.595	-27.609	53.249	75.101	-27.833	-22.581	128.348	58.400	-23.346	-19.240	-18.517	-14.552	117.765	-15.634	-8191	255	
2264.369	1	1	0	0	0.16664	0.014811	0.19506	0.17343	0.20354	0.046007	0.17572	0.26713	0.16383	0.13686	0.17956	0.24242	0.11589	0.10639	0.17165	0.10709	-2.5458	-2.8771	-2.8125	-3.0354	-3.0312	-2.9854	-3.2875	-3.2	-3	-3.2438	-2.9771	-3.2271	-3.2229	-2.8125	-3.2042	-3.075	171.354	284.766	307.609	188.957	109.263	221.030	294.007	179.382	30.059	199.902	283.602	234.470	-30.707	307.306	131.603	205.243	0.0011929	0.00098906	0.00019599	791.28	1.4467e-05	6.8765e-06	1083.4	284.21	2.6222e-06	7.5851e-06	479.56	202.35	105.96	49.338	1.6796e-05	108.77	0.0036114	0.004196	0.0011756	820.58	4.5531e-05	4.6649e-05	1070.8	283.02	4.412e-05	4.6116e-05	477.35	200.87	112.5	49.435	4.4402e-05	108.03	50.057	51.334	16.758	-27.599	87.106	112.442	-27.668	-22.616	13.660	91.772	-23.284	-19.172	-18.501	-14.576	67.682	-15.599	-8191	255	
2264.466	1	1	0	0	0.16231	0.16073	0.075	0.33595	0.057936	0.14658	0.24398	0.29185	0.14981	0.1812	0.1422	0.085649	0.16811	0.13668	0.05084	0.29451	-2.5958	-2.9938	-2.8417	-3.2354	-3.075	-2.7167	-3.2625	-3.0667	-2.9188	-3.1979	-2.9062	-3.2167	-3.25	-2.9667	-3.0958	-3.3438	-21.141	-13.204	252.480	274.561	132.512	193.426	234.155	289.965	32.847	23.056	227.981	125.324	242.105	12.500	71.409	252.753	0.0010763	0.00069601	0.00027624	792.8	2.4904e-05	1.0729e-05	1080.2	284.16	8.1374e-06	1.0021e-05	476.14	201.6	106.07	49.035	2.4004e-06	108.25	0.0035425	0.0041234	0.0011676	820.84	4.4272e-05	4.5775e-05	1066.3	281.95	4.4006e-05	4.5791e-05	474.79	199.48	112.04	49.163	4.4305e-05	107.22	53.634	73.445	70.740	-28.004	65.250	147.577	-27.850	-22.632	60.858	75.738	-23.358	-19.014	-18.603	-14.794	-10.742	-15.584	-8191	255	
2264.562	1	1	0	0	0.15047	0.16861	0.077288	0.17358	0.078797	0.075759	0.04882	0.25911	0.13687	0.053012	0.18811	0.20245	0.066258	0.15661	0.25895	0.17511	-2.45	-3.2521	-2.8042	-3.0896	-3.3167	-2.9771	-3.3271	-3.3604	-3.0146	-3.2083	-2.9583	-3.1479	-3.225	-2.9833	-3.1042	-3.1521	48.056	123.742	11.650	148.873	-20.891	1.003	250.341	-24.934	65.244	255.803	263.632	4.701	-27.614	293.230	171.623	255.762	0.00090753	0.00050072	0.00019226	787.18	1.1743e-05	7.1701e-06	1075.2	283.34	1.1954e-05	1.4175e-05	475.21	201.27	104.41	48.783	4.0577e-06	108.09	0.0035493	0.0041739	0.0011571	814.34	4.3935e-05	4.5497e-05	1063.4	281.99	4.2419e-05	4.5295e-05	473.87	199.3	111.93	49.06	4.3967e-05	107.37	37.135	64.827	66.731	-27.593	56.858	31.571	-27.825	-22.704	102.751	151.001	-23.237	-19.091	-18.744	-14.823	-38.484	-15.591	-8191	255	
2264.658	1	1	0	0	0.17231	0.34991	0.19542	0.22717	0.079823	0.26694	0.1951	0.17809	0.14089	0.15841	0.02201	0.33717	0.10434	0.24051	0.15167	0.3556	-2.3688	-3.125	-2.7792	-2.9	-3.1083	-2.8333	-3.3917	-3.1854	-2.8833	-3.2958	-3.0604	-3.0812	-3.2104	-3.0229	-3.1729	-3.1771	17.903	187.328	36.357	10.776	204.458	63.410	315.880	241.710	106.428	181.679	300.243	280.900	208.427	302.240	125.266	277.296	0.0012378	0.0008489	0.0001367	795.79	1.1922e-05	1.5981e-05	1081.5	282.95	1.9359e-05	9.6621e-07	477.29	201.13	106.14	48.731	1.4252e-05	108.41	0.0035176	0.0040525	0.001138	817.3	4.3416e-05	4.4763e-05	1067	282.07	4.2305e-05	4.4166e-05	475.2	199.59	112.4	49.211	4.2728e-05	107.42	40.303	53.843	55.586	-27.686	67.642	186.930	-27.974	-22.729	154.102	94.719	-23.066	-19.303	-18.785	-14.817	114.053	-15.548	-8191	255	
2264.779	1	1	0	0	0.32679	0.35656	0.16372	0.29263	0.19231	0.18113	0.2826	0.096395	0.10886	0.24739	0.12262	0.10074	0.08085	0.10083	0.39399	0.45258	-2.4479	-3.1625	-3.0458	-2.8729	-3.1292	-2.8292	-3.2313	-3.1229	-2.9229	-3.1437	-3.2438	-3.0146	-3.1792	-2.8875	-2.9792	-3.2458	47.010	41.081	13.015	243.406	176.064	76.129	272.935	177.230	289.197	176.967	283.662	256.029	316.851	299.172	89.539	218.848	0.001094	0.0010793	0.00023237	791.63	7.0493e-07	1.2506e-05	1083.4	284.47	1.0215e-05	5.3746e-06	477.42	202.48	106.01	49.047	7.9695e-06	108.82	0.0034609	0.0039846	0.0011054	818.55	4.2064e-05	4.4011e-05	1067	282.31	4.1653e-05	4.3863e-05	475.86	200.57	112.28	49.228	4.2129e-05	107.86	38.242	92.147	54.310	-27.999	208.755	178.739	-27.976	-22.499	37.016	52.395	-23.232	-19.239	-18.397	-14.437	107.345	-15.400	-8191	255	
2264.875	1	1	0	0	0.16715	0.057	0.11895	0.28625	0.14853	0.049559	0.099808	0.13276	0.23473	0.22503	0.10772	0.18393	0.14652	0.10646	0.12028	0.16595	-2.525	-3.0667	-2.9604	-2.8333	-3.0062	-2.825	-3.1208	-3.3896	-2.7521	-3.0979	-3.0771	-2.8979	-3.1833	-3.0833	-3.0854	-3.4688	126.278	248.508	100.597	147.476	216.193	84.110	192.638	75.197	-20.033	306.701	266.278	263.246	-6.535	314.849	162.006	285.604	0.00091018	0.0011198	0.00035462	787.2	9.0308e-06	7.8986e-06	1084.4	282.09	1.9289e-05	7.4628e-06	475.89	200.69	105.61	48.838	1.1201e-05	107.93	0.0034033	0.0039424	0.0010932	813.18	4.1841e-05	4.3083e-05	1066.9	281.13	4.0693e-05	4.2796e-05	473.32	198.75	111.18	48.957	4.1352e-05	106.77	28.536	72.239	35.449	-27.866	57.515	73.050	-27.810	-22.728	93.841	28.984	-22.901	-19.195	-18.211	-14.844	79.804	-15.597	-8191	255	
2264.946	1	1	0	0	0.14993	0.095188	0.066771	0.22834	0.078499	0.13778	0.19954	0.31729	0.054163	0.14801	0.10908	0.15517	0.21359	0.12393	0.24546	0.16893	-2.5292	-2.9354	-3.0458	-2.7562	-3.1583	-3.0854	-3.1188	-3.2917	-2.9313	-3.2562	-3.1542	-2.8375	-3.3729	-3.0917	-3.0187	-3.5771	174.991	41.519	37.006	308.523	143.340	72.218	-9.858	297.410	-16.304	38.809	319.316	197.852	116.536	101.063	251.507	237.592	0.0010205	0.00015721	0.00027465	791.42	9.5094e-06	1.5346e-05	1079.9	281.92	1.808e-05	1.2148e-05	473.92	200.63	105.45	48.929	6.3786e-06	108.28	0.0033862	0.0038573	0.0010771	812.06	4.1321e-05	4.2696e-05	1061.6	280.17	4.0396e-05	4.2588e-05	471.49	198.55	111.27	48.888	4.1823e-05	106.98	33.023	174.715	74.040	-27.387	140.109	122.239	-27.672	-22.450	100.180	96.195	-23.365	-19.237	-18.572	-14.769	80.163	-15.601	-8191	255	
2265.067	1	1	0	0	0.13006	0.19979	0.15222	0.055508	0.088735	0.13161	0.16757	0.16702	0.20778	0.22135	0.39863	0.05873	0.3045	0.18138	0.18196	0.094122	-2.6125	-3.0521	-3.0062	-2.8146	-3.2104	-3.0417	-3.0542	-3.1646	-2.7896	-3.0563	-3.2625	-2.8542	-3.075	-3.0938	-3.0104	-3.3229	53.241	150.996	39.397	147.801	-24.604	-32.166	283.631	316.414	13.474	63.404	-35.643	297.741	254.826	-13.194	38.811	-14.565	0.0010041	0.00093419	0.0001785	792.26	5.2021e-06	1.5422e-05	1078.5	283.75	7.5509e-06	2.6131e-06	477.4	200.36	105.62	48.817	1.0598e-05	108.03	0.0033897	0.0038954	0.0010923	813.43	4.1423e-05	4.322e-05	1062.9	281.12	4.0996e-05	4.2519e-05	472.61	198.44	111.06	48.876	4.2462e-05	107.03	48.827	89.016	32.152	-28.123	84.127	98.615	-27.825	-22.885	72.998	41.623	-22.942	-19.214	-18.631	-14.794	99.513	-15.624	-8191	255	
2265.161	1	1	0	0	0.25294	0.28516	0.30354	0.15411	0.23922	0.17597	0.17171	0.20931	0.27141	0.30389	0.19264	0.080375	0.41175	0.08102	0.021305	0.21397	-2.4833	-3.0646	-3.1479	-2.8625	-3.025	-3.1063	-2.9896	-3.0708	-3.1188	-3.1813	-3.2313	-3.0333	-3.1042	-2.9417	-2.9042	-3.4062	110.284	193.654	54.086	200.392	57.376	38.202	284.937	284.427	219.138	225.162	39.912	223.947	18.318	191.140	-28.619	178.358	0.0011337	0.0011373	7.9351e-05	789.12	4.6916e-06	1.4558e-05	1076.5	281.33	1.3534e-05	6.9145e-06	472.48	200.59	105.4	48.819	6.7421e-06	108.44	0.0034493	0.0040047	0.001138	814.39	4.387e-05	4.5068e-05	1063.2	279.79	4.3948e-05	4.636e-05	473.01	198.82	111.5	48.964	4.4931e-05	107.67	41.227	57.047	38.559	-27.366	198.478	116.076	-28.039	-22.298	82.799	121.391	-23.293	-19.178	-18.692	-14.597	78.233	-15.513	-8191	255	
2265.258	1	1	0	0	0.11877	0.031151	0.17258	0.12914	0.028452	0.050806	0.27319	0.07558	0.031223	0.098207	0.10655	0.13723	0.056345	0.097326	0.14178	0.19795	-2.4896	-2.8708	-3.1125	-2.8104	-3.1333	-3.1167	-3.0563	-3.2271	-3.0167	-2.9979	-3.2729	-2.9167	-3.0521	-3.0062	-2.8583	-3.3333	233.304	155.268	12.517	35.202	240.716	162.525	204.749	139.893	45.019	46.548	188.311	303.815	91.791	98.112	75.441	201.096	0.00086774	0.001659	0.00017731	791.1	7.0142e-06	8.9069e-06	1074.9	280.4	2.5421e-05	8.627e-06	473.64	198.73	104.18	48.424	1.1388e-05	107.63	0.0036091	0.004194	0.0011743	816.63	4.4996e-05	4.7051e-05	1062	279.56	4.442e-05	4.6368e-05	470.96	197.19	110.61	48.78	4.4888e-05	106.72	60.888	71.666	26.760	-27.906	120.310	137.899	-27.727	-22.493	136.452	103.973	-23.146	-19.219	-18.789	-14.712	125.976	-15.599	-8191	255	
2265.354	1	1	0	0	0.06097	0.11684	0.16643	0.24455	0.11043	0.18953	0.21363	0.27584	0.047088	0.20397	0.19001	0.28942	0.26122	0.28867	0.15997	0.318	-2.5312	-2.8979	-3.15	-2.9917	-2.9646	-3.0896	-3.0354	-3.2083	-3.0375	-2.7583	-3.2396	-2.9417	-3.0979	-3.2167	-2.9729	-3.1042	266.791	-26.569	98.110	245.430	296.554	126.155	235.562	289.074	153.988	85.210	212.583	251.910	288.751	294.949	179.877	239.691	0.0009513	0.00048684	0.00033378	785.52	9.3947e-06	3.8878e-07	1075.2	278.48	8.0203e-06	9.6726e-06	472.43	198.33	103.06	48.289	1.4833e-05	107.13	0.0035839	0.0042146	0.0011821	813.33	4.5363e-05	4.6812e-05	1058.3	277.82	4.442e-05	4.742e-05	470.52	197.02	110.39	48.579	4.6447e-05	106.25	49.119	63.299	84.073	-28.170	64.245	132.406	-27.607	-22.523	48.626	59.874	-23.125	-19.292	-18.420	-14.642	119.534	-15.805	-8191	255	
2265.474	1	1	0	0	0.1696	0.29795	0.12248	0.093115	0.051782	0.14342	0.27944	0.19328	0.021586	0.48545	0.18725	0.090514	0.053138	0.10295	0.05649	0.1827	-2.7354	-2.8167	-3.2208	-2.7917	-2.9896	-3.2521	-3.0042	-3.1646	-2.9333	-2.6917	-3.1937	-3.1583	-2.9667	-3.1896	-2.8354	-3.275	170.083	16.389	209.174	-1.504	-20.075	20.125	299.636	245.428	199.148	51.698	164.288	206.575	167.813	34.936	-21.952	265.057	0.0012755	0.00061824	0.00029474	784.37	1.531e-05	5.7618e-06	1072.8	279.02	6.6189e-06	5.918e-06	471.43	198.8	103.94	48.381	7.8387e-06	107.14	0.003716	0.0043298	0.0012186	813.49	4.6467e-05	4.8219e-05	1057.5	277.97	4.5565e-05	4.777e-05	469.77	197.21	110.72	48.48	4.5457e-05	106.36	37.203	-14.321	67.003	-28.061	107.839	141.840	-27.724	-22.488	277.418	124.257	-23.162	-19.261	-18.446	-14.646	-37.701	-15.593	-8191	255	
2265.546	1	1	0	0	0.15894	0.35619	0.13455	0.1538	0.062672	0.19368	0.13802	0.20302	0.23125	0.29902	0.12608	0.38313	0.0021669	0.21783	0.095788	0.2775	-2.7833	-2.6979	-3.1896	-3.0146	-2.8521	-3.3104	-2.8292	-3.2854	-3.1771	-2.9646	-3.1917	-3.0792	-3.0854	-3.1021	-2.9771	-3.2333	11.693	-14.520	-6.561	293.308	62.484	319.291	314.474	110.261	0.476	244.830	9.503	268.123	180.000	286.769	203.439	240.218	0.0011706	0.001244	0.00012111	787.43	6.8559e-06	3.3786e-06	1073.6	280.44	1.3867e-05	1.1658e-05	469.33	199.27	103.88	48.359	2.6746e-06	108.09	0.0036806	0.0042922	0.0011898	814.83	4.5425e-05	4.6491e-05	1060.7	278.57	4.3861e-05	4.6717e-05	470.19	198.12	111.06	48.573	4.5098e-05	106.89	39.879	110.365	103.939	-27.736	48.156	-2.926	-27.854	-22.651	86.260	123.715	-23.173	-19.249	-18.687	-14.943	-9.525	-15.481	-8191	255	
2265.642	1	1	0	0	0.19954	0.33865	0.061552	0.10787	0.2951	0.10931	0.17895	0.2967	0.0741	0.13825	0.048724	0.17527	0.086532	0.070295	0.14971	0.22652	-2.6833	-2.7396	-3.2021	-2.8979	-3.0479	-3.2479	-2.9354	-2.9375	-3.1542	-2.7729	-3.1417	-3.1917	-2.9562	-3.4417	-2.9979	-3.1083	277.290	230.453	164.954	197.768	299.858	190.382	154.695	229.331	118.716	143.980	11.125	190.832	205.022	-34.483	132.648	240.848	0.0010464	0.00047528	0.0001663	785.33	3.8014e-06	2.4913e-06	1070.6	279.37	2.0418e-05	1.1236e-05	470.94	198.02	103.11	47.813	1.7009e-05	106.22	0.0036069	0.004192	0.001187	815.02	4.5174e-05	4.6869e-05	1058.7	278.18	4.4381e-05	4.6474e-05	468.6	196.5	110.13	48.198	4.4937e-05	105.69	28.960	81.132	137.579	-27.886	272.756	16.707	-27.979	-22.619	132.522	8.232	-23.090	-19.310	-18.482	-15.021	119.752	-15.536	-8191	255	
2265.738	1	1	0	0	0.020403	0.054852	0.15023	0.084134	0.20901	0.16193	0.15659	0.17975	0.10318	0.16809	0.21548	0.33839	0.22472	0.25267	0.28347	0.10199	-2.9354	-2.8896	-3.0104	-3.1188	-2.9062	-3.35	-3.1292	-3.0979	-3.2271	-2.9938	-3.2229	-3.2458	-2.8604	-3.3063	-2.9313	-2.9792	25.248	185.028	-31.329	25.668	134.573	254.779	187.878	295.200	230.178	190.867	301.783	-11.099	297.494	275.813	300.003	127.104	0.0010608	0.00087342	0.00016072	780.59	8.3337e-06	7.0665e-06	1067.7	277.26	4.4181e-06	4.8481e-06	468.32	198.02	103.74	47.832	8.0714e-06	106.75	0.0036336	0.0041924	0.0011741	808.97	4.4871e-05	4.6571e-05	1055.8	276.78	4.4018e-05	4.615e-05	467.7	195.97	110.1	48.205	4.5229e-05	105.89	47.795	39.953	53.987	-27.793	71.277	134.825	-27.983	-22.450	188.976	138.313	-23.257	-19.126	-18.602	-14.615	99.293	-15.546	-8191	255	
2265.859	1	1	0	0	0.28339	0.2508	0.19264	0.10069	0.16845	0.12897	0.15075	0.15395	0.19277	0.13506	0.062732	0.072435	0.13427	0.33907	0.20029	0.25958	-2.7687	-2.9938	-2.9917	-3.1	-2.8875	-3.1437	-3.1792	-3.0104	-3.1458	-2.8146	-3.2188	-3.25	-2.9542	-3.4104	-2.9917	-2.9188	186.272	245.145	78.706	62.416	144.706	232.577	291.540	230.966	203.588	310.742	137.889	243.648	32.032	261.397	289.364	279.978	0.0013029	0.00045248	0.00034987	783.08	1.2126e-05	1.0855e-05	1070.7	278.5	1.4989e-05	6.9424e-06	470.55	197.84	103.35	48.137	3.7673e-06	107.26	0.0036356	0.0042109	0.0011738	811.8	4.5248e-05	4.6435e-05	1057	277.27	4.4338e-05	4.6762e-05	469.57	196.66	110.28	48.38	4.4973e-05	106.43	41.820	71.790	60.836	-27.522	48.990	79.427	-27.941	-22.862	119.834	77.308	-23.032	-19.296	-18.253	-14.711	163.784	-15.780	-8191	255	
2265.955	1	1	0	0	0.042326	0.065405	0.237	0.37252	0.22992	0.080782	0.2905	0.087715	0.060895	0.040181	0.13089	0.11437	0.11306	0.33897	0.13188	0.35195	-2.7917	-2.7396	-2.9708	-2.9896	-2.8896	-3.1562	-3.1917	-3.0187	-2.9979	-2.9271	-3.1208	-3.3375	-2.8521	-3.2708	-3.0354	-3.1042	243.140	308.452	291.885	291.393	265.862	95.711	257.330	204.857	52.160	-40.565	197.940	7.827	70.912	259.538	79.402	184.545	0.0010988	0.00028066	0.00028939	782.62	3.058e-06	3.9992e-06	1079.7	278.12	8.9444e-06	9.711e-06	472.47	199	103.35	48.333	9.3032e-06	107.35	0.0036043	0.0041619	0.0011625	810.1	4.4685e-05	4.6547e-05	1061.9	277.42	4.4433e-05	4.6782e-05	470.29	197.32	110.17	48.47	4.4808e-05	106.71	40.830	40.035	70.197	-27.672	66.593	161.265	-27.839	-22.693	159.412	113.087	-22.999	-18.875	-19.048	-14.807	92.538	-15.557	-8191	255	
2266.051	1	1	0	0	0.099556	0.15713	0.14484	0.12874	0.16666	0.16992	0.16935	0.23671	0.24516	0.21927	0.25369	0.11333	0.16817	0.22497	0.25497	0.21182	-2.9125	-2.8312	-2.8292	-3.2479	-2.8896	-3.025	-3.2771	-3.0417	-3.1521	-2.9604	-3.2333	-3.2583	-2.8292	-3.1958	-3.0812	-2.9896	163.834	3.067	128.951	-28.059	223.668	293.462	297.053	250.098	196.125	280.626	245.573	229.257	308.665	180.177	193.014	227.633	0.0012189	0.0010842	0.00033234	782.36	2.1382e-05	1.6249e-05	1064.8	277.14	7.7736e-06	3.5595e-06	467.28	196.82	101.85	47.713	2.9516e-06	106.15	0.0036043	0.004168	0.0011633	810.97	4.4878e-05	4.6853e-05	1054	275.82	4.4548e-05	4.6322e-05	466.06	195.4	109.01	48.017	4.4866e-05	105.58	42.730	3.427	74.060	-27.839	83.099	101.953	-28.054	-22.601	84.069	185.190	-23.262	-19.259	-18.441	-14.700	41.706	-15.385	-8191	255	
2266.147	1	1	0	0	0.090491	0.050056	0.35452	0.11333	0.029033	0.23744	0.22439	0.24264	0.1227	0.055584	0.25675	0.22823	0.10246	0.11209	0.15689	0.24615	-2.7792	-3.0771	-2.925	-3.1562	-2.75	-2.9167	-3.2271	-2.9083	-3.3354	-2.9833	-2.9479	-3.3187	-2.8958	-3.0792	-3.1875	-2.75	102.482	67.418	-36.015	160.035	39.356	61.671	247.491	252.735	304.699	11.616	247.082	307.317	157.818	-36.567	299.794	253.571	0.0011389	0.00039895	0.00019134	774.54	1.5346e-05	7.0433e-06	1065.2	274.9	1.7082e-05	4.7751e-06	468.59	196.53	102.16	48.04	6.8678e-06	107.17	0.0035848	0.0040886	0.0011606	803.69	4.3708e-05	4.5205e-05	1050	274.19	4.2286e-05	4.4238e-05	465.99	194.96	108.64	48.16	4.3157e-05	106.21	48.610	-20.511	108.989	-28.105	116.127	84.437	-27.821	-22.597	68.542	171.567	-23.183	-19.147	-18.698	-14.599	88.591	-15.667	-8191	255	
2266.244	1	1	0	0	0.12911	0.20451	0.19398	0.046772	0.18688	0.11714	0.11205	0.31958	0.24487	0.13971	0.17598	0.19717	0.10496	0.18237	0.2505	0.31435	-2.7458	-2.925	-2.7583	-3.45	-2.8937	-2.9958	-3.2438	-2.9583	-3.1208	-3.0271	-2.9896	-3.3958	-2.8375	-3.2583	-3.2396	-3.1188	21.594	111.235	37.016	111.218	-37.926	132.740	197.878	301.240	-25.445	196.351	253.314	253.187	219.661	280.393	30.582	281.542	0.0013018	0.00088884	0.00012412	781.15	6.7252e-06	7.8612e-06	1068.1	277.2	1.4076e-05	7.1916e-06	467.06	197.23	103.4	48.177	3.7149e-06	107.39	0.0034897	0.0040677	0.0011405	804.01	4.3962e-05	4.5097e-05	1052.3	275.51	4.3004e-05	4.4946e-05	467.33	195.39	108.84	48.458	4.3475e-05	106.84	38.246	-33.903	-22.506	-27.727	52.424	159.333	-27.881	-22.654	96.305	163.952	-23.240	-19.042	-18.255	-14.596	7.387	-15.482	-8191	255	
2266.340	1	1	0	0	0.26907	0.13201	0.049065	0.15349	0.27411	0.10681	0.050314	0.25342	0.18522	0.19221	0.37312	0.23428	0.14483	0.02615	0.3232	0.066096	-2.5104	-3.0521	-2.7313	-3.2292	-2.9771	-3.0375	-3.4188	-3.0312	-3.0542	-3.0896	-2.9896	-3.1521	-2.9188	-3.0729	-3.1771	-2.8896	49.209	251.208	306.502	171.808	-37.958	292.678	36.018	258.050	0.766	2.230	255.481	259.919	142.860	225.562	-6.751	267.492	0.0010092	0.00089242	0.00024485	778.52	8.9942e-06	5.0756e-06	1073.5	278.22	4.4256e-06	6.9909e-06	471.11	197.72	101.53	48.448	1.3709e-06	108.04	0.0035113	0.0040817	0.0011441	805.5	4.4225e-05	4.5616e-05	1054.5	275.83	4.336e-05	4.5891e-05	468.99	196.2	108.75	48.723	4.4363e-05	107.12	45.809	63.765	30.213	-27.740	156.867	160.320	-27.730	-22.532	41.808	127.307	-23.183	-19.135	-18.458	-14.544	136.962	-15.502	-8191	255	
2266.459	1	1	0	0	0.13534	0.231	0.22032	0.032565	0.28232	0.21091	0.1771	0.26661	0.29237	0.35776	0.1149	0.38798	0.20235	0.11453	0.12235	0.25494	-2.6917	-3.0854	-2.9375	-3.1979	-3.0396	-2.8146	-3.3688	-3.1104	-3.1312	-3.0167	-3.0479	-3.3688	-2.9146	-2.8229	-3.2458	-3.075	224.694	209.189	2.594	275.345	171.431	76.930	309.129	303.913	250.921	49.015	236.829	-33.231	124.211	302.912	57.063	-27.085	0.0010455	0.00068381	0.0002156	774.23	9.6261e-06	1.3847e-05	1063.6	276.07	1.8515e-05	1.7296e-05	466.1	196.12	101.03	48.101	8.6352e-06	107.02	0.0035509	0.0041701	0.0011616	802.55	4.4355e-05	4.6203e-05	1052	275.03	4.4968e-05	4.7354e-05	467.06	195.18	108.7	48.434	4.6809e-05	106.54	48.516	53.443	90.441	-27.773	97.116	111.792	-27.529	-22.788	155.613	90.566	-23.109	-19.212	-18.958	-14.684	161.384	-15.485	-8191	255	
2266.555	1	1	0	0	0.23291	0.22285	0.14009	0.20323	0.20061	0.2843	0.18009	0.10901	0.079865	0.15432	0.33399	0.17846	0.093106	0.42942	0.14836	0.38359	-2.6104	-3.0146	-2.8063	-3.0187	-2.8833	-2.9562	-3.2271	-3.0292	-2.9604	-3.125	-3.0187	-3.2188	-3.0667	-3.0021	-3.1	-3.05	235.345	192.656	162.062	249.813	-5.554	42.698	214.155	-33.470	78.366	127.747	-27.612	-35.364	-16.392	15.291	189.034	264.535	0.00089631	0.0016926	0.00024739	769.79	1.3169e-05	5.6567e-06	1061.5	274.44	8.7165e-06	1.0696e-05	465.57	195.47	100.77	48.276	1.2085e-05	107.52	0.003781	0.0043848	0.0012267	802.63	4.6442e-05	4.8298e-05	1049.5	273.77	4.6005e-05	4.8129e-05	466.61	194.23	108.26	48.453	4.7888e-05	106.7	21.461	51.456	65.055	-27.625	102.843	190.588	-27.679	-22.430	85.226	129.901	-23.087	-19.055	-18.324	-14.546	71.317	-15.564	-8191	255	
2266.651	1	1	0	0	0.2388	0.13858	0.10102	0.12181	0.079782	0.2005	0.2203	0.20614	0.077418	0.14003	0.070548	0.29475	0.20382	0.16692	0.17628	0.27293	-2.4062	-3.0729	-2.9208	-3.0875	-3.0833	-2.8042	-3.2021	-2.9521	-2.9188	-3.1729	-2.9792	-3.0479	-3.1583	-2.9792	-3.1813	-3	18.069	197.687	265.170	178.944	277.356	294.171	218.042	271.509	158.651	146.530	219.536	-37.264	277.730	204.927	270.120	250.137	0.0008943	0.0010461	0.00018083	767.5	1.0536e-05	7.5051e-06	1063.4	275.08	1.4307e-05	1.6687e-06	465.78	195.29	100.75	48.282	1.8398e-05	107.52	0.0038002	0.0044614	0.0012395	801.39	4.7411e-05	4.885e-05	1050.9	274.43	4.6705e-05	4.852e-05	466.93	194.72	108.36	48.562	4.6965e-05	107.02	40.497	30.092	-29.218	-27.730	64.627	97.218	-27.699	-22.694	136.245	157.908	-23.147	-19.012	-18.365	-14.739	104.963	-15.481	-8191	255	
2266.772	1	1	0	0	0.092137	0.21209	0.10375	0.080862	0.1987	0.12858	0.38219	0.061466	0.14159	0.15895	0.15067	0.075387	0.13438	0.19448	0.082291	0.1799	-2.3854	-3.3833	-3.0104	-2.9646	-3.0083	-2.6917	-3.2104	-3.0458	-2.9437	-3.0375	-3.15	-3.0375	-3.1771	-2.9583	-3.1437	-3.0854	54.399	21.926	136.494	279.975	45.701	197.336	269.469	267.673	-25.329	48.281	-13.480	-9.276	238.175	-21.010	255.242	313.646	0.0011125	0.0005082	0.00015519	772.09	1.2162e-05	1.035e-05	1067.6	276.07	4.0606e-06	4.1503e-06	470.03	197.92	100.93	48.216	1.074e-05	107.76	0.0037487	0.0043682	0.0012214	803.47	4.6794e-05	4.802e-05	1052.8	274.95	4.5627e-05	4.8089e-05	468.65	195.95	108.3	48.563	4.6918e-05	107.03	41.527	36.976	2.671	-27.602	102.618	58.642	-27.778	-22.557	196.163	57.295	-23.238	-19.058	-18.645	-14.557	140.218	-15.450	-8191	255	
2266.843	1	1	0	0	0.21519	0.13132	0.067413	0.18682	0.15007	0.1171	0.17553	0.25546	0.052039	0.2679	0.23446	0.10952	0.067181	0.090703	0.1211	0.30989	-2.4667	-3.0521	-2.9375	-2.9042	-3.2313	-2.7625	-3.2687	-3.0854	-3.1375	-3.2313	-2.9313	-3.0708	-3.0667	-3.0292	-3.0312	-3.1417	260.859	48.711	152.705	185.929	51.359	232.721	228.089	284.646	49.176	283.382	5.129	231.543	260.696	304.120	114.159	278.172	0.0011446	0.0010131	0.00014653	768.76	1.0998e-05	1.6824e-05	1060	273.44	1.1404e-05	8.6671e-06	466.16	195.98	100.86	48.058	1.0663e-05	107.14	0.0037684	0.0043694	0.0012243	802.77	4.7077e-05	4.8132e-05	1048.6	274.08	4.5736e-05	4.8156e-05	466.37	194.36	107.87	48.433	4.6784e-05	106.62	43.364	32.059	279.186	-27.476	108.162	94.595	-27.699	-22.649	97.743	100.239	-23.146	-19.098	-18.680	-14.594	71.880	-15.361	-8191	255	
2266.939	1	1	0	0	0.15572	0.17779	0.32948	0.07579	0.31286	0.2365	0.13174	0.054903	0.14441	0.12441	0.19835	0.38594	0.16932	0.21451	0.11499	0.22533	-2.6562	-3.175	-3.0625	-3.0542	-3.2021	-3.0563	-3.0917	-3.1354	-2.9813	-3.2958	-3.125	-2.9437	-3.0625	-2.9833	-3.125	-3.3854	0.313	31.873	200.575	-30.665	208.177	310.638	-13.225	118.364	248.006	261.172	314.954	300.673	69.699	270.592	151.605	283.591	0.001221	0.0010054	0.00016751	769.48	4.0155e-06	1.477e-05	1059.4	272.97	2.6158e-05	1.1065e-05	468.8	195.9	100.85	48.244	5.7623e-06	107.54	0.0037158	0.0043231	0.0012129	801.26	4.6746e-05	4.8349e-05	1049.4	273.59	4.5847e-05	4.8408e-05	466.92	194.59	108.43	48.503	4.6661e-05	107	34.550	69.980	-23.553	-27.596	144.523	142.843	-27.823	-22.533	52.334	115.847	-23.222	-19.108	-18.497	-14.659	145.986	-15.574	-8191	255	
2267.035	1	1	0	0	0.16427	0.24248	0.058156	0.087361	0.29377	0.2723	0.17957	0.078344	0.083823	0.29736	0.26483	0.15002	0.13649	0.077524	0.2022	0.15308	-2.2812	-2.9479	-3.0146	-2.8438	-3.2583	-3.0104	-3.1646	-3.3708	-2.9521	-3.2188	-3.1542	-2.9208	-3.2438	-3.0667	-2.9917	-3.3312	82.614	126.246	112.971	196.073	223.242	120.842	282.887	-39.447	241.770	137.256	302.673	-29.587	20.395	184.807	185.965	283.352	0.00097942	0.00088104	6.2215e-05	772.3	1.2494e-05	9.8657e-06	1059.1	276.64	8.5362e-06	4.2954e-06	468.54	196.61	101.82	48.489	1.3492e-05	108.49	0.0037562	0.0043792	0.0012212	803.08	4.7164e-05	4.832e-05	1050.1	274.98	4.5552e-05	4.81e-05	468.82	195.47	108.67	48.83	4.6814e-05	107.65	48.728	80.773	-18.911	-27.777	94.876	96.955	-27.771	-22.575	186.596	129.950	-22.868	-18.913	-18.340	-14.391	132.206	-15.625	-8191	255	
2267.154	1	1	0	0	0.15274	0.12227	0.10142	0.17221	0.19427	0.31571	0.11462	0.19102	0.051249	0.08505	0.19936	0.15906	0.15989	0.20951	0.22362	0.22816	-2.4396	-3.2417	-3.0958	-2.9667	-3.0292	-2.9896	-3.2271	-3.1354	-2.75	-3.1542	-3.3125	-3.1	-3.2646	-3.2	-2.9062	-3.5021	112.651	29.466	195.588	204.566	314.111	9.974	286.596	210.985	219.901	160.557	267.124	318.559	105.897	-12.275	112.250	228.892	0.0010024	0.00035933	0.00035251	772.25	1.4625e-05	8.2584e-06	1065.7	276.05	5.7253e-06	1.9393e-06	473.36	196.85	101.61	48.373	6.3899e-06	108.44	0.0037438	0.0044289	0.0012416	803.85	4.731e-05	4.9061e-05	1054.6	275.58	4.622e-05	4.835e-05	470.94	195.99	108.79	48.914	4.7401e-05	107.72	50.294	133.957	121.029	-27.659	129.249	130.069	-27.492	-22.313	59.587	98.243	-22.803	-19.027	-18.921	-14.494	94.010	-15.396	-8191	255	
2267.251	1	1	0	0	0.17168	0.074666	0.23763	0.014272	0.26364	0.32173	0.13491	0.24652	0.099287	0.10272	0.19022	0.29116	0.28234	0.10571	0.157	0.19165	-2.5625	-2.95	-3.2104	-2.9396	-3.1688	-3.0125	-2.9813	-3.5187	-2.9938	-2.9979	-3.2313	-3.1042	-3.175	-3.1375	-2.725	-3.475	17.913	122.180	280.181	-27.381	209.356	81.716	283.389	219.494	106.653	244.750	16.779	245.302	-20.026	303.690	-37.510	297.326	0.0011017	0.00057417	0.00030223	765.12	1.2419e-05	4.5647e-06	1061.2	275.01	3.6118e-06	7.7809e-06	469.07	195.43	99.591	48.032	7.556e-06	107.83	0.0038284	0.0044519	0.0012572	801.45	4.7635e-05	4.9552e-05	1050.6	275.06	4.7207e-05	4.9596e-05	467.9	194.72	108.38	48.622	4.7849e-05	107.23	36.964	121.321	63.287	-27.745	56.264	76.582	-27.827	-22.387	108.568	124.040	-23.071	-19.320	-18.696	-14.631	107.967	-15.353	-8191	255	
2267.347	1	1	0	0	0.20215	0.30149	0.14234	0.12739	0.20662	0.22058	0.16253	0.060815	0.13951	0.29259	0.10925	0.22297	0.10988	0.11607	0.33494	0.2312	-2.4875	-2.8729	-3.0833	-2.8937	-3.1312	-3.175	-3.1917	-3.1875	-3.0875	-3.0458	-3.4396	-2.8854	-3.1	-3.1667	-2.8937	-3.3688	189.133	303.830	223.830	37.849	5.727	253.844	267.536	-28.866	162.466	77.159	2.163	298.330	269.324	250.815	203.628	258.541	0.00096265	0.00017044	0.00039944	764.99	9.2027e-06	6.5187e-06	1063.9	275.72	6.8995e-06	8.5462e-06	469.9	196.07	101.52	48.385	6.2228e-06	108.19	0.0038255	0.0044655	0.0012554	801.46	4.7986e-05	4.9557e-05	1052.1	275.11	4.7269e-05	4.9739e-05	468.57	195.29	108.92	48.886	4.8254e-05	107.7	48.174	59.107	79.249	-27.627	125.396	43.398	-27.726	-22.743	-29.616	169.941	-23.040	-19.039	-18.536	-14.449	59.299	-15.275	-8191	255	
2267.420	1	1	0	0	0.061987	0.12991	0.11948	0.067109	0.24788	0.16911	0.14629	0.074061	0.13801	0.14535	0.035553	0.090433	0.2	0.10529	0.15897	0.17469	-2.5771	-2.8521	-3.2021	-2.8833	-3.3125	-3.3667	-2.9729	-3.2917	-3.0167	-2.8563	-3.3438	-3.0125	-3.1396	-3.1813	-2.9313	-3.3125	148.009	213.366	19.226	32.483	135.181	101.251	-19.570	21.468	89.989	89.146	32.497	254.566	299.405	196.341	-39.065	286.633	0.00081396	0.0011235	0.00014628	768.61	1.1025e-05	3.6271e-06	1064.8	277.72	4.2446e-06	5.4787e-06	469.96	198.06	101.85	48.823	4.1568e-06	108.95	0.0038916	0.0045158	0.0012657	805.71	4.8188e-05	4.9648e-05	1055.5	276.77	4.7096e-05	4.965e-05	470.82	196.43	109.19	49.043	4.7518e-05	108.23	49.082	91.443	291.857	-27.425	127.017	121.606	-27.688	-22.841	139.938	77.648	-23.038	-19.165	-18.576	-14.514	245.206	-15.430	-8191	255	
2267.539	1	1	0	0	0.18717	0.14541	0.14231	0.27578	0.26025	0.33007	0.14867	0.30014	0.15804	0.063605	0.39107	0.32073	0.22106	0.14853	0.049869	0.36662	-2.6188	-2.975	-3.0833	-2.9021	-3.0438	-3.3146	-2.8604	-3.1792	-3.025	-2.8271	-3.1833	-3.0187	-2.9458	-3.0854	-2.9688	-3.2333	66.500	152.282	151.908	251.585	41.444	102.315	214.324	263.201	132.819	53.335	311.946	-6.699	93.032	-7.667	-18.252	207.039	0.001069	0.00070223	0.00023726	771.01	9.94e-06	4.764e-06	1067.7	277.69	1.7218e-05	1.4858e-05	472.84	197.7	100.97	48.921	1.1341e-05	108.44	0.0038272	0.0045283	0.0012518	806.89	4.8301e-05	4.9741e-05	1056.1	277.16	4.6801e-05	4.917e-05	471.77	196.56	109	49.026	4.6878e-05	107.75	43.866	55.461	58.245	-27.746	56.021	144.355	-27.609	-22.528	142.197	112.302	-23.314	-18.892	-18.343	-14.654	87.368	-15.557	-8191	255	
2267.635	1	1	0	0	0.063689	0.21372	0.056033	0.24204	0.15308	0.3168	0.44204	0.51223	0.10904	0.089483	0.35126	0.23337	0.13669	0.14153	0.23851	0.18446	-2.4833	-2.8229	-3.1875	-3.1542	-2.9917	-3.0625	-2.9479	-3.0312	-3.1333	-2.8208	-3.3917	-3.1021	-3.0792	-3.325	-2.8021	-3.125	277.686	80.956	43.520	225.936	213.873	185.776	206.669	295.207	2.165	-31.444	248.104	266.202	227.084	226.866	304.287	299.373	0.00096909	0.0014455	0.00022666	771.88	1.6068e-05	1.7943e-05	1066.5	276.01	1.0836e-05	4.7519e-06	470.77	196.82	100.95	48.328	9.9898e-06	108.15	0.003766	0.0044026	0.0012183	804.45	4.7189e-05	4.8389e-05	1054.4	275.71	4.5893e-05	4.7894e-05	469.13	195.36	108.61	48.761	4.6719e-05	107.54	26.826	32.623	55.081	-27.862	124.729	125.192	-27.739	-22.506	72.793	46.316	-23.122	-19.171	-18.332	-14.461	60.242	-15.544	-8191	255	
2267.731	1	1	0	0	0.13476	0.1726	0.05688	0.18383	0.24477	0.15046	0.18956	0.20718	0.18892	0.12474	0.2889	0.22915	0.16455	0.2196	0.080998	0.11583	-2.5375	-2.8021	-3.1104	-2.9688	-2.7396	-3.1917	-2.9813	-3.3229	-3.0833	-2.7438	-3.3083	-3.1542	-2.8063	-3.275	-2.9042	-3.0167	9.070	6.675	119.331	264.010	34.986	165.758	7.210	295.704	129.671	187.465	-2.990	299.262	41.568	293.573	6.305	255.495	0.00094555	0.00073902	0.00025208	773.43	1.2625e-05	2.1013e-05	1070.3	275.59	1.3975e-05	9.2108e-06	471.5	197.39	102.24	48.453	1.2995e-05	108.2	0.0036908	0.0043069	0.0012088	803.69	4.6644e-05	4.7737e-05	1054.4	275.76	4.5812e-05	4.8373e-05	469.97	196.18	109.09	48.922	4.7248e-05	107.85	32.701	40.787	61.290	-27.855	68.674	126.884	-27.822	-22.583	141.220	72.244	-23.395	-19.088	-18.197	-14.327	72.583	-15.425	-8191	255	
2267.852	1	1	0	0	0.31186	0.17084	0.22801	0.38067	0.14522	0.16091	0.12724	0.18528	0.068519	0.16134	0.15589	0.047241	0.04994	0.16507	0.22215	0.099256	-2.8292	-2.8312	-3	-3.0521	-2.9396	-3.2417	-3.1958	-2.925	-3.2646	-2.9562	-3.2208	-3.1813	-2.7521	-3.1604	-2.8458	-3.1833	135.050	149.471	-32.699	285.329	103.184	40.123	138.905	-40.195	42.804	279.608	18.328	-9.767	313.444	243.579	-10.971	294.451	0.0011493	0.00080775	0.00014741	771.75	1.1451e-05	1.2194e-05	1069.5	278.35	1.0043e-05	5.7781e-06	472.68	198.51	102.13	48.919	1.6076e-05	109.1	0.0038064	0.0044076	0.0012454	805.21	4.7474e-05	4.8906e-05	1057.7	277.11	4.5681e-05	4.8519e-05	471.95	196.71	109.25	49.14	4.7018e-05	108.24	49.556	49.161	313.118	-27.604	9.888	112.210	-27.689	-22.345	99.696	187.482	-23.086	-18.860	-18.675	-14.618	117.049	-15.568	-8191	255	
2267.948	1	1	0	0	0.016408	0.098196	0.15004	0.16544	0.057643	0.19415	0.29505	0.069758	0.14006	0.14717	0.10148	0.25152	0.14171	0.13323	0.12453	0.37423	-2.6979	-2.7646	-2.8667	-3.1875	-2.875	-3.2125	-3.1146	-2.9188	-3.4083	-2.9062	-3.2562	-3.2458	-3.0542	-3.1	-3.1	-3.0229	72.075	218.367	94.003	247.101	265.143	145.240	248.374	57.268	51.593	64.657	128.654	277.671	71.733	-37.747	139.820	212.853	0.001238	0.0010555	0.00023098	781.63	6.394e-06	1.0119e-05	1070.3	278.17	1.2185e-05	1.4481e-05	474.43	197.65	101.94	48.513	5.2586e-06	108.43	0.0037075	0.004289	0.0012041	808.12	4.5964e-05	4.7715e-05	1059.5	277.84	4.4663e-05	4.6874e-05	472.07	196.34	108.71	48.83	4.4809e-05	107.58	38.515	66.405	-7.663	-27.668	121.743	87.703	-27.570	-22.574	44.372	87.166	-23.251	-18.814	-18.261	-14.260	125.397	-15.489	-8191	255	
2268.044	1	1	0	0	0.14352	0.11239	0.061596	0.062164	0.14157	0.13979	0.13082	0.22357	0.20665	0.085899	0.14953	0.12944	0.037114	0.15608	0.3963	0.34362	-2.8771	-2.9083	-3.175	-3.1208	-2.9	-3.1479	-3.1562	-3.0146	-3.1042	-3.0625	-3.175	-3.3708	-2.6896	-3.1437	-3.2021	-3.0104	-6.285	121.772	-4.642	241.817	166.171	105.750	243.718	-35.689	105.640	-3.627	36.987	278.611	316.348	287.633	100.916	270.924	0.0010643	0.0012543	0.00022917	776.26	8.5287e-06	5.476e-06	1070.2	276.82	2.5655e-05	7.6058e-06	471.11	197.04	102.15	48.47	3.0589e-06	108.04	0.003574	0.0041215	0.0011571	803.7	4.4262e-05	4.5713e-05	1056.1	276.27	4.2973e-05	4.4709e-05	469.48	195.56	108.4	48.701	4.2735e-05	107.4	32.076	34.554	46.950	-27.732	90.034	116.430	-27.787	-22.506	138.950	225.079	-23.133	-18.980	-18.542	-14.669	175.278	-15.553	-8191	255	
2268.140	1	1	0	0	0.14193	0.38188	0.17697	0.19995	0.13199	0.12162	0.25625	0.15183	0.01995	0.34061	0.21721	0.28693	0.40632	0.35069	0.14678	0.23022	-2.7771	-2.7042	-2.9125	-3.225	-2.9625	-3.1896	-3.1437	-2.9604	-3.2042	-3.0021	-2.9833	-3.3792	-2.9562	-3.1917	-3.0312	-3.0187	208.227	259.395	0.415	311.650	253.091	249.138	295.057	292.603	192.154	290.966	267.990	291.858	-31.955	-30.988	169.709	222.842	0.0013434	0.00041933	0.00032489	773.32	1.4739e-05	7.1194e-06	1074.8	278.43	4.5356e-06	1.1303e-05	472.96	197.61	101.91	48.728	4.2795e-06	108.56	0.0034216	0.0039683	0.0011085	799.45	4.2037e-05	4.3653e-05	1054.8	276.23	4.1053e-05	4.3453e-05	470.53	196.04	107.97	48.871	4.1793e-05	107.75	41.724	84.028	28.785	-28.154	23.544	163.036	-27.645	-22.561	30.014	139.147	-23.112	-19.071	-18.934	-14.637	81.951	-15.388	-8191	255	
2268.235	1	1	0	0	0.073328	0.24011	0.15201	0.12209	0.12819	0.22923	0.22862	0.20207	0.25432	0.11487	0.15493	0.38494	0.1176	0.14257	0.14185	0.33052	-2.7562	-3.0292	-2.8833	-3.1146	-2.8604	-3.0458	-3.3688	-2.7604	-3.2229	-2.8354	-3.0271	-3.1771	-3.0354	-3.0312	-3.0833	-3.0812	1.955	311.634	62.470	207.904	306.555	-12.600	258.966	172.930	137.224	58.097	224.102	285.413	172.171	296.078	107.837	279.610	0.0011913	0.00092182	0.00013674	777.59	1.4748e-05	2.8396e-06	1073.2	279.08	8.0168e-06	5.6755e-06	475.09	198.66	102.46	48.918	1.1282e-05	109.43	0.0033981	0.0039117	0.0011062	802.21	4.2011e-05	4.3569e-05	1056.6	276.93	4.1312e-05	4.3839e-05	471.74	196.79	108.66	49.108	4.2741e-05	108.41	34.633	21.775	64.508	-27.534	74.250	240.011	-27.766	-22.694	78.148	105.911	-23.085	-19.023	-18.583	-14.523	109.624	-15.490	-8191	255	
2268.331	1	1	0	0	0.42707	0.10307	0.11055	0.15921	0.24698	0.11789	0.14056	0.1295	0.17521	0.20585	0.23625	0.2333	0.11992	0.24778	0.15987	0.21392	-2.7354	-3.075	-2.7792	-3.1042	-2.9188	-2.975	-3.3042	-3.0104	-3.1729	-3.0354	-2.9125	-3.1979	-2.9729	-3.1188	-3.1188	-3.0625	30.940	259.287	255.135	-2.488	23.680	-25.453	262.136	-32.270	2.455	314.487	310.168	305.040	302.355	-32.707	236.898	229.745	0.0010023	0.0014881	0.00014236	775.47	9.8565e-07	1.1036e-05	1074.7	277.95	2.0092e-05	8.0118e-06	474.19	197.92	102.14	48.599	4.4751e-06	108.62	0.0034409	0.0039886	0.0011021	802.27	4.3014e-05	4.3663e-05	1057.6	276.44	4.172e-05	4.3575e-05	470.52	195.98	107.97	48.864	4.2391e-05	107.62	37.616	77.446	5.492	-27.915	170.445	95.161	-27.727	-22.536	116.509	79.830	-23.182	-19.188	-18.535	-14.512	63.128	-15.351	-8191	255	
2268.452	1	1	0	0	0.056234	0.19481	0.2193	0.076928	0.11525	0.30012	0.18412	0.07424	0.17214	0.14915	0.40427	0.20079	0.11147	0.19842	0.095494	0.31263	-2.7479	-2.9458	-2.8438	-3.2083	-2.9792	-2.9313	-3.2792	-2.9396	-3.0417	-3.1896	-3.0167	-3.4625	-2.9458	-3.1271	-3.3	-3.0208	119.546	210.314	193.086	186.814	298.639	186.136	251.948	269.282	-36.717	41.018	289.538	215.243	132.138	256.683	203.695	229.765	0.0011058	0.0014891	0.00013631	779.72	9.8849e-06	8.7504e-06	1068.1	276.04	1.0886e-05	5.4389e-06	472.31	197.14	102.31	48.499	1.0806e-05	108.72	0.0033937	0.0039261	0.0011038	800.17	4.2177e-05	4.3487e-05	1052.8	275.53	4.1551e-05	4.3073e-05	468.44	195.48	108.13	48.699	4.2279e-05	107.42	43.241	33.347	116.302	-27.908	59.457	145.698	-27.595	-22.326	85.448	155.484	-23.033	-19.140	-18.411	-14.434	97.028	-15.542	-8191	255	
2268.548	1	1	0	0	0.086607	0.16907	0.33309	0.017257	0.053971	0.34181	0.20758	0.34682	0.16393	0.096145	0.065341	0.092172	0.17041	0.17851	0.080726	0.34143	-2.6688	-3.0521	-2.8854	-3.0854	-3.1646	-2.8875	-3.2708	-2.95	-3.0979	-3.2021	-2.9562	-3.4562	-3.0083	-3.025	-3.1437	-3.0167	283.431	134.805	286.481	77.344	79.541	55.983	246.381	198.222	283.225	61.774	157.800	94.371	52.818	0.508	235.830	262.337	0.00084743	0.0014035	0.00018777	777.93	5.9219e-06	1.2762e-05	1072.6	277.55	2.5713e-05	5.6086e-06	472.54	197.9	101.62	48.795	7.0936e-06	108.85	0.0034166	0.0039693	0.0011093	802.77	4.2566e-05	4.3885e-05	1054.9	276.25	4.1951e-05	4.4257e-05	470.38	196.19	108.3	48.851	4.2825e-05	107.72	27.905	41.092	12.453	-27.493	81.902	91.251	-27.458	-22.663	169.296	181.868	-23.273	-19.124	-19.066	-14.551	91.705	-15.608	-8191	255	
2268.644	1	1	0	0	0.25164	0.099465	0.32455	0.24627	0.034281	0.30512	0.20226	0.40848	0.26947	0.18806	0.25123	0.21629	0.139	0.22702	0.19814	0.31571	-2.5542	-3.1646	-2.7854	-3.0021	-2.9417	-2.8167	-3.2521	-2.7938	-3.075	-3.2812	-2.9667	-3.3979	-3.05	-2.8854	-3.0542	-3.3063	282.300	116.173	290.175	33.496	39.631	21.562	250.839	233.446	149.667	272.063	80.609	287.394	-6.301	233.284	244.160	308.220	0.00092788	0.00056766	0.0002087	778.37	8.1416e-06	5.3367e-06	1076.1	278.28	7.9943e-06	1.1609e-05	473.67	198.35	103.5	48.834	1.5044e-05	109.32	0.0034586	0.0040292	0.0011309	803.72	4.3058e-05	4.4833e-05	1058.8	277.37	4.3273e-05	4.5694e-05	472.17	197.01	108.99	49.151	4.4022e-05	108.54	37.316	60.833	76.583	-27.423	161.277	69.687	-27.758	-22.559	134.647	118.957	-23.108	-19.166	-18.769	-14.423	121.720	-15.531	-8191	255	
2268.715	1	1	0	0	0.16316	0.28233	0.15076	0.1852	0.10945	0.18047	0.10746	0.16022	0.26866	0.23918	0.2939	0.40418	0.17509	0.10004	0.22048	0.11053	-2.4562	-3.05	-2.7146	-3.2	-3.0479	-2.6729	-3.1958	-3.1542	-3	-3.1208	-2.9875	-3.2021	-3.0354	-2.85	-3.1146	-3.2292	-23.344	152.682	-31.465	250.778	201.507	146.249	283.658	296.222	141.255	271.019	284.755	245.771	-32.335	216.047	180.455	281.727	0.00097526	0.0011303	0.00023316	779.51	1.2842e-05	8.4717e-06	1072.6	278.23	2.0049e-05	9.0801e-06	472.59	197.9	102.47	48.65	1.4249e-05	108.52	0.0035515	0.0040839	0.0011437	805.57	4.3921e-05	4.5077e-05	1059	277.07	4.3281e-05	4.4896e-05	468.72	196.17	108.44	48.794	4.3292e-05	107.4	50.745	71.585	0.539	-27.823	67.658	103.959	-27.943	-22.457	137.448	145.337	-23.117	-19.063	-18.354	-14.299	44.939	-15.603	-8191	255	
2268.836	1	1	0	0	0.18128	0.18975	0.12394	0.13949	0.22011	0.051143	0.098651	0.28595	0.055859	0.17382	0.094535	0.039511	0.1715	0.31989	0.19089	0.24958	-2.4062	-3.2854	-2.8146	-3.0021	-3.1542	-2.9292	-3.2875	-3.0646	-2.9417	-3.2896	-2.9	-3.1813	-3.0646	-3.0146	-3.0312	-3.2167	116.392	-1.026	45.834	201.407	206.644	-30.904	230.973	238.760	86.592	314.452	305.563	155.014	111.334	302.781	-31.566	265.871	0.00099023	0.001515	0.00026349	777.44	3.3678e-06	9.6304e-06	1072.6	278.39	3.5261e-06	7.0066e-06	470.85	197.19	102.42	48.453	4.0439e-06	107.86	0.0034711	0.0039914	0.0011253	802.31	4.3128e-05	4.4296e-05	1054.6	276.68	4.1922e-05	4.3747e-05	469.39	195.73	108.32	48.604	4.2362e-05	107.08	45.160	-10.951	21.726	-27.667	129.880	101.521	-27.768	-22.479	255.093	131.928	-23.027	-19.362	-18.325	-14.408	134.559	-15.550	-8191	255	
2268.932	1	1	0	0	0.1669	0.22294	0.16408	0.10119	0.28887	0.21429	0.051553	0.074414	0.11386	0.29731	0.16729	0.14354	0.19129	0.36181	0.20565	0.2304	-2.2271	-3.1958	-2.9062	-2.9646	-3.1521	-2.9583	-3.2438	-2.9417	-2.8563	-3.1271	-3.1042	-3.1063	-3.15	-3.0354	-2.95	-3.1875	37.737	208.611	241.265	295.121	34.495	-6.935	239.921	232.689	306.067	-9.554	242.534	300.001	126.072	-33.962	187.451	277.054	0.0012688	0.00086426	0.00027721	778.22	1.4298e-05	3.0604e-06	1073.5	278.93	1.4082e-05	8.0289e-06	475.64	198.22	102.29	48.86	7.4237e-06	109	0.0033545	0.0038911	0.0010889	800.89	4.1705e-05	4.2833e-05	1057.2	277.03	4.0788e-05	4.2774e-05	471.26	196.25	108.27	48.934	4.1524e-05	107.62	43.998	44.821	-2.914	-28.173	86.226	8.003	-27.606	-22.620	106.653	73.586	-23.292	-19.124	-18.411	-14.323	10.923	-15.570	-8191	255	
2269.028	1	1	0	0	0.021749	0.092737	0.047094	0.25478	0.11143	0.11649	0.093655	0.28763	0.14418	0.16118	0.33785	0.26339	0.19762	0.052996	0.1119	0.16466	-2.2354	-3.2833	-2.9292	-2.9938	-3.1979	-2.9167	-3.3167	-3.2292	-2.85	-3.0083	-3.2333	-3.0771	-3.2542	-3.1229	-2.9729	-3.3812	301.471	80.811	110.874	230.919	153.658	307.735	311.621	-9.274	175.750	269.688	258.069	165.921	227.058	136.550	-7.709	-36.375	0.0011108	0.0010733	0.00031587	784.82	7.2599e-06	9.232e-06	1077.5	279.86	6.1124e-06	5.8517e-06	475.66	199.58	103.37	48.99	1.1694e-05	109.28	0.0032988	0.003849	0.0010602	804.33	4.0917e-05	4.2746e-05	1058.6	277.44	4.0183e-05	4.2453e-05	472.91	197.52	109.03	49.056	4.1613e-05	108.14	45.374	85.178	15.771	-27.796	114.042	197.604	-27.635	-22.541	44.257	46.436	-23.115	-19.071	-17.877	-14.491	128.249	-15.393	-8191	255	
2269.125	1	1	0	0	0.18213	0.14205	0.047387	0.31766	0.16936	0.098304	0.19639	0.053652	0.25698	0.13774	0.20433	0.27532	0.18125	0.23213	0.21114	0.3681	-2.4437	-3.1042	-3.1208	-2.9875	-3.2104	-2.9396	-3.175	-3.1208	-2.7583	-3.2146	-3.1979	-2.9458	-3.1542	-2.9729	-3.2	-3.4021	290.511	-0.227	203.011	297.269	61.850	112.299	274.074	252.252	-4.258	161.169	263.096	241.387	6.088	296.987	167.187	305.260	0.0011682	0.0020533	0.00033238	782.27	2.0045e-06	9.2861e-06	1074.2	280.1	7.8221e-06	4.1754e-06	474.84	197.64	102.38	48.503	7.9856e-06	108.51	0.0033386	0.0039026	0.0010859	806.02	4.1439e-05	4.3037e-05	1058.6	278.25	4.0663e-05	4.3062e-05	471.24	196.32	108.75	48.775	4.183e-05	107.31	47.365	32.015	70.492	-27.943	142.396	158.491	-27.583	-22.503	123.756	160.915	-23.190	-19.117	-18.082	-14.338	88.634	-15.448	-8191	255	
2269.221	1	1	0	0	0.41454	0.062624	0.14398	0.19703	0.031311	0.19179	0.25425	0.17961	0.12574	0.18177	0.19679	0.12734	0.17349	0.16612	0.11229	0.081634	-2.3292	-3.1375	-3.0312	-3.0167	-3.2	-3.1333	-3.1688	-3.3229	-2.8312	-2.9458	-3.2792	-2.8542	-3.2271	-3.1333	-2.9167	-3.45	257.904	179.160	226.362	286.637	83.961	154.738	309.112	5.367	61.934	-12.500	-37.980	154.357	45.498	202.470	106.190	258.562	0.0011117	0.00059051	0.0001543	777.6	9.2457e-06	4.5431e-06	1066.4	279.02	9.6526e-06	1.9647e-06	471.18	198.01	102.66	48.614	8.9912e-06	107.83	0.0033858	0.0039375	0.0010969	802.37	4.204e-05	4.3453e-05	1053	277.12	4.0982e-05	4.3348e-05	468.38	195.98	108.5	48.702	4.202e-05	106.89	42.790	25.088	80.021	-27.457	149.568	124.310	-27.663	-22.484	9.297	77.887	-23.168	-19.044	-18.410	-14.360	96.620	-15.352	-8191	255	
2269.315	1	1	0	0	0.2046	0.084222	0.044453	0.11292	0.30924	0.023547	0.14492	0.17267	0.071759	0.2466	0.2116	0.12959	0.15469	0.074057	0.2361	0.15911	-2.3063	-2.9708	-3	-2.7792	-3.1042	-2.9688	-3.0854	-3.4708	-3.1083	-2.9208	-3.3083	-3.1854	-3.1375	-3.0979	-2.8604	-3.2646	200.265	-12.558	-36.830	294.190	224.823	163.296	241.759	-9.952	261.204	262.638	274.561	115.144	-24.560	43.554	215.203	184.154	0.00090961	0.001284	0.00015894	779.05	1.4656e-05	4.2877e-06	1072.8	279.61	1.5402e-05	2.8282e-06	476	198.92	102.71	48.746	1.1672e-05	108.55	0.0033432	0.0039552	0.0011021	804	4.2189e-05	4.3738e-05	1055.7	277.91	4.1531e-05	4.3764e-05	471.01	196.51	108.88	48.897	4.219e-05	107.62	38.762	49.785	123.140	-27.742	67.313	99.133	-27.867	-22.555	134.067	125.062	-23.136	-19.101	-18.248	-14.567	121.900	-15.535	-8191	255	
2269.413	1	1	0	0	0.037745	0.093674	0.11508	0.1508	0.25886	0.17288	0.19388	0.058202	0.21667	0.063625	0.16261	0.052433	0.027332	0.24966	0.16445	0.26395	-2.6042	-2.8187	-3.1458	-2.8125	-3.0167	-3.0625	-3.0542	-3.2042	-3.0687	-3.0667	-3.4167	-3.1021	-2.9854	-3.0687	-2.7438	-3.3458	23.587	244.264	7.867	234.675	18.553	-30.041	292.070	181.456	109.566	88.698	206.869	288.943	-3.907	-9.973	42.425	259.644	0.001018	0.00043835	0.00030486	781.85	1.4774e-05	1.2873e-06	1076.5	279.75	6.1921e-06	6.4347e-06	476.56	198.47	102.43	48.979	2.7428e-06	108.62	0.0034238	0.0039617	0.0011092	807.49	4.2895e-05	4.3868e-05	1059.9	278.39	4.2074e-05	4.4822e-05	471.97	196.95	109.62	49.164	4.3788e-05	107.91	59.418	-6.631	-31.207	-27.528	68.267	153.491	-27.709	-22.708	204.259	225.192	-23.355	-19.163	-18.387	-14.595	122.534	-15.700	-8191	255	
2269.532	1	1	0	0	0.10524	0.094234	0.10794	0.18944	0.12827	0.14649	0.14248	0.21027	0.095922	0.080913	0.12035	0.086109	0.41715	0.20608	0.11924	0.13997	-2.5062	-2.9396	-3.2604	-2.7562	-2.9292	-3.0812	-2.9542	-3.35	-3.1271	-2.8688	-3.1896	-2.9354	-2.9896	-2.9375	-2.8667	-3.4	85.438	113.746	31.283	117.247	219.501	75.902	233.633	1.056	74.618	87.468	258.492	271.559	-7.259	190.742	87.336	258.649	0.0011875	0.0011073	0.00026745	782.37	9.6238e-06	6.3687e-06	1076.9	280.67	1.3242e-05	1.3354e-05	474.49	198.03	103.39	48.744	9.7988e-06	108.09	0.0034963	0.0040292	0.0011272	806.51	4.3427e-05	4.45e-05	1061.1	278.26	4.2415e-05	4.4056e-05	470.92	196.45	109.35	48.882	4.3263e-05	107.07	33.953	33.161	69.695	-27.444	144.134	118.826	-27.816	-22.620	142.579	128.785	-23.123	-19.161	-18.343	-14.617	148.974	-15.411	-8191	255	
2269.628	1	1	0	0	0.05966	0.24298	0.23805	0.14727	0.14961	0.20072	0.078491	0.22006	0.19164	0.028159	0.23589	0.21035	0.13239	0.16191	0.11633	0.19558	-2.3458	-2.9646	-3.1937	-3.1063	-2.9542	-3.1167	-3.0542	-3.1792	-2.9333	-3.0146	-3.2583	-2.9354	-3.0104	-3.0875	-2.8146	-3.1063	241.985	227.120	183.898	101.376	-24.592	112.784	156.306	216.683	194.653	158.372	309.143	284.376	68.049	157.052	304.802	312.515	0.0011815	0.0010896	0.00026169	781.07	2.5298e-06	4.9185e-06	1072.8	279.44	3.4437e-06	4.9028e-06	470.28	198.57	102.63	48.54	8.2964e-06	107.87	0.0035002	0.0040468	0.0011223	805.01	4.2853e-05	4.4268e-05	1058	277.77	4.2071e-05	4.3946e-05	469.72	196.46	108.85	48.73	4.2825e-05	107.07	40.516	60.576	96.069	-27.639	17.358	60.228	-27.587	-22.344	106.201	143.248	-23.165	-19.186	-18.373	-14.727	116.525	-15.383	-8191	255	
2269.724	1	1	0	0	0.081462	0.094876	0.06113	0.18068	0.24868	0.25821	0.27798	0.34753	0.19161	0.28018	0.22587	0.30361	0.21595	0.23666	0.18695	0.35394	-2.6917	-2.6833	-3.0458	-2.9021	-2.8667	-2.9792	-3.0604	-3.1688	-3.1354	-2.8146	-3.2021	-2.8646	-2.85	-3.2938	-2.8854	-3.175	3.223	168.030	78.858	230.606	63.434	211.325	257.796	210.420	104.824	108.244	-36.676	273.515	40.073	308.643	130.805	265.611	0.0012125	0.00049265	0.00017983	774.84	5.3016e-06	6.5763e-06	1072	280.17	9.9504e-06	1.0893e-05	476.08	198.2	103.48	48.774	1.0295e-05	108.32	0.003417	0.0039539	0.0011024	805.26	4.2486e-05	4.3313e-05	1058.5	278.41	4.1336e-05	4.3336e-05	471.41	196.66	109.09	48.92	4.2022e-05	107.33	39.083	94.537	116.393	-28.108	165.288	53.556	-27.801	-22.469	142.409	144.155	-23.174	-19.282	-18.553	-14.553	95.200	-15.423	-8191	255	
2269.820	1	1	0	0	0.29738	0.16898	0.25913	0.24571	0.21635	0.3067	0.21086	0.18325	0.063808	0.1419	0.18985	0.22756	0.26875	0.12812	0.094551	0.33584	-2.7562	-2.8229	-3.1646	-2.8625	-2.8521	-3.2729	-2.925	-3.2958	-3.0833	-3.0167	-3.2479	-3.0375	-2.8729	-3.3042	-3.0042	-3.2958	298.319	-6.132	19.964	15.258	277.247	131.276	297.353	-32.518	46.242	198.775	284.387	288.564	319.442	273.574	185.364	268.706	0.0013187	0.00035062	0.00011122	786.18	1.3812e-05	1.0716e-05	1081.3	281.2	9.3376e-06	7.4001e-06	476.09	200.33	102.74	48.964	1.0746e-05	108.67	0.0033377	0.0038907	0.0010879	807.52	4.1352e-05	4.3144e-05	1063.5	279.51	4.1145e-05	4.3188e-05	473.27	197.86	109.43	48.972	4.2535e-05	107.74	41.903	19.247	25.164	-28.138	62.592	115.533	-27.684	-22.282	54.899	119.828	-23.160	-19.173	-17.825	-14.722	159.321	-15.468	-8191	255	
2269.941	1	1	0	0	0.12788	0.07029	0.30236	0.26722	0.19087	0.1578	0.18653	0.19444	0.030281	0.17901	0.3642	0.067655	0.21916	0.13354	0.22375	0.24302	-2.8083	-2.7854	-3.0812	-2.8646	-2.8083	-3.2896	-3.1708	-3.1729	-3.0021	-2.9958	-3.3729	-3.2792	-2.9854	-3.2771	-2.8812	-2.9813	42.804	-18.565	23.008	-23.013	38.112	-37.800	-5.538	316.257	137.303	271.726	293.163	282.892	285.937	238.146	209.703	193.406	0.001153	0.00063868	8.6005e-05	788.5	8.7587e-06	4.0915e-06	1077.8	281.44	1.413e-05	2.7891e-06	475.85	198.68	102.2	48.287	6.3209e-06	107.87	0.0034002	0.0039372	0.0010978	810.58	4.2229e-05	4.3639e-05	1062.1	279.31	4.1455e-05	4.3939e-05	471.64	196.66	109.22	48.646	4.2858e-05	106.78	49.273	70.664	54.764	-27.949	84.694	127.621	-27.901	-22.844	77.055	145.811	-23.166	-19.131	-18.338	-14.712	-21.852	-15.731	-8191	255	
2270.013	1	1	0	0	0.14429	0.29999	0.10446	0.23629	0.22388	0.10091	0.18537	0.28546	0.17933	0.040623	0.19248	0.10242	0.3235	0.47003	0.20423	0.15427	-2.7667	-2.7375	-3.0187	-3.1375	-2.6979	-3.0396	-3.1375	-3.1771	-3.0521	-2.8792	-3.1083	-3.2104	-2.9021	-3.1312	-2.8604	-3.2354	256.104	57.658	310.943	-30.323	161.817	45.551	237.753	245.794	263.966	110.628	197.566	283.840	128.275	271.866	11.541	206.923	0.00081604	0.00093923	8.7021e-05	778.65	8.3222e-06	1.2603e-05	1077.5	280.76	2.4445e-05	5.3056e-06	475.26	198.7	102.68	48.241	3.3524e-06	107.58	0.0034548	0.0039932	0.0011201	804.21	4.2732e-05	4.3993e-05	1058.2	278.3	4.1641e-05	4.4112e-05	471.07	196.3	109.14	48.608	4.2341e-05	106.67	56.914	57.922	31.894	-27.558	57.512	183.708	-27.642	-22.548	84.467	96.905	-23.138	-19.189	-18.192	-14.527	108.116	-15.428	-8191	255	
2270.133	1	1	0	0	0.016926	0.19657	0.11489	0.20102	0.17485	0.13638	0.063801	0.067112	0.037642	0.19189	0.23638	0.25672	0.24773	0.25158	0.088666	0.17148	-2.6937	-2.8563	-3.0125	-3.2104	-3.0458	-3.1958	-3.2583	-2.8187	-3.2167	-3.0104	-3.3438	-3.2188	-2.7104	-3.1833	-3.0542	-2.9854	184.999	-0.102	224.419	286.803	137.839	232.974	299.733	279.720	42.107	308.251	-6.980	285.820	190.928	-16.641	259.151	166.672	0.0010697	0.00083142	0.00013296	782.1	1.2647e-05	1.133e-05	1077.5	279.05	3.2307e-06	7.7017e-06	474.27	198.85	102.04	48.605	3.2098e-06	107.61	0.0034713	0.0039896	0.00111	805.52	4.2991e-05	4.489e-05	1058.6	277.83	4.2022e-05	4.4201e-05	470.85	196.58	108.95	48.759	4.2857e-05	106.98	39.545	-1.692	63.815	-27.539	65.006	106.121	-27.817	-22.615	94.026	198.349	-22.921	-19.321	-18.363	-14.616	156.958	-15.423	-8191	255	
2270.228	1	1	0	0	0.10994	0.079788	0.35557	0.16551	0.22067	0.15312	0.15774	0.35797	0.19177	0.11517	0.019962	0.21253	0.042298	0.19757	0.088994	0.14643	-2.6208	-2.6562	-2.9562	-3.0792	-2.9188	-3.2313	-3.1042	-2.8208	-3.1667	-3.0229	-3.0833	-3.2438	-2.9062	-3.1896	-3.1063	-2.8771	66.132	134.267	207.242	312.607	-22.235	105.777	1.679	298.556	85.692	283.392	270.098	-26.852	207.286	292.285	159.217	-29.731	0.001	0.00038659	2.9897e-05	784.74	7.9864e-06	1.0706e-05	1072.8	278.99	1.5122e-05	8.6029e-06	474.24	198.75	103.28	48.808	1.5588e-05	108.37	0.0034596	0.0040683	0.0011305	808.09	4.3925e-05	4.5205e-05	1060.9	278.86	4.3029e-05	4.5597e-05	471.99	196.96	109.65	48.929	4.3995e-05	107.67	47.907	46.053	1.311	-28.073	62.134	99.742	-27.733	-22.460	122.369	69.961	-23.186	-19.128	-18.626	-14.516	128.619	-15.537	-8191	255	
2270.324	1	1	0	0	0.022267	0.30357	0.090939	0.10358	0.13006	0.16043	0.21027	0.31863	0.1751	0.17211	0.30026	0.059958	0.0805	0.07778	0.36351	0.20174	-2.7854	-2.8021	-2.9417	-3.1437	-2.8875	-3.1479	-3.2833	-2.9896	-3.2125	-2.975	-3.0583	-3.3333	-2.8563	-3.1937	-3.2146	-3.0042	249.885	303.181	172.849	266.452	-4.283	18.386	118.760	-22.206	224.383	317.943	296.340	-12.741	237.304	164.073	142.078	295.920	0.0012024	0.0007956	7.1e-05	785.64	1.5873e-05	1.403e-06	1074.8	279.58	1.5648e-05	8.2063e-06	472.2	197.61	103.25	48.425	1.0529e-05	107.62	0.0035656	0.0040945	0.0011506	810.72	4.4166e-05	4.599e-05	1061	278.66	4.3765e-05	4.5798e-05	471.01	196.54	109.27	48.711	4.4266e-05	106.74	46.782	12.109	135.631	-27.802	61.219	163.888	-27.626	-22.516	110.657	13.757	-23.060	-19.011	-18.899	-14.697	178.669	-15.361	-8191	255	
2270.420	1	1	0	0	0.14977	0.17422	0.202	0.23555	0.11805	0.22673	0.13238	0.24098	0.11323	0.11474	0.068709	0.047839	0.34624	0.17354	0.27657	0.11978	-2.7146	-3.025	-2.8917	-3.3729	-3.0125	-3.0917	-3.1167	-2.85	-3.2604	-3.2042	-3.0563	-3.3354	-2.9646	-3.1146	-3.2854	-3.2146	154.395	-20.309	167.209	-29.889	18.257	292.518	258.699	-31.173	135.910	187.575	79.946	150.797	16.109	-9.551	192.369	59.480	0.0010606	0.0011742	0.00020412	781.15	7.0575e-06	9.3499e-06	1076.3	278.44	1.3265e-05	4.8683e-06	470.58	198.1	102.78	48.224	5.9826e-06	107.31	0.00354	0.0040542	0.0011329	805.4	4.3215e-05	4.4601e-05	1058	277.46	4.2297e-05	4.4034e-05	469.91	196.43	108.7	48.504	4.2553e-05	106.69	34.506	37.360	38.340	-27.433	-26.544	124.357	-27.858	-22.592	114.025	275.487	-23.050	-19.220	-18.538	-14.513	145.840	-15.406	-8191	255	
2270.516	1	1	0	0	0.21723	0.13908	0.0032025	0.18286	0.13485	0.16196	0.19131	0.33131	0.21698	0.19907	0.10717	0.29079	0.096398	0.11215	0.12331	0.18647	-2.7125	-3.0208	-3.0563	-3.2271	-2.9458	-2.8979	-3.2375	-2.9542	-3.0417	-3.1292	-2.9042	-3.35	-2.9917	-3.0125	-3.3208	-3.1104	55.421	-39.135	120.071	284.417	35.237	278.446	284.544	284.126	37.109	241.179	93.622	280.583	193.874	298.543	82.135	235.890	0.0011542	0.00092869	0.00018115	787.29	3.4152e-06	3.1575e-06	1074.6	279.28	1.5385e-05	3.0577e-06	472.43	197.89	103.42	48.71	1.1383e-05	107.99	0.0034409	0.0039732	0.0011091	805.6	4.2316e-05	4.3607e-05	1058.1	277.57	4.1095e-05	4.2611e-05	469.85	196.41	108.82	48.597	4.1622e-05	107.2	52.090	82.133	52.987	-27.778	84.491	81.821	-27.797	-22.795	218.003	70.473	-22.795	-18.761	-18.662	-14.363	68.647	-15.354	-8191	255	
2270.612	1	1	0	0	0.19764	0.22662	0.13705	0.096396	0.21645	0.084214	0.012293	0.28776	0.054584	0.13614	0.20853	0.13491	0.22331	0.22934	0.29246	0.371	-2.5229	-2.9771	-2.7542	-3.3438	-3	-3.0375	-3.4292	-3.0292	-3.1979	-3.1229	-2.8896	-3.3438	-2.8812	-3.0104	-3.225	-2.9792	198.077	164.391	48.795	174.569	183.433	256.227	149.279	296.715	154.561	192.235	177.971	255.522	101.186	228.190	54.806	293.587	0.0011183	0.00073097	5.8801e-05	781.1	9.2223e-06	3.1298e-06	1077.9	280.21	4.3642e-06	8.566e-06	474.38	199.74	102.93	48.594	4.9515e-06	108.35	0.0033532	0.0038787	0.001079	804.62	4.1666e-05	4.3229e-05	1061	278.54	4.1125e-05	4.2701e-05	472.39	197.33	109.03	48.74	4.2403e-05	107.48	47.512	107.009	129.809	-27.664	41.249	141.084	-27.811	-22.475	116.860	98.356	-23.065	-19.074	-18.649	-14.508	210.813	-15.528	-8191	255	
2270.708	1	1	0	0	0.23422	0.24198	0.34376	0.036353	0.16018	0.11712	0.12971	0.14348	0.044762	0.10567	0.25039	0.21426	0.1818	0.30349	0.031926	0.23463	-2.5625	-3.1813	-2.7458	-3.2938	-2.9313	-3.0083	-3.3875	-3.0938	-3.0958	-3.2458	-2.9583	-3.2313	-3.0312	-2.9021	-3.1208	-3.15	316.972	223.912	308.586	9.866	189.413	29.909	302.144	305.672	112.328	40.598	121.991	275.666	57.225	-14.052	206.385	173.347	0.00089457	0.00017968	0.00017189	786.72	6.1074e-06	1.3646e-05	1077.6	279.48	6.8021e-06	4.8896e-06	473.17	198.31	102.2	48.225	7.397e-06	108.1	0.0033723	0.0038719	0.0010963	807.24	4.181e-05	4.3093e-05	1062.3	278.38	4.1131e-05	4.3249e-05	471.29	196.76	108.82	48.581	4.2372e-05	106.93	40.234	308.839	35.863	-27.570	166.523	130.205	-27.806	-22.561	137.548	74.528	-23.208	-19.088	-18.464	-14.341	117.641	-15.554	-8191	255	
2270.805	1	1	0	0	0.17539	0.088798	0.033454	0.40942	0.065986	0.18679	0.20051	0.17817	0.13106	0.0080401	0.20063	0.18574	0.23657	0.24065	0.062235	0.043722	-2.6688	-3.3292	-2.9354	-3.0458	-2.9792	-2.9313	-3.1417	-2.85	-2.8937	-3.3042	-3.1583	-3.1271	-3.1646	-2.9354	-3.2375	-3.0438	199.006	-20.798	146.121	-14.382	20.999	-7.340	-24.033	204.886	193.602	291.710	242.943	275.426	244.452	315.727	57.052	259.815	0.0010595	0.00081419	0.0002252	778.23	1.7639e-06	9.3976e-06	1073.3	278.38	7.8317e-06	2.6713e-06	470.75	196.97	102.75	48.349	5.613e-06	108.11	0.0034016	0.0039632	0.0011015	801.91	4.1804e-05	4.3951e-05	1058.6	276.9	4.1225e-05	4.2911e-05	469.03	195.81	108.39	48.506	4.2076e-05	106.9	43.719	43.774	6.913	-27.748	33.758	141.690	-27.786	-22.537	122.920	42.203	-23.176	-18.963	-18.506	-14.517	116.268	-15.614	-8191	255	
2270.901	1	1	0	0	0.034865	0.076585	0.12648	0.18584	0.25441	0.039252	0.39022	0.2152	0.16506	0.14537	0.11888	0.25621	0.28806	0.067131	0.15263	0.31071	-2.5104	-3.2625	-2.6833	-2.9125	-3.0146	-2.8167	-3.4062	-2.9708	-2.6875	-3.0875	-3.0792	-3.1667	-3.1604	-2.9375	-3.0542	-3.1333	36.157	-3.145	75.108	287.982	37.535	18.023	292.798	-37.909	264.679	188.781	166.246	277.406	284.437	281.803	-36.728	305.254	0.0010952	0.0013516	0.00026459	775.57	7.8733e-06	5.9392e-06	1074.9	279.15	1.0701e-05	1.4495e-05	473.41	198.26	102.33	48.399	1.3426e-05	107.95	0.0033592	0.0039237	0.0011006	802.36	4.2164e-05	4.3586e-05	1059.1	277.16	4.1363e-05	4.3732e-05	470.3	196.32	108.42	48.533	4.2335e-05	106.94	39.806	49.640	60.194	-27.763	122.030	97.420	-27.416	-22.575	173.858	146.491	-23.126	-19.044	-18.403	-14.585	181.892	-15.756	-8191	255	
2271.021	1	1	0	0	0.11516	0.25885	0.016172	0.071169	0.13471	0.034142	0.16845	0.12276	0.38563	0.13334	0.11871	0.1745	0.22606	0.034727	0.015129	0.11949	-2.3479	-3.2562	-2.8312	-2.8208	-3.1937	-2.9417	-3.2062	-3.1292	-2.8583	-3.15	-2.9313	-3.0563	-3.1521	-3.1021	-2.9729	-3.0521	228.439	34.614	56.387	-38.411	113.687	99.659	268.410	247.564	255.278	230.648	-39.949	273.258	290.291	92.428	220.273	253.024	0.0011259	0.00048063	0.00020085	785.07	8.6693e-06	9.0011e-06	1078	278.18	8.6013e-06	2.8925e-06	474.36	197.89	103.22	48.426	9.3953e-06	108.51	0.003407	0.0039948	0.0011151	805.63	4.2316e-05	4.4534e-05	1060.4	277.43	4.1985e-05	4.4421e-05	472.23	196.87	108.94	48.702	4.335e-05	107.59	40.522	280.632	54.774	-27.996	88.893	86.076	-27.770	-22.793	132.044	173.602	-23.002	-19.189	-18.146	-14.695	140.205	-15.494	-8191	255	
2271.116	1	1	0	0	0.064535	0.1585	0.15527	0.12242	0.074829	0.14278	0.25334	0.15873	0.12798	0.12247	0.17678	0.32409	0.088564	0.20784	0.21638	0.37431	-2.4313	-2.9354	-3	-3.0854	-3.1813	-2.9479	-3.2687	-2.9875	-2.8604	-3.1229	-2.9729	-3.1479	-3.4083	-2.9271	-3.0354	-3.3729	131.376	70.254	119.826	-14.328	230.586	13.271	283.136	-0.464	32.080	197.088	7.725	-36.218	256.720	268.507	-28.009	272.310	0.0010346	0.00067507	0.00021899	782.71	8.4441e-06	1.2093e-05	1077.1	280.53	6.2769e-06	1.6512e-05	475.55	198.8	102.63	48.429	5.9007e-06	107.64	0.0034365	0.0039778	0.0011116	806.33	4.2362e-05	4.4023e-05	1062.1	278.64	4.1101e-05	4.3337e-05	472.63	196.91	108.76	48.532	4.1985e-05	106.92	33.017	72.898	91.705	-27.965	69.616	79.386	-27.559	-22.555	68.551	48.875	-23.064	-19.028	-18.734	-14.626	65.183	-15.517	-8191	255	
2271.214	1	1	0	0	0.064864	0.16217	0.068784	0.2563	0.024295	0.091633	0.14509	0.10101	0.19318	0.30262	0.16887	0.4283	0.11529	0.12741	0.1293	0.12856	-2.3396	-3.1958	-3.0729	-2.8625	-3.2417	-2.9396	-3.0896	-3.2208	-2.8312	-3.2333	-3.1021	-3.0104	-3.1667	-2.9083	-2.8417	-3.3979	280.037	230.664	-24.800	-38.629	157.327	151.260	194.784	232.571	-0.259	154.404	290.618	303.997	128.508	62.694	53.816	272.888	0.0012335	0.00095971	0.00013369	783.8	1.2593e-05	1.3951e-05	1074.1	278.34	1.3801e-05	9.7451e-06	474.98	198.52	102.58	48.212	1.5356e-06	108.06	0.0034049	0.0039519	0.0010945	802.27	4.1709e-05	4.3414e-05	1057.8	276.35	4.0498e-05	4.2942e-05	470.42	196.11	108.21	48.326	4.0905e-05	106.8	48.105	50.664	17.317	-27.957	88.088	116.790	-27.626	-22.441	139.454	55.676	-23.156	-19.142	-18.741	-14.500	102.621	-15.555	-8191	255	
2271.308	1	1	0	0	0.13147	0.085854	0.050875	0.13066	0.25607	0.063805	0.34627	0.32908	0.1295	0.19811	0.1675	0.054663	0.09833	0.14556	0.10789	0.037618	-2.2854	-3.0833	-3.0958	-2.9292	-3.2854	-3.0854	-3.1604	-3.3167	-2.6979	-3.0521	-3.0354	-2.7375	-3.3417	-3.0104	-2.8542	-3.4938	304.006	60.006	312.098	281.624	17.487	152.598	283.623	-26.369	307.888	308.250	293.033	-11.506	262.068	175.819	296.244	102.058	0.0009938	0.00086997	0.00035102	769.51	1.2239e-05	9.7631e-06	1074.3	278.96	7.8524e-06	2.0406e-05	475.95	197.7	102.26	48.081	1.6446e-05	108.42	0.0033438	0.0038463	0.0010653	801.66	4.1138e-05	4.2739e-05	1057.9	277.18	4.0088e-05	4.2378e-05	471.71	196.24	108.12	48.385	4.0563e-05	107.17	36.976	66.712	23.939	-27.345	139.305	183.760	-27.703	-22.547	53.286	101.269	-23.060	-19.025	-18.611	-14.706	98.208	-15.767	-8191	255	
2271.404	1	1	0	0	0.12112	0.18694	0.12832	0.28332	0.13021	0.14938	0.13273	0.14183	0.071574	0.084823	0.20442	0.42805	0.14131	0.068669	0.059586	0.29922	-2.2646	-2.9813	-2.9333	-2.9062	-3.0312	-3.1292	-3.025	-3.1854	-2.8625	-3.1479	-3.1729	-2.9979	-3.0896	-3.0583	-3.0375	-3.2521	179.200	95.029	91.486	-20.760	253.845	164.054	-4.939	248.298	121.389	304.072	309.547	266.055	126.848	229.815	263.138	238.912	0.0010226	0.00072596	0.00012421	774.11	3.366e-06	5.2752e-06	1077.5	279.16	1.1297e-05	9.9194e-06	473.79	199.17	101.93	48.687	5.2698e-06	108.49	0.0032689	0.0038155	0.001057	800.5	4.0481e-05	4.1813e-05	1059.1	277.11	3.9788e-05	4.1642e-05	470.52	197.17	108.16	48.63	4.0164e-05	107.55	40.690	58.373	10.233	-27.916	162.283	190.320	-27.609	-22.449	131.618	125.873	-23.024	-19.248	-18.302	-14.699	119.310	-15.552	-8191	255	
2271.500	1	1	0	0	0.025036	0.29629	0.090499	0.10495	0.074597	0.1468	0.1821	0.24383	0.11214	0.094884	0.11424	0.15346	0.1176	0.16446	0.03092	0.15413	-2.4813	-2.9021	-3.1437	-2.7896	-3.325	-3.1833	-3.2188	-3.2167	-2.8958	-3.0563	-3.2958	-2.8812	-3.1437	-3.0542	-2.7917	-3.2375	258.067	86.593	247.292	315.168	308.753	8.559	299.630	295.368	296.850	312.129	221.794	229.859	272.446	-26.078	-1.070	224.428	0.0011273	0.00084952	0.00029592	779.37	5.2778e-06	1.5488e-06	1076.4	280.29	1.3154e-05	3.9136e-06	476.35	199.04	103.54	48.396	6.063e-06	108.56	0.0032865	0.0037752	0.001053	801.98	4.0574e-05	4.186e-05	1061	278.01	3.9762e-05	4.1981e-05	472.65	197.04	108.68	48.49	4.1031e-05	107.15	33.795	1.172	71.535	-27.541	43.455	79.982	-27.621	-22.495	39.955	43.738	-23.155	-19.196	-18.972	-14.667	52.169	-15.654	-8191	255	
2271.621	1	1	0	0	0.1682	0.18418	0.13503	0.14045	0.06059	0.12092	0.25692	0.18932	0.17759	0.36431	0.14074	0.14855	0.21959	0.07561	0.046877	0.10747	-2.4167	-3.0042	-3.1125	-2.775	-3.1979	-3.1958	-2.8521	-3.3396	-2.7542	-2.9375	-3.3438	-3.1063	-2.9292	-3.1562	-2.8104	-3.2375	275.856	-15.121	187.604	76.444	154.771	34.453	293.858	308.009	24.035	5.112	19.249	-29.763	206.119	286.300	126.553	269.418	0.0012229	0.00065837	0.00029312	779.31	9.3464e-06	4.8821e-06	1074.1	276.96	1.2561e-05	9.932e-06	472.97	197.98	102.26	48.008	1.9528e-05	107.87	0.0032906	0.0038395	0.0010739	800.79	4.0939e-05	4.2571e-05	1057.3	275.7	4.0601e-05	4.2395e-05	469.23	195.67	107.75	48.179	4.1243e-05	106.74	39.772	113.793	47.775	-27.861	123.588	108.070	-27.553	-22.662	140.081	140.272	-23.070	-19.427	-18.638	-14.603	109.081	-15.348	-8191	255	
2271.717	1	1	0	0	0.22291	0.23671	0.075705	0.21681	0.060381	0.14327	0.1319	0.10928	0.25797	0.077852	0.21348	0.20387	0.2927	0.28839	0.045526	0.22191	-2.5292	-2.9708	-3.2604	-2.8354	-3.0979	-3.0938	-2.8375	-3.1833	-2.975	-2.7875	-3.2896	-2.9583	-3	-3.2	-2.8542	-3.2979	192.979	269.268	215.715	-15.866	141.699	317.236	292.816	246.640	100.061	250.197	196.683	115.804	262.371	273.416	78.333	233.308	0.00084517	0.00017978	0.00016903	775.82	1.1358e-05	1.4417e-05	1075.4	276.6	1.757e-05	7.3923e-06	473.81	198.07	101.63	48.114	1.2403e-05	107.94	0.0033462	0.003874	0.0010848	799.27	4.1998e-05	4.3278e-05	1056.1	275.41	4.0786e-05	4.3095e-05	470	195.89	107.54	48.211	4.244e-05	106.81	34.698	-6.051	1.597	-27.879	121.338	107.841	-27.636	-22.589	110.287	131.514	-23.262	-19.202	-18.718	-14.716	60.531	-15.427	-8191	255	
2271.813	1	1	0	0	0.236	0.21712	0.16633	0.19719	0.039591	0.1941	0.29236	0.21678	0.33932	0.042493	0.11817	0.051094	0.22494	0.13347	0.068946	0.20304	-2.6042	-2.8208	-3.0083	-2.8458	-2.9021	-3.1917	-3.0375	-3.2354	-2.9833	-2.9417	-3.2	-3.0104	-2.6771	-3.4042	-2.8708	-3.2271	179.265	302.291	14.434	207.391	-38.022	48.720	291.243	296.000	170.194	36.904	268.441	-9.379	16.363	286.561	189.790	290.574	0.0010085	0.0005394	0.00026502	776.66	1.3381e-05	1.6475e-05	1075	278.52	2.6309e-05	5.8065e-06	474.2	198.26	101.87	48.009	1.0103e-05	108.64	0.0034416	0.0039695	0.0011224	801.33	4.3278e-05	4.481e-05	1058.9	276.59	4.2126e-05	4.4618e-05	471.23	196.24	108.38	48.357	4.3079e-05	107.34	47.658	-1.126	60.574	-27.662	97.961	89.172	-27.733	-22.443	73.659	267.287	-23.369	-19.305	-18.232	-14.545	157.152	-15.545	-8191	255	
2271.909	1	1	0	0	0.34144	0.13227	0.17362	0.17325	0.12659	0.19909	0.26791	0.047092	0.12055	0.17634	0.10943	0.34268	0.16063	0.24954	0.14274	0.13589	-2.8229	-2.8354	-2.9708	-2.8125	-2.8542	-3.0021	-3.0271	-3.1417	-3.3479	-2.8583	-3.2479	-3.1625	-2.7854	-3.3708	-2.8333	-3.0458	112.332	300.001	69.287	307.402	84.611	241.023	266.422	311.718	247.446	270.867	189.089	313.013	310.362	-19.100	-5.238	153.439	0.001069	0.0011102	0.00015736	771.68	6.0206e-06	9.7391e-06	1078.2	277.27	6.9277e-06	4.3103e-07	474.92	198.19	101.8	48.395	6.238e-06	108.11	0.0034842	0.0040482	0.0011329	800.37	4.3594e-05	4.5039e-05	1060.7	276.57	4.2733e-05	4.4505e-05	472.09	196.74	108.24	48.45	4.2889e-05	107.16	46.668	32.511	-0.631	-27.858	87.360	164.289	-27.968	-22.423	76.541	65.741	-23.042	-19.016	-18.151	-14.709	123.000	-15.561	-8191	255	
#DATA ENDS
