BOXY.EXE: ISS Imagent and Oximeter Data Acquisition Program Version 0.80
Ascii Record File

#ACQ INFORMATION
2  Detector Channels 
16  External MUX Channels 
1  Auxiliary Channels 
5000  Waveform (CCF) Frequency (Hz)
1  Waveforms Skipped 
30  Waveforms Averaged 
1  Cycles Averaged 
16  Acquisitions per Waveform 
10.0806  Updata Rate (Hz) 

#FILE INFORMATION
TRUE -- External MUX Channel results are PARSED.
FALSE -- AC DC and Phase are NOT grouped.
TRUE -- Companion Program Settings File CREATED.
FALSE -- AC data not excluded
FALSE -- DC data not excluded
FALSE -- Phase data not excluded
FALSE -- Auxillary Chn. data not excluded
Tab delimiters

#CALIBRATION STATE
TRUE -- Waveform Calibration Values APPLIED.


#AUX CALIBRATION VALUES
Val Type	aux-1	

Term	1.0000e+00	
Factor	0.0000e+00	


#WF CALIBRATION VALUES
A = Detector Channel
Val Type	A-AC1	A-AC2	A-AC3	A-AC4	A-AC5	A-AC6	A-AC7	A-AC8	A-AC9	A-AC10	A-AC11	A-AC12	A-AC13	A-AC14	A-AC15	A-AC16	A-DC1	A-DC2	A-DC3	A-DC4	A-DC5	A-DC6	A-DC7	A-DC8	A-DC9	A-DC10	A-DC11	A-DC12	A-DC13	A-DC14	A-DC15	A-DC16	A-Ph1	A-Ph2	A-Ph3	A-Ph4	A-Ph5	A-Ph6	A-Ph7	A-Ph8	A-Ph9	A-Ph10	A-Ph11	A-Ph12	A-Ph13	A-Ph14	A-Ph15	A-Ph16	

Term	0.00000e+00	0.00000e+00	0.00000e+00	0.00000e+00	0.00000e+00	0.00000e+00	0.00000e+00	0.00000e+00	0.00000e+00	0.00000e+00	0.00000e+00	0.00000e+00	0.00000e+00	0.00000e+00	0.00000e+00	0.00000e+00	0.00000e+00	0.00000e+00	0.00000e+00	0.00000e+00	0.00000e+00	0.00000e+00	0.00000e+00	0.00000e+00	0.00000e+00	0.00000e+00	0.00000e+00	0.00000e+00	0.00000e+00	0.00000e+00	0.00000e+00	0.00000e+00	0.00000e+00	0.00000e+00	0.00000e+00	0.00000e+00	0.00000e+00	0.00000e+00	0.00000e+00	0.00000e+00	0.00000e+00	0.00000e+00	0.00000e+00	0.00000e+00	0.00000e+00	0.00000e+00	0.00000e+00	0.00000e+00	
Factor	1.00000e+00	1.00000e+00	1.00000e+00	1.00000e+00	1.00000e+00	1.00000e+00	1.00000e+00	1.00000e+00	1.00000e+00	1.00000e+00	1.00000e+00	1.00000e+00	1.00000e+00	1.00000e+00	1.00000e+00	1.00000e+00	1.00000e+00	1.00000e+00	1.00000e+00	1.00000e+00	1.00000e+00	1.00000e+00	1.00000e+00	1.00000e+00	1.00000e+00	1.00000e+00	1.00000e+00	1.00000e+00	1.00000e+00	1.00000e+00	1.00000e+00	1.00000e+00	X	X	X	X	X	X	X	X	X	X	X	X	X	X	X	X	

B = Detector Channel
Val Type	B-AC1	B-AC2	B-AC3	B-AC4	B-AC5	B-AC6	B-AC7	B-AC8	B-AC9	B-AC10	B-AC11	B-AC12	B-AC13	B-AC14	B-AC15	B-AC16	B-DC1	B-DC2	B-DC3	B-DC4	B-DC5	B-DC6	B-DC7	B-DC8	B-DC9	B-DC10	B-DC11	B-DC12	B-DC13	B-DC14	B-DC15	B-DC16	B-Ph1	B-Ph2	B-Ph3	B-Ph4	B-Ph5	B-Ph6	B-Ph7	B-Ph8	B-Ph9	B-Ph10	B-Ph11	B-Ph12	B-Ph13	B-Ph14	B-Ph15	B-Ph16	

Term	0.00000e+00	0.00000e+00	0.00000e+00	0.00000e+00	0.00000e+00	0.00000e+00	0.00000e+00	0.00000e+00	0.00000e+00	0.00000e+00	0.00000e+00	0.00000e+00	0.00000e+00	0.00000e+00	0.00000e+00	0.00000e+00	0.00000e+00	0.00000e+00	0.00000e+00	0.00000e+00	0.00000e+00	0.00000e+00	0.00000e+00	0.00000e+00	0.00000e+00	0.00000e+00	0.00000e+00	0.00000e+00	0.00000e+00	0.00000e+00	0.00000e+00	0.00000e+00	-2.34514e+02	-1.29768e+02	-1.30127e+02	-1.84443e+02	-8.22941e+01	-6.40824e+01	-1.56720e+02	-1.62015e+02	-7.26260e+01	-6.78743e+01	-1.72091e+02	-1.69816e+02	-1.86035e+02	-1.76734e+02	-7.55040e+01	-1.49635e+02	
Factor	5.55501e-05	1.82107e-04	4.65506e-05	3.36067e-01	2.21863e-06	2.08987e-06	1.79340e-01	5.49720e-02	3.07935e-06	1.85942e-06	9.27168e-02	3.06035e-02	5.57620e-02	9.79774e-03	2.10663e-06	1.41981e-02	8.47988e-06	1.03975e-05	2.90508e-06	1.65852e-01	1.11247e-07	1.15048e-07	8.36732e-02	2.73498e-02	1.08864e-07	1.14871e-07	4.47458e-02	1.47719e-02	2.76586e-02	4.92130e-03	1.11357e-07	6.90630e-03	X	X	X	X	X	X	X	X	X	X	X	X	X	X	X	X	



#DISTANCE SETTINGS
A = Detector Channel
A-1	A-2	A-3	A-4	A-5	A-6	A-7	A-8	A-9	A-10	A-11	A-12	A-13	A-14	A-15	A-16	

2.5000e+00	3.0000e+00	2.5000e+00	3.0000e+00	2.0000e+00	3.0000e+00	1.5000e+00	3.0000e+00	3.0000e+00	3.0000e+00	3.0000e+00	3.0000e+00	3.0000e+00	3.0000e+00	1.5000e+00	3.0000e+00	

B = Detector Channel
B-1	B-2	B-3	B-4	B-5	B-6	B-7	B-8	B-9	B-10	B-11	B-12	B-13	B-14	B-15	B-16	

1.0000e+01	1.0000e+01	1.0000e+01	1.4400e+00	1.0000e+01	1.0000e+01	1.5100e+00	1.9400e+00	1.0000e+01	1.0000e+01	1.9900e+00	2.4900e+00	2.4100e+00	2.9000e+00	1.0000e+01	2.9800e+00	




#DATA BEGINS
time	group	step	mark	flag	A-AC1	A-AC2	A-AC3	A-AC4	A-AC5	A-AC6	A-AC7	A-AC8	A-AC9	A-AC10	A-AC11	A-AC12	A-AC13	A-AC14	A-AC15	A-AC16	A-DC1	A-DC2	A-DC3	A-DC4	A-DC5	A-DC6	A-DC7	A-DC8	A-DC9	A-DC10	A-DC11	A-DC12	A-DC13	A-DC14	A-DC15	A-DC16	A-Ph1	A-Ph2	A-Ph3	A-Ph4	A-Ph5	A-Ph6	A-Ph7	A-Ph8	A-Ph9	A-Ph10	A-Ph11	A-Ph12	A-Ph13	A-Ph14	A-Ph15	A-Ph16	B-AC1	B-AC2	B-AC3	B-AC4	B-AC5	B-AC6	B-AC7	B-AC8	B-AC9	B-AC10	B-AC11	B-AC12	B-AC13	B-AC14	B-AC15	B-AC16	B-DC1	B-DC2	B-DC3	B-DC4	B-DC5	B-DC6	B-DC7	B-DC8	B-DC9	B-DC10	B-DC11	B-DC12	B-DC13	B-DC14	B-DC15	B-DC16	B-Ph1	B-Ph2	B-Ph3	B-Ph4	B-Ph5	B-Ph6	B-Ph7	B-Ph8	B-Ph9	B-Ph10	B-Ph11	B-Ph12	B-Ph13	B-Ph14	B-Ph15	B-Ph16	aux-1	digaux	

1471.590	1	1	0	256	0.082451	0.2251	0.29711	0.13957	0.06249	0.031831	0.141	0.16203	0.22678	0.17837	0.16035	0.061955	0.18674	0.38727	0.18112	0.030859	-2.5521	-3.2458	-3.4646	-3.0625	-3.4938	-3.2271	-3.3167	-3.4271	-3.1625	-3.2562	-3.3271	-2.9458	-3.2458	-3.1083	-2.9188	-3.5083	-126.143	152.078	125.871	175.907	-98.069	65.475	85.108	104.936	63.072	-80.877	191.823	77.809	-141.952	190.036	-154.552	-4.893	0.0010716	0.0003942	0.00017664	1226.5	5.3202e-06	5.585e-06	1225	338.28	8.75e-06	4.2871e-06	387.34	129.14	112.35	38.355	3.9566e-06	47.955	0.00043168	0.00037199	0.00010322	1249	3.9022e-06	3.9866e-06	1252.5	345.78	4.0609e-06	3.9044e-06	396.55	132.3	114.47	39.347	4.0151e-06	49.63	91.964	-70.470	-68.874	-141.175	7.086	18.506	-141.384	-136.632	-60.951	-21.238	-136.997	-133.173	-133.016	-127.357	-27.554	-128.234	-8191	255	
1471.686	1	1	0	0	0.084367	0.18545	0.1497	0.13068	0.3257	0.2815	0.25094	0.12597	0.16497	0.23713	0.077669	0.1549	0.20341	0.26745	0.098264	0.10372	-2.7854	-3.0583	-3.325	-3.2167	-3.5458	-3.2875	-3.3812	-3.525	-3.0312	-3.0396	-3.4042	-2.8729	-3.2583	-3.3771	-3.125	-3.5938	-16.208	94.063	-11.072	189.994	-76.395	-69.659	114.206	-74.490	-29.855	144.677	109.223	-141.129	-131.825	-127.725	-31.632	115.440	0.0010648	0.00035737	0.00011216	1235.7	6.0711e-06	6.925e-06	1225.8	338.63	8.7375e-06	6.0283e-06	386.24	129.23	112.7	38.212	5.1048e-06	47.996	0.00043216	0.00036357	0.00010262	1251.2	4.0332e-06	3.9533e-06	1257	346.29	4.2183e-06	4.1165e-06	396.82	132.5	115	39.43	4.2585e-06	49.648	94.654	-59.856	-53.949	-141.076	-32.797	10.825	-141.446	-136.607	-59.066	-7.263	-136.988	-132.917	-132.903	-127.641	-46.576	-128.313	-8191	255	
1471.782	1	1	0	0	0.11892	0.3208	0.13639	0.19329	0.045571	0.28574	0.21223	0.029483	0.16446	0.096893	0.21536	0.12083	0.20039	0.19424	0.27294	0.18796	-2.7917	-3.2708	-3.5583	-3.1917	-3.375	-3.3542	-3.1792	-3.2792	-3.0479	-3.0583	-3.3854	-3.1167	-3.2271	-3.4021	-3.1479	-3.5042	88.584	147.167	45.622	118.833	26.520	195.136	-144.627	-139.746	103.531	145.045	202.679	53.958	202.980	-140.745	-73.006	156.196	0.0011464	0.00058877	0.00015235	1235.4	4.1632e-06	3.8385e-06	1232.6	338.1	1.0714e-05	6.31e-06	388.19	129.61	112.12	38.07	3.8263e-06	47.926	0.00044839	0.00038295	0.0001079	1252.8	4.2404e-06	4.2175e-06	1257.8	345.77	4.3664e-06	4.2852e-06	397.05	132.44	114.67	39.421	4.3084e-06	49.639	94.393	-66.907	-70.997	-141.153	-18.377	-4.085	-141.558	-136.564	-54.736	-7.013	-137.108	-133.201	-132.970	-127.302	-3.794	-128.128	-8191	255	
1471.878	1	1	0	0	0.095127	0.073091	0.3228	0.19531	0.19095	0.30394	0.048809	0.059948	0.29747	0.33258	0.15712	0.1536	0.20241	0.093583	0.14193	0.062639	-2.7687	-3.0583	-3.4396	-3.1917	-3.3021	-3.4146	-3.4979	-3.6333	-3.3542	-3.0667	-3.5563	-3.3021	-3.4042	-3.5146	-3.2729	-3.5583	15.588	70.286	-98.334	166.454	-109.229	-91.593	-37.838	96.215	25.082	113.168	164.895	-6.222	-90.666	71.619	-105.799	181.672	0.0011091	0.00018076	8.6698e-05	1230.6	7.5156e-06	6.3948e-06	1231.7	338.98	7.6604e-06	3.7821e-06	387.15	129.39	112.36	38.34	2.1445e-06	48.018	0.00044436	0.000383	0.00010588	1249.9	4.2163e-06	4.134e-06	1257.3	346.08	4.1765e-06	4.2318e-06	396.52	132.44	114.81	39.427	4.364e-06	49.641	96.268	-27.142	-48.361	-141.247	-21.572	3.151	-141.517	-136.517	-65.400	6.323	-136.952	-133.246	-132.825	-127.460	-9.587	-128.289	-8191	255	
1471.999	1	1	0	0	0.33471	0.031046	0.17158	0.35488	0.098043	0.2445	0.29132	0.31156	0.10036	0.23551	0.16359	0.19531	0.1728	0.22141	0.22391	0.19276	-2.9646	-3.2042	-3.3854	-3.1104	-3.2958	-3.4771	-3.0646	-3.3771	-3.1063	-3.0833	-3.3542	-3.1417	-3.0625	-3.4833	-2.975	-3.3979	-132.203	174.290	-8.897	-132.376	-44.363	-18.018	149.770	140.704	-148.545	59.037	115.781	183.154	138.535	55.549	103.417	-4.942	0.0011019	0.00039889	9.8424e-05	1227.8	7.1404e-06	6.5248e-06	1233.9	338.28	8.9412e-06	5.2953e-06	388.02	129.6	113.28	38.239	5.9334e-06	48.112	0.00045502	0.00038952	0.00010516	1249.5	4.2914e-06	4.3524e-06	1257.5	346.3	4.3119e-06	4.2323e-06	396.71	132.54	115.11	39.447	4.2938e-06	49.646	93.938	-57.717	-70.317	-141.085	-21.828	10.618	-141.611	-136.409	-54.965	-7.399	-137.200	-133.340	-133.238	-127.439	-48.745	-128.305	-8191	255	
1472.095	1	1	0	0	0.20879	0.099038	0.071414	0.10571	0.16347	0.12677	0.26477	0.34066	0.031511	0.044127	0.30644	0.017609	0.050212	0.18308	0.079122	0.21607	-3.0563	-3.1146	-3.4104	-3.3063	-3.1208	-3.5583	-3.2771	-3.4896	-3.3271	-3.0021	-3.4813	-3.1354	-2.9229	-3.2604	-3.0146	-3.1292	-118.847	-97.263	44.731	-94.970	-18.521	108.499	193.350	-145.570	151.031	-102.850	128.130	72.861	133.869	155.709	-150.950	115.865	0.0010651	0.00048521	0.00011106	1231	2.9726e-06	4.9514e-06	1236.3	339.01	6.9982e-06	4.7488e-06	388.06	129.22	112.27	38.218	3.8977e-06	48.071	0.0004523	0.00039147	0.00010794	1256.6	4.22e-06	4.2266e-06	1260.8	346.61	4.3909e-06	4.1153e-06	397.13	132.43	114.86	39.496	4.1381e-06	49.597	94.477	-81.740	-53.126	-140.837	-14.058	-2.148	-141.433	-136.466	-48.573	-13.627	-137.195	-133.188	-132.812	-127.481	-6.457	-128.201	-8191	255	
1472.189	1	1	0	0	0.19669	0.079619	0.29546	0.15107	0.17257	0.13861	0.33495	0.40798	0.24322	0.17017	0.1375	0.088111	0.21415	0.12035	0.20506	0.084281	-2.9479	-2.9167	-3.2625	-3.0563	-3.1417	-3.5833	-3.3854	-3.1896	-3.6583	-3.1708	-3.3979	-3.3833	-3.0542	-3.2354	-3.2875	-3.2042	-49.211	-61.174	-133.294	20.375	-117.563	8.390	130.783	-152.423	-126.000	165.366	19.692	-133.816	-67.160	114.786	204.881	6.631	0.0010821	0.00048812	0.00011324	1240.3	8.5709e-06	6.354e-06	1233.7	338.1	9.4812e-06	5.0259e-06	388.2	129.01	112.59	38.142	5.2813e-06	47.786	0.00044703	0.00038566	0.00010653	1254.5	4.2724e-06	4.1489e-06	1258.4	346.49	4.2196e-06	4.0707e-06	397.37	132.31	114.79	39.361	4.1332e-06	49.468	94.656	-57.879	-79.368	-141.043	-35.527	26.813	-141.459	-136.653	-52.742	-3.972	-137.068	-133.253	-133.197	-127.570	-10.434	-128.362	-8191	255	
1472.286	1	1	0	0	0.079012	0.22069	0.18676	0.19706	0.1873	0.037223	0.21657	0.14195	0.17447	0.075298	0.20764	0.10556	0.25155	0.30966	0.069862	0.098567	-2.9417	-2.9292	-3.1646	-3.2979	-3	-3.4917	-3.3292	-3.1708	-3.3292	-2.9771	-3.1354	-3.3583	-3.1167	-3.3563	-3.2875	-3.1417	-151.572	57.230	111.182	-70.238	28.081	192.946	147.321	131.684	172.788	-111.000	133.663	177.011	102.720	-40.790	-124.841	97.780	0.0010506	0.0003564	0.00015819	1229.8	4.6418e-06	6.2592e-06	1233.3	339.67	6.3906e-06	3.4383e-06	387.89	128.6	112.27	38.009	5.7898e-06	47.745	0.00044846	0.00038551	0.00010232	1252.8	4.1831e-06	4.0645e-06	1256.7	346.45	4.2348e-06	4.0794e-06	396.54	132.36	114.87	39.349	4.1485e-06	49.379	95.417	-83.489	-57.019	-141.068	-45.624	-8.414	-141.328	-136.338	-41.487	5.775	-137.023	-133.168	-133.085	-127.427	-36.232	-128.078	-8191	255	
1472.406	1	1	0	0	0.1463	0.11408	0.24266	0.087599	0.15733	0.060035	0.2041	0.10161	0.11903	0.17466	0.16834	0.23683	0.19608	0.038953	0.2079	0.056869	-2.9854	-2.9417	-3.0896	-3.1708	-3.0292	-3.5229	-3.5417	-3.3833	-3.4354	-3.1	-3.3354	-3.4417	-3.0938	-3.3583	-3.3104	-3.2479	163.506	-153.113	-148.661	-51.540	-14.329	108.149	187.245	182.457	113.333	-99.032	41.090	-153.393	-69.927	158.519	-108.002	45.072	0.0010216	0.00052865	0.00012084	1226	5.81e-06	6.357e-06	1240.6	339.2	5.406e-06	4.987e-06	389.22	129.76	113.11	38.419	5.2417e-06	48.077	0.00043956	0.00038092	0.00010775	1253.6	4.1915e-06	4.0569e-06	1261.1	346.45	4.2151e-06	4.0906e-06	397.06	132.42	114.87	39.424	4.0713e-06	49.535	94.551	-83.158	-57.028	-141.480	-20.190	-30.307	-141.506	-136.251	-55.010	-0.408	-137.156	-133.036	-133.358	-127.396	-20.835	-128.226	-8191	255	
1472.478	1	1	0	0	0.10754	0.20294	0.19855	0.059568	0.14366	0.070415	0.10633	0.19906	0.054958	0.087282	0.074861	0.14341	0.20503	0.098769	0.11592	0.12901	-3.2292	-3.1437	-3.0708	-3.4479	-2.9354	-3.4458	-3.4917	-3.2271	-3.4667	-3.3146	-3.1354	-3.35	-2.9208	-3.2	-3.5375	-3.2083	42.437	22.433	97.428	85.468	-122.839	-77.199	5.244	153.355	202.448	57.112	-153.505	108.445	205.457	34.300	-12.184	155.454	0.0011366	0.0005866	0.00010007	1236.8	5.1261e-06	4.2515e-06	1235.6	340.01	1.0987e-05	4.7585e-06	389.61	129.76	112.41	38.578	4.7705e-06	48.085	0.0004397	0.00036435	0.00010625	1254.2	4.0916e-06	4.0722e-06	1258.2	346.44	4.1613e-06	4.0052e-06	397.16	132.33	114.71	39.475	4.1694e-06	49.525	92.360	-74.769	-51.534	-141.130	-10.985	-1.457	-141.352	-136.548	-52.359	-5.428	-136.781	-133.266	-133.034	-127.549	-20.883	-128.274	-8191	255	
1472.574	1	1	0	0	0.019997	0.091204	0.13906	0.33784	0.047981	0.17547	0.16032	0.41214	0.20698	0.13724	0.13738	0.065509	0.20958	0.18611	0.25407	0.18163	-2.6854	-3.0958	-3.0438	-3.5896	-3.1479	-3.2146	-3.3375	-3.2396	-3.4437	-3.2208	-3.0479	-3.3354	-2.8563	-3.0521	-3.4583	-3.2271	21.134	124.067	90.938	145.079	-81.186	159.017	171.908	161.416	-54.051	26.447	122.958	200.280	20.153	191.482	-69.619	45.175	0.0010873	0.00045698	7.734e-05	1234.9	4.3966e-06	6.4919e-06	1234	339.62	9.1899e-06	3.6064e-06	388.83	129.29	112.79	38.468	6.0054e-06	47.844	0.00043956	0.00036842	0.00010726	1252	4.0496e-06	4.1074e-06	1256.1	346.02	4.1901e-06	4.1102e-06	396.68	132.25	114.86	39.509	4.1764e-06	49.357	95.547	-65.667	-67.424	-140.926	-33.136	-5.358	-141.458	-136.599	-70.249	-10.975	-137.065	-132.975	-132.984	-127.568	9.197	-128.071	-8191	255	
1472.695	1	1	0	0	0.16054	0.099731	0.11804	0.023841	0.16285	0.27935	0.24499	0.11195	0.18957	0.15468	0.24394	0.058797	0.079967	0.1427	0.061361	0.27707	-2.8792	-3.0687	-2.8667	-3.4271	-3.1729	-3.5521	-3.5729	-3.1042	-3.1729	-3.1333	-3.325	-3.6417	-3.1146	-3.1833	-3.3958	-3.2188	-145.545	-70.284	55.063	109.723	156.489	-136.760	110.998	109.111	100.802	-49.914	110.603	-105.827	0.550	12.923	64.473	125.226	0.0011586	0.00032919	0.0001338	1231.6	2.9068e-06	6.466e-06	1233.7	339.76	9.4841e-06	2.0159e-06	387.48	129.49	112.77	38.155	5.4883e-06	47.851	0.00043449	0.00036426	0.00010555	1250.9	3.9745e-06	4.1058e-06	1255.4	346.16	4.0654e-06	4.092e-06	396.78	132.24	114.76	39.346	4.1571e-06	49.451	96.223	-59.275	-73.235	-140.837	-30.560	-6.646	-141.518	-136.486	-46.817	-14.857	-137.050	-133.216	-133.074	-127.400	-51.473	-128.545	-8191	255	
1472.791	1	1	0	0	0.24027	0.26805	0.068682	0.087509	0.09754	0.16752	0.13284	0.25444	0.1857	0.097207	0.33615	0.079555	0.24419	0.069754	0.069415	0.17293	-3.2875	-3.3042	-3.0292	-3.2979	-3.2896	-3.2604	-3.5187	-3.2146	-3.175	-3.1771	-3.2229	-3.4729	-3.1625	-3.2333	-3.4229	-3.2292	164.268	-89.629	-66.559	-80.891	-19.211	59.628	168.421	90.521	87.819	-36.933	193.246	108.136	170.009	96.797	24.105	120.775	0.0010586	0.00036258	7.419e-05	1224.6	6.0659e-06	6.1878e-06	1227.5	337.56	6.7087e-06	3.9864e-06	388.47	129.2	111.7	38.235	3.4935e-06	47.679	0.00042085	0.00037383	0.00010312	1247.3	3.8934e-06	3.9411e-06	1253.2	345.09	4.0071e-06	3.9901e-06	396.1	132.19	114.41	39.445	4.0887e-06	49.374	95.524	-59.934	-73.831	-140.961	-9.487	1.825	-141.465	-136.559	-70.737	-13.796	-136.980	-133.122	-132.885	-127.405	-50.372	-128.352	-8191	255	
1472.887	1	1	0	0	0.031448	0.20947	0.1706	0.13528	0.31278	0.30639	0.082461	0.10847	0.17397	0.18978	0.1102	0.098053	0.2807	0.032051	0.096292	0.15899	-2.8104	-3.2604	-2.8708	-3.3021	-3.3146	-3.2229	-3.6375	-3.1792	-3.0812	-3.45	-2.925	-3.4979	-3.3688	-3.0542	-3.4313	-3.1937	-10.621	66.018	142.384	44.690	26.475	94.920	184.200	-122.045	182.358	-139.392	199.103	-54.008	193.476	-95.980	79.663	47.209	0.0010453	0.00035571	0.00010332	1229.1	6.354e-06	6.8687e-06	1230	337.56	1.0109e-05	3.5259e-06	387.18	128.79	112.54	38.194	5.2225e-06	47.826	0.00042558	0.0003692	0.00010541	1248.7	3.9894e-06	4.0204e-06	1251.7	345.19	4.1661e-06	3.8798e-06	396.5	132.12	114.7	39.391	3.9896e-06	49.38	95.383	-43.771	-59.287	-141.017	-37.011	6.491	-141.595	-136.571	-39.940	15.516	-136.819	-133.527	-133.065	-127.457	4.774	-128.220	-8191	255	
1472.983	1	1	0	0	0.19582	0.10553	0.336	0.27548	0.083838	0.30388	0.12675	0.14518	0.16499	0.14691	0.098304	0.33656	0.28375	0.28516	0.1497	0.18996	-2.8958	-3.4417	-3.0896	-3.3292	-3.1521	-2.9958	-3.5458	-3.3833	-3.2812	-3.6083	-3.2479	-3.2062	-3.3042	-3.1479	-3.4208	-3.1458	-57.247	117.162	-102.669	108.338	0.064	109.680	189.444	139.108	20.658	-46.834	187.315	200.671	-5.271	168.647	27.887	128.672	0.0010322	0.00040582	0.00010959	1224.8	4.191e-06	6.4031e-06	1227.2	338.33	7.6592e-06	4.2158e-06	387.68	129.46	112.79	38.365	5.5128e-06	47.825	0.00043194	0.00036287	0.00010064	1248	3.8723e-06	4.0248e-06	1250.9	345.29	4.1416e-06	3.8592e-06	396.04	132.16	114.56	39.421	3.9416e-06	49.346	96.925	-71.069	-44.229	-140.854	-55.879	-1.467	-141.526	-136.429	-58.321	-4.985	-136.974	-132.902	-133.220	-127.199	-39.670	-128.352	-8191	255	
1473.078	1	1	0	0	0.095851	0.11047	0.07468	0.13454	0.35412	0.066503	0.36194	0.1668	0.35452	0.14656	0.15942	0.049076	0.13222	0.24097	0.28054	0.21604	-2.6417	-3.3083	-2.9229	-3.1104	-3.3125	-3	-3.6083	-3.4938	-3.1521	-3.5417	-3.1167	-3.1375	-3.3271	-2.7854	-3.25	-3.3167	153.068	167.353	27.292	75.285	-151.378	-66.215	123.056	143.359	132.305	-143.982	197.305	32.894	153.010	-152.277	-64.325	32.643	0.0010997	0.0006578	0.00012139	1224	6.7051e-06	7.1929e-06	1226.9	338.75	7.5661e-06	5.8053e-06	387.49	128.9	112.49	38.319	4.9074e-06	47.914	0.00043314	0.00036309	9.8773e-05	1245.6	4.077e-06	3.9725e-06	1251.7	345.58	4.1015e-06	3.9599e-06	395.73	132.09	114.77	39.434	3.988e-06	49.365	96.851	-67.511	-59.934	-140.717	-37.261	14.123	-141.440	-136.616	-45.504	7.404	-137.079	-132.923	-133.140	-127.292	-30.154	-128.421	-8191	255	
1473.174	1	1	0	0	0.04793	0.079632	0.045243	0.04043	0.11975	0.087585	0.10502	0.31949	0.073371	0.23283	0.23614	0.15074	0.33805	0.1333	0.097867	0.18303	-2.65	-3.175	-3.1396	-3.3125	-3.4104	-3.1937	-3.5708	-3.4646	-3.2375	-3.4458	-3.2687	-3.2292	-3.4875	-3.1417	-3.3771	-3.2438	13.744	83.659	-104.075	186.016	43.186	-82.654	155.528	123.624	44.165	167.090	170.316	95.624	123.174	148.535	-86.245	144.495	0.001099	0.00060774	0.00016552	1229.3	7.2349e-06	5.7545e-06	1232.6	338.95	1.1674e-05	2.5788e-06	387.44	129.22	112.85	38.415	4.7635e-06	47.963	0.000438	0.00036088	9.9898e-05	1249.6	4.1507e-06	3.983e-06	1256.4	346.1	4.2906e-06	3.9384e-06	396.42	132.18	114.9	39.499	4.101e-06	49.411	92.966	-58.411	-79.931	-140.966	-37.977	-23.280	-141.416	-136.696	-48.134	0.682	-137.126	-133.122	-133.169	-127.370	-14.405	-128.357	-8191	255	
1473.270	1	1	0	0	0.18367	0.16997	0.1297	0.059249	0.11109	0.16554	0.34754	0.081433	0.11822	0.027692	0.296	0.31919	0.19739	0.057835	0.1631	0.052641	-2.5229	-3.35	-3.1292	-3.1583	-3.2896	-2.8521	-3.4708	-3.475	-3.0604	-3.25	-3.0875	-3.1479	-3.3167	-3.2625	-3.275	-3.5104	-45.408	46.377	100.215	179.679	163.016	-63.922	156.888	-32.403	6.040	90.263	183.891	130.966	-126.458	196.635	82.797	-59.426	0.001133	0.0007301	0.00017768	1232.5	6.9378e-06	4.1738e-06	1233.6	338.99	8.1486e-06	4.7416e-06	386.19	128.96	112	38.255	4.8751e-06	47.672	0.00044533	0.00036952	0.0001033	1251.2	4.1551e-06	4.0717e-06	1256	346.13	4.3067e-06	4.1246e-06	396.21	132.22	114.52	39.428	4.1692e-06	49.384	96.005	-53.227	-54.228	-141.019	-22.450	-24.129	-141.461	-136.572	-23.618	-8.546	-137.139	-132.932	-132.774	-127.752	-22.286	-128.192	-8191	255	
1473.366	1	1	0	0	0.17573	0.10953	0.14202	0.18376	0.029477	0.28837	0.16404	0.24875	0.062984	0.14578	0.19959	0.15459	0.20113	0.061655	0.10736	0.056621	-2.7438	-3.425	-3.3	-3.3375	-3.2771	-3.3	-3.5854	-3.5917	-3.1854	-3.4313	-3.4792	-3.2167	-3.3729	-3.2167	-3.225	-3.5458	34.543	-59.037	-24.544	131.831	-37.896	154.292	121.744	135.285	53.231	-83.757	-92.226	91.677	-101.894	-62.483	147.624	33.859	0.0010088	0.00039777	0.0001378	1228.4	3.4145e-06	4.5364e-06	1227.1	339.9	8.4831e-06	5.9351e-06	386.95	129.55	112.12	38.182	2.3385e-06	47.554	0.00044502	0.00037654	0.00010811	1249.9	4.1701e-06	4.2112e-06	1253.4	346.12	4.2369e-06	4.0102e-06	396.52	132.33	114.57	39.466	4.3091e-06	49.367	97.145	-68.121	-69.221	-141.135	-33.355	-13.788	-141.669	-136.455	-48.634	2.516	-136.909	-133.072	-133.038	-127.413	-40.111	-128.116	-8191	255	
1473.487	1	1	0	0	0.17492	0.11325	0.11111	0.30343	0.12204	0.13182	0.21386	0.18562	0.18092	0.13552	0.078238	0.060857	0.041488	0.2254	0.28007	0.18404	-2.7062	-3.3438	-3.0271	-3.125	-3.5896	-3.1937	-3.3729	-3.3479	-3.1333	-3.2229	-3.3792	-3.1646	-3.4708	-3.1542	-3.2458	-3.4708	-109.958	192.415	-13.094	201.546	195.923	148.655	136.131	200.643	-117.911	79.121	-45.564	-140.227	162.422	174.453	167.386	192.435	0.0010961	0.00063092	9.4908e-05	1228.8	3.949e-06	3.5078e-06	1228.2	340.13	7.727e-06	4.84e-06	389.22	129.44	112.37	38.284	6.4742e-06	47.995	0.00044413	0.00037645	0.00011023	1250.8	4.096e-06	4.1722e-06	1255	345.86	4.2162e-06	4.1691e-06	396.36	132.31	114.56	39.396	4.278e-06	49.423	96.566	-43.015	-61.537	-141.320	-51.644	25.485	-141.183	-136.364	-50.128	-9.730	-136.675	-133.145	-133.054	-127.237	-22.981	-127.981	-8191	255	
1473.583	1	1	0	0	0.058939	0.072155	0.23292	0.32872	0.14087	0.18084	0.15066	0.094517	0.29404	0.12948	0.39099	0.084511	0.13266	0.35827	0.1027	0.077607	-2.6167	-3.1583	-3.4104	-2.9813	-3.4542	-3.2396	-3.3312	-3.3458	-3.0271	-3.2208	-3.2896	-3.1437	-3.3833	-3.2646	-3.0021	-3.4458	46.651	-75.497	42.397	148.666	-98.253	168.478	132.120	105.963	-101.835	189.712	-146.620	197.806	-152.801	127.342	135.378	159.877	0.0011514	0.00041602	0.00010841	1236.5	4.7223e-06	3.5831e-06	1232.6	340.43	9.9228e-06	5.2104e-06	388.99	129.48	111.68	38.176	3.6785e-06	47.784	0.00044821	0.00039526	0.00011014	1252.5	4.3361e-06	4.402e-06	1256.7	346.33	4.517e-06	4.6219e-06	396.46	132.33	114.34	39.322	4.6568e-06	49.332	94.040	-81.667	-55.114	-141.146	-28.468	-4.791	-141.511	-136.429	-42.789	-25.099	-136.987	-133.215	-133.118	-127.359	-28.525	-128.281	-8191	255	
1473.679	1	1	0	0	0.15946	0.18488	0.34482	0.15574	0.089828	0.25365	0.14966	0.15641	0.14037	0.11687	0.22491	0.10192	0.14816	0.21076	0.016132	0.38741	-2.6667	-3.2625	-3.5625	-3.2229	-3.3708	-3.3896	-3.3083	-3.6021	-3.1188	-3.325	-3.5917	-3.0938	-3.3167	-3.3125	-3.1625	-3.5917	129.877	-68.445	9.276	-128.079	94.057	-103.232	19.954	-133.786	-135.338	-62.906	74.948	174.939	96.835	-129.100	-142.437	191.275	0.00112	0.00053913	0.00011184	1234.7	3.3029e-06	4.5107e-06	1240	339.67	6.9477e-06	4.3681e-06	389.38	129.53	111.63	38.116	6.2864e-06	47.536	0.00047033	0.00042593	0.00011705	1254.8	4.5699e-06	4.6681e-06	1260.5	347.01	4.7689e-06	4.642e-06	397.58	132.53	114.55	39.341	4.6475e-06	49.313	91.869	-43.144	-92.633	-141.096	-9.753	14.879	-141.372	-136.500	-38.222	8.970	-136.848	-133.027	-132.989	-127.216	-25.582	-128.414	-8191	255	
1473.775	1	1	0	0	0.05725	0.12731	0.10472	0.080523	0.11445	0.19303	0.22362	0.2065	0.078561	0.30307	0.10861	0.098871	0.026726	0.10074	0.072561	0.20088	-2.9417	-3.1917	-3.2729	-3.0458	-3.375	-3.1333	-3.2396	-3.3646	-3.1417	-3.0687	-3.5604	-3.2188	-3.3458	-3.5417	-3.0896	-3.4896	63.951	-99.665	30.556	-51.470	-67.972	10.634	114.849	138.799	-87.002	-31.101	191.006	50.966	3.705	155.810	82.132	111.772	0.0011675	0.00060734	0.00014343	1238.2	4.0597e-06	5.5181e-06	1238	341.04	5.8685e-06	3.8464e-06	387.9	129.81	112.96	38.408	3.7086e-06	48.221	0.00047272	0.00042203	0.00011833	1256.5	4.5623e-06	4.5691e-06	1259.8	346.74	4.5807e-06	4.5726e-06	396.56	132.13	114.83	39.349	4.5306e-06	49.485	93.762	-64.366	-71.072	-140.887	-26.630	4.259	-141.428	-136.448	-36.761	9.324	-137.117	-132.721	-132.884	-127.143	-18.917	-128.171	-8191	255	
1473.871	1	1	0	0	0.099154	0.13059	0.094411	0.26717	0.11467	0.13429	0.2695	0.10653	0.19476	0.20017	0.07374	0.20255	0.25364	0.23167	0.3434	0.34562	-2.9938	-3.3521	-3.3375	-3.0333	-3.1375	-3.4167	-3.1854	-3.55	-3.4583	-3.3187	-3.5292	-3.2167	-3.0646	-3.3625	-3.0042	-3.2208	51.586	-79.502	178.975	-139.955	37.804	-130.637	167.340	139.624	99.871	102.907	68.342	131.980	126.758	156.150	138.399	87.470	0.0010673	0.0004014	6.1298e-05	1235.6	5.9046e-06	4.7434e-06	1241.6	341.35	8.6158e-06	1.5732e-06	391.69	130.26	112.99	38.395	6.3029e-06	48.188	0.00046443	0.00040509	0.00011529	1256.9	4.4979e-06	4.3306e-06	1258.9	346.8	4.639e-06	4.5637e-06	397.03	132.33	114.65	39.318	4.4573e-06	49.469	95.660	-94.441	-54.660	-141.073	-34.905	12.881	-141.449	-136.423	-53.050	-22.674	-136.926	-133.368	-132.959	-127.082	-0.571	-127.930	-8191	255	
1473.967	1	1	0	0	0.21829	0.14666	0.085385	0.10295	0.16622	0.12718	0.079358	0.15983	0.090951	0.093663	0.24165	0.092122	0.20503	0.11876	0.081861	0.23508	-2.8375	-3.1604	-3.4396	-3.1188	-3.1167	-3.4042	-3.2104	-3.3812	-3.3292	-3.2667	-3.5479	-3.3583	-3.0938	-3.5917	-3.2042	-3.5625	-133.147	128.988	-45.677	145.257	151.215	103.647	-126.334	112.482	-5.454	-100.205	140.895	175.060	-34.082	-99.130	-91.919	77.555	0.0011117	0.0004211	0.00013116	1237.2	5.111e-06	4.2609e-06	1243.5	339.71	9.7112e-06	3.1174e-06	390.75	129.56	112.98	38.505	4.7624e-06	48.134	0.00046659	0.00042144	0.00011174	1254.7	4.4916e-06	4.4348e-06	1259.4	346.24	4.5306e-06	4.4276e-06	396.91	132.18	114.6	39.354	4.3733e-06	49.467	94.534	-66.940	-57.288	-140.934	-23.372	-0.611	-141.112	-136.385	-39.491	-8.132	-137.108	-133.281	-133.072	-127.424	-12.829	-128.211	-8191	255	
1474.086	1	1	0	0	0.2222	0.094336	0.081041	0.12808	0.031639	0.13574	0.11607	0.16047	0.27861	0.089779	0.20065	0.28927	0.18102	0.083512	0.14905	0.090793	-3.0979	-3.1292	-3.5146	-3.2896	-3.2729	-3.4771	-3.2667	-3.3208	-3.4146	-3.0854	-3.6312	-3.1771	-3.0438	-3.3646	-3.0542	-3.4542	-149.138	125.733	-81.941	58.503	130.808	57.311	100.152	-59.806	-88.526	45.646	155.694	186.566	-41.268	57.883	-69.249	108.444	0.0011055	0.00059833	6.2211e-05	1247.9	4.0892e-06	4.4157e-06	1242.2	341.39	1.0668e-05	3.0527e-06	389.81	130.21	113.18	38.361	7.0733e-06	48.385	0.00046348	0.00040262	0.00011083	1258.2	4.4585e-06	4.281e-06	1258.7	346.77	4.5859e-06	4.3022e-06	396.88	132.37	114.79	39.313	4.4132e-06	49.554	95.889	-59.044	-75.294	-140.902	-5.976	26.254	-141.371	-136.369	-43.934	-8.922	-137.030	-133.143	-133.169	-127.380	-33.510	-128.068	-8191	255	
1474.182	1	1	0	0	0.21227	0.11342	0.17109	0.2017	0.067037	0.24953	0.24906	0.12039	0.075313	0.13771	0.19949	0.17505	0.14845	0.13647	0.14886	0.17546	-2.8896	-3.0521	-3.1646	-3.0458	-2.9958	-3.375	-3.1646	-3.2521	-3.3229	-3.0563	-3.3833	-3.4417	-3.0396	-3.5771	-3.0563	-3.1562	158.290	64.217	108.792	120.868	-40.735	20.167	181.422	124.172	-148.518	-85.873	196.242	144.190	162.516	191.734	72.726	-153.194	0.0011192	0.00033304	0.00010629	1242.1	3.0058e-06	3.372e-06	1240.3	341.83	1.2317e-05	4.3107e-06	390.68	129.81	113.77	38.508	5.508e-06	47.987	0.00045892	0.00039738	0.00011372	1256.8	4.4561e-06	4.2831e-06	1258.3	347.01	4.526e-06	4.3632e-06	396.46	132.11	114.95	39.33	4.4703e-06	49.421	96.640	-62.223	-61.487	-141.122	-59.270	23.214	-141.263	-136.477	-11.068	10.662	-136.952	-132.827	-132.991	-127.276	-19.050	-128.070	-8191	255	
1474.279	1	1	0	0	0.095839	0.19369	0.15879	0.26829	0.28616	0.18862	0.11877	0.1796	0.11412	0.0045889	0.32795	0.23639	0.18397	0.091897	0.22286	0.24019	-2.8458	-3.0083	-3.1958	-3.2542	-3	-3.3312	-3.3083	-3.1833	-3.4229	-3.1937	-3.45	-3.5375	-2.9167	-3.5604	-3.0271	-3.1688	9.606	154.605	-95.729	-80.163	-146.348	-118.940	114.835	-113.293	178.816	3.931	95.763	189.556	-72.016	195.562	127.034	160.281	0.0010719	0.00067229	0.0001347	1239.2	2.8379e-06	4.1568e-06	1241.4	341.99	7.8381e-06	2.8015e-06	391.19	129.65	113.35	38.54	5.4505e-06	48.337	0.0004597	0.00040048	0.00010998	1254.2	4.4211e-06	4.2345e-06	1259.1	346.82	4.4979e-06	4.166e-06	397.02	132.12	114.97	39.346	4.4128e-06	49.474	96.770	-65.185	-75.821	-140.920	-1.883	-4.392	-141.518	-136.569	-33.479	2.318	-136.752	-133.024	-132.893	-127.482	-52.281	-128.139	-8191	255	
1474.375	1	1	0	0	0.24524	0.096474	0.22707	0.090544	0.099406	0.17702	0.32329	0.095471	0.062148	0.18984	0.097788	0.042584	0.09493	0.31089	0.24978	0.19582	-2.9562	-3.0438	-3.0792	-3.3958	-2.8812	-3.4354	-3.3604	-3.1188	-3.3458	-3.2354	-3.3125	-3.5854	-3.2354	-3.6021	-3.4125	-3.0583	168.672	40.751	-72.328	-96.748	-90.847	-123.203	203.516	104.590	152.259	191.572	157.633	57.075	151.945	133.966	-102.517	89.001	0.0011421	0.0003648	9.4037e-05	1240.6	3.6877e-06	5.9031e-06	1238.9	341.28	9.8443e-06	3.2087e-06	390.52	129.82	113.44	38.451	5.6789e-06	48.12	0.00045616	0.00038811	0.00010757	1253.9	4.2357e-06	4.152e-06	1256.4	346.85	4.3838e-06	4.2653e-06	397.21	132.1	114.83	39.337	4.3773e-06	49.42	97.243	-70.664	-48.449	-141.083	-36.249	1.157	-141.361	-136.279	-47.724	11.921	-136.905	-133.016	-133.101	-127.398	-14.836	-128.244	-8191	255	
1474.471	1	1	0	0	0.11827	0.072035	0.19106	0.1825	0.17859	0.027081	0.18892	0.20566	0.083469	0.043441	0.10988	0.2651	0.16092	0.096291	0.22887	0.081495	-3.1562	-3.2125	-3.2167	-3.3854	-3.0333	-3.3021	-3.4313	-3.1396	-3.4458	-3.1104	-3.4604	-3.6146	-3.225	-3.3937	-3.3271	-3.1312	58.800	-116.271	164.444	136.627	33.442	-25.944	162.796	129.026	81.752	-77.413	-143.303	-102.300	-127.299	146.570	-22.875	146.996	0.0010907	0.00047927	0.00011638	1236.4	5.1263e-06	4.708e-06	1239.5	340.67	6.7689e-06	5.1932e-06	390.52	130.48	113.19	38.443	2.954e-06	48.13	0.00044629	0.0003904	0.00010909	1252.9	4.2749e-06	4.2836e-06	1257.8	346.36	4.2872e-06	4.3594e-06	397.11	132.34	115.03	39.338	4.2689e-06	49.382	98.718	-99.262	-56.543	-141.025	-42.548	-4.603	-141.165	-136.257	-42.866	8.719	-137.133	-132.837	-132.875	-127.523	-33.386	-128.117	-8191	255	
1474.567	1	1	0	0	0.21728	0.12546	0.15905	0.2518	0.23115	0.16232	0.27927	0.23057	0.25612	0.185	0.22041	0.073328	0.22844	0.096484	0.083115	0.026579	-3.0271	-3.0958	-2.8625	-3.2167	-3.1042	-3.3854	-3.5292	-3.1604	-3.3229	-3.3458	-3.3854	-3.5708	-3.3271	-3.375	-3.3521	-3.1312	115.887	-9.420	45.320	108.496	188.062	-69.653	-119.374	179.000	99.174	51.464	-137.812	-120.070	116.039	-145.228	93.798	63.216	0.0010938	0.00048693	7.087e-05	1239.8	4.5652e-06	4.2766e-06	1245.3	342.3	6.9332e-06	4.7338e-06	390.66	130.09	112.4	38.457	5.5418e-06	47.809	0.00044813	0.00039556	0.00011065	1254.8	4.2573e-06	4.2294e-06	1259.3	346.8	4.1761e-06	4.2842e-06	397.22	132.2	114.58	39.32	4.2954e-06	49.33	99.078	-63.877	-62.700	-141.068	-14.843	-21.412	-141.275	-136.449	-57.623	-9.216	-136.977	-132.746	-132.926	-127.443	-26.548	-128.066	-8191	255	
1474.663	1	1	0	0	0.22141	0.10347	0.25173	0.13585	0.1937	0.10536	0.2015	0.035241	0.037572	0.13215	0.20657	0.089502	0.34437	0.08386	0.10526	0.19982	-3.0458	-3.1063	-2.9125	-3.4208	-3.15	-3.3937	-3.6979	-3.1167	-3.4375	-3.3375	-3.2396	-3.6292	-3.2083	-3.2979	-3.6021	-3.1875	-123.559	-148.763	105.350	-102.534	128.838	-53.339	157.642	31.287	80.811	129.551	155.433	111.846	-123.664	200.009	71.312	134.692	0.0010397	0.00053279	0.0001772	1235.8	5.3392e-06	7.5214e-06	1237.7	341.7	8.9858e-06	3.7096e-06	389.92	130	113.46	38.423	3.9236e-06	48.11	0.00045104	0.0003916	0.0001079	1252.8	4.2832e-06	4.3919e-06	1258.4	346.81	4.3868e-06	4.3393e-06	396.53	132.34	114.85	39.394	4.3225e-06	49.396	96.299	-59.889	-71.091	-141.029	-2.202	-2.215	-141.258	-136.626	-27.887	20.814	-136.897	-132.999	-132.703	-127.246	3.309	-128.381	-8191	255	
1474.784	1	1	0	0	0.26998	0.23582	0.19034	0.089866	0.075957	0.057788	0.22387	0.23815	0.3135	0.22946	0.17285	0.14675	0.16374	0.27715	0.10976	0.22792	-3.0021	-3.2687	-2.9146	-3.3312	-3.1271	-3.2625	-3.5542	-3.2562	-3.3146	-3.3729	-3.225	-3.4125	-3.2521	-3.1958	-3.4813	-3.2562	142.601	-54.404	-13.507	-80.616	55.055	-132.877	128.705	128.435	129.307	156.982	161.948	184.174	-65.471	-128.816	86.018	6.362	0.0010653	0.00059954	0.00011222	1237.2	6.7974e-06	4.0006e-06	1241	341.03	9.3564e-06	2.7253e-06	390.79	129.93	112.84	38.517	4.3137e-06	48.184	0.00045901	0.00039846	0.00010927	1254.7	4.308e-06	4.2918e-06	1258.9	346.87	4.3793e-06	4.2541e-06	397.94	132.28	114.87	39.405	4.2559e-06	49.373	96.393	-48.843	-89.926	-141.025	-27.320	-24.615	-141.269	-136.458	-52.472	11.954	-137.010	-133.096	-132.799	-127.077	-43.721	-128.372	-8191	255	
1474.880	1	1	0	0	0.15647	0.18038	0.07121	0.15206	0.027637	0.16304	0.079137	0.27067	0.11026	0.062951	0.26669	0.29803	0.18483	0.21182	0.11189	0.11455	-3.0042	-3.2792	-3.1771	-3.4583	-3.1292	-2.8979	-3.4	-3.2021	-3.0938	-3.3083	-3.2062	-3.3563	-3.1521	-2.9667	-3.3229	-3.0083	-17.216	111.783	3.338	120.239	48.856	-48.366	-32.065	122.883	100.984	47.504	-143.565	-138.581	90.136	186.211	-77.064	133.144	0.001104	0.00057227	0.0001099	1241.9	4.9089e-06	3.3662e-06	1236	341.12	1.0469e-05	5.6812e-06	390.14	130.04	113.91	38.494	6.1082e-06	48.218	0.00045251	0.00039131	0.00010709	1254.6	4.4272e-06	4.3891e-06	1257	346.45	4.3904e-06	4.2591e-06	396.72	132.22	114.91	39.429	4.2251e-06	49.353	97.993	-101.323	-68.091	-140.810	-28.566	-25.192	-141.423	-136.400	-61.014	-14.524	-136.946	-133.016	-132.857	-127.500	-2.497	-128.371	-8191	255	
1474.952	1	1	0	0	0.10722	0.10647	0.12192	0.31105	0.11353	0.013406	0.1775	0.041876	0.14496	0.15592	0.25682	0.22705	0.1646	0.30501	0.16624	0.30379	-2.9604	-3.4229	-2.9542	-3.4542	-3.425	-3.1312	-3.5875	-3.375	-3.2562	-3.4417	-2.9792	-3.3125	-3.2354	-3.0208	-3.4042	-3.0333	99.835	-123.205	157.129	136.103	199.233	11.071	-128.007	145.353	5.237	0.898	205.191	169.210	14.240	188.734	51.499	111.508	0.0010953	0.00068889	0.00013926	1238.3	5.3572e-06	6.6612e-06	1243.3	341.49	9.5151e-06	2.5649e-06	390.34	129.92	112.74	38.312	4.8315e-06	48.119	0.00045482	0.00039415	0.00010601	1253.8	4.2992e-06	4.3179e-06	1258.6	346.72	4.367e-06	4.2373e-06	396.75	132.27	114.83	39.359	4.3434e-06	49.397	96.927	-59.016	-57.977	-141.003	-20.046	-19.451	-141.394	-136.361	-43.967	-13.026	-136.903	-132.861	-133.082	-127.472	-27.226	-128.041	-8191	255	
1475.048	1	1	0	0	0.15555	0.19649	0.068657	0.22745	0.053335	0.30873	0.079622	0.16386	0.39875	0.15251	0.24883	0.099449	0.11239	0.2018	0.10611	0.11942	-2.6229	-3.0917	-2.8771	-3.1458	-3.1979	-3.125	-3.5146	-3.4104	-3.1354	-3.3229	-3.1229	-3.15	-3.2562	-3.1146	-3.4083	-3.1396	-46.265	-27.156	-54.264	-136.944	-11.763	-82.481	158.234	152.620	38.669	51.154	192.534	-139.925	-88.734	-139.059	25.287	147.475	0.0010439	0.00062587	9.2616e-05	1245	6.326e-06	7.7469e-06	1240.1	341.64	8.9651e-06	1.4501e-06	392.76	130.09	112.89	38.46	5.935e-06	48.252	0.00044887	0.00038488	0.00010634	1256	4.1982e-06	4.3284e-06	1258.5	346.93	4.4596e-06	4.2624e-06	397.63	132.52	114.79	39.437	4.2852e-06	49.378	99.744	-56.350	-66.942	-140.947	-54.777	-1.344	-141.248	-136.405	-34.659	-3.268	-136.993	-132.874	-132.944	-127.349	-11.227	-128.345	-8191	255	
1475.168	1	1	0	0	0.11077	0.078834	0.25057	0.16819	0.24782	0.080822	0.084277	0.13789	0.13838	0.075177	0.21392	0.035089	0.091026	0.34677	0.20309	0.20374	-2.8812	-3.4313	-3.0333	-3.2562	-3.3563	-2.9437	-3.4229	-3.1875	-3.1125	-3.5292	-3.2771	-3.2375	-3.4646	-3.0146	-3.3417	-3.3104	151.838	-51.865	-73.106	165.033	-133.736	-51.446	202.271	105.481	132.065	59.266	-78.374	111.835	201.477	-129.099	8.474	137.613	0.0011009	0.00041092	0.00015197	1239.4	7.9027e-06	6.0898e-06	1240.4	342.2	1.0696e-05	3.8543e-06	390.91	130	112.99	38.334	5.7247e-06	47.84	0.00045191	0.00038878	0.00010945	1255.3	4.236e-06	4.2649e-06	1258.7	346.99	4.377e-06	4.1222e-06	397.21	132.19	114.87	39.365	4.3051e-06	49.332	94.631	-60.631	-63.673	-140.842	-20.485	-14.233	-141.314	-136.244	-68.597	-16.050	-137.062	-133.013	-132.716	-127.252	-47.717	-128.008	-8191	255	
1475.263	1	1	0	0	0.27105	0.095004	0.15107	0.22823	0.13287	0.087339	0.16858	0.11367	0.23035	0.0079746	0.17727	0.21948	0.24529	0.24086	0.12446	0.052524	-2.7646	-3.5104	-3.2188	-3.1833	-3.1792	-2.9729	-3.4188	-3.2875	-3.0125	-3.3125	-3.1958	-3.1771	-3.4625	-3.1167	-3.1937	-3.3771	109.651	-12.658	174.790	194.567	68.011	20.486	63.183	74.904	-17.879	58.331	39.088	92.063	-138.201	82.534	60.001	156.470	0.0011385	0.00054118	0.0001017	1247.8	7.1529e-06	3.455e-06	1244	342.82	7.1966e-06	6.0951e-06	391.33	129.74	112.99	38.506	4.9043e-06	47.81	0.00044558	0.00038048	0.00010746	1256.7	4.2179e-06	4.2153e-06	1259.5	346.93	4.3525e-06	4.183e-06	397.21	132.25	114.76	39.376	4.3787e-06	49.305	96.679	-76.445	-50.251	-140.939	-25.443	-11.405	-141.403	-136.205	-39.898	-0.897	-137.002	-133.205	-132.909	-127.329	-62.857	-128.117	-8191	255	
1475.359	1	1	0	0	0.08443	0.089478	0.12014	0.11575	0.037729	0.063625	0.1469	0.17751	0.15241	0.12976	0.25718	0.19347	0.099178	0.14169	0.20094	0.16129	-2.5417	-3.1667	-3.4479	-3.3333	-3.5792	-2.9833	-3.3708	-3.1792	-2.9562	-3.425	-3.2875	-3.0979	-3.3438	-3.4188	-3.2583	-3.4917	-9.986	155.506	11.140	-81.476	84.175	121.591	72.507	188.417	7.584	-116.806	152.129	-140.571	-102.808	8.848	140.335	141.028	0.001106	0.00038482	0.00011941	1238.7	4.482e-06	3.3872e-06	1236.6	342.52	8.081e-06	6.3902e-06	390.66	130.08	113.04	38.413	6.2372e-06	48.088	0.00045007	0.0003864	0.00010664	1254.9	4.2112e-06	4.2752e-06	1257.3	347.01	4.328e-06	4.2347e-06	396.53	132.46	114.76	39.405	4.317e-06	49.378	97.185	-62.661	-100.691	-140.980	-37.824	-29.965	-141.310	-136.487	-46.325	17.793	-137.034	-133.206	-132.512	-127.205	-22.679	-128.244	-8191	255	
1475.480	1	1	0	0	0.23354	0.13222	0.10606	0.096617	0.1498	0.047474	0.16059	0.14144	0.24368	0.14456	0.1762	0.25239	0.12568	0.34445	0.03181	0.16731	-2.5375	-3.375	-3.3021	-3.0771	-3.3292	-2.9521	-3.1188	-3.3812	-2.7917	-3.3187	-3.1771	-3.1583	-3.2	-3.3583	-3.0542	-3.5542	151.894	-143.706	-39.541	171.023	116.087	-92.448	196.942	187.248	-152.093	-2.099	104.306	-102.469	72.801	-153.631	-19.468	14.651	0.0010942	0.00060472	9.9871e-05	1243.9	4.7682e-06	5.1761e-06	1241.9	342.59	7.2562e-06	4.8638e-06	391.51	130.47	113.22	38.649	5.7784e-06	48.194	0.00045026	0.00039255	0.00010679	1254.4	4.0617e-06	4.2786e-06	1259	347.65	4.3571e-06	4.2498e-06	397.47	132.47	114.93	39.489	4.3246e-06	49.405	94.975	-86.234	-54.745	-140.926	-47.917	-5.491	-141.253	-136.529	-57.304	-14.110	-137.066	-133.062	-133.251	-127.310	-6.660	-128.157	-8191	255	
1475.576	1	1	0	0	0.028401	0.093696	0.25537	0.2275	0.10898	0.20514	0.029561	0.12583	0.14247	0.13206	0.18386	0.020362	0.14907	0.11112	0.077118	0.33441	-2.4958	-3.1813	-3.1333	-3.2125	-3.3396	-3.1437	-3.2812	-3.3958	-3.0021	-3.0708	-3.2021	-2.975	-3.3021	-3.3833	-3.0354	-3.5104	-84.870	-49.089	110.081	185.388	-67.761	-101.119	-145.435	152.546	168.140	120.390	137.369	59.306	140.772	-110.020	-64.076	184.888	0.001085	0.00056439	0.00012282	1244.2	5.3257e-06	3.8175e-06	1243.4	342.83	9.551e-06	4.8741e-06	390.88	130	113.62	38.458	3.1602e-06	48.143	0.00045003	0.00038343	0.00011046	1257.1	4.2297e-06	4.3227e-06	1258.7	347.06	4.3457e-06	4.1966e-06	396.85	132.41	114.7	39.435	4.3251e-06	49.343	92.239	-48.452	-58.019	-140.902	-30.693	-7.380	-141.365	-136.391	-39.931	3.654	-137.044	-132.884	-133.163	-127.326	-30.294	-128.154	-8191	255	
1475.647	1	1	0	0	0.16843	0.13115	0.091877	0.066281	0.13646	0.089629	0.42909	0.23132	0.17974	0.31809	0.066444	0.40181	0.23987	0.20702	0.15785	0.12407	-2.7958	-3.1271	-3.1333	-3.0271	-3.3708	-3.2792	-2.9958	-3.5875	-3.2104	-3.0563	-3.4396	-3.05	-3.2667	-3.2167	-3.1125	-3.6375	-52.901	-75.250	-70.363	182.788	98.362	204.935	161.757	-150.189	-36.562	-125.134	193.371	138.522	-56.619	-7.437	129.942	162.311	0.0010471	0.00051912	7.1258e-05	1243.2	6.9002e-06	4.294e-06	1241.9	341.72	8.2788e-06	3.9141e-06	390.41	129.6	113.01	38.495	4.898e-06	48.155	0.0004392	0.0003838	0.00010728	1256	4.21e-06	4.1055e-06	1259	346.63	4.2539e-06	4.1519e-06	396.42	132.14	114.81	39.446	4.1211e-06	49.411	95.686	-72.463	-60.389	-140.998	-36.108	-13.171	-141.431	-136.677	-35.242	10.136	-136.862	-132.939	-133.069	-127.188	-13.889	-128.273	-8191	255	
1475.768	1	1	0	0	0.034307	0.059665	0.24343	0.12952	0.11153	0.16552	0.27203	0.26266	0.096128	0.083081	0.13036	0.3129	0.2227	0.27592	0.17453	0.14371	-2.8396	-3.1646	-3.1854	-3.1521	-3.2438	-3.3958	-3.3896	-3.6333	-3.2125	-3.4	-3.5	-2.9917	-3.25	-3.2875	-2.9917	-3.575	13.570	181.326	3.098	-130.771	47.265	-146.827	127.634	154.246	139.743	-116.312	91.954	170.401	40.279	-43.247	137.958	129.477	0.001147	0.00041368	0.00013876	1243.7	4.7606e-06	4.6382e-06	1238.6	342.33	1.2384e-05	3.3345e-06	392.16	129.88	113.15	38.612	4.7114e-06	47.857	0.00045669	0.0003841	0.00010074	1254.6	4.1555e-06	4.1573e-06	1256.4	347.21	4.3473e-06	4.094e-06	397.28	132.16	114.96	39.436	4.2207e-06	49.289	96.755	-97.273	-67.193	-140.842	-24.527	-4.427	-141.112	-136.458	-39.161	3.912	-136.849	-132.780	-133.161	-127.323	-23.763	-128.243	-8191	255	
1475.864	1	1	0	0	0.10679	0.21417	0.16695	0.31257	0.10839	0.21125	0.23172	0.19728	0.035889	0.035142	0.32599	0.38176	0.18791	0.037691	0.16055	0.19539	-2.9729	-3.2062	-3.4938	-3.2396	-3.3708	-3.35	-3.2792	-3.4042	-3.0708	-3.0417	-3.3604	-2.9667	-3.0646	-3.4375	-3.1458	-3.5104	-83.844	-55.883	-4.460	-96.971	104.891	173.653	95.076	115.479	-64.032	3.997	204.520	131.863	7.997	185.663	-60.827	38.666	0.0010592	0.00027201	0.00015707	1239.8	5.8076e-06	5.6663e-06	1240.5	342.17	7.3955e-06	3.592e-06	391.45	129.85	113.73	38.511	3.6558e-06	47.987	0.00044648	0.00037388	0.00010494	1253.7	4.1386e-06	4.117e-06	1257.6	347.02	4.1865e-06	4.2024e-06	397.32	132.14	114.98	39.46	4.1372e-06	49.281	97.295	-43.815	-62.350	-141.066	-26.088	8.194	-141.296	-136.360	-47.028	-13.085	-136.908	-133.220	-132.745	-127.144	-24.221	-128.113	-8191	255	
1475.960	1	1	0	0	0.33091	0.14357	0.13172	0.11269	0.22741	0.18273	0.27545	0.24014	0.047443	0.25383	0.17449	0.16489	0.33402	0.20397	0.26165	0.14019	-2.85	-3.15	-3.275	-3.2229	-3.2854	-3.225	-3.1063	-3.2812	-3.0417	-2.8958	-3.4979	-3.2292	-3.1021	-3.4958	-2.9583	-3.3896	136.068	-46.130	-37.643	41.805	22.701	-89.685	145.819	157.306	-122.711	-89.156	146.595	159.238	181.662	-19.748	80.816	107.861	0.0010774	0.0005055	0.00012172	1240.5	5.2614e-06	6.3035e-06	1239.2	340.72	9.4797e-06	4.4609e-06	390.56	129.97	112.96	38.527	3.7014e-06	47.991	0.00044246	0.00037357	0.00010244	1251.7	4.1931e-06	4.0058e-06	1255.7	346.41	4.2743e-06	3.9954e-06	396.45	132.32	114.69	39.404	4.1996e-06	49.278	94.854	-68.082	-71.379	-140.960	-47.366	-5.505	-141.294	-136.356	-38.451	-21.002	-137.020	-133.028	-132.886	-127.252	-45.410	-128.024	-8191	255	
1476.079	1	1	0	0	0.10251	0.20692	0.073601	0.15511	0.26903	0.071444	0.25708	0.23759	0.10591	0.17747	0.12531	0.15502	0.25387	0.19037	0.13212	0.16388	-2.8104	-2.8083	-3.1937	-3.375	-3.2542	-3.3333	-3.1542	-3.1375	-3.1562	-2.9125	-3.4771	-3.3042	-3.175	-3.3542	-3.2208	-3.45	-112.736	-46.673	49.754	-49.816	196.596	60.672	151.249	109.215	-142.033	-87.896	-29.520	171.898	175.372	-105.948	197.388	128.815	0.0010706	0.000454	8.5928e-05	1237	5.5195e-06	6.0694e-06	1237.6	340.99	1.0202e-05	6.429e-06	390.23	129.96	113.05	38.478	5.9036e-06	47.864	0.00044555	0.00037217	0.00010447	1251.8	4.2024e-06	4.0458e-06	1255.8	346.92	4.2103e-06	4.11e-06	396.46	132.03	114.67	39.383	4.2364e-06	49.296	96.985	-87.933	-100.592	-140.848	-30.707	11.420	-141.359	-136.374	-46.830	-11.556	-137.072	-133.203	-133.010	-127.443	-38.225	-128.239	-8191	255	
1476.175	1	1	0	0	0.056932	0.24784	0.13215	0.13841	0.16808	0.13135	0.19446	0.11107	0.10862	0.10865	0.22281	0.042913	0.12082	0.27835	0.21246	0.30046	-2.9729	-2.975	-3.25	-3.4375	-3.0687	-3.2229	-3.1063	-3.3292	-3.3729	-3.1021	-3.2958	-3.2438	-2.8958	-3.4354	-3.0042	-3.1875	81.926	154.405	73.511	158.219	93.088	121.708	-138.840	147.477	-119.107	-104.563	-26.380	193.072	-30.253	159.434	-98.546	163.047	0.001142	0.00047273	0.00013092	1240.4	7.0826e-06	6.0492e-06	1237.6	340.73	9.0283e-06	3.015e-06	390.41	129.59	113.25	38.335	5.7686e-06	47.943	0.00043788	0.00037294	0.00010586	1253.5	4.2137e-06	3.9641e-06	1255.5	346.44	4.169e-06	4.0715e-06	396.29	132.08	114.83	39.373	4.2543e-06	49.317	97.885	-62.077	-50.948	-140.920	-12.479	5.037	-141.246	-136.472	-45.081	-31.777	-136.904	-133.061	-132.584	-127.353	-17.743	-127.875	-8191	255	
1476.247	1	1	0	0	0.071545	0.16896	0.10595	0.30421	0.1399	0.06698	0.28385	0.13559	0.0062084	0.11274	0.26357	0.13714	0.14462	0.079852	0.041433	0.23412	-3.0125	-2.9917	-3.1562	-3.1167	-3.1271	-3.5125	-3.4188	-3.1312	-3.2625	-3.175	-3.4833	-3.2229	-3.0229	-3.2917	-3.0729	-3.1188	-66.718	-105.362	11.822	71.589	-57.963	205.614	-143.428	196.635	46.773	79.149	197.557	204.303	151.785	-78.719	165.837	132.215	0.0011506	0.00045417	0.00014024	1238.9	6.1538e-06	6.1915e-06	1237.8	341.24	8.3537e-06	6.6938e-06	390.69	129.44	113.08	38.559	5.1784e-06	47.909	0.00043947	0.00036753	0.00010384	1251.8	4.0672e-06	4.0478e-06	1255	346.48	4.0073e-06	4.093e-06	396.54	131.95	114.8	39.425	4.1873e-06	49.352	94.875	-63.234	-73.781	-140.955	-49.201	-10.103	-141.499	-136.316	-49.340	-11.252	-137.087	-133.162	-132.681	-127.146	-56.176	-128.235	-8191	255	
1476.343	1	1	0	0	0.17767	0.07509	0.1136	0.0379	0.21268	0.10081	0.21222	0.28352	0.10491	0.021621	0.10215	0.23919	0.20902	0.3257	0.10177	0.2727	-2.9958	-3.0625	-3.0333	-3.1458	-2.9896	-3.3896	-3.2792	-3.1437	-3.3792	-3.0083	-3.4854	-3.4896	-2.9646	-3.1146	-3.1562	-3.0708	-25.680	-9.816	-113.136	30.796	-146.795	86.336	144.330	146.610	137.949	-114.869	157.222	63.085	-127.817	130.587	59.572	173.605	0.001075	0.0005441	0.00015353	1237.5	4.9499e-06	4.531e-06	1238.2	341.2	9.26e-06	6.2451e-06	390.5	129.96	113.35	38.583	6.8169e-06	47.941	0.00043389	0.00037388	0.00010625	1252	4.0737e-06	4.0236e-06	1255.9	346.67	4.1963e-06	3.987e-06	396.82	132.26	114.79	39.492	4.2167e-06	49.307	100.310	-87.682	-76.309	-140.955	-38.702	2.144	-141.309	-136.443	-56.947	1.994	-136.895	-132.899	-132.892	-127.203	-24.569	-127.915	-8191	255	
1476.439	1	1	0	0	0.15953	0.21773	0.12641	0.075086	0.098088	0.099069	0.13214	0.15684	0.1953	0.14822	0.12918	0.093953	0.097536	0.098597	0.16716	0.16084	-2.8917	-3.0438	-3.4208	-3.3896	-2.85	-3.1604	-3.2812	-3.0833	-3.3354	-3.1125	-3.5083	-3.5146	-2.9958	-3.3542	-3.0646	-3.2438	-93.701	-10.403	203.679	-151.868	1.128	89.927	65.823	59.668	199.023	33.286	162.295	181.695	-150.980	185.089	149.107	172.759	0.0010927	0.00054108	8.9486e-05	1234.5	5.5631e-06	4.6925e-06	1235.8	340.37	6.9351e-06	4.0669e-06	390.04	129.67	113.45	38.785	4.9592e-06	48.017	0.00042926	0.00037652	0.00010208	1252.5	4.0654e-06	4.0444e-06	1254.7	346.11	4.1847e-06	4.0552e-06	396.58	131.97	114.89	39.452	4.0409e-06	49.371	95.241	-60.854	-92.652	-140.780	-35.895	0.223	-141.347	-136.523	-58.934	1.347	-137.144	-133.194	-133.228	-127.199	-37.680	-128.270	-8191	255	
1476.560	1	1	0	0	0.061766	0.11082	0.04205	0.2913	0.26559	0.088648	0.21108	0.25298	0.15979	0.088309	0.056264	0.03007	0.13914	0.18662	0.17143	0.30859	-2.9208	-3.0563	-3.1792	-3.3125	-2.8854	-3.3958	-3.3542	-3.2479	-3.4021	-3.3896	-3.1667	-3.2188	-2.875	-3.0854	-3.4	-3.0938	-50.449	197.452	71.460	-150.727	-111.461	167.673	190.479	-141.715	204.314	56.551	138.015	26.602	-142.754	-104.822	-71.497	194.004	0.0011294	0.00044978	0.00016174	1234.3	5.7805e-06	7.5386e-06	1236.6	341.69	1.2439e-05	6.3708e-06	388.69	129.93	112.37	38.458	4.5897e-06	48.026	0.00043177	0.00037752	0.00010243	1252.6	4.1059e-06	4.0665e-06	1254.5	346.7	4.125e-06	4.0045e-06	396.41	132.04	114.76	39.445	3.9898e-06	49.382	94.482	-68.834	-76.947	-141.081	-13.243	10.757	-141.294	-136.394	-50.169	-15.102	-136.839	-133.142	-132.609	-127.277	-3.149	-128.223	-8191	255	
1476.656	1	1	0	0	0.17523	0.13671	0.24068	0.26823	0.21646	0.12605	0.40959	0.10559	0.022945	0.261	0.095939	0.018699	0.11955	0.31895	0.17084	0.10912	-3.1083	-3.4313	-3.0875	-3.5812	-3.1188	-3.0646	-3.4792	-2.9521	-3.3396	-3.3187	-3.2479	-3.3438	-3.0979	-3.2667	-3.3771	-2.9896	156.127	-62.462	146.248	139.837	-72.137	-33.074	175.227	193.624	-88.529	-140.306	34.097	-148.658	61.213	147.068	175.421	70.756	0.0011537	0.00058827	0.00012012	1234.1	5.707e-06	4.0835e-06	1230.6	340.19	8.4821e-06	4.2176e-06	386.98	129.22	112.24	38.326	2.9251e-06	47.845	0.00043972	0.00036036	0.00010012	1251.1	4.1987e-06	4.1127e-06	1253	345.79	4.1747e-06	3.9355e-06	395.81	131.99	114.58	39.483	3.9212e-06	49.398	96.139	-39.134	-72.699	-141.122	-35.507	6.771	-141.407	-136.415	-38.728	-6.399	-137.197	-133.270	-133.034	-127.268	-76.998	-128.012	-8191	255	
1476.752	1	1	0	0	0.28021	0.15329	0.15434	0.23462	0.093704	0.12991	0.073817	0.25809	0.16582	0.177	0.10542	0.43768	0.032181	0.053458	0.22763	0.37734	-2.9062	-3.2021	-3.1354	-3.6292	-3.2479	-3.1604	-3.2792	-2.9729	-3.2333	-3.2562	-3.2583	-3.4437	-3.0187	-3.0667	-3.4688	-3.1604	-8.615	-25.460	31.559	-154.475	-58.664	2.381	-140.223	129.321	14.877	-59.260	173.788	119.731	-66.118	128.382	65.397	-85.078	0.0010895	0.00047094	9.1032e-05	1230.5	3.7375e-06	4.8765e-06	1229.7	339.79	9.1197e-06	5.1583e-06	391.13	129.69	113	38.473	5.6052e-06	48.126	0.00042405	0.00036547	9.6273e-05	1248.3	4.0631e-06	3.9277e-06	1252.3	346.41	4.0915e-06	3.9887e-06	396.78	131.93	114.62	39.502	3.9353e-06	49.417	93.101	-61.407	-61.767	-140.797	-22.498	-22.650	-141.507	-136.546	-55.630	3.329	-136.861	-133.027	-132.842	-127.379	-30.355	-128.128	-8191	255	
1476.873	1	1	0	0	0.20264	0.087029	0.080544	0.28376	0.13415	0.23601	0.15334	0.49129	0.19921	0.20796	0.075617	0.19608	0.16807	0.10942	0.1565	0.1071	-2.9938	-3.4625	-2.9188	-3.2979	-3.0146	-3.0604	-3.5438	-3.1875	-3.2812	-3.3375	-3.1125	-3.35	-3.2125	-3.0333	-3.4208	-3.2646	172.159	72.931	109.329	-131.835	64.554	-37.209	91.137	132.930	165.921	72.386	-148.715	-126.891	174.566	-119.172	-28.324	-107.508	0.001094	0.00042824	0.00016307	1232.7	7.1916e-06	3.4038e-06	1232.3	340.12	9.1175e-06	5.0784e-06	391.12	129.73	112.64	38.408	4.947e-06	47.898	0.00043281	0.00035772	0.00010108	1248.4	4.1131e-06	3.9303e-06	1254.1	346.15	4.1693e-06	3.8659e-06	397.04	132.07	114.66	39.445	3.8472e-06	49.407	94.706	-74.891	-62.109	-141.223	-15.316	-5.595	-141.475	-136.267	-44.495	-12.115	-137.300	-133.040	-132.960	-127.072	-13.138	-128.232	-8191	255	
1476.945	1	1	0	0	0.10442	0.24041	0.15057	0.1725	0.32518	0.16613	0.18275	0.30339	0.091643	0.11252	0.24896	0.14744	0.074668	0.28235	0.13585	0.10447	-2.7625	-3.3167	-2.8771	-3.4417	-3.225	-3.1292	-3.55	-3.1562	-2.9938	-3.4313	-3.1667	-3.5333	-3.4458	-2.9604	-3.2313	-3.1104	-51.000	45.127	155.731	183.798	-4.208	-93.069	151.781	117.806	43.759	-53.529	42.297	-148.322	119.794	167.439	-28.493	45.813	0.0011446	0.00052732	0.00012154	1234.6	4.8237e-06	6.5733e-06	1237.7	340.44	1.0088e-05	3.3138e-06	389.7	129.36	113.07	38.479	6.0239e-06	48.331	0.00042862	0.00035869	0.00010167	1251	3.9073e-06	3.9274e-06	1255.6	346.29	4.0339e-06	3.8056e-06	396.36	132.04	114.7	39.459	3.9864e-06	49.467	93.035	-62.494	-55.416	-141.047	-23.816	1.145	-141.346	-136.446	-48.169	7.950	-136.754	-133.036	-133.012	-127.433	2.078	-128.159	-8191	255	
1477.041	1	1	0	0	0.084969	0.21684	0.24124	0.15055	0.13461	0.21012	0.16527	0.25031	0.23321	0.21586	0.097834	0.13016	0.25648	0.3391	0.21567	0.043716	-2.7208	-3.4229	-3.1646	-3.3083	-3.1333	-2.9604	-3.7021	-3.2583	-3.1375	-3.3563	-2.9375	-3.2833	-3.4688	-3.1813	-3.5167	-3.3896	-104.432	-18.604	-141.945	-130.792	-31.709	-80.572	83.704	135.530	-134.073	103.992	127.206	117.548	-116.041	-60.668	191.393	106.554	0.0010953	0.00045936	0.00013837	1239.5	3.5584e-06	5.3589e-06	1238.1	340.11	1.0048e-05	5.0591e-06	391.14	129.34	112.8	38.532	7.1451e-06	47.972	0.00041694	0.00035154	9.982e-05	1253.7	3.8816e-06	3.9028e-06	1254	346.24	4.1203e-06	3.8539e-06	397.22	132.01	114.73	39.486	4.0193e-06	49.437	93.224	-57.657	-80.660	-140.612	-26.835	15.913	-141.407	-136.375	-31.492	-3.152	-136.779	-133.088	-132.769	-127.202	-24.260	-128.392	-8191	255	
1477.160	1	1	0	0	0.02213	0.10197	0.043065	0.23502	0.052961	0.038953	0.15695	0.17475	0.082831	0.093222	0.14171	0.28801	0.067799	0.061475	0.022331	0.25414	-2.8438	-3.4792	-3.0708	-3.2604	-3.3875	-2.8812	-3.4521	-3.2687	-2.8896	-3.6063	-3.1917	-3.4042	-3.4292	-3.1458	-3.4792	-3.2771	38.117	33.523	145.408	-130.834	-113.755	-126.942	116.737	-47.624	92.584	2.709	64.605	101.686	192.267	5.299	-120.341	190.319	0.0011013	0.00028367	0.00011793	1232.3	5.202e-06	4.4379e-06	1234.4	340.77	1.0207e-05	4.2084e-06	389.17	129.59	112.06	38.506	5.032e-06	48.016	0.00042313	0.00035767	0.00010199	1250.6	3.8721e-06	3.9886e-06	1254.5	346.21	3.9819e-06	3.8144e-06	395.65	132.12	114.47	39.514	3.9404e-06	49.444	95.855	-48.274	-54.490	-141.086	-21.622	1.071	-141.249	-136.452	-53.495	16.842	-136.917	-132.836	-132.858	-127.357	-40.304	-128.105	-8191	255	
1477.256	1	1	0	0	0.1239	0.067277	0.10713	0.15312	0.013238	0.21583	0.27869	0.15079	0.24181	0.1484	0.3195	0.090485	0.084632	0.1223	0.16482	0.1731	-2.6125	-3.2313	-2.8917	-2.9875	-3.175	-3.0479	-3.2708	-3.2521	-2.875	-3.2521	-3.2333	-3.15	-3.4625	-2.9958	-3.3583	-3.3292	167.118	-119.589	80.714	-92.471	102.217	96.127	116.359	127.461	168.490	-141.955	175.000	152.406	-39.820	113.179	-56.687	110.322	0.0011183	0.00046817	0.00010029	1234	5.2848e-06	5.5966e-06	1234.6	340.12	1.0179e-05	3.9605e-06	389.12	129.15	112	38.421	3.403e-06	47.856	0.00042028	0.00036227	9.9935e-05	1250.2	3.8364e-06	3.879e-06	1255	346.01	3.9402e-06	3.8803e-06	396.24	132.21	114.63	39.501	3.9636e-06	49.436	93.842	-68.834	-73.846	-141.126	-32.374	7.544	-141.346	-136.424	-51.951	-2.622	-136.812	-132.994	-132.659	-127.475	-31.201	-128.271	-8191	255	
1477.352	1	1	0	0	0.31426	0.19037	0.050338	0.014237	0.13217	0.10858	0.18615	0.1732	0.13507	0.1205	0.070772	0.041363	0.13318	0.071384	0.24703	0.088413	-2.7354	-3.3187	-2.925	-3.0187	-3.3875	-3.3021	-3.3792	-3.3896	-2.9604	-3.4	-3.0333	-3.0229	-3.3354	-3.2042	-3.2396	-3.4229	89.405	39.805	150.419	151.907	53.417	-115.482	128.051	89.380	175.743	16.432	201.265	-143.641	196.644	-5.384	-108.524	-58.198	0.0011329	0.00047781	0.00010545	1228.4	3.4915e-06	4.9701e-06	1226.4	340.51	1.0087e-05	3.418e-06	391.23	129.75	112.81	38.623	6.2232e-06	48.082	0.00041802	0.00034871	9.9372e-05	1249.6	3.81e-06	3.9032e-06	1253.2	346.34	4.0191e-06	3.9379e-06	397.03	132.31	114.78	39.504	3.8112e-06	49.472	95.496	-94.905	-77.481	-141.186	-16.980	17.054	-141.607	-136.370	-34.361	-30.000	-137.106	-133.043	-132.880	-127.569	-26.390	-127.963	-8191	255	
1477.448	1	1	0	0	0.25391	0.11436	0.25471	0.22345	0.1481	0.050963	0.13676	0.26773	0.19989	0.091646	0.35228	0.20078	0.15475	0.21817	0.19038	0.21001	-2.8542	-3.3375	-3.3396	-3.2188	-3.5479	-2.8458	-3.3312	-3.6	-3.4354	-3.475	-3.4167	-3.1396	-3.3729	-3.1833	-3.2542	-3.5396	-118.774	-85.209	151.575	-51.251	4.064	99.445	-97.800	174.899	-28.975	-56.654	194.002	126.648	178.999	-123.693	29.734	5.593	0.0011184	0.00054977	0.00012479	1234.6	5.7408e-06	6.3682e-06	1233	340.57	9.9295e-06	4.739e-06	388.32	129.02	112.49	38.352	4.6646e-06	48.074	0.00042603	0.0003492	9.8022e-05	1249.9	3.8793e-06	3.9291e-06	1251.6	346.15	3.9393e-06	3.9138e-06	395.65	131.93	114.54	39.442	3.8321e-06	49.441	96.786	-83.602	-34.442	-140.847	-48.850	-19.473	-141.438	-136.461	-56.816	-6.121	-136.879	-133.231	-132.916	-127.431	-29.363	-128.200	-8191	255	
1477.544	1	1	0	0	0.19046	0.099187	0.16735	0.085736	0.27001	0.15272	0.068581	0.27172	0.16764	0.15007	0.38068	0.10932	0.20456	0.3083	0.2914	0.33325	-2.9083	-3.4167	-3.2208	-3.1417	-3.5917	-3.3896	-3.2542	-3.4958	-3.1583	-3.3	-3.4313	-3.0792	-3.3604	-3.2833	-3.0833	-3.4917	81.691	-62.966	72.756	65.088	44.965	172.631	152.706	174.043	2.940	-43.913	188.839	62.563	-57.639	-128.398	94.522	86.967	0.0011095	0.00028795	9.4898e-05	1233.8	5.7483e-06	3.479e-06	1232.4	339.99	7.7048e-06	2.6352e-06	388.97	129.23	112.52	38.256	7.3017e-06	48.04	0.00042643	0.00035245	9.683e-05	1249.8	3.9509e-06	3.9267e-06	1253	346.05	4.0214e-06	3.8666e-06	396	132.05	115.07	39.436	3.8073e-06	49.378	96.197	-70.673	-54.260	-140.824	-17.110	-10.759	-141.434	-136.419	-44.755	-7.260	-137.170	-133.160	-133.065	-127.262	-24.978	-128.267	-8191	255	
1477.640	1	1	0	0	0.14478	0.14207	0.16564	0.20121	0.2748	0.14471	0.13139	0.20708	0.22368	0.1802	0.28725	0.10853	0.16028	0.21389	0.28473	0.17811	-2.6646	-3.1354	-3.4625	-3.2458	-3.6396	-3.3042	-3.3083	-3.4583	-3.0062	-3.2708	-3.2438	-3.0708	-3.2458	-3.3104	-3.0167	-3.4125	-74.046	-65.049	25.869	199.712	-68.204	-111.330	160.242	145.075	120.188	2.257	96.074	166.759	94.677	-118.611	36.246	13.669	0.0010462	0.00042865	0.00012732	1235.5	4.6087e-06	4.4831e-06	1221.4	338.45	7.4873e-06	5.0704e-06	387.91	129.25	112.9	38.5	5.5489e-06	48.171	0.00041917	0.00034851	9.6775e-05	1252.1	3.8531e-06	3.7577e-06	1251.6	345.95	3.9586e-06	3.7872e-06	396.09	132.1	114.76	39.521	3.9414e-06	49.504	94.784	-67.330	-60.559	-141.216	-14.681	-7.824	-141.511	-136.469	-62.201	10.791	-137.222	-133.108	-132.888	-127.150	-51.663	-128.179	-8191	255	
1477.761	1	1	0	0	0.090465	0.19969	0.16568	0.10708	0.15967	0.19927	0.35611	0.11875	0.20709	0.18685	0.080113	0.20173	0.20682	0.2793	0.11472	0.06798	-2.7521	-3.1562	-3.2687	-3.2729	-3.2875	-3.1542	-3.0792	-3.4792	-3.0354	-3.0583	-3.6021	-3.2521	-3.3771	-3.4375	-3.1729	-3.5333	11.567	86.547	61.946	-17.958	-61.316	59.555	146.909	84.308	-84.172	-110.789	159.018	197.117	-57.069	-99.232	15.539	-94.175	0.0010583	0.00035766	0.0001183	1231.1	4.4229e-06	3.8582e-06	1230.4	339.31	6.8546e-06	2.9851e-06	388.3	129.65	112.27	38.458	6.3172e-06	47.882	0.00042396	0.0003465	9.7913e-05	1250.1	3.8155e-06	3.7872e-06	1252.1	345.93	3.9141e-06	3.7484e-06	395.79	132.03	114.54	39.43	3.837e-06	49.425	93.724	-63.536	-81.781	-140.917	-30.280	18.202	-141.329	-136.417	-32.701	5.421	-136.816	-133.274	-132.974	-127.167	-35.267	-128.197	-8191	255	
1477.857	1	1	0	0	0.24019	0.16097	0.11205	0.17651	0.14422	0.29474	0.13788	0.03748	0.18885	0.061866	0.24626	0.28119	0.34609	0.15566	0.28536	0.099252	-2.9208	-2.9521	-3.225	-2.975	-3.0958	-3.2333	-3.1833	-3.4667	-3.2792	-3.2146	-3.4667	-3.3146	-3.3208	-3.5375	-3.1646	-3.3458	160.891	-103.234	-61.183	-13.436	125.709	-136.354	173.274	-147.069	-72.770	204.190	73.884	133.955	-143.409	-17.207	-21.070	-135.963	0.0011135	0.00060675	0.00011258	1230.2	4.6138e-06	5.7832e-06	1233.5	340.28	1.1051e-05	4.365e-06	390.2	129.9	112.68	38.448	3.7324e-06	47.985	0.00041636	0.00034769	9.8397e-05	1250.1	3.7759e-06	3.7985e-06	1252.2	345.94	3.9636e-06	3.8829e-06	396.39	131.98	114.59	39.499	3.9567e-06	49.486	95.369	-70.282	-82.077	-140.862	-19.350	14.568	-141.412	-136.400	-39.957	-14.555	-137.090	-132.852	-133.027	-127.580	-25.706	-128.290	-8191	255	
1477.951	1	1	0	0	0.16846	0.10914	0.10166	0.27182	0.1758	0.20621	0.15346	0.083736	0.052643	0.049877	0.25727	0.26474	0.18411	0.13315	0.23141	0.11106	-2.6625	-2.9583	-3.2542	-3.4458	-3.2083	-3.4521	-3.2896	-3.5875	-3.2542	-3.0812	-3.4583	-3.2167	-3.15	-3.3625	-2.9375	-3.3271	56.607	10.781	120.708	163.872	-50.542	126.412	177.274	120.076	-153.248	-75.125	123.882	179.437	-106.369	88.721	189.458	183.114	0.0011066	0.00047132	9.7853e-05	1236.3	5.1096e-06	4.8699e-06	1235	340.35	9.2102e-06	5.3554e-06	390.41	129.16	111.73	38.486	5.8274e-06	47.916	0.00041472	0.00034743	9.8815e-05	1250.2	3.9263e-06	3.6976e-06	1252.8	345.7	3.9599e-06	3.7855e-06	396.8	131.78	114.49	39.468	3.9935e-06	49.378	97.158	-55.309	-60.652	-140.895	-12.133	2.093	-141.192	-136.423	-50.295	-15.523	-136.962	-133.157	-133.119	-127.295	-23.839	-128.094	-8191	255	
1478.048	1	1	0	0	0.30098	0.13927	0.042328	0.23346	0.11186	0.072306	0.36031	0.31386	0.31105	0.20451	0.36694	0.33504	0.22824	0.14932	0.17608	0.068685	-2.7062	-3.025	-3.2042	-2.9875	-2.975	-3.3396	-3.2292	-3.4292	-3.25	-2.9167	-3.225	-3.0729	-3.1479	-3.2792	-3.0271	-3.25	-17.324	134.710	70.864	-91.313	-73.781	70.849	127.285	135.074	2.019	-84.831	147.030	86.561	133.897	111.692	105.067	-140.731	0.0010939	0.00050149	0.00015533	1228.8	5.8869e-06	6.2073e-06	1225.7	341.29	1.3517e-05	4.9024e-06	388.46	129.52	112.57	38.433	4.4265e-06	48.254	0.00041306	0.00035975	9.9862e-05	1248.9	3.8394e-06	3.8141e-06	1251.1	346.46	3.928e-06	3.885e-06	395.66	132.1	114.61	39.522	3.9734e-06	49.448	95.898	-48.256	-61.632	-140.856	-30.600	1.356	-141.288	-136.404	-34.081	-18.901	-137.180	-132.913	-132.792	-127.257	-6.141	-128.442	-8191	255	
1478.121	1	1	0	0	0.088487	0.16026	0.14857	0.25674	0.095172	0.38767	0.31367	0.11162	0.18895	0.24431	0.21412	0.050636	0.31964	0.072177	0.040571	0.073772	-2.7979	-2.9562	-3.2854	-3.2938	-3.0646	-3.4813	-3.2833	-3.4042	-3.3812	-3.1375	-3.4708	-3.3917	-3.1875	-3.3896	-2.95	-3.0917	-150.389	75.327	20.297	-139.874	-6.385	76.900	190.776	-126.622	-100.697	185.695	-126.120	-98.133	126.275	110.797	-57.651	112.323	0.001061	0.00041983	9.2411e-05	1231.4	5.464e-06	5.6393e-06	1229.6	340.05	4.2461e-06	5.1573e-06	390.69	129.88	113.55	38.548	4.859e-06	48.103	0.00041209	0.00035217	9.8337e-05	1251.1	3.7298e-06	3.8412e-06	1251.5	346.03	3.949e-06	3.8336e-06	395.88	132.24	114.87	39.509	3.9474e-06	49.47	93.337	-59.693	-77.486	-140.929	-25.334	-7.827	-141.422	-136.553	-39.232	-7.398	-137.061	-132.810	-132.957	-127.057	-12.463	-127.996	-8191	255	
1478.240	1	1	0	0	0.1929	0.1014	0.1272	0.2796	0.32461	0.11867	0.13351	0.16807	0.082945	0.25026	0.18355	0.20414	0.090656	0.25091	0.14829	0.13777	-2.7687	-3.0458	-3.4083	-3.2875	-3.025	-3.2646	-3.4875	-3.3146	-3.3438	-3.1979	-3.2458	-3.2167	-2.9437	-3.4479	-3.2812	-3.0604	-102.999	-145.658	144.703	-147.626	-82.576	47.410	109.705	122.489	64.810	-131.062	194.727	66.505	72.609	-127.792	150.815	115.494	0.0011483	0.00042359	0.00016934	1231.2	4.6875e-06	2.3927e-06	1228.4	340.86	8.0945e-06	4.1096e-06	387.59	128.88	112.26	38.331	4.4614e-06	47.754	0.00041486	0.00035835	9.7931e-05	1248.6	3.8424e-06	3.8095e-06	1250.7	346.54	3.9252e-06	3.7762e-06	395.65	131.78	114.65	39.461	3.8284e-06	49.34	94.539	-58.488	-78.753	-141.063	-56.225	2.226	-141.426	-136.521	-47.468	-14.087	-137.247	-133.049	-133.128	-127.459	-4.682	-128.178	-8191	255	
1478.336	1	1	0	0	0.064458	0.021621	0.21689	0.1937	0.10128	0.25995	0.21244	0.16958	0.15569	0.15096	0.047636	0.23922	0.0073303	0.056974	0.39502	0.090999	-3.1333	-2.9292	-3.1771	-3.2229	-3.1125	-3.4417	-3.45	-3.325	-3.4875	-2.9792	-3.325	-3.4542	-3.0292	-3.3646	-3.2708	-3.0979	172.515	-59.349	27.429	-11.545	-37.905	-17.474	142.804	163.115	174.721	128.774	55.381	127.670	10.701	44.035	-71.707	139.119	0.0011212	0.00031873	0.00011814	1238.6	4.9669e-06	3.9584e-06	1237.9	342.08	7.9872e-06	4.6333e-06	389.69	130.15	113.27	38.668	7.1949e-06	48.214	0.00041816	0.00035993	9.7586e-05	1250.8	3.8633e-06	3.805e-06	1254.8	346.6	3.9511e-06	3.8479e-06	396.26	132.42	114.81	39.52	3.8388e-06	49.509	95.487	-59.260	-73.818	-141.299	-24.909	8.743	-141.343	-136.553	-67.991	-0.778	-136.834	-133.085	-132.950	-127.613	-26.266	-128.111	-8191	255	
1478.432	1	1	0	0	0.13124	0.13302	0.26419	0.11959	0.27126	0.12953	0.13794	0.19084	0.19844	0.090466	0.16615	0.36683	0.070024	0.3862	0.24493	0.29254	-2.9917	-3.1542	-3.2604	-3.2771	-2.8354	-3.3708	-3.4	-3.2396	-3.4125	-3.1021	-3.075	-3.4208	-2.9875	-3.2	-3.3667	-3.2562	43.446	-48.351	150.816	-56.930	169.476	-73.303	134.614	32.910	105.116	-130.410	178.700	168.110	-92.070	162.491	-60.068	167.116	0.0010505	0.00045906	0.00011614	1235.8	3.9522e-06	6.1594e-06	1232.8	341.74	1.0118e-05	3.8401e-06	389.57	129.75	112.8	38.468	5.0415e-06	48.159	0.00041732	0.00035247	9.6842e-05	1251.4	4.0023e-06	3.8335e-06	1252.5	346.45	4.0443e-06	3.9587e-06	396.02	132.33	114.94	39.497	3.888e-06	49.549	95.784	-47.447	-63.632	-140.848	-14.897	-5.661	-141.283	-136.409	-68.268	10.144	-136.997	-132.885	-132.884	-127.041	-27.854	-128.165	-8191	255	
1478.528	1	1	0	0	0.091476	0.23515	0.14099	0.16439	0.10949	0.2563	0.21863	0.21745	0.21973	0.15445	0.35812	0.16814	0.11685	0.12269	0.17857	0.14863	-3.0479	-3.1917	-3.1792	-3.5333	-3.0979	-3.3875	-3.5271	-3.1833	-3.4583	-3.2521	-3.2	-3.6	-2.9917	-3.2146	-3.0896	-2.9708	160.332	12.699	57.919	189.114	81.140	116.134	124.129	-130.365	169.478	-69.016	197.313	88.266	37.596	38.088	196.632	187.983	0.0010482	0.00047725	0.00013811	1238.5	6.6132e-06	5.3184e-06	1232.4	341.41	8.3581e-06	5.3057e-06	390.25	130.13	113.99	38.677	4.9801e-06	48.229	0.00041829	0.00035271	9.4972e-05	1251.7	3.9627e-06	3.8186e-06	1252.4	346.12	4.0042e-06	3.7943e-06	396.13	132.3	115	39.573	3.7994e-06	49.494	97.095	-66.875	-63.746	-141.016	-32.669	13.451	-141.312	-136.708	-43.618	11.264	-136.760	-132.822	-132.926	-127.298	-32.759	-128.102	-8191	255	
1478.649	1	1	0	0	0.010028	0.14299	0.11203	0.1107	0.3177	0.10527	0.20955	0.1403	0.16952	0.27308	0.093122	0.072118	0.26308	0.27527	0.24919	0.051446	-3.0271	-3.1437	-3.1792	-3.3896	-3.1354	-3.175	-3.1958	-2.9938	-3.175	-3.0458	-3.1896	-3.3479	-3.2104	-3.3917	-3.4396	-3.1354	28.513	98.520	-101.302	16.260	-18.112	101.951	174.806	-139.248	-55.547	111.185	190.511	-33.702	167.427	-150.733	188.072	-25.029	0.0011453	0.0005748	0.00010486	1240.3	4.999e-06	5.1895e-06	1240.2	342.54	8.5015e-06	4.0661e-06	389.42	130.14	113.45	38.594	3.7512e-06	48.207	0.00042371	0.00034522	9.7768e-05	1250.8	3.9358e-06	3.7906e-06	1253.4	346.68	3.9509e-06	3.8049e-06	395.88	132.25	114.82	39.494	3.8715e-06	49.424	95.873	-58.554	-75.553	-140.730	10.975	1.594	-141.262	-136.494	-49.900	1.826	-136.972	-133.044	-133.454	-127.198	-35.613	-128.041	-8191	255	
1478.745	1	1	0	0	0.037676	0.081372	0.20969	0.073392	0.085633	0.13762	0.209	0.1779	0.25509	0.12541	0.1578	0.26332	0.17712	0.1886	0.12279	0.20628	-2.9458	-3.1125	-2.9896	-3.2792	-3.1813	-2.9313	-3.3646	-3.0917	-3.1521	-3.3667	-3.3187	-3.4333	-3.1729	-3.1646	-3.3167	-3.2104	-66.608	111.043	-112.350	-89.971	152.713	2.282	156.414	170.847	196.863	200.852	184.823	-128.209	-137.289	-150.167	2.131	169.320	0.0010433	0.00046887	3.7974e-05	1234.3	6.5827e-06	4.2433e-06	1240	342.45	8.802e-06	2.6207e-06	390.34	130.68	113.32	38.896	5.6425e-06	48.17	0.0004141	0.00034678	9.867e-05	1250.2	3.9326e-06	3.8826e-06	1254.4	346.86	3.9286e-06	3.6931e-06	396.14	132.48	114.79	39.617	3.8022e-06	49.507	93.918	-68.646	-33.598	-141.040	-11.055	-2.202	-141.182	-136.249	-47.997	-1.723	-137.012	-133.285	-132.971	-127.266	-20.790	-128.071	-8191	255	
1478.841	1	1	0	0	0.13421	0.084547	0.1674	0.080043	0.052591	0.14741	0.17039	0.33836	0.021604	0.13482	0.36835	0.13828	0.31277	0.15509	0.056266	0.1399	-2.7687	-2.9437	-2.9542	-3.4688	-3.1937	-3.0667	-3.4083	-3.0792	-3.2396	-3.3125	-3.1958	-3.6521	-3.2188	-3.1688	-3.2292	-3.1167	-107.175	-132.534	169.911	131.576	-153.494	80.514	121.273	138.089	-116.722	62.180	121.527	35.828	-147.447	1.586	-26.321	15.831	0.0011322	0.00064144	0.00011723	1236.3	4.9936e-06	3.951e-06	1240.4	342.17	8.0423e-06	4.8144e-06	389.69	130.32	113.6	38.68	5.9403e-06	48.166	0.00041504	0.00034576	9.7538e-05	1250.2	3.8983e-06	3.7764e-06	1254.1	346.66	3.8994e-06	3.8111e-06	395.96	132.44	114.83	39.549	3.8789e-06	49.491	95.389	-78.937	-51.195	-140.813	1.966	-11.048	-141.315	-136.380	-39.210	-6.603	-136.968	-133.106	-132.791	-127.396	-28.912	-128.393	-8191	255	
1478.937	1	1	0	0	0.14	0.12612	0.16576	0.056774	0.13459	0.084559	0.066225	0.27583	0.15795	0.14508	0.2207	0.38389	0.30484	0.09094	0.18537	0.064263	-2.8229	-3.225	-3.1708	-3.3667	-3.4146	-3.0625	-3.3417	-3.2188	-2.9771	-3.3917	-3.0896	-3.3688	-3.2208	-3.1146	-3.35	-3.1937	38.369	-95.859	40.326	-120.200	31.732	-33.540	54.600	125.320	18.538	59.926	145.275	-139.500	-44.147	-112.141	42.480	120.663	0.0010635	0.00028758	9.97e-05	1238.2	4.4287e-06	5.335e-06	1237	342.13	9.3084e-06	3.0072e-06	389.18	130.33	113.36	38.817	4.9156e-06	48.24	0.00041384	0.0003458	9.9154e-05	1251	3.6776e-06	3.7414e-06	1253.3	346.82	3.7817e-06	3.6855e-06	396.18	132.28	115	39.595	3.704e-06	49.516	93.526	-48.400	-73.195	-140.884	-59.838	-6.940	-141.327	-136.450	-59.005	-1.057	-136.809	-132.974	-132.826	-127.356	-1.096	-128.119	-8191	255	
1479.034	1	1	0	0	0.21664	0.15613	0.31343	0.092942	0.19085	0.24987	0.18015	0.33123	0.22068	0.071935	0.39462	0.074294	0.25255	0.16048	0.26952	0.28885	-2.7646	-3.4062	-2.9417	-3.4083	-3.0333	-2.8771	-3.3937	-3.1458	-2.9208	-3.2708	-3.0292	-3.3729	-3.2792	-3.1417	-3.2792	-3.1792	-132.225	24.989	-67.938	161.014	26.981	155.603	145.114	92.830	99.887	-39.683	125.624	64.112	88.629	-119.443	-154.014	87.459	0.0011322	0.00065416	0.00010444	1235.1	6.0176e-06	5.3102e-06	1233.2	340.76	8.507e-06	3.9417e-06	390.96	130.17	114.1	38.881	7.7696e-06	48.292	0.00040933	0.00034279	9.6957e-05	1249.4	3.6185e-06	3.8438e-06	1252.5	346.15	3.8699e-06	3.7307e-06	396.55	132.34	115.07	39.624	3.8801e-06	49.5	95.103	-69.981	-67.005	-140.671	-41.891	12.749	-141.407	-136.443	-38.120	-35.451	-136.956	-132.980	-132.818	-127.165	-13.347	-127.999	-8191	255	
1479.130	1	1	0	0	0.083645	0.1529	0.21905	0.14678	0.20185	0.10232	0.11264	0.30217	0.073494	0.12785	0.32739	0.22538	0.054725	0.23932	0.056015	0.15218	-2.7	-3.2208	-3.0208	-3.3312	-3.4125	-3.0625	-3.3896	-3.3396	-3.1708	-3.3333	-3.2396	-3.1583	-3.0667	-3.0271	-3.2146	-3.2771	2.007	112.890	58.415	70.174	0.195	150.051	-148.214	172.118	87.840	-51.308	160.649	-151.094	-5.124	165.501	202.370	104.383	0.0011489	0.00043733	0.00014018	1233.1	6.7367e-06	5.1761e-06	1239.8	341.31	9.1823e-06	4.2987e-06	389.96	130.5	113.45	38.741	4.6269e-06	48.384	0.00041067	0.00034219	9.2678e-05	1248.7	3.7877e-06	3.7743e-06	1253.7	346.28	3.8116e-06	3.7417e-06	396.53	132.33	114.99	39.548	3.7453e-06	49.504	95.982	-70.114	-56.246	-140.898	-22.028	-8.285	-141.273	-136.327	-28.349	-18.617	-136.932	-133.054	-132.923	-127.319	-54.899	-128.199	-8191	255	
1479.249	1	1	0	0	0.15484	0.22129	0.14988	0.38286	0.31706	0.243	0.16748	0.097302	0.027447	0.11942	0.19531	0.20596	0.20011	0.052722	0.10302	0.20073	-2.5812	-3.5187	-2.9542	-3.1146	-3.1792	-3.0479	-3.4667	-3.5687	-3.1625	-3.4479	-3.1312	-3.1417	-3.2229	-3.1646	-3.3021	-3.3833	28.607	179.211	-14.145	157.148	102.859	-58.299	-134.379	68.971	51.222	189.202	-147.991	-131.937	4.493	84.313	96.109	94.677	0.0011014	0.00062601	0.00012859	1237.6	5.3615e-06	5.4059e-06	1238.3	341.73	1.1701e-05	4.9412e-06	393.15	130.26	113.74	38.691	5.4292e-06	48.461	0.00040998	0.00035122	9.4669e-05	1249.2	3.7965e-06	3.658e-06	1253.4	346.49	3.913e-06	3.7139e-06	396.59	132.56	115.06	39.589	3.7982e-06	49.59	92.680	-53.763	-51.580	-140.925	-20.718	7.223	-141.299	-136.432	-54.897	-3.899	-136.828	-132.909	-132.632	-127.288	-64.348	-128.043	-8191	255	
1479.345	1	1	0	0	0.14292	0.13454	0.18159	0.086906	0.17966	0.26833	0.080457	0.18003	0.26052	0.13212	0.064145	0.18729	0.20306	0.059635	0.090368	0.12739	-2.4896	-3.4083	-3.2479	-3.4333	-3.5646	-3.2333	-3.4229	-3.3625	-2.7208	-3.2979	-3.3458	-3.3479	-3.3958	-3.1271	-3.2271	-3.3708	189.762	65.199	128.936	-105.443	-24.954	-17.549	110.673	130.690	-143.746	-107.097	147.196	164.479	160.371	-113.444	63.991	-77.585	0.0011406	0.00054026	0.00013989	1236.6	6.7135e-06	4.9437e-06	1236.6	341.98	1.3163e-05	5.02e-06	392.1	129.97	113.2	38.68	4.5386e-06	48.471	0.00041537	0.00033259	9.3132e-05	1250	3.806e-06	3.7163e-06	1253.6	346.37	4.0048e-06	3.8336e-06	396.79	132.15	114.83	39.615	3.8258e-06	49.578	95.580	-73.051	-65.860	-140.836	-26.039	9.967	-141.401	-136.386	-55.562	-13.024	-137.054	-132.996	-133.015	-127.359	-23.281	-128.061	-8191	255	
1479.416	1	1	0	0	0.20987	0.17909	0.078053	0.17329	0.087714	0.01789	0.30997	0.30624	0.14749	0.065168	0.035472	0.15217	0.30342	0.33572	0.092854	0.25264	-2.5229	-3.3208	-3.0563	-3.1792	-3.4229	-3.2562	-3.5333	-3.4458	-3.3	-3.4167	-3.4479	-3.05	-3.275	-3.1	-3.1896	-3.5187	82.054	119.357	-6.632	51.545	103.777	46.717	109.986	128.994	-86.812	-41.996	38.440	43.024	107.759	152.523	-121.626	176.690	0.0010944	0.00042423	0.00010413	1238	4.43e-06	5.827e-06	1239.7	342.16	1.0071e-05	5.3386e-06	389.78	130.89	113.49	38.725	4.4693e-06	48.371	0.00043094	0.0003463	9.5734e-05	1251.6	3.8033e-06	3.7879e-06	1254.2	346.64	4.0144e-06	3.8546e-06	395.94	132.45	115.14	39.531	3.8145e-06	49.447	95.294	-71.584	-71.756	-141.085	-19.088	4.466	-141.374	-136.642	-25.495	-3.998	-136.915	-132.963	-132.907	-127.389	-32.679	-128.213	-8191	255	
1479.537	1	1	0	0	0.12138	0.19647	0.094761	0.20133	0.14679	0.13221	0.27247	0.17285	0.10538	0.090065	0.14935	0.18278	0.13093	0.14066	0.20067	0.18011	-2.6583	-3.2	-3.3354	-3.2354	-3.725	-3.3542	-3.2146	-3.3708	-2.8333	-3.4188	-3.2646	-3.1958	-3.4813	-3.0979	-2.9521	-3.3937	-110.185	63.048	39.355	192.230	86.968	122.898	117.029	4.896	29.294	102.038	-145.123	159.090	-24.486	22.170	-23.660	191.596	0.0010564	0.00055967	0.00010946	1242.2	5.5741e-06	4.3489e-06	1234.5	342.17	7.9352e-06	4.3033e-06	391.95	130.08	113.78	38.904	3.3335e-06	48.352	0.00041246	0.00034702	9.404e-05	1251.4	3.6895e-06	3.5485e-06	1252.4	346.33	3.8218e-06	3.6237e-06	396.49	132.5	115.38	39.62	3.7346e-06	49.521	96.613	-58.467	-95.704	-140.999	-38.151	22.241	-141.356	-136.484	-40.992	-18.124	-136.850	-133.115	-132.657	-127.159	-35.070	-127.899	-8191	255	
1479.633	1	1	0	0	0.12554	0.24288	0.059229	0.13763	0.13026	0.071595	0.12547	0.19747	0.083915	0.10839	0.13626	0.10593	0.1082	0.017006	0.24783	0.13985	-2.5208	-3.1958	-3.2062	-2.8812	-3.3187	-3.2458	-3.3042	-3.5667	-3.1333	-3.1958	-3.45	-3.1937	-3.4562	-3.5729	-2.9938	-3.3208	67.989	-87.410	92.458	124.754	159.106	68.466	139.397	191.950	147.562	166.306	-82.457	86.617	-72.846	189.550	-82.834	183.892	0.0011084	0.00061401	0.00011113	1236.7	4.9163e-06	6.8691e-06	1236.3	340.93	1.1231e-05	2.6331e-06	391.15	130.19	113.65	38.774	4.5544e-06	48.294	0.00040919	0.0003327	9.2509e-05	1248.8	3.7062e-06	3.5967e-06	1250.8	346.36	3.8554e-06	3.6091e-06	396.02	132.18	114.69	39.589	3.808e-06	49.561	96.950	-78.081	-47.588	-140.969	-26.787	-1.536	-141.369	-136.330	-62.283	3.241	-137.037	-132.887	-132.901	-127.275	-26.111	-127.997	-8191	255	
1479.729	1	1	0	0	0.10379	0.061631	0.23296	0.22607	0.078044	0.08169	0.18285	0.27835	0.15708	0.075887	0.055962	0.083592	0.069977	0.037421	0.16012	0.18257	-2.7271	-3.0563	-3.1208	-2.85	-3.35	-3.2875	-3.1625	-3.3396	-2.95	-3.0396	-3.4542	-2.9104	-3.0875	-3.1729	-2.8312	-3.4125	161.718	21.392	-87.911	203.920	90.779	19.577	45.071	142.984	151.751	55.323	-103.684	31.980	-57.233	124.944	109.268	115.164	0.0011209	0.00054288	0.00012966	1238.5	4.4826e-06	3.2828e-06	1237.6	341.14	1.1459e-05	5.1269e-06	390.15	130.15	113.59	38.717	6.4113e-06	48.091	0.00040873	0.00033736	9.217e-05	1247.5	3.7901e-06	3.6422e-06	1251.8	346.39	3.9044e-06	3.7084e-06	396.19	132.18	114.83	39.498	3.9042e-06	49.375	94.649	-59.537	-65.931	-140.977	-42.239	23.375	-141.408	-136.541	-61.732	-20.678	-136.918	-133.217	-132.807	-127.214	-31.795	-127.955	-8191	255	
1479.826	1	1	0	0	0.1798	0.12954	0.13997	0.17415	0.19765	0.15188	0.20053	0.21584	0.049137	0.26653	0.24654	0.14845	0.27938	0.16916	0.083057	0.29457	-2.6542	-2.95	-3.1229	-2.9833	-3.1312	-3.4188	-3.1021	-3.4083	-3.3729	-3.1833	-3.5687	-3.0479	-3.2125	-3.3688	-3.025	-3.5687	158.795	-14.704	-109.267	-88.025	15.877	-85.795	191.770	133.491	117.224	-72.128	149.862	139.636	128.060	111.484	136.245	168.331	0.0010489	0.00043311	0.00012233	1243.1	3.8998e-06	5.9464e-06	1236	341.32	9.5806e-06	6.5777e-06	390.51	130.67	113.27	38.605	7.5676e-06	48.244	0.0004152	0.00035609	9.9251e-05	1251.6	3.7901e-06	3.8143e-06	1252.2	346.5	4.0091e-06	3.924e-06	396.32	132.31	114.78	39.461	4.0267e-06	49.381	92.956	-67.070	-53.724	-140.798	-22.645	-32.883	-141.382	-136.428	-44.028	-6.444	-136.839	-132.857	-132.864	-127.224	-24.906	-127.960	-8191	255	
1479.944	1	1	0	0	0.2636	0.14846	0.11933	0.14186	0.37545	0.062844	0.27449	0.13386	0.13215	0.069056	0.1542	0.14754	0.17844	0.035209	0.089768	0.13231	-2.8458	-3.1542	-3.4917	-3.1271	-3.1458	-3.5667	-3.1354	-3.4875	-3.3604	-3.2	-3.6229	-3.2604	-3.0792	-3.4	-2.925	-3.2812	-0.860	-123.608	26.348	136.898	22.998	-57.800	157.507	-6.249	77.648	115.269	131.872	122.383	134.812	200.387	155.564	-3.389	0.0010954	0.0004622	0.00017633	1237.1	5.0953e-06	4.3906e-06	1233.4	340.79	7.9291e-06	6.0219e-06	391.07	129.72	113.1	38.523	6.3437e-06	48.034	0.0004114	0.00036623	0.00010014	1249.2	3.7991e-06	3.6777e-06	1251.7	345.7	3.9837e-06	3.8669e-06	396.21	131.83	114.51	39.352	3.8383e-06	49.224	94.494	-66.618	-64.334	-141.009	-16.101	8.154	-141.507	-136.349	-42.263	-4.724	-136.943	-132.815	-133.120	-127.182	0.417	-127.983	-8191	255	
1480.041	1	1	0	0	0.32158	0.10736	0.2764	0.18728	0.08824	0.12732	0.05896	0.13667	0.056421	0.069251	0.17621	0.4093	0.22632	0.28517	0.34693	0.1267	-2.7396	-2.9	-3.4458	-3.2083	-3.4708	-3.5771	-3.3063	-3.3771	-3.2896	-3.0979	-3.5021	-3.0667	-3.2562	-3.5979	-3.3479	-3.45	124.440	-148.531	2.871	123.582	93.288	145.521	154.026	-114.102	20.035	101.901	186.332	-96.028	127.093	204.429	-91.199	114.865	0.0010543	0.00025407	7.4146e-05	1226.3	4.9176e-06	6.6201e-06	1230.1	340.43	1.0435e-05	4.3569e-06	388.6	129.07	112.38	38.463	4.3452e-06	47.84	0.00041269	0.00035458	9.7223e-05	1240.1	3.7738e-06	3.8414e-06	1246.9	344.86	3.9502e-06	3.8748e-06	393.76	131.4	114.09	39.3	3.9045e-06	49.171	97.212	-75.804	-79.533	-141.051	-16.208	-9.527	-141.275	-136.413	-46.633	-12.510	-136.793	-132.690	-132.807	-127.409	-32.939	-128.004	-8191	255	
1480.114	1	1	0	0	0.2653	0.29135	0.081114	0.14462	0.12886	0.060491	0.10452	0.11629	0.11745	0.2076	0.081361	0.2015	0.2194	0.13209	0.078926	0.074244	-3.1188	-3.0708	-3.4938	-3.3312	-3.1771	-3.5875	-3.4208	-3.4292	-3.4479	-3.0979	-3.4938	-3.3042	-3.0167	-3.4562	-3.0438	-3.1479	171.906	-102.253	174.075	-72.977	-66.036	92.018	-0.659	88.320	105.641	138.339	-117.383	-141.437	184.140	-48.901	97.016	-130.649	0.0010765	0.000375	0.000135	1230.3	4.1496e-06	4.7931e-06	1225.7	340.32	9.7244e-06	4.5398e-06	390.08	129.91	112.89	38.505	6.5157e-06	48.19	0.0004161	0.00034899	9.5964e-05	1243.9	3.8749e-06	3.7764e-06	1245.8	344.99	3.905e-06	4.008e-06	395.32	131.93	114.42	39.349	4.013e-06	49.305	95.553	-69.762	-85.114	-141.043	-14.074	-9.315	-141.227	-136.342	-36.958	-15.498	-136.871	-132.734	-132.782	-127.315	-23.654	-128.222	-8191	255	
1480.210	1	1	0	0	0.10663	0.1049	0.088246	0.15005	0.33577	0.031588	0.14205	0.1689	0.14101	0.15971	0.13188	0.31782	0.012705	0.10367	0.11055	0.15399	-2.9562	-2.9229	-3.2062	-3.2042	-3.0458	-3.4104	-3.1937	-3.1896	-3.3187	-3.0708	-3.3688	-3.3	-3.2042	-3.5938	-3.2896	-3.3417	84.221	-9.164	194.332	-79.418	168.174	-139.994	128.239	125.563	109.458	-87.138	170.214	-136.171	178.895	130.811	-122.414	31.284	0.0010884	0.00035928	0.00013376	1232.4	5.0194e-06	5.5453e-06	1236.2	341.98	9.0864e-06	4.4455e-06	391.3	130.01	113.35	38.645	6.064e-06	48.272	0.00042868	0.00036309	0.00010022	1251.6	3.9884e-06	4.0089e-06	1254.5	346.17	3.9783e-06	3.8068e-06	396.41	132.19	114.86	39.443	3.7184e-06	49.45	98.460	-55.609	-52.480	-140.971	-20.513	12.680	-141.400	-136.482	-55.691	-6.373	-137.057	-132.953	-132.927	-127.343	-16.888	-128.075	-8191	255	
1480.329	1	1	0	0	0.16043	0.063632	0.12232	0.089039	0.23121	0.17002	0.070048	0.15982	0.21277	0.20705	0.12539	0.070312	0.20779	0.065193	0.085602	0.15698	-3.1646	-3.0854	-3.4167	-3.4437	-3.2792	-3.4542	-3.3417	-3.3521	-3.2604	-2.9562	-3.3917	-3.4896	-3.1875	-3.575	-3.1979	-3.3187	29.624	139.615	-137.030	-7.650	20.113	-59.540	149.431	166.517	53.502	-45.913	-147.619	27.451	-11.396	-146.067	67.788	-126.081	0.0010884	0.00061562	0.00014153	1235.7	4.9076e-06	6.5847e-06	1230.7	341.22	1.0791e-05	3.6409e-06	388.98	129.63	112.46	38.417	5.5826e-06	47.775	0.00040278	0.00033385	9.3108e-05	1246.6	3.7154e-06	3.6113e-06	1248.2	345.83	3.8504e-06	3.7044e-06	395.66	131.95	114.31	39.342	3.723e-06	49.272	96.721	-54.726	-82.670	-140.776	-32.530	19.942	-141.461	-136.335	-54.469	-27.251	-137.168	-133.156	-132.798	-127.272	-35.179	-128.135	-8191	255	
1480.425	1	1	0	0	0.184	0.33503	0.07911	0.29682	0.028405	0.07204	0.23265	0.4136	0.11896	0.056482	0.1182	0.14184	0.22838	0.034823	0.13434	0.18322	-3.1	-3.2646	-3.2	-3.5917	-3.1458	-3.3854	-3.6625	-3.3292	-3.5542	-3.3229	-3.425	-3.4792	-2.9417	-3.3417	-3.2208	-3.1625	52.317	112.519	83.307	155.816	-51.673	-33.094	115.585	144.852	-82.847	146.487	152.833	-18.013	-113.272	-12.000	-133.768	47.313	0.0011065	0.00025593	0.00010766	1226.3	6.7956e-06	7.113e-06	1223.5	339.79	1.088e-05	4.6372e-06	386.42	128.87	112.47	38.441	3.0738e-06	48.077	0.0004144	0.0003526	9.634e-05	1243.2	3.9509e-06	3.8471e-06	1246.4	345.26	4.0352e-06	4.0186e-06	395.41	131.74	114.63	39.357	4.2044e-06	49.308	94.090	-57.198	-50.025	-140.816	-36.468	-20.281	-141.494	-136.488	-57.487	-36.355	-137.106	-133.101	-132.638	-127.412	-40.286	-128.149	-8191	255	
1480.521	1	1	0	0	0.12676	0.17031	0.17001	0.050498	0.15092	0.12848	0.12139	0.077021	0.28546	0.10303	0.061398	0.18324	0.022639	0.043799	0.12588	0.16904	-3.0438	-3.1188	-3.075	-3.6604	-3.0208	-3.5125	-3.4667	-3.1146	-3.1958	-3.1479	-3.1021	-3.4271	-2.9875	-3.3396	-3.2375	-3.2542	94.127	34.574	34.970	158.430	170.983	-150.788	35.917	-130.760	10.620	153.333	175.190	204.334	-11.834	204.907	-68.909	83.663	0.0010622	0.00035072	0.0001114	1237.6	4.8596e-06	4.8127e-06	1235.4	340.84	7.8431e-06	4.6368e-06	391.06	130.76	113.07	38.509	5.6393e-06	48.235	0.00045101	0.00037654	0.00010722	1251	4.2571e-06	4.199e-06	1254.6	345.82	4.267e-06	4.339e-06	396.82	132.22	114.69	39.367	4.3072e-06	49.461	94.441	-79.489	-82.857	-140.960	-40.681	2.496	-141.356	-136.294	-67.330	-26.984	-136.938	-133.052	-133.009	-127.257	-17.414	-128.177	-8191	255	
1480.642	1	1	0	0	0.067189	0.37598	0.082917	0.069058	0.05711	0.14717	0.047718	0.12544	0.12875	0.059198	0.24161	0.16795	0.22268	0.13805	0.16242	0.1027	-2.9562	-3.1688	-3.1312	-3.6813	-3.2188	-3.2833	-3.6625	-3.4417	-3.4333	-3.3021	-3.425	-3.6229	-3.2521	-3.4229	-3.3812	-3.2604	36.808	-24.366	91.468	-154.333	-130.280	148.311	-65.358	161.540	-3.201	-128.347	190.780	147.072	197.102	-130.297	195.085	-88.686	0.0010314	0.00062972	0.00011473	1237.9	9.2282e-06	5.2301e-06	1241	341.22	8.2293e-06	4.1141e-06	391.3	130.06	113.46	38.637	5.9156e-06	48.239	0.00044694	0.0003745	0.00010556	1250.8	4.0051e-06	3.9433e-06	1255.2	346.52	3.9847e-06	3.8862e-06	396.41	132.17	114.72	39.456	4.0432e-06	49.466	95.732	-76.116	-53.662	-140.904	-38.694	-8.565	-141.263	-136.497	-43.600	23.897	-137.240	-133.009	-133.052	-127.219	-31.830	-128.263	-8191	255	
1480.714	1	1	0	0	0.21456	0.090575	0.26119	0.15495	0.064032	0.082236	0.26893	0.21808	0.22992	0.27043	0.029643	0.043425	0.21872	0.17908	0.10371	0.21207	-2.9542	-3.1875	-2.8917	-3.3583	-3.1437	-3.2854	-3.5646	-3.2333	-3.3896	-3.425	-3.5458	-3.5125	-3.15	-3.0979	-3.4604	-3.3	156.030	173.277	50.298	-62.534	142.124	-58.978	163.522	68.042	-47.320	50.902	48.653	-136.115	-124.913	-79.417	161.226	109.649	0.0010847	0.00038696	6.9283e-05	1239.8	5.3014e-06	6.0829e-06	1238.8	342.32	5.2709e-06	2.3511e-06	391.38	130.38	113.19	38.706	5.7257e-06	48.118	0.00041967	0.00036218	0.0001025	1251	4.0322e-06	4.0353e-06	1255.2	346.37	4.1253e-06	4.0451e-06	397.28	132.28	114.84	39.483	4.2348e-06	49.427	96.576	-47.175	-85.426	-140.980	-26.173	-6.207	-141.398	-136.243	-18.364	-46.305	-136.905	-133.141	-132.934	-127.208	-35.769	-128.427	-8191	255	
1480.810	1	1	0	0	0.023146	0.15496	0.098787	0.13744	0.10973	0.17831	0.046234	0.27531	0.032222	0.11788	0.08451	0.10678	0.10418	0.16817	0.039471	0.027934	-2.8187	-3.2354	-3.0292	-3.4167	-3.1917	-3.1917	-3.4938	-2.9854	-3.3167	-3.3875	-3.1479	-3.4188	-3.3354	-3.0854	-3.4688	-3.1146	109.246	68.803	-136.736	187.790	193.303	83.478	110.757	116.791	58.001	123.188	-2.729	71.276	154.711	165.220	-3.785	-135.727	0.0010653	0.00030132	0.00014385	1240.1	5.9061e-06	6.0488e-06	1240.3	341.57	6.9726e-06	3.1208e-06	390.55	129.98	113.66	38.507	5.804e-06	48.182	0.00043689	0.00037136	0.00010688	1250.6	4.0538e-06	4.0883e-06	1255.2	346.55	4.2065e-06	4.1772e-06	396.6	132.09	114.93	39.449	4.4021e-06	49.434	94.501	-86.051	-82.277	-141.016	-46.005	-8.841	-141.260	-136.307	-51.601	9.042	-136.882	-133.142	-132.929	-127.291	-43.117	-128.385	-8191	255	
1480.930	1	1	0	0	0.47654	0.15261	0.14914	0.20747	0.18138	0.1097	0.37481	0.28052	0.15126	0.073386	0.035811	0.080661	0.41066	0.076753	0.033438	0.14843	-2.9354	-3.4792	-3.2729	-3.4375	-3.3375	-3.0792	-3.5417	-3.2625	-3.0833	-3.1667	-3.1542	-3.4625	-3.3896	-3.3458	-3.4458	-3.3708	167.409	-115.679	185.954	181.978	-5.373	-140.470	144.986	113.412	155.562	133.421	198.719	13.731	145.220	182.118	4.302	144.529	0.0011282	0.00052537	0.00013856	1245.1	2.9969e-06	4.7553e-06	1246.3	342.69	1.1503e-05	5.0174e-06	392.65	130.48	113.71	38.758	4.3512e-06	48.191	0.00045885	0.00040123	0.00011341	1256.3	4.4696e-06	4.3546e-06	1258.7	346.95	4.4208e-06	4.3218e-06	397.37	132.23	115	39.491	3.9103e-06	49.423	97.792	-51.932	-73.693	-141.064	-33.491	-30.570	-141.258	-136.442	-35.418	20.469	-137.030	-133.074	-132.627	-127.372	-21.719	-128.254	-8191	255	
1481.025	1	1	0	0	0.33541	0.041308	0.19532	0.11848	0.27058	0.10295	0.06596	0.322	0.072676	0.17587	0.22148	0.13211	0.062219	0.2865	0.24122	0.23897	-2.8229	-3.2812	-3.0687	-3.3312	-3.1333	-3.1229	-3.5729	-3.3646	-3.2583	-3.6604	-3.3729	-3.4896	-3.3792	-3.0854	-3.4875	-3.3292	-147.888	-22.628	-136.192	153.893	35.822	-102.774	32.852	117.785	104.004	56.698	124.855	-115.955	182.799	-111.646	-125.345	114.343	0.0011222	0.00045574	0.00013678	1241.2	4.5928e-06	7.0082e-06	1231.9	341.35	1.2356e-05	4.3852e-06	389.09	130.24	113.5	38.682	2.8941e-06	48.167	0.00042823	0.00035367	9.7792e-05	1247.5	3.7432e-06	3.8551e-06	1249.9	345.75	3.9046e-06	3.747e-06	395.33	131.78	114.57	39.403	3.9397e-06	49.355	97.458	-57.898	-78.683	-140.716	-38.561	5.683	-141.439	-136.146	-54.270	7.377	-136.743	-132.840	-133.035	-127.110	-14.464	-128.086	-8191	255	
1481.121	1	1	0	0	0.034109	0.16412	0.3088	0.1649	0.12684	0.060944	0.16031	0.26543	0.13234	0.039221	0.2445	0.21931	0.14091	0.24703	0.14418	0.15651	-2.7021	-3.4875	-3.1	-3.4458	-3.4479	-3.1896	-3.5312	-3.2875	-3.0417	-3.4625	-3.2417	-3.3979	-3.3292	-3.2021	-3.25	-3.0167	107.671	50.938	5.114	131.366	-41.410	70.916	188.227	141.435	-0.933	-125.544	116.199	-138.969	-7.796	-135.580	3.039	55.262	0.0010742	0.00041843	0.00015047	1238.2	5.4326e-06	4.0174e-06	1237.9	343.24	7.03e-06	5.0989e-06	391.63	130.44	113.24	38.595	6.0924e-06	48.251	0.00042899	0.00036935	0.00010088	1244.8	4.0353e-06	4.0947e-06	1251.8	346.43	4.2566e-06	3.9525e-06	396.56	132.29	114.86	39.424	3.9622e-06	49.49	95.047	-87.841	-77.205	-140.951	-66.280	26.750	-141.193	-136.420	-62.313	-9.085	-136.957	-133.095	-133.104	-127.220	-26.539	-128.389	-8191	255	
1481.242	1	1	0	0	0.23475	0.26035	0.33141	0.099793	0.25833	0.11529	0.36035	0.21077	0.091156	0.2324	0.16893	0.3667	0.15933	0.18849	0.23916	0.13343	-2.5896	-3.4938	-3.0458	-3.3146	-3.4021	-3.2292	-3.5604	-3.4729	-2.9479	-3.2229	-3.0708	-3.2438	-3.3146	-3.1354	-3.3083	-3.475	196.489	-58.758	0.925	-69.126	49.039	78.319	105.811	182.797	175.046	-23.980	81.742	172.425	37.645	154.520	156.963	18.258	0.0011347	0.00033532	8.7665e-05	1235.8	5.249e-06	6.0286e-06	1234.8	340.22	1.1357e-05	3.2192e-06	388.77	130.28	113.55	38.627	5.2333e-06	48.515	0.00043074	0.00036376	0.00010075	1247	4.0719e-06	4.0137e-06	1249.3	345.42	4.2332e-06	4.0265e-06	396.05	132.22	114.81	39.493	3.9833e-06	49.455	99.278	-58.262	-76.708	-140.887	-41.768	-14.281	-141.273	-136.399	-38.448	-14.676	-137.255	-132.932	-132.736	-127.286	-30.156	-128.195	-8191	255	
1481.313	1	1	0	0	0.15709	0.28105	0.17124	0.28007	0.035746	0.21862	0.023825	0.25056	0.2884	0.17265	0.25032	0.20011	0.041389	0.16016	0.0612	0.23005	-2.5	-3.4396	-3.1958	-3.2375	-3.4875	-3.1771	-3.2604	-3.2667	-2.9396	-3.2708	-3.2604	-3.2938	-3.5542	-3.3729	-3.3667	-3.3646	82.863	38.702	173.233	204.775	103.501	56.875	-27.872	87.112	141.881	10.289	191.869	161.263	-56.417	174.520	47.712	76.849	0.0010816	0.00033348	0.00015484	1238.9	6.1274e-06	4.8919e-06	1237.7	342.17	7.6025e-06	4.7159e-06	390.73	130.67	114.27	38.857	7.8091e-06	48.499	0.00043942	0.00037728	0.00010176	1246.5	4.0332e-06	4.0152e-06	1250.3	346.37	4.3482e-06	4.1973e-06	396.48	132.49	115.1	39.62	4.0012e-06	49.654	96.037	-75.407	-63.595	-140.852	-27.350	21.842	-141.499	-136.203	-49.999	-10.345	-137.072	-132.897	-132.975	-127.355	0.926	-128.034	-8191	255	
1481.409	1	1	0	0	0.2231	0.10835	0.26556	0.12426	0.29911	0.099412	0.25623	0.19425	0.14548	0.12921	0.131	0.11999	0.084297	0.077203	0.19854	0.14933	-2.6146	-3.3458	-3.2021	-3.15	-3.3563	-3.1292	-3.6292	-3.4979	-3.0729	-3.3	-3.3854	-3.1354	-3.5333	-3.3812	-3.3688	-3.5271	188.911	52.103	104.876	-46.535	-141.563	152.771	87.663	120.263	11.257	3.684	200.244	98.848	148.112	164.494	175.177	181.066	0.0011098	0.00051886	0.00015116	1232	4.3806e-06	6.1428e-06	1240.7	343.13	9.6829e-06	2.5149e-06	393.26	131.29	114.37	38.954	5.0504e-06	48.709	0.00042726	0.00034535	9.7605e-05	1246.6	3.8102e-06	3.664e-06	1254.3	347.34	3.8581e-06	3.534e-06	398.18	132.98	115.48	39.759	3.5755e-06	49.972	98.440	-74.581	-65.596	-140.715	-5.260	2.731	-141.419	-136.242	-45.755	-15.104	-136.901	-133.085	-133.018	-127.101	-27.765	-128.154	-8191	255	
#DATA ENDS
