BOXY.EXE: ISS Imagent and Oximeter Data Acquisition Program Version 0.80
Ascii Record File

#ACQ INFORMATION
2  Detector Channels 
16  External MUX Channels 
1  Auxiliary Channels 
5000  Waveform (CCF) Frequency (Hz)
1  Waveforms Skipped 
30  Waveforms Averaged 
1  Cycles Averaged 
16  Acquisitions per Waveform 
10.0806  Updata Rate (Hz) 

#FILE INFORMATION
TRUE -- External MUX Channel results are PARSED.
FALSE -- AC DC and Phase are NOT grouped.
TRUE -- Companion Program Settings File CREATED.
FALSE -- AC data not excluded
FALSE -- DC data not excluded
FALSE -- Phase data not excluded
FALSE -- Auxillary Chn. data not excluded
Tab delimiters

#CALIBRATION STATE
TRUE -- Waveform Calibration Values APPLIED.


#AUX CALIBRATION VALUES
Val Type	aux-1	

Term	1.0000e+00	
Factor	0.0000e+00	


#WF CALIBRATION VALUES
A = Detector Channel
Val Type	A-AC1	A-AC2	A-AC3	A-AC4	A-AC5	A-AC6	A-AC7	A-AC8	A-AC9	A-AC10	A-AC11	A-AC12	A-AC13	A-AC14	A-AC15	A-AC16	A-DC1	A-DC2	A-DC3	A-DC4	A-DC5	A-DC6	A-DC7	A-DC8	A-DC9	A-DC10	A-DC11	A-DC12	A-DC13	A-DC14	A-DC15	A-DC16	A-Ph1	A-Ph2	A-Ph3	A-Ph4	A-Ph5	A-Ph6	A-Ph7	A-Ph8	A-Ph9	A-Ph10	A-Ph11	A-Ph12	A-Ph13	A-Ph14	A-Ph15	A-Ph16	

Term	0.00000e+00	0.00000e+00	0.00000e+00	0.00000e+00	0.00000e+00	0.00000e+00	0.00000e+00	0.00000e+00	0.00000e+00	0.00000e+00	0.00000e+00	0.00000e+00	0.00000e+00	0.00000e+00	0.00000e+00	0.00000e+00	0.00000e+00	0.00000e+00	0.00000e+00	0.00000e+00	0.00000e+00	0.00000e+00	0.00000e+00	0.00000e+00	0.00000e+00	0.00000e+00	0.00000e+00	0.00000e+00	0.00000e+00	0.00000e+00	0.00000e+00	0.00000e+00	0.00000e+00	0.00000e+00	0.00000e+00	0.00000e+00	0.00000e+00	0.00000e+00	0.00000e+00	0.00000e+00	0.00000e+00	0.00000e+00	0.00000e+00	0.00000e+00	0.00000e+00	0.00000e+00	0.00000e+00	0.00000e+00	
Factor	1.00000e+00	1.00000e+00	1.00000e+00	1.00000e+00	1.00000e+00	1.00000e+00	1.00000e+00	1.00000e+00	1.00000e+00	1.00000e+00	1.00000e+00	1.00000e+00	1.00000e+00	1.00000e+00	1.00000e+00	1.00000e+00	1.00000e+00	1.00000e+00	1.00000e+00	1.00000e+00	1.00000e+00	1.00000e+00	1.00000e+00	1.00000e+00	1.00000e+00	1.00000e+00	1.00000e+00	1.00000e+00	1.00000e+00	1.00000e+00	1.00000e+00	1.00000e+00	X	X	X	X	X	X	X	X	X	X	X	X	X	X	X	X	

B = Detector Channel
Val Type	B-AC1	B-AC2	B-AC3	B-AC4	B-AC5	B-AC6	B-AC7	B-AC8	B-AC9	B-AC10	B-AC11	B-AC12	B-AC13	B-AC14	B-AC15	B-AC16	B-DC1	B-DC2	B-DC3	B-DC4	B-DC5	B-DC6	B-DC7	B-DC8	B-DC9	B-DC10	B-DC11	B-DC12	B-DC13	B-DC14	B-DC15	B-DC16	B-Ph1	B-Ph2	B-Ph3	B-Ph4	B-Ph5	B-Ph6	B-Ph7	B-Ph8	B-Ph9	B-Ph10	B-Ph11	B-Ph12	B-Ph13	B-Ph14	B-Ph15	B-Ph16	

Term	0.00000e+00	0.00000e+00	0.00000e+00	0.00000e+00	0.00000e+00	0.00000e+00	0.00000e+00	0.00000e+00	0.00000e+00	0.00000e+00	0.00000e+00	0.00000e+00	0.00000e+00	0.00000e+00	0.00000e+00	0.00000e+00	0.00000e+00	0.00000e+00	0.00000e+00	0.00000e+00	0.00000e+00	0.00000e+00	0.00000e+00	0.00000e+00	0.00000e+00	0.00000e+00	0.00000e+00	0.00000e+00	0.00000e+00	0.00000e+00	0.00000e+00	0.00000e+00	-2.34514e+02	-1.29768e+02	-1.30127e+02	-1.84443e+02	-8.22941e+01	-6.40824e+01	-1.56720e+02	-1.62015e+02	-7.26260e+01	-6.78743e+01	-1.72091e+02	-1.69816e+02	-1.86035e+02	-1.76734e+02	-7.55040e+01	-1.49635e+02	
Factor	5.55501e-05	1.82107e-04	4.65506e-05	3.36067e-01	2.21863e-06	2.08987e-06	1.79340e-01	5.49720e-02	3.07935e-06	1.85942e-06	9.27168e-02	3.06035e-02	5.57620e-02	9.79774e-03	2.10663e-06	1.41981e-02	8.47988e-06	1.03975e-05	2.90508e-06	1.65852e-01	1.11247e-07	1.15048e-07	8.36732e-02	2.73498e-02	1.08864e-07	1.14871e-07	4.47458e-02	1.47719e-02	2.76586e-02	4.92130e-03	1.11357e-07	6.90630e-03	X	X	X	X	X	X	X	X	X	X	X	X	X	X	X	X	



#DISTANCE SETTINGS
A = Detector Channel
A-1	A-2	A-3	A-4	A-5	A-6	A-7	A-8	A-9	A-10	A-11	A-12	A-13	A-14	A-15	A-16	

2.5000e+00	3.0000e+00	2.5000e+00	3.0000e+00	2.0000e+00	3.0000e+00	1.5000e+00	3.0000e+00	3.0000e+00	3.0000e+00	3.0000e+00	3.0000e+00	3.0000e+00	3.0000e+00	1.5000e+00	3.0000e+00	

B = Detector Channel
B-1	B-2	B-3	B-4	B-5	B-6	B-7	B-8	B-9	B-10	B-11	B-12	B-13	B-14	B-15	B-16	

1.0000e+01	1.0000e+01	1.0000e+01	1.4400e+00	1.0000e+01	1.0000e+01	1.5100e+00	1.9400e+00	1.0000e+01	1.0000e+01	1.9900e+00	2.4900e+00	2.4100e+00	2.9000e+00	1.0000e+01	2.9800e+00	




#DATA BEGINS
time	group	step	mark	flag	A-AC1	A-AC2	A-AC3	A-AC4	A-AC5	A-AC6	A-AC7	A-AC8	A-AC9	A-AC10	A-AC11	A-AC12	A-AC13	A-AC14	A-AC15	A-AC16	A-DC1	A-DC2	A-DC3	A-DC4	A-DC5	A-DC6	A-DC7	A-DC8	A-DC9	A-DC10	A-DC11	A-DC12	A-DC13	A-DC14	A-DC15	A-DC16	A-Ph1	A-Ph2	A-Ph3	A-Ph4	A-Ph5	A-Ph6	A-Ph7	A-Ph8	A-Ph9	A-Ph10	A-Ph11	A-Ph12	A-Ph13	A-Ph14	A-Ph15	A-Ph16	B-AC1	B-AC2	B-AC3	B-AC4	B-AC5	B-AC6	B-AC7	B-AC8	B-AC9	B-AC10	B-AC11	B-AC12	B-AC13	B-AC14	B-AC15	B-AC16	B-DC1	B-DC2	B-DC3	B-DC4	B-DC5	B-DC6	B-DC7	B-DC8	B-DC9	B-DC10	B-DC11	B-DC12	B-DC13	B-DC14	B-DC15	B-DC16	B-Ph1	B-Ph2	B-Ph3	B-Ph4	B-Ph5	B-Ph6	B-Ph7	B-Ph8	B-Ph9	B-Ph10	B-Ph11	B-Ph12	B-Ph13	B-Ph14	B-Ph15	B-Ph16	aux-1	digaux	

2237.245	1	1	0	256	0.1436	0.17555	0.088154	0.14968	0.15194	0.23175	0.1067	0.19	0.11876	0.14319	0.20532	0.23279	0.055969	0.12038	0.08456	0.19275	-2.5542	-3.1479	-2.9833	-2.9292	-3.2417	-2.9813	-3.0604	-3.3917	-3.0646	-3.0438	-3.1625	-3.0875	-3.1437	-3.0187	-3.0667	-3.3667	361.108	134.939	385.920	366.077	144.136	346.931	142.008	422.152	165.809	241.003	457.054	419.750	371.224	291.665	328.128	451.751	0.0031445	0.0014811	8.1828e-05	737.34	9.4827e-06	1.4245e-05	1038.4	244.23	2.1155e-05	9.7645e-06	453.89	195.12	96.083	43.499	2.6623e-06	111.21	0.0037773	0.0042429	0.0011832	770.88	4.5375e-05	4.6728e-05	1028.2	245.92	4.4369e-05	4.7008e-05	456.59	193.39	102.1	44.254	4.5746e-05	111.2	436.959	172.655	179.705	138.606	200.901	149.064	138.826	144.062	268.898	271.134	143.391	147.354	147.558	151.621	184.847	150.325	-8191	255	
2237.341	1	1	0	0	0.095653	0.32511	0.28916	0.28976	0.26307	0.37653	0.34159	0.25519	0.097987	0.08039	0.20174	0.14655	0.021325	0.19641	0.16429	0.16377	-2.4896	-3.0646	-3.0708	-2.8125	-3.0958	-2.8771	-3.0229	-3.3583	-2.9479	-3.0979	-3.1021	-3.0312	-3.1354	-2.9917	-2.9042	-3.4792	368.034	317.539	439.625	336.142	460.235	230.188	424.980	470.430	241.388	300.818	350.559	164.740	430.747	129.400	173.406	474.537	0.0031331	0.00034259	0.00021283	736.05	1.0883e-05	1.0534e-05	1037.8	246.16	1.9361e-05	8.0946e-06	456.91	197.06	97.95	44.151	5.2313e-06	112.12	0.0038233	0.0043069	0.0012028	773.14	4.5981e-05	4.7446e-05	1031.9	247.17	4.4648e-05	4.6697e-05	458.9	194.75	102.67	44.798	4.4239e-05	112.12	440.413	129.604	248.214	138.736	250.166	283.315	138.586	143.852	265.543	358.027	143.514	147.274	146.892	151.758	295.288	150.370	-8191	255	
2237.437	1	1	0	0	0.11056	0.14921	0.2136	0.15614	0.10352	0.069792	0.0018969	0.2771	0.06651	0.29778	0.17932	0.061495	0.16883	0.31164	0.10211	0.45393	-2.5563	-3.0208	-3.1333	-2.85	-3	-2.9771	-3.0125	-3.3063	-3.0458	-3.0458	-3.3125	-2.9542	-3.1521	-3.0167	-2.9521	-3.4417	312.125	475.857	153.640	445.494	270.939	141.341	180.000	410.118	396.778	216.636	467.319	447.955	242.533	464.582	455.427	408.356	0.0034768	0.0010121	0.00032138	739.49	1.0653e-05	1.9904e-05	1040.9	247.59	2.8292e-05	8.9742e-06	458.72	196.3	96.754	44.126	2.126e-05	112.2	0.0037161	0.0041277	0.0011567	774.07	4.4704e-05	4.605e-05	1033.7	247.84	4.3716e-05	4.5932e-05	458.21	194.59	102.4	44.688	4.4386e-05	111.84	433.858	200.251	215.500	138.608	227.286	272.819	138.544	143.926	236.342	270.783	143.381	147.325	147.316	151.673	237.803	150.560	-8191	255	
2237.558	1	1	0	0	0.38077	0.057979	0.22426	0.094473	0.25127	0.15373	0.12119	0.38071	0.099461	0.2152	0.066263	0.28586	0.047749	0.089325	0.11763	0.11542	-2.4562	-2.8521	-3.0812	-2.9104	-3.25	-2.8875	-3.1229	-3.1458	-2.9688	-2.9146	-3.3583	-2.9938	-3.1688	-3.3042	-2.8083	-3.4083	297.311	482.267	266.416	214.802	200.291	417.713	383.953	404.262	314.054	375.988	277.318	465.771	302.572	164.399	216.725	444.309	0.0034159	0.00092986	0.00016498	737.45	1.4636e-05	1.3639e-05	1040.2	246.99	2.0207e-05	2.2939e-06	456.94	196.41	97.014	44.315	1.4485e-05	112.18	0.0037314	0.0041199	0.0011546	770.98	4.4589e-05	4.6061e-05	1031.5	247.72	4.3799e-05	4.6195e-05	458.32	194.26	102.22	45.03	4.4532e-05	112.23	436.899	210.862	215.455	138.592	212.677	283.866	138.871	143.947	279.953	427.843	143.464	147.305	147.125	151.771	333.969	150.591	-8191	255	
2237.652	1	1	0	0	0.18018	0.16505	0.16201	0.072532	0.063406	0.30064	0.20793	0.14327	0.10497	0.14917	0.23478	0.31646	0.32493	0.20955	0.08304	0.20192	-2.5062	-2.8937	-3.0521	-2.9146	-3.0333	-3.1188	-3.0563	-3.2021	-3.0062	-2.9521	-3.2021	-3.0625	-2.9667	-3.1167	-2.6688	-3.3271	411.693	293.034	385.970	131.682	434.817	471.682	348.275	451.713	450.582	450.370	482.140	468.986	175.208	450.337	238.610	456.507	0.0034038	0.00062995	0.00018433	741.25	7.9431e-06	1.2875e-05	1044	247.76	1.8335e-06	7.3732e-06	458.85	196.23	97.27	44.417	1.2013e-05	112.82	0.0037666	0.0042067	0.0011582	774.92	4.5143e-05	4.6948e-05	1035.3	248.71	4.5097e-05	4.7546e-05	459.8	195.01	103.13	45.075	4.6497e-05	112.56	434.781	213.330	212.072	138.699	264.330	286.797	138.735	143.968	240.602	300.611	143.392	147.198	146.635	151.665	299.225	150.474	-8191	255	
2237.725	1	1	0	0	0.063961	0.22941	0.057471	0.2431	0.19758	0.078925	0.15632	0.27949	0.14574	0.13839	0.12004	0.17682	0.2015	0.14657	0.12786	0.12084	-2.6271	-2.8458	-3.1896	-2.9042	-2.9646	-3.3229	-3.0938	-3.2167	-2.9646	-2.9042	-3.175	-3.0708	-2.8958	-3.0708	-3.0125	-3.3646	386.387	283.971	429.551	398.467	259.668	312.046	356.313	445.641	226.759	247.527	145.412	431.651	164.008	352.067	342.969	474.050	0.0033137	0.00066934	7.6115e-05	747.5	8.9376e-06	5.6175e-06	1046.3	248.04	1.2633e-05	1.192e-05	460.1	197.29	97.555	44.553	1.0533e-05	113.08	0.0039199	0.0043719	0.0012269	780.39	4.7226e-05	4.889e-05	1038.5	249.93	4.682e-05	4.9843e-05	462.2	195.77	103.83	45.396	4.8807e-05	113.23	440.506	447.562	239.348	138.885	218.127	305.025	138.897	144.188	234.159	284.352	143.391	147.166	147.315	151.729	270.599	150.609	-8191	255	
2237.846	1	1	0	0	0.11886	0.15686	0.085115	0.14674	0.28289	0.13432	0.057566	0.047853	0.13679	0.25967	0.27234	0.18932	0.24976	0.1107	0.12682	0.055929	-2.5854	-2.7167	-3.1396	-2.9896	-2.8667	-3.1042	-3.0125	-3.1917	-2.9646	-2.9437	-3.1417	-3.1063	-2.9542	-3.3042	-2.8729	-3.1479	388.967	167.225	245.336	406.127	217.797	269.594	413.527	362.165	137.360	341.925	164.484	127.138	180.338	440.172	408.753	284.490	0.0032614	0.0010364	0.00029706	745.38	4.5805e-06	1.0567e-05	1047.7	248.35	1.9071e-05	9.8255e-06	456.44	196.07	98.056	44.337	1.3209e-05	112.96	0.0040267	0.0044741	0.0012505	783.44	4.7442e-05	4.9156e-05	1039.9	249.8	4.6919e-05	4.9191e-05	460.41	195.06	103.27	45.104	4.7561e-05	112.72	438.025	207.076	221.564	138.710	204.295	257.770	138.704	143.889	236.060	250.349	143.714	147.314	147.446	151.481	263.605	150.452	-8191	255	
2237.940	1	1	0	0	0.24597	0.33322	0.13581	0.14173	0.13977	0.02883	0.23453	0.094418	0.26794	0.18858	0.10463	0.33973	0.28192	0.13882	0.053007	0.2896	-2.6937	-2.9021	-3.2417	-2.9146	-2.9896	-3.2542	-3.0833	-2.9875	-3.0938	-2.8521	-3.2812	-3.1708	-2.9375	-3.3021	-2.9688	-3.1937	250.532	275.105	252.102	361.727	367.801	138.595	441.725	338.261	478.443	408.594	452.212	484.159	370.141	462.813	311.268	455.387	0.0036268	0.0006001	0.00022808	740.9	5.1046e-06	1.5036e-05	1048.1	247.19	1.2953e-05	6.4987e-06	457.92	196.18	97.384	44.707	2.1195e-05	113.44	0.0039894	0.0044136	0.0012444	780.96	4.8025e-05	4.9303e-05	1037.9	249.24	4.632e-05	4.8471e-05	459.92	195.18	103.14	45.364	4.6771e-05	113.14	438.344	144.478	205.037	138.543	281.353	222.964	138.655	144.003	326.005	163.521	143.300	147.367	147.197	151.744	271.806	150.405	-8191	255	
2238.037	1	1	0	0	0.28266	0.041929	0.13975	0.22247	0.18077	0.09523	0.18	0.19139	0.26093	0.17233	0.15977	0.2574	0.17485	0.18171	0.11615	0.39342	-2.7208	-2.7104	-3.0521	-3.175	-2.8125	-3.2271	-3.0312	-3.0542	-3.2625	-3.0208	-3.0687	-3.275	-2.8438	-3.4062	-3.0396	-3.1771	155.634	410.667	377.340	186.503	343.675	414.014	177.706	471.766	305.469	403.272	156.057	444.113	174.818	466.945	137.483	428.428	0.0033475	0.00057526	0.00024122	746.88	1.3797e-05	4.3251e-06	1049.3	249.99	1.5555e-05	1.9569e-05	460.09	197.34	98.41	44.832	1.6679e-05	114.09	0.0038477	0.0042453	0.0011937	779.97	4.5873e-05	4.7681e-05	1040.6	250.68	4.5608e-05	4.7354e-05	462.33	195.93	103.82	45.578	4.6191e-05	113.69	440.286	434.780	251.105	138.429	302.805	200.332	138.672	144.313	286.496	285.717	143.348	147.518	147.561	151.483	292.020	150.314	-8191	255	
2238.133	1	1	0	0	0.12207	0.19063	0.15234	0.12843	0.13582	0.16166	0.18584	0.10361	0.23854	0.034146	0.13501	0.15967	0.19261	0.17804	0.014733	0.1218	-2.6875	-2.775	-3.0312	-3.0687	-2.8187	-3.2583	-3.0667	-3.0687	-3.2062	-2.7854	-3.175	-3.2875	-3.0604	-3.1458	-3.0812	-3.0854	482.197	312.056	449.584	153.443	262.374	465.783	408.845	463.358	466.982	153.787	154.888	129.191	443.632	444.603	426.877	428.172	0.0033174	0.0008181	0.00041176	746.15	1.4213e-05	5.8166e-06	1046.5	250.73	1.588e-05	6.4666e-06	460.71	198.36	99.284	45.137	7.2892e-06	114.15	0.00386	0.0042445	0.0012073	783.12	4.5981e-05	4.7703e-05	1041.9	251.9	4.5887e-05	4.7756e-05	463.89	197.04	104.37	45.924	4.636e-05	114.32	437.097	220.448	164.423	139.487	317.246	220.734	138.671	144.192	247.865	277.763	143.557	147.191	146.880	151.957	306.721	150.348	-8191	255	
2238.253	1	1	0	0	0.19309	0.19108	0.10156	0.19339	0.13118	0.26253	0.32599	0.15567	0.32399	0.12426	0.23076	0.17394	0.057414	0.102	0.071927	0.21545	-2.8812	-2.8312	-3.1625	-3.2521	-2.9021	-3.1437	-3.2771	-2.8729	-3.1208	-2.7417	-3.1646	-3.3958	-2.6771	-3.2188	-3.1354	-2.8646	276.945	384.550	362.904	455.326	334.843	368.257	467.972	416.943	132.593	150.450	401.068	435.389	296.386	222.584	331.111	388.912	0.0034049	0.0010097	0.00035222	745.82	9.7393e-06	1.1977e-05	1050.4	250.46	1.3832e-05	5.8886e-06	462.35	197.82	97.807	44.973	1.0705e-05	113.47	0.0038398	0.0042952	0.0012071	782.91	4.5909e-05	4.7313e-05	1043.5	251.82	4.4826e-05	4.7507e-05	463.37	196.36	103.6	45.733	4.5861e-05	113.37	442.698	219.860	236.070	138.647	196.727	285.617	138.844	143.919	249.425	340.248	143.236	147.363	147.145	151.823	294.541	150.429	-8191	255	
2238.325	1	1	0	0	0.089157	0.14339	0.028878	0.079509	0.045393	0.12195	0.36272	0.07623	0.16053	0.17239	0.28131	0.09719	0.11521	0.31137	0.20033	0.13892	-2.7875	-2.9062	-2.8521	-3.1937	-2.9021	-3.2417	-3.2875	-3.0021	-3.3458	-2.9271	-3.0521	-3.2979	-3.0125	-3.1562	-3.0896	-3.1854	389.111	457.309	424.782	448.452	258.582	443.870	432.806	200.372	316.642	399.670	481.357	442.583	152.684	430.515	328.162	145.189	0.0036156	0.00029748	0.00032338	750.4	7.8836e-06	7.7558e-06	1050	250.13	1.7992e-05	5.2101e-06	460.47	196.76	98.048	45.123	1.0838e-05	113.38	0.0038276	0.0042707	0.0011846	780.2	4.496e-05	4.6528e-05	1039.7	250.46	4.4081e-05	4.686e-05	460.8	194.98	103.15	45.754	4.5796e-05	113.3	441.506	258.206	208.824	139.025	249.451	333.898	138.637	144.026	277.443	273.218	143.198	147.265	146.754	151.527	260.533	150.602	-8191	255	
2238.421	1	1	0	0	0.2191	0.095185	0.16671	0.037235	0.12154	0.06924	0.091385	0.32912	0.12395	0.12796	0.15213	0.23053	0.026772	0.33856	0.14377	0.23995	-2.8	-2.9167	-2.7896	-3.1708	-2.9729	-3.2396	-3.2646	-2.9708	-3.2188	-3.0125	-2.9417	-3.3083	-2.8646	-3.0854	-3.2438	-2.9062	134.564	138.517	455.727	378.519	381.812	348.422	439.714	431.113	434.417	139.204	449.885	442.353	344.363	128.957	333.536	442.128	0.0034935	0.00094234	0.00022259	744.39	1.191e-05	2.1481e-05	1048.9	250.48	1.5603e-05	1.5834e-05	460.59	196.55	98.088	45.096	1.1352e-05	114.23	0.0038471	0.0042676	0.0011931	780.68	4.589e-05	4.7042e-05	1038.7	250.81	4.5079e-05	4.7223e-05	461.71	195.65	103.39	45.832	4.5585e-05	113.98	438.567	226.679	211.411	138.524	222.778	281.108	138.615	143.881	261.291	229.080	143.430	147.262	147.121	151.776	308.565	150.570	-8191	255	
2238.517	1	1	0	0	0.12389	0.25584	0.17695	0.10389	0.22165	0.27709	0.33314	0.10172	0.10474	0.19013	0.41096	0.41611	0.013327	0.079396	0.097587	0.24	-2.7833	-2.9833	-2.8667	-3.1375	-3.1271	-3.025	-3.2771	-2.9188	-3.0833	-3.0771	-3.1188	-3.3667	-3.0729	-2.9479	-3.3208	-3.1333	401.145	332.938	139.238	201.364	192.226	296.172	464.014	335.708	271.626	272.431	415.669	466.160	183.268	316.030	419.057	419.581	0.003526	0.00072164	0.00032323	749.58	2.1212e-05	7.3594e-06	1051.6	249.92	1.0324e-05	1.2131e-05	459.36	197.61	99.078	45.266	1.7358e-05	113.89	0.0038321	0.004266	0.0011859	783.6	4.5679e-05	4.6817e-05	1042.3	251.35	4.4559e-05	4.7106e-05	461.93	196.22	103.89	45.906	4.5652e-05	113.97	436.108	253.503	214.342	138.957	252.301	286.125	138.761	143.972	139.010	297.791	143.575	147.211	146.677	151.639	282.988	150.256	-8191	255	
2238.638	1	1	0	0	0.065653	0.11637	0.26267	0.07303	0.039214	0.075548	0.18466	0.32497	0.095193	0.09972	0.22148	0.15969	0.034814	0.16359	0.039955	0.055566	-2.5104	-2.9042	-2.8896	-3.3167	-3.1083	-2.8771	-3.3708	-3.0542	-3.0292	-3.2562	-3.0604	-3.2292	-2.9896	-2.975	-3.1042	-3.3167	315.660	314.762	318.088	349.945	165.827	205.101	356.131	456.629	212.888	145.106	147.050	477.790	301.455	468.663	180.974	476.428	0.003328	0.00029087	0.00021313	750.61	1.2487e-05	9.4513e-06	1046.7	248.79	1.5664e-05	1.0641e-05	459.64	197.13	98.665	45.231	1.868e-05	114.08	0.0037932	0.0041885	0.0011716	784.19	4.4871e-05	4.6504e-05	1039.2	250.75	4.4179e-05	4.5925e-05	460.38	195.26	103.29	45.776	4.3675e-05	113.46	436.752	199.882	196.028	138.848	228.248	277.088	138.721	144.032	243.142	340.579	143.790	147.352	147.202	151.667	237.974	150.488	-8191	255	
2238.734	1	1	0	0	0.056049	0.28852	0.095487	0.14773	0.15839	0.15346	0.23743	0.092404	0.13746	0.10431	0.22989	0.15471	0.038314	0.19733	0.1886	0.078964	-2.6583	-3.05	-2.6708	-3.3229	-3.0187	-3.1063	-3.4229	-2.8917	-3.0896	-3.2438	-3.1854	-3.3021	-3.0521	-3.0396	-3.2438	-3.1312	249.340	174.822	354.765	250.603	154.839	323.660	485.318	470.194	458.967	311.897	394.396	158.666	449.596	402.377	380.111	151.903	0.0033173	0.0012476	0.00013373	744.06	1.6559e-05	3.718e-06	1050.1	250.11	1.4245e-05	8.1994e-06	458.56	196.74	98.551	45.245	6.1092e-06	113.95	0.0036948	0.0039842	0.0011283	779.17	4.3052e-05	4.3744e-05	1037.6	250.94	4.1317e-05	4.3551e-05	459.61	195.18	103.01	45.853	4.1542e-05	113.54	442.292	211.082	201.282	138.463	255.585	283.874	138.853	143.790	279.036	263.770	143.309	147.474	147.053	151.646	303.380	150.207	-8191	255	
2238.828	1	1	0	0	0.32425	0.12256	0.083162	0.10591	0.30001	0.40914	0.051993	0.17717	0.21827	0.16225	0.33718	0.23863	0.058651	0.090599	0.16625	0.34191	-2.5812	-3.25	-3.0083	-3.1958	-3.1063	-2.8812	-3.4542	-3.0333	-3.0062	-3.35	-2.9146	-3.1271	-2.9813	-2.9521	-3.0646	-3.1042	166.676	434.187	445.703	165.958	332.651	243.297	389.686	418.263	401.349	222.198	450.108	477.336	137.514	417.513	328.214	427.589	0.0034621	0.0008666	0.00020924	750.45	1.0651e-05	2.9029e-06	1048.3	251.34	1.0647e-05	7.2065e-06	463.43	198.99	99.789	45.599	1.0433e-05	114.66	0.0035132	0.0039179	0.0010864	779.1	4.1563e-05	4.2872e-05	1039.2	251.5	4.0358e-05	4.2118e-05	462.29	196.85	103.74	46.116	4.1787e-05	114.39	434.203	180.728	251.094	138.870	274.225	407.176	138.610	143.885	297.529	288.958	143.267	147.285	146.598	151.574	261.799	150.459	-8191	255	
2238.926	1	1	0	0	0.20055	0.25577	0.26665	0.080947	0.14968	0.057659	0.15525	0.0057562	0.17979	0.19909	0.10383	0.12644	0.36334	0.161	0.1807	0.27599	-2.4792	-3.175	-2.9875	-3.0229	-3.0625	-2.9333	-3.3292	-3.0771	-2.9729	-3.2583	-3.2271	-3.2062	-3.1333	-3.0979	-3.1875	-3.1063	357.468	193.674	299.119	169.260	165.936	384.422	442.029	216.838	203.276	231.264	133.220	421.680	421.088	175.249	380.832	452.058	0.0033312	0.00088787	0.00024067	749.34	1.8172e-06	1.7171e-05	1052.3	250.87	2.1759e-05	3.2308e-06	463.47	199.18	99.574	45.827	8.5298e-06	115.26	0.0035106	0.0038897	0.0010919	779.95	4.1963e-05	4.3038e-05	1041.1	251.88	4.0548e-05	4.272e-05	463.12	197.09	103.55	46.336	4.1352e-05	114.85	434.594	220.491	200.411	139.235	256.959	292.999	138.656	144.116	258.883	335.992	143.786	147.458	147.076	151.873	252.799	150.272	-8191	255	
2239.021	1	1	0	0	0.12838	0.17181	0.08275	0.26752	0.14721	0.36681	0.012137	0.05484	0.14674	0.14089	0.20522	0.39113	0.26309	0.08814	0.14362	0.334	-2.2188	-3.0938	-2.8958	-3.0625	-3.0854	-2.8292	-3.2896	-3.25	-2.9917	-3.1417	-3.1667	-3.125	-3.1063	-2.9688	-3.0979	-3.2167	425.067	281.202	275.864	461.612	478.670	371.859	188.552	228.945	220.854	202.088	485.422	480.549	409.954	136.765	368.683	422.415	0.003428	0.00058379	0.00036483	752.86	9.4774e-06	1.6058e-05	1056.2	253.67	1.8565e-05	6.872e-06	461.84	198.13	98.694	45.506	1.8454e-05	114.7	0.00353	0.0038696	0.0010867	781.71	4.1692e-05	4.3008e-05	1044.8	253.19	4.0726e-05	4.2861e-05	461.97	195.95	102.83	46.077	4.1406e-05	114.17	437.341	255.828	187.884	138.421	311.628	274.072	138.675	143.688	266.452	297.217	143.362	147.337	147.250	151.627	237.523	150.498	-8191	255	
2239.117	1	1	0	0	0.024619	0.097025	0.15928	0.1216	0.10005	0.1284	0.050366	0.091204	0.16742	0.20201	0.19698	0.039231	0.057529	0.21845	0.13233	0.20507	-2.2979	-3.175	-2.9521	-3.0083	-3.1312	-2.9562	-3.2562	-3.1354	-2.9229	-3.1479	-3.0792	-3.1167	-3.1708	-2.9188	-3.0979	-3.3854	409.791	398.033	289.715	425.221	179.323	322.258	326.422	306.763	331.587	141.203	458.335	462.636	336.724	243.322	338.851	136.329	0.0033366	0.0015422	0.00025952	746.14	1.8021e-06	8.6587e-06	1049.1	252.89	3.8616e-05	2.7055e-06	456.96	196.27	97.838	45.507	1.7406e-05	114.9	0.0034472	0.0038454	0.0010709	777.06	4.1099e-05	4.2582e-05	1036.5	251.41	4.0533e-05	4.2124e-05	458.39	194.53	101.96	45.972	4.0924e-05	114.08	441.776	255.298	233.773	138.521	167.260	214.260	138.724	143.782	238.947	188.528	143.128	147.355	146.771	151.740	303.761	150.345	-8191	255	
2239.238	1	1	0	0	0.154	0.086968	0.12258	0.09218	0.06645	0.087532	0.1895	0.1116	0.14212	0.2092	0.15671	0.13176	0.12167	0.16857	0.26621	0.30009	-2.4229	-3.2021	-2.7875	-2.8438	-3.1125	-3.0292	-2.9833	-3.3042	-2.7375	-3.1437	-3.2396	-2.9354	-3.3063	-2.9562	-3.1479	-3.3229	316.510	283.357	307.827	477.534	357.981	367.609	437.165	158.646	215.829	447.817	395.712	418.566	427.953	446.402	344.257	145.380	0.0035713	0.0011184	0.00036481	755.5	9.4332e-06	1.7585e-06	1050.3	251.18	2.3718e-05	1.053e-05	461.69	198	99.81	45.917	1.7403e-05	115.59	0.0034585	0.0038145	0.0010596	777.92	4.0453e-05	4.17e-05	1037.3	251.41	3.9691e-05	4.2023e-05	461.28	195.94	102.99	46.278	4.0181e-05	114.97	434.363	255.200	208.596	139.086	235.134	302.744	138.381	143.775	286.232	270.741	143.457	147.037	147.493	151.594	250.766	150.164	-8191	255	
2239.334	1	1	0	0	0.19227	0.2285	0.2154	0.15216	0.24933	0.070185	0.2685	0.1406	0.2781	0.13811	0.19779	0.208	0.2466	0.14217	0.20217	0.29891	-2.4646	-3.2562	-2.9521	-2.9875	-3.2667	-2.9562	-3.0354	-3.1979	-2.7833	-3.0438	-3.1771	-2.9437	-3.4	-3.2292	-2.9667	-3.325	128.296	209.287	264.402	364.894	237.052	370.365	470.535	459.454	405.080	167.001	452.559	180.314	242.286	443.084	420.569	432.036	0.0033633	0.00061795	0.00013891	753.86	1.1235e-05	6.9982e-06	1056.9	252.46	1.4947e-05	7.053e-06	465.2	198.91	99.502	46.258	2.0347e-05	115.74	0.0034171	0.0037659	0.001059	779.4	4.024e-05	4.1607e-05	1044	252.36	3.8463e-05	4.0966e-05	463	197.09	103.56	46.507	3.9707e-05	115.29	437.914	235.680	256.505	138.303	242.606	147.245	138.542	144.089	281.772	175.133	143.396	147.321	147.082	151.615	286.907	150.281	-8191	255	
2239.430	1	1	0	0	0.11026	0.17015	0.17515	0.025669	0.057365	0.17067	0.14221	0.19258	0.15667	0.19619	0.36412	0.20351	0.1835	0.086761	0.14309	0.43598	-2.4021	-2.9021	-2.9229	-2.8729	-3.1646	-3.0833	-3.0708	-3.4562	-2.8708	-3.1542	-3.4188	-2.8583	-3.2271	-3.2771	-3.1208	-3.4333	279.850	168.330	327.508	449.606	375.273	376.947	472.714	470.953	380.620	377.785	421.221	394.005	151.731	439.389	203.381	436.095	0.0033673	0.00043476	0.00019263	752.78	1.2456e-05	7.9458e-06	1060	254.03	2.7967e-05	1.2612e-05	463.72	199.98	100.09	46.147	1.1468e-05	115.48	0.0034353	0.0037124	0.0010347	779.52	3.9639e-05	4.0958e-05	1047.7	253.66	3.9057e-05	4.0719e-05	463.48	197.53	103.44	46.495	3.8841e-05	114.81	434.796	218.790	240.598	139.015	194.224	264.930	138.731	143.921	268.954	248.046	143.404	147.386	147.126	151.479	253.957	150.435	-8191	255	
2239.526	1	1	0	0	0.044549	0.20735	0.2574	0.21967	0.095961	0.23912	0.057506	0.14195	0.24763	0.21192	0.1662	0.2271	0.13021	0.069012	0.06689	0.11358	-2.6792	-3.1667	-3.3187	-2.9646	-3.1792	-3.2104	-3.2542	-3.1792	-3.0875	-3.1354	-3.3812	-3.0521	-3.1917	-3.1063	-2.9146	-3.4979	480.405	228.246	184.640	484.862	343.999	202.127	317.068	128.358	329.749	185.506	155.408	430.626	340.150	405.410	397.783	463.323	0.0033363	0.00094076	0.00014194	752.57	1.4866e-05	9.8411e-06	1051.8	252.79	1.4853e-05	1.3782e-05	461	198.28	98.878	45.857	1.3962e-05	114.97	0.0033197	0.0036115	0.0010052	776.14	3.8886e-05	3.9521e-05	1040.7	251.7	3.7743e-05	3.9592e-05	460.77	196.11	102.76	46.248	3.8684e-05	114.76	437.234	235.058	256.751	138.666	249.995	235.867	138.855	144.135	403.306	202.663	143.233	147.366	146.712	151.617	252.090	150.430	-8191	255	
2239.622	1	1	0	0	0.16554	0.08786	0.20118	0.13458	0.041716	0.15685	0.073539	0.29969	0.036059	0.02947	0.29399	0.056824	0.037767	0.25746	0.13839	0.2561	-2.2938	-2.8854	-3.0854	-2.8042	-3.1979	-3.1625	-3.1688	-3.3521	-3.075	-3.1104	-3.2146	-3.0604	-3.3	-3.2875	-2.8375	-3.5062	271.123	154.159	354.409	469.562	333.167	345.568	399.636	298.251	398.534	169.237	132.780	239.633	339.549	188.041	134.555	464.350	0.0035887	0.00084119	0.00033676	753.69	9.2709e-06	5.7393e-06	1058.3	253.47	2.3707e-05	9.0883e-06	461.71	200.39	99.15	46.023	6.6337e-06	116.12	0.0032987	0.0035731	0.0009926	776.2	3.8265e-05	3.9509e-05	1042.1	252.55	3.7401e-05	3.9074e-05	462.63	197.21	103.01	46.503	3.8623e-05	115.26	439.221	218.213	226.945	138.843	369.303	262.298	138.549	143.804	238.323	284.834	143.483	147.195	147.209	151.731	338.565	150.475	-8191	255	
2239.718	1	1	0	0	0.092264	0.17882	0.34022	0.1752	0.15402	0.088137	0.14646	0.25477	0.12023	0.1155	0.14223	0.14214	0.19698	0.40226	0.14763	0.20223	-2.7042	-3.1083	-3.25	-3.0979	-3.0875	-3.2792	-3.1583	-3.3375	-3.2354	-2.8937	-3.2979	-3.0979	-3.2	-3.3104	-2.9292	-3.3438	396.079	207.982	440.193	335.921	332.264	308.147	429.808	457.341	280.744	196.168	126.343	418.125	270.052	449.752	255.858	463.973	0.0034556	0.0014879	0.00024453	754.58	8.4028e-06	8.8349e-06	1057.5	255.31	1.4405e-05	1.7535e-06	464.49	200.42	100.8	46.347	6.8863e-06	116.25	0.0032931	0.0036023	0.0010113	781.63	3.8706e-05	3.9841e-05	1045.8	254.52	3.7643e-05	3.9728e-05	463.87	198.02	103.91	46.774	3.8663e-05	115.77	437.588	207.946	203.702	138.898	310.532	283.005	138.723	143.742	288.658	408.443	143.593	147.272	147.115	151.638	255.624	150.523	-8191	255	
2239.814	1	1	0	0	0.12585	0.16008	0.068051	0.12715	0.081213	0.23431	0.22964	0.12634	0.34709	0.26092	0.44534	0.3223	0.019891	0.19612	0.12086	0.21096	-2.6437	-2.9	-3.2313	-3.0896	-3.0021	-3.4292	-3.0125	-3.1958	-3.0375	-3.1875	-3.3708	-3.0771	-3.1188	-3.2938	-2.825	-3.3354	204.058	433.255	341.863	232.465	146.800	456.613	411.039	457.945	463.903	376.042	414.431	454.582	429.382	477.370	256.746	433.985	0.0034002	0.00069502	0.00024955	755.58	1.3269e-05	1.0483e-05	1061.8	255.88	1.0779e-05	1.0269e-05	465.18	200.73	100.09	46.497	1.2881e-05	116.22	0.0033271	0.0035951	0.0010199	781.63	3.9105e-05	4.0554e-05	1049.5	254.89	3.8676e-05	4.03e-05	465.56	198.01	103.52	46.801	3.905e-05	115.58	440.893	179.055	150.653	138.758	299.132	304.402	138.607	143.964	224.641	269.447	143.353	147.067	147.606	151.515	287.682	150.342	-8191	255	
2239.909	1	1	0	0	0.25787	0.15338	0.16613	0.21741	0.11947	0.076681	0.20589	0.21345	0.26772	0.13806	0.098384	0.13723	0.26466	0.25077	0.099259	0.19717	-2.8125	-2.9625	-3.0667	-3.175	-2.8167	-3.2333	-2.9458	-3.2104	-3.1667	-2.9313	-3.3187	-3.2417	-2.8458	-3.1771	-3.0833	-3.2062	432.898	334.045	401.159	325.001	308.558	370.276	372.032	201.103	326.304	434.850	233.246	431.663	179.172	443.226	380.603	457.694	0.0033487	0.00080342	0.00027464	754.94	1.3092e-05	5.3907e-06	1052.9	253.46	1.4911e-05	1.3922e-05	462.02	197.96	99.331	45.966	1.5887e-05	115.12	0.0033102	0.0035965	0.0010184	779.16	3.8897e-05	4.0121e-05	1041.7	253	3.8449e-05	4.025e-05	460.75	196.15	102.75	46.499	3.9217e-05	114.98	439.263	238.982	170.375	138.588	238.261	184.401	138.999	143.899	286.285	280.131	143.393	147.301	146.826	151.511	263.023	150.337	-8191	255	
2240.029	1	1	0	0	0.19615	0.13523	0.069351	0.27393	0.19157	0.25492	0.2097	0.017352	0.17708	0.083951	0.087217	0.083284	0.15246	0.043301	0.13889	0.38129	-2.6562	-2.8937	-3.1604	-3.2146	-2.8292	-3.2021	-3.1771	-3.2396	-3.1542	-3.0354	-3.4167	-3.1146	-2.8979	-3.3063	-2.8604	-3.0833	255.317	396.612	193.569	423.907	469.214	231.749	416.347	443.168	261.004	455.722	375.026	357.085	262.840	482.333	422.135	406.908	0.0033261	0.00062011	0.00019176	750.4	1.2868e-05	8.8114e-06	1054	253.42	1.7075e-05	9.6338e-06	463.92	199.08	100.01	46.287	1.1628e-05	116.25	0.0033269	0.003619	0.0010187	777.92	3.8479e-05	3.9317e-05	1041.8	252.75	3.7685e-05	3.9908e-05	463.3	196.82	103.17	46.752	3.8462e-05	115.67	434.006	264.302	195.375	138.779	282.519	283.194	138.614	144.128	265.723	253.273	143.487	147.136	147.055	151.711	263.917	150.238	-8191	255	
2240.126	1	1	0	0	0.24117	0.15467	0.12125	0.1084	0.15965	0.14281	0.21493	0.24619	0.13031	0.1887	0.17793	0.11518	0.092478	0.23665	0.1188	0.38265	-2.7021	-2.8208	-3.1833	-3.2292	-2.8104	-3.2625	-3.1021	-3.1354	-3.1625	-2.7729	-3.2	-3.1542	-2.6771	-3.3187	-3	-3.2042	338.329	423.609	172.522	183.598	224.738	397.569	406.885	413.335	363.270	395.770	183.476	296.986	445.951	128.592	420.959	424.946	0.0034671	0.00046241	0.00031618	759.11	1.0629e-05	7.837e-06	1060.1	254.81	1.4655e-05	7.0383e-06	465.69	201.77	100.28	46.72	8.8188e-06	116.88	0.0033368	0.0036318	0.0010062	779.91	3.9046e-05	4.0258e-05	1047.5	254.3	3.8042e-05	3.9833e-05	464.93	198.3	103.94	46.977	3.9262e-05	116.37	439.569	264.156	210.750	138.612	268.350	280.025	138.662	143.781	239.588	339.835	143.378	147.209	147.237	151.943	259.882	150.317	-8191	255	
2240.199	1	1	0	0	0.40222	0.29091	0.065864	0.21178	0.16042	0.19411	0.15217	0.20877	0.12376	0.12991	0.25689	0.13196	0.24571	0.071646	0.22222	0.28859	-2.8104	-3.0292	-3.05	-3.1146	-3.1833	-3.2625	-3.2229	-3.2542	-3.1729	-2.9854	-3.3771	-3.2125	-2.9688	-3.3063	-2.9688	-3.1458	424.865	202.115	286.909	338.075	370.175	462.456	423.238	311.627	134.500	365.633	453.860	386.807	151.286	313.671	139.476	474.969	0.0035833	0.0012369	0.00014822	758.85	1.2219e-05	3.5284e-06	1065.7	257.83	1.6063e-05	9.5612e-06	468.48	201.81	100.59	46.716	9.1054e-06	117.55	0.0033246	0.0036223	0.0010137	781.72	3.8988e-05	3.9898e-05	1050.9	255.51	3.8495e-05	4.0163e-05	467.35	199.25	104.23	47.217	3.9584e-05	116.95	439.684	215.050	139.074	138.638	222.194	306.423	138.744	144.073	275.448	259.256	143.277	147.176	146.751	151.585	269.269	150.478	-8191	255	
2240.318	1	1	0	0	0.17868	0.082638	0.21062	0.079759	0.24632	0.16808	0.26785	0.11161	0.15283	0.053437	0.1278	0.24697	0.14199	0.24195	0.059489	0.14006	-2.7667	-2.8604	-2.9729	-3.3229	-2.9396	-3.1729	-3.1375	-2.9813	-3.2583	-2.8479	-3.1229	-3.3521	-2.9542	-3.3083	-2.9521	-3	396.876	469.013	218.109	394.428	459.567	275.141	339.255	364.750	301.457	470.288	398.020	365.638	277.867	153.691	223.339	129.733	0.0036415	0.0017898	0.00031674	755.28	1.5706e-05	5.9823e-06	1055.2	254.42	1.8337e-05	1.1403e-05	464.58	199.7	100.44	46.78	9.4687e-06	117.09	0.0033683	0.0036566	0.0010163	783.68	3.9404e-05	4.0923e-05	1045.1	254.28	3.8774e-05	4.0859e-05	464.72	197.3	103.81	47.168	4.014e-05	116.47	435.061	236.705	212.323	138.702	283.599	336.521	138.726	143.821	284.320	270.543	143.421	147.305	147.034	151.740	234.723	150.401	-8191	255	
2240.414	1	1	0	0	0.072737	0.22574	0.33268	0.0089623	0.065622	0.12283	0.20883	0.14986	0.15401	0.24507	0.3189	0.22168	0.16044	0.077676	0.016518	0.16296	-2.625	-2.9646	-2.8271	-3.1896	-2.8396	-3.0583	-3.1854	-2.825	-3.0604	-2.9917	-3.1521	-3.2812	-2.8271	-3.225	-2.95	-2.9896	378.948	434.577	311.059	267.026	353.678	416.347	475.678	466.409	253.182	368.186	443.304	178.138	250.197	478.333	160.615	379.737	0.0034086	0.001005	0.00021718	755.31	6.7122e-06	1.2629e-05	1060.2	256.78	2.1454e-05	1.3832e-05	467.19	200.67	100.11	46.883	9.0786e-06	117.65	0.0034321	0.0037638	0.0010593	784.19	4.0696e-05	4.1482e-05	1048.9	255.71	3.9814e-05	4.1704e-05	467.07	197.99	104	47.354	4.056e-05	117.07	439.742	226.384	203.097	138.490	268.354	302.816	138.823	143.966	234.173	277.275	143.349	147.161	147.016	151.649	232.512	150.325	-8191	255	
2240.510	1	1	0	0	0.17567	0.085696	0.076595	0.32272	0.092552	0.035808	0.18614	0.28608	0.22557	0.24737	0.033598	0.21914	0.27254	0.06923	0.24809	0.32192	-2.8479	-2.9396	-2.8812	-3.2125	-2.8146	-3.1792	-3.2229	-2.9292	-3.1562	-3.0333	-3.0146	-3.1771	-2.9021	-2.9646	-3.175	-3.025	193.478	209.576	149.772	133.207	345.763	420.829	224.064	446.164	276.897	169.820	184.514	129.820	189.288	204.622	374.183	429.753	0.0037966	0.00038656	0.00028744	756.56	1.6144e-05	7.5814e-06	1065.6	256.61	8.7172e-06	2.4304e-06	466.16	201.26	100.92	47.136	1.4795e-05	118.58	0.0034734	0.0037992	0.0010664	786.07	4.1461e-05	4.2574e-05	1053.6	256.43	4.0858e-05	4.2082e-05	467.98	198.97	104.62	47.696	4.137e-05	117.88	441.527	145.743	243.754	138.795	231.221	355.196	138.690	143.906	258.574	310.825	143.504	147.269	147.267	151.517	278.232	150.615	-8191	255	
2240.606	1	1	0	0	0.05158	0.04192	0.18986	0.25312	0.12484	0.19346	0.2125	0.14435	0.018509	0.11207	0.31358	0.25442	0.097793	0.21135	0.15879	0.24471	-2.5812	-2.9938	-2.7875	-3.2208	-2.7812	-2.9146	-3.4583	-2.8375	-3.0146	-2.9854	-3.0375	-3.0625	-3.1542	-2.9271	-3.0646	-3.2042	485.596	244.004	166.734	426.899	388.252	432.009	373.158	448.515	205.881	348.343	368.395	344.917	425.254	158.428	385.836	457.959	0.0033118	0.00079011	9.1822e-05	755.91	7.6248e-06	1.2294e-05	1065	258.02	2.1648e-05	7.5717e-06	469.42	201.62	101.61	47.409	8.9963e-06	118.68	0.0035756	0.0039022	0.0010968	788.97	4.3004e-05	4.3858e-05	1055.1	258.03	4.2042e-05	4.393e-05	470.43	199.73	105.46	48.023	4.3131e-05	118.37	437.091	249.850	234.945	138.651	277.684	270.783	138.525	143.925	224.265	296.060	143.500	147.378	147.397	151.802	242.913	150.663	-8191	255	
2240.727	1	1	0	0	0.1589	0.18733	0.06414	0.26007	0.28181	0.11738	0.33233	0.39103	0.33229	0.050527	0.23355	0.26541	0.2844	0.14354	0.35105	0.1045	-2.6604	-3	-2.9688	-3.2021	-2.9542	-2.9208	-3.2208	-3.0125	-3.1833	-2.9896	-2.975	-3.35	-2.9292	-3.0896	-3.1208	-3.0708	332.944	262.228	158.102	234.227	429.926	204.151	416.191	474.090	218.355	259.695	302.287	455.698	275.762	166.030	481.231	300.587	0.003657	0.0010333	0.0001917	759.61	1.126e-05	1.2337e-05	1068.8	256.75	1.255e-05	8.9459e-06	466.93	200.67	99.147	47.133	8.9355e-06	118.22	0.0036119	0.0039963	0.0011188	792.3	4.227e-05	4.3893e-05	1054.5	257.27	4.1924e-05	4.4173e-05	468.61	198.63	104.49	47.841	4.3762e-05	117.73	439.515	233.738	401.433	138.926	156.500	274.561	138.747	143.969	255.020	335.777	143.636	147.237	146.978	151.751	225.110	150.483	-8191	255	
2240.821	1	1	0	0	0.07191	0.045637	0.31748	0.17439	0.14112	0.22913	0.18852	0.18557	0.17447	0.14979	0.2776	0.44185	0.063055	0.10405	0.24569	0.18721	-2.7875	-3.0958	-2.9083	-3.2667	-3.1146	-3.0687	-3.3333	-3.1208	-3.0563	-3.1458	-3.075	-3.2021	-2.975	-2.9667	-3.1333	-3.0812	259.482	152.236	241.790	227.871	203.938	173.540	404.763	335.590	186.090	148.685	469.722	424.735	371.946	127.823	199.168	408.931	0.0033644	0.00038396	0.00018913	754.2	1.5057e-05	1.2074e-05	1060	257.38	2.471e-05	5.0415e-06	467.59	200.57	100.53	47.017	7.4199e-06	118.8	0.0036626	0.0040146	0.0011254	788.21	4.2713e-05	4.3915e-05	1051.6	257.21	4.1887e-05	4.4105e-05	467.66	198.74	104.68	47.87	4.318e-05	118.01	439.108	252.342	221.030	138.660	203.352	267.517	138.954	143.905	249.575	243.927	143.581	147.293	147.329	151.822	252.024	150.428	-8191	255	
2240.919	1	1	0	0	0.24938	0.11017	0.11656	0.11944	0.063839	0.11743	0.19967	0.26136	0.13449	0.34527	0.16586	0.36688	0.10729	0.13399	0.1258	0.16077	-2.5896	-3.3458	-2.7583	-3.25	-2.9042	-2.85	-3.3729	-3.0146	-2.9521	-3.2771	-2.9062	-3.2958	-3.0563	-3.1583	-3.2167	-3.1146	155.563	241.077	154.652	244.531	337.284	149.626	430.670	283.267	468.140	460.775	130.835	446.418	169.687	331.066	393.416	404.873	0.0031949	0.0013855	3.5927e-05	756.29	1.3113e-05	4.0468e-06	1065.9	257.31	1.6063e-05	1.886e-06	468.13	200.45	100.9	47.556	8.6693e-06	118.61	0.0036246	0.0040158	0.0011221	788.8	4.2865e-05	4.4295e-05	1054	257.27	4.1766e-05	4.4199e-05	468.85	199.15	105.12	48.093	4.3299e-05	118.62	437.242	181.436	345.551	138.857	235.426	406.668	138.922	144.023	277.680	452.122	143.424	147.271	147.190	151.685	317.100	150.370	-8191	255	
2241.014	1	1	0	0	0.14641	0.19226	0.076697	0.1542	0.1202	0.15144	0.18318	0.12713	0.18663	0.043552	0.14787	0.087798	0.1295	0.19605	0.25306	0.27187	-2.5354	-3.1063	-2.8563	-2.8958	-3.1312	-2.8563	-3.3396	-2.975	-2.9625	-3.2875	-3.0917	-3.2104	-3.1875	-2.8458	-3.1479	-3.3854	333.796	409.063	349.456	182.143	198.601	341.604	388.178	168.571	237.726	420.901	452.308	403.453	401.262	395.742	334.198	438.244	0.0034805	0.00046579	0.00010425	763.5	4.4893e-06	3.8164e-06	1064	257.9	1.6697e-05	7.9332e-06	471.35	202.04	101.24	48.112	1.6836e-05	119.49	0.0036646	0.0040597	0.001122	792.93	4.3163e-05	4.4214e-05	1055.9	258.35	4.2278e-05	4.4286e-05	470.72	199.66	105.26	48.399	4.3749e-05	119.26	436.537	233.426	296.439	138.748	469.276	223.274	138.941	143.929	252.690	246.445	143.515	147.337	147.648	151.561	289.055	150.404	-8191	255	
2241.110	1	1	0	0	0.19174	0.11043	0.13903	0.15035	0.25434	0.037274	0.18723	0.17041	0.13427	0.096508	0.07372	0.2084	0.018003	0.10242	0.19516	0.1639	-2.5687	-3.3208	-2.9437	-3.1146	-3.2292	-2.8646	-3.3083	-3.0875	-3.075	-3.175	-3.1646	-3.2521	-3.1146	-2.8583	-3.0563	-3.2562	485.226	245.949	404.476	468.087	451.781	246.108	418.051	195.947	301.685	416.998	442.451	385.991	269.245	414.235	480.151	447.931	0.0035551	0.00084639	0.00011654	761.3	1.1704e-05	4.9532e-06	1068.2	257.82	2.5462e-05	7.9275e-06	467.95	201.21	99.873	47.667	1.0152e-05	119.2	0.0036816	0.0040513	0.0011108	793.21	4.2501e-05	4.4226e-05	1057.9	258.17	4.2037e-05	4.4085e-05	469.49	198.97	104.81	48.226	4.3247e-05	118.54	436.380	267.447	179.259	138.831	285.848	309.650	138.727	143.857	206.447	251.459	143.403	147.261	146.883	151.641	283.223	150.495	-8191	255	
2241.206	1	1	0	0	0.10641	0.3244	0.16433	0.018749	0.095577	0.13629	0.20805	0.16687	0.084175	0.36093	0.30386	0.28913	0.054696	0.13937	0.31578	0.42579	-2.4833	-3.1771	-3	-3.1312	-3.225	-2.9104	-3.2396	-3.1396	-2.9396	-3.0917	-3.1125	-3.0479	-3.2562	-3.0729	-3.1208	-3.2542	203.228	152.487	390.421	437.794	273.642	296.786	369.079	475.100	330.288	221.501	467.707	144.978	167.081	479.579	478.026	459.249	0.0035192	0.00070486	6.7965e-05	758.86	6.5526e-06	5.6561e-06	1061.8	255.8	1.2476e-05	1.0694e-05	468.41	199.99	100.98	47.559	8.5827e-06	118.54	0.0036701	0.0040121	0.0011196	787.91	4.3076e-05	4.4766e-05	1051.9	256.84	4.2224e-05	4.4449e-05	466.95	197.84	104.8	48.17	4.3122e-05	118.33	437.396	154.441	148.946	138.790	255.595	241.921	138.834	144.253	245.359	303.112	143.323	147.314	146.988	151.797	250.282	150.389	-8191	255	
2241.327	1	1	0	0	0.1297	0.21777	0.43942	0.15687	0.07226	0.12405	0.26517	0.031247	0.13943	0.047405	0.36462	0.13885	0.21803	0.10017	0.098335	0.19303	-2.6104	-3.1937	-2.8625	-2.8688	-3.0104	-3.1104	-3.2271	-3.1562	-2.9167	-3.0583	-3.1208	-3.1479	-3.3042	-3.0292	-3.2458	-3.5312	441.959	151.025	472.955	326.780	159.407	288.860	140.541	194.203	315.759	225.462	469.241	437.621	143.893	446.860	166.496	436.589	0.0034719	0.0001319	0.00020531	756.34	8.3247e-06	1.0217e-05	1062.7	256.17	5.4264e-06	1.7312e-06	466.99	200.71	100.22	47.713	1.2718e-05	119.42	0.003639	0.0040399	0.0011094	789.41	4.3129e-05	4.4153e-05	1053.6	257.18	4.1454e-05	4.3723e-05	466.93	198.49	104.4	48.219	4.1855e-05	118.8	437.026	329.582	180.708	138.894	364.845	308.790	138.820	143.747	233.543	429.520	143.443	147.359	147.114	151.627	253.001	150.371	-8191	255	
2241.423	1	1	0	0	0.081882	0.15403	0.18604	0.05169	0.15152	0.026536	0.097001	0.16347	0.11627	0.10277	0.53383	0.061232	0.07778	0.085737	0.20668	0.27631	-2.3229	-3.1979	-3.1312	-2.9292	-3.3271	-2.9333	-3.1333	-3.15	-2.9417	-3.1437	-3.2146	-3.0208	-3.125	-3.3354	-2.9813	-3.25	393.480	478.597	418.580	387.077	130.983	358.135	465.838	436.405	161.490	396.846	438.366	480.964	428.693	137.383	418.833	438.926	0.0035343	0.0010855	9.8494e-05	769.87	1.1578e-05	3.6758e-06	1069.4	258.41	7.4817e-06	6.2328e-06	468.98	201.23	100.99	47.965	6.8883e-06	119.46	0.0035734	0.0039029	0.0010874	792.75	4.192e-05	4.3169e-05	1057.2	258.38	4.0609e-05	4.2413e-05	469.41	199.26	105.04	48.341	4.0714e-05	119.18	431.827	212.090	246.218	138.618	277.755	229.503	138.598	143.853	267.127	244.248	143.445	147.197	147.330	151.717	259.681	150.244	-8191	255	
2241.494	1	1	0	0	0.17846	0.063091	0.31097	0.13917	0.10049	0.096913	0.17016	0.19377	0.15544	0.23694	0.11592	0.3098	0.15703	0.14787	0.32237	0.11194	-2.4083	-3.2854	-2.8979	-2.8646	-3.2188	-3.0271	-3.1083	-3.3438	-3.1625	-3.0896	-3.1625	-3.0458	-3.2542	-3.2354	-2.8417	-3.45	287.171	482.623	440.322	459.360	187.513	258.462	376.989	130.681	190.408	368.105	450.182	413.294	172.389	137.248	142.269	485.354	0.0035313	0.0011946	0.00044153	758.39	7.015e-06	5.2705e-06	1068.8	259.42	2.8563e-06	1.5228e-05	467.67	201.87	100.48	47.878	5.3553e-06	119.76	0.0034632	0.0037664	0.0010446	788.76	3.9605e-05	4.0056e-05	1057.4	258.78	3.7657e-05	3.9862e-05	468.23	199.27	104.39	48.224	3.8487e-05	118.82	438.409	197.645	206.493	138.818	336.626	356.711	138.928	143.893	202.953	268.003	143.337	147.346	147.182	151.583	266.235	150.347	-8191	255	
2241.591	1	1	0	0	0.20162	0.12666	0.084631	0.19133	0.26631	0.091509	0.054673	0.17556	0.24469	0.077098	0.028791	0.35463	0.18026	0.17135	0.47061	0.22984	-2.4146	-3.0917	-3.1	-2.8417	-3.1562	-2.8542	-3.175	-3.3646	-2.8958	-3.0979	-3.0729	-2.7792	-3.2188	-3.1104	-2.9875	-3.4354	186.957	339.746	485.727	432.196	480.916	336.295	233.937	351.051	313.256	330.327	429.696	133.805	455.828	377.957	172.913	455.207	0.0035417	0.00057324	0.00010621	755.45	7.3069e-06	5.4071e-06	1065.6	258.16	7.3802e-06	1.4234e-06	466.97	200.53	101.18	47.741	5.2309e-06	119.18	0.003251	0.0035399	0.00097767	781.15	3.6924e-05	3.7978e-05	1048.9	256.54	3.6242e-05	3.7465e-05	464.95	198.03	103.68	47.89	3.612e-05	118.1	435.159	233.477	279.179	138.726	281.459	316.163	138.680	143.902	293.756	184.246	143.385	147.344	147.199	151.250	290.590	150.410	-8191	255	
2241.711	1	1	0	0	0.26452	0.12123	0.04823	0.28529	0.11691	0.06702	0.12486	0.1852	0.05662	0.11539	0.19964	0.46346	0.051152	0.18565	0.12023	0.33705	-2.4375	-3.0271	-3.2229	-2.9104	-3.0854	-3.1042	-3.1021	-3.2479	-3.175	-2.975	-3.3625	-2.9896	-3.2542	-3.1521	-3.0021	-3.25	320.272	168.302	312.469	321.293	368.127	294.985	383.837	403.854	259.892	156.965	437.260	425.615	317.555	140.241	267.329	444.895	0.0036085	0.0010245	0.00027364	762.19	2.4568e-06	9.2144e-06	1064.4	258.04	5.1744e-06	5.9629e-06	466.54	201.27	99.976	47.702	1.1463e-05	119.14	0.0031486	0.0033688	0.00094094	781.12	3.5908e-05	3.7304e-05	1047.3	256.88	3.5325e-05	3.7235e-05	463.95	197.9	102.86	47.874	3.5854e-05	118.35	437.505	230.703	190.129	139.133	304.887	315.325	138.774	143.883	325.407	285.603	143.334	147.311	147.181	151.603	238.280	150.336	-8191	255	
2241.806	1	1	0	0	0.37419	0.059894	0.11751	0.102	0.059981	0.03126	0.42854	0.34369	0.17697	0.17156	0.12704	0.22989	0.085256	0.25876	0.13863	0.10664	-2.4188	-3.0187	-3.0958	-2.9042	-3.0938	-3.2271	-3.1542	-3.3646	-2.9833	-3.0646	-3.3771	-3.0875	-3.0375	-3.2167	-3.0104	-3.2167	316.187	215.985	241.169	467.250	157.429	471.973	422.999	469.409	367.407	195.035	459.620	468.179	462.854	433.087	219.021	429.606	0.0036143	0.0006365	0.00023332	760.48	1.5278e-05	3.275e-06	1067.6	257.6	1.7163e-05	1.6e-06	466.88	200.98	100.26	47.892	1.0972e-05	119.89	0.0031108	0.0033694	0.00093075	780.85	3.6064e-05	3.6974e-05	1050	256.71	3.5142e-05	3.6863e-05	465.63	198.23	103.07	48.078	3.5828e-05	118.89	436.395	183.472	213.175	138.876	256.517	286.902	138.798	143.802	248.380	329.594	143.403	147.215	147.141	151.854	240.329	150.494	-8191	255	
2241.902	1	1	0	0	0.13326	0.08392	0.31256	0.2101	0.10144	0.054559	0.43526	0.21078	0.088984	0.23141	0.41756	0.27274	0.15934	0.11014	0.085067	0.12481	-2.4375	-2.8688	-3.1979	-2.7979	-2.9521	-3.1417	-2.9521	-3.1979	-2.9708	-2.7917	-3.3438	-3.0042	-3.0625	-3.1917	-2.8333	-3.4771	232.821	126.873	208.637	471.355	263.360	220.555	472.331	460.250	215.515	388.854	466.725	423.575	131.282	414.604	175.310	337.809	0.0033423	0.0011396	0.00012751	765.02	5.7086e-06	9.1273e-06	1068.5	259.2	1.6209e-05	5.6916e-06	470.85	201.78	100.8	48.265	4.7887e-06	119.94	0.003071	0.0033137	0.000924	784.27	3.5563e-05	3.7098e-05	1054.1	257.58	3.4987e-05	3.6817e-05	466.67	198.95	103.66	48.384	3.549e-05	119.06	435.194	252.278	300.181	138.717	266.977	229.131	138.829	143.900	332.310	243.969	143.463	147.106	146.993	151.844	251.327	150.271	-8191	255	
2242.000	1	1	0	0	0.073711	0.2219	0.25501	0.14374	0.28711	0.15336	0.13516	0.37843	0.24634	0.19336	0.12328	0.12881	0.23797	0.12662	0.1158	0.16988	-2.5854	-2.8958	-3.1021	-3.0187	-3.0271	-3.1104	-3.0542	-2.9938	-3.0667	-2.8542	-3.1375	-3.0875	-3.0479	-3.2646	-2.8604	-3.4667	420.031	370.072	292.358	138.952	156.809	309.098	434.834	434.852	201.921	227.396	416.124	411.538	394.918	207.402	232.836	426.141	0.0034692	0.00075253	0.00032846	762.98	1.8133e-05	6.2476e-06	1066.2	259.16	2.878e-06	1.0244e-06	465.86	201.15	100.31	47.866	6.2238e-06	119.56	0.0030618	0.0032795	0.00091702	782.47	3.5382e-05	3.6397e-05	1047	256.86	3.473e-05	3.6913e-05	463.21	197.63	102.77	47.999	3.4713e-05	118.6	439.640	254.055	250.666	139.079	265.252	312.154	138.840	144.146	386.698	297.454	143.434	147.229	146.763	151.613	293.588	150.305	-8191	255	
2242.094	1	1	0	0	0.29473	0.083024	0.045809	0.16747	0.42326	0.23642	0.2184	0.03981	0.10051	0.15337	0.24982	0.18126	0.089552	0.18041	0.23169	0.17363	-2.7396	-2.9771	-3.1208	-2.9521	-3.0104	-3.3229	-3.0771	-3.1604	-2.9813	-2.8125	-3.3396	-2.9938	-2.8375	-3.1562	-2.8812	-3.2021	309.287	249.918	253.515	372.745	257.690	346.464	404.970	232.210	450.789	134.206	404.764	388.061	259.887	435.688	377.374	407.669	0.0036722	0.00089309	0.00034572	758.03	1.3608e-05	1.2535e-05	1061.9	259.06	1.9956e-05	1.0141e-05	463.98	201.07	100.34	48.191	1.3373e-05	119.96	0.0030728	0.0032784	0.00090909	778.74	3.5049e-05	3.5525e-05	1046.9	256.43	3.372e-05	3.5589e-05	463.57	198.03	102.93	48.265	3.4119e-05	119.12	437.460	201.743	210.154	138.718	259.227	238.883	138.767	143.874	297.062	268.036	143.366	146.932	146.716	151.726	268.293	150.216	-8191	255	
2242.190	1	1	0	0	0.13844	0.28396	0.1651	0.14008	0.30691	0.12237	0.22535	0.12341	0.20048	0.13198	0.23	0.060016	0.039311	0.33429	0.084613	0.28235	-2.6813	-2.8333	-3.0646	-3.0438	-2.85	-3.3333	-3.1604	-3.0833	-3.3063	-2.8833	-2.9604	-3.0792	-3.0042	-3.2479	-2.85	-3.0854	426.617	167.940	231.329	278.698	153.336	462.671	467.953	481.474	276.537	189.063	344.175	348.724	192.274	471.420	311.468	466.362	0.003604	0.00091363	0.00010053	760	1.6588e-05	3.8611e-06	1066.1	260.41	2.09e-05	6.9612e-06	467.8	202.83	101.48	48.593	1.6981e-05	121	0.0030057	0.0032339	0.00090096	779.7	3.4386e-05	3.5374e-05	1049.5	258.17	3.3644e-05	3.4917e-05	466.15	199.27	103.81	48.542	3.4034e-05	119.9	440.301	205.432	244.745	138.880	250.764	292.976	138.736	144.035	206.799	235.073	143.347	146.980	147.206	151.720	243.413	150.215	-8191	255	
2242.286	1	1	0	0	0.073511	0.25769	0.12195	0.14172	0.11628	0.14798	0.27614	0.26654	0.29923	0.13299	0.25968	0.15971	0.15288	0.02987	0.12979	0.13933	-2.7438	-2.875	-3.0542	-3.1896	-2.8729	-3.3354	-3.2812	-3.0771	-3.1937	-2.9979	-3.2958	-3.1208	-2.7562	-3.3833	-3.0333	-3.1583	261.209	441.048	439.369	374.768	186.201	411.723	404.520	472.850	127.324	260.811	450.395	422.391	366.996	129.151	460.805	451.273	0.003564	0.0006433	0.0001589	766.33	9.9745e-06	8.2229e-06	1071.5	259.94	1.1734e-05	1.1309e-05	472.08	204.06	101.87	48.926	1.1575e-05	120.67	0.0029997	0.0031574	0.00089009	783.6	3.428e-05	3.5265e-05	1054	258.83	3.3824e-05	3.4971e-05	468.24	200.53	103.99	48.857	3.4194e-05	120.02	436.190	233.147	187.808	138.993	273.031	247.340	138.770	143.813	292.794	309.299	143.357	147.154	146.865	151.670	311.499	150.297	-8191	255	
2242.407	1	1	0	0	0.14884	0.097983	0.032618	0.061315	0.1908	0.28268	0.13166	0.32858	0.029378	0.20253	0.13269	0.20942	0.16466	0.11777	0.20558	0.28535	-2.8167	-2.9729	-3.0563	-3.3604	-3.0271	-3.2687	-3.2667	-3.0042	-3.3167	-2.8854	-3.1292	-3.1063	-2.7125	-3.2208	-3.0708	-3.0438	189.918	330.531	131.711	154.116	463.975	152.483	457.908	147.431	196.338	329.830	217.311	130.940	408.752	474.165	457.401	452.462	0.003418	0.00069034	0.0002301	763.38	1.1919e-05	7.7493e-06	1063.8	259.9	1.6102e-05	1.1556e-05	467.78	202.24	100.42	48.364	6.3082e-06	120.54	0.0029895	0.0031724	0.00089621	781.49	3.4201e-05	3.4977e-05	1050	257.98	3.3651e-05	3.5035e-05	465.53	198.56	103.19	48.478	3.4554e-05	119.55	434.999	263.616	225.361	138.506	276.383	293.733	138.754	144.143	270.738	289.952	143.287	147.167	147.282	151.626	267.534	150.326	-8191	255	
2242.503	1	1	0	0	0.078204	0.13681	0.19701	0.084727	0.32711	0.063785	0.20502	0.10989	0.2093	0.30864	0.22742	0.26242	0.11018	0.18443	0.057961	0.048422	-2.9271	-2.9479	-3.1813	-3.0812	-2.8229	-3.2333	-3.0812	-3.1583	-3.0646	-2.9958	-3.225	-3.3604	-2.8917	-3.1	-3.2521	-3.1021	355.749	189.523	219.718	462.037	382.974	458.996	362.956	362.707	242.872	427.740	455.286	454.206	485.421	409.662	233.162	413.528	0.0037039	0.0016798	0.00034557	764.61	1.5545e-05	1.0758e-05	1068.1	261.14	1.9802e-05	1.504e-05	471.12	203.48	102.09	48.932	1.4336e-05	121.27	0.0029998	0.003195	0.00088774	781.28	3.4219e-05	3.5279e-05	1051.6	258.9	3.3942e-05	3.627e-05	468.16	200.04	104.34	48.969	3.599e-05	120.32	437.239	232.918	168.953	138.845	293.220	339.900	138.685	143.756	253.807	239.335	143.313	147.013	147.481	151.497	249.241	150.282	-8191	255	
2242.599	1	1	0	0	0.048663	0.13453	0.19598	0.3444	0.088348	0.053941	0.064861	0.14068	0.1298	0.045124	0.18692	0.1939	0.26279	0.32238	0.1131	0.146	-2.7562	-2.8271	-2.925	-3.2542	-2.7625	-3.0792	-3.0875	-2.9792	-3.2542	-3.0687	-3.1833	-3.3229	-3.0292	-3.1354	-3.2083	-3.0146	397.793	259.221	267.349	187.670	372.962	245.782	470.743	397.121	384.438	366.670	151.897	288.836	383.906	443.502	281.473	368.322	0.0036357	0.0011612	0.0004664	772.73	1.964e-05	9.8761e-06	1073	263.91	3.0872e-06	1.2394e-05	474.63	205.44	104.16	49.677	1.4788e-05	122.83	0.003125	0.00336	0.00093659	788.45	3.5749e-05	3.6606e-05	1055.5	261.25	3.5114e-05	3.6814e-05	472.53	202.39	106.05	49.724	3.5492e-05	122.01	436.360	248.513	241.506	138.614	227.350	255.585	138.742	143.900	284.219	250.659	142.922	147.119	146.760	151.648	229.271	150.284	-8191	255	
2242.720	1	1	0	0	0.26341	0.080286	0.10585	0.30274	0.17268	0.15225	0.15362	0.10005	0.197	0.22356	0.11974	0.20387	0.020483	0.15313	0.15555	0.14844	-2.6354	-3.0187	-2.825	-3.0542	-2.8458	-3.1562	-3.25	-2.9792	-3.1813	-2.9521	-3.1271	-3.2354	-2.9688	-3.0396	-3.1875	-3.1146	138.044	461.492	199.859	459.176	371.596	451.529	423.302	403.644	243.927	317.839	249.104	128.006	229.499	425.989	300.809	363.170	0.0038001	0.00065459	0.00030066	771.12	1.1152e-05	7.5927e-06	1083.4	265.21	2.3487e-05	7.1155e-06	479.29	207.93	105.17	49.899	1.7914e-05	123.61	0.0030853	0.0033322	0.00092024	790.63	3.5832e-05	3.6709e-05	1064.3	263.46	3.4171e-05	3.6358e-05	475.33	204.58	107.18	50.108	3.471e-05	122.79	433.384	201.979	201.919	138.824	290.510	331.304	138.692	143.973	246.707	309.460	143.324	147.034	146.926	151.726	284.545	150.462	-8191	255	
2242.792	1	1	0	0	0.12084	0.099255	0.14961	0.075904	0.19062	0.19816	0.40371	0.073233	0.29943	0.15447	0.21551	0.13118	0.14951	0.17861	0.11478	0.36997	-2.7792	-2.9146	-2.7812	-3.1229	-2.7979	-3.15	-3.2542	-3.0792	-3.1604	-3.1458	-3.0792	-3.2062	-3.1688	-2.9896	-3.1542	-2.9542	464.279	391.450	484.768	397.324	135.590	126.667	404.338	189.853	281.630	217.888	475.730	195.803	339.217	135.060	468.973	420.828	0.0036161	0.00071176	0.00019029	770.71	7.3793e-06	5.9729e-06	1079.4	266	4.2042e-06	3.0175e-06	477.66	206.09	104.4	49.848	1.4672e-05	123.01	0.0029919	0.0032092	0.00089044	787.7	3.4053e-05	3.4772e-05	1062.1	263.29	3.2976e-05	3.4374e-05	474.05	203.25	106.42	49.93	3.3364e-05	122.1	438.405	190.143	235.422	138.906	281.266	276.514	138.820	143.980	290.774	269.621	143.296	147.172	146.723	151.576	253.151	150.316	-8191	255	
2242.888	1	1	0	0	0.039116	0.050315	0.0868	0.18305	0.047648	0.10047	0.25474	0.1003	0.17187	0.12745	0.14897	0.39085	0.014496	0.14575	0.036459	0.10261	-2.8042	-3.0479	-3.0646	-3.275	-3.0979	-2.9979	-3.4417	-3.0375	-3.1312	-3.3979	-3.0771	-3.4646	-3.0667	-3.1292	-3.2917	-3.2	393.041	127.688	283.294	197.792	241.909	467.480	383.304	407.893	348.544	164.684	460.978	470.091	141.885	401.141	168.874	423.965	0.0037279	0.00074281	0.00013223	767.36	5.0346e-06	7.2985e-06	1078.3	267.71	3.0353e-05	8.5833e-06	477.06	207.32	104.44	50.067	1.027e-05	123.55	0.0029	0.0030661	0.0008486	786.04	3.2417e-05	3.3254e-05	1059.4	264.13	3.1571e-05	3.2993e-05	473.18	203.93	106.27	50.116	3.1938e-05	122.53	439.322	235.042	176.730	138.661	260.472	373.509	138.571	143.886	269.643	291.224	143.218	146.866	147.125	151.411	265.974	150.193	-8191	255	
2243.007	1	1	0	0	0.29815	0.077548	0.12063	0.06457	0.087025	0.1571	0.16108	0.097909	0.16764	0.11595	0.069029	0.077964	0.21149	0.078135	0.26234	0.1249	-2.7667	-3.1333	-2.7812	-3.1625	-3.0167	-2.9521	-3.5667	-2.8854	-3.1021	-3.2979	-2.9125	-3.4208	-3.2	-3.0104	-3.3333	-3.0646	255.494	300.707	151.941	209.329	303.855	347.900	448.474	349.545	135.009	376.319	352.084	438.617	198.435	312.658	163.771	138.774	0.0035491	0.00045965	0.00020959	767.99	8.6435e-06	1.0108e-05	1085.5	267.99	1.7466e-05	4.9248e-06	482.33	209.28	106.29	50.623	1.416e-05	125.5	0.002806	0.0029287	0.00081591	786.83	3.0837e-05	3.1926e-05	1062.6	265.03	2.9956e-05	3.0965e-05	477.09	205.49	106.87	50.553	2.9745e-05	123.78	439.502	223.107	203.446	138.695	235.188	238.839	138.675	143.973	283.541	277.764	143.427	147.122	146.617	151.713	303.304	150.001	-8191	255	
2243.103	1	1	0	0	0.0093581	0.092351	0.10449	0.043719	0.14768	0.1048	0.14156	0.12732	0.070691	0.38899	0.41807	0.2221	0.25524	0.21498	0.129	0.39893	-2.5812	-3.1917	-2.8396	-3.0938	-3	-2.8208	-3.1979	-3.0917	-2.8729	-3.2771	-3.0979	-3.3646	-3.0125	-2.95	-3.1625	-3.2792	437.315	377.176	398.297	368.167	410.561	456.165	140.335	476.168	366.413	259.474	442.706	434.429	387.119	481.973	132.103	426.017	0.0038144	0.00071109	0.00020054	780.17	7.0556e-06	7.6179e-06	1088.7	270.5	1.2867e-05	8.9043e-06	484.95	211.42	107.8	51.644	1.4779e-05	127.46	0.0026214	0.0026914	0.00074426	787.75	2.8478e-05	2.8914e-05	1067.4	267.03	2.7329e-05	2.8472e-05	480.05	207.14	107.38	51.198	2.6673e-05	125.42	436.540	211.903	252.763	138.632	243.006	251.615	138.687	143.645	232.159	253.290	143.336	147.229	147.087	151.672	248.631	150.259	-8191	255	
2243.199	1	1	0	0	0.13342	0.21388	0.10722	0.22238	0.089908	0.081359	0.22333	0.31701	0.13983	0.1093	0.024479	0.25422	0.301	0.059554	0.11793	0.36166	-2.4083	-3.1083	-3.0438	-3.1562	-2.9708	-3.0375	-3.2708	-3.0563	-3.0479	-3.0854	-2.9146	-3.2104	-3.1771	-2.925	-3.0521	-3.0396	304.694	246.922	192.281	377.137	401.966	411.899	370.265	422.605	267.682	160.504	295.661	152.641	131.466	444.037	173.414	391.619	0.0037821	0.0010403	0.00030488	779.43	1.0278e-05	1.0095e-05	1091.6	270.79	6.9978e-06	6.5266e-06	483.11	211	106.93	51.269	1.1056e-05	126.23	0.0024016	0.0024362	0.0006726	782.42	2.5743e-05	2.6062e-05	1064.2	266.33	2.4569e-05	2.543e-05	476.15	205.83	106.02	50.899	2.3743e-05	124.42	438.552	213.599	252.832	138.495	201.797	278.411	138.775	143.699	241.589	246.302	143.100	147.098	146.427	151.308	255.502	150.084	-8191	255	
2243.295	1	1	0	0	0.1818	0.16406	0.094633	0.099289	0.20554	0.20698	0.2837	0.23511	0.27892	0.056871	0.10694	0.33609	0.02386	0.14982	0.21662	0.078177	-2.3937	-3.2333	-2.8688	-3.2229	-3.0875	-2.9313	-3.1479	-2.9792	-2.9646	-3.0896	-2.9958	-3.1562	-3.2333	-2.8146	-3.2438	-3.2208	459.094	352.480	153.563	457.919	352.284	445.704	471.980	394.593	285.320	287.855	130.579	464.684	371.140	181.758	295.873	418.231	0.0037663	0.0010114	0.00016098	776.4	1.5471e-05	7.3177e-06	1086.5	270.87	1.1892e-05	8.8667e-06	483.54	211.63	106.62	51.661	1.1148e-05	127.51	0.0021763	0.0021808	0.00059825	776.14	2.2677e-05	2.3051e-05	1060.7	265.15	2.1425e-05	2.2196e-05	474.77	206.2	105.22	51.181	2.1235e-05	125.36	437.528	188.903	238.334	138.309	266.677	253.312	138.859	143.788	261.880	268.474	143.075	147.014	147.032	151.394	250.052	149.943	-8191	255	
2243.391	1	1	0	0	0.082166	0.19241	0.20498	0.26317	0.065222	0.19032	0.32379	0.20975	0.37452	0.16812	0.39194	0.25324	0.088001	0.066621	0.25669	0.20197	-2.2583	-3.0771	-2.9729	-2.9042	-3.1667	-2.8042	-3.1312	-3.1875	-2.7146	-3.1771	-2.9521	-3.1042	-3.2708	-2.9333	-2.9167	-3.2062	178.829	359.906	152.579	392.410	327.102	358.418	400.209	413.651	151.909	139.017	437.751	472.273	428.656	411.635	306.036	405.026	0.0036759	0.00037564	0.00018477	777.04	5.6781e-06	1.1147e-05	1094.8	272.64	1.3959e-05	4.8803e-06	487.31	213.27	107.18	52.48	8.0586e-06	129.66	0.0019542	0.0018891	0.00051793	773.22	1.9387e-05	1.9718e-05	1061.9	265.95	1.8767e-05	1.9333e-05	476.94	207.52	105.25	51.819	1.7893e-05	127.17	436.645	211.406	215.739	138.794	263.865	233.291	138.734	143.596	273.470	299.421	143.183	146.991	146.725	151.140	281.565	150.170	-8191	255	
2243.487	1	1	0	0	0.16062	0.22931	0.25074	0.21113	0.057331	0.15482	0.23033	0.32046	0.13832	0.12642	0.18975	0.1429	0.12333	0.21273	0.32693	0.20085	-2.1292	-3.1979	-2.6542	-2.9229	-3.2	-2.7583	-2.9875	-3.1729	-2.7729	-3.1604	-3.2854	-3.2104	-3.3063	-3.0062	-2.8604	-3.3438	347.089	237.134	299.811	127.834	369.547	346.306	373.316	402.701	238.142	292.055	155.043	397.014	298.975	468.051	251.953	412.105	0.0038838	0.00065952	0.00021652	781.51	6.9797e-06	5.6109e-06	1100.5	271.86	2.0281e-05	9.1098e-06	489.11	214.13	107.66	53.073	4.6662e-06	131.14	0.0017358	0.0016172	0.00044674	770.31	1.6675e-05	1.6994e-05	1068	265.86	1.5935e-05	1.6581e-05	478.22	208	104.62	52.245	1.538e-05	128.5	439.098	209.018	205.561	138.950	216.272	287.720	138.525	143.720	268.578	277.879	143.206	146.789	146.797	151.415	264.403	150.136	-8191	255	
2243.584	1	1	0	0	0.31578	0.12396	0.06044	0.14655	0.32731	0.16673	0.30296	0.14209	0.082155	0.1537	0.17587	0.077829	0.21177	0.20686	0.15967	0.042358	-2.4146	-3.1063	-2.8667	-2.8312	-3.1917	-3.0292	-3.1083	-3.2562	-2.8771	-3.0833	-3.2333	-2.975	-3.1104	-2.9688	-2.8937	-3.3542	149.636	303.746	165.597	144.983	278.770	295.996	443.895	299.223	138.777	229.541	461.484	429.201	306.411	449.688	137.710	453.534	0.0038224	0.00086877	0.00020407	780.1	1.0371e-05	4.8148e-06	1091.7	270.89	2.2238e-05	5.6992e-06	481.42	210.19	105.17	52.629	1.2384e-05	128.94	0.0015376	0.0013736	0.00037801	767.2	1.4207e-05	1.4278e-05	1057.9	263.22	1.3373e-05	1.3618e-05	469.98	204.21	101.79	51.549	1.298e-05	126.6	437.063	209.936	229.580	138.679	265.011	291.711	138.702	143.767	257.547	251.422	142.989	146.906	146.544	151.242	253.875	150.137	-8191	255	
2243.680	1	1	0	0	0.19925	0.15365	0.1391	0.048793	0.22997	0.22774	0.10059	0.18782	0.077524	0.069294	0.2281	0.28178	0.014395	0.20755	0.22348	0.14808	-2.5625	-3.15	-2.8979	-2.9104	-3.0875	-3.0187	-3.1708	-3.2812	-2.7958	-3.3187	-3.0563	-3.0146	-2.9229	-2.9729	-3.0542	-3.325	167.063	302.573	429.117	288.738	393.878	162.998	380.951	479.432	209.376	321.196	457.754	444.932	139.737	391.848	231.158	389.054	0.0037168	0.00097452	0.00026969	767.46	6.1549e-06	8.8132e-06	1083.1	269.06	1.3967e-05	7.4634e-06	480.34	209.68	105.44	52.637	8.8458e-06	129.84	0.0013578	0.0011771	0.00032377	753.82	1.2052e-05	1.2354e-05	1051.2	260.81	1.1611e-05	1.1964e-05	466.48	203.13	101.24	51.488	1.1745e-05	126.78	434.273	210.880	186.215	138.737	298.378	239.084	138.694	143.455	281.559	273.759	143.097	146.734	146.698	151.306	241.215	149.923	-8191	255	
2243.799	1	1	0	0	0.29087	0.073399	0.27606	0.25239	0.11934	0.10176	0.17023	0.18367	0.17015	0.046076	0.44056	0.30479	0.15035	0.27073	0.10731	0.36952	-2.4208	-3.05	-3.0687	-2.8521	-3.1229	-3.0146	-3.1	-3.3375	-2.9083	-2.9958	-3.0896	-3.1312	-2.9792	-3.0792	-2.7479	-3.3563	276.837	175.267	176.767	444.306	287.743	268.118	418.104	145.342	352.283	249.212	373.646	440.952	199.682	145.615	410.691	395.976	0.0035724	0.00084075	0.0001785	776.45	1.474e-05	6.0332e-06	1097.5	269.66	1.535e-05	5.5336e-06	480.49	210.57	105.51	52.821	9.932e-06	130.35	0.0012654	0.0010498	0.00029277	757.75	1.1039e-05	1.1062e-05	1059.4	262.17	1.0523e-05	1.117e-05	467.78	203.56	101.48	51.74	1.0633e-05	127.71	438.957	230.220	203.195	138.337	254.870	274.798	138.789	143.705	260.027	311.247	142.757	146.746	146.434	151.033	250.239	149.664	-8191	255	
2243.895	1	1	0	0	0.24423	0.22117	0.22859	0.1141	0.11807	0.16024	0.13535	0.095591	0.36827	0.11068	0.18626	0.16904	0.18253	0.31371	0.16958	0.24927	-2.4875	-2.8312	-3.2562	-2.9625	-3.2958	-3.0333	-2.925	-3.2271	-3.025	-2.9042	-3.2708	-2.8792	-2.9604	-3.2729	-2.9062	-3.625	267.219	147.115	256.134	260.425	275.824	318.287	405.701	342.703	200.594	150.574	472.792	433.242	365.908	129.670	129.080	393.762	0.0039023	0.00076238	0.00024095	789.52	5.215e-06	1.1275e-05	1119.1	275.69	1.5484e-05	7.2956e-06	486.56	212.81	107.58	53.602	1.3014e-05	131.35	0.0012183	0.0009831	0.00027418	769.82	1.052e-05	1.0831e-05	1080.6	266.62	1.02e-05	1.0789e-05	473.79	206.1	102.69	52.42	1.0653e-05	128.62	436.011	218.355	227.209	138.649	298.077	262.041	138.472	143.274	261.305	257.884	142.704	146.721	146.616	151.215	283.264	149.599	-8191	255	
2243.991	1	1	0	0	0.093207	0.095095	0.15254	0.12332	0.31926	0.19595	0.32269	0.39188	0.11188	0.13117	0.31382	0.19788	0.17121	0.12028	0.096286	0.08447	-2.5312	-2.9521	-3.2625	-3.0958	-3.1479	-3.15	-3.0146	-3.2021	-2.9354	-2.8979	-3.425	-3.0521	-3.0583	-3.1833	-2.8917	-3.3604	220.383	464.418	374.055	370.287	256.533	472.387	457.670	457.452	239.478	149.532	163.588	400.320	192.292	398.118	408.034	437.012	0.0039276	0.00065836	0.00014767	786.4	1.2799e-05	9.6647e-06	1107.8	270.1	1.8461e-05	6.0764e-06	479.13	208.88	104.22	52.944	1.1219e-05	129.52	0.0012238	0.00099359	0.00027265	765.76	1.059e-05	1.0824e-05	1069.2	262.49	1.0512e-05	1.0972e-05	464.54	202.3	100.51	51.735	1.1002e-05	126.95	436.288	229.418	183.689	138.748	239.557	279.179	138.525	143.120	273.981	259.607	142.693	146.641	146.466	150.965	249.340	149.745	-8191	255	
2244.087	1	1	0	0	0.18898	0.2496	0.12615	0.11514	0.04831	0.083693	0.24557	0.10004	0.17952	0.033431	0.24607	0.18559	0.19162	0.17528	0.14978	0.099424	-2.4938	-2.8875	-3.0333	-3.0021	-3.1104	-3.0438	-3.1354	-3.1479	-2.9333	-2.7417	-3.1521	-2.8854	-2.9854	-3.2646	-2.7167	-3.3125	433.228	323.026	371.978	386.224	437.621	333.850	390.962	435.676	161.036	440.469	427.892	408.678	404.452	464.364	317.703	354.698	0.003659	0.00063675	9.6942e-05	773.85	9.9869e-06	1.0722e-05	1100.8	266.97	1.3262e-05	7.4504e-06	474.4	208.21	102.83	52.413	1.5572e-05	130.46	0.0012467	0.0010192	0.00028257	758.56	1.1112e-05	1.1144e-05	1063.6	260.16	1.0705e-05	1.1214e-05	460.95	201.1	99.22	51.594	1.1572e-05	127.42	438.981	195.358	207.527	138.613	220.692	272.899	138.354	143.086	249.988	278.008	142.751	146.616	146.583	151.066	244.004	149.716	-8191	255	
2244.183	1	1	0	0	0.11581	0.29588	0.069946	0.12047	0.18469	0.066408	0.11286	0.29995	0.24681	0.12879	0.37874	0.21368	0.16415	0.12009	0.25301	0.25555	-2.5542	-2.6896	-3.05	-2.9479	-2.8479	-3.2313	-3.0271	-3.0354	-3.2	-2.9479	-3.2646	-3.2	-2.8958	-3.2792	-2.9938	-3.1896	415.813	300.630	414.826	206.919	134.171	400.617	441.879	415.729	436.845	203.031	433.651	442.434	421.681	470.463	159.295	415.504	0.0039368	0.00063437	0.00018534	778.23	1.241e-05	4.7768e-06	1092.3	266.5	1.8348e-05	9.9461e-06	468.91	204.9	101.03	52.481	9.8603e-06	129.45	0.0012858	0.0010524	0.00029534	756.82	1.1475e-05	1.1592e-05	1058.4	258.58	1.1433e-05	1.1551e-05	456.63	198.85	97.72	51.358	1.1771e-05	127.12	437.557	189.137	239.972	138.380	263.608	243.797	138.310	143.161	261.322	263.601	142.321	146.708	146.039	151.091	257.956	149.671	-8191	255	
2244.279	1	1	0	0	0.060799	0.044104	0.1681	0.13943	0.058842	0.18577	0.051213	0.30342	0.17774	0.26016	0.18547	0.16863	0.010321	0.23602	0.11629	0.032166	-2.7958	-2.9938	-3.075	-3.1542	-2.7708	-3.2438	-3.1292	-3.1604	-3.1896	-3.0042	-3.2521	-3.3	-2.9792	-3.2125	-3.0812	-3.2396	281.496	304.817	484.402	174.842	285.586	270.331	359.194	379.459	369.547	186.687	457.057	362.554	196.426	440.838	246.007	250.892	0.0039143	0.00063674	0.00020536	771.15	9.3667e-06	8.0896e-06	1094.9	264.77	1.2036e-05	6.9496e-06	467.45	203.41	99.699	52.125	8.8007e-06	129.14	0.0013152	0.0010892	0.00030886	753.6	1.2033e-05	1.2175e-05	1056.5	256.85	1.1929e-05	1.2119e-05	455.54	197.63	96.646	51.03	1.2351e-05	126.32	435.266	230.333	262.793	138.678	269.977	237.871	138.430	143.444	241.602	272.101	142.733	146.696	146.587	150.885	278.939	149.567	-8191	255	
2244.400	1	1	0	0	0.096742	0.12938	0.094597	0.25583	0.084509	0.14798	0.11815	0.23252	0.18606	0.16556	0.16214	0.25113	0.17863	0.178	0.28097	0.2537	-2.8729	-3.0229	-3.1896	-3.0062	-2.8375	-3.2521	-3.0271	-3.2875	-3.3	-2.875	-3.2062	-3.2	-2.7583	-3.4833	-2.9417	-3.175	198.568	166.395	457.470	375.456	391.444	331.252	449.857	427.468	274.295	341.726	462.282	429.165	449.630	464.334	147.161	474.864	0.0037614	0.0010142	0.00016358	761.29	6.5881e-06	5.8528e-06	1084.2	262.42	7.56e-06	7.2505e-06	462.75	200.47	98.772	51.442	7.326e-06	127.4	0.0013679	0.0011587	0.0003171	745.82	1.2196e-05	1.2588e-05	1048.6	253.97	1.2328e-05	1.2612e-05	449.32	194.63	95.458	50.438	1.2864e-05	124.98	436.846	199.443	166.476	138.453	241.744	266.629	138.524	143.034	282.335	291.739	142.702	146.615	146.347	151.048	268.659	149.722	-8191	255	
2244.496	1	1	0	0	0.10333	0.2165	0.17196	0.19633	0.19298	0.10722	0.083873	0.15843	0.09865	0.12685	0.13406	0.20963	0.078473	0.099326	0.19341	0.36057	-2.6958	-2.7812	-3.1271	-3.1979	-2.7167	-3.0958	-3.1479	-2.9833	-3.1937	-2.9292	-3.2313	-3.2938	-2.7854	-3.2542	-2.975	-3.0771	246.844	202.252	267.690	332.190	229.200	180.791	437.187	336.339	459.636	416.149	461.537	450.295	337.381	473.851	372.062	417.599	0.0037717	0.00086438	0.00020996	760.93	1.0239e-05	6.4642e-06	1081.1	260.52	2.1412e-05	6.6092e-06	461.08	202.26	98.136	51.435	5.8861e-06	127.48	0.0013578	0.0011803	0.00032197	742.87	1.2479e-05	1.2934e-05	1046.9	253.25	1.2276e-05	1.2996e-05	449.81	195.32	95.478	50.371	1.2832e-05	124.95	438.267	207.173	216.430	138.401	243.739	279.599	138.677	143.625	267.608	240.807	142.653	146.641	146.370	151.093	293.227	149.538	-8191	255	
2244.592	1	1	0	0	0.097709	0.11909	0.05185	0.29942	0.067765	0.19482	0.20223	0.13851	0.13359	0.17799	0.1674	0.11238	0.18977	0.11121	0.32856	0.36176	-2.775	-2.8667	-2.9813	-3.1937	-2.9146	-3.1937	-3.0208	-2.9854	-3.1312	-2.9104	-3.1667	-3.4125	-2.8854	-3.1833	-3.2313	-3.1521	395.582	254.333	475.377	479.305	254.301	398.536	183.976	212.120	165.434	161.274	149.687	138.465	126.475	151.205	172.215	419.192	0.0039301	0.00090215	0.0001566	753.64	9.4002e-06	1.1115e-05	1083.3	260.1	1.5872e-05	7.4076e-06	462.47	201.43	98.099	51.347	2.8766e-06	127.62	0.0014034	0.0012071	0.00033106	743.36	1.2694e-05	1.3185e-05	1049.6	253.52	1.2683e-05	1.3134e-05	450.25	195.35	95.141	50.367	1.3224e-05	125.09	437.948	209.049	165.812	138.497	283.022	325.396	138.389	143.090	250.417	268.223	142.567	146.632	146.773	150.994	234.146	149.656	-8191	255	
2244.688	1	1	0	0	0.22608	0.14503	0.18709	0.16314	0.12065	0.065963	0.17123	0.090154	0.22589	0.2616	0.19139	0.30768	0.042118	0.14141	0.30682	0.18104	-2.8312	-2.9104	-2.7792	-3.2896	-2.8042	-3.175	-3.2708	-3.0083	-3.1625	-3.0896	-3.1479	-3.275	-2.9771	-3.2396	-3.0458	-3.1708	451.950	387.944	336.659	473.096	293.419	482.067	126.828	145.805	217.905	267.877	482.468	441.764	420.650	132.977	204.897	444.843	0.0036487	0.00096599	0.00021288	756.21	9.6024e-06	9.1899e-06	1086	261.16	1.041e-05	1.0074e-05	463.12	201.15	98.655	50.668	8.7205e-06	126.52	0.0014123	0.0012438	0.00034649	743.95	1.34e-05	1.3689e-05	1052.6	253.88	1.3318e-05	1.4044e-05	450.89	194.93	95.367	50.025	1.3542e-05	124.4	435.630	244.161	241.261	138.769	283.084	297.686	138.356	143.460	248.792	292.274	142.558	146.562	146.235	151.311	267.102	149.613	-8191	255	
2244.785	1	1	0	0	0.032724	0.32019	0.16125	0.033297	0.18021	0.21563	0.1131	0.088917	0.19051	0.28688	0.082882	0.34412	0.072752	0.2925	0.35451	0.23373	-2.7167	-2.9104	-2.8917	-3.1354	-2.8875	-3.1083	-3.35	-3.1229	-3.1875	-3.2	-3.1437	-3.2042	-3.0125	-3.1833	-3.0958	-3.0312	279.131	244.188	366.516	458.629	224.304	384.366	212.656	189.152	417.419	186.389	198.822	468.087	149.637	446.088	415.631	476.536	0.0037773	0.00058886	0.00020123	751.47	9.8023e-06	3.9109e-06	1077.5	257.76	1.1976e-05	8.7388e-06	457.71	197.72	96.509	50.453	7.2906e-06	125.96	0.0014835	0.0012805	0.00036107	739.78	1.4172e-05	1.4365e-05	1041.6	251.02	1.44e-05	1.5235e-05	446	192.38	94.085	49.512	1.5391e-05	123.15	437.610	193.768	216.275	138.596	249.925	396.500	138.369	143.147	246.107	259.130	142.725	146.522	146.613	150.968	224.399	149.641	-8191	255	
2244.879	1	1	0	0	0.17091	0.17889	0.23536	0.2359	0.21082	0.34771	0.090612	0.093227	0.19722	0.10959	0.094417	0.19731	0.056719	0.1431	0.19385	0.33982	-2.6229	-3	-2.8375	-3.4313	-3.0958	-3.1688	-3.2979	-2.8187	-3.0854	-3.1583	-2.9083	-3.3271	-2.8729	-3.1229	-3.2271	-3.0333	273.994	164.052	418.961	125.883	195.381	259.503	427.138	425.383	293.448	345.289	485.350	473.611	358.020	471.911	242.058	405.083	0.0037354	0.00070157	0.00022777	750.73	4.2128e-06	1.0008e-05	1071.1	258.12	9.2729e-06	2.2691e-06	455.15	197.13	96.517	50.285	6.8727e-06	125.4	0.0015836	0.001442	0.00041233	737.62	1.6002e-05	1.6519e-05	1040	251.06	1.6119e-05	1.6991e-05	445.59	192.21	94.406	49.623	1.7779e-05	123.38	438.142	206.029	225.399	138.715	253.579	291.667	138.504	143.389	266.484	270.962	142.627	146.735	146.357	150.960	242.226	149.618	-8191	255	
2244.975	1	1	0	0	0.23977	0.14139	0.061626	0.18298	0.24288	0.11386	0.30948	0.13036	0.17324	0.11341	0.17534	0.23949	0.14781	0.19509	0.1284	0.25993	-2.8667	-2.9437	-2.7417	-3.1979	-3.0187	-2.8958	-3.2771	-2.8896	-3.025	-3.2375	-2.9062	-3.2708	-3.0687	-2.9229	-3.0396	-2.9292	364.800	249.962	185.665	174.891	162.662	142.953	420.893	450.742	235.352	407.115	129.457	443.217	349.772	402.305	198.163	449.903	0.0035996	0.00062607	0.00039517	746.6	7.2418e-06	9.823e-06	1067.5	256.79	1.0572e-05	7.7936e-06	454.17	196.52	94.263	50.217	1.2281e-05	125.62	0.0017446	0.0016393	0.00046525	740.84	1.8273e-05	1.8963e-05	1040.2	250.63	1.8694e-05	1.9803e-05	445.56	191.49	93.757	49.527	2.0746e-05	123.6	435.705	224.020	203.317	138.657	280.358	290.269	138.739	143.434	261.119	270.450	142.863	146.806	146.709	151.201	256.277	149.794	-8191	255	
2245.096	1	1	0	0	0.082741	0.23605	0.11026	0.363	0.11797	0.39079	0.18729	0.36203	0.12036	0.13862	0.30111	0.11176	0.22632	0.17851	0.30342	0.28452	-2.5667	-3.05	-2.9271	-3.2792	-3.0604	-2.8958	-3.3896	-3.0021	-3.0042	-3.1021	-2.7458	-3.2854	-3.2354	-2.9375	-3.025	-3.0563	478.922	265.562	482.246	477.232	243.486	139.236	455.221	461.247	424.285	198.256	439.907	385.794	457.917	417.978	378.662	427.884	0.0035964	0.00071134	0.00027988	742.01	8.9535e-06	8.8406e-06	1064.1	252.09	1.7669e-05	9.1255e-06	450.16	192.76	92.673	49.277	1.7005e-05	123.89	0.0020686	0.0020826	0.00059023	744.55	2.4165e-05	2.532e-05	1037.1	248.27	2.5737e-05	2.7219e-05	442.45	189.26	93.894	49.178	2.9143e-05	122.53	439.744	205.920	233.872	138.802	223.096	262.501	138.443	143.445	314.952	273.585	142.937	147.002	146.331	151.417	235.725	149.977	-8191	255	
2245.192	1	1	0	0	0.15604	0.24903	0.17773	0.092049	0.13884	0.14181	0.12395	0.051695	0.15317	0.094521	0.17807	0.17383	0.10875	0.15945	0.032432	0.31685	-2.6708	-3.0646	-2.9917	-2.9625	-3.0542	-2.7771	-3.1875	-3.1271	-2.9146	-3.2188	-3.0625	-3.15	-2.8875	-2.7771	-2.9979	-3.2396	388.888	250.815	464.995	419.134	340.689	350.056	350.484	338.222	126.035	223.187	404.464	422.336	329.520	407.255	394.972	435.538	0.0035255	0.0007734	0.00027649	729.54	1.1985e-05	6.2473e-06	1037.6	249.38	1.3075e-05	4.0435e-06	442.08	191.33	92.241	49.667	1.4254e-05	124.32	0.0026852	0.0028901	0.00082714	743.07	3.3148e-05	3.4806e-05	1023.7	246.73	3.5184e-05	3.7552e-05	440.12	188.54	95.394	49.862	3.8375e-05	123.41	440.062	261.093	190.033	138.917	192.618	343.038	138.756	143.499	254.085	258.327	142.760	147.081	146.646	151.411	240.725	150.082	-8191	255	
2245.264	1	1	0	0	0.073415	0.24228	0.19413	0.17853	0.23283	0.045211	0.23435	0.080843	0.10455	0.17849	0.06204	0.18239	0.041682	0.14556	0.12762	0.2623	-2.5333	-3.0187	-3.0354	-3.1937	-2.9229	-2.8833	-3.2313	-3.0438	-2.9979	-3.3937	-3.0771	-3.2958	-3.3583	-2.7708	-3.1437	-3.2229	224.725	467.929	182.599	175.635	130.336	469.595	442.743	436.281	428.181	379.048	131.675	157.803	164.550	445.763	332.144	473.814	0.0036547	0.00076166	0.00027355	722.06	1.0649e-05	2.4146e-06	1029.3	246.68	1.1228e-05	4.574e-06	440.03	189.51	92.024	49.602	1.0335e-05	124.19	0.0034052	0.0037119	0.0010561	748.74	4.1654e-05	4.2912e-05	1020.1	246.48	4.2874e-05	4.5931e-05	440.63	188.8	97.529	50.332	4.8329e-05	123.92	442.546	243.623	232.058	138.841	294.646	393.478	138.950	143.680	300.082	325.273	143.085	147.095	146.557	151.474	276.769	150.142	-8191	255	
2245.360	1	1	0	0	0.1049	0.068155	0.077054	0.066663	0.19205	0.14373	0.28359	0.21491	0.24742	0.03266	0.12927	0.070664	0.086167	0.30439	0.10922	0.46376	-2.5042	-3.1625	-2.9229	-3.1063	-3.2292	-2.9583	-3.3208	-3.1896	-2.8937	-3.2021	-3.125	-3.0708	-3.2208	-3.0458	-3.1542	-3.3542	300.964	313.760	441.180	143.775	372.940	273.210	357.371	413.611	468.782	380.120	455.052	222.956	289.099	176.992	232.111	425.012	0.0038536	0.00058796	9.8022e-05	718.24	1.1891e-05	7.3447e-06	1026.3	244.54	2.1817e-05	3.8473e-06	433.82	189.19	90.634	49.289	2.1202e-06	124.44	0.0040448	0.0045299	0.0012697	761.58	4.9523e-05	5.1431e-05	1023.5	246.57	4.9366e-05	5.2559e-05	438.62	188.71	97.768	50.363	5.2489e-05	124.15	438.020	234.240	173.102	138.982	242.724	413.338	139.048	143.750	238.951	167.320	142.975	147.254	147.069	151.507	381.311	150.212	-8191	255	
2245.480	1	1	0	0	0.22646	0.077105	0.16629	0.074438	0.14315	0.12202	0.11545	0.28433	0.060287	0.24381	0.18947	0.037211	0.2258	0.084924	0.35105	0.046862	-2.4021	-3.3042	-2.8688	-2.9042	-3.2583	-2.9271	-3.3417	-3.0833	-2.8958	-3.275	-2.9604	-3.2917	-3.1312	-2.9104	-3.2458	-3.2687	192.988	324.333	355.774	196.634	383.116	206.084	411.049	448.529	214.847	160.642	451.358	332.558	358.391	151.268	363.803	164.071	0.0036727	0.00070844	0.00025149	715.33	9.3007e-06	7.9495e-06	1025.3	242.9	2.5967e-06	1.031e-05	433.67	189.05	90.106	49.37	1.3608e-05	123	0.0044046	0.0049332	0.0013745	764.86	5.2146e-05	5.4188e-05	1024.4	246.01	5.1441e-05	5.4074e-05	438.38	188.9	98.175	50.249	5.3552e-05	123.38	436.174	260.852	260.927	138.678	269.366	337.837	138.863	143.794	432.835	264.745	143.090	147.095	146.936	151.774	244.282	150.151	-8191	255	
2245.576	1	1	0	0	0.30313	0.19636	0.14491	0.28515	0.1431	0.16163	0.25662	0.14753	0.23981	0.19935	0.14733	0.044371	0.16126	0.13003	0.1832	0.32598	-2.5271	-3.1771	-2.8937	-3.0125	-3.3792	-2.8937	-3.0396	-3.3187	-2.7771	-3.0646	-3.1854	-3.0042	-3.1729	-3.0646	-2.9542	-3.3208	198.247	443.175	358.697	414.388	416.870	470.052	403.378	208.482	313.509	163.994	422.652	291.398	392.675	425.258	352.627	455.988	0.0034962	0.00085867	7.5824e-05	714.14	2.4068e-06	8.7924e-06	1023.9	242.24	3.0037e-05	1.458e-05	433.37	188.89	90.503	49.428	1.6955e-06	123.43	0.0044532	0.004998	0.0014035	763.18	5.3759e-05	5.522e-05	1023.4	245.42	5.1977e-05	5.5281e-05	437.58	188.8	98.558	50.384	5.3558e-05	123.85	440.990	217.526	395.839	139.151	372.760	262.628	138.824	143.479	302.353	259.907	142.948	146.981	146.977	151.733	158.464	150.316	-8191	255	
2245.673	1	1	0	0	0.081424	0.1194	0.13119	0.12083	0.17967	0.091173	0.47534	0.33271	0.079389	0.10244	0.27548	0.24165	0.1834	0.2847	0.17058	0.22592	-2.2958	-3.0646	-2.9646	-2.8708	-3.3167	-3.0125	-3.1083	-3.2021	-3.0396	-3.2313	-3.1292	-3.3042	-3.225	-3.2646	-3.0187	-3.2604	286.200	223.431	153.289	154.253	246.946	419.551	441.167	131.747	220.937	333.173	472.663	444.277	340.376	399.843	215.861	402.538	0.0038003	0.00093236	0.00023618	721.61	2.0455e-06	9.2306e-06	1027.6	244.35	1.8383e-05	6.8568e-06	434.71	190.72	92.576	49.869	3.8488e-06	124.74	0.0044681	0.0050062	0.0013912	767.42	5.3845e-05	5.5261e-05	1028.2	247.86	5.2606e-05	5.5509e-05	439.89	190.46	99.745	50.814	5.3605e-05	124.8	436.067	276.914	218.445	139.040	185.780	267.401	138.845	143.698	273.791	268.188	142.976	147.016	146.940	151.318	185.257	150.331	-8191	255	
2245.769	1	1	0	0	0.024453	0.21487	0.28138	0.11654	0.11212	0.13076	0.21375	0.17608	0.14928	0.05588	0.03645	0.21918	0.062829	0.50333	0.11297	0.29317	-2.5375	-3.1875	-3.1208	-2.7646	-3.2396	-3.1708	-2.9979	-3.3042	-3.0146	-3.2021	-3.2438	-3	-3.1625	-3.0312	-2.9417	-3.4062	461.266	482.854	190.697	380.746	175.484	216.900	425.014	459.760	264.066	158.959	316.074	398.821	464.653	160.421	206.682	452.037	0.0037228	0.00075882	0.00018024	724.49	1.4206e-05	9.6852e-06	1033.9	245.47	1.2771e-05	1.2112e-05	435	192.29	92.767	50.066	1.3399e-05	125.69	0.0045156	0.005021	0.0014068	771.7	5.3955e-05	5.6284e-05	1032.9	248.98	5.3763e-05	5.6822e-05	442.43	191.99	100.62	51.256	5.5917e-05	125.96	438.448	247.454	235.981	138.847	349.691	366.440	138.776	143.816	282.591	249.767	143.064	147.239	147.115	151.659	300.739	150.133	-8191	255	
2245.889	1	1	0	0	0.060869	0.21661	0.2855	0.048236	0.27242	0.18964	0.28731	0.23018	0.040888	0.15334	0.27086	0.2085	0.143	0.10976	0.15011	0.23113	-2.4479	-2.8667	-3.1521	-2.85	-3.0917	-3.025	-3.0875	-3.2333	-2.7604	-2.9313	-3.2208	-3.0667	-2.9104	-3.2062	-2.9396	-3.3792	459.977	194.100	164.828	154.139	391.720	138.699	369.930	170.079	302.935	379.825	389.901	447.531	330.667	399.689	335.604	474.501	0.0037823	0.0012739	0.0002565	725.83	9.0104e-06	1.0883e-05	1041.3	248.89	1.4219e-06	6.8648e-06	438.18	194.13	94.181	50.358	8.9392e-06	125.91	0.0046738	0.005205	0.0014468	777.91	5.6028e-05	5.7976e-05	1041.2	251.97	5.5779e-05	5.8305e-05	446.72	194.08	102.39	51.544	5.7241e-05	126.06	438.164	209.394	162.382	138.883	294.125	289.210	138.845	143.832	208.440	261.379	142.865	146.991	146.602	151.610	227.832	150.245	-8191	255	
2245.961	1	1	0	0	0.2098	0.22169	0.12999	0.012934	0.23657	0.21216	0.26582	0.12267	0.31478	0.043732	0.19034	0.36344	0.14314	0.19504	0.05571	0.15576	-2.3875	-3.0729	-3.2958	-2.9062	-3.0604	-2.9771	-2.8854	-3.3542	-3.0417	-3.0312	-3.3396	-2.9854	-3.0187	-3.2083	-2.9813	-3.3083	179.615	361.183	168.074	468.579	372.160	468.463	418.174	484.867	472.891	291.368	242.019	133.831	459.479	407.824	276.794	466.620	0.0033968	0.0009194	0.00015099	736.38	2.2483e-05	8.0751e-06	1043.6	248.45	1.2885e-05	6.7265e-06	442.87	194.9	95.074	50.694	1.1291e-05	126.11	0.0047357	0.0053121	0.0014795	787.51	5.6814e-05	5.9158e-05	1046.1	253.42	5.6061e-05	5.9394e-05	449.45	195.34	103.52	51.925	5.7608e-05	126.69	437.712	220.020	309.217	138.820	250.211	258.460	138.642	144.036	365.466	301.843	143.059	147.068	147.021	151.560	174.708	150.012	-8191	255	
2246.080	1	1	0	0	0.18811	0.09826	0.076142	0.1026	0.27529	0.13441	0.20202	0.22818	0.074772	0.11589	0.065269	0.13218	0.2294	0.24598	0.10466	0.41638	-2.55	-3.0438	-3.1	-3.0062	-3.2146	-3.2792	-2.9625	-3.2667	-3.1104	-2.9208	-3.2562	-3.1417	-3.0167	-3.3583	-2.7687	-3.4958	272.606	258.799	208.158	441.432	165.212	445.759	450.056	449.908	172.887	452.142	217.323	149.341	148.067	443.177	420.228	442.203	0.0036374	0.00083567	0.00023044	738.09	1.5836e-06	1.0276e-05	1057	252.03	2.9087e-05	8.7647e-06	445.12	196.96	97.1	50.958	9.0055e-06	127.33	0.0047087	0.0053193	0.0014937	791.76	5.6604e-05	5.7746e-05	1053.4	255.34	5.4476e-05	5.7169e-05	452.13	197.1	104.68	52.139	5.5752e-05	127.65	438.465	309.453	318.968	138.844	477.270	250.975	138.734	143.770	280.597	276.412	143.157	146.985	146.945	151.467	226.155	150.164	-8191	255	
2246.176	1	1	0	0	0.24626	0.04772	0.15592	0.12482	0.17079	0.069913	0.10496	0.25644	0.10811	0.12075	0.14071	0.35722	0.098551	0.075473	0.10815	0.21513	-2.65	-2.8271	-3.0542	-3.2125	-3.0646	-3.1604	-2.9729	-3.3438	-3.0271	-3.0917	-3.4	-3.2812	-3.0292	-3.1979	-2.8937	-3.3542	360.453	277.372	130.732	168.773	176.440	451.574	128.910	416.701	385.654	463.677	370.848	437.651	401.884	352.672	281.919	166.247	0.0038763	0.0014467	0.00030735	743.15	5.8348e-06	9.3635e-06	1054.6	252.89	2.0923e-05	1.1863e-05	449.28	199.3	98.179	51.593	1.109e-05	128.14	0.0046187	0.0051731	0.0014496	793.18	5.4987e-05	5.7248e-05	1057.8	257.02	5.3901e-05	5.6609e-05	454.89	199.17	105.37	52.638	5.3988e-05	128.23	435.833	181.345	216.955	138.690	301.385	252.104	138.617	143.547	251.377	415.204	143.035	146.896	147.186	151.560	274.389	150.427	-8191	255	
2246.272	1	1	0	0	0.083581	0.2529	0.18953	0.13798	0.10766	0.09818	0.33439	0.32579	0.01789	0.066709	0.32316	0.17402	0.15399	0.1672	0.17298	0.33233	-2.5021	-2.8563	-3.1937	-3.1458	-3.1354	-3.1396	-3.0312	-3.2708	-2.9938	-3.1146	-3.3521	-2.9583	-3.1042	-3.1979	-2.75	-3.1104	276.727	317.806	190.031	447.288	255.000	296.009	377.037	444.444	243.480	272.493	465.267	405.879	319.263	386.406	420.628	413.960	0.0035157	0.00088342	0.00022924	746.32	1.7576e-05	5.715e-06	1055.8	254.33	6.3129e-06	7.4975e-06	447.34	199.1	96.552	51.056	2.2974e-06	126.8	0.0044828	0.005056	0.0014216	794.17	5.4113e-05	5.5664e-05	1057.5	256.82	5.2652e-05	5.5332e-05	452.93	198.01	104.52	52.091	5.3553e-05	126.97	439.847	174.798	224.286	138.617	275.381	275.604	138.664	143.816	394.378	421.761	142.942	147.001	147.267	151.574	309.908	150.009	-8191	255	
2246.368	1	1	0	0	0.22829	0.19979	0.17479	0.12535	0.18582	0.20684	0.18412	0.19124	0.15692	0.33152	0.1478	0.17903	0.059941	0.22854	0.22133	0.10826	-2.5354	-2.875	-3.2208	-2.8896	-2.9854	-3.3417	-2.9875	-3.2104	-3.1833	-2.6917	-3.3312	-2.9292	-2.8208	-3.3875	-2.8292	-3.2083	161.152	324.168	152.626	148.380	450.595	307.565	428.246	397.053	448.784	347.435	462.102	140.063	385.350	426.673	165.882	417.367	0.0038438	0.0005358	0.00028125	744.47	1.2863e-05	5.8284e-06	1059.1	253.57	1.6793e-05	8.1976e-06	446.05	199	98.815	51.841	9.0411e-06	127.01	0.0044061	0.0049566	0.0013736	790.77	5.2554e-05	5.3876e-05	1055.4	256.65	5.146e-05	5.433e-05	452.91	198.51	105.52	52.474	5.2911e-05	127.03	437.316	191.448	162.558	138.663	315.029	237.009	138.629	143.911	265.483	218.594	143.028	146.948	146.740	151.561	284.378	150.123	-8191	255	
2246.489	1	1	0	0	0.19512	0.23451	0.067284	0.24885	0.13433	0.25484	0.13269	0.24899	0.15919	0.19374	0.048829	0.20215	0.090002	0.1504	0.19076	0.092728	-2.7687	-2.9354	-3.2104	-3.2375	-2.9167	-3.2875	-3.1042	-3.0292	-3.2333	-2.8333	-3.3479	-3.0292	-2.7833	-3.3521	-2.7271	-3.1771	417.571	149.653	185.480	250.948	332.666	418.077	413.535	427.519	348.690	315.388	236.468	402.529	187.319	447.533	429.808	296.294	0.0037998	0.0010765	0.00029274	749.95	9.2708e-06	1.3542e-05	1059.2	255.86	1.3164e-05	1.2108e-05	447.79	198.77	97.654	51.611	1.3324e-05	127.87	0.0044108	0.0049277	0.0013822	793.05	5.2009e-05	5.4116e-05	1057.8	258.08	5.0684e-05	5.3754e-05	453.35	198.53	105.31	52.513	5.2255e-05	127.65	434.929	183.385	222.096	138.462	235.855	271.467	138.688	143.846	199.730	273.954	143.281	146.970	146.977	151.490	245.545	150.074	-8191	255	
2246.561	1	1	0	0	0.23901	0.17086	0.18885	0.2781	0.14097	0.23798	0.14628	0.35735	0.15189	0.12661	0.17484	0.13403	0.076745	0.26753	0.12229	0.19671	-2.6646	-2.875	-3.0021	-3.0646	-2.8354	-3.15	-3.1021	-3.0125	-3.2542	-3.0375	-3.1625	-2.9813	-2.9104	-3.3792	-2.9896	-3.1104	237.866	365.110	169.097	443.592	472.412	307.647	449.213	444.059	254.861	341.353	402.218	180.542	430.700	451.903	161.870	448.817	0.0040949	0.0011386	0.00046127	754.2	6.7542e-06	4.9264e-06	1067.2	255.8	2.3288e-05	8.9955e-06	450.34	200.28	99.195	51.995	3.7665e-06	128.09	0.0043676	0.0048371	0.0013507	795.6	5.2011e-05	5.4169e-05	1060.7	258.29	5.1298e-05	5.3749e-05	455.65	199.55	105.66	52.823	5.1761e-05	128.1	436.546	170.296	220.371	138.813	312.328	365.225	138.446	143.838	224.709	242.242	143.057	146.906	147.127	151.659	477.483	150.200	-8191	255	
2246.657	1	1	0	0	0.20047	0.05926	0.085032	0.22519	0.20678	0.15528	0.20459	0.14312	0.1314	0.066604	0.095121	0.096986	0.20336	0.16982	0.11633	0.31047	-2.7458	-2.7583	-3.0125	-3.1104	-2.9313	-3.1833	-3.0792	-2.9667	-3.1875	-2.9271	-3.2854	-3.1583	-2.7771	-3.3583	-2.8583	-3.0646	289.378	244.617	400.785	132.490	395.989	392.421	392.810	345.710	364.940	142.064	464.964	403.790	202.818	431.355	451.307	402.388	0.0037749	0.0012078	0.0001974	752.04	5.6978e-06	1.4811e-05	1055.4	255.52	1.1989e-05	3.4521e-06	448.42	198.63	98.108	51.73	9.3656e-06	127.27	0.0043375	0.0047806	0.0013373	793.08	5.1079e-05	5.2378e-05	1054.6	257.83	4.9666e-05	5.1924e-05	451.84	197.87	104.58	52.437	4.9572e-05	127.04	439.001	234.320	229.033	138.771	333.819	250.795	138.765	143.807	233.001	318.589	143.025	146.901	147.046	151.576	276.113	150.057	-8191	255	
2246.753	1	1	0	0	0.048544	0.22748	0.22622	0.1141	0.18799	0.26938	0.20722	0.32544	0.080784	0.11546	0.21168	0.25536	0.079635	0.21999	0.044744	0.24795	-2.8854	-3.0396	-2.9562	-3.1271	-3.0938	-3.1146	-3.2667	-2.9062	-3.0625	-2.8958	-2.975	-3.375	-2.9167	-3.2979	-3.3917	-3.2167	149.509	313.692	407.034	406.705	458.494	343.338	345.505	483.735	297.290	408.574	439.853	438.638	149.713	182.834	249.630	439.214	0.0038827	0.00042244	0.00035412	746.68	6.2059e-06	4.9764e-06	1060.8	256.25	1.7651e-05	2.4059e-06	449.95	199.22	99.163	52.098	3.8122e-06	127.8	0.0041447	0.0045875	0.0012758	788.52	4.9118e-05	5.0042e-05	1054.3	257.84	4.7497e-05	5.0019e-05	452.57	198.22	104.6	52.687	4.7951e-05	127.55	436.520	261.855	184.349	138.751	212.570	231.773	138.806	143.634	245.363	344.279	143.246	146.847	146.655	151.465	326.957	150.053	-8191	255	
2246.872	1	1	0	0	0.014419	0.10664	0.15571	0.18074	0.032067	0.22773	0.22279	0.39766	0.18633	0.14218	0.13125	0.36876	0.015266	0.22326	0.2175	0.23981	-2.8125	-3.0333	-3.125	-3.2938	-3.1604	-3.1417	-3.3729	-3.0854	-3.3271	-3.0333	-3.2438	-3.5104	-3.0062	-3.1771	-3.2854	-3.2125	310.327	215.424	128.017	192.676	244.163	380.082	381.993	447.021	143.733	450.334	394.708	138.353	188.886	418.126	466.472	415.836	0.0036963	0.00062233	0.00013409	752.25	4.444e-06	1.2804e-05	1066.1	257.33	2.7928e-05	1.237e-05	451.29	200.99	99.93	52.313	2.3559e-05	129.03	0.0040124	0.0044106	0.0012189	788.22	4.5929e-05	4.7357e-05	1057.4	258.14	4.4186e-05	4.6393e-05	454.12	199.43	104.6	52.818	4.4476e-05	128.3	435.565	276.155	442.769	139.319	274.410	237.861	138.800	143.778	260.516	215.637	143.176	147.149	147.044	151.534	272.347	150.017	-8191	255	
2246.968	1	1	0	0	0.15067	0.12245	0.14698	0.15699	0.091402	0.28829	0.29331	0.31479	0.12948	0.047609	0.16652	0.052994	0.028229	0.32553	0.23401	0.18687	-2.6167	-3.0229	-2.8604	-3.2479	-3.2417	-3.2021	-3.3854	-2.8771	-3.4062	-3.1292	-3.0125	-3.3333	-3.2375	-3.25	-3.2646	-3.1458	449.724	218.197	283.479	295.977	358.742	241.732	424.464	360.738	159.513	385.974	132.390	245.201	438.795	474.949	385.003	418.763	0.0038199	0.00078805	0.00025636	753.98	1.7442e-05	6.2109e-06	1068.5	259.45	1.3633e-05	1.0988e-05	455.22	201.88	99.68	52.231	1.2728e-05	128.36	0.0037962	0.0041275	0.0011526	787.66	4.36e-05	4.4578e-05	1060	259.79	4.2271e-05	4.4673e-05	456.64	199.84	104.54	52.866	4.3554e-05	127.84	437.843	194.645	242.239	138.987	234.322	288.583	138.865	143.985	271.426	298.430	143.370	146.966	146.919	151.450	292.520	150.057	-8191	255	
2247.064	1	1	0	0	0.043245	0.26326	0.11109	0.19901	0.066688	0.28328	0.29222	0.33218	0.010821	0.084903	0.28407	0.078217	0.12645	0.22654	0.40393	0.14166	-2.7708	-3.0667	-2.7896	-3.2417	-2.975	-3.0958	-3.4021	-3.0917	-3.2979	-3.0146	-2.9021	-3.3833	-2.9458	-3.1146	-3.3125	-3.2292	135.220	203.599	327.169	158.440	336.807	193.761	363.896	443.488	155.645	298.022	457.115	153.866	157.037	443.531	144.288	405.896	0.003817	0.00078746	0.00022527	754.5	4.7395e-06	1.3331e-05	1063.2	257.51	1.0261e-05	2.717e-06	448.81	199.33	98.398	51.786	4.8679e-06	127.38	0.0036839	0.0040121	0.0011235	784.22	4.3087e-05	4.4303e-05	1052.9	257.4	4.1881e-05	4.3452e-05	450.21	196.78	102.82	52.239	4.2357e-05	126.58	433.820	175.546	218.161	138.503	276.562	254.067	138.793	143.738	261.573	292.667	143.248	146.969	147.070	151.524	332.145	150.090	-8191	255	
#DATA ENDS
