BOXY.EXE: ISS Imagent and Oximeter Data Acquisition Program Version 0.80
Ascii Record File

#ACQ INFORMATION
2  Detector Channels 
16  External MUX Channels 
1  Auxiliary Channels 
5000  Waveform (CCF) Frequency (Hz)
1  Waveforms Skipped 
30  Waveforms Averaged 
1  Cycles Averaged 
16  Acquisitions per Waveform 
10.0806  Updata Rate (Hz) 

#FILE INFORMATION
TRUE -- External MUX Channel results are PARSED.
FALSE -- AC DC and Phase are NOT grouped.
TRUE -- Companion Program Settings File CREATED.
FALSE -- AC data not excluded
FALSE -- DC data not excluded
FALSE -- Phase data not excluded
FALSE -- Auxillary Chn. data not excluded
Tab delimiters

#CALIBRATION STATE
TRUE -- Waveform Calibration Values APPLIED.


#AUX CALIBRATION VALUES
Val Type	aux-1	

Term	1.0000e+00	
Factor	0.0000e+00	


#WF CALIBRATION VALUES
A = Detector Channel
Val Type	A-AC1	A-AC2	A-AC3	A-AC4	A-AC5	A-AC6	A-AC7	A-AC8	A-AC9	A-AC10	A-AC11	A-AC12	A-AC13	A-AC14	A-AC15	A-AC16	A-DC1	A-DC2	A-DC3	A-DC4	A-DC5	A-DC6	A-DC7	A-DC8	A-DC9	A-DC10	A-DC11	A-DC12	A-DC13	A-DC14	A-DC15	A-DC16	A-Ph1	A-Ph2	A-Ph3	A-Ph4	A-Ph5	A-Ph6	A-Ph7	A-Ph8	A-Ph9	A-Ph10	A-Ph11	A-Ph12	A-Ph13	A-Ph14	A-Ph15	A-Ph16	

Term	0.00000e+00	0.00000e+00	0.00000e+00	0.00000e+00	0.00000e+00	0.00000e+00	0.00000e+00	0.00000e+00	0.00000e+00	0.00000e+00	0.00000e+00	0.00000e+00	0.00000e+00	0.00000e+00	0.00000e+00	0.00000e+00	0.00000e+00	0.00000e+00	0.00000e+00	0.00000e+00	0.00000e+00	0.00000e+00	0.00000e+00	0.00000e+00	0.00000e+00	0.00000e+00	0.00000e+00	0.00000e+00	0.00000e+00	0.00000e+00	0.00000e+00	0.00000e+00	0.00000e+00	0.00000e+00	0.00000e+00	0.00000e+00	0.00000e+00	0.00000e+00	0.00000e+00	0.00000e+00	0.00000e+00	0.00000e+00	0.00000e+00	0.00000e+00	0.00000e+00	0.00000e+00	0.00000e+00	0.00000e+00	
Factor	1.00000e+00	1.00000e+00	1.00000e+00	1.00000e+00	1.00000e+00	1.00000e+00	1.00000e+00	1.00000e+00	1.00000e+00	1.00000e+00	1.00000e+00	1.00000e+00	1.00000e+00	1.00000e+00	1.00000e+00	1.00000e+00	1.00000e+00	1.00000e+00	1.00000e+00	1.00000e+00	1.00000e+00	1.00000e+00	1.00000e+00	1.00000e+00	1.00000e+00	1.00000e+00	1.00000e+00	1.00000e+00	1.00000e+00	1.00000e+00	1.00000e+00	1.00000e+00	X	X	X	X	X	X	X	X	X	X	X	X	X	X	X	X	

B = Detector Channel
Val Type	B-AC1	B-AC2	B-AC3	B-AC4	B-AC5	B-AC6	B-AC7	B-AC8	B-AC9	B-AC10	B-AC11	B-AC12	B-AC13	B-AC14	B-AC15	B-AC16	B-DC1	B-DC2	B-DC3	B-DC4	B-DC5	B-DC6	B-DC7	B-DC8	B-DC9	B-DC10	B-DC11	B-DC12	B-DC13	B-DC14	B-DC15	B-DC16	B-Ph1	B-Ph2	B-Ph3	B-Ph4	B-Ph5	B-Ph6	B-Ph7	B-Ph8	B-Ph9	B-Ph10	B-Ph11	B-Ph12	B-Ph13	B-Ph14	B-Ph15	B-Ph16	

Term	0.00000e+00	0.00000e+00	0.00000e+00	0.00000e+00	0.00000e+00	0.00000e+00	0.00000e+00	0.00000e+00	0.00000e+00	0.00000e+00	0.00000e+00	0.00000e+00	0.00000e+00	0.00000e+00	0.00000e+00	0.00000e+00	0.00000e+00	0.00000e+00	0.00000e+00	0.00000e+00	0.00000e+00	0.00000e+00	0.00000e+00	0.00000e+00	0.00000e+00	0.00000e+00	0.00000e+00	0.00000e+00	0.00000e+00	0.00000e+00	0.00000e+00	0.00000e+00	-2.34514e+02	-1.29768e+02	-1.30127e+02	-1.84443e+02	-8.22941e+01	-6.40824e+01	-1.56720e+02	-1.62015e+02	-7.26260e+01	-6.78743e+01	-1.72091e+02	-1.69816e+02	-1.86035e+02	-1.76734e+02	-7.55040e+01	-1.49635e+02	
Factor	5.55501e-05	1.82107e-04	4.65506e-05	3.36067e-01	2.21863e-06	2.08987e-06	1.79340e-01	5.49720e-02	3.07935e-06	1.85942e-06	9.27168e-02	3.06035e-02	5.57620e-02	9.79774e-03	2.10663e-06	1.41981e-02	8.47988e-06	1.03975e-05	2.90508e-06	1.65852e-01	1.11247e-07	1.15048e-07	8.36732e-02	2.73498e-02	1.08864e-07	1.14871e-07	4.47458e-02	1.47719e-02	2.76586e-02	4.92130e-03	1.11357e-07	6.90630e-03	X	X	X	X	X	X	X	X	X	X	X	X	X	X	X	X	



#DISTANCE SETTINGS
A = Detector Channel
A-1	A-2	A-3	A-4	A-5	A-6	A-7	A-8	A-9	A-10	A-11	A-12	A-13	A-14	A-15	A-16	

2.5000e+00	3.0000e+00	2.5000e+00	3.0000e+00	2.0000e+00	3.0000e+00	1.5000e+00	3.0000e+00	3.0000e+00	3.0000e+00	3.0000e+00	3.0000e+00	3.0000e+00	3.0000e+00	1.5000e+00	3.0000e+00	

B = Detector Channel
B-1	B-2	B-3	B-4	B-5	B-6	B-7	B-8	B-9	B-10	B-11	B-12	B-13	B-14	B-15	B-16	

1.0000e+01	1.0000e+01	1.0000e+01	1.4400e+00	1.0000e+01	1.0000e+01	1.5100e+00	1.9400e+00	1.0000e+01	1.0000e+01	1.9900e+00	2.4900e+00	2.4100e+00	2.9000e+00	1.0000e+01	2.9800e+00	




#DATA BEGINS
time	group	step	mark	flag	A-AC1	A-AC2	A-AC3	A-AC4	A-AC5	A-AC6	A-AC7	A-AC8	A-AC9	A-AC10	A-AC11	A-AC12	A-AC13	A-AC14	A-AC15	A-AC16	A-DC1	A-DC2	A-DC3	A-DC4	A-DC5	A-DC6	A-DC7	A-DC8	A-DC9	A-DC10	A-DC11	A-DC12	A-DC13	A-DC14	A-DC15	A-DC16	A-Ph1	A-Ph2	A-Ph3	A-Ph4	A-Ph5	A-Ph6	A-Ph7	A-Ph8	A-Ph9	A-Ph10	A-Ph11	A-Ph12	A-Ph13	A-Ph14	A-Ph15	A-Ph16	B-AC1	B-AC2	B-AC3	B-AC4	B-AC5	B-AC6	B-AC7	B-AC8	B-AC9	B-AC10	B-AC11	B-AC12	B-AC13	B-AC14	B-AC15	B-AC16	B-DC1	B-DC2	B-DC3	B-DC4	B-DC5	B-DC6	B-DC7	B-DC8	B-DC9	B-DC10	B-DC11	B-DC12	B-DC13	B-DC14	B-DC15	B-DC16	B-Ph1	B-Ph2	B-Ph3	B-Ph4	B-Ph5	B-Ph6	B-Ph7	B-Ph8	B-Ph9	B-Ph10	B-Ph11	B-Ph12	B-Ph13	B-Ph14	B-Ph15	B-Ph16	aux-1	digaux	

1404.919	1	1	0	256	0.17593	0.043471	0.10798	0.12718	0.17609	0.11494	0.17366	0.19312	0.094074	0.094775	0.27596	0.18974	0.070828	0.17271	0.15173	0.19704	-3.1	-3.0271	-3.1833	-3.4042	-2.7833	-3.2521	-3.2271	-3.3333	-3.4417	-3.2854	-3.1437	-3.3854	-3.075	-3.3896	-3.3937	-3.1271	196.192	116.318	-86.798	-14.764	-134.739	100.858	-6.770	57.775	131.928	37.665	112.295	184.984	125.561	26.465	-15.890	157.302	0.00058302	0.00029932	8.7217e-05	1185.1	4.6432e-06	3.0248e-06	1243.7	242.59	6.901e-06	5.0719e-06	304.17	86.185	68.102	19.653	2.0153e-06	27.638	0.00023599	0.00020108	5.3932e-05	1167.3	2.2254e-06	2.167e-06	1231.7	241.44	2.217e-06	2.2723e-06	303.6	86.323	68.079	19.899	2.3538e-06	28.248	96.205	-40.574	-94.246	-139.676	-22.994	-9.415	-140.121	-132.946	-54.290	12.073	-132.824	-127.242	-127.244	-119.254	-31.413	-119.729	-8191	255	
1405.014	1	1	0	0	0.086307	0.2536	0.085853	0.11155	0.083895	0.045301	0.1034	0.092242	0.26461	0.095316	0.05643	0.10385	0.14439	0.20047	0.013819	0.18119	-2.9583	-2.975	-3.15	-3.4604	-3.1562	-3.1854	-3.4146	-3.1562	-3.3167	-3.2104	-3.3021	-3.4396	-3.0646	-3.3979	-3.3667	-3.1125	-47.804	126.765	21.925	-147.539	-20.023	173.155	110.634	162.889	13.637	-27.011	205.070	-118.969	-15.093	56.559	140.023	183.617	0.00057417	0.00023359	6.768e-05	1189.4	2.1057e-06	4.7851e-06	1258.5	244.81	5.4786e-06	2.9629e-06	305.52	87.029	69.758	19.752	2.6158e-06	28.161	0.00024597	0.00022576	6.3204e-05	1175.4	2.4861e-06	2.4091e-06	1245.6	243.62	2.5266e-06	2.5353e-06	305.39	87.082	68.976	19.998	2.5626e-06	28.518	94.682	-68.591	-55.288	-139.676	3.368	18.120	-139.770	-132.952	-33.137	16.088	-132.852	-126.950	-126.864	-119.010	2.166	-120.056	-8191	255	
1405.110	1	1	0	0	0.36318	0.10987	0.24689	0.082378	0.10519	0.058982	0.16545	0.10961	0.11413	0.1817	0.033735	0.15642	0.053198	0.23529	0.12717	0.22804	-2.9375	-3.0104	-3.0979	-3.6125	-3.0521	-3.2833	-3.5229	-3.125	-3.4292	-3.3063	-3.3333	-3.4396	-3.0021	-3.3812	-3.3021	-3.1063	-42.684	55.189	-72.607	-28.372	-134.546	-57.446	141.555	126.123	3.366	140.059	154.376	66.357	-72.960	97.053	-42.426	195.407	0.00058794	0.00029549	7.9435e-05	1208	2.4337e-06	1.8933e-06	1272.6	247.15	1.7845e-05	4.1037e-06	308.49	87.491	69.445	19.793	4.587e-06	27.888	0.00026694	0.00023234	6.4432e-05	1191.2	2.6871e-06	2.6979e-06	1259.9	245.53	3.099e-06	2.7284e-06	307.94	87.77	69.272	20.104	2.67e-06	28.404	101.907	-71.719	-68.203	-139.833	-19.515	7.172	-140.102	-132.987	-130.627	-6.570	-133.025	-127.231	-127.211	-119.657	-20.962	-119.842	-8191	255	
1405.206	1	1	0	0	0.071594	0.058807	0.19526	0.14411	0.18387	0.33204	0.12806	0.24896	0.32637	0.058903	0.012362	0.15979	0.37544	0.13193	0.0063553	0.082956	-3.1083	-3.1229	-3.0729	-3.4688	-3.1917	-3.2083	-3.3958	-3.2083	-3.3646	-3.2979	-3.2104	-3.5125	-3.2771	-3.25	-3.5521	-2.9479	126.334	-56.251	88.953	-72.908	22.903	153.518	195.784	147.777	199.138	-58.992	109.191	154.240	-59.201	202.562	-56.294	177.938	0.00058839	0.0003964	9.3842e-05	1215.2	3.49e-06	5.185e-06	1273.8	247.5	5.8613e-06	1.2628e-06	308.28	86.801	68.53	19.705	4.6973e-06	27.792	0.00027046	0.00024451	6.7307e-05	1199.1	2.5508e-06	2.6883e-06	1262.3	245.68	2.728e-06	2.6308e-06	305.72	86.929	68.751	19.945	2.6155e-06	28.229	95.015	-55.799	-31.003	-140.083	-50.797	14.586	-140.052	-132.849	-54.232	-2.158	-133.017	-127.088	-127.187	-119.617	11.397	-119.602	-8191	255	
1405.302	1	1	0	0	0.069069	0.070156	0.34993	0.10407	0.39311	0.24767	0.082936	0.19232	0.071223	0.10645	0.14041	0.24067	0.15171	0.037229	0.14774	0.13519	-2.9854	-3.2667	-3.0271	-3.3396	-3.1542	-3.2333	-3.7083	-3.1229	-3.1917	-3.5083	-3.1437	-3.35	-3.0521	-3.2917	-3.1813	-3.175	147.678	191.844	70.926	-6.211	63.138	21.647	191.635	-134.329	145.079	199.226	-106.711	42.861	151.993	41.165	203.089	133.745	0.00050336	0.00033932	0.00010236	1203.9	4.8984e-06	3.2857e-06	1271.1	245.87	6.1518e-06	3.6241e-06	304.83	85.882	68.09	19.784	3.2061e-06	27.735	0.0002694	0.00023899	6.8657e-05	1189.8	2.6746e-06	2.6799e-06	1256.1	243.99	2.7014e-06	2.6382e-06	304.14	86.47	68.13	19.892	2.5756e-06	28.09	93.321	-35.787	-60.472	-139.971	-42.507	25.705	-139.983	-132.970	-61.727	11.633	-133.026	-126.802	-126.968	-119.159	15.289	-119.616	-8191	255	
1405.398	1	1	0	0	0.12287	0.16614	0.092632	0.086056	0.3213	0.050788	0.21155	0.20581	0.21893	0.32371	0.15401	0.23684	0.26757	0.029108	0.19113	0.18317	-3.1437	-3.2979	-3.1146	-3.4333	-3.1979	-3.1604	-3.5979	-3.1167	-2.9813	-3.3375	-3.2062	-3.525	-3.2375	-2.9917	-3.3833	-3.3729	153.692	132.389	98.642	4.802	118.657	19.727	183.970	109.569	3.160	167.246	106.297	112.722	178.816	-79.257	60.719	-55.801	0.0006541	0.00043753	8.5512e-05	1208.1	1.0113e-06	3.022e-06	1268.6	245.92	4.6082e-06	2.3045e-06	304.16	85.631	68.277	19.502	4.0703e-06	27.51	0.00026664	0.00023414	6.5189e-05	1189.4	2.5374e-06	2.6006e-06	1257.2	244.23	2.703e-06	2.5382e-06	303.88	86.075	68.074	19.721	2.4049e-06	27.899	98.424	-60.291	-83.167	-140.212	-76.918	-35.958	-140.025	-133.034	-30.134	-21.159	-133.141	-126.826	-126.943	-119.190	1.563	-119.649	-8191	255	
1405.519	1	1	0	0	0.18216	0.043722	0.22313	0.15944	0.018546	0.13815	0.17291	0.24603	0.081262	0.088174	0.25011	0.078056	0.080484	0.18172	0.17186	0.15666	-2.8083	-3.225	-2.9229	-3.3854	-3.3042	-3.0729	-3.3208	-3.1813	-3.2542	-3.5396	-2.9479	-3.1375	-3.1646	-3.1667	-3.4521	-3.1708	88.522	169.311	-124.946	-134.633	150.067	-84.686	189.895	141.180	123.335	95.437	204.965	197.289	-32.796	30.193	37.125	-3.653	0.00060519	0.00036927	5.384e-05	1201.4	1.3057e-06	3.0301e-06	1265.6	244.13	5.4225e-06	3.4163e-06	304.72	85.725	68.006	19.328	3.3983e-06	27.299	0.00026134	0.00021919	6.5286e-05	1189.4	2.4748e-06	2.4402e-06	1253.2	242.89	2.5565e-06	2.3616e-06	303.58	85.761	67.858	19.602	2.3204e-06	27.779	93.285	-104.252	-55.354	-139.759	-11.665	24.689	-140.037	-132.807	-54.361	-35.398	-133.178	-126.983	-127.245	-119.227	-22.266	-119.807	-8191	255	
1405.615	1	1	0	0	0.077032	0.071875	0.24208	0.15486	0.12283	0.22094	0.064312	0.034021	0.13091	0.032666	0.094027	0.18351	0.21367	0.29764	0.12752	0.17761	-2.6792	-3.35	-3.0104	-3.3208	-3.2958	-3.2104	-3.4813	-3.3792	-2.9979	-3.3292	-3.1188	-3.1521	-3.25	-3.2062	-3.2354	-3.1625	59.220	183.461	35.494	122.208	-90.924	165.873	113.830	76.755	103.771	178.150	36.314	138.325	-86.365	-137.650	-147.925	0.044	0.00060458	0.00058295	0.00016861	1200.8	2.212e-06	3.1526e-06	1258.1	243.31	4.3721e-06	4.1279e-06	303.12	84.954	67.446	19.276	4.6053e-06	27.072	0.00024496	0.00020563	5.8761e-05	1184.2	2.2836e-06	2.2947e-06	1246.8	242.08	2.3231e-06	2.0603e-06	301.9	85.465	67.349	19.487	2.0949e-06	27.567	95.845	-47.516	-56.751	-139.965	-34.902	3.651	-139.952	-133.029	-56.440	-19.287	-132.836	-126.770	-126.559	-119.114	-22.130	-119.604	-8191	255	
1405.711	1	1	0	0	0.14899	0.062007	0.11454	0.11358	0.13738	0.19475	0.35075	0.18996	0.23723	0.080859	0.17657	0.18121	0.095076	0.10009	0.083125	0.41674	-2.7458	-3.475	-3.0312	-3.4292	-3.1979	-2.9875	-3.5979	-3.1854	-3.1021	-3.4792	-3.1937	-3.2333	-3.5458	-3.1667	-3.2354	-3.3812	18.848	-58.934	-124.614	47.839	42.142	133.827	130.423	160.948	-5.055	43.748	0.632	126.972	35.515	-29.234	177.898	-150.400	0.00055265	0.00025179	9.3596e-05	1191.8	4.9756e-06	3.7611e-06	1261.2	243.14	6.9518e-06	3.2626e-06	303.14	85.497	67.871	19.26	2.9051e-06	27.237	0.0002174	0.00018349	5.0234e-05	1179.3	2.1619e-06	2.091e-06	1247.6	241.31	2.3317e-06	2.0406e-06	302.08	85.551	67.41	19.542	2.2306e-06	27.765	96.513	-62.931	-73.688	-139.782	-28.352	34.472	-140.029	-132.607	-26.931	29.961	-132.999	-126.975	-126.869	-118.995	34.749	-119.693	-8191	255	
1405.783	1	1	0	0	0.16881	0.025895	0.21438	0.29913	0.031383	0.12876	0.18651	0.25905	0.23455	0.20443	0.10242	0.31114	0.15019	0.069043	0.027209	0.11387	-2.6833	-3.2375	-3.0583	-3.1833	-3.1688	-3.1437	-3.5	-3.1792	-3.1729	-3.35	-3.175	-3.2583	-3.5542	-3.05	-3.3688	-3.5167	187.028	89.826	-129.598	-123.633	-137.157	-126.071	-132.138	90.036	-29.345	184.417	202.817	-128.136	178.856	59.069	111.200	12.908	0.00054713	0.00012583	9.9717e-05	1187.3	3.727e-06	3.1241e-06	1248.5	241.58	5.261e-06	3.9621e-06	302.29	85.094	67.629	19.369	3.1101e-06	27.064	0.00023157	0.00019846	5.7109e-05	1172.9	2.2113e-06	2.1313e-06	1235.8	240.28	2.2084e-06	2.0153e-06	301.08	85.206	67.151	19.521	2.0033e-06	27.667	100.960	-28.729	-42.601	-139.599	-23.415	10.948	-140.062	-132.857	-66.453	-11.778	-132.862	-126.747	-126.639	-119.377	8.026	-119.481	-8191	255	
1405.902	1	1	0	0	0.10069	0.18888	0.14036	0.32919	0.069417	0.11055	0.17701	0.14661	0.046847	0.13963	0.14659	0.23253	0.054885	0.10519	0.11207	0.19226	-2.5875	-3.5021	-3.0667	-3.025	-3.4917	-3.0875	-3.4313	-3.3708	-3.1042	-3.3833	-3.35	-3.325	-3.4021	-3.0896	-3.2479	-3.3438	98.319	112.914	147.012	189.280	-120.194	88.055	114.084	125.960	-146.186	147.033	-40.950	-52.336	185.986	-56.051	-3.490	174.776	0.00056931	0.00032228	0.00010781	1173.3	3.9534e-06	3.3907e-06	1239.8	240.88	6.9177e-06	2.993e-06	301.24	84.763	67.083	19.47	2.4816e-06	27.223	0.0002171	0.00016952	4.705e-05	1161.2	1.9144e-06	1.946e-06	1226.4	239.23	2.1585e-06	1.8786e-06	299.74	84.903	66.882	19.575	2.0759e-06	27.763	96.149	-51.219	-51.382	-139.551	-10.186	-2.158	-139.817	-132.752	-35.389	-4.778	-132.710	-126.678	-127.226	-118.855	-1.765	-119.755	-8191	255	
1405.998	1	1	0	0	0.21538	0.12831	0.175	0.085663	0.17329	0.079616	0.1572	0.23447	0.16633	0.10432	0.20264	0.088558	0.065216	0.080627	0.26984	0.22264	-2.7979	-3.2833	-3.1354	-3.2333	-3.4896	-3.1375	-3.5229	-3.4437	-3.0229	-3.5604	-3.3083	-2.9667	-3.5917	-3.1396	-3.1667	-3.4917	165.671	202.619	67.277	-30.577	-119.619	159.581	138.051	161.554	15.818	185.289	141.718	-112.705	-44.771	182.432	-21.860	-96.647	0.00057493	0.00032526	9.6794e-05	1184.2	1.9344e-06	3.9068e-06	1245.3	241.65	4.1379e-06	2.4282e-06	301.43	85.59	67.68	19.465	4.2231e-06	27.469	0.00022963	0.0001849	5.1178e-05	1168.4	2.1227e-06	2.05e-06	1233.6	239.76	2.2573e-06	1.9897e-06	300.72	85.544	67.42	19.645	2.0712e-06	27.974	98.323	-53.784	-77.665	-139.872	-74.843	-6.654	-139.862	-132.674	-25.857	-10.027	-133.012	-127.092	-127.126	-119.053	-41.981	-119.692	-8191	255	
1406.094	1	1	0	0	0.21596	0.13797	0.19709	0.30058	0.11518	0.20183	0.068014	0.20046	0.19417	0.10251	0.038692	0.050656	0.13743	0.2277	0.16519	0.29714	-2.6813	-3.4375	-3.1688	-3.1458	-3.4833	-3.1771	-3.4646	-3.4333	-3.1875	-3.2938	-3.2042	-3.0521	-3.5417	-3.3125	-3.1125	-3.4458	124.702	-34.007	8.690	-143.474	158.980	150.463	104.932	133.619	-77.603	-124.227	-116.244	-88.947	4.260	103.521	20.326	-114.810	0.00055601	0.00040949	3.3607e-05	1189.1	4.436e-06	8.8112e-07	1239.8	241.71	4.0689e-06	2.6174e-06	299.11	84.785	66.866	19.364	3.4995e-06	27.166	0.00022917	0.00018902	5.0772e-05	1167.6	1.9832e-06	2.015e-06	1227	239.2	2.1022e-06	2e-06	298.56	84.704	66.695	19.515	2.0221e-06	27.69	95.631	-85.711	-111.395	-139.896	-27.170	1.942	-139.660	-132.780	-44.783	-16.049	-133.021	-126.676	-127.053	-119.199	-2.874	-119.350	-8191	255	
1406.192	1	1	0	0	0.34262	0.092446	0.11935	0.18631	0.16733	0.16028	0.26483	0.15515	0.16257	0.27971	0.039115	0.31877	0.065554	0.11815	0.086483	0.18951	-2.7458	-3.2521	-3.3063	-3.2292	-3.5833	-3.3667	-3.2208	-3.3104	-3.2375	-3.4104	-3.5271	-2.9708	-3.2125	-3.3125	-3.2667	-3.5479	113.039	-46.454	150.267	-84.065	123.320	-70.643	130.437	-135.226	-21.644	3.575	107.083	191.924	205.816	-23.203	-66.603	193.776	0.00048933	0.00031522	2.7344e-05	1164.1	1.1456e-06	3.7977e-06	1231.6	239.92	5.5494e-06	3.1933e-06	298.67	83.911	66.942	19.26	3.7386e-06	27.426	0.00021555	0.00018135	4.6118e-05	1147.5	1.9932e-06	1.8762e-06	1214.3	237.44	2.1321e-06	1.9217e-06	297.42	84.505	66.4	19.442	1.9181e-06	27.765	103.252	-35.388	-62.284	-139.913	-34.709	3.026	-139.938	-132.821	-41.267	11.138	-132.864	-126.550	-126.971	-118.752	-45.658	-119.696	-8191	255	
1406.311	1	1	0	0	0.070713	0.32954	0.23148	0.11214	0.096079	0.18463	0.16292	0.075429	0.20614	0.15418	0.19061	0.13566	0.16671	0.1569	0.096834	0.17265	-2.6146	-3.1917	-3.5021	-3.1042	-3.3708	-3.2313	-3.2333	-3.4625	-3.175	-3.3021	-3.4771	-2.7938	-3.225	-3.5583	-3.0625	-3.4104	-66.389	47.077	-82.153	44.531	77.546	174.180	205.971	-34.102	118.967	-42.407	154.982	197.290	25.683	-129.172	-20.058	41.748	0.00058525	0.00050751	8.8075e-05	1166.8	5.0008e-06	2.8894e-06	1223.2	238.69	6.6031e-06	2.9859e-06	298.73	83.834	66.471	19.204	1.689e-06	27.291	0.0002165	0.00017934	4.6294e-05	1146	1.9728e-06	1.9309e-06	1209.1	236.59	2.0444e-06	1.8813e-06	296.36	84.243	66.19	19.366	1.8397e-06	27.633	102.354	-61.027	-60.754	-139.600	-29.780	-5.637	-139.901	-132.524	-63.976	-17.282	-132.749	-126.925	-126.885	-119.185	31.428	-119.736	-8191	255	
1406.382	1	1	0	0	0.14241	0.17257	0.11397	0.29142	0.27919	0.050201	0.28426	0.076892	0.13093	0.12831	0.14551	0.084378	0.21193	0.10781	0.17496	0.15984	-2.7729	-3.0938	-3.4542	-2.9125	-3.275	-3.5979	-3.3312	-3.5333	-2.9396	-2.9542	-3.3563	-3.1437	-3.2062	-3.5021	-2.9729	-3.25	-74.523	-56.675	-143.795	103.369	173.120	-141.300	148.470	-138.577	170.113	-127.751	135.752	-76.053	5.429	162.779	14.013	168.777	0.00059412	0.00040623	3.0674e-05	1162.1	3.5053e-06	3.8632e-06	1222.2	238.23	5.847e-06	5.298e-06	296.59	84.285	66.133	19.155	4.1054e-06	27.128	0.000215	0.00017587	4.5579e-05	1142.1	2.0794e-06	1.8532e-06	1210	236.11	2.07e-06	1.7896e-06	295.25	84.206	65.903	19.311	1.9256e-06	27.57	95.225	-36.649	-61.329	-139.784	-36.381	5.932	-139.886	-132.660	-48.626	-4.365	-133.032	-126.847	-126.797	-119.164	-5.069	-119.460	-8191	255	
1406.479	1	1	0	0	0.14614	0.090137	0.047367	0.34318	0.21798	0.14791	0.031711	0.23162	0.044566	0.16857	0.046837	0.18123	0.077163	0.079888	0.2644	0.16294	-2.7167	-3.1479	-3.375	-2.9875	-3.3521	-3.5187	-3.1854	-3.3167	-3.2729	-3.1354	-3.4292	-3.1063	-3.05	-3.5438	-3.0563	-3.3458	-52.344	-80.511	152.200	189.592	-44.394	2.419	-20.269	203.198	-128.768	-127.483	49.999	132.322	-77.640	167.883	97.850	168.399	0.00056939	0.00034465	9.0827e-05	1157.9	1.9729e-06	3.239e-06	1212.5	236.68	6.1386e-06	4.4135e-06	294.89	83.633	65.965	19.072	3.3901e-06	26.971	0.00021754	0.0001778	5.0718e-05	1137.3	2.0778e-06	1.9055e-06	1199.2	234.97	2.1346e-06	2.0162e-06	294.28	83.694	65.601	19.232	2.0601e-06	27.436	97.224	-113.609	-44.205	-139.702	7.667	19.534	-139.894	-132.538	-30.187	-6.868	-133.036	-126.772	-126.769	-118.586	8.593	-119.438	-8191	255	
1406.599	1	1	0	0	0.15029	0.17891	0.037673	0.28573	0.040462	0.083644	0.14832	0.12537	0.10915	0.17421	0.13885	0.14341	0.12316	0.089785	0.26914	0.43212	-2.8021	-2.9917	-3.3729	-3.2042	-3.1708	-3.4458	-3.3729	-3.3375	-3.3917	-3.0021	-3.3438	-3.1958	-3.2292	-3.4437	-3.125	-3.2125	16.531	4.384	-25.006	169.076	116.940	-25.370	84.460	-35.713	-27.350	112.816	150.618	-0.439	61.296	-100.822	178.238	124.239	0.00051124	0.0003617	5.5809e-05	1154.4	2.2781e-06	1.8549e-06	1210.4	237.17	4.9332e-06	4.8944e-06	293.98	83.057	65.458	18.988	5.8832e-06	26.992	0.00022609	0.00017836	5.2697e-05	1134.5	2.0312e-06	1.8089e-06	1196	234.39	1.9954e-06	1.8959e-06	292.95	83.421	65.3	19.153	1.9425e-06	27.293	94.528	-63.332	-101.443	-139.777	-27.413	-2.343	-139.931	-132.461	-85.330	-19.382	-132.503	-126.810	-126.625	-118.993	-36.501	-119.468	-8191	255	
1406.695	1	1	0	0	0.01719	0.1412	0.27789	0.20966	0.078724	0.17751	0.055831	0.068771	0.020367	0.097765	0.27156	0.20894	0.28546	0.060932	0.011232	0.1456	-2.9708	-3.0979	-3.3083	-3.1625	-3.2062	-3.6354	-3.2229	-3.2583	-3.3438	-2.8708	-3.3542	-3.2229	-3.0292	-3.5083	-3.1021	-3.2396	125.139	-138.790	-44.270	177.237	67.096	40.934	-85.081	-135.239	-78.976	-147.285	13.957	-82.363	-131.972	-103.845	-147.447	161.607	0.00057325	0.00036729	7.9046e-05	1140.6	3.537e-06	3.2634e-06	1192.8	233.21	6.9805e-06	3.9435e-06	289.99	82.632	64.936	18.737	2.3451e-06	26.621	0.00021156	0.00016539	4.7323e-05	1119.2	1.8588e-06	1.7466e-06	1179.4	231.04	1.8187e-06	1.6927e-06	289.49	82.328	64.743	18.905	1.7513e-06	26.986	95.960	-63.829	-37.344	-139.423	-32.837	24.827	-139.737	-132.334	-47.195	-7.602	-132.684	-126.506	-126.699	-119.000	-27.244	-119.436	-8191	255	
1406.792	1	1	0	0	0.099347	0.049866	0.10559	0.26055	0.29665	0.12814	0.15845	0.16471	0.062863	0.18889	0.15879	0.23623	0.16196	0.077318	0.13122	0.19906	-3.0312	-3.1354	-3.2958	-3.1729	-3.0583	-3.4271	-3.1396	-3.0625	-3.4792	-3.0958	-3.4229	-3.425	-3.0521	-3.3021	-3.1188	-3.1437	75.751	141.533	154.430	105.444	90.287	153.940	-109.159	93.461	-125.497	145.527	-136.317	172.400	126.462	-89.201	-76.688	163.386	0.00061435	0.00030101	7.092e-05	1132.4	1.648e-06	2.3212e-06	1177.6	229.78	2.4027e-06	4.6566e-06	288.99	81.335	64.564	18.589	3.1562e-06	26.289	0.00019827	0.00016129	4.5876e-05	1108.3	1.7698e-06	1.6413e-06	1165.7	228.15	1.7171e-06	1.6525e-06	286.44	81.411	63.966	18.679	1.684e-06	26.691	100.219	-93.527	-65.906	-139.567	7.303	31.156	-139.934	-132.698	-34.962	3.093	-132.664	-126.363	-126.519	-118.690	-19.032	-119.470	-8191	255	
1406.912	1	1	0	0	0.13686	0.11592	0.041372	0.22384	0.10574	0.12544	0.21389	0.15719	0.2776	0.027111	0.19239	0.30808	0.053244	0.2578	0.17141	0.069793	-2.9938	-2.9958	-3.3812	-3.3438	-3.2313	-3.4479	-3.35	-3.0917	-3.2875	-3.1479	-3.3563	-3.3187	-3.1312	-3.6125	-3.05	-3.0479	192.215	107.660	133.799	-70.531	127.577	-102.822	192.653	181.264	58.435	82.752	58.784	-108.277	116.323	-140.180	-57.923	169.548	0.0005702	0.00038685	8.343e-05	1103.2	2.532e-06	3.3328e-06	1158.7	227.43	6.4966e-06	1.2955e-06	282.96	80.482	63.544	18.421	3.6235e-06	26.155	0.0001918	0.00015869	4.2656e-05	1086.6	1.6801e-06	1.5977e-06	1149.1	225.43	1.6273e-06	1.55e-06	282.74	80.6	63.162	18.501	1.6407e-06	26.487	98.316	-59.452	-53.636	-139.307	-14.867	32.749	-139.615	-132.509	-25.942	-17.792	-132.782	-126.452	-126.408	-118.979	-34.684	-119.325	-8191	255	
1407.007	1	1	0	0	0.28978	0.060038	0.20302	0.25606	0.18319	0.16763	0.19932	0.18662	0.24741	0.17633	0.09236	0.25912	0.10469	0.28742	0.02487	0.017774	-3.2917	-3.2667	-3.1708	-3.4667	-3.125	-3.2125	-3.2958	-3.1521	-3.3854	-2.9646	-3.2438	-3.3917	-2.8208	-3.4125	-3.2667	-3.1646	-101.859	-100.571	54.408	160.732	-146.454	109.121	-119.279	105.369	84.523	135.625	198.027	202.089	-120.633	132.516	38.633	-109.169	0.00053966	0.00011194	7.6931e-05	1090.4	1.6606e-06	3.9312e-06	1147.8	225.43	3.5915e-06	3.234e-06	282.77	79.856	62.72	18.34	3.3041e-06	25.929	0.00018507	0.00013608	3.9255e-05	1073.4	1.6761e-06	1.6215e-06	1135.1	222.75	1.6556e-06	1.6185e-06	281.35	79.876	62.645	18.377	1.543e-06	26.256	99.281	-107.630	-51.682	-139.403	-16.205	0.198	-139.442	-132.515	-17.127	-6.093	-133.129	-126.551	-126.918	-118.433	-5.335	-119.231	-8191	255	
1407.078	1	1	0	0	0.15276	0.17458	0.14691	0.23601	0.17108	0.13067	0.19383	0.11395	0.069354	0.10968	0.071176	0.1164	0.20122	0.099895	0.1009	0.17639	-2.8979	-3.075	-3.1667	-3.5438	-2.8583	-3.5271	-3.5896	-3.2146	-3.5125	-3.2188	-3.3208	-3.4521	-3.0812	-3.3417	-3.4104	-3.1437	-43.351	75.458	43.517	-146.143	126.784	192.509	191.867	95.207	153.079	-14.556	-12.759	-51.964	-57.258	118.861	183.645	-129.048	0.00050538	0.00020346	0.00012768	1080.9	3.9332e-06	3.1487e-06	1137	223.77	6.4587e-06	3.249e-06	281.7	79.411	62.459	18.023	2.5224e-06	25.37	0.00018843	0.00014838	3.8716e-05	1062.9	1.6314e-06	1.5148e-06	1126.9	221.54	1.7241e-06	1.5666e-06	280.61	79.526	62.411	18.206	1.6207e-06	25.961	94.346	-40.728	-64.049	-139.175	-33.793	-0.411	-139.595	-132.160	-49.258	4.273	-132.640	-126.404	-126.285	-118.250	-17.991	-119.131	-8191	255	
1407.199	1	1	0	0	0.019845	0.072674	0.23373	0.1978	0.082064	0.050807	0.1742	0.078315	0.066901	0.063442	0.243	0.23156	0.059101	0.24616	0.21458	0.29968	-2.8125	-2.9583	-3.1521	-3.5396	-2.9458	-3.2562	-3.6021	-2.9417	-3.4229	-3.1979	-3.1104	-3.5812	-3.0667	-3.0792	-3.3729	-3.2375	-115.375	-8.851	2.614	-143.004	151.009	16.433	167.056	129.032	101.017	-50.225	-101.697	167.266	-132.547	74.682	-116.152	206.419	0.00060177	0.00034389	6.5442e-05	1081.5	4.5706e-06	3.6866e-06	1141.9	222.51	5.29e-06	3.9885e-06	280.49	79.19	62.49	18.142	2.4393e-06	25.708	0.00018818	0.00014151	4.1071e-05	1062.5	1.7804e-06	1.6725e-06	1126.6	220.69	1.7489e-06	1.7039e-06	280.1	79.492	62.071	18.239	1.6277e-06	26.021	99.806	-59.249	-56.938	-139.303	-58.890	14.451	-139.562	-132.261	-42.840	-12.267	-132.422	-126.748	-126.492	-118.493	-41.186	-118.954	-8191	255	
1407.295	1	1	0	0	0.10077	0.35572	0.22374	0.070197	0.12809	0.076448	0.058084	0.21896	0.21833	0.046917	0.062422	0.22123	0.063059	0.21944	0.13087	0.1949	-3.0625	-3.2229	-3.0729	-3.4604	-3.1437	-3.3	-3.4625	-2.9833	-3.4375	-3.1979	-3.2229	-3.3604	-3.1229	-3.2125	-3.4813	-3.0792	42.818	-104.371	-74.611	-148.143	-102.544	201.952	-68.347	150.461	111.529	68.920	118.025	58.364	-45.267	-84.294	-38.897	47.458	0.00055864	0.00019673	6.2777e-05	1081.3	2.7972e-06	2.3927e-06	1138.4	223.64	5.1744e-06	3.1701e-06	280.76	79.628	62.362	18.035	3.728e-06	25.714	0.0001923	0.00014721	4.3201e-05	1063.2	1.8694e-06	1.7446e-06	1127.8	221.34	1.8992e-06	1.7676e-06	280.24	79.429	62.234	18.185	1.755e-06	26.076	101.278	-62.556	-44.105	-139.517	-34.367	-10.905	-139.486	-132.477	-50.931	-18.609	-132.525	-126.580	-127.063	-118.796	-28.462	-119.533	-8191	255	
1407.391	1	1	0	0	0.22936	0.46	0.1293	0.41342	0.073442	0.056486	0.22642	0.099734	0.053509	0.049711	0.30694	0.1569	0.17383	0.11837	0.19	0.24178	-2.9458	-3.2062	-2.9	-3.2938	-3.2542	-3.3167	-3.6271	-3.1813	-3.1	-3.3688	-3.0333	-3.5792	-3.2125	-3.1458	-3.5271	-3.1688	77.795	-52.220	104.044	206.644	48.446	-150.167	140.225	-48.498	-146.351	-19.662	-6.060	7.260	-29.504	98.004	-83.759	195.651	0.00053094	0.00039342	7.3044e-05	1081.8	3.8805e-06	4.7127e-06	1146.8	223.26	5.1446e-06	2.0581e-06	281.52	79.032	62.988	18.052	4.4792e-06	25.719	0.00020242	0.00016003	4.6959e-05	1066.5	1.837e-06	1.7753e-06	1131.4	221.13	1.9838e-06	1.7176e-06	280.69	79.364	62.494	18.246	1.8209e-06	26.066	95.635	-95.684	-77.236	-139.284	-47.346	14.011	-139.610	-132.568	-28.816	12.730	-132.724	-126.384	-126.561	-118.704	-16.068	-119.380	-8191	255	
1407.487	1	1	0	0	0.19895	0.14254	0.27024	0.24332	0.039809	0.082366	0.22349	0.13218	0.26238	0.18401	0.068762	0.18883	0.11758	0.057803	0.11481	0.16691	-2.9792	-3.2083	-3.1875	-3.4979	-3.2	-3.0917	-3.5646	-3.4146	-3.1771	-3.375	-3.2604	-3.6292	-3.1396	-3.1125	-3.3917	-3.1813	148.589	100.145	-137.037	144.170	171.356	58.137	-146.016	206.614	159.225	-86.684	149.359	125.969	93.963	23.060	89.637	135.110	0.00055234	0.00031366	0.00010337	1090.5	4.6647e-06	1.1492e-06	1151.6	223.72	5.4786e-06	1.7643e-06	282.92	79.849	62.886	18.25	4.2789e-06	25.828	0.00020097	0.00016042	4.7147e-05	1071.1	1.805e-06	1.766e-06	1136.7	222.05	1.9126e-06	1.7439e-06	281.94	80.03	62.66	18.35	1.8239e-06	26.234	102.422	-68.098	-49.962	-139.446	-17.030	-28.692	-139.543	-132.369	-19.001	-36.472	-132.383	-127.014	-126.493	-118.558	-25.014	-119.240	-8191	255	
1407.608	1	1	0	0	0.1407	0.12853	0.28534	0.25242	0.1401	0.2233	0.16592	0.37284	0.12236	0.047872	0.15158	0.12746	0.25794	0.14492	0.13336	0.070346	-2.8187	-3.3125	-2.9771	-3.3688	-3.2292	-3.2125	-3.425	-3.0521	-3.3563	-3.3333	-2.8896	-3.3458	-3.2292	-3.1521	-3.4042	-3.0896	177.916	-57.283	153.904	209.685	39.743	90.225	152.736	182.987	204.410	183.246	-20.835	-81.361	-93.140	-48.119	209.591	89.598	0.00052342	0.00039215	8.7637e-05	1104.3	1.3934e-06	2.5603e-06	1160.7	224.13	5.4592e-06	2.8808e-06	285.27	80.37	63.417	18.324	1.1884e-06	25.87	0.00019907	0.00016517	4.4623e-05	1084.3	1.7758e-06	1.7375e-06	1148.3	223.15	1.8421e-06	1.742e-06	283.12	80.263	62.975	18.403	1.7536e-06	26.276	96.920	-84.967	-58.744	-139.930	-69.638	30.876	-139.791	-132.321	-10.098	-33.822	-132.778	-126.346	-126.762	-118.864	-14.768	-119.299	-8191	255	
1407.680	1	1	0	0	0.11999	0.10163	0.35199	0.24961	0.22341	0.025921	0.32404	0.049606	0.064749	0.20927	0.18758	0.19554	0.14717	0.22419	0.21958	0.050153	-2.6458	-3.4354	-3.0917	-3.2938	-3.0771	-3.1479	-3.6917	-3.3063	-3.1688	-3.3438	-3.0292	-3.3583	-3.4146	-3.1229	-3.2854	-3.1792	-125.854	-76.181	175.611	43.176	-66.033	-58.138	145.864	197.832	175.344	137.607	115.085	-146.425	48.016	-79.066	-6.538	-61.503	0.00053823	0.00024329	9.4397e-05	1097.5	1.9643e-06	2.5514e-06	1156.8	224.72	6.0988e-06	4.4929e-06	284.8	79.563	62.875	18.135	2.8941e-06	25.819	0.00020002	0.00015473	4.5525e-05	1078.4	1.7552e-06	1.6991e-06	1140.6	222.64	1.8627e-06	1.6582e-06	281.99	79.976	62.66	18.327	1.6824e-06	26.199	99.339	-36.232	-43.344	-139.429	-12.470	-21.425	-139.944	-132.273	-67.340	-10.091	-132.706	-126.111	-126.095	-118.733	-39.155	-119.026	-8191	255	
1407.776	1	1	0	0	0.072995	0.33556	0.12493	0.090256	0.13356	0.2377	0.11098	0.25067	0.24285	0.15097	0.044008	0.10937	0.19461	0.20412	0.25264	0.071048	-2.8833	-3.2333	-2.9062	-3.0479	-3.4229	-3.0792	-3.5479	-3.2458	-3.1521	-3.5667	-3.2229	-3.3563	-3.2396	-3.0771	-3.3021	-3.1354	-45.996	202.155	35.510	157.227	28.480	24.265	134.175	151.431	-65.339	65.094	207.914	-2.051	-126.305	203.113	-135.436	-100.719	0.00048697	0.00031291	9.4056e-05	1091.8	3.2552e-06	2.6214e-06	1148.8	223.76	5.9679e-06	3.166e-06	284.66	80.169	62.972	18.14	1.2375e-06	25.793	0.00018619	0.00014223	4.3516e-05	1071.7	1.7575e-06	1.6562e-06	1134.5	222.07	1.7799e-06	1.6534e-06	281.88	80.026	62.567	18.304	1.7084e-06	26.199	103.104	-61.805	-65.239	-139.534	-28.454	13.372	-139.676	-132.388	-57.499	-11.409	-132.664	-126.529	-127.204	-118.649	-21.043	-119.332	-8191	255	
1407.872	1	1	0	0	0.17511	0.16583	0.19024	0.13842	0.16367	0.13865	0.20704	0.17873	0.28524	0.10096	0.17048	0.14193	0.19627	0.26276	0.21287	0.10814	-2.5708	-3.4437	-3.1042	-3.2583	-3.4938	-3.0563	-3.4208	-3.1104	-3.05	-3.4875	-3.3417	-3.3458	-3.575	-2.9604	-3.3187	-3.2438	-82.450	66.385	73.643	-107.845	-55.643	50.158	188.079	174.606	87.740	201.579	196.840	-78.336	13.607	-99.760	-72.108	70.890	0.00055645	0.00039433	5.791e-05	1090.6	4.3121e-06	3.0659e-06	1145.7	223.95	7.3405e-06	1.8395e-06	282.91	80.397	63.251	18.299	2.6445e-06	25.905	0.00020145	0.00015377	4.3782e-05	1074	1.7844e-06	1.8309e-06	1135.2	222.56	1.9328e-06	1.7628e-06	281.74	80.089	62.852	18.363	1.8745e-06	26.243	100.087	-61.472	-63.902	-139.463	-26.260	29.039	-139.558	-132.622	-44.583	-13.170	-132.800	-126.829	-126.772	-118.853	7.829	-119.786	-8191	255	
1407.993	1	1	0	0	0.27457	0.24498	0.13086	0.078951	0.089616	0.1	0.26308	0.058152	0.11968	0.12751	0.29565	0.24126	0.081968	0.093541	0.23022	0.099547	-2.4958	-3.4271	-3.4083	-3.1542	-3.4938	-3.0646	-3.3792	-3.2833	-3.0729	-3.4958	-3.1521	-3.0938	-3.5979	-3.0417	-3.1896	-3.4167	-36.460	-61.273	2.652	193.190	135.110	186.900	141.182	-44.586	-18.078	-97.529	93.960	152.236	57.609	-78.283	-72.379	-148.064	0.00057599	0.00020218	7.2281e-05	1085.1	3.6628e-06	3.6485e-06	1151.5	223.77	3.6504e-06	2.1303e-06	284.15	80.268	63.544	18.304	2.5559e-06	25.738	0.00020267	0.00016601	4.6923e-05	1073.1	1.7962e-06	1.8166e-06	1140.1	222.79	1.9457e-06	1.7618e-06	282.72	80.369	63.05	18.429	1.8369e-06	26.253	96.629	-14.270	-62.008	-139.292	-19.791	-22.080	-139.803	-132.617	-46.668	-40.076	-132.561	-126.099	-126.326	-118.513	-36.623	-119.476	-8191	255	
1408.087	1	1	0	0	0.36179	0.10472	0.14685	0.033952	0.046093	0.36444	0.30001	0.10332	0.17488	0.15947	0.14709	0.10498	0.1843	0.11381	0.23387	0.095243	-2.7396	-3.4688	-3.1063	-3.1542	-3.4083	-3.0104	-3.3021	-3.3771	-3.1021	-3.3167	-3.4062	-3.2313	-3.3271	-2.9562	-3.3125	-3.3937	-8.947	-26.432	-142.891	16.772	89.056	58.814	104.720	126.370	189.413	97.912	117.360	-22.399	54.293	-2.342	-2.868	11.744	0.00055592	0.00026542	6.5168e-05	1094	3.5503e-06	3.9103e-06	1153.4	225.44	7.2737e-06	1.8594e-06	283.85	80.021	62.724	18.261	2.1031e-06	25.893	0.00020327	0.00016675	4.4641e-05	1078.1	1.7756e-06	1.8813e-06	1141	223.44	1.8881e-06	1.7685e-06	282.44	80.177	62.726	18.429	1.7086e-06	26.294	91.292	-65.806	-52.346	-139.773	-17.936	-19.191	-139.743	-132.617	-60.068	25.628	-132.365	-126.380	-126.559	-118.660	-31.470	-119.328	-8191	255	
1408.183	1	1	0	0	0.23087	0.054222	0.11211	0.36394	0.016357	0.071697	0.11711	0.23097	0.10307	0.15732	0.22884	0.3621	0.17031	0.079967	0.16083	0.21724	-2.4958	-3.0417	-3.3104	-3.4042	-3.4208	-3.05	-3.3354	-3.5563	-3.1	-3.2667	-3.2667	-2.9854	-3.425	-3.2333	-3.0979	-3.3354	61.236	61.993	28.485	99.409	142.503	82.499	161.941	197.384	99.874	-30.614	73.925	166.080	71.302	208.207	-147.681	116.231	0.00055842	0.00014036	3.8111e-05	1091.8	4.8988e-06	2.4789e-06	1153.3	224.61	5.3177e-06	2.6397e-06	282.7	80.17	63.491	18.212	2.3378e-06	25.903	0.00020376	0.00016214	4.4127e-05	1076	1.872e-06	1.7396e-06	1142.1	223.17	1.9552e-06	1.797e-06	281.89	80.429	63.207	18.464	1.8149e-06	26.392	98.417	-87.417	-60.903	-139.465	-16.845	22.269	-139.718	-132.426	-46.122	-15.990	-132.730	-126.320	-127.378	-118.906	-56.441	-119.369	-8191	255	
1408.279	1	1	0	0	0.18108	0.33899	0.22103	0.047746	0.079033	0.067203	0.27002	0.081235	0.14336	0.076176	0.20012	0.25661	0.22081	0.13712	0.17724	0.2216	-2.8187	-3.2417	-3.3354	-3.2	-3.3292	-3.1292	-3.2562	-3.425	-3.075	-3.0708	-3.3708	-3.1354	-3.2021	-2.9083	-3.2083	-3.5563	-10.520	44.490	176.089	144.269	25.917	-149.004	148.551	8.430	170.542	174.753	153.741	8.829	169.299	-93.278	88.458	-81.927	0.0005935	0.0003176	8.1985e-05	1101	4.8758e-06	3.9961e-06	1157.4	225.8	4.2952e-06	2.6749e-06	286.25	80.293	63.238	18.322	1.1714e-06	26.288	0.00021023	0.00016328	4.5235e-05	1082.9	1.8933e-06	1.8146e-06	1145	223.83	2.0276e-06	1.8394e-06	283.75	80.516	62.984	18.505	1.8991e-06	26.595	94.769	-50.956	-50.039	-139.765	-28.020	-0.812	-139.788	-132.198	-21.105	9.974	-132.549	-126.566	-127.199	-118.921	-28.017	-119.135	-8191	255	
1408.375	1	1	0	0	0.22807	0.083388	0.13	0.065073	0.16864	0.19202	0.082382	0.019768	0.087955	0.14371	0.093069	0.096395	0.01289	0.051668	0.20508	0.10278	-2.6375	-2.875	-3.4562	-3.0438	-3.2583	-3.1042	-3.325	-3.3771	-3.2708	-3.3229	-3.3771	-3.1521	-3.45	-3.4625	-2.9479	-3.5354	-76.354	148.787	146.778	141.764	85.211	131.708	-3.773	-2.098	-46.241	-2.350	-42.785	182.982	170.085	-93.360	37.298	-60.635	0.00054035	0.00031971	4.1072e-05	1102.3	2.5236e-06	2.5638e-06	1160.3	226.29	4.5697e-06	2.6694e-06	285.52	80.629	63.903	18.381	3.143e-06	26.189	0.00021262	0.00017156	4.8242e-05	1084.4	1.8465e-06	1.8369e-06	1147	224.02	2.0351e-06	1.9124e-06	284.44	80.73	63.429	18.56	2.0462e-06	26.516	102.285	-103.207	-38.521	-139.504	-46.747	-21.394	-139.613	-132.571	-25.832	-10.233	-132.785	-126.695	-126.644	-118.658	-16.727	-119.373	-8191	255	
1408.472	1	1	0	0	0.13517	0.43712	0.1543	0.11145	0.099222	0.20307	0.13785	0.16775	0.15242	0.13475	0.27495	0.053538	0.32751	0.10688	0.14383	0.035342	-2.6458	-3.1083	-3.3729	-3.1188	-3.2167	-3.2958	-3.2438	-3.3667	-3.0396	-3.2313	-3.4167	-3.3854	-3.3583	-3.2521	-3.0938	-3.5083	76.697	-114.761	80.634	-143.007	-59.281	-146.540	162.384	28.660	88.588	-140.115	173.021	-103.507	180.449	127.396	-140.947	-86.270	0.00057427	0.00026031	2.6098e-05	1104.4	3.7467e-06	4.5075e-06	1168.4	226.37	7.5734e-06	1.3614e-06	287.2	81.137	64.018	18.434	2.422e-06	26.404	0.00021302	0.00017587	5.3338e-05	1087.4	1.9855e-06	1.8324e-06	1153.5	224.88	2.0237e-06	1.9073e-06	285.01	81.084	63.607	18.642	2.0773e-06	26.669	101.271	-61.572	193.630	-139.725	-29.412	1.785	-139.532	-132.352	-40.224	27.764	-132.852	-126.551	-126.456	-118.636	-33.272	-119.236	-8191	255	
1408.592	1	1	0	0	0.10971	0.22219	0.13476	0.2167	0.15255	0.089375	0.14732	0.19004	0.25249	0.17391	0.091442	0.094755	0.036679	0.15425	0.16054	0.065061	-3.0271	-2.9125	-3.2021	-3.1292	-3.3542	-3.5	-3.125	-3.4542	-3.2938	-3.0208	-3.4229	-3.3167	-3.1125	-3.4437	-3.0625	-3.2833	90.599	-34.587	162.280	162.690	-84.913	-135.352	127.547	134.185	-95.238	169.636	50.859	110.886	162.332	-113.379	-138.420	69.203	0.00059382	0.00032735	7.9584e-05	1104.9	3.465e-06	2.2908e-06	1168.1	226.81	7.5301e-06	2.35e-06	287.06	81.346	63.834	18.62	4.1685e-06	26.34	0.00021498	0.00018122	4.8194e-05	1091.1	2.0773e-06	1.8767e-06	1155.9	225.83	2.1258e-06	1.8947e-06	285.28	81.183	63.841	18.738	1.9998e-06	26.825	95.571	-78.999	-65.219	-139.655	-8.348	-5.259	-139.704	-132.569	-25.828	9.282	-132.511	-126.705	-126.821	-118.984	4.252	-119.312	-8191	255	
1408.688	1	1	0	0	0.053372	0.14306	0.1192	0.14541	0.069262	0.12225	0.24367	0.21416	0.090882	0.12538	0.094052	0.31599	0.20859	0.11681	0.17044	0.11958	-2.8521	-2.9729	-3.4146	-3.1125	-3.0417	-3.4479	-3.2146	-3.3583	-3.35	-3.1771	-3.3958	-3.3208	-3.1562	-3.3292	-3.1792	-3.2521	-114.730	-148.828	-16.201	-68.973	126.507	183.616	107.169	27.170	-94.589	128.030	188.851	44.071	173.827	-16.184	-75.976	-88.338	0.00053944	0.00023602	4.6857e-05	1115.1	3.9865e-06	3.6254e-06	1172.3	227.79	6.2054e-06	3.3555e-06	287.28	81.704	63.8	18.717	3.6479e-06	26.567	0.00021406	0.00018209	5.0137e-05	1097	1.9916e-06	1.91e-06	1160.6	226.68	2.0106e-06	1.8868e-06	285.98	81.505	63.932	18.819	1.9358e-06	26.839	96.594	-38.455	-88.955	-139.727	-46.682	18.162	-139.483	-132.320	-34.789	-4.835	-132.791	-126.886	-127.056	-118.881	-10.222	-119.665	-8191	255	
1408.784	1	1	0	0	0.076268	0.079285	0.044285	0.16545	0.22827	0.16596	0.17701	0.11939	0.39272	0.1106	0.27763	0.24329	0.042971	0.23812	0.0041933	0.24389	-3.0187	-3.2958	-3.3	-3.2125	-2.9562	-3.2687	-3.1646	-3.3583	-3.2062	-3.1479	-3.5	-3.4521	-2.9417	-3.2875	-3.0146	-3.2583	182.149	64.658	-47.060	-134.953	-3.015	-31.213	154.329	-64.273	-139.159	62.363	-131.114	-136.924	13.825	203.060	21.511	129.684	0.00051121	0.0002303	7.0543e-05	1118	3.117e-06	4.4337e-06	1174	227.39	3.9523e-06	3.0623e-06	288.26	81.694	64.412	18.691	4.1632e-06	26.355	0.00021587	0.00018211	4.9283e-05	1100.7	2.0622e-06	1.9853e-06	1162.9	226.67	2.0503e-06	2.0172e-06	286.92	81.723	64.103	18.884	1.9794e-06	26.919	97.972	-30.514	-54.366	-139.668	-20.364	30.558	-139.792	-132.373	-40.931	-12.562	-132.796	-126.585	-126.723	-118.630	-21.972	-119.469	-8191	255	
1408.881	1	1	0	0	0.24014	0.16938	0.16081	0.092299	0.067852	0.087175	0.26383	0.053922	0.061094	0.21373	0.16059	0.13898	0.14811	0.24796	0.26092	0.16616	-3.0875	-3.1188	-3.2687	-3.1875	-3.2792	-3.5167	-3.3208	-3.25	-3.2146	-3.1833	-3.5312	-3.3167	-3.0312	-3.4333	-3.1021	-3.3146	-125.287	121.203	35.050	63.682	113.166	-75.558	122.821	-46.840	-2.068	78.742	207.386	-148.153	98.938	133.880	98.699	-128.961	0.00053917	0.00054602	7.8772e-05	1113.8	3.2598e-06	4.0272e-06	1177.3	229.6	2.3586e-06	3.7303e-06	289.87	82.32	65.089	18.991	3.1518e-06	26.657	0.0002158	0.0001849	5.1039e-05	1104.2	2.1633e-06	2.0414e-06	1169.6	228.18	2.1206e-06	2.0555e-06	288.73	82.351	64.819	19.049	2.1928e-06	27.178	97.520	-61.602	-64.760	-139.666	-46.205	-31.596	-139.779	-132.435	-37.559	-20.854	-132.554	-126.454	-127.232	-118.758	-28.966	-119.749	-8191	255	
1408.975	1	1	0	0	0.13873	0.11891	0.29893	0.15359	0.092641	0.17579	0.17552	0.09002	0.33635	0.12705	0.14696	0.22485	0.20079	0.03609	0.1217	0.23596	-3.0687	-3.1208	-3.35	-3.3604	-3.1458	-3.4542	-3.4854	-3.1271	-3.2938	-3.1229	-3.5021	-3.4958	-3.0417	-3.5354	-3.2146	-3.1729	-21.290	-9.342	101.176	194.409	35.969	150.356	67.998	-69.398	-45.980	-8.782	180.385	20.179	-61.984	31.882	-27.537	-43.251	0.0005371	0.00030953	9.6767e-05	1133.8	3.3141e-06	3.4652e-06	1190.1	231.4	5.9953e-06	1.1197e-06	290.74	82.451	64.915	18.99	3.6676e-06	26.979	0.0002333	0.0001916	5.3314e-05	1115.4	2.2722e-06	2.1327e-06	1179	229.79	2.1927e-06	2.1452e-06	289.66	82.787	64.988	19.155	1.9947e-06	27.368	97.716	-52.058	-71.513	-139.653	-46.619	-9.823	-139.673	-132.336	-1.526	-6.128	-132.745	-126.801	-126.532	-119.425	-33.672	-119.346	-8191	255	
1409.071	1	1	0	0	0.18757	0.23948	0.081301	0.064476	0.13492	0.13052	0.19464	0.2849	0.12472	0.13986	0.077822	0.12749	0.098311	0.23501	0.21222	0.26322	-2.9396	-2.8292	-3.2229	-3.2604	-3.0271	-3.3625	-3.3708	-3.1625	-3.3271	-3.0333	-3.0167	-3.5375	-3.0938	-3.3417	-3.2646	-3.1958	69.883	31.550	7.354	-64.720	-40.447	163.184	103.466	120.479	-136.704	106.135	-81.950	-50.692	-139.305	173.625	-51.778	178.015	0.00057118	0.0001902	0.00012393	1124.4	2.6301e-06	3.977e-06	1183	232.19	4.696e-06	1.3638e-06	291.95	82.941	65.523	19.095	3.6426e-06	26.937	0.00022714	0.00018336	5.2261e-05	1110.6	2.0015e-06	1.9836e-06	1173	230.64	2.0455e-06	1.9688e-06	290.18	82.814	65.189	19.24	2.0105e-06	27.364	105.420	-113.448	-63.060	-139.463	-32.714	-12.608	-139.598	-132.371	-28.947	-61.797	-133.134	-126.677	-126.688	-119.081	-34.454	-119.490	-8191	255	
1409.167	1	1	0	0	0.10357	0.16771	0.11306	0.10932	0.062126	0.1382	0.26255	0.19349	0.073136	0.24794	0.12824	0.26964	0.29724	0.18085	0.062884	0.10848	-2.9354	-3.0604	-3.1375	-3.3354	-3.0687	-3.4875	-3.3354	-3.2271	-3.5021	-3.1125	-3.2146	-3.4188	-3.1458	-3.4354	-3.2958	-3.1604	81.909	195.752	28.421	-133.530	103.606	-54.983	133.428	157.311	168.276	177.534	66.618	-135.979	-117.580	191.568	-2.951	60.374	0.00052584	0.00024269	9.813e-05	1128.9	4.6436e-06	4.6374e-06	1185.2	233.56	8.348e-06	2.1113e-06	291.01	82.544	65.507	19.062	2.9017e-06	26.788	0.00020502	0.00017786	4.8333e-05	1109.9	2.0618e-06	1.9465e-06	1172.9	231.2	2.1782e-06	2.0282e-06	289.98	82.902	65.27	19.196	2.0418e-06	27.295	90.298	-59.175	-73.235	-139.815	-27.185	-17.941	-139.816	-132.783	-58.600	40.942	-132.630	-126.642	-127.091	-119.100	-37.322	-119.246	-8191	255	
1409.288	1	1	0	0	0.14984	0.2223	0.012873	0.2838	0.19676	0.25554	0.26778	0.17076	0.15509	0.14753	0.12338	0.047146	0.29451	0.17204	0.26646	0.28842	-2.8937	-3.0104	-3.0792	-3.4208	-3.0708	-3.425	-3.4979	-3.1229	-3.2854	-3.3354	-3.1021	-3.3292	-2.9521	-3.1063	-3.3229	-2.9646	-17.169	-106.543	166.470	156.335	32.010	-125.438	-117.789	180.708	-23.193	-15.517	171.404	-58.598	-123.202	61.802	-71.071	111.486	0.00058203	0.00028792	0.00013345	1128.6	2.7968e-06	3.858e-06	1188.7	234.3	6.9952e-06	3.4897e-06	292.18	83.225	65.374	19.053	2.5084e-06	27.077	0.00023752	0.00019536	5.467e-05	1115.1	2.2384e-06	2.1689e-06	1179.5	232.41	2.1825e-06	2.0502e-06	291.22	83.271	65.418	19.289	2.1548e-06	27.459	97.517	-55.623	-54.761	-139.601	-14.134	4.924	-139.796	-132.752	-42.243	-9.197	-133.019	-126.844	-127.416	-118.837	-15.984	-119.106	-8191	255	
1409.384	1	1	0	0	0.010391	0.19616	0.14295	0.25972	0.22409	0.19513	0.16021	0.045288	0.12946	0.21007	0.14818	0.22685	0.16045	0.06665	0.15028	0.27061	-3.1854	-3.3021	-3.325	-3.4979	-3.1937	-3.1167	-3.5375	-3.1917	-3.4	-3.4521	-3.125	-3.4417	-3.2146	-3.225	-3.3917	-3.0583	13.866	179.225	142.929	84.714	114.815	158.353	186.989	67.973	31.245	-131.515	134.375	-109.898	114.814	200.443	-63.653	145.434	0.00063086	0.00032218	7.6223e-05	1132.8	2.648e-06	3.2262e-06	1192.7	234.79	5.2959e-06	1.7394e-06	294.36	83.513	65.923	19.018	5.2885e-07	26.838	0.0002214	0.00018969	5.4531e-05	1117.5	2.142e-06	2.033e-06	1180.6	232.71	2.2027e-06	2.0105e-06	291.41	83.326	65.541	19.251	1.9812e-06	27.427	97.755	-78.420	-54.366	-139.551	-11.392	35.111	-139.815	-132.699	-44.149	-15.566	-132.770	-126.215	-126.843	-119.092	-97.546	-119.513	-8191	255	
1409.480	1	1	0	0	0.024962	0.13532	0.31976	0.16926	0.23283	0.20276	0.26698	0.04427	0.2042	0.18701	0.27386	0.097505	0.10875	0.20987	0.035001	0.19654	-3.0979	-3.1625	-3.0833	-3.4479	-2.9479	-3.1604	-3.4562	-2.9958	-3.2979	-3.4167	-3.1229	-3.3104	-3.0854	-3.3187	-3.5812	-3.0979	183.346	72.889	-49.001	181.153	44.904	112.824	-149.486	194.375	-16.022	62.936	-123.517	-96.750	8.288	188.245	-61.753	60.920	0.00057279	0.0002898	7.937e-05	1128.5	3.1766e-06	1.6653e-06	1184	233.27	2.9316e-06	3.0606e-06	292.13	83.453	65.452	18.976	3.3239e-06	26.884	0.00021848	0.00018414	5.2534e-05	1113.5	2.049e-06	2.0323e-06	1177	232.47	2.092e-06	2.0217e-06	291.57	83.517	65.512	19.295	2.1167e-06	27.414	100.705	-67.392	-64.920	-139.594	-30.305	-45.377	-139.759	-132.434	-24.630	-19.521	-132.693	-126.759	-127.125	-118.869	-29.929	-118.986	-8191	255	
1409.552	1	1	0	0	0.061932	0.27289	0.37906	0.11298	0.14607	0.097404	0.33032	0.17287	0.313	0.14129	0.35755	0.16057	0.1399	0.0062136	0.079809	0.32133	-2.8792	-3.3146	-2.9125	-3.3312	-3.2708	-3.0625	-3.6458	-2.9958	-3.2583	-3.3167	-3.2917	-3.4813	-3.1875	-2.9792	-3.3542	-3.1042	82.883	141.319	-140.925	184.021	108.145	110.264	147.772	88.558	-143.969	-132.709	192.014	32.905	151.721	-136.348	53.478	144.339	0.00053862	0.00025757	6.912e-05	1131.4	3.3135e-06	3.9836e-06	1189.6	233.34	6.1665e-06	2.7064e-06	291.22	82.699	65.227	18.955	3.1683e-06	26.831	0.00022094	0.00019452	5.2564e-05	1117.4	2.1992e-06	2.1001e-06	1180.1	232.83	2.2288e-06	2.0627e-06	291.51	83.389	65.545	19.196	2.0794e-06	27.398	99.161	-68.321	-56.295	-139.734	-41.936	27.682	-139.573	-132.725	-55.015	-4.200	-132.818	-126.867	-126.802	-118.883	-47.547	-119.546	-8191	255	
1409.673	1	1	0	0	0.065606	0.11662	0.065689	0.26968	0.14388	0.16711	0.038752	0.38714	0.17499	0.15399	0.24645	0.17489	0.1729	0.12161	0.13064	0.14563	-2.8042	-3.5104	-2.9792	-3.4854	-3.3937	-3.2021	-3.6833	-3.1979	-3.1021	-3.3646	-3.0875	-3.5771	-3.2583	-3.1354	-3.3125	-2.9083	-82.213	201.754	104.055	-120.800	-97.156	-4.943	118.023	-142.685	159.976	-0.729	136.554	-115.408	14.939	-138.130	163.226	33.560	0.00053391	0.00037527	9.7913e-05	1124.9	3.2573e-06	3.1532e-06	1188.5	233.83	3.9841e-06	3.4474e-06	291.88	82.968	65.869	19.033	5.4853e-06	26.875	0.00022647	0.000188	5.214e-05	1111.7	2.0657e-06	2.0498e-06	1176.1	232.56	2.1605e-06	2.1179e-06	291.44	83.295	65.616	19.27	1.9464e-06	27.455	101.043	-67.391	-57.394	-139.916	-25.454	-4.204	-139.852	-132.403	-29.753	13.899	-132.789	-126.831	-126.566	-119.071	-34.886	-119.609	-8191	255	
1409.769	1	1	0	0	0.15499	0.10207	0.18002	0.084866	0.16818	0.17602	0.13243	0.22778	0.077655	0.082737	0.11831	0.27275	0.13639	0.13703	0.33354	0.04523	-2.7604	-3.375	-3.1354	-3.4208	-3.1	-2.9	-3.5271	-3.2604	-3.4271	-3.6104	-3.225	-3.2646	-3.2979	-3.1333	-3.4062	-3.1708	51.916	196.376	71.926	160.562	-9.223	-43.006	35.702	-143.870	145.022	200.983	-126.198	174.555	47.485	155.555	122.572	171.572	0.00064326	0.00027249	7.4847e-05	1124.8	4.1625e-06	4.8685e-06	1182.3	233.68	6.078e-06	3.1329e-06	291.31	83.391	66.07	18.992	3.56e-06	27.008	0.00022157	0.00017392	4.7686e-05	1112.3	2.0722e-06	1.9774e-06	1174.5	232.72	2.0453e-06	1.9052e-06	290.96	83.693	65.743	19.261	1.9193e-06	27.411	95.254	-48.485	-65.730	-139.609	-55.543	20.813	-139.726	-132.629	-40.062	-28.707	-132.895	-126.800	-126.593	-118.707	1.761	-119.603	-8191	255	
1409.865	1	1	0	0	0.11338	0.17458	0.080073	0.40397	0.14543	0.069532	0.14519	0.12952	0.36987	0.029288	0.18711	0.072216	0.022402	0.14326	0.075386	0.23559	-2.9437	-3.4208	-2.9917	-3.1458	-3.2271	-3.1896	-3.6271	-3.5438	-3.1646	-3.4979	-3.1583	-3.1437	-3.4521	-3.3104	-3.425	-3.0542	93.126	115.523	174.969	-148.489	-67.404	163.142	147.368	-67.481	193.400	67.868	116.252	41.372	15.396	-34.090	-115.988	155.941	0.00059336	0.00028146	0.00012792	1128.9	3.6023e-06	4.2392e-06	1181.4	234.6	4.6504e-06	1.8767e-06	291.47	82.667	65.597	18.877	2.6307e-06	26.815	0.00021355	0.00016885	4.9247e-05	1113.5	1.8791e-06	1.9069e-06	1174	232.71	2.0389e-06	1.7961e-06	290.87	83.276	65.191	19.183	1.8253e-06	27.336	94.992	-49.945	-76.879	-139.461	0.287	2.693	-139.802	-132.513	-37.124	12.459	-133.009	-126.526	-126.763	-119.084	-32.917	-119.674	-8191	255	
1409.961	1	1	0	0	0.082751	0.19257	0.13017	0.1556	0.2891	0.070653	0.32572	0.13023	0.077524	0.15255	0.097674	0.12034	0.10561	0.06878	0.14034	0.14581	-2.8167	-3.5875	-3.1604	-3.1688	-3.4917	-3.1833	-3.4208	-3.3875	-3.3208	-3.4854	-3.3125	-3.2583	-3.4062	-3.0521	-3.3604	-3.4333	-150.378	113.177	89.635	-22.397	-35.066	171.093	190.125	171.035	-139.305	-142.767	114.909	-92.770	112.188	-39.879	8.932	-86.229	0.00054509	0.00042601	9.2262e-05	1122.2	3.5698e-06	2.2359e-06	1170.2	232.88	5.5119e-06	4.3968e-06	290.86	83.236	65.966	18.837	3.7857e-06	27.011	0.00021053	0.00017102	4.5737e-05	1106.3	1.8692e-06	1.7681e-06	1164.3	231.91	1.9541e-06	1.8657e-06	290.41	83.074	65.488	19.14	1.7743e-06	27.34	103.425	-68.553	-28.021	-139.543	-24.590	-17.448	-139.773	-132.822	-38.457	10.796	-132.823	-126.714	-126.549	-118.759	-21.322	-119.366	-8191	255	
1410.080	1	1	0	0	0.084489	0.092162	0.18094	0.091668	0.30001	0.19738	0.18346	0.15723	0.093819	0.11013	0.027392	0.070905	0.055694	0.10454	0.10105	0.14973	-2.6979	-3.3667	-3.1	-3.2042	-3.4417	-3.2042	-3.3563	-3.1437	-2.9896	-3.4521	-3.475	-3.1792	-3.3917	-3.0208	-3.125	-3.6333	-52.176	74.082	-69.678	84.792	90.272	203.968	-115.659	-142.183	33.803	-80.008	17.808	143.737	-149.910	-33.362	203.087	-109.172	0.00054449	0.00013237	0.00011937	1119.2	3.5787e-06	3.3958e-06	1176.8	233.66	4.9308e-06	2.0397e-06	290.56	82.992	65.6	18.909	2.8382e-06	27.125	0.00020763	0.00015507	4.5356e-05	1103	1.8995e-06	1.7717e-06	1166.6	231.96	1.9376e-06	1.8126e-06	290.19	83.329	65.488	19.155	1.8741e-06	27.382	97.715	-52.398	-52.797	-139.601	-19.326	-26.098	-139.674	-132.822	-45.677	17.307	-133.142	-126.643	-127.119	-119.155	-12.519	-119.365	-8191	255	
1410.176	1	1	0	0	0.1272	0.016363	0.11128	0.25343	0.13379	0.2353	0.32644	0.0092874	0.084524	0.14852	0.1651	0.13202	0.36278	0.10278	0.20458	0.21143	-2.8375	-3.3208	-3.0021	-2.9688	-3.3792	-3.1896	-3.5396	-3.4521	-3.075	-3.1979	-3.225	-3.1437	-3.5083	-3.2854	-3.15	-3.2938	-52.782	-48.534	-24.713	-138.815	-82.507	48.083	155.492	205.381	78.724	106.996	-113.897	202.011	12.581	109.974	137.653	-100.550	0.00054625	0.00023243	0.00010379	1126.6	4.8861e-06	2.439e-06	1179.4	233.82	4.113e-06	2.1428e-06	291.24	82.994	65.61	19.006	3.0334e-06	26.96	0.00021065	0.00016974	4.6487e-05	1109.8	2.0066e-06	1.8738e-06	1171.1	232.35	2.0008e-06	1.7834e-06	291.09	83.278	65.275	19.194	1.9165e-06	27.356	100.429	-12.888	-47.566	-139.451	-24.860	10.911	-139.872	-132.540	-38.358	-41.662	-132.939	-126.698	-126.505	-119.392	-33.942	-119.337	-8191	255	
1410.272	1	1	0	0	0.23475	0.16279	0.11277	0.16949	0.059126	0.19849	0.35917	0.1519	0.16016	0.037127	0.047801	0.10075	0.1604	0.28006	0.052443	0.15358	-2.7125	-3.3917	-3.3375	-2.9979	-3.4292	-3.3063	-3.2604	-3.5729	-3.2271	-3.2875	-3.2625	-2.9479	-3.4188	-3.1937	-3.2146	-3.3792	4.287	29.970	8.776	192.350	65.470	50.795	11.070	174.256	43.381	-120.651	120.918	137.032	-109.550	63.578	-7.307	124.714	0.00060341	0.00040471	0.00010158	1124.4	4.2485e-06	1.98e-06	1179.2	233.49	5.2124e-06	1.8965e-06	291.48	83.287	65.261	18.975	2.0793e-06	26.736	0.00021869	0.00016853	4.5707e-05	1106.7	1.9118e-06	1.8367e-06	1169.5	232.37	1.9766e-06	1.7547e-06	290.8	83.31	65.238	19.175	1.9464e-06	27.313	95.470	-71.988	-79.212	-139.568	-57.078	-7.227	-139.671	-132.482	-65.164	-2.727	-132.853	-126.697	-127.051	-118.935	-42.362	-119.785	-8191	255	
1410.368	1	1	0	0	0.26392	0.15576	0.17939	0.24408	0.087848	0.087163	0.31054	0.093754	0.13745	0.25073	0.11692	0.095074	0.27783	0.1931	0.13977	0.14451	-2.6562	-3.3854	-3.2979	-3.1771	-3.4229	-3.3458	-3.4146	-3.3646	-3.0458	-3.3708	-3.5729	-3.1104	-3.3708	-3.0104	-3.0604	-3.3917	138.051	135.766	-49.156	-127.666	-35.284	207.468	163.022	28.482	97.995	198.200	115.004	60.604	-50.310	187.612	94.749	54.624	0.00061836	0.00024219	7.5528e-05	1120.9	2.9964e-06	3.7013e-06	1178	233.2	7.7993e-06	2.0677e-06	290.36	83.379	65.841	18.949	1.7524e-06	26.796	0.0002153	0.00017139	4.5979e-05	1106.7	1.9079e-06	1.8657e-06	1167.2	232.21	2.0825e-06	1.8367e-06	291.05	83.172	65.496	19.168	1.9687e-06	27.377	101.170	-48.890	-99.693	-139.514	-27.708	14.681	-139.826	-132.604	-22.337	-6.638	-133.084	-126.631	-126.855	-119.131	-13.633	-119.868	-8191	255	
1410.465	1	1	0	0	0.16323	0.13174	0.15817	0.34424	0.23688	0.12854	0.44858	0.087188	0.057814	0.10992	0.15911	0.1005	0.059167	0.14868	0.18677	0.26276	-2.8479	-3.2604	-3.2271	-2.9958	-3.2167	-3.2667	-3.1542	-3.4979	-3.1583	-3.0896	-3.5146	-2.9521	-3.1708	-3.1146	-2.8417	-3.3583	-138.563	0.557	172.959	111.158	71.034	-27.234	142.433	195.817	-38.589	-51.017	166.977	57.349	-105.952	45.021	-49.150	171.061	0.00054774	0.00036292	5.1842e-05	1125.4	4.926e-06	2.859e-06	1183.1	233.72	9.7892e-06	3.6595e-06	292.32	83.171	65.94	19.074	2.0973e-06	26.918	0.00021581	0.00017487	4.8951e-05	1111.7	1.909e-06	1.9175e-06	1175.4	232.88	2.0108e-06	1.9487e-06	291.65	83.56	65.77	19.277	1.9699e-06	27.381	99.659	-35.824	-85.925	-139.827	-26.673	11.091	-139.845	-132.600	-53.004	-29.103	-132.787	-127.168	-126.895	-119.076	-6.455	-119.733	-8191	255	
1410.561	1	1	0	0	0.19123	0.17851	0.040672	0.088939	0.11763	0.10669	0.3305	0.37	0.12264	0.11679	0.13483	0.23851	0.34738	0.14622	0.13734	0.14926	-2.7917	-3.3021	-3.4667	-3.2917	-3.3833	-3.3417	-3.1542	-3.5083	-3.0687	-3.0563	-3.3542	-3.0458	-3.225	-3.2188	-3.0062	-3.2979	174.477	71.917	39.197	104.465	-78.559	-70.650	142.906	164.631	-31.269	-67.224	-12.619	147.238	78.025	-127.418	32.000	175.431	0.00058242	0.00027096	4.3653e-05	1126.8	3.1418e-06	3.1023e-06	1186.5	234.62	7.9903e-06	2.629e-06	293.4	83.198	65.524	19.053	2.6651e-06	26.844	0.00021613	0.00018243	4.9526e-05	1113.7	2.0008e-06	1.952e-06	1176.1	233.34	2.1396e-06	2.0581e-06	292.09	83.267	65.649	19.163	2.1784e-06	27.294	99.676	-60.851	-39.254	-139.645	-9.073	-5.104	-139.811	-132.562	-28.042	17.956	-132.764	-126.888	-127.493	-119.461	-72.394	-119.272	-8191	255	
1410.681	1	1	0	0	0.097572	0.029212	0.16476	0.27184	0.092723	0.055589	0.32509	0.021724	0.1298	0.076556	0.30353	0.17673	0.16185	0.06943	0.066408	0.065784	-2.7979	-3.2812	-3.2479	-3.1333	-3.2854	-3.4	-2.9104	-3.4667	-3.1063	-3.2292	-3.5083	-3.3104	-3.3708	-3.5208	-2.8167	-3.3937	115.496	-90.218	-0.278	172.351	41.428	118.876	110.344	-28.582	164.821	121.585	-56.727	111.012	179.483	-55.509	-64.302	-98.445	0.00059573	0.0003041	9.1082e-05	1139.9	2.3009e-06	4.1851e-06	1194.3	236.18	4.4187e-06	4.7796e-06	295.52	83.469	65.958	18.979	3.5314e-06	26.904	0.00022866	0.00020054	5.2854e-05	1121.5	2.1939e-06	2.2523e-06	1186.3	234.4	2.471e-06	2.3369e-06	293.83	83.714	66.016	19.226	2.4376e-06	27.366	96.592	-15.821	-70.458	-139.899	-27.691	1.277	-140.012	-132.579	-30.332	-1.449	-132.854	-126.853	-126.852	-118.985	-40.118	-119.499	-8191	255	
1410.777	1	1	0	0	0.11298	0.19338	0.096363	0.30417	0.26942	0.11099	0.18919	0.21724	0.13744	0.21329	0.1425	0.083824	0.066344	0.17748	0.10947	0.19932	-2.7042	-2.925	-3.2667	-3.35	-3.2938	-3.5333	-3.2271	-3.2771	-3.2104	-3.0583	-3.4667	-3.3708	-3.2292	-3.7083	-3.1146	-3.45	146.259	-97.707	82.595	201.368	-140.919	-113.250	72.587	-100.850	-61.347	24.898	-134.671	204.194	-127.030	-115.896	28.522	132.389	0.00052979	0.00026229	0.00018771	1156.6	3.7284e-06	2.7295e-06	1220.1	240.28	7.3937e-06	2.116e-06	299.45	84.607	67.056	19.313	5.3463e-06	27.114	0.00025814	0.00023745	6.8396e-05	1144	2.6424e-06	2.7122e-06	1209.1	238.27	2.693e-06	2.7796e-06	298.13	84.52	67.209	19.51	2.7503e-06	27.633	101.643	-61.381	-28.327	-139.817	-9.008	-25.705	-139.832	-132.513	-30.665	-32.576	-132.895	-126.750	-126.800	-119.684	-33.518	-119.927	-8191	255	
1410.849	1	1	0	0	0.1915	0.10132	0.044296	0.18896	0.11899	0.04379	0.2776	0.034698	0.057609	0.21531	0.17679	0.1347	0.17028	0.082644	0.12078	0.21142	-2.625	-3.0333	-3.3812	-3.1375	-3.3979	-3.5104	-3.3646	-3.3708	-3.3958	-3.2146	-3.5062	-3.2021	-3.2104	-3.3083	-3.0583	-3.3167	-9.433	186.257	95.060	-89.500	-62.233	197.089	110.819	-110.841	-112.328	-70.584	200.608	134.444	178.417	160.621	126.886	119.197	0.00053919	8.1303e-05	0.00010522	1180.8	3.5799e-06	3.4338e-06	1231	242.87	8.0884e-06	8.4253e-07	299.52	84.909	67.068	19.368	2.6152e-06	27.248	0.00028219	0.0002579	6.876e-05	1163.1	2.777e-06	2.7214e-06	1224	240.87	2.982e-06	2.6866e-06	299.65	85.074	67.344	19.571	2.7157e-06	27.723	89.685	7.015	-52.794	-140.064	9.578	-7.336	-139.868	-132.708	-40.075	-38.448	-133.119	-126.765	-127.123	-119.464	24.480	-119.625	-8191	255	
1410.945	1	1	0	0	0.17298	0.21114	0.058085	0.069606	0.10557	0.080665	0.11729	0.20867	0.037356	0.13099	0.15795	0.069984	0.15182	0.13081	0.15885	0.24803	-3.1375	-3.0604	-3.375	-3.2792	-3.2188	-3.5583	-3.2292	-3.2854	-3.5	-3.1896	-3.5271	-3.3146	-3.0875	-3.65	-3.2792	-3.2271	150.872	36.292	-114.800	47.563	-84.528	12.817	189.243	163.221	-73.781	-67.453	92.141	-127.584	102.448	153.477	165.166	135.235	0.00053285	0.00047209	0.0001057	1177.3	4.149e-06	4.6347e-06	1233.5	241.64	6.4996e-06	4.4654e-06	300.7	84.478	66.989	19.35	2.7853e-06	27.205	0.0002674	0.00024737	6.6647e-05	1164.1	2.7962e-06	2.6159e-06	1223.6	240.54	2.6842e-06	2.6284e-06	300.3	85.007	67.289	19.511	2.5341e-06	27.663	99.638	-77.478	-84.334	-139.820	-30.454	7.304	-140.046	-132.913	-36.708	22.096	-132.812	-126.973	-126.596	-118.946	-21.625	-119.606	-8191	255	
1411.064	1	1	0	0	0.28019	0.34985	0.17355	0.27508	0.12644	0.19378	0.32266	0.18789	0.20503	0.13242	0.059408	0.15417	0.32699	0.1305	0.087399	0.056633	-2.9354	-3.0854	-3.425	-3.4417	-3.1458	-3.2833	-3.2812	-3.1229	-3.3729	-3.0771	-3.45	-3.5271	-3.1104	-3.6417	-3.1208	-3.2104	117.412	-59.185	131.935	144.415	72.399	-46.821	142.969	179.591	122.096	-9.256	111.867	89.050	-138.746	-72.019	32.822	26.250	0.00062058	0.00061429	9.7946e-05	1175.3	5.201e-06	3.3878e-06	1226.9	241.93	4.6839e-06	1.6637e-06	300.82	84.646	66.881	19.309	3.5776e-06	27.237	0.00026962	0.00023936	6.5836e-05	1160.3	2.6493e-06	2.4994e-06	1219.9	240.3	2.6921e-06	2.5542e-06	299.87	84.908	67.014	19.506	2.6874e-06	27.635	95.602	-59.450	-29.142	-139.717	-36.071	8.070	-139.859	-132.895	-51.833	-2.998	-132.962	-126.862	-127.168	-118.852	-18.654	-119.398	-8191	255	
1411.160	1	1	0	0	0.28129	0.21557	0.12377	0.02598	0.084583	0.033176	0.14675	0.082618	0.074006	0.1697	0.14801	0.26376	0.1541	0.1978	0.18228	0.26975	-2.9562	-3.0021	-3.3083	-3.6063	-3.1437	-3.5417	-3.3812	-3.1833	-3.3521	-3.1104	-3.3792	-3.4146	-2.9708	-3.175	-3.3292	-3.2208	87.733	206.882	133.636	48.180	174.355	158.715	98.509	-87.543	-75.259	44.037	204.397	171.032	-22.894	-62.028	122.129	134.639	0.00058943	0.00011714	0.00011447	1173.4	4.4146e-06	1.3239e-06	1230.2	242.49	5.4675e-06	4.2671e-06	300.72	84.572	67.499	19.303	2.0251e-06	27.156	0.00026772	0.00024692	6.6472e-05	1160.8	2.7585e-06	2.5677e-06	1220.6	240.63	2.7227e-06	2.7442e-06	299.68	84.935	67.214	19.522	2.6853e-06	27.598	101.134	-21.798	-58.180	-139.478	0.419	119.517	-139.859	-132.494	-37.327	5.184	-132.709	-126.803	-126.578	-118.875	-16.243	-119.582	-8191	255	
1411.256	1	1	0	0	0.018756	0.059908	0.064774	0.095428	0.16272	0.15383	0.1736	0.22142	0.046914	0.18442	0.48751	0.058445	0.17236	0.34625	0.027481	0.073128	-3.2667	-3.2292	-3.1375	-3.3125	-3.0438	-3.3646	-3.3271	-3.1521	-3.525	-3.25	-3.3854	-3.625	-3.0542	-3.3396	-3.2604	-3.0771	-13.985	107.751	-106.010	97.036	13.845	-94.562	124.473	130.229	21.309	201.522	151.543	182.345	146.721	-130.104	76.368	188.794	0.0005398	0.00049027	0.00010246	1171.1	4.4923e-06	3.0474e-06	1229.8	241.89	2.8674e-06	4.4677e-06	299.39	84.784	66.966	19.172	3.5239e-06	26.989	0.00026374	0.0002339	6.6502e-05	1159.1	2.5601e-06	2.5126e-06	1218.3	239.49	2.5059e-06	2.5164e-06	299.11	84.591	66.698	19.383	2.4661e-06	27.479	98.136	-62.435	-76.714	-139.835	-16.755	-38.831	-140.009	-132.927	-49.375	5.622	-132.875	-126.949	-126.753	-119.487	4.342	-119.458	-8191	255	
1411.353	1	1	0	0	0.12836	0.077161	0.22367	0.097131	0.056627	0.042634	0.16988	0.056456	0.19035	0.068392	0.18238	0.067096	0.18779	0.29359	0.16195	0.15353	-3.0667	-3.2625	-3.0979	-3.5208	-3	-3.3937	-3.5167	-3.2062	-3.2687	-3.2833	-3.275	-3.5375	-3.1083	-3.1458	-3.1542	-2.8875	176.316	21.447	-66.778	-115.173	138.340	-62.699	120.289	48.363	175.767	168.004	-142.749	71.422	112.758	189.150	81.717	-5.550	0.0005985	0.0003953	0.00010092	1160.1	3.0592e-06	5.1648e-06	1213.7	238.19	6.241e-06	3.3952e-06	297.11	83.147	66.162	18.985	2.3795e-06	26.909	0.00024853	0.00022656	6.4814e-05	1148.8	2.4048e-06	2.4258e-06	1207	237.81	2.4354e-06	2.3575e-06	296.43	83.817	66.294	19.269	2.3313e-06	27.32	102.092	-72.089	-86.906	-139.452	-29.059	-9.416	-139.898	-132.943	-49.326	-3.435	-132.848	-126.910	-126.762	-119.226	-0.669	-119.456	-8191	255	
1411.449	1	1	0	0	0.10016	0.029742	0.19254	0.20699	0.12579	0.29126	0.19405	0.33791	0.095726	0.12566	0.053324	0.091451	0.14616	0.11143	0.12699	0.1507	-2.7792	-3.1562	-3.1437	-3.4479	-3.1833	-3.1937	-3.3792	-3.1854	-3.2979	-3.1312	-3.1437	-3.4125	-3.0938	-3.2188	-3.425	-3.2979	199.374	178.767	33.945	124.099	-2.505	-31.602	156.043	188.491	-141.746	110.410	53.078	-24.070	-123.574	107.651	106.923	39.213	0.00060548	0.0003157	6.841e-05	1151.9	3.8813e-06	4.5349e-06	1203.6	236.43	7.2582e-06	2.3009e-06	296.03	83.276	65.906	18.837	1.9434e-06	26.452	0.00024795	0.00021246	5.8834e-05	1136.7	2.316e-06	2.2166e-06	1195.2	236.04	2.3678e-06	2.1608e-06	294.98	83.383	65.681	19.067	2.1965e-06	27.108	101.255	-59.087	-74.821	-139.836	-5.848	4.541	-139.883	-132.948	-38.472	-17.467	-132.779	-126.942	-126.515	-119.031	-20.012	-119.405	-8191	255	
1411.545	1	1	0	0	0.20929	0.24846	0.36429	0.22751	0.14577	0.19419	0.09116	0.22815	0.18771	0.14059	0.069068	0.056111	0.10738	0.098398	0.23635	0.14284	-3.0917	-3.3542	-3.0271	-3.3771	-3.1146	-3.0292	-3.4125	-3.1646	-3.4437	-3.3792	-3.1833	-3.5375	-3.1458	-3.3604	-3.4792	-3.0271	24.013	-142.668	-138.144	167.559	126.430	-49.825	192.276	-51.252	48.072	189.608	-35.792	-82.587	175.242	54.034	-10.279	38.252	0.00055411	0.00016411	7.9527e-05	1139.2	2.2689e-06	3.4148e-06	1192.3	235.24	7.2585e-06	3.117e-06	294.19	82.9	66.314	18.841	3.9616e-06	26.494	0.00023097	0.0001935	5.6461e-05	1126.5	2.2683e-06	2.1559e-06	1184.2	234.28	2.2551e-06	2.1507e-06	293.6	83.231	65.779	19.036	2.1144e-06	27.101	93.848	-19.125	-71.503	-139.748	-42.117	46.022	-139.701	-132.757	-38.972	6.391	-132.971	-126.925	-127.025	-118.868	-22.010	-119.753	-8191	255	
1411.641	1	1	0	0	0.11318	0.074922	0.14696	0.24992	0.11399	0.18944	0.13228	0.16048	0.29734	0.18817	0.17298	0.22124	0.10629	0.2106	0.043236	0.065775	-3.1146	-3.2729	-3.1625	-3.6375	-3.2208	-3.3354	-3.5208	-3.2188	-3.4375	-3.2958	-3.0229	-3.2396	-3.1937	-3.2292	-3.4313	-3.3937	75.201	152.062	114.387	99.569	198.099	52.452	139.805	191.799	111.618	171.079	-146.295	-143.965	92.444	152.974	-109.428	-23.361	0.00060802	0.00024173	5.5605e-05	1139.8	2.9082e-06	3.7108e-06	1197.9	235.9	3.6986e-06	2.033e-06	294.23	82.836	65.433	18.844	4.1831e-06	26.776	0.00023108	0.00019933	5.6413e-05	1124.3	2.23e-06	2.1576e-06	1186.4	234.69	2.2587e-06	2.1067e-06	293.52	83.241	65.454	19.06	2.1343e-06	27.15	98.297	-52.965	-72.472	-139.770	-35.296	-3.058	-139.758	-132.704	-47.393	15.038	-132.949	-127.162	-126.911	-119.371	-11.034	-119.610	-8191	255	
1411.762	1	1	0	0	0.15811	0.20801	0.22136	0.18469	0.21799	0.26641	0.18306	0.19034	0.15106	0.2615	0.072009	0.30385	0.16924	0.2274	0.29492	0.037094	-2.9208	-3.2729	-3.0104	-3.2562	-3.2104	-3.3438	-3.5604	-3.2313	-3.2417	-3.5854	-3.2188	-3.3771	-3.4896	-3.2771	-3.3917	-3.1646	199.895	62.194	32.526	-101.381	-25.541	-73.089	145.260	73.717	-30.148	-92.053	-92.683	208.023	-131.270	-124.878	-30.801	123.726	0.00052402	0.00045516	9.3468e-05	1139.4	6.4073e-06	3.9303e-06	1190	234.64	4.7653e-06	3.0652e-06	293.54	82.94	65.616	18.971	3.7009e-06	26.557	0.00023284	0.00020048	5.283e-05	1125.2	2.3717e-06	2.1682e-06	1182	234.23	2.3197e-06	2.1715e-06	293.32	83.042	65.566	19.082	2.0522e-06	27.163	95.890	-59.133	-70.166	-139.471	4.054	13.575	-139.986	-132.554	-27.492	7.740	-132.683	-127.101	-126.788	-119.089	11.599	-119.312	-8191	255	
1411.858	1	1	0	0	0.16764	0.24496	0.30304	0.17414	0.12526	0.033345	0.038765	0.20361	0.34379	0.027902	0.12779	0.14078	0.2983	0.22568	0.17036	0.44176	-2.7396	-3.4146	-3.05	-3.5208	-3.2979	-3.0583	-3.4958	-3.0771	-3.075	-3.4708	-2.9688	-3.2542	-3.1479	-2.9646	-3.3646	-3.2583	-47.737	-50.072	-39.731	-22.300	70.232	73.686	-110.042	-97.710	-124.856	-56.781	-28.985	-101.707	155.591	-12.818	162.197	-141.121	0.0005841	0.00034057	5.7722e-05	1138.4	1.056e-06	3.5029e-06	1190.9	233.22	4.7582e-06	4.1113e-06	292.36	82.292	65.364	18.832	3.5084e-06	26.643	0.00023187	0.00019552	5.3756e-05	1122.8	2.195e-06	2.0337e-06	1181.5	233.42	2.1616e-06	2.0349e-06	292.23	82.892	65.427	19.079	2.0469e-06	27.103	99.029	-68.722	-40.544	-139.378	94.191	-15.022	-139.424	-132.658	-53.033	10.625	-132.983	-126.732	-126.874	-119.038	-10.336	-119.770	-8191	255	
1411.954	1	1	0	0	0.20675	0.1697	0.20117	0.14755	0.14144	0.15306	0.078041	0.013824	0.16584	0.092259	0.16322	0.10939	0.39681	0.13199	0.11718	0.17911	-2.6167	-3.1521	-2.9646	-3.25	-3.4437	-3.1688	-3.7208	-3.4604	-3.1458	-3.3563	-3.2417	-3.4583	-3.3375	-3.1437	-3.4896	-3.2479	-146.171	44.212	-12.443	171.147	6.927	-105.674	120.950	6.868	110.532	182.906	91.779	-150.223	187.367	-138.066	-86.979	-15.381	0.00056909	0.00019778	8.316e-05	1134.1	3.2374e-06	1.9623e-06	1186.4	233.91	6.5133e-06	1.6217e-06	291.21	82.198	64.88	18.697	1.4961e-06	26.481	0.00022412	0.00018031	4.9695e-05	1118.3	2.1e-06	2.0792e-06	1178.1	233.02	2.1342e-06	1.9107e-06	291.67	82.713	65.103	18.944	1.9128e-06	27.037	99.405	-70.097	-29.984	-139.654	-18.043	-17.339	-139.809	-132.608	-25.728	29.248	-132.960	-126.620	-127.005	-119.402	-16.022	-119.689	-8191	255	
1412.073	1	1	0	0	0.11406	0.15002	0.3044	0.13802	0.078591	0.1301	0.21439	0.16979	0.15077	0.18831	0.23536	0.25913	0.15385	0.076693	0.18099	0.02344	-2.7313	-3.4417	-3.2042	-3.1937	-3.2583	-2.9979	-3.3917	-3.3771	-3.0958	-3.3521	-3.1688	-3.1854	-3.3937	-3.3167	-3.5583	-3.3729	79.060	87.190	166.635	174.739	129.253	42.252	192.009	103.424	110.910	20.623	7.352	155.545	205.787	9.163	105.553	147.347	0.00057714	0.00043454	4.5519e-05	1125.7	8.6214e-07	4.4516e-06	1177.8	233	6.9909e-06	2.8113e-06	292.68	82.488	64.475	18.659	2.5571e-06	26.45	0.00022587	0.00018033	4.9296e-05	1111.5	1.9519e-06	2.021e-06	1171.3	232.42	2.1396e-06	1.994e-06	291.92	82.583	64.918	18.983	2.0972e-06	27.044	95.015	-58.054	-43.977	-139.273	-56.795	-13.483	-139.721	-132.616	-55.093	-20.662	-132.832	-126.675	-127.150	-118.457	-19.149	-119.023	-8191	255	
1412.145	1	1	0	0	0.18854	0.2791	0.10194	0.10999	0.1851	0.30136	0.25031	0.20506	0.11886	0.020413	0.039948	0.088664	0.09923	0.22387	0.17991	0.10837	-2.7271	-3.0062	-3.0083	-3.1562	-3.4313	-3.1292	-3.4583	-3.4917	-3.0604	-3.3521	-3.1583	-3.2271	-3.4729	-3.0917	-3.1625	-3.3937	168.965	-117.553	-68.340	91.136	-38.405	-99.845	168.077	157.042	28.914	-131.061	76.608	160.949	-101.429	166.160	34.673	-129.301	0.00056501	0.00044398	1.8768e-05	1128.5	3.7549e-06	3.8603e-06	1175.5	231.55	4.4407e-06	3.0956e-06	288.99	81.729	64.579	18.724	3.4659e-06	26.434	0.00021966	0.0001799	5.073e-05	1113.6	2.0124e-06	2.0191e-06	1171.6	232.09	2.0993e-06	1.9437e-06	291.16	82.504	64.972	19.008	2.0399e-06	27.082	92.517	-64.523	-81.918	-139.619	-14.990	10.538	-139.874	-132.884	-54.878	3.697	-132.841	-126.965	-126.858	-119.355	-9.463	-119.777	-8191	255	
1412.241	1	1	0	0	0.14949	0.1526	0.17477	0.13358	0.049661	0.057067	0.18386	0.12983	0.22574	0.33423	0.070076	0.057322	0.14598	0.25621	0.17073	0.13241	-2.7979	-3.2521	-3.225	-3.1854	-3.3479	-3.0833	-3.2667	-3.5187	-3.2042	-3.4542	-3.3563	-2.8708	-3.3083	-2.9396	-3.3542	-3.45	-58.199	-2.830	180.853	10.568	109.187	181.016	172.288	161.609	64.432	-75.046	-10.789	178.169	-63.005	13.112	110.983	100.678	0.00055681	0.00029044	7.3725e-05	1125.5	3.4244e-06	2.1214e-06	1179.4	233.56	5.877e-06	2.2221e-06	291.86	82.467	64.76	18.854	1.7164e-06	26.837	0.00022438	0.00018588	5.3683e-05	1112.4	2.0164e-06	1.9606e-06	1175	232.97	2.1027e-06	1.9961e-06	291.76	82.845	65.02	19.041	2.0794e-06	27.1	99.414	-80.888	-49.356	-139.674	-34.462	13.955	-139.735	-132.686	-69.174	-7.978	-132.940	-127.012	-127.038	-119.498	-4.389	-119.712	-8191	255	
1412.361	1	1	0	0	0.22925	0.28946	0.18162	0.3357	0.10073	0.20286	0.36966	0.17204	0.23294	0.021029	0.13585	0.10031	0.078182	0.098229	0.097767	0.15026	-2.6729	-3.2583	-3.1562	-2.9458	-3.4896	-3.1854	-3.3625	-3.6625	-3.3063	-3.3333	-3.4042	-2.9604	-3.1979	-3.1437	-2.9583	-3.3104	44.944	-31.390	-6.727	127.012	122.004	-90.392	121.706	155.258	-121.087	153.670	-146.078	-144.576	205.831	87.074	3.126	-101.943	0.00056871	0.00029096	8.4664e-05	1125.8	2.6399e-06	3.0555e-06	1186.2	234.2	7.1662e-06	3.0232e-06	293.09	82.877	64.718	18.782	1.2177e-06	26.494	0.00022601	0.00018871	5.3623e-05	1116.3	2.1193e-06	2.0896e-06	1179.7	233.35	2.1929e-06	2.1167e-06	291.93	82.932	65.265	19.074	2.0886e-06	27.096	94.773	-87.439	-56.717	-139.658	-1.739	4.585	-139.883	-132.552	-64.190	15.773	-132.966	-127.005	-126.949	-118.931	4.412	-119.660	-8191	255	
1412.457	1	1	0	0	0.1343	0.14237	0.22806	0.022845	0.18372	0.16888	0.3863	0.18928	0.035877	0.28155	0.11601	0.04076	0.079452	0.23218	0.12049	0.173	-2.5104	-3.0292	-3.2896	-3.0187	-3.3479	-3.2062	-3.3	-3.5458	-2.875	-3.2125	-3.4625	-3.1292	-3.4104	-3.3083	-3.0187	-3.4583	128.574	123.322	-42.214	-15.324	115.904	182.552	64.256	146.452	133.986	168.076	158.200	119.164	142.333	-146.257	-75.731	106.237	0.00060467	0.00036285	7.8055e-05	1135.6	4.2064e-06	1.9059e-06	1188.4	234.8	4.2814e-06	5.6194e-06	292.01	82.64	65.224	18.672	3.1374e-06	26.565	0.00023295	0.00020516	5.4773e-05	1120	2.1904e-06	2.0512e-06	1179.5	233.78	2.2914e-06	2.2168e-06	292.19	82.946	65.294	19.055	2.2524e-06	27.159	97.354	-37.700	-41.523	-139.625	-38.483	46.510	-139.893	-132.759	-43.822	8.387	-132.739	-126.862	-127.051	-119.045	12.909	-119.735	-8191	255	
1412.554	1	1	0	0	0.3268	0.20775	0.028722	0.26715	0.098871	0.092682	0.080874	0.09488	0.15085	0.20082	0.16585	0.058547	0.14928	0.17994	0.20812	0.091425	-2.5479	-3.2	-3.3187	-2.9771	-3.2604	-3.3146	-3.1125	-3.4062	-3.0854	-3.3312	-3.5083	-3.1125	-3.3667	-3.3688	-3.1354	-3.5292	-97.370	-27.764	19.691	135.998	48.352	-100.756	176.594	181.151	-19.541	68.835	-136.511	-141.916	40.312	105.158	-31.351	-89.966	0.00052393	0.00032568	0.00011571	1130.7	3.0273e-06	3.1272e-06	1182.7	233.43	9.8536e-06	2.6285e-06	292.67	82.571	65.444	18.866	2.3349e-06	26.683	0.00023698	0.00019697	5.3587e-05	1120.1	2.1758e-06	2.1519e-06	1180.1	233.4	2.1968e-06	2.1962e-06	292.3	82.95	65.266	19.099	2.2086e-06	27.13	101.686	-49.313	-62.001	-139.556	-45.145	19.760	-139.852	-132.638	-44.740	-8.170	-133.077	-127.109	-127.462	-118.820	-51.563	-119.702	-8191	255	
1412.650	1	1	0	0	0.2034	0.049626	0.33466	0.34249	0.10156	0.2113	0.24522	0.147	0.1328	0.14079	0.18309	0.1112	0.21753	0.23532	0.13575	0.10841	-2.5375	-3.0167	-3.3979	-3.1562	-3.3667	-3.275	-3.1688	-3.5521	-3.2354	-3.0687	-3.4167	-3.0729	-3.2354	-3.2521	-3.2979	-3.5042	-115.056	48.944	-43.502	-144.293	-122.557	-44.510	-142.303	157.660	194.618	98.119	48.214	142.903	0.304	170.036	40.342	-102.653	0.00060318	0.00026338	7.5063e-05	1138.9	1.9925e-06	3.679e-06	1190.1	233.01	3.9956e-06	3.3635e-06	292.68	82.07	65.138	18.808	4.1295e-06	26.774	0.00023101	0.00020045	5.3738e-05	1119.3	2.1971e-06	2.0591e-06	1178	232.84	2.2803e-06	2.1187e-06	292.45	82.753	65.332	19.055	1.9729e-06	27.113	103.841	-60.304	-77.414	-139.504	-39.479	-43.912	-139.892	-132.413	-77.832	-3.101	-132.809	-126.801	-126.458	-119.463	-41.959	-119.369	-8191	255	
1412.746	1	1	0	0	0.16675	0.1867	0.086447	0.17784	0.19612	0.15186	0.13828	0.24036	0.06316	0.20204	0.13874	0.27811	0.010099	0.26715	0.1113	0.036263	-2.6833	-2.8667	-3.4958	-2.8438	-3.375	-3.4437	-3.0417	-3.2938	-3.2958	-3.2313	-3.5021	-3.1292	-3.0708	-3.3375	-3.0771	-3.5604	-45.551	110.184	146.777	-71.675	165.818	26.900	102.970	-77.742	106.782	20.281	119.141	199.403	-3.086	53.207	-67.071	80.699	0.0005727	0.00029092	8.9385e-05	1128.7	2.6016e-06	2.9784e-06	1185.4	234.36	3.8653e-06	2.597e-06	293.45	82.712	64.849	18.776	3.8334e-06	26.747	0.00022692	0.00018832	5.2842e-05	1117.2	2.2099e-06	2.039e-06	1176.4	233.37	2.2294e-06	2.1206e-06	292.52	82.829	65.073	19.062	2.1125e-06	27.123	99.468	-56.112	-100.298	-139.639	38.773	17.479	-139.754	-132.426	-54.781	-21.995	-132.748	-126.450	-126.912	-119.012	2.185	-119.286	-8191	255	
1412.842	1	1	0	0	0.19863	0.2478	0.17995	0.060684	0.18513	0.16912	0.048715	0.20376	0.095185	0.1162	0.31694	0.084194	0.26528	0.28737	0.21644	0.17921	-2.7167	-2.8229	-3.2729	-3.2417	-3.1979	-3.4729	-3.1042	-3.4521	-3.3771	-3.2854	-3.5333	-3.1146	-3.1667	-3.4375	-3.2271	-3.2625	48.698	-19.788	195.214	179.672	159.510	61.742	185.974	204.177	-103.681	175.067	-129.187	3.324	-40.326	-124.758	-142.986	-120.822	0.0005426	0.00027557	0.00010003	1132.7	2.873e-06	4.9298e-06	1188.7	235.24	5.6681e-06	3.2952e-06	293.27	82.605	65.807	18.844	1.7632e-06	26.749	0.00022961	0.000194	5.1196e-05	1116.4	2.1512e-06	2.0922e-06	1176	233.23	2.1952e-06	2.1261e-06	292.4	82.738	65.235	19.03	2.1715e-06	27.117	99.625	-52.151	-31.723	-139.572	-14.315	-33.459	-139.781	-132.493	-1.101	-6.911	-132.669	-126.632	-126.614	-118.925	-27.225	-119.712	-8191	255	
1412.938	1	1	0	0	0.077331	0.18877	0.12763	0.057185	0.16185	0.14243	0.30512	0.16261	0.11413	0.17102	0.1813	0.07557	0.16116	0.098449	0.15302	0.13642	-2.9646	-3.2125	-3.3833	-3.3042	-3.0917	-3.2833	-3.3979	-3.0896	-3.3771	-3.0312	-3.6042	-3.2	-3.0312	-3.3063	-3.0854	-3.3917	-15.247	-5.193	-11.695	95.346	104.759	104.485	132.371	156.917	62.283	-63.655	-92.241	83.402	-60.505	-30.228	109.283	-89.364	0.0005895	0.00044708	6.5915e-05	1127.9	3.0189e-06	2.8768e-06	1183	234.55	7.0317e-06	3.3086e-06	291.79	82.348	65.584	18.759	4.2971e-06	26.586	0.00023701	0.0001901	5.2794e-05	1115.7	2.2092e-06	2.1087e-06	1175.7	233.07	2.3301e-06	2.1814e-06	292.22	82.859	65.471	19.038	2.1678e-06	27.067	103.258	-52.806	-71.395	-139.849	-23.068	-0.509	-139.509	-132.735	-48.607	24.232	-132.661	-126.696	-127.114	-119.389	-33.673	-119.622	-8191	255	
1413.034	1	1	0	0	0.18909	0.41124	0.16284	0.33309	0.10227	0.077266	0.21311	0.11235	0.14513	0.24539	0.075707	0.17327	0.17456	0.26434	0.058468	0.14976	-3.0833	-3.1771	-3.375	-3.1625	-3.1208	-3.125	-3.0292	-3.2979	-3.3563	-3.0563	-3.4646	-3.0792	-3.2542	-3.3229	-3.1042	-3.0521	70.873	-72.459	-30.829	-150.616	53.368	-100.521	173.988	-27.920	-19.158	-135.762	59.264	179.430	-29.907	97.342	151.026	8.622	0.00053931	0.0002685	9.6867e-05	1134.4	4.6977e-06	2.8507e-06	1197	235.85	8.8197e-06	4.5181e-06	294.31	82.883	66.006	18.851	4.1436e-06	26.72	0.00023018	0.00020199	5.5947e-05	1119	2.2205e-06	2.1317e-06	1183.2	233.48	2.3122e-06	2.1254e-06	292.48	82.906	65.402	19.051	2.2142e-06	27.107	97.020	-64.607	-62.942	-139.526	-24.879	5.172	-139.845	-132.759	-54.505	-10.840	-132.676	-126.643	-126.812	-118.754	-41.263	-119.212	-8191	255	
1413.153	1	1	0	0	0.14853	0.40177	0.10793	0.13069	0.15681	0.2336	0.13974	0.23166	0.14831	0.066562	0.10766	0.14516	0.21467	0.059183	0.014902	0.074989	-2.8896	-3.0687	-3.4375	-3.4104	-3.0875	-3.3417	-3.2521	-3.1521	-3.3854	-3.0312	-3.5563	-3.5479	-3.1542	-3.4292	-3.2812	-3.2521	70.017	-26.008	63.254	-130.289	-94.655	138.224	173.001	-143.178	-7.150	18.287	39.600	-139.780	149.070	-21.574	31.587	196.683	0.00058703	0.00028957	5.4822e-05	1137.4	2.9609e-06	5.9594e-06	1190	235.28	5.7916e-06	3.2394e-06	293.29	82.512	65.569	18.726	2.5983e-06	26.696	0.00023767	0.00019814	5.4979e-05	1118.6	2.1978e-06	2.144e-06	1179.6	233.52	2.3095e-06	2.2041e-06	292.52	82.881	65.341	19.031	2.1763e-06	27.075	95.353	-47.795	-60.018	-139.426	-55.150	15.031	-139.740	-132.558	-46.447	5.713	-132.777	-126.754	-126.804	-118.717	23.073	-119.615	-8191	255	
1413.249	1	1	0	0	0.059738	0.13263	0.30896	0.18617	0.061607	0.2127	0.29739	0.24705	0.21887	0.15093	0.070151	0.023317	0.13711	0.1096	0.083722	0.31072	-3.1708	-2.9562	-3.2208	-3.2333	-2.9625	-3.3542	-3.4938	-3.3375	-3.4104	-3.2917	-3.1354	-3.3125	-2.8854	-3.4792	-3.2542	-3.0146	51.731	-28.576	-27.387	147.915	177.004	163.209	98.808	165.031	50.911	18.150	207.004	200.867	190.934	20.869	-101.843	201.535	0.0005531	0.00051594	7.0401e-05	1136.4	3.3324e-06	3.1202e-06	1192.8	234.01	5.8556e-06	2.9152e-06	293.96	82.339	64.9	18.833	2.847e-06	26.678	0.00023597	0.00020182	5.4482e-05	1121.8	2.2639e-06	2.0939e-06	1179.7	232.97	2.2093e-06	2.1656e-06	292.66	82.744	65.161	19.032	2.0989e-06	27.03	93.356	-76.031	-69.672	-139.626	-21.209	-35.319	-139.641	-132.725	-57.904	32.778	-133.010	-126.721	-126.389	-118.747	15.996	-119.333	-8191	255	
1413.346	1	1	0	0	0.1416	0.19974	0.078607	0.13588	0.064982	0.078961	0.23467	0.14822	0.012636	0.067401	0.18146	0.067924	0.28532	0.099746	0.096872	0.30041	-3.2	-2.8937	-3.2417	-3.4479	-3.2083	-3.4125	-3.2521	-3.2354	-3.5187	-3.1688	-3.3417	-3.4354	-2.875	-3.2646	-3.2062	-3.0563	99.715	-7.603	137.070	197.363	-143.858	3.310	134.369	196.364	15.317	-33.800	179.608	59.103	-49.531	-69.485	94.598	95.628	0.00060003	0.00044432	6.0533e-05	1131.9	3.704e-06	2.3354e-06	1189.5	235.23	5.9546e-06	3.8414e-06	295.22	82.458	64.889	18.868	4.6552e-06	26.506	0.0002247	0.00019328	5.2764e-05	1117.6	2.186e-06	2.0967e-06	1178	233.58	2.2158e-06	2.1708e-06	292.88	82.812	65.092	19.052	2.1086e-06	27.027	100.371	-67.552	-75.403	-139.926	-7.346	-10.474	-139.897	-132.694	-35.461	0.946	-132.850	-126.755	-127.126	-118.998	-40.750	-119.599	-8191	255	
1413.442	1	1	0	0	0.19177	0.049726	0.064098	0.10494	0.10825	0.093916	0.20554	0.15848	0.26483	0.14232	0.043479	0.094471	0.13844	0.10535	0.24632	0.11259	-2.8563	-3.1979	-3.2458	-3.4479	-2.9646	-3.2271	-3.3417	-3.0833	-3.1604	-2.9958	-3.1813	-3.5729	-3.2625	-3.2875	-3.4375	-3.0479	-63.597	-140.899	115.427	190.730	49.737	157.155	147.308	-96.837	-11.722	76.231	-20.095	183.560	41.318	97.039	196.547	28.356	0.00054287	0.00022102	7.98e-05	1130.5	1.9572e-06	2.0585e-06	1189.2	234.54	6.8433e-06	4.054e-06	292.38	82.331	65.221	18.836	2.3187e-06	26.574	0.00022576	0.00019038	5.3544e-05	1117.2	2.227e-06	2.1356e-06	1178.4	233.38	2.2834e-06	2.1955e-06	292.2	82.682	65.309	19.046	2.1401e-06	27.035	100.160	-46.553	-70.878	-139.837	-42.971	-21.829	-139.818	-132.493	-56.552	-3.520	-132.863	-126.695	-126.963	-119.196	-26.188	-119.128	-8191	255	
1413.538	1	1	0	0	0.08966	0.024419	0.25613	0.10123	0.38239	0.21213	0.2061	0.20111	0.10143	0.20156	0.16842	0.21702	0.17956	0.17258	0.13376	0.1016	-3.0667	-3.1333	-2.9437	-3.2042	-3.0104	-3.1271	-3.35	-3.1292	-3.4437	-3.3542	-3.175	-3.3979	-2.9479	-3.325	-3.3396	-3.3125	204.479	204.100	169.118	162.626	17.737	-58.905	117.283	162.547	6.019	140.153	-111.189	61.684	13.547	118.336	-107.044	-62.175	0.00058212	0.00032911	9.1711e-05	1136.3	3.036e-06	3.9502e-06	1186.9	234.47	5.5228e-06	3.8159e-06	293.43	82.938	65.134	18.847	5.0835e-06	26.669	0.00022975	0.00019532	5.3338e-05	1117.8	2.1821e-06	2.0766e-06	1177.8	232.79	2.1294e-06	2.0464e-06	292.29	82.764	65.183	18.996	1.9362e-06	27.057	99.340	-84.778	-35.314	-139.538	-14.427	-0.517	-139.805	-132.726	-44.844	35.599	-132.706	-127.025	-127.064	-119.181	-35.804	-119.119	-8191	255	
1413.634	1	1	0	0	0.29723	0.2333	0.084062	0.10432	0.11633	0.1114	0.2656	0.47719	0.25575	0.1665	0.031134	0.21511	0.10661	0.25459	0.078657	0.060637	-3.0687	-3.2854	-3.1583	-3.4208	-2.9938	-3.2292	-3.3583	-3.1229	-3.4437	-3.25	-3.1292	-3.3021	-2.9167	-3.0687	-3.2562	-2.8521	186.865	-46.436	-75.395	-113.259	-30.867	119.599	171.136	155.411	89.635	-61.725	115.392	73.925	165.503	198.094	157.587	168.284	0.00059834	0.00012434	6.7621e-05	1127.4	3.4611e-06	1.4494e-06	1180.7	234.18	2.9058e-06	1.8252e-06	293.46	82.887	65.233	18.821	2.3742e-06	26.613	0.00022468	0.00018783	5.2098e-05	1113.6	2.1552e-06	2.1212e-06	1172.8	232.66	2.1823e-06	1.9248e-06	291.85	82.733	65.157	18.98	2.0654e-06	27.014	89.545	-64.103	-59.167	-139.468	-43.032	24.791	-139.705	-132.587	5.616	-26.535	-132.724	-126.831	-126.698	-119.009	6.343	-119.329	-8191	255	
1413.755	1	1	0	0	0.168	0.07183	0.15518	0.085707	0.12363	0.13023	0.034922	0.28276	0.21334	0.075715	0.20374	0.086167	0.030085	0.077223	0.13345	0.072117	-2.7687	-3.15	-2.925	-3.5187	-3.2646	-3.2229	-3.6292	-3.1729	-3.1958	-3.2208	-3.0667	-3.3375	-3.0687	-2.9292	-3.3333	-3.1896	162.896	-131.660	107.460	206.059	-66.471	162.719	-80.307	162.766	-121.429	92.719	125.757	35.061	141.342	102.673	189.268	-92.622	0.000508	0.000463	6.2366e-05	1128.6	4.5227e-06	3.6031e-06	1186.3	235.1	8.5318e-06	2.9802e-06	295.28	82.575	64.897	18.742	4.5668e-06	26.471	0.0002203	0.00018737	5.188e-05	1112.1	2.053e-06	2.0119e-06	1172.6	232.58	2.2839e-06	1.9959e-06	292.5	82.682	64.984	18.939	2.0954e-06	27.027	98.281	-37.169	-74.087	-139.652	-44.376	5.631	-139.551	-132.370	-33.586	-4.190	-132.555	-126.486	-126.812	-119.060	-23.350	-119.421	-8191	255	
1413.851	1	1	0	0	0.17252	0.19046	0.12529	0.18419	0.40442	0.28398	0.062688	0.05719	0.060508	0.11533	0.1726	0.16379	0.17107	0.193	0.037039	0.06568	-2.7396	-3.5312	-3.0167	-3.3771	-3.1375	-3.0604	-3.4375	-3.1146	-3.3417	-3.5042	-3.1437	-3.5042	-3.2833	-2.9792	-3.2396	-3.0646	-122.361	-135.263	142.444	108.289	-29.322	77.589	156.462	-142.607	62.527	176.256	-79.615	-144.781	199.210	138.741	169.786	-149.462	0.00048635	0.0002624	6.3555e-05	1131.5	3.8833e-06	2.434e-06	1183.2	234.05	5.5959e-06	2.7487e-06	293.78	82.474	64.942	18.832	3.4227e-06	26.503	0.00022519	0.00019445	5.372e-05	1114.5	2.2175e-06	2.0502e-06	1173	232.65	2.1818e-06	2.0442e-06	292.54	82.674	64.998	18.968	2.1589e-06	26.973	100.711	-25.034	-46.240	-139.735	-47.943	20.988	-139.611	-132.644	-75.081	-62.949	-132.923	-126.602	-126.649	-119.112	-0.883	-119.530	-8191	255	
1413.945	1	1	0	0	0.1419	0.14143	0.12203	0.21449	0.39737	0.14306	0.23959	0.17854	0.089949	0.078117	0.072364	0.12063	0.12747	0.18715	0.072347	0.079444	-2.7062	-3.0292	-2.8333	-3.3542	-3.4042	-3.1729	-3.5938	-3.2583	-3.1375	-3.3625	-2.9896	-3.3	-3.375	-3.1542	-3.3875	-2.9833	207.166	-136.770	79.570	195.733	198.848	-127.531	106.862	121.442	-147.517	76.777	47.249	-72.958	-145.728	60.435	103.009	-82.805	0.00057692	0.00013738	8.5528e-05	1123.1	3.6813e-06	3.665e-06	1183.6	234.41	4.9631e-06	8.4735e-07	294.21	82.753	65.334	18.804	1.6884e-06	26.509	0.00022836	0.00017886	5.4549e-05	1112.1	2.1846e-06	2.1598e-06	1173.4	232.52	2.2505e-06	2.0995e-06	292.31	82.551	65.026	18.997	2.1972e-06	26.947	100.617	-95.086	-49.915	-139.582	-9.657	11.796	-139.629	-132.434	-32.154	-47.065	-132.697	-126.663	-126.875	-118.949	-49.802	-119.494	-8191	255	
1414.043	1	1	0	0	0.09525	0.066582	0.096572	0.13266	0.14028	0.054678	0.20225	0.2219	0.17882	0.25333	0.041968	0.19046	0.20126	0.10091	0.21215	0.18234	-2.6417	-3.5312	-3.2083	-3.3479	-3.2417	-3.2	-3.5708	-3.2438	-3.2417	-3.5271	-3.3979	-3.4437	-3.2667	-3.0146	-3.1625	-3.0917	29.212	172.430	35.208	-100.943	62.828	127.037	80.166	202.655	14.056	84.470	-45.763	-50.142	21.318	95.731	-20.102	-18.520	0.00057882	0.00023588	9.3148e-05	1131.7	2.0363e-06	2.3246e-06	1188.1	235.12	6.0121e-06	3.5312e-06	294.26	82.989	65.548	18.787	3.731e-06	26.975	0.00023652	0.00019827	5.6352e-05	1111.3	2.2799e-06	2.224e-06	1173.4	232.92	2.2682e-06	2.151e-06	292.33	82.568	64.96	18.959	2.1118e-06	27.069	97.616	-52.263	-82.447	-139.444	-36.565	12.263	-139.644	-132.785	-36.682	5.204	-132.610	-126.716	-126.730	-118.736	-2.644	-119.430	-8191	255	
1414.137	1	1	0	0	0.23821	0.36455	0.17492	0.23342	0.094833	0.067948	0.21672	0.47708	0.21397	0.14848	0.15194	0.1734	0.12365	0.090914	0.10231	0.15203	-2.6417	-3.4646	-3.2188	-3.3167	-3.4396	-3	-3.3	-3.2854	-3.0208	-3.5875	-3.4167	-3.2646	-3.3125	-3.0833	-3.3937	-3.3271	-41.968	19.476	-32.359	-85.519	90.806	127.613	71.943	118.504	56.464	25.031	127.154	9.100	142.884	71.771	-105.961	62.775	0.00057695	0.00028469	8.1561e-05	1141.4	3.783e-06	4.7415e-06	1188.1	235.02	8.2491e-06	2.253e-06	296.11	82.754	65.648	18.996	3.8976e-06	26.653	0.00023728	0.00019708	5.7218e-05	1118.7	2.2551e-06	2.2427e-06	1175.2	232.64	2.3773e-06	2.1251e-06	292.77	82.662	65.147	19.011	2.2193e-06	27.067	97.959	-54.156	-73.408	-139.361	-41.449	-47.609	-139.734	-132.711	-52.639	2.490	-133.091	-126.470	-126.984	-118.752	-7.195	-119.414	-8191	255	
1414.234	1	1	0	0	0.099632	0.14086	0.20265	0.10149	0.11863	0.17181	0.16929	0.22281	0.23951	0.20717	0.014078	0.070305	0.41704	0.14205	0.11229	0.33359	-2.65	-3.5229	-3.0875	-3.2938	-3.4396	-3.2938	-3.5979	-3.2042	-2.9458	-3.3167	-3.1583	-3.2479	-3.5229	-3.1396	-3.2479	-3.2604	-132.071	65.488	6.095	24.328	23.300	15.527	-148.872	-124.702	-137.173	100.811	177.188	-83.739	159.258	87.323	179.784	151.781	0.00058729	0.00039888	7.537e-05	1140.1	1.3498e-06	3.0456e-06	1192.5	235.37	4.3192e-06	3.1712e-06	293.13	82.274	64.957	18.79	4.5011e-06	26.511	0.00024498	0.00020479	5.5529e-05	1117.7	2.2484e-06	2.1552e-06	1174.9	232.84	2.2925e-06	2.1534e-06	292.1	82.405	65.006	18.94	2.0675e-06	26.995	94.836	-45.691	-46.123	-139.699	-21.064	-7.603	-139.488	-132.611	-32.606	12.742	-132.599	-126.439	-126.537	-118.986	-43.536	-119.202	-8191	255	
1414.330	1	1	0	0	0.17467	0.1042	0.21897	0.33124	0.034699	0.16695	0.24737	0.29561	0.092134	0.20229	0.13469	0.080365	0.12698	0.41	0.069155	0.19194	-2.8104	-3.4292	-3.3479	-3.1854	-3.3146	-3.2896	-3.3521	-3.4958	-3.0958	-3.5625	-3.3667	-3.1667	-3.4896	-3.2375	-3.1396	-3.5146	-8.105	-132.289	-69.846	196.913	189.484	152.125	48.825	189.915	-85.354	163.437	189.586	-51.314	-148.184	177.015	116.169	-142.191	0.00059754	0.00031112	5.8427e-05	1128.8	4.9241e-06	3.0267e-06	1183	234.54	1.1308e-05	2.0012e-06	292.53	82.305	64.986	18.742	2.8843e-06	26.415	0.00023283	0.00019939	5.2975e-05	1111.9	2.1267e-06	2.1612e-06	1173	232.52	2.192e-06	2.0785e-06	292.22	82.618	64.984	18.984	2.2682e-06	27.024	92.910	-52.524	-69.674	-139.747	-29.910	28.379	-139.727	-132.645	-54.863	21.504	-132.952	-126.329	-127.050	-119.020	-36.523	-119.161	-8191	255	
1414.450	1	1	0	0	0.13389	0.091256	0.16871	0.22146	0.16407	0.082909	0.40903	0.27183	0.069668	0.22482	0.23818	0.14225	0.073402	0.22016	0.12072	0.14659	-2.5979	-3.3271	-3.2479	-3.0896	-3.3417	-3.15	-3.2562	-3.5792	-3.2208	-3.2208	-3.4333	-2.9417	-3.6521	-3.3458	-3.3833	-3.5854	181.573	-85.184	-53.329	157.598	39.234	160.670	187.604	8.386	-79.861	37.446	129.407	145.706	104.676	186.849	-88.731	157.637	0.00059363	0.00030683	9.7253e-05	1133.2	3.6228e-06	4.2741e-06	1184.1	233.91	6.4059e-06	2.666e-06	295.1	82.576	65.353	18.907	4.1575e-06	26.643	0.0002403	0.00019963	5.4349e-05	1116.7	2.2949e-06	2.1888e-06	1176.1	232.99	2.4011e-06	2.2536e-06	293.22	82.693	65.117	19.02	2.2232e-06	27.09	100.013	-60.151	-84.478	-139.879	1.376	21.810	-139.702	-132.701	-37.165	-19.128	-132.694	-126.627	-126.638	-118.921	-37.305	-119.394	-8191	255	
1414.547	1	1	0	0	0.11784	0.10007	0.34514	0.2486	0.06666	0.16209	0.14837	0.11552	0.050356	0.23656	0.08924	0.32996	0.41096	0.12089	0.0313	0.35485	-2.7917	-3.2833	-3.4042	-3.1292	-3.3958	-3.4188	-3.3083	-3.4604	-3.1188	-3.325	-3.3812	-2.9437	-3.2771	-2.9042	-3.0396	-3.4	-90.413	-109.597	207.311	79.637	37.728	-148.621	133.468	185.098	-83.336	-133.186	58.855	149.753	-141.467	-101.047	-53.007	200.939	0.00057741	0.00035043	3.8308e-05	1132	2.1157e-06	2.3886e-06	1189.1	234.22	3.0874e-06	3.2476e-06	293.77	82.523	65.15	18.828	3.9269e-06	26.454	0.00024362	0.00020195	5.4561e-05	1117.5	2.2704e-06	2.2223e-06	1177.4	232.63	2.3345e-06	2.2079e-06	292.77	82.577	65.08	18.985	2.1773e-06	26.947	99.210	-62.222	-88.341	-139.570	-78.985	28.523	-139.653	-132.716	-64.842	-4.252	-132.673	-126.579	-126.647	-118.991	-6.636	-119.263	-8191	255	
1414.618	1	1	0	0	0.30654	0.21832	0.13628	0.36478	0.28488	0.23739	0.22001	0.066109	0.18381	0.26184	0.24624	0.10113	0.19247	0.20804	0.21927	0.20908	-2.6354	-3.1271	-3.3917	-3.2083	-3.5208	-3.2604	-3.3333	-3.4542	-3.275	-3.1896	-3.4521	-3.1875	-3.475	-3.4146	-3.1562	-3.4729	176.454	83.753	200.256	181.398	124.756	35.178	64.027	91.105	67.277	177.762	186.288	75.237	7.012	6.513	-30.383	71.679	0.00059848	0.00011548	0.0001008	1128.4	3.2103e-06	2.1501e-06	1179.6	233.48	5.5561e-06	2.8254e-06	293.94	82.287	65.659	18.782	2.8624e-06	26.443	0.00023048	0.00019341	5.1565e-05	1111.2	2.1811e-06	2.0884e-06	1169	232.04	2.2201e-06	2.0524e-06	292.23	82.412	65.191	18.963	2.2701e-06	26.943	100.074	-50.588	-27.991	-139.746	-24.179	18.226	-139.729	-132.587	-21.841	-8.189	-132.944	-126.200	-127.147	-119.145	-18.108	-119.763	-8191	255	
1414.714	1	1	0	0	0.069618	0.20849	0.11397	0.13764	0.16571	0.23496	0.065149	0.033912	0.13431	0.050869	0.14725	0.22603	0.11082	0.32231	0.15641	0.21798	-2.625	-3.1667	-3.4042	-3.2313	-3.2229	-3.3354	-3.2062	-3.325	-3.0292	-3.1604	-3.4437	-3.2438	-3.2792	-3.3292	-3.1792	-3.3833	108.329	38.180	191.784	206.500	90.940	-52.370	46.302	39.182	-10.085	194.692	80.639	31.200	181.684	142.751	-55.160	130.529	0.00056004	0.00041601	7.2151e-05	1130.3	2.4516e-06	4.1182e-06	1193.6	235.42	5.0983e-06	2.9233e-06	294.15	83.102	65.403	18.878	3.0576e-06	26.76	0.000232	0.00020022	5.602e-05	1113.6	2.2546e-06	2.0996e-06	1177.7	233.01	2.2807e-06	2.1919e-06	293.24	83.077	65.257	19.062	2.1337e-06	27.117	103.321	-66.209	-28.520	-139.448	-64.314	19.126	-139.539	-132.659	-72.726	-28.430	-132.702	-126.885	-126.658	-118.908	-14.574	-119.163	-8191	255	
#DATA ENDS
