BOXY.EXE: ISS Imagent and Oximeter Data Acquisition Program Version 0.80
Ascii Record File

#ACQ INFORMATION
2  Detector Channels 
16  External MUX Channels 
1  Auxiliary Channels 
5000  Waveform (CCF) Frequency (Hz)
1  Waveforms Skipped 
30  Waveforms Averaged 
1  Cycles Averaged 
16  Acquisitions per Waveform 
10.0806  Updata Rate (Hz) 

#FILE INFORMATION
TRUE -- External MUX Channel results are PARSED.
FALSE -- AC DC and Phase are NOT grouped.
TRUE -- Companion Program Settings File CREATED.
FALSE -- AC data not excluded
FALSE -- DC data not excluded
FALSE -- Phase data not excluded
FALSE -- Auxillary Chn. data not excluded
Tab delimiters

#CALIBRATION STATE
TRUE -- Waveform Calibration Values APPLIED.


#AUX CALIBRATION VALUES
Val Type	aux-1	

Term	1.0000e+00	
Factor	0.0000e+00	


#WF CALIBRATION VALUES
A = Detector Channel
Val Type	A-AC1	A-AC2	A-AC3	A-AC4	A-AC5	A-AC6	A-AC7	A-AC8	A-AC9	A-AC10	A-AC11	A-AC12	A-AC13	A-AC14	A-AC15	A-AC16	A-DC1	A-DC2	A-DC3	A-DC4	A-DC5	A-DC6	A-DC7	A-DC8	A-DC9	A-DC10	A-DC11	A-DC12	A-DC13	A-DC14	A-DC15	A-DC16	A-Ph1	A-Ph2	A-Ph3	A-Ph4	A-Ph5	A-Ph6	A-Ph7	A-Ph8	A-Ph9	A-Ph10	A-Ph11	A-Ph12	A-Ph13	A-Ph14	A-Ph15	A-Ph16	

Term	0.00000e+00	0.00000e+00	0.00000e+00	0.00000e+00	0.00000e+00	0.00000e+00	0.00000e+00	0.00000e+00	0.00000e+00	0.00000e+00	0.00000e+00	0.00000e+00	0.00000e+00	0.00000e+00	0.00000e+00	0.00000e+00	0.00000e+00	0.00000e+00	0.00000e+00	0.00000e+00	0.00000e+00	0.00000e+00	0.00000e+00	0.00000e+00	0.00000e+00	0.00000e+00	0.00000e+00	0.00000e+00	0.00000e+00	0.00000e+00	0.00000e+00	0.00000e+00	0.00000e+00	0.00000e+00	0.00000e+00	0.00000e+00	0.00000e+00	0.00000e+00	0.00000e+00	0.00000e+00	0.00000e+00	0.00000e+00	0.00000e+00	0.00000e+00	0.00000e+00	0.00000e+00	0.00000e+00	0.00000e+00	
Factor	1.00000e+00	1.00000e+00	1.00000e+00	1.00000e+00	1.00000e+00	1.00000e+00	1.00000e+00	1.00000e+00	1.00000e+00	1.00000e+00	1.00000e+00	1.00000e+00	1.00000e+00	1.00000e+00	1.00000e+00	1.00000e+00	1.00000e+00	1.00000e+00	1.00000e+00	1.00000e+00	1.00000e+00	1.00000e+00	1.00000e+00	1.00000e+00	1.00000e+00	1.00000e+00	1.00000e+00	1.00000e+00	1.00000e+00	1.00000e+00	1.00000e+00	1.00000e+00	X	X	X	X	X	X	X	X	X	X	X	X	X	X	X	X	

B = Detector Channel
Val Type	B-AC1	B-AC2	B-AC3	B-AC4	B-AC5	B-AC6	B-AC7	B-AC8	B-AC9	B-AC10	B-AC11	B-AC12	B-AC13	B-AC14	B-AC15	B-AC16	B-DC1	B-DC2	B-DC3	B-DC4	B-DC5	B-DC6	B-DC7	B-DC8	B-DC9	B-DC10	B-DC11	B-DC12	B-DC13	B-DC14	B-DC15	B-DC16	B-Ph1	B-Ph2	B-Ph3	B-Ph4	B-Ph5	B-Ph6	B-Ph7	B-Ph8	B-Ph9	B-Ph10	B-Ph11	B-Ph12	B-Ph13	B-Ph14	B-Ph15	B-Ph16	

Term	0.00000e+00	0.00000e+00	0.00000e+00	0.00000e+00	0.00000e+00	0.00000e+00	0.00000e+00	0.00000e+00	0.00000e+00	0.00000e+00	0.00000e+00	0.00000e+00	0.00000e+00	0.00000e+00	0.00000e+00	0.00000e+00	0.00000e+00	0.00000e+00	0.00000e+00	0.00000e+00	0.00000e+00	0.00000e+00	0.00000e+00	0.00000e+00	0.00000e+00	0.00000e+00	0.00000e+00	0.00000e+00	0.00000e+00	0.00000e+00	0.00000e+00	0.00000e+00	-2.34514e+02	-1.29768e+02	-1.30127e+02	-1.84443e+02	-8.22941e+01	-6.40824e+01	-1.56720e+02	-1.62015e+02	-7.26260e+01	-6.78743e+01	-1.72091e+02	-1.69816e+02	-1.86035e+02	-1.76734e+02	-7.55040e+01	-1.49635e+02	
Factor	5.55501e-05	1.82107e-04	4.65506e-05	3.36067e-01	2.21863e-06	2.08987e-06	1.79340e-01	5.49720e-02	3.07935e-06	1.85942e-06	9.27168e-02	3.06035e-02	5.57620e-02	9.79774e-03	2.10663e-06	1.41981e-02	8.47988e-06	1.03975e-05	2.90508e-06	1.65852e-01	1.11247e-07	1.15048e-07	8.36732e-02	2.73498e-02	1.08864e-07	1.14871e-07	4.47458e-02	1.47719e-02	2.76586e-02	4.92130e-03	1.11357e-07	6.90630e-03	X	X	X	X	X	X	X	X	X	X	X	X	X	X	X	X	



#DISTANCE SETTINGS
A = Detector Channel
A-1	A-2	A-3	A-4	A-5	A-6	A-7	A-8	A-9	A-10	A-11	A-12	A-13	A-14	A-15	A-16	

2.5000e+00	3.0000e+00	2.5000e+00	3.0000e+00	2.0000e+00	3.0000e+00	1.5000e+00	3.0000e+00	3.0000e+00	3.0000e+00	3.0000e+00	3.0000e+00	3.0000e+00	3.0000e+00	1.5000e+00	3.0000e+00	

B = Detector Channel
B-1	B-2	B-3	B-4	B-5	B-6	B-7	B-8	B-9	B-10	B-11	B-12	B-13	B-14	B-15	B-16	

1.0000e+01	1.0000e+01	1.0000e+01	1.4400e+00	1.0000e+01	1.0000e+01	1.5100e+00	1.9400e+00	1.0000e+01	1.0000e+01	1.9900e+00	2.4900e+00	2.4100e+00	2.9000e+00	1.0000e+01	2.9800e+00	




#DATA BEGINS
time	group	step	mark	flag	A-AC1	A-AC2	A-AC3	A-AC4	A-AC5	A-AC6	A-AC7	A-AC8	A-AC9	A-AC10	A-AC11	A-AC12	A-AC13	A-AC14	A-AC15	A-AC16	A-DC1	A-DC2	A-DC3	A-DC4	A-DC5	A-DC6	A-DC7	A-DC8	A-DC9	A-DC10	A-DC11	A-DC12	A-DC13	A-DC14	A-DC15	A-DC16	A-Ph1	A-Ph2	A-Ph3	A-Ph4	A-Ph5	A-Ph6	A-Ph7	A-Ph8	A-Ph9	A-Ph10	A-Ph11	A-Ph12	A-Ph13	A-Ph14	A-Ph15	A-Ph16	B-AC1	B-AC2	B-AC3	B-AC4	B-AC5	B-AC6	B-AC7	B-AC8	B-AC9	B-AC10	B-AC11	B-AC12	B-AC13	B-AC14	B-AC15	B-AC16	B-DC1	B-DC2	B-DC3	B-DC4	B-DC5	B-DC6	B-DC7	B-DC8	B-DC9	B-DC10	B-DC11	B-DC12	B-DC13	B-DC14	B-DC15	B-DC16	B-Ph1	B-Ph2	B-Ph3	B-Ph4	B-Ph5	B-Ph6	B-Ph7	B-Ph8	B-Ph9	B-Ph10	B-Ph11	B-Ph12	B-Ph13	B-Ph14	B-Ph15	B-Ph16	aux-1	digaux	

1448.278	1	1	0	256	0.07633	0.068864	0.093238	0.18204	0.24474	0.1644	0.43059	0.28736	0.27864	0.15385	0.17411	0.074462	0.24237	0.19698	0.078508	0.11668	-2.8438	-2.8917	-3.2104	-3.4458	-3.0667	-3.4208	-3.5208	-3.2938	-3.5292	-3.1688	-3.3708	-3.4	-3.2104	-3.6771	-3.5	-3.1167	52.845	-116.808	93.055	172.800	-86.866	-7.335	149.493	106.204	-131.107	23.131	101.023	-10.807	112.845	-150.240	91.589	205.025	0.00055169	0.00026285	9.3379e-05	1130.5	2.6379e-06	2.5331e-06	1195.2	232.93	5.0424e-06	4.206e-06	290.32	83.03	65.714	19.127	4.4105e-06	27.08	0.00021896	0.00018718	5.2382e-05	1114.5	2.0671e-06	1.8906e-06	1180.4	231.33	1.9473e-06	1.8834e-06	290.2	83.273	65.633	19.402	1.8875e-06	27.583	95.037	-59.985	-73.826	-139.166	-21.813	-22.899	-139.639	-132.464	-35.009	-6.047	-132.573	-126.546	-126.664	-119.026	-7.173	-119.255	-8191	255	
1448.374	1	1	0	0	0.31606	0.10928	0.19172	0.12979	0.11076	0.09903	0.17948	0.16983	0.14039	0.26306	0.22745	0.15807	0.15747	0.18515	0.11784	0.10812	-3.1542	-3.0438	-3.0125	-3.4958	-2.9604	-3.4604	-3.6729	-3.2208	-3.5854	-3.3708	-3.3521	-3.4771	-3.0875	-3.0729	-3.2583	-2.9104	-133.992	-83.489	59.122	40.563	98.469	-104.846	40.451	185.072	-138.386	-58.059	199.054	-25.719	177.819	-103.460	12.292	154.962	0.00055135	0.00022653	0.0001032	1126.1	2.4387e-06	2.897e-06	1189.4	232.14	2.8195e-06	2.6623e-06	292.36	83.529	65.111	19.268	1.127e-06	27.055	0.00020587	0.00016448	4.9368e-05	1111.8	1.9257e-06	1.7202e-06	1179.5	230.64	1.8709e-06	1.7559e-06	290.3	83.262	65.356	19.401	1.7799e-06	27.533	96.004	-65.042	-57.359	-139.387	-15.717	-7.301	-139.434	-132.290	-43.010	-9.699	-132.633	-126.598	-126.761	-118.721	-9.637	-119.346	-8191	255	
1448.470	1	1	0	0	0.091475	0.15506	0.27113	0.16099	0.38584	0.2685	0.12213	0.15736	0.13559	0.34592	0.15461	0.15691	0.068164	0.16766	0.19319	0.093225	-2.9292	-3.1021	-2.9	-3.4375	-3.0687	-3.2417	-3.4313	-3.1437	-3.2313	-3.075	-3.1375	-3.4354	-3.0375	-3.1542	-3.3375	-3.1625	148.051	-38.731	35.433	170.735	42.635	-131.881	105.261	133.068	-87.069	-135.717	186.202	-119.311	86.070	-119.093	-65.875	-49.035	0.00054774	0.00035407	9.1207e-05	1132.5	2.7566e-06	3.6081e-06	1189.3	231.72	3.8625e-06	2.0116e-06	290.39	82.631	65.667	19.13	2.5096e-06	27.044	0.00020111	0.00016653	4.7335e-05	1112.9	1.8263e-06	1.7363e-06	1179.6	230.18	1.9267e-06	1.7652e-06	289.81	83.036	65.362	19.337	1.8207e-06	27.551	94.792	-76.229	-45.505	-139.520	-7.160	26.571	-139.521	-132.417	-34.309	-25.521	-132.311	-126.252	-126.550	-118.620	-81.535	-119.533	-8191	255	
1448.566	1	1	0	0	0.22409	0.10815	0.29124	0.16587	0.12936	0.32291	0.11266	0.23058	0.065172	0.20136	0.1386	0.016846	0.21272	0.14719	0.19287	0.16852	-2.8792	-3.2979	-2.9375	-3.6458	-3.2292	-3.325	-3.6896	-3.3063	-3.325	-3.3979	-3.2979	-3.5229	-3.0875	-3.2812	-3.375	-3.1292	34.676	-117.200	174.825	106.464	23.982	156.959	-97.097	94.283	-70.402	159.104	116.915	-141.142	-102.861	-27.652	175.089	173.788	0.00054883	0.00027536	1.9632e-05	1125.8	4.2045e-06	2.6917e-06	1191.7	232.76	5.2815e-06	4.1437e-06	290.95	83.025	65.349	19.31	3.8641e-06	27.229	0.00020624	0.00016918	4.6221e-05	1116.1	1.9832e-06	1.8719e-06	1181.9	231.04	1.9865e-06	1.8884e-06	289.91	83.378	65.551	19.42	1.8963e-06	27.676	95.917	-60.635	43.508	-139.246	-13.813	-5.854	-139.548	-132.276	-42.987	28.612	-132.535	-126.699	-126.772	-118.811	2.712	-119.339	-8191	255	
1448.687	1	1	0	0	0.028243	0.30609	0.085987	0.27795	0.14921	0.31736	0.10666	0.049445	0.1669	0.19937	0.19153	0.28195	0.15822	0.31673	0.21854	0.054461	-2.9	-3.2833	-2.9396	-3.4042	-3.3187	-3.1562	-3.625	-3.2208	-3.3292	-3.3042	-3.0687	-3.3771	-3.2542	-3.0083	-3.4437	-3.1583	-33.650	64.030	179.556	140.485	-29.286	-14.747	126.705	-146.922	-85.246	207.948	161.401	108.373	166.539	189.109	175.887	-81.516	0.00059571	0.0002955	6.092e-05	1134.4	4.2611e-06	2.7446e-06	1196.1	233.58	4.8204e-06	3.4437e-06	292.28	83.049	66.623	19.332	2.4652e-06	27.454	0.00021631	0.00017323	4.8321e-05	1118.4	1.9063e-06	1.8374e-06	1186.8	231.78	1.9702e-06	1.82e-06	291.15	83.65	66.01	19.562	1.7448e-06	27.863	97.649	-46.033	-30.016	-139.205	-17.133	3.071	-139.606	-132.261	-22.745	7.985	-132.726	-126.366	-126.782	-118.773	-2.300	-119.174	-8191	255	
1448.783	1	1	0	0	0.28181	0.29002	0.091119	0.18256	0.061457	0.17466	0.138	0.27403	0.2244	0.1529	0.10341	0.089198	0.33389	0.21544	0.23944	0.16618	-2.7958	-3.3458	-3.1208	-3.5	-3.2229	-3.0375	-3.6292	-3.1208	-3.0917	-3.3396	-3.0646	-3.3563	-3.1875	-3.0375	-3.2979	-3.2542	5.299	83.106	-53.690	-102.104	165.335	-37.480	168.332	141.043	89.928	159.055	99.514	112.725	-98.036	181.290	90.662	-84.662	0.00054218	0.00033787	6.3757e-05	1141.7	2.0828e-06	2.4963e-06	1199	232.43	5.444e-06	2.0066e-06	293.2	83.398	66.207	19.421	3.5044e-06	27.286	0.00020938	0.00014864	4.5005e-05	1124	1.8054e-06	1.7768e-06	1190	231.75	1.9673e-06	1.7652e-06	291.58	83.774	66.064	19.629	1.6771e-06	27.841	100.523	-68.571	-62.268	-139.077	14.641	-0.950	-139.474	-132.502	-42.833	34.780	-132.576	-126.657	-126.857	-118.754	-9.815	-118.993	-8191	255	
1448.879	1	1	0	0	0.31239	0.091464	0.27264	0.22897	0.19589	0.069023	0.18204	0.27065	0.061966	0.14208	0.095832	0.22558	0.068529	0.24243	0.16	0.086623	-2.6021	-3.3438	-2.8396	-3.2354	-3.2167	-2.9667	-3.4208	-3.2021	-3.0958	-3.5687	-3.1708	-3.2729	-3.3271	-3.1146	-3.2625	-3.2979	200.247	135.571	69.581	108.620	206.320	68.667	132.985	143.258	14.971	53.843	-15.306	-116.300	193.799	-99.807	-133.982	168.556	0.00056318	0.00044292	6.4897e-05	1137.3	5.2898e-06	3.6321e-06	1195.6	233.43	4.8108e-06	2.6943e-06	292.09	83.966	66.032	19.503	2.1126e-06	27.467	0.00020528	0.00015977	4.2335e-05	1120.3	1.7058e-06	1.6572e-06	1185.5	232.01	1.576e-06	1.4704e-06	291.01	83.923	65.794	19.594	1.4305e-06	27.895	97.811	-29.959	-72.800	-139.230	-21.745	-4.837	-139.643	-132.342	-40.145	26.405	-132.651	-126.487	-126.703	-118.892	-13.299	-119.338	-8191	255	
1448.951	1	1	0	0	0.15766	0.31247	0.18618	0.14342	0.18452	0.2006	0.18237	0.18142	0.19197	0.29001	0.14691	0.13404	0.09465	0.19678	0.061301	0.061702	-2.7521	-3.3333	-3.2	-3.4729	-3.3646	-3.1271	-3.7771	-3.3979	-3.1229	-3.4958	-3.2062	-3.3708	-3.4875	-3.0792	-3.4625	-3.4958	78.248	-121.004	118.428	133.120	7.524	57.125	62.981	138.969	185.314	110.670	-32.564	64.209	164.025	126.339	-120.142	206.268	0.00057216	0.00020668	6.2863e-05	1132.4	3.6011e-06	2.375e-06	1189.1	233.46	6.0124e-06	2.4015e-06	289.66	83.082	65.512	19.25	1.797e-06	27.23	0.00018046	0.00012185	3.4958e-05	1112.7	1.4787e-06	1.3981e-06	1177.7	231.05	1.5293e-06	1.3406e-06	289.16	83.257	65.356	19.4	1.3711e-06	27.578	97.968	-35.152	-45.516	-139.415	-42.795	55.047	-139.451	-132.073	-52.037	-3.268	-132.126	-126.546	-126.681	-118.657	-32.623	-118.915	-8191	255	
1449.070	1	1	0	0	0.25486	0.029738	0.10262	0.077091	0.02921	0.28404	0.042334	0.1589	0.2071	0.1465	0.21631	0.14597	0.11567	0.084954	0.068398	0.1536	-2.5687	-3.2875	-2.9917	-3.0729	-3.2979	-2.9875	-3.425	-3.4792	-3.1104	-3.4479	-3.1896	-3.125	-3.2396	-3.0417	-3.2	-3.2833	-106.208	-79.266	-35.149	83.771	106.128	-79.653	68.025	157.455	89.073	-2.040	-60.557	195.757	51.495	190.991	3.154	204.293	0.00057225	0.00030351	6.8824e-05	1114.9	3.4204e-06	3.9113e-06	1165.9	228.85	8.0833e-06	2.657e-06	289.25	82.057	64.818	19.068	4.0465e-06	26.969	0.00017546	0.00012457	3.3711e-05	1095.7	1.4344e-06	1.2914e-06	1159	227.24	1.523e-06	1.1777e-06	287.46	82.302	64.535	19.175	1.3057e-06	27.354	96.802	-55.681	-34.831	-139.573	-30.274	-16.148	-139.489	-132.039	-63.527	-13.670	-132.437	-126.272	-126.743	-118.631	-15.510	-119.276	-8191	255	
1449.166	1	1	0	0	0.20855	0.14477	0.011392	0.14241	0.071788	0.26014	0.12213	0.198	0.041116	0.21126	0.16456	0.13136	0.13903	0.21468	0.16243	0.092564	-2.4667	-3.2854	-3.1729	-3.1813	-3.4958	-3.1354	-3.4479	-3.4354	-3.1583	-3.4479	-3.3583	-3.1625	-3.45	-3.0083	-3.1604	-3.3354	-142.509	-88.729	96.059	-133.945	116.360	-147.482	116.602	134.802	46.846	-98.055	195.534	57.576	138.746	127.114	69.609	-84.012	0.00053552	0.0002938	8.7869e-05	1107	1.4499e-06	2.9294e-06	1162.8	227.98	4.8092e-06	4.8919e-06	285.55	81.985	64.591	18.9	3.2991e-06	26.909	0.00016875	0.00011708	3.3197e-05	1089	1.3354e-06	1.244e-06	1154.4	226.63	1.4003e-06	1.2325e-06	285.33	82.016	64.316	19.087	1.288e-06	27.312	97.411	-84.545	-52.487	-139.152	-35.947	-4.487	-139.514	-132.211	-23.535	2.630	-132.534	-126.565	-126.978	-118.935	-19.713	-119.084	-8191	255	
1449.262	1	1	0	0	0.20103	0.081131	0.24291	0.14489	0.19332	0.12359	0.15028	0.23091	0.15853	0.055629	0.035551	0.22791	0.12874	0.057004	0.11929	0.077035	-2.6396	-3.2354	-3.1792	-3.0396	-3.3563	-3.0104	-3.2771	-3.3292	-2.9083	-3.1833	-3.3563	-3.1688	-3.4146	-2.9917	-3.0583	-3.175	-36.406	-132.963	-86.044	130.920	-136.734	-53.226	208.135	158.509	-136.201	197.802	-134.025	-84.456	115.592	70.411	-147.106	18.083	0.00055601	0.00024149	8.6915e-05	1098.6	3.7364e-06	4.1279e-06	1160	226.49	6.8586e-06	2.417e-06	284.07	81.238	64.341	18.747	2.7785e-06	26.633	0.00016541	0.00011223	3.1502e-05	1082.7	1.3873e-06	1.3432e-06	1149	225.1	1.4633e-06	1.311e-06	283.48	81.528	63.906	18.921	1.3405e-06	27.095	103.383	-67.932	-63.827	-139.441	-27.450	-4.570	-139.558	-132.204	-41.574	24.388	-132.429	-126.208	-126.241	-118.498	-48.157	-118.792	-8191	255	
1449.358	1	1	0	0	0.16962	0.02215	0.15226	0.17558	0.11203	0.10844	0.17697	0.12134	0.2276	0.19509	0.16827	0.10538	0.19615	0.17255	0.16488	0.2594	-2.4188	-3.2875	-3.2438	-3.1	-3.4375	-3.275	-3.4417	-3.525	-3.1958	-3.6583	-3.325	-3.2521	-3.575	-3.4229	-3.2708	-3.4146	32.279	19.390	137.483	73.282	-146.385	90.976	-147.370	208.004	141.579	-33.246	71.952	-13.159	-118.501	118.623	30.941	126.719	0.00059656	0.00024907	7.182e-05	1091.5	3.9275e-06	4.194e-06	1145.6	223.39	5.5366e-06	3.1346e-06	277.87	79.502	62.933	18.347	3.4005e-06	26.014	0.0001734	0.00012007	3.3814e-05	1072.8	1.3834e-06	1.358e-06	1135	222	1.5377e-06	1.3536e-06	276.59	79.794	62.41	18.478	1.3667e-06	26.484	94.484	-69.637	-77.082	-138.912	-30.814	4.585	-139.378	-132.033	-40.400	-19.279	-132.403	-126.334	-126.053	-118.280	-12.293	-119.299	-8191	255	
1449.479	1	1	0	0	0.089768	0.061014	0.076861	0.25582	0.045842	0.43738	0.24429	0.21753	0.16426	0.1993	0.02566	0.14276	0.27969	0.12984	0.16286	0.018635	-2.8729	-3.4542	-3.2604	-3.2583	-3.2458	-3.2125	-3.3125	-3.4208	-3.2042	-3.3625	-3.5687	-3.1813	-3.3812	-3.375	-2.9562	-3.5729	158.644	163.694	-103.833	-66.571	128.239	-101.146	110.052	171.373	19.311	-3.144	89.572	5.334	117.195	189.186	-96.121	192.738	0.00053039	0.00020271	8.1259e-05	1064.4	4.4023e-06	3.8378e-06	1121.3	218.93	4.8949e-06	2.2254e-06	274.58	78.398	61.35	18.035	3.319e-06	25.629	0.00017078	0.00012124	3.3396e-05	1047.9	1.4731e-06	1.3964e-06	1111.5	218.09	1.5318e-06	1.3849e-06	274.27	78.722	61.546	18.261	1.4217e-06	26.132	97.822	-40.529	-56.696	-138.994	6.044	11.919	-139.343	-132.022	-24.448	-3.744	-131.975	-126.135	-126.188	-118.757	-7.834	-118.785	-8191	255	
1449.550	1	1	0	0	0.037011	0.13282	0.15118	0.065681	0.16	0.051813	0.23086	0.082424	0.094104	0.09353	0.11059	0.086769	0.22977	0.11087	0.11899	0.026363	-2.7354	-3.1437	-3.3563	-3.175	-3.3479	-3.1667	-3.0854	-3.2562	-3.1771	-3.0667	-3.3729	-3.0708	-3.1771	-3.1979	-2.8896	-3.3	204.659	-116.233	-58.682	19.834	-122.912	107.566	138.662	179.938	133.970	90.553	57.809	-136.487	118.225	-108.235	171.081	-96.127	0.00055247	0.00026116	8.804e-05	1052.6	3.3246e-06	3.0558e-06	1106.6	217.74	8.0276e-06	3.2292e-06	272.21	77.332	60.339	17.814	3.0556e-06	25.443	0.00017993	0.00013385	3.5224e-05	1035.5	1.5378e-06	1.4772e-06	1097.7	215.61	1.5849e-06	1.5364e-06	271.86	77.599	60.468	17.994	1.4794e-06	25.775	99.806	-44.524	-63.789	-139.300	-21.388	-15.173	-139.296	-132.008	-44.144	6.168	-132.322	-126.043	-126.102	-118.355	-21.372	-118.647	-8191	255	
1449.647	1	1	0	0	0.16835	0.054711	0.19385	0.06107	0.23587	0.14934	0.34688	0.13097	0.12794	0.18615	0.18445	0.23891	0.10038	0.10215	0.18843	0.089314	-2.6375	-2.9333	-3.2708	-3.0021	-2.9896	-3.1583	-3.0938	-3.3042	-3.0875	-3.0583	-3.4917	-3.1292	-3.0354	-3.3521	-3.0771	-3.4042	30.855	-139.780	-149.646	-118.445	-101.596	37.497	150.769	-138.108	101.921	-122.671	-116.371	161.790	-105.022	194.966	-116.081	204.075	0.00053851	0.00022564	6.492e-05	1045.2	2.8468e-06	3.6393e-06	1105.7	215.58	3.8981e-06	2.4723e-06	271.65	77.286	60.889	17.745	1.9079e-06	25.352	0.00018203	0.0001348	3.7167e-05	1028.5	1.5955e-06	1.4752e-06	1092.7	214.02	1.6763e-06	1.4574e-06	271.15	77.481	60.651	17.908	1.5119e-06	25.762	98.001	-53.995	-39.547	-139.077	-34.968	9.245	-139.496	-131.833	-23.058	-0.527	-132.114	-126.258	-126.174	-117.869	-34.226	-118.684	-8191	255	
1449.767	1	1	0	0	0.066347	0.29951	0.10808	0.048121	0.32132	0.086247	0.20987	0.35731	0.17287	0.024496	0.10061	0.21315	0.136	0.088668	0.254	0.16421	-2.8021	-3.0375	-3.475	-3.2167	-3.2854	-3.3583	-3.4271	-3.3292	-3.3875	-3.0833	-3.4	-3.0375	-3.2375	-3.2229	-3.0438	-3.5396	-94.150	123.451	164.306	206.599	-126.654	152.434	127.593	149.633	39.173	-52.413	119.644	73.131	131.218	-124.870	113.075	186.462	0.00052673	0.00030424	6.89e-05	1029.9	3.0091e-06	3.2146e-06	1089.3	213.54	6.7229e-06	2.4995e-06	268.12	75.859	60.145	17.596	2.1642e-06	24.892	0.0001755	0.00013393	3.4867e-05	1021.7	1.5507e-06	1.2972e-06	1082.1	212.31	1.4948e-06	1.4189e-06	268.27	76.529	59.755	17.735	1.3402e-06	25.414	99.057	-59.211	-82.391	-138.994	-16.358	-3.901	-139.306	-131.976	-46.756	-4.167	-132.342	-125.870	-126.722	-117.874	-31.464	-118.440	-8191	255	
1449.863	1	1	0	0	0.11297	0.094495	0.19281	0.14615	0.059386	0.27237	0.28044	0.13475	0.14618	0.1156	0.1884	0.18717	0.13909	0.18087	0.23802	0.10085	-2.9125	-3.0458	-3.4875	-3.175	-3.0687	-3.3583	-3.4479	-3.4771	-3.3125	-2.9958	-3.5125	-3.1063	-3.1	-3.3167	-3.0042	-3.3	-33.800	-88.556	-81.482	196.521	-45.783	-128.276	166.199	84.563	-34.476	168.830	88.948	194.969	-129.910	-147.488	-52.997	-128.192	0.0004982	0.00021366	8.4169e-05	1028.8	2.0841e-06	3.4289e-06	1079.1	211.78	5.9184e-06	1.4214e-06	268.09	76.02	59.756	17.477	2.2205e-06	25.088	0.00015804	0.00011663	3.1441e-05	1012.6	1.4061e-06	1.2504e-06	1071.8	211.03	1.3878e-06	1.3758e-06	267.13	76.209	59.67	17.67	1.3994e-06	25.368	95.614	-67.253	-58.631	-139.299	-66.825	2.177	-139.134	-131.908	-53.333	-6.121	-132.147	-125.935	-126.029	-118.235	1.988	-118.825	-8191	255	
1449.960	1	1	0	0	0.15762	0.05961	0.10442	0.19504	0.020963	0.19633	0.20465	0.13344	0.26008	0.12832	0.25094	0.14983	0.1139	0.19004	0.16031	0.19611	-2.775	-3.25	-3.5771	-3.2958	-3.0875	-3.5771	-3.2083	-3.3792	-3.3875	-3.0229	-3.3042	-3.0042	-3.1	-3.4542	-3.3583	-3.2562	146.222	-131.087	121.842	-31.724	116.733	-1.895	-144.970	-27.050	-123.073	10.620	-122.595	83.063	207.734	159.705	-36.349	193.130	0.00050744	0.00019284	8.6413e-05	1022.7	3.3491e-06	1.2324e-06	1076	211.53	5.3838e-06	3.2606e-06	268.64	75.678	59.759	17.525	2.8199e-06	25.089	0.00016474	0.00011981	3.4443e-05	1009.8	1.4446e-06	1.3108e-06	1069.9	210.62	1.4356e-06	1.3701e-06	266.82	76.029	59.684	17.723	1.3917e-06	25.367	94.482	-38.486	-77.960	-139.281	-24.376	4.058	-139.301	-131.641	-36.801	13.480	-132.233	-126.021	-125.831	-118.275	-3.057	-118.604	-8191	255	
1450.078	1	1	0	0	0.059198	0.095612	0.16242	0.11694	0.13237	0.12677	0.25051	0.10628	0.049979	0.20554	0.1509	0.085932	0.22849	0.22482	0.1365	0.043335	-3.1021	-2.9604	-3.2687	-3.0479	-2.8979	-3.25	-3.5604	-3.2021	-3.5125	-3.1354	-3.4708	-3.1792	-2.8354	-3.2917	-3.1021	-3.3187	-102.384	168.314	36.100	125.088	44.131	-90.157	181.055	115.308	-11.359	-32.087	10.960	-131.713	166.641	-53.221	64.163	-13.924	0.00051426	0.00030355	7.2111e-05	1024.1	3.1844e-06	2.1085e-06	1077.6	211.72	5.3071e-06	8.6692e-07	267.15	75.995	59.854	17.564	2.3854e-06	24.911	0.00016285	0.00012427	3.2162e-05	1009.9	1.4502e-06	1.324e-06	1069.3	210.42	1.4155e-06	1.3371e-06	266.37	76.174	59.73	17.722	1.3822e-06	25.3	99.235	-64.739	-59.804	-138.871	-18.718	-7.219	-139.161	-132.181	-52.748	19.978	-132.108	-126.123	-125.941	-118.609	-15.333	-118.430	-8191	255	
1450.175	1	1	0	0	0.3057	0.30303	0.25932	0.1959	0.25029	0.19866	0.11802	0.26153	0.19035	0.28457	0.089061	0.11202	0.10858	0.048331	0.19152	0.12524	-2.9813	-3.1583	-3.2729	-3.4292	-3.0187	-3.4125	-3.2667	-3.275	-3.6125	-3.3042	-3.4958	-3.4792	-3.1708	-3.3812	-3.2542	-2.9333	-61.261	-94.373	4.201	145.666	171.338	21.818	-124.996	-117.066	64.598	-1.693	162.203	47.545	-69.715	-61.713	15.271	-82.528	0.00053793	0.00018533	6.9332e-05	1024.4	2.0187e-06	3.9152e-06	1074.4	211.04	5.7344e-06	3.4665e-06	267.92	76.263	59.508	17.487	2.5077e-06	24.785	0.00016389	0.00012284	3.5091e-05	1008.2	1.4902e-06	1.271e-06	1065.9	209.66	1.418e-06	1.3579e-06	266.26	76.158	59.549	17.646	1.3256e-06	25.253	98.746	-61.337	-41.615	-139.128	-1.643	10.490	-139.314	-131.875	-30.876	32.728	-131.942	-126.046	-126.848	-118.401	-24.386	-118.536	-8191	255	
1450.246	1	1	0	0	0.11911	0.05709	0.026431	0.22344	0.072983	0.34584	0.18106	0.35156	0.096967	0.19361	0.043276	0.10538	0.033001	0.20561	0.099911	0.19905	-2.8021	-2.8812	-3.1813	-3.5146	-3.0479	-3.3292	-3.3875	-3.2313	-3.5979	-3.1917	-3.1521	-3.3979	-2.875	-3.2875	-3.2646	-3.1	68.094	89.620	-93.323	198.852	-42.241	-130.703	172.244	193.607	148.834	35.718	-76.950	173.574	155.345	77.961	185.222	-142.589	0.00046575	0.00030138	8.5316e-05	1017.1	3.8205e-06	1.9398e-06	1078.1	210.28	4.1875e-06	2.8851e-06	267.34	76.148	59.265	17.508	5.096e-06	24.76	0.00015532	0.00012187	3.3469e-05	1004.5	1.3941e-06	1.2818e-06	1066	209.58	1.4039e-06	1.2669e-06	265.78	76.078	59.442	17.666	1.3268e-06	25.273	93.603	-21.885	-75.355	-138.732	-37.410	-48.201	-139.017	-131.856	-39.578	-24.598	-131.848	-126.049	-126.051	-118.157	-10.283	-118.657	-8191	255	
1450.367	1	1	0	0	0.22691	0.34257	0.1295	0.15957	0.24983	0.10411	0.19438	0.33068	0.14195	0.1521	0.19092	0.10078	0.25953	0.087652	0.20969	0.12431	-3.0167	-3.1917	-3.2292	-3.4417	-3.0958	-3.2417	-3.4813	-3.0563	-3.3104	-3.0333	-2.9354	-3.5958	-3.25	-3.4667	-3.2917	-3.0375	-148.418	-71.256	52.220	-110.476	95.109	15.195	148.760	171.215	-91.347	144.828	-125.705	135.835	116.215	-85.369	-32.377	146.762	0.00051477	0.00026065	6.2248e-05	1019.6	4.7677e-06	4.6865e-06	1077.4	210.4	5.6244e-06	3.1849e-06	267.75	75.696	59.505	17.419	4.2565e-06	24.822	0.00015992	0.00011539	3.0709e-05	1002.8	1.3795e-06	1.3612e-06	1065.8	209.5	1.4803e-06	1.3409e-06	265.9	75.974	59.334	17.616	1.3108e-06	25.175	97.263	-79.619	-43.395	-138.837	-43.217	0.769	-139.084	-131.864	-57.528	-21.044	-132.248	-126.197	-126.055	-117.918	-12.130	-118.575	-8191	255	
1450.463	1	1	0	0	0.1279	0.071435	0.12178	0.10718	0.12678	0.10392	0.24571	0.094274	0.17866	0.074905	0.026013	0.14311	0.23977	0.19867	0.27313	0.24323	-2.9771	-3.1375	-2.9688	-3.3812	-2.975	-3.175	-3.3646	-3.1333	-3.3729	-3.2771	-3.0958	-3.45	-3.3896	-3.2021	-3.3021	-3.1083	195.308	-50.835	15.780	97.295	-44.192	17.719	176.819	-77.733	-26.757	201.961	146.413	156.478	56.323	184.726	-74.270	209.202	0.00057099	7.5851e-05	6.2586e-05	1026.9	3.3476e-06	3.694e-06	1076.1	210.95	6.9196e-06	2.7398e-06	267.01	75.779	59.717	17.541	1.9165e-06	24.771	0.00016331	0.00011927	3.2476e-05	1006.5	1.4045e-06	1.2147e-06	1064.8	209.58	1.3864e-06	1.3057e-06	265.83	75.963	59.373	17.687	1.1864e-06	25.262	96.647	-10.973	-52.356	-138.945	-2.225	21.444	-139.208	-131.897	-38.451	10.917	-132.050	-126.095	-126.230	-118.434	21.089	-118.896	-8191	255	
1450.559	1	1	0	0	0.19527	0.075225	0.15905	0.13801	0.23479	0.28906	0.20706	0.12567	0.028924	0.29634	0.27477	0.062292	0.17847	0.341	0.14568	0.087091	-2.8083	-3.2104	-3.0146	-3.5625	-3.2188	-3.3521	-3.5854	-3.125	-3.2917	-3.1562	-2.7708	-3.2958	-2.9208	-3.1021	-3.5167	-3.1771	66.443	-17.452	146.782	-134.807	-119.565	190.764	119.400	39.929	-113.293	21.116	-96.145	181.740	194.345	166.004	-141.402	-20.915	0.00053552	0.00033582	6.427e-05	1021.1	1.663e-06	4.5475e-06	1073.7	210.3	4.6454e-06	3.4711e-06	266.65	75.381	59.722	17.526	2.5422e-06	24.924	0.00015917	0.00012033	3.2912e-05	1004.7	1.3269e-06	1.1862e-06	1063.7	209.29	1.4205e-06	1.2942e-06	265.84	75.769	59.567	17.667	1.2435e-06	25.251	96.848	-80.976	-76.696	-139.030	-79.159	16.718	-139.246	-131.762	-28.465	-0.243	-131.928	-126.266	-126.146	-118.397	-30.035	-118.856	-8191	255	
1450.655	1	1	0	0	0.11854	0.080357	0.24107	0.25818	0.068341	0.16526	0.29386	0.14324	0.13964	0.075044	0.10124	0.2385	0.30183	0.11304	0.11259	0.19452	-2.8458	-3.3688	-3.0396	-3.3792	-3.2542	-3.2354	-3.6333	-3.0979	-3.3083	-3.4938	-3.0604	-3.2958	-3.125	-2.9208	-3.2354	-2.9583	37.243	-53.529	-140.538	75.731	21.807	209.964	159.307	-110.575	16.654	28.798	-10.553	-145.191	-140.479	192.191	-55.850	-107.438	0.0005091	0.00030797	5.246e-05	1011.8	3.1637e-06	2.2088e-06	1069	210.21	3.164e-06	2.054e-06	264.77	75.846	58.768	17.327	3.5378e-06	24.886	0.00015836	0.00011303	3.1339e-05	1001.9	1.2814e-06	1.1426e-06	1060.9	208.8	1.3354e-06	1.1583e-06	264.32	75.725	59.233	17.59	1.2015e-06	25.231	100.013	-57.667	-72.141	-138.846	-66.188	3.540	-139.109	-131.737	-50.472	14.155	-132.283	-126.015	-125.358	-118.376	-12.249	-118.690	-8191	255	
1450.751	1	1	0	0	0.087549	0.076719	0.18293	0.31662	0.050655	0.17239	0.36771	0.14989	0.16858	0.051602	0.019641	0.20762	0.25474	0.099253	0.12238	0.24247	-2.6667	-3.2667	-2.8812	-3.2875	-3.3083	-2.9688	-3.5708	-3.2208	-3.2375	-3.6063	-3.0708	-3.5167	-3.5	-3.1063	-3.5438	-3.225	48.155	-137.124	173.381	192.098	89.513	-48.578	129.272	194.979	152.527	-61.297	17.110	154.036	67.782	-88.592	138.578	-15.942	0.0004913	0.00038659	8.2264e-05	1012.7	3.9331e-06	3.2493e-06	1067.9	209.38	4.0421e-06	2.1313e-06	264.87	75.338	59.138	17.305	1.8947e-06	24.676	0.00015656	0.00010044	2.9154e-05	997.76	1.268e-06	1.1267e-06	1057.8	208.43	1.2739e-06	1.1032e-06	264.12	75.5	58.949	17.512	1.1556e-06	25.133	101.278	-57.973	-60.224	-138.938	-23.595	6.827	-139.035	-131.923	-39.636	5.216	-132.103	-125.798	-126.102	-118.237	-25.045	-118.850	-8191	255	
1450.848	1	1	0	0	0.12075	0.15877	0.073126	0.13298	0.33366	0.11863	0.1403	0.30587	0.17931	0.14049	0.25156	0.070257	0.093691	0.17733	0.052151	0.22266	-2.9917	-3.5	-3.0938	-3.4083	-3.2625	-3.1292	-3.6937	-3.2271	-3.1646	-3.475	-3.1917	-3.2479	-3.1979	-2.8375	-3.3729	-3.1667	209.161	189.816	-80.975	160.883	162.239	86.006	94.719	-141.973	123.726	109.483	165.491	-36.177	110.646	57.999	-65.222	44.148	0.00048891	0.00036799	5.8139e-05	1005.6	1.8339e-06	2.3754e-06	1061.2	208.78	2.9313e-06	1.8414e-06	263.48	75.874	58.969	17.249	2.9197e-06	24.816	0.00015287	0.00010038	2.8524e-05	994.52	1.156e-06	1.0932e-06	1053.1	207.57	1.2308e-06	1.0224e-06	263.86	75.6	58.983	17.504	1.1841e-06	25.156	93.967	-73.167	-47.654	-138.975	-64.717	14.348	-139.215	-131.576	-37.604	-21.164	-132.057	-126.203	-126.071	-118.541	-19.830	-118.670	-8191	255	
1450.944	1	1	0	0	0.078966	0.18458	0.093607	0.18091	0.12127	0.27223	0.094243	0.12323	0.084816	0.094124	0.048394	0.26775	0.10307	0.23254	0.16963	0.11257	-2.7667	-3.2375	-3.1333	-3.3333	-3.2167	-3.0792	-3.4917	-3.0875	-2.9542	-3.3875	-3.1354	-3.1979	-3.3542	-3.0312	-3.4042	-3.3438	98.837	76.155	24.209	128.751	85.855	-85.845	-41.157	202.809	-9.721	-104.914	-110.522	149.373	176.433	205.737	203.654	158.736	0.00053783	0.0003061	5.0659e-05	1002	3.1199e-06	3.1004e-06	1056.1	208.48	7.1819e-06	2.4919e-06	265.63	75.382	59.414	17.35	3.2236e-06	24.501	0.00015236	0.00010153	2.8361e-05	991.75	1.1792e-06	1.1531e-06	1050.5	207.34	1.3474e-06	1.0188e-06	264.16	75.347	59.047	17.514	1.1117e-06	25.035	92.293	-78.256	-42.096	-138.851	-43.419	10.211	-139.325	-132.204	-41.862	6.263	-132.267	-125.735	-126.351	-118.770	-15.701	-118.847	-8191	255	
1451.040	1	1	0	0	0.12412	0.10931	0.10281	0.27202	0.14646	0.076892	0.3166	0.10238	0.1213	0.15492	0.22737	0.13949	0.084649	0.2165	0.30119	0.02924	-2.9188	-3.4125	-3.1417	-3.3104	-3.4854	-3.15	-3.5396	-3.3812	-2.9833	-3.2938	-3.0521	-3.0438	-3.3	-2.9604	-3.3292	-3.1667	39.343	161.074	-6.168	146.220	28.054	66.256	149.855	82.087	162.504	125.767	126.842	94.309	-116.028	-78.629	47.260	190.118	0.00053979	0.00026389	6.1572e-05	1001.3	2.3263e-06	3.3877e-06	1061	208.08	4.7052e-06	3.2985e-06	263.9	74.842	59.18	17.363	2.8488e-06	24.7	0.0001508	9.7433e-05	2.8161e-05	989.97	1.125e-06	1.1172e-06	1051.2	206.99	1.2962e-06	1.0807e-06	263.1	75.227	58.864	17.561	1.127e-06	25.141	92.106	-74.306	-96.703	-138.887	-54.961	3.491	-139.030	-131.985	-46.630	12.383	-131.884	-126.274	-126.343	-118.153	-11.897	-118.808	-8191	255	
1451.159	1	1	0	0	0.06773	0.15226	0.028976	0.019663	0.098207	0.29561	0.1311	0.064811	0.14231	0.048731	0.33742	0.088431	0.19686	0.16439	0.088274	0.088995	-2.5604	-3.3167	-3.0271	-3.1708	-3.3479	-3.1354	-3.4354	-3.4104	-3.0021	-3.4083	-3.2354	-3.1458	-3.5625	-3.2354	-3.2292	-3.2604	97.673	-117.074	91.777	26.313	-34.003	-122.021	144.932	150.897	60.919	61.489	182.887	174.802	119.469	3.499	158.273	1.182	0.00053011	0.00033457	8.7062e-05	1006.2	3.0524e-06	2.8781e-06	1057.4	209	6.0455e-06	3.7453e-06	264.13	75.272	58.749	17.351	3.9862e-06	24.734	0.00015126	9.9361e-05	3.0407e-05	992.84	1.2242e-06	1.1404e-06	1052.3	207.31	1.2708e-06	1.0958e-06	263.41	75.526	59.047	17.51	1.2043e-06	25.125	97.248	-54.509	-72.474	-139.126	-51.995	10.264	-139.092	-131.909	-36.614	-12.698	-132.502	-126.021	-125.670	-118.387	-29.495	-118.725	-8191	255	
1451.255	1	1	0	0	0.11488	0.079473	0.11312	0.1409	0.12968	0.142	0.26977	0.23755	0.17173	0.24819	0.17462	0.15137	0.21618	0.13473	0.16552	0.14053	-2.5875	-3.2438	-3.1292	-3.0396	-3.2354	-3.0896	-3.15	-3.2687	-2.9729	-3.125	-3.2021	-2.9917	-3.2	-3.0042	-3.1562	-3.3542	129.908	-71.139	-142.292	-82.944	-130.351	14.305	155.450	-127.504	-122.029	-28.817	42.015	-12.191	55.814	-17.313	-117.576	-141.994	0.00054595	0.00024904	7.344e-05	1004.4	4.0103e-06	2.0844e-06	1061.5	208.49	5.8777e-06	2.0447e-06	265.77	74.882	59.191	17.259	3.7377e-06	24.815	0.00015857	0.00010255	2.9916e-05	993.4	1.176e-06	1.0932e-06	1051.8	207.79	1.3216e-06	1.0671e-06	263.75	75.234	58.909	17.514	1.2618e-06	25.183	100.534	-47.692	-69.771	-139.047	-13.846	27.723	-138.913	-131.881	-46.735	-17.029	-132.566	-125.776	-126.647	-118.613	-15.740	-118.687	-8191	255	
1451.351	1	1	0	0	0.090896	0.1968	0.24536	0.095146	0.070315	0.22391	0.12708	0.18519	0.059126	0.23439	0.099797	0.19375	0.14027	0.10003	0.19838	0.086314	-2.5	-3.2125	-3.0708	-3.0354	-3.3792	-3.0708	-3.4396	-3.5396	-2.8354	-3.0833	-3.4021	-2.9979	-3.6188	-3.2833	-3.1146	-3.4104	53.419	-61.153	123.172	-89.799	135.372	87.198	102.058	-145.759	-106.573	97.978	140.425	-100.764	-99.374	112.751	-52.149	-123.673	0.00053755	0.00036141	6.392e-05	1014.9	1.0346e-06	2.1511e-06	1056.8	208.46	4.82e-06	2.9673e-06	263.64	74.74	59.443	17.326	3.6402e-06	24.933	0.00016078	0.00010857	2.9148e-05	995.57	1.2492e-06	1.2073e-06	1051.9	207.01	1.3071e-06	1.2042e-06	262.97	75.439	59.037	17.547	1.246e-06	25.186	95.820	-64.555	-68.408	-138.864	-11.548	-21.127	-139.351	-131.653	-15.942	22.959	-132.151	-126.355	-126.307	-118.491	-19.478	-118.533	-8191	255	
1451.447	1	1	0	0	0.39066	0.065189	0.30367	0.2591	0.039905	0.13779	0.10638	0.091547	0.20079	0.055497	0.17267	0.060383	0.017602	0.066503	0.18902	0.069373	-2.7104	-3.3542	-3.1771	-3.1375	-3.4292	-3.4396	-3.2667	-3.5146	-3.0958	-3.3854	-3.4354	-3.0542	-3.125	-3.1354	-3.0438	-3.5604	-131.079	56.913	1.106	178.500	111.219	-142.353	154.685	-106.880	-51.042	-59.276	178.808	62.860	167.657	164.140	12.145	145.007	0.00056904	0.00019291	6.4761e-05	1016.4	2.6429e-06	2.4845e-06	1069.1	208.55	3.762e-06	2.0916e-06	264.79	75.83	59.646	17.493	2.698e-06	24.772	0.00016135	0.0001038	3.0298e-05	999.51	1.2694e-06	1.2559e-06	1059.7	207.84	1.3433e-06	1.1789e-06	264.43	75.953	59.42	17.682	1.2402e-06	25.33	97.333	-47.595	-61.935	-138.900	2.403	16.058	-139.037	-131.790	-67.101	6.750	-132.394	-126.132	-126.365	-118.001	-27.374	-118.815	-8191	255	
1451.542	1	1	0	0	0.17909	0.056587	0.22882	0.11271	0.21003	0.17885	0.35965	0.072946	0.070543	0.048297	0.2995	0.18095	0.29764	0.19017	0.12049	0.11578	-2.7562	-3.3667	-3.3229	-2.9417	-3.0729	-3.2104	-3.25	-3.6021	-3.1208	-3.2042	-3.6271	-2.9854	-3.225	-3.1042	-2.9833	-3.3958	16.697	-35.210	49.439	-61.826	1.366	-72.912	-65.375	-131.022	145.830	-92.465	94.871	163.820	31.230	190.326	42.226	-87.427	0.00048594	0.00021511	6.322e-05	1018.8	2.7508e-06	2.4557e-06	1076.2	210.34	5.161e-06	2.9986e-06	265.72	75.931	60.706	17.501	3.89e-06	25.233	0.00015873	0.00010428	2.9886e-05	1003.4	1.2949e-06	1.1876e-06	1065.7	209.23	1.3585e-06	1.1987e-06	265.48	76.226	59.826	17.698	1.2634e-06	25.453	93.282	-50.262	-59.792	-139.295	2.645	2.136	-139.162	-131.898	-43.573	14.874	-132.116	-126.189	-126.498	-118.344	8.265	-118.885	-8191	255	
1451.638	1	1	0	0	0.1937	0.11249	0.051845	0.21332	0.20212	0.26051	0.12901	0.16836	0.33392	0.27248	0.10271	0.13756	0.07426	0.11012	0.062014	0.19573	-2.8312	-3.125	-3.6583	-3.0979	-3.5125	-3.2896	-3.2438	-3.5062	-3.2167	-3.1333	-3.4792	-2.9521	-3.2917	-3.2042	-3.0875	-3.5354	-143.101	165.235	-132.787	-145.457	-105.204	172.007	130.658	34.232	-136.651	-67.062	-106.290	-76.287	200.671	65.150	208.056	197.859	0.0004895	0.00028627	9.2539e-05	1020.3	2.2125e-06	3.7475e-06	1073.4	210.75	5.6299e-06	1.0066e-06	267.7	76.08	59.956	17.723	2.838e-06	25.243	0.00016341	0.0001127	2.9674e-05	1004.4	1.322e-06	1.1649e-06	1067	209.6	1.3923e-06	1.255e-06	266.31	76.398	59.735	17.805	1.3899e-06	25.538	95.408	-39.277	-76.197	-139.009	-58.277	21.661	-139.160	-131.845	-42.664	-32.496	-132.162	-126.102	-126.210	-118.075	-3.551	-118.633	-8191	255	
1451.758	1	1	0	0	0.22543	0.15305	0.25363	0.11269	0.031657	0.058874	0.094054	0.22059	0.15327	0.27881	0.083165	0.15402	0.23171	0.13304	0.22428	0.13981	-2.9604	-3.0208	-3.3979	-3.2917	-3.2792	-3.4146	-3.2604	-3.5354	-3.3458	-3.0542	-3.3458	-3.1917	-3.4688	-3.4125	-2.9562	-3.425	33.821	36.750	-123.340	-122.709	-102.876	71.825	136.987	99.186	-12.766	-22.167	124.652	-99.349	-137.620	-102.312	105.705	-63.237	0.0004846	0.00029022	7.2794e-05	1017.8	2.7167e-06	3.6629e-06	1078.9	210.67	4.061e-06	2.5535e-06	267.62	76.322	60.283	17.554	6.6988e-07	25.004	0.00015652	0.00011717	3.1587e-05	1008.6	1.3605e-06	1.2492e-06	1069.5	209.79	1.3792e-06	1.2823e-06	266.97	76.596	59.956	17.798	1.2943e-06	25.541	97.439	-70.541	-83.833	-139.241	15.700	29.247	-139.446	-132.119	-25.653	17.251	-132.002	-125.829	-125.922	-118.098	-46.611	-118.754	-8191	255	
1451.855	1	1	0	0	0.12221	0.18219	0.25437	0.083391	0.059013	0.072854	0.3272	0.15146	0.37115	0.23271	0.11738	0.14991	0.18462	0.10022	0.07067	0.16889	-2.9688	-3.0708	-3.3125	-3.1229	-3.1396	-3.5146	-3.3708	-3.4354	-3.3854	-3.1896	-3.5	-3.1521	-3.2771	-3.4792	-3.2125	-3.4604	21.959	-56.559	119.236	-132.929	67.587	77.721	156.237	-141.578	-26.751	81.375	38.208	70.631	192.891	-54.256	-139.484	181.725	0.00050113	0.0003068	0.00010338	1014.6	2.9549e-06	2.6326e-06	1079.3	212.01	6.1204e-06	3.3618e-06	268.45	76.374	60.527	17.728	3.3481e-06	25.29	0.00016253	0.00011868	3.2452e-05	1007.1	1.3718e-06	1.1881e-06	1071.4	210.82	1.3901e-06	1.2612e-06	267.06	76.693	60.304	17.899	1.26e-06	25.697	103.408	-48.480	-57.462	-139.036	-11.619	9.219	-139.253	-132.178	-37.000	24.175	-132.518	-126.007	-126.075	-118.297	-44.882	-118.985	-8191	255	
1451.951	1	1	0	0	0.11239	0.40651	0.21545	0.055682	0.044239	0.24137	0.32649	0.17668	0.18265	0.15209	0.22506	0.3083	0.18128	0.14603	0.12587	0.1724	-2.9875	-2.9437	-3.2604	-3.1458	-3.0792	-3.5187	-3.2188	-3.1604	-3.2396	-3.1458	-3.4292	-3.3604	-3.0438	-3.2083	-3.1208	-3.3271	182.981	-53.813	115.224	171.269	132.541	-80.999	84.747	185.526	166.961	195.162	-136.238	206.101	155.093	170.096	-104.307	165.626	0.00043555	0.00040806	6.6441e-05	1025.5	2.6254e-06	2.4512e-06	1082.2	212.38	4.5711e-06	1.5854e-06	268.34	77.029	60.236	17.944	3.2925e-06	25.365	0.00015813	0.00012414	3.2143e-05	1011	1.2967e-06	1.2473e-06	1075.5	211.3	1.4098e-06	1.3244e-06	268.09	76.983	60.56	18.006	1.2929e-06	25.817	93.581	-63.809	-25.880	-139.242	-34.000	-11.169	-139.271	-132.337	-36.346	13.083	-132.100	-125.983	-126.668	-118.589	-14.673	-118.718	-8191	255	
1452.047	1	1	0	0	0.26484	0.26588	0.005449	0.14038	0.11777	0.11588	0.28235	0.16933	0.059238	0.1164	0.13768	0.12996	0.24334	0.11276	0.3259	0.16551	-2.9375	-3.0062	-3.1937	-3.1188	-3.2167	-3.6813	-3.1771	-3.2333	-3.1188	-3.0646	-3.3979	-3.4021	-2.9917	-3.4479	-3.2729	-3.2292	183.130	118.918	-141.639	150.499	-89.493	-19.157	130.130	26.683	192.120	-145.500	-136.683	-86.667	-65.691	66.622	97.091	111.406	0.00050086	0.00032624	8.9363e-05	1029.8	3.5817e-06	2.5019e-06	1083.8	211.68	5.0072e-06	2.9086e-06	269.5	77.2	60.811	17.788	2.6141e-06	25.48	0.00015629	0.00012133	3.1811e-05	1013.6	1.3802e-06	1.2015e-06	1076.6	211.65	1.4064e-06	1.2454e-06	268.74	77.255	60.65	18.024	1.3335e-06	25.811	91.608	-58.272	-62.774	-138.727	-21.580	50.876	-139.238	-132.120	-46.582	-11.638	-132.189	-126.176	-126.046	-118.280	-19.225	-118.838	-8191	255	
1452.143	1	1	0	0	0.024624	0.098208	0.29661	0.2512	0.15122	0.18427	0.35875	0.17181	0.10801	0.024239	0.091622	0.20387	0.12339	0.13949	0.26848	0.14381	-3.1312	-3.1063	-3.175	-3.1688	-3.0187	-3.3396	-3.3812	-3.3021	-3.55	-3.075	-3.3771	-3.425	-2.9813	-3.4042	-3.3479	-3.1958	-86.798	174.585	77.994	66.611	59.742	82.379	153.944	51.451	-96.640	-118.130	89.353	162.895	18.840	145.927	122.332	48.090	0.0005248	0.00019498	6.9379e-05	1024.2	1.4652e-06	9.4332e-07	1082.6	212.97	6.6583e-06	3.5523e-06	269.08	76.887	60.792	17.782	1.749e-06	25.413	0.00016474	0.00011338	3.3039e-05	1014.9	1.3734e-06	1.2075e-06	1077.6	212.09	1.3672e-06	1.242e-06	269.13	77.239	60.6	18.067	1.3632e-06	25.881	98.553	-60.631	-31.066	-139.079	60.307	15.590	-139.295	-132.299	-48.511	9.511	-132.525	-126.388	-126.480	-118.191	0.480	-119.122	-8191	255	
1452.239	1	1	0	0	0.15037	0.037752	0.38277	0.26477	0.16824	0.33018	0.19575	0.12768	0.072738	0.27504	0.22005	0.22502	0.12261	0.23046	0.17801	0.23828	-3.1375	-3.2583	-3.2375	-3.3438	-2.9271	-3.1542	-3.3729	-3.0979	-3.3042	-3.3646	-3.2979	-3.5312	-3.0042	-3.2938	-3.1458	-3.0792	-26.551	95.811	33.907	197.412	74.978	-46.015	185.610	72.520	-16.804	157.530	161.634	-108.275	-125.397	-90.906	187.242	116.262	0.0005515	0.0002871	0.00010052	1023.5	2.5665e-06	3.2702e-06	1084.4	213.97	6.0852e-06	2.903e-06	271.14	77.179	60.782	17.76	3.1495e-06	25.419	0.00016158	0.000121	3.4165e-05	1016.5	1.4508e-06	1.4299e-06	1079.6	212.78	1.4533e-06	1.3775e-06	269.5	77.517	60.729	18.073	1.4785e-06	25.888	98.200	-35.973	-47.671	-139.073	-28.606	-7.545	-139.363	-131.970	-26.211	-11.516	-132.248	-126.004	-126.563	-118.590	-18.842	-119.101	-8191	255	
1452.335	1	1	0	0	0.18622	0.090291	0.16629	0.026368	0.1526	0.24772	0.28223	0.24607	0.092413	0.18496	0.043215	0.22409	0.016977	0.12046	0.27498	0.2088	-3.0646	-3.0458	-3.3708	-3.5896	-3.2646	-3.1833	-3.4104	-3.1833	-3.3438	-3.1667	-3.1146	-3.4146	-3.1188	-3.3208	-3.0125	-3.0208	153.450	42.387	148.353	43.729	63.244	188.700	143.040	140.281	-132.539	160.057	-50.018	-145.388	54.708	-139.230	103.922	-149.626	0.00050761	0.00028462	7.6924e-05	1026.8	1.7294e-06	3.8939e-06	1084.9	212.86	2.0075e-06	1.5058e-06	269.19	76.973	61.638	17.897	4.6954e-06	25.464	0.00017689	0.00013746	3.4934e-05	1021.2	1.4701e-06	1.4225e-06	1083.7	213.12	1.4647e-06	1.483e-06	269.84	77.624	61.152	18.163	1.4393e-06	25.948	98.937	-66.861	-63.464	-139.040	-29.088	12.998	-139.491	-131.927	-29.857	-2.650	-132.129	-126.450	-126.361	-118.387	3.167	-119.110	-8191	255	
1452.431	1	1	0	0	0.23403	0.23382	0.17743	0.086468	0.24048	0.088292	0.063707	0.27383	0.19729	0.23519	0.18137	0.20448	0.062053	0.097025	0.072211	0.15833	-3.0167	-3.3083	-3.1396	-3.4333	-3.2625	-3.3167	-3.3625	-3.0938	-3.5062	-3.4708	-3.0938	-3.4042	-3.0292	-3.3146	-3.3271	-3.0563	-88.025	6.483	-28.604	-21.035	-37.630	49.584	126.860	141.893	10.342	-91.208	198.933	-132.040	-136.652	194.264	-80.470	-142.069	0.0004755	0.00037689	7.9423e-05	1031.8	1.8283e-06	4.7642e-06	1094.1	214.1	4.0281e-06	2.9324e-06	270.8	77.393	60.704	17.955	3.3736e-06	25.638	0.00016735	0.00012622	3.4038e-05	1022.4	1.4673e-06	1.3707e-06	1086.6	213.94	1.4708e-06	1.3366e-06	271.06	77.927	60.994	18.224	1.376e-06	26.065	94.893	-68.276	-17.369	-139.027	-38.116	14.276	-139.301	-131.942	-26.717	12.341	-132.353	-126.122	-126.408	-118.404	-17.566	-118.968	-8191	255	
1452.550	1	1	0	0	0.086427	0.15047	0.22686	0.28755	0.22157	0.070908	0.29359	0.14055	0.16749	0.22911	0.13284	0.36661	0.22882	0.29772	0.25538	0.17364	-3.0479	-3.3917	-3.0333	-3.5438	-3.2188	-3.2604	-3.5729	-3.2083	-3.4458	-3.3812	-3.1333	-3.2854	-3.0646	-3.2854	-3.5104	-3.1771	117.617	124.519	60.382	191.763	92.933	-140.467	149.346	-136.187	188.414	-43.060	-145.136	-66.632	124.284	-48.794	-65.513	99.991	0.00053471	0.0001129	4.9958e-05	1035.5	1.7074e-06	4.7342e-06	1095.8	214.28	4.6042e-06	4.0593e-06	270.93	77.731	61.106	17.912	3.2288e-06	25.668	0.00017394	0.00013525	3.8256e-05	1025.4	1.5454e-06	1.418e-06	1090.1	214.72	1.5883e-06	1.4364e-06	271.41	78.113	61.303	18.215	1.3975e-06	26.172	98.526	-89.760	-65.811	-139.042	-39.889	2.699	-139.323	-132.281	-56.020	12.130	-132.444	-126.194	-126.068	-118.513	-18.295	-118.974	-8191	255	
1452.646	1	1	0	0	0.14087	0.060572	0.16362	0.16443	0.2187	0.17838	0.28035	0.1565	0.027212	0.056163	0.22984	0.26564	0.18039	0.10588	0.048742	0.14887	-2.8292	-3.4417	-2.8875	-3.2792	-3.0708	-2.9958	-3.5021	-3.1604	-3.3854	-3.4771	-3.0917	-3.3875	-3.2062	-3.2562	-3.7083	-3.2583	-45.505	-50.521	-143.105	-110.034	-76.757	144.660	153.180	152.660	-2.344	-81.326	115.195	181.794	66.149	-39.616	45.554	-84.512	0.00050652	0.00042178	9.4764e-05	1044.2	4.3521e-06	2.8835e-06	1101.4	216.7	4.9102e-06	1.5259e-06	272.52	77.962	61.543	18.094	1.7722e-06	25.885	0.00017737	0.0001278	3.7881e-05	1032.9	1.5259e-06	1.3978e-06	1097.8	215.47	1.5388e-06	1.3485e-06	272.41	78.412	61.466	18.339	1.4082e-06	26.255	98.493	-57.691	-64.065	-139.118	-22.371	-14.204	-139.220	-131.841	-68.661	22.963	-132.243	-126.455	-126.114	-118.661	-17.764	-119.018	-8191	255	
1452.720	1	1	0	0	0.1619	0.18	0.061366	0.2099	0.12303	0.26891	0.14654	0.1631	0.10257	0.19116	0.4146	0.098216	0.15756	0.11691	0.10908	0.23256	-2.6833	-3.5146	-2.8292	-3.3625	-3.3354	-3.2479	-3.6125	-3.2687	-3.2458	-3.3375	-3.1104	-3.3042	-3.3021	-3.0792	-3.3625	-2.9958	191.841	-130.258	-136.321	-80.165	23.650	-21.998	185.474	121.441	135.809	27.647	31.391	-111.535	207.980	3.482	-123.977	158.314	0.00048081	0.00029106	8.3077e-05	1044.1	2.6178e-06	2.8827e-06	1102.7	216.96	4.2159e-06	2.1595e-06	272.76	78.007	61.977	18.053	5.0398e-06	25.894	0.00016182	0.00012798	3.6471e-05	1035.1	1.4636e-06	1.3909e-06	1098.5	216.19	1.5207e-06	1.3579e-06	272.95	78.554	61.771	18.364	1.4152e-06	26.305	99.433	-16.564	-69.313	-139.114	-1.227	42.326	-139.472	-132.307	-29.303	35.300	-132.531	-126.369	-125.906	-118.452	-14.256	-119.160	-8191	255	
1452.839	1	1	0	0	0.15733	0.19282	0.035812	0.17509	0.15323	0.1295	0.23522	0.27037	0.029708	0.19269	0.39056	0.10008	0.14188	0.16882	0.06957	0.35904	-2.7292	-3.1833	-2.9146	-3.1854	-3.2812	-3.1	-3.4396	-3.2729	-3.1937	-3.3021	-3.2667	-3.55	-3.3708	-3.2375	-3.4583	-3.1437	170.677	-64.976	88.942	2.440	-61.994	175.709	192.267	124.575	71.906	189.358	85.884	172.396	171.508	151.079	112.739	164.319	0.00050183	0.00042478	6.3747e-05	1048.3	4.2777e-06	2.9631e-06	1103.2	218.47	5.5859e-06	4.7726e-06	274.08	78.448	61.916	18.254	3.4925e-06	25.772	0.00017363	0.00013307	3.5369e-05	1035.4	1.4566e-06	1.4266e-06	1099.1	216.85	1.5697e-06	1.4577e-06	273.58	78.676	61.824	18.465	1.4583e-06	26.294	100.307	-60.072	-52.500	-139.247	-29.857	-50.123	-139.409	-132.357	-51.133	-15.256	-132.415	-126.654	-126.571	-118.494	-53.145	-118.891	-8191	255	
1452.935	1	1	0	0	0.078554	0.097069	0.27181	0.19037	0.060313	0.18864	0.18133	0.06747	0.23166	0.096239	0.09201	0.179	0.17898	0.21466	0.1671	0.14691	-2.8458	-3.3625	-2.9313	-3.3104	-3.4188	-3.2729	-3.7125	-3.2167	-2.9958	-3.4125	-3.2583	-3.45	-3.4104	-3.2375	-3.5687	-3.3292	177.060	185.868	-6.087	-143.168	-55.892	87.467	102.745	118.989	-31.726	-70.883	168.725	-110.409	113.260	186.054	208.408	161.301	0.00055354	0.00042368	7.8763e-05	1050.4	2.9981e-06	4.1492e-06	1104.9	218.16	4.5901e-06	1.8792e-06	273.06	78.537	61.792	18.136	3.4287e-06	25.842	0.00018165	0.00012221	3.661e-05	1036.8	1.405e-06	1.4647e-06	1099.5	217.38	1.5883e-06	1.4251e-06	273.55	78.84	61.831	18.405	1.3883e-06	26.372	103.778	-53.128	-69.941	-139.360	-29.521	-1.357	-139.554	-131.870	-30.403	39.123	-132.536	-126.080	-126.708	-118.782	-4.991	-119.355	-8191	255	
1453.031	1	1	0	0	0.26853	0.0794	0.1229	0.15235	0.034919	0.073974	0.15368	0.10715	0.068492	0.18788	0.11815	0.15312	0.13646	0.043755	0.1916	0.15975	-2.7812	-3.5896	-3.2521	-3.5229	-3.4917	-3.2521	-3.7146	-3.3271	-3.1333	-3.4271	-3.2438	-3.1792	-3.3688	-2.9604	-3.3271	-3.1458	-130.521	-141.436	-73.414	-111.582	-80.981	109.945	127.790	-110.107	92.946	-133.674	-136.788	19.610	-94.162	153.834	138.719	183.420	0.00054735	0.00038922	6.9673e-05	1051	2.0997e-06	4.3002e-06	1106.6	218.68	6.4033e-06	3.4745e-06	274.7	78.536	62.112	18.27	2.9263e-06	25.946	0.00017896	0.00012557	3.5502e-05	1037	1.4882e-06	1.4877e-06	1099.6	217.96	1.5899e-06	1.4593e-06	274.15	78.856	62.111	18.481	1.5326e-06	26.38	97.305	-57.201	-62.983	-139.133	-36.251	-16.577	-139.201	-132.057	-37.125	-4.342	-132.414	-126.433	-126.051	-118.299	-17.016	-118.936	-8191	255	
1453.127	1	1	0	0	0.051808	0.19019	0.13408	0.33376	0.27181	0.2882	0.15371	0.11309	0.20077	0.13704	0.10835	0.2623	0.28825	0.068998	0.0093867	0.11446	-2.5479	-3.2792	-2.9875	-3.1937	-3.3937	-2.9417	-3.2812	-3.4271	-3.1333	-3.475	-3.0625	-3.1937	-3.2333	-3.2792	-3.2417	-3.4583	194.430	-107.648	54.321	-132.214	43.349	-18.104	151.965	176.888	-129.520	-31.631	66.823	127.714	192.324	40.388	78.671	-26.695	0.00058463	0.00043409	3.866e-05	1045.3	2.4045e-06	3.2116e-06	1112	218.25	6.2552e-06	2.3109e-06	274.85	78.416	62.21	18.297	3.1362e-06	26.032	0.00018949	0.00014006	3.8753e-05	1036.5	1.6541e-06	1.5287e-06	1102.3	217.99	1.7636e-06	1.5122e-06	273.87	78.893	61.994	18.448	1.6119e-06	26.384	96.042	-54.274	-55.120	-139.144	-20.289	6.442	-139.380	-132.156	-35.244	-21.920	-132.360	-126.236	-126.336	-118.081	-30.380	-119.444	-8191	255	
1453.248	1	1	0	0	0.20458	0.16389	0.2654	0.19761	0.21524	0.34184	0.39524	0.22429	0.20345	0.066492	0.069993	0.08723	0.055353	0.08017	0.10242	0.055991	-2.6792	-3.2646	-3.0229	-3.1146	-3.3458	-3.0542	-3.5625	-3.3208	-3.4229	-3.5104	-3.4	-3.1	-3.5312	-3.3458	-3.1667	-3.35	123.911	122.464	-42.485	-111.280	132.575	114.084	107.997	129.353	-93.878	-65.511	113.439	132.097	174.881	-61.056	-38.005	91.542	0.00054725	0.00032103	8.3197e-05	1052.4	2.9978e-06	1.9199e-06	1112.6	217.65	5.6589e-06	3.0011e-06	275.05	78.976	62.748	18.208	3.7661e-06	25.852	0.00019336	0.0001466	4.1325e-05	1041.7	1.5401e-06	1.5608e-06	1102.7	217.8	1.7441e-06	1.5299e-06	274.39	79.014	62.111	18.428	1.643e-06	26.33	92.423	-83.722	-57.301	-139.145	-14.509	-33.873	-139.291	-132.053	-42.278	-26.871	-132.097	-126.084	-126.553	-118.540	5.288	-119.000	-8191	255	
1453.344	1	1	0	0	0.29819	0.087146	0.23823	0.07431	0.20121	0.17031	0.26769	0.36178	0.073832	0.12624	0.30214	0.15156	0.090473	0.38656	0.23804	0.05728	-2.4021	-3.2604	-3.1583	-3.0333	-3.4521	-3.0333	-3.1646	-3.4896	-3.1042	-3.4958	-3.4646	-3.1833	-3.3688	-3.275	-3.2687	-3.5646	39.515	-63.793	33.225	97.931	-133.972	116.040	169.438	153.999	27.691	72.799	124.776	190.197	-126.929	-111.337	79.106	105.550	0.00057648	0.00041803	8.6915e-05	1060.7	2.5713e-06	2.7338e-06	1118.7	220.06	5.7145e-06	2.843e-06	276.41	78.565	62.119	18.34	2.4883e-06	26.084	0.00019871	0.00014832	4.0816e-05	1043.5	1.6696e-06	1.5982e-06	1106.3	218.69	1.7695e-06	1.5034e-06	274.76	79.001	62.113	18.424	1.5667e-06	26.394	98.800	-58.201	-58.689	-139.455	-19.511	-8.849	-139.164	-131.886	-53.530	10.165	-132.349	-125.972	-126.813	-118.746	-36.953	-118.767	-8191	255	
1453.440	1	1	0	0	0.17071	0.10604	0.096667	0.094686	0.1441	0.12939	0.17345	0.073218	0.20252	0.28138	0.076785	0.17173	0.15022	0.22606	0.33322	0.18366	-2.6583	-3.2875	-3.2896	-3.1729	-3.2625	-3.25	-3.2812	-3.3417	-2.9688	-3.3104	-3.2333	-3.0604	-3.3521	-3.1125	-3.1188	-3.4021	-141.217	108.479	-133.452	176.748	198.882	159.492	199.201	18.269	-70.579	63.182	174.128	201.357	90.074	193.084	28.021	129.981	0.00051767	0.00034468	8.8397e-05	1058.7	3.2575e-06	2.877e-06	1114.5	219.78	7.2626e-06	3.0323e-06	277.03	78.348	62.332	18.195	5.2407e-06	25.919	0.0001837	0.00014539	3.7929e-05	1043.7	1.6592e-06	1.4498e-06	1106.3	218.77	1.7888e-06	1.5153e-06	275.36	78.956	61.996	18.441	1.7314e-06	26.357	98.533	-58.395	-60.032	-138.849	-28.957	-17.358	-139.289	-132.099	-52.928	-29.304	-132.227	-126.159	-126.558	-118.327	-0.325	-118.848	-8191	255	
1453.535	1	1	0	0	0.25116	0.08533	0.27558	0.15115	0.13413	0.082107	0.29265	0.19491	0.20839	0.18711	0.16076	0.2424	0.13573	0.19108	0.075101	0.23376	-2.55	-3.1708	-3.4437	-3.2646	-3.3729	-3.3479	-3.2458	-3.5875	-3.1208	-3.0625	-3.2812	-3.1979	-3.4	-3.3583	-3.0833	-3.4437	206.200	-36.412	-32.103	183.104	115.058	84.526	134.446	202.834	-103.316	-103.231	-78.318	162.292	-36.655	158.328	72.029	-127.992	0.00062562	0.00026308	6.2117e-05	1054.2	2.42e-06	3.129e-06	1114.3	219.24	5.651e-06	2.2567e-06	275.24	78.624	62.239	18.215	2.2058e-06	25.869	0.00020088	0.00015174	4.1464e-05	1044.8	1.6597e-06	1.5551e-06	1107.3	218.6	1.8049e-06	1.5441e-06	274.51	79.057	62.154	18.514	1.5653e-06	26.414	100.176	-81.498	-73.543	-139.391	-78.703	5.378	-139.112	-132.244	-21.944	-0.409	-132.374	-126.332	-126.648	-118.687	-1.080	-119.115	-8191	255	
1453.631	1	1	0	0	0.096467	0.13553	0.064069	0.28206	0.06986	0.11491	0.17891	0.08848	0.11492	0.10213	0.22137	0.044254	0.17536	0.069327	0.24931	0.19684	-2.7625	-3.1292	-3.2896	-2.8812	-3.25	-3.2708	-3.1667	-3.5604	-3.1917	-3.0875	-3.4667	-3.2375	-3.3625	-3.2729	-3.0271	-3.3167	93.896	180.108	5.209	162.220	-41.009	34.556	75.866	151.371	60.775	206.254	34.572	-1.173	-7.181	118.792	179.127	-109.125	0.00055115	0.00029205	8.3307e-05	1059.1	3.2207e-06	1.7212e-06	1116	220.3	6.4262e-06	3.9234e-06	276.56	79.093	62.554	18.361	3.731e-06	25.941	0.00018256	0.00014132	3.7052e-05	1042	1.55e-06	1.503e-06	1106.8	218.73	1.6253e-06	1.5491e-06	275.16	79.261	62.323	18.455	1.5968e-06	26.387	97.399	-40.512	-47.480	-139.219	-20.704	-17.838	-139.264	-131.883	-34.189	3.108	-132.392	-126.006	-125.850	-118.751	-28.414	-119.303	-8191	255	
1453.727	1	1	0	0	0.10205	0.074294	0.10384	0.019964	0.15819	0.085475	0.022639	0.15543	0.26582	0.069486	0.11373	0.18264	0.13724	0.38016	0.022748	0.22197	-2.7854	-3.0354	-3.3	-3.1	-3.2625	-3.3479	-3.2396	-3.5938	-3.3104	-3.2083	-3.4021	-3.0312	-3.2229	-3.3542	-3.1229	-3.5104	141.246	-58.981	2.033	-33.313	189.321	202.768	-119.473	38.918	8.359	185.749	92.533	-89.080	55.013	88.848	192.491	153.923	0.00058832	0.00033485	6.8334e-05	1067.5	2.9159e-06	2.7216e-06	1115.6	219.29	6.1281e-06	1.5896e-06	275.94	79.024	62.072	18.214	2.9086e-06	26.085	0.00018292	0.00013554	3.9194e-05	1043.1	1.6166e-06	1.3787e-06	1106.5	218.76	1.5876e-06	1.5747e-06	275	79.167	62.163	18.39	1.5676e-06	26.354	101.071	-78.814	-93.919	-138.813	-26.250	-7.891	-139.453	-132.047	-40.255	-22.073	-132.298	-126.230	-126.216	-118.211	-38.142	-118.663	-8191	255	
1453.847	1	1	0	0	0.095525	0.12807	0.14181	0.18798	0.062155	0.13861	0.35912	0.14105	0.086939	0.21948	0.28357	0.2499	0.087319	0.036426	0.26933	0.16895	-2.8104	-3.1312	-3.4083	-3.1854	-3.2167	-3.3625	-3.2708	-3.475	-3.2125	-3.0979	-3.5146	-3.1396	-3.1875	-3.3771	-3.2104	-3.4188	35.152	171.561	34.989	117.533	0.980	88.277	154.831	189.610	-57.441	50.374	196.790	124.674	-141.425	-123.340	-64.149	-75.525	0.00053805	0.00024173	6.3822e-05	1058	4.0538e-06	3.1657e-06	1115.9	220.67	5.7386e-06	2.2394e-06	275.34	78.555	62.033	18.191	5.898e-06	25.958	0.00017122	0.00014307	3.9358e-05	1042.2	1.5463e-06	1.4314e-06	1104.9	218.8	1.6756e-06	1.4979e-06	274.58	79.039	61.912	18.455	1.5393e-06	26.368	97.504	-54.900	-70.792	-139.282	-26.141	26.657	-139.132	-131.942	-60.194	18.008	-132.272	-126.135	-126.756	-118.477	-1.665	-118.981	-8191	255	
1453.944	1	1	0	0	0.17041	0.12655	0.13263	0.10286	0.24976	0.18732	0.072303	0.15286	0.25619	0.15365	0.092687	0.19367	0.16604	0.11347	0.21051	0.15703	-2.9729	-3.0563	-3.4833	-3.4313	-3.1917	-3.5521	-3.3354	-3.4062	-3.2667	-3.3417	-3.4604	-3.1021	-3.0333	-3.4562	-2.9813	-3.3292	65.431	-16.395	-21.404	136.273	8.428	88.614	103.786	140.792	-27.697	156.424	-8.708	137.724	-38.709	34.177	25.550	-78.780	0.00051094	0.00026884	7.4387e-05	1053.5	2.2985e-06	3.7683e-06	1112.8	219.85	6.6478e-06	1.5842e-06	274.86	78.805	62.467	18.164	9.6394e-07	26.145	0.00018133	0.00013792	3.6053e-05	1040.5	1.5619e-06	1.4637e-06	1104.5	218.65	1.5454e-06	1.4687e-06	274.44	78.962	62.108	18.434	1.4203e-06	26.384	96.983	-54.412	-29.405	-139.252	-32.531	8.606	-139.157	-132.075	-43.721	-23.842	-132.107	-126.203	-126.338	-118.416	13.490	-118.839	-8191	255	
1454.015	1	1	0	0	0.059316	0.20245	0.23807	0.0070228	0.21277	0.23736	0.22079	0.12658	0.12731	0.082589	0.2351	0.060086	0.20984	0.16905	0.042716	0.21655	-2.7687	-3.0167	-3.1271	-3.1354	-2.8896	-3.2562	-3.0521	-3.2458	-3.3979	-3.0563	-3.3583	-3.1292	-2.8417	-3.3354	-2.9417	-2.9458	-117.689	-20.977	-70.961	-10.424	202.477	-34.978	186.536	132.588	161.246	85.541	-120.158	-141.956	144.633	7.463	84.027	-79.895	0.0005056	0.00039289	6.6506e-05	1052.1	2.0072e-06	1.962e-06	1110.5	219.21	5.2633e-06	2.2955e-06	275.61	78.179	61.509	18.294	3.7421e-06	26.01	0.00016935	0.00013311	3.6422e-05	1037.4	1.63e-06	1.4388e-06	1101.1	218.09	1.5273e-06	1.4191e-06	274.76	78.83	61.768	18.441	1.4026e-06	26.322	95.555	-51.780	-57.464	-139.320	-68.684	-10.850	-139.399	-132.265	-48.285	22.210	-132.383	-126.092	-126.038	-118.313	-24.503	-118.904	-8191	255	
1454.111	1	1	0	0	0.23958	0.32094	0.047385	0.29614	0.20274	0.1908	0.23851	0.085922	0.051441	0.070916	0.12735	0.17002	0.1661	0.28823	0.24495	0.19119	-2.9437	-2.9979	-3.2021	-3.4	-3.0917	-3.4	-3.4188	-3.1167	-3.4667	-3.1375	-3.3604	-3.3125	-3.0938	-3.5125	-3.3354	-3.1979	92.504	75.959	-58.822	168.141	65.380	-95.166	137.929	-67.282	-133.037	71.116	151.762	103.987	144.653	-129.266	-3.294	207.836	0.00052299	0.00026163	7.2759e-05	1055.1	3.2018e-06	3.8598e-06	1108.3	219.29	6.6354e-06	3.3771e-06	275.36	78.952	62.144	18.192	3.6468e-06	26.007	0.00016679	0.00012912	3.6568e-05	1038	1.5306e-06	1.3187e-06	1100.9	218.34	1.5862e-06	1.3641e-06	274.07	79.123	61.922	18.362	1.3539e-06	26.331	97.953	-24.997	-53.875	-138.965	-29.000	-11.319	-139.328	-131.870	-16.067	-30.591	-132.251	-126.126	-126.731	-118.205	-29.509	-119.244	-8191	255	
1454.208	1	1	0	0	0.1535	0.20969	0.12342	0.35927	0.12747	0.23568	0.11725	0.18262	0.10685	0.28551	0.1286	0.13958	0.15203	0.28868	0.077592	0.19384	-2.9604	-3.0167	-3.0583	-3.3417	-3.0604	-3.2125	-3.3167	-3.1375	-3.3229	-3.1583	-3.0896	-3.2604	-3.1937	-3.6063	-3.4396	-2.9083	-83.599	163.797	-32.179	188.688	88.547	-122.878	126.773	-119.416	41.403	-149.094	100.599	176.950	107.260	-74.436	18.348	-19.062	0.00047231	0.00033973	8.0211e-05	1047	2.6072e-06	4.732e-06	1111.4	219.51	6.3018e-06	2.7742e-06	275	78.582	61.982	18.121	3.1771e-06	25.853	0.00017514	0.00012425	3.4195e-05	1037.2	1.4332e-06	1.3106e-06	1102.6	218.63	1.5146e-06	1.315e-06	273.77	78.773	61.924	18.385	1.3922e-06	26.319	101.065	-85.513	-47.970	-139.121	-6.690	8.320	-139.437	-131.840	-56.378	0.582	-132.427	-126.153	-126.490	-118.318	-29.539	-119.148	-8191	255	
1454.328	1	1	0	0	0.24338	0.08692	0.014283	0.063639	0.21947	0.11964	0.34909	0.037988	0.17611	0.12764	0.18064	0.11177	0.22229	0.11741	0.31876	0.10563	-2.8937	-3.175	-3	-3.3271	-3.1146	-3.0375	-3.3104	-3.1417	-3.4	-3.1667	-3.2062	-3.3167	-2.8458	-3.4083	-3.25	-3.0854	-77.273	130.417	-16.163	182.881	70.830	-110.727	155.956	78.483	-61.671	-40.435	-83.278	129.655	-126.311	78.222	20.756	116.571	0.00053544	0.00019779	7.1866e-05	1045.3	3.1461e-06	2.7138e-06	1105	218.17	1.7867e-06	2.0003e-06	272.51	78.718	61.805	18.139	3.68e-06	25.785	0.00016845	0.00012648	3.5987e-05	1036.8	1.4766e-06	1.3374e-06	1097.8	217.66	1.4923e-06	1.3086e-06	273.31	78.729	61.672	18.356	1.4258e-06	26.173	98.743	-64.459	-30.654	-139.124	-18.025	25.067	-139.206	-131.956	-59.745	29.872	-132.199	-126.276	-126.910	-118.556	-30.881	-118.716	-8191	255	
1454.424	1	1	0	0	0.059679	0.071053	0.20317	0.16682	0.069018	0.10778	0.12553	0.11161	0.084052	0.081992	0.2065	0.19268	0.1788	0.13987	0.11916	0.26983	-2.7708	-2.9417	-3.0938	-3.3021	-2.9875	-3.3792	-3.4167	-3.0104	-3.2438	-3.1208	-3.2062	-3.5521	-2.9188	-3.2917	-3.25	-3.0125	-144.779	-24.180	45.708	160.667	132.429	-145.594	117.917	-24.616	120.440	15.734	-144.793	193.351	105.636	-109.987	-14.793	-76.582	0.00052195	0.00031041	6.4333e-05	1038.7	2.9064e-06	1.667e-06	1093.9	216.58	8.3319e-06	1.4719e-06	272.58	77.999	61.259	17.879	2.1206e-06	25.567	0.00016947	0.00011881	3.247e-05	1025.4	1.3299e-06	1.2248e-06	1087.1	215.82	1.3696e-06	1.1607e-06	271.46	78.219	61.17	18.171	1.1855e-06	26.036	98.462	-71.062	-86.599	-139.262	-17.299	-10.369	-139.419	-131.740	-22.303	-2.700	-132.159	-126.159	-126.932	-118.514	-8.240	-118.859	-8191	255	
1454.521	1	1	0	0	0.16635	0.12355	0.13922	0.21696	0.028635	0.069613	0.12017	0.21253	0.10624	0.16914	0.18341	0.13942	0.16693	0.077205	0.2538	0.21758	-2.9417	-3.1958	-3.1437	-3.5687	-3.2667	-3.2104	-3.3479	-3.1146	-3.5812	-3.1083	-2.9958	-3.4479	-3.2708	-3.2229	-3.5708	-3.2458	167.971	81.922	-60.031	34.663	-34.385	-77.016	113.129	-58.899	29.729	-42.186	-39.761	-141.800	-127.552	129.430	150.987	-7.051	0.00053019	0.00031873	8.875e-05	1028.1	3.1852e-06	3.4907e-06	1086	215.79	6.0207e-06	2.2057e-06	271.18	76.875	61.329	17.789	4.3836e-06	25.301	0.00015541	0.00010664	2.9777e-05	1016.8	1.2497e-06	1.1081e-06	1078.3	214.75	1.2889e-06	1.093e-06	270.26	77.519	61.215	18.038	1.1433e-06	25.785	99.061	-75.914	-57.639	-138.949	-11.708	-6.490	-139.197	-132.033	-53.776	1.866	-132.297	-125.741	-126.197	-118.249	-52.632	-118.510	-8191	255	
1454.639	1	1	0	0	0.27008	0.13971	0.16301	0.16684	0.12963	0.059734	0.22838	0.037905	0.11885	0.054352	0.24676	0.3119	0.14285	0.16453	0.19254	0.10827	-2.95	-3.2146	-3.1562	-3.4042	-3.2875	-3.325	-3.5771	-3.1083	-3.3708	-3.2917	-2.9813	-3.3917	-2.8875	-3.0208	-3.325	-3.05	-31.075	-88.266	-64.632	0.176	-80.189	-54.001	160.819	118.024	46.335	-112.729	-129.133	120.491	187.310	26.540	-118.992	65.800	0.00053692	0.00039306	8.1359e-05	1024	2.1894e-06	2.4634e-06	1076.3	213.59	4.351e-06	3.8263e-06	270.16	76.47	60.152	17.823	3.0024e-06	25.179	0.00015386	0.00010421	3.0213e-05	1011.2	1.1748e-06	1.0817e-06	1071.4	212.79	1.2871e-06	1.1537e-06	268.58	76.877	60.285	17.9	1.1595e-06	25.562	99.846	-55.911	-72.496	-138.970	-28.284	-20.137	-139.253	-132.039	-44.714	0.478	-132.120	-126.133	-126.444	-118.188	-25.128	-119.120	-8191	255	
1454.711	1	1	0	0	0.041718	0.12044	0.078259	0.087914	0.23672	0.24879	0.1933	0.13239	0.035271	0.099075	0.12131	0.10671	0.20157	0.35144	0.071784	0.11297	-2.8812	-3.1021	-2.9313	-3.3083	-3.2	-3.1125	-3.375	-3.025	-2.9417	-3.1583	-2.9708	-3.1937	-3.3146	-3.2438	-3.4625	-2.9917	-23.434	7.307	-141.236	102.158	-73.011	205.491	137.524	-132.876	-49.315	-36.879	209.037	-119.396	191.496	176.932	-55.491	-67.470	0.00052317	0.00026956	9.9826e-05	1021.2	1.3344e-06	2.4738e-06	1073.4	212.17	5.6744e-06	3.2959e-06	268.75	76.594	60.113	17.719	1.7441e-06	25.132	0.00014914	0.00010157	2.7804e-05	1002.1	1.1595e-06	1.0699e-06	1065.2	211.55	1.3034e-06	1.0413e-06	267.68	76.71	59.851	17.821	1.1059e-06	25.578	99.340	-49.952	-56.228	-138.829	1.095	0.371	-139.302	-131.758	-54.890	-30.279	-132.107	-125.839	-126.727	-118.025	-45.852	-118.830	-8191	255	
1454.809	1	1	0	0	0.086119	0.073079	0.18921	0.36365	0.14156	0.013505	0.20912	0.27622	0.037635	0.23163	0.13018	0.22906	0.26467	0.22485	0.17735	0.22767	-2.8583	-3.2771	-2.9958	-3.3771	-3.3854	-3.2875	-3.5833	-3.2833	-3.0458	-3.3958	-3.1604	-3.3792	-3.4188	-3.0646	-3.5938	-3.2062	-112.523	-117.258	58.939	161.586	194.991	31.547	118.515	72.232	136.858	161.195	125.143	187.908	150.976	-68.270	-134.229	-32.210	0.00047546	0.00034322	7.0094e-05	1008.9	2.8104e-06	2.4533e-06	1068.5	212.96	5.8874e-06	9.979e-07	269.88	75.912	59.605	17.687	3.5824e-06	25.357	0.00014955	9.9773e-05	2.9069e-05	1000	1.175e-06	1.0711e-06	1060.8	211.43	1.2871e-06	1.0429e-06	267.65	76.527	59.757	17.826	1.1168e-06	25.631	100.639	-57.195	-73.332	-139.182	-43.687	-20.207	-138.812	-131.911	-29.338	-23.088	-132.018	-125.980	-126.060	-118.378	-21.207	-118.879	-8191	255	
1454.928	1	1	0	0	0.078977	0.048763	0.12988	0.24526	0.060688	0.17624	0.14705	0.36837	0.095747	0.11266	0.18797	0.070367	0.12062	0.087617	0.18423	0.11917	-2.7792	-3.4042	-3.1813	-3.3125	-3.4562	-3.1354	-3.5917	-3.2708	-3.2667	-3.5187	-3.2	-3.5083	-3.5021	-3.1292	-3.4167	-3.2333	27.573	-120.283	-66.269	-138.403	-109.239	201.158	102.336	198.637	48.503	190.411	111.590	-15.331	56.587	-33.024	159.816	-94.662	0.00055304	0.00013114	4.3446e-05	1014.2	4.074e-06	3.6415e-06	1070.2	211.84	3.8149e-06	2.8377e-06	267.99	76.755	61.082	17.633	3.2267e-06	25.142	0.00015292	0.00010183	2.8367e-05	1000.1	1.2694e-06	1.0994e-06	1063	211.13	1.3177e-06	1.1408e-06	267.07	76.789	60.305	17.89	1.2045e-06	25.573	100.473	-78.389	-39.662	-138.882	-11.464	4.150	-139.131	-131.931	-36.529	2.816	-132.192	-125.867	-125.840	-118.607	-13.180	-119.160	-8191	255	
1455.024	1	1	0	0	0.16491	0.23621	0.12215	0.094918	0.29332	0.077495	0.14556	0.025252	0.44809	0.084609	0.1475	0.058907	0.12504	0.073669	0.29019	0.3745	-2.8688	-3.3812	-3.0896	-3.3229	-3.3208	-3.0917	-3.3896	-3.1312	-2.9229	-3.3312	-3.0833	-3.2083	-3.3271	-2.9146	-3.3104	-3.3521	1.335	170.108	208.184	195.330	172.783	-140.130	106.020	-135.224	159.653	-10.241	81.390	-85.017	-0.291	173.514	-9.513	-84.931	0.00052425	0.00034994	7.0995e-05	1015.9	3.2849e-06	2.9299e-06	1071.4	211.53	4.9123e-06	2.477e-06	268.72	76.412	60.692	17.865	2.0774e-06	25.375	0.00015347	0.000103	2.8621e-05	1001.6	1.1665e-06	1.1593e-06	1065.6	211.54	1.4168e-06	1.1832e-06	267.95	76.89	60.277	18.007	1.2388e-06	25.782	97.748	-58.058	-79.280	-138.999	-18.785	-11.615	-139.131	-132.211	-13.431	-9.881	-132.228	-126.193	-126.754	-118.431	-0.091	-118.707	-8191	255	
1455.120	1	1	0	0	0.051065	0.21831	0.27318	0.21264	0.16407	0.15342	0.28275	0.13897	0.19535	0.11509	0.33753	0.1402	0.28024	0.073516	0.3716	0.2338	-2.7396	-3.3812	-3.2396	-3.3312	-3.4437	-3.2458	-3.4667	-3.3063	-3.1042	-3.3167	-3.0458	-3.1688	-3.3812	-2.9708	-3.3958	-3.4104	206.254	-24.593	186.287	-109.272	107.085	-47.273	42.084	-55.119	197.801	-81.187	168.307	163.347	105.337	-97.590	88.813	121.805	0.00053773	0.00013157	6.1163e-05	1026.6	3.0208e-06	3.6831e-06	1087.5	215.77	4.8174e-06	2.4185e-06	271.34	77.055	61.098	17.823	3.3195e-06	25.721	0.00015336	0.00010597	2.9317e-05	1013.3	1.2397e-06	1.1972e-06	1076.1	213.02	1.3027e-06	1.1164e-06	269.71	77.49	60.676	18.037	1.2289e-06	26.001	99.338	-77.103	-65.952	-139.062	-66.173	5.415	-139.097	-131.812	-42.267	13.797	-131.905	-126.350	-126.879	-118.697	-53.160	-119.043	-8191	255	
1455.241	1	1	0	0	0.10294	0.075955	0.19051	0.07638	0.11085	0.082966	0.0066239	0.081979	0.17357	0.066359	0.31004	0.22865	0.23926	0.13403	0.11535	0.082203	-2.5521	-3.3042	-3.1437	-3.1958	-3.6146	-3.1042	-3.4458	-3.3812	-3.1646	-3.3167	-3.2458	-3.0729	-3.3229	-3.0187	-3.1271	-3.3292	178.516	81.646	139.354	97.468	-37.089	-1.108	56.321	3.492	115.860	113.471	180.654	-87.126	171.003	-78.526	-32.128	151.831	0.00050537	0.00016827	8.674e-05	1027.7	1.7564e-06	3.1846e-06	1092.6	215.34	5.3898e-06	3.044e-06	270.67	77.657	61.562	17.977	4.1892e-06	25.73	0.00015601	0.00010547	3.0043e-05	1016.6	1.268e-06	1.2044e-06	1082.2	213.91	1.4313e-06	1.1561e-06	270.2	77.829	60.874	18.18	1.3488e-06	26.031	97.485	-53.127	-50.223	-139.107	-25.351	33.879	-139.107	-131.995	-20.701	4.269	-132.488	-126.390	-126.202	-118.750	-29.481	-119.001	-8191	255	
1455.312	1	1	0	0	0.022094	0.1417	0.27274	0.15729	0.20827	0.072807	0.10742	0.073627	0.1663	0.073772	0.28604	0.053352	0.17197	0.19907	0.062793	0.072043	-2.5708	-3.3854	-3.2708	-3.0854	-3.3917	-3.1729	-3.2479	-3.3708	-2.9667	-3.3063	-3.225	-3.2021	-3.2896	-3.2042	-3.15	-3.5604	-99.336	81.917	69.452	29.812	-69.871	74.049	110.917	-122.467	-138.475	85.871	-60.731	107.728	203.142	111.224	160.866	71.721	0.00050234	0.00035897	0.0001065	1036.8	4.3607e-06	2.5677e-06	1094.2	214.69	2.2683e-06	3.5781e-06	270.95	77.767	61.302	18.029	3.2526e-06	25.569	0.00016552	0.00011359	3.3027e-05	1022.3	1.3825e-06	1.2277e-06	1086	214.34	1.505e-06	1.2669e-06	270.83	78.022	61.011	18.217	1.4112e-06	26.042	98.105	-64.171	-74.609	-139.187	-45.511	27.139	-139.171	-131.837	-43.018	4.868	-132.148	-126.221	-126.178	-117.939	-37.247	-118.884	-8191	255	
1455.409	1	1	0	0	0.26395	0.20362	0.10462	0.11439	0.1877	0.16917	0.10681	0.20807	0.26298	0.17889	0.31812	0.30756	0.17286	0.2263	0.068712	0.15187	-2.5083	-3.2	-3.2896	-3.2417	-3.4646	-3.0146	-2.9958	-3.2833	-3.1188	-3.3458	-3.2562	-3.0333	-3.6646	-3.375	-3.4188	-3.475	82.336	-20.490	6.539	105.553	-15.508	-87.780	-58.751	-112.740	76.572	-44.866	135.149	-129.836	-133.014	-64.813	107.975	-128.102	0.00050977	0.00015447	0.00011293	1036	3.6922e-06	3.9721e-06	1093.9	216.28	5.9959e-06	2.0606e-06	272.76	77.893	61.442	18.234	3.2246e-06	26.1	0.00017693	0.00011736	3.224e-05	1024.1	1.3584e-06	1.3123e-06	1087.2	215.56	1.4751e-06	1.2887e-06	271.88	78.086	61.379	18.297	1.3845e-06	26.161	97.237	-29.302	-76.364	-139.344	-36.376	14.337	-139.239	-132.035	-52.115	-22.848	-131.996	-126.165	-125.741	-118.065	-11.193	-119.110	-8191	255	
1455.529	1	1	0	0	0.19349	0.060948	0.067874	0.11565	0.13855	0.072378	0.17421	0.096235	0.048836	0.077896	0.10398	0.24716	0.20477	0.20999	0.039993	0.11474	-2.5062	-3.1958	-3.3646	-3.0833	-3.4625	-3.1333	-3.2542	-3.5146	-3.1375	-3.4917	-3.4042	-3.1708	-3.4333	-3.2	-3.0438	-3.4292	193.905	-24.336	171.934	60.088	-8.401	37.413	-127.642	-140.200	-63.361	-10.421	190.962	156.792	151.131	-7.058	-138.642	192.381	0.00050944	0.00029287	6.6253e-05	1050.3	2.9038e-06	2.7451e-06	1108.8	218.93	6.0427e-06	2.546e-06	274.38	77.819	61.368	18.02	1.2289e-06	25.783	0.00017108	0.00012759	3.2428e-05	1028.7	1.4305e-06	1.3432e-06	1093.6	216.51	1.571e-06	1.4074e-06	272.8	78.44	61.441	18.322	1.4604e-06	26.226	90.664	-79.392	-62.629	-138.959	-31.531	7.418	-139.245	-131.776	-26.182	-33.639	-132.283	-125.726	-126.258	-118.396	9.729	-119.148	-8191	255	
1455.624	1	1	0	0	0.063121	0.11704	0.12836	0.066776	0.24259	0.1044	0.15708	0.098899	0.092472	0.16027	0.13026	0.1886	0.16388	0.044034	0.051594	0.048781	-2.5938	-3.2625	-3.3438	-2.7833	-3.2521	-3.3833	-3.2521	-3.5396	-3.3312	-3.1188	-3.3896	-2.9917	-3.2042	-3.1792	-2.7604	-3.3875	-139.303	-68.152	-60.166	52.285	-10.408	100.397	112.401	49.510	169.580	-8.215	-62.919	179.270	-79.994	-76.969	7.018	-87.592	0.00047057	0.00032981	0.00012223	1041.8	1.9699e-06	2.4068e-06	1104.6	216.68	4.4207e-06	3.7323e-06	273.57	78.563	62.008	18.332	2.6818e-06	26.016	0.00017181	0.00013317	3.805e-05	1030.4	1.4856e-06	1.3892e-06	1095.6	216.54	1.5597e-06	1.4215e-06	273.54	78.76	61.815	18.438	1.4191e-06	26.317	98.736	-52.802	-70.767	-139.357	-43.426	13.452	-139.213	-131.923	-55.207	23.171	-132.235	-126.278	-126.014	-118.291	-21.049	-118.503	-8191	255	
1455.720	1	1	0	0	0.07284	0.16088	0.042731	0.19659	0.15052	0.3328	0.14233	0.25399	0.18473	0.08901	0.13982	0.20032	0.24216	0.16735	0.13233	0.14784	-2.7	-2.9542	-3.2229	-3	-3.2812	-3.2375	-3.1333	-3.4333	-3.2979	-3.1458	-3.6188	-3.1042	-3.375	-3.2417	-2.8979	-3.4083	2.987	80.776	-5.049	-53.595	102.021	-31.166	-71.027	160.599	-126.885	-76.241	-121.323	88.421	-44.515	-119.748	-122.672	111.243	0.00052442	0.00030665	6.9644e-05	1049.2	2.0489e-06	3.5648e-06	1105.9	218.76	5.3893e-06	3.4722e-06	274.55	78.421	61.712	18.194	3.1418e-06	25.975	0.00017257	0.00013001	3.2942e-05	1036.1	1.5361e-06	1.4362e-06	1098.7	217.44	1.5223e-06	1.4321e-06	273.83	78.883	61.835	18.407	1.4548e-06	26.383	100.179	-61.082	-25.034	-139.369	-9.734	13.792	-139.523	-132.068	-25.122	4.887	-132.646	-126.220	-126.491	-118.708	0.080	-119.247	-8191	255	
1455.816	1	1	0	0	0.16361	0.25894	0.13077	0.27086	0.022499	0.15201	0.16499	0.33741	0.20803	0.038384	0.063332	0.23486	0.11164	0.084044	0.16174	0.23046	-2.7438	-3.0104	-3.2896	-3.2604	-3.2042	-3.4833	-3.2687	-3.4167	-3.4146	-3.2792	-3.4083	-3.0312	-3.2354	-3.5604	-3.0167	-3.3312	-125.326	113.703	-10.165	16.244	-45.959	115.559	116.930	103.627	56.941	20.021	-26.242	147.998	-79.437	58.240	38.169	-35.557	0.00054918	0.00027293	8.2844e-05	1048.4	4.1193e-06	3.4584e-06	1104.5	218.95	5.9698e-06	2.3813e-06	274.58	78.255	62.193	18.286	3.1806e-06	25.909	0.00018023	0.00013016	3.753e-05	1038.3	1.5996e-06	1.3223e-06	1100.4	218.06	1.5949e-06	1.5163e-06	274.62	79.049	62.135	18.49	1.5632e-06	26.467	95.760	-46.336	-56.261	-139.263	-33.685	10.382	-139.223	-132.120	-56.787	-37.533	-132.637	-126.618	-126.422	-118.232	-21.426	-119.144	-8191	255	
1455.912	1	1	0	0	0.20919	0.17585	0.22118	0.0063535	0.23193	0.1171	0.2492	0.22734	0.15171	0.21383	0.11845	0.24288	0.10688	0.084398	0.11392	0.094838	-2.8125	-3.2792	-3.4292	-3.2062	-3.1063	-3.45	-3.3229	-3.4417	-3.3958	-3.1458	-3.5375	-3.2687	-3.3521	-3.3875	-3	-3.2792	102.109	-130.572	-69.678	23.439	-107.184	185.194	97.794	123.242	133.570	118.251	104.448	40.934	-84.839	49.628	-98.443	169.496	0.00053601	0.00024276	6.8658e-05	1052.1	3.5143e-06	1.0896e-06	1104.1	220.96	6.0674e-06	6.2095e-06	276.21	79.23	62.824	18.352	3.4918e-06	26.141	0.00017564	0.00013159	3.7808e-05	1038.9	1.6152e-06	1.4292e-06	1102.3	219.22	1.6268e-06	1.5981e-06	275.8	79.389	62.365	18.55	1.5938e-06	26.502	94.855	-46.115	-85.767	-139.188	23.620	-1.269	-139.326	-131.888	-63.212	-46.055	-132.086	-126.104	-126.645	-118.821	-32.279	-118.847	-8191	255	
1456.008	1	1	0	0	0.10941	0.2301	0.040275	0.11034	0.22084	0.030434	0.16047	0.12484	0.10629	0.16523	0.28516	0.033876	0.16795	0.16763	0.13382	0.13474	-3.0625	-3.0687	-3.3292	-3.4688	-3.2812	-3.3271	-3.2438	-3.3083	-3.4188	-2.8479	-3.2667	-3.1813	-2.9708	-3.5375	-3.1271	-3.3104	201.830	10.139	103.190	-132.476	-80.880	183.863	191.886	106.716	92.504	161.520	-108.087	78.044	88.380	157.122	102.836	-68.103	0.00053516	0.00034998	8.7956e-05	1058.1	3.9121e-06	3.067e-06	1117.1	220.52	3.8437e-06	3.0708e-06	277.74	79.36	62.397	18.45	2.1361e-06	26.077	0.00018308	0.00013172	3.7094e-05	1044.2	1.6036e-06	1.4103e-06	1106.6	219.79	1.6067e-06	1.5074e-06	275.73	79.556	62.443	18.605	1.5641e-06	26.593	100.880	-34.127	-54.465	-138.942	-22.111	18.395	-139.191	-131.877	-29.506	-6.537	-132.347	-126.082	-126.026	-118.565	-2.692	-119.203	-8191	255	
1456.104	1	1	0	0	0.24126	0.18739	0.05154	0.19261	0.077736	0.13837	0.25502	0.1164	0.13751	0.019758	0.20679	0.10772	0.11764	0.17597	0.24413	0.046439	-2.7896	-3.0021	-3.3354	-3.4021	-3.2313	-3.3958	-3.3563	-3.175	-3.3208	-3.0354	-3.4083	-3.3146	-3.0458	-3.3104	-3.2375	-3.2667	191.440	-148.926	-59.124	192.597	-102.547	61.852	106.435	64.470	8.331	-63.641	124.713	130.758	-114.370	115.332	4.464	112.438	0.00061497	0.00035916	8.2395e-05	1064.9	2.0365e-06	1.9157e-06	1118.2	220.57	6.2811e-06	2.9915e-06	276.48	79.157	62.436	18.383	3.7987e-06	26.16	0.0001776	0.0001379	3.7772e-05	1045.7	1.5869e-06	1.4678e-06	1109	220.05	1.6366e-06	1.4945e-06	276.25	79.5	62.316	18.657	1.572e-06	26.619	96.223	-43.576	-66.671	-139.170	-67.638	41.799	-139.216	-132.230	-37.507	15.431	-132.479	-126.269	-126.366	-118.521	10.274	-119.001	-8191	255	
1456.201	1	1	0	0	0.1068	0.13078	0.43753	0.066887	0.22598	0.23096	0.14328	0.32416	0.20905	0.1755	0.22067	0.33062	0.27716	0.11819	0.081495	0.029079	-3.0771	-3.0312	-3.1562	-3.1896	-3.0479	-3.2604	-3.2771	-3.0521	-3.3646	-2.9271	-3.3208	-3.2417	-2.8625	-3.2542	-3.1625	-2.9979	-32.998	-23.840	-121.927	186.992	32.420	60.541	144.678	127.524	132.543	-83.300	159.647	179.672	-33.707	-51.310	52.110	135.597	0.0005842	0.00038708	5.8282e-05	1061.1	2.1825e-06	1.1265e-06	1112.4	221.38	5.4561e-06	2.1938e-06	277	78.964	62.289	18.401	3.5042e-06	26.202	0.00018456	0.00014134	3.8329e-05	1046.6	1.5987e-06	1.5208e-06	1109.7	220.05	1.6699e-06	1.5354e-06	276.93	79.631	62.522	18.646	1.5388e-06	26.676	97.212	-55.229	-46.434	-139.443	-28.120	-11.097	-139.568	-132.065	-37.786	-21.502	-132.479	-126.484	-126.312	-118.677	-33.519	-119.201	-8191	255	
1456.321	1	1	0	0	0.056615	0.091805	0.26069	0.026725	0.10611	0.084921	0.32903	0.32483	0.12384	0.15235	0.071721	0.25931	0.20401	0.1423	0.095517	0.035397	-2.7938	-2.9083	-3.1188	-3.3375	-3.0146	-3.3375	-3.5042	-3.1979	-3.5521	-3.0292	-3.2896	-3.5271	-3.1104	-3.4938	-3.4354	-3.1646	-109.921	-89.905	184.957	183.346	156.013	-69.840	98.812	173.841	-142.397	206.928	131.917	-68.556	147.786	106.538	129.280	204.997	0.00056411	0.00022353	7.1898e-05	1054.3	3.4624e-06	3.8337e-06	1124.8	222.21	7.9259e-06	3.0441e-06	276.32	79.595	62.851	18.37	3.4209e-06	26.053	0.00019172	0.0001371	3.8825e-05	1046.4	1.6465e-06	1.5321e-06	1112.8	220.77	1.5826e-06	1.5362e-06	276.68	79.818	62.695	18.675	1.4718e-06	26.586	100.380	-46.843	-56.144	-139.161	-2.520	20.102	-139.314	-131.886	-54.335	3.289	-132.216	-126.191	-126.711	-118.326	-4.786	-119.114	-8191	255	
1456.416	1	1	0	0	0.046176	0.20083	0.056115	0.038643	0.22086	0.26535	0.20393	0.246	0.082014	0.1416	0.13663	0.17306	0.01026	0.17854	0.2108	0.31223	-3.1583	-3.2583	-3.2375	-3.4938	-3.1146	-3.375	-3.5604	-3.1271	-3.1937	-3.1646	-3.2917	-3.5312	-3.125	-3.4396	-3.2646	-3.175	198.444	-47.354	99.913	-120.393	-59.491	178.367	91.951	163.215	-70.044	-8.711	-10.971	193.287	72.532	-78.302	17.517	20.656	0.00054504	0.00017386	7.8776e-05	1059.6	4.7543e-06	3.6357e-06	1119.9	220.42	6.1688e-06	2.9437e-06	277.14	78.807	62.583	18.358	2.7311e-06	25.885	0.00018741	0.00014292	3.8734e-05	1049.2	1.6402e-06	1.545e-06	1114.9	220.69	1.7026e-06	1.5567e-06	277.46	79.828	62.791	18.677	1.5982e-06	26.602	98.162	-64.900	-28.357	-139.338	-27.186	-8.620	-139.600	-132.144	-29.250	-4.981	-132.304	-126.206	-126.737	-118.363	-26.181	-119.235	-8191	255	
1456.512	1	1	0	0	0.17776	0.13531	0.20263	0.42776	0.05199	0.15779	0.17442	0.077191	0.12081	0.17386	0.058175	0.11411	0.21988	0.064574	0.081204	0.042562	-3.1021	-3.15	-2.9396	-3.4146	-2.9188	-3.2958	-3.4729	-3.2042	-3.5104	-3.3688	-3.2708	-3.2479	-2.9813	-3.2292	-3.3271	-3.0771	-18.350	-59.559	195.816	-96.885	66.759	156.657	65.684	130.051	-22.044	-44.342	199.940	158.034	42.925	-49.077	140.021	144.158	0.00056337	0.00023312	6.7106e-05	1052.6	3.4853e-06	2.7606e-06	1114.8	220.39	3.4505e-06	2.918e-06	275.23	79.414	62.052	18.338	3.4347e-06	25.826	0.00018064	0.00014093	3.9909e-05	1047.1	1.675e-06	1.5774e-06	1111.5	221.06	1.689e-06	1.5177e-06	276.86	79.856	62.468	18.691	1.5845e-06	26.594	103.940	-76.524	-65.451	-139.245	-39.224	6.274	-139.650	-132.130	-62.338	6.121	-132.669	-126.580	-126.620	-119.123	-17.373	-118.910	-8191	255	
1456.610	1	1	0	0	0.14203	0.11196	0.13889	0.19105	0.20232	0.11594	0.28656	0.084604	0.041398	0.062616	0.1222	0.073831	0.14129	0.16697	0.16667	0.19468	-2.9958	-3.1063	-3.1417	-3.5667	-3.2604	-3.4083	-3.5396	-3.2375	-3.6208	-3.4437	-3.3604	-3.525	-3.3479	-3.1479	-3.4521	-3.1146	134.238	126.978	-65.702	115.577	24.077	114.808	141.046	61.842	63.666	37.169	102.298	111.291	-79.333	-116.604	20.725	139.040	0.00054661	0.00030427	0.00010622	1064.1	3.1993e-06	4.4541e-06	1114.3	221	4.9672e-06	2.3557e-06	277.75	79.353	62.418	18.548	3.7073e-06	26.046	0.00018695	0.00013324	4.0393e-05	1052.1	1.5732e-06	1.5668e-06	1111.9	221.19	1.6221e-06	1.534e-06	277.46	79.778	62.673	18.704	1.5964e-06	26.672	96.551	-56.407	-50.274	-139.181	-32.946	27.990	-139.309	-131.905	-22.491	-3.505	-132.405	-126.412	-126.490	-118.668	11.481	-119.041	-8191	255	
1456.704	1	1	0	0	0.28454	0.1044	0.1189	0.27496	0.10937	0.032247	0.23116	0.3027	0.067278	0.21563	0.078648	0.16639	0.13633	0.090639	0.14618	0.33112	-2.8875	-3.3104	-3.0542	-3.4646	-3.0833	-3.0708	-3.4958	-3.1958	-3.3438	-3.3833	-3.3146	-3.6646	-3.1896	-3.1	-3.4042	-3.075	-26.024	124.962	88.892	165.408	-144.579	-59.396	177.644	114.882	-55.704	-22.340	-70.688	71.622	192.304	60.041	68.313	206.294	0.0005276	0.00033915	6.7728e-05	1059	2.6516e-06	2.9064e-06	1115.8	220.24	5.0635e-06	3.3388e-06	275.41	78.78	62.938	18.369	3.3321e-06	26.004	0.00018557	0.0001405	3.8886e-05	1049.5	1.5795e-06	1.5661e-06	1115.2	220.86	1.672e-06	1.4715e-06	276.84	80.022	62.862	18.706	1.6128e-06	26.713	98.927	-66.237	-49.087	-139.129	-41.746	-41.405	-139.483	-132.360	-48.056	2.410	-132.379	-126.514	-126.655	-119.045	-28.937	-118.947	-8191	255	
1456.800	1	1	0	0	0.063293	0.1705	0.25997	0.13919	0.19691	0.16215	0.27856	0.3587	0.11166	0.09916	0.15543	0.028545	0.16141	0.18226	0.10048	0.13463	-2.8125	-3.3229	-3.1437	-3.4062	-3.2271	-3.0312	-3.5062	-3.1958	-3.2438	-3.3771	-3.3229	-3.4938	-3.3729	-3.1146	-3.5062	-3.1458	73.246	-58.139	148.238	-136.430	-53.480	198.278	173.387	181.343	41.395	-38.442	3.392	70.500	186.265	192.072	-67.259	0.754	0.00054182	6.7997e-05	9.2935e-05	1060	1.9538e-06	3.7998e-06	1122	221.9	5.9341e-06	2.5084e-06	276.11	79.594	62.656	18.574	4.2578e-06	26.258	0.00019083	0.00014691	4.1307e-05	1053.6	1.6784e-06	1.6668e-06	1117.3	221.3	1.713e-06	1.6728e-06	277.75	80.061	62.722	18.765	1.6722e-06	26.773	92.082	-89.826	-73.271	-139.433	-18.857	-23.435	-139.550	-132.271	-23.141	10.758	-132.076	-126.524	-126.533	-118.700	3.401	-119.053	-8191	255	
1456.921	1	1	0	0	0.029728	0.16507	0.12601	0.15321	0.21106	0.18455	0.17298	0.092346	0.10897	0.25488	0.1808	0.29412	0.19459	0.10982	0.035085	0.10317	-2.65	-3.3083	-3.1188	-3.25	-3.2938	-3.1854	-3.3875	-3.1146	-3.0833	-3.2104	-2.9396	-3.1792	-3.3521	-3.1063	-3.2896	-3.2125	-68.443	53.426	123.551	165.073	-116.372	190.715	-148.420	-35.751	190.091	202.435	-81.746	100.212	-77.890	-76.090	176.147	70.425	0.00054901	0.00029684	7.8904e-05	1068.2	5.1297e-06	2.9641e-06	1123.1	222.96	5.6656e-06	2.8959e-06	277.9	80.283	62.842	18.445	2.2952e-06	26.188	0.00019578	0.00015128	4.2305e-05	1055.3	1.7248e-06	1.6193e-06	1117.9	222.02	1.7677e-06	1.5938e-06	278.17	80.228	62.958	18.758	1.6769e-06	26.724	105.500	-61.458	-77.289	-139.204	-51.971	-45.853	-139.428	-132.207	-66.786	5.744	-132.312	-126.247	-126.514	-118.493	31.171	-119.192	-8191	255	
1457.017	1	1	0	0	0.082375	0.23048	0.23441	0.071343	0.28868	0.14932	0.13998	0.15594	0.1734	0.18042	0.13311	0.30858	0.13682	0.19248	0.096254	0.070956	-2.7271	-3.5042	-3.1104	-3.4479	-3.3646	-3.2542	-3.5938	-3.2875	-3.1771	-3.3917	-3.0458	-3.2458	-3.2021	-2.9437	-3.2792	-3.3083	-93.972	175.773	72.148	-113.295	66.206	-22.125	155.210	104.293	194.485	0.881	203.006	-90.517	16.593	175.748	157.988	141.234	0.00055089	0.00014513	0.00010977	1060.4	2.9235e-06	3.9463e-06	1125.1	221.87	5.5311e-06	1.5308e-06	277.17	79.984	62.662	18.482	2.9906e-06	26.131	0.00019097	0.00014914	4.2638e-05	1054.7	1.7176e-06	1.5824e-06	1119.2	221.8	1.8491e-06	1.5491e-06	277.55	80.326	62.922	18.724	1.7302e-06	26.745	103.714	-50.469	-59.524	-139.286	-49.169	2.795	-139.363	-132.184	-34.987	10.357	-132.268	-126.273	-126.430	-118.744	-5.003	-119.106	-8191	255	
1457.113	1	1	0	0	0.21296	0.15369	0.29845	0.23172	0.14485	0.12003	0.18347	0.14676	0.20981	0.038997	0.040654	0.057868	0.19728	0.16487	0.13296	0.052827	-2.8021	-3.4688	-3.2208	-3.1937	-3.2646	-2.8812	-3.4021	-3.4083	-3.1458	-3.3667	-3.2833	-3.3104	-3.3979	-3.0187	-3.3937	-3.3937	171.114	25.513	-55.426	205.410	153.710	-4.456	186.841	185.178	-50.014	113.949	15.947	190.999	-84.760	-119.382	21.191	-98.881	0.00053323	0.00041752	7.3113e-05	1066.1	4.0486e-06	1.6698e-06	1124.6	221.99	6.9074e-06	3.5302e-06	278.7	79.23	63.014	18.384	2.6285e-06	26.229	0.00019822	0.000151	4.1658e-05	1056.3	1.741e-06	1.6914e-06	1119.6	222.01	1.8711e-06	1.6395e-06	278.13	80.016	63.093	18.751	1.6516e-06	26.779	104.487	-32.936	-36.969	-139.482	-23.299	11.570	-139.442	-132.407	-49.304	4.711	-132.487	-126.419	-127.109	-118.406	-33.135	-119.077	-8191	255	
1457.185	1	1	0	0	0.043153	0.071588	0.12818	0.23466	0.1004	0.18983	0.23455	0.11284	0.18019	0.043124	0.23423	0.11535	0.25329	0.162	0.20079	0.26128	-2.7375	-3.4958	-2.9396	-3.0312	-3.5687	-3.1625	-3.3792	-3.5438	-3.1437	-3.5187	-3.2	-3.2521	-3.4062	-3.2479	-3.1437	-3.2188	-39.699	151.646	-67.805	-120.546	53.413	-34.540	136.598	-144.533	-21.235	53.438	107.503	-139.788	20.820	187.742	166.568	152.119	0.00058073	0.00040149	0.00010222	1067.8	2.6274e-06	3.1537e-06	1123.5	223.05	6.8076e-06	1.4903e-06	279.22	80.105	62.903	18.49	2.2327e-06	26.349	0.00019786	0.00015187	4.2426e-05	1056.4	1.6611e-06	1.638e-06	1119.7	222.38	1.8462e-06	1.6355e-06	278.63	80.45	63.18	18.727	1.7901e-06	26.828	97.837	-61.931	-62.359	-139.342	-21.168	22.996	-139.420	-132.597	-56.868	-30.899	-131.983	-126.192	-126.479	-118.446	-14.797	-119.008	-8191	255	
1457.305	1	1	0	0	0.061489	0.30914	0.089669	0.16329	0.14426	0.052048	0.30519	0.25184	0.17756	0.12944	0.34394	0.14612	0.24417	0.13022	0.048234	0.16449	-2.6833	-3.3208	-3.2375	-3.1312	-3.275	-3.1625	-3.2271	-3.3833	-3	-3.25	-3.2708	-3.2917	-3.3917	-3.1292	-3.3479	-3.5167	-36.570	157.151	-18.238	-101.735	62.897	192.589	166.317	111.656	-42.291	116.244	155.248	155.475	73.249	170.261	164.009	78.350	0.00058204	0.00031658	2.5174e-05	1067.9	3.9452e-06	1.5719e-06	1129.3	223.82	4.7469e-06	3.7202e-06	279.8	80.01	63.042	18.433	3.3153e-06	26.467	0.0001976	0.00014686	4.3219e-05	1056.2	1.745e-06	1.6895e-06	1122.6	222.86	1.8128e-06	1.7774e-06	278.91	80.361	63.065	18.763	1.8174e-06	26.846	95.598	-42.625	-41.063	-139.433	-20.867	11.172	-139.368	-132.348	-34.125	6.546	-132.506	-126.274	-126.225	-118.675	-4.401	-118.876	-8191	255	
1457.402	1	1	0	0	0.17237	0.27034	0.042264	0.21841	0.15537	0.25819	0.22762	0.19742	0.14409	0.1666	0.16723	0.27715	0.089413	0.089301	0.18823	0.093032	-2.5729	-3.5229	-3.3875	-3.025	-3.4688	-3.1479	-3.4458	-3.4021	-3.1625	-3.3958	-3.4437	-2.9875	-3.5375	-3.1146	-3.2146	-3.3604	177.688	27.320	22.369	98.296	127.806	28.379	208.220	181.187	198.835	-39.139	170.954	-91.408	123.926	-126.833	37.317	-106.629	0.00052224	0.00026102	0.00010319	1072.1	1.9678e-06	3.5577e-06	1129.3	223.92	5.5916e-06	1.7498e-06	280.26	79.561	63.168	18.531	3.1045e-06	26.361	0.0002018	0.00015109	4.2644e-05	1058.4	1.7582e-06	1.6536e-06	1119.8	222.72	1.8235e-06	1.7113e-06	279.1	80.115	63.176	18.757	1.6984e-06	26.843	100.591	-30.399	-62.683	-139.154	-38.815	10.178	-139.399	-132.052	-55.574	-0.195	-132.384	-126.037	-126.394	-118.618	-26.052	-118.907	-8191	255	
1457.498	1	1	0	0	0.24079	0.086312	0.22216	0.063364	0.18608	0.18161	0.18603	0.087626	0.25984	0.1167	0.14055	0.15373	0.047834	0.050336	0.30134	0.14129	-2.5667	-3.1354	-3.2542	-3.1312	-3.3417	-3.1875	-3.4333	-3.4229	-3.0542	-3.3083	-3.375	-2.9708	-3.5229	-3.1271	-3.1604	-3.5479	-21.201	-111.552	102.990	59.238	-40.997	102.181	195.990	195.384	62.510	-105.967	98.468	52.240	59.110	159.165	189.096	-102.186	0.00062498	0.00034591	3.8631e-05	1074.5	4.1538e-06	2.3016e-06	1128.2	223.37	6.3616e-06	1.444e-06	280.66	80.353	63.268	18.609	2.5363e-06	26.382	0.00019516	0.00015302	4.383e-05	1057.3	1.7213e-06	1.7473e-06	1120.5	222.86	1.8137e-06	1.6958e-06	279.48	80.413	63.189	18.837	1.7785e-06	26.899	94.656	-39.964	-56.011	-139.168	-19.273	8.823	-139.308	-132.205	-41.230	-3.188	-132.339	-126.056	-126.540	-118.448	-11.453	-118.768	-8191	255	
1457.592	1	1	0	0	0.20746	0.21847	0.091161	0.082101	0.14481	0.22612	0.11133	0.22013	0.38946	0.18902	0.21839	0.20834	0.058529	0.017706	0.0098615	0.10925	-2.6271	-3.075	-3.4083	-3.2792	-3.3583	-3.3354	-3.2917	-3.6417	-3.1583	-3.3229	-3.4313	-3.0438	-3.2458	-3.3937	-3.0021	-3.3896	-108.823	-46.502	-83.769	165.054	74.779	119.657	107.950	187.500	-97.358	118.129	129.923	117.549	44.514	-36.238	-72.320	126.827	0.00050044	0.0003806	6.1078e-05	1077.1	3.8872e-06	2.163e-06	1130.2	224.73	7.575e-06	3.365e-06	280.64	80.134	63.48	18.513	1.7451e-06	26.474	0.00019463	0.00015759	4.1997e-05	1059.8	1.7283e-06	1.7171e-06	1121.8	223.19	1.8727e-06	1.7094e-06	279.56	80.387	63.264	18.793	1.7066e-06	26.91	97.554	-40.965	-49.086	-139.291	-13.737	-29.542	-139.426	-132.395	-60.367	-13.723	-132.664	-126.283	-126.938	-118.758	-24.122	-118.696	-8191	255	
1457.713	1	1	0	0	0.17224	0.034705	0.19867	0.422	0.18534	0.10157	0.17505	0.061137	0.16417	0.15037	0.17552	0.12944	0.28826	0.14639	0.16369	0.11276	-2.6604	-3.1854	-3.4188	-3.1625	-3.2667	-3.3271	-3.2646	-3.325	-3.2875	-3.1875	-3.4729	-2.975	-3.2792	-3.4958	-3.0687	-3.5146	136.150	-82.460	162.346	173.020	-50.713	104.014	149.295	-58.293	46.875	208.793	134.297	164.534	-90.260	-138.274	112.267	-115.033	0.00052048	0.00028076	8.7659e-05	1073.5	6.2243e-06	2.2459e-06	1130.4	223.07	4.6502e-06	3.8868e-06	278.39	79.889	63.267	18.643	4.2505e-06	26.326	0.00020071	0.00015813	4.213e-05	1060.3	1.7512e-06	1.6847e-06	1123.4	223.17	1.7947e-06	1.7606e-06	279.07	80.5	63.62	18.86	1.8302e-06	26.895	96.930	-79.847	-54.195	-139.114	-21.023	13.438	-139.395	-132.166	-40.310	7.421	-132.157	-126.455	-126.009	-118.708	-16.876	-119.184	-8191	255	
1457.809	1	1	0	0	0.068538	0.087125	0.177	0.081162	0.35895	0.24927	0.060353	0.037958	0.26332	0.091046	0.13607	0.13103	0.1269	0.12933	0.12643	0.11525	-2.7687	-2.9125	-3.3292	-3.0146	-3.1104	-3.2417	-3.2458	-3.3937	-3.2854	-3.2521	-3.4188	-3.1917	-3.1479	-3.3875	-2.9437	-3.1917	77.825	-136.007	133.009	163.449	126.162	163.281	105.901	-100.072	-104.425	-131.447	-34.061	-141.169	-43.774	-97.067	203.176	-67.804	0.00058168	0.00018557	7.0716e-05	1078.6	3.8056e-06	1.8035e-06	1134.3	224.16	7.5522e-06	2.716e-06	279.29	80.942	63.553	18.627	2.6686e-06	26.809	0.00020415	0.00016404	4.3207e-05	1064	1.8198e-06	1.6816e-06	1127.2	223.02	1.8725e-06	1.7384e-06	279.06	80.771	63.572	18.885	1.755e-06	27.051	101.353	-72.648	-61.895	-139.241	-30.855	16.045	-139.045	-132.150	-26.552	7.394	-132.206	-126.232	-126.464	-118.673	-2.108	-119.316	-8191	255	
1457.881	1	1	0	0	0.40552	0.32772	0.035379	0.22401	0.26545	0.12869	0.071554	0.079382	0.15197	0.041081	0.040535	0.12989	0.09812	0.19615	0.14873	0.27377	-2.75	-2.9542	-3.3729	-3.1417	-3.1813	-3.4562	-3.1688	-3.4708	-3.3104	-3.2188	-3.3854	-3.0896	-3.0062	-3.4292	-3.2708	-3.4167	208.965	44.201	-97.484	93.893	55.676	-45.592	172.364	186.147	-89.561	73.230	150.789	151.835	64.879	64.783	58.301	204.106	0.00059069	0.0003069	7.8844e-05	1074.9	1.711e-06	1.9741e-06	1128	223.44	6.8267e-06	1.7222e-06	279.26	79.911	63.907	18.614	2.4631e-06	26.576	0.00020016	0.00016272	4.4399e-05	1064.5	1.7839e-06	1.6389e-06	1127.1	223.15	1.8446e-06	1.6226e-06	279.67	80.515	63.556	18.909	1.7376e-06	27.032	94.742	-55.421	-56.338	-138.909	-19.031	10.678	-139.499	-132.223	-47.414	-28.248	-132.550	-126.369	-126.676	-118.727	-54.301	-119.135	-8191	255	
1458.001	1	1	0	0	0.093492	0.29453	0.19639	0.30818	0.14607	0.11856	0.16574	0.060156	0.23102	0.19708	0.099606	0.15144	0.1374	0.077003	0.13657	0.17382	-2.8229	-2.9271	-3.3208	-3.2625	-3.0875	-3.4542	-3.1937	-3.2896	-3.2188	-3.025	-3.2333	-3.2708	-3.0958	-3.3937	-2.9208	-3.4188	-53.912	-14.570	-94.297	-77.474	77.344	158.230	151.571	139.068	-115.710	77.973	117.078	-49.854	196.476	-115.256	111.496	136.051	0.00057572	0.0001882	0.00010049	1072.9	2.9001e-06	3.6631e-06	1136.2	223.76	5.0094e-06	3.3463e-06	280.79	80.549	63.683	18.671	3.8427e-06	26.686	0.00018988	0.00015111	4.1561e-05	1063.7	1.8122e-06	1.6322e-06	1129	223.49	1.7352e-06	1.6618e-06	280.12	80.952	63.589	18.936	1.6592e-06	27.011	95.815	-61.783	-79.667	-139.387	-52.917	3.237	-139.272	-132.276	-53.059	21.927	-132.320	-126.176	-126.466	-118.399	-5.148	-119.340	-8191	255	
1458.097	1	1	0	0	0.35179	0.22384	0.114	0.079206	0.23703	0.042989	0.2585	0.094187	0.27418	0.2623	0.19377	0.12433	0.16593	0.14151	0.082048	0.32184	-2.9271	-3.1188	-3.3438	-3.3583	-3.0646	-3.4854	-3.2313	-3.1688	-3.2854	-3.0479	-3.3	-3.175	-2.9	-3.325	-3.1271	-3.2917	101.830	70.798	115.516	141.668	-36.468	-75.831	181.403	-38.889	156.040	-61.400	177.116	207.420	-131.361	190.696	149.589	-92.990	0.00054779	0.0002575	7.7454e-05	1070	2.3692e-06	3.2833e-06	1133	223.93	4.1731e-06	3.3004e-06	278.58	80.434	63.946	18.764	2.323e-06	26.519	0.00019735	0.00015462	4.3395e-05	1063.5	1.8349e-06	1.6454e-06	1128.7	223.54	1.7534e-06	1.718e-06	280.13	80.792	63.61	18.985	1.6984e-06	27.047	100.399	-61.280	-56.136	-139.548	-37.118	-9.408	-139.469	-132.317	-48.306	-1.736	-132.246	-126.019	-126.568	-118.805	-47.870	-119.272	-8191	255	
#DATA ENDS
