BOXY.EXE: ISS Imagent and Oximeter Data Acquisition Program Version 0.80
Ascii Record File

#ACQ INFORMATION
2  Detector Channels 
16  External MUX Channels 
1  Auxiliary Channels 
5000  Waveform (CCF) Frequency (Hz)
1  Waveforms Skipped 
30  Waveforms Averaged 
1  Cycles Averaged 
16  Acquisitions per Waveform 
10.0806  Updata Rate (Hz) 

#FILE INFORMATION
TRUE -- External MUX Channel results are PARSED.
FALSE -- AC DC and Phase are NOT grouped.
TRUE -- Companion Program Settings File CREATED.
FALSE -- AC data not excluded
FALSE -- DC data not excluded
FALSE -- Phase data not excluded
FALSE -- Auxillary Chn. data not excluded
Tab delimiters

#CALIBRATION STATE
TRUE -- Waveform Calibration Values APPLIED.


#AUX CALIBRATION VALUES
Val Type	aux-1	

Term	1.0000e+00	
Factor	0.0000e+00	


#WF CALIBRATION VALUES
A = Detector Channel
Val Type	A-AC1	A-AC2	A-AC3	A-AC4	A-AC5	A-AC6	A-AC7	A-AC8	A-AC9	A-AC10	A-AC11	A-AC12	A-AC13	A-AC14	A-AC15	A-AC16	A-DC1	A-DC2	A-DC3	A-DC4	A-DC5	A-DC6	A-DC7	A-DC8	A-DC9	A-DC10	A-DC11	A-DC12	A-DC13	A-DC14	A-DC15	A-DC16	A-Ph1	A-Ph2	A-Ph3	A-Ph4	A-Ph5	A-Ph6	A-Ph7	A-Ph8	A-Ph9	A-Ph10	A-Ph11	A-Ph12	A-Ph13	A-Ph14	A-Ph15	A-Ph16	

Term	0.00000e+00	0.00000e+00	0.00000e+00	0.00000e+00	0.00000e+00	0.00000e+00	0.00000e+00	0.00000e+00	0.00000e+00	0.00000e+00	0.00000e+00	0.00000e+00	0.00000e+00	0.00000e+00	0.00000e+00	0.00000e+00	0.00000e+00	0.00000e+00	0.00000e+00	0.00000e+00	0.00000e+00	0.00000e+00	0.00000e+00	0.00000e+00	0.00000e+00	0.00000e+00	0.00000e+00	0.00000e+00	0.00000e+00	0.00000e+00	0.00000e+00	0.00000e+00	0.00000e+00	0.00000e+00	0.00000e+00	0.00000e+00	0.00000e+00	0.00000e+00	0.00000e+00	0.00000e+00	0.00000e+00	0.00000e+00	0.00000e+00	0.00000e+00	0.00000e+00	0.00000e+00	0.00000e+00	0.00000e+00	
Factor	1.00000e+00	1.00000e+00	1.00000e+00	1.00000e+00	1.00000e+00	1.00000e+00	1.00000e+00	1.00000e+00	1.00000e+00	1.00000e+00	1.00000e+00	1.00000e+00	1.00000e+00	1.00000e+00	1.00000e+00	1.00000e+00	1.00000e+00	1.00000e+00	1.00000e+00	1.00000e+00	1.00000e+00	1.00000e+00	1.00000e+00	1.00000e+00	1.00000e+00	1.00000e+00	1.00000e+00	1.00000e+00	1.00000e+00	1.00000e+00	1.00000e+00	1.00000e+00	X	X	X	X	X	X	X	X	X	X	X	X	X	X	X	X	

B = Detector Channel
Val Type	B-AC1	B-AC2	B-AC3	B-AC4	B-AC5	B-AC6	B-AC7	B-AC8	B-AC9	B-AC10	B-AC11	B-AC12	B-AC13	B-AC14	B-AC15	B-AC16	B-DC1	B-DC2	B-DC3	B-DC4	B-DC5	B-DC6	B-DC7	B-DC8	B-DC9	B-DC10	B-DC11	B-DC12	B-DC13	B-DC14	B-DC15	B-DC16	B-Ph1	B-Ph2	B-Ph3	B-Ph4	B-Ph5	B-Ph6	B-Ph7	B-Ph8	B-Ph9	B-Ph10	B-Ph11	B-Ph12	B-Ph13	B-Ph14	B-Ph15	B-Ph16	

Term	0.00000e+00	0.00000e+00	0.00000e+00	0.00000e+00	0.00000e+00	0.00000e+00	0.00000e+00	0.00000e+00	0.00000e+00	0.00000e+00	0.00000e+00	0.00000e+00	0.00000e+00	0.00000e+00	0.00000e+00	0.00000e+00	0.00000e+00	0.00000e+00	0.00000e+00	0.00000e+00	0.00000e+00	0.00000e+00	0.00000e+00	0.00000e+00	0.00000e+00	0.00000e+00	0.00000e+00	0.00000e+00	0.00000e+00	0.00000e+00	0.00000e+00	0.00000e+00	-2.34514e+02	-1.29768e+02	-1.30127e+02	-1.84443e+02	-8.22941e+01	-6.40824e+01	-1.56720e+02	-1.62015e+02	-7.26260e+01	-6.78743e+01	-1.72091e+02	-1.69816e+02	-1.86035e+02	-1.76734e+02	-7.55040e+01	-1.49635e+02	
Factor	5.55501e-05	1.82107e-04	4.65506e-05	3.36067e-01	2.21863e-06	2.08987e-06	1.79340e-01	5.49720e-02	3.07935e-06	1.85942e-06	9.27168e-02	3.06035e-02	5.57620e-02	9.79774e-03	2.10663e-06	1.41981e-02	8.47988e-06	1.03975e-05	2.90508e-06	1.65852e-01	1.11247e-07	1.15048e-07	8.36732e-02	2.73498e-02	1.08864e-07	1.14871e-07	4.47458e-02	1.47719e-02	2.76586e-02	4.92130e-03	1.11357e-07	6.90630e-03	X	X	X	X	X	X	X	X	X	X	X	X	X	X	X	X	



#DISTANCE SETTINGS
A = Detector Channel
A-1	A-2	A-3	A-4	A-5	A-6	A-7	A-8	A-9	A-10	A-11	A-12	A-13	A-14	A-15	A-16	

2.5000e+00	3.0000e+00	2.5000e+00	3.0000e+00	2.0000e+00	3.0000e+00	1.5000e+00	3.0000e+00	3.0000e+00	3.0000e+00	3.0000e+00	3.0000e+00	3.0000e+00	3.0000e+00	1.5000e+00	3.0000e+00	

B = Detector Channel
B-1	B-2	B-3	B-4	B-5	B-6	B-7	B-8	B-9	B-10	B-11	B-12	B-13	B-14	B-15	B-16	

1.0000e+01	1.0000e+01	1.0000e+01	1.4400e+00	1.0000e+01	1.0000e+01	1.5100e+00	1.9400e+00	1.0000e+01	1.0000e+01	1.9900e+00	2.4900e+00	2.4100e+00	2.9000e+00	1.0000e+01	2.9800e+00	




#DATA BEGINS
time	group	step	mark	flag	A-AC1	A-AC2	A-AC3	A-AC4	A-AC5	A-AC6	A-AC7	A-AC8	A-AC9	A-AC10	A-AC11	A-AC12	A-AC13	A-AC14	A-AC15	A-AC16	A-DC1	A-DC2	A-DC3	A-DC4	A-DC5	A-DC6	A-DC7	A-DC8	A-DC9	A-DC10	A-DC11	A-DC12	A-DC13	A-DC14	A-DC15	A-DC16	A-Ph1	A-Ph2	A-Ph3	A-Ph4	A-Ph5	A-Ph6	A-Ph7	A-Ph8	A-Ph9	A-Ph10	A-Ph11	A-Ph12	A-Ph13	A-Ph14	A-Ph15	A-Ph16	B-AC1	B-AC2	B-AC3	B-AC4	B-AC5	B-AC6	B-AC7	B-AC8	B-AC9	B-AC10	B-AC11	B-AC12	B-AC13	B-AC14	B-AC15	B-AC16	B-DC1	B-DC2	B-DC3	B-DC4	B-DC5	B-DC6	B-DC7	B-DC8	B-DC9	B-DC10	B-DC11	B-DC12	B-DC13	B-DC14	B-DC15	B-DC16	B-Ph1	B-Ph2	B-Ph3	B-Ph4	B-Ph5	B-Ph6	B-Ph7	B-Ph8	B-Ph9	B-Ph10	B-Ph11	B-Ph12	B-Ph13	B-Ph14	B-Ph15	B-Ph16	aux-1	digaux	

2217.798	1	1	0	512	0.16068	0.22073	0.27953	0.30508	0.034807	0.0755	0.26289	0.033125	0.15571	0.12784	0.40941	0.13612	0.10045	0.16331	0.19067	0.080795	-2.4333	-3.1083	-2.9146	-2.9125	-3.5438	-3.1667	-3.3833	-3.1396	-2.9938	-3.1937	-3.1646	-3.0604	-3.2687	-2.9646	-3.0333	-3.3229	388.207	299.627	432.318	409.842	430.236	317.791	330.441	371.720	302.585	156.037	440.965	204.678	357.309	170.970	322.719	269.870	0.0019765	0.00037413	3.4061e-05	817.53	1.1223e-05	9.9984e-06	1141.5	224.46	2.3733e-05	5.3471e-06	392.09	134.99	72.987	25.874	5.9256e-06	61.454	0.0039274	0.0046256	0.0012693	856.68	4.9601e-05	5.0447e-05	1129.8	226.62	4.7522e-05	5.0756e-05	397.57	135.88	80.567	27.134	4.8489e-05	62.771	432.039	201.949	305.828	137.872	216.869	279.501	138.044	143.332	265.001	339.878	142.996	147.624	147.497	153.439	284.940	152.065	-8191	255	
2217.894	1	1	0	0	0.34541	0.13677	0.046707	0.26126	0.17082	0.074852	0.29146	0.19993	0.073532	0.16189	0.26367	0.16466	0.18496	0.25748	0.19375	0.092324	-2.4	-3.2125	-3	-3.0646	-3.2417	-3.1042	-3.3563	-3.1979	-2.7854	-3.3167	-3.1937	-2.8229	-3.2083	-3.0708	-2.9292	-3.2667	257.273	137.306	441.397	134.223	208.291	424.806	459.249	407.062	267.124	157.414	125.785	463.368	322.973	196.665	277.534	150.016	0.001752	0.00078116	9.6784e-05	822.42	8.4808e-06	1.1084e-05	1145.4	223.26	1.9602e-05	1.348e-05	393.43	134.34	72.727	25.873	1.4442e-05	61.429	0.0038478	0.0045301	0.0012604	856.84	4.8949e-05	4.9656e-05	1133.5	226.08	4.7592e-05	5.0979e-05	397.72	135.59	80.414	27.204	4.8606e-05	62.921	439.767	236.847	446.726	138.186	228.064	261.656	137.885	143.570	273.253	264.129	143.001	147.948	147.393	153.310	274.651	151.973	-8191	255	
2217.990	1	1	0	0	0.12831	0.19802	0.10591	0.16681	0.11074	0.086743	0.3207	0.063718	0.1428	0.21185	0.10914	0.047424	0.1579	0.09684	0.11275	0.21186	-2.3979	-3.0187	-2.9708	-2.9333	-3.3042	-3.1354	-3.0417	-3.3396	-2.9167	-3.2396	-3.2229	-3.1208	-3.2979	-3.1792	-2.9708	-3.25	405.759	180.673	183.632	200.477	258.302	401.264	411.708	446.171	277.471	264.784	176.155	482.712	399.152	447.746	220.662	425.384	0.001823	0.000864	0.00023527	818.18	1.8732e-05	1.479e-05	1141.9	223.33	2.3498e-05	1.2226e-06	392.23	133.86	72.341	25.671	1.0529e-05	61.002	0.0038806	0.0045797	0.001286	854.15	4.9137e-05	5.019e-05	1129.5	225.45	4.7876e-05	5.0809e-05	396.17	134.64	80.374	27.009	4.9395e-05	62.434	439.636	271.936	218.110	138.414	244.406	289.254	138.102	143.337	223.602	342.723	142.876	147.983	147.135	153.072	276.233	152.109	-8191	255	
2218.086	1	1	0	0	0.14933	0.22096	0.16954	0.30414	0.157	0.19719	0.25125	0.36703	0.030639	0.16469	0.20681	0.049594	0.22376	0.057135	0.32828	0.066335	-2.3667	-3.2208	-3.1188	-2.9458	-3.3792	-3.1562	-3.0396	-3.2	-3.0292	-3.0979	-3.2167	-3.0458	-3.1729	-3.0625	-2.8063	-3.3979	448.222	432.279	153.605	400.376	153.295	388.205	166.140	415.859	276.366	154.577	428.633	235.682	242.078	445.945	352.307	134.644	0.0018284	0.00053888	8.5592e-05	815.33	1.1174e-05	1.0346e-05	1138.7	223.41	1.4801e-05	1.792e-06	390.56	134.12	72.162	25.702	8.1189e-06	61.532	0.003964	0.004649	0.0012997	852.28	4.9595e-05	5.0805e-05	1126.7	225.94	4.7975e-05	5.1404e-05	395.92	135.04	80.573	27.166	5.0012e-05	62.727	434.936	194.232	250.961	138.134	279.503	351.066	137.968	143.328	247.029	210.799	142.757	147.887	147.463	152.958	266.569	151.900	-8191	255	
2218.182	1	1	0	0	0.1424	0.19819	0.075117	0.2392	0.31455	0.052183	0.20141	0.019053	0.1471	0.14923	0.1154	0.16479	0.061568	0.069879	0.25672	0.10084	-2.3729	-3.1917	-2.9958	-2.8312	-3.0646	-3.1354	-3.0625	-3.4938	-2.8167	-2.9354	-3.2958	-2.7938	-3.1042	-3.1146	-2.9104	-3.3792	190.552	261.641	404.024	458.393	247.588	444.704	468.109	167.080	130.331	157.300	307.295	370.288	381.979	197.337	312.228	410.842	0.001514	0.00094332	0.00026373	816.89	3.4302e-06	1.006e-05	1137.2	222.37	4.3796e-06	3.7641e-06	390.99	134.57	71.791	25.757	2.1528e-06	61.466	0.0039683	0.0046727	0.0013187	852.35	5.0402e-05	5.1403e-05	1127.1	225.93	4.9165e-05	5.1856e-05	396.97	135.37	80.743	27.176	5.078e-05	62.895	433.231	236.060	210.465	137.958	335.768	316.710	137.939	143.443	431.158	301.231	142.757	147.704	147.387	153.095	305.031	152.009	-8191	255	
2218.279	1	1	0	0	0.19778	0.098254	0.15026	0.16201	0.11818	0.1553	0.36335	0.36392	0.21448	0.28605	0.22362	0.36038	0.09512	0.1331	0.10143	0.10583	-2.6542	-3.1667	-3.0521	-3.025	-3.1521	-3.1958	-2.9667	-3.3563	-3.0333	-2.9646	-3.3958	-2.8417	-3.0854	-2.875	-2.6917	-3.1854	364.369	314.949	315.284	207.288	326.340	170.893	470.275	134.811	226.465	419.188	372.372	129.133	147.969	268.274	390.449	147.491	0.0020393	0.00068339	6.7071e-05	815.04	2.1068e-06	5.1332e-06	1138.8	222.21	1.0643e-05	1.7039e-05	389.68	134.12	71.847	25.704	1.3799e-05	61.27	0.0040779	0.0047617	0.0013603	851.84	5.1767e-05	5.3664e-05	1128.9	225.85	4.998e-05	5.3028e-05	396.8	135.19	80.533	27.122	5.1383e-05	62.571	440.793	212.831	221.336	138.237	284.352	260.071	138.006	143.038	175.288	270.217	142.844	147.970	147.279	153.288	347.571	152.290	-8191	255	
2218.397	1	1	0	0	0.12185	0.29441	0.065669	0.20294	0.024427	0.24709	0.1356	0.11772	0.18549	0.19297	0.11292	0.094043	0.19107	0.13642	0.050083	0.025935	-2.7083	-2.9917	-3.1208	-2.7938	-3.0833	-3	-3.0104	-3.1688	-3.0062	-2.9167	-3.3812	-2.9729	-3.1396	-3.1667	-2.9396	-3.3063	158.047	373.889	237.544	451.592	250.864	152.954	382.015	143.247	372.603	351.545	203.853	148.499	153.795	219.086	257.355	191.887	0.002095	0.00079848	0.00024576	806.33	3.4826e-06	6.8604e-06	1130	220.5	1.5604e-05	5.0198e-06	388.32	132.07	71.218	25.405	7.1312e-06	60.436	0.004065	0.0047409	0.0013357	849.57	5.1069e-05	5.2517e-05	1122.4	224.4	4.865e-05	5.1387e-05	394.11	133.35	79.075	26.71	4.8716e-05	61.683	441.000	187.293	143.480	138.187	439.077	410.327	138.087	143.482	248.692	317.718	142.803	147.840	146.895	153.450	279.164	152.171	-8191	255	
2218.494	1	1	0	0	0.086071	0.2626	0.14558	0.092268	0.018985	0.28067	0.26708	0.22604	0.041507	0.041187	0.090002	0.33343	0.16688	0.31062	0.092969	0.13924	-2.6521	-2.9646	-3.1562	-2.9583	-2.975	-3.2375	-3.0354	-3.3417	-3.1667	-2.9562	-3.1688	-3.1063	-3.2583	-3.3458	-2.8104	-3.1437	394.559	401.047	449.834	426.783	305.297	255.137	183.597	439.774	313.134	375.035	461.518	451.658	380.346	156.394	351.126	429.228	0.0017986	0.00066342	0.00032692	808.62	2.9478e-06	4.7527e-06	1139.4	221.65	2.1685e-05	3.2236e-06	389.03	131.92	71.863	25.256	6.8059e-06	60.838	0.0038798	0.0044607	0.0012571	844.71	4.7216e-05	4.9635e-05	1123.3	223.89	4.5951e-05	4.7957e-05	393.58	133.42	78.854	26.592	4.6046e-05	61.756	439.750	185.164	302.569	137.987	127.113	331.673	138.004	143.372	223.332	287.983	143.088	148.023	147.343	153.526	299.852	152.102	-8191	255	
2218.590	1	1	0	0	0.087425	0.041613	0.21335	0.2603	0.094085	0.10936	0.32598	0.088643	0.25898	0.21478	0.13881	0.25572	0.21493	0.17964	0.020658	0.095457	-2.7042	-2.7354	-3.0854	-3.1042	-3.0979	-3.1458	-2.9521	-3.2354	-3.1917	-2.9958	-3.2646	-3.1854	-2.9333	-3.3583	-3.0062	-3.1292	293.018	262.542	181.973	446.381	431.414	171.133	404.400	282.561	145.638	310.043	187.453	478.007	376.752	233.447	464.410	128.295	0.0015914	0.00023236	0.0002518	808.79	7.2936e-06	3.916e-06	1137	222.44	1.3501e-05	8.1979e-06	391.62	133.37	71.701	25.314	9.1548e-06	60.586	0.0036849	0.0042524	0.0012001	843.77	4.5927e-05	4.7811e-05	1124.8	223.89	4.4246e-05	4.6438e-05	394.02	133.42	78.653	26.436	4.4435e-05	61.684	442.883	282.124	148.528	138.363	382.631	331.583	137.976	143.626	204.163	292.396	143.175	147.822	147.492	153.350	273.807	152.091	-8191	255	
2218.686	1	1	0	0	0.29473	0.20839	0.11391	0.20624	0.035482	0.062625	0.16576	0.057151	0.095309	0.23111	0.084869	0.33065	0.14632	0.27005	0.28685	0.045085	-2.8208	-2.8208	-3.0187	-3.1312	-2.9062	-3.4062	-3.3375	-3.1583	-3.2917	-2.9542	-3.2812	-3.2333	-2.8354	-3.0938	-3.0479	-3.1667	327.594	461.827	431.729	307.749	455.503	476.130	453.398	479.814	352.944	469.231	451.754	142.500	368.337	455.934	278.061	441.599	0.0018484	0.00065116	7.9474e-05	817.62	6.1612e-06	3.1287e-06	1138.2	223.06	1.1355e-05	3.1432e-06	390.39	132.53	71.648	25.056	2.4873e-06	59.896	0.003588	0.0041365	0.0011707	846.03	4.4133e-05	4.6524e-05	1127.7	224.36	4.3328e-05	4.5318e-05	393.63	132.8	78.027	26.228	4.3501e-05	60.95	433.293	224.987	151.419	138.430	287.968	343.164	137.870	143.227	295.626	168.178	142.973	147.748	147.476	153.160	331.053	152.166	-8191	255	
2218.782	1	1	0	0	0.1734	0.13331	0.17017	0.11919	0.1578	0.098214	0.21444	0.30675	0.14748	0.20591	0.1233	0.088571	0.095222	0.28536	0.13241	0.29727	-2.7417	-2.7562	-3.1542	-2.9042	-2.9854	-3.2625	-3.2438	-3.0062	-3.2604	-2.95	-3.0938	-3.25	-2.8167	-3.1208	-3.0854	-3.0667	457.764	173.881	325.547	210.180	264.100	390.151	409.426	396.711	334.448	459.816	142.122	318.596	292.760	446.535	343.360	471.451	0.0018117	0.00065197	0.00017421	817.32	3.5676e-06	5.4668e-06	1136.7	220.86	1.1954e-05	7.1822e-06	389.09	131.12	71.195	24.963	9.1721e-06	59.845	0.0035574	0.0040809	0.0011489	843.22	4.3172e-05	4.5295e-05	1123.7	222.93	4.2633e-05	4.4362e-05	390.47	131.53	77.23	26.075	4.196e-05	60.621	439.566	221.217	236.371	138.103	243.801	311.874	137.927	143.519	258.338	278.203	143.102	148.075	147.426	153.036	234.342	152.485	-8191	255	
2218.878	1	1	0	0	0.21908	0.17512	0.13075	0.23767	0.068633	0.17331	0.028038	0.20203	0.13544	0.25659	0.074132	0.21888	0.024818	0.15198	0.1028	0.3632	-2.825	-2.8646	-2.975	-3.1312	-2.85	-3.1146	-3.1542	-3.0333	-3.2792	-3.1875	-3.2333	-3.3625	-2.8667	-3.2646	-3.1292	-3.0229	171.564	222.631	283.235	343.069	377.302	214.233	455.891	468.575	320.582	127.809	181.455	471.938	170.624	441.254	310.369	468.944	0.0017795	0.00046417	7.5677e-05	810.59	1.4412e-05	4.6812e-06	1136.5	220.43	1.4672e-05	7.37e-06	386.4	130.91	71.16	25.12	1.1322e-05	59.595	0.0034174	0.0038936	0.0010952	837.61	4.1255e-05	4.3878e-05	1121.2	222.23	4.1493e-05	4.3348e-05	389.37	131.35	76.838	26.132	4.2446e-05	60.725	441.328	425.008	233.189	138.000	259.866	198.982	137.847	143.245	218.257	271.721	142.933	147.960	147.053	152.949	375.838	152.403	-8191	255	
2218.974	1	1	0	0	0.11679	0.09794	0.17451	0.16609	0.16816	0.034858	0.1007	0.085432	0.13036	0.1162	0.10935	0.12316	0.19937	0.061547	0.20714	0.37444	-2.9042	-2.9562	-2.7792	-3.225	-2.8625	-3.2042	-3.0354	-2.9583	-3.2313	-2.925	-3.1	-3.4562	-2.9021	-3.3208	-3.0354	-3.1021	397.029	201.190	352.171	328.528	178.855	248.715	307.080	271.848	133.835	393.701	252.999	185.637	381.722	256.311	239.448	426.482	0.002145	0.00095494	0.00036339	814.84	1.4426e-06	1.718e-06	1140.4	220.67	1.2862e-05	2.4031e-06	388.41	131.61	71.833	25.288	8.499e-06	60.607	0.0034184	0.0039444	0.0010981	837.78	4.1938e-05	4.3671e-05	1121.8	221.81	4.1339e-05	4.2868e-05	391.31	132.04	77.549	26.29	4.2771e-05	61.324	431.729	231.491	193.099	137.983	322.138	233.954	137.948	143.242	255.860	335.722	143.193	147.982	147.201	153.195	264.633	152.183	-8191	255	
2219.095	1	1	0	0	0.11739	0.23749	0.093841	0.18422	0.091683	0.096395	0.05983	0.229	0.080048	0.17235	0.26936	0.12824	0.11603	0.031896	0.080111	0.15448	-2.7042	-3.0917	-2.9771	-3.2521	-2.8271	-3.1833	-3.3542	-3.0792	-3.2687	-3.0792	-3.0479	-3.3604	-3.0104	-3.075	-3.1625	-3.0021	182.028	372.943	352.648	210.668	284.661	375.489	370.043	373.702	255.755	150.323	403.374	196.844	202.508	448.909	179.896	250.901	0.0017899	0.00067508	0.0002987	810.89	2.283e-07	9.5986e-06	1137.2	220.64	8.8814e-06	4.803e-06	389.04	131.42	71.695	24.993	5.44e-06	59.832	0.0034314	0.0039755	0.0011183	835.77	4.2307e-05	4.4088e-05	1121.4	222.26	4.1948e-05	4.3821e-05	391.31	131.85	77.46	26.183	4.301e-05	60.898	436.979	220.832	159.445	138.337	415.522	282.093	137.845	143.292	267.244	229.012	143.047	147.931	147.289	153.166	245.585	152.085	-8191	255	
2219.189	1	1	0	0	0.17812	0.29533	0.15416	0.072595	0.1287	0.11625	0.10304	0.084356	0.21867	0.28274	0.15064	0.15619	0.078027	0.14942	0.11534	0.39853	-2.7812	-3.0187	-2.9104	-3.2271	-2.9083	-3.0729	-3.3417	-2.8771	-3.2938	-3.125	-2.9583	-3.3708	-2.8583	-2.8958	-3.1625	-2.95	401.517	383.646	484.230	141.209	429.522	291.614	466.668	398.918	481.931	391.813	342.047	167.746	440.555	136.807	170.472	473.494	0.0019381	0.00056132	0.0001424	808.26	7.3999e-06	4.7256e-06	1132.8	220.19	7.1945e-06	6.9991e-06	386.59	130.91	70.852	25.01	1.7028e-05	60.145	0.003486	0.0040016	0.0011251	833.66	4.2679e-05	4.4759e-05	1118.4	221.39	4.262e-05	4.3914e-05	389.29	131.38	76.69	26.122	4.2945e-05	60.821	443.536	240.258	308.640	138.281	276.141	257.152	137.974	143.368	317.729	257.782	142.840	147.778	147.560	153.296	262.699	151.955	-8191	255	
2219.263	1	1	0	0	0.33909	0.097115	0.09634	0.20043	0.077941	0.069408	0.11249	0.28743	0.053149	0.1554	0.226	0.23703	0.22005	0.20585	0.082204	0.31493	-2.7729	-3.1188	-2.9333	-3.3896	-2.8479	-3.0021	-3.3958	-2.9667	-3.2854	-3.0938	-3.1417	-3.2333	-3.0396	-2.9542	-3.2708	-3.0438	200.064	467.005	346.196	269.715	481.897	419.341	420.956	165.232	385.863	260.316	275.442	432.275	211.467	363.026	227.784	420.946	0.0016873	0.00065903	8.8285e-05	805.94	1.0532e-05	8.6547e-07	1136.1	221.41	1.3481e-05	8.4467e-06	387.64	131.98	70.989	25.244	5.4484e-06	60.212	0.0034481	0.0039951	0.0011194	834.99	4.2768e-05	4.4796e-05	1118.3	221.88	4.2712e-05	4.4856e-05	390.89	132.33	77.51	26.398	4.4009e-05	61.424	440.115	330.840	265.511	138.245	215.352	263.480	137.785	143.317	246.166	271.970	142.934	147.857	147.453	153.325	300.115	152.263	-8191	255	
2219.382	1	1	0	0	0.090833	0.2003	0.09894	0.27213	0.34002	0.24864	0.30048	0.085562	0.31657	0.11524	0.11446	0.063453	0.026412	0.20126	0.20468	0.13707	-2.6521	-3.0771	-2.9667	-3.1625	-2.9583	-3.0167	-3.5125	-3.0583	-3.1042	-3.1083	-3.2687	-3.2	-3.0938	-3.0938	-3.2354	-3.2229	130.843	149.900	440.920	459.502	424.274	369.622	366.992	456.005	175.469	256.567	450.260	312.214	237.587	364.396	426.603	328.702	0.0019595	0.00071521	0.00028067	808.46	7.4132e-06	1.0408e-05	1133.7	222.69	6.29e-06	8.0854e-06	390.87	133.31	71.679	25.609	1.2909e-06	61.227	0.0035124	0.0040337	0.0011284	836.64	4.3121e-05	4.4362e-05	1120.2	223.38	4.2069e-05	4.4637e-05	393.28	133.53	78.205	26.694	4.3236e-05	62.036	433.770	178.168	209.390	138.356	300.169	281.724	138.015	143.246	323.512	296.215	143.273	147.842	147.538	153.019	322.598	151.896	-8191	255	
2219.478	1	1	0	0	0.1225	0.13837	0.23546	0.15493	0.19506	0.055057	0.26037	0.11422	0.12904	0.15043	0.161	0.1692	0.17088	0.098136	0.16283	0.081769	-2.7229	-2.9688	-3.0438	-3.1729	-3.1229	-3.0667	-3.4083	-3.0646	-3.1562	-3.2979	-3.05	-3.2875	-3.0396	-2.8417	-3.2604	-3.0146	280.862	430.930	290.706	384.967	125.992	334.184	432.294	330.795	287.268	243.352	236.608	399.926	317.209	481.751	442.557	380.679	0.0019004	0.00070515	4.6215e-05	814.11	1.1926e-05	6.7922e-06	1137.2	224.71	3.8509e-06	7.4981e-06	389.81	133.98	72.44	25.673	1.0258e-05	61.348	0.0034961	0.0040579	0.0011123	841.51	4.3117e-05	4.4868e-05	1124.6	225.02	4.2451e-05	4.4536e-05	393.66	133.92	78.582	26.817	4.2843e-05	62.036	435.308	475.969	233.746	137.995	332.330	219.204	138.007	143.370	251.959	306.665	142.864	147.832	147.517	153.152	301.617	151.784	-8191	255	
2219.574	1	1	0	0	0.23499	0.083979	0.087987	0.33334	0.28758	0.26708	0.017736	0.46399	0.072676	0.13573	0.23178	0.17458	0.23262	0.35655	0.26163	0.15692	-2.5812	-3.1521	-2.8438	-3.25	-3.2646	-2.7792	-3.2979	-3.0458	-2.8708	-3.1771	-2.9625	-3.2625	-3.1833	-3.1167	-3.125	-3.1542	396.659	336.921	246.877	411.392	198.372	436.138	271.613	371.390	182.960	348.909	440.138	132.003	142.669	467.155	347.834	317.169	0.0017669	0.00060424	0.00013025	819.18	1.7282e-05	9.8072e-06	1137.2	224.23	1.1303e-05	1.0608e-05	391.54	134.44	73.592	25.786	6.4257e-06	61.553	0.0034945	0.0040027	0.0011157	845.79	4.2925e-05	4.4158e-05	1122.9	225.33	4.2582e-05	4.4731e-05	394.2	134.5	79.361	26.955	4.3943e-05	62.415	436.847	179.805	286.957	138.656	288.723	329.832	137.758	143.116	219.340	142.220	143.043	148.033	147.324	153.083	270.976	152.208	-8191	255	
2219.670	1	1	0	0	0.12503	0.05082	0.10738	0.28451	0.13279	0.027115	0.11515	0.24043	0.15552	0.2114	0.16154	0.11676	0.12391	0.20031	0.014779	0.11916	-2.6646	-3.1333	-2.9042	-3.2188	-3.1667	-2.9146	-3.3458	-3.2229	-3.1167	-3.3083	-3.0687	-3.3042	-3.1688	-2.8563	-3.2083	-3.1083	145.305	419.901	413.242	261.037	252.250	404.081	388.162	433.380	198.883	210.731	201.853	170.872	217.111	435.652	293.174	456.451	0.0017685	0.00063973	6.5661e-05	817.57	1.032e-05	1.1644e-05	1138.5	225.04	4.2297e-05	5.3773e-06	395.23	134.87	73.351	26.105	2.7458e-06	61.888	0.0035436	0.0041008	0.0011268	846.9	4.442e-05	4.4286e-05	1126.6	226.76	4.3021e-05	4.5739e-05	396.45	135.07	79.598	27.22	4.4814e-05	63.004	432.400	199.991	201.431	138.237	239.882	300.879	138.075	143.371	270.537	458.370	143.023	148.181	147.614	153.224	306.095	152.033	-8191	255	
2219.791	1	1	0	0	0.1024	0.11181	0.1388	0.20428	0.095677	0.28147	0.13617	0.21497	0.21577	0.21269	0.13995	0.10177	0.12654	0.27455	0.19065	0.11266	-2.475	-3.1437	-2.6958	-3.1146	-3.1813	-2.8208	-3.3396	-3.2375	-2.9458	-3.1188	-3.1646	-3.0958	-3.2958	-2.6688	-3.3958	-3.3396	137.527	372.234	339.064	480.534	191.031	266.517	408.099	392.242	279.152	241.355	396.070	151.256	422.515	454.818	374.165	229.428	0.0018081	0.00044769	0.00034564	820.86	1.0098e-05	1.2431e-05	1142.4	227.49	5.5968e-06	8.5765e-06	396.52	136.09	73.948	26.364	5.5069e-06	62.591	0.0035773	0.0041363	0.0011544	852.38	4.5324e-05	4.5821e-05	1131.8	228.18	4.4172e-05	4.6938e-05	399.23	136.43	80.802	27.603	4.6854e-05	63.815	441.991	298.008	254.471	138.197	365.097	310.498	137.955	143.611	225.052	329.900	143.187	147.855	147.127	152.955	287.276	152.196	-8191	255	
2219.862	1	1	0	0	0.030896	0.20198	0.13129	0.17024	0.05374	0.14454	0.25275	0.040888	0.26725	0.11299	0.12889	0.27595	0.072264	0.118	0.094076	0.049436	-2.5812	-3.1958	-3.0729	-3.1312	-3.125	-2.8146	-3.4292	-3.225	-2.7271	-3.275	-3.2938	-2.8583	-3.3125	-3.0938	-3.3042	-3.1771	336.742	402.218	153.875	481.072	150.783	469.304	378.659	422.454	317.384	371.334	394.556	452.871	169.994	154.894	143.710	438.589	0.0019048	0.0010185	0.00014433	823.95	3.2311e-06	7.3402e-06	1144.8	228.05	1.3971e-05	1.1785e-05	395.6	136.76	74.624	26.406	3.0555e-06	62.75	0.0037278	0.0043421	0.0012058	855.84	4.6163e-05	4.8077e-05	1132.5	229.64	4.6114e-05	4.9683e-05	400.29	137.11	81.766	27.767	4.9619e-05	64.035	446.087	194.094	261.087	138.332	437.762	387.276	138.280	143.713	280.803	324.171	143.321	148.013	146.943	152.720	289.287	151.848	-8191	255	
2219.959	1	1	0	0	0.25958	0.098722	0.25462	0.059658	0.22785	0.21121	0.46723	0.034806	0.1786	0.15582	0.36015	0.20545	0.31517	0.093189	0.22042	0.14525	-2.4813	-3.15	-2.9354	-3.0479	-3.0938	-2.8625	-3.1875	-3.2229	-3.1125	-3.2	-3.2062	-3.125	-3.1458	-2.9958	-3.0542	-3.1833	398.857	434.861	464.746	298.268	307.171	171.360	399.912	468.824	316.865	370.840	438.337	168.722	442.687	432.006	291.038	465.931	0.0016193	0.0010927	0.00025254	824.71	8.1587e-06	5.2813e-06	1139.7	228.4	9.499e-06	5.9617e-06	397.4	137.22	74.306	26.718	1.5852e-06	63.096	0.0039347	0.0046548	0.0012978	860.11	5.0255e-05	5.1922e-05	1130	231.12	4.9521e-05	5.3097e-05	402.85	137.97	82.729	28.232	5.2823e-05	64.802	440.245	207.297	166.740	138.209	167.051	305.810	137.882	143.288	267.824	204.015	143.229	147.878	147.661	153.321	240.966	151.671	-8191	255	
2220.079	1	1	0	0	0.13054	0.074033	0.20342	0.23192	0.093111	0.13985	0.20161	0.19652	0.071812	0.20282	0.19323	0.28009	0.1161	0.093232	0.090992	0.14618	-2.4313	-3.2396	-3.0792	-2.9708	-3.1833	-3.1333	-3.0625	-3.3667	-2.9354	-3.2313	-3.1604	-3.0729	-3.0917	-2.9833	-2.9083	-3.1667	298.708	145.484	467.760	159.312	398.384	224.956	381.632	442.007	369.331	343.700	403.658	439.784	209.035	170.264	342.820	426.324	0.0020697	0.0014658	0.00011442	825.54	7.4142e-06	6.1825e-06	1142.1	229.33	1.4761e-05	1.1579e-05	398.6	137.93	74.983	27.048	5.1579e-06	63.935	0.004197	0.0050153	0.0014164	868.54	5.5175e-05	5.6912e-05	1134.8	233.53	5.4244e-05	5.9052e-05	406.05	139.39	84.494	28.703	5.8846e-05	65.823	441.324	282.935	231.328	138.088	359.564	319.638	138.146	143.636	271.279	283.049	142.868	147.968	147.304	152.797	268.436	151.949	-8191	255	
2220.175	1	1	0	0	0.14837	0.13868	0.12869	0.13295	0.18833	0.26876	0.065966	0.10807	0.14212	0.49177	0.22452	0.18217	0.090503	0.13658	0.11686	0.24892	-2.4771	-3.2146	-2.8521	-2.8958	-3.1833	-3.0396	-3.2521	-3.3812	-2.8083	-3.0729	-3.2146	-2.9771	-3.3646	-2.9417	-2.9021	-3.5187	480.446	253.549	248.627	279.224	311.461	414.766	249.569	391.099	350.589	325.903	422.023	357.621	126.749	476.410	252.863	390.197	0.0018897	0.00049183	0.00011709	825	1.3215e-05	1.5562e-05	1135.8	230.43	2.6987e-05	8.492e-06	397.64	137.31	75.322	27.111	5.3342e-06	64.293	0.0046312	0.0055405	0.0015576	876.23	6.0591e-05	6.2915e-05	1136.9	235.69	6.1212e-05	6.5957e-05	409.33	140.61	87.08	29.243	6.7924e-05	66.835	433.959	305.662	230.124	138.126	206.816	312.324	137.912	143.597	279.541	331.448	143.014	147.923	147.696	152.920	255.045	152.024	-8191	255	
2220.272	1	1	0	0	0.13434	0.052206	0.119	0.16948	0.14033	0.28128	0.18664	0.36724	0.069636	0.27113	0.15427	0.37359	0.25047	0.064933	0.019952	0.082433	-2.4979	-2.9042	-3.1271	-2.9208	-3.2729	-3.0917	-3.0792	-3.375	-2.8542	-3.0792	-3.2479	-2.85	-3.2625	-3.0229	-2.8646	-3.3625	430.446	338.977	125.327	416.404	391.603	288.061	391.782	436.790	361.838	399.105	346.388	384.715	437.797	206.450	308.414	239.547	0.002048	0.0012816	0.00015207	821.16	4.6134e-06	1.8542e-05	1129.7	230.69	1.772e-05	3.7636e-06	400.13	138.07	76.643	27.106	1.2026e-05	64.392	0.0054397	0.006592	0.0018405	892.01	7.0546e-05	7.293e-05	1139.2	238.27	6.8596e-05	7.4007e-05	413.14	141.7	88.787	29.589	7.208e-05	67.165	440.815	211.945	328.688	138.491	249.510	303.094	137.906	143.284	210.302	360.678	142.985	147.819	147.422	153.145	329.961	151.712	-8191	255	
2220.390	1	1	0	0	0.056338	0.093008	0.1513	0.13667	0.17956	0.17885	0.26371	0.25144	0.096461	0.11148	0.15308	0.088556	0.15427	0.072511	0.22467	0.056879	-2.4667	-2.9396	-3.1417	-2.9146	-3.1688	-3.0229	-3.2271	-3.1646	-3.1729	-2.8542	-3.3625	-2.9375	-3.1667	-3.0563	-2.7854	-3.2833	234.001	206.168	418.329	167.100	179.186	315.061	419.396	384.325	327.298	349.841	402.144	482.349	332.274	347.427	136.280	449.126	0.0018372	0.00021479	0.00029033	820.38	1.029e-05	1.0167e-05	1139.7	231.16	1.6068e-05	1.1125e-05	403.29	138.86	76.255	27.507	8.3161e-06	65.154	0.005654	0.0068013	0.0018935	895.75	7.3299e-05	7.5064e-05	1141.7	239.22	7.0483e-05	7.4687e-05	416.48	142.59	89.905	29.938	7.3201e-05	67.942	446.841	302.094	222.286	138.865	190.280	211.611	138.056	143.513	339.384	379.052	143.221	147.967	147.845	153.421	223.906	151.878	-8191	255	
2220.487	1	1	0	0	0.0081932	0.20941	0.264	0.19087	0.15923	0.15867	0.092375	0.15277	0.10914	0.27844	0.18383	0.22055	0.24687	0.23249	0.14463	0.1493	-2.4479	-2.9146	-3.1979	-2.9542	-2.9604	-3.2313	-3.0917	-3.2167	-2.9021	-2.95	-3.3125	-3.2375	-3.0229	-3.3042	-3.0792	-3.2146	222.265	169.222	482.203	410.143	403.832	379.532	358.720	390.545	414.155	380.423	266.880	240.380	453.189	473.194	132.734	324.762	0.0018541	0.00013985	0.0002182	826.05	9.9383e-06	1.5956e-05	1133.7	234.2	1.5207e-05	9.8509e-06	405.38	140.21	77.139	27.978	4.299e-06	66.144	0.0059264	0.0070858	0.001982	905.23	7.7495e-05	7.9376e-05	1147.4	243.09	7.5756e-05	8.0452e-05	421.55	144.79	92.143	30.613	7.8044e-05	69.213	443.280	252.559	246.142	138.350	449.858	227.854	138.072	143.492	186.207	248.218	143.577	148.067	147.173	153.121	209.701	151.680	-8191	255	
2220.558	1	1	0	0	0.12484	0.1135	0.1939	0.017919	0.24545	0.060415	0.31978	0.21554	0.14638	0.052962	0.23737	0.16164	0.15503	0.086784	0.1786	0.075538	-2.5854	-2.7687	-3.1979	-2.9042	-3.1667	-3.0687	-3.2062	-3.2333	-3.1437	-2.7938	-3.3812	-3.0604	-3.0979	-3.3438	-2.9708	-3.2396	459.169	271.058	126.170	258.392	170.000	259.479	345.479	481.821	164.931	169.271	474.718	156.154	476.901	300.070	174.686	443.412	0.0020937	0.00039514	0.00013954	834.89	1.713e-05	8.0378e-06	1144.1	236.27	8.7336e-06	7.8734e-06	408.27	141.81	77.311	28.101	1.3241e-05	66.512	0.0062737	0.0074212	0.0020881	917.5	8.1251e-05	8.389e-05	1155.9	246.12	8.0864e-05	8.4747e-05	425.89	146.7	93.454	31.012	8.3071e-05	69.857	435.812	212.034	204.746	138.301	347.063	221.135	138.025	143.466	186.883	246.894	143.006	147.891	147.188	152.796	399.357	151.811	-8191	255	
2220.679	1	1	0	0	0.26555	0.13073	0.19357	0.10381	0.11566	0.15313	0.08532	0.21822	0.095605	0.28065	0.09489	0.2976	0.066794	0.23085	0.057582	0.13388	-2.6354	-2.7687	-3.2646	-2.8229	-2.975	-3.1437	-2.9229	-3.2021	-3.1625	-2.9333	-3.2333	-3.1396	-2.9125	-3.0583	-2.7354	-3.2875	284.457	142.432	457.735	134.961	156.325	213.409	481.516	196.005	164.225	400.727	162.535	416.517	346.724	156.386	449.879	190.136	0.0020622	0.00045777	0.0002658	839.63	2.1964e-05	2.1277e-06	1142.3	236.2	1.0179e-05	1.2047e-05	407.1	140.61	77.416	28.047	2.266e-06	66.053	0.0066625	0.0078674	0.0022184	927.91	8.6071e-05	8.8565e-05	1159.6	247.45	8.4122e-05	8.7976e-05	426.07	146.21	94.393	31.041	8.6112e-05	69.646	442.041	195.563	172.074	138.170	196.544	403.177	138.266	143.628	242.848	250.699	143.065	147.684	147.794	153.084	476.668	152.054	-8191	255	
2220.775	1	1	0	0	0.1536	0.19876	0.072221	0.17993	0.081859	0.012905	0.17206	0.19843	0.074771	0.22096	0.25544	0.12109	0.24236	0.13931	0.23014	0.11766	-2.6854	-2.7625	-3.2438	-2.9188	-2.8937	-3.15	-3.0854	-3.1375	-3.2729	-2.9062	-3.1042	-3.2125	-2.7458	-3.25	-2.9833	-3.1708	475.474	387.895	182.683	317.104	141.560	137.867	458.567	265.867	407.170	450.603	411.515	404.009	425.221	459.420	446.464	289.723	0.0018979	0.0004035	0.00021881	838.98	1.1037e-05	9.732e-06	1142.3	237.53	1.4029e-05	6.4846e-06	409.27	141.28	77.612	28.318	2.5024e-05	66.137	0.0068927	0.00816	0.0023097	934.39	8.7383e-05	9.0231e-05	1159.2	249.08	8.4988e-05	8.8677e-05	428.74	146.73	94.495	31.278	8.7093e-05	70.022	438.549	316.857	254.816	138.298	325.089	281.139	138.082	143.778	217.121	194.269	142.896	147.771	147.213	152.798	210.172	152.051	-8191	255	
2220.871	1	1	0	0	0.34461	0.087152	0.39248	0.10107	0.16883	0.32447	0.18324	0.21322	0.22641	0.16583	0.13059	0.15705	0.17224	0.23045	0.050906	0.16598	-2.8521	-2.7875	-3.0062	-2.9875	-2.9479	-3.0792	-2.8229	-2.8563	-3.1979	-2.8146	-3.1354	-3.0708	-2.7729	-3.0958	-3.1021	-3.1021	461.905	430.436	392.810	215.903	320.358	353.015	456.841	460.125	227.006	400.324	145.494	456.554	479.604	345.539	271.264	367.383	0.002088	0.00055843	0.00031724	846.33	2.2767e-06	1.2615e-05	1149.6	239.69	8.6611e-06	8.4882e-06	407.95	142.16	78.532	28.571	1.2692e-05	67.057	0.0069465	0.0082141	0.0023296	941.98	8.7786e-05	9.1996e-05	1166.9	251.05	8.6459e-05	9.0659e-05	430.75	148.37	95.28	31.597	8.9192e-05	70.811	433.745	307.201	202.543	138.334	354.160	329.021	138.129	143.611	290.026	294.324	143.332	147.841	147.321	152.973	246.161	151.675	-8191	255	
2220.967	1	1	0	0	0.1971	0.16231	0.30006	0.19787	0.02811	0.13284	0.080178	0.14149	0.14799	0.14645	0.18939	0.14306	0.13962	0.097489	0.08038	0.083953	-2.8042	-2.8271	-3.0083	-3.15	-2.7042	-3.3979	-3.05	-3.0938	-3.2958	-2.9688	-3.1312	-3.2625	-2.7729	-3.1833	-3.1562	-3.0521	425.282	206.559	304.685	341.586	330.149	386.305	441.172	455.033	129.123	480.607	272.240	404.888	150.301	320.022	419.043	170.392	0.0019815	0.0011498	0.00014195	849.56	1.5984e-05	1.1503e-05	1153.1	240.64	1.3544e-05	8.4963e-06	411.63	143.22	78.928	28.744	1.5179e-05	67.017	0.0069848	0.0083839	0.0023599	943.25	8.9046e-05	9.3536e-05	1171.2	252.07	8.6652e-05	9.1434e-05	432.32	149.07	95.448	31.771	8.7743e-05	70.643	447.280	270.043	228.071	138.285	239.373	252.194	138.063	143.395	312.100	262.381	143.252	147.653	146.941	152.893	277.345	151.898	-8191	255	
2221.088	1	1	0	0	0.17422	0.1338	0.29773	0.19077	0.062768	0.14113	0.22336	0.066187	0.23305	0.11002	0.29288	0.047112	0.28868	0.13306	0.26485	0.37241	-2.7708	-2.8458	-3.0896	-3.1979	-2.9813	-3.0875	-3.1625	-3.0375	-3.2021	-2.9625	-3.1792	-3.2208	-2.7438	-3.0167	-3.1771	-3.0938	135.934	483.257	249.710	445.573	446.117	385.884	379.542	256.788	407.759	228.585	136.367	248.188	439.569	437.230	428.125	443.725	0.0023508	0.00095921	0.00038226	845.78	2.6319e-06	2.4033e-05	1149.7	238.43	2.513e-05	7.7059e-06	410.45	142.05	78.932	28.53	1.3682e-05	66.67	0.0068948	0.0081544	0.0022996	942.84	8.6264e-05	9.1673e-05	1167.5	250.94	8.5239e-05	8.8948e-05	430.21	147.55	95.022	31.515	8.6291e-05	70.334	439.755	235.844	159.398	138.424	475.033	173.917	138.157	143.655	224.729	290.861	143.255	148.020	147.530	152.911	240.575	152.092	-8191	255	
2221.160	1	1	0	0	0.17262	0.18555	0.23957	0.30961	0.04326	0.21605	0.18473	0.11672	0.035611	0.1072	0.27282	0.16583	0.14458	0.12189	0.31383	0.12381	-2.7042	-2.8104	-2.9625	-3.3063	-2.9313	-3.1375	-3.2479	-2.8063	-3.2729	-3.0625	-3.1479	-3.4146	-2.8354	-3.4396	-3.175	-2.9729	233.758	159.045	303.902	417.998	164.494	421.330	370.064	205.828	133.871	430.802	364.124	422.051	395.439	474.820	462.822	428.527	0.0022672	0.00039122	0.00016409	852.34	1.0119e-05	5.9422e-06	1150.7	240.52	1.7217e-05	1.7318e-05	409.01	142.84	78.646	28.705	5.0203e-06	66.727	0.0067057	0.0079459	0.0022267	939.88	8.3433e-05	8.8396e-05	1169.9	250.75	8.2874e-05	8.7283e-05	429.31	147.91	94.455	31.469	8.3526e-05	70.386	433.591	175.131	263.134	138.250	266.986	230.758	138.171	143.602	260.766	198.657	142.960	147.947	147.466	152.860	289.563	151.909	-8191	255	
2221.256	1	1	0	0	0.30407	0.09798	0.14028	0.1154	0.25077	0.1584	0.12246	0.2831	0.10727	0.38612	0.22023	0.42474	0.25158	0.08593	0.048466	0.22903	-2.7542	-2.9	-2.9437	-3.1229	-2.8833	-3.0938	-3.1896	-2.9396	-3.0563	-2.9688	-2.9792	-3.2938	-2.8083	-2.9375	-3.1312	-2.7896	237.034	424.628	227.340	174.153	276.963	265.489	303.634	475.878	307.056	165.817	416.972	459.446	259.692	446.246	209.301	255.831	0.0023784	0.0010231	0.0003756	853.31	1.8638e-05	7.3121e-06	1151.7	241.21	1.0745e-05	5.4732e-06	413	143.2	79.097	28.791	8.6021e-06	67.302	0.0065821	0.0077265	0.0021636	939.67	8.1984e-05	8.681e-05	1168.3	251.27	8.1534e-05	8.5168e-05	430.21	148.16	94.328	31.542	8.1365e-05	70.574	448.445	207.557	188.808	138.375	265.781	364.537	138.246	143.709	225.714	242.066	143.078	147.772	147.359	153.016	470.207	151.900	-8191	255	
2221.352	1	1	0	0	0.012991	0.087749	0.17665	0.057137	0.15201	0.12455	0.13384	0.23581	0.11738	0.22955	0.26187	0.17499	0.23077	0.19481	0.213	0.18835	-2.7292	-3.1208	-2.8958	-3.2792	-2.975	-3.0333	-3.3604	-2.9917	-3.2167	-3.0792	-2.9229	-3.3583	-2.8521	-3.0833	-3.3125	-3.0292	292.046	346.275	312.078	164.632	177.415	271.916	197.834	371.242	334.589	333.091	430.016	412.414	403.940	424.893	231.032	386.041	0.0019319	0.001104	0.00018601	859.56	3.3944e-06	1.1431e-05	1160.8	240.76	3.6784e-05	3.4947e-06	412.12	142.43	78.57	28.676	6.3046e-06	66.861	0.0064773	0.0075912	0.002094	937.74	8.0054e-05	8.3133e-05	1172.1	249.91	7.8465e-05	8.1966e-05	428.66	147.49	93.631	31.256	7.8904e-05	70.087	441.093	168.930	261.448	138.170	361.548	282.924	138.289	143.505	222.775	265.071	143.209	147.886	146.905	152.998	148.126	151.745	-8191	255	
2221.471	1	1	0	0	0.11808	0.049139	0.051182	0.070838	0.11509	0.12476	0.16201	0.05646	0.21804	0.14945	0.10697	0.21821	0.11163	0.21418	0.11553	0.093789	-2.6646	-3.1208	-2.7604	-3.225	-2.9688	-3.0563	-3.3771	-3.0062	-3.2667	-3.2625	-2.8042	-3.1833	-3.0833	-2.9625	-3.1479	-2.8708	354.890	190.774	471.089	405.844	329.623	278.902	446.858	472.290	432.613	365.887	474.167	416.609	204.305	141.811	278.848	393.080	0.0019489	0.0012263	0.00016904	852.89	3.9945e-06	1.3123e-05	1154.6	240.63	1.5786e-05	1.255e-05	411.61	141.93	78.262	28.602	4.7648e-06	66.777	0.0062898	0.0073507	0.0020309	932.51	7.7607e-05	8.0629e-05	1166.4	248.76	7.6267e-05	7.8574e-05	426.07	146.41	92.308	31.138	7.5189e-05	69.755	435.884	150.342	239.107	138.335	248.805	335.633	138.022	143.609	203.344	306.702	143.401	147.548	147.331	153.229	368.107	151.847	-8191	255	
2221.567	1	1	0	0	0.15447	0.20218	0.13999	0.099903	0.13218	0.14474	0.19859	0.28856	0.19354	0.09454	0.043762	0.1523	0.23323	0.29564	0.20578	0.24296	-2.6312	-3	-2.6708	-3.2125	-2.8312	-2.8937	-3.2687	-3.0271	-3.1167	-3.3	-2.9625	-3.3542	-2.9938	-2.8708	-3.2083	-3.0062	246.773	146.265	415.160	408.850	367.732	238.842	393.792	437.227	205.219	425.321	152.841	159.644	365.084	360.477	440.365	449.704	0.0020444	0.00063999	0.00023172	849.45	3.4649e-06	2.7378e-06	1152.7	241.11	2.0032e-05	2.0074e-05	414.4	142.63	78.308	28.95	1.2342e-05	67.576	0.0059902	0.0069872	0.00194	927.95	7.445e-05	7.6804e-05	1165.2	249.38	7.3255e-05	7.6522e-05	427.53	146.93	92.428	31.208	7.4776e-05	70.199	449.653	373.180	185.537	138.328	349.704	128.965	138.021	143.499	320.924	268.181	143.036	147.882	147.456	153.137	205.563	152.137	-8191	255	
2221.663	1	1	0	0	0.23117	0.056413	0.067145	0.21335	0.10644	0.11745	0.1004	0.13797	0.15274	0.21812	0.23792	0.036941	0.037275	0.17353	0.078709	0.33832	-2.6417	-3.1042	-2.8833	-3.1937	-3.1458	-2.7479	-3.4458	-2.9813	-3.0729	-3.2271	-2.9917	-3.025	-3.0479	-2.7687	-3.0812	-3.0417	233.322	345.817	239.078	445.210	192.367	228.076	448.550	433.023	221.066	295.146	429.005	161.985	328.440	450.401	368.102	462.403	0.0022029	0.00075712	0.00018501	855.66	4.7463e-06	1.0009e-05	1159.6	241.66	1.2091e-05	1.3091e-05	414.37	144.72	79.888	29.275	2.2727e-05	68.651	0.0058636	0.0068327	0.001909	929.38	7.3901e-05	7.5102e-05	1168.4	250.42	7.2279e-05	7.553e-05	428.59	148.77	93.157	31.71	7.2929e-05	71.155	439.867	451.271	135.582	138.026	210.793	216.903	137.896	143.810	237.143	314.463	143.073	148.244	147.046	152.753	304.490	151.829	-8191	255	
2221.759	1	1	0	0	0.10241	0.10739	0.23577	0.062715	0.16248	0.24499	0.23442	0.19688	0.22557	0.13519	0.16309	0.097935	0.13511	0.10629	0.2274	0.10443	-2.4646	-3.1333	-2.7583	-3.1458	-3.1	-2.6688	-3.2833	-3.1104	-2.9688	-3.0917	-2.95	-3.2938	-3.2896	-2.8417	-3.3833	-3.1354	127.450	161.738	213.013	126.132	227.350	150.729	223.549	469.767	399.407	261.353	423.196	209.607	133.938	149.532	406.640	311.053	0.0020021	0.00053566	0.00046235	861.55	6.3766e-06	2.0523e-05	1162.2	241.74	2.3446e-06	7.2109e-06	414.49	143.09	79.543	29.225	1.004e-05	68.16	0.0056357	0.0066673	0.0018567	929.68	7.1626e-05	7.317e-05	1168.9	250.05	7.0209e-05	7.4842e-05	427.99	147.94	92.648	31.57	7.3126e-05	70.94	433.517	463.851	280.775	138.740	236.879	258.738	137.933	143.719	207.501	389.673	143.234	147.774	147.201	153.029	250.792	152.065	-8191	255	
2221.855	1	1	0	0	0.22133	0.090093	0.26868	0.039645	0.20709	0.099921	0.14439	0.30244	0.06658	0.23296	0.10943	0.21201	0.18448	0.055716	0.10527	0.19531	-2.5542	-3.2729	-2.8417	-2.9833	-3.0604	-2.7854	-3.3438	-3.0062	-2.8417	-3.0167	-3.0312	-3.0208	-3.0687	-3.0375	-3.0563	-3.0812	141.312	281.369	145.087	372.138	467.878	244.149	404.104	404.979	286.709	253.184	344.666	478.942	132.486	180.014	144.440	128.702	0.0021259	0.0008277	0.00026097	850.66	1.2047e-05	3.0417e-06	1157.8	240.8	1.2199e-05	8.1619e-06	412.5	144.98	79.463	29.332	9.3568e-06	68.256	0.0057165	0.0067745	0.0018846	922.83	7.1257e-05	7.2965e-05	1162.5	248.48	6.7844e-05	7.1801e-05	425.98	148.15	91.916	31.427	6.8691e-05	70.615	437.877	263.983	212.084	137.979	289.366	302.738	138.099	143.484	321.040	275.448	143.047	147.751	147.628	153.441	277.559	151.929	-8191	255	
2221.952	1	1	0	0	0.083338	0.30547	0.34963	0.1553	0.14491	0.19222	0.10295	0.045496	0.26032	0.11783	0.20428	0.2579	0.12463	0.083168	0.10635	0.072358	-2.5292	-3.0354	-2.8458	-3.0938	-3.1396	-2.8208	-3.3104	-3.1083	-2.6458	-3.2333	-3.1375	-3.0604	-3.2062	-2.8271	-3.0833	-3.3812	149.232	166.341	480.468	385.057	211.790	355.454	377.212	354.134	230.799	221.729	375.171	136.328	381.949	401.689	196.317	133.789	0.001971	0.0010517	0.00010791	854.74	1.6224e-05	2.245e-05	1150.6	242.94	2.4944e-05	9.1032e-06	414.19	145.14	80.319	29.59	2.7392e-06	68.783	0.0053608	0.0063774	0.0017549	918.69	6.7204e-05	6.9786e-05	1161.7	248.84	6.6175e-05	7.1025e-05	426.86	148.18	92.139	31.603	6.8675e-05	71.023	437.636	184.074	198.857	138.362	292.041	266.823	138.074	143.448	224.503	258.895	143.032	148.008	147.637	152.991	222.967	151.879	-8191	255	
2222.072	1	1	0	0	0.050426	0.051141	0.16847	0.25128	0.13625	0.17476	0.26838	0.17544	0.18274	0.19029	0.10519	0.13536	0.11825	0.25191	0.06301	0.16324	-2.4375	-3.1958	-3.0563	-2.9458	-3.1646	-2.9437	-3.1417	-2.9896	-2.8937	-3.1875	-3.1542	-3.0729	-3.1312	-3.0083	-3.05	-3.1167	144.467	142.319	369.686	457.822	445.235	414.397	458.510	173.059	485.338	433.631	441.717	212.911	221.507	441.361	374.877	245.808	0.0020215	0.0014828	6.5293e-05	862.12	9.5742e-06	1.6976e-05	1164.2	242.94	1.4737e-05	1.1772e-05	417.25	146.26	80.3	29.568	1.1132e-05	69.3	0.0053702	0.0064073	0.001773	926.32	6.8746e-05	6.9868e-05	1167.7	250.24	6.6408e-05	7.1579e-05	429.82	149.14	93.137	31.827	6.9772e-05	71.727	445.160	177.955	325.458	138.655	284.188	285.982	137.867	143.702	254.677	331.943	143.076	147.779	147.632	152.960	257.110	151.912	-8191	255	
2222.168	1	1	0	0	0.3629	0.17977	0.32683	0.087371	0.014236	0.30288	0.1664	0.18593	0.13798	0.08889	0.030125	0.35502	0.15989	0.060632	0.17014	0.20909	-2.4104	-3.2083	-2.7917	-3.0083	-3.1396	-2.9208	-3.3104	-3.1688	-2.8438	-3.2167	-3.0354	-2.9396	-3.25	-2.8083	-2.9729	-3.3625	417.988	411.591	311.112	134.531	145.304	157.753	383.929	463.829	267.811	434.252	454.985	158.998	210.975	145.196	295.813	436.153	0.0021627	0.00080103	0.00021101	865.42	6.8802e-06	1.6911e-05	1162.9	244.16	2.4252e-05	5.6308e-06	414.76	146.23	81.206	29.789	1.1139e-05	69.014	0.0054876	0.0066075	0.0018204	932.52	7.0496e-05	7.1629e-05	1168.8	251.32	6.8015e-05	7.2549e-05	429.81	148.99	93.73	32.026	7.061e-05	71.599	436.914	186.586	375.321	138.010	301.681	211.824	138.163	143.861	257.513	324.420	143.337	147.579	147.040	152.789	306.860	151.852	-8191	255	
2222.263	1	1	0	0	0.14992	0.28387	0.12463	0.043856	0.048558	0.081057	0.28388	0.31868	0.2086	0.013804	0.15291	0.17869	0.08629	0.15974	0.21203	0.32147	-2.3229	-3.225	-3.1375	-2.8812	-3.1375	-2.9771	-3.0979	-3.1979	-2.8563	-3.0729	-3.1021	-2.9437	-3.0604	-2.8187	-2.9813	-3.1917	171.740	285.395	481.651	444.881	237.650	135.347	357.454	149.184	382.753	433.112	477.028	424.014	457.801	379.940	215.073	466.656	0.0019425	0.0013683	0.00032161	865.73	1.2858e-05	1.1617e-05	1162.2	244.33	6.6568e-06	2.0689e-06	419.4	146.96	81.613	30.014	7.0575e-06	69.628	0.0055697	0.0066604	0.0018507	930.45	7.104e-05	7.2956e-05	1168.7	252.22	6.8546e-05	7.3223e-05	431.45	150	94.216	32.22	7.1118e-05	72.177	430.998	199.012	176.937	138.383	160.100	135.858	138.320	143.590	244.708	405.350	143.129	147.835	147.068	153.040	186.080	152.299	-8191	255	
2222.359	1	1	0	0	0.052461	0.27283	0.12027	0.045393	0.21336	0.17636	0.26191	0.14385	0.028497	0.045081	0.10345	0.1905	0.11321	0.24391	0.24325	0.1657	-2.3187	-2.9583	-2.9437	-2.9313	-3.2438	-3.2479	-3.1375	-3.2708	-2.9	-3.25	-3.1188	-2.9542	-3.3937	-3.025	-3.0021	-3.3333	291.835	361.486	243.242	164.293	229.449	187.287	435.247	438.142	456.001	232.601	435.303	450.144	156.974	133.098	350.191	388.772	0.002068	0.001346	0.00023258	864.33	4.3086e-06	5.6799e-06	1166.9	246.76	1.1274e-05	5.8922e-06	422.14	147.68	82.037	30.398	1.1535e-05	69.754	0.0057022	0.0068393	0.0018977	938	7.4481e-05	7.5556e-05	1174	254.85	7.1537e-05	7.5845e-05	434.24	151.32	95.388	32.593	7.381e-05	72.786	446.416	227.420	256.456	138.193	367.490	374.550	138.241	143.698	247.870	462.367	143.378	147.901	147.193	153.028	218.515	151.827	-8191	255	
2222.455	1	1	0	0	0.17965	0.045657	0.051913	0.20306	0.044955	0.19574	0.1818	0.15904	0.23619	0.11898	0.27843	0.0918	0.16749	0.2537	0.10815	0.14984	-2.6042	-3.0354	-3.0729	-2.9896	-3.0979	-3.0396	-3.1146	-3.4021	-2.8063	-3.0542	-3.3417	-3.0083	-3.025	-3.1417	-2.8146	-3.3125	377.299	462.588	263.361	398.100	162.414	458.889	206.291	423.072	298.170	392.765	446.470	227.608	143.272	144.339	349.647	455.866	0.0020681	0.0015701	9.7633e-05	863.34	4.407e-06	5.5214e-06	1170.5	248.94	1.0016e-05	3.4431e-06	421.99	148.7	82.255	30.508	5.6763e-06	70.66	0.0058799	0.0069716	0.0019514	942.97	7.5477e-05	7.6972e-05	1177	256.96	7.3697e-05	7.7911e-05	437.7	152.43	96.64	32.971	7.5607e-05	73.468	435.472	263.845	210.622	138.286	267.045	223.322	138.175	143.524	219.362	245.116	142.840	147.925	147.200	153.194	357.437	152.222	-8191	255	
2222.551	1	1	0	0	0.039432	0.16866	0.20936	0.15682	0.087206	0.043309	0.35329	0.20579	0.21523	0.084182	0.059795	0.22687	0.071912	0.26108	0.42775	0.18391	-2.4938	-2.9917	-3.0896	-2.8917	-3.1854	-3.0021	-2.9708	-3.1813	-2.9625	-3.0396	-3.2604	-2.9146	-3.0167	-3.1562	-2.8792	-3.2021	272.860	221.162	462.628	225.492	341.803	237.380	440.165	443.859	197.084	473.825	430.652	368.741	375.791	414.635	417.876	350.605	0.0022299	0.00069962	0.00027023	873.23	1.5894e-05	1.6938e-05	1172.3	248.68	2.9089e-06	8.3464e-06	421.65	148.46	83.358	30.522	1.6694e-06	70.595	0.0060052	0.0070848	0.0019828	947.04	7.6773e-05	7.8613e-05	1181.5	257.75	7.4455e-05	7.8542e-05	437.82	152.35	96.775	32.93	7.6093e-05	73.189	447.613	396.252	187.826	138.190	170.440	336.936	138.378	143.427	480.124	255.789	143.217	147.783	147.092	153.125	263.203	151.647	-8191	255	
2222.647	1	1	0	0	0.044257	0.10857	0.11497	0.082134	0.28227	0.17948	0.10667	0.33474	0.1532	0.23685	0.1022	0.057919	0.21962	0.10135	0.18311	0.070597	-2.7458	-2.9688	-3.1271	-3.0208	-3.0563	-3.1771	-2.8812	-3.2792	-3.0854	-2.8	-3.2708	-3.0125	-3.0125	-3.2292	-2.9854	-3.1917	199.646	297.611	407.905	463.824	342.771	247.434	283.008	155.018	188.588	371.710	435.915	236.288	240.656	296.125	376.264	482.833	0.0018578	0.00089914	0.00022701	867.87	1.1138e-05	1.2851e-05	1169.2	249.12	4.7758e-06	8.0381e-06	422.37	148.02	83.174	30.546	1.5343e-05	70.625	0.0060341	0.007104	0.0020125	948.82	7.679e-05	7.8859e-05	1179.4	257.51	7.45e-05	7.9161e-05	438.22	152.22	97.099	33.069	7.9049e-05	73.737	439.352	267.372	209.272	138.236	266.528	209.889	138.188	143.432	326.516	125.840	143.252	147.806	147.228	153.029	303.689	152.169	-8191	255	
2222.743	1	1	0	0	0.3861	0.36098	0.15965	0.17432	0.20297	0.053644	0.26742	0.12971	0.31968	0.2152	0.18894	0.12685	0.099836	0.1565	0.21566	0.16573	-2.6042	-3.0167	-3.2396	-2.8125	-2.9125	-3.0896	-2.8625	-3.1771	-3.2687	-2.8583	-3.2854	-3.2292	-2.8896	-3.1583	-2.8063	-3.1625	373.991	290.733	439.022	195.210	450.274	264.474	126.817	135.325	276.462	346.622	127.696	427.568	440.326	425.692	309.046	432.958	0.001949	0.00034756	0.00023691	876.7	6.36e-06	1.3208e-05	1176.7	251.47	2.8569e-05	5.76e-06	423.86	148.66	83.095	30.899	1.347e-05	71.401	0.0062614	0.0074423	0.002116	956.39	8.0207e-05	8.2985e-05	1186.8	260.2	7.7883e-05	8.1986e-05	441.7	153.6	97.892	33.378	7.7368e-05	73.948	443.343	213.201	201.643	138.293	232.225	220.365	138.082	143.761	299.165	283.483	143.166	147.858	147.448	153.243	327.675	152.072	-8191	255	
2222.864	1	1	0	0	0.035731	0.10508	0.14593	0.12928	0.27179	0.23717	0.14021	0.094897	0.12153	0.074167	0.3147	0.33035	0.23564	0.27017	0.0070374	0.28801	-2.5625	-2.8479	-3.1375	-2.925	-3.1646	-3.3	-3.0375	-3.3333	-3.1188	-2.9958	-3.4062	-3.05	-2.9813	-3.2729	-2.8937	-3.1833	270.038	448.903	387.215	168.522	187.649	446.307	450.533	429.303	203.919	405.926	461.696	424.059	314.411	128.318	430.204	322.808	0.0019722	0.00060002	0.00054703	881.48	1.8084e-05	1.0477e-05	1175.1	251.61	2.008e-05	1.3671e-05	427.4	151.22	83.76	30.861	6.6584e-06	71.641	0.0060562	0.0071022	0.0020012	955.35	7.5167e-05	7.7622e-05	1185.5	259.54	7.2605e-05	7.5769e-05	441.59	153.9	96.661	33.269	7.1981e-05	73.92	437.141	194.418	225.385	138.555	327.205	453.156	138.124	143.454	261.864	135.089	143.169	147.817	147.546	153.395	292.385	152.104	-8191	255	
2222.960	1	1	0	0	0.1886	0.15186	0.128	0.16534	0.19515	0.14599	0.17766	0.22912	0.16901	0.25512	0.37346	0.20905	0.2611	0.14581	0.19788	0.13985	-2.7104	-2.8521	-2.9375	-2.8417	-3.0125	-3.1625	-3.075	-3.1312	-3.2062	-2.8667	-3.2604	-3.1729	-2.9271	-3.1063	-3.1979	-3.1333	262.726	145.560	422.379	172.507	448.015	358.834	158.910	412.240	354.277	390.176	424.909	393.089	447.491	181.477	358.002	379.343	0.0024153	0.0014567	0.00037798	878.6	1.1305e-05	7.6277e-06	1181.5	251.56	2.1566e-05	5.9901e-06	426.12	149.85	82.557	30.986	6.2315e-06	71.111	0.0056744	0.0066652	0.0018677	948.15	6.9541e-05	7.2876e-05	1185.6	258.46	6.8184e-05	7.1848e-05	438.66	152.8	95.67	33.151	7.0332e-05	73.412	440.515	207.275	253.266	138.627	230.654	241.848	138.237	143.698	308.170	226.270	143.086	147.648	147.600	153.026	235.942	151.872	-8191	255	
2223.032	1	1	0	0	0.092729	0.097267	0.12592	0.18214	0.11312	0.18639	0.22592	0.211	0.12668	0.11809	0.037714	0.058989	0.031852	0.042114	0.10149	0.061	-2.8167	-2.8937	-3.0896	-3	-2.9583	-3.2062	-3.125	-3.0104	-3.3187	-3.0438	-3.2583	-3.025	-2.9333	-3.1333	-3.1104	-2.9854	376.339	275.176	446.238	277.159	165.112	450.616	392.596	455.395	453.701	393.445	461.986	462.535	460.841	246.702	378.233	339.390	0.0021154	0.00075585	0.00037547	879.76	6.2795e-06	1.0041e-05	1177.4	250.82	7.8667e-06	4.3253e-06	428.4	149.65	84.483	31.021	9.4668e-06	71.367	0.0056323	0.0065165	0.001821	946.25	6.9234e-05	7.2177e-05	1183.4	257.81	6.8662e-05	7.1641e-05	438.82	152.86	96.115	33.264	6.9888e-05	73.657	442.198	135.887	218.875	138.097	259.810	392.533	138.231	143.685	299.768	279.139	143.292	148.050	146.997	153.129	317.462	151.827	-8191	255	
2223.153	1	1	0	0	0.35452	0.047374	0.14401	0.23473	0.12331	0.056668	0.27457	0.033204	0.16452	0.055372	0.2546	0.18472	0.3286	0.096064	0.13347	0.10235	-2.8104	-2.7917	-3.1521	-3.1	-2.8583	-3.2292	-3.4104	-3.0312	-3.2521	-3.0542	-3.1437	-3.3396	-2.9188	-3.1813	-3.1354	-3.2562	215.732	405.842	170.827	437.483	357.364	263.848	340.521	175.636	295.848	180.104	358.875	142.251	475.432	249.236	374.259	434.557	0.0024215	0.00053584	0.00020235	881.29	1.0192e-05	1.8167e-05	1180.5	252.23	2.6551e-05	7.33e-06	425.29	150.19	83.984	31.307	8.7762e-06	71.757	0.0055449	0.0064399	0.0018143	948.19	6.8756e-05	7.2684e-05	1186	258.62	6.9203e-05	7.1729e-05	438.35	153.81	96.164	33.422	7.002e-05	74.175	433.625	217.669	150.020	138.160	363.244	340.725	138.073	143.532	295.597	264.178	143.329	147.746	147.136	153.128	353.014	151.924	-8191	255	
2223.249	1	1	0	0	0.19182	0.29005	0.41067	0.20029	0.29598	0.10784	0.12986	0.1616	0.19889	0.24062	0.23344	0.10175	0.12541	0.17365	0.058498	0.26457	-2.8667	-2.9437	-3.1937	-3.3125	-2.7583	-3.1542	-3.1583	-2.9167	-3.2562	-2.8375	-3.0458	-3.4271	-3.0438	-3.1146	-3.0083	-2.8792	415.148	258.892	419.856	135.087	325.702	337.705	422.741	438.273	175.095	243.796	163.693	433.359	277.862	420.963	159.614	376.071	0.0022937	0.00044002	0.00014809	883.89	9.8815e-06	9.5823e-06	1182.4	253.36	1.5319e-05	5.8261e-06	427.25	151.44	84.941	31.37	4.9861e-06	71.832	0.0056245	0.0065648	0.0018292	952.69	6.9411e-05	7.247e-05	1189.9	260.16	6.8814e-05	7.1648e-05	439.2	154.28	96.517	33.597	6.8825e-05	74.167	441.519	168.757	193.818	138.726	182.412	355.010	138.192	143.627	279.255	407.094	143.058	148.008	147.127	152.941	318.403	152.094	-8191	255	
2223.343	1	1	0	0	0.16079	0.021019	0.1061	0.11276	0.27106	0.1643	0.17277	0.15176	0.057772	0.041869	0.22938	0.031832	0.12361	0.044564	0.20952	0.2293	-2.8542	-2.6625	-2.9542	-3.1562	-2.9042	-3.2208	-3.0833	-2.9375	-3.1063	-2.9229	-3.2375	-3.3292	-2.8854	-3.2729	-3.1146	-2.9667	265.603	227.820	440.520	230.564	196.289	156.771	372.938	418.483	418.467	448.942	151.226	427.112	367.550	337.378	312.957	401.114	0.0023211	0.0010137	0.00027284	887.06	1.3733e-05	1.2098e-05	1179.3	252.93	2.2593e-05	3.5089e-06	426.3	150.51	84.182	31.072	7.7161e-06	71.573	0.0055309	0.0064002	0.0017808	951	6.7971e-05	7.1279e-05	1186.6	258.9	6.8552e-05	7.0913e-05	436.7	153.37	95.8	33.323	6.8224e-05	73.786	440.173	179.415	184.444	138.484	218.270	287.264	138.205	143.555	257.376	259.298	143.184	147.838	147.253	152.841	329.087	151.961	-8191	255	
2223.441	1	1	0	0	0.065917	0.049041	0.11565	0.12009	0.20376	0.047224	0.17616	0.20434	0.19514	0.14086	0.11216	0.18825	0.30466	0.1513	0.074428	0.28495	-2.8417	-2.9146	-3.0271	-3.3646	-2.8958	-3.1021	-3.2812	-2.8708	-3.0687	-3.2271	-3.0729	-3.2521	-3.0917	-3.0938	-3.1958	-3.1417	463.892	222.024	330.415	300.858	380.961	166.736	472.966	436.055	269.518	192.414	454.073	140.091	454.805	340.703	212.553	428.753	0.0020473	0.00086675	0.00034368	885.79	4.5325e-06	2.9063e-06	1183.4	253.86	1.7318e-05	4.4297e-06	424.29	150.7	83.698	31.333	1.3064e-05	71.766	0.0054754	0.0063501	0.0017668	949.62	6.7508e-05	7.0485e-05	1185.1	259.19	6.6518e-05	6.9128e-05	436.25	153.49	96.01	33.446	6.754e-05	74.052	440.859	239.976	140.896	138.458	257.403	226.580	138.124	143.446	247.948	247.362	143.141	147.879	147.541	153.338	274.679	151.966	-8191	255	
2223.560	1	1	0	0	0.078577	0.098088	0.12362	0.16107	0.32807	0.10652	0.25394	0.26333	0.1318	0.18843	0.038812	0.17533	0.087216	0.027511	0.19098	0.27526	-2.6708	-2.9083	-3.0229	-3.2208	-2.9604	-3.0312	-3.2	-3.0146	-3.3979	-2.9208	-2.9292	-3.4542	-2.8354	-3.1354	-3.2479	-3.0271	132.640	242.236	239.176	459.676	409.102	333.264	476.247	373.782	468.457	128.604	183.749	185.801	483.827	388.087	355.655	411.504	0.0023925	0.00059712	5.0344e-05	884.43	1.1403e-05	6.9185e-06	1181.7	252.28	1.1717e-05	4.5377e-06	425.91	151.46	84.407	31.411	4.8338e-06	71.839	0.0054004	0.0062909	0.0017678	948.43	6.7146e-05	6.9858e-05	1187.1	259.05	6.6255e-05	6.9618e-05	436.77	153.89	95.855	33.476	6.8304e-05	74.107	441.118	334.620	384.140	138.079	294.259	229.697	137.987	143.634	230.985	258.033	143.378	147.913	147.622	153.064	340.908	151.893	-8191	255	
2223.656	1	1	0	0	0.11814	0.22824	0.20105	0.15411	0.14909	0.13154	0.34601	0.068278	0.1482	0.18198	0.076467	0.25196	0.075682	0.21907	0.18573	0.17997	-2.8167	-3.0229	-2.8312	-3.1958	-3.1854	-2.8771	-3.4354	-3.1625	-2.9375	-3.3187	-2.7938	-3.2938	-3.0729	-3.0417	-3.3104	-2.9208	294.594	200.740	481.120	148.267	320.862	173.312	138.807	394.677	170.188	444.989	363.271	167.471	344.838	328.553	483.093	396.714	0.0020774	0.00064516	0.00032473	887.36	1.6047e-05	5.4819e-06	1178.9	252.85	1.559e-05	6.6559e-06	425.49	150.1	84.155	31.165	1.4663e-05	71.221	0.0054212	0.0063352	0.0017663	948.63	6.7007e-05	6.9593e-05	1185	258.93	6.6196e-05	6.914e-05	435.38	153.15	95.554	33.209	6.7211e-05	73.419	439.912	222.525	297.032	138.459	248.602	239.816	138.106	143.464	286.440	461.824	143.166	147.818	147.734	153.130	243.037	151.987	-8191	255	
2223.752	1	1	0	0	0.05613	0.30937	0.36412	0.21805	0.21251	0.030168	0.15304	0.18566	0.25183	0.088017	0.17339	0.22406	0.029525	0.17183	0.24377	0.30135	-2.5667	-3.1417	-2.675	-3.3771	-2.9167	-2.8792	-3.3771	-3.1813	-3.1937	-3.2562	-2.975	-3.1271	-3.0479	-2.8833	-3.0938	-3.0396	139.922	242.698	128.792	436.320	467.924	338.877	325.929	133.861	330.486	259.370	141.686	476.303	334.227	428.018	214.801	456.503	0.00203	0.00069434	0.00017814	884.73	1.1278e-05	1.0015e-05	1182.4	250.56	1.2198e-05	5.4296e-06	420.34	148.77	83.614	30.825	1.5563e-05	70.594	0.0052628	0.0061911	0.0017066	941.05	6.532e-05	6.7355e-05	1180.7	256.47	6.2882e-05	6.5808e-05	430.92	151.06	93.823	32.702	6.2163e-05	72.427	435.862	259.623	161.669	138.330	200.711	356.338	138.069	143.678	232.637	285.167	143.194	148.106	146.789	153.005	266.770	151.965	-8191	255	
2223.848	1	1	0	0	0.14305	0.17127	0.24594	0.089686	0.12419	0.25581	0.23952	0.10257	0.22875	0.23684	0.064684	0.067304	0.1342	0.20697	0.23296	0.043493	-2.6417	-3.3125	-2.775	-3.1333	-3.1312	-2.8667	-3.4771	-3.025	-2.8521	-3.1958	-2.9458	-3.0708	-3.025	-2.7542	-3.2313	-3.0062	159.521	323.178	134.938	237.962	257.671	418.458	391.625	437.381	345.486	224.498	448.507	133.022	412.906	153.791	295.341	216.989	0.0021113	0.0010124	0.00015163	882.72	5.7127e-06	9.2978e-06	1180.2	248.52	1.9061e-06	6.5077e-06	420.78	147.87	83.075	30.529	1.2847e-05	70.016	0.0049016	0.0057696	0.0015804	933.04	5.9373e-05	6.1308e-05	1176.8	253.07	5.7496e-05	6.0584e-05	426.68	149.79	91.979	32.115	5.7863e-05	71.419	432.642	237.684	193.714	138.204	359.864	259.458	138.046	143.709	473.002	190.289	143.371	147.931	147.270	153.236	282.449	152.162	-8191	255	
2223.944	1	1	0	0	0.20114	0.060282	0.08469	0.1416	0.18106	0.15026	0.024979	0.15406	0.20876	0.21456	0.26228	0.10268	0.061749	0.1864	0.41707	0.066775	-2.3812	-3.1437	-2.8771	-3.0083	-3.1083	-2.7062	-3.3812	-3.1792	-3.0583	-3.1417	-3.0146	-3.1625	-3.0896	-2.9562	-3.1708	-3.2125	282.963	140.099	246.835	469.780	359.900	190.280	461.522	438.801	389.794	475.184	397.385	410.361	366.982	406.131	475.897	471.338	0.0023615	0.0016997	0.00035667	879.9	1.1472e-05	5.5677e-06	1178.9	247.5	2.1886e-05	8.971e-06	417.58	147.19	81.662	29.96	8.4579e-06	68.621	0.0045428	0.0052988	0.0014676	926.47	5.5746e-05	5.7439e-05	1175.7	250.97	5.3477e-05	5.6383e-05	423.5	147.96	90.283	31.401	5.3909e-05	70.04	444.572	203.553	153.875	138.553	184.909	349.462	137.980	143.464	251.568	334.894	143.018	147.782	147.331	152.984	214.556	151.829	-8191	255	
2224.041	1	1	0	0	0.11861	0.022468	0.2972	0.1681	0.10191	0.31435	0.24607	0.26379	0.054667	0.21008	0.24477	0.2315	0.12723	0.20157	0.077976	0.18894	-2.4729	-3.2229	-3.0042	-2.9333	-3.1437	-2.7792	-3.2333	-3.0792	-2.75	-3.125	-2.8667	-3.1146	-3.0646	-2.7917	-3.1083	-3.1479	263.190	136.717	188.408	224.344	285.566	135.515	448.596	480.939	243.490	200.330	146.927	445.975	185.726	378.180	469.178	130.958	0.0022061	0.0007487	0.0001609	884.64	8.4243e-06	1.076e-05	1188.1	244.94	1.2095e-05	7.7386e-06	411.74	143.5	80.6	28.924	8.9824e-06	66.359	0.0042389	0.0049458	0.0013455	921.13	5.1646e-05	5.3323e-05	1176.5	247.57	5.014e-05	5.2746e-05	416.72	144.8	87.993	30.33	4.9511e-05	67.431	438.005	228.263	236.098	138.398	251.211	295.439	137.811	143.476	290.618	319.233	142.664	147.941	147.748	153.054	326.492	151.966	-8191	255	
2224.161	1	1	0	0	0.33905	0.13779	0.21651	0.24591	0.14112	0.1512	0.19701	0.062299	0.19699	0.06298	0.1142	0.15416	0.10657	0.030116	0.10328	0.036577	-2.4813	-3.1104	-2.7958	-2.9271	-3.175	-2.9437	-3.3438	-3.2979	-2.7188	-3.1854	-3.1771	-3.1417	-3.2812	-2.8708	-3.2	-3.1458	258.105	175.736	220.390	227.044	310.602	238.181	416.319	126.108	422.209	301.485	446.209	414.787	184.163	338.053	151.207	336.477	0.0021447	0.00087311	0.00013959	871.79	3.002e-06	9.8971e-06	1185.2	241.79	1.2974e-05	5.1247e-06	405.24	141.51	79.354	28.328	1.2978e-05	64.973	0.0039607	0.0045999	0.0012632	906.08	4.8632e-05	4.9197e-05	1168.4	243.37	4.6602e-05	4.8956e-05	409.17	141.94	85.85	29.573	4.5956e-05	66.221	434.041	149.130	270.574	138.164	246.139	255.948	138.151	143.393	284.758	394.197	142.963	147.739	147.380	153.129	227.228	151.932	-8191	255	
2224.256	1	1	0	0	0.0246	0.070277	0.17293	0.066001	0.13546	0.069817	0.19054	0.087847	0.10326	0.028296	0.31041	0.14635	0.26011	0.25177	0.18108	0.23586	-2.5604	-3.0875	-2.8729	-2.9208	-3.1896	-2.7938	-3.3667	-3.0438	-2.7521	-3.3208	-3.0875	-2.9792	-3.2583	-2.8937	-2.9521	-3.2438	183.550	381.290	470.678	470.673	259.434	308.529	274.556	351.604	206.815	127.751	466.044	476.877	454.249	450.474	280.746	453.384	0.0021053	0.00029391	0.00017719	863.86	6.6171e-06	5.2508e-06	1184.7	240.26	3.699e-06	1.2762e-05	403.38	140.56	77.769	27.898	1.1271e-05	63.957	0.0036322	0.0042467	0.0011805	897.38	4.4993e-05	4.523e-05	1166.6	241.18	4.247e-05	4.4706e-05	406.54	140.08	84.051	28.921	4.1689e-05	64.917	438.530	175.261	176.513	138.346	236.008	145.908	137.919	143.540	286.776	298.233	142.919	147.991	147.519	153.212	305.692	151.922	-8191	255	
2224.329	1	1	0	0	0.25593	0.17728	0.076703	0.18771	0.11635	0.11172	0.28725	0.20455	0.070602	0.15675	0.11015	0.18649	0.18105	0.12986	0.17193	0.23162	-2.55	-3.1354	-3.0938	-2.9208	-3.0896	-2.9104	-3.0375	-3.2146	-2.9479	-3.1437	-3.1542	-2.8771	-3.0438	-2.8312	-2.8375	-3.2875	311.644	210.086	149.066	208.274	454.650	297.749	396.597	154.011	154.860	145.855	179.317	438.622	424.116	406.400	179.970	448.737	0.0017988	9.4438e-05	0.00025933	872.04	1.0716e-05	3.4621e-06	1186.2	239.19	2.1379e-05	1.0051e-05	402.55	139.14	77.751	27.322	1.3341e-05	62.978	0.00336	0.0038702	0.0010715	892.19	4.0501e-05	4.0484e-05	1163.4	238.25	3.7999e-05	4.0161e-05	402.57	137.84	82.036	28.152	3.7934e-05	63.594	436.697	231.363	189.035	138.318	199.975	463.639	137.940	143.488	262.658	464.194	142.926	147.799	146.757	152.766	264.161	152.023	-8191	255	
2224.425	1	1	0	0	0.092673	0.14549	0.089669	0.16958	0.19192	0.14269	0.30256	0.17318	0.2193	0.097773	0.19698	0.059848	0.21325	0.25422	0.043892	0.2506	-2.45	-3.0396	-2.9125	-2.7917	-3.2583	-2.9104	-3	-3.0125	-2.9396	-3.0521	-3.1688	-3.0354	-3.0979	-2.9458	-2.8604	-3.1583	475.998	320.052	276.608	226.585	310.712	336.216	446.891	466.729	470.421	433.290	426.294	472.580	371.219	399.439	235.318	442.809	0.0018547	0.00018935	0.00020761	870.81	1.876e-05	3.209e-06	1183.5	234.93	1.9719e-05	3.9905e-06	396.09	135.11	74.396	26.38	4.6046e-06	60.436	0.0030066	0.0033813	0.00094066	880.34	3.5657e-05	3.5748e-05	1159.1	233.35	3.3142e-05	3.4923e-05	395.11	133.94	78.409	26.961	3.309e-05	60.904	436.114	346.127	219.086	137.877	290.406	269.971	138.026	143.460	258.960	389.951	142.546	147.972	147.495	152.951	268.696	151.900	-8191	255	
2224.544	1	1	0	0	0.18058	0.12696	0.18951	0.21203	0.012276	0.10669	0.17715	0.13316	0.23609	0.13483	0.2381	0.33105	0.073453	0.21688	0.22793	0.25096	-2.4688	-2.8646	-2.975	-2.9396	-3.2083	-2.9313	-3.1021	-3.1688	-3.0042	-2.9458	-3.2604	-2.9125	-3.3187	-2.9208	-2.7687	-3.3792	390.297	410.802	140.781	338.216	373.065	326.225	447.129	464.389	206.800	300.971	137.940	393.820	228.184	430.174	368.044	482.321	0.0016135	0.00049856	0.0003343	869.17	2.0217e-06	7.8148e-06	1179.9	233.3	1.6056e-05	6.6639e-06	393.73	133.2	74.538	25.789	1.3719e-05	59.681	0.0026452	0.0029997	0.00084353	871.63	3.2057e-05	3.3199e-05	1154.7	231.07	3.1157e-05	3.2708e-05	390.72	132	77.378	26.444	3.1923e-05	59.967	438.130	249.944	219.904	138.174	321.735	306.695	137.970	143.403	266.307	273.183	142.623	147.640	147.718	153.368	273.379	152.409	-8191	255	
2224.640	1	1	0	0	0.20429	0.044944	0.15074	0.24324	0.16388	0.21235	0.070419	0.22817	0.12941	0.20188	0.14051	0.05733	0.13005	0.19851	0.044051	0.12871	-2.6667	-2.975	-2.9896	-2.9208	-3.1188	-2.9479	-2.9125	-3.2458	-3.1646	-2.8417	-3.3646	-2.8354	-3.1521	-3.0521	-2.8646	-3.3104	171.411	274.224	137.615	342.987	200.572	134.451	218.178	132.096	204.295	193.452	400.147	285.820	450.450	166.121	415.174	130.130	0.0017776	0.00085611	0.00017963	859.77	7.0514e-06	6.1433e-06	1187.8	231.81	9.8387e-06	3.7464e-06	392.53	132.38	73.75	25.844	4.8751e-06	59.628	0.0026099	0.0029791	0.00083132	868.88	3.2143e-05	3.3266e-05	1157.1	230.56	3.1553e-05	3.3034e-05	391.36	131.67	77.291	26.425	3.1913e-05	59.856	437.687	243.756	232.854	138.212	216.656	354.407	137.734	143.231	304.493	205.507	142.916	147.682	147.176	153.346	310.045	152.255	-8191	255	
2224.736	1	1	0	0	0.088603	0.23789	0.080066	0.21203	0.21492	0.32425	0.14727	0.12106	0.3235	0.35282	0.12633	0.1024	0.25006	0.051976	0.19762	0.039772	-2.4062	-2.875	-3.1542	-3.0021	-3.1188	-3.1333	-2.9625	-3.2	-2.9667	-3.0167	-3.2875	-3.0333	-3.2146	-3.0417	-2.9292	-3.1542	396.908	276.698	223.252	484.086	358.731	189.495	474.475	398.605	225.651	143.119	428.996	320.851	391.889	297.830	366.233	211.078	0.0019106	0.00062457	4.2577e-06	859.49	8.2687e-06	4.3421e-06	1182.3	231.24	9.5762e-06	4.9527e-06	391.65	131.79	73.226	25.279	1.1007e-05	58.64	0.0025751	0.0029378	0.00082188	866.91	3.1426e-05	3.2301e-05	1155.2	229.37	3.0661e-05	3.187e-05	388.58	130.42	76.468	25.943	3.0377e-05	58.817	434.021	148.472	439.750	138.300	322.338	372.571	137.915	143.133	295.890	223.223	142.878	147.838	146.804	153.385	297.419	152.190	-8191	255	
2224.833	1	1	0	0	0.15307	0.28171	0.099693	0.12198	0.041067	0.26335	0.28227	0.13504	0.14928	0.30268	0.32903	0.16393	0.20061	0.20763	0.062463	0.30768	-2.5563	-2.9417	-3.025	-3.0167	-3.2292	-2.9979	-2.9625	-3.2604	-2.9938	-2.8667	-3.5542	-2.7729	-2.8667	-3.1708	-2.8271	-3.275	458.681	442.711	437.402	362.007	275.134	275.668	430.674	152.106	227.860	320.123	405.556	144.760	137.283	415.955	475.957	395.238	0.0017772	0.00037791	2.857e-05	858.1	1.2595e-05	1.0652e-05	1179.6	228.99	1.9266e-05	7.1675e-06	384.88	128.04	70.752	24.166	3.2491e-06	55.908	0.002499	0.0028551	0.00078848	863.31	2.9687e-05	3.042e-05	1152.2	226.58	2.8593e-05	2.9591e-05	382.88	126.25	73.681	24.682	2.7467e-05	55.996	435.384	205.484	273.793	138.082	286.202	253.502	137.840	143.226	284.217	213.454	142.572	147.750	147.200	153.393	254.803	152.209	-8191	255	
2224.953	1	1	0	0	0.023049	0.11428	0.062285	0.080451	0.18986	0.092871	0.11938	0.042773	0.24486	0.081598	0.25265	0.044249	0.16196	0.26978	0.14067	0.18691	-2.6271	-2.8583	-3.2521	-2.9125	-2.9562	-3.2083	-2.9875	-3.25	-3.3542	-2.825	-3.4313	-2.9208	-2.7979	-3.1979	-2.8917	-2.9771	250.126	259.882	477.472	195.827	145.571	354.873	450.905	427.281	354.491	264.643	352.876	436.024	182.989	391.551	411.116	462.446	0.0016002	0.00079824	0.00015923	853.6	9.6481e-06	5.7823e-06	1177.1	226.78	1.8142e-05	2.3465e-06	380.99	124.33	69.01	23.103	1.3205e-06	53.479	0.0022483	0.0025586	0.00070767	853.02	2.6648e-05	2.74e-05	1146.4	223.3	2.5121e-05	2.644e-05	376.67	122.43	70.856	23.434	2.4094e-05	53.43	443.201	234.517	175.196	138.143	306.027	230.664	137.921	143.229	259.360	200.663	142.707	147.553	147.035	153.449	297.576	152.070	-8191	255	
2225.025	1	1	0	0	0.19978	0.18161	0.12421	0.11362	0.12977	0.15303	0.24513	0.13669	0.17395	0.15152	0.059909	0.20106	0.11458	0.19433	0.18972	0.046072	-2.7854	-2.7062	-2.9896	-3.1562	-3.0146	-3.2021	-3.25	-3.0583	-3.2667	-3.0312	-3.2292	-2.9604	-2.9646	-3.0667	-2.85	-3.0667	182.937	436.096	313.998	177.044	225.749	322.748	311.886	448.737	439.193	483.290	480.232	146.268	445.780	166.868	429.513	201.422	0.0016393	0.00032455	6.792e-05	849.21	9.6012e-06	2.3528e-06	1179	223.47	1.0309e-05	5.0717e-06	378.52	121.92	67.507	22.203	9.4492e-06	51.656	0.0019955	0.0022197	0.0006133	846.65	2.3418e-05	2.3758e-05	1143.2	219.65	2.2221e-05	2.2847e-05	371.83	119.26	68.49	22.281	2.1329e-05	51.442	440.825	273.596	186.052	137.902	237.076	385.998	137.771	142.848	220.522	270.747	142.933	147.831	146.848	153.141	266.396	152.092	-8191	255	
2225.121	1	1	0	0	0.10158	0.35511	0.2888	0.094642	0.19071	0.13216	0.086548	0.14105	0.21431	0.14173	0.27123	0.12723	0.21788	0.27307	0.087358	0.094385	-2.5875	-2.6458	-3.1083	-3.2188	-2.6542	-3.2542	-3.1417	-3.1167	-3.0479	-2.8229	-3.1312	-3.0667	-2.8646	-3.2104	-3.1125	-2.875	346.271	272.030	261.418	446.549	351.670	235.732	429.327	234.457	222.464	138.664	157.253	333.644	187.414	134.566	349.495	359.503	0.0016523	0.0007921	0.00018204	839.95	1.3449e-05	3.3053e-06	1166.7	221.06	1.71e-05	1.1295e-05	371.53	119.49	65.123	20.991	4.4822e-06	49.648	0.001772	0.0019433	0.00054271	835.83	2.091e-05	2.1144e-05	1131.9	216.6	2.0065e-05	2.0963e-05	366.11	116.75	66.216	21.231	1.9785e-05	49.522	442.519	262.482	174.167	138.295	205.860	268.246	137.651	143.199	238.620	247.672	142.503	147.311	147.078	153.141	283.748	152.159	-8191	255	
2225.242	1	1	0	0	0.17206	0.044973	0.25456	0.047522	0.078502	0.17665	0.15672	0.12584	0.25638	0.37865	0.1927	0.07505	0.048074	0.15497	0.078809	0.12275	-2.8833	-2.8542	-3.0833	-2.9083	-2.8208	-3.1021	-3	-2.8917	-3.0458	-2.8854	-3.1083	-3.3208	-2.8958	-3.0771	-3.0563	-2.9417	425.571	419.800	216.408	471.112	249.866	353.913	374.419	466.180	236.965	422.836	424.407	149.418	404.941	140.879	359.187	162.779	0.0015209	0.00028144	2.7119e-06	829.75	8.2849e-06	5.347e-06	1161.9	217.13	8.3006e-06	2.7356e-06	367.54	114.84	62.871	19.631	4.1327e-06	46.91	0.0016595	0.0018062	0.0005016	823.9	1.8788e-05	1.926e-05	1121.4	211.95	1.8241e-05	1.8568e-05	359.75	112.13	63.629	19.799	1.8109e-05	46.598	437.645	210.244	293.037	137.573	224.857	235.011	137.680	142.835	285.269	268.265	142.567	147.395	146.814	153.376	299.564	152.012	-8191	255	
2225.336	1	1	0	0	0.26194	0.018578	0.24036	0.1343	0.15285	0.099209	0.12283	0.07253	0.033264	0.1091	0.12522	0.1764	0.31205	0.1676	0.13682	0.20352	-2.5896	-2.7958	-3.1479	-3.1333	-2.9437	-3.2687	-3.1583	-2.9417	-3.2188	-2.8563	-3.0625	-3.0167	-2.7458	-3.2021	-3.0958	-3.0896	337.882	367.519	428.404	465.677	333.730	467.439	431.083	206.165	443.049	159.661	427.729	400.454	311.469	353.325	163.964	152.148	0.001215	0.00041936	5.9485e-05	822.72	9.6969e-06	9.3803e-06	1148.9	214.76	1.2324e-05	4.8895e-06	363.06	113.13	61.986	19.176	5.0216e-06	46.158	0.0015176	0.0016539	0.00046673	816.59	1.7555e-05	1.8007e-05	1109.5	209.79	1.698e-05	1.7809e-05	355.33	109.99	62.441	19.242	1.7811e-05	45.963	436.597	209.829	140.159	137.815	170.285	298.220	137.672	142.864	384.072	248.996	142.285	147.400	147.086	153.121	211.204	152.129	-8191	255	
2225.434	1	1	0	0	0.17332	0.081075	0.094354	0.089049	0.29175	0.097674	0.11086	0.18534	0.1356	0.31247	0.2113	0.16813	0.13231	0.23233	0.15761	0.14513	-2.8667	-2.8021	-2.9729	-3.1937	-2.6688	-3.0917	-3.1667	-2.9604	-3.2021	-2.8771	-3.0542	-3.1833	-2.8792	-3.0583	-2.9354	-2.9771	390.433	341.561	128.476	288.490	205.910	411.592	394.398	481.268	446.343	334.120	402.592	460.405	399.451	172.220	305.907	241.645	0.0012638	0.00016452	2.3626e-05	821.6	6.2957e-06	2.3963e-06	1139.3	213.35	1.5164e-05	3.7239e-06	360.81	112.5	61.467	19.341	4.4623e-06	47.051	0.0014875	0.0016316	0.00045583	808.75	1.7259e-05	1.7956e-05	1100.3	207.89	1.7101e-05	1.8061e-05	353.95	110.08	62.143	19.374	1.7337e-05	46.727	441.297	392.934	125.727	137.894	294.422	339.772	137.449	142.975	259.879	260.053	142.532	147.511	146.921	153.480	252.375	151.825	-8191	255	
2225.553	1	1	0	0	0.21551	0.096563	0.14441	0.22437	0.11242	0.099357	0.17744	0.018154	0.23574	0.13363	0.28677	0.11396	0.18271	0.35164	0.20488	0.26146	-2.8458	-2.8917	-2.875	-3.0917	-2.9708	-3.1833	-3.2521	-2.8521	-3.1729	-2.8833	-3.0208	-3.4354	-2.8646	-3.1021	-3.05	-3.0146	463.702	283.378	171.704	467.455	171.411	466.792	425.404	479.741	218.978	414.888	431.585	130.778	361.514	459.524	405.481	313.724	0.0014067	0.00048147	5.4914e-05	816.32	7.6874e-06	3.2469e-06	1122.2	212.69	9.3213e-06	2.6285e-06	360.93	112.51	62.804	19.527	1.8435e-06	48.247	0.0014749	0.0016358	0.00045664	803.12	1.7384e-05	1.8171e-05	1087.7	207.11	1.7593e-05	1.8425e-05	352.84	110.4	62.521	19.722	1.8433e-05	47.885	435.881	174.168	312.274	137.857	255.865	429.391	137.578	143.095	266.578	294.383	142.229	147.552	146.227	153.000	244.642	151.984	-8191	255	
2225.624	1	1	0	0	0.06791	0.093366	0.10506	0.070438	0.10506	0.061114	0.012323	0.12945	0.079413	0.121	0.19435	0.16328	0.087842	0.038819	0.074856	0.24175	-2.6042	-2.9292	-2.8646	-3.225	-3.0979	-2.9521	-3.2854	-2.8812	-3.1271	-3.0125	-3.2271	-3.2375	-2.9646	-3.0125	-3.1312	-2.9062	410.156	133.223	284.585	174.995	419.350	481.316	360.814	154.346	446.396	451.516	468.489	331.708	142.788	301.268	415.730	392.889	0.0012838	0.00018872	0.0001156	800.88	1.7635e-06	2.8215e-06	1103.9	209.81	6.4246e-06	6.0943e-06	358.4	113.03	61.857	19.417	7.2003e-06	47.84	0.0015747	0.0017355	0.00048764	792.73	1.8876e-05	1.9428e-05	1071.2	205.85	1.86e-05	1.9589e-05	352.42	110.55	62.437	19.638	1.9343e-05	47.609	433.899	299.371	210.868	137.760	377.548	204.119	137.572	143.042	299.404	289.432	142.463	147.549	146.808	153.198	241.065	151.872	-8191	255	
2225.721	1	1	0	0	0.26388	0.2784	0.11206	0.17602	0.21045	0.065813	0.26519	0.22325	0.21887	0.19385	0.15796	0.28786	0.086466	0.063474	0.095993	0.12279	-2.6125	-2.8417	-2.6729	-3.1083	-2.8354	-3.0438	-3.3167	-2.6729	-2.9896	-2.8229	-2.8583	-3.0667	-2.9396	-2.7625	-3.1771	-2.8042	369.219	455.655	417.999	399.451	165.466	147.319	364.189	351.870	257.400	282.710	162.985	127.078	152.215	192.786	281.551	418.149	0.0015841	0.00081314	7.7979e-05	809.46	1.2474e-05	2.195e-06	1105.7	210.93	2.7146e-06	9.1575e-06	358.72	112.73	61.51	19.432	9.6034e-06	48.639	0.0015952	0.0017715	0.00049503	794.76	1.9121e-05	1.9738e-05	1071.7	206.05	1.9219e-05	1.9954e-05	352.07	110.3	62.589	19.556	1.9345e-05	48.042	438.221	237.286	258.499	137.449	261.477	181.791	137.630	142.740	252.431	315.134	142.085	147.294	146.868	152.723	258.899	151.995	-8191	255	
2225.841	1	1	0	0	0.33179	0.15307	0.020354	0.1868	0.14661	0.22078	0.059679	0.079482	0.083721	0.36047	0.028473	0.11046	0.30119	0.1768	0.10637	0.30667	-2.7	-2.9979	-2.7396	-3.1854	-2.9375	-2.9562	-3.5021	-2.8625	-3.1771	-3.0208	-2.8604	-3.2375	-2.9854	-3.0104	-3.1646	-2.8375	417.637	134.334	309.657	453.512	278.726	277.701	265.840	464.313	365.255	246.958	172.608	181.710	159.516	132.952	383.933	424.848	0.0016718	0.00082752	8.2084e-05	793.11	8.5722e-06	5.0517e-06	1091.4	209.36	1.6837e-05	5.8949e-06	359.47	114.45	62.241	19.721	9.8394e-06	48.851	0.0016733	0.0018549	0.0005198	790.56	2.0453e-05	2.1196e-05	1064.7	206.12	2.0289e-05	2.1332e-05	353.21	111.7	63.374	19.977	2.0637e-05	48.654	440.599	176.934	184.417	137.938	215.471	260.645	137.548	142.928	275.897	233.237	142.391	147.447	146.850	152.980	198.340	151.605	-8191	255	
2225.937	1	1	0	0	0.071504	0.084799	0.34793	0.33275	0.0904	0.18137	0.11979	0.06932	0.12898	0.063148	0.22992	0.11639	0.087304	0.11972	0.15863	0.2177	-2.7375	-3.0917	-2.7583	-3.3312	-3.0792	-2.875	-3.3792	-3.2062	-3.0708	-3.1146	-2.9604	-3.4271	-2.9542	-2.8917	-3.2479	-3.1958	132.460	248.008	329.990	132.523	250.802	161.931	396.434	339.906	150.827	144.269	353.356	192.160	352.820	177.963	215.760	136.719	0.0012687	9.5387e-05	0.00017413	793.77	7.013e-06	7.7038e-06	1094.9	209.47	8.2948e-06	7.521e-06	357.74	114.48	61.684	19.718	5.1102e-06	48.969	0.001751	0.0019206	0.00053549	790.01	2.1236e-05	2.1573e-05	1063.4	206.25	2.0608e-05	2.1571e-05	351.45	111.66	63.327	20.009	2.0659e-05	48.845	435.175	228.837	249.248	137.683	322.268	265.518	137.548	142.739	317.418	301.824	142.248	147.442	146.822	152.731	209.417	151.683	-8191	255	
2226.034	1	1	0	0	0.11472	0.16614	0.10692	0.085235	0.057916	0.11059	0.23904	0.13834	0.13677	0.13481	0.060768	0.135	0.18677	0.27645	0.075132	0.049497	-2.5146	-2.9833	-2.8083	-3.125	-3.0042	-2.8604	-3.3667	-3.2438	-2.8167	-3.1729	-2.9958	-3.1083	-3.0104	-2.9021	-3.0771	-2.9083	227.746	423.925	221.319	145.981	338.667	334.723	392.080	464.963	357.749	185.238	158.917	166.904	136.480	404.696	259.197	208.418	0.0014396	0.00086289	0.00011934	787.42	4.6094e-06	5.97e-06	1083.3	209	1.5099e-05	4.4899e-06	353.97	113.37	61.581	19.845	2.3976e-06	49.241	0.0017261	0.0019516	0.00053876	783.65	2.1172e-05	2.1389e-05	1055.8	205.31	2.0922e-05	2.1792e-05	348.56	111.2	63.061	20.164	2.1542e-05	49.196	436.857	190.713	256.573	137.715	293.777	280.619	137.641	142.912	234.494	263.526	142.270	147.059	146.783	153.031	258.639	151.731	-8191	255	
2226.130	1	1	0	0	0.21044	0.26948	0.036061	0.22138	0.090026	0.26656	0.19573	0.07923	0.17294	0.21165	0.033498	0.10834	0.058654	0.48442	0.12188	0.29442	-2.4688	-2.9562	-2.8937	-3.0792	-2.9479	-2.9062	-3.4062	-3.0146	-3.0146	-3.2104	-3.1375	-2.975	-3.1312	-2.8583	-3.1542	-3.0104	409.051	462.045	308.645	414.762	361.042	232.871	433.177	415.044	467.595	288.585	327.059	427.325	315.497	439.430	455.364	465.023	0.0013334	0.00020686	0.00010952	785.56	6.7845e-06	4.7315e-06	1080.7	208	1.0793e-05	4.3416e-06	351.31	113.36	61.157	19.588	1.4783e-06	48.554	0.0017701	0.0019595	0.0005516	781.76	2.1321e-05	2.1591e-05	1049.7	204.27	2.0718e-05	2.1306e-05	345.98	110.36	62.405	19.919	2.0377e-05	48.511	435.742	213.109	241.007	137.704	251.511	288.626	137.546	142.806	282.248	314.870	142.293	147.259	146.609	153.436	342.843	151.819	-8191	255	
2226.201	1	1	0	0	0.22992	0.055422	0.10302	0.15076	0.09791	0.032898	0.17449	0.33036	0.22974	0.096455	0.088799	0.16651	0.17367	0.16766	0.21642	0.21713	-2.4938	-3.1083	-2.7729	-2.9583	-3.2792	-3	-3.3	-3.0167	-2.7229	-3.2646	-3.1708	-3.1437	-3.1417	-2.8479	-3.3063	-3.0938	428.652	336.563	288.071	417.288	450.023	238.659	424.909	137.143	403.730	467.498	325.294	431.938	224.756	241.556	129.600	422.157	0.0013619	0.00034675	8.2705e-05	785.52	3.5171e-06	1.7283e-06	1082.8	206.55	8.3609e-06	6.2993e-06	347.7	110.86	60.088	19.48	7.2011e-06	48.608	0.0016999	0.001887	0.00052319	777.54	2.0172e-05	2.0731e-05	1046.2	202.61	1.9485e-05	2.0148e-05	342.99	108.27	61.003	19.627	1.9464e-05	48.201	439.940	242.538	194.980	137.831	233.190	230.599	137.471	142.664	184.681	315.399	142.497	147.668	146.463	152.771	303.320	151.687	-8191	255	
2226.322	1	1	0	0	0.25032	0.26726	0.15044	0.19093	0.13218	0.093446	0.28571	0.13084	0.10933	0.17694	0.2216	0.15182	0.1851	0.17558	0.15858	0.14477	-2.5021	-3.1021	-3.0667	-2.9958	-3.1437	-3.0729	-3.1292	-3.2458	-2.9458	-3.3708	-2.9792	-2.9917	-3.1312	-2.9604	-3.0812	-3.1917	295.190	259.007	128.740	428.702	221.586	402.097	433.602	144.729	320.953	360.205	384.380	141.462	338.443	399.979	436.138	292.755	0.0014538	0.00015697	0.00013216	780.77	3.6309e-06	7.99e-06	1072.8	206	1.053e-05	6.4443e-06	346.4	108.74	59.084	19.271	5.7007e-06	48.159	0.001602	0.001754	0.00049512	773.22	1.8613e-05	1.9128e-05	1040.8	201.13	1.8025e-05	1.8546e-05	339.31	106.51	59.826	19.366	1.753e-05	47.594	439.471	172.702	205.225	137.945	307.197	240.846	137.488	142.967	183.933	294.810	142.236	147.318	146.861	153.043	272.585	151.409	-8191	255	
2226.416	1	1	0	0	0.21062	0.19343	0.13339	0.13401	0.26966	0.04214	0.20489	0.23171	0.23704	0.035214	0.13923	0.1342	0.014847	0.033304	0.18534	0.30779	-2.5875	-3.1667	-3.0208	-2.9458	-3.125	-2.9271	-3.2833	-3.1854	-2.9792	-3.0292	-3.1063	-2.8271	-3.3167	-2.9083	-3.0812	-3.0771	356.674	275.214	474.711	425.078	316.542	395.796	435.808	393.775	296.060	214.609	187.400	464.278	472.693	162.052	244.451	413.179	0.0016068	0.00020409	6.6575e-05	785.45	6.149e-06	3.0418e-06	1069.3	205.31	1.7461e-05	7.2558e-06	341.45	106.98	58.85	19.332	6.872e-06	48.224	0.0014677	0.001625	0.00045346	770.53	1.7003e-05	1.7593e-05	1035.5	200.06	1.6358e-05	1.7374e-05	334.48	104.53	58.945	19.436	1.6546e-05	47.845	436.362	393.296	233.584	137.717	242.401	153.391	137.440	142.764	223.387	291.659	142.372	147.237	146.957	152.548	312.929	151.512	-8191	255	
2226.514	1	1	0	0	0.18376	0.038345	0.20585	0.16487	0.11719	0.060555	0.1433	0.10227	0.33069	0.24953	0.031366	0.17174	0.14545	0.14626	0.13826	0.090022	-2.3542	-3.1958	-2.95	-2.975	-3.3	-3.0667	-3.2042	-3.0542	-2.9104	-3.1354	-3.2292	-2.9167	-3.1688	-3.2396	-2.9313	-3.3229	166.264	272.117	289.557	426.997	393.126	202.667	300.216	313.481	424.822	175.353	469.271	410.094	298.612	149.330	314.734	444.762	0.0015207	0.00013426	4.9961e-06	779.41	9.7047e-06	4.4647e-06	1070.8	205.09	9.9935e-06	3.1179e-06	337.34	105.17	57.692	19.194	3.8932e-06	48.154	0.0013906	0.0014972	0.00041698	768.31	1.5733e-05	1.6196e-05	1032.2	199.81	1.5177e-05	1.5832e-05	330.26	102.59	57.569	19.223	1.4839e-05	47.498	440.568	226.027	478.755	137.569	262.724	354.641	137.158	142.511	289.971	340.588	142.097	147.550	146.613	152.529	276.995	151.328	-8191	255	
2226.633	1	1	0	0	0.16614	0.11045	0.17067	0.10811	0.2263	0.034124	0.19599	0.15916	0.17549	0.063238	0.31979	0.29721	0.18578	0.13798	0.22892	0.089641	-2.2417	-3.2812	-3.1583	-2.9938	-3.0917	-3.0583	-3.0292	-3.3708	-3.075	-2.9896	-3.1708	-2.8417	-3.1479	-3.0271	-2.7833	-3.2687	446.131	254.905	451.523	461.990	247.233	483.128	373.879	228.555	400.779	238.504	460.237	136.000	204.527	192.969	234.567	470.193	0.001468	0.00058735	6.8539e-05	780.88	6.8191e-06	1.7154e-06	1066	205.63	1.6188e-05	3.6464e-06	335.4	103.86	56.723	19.322	9.3278e-06	48.152	0.0012546	0.0013636	0.00038254	767.4	1.4406e-05	1.4903e-05	1031.5	199.99	1.441e-05	1.4782e-05	328.54	101.24	56.532	19.205	1.4355e-05	47.538	436.301	257.139	154.761	137.811	262.325	290.201	137.209	142.487	283.645	240.256	142.173	146.963	146.623	152.472	248.672	151.828	-8191	255	
2226.729	1	1	0	0	0.22464	0.084832	0.12488	0.30523	0.22341	0.029202	0.21355	0.047874	0.090076	0.041405	0.076713	0.11084	0.2752	0.15263	0.26525	0.034379	-2.4417	-3.0167	-3.0062	-2.8438	-3.1208	-2.9625	-3.0521	-3.375	-2.725	-3.0167	-3.3375	-3.0125	-3.0687	-2.9833	-2.8896	-3.2208	322.277	454.268	283.079	139.885	168.423	335.200	389.747	440.636	241.790	395.543	219.470	444.887	467.729	180.609	235.461	300.763	0.0014959	0.00075735	0.00016981	779.83	7.7017e-06	8.192e-06	1067.4	205.05	1.05e-05	1.0948e-06	336.47	103.86	56.3	19.433	5.1486e-06	48.855	0.0012526	0.0013453	0.00037209	763.37	1.4291e-05	1.4633e-05	1029.8	199.61	1.4031e-05	1.4716e-05	327.45	100.89	56.218	19.345	1.4412e-05	48.239	438.897	176.834	341.596	137.643	289.786	262.918	137.207	142.438	282.665	141.760	142.233	147.200	146.931	152.556	252.416	151.702	-8191	255	
2226.825	1	1	0	0	0.15677	0.10271	0.24699	0.32487	0.036615	0.19909	0.29351	0.11015	0.32563	0.034479	0.22029	0.10654	0.2221	0.080809	0.23666	0.14742	-2.375	-2.9896	-3.0792	-2.7625	-3.1562	-3.0854	-3.0542	-3.2	-2.9021	-3.1333	-3.1542	-2.9896	-3.2938	-3.0938	-2.9375	-3.1958	348.541	467.571	157.586	178.479	375.308	152.686	147.440	386.720	340.276	384.874	134.754	126.331	186.839	137.306	428.607	379.798	0.0016112	0.0003385	0.00013344	770.07	5.7867e-06	5.0668e-06	1053.7	205.22	8.3637e-06	4.263e-06	333.99	103.76	55.802	19.885	8.2302e-06	50.272	0.0012269	0.0013292	0.00036273	757.55	1.4176e-05	1.4581e-05	1021.1	198.69	1.3694e-05	1.4483e-05	326.37	101.34	55.942	19.845	1.4053e-05	49.612	445.729	188.027	219.809	137.618	329.152	278.722	137.416	142.564	265.877	285.389	142.821	147.251	146.354	152.394	251.248	151.603	-8191	255	
2226.922	1	1	0	0	0.30602	0.076143	0.099792	0.18009	0.030062	0.2291	0.10549	0.16685	0.21447	0.077344	0.20411	0.18829	0.11373	0.18936	0.077448	0.10447	-2.6708	-2.8187	-3.1521	-3.1437	-3.0604	-2.9875	-3.2104	-3.2167	-3.0687	-2.8583	-3.1104	-2.875	-2.9917	-3.0958	-2.9062	-3.0958	421.476	170.577	217.278	463.468	433.236	320.666	149.527	380.778	186.688	260.933	223.942	139.865	388.582	194.928	199.982	359.437	0.0015337	0.00099686	3.7735e-05	766.58	7.6316e-06	3.8643e-06	1053	200.33	5.5306e-06	7.1806e-06	336.11	105.82	56.384	20.438	6.2719e-06	51.686	0.0012263	0.0013093	0.00036855	750.23	1.4056e-05	1.3913e-05	1012.4	195.14	1.3478e-05	1.4021e-05	326.92	103	55.784	20.405	1.3229e-05	50.95	441.286	213.516	209.891	137.708	270.060	267.747	137.484	142.798	246.178	335.979	142.779	147.732	147.076	152.400	253.858	151.632	-8191	255	
2227.018	1	1	0	0	0.18459	0.050425	0.15287	0.03697	0.20612	0.28861	0.23034	0.23207	0.099071	0.094404	0.16422	0.14263	0.27254	0.23764	0.17736	0.057124	-2.5354	-2.9771	-3.1375	-3.1042	-2.9542	-3.0438	-2.9688	-3.0187	-2.975	-2.8563	-3.1958	-2.9375	-2.8729	-3.0771	-3.0312	-3.075	417.931	459.104	280.487	234.235	126.021	141.296	382.702	374.707	325.730	255.021	146.294	202.206	159.028	338.161	144.150	360.520	0.0015933	0.00019941	0.00018655	763.66	8.4918e-06	7.63e-06	1041.4	197.38	1.0054e-05	4.6409e-06	337.76	107.08	56.399	21.047	8.5211e-06	52.375	0.0011636	0.0012036	0.0003371	747.47	1.2938e-05	1.3408e-05	1005.1	191.52	1.2422e-05	1.2831e-05	328.5	104.24	55.842	20.94	1.2605e-05	51.615	442.389	227.115	254.541	137.892	284.993	264.802	137.468	143.026	259.387	321.916	142.729	147.636	146.938	152.965	237.369	151.667	-8191	255	
2227.114	1	1	0	0	0.028291	0.33482	0.14042	0.25928	0.16657	0.20194	0.17306	0.17817	0.15591	0.27329	0.17228	0.14087	0.17108	0.31945	0.084008	0.26369	-2.6188	-3.0792	-3.1458	-2.9604	-2.9667	-3.1458	-3.0604	-3.3125	-3.1958	-3.0521	-3.2125	-3.2354	-2.8792	-3.1958	-2.8438	-3.1792	291.809	307.548	205.258	401.105	366.953	358.859	394.481	443.732	300.591	402.327	409.783	477.320	334.290	157.510	311.604	140.549	0.0016266	0.00027007	0.00019424	764.08	8.2579e-06	4.2101e-06	1028.8	196.75	5.3074e-06	2.456e-06	337.49	108.07	56.524	21.19	5.4184e-06	52.747	0.0011307	0.0011403	0.00032188	745.15	1.2667e-05	1.2501e-05	995.06	191.62	1.2197e-05	1.2583e-05	328.06	104.79	55.705	21.001	1.2279e-05	51.975	442.477	225.675	197.682	138.081	229.235	349.832	137.616	142.756	313.295	243.772	142.748	147.177	147.217	152.746	281.526	151.436	-8191	255	
2227.235	1	1	0	0	0.098516	0.15785	0.1762	0.32793	0.14491	0.071208	0.22408	0.56092	0.13702	0.052295	0.16005	0.20215	0.088603	0.15104	0.21447	0.10384	-2.8063	-2.8812	-3.1458	-3.0667	-2.7917	-3.2104	-3.0896	-3.0729	-3.0104	-2.8958	-3.3271	-3.0438	-2.9021	-3.2833	-3.0187	-3.0333	324.062	179.349	325.236	468.346	196.094	257.654	354.523	416.291	150.957	333.858	218.592	472.491	391.919	472.153	362.284	268.837	0.0015884	0.00091425	0.0001753	762.55	9.797e-07	4.0436e-06	1018.3	201.03	1.1709e-05	3.486e-06	337.15	108.77	56.49	21.538	5.7029e-06	53.635	0.0010997	0.0011597	0.00032617	745.48	1.2434e-05	1.2521e-05	985.47	195.15	1.2252e-05	1.2593e-05	328.37	105.32	56.022	21.385	1.2848e-05	52.705	438.423	240.676	213.782	137.776	328.523	325.273	137.821	143.020	241.712	154.997	142.489	147.236	147.379	152.951	214.048	151.623	-8191	255	
2227.331	1	1	0	0	0.076538	0.18677	0.080523	0.10959	0.11757	0.2639	0.081677	0.26418	0.28418	0.10479	0.042033	0.27413	0.10574	0.22343	0.12188	0.25299	-2.7062	-2.9625	-2.9792	-3.1063	-2.8583	-3.3625	-2.9771	-3	-3.1396	-3.0521	-3.2833	-3.2792	-2.8042	-3.2854	-3.1167	-3.1625	134.779	175.006	469.232	168.568	273.196	159.679	397.442	186.527	187.311	416.946	163.061	457.175	132.260	403.036	132.695	473.693	0.0015761	0.00054586	0.00014514	759.16	5.1256e-06	4.5076e-06	1016.8	203.06	6.624e-06	4.3495e-06	340.81	109.17	57.187	21.721	4.5277e-06	54.425	0.0011154	0.001194	0.00033664	744.87	1.2784e-05	1.3138e-05	982.94	197.13	1.262e-05	1.3328e-05	331.18	106.39	56.206	21.64	1.3344e-05	53.722	435.572	242.937	251.708	138.006	171.549	223.999	137.633	142.977	341.355	370.159	142.626	147.804	147.062	152.630	243.867	151.737	-8191	255	
2227.425	1	1	0	0	0.042262	0.095035	0.25785	0.22115	0.26339	0.18146	0.34761	0.17668	0.17143	0.063081	0.22147	0.088926	0.15115	0.11515	0.09585	0.079816	-2.675	-2.8875	-3.3521	-3.2333	-2.7896	-3.2562	-2.9229	-3.1667	-3.2021	-2.9646	-3.2	-2.9792	-2.7979	-3.1604	-3.0083	-3.1188	181.651	350.578	207.559	405.854	218.696	317.072	362.412	397.647	429.071	373.143	168.883	354.969	484.867	137.581	133.244	154.428	0.0016787	0.00021947	9.3656e-05	758.99	1.0531e-05	5.5689e-06	1015.6	201.88	1.0562e-05	3.1172e-06	339.99	109.9	57.001	21.964	8.6296e-06	55.193	0.0011683	0.0012337	0.00034759	743.97	1.339e-05	1.3725e-05	979.97	196.17	1.3201e-05	1.3729e-05	331.84	106.6	56.034	21.878	1.3495e-05	54.333	436.581	150.741	183.449	137.769	250.826	254.316	138.007	143.013	233.425	342.461	142.650	147.637	146.460	152.807	249.697	151.702	-8191	255	
2227.497	1	1	0	0	0.032407	0.052402	0.17681	0.094087	0.07169	0.11311	0.24487	0.20514	0.17912	0.20477	0.17051	0.14625	0.14824	0.15093	0.046928	0.47356	-2.8563	-2.7625	-2.9896	-3.15	-2.7833	-3.2	-3.0375	-3.1	-3.225	-2.8875	-3.1417	-3.1521	-2.9042	-3.1729	-3.05	-2.9042	177.699	358.781	418.524	305.225	289.502	480.264	374.169	371.903	369.429	154.954	425.687	143.556	150.870	459.711	353.205	437.998	0.0015848	0.00057413	0.00013429	750.99	5.6875e-06	3.9924e-06	1010.4	200.94	1.1496e-05	6.5664e-06	336.65	109.92	56.138	22.09	3.2442e-06	55.248	0.0012099	0.0012814	0.00036301	743.07	1.385e-05	1.4412e-05	976.07	195.98	1.4033e-05	1.4393e-05	329.82	106.45	55.932	22.019	1.4633e-05	54.451	442.087	200.614	222.269	137.749	251.987	253.031	137.657	143.326	228.662	270.727	142.615	147.581	147.518	152.985	321.069	151.662	-8191	255	
2227.617	1	1	0	0	0.19688	0.1667	0.18626	0.15124	0.13304	0.19156	0.41617	0.08183	0.1903	0.13358	0.2414	0.19382	0.18354	0.24031	0.12077	0.091865	-2.7625	-2.8979	-3.0979	-3.3479	-2.8583	-3.0521	-3.1542	-2.875	-3.3187	-2.9875	-3.1146	-3.1562	-2.9062	-3.0125	-3.1146	-2.85	427.347	220.842	255.313	457.930	208.340	357.989	427.401	294.589	193.051	473.325	145.028	173.139	333.332	483.459	186.397	230.094	0.0016879	0.00071068	8.7317e-05	754.76	1.0411e-05	5.0023e-06	1007.4	202.53	7.8145e-06	3.0335e-06	332.53	109.44	55.538	22.696	2.6522e-06	55.781	0.0012747	0.0013797	0.00038371	744.68	1.4925e-05	1.5601e-05	974.21	197.63	1.5078e-05	1.578e-05	325.95	107.03	56.012	22.658	1.5741e-05	55.295	435.686	213.156	223.786	137.938	260.446	238.102	138.022	143.556	218.116	313.616	143.094	147.905	147.231	153.075	278.119	151.488	-8191	255	
#DATA ENDS
