BOXY.EXE: ISS Imagent and Oximeter Data Acquisition Program Version 0.80
Ascii Record File

#ACQ INFORMATION
2  Detector Channels 
16  External MUX Channels 
1  Auxiliary Channels 
5000  Waveform (CCF) Frequency (Hz)
1  Waveforms Skipped 
30  Waveforms Averaged 
1  Cycles Averaged 
16  Acquisitions per Waveform 
10.0806  Updata Rate (Hz) 

#FILE INFORMATION
TRUE -- External MUX Channel results are PARSED.
FALSE -- AC DC and Phase are NOT grouped.
TRUE -- Companion Program Settings File CREATED.
FALSE -- AC data not excluded
FALSE -- DC data not excluded
FALSE -- Phase data not excluded
FALSE -- Auxillary Chn. data not excluded
Tab delimiters

#CALIBRATION STATE
TRUE -- Waveform Calibration Values APPLIED.


#AUX CALIBRATION VALUES
Val Type	aux-1	

Term	1.0000e+00	
Factor	0.0000e+00	


#WF CALIBRATION VALUES
A = Detector Channel
Val Type	A-AC1	A-AC2	A-AC3	A-AC4	A-AC5	A-AC6	A-AC7	A-AC8	A-AC9	A-AC10	A-AC11	A-AC12	A-AC13	A-AC14	A-AC15	A-AC16	A-DC1	A-DC2	A-DC3	A-DC4	A-DC5	A-DC6	A-DC7	A-DC8	A-DC9	A-DC10	A-DC11	A-DC12	A-DC13	A-DC14	A-DC15	A-DC16	A-Ph1	A-Ph2	A-Ph3	A-Ph4	A-Ph5	A-Ph6	A-Ph7	A-Ph8	A-Ph9	A-Ph10	A-Ph11	A-Ph12	A-Ph13	A-Ph14	A-Ph15	A-Ph16	

Term	0.00000e+00	0.00000e+00	0.00000e+00	0.00000e+00	0.00000e+00	0.00000e+00	0.00000e+00	0.00000e+00	0.00000e+00	0.00000e+00	0.00000e+00	0.00000e+00	0.00000e+00	0.00000e+00	0.00000e+00	0.00000e+00	0.00000e+00	0.00000e+00	0.00000e+00	0.00000e+00	0.00000e+00	0.00000e+00	0.00000e+00	0.00000e+00	0.00000e+00	0.00000e+00	0.00000e+00	0.00000e+00	0.00000e+00	0.00000e+00	0.00000e+00	0.00000e+00	0.00000e+00	0.00000e+00	0.00000e+00	0.00000e+00	0.00000e+00	0.00000e+00	0.00000e+00	0.00000e+00	0.00000e+00	0.00000e+00	0.00000e+00	0.00000e+00	0.00000e+00	0.00000e+00	0.00000e+00	0.00000e+00	
Factor	1.00000e+00	1.00000e+00	1.00000e+00	1.00000e+00	1.00000e+00	1.00000e+00	1.00000e+00	1.00000e+00	1.00000e+00	1.00000e+00	1.00000e+00	1.00000e+00	1.00000e+00	1.00000e+00	1.00000e+00	1.00000e+00	1.00000e+00	1.00000e+00	1.00000e+00	1.00000e+00	1.00000e+00	1.00000e+00	1.00000e+00	1.00000e+00	1.00000e+00	1.00000e+00	1.00000e+00	1.00000e+00	1.00000e+00	1.00000e+00	1.00000e+00	1.00000e+00	X	X	X	X	X	X	X	X	X	X	X	X	X	X	X	X	

B = Detector Channel
Val Type	B-AC1	B-AC2	B-AC3	B-AC4	B-AC5	B-AC6	B-AC7	B-AC8	B-AC9	B-AC10	B-AC11	B-AC12	B-AC13	B-AC14	B-AC15	B-AC16	B-DC1	B-DC2	B-DC3	B-DC4	B-DC5	B-DC6	B-DC7	B-DC8	B-DC9	B-DC10	B-DC11	B-DC12	B-DC13	B-DC14	B-DC15	B-DC16	B-Ph1	B-Ph2	B-Ph3	B-Ph4	B-Ph5	B-Ph6	B-Ph7	B-Ph8	B-Ph9	B-Ph10	B-Ph11	B-Ph12	B-Ph13	B-Ph14	B-Ph15	B-Ph16	

Term	0.00000e+00	0.00000e+00	0.00000e+00	0.00000e+00	0.00000e+00	0.00000e+00	0.00000e+00	0.00000e+00	0.00000e+00	0.00000e+00	0.00000e+00	0.00000e+00	0.00000e+00	0.00000e+00	0.00000e+00	0.00000e+00	0.00000e+00	0.00000e+00	0.00000e+00	0.00000e+00	0.00000e+00	0.00000e+00	0.00000e+00	0.00000e+00	0.00000e+00	0.00000e+00	0.00000e+00	0.00000e+00	0.00000e+00	0.00000e+00	0.00000e+00	0.00000e+00	-2.34514e+02	-1.29768e+02	-1.30127e+02	-1.84443e+02	-8.22941e+01	-6.40824e+01	-1.56720e+02	-1.62015e+02	-7.26260e+01	-6.78743e+01	-1.72091e+02	-1.69816e+02	-1.86035e+02	-1.76734e+02	-7.55040e+01	-1.49635e+02	
Factor	5.55501e-05	1.82107e-04	4.65506e-05	3.36067e-01	2.21863e-06	2.08987e-06	1.79340e-01	5.49720e-02	3.07935e-06	1.85942e-06	9.27168e-02	3.06035e-02	5.57620e-02	9.79774e-03	2.10663e-06	1.41981e-02	8.47988e-06	1.03975e-05	2.90508e-06	1.65852e-01	1.11247e-07	1.15048e-07	8.36732e-02	2.73498e-02	1.08864e-07	1.14871e-07	4.47458e-02	1.47719e-02	2.76586e-02	4.92130e-03	1.11357e-07	6.90630e-03	X	X	X	X	X	X	X	X	X	X	X	X	X	X	X	X	



#DISTANCE SETTINGS
A = Detector Channel
A-1	A-2	A-3	A-4	A-5	A-6	A-7	A-8	A-9	A-10	A-11	A-12	A-13	A-14	A-15	A-16	

2.5000e+00	3.0000e+00	2.5000e+00	3.0000e+00	2.0000e+00	3.0000e+00	1.5000e+00	3.0000e+00	3.0000e+00	3.0000e+00	3.0000e+00	3.0000e+00	3.0000e+00	3.0000e+00	1.5000e+00	3.0000e+00	

B = Detector Channel
B-1	B-2	B-3	B-4	B-5	B-6	B-7	B-8	B-9	B-10	B-11	B-12	B-13	B-14	B-15	B-16	

1.0000e+01	1.0000e+01	1.0000e+01	1.4400e+00	1.0000e+01	1.0000e+01	1.5100e+00	1.9400e+00	1.0000e+01	1.0000e+01	1.9900e+00	2.4900e+00	2.4100e+00	2.9000e+00	1.0000e+01	2.9800e+00	




#DATA BEGINS
time	group	step	mark	flag	A-AC1	A-AC2	A-AC3	A-AC4	A-AC5	A-AC6	A-AC7	A-AC8	A-AC9	A-AC10	A-AC11	A-AC12	A-AC13	A-AC14	A-AC15	A-AC16	A-DC1	A-DC2	A-DC3	A-DC4	A-DC5	A-DC6	A-DC7	A-DC8	A-DC9	A-DC10	A-DC11	A-DC12	A-DC13	A-DC14	A-DC15	A-DC16	A-Ph1	A-Ph2	A-Ph3	A-Ph4	A-Ph5	A-Ph6	A-Ph7	A-Ph8	A-Ph9	A-Ph10	A-Ph11	A-Ph12	A-Ph13	A-Ph14	A-Ph15	A-Ph16	B-AC1	B-AC2	B-AC3	B-AC4	B-AC5	B-AC6	B-AC7	B-AC8	B-AC9	B-AC10	B-AC11	B-AC12	B-AC13	B-AC14	B-AC15	B-AC16	B-DC1	B-DC2	B-DC3	B-DC4	B-DC5	B-DC6	B-DC7	B-DC8	B-DC9	B-DC10	B-DC11	B-DC12	B-DC13	B-DC14	B-DC15	B-DC16	B-Ph1	B-Ph2	B-Ph3	B-Ph4	B-Ph5	B-Ph6	B-Ph7	B-Ph8	B-Ph9	B-Ph10	B-Ph11	B-Ph12	B-Ph13	B-Ph14	B-Ph15	B-Ph16	aux-1	digaux	

1381.990	1	1	0	768	0.11598	0.31168	0.086538	0.091879	0.23531	0.047576	0.077632	0.12239	0.065947	0.12008	0.17663	0.22257	0.09075	0.17219	0.16609	0.14029	-2.9	-3.3063	-3.2958	-3.5	-3.6583	-3.075	-3.425	-3.725	-3.3021	-3.3833	-3.3312	-3.3833	-3.5375	-2.9729	-3.3625	-3.4375	150.642	80.772	51.837	4.394	146.604	-118.617	-19.939	153.480	162.140	86.859	183.541	162.997	-27.993	-135.736	-58.440	80.113	0.0011914	0.00053121	0.00014659	1350	5.5076e-06	3.284e-06	1349.1	365.88	8.7068e-06	4.5653e-06	418.72	139.76	122.51	41.685	5.9563e-06	51.613	0.0005655	0.00052382	0.00014096	1373.9	5.7353e-06	5.6922e-06	1373.3	373.39	5.8138e-06	5.7651e-06	426.46	142.84	124.53	42.845	5.692e-06	52.999	95.699	-79.001	-77.191	-141.896	-30.711	47.908	-142.414	-137.647	-34.609	2.642	-137.950	-133.887	-133.810	-128.552	-31.961	-129.400	-8191	255	
1382.086	1	1	0	0	0.20976	0.18053	0.042058	0.18441	0.11089	0.18456	0.14566	0.03087	0.11069	0.16509	0.22619	0.15235	0.036545	0.15263	0.1007	0.14083	-2.9688	-3.4104	-3.3542	-3.2125	-3.5771	-3.2396	-3.625	-3.7021	-3.2375	-3.4	-3.4646	-3.4188	-3.6063	-3.5208	-3.4229	-3.6021	-136.256	28.834	-68.931	13.105	-16.371	-106.448	129.787	120.700	57.158	7.627	-73.884	-126.662	-107.803	10.582	50.774	-26.871	0.0011922	0.00047377	8.1389e-05	1350.8	5.544e-06	3.6769e-06	1350.6	365.84	1.0283e-05	4.8988e-06	417.72	139.82	121.79	41.583	7.1794e-06	51.415	0.0005737	0.00053168	0.00014633	1373.5	5.7675e-06	5.7418e-06	1372.7	373.1	5.79e-06	5.5823e-06	425.64	142.88	124.28	42.783	5.702e-06	53.001	94.174	-71.627	-58.446	-141.982	-26.416	32.308	-142.383	-137.462	-35.117	-19.105	-137.980	-133.835	-133.957	-128.366	-17.284	-129.352	-8191	255	
1382.182	1	1	0	0	0.20621	0.044604	0.13656	0.1556	0.16264	0.14496	0.24714	0.085047	0.22924	0.13104	0.29981	0.10858	0.07374	0.19049	0.15607	0.17793	-2.7521	-3.4646	-3.3187	-3.2042	-3.5187	-3.2229	-3.4521	-3.5875	-3.2604	-3.525	-3.4437	-3.1896	-3.5667	-3.4667	-3.4396	-3.6417	-17.649	149.458	-98.426	-112.104	-145.936	-41.488	181.037	35.451	-47.023	164.406	104.171	-153.893	125.055	184.829	-125.146	-95.199	0.001122	0.0006581	0.00014577	1350.5	7.1381e-06	4.9601e-06	1348	366.98	7.7161e-06	3.9214e-06	417.98	139.91	121.89	41.724	5.3039e-06	51.49	0.00058304	0.00053497	0.00015181	1371.4	5.8836e-06	5.9748e-06	1371.8	373.33	6.2282e-06	5.964e-06	426.46	142.91	124.17	42.818	6.2597e-06	52.983	96.704	-51.503	-105.803	-142.031	-40.329	-34.107	-142.318	-137.386	-39.768	-23.084	-137.860	-133.948	-133.770	-128.322	-23.381	-129.197	-8191	255	
1382.279	1	1	0	0	0.075964	0.11034	0.17878	0.18448	0.1651	0.11507	0.34249	0.24845	0.023936	0.056308	0.13893	0.0078044	0.25074	0.15714	0.11593	0.18198	-2.6104	-3.35	-3.3146	-3.2938	-3.4542	-3.3667	-3.3312	-3.8292	-3.3167	-3.3771	-3.4833	-3.1083	-3.4396	-3.5333	-3.2604	-3.5187	-63.726	-104.708	107.743	171.238	43.902	-43.980	125.686	104.746	136.404	-72.860	198.022	-151.067	-53.277	-118.659	-73.749	-110.717	0.0012345	0.00029416	0.00018012	1350.4	6.3961e-06	7.2404e-06	1350.2	365.67	1.2789e-05	5.1974e-06	419.9	139.51	121.74	41.735	7.8356e-06	51.389	0.00061995	0.00056959	0.00016172	1373.2	6.1893e-06	6.2178e-06	1372.1	372.62	6.4098e-06	6.1411e-06	426.4	142.72	124.13	42.871	6.3617e-06	53.016	93.468	-53.568	-68.060	-142.074	-25.391	-0.694	-142.211	-137.351	-50.989	-32.827	-137.837	-133.963	-133.756	-128.327	-46.638	-129.166	-8191	255	
1382.375	1	1	0	0	0.28121	0.16694	0.26068	0.10001	0.29014	0.26171	0.058049	0.17698	0.080904	0.049757	0.13112	0.05641	0.15509	0.2197	0.027597	0.079841	-2.5542	-3.3312	-3.4125	-3.1542	-3.4792	-3.5271	-3.3604	-3.55	-3.1708	-3.5521	-3.7	-3.2792	-3.4625	-3.3792	-3.2583	-3.675	-52.749	35.874	49.921	146.652	-146.890	135.179	-78.341	114.986	-139.299	178.120	-28.431	136.677	138.135	178.059	-143.724	52.071	0.0012416	0.00061385	0.00010245	1347.7	5.1107e-06	3.978e-06	1350.7	367.19	1.5372e-05	4.6893e-06	418	140.43	122.04	41.778	5.1192e-06	51.545	0.00060859	0.00056729	0.00015785	1373.3	6.0426e-06	5.9863e-06	1371.9	373.87	6.1193e-06	6.0532e-06	426.28	142.99	124.48	42.867	5.9785e-06	53.146	96.084	-51.208	-58.433	-141.936	-2.676	-9.940	-142.316	-137.494	-66.646	-9.262	-137.745	-133.895	-133.790	-128.306	2.083	-129.129	-8191	255	
1382.471	1	1	0	0	0.10175	0.25652	0.16735	0.24645	0.10535	0.16285	0.22886	0.14801	0.075404	0.045481	0.32857	0.16481	0.19759	0.066944	0.062904	0.183	-2.8292	-3.2792	-3.6146	-3.2125	-3.5854	-3.3979	-3.4729	-3.7167	-3.275	-3.2687	-3.6437	-3.2583	-3.2812	-3.4708	-3.2188	-3.7417	81.083	-56.103	13.110	80.006	-128.541	203.226	156.702	75.507	195.398	-17.159	-148.405	156.526	18.021	-75.817	-21.152	-137.370	0.0011724	0.00065144	0.00011218	1356	7.5206e-06	6.1204e-06	1349.8	367.98	1.0366e-05	5.0023e-06	418.02	140.5	122.59	41.73	6.4681e-06	51.521	0.00058087	0.00052975	0.00015032	1374.5	5.5135e-06	5.7577e-06	1374.3	373.79	5.4868e-06	5.4619e-06	426.82	143.4	124.54	42.859	5.4338e-06	53.096	96.087	-64.674	-65.621	-141.897	-44.743	13.018	-142.279	-137.279	-28.029	-11.601	-137.820	-133.721	-133.638	-128.350	-29.296	-129.019	-8191	255	
1382.590	1	1	0	0	0.27447	0.013137	0.20881	0.25526	0.13787	0.34009	0.29342	0.26355	0.22909	0.14835	0.15606	0.061987	0.0080872	0.15375	0.070855	0.11865	-2.7604	-3.2229	-3.5958	-3.3312	-3.3229	-3.3833	-3.2354	-3.5583	-3.3292	-3.3187	-3.5417	-3.2167	-3.6312	-3.5896	-3.0896	-3.5375	-84.004	-76.291	-53.021	61.674	183.956	125.078	118.056	145.370	-127.972	156.241	185.053	-133.035	36.628	-144.574	157.187	98.735	0.0012205	0.00051619	0.00011458	1350.3	4.1317e-06	4.0542e-06	1345	364.61	9.039e-06	5.145e-06	417.14	139.26	120.91	41.406	7.59e-06	51.311	0.00054093	0.00048576	0.0001328	1370.4	5.2671e-06	5.3186e-06	1369.2	372.65	5.347e-06	5.4688e-06	425.67	142.53	123.7	42.654	5.6082e-06	52.913	92.822	-75.720	-55.173	-141.844	-68.013	18.336	-142.252	-137.430	-44.722	-15.882	-137.961	-134.122	-133.918	-128.333	-35.874	-129.060	-8191	255	
1382.686	1	1	0	0	0.058088	0.12942	0.12902	0.37051	0.069787	0.14693	0.42725	0.17398	0.069269	0.10466	0.060393	0.29391	0.089496	0.089558	0.22773	0.076569	-2.8896	-3.2625	-3.4396	-3.2687	-3.325	-3.3979	-3.4271	-3.7083	-3.3396	-3.275	-3.5917	-3.3292	-3.3146	-3.4271	-3.25	-3.6604	-89.210	134.692	54.662	163.565	-67.882	131.625	140.010	113.517	177.461	-52.105	34.332	169.416	85.452	-125.765	-96.220	-62.677	0.0011353	0.0003272	0.00011318	1345.3	5.7146e-06	6.8905e-06	1344.2	364.86	9.5996e-06	4.5443e-06	416.78	139.28	121.72	41.799	5.9238e-06	51.412	0.00055663	0.00050562	0.00014001	1368.9	5.4998e-06	5.6047e-06	1368.8	372.43	5.5239e-06	5.55e-06	425.34	142.41	123.98	42.783	5.4783e-06	52.989	94.768	-83.384	-63.213	-141.855	-37.387	-8.343	-142.101	-137.420	-26.800	-10.275	-138.016	-134.025	-133.780	-128.143	-12.188	-129.243	-8191	255	
1382.782	1	1	0	0	0.11981	0.18773	0.085143	0.093695	0.029736	0.12091	0.29626	0.098217	0.19752	0.10121	0.046178	0.10341	0.15573	0.13268	0.14206	0.058406	-3.0708	-3.1458	-3.5062	-3.4396	-3.4292	-3.4083	-3.4542	-3.7021	-3.2354	-3.0604	-3.6896	-3.2646	-3.1417	-3.5667	-3.2375	-3.3917	92.693	-93.900	85.721	-122.950	-123.738	-3.583	126.392	32.442	110.643	39.875	156.808	-35.692	-30.085	-50.944	-7.032	192.312	0.0011279	0.0006577	0.00012085	1348	6.2139e-06	6.8711e-06	1347.5	365.31	7.3846e-06	4.5438e-06	415.27	139.59	121.17	41.647	6.7845e-06	51.366	0.00054674	0.00050972	0.00013584	1369.9	5.5209e-06	5.5755e-06	1370.1	372.37	5.5448e-06	5.4045e-06	424.99	142.59	123.92	42.711	5.4025e-06	53.028	93.837	-70.123	-86.847	-141.893	-17.157	-19.656	-142.338	-137.349	-32.727	-3.430	-138.153	-134.140	-133.836	-128.488	-17.462	-129.355	-8191	255	
1382.878	1	1	0	0	0.013148	0.12907	0.20257	0.23556	0.18139	0.06406	0.22933	0.1105	0.1161	0.12093	0.11574	0.21024	0.21688	0.19412	0.1947	0.089523	-3.0354	-3.2354	-3.3646	-3.5125	-3.1312	-3.5312	-3.4833	-3.4521	-3.5896	-3.1125	-3.55	-3.5292	-3.1437	-3.6063	-3.2396	-3.5771	7.921	185.150	119.789	165.196	-56.050	15.959	130.956	97.902	182.166	52.226	118.834	-134.878	-33.001	136.666	161.306	-98.859	0.0012134	0.00035303	0.00010636	1350.4	6.8506e-06	4.9809e-06	1344.3	365.79	1.2799e-05	4.8061e-06	417	139.56	121.69	41.751	5.43e-06	51.337	0.00054503	0.00049574	0.00013566	1371.1	5.4849e-06	5.3998e-06	1369.5	372.63	5.5686e-06	5.4305e-06	424.81	142.22	123.96	42.754	5.4373e-06	52.878	93.786	-56.610	-75.123	-142.016	-27.270	-9.282	-142.239	-137.447	-43.195	-13.935	-137.878	-134.193	-133.729	-128.432	-1.723	-128.987	-8191	255	
1382.974	1	1	0	0	0.12327	0.12467	0.11832	0.28789	0.077881	0.24787	0.41468	0.067177	0.15648	0.17913	0.10708	0.16374	0.091827	0.051959	0.055193	0.27363	-3.0854	-3.3208	-3.7042	-3.4417	-3.1688	-3.6333	-3.5542	-3.4562	-3.4375	-3.4271	-3.6708	-3.2458	-3.1667	-3.7979	-3.0625	-3.3917	152.578	-3.925	113.243	-150.727	82.435	-19.792	161.174	167.100	-52.803	68.460	83.362	-136.136	161.346	94.009	-124.540	137.057	0.0012474	0.00040979	0.0001343	1347.1	6.0908e-06	6.4609e-06	1347.5	366.69	1.2056e-05	4.2609e-06	416.08	139.02	120.66	41.221	5.5535e-06	50.756	0.00055663	0.00050705	0.0001418	1368.7	5.5091e-06	5.5439e-06	1368.3	372.38	5.5441e-06	5.4205e-06	424.53	142.44	123.92	42.724	5.4971e-06	52.907	93.856	-66.725	-58.198	-141.970	-22.594	-30.632	-142.299	-137.359	-46.362	-5.605	-137.843	-134.092	-134.038	-128.732	-25.147	-128.979	-8191	255	
1383.070	1	1	0	0	0.030237	0.17915	0.23773	0.095568	0.08188	0.1148	0.26335	0.19524	0.20635	0.23349	0.092524	0.36888	0.061961	0.16821	0.28723	0.15045	-3.2062	-3.0104	-3.3063	-3.5417	-3.1688	-3.5438	-3.5062	-3.4854	-3.4604	-3.2958	-3.4896	-3.4375	-3.0604	-3.7271	-3.3042	-3.4896	52.511	28.580	-24.525	50.784	32.055	-87.995	183.242	155.184	-142.979	175.629	153.503	120.810	-139.161	74.305	-92.958	87.284	0.0011783	0.00078287	0.00015074	1341.4	5.1051e-06	2.9342e-06	1332.1	362.35	1.1256e-05	7.6365e-06	411.67	138.39	120.89	41.478	4.6551e-06	51.498	0.00055071	0.00048613	0.00013596	1369.3	5.3116e-06	5.1973e-06	1367.1	371.67	5.3359e-06	5.2877e-06	424.41	142.33	123.75	42.671	5.2377e-06	53.006	94.008	-63.830	-70.916	-142.221	-49.402	24.558	-142.424	-137.522	-65.431	-5.804	-138.018	-134.071	-134.079	-128.465	-45.701	-129.143	-8191	255	
1383.191	1	1	0	0	0.23073	0.029609	0.20981	0.23954	0.2219	0.44755	0.20485	0.21575	0.19579	0.22525	0.068093	0.16549	0.29304	0.055781	0.089874	0.10065	-2.9958	-3.1854	-3.4042	-3.5771	-3.1437	-3.4417	-3.4875	-3.4354	-3.3688	-3.0583	-3.4625	-3.6646	-3.0979	-3.6292	-3.5646	-3.2854	169.364	-136.949	54.625	-137.601	-59.839	-36.285	141.273	195.909	125.525	67.518	134.489	-139.051	-100.740	-32.507	103.413	130.252	0.0012498	0.000594	0.00011548	1357.4	7.2441e-06	4.4724e-06	1348.1	367.65	9.5535e-06	6.0871e-06	419.06	140.71	122.9	41.81	4.2825e-06	51.685	0.00053107	0.00048283	0.00013289	1370	5.2404e-06	5.2598e-06	1368.6	372.53	5.1951e-06	5.3305e-06	425.46	142.91	124.46	42.809	5.3563e-06	53.084	96.421	-63.931	-50.321	-141.947	-7.678	39.007	-142.120	-137.298	-40.387	-21.627	-137.603	-133.831	-133.595	-128.141	-56.215	-128.925	-8191	255	
1383.285	1	1	0	0	0.054812	0.15582	0.11186	0.23451	0.01893	0.10479	0.15693	0.3581	0.22059	0.062762	0.11553	0.26422	0.064927	0.17381	0.13288	0.12954	-3.0938	-3.2229	-3.4771	-3.4917	-3.0187	-3.5542	-3.7083	-3.2604	-3.6229	-3.4146	-3.6375	-3.5292	-3.075	-3.5271	-3.3563	-3.0396	32.961	178.711	179.143	-89.056	136.693	12.753	131.648	141.965	109.608	167.489	-81.349	155.482	31.338	-64.876	99.323	169.926	0.0012115	0.00059492	0.00012064	1365.2	6.5194e-06	5.578e-06	1357.2	367.23	1.0526e-05	4.3753e-06	420.85	141.08	122.65	41.686	6.727e-06	51.935	0.00053397	0.00047324	0.0001355	1372.6	5.205e-06	5.2045e-06	1372.7	372.75	5.0914e-06	5.1773e-06	425.61	143.13	124.18	42.767	5.1818e-06	53.175	94.409	-52.152	-74.333	-141.738	3.440	-9.453	-142.328	-137.329	-42.320	-19.626	-137.697	-133.768	-133.852	-128.181	-39.247	-129.307	-8191	255	
1383.382	1	1	0	0	0.045116	0.11331	0.21138	0.27634	0.012202	0.19884	0.23251	0.11564	0.083072	0.11091	0.16057	0.082218	0.34906	0.18986	0.22706	0.02641	-3.1083	-3.4354	-3.2083	-3.4667	-3.25	-3.3688	-3.6354	-3.3125	-3.5104	-3.2604	-3.375	-3.7146	-3.0708	-3.4917	-3.6229	-3.2146	-151.079	-70.461	192.173	127.823	-82.427	49.720	191.110	-139.838	-153.728	142.288	195.815	64.821	-153.858	156.213	-91.117	36.641	0.0011741	0.00061829	0.00013419	1360.7	4.1141e-06	4.7178e-06	1353.4	367.28	1.0518e-05	4.3847e-06	417.6	140.21	122.11	41.779	4.58e-06	51.609	0.00051542	0.00045786	0.00013018	1369.7	4.963e-06	5.0254e-06	1368.4	372.45	5.2037e-06	5.1462e-06	424.56	142.42	124.03	42.782	5.2285e-06	52.99	93.776	-57.833	-53.021	-141.633	-48.355	-3.965	-142.123	-137.450	-44.328	-25.350	-137.620	-134.030	-133.798	-128.094	-43.979	-129.109	-8191	255	
1383.478	1	1	0	0	0.45082	0.018653	0.12556	0.13675	0.19983	0.11174	0.25164	0.22444	0.12153	0.23763	0.12612	0.17171	0.22256	0.15148	0.14052	0.22256	-2.8667	-3.3187	-3.2958	-3.4646	-3.2208	-3.6042	-3.7646	-3.2792	-3.4562	-3.4125	-3.4188	-3.5896	-3.2958	-3.3812	-3.4875	-3.2521	122.273	181.824	-2.413	127.346	-95.203	181.010	166.653	109.387	18.639	-33.728	-136.134	170.052	69.559	-150.815	0.308	118.664	0.0012149	0.00046633	0.00016551	1358.5	4.313e-06	6.4884e-06	1350.7	367.4	1.0826e-05	5.5351e-06	418.37	140.27	121.97	41.873	5.3187e-06	51.774	0.00052671	0.00048	0.0001358	1370.1	4.9709e-06	5.1223e-06	1366.8	372.34	5.0474e-06	4.9457e-06	424.81	142.48	123.66	42.718	4.6455e-06	53.023	96.631	-91.017	-66.323	-141.850	0.416	-5.392	-142.179	-137.297	-37.490	-6.324	-137.794	-133.900	-133.758	-128.047	-28.895	-129.232	-8191	255	
1383.551	1	1	0	0	0.080225	0.19237	0.2775	0.23015	0.15766	0.024048	0.31451	0.31381	0.038652	0.10072	0.26737	0.11289	0.083939	0.070891	0.15165	0.14855	-2.9833	-3.3854	-3.2062	-3.7562	-3.4104	-3.5771	-3.8021	-3.2604	-3.4021	-3.325	-3.3937	-3.5875	-3.2938	-3.2771	-3.5938	-3.4271	-99.159	-83.306	6.999	145.610	-59.748	157.892	127.158	171.524	-147.089	30.834	142.241	201.958	-143.189	-152.790	-113.233	164.643	0.0012122	0.00057687	0.00010616	1344.8	5.8784e-06	4.9018e-06	1340.4	365.46	1.0349e-05	4.2053e-06	417.34	140.52	122.49	41.974	5.7991e-06	51.966	0.00049418	0.00043418	0.00012081	1359.2	4.5468e-06	4.5451e-06	1358.2	370.47	4.7388e-06	4.5269e-06	423.15	142.36	123.61	42.763	4.6475e-06	53.062	97.770	-54.340	-86.581	-141.799	-43.721	-23.968	-142.254	-137.168	-41.444	-10.106	-137.786	-133.725	-133.752	-128.266	-37.969	-129.010	-8191	255	
1383.670	1	1	0	0	0.31379	0.18905	0.094741	0.061279	0.10141	0.17219	0.14382	0.18304	0.11052	0.028403	0.10347	0.1316	0.14386	0.15785	0.068766	0.1751	-2.95	-3.2604	-3.2208	-3.6021	-3.0875	-3.1979	-3.725	-3.1979	-3.3854	-3.5646	-3.4125	-3.4458	-3.3958	-3.2792	-3.5187	-3.2292	-65.763	3.917	141.773	-64.668	13.993	-84.069	157.045	141.788	-0.105	-11.237	114.807	185.584	127.919	110.036	-71.928	-53.685	0.0012497	0.00066688	8.8554e-05	1345	5.1182e-06	4.1523e-06	1341.1	364.49	9.8771e-06	5.8514e-06	416.42	140.22	121.84	41.956	5.8509e-06	52.034	0.00049671	0.00041921	0.00011534	1358.7	4.5866e-06	4.6609e-06	1356.9	369.94	4.6301e-06	4.5518e-06	422.34	142.31	123.53	42.783	4.6406e-06	53.096	95.119	-84.550	-80.709	-141.930	-51.413	15.492	-142.160	-137.198	-38.958	-16.381	-137.781	-133.739	-133.754	-128.168	-13.347	-129.047	-8191	255	
1383.766	1	1	0	0	0.06455	0.049306	0.20378	0.11345	0.098699	0.13336	0.15445	0.13042	0.15581	0.046849	0.28561	0.086769	0.080083	0.18247	0.2034	0.073848	-3.0083	-3.4958	-3.1958	-3.4833	-3.1771	-3.3688	-3.6229	-3.3375	-3.3479	-3.5354	-3.2333	-3.5521	-3.35	-3.275	-3.5208	-3.3604	124.264	26.871	-1.343	-11.684	12.405	27.889	197.915	203.186	128.064	115.809	153.502	103.970	-100.957	113.418	144.726	-6.648	0.0011229	0.00053659	0.00014529	1346.3	5.5912e-06	3.5283e-06	1339	365.11	1.5156e-05	2.6329e-06	418.23	140.31	122.68	42.104	5.1145e-06	51.773	0.00050017	0.00042188	0.00011474	1359.9	4.6944e-06	4.5664e-06	1358.6	370.86	4.6964e-06	4.5803e-06	423.34	142.8	124.07	42.925	4.4462e-06	53.2	97.741	-59.500	-69.076	-141.938	-13.783	14.347	-142.216	-137.317	-40.024	-5.957	-137.637	-133.770	-133.713	-128.191	-41.957	-129.189	-8191	255	
1383.862	1	1	0	0	0.049443	0.072269	0.071607	0.13889	0.11487	0.10232	0.39219	0.085872	0.075967	0.10552	0.19852	0.26191	0.09417	0.17973	0.11265	0.20494	-2.725	-3.3292	-3.2708	-3.5375	-3.3271	-3.1854	-3.6917	-3.525	-3.3854	-3.3271	-3.1729	-3.6333	-3.3563	-3.2646	-3.3563	-3.1833	11.893	-53.092	-62.564	17.253	-143.470	67.110	136.372	83.543	59.758	-70.836	161.699	166.851	189.465	163.955	192.998	181.625	0.0012635	0.00044803	0.00012357	1345.9	5.2762e-06	4.7477e-06	1340.6	367.69	1.0522e-05	4.3542e-06	419.76	140.96	122.62	42.186	6.876e-06	51.812	0.00048399	0.00040578	0.0001116	1359.8	4.3973e-06	4.3783e-06	1358.3	371.21	4.5358e-06	4.2409e-06	424.19	143.17	124.31	42.992	4.3346e-06	53.254	95.844	-79.519	-72.039	-141.664	-48.525	9.205	-142.182	-137.509	-59.444	13.165	-137.657	-133.875	-133.776	-128.129	-32.181	-128.947	-8191	255	
1383.959	1	1	0	0	0.13956	0.21171	0.16391	0.049051	0.17044	0.08023	0.1894	0.28136	0.07974	0.21435	0.25315	0.1019	0.14526	0.084164	0.015158	0.17603	-2.9146	-3.4917	-3.1646	-3.3479	-3.4354	-3.2604	-3.5792	-3.4542	-3.45	-3.6688	-3.225	-3.4021	-3.5479	-3.3208	-3.4	-3.3854	55.680	178.671	-111.907	114.104	-60.566	14.398	135.531	187.719	146.326	-150.124	148.478	-79.661	171.580	115.348	-46.905	64.849	0.0010967	0.00065023	0.00014512	1340.7	2.6607e-06	6.0161e-06	1338.3	364.56	1.0015e-05	5.9176e-06	417.59	140.51	122.42	42.252	4.103e-06	52.195	0.00046353	0.00039799	0.00010982	1357.1	4.2135e-06	4.2618e-06	1356.8	370.47	4.4718e-06	4.1251e-06	423.48	142.83	123.86	42.972	4.4037e-06	53.291	97.201	-61.867	-54.446	-141.740	-23.552	-12.843	-142.086	-137.224	-42.493	12.457	-137.784	-134.050	-133.951	-128.315	-27.883	-129.209	-8191	255	
1384.079	1	1	0	0	0.047266	0.15276	0.21064	0.22211	0.23207	0.14746	0.24411	0.13539	0.097747	0.067567	0.27671	0.21404	0.20042	0.035495	0.26287	0.15005	-2.8396	-3.6417	-3.4688	-3.4625	-3.4792	-3.2229	-3.7021	-3.4979	-3.2604	-3.6083	-3.0938	-3.5021	-3.7021	-3.0479	-3.35	-3.4021	-97.555	-60.484	-95.781	-141.974	-0.597	-53.756	108.908	-137.677	-81.684	131.516	82.618	89.778	-137.089	162.808	88.533	137.890	0.0011945	0.00071419	0.00012299	1340	5.3335e-06	3.5875e-06	1342.5	365.3	9.5022e-06	3.8323e-06	418.14	141.25	122.78	42.04	5.0895e-06	52.105	0.00046653	0.00037559	0.00010967	1355.7	4.2927e-06	4.2134e-06	1354.5	370.23	4.331e-06	4.1543e-06	423.08	143.08	124.22	43.03	4.2371e-06	53.414	95.137	-64.449	-56.192	-141.837	-50.018	-22.064	-142.070	-137.487	-40.639	5.772	-137.831	-133.883	-133.669	-128.541	-43.005	-129.153	-8191	255	
1384.151	1	1	0	0	0.10682	0.061566	0.077707	0.16871	0.22237	0.15574	0.03643	0.053168	0.20224	0.20805	0.15039	0.27171	0.053172	0.17272	0.28396	0.20123	-2.5604	-3.4688	-3.325	-3.275	-3.5708	-3.2771	-3.3667	-3.575	-3.1521	-3.6104	-3.5292	-3.2979	-3.4042	-3.3167	-3.4875	-3.4188	26.653	144.783	-74.992	53.338	136.649	-81.532	191.333	149.947	168.638	-122.334	101.779	-83.187	-35.900	187.281	59.217	-78.294	0.0011822	0.0004754	0.00017072	1343.2	7.5491e-06	6.3266e-06	1336.5	368.57	1.1575e-05	5.2219e-06	419.54	141.45	123.63	42.413	6.5129e-06	52.416	0.00045484	0.00038009	0.00010684	1355.2	3.9755e-06	3.9905e-06	1357.6	371.74	4.1062e-06	3.9674e-06	424.42	143.68	124.74	43.317	4.0091e-06	53.602	97.811	-86.229	-78.720	-141.697	-33.147	-15.747	-142.244	-137.225	-45.273	4.260	-137.863	-134.001	-133.519	-128.243	-28.982	-129.215	-8191	255	
1384.271	1	1	0	0	0.095989	0.16242	0.16537	0.1341	0.30374	0.26151	0.14596	0.084649	0.1915	0.060323	0.21953	0.15459	0.073774	0.064724	0.051771	0.32782	-2.8354	-3.4542	-3.0979	-3.3646	-3.3396	-3.2417	-3.3354	-3.575	-3.2208	-3.4437	-3.3792	-3.3208	-3.4583	-3.4229	-3.25	-3.7229	85.454	152.845	116.694	33.427	41.835	132.546	192.414	-133.164	21.732	86.201	-76.891	174.661	195.290	126.966	124.150	116.911	0.0011957	0.00046237	0.00015821	1344.3	4.5943e-06	6.7635e-06	1337.7	366.66	1.0275e-05	6.5946e-06	419.72	141.77	123.12	42.292	5.4789e-06	52.089	0.00042636	0.00035479	0.00010015	1356	3.9083e-06	3.9452e-06	1355.4	371.4	3.9783e-06	3.9255e-06	424.11	143.7	124.31	43.186	4.0676e-06	53.384	96.968	-62.281	-52.578	-142.084	-25.043	1.219	-142.279	-137.266	-62.735	-0.143	-137.740	-134.006	-133.623	-128.379	-44.119	-129.118	-8191	255	
1384.368	1	1	0	0	0.15841	0.054219	0.16617	0.34993	0.10865	0.12258	0.21981	0.042639	0.038428	0.18714	0.33866	0.17272	0.15017	0.13344	0.097357	0.28499	-2.7167	-3.4417	-3.4271	-3.15	-3.7521	-3.2938	-3.3542	-3.6458	-3.2979	-3.3167	-3.2521	-3.1458	-3.4437	-3.375	-3.4437	-3.7313	0.932	85.518	-68.486	135.442	-108.113	137.682	147.324	150.607	192.430	-103.763	134.022	-109.204	116.231	-107.854	-115.248	64.769	0.0011436	0.00020784	0.00013444	1336.8	6.5182e-06	5.9687e-06	1337.5	365.73	1.1956e-05	5.3664e-06	416.81	140.9	123.06	42.134	7.4932e-06	51.912	0.00043601	0.00035676	9.9021e-05	1353.9	3.9073e-06	3.8807e-06	1355.3	370.49	3.9962e-06	3.858e-06	423.15	142.9	124.33	43.028	4.052e-06	53.228	97.391	-18.289	-50.513	-141.825	-20.216	7.593	-142.088	-137.403	-41.318	-21.202	-137.501	-134.046	-133.757	-128.499	-22.604	-129.092	-8191	255	
1384.462	1	1	0	0	0.092227	0.054214	0.13731	0.20896	0.074351	0.20304	0.20535	0.090652	0.1584	0.1929	0.13377	0.1995	0.099662	0.12636	0.054725	0.11771	-2.725	-3.4896	-3.5083	-3.3167	-3.4125	-3.3563	-3.4917	-3.5292	-3.1937	-3.5958	-3.5771	-3.2333	-3.5625	-3.4542	-3.3458	-3.6021	-117.951	26.988	21.940	168.430	-4.149	-116.614	98.551	194.270	-0.811	84.607	173.556	181.294	127.516	170.631	-27.972	77.302	0.0011595	0.00039579	0.00013112	1336.4	5.0418e-06	5.022e-06	1331	364.86	9.8564e-06	4.7487e-06	415.02	140.24	122.47	42.053	5.3232e-06	51.767	0.00043189	0.0003604	9.7605e-05	1350.2	3.8501e-06	3.851e-06	1349.2	369.52	3.9574e-06	3.9224e-06	421.68	142.56	123.64	42.92	3.9374e-06	53.056	94.785	-55.057	-61.366	-141.784	-29.184	-16.689	-142.067	-137.351	-50.910	-14.141	-137.531	-133.998	-133.920	-128.401	-4.321	-129.096	-8191	255	
1384.560	1	1	0	0	0.12565	0.10034	0.085448	0.25536	0.24163	0.090201	0.2049	0.19272	0.13035	0.17965	0.1361	0.26001	0.095953	0.19822	0.23832	0.084018	-3.1646	-3.4729	-3.4458	-3.4583	-3.4896	-3.45	-3.4771	-3.7021	-3.3438	-3.3271	-3.6729	-3.2208	-3.4875	-3.5042	-3.1542	-3.625	41.931	-98.673	148.496	69.629	190.567	7.524	162.378	30.685	-51.322	-38.924	102.507	114.051	-52.799	97.192	-31.843	-81.658	0.0011665	0.00053227	0.00014609	1324.6	3.8358e-06	5.2396e-06	1318.5	359.97	9.2655e-06	4.2012e-06	411.84	138.26	121.07	41.296	4.7433e-06	51.005	0.00043809	0.00035109	9.6818e-05	1341.3	3.8865e-06	3.7884e-06	1341.8	366.77	4.0014e-06	3.7915e-06	418.97	141.17	122.62	42.42	3.8441e-06	52.565	97.002	-73.100	-52.554	-141.806	-18.220	12.900	-142.319	-137.474	-45.918	20.946	-137.926	-133.994	-133.482	-128.639	-22.502	-129.095	-8191	255	
1384.679	1	1	0	0	0.33363	0.14947	0.13732	0.053307	0.27015	0.091172	0.28617	0.31428	0.37048	0.20871	0.012063	0.17959	0.14979	0.13859	0.41736	0.14082	-2.8271	-3.4333	-3.4646	-3.1625	-3.5146	-3.4146	-3.4646	-3.6833	-3.1792	-3.35	-3.5042	-3.0021	-3.3208	-3.4854	-3.1354	-3.625	-34.482	-87.490	66.422	-144.920	-46.356	91.320	127.664	182.154	128.537	75.087	56.893	152.138	-126.964	197.120	150.159	51.912	0.0011561	0.00054529	8.5381e-05	1319.6	5.5339e-06	8.246e-06	1321	358.23	1.0818e-05	6.9154e-06	408.38	137.56	119.44	41.065	3.9005e-06	50.587	0.00042707	0.00036827	9.9426e-05	1338.5	3.9606e-06	3.9174e-06	1340.8	364.7	4.2187e-06	4.037e-06	417.02	140.43	121.54	42.077	4.1662e-06	52.187	94.756	-53.626	-58.963	-141.879	-24.708	-9.020	-142.199	-137.234	-48.563	-14.257	-137.888	-133.831	-133.421	-128.081	-5.133	-129.013	-8191	255	
1384.775	1	1	0	0	0.20151	0.21053	0.15187	0.20967	0.099947	0.13711	0.13729	0.046245	0.07223	0.13266	0.084117	0.043629	0.08165	0.14837	0.15663	0.075834	-2.8812	-3.15	-3.5771	-3.3229	-3.5792	-3.3604	-3.3417	-3.7229	-3.2958	-3.0292	-3.65	-3.2979	-3.1292	-3.3375	-3.1271	-3.3375	156.247	97.785	118.743	186.594	193.303	-130.368	148.470	106.444	63.876	30.060	160.032	55.659	83.471	-111.729	22.564	-97.304	0.0011724	0.00048253	0.00011475	1316.4	8.164e-06	7.8008e-06	1315	357.77	1.1558e-05	2.8083e-06	410.7	137.11	119.47	41.082	4.7276e-06	50.595	0.00045053	0.00037951	0.00010471	1340.3	4.1263e-06	4.2256e-06	1340	363.94	4.399e-06	4.143e-06	417.26	140.15	121.4	42.108	4.1611e-06	52.092	95.035	-86.229	-74.364	-142.075	-39.702	-21.105	-142.162	-137.542	-51.392	-18.136	-137.919	-133.974	-133.821	-128.180	-31.885	-129.125	-8191	255	
1384.847	1	1	0	0	0.19087	0.14082	0.14577	0.232	0.022431	0.16118	0.37663	0.31779	0.14033	0.15199	0.32369	0.20415	0.067697	0.065722	0.12732	0.064618	-3.0938	-3.4083	-3.5146	-3.2771	-3.4542	-3.4562	-3.3417	-3.5396	-3.3937	-3.225	-3.5938	-3.3833	-3.3583	-3.6875	-3.2229	-3.4375	120.597	152.108	-123.450	107.364	-118.814	-101.836	116.097	161.554	174.810	-142.607	-154.499	157.006	-55.474	148.829	-83.999	38.111	0.0010611	0.00056304	0.0001249	1327.3	5.5587e-06	5.3335e-06	1314.2	356.56	8.145e-06	2.3071e-06	409.58	137.09	119.32	40.841	6.5262e-06	50.772	0.00045263	0.00038845	0.00010441	1343.5	4.1984e-06	4.1228e-06	1338.8	363.46	4.3915e-06	4.1626e-06	416.64	139.92	121.6	41.943	4.2986e-06	52.057	98.693	-54.513	-78.795	-141.833	-35.986	-14.968	-141.968	-137.287	-46.708	1.315	-137.645	-133.851	-133.950	-128.155	-21.475	-129.264	-8191	255	
1384.967	1	1	0	0	0.35518	0.17125	0.12815	0.16072	0.10452	0.12136	0.14963	0.14091	0.05385	0.28137	0.094364	0.093446	0.20904	0.054296	0.25101	0.14937	-3.0938	-3	-3.4396	-3.2917	-3.3646	-3.4	-3.2667	-3.5125	-3.2646	-3.3833	-3.5542	-3.3521	-3.1479	-3.45	-3.2729	-3.3812	88.461	119.914	-6.462	-1.126	-70.843	168.662	172.641	92.086	155.925	-9.540	-145.231	159.263	44.252	-21.790	39.448	100.820	0.0012365	0.00036142	0.00014118	1327.6	5.7211e-06	5.4783e-06	1312.9	355.76	9.8099e-06	4.415e-06	408.39	136.77	119.28	40.728	3.4884e-06	50.284	0.00045816	0.00039062	0.00010939	1343	4.3444e-06	4.2318e-06	1337.4	362.49	4.4244e-06	4.2163e-06	415.04	139.46	121.28	41.778	4.4267e-06	51.883	96.297	-63.298	-59.226	-141.796	-34.816	41.480	-142.159	-137.369	-35.790	6.582	-137.760	-133.887	-133.971	-128.021	-38.255	-128.958	-8191	255	
1385.063	1	1	0	0	0.033562	0.067259	0.1033	0.22753	0.22781	0.085191	0.15359	0.31301	0.16499	0.15302	0.099507	0.10275	0.19491	0.19103	0.14002	0.25318	-3.0312	-3.0083	-3.5458	-3.4333	-3.2125	-3.3958	-3.3854	-3.6562	-3.3958	-3.2771	-3.6542	-3.2979	-3.125	-3.5375	-3.2062	-3.2833	-54.666	-29.063	-10.886	12.009	-3.601	-37.702	160.976	142.036	135.690	125.711	-83.089	193.823	-96.139	182.357	82.838	200.907	0.0011367	0.00068831	0.00012448	1322.8	6.0683e-06	7.0048e-06	1318.6	356.9	8.6837e-06	4.5805e-06	406.89	135.8	119.19	40.923	4.8326e-06	50.588	0.00045763	0.00038638	0.00011099	1339.9	4.4089e-06	4.3004e-06	1337.1	362.19	4.4564e-06	4.2426e-06	414.83	139.24	121.06	41.927	4.4408e-06	51.924	94.866	-56.964	-48.072	-141.999	-25.764	-5.238	-142.350	-137.354	-37.545	23.201	-137.810	-133.817	-133.813	-128.049	-22.983	-129.060	-8191	255	
1385.160	1	1	0	0	0.23128	0.32961	0.13891	0.19785	0.11229	0.065892	0.27261	0.25308	0.15683	0.20317	0.12175	0.22315	0.397	0.26851	0.1703	0.20632	-2.9958	-3.1646	-3.3458	-3.3021	-3.125	-3.5438	-3.6562	-3.525	-3.3833	-3.0687	-3.6104	-3.5	-3.2021	-3.6271	-3.15	-3.4083	64.003	135.017	-37.397	-106.440	63.955	90.452	178.110	-136.949	126.434	28.940	73.122	114.641	192.922	161.460	44.714	173.249	0.0011186	0.00065623	0.00010693	1319.1	5.5501e-06	4.237e-06	1315	356.2	1.1242e-05	5.204e-06	408.01	136.75	119.46	40.852	4.1276e-06	50.342	0.00045411	0.00038692	0.00011102	1339	4.3175e-06	4.2541e-06	1337	362.34	4.3142e-06	4.245e-06	415.31	139.34	121.05	41.889	4.2998e-06	51.925	96.435	-61.873	-96.747	-142.034	-21.181	-8.303	-142.119	-137.189	-27.301	-4.000	-137.819	-133.850	-133.783	-128.277	-33.619	-128.946	-8191	255	
1385.256	1	1	0	0	0.14019	0.22724	0.057658	0.33117	0.11047	0.1555	0.1494	0.10669	0.099512	0.27157	0.078755	0.04206	0.26027	0.21507	0.078887	0.22307	-3.0875	-3.1042	-3.4354	-3.3542	-3.3458	-3.5	-3.55	-3.3375	-3.4167	-3.1417	-3.4354	-3.3021	-3.1333	-3.5625	-3.2875	-2.975	65.265	83.432	189.011	-146.222	64.909	-56.489	126.046	-119.718	103.323	41.236	0.374	26.757	-89.861	201.932	-116.872	136.215	0.0011622	0.00051852	0.00014419	1325.7	4.2019e-06	4.8604e-06	1318.7	356.12	1.0695e-05	4.9103e-06	407.96	137.11	119.92	40.958	6.0771e-06	50.502	0.00045629	0.00039422	0.00010809	1339.8	4.2139e-06	4.0696e-06	1336.5	362.67	4.1792e-06	4.1665e-06	414.8	139.57	121.46	41.873	4.2051e-06	51.927	95.856	-64.627	-64.798	-141.945	-1.063	-14.918	-142.362	-137.316	-43.770	-12.991	-137.659	-133.829	-133.525	-128.156	-2.100	-128.999	-8191	255	
1385.375	1	1	0	0	0.087654	0.29181	0.20357	0.15721	0.046879	0.16205	0.14496	0.32173	0.16975	0.13923	0.2611	0.16568	0.23012	0.28256	0.19691	0.14216	-2.9938	-3.075	-3.2854	-3.575	-3.2229	-3.3208	-3.475	-3.4688	-3.4604	-3.1625	-3.5062	-3.5125	-3.1667	-3.6063	-3.2021	-3.1417	44.371	163.059	-88.774	136.058	-155.175	-153.626	72.914	142.848	29.086	-43.815	198.966	174.314	-154.638	191.632	-110.463	-146.034	0.0011734	0.00051026	0.00013325	1324	6.3595e-06	4.5998e-06	1314.8	357.05	1.2386e-05	3.9748e-06	408.28	137.11	119.73	40.827	6.4303e-06	50.574	0.0004424	0.00038419	0.0001058	1339.1	4.1324e-06	4.1491e-06	1337.7	363.05	4.2178e-06	4.0703e-06	415.06	139.6	121.53	41.887	4.1611e-06	51.914	90.873	-70.351	-64.546	-141.816	-7.157	-20.399	-142.236	-137.356	-44.446	5.379	-137.748	-133.808	-133.609	-128.256	-12.762	-128.965	-8191	255	
1385.448	1	1	0	0	0.15182	0.042193	0.16833	0.21181	0.12342	0.17583	0.12839	0.17569	0.13215	0.24794	0.049077	0.40286	0.090528	0.084777	0.28263	0.32032	-2.9833	-3.0854	-3.2562	-3.4562	-3.1104	-3.4	-3.3021	-3.3333	-3.4083	-3.2667	-3.4313	-3.7104	-3.0542	-3.4062	-3.3583	-3.1417	-61.087	168.290	156.805	63.733	86.589	-32.979	90.509	164.933	-59.193	29.958	-25.964	-152.317	-34.544	-135.751	-64.194	170.741	0.0011608	0.00068587	0.0001588	1321.5	5.4975e-06	6.4815e-06	1315.6	357.2	1.0096e-05	3.4975e-06	408.89	137.42	119.6	40.957	6.9448e-06	50.483	0.00045505	0.0003862	0.00010523	1339.4	4.254e-06	4.2644e-06	1337.8	363.11	4.3323e-06	4.3139e-06	415.65	139.71	121.28	41.901	4.2012e-06	51.902	93.816	-76.348	-81.716	-141.825	-13.620	-11.991	-142.217	-137.283	-45.917	-34.889	-137.796	-133.863	-133.566	-128.206	-27.637	-128.878	-8191	255	
1385.542	1	1	0	0	0.1746	0.27841	0.27933	0.22074	0.22402	0.15798	0.12445	0.087109	0.20983	0.35324	0.22872	0.19434	0.25396	0.11675	0.12736	0.27964	-2.9979	-3.3063	-3.1208	-3.6354	-3.1271	-3.3667	-3.6625	-3.2792	-3.5083	-3.4125	-3.3521	-3.475	-3.3187	-3.3667	-3.3146	-3.2896	1.239	-152.173	-30.156	-124.481	-94.441	183.478	163.522	92.545	30.127	130.773	93.466	49.692	175.537	11.283	124.818	141.382	0.0011474	0.0003928	5.4566e-05	1322.1	4.5057e-06	5.3261e-06	1319.1	356.77	8.6141e-06	5.4346e-06	408.51	136.94	119.09	40.915	6.0395e-06	50.355	0.00046291	0.00039114	0.00010464	1339.5	4.3335e-06	4.3311e-06	1339	362.94	4.5698e-06	4.3146e-06	415.87	139.67	121.43	41.913	4.352e-06	51.885	96.254	-51.245	-84.675	-141.604	-37.410	-21.148	-142.232	-137.465	-52.871	-0.058	-137.769	-133.673	-133.977	-128.192	-40.963	-129.240	-8191	255	
1385.640	1	1	0	0	0.14446	0.11236	0.30848	0.077896	0.076164	0.28856	0.16692	0.14621	0.10066	0.20491	0.22718	0.12177	0.12485	0.2954	0.10078	0.22709	-3.1688	-3.3563	-2.9583	-3.6708	-3.3854	-3.2979	-3.7125	-3.2188	-3.4375	-3.2042	-3.3833	-3.7104	-3.0333	-3.3771	-3.4625	-3.2021	82.046	6.349	68.385	-136.742	144.688	-79.142	95.409	127.173	138.359	-48.117	200.394	173.842	46.358	-153.579	199.799	107.516	0.0012191	0.00052403	0.00011911	1322.1	5.7049e-06	5.7524e-06	1323.8	357.71	9.8995e-06	5.3747e-06	409.3	137.23	119.19	40.801	4.9876e-06	50.519	0.00046452	0.00039212	0.0001106	1340.8	4.375e-06	4.304e-06	1339.1	363.66	4.4315e-06	4.2385e-06	415.71	139.75	121.2	41.783	4.2102e-06	51.945	96.233	-98.953	-72.984	-141.955	-39.890	-7.923	-142.167	-137.301	-46.062	-13.398	-137.762	-133.810	-133.648	-128.359	-29.644	-129.094	-8191	255	
1385.759	1	1	0	0	0.094377	0.32571	0.11267	0.12995	0.18065	0.077449	0.24662	0.36349	0.25193	0.14695	0.37983	0.11161	0.21478	0.11369	0.14207	0.41574	-2.9146	-3.2979	-3.3146	-3.5583	-3.2958	-3.5229	-3.725	-3.4813	-3.5542	-3.275	-3.2208	-3.5229	-3.0896	-3.2938	-3.5771	-3.2875	101.109	-56.920	-16.257	-152.445	-76.414	-134.913	170.565	-100.038	33.419	-0.403	114.706	192.554	92.647	122.987	152.200	130.778	0.0011913	0.00054196	0.00012284	1327.6	7.1517e-06	6.3292e-06	1315	356.99	1.1676e-05	4.4363e-06	408.35	136.82	119.35	40.861	6.819e-06	50.391	0.00047032	0.00038189	0.00010688	1342.9	4.3674e-06	4.2587e-06	1337.5	362.9	4.4095e-06	4.0976e-06	415.18	139.56	121.34	41.927	4.2204e-06	51.863	96.465	-64.807	-76.016	-141.847	-26.086	-9.021	-142.298	-137.241	-54.451	-2.573	-137.880	-133.780	-133.859	-128.174	-23.508	-128.961	-8191	255	
1385.855	1	1	0	0	0.084381	0.16635	0.20155	0.16722	0.19898	0.13791	0.18947	0.066221	0.10846	0.21466	0.17996	0.17889	0.36165	0.16243	0.18692	0.21884	-3.0333	-3.1771	-2.9896	-3.3771	-3.3458	-3.1167	-3.8604	-3.2917	-3.2854	-3.3812	-3.2771	-3.6208	-3.2521	-3.3271	-3.4708	-3.2354	67.116	-40.237	-98.915	-127.302	131.899	-142.695	91.700	129.687	111.859	-47.994	86.361	169.049	28.190	142.480	-142.261	196.414	0.0011379	0.00058451	8.1326e-05	1322	3.7967e-06	4.9808e-06	1311.8	356.37	8.8307e-06	4.6348e-06	407.43	136.53	119.43	40.781	5.4512e-06	50.409	0.00044788	0.00037864	0.00010955	1341.9	4.2615e-06	4.2012e-06	1336.9	362.45	4.4664e-06	4.2979e-06	415.44	139.44	120.99	41.806	4.639e-06	51.926	93.756	-75.744	-89.595	-141.888	-36.322	-23.120	-142.027	-137.304	-53.689	-16.525	-137.641	-133.862	-133.874	-128.085	-28.402	-129.173	-8191	255	
1385.951	1	1	0	0	0.13117	0.079382	0.047134	0.35768	0.13141	0.03869	0.093538	0.24102	0.027017	0.16813	0.088996	0.28545	0.28153	0.25143	0.17006	0.3932	-2.7833	-3.4854	-3.1625	-3.2646	-3.3604	-3.2875	-3.6771	-3.0229	-3.5167	-3.5938	-3.4167	-3.6063	-3.4458	-3.2062	-3.5812	-3.2604	39.777	133.412	-23.746	139.131	-7.874	58.766	170.030	20.836	-120.093	-102.980	115.874	62.845	176.067	153.010	-124.231	-146.542	0.0011723	0.00059396	0.00012485	1334.3	6.6496e-06	4.6103e-06	1321.7	358.06	9.1799e-06	3.7766e-06	409.89	137.18	119.72	40.828	5.8993e-06	50.468	0.00050187	0.0004318	0.00012514	1346.7	4.9612e-06	5.1728e-06	1343.5	364.18	5.2937e-06	5.3628e-06	416.59	140.04	121.71	41.956	5.8528e-06	51.988	96.376	-44.658	-88.765	-141.843	-19.351	15.950	-142.126	-137.364	-53.613	-22.420	-137.810	-133.927	-133.818	-128.214	-7.670	-129.214	-8191	255	
1386.048	1	1	0	0	0.22138	0.16323	0.1359	0.096515	0.2484	0.07702	0.4516	0.37739	0.19511	0.012937	0.073804	0.23228	0.084061	0.16927	0.14196	0.10619	-2.6667	-3.5167	-3.2875	-3.5417	-3.4729	-2.9792	-3.7146	-3.4313	-3.2042	-3.6917	-3.4313	-3.5854	-3.5354	-3.3958	-3.5312	-3.3458	14.533	13.131	77.770	-138.070	41.595	154.246	96.879	178.149	155.830	-149.120	-109.341	201.808	94.692	174.172	169.903	44.255	0.001131	0.00046249	9.1057e-05	1338.6	5.6252e-07	5.509e-06	1331	360.24	1.0429e-05	3.6456e-06	410.03	138.19	121.11	41.125	6.5889e-06	50.677	0.00057564	0.00053411	0.00015371	1358.9	5.7978e-06	5.9923e-06	1355	366.66	5.8827e-06	5.8422e-06	419.04	140.88	122.99	42.202	5.6866e-06	52.252	97.301	-94.891	-80.002	-142.059	-63.387	-3.058	-142.169	-137.259	-54.882	-29.061	-137.919	-133.787	-133.757	-128.282	-56.367	-129.188	-8191	255	
1386.144	1	1	0	0	0.21927	0.088605	0.30787	0.19654	0.14068	0.086164	0.28752	0.017591	0.060239	0.070048	0.22587	0.35493	0.036974	0.29073	0.17969	0.2787	-2.7417	-3.6229	-3.2271	-3.4292	-3.2542	-3.2125	-3.8875	-3.4521	-3.1104	-3.5146	-3.375	-3.7021	-3.4542	-3.1854	-3.6042	-3.3771	-127.326	-35.775	38.654	169.189	-38.472	62.431	151.025	-90.521	121.658	178.001	204.250	135.261	-33.741	-140.386	10.273	179.676	0.0011548	0.00046626	0.0001419	1343.4	4.6209e-06	5.8e-06	1338.5	361.02	1.2607e-05	5.0249e-06	411.54	137.89	120.31	41.01	5.1646e-06	50.782	0.00056762	0.00052971	0.00014734	1360.6	5.6884e-06	5.802e-06	1357.2	366.86	5.6462e-06	5.7007e-06	419.49	140.7	122.68	42.161	5.8899e-06	52.303	99.781	-73.796	-67.108	-141.948	-24.686	5.307	-142.182	-137.389	-53.773	6.600	-137.740	-133.861	-133.708	-128.262	-49.384	-129.170	-8191	255	
1386.240	1	1	0	0	0.17074	0.055303	0.1572	0.13845	0.17086	0.281	0.2066	0.095124	0.1114	0.10241	0.33746	0.27452	0.14343	0.39208	0.23638	0.14886	-2.6562	-3.6562	-3.1729	-3.3396	-3.6458	-3.3021	-3.4229	-3.5417	-3.2729	-3.5563	-3.0438	-3.4125	-3.6271	-3.3125	-3.2542	-3.5146	-93.822	185.951	54.543	-89.728	-59.527	-43.008	-111.432	78.956	-35.271	-137.853	141.866	121.999	-77.413	180.689	46.880	143.604	0.0011944	0.00052692	0.00013375	1339.1	5.9525e-06	4.1413e-06	1330.5	361.89	1.2365e-05	6.4666e-06	411.43	137.98	119.64	40.943	7.8055e-06	50.797	0.00056946	0.00053671	0.00014595	1362.2	5.764e-06	5.7339e-06	1356.8	367.04	5.8964e-06	5.9551e-06	419.43	140.48	122.53	42.071	5.8811e-06	52.166	98.211	-70.086	-51.601	-141.898	-25.582	-10.402	-142.235	-137.133	-37.525	-6.721	-137.854	-133.662	-133.693	-128.239	-16.720	-129.150	-8191	255	
1386.361	1	1	0	0	0.022589	0.16792	0.053452	0.22082	0.061073	0.11801	0.24223	0.1513	0.2533	0.071695	0.15509	0.31652	0.040895	0.16981	0.1652	0.21628	-2.8208	-3.3479	-3.1896	-3.3479	-3.4854	-3.2771	-3.5417	-3.6167	-3.2833	-3.525	-3.275	-3.2333	-3.5375	-3.2917	-3.3792	-3.3854	104.083	100.150	139.587	-117.679	-16.890	52.609	139.530	118.947	117.269	-29.384	193.744	42.466	192.137	92.845	-40.861	73.649	0.0012692	0.00077871	0.00017865	1340.7	6.5636e-06	3.9179e-06	1330.8	361.54	1.1804e-05	4.8882e-06	409.93	138.21	120.42	40.957	1.7929e-06	50.615	0.00057873	0.00053404	0.00014426	1360.2	5.8511e-06	5.6989e-06	1354.3	366.08	5.7358e-06	5.6196e-06	418.22	140.52	122.36	42.066	5.2008e-06	52.123	94.136	-80.636	-62.047	-142.103	-27.676	-10.743	-142.092	-137.341	-44.977	-30.542	-138.005	-133.963	-133.696	-128.275	0.155	-129.085	-8191	255	
1386.455	1	1	0	0	0.12425	0.089318	0.16974	0.27363	0.12467	0.17665	0.33987	0.18275	0.091399	0.082614	0.20312	0.24384	0.2133	0.14582	0.19881	0.29962	-2.7979	-3.4729	-3.3708	-3.3979	-3.3625	-3.1729	-3.5646	-3.5229	-3.0167	-3.3146	-3.5	-3.2438	-3.4458	-3.2146	-3.3208	-3.4313	-71.880	132.811	-32.887	161.638	-132.713	162.226	121.351	188.106	82.418	-92.732	173.495	-148.062	163.544	-152.338	-4.640	142.371	0.0011838	0.00034723	0.00013356	1335.4	6.3816e-06	6.251e-06	1326.3	358.54	7.6009e-06	5.6909e-06	409.24	137.52	119.95	40.998	5.6917e-06	50.736	0.00052312	0.0004547	0.00012801	1352.8	4.9549e-06	4.902e-06	1346.4	364.3	4.9105e-06	4.8794e-06	416.98	139.91	121.8	41.972	4.8385e-06	52.107	94.198	-72.026	-71.027	-141.975	-16.924	3.692	-142.115	-137.180	-63.700	-2.845	-137.807	-133.643	-133.841	-128.213	-33.960	-128.938	-8191	255	
1386.551	1	1	0	0	0.14804	0.17894	0.13844	0.42104	0.085503	0.11251	0.18905	0.04345	0.092331	0.35187	0.36059	0.22703	0.15752	0.24387	0.060921	0.23596	-2.7479	-3.5146	-3.325	-3.0375	-3.4917	-3.4542	-3.2062	-3.5812	-3.1542	-3.4313	-3.2375	-3.1833	-3.5792	-3.2021	-3.2625	-3.6813	68.840	-110.976	180.105	-77.670	202.702	3.647	149.706	179.855	201.468	-144.241	190.231	145.245	168.106	183.329	-84.297	-139.270	0.0012244	0.00055331	0.00011758	1327.8	4.9315e-06	3.7584e-06	1320.3	356.71	1.1593e-05	3.5399e-06	408.78	137.18	120.02	40.857	6.1098e-06	50.724	0.00050655	0.00043717	0.00011878	1347	4.9111e-06	4.8243e-06	1340.8	363.52	5.0388e-06	4.844e-06	416.33	139.8	121.84	41.968	5.073e-06	52.137	91.872	-71.280	-64.169	-141.901	-40.648	-8.534	-142.039	-137.381	-40.629	-13.051	-137.696	-133.635	-133.806	-128.201	-1.864	-128.970	-8191	255	
1386.672	1	1	0	0	0.09939	0.17838	0.14741	0.19114	0.077504	0.051745	0.1424	0.062566	0.29872	0.13088	0.28863	0.30155	0.13851	0.24966	0.086582	0.17497	-2.8292	-3.4396	-3.1146	-3.025	-3.5479	-3.2	-3.35	-3.8021	-3.1625	-3.2646	-3.5604	-3.3	-3.4833	-3.4562	-3.3083	-3.5021	-39.011	-33.278	23.926	-70.098	-84.878	138.022	-2.896	186.325	191.878	-5.967	-152.884	-150.186	6.356	-154.067	147.264	155.106	0.0011798	0.00050401	0.00012946	1329.6	3.5021e-06	3.6928e-06	1323.6	360.22	1.0891e-05	3.8079e-06	409.36	137.38	120.3	41.132	6.7949e-06	50.707	0.00051773	0.00045948	0.00012778	1349.5	5.1688e-06	4.982e-06	1347.4	365.7	5.2368e-06	5.2376e-06	417.9	140.17	122.36	42.186	5.3943e-06	52.27	96.396	-94.690	-75.263	-141.745	-38.942	10.679	-142.251	-137.345	-45.338	-2.512	-137.713	-133.875	-133.810	-128.142	-41.346	-129.219	-8191	255	
1386.743	1	1	0	0	0.28473	0.18931	0.12022	0.31336	0.08733	0.16804	0.17574	0.25182	0.22799	0.13221	0.12214	0.30312	0.15723	0.071014	0.12155	0.20287	-2.6917	-3.1771	-3.6333	-3.1729	-3.2625	-3.25	-3.2542	-3.5312	-3.075	-3.4437	-3.5917	-3.2833	-3.3187	-3.3187	-3.15	-3.725	199.182	175.507	-79.393	156.067	28.921	-150.401	174.324	44.127	-126.930	112.597	133.138	172.746	-6.503	-36.074	-108.043	6.530	0.0011326	0.00059558	0.00014955	1339.6	8.1153e-06	6.8994e-06	1335.5	360.99	1.0564e-05	6.3088e-06	410.42	137.67	120.41	41.105	5.3754e-06	50.945	0.00054697	0.00048881	0.00013637	1356.5	5.612e-06	5.4044e-06	1353.8	365.86	5.5469e-06	5.3219e-06	418.35	140.7	122.75	42.144	5.3899e-06	52.44	93.057	-43.049	-52.629	-141.801	-24.169	7.458	-142.285	-137.306	-49.138	0.337	-138.041	-133.717	-133.920	-128.254	-51.224	-128.958	-8191	255	
1386.840	1	1	0	0	0.27994	0.36588	0.20078	0.087711	0.16976	0.28403	0.10398	0.18258	0.19873	0.13002	0.11389	0.051309	0.16009	0.1262	0.13851	0.16974	-2.7125	-3.1813	-3.6312	-3.3917	-3.5708	-3.2667	-3.3479	-3.6312	-3.1937	-3.1479	-3.4979	-3.2625	-3.45	-3.4	-3.1813	-3.4458	-109.890	-150.147	-21.471	-39.299	-1.783	175.847	197.394	-137.693	150.062	-43.992	-149.054	-139.117	195.759	-81.159	-29.589	145.715	0.0012435	0.00053183	0.00012168	1345.9	6.1091e-06	5.3695e-06	1340.8	362.31	9.7399e-06	6.475e-06	413.02	139.06	121.73	41.382	4.0127e-06	51.027	0.00052446	0.00048463	0.00013276	1358.2	5.1999e-06	5.192e-06	1354.7	367.09	5.3139e-06	5.2587e-06	419.59	140.82	122.55	42.362	5.2373e-06	52.467	94.329	-73.071	-57.274	-141.762	-16.741	-10.627	-141.995	-137.277	-52.659	-3.155	-137.706	-133.661	-133.535	-128.124	-0.074	-128.700	-8191	255	
1386.936	1	1	0	0	0.20139	0.048118	0.09773	0.17471	0.20571	0.042079	0.19717	0.077109	0.042888	0.19866	0.32097	0.12776	0.10168	0.12806	0.17481	0.20764	-2.9458	-3.3417	-3.5958	-3.2521	-3.4021	-3.4062	-3.4813	-3.5708	-3.1312	-3.1688	-3.5187	-3.1813	-3.4021	-3.3583	-3.0354	-3.5979	-152.999	168.738	-135.857	50.852	-25.714	-41.368	84.453	92.283	185.002	170.503	203.992	-51.654	-148.167	-1.367	137.927	152.403	0.0011274	0.00045162	0.00015518	1341.5	6.0455e-06	2.9226e-06	1336.3	361.36	7.0258e-06	6.7442e-06	412.2	138.88	121.98	41.433	4.1837e-06	51.352	0.0005319	0.00046901	0.00013534	1358.3	5.2187e-06	5.134e-06	1352.7	366.77	5.2586e-06	5.4195e-06	418.83	140.83	123.08	42.314	5.5273e-06	52.457	97.945	-85.194	-44.381	-141.710	-47.596	-0.951	-142.233	-137.134	-43.216	-18.878	-137.712	-133.683	-133.956	-128.115	-14.009	-128.896	-8191	255	
1387.056	1	1	0	0	0.05622	0.13324	0.091129	0.12805	0.15447	0.24237	0.088319	0.068427	0.20261	0.22158	0.24868	0.17199	0.16929	0.14781	0.078849	0.30228	-2.7521	-3.0396	-3.3333	-3.2479	-3.325	-3.5625	-3.2104	-3.4437	-3.2646	-3.2021	-3.6646	-3.3479	-3.3458	-3.5604	-2.9958	-3.4604	-153.576	201.393	-4.943	142.688	81.970	-74.590	168.928	117.437	116.097	186.933	91.106	133.238	139.612	85.014	90.811	154.912	0.0011668	0.00060624	0.00010497	1349	5.8848e-06	6.6068e-06	1339.4	363.72	8.1544e-06	4.0505e-06	415.52	138.63	121.78	41.48	5.5556e-06	51.322	0.0005437	0.0005007	0.00013785	1358.1	5.3517e-06	5.4573e-06	1354.1	367.12	5.399e-06	5.466e-06	419.85	140.92	122.84	42.326	5.4373e-06	52.485	92.674	-60.588	-71.190	-141.625	-12.004	-15.360	-142.081	-137.070	-66.816	-5.553	-137.584	-133.717	-133.555	-128.137	-14.924	-128.707	-8191	255	
1387.152	1	1	0	0	0.17964	0.17835	0.052346	0.20363	0.30627	0.18568	0.29832	0.14005	0.16193	0.20152	0.071832	0.064062	0.1852	0.21341	0.038206	0.22236	-2.9938	-3.1979	-3.3833	-3.175	-3.0812	-3.55	-3.2417	-3.5646	-3.3458	-3.1125	-3.6854	-3.5604	-3.1542	-3.6125	-3.2333	-3.3688	39.977	-16.039	61.634	156.092	-91.114	-120.651	158.291	131.945	94.456	-84.428	86.875	7.483	-35.901	-125.603	-87.326	79.255	0.0012197	0.00039595	0.00010952	1346.9	6.2741e-06	6.2153e-06	1339.1	363.12	1.1394e-05	5.247e-06	412.69	139.4	121.24	41.453	6.0624e-06	51.27	0.00053441	0.000497	0.00013734	1357.7	5.3104e-06	5.2943e-06	1353.7	367.11	5.5013e-06	5.4648e-06	419.45	140.99	122.91	42.323	5.234e-06	52.461	95.039	-70.105	-77.006	-141.810	-15.400	-0.378	-142.172	-137.380	-44.249	-15.634	-137.724	-133.548	-133.656	-128.173	-40.902	-128.871	-8191	255	
1387.249	1	1	0	0	0.17993	0.17348	0.15049	0.094287	0.10034	0.19643	0.31318	0.15223	0.2642	0.3109	0.21495	0.26075	0.1499	0.33608	0.14881	0.11772	-3.0125	-2.9	-3.475	-3.3042	-3.2562	-3.5917	-3.3417	-3.4646	-3.55	-3.1937	-3.4938	-3.5354	-3.1708	-3.4521	-3.1458	-3.2729	97.306	168.430	-149.699	159.370	-105.696	-35.237	162.450	97.901	198.153	-83.995	187.128	156.087	149.842	129.583	138.811	60.605	0.0011888	0.000397	0.00013552	1349	1.0251e-05	5.1962e-06	1337.9	361.56	1.4788e-05	4.5777e-06	413.79	139.35	121.39	41.481	6.7073e-06	50.864	0.00054012	0.00049208	0.00013546	1358.3	5.3813e-06	5.448e-06	1352.7	366.23	5.5491e-06	5.5004e-06	419.35	140.84	122.83	42.249	5.4857e-06	52.3	92.164	-66.717	-72.262	-141.802	-22.373	21.619	-142.112	-137.169	-73.355	-30.797	-137.769	-133.908	-133.532	-128.430	-39.582	-128.904	-8191	255	
1387.320	1	1	0	0	0.17714	0.14658	0.14648	0.3238	0.2824	0.22013	0.37202	0.22851	0.15995	0.22121	0.29494	0.060634	0.076177	0.086767	0.15438	0.072258	-3.0833	-3.3021	-3.5604	-3.5979	-3.175	-3.5312	-3.3729	-3.575	-3.3896	-2.9813	-3.6854	-3.4688	-3.0667	-3.4083	-3.2021	-3.3208	188.423	-99.121	-139.205	150.883	203.731	-101.026	102.319	152.339	169.527	136.711	143.626	-147.999	5.777	61.381	-92.234	26.493	0.0011506	0.0005059	0.00010005	1344.9	4.8211e-06	5.7816e-06	1336.9	361.99	1.0225e-05	4.6769e-06	413.71	138.25	121.05	41.34	5.2201e-06	51.085	0.00055047	0.00050742	0.00013866	1355.6	5.4856e-06	5.4664e-06	1353.2	366.18	5.6662e-06	5.4437e-06	418.71	140.36	122.56	42.227	5.3591e-06	52.325	96.736	-66.777	-50.542	-141.687	-26.633	7.624	-142.065	-137.288	-56.251	-12.213	-137.667	-133.763	-133.515	-128.347	-21.172	-129.055	-8191	255	
1387.439	1	1	0	0	0.28097	0.10444	0.1062	0.20597	0.083802	0.1663	0.14788	0.28344	0.068918	0.076643	0.22816	0.13557	0.34649	0.10815	0.057937	0.079902	-3.0187	-3.1167	-3.4562	-3.4396	-3.2062	-3.6208	-3.5146	-3.1104	-3.3792	-3.1396	-3.4125	-3.5583	-2.9375	-3.5687	-3.3187	-3.3104	154.236	-117.434	41.858	181.907	-11.677	202.078	194.961	185.180	143.795	23.872	155.808	193.398	-103.116	-79.774	120.901	108.712	0.0012635	0.00059486	0.00012723	1347.4	3.672e-06	4.8892e-06	1339.2	362.42	8.9266e-06	5.6604e-06	414.05	138.06	120.46	41.397	5.575e-06	51.049	0.0005469	0.00049791	0.00013852	1355.4	5.4817e-06	5.3929e-06	1351.2	366.14	5.5044e-06	5.4045e-06	418.95	140.37	122.41	42.243	5.4572e-06	52.327	92.819	-60.828	-58.773	-141.853	-47.376	-25.335	-142.227	-137.101	-30.901	-15.181	-137.556	-133.632	-133.760	-128.203	-32.186	-128.962	-8191	255	
1387.535	1	1	0	0	0.099525	0.093689	0.10364	0.15584	0.18695	0.19404	0.23854	0.17972	0.087708	0.10082	0.23254	0.053993	0.16765	0.25685	0.22611	0.23438	-3.0917	-3.1104	-3.3312	-3.3167	-3.1937	-3.4938	-3.6333	-3.2958	-3.1875	-3.3708	-3.3896	-3.3583	-3.1708	-3.3917	-3.5083	-3.2938	-24.827	14.690	-142.810	183.295	112.037	-52.235	146.198	108.737	-138.807	1.416	-119.951	166.547	130.121	198.681	129.833	108.614	0.0012164	0.0005479	0.00011772	1341.9	4.5462e-06	6.5702e-06	1339.4	361.82	9.7846e-06	4.6959e-06	413.97	138.6	121.27	41.451	4.4686e-06	50.851	0.00054413	0.00048836	0.00013555	1355.1	5.4036e-06	5.2064e-06	1351.5	366.58	5.4892e-06	5.4021e-06	419.06	140.37	122.41	42.245	5.367e-06	52.277	95.976	-79.375	-59.229	-141.619	-24.856	-20.229	-142.208	-137.214	-34.401	-10.404	-137.694	-133.556	-133.580	-128.166	-39.350	-128.982	-8191	255	
1387.633	1	1	0	0	0.33654	0.15883	0.21356	0.42498	0.12747	0.29167	0.30086	0.24843	0.22066	0.23366	0.023149	0.034812	0.16135	0.20833	0.32085	0.20626	-2.8646	-3.0812	-3.1354	-3.5125	-3.2042	-3.5396	-3.4729	-3.2125	-3.4229	-3.1292	-3.4	-3.5979	-3.0833	-3.5146	-3.2979	-3.2583	-16.155	-50.095	30.922	198.653	40.553	179.342	193.591	170.484	201.239	109.380	-150.639	160.883	-104.145	179.960	-7.744	83.548	0.0010653	0.00039029	0.0001147	1344.3	4.6462e-06	4.038e-06	1333.2	362.08	1.0981e-05	5.5601e-06	413.19	138.37	121.08	41.202	5.6237e-06	51.052	0.00053709	0.00048957	0.00013673	1357.7	5.4497e-06	5.3152e-06	1350.2	366.34	5.4926e-06	5.3508e-06	418.96	140.56	122.31	42.102	5.4057e-06	52.249	97.073	-52.227	-62.845	-142.121	-24.914	2.300	-142.031	-137.292	-48.576	16.165	-137.658	-133.600	-133.595	-128.302	-77.783	-128.938	-8191	255	
1387.752	1	1	0	0	0.061694	0.23896	0.089632	0.18707	0.12418	0.16354	0.11423	0.23947	0.19187	0.20576	0.15728	0.048259	0.11063	0.090168	0.13011	0.258	-2.9167	-3.1	-3.0729	-3.6479	-3.3187	-3.2354	-3.375	-3.3292	-3.4854	-3.5354	-3.1646	-3.4521	-3.1854	-3.3646	-3.325	-3.0771	-33.969	102.200	153.006	188.750	71.816	4.916	131.871	115.533	89.358	-48.322	-36.650	178.948	115.571	119.982	27.722	72.362	0.0011842	0.00073699	0.00014235	1341.4	5.4535e-06	5.1183e-06	1338.5	361.86	1.3617e-05	4.9015e-06	415.34	138.64	120.73	41.239	4.3794e-06	51.111	0.00053662	0.00048184	0.00013954	1356.2	5.2833e-06	5.3706e-06	1353.1	366.42	5.3396e-06	5.2728e-06	419.08	140.45	122.26	42.226	5.4688e-06	52.331	92.211	-79.733	-51.651	-141.827	-2.581	-3.060	-142.260	-137.137	-44.427	-16.141	-137.758	-133.635	-133.358	-128.344	-14.468	-128.949	-8191	255	
1387.848	1	1	0	0	0.21787	0.27998	0.12486	0.1622	0.12083	0.12495	0.10902	0.13369	0.18973	0.15712	0.10519	0.1584	0.2098	0.12879	0.23288	0.13794	-2.8604	-3.075	-2.9167	-3.5604	-3.3333	-3.1875	-3.5958	-3.3208	-3.5208	-3.3542	-3.4417	-3.6	-3.2188	-3.5083	-3.3771	-3.1521	41.643	-142.476	-119.077	133.763	-33.146	31.249	178.642	189.288	203.971	-66.184	152.073	-135.508	-87.758	198.381	-1.248	181.705	0.0012297	0.00039848	0.00012749	1350	5.5808e-06	5.104e-06	1336.6	361.36	1.0953e-05	4.2499e-06	412.54	138.64	121.75	41.321	5.038e-06	50.923	0.0005408	0.00048292	0.0001369	1356.1	5.1707e-06	5.2879e-06	1350.5	366.31	5.3545e-06	5.3066e-06	418.21	140.65	122.86	42.227	5.2229e-06	52.216	98.029	-76.074	-82.640	-141.776	-34.623	3.398	-142.100	-137.297	-50.774	24.434	-137.677	-133.581	-133.557	-128.178	-37.598	-128.959	-8191	255	
1387.944	1	1	0	0	0.0664	0.13512	0.24816	0.2823	0.3324	0.16489	0.15508	0.35963	0.067111	0.043459	0.10504	0.2767	0.057962	0.074335	0.083878	0.11982	-3.1458	-3.3271	-2.9875	-3.4458	-3.4542	-3.5375	-3.5563	-3.3417	-3.4562	-3.3667	-3.225	-3.6771	-3.2979	-3.2833	-3.5917	-3.4396	-107.209	-71.683	202.330	82.925	85.202	-59.497	110.149	127.375	-87.041	-25.869	-121.072	-143.144	-9.750	75.706	-10.598	142.973	0.0012221	0.00047867	7.0469e-05	1334.8	4.272e-06	5.4225e-06	1337.1	361.35	1.1743e-05	7.102e-06	412.42	138.75	120.7	41.273	4.4321e-06	51.032	0.00053851	0.00048444	0.00013728	1353.8	5.1252e-06	5.1863e-06	1353.2	366.11	5.3028e-06	5.286e-06	418.85	140.53	122.32	42.186	5.1582e-06	52.275	95.483	-51.543	-67.327	-141.907	-39.898	0.323	-141.967	-137.314	-46.273	11.608	-137.771	-133.772	-133.608	-128.203	-36.494	-128.976	-8191	255	
1388.041	1	1	0	0	0.33472	0.1754	0.13074	0.18959	0.1633	0.2084	0.18639	0.14257	0.14284	0.18262	0.23977	0.28591	0.10894	0.22046	0.12316	0.058178	-2.9729	-3.425	-3.0083	-3.5271	-3.425	-3.1708	-3.5292	-3.2333	-3.6708	-3.5312	-3.1667	-3.425	-3.3646	-3.1479	-3.3521	-3.1333	-61.484	-27.968	106.867	149.739	-1.847	23.621	151.207	149.382	119.617	-123.374	94.680	128.434	173.718	128.018	50.490	124.068	0.0011312	0.00077792	0.00018806	1341.4	2.6445e-06	7.164e-06	1335.9	363.1	1.0181e-05	3.0716e-06	414	138.66	120.54	41.225	5.3015e-06	50.832	0.00051346	0.00047618	0.00013191	1353.8	5.0119e-06	5.0211e-06	1350.3	366.37	5.0973e-06	5.141e-06	418.67	140.52	122.2	42.21	5.125e-06	52.156	96.571	-60.107	-71.758	-141.622	-37.420	40.945	-142.087	-137.284	-47.592	7.181	-137.846	-133.684	-133.560	-128.050	-46.786	-129.057	-8191	255	
1388.137	1	1	0	0	0.11656	0.16229	0.17335	0.11435	0.12301	0.14328	0.38189	0.23226	0.13409	0.14273	0.20025	0.19858	0.052075	0.053481	0.097757	0.16115	-2.9062	-3.3812	-2.9542	-3.3354	-3.275	-3.2438	-3.4896	-3.2521	-3.1417	-3.4542	-3.2896	-3.3958	-3.4333	-3.3292	-3.4188	-3.3396	-149.163	170.845	-42.568	181.258	133.590	13.485	163.403	147.139	103.779	-94.289	114.449	-127.408	-55.809	84.689	69.281	159.445	0.0012028	0.00053253	7.8286e-05	1338.3	6.2957e-06	5.722e-06	1335.1	360.63	7.4481e-06	4.2987e-06	414.02	138.56	120.52	41.488	5.6319e-06	51.161	0.00051962	0.00046997	0.00013285	1355.3	5.281e-06	5.1172e-06	1350.4	365.67	5.3332e-06	5.2874e-06	418.5	140.56	122.26	42.206	5.2878e-06	52.262	95.735	-53.255	-35.890	-141.807	-50.953	-2.223	-141.881	-137.155	-53.529	-19.745	-137.742	-133.859	-133.663	-128.200	-22.093	-129.153	-8191	255	
1388.233	1	1	0	0	0.18439	0.38218	0.085161	0.29435	0.048443	0.1977	0.092891	0.18472	0.1683	0.26373	0.15591	0.12266	0.085677	0.16656	0.35738	0.1567	-2.7021	-3.5896	-3.2083	-3.5125	-3.3583	-2.9688	-3.3375	-3.2708	-3.2458	-3.5333	-3.3958	-3.3479	-3.2562	-2.9354	-3.2042	-3.275	179.550	-135.066	195.508	-128.596	6.729	-152.546	124.685	146.476	117.507	90.497	74.353	-133.921	-14.674	178.657	-59.889	135.673	0.0011668	0.00045606	0.00016408	1348.4	5.1641e-06	5.4496e-06	1334.7	362.21	1.3006e-05	2.2418e-06	413.03	138.36	120.35	41.296	5.4536e-06	50.933	0.00053752	0.00048448	0.00013417	1356.3	5.3436e-06	5.4442e-06	1349.6	366.17	5.4149e-06	5.2501e-06	418.49	140.3	122.41	42.11	5.367e-06	52.191	97.276	-25.886	-54.326	-141.854	-20.949	-4.208	-142.045	-137.271	-38.942	-10.245	-137.739	-133.813	-133.467	-128.337	-54.862	-128.959	-8191	255	
1388.353	1	1	0	0	0.40014	0.27409	0.038058	0.1122	0.38774	0.02923	0.17254	0.33105	0.10367	0.15978	0.23366	0.18464	0.11463	0.2836	0.16629	0.35289	-2.8333	-3.5979	-3.3375	-3.3104	-3.3625	-2.975	-3.4938	-3.3958	-3.3083	-3.3937	-3.3937	-3.5271	-3.4958	-3.0396	-3.2896	-3.3917	-95.325	-27.642	-42.688	170.575	-57.723	74.659	160.851	116.169	41.433	-65.220	109.954	167.849	52.772	131.162	-111.155	-15.844	0.0011817	0.00041748	0.00015072	1342.2	4.8669e-06	7.1685e-06	1336.6	361.34	1.0294e-05	2.8198e-06	412.21	138.7	120.15	41.469	6.4038e-06	51.252	0.0005489	0.00048987	0.00013378	1353.8	5.3626e-06	5.4024e-06	1350.1	365.9	5.3225e-06	5.0835e-06	418.01	140.52	122.27	42.246	5.1136e-06	52.344	94.575	-64.652	-72.506	-141.836	-15.837	17.204	-142.056	-137.034	-64.286	4.953	-137.801	-133.362	-133.570	-128.285	-28.771	-128.881	-8191	255	
1388.448	1	1	0	0	0.23374	0.069894	0.37977	0.16285	0.14564	0.1976	0.23825	0.11754	0.25908	0.18345	0.20326	0.091108	0.12932	0.018733	0.219	0.020324	-2.7687	-3.5542	-3.2562	-3.3	-3.2562	-3.1292	-3.6042	-3.425	-2.8979	-3.3542	-3.4771	-3.3667	-3.4688	-3.1437	-3.2396	-3.4479	-105.234	34.870	-126.510	113.279	-30.940	133.001	141.830	202.433	32.309	95.175	15.995	143.090	96.937	-150.574	38.231	-85.324	0.0011034	0.00055845	0.00010773	1339.3	4.9578e-06	5.6404e-06	1340.4	362.25	9.9438e-06	5.6739e-06	412.75	138.37	120.77	41.315	2.5615e-06	50.969	0.00052171	0.00045491	0.00012992	1355.3	5.1992e-06	5.1426e-06	1351.2	366.25	5.3309e-06	5.1347e-06	418.24	140.47	122.04	42.169	5.2867e-06	52.163	95.880	-70.100	-79.948	-141.632	-49.890	-0.616	-141.905	-137.235	-26.191	10.667	-137.729	-133.776	-133.791	-128.231	-8.307	-128.927	-8191	255	
1388.544	1	1	0	0	0.22735	0.1317	0.20538	0.11481	0.089513	0.10358	0.080584	0.11758	0.17224	0.1867	0.099834	0.066841	0.14623	0.12893	0.13965	0.32064	-2.8583	-3.3792	-3.1312	-3.3167	-3.5979	-3.2687	-3.4896	-3.375	-2.9854	-3.5438	-3.4458	-2.9646	-3.4354	-3.3104	-3.3104	-3.2771	55.915	31.695	40.973	156.439	46.420	106.425	157.815	151.389	193.556	191.743	-113.189	193.987	-130.869	-154.915	-53.223	135.012	0.0012029	0.00045513	0.00013902	1338.7	5.346e-06	3.6512e-06	1332	361.74	1.0273e-05	7.1022e-06	411.29	138.36	121.06	41.183	5.5609e-06	50.868	0.0005383	0.00047582	0.00013635	1354.1	5.4752e-06	5.2143e-06	1350.2	366.34	5.614e-06	5.4916e-06	417.46	140.38	122.4	42.107	5.6133e-06	52.2	96.303	-44.014	-67.898	-141.877	-29.474	-18.087	-142.220	-137.309	-45.166	-4.559	-137.937	-133.783	-133.756	-128.158	-39.321	-128.907	-8191	255	
1388.616	1	1	0	0	0.022607	0.11595	0.093086	0.12736	0.043445	0.1132	0.18373	0.21762	0.21973	0.17267	0.15185	0.046627	0.26063	0.031297	0.15652	0.13907	-2.6333	-3.4458	-3.375	-3.4479	-3.3646	-3.1292	-3.4333	-3.5917	-3.2021	-3.5396	-3.3521	-3.225	-3.4646	-3.2021	-3.2062	-3.5625	-24.036	162.995	18.179	-110.496	97.018	-94.449	123.542	142.090	4.904	-153.571	74.296	-150.451	67.810	143.871	24.109	132.108	0.0011574	0.00052335	0.00013298	1343.1	5.2465e-06	5.1339e-06	1334	362.22	8.7434e-06	4.4753e-06	411.73	138.65	120.96	41.312	5.7089e-06	51.082	0.00054736	0.00049113	0.00014034	1355.3	5.4129e-06	5.325e-06	1349.4	366.24	5.4963e-06	5.3336e-06	418.17	140.28	122.12	42.175	5.4572e-06	52.306	94.767	-76.803	-61.934	-141.508	-49.921	9.311	-142.086	-137.083	-33.188	-39.583	-137.794	-133.800	-133.687	-128.083	-57.897	-128.920	-8191	255	
1388.736	1	1	0	0	0.058947	0.19321	0.32629	0.17858	0.075329	0.1767	0.25948	0.13524	0.26056	0.075511	0.20437	0.15921	0.13217	0.28393	0.21838	0.1288	-2.5458	-3.2729	-3.3292	-3.1521	-3.3104	-3.0146	-3.3646	-3.7062	-3.0354	-3.3438	-3.5333	-3.1875	-3.4896	-3.0208	-3.0979	-3.5646	124.729	-110.581	-12.863	202.754	66.950	9.716	75.080	152.692	134.763	-127.826	202.240	57.862	0.529	41.087	-134.278	-109.908	0.0011523	0.00039657	0.00013091	1338	5.4249e-06	3.0745e-06	1332.7	362.34	7.6777e-06	4.9561e-06	413.28	138.81	121.18	41.325	5.2754e-06	51.182	0.00054676	0.00047759	0.00013622	1352.9	5.0759e-06	5.1978e-06	1348.8	366.6	5.2221e-06	5.1302e-06	417.78	140.61	122.33	42.218	5.3268e-06	52.276	96.496	-45.363	-82.264	-141.907	-24.332	-38.458	-142.031	-137.260	-40.547	-5.420	-137.608	-133.656	-133.698	-128.112	-33.501	-129.088	-8191	255	
1388.832	1	1	0	0	0.29307	0.27475	0.17831	0.23066	0.1678	0.2141	0.19276	0.161	0.23018	0.079474	0.036798	0.25548	0.059759	0.13489	0.16069	0.17129	-2.9354	-3.3625	-3.4479	-3.1854	-3.3125	-3.2271	-3.4396	-3.7687	-3.2542	-3.2833	-3.2646	-3.2042	-3.4521	-3.3208	-3.0646	-3.5417	-123.566	-81.225	78.451	149.804	-107.526	92.519	199.538	116.797	92.409	-148.969	-12.626	176.338	176.096	182.752	115.619	70.398	0.0011904	0.00054136	0.00010849	1336.7	4.1492e-06	7.3946e-06	1334.9	360.6	1.0151e-05	4.753e-06	412	138.61	120.29	41.201	4.0556e-06	50.866	0.00052798	0.00048093	0.00013677	1352.1	5.1797e-06	5.2704e-06	1349.5	365.62	5.2341e-06	5.3532e-06	418.02	140.31	122.14	42.124	5.4463e-06	52.156	96.900	-80.277	-64.069	-141.755	-36.104	20.387	-142.055	-137.365	-19.181	-14.267	-137.877	-133.738	-133.823	-128.440	13.639	-129.178	-8191	255	
1388.929	1	1	0	0	0.096128	0.13362	0.34284	0.11374	0.14087	0.11775	0.31608	0.1562	0.30519	0.3623	0.29816	0.28109	0.074951	0.18283	0.12839	0.13209	-2.8125	-3.3187	-3.2	-3.0729	-3.4375	-3.4396	-3.5583	-3.5854	-3.2354	-3.3417	-3.7458	-3.2125	-3.4917	-3.1625	-3.0083	-3.6854	125.697	-63.908	52.452	176.428	-9.845	105.436	137.165	168.613	139.737	14.975	174.542	-147.082	4.843	165.083	178.097	-146.085	0.0011156	0.00066808	0.00011403	1344.4	5.9118e-06	8.6777e-06	1331.1	360.98	7.7961e-06	5.2472e-06	412.08	138.21	120.78	41.2	6.2067e-06	50.949	0.00054789	0.00051338	0.0001407	1356.4	5.4377e-06	5.528e-06	1347.9	365.95	5.5741e-06	5.6289e-06	418.13	140.36	122.13	42.044	5.6609e-06	52.135	95.264	-60.056	-56.925	-141.738	-29.797	-2.993	-142.270	-137.242	-16.333	-10.369	-137.632	-133.648	-133.843	-128.121	-13.805	-128.986	-8191	255	
1389.025	1	1	0	0	0.14886	0.18928	0.13712	0.026427	0.19496	0.2115	0.12888	0.19126	0.21482	0.023181	0.14621	0.14595	0.012704	0.082646	0.066672	0.13374	-2.9083	-3.1896	-3.3333	-3.1917	-3.4729	-3.5687	-3.2792	-3.5708	-3.0958	-3.0938	-3.6125	-3.4479	-3.5583	-3.4125	-3.1813	-3.4042	-20.215	97.519	-63.987	116.195	48.020	-34.404	-148.371	187.434	59.586	58.854	-87.787	84.592	27.431	193.262	1.971	135.690	0.0011977	0.00057003	0.00012672	1341.6	8.5592e-06	7.1475e-06	1331.2	361.15	8.7829e-06	4.803e-06	411.83	138.27	120.46	41.23	4.1196e-06	50.816	0.00056351	0.00050738	0.00013826	1352.9	5.5051e-06	5.565e-06	1346.5	365.31	5.6151e-06	5.5918e-06	417.43	140.01	121.78	42.092	5.5152e-06	52.119	94.173	-43.402	-86.651	-141.698	-21.026	-0.220	-141.924	-137.069	-52.905	-6.759	-137.560	-133.689	-133.809	-128.151	-14.049	-128.939	-8191	255	
1389.145	1	1	0	0	0.20386	0.10105	0.067732	0.2052	0.14967	0.15692	0.32904	0.13325	0.2408	0.29925	0.12394	0.17972	0.14902	0.11349	0.048213	0.28129	-2.6542	-3.1729	-3.3312	-3.2792	-3.3292	-3.4917	-3.3542	-3.4833	-3.2438	-3.2625	-3.5438	-3.1583	-3.3	-3.4	-2.9688	-3.5854	-126.848	138.523	178.590	163.067	102.227	-74.203	133.703	152.617	152.624	164.306	139.505	165.283	-45.219	121.958	-72.224	177.665	0.0010842	0.00048621	0.00014728	1338.9	6.1601e-06	5.053e-06	1331.8	361.94	4.2516e-06	6.2164e-06	410.95	138.22	120.4	41.069	3.2717e-06	51.029	0.0005522	0.000503	0.00013557	1352.9	5.4509e-06	5.3435e-06	1346	365.42	5.5074e-06	5.5557e-06	417.36	140.33	121.73	42.043	5.2558e-06	52.211	96.403	-61.283	-88.234	-141.876	-70.601	-8.324	-142.099	-137.333	-36.618	-13.254	-137.684	-133.867	-133.450	-128.229	-28.839	-129.316	-8191	255	
1389.217	1	1	0	0	0.048509	0.26156	0.26014	0.18535	0.070505	0.21828	0.36475	0.11682	0.11851	0.28803	0.06548	0.29533	0.049417	0.11813	0.24484	0.12643	-2.9938	-3.0042	-3.3979	-3.4625	-3.3917	-3.3042	-3.2917	-3.5771	-3.5604	-3.2542	-3.4458	-3.1917	-3.3854	-3.6	-3.1875	-3.4875	30.901	184.108	-95.611	193.444	-135.977	54.647	133.191	98.148	41.650	35.731	191.067	156.590	134.405	144.852	145.205	-105.138	0.0011105	0.00046827	0.0001589	1334.7	5.9058e-06	3.5543e-06	1329	360.53	8.5172e-06	3.9061e-06	412.12	138.27	119.77	41.272	7.9956e-06	51.08	0.00054236	0.00049808	0.00013483	1351.1	5.4356e-06	5.1788e-06	1344.4	365.43	5.4171e-06	5.184e-06	417.78	140.17	121.69	42.072	5.1252e-06	52.269	95.429	-75.446	-57.690	-141.819	1.852	21.574	-142.320	-137.189	-53.347	-36.699	-137.860	-133.849	-133.835	-128.124	-32.737	-128.828	-8191	255	
1389.313	1	1	0	0	0.12369	0.02611	0.13807	0.067999	0.25969	0.20443	0.218	0.17793	0.031753	0.32216	0.22929	0.23366	0.093587	0.2479	0.17412	0.13317	-2.9771	-3.1188	-3.3354	-3.2667	-3.1667	-3.425	-3.2125	-3.4729	-3.4562	-3.3292	-3.6083	-3.3979	-3.225	-3.45	-3.0625	-3.3917	14.073	45.276	66.105	13.553	186.386	169.496	52.200	103.917	141.711	-63.397	191.810	-99.136	49.590	-92.631	-39.881	63.698	0.0011475	0.00053316	0.00012291	1339.1	5.2832e-06	6.3144e-06	1328.1	362.1	6.595e-06	4.072e-06	411.06	138.03	120.48	41.21	5.2206e-06	50.854	0.00052918	0.00045883	0.00012537	1349.3	5.1579e-06	5.0197e-06	1343.3	365.59	5.2035e-06	4.9596e-06	417.45	139.97	121.93	42.091	5.2781e-06	52.142	96.438	-83.089	-57.457	-141.433	-39.352	13.097	-141.970	-137.287	-38.747	3.237	-137.726	-133.718	-133.934	-128.068	-63.203	-128.703	-8191	255	
1389.434	1	1	0	0	0.20771	0.06241	0.073649	0.25419	0.30804	0.080434	0.19119	0.085921	0.12094	0.19491	0.12615	0.040555	0.11654	0.28129	0.059235	0.2412	-2.9729	-3.2875	-3.4771	-3.1917	-3.1292	-3.6042	-3.5667	-3.5458	-3.4229	-3.2125	-3.5792	-3.5479	-3.3458	-3.6562	-3.1229	-3.1146	-102.924	101.951	139.075	171.717	108.584	50.611	49.589	113.963	-61.263	-108.817	-39.397	143.007	-72.323	174.788	3.398	188.913	0.0011437	0.00072848	0.00014619	1337.9	6.7682e-06	7.365e-06	1330.8	361.2	1.1424e-05	4.9047e-06	411.6	137.93	120.62	41.061	3.8135e-06	50.89	0.00052605	0.00047527	0.00013282	1351.3	5.3322e-06	5.1966e-06	1346.1	365.62	5.3745e-06	5.3889e-06	417.5	140.03	121.68	42.01	5.441e-06	52.056	95.597	-53.612	-82.555	-141.826	-43.218	3.227	-142.180	-137.088	-30.201	7.044	-137.760	-133.690	-133.472	-128.303	-27.233	-128.933	-8191	255	
1389.528	1	1	0	0	0.072974	0.28437	0.14546	0.056973	0.11684	0.15082	0.14885	0.20341	0.27177	0.13875	0.053189	0.12492	0.05755	0.11837	0.17788	0.14189	-2.8563	-2.8958	-3.4313	-3.3833	-3.2292	-3.5125	-3.5354	-3.2354	-3.6229	-3.1417	-3.5312	-3.4375	-2.9833	-3.4354	-3.3667	-3.3917	192.318	27.170	-76.937	125.567	-68.394	-76.061	60.098	199.231	-113.556	112.074	63.180	-16.396	-150.078	168.655	-1.952	180.144	0.0011951	0.00052318	0.00012438	1342.8	5.3538e-06	4.7519e-06	1331.9	360.62	9.9395e-06	4.5327e-06	410.85	137.34	120.12	41.152	5.0456e-06	50.797	0.00054916	0.00049453	0.00014194	1353.4	5.4571e-06	5.292e-06	1347.2	365.5	5.4545e-06	5.4037e-06	417.72	139.75	122.11	42.015	5.4867e-06	52.1	97.061	-75.481	-72.043	-141.887	-35.932	-4.919	-142.179	-137.121	-34.863	34.959	-137.857	-133.657	-133.788	-128.143	-2.482	-129.152	-8191	255	
1389.624	1	1	0	0	0.3101	0.3179	0.11954	0.14441	0.086194	0.22048	0.38363	0.25241	0.15857	0.14956	0.16663	0.15628	0.12862	0.17463	0.073123	0.21142	-3.1833	-3.1417	-3.2271	-3.4583	-3.1354	-3.1542	-3.4542	-3.3688	-3.5396	-3.2292	-3.1688	-3.4792	-3.1417	-3.5979	-3.4604	-3.1396	-127.966	-146.041	63.504	91.256	-103.915	183.205	188.221	-81.355	-114.296	35.918	122.031	-130.801	-63.310	-85.297	179.526	-86.610	0.0012001	0.00039618	0.00012949	1339.9	5.6929e-06	6.7489e-06	1328.2	361.93	6.3986e-06	4.0626e-06	411.06	138.25	120.14	41.185	4.6055e-06	50.873	0.00053623	0.00048019	0.00013892	1351.1	5.2057e-06	5.1525e-06	1344.6	366.03	5.2209e-06	5.1493e-06	417.02	140.05	121.59	42.011	5.2106e-06	52.061	99.161	-76.127	-66.075	-141.694	-39.491	-15.077	-142.228	-137.138	-32.705	3.059	-137.681	-133.661	-133.846	-127.919	-42.897	-128.905	-8191	255	
1389.721	1	1	0	0	0.18167	0.022622	0.078551	0.12268	0.17083	0.057541	0.29464	0.042157	0.17979	0.20809	0.071684	0.39693	0.10191	0.13136	0.1881	0.075488	-2.9792	-3.1937	-3.2771	-3.4188	-3.1021	-3.5646	-3.4437	-3.2583	-3.5687	-3.3208	-3.3812	-3.6292	-3.2562	-3.4604	-3.25	-3.1	64.234	-17.766	-111.318	49.744	-79.158	44.483	112.973	202.783	-12.659	-90.293	88.583	-71.390	72.639	-126.516	49.882	167.935	0.0012118	0.00056219	0.0001043	1341.7	3.9233e-06	4.6621e-06	1333.5	360.46	8.1185e-06	5.1857e-06	413.19	138.16	120.67	41.109	3.539e-06	50.888	0.00052803	0.00046735	0.00013225	1351.8	5.1697e-06	5.2577e-06	1347	365.13	5.2627e-06	5.2743e-06	418.07	139.88	121.83	42.029	5.3456e-06	52.032	92.085	-80.111	-50.598	-141.769	-45.679	-23.749	-142.065	-137.325	-62.725	6.750	-137.650	-133.736	-133.376	-128.205	-30.016	-128.944	-8191	255	
1389.841	1	1	0	0	0.076835	0.15494	0.13731	0.065526	0.1425	0.058109	0.24444	0.052248	0.16668	0.24919	0.10396	0.098286	0.077294	0.37714	0.25501	0.19879	-2.9396	-3.3563	-3.0729	-3.6375	-3.3063	-3.3729	-3.425	-3.1854	-3.3542	-3.2417	-3.4646	-3.5729	-3.1646	-3.525	-3.425	-3.1417	168.862	-144.763	-53.991	-109.177	-12.558	33.593	124.204	71.246	1.955	172.381	8.963	155.618	-88.225	203.641	-119.150	119.563	0.0011643	0.00057075	0.00017086	1341.8	4.0996e-06	5.558e-06	1331.1	361.75	1.0549e-05	3.5244e-06	412.28	138.04	121.38	41.274	7.2292e-06	51.018	0.00052953	0.00048268	0.00013734	1351.2	5.2583e-06	5.3373e-06	1345.9	365.62	5.316e-06	5.2757e-06	417.38	139.82	122.02	42.07	5.3628e-06	52.112	96.027	-60.568	-67.220	-141.872	-51.061	10.853	-141.927	-137.325	-59.584	11.614	-137.711	-133.657	-133.549	-127.938	-23.158	-129.007	-8191	255	
1389.913	1	1	0	0	0.26259	0.058681	0.13593	0.20177	0.17546	0.19957	0.22648	0.28622	0.24626	0.15157	0.069767	0.16756	0.23784	0.21038	0.28583	0.25699	-3.0417	-3.1229	-3.1667	-3.4646	-3.1458	-3.3812	-3.55	-3.3625	-3.4604	-3.4313	-3.4188	-3.8229	-3.2792	-3.4062	-3.1271	-2.9646	180.203	-30.780	-123.619	184.851	194.012	-27.572	115.849	95.424	63.556	181.916	200.999	128.665	-150.890	164.431	174.435	180.118	0.001225	0.00061354	0.00015317	1336.5	6.6244e-06	3.1029e-06	1336	361.73	1.2137e-05	4.8204e-06	412.29	138.3	120.61	41.191	5.1431e-06	51.065	0.00053739	0.00047997	0.00013598	1351.9	5.2861e-06	5.2785e-06	1347.9	365.72	5.3511e-06	5.2187e-06	418.08	140.01	122.05	42.08	5.1431e-06	52.227	91.117	-50.323	-63.413	-141.634	-32.666	17.722	-142.112	-137.154	-55.022	8.805	-137.715	-133.894	-133.690	-128.058	-31.030	-128.737	-8191	255	
1390.033	1	1	0	0	0.17605	0.17975	0.1138	0.23459	0.23688	0.23532	0.24356	0.17044	0.29123	0.019821	0.12562	0.16747	0.25211	0.11685	0.19818	0.21048	-2.9104	-3.275	-3.0292	-3.5479	-3.1458	-3.1896	-3.6312	-3.2896	-3.5354	-3.2188	-3.1896	-3.7396	-3.2167	-3.2375	-3.3458	-3.2125	159.922	-1.739	20.422	183.991	112.073	159.320	149.194	198.334	69.991	-0.118	5.762	163.122	191.206	126.226	-18.819	139.037	0.0011658	0.0003979	0.00015266	1341.9	5.6272e-06	7.533e-06	1334	361.85	1.3361e-05	4.1187e-06	414.24	137.99	120.83	41.149	4.43e-06	50.923	0.00052626	0.00047822	0.00013145	1352.6	5.4314e-06	5.262e-06	1346.2	365.43	5.2754e-06	5.2228e-06	418.48	140	121.68	42.078	5.0705e-06	52.146	100.446	-67.913	-67.344	-141.643	-20.992	-2.445	-142.150	-137.268	-37.424	16.929	-137.637	-133.855	-133.485	-128.289	-36.352	-128.866	-8191	255	
1390.130	1	1	0	0	0.03305	0.080324	0.086315	0.17427	0.049394	0.19002	0.094336	0.2203	0.39218	0.33895	0.27051	0.32563	0.1393	0.28582	0.089297	0.076317	-3.0625	-3.3812	-2.9958	-3.5583	-3.0167	-3.2438	-3.6292	-3.3438	-3.3937	-3.4042	-3.0979	-3.5438	-3.5187	-3.4604	-3.5812	-3.2896	-72.131	-119.247	-80.019	-132.772	67.742	135.804	132.488	170.236	-135.100	63.647	-68.882	135.990	-132.155	-145.173	108.257	131.647	0.0012967	0.00050183	0.00015282	1340.6	6.5385e-06	4.7838e-06	1329.8	360.99	1.0528e-05	3.8196e-06	412.22	137.97	119.76	41.13	5.1292e-06	50.752	0.00053227	0.00046975	0.00012949	1351.4	5.1449e-06	5.1783e-06	1343.8	365.27	5.1543e-06	5.2678e-06	417.11	139.98	121.76	42.074	5.1187e-06	52.111	94.700	-67.826	-59.375	-141.690	-39.564	-6.661	-142.073	-137.288	-45.841	-10.343	-137.823	-133.706	-133.938	-128.193	-67.588	-128.919	-8191	255	
1390.226	1	1	0	0	0.082293	0.069186	0.083964	0.097276	0.044427	0.23357	0.15922	0.13528	0.059835	0.17136	0.12182	0.23337	0.1398	0.18808	0.18644	0.078855	-2.8208	-3.3833	-2.975	-3.5646	-3.375	-2.9958	-3.5167	-3.3937	-3.3521	-3.4396	-3.0771	-3.2083	-3.325	-3.2313	-3.4646	-3.1125	-143.557	-52.510	-15.218	144.838	135.336	14.649	-136.869	128.273	77.270	157.858	-109.144	-146.472	-145.686	36.076	-84.795	200.909	0.0011622	0.00041955	0.0001155	1339.8	5.9043e-06	5.223e-06	1328.3	361.58	9.8116e-06	4.0931e-06	413.08	138.72	120.02	41.044	4.9544e-06	50.953	0.00053421	0.00046715	0.00013067	1350.5	5.1171e-06	5.1136e-06	1344.2	365.68	5.0921e-06	5.0424e-06	417.36	140.11	121.8	41.981	5.0371e-06	52.07	95.927	-67.790	-77.849	-141.942	-34.259	-10.551	-142.013	-137.191	-40.650	-21.184	-137.644	-133.771	-133.443	-128.185	-59.820	-128.962	-8191	255	
1390.322	1	1	0	0	0.19314	0.050169	0.23749	0.20542	0.068151	0.033318	0.27667	0.12186	0.26017	0.17854	0.29358	0.29966	0.064994	0.12378	0.3181	0.035328	-2.9354	-3.4813	-3.0792	-3.5458	-3.2792	-2.9396	-3.5729	-3.45	-3.3812	-3.3812	-3.1479	-3.4646	-3.4646	-3.1021	-3.5	-3.4542	-34.522	166.947	17.648	161.230	-90.741	-76.039	130.475	181.107	37.747	-65.296	-73.475	-151.234	200.802	-90.516	175.735	56.554	0.0012523	0.00049635	0.00013443	1340.1	6.403e-06	5.6537e-06	1329.2	360.7	1.3441e-05	5.6313e-06	412.26	138.31	119.88	41.203	7.3101e-06	50.961	0.0005419	0.00045649	0.00013023	1350.6	5.1918e-06	5.168e-06	1344.6	365.1	5.279e-06	5.129e-06	417.91	139.99	121.4	42.071	5.1718e-06	52.079	95.295	-23.875	-81.573	-141.861	-24.716	-1.623	-141.954	-137.109	-46.945	5.430	-137.884	-133.418	-133.479	-128.098	-21.540	-129.123	-8191	255	
1390.441	1	1	0	0	0.21579	0.14073	0.1254	0.49365	0.13508	0.39761	0.11802	0.19863	0.068818	0.075731	0.019091	0.31784	0.24089	0.091247	0.068795	0.10309	-2.8729	-3.3333	-3.2771	-3.5604	-3.3667	-3.0771	-3.6167	-3.4229	-3.2167	-3.5896	-3.2396	-3.4958	-3.1833	-3.0875	-3.3833	-3.3396	88.005	-82.047	-25.454	193.147	-0.467	125.686	143.080	204.530	68.998	-47.856	141.237	145.368	121.754	168.577	197.837	138.586	0.0011742	0.00058428	0.00010629	1334.3	5.8086e-06	4.896e-06	1332.6	361.89	1.1192e-05	4.9872e-06	413.49	138.58	120.28	41.252	4.5118e-06	50.867	0.00052837	0.00046891	0.00013859	1349.1	5.1839e-06	5.1256e-06	1346.1	365.57	5.3423e-06	5.1326e-06	418.54	140.11	121.97	42.049	5.2619e-06	52.098	93.782	-89.947	-71.991	-141.771	-33.320	-8.816	-142.166	-137.265	-54.757	-0.583	-137.703	-133.811	-133.365	-128.215	-16.783	-129.035	-8191	255	
1390.512	1	1	0	0	0.27186	0.15217	0.27999	0.3569	0.11785	0.093942	0.30398	0.15444	0.11193	0.26737	0.20317	0.17328	0.10041	0.05062	0.14772	0.23332	-2.7625	-3.3937	-3.0833	-3.1917	-3.3812	-3.2146	-3.5687	-3.7021	-3.1063	-3.6979	-3.3729	-3.2729	-3.4313	-3.3063	-3.45	-3.4604	-151.953	3.826	176.376	-64.269	91.657	121.634	86.177	-109.610	164.636	-125.822	-119.783	-0.318	-30.104	-25.053	65.624	141.543	0.0011354	0.00054658	0.00016975	1338.1	4.8876e-06	5.3181e-06	1337	361.71	9.2656e-06	4.9918e-06	412.64	137.96	120.76	41.227	8.1331e-06	50.935	0.00052828	0.00046507	0.00013314	1350.3	5.1327e-06	5.1872e-06	1345.8	365.41	5.0164e-06	5.0852e-06	418.11	140.02	121.87	42.064	5.1486e-06	52.121	96.380	-61.897	-78.418	-141.964	-21.167	7.890	-142.200	-137.240	-43.233	-6.528	-137.567	-133.589	-133.544	-127.834	-23.787	-128.943	-8191	255	
1390.609	1	1	0	0	0.12864	0.17358	0.090094	0.10173	0.11867	0.066972	0.091131	0.14916	0.07671	0.13559	0.2118	0.20659	0.22632	0.17127	0.095053	0.13939	-2.7896	-3.3292	-2.8438	-3.2583	-3.3625	-3.0979	-3.5708	-3.5396	-3.1917	-3.4146	-3.2583	-3.3167	-3.5125	-3.0812	-3.2062	-3.3312	70.072	197.598	-48.638	-75.150	19.147	-30.648	191.029	-73.768	48.169	-20.375	148.491	-147.723	-104.597	-109.065	-9.325	138.293	0.0011394	0.00070349	0.00013272	1333.1	7.6108e-06	3.7874e-06	1328.7	361.2	8.1871e-06	5.2857e-06	413.26	138.77	120.81	41.239	5.9421e-06	50.892	0.00050346	0.00046446	0.0001298	1349.1	4.9354e-06	5.1177e-06	1343.4	365.26	5.0758e-06	5.1146e-06	417.69	140.15	121.88	42.017	5.2653e-06	52.037	93.466	-58.249	-79.930	-141.777	-51.155	-2.200	-141.916	-137.335	-46.574	-35.545	-137.526	-133.797	-133.534	-128.081	-49.359	-128.866	-8191	255	
1390.705	1	1	0	0	0.13023	0.24552	0.20766	0.12365	0.29071	0.019746	0.080353	0.24397	0.13578	0.081657	0.056132	0.10273	0.1016	0.067967	0.095724	0.25075	-2.5729	-3.3937	-3.1542	-3.3021	-3.5208	-3.3083	-3.65	-3.5771	-2.8875	-3.2875	-3.3563	-3.1521	-3.4167	-3.2729	-3.3104	-3.4437	55.370	74.905	-87.675	50.397	61.487	58.704	0.494	95.151	101.052	180.020	-57.911	50.517	-15.546	175.983	189.421	138.268	0.0012343	0.00040267	0.00013485	1346.5	4.5202e-06	6.0283e-06	1332.3	361.37	1.1398e-05	4.2595e-06	412.39	137.91	119.72	41.135	4.8534e-06	51.001	0.00052729	0.00047976	0.00013434	1352.5	5.1755e-06	5.3243e-06	1345.8	365.87	5.286e-06	5.2738e-06	417.41	139.85	121.52	42.007	5.2746e-06	52.086	95.470	-49.109	-66.927	-141.788	-14.148	-27.128	-141.971	-137.260	-33.498	-10.705	-137.704	-133.541	-133.418	-128.270	-30.817	-129.013	-8191	255	
1390.801	1	1	0	0	0.027445	0.12897	0.031957	0.1139	0.19756	0.15304	0.24427	0.13638	0.12392	0.23872	0.1069	0.30417	0.17279	0.2005	0.39405	0.16362	-2.6417	-3.2333	-3.1771	-3.3417	-3.4875	-3.2854	-3.5542	-3.6125	-3.1875	-3.3104	-3.3479	-3.275	-3.5583	-3.1854	-3.1854	-3.4062	147.577	39.295	-10.245	51.107	-31.654	119.480	96.892	148.851	101.324	29.455	-67.966	116.629	147.714	150.040	-48.018	-145.020	0.0011712	0.00062859	0.00018742	1344.4	5.5792e-06	5.9174e-06	1328.1	361.17	7.3061e-06	3.9441e-06	410.37	137.84	120.03	41.216	7.8328e-06	50.726	0.00054752	0.00049358	0.00013596	1354.1	5.4358e-06	5.4741e-06	1344.2	365.41	5.514e-06	5.4265e-06	416.94	139.84	121.64	42	5.4533e-06	51.971	98.670	-45.560	-74.929	-141.787	-55.506	-28.844	-142.132	-137.083	-33.786	-14.981	-137.635	-133.692	-133.957	-128.168	-39.537	-128.807	-8191	255	
1390.922	1	1	0	0	0.086844	0.12043	0.16422	0.17829	0.23011	0.161	0.29224	0.30823	0.29427	0.14131	0.27878	0.19101	0.239	0.31485	0.024091	0.21922	-2.7687	-3.3896	-3.3646	-3.1562	-3.15	-3.2687	-3.3438	-3.5292	-3.1521	-3.3375	-3.2354	-3.2708	-3.4062	-3.3063	-3.0062	-3.6354	81.811	43.197	-95.826	129.493	185.815	54.357	124.096	152.753	-114.900	-5.273	116.676	164.093	78.336	176.212	-20.205	140.047	0.0011737	0.00056842	0.00010453	1337.5	4.8689e-06	5.2003e-06	1327	362.12	1.2108e-05	4.4179e-06	412.66	137.6	119.83	40.891	4.2643e-06	50.548	0.00055849	0.00050891	0.00013842	1349.8	5.5447e-06	5.6311e-06	1343.9	365.31	5.7197e-06	5.5509e-06	417.75	139.67	121.56	41.826	5.4384e-06	51.953	97.371	-68.848	-16.661	-141.885	15.961	-0.139	-142.118	-137.313	-61.059	9.129	-137.565	-133.822	-133.679	-128.120	-9.759	-129.052	-8191	255	
1391.018	1	1	0	0	0.14242	0.062423	0.11851	0.10384	0.10443	0.22135	0.050454	0.19157	0.1108	0.11803	0.073875	0.047408	0.22091	0.30159	0.16907	0.11159	-2.6854	-3.2167	-3.3583	-3.2062	-3.2979	-3.1167	-3.1646	-3.5646	-3.2854	-3.2792	-3.3583	-3.1771	-3.4271	-3.3771	-3.0125	-3.65	-18.025	-39.729	199.644	-71.378	186.629	182.295	30.894	92.085	-41.237	118.285	-16.130	116.860	-134.420	-82.122	159.578	120.343	0.0011486	0.00062292	0.0001605	1339	3.9748e-06	7.4979e-06	1330.6	360.63	1.0592e-05	6.1096e-06	412.14	137.49	120.57	41.012	7.9756e-06	50.615	0.00054566	0.00050099	0.00013409	1351.7	5.4388e-06	5.4406e-06	1342.4	365.07	5.4947e-06	5.4487e-06	417.14	139.74	121.52	41.857	5.3904e-06	51.922	95.791	-73.033	-66.342	-141.694	-24.734	3.313	-142.042	-137.054	-36.357	18.217	-137.590	-133.764	-133.419	-127.974	-19.206	-129.005	-8191	255	
1391.114	1	1	0	0	0.22883	0.28581	0.15639	0.080112	0.11777	0.31357	0.33634	0.029994	0.19324	0.23217	0.094132	0.20188	0.24137	0.13448	0.15893	0.44364	-2.7625	-3.2583	-3.2354	-3.3083	-3.4938	-3.4083	-3.45	-3.6188	-3.175	-3.2313	-3.4708	-3.4062	-3.4271	-3.2479	-3.0708	-3.7167	23.003	162.085	141.545	-97.815	-27.660	-101.444	119.552	95.259	-36.127	46.220	161.554	166.253	6.639	-131.939	-64.443	172.974	0.001152	0.00059753	9.9366e-05	1329.9	4.015e-06	3.4631e-06	1331.6	361.02	9.8845e-06	2.8819e-06	412.79	137.62	120.24	40.992	5.297e-06	50.61	0.00055665	0.00048537	0.0001347	1347.3	5.4474e-06	5.3698e-06	1343.5	365.22	5.6457e-06	5.4162e-06	417.52	139.57	121.72	41.893	5.4906e-06	52.01	97.728	-52.982	-64.638	-141.803	-46.657	9.026	-142.047	-137.205	-38.435	-12.793	-137.729	-133.884	-133.619	-127.940	-26.103	-129.086	-8191	255	
1391.210	1	1	0	0	0.12031	0.046937	0.08208	0.14383	0.23899	0.27196	0.11982	0.31819	0.1928	0.042737	0.1627	0.15873	0.053911	0.28863	0.12357	0.1847	-2.8375	-3.1833	-3.3729	-3.125	-3.1688	-3.3896	-3.3312	-3.5875	-2.9229	-3.1521	-3.4333	-3.15	-3.4437	-3.4688	-3.0458	-3.4958	-89.358	-84.989	43.350	41.475	201.744	21.961	148.009	144.899	70.783	-23.600	-9.709	98.905	107.296	162.371	-70.256	116.296	0.0011271	0.00058783	0.00023436	1342.6	6.2785e-06	7.2753e-06	1329.7	361.44	9.7598e-06	3.5469e-06	411.05	138.07	120.19	40.916	7.0198e-06	50.737	0.00054812	0.00049041	0.00013819	1352.5	5.4201e-06	5.3809e-06	1343.9	365.63	5.4541e-06	5.3937e-06	417.72	139.79	121.53	41.89	5.383e-06	52.03	95.016	-58.749	-62.690	-141.634	-3.254	6.038	-141.964	-137.101	-31.429	9.474	-137.783	-133.805	-133.787	-128.171	-42.830	-129.093	-8191	255	
1391.306	1	1	0	0	0.21243	0.026004	0.058276	0.3047	0.14252	0.18669	0.26569	0.11624	0.11333	0.10789	0.090486	0.040997	0.2121	0.2591	0.12984	0.081197	-2.675	-2.7792	-3.4583	-3.1562	-3.3729	-3.4208	-3.4313	-3.6	-3.1771	-3.0208	-3.5542	-3.0438	-3.2229	-3.6042	-3.2313	-3.4396	-60.591	-35.778	-22.340	172.478	141.157	81.094	100.070	114.830	193.218	155.065	35.829	-60.869	-105.950	-111.971	-99.414	-128.841	0.001158	0.00045285	0.00011523	1338	5.8788e-06	5.7185e-06	1328.2	360.71	1.0515e-05	3.4522e-06	412.33	137.64	119.67	40.809	4.9092e-06	50.546	0.00054264	0.00049817	0.000137	1352.1	5.2835e-06	5.308e-06	1344.4	365.58	5.4521e-06	5.4482e-06	417.81	139.58	121.28	41.842	5.5474e-06	51.984	92.985	-60.031	-51.998	-141.883	-39.520	4.417	-142.035	-137.131	-54.707	-2.833	-137.521	-133.959	-133.557	-128.095	-21.173	-129.260	-8191	255	
1391.402	1	1	0	0	0.10997	0.1446	0.32863	0.17439	0.1147	0.24347	0.21978	0.18946	0.044857	0.19436	0.13676	0.24884	0.28336	0.15196	0.20484	0.082042	-2.7896	-2.9792	-3.4708	-3.3458	-3.2042	-3.1729	-3.0771	-3.6104	-3.4938	-3.1312	-3.4729	-3.4271	-3.2208	-3.5958	-2.8917	-3.4875	-94.167	3.778	133.956	90.211	-70.996	153.934	163.396	111.696	43.278	48.227	152.946	197.927	154.653	-18.694	19.734	102.784	0.0011815	0.00030748	0.00013512	1337	3.7555e-06	5.6785e-06	1324.9	362.14	9.8013e-06	3.5961e-06	411.36	137.24	118.92	40.77	7.4724e-06	50.44	0.00053469	0.00049221	0.00013708	1348.7	5.1825e-06	5.4449e-06	1342.3	365.83	5.5038e-06	5.5289e-06	417.79	139.65	121.42	41.836	5.5405e-06	51.936	92.494	-91.600	-94.125	-141.625	-49.923	-5.132	-141.927	-137.300	-22.285	-12.436	-137.831	-133.811	-133.611	-128.232	-21.852	-128.976	-8191	255	
1391.521	1	1	0	0	0.14044	0.044051	0.17844	0.11238	0.062186	0.062416	0.3184	0.21302	0.18147	0.051397	0.22368	0.13305	0.14469	0.030457	0.11525	0.20096	-2.9167	-3.1104	-3.3292	-3.1458	-3.375	-3.5958	-3.4542	-3.3438	-3.4104	-3.1958	-3.7	-3.3896	-3.1667	-3.4146	-3.3042	-3.3875	120.901	120.694	-100.374	174.117	186.369	-6.092	95.822	33.713	96.605	-9.378	63.961	-109.767	156.677	-15.556	194.244	-98.297	0.0011709	0.0003711	0.00020046	1341.1	8.1808e-06	7.2751e-06	1324.3	361.25	1.2355e-05	5.2421e-06	414.1	137.13	119.82	41.132	3.2156e-06	50.463	0.00054091	0.0005054	0.00014491	1350.2	5.5371e-06	5.4791e-06	1342.7	365.67	5.5568e-06	5.55e-06	418.39	139.46	121.46	41.91	5.6001e-06	51.855	97.803	-55.411	-85.029	-141.645	-23.712	-15.910	-142.094	-137.239	-46.685	-4.560	-137.822	-133.582	-133.537	-127.799	-25.974	-128.950	-8191	255	
1391.617	1	1	0	0	0.1252	0.16895	0.090652	0.10024	0.12714	0.18892	0.31465	0.27368	0.14942	0.21021	0.083114	0.23081	0.028843	0.17381	0.12447	0.28192	-3.0958	-3.1458	-3.2375	-3.2521	-3.2375	-3.5229	-3.4	-3.2417	-3.4188	-3.2542	-3.475	-3.3875	-3.0667	-3.4208	-3.2188	-3.1958	15.221	35.541	-66.468	14.476	-10.112	89.304	89.801	170.383	-17.150	35.801	86.628	183.086	37.634	191.608	8.746	193.533	0.0011452	0.0004805	0.00010919	1341.4	4.9248e-06	9.3164e-06	1326.3	359.47	1.0147e-05	6.3724e-06	413	137.83	119.4	40.937	3.9871e-06	50.943	0.00053805	0.0005132	0.00013883	1352.2	5.3871e-06	5.3989e-06	1343.9	364.6	5.267e-06	5.3587e-06	417.56	139.56	121.19	41.941	5.1544e-06	52.008	96.573	-89.495	-69.771	-141.866	-19.837	-1.201	-142.234	-137.141	-59.958	0.948	-137.626	-133.909	-133.811	-128.141	-51.914	-128.764	-8191	255	
1391.713	1	1	0	0	0.17744	0.20992	0.23983	0.10916	0.093697	0.11131	0.28222	0.24856	0.06867	0.16351	0.16082	0.059202	0.21508	0.069801	0.14431	0.19198	-2.9667	-3.3167	-3.4708	-3.4938	-3.1104	-3.5833	-3.2938	-3.3458	-3.4229	-3.2687	-3.2646	-3.2188	-3.1604	-3.5292	-3.5104	-3.2396	92.078	173.903	64.840	109.763	69.298	-74.997	-139.437	-111.199	-63.033	-71.210	52.791	195.567	57.251	-103.286	180.031	-107.221	0.0011754	0.00043055	0.00013903	1335	6.5459e-06	5.44e-06	1325.1	361.33	9.0511e-06	5.8571e-06	410.69	137.29	120.52	41.149	7.6744e-06	50.798	0.00052361	0.00048448	0.00013026	1347.8	5.2377e-06	5.151e-06	1340.7	365.06	5.3212e-06	5.2329e-06	416.92	139.68	121.44	41.983	5.3349e-06	52.002	99.609	-68.212	-66.138	-141.646	-34.335	-13.582	-142.061	-137.014	-46.123	4.441	-137.571	-133.552	-133.385	-127.921	-20.064	-128.926	-8191	255	
1391.810	1	1	0	0	0.16367	0.1015	0.082915	0.11632	0.17798	0.11047	0.093817	0.13251	0.22069	0.19739	0.13537	0.20302	0.1349	0.15367	0.11484	0.10206	-2.9229	-2.9667	-3.3646	-3.6521	-3.1958	-3.2583	-3.2979	-3.1542	-3.6	-3.2021	-3.3625	-3.2958	-3.0208	-3.525	-3.2729	-3.2271	168.106	-23.492	-54.004	-57.224	-43.852	137.970	-154.581	108.764	-148.550	93.714	17.245	176.809	179.349	-120.845	-148.824	192.276	0.0011668	0.00044303	0.00011251	1336.3	5.7315e-06	7.0221e-06	1328.3	361.36	9.1839e-06	4.1314e-06	412.68	138.05	120.66	40.981	2.3923e-06	50.919	0.00054065	0.00049945	0.0001338	1348.5	5.4898e-06	5.5506e-06	1343.1	365.4	5.5568e-06	5.5519e-06	417.51	139.74	121.77	41.889	5.3716e-06	51.983	94.884	-55.251	-75.042	-141.716	-15.379	17.478	-142.146	-137.302	-32.207	-9.988	-137.764	-133.708	-133.785	-128.183	-4.071	-129.106	-8191	255	
#DATA ENDS
