BOXY.EXE: ISS Imagent and Oximeter Data Acquisition Program Version 0.80
Ascii Record File

#ACQ INFORMATION
2  Detector Channels 
16  External MUX Channels 
1  Auxiliary Channels 
5000  Waveform (CCF) Frequency (Hz)
1  Waveforms Skipped 
30  Waveforms Averaged 
1  Cycles Averaged 
16  Acquisitions per Waveform 
10.0806  Updata Rate (Hz) 

#FILE INFORMATION
TRUE -- External MUX Channel results are PARSED.
FALSE -- AC DC and Phase are NOT grouped.
TRUE -- Companion Program Settings File CREATED.
FALSE -- AC data not excluded
FALSE -- DC data not excluded
FALSE -- Phase data not excluded
FALSE -- Auxillary Chn. data not excluded
Tab delimiters

#CALIBRATION STATE
TRUE -- Waveform Calibration Values APPLIED.


#AUX CALIBRATION VALUES
Val Type	aux-1	

Term	1.0000e+00	
Factor	0.0000e+00	


#WF CALIBRATION VALUES
A = Detector Channel
Val Type	A-AC1	A-AC2	A-AC3	A-AC4	A-AC5	A-AC6	A-AC7	A-AC8	A-AC9	A-AC10	A-AC11	A-AC12	A-AC13	A-AC14	A-AC15	A-AC16	A-DC1	A-DC2	A-DC3	A-DC4	A-DC5	A-DC6	A-DC7	A-DC8	A-DC9	A-DC10	A-DC11	A-DC12	A-DC13	A-DC14	A-DC15	A-DC16	A-Ph1	A-Ph2	A-Ph3	A-Ph4	A-Ph5	A-Ph6	A-Ph7	A-Ph8	A-Ph9	A-Ph10	A-Ph11	A-Ph12	A-Ph13	A-Ph14	A-Ph15	A-Ph16	

Term	0.00000e+00	0.00000e+00	0.00000e+00	0.00000e+00	0.00000e+00	0.00000e+00	0.00000e+00	0.00000e+00	0.00000e+00	0.00000e+00	0.00000e+00	0.00000e+00	0.00000e+00	0.00000e+00	0.00000e+00	0.00000e+00	0.00000e+00	0.00000e+00	0.00000e+00	0.00000e+00	0.00000e+00	0.00000e+00	0.00000e+00	0.00000e+00	0.00000e+00	0.00000e+00	0.00000e+00	0.00000e+00	0.00000e+00	0.00000e+00	0.00000e+00	0.00000e+00	0.00000e+00	0.00000e+00	0.00000e+00	0.00000e+00	0.00000e+00	0.00000e+00	0.00000e+00	0.00000e+00	0.00000e+00	0.00000e+00	0.00000e+00	0.00000e+00	0.00000e+00	0.00000e+00	0.00000e+00	0.00000e+00	
Factor	1.00000e+00	1.00000e+00	1.00000e+00	1.00000e+00	1.00000e+00	1.00000e+00	1.00000e+00	1.00000e+00	1.00000e+00	1.00000e+00	1.00000e+00	1.00000e+00	1.00000e+00	1.00000e+00	1.00000e+00	1.00000e+00	1.00000e+00	1.00000e+00	1.00000e+00	1.00000e+00	1.00000e+00	1.00000e+00	1.00000e+00	1.00000e+00	1.00000e+00	1.00000e+00	1.00000e+00	1.00000e+00	1.00000e+00	1.00000e+00	1.00000e+00	1.00000e+00	X	X	X	X	X	X	X	X	X	X	X	X	X	X	X	X	

B = Detector Channel
Val Type	B-AC1	B-AC2	B-AC3	B-AC4	B-AC5	B-AC6	B-AC7	B-AC8	B-AC9	B-AC10	B-AC11	B-AC12	B-AC13	B-AC14	B-AC15	B-AC16	B-DC1	B-DC2	B-DC3	B-DC4	B-DC5	B-DC6	B-DC7	B-DC8	B-DC9	B-DC10	B-DC11	B-DC12	B-DC13	B-DC14	B-DC15	B-DC16	B-Ph1	B-Ph2	B-Ph3	B-Ph4	B-Ph5	B-Ph6	B-Ph7	B-Ph8	B-Ph9	B-Ph10	B-Ph11	B-Ph12	B-Ph13	B-Ph14	B-Ph15	B-Ph16	

Term	0.00000e+00	0.00000e+00	0.00000e+00	0.00000e+00	0.00000e+00	0.00000e+00	0.00000e+00	0.00000e+00	0.00000e+00	0.00000e+00	0.00000e+00	0.00000e+00	0.00000e+00	0.00000e+00	0.00000e+00	0.00000e+00	0.00000e+00	0.00000e+00	0.00000e+00	0.00000e+00	0.00000e+00	0.00000e+00	0.00000e+00	0.00000e+00	0.00000e+00	0.00000e+00	0.00000e+00	0.00000e+00	0.00000e+00	0.00000e+00	0.00000e+00	0.00000e+00	-2.34514e+02	-1.29768e+02	-1.30127e+02	-1.84443e+02	-8.22941e+01	-6.40824e+01	-1.56720e+02	-1.62015e+02	-7.26260e+01	-6.78743e+01	-1.72091e+02	-1.69816e+02	-1.86035e+02	-1.76734e+02	-7.55040e+01	-1.49635e+02	
Factor	5.55501e-05	1.82107e-04	4.65506e-05	3.36067e-01	2.21863e-06	2.08987e-06	1.79340e-01	5.49720e-02	3.07935e-06	1.85942e-06	9.27168e-02	3.06035e-02	5.57620e-02	9.79774e-03	2.10663e-06	1.41981e-02	8.47988e-06	1.03975e-05	2.90508e-06	1.65852e-01	1.11247e-07	1.15048e-07	8.36732e-02	2.73498e-02	1.08864e-07	1.14871e-07	4.47458e-02	1.47719e-02	2.76586e-02	4.92130e-03	1.11357e-07	6.90630e-03	X	X	X	X	X	X	X	X	X	X	X	X	X	X	X	X	



#DISTANCE SETTINGS
A = Detector Channel
A-1	A-2	A-3	A-4	A-5	A-6	A-7	A-8	A-9	A-10	A-11	A-12	A-13	A-14	A-15	A-16	

2.5000e+00	3.0000e+00	2.5000e+00	3.0000e+00	2.0000e+00	3.0000e+00	1.5000e+00	3.0000e+00	3.0000e+00	3.0000e+00	3.0000e+00	3.0000e+00	3.0000e+00	3.0000e+00	1.5000e+00	3.0000e+00	

B = Detector Channel
B-1	B-2	B-3	B-4	B-5	B-6	B-7	B-8	B-9	B-10	B-11	B-12	B-13	B-14	B-15	B-16	

1.0000e+01	1.0000e+01	1.0000e+01	1.4400e+00	1.0000e+01	1.0000e+01	1.5100e+00	1.9400e+00	1.0000e+01	1.0000e+01	1.9900e+00	2.4900e+00	2.4100e+00	2.9000e+00	1.0000e+01	2.9800e+00	




#DATA BEGINS
time	group	step	mark	flag	A-AC1	A-AC2	A-AC3	A-AC4	A-AC5	A-AC6	A-AC7	A-AC8	A-AC9	A-AC10	A-AC11	A-AC12	A-AC13	A-AC14	A-AC15	A-AC16	A-DC1	A-DC2	A-DC3	A-DC4	A-DC5	A-DC6	A-DC7	A-DC8	A-DC9	A-DC10	A-DC11	A-DC12	A-DC13	A-DC14	A-DC15	A-DC16	A-Ph1	A-Ph2	A-Ph3	A-Ph4	A-Ph5	A-Ph6	A-Ph7	A-Ph8	A-Ph9	A-Ph10	A-Ph11	A-Ph12	A-Ph13	A-Ph14	A-Ph15	A-Ph16	B-AC1	B-AC2	B-AC3	B-AC4	B-AC5	B-AC6	B-AC7	B-AC8	B-AC9	B-AC10	B-AC11	B-AC12	B-AC13	B-AC14	B-AC15	B-AC16	B-DC1	B-DC2	B-DC3	B-DC4	B-DC5	B-DC6	B-DC7	B-DC8	B-DC9	B-DC10	B-DC11	B-DC12	B-DC13	B-DC14	B-DC15	B-DC16	B-Ph1	B-Ph2	B-Ph3	B-Ph4	B-Ph5	B-Ph6	B-Ph7	B-Ph8	B-Ph9	B-Ph10	B-Ph11	B-Ph12	B-Ph13	B-Ph14	B-Ph15	B-Ph16	aux-1	digaux	

1495.911	1	1	0	256	0.14998	0.26408	0.15401	0.44912	0.10899	0.021453	0.10636	0.016732	0.099682	0.15503	0.082374	0.095814	0.25927	0.20602	0.023062	0.18977	-2.9625	-3.4229	-3.3187	-3.0229	-3.3688	-3.4771	-3.1688	-3.3729	-3.1604	-3.3375	-3.6104	-3.1437	-3.2333	-3.5229	-3.1208	-3.2521	-95.549	-25.172	183.654	157.813	51.908	-2.203	-146.797	-125.169	-107.548	-147.446	47.184	203.611	-136.257	100.258	101.123	-12.321	0.00054412	0.0002533	0.00011152	1115.5	2.3711e-06	1.6582e-06	1184.5	232.57	5.203e-06	2.591e-06	290.15	82.554	65.293	19.071	2.4632e-06	26.898	0.00018686	0.00014691	4.0828e-05	1091.8	1.6453e-06	1.4721e-06	1158.4	228.63	1.7423e-06	1.5658e-06	286.37	81.986	64.581	18.936	1.6075e-06	27.03	97.230	-60.813	-84.472	-138.753	-51.694	-30.143	-139.053	-131.679	-76.868	3.030	-132.248	-126.305	-125.991	-118.516	-32.274	-118.812	-8191	255	
1496.007	1	1	0	0	0.11732	0.26011	0.11534	0.15628	0.11151	0.10892	0.11253	0.14327	0.15381	0.16801	0.12412	0.060477	0.12413	0.044215	0.2774	0.19787	-2.6479	-2.8042	-3.4062	-3.2458	-3.3917	-3.5042	-3.0563	-3.4938	-3.4313	-2.925	-3.6083	-3.1813	-3.1604	-3.4167	-2.9646	-3.3354	-14.123	29.309	100.445	94.391	195.053	-102.332	-93.054	-94.527	18.011	-147.985	106.868	-103.445	-115.275	54.299	-100.234	60.687	0.000516	0.00029961	8.8087e-05	1111.6	3.4326e-06	4.0132e-06	1172.3	230.88	3.2927e-06	2.4958e-06	288.14	82.308	65.426	18.888	1.5988e-06	26.82	0.00019336	0.00014533	3.9969e-05	1081.8	1.6117e-06	1.4625e-06	1148.9	227.47	1.7502e-06	1.5919e-06	285.25	81.889	64.521	18.885	1.6736e-06	26.994	98.494	-49.444	-52.870	-138.946	-34.303	4.156	-139.132	-131.927	-36.369	4.926	-131.964	-125.897	-125.787	-118.028	-43.426	-118.580	-8191	255	
1496.103	1	1	0	0	0.072056	0.049294	0.12358	0.36421	0.22331	0.13152	0.15816	0.18515	0.25521	0.24763	0.065059	0.007869	0.24101	0.37558	0.38194	0.013899	-2.8208	-2.8479	-3.1208	-3.1813	-3.1396	-3.675	-3.2958	-3.5375	-3.1479	-3.0125	-3.3792	-3.1729	-3.3042	-3.6229	-3.2896	-3.1604	175.260	97.389	66.103	197.686	-0.832	25.778	97.458	-105.320	74.471	184.806	26.141	24.077	200.227	131.417	37.733	173.705	0.00052044	0.00036013	0.00010686	1109	4.1017e-06	3.1815e-06	1168.3	230.43	6.0098e-06	3.0289e-06	287	81.6	65.142	18.712	1.7708e-06	26.592	0.00018905	0.00015562	4.1276e-05	1081.5	1.6838e-06	1.638e-06	1149.9	226.61	1.6958e-06	1.5814e-06	284.06	81.384	64.232	18.808	1.6242e-06	26.845	101.106	-75.233	-70.808	-138.787	4.618	10.427	-139.270	-131.853	-28.209	18.748	-132.091	-126.150	-126.165	-118.157	-13.086	-118.641	-8191	255	
1496.199	1	1	0	0	0.16461	0.1734	0.22172	0.20292	0.10765	0.19093	0.034709	0.030256	0.16215	0.16992	0.15096	0.081468	0.12299	0.074396	0.14283	0.24152	-2.8208	-2.9229	-3.2854	-3.2104	-3.2396	-3.5167	-3.2938	-3.1021	-3.4354	-3.1646	-3.4021	-3.1875	-3.0708	-3.4417	-3.1667	-3.3604	8.375	22.530	-77.600	130.274	-33.617	97.445	167.777	-13.075	-15.277	21.273	133.143	-27.796	-95.118	-8.127	99.069	127.811	0.00058802	0.00031212	0.00011575	1104.1	3.0796e-06	3.3261e-06	1157.7	227.03	7.5816e-06	3.1183e-06	284.84	81.199	64.095	18.427	2.8867e-06	26.225	0.00018795	0.00013603	3.6562e-05	1080	1.4402e-06	1.3221e-06	1141	223.97	1.5334e-06	1.3306e-06	280.68	80.61	63.166	18.474	1.3082e-06	26.445	102.339	-52.967	-62.279	-139.069	-41.682	16.439	-139.066	-131.754	-40.309	1.719	-131.889	-125.951	-126.262	-117.672	-1.091	-118.783	-8191	255	
1496.295	1	1	0	0	0.18309	0.1002	0.23494	0.16923	0.22045	0.11864	0.12473	0.19075	0.31391	0.25123	0.35654	0.19461	0.1347	0.095977	0.23161	0.18242	-2.8063	-3.0687	-3.4313	-3.175	-3.175	-3.3354	-3.2646	-3.2542	-3.4313	-3.0312	-3.3229	-3.2188	-3	-3.3625	-3.2313	-3.0708	120.847	184.675	158.432	107.052	-21.011	-136.921	104.871	83.331	-51.043	63.777	104.648	1.847	88.239	173.307	49.131	36.369	0.00050103	0.00024777	7.5473e-05	1073.2	2.6643e-06	1.6204e-06	1144.8	224.95	4.3469e-06	2.027e-06	281.71	80.66	63.528	18.371	3.1266e-06	26.32	0.00016101	0.00011684	3.2882e-05	1051.5	1.3651e-06	1.3094e-06	1121.2	221.07	1.4536e-06	1.2684e-06	277.98	79.96	62.816	18.392	1.317e-06	26.439	100.857	-45.085	-78.143	-138.639	-11.614	-11.953	-138.838	-131.649	-33.890	-2.678	-132.010	-126.215	-126.383	-118.613	-17.645	-118.522	-8191	255	
1496.416	1	1	0	0	0.10163	0.19343	0.2305	0.21488	0.21363	0.20316	0.22482	0.24165	0.12752	0.14274	0.23069	0.26709	0.33469	0.16809	0.23844	0.1633	-3.0083	-2.9313	-3.2188	-3.375	-3.1542	-3.3625	-3.5062	-3.3583	-3.4542	-3.1021	-3.2438	-3.4271	-3.275	-3.6021	-3.225	-3.1042	77.777	-139.251	-93.387	154.356	-67.712	2.128	127.347	165.366	62.164	-28.636	-45.747	182.259	200.995	-42.727	36.363	-45.202	0.00052671	0.00030117	6.6035e-05	1079.6	2.0938e-06	3.0904e-06	1145.4	224.13	6.1617e-06	2.2568e-06	281.91	80.532	63.447	18.477	4.1162e-06	26.208	0.00016901	0.00012	3.2343e-05	1053.8	1.3746e-06	1.323e-06	1121.7	221.2	1.4209e-06	1.2674e-06	278.26	80.024	62.851	18.427	1.4205e-06	26.384	99.607	-47.830	-64.033	-138.875	-26.798	-1.212	-139.095	-131.692	-29.758	2.103	-132.099	-125.932	-125.776	-118.227	-16.594	-118.666	-8191	255	
1496.510	1	1	0	0	0.15809	0.13025	0.25795	0.089359	0.15224	0.25672	0.097942	0.26102	0.20016	0.036391	0.081586	0.1193	0.2133	0.083686	0.043666	0.084796	-3.0167	-3.3187	-3.4021	-3.4708	-2.9646	-3.2271	-3.4542	-3.1083	-3.4938	-3.0917	-3.3167	-3.4667	-2.9583	-3.3146	-3.3187	-3.1083	57.171	172.317	-92.378	-128.656	90.504	131.651	60.775	180.377	174.196	194.710	-17.948	-135.450	119.877	-117.544	-144.933	-55.485	0.00053373	0.00026721	0.000115	1087.1	3.6075e-06	2.6593e-06	1142	223.37	4.4275e-06	2.4401e-06	281.09	80.57	63.82	18.378	2.95e-06	26.044	0.00017543	0.00011961	3.5133e-05	1055.7	1.4682e-06	1.3885e-06	1121.2	220.73	1.52e-06	1.3189e-06	277.53	79.946	62.808	18.363	1.3001e-06	26.291	97.470	-42.914	-59.205	-138.957	-62.121	24.692	-139.159	-131.572	-47.501	-0.549	-131.975	-125.857	-125.941	-117.963	-7.189	-118.755	-8191	255	
1496.608	1	1	0	0	0.20283	0.08509	0.13713	0.20481	0.2562	0.083726	0.2157	0.054842	0.096166	0.14613	0.17538	0.20019	0.12856	0.11582	0.10732	0.18964	-3.1125	-3.325	-3.3563	-3.6104	-3.3125	-3.4938	-3.4854	-2.8146	-3.4292	-3.2792	-3.2	-3.6667	-3.1792	-3.2271	-3.2812	-3.0187	168.647	193.225	197.921	153.239	-82.529	-12.416	-134.363	175.041	125.180	-9.914	-80.421	108.758	-118.590	-110.076	-8.764	79.425	0.00054473	0.00019269	9.4282e-05	1071.8	4.797e-06	4.3498e-06	1134.5	223.66	6.2162e-06	3.1712e-06	278.27	79.728	62.978	18.23	4.0287e-06	25.974	0.00015958	0.00010915	3.3251e-05	1049.8	1.3044e-06	1.2552e-06	1113.4	220.29	1.3644e-06	1.1896e-06	274.38	79.156	62.077	18.21	1.2131e-06	26.086	95.151	-93.747	-70.609	-138.992	-45.339	14.737	-138.938	-131.609	-25.863	30.501	-132.174	-125.894	-126.095	-117.995	-35.131	-118.937	-8191	255	
1496.703	1	1	0	0	0.33169	0.2064	0.047311	0.21354	0.048027	0.16382	0.23164	0.1077	0.22561	0.19159	0.16309	0.30163	0.095365	0.13991	0.051528	0.16345	-2.8917	-3.3583	-3.2229	-3.5875	-2.9708	-3.1771	-3.5104	-3.1875	-3.4458	-3.3083	-3.1479	-3.575	-3.3021	-3.2292	-3.4208	-3.0854	-106.086	98.601	-107.064	111.063	-31.690	-52.912	131.897	42.621	195.756	119.054	-103.663	115.921	-84.440	208.000	18.780	-141.227	0.00052689	0.00030291	9.9779e-05	1061.1	3.0266e-06	3.3625e-06	1111.9	220.74	5.1447e-06	2.0353e-06	274.09	78.972	62.125	17.841	4.1544e-06	25.644	0.00015366	0.00010482	2.8016e-05	1031.8	1.2117e-06	1.1006e-06	1092.6	217.24	1.2299e-06	1.0133e-06	271.11	77.992	61.144	17.919	1.0785e-06	25.693	99.135	-69.652	-29.532	-138.584	-24.718	5.088	-139.100	-131.856	-50.591	-3.635	-131.819	-125.446	-125.762	-118.204	3.750	-118.572	-8191	255	
1496.799	1	1	0	0	0.17817	0.078828	0.049265	0.27624	0.22308	0.17414	0.29082	0.11256	0.21831	0.33176	0.11745	0.17448	0.22679	0.12786	0.15584	0.11986	-2.8646	-3.1125	-2.8292	-3.35	-3.05	-3.0292	-3.6042	-3.2521	-3.3396	-3.3	-3.4146	-3.5312	-3.1333	-2.9708	-3.3771	-2.9979	-102.177	96.625	34.285	-144.915	188.118	-129.480	80.550	179.363	166.755	10.624	33.441	166.167	50.550	-77.886	23.607	-99.855	0.00053963	0.00016851	9.6267e-05	1037.3	1.9713e-06	3.7591e-06	1090.6	217.44	4.8785e-06	4.015e-06	271.77	77.441	60.919	17.784	2.5386e-06	25.281	0.00014916	9.5592e-05	2.7955e-05	1014.8	1.0863e-06	1.0807e-06	1075.6	214.49	1.1453e-06	9.8837e-07	268.53	77.048	60.297	17.729	1.0372e-06	25.414	99.655	-75.564	-56.134	-138.947	-1.819	20.980	-138.958	-131.433	-51.088	-0.088	-131.810	-126.102	-125.779	-117.637	-11.522	-118.526	-8191	255	
1496.895	1	1	0	0	0.12757	0.09221	0.15482	0.17075	0.020423	0.13462	0.17119	0.18701	0.13661	0.076357	0.20718	0.058354	0.047397	0.072975	0.17246	0.1494	-2.6271	-3.4146	-3.1625	-3.4813	-3.3563	-3.1917	-3.7771	-3.4042	-3.2979	-3.4708	-3.2125	-3.4417	-3.2875	-3.1771	-3.5187	-3.0417	11.069	-48.290	205.847	191.791	-70.255	95.476	104.386	156.431	99.629	-73.759	38.605	-100.785	8.888	94.836	148.743	-68.743	0.00052631	0.0004088	7.7535e-05	1022	2.4743e-06	3.4807e-06	1080.5	214.58	4.9403e-06	2.3688e-06	268.42	76.925	59.779	17.533	3.6249e-06	24.882	0.00014423	9.1888e-05	2.6097e-05	999.04	1.0682e-06	1.0045e-06	1061.7	211.58	1.1971e-06	9.4601e-07	266.54	76.233	59.448	17.558	1.0665e-06	25.145	99.240	-50.786	-50.446	-138.717	-57.461	-10.944	-138.855	-131.427	-54.115	-20.073	-131.679	-125.767	-126.029	-118.424	-11.255	-118.543	-8191	255	
1496.991	1	1	0	0	0.035377	0.072299	0.094237	0.082565	0.20067	0.017896	0.12723	0.16615	0.073916	0.27832	0.26401	0.2605	0.21935	0.11155	0.13256	0.19791	-3.0021	-3.3646	-2.9042	-3.2292	-3.225	-3.2271	-3.8917	-3.4	-3.3063	-3.4062	-3.0604	-3.3812	-3.4521	-3.225	-3.5146	-3.5208	-44.391	204.482	127.682	135.816	112.014	102.255	-97.441	205.578	18.910	-111.295	112.333	-2.736	27.538	-5.270	-95.867	149.266	0.00052856	0.00025655	9.8639e-05	1013.6	1.353e-06	3.1169e-06	1076.4	213.76	5.0762e-06	3.7828e-06	268.42	76.249	59.876	17.519	1.8572e-06	24.797	0.00014409	9.7e-05	2.5365e-05	990.82	1.0724e-06	9.9324e-07	1055.7	210.44	1.0705e-06	1.0161e-06	265.43	75.912	59.259	17.475	1.0205e-06	25.044	99.642	-67.335	-64.543	-138.846	-44.498	5.476	-138.897	-131.530	-45.653	9.105	-131.890	-125.768	-125.656	-117.786	-32.527	-118.574	-8191	255	
1497.112	1	1	0	0	0.074432	0.099489	0.25531	0.28901	0.22539	0.0094013	0.24103	0.097356	0.16801	0.29627	0.10324	0.11315	0.29644	0.088163	0.082814	0.13217	-2.9729	-3.5354	-3.0583	-3.4625	-3.4917	-3.3208	-3.7396	-3.3083	-3.3167	-3.4083	-3.1292	-3.2354	-3.3875	-3.2396	-3.4917	-3.3458	-44.216	147.966	-102.055	-86.859	37.247	-118.800	200.920	-29.341	149.075	170.757	-111.802	3.302	82.663	-39.638	11.596	194.996	0.00052014	0.00022902	8.0538e-05	1011.8	3.3709e-06	2.71e-06	1067.1	212.71	5.0299e-06	2.9964e-06	268.31	76.376	60.436	17.354	2.9999e-06	24.884	0.00014767	8.8357e-05	2.6079e-05	989.72	1.0399e-06	9.8438e-07	1050.5	209.43	1.1299e-06	9.5152e-07	265.07	75.567	59.358	17.359	1.0082e-06	25.041	99.912	-52.855	-43.458	-138.712	-35.706	16.933	-138.622	-131.757	-37.850	44.953	-131.938	-125.652	-125.780	-117.862	-20.073	-118.637	-8191	255	
1497.183	1	1	0	0	0.14694	0.10178	0.10143	0.053718	0.17685	0.20945	0.2611	0.03461	0.09916	0.055774	0.34144	0.27748	0.071277	0.078143	0.055609	0.13122	-2.8729	-3.3375	-2.8438	-3.3771	-3.5875	-3.0375	-3.6229	-3.475	-3.0208	-3.3312	-3.1	-3.3167	-3.3625	-3.2354	-3.4646	-3.4833	-12.781	-120.646	147.646	-62.748	103.278	-62.739	139.528	-103.077	154.399	29.707	-24.801	-20.117	-138.676	-122.030	136.739	27.207	0.00048665	0.00038755	8.1377e-05	1011.5	3.173e-06	3.375e-06	1065.7	212.05	5.4773e-06	2.6471e-06	267.13	75.894	59.798	17.351	3.1068e-06	24.735	0.00014497	9.3426e-05	2.6751e-05	985.22	1.0986e-06	1.0098e-06	1047.3	208.76	1.1685e-06	9.9986e-07	264.77	75.531	59.047	17.34	9.6811e-07	24.984	97.557	-56.512	-72.408	-138.597	-14.064	12.913	-139.063	-131.592	-45.268	6.692	-131.886	-125.772	-126.272	-117.678	16.814	-118.785	-8191	255	
1497.279	1	1	0	0	0.15811	0.11797	0.13855	0.020174	0.21409	0.1827	0.065266	0.2329	0.15558	0.086126	0.17122	0.09766	0.17777	0.24176	0.2514	0.13164	-2.5729	-3.2875	-3.0938	-3.4292	-3.5146	-3.1937	-3.4021	-3.4021	-2.9729	-3.3833	-3.2125	-3.2833	-3.3812	-3.125	-3.4813	-3.5521	59.674	120.011	113.359	-96.712	-50.538	-105.258	154.562	191.094	-127.790	102.342	79.377	85.931	-36.243	-147.365	-60.583	178.973	0.00048314	0.00033252	7.0797e-05	1004	2.675e-06	2.7445e-06	1065.3	211.15	7.0466e-06	2.8676e-06	268.67	75.759	59.84	17.41	2.8091e-06	24.809	0.00013764	9.3924e-05	2.5716e-05	985.04	1.0123e-06	9.7071e-07	1046	208.59	1.229e-06	9.9052e-07	264.51	75.444	59.066	17.391	9.6649e-07	24.949	94.972	-45.547	-61.726	-138.577	-34.255	22.898	-138.668	-131.633	-47.550	7.650	-131.889	-125.677	-126.062	-117.959	-14.221	-117.830	-8191	255	
1497.376	1	1	0	0	0.046638	0.27803	0.1596	0.19189	0.28002	0.1354	0.13998	0.26888	0.033742	0.048012	0.11035	0.16067	0.042366	0.23969	0.22529	0.079725	-2.6646	-3.4083	-3.4562	-3.2396	-3.5167	-3.225	-3.4792	-3.4958	-3.0062	-3.4062	-3.3646	-3.0771	-3.3271	-2.9271	-3.3958	-3.5958	180.461	-133.310	145.466	157.321	133.007	-125.997	-130.417	138.906	209.290	-116.927	201.359	100.069	-46.407	-143.978	181.039	68.711	0.00053563	0.00036581	9.1345e-05	1002.1	3.1546e-06	2.0896e-06	1064.4	209.39	4.2557e-06	3.7985e-06	267.43	75.734	59.611	17.267	4.0292e-06	24.827	0.00015084	8.9657e-05	2.6376e-05	981.21	1.0358e-06	9.1151e-07	1043.4	207.77	1.2109e-06	9.7736e-07	263.79	75.466	58.894	17.353	1.0236e-06	24.989	100.588	-58.061	-63.947	-138.452	-26.026	5.107	-138.786	-131.356	-38.965	-3.729	-131.947	-125.415	-126.140	-117.518	-23.504	-118.851	-8191	255	
1497.496	1	1	0	0	0.22907	0.019257	0.13158	0.15507	0.061067	0.20623	0.19437	0.090333	0.12093	0.13914	0.16535	0.12756	0.090333	0.24938	0.20104	0.11626	-2.6354	-3.3708	-3.25	-3.0521	-3.4542	-3.0563	-3.3917	-3.5583	-3.125	-3.4292	-3.5625	-3.0896	-3.3625	-3.2354	-3.4604	-3.4417	-105.970	170.399	-73.872	106.635	46.284	-76.799	139.930	56.308	-126.917	-85.021	71.539	198.000	-61.317	126.915	-37.057	69.014	0.00053182	0.00028672	9.9345e-05	1007.3	3.5041e-06	2.622e-06	1062	210.63	5.6074e-06	3.0393e-06	265.47	75.65	59.703	17.242	5.0036e-06	24.92	0.00013942	8.7989e-05	2.5553e-05	981.57	1.0733e-06	9.3956e-07	1042.3	207.96	1.1746e-06	9.6085e-07	263.55	75.291	58.816	17.318	1.0252e-06	24.975	97.569	-48.147	-67.045	-138.676	-9.909	-11.470	-138.834	-131.522	-29.774	-0.861	-131.770	-125.632	-125.875	-117.906	-18.203	-118.324	-8191	255	
1497.591	1	1	0	0	0.11192	0.37673	0.25759	0.16906	0.16883	0.27292	0.18082	0.06982	0.16216	0.1709	0.080212	0.18665	0.22578	0.19713	0.031786	0.074445	-2.6583	-3.3333	-3.3542	-3.0271	-3.4375	-3.0667	-3.4167	-3.3125	-2.9979	-3.4437	-3.5187	-3.2167	-3.4208	-3.3104	-3.1333	-3.3771	146.065	0.447	89.952	207.413	161.362	-29.695	144.050	-98.002	141.907	-61.951	-144.445	112.151	63.707	43.289	-77.465	53.679	0.00051934	0.00024458	6.1452e-05	996.12	2.596e-06	2.4761e-06	1058.4	210.97	5.0631e-06	3.2574e-06	267.57	75.524	59.196	17.187	2.7158e-06	24.593	0.0001429	8.6494e-05	2.5474e-05	977.65	1.0019e-06	1.0074e-06	1042.6	208.02	1.1682e-06	9.9268e-07	263.85	75.266	58.826	17.336	1.0238e-06	24.88	96.896	-53.312	-60.759	-138.535	-37.718	2.707	-138.809	-131.573	-48.923	14.909	-132.371	-125.623	-125.983	-118.029	-47.540	-118.573	-8191	255	
1497.689	1	1	0	0	0.12892	0.25826	0.059832	0.13839	0.14462	0.17143	0.1798	0.21897	0.14274	0.098785	0.14335	0.16065	0.14358	0.11063	0.24833	0.11472	-2.6104	-3.3375	-3.3896	-3.2375	-3.3625	-3.2604	-3.2958	-3.6354	-3.15	-3.2583	-3.4333	-3.1521	-3.3854	-3.25	-2.9521	-3.3583	65.621	133.078	-112.437	94.082	13.991	-53.663	192.128	4.854	3.979	-58.682	-2.120	-63.286	-147.504	100.702	-61.139	4.195	0.00048084	0.00023973	4.1885e-05	994.57	2.8008e-06	4.7454e-06	1056.2	211.36	6.2479e-06	2.7937e-06	265.84	75.979	59.218	17.307	1.147e-06	24.811	0.00014057	9.4097e-05	2.2381e-05	975.85	1.0283e-06	9.374e-07	1040.4	208.26	1.1292e-06	9.8622e-07	262.91	75.39	58.818	17.349	1.1122e-06	24.926	100.537	-57.077	-64.269	-138.859	-7.412	-11.163	-138.803	-131.464	-25.136	-50.137	-132.168	-125.646	-125.872	-117.659	-18.413	-118.351	-8191	255	
1497.807	1	1	0	0	0.18285	0.25275	0.091127	0.29924	0.17902	0.17822	0.050511	0.064805	0.30024	0.12496	0.080803	0.24292	0.068487	0.087607	0.068782	0.11098	-2.8271	-3.1271	-3.2208	-3.1729	-3.3812	-3.3438	-2.9958	-3.4375	-3.1167	-3.1937	-3.5917	-3.1021	-3.4979	-3.4	-2.8667	-3.5187	-17.169	89.780	81.525	103.320	77.463	-38.571	-144.887	89.606	82.936	-133.767	-58.844	-108.518	177.014	166.680	183.315	126.702	0.00043899	0.00028233	8.1811e-05	993.93	2.1478e-06	2.3727e-06	1052.2	210.08	5.7216e-06	3.3784e-06	266.79	75.313	59.866	17.333	4.3167e-06	24.713	0.00013487	9.061e-05	2.5147e-05	977.55	1.0575e-06	9.4866e-07	1040.6	207.8	1.1707e-06	9.7952e-07	263.81	75.262	58.995	17.394	9.5442e-07	24.945	94.658	-58.287	-37.606	-138.615	-28.512	15.858	-138.899	-131.520	-41.986	17.179	-132.025	-125.839	-125.760	-117.821	-28.805	-118.398	-8191	255	
1497.879	1	1	0	0	0.15976	0.039036	0.14861	0.17121	0.19983	0.10679	0.16143	0.15239	0.22514	0.34906	0.22109	0.10013	0.04479	0.055371	0.13428	0.27392	-2.8333	-3.2146	-3.4479	-3.0417	-3.3375	-3.3667	-3.2021	-3.5771	-3.1271	-3.2062	-3.2583	-3.1604	-3.2854	-3.3292	-3.2833	-3.4542	-105.327	-67.040	-39.073	75.574	123.806	-19.606	117.330	196.898	-114.222	-141.035	101.056	97.844	111.304	-53.366	-60.116	174.984	0.00048748	0.00030644	9.2741e-05	1005.8	3.4859e-06	1.8355e-06	1053.4	209.61	3.6538e-06	3.5261e-06	266.42	75.176	59.842	17.189	4.0425e-06	24.753	0.00013967	9.074e-05	2.3713e-05	980.76	1.1312e-06	9.5657e-07	1042.1	207.46	1.1676e-06	1.0267e-06	263.58	75.189	58.929	17.348	1.0458e-06	24.93	95.151	-58.835	-53.704	-138.722	-38.281	38.663	-138.747	-131.514	-58.946	-12.826	-131.896	-126.016	-125.550	-117.762	-7.028	-118.220	-8191	255	
1497.975	1	1	0	0	0.31229	0.3076	0.26813	0.17243	0.36361	0.094441	0.13853	0.19278	0.15858	0.21845	0.24638	0.073424	0.13533	0.19125	0.44657	0.14839	-2.7146	-2.9313	-3.0958	-3.1271	-3.2875	-3.3458	-3.275	-3.275	-3.2333	-3.1937	-3.5187	-3.2062	-3.2625	-3.4604	-2.9583	-3.4	-122.159	-93.440	-2.205	21.210	82.755	-148.520	145.437	-112.938	-63.845	-65.065	199.795	171.472	30.021	-111.640	-101.202	-134.632	0.00046993	0.00023832	5.2057e-05	1001.4	2.8443e-06	2.9784e-06	1058.1	210.45	5.9787e-06	2.4734e-06	265.57	75.471	59.439	17.205	2.8944e-06	24.687	0.00013849	9.8863e-05	2.4935e-05	979.69	1.0337e-06	9.839e-07	1042.3	207.53	1.1324e-06	1.0683e-06	263.47	75.231	58.659	17.367	1.1862e-06	24.893	96.820	-41.841	-32.224	-138.800	-22.773	-4.482	-138.946	-131.439	-53.152	21.925	-131.907	-125.864	-125.941	-117.828	-26.273	-118.383	-8191	255	
1498.096	1	1	0	0	0.19571	0.10449	0.15959	0.28259	0.12476	0.19569	0.19772	0.11681	0.27754	0.25931	0.10856	0.084015	0.14684	0.11323	0.362	0.23004	-2.8937	-3.1771	-3.5167	-3.2313	-3.1875	-3.4437	-3.0979	-3.2896	-3.4437	-3.1312	-3.675	-3.2333	-3.1021	-3.3229	-3.1292	-3.4042	-85.989	4.739	120.967	139.318	-64.299	166.365	182.209	89.898	-4.072	12.183	-148.945	112.019	-146.662	-18.162	-41.001	54.114	0.00053615	0.00028273	9.7268e-05	994.97	2.7494e-06	3.1165e-06	1065.6	210.5	5.3357e-06	3.5572e-06	266.46	75.143	60.068	17.252	2.5216e-06	24.774	0.00014645	0.00010029	2.6569e-05	981.11	1.1788e-06	1.0536e-06	1045.3	207.69	1.2025e-06	1.0997e-06	263.66	75.204	59.02	17.355	1.118e-06	24.916	97.222	-70.478	-78.097	-138.637	-21.579	-0.710	-138.782	-131.637	-68.804	-9.798	-131.668	-125.730	-125.704	-117.785	-37.223	-118.661	-8191	255	
1498.192	1	1	0	0	0.15105	0.065729	0.11437	0.091496	0.0425	0.33177	0.12102	0.14458	0.3319	0.14946	0.12032	0.068311	0.22539	0.20133	0.11651	0.13737	-2.9271	-3.0021	-3.2417	-3.6042	-3.2	-3.4958	-3.2875	-3.2292	-3.2	-3.1063	-3.6167	-3.4729	-3.1208	-3.4104	-3.0938	-3.2812	149.432	-57.948	79.888	9.885	176.140	-63.931	171.432	-115.783	-41.218	109.641	133.721	174.558	30.115	85.884	114.153	173.163	0.00050694	0.00023442	7.1016e-05	1000.8	2.4346e-06	4.2572e-06	1060.1	210.83	3.3851e-06	2.7721e-06	265.25	75.494	59.76	17.322	2.0172e-06	24.823	0.00014131	9.9686e-05	2.5988e-05	982.95	1.0193e-06	1.0129e-06	1046	208.36	1.1628e-06	1.0178e-06	263.74	75.327	59.037	17.376	1.008e-06	24.93	101.159	-74.576	-47.559	-138.757	-41.151	27.160	-138.920	-131.556	-44.251	0.499	-132.149	-125.596	-126.153	-117.680	-26.748	-118.225	-8191	255	
1498.288	1	1	0	0	0.12118	0.20966	0.11507	0.27084	0.14533	0.15429	0.31668	0.14822	0.1775	0.09274	0.16973	0.10032	0.14939	0.27631	0.031068	0.17279	-3.1979	-3.2062	-3.2854	-3.3125	-3.1021	-3.3583	-3.3063	-3.1813	-3.3479	-3.0208	-3.5229	-3.475	-3.0354	-3.4354	-3.2167	-3.2812	178.977	118.000	29.628	48.128	85.693	100.680	161.188	49.814	-53.336	-114.944	-112.187	167.581	189.293	-30.417	194.974	-104.299	0.00053217	0.00033104	8.3816e-05	1003.6	3.2896e-06	3.6984e-06	1060.3	209.66	3.8576e-06	2.2886e-06	267.1	76.035	60.179	17.44	3.785e-06	24.837	0.00013972	9.7108e-05	2.3386e-05	982.38	1.1261e-06	9.6784e-07	1045.6	207.88	1.1571e-06	1.069e-06	264.05	75.392	59.031	17.434	9.9688e-07	25.029	97.664	-41.247	-60.755	-138.209	-52.600	-7.708	-138.888	-131.502	-31.892	-20.194	-131.990	-125.741	-126.170	-118.333	-46.240	-118.426	-8191	255	
1498.409	1	1	0	0	0.25714	0.14684	0.081405	0.24962	0.04147	0.047343	0.24381	0.17249	0.072354	0.19537	0.095243	0.14302	0.15443	0.16933	0.16092	0.22598	-3.0938	-2.9771	-3.2979	-3.3333	-2.9292	-3.4708	-3.5604	-3.15	-3.3542	-3.1854	-3.3	-3.375	-3.2687	-3.2458	-3.1896	-3.1792	20.257	109.756	-88.630	153.762	-16.734	123.426	145.609	141.000	49.050	155.490	-8.697	-89.538	102.436	75.291	-82.587	-6.226	0.0005198	0.0003546	7.8486e-05	1009.3	3.8155e-06	2.3937e-06	1063.3	210.72	5.9713e-06	1.9342e-06	268.54	75.968	59.724	17.347	1.8137e-06	24.813	0.00013838	9.4184e-05	2.4681e-05	984.09	1.1157e-06	9.8653e-07	1048.1	208.66	1.1807e-06	1.036e-06	264.81	75.292	58.99	17.39	1.0556e-06	24.993	102.221	-70.314	-71.117	-138.696	-62.267	14.730	-138.840	-131.670	-57.981	30.476	-131.975	-125.866	-126.022	-117.678	-34.521	-118.282	-8191	255	
1498.480	1	1	0	0	0.10311	0.1629	0.11366	0.22478	0.15245	0.16232	0.13096	0.22089	0.12872	0.15181	0.12657	0.051795	0.18468	0.27225	0.19206	0.2563	-3.0875	-3.3104	-3.3292	-3.3063	-3.0104	-3.375	-3.4625	-3.1542	-3.3979	-3.0458	-3.275	-3.4167	-3.3771	-3.3354	-3.3854	-3.1417	149.434	5.926	42.843	203.357	110.518	68.992	-128.901	157.962	181.117	69.901	171.185	62.817	89.702	149.696	65.417	148.611	0.00053159	0.00020734	4.2198e-05	1008.7	1.6408e-06	1.986e-06	1062.5	210.34	3.5036e-06	2.6498e-06	268.14	75.774	59.933	17.312	2.0209e-06	24.906	0.00014423	9.9448e-05	2.6309e-05	987.77	1.1345e-06	1.0239e-06	1050.5	208.53	1.21e-06	1.0683e-06	265.21	75.594	59.213	17.444	1.1219e-06	25.068	97.343	-63.429	-50.839	-138.910	-25.632	4.662	-138.889	-131.759	-27.672	1.603	-131.663	-125.925	-125.911	-117.809	-42.280	-118.454	-8191	255	
1498.577	1	1	0	0	0.092983	0.1469	0.20445	0.24714	0.2042	0.19331	0.18636	0.10631	0.043267	0.068485	0.071983	0.091885	0.2587	0.18048	0.34423	0.078764	-2.9458	-3.1042	-3.2188	-3.4062	-3.1583	-3.3833	-3.4604	-2.9562	-3.4167	-3.2708	-3.4021	-3.4417	-2.9917	-3.075	-3.3708	-3.15	66.360	22.294	125.580	80.990	105.994	-69.800	162.702	6.818	-30.877	-124.516	-139.111	64.783	97.310	-37.278	-59.946	138.402	0.00054097	0.00032573	7.1814e-05	1010.8	2.1702e-06	3.2806e-06	1072.8	211.89	5.932e-06	2.4365e-06	268.32	76.202	59.951	17.411	2.2683e-06	24.763	0.0001484	0.0001019	2.8724e-05	992.19	1.2107e-06	1.1754e-06	1057.2	209.75	1.3055e-06	1.1353e-06	266.33	75.751	59.329	17.458	1.1648e-06	25.026	97.477	-54.946	-77.811	-138.770	-21.778	19.577	-139.023	-131.541	-53.759	-37.222	-131.820	-125.971	-125.930	-118.333	-52.751	-118.199	-8191	255	
1498.671	1	1	0	0	0.13784	0.077929	0.094522	0.18608	0.20469	0.094306	0.24263	0.15301	0.15346	0.18842	0.15322	0.23677	0.11524	0.14739	0.050315	0.11048	-2.9833	-3.1458	-3.0583	-3.4542	-3.0687	-3.2167	-3.6354	-3.2229	-3.5396	-3.3854	-3.0542	-3.5438	-3.0875	-3.2625	-3.4625	-3.15	134.132	68.753	18.831	182.197	6.621	54.571	176.768	-87.361	-30.963	108.082	185.215	152.712	141.973	68.834	147.667	-126.774	0.00052411	0.0002729	4.598e-05	1017.5	2.9053e-06	3.83e-06	1080.6	213.42	4.2842e-06	2.1597e-06	270.54	76.371	59.634	17.491	2.896e-06	24.81	0.00015319	0.00011242	3.2222e-05	999.56	1.3447e-06	1.2567e-06	1060.8	210.51	1.2655e-06	1.1961e-06	267	76.08	59.456	17.538	1.2319e-06	25.127	100.297	-37.260	-51.680	-138.765	-21.824	-9.608	-139.132	-131.613	-62.961	27.697	-131.932	-125.721	-126.087	-118.085	-8.889	-118.347	-8191	255	
1498.792	1	1	0	0	0.14447	0.086947	0.30473	0.27949	0.24721	0.17677	0.087343	0.098556	0.014877	0.16069	0.10061	0.033154	0.26745	0.088878	0.082615	0.20733	-2.8187	-3.3479	-2.8604	-3.5792	-3.1354	-3.2333	-3.7042	-3.0896	-3.3167	-3.2167	-3.2125	-3.5229	-3.0375	-3.0938	-3.5062	-3.2687	-132.820	-91.355	-122.817	-101.952	39.849	112.835	135.860	117.120	42.701	-13.508	156.669	135.574	-24.253	-94.033	-63.155	-33.143	0.00058022	0.00015694	6.8048e-05	1022.4	3.648e-06	2.5509e-06	1080.7	213.97	4.6138e-06	2.9063e-06	269.64	76.632	60.171	17.421	3.1654e-06	24.7	0.00015585	0.00010985	2.9995e-05	1001.5	1.2434e-06	1.1589e-06	1064.4	211.03	1.2714e-06	1.2014e-06	267.24	76.199	59.652	17.478	1.1744e-06	25.085	94.699	-28.268	-70.259	-138.426	-22.792	-16.370	-139.091	-131.731	-15.344	13.459	-132.223	-125.827	-126.097	-117.800	-2.455	-118.510	-8191	255	
1498.888	1	1	0	0	0.052392	0.12958	0.23039	0.17399	0.10277	0.085847	0.063693	0.22218	0.1143	0.21834	0.17753	0.14627	0.077922	0.13169	0.13544	0.19363	-2.8479	-2.9792	-2.9354	-3.4417	-3.4417	-3.0521	-3.425	-3.1229	-3.3354	-3.5312	-3.1708	-3.4	-3.1937	-3.1354	-3.3042	-2.8958	-1.007	162.281	51.855	-57.359	-44.703	111.831	116.931	143.460	126.340	151.440	127.081	141.508	154.227	126.566	78.258	19.157	0.00051087	0.00026034	7.5896e-05	1015.5	2.763e-06	3.1788e-06	1081.2	213.9	7.8838e-06	2.874e-06	271.13	76.565	60.7	17.379	3.3239e-06	24.979	0.00015426	0.0001174	3.1593e-05	1000	1.2527e-06	1.2233e-06	1064.9	211.34	1.4205e-06	1.182e-06	267.62	76.158	59.875	17.517	1.2551e-06	25.188	99.874	-29.855	-68.862	-138.773	-36.107	29.166	-138.908	-131.768	-63.670	22.075	-132.053	-125.989	-125.756	-118.139	-41.514	-118.693	-8191	255	
1498.984	1	1	0	0	0.05245	0.074088	0.034979	0.17093	0.12525	0.096827	0.18916	0.14684	0.21581	0.088207	0.24519	0.22519	0.081229	0.10577	0.064572	0.17389	-2.7729	-3.2271	-2.9417	-3.5167	-3.3167	-3.2083	-3.5521	-3.2167	-3.1979	-3.3875	-3.0396	-3.2812	-3.2479	-3.0812	-3.2583	-3.1771	-38.298	-55.004	-48.944	4.130	138.361	152.188	111.236	112.245	91.867	32.252	98.245	-74.832	126.547	-26.638	152.326	114.088	0.00055205	0.00024827	7.4158e-05	1019.6	3.8499e-06	4.17e-06	1075.7	213.7	6.1225e-06	3.1029e-06	269.52	76.826	59.915	17.609	2.7373e-06	24.809	0.00015684	0.00011017	3.2779e-05	1004.3	1.2958e-06	1.2571e-06	1068	211.47	1.4007e-06	1.22e-06	267.62	76.373	59.683	17.621	1.2166e-06	25.212	98.021	-29.132	-45.480	-139.108	-41.166	-3.535	-139.069	-131.590	-39.432	26.055	-132.073	-126.162	-125.296	-117.656	-14.884	-118.593	-8191	255	
1499.080	1	1	0	0	0.028429	0.08525	0.056913	0.066482	0.067227	0.16414	0.10682	0.097251	0.06257	0.12449	0.030721	0.23153	0.14661	0.11785	0.13149	0.062633	-2.8667	-3.3812	-3.1354	-3.3958	-3.3354	-2.8792	-3.5187	-3.1937	-3.2	-3.1896	-3.4021	-3.4729	-3.5479	-2.9542	-3.3812	-3.0729	-148.666	-26.661	119.272	133.596	162.195	-143.387	-132.029	12.989	52.060	-126.918	182.921	-101.983	-27.184	110.820	207.579	186.187	0.00048679	0.0003307	4.3723e-05	1027.3	2.601e-06	2.1904e-06	1088.6	215.92	5.3503e-06	2.5016e-06	271.52	77.471	60.675	17.694	2.8526e-06	25.19	0.00015743	0.00011634	3.1478e-05	1007	1.2719e-06	1.2794e-06	1071.2	212.35	1.4375e-06	1.1817e-06	268.86	76.69	60.136	17.653	1.1776e-06	25.268	103.466	-56.040	-58.125	-138.701	-36.720	31.828	-138.943	-131.468	-48.346	3.264	-131.736	-125.663	-126.023	-117.949	-14.547	-118.458	-8191	255	
1499.176	1	1	0	0	0.06979	0.23523	0.30725	0.30511	0.33448	0.26947	0.098744	0.18868	0.13118	0.14519	0.03532	0.087692	0.068096	0.20055	0.14192	0.27663	-2.6375	-3.4896	-3.2313	-3.4667	-3.3208	-3.1146	-3.5375	-3.1854	-2.9917	-3.3292	-3.0729	-3.2792	-3.5479	-3.2896	-3.3479	-3.2417	-130.979	36.614	35.893	169.274	-11.137	89.753	-134.976	131.467	12.486	178.584	143.779	-45.028	-72.925	-145.778	153.763	-139.941	0.00055215	0.00019057	8.495e-05	1027.2	1.8003e-06	3.0871e-06	1083.8	214.61	4.7105e-06	1.7519e-06	273.38	76.992	60.741	17.638	3.5456e-06	25.032	0.00016181	0.00010733	3.0739e-05	1008.7	1.3157e-06	1.2408e-06	1070.8	212.06	1.3606e-06	1.221e-06	269.4	76.489	60.019	17.645	1.24e-06	25.258	96.894	-60.295	-48.835	-138.622	-9.239	14.827	-138.890	-131.566	-39.038	-14.760	-132.035	-125.897	-126.246	-118.030	-3.389	-118.405	-8191	255	
1499.272	1	1	0	0	0.29761	0.22156	0.22629	0.11586	0.081331	0.09921	0.20652	0.33641	0.31101	0.22685	0.2192	0.22083	0.17924	0.15395	0.17032	0.089215	-2.8	-3.2812	-3.1583	-3.35	-3.2812	-2.8542	-3.1813	-3.1396	-2.875	-3.3104	-3.0375	-3.1042	-3.3458	-2.8	-3.2979	-3.2333	-136.958	52.229	7.784	39.164	49.280	-36.863	-135.434	138.089	158.535	201.610	-33.525	199.955	126.569	204.372	115.807	-63.980	0.000494	0.00032121	7.2476e-05	1028.5	2.4049e-06	2.7865e-06	1087.2	214.53	5.6817e-06	3.469e-06	272.28	77.291	59.752	17.497	4.4682e-06	25.132	0.00015691	0.00010283	3.172e-05	1008.2	1.2879e-06	1.1881e-06	1072.2	212.02	1.4483e-06	1.1856e-06	269.36	76.638	59.872	17.634	1.2449e-06	25.326	95.437	-83.361	-70.533	-138.933	-36.045	24.435	-138.826	-131.561	-21.497	3.221	-131.885	-125.687	-126.070	-118.296	6.963	-118.811	-8191	255	
1499.369	1	1	0	0	0.1376	0.1591	0.22896	0.11456	0.1037	0.061438	0.088303	0.2331	0.093344	0.22194	0.22797	0.020977	0.12389	0.21805	0.21131	0.16749	-2.6354	-3.3479	-2.9479	-3.2458	-3.3271	-3.0187	-3.3792	-3.3271	-3.2	-3.3854	-3.0958	-3.1125	-3.4292	-3.2062	-3.4188	-3.5563	45.236	-68.333	-125.718	5.906	-17.821	123.035	-134.390	197.504	-18.613	120.179	-114.788	67.931	148.293	99.277	-71.897	209.546	0.00047054	0.00018251	5.7748e-05	1025.5	2.1392e-06	3.1837e-06	1093.1	215.13	4.8226e-06	1.9822e-06	272.07	77.208	61.229	17.744	3.2988e-06	25.296	0.00015889	0.00010792	3.0243e-05	1007.6	1.262e-06	1.2205e-06	1073.2	212.46	1.3869e-06	1.1662e-06	269.25	76.523	60.352	17.65	1.2672e-06	25.366	96.593	-66.046	-76.125	-138.694	-22.236	16.340	-138.836	-131.887	-49.783	-17.289	-131.797	-125.654	-125.738	-118.112	-24.717	-118.473	-8191	255	
1499.489	1	1	0	0	0.20487	0.081644	0.12892	0.26951	0.12227	0.14336	0.18422	0.19373	0.11253	0.13392	0.098298	0.10168	0.071138	0.054235	0.25245	0.29244	-2.5146	-3.3792	-3.2521	-2.9938	-3.2292	-3.0708	-3.4896	-3.4729	-3.1708	-3.4208	-3.3625	-3.3396	-3.4	-3.2604	-3.1896	-3.225	-27.363	-109.466	-97.490	205.805	0.785	-83.583	-21.985	-1.074	-55.826	70.911	-98.879	-26.692	-79.321	169.892	-72.243	177.898	0.00052162	0.00018991	4.7684e-05	1037	3.3909e-06	2.4947e-06	1096.9	215.62	5.2959e-06	2.0312e-06	273.16	77.422	61.382	17.755	2.8339e-06	25.192	0.00015578	0.00010774	3.0207e-05	1010.3	1.226e-06	1.1948e-06	1074	212.35	1.378e-06	1.1176e-06	269.12	76.576	60.116	17.688	1.2736e-06	25.315	98.418	-56.014	-70.344	-138.553	-36.205	-29.201	-138.843	-131.383	-36.892	-27.302	-131.858	-125.874	-126.004	-117.834	-13.073	-118.620	-8191	255	
1499.584	1	1	0	0	0.233	0.24608	0.21917	0.14659	0.29204	0.2688	0.20849	0.30561	0.23699	0.17509	0.1424	0.3187	0.14263	0.19896	0.15459	0.13313	-2.7854	-3.3604	-3.2208	-3.0187	-3.3042	-3.1979	-3.2938	-3.6083	-3.0396	-3.4917	-3.3688	-2.7875	-3.5187	-3.1729	-3.1792	-3.4292	-106.701	181.854	133.076	103.085	181.943	27.548	208.271	-148.499	159.433	-107.828	147.399	123.662	-64.394	177.490	148.284	155.764	0.00054717	0.00033697	5.4368e-05	1035	2.9236e-06	3.2117e-06	1092.2	215.16	7.5243e-06	2.6679e-06	272.84	77.151	61.112	17.527	3.0436e-06	25.004	0.00016165	0.00010807	3.0237e-05	1010.5	1.297e-06	1.2075e-06	1073	212.62	1.3889e-06	1.2389e-06	269.19	76.667	60.148	17.632	1.2546e-06	25.277	98.231	-63.308	-38.277	-138.724	11.791	2.275	-138.821	-131.787	-39.774	-18.365	-131.943	-125.923	-125.405	-117.793	-52.333	-118.227	-8191	255	
1499.680	1	1	0	0	0.10187	0.2002	0.33472	0.11602	0.035807	0.099699	0.038247	0.019718	0.031475	0.28934	0.23509	0.14129	0.047695	0.1759	0.14202	0.20145	-2.5812	-3.175	-3.3438	-3.1146	-3.3708	-3.2562	-3.1063	-3.5542	-3.1646	-3.1208	-3.3438	-3.0312	-3.3854	-3.2917	-3.0979	-3.3708	-52.115	61.709	-48.327	-114.046	183.556	100.891	-57.875	146.574	138.974	-49.373	159.863	158.698	-108.702	106.642	-22.280	-134.506	0.00050672	0.00017572	5.8009e-05	1032.9	3.2109e-06	4.3448e-06	1095.3	215.47	5.1942e-06	3.1431e-06	273.35	77.249	60.607	17.696	2.4265e-06	25.132	0.00014949	0.00010857	2.8621e-05	1009.5	1.2286e-06	1.1922e-06	1074.3	212.74	1.2946e-06	1.1384e-06	269.68	76.597	60.151	17.68	1.2583e-06	25.284	100.352	-74.863	-66.008	-138.633	-13.710	3.257	-138.784	-131.570	-49.286	0.803	-131.988	-125.970	-126.534	-117.757	-28.444	-118.177	-8191	255	
1499.776	1	1	0	0	0.098861	0.18331	0.18723	0.18605	0.049094	0.016738	0.33015	0.26519	0.14061	0.10599	0.20388	0.12591	0.10131	0.096867	0.24396	0.20735	-2.7458	-3.2896	-3.3958	-2.9375	-3.2917	-3.2687	-3.1896	-3.5187	-3.1896	-3.075	-3.3125	-3.2188	-3.375	-3.3042	-3.0812	-3.5021	117.653	6.014	118.364	184.376	44.978	49.352	162.285	124.567	-106.402	205.711	193.063	39.979	207.588	-91.407	83.341	-0.307	0.0004916	0.00022956	4.595e-05	1031.6	2.0795e-06	2.7181e-06	1095.3	217.06	5.0358e-06	2.8014e-06	272.74	77.597	60.892	17.681	5.2063e-06	25.216	0.00015539	0.000108	2.8561e-05	1010	1.1934e-06	1.1548e-06	1075	212.95	1.2857e-06	1.204e-06	268.91	76.864	60.382	17.695	1.2713e-06	25.34	97.186	-67.625	-58.169	-138.406	-54.545	-21.630	-138.935	-131.071	-47.337	1.178	-132.252	-125.650	-125.900	-117.841	-30.164	-118.467	-8191	255	
1499.872	1	1	0	0	0.15366	0.184	0.19789	0.17936	0.078969	0.051075	0.26152	0.24904	0.095068	0.11587	0.1317	0.16378	0.19955	0.25518	0.20074	0.29562	-2.8688	-3.0604	-3.1021	-3.1063	-3.4458	-3.3125	-2.9667	-3.2396	-3.1292	-3.2396	-3.5687	-2.9646	-3.2375	-3.2667	-3.0917	-3.4062	-38.597	-65.400	21.944	200.297	-146.856	-138.520	125.164	130.510	118.814	-41.832	106.246	45.822	-66.499	11.776	80.811	49.664	0.00052249	0.00033655	7.5199e-05	1036.6	1.471e-06	3.674e-06	1089.1	215.16	5.0269e-06	2.6155e-06	273.6	76.97	60.575	17.711	4.3197e-06	25.204	0.00015806	0.00011699	2.9904e-05	1011.3	1.2585e-06	1.197e-06	1074.2	212.89	1.2828e-06	1.1406e-06	269.82	76.776	60.126	17.712	1.2298e-06	25.375	98.416	-51.959	-58.236	-138.891	-17.552	12.888	-139.023	-131.900	-52.432	12.480	-131.921	-125.867	-125.958	-118.269	-8.195	-118.362	-8191	255	
1499.968	1	1	0	0	0.16939	0.092322	0.15192	0.18306	0.13335	0.099544	0.12647	0.37234	0.17006	0.28252	0.10829	0.26585	0.22754	0.043355	0.22752	0.19697	-2.7042	-3.2292	-3.5	-3.2396	-3.0833	-3.2604	-3.1771	-3.3438	-3.1771	-3.0583	-3.3688	-3.0938	-3.3521	-3.375	-3.1521	-3.1604	204.338	-67.233	43.145	188.536	-131.434	62.420	94.921	93.477	81.532	107.486	-126.140	-21.071	165.678	-33.546	44.816	-17.354	0.0005361	0.00030433	6.6701e-05	1030.9	2.6737e-06	2.7984e-06	1095	215.96	7.8926e-06	2.4832e-06	272.35	77.638	60.494	17.733	2.3969e-06	25.281	0.00016124	0.00011448	2.9686e-05	1009.8	1.2981e-06	1.1802e-06	1075.7	212.33	1.3216e-06	1.1655e-06	269.51	76.804	60.194	17.718	1.1873e-06	25.371	93.233	-83.860	-71.061	-138.805	-32.839	-20.875	-139.060	-131.618	-63.580	6.993	-131.883	-125.876	-125.910	-117.753	-9.462	-118.015	-8191	255	
1500.089	1	1	0	0	0.22693	0.31257	0.1964	0.1999	0.13101	0.12456	0.15162	0.11124	0.078895	0.16883	0.080039	0.38122	0.19185	0.22409	0.28787	0.041026	-2.6792	-3.1271	-3.4938	-3.1104	-3.0583	-3.4771	-3.1937	-3.3187	-3.2687	-3.2104	-3.4333	-2.9792	-2.9042	-3.2625	-3.1667	-3.2229	55.385	207.801	144.475	152.987	20.078	-73.709	54.524	110.737	-29.914	86.680	199.602	-125.951	153.897	-64.677	-8.721	-123.146	0.00054221	0.00035514	5.2296e-05	1033.3	2.8859e-06	3.6351e-06	1093.1	215.97	4.614e-06	2.6356e-06	273.71	77.157	61.145	17.676	2.2195e-06	25.214	0.00016394	0.00011073	2.8869e-05	1009.7	1.2793e-06	1.1649e-06	1073.7	213.1	1.2723e-06	1.159e-06	269.71	76.79	60.446	17.746	1.1915e-06	25.415	97.696	-63.404	-72.753	-138.604	-19.205	5.886	-138.907	-131.646	-57.795	5.195	-131.886	-125.885	-125.886	-118.133	-26.838	-118.273	-8191	255	
1500.185	1	1	0	0	0.14549	0.15195	0.12418	0.06768	0.24239	0.26797	0.28223	0.098231	0.091934	0.14064	0.12183	0.068248	0.22596	0.25161	0.019499	0.080928	-2.7917	-2.9437	-3.4313	-3.3833	-3.1708	-3.3896	-3.1958	-3.3583	-3.3708	-3.2083	-3.4708	-3.2146	-2.9292	-3.3854	-2.925	-3.0687	43.714	-136.790	-4.923	49.068	118.859	123.835	28.877	165.602	163.795	130.116	-143.462	196.641	168.235	191.341	71.616	-138.449	0.00054484	0.00030254	6.0121e-05	1029	1.9371e-06	2.9044e-06	1088.4	216.56	5.3801e-06	3.9937e-06	272.83	77.104	61.443	17.702	3.8242e-06	25.275	0.00015665	0.00011121	2.9323e-05	1009.8	1.2397e-06	1.179e-06	1073.8	213.26	1.3438e-06	1.1999e-06	269.91	76.787	60.426	17.721	1.202e-06	25.391	100.051	-20.377	-20.593	-138.716	-0.773	7.575	-138.884	-131.811	-50.521	-11.835	-131.645	-125.782	-125.684	-117.757	14.377	-118.586	-8191	255	
1500.281	1	1	0	0	0.20889	0.12332	0.26691	0.21271	0.20913	0.038022	0.18626	0.22941	0.088478	0.059767	0.053681	0.15147	0.080136	0.18025	0.11026	0.10817	-2.8396	-3.1458	-3.3083	-3.3812	-2.9979	-3.5333	-3.3708	-3.2542	-3.2042	-3.1375	-3.7979	-3.2313	-2.8646	-3.425	-3.1271	-3.3833	-67.279	105.813	31.550	165.369	164.356	163.670	127.062	139.469	-31.301	-11.158	-62.746	-43.364	151.126	176.922	95.195	53.589	0.00050311	0.00024983	6.498e-05	1032.4	3.0604e-06	2.432e-06	1089.6	216.15	6.6612e-06	3.3022e-06	273.67	77.434	61.178	17.693	5.2074e-06	25.145	0.00015223	0.00010907	2.8936e-05	1012.4	1.2884e-06	1.1375e-06	1074.8	213.2	1.3175e-06	1.1171e-06	269.93	76.86	60.52	17.797	1.2138e-06	25.406	96.014	-82.207	-62.456	-138.728	-41.432	33.468	-138.720	-131.540	-49.715	0.077	-131.828	-125.581	-125.806	-118.045	-1.453	-118.676	-8191	255	
1500.353	1	1	0	0	0.093897	0.24165	0.22087	0.06077	0.39291	0.2527	0.054257	0.12538	0.22317	0.22222	0.22741	0.099643	0.083378	0.21262	0.19396	0.3161	-3.0438	-2.975	-3.175	-3.3229	-3.0542	-3.4667	-3.2708	-2.9979	-3.3167	-3.2458	-3.3708	-3.2333	-3.1083	-3.5208	-3.1813	-3.2104	182.147	12.460	-44.559	115.147	-121.270	-102.161	13.803	209.582	-49.073	167.078	-143.464	-80.957	166.707	-86.450	154.540	-4.916	0.00051269	0.00028397	9.3695e-05	1035.4	3.1521e-06	4.1569e-06	1090.4	216.03	5.6139e-06	2.678e-06	273.44	77.023	61.114	17.694	3.003e-06	25.278	0.00015232	0.00010185	3.0903e-05	1010.4	1.2793e-06	1.1104e-06	1075.3	213.01	1.2388e-06	1.1162e-06	270.09	76.837	60.276	17.702	1.1753e-06	25.455	94.668	-60.172	-75.058	-138.864	-14.052	14.329	-138.986	-131.584	-44.794	17.347	-132.050	-126.126	-126.003	-117.491	-7.071	-118.694	-8191	255	
1500.473	1	1	0	0	0.098614	0.082479	0.2653	0.17478	0.17721	0.087794	0.14795	0.046824	0.13843	0.028955	0.2816	0.11162	0.1196	0.12794	0.08207	0.049591	-3.2792	-2.9979	-3.1667	-3.475	-3.2062	-3.3375	-3.2979	-3.2375	-3.5062	-3.1771	-3.3042	-3.5271	-3.0667	-3.4688	-3.4437	-3.1146	56.724	-122.486	-49.625	-3.316	-48.401	-24.213	172.255	-141.771	-83.910	-48.483	204.599	55.970	160.336	-37.226	140.949	152.965	0.00048801	0.00035882	3.1719e-05	1032.9	8.3425e-07	3.8611e-06	1096.2	215.91	7.647e-06	2.4647e-06	274.8	77.559	61.384	17.739	3.0435e-06	25.264	0.00015068	0.0001054	3.0219e-05	1012.2	1.2205e-06	1.1104e-06	1076.7	213.04	1.3193e-06	1.1535e-06	270.06	76.913	60.482	17.767	1.1795e-06	25.448	101.341	-61.640	-48.229	-138.540	-32.500	-3.261	-138.868	-131.694	-61.378	-18.004	-131.862	-125.924	-125.979	-118.208	-39.568	-118.375	-8191	255	
1500.570	1	1	0	0	0.09662	0.08084	0.23819	0.09462	0.173	0.13563	0.23182	0.10236	0.10327	0.12581	0.15848	0.25051	0.083258	0.24092	0.093462	0.27769	-2.9917	-3.3375	-2.9917	-3.3354	-3.2562	-3.3146	-3.4104	-3.4479	-3.5021	-3.2625	-3.2521	-3.4771	-3.1792	-3.4604	-3.475	-3.1688	148.737	68.277	192.628	170.469	59.907	45.255	47.371	-107.562	-33.433	204.184	106.790	154.445	24.762	208.792	159.429	102.504	0.00052786	0.00024377	7.7473e-05	1029.4	1.524e-06	1.3383e-06	1089.9	215.95	6.2931e-06	3.162e-06	274.12	76.947	61.735	17.678	3.677e-06	25.113	0.00014743	0.0001066	2.8984e-05	1010.6	1.2703e-06	1.0798e-06	1073.4	213.08	1.254e-06	1.103e-06	269.92	76.691	60.513	17.715	1.0936e-06	25.418	96.834	-57.307	-49.013	-138.795	-10.220	-50.688	-138.851	-131.493	-41.653	1.164	-131.978	-125.888	-125.755	-118.125	-13.416	-118.278	-8191	255	
1500.664	1	1	0	0	0.12031	0.2325	0.088316	0.15998	0.16049	0.28858	0.37475	0.184	0.15978	0.081198	0.075141	0.13505	0.047935	0.03912	0.16768	0.27789	-3.2083	-3.2167	-3.1958	-3.4708	-2.975	-3.2938	-3.4667	-3.0438	-3.3542	-3.4292	-3.2125	-3.4396	-3.0812	-3.2854	-3.4562	-3.1146	86.869	-94.402	5.129	-131.967	72.565	18.616	144.872	188.598	101.543	200.031	79.795	191.150	74.645	148.503	-3.695	174.837	0.00050197	0.00034163	7.7303e-05	1026.3	2.2182e-06	4.1661e-06	1090.4	216.04	3.9025e-06	2.3217e-06	274.62	77.034	60.73	17.687	3.003e-06	25.263	0.00015354	0.0001067	3.0031e-05	1009.2	1.1746e-06	1.1167e-06	1074.8	212.94	1.2565e-06	1.1628e-06	270.23	76.917	60.239	17.777	1.1184e-06	25.401	92.497	-74.293	-72.081	-138.646	-35.307	5.105	-138.899	-131.576	-37.317	-18.593	-132.008	-125.598	-126.100	-117.657	-4.511	-118.205	-8191	255	
1500.760	1	1	0	0	0.097686	0.033976	0.27198	0.22019	0.23993	0.13246	0.32185	0.23012	0.27105	0.26449	0.17979	0.18248	0.2283	0.089991	0.015251	0.23613	-2.8563	-3.1271	-3.2625	-3.4583	-3.1458	-3.25	-3.7021	-3.2062	-3.1979	-3.1417	-3.1458	-3.6542	-3.3688	-3.2375	-3.4042	-3.1021	159.391	-40.736	27.523	-112.225	-88.074	163.588	195.046	167.104	165.470	-66.714	100.318	178.122	126.007	-53.979	208.155	184.688	0.0005219	0.00036524	8.9818e-05	1037.4	3.5715e-06	3.9719e-06	1091.1	215.87	6.3439e-06	3.5484e-06	272.76	77.059	60.906	17.667	2.3117e-06	25.278	0.00014935	0.00010488	3.1544e-05	1012.8	1.2668e-06	1.1785e-06	1074.9	213.53	1.3218e-06	1.2248e-06	269.73	76.998	60.352	17.749	1.2075e-06	25.481	92.507	-67.302	-37.168	-138.681	-36.783	16.906	-138.681	-131.770	-53.238	-9.741	-132.046	-125.538	-125.971	-118.055	1.272	-118.711	-8191	255	
1500.881	1	1	0	0	0.26388	0.051176	0.081986	0.1218	0.16154	0.19663	0.26631	0.16214	0.099345	0.03775	0.17272	0.21148	0.25037	0.059234	0.1365	0.10792	-3.1104	-3.4583	-3.1437	-3.3479	-3.1708	-3.2958	-3.6063	-3.1188	-3.2896	-3.3937	-3.1167	-3.3458	-3.0771	-3.2646	-3.4896	-3.1333	-101.892	202.888	-2.509	-112.443	208.835	159.737	131.013	-95.977	14.196	-41.183	-66.109	161.983	-58.335	33.582	-89.128	163.490	0.00047425	0.00019787	4.2128e-05	1031.9	2.859e-06	3.7029e-06	1090.7	215.89	5.7501e-06	4.0724e-06	274.6	77.086	60.772	17.638	2.0232e-06	25.267	0.00015091	0.00010826	3.0491e-05	1010.2	1.2277e-06	1.2185e-06	1075	213.21	1.3302e-06	1.1458e-06	270.23	77.029	60.34	17.726	1.1936e-06	25.466	97.602	-94.121	-90.423	-138.610	-17.103	3.404	-138.711	-131.867	-29.297	5.251	-131.743	-125.662	-126.247	-118.080	-38.667	-118.615	-8191	255	
1500.977	1	1	0	0	0.36394	0.14244	0.36647	0.22167	0.12877	0.040927	0.069309	0.10676	0.17321	0.013676	0.13891	0.078673	0.12933	0.044632	0.19703	0.18898	-2.7167	-3.5021	-3.0854	-3.3479	-3.1646	-3.0812	-3.5958	-3.4583	-3.3042	-3.2646	-2.9354	-3.4771	-3.2854	-2.9062	-3.4542	-3.3229	109.841	55.101	-84.796	179.475	-101.132	122.177	71.113	-44.908	174.959	71.097	82.504	134.227	136.184	-106.350	145.056	140.211	0.00048275	0.00020884	8.1481e-05	1034.2	1.462e-06	3.0959e-06	1093	215.75	7.3295e-06	2.1448e-06	274.1	77.695	61.118	17.754	3.0615e-06	25.404	0.00016008	0.00010796	3.0673e-05	1012.9	1.312e-06	1.1627e-06	1077.7	213.15	1.3851e-06	1.2227e-06	270.61	77.136	60.552	17.807	1.2815e-06	25.559	99.325	-55.147	-59.108	-138.643	-13.905	16.698	-138.723	-131.642	-54.146	13.660	-132.079	-125.881	-126.238	-118.217	8.949	-118.761	-8191	255	
1501.049	1	1	0	0	0.14491	0.14908	0.13074	0.068195	0.097438	0.031331	0.15561	0.10605	0.064796	0.12893	0.19346	0.18705	0.1479	0.036116	0.18022	0.12242	-2.9292	-3.4625	-2.9979	-3.2438	-3.2625	-3.1667	-3.4542	-3.1146	-3.5	-3.5438	-3.1813	-3.2958	-3.4771	-3.0729	-3.5042	-3.375	-13.168	-67.382	-53.035	186.610	-24.701	89.615	116.263	-146.499	-141.529	119.001	163.350	69.552	59.431	161.687	130.754	84.975	0.0005705	0.00022693	6.2389e-05	1041.5	1.3905e-06	3.8113e-06	1096	215.84	5.05e-06	3.5607e-06	273.6	77.776	61.482	17.773	2.6132e-06	25.275	0.00016507	0.00011377	3.2464e-05	1017.1	1.2851e-06	1.2869e-06	1079.6	213.8	1.373e-06	1.3095e-06	270.02	77.184	60.574	17.87	1.263e-06	25.471	101.898	-87.730	-48.465	-138.628	1.990	33.900	-139.033	-131.798	-30.572	40.095	-132.126	-126.025	-126.014	-118.516	-21.798	-118.308	-8191	255	
1501.169	1	1	0	0	0.1385	0.12564	0.21729	0.13189	0.071982	0.17624	0.26334	0.11623	0.062693	0.23826	0.096991	0.2029	0.19098	0.12141	0.24237	0.11061	-2.6625	-3.4708	-3.2292	-3.2812	-3.2854	-3.1875	-3.5458	-3.4792	-3.075	-3.4042	-3.1813	-3.325	-3.4	-2.9083	-3.5438	-3.4125	-144.920	25.652	108.491	151.031	144.700	27.090	167.456	113.828	-39.220	-18.711	82.420	-70.703	187.533	177.971	-19.644	-76.112	0.00053806	0.0001916	8.0361e-05	1038.4	2.9872e-06	2.2126e-06	1092.8	216.61	5.3446e-06	1.6646e-06	272.86	77.916	61.19	17.682	2.9383e-06	25.241	0.00016041	0.00011086	3.1272e-05	1016	1.2219e-06	1.2382e-06	1078.4	214.14	1.3844e-06	1.1087e-06	271.04	77.345	60.55	17.817	1.2317e-06	25.509	97.639	-74.715	-57.525	-138.660	-31.034	-3.651	-139.072	-131.607	-63.400	-17.239	-132.354	-125.864	-126.108	-117.978	-42.816	-118.929	-8191	255	
1501.265	1	1	0	0	0.074842	0.082911	0.11639	0.15929	0.23204	0.25294	0.17192	0.06805	0.063564	0.099129	0.14183	0.18112	0.098683	0.1702	0.25448	0.12288	-2.7167	-3.3937	-3.1271	-3.3667	-3.35	-3.2375	-3.55	-3.4646	-3.0438	-3.5125	-3.2521	-3.3021	-3.3667	-3.2125	-3.3875	-3.4125	-67.000	-82.396	-50.713	152.173	119.135	167.582	159.602	-113.286	-41.033	-37.693	-59.482	-136.208	196.949	155.682	-40.162	7.245	0.00050862	0.00027743	0.00011643	1039.4	2.7902e-06	3.9874e-06	1095.9	216.58	5.096e-06	2.8741e-06	275.29	77.413	61.372	17.744	2.4566e-06	25.223	0.00016345	0.00010556	3.3614e-05	1016.3	1.2893e-06	1.202e-06	1079.7	214.08	1.3474e-06	1.2251e-06	271.44	77.328	60.706	17.841	1.2435e-06	25.618	103.150	-41.233	-75.125	-138.738	-11.567	-9.521	-138.880	-131.746	-39.676	20.870	-131.884	-125.971	-126.273	-118.098	-8.494	-118.709	-8191	255	
1501.361	1	1	0	0	0.062823	0.25987	0.21362	0.061905	0.24534	0.17839	0.24059	0.26526	0.085488	0.25895	0.23909	0.1852	0.048308	0.22597	0.15311	0.1494	-2.7812	-3.3458	-3.1104	-3.1167	-3.5625	-3.2	-3.4437	-3.325	-3.0792	-3.3354	-3.4062	-3.1708	-3.4313	-3.0187	-3.2458	-3.3937	94.846	189.728	95.366	115.475	-29.778	-112.322	190.831	-129.864	182.272	-53.947	-85.718	74.665	-58.371	158.491	-134.629	130.426	0.00052481	0.0003241	7.829e-05	1040.2	2.6904e-06	3.5123e-06	1095.2	216.24	4.7171e-06	1.5713e-06	274.47	77.5	61.08	17.734	3.1021e-06	25.439	0.00016334	0.0001098	3.1375e-05	1017.6	1.2527e-06	1.2286e-06	1080.9	214.35	1.3878e-06	1.1576e-06	272.09	77.268	60.914	17.87	1.2999e-06	25.677	97.403	-64.418	-50.993	-138.846	1.841	15.120	-139.016	-131.929	-34.451	4.069	-131.823	-125.896	-126.317	-118.014	1.940	-118.814	-8191	255	
1501.458	1	1	0	0	0.12677	0.061725	0.037737	0.13529	0.13298	0.35779	0.22487	0.21597	0.17427	0.0072719	0.021028	0.14204	0.31829	0.11699	0.074723	0.12661	-2.7875	-3.3646	-3.2875	-3.3812	-3.3854	-3.2438	-3.5958	-3.4313	-3.025	-3.3438	-3.3812	-3.1083	-3.3625	-3.2583	-3.0854	-3.2146	-77.523	-55.578	-52.848	130.198	-14.331	69.966	124.592	111.773	-89.846	-49.685	116.668	-75.205	-131.410	-80.256	208.201	134.498	0.00052996	0.00041355	9.1647e-05	1040.8	1.8284e-06	4.0613e-06	1098.9	216.77	6.6461e-06	4.0377e-06	275.05	77.311	61.345	17.879	3.3352e-06	25.437	0.00016083	0.00010965	3.2022e-05	1018	1.2156e-06	1.1613e-06	1083	214.51	1.3243e-06	1.108e-06	271.71	77.316	60.754	17.889	1.2238e-06	25.635	100.254	-69.900	-67.304	-138.848	-20.023	-1.770	-138.883	-131.790	-52.899	14.778	-132.060	-125.671	-126.189	-118.016	-32.708	-118.596	-8191	255	
1501.578	1	1	0	0	0.21103	0.13847	0.19689	0.1075	0.23351	0.25198	0.37199	0.12493	0.19761	0.11072	0.10643	0.26235	0.17732	0.10417	0.19335	0.20927	-2.7438	-3.3792	-3.4667	-3.0771	-3.3438	-2.9333	-3.3833	-3.5208	-3.0812	-3.2021	-3.4208	-3.0792	-3.5854	-3.1354	-3.1479	-3.3646	199.713	43.100	20.036	33.033	114.087	14.404	194.782	-59.855	49.549	152.168	90.620	-26.196	-39.850	-108.222	53.250	-50.525	0.00051118	0.00035779	6.7575e-05	1040.1	3.2621e-06	3.2708e-06	1095.9	217.09	6.5579e-06	2.434e-06	274.6	77.775	61.273	17.89	2.7543e-06	25.525	0.00015621	0.00010911	2.9668e-05	1018.1	1.2814e-06	1.1433e-06	1079.8	214.82	1.2816e-06	1.143e-06	271.64	77.492	60.777	17.914	1.2089e-06	25.633	100.801	-45.480	-81.402	-138.698	-26.965	0.546	-139.017	-131.770	-49.888	-17.443	-132.237	-126.420	-125.724	-117.958	-22.605	-118.751	-8191	255	
1501.650	1	1	0	0	0.13	0.24785	0.19547	0.22526	0.15094	0.080675	0.16847	0.02412	0.2177	0.32637	0.14095	0.19037	0.076134	0.1735	0.21132	0.23741	-2.9375	-3.2354	-3.2562	-3.0187	-3.4875	-3.0563	-3.15	-3.4188	-3.1542	-3.1771	-3.4354	-3.3688	-3.3521	-3.2021	-2.9792	-3.4042	-45.398	149.885	29.706	181.661	147.016	187.814	156.848	-70.924	191.611	146.666	187.151	100.069	-12.639	149.632	50.438	75.959	0.000535	0.00027501	8.5639e-05	1035.1	3.7393e-06	4.4932e-06	1098.3	218.03	5.3794e-06	2.8743e-06	275.29	77.887	61.605	17.816	3.8956e-06	25.473	0.00015059	0.0001103	2.9868e-05	1018.2	1.2337e-06	1.1706e-06	1081.5	215.01	1.3935e-06	1.2004e-06	271.44	77.594	60.936	17.89	1.2474e-06	25.704	96.792	-73.999	-62.267	-138.850	-41.944	30.793	-139.110	-131.903	-54.924	12.396	-131.974	-125.554	-126.066	-117.909	-19.944	-118.692	-8191	255	
1501.769	1	1	0	0	0.075092	0.37636	0.1246	0.027352	0.047831	0.044216	0.12967	0.18747	0.058176	0.19178	0.15484	0.1935	0.053386	0.34849	0.069294	0.044308	-2.875	-3.4083	-3.3187	-3.2188	-3.5	-3.3771	-3.2208	-3.4146	-3.1104	-3.1729	-3.3083	-3.1083	-3.4521	-3.4167	-3.1979	-3.3958	157.267	-114.791	136.347	-103.961	25.511	116.089	38.179	135.347	100.578	110.869	104.727	132.220	-20.802	132.977	19.778	6.138	0.00049709	0.00038277	6.6813e-05	1036.8	4.0547e-06	4.4018e-06	1096.2	217.08	5.7172e-06	1.7229e-06	275.73	77.51	61.492	17.78	2.0195e-06	25.5	0.00016098	0.00010742	3.054e-05	1014.9	1.2786e-06	1.1692e-06	1082	214.77	1.395e-06	1.1825e-06	271.99	77.404	60.789	17.915	1.2556e-06	25.679	95.275	-63.346	-52.963	-138.428	-25.077	6.235	-138.528	-131.718	-45.158	-3.848	-132.025	-126.064	-125.852	-118.172	-3.362	-118.746	-8191	255	
1501.865	1	1	0	0	0.089108	0.25845	0.023954	0.3055	0.12483	0.25702	0.10118	0.19461	0.090523	0.23985	0.10859	0.12932	0.10541	0.073154	0.16263	0.14432	-2.7104	-3.05	-3.4021	-3.2104	-3.3417	-3.2542	-3.3229	-3.4896	-3.2875	-3.2812	-3.6083	-2.9875	-3.2042	-3.1479	-3.1583	-3.35	-119.535	206.069	-78.186	140.606	72.973	128.043	74.590	195.735	103.388	88.541	-136.157	170.017	-65.144	128.624	156.133	-114.183	0.00054026	0.00025524	5.384e-05	1039.5	2.2396e-06	3.6456e-06	1098.3	218.26	7.1329e-06	3.519e-06	275.62	77.69	61.625	17.782	4.0691e-06	25.316	0.00016032	0.00011634	2.9202e-05	1016.4	1.2376e-06	1.2051e-06	1080.5	215.06	1.3368e-06	1.1978e-06	271.62	77.475	60.909	17.911	1.2395e-06	25.62	97.101	-55.147	-58.124	-138.730	-0.050	-6.881	-138.754	-131.863	-38.187	34.467	-132.292	-125.955	-126.329	-117.633	-36.517	-118.422	-8191	255	
1501.961	1	1	0	0	0.1485	0.12965	0.18788	0.17977	0.3062	0.29657	0.23485	0.12122	0.083754	0.066794	0.10174	0.20944	0.13689	0.30499	0.19356	0.27876	-2.95	-3.2313	-3.35	-3.1146	-3.125	-3.4313	-3.2375	-3.4375	-3.2792	-3.2812	-3.475	-3.1562	-3.25	-3.3292	-3.0833	-3.5625	-41.520	-42.636	192.488	-136.295	-92.738	40.872	-140.730	97.452	70.957	95.771	82.563	-136.051	19.751	-116.154	144.791	-42.763	0.00050508	0.00025387	7.0641e-05	1036.4	3.2118e-06	3.453e-06	1089.1	217.28	7.5885e-06	3.3733e-06	273.62	77.59	61.11	17.769	2.5702e-06	25.516	0.00015705	0.00011065	2.9886e-05	1015.3	1.2189e-06	1.1251e-06	1077.7	214.89	1.2572e-06	1.1743e-06	271.11	77.52	60.816	17.891	1.2678e-06	25.622	98.153	-84.259	-72.076	-138.990	-12.199	10.176	-138.877	-131.525	-43.687	-14.799	-132.060	-126.297	-126.053	-117.820	24.758	-118.902	-8191	255	
1502.057	1	1	0	0	0.075434	0.09712	0.12725	0.28945	0.21064	0.16979	0.22275	0.16612	0.099493	0.41728	0.22732	0.12363	0.23009	0.1925	0.31471	0.043985	-2.9542	-3.0979	-3.5625	-3.225	-3.2125	-3.2792	-3.1896	-3.5167	-3.4688	-3.0187	-3.3937	-3.2146	-3.0625	-3.3937	-3.0708	-3.4604	48.796	-46.650	120.053	-50.638	76.008	-84.781	179.671	30.663	73.662	56.662	-110.363	171.675	-45.331	189.607	-34.794	-121.455	0.00049214	0.0001702	7.9102e-05	1038.7	3.4539e-06	2.3461e-06	1090.2	217.65	5.0986e-06	2.9468e-06	274.31	77.432	61.688	17.815	3.5698e-06	25.535	0.00015905	0.00011099	2.9051e-05	1016.2	1.3104e-06	1.1661e-06	1077.9	214.92	1.2821e-06	1.1899e-06	271.15	77.494	60.945	17.881	1.2117e-06	25.674	96.349	-47.937	-79.074	-138.902	-45.935	-12.158	-139.045	-131.443	-41.472	-16.676	-131.944	-125.809	-125.681	-117.974	-14.385	-118.151	-8191	255	
1502.153	1	1	0	0	0.082292	0.18267	0.18512	0.21441	0.25711	0.12572	0.041787	0.19265	0.21655	0.07941	0.13798	0.25653	0.056621	0.14953	0.2331	0.19375	-3.0542	-3.0896	-3.3521	-3.3312	-3.1125	-3.3563	-3.3042	-3.4458	-3.2354	-3.1208	-3.4771	-3.4667	-3.0875	-3.2042	-3.0187	-3.3604	110.892	-87.006	-123.394	146.641	102.385	202.941	178.427	209.177	-57.660	-18.570	178.233	194.725	120.800	164.503	198.581	79.899	0.00054985	0.00032803	0.00011122	1038.3	3.3557e-06	2.2235e-06	1092.8	216.41	5.6318e-06	3.4893e-06	274.55	77.354	61.352	17.651	2.904e-06	25.318	0.0001529	0.00010718	2.9698e-05	1014.5	1.2425e-06	1.0474e-06	1077	214.19	1.1889e-06	1.1169e-06	270.69	77.219	60.654	17.859	1.259e-06	25.544	97.242	-70.413	-61.711	-138.675	-24.101	-28.769	-138.737	-131.794	-45.599	12.529	-131.931	-126.119	-126.379	-117.589	-3.464	-118.835	-8191	255	
1502.274	1	1	0	0	0.013595	0.22165	0.21296	0.26294	0.16684	0.18413	0.048493	0.12552	0.24407	0.041593	0.17534	0.25315	0.057242	0.070564	0.23771	0.17806	-3.0542	-2.7062	-3.4646	-3.2188	-3.0938	-3.4562	-3.1937	-3.3125	-3.5458	-3.0521	-3.3604	-3.2188	-3.2146	-3.3187	-3.2833	-3.0833	100.505	132.354	125.364	175.469	92.491	143.347	175.306	193.580	-115.078	182.263	76.447	-144.218	-72.124	-66.427	-69.159	-72.210	0.00050961	0.00021806	7.1655e-05	1033.9	2.591e-06	2.1824e-06	1090.6	217.14	4.9496e-06	3.7409e-06	273.45	77.635	60.989	17.754	2.0846e-06	25.389	0.00015205	0.00010705	2.8718e-05	1012.3	1.2464e-06	1.0997e-06	1075.1	214.34	1.2982e-06	1.1561e-06	270.79	77.402	60.725	17.893	1.2115e-06	25.643	101.133	-53.251	-74.252	-138.660	-42.651	-8.866	-138.953	-131.822	-57.593	-0.584	-131.906	-125.508	-126.298	-118.199	-43.434	-119.016	-8191	255	
1502.346	1	1	0	0	0.21772	0.17879	0.25549	0.3266	0.15025	0.022242	0.24055	0.21745	0.15042	0.074129	0.1316	0.18715	0.17352	0.10908	0.19831	0.31517	-3.075	-3.0604	-3.3417	-3.25	-3.0333	-3.4729	-3.4146	-3.0917	-3.2729	-3.0042	-3.3625	-3.3438	-2.9562	-3.2146	-3.3604	-3.2667	132.481	175.861	207.090	-84.547	117.117	38.407	125.167	205.971	13.515	172.331	-136.759	45.538	177.026	109.904	45.483	-99.464	0.00048127	0.00035469	6.3193e-05	1040.2	1.2267e-06	2.0806e-06	1093.9	217.32	2.9152e-06	2.0537e-06	272.43	77.676	61.08	17.836	2.7702e-06	25.425	0.00015273	0.00010961	2.8766e-05	1014.4	1.1653e-06	1.0994e-06	1077	214.25	1.2948e-06	1.1336e-06	270.48	77.394	60.717	17.918	1.1588e-06	25.679	100.208	-54.214	-79.776	-138.982	-33.464	11.833	-139.003	-131.671	-54.511	-27.540	-131.978	-126.007	-126.163	-118.166	-30.747	-118.692	-8191	255	
1502.442	1	1	0	0	0.26673	0.06176	0.10498	0.21848	0.12634	0.23486	0.17668	0.24215	0.17733	0.25882	0.20747	0.15999	0.1079	0.15487	0.065109	0.36854	-2.9833	-3.3396	-3.1875	-3.2562	-3.0833	-3.1688	-3.4083	-3.2604	-3.4729	-2.8812	-3.3354	-3.5521	-3.025	-3.2479	-3.35	-3.1792	150.126	166.348	-5.288	-96.473	162.818	94.210	96.317	-137.473	73.559	-6.796	143.833	75.225	190.124	186.701	28.969	191.824	0.00052965	0.00018118	6.1944e-05	1030.4	3.1433e-06	2.201e-06	1085.6	216.88	5.2061e-06	2.6009e-06	274.64	76.85	61.238	17.691	3.9996e-06	25.445	0.00015096	0.00010138	2.7622e-05	1010.3	1.1832e-06	1.0455e-06	1074.8	214.55	1.2279e-06	1.1401e-06	271.07	77.138	60.666	17.887	1.2117e-06	25.727	96.813	-73.058	-59.624	-138.586	-29.193	-9.257	-139.245	-131.679	-34.396	18.296	-132.037	-125.829	-125.475	-118.277	-3.321	-118.333	-8191	255	
1502.538	1	1	0	0	0.13385	0.18147	0.11478	0.10154	0.33562	0.077928	0.23983	0.086883	0.016333	0.26082	0.16134	0.078045	0.12035	0.38533	0.034984	0.16812	-2.9896	-3.0292	-3.1104	-3.6021	-3.1688	-3.4458	-3.3354	-3.0958	-3.4354	-3.0479	-3.2479	-3.4979	-3.1042	-3.3354	-3.2125	-2.9	99.792	195.739	122.831	30.695	-100.867	87.275	108.424	184.521	45.091	134.415	-126.192	-2.645	-121.264	154.064	-26.055	182.343	0.00055018	0.00014825	6.1442e-05	1036	1.2986e-06	4.9501e-06	1083.1	216.65	4.4204e-06	1.9607e-06	271.25	77.713	61.439	17.896	1.5108e-06	25.564	0.00014866	0.00010605	2.8385e-05	1012.7	1.2235e-06	1.1404e-06	1073.3	213.8	1.2687e-06	1.0745e-06	270.2	77.316	60.655	17.976	1.1906e-06	25.766	96.068	-32.290	-46.050	-138.771	-79.291	-14.740	-138.938	-131.741	-43.276	19.337	-131.988	-125.626	-126.363	-118.109	-5.929	-118.819	-8191	255	
1502.657	1	1	0	0	0.072538	0.19902	0.18362	0.17719	0.032276	0.17257	0.31982	0.17289	0.14949	0.094265	0.11965	0.079887	0.24694	0.096971	0.15044	0.21271	-3.0458	-3.3187	-3.2729	-3.4458	-3.0479	-3.1458	-3.425	-3.3271	-3.4771	-3.1083	-3.1708	-3.4188	-3.125	-3.2854	-3.525	-3.15	-11.653	85.064	50.615	160.903	165.809	10.986	138.317	140.924	-65.309	39.834	-147.156	145.884	125.662	69.262	-126.995	-23.845	0.0005151	0.00035524	7.5296e-05	1026.5	2.2364e-06	4.0378e-06	1092.9	218.18	3.8289e-06	3.2389e-06	274.88	78.243	61.051	17.974	2.6195e-06	25.637	0.00014895	0.00010601	2.9111e-05	1011.1	1.1885e-06	1.1546e-06	1074.9	214.43	1.2322e-06	1.1018e-06	270.86	77.489	60.65	17.942	1.079e-06	25.707	101.902	-48.987	-88.570	-138.540	-17.199	27.831	-138.858	-131.790	-22.783	16.055	-131.823	-125.600	-126.172	-118.250	-29.006	-118.426	-8191	255	
1502.753	1	1	0	0	0.23344	0.18754	0.26476	0.14355	0.12063	0.11431	0.16968	0.053536	0.23953	0.084646	0.21626	0.16356	0.1469	0.032482	0.2127	0.14987	-2.9375	-3.0854	-3.1417	-3.4979	-3.0875	-3.4542	-3.5104	-3.1917	-3.2792	-3.1771	-3.0167	-3.5062	-3.4167	-3.3187	-3.4583	-3.3708	-111.041	56.600	-69.028	-92.117	194.066	91.376	178.769	-140.944	178.516	57.976	189.008	206.369	118.135	184.670	-124.573	-93.717	0.00049773	0.00024356	7.3973e-05	1038.9	1.6594e-06	2.7303e-06	1092.6	217.57	5.8173e-06	2.8304e-06	275.22	77.745	61.168	17.94	3.8406e-06	25.674	0.00014773	9.8538e-05	2.9481e-05	1012.4	1.2286e-06	1.143e-06	1075.7	214.51	1.2079e-06	1.0535e-06	271.02	77.343	60.739	18.022	1.111e-06	25.776	104.319	-48.414	-55.005	-138.680	-23.466	3.716	-139.065	-131.431	-46.657	-20.670	-131.954	-125.673	-126.070	-117.841	-12.841	-118.587	-8191	255	
1502.849	1	1	0	0	0.17314	0.1603	0.037753	0.1026	0.079706	0.14062	0.041162	0.15003	0.1991	0.070737	0.24407	0.10014	0.14633	0.1092	0.22599	0.27725	-3.0729	-3.35	-3.1188	-3.6188	-3.4167	-3.2646	-3.6083	-3.1229	-3.2625	-3.2	-3.325	-3.6271	-3.2583	-3.0833	-3.3438	-3.0833	83.722	-59.814	-107.637	209.896	-61.436	-112.661	-14.291	197.997	119.536	49.493	174.728	163.884	-72.334	-71.743	-113.537	177.668	0.00049622	0.00019908	6.014e-05	1040.2	2.3546e-06	3.2088e-06	1095	216.95	4.2719e-06	1.4836e-06	274.29	78.64	61.85	18.029	1.7998e-06	25.923	0.00014863	0.00010159	2.971e-05	1014.5	1.1952e-06	1.1049e-06	1077.9	214.67	1.2889e-06	1.0903e-06	270.95	77.873	60.877	18.029	1.0962e-06	25.945	96.140	-42.600	-57.251	-138.576	-54.935	12.705	-138.939	-131.720	-57.351	-12.736	-132.276	-126.047	-125.777	-117.831	-10.119	-118.872	-8191	255	
1502.945	1	1	0	0	0.327	0.093689	0.1626	0.11609	0.039051	0.3286	0.13865	0.12451	0.1449	0.036928	0.251	0.26357	0.1975	0.16164	0.13071	0.03096	-2.9917	-3.2188	-2.8271	-3.3479	-3.3167	-3.3229	-3.7188	-3.0792	-3.2938	-3.4417	-3.2333	-3.2021	-3.2229	-3.0625	-3.35	-3.0333	131.931	7.464	5.733	186.836	20.085	-73.113	108.093	121.376	-46.205	-57.757	182.028	116.292	129.318	-53.965	92.210	176.729	0.00049788	0.00023701	5.9452e-05	1036.3	3.262e-06	2.5563e-06	1095	218.19	5.0932e-06	2.4656e-06	274.8	77.65	61.488	17.919	4.1806e-06	25.586	0.00014951	0.00010012	2.8524e-05	1011.3	1.1924e-06	1.0611e-06	1076.8	214.75	1.2801e-06	1.0513e-06	271.05	77.504	60.902	17.972	1.1168e-06	25.799	98.067	-88.590	-80.245	-138.793	-7.405	2.895	-138.709	-131.724	-34.423	2.647	-132.070	-125.871	-125.852	-117.634	-0.414	-118.132	-8191	255	
1503.041	1	1	0	0	0.10438	0.087902	0.16497	0.39709	0.15415	0.15211	0.15214	0.22653	0.17319	0.28675	0.10056	0.12312	0.22106	0.50431	0.26927	0.12906	-2.9042	-3.4062	-2.9708	-3.3312	-3.1792	-3.2062	-3.6729	-3.3042	-3.2646	-3.275	-3.35	-3.4521	-3.35	-3.0563	-3.4	-3.3375	-16.991	153.986	199.045	107.144	61.522	-117.593	82.133	-149.202	-10.841	56.514	-97.067	-70.860	-147.567	151.993	90.216	-5.751	0.00052528	0.00032638	7.8326e-05	1034.1	2.4711e-06	2.8332e-06	1092.7	217.69	5.6282e-06	3.9727e-06	274.97	78.138	61.798	18.002	2.6913e-06	25.51	0.00015144	9.648e-05	2.8107e-05	1011.8	1.1978e-06	1.0802e-06	1073.7	214.66	1.3211e-06	1.0185e-06	271.15	77.612	60.655	18.01	1.1031e-06	25.712	95.510	-59.312	-36.496	-138.604	-40.825	-21.487	-138.876	-131.692	-54.979	1.354	-132.163	-126.108	-126.174	-118.227	-15.762	-118.554	-8191	255	
1503.138	1	1	0	0	0.047825	0.12471	0.15553	0.16673	0.10677	0.051924	0.22677	0.18872	0.14006	0.17377	0.30617	0.14394	0.13228	0.086018	0.049999	0.30345	-2.9375	-3.5333	-3.1104	-3.5312	-3.225	-3.0833	-3.6042	-3.2458	-3.2708	-3.5771	-3.0917	-3.3521	-3.4104	-2.9813	-3.4313	-3.4208	-24.208	84.213	-146.170	138.985	-126.509	41.674	116.497	-146.188	90.384	-48.769	189.070	179.651	168.068	144.497	201.105	104.478	0.00048276	0.00028034	8.0283e-05	1024.6	4.1802e-06	2.8802e-06	1090.2	217.67	4.152e-06	3.4017e-06	273.81	77.77	61.43	17.777	2.4114e-06	25.607	0.00014969	0.00010315	2.9075e-05	1007.2	1.2068e-06	1.085e-06	1072.3	214.35	1.224e-06	1.0547e-06	270.68	77.451	60.639	17.913	1.1658e-06	25.721	98.169	-57.540	-64.976	-138.566	-10.602	1.088	-138.993	-131.811	-42.334	-11.857	-131.944	-125.831	-126.070	-118.091	-16.806	-118.402	-8191	255	
1503.258	1	1	0	0	0.22408	0.21256	0.095913	0.28957	0.18616	0.27073	0.19487	0.13912	0.18357	0.27503	0.12587	0.19711	0.16527	0.10138	0.23771	0.19719	-2.7146	-3.4708	-3.1271	-3.2375	-3.575	-3.0958	-3.5042	-3.35	-2.8417	-3.4583	-2.9771	-3.1708	-3.3021	-3.125	-3.5042	-3.5021	207.858	138.549	-16.058	200.916	-101.510	-94.365	203.932	52.159	12.906	-16.657	13.557	83.469	-85.942	69.342	-123.868	162.384	0.00051454	0.00026868	7.2403e-05	1026.7	3.0888e-06	3.5019e-06	1092.1	216.31	3.0838e-06	1.2994e-06	273.4	77.637	61.298	17.779	4.3671e-06	25.419	0.00014863	9.3881e-05	2.8742e-05	1008.1	1.0909e-06	1.1188e-06	1072.8	213.8	1.2077e-06	1.041e-06	270.31	77.214	60.655	17.902	1.1521e-06	25.616	99.911	-58.851	-67.891	-138.551	-45.240	29.941	-139.119	-131.654	-3.057	-32.270	-131.949	-126.057	-126.237	-118.170	-11.935	-118.637	-8191	255	
1503.354	1	1	0	0	0.075761	0.08803	0.22297	0.091161	0.17463	0.10818	0.34911	0.35046	0.11861	0.03303	0.07149	0.10415	0.12322	0.31377	0.096166	0.18436	-2.825	-3.3708	-3.1063	-3.2667	-3.2604	-3.2771	-3.4854	-3.5125	-3.1	-3.3708	-3.0187	-3.3625	-3.5104	-3.0625	-3.3854	-3.2271	11.385	-40.464	13.509	159.145	163.910	126.385	115.783	201.279	145.925	115.237	141.550	-63.494	-87.938	191.955	36.416	27.751	0.00049977	0.00029858	9.103e-05	1033	1.5898e-06	1.3908e-06	1089.6	216.94	5.4108e-06	2.0875e-06	272.91	77.961	60.708	17.807	2.2022e-06	25.462	0.00015103	0.0001017	2.7713e-05	1007.8	1.2001e-06	1.1081e-06	1071.1	214.17	1.2796e-06	1.0314e-06	270.51	77.395	60.458	17.897	1.1365e-06	25.746	96.021	-43.077	-71.761	-138.802	-34.104	-4.360	-138.855	-131.750	-43.221	8.495	-131.668	-125.837	-125.872	-117.818	-4.651	-119.011	-8191	255	
1503.451	1	1	0	0	0.23322	0.17493	0.099654	0.19478	0.20317	0.18595	0.12059	0.056854	0.15269	0.16373	0.16415	0.19258	0.098034	0.14339	0.14622	0.30318	-2.7271	-3.4083	-3.0792	-3.0729	-3.3729	-3.2271	-3.3438	-3.5875	-3.0646	-3.3833	-3.2687	-3.0729	-3.425	-3.1188	-3.3312	-3.4458	162.954	87.722	-81.348	135.026	170.727	5.567	110.047	78.135	48.574	91.679	8.614	-117.326	-79.234	153.536	47.294	-119.497	0.00048671	0.00024388	7.3404e-05	1025.5	2.6664e-06	3.3299e-06	1085.7	218.03	4.3799e-06	2.8597e-06	271.58	77.953	61.316	17.805	4.0559e-06	25.285	0.00015045	0.00010181	2.7955e-05	1004.3	1.1275e-06	1.0949e-06	1070.1	214.29	1.2261e-06	1.0724e-06	269.92	77.462	60.502	17.897	1.1498e-06	25.598	93.605	-56.474	-45.935	-138.564	-23.149	-4.910	-139.030	-131.594	-48.771	7.747	-131.880	-125.770	-125.586	-118.227	-36.449	-118.219	-8191	255	
1503.547	1	1	0	0	0.096232	0.17636	0.18708	0.1459	0.11931	0.041941	0.1725	0.096829	0.15903	0.060621	0.29153	0.040857	0.23394	0.027724	0.12977	0.021161	-2.6375	-3.3625	-3.0812	-2.8958	-3.55	-3.325	-3.4188	-3.3979	-3.2354	-3.5521	-3.3667	-2.9188	-3.25	-3.1708	-3.2792	-3.5312	-75.050	-148.417	-49.659	-110.628	163.432	-41.025	-62.733	189.213	-116.621	-146.386	-128.937	106.831	-133.614	-9.501	-76.910	7.395	0.00050497	0.00020666	7.177e-05	1029	4.1606e-06	3.9894e-06	1082.1	216.12	4.1885e-06	1.69e-06	270.96	77.58	61.121	17.802	1.9448e-06	25.347	0.00015029	9.687e-05	2.7144e-05	1004.6	1.1834e-06	1.1109e-06	1066	213.45	1.2762e-06	1.0918e-06	269.32	77.306	60.433	17.877	1.0892e-06	25.611	94.820	-41.668	-34.734	-138.703	-43.993	-22.624	-138.929	-131.465	-31.918	13.204	-132.110	-125.690	-125.760	-117.819	-25.251	-118.380	-8191	255	
1503.641	1	1	0	0	0.043008	0.29836	0.098011	0.15044	0.11752	0.13658	0.37706	0.2158	0.018706	0.22953	0.18979	0.27953	0.11164	0.21489	0.038852	0.23118	-2.5375	-3.3271	-3.2938	-3.175	-3.5333	-3.2687	-3.4354	-3.4813	-3.1104	-3.4667	-3.5292	-3.2833	-3.2021	-3.2792	-3.1437	-3.5479	24.052	158.997	6.019	157.578	-73.388	-21.244	138.158	109.225	60.302	-132.186	2.763	-109.056	-95.435	-3.965	-85.421	-128.532	0.00054164	0.0002906	9.2698e-05	1027.7	2.9987e-06	3.0403e-06	1079.3	215.37	6.2692e-06	2.1293e-06	274.04	77.858	61.023	17.779	4.1435e-06	25.397	0.00014697	9.8798e-05	2.8561e-05	1003.9	1.0935e-06	1.0582e-06	1066	212.99	1.2964e-06	1.07e-06	269.66	77.155	60.09	17.79	1.1145e-06	25.558	99.457	-55.795	-60.339	-138.846	-24.521	9.226	-138.854	-131.506	-39.230	-16.346	-131.879	-126.209	-125.937	-117.895	-19.579	-118.377	-8191	255	
1503.737	1	1	0	0	0.33629	0.15799	0.22608	0.045943	0.092045	0.27175	0.11621	0.21235	0.060011	0.022167	0.12282	0.18465	0.11535	0.082533	0.09762	0.12112	-2.6083	-3.1042	-3.4958	-3.1688	-3.4313	-3.3125	-3.4042	-3.6312	-3.1667	-3.4667	-3.5083	-3.2021	-3.4896	-3.3312	-3.1312	-3.3688	-148.737	181.572	117.379	-135.985	185.224	98.155	110.717	104.986	118.427	47.921	197.125	-131.848	-133.552	162.016	-44.592	-101.133	0.00049646	0.00026497	9.0873e-05	1024	2.2046e-06	2.9744e-06	1078.7	215.39	5.3825e-06	3.1167e-06	271.69	77.548	61.128	17.752	3.136e-06	25.407	0.00014524	9.7476e-05	2.738e-05	1000.7	1.0939e-06	1.0731e-06	1063.2	213.03	1.2132e-06	1.1145e-06	269.49	77.036	60.342	17.842	1.1328e-06	25.558	96.429	-56.300	-85.264	-138.653	-21.372	-13.836	-138.668	-131.659	-39.591	-8.735	-132.010	-125.904	-126.253	-118.042	-23.405	-118.739	-8191	255	
1503.833	1	1	0	0	0.18545	0.20413	0.11519	0.23523	0.089835	0.097338	0.11491	0.11831	0.17502	0.1024	0.045256	0.32437	0.16645	0.23722	0.039314	0.20338	-2.9958	-3.0542	-3.3125	-3.0229	-3.3146	-3.4208	-3.2479	-3.3708	-3.0854	-3.1937	-3.6542	-3.1854	-3.1333	-3.1583	-2.9604	-3.5438	178.866	7.649	158.213	143.268	54.253	-69.318	74.928	-34.272	132.580	52.488	-66.901	151.211	186.719	-116.408	147.374	-143.433	0.00056449	0.00027432	9.3159e-05	1015.8	1.3546e-06	1.1553e-06	1077	215.71	3.386e-06	3.5159e-06	272.18	77.221	61.043	17.76	1.8348e-06	25.419	0.00014704	9.9101e-05	2.7489e-05	997.58	1.1222e-06	1.0918e-06	1064.4	213.18	1.2535e-06	1.0714e-06	269.42	77.075	60.254	17.817	1.1161e-06	25.56	98.115	-68.728	-60.625	-138.646	-42.156	18.355	-139.205	-131.496	-44.814	-3.336	-131.822	-125.819	-125.657	-117.996	-50.497	-118.336	-8191	255	
1503.954	1	1	0	0	0.05955	0.12438	0.20649	0.22123	0.17952	0.10379	0.053221	0.1298	0.17343	0.22641	0.019905	0.1088	0.082521	0.036633	0.070464	0.16422	-2.5771	-3.0917	-3.4313	-2.9729	-3.2375	-3.3187	-3.3312	-3.5917	-3.3417	-3.1958	-3.6979	-3.0104	-3.2667	-3.2854	-2.95	-3.3125	-48.154	65.457	143.907	0.932	-55.171	186.844	178.292	111.865	-36.008	-44.555	75.025	99.937	45.920	107.900	-72.170	161.862	0.00054945	0.00026345	7.1919e-05	1025.3	2.6213e-06	1.9935e-06	1078.1	214.87	6.9468e-06	2.3526e-06	270.06	77.274	60.245	17.703	3.9587e-06	25.276	0.00015682	0.00010047	2.8246e-05	1002	1.1706e-06	1.0383e-06	1065.2	212.73	1.2132e-06	1.1037e-06	268.86	76.804	59.997	17.753	1.2108e-06	25.501	97.127	-69.751	-71.946	-138.638	-66.211	32.506	-138.939	-131.526	-53.783	-10.716	-131.811	-125.947	-125.813	-117.961	10.076	-118.920	-8191	255	
1504.048	1	1	0	0	0.10536	0.15458	0.24958	0.25569	0.11738	0.22839	0.2191	0.18341	0.19677	0.21846	0.23694	0.13048	0.16038	0.066598	0.095204	0.0996	-2.9375	-3.1521	-3.5042	-3.1271	-3.1771	-3.4646	-3.4625	-3.4333	-3.1146	-2.9833	-3.5938	-3.4188	-3.0917	-3.1292	-3.0875	-3.5229	-120.627	107.445	-20.389	129.709	127.083	191.822	127.347	147.242	121.706	-46.602	-122.053	107.424	-68.934	98.361	100.420	-121.175	0.0005819	0.00031785	5.1446e-05	1016.7	3.1032e-06	8.5923e-07	1076.7	214.75	6.3822e-06	2.9434e-06	270.56	76.685	60.931	17.565	2.145e-06	25.29	0.00015516	0.00010569	2.7162e-05	1000.1	1.2147e-06	1.0469e-06	1062	212.56	1.2909e-06	1.1255e-06	268.84	76.739	60.2	17.676	1.2579e-06	25.39	102.106	-49.071	-82.491	-138.824	-38.676	-7.454	-139.025	-131.563	-46.612	7.945	-131.605	-126.012	-125.995	-118.146	-35.543	-118.487	-8191	255	
1504.145	1	1	0	0	0.24565	0.033538	0.15501	0.09589	0.11327	0.02924	0.44777	0.090027	0.21179	0.16103	0.25616	0.27907	0.20266	0.054698	0.16754	0.23209	-2.9208	-3.1104	-3.3667	-3.3875	-3.3396	-3.3667	-3.0792	-3.2542	-3.5708	-3.225	-3.5625	-3.2521	-3.075	-3.4542	-3.1479	-3.2438	121.627	174.862	-14.547	30.388	-126.254	5.507	142.914	93.203	55.769	102.277	64.275	184.609	149.514	179.054	133.117	137.294	0.00053064	0.00027605	6.7406e-05	1022.4	1.9738e-06	4.2011e-06	1081.7	214.57	6.0708e-06	2.3514e-06	271.3	76.877	60.289	17.718	1.6861e-06	25.006	0.00014479	0.00010519	2.9553e-05	1000.2	1.173e-06	1.0824e-06	1064.4	212.58	1.3025e-06	1.1099e-06	268.56	76.596	59.999	17.675	1.2247e-06	25.264	100.923	-61.059	-57.631	-138.427	-34.764	22.121	-138.926	-131.642	-55.151	3.423	-131.891	-125.736	-126.138	-118.154	13.413	-118.408	-8191	255	
1504.241	1	1	0	0	0.26296	0.032748	0.04936	0.10857	0.22462	0.15566	0.40244	0.12829	0.21689	0.1373	0.011432	0.15271	0.19115	0.35035	0.1597	0.13752	-2.9646	-3.175	-3.3479	-3.4146	-3.1312	-3.4417	-3.3021	-3.1854	-3.4146	-3.1875	-3.5646	-3.4021	-3.1958	-3.2375	-3.1229	-3.2917	75.509	-22.653	126.483	-48.884	-47.145	97.596	161.327	-136.173	-43.783	135.286	39.298	187.232	-24.182	-86.733	-84.593	124.951	0.00049713	0.00031298	0.0001116	1018.2	5.1346e-06	4.024e-06	1078.8	214.88	4.7881e-06	2.7408e-06	272.74	77.218	60.827	17.486	3.8793e-06	25.131	0.00014672	0.0001053	2.7162e-05	996.31	1.2599e-06	1.1466e-06	1060.5	211.86	1.2839e-06	1.1267e-06	268.05	76.517	59.971	17.555	1.2769e-06	25.213	97.946	-57.614	-53.881	-138.743	-39.683	15.162	-138.841	-131.465	-60.831	20.572	-131.959	-126.039	-125.968	-117.812	-14.944	-118.459	-8191	255	
1504.337	1	1	0	0	0.15662	0.14641	0.096594	0.10116	0.35366	0.23448	0.068214	0.14301	0.20008	0.062937	0.047306	0.1387	0.35104	0.20302	0.16672	0.12235	-3.0604	-3.0979	-3.1521	-3.1958	-3.1125	-3.5312	-3.3667	-3.2271	-3.3625	-3.2646	-3.4354	-3.3292	-3.1229	-3.3604	-3.225	-3.2687	-114.847	-120.718	-37.731	177.321	139.625	65.122	97.011	-123.731	55.437	56.407	-41.572	103.556	120.647	81.379	-148.070	-24.825	0.00055351	0.0004355	4.8686e-05	1018.4	3.2814e-06	1.9257e-06	1074.4	214.88	4.4879e-06	2.3731e-06	271.56	76.156	60.04	17.417	2.1361e-06	24.636	0.00015297	0.00011011	3.0413e-05	997.22	1.2647e-06	1.0963e-06	1059.5	211.97	1.2755e-06	1.2365e-06	268.09	76.226	59.745	17.576	1.2175e-06	25.188	99.676	-34.337	-65.498	-138.481	-30.437	20.847	-138.836	-131.638	-32.959	54.104	-131.844	-125.639	-126.615	-118.045	2.790	-118.545	-8191	255	
1504.433	1	1	0	0	0.17856	0.1868	0.20269	0.012331	0.12302	0.16024	0.30044	0.34403	0.16925	0.12375	0.077023	0.39717	0.099501	0.19158	0.1207	0.084735	-3.1208	-3.0375	-3.1562	-3.2417	-3.0396	-3.5125	-3.3792	-3.2562	-3.5333	-3.2167	-3.5438	-3.4417	-2.9292	-3.25	-3.2917	-3.3625	111.578	52.112	5.623	-1.450	148.678	88.633	150.681	185.446	-108.851	-30.469	-93.103	162.428	181.936	-52.253	74.936	1.822	0.0005434	0.00014401	8.3707e-05	1017.3	4.4788e-06	3.7332e-06	1071.9	213.13	6.1992e-06	2.5226e-06	266.84	75.345	59.308	17.234	3.9794e-06	24.617	0.00015052	0.00011143	3.129e-05	998.27	1.3347e-06	1.1553e-06	1061.4	211.8	1.391e-06	1.142e-06	267.55	75.923	59.63	17.528	1.2978e-06	25.049	97.836	-49.642	-43.037	-138.769	-29.102	1.408	-139.077	-131.819	-45.218	-3.078	-132.193	-126.464	-126.401	-118.117	-20.361	-118.308	-8191	255	
1504.529	1	1	0	0	0.17567	0.23828	0.26991	0.1561	0.12944	0.053322	0.17395	0.1917	0.13997	0.080215	0.22855	0.10367	0.08771	0.26266	0.28868	0.27468	-3.0083	-3.0333	-3.2125	-3.525	-3.1104	-3.4625	-3.5417	-3.3104	-3.3417	-3.3396	-3.3458	-3.3375	-3.0667	-3.35	-3.4646	-3.1271	-120.232	135.738	20.748	184.071	2.525	1.485	104.930	183.915	-23.181	-103.094	156.276	-77.201	119.553	-24.303	183.212	104.538	0.00055741	0.00016381	8.2448e-05	1020.1	3.1849e-06	3.7161e-06	1074.1	212.98	1.1567e-05	1.111e-06	267.1	75.182	59.786	17.368	4.1745e-06	24.825	0.00017151	0.00011914	3.2858e-05	1002.3	1.3806e-06	1.3887e-06	1065.4	212.33	1.6184e-06	1.4713e-06	268.13	76.105	59.81	17.446	1.5374e-06	25.035	98.500	-55.544	-32.004	-138.795	-35.621	7.033	-139.144	-131.840	-57.145	-15.036	-132.461	-126.477	-125.749	-118.139	-47.919	-118.328	-8191	255	
1504.650	1	1	0	0	0.20448	0.22031	0.074739	0.14209	0.29507	0.17	0.23537	0.19828	0.084259	0.21686	0.068999	0.15381	0.10456	0.085072	0.3488	0.13993	-2.8917	-3.3021	-3.2188	-3.4479	-3.0354	-3.2521	-3.3937	-3.0812	-3.3187	-3.4104	-3.1917	-3.4417	-3.025	-3.4292	-3.4062	-3.2417	167.658	7.889	-21.706	156.621	203.598	44.104	110.334	181.992	111.934	-133.474	77.706	128.235	191.237	168.608	66.959	-108.334	0.0005211	0.00026966	6.7666e-05	1040.1	2.1415e-06	2.4468e-06	1098.3	217.76	8.1672e-06	2.9483e-06	274.46	77.199	61.238	17.639	3.4128e-06	25.058	0.00017848	0.00013978	4.0568e-05	1017	1.6022e-06	1.5601e-06	1078.7	214.88	1.6717e-06	1.579e-06	271.53	76.731	60.424	17.567	1.6279e-06	25.218	101.534	-29.519	-13.788	-139.235	21.066	24.281	-139.022	-131.624	-27.399	0.577	-131.618	-125.685	-126.389	-118.037	2.690	-118.511	-8191	255	
1504.746	1	1	0	0	0.081837	0.27705	0.368	0.20519	0.15117	0.12894	0.39455	0.20653	0.051536	0.18075	0.22938	0.2458	0.052796	0.10071	0.072851	0.047874	-2.9833	-3.1958	-2.9833	-3.5	-3.3	-3.4313	-3.5854	-3.0938	-3.575	-3.4792	-3.0687	-3.4458	-3.3125	-3.1125	-3.3	-3.225	45.675	-53.995	-103.545	190.657	-81.013	-142.893	131.111	-140.517	-87.204	90.187	-110.658	196.916	172.805	-135.374	-69.923	167.429	0.00056079	0.00033319	6.9101e-05	1046.9	3.6525e-06	2.8541e-06	1100.8	218.67	5.9317e-06	2.1961e-06	276.37	77.592	61.213	17.429	2.0857e-06	25.303	0.00017877	0.00014294	3.9116e-05	1021.9	1.6914e-06	1.5059e-06	1082.9	215.2	1.6724e-06	1.4972e-06	271.83	76.865	60.418	17.499	1.6003e-06	25.356	96.756	-58.127	-68.854	-138.391	-22.065	14.028	-139.038	-131.546	-24.192	35.358	-132.145	-125.989	-125.881	-118.015	-2.665	-118.778	-8191	255	
1504.842	1	1	0	0	0.090585	0.17837	0.23138	0.30256	0.16173	0.046103	0.18778	0.11275	0.11156	0.38212	0.14228	0.2828	0.12	0.23386	0.11961	0.074827	-2.9688	-3.1896	-3.1937	-3.5125	-3.1292	-3.05	-3.6437	-3.1333	-3.2125	-3.1792	-3.075	-3.6708	-3.1979	-3.2271	-3.5729	-3.0979	-68.683	10.636	116.333	-141.878	82.197	-144.978	138.277	179.642	-33.448	35.318	192.307	189.593	92.947	-53.801	-17.161	47.530	0.00049084	0.00036615	7.9961e-05	1050.4	3.515e-06	2.7153e-06	1104.9	218.8	4.3813e-06	1.5071e-06	275.8	76.928	61.343	17.511	4.3554e-06	25.148	0.00018108	0.00013629	3.7003e-05	1023.4	1.6015e-06	1.4954e-06	1085.6	215.05	1.6461e-06	1.4797e-06	271.95	76.798	60.488	17.493	1.4212e-06	25.28	105.779	-50.690	-42.083	-138.831	-30.891	29.468	-138.843	-131.585	-47.502	-6.783	-131.886	-126.128	-125.702	-117.514	-21.589	-118.405	-8191	255	
1504.938	1	1	0	0	0.12318	0.11561	0.0606	0.30442	0.15814	0.18701	0.33531	0.19794	0.13622	0.11763	0.3085	0.15283	0.14282	0.20751	0.21335	0.17189	-2.9437	-3.3292	-3.0417	-3.3167	-3.2646	-3.1917	-3.475	-2.9708	-3.2167	-3.475	-3.1729	-3.4479	-3.225	-3.1104	-3.5479	-2.975	-85.127	94.606	90.777	183.836	-13.362	35.414	-124.686	-44.878	120.756	-92.414	163.658	30.269	164.234	-90.322	-12.422	144.164	0.00051979	0.00031492	5.347e-05	1040.4	4.2813e-06	3.5184e-06	1094.2	217.21	6.9508e-06	3.128e-06	271.75	76.534	60.579	17.278	1.4921e-06	24.885	0.00017638	0.00012453	3.4752e-05	1016.1	1.3871e-06	1.3801e-06	1074.4	213.07	1.4778e-06	1.2004e-06	268.55	76.192	59.676	17.301	1.2143e-06	24.961	95.765	-56.923	-55.837	-138.972	-20.422	-7.265	-138.796	-131.517	-47.658	0.085	-131.956	-125.791	-126.242	-117.721	-50.100	-118.286	-8191	255	
1505.033	1	1	0	0	0.12306	0.19469	0.14691	0.18781	0.088457	0.13994	0.32229	0.16234	0.051795	0.27244	0.047279	0.10218	0.10596	0.14919	0.13456	0.11243	-2.8708	-3.325	-3.1458	-3.3292	-3.2	-3.1833	-3.6688	-3.4646	-3.0521	-3.3375	-3.1	-3.4208	-3.2667	-3.0438	-3.4396	-3.2458	7.429	-7.544	108.701	118.721	-112.098	-24.358	160.845	19.568	-122.342	-30.838	108.232	196.912	93.585	161.557	135.414	193.306	0.0004968	0.00022779	7.5497e-05	1022.6	4.1639e-06	2.4545e-06	1072.1	212.47	5.2976e-06	2.7123e-06	269.22	75.595	60.111	17.09	2.5035e-06	24.527	0.00016076	0.00010406	3.06e-05	997.6	1.229e-06	1.1109e-06	1054.3	209.52	1.3182e-06	1.0977e-06	265.24	75.258	59.173	17.136	1.0927e-06	24.65	101.169	-51.851	-70.725	-138.594	-38.369	-17.970	-138.753	-131.675	-39.441	4.704	-131.745	-125.612	-126.364	-117.606	1.506	-117.952	-8191	255	
1505.129	1	1	0	0	0.16022	0.14445	0.23233	0.23591	0.13902	0.20971	0.41988	0.154	0.24251	0.1838	0.17278	0.11561	0.115	0.24605	0.1555	0.18947	-2.7521	-3.3958	-3.05	-3.5021	-3.3083	-2.8979	-3.475	-3.2417	-3.2875	-3.5958	-3.1854	-3.4167	-3.3125	-2.9813	-3.5104	-3.175	-139.056	-6.777	196.761	120.364	-72.237	-36.402	174.470	-56.354	105.718	-31.961	140.173	-115.294	-91.417	124.025	-85.277	-110.896	0.00051769	0.00033574	6.5202e-05	1011.5	2.7289e-06	1.4103e-06	1066.3	211.62	6.8868e-06	3.0036e-06	266.93	75.358	59.512	17.187	3.9209e-06	24.417	0.0001388	9.752e-05	2.8058e-05	987.6	1.1166e-06	1.1047e-06	1047.5	208.51	1.2265e-06	1.025e-06	263.54	74.861	58.734	17.147	1.0813e-06	24.596	97.766	-68.086	-52.057	-138.568	-37.198	-23.648	-138.579	-131.313	-26.221	1.051	-131.976	-125.768	-125.671	-118.037	-20.538	-118.802	-8191	255	
1505.249	1	1	0	0	0.055833	0.013546	0.055562	0.17481	0.059113	0.1603	0.16269	0.049059	0.11397	0.089802	0.11191	0.23741	0.17918	0.12723	0.28614	0.11305	-2.5979	-3.4917	-2.9813	-3.3292	-3.2042	-3.1604	-3.4458	-3.2438	-2.9479	-3.4708	-3.3208	-3.4208	-3.1437	-3.0542	-3.5312	-3.2125	182.081	130.332	-121.648	194.687	-84.854	93.956	154.374	42.294	68.542	-44.707	125.847	181.463	37.617	-76.835	-123.893	197.196	0.00051537	0.00016753	5.4069e-05	1010.3	2.4796e-06	3.4362e-06	1059.9	211.18	3.8227e-06	2.3329e-06	267.07	75.317	59.34	17.185	2.2308e-06	24.541	0.00014449	9.0501e-05	2.499e-05	980.11	1.0638e-06	1.0651e-06	1041.9	208.2	1.1404e-06	9.7712e-07	263.1	74.907	58.797	17.202	1.0412e-06	24.634	97.454	-31.146	-64.347	-138.623	-45.632	12.371	-138.836	-131.488	-65.661	7.597	-131.590	-125.653	-125.765	-117.627	1.086	-118.259	-8191	255	
1505.346	1	1	0	0	0.20241	0.12579	0.096475	0.24577	0.14283	0.081875	0.3201	0.053173	0.30058	0.31075	0.11415	0.14163	0.1546	0.25452	0.23021	0.20225	-2.5792	-3.4708	-3.2771	-3.3229	-3.2625	-3.0812	-3.3833	-3.4458	-2.8396	-3.3979	-3.3167	-3.2438	-3.275	-3.0771	-3.3937	-3.1583	42.240	-77.159	81.390	-102.136	92.861	44.532	88.306	-31.704	92.148	-139.959	181.785	-119.697	163.660	181.247	144.617	163.898	0.00045537	0.00029955	8.3817e-05	1005.3	2.5585e-06	3.9549e-06	1065.9	211.7	6.3832e-06	2.5509e-06	266.98	75.731	59.713	17.317	2.317e-06	24.397	0.00014142	9.5245e-05	2.5613e-05	981	1.0923e-06	1.064e-06	1044.8	207.83	1.2445e-06	1.0439e-06	263.6	75.125	58.944	17.24	1.0751e-06	24.666	95.001	-50.789	-49.300	-138.493	-42.227	19.903	-138.802	-131.792	-12.899	5.676	-131.642	-125.286	-125.281	-117.645	-8.254	-118.330	-8191	255	
1505.442	1	1	0	0	0.0091591	0.25256	0.18041	0.20335	0.16439	0.11606	0.33298	0.15825	0.17972	0.13136	0.29636	0.17408	0.14173	0.19221	0.21908	0.098329	-2.5958	-3.4	-3.1271	-3.1833	-3.4792	-3.1521	-3.2958	-3.275	-2.9688	-3.4542	-3.3396	-2.9125	-3.5542	-3.1167	-3.1521	-3.2812	-19.989	126.068	170.639	178.178	75.097	-3.938	-121.406	58.026	33.115	105.103	-142.391	98.800	148.316	176.446	13.831	-125.564	0.00044116	0.00036216	6.0501e-05	1001	2.9125e-06	3.3573e-06	1061.1	210.96	4.0233e-06	3.4565e-06	266.43	75.465	59.676	17.359	2.6753e-06	24.752	0.00014322	9.2993e-05	2.574e-05	979.17	1.0265e-06	9.8462e-07	1042.9	207.54	1.1678e-06	9.9483e-07	263.47	75.077	58.799	17.308	1.0366e-06	24.752	98.665	-77.504	-90.562	-138.674	-34.604	-9.450	-138.615	-131.435	-32.406	10.348	-131.661	-125.740	-125.576	-117.546	-18.717	-118.142	-8191	255	
1505.513	1	1	0	0	0.085335	0.19866	0.093866	0.20008	0.20116	0.098493	0.057183	0.21596	0.15724	0.070723	0.26187	0.047934	0.15819	0.11758	0.086199	0.1149	-2.7479	-3.4437	-3.3167	-3.4021	-3.2542	-3.2521	-3.4896	-3.4167	-3.2208	-3.4854	-3.2042	-3.1792	-3.5104	-3.1521	-3.2438	-3.4458	-13.458	-93.586	206.438	109.281	180.005	193.936	159.503	-44.222	-34.594	-73.073	-144.737	-19.440	-69.236	136.836	100.982	-118.429	0.00049303	0.00030099	8.3015e-05	1003.4	1.8539e-06	1.4432e-06	1059.8	210.92	6.3329e-06	2.0814e-06	265.95	75.66	59.425	17.287	1.279e-06	24.396	0.00014223	9.4487e-05	2.5516e-05	978.47	1.0728e-06	1.0189e-06	1041.6	207.63	1.2526e-06	1.025e-06	262.84	74.975	58.733	17.279	1.0785e-06	24.685	101.383	-50.140	-44.286	-138.228	-34.494	15.640	-138.703	-131.539	-44.009	17.748	-131.885	-125.429	-125.794	-117.744	0.419	-118.351	-8191	255	
1505.634	1	1	0	0	0.13723	0.10009	0.02512	0.28912	0.088198	0.12694	0.18155	0.061565	0.042275	0.16638	0.27082	0.13938	0.10759	0.16398	0.13559	0.142	-2.5646	-3.3	-3.2625	-3.0125	-3.3333	-2.9938	-3.1729	-3.5042	-3.1042	-3.2375	-3.5625	-2.9104	-3.4875	-3.1896	-3.1833	-3.5958	-85.514	49.598	138.622	-147.525	21.246	147.791	125.750	123.521	183.011	108.937	107.891	-69.275	153.149	149.149	151.478	36.476	0.00048096	0.00024865	3.8589e-05	1004.3	3.6964e-06	2.2775e-06	1058.3	210.97	2.94e-06	2.2938e-06	265.65	75.205	59.682	17.356	4.0808e-06	24.572	0.00015032	9.7346e-05	2.5637e-05	980.4	1.1498e-06	1.0544e-06	1042	207.52	1.2168e-06	1.0721e-06	262.35	74.898	58.746	17.256	1.1528e-06	24.702	94.046	-56.187	-81.052	-138.371	-6.922	10.841	-138.763	-131.469	-66.995	-26.823	-131.564	-125.921	-125.634	-117.862	-16.145	-118.243	-8191	255	
1505.730	1	1	0	0	0.20207	0.24487	0.052482	0.11701	0.10332	0.18418	0.22253	0.057932	0.14995	0.28439	0.2504	0.17408	0.21093	0.084744	0.34917	0.099594	-2.6354	-3.4229	-3.3417	-2.9375	-3.4104	-3.1667	-3.3833	-3.3583	-3.0812	-3.3583	-3.4125	-3.1625	-3.3937	-3.2417	-3.1479	-3.45	206.832	-70.643	-109.568	-87.932	147.043	-49.190	138.559	-68.020	167.918	77.660	103.372	-22.083	-91.014	-95.906	178.499	-143.253	0.00046815	0.00024263	9.6396e-05	1001.7	2.835e-06	3.9e-06	1060.8	210.28	3.7924e-06	1.6009e-06	266.36	75.539	59.934	17.045	3.856e-06	24.563	0.00014336	9.3447e-05	2.8004e-05	979.96	1.135e-06	1.0568e-06	1040.7	207.18	1.1789e-06	1.0673e-06	262.8	74.973	58.606	17.146	1.1103e-06	24.723	99.647	-56.587	-56.444	-138.488	-33.278	-15.157	-138.762	-131.679	-55.193	8.066	-131.952	-125.415	-125.795	-117.879	-7.882	-118.668	-8191	255	
#DATA ENDS
