BOXY.EXE: ISS Imagent and Oximeter Data Acquisition Program Version 0.80
Ascii Record File

#ACQ INFORMATION
2  Detector Channels 
16  External MUX Channels 
1  Auxiliary Channels 
5000  Waveform (CCF) Frequency (Hz)
1  Waveforms Skipped 
30  Waveforms Averaged 
1  Cycles Averaged 
16  Acquisitions per Waveform 
10.0806  Updata Rate (Hz) 

#FILE INFORMATION
TRUE -- External MUX Channel results are PARSED.
FALSE -- AC DC and Phase are NOT grouped.
TRUE -- Companion Program Settings File CREATED.
FALSE -- AC data not excluded
FALSE -- DC data not excluded
FALSE -- Phase data not excluded
FALSE -- Auxillary Chn. data not excluded
Tab delimiters

#CALIBRATION STATE
TRUE -- Waveform Calibration Values APPLIED.


#AUX CALIBRATION VALUES
Val Type	aux-1	

Term	1.0000e+00	
Factor	0.0000e+00	


#WF CALIBRATION VALUES
A = Detector Channel
Val Type	A-AC1	A-AC2	A-AC3	A-AC4	A-AC5	A-AC6	A-AC7	A-AC8	A-AC9	A-AC10	A-AC11	A-AC12	A-AC13	A-AC14	A-AC15	A-AC16	A-DC1	A-DC2	A-DC3	A-DC4	A-DC5	A-DC6	A-DC7	A-DC8	A-DC9	A-DC10	A-DC11	A-DC12	A-DC13	A-DC14	A-DC15	A-DC16	A-Ph1	A-Ph2	A-Ph3	A-Ph4	A-Ph5	A-Ph6	A-Ph7	A-Ph8	A-Ph9	A-Ph10	A-Ph11	A-Ph12	A-Ph13	A-Ph14	A-Ph15	A-Ph16	

Term	0.00000e+00	0.00000e+00	0.00000e+00	0.00000e+00	0.00000e+00	0.00000e+00	0.00000e+00	0.00000e+00	0.00000e+00	0.00000e+00	0.00000e+00	0.00000e+00	0.00000e+00	0.00000e+00	0.00000e+00	0.00000e+00	0.00000e+00	0.00000e+00	0.00000e+00	0.00000e+00	0.00000e+00	0.00000e+00	0.00000e+00	0.00000e+00	0.00000e+00	0.00000e+00	0.00000e+00	0.00000e+00	0.00000e+00	0.00000e+00	0.00000e+00	0.00000e+00	0.00000e+00	0.00000e+00	0.00000e+00	0.00000e+00	0.00000e+00	0.00000e+00	0.00000e+00	0.00000e+00	0.00000e+00	0.00000e+00	0.00000e+00	0.00000e+00	0.00000e+00	0.00000e+00	0.00000e+00	0.00000e+00	
Factor	1.00000e+00	1.00000e+00	1.00000e+00	1.00000e+00	1.00000e+00	1.00000e+00	1.00000e+00	1.00000e+00	1.00000e+00	1.00000e+00	1.00000e+00	1.00000e+00	1.00000e+00	1.00000e+00	1.00000e+00	1.00000e+00	1.00000e+00	1.00000e+00	1.00000e+00	1.00000e+00	1.00000e+00	1.00000e+00	1.00000e+00	1.00000e+00	1.00000e+00	1.00000e+00	1.00000e+00	1.00000e+00	1.00000e+00	1.00000e+00	1.00000e+00	1.00000e+00	X	X	X	X	X	X	X	X	X	X	X	X	X	X	X	X	

B = Detector Channel
Val Type	B-AC1	B-AC2	B-AC3	B-AC4	B-AC5	B-AC6	B-AC7	B-AC8	B-AC9	B-AC10	B-AC11	B-AC12	B-AC13	B-AC14	B-AC15	B-AC16	B-DC1	B-DC2	B-DC3	B-DC4	B-DC5	B-DC6	B-DC7	B-DC8	B-DC9	B-DC10	B-DC11	B-DC12	B-DC13	B-DC14	B-DC15	B-DC16	B-Ph1	B-Ph2	B-Ph3	B-Ph4	B-Ph5	B-Ph6	B-Ph7	B-Ph8	B-Ph9	B-Ph10	B-Ph11	B-Ph12	B-Ph13	B-Ph14	B-Ph15	B-Ph16	

Term	0.00000e+00	0.00000e+00	0.00000e+00	0.00000e+00	0.00000e+00	0.00000e+00	0.00000e+00	0.00000e+00	0.00000e+00	0.00000e+00	0.00000e+00	0.00000e+00	0.00000e+00	0.00000e+00	0.00000e+00	0.00000e+00	0.00000e+00	0.00000e+00	0.00000e+00	0.00000e+00	0.00000e+00	0.00000e+00	0.00000e+00	0.00000e+00	0.00000e+00	0.00000e+00	0.00000e+00	0.00000e+00	0.00000e+00	0.00000e+00	0.00000e+00	0.00000e+00	-3.55938e+01	-1.27701e+02	-1.25281e+02	-1.82617e+02	-5.40153e+01	-6.01161e+01	-1.56707e+02	-1.61923e+02	-3.23848e+01	-6.96501e+01	-1.72081e+02	-1.72121e+02	-1.82310e+02	-1.75613e+02	-4.80221e+01	-1.49421e+02	
Factor	1.75935e-05	1.27067e-04	3.90881e-05	1.69756e-01	1.41494e-06	1.43045e-06	1.51472e-01	4.16107e-02	1.27005e-06	1.46452e-06	7.00974e-02	2.89022e-02	2.93523e-02	6.32495e-03	1.47419e-06	9.43134e-03	9.40978e-06	1.53733e-05	4.30930e-06	8.73817e-02	1.59016e-07	1.71387e-07	7.34779e-02	2.15944e-02	1.53695e-07	1.73083e-07	3.51862e-02	1.45699e-02	1.52597e-02	3.31565e-03	1.61020e-07	4.78232e-03	X	X	X	X	X	X	X	X	X	X	X	X	X	X	X	X	



#DISTANCE SETTINGS
A = Detector Channel
A-1	A-2	A-3	A-4	A-5	A-6	A-7	A-8	A-9	A-10	A-11	A-12	A-13	A-14	A-15	A-16	

1.0000e+01	1.0000e+01	1.0000e+01	1.4500e+00	1.0000e+01	1.0000e+01	1.5100e+00	1.9500e+00	1.0000e+01	1.0000e+01	2.0100e+00	2.5000e+00	2.4400e+00	2.9500e+00	1.0000e+01	3.0100e+00	

B = Detector Channel
B-1	B-2	B-3	B-4	B-5	B-6	B-7	B-8	B-9	B-10	B-11	B-12	B-13	B-14	B-15	B-16	

1.0000e+01	1.0000e+01	1.0000e+01	1.4500e+00	1.0000e+01	1.0000e+01	1.5100e+00	1.9500e+00	1.0000e+01	1.0000e+01	2.0100e+00	2.5000e+00	2.4400e+00	2.9500e+00	1.0000e+01	3.0100e+00	




#DATA BEGINS
time	group	step	mark	flag	A-AC1	A-AC2	A-AC3	A-AC4	A-AC5	A-AC6	A-AC7	A-AC8	A-AC9	A-AC10	A-AC11	A-AC12	A-AC13	A-AC14	A-AC15	A-AC16	A-DC1	A-DC2	A-DC3	A-DC4	A-DC5	A-DC6	A-DC7	A-DC8	A-DC9	A-DC10	A-DC11	A-DC12	A-DC13	A-DC14	A-DC15	A-DC16	A-Ph1	A-Ph2	A-Ph3	A-Ph4	A-Ph5	A-Ph6	A-Ph7	A-Ph8	A-Ph9	A-Ph10	A-Ph11	A-Ph12	A-Ph13	A-Ph14	A-Ph15	A-Ph16	B-AC1	B-AC2	B-AC3	B-AC4	B-AC5	B-AC6	B-AC7	B-AC8	B-AC9	B-AC10	B-AC11	B-AC12	B-AC13	B-AC14	B-AC15	B-AC16	B-DC1	B-DC2	B-DC3	B-DC4	B-DC5	B-DC6	B-DC7	B-DC8	B-DC9	B-DC10	B-DC11	B-DC12	B-DC13	B-DC14	B-DC15	B-DC16	B-Ph1	B-Ph2	B-Ph3	B-Ph4	B-Ph5	B-Ph6	B-Ph7	B-Ph8	B-Ph9	B-Ph10	B-Ph11	B-Ph12	B-Ph13	B-Ph14	B-Ph15	B-Ph16	aux-1	digaux	

1425.733	1	1	0	512	0.12674	0.13687	0.19482	0.31568	0.19954	0.09298	0.07336	0.30881	0.25323	0.060608	0.28156	0.051921	0.10996	0.071146	0.082015	0.081043	-2.7917	-3.9917	-3.9833	-3.2854	-4.2063	-3.8146	-3.6167	-4.2229	-3.3458	-3.8875	-4.0292	-3.3208	-4.0833	-3.9542	-3.3958	-4.2875	73.706	130.439	-100.720	140.973	121.672	-140.635	-80.414	-151.130	95.187	95.482	188.180	202.219	-107.083	191.948	-108.779	90.815	0.000338	0.00049374	0.00025657	1179.4	2.1001e-05	5.9262e-06	1106.8	282.43	1.647e-05	1.7946e-06	279.25	85.507	72.954	28.79	1.3432e-05	37.138	0.0068539	0.010904	0.0030595	1084.8	0.00011346	0.00012098	1013.3	262.09	0.00011124	0.00012479	267.81	84.282	74.422	27.768	0.00011513	35.864	-47.342	-21.768	-73.864	-140.675	-24.206	-122.935	-141.848	-136.040	2.931	150.548	-138.042	-133.867	-131.720	-127.541	58.681	-131.058	-8191	255	
1425.829	1	1	0	0	0.071514	0.095423	0.25517	0.13135	0.13944	0.15353	0.16896	0.034544	0.19122	0.067524	0.25268	0.31391	0.12882	0.28386	0.18942	0.16754	-3.0354	-3.7521	-4.2396	-3.4167	-4.2625	-3.7417	-3.5083	-4.3313	-3.5083	-3.7208	-4.3458	-3.3812	-4.1792	-3.975	-3.2021	-4.3313	137.150	140.777	194.042	202.682	-127.485	165.736	141.881	196.587	117.819	-20.352	143.064	161.962	-120.896	149.399	111.615	81.467	0.00038944	0.001249	0.00028014	1177.4	8.1853e-06	4.2327e-06	1110.7	283.93	3.719e-06	7.875e-06	280.33	84.977	72.435	28.849	2.5182e-06	37.584	0.0068617	0.011047	0.0030771	1085.3	0.0001139	0.00012261	1013.9	263.19	0.00010974	0.00012246	269.57	84.517	74.428	27.837	0.0001158	36.188	-56.128	-49.470	-94.336	-141.029	-76.258	-30.277	-141.959	-136.225	27.049	63.574	-137.718	-133.950	-131.353	-127.342	6.008	-130.718	-8191	255	
1425.925	1	1	0	0	0.14582	0.14286	0.10264	0.38055	0.04523	0.16112	0.28583	0.21937	0.11394	0.060656	0.16225	0.1107	0.17185	0.11953	0.18558	0.13349	-3.1667	-3.4042	-4.0938	-3.35	-4.0396	-3.9729	-3.4104	-4.2125	-3.3896	-3.5875	-4.4667	-3.3521	-4.0167	-4.1687	-3.4313	-4.2917	-48.985	181.378	59.679	172.473	-103.119	-6.597	169.577	177.327	197.547	-127.895	185.320	167.033	-144.508	140.156	-35.137	150.753	0.00043502	0.0012731	0.00029891	1177.9	1.1291e-05	6.5258e-06	1109.7	287.26	1.2656e-05	1.8625e-05	283.83	85.766	72.449	29.176	8.0069e-06	37.852	0.0068717	0.011084	0.0030677	1083.8	0.00011352	0.00012272	1017	264.44	0.00011043	0.00012428	270.66	84.827	74.876	28.086	0.00011565	36.534	-55.367	10.751	-73.057	-140.836	88.158	59.618	-142.116	-136.140	91.588	-27.144	-137.772	-133.660	-131.320	-127.778	-61.542	-130.619	-8191	255	
1426.022	1	1	0	0	0.013905	0.27913	0.22797	0.40484	0.11332	0.077462	0.22841	0.25913	0.24303	0.1224	0.16986	0.1077	0.15261	0.27143	0.21609	0.094698	-3.2812	-3.4292	-4.1104	-3.4208	-3.7042	-4.1188	-3.5333	-4.3521	-3.8042	-3.425	-4.2979	-3.4813	-3.7979	-4.3313	-3.2146	-4.2229	116.204	120.423	44.567	151.557	31.630	-66.452	87.315	144.680	5.795	-100.718	84.083	-102.851	62.195	198.856	201.300	-9.496	0.00046261	0.00059233	0.00024072	1175.8	2.1981e-05	7.6264e-06	1113	285.57	4.9722e-06	5.905e-06	279.65	84.328	72.826	29.18	9.6142e-06	37.111	0.0068854	0.01097	0.0030848	1084.1	0.00011351	0.00012052	1018.2	263.86	0.00011037	0.00012504	269.28	84.519	74.409	28.007	0.00011553	36.056	-68.717	-75.631	-18.233	-140.920	-19.844	-69.445	-142.088	-136.072	-3.742	-119.860	-138.339	-133.664	-132.174	-127.182	34.008	-130.489	-8191	255	
1426.118	1	1	0	0	0.13073	0.15732	0.073583	0.30156	0.20481	0.30451	0.085468	0.25443	0.026041	0.17189	0.23699	0.22021	0.265	0.10317	0.044749	0.095927	-3.6021	-3.3146	-4.3354	-3.5083	-3.7792	-4.1167	-3.4521	-4.2063	-4.0354	-3.3708	-4.3479	-3.5917	-3.6542	-4.3938	-3.2875	-4.0979	203.336	119.159	32.326	134.954	178.087	-15.307	128.587	166.539	113.155	140.667	-141.407	-125.074	197.638	-125.421	-13.285	159.053	0.00020639	0.0010821	0.00022725	1177.9	1.6312e-05	1.7789e-05	1107.7	283.95	1.5017e-05	5.9177e-06	278.99	84.913	73.32	29.017	4.8287e-06	37.14	0.0069556	0.011248	0.0031385	1081	0.00011665	0.00012578	1011.9	263.42	0.00011211	0.0001277	268.18	84.612	74.759	27.879	0.00011804	36.031	-77.416	-85.456	165.534	-140.954	9.527	-14.131	-141.998	-135.914	-44.547	68.097	-138.077	-133.400	-131.481	-127.509	17.977	-130.625	-8191	255	
1426.238	1	1	0	0	0.18464	0.31082	0.075264	0.20898	0.23235	0.24718	0.38122	0.30618	0.057712	0.057237	0.040904	0.18784	0.077935	0.078644	0.15351	0.13973	-3.7083	-3.4458	-4.2063	-3.9146	-3.5625	-4.1625	-3.5708	-3.9771	-4.0292	-3.2271	-4.3979	-3.6958	-3.4271	-4.2812	-3.225	-3.9979	170.466	198.825	-30.047	167.218	-3.628	39.393	126.990	110.442	144.322	-112.532	-87.579	-95.122	-69.502	138.069	173.756	85.540	0.00047563	0.0018386	7.4076e-05	1170.7	1.6999e-05	4.0793e-06	1109.4	284.85	2.6744e-06	1.8498e-05	279.43	85.271	73.047	29.057	2.7444e-06	37.344	0.0070311	0.011144	0.0031259	1081.8	0.00011565	0.00012454	1013.1	264.16	0.00011037	0.00012554	269.84	84.776	74.756	28.012	0.00011641	36.26	-58.386	-123.211	-40.388	-140.898	-67.562	16.850	-142.045	-136.056	189.008	-48.342	-137.657	-133.419	-131.549	-127.483	-147.582	-130.174	-8191	255	
1426.335	1	1	0	0	0.30562	0.064903	0.046078	0.0062888	0.076158	0.19808	0.40617	0.31284	0.11923	0.19312	0.11642	0.10027	0.27524	0.30647	0.22431	0.12923	-3.8542	-3.3396	-4.15	-4.025	-3.3542	-4.3042	-3.5417	-3.925	-4.2021	-3.2104	-4.2375	-3.9354	-3.375	-4.3833	-3.5479	-3.8063	170.653	-67.285	-54.044	-148.031	42.853	177.834	-138.289	179.058	-67.919	129.867	125.959	147.985	-9.780	-99.531	184.737	197.990	0.00035323	0.00041214	0.00018754	1176.4	9.4723e-06	2.1343e-06	1110.3	287.12	3.2519e-06	4.5613e-06	280.51	86.086	72.818	29.583	1.8086e-05	37.925	0.0069052	0.011182	0.0031111	1086.8	0.00011588	0.00012557	1016	264.63	0.00011151	0.0001249	270.4	85.507	74.891	28.224	0.00011639	36.651	-41.968	-104.661	180.684	-141.156	46.871	3.745	-141.950	-136.046	109.234	114.318	-137.819	-133.880	-131.254	-127.491	30.348	-130.131	-8191	255	
1426.429	1	1	0	0	0.052029	0.041077	0.12587	0.10245	0.16836	0.14708	0.30596	0.082881	0.12585	0.15853	0.066017	0.24903	0.23952	0.29699	0.08857	0.28834	-3.7646	-3.3354	-4.0958	-4.0479	-3.3083	-4.2167	-3.8125	-3.6958	-4.2937	-3.3708	-4.1917	-4.0938	-3.4688	-4.4104	-3.5938	-3.8063	195.101	38.914	-24.969	203.755	-91.882	135.732	134.768	8.001	48.734	3.317	-36.376	87.324	132.737	-83.821	-51.234	-105.833	0.00024613	0.0012839	0.00024787	1178.5	7.4333e-06	2.5136e-06	1119.1	286.51	7.1577e-06	8.011e-06	280.39	85.615	73.226	29.341	2.6699e-06	37.308	0.0069823	0.011099	0.0031203	1088.1	0.00011444	0.00012244	1021.1	264.88	0.00011171	0.0001276	270.51	85.502	75.351	28.133	0.00011827	36.267	-68.155	-44.769	-120.864	-140.781	9.690	-126.835	-141.850	-136.203	-6.513	-10.768	-137.733	-134.139	-131.698	-127.125	-117.010	-130.421	-8191	255	
1426.502	1	1	0	0	0.2652	0.22796	0.0542	0.24184	0.17802	0.18767	0.33684	0.078894	0.061503	0.20172	0.068482	0.12494	0.16739	0.27302	0.18705	0.11597	-3.9313	-3.4771	-4.0833	-4.1625	-3.3896	-4.2625	-3.8458	-3.7188	-4.4167	-3.575	-3.8708	-4.1354	-3.2625	-4.425	-3.6	-3.4208	160.376	15.934	-103.785	161.533	82.882	-74.622	190.908	131.433	82.869	27.294	118.007	138.103	-152.918	-151.325	160.987	20.638	0.00059495	0.0016554	0.00023192	1180.6	1.2583e-05	2.1837e-05	1106.9	285.52	1.014e-05	9.9634e-06	280.8	84.768	73.326	29.216	1.9313e-05	37.373	0.0070955	0.011268	0.0031916	1088.1	0.00011758	0.00012711	1012.2	263.83	0.00011292	0.00012758	269.09	84.717	74.987	28.071	0.00011751	36.163	-61.827	-148.725	-9.879	-140.935	52.260	148.775	-141.864	-135.717	-56.553	-152.235	-137.806	-133.338	-131.303	-127.154	-84.079	-130.497	-8191	255	
1426.599	1	1	0	0	0.08613	0.25855	0.019395	0.36176	0.23204	0.17858	0.11529	0.21617	0.027373	0.12506	0.09727	0.21978	0.10902	0.18032	0.026153	0.15154	-3.975	-3.525	-3.5667	-4.2646	-3.3396	-4.1833	-3.9396	-3.6896	-4.1562	-3.45	-3.8125	-4.1542	-3.3354	-4.0667	-3.7417	-3.475	46.249	48.832	43.041	165.892	116.209	-103.640	172.295	144.704	78.412	64.159	109.954	-150.919	-152.816	166.997	201.851	16.915	0.00042331	0.00063997	0.00022751	1182.6	5.2924e-06	1.7314e-05	1102.7	285.68	5.3683e-06	7.4854e-06	278.5	85.303	73.017	29.476	8.6152e-06	37.579	0.0070049	0.011192	0.0031296	1085.6	0.00011495	0.0001239	1012.6	264.09	0.00011219	0.00012508	270.45	85.051	74.695	28.284	0.00011533	36.435	-55.157	-22.654	104.251	-141.551	-37.564	-33.297	-142.340	-136.666	79.945	-104.078	-137.947	-134.445	-131.871	-127.062	-77.515	-130.710	-8191	255	
1426.717	1	1	0	0	0.14815	0.1776	0.12775	0.24844	0.14662	0.15027	0.13889	0.17515	0.10798	0.39164	0.037582	0.081401	0.035366	0.074899	0.11587	0.10477	-3.8729	-3.3812	-3.6125	-4.4396	-3.3438	-3.8563	-4.0229	-3.3396	-4.1792	-3.5208	-3.5938	-4.2208	-3.2	-3.85	-3.9625	-3.2208	176.524	50.499	-24.437	146.310	-13.375	59.286	51.805	81.799	93.116	-0.652	119.090	106.728	199.784	82.886	67.239	-140.360	0.00042676	0.00016305	0.00031436	1185.1	4.0389e-06	5.3681e-06	1110.9	286.15	1.5478e-05	6.4704e-06	283.06	85.592	74.012	29.382	9.4193e-06	38.042	0.006966	0.011144	0.0031129	1090.6	0.00011624	0.00012502	1016.4	264.13	0.00011066	0.00012517	271.94	85.265	75.201	28.254	0.00011497	36.941	-44.765	-99.563	65.563	-141.183	-27.108	97.267	-141.927	-136.600	59.921	-62.370	-138.254	-133.238	-131.810	-127.418	79.286	-130.141	-8191	255	
1426.814	1	1	0	0	0.088906	0.17403	0.12866	0.35756	0.36492	0.12669	0.085293	0.30441	0.20192	0.023665	0.24042	0.07934	0.14873	0.12746	0.039087	0.17074	-3.8	-3.5417	-3.3646	-4.3354	-3.2167	-3.7729	-4.0583	-3.4458	-3.9979	-3.6396	-3.3979	-4.1687	-3.3292	-3.6792	-4.1917	-3.2167	-93.775	-44.739	14.992	-103.473	-146.081	139.342	115.827	135.636	-116.782	-76.699	174.272	189.135	-50.495	-110.218	-44.584	100.345	0.00017429	0.00031922	7.533e-05	1183.9	1.3998e-05	6.1415e-06	1114.2	286.27	7.1926e-06	2.0264e-05	282.5	86.291	73.284	29.202	5.2337e-06	37.496	0.0069667	0.011011	0.0031286	1090.6	0.00011512	0.00012267	1021.5	264.75	0.00011261	0.0001253	270.92	85.487	75.088	28.143	0.00011724	36.412	-45.816	-68.650	170.679	-141.119	2.732	-93.827	-142.034	-136.258	117.921	-78.131	-138.066	-133.770	-132.078	-127.548	88.759	-130.400	-8191	255	
1426.910	1	1	0	0	0.14054	0.22924	0.11472	0.2161	0.045661	0.15678	0.11988	0.083074	0.23875	0.14419	0.19444	0.16882	0.090293	0.19231	0.21125	0.19459	-3.6854	-3.7938	-3.325	-4.2375	-3.4792	-3.5833	-4.2438	-3.4708	-3.9437	-3.8292	-3.4437	-4.1958	-3.5875	-3.5708	-4.2312	-3.3958	39.718	-126.473	54.353	198.528	128.790	2.559	-96.011	147.882	-99.054	25.358	-37.537	187.682	144.695	170.401	47.338	38.898	0.00025979	0.00036291	0.00031465	1179.6	1.6603e-05	1.245e-05	1105.9	284.46	1.0153e-05	5.6835e-06	279.07	84.953	73.457	29.224	7.8611e-06	37.307	0.007048	0.011391	0.0031896	1086.1	0.00011585	0.00012664	1011.5	263.42	0.0001131	0.00012651	268.85	84.785	75.056	28.107	0.00011895	36.339	-92.843	71.392	204.717	-141.124	-39.101	42.533	-142.159	-136.308	-129.041	28.721	-138.165	-133.420	-132.093	-127.681	-142.804	-130.855	-8191	255	
1427.030	1	1	0	0	0.041767	0.1492	0.19902	0.13726	0.11565	0.088911	0.14701	0.38399	0.19743	0.026906	0.15367	0.16264	0.12026	0.16128	0.14032	0.1728	-3.5854	-3.9229	-3.3042	-4.4271	-3.6813	-3.5396	-4.5646	-3.4062	-3.8833	-4.1021	-3.525	-4.0896	-3.8146	-3.6063	-4.1583	-3.3937	138.883	-150.545	-41.479	197.186	-47.125	-26.235	-138.456	118.275	-111.364	173.715	193.847	106.689	185.746	149.280	87.000	46.917	0.00036799	0.00045543	0.00047445	1180	9.6548e-06	6.3518e-06	1107.7	285.01	1.0748e-05	3.3196e-06	279.43	85.683	72.754	29.609	9.86e-06	37.858	0.007093	0.011316	0.0031824	1087.1	0.00011667	0.000126	1015.7	264.15	0.00011284	0.00012792	270.08	85.25	75.192	28.293	0.00012007	36.54	-70.595	-36.378	-110.648	-141.325	18.711	137.969	-142.121	-136.137	56.477	113.714	-138.142	-133.654	-131.940	-127.511	-150.677	-130.798	-8191	255	
1427.102	1	1	0	0	0.31998	0.05677	0.12832	0.15379	0.037231	0.1646	0.12208	0.2338	0.12664	0.1259	0.18029	0.069719	0.18325	0.10963	0.21889	0.11781	-3.4104	-4.0708	-3.1312	-4.1583	-3.7313	-3.4146	-4.4396	-3.4521	-3.7042	-4.2875	-3.2604	-4.2625	-3.8063	-3.3708	-4.2208	-3.6333	68.980	97.542	138.847	-142.665	-114.962	100.724	6.707	142.390	165.210	-115.937	125.928	41.028	-148.868	-60.497	127.318	42.405	0.00045926	0.00031029	0.00050206	1190.1	7.7624e-06	1.7913e-05	1111.1	287.05	1.325e-05	1.0244e-05	282.99	86.726	73.436	29.605	6.1625e-06	38.086	0.0070393	0.011343	0.0031859	1090.3	0.00011743	0.00012638	1019.8	265.4	0.00011332	0.00012811	271.96	85.938	75.376	28.416	0.00011901	36.946	-61.912	-39.958	-132.952	-140.781	-13.009	63.981	-142.149	-136.259	15.451	-106.133	-138.351	-133.211	-131.936	-127.402	60.404	-130.395	-8191	255	
1427.198	1	1	0	0	0.14418	0.23903	0.12957	0.35831	0.35982	0.23654	0.31294	0.13038	0.15753	0.27076	0.11332	0.073667	0.085359	0.2433	0.085053	0.19852	-3.3729	-4.1958	-3.2938	-4.0875	-3.9	-3.5083	-4.5437	-3.6437	-3.5	-4.2208	-3.5104	-4.0062	-4.0188	-3.2083	-4.1917	-3.5542	131.148	60.484	135.336	188.259	185.801	178.143	136.176	157.832	-118.389	-127.882	-136.876	-137.998	-77.138	157.729	38.231	179.790	0.00041052	0.001397	0.00030521	1181.2	7.3526e-06	1.0051e-05	1115.1	287.09	8.0332e-06	3.1931e-06	280.27	86.221	72.832	29.381	6.1666e-06	37.242	0.0071215	0.01139	0.0032373	1092.6	0.00011859	0.00012872	1022.1	265.82	0.00011728	0.00013006	271.27	85.706	75.324	28.329	0.00012326	36.245	-51.008	-75.631	-137.701	-140.810	4.235	44.778	-142.285	-136.453	-87.023	68.149	-137.865	-133.461	-131.644	-127.493	-99.656	-130.411	-8191	255	
1427.319	1	1	0	0	0.24571	0.17815	0.055087	0.10405	0.30545	0.16733	0.16858	0.31628	0.21809	0.2192	0.07363	0.23455	0.12501	0.1407	0.1787	0.18317	-3.1208	-4.3187	-3.2771	-4.025	-4.0687	-3.2313	-4.2708	-3.7833	-3.5	-4.3854	-3.5083	-3.8917	-4.0375	-3.3146	-4.0521	-3.9938	133.906	-78.975	129.017	73.140	35.842	-9.227	144.565	121.108	41.883	179.526	194.132	-89.361	170.922	85.445	94.005	137.565	0.0004141	0.0011003	0.00024027	1186.8	1.1816e-05	1.4269e-05	1105.4	285.25	1.1842e-05	8.9301e-06	276.26	85.277	73.57	29.356	1.2667e-05	37.414	0.0072682	0.011771	0.0032911	1090.1	0.00012283	0.00013218	1015.5	264.38	0.00011808	0.00013303	269.1	85.385	75.825	28.304	0.00012281	36.493	-51.999	-11.961	-64.256	-141.116	-37.477	-67.571	-141.816	-136.513	9.499	53.489	-138.082	-134.007	-131.923	-127.389	-26.267	-131.198	-8191	255	
1427.415	1	1	0	0	0.14266	0.048004	0.19565	0.16095	0.13017	0.26774	0.23482	0.39182	0.30004	0.21509	0.21632	0.25401	0.23516	0.011474	0.031539	0.082081	-3.0042	-4.1396	-3.5625	-3.9437	-4.0646	-3.3854	-4.1042	-3.9562	-3.3896	-4.1562	-3.3896	-3.7	-4.1771	-3.1646	-4.0479	-3.9521	49.368	11.812	192.770	149.419	-153.296	-67.834	143.456	140.393	-151.594	51.152	-131.712	-113.744	161.571	-122.939	17.240	112.482	0.00039883	0.00099551	0.00035439	1180.5	5.3264e-06	9.0398e-06	1108.9	284.45	6.6625e-06	6.3245e-06	283.67	85.014	73.731	29.415	1.4247e-05	37.785	0.0074048	0.011805	0.0032924	1090.2	0.00012048	0.00013009	1018	264.74	0.000117	0.00013178	271.04	85.479	75.807	28.421	0.00012264	36.754	-70.236	148.665	-11.494	-140.872	125.521	204.308	-142.033	-136.522	-52.877	-119.934	-137.984	-133.530	-131.951	-127.615	-30.360	-131.133	-8191	255	
1427.511	1	1	0	0	0.068659	0.15833	0.22561	0.15909	0.23819	0.29881	0.06	0.03764	0.052166	0.30524	0.1568	0.29765	0.23144	0.23691	0.20423	0.15071	-2.9313	-4.1646	-3.5687	-3.7042	-4.1	-3.4313	-3.9604	-3.875	-3.2042	-4.3021	-3.375	-3.4271	-4.2312	-3.3875	-3.8063	-4.0146	-113.952	-108.057	67.463	145.879	100.380	131.856	-129.050	78.756	34.385	173.127	180.665	-117.686	122.718	-68.001	-134.461	185.392	0.00042153	0.00044319	0.00033264	1182.6	4.3564e-06	1.3771e-05	1108.1	286.95	1.6567e-05	6.2601e-06	279.1	85.45	73.442	29.529	1.9127e-05	37.932	0.0073282	0.011693	0.0033037	1094	0.00012107	0.00013088	1018.6	265.04	0.00011508	0.00012921	270.75	85.891	75.884	28.536	0.00012279	36.912	-59.800	-35.742	-84.998	-141.111	-86.321	5.732	-141.846	-136.215	31.023	-11.014	-138.018	-133.027	-131.861	-127.531	-68.432	-130.295	-8191	255	
1427.630	1	1	0	0	0.034637	0.19736	0.10023	0.29507	0.056052	0.1038	0.013428	0.35284	0.20347	0.052097	0.34951	0.15776	0.081729	0.056414	0.30325	0.16006	-2.9958	-4.1417	-3.475	-3.525	-4.1958	-3.2083	-4.0354	-4.125	-3.3417	-4.1875	-3.8979	-3.4917	-4.3146	-3.325	-3.9729	-4.2562	-66.981	38.972	201.274	118.614	204.701	-142.209	10.296	116.917	-59.759	-136.957	168.144	153.520	112.095	171.898	133.970	118.028	0.00050772	0.0016809	0.00021818	1184.6	1.5913e-05	6.8881e-06	1107.6	287.97	4.5099e-06	5.9417e-06	278.98	85.647	72.698	29.434	1.1768e-05	36.849	0.0072957	0.011669	0.0032797	1095.9	0.00012177	0.00013088	1018.4	265.74	0.000117	0.00013362	269.63	85.893	75.609	28.405	0.0001238	36.284	-79.894	51.669	-40.063	-140.263	-38.351	-1.687	-141.806	-136.747	200.077	59.731	-137.915	-133.500	-131.618	-127.743	90.954	-130.826	-8191	255	
1427.726	1	1	0	0	0.14925	0.071618	0.1566	0.10801	0.057811	0.12776	0.24875	0.1228	0.12441	0.28421	0.10847	0.13611	0.078866	0.30681	0.18485	0.14472	-2.9562	-3.9958	-3.9104	-3.4958	-4.1542	-3.4313	-3.875	-4.1646	-3.2396	-4.0979	-3.9562	-3.4167	-4.2458	-3.6167	-3.7396	-4.3187	141.722	-115.397	106.678	73.056	49.716	164.291	174.774	195.943	63.600	-100.584	125.362	135.993	-32.026	191.581	129.476	111.291	0.00032496	0.0015177	0.0004165	1187.6	1.5001e-05	1.8124e-06	1097.3	285.11	1.3432e-05	1.9167e-05	278.4	84.425	74.23	29.392	1.2504e-06	37.556	0.007435	0.011829	0.0033194	1093.9	0.00012174	0.00013027	1012.7	264.59	0.00011893	0.00013511	268.26	84.834	75.807	28.267	0.0001212	36.412	-63.538	162.406	2.405	-141.031	18.620	-100.436	-142.063	-136.362	-2.515	101.955	-137.702	-133.715	-131.683	-127.879	80.602	-130.578	-8191	255	
1427.798	1	1	0	0	0.20035	0.12293	0.23973	0.17915	0.090663	0.25097	0.14003	0.17594	0.24066	0.18938	0.3465	0.17436	0.19674	0.046341	0.12313	0.036583	-2.9083	-3.975	-3.9562	-3.3312	-4.2458	-3.6417	-3.6813	-4.2854	-3.3937	-3.8917	-3.9437	-3.2333	-4.1625	-3.8958	-3.3604	-4.2833	-145.382	0.177	154.048	148.258	-131.973	-28.018	195.139	186.221	51.805	135.658	112.439	185.227	195.023	-40.911	189.581	-153.067	0.00048162	0.00093976	0.00038534	1187.2	5.3449e-06	7.3101e-06	1108.6	285.71	1.1261e-05	7.8857e-06	279.48	85.758	72.898	29.515	1.9872e-05	37.911	0.0072536	0.011665	0.0032692	1093.8	0.00012046	0.00012976	1018.7	264.71	0.00011517	0.00012849	269.63	85.281	75.565	28.36	0.00012001	36.597	-53.424	5.366	-80.980	-141.161	195.125	-44.532	-141.846	-136.339	-48.436	-107.165	-137.850	-133.665	-131.851	-127.559	-16.260	-130.539	-8191	255	
1427.894	1	1	0	0	0.16781	0.20331	0.084417	0.26538	0.14827	0.15203	0.27075	0.20522	0.26259	0.14493	0.25424	0.32123	0.18619	0.11329	0.17988	0.29589	-3.1312	-3.7854	-4.0479	-3.0958	-4.1687	-3.8187	-3.4688	-4.0958	-3.3187	-3.7083	-4.3688	-3.2604	-4.2312	-3.7333	-3.4146	-4.2812	111.655	-33.138	103.021	170.720	73.203	-24.968	118.770	100.724	-44.638	46.966	200.627	-97.873	129.107	78.802	89.614	119.223	0.00049482	0.00024154	0.00027215	1189.6	1.1326e-05	8.3836e-06	1111.1	286.05	1.6955e-05	2.1028e-05	279.47	86.231	73.876	29.651	5.0462e-06	37.843	0.0071779	0.011419	0.003196	1096.7	0.00011752	0.0001266	1018.6	265.25	0.00011428	0.00012946	269.87	85.78	75.617	28.498	0.00011837	36.733	-69.639	-7.543	-35.242	-141.076	-74.534	177.157	-141.998	-136.177	-86.311	3.469	-138.005	-134.003	-131.866	-127.719	150.981	-130.536	-8191	255	
1428.015	1	1	0	0	0.1692	0.11335	0.1565	0.11311	0.17553	0.30974	0.27977	0.14028	0.15057	0.1271	0.041465	0.1488	0.069545	0.075301	0.20006	0.16916	-3.1958	-3.6229	-4.1917	-3.45	-4.0625	-3.7625	-3.4771	-4.325	-3.5375	-3.5396	-4.1771	-3.45	-3.9125	-4	-3.2062	-4.1729	163.249	-33.659	126.804	122.793	204.041	-55.642	192.779	-146.766	164.600	25.088	-87.387	71.558	-81.737	-117.589	54.700	-106.473	0.00030612	0.0011387	0.00029037	1190.1	2.7299e-06	6.4821e-06	1111	286.14	1.1912e-05	1.0871e-05	277.48	84.615	73.417	29.265	1.5951e-05	37.369	0.00705	0.011325	0.0031642	1097.3	0.00011759	0.00012686	1017.7	265.1	0.00011415	0.00012907	268.13	84.719	75.776	28.196	0.00012049	36.382	-35.971	-40.181	-100.395	-140.837	-89.201	162.100	-142.075	-136.345	29.506	122.797	-137.978	-133.771	-131.845	-127.740	110.016	-130.640	-8191	255	
1428.111	1	1	0	0	0.16574	0.16419	0.14315	0.19523	0.098804	0.17162	0.17546	0.27798	0.20248	0.23566	0.16241	0.16145	0.20623	0.24198	0.088898	0.023466	-3.1312	-3.6125	-4.1604	-3.3563	-3.9083	-4.0021	-3.2833	-4.3083	-3.4917	-3.4437	-4.3542	-3.3521	-3.8708	-4.3187	-3.2604	-4	34.383	190.203	-128.880	138.213	99.620	197.376	167.827	130.350	22.032	-141.322	64.019	-66.919	-150.499	126.316	128.465	-70.338	0.00037014	0.00072791	0.00045741	1180.1	7.6458e-06	1.3047e-05	1110.9	286	4.3083e-06	8.3945e-06	277.9	84.549	73.078	29.522	9.1042e-06	37.677	0.0071581	0.011643	0.0032808	1091.4	0.00011993	0.00012864	1013.9	265.17	0.00011497	0.00013017	269.34	84.694	75.63	28.344	0.0001208	36.497	-51.114	183.071	-41.578	-140.859	137.795	18.180	-141.851	-136.058	190.955	49.886	-138.166	-133.448	-131.657	-127.839	22.429	-130.468	-8191	255	
1428.207	1	1	0	0	0.15277	0.23915	0.15125	0.43901	0.11948	0.12684	0.15384	0.30973	0.0916	0.044625	0.1064	0.17857	0.22148	0.052933	0.22073	0.13988	-3.4625	-3.3333	-4.3292	-3.4854	-3.6333	-4.2333	-3.4771	-4.1792	-3.7375	-3.4375	-4.2771	-3.4583	-3.5771	-4.1521	-3.3312	-3.9875	-107.822	156.288	-77.171	139.477	151.851	-126.843	168.743	118.325	96.716	-43.679	50.169	-141.095	-129.135	84.253	2.038	188.949	0.00045649	0.00014031	0.00051097	1187.3	1.2823e-05	1.4822e-05	1104.8	286.01	1.3564e-05	1.9831e-06	279.93	85.191	74.428	29.336	4.9818e-06	37.593	0.0071907	0.011566	0.003264	1096.3	0.00011964	0.00012916	1016.6	265.65	0.00011587	0.00013234	270	85.103	75.97	28.42	0.00012102	36.591	-60.243	107.455	-11.447	-140.998	-63.374	-111.547	-141.672	-136.227	5.671	-87.206	-137.954	-134.132	-131.909	-127.867	88.984	-130.593	-8191	255	
1428.303	1	1	0	0	0.19778	0.1236	0.083418	0.3594	0.11619	0.079193	0.11403	0.19535	0.22799	0.1978	0.062319	0.1574	0.29665	0.22516	0.22844	0.30105	-3.4437	-3.2646	-4.2271	-3.5396	-3.5396	-4.1479	-3.3688	-3.8375	-3.9542	-3.1333	-4.2729	-3.5375	-3.4667	-4.4417	-3.1625	-3.95	-150.624	105.418	115.399	174.908	-51.128	-44.599	49.882	190.303	168.684	-19.043	68.666	178.213	1.479	195.410	31.726	183.183	0.00032808	0.00026132	0.00011089	1184.8	1.2126e-05	1.2017e-05	1106.5	286.64	1.659e-05	1.2916e-05	282.5	85.465	74.106	29.677	6.7638e-06	37.511	0.0071911	0.011522	0.0032046	1094.7	0.00011839	0.00012762	1018.1	265.81	0.00011557	0.00012976	271.74	85.752	75.817	28.611	0.00011977	36.819	-34.601	-73.729	69.752	-140.896	-49.684	-70.471	-142.111	-136.063	1.107	-21.623	-138.050	-132.937	-131.433	-127.623	-16.126	-130.160	-8191	255	
1428.399	1	1	0	0	0.19807	0.13554	0.24222	0.20372	0.10401	0.11857	0.25709	0.2589	0.16154	0.32887	0.25872	0.1644	0.22782	0.060342	0.096148	0.25928	-3.7208	-3.275	-4.3458	-3.7375	-3.4979	-4.2479	-3.475	-3.9271	-4.2854	-3.2542	-4.1833	-3.7188	-3.4083	-4.2583	-3.4917	-3.625	183.506	136.403	6.887	140.837	-94.767	51.160	90.810	130.879	54.781	-61.441	123.186	-104.498	117.172	-105.701	75.084	151.188	0.00025387	0.00054384	0.00024901	1195	9.4564e-06	5.3958e-06	1104.6	285.41	6.4652e-06	1.2572e-05	279.47	84.904	73.787	29.606	7.336e-06	37.377	0.0071798	0.011583	0.0032532	1098.6	0.0001206	0.00012957	1016.2	265.25	0.00011652	0.00013059	268.65	85.141	75.764	28.425	0.00012277	36.266	-51.481	1.725	-68.453	-140.975	-73.162	164.896	-141.599	-136.021	195.336	90.978	-137.934	-133.509	-131.971	-127.170	-58.621	-130.301	-8191	255	
1428.495	1	1	0	0	0.22412	0.10822	0.15724	0.023161	0.20176	0.11559	0.069572	0.19738	0.11988	0.044213	0.11525	0.12551	0.098158	0.1226	0.1473	0.054054	-3.8438	-3.3063	-4.1125	-3.9604	-3.3333	-4.1188	-3.6688	-3.8292	-4.0979	-3.2562	-4.2438	-3.9771	-3.075	-4.3833	-3.6604	-3.6979	64.415	70.200	14.713	155.558	35.621	76.813	-150.879	177.574	190.669	-104.715	-145.702	-84.252	-74.689	162.665	136.027	171.230	0.00032533	0.00084176	0.00011225	1187.8	2.2049e-06	1.3216e-05	1104.7	288.48	8.365e-06	3.643e-06	277.47	85.53	73.621	29.421	1.4551e-05	37.357	0.0073131	0.011537	0.0032655	1096.1	0.00012239	0.00013048	1011.4	265.52	0.00011714	0.00013128	269.01	85.05	75.74	28.57	0.00012323	36.406	-58.356	-41.402	-64.646	-140.851	-29.364	119.597	-141.741	-136.138	75.035	19.925	-137.575	-133.531	-131.943	-127.305	-57.453	-130.608	-8191	255	
1428.591	1	1	0	0	0.041633	0.099271	0.14148	0.23309	0.17439	0.30626	0.10646	0.17026	0.16724	0.14864	0.04096	0.15564	0.21452	0.21896	0.22627	0.15325	-3.9562	-3.2812	-4.0208	-4.2042	-3.325	-4.2562	-3.8042	-3.5896	-4.3646	-3.2396	-3.9771	-3.9562	-3.3458	-4.3583	-3.6167	-3.4625	44.727	6.297	-7.435	-136.449	-49.241	135.519	152.042	197.403	-51.163	115.274	-69.042	203.220	200.995	178.511	-124.863	120.370	0.0003816	0.00094852	9.2412e-05	1184	1.4689e-05	1.5347e-05	1098.8	286.9	9.7855e-06	1.1408e-06	277.85	84.992	74.435	29.526	4.7547e-06	37.768	0.0074014	0.011679	0.0033037	1098.5	0.00012021	0.00012984	1013	266.11	0.00011612	0.0001322	268.98	85.354	76.156	28.578	0.00012216	36.574	-63.952	-104.521	97.484	-141.163	-65.824	-51.361	-141.968	-136.167	-9.954	94.374	-137.983	-133.635	-131.963	-127.315	-5.724	-130.576	-8191	255	
1428.710	1	1	0	0	0.16795	0.19487	0.022825	0.19018	0.29057	0.31437	0.11495	0.29217	0.051691	0.20004	0.10716	0.047668	0.11322	0.22446	0.14911	0.10164	-3.8125	-3.2125	-3.7542	-4.0771	-3.2979	-4.0917	-3.8708	-3.4437	-4.1062	-3.3125	-3.8375	-4.0854	-3.3333	-4.2396	-3.7708	-3.4479	152.114	-54.117	169.951	171.102	-100.389	35.532	-145.340	158.102	139.246	15.658	118.260	88.785	179.653	181.114	57.514	-27.810	0.00034851	0.0019265	0.0003939	1192.7	1.2173e-05	1.2513e-05	1113.3	287.53	1.0556e-05	5.6025e-06	281.58	85.8	74.114	30.015	2.4146e-06	38.076	0.0072517	0.011519	0.0032324	1100.3	0.00011946	0.00012971	1018.5	266.19	0.00011713	0.00012921	270.21	85.869	75.995	28.763	0.00012073	36.892	-44.557	-130.543	-120.889	-141.074	20.827	94.925	-141.924	-136.090	37.858	-32.673	-137.816	-133.324	-131.625	-127.499	12.696	-130.365	-8191	255	
1428.806	1	1	0	0	0.16391	0.17092	0.10469	0.1644	0.059186	0.021356	0.127	0.24844	0.076048	0.11778	0.23306	0.12943	0.19784	0.24524	0.050641	0.029577	-4.0021	-3.5083	-3.7229	-4.3208	-3.5375	-4.0396	-4.1125	-3.4771	-4.1958	-3.4792	-3.7625	-4.2708	-3.2562	-3.9792	-3.9604	-3.3229	-72.794	-121.518	-9.770	134.856	38.372	7.819	157.628	178.034	-48.568	193.783	141.889	186.823	-32.147	156.434	-150.998	58.584	0.00034916	0.0013703	0.00022785	1193.8	1.5902e-05	2.4127e-05	1104.6	285.24	4.1953e-06	8.5979e-06	277.35	85.527	73.7	29.593	1.9155e-05	37.234	0.0071795	0.011596	0.0032799	1099.4	0.00012088	0.00012968	1011.7	265.12	0.00011628	0.0001317	268.27	84.945	75.932	28.528	0.00012248	36.203	-46.338	204.105	-49.921	-140.823	-16.464	-83.690	-142.143	-136.033	-106.360	112.302	-137.587	-133.850	-131.764	-127.335	121.160	-130.286	-8191	255	
1428.903	1	1	0	0	0.12287	0.21618	0.12155	0.24732	0.14843	0.090789	0.29989	0.24583	0.12431	0.14741	0.21956	0.27216	0.21418	0.20402	0.19209	0.21528	-3.9021	-3.5917	-3.55	-4.3771	-3.2438	-3.9	-4.1146	-3.4458	-4.15	-3.7229	-3.7	-4.2646	-3.5146	-3.7542	-4.1375	-3.4125	-33.336	152.027	-148.711	148.056	188.412	187.967	100.473	190.288	-80.929	-83.706	173.144	-151.741	143.945	168.757	192.986	119.401	0.00021042	0.00043603	0.00025309	1186.8	1.4963e-05	1.5497e-05	1104.8	283.99	1.3127e-05	7.1731e-06	273.8	84.058	74.207	29.676	1.1116e-05	37.388	0.0071881	0.011626	0.0032572	1093.8	0.00011929	0.00012848	1010.4	264.64	0.00011595	0.00013185	266.17	84.298	75.822	28.568	0.00012063	36.309	-34.493	155.176	107.401	-141.038	-19.607	-9.728	-142.049	-136.086	-11.472	-86.993	-137.940	-133.519	-131.839	-127.081	-50.907	-130.628	-8191	255	
1428.999	1	1	0	0	0.32944	0.2806	0.23016	0.078275	0.22193	0.12531	0.4278	0.22528	0.26205	0.26231	0.16207	0.29601	0.061897	0.26905	0.088694	0.13858	-3.8187	-3.7	-3.4271	-4.2937	-3.3583	-3.6458	-4.3375	-3.4833	-4.0875	-3.9646	-3.3896	-4.3313	-3.5479	-3.6354	-4.3208	-3.3604	24.302	139.894	56.437	35.373	-59.169	179.064	153.916	-129.406	84.606	105.769	-31.324	-133.201	-50.481	-140.318	-20.335	108.431	0.00030044	0.00048073	0.00061119	1200.5	1.2911e-05	1.0078e-05	1111.3	287.9	1.9418e-05	5.4995e-06	276.99	85.19	74.22	29.831	6.2286e-06	37.637	0.0071751	0.011589	0.0032225	1102.8	0.00011937	0.00012829	1014.5	266.21	0.00011343	0.00012916	269.04	84.932	75.944	28.705	0.00011832	36.51	-71.804	-73.897	-35.837	-141.001	52.293	-85.177	-142.166	-136.313	4.170	76.783	-137.892	-133.318	-131.831	-127.384	26.001	-130.354	-8191	255	
1429.095	1	1	0	0	0.20897	0.07369	0.2953	0.042385	0.061447	0.20737	0.18976	0.16491	0.21305	0.15081	0.1019	0.15096	0.075868	0.15103	0.26354	0.10693	-3.7896	-3.7792	-3.4167	-4.2021	-3.6292	-3.4979	-4.2979	-3.2667	-3.8479	-3.9813	-3.3021	-4.1896	-3.5708	-3.6833	-4.3708	-3.4813	53.464	34.846	76.146	30.361	185.585	-34.881	86.081	148.292	20.815	131.442	-111.031	-115.683	180.413	-71.547	105.371	192.629	0.00047143	0.00030533	0.00024992	1191.8	1.0073e-05	4.7322e-06	1112.6	286.98	1.9534e-05	6.539e-06	282.37	85.496	74.38	29.935	5.7687e-06	37.736	0.0069928	0.011264	0.0031526	1101.1	0.00011617	0.00012513	1018.5	265.4	0.00011208	0.00012817	269.31	84.998	75.87	28.793	0.0001176	36.638	-57.547	174.182	90.274	-140.417	-68.758	86.620	-142.061	-136.207	-3.342	49.285	-137.771	-133.562	-131.505	-127.428	84.511	-130.465	-8191	255	
1429.191	1	1	0	0	0.11262	0.084989	0.22241	0.14577	0.10247	0.22548	0.06675	0.028082	0.070497	0.15549	0.20693	0.14969	0.15752	0.10026	0.089066	0.12801	-3.5563	-4.1375	-3.2062	-4.5062	-3.6208	-3.3771	-4.4083	-3.5938	-3.8417	-4.1875	-3.4521	-4.1208	-3.6958	-3.6063	-4.0771	-3.55	73.262	-56.243	61.220	166.987	-9.860	102.118	58.961	88.584	153.978	195.569	-145.279	182.559	-143.276	-140.930	-148.475	-7.663	0.00034491	0.00013025	0.00020937	1198	8.4482e-06	5.0167e-06	1101.2	287.65	1.7579e-05	7.903e-06	278.24	84.847	74.708	29.986	1.4181e-05	37.38	0.0070782	0.011323	0.0031914	1098.7	0.00011857	0.00012689	1013.2	265.42	0.00011566	0.00013046	267.09	84.737	76.23	28.754	0.00012286	36.354	-69.227	-51.112	-35.448	-140.635	-61.482	32.160	-141.749	-136.188	83.240	67.162	-137.892	-133.509	-131.699	-126.920	101.315	-130.291	-8191	255	
1429.312	1	1	0	0	0.16632	0.16713	0.13751	0.17663	0.10711	0.14083	0.061282	0.28283	0.28435	0.24566	0.37678	0.16005	0.13358	0.068565	0.21443	0.067417	-3.3563	-4.0875	-3.0563	-4.3771	-3.9667	-3.5417	-4.3354	-3.5938	-3.6396	-4.2854	-3.3417	-4.1333	-4.0917	-3.3917	-4.2167	-3.6312	-147.171	169.789	3.301	126.539	204.383	28.594	-2.277	173.001	-97.299	113.720	124.921	124.707	-103.011	-144.651	190.218	-37.386	0.00039135	0.0013188	0.00013281	1190.5	5.4582e-06	1.0376e-05	1103.2	284.91	1.75e-05	1.3487e-05	277.36	84.462	74.334	29.766	9.6303e-06	37.721	0.0073568	0.01182	0.0033089	1098.5	0.00012162	0.00013132	1014.2	264.81	0.0001185	0.00013284	268.38	84.805	76.028	28.706	0.00012332	36.463	-50.641	-5.374	9.231	-140.854	102.506	-86.900	-142.178	-136.287	85.586	60.934	-137.592	-133.432	-131.545	-127.371	-51.124	-130.758	-8191	255	
1429.408	1	1	0	0	0.12907	0.062461	0.12334	0.22261	0.040801	0.11339	0.1904	0.32571	0.24796	0.13821	0.1902	0.19674	0.11263	0.24728	0.12789	0.068855	-3.2562	-4.1521	-3.3292	-4.0104	-3.9417	-3.3063	-4.3854	-3.7021	-3.5229	-4.2375	-3.3896	-4.025	-4.1021	-3.3479	-4.1937	-3.7854	23.362	-137.001	-111.225	-144.357	183.598	159.827	18.302	142.381	197.383	75.247	-105.716	178.954	65.962	131.563	68.703	-143.912	0.00049386	0.00093089	0.00014332	1193.6	3.9749e-06	1.1212e-05	1112.4	284.66	5.4853e-06	9.2174e-06	276.78	85.221	74.803	30.062	4.5012e-06	37.846	0.0074043	0.011798	0.0032855	1102.2	0.00012021	0.00013124	1014.4	265.76	0.00011745	0.00013256	268.8	85.617	76.722	28.887	0.00012342	36.769	-74.320	-65.908	139.678	-140.656	-111.831	10.589	-141.555	-135.994	-33.114	-33.763	-137.769	-133.158	-131.801	-127.024	68.143	-130.650	-8191	255	
1429.502	1	1	0	0	0.12458	0.12921	0.093392	0.20585	0.022708	0.4619	0.34	0.19735	0.06658	0.11482	0.27749	0.10513	0.029694	0.13145	0.15571	0.22461	-3.0271	-4.2688	-3.375	-3.9062	-3.8312	-3.3583	-4.1458	-3.9562	-3.3854	-4.2708	-3.4208	-3.85	-4.2979	-3.4229	-4.0188	-3.8688	140.255	115.605	154.440	-137.106	-7.784	-43.366	148.017	161.299	-142.071	136.642	128.102	-110.122	27.028	-120.952	156.129	178.776	0.00037884	0.0016804	0.0003672	1201.2	1.6647e-05	1.5527e-05	1105	284.82	9.9893e-06	1.168e-05	279.44	85.42	74.788	30.262	8.1348e-06	38.047	0.0073924	0.011756	0.0033088	1108.4	0.00012153	0.00013257	1021	266.24	0.00011797	0.00013168	270.23	85.835	76.79	29.056	0.00012042	36.937	-51.074	-70.743	7.328	-140.684	16.096	61.892	-141.828	-135.891	100.135	-7.117	-138.240	-133.487	-131.686	-127.167	29.641	-130.353	-8191	255	
1429.598	1	1	0	0	0.13004	0.15183	0.19388	0.37201	0.10203	0.28347	0.16219	0.063211	0.035548	0.12734	0.25377	0.19472	0.097744	0.18723	0.26244	0.328	-2.875	-4.1896	-3.3375	-3.7667	-4.2729	-3.1625	-4.1896	-3.8812	-3.3937	-4.3833	-3.8021	-3.7188	-4.2	-3.3688	-3.9521	-4.1833	158.195	90.817	46.271	-134.104	155.516	177.478	149.471	137.928	187.903	-37.396	144.757	25.898	-118.136	-115.490	195.449	146.543	0.00029848	0.00064355	6.9788e-05	1191.3	1.0815e-05	1.563e-05	1104.7	286.86	7.394e-06	6.0262e-06	276.2	84.707	73.91	29.99	4.15e-06	37.53	0.0072377	0.011658	0.0032918	1103.4	0.00012249	0.00013106	1016.9	266.37	0.0001186	0.00013233	267.07	84.985	76.462	28.79	0.00012347	36.514	-60.676	-86.605	-43.104	-140.785	40.152	73.547	-141.825	-136.191	-64.421	35.675	-137.993	-133.356	-132.114	-126.718	200.000	-131.034	-8191	255	
1429.695	1	1	0	0	0.23927	0.21518	0.071367	0.23039	0.038563	0.16557	0.18588	0.15133	0.098325	0.093841	0.33017	0.36031	0.18951	0.051352	0.10835	0.39077	-2.7521	-4.2208	-3.5854	-3.6417	-4.25	-3.2583	-3.9896	-4.1146	-3.1562	-4.2125	-3.7521	-3.4437	-4.4521	-3.5292	-3.7313	-4.1771	-22.198	72.762	-53.403	142.504	-126.897	138.680	96.983	162.687	191.728	-74.194	156.095	83.856	129.476	-39.504	196.122	116.517	0.00034061	0.0011348	0.00032605	1195.1	1.6787e-06	8.3988e-06	1106	288.06	5.4294e-06	3.7019e-06	278.44	86.108	74.794	30.144	1.0841e-05	37.543	0.0073674	0.011797	0.0032838	1104.8	0.00011974	0.00012898	1016.1	266.95	0.00011629	0.00012975	268.39	85.144	76.769	28.956	0.00012052	36.559	-33.326	-47.573	-85.408	-141.119	57.905	-13.313	-142.041	-136.169	26.640	-144.545	-137.793	-133.815	-132.074	-127.386	13.444	-130.362	-8191	255	
1429.791	1	1	0	0	0.18039	0.080632	0.24733	0.21843	0.092945	0.079414	0.17347	0.17541	0.073913	0.091404	0.28152	0.17869	0.097399	0.2296	0.11058	0.17323	-2.8063	-4.1583	-3.6854	-3.6083	-4.3375	-3.3229	-3.9646	-4.1917	-3.3896	-4.0563	-3.8625	-3.4958	-4.225	-3.7729	-3.5396	-4.2188	204.204	195.538	133.557	179.944	113.281	-23.500	101.500	128.559	32.250	153.391	167.471	-152.304	118.827	156.261	-110.441	66.944	0.0003931	0.00056991	0.0003049	1203.7	6.358e-06	1.4374e-05	1115.9	288.28	1.138e-05	3.9106e-06	280.38	85.047	74.768	30.075	1.6006e-05	37.871	0.0071067	0.011556	0.0031844	1104.3	0.0001185	0.00012556	1017.3	266.77	0.00011346	0.00012893	269.09	85.141	76.376	28.912	0.00011933	36.757	-57.123	91.257	-120.421	-140.854	19.619	-23.935	-141.907	-136.058	-35.977	127.096	-138.341	-133.401	-131.666	-127.778	68.158	-130.481	-8191	255	
1429.887	1	1	0	0	0.24264	0.18459	0.1852	0.18073	0.208	0.17893	0.25605	0.24348	0.20721	0.3146	0.35246	0.21096	0.10805	0.10782	0.19587	0.12242	-2.9667	-4.0667	-3.8104	-3.5396	-4.2771	-3.7	-3.7542	-4.3854	-3.3667	-4.0417	-4.0896	-3.4604	-4.3042	-3.7708	-3.6792	-4.3979	107.080	127.132	66.008	143.787	-130.350	110.880	117.255	108.105	151.802	-119.626	151.228	-96.104	84.453	-61.792	-8.861	91.250	0.00039607	0.001035	0.00018318	1195.6	4.3539e-06	5.6841e-06	1116.8	288.87	9.4529e-06	1.8277e-05	281.87	86.361	75.263	30.221	1.6285e-05	38.146	0.0070033	0.01142	0.0031762	1104.8	0.00011664	0.00012565	1021.5	267.58	0.00011244	0.00012739	269.94	85.596	76.927	28.973	0.00011918	36.736	-54.139	-39.121	-127.138	-140.772	-0.375	158.206	-141.550	-136.076	71.284	-37.597	-138.052	-133.753	-131.529	-127.383	0.177	-130.600	-8191	255	
1429.983	1	1	0	0	0.061558	0.24965	0.096884	0.21461	0.13035	0.063588	0.50219	0.28271	0.2284	0.22088	0.25724	0.036987	0.33087	0.062326	0.09349	0.26609	-2.9854	-4.0146	-4.1896	-3.4896	-4.0708	-3.8479	-3.6604	-4.4542	-3.3354	-3.95	-4.1396	-3.2812	-4.1208	-3.6896	-3.3271	-4.2833	125.959	-86.271	68.586	166.603	157.343	-26.191	144.262	169.922	-71.169	147.585	120.095	-27.518	179.077	-100.806	-69.873	20.867	0.0004241	0.0015511	0.00017557	1190.7	8.2436e-06	8.6977e-06	1103.4	289.16	8.5017e-06	5.1275e-06	275.92	84.381	75.1	29.73	2.345e-06	37.224	0.0071166	0.011545	0.0032187	1100.5	0.00011979	0.00012927	1013.5	267.14	0.00011685	0.00013129	267.03	84.624	76.564	28.767	0.0001219	36.328	-53.256	-50.520	117.143	-140.752	-107.365	49.919	-141.562	-135.852	-5.370	44.415	-137.746	-133.647	-131.659	-127.647	25.057	-129.911	-8191	255	
1430.104	1	1	0	0	0.1294	0.20311	0.087235	0.24159	0.022668	0.098765	0.11814	0.22688	0.054969	0.078993	0.17142	0.24212	0.21976	0.24449	0.10487	0.15032	-2.9271	-3.6688	-4.0687	-3.4375	-4.0396	-3.7917	-3.65	-4.2792	-3.4188	-3.7479	-4.2604	-3.4396	-3.9854	-4.1458	-3.3812	-4.3063	123.529	85.679	-118.888	155.239	65.248	-65.701	137.449	149.652	-105.027	-66.476	-91.718	101.851	56.764	124.541	-9.199	98.432	0.00031318	0.00089829	0.00030779	1191.8	6.783e-06	1.6071e-06	1100.1	288.1	1.1296e-05	9.6467e-06	277.85	84.753	74.516	29.906	1.8583e-05	37.362	0.0072288	0.011632	0.0032628	1100.6	0.00012004	0.00013009	1014.2	266.88	0.00011634	0.00013144	267.78	84.814	76.621	28.846	0.0001221	36.519	-57.811	-125.062	-36.908	-140.530	69.385	55.053	-141.337	-135.794	114.224	23.260	-137.966	-133.080	-132.024	-127.186	1.581	-130.621	-8191	255	
1430.200	1	1	0	0	0.15174	0.031119	0.12344	0.23671	0.14135	0.22648	0.24465	0.17046	0.28109	0.10281	0.19274	0.12116	0.19826	0.27875	0.176	0.1774	-3.2917	-3.4833	-4.2271	-3.5021	-4.05	-4.1188	-3.6104	-4.3083	-3.8417	-3.6667	-4.1708	-3.3167	-4.1146	-4.1167	-3.2979	-4.175	58.448	-112.782	147.294	125.195	-72.764	34.468	158.394	147.536	97.903	202.967	155.438	167.985	179.559	173.518	203.343	203.053	0.00039969	0.0012183	0.00040178	1198.9	8.7052e-06	2.0793e-05	1105.6	289.68	7.1591e-06	6.0413e-07	275.79	84.963	74.662	30.206	2.0728e-05	37.793	0.007198	0.011641	0.0032912	1102.2	0.00012226	0.00013004	1016	267.94	0.00011708	0.00013231	268.41	85.315	76.997	29.036	0.00012185	36.751	-68.681	53.909	-26.597	-140.812	-99.047	28.300	-141.523	-135.919	139.745	-21.422	-138.129	-133.000	-131.201	-127.358	-32.543	-130.494	-8191	255	
1430.271	1	1	0	0	0.16002	0.083358	0.31486	0.37178	0.096161	0.017801	0.16549	0.21229	0.16111	0.031496	0.17124	0.25698	0.20443	0.067414	0.14132	0.29533	-3.4771	-3.2875	-4.2625	-3.6333	-3.7979	-4.0563	-3.5208	-4.1917	-3.7083	-3.4083	-4.2708	-3.2479	-3.8771	-4.1687	-3.3063	-4.3375	135.201	200.689	72.045	182.081	-71.152	-133.717	122.023	170.544	87.242	-21.146	182.460	-63.436	203.286	-117.455	83.394	143.501	0.00021977	0.00039843	0.00012891	1197.1	5.248e-06	6.1694e-06	1114.8	291.86	1.045e-05	1.961e-05	280.18	85.008	75.022	30.392	1.0271e-05	37.963	0.0072582	0.011758	0.0032835	1105.5	0.00012113	0.00013063	1019.7	269.38	0.00011472	0.00013153	270.06	85.523	77.076	29.161	0.00012397	36.889	-18.930	-3.073	36.553	-140.728	117.881	-0.403	-141.382	-136.049	-58.196	-83.080	-137.721	-133.541	-131.905	-127.263	-150.557	-130.076	-8191	255	
1430.392	1	1	0	0	0.164	0.14382	0.15288	0.3462	0.25145	0.15294	0.026255	0.35328	0.064876	0.15346	0.13839	0.055674	0.06439	0.23618	0.16937	0.14056	-3.6813	-3.5021	-4.1875	-3.7771	-3.6958	-4.3063	-3.625	-4.2937	-3.9479	-3.4479	-4.3979	-3.7354	-3.5812	-4.3	-3.3958	-4.1208	140.196	44.042	37.923	155.780	40.237	25.037	11.316	121.495	42.914	203.231	141.434	135.710	6.881	184.233	129.075	102.333	0.00049743	0.00074828	0.00053997	1192.6	1.1795e-05	1.1045e-05	1103.1	287.33	1.3858e-05	2.4884e-05	276.71	84.033	74.948	30.305	9.2059e-06	37.672	0.0073465	0.01199	0.0033384	1101.4	0.00012383	0.00013266	1011.3	267.49	0.00011949	0.00013388	267.89	84.845	77.265	29.041	0.00012471	36.496	-65.543	-16.797	-87.057	-140.521	-41.724	13.397	-141.465	-135.859	80.090	10.627	-137.609	-133.588	-131.367	-127.406	-55.769	-130.610	-8191	255	
1430.488	1	1	0	0	0.16254	0.13051	0.18387	0.17957	0.27471	0.20293	0.16705	0.20995	0.17944	0.14938	0.29	0.20191	0.21282	0.29879	0.083396	0.080124	-3.5542	-3.3125	-4.3438	-3.7583	-3.7125	-4.325	-3.5646	-4.0646	-4.1333	-3.4729	-4.25	-3.8667	-3.4104	-4.2854	-3.4396	-3.8479	79.022	-151.956	103.900	121.704	48.263	47.067	155.787	142.407	-37.108	73.593	173.222	-95.803	143.663	160.015	177.404	71.271	0.00032984	0.0015557	0.00020824	1193.9	1.6264e-05	7.2175e-06	1101.7	288.14	1.2508e-05	1.5897e-05	279.01	84.311	75.294	30.303	9.3807e-06	37.672	0.0073737	0.011948	0.0033622	1103.7	0.00012423	0.00013262	1010.1	267.71	0.00012042	0.00013498	268.97	85.201	77.411	29.15	0.00012792	36.828	-64.449	-149.933	-42.070	-140.882	-59.932	-65.519	-141.813	-136.211	96.240	-13.408	-138.018	-133.635	-131.555	-127.652	-7.302	-130.414	-8191	255	
1430.583	1	1	0	0	0.054088	0.089879	0.042208	0.18401	0.10992	0.17898	0.22723	0.073051	0.11653	0.19424	0.22706	0.008983	0.061758	0.13719	0.19265	0.12245	-3.9896	-3.3937	-4.1354	-3.9792	-3.4646	-4.3917	-3.8125	-4.0604	-4.2417	-3.3708	-4.3583	-4.0271	-3.475	-4.4625	-3.6396	-3.7583	108.165	-45.633	133.470	200.433	-137.759	-111.898	140.007	115.336	204.535	47.103	140.410	-45.869	-153.180	154.136	82.630	201.360	0.00032063	0.0012449	0.00038523	1190.1	9.517e-06	3.7195e-06	1100.2	289.45	1.5604e-05	1.8484e-05	281.22	85.455	74.847	30.37	4.2206e-06	38.018	0.007454	0.012195	0.0034037	1104.6	0.0001266	0.00013857	1015.6	269.54	0.00012329	0.00013781	271.26	86.246	78.008	29.381	0.00013016	37.225	-83.263	-28.693	-89.370	-140.845	81.406	-46.759	-141.798	-136.192	83.056	83.536	-137.891	-133.010	-131.803	-127.458	-42.884	-130.513	-8191	255	
1430.681	1	1	0	0	0.072542	0.050584	0.16973	0.032615	0.21863	0.11109	0.17165	0.21566	0.23592	0.030828	0.31938	0.064678	0.041402	0.16971	0.050381	0.091474	-3.8396	-3.2417	-4.0375	-4.1396	-3.3375	-4.3271	-3.6729	-3.8167	-4.3146	-3.35	-3.9458	-4.0437	-3.375	-4.4104	-3.7646	-3.5708	70.508	-23.984	180.949	171.310	-63.438	124.627	56.739	131.818	-83.141	37.926	103.220	-142.355	166.033	175.526	133.036	171.392	0.00039147	0.00035163	0.00052752	1198.5	4.3556e-06	1.1913e-05	1103.7	289.9	8.8289e-06	8.2646e-06	282.73	86.391	74.998	30.537	1.8102e-05	37.928	0.0077761	0.012455	0.0034569	1108	0.00012863	0.00013771	1019	270.26	0.00012425	0.00013967	273.03	86.753	78.267	29.47	0.00013214	37.094	-42.104	9.510	-116.760	-140.918	94.755	101.111	-141.827	-135.904	-15.543	-97.850	-137.600	-133.710	-131.924	-127.295	-60.375	-130.325	-8191	255	
1430.799	1	1	0	0	0.16273	0.21625	0.086408	0.39059	0.049715	0.11512	0.20332	0.30294	0.17971	0.041895	0.24877	0.14434	0.14712	0.16111	0.13024	0.23572	-4.1292	-3.3312	-3.8271	-4.3063	-3.3937	-4.1958	-4.0125	-3.6688	-4.4833	-3.6792	-3.9708	-4.1583	-3.4125	-4.2479	-3.7167	-3.6521	-62.581	28.707	147.180	-137.293	-12.771	-58.684	52.423	-149.166	99.613	-53.700	129.038	135.865	65.411	99.585	55.012	113.409	0.00028951	0.00038065	0.00022645	1202.1	4.2302e-06	4.0296e-06	1101.7	287.43	1.624e-05	1.1598e-05	277.34	84.983	75.378	30.475	1.6439e-05	37.596	0.0078247	0.012612	0.0035585	1110.8	0.00013142	0.00014097	1016.7	268.21	0.00012617	0.00014204	269.57	86.198	78.15	29.409	0.00013093	36.842	-67.718	-72.626	14.816	-140.849	-7.328	-1.572	-142.034	-135.696	-12.381	156.949	-137.606	-133.262	-131.391	-127.353	-45.475	-130.442	-8191	255	
1430.896	1	1	0	0	0.1838	0.027856	0.12358	0.21909	0.21158	0.15768	0.25977	0.163	0.22399	0.30462	0.4468	0.32952	0.21574	0.28306	0.19357	0.11229	-3.9833	-3.4771	-3.7896	-4.2958	-3.3458	-4.2063	-4.0708	-3.5042	-4.2333	-3.4396	-3.7604	-4.2729	-3.3563	-4.275	-3.8625	-3.5604	129.691	-73.141	-41.348	182.202	-73.466	10.837	108.728	-129.681	47.281	-146.949	175.600	160.130	-128.858	-149.970	50.186	121.767	0.00015006	0.0022847	0.00023364	1194.7	2.8923e-06	6.1226e-06	1105.3	290.69	5.8538e-06	9.557e-06	279.19	85.896	75.549	30.516	8.4615e-06	38.169	0.007802	0.012466	0.0035063	1107.6	0.00012824	0.00013887	1017.3	269.79	0.0001227	0.00013979	271.09	86.312	78.212	29.49	0.00012865	37.177	-45.263	161.014	-122.679	-140.874	183.408	82.590	-141.996	-135.892	24.194	-75.824	-137.793	-133.858	-131.531	-127.413	-38.015	-130.739	-8191	255	
1430.992	1	1	0	0	0.12701	0.031972	0.036116	0.24851	0.051693	0.315	0.23803	0.067085	0.11667	0.19068	0.29606	0.16309	0.14525	0.11662	0.3379	0.076408	-4.1896	-3.6188	-3.6917	-4.675	-3.3563	-4.1021	-4.2729	-3.4354	-4.2792	-3.7604	-3.8146	-4.3292	-3.4813	-4.1021	-4.1375	-3.4792	150.576	-3.715	-35.115	71.813	62.858	2.911	193.677	180.004	-3.494	44.008	183.223	-119.640	153.560	164.559	87.263	143.496	0.00031854	0.0013269	0.00026831	1195.7	4.6241e-06	1.3261e-05	1096.2	291.21	1.1139e-05	1.2562e-05	279.75	85.619	76.268	30.567	1.0568e-05	38.164	0.0076054	0.012351	0.0034386	1108.1	0.0001265	0.00013573	1014.8	270.53	0.00012274	0.00013742	271.56	86.372	78.282	29.525	0.00012779	37.328	-49.667	-49.915	-125.601	-140.912	43.034	-15.718	-142.169	-136.187	-44.411	-71.665	-137.602	-133.664	-131.016	-127.374	-78.259	-130.391	-8191	255	
1431.088	1	1	0	0	0.25037	0.28955	0.17183	0.049917	0.098912	0.070322	0.12704	0.28187	0.24266	0.23601	0.037785	0.033086	0.2121	0.051868	0.12768	0.035792	-3.7521	-3.8271	-3.5271	-4.5458	-3.4813	-3.875	-4.2167	-3.4854	-3.9854	-3.7792	-3.5875	-4.2479	-3.4729	-3.9958	-4.1396	-3.475	27.012	-126.821	143.499	25.616	-12.479	26.232	97.034	159.701	61.274	-92.696	-11.162	164.228	136.162	186.451	148.853	-101.236	0.00045102	0.00060237	0.00079158	1199.7	7.5829e-06	1.849e-05	1103.8	290.5	8.2466e-06	9.8895e-06	280.36	86.42	75.201	30.612	1.2961e-05	37.753	0.0075944	0.012166	0.0034016	1110.2	0.00012485	0.00013361	1019.2	269.98	0.00012123	0.00013535	270.79	86.581	77.659	29.458	0.00012723	36.953	-81.424	-106.984	-133.376	-140.967	25.972	19.119	-141.559	-135.691	167.827	114.016	-137.680	-133.366	-131.526	-127.216	-26.758	-130.506	-8191	255	
1431.184	1	1	0	0	0.16065	0.19626	0.29304	0.18097	0.18808	0.17938	0.24922	0.10251	0.25873	0.30565	0.078662	0.14016	0.027997	0.17538	0.2105	0.09855	-3.7208	-3.8625	-3.2792	-4.4896	-3.6229	-3.6792	-4.3396	-3.475	-4.1687	-3.9917	-3.5896	-4.3917	-3.7375	-3.75	-4.2854	-3.6604	22.557	79.862	-144.286	90.927	139.077	164.088	203.820	-144.494	187.383	-6.192	-75.313	78.106	148.907	203.297	64.110	180.644	0.0003661	0.00049827	0.00010994	1196.7	1.4166e-05	8.8071e-06	1094.6	289.27	1.5619e-05	1.4033e-05	276.47	83.759	74.415	30.355	1.1027e-05	37.598	0.0076291	0.012193	0.0034519	1108.6	0.00012702	0.00013774	1012.3	268.76	0.0001215	0.00013636	269.02	85.113	77.437	29.242	0.00012777	36.759	-52.514	-124.915	76.341	-140.966	-37.101	-55.435	-141.642	-135.730	-27.348	21.577	-137.383	-133.456	-131.506	-127.571	22.539	-130.354	-8191	255	
1431.280	1	1	0	0	0.13783	0.091609	0.10948	0.16196	0.20898	0.30628	0.19055	0.066766	0.13675	0.10302	0.30487	0.13325	0.25565	0.2051	0.2717	0.17557	-3.6854	-4.0917	-3.3396	-4.2729	-3.575	-3.4958	-4.2708	-3.5792	-3.7917	-4.1417	-3.3187	-4.3438	-3.7229	-3.725	-4.3167	-3.6292	131.635	-79.100	-19.223	-96.197	15.622	-93.208	100.457	82.939	-112.476	108.324	-141.500	144.222	-75.847	160.553	-3.126	103.392	0.00036594	0.00028938	0.00016107	1194.2	2.1661e-05	4.4902e-06	1099.4	288.55	7.2967e-06	8.5207e-06	279.11	85.557	75.33	30.637	3.2865e-06	38.026	0.0076501	0.012089	0.0034194	1105.8	0.00012549	0.00013511	1011.8	268.81	0.00012097	0.00013516	269.93	85.681	77.6	29.398	0.00012711	36.892	-83.696	-39.068	-69.526	-140.272	118.570	202.842	-141.684	-136.035	144.862	14.541	-137.757	-133.584	-131.893	-127.184	159.231	-130.093	-8191	255	
1431.401	1	1	0	0	0.082752	0.21664	0.17403	0.14177	0.10526	0.086671	0.22837	0.28209	0.22656	0.28001	0.090553	0.14863	0.10975	0.080539	0.089814	0.18784	-3.6	-3.9625	-3.3688	-4.2792	-3.6896	-3.5583	-4.4187	-3.6583	-3.8521	-4.1854	-3.4667	-4.2917	-3.9021	-3.4771	-4.3896	-3.6937	22.029	-91.452	-36.406	133.401	-108.829	-23.720	151.423	138.562	190.120	-95.027	41.054	-6.879	-81.641	82.692	9.859	154.852	0.00027806	0.00097935	0.00054081	1209.7	2.4429e-05	5.5133e-06	1107.8	290.15	1.3066e-05	2.2454e-05	280.49	86.046	75.921	30.536	5.9916e-06	38.191	0.0075173	0.012051	0.0033819	1111.2	0.00012326	0.00013392	1017.5	268.88	0.00011888	0.00013475	270.56	85.933	77.674	29.381	0.00012439	37.102	-50.341	8.762	-79.733	-140.814	-17.074	-15.257	-142.081	-136.287	-2.886	-119.853	-138.191	-133.656	-131.413	-127.400	-122.300	-130.875	-8191	255	
1431.495	1	1	0	0	0.090728	0.1236	0.062576	0.072154	0.25896	0.046032	0.23585	0.3465	0.059313	0.43916	0.17547	0.14032	0.12009	0.18086	0.11098	0.24975	-3.3708	-4.1521	-3.3729	-4.25	-3.9708	-3.4458	-4.5062	-3.5583	-3.7167	-4.4125	-3.4958	-4.1771	-4.1021	-3.4083	-4.3187	-3.7167	112.096	-120.251	48.198	168.734	-5.493	198.267	183.689	186.321	81.106	-52.885	106.153	191.817	-122.348	125.269	138.374	20.670	0.00032134	0.00089606	0.00013537	1204.3	2.2069e-05	1.0476e-05	1110.3	289.14	2.8811e-06	6.6864e-06	279.17	85.585	75.663	30.348	1.2129e-05	37.58	0.0073275	0.011933	0.003337	1108.5	0.00012266	0.00013183	1016.8	269.36	0.00011938	0.00013485	269.58	85.677	77.508	29.185	0.00012499	36.63	-35.099	121.891	-87.939	-141.110	51.282	-112.846	-141.954	-136.223	150.650	-71.990	-138.204	-133.480	-132.276	-126.935	184.657	-130.586	-8191	255	
1431.569	1	1	0	0	0.051604	0.11017	0.2249	0.13086	0.16168	0.21884	0.12678	0.26527	0.31279	0.18881	0.17327	0.23506	0.12231	0.13985	0.15794	0.14028	-3.4708	-4.3583	-3.375	-4.0104	-4.1833	-3.3479	-4.3604	-3.7833	-3.6125	-4.4062	-3.6208	-4.0208	-4.2833	-3.5083	-4.3229	-3.9417	-9.637	-3.736	124.452	-21.168	-125.865	153.163	-141.645	62.807	30.322	165.005	121.728	164.413	-110.610	3.269	191.437	-91.537	0.0006616	0.00045881	0.00023667	1198	8.194e-06	1.8635e-05	1100.2	287.3	1.2587e-05	1.413e-05	274.93	85.186	75.303	30.324	1.4135e-05	37.507	0.0074346	0.011929	0.0033304	1106.2	0.00012238	0.00013465	1009.8	267.7	0.0001195	0.00013452	266.55	85.257	77.136	29.153	0.00012355	36.439	-68.189	-16.955	-16.968	-140.970	19.915	-10.381	-141.649	-136.105	10.742	-21.372	-137.859	-133.341	-132.685	-127.279	116.588	-130.328	-8191	255	
1431.663	1	1	0	0	0.23939	0.14615	0.22021	0.28288	0.25734	0.17775	0.2695	0.083567	0.12383	0.035626	0.18638	0.12946	0.27014	0.0894	0.087509	0.063093	-3.3021	-4.3667	-3.5687	-3.8125	-4.2312	-3.5542	-4.3042	-4.0104	-3.6625	-4.2896	-3.6771	-3.7292	-4.3812	-3.4604	-3.9771	-4.0771	-85.569	59.777	194.283	129.586	-103.624	-151.766	109.903	-133.880	83.463	-66.474	-139.795	-90.509	205.967	-132.861	-13.625	121.113	0.00033299	0.0011206	0.00038518	1203.4	1.5223e-05	1.1578e-05	1098	289.7	1.346e-05	7.9607e-06	279.54	85.322	75.58	30.378	1.2855e-05	37.84	0.0073959	0.011672	0.0033169	1108	0.000122	0.00013143	1011.4	268.01	0.00011941	0.00013324	268.94	85.567	77.535	29.245	0.00012393	36.825	-19.772	-89.333	-14.940	-140.582	38.592	58.588	-141.815	-135.819	51.271	33.266	-137.770	-133.564	-131.526	-127.035	97.337	-130.549	-8191	255	
1431.784	1	1	0	0	0.1336	0.18976	0.14722	0.056992	0.18807	0.059657	0.23586	0.083738	0.11206	0.052875	0.13417	0.35152	0.17967	0.34197	0.21002	0.098456	-2.9646	-4.2917	-3.7125	-3.5938	-4.3562	-3.45	-4.2188	-4.1479	-3.3646	-4.3688	-3.6521	-3.7	-4.4271	-3.4813	-4.0208	-4.2542	173.849	21.960	63.961	36.873	192.817	-24.345	104.927	-23.512	-118.472	-107.034	164.704	-149.991	1.202	-153.911	178.712	143.898	0.00025498	0.00041744	0.00029102	1204.4	1.2123e-05	1.9505e-05	1100.7	290.31	1.029e-05	1.7424e-05	278.38	85.78	76.105	30.474	1.1943e-05	38.292	0.0073222	0.01179	0.0033092	1108	0.0001219	0.00013133	1015.2	269.04	0.00011806	0.00013276	269.55	86.013	77.593	29.366	0.00012297	37.145	-73.888	-4.824	-115.586	-140.530	-4.592	-82.406	-141.592	-136.307	24.711	-7.243	-137.896	-133.241	-131.986	-127.215	44.156	-130.549	-8191	255	
1431.880	1	1	0	0	0.11533	0.23778	0.29522	0.094131	0.0008844	0.043685	0.14206	0.13117	0.1923	0.11709	0.1949	0.099159	0.24388	0.23426	0.27983	0.081484	-2.9167	-4.2208	-3.8458	-3.7	-4.4563	-3.4896	-4.0604	-4.2979	-3.2687	-4.2583	-3.95	-3.5958	-4.2604	-3.5625	-3.8729	-4.2667	-22.676	18.523	73.974	94.004	180.000	-119.391	118.320	-132.018	-91.889	-123.961	139.866	-99.462	125.111	189.103	-108.958	-125.821	0.00040132	0.0015803	0.00013704	1202.6	1.2453e-05	4.2166e-06	1108.9	290.5	1.7564e-05	8.3144e-06	277.43	85.208	76.018	30.642	7.9133e-06	37.922	0.0073548	0.011764	0.0032912	1109.6	0.00012121	0.00013143	1018.1	268.74	0.00011908	0.00013259	268.98	85.734	77.724	29.34	0.00012483	36.877	-76.159	49.792	100.605	-140.682	127.269	-144.536	-141.943	-136.556	-97.864	166.835	-138.010	-133.659	-131.736	-127.263	194.881	-130.925	-8191	255	
1431.976	1	1	0	0	0.24124	0.090166	0.16364	0.1234	0.036432	0.056913	0.094378	0.14757	0.14431	0.15001	0.16684	0.084903	0.21568	0.18864	0.26262	0.25384	-2.825	-4.0729	-3.8958	-3.6979	-4.2937	-3.5208	-3.8625	-4.3333	-3.3167	-4.1104	-4.0583	-3.4875	-4.3833	-3.6396	-3.7062	-4.4125	178.243	118.853	106.093	-141.838	-106.997	-145.572	149.523	182.658	74.515	6.213	-145.192	126.715	34.415	109.811	46.712	119.260	0.00040213	0.0012241	0.0004914	1191.6	6.256e-06	1.3838e-05	1101.7	289.3	7.098e-06	1.6157e-06	278.08	85.193	75.877	30.11	9.2513e-06	37.654	0.0074202	0.011933	0.0033441	1105.2	0.00012502	0.00013372	1012.8	268.15	0.00011925	0.00013413	267.7	85.296	77.681	29.199	0.00012519	36.721	-80.434	121.074	-46.583	-140.851	44.351	88.756	-141.548	-136.314	-17.194	-4.715	-138.222	-133.476	-131.981	-127.588	-39.594	-130.695	-8191	255	
1432.072	1	1	0	0	0.32468	0.038596	0.17202	0.16219	0.15731	0.19473	0.098289	0.31166	0.24317	0.091487	0.030056	0.17182	0.13336	0.066628	0.088537	0.21417	-2.8937	-4.0292	-3.9854	-3.3021	-4.2562	-3.775	-3.6646	-4.4396	-3.3458	-3.8521	-4.2208	-3.5417	-4.2458	-3.6917	-3.3667	-4.4271	-6.009	-79.210	54.588	177.268	45.864	203.813	120.245	201.303	-25.612	117.781	53.843	186.312	-153.279	-115.677	-137.054	71.476	0.00037549	0.0011499	0.00028523	1201.1	3.0443e-06	1.3685e-05	1098.6	288.47	1.1668e-05	1.1493e-05	277.61	84.807	75.443	30.563	1.3409e-05	38.089	0.0074556	0.012049	0.0033723	1105.7	0.00012261	0.0001324	1011.2	268.66	0.00011931	0.00013293	267.9	85.314	77.632	29.415	0.00012477	36.967	-62.843	-10.979	-87.502	-140.871	121.124	-33.526	-141.407	-135.991	-31.194	-1.448	-138.097	-133.443	-131.965	-127.685	1.421	-130.577	-8191	255	
1432.193	1	1	0	0	0.25157	0.19136	0.11492	0.12111	0.02055	0.096267	0.16732	0.23317	0.3068	0.094811	0.12211	0.17774	0.12439	0.13122	0.14107	0.13963	-3.1167	-3.9375	-4.1146	-3.5583	-4.1771	-3.9292	-3.625	-4.4792	-3.5083	-3.8917	-4.3229	-3.4562	-4.2438	-4.0167	-3.375	-4.4062	132.394	-2.687	118.142	128.806	-57.822	120.389	140.148	180.540	17.965	129.914	189.134	188.360	167.569	117.498	-43.838	-152.014	0.00020751	0.0010696	0.00035487	1201.8	1.6111e-05	4.6143e-06	1103.4	291.55	1.4694e-06	5.9386e-06	278.63	86.389	75.5	30.779	1.3503e-05	38.334	0.0074291	0.011908	0.003316	1108.5	0.00012244	0.00013134	1017.5	269.55	0.00011903	0.00013411	270.1	86.148	77.635	29.579	0.00012371	37.252	-58.591	108.694	-56.221	-140.842	74.972	-143.613	-141.936	-136.189	149.601	175.138	-138.393	-133.623	-131.416	-127.587	-4.145	-130.073	-8191	255	
1432.264	1	1	0	0	0.13537	0.20726	0.32058	0.18748	0.13601	0.16573	0.15068	0.25648	0.16371	0.19868	0.30793	0.31481	0.05688	0.16064	0.093119	0.21733	-3.2396	-3.6542	-4.1979	-3.4125	-4.0396	-4.1	-3.6646	-4.2917	-3.4188	-3.5833	-4.45	-3.4917	-4.0417	-4.2042	-3.4104	-4.3542	-0.903	191.890	-71.571	192.851	138.240	170.058	112.481	157.874	56.496	187.992	-114.718	-148.945	111.056	127.902	173.251	141.402	0.00039834	0.0012051	0.00040153	1211.2	4.6092e-06	1.3233e-05	1105.9	288.71	1.0641e-05	9.852e-06	276.39	85.836	74.917	30.368	5.0032e-06	37.737	0.0073582	0.011879	0.0033049	1113.3	0.00012349	0.0001323	1016.8	269.37	0.00011884	0.00013528	268.45	85.409	77.774	29.227	0.00012481	36.792	-76.628	-11.804	-97.391	-140.899	186.065	-52.320	-141.922	-136.055	118.296	-100.337	-137.853	-133.638	-132.095	-127.753	70.323	-130.519	-8191	255	
1432.361	1	1	0	0	0.20752	0.089078	0.15046	0.24805	0.10535	0.035463	0.17369	0.17838	0.062956	0.078752	0.27274	0.15091	0.11272	0.2108	0.41148	0.27255	-3.3729	-3.6167	-4.275	-3.5417	-3.8958	-4.2937	-3.4417	-4.3854	-3.6312	-3.5271	-4.5104	-3.4813	-3.8542	-4.2562	-3.3146	-4.2083	80.451	139.705	-144.016	110.417	-4.097	68.913	146.004	136.606	5.565	-70.976	186.547	93.915	152.723	134.591	130.446	166.521	0.00033743	0.0020789	0.00014629	1195.3	6.0944e-06	1.217e-05	1095.5	286.57	2.2373e-05	2.3282e-05	276.74	83.973	75.085	30.265	4.7589e-06	37.642	0.0075021	0.012026	0.0033632	1106.8	0.00012341	0.00013263	1009.8	267.85	0.00011986	0.00013439	267.34	84.953	77.451	29.258	0.00012563	36.778	-54.274	-74.020	-78.716	-140.959	120.087	-136.656	-141.947	-136.045	-30.657	-30.905	-138.075	-133.750	-131.860	-127.167	127.822	-130.560	-8191	255	
1432.481	1	1	0	0	0.28157	0.11002	0.11654	0.053611	0.30318	0.23368	0.16567	0.29551	0.063442	0.26067	0.16138	0.059646	0.24917	0.099649	0.13952	0.22491	-3.6063	-3.3917	-4.3021	-3.4917	-3.8729	-4.1687	-3.4854	-4.3187	-4.1208	-3.5542	-4.2937	-3.6562	-3.7125	-4.3354	-3.5146	-4.1979	-33.739	153.879	158.586	66.699	-11.226	92.505	135.139	145.439	-129.773	-32.502	49.044	-21.326	50.531	162.428	35.227	-148.928	0.00044624	0.00060945	0.00032492	1197.4	7.2998e-06	1.1923e-05	1102.4	291.53	2.6171e-05	1.1875e-05	278.62	85.318	75.616	30.612	1.7301e-06	38.228	0.0074712	0.01202	0.0033359	1106.8	0.00012369	0.00013308	1012.6	269.77	0.00011919	0.00013383	268.52	85.806	77.729	29.493	0.00012426	37.096	-43.616	159.160	168.129	-141.207	28.444	-45.361	-142.091	-136.130	54.125	18.209	-137.931	-133.743	-131.518	-127.602	126.693	-130.827	-8191	255	
1432.576	1	1	0	0	0.2356	0.061392	0.11778	0.25434	0.084887	0.09656	0.2209	0.16824	0.15023	0.21902	0.12189	0.18676	0.12601	0.24065	0.30749	0.23226	-3.5542	-3.4917	-4.2646	-3.8521	-3.7562	-4.45	-3.5312	-4.2167	-3.9875	-3.3792	-4.3063	-3.8417	-3.5375	-4.2917	-3.2875	-4.0875	-37.447	-141.080	79.902	183.873	198.571	125.541	144.729	-149.201	145.683	172.337	192.166	147.469	-121.878	187.885	195.958	-131.340	0.00037862	0.00079531	0.00020291	1200.8	9.9371e-06	5.5872e-06	1103.2	291.87	9.5914e-06	7.599e-06	280.03	86.176	75.906	30.768	7.1519e-06	38.676	0.0074145	0.011998	0.0033565	1109.4	0.00012387	0.00013258	1017.1	269.91	0.00011803	0.0001339	270.67	86.178	77.813	29.588	0.00012383	37.398	-45.890	-75.409	150.248	-141.088	81.243	-107.582	-142.247	-136.401	34.968	13.267	-138.276	-133.442	-132.203	-127.533	55.785	-130.722	-8191	255	
1432.673	1	1	0	0	0.1524	0.24552	0.11586	0.14865	0.1543	0.1353	0.22265	0.064581	0.17153	0.13045	0.19868	0.14993	0.14807	0.21968	0.13211	0.11121	-3.7833	-3.1917	-4.2875	-3.9708	-3.4396	-4.3625	-3.6667	-3.9917	-4.1646	-3.2604	-4.2	-3.8333	-3.1958	-4.4563	-3.5167	-3.8979	-43.409	-67.059	-84.017	112.470	138.763	117.220	104.112	181.018	108.777	103.637	154.766	78.333	-51.372	85.849	-21.491	202.884	0.0004492	0.0010766	0.00016201	1200.8	1.4652e-05	6.9367e-06	1102.7	289.46	8.3025e-06	1.0161e-05	277.47	85.095	75.952	30.557	1.7808e-06	37.953	0.0073751	0.01197	0.0033273	1111	0.00012334	0.00013275	1014.4	269.28	0.0001195	0.0001356	268.34	85.81	78.165	29.505	0.00012559	36.991	-57.581	155.908	-124.401	-141.340	-42.275	-79.136	-142.190	-136.598	85.831	205.303	-138.074	-134.028	-131.880	-127.572	-64.968	-130.420	-8191	255	
1432.792	1	1	0	0	0.30256	0.23078	0.12127	0.21942	0.11903	0.20077	0.30242	0.22422	0.30459	0.1277	0.19174	0.23953	0.061284	0.11519	0.14562	0.22214	-3.9062	-3.3354	-4.1792	-3.9333	-3.5125	-4.2312	-3.7958	-3.7708	-4.3438	-3.3604	-4.1021	-4.0208	-3.4125	-4.3313	-3.7292	-3.7687	79.384	-31.472	136.272	104.545	178.215	-73.780	172.194	179.417	63.688	-12.579	94.418	10.003	177.333	157.746	165.940	-122.092	0.0005169	0.0015521	0.00011824	1200.7	1.093e-05	1.0488e-05	1104.8	289.19	5.0019e-06	6.768e-06	275.11	84.906	76.051	30.535	8.5736e-06	37.94	0.0075419	0.012045	0.003393	1108.9	0.00012427	0.00013549	1010.1	269.39	0.00012124	0.00013672	268.12	85.574	78.199	29.457	0.0001256	36.919	-63.611	38.742	-147.366	-140.923	-10.431	-118.237	-142.569	-136.548	-136.209	108.992	-138.013	-134.001	-131.528	-127.928	61.123	-130.467	-8191	255	
1432.864	1	1	0	0	0.026997	0.074966	0.2154	0.18235	0.22723	0.11844	0.15438	0.36497	0.09699	0.19708	0.13445	0.073917	0.25189	0.31289	0.32591	0.082637	-4.0563	-3.3917	-3.9104	-4.0792	-3.3458	-4.2188	-3.7062	-3.6021	-4.4104	-3.3104	-4.075	-4.1896	-3.4437	-4.2688	-3.7271	-3.5479	70.102	199.636	133.732	-146.256	58.774	-121.513	157.387	165.103	160.698	-125.426	-41.465	143.385	-17.703	175.781	152.293	-76.071	0.00037567	0.0016748	0.00029286	1206.9	8.3456e-06	1.2503e-05	1104.6	288.85	1.1456e-05	1.3467e-05	279.61	86.011	75.651	30.925	2.2596e-05	38.102	0.0073931	0.012014	0.0033478	1112.2	0.0001243	0.00013367	1013	269.74	0.00012062	0.00013689	269.86	86.06	78.158	29.656	0.0001264	37.168	-59.983	-87.758	-28.241	-140.979	-142.002	-51.501	-142.172	-136.110	-31.344	-63.375	-137.831	-133.880	-131.664	-127.492	27.154	-130.936	-8191	255	
1432.960	1	1	0	0	0.038949	0.078405	0.22474	0.18465	0.18202	0.082627	0.35749	0.26081	0.16451	0.15986	0.28473	0.012034	0.19265	0.16845	0.24778	0.11561	-3.8667	-3.3771	-3.7396	-4.1854	-3.0312	-4.1479	-3.9646	-3.4292	-4.3542	-3.4458	-3.7958	-4.2083	-3.3125	-4.225	-3.8125	-3.4479	96.618	-50.915	-25.376	92.781	117.270	179.571	125.580	132.600	-119.610	146.807	179.945	53.731	-121.782	188.526	89.141	-1.007	0.00043108	0.001105	0.00019341	1202.7	9.8724e-06	4.6471e-06	1103.7	291.51	2.1776e-05	1.3059e-05	277.24	86.062	76.171	30.892	1.0547e-05	38.327	0.0074739	0.012082	0.0033677	1115.5	0.00012397	0.00013322	1016	270.9	0.00011983	0.0001355	270.33	86.59	78.435	29.78	0.00012521	37.527	-64.930	-39.821	-64.580	-140.909	-73.838	-141.545	-142.167	-136.163	73.674	-0.755	-138.291	-133.952	-132.216	-127.457	25.980	-130.667	-8191	255	
1433.081	1	1	0	0	0.14317	0.1734	0.12736	0.1741	0.21576	0.20711	0.26853	0.22039	0.22392	0.090412	0.13129	0.24487	0.18612	0.13514	0.23696	0.047551	-3.9333	-3.5792	-3.6688	-4.3938	-3.3479	-4.0917	-4.2083	-3.4229	-4.3063	-3.6937	-3.7333	-4.4437	-3.3937	-4	-3.9437	-3.3937	-154.083	134.847	34.372	119.316	59.786	47.948	90.864	146.445	-43.996	14.896	-146.264	130.724	-133.069	116.350	-128.114	-149.754	0.00035192	0.0013654	0.00037807	1212.1	2.3295e-05	1.6483e-05	1091.2	290.7	8.9409e-06	9.4669e-06	276.71	85.606	76.441	30.81	1.0825e-05	37.856	0.0075429	0.012127	0.0033984	1118	0.00012516	0.00013537	1010.4	270.46	0.00012111	0.0001362	268.8	85.756	78.524	29.678	0.00012849	37.033	-60.903	124.202	-115.498	-141.319	-131.593	-109.551	-142.155	-136.283	49.440	-125.561	-138.402	-133.365	-132.102	-127.331	7.626	-130.283	-8191	255	
1433.177	1	1	0	0	0.25071	0.17079	0.23866	0.20418	0.13695	0.16611	0.065922	0.1281	0.065889	0.096926	0.32802	0.16256	0.24617	0.051544	0.03492	0.091831	-4.0042	-3.7313	-3.4813	-4.4396	-3.4229	-3.9375	-4.3333	-3.4792	-4.2521	-3.8292	-3.5854	-4.3396	-3.3812	-3.9875	-4.1354	-3.25	189.717	125.435	-138.086	125.145	-37.707	7.131	-11.126	47.868	64.458	15.622	106.271	169.523	51.329	162.193	126.394	-126.981	0.0004899	0.00094717	0.00026107	1198.2	5.5351e-06	5.8901e-06	1100.4	289.23	2.0206e-05	9.1394e-06	277.11	84.872	75.662	30.693	1.7911e-05	38.354	0.0076467	0.012072	0.0034459	1114.3	0.0001264	0.00013632	1014.3	269.19	0.00012237	0.00013735	269.17	85.777	78.482	29.616	0.00012848	37.3	-64.896	-2.683	56.859	-140.972	-151.482	-138.370	-141.938	-136.404	45.728	-62.383	-137.619	-133.575	-131.787	-127.353	68.528	-131.097	-8191	255	
1433.273	1	1	0	0	0.12923	0.21967	0.31941	0.091025	0.24546	0.26035	0.29915	0.083123	0.12235	0.090606	0.2424	0.13784	0.0809	0.054858	0.24639	0.086015	-3.7271	-3.9146	-3.3521	-4.5271	-3.5854	-3.8312	-4.2812	-3.4938	-4.1667	-3.9042	-3.45	-4.3271	-3.7438	-3.8958	-4.4313	-3.375	71.173	29.717	-102.118	20.566	131.540	-44.366	190.124	67.207	-18.884	-9.389	151.528	-12.304	167.206	-143.206	49.281	78.094	0.00029749	0.00083476	0.00017073	1206.5	8.4467e-06	1.3327e-05	1099.7	292.1	5.1365e-06	7.7403e-06	277.9	86.589	75.945	31.102	4.0109e-06	38.401	0.0076206	0.012312	0.0034451	1116.9	0.00012753	0.00013665	1015.9	271.26	0.00012224	0.00013792	270.65	86.754	78.611	29.858	0.00012717	37.51	-69.889	102.198	55.142	-141.032	-137.525	-25.120	-142.102	-136.374	-25.640	33.309	-137.906	-133.757	-131.939	-127.525	-16.033	-130.542	-8191	255	
1433.369	1	1	0	0	0.047932	0.11281	0.024352	0.16773	0.17122	0.24208	0.27601	0.12764	0.1972	0.13333	0.1987	0.048354	0.12981	0.34879	0.21851	0.055566	-3.7833	-4.0146	-3.3354	-4.5375	-3.7	-3.5792	-4.4583	-3.3312	-3.8771	-4.0229	-3.2854	-4.2146	-3.6312	-3.5958	-4.4396	-3.4313	119.654	-111.538	-4.347	188.932	-68.604	37.686	135.369	118.602	41.633	86.386	139.985	108.293	-113.724	-150.762	-83.341	-31.060	0.00028364	0.0002656	0.000512	1218.4	6.335e-06	8.9677e-06	1108.6	291.89	1.9332e-05	1.9258e-06	281.63	87.65	76.261	31.445	1.2029e-05	38.689	0.0076228	0.012267	0.0034458	1120.9	0.00012616	0.00013664	1019.5	271.41	0.00012325	0.00013741	272.76	87.139	78.517	30.044	0.00012724	37.741	-33.769	-19.570	25.862	-141.058	-13.987	108.601	-141.939	-136.268	-54.704	-56.050	-138.082	-133.835	-131.845	-127.295	-124.535	-130.176	-8191	255	
1433.441	1	1	0	0	0.13872	0.075834	0.11471	0.071545	0.13917	0.21082	0.091901	0.061848	0.14683	0.084667	0.31953	0.14011	0.066565	0.093739	0.18222	0.28316	-3.4583	-4.0229	-3.2708	-4.35	-3.7021	-3.5812	-4.2271	-3.5708	-3.75	-4.0833	-3.2708	-4.075	-3.825	-3.4771	-4.1833	-3.5146	70.781	70.542	-81.963	-46.054	135.188	-20.783	-150.859	159.554	184.952	102.129	120.367	137.061	-113.211	-152.854	59.725	189.885	0.00037539	0.00052271	7.3226e-05	1206.6	3.04e-06	5.3759e-06	1097.2	291.62	6.7793e-06	1.3438e-05	280.08	85.557	75.851	30.698	1.3527e-05	38.124	0.0076521	0.01221	0.0034611	1117.8	0.00012918	0.00013745	1015.6	270.71	0.0001247	0.00014059	271.2	86.658	78.759	29.817	0.00013089	37.21	-56.970	-51.572	-119.142	-140.750	-143.148	179.655	-142.154	-136.059	-7.374	-34.195	-138.447	-133.828	-131.716	-127.818	161.997	-130.926	-8191	255	
1433.562	1	1	0	0	0.14887	0.11273	0.17168	0.14679	0.19111	0.031068	0.1576	0.062133	0.20505	0.14439	0.14404	0.27532	0.039258	0.27737	0.073055	0.35112	-3.3042	-4.0813	-3.1437	-4.2188	-3.775	-3.225	-4.4313	-3.6104	-3.7333	-4.2479	-3.3729	-3.9958	-3.8833	-3.2938	-4.3625	-3.5812	134.720	48.667	176.467	185.737	140.573	-147.093	-128.656	-19.569	-130.621	203.090	178.842	72.938	-60.503	184.574	166.848	166.288	0.00021576	0.00055291	0.00029123	1210.1	1.6167e-05	1.7923e-05	1105.8	291.84	1.2542e-05	2.4437e-05	278.83	86.375	76.286	30.992	1.0008e-05	37.973	0.0077994	0.012508	0.0035599	1120.1	0.0001307	0.00014005	1017.2	270.86	0.00012498	0.00013934	269.66	86.71	78.807	29.832	0.00012908	37.305	-83.881	46.842	-111.442	-140.868	-47.928	-4.874	-141.850	-136.270	51.089	39.004	-137.740	-133.610	-132.152	-127.455	-86.659	-130.870	-8191	255	
1433.656	1	1	0	0	0.10656	0.03202	0.14563	0.10032	0.064717	0.34221	0.21581	0.25351	0.16843	0.06961	0.097098	0.09473	0.33602	0.069538	0.19227	0.33203	-3.2083	-4.2812	-3.325	-4.0354	-3.9125	-3.0958	-4.2125	-3.7521	-3.4125	-4.1167	-3.3604	-3.8688	-3.9604	-3.3667	-4.2833	-3.6354	-145.021	134.410	-82.401	123.794	-112.048	36.066	169.388	173.782	-68.244	-13.335	169.154	-6.588	-102.446	-114.998	-136.324	130.298	0.00043395	0.0002367	0.00020707	1214	3.6661e-07	1.0631e-05	1106	292.31	4.1509e-06	5.7691e-06	278.12	85.938	75.597	31.034	2.9061e-06	38.717	0.0077416	0.012493	0.0034548	1121.4	0.00012719	0.00013867	1019.2	272.52	0.00012405	0.00013839	270.58	86.849	78.831	29.872	0.00013016	37.515	-60.211	157.113	41.670	-140.945	-13.082	22.145	-141.936	-136.545	14.695	-77.887	-137.620	-133.823	-131.969	-127.717	82.108	-130.476	-8191	255	
1433.754	1	1	0	0	0.17768	0.2488	0.10107	0.34683	0.072184	0.058771	0.35366	0.12613	0.049896	0.083933	0.099751	0.25896	0.25391	0.21281	0.14274	0.1554	-3.0563	-4.0604	-3.325	-4.0125	-3.9854	-3.1875	-4.1667	-3.8833	-3.3104	-4.1417	-3.475	-3.775	-4.2396	-3.3604	-4.0667	-4	-5.568	-2.185	96.997	149.515	85.479	-67.531	137.093	74.033	61.061	21.441	7.663	-144.053	-41.372	-127.161	43.397	-143.842	0.00033584	0.0015153	0.00025996	1212.8	1.6446e-05	4.407e-06	1113.5	290.62	6.8215e-06	1.1318e-05	279.56	87.264	76.899	31.064	1.6282e-05	38.462	0.0077908	0.012291	0.0034324	1120.5	0.00012663	0.00013576	1024	271.15	0.00012278	0.00013737	272.38	87.636	78.852	29.933	0.0001277	37.6	-25.378	190.008	-118.465	-140.700	5.010	1.539	-141.805	-136.272	-35.206	154.584	-138.247	-133.520	-131.543	-127.300	-134.651	-130.617	-8191	255	
1433.873	1	1	0	0	0.10474	0.23095	0.098499	0.13136	0.20538	0.14881	0.18097	0.059067	0.15785	0.1731	0.19832	0.22723	0.032793	0.16102	0.066331	0.11396	-3.0125	-4.2458	-3.3354	-3.7958	-4.0958	-3.25	-4.125	-3.9833	-3.3083	-4.2542	-3.725	-3.5021	-4.15	-3.3167	-3.9208	-4.0479	39.306	187.957	128.671	-74.690	70.596	100.411	129.243	-140.720	205.403	-149.863	-145.117	189.417	178.855	-122.514	169.304	13.722	0.00013912	0.0019122	0.00041796	1211.7	1.629e-05	8.7269e-06	1108	292.2	6.6146e-06	2.7904e-05	280.04	85.766	76.199	30.96	9.8826e-06	37.881	0.0076218	0.012296	0.0034561	1122.4	0.0001268	0.00013619	1018.3	271.4	0.00012307	0.00013805	269.99	86.22	78.677	29.77	0.00012799	37.04	-63.668	-92.264	-48.608	-140.673	114.354	-50.764	-142.188	-136.033	-59.429	-1.181	-138.247	-133.485	-132.075	-127.402	2.318	-130.836	-8191	255	
1433.969	1	1	0	0	0.11052	0.14088	0.14331	0.23452	0.17372	0.073856	0.1464	0.0797	0.22652	0.22055	0.15289	0.10086	0.11621	0.16719	0.049518	0.19489	-3.0104	-4.1542	-3.8417	-3.5229	-4.2458	-3.35	-4.0625	-4.1458	-3.35	-4.2104	-3.7938	-3.5187	-4.2083	-3.4521	-3.7396	-4.1917	85.935	13.248	164.084	136.576	76.524	-62.880	178.738	-145.721	-84.466	-39.750	150.764	177.601	199.717	-148.358	-113.179	142.089	0.00054005	0.00079916	0.00040697	1211.7	7.6268e-06	4.7937e-06	1101.4	290.59	9.6937e-06	1.7746e-05	280.08	85.827	76.703	30.701	1.1047e-05	38.402	0.007531	0.012176	0.003419	1119.3	0.00012549	0.00013498	1012.6	270.56	0.00012023	0.00013578	270.26	86.028	78.415	29.689	0.00012736	37.289	-47.833	122.492	-34.339	-140.750	-117.436	70.572	-141.632	-136.141	62.546	-60.236	-137.415	-133.370	-131.659	-127.195	-76.129	-130.444	-8191	255	
1434.065	1	1	0	0	0.15992	0.18423	0.16308	0.26135	0.13603	0.14242	0.20196	0.28236	0.15442	0.14924	0.13395	0.13326	0.12749	0.096099	0.059026	0.13454	-2.9313	-4.0125	-3.5083	-3.5312	-4.1104	-3.2979	-3.9	-4.1833	-3.3708	-4.2417	-3.9562	-3.3979	-4.2479	-3.55	-3.5542	-4.25	16.548	-145.044	-143.315	164.445	125.711	157.275	139.802	144.572	30.085	-87.012	-141.874	-14.115	71.600	105.521	-57.344	-83.462	0.00035141	0.0002566	0.00043209	1211.3	9.0694e-06	1.4316e-05	1108.8	293.35	1.4907e-05	4.7052e-06	280.57	85.659	76.659	31.005	6.0407e-06	38.626	0.007546	0.012113	0.0033278	1121.6	0.00012528	0.00013469	1020.8	271.94	0.00011981	0.00013322	271.05	86.302	78.803	29.848	0.00012506	37.511	-69.345	157.658	-13.873	-140.621	7.705	56.602	-141.918	-136.218	65.001	110.544	-138.065	-133.603	-131.812	-127.544	-64.311	-131.049	-8191	255	
1434.161	1	1	0	0	0.17201	0.2184	0.30428	0.061579	0.17302	0.11872	0.090183	0.37426	0.13918	0.061599	0.041312	0.13612	0.091241	0.069973	0.15118	0.0085376	-2.9542	-3.8667	-3.9146	-3.4375	-4.1937	-3.4042	-3.6083	-4.2188	-3.2125	-3.9875	-4.2021	-3.2208	-4.2917	-3.6833	-3.5312	-4.3313	-30.258	2.463	94.130	-127.318	94.226	99.513	4.618	95.615	170.700	51.690	140.810	-151.971	57.047	77.236	45.414	22.487	0.0003533	0.00069707	0.00029811	1223.2	4.1456e-06	9.8842e-06	1117.3	294.36	9.9449e-06	1.3227e-05	281.51	87.172	76.571	31.225	9.0961e-06	38.676	0.0074597	0.01174	0.0032939	1123	0.00012264	0.00013101	1023.5	272.65	0.00011868	0.00013534	272.28	87.187	78.703	29.984	0.00012488	37.663	-71.175	-67.459	-105.988	-140.951	155.457	8.933	-141.899	-135.986	30.139	83.858	-138.159	-133.588	-131.891	-127.036	176.105	-130.475	-8191	255	
1434.257	1	1	0	0	0.09803	0.054279	0.095733	0.23196	0.063552	0.090987	0.039088	0.024749	0.084867	0.18981	0.093398	0.14309	0.14727	0.13	0.22943	0.11086	-2.9771	-3.8604	-4.1208	-3.2271	-4.1562	-3.7667	-3.6271	-4.3187	-3.3521	-3.6875	-4.0938	-3.3542	-4.0896	-3.725	-3.4146	-4.3271	63.368	-108.300	74.796	148.742	-99.936	84.519	-128.590	147.946	-32.507	-129.363	31.855	155.608	72.089	-110.385	-33.548	126.788	0.00029835	0.0018665	0.0003336	1215.1	3.593e-06	4.9521e-07	1105.3	293.92	1.1359e-05	6.5643e-06	277.83	86.007	77.505	30.898	2.503e-05	38.412	0.0075227	0.0122	0.0034179	1120.6	0.00012747	0.00013636	1018.9	272.8	0.00012218	0.00013778	270.2	86.595	79.455	29.796	0.00012892	37.424	-48.529	-80.440	187.125	-140.769	47.482	161.999	-141.539	-135.998	52.896	-25.001	-137.923	-133.854	-131.351	-127.641	2.841	-130.491	-8191	255	
1434.353	1	1	0	0	0.19226	0.0431	0.074416	0.10649	0.20369	0.18166	0.13991	0.14421	0.24569	0.2109	0.13774	0.24719	0.18782	0.17577	0.34386	0.23031	-3.0521	-3.5208	-4.1167	-3.2917	-3.9125	-3.8667	-3.3542	-4.4458	-3.475	-3.5375	-4.4333	-3.1958	-4.0604	-4.1146	-3.3125	-4.3958	62.210	-22.311	43.242	-150.924	-13.461	-4.372	-44.623	136.083	75.909	22.335	75.454	-92.607	190.856	-8.238	203.761	138.691	0.00039042	0.0011563	0.00010385	1211.9	1.1035e-05	3.5049e-06	1111.2	294.06	4.1197e-06	1.3427e-05	279.76	85.897	76.978	31.208	1.2556e-05	38.566	0.0076909	0.012433	0.0034841	1121.6	0.00012827	0.00013977	1021.7	272.82	0.00012316	0.00014012	271.22	87.019	79.464	30.022	0.00013048	37.772	-73.806	31.926	-6.536	-140.758	-67.807	44.818	-141.667	-136.251	-150.900	46.099	-138.022	-133.165	-131.244	-127.690	-7.266	-130.398	-8191	255	
1434.474	1	1	0	0	0.14087	0.17553	0.24707	0.27178	0.19028	0.16446	0.24062	0.15699	0.14685	0.15271	0.15395	0.21923	0.21797	0.19438	0.081395	0.077868	-3.2542	-3.5896	-4.2854	-3.4125	-3.9333	-3.9521	-3.2958	-4.2521	-3.65	-3.4938	-4.2729	-3.3646	-4.05	-4.1583	-3.1458	-4.2667	157.005	160.073	70.156	194.847	119.567	-129.228	174.802	141.588	-111.818	57.254	150.127	140.092	202.155	166.751	-4.682	144.681	0.00026751	0.0004837	0.0002987	1218	1.6635e-05	2.0643e-05	1106.5	294.17	8.1934e-06	1.1984e-05	283.47	86.621	77.028	31.311	5.6745e-06	38.873	0.0077488	0.012449	0.0034471	1124.1	0.00012822	0.00013807	1022.5	273.48	0.00012381	0.00013923	273.79	87.333	79.558	30.159	0.00013032	37.804	-81.116	-83.231	52.565	-140.693	172.847	-12.253	-142.280	-135.960	7.057	121.356	-137.934	-133.427	-131.872	-127.696	-123.693	-131.002	-8191	255	
1434.570	1	1	0	0	0.27305	0.14371	0.14938	0.12803	0.13369	0.043732	0.2608	0.14273	0.12261	0.14379	0.16223	0.2278	0.1853	0.25809	0.16076	0.062302	-3.4167	-3.5292	-4.2979	-3.575	-3.6333	-3.975	-3.3729	-4.1208	-3.575	-3.2458	-4.1354	-3.575	-3.7625	-4.1542	-3.2	-4.1125	138.466	-6.713	141.226	142.264	-149.326	-22.808	120.009	162.446	205.075	137.107	-92.766	93.820	-69.417	134.749	80.561	-128.089	0.00046311	0.0013543	0.0002626	1209.1	1.1433e-05	1.0072e-05	1115.2	294.24	2.7145e-06	6.781e-06	280.35	86.86	77.061	31.359	1.0186e-05	39.069	0.0076723	0.012408	0.0034481	1123.5	0.00012867	0.0001378	1027.5	274.38	0.00012352	0.0001381	274.09	87.606	79.694	30.272	0.00012779	38.098	-73.940	-15.299	25.040	-140.447	-40.222	-68.930	-141.834	-135.893	128.139	29.839	-137.763	-133.831	-131.870	-127.139	-60.330	-130.383	-8191	255	
1434.665	1	1	0	0	0.067979	0.13026	0.26951	0.16386	0.13443	0.084457	0.077233	0.16273	0.16113	0.21268	0.08761	0.11286	0.14648	0.17925	0.16478	0.26316	-3.5458	-3.1292	-4.2438	-3.5938	-3.4938	-4.1792	-3.4417	-4	-3.9146	-3.0958	-4.3042	-3.4458	-3.5708	-4.3208	-3.2875	-4.0104	-30.179	117.621	199.884	161.878	-72.476	-91.127	75.496	91.500	164.553	123.750	125.143	5.611	102.697	154.931	-106.402	145.389	0.00028571	0.00042754	0.00012375	1214.1	7.4762e-06	3.5802e-06	1109	293.85	1.2233e-05	1.1303e-05	278.52	86.032	76.368	31.254	7.7834e-06	38.55	0.0078075	0.012428	0.0035251	1126.1	0.00012968	0.00014179	1019.9	273.76	0.000125	0.00014074	271.23	86.899	79.368	30.061	0.00013309	37.556	-48.119	73.876	34.986	-140.775	20.970	81.051	-141.993	-135.798	-44.744	-4.902	-137.890	-133.262	-131.816	-127.448	182.106	-130.475	-8191	255	
1434.736	1	1	0	0	0.081069	0.23488	0.09511	0.16227	0.18484	0.1146	0.45411	0.18826	0.03275	0.090827	0.065676	0.31998	0.086299	0.19872	0.18619	0.15156	-3.5292	-3.1604	-4.0083	-3.5458	-3.3021	-4.2208	-3.3187	-3.8083	-3.9437	-3.2458	-4.0646	-3.7354	-3.3312	-4.3604	-3.3729	-3.6583	-9.202	92.428	-151.670	107.802	-2.710	54.036	149.036	-83.654	53.846	-113.392	-127.199	171.123	79.999	-145.252	-27.923	29.126	0.00032585	0.0008083	0.00010813	1216.1	1.5343e-05	1.1925e-05	1104.8	293.77	6.3878e-06	4.2299e-06	280.41	86.797	77.367	31.208	4.3526e-06	38.574	0.0078624	0.012613	0.0035391	1124.1	0.00013088	0.00014088	1021	273.61	0.00012723	0.00014221	272.83	87.472	79.997	30.161	0.00013256	37.882	-49.058	-75.189	110.299	-140.984	-25.023	147.856	-141.857	-135.883	45.105	-115.067	-137.930	-134.115	-131.792	-127.391	-46.648	-130.298	-8191	255	
1434.857	1	1	0	0	0.12267	0.27506	0.074796	0.10052	0.026959	0.20833	0.46253	0.22989	0.10271	0.06637	0.11928	0.25448	0.14757	0.047719	0.080352	0.10471	-3.8604	-3.2917	-4.0792	-3.9167	-3.3438	-4.3187	-3.5667	-3.5958	-4.1458	-3.2938	-4.0729	-3.9354	-3.3333	-4.2937	-3.425	-3.5875	161.754	53.536	129.359	125.847	-115.746	32.384	129.614	158.261	-6.639	-105.460	75.207	-105.506	-128.579	200.479	23.751	-89.003	0.0004991	0.00044638	0.00017793	1217.8	2.1605e-05	1.4652e-05	1117.7	294.26	7.4998e-06	2.1481e-05	280.46	87.157	77.572	31.257	1.1554e-05	38.972	0.0078242	0.012673	0.0035318	1126.5	0.0001298	0.0001391	1027.1	274.31	0.00012572	0.00014033	273.27	87.662	79.815	30.182	0.00013218	38.035	-71.318	-123.023	41.992	-141.088	-28.142	-2.893	-141.791	-135.989	-42.819	-5.443	-137.826	-133.546	-131.717	-127.409	56.119	-130.232	-8191	255	
1434.953	1	1	0	0	0.15769	0.2065	0.19787	0.32736	0.22164	0.15049	0.28008	0.19924	0.17724	0.1102	0.33073	0.14887	0.28734	0.010964	0.18398	0.080721	-3.8479	-3.1562	-4.1312	-4.0062	-3.3354	-4.1333	-3.8646	-3.6562	-4.2542	-3.2292	-3.9771	-4.0979	-3.4958	-4.2208	-3.6625	-3.5854	-5.983	-145.279	79.224	117.261	-30.325	-73.352	78.099	90.660	-144.457	-109.999	181.828	83.408	145.648	161.806	100.771	74.890	0.00049726	0.0010995	0.0002185	1219.6	1.6991e-05	7.3466e-06	1119.5	296.28	1.0601e-05	1.459e-05	283.53	87.931	77.59	31.058	1.1772e-05	39.066	0.0077525	0.012377	0.0035334	1128.8	0.00012945	0.00013886	1028.3	275.02	0.00012292	0.00013987	274.67	88.053	80.001	30.287	0.00013112	38.196	-56.446	-108.770	83.717	-140.841	-117.798	57.904	-141.812	-136.130	82.450	-114.732	-138.129	-133.749	-130.711	-127.565	127.816	-130.290	-8191	255	
1435.049	1	1	0	0	0.34328	0.051237	0.12403	0.18842	0.071922	0.24746	0.28474	0.39863	0.16942	0.22443	0.066074	0.17347	0.14232	0.21637	0.047304	0.14119	-3.8458	-3.3125	-3.7375	-4.2688	-3.225	-4.1104	-3.7792	-3.6771	-4.325	-3.5375	-3.6896	-4.1958	-3.2042	-4.2854	-3.6813	-3.4646	-113.864	46.117	180.210	164.280	-69.162	-98.114	128.208	157.955	101.032	7.517	187.508	143.372	6.193	145.354	137.059	126.150	0.00026916	0.00070572	0.00010673	1212.8	4.0382e-06	6.3231e-06	1106.4	293.17	1.0234e-05	5.2963e-06	279.82	86.379	77.57	31.169	1.6317e-05	38.852	0.0078822	0.012763	0.0035671	1127.1	0.00013167	0.00014241	1021	273.91	0.00012842	0.00014411	272.71	87.36	80.018	30.192	0.00013398	37.845	-48.338	-78.824	-109.713	-140.606	169.779	-41.471	-141.831	-136.138	28.579	-1.690	-137.969	-133.669	-131.946	-127.320	-80.508	-130.267	-8191	255	
1435.145	1	1	0	0	0.19729	0.29374	0.088878	0.17841	0.17	0.16156	0.22933	0.070251	0.095043	0.1782	0.086302	0.093762	0.22418	0.14476	0.028187	0.059879	-4.1104	-3.325	-3.5833	-4.1521	-3.3438	-3.9771	-3.9167	-3.4229	-4.2167	-3.5292	-3.6729	-4.2646	-3.45	-3.9958	-3.7917	-3.2812	-106.778	118.423	2.255	202.495	-137.597	-64.679	190.586	135.597	178.247	24.051	-87.374	119.973	-146.927	-36.218	36.231	26.936	0.00040111	0.0012706	0.00010379	1210.5	1.0789e-05	6.9625e-06	1109.6	291.87	1.1114e-06	1.4038e-05	279.62	85.237	77.354	31.124	1.6697e-05	38.792	0.0079304	0.012686	0.0035705	1122.5	0.00013234	0.00014255	1021	272.99	0.00012751	0.00014317	272.36	87.093	79.836	30.148	0.00013311	37.834	-62.305	-67.872	-57.506	-140.789	190.808	26.560	-141.742	-136.068	4.681	-129.491	-137.814	-133.328	-131.920	-127.544	-82.167	-130.190	-8191	255	
1435.266	1	1	0	0	0.20097	0.07336	0.092863	0.16512	0.13217	0.16994	0.051086	0.16532	0.24326	0.23128	0.29117	0.25227	0.23488	0.19371	0.2627	0.17982	-3.675	-3.5438	-3.6167	-4.25	-3.1875	-4.0437	-3.9062	-3.4271	-4.1167	-3.5646	-3.6729	-4.2667	-3.4313	-3.7708	-4.1021	-3.3104	1.648	25.570	76.227	161.187	-144.279	-91.193	-25.560	-128.701	-134.689	-52.784	148.022	-120.389	-150.679	153.615	-85.174	169.620	0.00051434	0.00043697	0.00012608	1220.9	1.5472e-05	9.2148e-06	1111.9	294.02	1.4095e-05	8.2401e-06	281.9	86.586	77.776	31.48	2.2435e-05	38.943	0.0078424	0.012654	0.0035305	1129.2	0.00012956	0.00013995	1023.6	273.76	0.00012565	0.00014098	273.86	87.669	79.962	30.235	0.00013127	38.08	-78.286	-95.913	189.644	-141.069	167.102	37.467	-141.593	-136.090	31.274	5.026	-137.446	-133.758	-131.322	-127.668	3.798	-130.224	-8191	255	
1435.362	1	1	0	0	0.11036	0.14882	0.12999	0.13619	0.19622	0.054028	0.10451	0.17671	0.11925	0.16026	0.023024	0.17592	0.2928	0.39953	0.22579	0.29356	-3.775	-3.5333	-3.4292	-4.3729	-3.2792	-3.7271	-4.35	-3.2125	-4.2042	-3.7979	-3.5792	-4.2229	-3.4896	-3.6792	-3.9625	-3.3104	177.870	173.540	-21.804	-140.510	112.108	4.838	176.156	150.711	106.348	127.710	-47.618	-20.953	134.229	134.768	-129.809	184.010	0.00028166	0.00040613	0.00053804	1221	1.4199e-05	3.1706e-06	1122.2	295.26	4.2938e-06	2.1456e-05	281.75	86.967	77.222	31.306	7.0116e-06	38.964	0.0078579	0.012422	0.0034872	1129.3	0.00012942	0.00013873	1030.6	274.55	0.0001248	0.00013942	274.49	88.023	79.771	30.269	0.00013234	38.06	-76.230	-60.034	86.760	-140.687	46.672	-1.306	-141.879	-136.247	-103.044	-115.186	-137.963	-133.410	-131.597	-127.132	-135.698	-130.389	-8191	255	
1435.434	1	1	0	0	0.10903	0.22251	0.07858	0.083972	0.070411	0.12331	0.25839	0.10803	0.19477	0.25811	0.17938	0.23761	0.14735	0.1432	0.19805	0.12641	-3.5312	-3.7062	-3.1542	-4.2667	-3.3312	-3.6167	-4.2021	-3.3896	-3.9792	-3.9625	-3.4333	-4.2396	-3.5729	-3.6875	-4.2854	-3.4292	167.508	71.925	-143.453	142.480	52.468	163.160	133.622	70.563	-133.932	-2.200	-138.500	-146.411	22.946	-117.413	13.426	-88.624	0.00026896	0.0012423	0.00029866	1220.1	1.3442e-05	1.4343e-05	1112	294.61	1.13e-05	1.0732e-05	278.59	86.063	77.158	31.233	1.1549e-05	38.487	0.0078705	0.01263	0.0035921	1130.9	0.00013139	0.00014211	1024.1	273.59	0.00012615	0.00014326	271.34	87.081	79.733	30.139	0.00013303	37.701	-63.975	-59.522	89.097	-140.819	-71.110	50.728	-141.833	-135.988	33.208	-36.930	-137.626	-133.664	-132.049	-127.306	-144.036	-130.377	-8191	255	
1435.554	1	1	0	0	0.13672	0.079834	0.047826	0.042027	0.15973	0.15417	0.31838	0.23508	0.088872	0.1605	0.21794	0.19241	0.10293	0.17941	0.22243	0.12539	-3.4396	-3.8979	-3.1125	-4.2	-3.6917	-3.4604	-4.3354	-3.5104	-3.7896	-4.1562	-3.3708	-4.1729	-3.6813	-3.3958	-4.3562	-3.5104	-26.818	-117.706	-26.417	32.341	93.675	188.161	148.183	-152.784	-41.192	-30.173	111.201	186.205	201.007	-62.452	108.292	-92.936	0.00054248	0.00034835	0.00020122	1213.7	8.7092e-06	1.7936e-05	1107.7	293.23	4.0628e-06	3.8097e-06	282.03	86.286	77.091	31.232	1.7186e-05	38.609	0.0078878	0.012639	0.0035518	1127.8	0.00013058	0.00014127	1023.8	273.28	0.00012667	0.00014306	273.45	87.527	79.29	30.184	0.000131	37.738	-51.675	-111.775	-120.491	-140.726	-144.276	77.034	-141.981	-136.173	13.280	157.261	-137.799	-133.046	-131.782	-127.639	124.600	-130.283	-8191	255	
#DATA ENDS
