BOXY.EXE: ISS Imagent and Oximeter Data Acquisition Program Version 0.80
Ascii Record File

#ACQ INFORMATION
2  Detector Channels 
16  External MUX Channels 
1  Auxiliary Channels 
5000  Waveform (CCF) Frequency (Hz)
1  Waveforms Skipped 
30  Waveforms Averaged 
1  Cycles Averaged 
16  Acquisitions per Waveform 
10.0806  Updata Rate (Hz) 

#FILE INFORMATION
TRUE -- External MUX Channel results are PARSED.
FALSE -- AC DC and Phase are NOT grouped.
TRUE -- Companion Program Settings File CREATED.
FALSE -- AC data not excluded
FALSE -- DC data not excluded
FALSE -- Phase data not excluded
FALSE -- Auxillary Chn. data not excluded
Tab delimiters

#CALIBRATION STATE
TRUE -- Waveform Calibration Values APPLIED.


#AUX CALIBRATION VALUES
Val Type	aux-1	

Term	1.0000e+00	
Factor	0.0000e+00	


#WF CALIBRATION VALUES
A = Detector Channel
Val Type	A-AC1	A-AC2	A-AC3	A-AC4	A-AC5	A-AC6	A-AC7	A-AC8	A-AC9	A-AC10	A-AC11	A-AC12	A-AC13	A-AC14	A-AC15	A-AC16	A-DC1	A-DC2	A-DC3	A-DC4	A-DC5	A-DC6	A-DC7	A-DC8	A-DC9	A-DC10	A-DC11	A-DC12	A-DC13	A-DC14	A-DC15	A-DC16	A-Ph1	A-Ph2	A-Ph3	A-Ph4	A-Ph5	A-Ph6	A-Ph7	A-Ph8	A-Ph9	A-Ph10	A-Ph11	A-Ph12	A-Ph13	A-Ph14	A-Ph15	A-Ph16	

Term	0.00000e+00	0.00000e+00	0.00000e+00	0.00000e+00	0.00000e+00	0.00000e+00	0.00000e+00	0.00000e+00	0.00000e+00	0.00000e+00	0.00000e+00	0.00000e+00	0.00000e+00	0.00000e+00	0.00000e+00	0.00000e+00	0.00000e+00	0.00000e+00	0.00000e+00	0.00000e+00	0.00000e+00	0.00000e+00	0.00000e+00	0.00000e+00	0.00000e+00	0.00000e+00	0.00000e+00	0.00000e+00	0.00000e+00	0.00000e+00	0.00000e+00	0.00000e+00	0.00000e+00	0.00000e+00	0.00000e+00	0.00000e+00	0.00000e+00	0.00000e+00	0.00000e+00	0.00000e+00	0.00000e+00	0.00000e+00	0.00000e+00	0.00000e+00	0.00000e+00	0.00000e+00	0.00000e+00	0.00000e+00	
Factor	1.00000e+00	1.00000e+00	1.00000e+00	1.00000e+00	1.00000e+00	1.00000e+00	1.00000e+00	1.00000e+00	1.00000e+00	1.00000e+00	1.00000e+00	1.00000e+00	1.00000e+00	1.00000e+00	1.00000e+00	1.00000e+00	1.00000e+00	1.00000e+00	1.00000e+00	1.00000e+00	1.00000e+00	1.00000e+00	1.00000e+00	1.00000e+00	1.00000e+00	1.00000e+00	1.00000e+00	1.00000e+00	1.00000e+00	1.00000e+00	1.00000e+00	1.00000e+00	X	X	X	X	X	X	X	X	X	X	X	X	X	X	X	X	

B = Detector Channel
Val Type	B-AC1	B-AC2	B-AC3	B-AC4	B-AC5	B-AC6	B-AC7	B-AC8	B-AC9	B-AC10	B-AC11	B-AC12	B-AC13	B-AC14	B-AC15	B-AC16	B-DC1	B-DC2	B-DC3	B-DC4	B-DC5	B-DC6	B-DC7	B-DC8	B-DC9	B-DC10	B-DC11	B-DC12	B-DC13	B-DC14	B-DC15	B-DC16	B-Ph1	B-Ph2	B-Ph3	B-Ph4	B-Ph5	B-Ph6	B-Ph7	B-Ph8	B-Ph9	B-Ph10	B-Ph11	B-Ph12	B-Ph13	B-Ph14	B-Ph15	B-Ph16	

Term	0.00000e+00	0.00000e+00	0.00000e+00	0.00000e+00	0.00000e+00	0.00000e+00	0.00000e+00	0.00000e+00	0.00000e+00	0.00000e+00	0.00000e+00	0.00000e+00	0.00000e+00	0.00000e+00	0.00000e+00	0.00000e+00	0.00000e+00	0.00000e+00	0.00000e+00	0.00000e+00	0.00000e+00	0.00000e+00	0.00000e+00	0.00000e+00	0.00000e+00	0.00000e+00	0.00000e+00	0.00000e+00	0.00000e+00	0.00000e+00	0.00000e+00	0.00000e+00	-3.55938e+01	-1.27701e+02	-1.25281e+02	-1.82617e+02	-5.40153e+01	-6.01161e+01	-1.56707e+02	-1.61923e+02	-3.23848e+01	-6.96501e+01	-1.72081e+02	-1.72121e+02	-1.82310e+02	-1.75613e+02	-4.80221e+01	-1.49421e+02	
Factor	1.75935e-05	1.27067e-04	3.90881e-05	1.69756e-01	1.41494e-06	1.43045e-06	1.51472e-01	4.16107e-02	1.27005e-06	1.46452e-06	7.00974e-02	2.89022e-02	2.93523e-02	6.32495e-03	1.47419e-06	9.43134e-03	9.40978e-06	1.53733e-05	4.30930e-06	8.73817e-02	1.59016e-07	1.71387e-07	7.34779e-02	2.15944e-02	1.53695e-07	1.73083e-07	3.51862e-02	1.45699e-02	1.52597e-02	3.31565e-03	1.61020e-07	4.78232e-03	X	X	X	X	X	X	X	X	X	X	X	X	X	X	X	X	



#DISTANCE SETTINGS
A = Detector Channel
A-1	A-2	A-3	A-4	A-5	A-6	A-7	A-8	A-9	A-10	A-11	A-12	A-13	A-14	A-15	A-16	

1.0000e+01	1.0000e+01	1.0000e+01	1.4500e+00	1.0000e+01	1.0000e+01	1.5100e+00	1.9500e+00	1.0000e+01	1.0000e+01	2.0100e+00	2.5000e+00	2.4400e+00	2.9500e+00	1.0000e+01	3.0100e+00	

B = Detector Channel
B-1	B-2	B-3	B-4	B-5	B-6	B-7	B-8	B-9	B-10	B-11	B-12	B-13	B-14	B-15	B-16	

1.0000e+01	1.0000e+01	1.0000e+01	1.4500e+00	1.0000e+01	1.0000e+01	1.5100e+00	1.9500e+00	1.0000e+01	1.0000e+01	2.0100e+00	2.5000e+00	2.4400e+00	2.9500e+00	1.0000e+01	3.0100e+00	




#DATA BEGINS
time	group	step	mark	flag	A-AC1	A-AC2	A-AC3	A-AC4	A-AC5	A-AC6	A-AC7	A-AC8	A-AC9	A-AC10	A-AC11	A-AC12	A-AC13	A-AC14	A-AC15	A-AC16	A-DC1	A-DC2	A-DC3	A-DC4	A-DC5	A-DC6	A-DC7	A-DC8	A-DC9	A-DC10	A-DC11	A-DC12	A-DC13	A-DC14	A-DC15	A-DC16	A-Ph1	A-Ph2	A-Ph3	A-Ph4	A-Ph5	A-Ph6	A-Ph7	A-Ph8	A-Ph9	A-Ph10	A-Ph11	A-Ph12	A-Ph13	A-Ph14	A-Ph15	A-Ph16	B-AC1	B-AC2	B-AC3	B-AC4	B-AC5	B-AC6	B-AC7	B-AC8	B-AC9	B-AC10	B-AC11	B-AC12	B-AC13	B-AC14	B-AC15	B-AC16	B-DC1	B-DC2	B-DC3	B-DC4	B-DC5	B-DC6	B-DC7	B-DC8	B-DC9	B-DC10	B-DC11	B-DC12	B-DC13	B-DC14	B-DC15	B-DC16	B-Ph1	B-Ph2	B-Ph3	B-Ph4	B-Ph5	B-Ph6	B-Ph7	B-Ph8	B-Ph9	B-Ph10	B-Ph11	B-Ph12	B-Ph13	B-Ph14	B-Ph15	B-Ph16	aux-1	digaux	

2200.986	1	1	0	512	0.22731	0.16406	0.24336	0.1913	0.11845	0.10845	0.3422	0.11527	0.099627	0.12139	0.18286	0.1003	0.36347	0.15479	0.13839	0.051239	-3.8833	-3.2875	-3.9146	-3.8042	-3.2604	-4.0833	-3.6417	-3.6063	-4.1833	-3.3333	-4.0396	-4.0083	-3.1729	-4.225	-3.6271	-3.55	375.341	329.410	198.881	419.950	485.240	485.473	416.137	405.356	501.676	404.103	471.366	255.167	421.949	226.944	144.505	433.403	0.00034756	0.00018781	0.00013743	1054.9	8.7428e-06	4.3856e-06	1217	311.47	4.7997e-06	6.1406e-06	391.37	100.77	67.324	15.501	5.5303e-06	23.829	0.0013507	0.0020081	0.00056625	936.74	2.1023e-05	2.2541e-05	1073.8	276.23	2.035e-05	2.2513e-05	348.09	89.937	61.317	14.149	2.1412e-05	21.762	294.360	219.460	205.886	155.936	357.907	160.874	154.268	161.552	318.878	263.084	159.242	164.244	165.258	171.798	324.084	168.024	-8191	255	
2201.106	1	1	0	0	0.072032	0.18852	0.2002	0.19328	0.10342	0.10318	0.17954	0.28156	0.099132	0.11867	0.038729	0.09702	0.082642	0.15733	0.27152	0.19387	-3.9479	-3.3167	-3.8625	-4.1333	-3.25	-4.2208	-3.8688	-3.6833	-4.2125	-3.3167	-3.825	-4.0729	-3.2646	-4.1625	-3.5312	-3.4854	442.298	373.220	238.329	159.566	156.896	405.833	455.303	440.106	276.591	292.578	306.971	380.337	420.679	437.036	288.079	397.866	0.00041322	0.00022341	0.00012652	1057.5	7.7791e-06	4.1897e-06	1224.5	312.45	5.4787e-06	8.5369e-06	392.93	100.77	67.35	15.225	1.7621e-06	23.431	0.0013122	0.0019691	0.00055545	937.58	2.032e-05	2.2164e-05	1078.7	275.96	1.9701e-05	2.1754e-05	347.45	89.537	60.819	13.995	2.0281e-05	21.429	290.528	205.962	248.002	156.245	262.238	311.381	154.261	161.463	233.409	261.237	158.816	163.601	165.668	171.770	252.382	167.470	-8191	255	
2201.202	1	1	0	0	0.11151	0.054108	0.10759	0.019437	0.14546	0.30418	0.078827	0.33347	0.17855	0.27645	0.2228	0.1179	0.071245	0.08271	0.11621	0.12582	-3.9104	-3.3187	-3.6833	-4.175	-3.1479	-4.0938	-3.9208	-3.3646	-4.0979	-3.5104	-3.9104	-4.0583	-3.2167	-3.9271	-3.7292	-3.2229	149.979	192.551	161.728	375.253	400.650	217.430	152.289	413.281	312.824	395.492	153.940	145.781	492.774	219.930	411.171	166.141	0.00041619	0.00035697	5.6521e-05	1053	1.1667e-05	2.4834e-06	1220.3	310.52	8.2677e-06	2.1354e-06	386.74	99.527	67.643	15.277	2.544e-06	23.504	0.0013235	0.0019558	0.00054234	932.82	2.0138e-05	2.1154e-05	1068.2	274.29	1.9757e-05	2.1776e-05	344.36	88.697	60.764	13.981	2.0355e-05	21.353	285.332	289.765	341.412	155.954	284.322	285.021	154.318	161.144	325.112	263.478	159.257	163.731	165.930	171.630	273.337	167.671	-8191	255	
2201.297	1	1	0	0	0.21989	0.074773	0.27707	0.25132	0.062433	0.17047	0.024849	0.10106	0.17664	0.15368	0.15648	0.15688	0.15217	0.092541	0.063694	0.12471	-3.7313	-3.4062	-3.3625	-4.3417	-3.4292	-3.8521	-4.1458	-3.4333	-4.1083	-3.6125	-3.65	-4.4646	-3.3521	-3.9917	-3.9375	-3.1854	418.695	392.771	175.835	485.636	378.227	254.012	417.698	209.151	367.966	349.621	491.312	472.339	321.101	461.048	252.063	394.344	0.00032999	0.00034432	0.00016113	1058	8.7055e-06	4.1949e-06	1213.6	309.97	4.5585e-06	4.4623e-06	390.33	100.56	66.937	15.286	4.8398e-06	23.452	0.0012803	0.0019288	0.0005473	933.4	2.0336e-05	2.0937e-05	1069.5	274.47	1.9189e-05	2.1584e-05	347.14	89.217	60.593	13.94	2.0363e-05	21.48	286.579	245.733	269.434	156.188	263.405	246.826	154.589	161.301	342.419	246.316	159.163	163.861	165.678	172.123	347.984	167.716	-8191	255	
2201.393	1	1	0	0	0.28279	0.13724	0.18176	0.036189	0.16652	0.19042	0.23897	0.16471	0.11621	0.040454	0.075828	0.071495	0.18758	0.35041	0.11989	0.22724	-3.8292	-3.5312	-3.5896	-4.25	-3.2458	-3.7458	-4.2417	-3.3729	-4.0083	-3.7167	-3.3688	-4.2625	-3.3375	-3.4458	-3.9146	-3.3812	260.199	255.646	473.764	325.949	449.888	431.234	463.554	444.974	377.610	182.226	328.137	259.065	212.519	201.393	471.117	368.349	0.00036433	0.00056358	0.00011858	1053.5	1.6496e-06	7.662e-06	1220.3	309.57	8.6941e-06	5.2941e-06	390.8	100.93	68.16	15.434	8.4662e-06	23.671	0.0013019	0.0019233	0.00053915	934.45	2.0337e-05	2.1852e-05	1074.7	274.5	1.9559e-05	2.1426e-05	347.81	90.143	60.948	14.064	2.0224e-05	21.597	288.677	228.447	219.655	155.531	435.350	215.809	153.253	160.430	331.345	289.124	158.360	163.304	164.259	170.555	314.939	166.378	-8191	255	
2201.513	1	1	0	0	0.1869	0.32972	0.30216	0.11305	0.30063	0.17011	0.29436	0.11914	0.16211	0.3125	0.05214	0.23197	0.067937	0.15189	0.20067	0.086033	-3.6646	-3.7687	-3.2104	-4.4042	-3.4646	-3.4604	-4.4458	-3.1833	-3.9271	-3.95	-3.5458	-4.2937	-3.4521	-3.4458	-4.0333	-3.3458	441.343	375.332	274.643	500.875	151.859	352.594	456.997	472.720	169.841	151.654	470.419	487.858	420.357	223.604	434.606	405.120	0.00031777	0.0003062	0.00016607	1059.9	3.0476e-06	7.2452e-06	1220.6	309.42	5.288e-06	2.5623e-06	393.19	99.806	67.751	15.214	7.6298e-06	23.357	0.001288	0.0019497	0.00053404	937.33	1.9701e-05	2.1574e-05	1076.2	274.17	1.9592e-05	2.1651e-05	347.37	89.512	60.708	13.93	2.046e-05	21.44	283.266	491.486	227.455	155.326	365.725	309.226	153.248	160.476	302.818	353.621	158.116	162.898	164.378	170.406	312.810	166.742	-8191	255	
2201.585	1	1	0	0	0.053267	0.021264	0.096191	0.10906	0.14564	0.0728	0.22853	0.093254	0.03601	0.12763	0.12937	0.071842	0.11127	0.1079	0.2	0.094505	-3.4521	-3.8479	-3.0771	-4.2312	-3.5542	-3.4188	-4.3625	-3.4333	-3.775	-3.9083	-3.1937	-4.2021	-3.4958	-3.3771	-4.0938	-3.5208	409.723	296.000	469.059	347.697	474.763	220.643	497.886	447.763	449.346	400.828	481.332	302.065	233.717	472.319	413.383	410.033	0.00037352	0.00026035	0.00012453	1054.7	4.8964e-06	6.6957e-06	1218.8	307.59	1.4346e-06	6.0774e-06	386.61	99.788	67.895	15.474	9.8827e-06	23.701	0.0013014	0.0019539	0.00054704	932.03	2.0169e-05	2.1653e-05	1073.7	272.55	2.0115e-05	2.212e-05	345.68	89.39	60.922	14.081	2.1071e-05	21.701	286.738	362.790	197.791	155.259	307.829	274.752	153.469	160.156	379.315	322.430	157.995	163.382	164.449	170.658	289.782	167.006	-8191	255	
2201.681	1	1	0	0	0.036749	0.071552	0.2561	0.19626	0.11033	0.21337	0.16174	0.27307	0.14389	0.13315	0.47852	0.13061	0.18616	0.15238	0.20549	0.26587	-3.35	-4.0312	-3.2604	-4.0292	-3.7083	-3.3146	-4.3729	-3.35	-3.5604	-4.0354	-3.3417	-3.9417	-3.9104	-3.3125	-4.0375	-3.4896	289.614	241.676	377.438	499.578	295.009	312.230	450.096	416.874	456.305	264.399	423.606	451.377	443.147	268.124	179.968	440.560	0.00035573	0.00037724	6.8503e-05	1056.4	4.5145e-06	1.6511e-06	1223.9	309.48	1.8851e-06	1.808e-06	392.53	101.3	67.664	15.516	7.0189e-06	24.311	0.0013739	0.0019807	0.00057766	931.16	2.1556e-05	2.2836e-05	1075.6	274.02	2.1369e-05	2.3459e-05	348.89	90.388	61.128	14.255	2.3536e-05	22.079	281.119	241.801	297.330	155.187	466.223	269.915	153.712	160.259	296.457	207.780	158.054	163.059	164.660	170.991	331.902	166.890	-8191	255	
2201.802	1	1	0	0	0.088333	0.090387	0.097142	0.11895	0.11126	0.066503	0.27767	0.17148	0.049484	0.065179	0.083559	0.25104	0.16138	0.18212	0.17127	0.2175	-3.2938	-4.0979	-3.2583	-4.0708	-3.7583	-3.2479	-4.3063	-3.7313	-3.4208	-4.175	-3.325	-3.7833	-3.9625	-3.1188	-3.9917	-3.6417	242.032	319.748	388.344	160.597	221.005	300.461	369.537	463.464	320.330	397.462	428.843	431.146	144.801	410.172	476.105	309.971	0.00046414	0.00052646	0.00021645	1054.7	5.3606e-06	3.055e-06	1226.9	310.06	1.1485e-05	3.1147e-06	392.55	101.02	68.1	15.754	2.7497e-06	24.32	0.0014968	0.0021608	0.00062459	934.85	2.3122e-05	2.4809e-05	1078.1	275.24	2.25e-05	2.4524e-05	349.89	90.346	61.325	14.383	2.2222e-05	22.245	291.224	258.659	259.650	155.744	345.985	487.156	153.769	160.454	334.907	222.476	158.202	163.721	164.933	171.109	272.803	167.108	-8191	255	
2201.898	1	1	0	0	0.14253	0.10329	0.069922	0.15685	0.10216	0.27713	0.28062	0.30111	0.15621	0.068415	0.095789	0.34023	0.14467	0.11595	0.14729	0.22866	-3.0771	-4.1083	-3.4646	-3.9458	-4.05	-3.2604	-4.2583	-3.8	-3.4208	-4.0854	-3.4188	-3.7042	-4.1625	-3.2417	-4.0542	-3.7708	357.959	145.899	260.173	443.000	155.522	374.185	462.609	437.491	363.352	334.899	322.025	488.632	480.868	390.604	220.416	445.374	0.00038904	0.00059592	0.00026254	1057.5	5.6024e-06	7.4882e-06	1223.4	310.06	1.4955e-06	5.6222e-06	393.31	101.17	67.327	15.657	4.6486e-06	24.411	0.0014115	0.0021175	0.00056796	932.62	2.1909e-05	2.3042e-05	1077.3	274.67	2.0657e-05	2.3027e-05	348.98	90.144	60.582	14.311	2.0466e-05	22.214	286.637	259.606	224.531	155.277	238.896	262.689	153.823	160.027	354.288	229.732	157.799	162.889	164.301	171.105	316.178	166.619	-8191	255	
2201.994	1	1	0	0	0.19621	0.074984	0.13605	0.15631	0.053502	0.075471	0.28348	0.14699	0.082129	0.16094	0.26241	0.18383	0.15056	0.29248	0.23341	0.15249	-2.8729	-4.1667	-3.3729	-3.6688	-4.1687	-3.2104	-4.1167	-3.8979	-3.2896	-4.1396	-3.5125	-3.5917	-4.1521	-3.3167	-3.7771	-3.8479	174.403	479.135	387.135	223.636	497.895	469.368	499.018	178.220	238.755	448.746	402.138	471.975	291.342	143.903	214.142	299.846	0.00025979	0.00026283	0.00010153	1045.8	8.8714e-07	7.8401e-06	1223.9	310.75	4.5905e-06	2.7521e-06	390.29	100.91	67.641	15.919	8.9303e-06	24.673	0.0013559	0.0019736	0.00054817	928.38	2.0796e-05	2.1821e-05	1075.5	274.88	2.0508e-05	2.3019e-05	348.82	90.327	60.992	14.493	2.1969e-05	22.438	275.903	247.600	228.945	155.717	254.185	272.729	154.102	160.547	314.982	289.080	158.219	163.149	164.379	171.491	349.357	167.127	-8191	255	
2202.090	1	1	0	0	0.1832	0.22368	0.11798	0.23965	0.088102	0.2164	0.30505	0.10479	0.14663	0.043317	0.20586	0.18222	0.063882	0.12951	0.1305	0.02419	-3.0604	-3.9208	-3.4625	-3.4813	-4.2583	-3.2792	-3.8854	-4.1583	-3.2667	-4.2063	-3.8917	-3.3917	-4.1271	-3.3854	-3.6208	-4.0646	305.067	190.176	213.021	277.773	147.140	340.008	433.613	468.774	375.022	354.401	347.404	435.731	343.274	395.761	358.764	223.847	0.00029477	0.00063152	0.0002134	1052.3	7.831e-06	1.4344e-05	1220.1	310.09	1.0891e-05	6.0665e-06	394.2	102.39	67.522	15.7	8.8909e-06	24.639	0.0013965	0.0020299	0.00058802	928.71	2.133e-05	2.2316e-05	1073.5	274.68	1.9824e-05	2.1639e-05	349.92	90.794	61.208	14.325	2.0527e-05	22.468	286.967	210.110	242.693	155.743	230.619	322.750	153.892	160.414	299.444	265.728	158.448	162.747	164.789	171.058	288.465	167.113	-8191	255	
2202.187	1	1	0	0	0.23099	0.072148	0.075354	0.11415	0.22605	0.20127	0.31086	0.1965	0.26918	0.058311	0.098289	0.25895	0.13436	0.26176	0.10641	0.097952	-2.6125	-4.0896	-3.5333	-3.4583	-4.0687	-3.45	-3.8521	-4.2729	-3.1375	-3.9708	-3.8312	-3.3208	-4.2354	-3.5062	-3.5708	-4.1625	214.048	427.478	360.066	475.734	347.554	455.359	470.105	449.854	269.592	299.871	248.727	471.346	235.282	206.232	170.953	177.434	0.00037526	0.00095621	6.3471e-05	1054.3	1.1137e-05	1.0859e-05	1220.9	309.11	4.1054e-06	9.6232e-06	393.04	102.34	66.68	15.59	4.5192e-06	24.449	0.0013466	0.0019771	0.00055626	927.56	2.097e-05	2.2455e-05	1075.2	274.11	1.9953e-05	2.2515e-05	349.87	91.047	60.367	14.208	2.0703e-05	22.207	277.822	226.784	249.074	155.737	324.503	312.479	154.000	160.347	247.560	310.914	158.477	163.247	164.614	170.863	271.435	167.269	-8191	255	
2202.283	1	1	0	0	0.08415	0.19099	0.15777	0.39454	0.10545	0.21854	0.18278	0.10463	0.127	0.067272	0.14649	0.16096	0.18506	0.12748	0.20357	0.14706	-2.8271	-3.9354	-3.7458	-3.2229	-4.1208	-3.3688	-3.7062	-4.1312	-3.35	-3.8292	-3.9646	-3.1958	-4.0896	-3.4542	-3.3563	-4.1417	405.466	355.767	176.941	498.835	246.185	364.541	386.703	483.238	418.499	471.021	479.830	415.201	418.993	178.337	406.314	404.371	0.00029326	0.00020695	0.00020188	1040.6	1.6942e-06	9.6685e-06	1215.5	306.94	2.0533e-06	6.9739e-06	387.62	99.86	66.532	15.206	4.6615e-06	23.872	0.0012968	0.001919	0.00054771	922.44	2.0311e-05	2.1311e-05	1068.6	271.9	1.992e-05	2.2035e-05	345.29	89.382	60.071	13.901	2.0474e-05	21.827	289.488	187.345	284.339	155.444	335.699	309.234	154.101	160.587	210.372	257.158	158.511	163.326	164.587	171.516	312.965	167.314	-8191	255	
2202.402	1	1	0	0	0.34035	0.28755	0.16839	0.1522	0.1437	0.1808	0.4709	0.16231	0.1376	0.12619	0.17972	0.014451	0.13362	0.030706	0.24185	0.10036	-2.9271	-3.6604	-3.9667	-3.4	-4.075	-3.4437	-3.5479	-4.3104	-3.3458	-3.6521	-4.1354	-3.3146	-3.9542	-3.5187	-3.2833	-4.3646	189.940	243.331	331.534	494.773	410.759	447.136	418.843	490.243	295.883	332.315	463.237	301.032	152.878	384.081	329.928	257.198	0.00036277	0.00075565	3.2779e-05	1035.7	7.7294e-06	3.8812e-06	1208.6	304.73	6.6423e-06	3.8953e-06	389.58	100.42	66.549	15.471	3.4791e-06	23.684	0.0013164	0.0019565	0.00054206	918.32	2.0314e-05	2.1621e-05	1064.8	270.66	1.923e-05	2.1316e-05	345.33	89.412	60.078	13.994	1.9825e-05	21.787	285.246	250.475	236.715	155.608	251.913	246.020	154.070	160.603	319.391	307.843	158.089	163.136	164.635	170.708	268.871	167.135	-8191	255	
2202.498	1	1	0	0	0.33814	0.14042	0.14454	0.25291	0.082588	0.30949	0.14367	0.084134	0.091475	0.094851	0.17264	0.045157	0.17082	0.38865	0.15594	0.14331	-2.9167	-3.6667	-4.0396	-3.2542	-4.0042	-3.6417	-3.4458	-4.2417	-3.1188	-3.4479	-4.1167	-3.3125	-3.8542	-3.9354	-3.1458	-4.0583	355.499	286.539	375.945	489.274	232.074	340.296	418.625	488.134	442.424	297.861	395.900	487.767	409.213	462.848	241.243	196.988	0.00029153	0.00090596	0.00018491	1041.3	3.2332e-06	4.2038e-06	1204.8	305	7.5117e-06	6.8574e-06	388.46	100.52	66.653	15.303	3.8755e-06	23.845	0.0012665	0.0018983	0.00051469	919.85	1.9503e-05	2.0945e-05	1066.9	270.69	1.8966e-05	2.1326e-05	346.17	89.566	60.031	13.945	1.9939e-05	21.814	284.166	219.708	269.320	155.724	290.027	279.802	153.890	160.215	264.248	271.904	158.417	162.446	164.957	170.620	377.704	166.915	-8191	255	
2202.594	1	1	0	0	0.066474	0.11111	0.10585	0.097638	0.026758	0.07788	0.20842	0.43033	0.066601	0.1344	0.11928	0.25823	0.27983	0.27151	0.15949	0.12628	-3.1479	-3.475	-4.1042	-3.3146	-3.7375	-3.9417	-3.4	-4.05	-3.6583	-3.2042	-4.1583	-3.3896	-3.8875	-3.8708	-3.1021	-4.0604	199.404	167.332	230.637	167.338	238.119	495.514	339.352	450.639	432.342	366.329	423.890	315.467	420.660	484.006	478.397	471.040	0.0004037	0.00056539	5.7691e-05	1041	8.5702e-06	5.2573e-06	1211.6	304.61	7.8249e-06	2.3867e-06	389.57	100.41	65.975	14.757	7.207e-06	23.565	0.0012476	0.0018441	0.00051519	917.12	1.9193e-05	2.0256e-05	1068.2	270.07	1.8044e-05	2.0317e-05	346.37	89.436	59.731	13.678	1.9255e-05	21.523	288.268	180.254	212.866	155.156	325.313	310.474	153.919	160.370	313.667	296.220	158.202	163.098	165.035	170.919	346.492	167.116	-8191	255	
2202.690	1	1	0	0	0.15254	0.1509	0.16406	0.17736	0.21398	0.11018	0.16707	0.25808	0.080192	0.13903	0.16686	0.061527	0.11351	0.068714	0.16797	0.21777	-3.3688	-3.4688	-3.9854	-3.5271	-3.7021	-3.9562	-3.4583	-4.1458	-3.7333	-3.25	-4.3646	-3.4562	-3.6771	-4.1104	-3.2083	-3.95	366.351	284.207	450.329	487.983	436.957	287.397	345.515	493.247	193.531	492.396	445.806	490.272	259.425	501.581	199.666	428.678	0.00033801	0.00016979	0.00016142	1030	5.43e-06	7.2907e-06	1197.5	299.32	4.8219e-06	3.8814e-06	382.77	98.616	65.069	14.65	7.3775e-06	22.924	0.0012095	0.0018417	0.00051168	910.4	1.9474e-05	2.0855e-05	1056.9	266.33	1.8911e-05	2.141e-05	340.67	87.73	58.787	13.393	1.8636e-05	21.015	284.920	182.496	203.949	155.480	259.647	264.440	153.878	160.480	311.408	362.528	158.352	163.185	164.690	171.262	328.087	167.333	-8191	255	
2202.762	1	1	0	0	0.30719	0.093137	0.19825	0.17684	0.2314	0.096462	0.10674	0.31993	0.070291	0.086394	0.22812	0.22269	0.19715	0.14143	0.13254	0.070367	-3.4896	-3.3438	-4.1583	-3.4562	-3.5667	-4.0563	-3.4188	-4.0917	-3.8958	-3.275	-4.3417	-3.4229	-3.3438	-3.9854	-3.2667	-3.9625	448.226	209.796	448.062	383.413	171.767	251.710	491.360	435.691	145.964	335.872	157.122	480.102	419.221	289.631	455.160	380.779	0.00032172	0.0004604	0.00027099	1019.8	2.088e-06	3.954e-06	1194.7	301.42	5.3383e-06	3.1146e-06	385.45	99.129	65.3	14.556	4.1579e-06	23.205	0.0011957	0.0018322	0.00051028	903.92	1.8426e-05	2.0029e-05	1056.6	266.71	1.8219e-05	2.0641e-05	342.63	88.109	58.979	13.393	1.8618e-05	21.201	288.489	253.174	242.207	155.662	299.524	301.671	153.624	160.594	278.344	439.320	158.153	163.366	165.107	171.112	358.460	167.314	-8191	255	
2202.882	1	1	0	0	0.13866	0.22659	0.13097	0.14912	0.24853	0.11694	0.25088	0.2598	0.074133	0.15923	0.19194	0.28205	0.22244	0.1653	0.060473	0.16651	-3.5333	-3.3208	-4.1146	-3.4979	-3.2875	-4.3187	-3.5208	-4.0104	-4.0792	-3.0938	-4.3354	-3.7021	-3.4188	-4.3042	-3.2062	-3.7167	474.761	283.507	243.962	435.871	268.369	151.788	154.835	484.559	377.603	196.126	166.094	438.939	440.786	352.304	348.877	439.817	0.00028964	0.00013359	3.3585e-05	1031.8	5.7615e-06	3.3627e-06	1206.7	303.43	2.4957e-06	6.9676e-06	387.21	100.66	65.849	14.961	6.1647e-06	23.872	0.0011662	0.0017201	0.00048649	910.57	1.7739e-05	1.9436e-05	1063.6	268.6	1.7879e-05	2.0385e-05	345.38	89.465	59.426	13.566	1.9105e-05	21.562	280.523	177.434	245.026	155.178	306.026	270.773	153.653	160.494	239.941	355.206	158.250	163.194	165.166	170.931	378.656	166.985	-8191	255	
2202.978	1	1	0	0	0.058852	0.12005	0.15226	0.11009	0.11649	0.18454	0.35927	0.28713	0.11432	0.3228	0.16386	0.021724	0.059311	0.0474	0.20817	0.24907	-3.5979	-3.2271	-4.0333	-3.7625	-3.0542	-4.2708	-3.5271	-3.7396	-3.9271	-3.1688	-4.1729	-3.775	-3.2979	-4.0563	-3.3208	-3.5563	191.433	206.885	212.020	480.987	347.810	445.435	451.828	457.250	288.876	283.728	467.129	312.163	395.686	150.127	268.393	411.099	0.00034113	0.00049037	6.3568e-05	1036.5	4.0302e-06	2.7059e-06	1209.1	302.14	2.81e-06	4.2127e-06	389.68	100.19	65.356	14.699	3.9492e-06	23.532	0.0011927	0.0017918	0.00048737	913.59	1.7845e-05	1.9343e-05	1066.3	268.67	1.7333e-05	1.9358e-05	345.97	89.263	58.995	13.463	1.8119e-05	21.343	296.364	286.199	301.108	155.501	292.072	301.197	154.036	160.769	331.954	255.167	158.544	163.814	164.459	171.384	338.852	167.629	-8191	255	
2203.075	1	1	0	0	0.11931	0.1945	0.12775	0.36628	0.27096	0.052519	0.23857	0.31567	0.27851	0.12246	0.079948	0.13987	0.23024	0.025393	0.25548	0.050744	-3.8312	-3.0646	-3.9292	-3.9625	-3.275	-4.1042	-3.6292	-3.5042	-4.1417	-3.3375	-3.9292	-4.1646	-3.2521	-4.2167	-3.6271	-3.3958	376.397	359.802	219.813	437.592	454.226	452.315	434.302	142.794	434.629	447.025	413.836	285.095	394.661	458.954	154.040	405.009	0.00038964	0.0006938	0.00014439	1027.1	1.0396e-06	6.8023e-06	1197.6	301.33	4.6348e-06	6.9387e-06	384.17	99.684	65.241	14.645	1.0741e-05	23.447	0.0012007	0.0017333	0.00048428	908.4	1.8756e-05	1.981e-05	1058.1	266.26	1.7435e-05	1.9506e-05	342.12	88.485	58.735	13.363	1.7969e-05	21.232	289.135	177.399	245.673	155.870	491.658	307.954	153.836	160.655	292.428	291.051	158.793	163.180	164.880	171.069	308.967	167.188	-8191	255	
2203.171	1	1	0	0	0.19146	0.22813	0.11215	0.08407	0.19176	0.12279	0.1325	0.02487	0.032504	0.081648	0.22671	0.053194	0.20362	0.12512	0.11789	0.12626	-3.7292	-2.9688	-3.775	-4.0354	-3.2562	-4.1687	-3.9062	-3.5208	-4.2167	-3.3917	-3.6125	-4.0188	-3.2396	-4.0062	-3.9542	-3.3583	435.131	380.392	420.201	497.234	384.471	362.433	371.852	279.266	198.315	291.725	363.537	158.615	468.173	231.939	163.477	469.882	0.00034697	0.00073534	0.00017591	1027.9	8.6498e-06	1.5765e-06	1202.1	301.61	2.3093e-06	2.5197e-06	386.37	99.245	64.941	14.583	4.6305e-06	23.429	0.0011509	0.001731	0.00046695	906.64	1.7995e-05	1.8825e-05	1057.8	267.22	1.7242e-05	1.8879e-05	344.04	88.753	58.633	13.382	1.8065e-05	21.234	280.295	233.753	223.690	155.670	297.946	212.485	154.009	160.587	319.221	279.995	158.413	163.177	164.681	171.503	476.001	167.274	-8191	255	
2203.290	1	1	0	0	0.18285	0.088452	0.028362	0.26759	0.18704	0.14999	0.34959	0.16197	0.096836	0.042021	0.24933	0.33423	0.13895	0.11254	0.075949	0.10011	-3.6958	-3.5292	-3.6063	-4.1188	-3.1333	-4.0521	-3.7833	-3.425	-4.1188	-3.5062	-3.7562	-4.3271	-3.3063	-3.8937	-3.8229	-3.3229	357.286	470.311	259.038	457.191	500.719	373.842	412.600	474.100	466.126	393.954	173.665	478.040	390.223	250.092	346.107	498.055	0.00033338	0.00071742	6.7528e-05	1033.4	6.0869e-06	6.0332e-06	1209.1	302.38	4.615e-06	6.1384e-06	389.63	100.02	65.025	14.744	4.7716e-06	23.592	0.0011315	0.0016618	0.00047977	910.26	1.7432e-05	1.826e-05	1067.4	268.24	1.7438e-05	1.9504e-05	345.68	89.566	58.948	13.47	1.865e-05	21.448	294.723	215.414	213.259	155.350	332.881	338.532	153.901	160.670	329.048	247.016	158.707	162.537	165.424	170.967	334.277	167.711	-8191	255	
2203.386	1	1	0	0	0.24862	0.091818	0.12967	0.06647	0.12221	0.091349	0.28091	0.10619	0.085218	0.15141	0.087782	0.09405	0.12004	0.1227	0.065853	0.22902	-3.7375	-3.35	-3.2292	-4.1771	-3.2146	-3.7583	-4.1146	-3.2896	-4.2063	-3.5646	-3.5792	-4.2708	-3.4042	-3.8979	-3.8729	-3.3354	355.396	324.659	318.901	370.217	256.531	361.340	447.054	237.601	147.145	191.048	491.041	460.331	197.640	486.294	478.943	464.409	0.00041207	0.00030596	0.00025009	1023.9	1.8068e-06	8.6699e-06	1205.7	300.03	7.3427e-07	3.4862e-06	387.7	100.09	64.869	14.575	7.9049e-06	22.971	0.0011618	0.0016967	0.00047722	907.67	1.8116e-05	1.9123e-05	1061.6	266.56	1.7418e-05	1.9585e-05	344.46	88.621	58.48	13.267	1.7789e-05	20.969	283.698	146.747	205.490	155.716	417.248	291.608	153.603	160.766	238.926	257.628	158.758	163.121	164.964	171.259	377.955	167.520	-8191	255	
2203.482	1	1	0	0	0.21908	0.076998	0.18317	0.20193	0.12362	0.025826	0.22444	0.14549	0.2231	0.24744	0.13932	0.14907	0.3131	0.15704	0.018741	0.1289	-3.6646	-3.7354	-3.1896	-4.1188	-3.3521	-3.6	-4.1125	-3.2625	-3.9313	-3.6833	-3.4188	-4.1208	-3.2938	-3.5521	-4.0104	-3.1604	164.111	453.703	325.575	434.337	160.873	360.823	409.396	186.189	473.085	490.817	497.210	437.541	176.630	447.632	427.639	375.098	0.00035687	0.00047437	0.0001391	1019.2	4.7159e-06	7.4432e-06	1196.2	298.87	2.8663e-06	2.8557e-06	384.64	99.307	64.411	14.5	1.0187e-05	22.943	0.0011431	0.0016546	0.0004725	903.21	1.7155e-05	1.7779e-05	1056.6	264.98	1.6663e-05	1.8302e-05	341.79	88.35	58.247	13.259	1.7702e-05	20.902	281.092	298.522	239.967	155.528	319.791	327.855	153.648	160.743	313.362	285.983	158.228	163.628	164.851	171.363	314.430	167.500	-8191	255	
2203.578	1	1	0	0	0.24664	0.23986	0.1134	0.14471	0.073552	0.13814	0.22008	0.085254	0.24853	0.052051	0.19465	0.32224	0.048795	0.13257	0.1411	0.16209	-3.4708	-3.8271	-3.2979	-4.2083	-3.4042	-3.4792	-4.2708	-3.4292	-3.8625	-4.0396	-3.2771	-4.2021	-3.4813	-3.3271	-4.0792	-3.4104	324.361	325.488	378.650	443.316	453.994	368.871	155.739	335.032	243.868	461.248	150.802	171.558	424.097	383.068	186.162	202.736	0.00035384	0.0010504	0.00016302	1025.1	6.1037e-06	2.7574e-06	1208.9	299.62	8.2113e-06	6.6305e-06	387.65	100.43	65.76	14.644	9.0835e-06	23.35	0.0011249	0.001718	0.00045926	905.13	1.7196e-05	1.8997e-05	1059.6	266.2	1.711e-05	1.7881e-05	345.3	89.158	58.608	13.38	1.6898e-05	21.287	288.779	209.529	269.696	155.714	290.629	231.961	154.023	160.641	314.800	313.150	158.630	163.367	164.506	171.120	239.620	167.267	-8191	255	
2203.674	1	1	0	0	0.25406	0.10843	0.18606	0.27809	0.17831	0.1418	0.24688	0.30429	0.19126	0.18095	0.15132	0.13902	0.19308	0.18811	0.13111	0.31965	-3.3854	-3.8146	-3.2479	-4.2688	-3.3812	-3.2542	-4.3562	-3.3792	-3.6979	-3.9104	-3.3187	-4.2208	-3.7604	-3.3958	-4.1875	-3.5	278.709	410.113	390.389	389.783	270.012	339.424	464.967	144.325	212.288	178.175	457.070	328.894	477.972	439.453	200.746	227.791	0.00035747	0.00028133	0.00015058	1027.1	7.8977e-06	9.3448e-06	1207.5	301.54	5.6901e-06	2.7697e-06	386.35	100.72	65.228	14.642	6.4107e-06	23.541	0.0010891	0.001603	0.00046	906.36	1.7258e-05	1.9004e-05	1062.7	267.31	1.7466e-05	1.9359e-05	345.13	89.572	58.848	13.459	1.9082e-05	21.401	287.560	221.330	371.631	155.962	298.319	283.032	154.294	160.848	273.637	218.801	158.830	163.734	164.739	171.880	329.480	167.074	-8191	255	
2203.770	1	1	0	0	0.22719	0.29849	0.14056	0.1419	0.13662	0.2947	0.28308	0.05073	0.14205	0.20865	0.12801	0.12892	0.11893	0.16269	0.17115	0.2808	-3.3625	-4.1083	-3.2083	-4.2125	-3.8292	-3.325	-4.3396	-3.4708	-3.3354	-4.1896	-3.2687	-3.9958	-3.8708	-3.1979	-4.1042	-3.5292	387.636	437.291	421.538	475.844	246.168	201.334	420.725	362.711	383.922	195.499	470.914	253.337	195.939	185.102	488.010	442.758	0.00036937	5.8261e-05	0.00017512	1019.5	8.8075e-06	5.6462e-06	1214.1	299.83	5.7164e-06	3.2102e-06	385.27	99.326	65.329	14.623	6.6131e-06	23.073	0.0011802	0.0017244	0.00048605	906.56	1.7459e-05	1.8836e-05	1064.9	266.08	1.7011e-05	1.8488e-05	343.71	88.53	58.608	13.309	1.7312e-05	20.912	288.814	475.421	232.924	155.951	293.450	246.763	153.975	160.948	320.537	457.520	158.726	163.777	164.950	171.778	274.869	167.653	-8191	255	
2203.891	1	1	0	0	0.24128	0.057165	0.24442	0.24564	0.26415	0.24736	0.22436	0.35461	0.045098	0.08495	0.23162	0.10102	0.009972	0.27722	0.20975	0.19127	-3.2646	-4.1208	-3.2646	-3.8604	-3.7354	-3.275	-4.4958	-3.6792	-3.4396	-4.2542	-3.5021	-3.975	-4.0021	-3.2625	-4	-3.8042	313.398	378.101	410.665	483.879	397.598	361.369	477.880	448.434	204.595	490.008	501.776	256.451	219.560	438.778	245.498	293.099	0.00035038	0.0006397	0.00013401	1022.1	5.5143e-06	6.7629e-06	1202.6	297.26	5.3642e-06	5.1262e-06	386.35	98.259	65.292	14.5	4.7558e-06	23.219	0.0011542	0.0016863	0.00047562	903.22	1.7921e-05	1.8929e-05	1057.5	264.09	1.7023e-05	1.9251e-05	342.45	87.948	58.324	13.22	1.7745e-05	21.009	292.568	225.091	228.906	155.804	310.764	268.565	154.147	160.913	375.129	291.707	158.417	163.560	165.388	171.447	267.529	168.055	-8191	255	
2203.987	1	1	0	0	0.29967	0.049008	0.038574	0.17514	0.3103	0.059232	0.22263	0.14585	0.29565	0.11185	0.27925	0.1838	0.073682	0.11676	0.16506	0.07739	-3.1229	-4.2625	-3.3458	-3.9146	-4.0042	-3.075	-4.1521	-3.9104	-3.2979	-4.3146	-3.4125	-3.6583	-4.05	-3.1021	-3.9417	-4.0479	171.232	404.145	214.738	159.584	282.645	440.039	406.135	486.236	500.719	262.820	481.953	347.884	387.005	147.052	157.557	321.665	0.00035504	0.00039848	6.9814e-05	1023.6	3.5457e-06	5.8464e-06	1206.1	299.97	4.5318e-06	3.5615e-06	385.43	100.05	64.472	14.733	8.9524e-06	22.949	0.001171	0.001747	0.00048074	902.43	1.776e-05	1.8962e-05	1058.3	265.24	1.7606e-05	1.9644e-05	342.16	88.624	58.261	13.324	1.8445e-05	21.005	285.324	232.572	234.930	155.747	292.063	327.753	154.199	160.745	323.896	300.620	158.455	163.301	165.953	171.028	309.268	167.354	-8191	255	
2204.083	1	1	0	0	0.22364	0.15218	0.21818	0.087791	0.11509	0.20513	0.077954	0.34582	0.062131	0.080914	0.20971	0.27089	0.397	0.12575	0.24103	0.080858	-3.0354	-4.2479	-3.5875	-3.6542	-3.9833	-3.1583	-4.1312	-3.9646	-3.3063	-4.1146	-3.625	-3.3979	-4.2312	-3.3896	-3.8646	-4.0833	239.974	156.145	369.841	187.471	402.139	340.725	367.768	448.775	426.230	280.610	155.858	397.935	485.026	429.455	314.580	391.345	0.00037437	0.00023183	0.00012388	1024.4	7.2815e-06	8.1288e-06	1197.6	299.86	7.1737e-06	3.3146e-06	387.69	99.317	64.708	14.474	1.1845e-05	23.228	0.0012166	0.001766	0.00050386	906.22	1.8398e-05	1.9745e-05	1058.5	265.2	1.7757e-05	1.9967e-05	344.7	88.681	58.243	13.21	1.7853e-05	21.004	300.077	286.170	237.523	156.454	309.752	335.328	154.686	161.006	298.172	232.344	158.801	163.475	164.770	171.061	281.734	167.771	-8191	255	
2204.179	1	1	0	0	0.052706	0.14419	0.17926	0.14208	0.10741	0.13845	0.27133	0.12457	0.33239	0.19269	0.068491	0.07863	0.053934	0.18634	0.049863	0.14632	-3.0042	-4.1208	-3.5729	-3.5375	-4.1438	-3.3187	-3.8688	-4.1042	-3.3271	-4.2812	-3.9021	-3.4292	-4.2083	-3.2687	-3.6	-4.1896	272.436	198.120	293.517	315.394	366.274	442.055	389.221	321.361	311.883	317.190	385.943	346.564	226.812	471.280	305.692	153.466	0.00035196	0.00038031	0.00010553	1022	4.8935e-06	7.4469e-06	1199.3	296.7	4.7561e-06	5.2154e-06	382.46	97.852	64.323	14.318	4.6092e-06	22.745	0.0011642	0.0017467	0.00049032	901.55	1.813e-05	1.8859e-05	1056.4	263.16	1.7353e-05	1.9014e-05	338.95	87.338	57.764	13.045	1.8002e-05	20.643	288.416	223.145	255.987	155.870	324.444	288.665	154.224	160.859	319.282	274.992	158.178	163.449	164.394	171.096	252.201	167.176	-8191	255	
2204.274	1	1	0	0	0.23422	0.2381	0.063712	0.36531	0.12415	0.14016	0.098959	0.34124	0.15765	0.10527	0.16681	0.26732	0.21546	0.1717	0.041634	0.23752	-2.8229	-3.9396	-3.7667	-3.3187	-4.2	-3.4938	-3.8833	-4.1979	-3.1833	-4.0083	-3.8375	-3.3458	-4.125	-3.5417	-3.4479	-4.2021	478.327	352.817	272.285	440.009	346.785	340.518	147.745	461.226	322.509	300.327	468.527	489.958	454.414	434.458	309.820	498.790	0.0003129	0.00017783	0.00013783	1014.6	3.7393e-06	3.3421e-06	1193.7	296.27	5.5043e-06	5.9316e-06	383.92	98.389	64.904	14.403	1.1708e-06	22.93	0.0011577	0.0017255	0.00048789	896.95	1.7963e-05	1.929e-05	1050.2	262.97	1.7515e-05	1.9842e-05	340.44	87.704	58.106	13.125	1.849e-05	20.742	300.139	320.783	298.378	155.921	210.694	297.348	154.417	160.876	297.082	268.423	158.611	163.575	165.020	171.542	150.300	167.295	-8191	255	
2204.370	1	1	0	0	0.14205	0.080217	0.24793	0.12367	0.20425	0.16377	0.084618	0.14858	0.21208	0.15464	0.25801	0.25569	0.31145	0.059592	0.036651	0.13547	-2.6583	-4.0896	-3.8125	-3.2625	-4.1167	-3.5042	-3.7042	-4.1708	-3.3021	-3.8438	-4.0333	-3.3375	-4.0271	-3.7479	-3.4021	-4.2375	322.391	390.251	411.435	387.431	446.340	183.301	436.168	185.134	270.013	307.308	499.862	479.182	484.654	207.308	345.533	235.305	0.00027655	0.00075087	0.00022494	1018.6	6.1766e-06	2.371e-06	1201.7	298.35	4.2517e-06	3.4928e-06	383.18	99.071	64.677	14.407	4.6261e-06	23.243	0.0011777	0.0017558	0.00047763	897.64	1.8646e-05	1.9459e-05	1055.7	263.98	1.7589e-05	1.964e-05	341.03	88.395	58.226	13.243	1.794e-05	21.057	285.271	262.316	216.065	156.152	266.983	161.126	154.373	160.777	316.004	285.895	159.100	163.479	165.083	171.513	182.622	167.679	-8191	255	
2204.468	1	1	0	0	0.29281	0.18324	0.20122	0.41452	0.09223	0.098386	0.038795	0.25355	0.20591	0.14064	0.075939	0.15985	0.070023	0.069234	0.037562	0.12596	-2.9604	-3.7292	-4.1646	-3.2917	-3.8354	-3.7958	-3.5146	-4.4125	-3.4188	-3.5896	-4.1146	-3.1375	-4.0125	-3.7646	-3.325	-4.1271	460.755	358.671	400.778	458.466	368.291	280.315	465.788	499.499	282.050	443.648	398.908	476.182	207.273	455.608	391.101	426.652	0.00033471	0.00028464	6.3722e-05	1019.1	2.4833e-06	5.3697e-06	1198.4	299.15	4.0328e-06	9.8235e-06	385.77	99.934	65.013	14.514	3.5699e-06	23.096	0.0011529	0.0017292	0.00049551	903.82	1.8322e-05	1.9566e-05	1057.8	266.02	1.8261e-05	2.0115e-05	343.64	88.812	58.508	13.241	1.9097e-05	21.037	285.801	282.433	307.608	156.332	225.131	283.228	154.672	161.131	328.735	267.740	158.866	163.985	165.354	171.665	282.783	168.122	-8191	255	
2204.587	1	1	0	0	0.091924	0.16402	0.1013	0.13507	0.17348	0.069858	0.2348	0.12493	0.20583	0.38843	0.16497	0.14243	0.092941	0.067264	0.18513	0.32221	-2.9708	-3.4583	-4.1438	-3.3812	-3.9917	-3.8021	-3.5208	-4.2812	-3.4208	-3.4542	-4.2708	-3.3521	-3.9375	-3.9104	-3.1958	-4.2688	212.402	201.559	156.430	463.934	283.044	467.851	421.211	150.740	441.220	502.721	422.552	184.662	153.232	198.956	483.965	416.071	0.00038963	0.00073774	0.00019302	1015.6	7.5691e-06	2.9877e-06	1194.2	298.66	3.9062e-06	4.6787e-06	383.42	98.729	64.392	14.483	6.3346e-06	22.732	0.0012093	0.0017477	0.00047163	899.63	1.8551e-05	1.8967e-05	1052.3	264.54	1.7549e-05	1.9222e-05	340.21	87.603	58.024	13.172	1.8048e-05	20.736	284.655	267.622	218.853	156.133	289.591	411.248	154.639	161.333	349.658	347.112	159.003	164.184	165.910	171.768	318.756	167.858	-8191	255	
2204.683	1	1	0	0	0.088404	0.046157	0.1147	0.067437	0.030367	0.030767	0.31612	0.36389	0.14476	0.13822	0.22134	0.27468	0.064954	0.10079	0.022543	0.079455	-3.1708	-3.3937	-4.2625	-3.4042	-3.5521	-3.9521	-3.3229	-4.1396	-3.5917	-3.5	-4.3667	-3.3792	-3.7083	-4.0771	-3.2062	-4.2542	337.937	146.463	327.120	171.591	406.184	266.691	439.151	440.557	337.040	342.568	469.111	170.492	451.056	469.451	339.960	436.509	0.00038942	0.000299	0.00013899	1015.7	2.1457e-06	4.2132e-07	1184.7	298.96	5.6639e-06	3.6231e-06	382.79	98.791	64.515	14.518	2.6557e-06	22.881	0.0011349	0.0017238	0.00046573	899.84	1.7817e-05	1.863e-05	1049.8	264.67	1.7242e-05	1.9444e-05	340.72	87.918	58.143	13.224	1.7615e-05	20.895	288.438	211.232	250.043	156.195	232.961	150.261	154.652	161.262	309.461	281.657	158.676	163.566	166.264	172.245	326.164	168.062	-8191	255	
2204.755	1	1	0	0	0.21104	0.082323	0.10688	0.30219	0.015456	0.12139	0.12827	0.27612	0.11114	0.38639	0.30426	0.11504	0.091084	0.13692	0.052865	0.1892	-3.3646	-3.3354	-4.0375	-3.5271	-3.6104	-4.0062	-3.3646	-4.1604	-3.8125	-3.2021	-4.4187	-3.6854	-3.4625	-4.0396	-3.2479	-4.0958	434.665	477.252	182.492	155.494	378.390	341.409	451.372	432.884	307.784	373.645	452.597	487.337	286.569	355.589	481.041	369.660	0.00026427	0.00031068	0.00015196	1014.4	5.9478e-06	9.6163e-06	1203.9	300.65	5.9866e-06	4.3401e-06	389.95	100.07	64.82	14.717	6.3101e-06	23.246	0.0011415	0.0016747	0.0004741	898.79	1.7602e-05	1.8395e-05	1058.3	266.05	1.7208e-05	1.8356e-05	345.13	88.928	58.574	13.356	1.7665e-05	21.132	293.102	196.383	250.850	156.208	245.592	314.516	154.624	161.618	290.298	294.446	158.963	163.717	165.627	172.421	209.872	167.814	-8191	255	
2204.851	1	1	0	0	0.15331	0.16676	0.039729	0.21802	0.098627	0.21891	0.2577	0.1196	0.29418	0.24039	0.29954	0.36869	0.20584	0.08955	0.082723	0.11582	-3.6188	-3.225	-4.0479	-3.5812	-3.4146	-4.0625	-3.5625	-4.05	-3.8458	-3.0187	-4.1937	-3.5042	-3.3979	-4.1917	-3.2896	-3.9104	249.999	435.666	289.867	148.787	190.511	362.232	432.446	455.149	398.272	255.275	454.189	490.588	451.243	212.424	175.426	252.341	0.00032921	0.00071912	0.00013536	1018.5	4.4389e-08	1.0502e-06	1204.7	299.48	4.5211e-06	8.2742e-06	387.97	99.784	65.16	14.627	4.4893e-06	23.13	0.0011156	0.0016642	0.000465	901.53	1.7005e-05	1.8305e-05	1060.3	266.25	1.6669e-05	1.87e-05	344.23	88.405	58.488	13.278	1.7491e-05	20.951	285.457	257.099	267.519	155.562	351.158	259.101	154.721	161.185	358.928	268.720	158.727	163.797	165.276	172.241	305.910	167.645	-8191	255	
2204.971	1	1	0	0	0.14561	0.15127	0.11883	0.17304	0.12953	0.25187	0.47429	0.29199	0.1853	0.03897	0.3137	0.23422	0.15579	0.36418	0.2295	0.16832	-3.5729	-3.0917	-4.15	-3.6167	-3.3354	-4.2833	-3.4333	-3.7604	-3.9792	-3.1	-4.1521	-3.6875	-3.3438	-4.0813	-3.2521	-3.6833	423.565	358.623	452.024	436.595	374.340	280.098	422.103	442.537	404.268	450.038	327.061	365.498	191.167	461.495	463.996	364.073	0.00031187	0.00030031	8.8145e-05	1021.5	6.2347e-06	3.3272e-06	1196.8	300.79	5.1866e-06	7.8417e-06	384.94	98.482	64.528	14.151	7.7426e-06	22.679	0.0010949	0.0015794	0.0004494	900.84	1.7379e-05	1.7946e-05	1050.7	264.97	1.6293e-05	1.8456e-05	340.84	87.111	57.921	13.088	1.6945e-05	20.56	281.983	150.014	237.738	155.930	286.656	319.236	154.258	161.643	277.755	276.344	159.237	163.452	165.793	171.703	194.108	167.764	-8191	255	
2205.068	1	1	0	0	0.1129	0.27148	0.1039	0.052586	0.1701	0.10334	0.19318	0.15142	0.033424	0.13852	0.12691	0.10595	0.13653	0.098484	0.21624	0.13178	-3.7333	-3.1375	-4.0125	-3.7375	-3.1813	-4.1083	-3.5708	-3.5521	-4.0167	-3.2021	-4.1021	-3.875	-3.3104	-4.2271	-3.5083	-3.4688	244.877	216.008	416.567	170.302	381.282	261.585	304.150	429.893	448.657	387.891	178.076	446.152	445.645	416.051	465.177	449.767	0.00035031	0.00020048	0.00017706	1017.6	2.0085e-06	5.2221e-06	1201.7	301.33	9.5915e-06	9.8965e-06	386.7	99.179	65.195	14.552	4.7982e-06	23.029	0.0011363	0.0016405	0.00046782	898.47	1.6698e-05	1.8215e-05	1055.8	265.92	1.6059e-05	1.7891e-05	342.74	88.098	58.418	13.195	1.6682e-05	20.827	293.361	242.570	267.182	155.805	319.357	233.008	154.202	161.090	306.667	321.674	158.776	163.530	165.379	171.144	390.142	167.309	-8191	255	
2205.164	1	1	0	0	0.12317	0.078778	0.11489	0.093137	0.19502	0.055991	0.26037	0.12118	0.27208	0.052007	0.13509	0.10459	0.089888	0.32743	0.086405	0.085184	-3.8312	-3.3875	-3.8125	-3.8812	-3.2792	-4.0083	-3.6688	-3.6021	-4.1438	-3.2167	-4.0042	-4.1021	-3.2667	-4.05	-3.6667	-3.4792	318.369	189.488	483.255	493.900	303.996	339.052	457.984	471.286	255.230	459.180	143.009	485.591	498.880	457.848	191.147	280.346	0.00034619	0.00033098	9.6818e-05	1018.5	8.56e-06	1.062e-05	1201.3	300.89	3.0865e-06	1.9377e-06	388.68	100.44	65.699	14.741	9.758e-06	23.16	0.0010763	0.0015886	0.00044483	903.05	1.6979e-05	1.7688e-05	1057.1	266.47	1.5721e-05	1.7746e-05	344.21	89.027	58.918	13.352	1.6393e-05	21.12	286.695	256.176	249.825	155.999	267.689	255.649	154.336	160.988	318.648	145.207	158.721	163.616	165.452	171.823	300.083	167.772	-8191	255	
2205.284	1	1	0	0	0.48984	0.17904	0.20309	0.11527	0.087629	0.035018	0.21622	0.15505	0.083332	0.10907	0.18784	0.051207	0.058352	0.28514	0.2469	0.12614	-3.7812	-3.1667	-3.5792	-4.2354	-3.2146	-3.9813	-3.8563	-3.4771	-4.3396	-3.5104	-3.75	-4.0604	-3.2812	-3.9646	-3.6479	-3.2875	146.117	411.816	325.256	302.872	250.223	169.436	401.246	398.631	367.731	376.464	413.612	475.227	340.349	497.749	481.550	167.729	0.00032913	0.00045568	9.9566e-05	1020.7	6.7288e-06	4.9703e-06	1200.7	302.06	7.8998e-06	8.4257e-06	386.08	99.713	65.447	14.776	1.5027e-06	22.887	0.0010616	0.0015791	0.00045544	905.83	1.654e-05	1.741e-05	1061.1	267.52	1.6164e-05	1.7825e-05	344.22	88.546	58.956	13.354	1.6321e-05	20.926	287.609	282.243	408.767	156.141	280.701	215.472	154.372	161.354	307.064	290.639	158.792	162.998	165.330	171.466	341.016	167.875	-8191	255	
2205.356	1	1	0	0	0.06866	0.10416	0.052538	0.19512	0.049685	0.13368	0.36926	0.46332	0.090553	0.048594	0.32703	0.20345	0.23284	0.109	0.071826	0.2586	-3.8583	-3.5771	-3.5292	-4.3396	-3.1396	-3.8979	-4.075	-3.3688	-4.3187	-3.575	-3.6479	-4.0667	-3.1521	-3.8854	-3.7729	-3.2	481.034	203.410	215.710	213.375	306.239	421.573	436.003	460.549	226.008	252.221	363.098	474.326	438.851	415.750	233.905	416.783	0.0003194	0.00045211	0.00023841	1028.1	4.6793e-06	4.7109e-06	1201.6	303.07	3.601e-06	4.9422e-06	386.59	98.93	65.11	14.677	8.7108e-06	22.902	0.0010655	0.0015841	0.0004342	905.16	1.5929e-05	1.7166e-05	1058.5	267.68	1.5533e-05	1.7727e-05	343.59	88.483	58.735	13.384	1.6447e-05	20.84	289.269	261.554	219.546	156.081	304.560	250.914	154.279	160.954	331.338	284.141	159.158	163.633	165.707	171.997	340.205	167.720	-8191	255	
2205.452	1	1	0	0	0.13203	0.14353	0.19495	0.10263	0.2133	0.13339	0.09735	0.18803	0.19834	0.14193	0.062161	0.23135	0.15128	0.11118	0.13324	0.18171	-3.8792	-3.4854	-3.2125	-4.2229	-3.3625	-3.8771	-4.3771	-3.1896	-3.9021	-3.8042	-3.5875	-3.9938	-3.3792	-3.5708	-4.2708	-3.2896	499.556	217.563	322.493	463.121	447.267	380.025	481.239	486.159	496.950	442.995	427.822	496.961	342.635	340.548	483.063	207.509	0.00025113	0.00011937	9.2745e-05	1026	5.549e-06	5.7052e-06	1211.4	303.88	3.1208e-06	1.512e-06	388.84	100.95	65.292	14.762	4.5982e-06	23.188	0.0010205	0.0015215	0.00042404	905.35	1.558e-05	1.6272e-05	1063.1	269.15	1.5594e-05	1.7283e-05	345.14	89.41	58.905	13.441	1.5885e-05	21.041	273.252	487.208	247.700	156.158	296.657	320.172	154.641	161.363	385.237	250.523	159.558	163.844	165.283	172.145	322.669	167.889	-8191	255	
2205.571	1	1	0	0	0.10874	0.021588	0.1321	0.30709	0.34461	0.060185	0.32277	0.16387	0.072309	0.20578	0.13864	0.045066	0.21124	0.1248	0.15931	0.20043	-3.5687	-3.5438	-3.3604	-4.1562	-3.3958	-3.3854	-4.2417	-3.2812	-3.9833	-3.8125	-3.4375	-4.1396	-3.4271	-3.6625	-4.0708	-3.3104	280.095	288.537	244.067	484.794	422.263	195.789	453.144	164.026	434.522	319.877	159.092	495.188	367.950	337.962	330.904	473.637	0.00033663	0.0008359	2.7099e-05	1022.2	3.1049e-06	1.6701e-06	1213.5	302.55	3.6189e-06	9.4937e-06	390.87	100.76	65.76	14.835	4.9919e-06	23.307	0.0010643	0.0015572	0.00043785	906.81	1.6566e-05	1.7042e-05	1064.9	268.41	1.562e-05	1.7054e-05	346.29	89.629	59.101	13.494	1.6642e-05	21.124	286.351	238.661	330.550	156.052	385.241	268.910	154.514	161.175	314.763	290.942	158.766	163.489	165.628	172.513	307.321	168.098	-8191	255	
2205.667	1	1	0	0	0.18893	0.095645	0.25886	0.24236	0.055505	0.13043	0.35827	0.12013	0.095942	0.21951	0.17085	0.37631	0.16356	0.19312	0.073158	0.032408	-3.4854	-3.6292	-3.3104	-4.1312	-3.4792	-3.4271	-4.3125	-3.5292	-3.8646	-4.0604	-3.3708	-4.1604	-3.5521	-3.3771	-4.2188	-3.3625	154.032	395.711	192.078	414.073	415.746	312.903	449.447	465.503	423.417	366.773	425.304	421.947	493.257	280.660	322.575	377.029	0.00032268	0.00041215	4.0245e-05	1029.8	6.9383e-06	4.7487e-06	1207.5	303.96	7.9e-06	1.6832e-06	390.39	99.807	65.321	14.856	1.0349e-05	22.81	0.0010618	0.0015395	0.00043422	908.93	1.5514e-05	1.6477e-05	1063.2	268.57	1.5791e-05	1.709e-05	344.89	88.458	58.951	13.422	1.5494e-05	20.679	289.376	247.391	208.909	156.415	328.162	319.365	154.340	161.234	304.617	164.723	158.676	163.749	165.336	172.596	332.878	167.336	-8191	255	
2205.763	1	1	0	0	0.058672	0.19799	0.16534	0.13699	0.2225	0.15293	0.086647	0.12446	0.13473	0.10652	0.39697	0.12909	0.095223	0.13623	0.066665	0.31098	-3.3812	-3.9646	-3.15	-4.0604	-3.7083	-3.3146	-4.275	-3.4646	-3.7229	-3.9542	-3.2625	-4.0417	-3.9188	-3.2812	-4.1292	-3.4021	306.125	472.338	240.243	469.290	458.683	331.183	433.212	456.461	444.223	453.011	390.728	409.492	246.803	167.631	236.729	327.590	0.0003995	0.00049485	0.00023258	1025.1	9.0455e-06	3.377e-06	1203.7	302.78	3.0715e-06	2.1926e-06	389.76	99.157	66.475	14.67	1.0347e-06	23.152	0.0010231	0.0014946	0.0004233	904.03	1.5658e-05	1.6323e-05	1057.8	267.87	1.5515e-05	1.6975e-05	344.64	88.306	59.039	13.335	1.5182e-05	20.813	274.444	302.026	244.106	156.416	344.371	338.317	154.333	161.578	329.969	334.626	158.903	164.141	165.752	171.865	453.240	167.801	-8191	255	
2205.884	1	1	0	0	0.093313	0.17589	0.25225	0.13687	0.046423	0.30693	0.27109	0.12781	0.29425	0.11791	0.10053	0.15854	0.11375	0.097911	0.11442	0.076388	-3.3271	-3.8583	-3.1521	-4.0396	-3.7896	-3.3729	-4.3354	-3.6146	-3.5208	-4.1937	-3.3521	-4.0813	-3.9771	-3.225	-4.2542	-3.5729	228.612	230.923	195.257	171.436	332.831	337.348	460.072	432.655	321.460	186.401	156.811	361.423	483.451	459.148	460.311	499.939	0.00036855	0.00037229	9.2326e-05	1024.2	1.8931e-06	2.7427e-06	1216.2	304.58	3.8967e-06	6.2133e-06	388.51	100.99	65.736	14.916	3.6707e-06	23.244	0.0010075	0.0014518	0.00039918	906.69	1.4909e-05	1.6628e-05	1066.6	269.32	1.4879e-05	1.5734e-05	345.56	89.323	59.41	13.464	1.5182e-05	21.038	289.107	182.897	158.638	156.176	322.885	385.215	154.532	161.290	349.126	301.256	158.996	163.860	165.291	171.401	330.229	167.897	-8191	255	
2205.956	1	1	0	0	0.17162	0.11882	0.11236	0.12199	0.36891	0.14619	0.26967	0.28467	0.089104	0.097368	0.16933	0.24361	0.10449	0.037939	0.055137	0.070677	-3.05	-4.2438	-3.3167	-3.8833	-4.1	-3.35	-4.2708	-3.8083	-3.3979	-4.2188	-3.2792	-3.8625	-3.9104	-3.2479	-4	-3.9125	274.525	223.303	411.305	500.727	441.002	219.370	431.384	452.676	305.620	403.495	390.196	387.745	163.444	465.543	461.540	483.256	0.00035785	0.0004865	0.00017574	1034	4.7012e-06	3.147e-06	1217.7	308.15	4.6622e-06	4.5965e-06	393.58	100.68	66.306	15.066	7.4631e-06	23.429	0.0010294	0.0014862	0.00041495	914.02	1.566e-05	1.659e-05	1068.6	271.21	1.481e-05	1.6163e-05	348.2	89.872	59.493	13.647	1.4898e-05	21.08	284.711	277.458	168.582	156.065	285.797	428.897	154.596	161.124	303.330	262.695	158.812	163.368	165.328	172.054	315.614	168.165	-8191	255	
2206.052	1	1	0	0	0.17773	0.30473	0.020652	0.14624	0.14275	0.088757	0.23004	0.29408	0.14218	0.015594	0.20565	0.09686	0.04439	0.067551	0.21572	0.30233	-2.925	-4.1833	-3.3854	-3.8187	-4.1354	-3.25	-4.0542	-3.8167	-3.2021	-4.1771	-3.3979	-3.6583	-4.0917	-3.3688	-3.9229	-3.8646	409.965	232.698	393.222	188.967	364.501	236.057	409.652	429.420	463.503	378.708	172.485	453.227	205.732	231.592	320.525	386.003	0.00035409	0.00068636	0.00012317	1036.7	3.0107e-06	2.7055e-06	1206	304.44	9.6921e-07	5.873e-06	390.06	99.875	66.506	14.853	1.9261e-06	23.001	0.0010448	0.0014946	0.00040836	911.45	1.5153e-05	1.5951e-05	1064.3	270.17	1.5282e-05	1.5769e-05	345.03	88.826	59.425	13.486	1.5401e-05	20.825	282.107	261.742	270.241	156.764	281.952	201.855	154.026	160.821	257.275	324.732	158.745	163.788	165.383	171.459	281.434	167.752	-8191	255	
2206.148	1	1	0	0	0.14756	0.21906	0.23374	0.20658	0.21654	0.10927	0.18275	0.25536	0.094725	0.15701	0.1093	0.11663	0.027543	0.2947	0.16346	0.19703	-3.0125	-4.2042	-3.3375	-3.5604	-4.1438	-3.3479	-3.9667	-3.9708	-3.0438	-4.0229	-3.5708	-3.4042	-4.1396	-3.1229	-3.6771	-3.8042	477.036	442.071	189.256	145.652	244.419	172.860	205.010	458.675	387.350	201.291	231.255	253.640	351.167	145.011	280.187	424.496	0.00036338	0.0004719	3.2138e-05	1025.5	2.8513e-06	2.9424e-06	1202.9	304.82	3.1352e-06	6.571e-06	389.49	98.821	66.684	14.87	2.9805e-06	23.092	0.0010431	0.0014608	0.00041364	907.47	1.562e-05	1.642e-05	1057.8	269.42	1.5088e-05	1.6753e-05	344.26	88.41	59.538	13.522	1.6624e-05	20.9	277.569	189.960	222.288	156.006	280.028	340.562	154.469	161.047	328.235	283.593	158.853	163.200	165.259	171.918	273.372	168.104	-8191	255	
2206.267	1	1	0	0	0.087717	0.14816	0.20805	0.15751	0.052449	0.13097	0.33968	0.14063	0.22253	0.28102	0.081037	0.20386	0.30544	0.10649	0.23486	0.23203	-2.8542	-4.0104	-3.525	-3.5917	-4.175	-3.2833	-3.7062	-4.1729	-3.1625	-3.95	-3.6604	-3.2646	-4.175	-3.3979	-3.4854	-4.1021	348.495	411.136	302.794	496.470	320.064	210.858	403.062	367.934	203.686	193.515	427.346	204.249	158.292	465.719	442.251	483.523	0.00034611	0.00062163	0.0001568	1024.4	5.3446e-06	8.5699e-06	1209.4	304.61	1.0691e-05	8.5196e-06	389.33	99.937	66.437	14.841	8.9652e-06	23.065	0.0010221	0.0015228	0.0004283	909.18	1.5811e-05	1.6821e-05	1064.8	270.26	1.568e-05	1.7067e-05	346.11	89.26	59.605	13.585	1.6066e-05	21.046	280.040	234.539	327.649	156.234	367.229	270.452	154.672	160.962	305.307	236.070	158.549	164.108	165.767	171.587	306.560	167.411	-8191	255	
2206.363	1	1	0	0	0.099394	0.054449	0.046928	0.029819	0.083038	0.078732	0.23602	0.40532	0.21956	0.33667	0.20351	0.24021	0.2561	0.18107	0.062839	0.2034	-2.6521	-4.1583	-3.7313	-3.2833	-4.1271	-3.3792	-3.575	-4.0646	-3.1646	-3.9042	-3.8604	-3.2375	-4.3125	-3.4604	-3.4271	-4.3125	494.409	355.545	482.068	402.747	350.399	341.954	455.409	416.880	162.465	433.914	410.772	231.229	336.569	443.605	434.287	418.171	0.00036477	0.00061421	0.00020632	1040.1	4.4827e-06	3.4682e-06	1218.5	306.14	5.7293e-06	9.8024e-06	391.39	101.51	66.9	14.94	1.7676e-06	23.059	0.0010679	0.0014819	0.00042	914.4	1.5658e-05	1.611e-05	1069.3	271.29	1.5277e-05	1.6284e-05	347.49	89.516	60.002	13.549	1.5538e-05	20.93	275.859	254.612	237.870	156.600	292.817	334.576	154.601	161.316	300.851	272.876	158.652	163.927	165.585	172.257	387.421	168.596	-8191	255	
2206.459	1	1	0	0	0.10674	0.23792	0.13253	0.17036	0.10715	0.18753	0.22509	0.15598	0.091722	0.097149	0.19645	0.039093	0.046695	0.07552	0.16738	0.15337	-2.8354	-3.8667	-3.7979	-3.2833	-3.9167	-3.6542	-3.6917	-4.1979	-3.2375	-3.7083	-3.9938	-3.0687	-4.0958	-3.7021	-3.3417	-4.1354	349.577	433.136	369.635	481.305	292.818	405.584	425.662	399.625	286.598	199.869	476.748	161.576	432.427	376.179	197.421	484.562	0.00035168	0.0001574	0.00027685	1037.7	6.1959e-06	1.2768e-06	1206.9	305.2	6.0359e-06	6.0189e-06	387.47	99.377	66.082	14.924	5.1444e-06	22.885	0.0010068	0.0014568	0.00040621	912.16	1.5154e-05	1.6378e-05	1063.6	270.01	1.5152e-05	1.6431e-05	343.25	88.199	59.564	13.446	1.549e-05	20.691	284.359	255.297	290.264	156.265	273.245	285.906	154.582	161.099	323.497	316.643	159.169	164.014	164.853	172.138	323.354	167.322	-8191	255	
2206.555	1	1	0	0	0.29004	0.18889	0.053036	0.24867	0.22187	0.10639	0.15174	0.093966	0.017801	0.3072	0.24983	0.18583	0.099455	0.21719	0.10582	0.097803	-3	-3.5687	-3.9354	-3.3396	-3.8708	-3.6521	-3.4813	-4.3063	-3.5125	-3.6375	-4.2833	-3.2229	-3.9188	-3.9188	-3.2271	-4.2417	196.346	404.968	192.600	485.000	207.210	393.006	443.669	439.195	373.844	279.721	482.263	376.630	256.612	186.877	277.447	501.968	0.00037501	0.00049064	0.00021706	1024.4	4.2788e-06	6.9905e-06	1206.3	305.47	6.8141e-06	3.2405e-06	389.02	99.544	65.469	15.045	4.0621e-06	23.223	0.00097342	0.0014585	0.00039785	909	1.4608e-05	1.5963e-05	1063.3	270.57	1.5101e-05	1.6007e-05	345.11	88.602	59.264	13.577	1.4773e-05	20.953	284.003	253.069	228.870	156.413	333.041	299.573	154.330	161.173	290.245	300.494	159.035	163.902	165.671	171.403	244.507	167.926	-8191	255	
2206.651	1	1	0	0	0.13284	0.13824	0.070917	0.18173	0.30839	0.21264	0.18511	0.22132	0.11606	0.17105	0.26541	0.05279	0.17324	0.10364	0.055152	0.066329	-3.0917	-3.5875	-4.1979	-3.3438	-3.8229	-4.0208	-3.4292	-4.15	-3.575	-3.3854	-4.3812	-3.2729	-3.9042	-3.7792	-3.2396	-4.2667	404.990	185.753	467.808	463.641	301.173	152.441	478.254	479.806	152.268	415.083	475.146	356.878	258.446	153.943	289.313	427.264	0.00032185	0.00023801	0.00018683	1039.6	3.8617e-06	5.4731e-06	1218.6	308.36	5.547e-06	4.9071e-06	391.84	100.36	67.586	15.141	3.5729e-06	23.383	0.00096295	0.0014494	0.00040054	915.43	1.5167e-05	1.6265e-05	1068.4	272.38	1.4886e-05	1.6321e-05	348.56	89.569	60.375	13.733	1.5108e-05	21.162	287.675	154.891	207.963	156.223	252.745	364.613	154.463	161.300	322.424	275.030	159.048	163.734	165.777	171.756	235.553	167.682	-8191	255	
2206.748	1	1	0	0	0.13622	0.1086	0.098709	0.13059	0.086272	0.045171	0.098316	0.27507	0.19724	0.062222	0.20243	0.39076	0.18948	0.18434	0.11325	0.27153	-3.1833	-3.3521	-4.1354	-3.3208	-3.6333	-4.1104	-3.2396	-4.0938	-3.6917	-3.1896	-4.2667	-3.3792	-3.6979	-3.9979	-3.0667	-3.9979	462.256	391.449	501.907	486.257	149.596	464.141	464.360	481.081	445.339	220.906	435.687	188.414	200.851	490.616	493.298	443.657	0.0003042	0.00055416	5.4947e-05	1042.3	6.7223e-06	1.6291e-06	1216	311.16	6.4022e-06	3.0294e-06	397.72	101.8	67.196	15.161	4.2537e-06	23.198	0.0010068	0.0014376	0.00040833	917.99	1.5152e-05	1.5883e-05	1072	275.21	1.4342e-05	1.6135e-05	350.74	89.897	60.348	13.705	1.4582e-05	21.061	278.727	195.801	485.250	156.474	277.068	264.491	154.540	161.266	327.684	446.062	158.944	163.491	166.163	172.124	276.545	167.804	-8191	255	
2206.844	1	1	0	0	0.18794	0.17384	0.12952	0.29928	0.34954	0.23095	0.10212	0.34188	0.10661	0.073574	0.30617	0.20314	0.18927	0.27711	0.10709	0.050802	-3.2146	-3.4437	-4.1896	-3.4875	-3.7542	-4.0563	-3.3542	-4.1312	-3.7396	-3.3146	-4.3104	-3.5146	-3.5417	-4.2438	-3.3208	-4.1146	280.110	297.280	317.325	421.267	328.069	482.766	331.880	494.761	304.935	158.633	468.785	497.704	454.875	400.404	401.235	450.090	0.00033115	0.0009472	0.00014443	1042.6	5.0977e-06	8.7722e-06	1225	309.07	7.8002e-06	5.4374e-06	394.98	101.03	67.564	15.37	5.387e-06	23.324	0.00093815	0.001413	0.00038899	918.5	1.4728e-05	1.5186e-05	1071.4	274.24	1.3915e-05	1.4884e-05	350	89.511	60.576	13.814	1.4547e-05	21.08	270.686	227.943	172.841	155.787	367.873	326.178	154.338	161.200	338.401	265.536	158.597	163.898	165.622	171.996	273.027	167.818	-8191	255	
2206.963	1	1	0	0	0.17648	0.075474	0.054652	0.14842	0.043444	0.14829	0.26931	0.18441	0.13482	0.283	0.11407	0.11127	0.14999	0.11591	0.33943	0.15832	-3.6833	-3.075	-4.2792	-3.6979	-3.3542	-4.1333	-3.3792	-4.0146	-3.8917	-3.1375	-4.275	-3.5417	-3.2646	-4.3	-3.175	-3.9688	478.794	405.284	327.499	151.583	323.627	499.458	444.272	218.147	179.420	433.651	246.939	470.680	438.324	422.952	311.163	411.899	0.0003867	0.00042566	0.00026841	1039.2	6.434e-06	7.6142e-06	1224.4	312.66	6.1595e-06	1.0302e-05	399.34	102.59	67.742	15.586	7.2351e-06	23.674	0.0009358	0.0013571	0.00037461	918.61	1.424e-05	1.481e-05	1073.5	275.92	1.3066e-05	1.4776e-05	352.39	90.536	60.688	13.936	1.3746e-05	21.358	281.979	233.499	217.973	156.391	310.310	311.076	154.624	161.538	336.075	294.321	158.998	163.776	165.605	171.716	234.844	168.005	-8191	255	
2207.059	1	1	0	0	0.08003	0.40415	0.14725	0.17324	0.32271	0.16281	0.22466	0.10083	0.092929	0.11961	0.098849	0.28024	0.10865	0.04254	0.001769	0.33567	-3.6312	-3.1063	-4.025	-3.8125	-3.3979	-4.1062	-3.5146	-3.8417	-3.9292	-3.2938	-4.1208	-3.7687	-3.3125	-4.275	-3.4062	-3.5333	217.569	362.288	363.378	474.870	408.419	348.943	469.807	163.123	498.434	366.399	480.910	181.131	158.132	302.005	180.000	470.500	0.00036254	0.00019158	0.00016096	1049.3	2.9165e-06	6.8522e-06	1230.8	314.57	4.8536e-06	7.7809e-06	401.77	103.01	68.905	15.513	4.0848e-06	23.835	0.00087133	0.0012786	0.00034894	924.75	1.328e-05	1.4353e-05	1082.3	278.08	1.2996e-05	1.4536e-05	355.78	91.232	61.364	14.008	1.368e-05	21.622	284.351	213.529	212.975	156.133	318.711	349.582	154.754	161.652	264.430	262.478	159.192	163.295	165.545	172.181	248.831	168.453	-8191	255	
2207.155	1	1	0	0	0.087765	0.23168	0.21752	0.31272	0.12683	0.082527	0.26291	0.26533	0.18069	0.11756	0.2192	0.14868	0.21192	0.054083	0.07861	0.17294	-3.625	-3.2604	-3.9396	-3.8187	-3.1708	-4.3042	-3.6312	-3.6896	-4.0938	-3.1396	-3.9625	-3.9646	-3.1271	-4.275	-3.6083	-3.175	359.718	362.118	389.836	498.658	328.539	491.851	503.030	429.450	271.936	193.310	465.348	425.014	498.537	229.652	425.065	312.806	0.00032415	0.00022009	0.00019937	1041.9	3.5566e-06	5.7827e-06	1236.4	315.97	5.3409e-06	5.2536e-06	403.19	103.37	68.906	15.445	3.699e-06	23.484	0.00090595	0.0012742	0.00036279	923.91	1.341e-05	1.3742e-05	1086.7	279.18	1.2759e-05	1.4609e-05	356.55	91.221	61.271	13.938	1.3254e-05	21.296	275.826	152.106	264.280	156.277	347.460	283.191	154.379	161.365	303.891	278.093	159.010	163.435	165.739	172.198	344.655	167.763	-8191	255	
2207.251	1	1	0	0	0.032237	0.12643	0.13172	0.16931	0.089218	0.15179	0.30703	0.24103	0.1415	0.16462	0.086062	0.093452	0.052081	0.068505	0.15453	0.19876	-3.8396	-3.3104	-3.8479	-4.0125	-3.1896	-4.2417	-3.7146	-3.45	-4.0792	-3.3229	-3.7833	-3.9583	-3.2417	-4.1375	-3.6354	-3.4688	288.775	189.850	202.886	320.176	361.102	176.625	370.997	428.837	313.614	169.305	447.049	190.310	195.768	441.067	317.596	162.398	0.0003504	0.00033531	7.9308e-05	1051.5	9.1234e-06	4.6467e-06	1229.3	313.77	5.8549e-06	5.7525e-06	397.58	102.66	68.487	15.349	8.6724e-06	23.578	0.00086954	0.0012235	0.00034128	927.12	1.3489e-05	1.3847e-05	1079.6	277.88	1.2437e-05	1.3961e-05	353.45	90.784	61.084	13.871	1.2744e-05	21.239	291.074	216.986	199.142	156.302	290.831	358.692	154.638	161.725	302.528	269.639	159.037	163.815	165.841	172.441	283.946	167.767	-8191	255	
2207.347	1	1	0	0	0.023388	0.18147	0.10722	0.056766	0.19189	0.2127	0.10608	0.20384	0.17229	0.24414	0.21457	0.24873	0.25662	0.14924	0.30026	0.17956	-3.7271	-3.2958	-3.5708	-3.9958	-3.2646	-3.9417	-3.8708	-3.3563	-4.1208	-3.3625	-3.6958	-4.075	-3.3667	-4.0833	-3.9292	-3.2313	294.277	353.546	309.296	479.260	209.600	460.031	179.870	461.658	320.139	348.618	475.476	151.390	377.067	377.919	406.941	445.924	0.00030493	0.00038358	0.00011736	1049.6	3.7566e-06	3.4875e-06	1232.2	316.91	6.8694e-06	4.3828e-06	403.39	103.59	68.837	15.607	2.0423e-06	23.813	0.00085576	0.001231	0.00034867	928.46	1.2898e-05	1.3243e-05	1084.9	280.15	1.2712e-05	1.3585e-05	356.66	91.437	61.678	14.067	1.2593e-05	21.456	288.468	305.313	185.640	156.662	343.057	277.986	154.415	161.343	305.510	326.985	158.862	163.327	166.154	172.043	235.021	167.895	-8191	255	
2207.443	1	1	0	0	0.21883	0.19492	0.088061	0.19999	0.25993	0.098114	0.14677	0.12672	0.16347	0.13332	0.1772	0.27186	0.18691	0.22415	0.054274	0.22414	-3.8458	-3.4708	-3.5021	-4.3521	-3.1854	-4.0646	-4.1188	-3.2875	-4.0979	-3.575	-3.5	-4.2896	-3.2583	-3.8083	-3.7854	-3.3583	482.720	469.049	305.133	488.544	169.476	408.849	465.289	146.306	155.757	210.846	468.987	433.154	382.058	172.038	345.357	498.921	0.00034323	6.2163e-05	0.00021124	1061.7	1.5103e-06	3.1672e-06	1243.6	319.99	7.1677e-06	4.5974e-06	404.65	105.36	69.709	15.818	3.9484e-06	24.305	0.00087401	0.0012631	0.00033985	933.37	1.3004e-05	1.3611e-05	1093.1	282.17	1.2365e-05	1.3954e-05	360.08	93.082	62.24	14.205	1.2463e-05	21.886	295.876	315.193	255.801	156.296	224.267	202.530	154.501	161.378	297.261	321.099	159.292	163.835	165.325	171.796	293.292	167.915	-8191	255	
2207.564	1	1	0	0	0.068112	0.086348	0.11452	0.18079	0.066677	0.13686	0.12751	0.18808	0.3026	0.22472	0.22347	0.052339	0.15403	0.078953	0.085897	0.16687	-3.8333	-3.5458	-3.2729	-4.2771	-3.1896	-3.8167	-4.0437	-3.4833	-3.8458	-3.8625	-3.5396	-4.3167	-3.5146	-3.6292	-4.1375	-3.2458	214.050	326.356	192.831	352.180	243.119	198.910	403.588	275.796	198.442	442.558	155.262	163.418	195.848	257.606	465.773	174.790	0.00036369	0.00072674	5.2457e-05	1061.4	6.6631e-06	3.2166e-06	1245.8	319.95	3.533e-06	4.4924e-06	403.92	104.69	69.686	15.834	6.6797e-06	23.811	0.00084335	0.0012101	0.00033757	937.91	1.2623e-05	1.3151e-05	1097.7	282.6	1.2483e-05	1.3596e-05	358.22	92.245	62.214	14.216	1.2596e-05	21.551	286.228	226.797	261.618	156.623	263.448	240.140	154.380	161.381	339.908	273.525	159.067	163.948	165.580	172.140	321.808	167.885	-8191	255	
2207.658	1	1	0	0	0.051202	0.080922	0.19527	0.30099	0.28693	0.13067	0.10709	0.36153	0.073748	0.10584	0.16547	0.095383	0.054715	0.12597	0.10512	0.20973	-3.5875	-3.7604	-3.2771	-4.1896	-3.4771	-3.4146	-4.2292	-3.3563	-3.8771	-3.9562	-3.4042	-4.1813	-3.5938	-3.4875	-4.0771	-3.1125	473.127	211.086	351.242	435.195	152.767	270.375	332.675	183.775	377.145	144.029	143.847	214.942	488.624	236.983	162.121	465.333	0.000371	0.00063108	2.2766e-05	1052.3	7.2787e-06	5.6901e-06	1238.8	318.66	4.8881e-06	2.5184e-06	405.2	103.84	69.674	15.755	9.3535e-06	23.916	0.0008866	0.0011951	0.00035398	932.72	1.2737e-05	1.3398e-05	1089.5	282.19	1.2302e-05	1.3499e-05	358.42	91.946	62.221	14.186	1.2795e-05	21.622	289.679	206.889	326.611	156.634	352.966	257.789	154.438	161.515	319.841	239.998	158.902	163.952	165.979	172.684	339.760	168.116	-8191	255	
2207.754	1	1	0	0	0.21351	0.20394	0.30293	0.26147	0.093222	0.14868	0.20599	0.11624	0.054952	0.064499	0.25166	0.10833	0.17112	0.072802	0.21811	0.20099	-3.5667	-3.8458	-3.2208	-4.3063	-3.4062	-3.4354	-4.2729	-3.3187	-3.7521	-3.7979	-3.2979	-4.0583	-3.625	-3.3417	-4.1833	-3.375	243.290	377.204	398.342	166.609	153.348	349.410	443.943	151.434	223.957	176.568	470.467	445.490	391.655	198.013	200.515	423.160	0.00034782	0.00041532	0.00012456	1067.7	2.3453e-06	2.6076e-06	1245.6	321.5	6.1097e-06	2.2436e-06	405.97	104.7	70.085	15.765	5.9259e-06	24.404	0.00086595	0.0012565	0.00033729	937.16	1.2562e-05	1.3473e-05	1096.4	284.08	1.2406e-05	1.3634e-05	360.92	92.773	62.518	14.314	1.2637e-05	21.873	286.462	226.277	223.060	156.759	326.405	340.499	154.611	161.447	316.971	469.050	159.456	164.400	165.122	172.148	301.638	167.935	-8191	255	
2207.851	1	1	0	0	0.062945	0.039149	0.041854	0.24632	0.019523	0.062782	0.1985	0.040699	0.10213	0.049268	0.061441	0.21139	0.32009	0.1363	0.18945	0.1093	-3.3063	-3.9604	-3.2354	-4.1396	-3.6417	-3.2625	-4.45	-3.5396	-3.6646	-4.0292	-3.3854	-4.0125	-3.7979	-3.4062	-4.1833	-3.525	215.383	251.456	211.175	445.599	444.316	151.794	410.740	468.599	383.180	197.969	242.961	168.541	150.782	180.779	308.322	202.016	0.00035391	0.00010458	0.00017047	1065.9	5.2939e-06	7.3229e-07	1256.6	322.83	5.8598e-06	4.9481e-06	411.06	106.41	70.92	16.086	6.6852e-06	24.238	0.00087407	0.0011937	0.00033967	941.47	1.2806e-05	1.3726e-05	1104.2	285.32	1.2644e-05	1.3448e-05	364.63	94.045	63.231	14.437	1.2543e-05	21.931	280.074	149.897	264.716	156.339	326.976	165.745	154.673	161.182	295.958	270.772	159.009	164.195	165.341	171.812	307.607	167.608	-8191	255	
2207.947	1	1	0	0	0.074552	0.066737	0.13648	0.11461	0.18735	0.039473	0.22217	0.36364	0.13995	0.048229	0.042819	0.033934	0.074996	0.29854	0.36144	0.31723	-3.2729	-4.2646	-3.325	-3.9667	-3.9313	-3.2271	-4.2604	-3.5667	-3.5271	-4.2208	-3.4771	-3.9771	-3.9188	-3.2417	-4.1687	-3.5729	334.650	339.283	445.548	245.544	463.593	405.720	411.320	479.593	329.236	199.400	428.348	365.391	264.907	483.218	287.301	433.547	0.00037549	0.00030976	2.3009e-05	1072	7.1046e-06	3.6909e-06	1251.1	322.75	3.7777e-06	4.6102e-06	411.54	105.73	70.437	15.753	2.3525e-06	23.95	0.00086045	0.0011836	0.00033856	942.69	1.2606e-05	1.3157e-05	1102.7	285.09	1.2385e-05	1.3007e-05	362.81	93.203	62.79	14.28	1.2624e-05	21.686	290.678	200.651	215.846	156.724	301.105	383.780	154.667	160.993	313.446	292.818	159.401	163.930	166.068	172.100	309.890	168.034	-8191	255	
2208.043	1	1	0	0	0.014926	0.12426	0.22863	0.1705	0.15563	0.18187	0.3344	0.18947	0.15996	0.060002	0.23317	0.16207	0.28917	0.06179	0.10147	0.12769	-3.2146	-4.2	-3.3167	-3.9146	-4.0188	-3.4396	-4.2271	-3.7438	-3.4021	-4.1271	-3.5271	-3.7458	-3.9271	-3.2562	-3.9583	-3.7021	318.527	485.769	202.999	461.586	149.587	363.693	458.935	417.785	456.941	301.283	429.119	143.836	444.816	498.690	390.563	392.373	0.00035559	0.00048452	6.9676e-05	1062.9	4.3251e-06	5.6039e-06	1252.2	321.12	7.9233e-06	2.1828e-06	406.03	105.92	70.242	16.045	1.266e-06	23.963	0.00085413	0.0011836	0.00034802	939.81	1.2472e-05	1.332e-05	1100.9	284.21	1.2298e-05	1.3002e-05	361.4	93.483	62.713	14.383	1.2027e-05	21.794	288.998	263.351	158.400	156.580	207.400	328.859	154.940	161.571	369.151	288.442	158.997	164.346	165.650	172.509	275.028	168.095	-8191	255	
2208.139	1	1	0	0	0.19084	0.09472	0.17621	0.13682	0.099771	0.047515	0.26972	0.26282	0.074256	0.0058158	0.38521	0.058943	0.12192	0.19577	0.065034	0.12382	-2.8875	-4.0771	-3.3375	-3.7396	-4.1229	-3.325	-4.0104	-3.8875	-3.3479	-4.1729	-3.4708	-3.6104	-4.225	-3.2208	-4.0083	-3.7938	230.771	162.563	425.815	456.122	350.424	196.999	446.018	413.642	502.833	170.906	449.718	146.167	189.296	397.704	341.418	365.945	0.0003103	0.0003075	5.6846e-05	1072.1	6.7688e-06	3.4857e-06	1264	322.58	6.5786e-06	4.4745e-06	412.02	106.71	70.581	16.008	4.6529e-06	24.41	0.00085233	0.0011641	0.00033151	943.28	1.237e-05	1.2543e-05	1106.7	286.18	1.2214e-05	1.2979e-05	364.39	94.253	63.16	14.476	1.2259e-05	22.012	297.909	340.040	279.552	156.950	311.234	282.872	154.424	161.265	332.172	307.575	159.073	164.076	166.097	172.198	351.251	168.137	-8191	255	
2208.235	1	1	0	0	0.14425	0.16375	0.11266	0.10637	0.20259	0.09536	0.16955	0.24028	0.23312	0.20803	0.20018	0.41289	0.16137	0.086643	0.10037	0.10195	-2.8521	-4.1937	-3.4354	-3.7062	-4.1104	-3.3208	-4.1271	-4.0542	-3.2104	-4.1312	-3.75	-3.3771	-4.2271	-3.3104	-3.8	-4.0354	186.609	176.632	320.121	186.747	346.363	401.797	439.642	436.583	405.877	253.131	212.507	493.746	474.660	337.017	252.541	472.596	0.00035652	0.00014437	4.4999e-05	1075.8	4.9496e-06	2.8019e-06	1268.3	326.19	3.829e-06	4.3413e-06	413.56	106.45	71.523	16.082	2.2988e-06	24.602	0.00084253	0.0011545	0.00031625	947.2	1.2247e-05	1.3221e-05	1116.4	288.06	1.1625e-05	1.2643e-05	367.13	94.732	63.731	14.461	1.1854e-05	22.104	280.952	294.339	243.679	156.761	228.818	279.643	154.950	161.643	357.069	247.960	159.078	164.055	166.037	172.313	253.890	167.857	-8191	255	
2208.356	1	1	0	0	0.044963	0.16046	0.17951	0.17657	0.19153	0.17252	0.23246	0.23659	0.14761	0.13938	0.34093	0.084936	0.17492	0.27038	0.20278	0.012612	-2.7292	-4.0333	-3.6979	-3.4271	-4.2042	-3.3521	-3.8271	-4.2188	-3.2438	-3.9854	-3.9188	-3.2896	-4.2063	-3.5125	-3.4958	-4.0292	193.465	298.061	332.740	449.687	213.872	400.554	476.970	436.202	182.185	495.004	419.077	471.522	172.669	500.509	376.813	346.897	0.00034263	0.00057375	0.00013586	1075.5	4.5773e-06	4.0827e-06	1268.3	325.2	4.9845e-06	4.4693e-06	412.63	105.64	70.545	15.956	3.2368e-06	24.369	0.00081289	0.0011742	0.00031997	950.42	1.2022e-05	1.2663e-05	1112.5	287.57	1.2234e-05	1.2724e-05	365.79	93.589	63.084	14.399	1.233e-05	21.885	297.294	253.694	242.828	156.600	266.684	308.547	155.040	161.316	315.635	293.798	159.074	164.245	165.542	172.313	319.959	167.721	-8191	255	
2208.452	1	1	0	0	0.070004	0.26912	0.12136	0.17845	0.027556	0.20122	0.3734	0.16174	0.36946	0.096667	0.082491	0.15968	0.10734	0.23269	0.17579	0.19137	-2.9042	-3.9292	-3.8229	-3.4083	-4.1583	-3.5375	-3.7271	-4.1438	-3.05	-3.9375	-3.9562	-3.2458	-4.15	-3.6521	-3.3583	-4.2667	257.638	348.717	178.392	478.162	434.129	436.249	448.752	449.714	368.291	245.070	445.689	501.779	490.078	250.417	250.046	402.358	0.00037667	0.00024044	0.00014721	1074.5	1.1547e-05	8.3691e-06	1262.2	328.35	4.1458e-06	5.049e-06	412.57	106.93	71.886	15.976	2.3936e-06	24.453	0.00084668	0.0011761	0.00033281	946.1	1.2225e-05	1.302e-05	1110.9	288.89	1.2269e-05	1.3369e-05	365.12	94.282	63.586	14.467	1.3336e-05	22.029	289.647	263.435	225.374	156.494	310.510	322.341	154.634	161.372	309.919	266.102	159.367	164.040	165.570	172.024	298.038	167.644	-8191	255	
2208.524	1	1	0	0	0.020605	0.10357	0.17161	0.11536	0.16848	0.21543	0.34142	0.32946	0.080884	0.16608	0.33414	0.17006	0.1008	0.14422	0.16928	0.18937	-2.9729	-3.725	-3.9354	-3.2396	-4.0813	-3.6271	-3.6562	-4.1354	-3.4042	-3.7375	-4.2417	-3.3583	-3.9604	-3.6937	-3.3396	-4.3187	431.437	385.762	379.119	394.552	397.841	267.870	436.143	442.995	423.389	381.497	458.869	480.206	176.332	393.886	314.014	430.027	0.0002979	0.00029835	2.1412e-05	1075.2	6.943e-06	1.8892e-06	1260.9	325.81	6.9617e-06	4.2814e-06	414.24	107.89	71.684	16.373	6.8024e-06	24.926	0.00085972	0.0012102	0.00035659	946.51	1.3211e-05	1.3473e-05	1109	288.07	1.3004e-05	1.3188e-05	366.6	95.089	63.846	14.636	1.2726e-05	22.339	292.097	260.156	194.551	156.528	255.271	428.736	154.709	161.480	323.205	200.659	159.385	163.850	165.740	172.361	285.853	168.112	-8191	255	
2208.644	1	1	0	0	0.1833	0.10285	0.30051	0.16266	0.040964	0.022752	0.40104	0.18299	0.11674	0.18599	0.30252	0.17141	0.092185	0.099802	0.095935	0.34833	-2.9562	-3.7104	-3.9417	-3.1771	-3.9479	-3.8083	-3.5021	-4.3042	-3.2896	-3.5708	-4.2562	-3.1833	-3.8771	-3.7333	-3.4146	-4.0792	440.129	388.593	166.496	458.200	194.731	189.230	482.009	464.382	291.091	314.539	418.394	387.345	229.529	156.794	311.958	457.311	0.00037106	0.00061673	0.00015732	1076.7	1.1807e-06	5.2283e-06	1272.2	326.28	4.3406e-06	6.0909e-06	415.36	107.79	71.916	16.117	3.0623e-06	24.602	0.00085958	0.0012072	0.0003447	948.1	1.2974e-05	1.3138e-05	1116.4	289.01	1.2271e-05	1.3422e-05	368.12	95.146	64.131	14.611	1.2659e-05	22.225	283.949	229.471	210.373	156.420	356.787	343.702	155.108	161.360	315.335	282.894	159.386	164.316	165.891	172.595	335.599	168.383	-8191	255	
2208.739	1	1	0	0	0.10969	0.14918	0.072794	0.25305	0.1104	0.22076	0.2005	0.05298	0.24142	0.14404	0.11844	0.12543	0.22705	0.1018	0.23504	0.1983	-3.1854	-3.4354	-4.1438	-3.3104	-3.8625	-3.8479	-3.3729	-4.2688	-3.4771	-3.35	-4.1667	-3.4042	-3.85	-3.8	-3.1771	-4.1625	181.551	500.740	439.533	372.397	163.032	410.803	423.998	419.464	261.282	460.283	484.708	153.950	310.672	388.422	435.257	193.239	0.00030117	0.00042742	8.362e-05	1077.6	5.0235e-06	5.1869e-06	1265.7	326.72	7.0124e-06	4.5715e-06	413.14	106.12	71.502	16.145	8.1958e-06	24.449	0.00085533	0.0012097	0.00034166	946.91	1.2806e-05	1.3194e-05	1108.8	288.59	1.1928e-05	1.3146e-05	364.94	93.855	63.684	14.524	1.2705e-05	22.02	278.088	229.723	289.752	156.971	333.915	357.917	154.808	161.799	290.319	258.767	159.161	164.073	165.380	171.787	299.792	168.164	-8191	255	
2208.837	1	1	0	0	0.084564	0.042807	0.10488	0.046807	0.050493	0.087866	0.13845	0.26728	0.16259	0.13931	0.096694	0.077734	0.20636	0.32923	0.13802	0.22755	-3.0958	-3.2521	-4.1104	-3.3292	-3.5854	-4.0146	-3.4708	-4.2	-3.5979	-3.4688	-4.1792	-3.3958	-3.4604	-4.1042	-3.0583	-3.9458	156.458	354.637	470.017	429.595	292.869	201.561	390.245	445.174	294.655	436.799	480.401	304.894	348.143	464.867	333.004	473.122	0.00040306	0.001002	0.00014227	1071.6	1.9851e-06	3.5045e-06	1258.9	327.86	6.9808e-06	1.9109e-06	412.92	106	71.465	16.095	6.4138e-06	24.805	0.00087766	0.001213	0.00033305	945.47	1.2856e-05	1.3729e-05	1107.6	288.91	1.2683e-05	1.4004e-05	366.29	94.068	63.834	14.537	1.2946e-05	22.191	284.814	223.631	259.501	156.231	165.234	341.484	154.637	161.419	346.750	264.284	159.090	163.826	166.053	172.098	351.724	167.606	-8191	255	
2208.955	1	1	0	0	0.13606	0.11191	0.22396	0.10619	0.24261	0.054745	0.20947	0.12728	0.13989	0.13056	0.13945	0.34408	0.27213	0.21238	0.096738	0.1294	-3.4708	-3.1937	-3.9229	-3.5146	-3.5792	-4.0292	-3.3208	-4.1438	-3.8	-3.1437	-4.1979	-3.5438	-3.4313	-4.3292	-3.2417	-3.9479	415.529	355.205	302.257	207.653	293.232	221.147	467.165	491.678	375.413	497.722	383.472	451.961	322.143	384.399	442.143	306.989	0.00037468	0.00040968	0.00011695	1073.2	4.649e-06	8.3191e-06	1265	327.45	4.4845e-06	8.1506e-06	417.38	106.93	72.439	16.28	3.9064e-06	24.68	0.00086272	0.001245	0.00033941	947.44	1.303e-05	1.3582e-05	1110.6	288.73	1.2735e-05	1.367e-05	368.61	94.666	64.227	14.7	1.2734e-05	22.291	281.415	173.910	183.656	156.518	291.980	356.069	154.971	161.735	333.113	258.081	159.421	163.600	165.647	172.306	434.889	168.438	-8191	255	
2209.052	1	1	0	0	0.18358	0.12743	0.20759	0.13716	0.18623	0.064659	0.18841	0.10919	0.13108	0.26171	0.3259	0.25396	0.10092	0.16929	0.086616	0.28713	-3.6229	-3.1063	-4.175	-3.6021	-3.3604	-4.1229	-3.3833	-3.7458	-3.925	-3.3	-4.2417	-3.8646	-3.3417	-4.1896	-3.35	-3.7604	358.525	258.827	372.088	485.416	234.178	454.143	428.589	300.987	154.076	271.944	452.440	412.836	213.951	458.700	465.709	155.636	0.00035243	0.00042457	0.00012679	1074.8	4.0163e-06	3.4441e-06	1264.8	326.66	4.6662e-06	9.481e-07	416.92	107.77	71.637	16.15	4.9303e-06	24.375	0.00088954	0.0012648	0.00034368	948.12	1.3417e-05	1.3582e-05	1112.4	289.28	1.3061e-05	1.3114e-05	368.58	94.952	64.06	14.603	1.2773e-05	22.083	284.616	259.390	215.921	156.686	351.567	274.210	155.034	161.687	373.874	224.469	159.260	163.753	166.215	172.260	305.358	168.404	-8191	255	
2209.123	1	1	0	0	0.21568	0.13128	0.12397	0.17363	0.11874	0.069921	0.30342	0.19397	0.28282	0.21486	0.17202	0.30559	0.22203	0.038415	0.062779	0.098077	-3.5146	-3.1729	-4.0646	-3.6729	-3.3812	-4.2354	-3.4375	-3.7271	-4.1021	-3.2354	-4.2458	-3.8271	-3.3021	-4.1458	-3.4667	-3.4167	168.566	181.530	242.157	156.666	343.570	146.667	446.462	433.108	449.312	330.242	458.786	451.680	405.627	183.622	318.885	328.426	0.00034366	0.00043625	0.00019705	1078.5	2.1867e-06	3.2749e-06	1263	327.92	4.9401e-06	5.7587e-06	413.42	106.97	71.678	16.273	3.9548e-06	24.545	0.00088058	0.0012358	0.00034505	947.43	1.2707e-05	1.3512e-05	1107.9	288.67	1.2722e-05	1.383e-05	365.21	93.892	63.74	14.586	1.2966e-05	22.032	289.071	247.464	242.997	156.734	300.710	328.653	154.821	161.787	293.366	207.891	158.925	163.770	166.321	172.148	231.424	167.819	-8191	255	
2209.244	1	1	0	0	0.041803	0.17663	0.35135	0.12987	0.11955	0.13654	0.12201	0.13509	0.2205	0.088311	0.11035	0.16462	0.059612	0.097061	0.11476	0.084969	-3.7854	-3.1625	-3.6188	-3.8271	-3.2146	-4.0833	-3.6417	-3.775	-3.8917	-3.1479	-3.8146	-3.9667	-3.2396	-4.0792	-3.5583	-3.5125	359.140	300.094	262.185	166.215	190.355	293.387	481.989	440.174	276.129	345.480	361.733	468.285	278.839	499.150	288.331	352.832	0.00035779	0.00035952	0.00011508	1069.4	3.3103e-06	1.5672e-06	1262.5	326.81	6.7293e-06	3.3209e-06	414.49	107.08	71.907	16.114	4.0319e-06	24.599	0.00087762	0.001224	0.00034661	944.15	1.2873e-05	1.3508e-05	1107	288.82	1.2609e-05	1.4393e-05	366.84	94.394	64.077	14.596	1.3614e-05	22.167	288.136	235.017	225.086	156.255	303.671	370.774	154.539	161.638	296.346	339.611	159.318	163.907	165.925	172.472	268.581	168.181	-8191	255	
2209.340	1	1	0	0	0.2359	0.19815	0.062393	0.21051	0.088492	0.14458	0.11767	0.21227	0.41966	0.045858	0.18496	0.1854	0.2116	0.16618	0.32621	0.17428	-3.7833	-3.2396	-3.9104	-4.1458	-3.2396	-4.0583	-3.825	-3.5458	-4.2083	-3.4167	-3.7542	-4.0667	-3.1792	-3.9354	-3.6646	-3.1833	426.111	424.840	465.916	442.001	470.399	412.131	408.972	483.305	338.797	349.269	190.396	194.911	415.386	418.294	449.183	429.817	0.00032003	0.00071905	0.00018061	1075.5	5.4252e-06	1.8364e-06	1262.9	327.18	8.5497e-06	5.7886e-06	417.54	106.67	71.798	16.307	3.0586e-06	24.461	0.00089326	0.0012877	0.00036563	946.24	1.4071e-05	1.4271e-05	1109.9	288.61	1.3141e-05	1.4267e-05	368.58	94.99	64.318	14.74	1.3444e-05	22.288	289.494	213.722	272.336	156.399	279.511	303.919	154.803	161.610	305.200	272.203	159.688	163.987	166.233	172.323	276.418	168.113	-8191	255	
2209.436	1	1	0	0	0.18692	0.20742	0.064907	0.22012	0.12841	0.17647	0.33643	0.30708	0.17416	0.055837	0.143	0.056638	0.12443	0.1474	0.13749	0.19533	-3.8708	-3.2896	-3.6208	-4.1542	-3.2979	-3.9792	-4.0083	-3.2854	-4.025	-3.4188	-3.6521	-4.2896	-3.2292	-3.8208	-3.9	-3.2458	407.594	243.740	253.138	474.252	347.322	222.205	393.757	408.292	431.224	491.827	198.256	426.402	204.445	195.740	166.798	329.089	0.00031166	0.00024175	0.00012154	1078.5	4.096e-06	6.1827e-06	1262.1	329.54	7.5222e-06	3.7893e-06	415.6	106.77	71.912	16.148	8.2842e-06	24.759	0.00089681	0.0012903	0.00037002	951.03	1.3801e-05	1.3927e-05	1112.5	290.25	1.2659e-05	1.4298e-05	369.04	94.708	64.303	14.644	1.3618e-05	22.19	283.132	243.617	223.373	156.551	334.576	299.618	154.334	161.057	274.999	291.096	159.308	164.040	165.397	172.119	331.401	168.051	-8191	255	
2209.532	1	1	0	0	0.07679	0.31027	0.2502	0.12057	0.042986	0.13712	0.18187	0.085994	0.25173	0.11639	0.30791	0.22298	0.18603	0.18931	0.11002	0.1952	-3.7104	-3.4854	-3.4688	-4.3708	-3.2125	-3.7542	-4.2021	-3.2542	-4.125	-3.6479	-3.5042	-4.2021	-3.3271	-3.7792	-4.0854	-3.3333	198.082	163.428	220.938	391.763	269.738	334.875	435.835	442.152	452.409	360.975	454.773	391.040	214.252	308.343	163.562	497.068	0.00035701	0.0006244	5.9962e-05	1067.9	4.3505e-06	7.3677e-06	1252.3	327.89	5.8279e-06	1.025e-06	412.55	105.42	71.017	16.307	6.3201e-06	24.684	0.0009361	0.0013144	0.00037457	944.92	1.4509e-05	1.4914e-05	1101	289.04	1.3613e-05	1.4661e-05	366.21	94.026	63.911	14.709	1.3491e-05	22.173	291.980	235.806	276.267	156.353	310.668	345.575	154.715	161.703	291.116	274.281	159.370	164.130	166.349	172.301	314.254	168.439	-8191	255	
2209.653	1	1	0	0	0.24476	0.19094	0.10008	0.16296	0.26466	0.19435	0.028882	0.059249	0.092059	0.058975	0.18426	0.10752	0.042735	0.17434	0.36838	0.020366	-3.6854	-3.5354	-3.2188	-4.3187	-3.3021	-3.5958	-4.2771	-3.3271	-4.0354	-3.8917	-3.4062	-4.1833	-3.4625	-3.7188	-4.0708	-3.3417	326.060	456.987	425.493	502.408	416.775	457.446	282.585	178.070	165.980	194.814	463.261	378.869	473.516	239.853	294.781	239.457	0.00037036	0.00024265	0.00011917	1074.3	4.9387e-06	3.7712e-06	1259.6	327.67	4.9223e-06	9.046e-06	413.7	106.88	72.125	16.066	1.7914e-06	25.061	0.00094102	0.0013081	0.00037889	944.78	1.4443e-05	1.4806e-05	1105.2	289.19	1.3632e-05	1.4587e-05	367.99	95.067	64.261	14.678	1.2924e-05	22.446	286.494	217.273	261.199	156.566	268.292	338.378	154.610	161.442	290.589	268.862	159.046	163.822	165.653	172.168	339.729	167.617	-8191	255	
2209.747	1	1	0	0	0.36189	0.085294	0.31168	0.041239	0.09643	0.16593	0.085699	0.22454	0.061457	0.041699	0.19183	0.18235	0.16581	0.099258	0.30244	0.11686	-3.6542	-3.8896	-3.1667	-4.2542	-3.4229	-3.5271	-4.2167	-3.2979	-3.8521	-3.6417	-3.4792	-4.2708	-3.4833	-3.3063	-4.1354	-3.2667	302.628	490.319	191.459	454.566	457.916	427.860	171.137	503.227	261.400	320.562	492.258	454.593	477.762	435.305	246.125	247.756	0.00036808	0.00065299	0.00023139	1078.4	2.9005e-06	1.9899e-06	1263	327.72	4.4665e-06	3.2197e-06	415.54	107.55	72.625	16.343	6.6862e-06	24.891	0.0008923	0.0012425	0.00036372	950	1.3646e-05	1.4377e-05	1111.8	290.37	1.3336e-05	1.4614e-05	369.07	95.696	64.582	14.776	1.387e-05	22.509	279.465	221.904	226.050	156.455	346.248	272.470	154.575	161.440	280.172	311.033	158.823	163.812	165.073	173.198	268.038	168.205	-8191	255	
2209.819	1	1	0	0	0.062216	0.19285	0.055161	0.077008	0.1936	0.1809	0.20197	0.11876	0.080665	0.048756	0.18574	0.057277	0.10298	0.09959	0.072076	0.21894	-3.3792	-3.9667	-3.1229	-4.1229	-3.5167	-3.4354	-4.325	-3.5125	-3.8937	-4.0125	-3.2542	-4.1333	-3.7208	-3.3542	-4.0854	-3.5521	238.363	314.154	495.111	494.858	454.079	444.656	406.505	170.190	379.229	335.696	165.366	454.703	167.223	370.358	343.226	437.988	0.00031623	0.0007992	0.00019487	1082.8	7.4826e-06	1.8503e-06	1271.2	328.42	3.2858e-06	5.6558e-06	417.14	107.41	72.324	16.429	5.4552e-06	24.801	0.00091343	0.0013146	0.00035963	950.5	1.3548e-05	1.4608e-05	1115.3	289.61	1.3405e-05	1.466e-05	368.52	95.202	64.382	14.783	1.3614e-05	22.284	293.351	214.271	282.175	156.559	252.619	259.281	154.636	161.535	298.924	240.420	158.863	164.116	166.062	172.590	354.194	167.548	-8191	255	
2209.917	1	1	0	0	0.1602	0.11299	0.2492	0.15181	0.057062	0.21235	0.083178	0.055636	0.18131	0.071836	0.31712	0.19119	0.18563	0.07918	0.17351	0.27267	-3.0354	-4.0229	-3.1604	-4.0708	-3.6813	-3.2938	-4.2583	-3.5042	-3.4521	-4.1104	-3.4479	-4.0375	-3.7375	-3.1	-3.9792	-3.6917	168.291	333.427	401.945	453.926	489.632	318.557	435.968	432.036	462.425	405.585	473.145	475.395	166.993	351.752	203.984	468.705	0.00036625	0.00066237	0.00022105	1076.8	5.3636e-06	5.6626e-06	1258.8	326.63	4.883e-06	4.0687e-06	414.43	106.59	72.313	16.357	5.3982e-06	24.546	0.00093961	0.0013218	0.00036126	946.85	1.345e-05	1.4566e-05	1104.1	288.78	1.3231e-05	1.4323e-05	367.27	94.24	64.284	14.77	1.3143e-05	22.195	288.815	198.629	235.464	156.711	357.304	254.295	154.407	161.298	283.939	296.285	158.788	163.745	165.493	172.299	312.983	168.507	-8191	255	
2210.036	1	1	0	0	0.29901	0.1502	0.12388	0.26431	0.10631	0.1488	0.13801	0.31221	0.049967	0.077104	0.18504	0.095895	0.10912	0.089176	0.1185	0.11788	-3.2271	-4.2417	-3.2562	-3.8438	-3.8812	-3.2917	-4.2521	-3.4854	-3.2938	-4.2625	-3.3646	-3.8667	-3.95	-3.3958	-4.1271	-3.7375	431.178	440.486	477.753	191.612	357.750	441.124	247.787	424.711	417.534	467.466	217.766	365.725	287.932	413.296	327.626	348.607	0.00035536	0.00017933	0.00011736	1071.7	8.4908e-06	2.495e-06	1261.4	327.63	4.5816e-06	1.0612e-05	416.06	107.87	71.277	16.334	3.6578e-06	24.637	0.00093478	0.0012775	0.00035606	947.02	1.3552e-05	1.4818e-05	1108.1	288.87	1.3512e-05	1.4881e-05	368.1	95.019	64.175	14.779	1.3667e-05	22.342	281.329	197.565	226.303	156.658	293.140	330.632	154.606	161.228	317.403	279.639	159.049	163.888	165.237	172.352	313.673	167.672	-8191	255	
2210.132	1	1	0	0	0.037115	0.1364	0.10368	0.13125	0.1844	0.057189	0.18489	0.18894	0.13131	0.079245	0.43919	0.081602	0.12689	0.29475	0.20553	0.14097	-3.0812	-3.9833	-3.3312	-3.8167	-3.8479	-3.2188	-4.3542	-3.825	-3.4083	-4.2875	-3.4188	-3.8271	-3.9833	-3.3187	-3.8812	-3.8563	248.792	334.661	257.543	151.884	238.988	207.068	418.508	434.308	248.124	221.908	501.077	457.854	198.879	464.642	222.363	170.043	0.00031702	0.00045172	0.00019997	1072.4	9.1111e-06	5.8251e-06	1266.1	327.78	4.5417e-06	6.5342e-06	418.05	108.32	72.649	16.39	1.1547e-06	24.893	0.00091296	0.0013005	0.00036289	948.07	1.388e-05	1.5478e-05	1112.6	289.62	1.3818e-05	1.5165e-05	369.29	95.565	64.783	14.884	1.3698e-05	22.529	291.029	266.919	217.049	156.073	387.943	277.374	154.634	161.490	292.752	247.477	158.966	164.141	165.560	171.762	396.910	167.983	-8191	255	
2210.228	1	1	0	0	0.30852	0.20767	0.18272	0.021482	0.12445	0.064447	0.13913	0.062359	0.11336	0.090614	0.065313	0.11446	0.26466	0.2858	0.31597	0.22425	-2.9313	-4.2021	-3.5375	-3.7167	-3.975	-3.1583	-4.0042	-4.0396	-3.3604	-4.1396	-3.6562	-3.4458	-4.0833	-3.3625	-3.9	-4.0375	468.748	414.157	201.124	381.620	489.293	226.982	419.678	191.471	433.259	474.032	218.005	168.289	148.721	473.973	414.964	479.799	0.00027815	0.00064186	0.00011669	1074.4	5.8428e-06	7.3456e-06	1269.6	330.01	7.8998e-06	6.1748e-06	414.59	107.77	72.257	16.327	9.282e-06	24.829	0.00089318	0.0012483	0.00036555	948.56	1.3349e-05	1.3972e-05	1114.6	291.1	1.3209e-05	1.4127e-05	367.78	95.265	64.332	14.74	1.3571e-05	22.296	295.398	498.686	222.468	156.524	270.107	271.228	154.650	161.142	307.394	226.922	158.990	164.202	165.831	172.382	308.588	168.102	-8191	255	
2210.324	1	1	0	0	0.12033	0.2816	0.067222	0.12086	0.19285	0.088511	0.19067	0.20395	0.15043	0.03006	0.31353	0.16956	0.094372	0.12564	0.11993	0.21094	-2.8083	-4.175	-3.4125	-3.5104	-4.2021	-3.4208	-3.9313	-4.1958	-3.1458	-4.0479	-3.6854	-3.4208	-3.975	-3.2792	-3.6146	-4.0062	169.177	163.884	357.640	181.400	400.343	485.306	473.726	390.952	353.433	187.127	440.214	251.980	230.747	160.176	492.119	490.246	0.00034458	0.00045894	0.00023235	1072.5	3.0909e-06	5.4007e-06	1263.8	327.02	1.0773e-05	3.8641e-06	416	106.55	72.262	16.241	6.8286e-06	24.662	0.00093482	0.0013527	0.00037468	945.15	1.4022e-05	1.4766e-05	1107.4	289.04	1.3558e-05	1.4209e-05	365.7	94.565	64.355	14.751	1.4216e-05	22.315	298.076	252.990	201.989	156.390	329.274	288.761	154.778	161.217	317.010	210.018	159.108	164.132	166.414	172.122	327.144	167.840	-8191	255	
2210.420	1	1	0	0	0.22728	0.18014	0.11494	0.16584	0.22414	0.12197	0.24019	0.062262	0.15703	0.19621	0.21543	0.28233	0.22417	0.19518	0.026526	0.092443	-2.9188	-3.95	-3.5917	-3.3312	-4.225	-3.3167	-3.7271	-4.1625	-3.2354	-3.8937	-3.8292	-3.1833	-4.3021	-3.4875	-3.8021	-4.2417	388.638	498.273	494.483	456.115	229.790	248.669	454.382	375.194	239.520	349.449	164.162	230.487	479.494	359.805	333.300	462.084	0.00036199	0.00015291	0.00010958	1069.1	2.5593e-06	4.4251e-06	1255.2	327.44	3.5298e-06	1.2254e-06	414.22	107.3	72.094	16.533	4.0629e-06	24.808	0.00093896	0.0013002	0.0003748	944.48	1.3403e-05	1.4475e-05	1106.2	289.91	1.3527e-05	1.4468e-05	367.16	95.076	64.579	14.886	1.36e-05	22.484	291.315	408.073	252.190	156.384	155.178	245.269	154.564	161.446	316.518	242.295	159.112	163.673	165.553	172.127	298.930	167.686	-8191	255	
2210.517	1	1	0	0	0.3632	0.23744	0.051894	0.1728	0.16124	0.08834	0.44411	0.070515	0.090472	0.11815	0.19643	0.038866	0.26314	0.14227	0.065053	0.11396	-2.8396	-3.8542	-3.7125	-3.25	-4.0229	-3.625	-3.6208	-4.2958	-3.2646	-3.8083	-4.0333	-3.3729	-4.1146	-3.5271	-3.1917	-4.1917	388.428	416.332	334.656	415.224	485.690	240.892	417.178	461.129	462.797	361.616	454.458	456.564	374.695	234.318	501.920	250.476	0.00041037	0.00016725	0.00025951	1073.6	3.1467e-06	8.6035e-07	1262.4	328.25	5.7205e-06	7.9512e-06	413.88	107.62	72.267	16.53	9.305e-06	25.025	0.0009172	0.0012642	0.00035712	947.99	1.4192e-05	1.4377e-05	1110.7	290.07	1.4244e-05	1.4949e-05	368.4	95.722	64.555	14.888	1.3889e-05	22.641	289.539	236.862	204.341	156.716	470.024	486.328	154.702	161.499	335.596	263.138	158.931	163.817	165.431	171.872	322.846	168.308	-8191	255	
2210.637	1	1	0	0	0.22265	0.066774	0.20742	0.29684	0.10457	0.064986	0.2586	0.26382	0.045318	0.01301	0.21043	0.18116	0.032339	0.25201	0.12926	0.19086	-2.95	-3.7229	-4.0125	-3.3875	-4.1583	-3.7271	-3.5104	-4.2479	-3.2167	-3.6146	-4.0771	-3.1542	-3.9625	-3.6708	-3.3646	-4.1729	372.055	152.953	191.524	144.769	162.387	420.809	462.449	447.889	274.390	213.351	462.680	412.031	154.953	157.456	454.878	460.490	0.00037341	0.00038889	0.00019207	1078.1	3.922e-06	5.0285e-06	1257.7	328.13	6.7551e-06	6.323e-06	414.02	106.99	72.09	16.356	6.7193e-06	24.553	0.00094357	0.0013298	0.00035892	949.08	1.4046e-05	1.4522e-05	1112.2	290.26	1.3075e-05	1.4608e-05	367.02	94.761	64.525	14.774	1.3854e-05	22.28	296.527	246.738	223.984	156.466	270.240	241.433	154.651	161.395	315.400	240.063	159.146	163.560	166.147	172.831	310.665	168.004	-8191	255	
2210.733	1	1	0	0	0.20103	0.19299	0.23906	0.27133	0.13113	0.24116	0.17249	0.32393	0.16919	0.12728	0.12307	0.17606	0.12841	0.19219	0.11304	0.28391	-3.0292	-3.5646	-4.0687	-3.2125	-3.9	-3.8479	-3.2542	-4.1042	-3.3146	-3.4875	-4.2063	-3.2396	-3.875	-3.7438	-3.1625	-4.2229	423.415	327.200	291.706	457.052	327.873	167.636	440.405	462.072	358.281	458.175	176.877	444.578	158.076	447.800	269.665	373.626	0.00035428	0.00020621	0.00013069	1065.3	4.4245e-06	4.6336e-06	1256	328.92	6.3455e-06	5.6458e-06	412.88	106.9	72.094	16.304	3.8505e-06	24.622	0.00093627	0.0013237	0.00035815	945.52	1.3664e-05	1.4312e-05	1104.6	290.23	1.33e-05	1.4738e-05	366.24	94.787	64.4	14.786	1.3441e-05	22.35	291.927	203.566	180.201	156.716	245.178	341.726	154.736	161.674	303.141	304.199	159.155	164.196	166.187	172.163	266.416	168.501	-8191	255	
2210.828	1	1	0	0	0.2474	0.059263	0.14007	0.25847	0.096395	0.039261	0.23581	0.21761	0.064682	0.12977	0.13958	0.1248	0.060983	0.049685	0.23144	0.16106	-3.2104	-3.3979	-4.0667	-3.3083	-3.8167	-4.1021	-3.2687	-4.0792	-3.4313	-3.1854	-4.2812	-3.4104	-3.7188	-3.9042	-3.1333	-3.9167	356.169	174.807	426.331	492.957	262.837	354.935	376.107	451.272	452.639	390.901	384.001	450.161	408.606	461.180	475.638	398.969	0.00040628	0.00050005	7.2428e-06	1070.9	1.0374e-06	4.1646e-06	1260.3	328.07	4.4375e-06	7.6548e-07	417.48	108.58	72.573	16.359	5.5502e-06	24.903	0.00092969	0.0013321	0.00035915	944.93	1.3787e-05	1.4116e-05	1106	289.86	1.3374e-05	1.4802e-05	369.09	95.592	64.778	14.85	1.3899e-05	22.655	292.636	253.856	379.796	156.976	375.809	326.895	154.743	161.677	298.809	284.819	159.090	164.318	166.577	172.718	302.752	168.262	-8191	255	
#DATA ENDS
