BOXY.EXE: ISS Imagent and Oximeter Data Acquisition Program Version 0.80
Ascii Record File

#ACQ INFORMATION
2  Detector Channels 
16  External MUX Channels 
1  Auxiliary Channels 
5000  Waveform (CCF) Frequency (Hz)
1  Waveforms Skipped 
30  Waveforms Averaged 
1  Cycles Averaged 
16  Acquisitions per Waveform 
10.0806  Updata Rate (Hz) 

#FILE INFORMATION
TRUE -- External MUX Channel results are PARSED.
FALSE -- AC DC and Phase are NOT grouped.
TRUE -- Companion Program Settings File CREATED.
FALSE -- AC data not excluded
FALSE -- DC data not excluded
FALSE -- Phase data not excluded
FALSE -- Auxillary Chn. data not excluded
Tab delimiters

#CALIBRATION STATE
TRUE -- Waveform Calibration Values APPLIED.


#AUX CALIBRATION VALUES
Val Type	aux-1	

Term	1.0000e+00	
Factor	0.0000e+00	


#WF CALIBRATION VALUES
A = Detector Channel
Val Type	A-AC1	A-AC2	A-AC3	A-AC4	A-AC5	A-AC6	A-AC7	A-AC8	A-AC9	A-AC10	A-AC11	A-AC12	A-AC13	A-AC14	A-AC15	A-AC16	A-DC1	A-DC2	A-DC3	A-DC4	A-DC5	A-DC6	A-DC7	A-DC8	A-DC9	A-DC10	A-DC11	A-DC12	A-DC13	A-DC14	A-DC15	A-DC16	A-Ph1	A-Ph2	A-Ph3	A-Ph4	A-Ph5	A-Ph6	A-Ph7	A-Ph8	A-Ph9	A-Ph10	A-Ph11	A-Ph12	A-Ph13	A-Ph14	A-Ph15	A-Ph16	

Term	0.00000e+00	0.00000e+00	0.00000e+00	0.00000e+00	0.00000e+00	0.00000e+00	0.00000e+00	0.00000e+00	0.00000e+00	0.00000e+00	0.00000e+00	0.00000e+00	0.00000e+00	0.00000e+00	0.00000e+00	0.00000e+00	0.00000e+00	0.00000e+00	0.00000e+00	0.00000e+00	0.00000e+00	0.00000e+00	0.00000e+00	0.00000e+00	0.00000e+00	0.00000e+00	0.00000e+00	0.00000e+00	0.00000e+00	0.00000e+00	0.00000e+00	0.00000e+00	0.00000e+00	0.00000e+00	0.00000e+00	0.00000e+00	0.00000e+00	0.00000e+00	0.00000e+00	0.00000e+00	0.00000e+00	0.00000e+00	0.00000e+00	0.00000e+00	0.00000e+00	0.00000e+00	0.00000e+00	0.00000e+00	
Factor	1.00000e+00	1.00000e+00	1.00000e+00	1.00000e+00	1.00000e+00	1.00000e+00	1.00000e+00	1.00000e+00	1.00000e+00	1.00000e+00	1.00000e+00	1.00000e+00	1.00000e+00	1.00000e+00	1.00000e+00	1.00000e+00	1.00000e+00	1.00000e+00	1.00000e+00	1.00000e+00	1.00000e+00	1.00000e+00	1.00000e+00	1.00000e+00	1.00000e+00	1.00000e+00	1.00000e+00	1.00000e+00	1.00000e+00	1.00000e+00	1.00000e+00	1.00000e+00	X	X	X	X	X	X	X	X	X	X	X	X	X	X	X	X	

B = Detector Channel
Val Type	B-AC1	B-AC2	B-AC3	B-AC4	B-AC5	B-AC6	B-AC7	B-AC8	B-AC9	B-AC10	B-AC11	B-AC12	B-AC13	B-AC14	B-AC15	B-AC16	B-DC1	B-DC2	B-DC3	B-DC4	B-DC5	B-DC6	B-DC7	B-DC8	B-DC9	B-DC10	B-DC11	B-DC12	B-DC13	B-DC14	B-DC15	B-DC16	B-Ph1	B-Ph2	B-Ph3	B-Ph4	B-Ph5	B-Ph6	B-Ph7	B-Ph8	B-Ph9	B-Ph10	B-Ph11	B-Ph12	B-Ph13	B-Ph14	B-Ph15	B-Ph16	

Term	0.00000e+00	0.00000e+00	0.00000e+00	0.00000e+00	0.00000e+00	0.00000e+00	0.00000e+00	0.00000e+00	0.00000e+00	0.00000e+00	0.00000e+00	0.00000e+00	0.00000e+00	0.00000e+00	0.00000e+00	0.00000e+00	0.00000e+00	0.00000e+00	0.00000e+00	0.00000e+00	0.00000e+00	0.00000e+00	0.00000e+00	0.00000e+00	0.00000e+00	0.00000e+00	0.00000e+00	0.00000e+00	0.00000e+00	0.00000e+00	0.00000e+00	0.00000e+00	-3.55938e+01	-1.27701e+02	-1.25281e+02	-1.82617e+02	-5.40153e+01	-6.01161e+01	-1.56707e+02	-1.61923e+02	-3.23848e+01	-6.96501e+01	-1.72081e+02	-1.72121e+02	-1.82310e+02	-1.75613e+02	-4.80221e+01	-1.49421e+02	
Factor	1.75935e-05	1.27067e-04	3.90881e-05	1.69756e-01	1.41494e-06	1.43045e-06	1.51472e-01	4.16107e-02	1.27005e-06	1.46452e-06	7.00974e-02	2.89022e-02	2.93523e-02	6.32495e-03	1.47419e-06	9.43134e-03	9.40978e-06	1.53733e-05	4.30930e-06	8.73817e-02	1.59016e-07	1.71387e-07	7.34779e-02	2.15944e-02	1.53695e-07	1.73083e-07	3.51862e-02	1.45699e-02	1.52597e-02	3.31565e-03	1.61020e-07	4.78232e-03	X	X	X	X	X	X	X	X	X	X	X	X	X	X	X	X	



#DISTANCE SETTINGS
A = Detector Channel
A-1	A-2	A-3	A-4	A-5	A-6	A-7	A-8	A-9	A-10	A-11	A-12	A-13	A-14	A-15	A-16	

1.0000e+01	1.0000e+01	1.0000e+01	1.4500e+00	1.0000e+01	1.0000e+01	1.5100e+00	1.9500e+00	1.0000e+01	1.0000e+01	2.0100e+00	2.5000e+00	2.4400e+00	2.9500e+00	1.0000e+01	3.0100e+00	

B = Detector Channel
B-1	B-2	B-3	B-4	B-5	B-6	B-7	B-8	B-9	B-10	B-11	B-12	B-13	B-14	B-15	B-16	

1.0000e+01	1.0000e+01	1.0000e+01	1.4500e+00	1.0000e+01	1.0000e+01	1.5100e+00	1.9500e+00	1.0000e+01	1.0000e+01	2.0100e+00	2.5000e+00	2.4400e+00	2.9500e+00	1.0000e+01	3.0100e+00	




#DATA BEGINS
time	group	step	mark	flag	A-AC1	A-AC2	A-AC3	A-AC4	A-AC5	A-AC6	A-AC7	A-AC8	A-AC9	A-AC10	A-AC11	A-AC12	A-AC13	A-AC14	A-AC15	A-AC16	A-DC1	A-DC2	A-DC3	A-DC4	A-DC5	A-DC6	A-DC7	A-DC8	A-DC9	A-DC10	A-DC11	A-DC12	A-DC13	A-DC14	A-DC15	A-DC16	A-Ph1	A-Ph2	A-Ph3	A-Ph4	A-Ph5	A-Ph6	A-Ph7	A-Ph8	A-Ph9	A-Ph10	A-Ph11	A-Ph12	A-Ph13	A-Ph14	A-Ph15	A-Ph16	B-AC1	B-AC2	B-AC3	B-AC4	B-AC5	B-AC6	B-AC7	B-AC8	B-AC9	B-AC10	B-AC11	B-AC12	B-AC13	B-AC14	B-AC15	B-AC16	B-DC1	B-DC2	B-DC3	B-DC4	B-DC5	B-DC6	B-DC7	B-DC8	B-DC9	B-DC10	B-DC11	B-DC12	B-DC13	B-DC14	B-DC15	B-DC16	B-Ph1	B-Ph2	B-Ph3	B-Ph4	B-Ph5	B-Ph6	B-Ph7	B-Ph8	B-Ph9	B-Ph10	B-Ph11	B-Ph12	B-Ph13	B-Ph14	B-Ph15	B-Ph16	aux-1	digaux	

1526.161	1	1	0	256	0.11718	0.21813	0.20102	0.080876	0.14179	0.30429	0.16745	0.28825	0.12116	0.099596	0.044686	0.14384	0.093634	0.25052	0.067192	0.26761	-3.4271	-3.9917	-3.1771	-4.2146	-3.7896	-3.3125	-4.3104	-3.65	-3.7792	-4.225	-3.1354	-3.9146	-3.7917	-3.3917	-4.2396	-3.6458	177.274	-84.417	114.105	-137.524	52.812	47.057	167.097	126.050	-144.277	147.612	7.627	84.795	-104.213	180.273	155.852	40.159	0.00021119	0.00034109	6.5201e-05	1040.7	2.994e-06	2.4533e-06	965.34	269.97	2.2805e-06	3.2592e-06	255.21	69.871	65.166	20.221	2.909e-06	23.989	0.0002385	0.00023054	6.8751e-05	902.62	2.9004e-06	2.543e-06	837.48	234.97	2.9945e-06	2.6925e-06	221.95	61.212	56.926	17.725	2.7212e-06	21.01	-60.252	-53.502	-45.921	-139.321	23.069	8.044	-141.034	-134.460	8.616	13.654	-135.964	-131.609	-129.700	-124.514	-18.108	-128.412	-8191	255	
1526.233	1	1	0	0	0.24687	0.24589	0.10878	0.1977	0.17318	0.1602	0.17857	0.44712	0.1904	0.2741	0.06624	0.3225	0.087195	0.12821	0.14283	0.31904	-3.1479	-4.1708	-3.2021	-4.05	-3.9562	-3.1396	-4.2292	-3.6708	-3.5083	-4.3229	-3.3958	-3.9583	-3.8708	-3.2875	-4.15	-3.725	56.278	-58.905	-85.647	-135.439	-86.746	193.867	149.155	183.541	49.314	-9.032	-5.375	166.893	191.043	-28.816	56.032	165.973	0.00023633	0.00041637	7.9631e-05	1043.8	2.3328e-06	3.3279e-06	976.49	269.15	2.8379e-06	1.5219e-06	257.28	70.496	65.206	20.171	2.8067e-06	24.234	0.00025697	0.00023646	7.5359e-05	904.58	2.7364e-06	2.7958e-06	845.14	235.41	2.8517e-06	2.7199e-06	223.4	61.611	56.992	17.75	2.7313e-06	21.223	-56.405	-67.494	-90.537	-139.173	5.538	15.628	-140.920	-134.068	26.782	34.675	-136.334	-131.646	-129.835	-124.440	7.987	-127.691	-8191	255	
1526.329	1	1	0	0	0.11742	0.17578	0.080952	0.33058	0.15814	0.15473	0.15329	0.080762	0.15728	0.12288	0.10055	0.12959	0.29012	0.14426	0.21838	0.2124	-3.0229	-4.375	-3.2979	-3.8708	-3.8958	-3.1875	-4.2771	-3.8271	-3.2708	-4.1375	-3.35	-3.4875	-4.2146	-3.2479	-4.0292	-3.7646	-57.235	-16.114	104.179	-136.176	132.253	10.118	15.309	154.999	-146.956	196.731	88.153	-123.197	163.286	-135.152	100.119	140.291	0.00023476	0.00033983	0.000123	1045.1	4.2747e-06	2.8932e-06	969.61	268.1	3.7999e-06	3.8508e-06	255.03	69.781	64.7	19.973	3.3461e-06	23.894	0.0002463	0.00022615	7.2244e-05	907.71	2.8987e-06	2.6583e-06	844.3	234.98	3.0079e-06	2.6453e-06	221.53	60.87	56.63	17.588	2.5827e-06	20.864	-59.601	-39.517	-69.067	-139.174	15.811	47.784	-140.933	-134.245	13.443	20.867	-136.455	-131.486	-129.769	-124.191	-46.272	-128.432	-8191	255	
1526.450	1	1	0	0	0.12614	0.13154	0.18672	0.27817	0.14863	0.29938	0.19263	0.28507	0.096735	0.027785	0.15224	0.09418	0.22903	0.17482	0.09739	0.22274	-2.9604	-4.25	-3.4833	-3.7125	-4.0833	-3.2896	-4.2208	-3.8063	-3.2604	-4.0458	-3.5896	-3.55	-4.1896	-3.375	-3.9875	-4.0062	-70.234	61.757	97.829	-121.626	110.020	26.493	60.658	191.338	187.300	148.219	111.766	-111.502	155.271	168.038	180.853	193.352	0.00022698	0.00042784	7.9043e-05	1032	2.6551e-06	3.502e-06	957.19	266.65	3.4236e-06	1.5364e-06	250.56	68.511	64.338	19.888	3.9917e-06	23.558	0.00024822	0.00023361	6.7683e-05	896.13	2.7735e-06	2.839e-06	832.79	232.1	2.9215e-06	2.7134e-06	219.14	60.364	56.381	17.481	2.744e-06	20.751	-62.493	-34.967	-62.672	-139.331	-29.777	-12.467	-140.715	-134.449	-6.963	-22.340	-136.310	-131.228	-129.187	-124.489	-5.814	-127.996	-8191	255	
1526.546	1	1	0	0	0.20736	0.16041	0.29542	0.1461	0.14588	0.19396	0.17165	0.091682	0.22019	0.17295	0.13881	0.26943	0.16397	0.14516	0.16795	0.036137	-2.9625	-3.9854	-3.4917	-3.55	-4.1875	-3.2542	-3.9708	-4.0167	-3.3104	-4.0813	-3.5646	-3.325	-4.2604	-3.3875	-3.7229	-4.1354	37.421	185.734	76.118	49.790	156.531	60.195	149.822	103.293	80.727	90.350	3.732	185.768	155.994	-102.557	-149.300	140.523	0.00022597	0.00033085	4.3603e-05	1024.5	4.1394e-06	3.0764e-06	969.78	267.89	2.0475e-06	3.203e-06	254.06	69.409	63.838	19.591	5.7886e-07	23.808	0.00022909	0.00022461	7.1588e-05	893.85	2.8225e-06	2.6647e-06	839.03	233.79	2.9199e-06	2.5497e-06	221.44	60.967	56.273	17.408	2.6246e-06	20.881	-55.045	-83.145	-42.308	-139.578	0.610	23.924	-140.240	-134.063	8.516	-14.713	-135.769	-131.855	-129.698	-124.203	14.887	-128.126	-8191	255	
1526.642	1	1	0	0	0.15882	0.14845	0.19329	0.05657	0.13177	0.25905	0.064313	0.22235	0.24553	0.19641	0.15172	0.040979	0.17668	0.10978	0.027786	0.13333	-2.8583	-4.1271	-3.6208	-3.4062	-4.3167	-3.3729	-3.8729	-4.2271	-3.2667	-4.1417	-3.9875	-3.2271	-4.2562	-3.6312	-3.6396	-3.9792	16.393	-124.153	-26.660	157.070	-12.217	-26.070	193.937	81.941	2.954	-77.124	-86.352	-145.444	-20.425	-134.197	-151.533	91.637	0.00023934	0.00012136	4.1821e-05	1037.2	2.5438e-06	3.8702e-06	977.5	268.24	2.5955e-06	3.5757e-06	255.35	70.382	64.524	19.769	2.6419e-06	23.843	0.0002357	0.00023431	6.7423e-05	899.45	2.6072e-06	2.5655e-06	847.32	233.82	2.8789e-06	2.7398e-06	222.6	61.509	56.604	17.537	2.6874e-06	21.029	-52.254	-23.376	-86.808	-139.393	-13.761	2.690	-140.699	-134.275	-22.259	-8.813	-136.499	-131.750	-129.207	-124.432	38.114	-128.471	-8191	255	
1526.761	1	1	0	0	0.023641	0.16135	0.044714	0.21544	0.15837	0.13563	0.30805	0.1299	0.16601	0.13793	0.12494	0.41686	0.067907	0.13232	0.20334	0.1937	-2.7604	-3.9167	-3.8354	-3.4479	-4.2688	-3.4583	-3.6042	-4.2	-3.2333	-4.0854	-4.0583	-3.3917	-4.1208	-3.4708	-3.4917	-4.3167	-99.134	-87.093	-43.588	190.596	-110.311	-52.419	110.214	-23.214	-78.071	159.990	-129.381	188.966	-33.509	53.311	-104.873	183.571	0.00021474	0.00038185	8.1929e-05	1033.7	3.0877e-06	3.148e-06	971.85	266.59	4.6199e-06	3.5273e-06	253.5	69.047	64.288	19.486	1.757e-06	23.594	0.00024316	0.00024751	6.4451e-05	899.28	2.6208e-06	2.5362e-06	844.25	232.38	3.0047e-06	2.752e-06	220.09	60.57	56.154	17.218	2.6125e-06	20.687	-59.880	-61.439	-72.800	-139.605	-29.782	31.906	-140.309	-134.250	5.385	6.435	-136.101	-131.272	-129.217	-124.447	9.127	-128.036	-8191	255	
1526.833	1	1	0	0	0.08034	0.13609	0.16476	0.26029	0.1943	0.18988	0.16528	0.16969	0.18931	0.080359	0.063199	0.16892	0.10201	0.13081	0.17972	0.047143	-2.8771	-3.8021	-3.8958	-3.3833	-4.0167	-3.775	-3.5104	-4.2208	-3.2667	-3.7833	-4.1208	-3.3167	-4.0125	-3.5833	-3.3812	-4.2188	3.555	122.804	-13.911	147.154	-1.849	106.793	-26.836	-120.857	-60.419	-33.047	-78.875	150.296	139.044	-43.652	184.798	-35.387	0.00022448	0.00034883	7.0362e-05	1029.2	3.5901e-06	2.2718e-06	954.44	263	2.2143e-06	2.714e-06	251.41	68.949	64.135	19.562	8.5087e-07	23.408	0.00024152	0.00022961	6.6938e-05	891.89	2.7241e-06	2.6494e-06	831.99	229.66	2.8997e-06	2.6269e-06	219.01	60.116	55.794	17.295	2.629e-06	20.616	-60.316	-55.614	-63.043	-139.575	2.672	65.252	-140.805	-134.553	12.142	-18.050	-136.482	-131.532	-129.826	-124.803	8.157	-128.310	-8191	255	
1526.929	1	1	0	0	0.24614	0.10357	0.2254	0.30086	0.047392	0.074815	0.13686	0.062047	0.15796	0.16776	0.080734	0.089627	0.25101	0.17049	0.091462	0.21884	-2.9562	-3.7896	-4.0771	-3.2146	-3.9562	-3.8563	-3.4708	-4.2604	-3.2417	-3.5354	-4.1771	-3.1667	-3.925	-3.8042	-3.325	-4.1354	-89.274	25.200	-14.875	109.132	16.960	65.767	160.931	84.573	81.326	21.649	179.705	169.738	157.610	-6.060	-84.851	133.311	0.00023118	0.00046329	7.2352e-05	1031.3	1.7271e-06	1.7698e-06	966.87	265.03	3.265e-06	1.3575e-06	253.41	69.136	63.366	19.707	3.0876e-06	23.513	0.0002481	0.00024306	6.6489e-05	892.34	2.6784e-06	2.7436e-06	836.84	231.03	2.9942e-06	2.6712e-06	220.49	60.381	55.912	17.27	2.7414e-06	20.676	-58.359	-82.826	-41.672	-139.429	-9.516	-31.154	-141.071	-133.963	-14.603	36.585	-136.036	-131.121	-129.351	-124.554	-5.604	-128.042	-8191	255	
1527.049	1	1	0	0	0.26	0.14458	0.12856	0.13304	0.22653	0.12837	0.1399	0.39621	0.18523	0.19971	0.10151	0.19303	0.10529	0.18691	0.21846	0.1477	-3.0667	-3.4583	-4.3167	-3.4792	-3.9479	-3.8646	-3.5042	-4.2875	-3.6646	-3.3229	-4.2	-3.4667	-3.8229	-3.8688	-3.2417	-4.1917	40.916	72.567	105.353	151.201	159.417	173.233	-137.813	149.916	66.935	166.727	141.514	172.656	-26.463	-135.476	-71.593	181.477	0.00024279	0.00035958	0.00010959	1028.1	1.3335e-06	4.6302e-06	976.64	264.32	3.0222e-06	2.615e-06	253.38	69.664	64.363	19.905	4.5908e-06	23.716	0.00024963	0.00025529	6.6875e-05	893.93	2.8818e-06	2.5712e-06	845.47	231.07	2.9452e-06	2.8432e-06	221.07	60.857	56.209	17.32	2.8393e-06	20.87	-63.655	-35.256	-49.224	-139.396	-10.207	-3.652	-140.903	-134.123	35.635	8.693	-135.971	-131.734	-129.275	-123.945	4.771	-127.538	-8191	255	
1527.145	1	1	0	0	0.27652	0.24606	0.24057	0.096538	0.21665	0.23197	0.23612	0.067157	0.024508	0.034694	0.034817	0.34176	0.083956	0.10024	0.34925	0.052148	-3.2896	-3.2958	-4.2063	-3.4479	-3.7292	-4.1021	-3.5021	-4.1833	-3.675	-3.2604	-4.3583	-3.425	-3.6437	-4.1854	-3.15	-4.0958	-75.469	136.561	5.307	148.104	-79.368	153.370	182.510	74.252	79.364	-46.945	177.711	94.288	25.533	155.321	-88.265	146.322	0.00020422	0.00017897	8.6877e-05	1032.5	2.5268e-06	3.5981e-06	971.87	263.06	3.7599e-06	4.3769e-06	251.15	68.535	63.471	19.447	2.438e-06	23.247	0.00024971	0.00025251	6.3158e-05	896.18	2.645e-06	2.6015e-06	842.93	229.81	2.6887e-06	2.7008e-06	218.16	59.913	55.38	17.029	2.8819e-06	20.393	-70.695	-125.943	-55.376	-139.750	-0.026	2.493	-140.858	-134.181	14.692	-32.488	-135.868	-131.886	-129.291	-124.315	-4.441	-128.092	-8191	255	
1527.242	1	1	0	0	0.030417	0.068795	0.1132	0.2117	0.12072	0.16034	0.12951	0.25906	0.20201	0.06579	0.12168	0.093399	0.23721	0.31128	0.06347	0.35414	-3.3417	-3.1292	-4.1729	-3.4583	-3.5958	-4.1167	-3.2333	-4.0062	-3.8	-3.3229	-4.1979	-3.45	-3.5062	-4.2729	-3.3563	-3.8438	191.885	-35.336	89.413	177.452	179.036	46.911	9.529	146.547	-118.968	173.235	-55.909	162.555	-131.862	-4.410	-85.302	90.739	0.00022334	0.00032859	0.00010124	1024	1.9502e-06	1.3804e-06	958.33	260.41	4.3565e-06	2.7596e-06	249.98	68.239	63.005	19.304	4.1225e-06	23.331	0.00023501	0.00025087	6.9344e-05	887.34	2.9849e-06	2.5587e-06	831.02	228.5	2.7636e-06	2.8818e-06	217.82	59.65	55.396	16.998	2.5569e-06	20.435	-57.535	-81.406	-41.579	-139.699	4.673	4.104	-141.123	-134.116	-19.810	-21.161	-136.308	-131.607	-129.699	-124.279	-35.789	-127.999	-8191	255	
1527.362	1	1	0	0	0.17452	0.085386	0.052353	0.041345	0.22668	0.12822	0.15254	0.1921	0.029148	0.08405	0.080398	0.14484	0.12376	0.042096	0.26008	0.31449	-3.6167	-3.0354	-4.0875	-3.5625	-3.4667	-4.1937	-3.5	-3.8542	-4.1438	-3.2542	-4.1667	-3.6271	-3.2021	-4.2688	-3.3063	-3.6667	92.478	106.163	79.996	-10.196	-27.967	170.822	137.400	-96.674	194.271	31.797	-70.813	-76.913	20.527	172.601	-112.398	186.950	0.00021307	0.00038672	5.3757e-05	1032.5	2.4241e-06	2.5201e-06	958.52	263.25	3.2945e-06	2.4882e-06	250.72	69.591	63.603	19.379	1.8624e-06	23.477	0.00023515	0.00025962	6.3418e-05	892.55	2.741e-06	2.7847e-06	835.29	229.18	2.7047e-06	2.6723e-06	219.16	60.413	55.401	17.117	2.5216e-06	20.627	-57.732	-77.553	-89.535	-139.943	15.473	20.925	-140.665	-133.880	-5.890	-2.498	-135.965	-131.782	-129.172	-124.357	-31.929	-127.816	-8191	255	
1527.458	1	1	0	0	0.12332	0.12973	0.19203	0.14116	0.24345	0.28321	0.24012	0.10102	0.34951	0.063457	0.178	0.2721	0.043706	0.31272	0.13854	0.23163	-3.8333	-3.2125	-4.0062	-3.8125	-3.325	-4.1375	-3.55	-3.6958	-4.1042	-3.2854	-3.9917	-3.9292	-3.3458	-4.2979	-3.5729	-3.5229	112.651	77.722	117.769	110.961	-45.887	-2.535	104.000	-126.420	-104.739	32.435	-110.378	113.626	152.323	97.083	117.054	177.515	0.00022457	0.00035742	6.9523e-05	1033.2	4.095e-06	3.2737e-06	969.83	263.78	2.2349e-06	4.816e-06	252.76	69.127	63.979	19.459	2.9618e-06	23.619	0.00022525	0.00025331	6.2162e-05	896.44	2.97e-06	2.549e-06	845.05	230.68	2.7217e-06	2.5732e-06	221.2	60.547	55.726	17.176	2.6223e-06	20.765	-64.159	-77.946	-54.979	-139.806	9.413	-5.848	-140.844	-134.172	46.798	-37.243	-135.984	-131.477	-129.600	-124.653	-15.157	-127.693	-8191	255	
1527.530	1	1	0	0	0.17772	0.2081	0.09207	0.26101	0.103	0.041152	0.19677	0.12881	0.24896	0.13688	0.06468	0.16569	0.066022	0.12564	0.1179	0.061308	-3.8104	-3.1021	-3.8896	-4.0083	-3.3438	-4.1146	-3.7562	-3.6312	-4.2104	-3.4271	-3.9437	-4.0563	-3.1875	-4.0333	-3.4625	-3.4083	107.093	-123.485	-111.952	199.801	67.264	110.838	142.860	182.540	-13.872	100.946	105.326	108.484	52.386	198.421	84.212	98.910	0.00022513	0.00025556	8.9685e-05	1029.9	2.1853e-06	3.4774e-06	966.91	261.12	2.0463e-06	1.2043e-06	248.63	68.663	63.048	19.262	1.7777e-06	23.253	0.00023801	0.00024783	6.9003e-05	894.66	2.8398e-06	2.4719e-06	839.66	227.98	2.6573e-06	2.6547e-06	217.06	59.675	55.114	16.964	2.5196e-06	20.406	-54.776	-70.509	-45.862	-139.798	-3.486	45.511	-140.977	-134.099	-16.004	-32.576	-136.410	-131.781	-129.998	-124.451	-6.788	-127.735	-8191	255	
1527.626	1	1	0	0	0.25732	0.14908	0.11771	0.082214	0.19263	0.18439	0.132	0.13799	0.21046	0.17504	0.21629	0.10527	0.090708	0.094429	0.16521	0.049722	-3.9021	-3.4188	-3.7313	-3.9917	-3.2562	-4.1375	-3.7438	-3.3875	-4.1958	-3.3063	-3.6396	-4.0708	-3.2875	-4.0375	-3.7062	-3.4042	6.147	-16.393	196.656	57.347	-106.028	43.076	145.634	167.453	-7.302	25.668	-91.289	160.974	174.725	132.908	84.956	-16.932	0.00022026	0.00022999	0.00013474	1019.4	3.9354e-06	6.9936e-06	954.97	258.14	4.7974e-06	4.4548e-06	250.66	67.766	62.858	19.071	2.4851e-06	23.186	0.00023715	0.00025145	6.8581e-05	883.5	2.8414e-06	2.6022e-06	830.22	225.99	2.5824e-06	2.84e-06	217.29	59.493	54.832	16.881	2.6887e-06	20.386	-58.546	-74.709	-47.811	-139.515	-5.618	17.883	-140.848	-134.163	-9.902	-21.759	-136.235	-131.944	-129.583	-124.269	25.127	-128.019	-8191	255	
1527.745	1	1	0	0	0.047049	0.034167	0.10202	0.20562	0.077751	0.10967	0.10794	0.21016	0.069463	0.14957	0.13092	0.31724	0.048682	0.22195	0.13705	0.18773	-3.7667	-3.3167	-3.5938	-4.175	-3.4437	-4.0813	-4.1229	-3.4833	-4.1292	-3.5146	-3.7521	-4.2312	-3.2417	-3.9854	-3.8958	-3.2208	-59.629	200.375	82.134	185.689	207.603	135.755	169.095	181.442	85.115	44.080	-145.887	122.145	142.328	79.478	192.526	-146.636	0.0002043	0.00028679	4.5836e-05	1022	4.2848e-06	1.5379e-06	956.81	260.43	4.3499e-06	5.5277e-06	251.77	68.289	62.544	19.245	3.7015e-06	23.297	0.00022523	0.00023813	7.017e-05	885.35	2.8636e-06	2.5123e-06	833.38	227.71	2.7156e-06	2.9309e-06	218.55	59.722	54.854	16.99	2.5944e-06	20.48	-57.630	-13.851	-74.501	-139.799	-5.652	28.557	-140.788	-134.076	17.603	-5.348	-136.447	-131.578	-129.531	-124.479	2.387	-127.809	-8191	255	
1527.841	1	1	0	0	0.10361	0.10665	0.17489	0.2226	0.15203	0.22508	0.2421	0.25342	0.29121	0.16769	0.32151	0.048095	0.12404	0.18562	0.079095	0.26074	-3.6542	-3.4083	-3.5104	-4.4146	-3.3292	-3.8458	-4.1188	-3.2729	-4.2625	-3.5625	-3.4875	-4.2542	-3.3021	-3.6958	-3.9437	-3.3479	24.421	148.854	54.315	-134.211	-26.193	128.835	173.281	-127.548	-42.435	-83.891	203.021	-111.771	119.634	72.640	76.136	-115.827	0.00020589	0.00032523	5.8414e-05	1025.2	3.3425e-06	3.4999e-06	969.66	261.19	2.9858e-06	3.1392e-06	253.4	69.072	62.944	19.346	4.1081e-06	23.331	0.00023777	0.00023572	6.9164e-05	891.42	2.6748e-06	2.5033e-06	840.69	227.98	2.7303e-06	2.5937e-06	219.86	60.198	55.101	16.975	2.4784e-06	20.565	-53.688	-65.154	-74.574	-139.534	9.690	-4.327	-140.862	-134.218	-2.800	29.572	-136.287	-131.047	-129.533	-124.392	25.482	-127.899	-8191	255	
1527.937	1	1	0	0	0.28928	0.13802	0.27366	0.23817	0.1963	0.019748	0.11266	0.17976	0.1562	0.13897	0.24594	0.10157	0.25837	0.10756	0.28445	0.10546	-3.7042	-3.7646	-3.2042	-4.3146	-3.3937	-3.6979	-4.1021	-3.3792	-4.2229	-3.8208	-3.4521	-4.0813	-3.3896	-3.7271	-4.3208	-3.4354	-57.379	123.378	84.696	152.141	-102.531	-1.065	161.944	147.751	100.417	-7.328	105.123	-72.933	-53.057	-56.046	-45.415	-38.006	0.00025316	0.0004784	0.00014222	1023.2	6.3271e-06	2.7089e-06	953.87	258.72	3.6868e-06	1.8739e-06	246.7	67.581	62.007	19.003	2.488e-06	22.665	0.00023907	0.00024175	7.2558e-05	885.13	2.8262e-06	2.594e-06	828.61	225.53	2.5914e-06	2.5411e-06	215.08	59.106	54.272	16.749	2.6239e-06	20.059	-60.871	-48.163	-48.610	-139.539	25.339	-36.063	-140.641	-134.317	-2.521	39.629	-136.181	-131.403	-129.252	-123.945	8.299	-128.223	-8191	255	
1528.034	1	1	0	0	0.10799	0.063691	0.12603	0.16838	0.059832	0.11124	0.1068	0.27641	0.082573	0.031847	0.17722	0.098717	0.11135	0.1977	0.33994	0.10003	-3.5167	-3.75	-3.1917	-4.2875	-3.4458	-3.2896	-4.3167	-3.3646	-3.7667	-3.9833	-3.4021	-4.0542	-3.5646	-3.4771	-3.9437	-3.2271	74.437	12.755	-116.549	173.122	-42.977	105.576	188.195	102.540	56.153	189.703	201.037	29.616	-75.919	46.952	76.017	-143.502	0.00020898	0.00039538	9.4122e-05	1017.2	2.032e-06	4.0429e-06	944.89	258.27	2.1078e-06	5.5964e-06	247.72	67.739	62.135	18.99	3.6103e-06	22.738	0.00023291	0.00021859	6.6255e-05	881.14	2.6923e-06	2.5187e-06	823.87	224.78	2.6749e-06	2.8043e-06	215.17	58.853	54.333	16.719	2.5381e-06	20.104	-60.131	-31.450	-65.180	-139.617	26.536	31.489	-141.154	-134.359	4.887	-7.376	-136.216	-131.911	-130.275	-124.088	23.757	-128.557	-8191	255	
1528.130	1	1	0	0	0.092863	0.17121	0.15963	0.36548	0.077322	0.13924	0.26213	0.36554	0.070445	0.19329	0.077046	0.17455	0.053564	0.18801	0.15123	0.19253	-3.4208	-4.0792	-3.1167	-4.25	-3.5438	-3.5958	-4.2646	-3.4896	-3.8896	-4.1354	-3.2771	-4.0917	-3.7333	-3.3104	-4.0458	-3.3458	40.345	41.991	-15.492	186.976	118.927	-110.167	138.376	157.199	157.734	81.177	123.855	-88.480	102.202	119.605	122.573	146.831	0.00021444	0.00012845	5.5724e-05	1011.4	3.7241e-06	3.8776e-06	951.08	258.53	3.2494e-06	4.1735e-06	248.7	67.724	62.46	19.026	2.275e-06	23.171	0.00023542	0.00022282	6.8347e-05	882.02	2.6287e-06	2.7351e-06	828.06	225.18	2.9007e-06	2.4304e-06	216.38	59.172	54.597	16.781	2.5709e-06	20.325	-56.387	-89.584	-94.878	-139.465	-43.734	-35.199	-140.969	-134.402	-2.639	-21.713	-136.250	-131.546	-129.609	-124.411	-34.284	-128.015	-8191	255	
1528.226	1	1	0	0	0.13274	0.035418	0.16648	0.13398	0.062665	0.04151	0.4312	0.32206	0.26484	0.1965	0.046478	0.026548	0.12191	0.21659	0.091597	0.065867	-3.2208	-4.1646	-3.1833	-4.1042	-3.85	-3.2333	-4.3021	-3.5167	-3.6229	-3.9771	-3.3187	-4.0333	-3.8375	-3.2375	-4.1312	-3.6208	-149.029	-151.498	149.469	-101.262	124.518	137.243	184.932	137.711	-80.622	-71.641	149.221	54.551	-112.299	-22.331	133.069	169.272	0.00021173	0.0003604	8.6787e-05	1024.6	1.4911e-06	2.8486e-06	969.92	259.43	2.5225e-06	3.3015e-06	249.92	67.636	62.103	18.878	4.1688e-06	22.942	0.00022768	0.0002404	7.0116e-05	888.59	2.7391e-06	2.7222e-06	838.84	225.94	3.0015e-06	2.5613e-06	217.36	59.286	54.204	16.675	2.5444e-06	20.205	-63.669	-66.430	-54.213	-139.837	-27.566	-10.687	-141.325	-134.449	-6.417	19.578	-136.217	-131.520	-129.411	-124.685	12.298	-128.453	-8191	255	
1528.322	1	1	0	0	0.19877	0.23945	0.08961	0.2126	0.083705	0.12463	0.047193	0.0062086	0.17407	0.082607	0.041937	0.24372	0.16204	0.14072	0.084977	0.09754	-3.1312	-4.0104	-3.1146	-3.9542	-3.8708	-3.2771	-4.2458	-3.7146	-3.375	-4.0229	-3.4417	-3.7313	-3.9833	-3.1625	-4.0729	-3.6271	-105.599	185.515	166.412	-102.217	116.216	109.708	181.985	145.092	187.706	-120.103	52.389	-120.851	-85.980	138.619	17.022	198.309	0.00024808	0.00040586	8.2211e-05	1012.6	3.8583e-06	3.9225e-06	955.71	255.43	4.4873e-06	1.7807e-06	243.74	65.855	60.965	18.87	1.8393e-06	22.488	0.00024875	0.00023992	6.955e-05	879.11	2.8053e-06	2.594e-06	825.13	223.01	2.892e-06	2.6172e-06	212.06	57.846	53.515	16.495	2.6102e-06	19.783	-59.644	-46.254	-90.035	-139.630	-35.352	11.442	-141.295	-134.554	-6.301	-42.475	-136.447	-131.687	-129.974	-124.535	-39.206	-128.078	-8191	255	
1528.443	1	1	0	0	0.14047	0.16345	0.13735	0.21922	0.09412	0.11724	0.10305	0.29301	0.14831	0.27276	0.17121	0.1575	0.15899	0.12775	0.065119	0.18172	-3.1312	-4.1104	-3.4458	-3.7562	-4.1479	-3.1583	-4.2292	-3.8688	-3.2646	-4.1146	-3.4979	-3.8937	-4.0146	-3.2542	-3.8917	-3.7604	-45.515	117.854	11.358	-118.686	43.927	122.983	185.802	197.496	73.916	-7.041	199.006	23.480	-32.073	149.448	-66.714	201.906	0.00023598	0.00020338	0.00014179	1005	1.8943e-06	3.6019e-06	949.06	254.4	2.9998e-06	3.9829e-06	245.89	66.281	60.697	18.739	3.7168e-06	22.635	0.00023852	0.00023601	6.7162e-05	875.31	2.6132e-06	2.7304e-06	823.96	222.12	2.8209e-06	2.6738e-06	213.43	58.06	53.424	16.451	2.4348e-06	19.869	-57.720	-63.316	-54.957	-139.723	-10.465	-0.069	-141.189	-134.325	-15.365	-38.550	-136.926	-132.265	-129.066	-124.718	-5.715	-128.222	-8191	255	
1528.537	1	1	0	0	0.082727	0.15692	0.056825	0.14388	0.13735	0.38657	0.10067	0.064229	0.13141	0.18259	0.22537	0.060677	0.14581	0.072338	0.13079	0.16197	-2.9583	-4.125	-3.5062	-3.6437	-4.2417	-3.1771	-3.9917	-3.9354	-3.1667	-4.1083	-3.3063	-3.5021	-4.3667	-3.2646	-3.6979	-4.0792	-75.736	-70.730	-59.244	169.796	19.278	35.090	96.336	-124.128	86.061	47.519	198.700	-66.045	2.333	38.776	196.327	116.456	0.00024416	0.00025419	0.0001087	1021.3	3.4756e-06	3.1491e-06	956.49	255.41	2.9913e-06	3.8528e-06	248.54	67.794	61.452	18.972	6.4003e-06	22.716	0.0002492	0.00021273	7.0277e-05	883.18	2.6688e-06	2.7147e-06	830.31	223.11	2.7835e-06	2.6359e-06	215.97	59.106	53.868	16.605	2.5998e-06	20.087	-58.311	-27.257	-14.231	-139.939	1.201	-2.343	-141.240	-134.473	54.685	-11.101	-136.535	-131.910	-129.665	-124.748	-2.436	-128.346	-8191	255	
1528.635	1	1	0	0	0.088808	0.054058	0.047638	0.10454	0.057029	0.07617	0.16108	0.060279	0.20698	0.21149	0.14176	0.25646	0.13631	0.041417	0.069453	0.089583	-2.8875	-4.1813	-3.4688	-3.5229	-4.2417	-3.375	-3.8083	-4.2125	-3.0062	-4.0604	-3.5771	-3.2229	-4.2083	-3.4354	-3.6	-4.2125	-88.044	-30.504	75.114	140.831	100.400	49.279	108.415	102.074	-149.256	-98.592	-131.348	8.642	136.594	45.542	153.600	-152.397	0.00021378	0.00034332	5.8139e-05	1011.2	1.5049e-06	3.7073e-06	966.66	256.64	5.3891e-06	2.1784e-06	248.04	67.531	61.115	18.666	4.0821e-06	22.931	0.00023977	0.00023659	6.6507e-05	880.08	2.8096e-06	2.6694e-06	838.14	224.52	3.0115e-06	2.6096e-06	216.36	59.163	53.78	16.502	2.6437e-06	20.105	-57.775	-92.244	-28.013	-139.881	44.547	-33.035	-140.960	-134.762	-0.783	24.166	-136.894	-131.744	-130.058	-124.687	8.899	-128.170	-8191	255	
1528.731	1	1	0	0	0.11203	0.082306	0.10909	0.22277	0.26894	0.21422	0.17725	0.030309	0.21389	0.2987	0.12896	0.0712	0.068851	0.17183	0.10874	0.18244	-2.7479	-3.9708	-3.5917	-3.3688	-4.1146	-3.4562	-3.7875	-4.2188	-3.2687	-3.9188	-3.9958	-3.2271	-4.0583	-3.4875	-3.5187	-4.0958	31.890	64.813	-10.648	-148.798	133.242	175.143	100.106	-114.665	28.512	-50.965	116.595	187.727	59.336	29.433	-19.103	184.786	0.00019302	0.00047985	1.4158e-05	1011.8	1.8865e-06	3.7604e-06	953.15	253.75	2.7758e-06	5.7237e-06	244.89	66.168	60.81	18.736	2.4358e-06	22.571	0.00023932	0.0002379	6.9299e-05	876.56	2.6801e-06	2.7626e-06	823.68	221.44	2.8421e-06	2.611e-06	212.71	57.973	53.231	16.394	2.7246e-06	19.889	-63.712	-59.924	-43.037	-139.889	-21.260	12.844	-141.346	-134.613	-40.200	-7.193	-136.935	-132.280	-129.767	-124.541	25.017	-128.263	-8191	255	
1528.825	1	1	0	0	0.086875	0.12417	0.09744	0.21552	0.18981	0.12759	0.29394	0.25496	0.30546	0.17016	0.22741	0.13281	0.14358	0.14671	0.18328	0.085328	-2.7917	-3.8854	-4.0188	-3.2271	-4.2271	-3.5875	-3.6021	-4.35	-3.1354	-4	-4.0583	-3.3104	-4.0333	-3.525	-3.3604	-4.0646	182.963	191.990	-136.689	190.269	50.100	-151.294	157.391	87.919	53.538	-144.140	153.982	-51.703	-104.756	114.652	-128.295	-142.730	0.00024599	0.00026836	0.00014225	1004.3	4.5843e-06	2.6674e-06	947.21	253.63	4.3322e-06	2.332e-06	244.66	67.114	61.575	18.718	2.2376e-06	22.711	0.00024405	0.00023492	6.2144e-05	872.4	2.7096e-06	2.6536e-06	824.48	221.53	2.7611e-06	2.5977e-06	213.51	58.449	53.612	16.435	2.8994e-06	20.09	-54.702	-69.847	-28.149	-140.004	9.029	10.867	-141.361	-134.505	-25.560	-19.453	-136.619	-131.999	-129.144	-124.849	-3.093	-128.693	-8191	255	
1528.922	1	1	0	0	0.061724	0.14226	0.020013	0.17231	0.20067	0.17551	0.18054	0.060448	0.13232	0.1342	0.23997	0.23182	0.080376	0.15711	0.13508	0.17636	-3.0396	-3.6396	-3.9083	-3.4188	-3.9979	-3.7042	-3.4188	-4.1542	-3.2896	-3.5521	-4.0479	-3.1792	-4.1146	-3.8271	-3.1458	-4.2312	148.940	-28.467	107.714	133.263	124.961	197.149	114.416	-127.824	132.641	28.799	-148.982	115.271	-112.408	-148.247	41.058	21.770	0.00023181	0.00022172	5.8138e-05	1018.9	1.7421e-06	4.9454e-06	954.38	255.66	3.2894e-06	3.8243e-06	246.71	66.645	61.713	18.659	3.4403e-06	22.963	0.00024869	0.00023108	6.3418e-05	881.22	2.8487e-06	2.7311e-06	829.95	222.73	2.8241e-06	2.8194e-06	215.05	58.695	53.976	16.46	2.7011e-06	20.213	-61.528	-51.588	-52.417	-139.789	29.747	51.034	-141.067	-134.873	0.427	-11.910	-136.655	-131.407	-129.875	-124.444	23.754	-127.970	-8191	255	
1529.042	1	1	0	0	0.19146	0.18633	0.16923	0.087186	0.037007	0.18371	0.20756	0.22163	0.13144	0.29626	0.21999	0.12703	0.034678	0.27293	0.23352	0.10387	-3.05	-3.4375	-4.1	-3.3875	-3.9729	-3.6771	-3.4313	-4.2917	-3.4292	-3.4062	-4.3	-3.2979	-3.8146	-3.9146	-3.3396	-4.2271	-58.611	-35.981	131.744	18.549	48.820	34.655	166.298	170.941	92.187	-76.811	156.729	143.919	-111.832	127.881	149.690	-128.052	0.00021979	0.00026755	7.6022e-05	1017.1	7.8777e-07	2.6684e-06	960.33	256.21	2.9832e-06	2.0078e-06	246.15	67.125	61.347	18.59	2.4578e-06	22.673	0.00024154	0.00026125	6.6785e-05	883.57	2.6572e-06	2.3876e-06	835.88	223.54	2.8152e-06	2.5768e-06	215.12	58.766	53.939	16.391	2.5089e-06	19.905	-57.041	-50.360	-61.140	-140.190	70.831	-37.874	-141.247	-134.914	21.254	14.012	-136.064	-132.201	-129.735	-124.469	-2.645	-128.326	-8191	255	
1529.138	1	1	0	0	0.1336	0.24931	0.12726	0.21752	0.055155	0.16989	0.26333	0.2377	0.080278	0.24368	0.20092	0.26145	0.14134	0.29703	0.013514	0.1483	-3.2917	-3.2729	-4.1521	-3.3292	-3.8667	-3.9292	-3.2854	-4.2896	-3.5896	-3.4333	-4.2417	-3.325	-3.8625	-3.9479	-3.1583	-4.1958	74.632	-80.490	-15.081	169.222	167.192	162.034	156.321	159.267	91.816	64.796	40.356	-108.167	95.644	104.315	-56.663	-78.408	0.00023575	0.00018154	0.00011636	1002.3	3.6094e-06	2.8943e-06	946.88	254.11	1.7363e-06	2.1804e-06	244.72	65.56	60.721	18.608	3.8195e-06	22.53	0.00024126	0.00023332	6.4729e-05	871.27	2.7285e-06	2.6012e-06	820.55	221.37	2.8104e-06	2.6493e-06	211.96	57.824	53.251	16.362	2.5468e-06	19.834	-59.609	-96.126	-54.620	-140.145	-38.195	-17.415	-140.874	-134.705	-30.087	-21.274	-136.943	-132.013	-129.580	-125.312	-15.775	-128.125	-8191	255	
1529.235	1	1	0	0	0.27837	0.18446	0.18249	0.12507	0.17096	0.099307	0.21921	0.14604	0.26792	0.060783	0.076602	0.16169	0.058531	0.054804	0.24934	0.21982	-3.3542	-3.3646	-4.0354	-3.4979	-3.7083	-4	-3.3	-4.2104	-3.7604	-3.2396	-4.1354	-3.5792	-3.5521	-4.1583	-3.0062	-3.9792	-83.905	-33.093	-134.931	-142.224	138.013	134.989	113.408	92.483	180.674	-119.427	-101.357	141.230	169.674	187.969	-147.128	78.023	0.00018587	0.00024027	0.00011461	1004.7	3.3137e-06	2.1766e-06	951.06	253.42	4.8182e-06	3.8301e-06	243.82	66.739	60.593	18.578	3.2614e-06	22.724	0.00023242	0.00024729	6.2709e-05	871.27	2.5804e-06	2.5755e-06	822.49	221.34	2.7511e-06	2.7776e-06	213.25	58.286	53.242	16.32	2.7551e-06	19.934	-57.674	-51.931	-71.601	-140.305	4.941	-25.950	-141.420	-134.403	5.584	17.414	-136.300	-131.895	-129.533	-124.814	9.959	-128.203	-8191	255	
1529.331	1	1	0	0	0.0022173	0.1208	0.19638	0.19368	0.087163	0.13484	0.23955	0.17024	0.13197	0.11879	0.16623	0.1471	0.18911	0.16653	0.075847	0.24564	-3.5229	-3.1771	-4.0813	-3.5708	-3.4	-4.1875	-3.3792	-3.875	-3.9688	-3.2396	-4.1667	-3.5604	-3.5896	-4.1667	-3.1562	-3.9167	82.263	23.194	180.163	176.597	57.466	-85.045	32.264	177.501	-24.294	157.258	-116.626	206.753	151.996	67.864	180.111	-52.199	0.00020338	0.00041096	0.00014949	1004.2	3.4703e-06	3.1362e-06	959.37	257.28	2.6188e-06	2.897e-06	247.22	67.504	61.218	18.72	3.6378e-06	22.933	0.00022542	0.00025398	6.2224e-05	873.64	2.8457e-06	2.3751e-06	831.93	223.34	2.5689e-06	2.6222e-06	215.23	58.766	53.484	16.488	2.6602e-06	20.168	-60.218	-46.230	-33.278	-140.265	-2.251	-34.440	-141.394	-134.726	17.824	-33.914	-136.296	-131.935	-129.842	-125.071	8.458	-128.010	-8191	255	
1529.427	1	1	0	0	0.20956	0.19788	0.30749	0.051832	0.057226	0.090607	0.18075	0.23913	0.033353	0.11232	0.34778	0.15557	0.16408	0.18469	0.13052	0.055687	-3.6021	-3.0687	-4.0312	-3.7667	-3.4583	-4.1271	-3.3833	-3.7604	-3.7792	-3.0792	-4.0083	-3.7104	-3.2021	-4.3	-3.4396	-3.7687	77.605	76.238	-25.453	27.571	35.444	143.381	125.400	142.231	-60.787	115.990	94.415	74.599	160.464	-123.787	177.270	-79.683	0.00022211	0.00039562	7.2962e-05	1020.5	3.3982e-06	2.4012e-06	959.3	255.23	3.6331e-06	3.615e-06	247.3	67.181	60.827	18.596	2.2323e-06	22.533	0.00023052	0.00024642	6.4352e-05	880.81	2.8143e-06	2.5194e-06	833.87	223.39	2.8411e-06	2.8588e-06	214.86	58.425	53.263	16.412	2.7803e-06	19.947	-59.267	-53.820	-55.781	-140.073	-9.740	16.073	-141.334	-134.419	-20.812	-0.930	-136.534	-132.205	-129.386	-125.064	4.252	-128.386	-8191	255	
1529.523	1	1	0	0	0.30186	0.16347	0.10783	0.22389	0.22208	0.18867	0.043704	0.17301	0.15052	0.041696	0.050477	0.0090921	0.13445	0.20801	0.20276	0.12229	-3.6042	-3.1604	-3.8667	-3.8854	-3.3458	-4.2771	-3.5292	-3.5563	-3.9938	-3.2167	-3.9396	-3.9292	-3.1958	-4.1146	-3.3083	-3.4479	189.394	185.644	197.889	199.886	160.756	175.422	-146.089	83.830	82.478	129.653	-129.434	-130.766	-130.454	177.037	1.884	141.866	0.00024602	0.00044702	0.00011013	998.81	3.1698e-06	3.6995e-06	945.26	252.89	3.2362e-06	2.9647e-06	240.96	66.046	59.602	18.558	2.2874e-06	22.44	0.00022491	0.00022503	6.6543e-05	867.04	2.5817e-06	2.5601e-06	819.81	220.15	2.535e-06	2.7502e-06	211.23	57.923	52.745	16.251	2.5673e-06	19.773	-56.742	-61.326	-100.571	-140.329	23.887	24.708	-141.379	-134.377	-40.093	-39.522	-136.457	-131.621	-129.924	-124.517	-29.303	-128.061	-8191	255	
1529.619	1	1	0	0	0.047042	0.18147	0.32855	0.37196	0.2512	0.14861	0.17259	0.10307	0.10647	0.18887	0.21396	0.16034	0.19455	0.027001	0.22976	0.18786	-3.8063	-3.1292	-3.6	-4.0958	-3.2313	-4.1021	-3.5771	-3.4729	-4.2208	-3.2854	-3.8854	-4.1292	-3.3937	-4.025	-3.7271	-3.5563	-117.833	-17.040	2.663	138.675	124.889	-7.194	196.451	113.625	12.387	39.250	154.517	43.146	-13.367	-5.620	-99.440	-101.501	0.0002136	0.00025208	9.9128e-05	997.15	2.8933e-06	2.3399e-06	946.91	251.94	2.3819e-06	2.5151e-06	245.59	66.887	60.983	18.517	2.07e-06	22.807	0.00022623	0.00023079	6.4864e-05	866.3	2.7092e-06	2.2909e-06	823.15	220.64	2.5379e-06	2.4845e-06	213.51	58.202	53.263	16.324	2.7102e-06	20.072	-60.049	-91.231	-73.916	-139.932	57.308	7.600	-140.858	-134.040	39.178	-3.883	-136.446	-131.340	-129.669	-124.551	18.515	-127.653	-8191	255	
1529.714	1	1	0	0	0.2046	0.20136	0.046172	0.16172	0.27373	0.16209	0.18279	0.11398	0.07164	0.13819	0.13924	0.2025	0.15564	0.054603	0.17059	0.23387	-3.8583	-3.3187	-3.7313	-4.0125	-3.2646	-4.0771	-3.7271	-3.5021	-4.2688	-3.3708	-3.8333	-4.1354	-3.25	-4.1562	-3.7562	-3.3708	50.842	22.823	145.853	179.022	131.369	0.100	107.413	141.200	-136.225	-120.580	-56.770	206.742	26.265	-142.358	31.365	-119.381	0.00020596	0.00022192	8.8279e-05	1000.4	2.6225e-06	2.2558e-06	954.72	255.32	4.0574e-06	2.25e-06	247.09	67.467	60.744	18.499	2.8241e-06	22.946	0.0002323	0.00023082	6.4541e-05	871.46	2.8633e-06	2.4673e-06	830.2	222.06	2.6109e-06	2.99e-06	215.45	59.021	53.497	16.414	2.8095e-06	20.262	-51.354	-51.858	-54.462	-139.826	0.078	24.265	-141.392	-134.580	-11.525	12.634	-136.202	-132.254	-129.568	-124.610	21.772	-128.083	-8191	255	
1529.834	1	1	0	0	0.18001	0.25179	0.29091	0.14821	0.16742	0.076792	0.11608	0.13061	0.22568	0.16215	0.24401	0.17094	0.1116	0.13609	0.1957	0.18876	-3.8229	-3.4896	-3.4667	-4.2708	-3.3563	-3.9667	-4.1354	-3.3625	-4.3187	-3.4625	-3.3417	-4.1188	-3.2104	-3.8312	-3.8917	-3.4562	-141.651	-10.875	107.085	164.550	-1.721	-33.410	154.351	-115.798	-92.898	-50.101	-106.602	-51.052	-109.929	-37.699	75.270	206.879	0.00021301	0.00039325	1.7594e-05	1009.2	4.0367e-06	1.9e-06	955.13	254.02	2.8194e-06	5.4147e-06	245.8	66.459	60.638	18.729	2.9997e-06	22.681	0.00023971	0.00024613	6.7844e-05	876.25	2.6334e-06	2.3316e-06	833.21	222.31	2.6781e-06	2.7069e-06	214.45	58.461	53.262	16.376	2.7065e-06	19.964	-65.424	-57.517	-114.411	-139.992	-9.615	7.796	-141.430	-134.697	-10.155	-12.685	-136.559	-131.927	-130.168	-124.333	25.145	-128.104	-8191	255	
1529.930	1	1	0	0	0.24367	0.17923	0.16273	0.20055	0.25396	0.079142	0.1077	0.25147	0.042047	0.20829	0.10816	0.023102	0.2802	0.024989	0.09931	0.063859	-3.8833	-3.5625	-3.3917	-4.2792	-3.275	-3.8833	-4.0625	-3.3917	-4.05	-3.7542	-3.3896	-4.1896	-3.45	-3.7729	-4.1875	-3.1354	-99.518	37.684	133.396	46.885	139.820	26.761	-118.998	17.775	151.041	-135.001	130.822	-40.739	-148.971	121.068	-90.468	-73.564	0.00021289	0.0003127	9.586e-05	997.8	3.1035e-06	2.7704e-06	944.79	250.77	6.8465e-07	3.2126e-06	244.5	66.713	60.494	18.65	1.3624e-06	22.609	0.00021129	0.00023358	6.6579e-05	866.26	2.6284e-06	2.2209e-06	818.4	219.33	2.5776e-06	2.5591e-06	212.66	58.244	52.943	16.319	2.4401e-06	19.783	-55.515	-67.873	-60.809	-140.098	19.159	-14.885	-141.264	-134.171	-11.328	-6.918	-136.862	-131.790	-129.360	-124.787	62.557	-128.192	-8191	255	
1530.002	1	1	0	0	0.070778	0.14243	0.12063	0.10892	0.25157	0.20824	0.075263	0.22829	0.054165	0.19363	0.083544	0.25459	0.11795	0.16786	0.09396	0.16074	-3.6437	-3.6292	-3.2333	-4.3187	-3.3479	-3.7313	-4.1292	-3.3312	-3.9771	-3.7729	-3.4583	-4.2937	-3.5729	-3.4708	-4.0333	-3.3479	-0.653	-132.100	141.952	-89.924	147.527	93.238	99.547	162.243	19.992	-9.677	-5.085	125.254	115.067	146.528	92.658	182.097	0.00021997	0.00018927	0.00010182	1004.1	3.1482e-06	3.8185e-06	950	253.76	1.6314e-06	2.0191e-06	244.77	67.086	60.551	18.453	4.8847e-06	22.827	0.00023185	0.00023383	6.709e-05	869.08	2.8825e-06	2.7393e-06	823.94	220.64	2.6151e-06	2.5869e-06	213.96	58.574	53.161	16.326	2.635e-06	20.09	-57.440	-74.274	-92.947	-139.815	-34.146	-1.783	-141.090	-134.484	-20.555	-28.989	-136.653	-131.483	-130.391	-124.276	-3.992	-127.727	-8191	255	
1530.123	1	1	0	0	0.075081	0.15241	0.13192	0.063892	0.2151	0.13819	0.15647	0.18933	0.26352	0.10228	0.075939	0.20961	0.10913	0.060852	0.033846	0.24114	-3.6729	-3.8042	-3.2771	-4.2042	-3.5375	-3.5687	-4.3438	-3.1875	-3.7583	-3.8563	-3.3729	-4.2646	-3.4167	-3.4354	-4.0083	-3.2771	117.594	118.656	94.984	206.023	176.391	149.084	168.078	104.139	149.493	-71.582	173.467	-109.022	-48.478	85.357	-86.287	12.033	0.0002282	0.00030258	6.4721e-05	1008.1	3.9183e-06	1.4088e-06	964.35	255.29	2.3801e-06	1.8852e-06	247.07	67.394	60.963	18.609	5.1736e-06	23.04	0.00022813	0.00023086	6.7001e-05	874.36	2.8282e-06	2.604e-06	834.17	222.43	2.5747e-06	2.5825e-06	216.26	59.303	53.417	16.437	2.3995e-06	20.385	-60.353	-83.811	-76.619	-139.897	-27.137	25.071	-140.885	-134.349	-10.995	35.193	-136.163	-131.539	-129.603	-124.631	-1.591	-128.113	-8191	255	
1530.219	1	1	0	0	0.20849	0.15947	0.086061	0.1228	0.23286	0.09518	0.080007	0.10401	0.061159	0.20682	0.04913	0.24028	0.065681	0.26119	0.020823	0.016096	-3.2938	-3.9146	-3.3542	-4.2292	-3.6542	-3.1937	-4.2396	-3.3688	-3.6229	-3.9792	-3.2062	-4.1375	-3.8083	-3.4167	-3.9542	-3.5021	-59.086	92.833	82.119	85.094	1.066	95.131	153.822	114.389	-143.725	-69.275	-12.884	131.666	203.298	-125.837	-16.282	62.398	0.00020833	0.000335	9.9972e-05	1010.5	2.0106e-06	5.0675e-06	957.64	253.47	3.5511e-06	4.9762e-06	249.05	67.636	61.129	18.739	6.4381e-06	23.08	0.00022568	0.00022752	6.613e-05	878.09	2.7251e-06	2.4733e-06	836.45	221.53	2.7105e-06	2.5202e-06	216.53	59.22	53.311	16.371	2.7085e-06	20.197	-56.560	-73.539	-73.686	-140.079	-24.624	3.593	-141.086	-134.540	-11.465	-11.398	-136.289	-131.958	-129.268	-124.425	21.344	-128.263	-8191	255	
1530.315	1	1	0	0	0.3381	0.038699	0.069533	0.072415	0.21427	0.067303	0.081079	0.062514	0.14416	0.067172	0.059559	0.13196	0.28514	0.1725	0.067977	0.13309	-3.3042	-3.9958	-3.1917	-4.2667	-3.7521	-3.25	-4.2792	-3.4854	-3.4354	-4.25	-3.35	-3.9958	-3.7729	-3.0896	-4.0167	-3.5458	-58.196	-28.723	-134.378	-135.527	68.028	92.759	130.822	-138.104	182.776	-141.862	-35.504	-41.566	-33.667	-63.376	85.418	-42.042	0.00021199	0.00039099	5.9658e-05	1005	2.4552e-06	2.8361e-06	949.75	253.92	4.3287e-06	1.3685e-06	245.97	67.274	61.14	18.53	4.0194e-06	22.758	0.0002276	0.0002182	6.6668e-05	871.61	2.5323e-06	2.7968e-06	825.65	220.78	2.7598e-06	2.4343e-06	213.87	58.757	53.375	16.327	2.4062e-06	20.04	-60.983	-62.846	-58.905	-139.783	-3.060	40.320	-140.823	-134.535	-18.108	-26.009	-136.172	-131.907	-130.419	-124.762	8.090	-127.914	-8191	255	
1530.411	1	1	0	0	0.13972	0.26155	0.22386	0.37436	0.15216	0.09802	0.15734	0.15299	0.1478	0.1002	0.29096	0.093442	0.12818	0.070222	0.095737	0.26205	-2.9875	-4.2958	-3.3417	-3.9729	-4.0396	-3.3021	-4.1396	-3.7	-3.3292	-4.1104	-3.4437	-3.7854	-4.0146	-3.2042	-4.0875	-3.7313	96.234	181.791	41.188	149.810	126.362	-25.087	132.119	182.703	-93.280	181.102	198.241	-110.437	29.524	-71.611	-29.671	62.301	0.00021909	0.00042173	9.4107e-05	1001.1	2.5338e-06	3.4845e-06	958.27	252.68	1.5996e-06	2.5611e-06	248.16	67.681	61.344	18.551	2.3646e-06	22.754	0.00023324	0.00022977	6.8096e-05	873.31	2.794e-06	2.6208e-06	831.14	220.49	2.6464e-06	2.4253e-06	216.12	59.103	53.461	16.368	2.5887e-06	20.112	-68.229	-65.191	-69.778	-139.512	-15.377	9.922	-141.149	-134.204	-38.741	-9.427	-136.554	-131.668	-129.494	-124.965	28.274	-128.333	-8191	255	
1530.532	1	1	0	0	0.083745	0.16225	0.10171	0.21387	0.036414	0.040978	0.3132	0.18581	0.15232	0.16817	0.16326	0.24831	0.24497	0.097451	0.073447	0.26833	-2.9688	-4.2125	-3.225	-3.6813	-3.9604	-3.1396	-4.1583	-3.8229	-3.3063	-4.1417	-3.5333	-3.6229	-4.2188	-3.3354	-3.8937	-3.8875	156.240	1.703	-72.030	204.661	191.558	34.328	118.797	140.314	-23.017	25.614	82.520	186.965	-92.042	124.016	-62.948	-42.884	0.00020166	0.00032003	8.8664e-05	1010.4	2.7214e-06	2.4601e-06	960.49	253.66	3.7042e-06	5.2182e-06	250.21	67.734	61.213	18.632	1.8328e-06	23.189	0.00024242	0.00023252	6.5429e-05	875.83	2.5515e-06	2.6015e-06	837.18	222.22	2.6387e-06	2.5321e-06	218.48	59.496	53.536	16.419	2.5018e-06	20.343	-56.729	-63.013	-53.223	-139.869	-8.438	-24.927	-141.067	-134.313	-15.211	7.483	-136.497	-131.577	-129.513	-124.408	-46.185	-128.285	-8191	255	
1530.626	1	1	0	0	0.078034	0.27801	0.18784	0.1276	0.21348	0.41241	0.16077	0.34854	0.13183	0.096427	0.12488	0.13432	0.14177	0.1762	0.17133	0.18846	-2.7729	-4.0437	-3.6792	-3.5396	-3.975	-3.3187	-4.0188	-3.8875	-3.0896	-4.025	-3.4375	-3.2771	-4.3042	-3.2042	-3.7521	-3.9188	-118.755	-50.802	-8.345	-84.017	-142.837	132.690	154.443	197.750	155.298	-141.209	-145.905	-89.594	123.069	-119.379	-21.724	38.863	0.00022934	0.00022154	8.2175e-05	1016.1	3.938e-06	3.1148e-06	960.12	252.76	1.9321e-06	4.4659e-06	246.99	67.225	61.053	18.569	4.3379e-06	22.804	0.0002235	0.00023054	6.1785e-05	878.61	2.8484e-06	2.634e-06	835.47	220.96	2.8895e-06	2.6943e-06	215.37	58.699	53.15	16.282	2.5488e-06	19.927	-61.102	-97.523	-44.177	-139.745	-40.935	-63.904	-141.213	-134.269	4.161	-21.342	-136.736	-131.694	-129.650	-124.613	-28.632	-128.245	-8191	255	
1530.722	1	1	0	0	0.13707	0.34495	0.06061	0.1007	0.047643	0.22158	0.22071	0.15227	0.25428	0.13967	0.28859	0.13118	0.11868	0.093714	0.20577	0.14948	-2.9562	-4.15	-3.5312	-3.4979	-4.1958	-3.2729	-3.7542	-4.0979	-3.1396	-3.9	-3.6979	-3.3021	-4.1958	-3.1208	-3.5625	-3.9437	-87.694	-55.223	98.141	198.931	-71.551	100.126	-130.311	-88.951	93.174	42.807	162.333	-32.617	-116.581	196.529	-130.355	98.090	0.00021052	0.0003003	1.6958e-05	991.96	2.284e-06	2.3497e-06	948.03	250.8	3.8389e-06	3.2201e-06	244.32	67.115	60.1	18.359	3.7105e-06	22.689	0.00023754	0.00021033	6.5196e-05	865.4	2.74e-06	2.629e-06	823.32	219.39	2.6042e-06	2.7556e-06	213.27	58.633	52.764	16.164	2.6384e-06	19.987	-62.397	-82.027	-123.636	-140.102	-21.160	36.765	-141.115	-134.604	-6.831	23.278	-136.396	-131.822	-129.977	-124.883	-15.693	-127.970	-8191	255	
1530.818	1	1	0	0	0.14712	0.12304	0.064862	0.11813	0.15375	0.13886	0.045289	0.15292	0.21016	0.095885	0.13177	0.18291	0.096303	0.15924	0.16661	0.093863	-2.8979	-3.9042	-3.7396	-3.3812	-4.0854	-3.4708	-3.55	-4.2083	-3.1458	-4.0917	-3.8292	-3.1375	-4.1958	-3.4979	-3.5771	-4.1417	-108.580	-82.822	-45.316	77.556	-54.254	160.447	136.438	178.396	-58.145	-30.548	156.627	19.821	70.226	36.108	171.908	40.314	0.00021322	0.00024107	4.8683e-05	1004	2.7547e-06	3.6977e-06	959.67	253.63	3.9936e-06	1.2039e-06	246.34	68.349	60.323	18.517	4.2039e-06	22.825	0.00022327	0.00022278	6.3661e-05	871.32	2.5294e-06	2.5515e-06	829.92	220.92	2.8241e-06	2.5277e-06	215.31	59.115	52.975	16.3	2.787e-06	20.125	-63.525	-67.138	-89.769	-140.027	-5.737	15.216	-141.056	-134.309	-8.624	-16.749	-136.037	-132.042	-129.420	-124.334	-21.101	-127.930	-8191	255	
1530.915	1	1	0	0	0.094405	0.18066	0.26247	0.21359	0.15674	0.040736	0.35292	0.19716	0.21988	0.070575	0.3127	0.061046	0.31359	0.07856	0.065647	0.23612	-2.8979	-3.7854	-3.9625	-3.2917	-4.1833	-3.5	-3.5687	-4.2125	-3.35	-3.8646	-4.025	-3.1792	-4.0479	-3.5604	-3.3333	-4.2188	87.896	-52.262	76.662	198.120	-75.571	-8.910	140.973	183.404	-132.471	144.329	148.370	-108.149	-117.713	166.985	36.735	-130.006	0.0002188	0.00028188	8.8475e-05	1004.5	3.0617e-06	4.5537e-06	966.52	254.65	2.6178e-06	4.4042e-06	249.7	68.15	60.868	18.663	4.6288e-06	23.203	0.00024816	0.00023278	6.6615e-05	872.81	2.6738e-06	2.659e-06	836.67	221.55	2.7742e-06	2.7527e-06	218.11	59.488	53.24	16.413	2.8041e-06	20.304	-62.671	-75.982	-70.969	-139.984	-40.030	-5.101	-141.293	-134.570	12.090	3.495	-136.771	-132.133	-130.316	-124.799	-2.765	-128.172	-8191	255	
1531.011	1	1	0	0	0.30472	0.25298	0.13867	0.16275	0.044499	0.15444	0.14731	0.11732	0.13341	0.30202	0.20582	0.11258	0.13682	0.15367	0.11735	0.16814	-2.7729	-3.5083	-3.9083	-3.1562	-3.8729	-3.7125	-3.5167	-4.1146	-3.5021	-3.5917	-4.2167	-3.1396	-3.8729	-3.75	-3.2354	-4.2021	-33.311	162.266	-69.861	-63.560	-105.655	99.764	163.565	25.928	89.779	-87.604	-81.661	78.028	193.258	88.793	138.868	139.747	0.00024909	0.00060112	0.00011249	1002.9	3.351e-06	2.1434e-06	957.36	252.64	3.1261e-06	3.3922e-06	245.7	67.321	60.21	18.387	3.7536e-06	22.575	0.0002394	0.00025267	6.305e-05	872.11	2.7258e-06	2.5301e-06	832.22	220.58	2.6794e-06	2.4949e-06	214.63	58.872	52.854	16.19	2.73e-06	19.884	-56.706	-75.413	-66.665	-140.022	-12.737	-8.862	-140.879	-134.458	-8.732	-14.466	-136.179	-131.337	-129.139	-125.268	18.531	-128.024	-8191	255	
1531.131	1	1	0	0	0.19443	0.11345	0.1246	0.28654	0.10304	0.16288	0.24263	0.20935	0.14039	0.13497	0.18511	0.080237	0.123	0.19344	0.20689	0.096918	-3.1813	-3.4938	-4.0292	-3.3292	-3.8708	-3.875	-3.4125	-4.3104	-3.3396	-3.5833	-4.1604	-3.4313	-3.825	-4	-3.2458	-4.1167	-88.607	199.950	89.128	125.161	86.347	-31.601	195.135	116.335	-66.983	186.053	135.051	96.367	-84.739	124.734	-95.832	63.257	0.00017282	0.00020966	0.00010539	990.05	3.4744e-06	1.8505e-06	949.79	251.68	2.3811e-06	2.6383e-06	246.1	67.453	60.233	18.261	2.6723e-06	22.733	0.00022752	0.00023374	5.9549e-05	862.92	2.532e-06	2.4319e-06	824.68	219.19	2.7207e-06	2.5126e-06	214.16	58.655	52.785	16.17	2.5881e-06	19.97	-69.329	-59.255	-34.361	-139.763	-35.083	-35.689	-141.090	-134.550	49.840	20.269	-136.705	-131.528	-129.257	-123.880	51.513	-127.622	-8191	255	
1531.227	1	1	0	0	0.20965	0.10424	0.10842	0.30885	0.19104	0.056522	0.3646	0.16041	0.1631	0.092229	0.16944	0.15462	0.15656	0.086323	0.087122	0.25015	-3.1354	-3.4813	-4.1813	-3.4562	-3.7104	-3.9479	-3.3458	-4.2771	-3.6437	-3.3521	-4.3	-3.4854	-3.7396	-4.1854	-3.0438	-4.1583	143.075	-19.040	132.786	-123.942	-67.989	196.348	159.602	143.564	152.018	-93.131	93.921	-138.424	84.289	-130.872	119.757	138.299	0.00021473	0.00020389	0.00011541	999.75	2.2406e-06	3.7539e-06	952.72	251.63	4.4231e-06	2.5187e-06	248.09	67.679	60.506	18.4	3.6894e-06	22.957	0.00022276	0.00023944	6.5277e-05	866.5	2.7139e-06	2.5173e-06	827.83	219.81	2.5901e-06	2.5735e-06	215.66	58.903	52.995	16.284	2.6978e-06	20.156	-67.474	-68.668	-59.001	-139.986	-23.947	-26.726	-140.970	-134.314	1.070	-16.926	-136.669	-131.635	-129.679	-124.836	27.172	-128.423	-8191	255	
1531.299	1	1	0	0	0.14563	0.22821	0.14305	0.15461	0.1202	0.22166	0.076236	0.39738	0.11333	0.13677	0.0052399	0.066952	0.14475	0.098316	0.17596	0.22736	-3.2687	-3.4042	-4.0833	-3.4792	-3.4771	-4.0208	-3.1354	-4.0542	-3.6625	-3.0667	-4.1354	-3.425	-3.5229	-4.2958	-3.2375	-3.9938	176.659	110.471	173.474	-149.492	185.060	78.344	-58.349	122.776	-65.186	-142.184	18.172	-76.497	-147.721	113.751	-115.715	-8.316	0.00019319	0.00037507	0.00011051	997.39	4.007e-06	3.3155e-06	956.59	253.56	5.0934e-07	4.1284e-06	250.86	67.371	60.504	18.461	4.3734e-06	22.932	0.00022031	0.00024546	6.4307e-05	867.24	2.592e-06	2.4291e-06	832.64	221.25	2.5344e-06	2.6767e-06	218.26	59.374	53.469	16.268	2.7293e-06	20.172	-54.788	-56.043	-67.687	-139.755	-16.687	6.150	-141.100	-134.237	-112.894	16.183	-136.174	-131.856	-129.417	-124.525	24.204	-127.593	-8191	255	
1531.395	1	1	0	0	0.095612	0.10443	0.093964	0.092515	0.058886	0.24556	0.31569	0.082873	0.15146	0.27053	0.2341	0.32153	0.18392	0.16526	0.28279	0.029892	-3.4521	-3.1854	-4.0667	-3.6896	-3.3917	-4.1979	-3.2	-3.8667	-3.8333	-3.1375	-4.3354	-3.6708	-3.3458	-4.2229	-3.2083	-3.8604	119.610	186.736	-9.348	103.178	150.993	109.656	117.646	142.429	26.390	89.307	-132.049	161.916	62.577	-56.213	-60.349	-16.102	0.00021042	0.00033322	8.1673e-05	999.11	3.2162e-06	4.1717e-06	953.26	252.25	4.2264e-06	2.9538e-06	243.49	66.898	60.073	18.282	1.9281e-06	22.68	0.00023585	0.00024722	6.4936e-05	869.25	2.6576e-06	2.4448e-06	830.53	220.08	2.7258e-06	2.3932e-06	213.83	58.223	52.491	16.097	2.6759e-06	19.906	-61.918	-69.850	-46.750	-139.665	-7.843	-10.143	-141.089	-134.417	-18.243	13.264	-136.041	-131.924	-129.312	-124.225	34.672	-127.796	-8191	255	
1531.491	1	1	0	0	0.1653	0.061951	0.13048	0.14862	0.17172	0.059791	0.23577	0.15708	0.2337	0.031425	0.14432	0.21523	0.22501	0.13861	0.15529	0.036613	-3.5208	-3.1167	-4.0104	-3.7896	-3.2896	-4.1167	-3.3937	-3.775	-4.0833	-3.1458	-4.1333	-3.7875	-3.2188	-4.3271	-3.3937	-3.5021	135.260	-85.914	-137.835	86.599	137.024	-60.786	195.314	80.168	108.770	-70.445	121.831	99.116	179.885	96.563	192.432	84.345	0.00021368	0.000438	2.7652e-05	994.82	2.7897e-06	1.9238e-06	946.56	250.48	2.9825e-06	3.0183e-06	247.8	66.563	60.593	18.246	2.8848e-06	22.415	0.00022382	0.00024239	5.8975e-05	862.66	2.6178e-06	2.4944e-06	822.02	218.5	2.6256e-06	2.5966e-06	214.78	58.15	52.725	16.061	2.6048e-06	19.881	-59.193	-78.130	-3.989	-140.008	-20.372	17.129	-141.176	-134.137	19.496	-29.309	-136.321	-132.133	-129.660	-124.331	9.454	-127.728	-8191	255	
1531.610	1	1	0	0	0.13016	0.14765	0.19112	0.22011	0.20861	0.13612	0.16061	0.25194	0.019944	0.19451	0.10108	0.15084	0.11167	0.016328	0.17105	0.35994	-3.7625	-3.2729	-3.8583	-3.8875	-3.1312	-4.1083	-3.65	-3.4354	-4.0708	-3.2646	-3.9917	-3.8771	-3.3063	-4.0833	-3.2958	-3.5208	19.086	154.686	96.954	146.886	123.252	103.210	100.788	107.569	91.293	169.475	-52.554	158.955	-42.295	-2.960	-34.979	-141.877	0.00021335	0.00038308	0.00012067	988.2	3.1731e-06	4.3142e-06	957.69	250	3.0648e-06	4.091e-06	248.04	66.979	60.636	18.334	2.7719e-06	22.843	0.00022613	0.00024271	6.8069e-05	862.3	2.7145e-06	2.448e-06	832.23	219.03	2.535e-06	2.6871e-06	216.24	58.686	52.851	16.14	2.5867e-06	20.169	-56.647	-37.126	-54.790	-140.018	-7.693	17.568	-140.915	-134.018	-25.713	-30.484	-136.318	-131.685	-128.993	-124.422	29.034	-128.143	-8191	255	
1531.706	1	1	0	0	0.10798	0.1527	0.22428	0.18449	0.15393	0.16176	0.23812	0.12079	0.21857	0.071624	0.21004	0.099742	0.21699	0.20531	0.033084	0.10903	-3.7896	-3.3021	-3.85	-4.1021	-3.1458	-4.1125	-3.7708	-3.5563	-4.1146	-3.3604	-3.8333	-3.9604	-3.2625	-4.1	-3.4938	-3.4167	-92.200	180.407	-16.414	177.068	84.112	-99.926	81.287	142.049	62.058	125.278	-133.076	133.956	63.420	40.565	165.092	-124.628	0.0002039	0.00014295	0.00012099	997.31	2.5716e-06	2.4968e-06	959.82	253.27	2.7665e-06	3.8338e-06	249.82	67.861	60.757	18.566	4.1739e-06	22.756	0.00023156	0.00022477	6.3409e-05	868.85	2.8056e-06	2.6708e-06	837.15	220.82	2.6468e-06	2.7499e-06	218.12	59.378	53.168	16.272	2.5156e-06	20.139	-59.537	-10.793	-97.064	-139.893	29.655	-14.547	-140.802	-134.201	-20.980	-12.782	-136.080	-131.594	-128.993	-123.987	3.327	-128.121	-8191	255	
1531.804	1	1	0	0	0.15136	0.14575	0.089228	0.083677	0.32331	0.22453	0.045936	0.099386	0.10095	0.24554	0.066679	0.061465	0.040791	0.41323	0.015913	0.18763	-3.95	-3.4375	-3.6958	-4.1479	-3.1229	-4.0021	-3.9646	-3.3521	-4.2083	-3.4188	-3.6167	-4.0792	-3.175	-4.0229	-3.875	-3.3542	164.224	179.220	198.237	-70.483	106.968	-4.013	169.208	83.001	-37.239	32.704	139.382	68.357	39.504	176.277	-39.479	-67.692	0.00021247	0.00015403	8.6344e-05	999.21	2.7245e-06	3.6009e-06	955.79	251.62	4.9569e-06	3.1393e-06	246.57	66.516	59.111	18.293	3.6635e-06	22.727	0.0002296	0.00024681	6.4792e-05	868.01	2.7099e-06	2.3544e-06	830.98	219.04	2.6983e-06	2.3839e-06	214.83	58.304	52.152	16.104	2.5941e-06	19.937	-64.539	-18.378	-34.218	-139.795	-13.244	22.557	-140.882	-134.198	-14.502	-25.985	-136.350	-131.886	-129.482	-123.972	-4.819	-127.340	-8191	255	
1531.899	1	1	0	0	0.04016	0.083779	0.06781	0.14847	0.16226	0.13928	0.31844	0.38645	0.16425	0.19828	0.23773	0.17628	0.20937	0.10868	0.077741	0.27377	-3.8792	-3.5396	-3.4813	-4.1687	-3.1958	-3.8354	-4.1	-3.3312	-4.1708	-3.5208	-3.5083	-4.3625	-3.2313	-3.9583	-3.8937	-3.2812	-73.598	-89.831	-120.843	125.255	-134.422	158.500	168.070	173.866	83.476	-23.454	-111.284	192.128	20.510	74.706	23.652	33.838	0.00023597	0.00029166	9.3995e-05	989.01	2.223e-06	3.4755e-06	953.5	250.88	2.8111e-06	3.9959e-06	244.9	66.635	59.899	18.178	4.209e-06	22.515	0.0002402	0.0002315	6.6938e-05	860.47	2.7934e-06	2.5944e-06	827.51	218.32	2.5036e-06	2.5739e-06	213.55	58.378	52.489	15.935	2.5132e-06	19.892	-55.750	-51.738	-63.221	-139.814	10.480	33.352	-141.093	-134.455	14.589	-1.400	-136.325	-131.964	-129.974	-124.102	34.205	-128.007	-8191	255	
1531.995	1	1	0	0	0.04865	0.18466	0.31499	0.064147	0.039911	0.27358	0.26664	0.2592	0.13509	0.25619	0.045074	0.057931	0.10744	0.15144	0.085509	0.07323	-3.7521	-3.5875	-3.2396	-4.2458	-3.3021	-3.6854	-4.1438	-3.1479	-4.0583	-3.6813	-3.3875	-4.1083	-3.4417	-3.4604	-4.1521	-3.425	153.251	189.452	135.121	174.811	151.866	-96.939	151.279	131.021	189.823	-37.444	201.548	157.799	-73.278	-146.961	120.942	136.086	0.0002432	0.0003185	6.9787e-05	992.45	2.3038e-06	1.2712e-06	959.12	251.32	2.3673e-06	3.2818e-06	248.73	67.512	60.276	18.216	2.8471e-06	22.797	0.00022956	0.0002297	6.7144e-05	863.03	2.7894e-06	2.6129e-06	832.04	219.19	2.7463e-06	2.699e-06	216.46	59.032	52.615	16.059	2.2965e-06	20.057	-60.664	-60.227	-96.509	-139.615	25.805	17.056	-141.188	-134.122	8.480	15.610	-135.800	-131.821	-130.056	-124.297	-6.849	-127.660	-8191	255	
1532.091	1	1	0	0	0.10136	0.061382	0.099021	0.16778	0.17167	0.033365	0.18907	0.30163	0.19644	0.02906	0.014935	0.17541	0.17054	0.17381	0.16494	0.20789	-3.6792	-3.6312	-3.2479	-4.3187	-3.4854	-3.6562	-4.3792	-3.3333	-3.8625	-3.7521	-3.3521	-4.2458	-3.3604	-3.4896	-4.1917	-3.3146	-82.822	23.786	121.204	-151.565	-113.085	144.309	167.321	191.394	27.178	116.865	55.633	163.793	-6.655	205.143	145.946	193.345	0.00022958	0.00043725	9.5336e-05	1004.7	5.5613e-06	2.6245e-06	967.61	252.65	2.5451e-06	5.4917e-06	253.45	68.075	60.294	18.233	2.3477e-06	23.02	0.0002392	0.00023905	6.6588e-05	867.35	2.5612e-06	2.5008e-06	838.18	220.38	2.5369e-06	2.5908e-06	219.13	59.493	52.815	16.13	2.573e-06	20.197	-56.219	-69.574	-14.815	-139.821	-18.186	24.919	-140.855	-134.397	-3.867	-41.722	-136.413	-131.571	-129.632	-124.380	1.473	-127.482	-8191	255	
1532.212	1	1	0	0	0.038551	0.15113	0.098882	0.14914	0.16125	0.14065	0.18106	0.39863	0.21271	0.09309	0.077047	0.13449	0.072349	0.089329	0.25005	0.10523	-3.4208	-3.8146	-3.1521	-4.1333	-3.5667	-3.4708	-4.4812	-3.4167	-3.8771	-3.9583	-3.0792	-4.1542	-3.6521	-3.4062	-4.175	-3.3333	84.753	173.171	-15.192	-139.014	75.171	-141.846	144.328	116.717	-139.212	-57.991	49.367	105.300	-12.093	-128.723	-12.818	-70.313	0.00023468	0.00039023	0.00010773	998.13	3.7333e-06	3.5848e-06	961.37	249.86	5.1098e-06	1.3859e-06	247.87	66.216	59.487	18.137	2.2489e-06	22.459	0.0002286	0.0002362	7.2836e-05	868.62	2.7394e-06	2.6647e-06	832.27	218.19	2.7739e-06	2.6063e-06	214.2	58.144	52.063	15.897	2.2848e-06	19.784	-62.176	-65.662	-36.895	-139.878	-19.839	-18.295	-140.975	-134.074	-27.153	22.502	-136.008	-131.311	-130.165	-124.127	-7.969	-127.970	-8191	255	
1532.308	1	1	0	0	0.1382	0.15398	0.22137	0.20425	0.080275	0.041052	0.28649	0.086203	0.075108	0.026121	0.18072	0.17059	0.24414	0.21213	0.052886	0.1737	-3.425	-4.1396	-3.2958	-4.1312	-3.8292	-3.4333	-4.3604	-3.5563	-3.575	-4.2292	-3.3563	-4.0458	-3.9417	-3.2708	-4.1042	-3.4458	-83.806	125.935	-115.345	-123.780	6.096	80.098	-134.121	155.530	-121.251	-122.262	38.537	86.058	160.711	141.728	197.011	128.642	0.00023352	0.00025304	0.00011743	991.72	2.4737e-06	2.4475e-06	943.06	249.06	4.5401e-06	2.1202e-06	245.45	67.034	58.995	18.046	2.187e-06	22.453	0.00023642	0.00023239	6.9326e-05	859.67	2.7288e-06	2.5151e-06	822.69	216.84	2.6804e-06	2.4477e-06	213.24	58.374	51.869	15.932	2.3744e-06	19.816	-59.486	-17.360	-76.250	-139.729	13.183	-16.551	-140.874	-134.583	4.371	-10.281	-136.011	-131.214	-130.008	-124.201	5.851	-128.438	-8191	255	
1532.404	1	1	0	0	0.17339	0.3709	0.074701	0.14201	0.12708	0.13777	0.077626	0.15229	0.11918	0.039759	0.16174	0.1494	0.063598	0.11462	0.10952	0.2262	-2.9458	-4.1083	-3.5042	-4.1583	-3.9771	-3.3563	-4.1729	-3.5229	-3.5083	-4.2542	-3.2792	-3.9646	-3.925	-3.3042	-4.2896	-3.6375	-138.442	116.445	-98.272	196.633	-94.024	51.922	-68.387	153.746	147.171	14.990	75.258	4.725	-28.831	142.775	-87.960	96.765	0.00017994	0.00029658	6.3197e-05	992.93	3.0037e-06	4.5385e-06	954.08	251.8	2.5821e-06	4.0927e-07	248.62	66.841	59.359	18.18	4.5853e-06	22.89	0.0002285	0.00023665	6.5851e-05	862.05	2.6357e-06	2.7579e-06	830.47	218.51	2.6608e-06	2.7845e-06	216.05	58.396	52.413	16.037	2.6196e-06	20.095	-61.402	-61.364	-61.856	-139.444	16.094	-3.678	-140.656	-133.862	43.824	-63.395	-136.189	-131.754	-129.722	-124.303	1.400	-127.536	-8191	255	
1532.525	1	1	0	0	0.010929	0.17145	0.25396	0.14379	0.28411	0.34838	0.16625	0.24314	0.095945	0.16629	0.19575	0.11544	0.27871	0.19014	0.20537	0.2363	-2.95	-4.2042	-3.25	-4.0104	-4.0458	-3.2562	-4.2854	-3.8521	-3.2479	-4.2063	-3.4125	-3.6125	-4.0208	-3.2625	-3.9562	-3.7208	-124.151	105.318	-18.693	172.645	-26.981	-75.470	71.385	155.331	71.355	-26.051	125.818	-119.814	134.407	165.732	47.225	203.600	0.00022037	0.00024455	0.00010946	1001.5	2.222e-06	3.0752e-06	970.49	251.89	3.9843e-06	2.9848e-06	250.24	67.874	60.205	18.032	2.7286e-06	22.858	0.00023744	0.00022118	6.3616e-05	868.54	2.5085e-06	2.6287e-06	840.04	219.39	2.7934e-06	2.359e-06	218.21	59.114	52.413	15.928	2.4891e-06	20.029	-60.222	-52.642	-60.224	-139.448	17.504	14.821	-140.732	-134.284	-7.554	-25.531	-136.170	-131.193	-129.747	-124.123	43.827	-128.060	-8191	255	
1532.596	1	1	0	0	0.040056	0.019633	0.13369	0.30424	0.27345	0.19002	0.19913	0.16675	0.092844	0.067881	0.31665	0.1883	0.16519	0.26387	0.15167	0.1045	-3.0958	-4.2021	-3.5312	-3.5938	-4.0188	-3.3292	-4.1583	-3.8646	-3.2062	-4.2021	-3.5958	-3.5146	-4.2375	-3.275	-3.8875	-4.0229	-43.836	81.758	-78.443	168.741	125.306	55.291	103.464	132.789	158.185	115.697	154.373	138.036	-66.147	135.515	112.446	146.356	0.00022289	0.00017524	7.8863e-05	994.57	4.7286e-06	3.3553e-06	954.94	248.51	4.4031e-06	2.2144e-06	245.27	66.651	58.729	18.008	1.3808e-06	22.553	0.00023432	0.00021097	6.727e-05	863.32	2.4681e-06	2.6579e-06	830.17	217.12	2.6054e-06	2.4563e-06	213.23	58.089	51.829	15.886	2.4935e-06	19.837	-59.349	-64.407	-32.313	-139.729	23.981	-5.171	-140.529	-134.184	1.135	42.701	-136.574	-131.607	-129.071	-124.193	26.471	-127.803	-8191	255	
1532.692	1	1	0	0	0.23012	0.25321	0.29135	0.11355	0.18605	0.40456	0.21979	0.13468	0.088197	0.093702	0.083657	0.042665	0.1446	0.13659	0.15906	0.15534	-2.8292	-4.1083	-3.4083	-3.4313	-4.2	-3.3688	-4.0125	-3.9375	-3.1813	-4.2021	-3.6229	-3.4813	-4.2063	-3.325	-3.7687	-4.0771	18.361	-105.163	69.610	-148.851	-124.088	9.714	77.343	128.265	6.508	21.368	82.736	179.445	193.886	184.208	5.415	88.784	0.00018889	0.00037225	0.00013454	987.73	2.4661e-06	2.846e-06	949.77	247.27	1.6138e-06	2.434e-06	244.98	66.383	59.486	17.986	4.3929e-06	22.566	0.00023136	0.0002192	6.0599e-05	860.83	2.4628e-06	2.684e-06	826.2	216.07	2.5907e-06	2.5721e-06	213.51	58.163	51.972	15.858	2.5374e-06	19.778	-60.231	-58.093	-76.650	-139.574	17.103	-0.458	-141.112	-134.278	22.000	18.088	-136.273	-131.413	-129.306	-123.996	10.704	-127.825	-8191	255	
1532.787	1	1	0	0	0.10559	0.062469	0.21328	0.28245	0.25033	0.0564	0.094654	0.28696	0.13478	0.31405	0.203	0.16473	0.060279	0.092552	0.12326	0.085868	-2.8542	-4.0333	-3.7104	-3.4792	-4.0792	-3.4417	-3.8104	-4.1125	-3.0167	-3.8646	-3.7292	-3.5042	-4.2333	-3.5354	-3.4542	-3.9292	-118.133	11.382	32.528	-108.762	202.571	53.858	-53.603	-135.956	-27.577	-2.849	-8.063	194.059	135.789	196.077	-100.862	104.646	0.00019499	0.00028421	0.00010368	996.01	4.7743e-06	3.3775e-06	960.96	248.07	4.1497e-06	2.8076e-06	247.97	67.32	60.035	17.989	4.8496e-06	22.789	0.00022629	0.00021558	6.2557e-05	863.25	2.7053e-06	2.549e-06	832.49	217.37	2.6371e-06	2.3208e-06	215.87	58.535	52.361	15.881	2.6115e-06	19.994	-64.392	-85.434	-64.221	-139.838	-50.288	-23.198	-140.890	-134.094	-35.288	2.194	-136.750	-131.321	-129.245	-124.402	8.794	-127.750	-8191	255	
1532.907	1	1	0	0	0.21408	0.15829	0.23101	0.16048	0.16291	0.2037	0.24086	0.11112	0.16494	0.10054	0.30173	0.16538	0.21918	0.11306	0.081141	0.13875	-2.9729	-3.9271	-3.925	-3.3354	-4.1917	-3.4083	-3.7229	-4.2979	-3.4062	-3.8292	-3.9313	-3.3958	-4.3562	-3.6354	-3.5271	-4.3187	-57.701	112.455	61.425	-96.729	-69.282	-27.422	158.703	-96.518	75.041	149.010	-129.321	38.645	-130.423	90.479	-35.151	130.231	0.00020009	0.00030794	7.5566e-05	993.96	3.7547e-06	2.0977e-06	964.83	251.34	4.8164e-06	4.1862e-06	249.9	67.696	59.53	17.934	2.3762e-06	22.954	0.0002436	0.00022839	6.0124e-05	864.69	2.701e-06	2.4733e-06	839.85	218.5	2.6817e-06	2.4949e-06	217.37	59.178	52.122	15.848	2.6065e-06	20.048	-57.244	-86.723	-46.830	-139.712	22.222	12.484	-140.695	-134.391	-11.860	2.027	-136.631	-131.247	-128.863	-124.503	33.110	-127.734	-8191	255	
1533.004	1	1	0	0	0.22126	0.15327	0.085353	0.2055	0.036927	0.27135	0.26559	0.23454	0.042393	0.062209	0.23203	0.28401	0.13448	0.13173	0.14472	0.14693	-2.8312	-3.6708	-3.8937	-3.3104	-4.1604	-3.6896	-3.6208	-4.2917	-3.1896	-3.8021	-4.0896	-3.2062	-4.2104	-3.7708	-3.1688	-4.2292	107.160	84.438	185.269	-53.253	1.228	158.991	163.645	158.656	-149.292	-120.213	43.889	202.269	30.752	-44.389	104.651	-124.153	0.00017451	0.00041576	6.2881e-05	986.92	3.8979e-06	2.6502e-06	953.25	250.19	3.2122e-06	3.7645e-06	244.44	65.694	58.464	17.793	2.0923e-06	22.369	0.00023028	0.0002134	6.3787e-05	860.34	2.642e-06	2.3466e-06	827.41	216.71	2.5904e-06	2.4524e-06	212.73	57.726	51.414	15.713	2.5753e-06	19.701	-56.006	-65.494	-55.886	-139.599	8.056	-1.005	-140.877	-134.077	-23.772	35.579	-136.141	-131.387	-129.277	-124.467	15.139	-127.802	-8191	255	
1533.100	1	1	0	0	0.32824	0.023108	0.23301	0.11519	0.071941	0.073055	0.2801	0.12094	0.14018	0.09604	0.058042	0.14076	0.16678	0.14417	0.093535	0.11682	-3.0042	-3.5021	-4.1958	-3.4	-3.8854	-3.9146	-3.2708	-4.2708	-3.3125	-3.5687	-4.2521	-3.1667	-3.9104	-4.0396	-3.1958	-4.2333	-12.385	192.885	74.023	184.042	176.414	-27.059	142.697	155.386	84.110	125.551	-88.458	-144.946	-82.521	-117.289	-80.995	28.861	0.00023078	0.00044094	7.8611e-05	992.86	2.0461e-06	2.9357e-06	952.56	246.01	2.3647e-06	2.5605e-06	242.88	65.008	58.303	17.596	4.3832e-06	22.078	0.00023838	0.00023707	6.0169e-05	859.03	2.5068e-06	2.5383e-06	824.71	215	2.6602e-06	2.3759e-06	211.31	57.186	51.18	15.525	2.5907e-06	19.385	-61.386	-94.087	-97.974	-139.579	-37.925	-23.787	-140.513	-134.155	23.393	-51.683	-136.101	-131.334	-129.078	-123.851	-19.986	-127.866	-8191	255	
1533.171	1	1	0	0	0.21945	0.17487	0.072437	0.20809	0.092597	0.30434	0.26306	0.084895	0.17195	0.15121	0.15789	0.095899	0.19147	0.30677	0.11767	0.23461	-3.0187	-3.4625	-4.1146	-3.3708	-3.9542	-3.95	-3.1896	-4.2604	-3.4729	-3.375	-4.2708	-3.3354	-3.7	-4.0125	-3.0604	-4.1271	165.055	40.462	120.512	187.067	-0.576	198.315	128.308	-112.916	-31.191	109.820	-150.523	106.592	-136.263	173.335	48.104	23.278	0.00020541	0.00031887	0.00011698	996.08	2.1545e-06	3.671e-06	953.58	247.87	1.8715e-06	4.8346e-06	241.81	65.803	58.807	17.548	3.7276e-06	22.117	0.00023619	0.0002388	6.4397e-05	861.94	2.7139e-06	2.5472e-06	829.16	215.02	2.6945e-06	2.4722e-06	211.37	57.417	51.067	15.505	2.7008e-06	19.469	-56.430	-77.385	-31.231	-139.471	39.784	10.465	-140.556	-134.310	7.056	-35.788	-136.093	-131.439	-129.260	-124.277	6.880	-127.843	-8191	255	
1533.292	1	1	0	0	0.21306	0.12368	0.27546	0.16894	0.21422	0.24462	0.23213	0.23652	0.081543	0.098012	0.19021	0.19671	0.16429	0.17402	0.077828	0.15753	-3.3854	-3.3063	-4.3438	-3.2854	-3.5792	-4.1396	-3.3167	-4.0792	-3.7062	-3.3521	-4.2458	-3.3042	-3.6875	-4.1146	-3.2812	-4.0042	79.673	-144.419	-20.498	191.236	8.311	-78.177	133.344	132.565	-13.627	18.343	108.104	-102.969	156.055	62.424	90.764	-110.042	0.00020855	0.00017164	0.00010687	995.09	1.7156e-06	9.6192e-07	958.2	247.08	2.8456e-06	4.0057e-06	244.61	65.421	57.913	17.6	1.9239e-06	22.161	0.00023538	0.0002411	6.9101e-05	864.33	2.6347e-06	2.438e-06	834.59	215.52	2.6362e-06	2.4895e-06	212.93	57.149	51.119	15.483	2.6021e-06	19.388	-56.400	-36.562	-37.006	-139.545	-42.258	-66.538	-140.570	-134.300	-8.781	-7.462	-136.108	-132.143	-129.635	-123.639	-8.810	-128.019	-8191	255	
1533.388	1	1	0	0	0.10004	0.11659	0.054257	0.21303	0.19692	0.06601	0.056975	0.054729	0.049399	0.17567	0.22026	0.15024	0.088702	0.3345	0.12114	0.094518	-3.4562	-3.2125	-4.1771	-3.4125	-3.45	-4.3021	-3.2583	-3.9479	-3.9167	-3.2146	-4.3208	-3.4146	-3.3688	-4.0896	-3.3021	-3.9458	138.143	-54.029	201.664	167.600	36.331	-89.542	45.962	95.947	-35.075	-106.722	-42.627	-1.696	-49.708	-123.998	17.879	-37.403	0.00024328	0.00060174	0.0001034	987.66	3.6934e-06	4.7791e-06	947.96	245.88	2.2953e-06	2.4175e-06	239.16	64.188	57.433	17.439	1.9047e-06	21.64	0.0002303	0.00024677	6.2485e-05	857.08	2.5459e-06	2.3901e-06	821.94	213.19	2.6554e-06	2.5418e-06	208.18	56.399	50.438	15.356	2.678e-06	18.962	-46.288	-74.836	-58.569	-139.704	-17.582	-16.639	-140.580	-134.396	-34.843	40.848	-136.503	-131.595	-129.475	-124.469	11.626	-127.138	-8191	255	
1533.484	1	1	0	0	0.11379	0.23951	0.1282	0.18072	0.16026	0.16388	0.18189	0.15119	0.056979	0.10173	0.23937	0.20076	0.25002	0.14248	0.17803	0.12078	-3.5104	-3.0958	-4.1813	-3.6896	-3.4313	-4.3063	-3.425	-3.8417	-3.9729	-3.2125	-4.1438	-3.6354	-3.3417	-4.1708	-3.3833	-3.7792	65.491	-36.035	145.748	-148.977	-50.066	-15.207	79.508	156.955	102.006	73.058	-91.042	200.943	159.159	39.022	110.643	87.923	0.00021408	0.00028451	0.00014108	979.89	5.1113e-06	3.0511e-06	943.14	242.84	3.5462e-06	1.8942e-06	238.66	64.879	57.849	17.328	5.5802e-06	21.893	0.00021166	0.00021885	5.9334e-05	851.86	2.5784e-06	2.4262e-06	817.13	212.23	2.6186e-06	2.5797e-06	207.91	56.457	50.584	15.216	2.4364e-06	19.034	-68.015	-51.173	-65.921	-139.866	-43.292	-7.418	-141.033	-134.058	9.838	-42.654	-136.117	-131.233	-128.882	-124.311	24.721	-127.132	-8191	255	
1533.605	1	1	0	0	0.078893	0.3083	0.14416	0.22076	0.086338	0.10168	0.15928	0.17223	0.22942	0.28401	0.11309	0.30843	0.053882	0.13132	0.10578	0.077668	-3.7313	-3.2792	-3.95	-3.8292	-3.3604	-4.3167	-3.6125	-3.8604	-4.1687	-3.1375	-4.0813	-3.8375	-3.4688	-4.2667	-3.6771	-3.6229	118.046	-17.274	173.310	142.970	17.719	5.921	140.965	64.108	-96.818	14.508	117.738	85.645	-18.095	149.969	22.977	-81.603	0.0001823	0.00031431	0.0001013	985.01	4.6233e-06	1.6974e-06	945.32	244.6	3.5928e-06	3.0992e-06	241.77	64.198	57.555	17.306	4.2245e-06	21.759	0.0002185	0.00024171	6.218e-05	854.7	2.6907e-06	2.3223e-06	819.79	213.17	2.5302e-06	2.9413e-06	210.14	56.324	50.532	15.241	2.2892e-06	19.077	-52.752	-58.482	-44.701	-139.706	-8.012	-14.734	-141.008	-133.970	6.999	1.753	-135.642	-131.772	-129.378	-124.409	37.484	-127.806	-8191	255	
1533.699	1	1	0	0	0.047653	0.15139	0.047958	0.22201	0.069188	0.23595	0.22762	0.17211	0.089011	0.23517	0.18679	0.15041	0.18236	0.10334	0.19883	0.17082	-3.7562	-3.1729	-4.0667	-3.975	-3.2042	-4.05	-3.6625	-3.525	-4.15	-3.0438	-3.7958	-3.9208	-3.3312	-3.9667	-3.6813	-3.3187	83.527	45.822	-81.737	181.830	-24.043	124.166	160.686	57.011	42.193	82.749	-121.624	52.405	122.696	-35.737	20.401	64.135	0.0002104	0.00017997	4.0146e-05	984.13	1.7519e-06	5.2579e-06	944.85	243.8	4.3047e-06	4.6952e-06	243.36	63.821	57.458	17.387	2.3554e-06	21.721	0.00022019	0.00024146	6.6956e-05	852.97	2.7483e-06	2.5415e-06	823.71	213.12	2.4934e-06	2.4848e-06	210.73	56.528	50.214	15.263	2.6468e-06	19.036	-61.688	-56.897	-94.268	-139.637	-12.829	-28.216	-140.892	-134.239	-28.078	-20.535	-135.835	-131.049	-129.119	-124.545	-35.090	-127.913	-8191	255	
1533.796	1	1	0	0	0.055	0.21781	0.12674	0.13964	0.17948	0.082072	0.3025	0.11152	0.21279	0.1118	0.21142	0.11746	0.035878	0.18649	0.13388	0.085796	-3.8958	-3.2313	-3.7438	-4.2333	-3.1604	-4.1125	-3.7792	-3.3667	-3.9521	-3.4979	-3.675	-4.1417	-3.1708	-3.8375	-3.8187	-3.2625	64.044	113.175	42.881	-8.351	-151.224	-150.197	105.391	108.199	150.025	-117.913	197.487	133.409	-120.670	165.054	34.373	-9.693	0.00020731	0.00026192	5.6137e-05	979.25	4.0662e-06	2.3107e-06	934.4	240.37	1.4468e-06	3.6774e-06	237.8	63.591	57.556	16.989	2.3041e-06	21.346	0.00022135	0.0002282	6.5878e-05	849.73	2.5469e-06	2.5148e-06	812.6	210.81	2.3467e-06	2.6089e-06	206.64	55.618	50.116	15.064	2.3861e-06	18.849	-59.440	-57.174	-84.062	-139.775	-9.872	-52.150	-141.149	-134.066	-29.420	-12.601	-135.919	-131.188	-129.036	-124.179	10.933	-127.727	-8191	255	
1533.892	1	1	0	0	0.080295	0.18754	0.13757	0.13323	0.068685	0.14423	0.1612	0.092399	0.13904	0.076856	0.11594	0.28201	0.20598	0.27759	0.10327	0.18689	-3.9417	-3.2271	-3.6167	-4.125	-3.2542	-4.0729	-3.9167	-3.4021	-4.1667	-3.5312	-3.625	-4.1042	-3.0708	-3.7854	-3.75	-3.2188	139.861	83.484	161.253	-118.108	-142.146	-81.107	141.108	-144.770	-56.797	177.185	203.177	87.453	157.478	200.502	171.316	-8.758	0.00020313	0.00019779	4.8366e-05	985.18	3.2923e-06	3.1716e-06	936.34	239.57	3.4212e-06	2.3736e-06	239.53	64.036	56.968	17.133	2.8726e-06	21.735	0.00021135	0.00020888	6.2521e-05	848.88	2.4495e-06	2.4112e-06	811.74	210.39	2.5472e-06	2.6096e-06	208.28	56.115	49.998	15.13	2.4079e-06	18.987	-64.522	-49.672	-30.128	-139.927	-17.580	-3.978	-141.003	-133.843	0.252	28.921	-136.092	-132.150	-129.648	-124.099	39.766	-127.887	-8191	255	
1533.988	1	1	0	0	0.2509	0.12304	0.13987	0.24058	0.0541	0.075437	0.29444	0.12665	0.07321	0.098063	0.21848	0.21189	0.22594	0.14492	0.19811	0.18003	-3.8708	-3.4625	-3.2479	-4.1312	-3.05	-3.7042	-4.0542	-3.2333	-4.0167	-3.5	-3.6125	-4.2458	-3.3604	-3.775	-4.0167	-3.225	101.712	95.385	203.295	169.766	181.612	-84.557	51.146	163.971	-112.329	-93.727	185.794	127.422	49.135	-97.902	-37.733	103.178	0.00021665	0.00026005	6.4454e-05	984.19	3.0454e-06	2.4228e-06	942.98	243.94	2.5533e-06	3.2808e-06	242.44	65.446	57.231	17.392	5.5073e-06	21.905	0.00022519	0.0002224	6.9119e-05	851.41	2.8143e-06	2.4819e-06	821.66	212.81	2.5363e-06	2.3309e-06	210.65	57.037	50.414	15.28	2.4257e-06	19.306	-65.028	-48.685	-21.906	-139.770	7.473	-19.052	-140.647	-134.122	-29.521	18.416	-135.756	-131.395	-129.613	-124.323	14.091	-127.923	-8191	255	
1534.084	1	1	0	0	0.14268	0.17069	0.16705	0.22007	0.11744	0.088459	0.057702	0.31531	0.20703	0.27771	0.32591	0.13152	0.21266	0.1775	0.090265	0.31918	-3.7125	-3.7083	-3.1479	-4.1646	-3.2458	-3.6125	-4.2792	-3.1958	-3.9813	-3.8417	-3.2687	-4.0771	-3.4104	-3.5479	-4.1146	-3.2479	198.920	-120.966	-20.382	140.735	28.589	101.622	79.206	188.282	15.788	72.586	125.551	-144.865	123.295	125.921	41.549	155.394	0.00020938	0.00033023	0.00010121	990	1.9193e-06	3.9657e-06	949.27	244.67	3.0229e-06	3.1162e-06	241.93	64.576	58.081	17.326	4.8729e-06	21.616	0.00020327	0.0002175	6.6166e-05	853.41	2.8533e-06	2.513e-06	826.12	213.32	2.7118e-06	2.2764e-06	211.07	56.73	50.433	15.238	2.3807e-06	19.111	-60.821	-56.648	-58.659	-139.622	-6.877	-32.977	-140.892	-134.113	6.261	33.327	-136.083	-131.505	-129.174	-123.743	-36.224	-127.625	-8191	255	
1534.205	1	1	0	0	0.23668	0.15057	0.28575	0.2462	0.16691	0.32681	0.17673	0.39644	0.19304	0.21343	0.041126	0.19714	0.095235	0.14794	0.10565	0.24571	-3.6271	-3.8187	-3.2583	-4.3479	-3.2083	-3.5729	-4.3083	-3.3396	-3.8958	-3.8417	-3.1188	-4.2312	-3.4917	-3.5458	-4.1438	-3.1833	-61.085	129.865	124.566	161.609	157.892	0.499	164.351	134.480	-5.505	121.169	100.597	143.254	-38.511	77.459	199.621	200.204	0.00020623	0.00027317	9.104e-05	973.39	1.4444e-06	7.8995e-07	933.77	240.24	3.46e-06	4.9216e-06	239.26	63.988	57.399	17.266	2.6126e-06	21.713	0.00022176	0.00022884	6.5052e-05	847.04	2.5764e-06	2.3741e-06	813.77	210.25	2.5203e-06	2.4556e-06	208.54	56.144	50.09	15.219	2.3589e-06	19.069	-52.194	-67.636	-82.992	-139.400	-10.842	58.493	-141.046	-134.209	-3.874	-27.122	-135.621	-130.958	-129.282	-123.944	15.232	-127.560	-8191	255	
1534.301	1	1	0	0	0.25536	0.1185	0.063636	0.17519	0.16304	0.16438	0.18933	0.24967	0.145	0.097259	0.13825	0.17466	0.080173	0.20626	0.058369	0.16347	-3.2604	-3.9875	-3.2021	-4.175	-3.5521	-3.4146	-4.1292	-3.4625	-3.6854	-3.9333	-3.2833	-3.8458	-3.6458	-3.2562	-4.1458	-3.4729	118.223	54.596	171.163	147.296	72.997	63.067	96.232	-121.227	78.488	170.775	144.500	118.320	165.411	205.220	-47.316	140.275	0.00019678	0.00034908	0.00013611	974.35	1.3993e-06	1.524e-06	940.98	242.42	3.651e-06	3.494e-06	241.58	64.043	57.902	17.32	4.0688e-06	21.76	0.00020654	0.00022157	6.5187e-05	845.45	2.6019e-06	2.5547e-06	817.49	211.21	2.5401e-06	2.3352e-06	209.77	56.502	50.465	15.321	2.4633e-06	19.271	-61.032	-67.125	-68.432	-139.380	8.865	-11.788	-140.607	-134.250	-11.805	19.045	-136.066	-131.428	-129.226	-124.095	77.600	-127.832	-8191	255	
1534.397	1	1	0	0	0.23743	0.15845	0.17104	0.371	0.073834	0.055066	0.10004	0.30486	0.16088	0.11189	0.14083	0.06572	0.053777	0.13096	0.23095	0.25642	-3.275	-4.0542	-3.0625	-4.1042	-3.575	-3.3229	-4.2875	-3.3542	-3.4104	-4.0167	-3.1208	-3.9313	-3.775	-3.1896	-4.0292	-3.4604	103.998	-28.948	79.438	171.444	80.785	-109.489	27.122	152.648	113.361	140.798	-39.977	120.535	-144.829	-106.220	13.359	105.287	0.00020502	0.00029185	6.2026e-05	979.78	2.4819e-06	4.2511e-06	949	243.24	2.4655e-06	5.655e-06	243.44	65.6	57.59	17.357	2.7707e-06	22.273	0.00022374	0.00022202	6.6444e-05	851.73	2.5665e-06	2.6315e-06	824.65	212.87	2.6416e-06	2.4188e-06	212.45	57.517	50.518	15.372	2.3257e-06	19.539	-56.525	-64.988	-41.205	-139.358	-30.788	5.017	-140.619	-133.949	-6.534	-16.907	-136.237	-131.127	-129.962	-124.128	-37.586	-127.616	-8191	255	
1534.469	1	1	0	0	0.025017	0.12099	0.016732	0.12491	0.15638	0.23467	0.12894	0.045262	0.081941	0.087823	0.25358	0.18247	0.18463	0.27009	0.24954	0.050008	-3.1521	-4.175	-3.2104	-3.9333	-3.9042	-3.2687	-4.0896	-3.7583	-3.4375	-4.3063	-3.3625	-3.8021	-3.8479	-3.1792	-3.9708	-3.7458	-142.072	-138.810	114.872	203.406	-83.711	43.866	78.470	125.902	137.832	-110.732	-148.623	-140.250	146.549	-139.799	-12.426	75.790	0.00020011	0.00039058	9.0788e-05	987.33	9.4269e-08	2.1372e-06	957.17	244.87	3.1775e-06	2.4925e-06	242.3	65.253	58.29	17.382	4.2486e-06	22.005	0.00022303	0.00022202	6.5726e-05	854.14	2.4396e-06	2.4637e-06	830.45	213.92	2.6346e-06	2.4087e-06	212.36	57.178	50.605	15.374	2.5143e-06	19.327	-63.898	-88.427	-78.246	-139.686	74.525	4.406	-140.541	-134.342	-17.573	-13.172	-135.691	-131.399	-129.739	-124.164	8.663	-127.447	-8191	255	
1534.587	1	1	0	0	0.13365	0.081041	0.19191	0.14051	0.13048	0.052912	0.23847	0.19543	0.41419	0.0754	0.19844	0.11624	0.013853	0.014184	0.1827	0.20577	-3.0354	-3.9896	-3.2271	-3.7708	-4.1208	-3.2104	-4.1917	-3.8354	-3.1063	-4.2604	-3.5062	-3.5354	-4.1937	-3.2729	-4.0104	-3.8438	-4.268	141.805	85.511	-123.875	119.053	15.784	115.480	163.708	67.731	63.596	-69.167	-10.981	-15.519	-118.685	48.543	69.476	0.00019315	0.00029305	9.4265e-05	972.45	2.8029e-06	4.3849e-06	946.68	241.18	4.3046e-06	2.8262e-06	239.76	64.992	57.24	17.428	4.6428e-06	22.088	0.00023971	0.00021218	6.4478e-05	847.76	2.5327e-06	2.5044e-06	820.02	211.54	2.7105e-06	2.6402e-06	209.17	56.765	50.299	15.338	2.5102e-06	19.309	-57.484	-63.142	-67.245	-139.935	-11.786	3.620	-140.829	-134.450	-4.370	-2.654	-136.726	-131.655	-129.234	-124.049	20.514	-128.173	-8191	255	
1534.684	1	1	0	0	0.11371	0.12362	0.010946	0.11951	0.11816	0.084096	0.26533	0.089553	0.16437	0.11182	0.063214	0.12916	0.051632	0.10555	0.096745	0.068363	-2.9583	-4.0479	-3.4646	-3.5667	-4.2583	-3.2125	-4.1583	-3.9583	-3.3729	-3.9771	-3.65	-3.5438	-4.1146	-3.2792	-3.7542	-4.0062	-47.456	-86.934	101.650	113.916	72.816	95.888	169.933	92.841	-86.358	21.951	120.534	-107.802	31.084	-57.335	25.977	-49.750	0.0001849	0.00032011	7.2901e-05	976.75	4.6516e-06	2.2528e-06	946.15	244.5	4.0575e-06	1.5675e-06	242.16	65.672	57.143	17.38	2.6785e-06	22.128	0.00022872	0.00022551	6.0474e-05	848.3	2.6857e-06	2.7001e-06	821.56	212.29	2.7041e-06	2.2667e-06	210.79	57.236	50.084	15.327	2.4539e-06	19.508	-63.978	-52.049	-53.092	-139.575	16.549	22.314	-140.437	-134.174	12.870	-1.209	-136.491	-131.300	-129.889	-124.631	7.697	-128.184	-8191	255	
1534.780	1	1	0	0	0.29946	0.11423	0.075319	0.10869	0.077728	0.18346	0.071256	0.16658	0.18417	0.19124	0.16746	0.13512	0.23854	0.22077	0.26158	0.17713	-2.9417	-4.1687	-3.6667	-3.6104	-4.3063	-3.2729	-3.9542	-3.9771	-3.2708	-4.0437	-3.7708	-3.3396	-4.2583	-3.4688	-3.625	-4.2021	-47.244	161.515	134.753	155.534	102.448	115.928	0.644	136.601	-117.706	164.724	49.141	-74.606	184.145	-93.426	200.086	120.658	0.00019529	0.00015729	0.00010681	977.12	3.0189e-06	3.4354e-06	954.04	243.86	1.2209e-06	2.6228e-06	245.66	65.888	58.018	17.437	2.6212e-06	22.572	0.00023564	0.00021247	6.3876e-05	849.17	2.4737e-06	2.5208e-06	828.01	212.88	2.6727e-06	2.4524e-06	213.67	57.885	50.763	15.379	2.4405e-06	19.735	-62.470	-31.947	-100.266	-139.838	-26.413	7.559	-140.799	-133.900	-12.375	-13.325	-136.434	-131.366	-129.489	-124.041	36.237	-127.638	-8191	255	
1534.876	1	1	0	0	0.18553	0.16653	0.099259	0.177	0.15349	0.055001	0.22636	0.19284	0.14731	0.12448	0.10645	0.10657	0.078448	0.13999	0.017042	0.37265	-2.8688	-4.1188	-3.6354	-3.2229	-4.1292	-3.4938	-3.7604	-4.1042	-3.1979	-3.8458	-4.0208	-3.2542	-4.2646	-3.4125	-3.525	-4.3187	-84.446	21.601	186.582	149.747	-9.502	156.976	109.714	65.893	-86.122	-20.587	105.893	-143.625	81.553	141.480	-39.767	-126.211	0.00020286	0.00023961	7.5611e-05	978.83	2.604e-06	2.326e-06	955.99	245.4	3.9552e-06	4.5649e-06	244.58	65.598	57.946	17.394	7.4026e-07	21.892	0.00023387	0.00022493	6.024e-05	852.34	2.3581e-06	2.754e-06	830.26	213.45	2.7377e-06	2.6593e-06	212.29	57.41	50.545	15.331	2.6196e-06	19.34	-56.224	-38.804	-30.246	-139.574	2.338	41.676	-140.748	-134.653	-8.240	8.635	-136.679	-131.712	-129.683	-124.636	26.548	-127.886	-8191	255	
1534.997	1	1	0	0	0.19474	0.059043	0.1104	0.11634	0.16302	0.12232	0.18173	0.14374	0.46487	0.15668	0.31416	0.098117	0.17051	0.055234	0.027362	0.17523	-2.7188	-3.9542	-3.7396	-3.3604	-4.2229	-3.4771	-3.7062	-4.1813	-3.25	-3.7958	-4	-3.2042	-4.0146	-3.5687	-3.2542	-4.1854	63.061	142.055	80.056	190.308	56.875	76.804	40.526	132.096	160.008	84.615	128.605	115.233	16.749	199.913	203.911	-12.055	0.00023126	0.00029222	8.6616e-05	979.37	1.1181e-06	3.2315e-06	944.94	242.45	3.4724e-06	2.0548e-06	238.24	64.72	57.279	17.448	3.9428e-06	22.208	0.00021537	0.00022589	6.332e-05	846.88	2.2806e-06	2.6151e-06	818.11	210.71	2.6e-06	2.7235e-06	208.73	56.684	50.004	15.323	2.4582e-06	19.421	-56.998	-72.870	-54.534	-139.594	-61.523	10.011	-140.703	-134.049	1.706	16.064	-136.716	-131.251	-130.082	-124.832	-4.471	-128.022	-8191	255	
1535.068	1	1	0	0	0.18173	0.1399	0.14796	0.20185	0.10427	0.15375	0.037958	0.15851	0.1923	0.096051	0.11424	0.18404	0.071427	0.071563	0.13642	0.075588	-2.8604	-3.7938	-4.1167	-3.3187	-4.1813	-3.6958	-3.4479	-4.1979	-3.4604	-3.6625	-4.1979	-3.15	-4.0729	-3.6167	-3.3021	-4.2896	25.783	-52.996	142.871	186.358	-113.793	-52.668	-124.670	116.120	129.204	-146.239	197.350	-122.234	81.428	106.407	180.994	199.450	0.0002035	0.00013064	0.00010374	976.53	1.6564e-06	1.1533e-06	944.13	242.18	4.1495e-06	4.3193e-07	242.71	65.826	57.542	17.502	4.1945e-06	22.347	0.00021352	0.00022762	6.051e-05	847.45	2.374e-06	2.4119e-06	821.11	212	2.7598e-06	2.4578e-06	211.39	57.347	50.207	15.396	2.3492e-06	19.649	-59.248	-45.449	-86.850	-139.795	-0.865	-8.280	-140.669	-134.225	-9.182	23.110	-136.337	-131.837	-129.717	-123.732	-10.075	-127.564	-8191	255	
1535.164	1	1	0	0	0.14615	0.1881	0.19678	0.13258	0.19626	0.24532	0.08801	0.12988	0.1773	0.18633	0.20202	0.10899	0.14383	0.071241	0.0709	0.083601	-3.0708	-3.6104	-4.1937	-3.3333	-3.85	-3.6792	-3.35	-4.0458	-3.5583	-3.5729	-4.2646	-3.1646	-3.8854	-3.8667	-3.2	-4.2896	-96.241	137.704	159.467	146.135	36.712	48.189	37.245	145.703	-52.184	-8.495	-78.734	160.881	198.199	-100.004	-136.687	135.609	0.00021797	0.00023771	4.8904e-05	981.78	4.2639e-06	1.8707e-06	949.83	245.01	5.09e-06	2.4749e-06	244.09	65.952	57.649	17.539	2.2152e-06	22.661	0.00024075	0.00023992	5.5051e-05	851.5	2.6029e-06	2.5901e-06	826.88	213.82	2.6768e-06	2.4538e-06	213.71	57.79	50.705	15.444	2.5022e-06	19.831	-55.290	-78.171	-42.897	-139.943	23.877	-23.395	-140.647	-134.865	-3.077	25.091	-136.389	-131.385	-129.023	-124.200	21.060	-127.472	-8191	255	
1535.285	1	1	0	0	0.11175	0.12174	0.074754	0.12849	0.20054	0.13196	0.21419	0.12063	0.1117	0.19678	0.085861	0.17813	0.31378	0.0073918	0.16175	0.2276	-3.0625	-3.3083	-4.3021	-3.4521	-3.775	-4.0354	-3.3125	-4.0958	-3.5792	-3.3229	-4.2146	-3.2375	-3.7979	-3.9813	-3.1854	-4.0917	-140.112	74.081	192.209	6.706	36.380	-140.104	164.086	131.049	204.852	-90.149	163.205	-116.806	187.126	-134.579	157.574	-142.591	0.00018758	0.00040636	4.5897e-05	988.2	3.6396e-06	3.3806e-06	952.5	244.1	2.8755e-06	2.5252e-06	243.03	65.389	57.135	17.384	2.3623e-06	22.042	0.00021082	0.00022298	5.6147e-05	853.87	2.8434e-06	2.3623e-06	826.81	213.32	2.4697e-06	2.5119e-06	211.23	57.107	50.35	15.311	2.5609e-06	19.45	-59.245	-70.297	-32.970	-140.218	13.196	26.748	-141.105	-133.920	15.222	12.878	-136.268	-131.680	-129.253	-124.476	-25.039	-127.473	-8191	255	
1535.381	1	1	0	0	0.24393	0.22139	0.1646	0.16392	0.20712	0.16136	0.19185	0.25375	0.044809	0.35045	0.037608	0.049472	0.099264	0.18703	0.2292	0.16325	-3.4833	-3.2375	-4.1062	-3.3458	-3.5687	-3.8917	-3.4625	-4.1458	-3.7708	-3.2562	-4.2083	-3.3063	-3.3083	-4.0396	-3.1229	-3.9375	183.732	-3.760	176.641	172.768	-84.822	40.908	96.852	21.865	-125.510	117.494	-32.238	62.458	-136.055	112.429	-151.873	174.505	0.00020821	0.00045404	9.5293e-05	975.56	6.0447e-07	1.6034e-06	940.99	243.78	3.2133e-06	2.0863e-06	238.73	64.66	57.409	17.373	4.2119e-06	22.048	0.00021705	0.00023877	6.0474e-05	845.41	2.6698e-06	2.2902e-06	815.21	211.36	2.5552e-06	2.4946e-06	208.82	56.729	50.273	15.253	2.7128e-06	19.383	-56.447	-47.986	-30.230	-139.955	-97.834	-10.312	-140.970	-134.144	-26.890	0.799	-136.090	-131.530	-129.573	-124.295	-2.582	-127.921	-8191	255	
1535.477	1	1	0	0	0.19252	0.054288	0.057107	0.079558	0.33556	0.11343	0.050701	0.119	0.23762	0.21705	0.17735	0.072561	0.20866	0.17617	0.072889	0.19158	-3.4833	-3.0521	-4.1792	-3.6354	-3.4458	-4.1396	-3.5333	-3.8438	-3.9188	-3.1479	-4.1125	-3.5917	-3.5979	-4.0542	-3.1375	-3.6708	51.545	131.893	-121.335	125.434	-9.372	56.835	87.169	-2.862	20.365	-135.170	179.881	-114.586	207.489	151.671	-76.918	-149.192	0.00019978	0.00023688	8.0572e-05	972.63	5.2395e-06	2.5517e-06	952.08	243.33	3.3621e-06	4.4379e-06	242.4	65.648	57.73	17.576	4.1095e-06	22.302	0.00023293	0.00021222	6.4496e-05	845.27	2.6711e-06	2.3555e-06	823.93	212.15	2.5126e-06	2.5869e-06	211.48	57.289	50.498	15.427	2.4539e-06	19.634	-57.813	-149.839	-78.988	-139.920	37.416	-34.254	-141.061	-134.067	2.402	-46.159	-135.802	-131.790	-129.199	-124.497	5.451	-127.540	-8191	255	
1535.573	1	1	0	0	0.27727	0.17609	0.13094	0.14651	0.036753	0.12287	0.16285	0.088843	0.21103	0.10767	0.20343	0.084705	0.071896	0.31516	0.20739	0.049842	-3.6292	-3.1312	-4.0604	-3.8354	-3.3208	-4.3167	-3.5125	-3.7167	-4.0625	-3.2271	-4.1583	-3.7521	-3.2687	-4.2333	-3.3563	-3.7271	88.996	169.554	158.185	152.444	22.016	27.090	192.083	168.688	156.278	-58.069	130.010	108.392	51.691	-135.500	-22.418	-72.135	0.00020497	0.00032284	9.7285e-05	978.56	4.8893e-06	3.9341e-06	956.77	243.97	5.4692e-06	1.7701e-06	244.34	66.488	58.127	17.552	4.81e-06	22.588	0.00022487	0.00022362	5.884e-05	851.46	2.6754e-06	2.5801e-06	829.16	212.69	2.5366e-06	2.4077e-06	213.88	58.084	50.714	15.389	2.6347e-06	19.807	-60.988	-72.371	-15.831	-139.642	-4.894	34.652	-140.888	-134.193	-20.750	14.161	-136.024	-131.772	-128.897	-124.293	-6.632	-127.428	-8191	255	
1535.694	1	1	0	0	0.20385	0.039062	0.12456	0.10802	0.080597	0.04042	0.13813	0.15422	0.060754	0.114	0.25049	0.10769	0.19132	0.22716	0.1424	0.20746	-3.7417	-3.2146	-4.1042	-3.975	-3.125	-4.3667	-3.6458	-3.5771	-3.9792	-3.325	-4.0333	-3.9042	-3.3979	-4.2042	-3.4354	-3.5104	193.933	89.403	57.392	-115.030	159.537	127.952	-123.563	90.040	16.160	148.221	162.134	134.932	166.846	137.815	-58.814	-120.431	0.00018649	0.00025962	0.00013912	979.88	3.2745e-06	8.0103e-07	955.67	243.7	3.294e-06	9.8728e-07	241.16	65.403	57.419	17.347	2.6861e-06	22.185	0.00022848	0.00023275	5.8104e-05	849.55	2.6364e-06	2.3841e-06	828.55	211.95	2.4694e-06	2.5166e-06	210.88	57.115	50.145	15.268	2.4589e-06	19.462	-61.024	-65.220	-76.564	-139.512	2.882	102.467	-141.183	-134.175	25.648	-53.013	-135.708	-131.919	-129.282	-124.453	-16.792	-127.540	-8191	255	
1535.764	1	1	0	0	0.13015	0.13147	0.17021	0.14107	0.10955	0.24404	0.21671	0.18796	0.033098	0.23668	0.18569	0.18067	0.20826	0.171	0.25219	0.10866	-3.8688	-3.25	-4.0563	-4.1146	-3.1396	-4.0875	-3.7979	-3.3563	-4.1521	-3.3896	-3.8479	-4.0479	-3.1729	-4.1083	-3.6458	-3.3583	138.438	121.289	-122.524	111.376	-96.346	2.846	124.428	160.457	146.482	121.629	-149.888	4.990	183.242	115.240	86.248	16.757	0.00024298	0.00026185	1.0574e-05	972.24	3.4375e-06	2.1863e-06	948.31	241.99	2.0666e-06	1.9252e-06	239.97	64.33	57.611	17.563	2.9761e-06	22.255	0.00022233	0.00023451	5.6138e-05	844.67	2.5297e-06	2.4948e-06	821.87	210.6	2.5885e-06	2.7672e-06	210.3	56.66	50.215	15.355	2.478e-06	19.457	-50.524	-59.945	56.139	-139.682	20.831	23.123	-141.052	-134.098	6.917	18.694	-135.775	-131.211	-129.134	-124.170	-14.367	-127.838	-8191	255	
1535.885	1	1	0	0	0.094969	0.060188	0.12039	0.10416	0.19737	0.23966	0.033575	0.15854	0.086019	0.13383	0.029568	0.17425	0.084393	0.075238	0.050724	0.20108	-3.9167	-3.1167	-3.6896	-4.0792	-3.1	-4.025	-3.8979	-3.4813	-4.1729	-3.3167	-3.7188	-3.9542	-3.0896	-4.0167	-3.8229	-3.2687	-15.059	147.885	200.440	68.363	-4.911	-121.159	-144.325	-101.670	-147.797	-47.577	19.415	-67.370	144.529	-10.600	198.761	-94.275	0.00017814	0.00017403	7.7691e-05	978.4	3.6188e-06	3.266e-06	946.46	242.1	3.3777e-06	3.9883e-06	242.43	65.9	57.523	17.523	2.8854e-06	22.463	0.00021139	0.00024136	6.5178e-05	846.86	2.4575e-06	2.4523e-06	821.98	211.78	2.6445e-06	2.6172e-06	212.18	57.528	50.362	15.343	2.4794e-06	19.714	-54.339	-105.555	-29.185	-139.645	-14.898	18.181	-141.168	-133.843	1.102	19.602	-135.529	-131.749	-129.592	-124.617	22.452	-127.627	-8191	255	
1535.981	1	1	0	0	0.1663	0.099719	0.1246	0.14179	0.14292	0.18508	0.21018	0.14034	0.12582	0.13006	0.10039	0.070385	0.075421	0.18015	0.17702	0.14592	-3.9	-3.325	-3.4667	-4.1854	-3.2021	-3.9542	-4.0521	-3.5542	-4.1937	-3.5792	-3.5979	-4.3063	-3.3354	-3.7417	-3.8958	-3.0292	-92.869	-78.923	-81.274	-120.482	-119.404	-102.423	126.716	187.131	183.536	28.303	89.808	61.293	-148.686	174.120	109.474	74.952	0.00019725	0.00027085	5.0793e-05	982.05	3.2729e-06	2.5744e-06	955.27	246.35	3.7544e-06	4.3393e-06	245.01	65.654	57.874	17.592	3.9278e-06	22.644	0.00021145	0.00022323	6.4424e-05	851.66	2.7861e-06	2.4948e-06	829.59	213.67	2.3394e-06	2.6096e-06	214.07	57.643	50.602	15.452	2.5448e-06	19.838	-57.523	-84.499	-57.969	-139.721	-22.817	16.135	-140.957	-134.062	10.718	6.484	-135.601	-131.721	-128.814	-124.222	-5.506	-128.060	-8191	255	
#DATA ENDS
