BOXY.EXE: ISS Imagent and Oximeter Data Acquisition Program Version 0.80
Ascii Record File

#ACQ INFORMATION
2  Detector Channels 
16  External MUX Channels 
1  Auxiliary Channels 
5000  Waveform (CCF) Frequency (Hz)
1  Waveforms Skipped 
30  Waveforms Averaged 
1  Cycles Averaged 
16  Acquisitions per Waveform 
10.0806  Updata Rate (Hz) 

#FILE INFORMATION
TRUE -- External MUX Channel results are PARSED.
FALSE -- AC DC and Phase are NOT grouped.
TRUE -- Companion Program Settings File CREATED.
FALSE -- AC data not excluded
FALSE -- DC data not excluded
FALSE -- Phase data not excluded
FALSE -- Auxillary Chn. data not excluded
Tab delimiters

#CALIBRATION STATE
TRUE -- Waveform Calibration Values APPLIED.


#AUX CALIBRATION VALUES
Val Type	aux-1	

Term	1.0000e+00	
Factor	0.0000e+00	


#WF CALIBRATION VALUES
A = Detector Channel
Val Type	A-AC1	A-AC2	A-AC3	A-AC4	A-AC5	A-AC6	A-AC7	A-AC8	A-AC9	A-AC10	A-AC11	A-AC12	A-AC13	A-AC14	A-AC15	A-AC16	A-DC1	A-DC2	A-DC3	A-DC4	A-DC5	A-DC6	A-DC7	A-DC8	A-DC9	A-DC10	A-DC11	A-DC12	A-DC13	A-DC14	A-DC15	A-DC16	A-Ph1	A-Ph2	A-Ph3	A-Ph4	A-Ph5	A-Ph6	A-Ph7	A-Ph8	A-Ph9	A-Ph10	A-Ph11	A-Ph12	A-Ph13	A-Ph14	A-Ph15	A-Ph16	

Term	0.00000e+00	0.00000e+00	0.00000e+00	0.00000e+00	0.00000e+00	0.00000e+00	0.00000e+00	0.00000e+00	0.00000e+00	0.00000e+00	0.00000e+00	0.00000e+00	0.00000e+00	0.00000e+00	0.00000e+00	0.00000e+00	0.00000e+00	0.00000e+00	0.00000e+00	0.00000e+00	0.00000e+00	0.00000e+00	0.00000e+00	0.00000e+00	0.00000e+00	0.00000e+00	0.00000e+00	0.00000e+00	0.00000e+00	0.00000e+00	0.00000e+00	0.00000e+00	0.00000e+00	0.00000e+00	0.00000e+00	0.00000e+00	0.00000e+00	0.00000e+00	0.00000e+00	0.00000e+00	0.00000e+00	0.00000e+00	0.00000e+00	0.00000e+00	0.00000e+00	0.00000e+00	0.00000e+00	0.00000e+00	
Factor	1.00000e+00	1.00000e+00	1.00000e+00	1.00000e+00	1.00000e+00	1.00000e+00	1.00000e+00	1.00000e+00	1.00000e+00	1.00000e+00	1.00000e+00	1.00000e+00	1.00000e+00	1.00000e+00	1.00000e+00	1.00000e+00	1.00000e+00	1.00000e+00	1.00000e+00	1.00000e+00	1.00000e+00	1.00000e+00	1.00000e+00	1.00000e+00	1.00000e+00	1.00000e+00	1.00000e+00	1.00000e+00	1.00000e+00	1.00000e+00	1.00000e+00	1.00000e+00	X	X	X	X	X	X	X	X	X	X	X	X	X	X	X	X	

B = Detector Channel
Val Type	B-AC1	B-AC2	B-AC3	B-AC4	B-AC5	B-AC6	B-AC7	B-AC8	B-AC9	B-AC10	B-AC11	B-AC12	B-AC13	B-AC14	B-AC15	B-AC16	B-DC1	B-DC2	B-DC3	B-DC4	B-DC5	B-DC6	B-DC7	B-DC8	B-DC9	B-DC10	B-DC11	B-DC12	B-DC13	B-DC14	B-DC15	B-DC16	B-Ph1	B-Ph2	B-Ph3	B-Ph4	B-Ph5	B-Ph6	B-Ph7	B-Ph8	B-Ph9	B-Ph10	B-Ph11	B-Ph12	B-Ph13	B-Ph14	B-Ph15	B-Ph16	

Term	0.00000e+00	0.00000e+00	0.00000e+00	0.00000e+00	0.00000e+00	0.00000e+00	0.00000e+00	0.00000e+00	0.00000e+00	0.00000e+00	0.00000e+00	0.00000e+00	0.00000e+00	0.00000e+00	0.00000e+00	0.00000e+00	0.00000e+00	0.00000e+00	0.00000e+00	0.00000e+00	0.00000e+00	0.00000e+00	0.00000e+00	0.00000e+00	0.00000e+00	0.00000e+00	0.00000e+00	0.00000e+00	0.00000e+00	0.00000e+00	0.00000e+00	0.00000e+00	-3.55938e+01	-1.27701e+02	-1.25281e+02	-1.82617e+02	-5.40153e+01	-6.01161e+01	-1.56707e+02	-1.61923e+02	-3.23848e+01	-6.96501e+01	-1.72081e+02	-1.72121e+02	-1.82310e+02	-1.75613e+02	-4.80221e+01	-1.49421e+02	
Factor	1.75935e-05	1.27067e-04	3.90881e-05	1.69756e-01	1.41494e-06	1.43045e-06	1.51472e-01	4.16107e-02	1.27005e-06	1.46452e-06	7.00974e-02	2.89022e-02	2.93523e-02	6.32495e-03	1.47419e-06	9.43134e-03	9.40978e-06	1.53733e-05	4.30930e-06	8.73817e-02	1.59016e-07	1.71387e-07	7.34779e-02	2.15944e-02	1.53695e-07	1.73083e-07	3.51862e-02	1.45699e-02	1.52597e-02	3.31565e-03	1.61020e-07	4.78232e-03	X	X	X	X	X	X	X	X	X	X	X	X	X	X	X	X	



#DISTANCE SETTINGS
A = Detector Channel
A-1	A-2	A-3	A-4	A-5	A-6	A-7	A-8	A-9	A-10	A-11	A-12	A-13	A-14	A-15	A-16	

1.0000e+01	1.0000e+01	1.0000e+01	1.4500e+00	1.0000e+01	1.0000e+01	1.5100e+00	1.9500e+00	1.0000e+01	1.0000e+01	2.0100e+00	2.5000e+00	2.4400e+00	2.9500e+00	1.0000e+01	3.0100e+00	

B = Detector Channel
B-1	B-2	B-3	B-4	B-5	B-6	B-7	B-8	B-9	B-10	B-11	B-12	B-13	B-14	B-15	B-16	

1.0000e+01	1.0000e+01	1.0000e+01	1.4500e+00	1.0000e+01	1.0000e+01	1.5100e+00	1.9500e+00	1.0000e+01	1.0000e+01	2.0100e+00	2.5000e+00	2.4400e+00	2.9500e+00	1.0000e+01	3.0100e+00	




#DATA BEGINS
time	group	step	mark	flag	A-AC1	A-AC2	A-AC3	A-AC4	A-AC5	A-AC6	A-AC7	A-AC8	A-AC9	A-AC10	A-AC11	A-AC12	A-AC13	A-AC14	A-AC15	A-AC16	A-DC1	A-DC2	A-DC3	A-DC4	A-DC5	A-DC6	A-DC7	A-DC8	A-DC9	A-DC10	A-DC11	A-DC12	A-DC13	A-DC14	A-DC15	A-DC16	A-Ph1	A-Ph2	A-Ph3	A-Ph4	A-Ph5	A-Ph6	A-Ph7	A-Ph8	A-Ph9	A-Ph10	A-Ph11	A-Ph12	A-Ph13	A-Ph14	A-Ph15	A-Ph16	B-AC1	B-AC2	B-AC3	B-AC4	B-AC5	B-AC6	B-AC7	B-AC8	B-AC9	B-AC10	B-AC11	B-AC12	B-AC13	B-AC14	B-AC15	B-AC16	B-DC1	B-DC2	B-DC3	B-DC4	B-DC5	B-DC6	B-DC7	B-DC8	B-DC9	B-DC10	B-DC11	B-DC12	B-DC13	B-DC14	B-DC15	B-DC16	B-Ph1	B-Ph2	B-Ph3	B-Ph4	B-Ph5	B-Ph6	B-Ph7	B-Ph8	B-Ph9	B-Ph10	B-Ph11	B-Ph12	B-Ph13	B-Ph14	B-Ph15	B-Ph16	aux-1	digaux	

1104.109	1	1	0	256	0.19146	0.04387	0.19001	0.19217	0.22007	0.30488	0.23467	0.30127	0.17724	0.36487	0.14028	0.094948	0.11241	0.20273	0.22057	0.16646	-3.5771	-4.0125	-4.4875	-3.7896	-4.2208	-4.4437	-3.8833	-4.6542	-3.9458	-3.6437	-4.6042	-3.6125	-4.1312	-4.5604	-3.4375	-4.4313	206.600	138.423	160.286	360.664	276.069	106.159	382.894	408.413	154.715	434.459	405.704	368.075	436.382	438.358	270.870	420.045	0.00064245	0.00055366	0.00016456	1359.1	8.1122e-06	3.1783e-06	1409.8	368.62	6.7356e-06	7.8235e-06	410.15	138.54	115.14	37.421	7.1552e-06	48.749	0.00065412	0.0006403	0.00017529	1391.5	6.7873e-06	6.8851e-06	1429.2	377.13	6.769e-06	7.0614e-06	420.05	141.89	117.99	38.882	6.9768e-06	50.37	265.257	159.405	167.269	95.801	245.613	244.541	95.604	100.745	267.276	222.760	100.093	105.178	105.904	110.022	261.389	108.972	-8191	255	
1104.205	1	1	0	0	0.18201	0.11362	0.11593	0.35779	0.14676	0.056562	0.20166	0.10174	0.11487	0.12046	0.15577	0.18715	0.26252	0.11937	0.20497	0.11484	-3.7854	-3.6604	-4.4854	-3.9688	-4.0687	-4.55	-3.7854	-4.5604	-4.1625	-3.6521	-4.7583	-3.8104	-4.0938	-4.7438	-3.5729	-4.4104	354.158	400.617	127.019	371.368	439.994	221.246	376.331	427.319	270.327	410.749	425.290	94.247	356.794	378.772	251.709	401.482	0.00063484	0.00025306	9.0929e-05	1367.1	5.6876e-06	6.3127e-06	1401.5	368.24	6.5179e-06	5.1713e-06	410.28	138.37	115.41	37.449	7.3082e-06	48.935	0.00062095	0.00062496	0.00017303	1387.9	6.9205e-06	6.7648e-06	1422.5	376.1	6.7213e-06	7.0856e-06	419.81	141.53	118.08	38.813	6.9265e-06	50.381	265.807	190.647	178.051	96.020	247.468	221.235	95.789	100.830	278.018	218.805	100.163	105.231	105.831	110.122	248.059	109.013	-8191	255	
1104.326	1	1	0	0	0.15268	0.044374	0.077507	0.1306	0.11988	0.13801	0.30058	0.060108	0.21314	0.061767	0.13346	0.21698	0.19988	0.10615	0.2418	0.10579	-3.9021	-3.5646	-4.6958	-4.1604	-3.75	-4.4	-3.8875	-4.3521	-4.1792	-3.7104	-4.65	-4.0771	-3.8229	-4.7271	-3.7812	-4.3979	179.225	105.891	280.531	344.325	343.829	231.707	348.239	343.089	401.624	143.027	436.459	392.854	341.110	118.917	295.797	281.136	0.00062885	0.00047301	0.00016134	1355.7	6.5804e-06	6.8379e-06	1396.2	368.14	7.1422e-06	4.7419e-06	407.86	138.22	114.69	37.369	6.0873e-06	49.078	0.00061695	0.00063972	0.00017166	1383.4	6.9536e-06	6.6977e-06	1419	375.6	6.573e-06	6.9745e-06	418.98	141.52	117.68	38.744	6.8061e-06	50.364	263.614	155.918	177.001	96.130	248.787	231.900	95.784	100.888	275.566	222.034	100.503	105.515	106.177	110.136	264.358	109.274	-8191	255	
1104.420	1	1	0	0	0.1542	0.12485	0.28108	0.13312	0.28241	0.14864	0.22109	0.41555	0.21556	0.13732	0.14455	0.20961	0.10567	0.087027	0.21452	0.040695	-4.0354	-3.6375	-4.5792	-4.3187	-3.7667	-4.6562	-4.0021	-4.3146	-4.6625	-3.7604	-4.5229	-4.0896	-3.8708	-4.8187	-3.8187	-4.3	209.297	389.821	90.608	372.484	224.801	311.738	420.158	383.081	394.897	101.738	340.278	351.508	399.818	213.013	312.733	255.091	0.00060019	0.00066048	0.00012869	1356.4	6.9081e-06	5.4018e-06	1394.8	367.46	6.6976e-06	5.1151e-06	408.01	138.34	114.64	37.359	6.0555e-06	48.56	0.00062079	0.00064155	0.00016795	1381.5	6.8675e-06	6.6959e-06	1417.2	375.19	6.5384e-06	7.0077e-06	418.12	140.97	117.49	38.67	6.794e-06	50.1	263.797	189.293	191.288	96.443	244.321	242.198	96.124	101.306	272.867	238.353	100.552	105.132	106.199	110.323	245.171	109.477	-8191	255	
1104.518	1	1	0	0	0.078708	0.19894	0.14132	0.30271	0.16413	0.24911	0.37791	0.069408	0.1387	0.18967	0.24426	0.14559	0.15478	0.16327	0.10293	0.20352	-4.0146	-3.6875	-4.2792	-4.2438	-3.6792	-4.3792	-4.1167	-4.0958	-4.5708	-3.5687	-4.4583	-4.5354	-3.7375	-4.7667	-3.8563	-4.0583	312.985	109.194	94.683	85.304	370.794	167.383	378.747	279.769	257.724	283.161	88.516	402.854	165.679	408.214	371.532	433.143	0.00063057	0.00048024	0.00014501	1356.5	7.8525e-06	4.0771e-06	1392.2	366.66	6.5635e-06	4.3356e-06	408.58	137.9	114	37.308	7.5479e-06	48.631	0.00062765	0.00063095	0.00017181	1381.4	6.789e-06	6.8348e-06	1416.6	375.09	6.6217e-06	6.9543e-06	418.47	141.17	117.26	38.602	6.741e-06	50.162	264.149	173.572	199.512	96.034	238.228	215.523	95.782	100.829	277.084	229.274	100.242	105.239	105.713	110.196	268.477	109.053	-8191	255	
1104.614	1	1	0	0	0.12549	0.034677	0.19095	0.21629	0.30439	0.10748	0.28644	0.1388	0.019984	0.31887	0.033693	0.17434	0.11788	0.2889	0.30108	0.456	-4.3021	-3.6292	-4.4	-4.6188	-3.6875	-4.6146	-4.175	-3.9979	-4.8917	-3.6625	-4.5229	-4.6292	-3.55	-4.6	-3.9771	-3.8292	292.527	213.918	436.736	131.268	275.881	155.463	377.837	355.470	136.236	441.169	274.813	414.577	322.665	377.547	332.603	99.817	0.00063839	0.00051148	0.0001698	1354.6	4.5447e-06	5.2355e-06	1396.2	367.43	7.2448e-06	4.3931e-06	410.03	138.23	114.52	37.25	7.0505e-06	48.687	0.00062712	0.0006402	0.00017172	1382.3	6.9341e-06	6.7909e-06	1418.2	375.64	6.6668e-06	7.0535e-06	419.28	141.18	117.41	38.612	6.7873e-06	50.206	264.257	161.267	198.281	96.166	242.173	261.455	95.929	100.984	280.553	231.656	100.487	105.399	105.589	110.191	247.868	109.286	-8191	255	
1104.709	1	1	0	0	0.060718	0.18837	0.072448	0.24606	0.13008	0.068476	0.19707	0.22684	0.17686	0.091687	0.21198	0.067382	0.1019	0.14909	0.13552	0.19015	-4.2438	-3.8125	-4.0729	-4.5687	-3.5917	-4.5333	-4.2896	-3.8063	-4.5375	-3.8438	-4.2125	-4.5583	-3.6667	-4.4667	-4.3417	-3.7958	86.736	315.133	227.501	412.429	397.031	217.431	344.554	428.961	385.885	267.654	442.410	320.873	380.898	437.769	123.574	434.316	0.00064893	0.00047235	0.00015754	1358.4	6.1445e-06	5.0506e-06	1394.3	367.91	5.8751e-06	4.5333e-06	408.39	137.87	114.61	37.394	6.0393e-06	48.583	0.00062806	0.00063706	0.00017735	1381.9	7.0073e-06	6.8244e-06	1417.7	375.38	6.5906e-06	6.9558e-06	417.81	141.08	117.16	38.666	6.7149e-06	50.164	263.100	170.770	156.358	96.176	237.449	240.341	95.758	100.950	261.860	233.888	100.508	105.284	105.790	110.081	235.064	109.174	-8191	255	
1104.805	1	1	0	0	0.013602	0.14065	0.054863	0.28359	0.2441	0.16606	0.27847	0.12266	0.2226	0.12391	0.08828	0.027525	0.074165	0.22509	0.15551	0.17836	-4.2625	-3.9167	-3.7667	-4.5792	-3.6437	-4.5333	-4.4812	-3.9	-4.5208	-3.9042	-3.8229	-4.6208	-3.7687	-4.2729	-4.3438	-3.6375	341.950	337.220	349.213	121.574	403.483	336.825	360.004	440.270	230.297	256.540	360.626	100.919	439.263	394.536	166.541	418.862	0.00063863	0.00030554	0.00013935	1353.6	6.2999e-06	5.1783e-06	1394.5	365.82	8.4321e-06	5.0007e-06	408.96	137.37	114.76	37.529	4.452e-06	48.576	0.00063263	0.00062547	0.000168	1381.9	6.8549e-06	6.9962e-06	1416.6	374.82	6.6937e-06	7.0567e-06	418.84	141.17	117.43	38.77	6.8742e-06	50.106	265.592	196.771	166.788	96.122	238.209	250.039	95.841	101.020	273.184	245.465	100.463	105.407	105.802	110.245	260.732	109.413	-8191	255	
1104.925	1	1	0	0	0.024691	0.17525	0.20308	0.04397	0.14597	0.052086	0.18524	0.28212	0.065544	0.063654	0.090883	0.071666	0.034813	0.29296	0.049958	0.3225	-4.1208	-4.0979	-3.5292	-4.6521	-3.4854	-4.2708	-4.5667	-3.6708	-4.6521	-4.0375	-3.7125	-4.8042	-3.8125	-4.2771	-4.4896	-3.7188	304.987	249.375	387.294	400.306	229.406	363.759	402.446	370.268	211.008	214.617	335.270	320.042	164.620	429.130	155.724	419.611	0.00065588	0.00040325	0.00014754	1358.3	8.0879e-06	4.3631e-06	1394.5	366.85	7.5297e-06	6.5824e-06	408.15	138.56	114.89	37.477	6.2926e-06	49.039	0.00064161	0.00064414	0.00017718	1383.8	7.1415e-06	6.903e-06	1419.7	375.23	6.8484e-06	6.9514e-06	418.82	141.86	117.87	38.903	6.7679e-06	50.449	261.924	173.437	174.426	96.145	244.205	234.519	95.909	100.916	267.555	220.656	100.333	105.297	105.871	110.291	248.198	109.232	-8191	255	
1105.021	1	1	0	0	0.14385	0.21636	0.092575	0.31052	0.19027	0.14858	0.11209	0.30484	0.20362	0.081403	0.2653	0.15256	0.35358	0.099468	0.13815	0.22617	-4.1417	-4.1208	-3.6479	-4.6312	-3.9167	-4.0583	-4.6375	-3.8792	-4.4042	-4.2625	-3.7958	-4.7708	-3.7625	-4.1333	-4.4	-3.6896	208.178	131.303	82.798	401.449	163.227	207.103	377.049	394.689	252.223	103.154	322.030	363.833	369.372	420.411	85.575	346.465	0.00064523	0.00037529	0.00010078	1361.5	6.3057e-06	5.9448e-06	1403.4	368.64	6.7354e-06	5.5446e-06	411.46	139.73	115.77	37.812	6.4011e-06	49.317	0.00065092	0.00065208	0.00018446	1389.1	7.1842e-06	7.4661e-06	1425.6	376.81	6.8404e-06	7.1934e-06	420.2	142.85	118.57	39.236	7.0892e-06	50.794	265.291	185.258	172.722	96.424	245.922	212.780	95.827	100.752	268.219	220.320	100.216	105.189	105.821	110.455	250.029	109.095	-8191	255	
1105.118	1	1	0	0	0.16956	0.22241	0.1784	0.16577	0.11225	0.090963	0.19717	0.54265	0.17648	0.19947	0.18856	0.16257	0.082011	0.13783	0.14849	0.12648	-3.8271	-4.2438	-3.5896	-4.6396	-3.9813	-3.7188	-4.7375	-3.925	-4.1583	-4.4563	-3.7958	-4.4521	-4.0875	-3.9688	-4.4	-3.9458	124.448	92.544	334.305	411.374	209.424	278.824	355.845	423.324	144.407	158.216	340.337	93.442	134.471	105.112	261.848	218.231	0.00064535	0.00035754	0.00011149	1365.3	6.1308e-06	5.9875e-06	1404	367.05	5.1428e-06	5.3427e-06	411.11	140.75	115.87	38.227	3.9889e-06	49.708	0.00064024	0.00064962	0.000181	1391	7.0451e-06	7.1879e-06	1427.4	376.19	7.0043e-06	6.9035e-06	421.18	143.65	119.07	39.568	7.0402e-06	51.269	264.809	182.793	203.310	96.282	241.682	246.763	96.124	101.208	266.235	227.854	100.571	105.217	105.730	110.241	256.904	109.033	-8191	255	
1105.214	1	1	0	0	0.11143	0.2195	0.18479	0.26953	0.22793	0.13534	0.18584	0.23823	0.2143	0.34023	0.13335	0.28365	0.11393	0.063273	0.24979	0.12285	-3.8896	-4.5375	-3.5938	-4.6375	-3.9896	-3.6896	-4.8771	-3.9104	-4.0521	-4.4437	-3.6792	-4.4688	-4.1729	-3.8104	-4.5458	-4.0604	281.389	174.846	217.399	400.947	353.902	241.189	99.932	399.066	302.780	259.638	179.547	91.424	168.469	97.020	179.337	427.416	0.00065702	0.00059814	0.00013919	1369.9	6.6147e-06	4.6961e-06	1413	368.65	4.94e-06	3.6924e-06	413.03	141.95	116.62	38.555	6.6566e-06	49.878	0.00065129	0.00065407	0.00018115	1396	7.1812e-06	7.3914e-06	1435.8	378.17	7.1513e-06	7.3131e-06	422.94	144.55	119.67	39.928	7.3556e-06	51.498	261.667	172.171	164.040	96.582	237.515	236.192	96.301	101.348	274.781	231.062	100.878	105.688	106.272	110.506	249.729	109.468	-8191	255	
1105.310	1	1	0	0	0.1361	0.24126	0.15727	0.043254	0.20852	0.13881	0.37308	0.17063	0.094582	0.16111	0.29842	0.41961	0.17682	0.19215	0.25243	0.30358	-3.7083	-4.5	-3.65	-4.5604	-4.2042	-3.4896	-4.8021	-4.2021	-3.9292	-4.6562	-3.7438	-4.325	-4.4104	-3.7021	-4.4354	-4.0104	371.181	348.234	412.935	425.595	347.065	402.949	355.930	327.664	364.264	422.544	405.171	419.766	409.009	332.246	408.970	396.358	0.00065006	0.00058481	0.00019677	1378.9	7.8441e-06	5.1626e-06	1422.8	374.03	6.2939e-06	3.9023e-06	415.36	142.35	117.97	38.918	5.4261e-06	50.414	0.00070003	0.00068866	0.00019553	1407.9	7.6901e-06	7.9267e-06	1446.8	381.92	7.7088e-06	7.9135e-06	425.52	145.35	120.93	40.297	8.0376e-06	51.934	263.300	167.462	167.547	96.536	259.415	250.349	96.262	101.162	269.902	233.556	100.762	105.623	106.118	110.499	272.705	109.243	-8191	255	
1105.406	1	1	0	0	0.20563	0.040582	0.12976	0.19304	0.14969	0.14859	0.15224	0.33979	0.26342	0.097563	0.26835	0.055966	0.2702	0.26556	0.2016	0.13026	-3.5729	-4.6229	-3.6688	-4.3333	-4.4062	-3.6917	-4.6979	-4.4812	-3.6708	-4.6333	-3.8167	-4.1375	-4.5104	-3.7188	-4.4396	-4.35	384.314	252.878	116.527	408.088	159.368	89.130	420.143	389.700	262.267	323.349	311.237	434.111	398.562	371.270	348.282	151.945	0.00064828	0.00053673	0.0001612	1393.8	6.8713e-06	5.7283e-06	1429.8	374.7	8.3867e-06	6.0728e-06	417.42	143.36	118.43	39.116	6.7397e-06	50.667	0.0007102	0.00071851	0.00020639	1419.3	7.9922e-06	8.2534e-06	1457	383.75	8.011e-06	8.1875e-06	427.81	146.31	121.54	40.525	7.8568e-06	52.216	262.001	167.567	163.122	96.640	246.308	249.478	96.104	101.227	276.719	218.964	100.573	105.917	106.216	110.417	242.009	109.253	-8191	255	
1105.500	1	1	0	0	0.12779	0.053271	0.13486	0.34631	0.21176	0.0738	0.17202	0.12091	0.19095	0.045504	0.070561	0.10907	0.16221	0.28847	0.12685	0.22356	-3.4771	-4.575	-3.7792	-4.2167	-4.3958	-3.7354	-4.5938	-4.4646	-3.5563	-4.6396	-3.9354	-3.9458	-4.675	-3.6208	-4.4958	-4.3875	437.027	303.629	285.687	381.226	386.696	253.533	346.521	401.599	429.519	354.005	346.085	92.467	442.962	391.980	155.607	374.318	0.00065009	0.00029075	0.0001567	1397.6	7.6172e-06	7.6014e-06	1435.7	376.37	6.7573e-06	7.5439e-06	416.47	142.88	119.56	39.194	5.0687e-06	50.754	0.00070565	0.00074336	0.00020501	1422.4	7.9117e-06	7.9135e-06	1458.4	384.87	7.7296e-06	7.9222e-06	427.61	146.19	121.82	40.57	7.8843e-06	52.288	266.077	178.086	202.404	96.495	227.871	245.284	96.479	101.116	281.232	213.952	100.681	105.717	106.222	110.254	252.973	109.217	-8191	255	
1105.598	1	1	0	0	0.29755	0.22364	0.099363	0.14539	0.046994	0.080875	0.15895	0.036596	0.14761	0.14394	0.25134	0.16976	0.13192	0.17226	0.26783	0.2859	-3.2208	-4.4104	-3.9375	-4.0146	-4.6042	-3.6354	-4.5854	-4.5917	-3.6875	-4.4938	-4.0125	-4.025	-4.5042	-3.8521	-4.2937	-4.4958	400.755	155.738	277.965	374.193	111.133	213.471	378.107	86.798	426.631	115.873	359.227	354.574	223.937	388.070	300.958	331.064	0.00062553	0.00035846	0.00014721	1396	6.2949e-06	4.2419e-06	1435.9	375.43	7.6369e-06	5.0046e-06	417.69	142.91	118.66	39.276	6.9976e-06	50.592	0.00070232	0.00070198	0.00020229	1422.3	7.7302e-06	7.9538e-06	1457.1	384.35	7.8772e-06	8.0195e-06	427.61	146.59	121.87	40.644	7.8776e-06	52.204	264.468	167.558	177.320	96.470	250.960	252.374	95.999	100.868	274.750	234.868	100.329	105.384	105.734	109.770	262.794	108.737	-8191	255	
1105.717	1	1	0	0	0.10559	0.20486	0.077925	0.23644	0.26379	0.3127	0.15834	0.094283	0.20244	0.19834	0.14173	0.19977	0.25096	0.13926	0.094578	0.24082	-3.2042	-4.3896	-4.0042	-3.9375	-4.5062	-3.7438	-4.2042	-4.7208	-3.5854	-4.4771	-4.2271	-3.7208	-4.8063	-4.1062	-4.1125	-4.7667	371.636	207.473	265.649	429.577	362.261	400.375	322.828	357.314	112.554	331.282	366.313	325.380	408.253	388.566	384.013	401.587	0.0006665	0.00066378	0.00021416	1391	8.0118e-06	4.4247e-06	1432.3	375.24	8.0833e-06	4.1998e-06	417.36	143.38	119.38	39.308	5.5038e-06	50.542	0.00069864	0.00071835	0.0002048	1419.8	7.704e-06	7.9113e-06	1456.5	383.93	7.905e-06	7.8738e-06	427.74	146.75	122	40.698	7.7679e-06	52.256	261.790	167.963	172.332	96.159	242.075	241.493	95.806	100.343	278.077	211.163	99.940	104.881	105.564	109.413	230.701	108.771	-8191	255	
1105.813	1	1	0	0	0.26027	0.081914	0.037591	0.22021	0.11687	0.064081	0.1965	0.1584	0.049509	0.012438	0.23307	0.1908	0.2223	0.12101	0.19687	0.22689	-3.2958	-4.3979	-4.1479	-3.8104	-4.4417	-3.8125	-4.075	-4.7208	-3.6813	-4.3417	-4.375	-3.8854	-4.675	-3.9917	-3.7708	-4.625	275.150	321.901	359.531	411.579	230.787	244.109	341.255	381.794	388.654	270.559	383.896	387.312	181.828	106.396	308.348	112.168	0.00064648	0.00046765	0.00018991	1390.7	4.7192e-06	6.5324e-06	1435.3	375.46	5.3747e-06	6.0775e-06	417.23	143.25	120.05	39.138	6.1485e-06	50.928	0.00070754	0.00069965	0.00019682	1418.8	7.7845e-06	7.967e-06	1457.1	384.57	7.6204e-06	8.0267e-06	427.81	146.63	122.05	40.665	7.8232e-06	52.385	263.038	186.615	177.461	96.016	231.033	250.499	95.749	100.642	281.664	236.885	100.115	105.122	105.615	109.522	248.240	108.737	-8191	255	
1105.885	1	1	0	0	0.18726	0.11456	0.12207	0.19224	0.071993	0.10306	0.14649	0.18057	0.18802	0.039235	0.14414	0.19291	0.1901	0.21767	0.029362	0.24487	-3.1813	-4.2875	-4.2375	-3.7083	-4.5583	-3.9271	-4.0042	-4.7	-3.7875	-4.1375	-4.6104	-3.7438	-4.6375	-4.1833	-3.6333	-4.5479	308.252	248.705	383.807	387.898	210.691	205.533	362.560	402.602	251.678	233.909	415.965	301.060	94.215	206.467	178.622	368.975	0.00068425	0.00035808	0.00020243	1390.7	5.3926e-06	4.9314e-06	1431.2	374.85	6.2373e-06	4.8836e-06	416.22	143.51	118.17	39.237	5.7598e-06	50.66	0.00070675	0.00071777	0.00019648	1417.8	7.6682e-06	7.6992e-06	1455.6	383.75	7.6803e-06	7.6196e-06	427.73	146.6	121.74	40.596	7.7085e-06	52.319	263.583	171.629	170.549	95.962	245.768	233.818	95.849	100.743	264.961	213.113	100.304	105.137	105.710	109.908	249.286	108.699	-8191	255	
1106.006	1	1	0	0	0.19207	0.15769	0.1077	0.35757	0.13277	0.033535	0.22207	0.17002	0.047218	0.15354	0.11462	0.085026	0.18286	0.064243	0.088081	0.12605	-3.4583	-3.9333	-4.3562	-3.6917	-4.5938	-4.1896	-3.9146	-4.9646	-3.8354	-3.9437	-4.6875	-3.6292	-4.4104	-4.2917	-3.6	-4.7188	412.693	258.060	171.908	404.133	344.164	102.871	398.278	351.590	269.439	371.191	411.085	317.694	245.001	399.732	293.796	389.629	0.00063199	0.00040542	0.00015113	1386.4	6.2465e-06	5.9727e-06	1434.6	374.95	6.9013e-06	4.3685e-06	416.44	143.37	118.76	39.324	3.9028e-06	50.706	0.00069626	0.0007066	0.00019458	1417	7.7308e-06	7.5914e-06	1456.1	384.45	7.6956e-06	7.9571e-06	427.74	146.44	121.81	40.714	7.8507e-06	52.385	260.838	171.546	169.412	96.022	235.012	233.193	95.856	100.776	280.683	252.056	99.981	104.996	105.681	109.632	260.053	108.699	-8191	255	
1106.102	1	1	0	0	0.26096	0.16049	0.24911	0.24151	0.049038	0.082429	0.21509	0.2658	0.070201	0.066354	0.1605	0.20842	0.12493	0.032114	0.14618	0.19158	-3.4396	-3.9833	-4.6687	-4	-4.4167	-4.45	-3.9792	-4.6958	-3.7646	-3.7958	-4.7521	-3.6979	-4.2854	-4.4062	-3.5875	-4.6833	398.315	287.158	88.926	404.977	117.683	355.737	423.453	303.401	130.559	225.521	408.762	395.413	382.894	351.760	229.643	378.358	0.00066393	0.00037716	0.00016217	1393.8	6.4764e-06	5.2905e-06	1437	375.57	5.6846e-06	6.3801e-06	417.16	143.24	119.15	39.45	8.1698e-06	50.83	0.00069687	0.00071156	0.00019459	1419	7.5158e-06	7.7806e-06	1459	384.09	7.5704e-06	7.8306e-06	427.86	146.61	121.98	40.74	7.7011e-06	52.472	263.238	163.429	174.193	95.948	250.416	244.024	95.799	100.983	272.707	239.232	100.320	105.109	106.032	109.689	258.667	108.569	-8191	255	
1106.198	1	1	0	0	0.087076	0.17096	0.14321	0.22683	0.075828	0.11668	0.21225	0.13315	0.069159	0.070828	0.44295	0.095368	0.096745	0.02805	0.10773	0.15333	-3.8604	-3.7229	-4.5083	-3.8104	-4.1979	-4.3667	-3.8792	-4.6521	-4.1167	-3.6979	-4.8604	-3.7958	-4.1875	-4.6438	-3.5375	-4.5854	374.566	365.588	362.942	109.109	387.537	407.697	396.094	381.892	255.533	225.970	392.311	187.059	412.395	418.371	108.781	375.143	0.0006453	0.00040625	0.00015277	1390.3	5.3508e-06	6.4904e-06	1433.8	375.08	7.0226e-06	5.0166e-06	418.57	143.52	119.18	39.303	7.0601e-06	50.883	0.00069517	0.00069776	0.00019534	1419	7.5616e-06	7.862e-06	1456.5	384.26	7.3402e-06	7.9514e-06	428.32	146.61	121.88	40.67	7.9688e-06	52.465	265.023	189.565	181.555	96.127	249.706	221.361	95.730	100.756	273.390	248.499	100.092	105.083	105.779	109.863	232.516	108.653	-8191	255	
1106.319	1	1	0	0	0.17656	0.20457	0.12767	0.030389	0.094855	0.014432	0.23949	0.33774	0.19117	0.047712	0.25206	0.26117	0.049129	0.13307	0.12854	0.079129	-3.8229	-3.6958	-4.7229	-3.9833	-4.1146	-4.5312	-3.9292	-4.5646	-4.3083	-3.5875	-4.7604	-4.0833	-4.0146	-4.8396	-3.7062	-4.4729	355.396	309.111	385.392	412.866	423.539	208.394	397.561	366.226	135.180	359.140	275.016	438.356	104.183	402.018	270.285	320.829	0.00062	0.00053941	0.00015824	1387.2	6.3281e-06	6.9181e-06	1430.5	375.92	7.4395e-06	4.7874e-06	415.61	142.94	118.72	39.29	6.3335e-06	50.872	0.00068631	0.00071082	0.0001997	1416.5	7.8952e-06	7.7499e-06	1455	384.51	7.4571e-06	7.788e-06	426.84	146.63	121.87	40.734	7.7648e-06	52.482	265.420	169.245	183.845	95.880	246.288	233.758	96.007	100.918	272.407	223.183	100.397	105.249	105.985	109.870	255.951	108.834	-8191	255	
1106.415	1	1	0	0	0.29146	0.11638	0.2555	0.034468	0.21065	0.16296	0.23471	0.20968	0.016163	0.1249	0.10849	0.291	0.095147	0.24233	0.24948	0.17974	-3.9021	-3.7062	-4.5813	-4.1333	-3.9229	-4.4688	-3.8833	-4.425	-4.4229	-3.6729	-4.7604	-4.1604	-4.0813	-4.7208	-3.6792	-4.3125	87.270	105.576	229.118	87.573	207.487	146.184	367.880	425.322	225.702	260.801	99.089	428.658	249.220	409.598	321.291	388.314	0.00065977	0.00038344	0.00014241	1388.2	5.517e-06	3.7947e-06	1429.8	376.12	5.7967e-06	4.365e-06	419.29	143.98	119	39.28	6.3409e-06	50.914	0.00069013	0.00070535	0.00019704	1417.7	7.7504e-06	7.5871e-06	1454.1	383.85	7.5682e-06	7.9698e-06	428.56	146.73	121.92	40.735	7.6689e-06	52.46	264.167	188.672	178.392	96.120	243.915	225.999	96.118	101.093	269.278	230.538	100.436	105.161	105.971	110.112	252.348	109.219	-8191	255	
1106.486	1	1	0	0	0.052612	0.17054	0.29759	0.2769	0.074545	0.088898	0.1371	0.23968	0.11505	0.25466	0.015352	0.17998	0.15759	0.020738	0.28409	0.26859	-4.175	-3.6875	-4.5	-4.3958	-3.75	-4.6833	-4.0729	-4.2438	-4.5083	-3.5062	-4.5437	-4.3104	-3.8583	-4.8187	-3.9792	-4.0542	126.614	86.160	99.680	388.110	127.133	328.785	394.487	318.692	324.036	220.887	168.231	399.391	405.470	380.281	242.435	350.332	0.00065127	0.00047814	0.00014978	1388.9	6.8472e-06	4.2639e-06	1429.5	376.79	6.852e-06	5.5932e-06	417.86	143.28	118.72	39.316	5.616e-06	50.817	0.0006846	0.0007156	0.00019504	1417.4	7.707e-06	7.7099e-06	1453.3	384.43	7.2534e-06	7.9398e-06	428.25	146.72	121.75	40.777	7.7196e-06	52.48	263.444	157.912	191.151	96.555	239.984	234.833	96.192	101.253	276.999	241.662	100.631	105.276	106.169	110.075	259.519	109.112	-8191	255	
1106.605	1	1	0	0	0.1131	0.18597	0.062492	0.21581	0.14646	0.29812	0.071898	0.10192	0.17867	0.12828	0.2933	0.097242	0.081407	0.14944	0.040955	0.22072	-4.1958	-3.6063	-4.3187	-4.3792	-3.5479	-4.5167	-4.0042	-4.1188	-4.5833	-3.5729	-4.4646	-4.5125	-3.625	-4.6792	-3.825	-3.9208	291.649	165.187	87.102	104.848	120.154	176.133	118.912	416.475	388.394	248.218	440.114	324.843	329.048	318.926	364.480	329.374	0.00064239	0.00015417	0.00016159	1388.2	7.344e-06	6.3592e-06	1433.9	376.03	5.3757e-06	4.9518e-06	416.29	143.46	118.6	39.431	7.0087e-06	50.743	0.00066835	0.00070045	0.00019584	1416.1	7.8269e-06	7.7049e-06	1455.7	384.6	7.369e-06	7.9178e-06	427.63	146.74	121.87	40.788	7.8282e-06	52.386	264.971	167.154	178.757	96.347	243.340	229.081	96.282	101.188	278.510	228.392	100.828	105.346	106.222	110.333	262.181	109.234	-8191	255	
1106.701	1	1	0	0	0.11491	0.10959	0.20542	0.47854	0.063325	0.058419	0.37105	0.12294	0.1391	0.1589	0.13792	0.21868	0.095301	0.075209	0.089344	0.24726	-4.2292	-3.7021	-4.3021	-4.6188	-3.7375	-4.4208	-4.3292	-3.9062	-4.7042	-3.7938	-4.4625	-4.5062	-3.6354	-4.5396	-4.0625	-3.8271	160.096	100.812	353.940	414.798	329.248	91.125	398.470	276.199	190.020	384.314	383.596	387.747	179.793	127.305	181.026	356.157	0.00065336	0.00024348	0.00017604	1393.1	6.7371e-06	4.6378e-06	1436.7	376.36	7.474e-06	4.0545e-06	419.49	144.03	118.96	39.323	7.5483e-06	50.719	0.00068084	0.00072549	0.0002001	1418.5	7.8849e-06	7.9963e-06	1457.7	385.06	7.6422e-06	8.0729e-06	428.21	146.94	121.79	40.733	7.5901e-06	52.378	265.886	142.637	185.926	96.359	245.394	195.986	96.134	101.436	286.417	259.075	100.757	105.396	106.343	110.357	247.578	109.415	-8191	255	
1106.798	1	1	0	0	0.05594	0.1748	0.21035	0.20649	0.28843	0.092315	0.27079	0.086426	0.051243	0.026133	0.032049	0.272	0.038208	0.17502	0.15287	0.18542	-4.2583	-3.5979	-3.9417	-4.5854	-3.7083	-4.4354	-4.4021	-3.9646	-4.7625	-3.7875	-4.1188	-4.5979	-3.5854	-4.4167	-4.3354	-3.8542	302.958	264.149	409.353	412.332	364.465	160.139	344.174	296.091	202.478	154.782	136.076	395.574	393.298	256.692	438.500	393.690	0.00063213	0.00045921	8.7184e-05	1387.3	6.4828e-06	6.2886e-06	1429.6	376.08	6.2271e-06	4.3247e-06	418.46	143.82	118.66	39.226	5.1006e-06	50.73	0.0006848	0.00071226	0.00019349	1416.5	7.5672e-06	7.4089e-06	1454.1	384.1	7.2938e-06	7.8107e-06	427.67	146.47	121.79	40.686	7.6357e-06	52.305	260.362	180.949	178.613	96.214	238.521	226.492	95.729	100.792	281.075	197.711	100.073	105.062	105.679	109.921	262.462	108.932	-8191	255	
1106.894	1	1	0	0	0.14318	0.1618	0.22606	0.05152	0.22276	0.23048	0.15362	0.38151	0.025218	0.19887	0.2537	0.052884	0.10418	0.20608	0.27888	0.22956	-4.1729	-3.9792	-3.9125	-4.7167	-3.6292	-4.3396	-4.5542	-3.8896	-4.6417	-4.0333	-4.0417	-4.6292	-3.8625	-4.3938	-4.6646	-3.875	142.137	146.727	236.569	386.187	289.926	125.067	394.846	409.122	389.924	165.454	428.416	83.653	91.994	378.504	436.543	125.526	0.00068767	0.00045376	0.00012576	1390.5	5.539e-06	4.7711e-06	1432.2	376.4	7.3771e-06	3.8593e-06	417.28	143.15	118.2	39.383	6.3861e-06	50.808	0.00069623	0.00070634	0.00019545	1415.4	7.7275e-06	7.6032e-06	1453.1	383.8	7.5128e-06	8.0772e-06	427.45	146.58	121.56	40.756	7.7487e-06	52.33	262.569	169.074	171.738	96.073	248.465	258.176	95.778	100.791	281.998	259.400	100.355	105.285	105.580	110.003	246.895	108.898	-8191	255	
1107.014	1	1	0	0	0.27068	0.20388	0.060317	0.34972	0.14889	0.090589	0.050103	0.28867	0.25049	0.18102	0.024133	0.12	0.07338	0.25013	0.099433	0.10048	-4.1125	-4.1458	-3.7062	-4.7167	-3.7583	-3.9813	-4.7271	-3.775	-4.4604	-4.1396	-3.675	-4.6479	-3.8354	-4.1521	-4.3896	-3.5833	386.789	399.731	220.412	94.380	371.421	287.932	140.109	413.504	299.109	99.112	420.561	366.080	295.328	390.799	233.566	442.163	0.00065801	0.00065838	0.00014069	1389.2	7.9706e-06	4.1221e-06	1433.9	374.68	7.1705e-06	5.3662e-06	419.33	143.48	118.69	39.507	6.4207e-06	50.803	0.00069791	0.00070246	0.00020126	1416.4	7.915e-06	7.8303e-06	1452.9	383.61	7.6127e-06	7.8096e-06	427.86	146.78	121.9	40.823	7.583e-06	52.391	261.295	181.067	191.058	96.288	254.746	240.924	95.905	100.948	281.995	236.975	100.301	105.053	105.780	109.776	267.386	108.988	-8191	255	
1107.111	1	1	0	0	0.18608	0.33633	0.051589	0.11284	0.12395	0.085047	0.12309	0.084127	0.22767	0.060055	0.32928	0.31229	0.013821	0.092548	0.086532	0.26633	-3.9979	-4.0979	-3.3458	-4.7479	-3.8167	-3.9979	-4.7896	-3.8104	-4.4021	-4.4458	-3.8771	-4.7	-4.0146	-3.9583	-4.5104	-3.9125	289.594	403.496	241.767	147.267	354.023	101.627	368.541	313.524	367.493	340.154	351.124	91.225	235.860	295.405	181.510	427.984	0.00067049	0.00041324	0.00017289	1394.7	4.9451e-06	4.4627e-06	1428.5	374.89	7.2975e-06	4.7833e-06	416.62	143.25	118.07	39.287	7.2659e-06	50.67	0.00070791	0.00071713	0.00020554	1417.6	7.8806e-06	7.8488e-06	1454.6	383.76	7.7565e-06	7.9488e-06	426.71	146.47	121.45	40.617	7.6488e-06	52.312	260.975	168.217	155.780	96.287	250.664	240.963	96.177	101.298	261.787	224.065	100.868	105.753	106.476	110.325	247.117	109.338	-8191	255	
1107.182	1	1	0	0	0.073343	0.074026	0.095796	0.15299	0.16983	0.19471	0.047942	0.25216	0.16206	0.10056	0.18387	0.30838	0.1608	0.024457	0.13308	0.22535	-3.9354	-4.3354	-3.6437	-4.8479	-4.0021	-3.7375	-4.8708	-3.8125	-4.0813	-4.5396	-3.7333	-4.5271	-4.1125	-3.9708	-4.4667	-3.9854	227.775	347.934	346.912	92.010	193.127	103.442	351.008	368.985	230.183	393.423	418.937	100.296	102.909	231.823	231.182	106.834	0.00065499	0.00050432	0.00014497	1390.9	6.1202e-06	6.6769e-06	1425.2	375.39	6.8559e-06	4.8102e-06	415.44	142.98	118.83	39.157	6.9235e-06	50.644	0.0006917	0.0007156	0.00020283	1416.9	7.6914e-06	7.8178e-06	1451.4	383.53	7.5214e-06	7.8789e-06	426.03	146.43	121.6	40.628	7.6806e-06	52.201	262.619	180.194	172.964	96.316	254.333	252.189	95.924	100.883	281.902	231.979	100.667	105.411	105.695	110.413	252.279	109.126	-8191	255	
1107.278	1	1	0	0	0.20958	0.023328	0.096353	0.31702	0.18494	0.11259	0.26889	0.23002	0.1162	0.22241	0.39537	0.09197	0.27348	0.23882	0.11012	0.23091	-3.8312	-4.2396	-3.6146	-4.5208	-4.1417	-3.7812	-4.9688	-4.0208	-4.0437	-4.4708	-3.7354	-4.4521	-4.2479	-3.8979	-4.5167	-3.9729	195.650	254.419	279.473	100.404	403.098	280.514	356.854	403.579	289.926	265.453	397.791	330.109	108.667	347.325	109.364	118.850	0.00062792	0.00072513	0.00014213	1384.4	5.5029e-06	8.6987e-06	1425.9	375.81	5.9876e-06	4.6966e-06	414.84	143.04	118.06	39.202	7.4694e-06	50.435	0.00068697	0.0007048	0.00020429	1412.9	7.6096e-06	7.9695e-06	1448.7	383.24	7.5234e-06	7.7992e-06	426.2	146.16	121.21	40.597	7.581e-06	52.058	262.119	178.191	198.194	96.629	264.654	240.574	96.366	101.588	279.621	223.533	100.910	105.788	106.169	110.473	252.701	109.210	-8191	255	
1107.397	1	1	0	0	0.084098	0.11412	0.19592	0.047628	0.12144	0.040258	0.30969	0.17828	0.24937	0.13292	0.21863	0.11259	0.14215	0.20059	0.02661	0.32507	-3.6917	-4.5354	-3.7521	-4.5	-4.3375	-3.625	-4.8083	-4.1813	-3.9313	-4.6312	-3.9021	-4.2271	-4.4833	-3.7521	-4.4833	-4.1771	153.586	319.816	156.402	423.853	236.839	323.911	389.195	406.647	296.399	94.856	435.696	109.058	304.389	385.863	268.512	365.078	0.00067273	0.00049742	0.00014504	1388.2	7.2815e-06	4.7843e-06	1430.3	374.77	6.2224e-06	3.8425e-06	416.62	142.86	118.26	39.227	6.0993e-06	50.548	0.00069438	0.00069042	0.00020255	1412.4	7.8143e-06	7.8442e-06	1450.7	382.79	7.6671e-06	7.6791e-06	426.26	146.09	121.39	40.62	7.8541e-06	52.178	263.631	174.105	170.048	96.716	255.637	235.471	96.263	101.155	274.102	255.219	100.638	105.458	105.986	110.222	248.964	109.368	-8191	255	
1107.493	1	1	0	0	0.085735	0.2528	0.16687	0.094365	0.031638	0.14044	0.042328	0.32711	0.094734	0.13748	0.10075	0.25915	0.044226	0.5498	0.2876	0.1618	-3.6104	-4.5208	-3.7604	-4.3042	-4.4604	-3.7188	-4.7667	-4.375	-3.6771	-4.7521	-4.0375	-4.2937	-4.55	-3.7604	-4.4125	-4.4396	325.837	169.351	432.271	422.321	115.837	257.338	430.448	424.777	224.711	398.994	90.595	385.120	280.664	97.626	425.432	434.481	0.00065538	0.00030812	0.00016432	1389.2	6.7313e-06	4.7456e-06	1431.3	375.15	6.9619e-06	5.2252e-06	416.57	143.38	118.82	39.229	5.6415e-06	50.725	0.00070458	0.00071803	0.00019643	1417.2	7.9303e-06	8.0988e-06	1451.4	383.46	7.8384e-06	7.9964e-06	426.87	146.46	121.58	40.653	7.7048e-06	52.309	262.858	172.400	183.078	96.431	257.467	238.714	96.292	101.448	278.318	208.360	100.777	105.533	106.311	110.131	259.350	108.950	-8191	255	
1107.590	1	1	0	0	0.010103	0.13915	0.23263	0.069829	0.14804	0.24556	0.31025	0.26917	0.20584	0.2674	0.18854	0.15362	0.17877	0.19388	0.061776	0.086337	-3.5062	-4.6854	-3.9	-4.0917	-4.575	-3.6917	-4.6792	-4.2854	-3.4417	-4.5583	-3.95	-4.0938	-4.7604	-3.8083	-4.2208	-4.5021	312.255	158.181	398.676	434.490	294.231	384.968	418.339	414.102	240.504	267.447	410.153	99.762	183.608	97.864	253.258	429.938	0.00068615	0.00037538	0.00013902	1388.5	6.782e-06	4.959e-06	1427.7	376.23	5.1834e-06	5.0344e-06	417.18	143.25	118.85	39.274	4.5813e-06	50.688	0.00072095	0.00070451	0.00020651	1417.3	7.8233e-06	8.283e-06	1453.5	383.88	7.8391e-06	8.022e-06	427.64	146.38	121.65	40.648	8.1e-06	52.245	261.876	167.061	178.140	96.680	254.527	275.240	95.608	100.412	273.517	222.100	99.736	105.304	105.581	109.772	254.935	108.345	-8191	255	
1107.686	1	1	0	0	0.18373	0.12647	0.13763	0.045902	0.071714	0.069704	0.19838	0.1037	0.021724	0.092658	0.17419	0.069742	0.13443	0.12647	0.12571	0.12906	-3.2979	-4.5854	-4.0146	-4.1167	-4.6188	-3.8	-4.4292	-4.375	-3.6625	-4.4896	-4.125	-3.9688	-4.8187	-3.6937	-4.1417	-4.7104	92.529	248.946	186.575	351.692	382.814	354.308	356.217	342.047	385.266	210.909	417.665	292.584	441.950	369.944	113.081	407.502	0.00066094	0.00057497	0.00016171	1390.1	8.1962e-06	3.4747e-06	1427.1	376.53	5.8088e-06	4.0282e-06	418	143.17	118.49	39.324	7.3635e-06	50.737	0.00071957	0.00073654	0.00020551	1414.8	8.0214e-06	7.9877e-06	1451.9	384.35	8.0552e-06	8.2193e-06	427.7	146.52	121.5	40.682	8.0829e-06	52.247	266.597	169.738	185.591	95.649	240.493	248.282	95.644	100.523	273.374	232.256	99.984	105.012	105.604	109.756	255.946	108.452	-8191	255	
1107.782	1	1	0	0	0.061609	0.14426	0.11072	0.26268	0.072291	0.055035	0.32366	0.23534	0.19582	0.13402	0.24769	0.1022	0.30507	0.18463	0.086535	0.018316	-3.1896	-4.5458	-4.1354	-3.8958	-4.6354	-3.9271	-4.2917	-4.5833	-3.6292	-4.5396	-4.2812	-3.8583	-4.5521	-3.8521	-4.0604	-4.6458	284.852	311.288	411.587	422.812	194.246	116.117	354.221	94.006	198.338	249.517	405.133	245.140	354.402	410.505	384.827	128.169	0.00065164	0.00041876	0.00015791	1390.2	5.3277e-06	6.4625e-06	1431.7	375.65	8.0669e-06	4.8762e-06	417.16	142.38	118.95	39.24	6.4479e-06	50.677	0.0007319	0.00075368	0.00020639	1418.4	8.1688e-06	8.4048e-06	1453.2	384.47	8.1734e-06	8.2723e-06	427.36	146.28	121.84	40.633	8.4042e-06	52.24	264.251	183.058	186.924	95.898	237.091	256.099	95.624	100.630	267.099	216.509	100.006	104.958	105.331	109.471	248.720	108.205	-8191	255	
1107.878	1	1	0	0	0.21864	0.22231	0.085701	0.22205	0.13006	0.22791	0.12216	0.083213	0.15173	0.14977	0.19192	0.11712	0.096523	0.12272	0.10264	0.084462	-3.2479	-4.475	-4.3542	-3.7625	-4.4646	-3.8708	-4.0938	-4.7542	-3.7208	-4.1896	-4.2958	-3.5417	-4.675	-4.0479	-3.7979	-4.6896	428.300	400.366	135.189	357.510	128.577	193.943	329.013	315.180	98.175	278.832	372.626	147.197	431.194	324.698	145.720	412.574	0.00067512	0.00044132	0.00017734	1388.1	8.6421e-06	2.8745e-06	1428.4	375.54	7.1649e-06	5.7088e-06	418.03	143.04	118.72	39.297	7.0692e-06	50.665	0.00073802	0.00075489	0.00021153	1415.5	8.1029e-06	8.1388e-06	1452.9	384.28	8.0434e-06	8.6441e-06	427.84	146.48	121.73	40.695	8.103e-06	52.212	263.554	179.792	183.186	95.808	242.242	249.205	95.660	100.511	280.988	236.542	99.802	104.755	105.287	109.292	265.975	108.327	-8191	255	
1107.999	1	1	0	0	0.08523	0.19883	0.062849	0.24132	0.054002	0.13201	0.13883	0.39662	0.084323	0.18726	0.17211	0.1266	0.15219	0.17636	0.27037	0.15468	-3.4562	-4.2688	-4.4083	-3.7625	-4.6312	-3.9417	-4.1292	-4.7854	-3.5563	-4.2167	-4.6917	-3.6229	-4.5542	-4.3083	-3.7333	-4.6771	91.414	108.016	141.548	385.677	159.840	341.716	408.711	410.138	206.439	204.409	88.940	344.224	198.479	368.087	276.160	396.248	0.00063801	0.00054593	0.00014913	1387.8	7.5539e-06	5.3203e-06	1428.4	375.59	6.3209e-06	4.8143e-06	417	142.98	118.6	39.235	7.9783e-06	50.671	0.00072271	0.00075774	0.00021385	1416.1	8.1926e-06	8.2141e-06	1452.7	384.39	8.1253e-06	8.4115e-06	428.33	146.44	121.86	40.645	8.1422e-06	52.285	265.772	152.853	153.082	95.681	240.414	233.884	95.670	100.443	267.236	213.569	99.700	104.755	105.623	109.389	257.413	108.516	-8191	255	
1108.095	1	1	0	0	0.27617	0.097152	0.13916	0.33775	0.077174	0.063049	0.14292	0.24419	0.16468	0.20999	0.12246	0.042459	0.023221	0.3352	0.15414	0.071376	-3.4333	-3.975	-4.5646	-3.7979	-4.5	-4.2833	-3.8604	-4.8354	-3.9146	-3.8271	-4.6021	-3.7271	-4.4167	-4.3063	-3.6583	-4.6125	367.120	123.534	293.319	422.466	170.466	285.750	375.275	84.828	327.108	283.700	370.548	330.055	212.527	422.652	183.570	359.489	0.00065962	0.00058444	0.00019114	1388	5.3534e-06	3.7701e-06	1426.9	375.07	4.7856e-06	5.3808e-06	415.89	143.16	118.88	39.239	6.9989e-06	50.508	0.00073514	0.00074711	0.00020802	1415.9	7.9571e-06	8.0549e-06	1453.9	384.19	8.1007e-06	8.5269e-06	427.32	146.3	121.8	40.736	8.1533e-06	52.236	262.630	168.180	159.846	95.685	243.272	266.140	95.529	100.225	284.670	250.814	99.757	104.579	105.767	109.582	252.842	108.357	-8191	255	
1108.191	1	1	0	0	0.086313	0.19447	0.10295	0.17947	0.13897	0.1595	0.23713	0.18608	0.1162	0.16134	0.21159	0.12649	0.034322	0.041455	0.25217	0.15585	-3.625	-3.8875	-4.4313	-3.7167	-4.2396	-4.5417	-3.8417	-4.5854	-3.8937	-3.8187	-4.5938	-3.7062	-4.2396	-4.3646	-3.5667	-4.5125	204.143	243.424	271.687	376.173	352.581	190.400	429.466	373.973	91.840	117.701	102.200	301.516	199.543	164.969	171.427	385.276	0.00066208	0.00034124	0.00015434	1387	7.3623e-06	3.6459e-06	1430.5	376.22	5.4384e-06	5.9518e-06	417.3	142.88	119.31	39.334	7.5231e-06	50.553	0.0007175	0.00072985	0.00020443	1415	8.0724e-06	8.213e-06	1452.9	384.62	8.0085e-06	8.3981e-06	428.2	146.3	121.8	40.66	8.1087e-06	52.253	265.211	146.502	171.930	95.641	245.841	187.192	95.666	100.778	275.825	218.354	100.026	104.862	105.365	109.561	246.732	108.758	-8191	255	
1108.287	1	1	0	0	0.11622	0.28437	0.11996	0.23179	0.038239	0.064175	0.25331	0.17844	0.1181	0.26924	0.11244	0.05505	0.21793	0.11561	0.38717	0.30711	-3.6458	-3.6667	-4.625	-3.7521	-4.0896	-4.3833	-3.7	-4.55	-4.0917	-3.7667	-4.7312	-3.875	-4.0667	-4.6854	-3.5771	-4.5062	260.032	329.170	196.555	86.291	109.215	401.192	322.040	375.622	249.880	89.619	343.489	260.506	353.355	139.298	107.387	335.130	0.00063712	0.00041925	0.00012695	1386.9	9.9988e-06	3.5793e-06	1423.8	376.41	7.5387e-06	4.3786e-06	419.03	143.41	119.19	39.161	6.986e-06	50.656	0.00071916	0.00075739	0.00020719	1414.4	8.0846e-06	7.852e-06	1450.5	384.66	7.8653e-06	8.4677e-06	428.08	146.42	122.01	40.638	8.0496e-06	52.287	260.504	184.085	167.156	95.793	245.259	257.366	95.628	100.883	268.689	238.595	100.098	104.650	105.669	109.429	255.404	108.582	-8191	255	
1108.408	1	1	0	0	0.11861	0.041464	0.27809	0.0846	0.053008	0.077086	0.13398	0.076304	0.29034	0.040062	0.224	0.2459	0.11649	0.15805	0.25545	0.28893	-3.8812	-3.6958	-4.6687	-3.9813	-3.8937	-4.5146	-3.8812	-4.4792	-4.3562	-3.7938	-4.65	-3.9854	-3.9437	-4.5208	-3.6333	-4.3375	219.633	154.169	128.475	167.065	342.531	208.387	112.595	334.301	391.051	392.688	434.455	374.112	103.614	304.781	406.217	339.414	0.00064093	0.00042311	0.00018866	1386	4.5317e-06	5.2193e-06	1431.4	376.8	5.5623e-06	5.4532e-06	417.96	142.33	119.05	39.354	6.9195e-06	50.83	0.00070658	0.00076447	0.00020596	1416.1	8.3228e-06	8.3212e-06	1453.7	385.05	8.0606e-06	8.2892e-06	428.62	146.33	121.96	40.746	8.1291e-06	52.335	263.953	168.989	160.552	95.939	233.068	254.944	95.753	100.554	267.253	217.870	100.269	105.051	105.690	109.850	253.457	108.672	-8191	255	
1108.479	1	1	0	0	0.14216	0.11951	0.064411	0.31309	0.051803	0.10768	0.38044	0.089471	0.17555	0.18345	0.096942	0.12427	0.17721	0.29396	0.24306	0.25991	-4.0479	-3.5958	-4.5312	-4.2771	-3.8333	-4.6625	-3.8354	-4.3708	-4.4896	-3.6437	-4.6583	-4.2208	-3.7583	-4.6396	-3.6521	-4.2833	440.793	258.785	95.083	390.882	399.939	186.154	350.034	347.815	428.159	306.416	178.223	409.339	147.714	425.895	431.294	422.699	0.00064094	0.00053762	0.00018426	1388.2	6.3847e-06	4.2559e-06	1431.6	376.53	6.979e-06	6.3197e-06	419.54	142.56	118.7	39.249	6.8637e-06	50.955	0.00071218	0.00078276	0.00021171	1416.4	8.2152e-06	8.2494e-06	1454.3	384.94	8.0639e-06	8.5265e-06	428.72	146.16	121.91	40.731	8.1848e-06	52.427	263.682	173.046	175.398	95.820	251.902	237.729	95.637	100.673	274.796	235.260	100.247	104.907	105.590	109.806	251.832	108.588	-8191	255	
1108.574	1	1	0	0	0.11219	0.20685	0.061637	0.12998	0.24187	0.24937	0.13247	0.34223	0.16579	0.067275	0.21789	0.17012	0.24326	0.15296	0.055394	0.15554	-4.0104	-3.575	-4.4146	-4.3	-3.7021	-4.6271	-4.0125	-4.1562	-4.4896	-3.4792	-4.4479	-4.2417	-3.6479	-4.8833	-3.7979	-3.9562	173.617	180.095	412.089	295.771	323.977	203.698	442.669	371.775	428.662	331.673	398.282	129.053	378.958	427.898	92.812	404.861	0.00066067	0.00057512	0.00015018	1392.3	5.6155e-06	4.4485e-06	1433.2	375.7	5.4936e-06	3.9984e-06	418.13	143.05	119.06	39.47	6.051e-06	50.65	0.00072032	0.00075742	0.00020657	1418.8	8.3066e-06	8.3237e-06	1455.3	384.67	7.8929e-06	8.4634e-06	428.43	146.61	121.87	40.747	8.3106e-06	52.399	266.023	172.918	171.503	95.790	269.986	232.752	95.615	100.812	275.328	232.851	100.272	104.897	105.674	109.915	239.123	108.852	-8191	255	
1108.694	1	1	0	0	0.26696	0.19676	0.16457	0.035024	0.19244	0.088956	0.37045	0.21101	0.062362	0.030124	0.20099	0.011991	0.1405	0.15791	0.18844	0.30057	-4.2917	-3.7396	-4.3438	-4.4604	-3.4208	-4.6021	-4.1729	-3.9104	-4.6167	-3.6542	-4.4812	-4.4792	-3.5438	-4.7542	-4.1625	-4.0125	391.918	288.729	358.229	319.821	182.486	156.017	399.761	419.353	161.034	319.975	360.248	404.763	223.045	424.158	189.297	430.178	0.00061957	0.0005768	9.5105e-05	1389.1	8.3175e-06	6.2934e-06	1430.7	377.37	7.2843e-06	5.2351e-06	417.16	143.25	118.76	39.283	6.512e-06	50.908	0.00070711	0.00077145	0.00020696	1418.6	8.4315e-06	8.4701e-06	1455	385.47	7.9242e-06	8.4807e-06	428.14	146.84	121.98	40.792	8.2305e-06	52.436	260.782	187.164	149.377	96.114	249.126	250.880	95.840	101.028	273.653	230.661	100.437	105.183	105.945	109.774	259.187	108.981	-8191	255	
1108.791	1	1	0	0	0.28747	0.047543	0.12225	0.18637	0.13935	0.12985	0.042379	0.37121	0.0083055	0.13717	0.056676	0.067312	0.26343	0.27981	0.20403	0.11204	-4.2021	-3.5375	-4.2396	-4.5542	-3.7188	-4.5375	-4.2083	-4.0938	-4.6146	-3.6521	-4.2896	-4.7229	-3.6708	-4.4313	-4.2333	-3.8042	310.430	305.721	243.339	369.950	226.252	296.640	362.184	427.859	412.897	202.747	264.111	119.131	391.223	99.079	174.337	139.359	0.00066223	0.00049896	0.00018977	1394.4	6.3281e-06	5.3529e-06	1432.9	377.45	5.4873e-06	5.5746e-06	418.21	143.96	119.44	39.32	4.8966e-06	50.494	0.00073257	0.00076172	0.00020648	1418.8	8.1602e-06	8.3476e-06	1455.6	385.09	8.1417e-06	8.6037e-06	428.67	146.72	121.96	40.747	8.1469e-06	52.316	262.997	181.229	171.347	96.353	266.572	238.901	95.994	101.048	251.841	229.134	100.424	105.459	105.672	109.827	258.187	108.929	-8191	255	
1108.887	1	1	0	0	0.094938	0.22328	0.054237	0.066534	0.34269	0.12821	0.31279	0.15299	0.25471	0.086964	0.4045	0.04943	0.10478	0.24463	0.10199	0.095255	-4.3104	-3.8854	-3.9417	-4.7792	-3.6625	-4.3271	-4.3979	-3.8021	-4.4958	-3.8854	-3.9479	-4.65	-3.7021	-4.5062	-4.2375	-3.7708	123.384	137.575	399.001	396.272	284.784	226.270	414.206	405.281	356.316	284.765	371.735	292.119	430.107	412.775	173.109	436.135	0.00065975	0.00040835	0.00017156	1396.5	6.697e-06	6.9335e-06	1432.5	376.78	7.4251e-06	7.057e-06	419.19	143.39	119.1	39.369	6.655e-06	50.706	0.00072355	0.00076565	0.0002108	1419.9	8.2304e-06	8.4623e-06	1456.9	385.04	8.084e-06	8.3621e-06	429.12	146.59	122.12	40.821	8.1583e-06	52.362	264.614	166.135	196.932	96.109	238.940	236.211	95.644	100.705	275.907	252.437	100.072	104.997	105.500	109.469	266.561	108.426	-8191	255	
1108.983	1	1	0	0	0.09697	0.096436	0.029916	0.13573	0.019579	0.085808	0.42631	0.20685	0.11501	0.04968	0.21237	0.032549	0.040917	0.090832	0.13169	0.081624	-4.3938	-3.7875	-3.8937	-4.7562	-3.725	-4.1354	-4.7729	-3.8312	-4.5062	-4	-3.8917	-4.7354	-3.7458	-4.2688	-4.4917	-3.7167	262.430	259.023	312.922	86.980	248.649	224.308	401.897	111.585	340.840	409.013	356.328	362.488	276.651	379.838	86.153	322.476	0.00066709	0.00046111	8.8427e-05	1393.8	7.1843e-06	4.5085e-06	1433.6	377.92	6.5001e-06	6.1672e-06	418.35	143.54	118.66	39.376	7.051e-06	50.456	0.00072504	0.00077837	0.0002106	1418.7	8.1188e-06	8.3944e-06	1456.9	385.59	8.0062e-06	8.2225e-06	428.45	146.71	121.92	40.817	8.2841e-06	52.322	261.623	172.454	177.553	96.113	240.137	238.935	95.695	100.731	271.416	222.245	100.244	105.157	105.579	109.789	237.751	108.526	-8191	255	
1109.079	1	1	0	0	0.13874	0.1234	0.097654	0.070509	0.21595	0.045722	0.27054	0.15303	0.14037	0.033091	0.21951	0.12789	0.01529	0.1549	0.084409	0.38914	-4.0667	-4.0875	-3.7667	-4.6854	-3.8583	-3.9292	-4.8667	-3.9562	-4.3125	-4.1562	-3.9583	-4.775	-3.9062	-4.0979	-4.4229	-3.8021	374.182	242.308	223.420	171.862	189.893	320.147	359.531	352.484	330.398	187.956	398.668	166.365	376.906	223.355	416.576	323.867	0.00066798	0.00063302	0.00019394	1391.6	5.6738e-06	7.9237e-06	1430.5	377.67	6.0346e-06	5.8132e-06	417.44	143.08	119.61	39.414	7.2931e-06	50.914	0.00072204	0.00076287	0.00021376	1418.8	8.3984e-06	8.4626e-06	1454.4	385.73	7.9774e-06	8.4605e-06	428.42	146.72	122.27	40.848	8.3368e-06	52.414	262.937	175.774	178.880	96.166	236.995	236.995	95.855	100.832	274.174	229.267	100.107	104.796	105.367	109.695	269.946	108.401	-8191	255	
1109.175	1	1	0	0	0.176	0.13862	0.22198	0.10977	0.21041	0.080659	0.091789	0.15445	0.11658	0.29133	0.1571	0.14053	0.17798	0.20555	0.12235	0.1055	-4.15	-4.3625	-3.7938	-4.8896	-3.8979	-4.0292	-4.9292	-4.0729	-4.1979	-4.4479	-3.775	-4.7854	-3.9792	-4.0437	-4.6292	-3.8042	159.016	386.517	271.386	345.070	368.768	162.862	421.864	397.916	435.302	270.049	419.740	433.598	332.270	398.408	250.442	398.946	0.00065234	0.00059629	0.00012448	1398.9	7.1253e-06	5.4781e-06	1432.7	377.05	5.5996e-06	4.0599e-06	418.24	143.45	119.57	39.49	4.6757e-06	50.823	0.00073557	0.00077212	0.00021128	1422.4	8.2516e-06	8.5865e-06	1457.5	386.02	8.0792e-06	8.154e-06	429.41	147.01	122.44	40.928	8.0849e-06	52.483	265.081	183.823	178.310	96.035	260.582	253.837	95.666	100.797	280.992	216.208	99.876	105.054	105.531	109.612	228.326	108.618	-8191	255	
1109.271	1	1	0	0	0.12914	0.1276	0.1294	0.29033	0.078247	0.13205	0.16368	0.27667	0.23778	0.0335	0.11102	0.13737	0.11225	0.17802	0.31403	0.22484	-3.8854	-4.2688	-3.5667	-4.6604	-3.9125	-3.7646	-4.8688	-3.975	-4.1229	-4.4583	-3.8583	-4.6562	-4.1125	-3.9292	-4.4458	-3.9208	263.788	187.130	328.590	347.531	283.503	237.814	408.882	383.161	349.129	105.108	417.717	430.966	139.722	391.846	217.233	426.527	0.00062947	0.0003994	0.00016241	1393.8	6.074e-06	5.3456e-06	1432	377.75	8.9552e-06	4.5158e-06	417.5	143.78	118.89	39.336	7.9445e-06	50.751	0.00071218	0.00074487	0.00021235	1420.4	8.2324e-06	8.378e-06	1455.8	385.64	8.1295e-06	8.079e-06	428.61	146.98	121.98	40.822	7.9232e-06	52.479	263.965	157.271	174.659	95.708	246.931	239.130	95.324	99.918	259.414	245.956	99.438	104.433	105.032	109.185	257.017	108.131	-8191	255	
1109.367	1	1	0	0	0.13536	0.19765	0.056331	0.11996	0.12026	0.22551	0.22482	0.031588	0.12511	0.15196	0.079025	0.098937	0.27922	0.24203	0.090291	0.13265	-3.4813	-4.4229	-3.6021	-4.4833	-4.2562	-3.5896	-4.6854	-4.1146	-3.9083	-4.3917	-3.9083	-4.4688	-4.1833	-3.7229	-4.5062	-3.9188	274.968	112.572	195.390	88.993	236.763	350.993	319.489	283.713	353.146	369.227	359.448	339.665	371.625	416.697	427.034	438.717	0.00062886	0.00041849	7.938e-05	1390.2	6.128e-06	6.44e-06	1431.3	375.89	6.6966e-06	6.9974e-06	418.9	143.22	118.47	39.462	8.7491e-06	50.661	0.00070607	0.00071409	0.00020595	1418.5	7.9081e-06	8.0327e-06	1456.5	385.17	7.8618e-06	8.172e-06	429.25	146.7	121.77	40.773	8.0184e-06	52.367	262.557	174.261	188.045	95.346	221.133	254.948	95.130	99.851	274.101	226.773	99.535	104.397	105.144	109.052	256.841	108.180	-8191	255	
1109.488	1	1	0	0	0.073684	0.24077	0.27221	0.092587	0.16329	0.19712	0.26684	0.383	0.14501	0.1353	0.21587	0.37177	0.064623	0.28157	0.053527	0.27329	-3.6458	-4.4083	-3.6271	-4.5062	-4.3167	-3.5708	-4.8	-4.0917	-3.9083	-4.6062	-3.8708	-4.2604	-4.4667	-3.8333	-4.5229	-4.1792	288.660	412.220	288.578	350.800	103.343	165.574	343.001	316.411	343.432	130.512	345.243	419.682	93.936	377.271	398.732	358.071	0.00066773	0.00045177	0.0001412	1389.3	5.4501e-06	4.9585e-06	1434.6	376.9	8.045e-06	4.179e-06	417.83	143.29	118.21	39.236	5.098e-06	50.493	0.00070987	0.00073862	0.00020658	1418.5	8.1118e-06	8.0877e-06	1455.6	384.94	8.1321e-06	8.3368e-06	428.39	146.71	121.62	40.751	7.9963e-06	52.29	262.756	188.403	181.072	95.464	227.809	264.441	95.164	100.119	272.600	209.028	99.385	104.435	104.964	109.029	261.884	108.127	-8191	255	
1109.582	1	1	0	0	0.2412	0.15834	0.080402	0.077642	0.10672	0.063254	0.035305	0.0043049	0.12789	0.09348	0.1059	0.10951	0.16896	0.058837	0.095638	0.20777	-3.4688	-4.5604	-3.7438	-4.2979	-4.4667	-3.6104	-4.5062	-4.3083	-3.8375	-4.5875	-3.9583	-4.1438	-4.5312	-3.725	-4.4812	-4.4	381.677	267.931	219.816	426.841	305.479	148.084	299.187	264.613	95.430	278.521	384.600	257.886	261.573	362.543	174.809	410.912	0.00067137	0.00057121	0.0001795	1387.4	6.8664e-06	5.9966e-06	1430.4	376.55	5.8848e-06	4.1904e-06	417.08	143	119	39.43	7.6524e-06	50.672	0.00072285	0.0007474	0.00021078	1416.2	7.8647e-06	8.5019e-06	1453.7	384.5	8.076e-06	8.2723e-06	427.21	146.63	121.71	40.753	8.0453e-06	52.263	262.077	162.075	165.157	95.466	227.215	231.365	95.328	100.070	271.567	230.525	99.237	104.473	104.954	108.903	245.124	107.746	-8191	255	
1109.679	1	1	0	0	0.13836	0.13332	0.18777	0.29783	0.166	0.25447	0.36801	0.3826	0.18212	0.18589	0.24256	0.13939	0.22701	0.20761	0.011832	0.15374	-3.2896	-4.4187	-3.8875	-4.2542	-4.4396	-3.7792	-4.5625	-4.4417	-3.7354	-4.5792	-4.0583	-3.9729	-4.6458	-3.9104	-4.0938	-4.3604	426.114	271.215	273.556	425.019	121.714	162.598	345.898	366.367	441.154	400.139	374.756	388.940	378.633	364.188	337.449	334.311	0.00067405	0.00045377	0.00015905	1390.4	5.1455e-06	5.6573e-06	1429.9	375.57	5.416e-06	5.9293e-06	417.89	143.47	118.95	39.428	6.9643e-06	50.456	0.00072675	0.0007244	0.00020883	1417.3	8.0161e-06	8.2769e-06	1453.8	384.52	8.004e-06	8.3531e-06	427.91	146.55	121.81	40.767	7.9789e-06	52.225	261.696	168.128	176.643	95.493	249.482	239.226	95.290	100.005	268.014	227.935	99.466	104.576	104.910	108.844	257.491	108.035	-8191	255	
1109.775	1	1	0	0	0.097361	0.19524	0.19509	0.16846	0.12489	0.039897	0.10398	0.2555	0.14273	0.061505	0.045233	0.19851	0.10999	0.076575	0.25498	0.28398	-3.0833	-4.6146	-3.7938	-4.1292	-4.5854	-3.7125	-4.5271	-4.5042	-3.6354	-4.4792	-4.1479	-3.8542	-4.6479	-3.8875	-4.1167	-4.5521	362.130	165.964	334.468	88.025	155.637	242.455	364.400	116.401	342.223	191.003	355.315	362.539	157.006	95.405	402.260	400.054	0.00063883	0.000458	0.00017967	1383.4	7.5095e-06	4.599e-06	1430.3	375.4	6.5441e-06	4.7405e-06	416.41	143.21	118.56	39.277	7.3977e-06	50.706	0.00071438	0.00074663	0.00021063	1415.9	8.0412e-06	8.3405e-06	1452.8	384.41	8.2595e-06	8.1872e-06	427.63	146.63	121.77	40.658	8.1868e-06	52.279	264.371	160.166	173.183	95.561	231.549	256.391	95.369	99.962	261.923	209.338	99.577	104.368	104.995	108.946	242.907	108.083	-8191	255	
1109.871	1	1	0	0	0.13665	0.093242	0.11269	0.32648	0.043612	0.14349	0.058511	0.36601	0.11791	0.21769	0.18013	0.069407	0.1387	0.097664	0.16135	0.15659	-3.2167	-4.4875	-4.1	-3.9562	-4.575	-3.8583	-4.3292	-4.4604	-3.5646	-4.2729	-4.3917	-3.85	-4.4708	-3.9625	-3.8563	-4.6271	193.979	305.573	273.596	412.097	148.429	234.867	383.835	434.613	348.192	426.458	424.420	309.203	441.018	355.819	234.326	441.221	0.00062963	0.00051398	0.00019543	1385.2	5.342e-06	5.1699e-06	1432.1	376.11	7.3416e-06	4.2222e-06	416.83	144.05	118.7	39.31	5.4737e-06	50.725	0.00070948	0.00074336	0.0002087	1414.4	8.0943e-06	8.3155e-06	1452.3	384.44	8.0831e-06	8.4201e-06	427.26	146.79	121.82	40.757	8.2932e-06	52.354	264.902	158.444	201.672	95.417	246.309	259.101	95.260	99.900	271.515	252.622	99.483	104.402	105.100	108.964	249.618	108.096	-8191	255	
1109.967	1	1	0	0	0.09035	0.26593	0.29583	0.24858	0.11101	0.002635	0.2413	0.26923	0.14491	0.13628	0.073584	0.22587	0.24486	0.094503	0.13389	0.15337	-3.2854	-4.3271	-4.3479	-3.6083	-4.6396	-3.9792	-4.0208	-4.7063	-3.5583	-4.1583	-4.4104	-3.6854	-4.5792	-4.0917	-3.8271	-4.7917	114.663	269.119	277.261	414.978	298.059	387.105	399.957	434.434	270.326	387.008	422.932	339.229	419.342	435.414	145.546	399.336	0.00065185	0.00040817	0.00012726	1390.5	5.819e-06	6.4206e-06	1427.9	375.51	6.8746e-06	7.1822e-06	416.54	143.27	119.24	39.38	6.5224e-06	50.712	0.00071797	0.00077757	0.00021046	1417.2	8.14e-06	8.3326e-06	1453.6	384.41	8.2899e-06	8.4216e-06	427.76	146.5	122.03	40.783	8.2559e-06	52.392	263.414	186.667	189.635	95.360	252.046	255.854	95.187	100.055	263.997	236.428	99.477	104.293	105.084	109.095	262.671	108.008	-8191	255	
1110.088	1	1	0	0	0.26451	0.12021	0.21403	0.10651	0.055173	0.17199	0.32062	0.18857	0.21767	0.13998	0.22697	0.042371	0.13472	0.30604	0.033562	0.31421	-3.5187	-4.3021	-4.3167	-3.7229	-4.4146	-4.1417	-4.0146	-4.5958	-3.675	-4.1625	-4.65	-3.5896	-4.3708	-4.2458	-3.5958	-4.7396	257.933	432.882	355.443	336.777	343.510	341.527	317.808	92.488	168.563	194.155	375.461	211.787	123.580	405.664	429.309	414.464	0.00064552	0.00046613	0.00020506	1385.7	7.254e-06	5.1609e-06	1428.4	376.66	6.5987e-06	5.6809e-06	416.85	143.4	118.29	39.325	5.4714e-06	50.874	0.00074263	0.00073974	0.0002057	1415.3	8.2857e-06	8.3301e-06	1454.5	385.26	8.2105e-06	8.5651e-06	427.85	146.75	121.67	40.796	8.4257e-06	52.388	262.549	179.609	159.905	95.258	237.312	212.842	95.233	100.106	293.599	227.680	99.395	104.635	105.012	109.125	253.375	108.237	-8191	255	
1110.184	1	1	0	0	0.017708	0.15749	0.077261	0.15555	0.15482	0.065849	0.29202	0.20976	0.2511	0.074252	0.12335	0.15327	0.25377	0.49695	0.13828	0.311	-3.6229	-4.0062	-4.5604	-3.8063	-4.2854	-4.5021	-3.8771	-4.7271	-3.7979	-3.9604	-4.7188	-3.7687	-4.2646	-4.3833	-3.5687	-4.7	316.575	102.182	239.113	83.867	313.151	347.099	310.616	328.111	129.209	274.824	441.076	390.405	92.020	388.468	373.967	268.565	0.00066466	0.00036305	0.00011964	1392.1	5.8828e-06	5.3265e-06	1424.2	375.8	5.9364e-06	6.081e-06	418.36	142.98	118.51	39.223	4.3686e-06	50.644	0.00073343	0.00076367	0.00020894	1416.9	8.0273e-06	8.197e-06	1452.4	384.67	7.8785e-06	8.4111e-06	427.75	146.3	121.94	40.713	8.3579e-06	52.298	262.447	172.162	195.230	95.415	252.222	232.280	95.233	100.144	270.257	228.518	99.335	104.597	104.943	108.932	262.735	108.079	-8191	255	
1110.280	1	1	0	0	0.1603	0.3624	0.13517	0.2446	0.13776	0.12647	0.3097	0.23684	0.1763	0.10674	0.24417	0.42443	0.11588	0.3901	0.13173	0.3005	-3.475	-3.875	-4.4229	-3.9729	-4.1792	-4.3271	-3.9667	-4.6146	-4	-3.925	-4.7354	-3.8104	-4.1458	-4.6312	-3.6	-4.5771	250.045	123.506	367.847	100.537	394.558	110.294	416.860	108.966	255.248	342.573	359.583	418.334	91.766	382.479	328.674	353.698	0.00065184	0.00069536	0.00015945	1381.8	6.0776e-06	7.8488e-06	1425.4	375.52	6.2713e-06	5.8654e-06	415.67	142.94	118.09	39.209	7.3031e-06	50.532	0.00071279	0.0007441	0.00020263	1412.2	8.2572e-06	8.1402e-06	1449.7	384.67	7.8941e-06	8.5535e-06	427.27	146.23	121.49	40.733	8.3344e-06	52.213	262.159	167.156	177.632	95.390	249.109	238.132	95.240	100.018	286.273	215.119	99.365	104.611	105.121	109.065	269.553	108.354	-8191	255	
1110.352	1	1	0	0	0.17677	0.154	0.070821	0.04597	0.091648	0.18997	0.21321	0.017153	0.10312	0.11139	0.093308	0.14062	0.068196	0.060222	0.23174	0.17039	-3.7875	-3.7042	-4.5667	-3.8979	-4.1896	-4.5479	-3.8104	-4.6417	-4.1479	-3.8063	-4.6937	-3.9917	-4.0146	-4.6521	-3.5479	-4.4542	374.308	393.977	235.531	403.324	226.671	260.885	366.480	146.161	93.128	172.469	82.750	105.923	265.798	144.083	307.329	202.414	0.00066852	0.000578	0.00012643	1382.6	5.6453e-06	5.5465e-06	1424.4	373.98	4.5359e-06	5.0417e-06	416.66	142.99	118.76	39.353	7.2383e-06	50.633	0.00071242	0.00075265	0.00020886	1411.6	8.2374e-06	8.0195e-06	1450	383.37	7.9601e-06	8.2301e-06	427.9	146.26	121.8	40.738	8.2321e-06	52.342	264.392	155.634	171.253	95.165	255.947	254.663	95.071	100.230	283.927	227.034	99.556	104.288	105.261	109.089	261.709	108.158	-8191	255	
1110.471	1	1	0	0	0.091972	0.058742	0.083395	0.39655	0.10815	0.14022	0.1449	0.1446	0.22695	0.12511	0.15948	0.059863	0.25087	0.082613	0.13401	0.18228	-3.9729	-3.5542	-4.4667	-3.9021	-3.9188	-4.5667	-3.9854	-4.5312	-4.3854	-3.5229	-4.7188	-4.1062	-3.9042	-4.5646	-3.6583	-4.3875	274.007	278.722	288.187	377.391	156.680	99.009	339.367	410.601	97.820	135.776	394.906	297.602	130.867	432.700	390.550	361.235	0.00063983	0.00033548	0.00019635	1384.7	6.2173e-06	5.9787e-06	1424.4	374.44	5.9212e-06	7.7124e-06	415.98	142.98	118.39	39.178	6.8227e-06	50.557	0.00071271	0.00074942	0.00020531	1412.4	8.2023e-06	8.0766e-06	1448.5	384.04	7.7744e-06	8.5871e-06	427.56	146.38	121.69	40.671	8.2657e-06	52.3	263.452	135.150	182.591	95.433	234.070	247.189	95.053	100.161	278.611	236.330	99.456	104.571	105.160	109.163	242.047	108.227	-8191	255	
1110.567	1	1	0	0	0.17504	0.084089	0.13438	0.14249	0.10714	0.022951	0.36413	0.11116	0.19669	0.32885	0.036563	0.17878	0.044501	0.077034	0.093241	0.016183	-4.2104	-3.6521	-4.5958	-4.3271	-3.8479	-4.5896	-3.9667	-4.5604	-4.4167	-3.7562	-4.6813	-4.2125	-3.8396	-4.9187	-3.9	-4.15	402.858	100.001	307.940	440.928	412.107	408.553	384.637	428.740	369.532	386.426	192.336	415.448	91.751	182.782	122.719	160.053	0.00064206	0.00042231	9.8952e-05	1382.1	8.2434e-06	5.9502e-06	1428.3	375.6	7.405e-06	5.1407e-06	417.98	143.15	118.77	39.267	5.859e-06	50.559	0.00072247	0.00076972	0.00021062	1412.1	8.2529e-06	8.3219e-06	1449.6	384.32	8.0453e-06	8.5507e-06	428.11	146.33	121.81	40.704	8.3814e-06	52.251	264.034	151.579	187.953	95.399	257.681	230.932	94.962	100.261	281.071	211.202	99.533	104.496	104.930	109.296	261.579	108.213	-8191	255	
1110.663	1	1	0	0	0.16167	0.11021	0.2146	0.27228	0.07097	0.1415	0.057585	0.17072	0.078351	0.10275	0.18673	0.35449	0.088724	0.16158	0.032754	0.10865	-4.35	-3.6479	-4.3042	-4.425	-3.6521	-4.6396	-3.9146	-4.1604	-4.5458	-3.6958	-4.5437	-4.4646	-3.6333	-4.7521	-3.9188	-4.1479	319.075	335.892	322.495	106.338	382.372	199.566	381.258	425.831	389.202	106.590	336.806	86.082	96.708	369.298	112.121	299.562	0.00065447	0.0004492	0.00016121	1379.6	7.0273e-06	4.4422e-06	1421.1	374.74	5.923e-06	5.6939e-06	417.99	142.69	117.97	39.189	7.7865e-06	50.68	0.00072598	0.00076152	0.00021963	1412.3	8.3437e-06	8.3923e-06	1447.5	384.07	7.9345e-06	8.3462e-06	428.23	146.23	121.6	40.682	8.2429e-06	52.301	261.066	172.690	160.748	95.377	247.719	255.178	95.080	100.354	268.269	255.286	99.331	104.168	104.805	109.123	240.171	108.030	-8191	255	
1110.759	1	1	0	0	0.049077	0.062599	0.12652	0.25513	0.15629	0.067676	0.15459	0.27263	0.17887	0.19486	0.29631	0.21789	0.18572	0.25815	0.088827	0.086652	-4.2438	-3.6646	-4.2729	-4.5771	-3.5458	-4.4437	-4.2979	-3.9458	-4.55	-3.6208	-4.4479	-4.5729	-3.925	-4.6667	-4.1354	-3.8937	300.490	352.510	404.641	348.180	405.824	256.473	366.018	368.664	164.129	228.370	311.382	323.121	311.484	367.397	196.733	371.379	0.00064173	0.00035307	0.00016677	1383.8	6.2656e-06	4.0534e-06	1426.4	376.8	5.2565e-06	5.5423e-06	416.43	143.26	118.67	39.317	5.0002e-06	50.63	0.00072104	0.00076716	0.00020848	1413.8	8.2967e-06	8.2027e-06	1450	384.45	7.9153e-06	8.5391e-06	427.66	146.44	121.79	40.698	8.0869e-06	52.263	263.911	173.418	181.359	95.413	248.271	241.219	95.067	100.162	259.530	232.020	99.597	104.413	104.794	109.142	271.773	108.067	-8191	255	
1110.880	1	1	0	0	0.21619	0.13878	0.24579	0.2971	0.17768	0.15498	0.21677	0.081271	0.24835	0.11143	0.13692	0.15002	0.066312	0.20901	0.13272	0.23304	-4.2688	-3.7438	-4.2083	-4.7229	-3.6833	-4.7646	-4.2688	-4.0021	-4.575	-3.9396	-4.3083	-4.5375	-3.6604	-4.6979	-4.2562	-3.8604	350.228	373.487	305.375	84.899	383.060	211.664	304.438	265.186	424.021	436.669	356.233	298.320	377.648	416.970	306.555	290.579	0.00065649	0.00045432	0.00020529	1386.9	6.9305e-06	2.5728e-06	1423.8	374.76	6.0459e-06	3.1654e-06	417.48	142.35	118.66	39.343	6.194e-06	50.725	0.00072146	0.0007588	0.00020814	1414.7	8.1304e-06	8.1113e-06	1448.8	384.27	8.0699e-06	8.2207e-06	428.43	146.15	121.64	40.728	8.0782e-06	52.263	261.915	175.667	184.178	95.379	239.179	223.580	95.175	100.281	274.558	206.536	99.723	104.421	104.955	109.154	240.309	108.297	-8191	255	
1110.951	1	1	0	0	0.11794	0.13557	0.13002	0.25188	0.077262	0.16136	0.18929	0.19731	0.15723	0.076302	0.11136	0.13625	0.14798	0.27554	0.079497	0.090056	-4.3354	-3.8458	-3.8688	-4.6833	-3.8292	-4.4458	-4.4979	-3.7167	-4.5437	-4.0146	-4.0792	-4.6917	-3.7188	-4.4812	-4.4146	-3.6917	238.878	141.152	116.287	422.868	214.028	227.105	83.315	365.714	275.683	433.135	418.815	426.118	238.148	399.924	251.201	403.319	0.00066891	0.00045044	0.00012671	1388.1	8.2135e-06	4.7154e-06	1425.9	375.14	7.236e-06	5.4767e-06	416.49	142.06	118.05	39.221	6.8595e-06	50.574	0.00071583	0.00075816	0.00020952	1412.2	8.1277e-06	8.1973e-06	1449.2	384.4	8.0033e-06	8.3819e-06	428.08	145.94	121.48	40.604	8.0584e-06	52.266	260.665	180.107	183.236	95.475	244.193	255.316	95.249	100.241	272.664	225.055	99.433	104.598	105.406	109.220	247.151	108.192	-8191	255	
1111.047	1	1	0	0	0.12972	0.15025	0.12344	0.27119	0.12946	0.13824	0.13397	0.34261	0.087613	0.17381	0.14809	0.13887	0.047866	0.2518	0.11924	0.19514	-4.1521	-4.0271	-3.9896	-4.8063	-3.7708	-4.3125	-4.7188	-3.7833	-4.6271	-4.0542	-3.8	-4.775	-3.9604	-4.3854	-4.4542	-3.7146	177.098	206.493	293.228	83.055	96.078	140.470	404.284	416.752	279.675	116.519	439.652	384.230	82.857	405.754	185.069	320.895	0.00064558	0.00043703	0.00019433	1384.1	6.0445e-06	5.2017e-06	1424	375.44	5.7526e-06	4.6785e-06	417.39	143.09	118.7	39.256	8.0057e-06	50.619	0.0007062	0.00077219	0.00021652	1411.5	8.2162e-06	8.138e-06	1448.8	384.11	7.7504e-06	8.3361e-06	427.73	146.51	121.77	40.661	8.2482e-06	52.303	262.601	159.521	174.494	95.428	219.402	228.432	95.162	100.039	275.212	225.184	99.479	104.466	104.898	109.139	241.513	108.235	-8191	255	
1111.168	1	1	0	0	0.05	0.12695	0.14886	0.13858	0.099412	0.17767	0.22142	0.091391	0.24784	0.15035	0.16698	0.17572	0.074086	0.0723	0.24523	0.10018	-4.0563	-4.1979	-3.6646	-4.7438	-3.8146	-3.9417	-4.7188	-3.9479	-4.2125	-4.1979	-3.9562	-4.675	-3.9979	-4.1687	-4.5333	-3.6437	195.895	410.824	231.122	423.216	333.518	173.341	414.338	353.906	374.677	387.115	404.242	427.319	95.300	335.151	239.569	215.465	0.00064652	0.00035953	0.0001425	1386.1	6.6859e-06	5.7209e-06	1421.9	374.99	6.4672e-06	3.5273e-06	416.05	143.02	118.26	39.215	7.0888e-06	50.525	0.00071307	0.00073424	0.00021013	1414.5	8.187e-06	8.2295e-06	1448.2	384.7	7.9118e-06	8.299e-06	427.79	146.38	121.41	40.735	7.9373e-06	52.268	261.957	169.116	157.371	95.517	254.385	218.642	95.191	99.980	269.031	249.631	99.613	104.598	105.047	108.988	229.140	108.021	-8191	255	
1111.264	1	1	0	0	0.094612	0.12671	0.32773	0.12306	0.063365	0.15547	0.056255	0.27607	0.36729	0.098262	0.2533	0.1885	0.11887	0.13129	0.15282	0.11856	-3.9083	-4.4167	-3.7458	-4.8187	-4.0687	-3.9979	-4.7417	-3.8375	-4.3896	-4.3292	-3.8312	-4.6792	-3.9979	-3.9458	-4.725	-3.9437	215.952	437.071	289.608	106.819	372.481	336.274	340.029	414.091	339.174	311.515	386.130	85.342	195.051	260.410	122.752	379.596	0.00064781	0.00033043	0.00013432	1382.4	5.9295e-06	3.9992e-06	1420.5	375.07	8.9387e-06	5.3243e-06	416.67	142.22	118.4	39.22	5.2486e-06	50.455	0.00071073	0.00072725	0.00020484	1413.9	7.8925e-06	8.0777e-06	1448.5	384.13	8.1135e-06	8.2503e-06	427.23	146.18	121.43	40.634	7.9765e-06	52.177	263.061	142.248	194.401	95.624	236.759	245.807	95.403	100.198	275.664	209.644	99.629	104.499	105.137	109.216	258.335	108.034	-8191	255	
1111.360	1	1	0	0	0.29398	0.10912	0.19529	0.073577	0.036544	0.033297	0.13495	0.26135	0.046223	0.20783	0.21211	0.050412	0.059795	0.0095411	0.11601	0.26857	-4.0271	-4.4771	-3.3896	-4.6896	-4.0729	-3.7604	-4.7917	-4.1312	-4.1479	-4.5375	-3.8146	-4.6	-4.2458	-3.8708	-4.6625	-4.0437	302.222	365.470	200.094	307.909	159.110	261.057	390.134	86.235	361.149	224.947	390.536	436.868	217.154	156.964	90.041	382.768	0.00062616	0.0005836	0.00015988	1382.7	7.1862e-06	3.5419e-06	1427.4	375.09	7.0127e-06	4.6292e-06	416.2	142.25	118.22	39.282	7.1416e-06	50.677	0.0007132	0.0007303	0.00021004	1412.1	8.0124e-06	8.2223e-06	1450.2	383.83	8.1122e-06	8.1724e-06	426.9	146.23	121.6	40.752	8.1657e-06	52.208	261.309	190.377	169.220	95.632	230.740	230.865	95.150	100.201	270.874	240.527	99.540	104.403	105.153	109.033	249.723	107.991	-8191	255	
1111.479	1	1	0	0	0.097313	0.05999	0.044683	0.2277	0.23713	0.20092	0.22937	0.29859	0.23964	0.089813	0.21817	0.07818	0.086181	0.21158	0.075841	0.18286	-3.6312	-4.6312	-3.5875	-4.6042	-4.2354	-3.6417	-4.9417	-4.1188	-4.1667	-4.7021	-3.8354	-4.5333	-4.5292	-3.8146	-4.6333	-4.0896	381.013	249.352	322.082	389.151	237.334	127.055	392.841	352.382	325.725	421.447	425.967	440.925	178.095	332.228	104.578	375.626	0.00067446	0.00049127	0.00010913	1384.4	7.0395e-06	7.1531e-06	1426.2	375.07	6.1205e-06	4.8746e-06	415.18	142.87	118.68	39.057	7.1277e-06	50.541	0.00071638	0.00073641	0.00020885	1412.9	7.8899e-06	8.2869e-06	1451.1	383.36	7.8045e-06	8.0952e-06	426.38	146.16	121.34	40.552	7.6296e-06	52.157	262.690	152.816	183.537	95.773	258.996	234.202	95.271	100.113	269.067	204.947	99.592	104.445	104.988	109.386	261.030	108.237	-8191	255	
1111.575	1	1	0	0	0.37937	0.15065	0.094656	0.35518	0.038048	0.12582	0.13638	0.09839	0.1952	0.14709	0.19871	0.22952	0.23057	0.078674	0.10197	0.23494	-3.4688	-4.5813	-3.625	-4.4333	-4.2833	-3.8063	-4.8604	-4.1708	-3.8479	-4.6833	-3.8937	-4.2771	-4.4688	-3.8229	-4.5875	-4.1375	139.821	325.434	431.232	394.397	195.599	309.902	427.837	414.658	115.054	429.101	405.607	360.958	232.699	434.256	340.518	436.969	0.00063201	0.0004259	0.00012768	1381.2	6.1785e-06	5.4672e-06	1418.5	374.47	7.0235e-06	4.1346e-06	415.02	141.48	117.82	39.227	7.5964e-06	50.621	0.00070534	0.00071162	0.0001991	1409.6	7.7507e-06	7.8803e-06	1444	382.24	7.7113e-06	7.85e-06	425.8	145.55	121.14	40.55	7.6951e-06	52.128	260.601	186.902	190.058	95.785	235.700	275.175	95.364	99.981	278.424	212.122	99.402	104.533	104.971	109.498	258.940	108.149	-8191	255	
1111.647	1	1	0	0	0.12789	0.34905	0.11762	0.10212	0.18299	0.086927	0.24251	0.22395	0.1428	0.14903	0.1286	0.051418	0.15427	0.095685	0.17267	0.11956	-3.4167	-4.7167	-3.9729	-4.2271	-4.4521	-3.6146	-4.5917	-4.4479	-3.8667	-4.6646	-4.0479	-4.1188	-4.7125	-3.7667	-4.4313	-4.4042	330.522	298.371	382.296	95.090	343.061	173.042	419.210	428.837	424.025	87.412	416.944	293.425	409.410	432.131	409.410	424.319	0.0006559	0.00043736	7.9443e-05	1381	6.6642e-06	5.086e-06	1421.2	373.07	7.6073e-06	4.9461e-06	414.29	142.44	118.33	39.138	6.9628e-06	50.319	0.00069158	0.00071111	0.00019834	1409.2	7.7726e-06	7.8292e-06	1445.4	381.97	7.702e-06	7.9005e-06	425.43	145.59	121.26	40.464	7.8014e-06	52.001	263.016	151.405	168.817	95.645	252.165	210.708	95.324	100.116	284.237	223.952	99.308	104.512	105.260	109.004	245.675	108.082	-8191	255	
1111.768	1	1	0	0	0.10888	0.11759	0.19222	0.12395	0.11237	0.15858	0.10443	0.32826	0.19342	0.019566	0.151	0.095966	0.16818	0.11188	0.22638	0.21759	-3.4667	-4.5896	-3.8937	-4.1521	-4.5458	-3.8146	-4.5625	-4.6021	-3.7146	-4.6604	-4.2312	-3.875	-4.7958	-3.7667	-4.2333	-4.6062	116.917	332.233	113.856	194.552	159.600	434.959	316.301	394.495	177.180	309.808	172.377	142.143	112.083	426.026	271.541	408.302	0.00066563	0.00054161	0.00012958	1376	5.938e-06	5.7723e-06	1417.2	372.69	5.4541e-06	4.8433e-06	415.44	142.68	118.26	39.087	6.0172e-06	50.31	0.00069601	0.0007359	0.0002003	1405.8	7.9508e-06	8.2255e-06	1443.2	382.15	7.9758e-06	7.8021e-06	426.24	145.96	121.5	40.477	7.7471e-06	52.072	262.890	177.012	190.961	95.554	262.561	236.400	95.347	100.384	261.338	261.689	99.526	104.205	105.322	109.395	237.740	107.962	-8191	255	
1111.864	1	1	0	0	0.10064	0.096992	0.24103	0.067661	0.070915	0.21817	0.26916	0.24963	0.10953	0.25453	0.097364	0.058364	0.024346	0.20626	0.23026	0.096145	-3.3312	-4.5563	-4.1	-3.95	-4.6021	-3.7229	-4.4417	-4.5354	-3.5479	-4.6312	-4.2208	-3.9	-4.5917	-3.775	-4.0563	-4.75	241.989	176.170	424.885	84.346	283.951	255.576	406.553	395.891	245.778	218.458	428.688	88.149	334.395	431.075	272.038	401.710	0.00064757	0.00051987	0.00014641	1379.1	6.181e-06	3.9248e-06	1422.5	374.31	5.1427e-06	5.7453e-06	416.81	141.93	118	39.087	6.5372e-06	50.205	0.00070393	0.00070557	0.00019742	1408.3	7.5778e-06	7.7499e-06	1447.2	382.74	7.6787e-06	7.7815e-06	425.77	145.73	121.17	40.485	7.7866e-06	51.935	262.999	163.225	170.718	95.478	250.847	252.997	95.394	100.092	264.315	228.157	99.684	104.589	105.165	109.220	254.346	108.218	-8191	255	
1111.960	1	1	0	0	0.1086	0.1796	0.097423	0.1967	0.21416	0.21426	0.11208	0.18613	0.13669	0.17124	0.16289	0.16226	0.15976	0.15111	0.078222	0.26675	-3.375	-4.5563	-4.1958	-3.8771	-4.6542	-3.8354	-4.075	-4.6417	-3.6354	-4.4812	-4.5771	-3.7479	-4.6229	-4.1208	-3.8229	-4.6958	179.835	382.002	253.175	351.183	229.902	307.424	399.725	393.657	417.395	201.733	411.777	308.763	410.544	378.194	181.319	351.413	0.00063681	0.00049636	0.00014915	1380.3	6.4619e-06	2.4657e-06	1416.4	373.34	7.1293e-06	4.0992e-06	414.61	142.14	117.87	39.069	6.3745e-06	50.429	0.00069813	0.00070538	0.00019894	1405	7.7325e-06	8.0649e-06	1441	382.13	7.842e-06	7.9874e-06	425.59	145.45	121.19	40.412	8.0107e-06	51.989	262.807	171.115	170.673	95.604	240.749	247.790	95.265	100.295	274.901	242.922	99.841	104.826	105.499	109.305	251.976	108.233	-8191	255	
1112.056	1	1	0	0	0.2464	0.10194	0.34311	0.15215	0.22803	0.11808	0.23069	0.21248	0.073123	0.089354	0.22998	0.1745	0.23424	0.25981	0.030139	0.11869	-3.3146	-4.175	-4.3792	-3.8354	-4.5917	-4.0333	-4.2438	-4.8646	-3.7875	-4.2188	-4.4479	-3.7125	-4.6729	-4.1375	-3.7958	-4.8396	141.618	128.069	304.016	421.884	357.321	432.822	392.926	93.382	174.363	234.728	115.883	335.105	118.292	108.960	261.681	99.681	0.00062886	0.00061641	7.1824e-05	1378.3	5.4251e-06	5.5169e-06	1418	373.8	5.3184e-06	5.5278e-06	414.44	142.59	118.22	38.937	5.3716e-06	50.365	0.00070377	0.00072495	0.00019946	1405.7	7.8034e-06	8.1177e-06	1443.5	382.64	7.7894e-06	8.0869e-06	425.69	145.73	121.06	40.415	7.8014e-06	52.094	262.637	176.927	176.590	95.470	248.931	238.946	95.667	100.258	273.006	228.102	99.654	104.540	105.275	109.283	256.244	108.240	-8191	255	
1112.177	1	1	0	0	0.18149	0.086588	0.10196	0.14379	0.16474	0.051952	0.2832	0.26569	0.076963	0.26398	0.17928	0.33331	0.13075	0.16791	0.066307	0.086591	-3.3208	-4.2208	-4.4437	-3.8063	-4.6146	-4.1062	-4.0271	-4.8604	-3.7521	-4.1062	-4.675	-3.7	-4.475	-4.3167	-3.6646	-4.7458	348.970	192.721	299.998	87.380	389.207	160.577	396.678	396.320	114.593	383.553	358.495	92.367	251.917	435.122	169.418	384.661	0.00065927	0.00060387	0.00015617	1381.3	6.513e-06	4.3154e-06	1420.6	372.43	6.9238e-06	4.3981e-06	416.01	142.18	118.12	39.122	6.4975e-06	50.44	0.00069419	0.0007171	0.00019913	1406.5	7.6745e-06	7.9277e-06	1444.6	381.96	7.6255e-06	7.9593e-06	425.55	145.7	121.24	40.467	7.8665e-06	52.059	261.696	168.305	175.316	95.763	256.583	234.818	95.467	100.278	263.752	243.801	99.398	104.830	105.615	109.250	275.132	108.191	-8191	255	
1112.248	1	1	0	0	0.044114	0.16597	0.33456	0.40747	0.11739	0.086567	0.33889	0.20243	0.059533	0.18446	0.41534	0.084674	0.27776	0.26039	0.10113	0.22329	-3.6229	-3.925	-4.6854	-3.75	-4.5229	-4.3375	-3.95	-4.6646	-3.9313	-3.8854	-4.7	-3.8104	-4.3729	-4.5083	-3.5396	-4.6833	90.501	233.195	412.475	431.996	342.342	384.449	440.355	351.380	267.947	236.687	388.232	131.776	430.054	95.841	231.377	434.963	0.00066537	0.00049089	0.00020403	1383.4	7.9489e-06	5.8317e-06	1419.4	372.94	7.6573e-06	5.525e-06	415.16	142.3	118.1	38.986	6.8195e-06	50.557	0.00070473	0.00074477	0.00020045	1407.4	7.7497e-06	7.7439e-06	1443.7	382.02	7.5109e-06	7.9622e-06	425.49	145.54	121.19	40.425	7.8155e-06	52.13	262.441	183.325	176.798	95.519	260.488	249.705	95.616	100.555	268.152	240.386	99.713	104.787	105.441	109.392	267.307	108.491	-8191	255	
1112.345	1	1	0	0	0.25402	0.1302	0.08228	0.23676	0.27743	0.18289	0.16765	0.1471	0.17688	0.092682	0.3511	0.26664	0.11551	0.25713	0.28098	0.058885	-3.5979	-3.5958	-4.6646	-3.8625	-4.1771	-4.3458	-3.85	-4.8	-4.0229	-3.9792	-4.8271	-4.0417	-4.3646	-4.6146	-3.6854	-4.6646	293.369	235.966	440.238	402.954	387.151	165.821	376.194	405.084	407.296	303.562	416.529	360.392	378.564	387.058	374.074	247.838	0.00065298	0.00044938	0.0001915	1381.5	5.871e-06	6.1374e-06	1419.3	373.61	4.8955e-06	2.8944e-06	415.7	142.23	117.75	38.882	1.0731e-05	50.522	0.00070213	0.00072732	0.0002017	1407.5	7.9081e-06	7.5439e-06	1443.4	382.41	7.6633e-06	8.119e-06	426.06	145.72	121.04	40.387	8.0322e-06	52.113	263.346	142.818	185.955	95.926	256.508	215.634	95.447	100.614	286.926	205.254	99.942	104.742	105.549	109.457	265.811	108.405	-8191	255	
1112.441	1	1	0	0	0.26574	0.1926	0.11553	0.10435	0.22537	0.0764	0.38218	0.22134	0.11446	0.18299	0.2138	0.073477	0.11701	0.089331	0.039689	0.14814	-3.7062	-3.6583	-4.5271	-4.0021	-3.9229	-4.5125	-3.9354	-4.5125	-4.2417	-3.6896	-4.6208	-3.9896	-3.9875	-4.7333	-3.4771	-4.6458	247.514	393.417	343.762	94.729	132.562	396.706	372.893	440.589	316.669	306.960	414.762	402.095	329.283	372.183	230.839	382.133	0.00064303	0.00035316	0.00012683	1377.1	7.6301e-06	5.1476e-06	1415	374.28	6.7143e-06	4.5011e-06	414.53	142.5	118.13	39.007	4.1386e-06	50.173	0.00068936	0.00072946	0.00019822	1404.4	7.8388e-06	7.6828e-06	1439.8	381.9	7.5394e-06	8.1958e-06	424.79	145.55	121.11	40.453	7.8651e-06	51.934	261.940	178.510	159.601	95.701	255.088	257.132	95.509	100.526	268.357	226.953	99.911	104.775	105.383	109.636	271.721	108.443	-8191	255	
1112.561	1	1	0	0	0.10188	0.13312	0.0218	0.11213	0.25327	0.17067	0.21905	0.14488	0.086867	0.19388	0.090715	0.181	0.27824	0.20048	0.15477	0.19932	-3.9583	-3.6604	-4.7208	-4.2063	-3.825	-4.6375	-4.0146	-4.4021	-4.3208	-3.7083	-4.7104	-4.0896	-3.9875	-4.8646	-3.7854	-4.3854	293.766	257.344	304.311	434.025	96.029	232.687	292.226	407.811	357.487	161.145	306.455	177.638	438.229	402.726	275.231	421.596	0.00064839	0.00048798	0.00012999	1371.5	6.1094e-06	5.9412e-06	1414.5	373.28	6.2967e-06	5.0739e-06	414.66	141.53	117.55	39.024	7.9145e-06	50.267	0.00070093	0.00070999	0.0001987	1402.3	7.8577e-06	7.932e-06	1439.8	381.89	7.8093e-06	7.9514e-06	425.27	145.52	120.94	40.466	7.8856e-06	52.009	265.001	170.726	171.060	95.790	247.320	250.698	95.752	100.608	269.526	215.459	99.882	104.798	105.494	109.498	247.164	108.915	-8191	255	
1112.656	1	1	0	0	0.15573	0.10831	0.075108	0.11144	0.12099	0.222	0.33838	0.096509	0.079507	0.33705	0.17797	0.21933	0.11752	0.24985	0.052516	0.11954	-4.2438	-3.6437	-4.5229	-4.3562	-3.8354	-4.7708	-3.9604	-4.2875	-4.5458	-3.6104	-4.6375	-4.3625	-3.7583	-4.7354	-3.9021	-4.1604	272.587	258.678	97.601	118.747	140.571	442.208	381.105	411.105	346.703	271.296	180.950	296.988	376.429	179.729	283.781	414.716	0.00066645	0.00050056	8.1514e-05	1380.1	6.9625e-06	4.5023e-06	1412.9	373.45	7.126e-06	5.5341e-06	414.55	142.15	117.88	39.093	6.6584e-06	50.391	0.00070166	0.00073132	0.00020181	1404.7	7.7789e-06	7.8324e-06	1437.8	382.04	7.4772e-06	8.0714e-06	424.48	145.4	121.06	40.428	7.8376e-06	52.008	261.088	172.673	180.867	95.617	238.557	242.653	95.467	100.503	266.320	237.348	99.654	104.781	105.309	109.313	256.817	108.306	-8191	255	
1112.752	1	1	0	0	0.10043	0.14121	0.11424	0.38448	0.071591	0.16173	0.29758	0.29481	0.14949	0.20717	0.23345	0.14472	0.23722	0.1336	0.16244	0.12205	-4.2417	-3.7271	-4.4167	-4.425	-3.7958	-4.7208	-4.2375	-4.1729	-4.7063	-3.8396	-4.4062	-4.3146	-3.7292	-4.7354	-4.0375	-4.0958	294.700	329.821	208.367	370.377	418.855	215.821	421.116	388.788	95.951	263.471	122.181	93.739	337.608	275.952	93.661	167.411	0.00063339	0.00038498	0.00017095	1373.1	8.8969e-06	5.9283e-06	1412.7	372.54	6.305e-06	3.9609e-06	413.2	142.07	117.39	39.04	4.4857e-06	50.297	0.00068997	0.00072713	0.00019553	1402.1	7.8259e-06	7.8517e-06	1437.7	380.79	7.6706e-06	8.1262e-06	424.46	145.48	120.57	40.42	7.9849e-06	51.892	264.407	161.034	172.805	96.010	247.910	245.274	95.566	100.782	262.613	219.726	100.053	105.007	105.420	109.562	242.600	108.473	-8191	255	
1112.848	1	1	0	0	0.056919	0.16251	0.24562	0.20771	0.18981	0.21901	0.1603	0.29832	0.1722	0.15631	0.098672	0.052711	0.1631	0.12158	0.090613	0.2274	-4.2542	-3.6583	-4.2792	-4.475	-3.6521	-4.5625	-4.2771	-4	-4.625	-3.7438	-4.2646	-4.4583	-3.8271	-4.55	-4.2167	-3.925	248.131	296.658	362.191	373.464	120.197	341.117	85.435	388.250	94.345	213.877	427.481	156.099	96.476	188.076	260.486	383.401	0.00065824	0.00038013	9.654e-05	1369.2	8.6533e-06	4.3247e-06	1420.1	373.1	6.4584e-06	5.8616e-06	415.27	142.08	118.02	38.991	4.1467e-06	50.614	0.00070609	0.00073113	0.00020194	1401.2	7.7931e-06	7.7867e-06	1438.6	381.56	7.369e-06	8.0729e-06	425.11	145.29	121.03	40.425	7.736e-06	52.035	261.251	155.764	189.899	95.860	241.033	274.618	95.847	100.719	267.680	239.564	100.122	105.025	105.540	109.575	232.507	108.486	-8191	255	
1112.944	1	1	0	0	0.17102	0.075296	0.17565	0.16074	0.041073	0.27641	0.25191	0.15945	0.1135	0.043262	0.18851	0.22087	0.13587	0.3178	0.23069	0.25547	-4.2708	-3.8146	-4.0708	-4.5792	-3.8	-4.5979	-4.5375	-3.9417	-4.6542	-3.9188	-4.1792	-4.5417	-3.6729	-4.4083	-4.3333	-3.7313	90.520	213.229	254.774	99.685	349.336	182.063	382.994	438.390	151.950	403.071	376.136	381.931	375.046	402.778	291.641	394.233	0.00065551	0.00047602	0.00014671	1369.9	5.8195e-06	1.4955e-06	1411.1	371.84	6.5147e-06	4.9051e-06	414.39	141.85	117.78	39.033	7.6553e-06	50.252	0.00070415	0.00072472	0.00020382	1399.5	7.8614e-06	7.8249e-06	1435.3	380.91	7.6325e-06	8.0916e-06	424.88	145.17	120.59	40.382	7.8427e-06	51.841	261.563	169.161	191.394	95.812	265.688	250.532	95.674	100.465	260.376	254.008	100.061	104.698	105.345	109.532	256.855	108.752	-8191	255	
1113.040	1	1	0	0	0.18012	0.22076	0.06163	0.22636	0.11783	0.16053	0.3578	0.38933	0.31564	0.21052	0.16637	0.064188	0.13637	0.19497	0.07237	0.1552	-4.2146	-3.8229	-3.9917	-4.8812	-3.6896	-4.3771	-4.5396	-3.7458	-4.575	-3.9583	-3.8604	-4.7542	-3.8771	-4.4396	-4.3646	-3.7125	314.475	399.052	290.038	396.712	439.412	272.247	333.938	360.403	240.035	150.611	377.272	304.749	289.618	409.766	287.829	368.959	0.00064414	0.00057463	0.00013188	1368.7	6.8377e-06	4.328e-06	1409.3	371.71	7.6114e-06	4.3994e-06	412.85	141.5	117.94	38.754	7.3177e-06	49.94	0.00068827	0.00071329	0.00019605	1397.8	7.816e-06	7.7524e-06	1433.6	380.6	7.3834e-06	7.7628e-06	423.9	144.79	120.47	40.172	7.6971e-06	51.774	262.105	172.865	168.597	95.859	266.071	247.909	95.308	100.416	264.576	221.530	99.844	104.419	105.287	109.498	249.319	108.455	-8191	255	
1113.161	1	1	0	0	0.10038	0.063937	0.19504	0.15523	0.18028	0.2246	0.26517	0.16545	0.09753	0.10879	0.26437	0.16152	0.08734	0.25817	0.057103	0.28184	-4.2625	-4.0646	-3.7708	-4.7583	-3.7458	-4.2125	-4.5479	-3.9062	-4.5188	-4.1021	-3.9938	-4.6771	-3.8708	-4.2271	-4.6646	-3.7562	383.496	363.531	376.787	333.999	338.214	230.686	404.886	350.810	387.674	378.427	373.901	408.601	387.616	425.084	84.841	339.387	0.00064588	0.00061808	0.00012685	1370.5	7.167e-06	4.3765e-06	1409.8	371.71	7.976e-06	6.0233e-06	412.68	141.79	117.4	38.733	5.129e-06	50.018	0.00068286	0.00070676	0.0002012	1399.2	7.815e-06	7.6732e-06	1433.7	380.37	7.6726e-06	8.0029e-06	423.82	145.07	120.42	40.193	7.4743e-06	51.788	262.555	181.156	169.839	95.855	247.388	236.012	95.400	100.378	269.537	218.318	99.972	104.747	105.298	109.446	251.252	108.350	-8191	255	
1113.257	1	1	0	0	0.21455	0.11952	0.10587	0.19199	0.09274	0.22752	0.29237	0.37907	0.18099	0.14784	0.35098	0.25355	0.30491	0.13408	0.29388	0.24897	-4.125	-4.1771	-3.6542	-4.8229	-3.8063	-3.9771	-4.6958	-3.9333	-4.3958	-4.4521	-3.9562	-4.7	-3.9208	-4.0396	-4.5021	-3.8208	190.801	146.730	101.737	396.732	118.335	129.924	361.831	398.814	98.577	131.175	353.131	371.384	403.058	375.422	151.195	365.078	0.00064161	0.00039983	0.00015575	1370.1	6.5352e-06	3.0752e-06	1409.6	370.96	7.7661e-06	7.2435e-06	413.51	142.5	117.57	38.859	6.1236e-06	50.222	0.00069027	0.00071252	0.00019991	1397.7	7.6931e-06	7.8742e-06	1435.4	379.87	7.467e-06	7.9622e-06	424.02	145.24	120.7	40.24	7.629e-06	51.812	261.143	166.389	177.400	95.661	263.726	241.009	95.306	100.335	277.973	218.926	99.583	104.665	105.420	109.545	236.664	108.083	-8191	255	
1113.353	1	1	0	0	0.24666	0.079282	0.12551	0.23699	0.15989	0.16217	0.25862	0.17348	0.10658	0.16795	0.30122	0.10292	0.21257	0.035553	0.11129	0.14651	-4.1292	-4.2208	-3.775	-4.8333	-3.9271	-3.9833	-4.6771	-3.8479	-4.0792	-4.4208	-3.8021	-4.5938	-3.85	-4.0229	-4.5646	-3.9583	157.171	437.906	212.238	378.874	230.453	384.952	403.452	400.577	160.885	125.763	398.422	384.862	110.949	134.475	230.285	341.899	0.00066288	0.00037605	0.0001688	1376.6	6.9491e-06	6.016e-06	1410.8	371.98	6.0367e-06	5.8167e-06	414.58	141.68	117.47	38.827	5.5453e-06	50.274	0.00068603	0.00070865	0.00020636	1400.1	7.9362e-06	7.9509e-06	1436.8	380.79	7.9079e-06	8.0743e-06	424.5	145.22	120.34	40.353	7.6572e-06	51.856	263.758	171.902	150.478	95.751	240.675	254.882	95.235	100.289	284.112	230.185	99.765	104.833	105.275	109.451	254.031	108.230	-8191	255	
1113.449	1	1	0	0	0.085678	0.2105	0.060872	0.36153	0.21323	0.11197	0.25912	0.22317	0.243	0.20918	0.10429	0.16567	0.049183	0.1692	0.14183	0.081848	-3.9271	-4.4375	-3.5812	-4.5896	-4.2479	-3.6146	-4.7083	-3.8917	-3.9521	-4.4875	-3.9604	-4.6021	-4.1875	-3.825	-4.6146	-4.0146	119.311	351.567	252.659	415.522	248.887	117.155	328.197	441.496	407.408	145.298	288.132	326.341	129.635	373.601	440.545	114.965	0.00062701	0.00014933	0.00013607	1372.9	6.1381e-06	4.5387e-06	1412.1	372.14	7.3557e-06	5.3391e-06	414.9	141.82	117.55	38.826	8.5661e-06	50.184	0.00068805	0.00070589	0.00020453	1401.7	7.7288e-06	8.0449e-06	1437.9	380.97	7.8525e-06	7.9607e-06	424.36	145.38	120.55	40.296	7.9909e-06	51.836	261.304	171.068	177.834	95.640	253.984	228.273	95.413	100.169	280.530	259.121	99.789	104.698	105.092	109.285	261.931	108.219	-8191	255	
1113.544	1	1	0	0	0.1831	0.19205	0.11143	0.23332	0.18881	0.14316	0.22817	0.28118	0.10545	0.067798	0.13182	0.28181	0.1429	0.097501	0.20144	0.093805	-3.7208	-4.6917	-3.5563	-4.6792	-4.2333	-3.6375	-4.8917	-4.0917	-3.9396	-4.5958	-3.825	-4.4187	-4.3458	-3.7521	-4.675	-4.1208	374.169	396.339	297.145	407.019	406.388	342.403	291.200	392.564	252.475	144.621	167.669	158.106	441.906	150.436	115.143	357.584	0.0006485	0.00054456	0.00016547	1370.9	6.1338e-06	4.4911e-06	1411.4	370.71	6.0859e-06	6.9903e-06	412.33	141.74	117.96	39.003	5.6298e-06	50.201	0.0007005	0.00071339	0.00020309	1402	7.7991e-06	7.8217e-06	1436.8	380.62	7.5791e-06	7.9243e-06	423.91	145.35	120.64	40.403	7.8131e-06	51.888	262.681	185.702	157.713	95.654	260.049	247.857	95.401	100.274	270.649	238.592	99.522	104.769	105.297	109.299	263.215	108.532	-8191	255	
1113.640	1	1	0	0	0.22844	0.23209	0.15749	0.20883	0.071789	0.17563	0.25579	0.13901	0.084906	0.07999	0.2042	0.21265	0.15312	0.12931	0.19401	0.31075	-3.5667	-4.6458	-3.7313	-4.3104	-4.3708	-3.5896	-4.7812	-4.3667	-3.8896	-4.6708	-3.9875	-4.1104	-4.6458	-3.8604	-4.4667	-4.3917	88.789	410.420	263.686	418.333	191.646	351.890	402.123	385.006	269.876	144.976	101.353	106.142	350.260	417.892	121.477	403.128	0.00064776	0.00049619	0.00012873	1375.5	5.5683e-06	4.1774e-06	1413	372.49	7.0398e-06	4.3851e-06	415.33	142.16	117.23	38.934	8.9532e-06	50.358	0.00070477	0.00071544	0.0002071	1402.7	7.9061e-06	7.9602e-06	1438.7	381.51	7.9121e-06	7.9038e-06	424.9	145.56	120.64	40.391	8.0231e-06	51.949	264.376	177.115	183.315	95.535	242.838	244.107	95.599	100.191	268.036	241.830	99.720	104.967	105.256	109.467	262.020	108.236	-8191	255	
1113.736	1	1	0	0	0.15972	0.19634	0.24684	0.39051	0.053407	0.33596	0.10509	0.27632	0.17835	0.1866	0.20831	0.14667	0.13825	0.065757	0.072514	0.16458	-3.3979	-4.5792	-3.8354	-4.3875	-4.7063	-3.4792	-4.5229	-4.3708	-3.7104	-4.6125	-3.9583	-4.0437	-4.5229	-3.6562	-4.3688	-4.4292	349.984	393.049	325.335	436.977	365.518	425.245	376.382	373.036	434.508	151.741	331.680	334.810	339.677	121.563	86.675	354.155	0.00064914	0.00053091	0.00016665	1377.2	6.4826e-06	7.2384e-06	1418.8	372.25	6.8574e-06	3.5899e-06	414.14	142.08	117.78	38.78	5.269e-06	50.393	0.00070485	0.00072873	0.00020653	1404.1	7.9942e-06	8.142e-06	1439.3	381.43	7.9153e-06	7.8464e-06	424.58	145.31	120.81	40.291	7.9094e-06	51.889	263.231	169.415	184.495	95.631	243.733	234.550	95.403	100.274	275.924	219.185	99.748	104.835	105.291	109.447	266.735	108.239	-8191	255	
1113.832	1	1	0	0	0.18414	0.2592	0.028628	0.2294	0.26962	0.14039	0.10654	0.33319	0.06422	0.069203	0.18138	0.25817	0.20306	0.29527	0.27914	0.12268	-3.2333	-4.5375	-3.9396	-3.9875	-4.4896	-3.7417	-4.7104	-4.6021	-3.5958	-4.6062	-4.1687	-3.9271	-4.7521	-3.9771	-4.1271	-4.6104	172.937	334.898	115.610	372.881	127.532	151.890	400.498	344.951	383.950	230.341	436.396	413.055	381.042	336.072	241.948	373.001	0.00064579	0.00042162	0.00018154	1375.7	5.4171e-06	4.5411e-06	1421.2	372.17	7.5698e-06	6.2991e-06	414.46	141.69	117.44	39.026	7.7064e-06	50.251	0.00070297	0.00070906	0.00019921	1402.8	7.7954e-06	8.208e-06	1440.5	380.91	7.8144e-06	8.0448e-06	424.25	145.37	120.84	40.412	7.8024e-06	51.896	264.427	175.465	156.625	95.859	247.102	236.489	95.625	100.237	265.856	220.851	99.491	104.782	105.234	109.299	266.542	107.963	-8191	255	
1113.953	1	1	0	0	0.16428	0.077916	0.084173	0.025219	0.15788	0.037802	0.20097	0.17428	0.054042	0.13732	0.1489	0.12394	0.14311	0.22482	0.073777	0.10065	-3.3479	-4.5062	-3.9458	-3.9729	-4.6125	-3.7938	-4.3313	-4.5896	-3.6542	-4.4167	-4.2146	-3.7667	-4.7146	-4.0208	-3.9417	-4.6167	184.579	374.854	212.743	186.209	211.522	105.775	384.317	407.108	366.777	351.120	421.397	329.195	395.669	383.545	315.816	122.018	0.00066316	0.00032245	0.00017542	1370.9	5.479e-06	4.4555e-06	1409.4	370.54	6.2975e-06	5.447e-06	413.96	141.9	117.62	38.926	9.0107e-06	50.295	0.00070932	0.00072072	0.00020178	1401.1	7.602e-06	7.9624e-06	1435.8	380.56	7.6783e-06	8.0534e-06	424.44	145.19	120.98	40.342	7.9081e-06	51.857	261.608	179.254	158.664	95.660	251.210	242.061	95.663	100.245	268.487	229.209	99.846	104.670	105.377	109.326	258.171	108.271	-8191	255	
#DATA ENDS
