BOXY.EXE: ISS Imagent and Oximeter Data Acquisition Program Version 0.80
Ascii Record File

#ACQ INFORMATION
2  Detector Channels 
16  External MUX Channels 
1  Auxiliary Channels 
5000  Waveform (CCF) Frequency (Hz)
1  Waveforms Skipped 
30  Waveforms Averaged 
1  Cycles Averaged 
16  Acquisitions per Waveform 
10.0806  Updata Rate (Hz) 

#FILE INFORMATION
TRUE -- External MUX Channel results are PARSED.
FALSE -- AC DC and Phase are NOT grouped.
TRUE -- Companion Program Settings File CREATED.
FALSE -- AC data not excluded
FALSE -- DC data not excluded
FALSE -- Phase data not excluded
FALSE -- Auxillary Chn. data not excluded
Tab delimiters

#CALIBRATION STATE
TRUE -- Waveform Calibration Values APPLIED.


#AUX CALIBRATION VALUES
Val Type	aux-1	

Term	1.0000e+00	
Factor	0.0000e+00	


#WF CALIBRATION VALUES
A = Detector Channel
Val Type	A-AC1	A-AC2	A-AC3	A-AC4	A-AC5	A-AC6	A-AC7	A-AC8	A-AC9	A-AC10	A-AC11	A-AC12	A-AC13	A-AC14	A-AC15	A-AC16	A-DC1	A-DC2	A-DC3	A-DC4	A-DC5	A-DC6	A-DC7	A-DC8	A-DC9	A-DC10	A-DC11	A-DC12	A-DC13	A-DC14	A-DC15	A-DC16	A-Ph1	A-Ph2	A-Ph3	A-Ph4	A-Ph5	A-Ph6	A-Ph7	A-Ph8	A-Ph9	A-Ph10	A-Ph11	A-Ph12	A-Ph13	A-Ph14	A-Ph15	A-Ph16	

Term	0.00000e+00	0.00000e+00	0.00000e+00	0.00000e+00	0.00000e+00	0.00000e+00	0.00000e+00	0.00000e+00	0.00000e+00	0.00000e+00	0.00000e+00	0.00000e+00	0.00000e+00	0.00000e+00	0.00000e+00	0.00000e+00	0.00000e+00	0.00000e+00	0.00000e+00	0.00000e+00	0.00000e+00	0.00000e+00	0.00000e+00	0.00000e+00	0.00000e+00	0.00000e+00	0.00000e+00	0.00000e+00	0.00000e+00	0.00000e+00	0.00000e+00	0.00000e+00	0.00000e+00	0.00000e+00	0.00000e+00	0.00000e+00	0.00000e+00	0.00000e+00	0.00000e+00	0.00000e+00	0.00000e+00	0.00000e+00	0.00000e+00	0.00000e+00	0.00000e+00	0.00000e+00	0.00000e+00	0.00000e+00	
Factor	1.00000e+00	1.00000e+00	1.00000e+00	1.00000e+00	1.00000e+00	1.00000e+00	1.00000e+00	1.00000e+00	1.00000e+00	1.00000e+00	1.00000e+00	1.00000e+00	1.00000e+00	1.00000e+00	1.00000e+00	1.00000e+00	1.00000e+00	1.00000e+00	1.00000e+00	1.00000e+00	1.00000e+00	1.00000e+00	1.00000e+00	1.00000e+00	1.00000e+00	1.00000e+00	1.00000e+00	1.00000e+00	1.00000e+00	1.00000e+00	1.00000e+00	1.00000e+00	X	X	X	X	X	X	X	X	X	X	X	X	X	X	X	X	

B = Detector Channel
Val Type	B-AC1	B-AC2	B-AC3	B-AC4	B-AC5	B-AC6	B-AC7	B-AC8	B-AC9	B-AC10	B-AC11	B-AC12	B-AC13	B-AC14	B-AC15	B-AC16	B-DC1	B-DC2	B-DC3	B-DC4	B-DC5	B-DC6	B-DC7	B-DC8	B-DC9	B-DC10	B-DC11	B-DC12	B-DC13	B-DC14	B-DC15	B-DC16	B-Ph1	B-Ph2	B-Ph3	B-Ph4	B-Ph5	B-Ph6	B-Ph7	B-Ph8	B-Ph9	B-Ph10	B-Ph11	B-Ph12	B-Ph13	B-Ph14	B-Ph15	B-Ph16	

Term	0.00000e+00	0.00000e+00	0.00000e+00	0.00000e+00	0.00000e+00	0.00000e+00	0.00000e+00	0.00000e+00	0.00000e+00	0.00000e+00	0.00000e+00	0.00000e+00	0.00000e+00	0.00000e+00	0.00000e+00	0.00000e+00	0.00000e+00	0.00000e+00	0.00000e+00	0.00000e+00	0.00000e+00	0.00000e+00	0.00000e+00	0.00000e+00	0.00000e+00	0.00000e+00	0.00000e+00	0.00000e+00	0.00000e+00	0.00000e+00	0.00000e+00	0.00000e+00	-3.55938e+01	-1.27701e+02	-1.25281e+02	-1.82617e+02	-5.40153e+01	-6.01161e+01	-1.56707e+02	-1.61923e+02	-3.23848e+01	-6.96501e+01	-1.72081e+02	-1.72121e+02	-1.82310e+02	-1.75613e+02	-4.80221e+01	-1.49421e+02	
Factor	1.75935e-05	1.27067e-04	3.90881e-05	1.69756e-01	1.41494e-06	1.43045e-06	1.51472e-01	4.16107e-02	1.27005e-06	1.46452e-06	7.00974e-02	2.89022e-02	2.93523e-02	6.32495e-03	1.47419e-06	9.43134e-03	9.40978e-06	1.53733e-05	4.30930e-06	8.73817e-02	1.59016e-07	1.71387e-07	7.34779e-02	2.15944e-02	1.53695e-07	1.73083e-07	3.51862e-02	1.45699e-02	1.52597e-02	3.31565e-03	1.61020e-07	4.78232e-03	X	X	X	X	X	X	X	X	X	X	X	X	X	X	X	X	



#DISTANCE SETTINGS
A = Detector Channel
A-1	A-2	A-3	A-4	A-5	A-6	A-7	A-8	A-9	A-10	A-11	A-12	A-13	A-14	A-15	A-16	

1.0000e+01	1.0000e+01	1.0000e+01	1.4500e+00	1.0000e+01	1.0000e+01	1.5100e+00	1.9500e+00	1.0000e+01	1.0000e+01	2.0100e+00	2.5000e+00	2.4400e+00	2.9500e+00	1.0000e+01	3.0100e+00	

B = Detector Channel
B-1	B-2	B-3	B-4	B-5	B-6	B-7	B-8	B-9	B-10	B-11	B-12	B-13	B-14	B-15	B-16	

1.0000e+01	1.0000e+01	1.0000e+01	1.4500e+00	1.0000e+01	1.0000e+01	1.5100e+00	1.9500e+00	1.0000e+01	1.0000e+01	2.0100e+00	2.5000e+00	2.4400e+00	2.9500e+00	1.0000e+01	3.0100e+00	




#DATA BEGINS
time	group	step	mark	flag	A-AC1	A-AC2	A-AC3	A-AC4	A-AC5	A-AC6	A-AC7	A-AC8	A-AC9	A-AC10	A-AC11	A-AC12	A-AC13	A-AC14	A-AC15	A-AC16	A-DC1	A-DC2	A-DC3	A-DC4	A-DC5	A-DC6	A-DC7	A-DC8	A-DC9	A-DC10	A-DC11	A-DC12	A-DC13	A-DC14	A-DC15	A-DC16	A-Ph1	A-Ph2	A-Ph3	A-Ph4	A-Ph5	A-Ph6	A-Ph7	A-Ph8	A-Ph9	A-Ph10	A-Ph11	A-Ph12	A-Ph13	A-Ph14	A-Ph15	A-Ph16	B-AC1	B-AC2	B-AC3	B-AC4	B-AC5	B-AC6	B-AC7	B-AC8	B-AC9	B-AC10	B-AC11	B-AC12	B-AC13	B-AC14	B-AC15	B-AC16	B-DC1	B-DC2	B-DC3	B-DC4	B-DC5	B-DC6	B-DC7	B-DC8	B-DC9	B-DC10	B-DC11	B-DC12	B-DC13	B-DC14	B-DC15	B-DC16	B-Ph1	B-Ph2	B-Ph3	B-Ph4	B-Ph5	B-Ph6	B-Ph7	B-Ph8	B-Ph9	B-Ph10	B-Ph11	B-Ph12	B-Ph13	B-Ph14	B-Ph15	B-Ph16	aux-1	digaux	

1509.475	1	1	0	256	0.41786	0.31211	0.069575	0.12795	0.27478	0.13069	0.13222	0.26699	0.24037	0.21011	0.011808	0.031495	0.084788	0.10742	0.19565	0.16455	-3.6958	-3.8042	-3.3104	-4.2063	-3.4479	-3.6729	-4.2667	-3.3875	-4.0625	-3.7438	-3.3708	-4.2438	-3.3083	-3.6646	-4.0729	-3.3125	142.909	-138.595	90.971	178.928	17.376	65.344	181.447	-135.106	156.772	125.667	72.515	-73.653	28.999	205.979	-7.770	159.965	0.00024676	0.00025501	9.0876e-05	1138.1	3.4065e-06	4.4079e-06	1007.6	302.81	3.5279e-06	3.3058e-06	267.21	74.282	74.568	24.143	4.1012e-06	25.894	0.00025499	0.0002485	7.9614e-05	986.01	3.0965e-06	2.9289e-06	873.63	263.55	3.1988e-06	2.844e-06	233.87	65.256	65.366	21.22	2.6941e-06	22.73	-58.356	-88.502	-78.831	-140.404	3.055	22.934	-141.539	-134.754	-27.872	12.616	-136.621	-132.432	-130.105	-124.947	-13.278	-129.255	-8191	255	
1509.571	1	1	0	0	0.1284	0.29112	0.25715	0.18886	0.3077	0.089776	0.017727	0.18518	0.25019	0.15768	0.1566	0.12592	0.053873	0.13632	0.22536	0.087715	-3.5729	-3.8229	-3.1833	-4.375	-3.3312	-3.4313	-4.3396	-3.3021	-3.775	-4.0646	-3.1875	-4.2021	-3.6854	-3.3521	-3.9917	-3.4521	160.004	182.442	188.167	-40.381	106.115	-42.101	150.701	177.158	77.022	-16.041	142.182	-112.251	65.570	116.172	11.733	29.744	0.00026543	4.979e-05	0.00011483	1138.4	3.311e-06	3.4449e-06	1011.6	301.88	4.7816e-06	1.9815e-06	267.78	75.07	75.178	23.941	6.0775e-06	25.503	0.00026222	0.00026131	7.5628e-05	987.31	3.0574e-06	2.8397e-06	879.94	263.93	3.1892e-06	3.0625e-06	234.92	65.688	65.595	21.044	2.949e-06	22.52	-61.156	44.974	-65.557	-140.220	-14.188	-12.812	-141.514	-134.962	-29.643	27.693	-136.882	-132.468	-130.036	-125.401	-1.310	-129.158	-8191	255	
1509.667	1	1	0	0	0.04674	0.038238	0.10535	0.097234	0.11115	0.41137	0.1286	0.13074	0.051207	0.25037	0.17731	0.14615	0.16182	0.23325	0.20242	0.12546	-3.3875	-4.0229	-3.3271	-4.0813	-3.5896	-3.3042	-4.425	-3.4437	-3.6771	-4.0938	-3.3375	-3.95	-3.6979	-3.3229	-4.3292	-3.4188	-142.305	-33.621	140.036	14.239	114.104	128.854	142.635	187.897	-62.539	182.613	46.636	110.440	141.642	188.468	-126.582	-16.539	0.00023475	0.00038673	9.141e-05	1134	3.2962e-06	4.2341e-06	998.57	299.32	3.1202e-06	3.9222e-06	264.54	73.355	73.688	23.645	3.4304e-06	25.249	0.00024987	0.0002437	7.1875e-05	983.9	2.913e-06	2.8375e-06	866.25	261.4	3.095e-06	2.8634e-06	229.97	64.051	64.737	20.781	2.7544e-06	22.155	-60.667	-71.662	-72.051	-140.366	-2.634	21.373	-141.424	-134.890	9.180	23.339	-136.793	-132.473	-129.978	-125.278	60.086	-128.705	-8191	255	
1509.763	1	1	0	0	0.089442	0.027221	0.10509	0.15781	0.18881	0.16354	0.19423	0.18751	0.15419	0.2249	0.12292	0.097863	0.21099	0.16972	0.23851	0.22343	-3.2021	-4.0104	-3.1625	-3.9688	-3.7375	-3.3438	-4.275	-3.5146	-3.5771	-4.125	-3.4375	-4.1396	-3.9958	-3.1292	-4.0687	-3.6188	-130.936	-13.798	28.066	-144.718	72.414	26.469	155.507	160.931	74.531	0.231	50.476	-120.638	78.591	178.837	-18.408	-120.776	0.00026416	0.00035963	0.00011769	1133	4.6076e-06	3.6983e-06	996.77	299.8	3.5928e-06	3.0437e-06	264.22	73.258	73.538	23.876	2.8351e-06	25.324	0.00027269	0.0002706	7.7765e-05	981.22	2.9941e-06	2.9954e-06	863.14	261.24	2.8664e-06	2.8609e-06	230.2	64.396	64.862	20.945	2.794e-06	22.306	-58.540	-45.089	-60.317	-140.253	-4.467	-8.213	-141.920	-134.760	17.844	-21.174	-136.649	-131.999	-129.787	-125.332	48.516	-128.555	-8191	255	
1509.884	1	1	0	0	0.044739	0.072693	0.13504	0.16688	0.045043	0.1909	0.20344	0.098392	0.049967	0.14994	0.061613	0.056885	0.11182	0.17485	0.13283	0.24182	-3.1167	-3.9833	-3.0979	-3.8771	-3.9417	-3.2208	-4.2354	-3.8396	-3.3042	-4.1021	-3.4688	-3.8563	-4.1438	-3.2	-4.2125	-3.7542	43.958	-76.203	-133.977	110.490	10.250	81.338	174.277	96.526	-88.734	165.832	174.052	-51.923	170.735	-148.604	199.645	135.150	0.00027761	0.00028158	0.00012317	1136.2	3.856e-06	4.5173e-06	1003.8	302.05	1.169e-06	2.6498e-06	267.44	74.977	74.013	23.807	1.797e-06	25.753	0.00026071	0.00022647	7.1032e-05	985.9	2.8984e-06	3.0943e-06	870.79	263.53	2.8459e-06	2.6716e-06	232.7	65.127	65.011	21.035	2.9718e-06	22.503	-62.725	-64.401	-69.333	-140.381	-23.397	1.319	-141.427	-134.866	-39.305	-4.523	-136.727	-131.786	-129.874	-125.222	5.600	-128.817	-8191	255	
1509.980	1	1	0	0	0.11449	0.21228	0.21437	0.033669	0.26433	0.18265	0.36348	0.12766	0.072128	0.18403	0.077248	0.13552	0.1548	0.1173	0.052298	0.12088	-2.9833	-4.1438	-3.3083	-3.8083	-4.1312	-3.3333	-4.0312	-4.0292	-3.4604	-4.1021	-3.4938	-3.6417	-4.1833	-3.1479	-4.0375	-3.7458	-93.280	73.718	175.110	79.614	78.824	145.367	-142.043	114.404	-117.492	90.942	160.441	139.142	71.276	-101.470	-17.231	149.034	0.00021378	0.0004309	8.4211e-05	1141.6	2.4886e-06	2.2965e-06	1011.8	303.68	2.9614e-06	3.595e-06	268.3	75.583	73.847	23.954	2.788e-06	25.522	0.000261	0.00025603	7.2854e-05	991.24	3.0445e-06	2.8854e-06	880.6	265.36	3.0652e-06	2.8173e-06	235	65.678	65.457	21.069	2.6478e-06	22.375	-64.531	-58.342	-54.871	-139.866	33.849	-10.052	-141.256	-134.853	-5.733	28.286	-136.503	-132.546	-129.726	-125.259	-17.547	-128.481	-8191	255	
1510.076	1	1	0	0	0.16334	0.17521	0.097848	0.041106	0.13459	0.18558	0.30506	0.16965	0.22335	0.21053	0.025074	0.12005	0.17238	0.078854	0.14377	0.22903	-3.0083	-4.1333	-3.2958	-3.5792	-4.1125	-3.2833	-4.0667	-4.0125	-3.2313	-4.1979	-3.5375	-3.5729	-4.1229	-3.5812	-3.7333	-4.0417	20.177	1.500	121.064	88.217	105.005	-56.219	123.442	135.403	-110.538	-138.001	39.961	-116.974	137.731	147.405	105.710	-65.581	0.00023457	0.0002937	6.363e-05	1140.8	2.0355e-06	3.7584e-06	1000.1	302.31	4.837e-06	5.4676e-06	265.04	73.303	74.427	23.679	6.0943e-06	25.375	0.00027155	0.00025984	7.2459e-05	989.22	2.8027e-06	2.9996e-06	868.67	264.09	3.2577e-06	2.8461e-06	230.51	64.304	65.105	20.901	2.9933e-06	22.176	-62.739	-67.518	-71.786	-139.961	-62.256	4.020	-141.363	-134.880	21.421	-13.521	-137.242	-132.140	-130.357	-125.408	-15.195	-128.242	-8191	255	
1510.172	1	1	0	0	0.23238	0.12265	0.20456	0.1446	0.057765	0.029992	0.068561	0.2412	0.18962	0.067333	0.12213	0.11067	0.030842	0.118	0.15321	0.1034	-2.7479	-4.3458	-3.6354	-3.4875	-4.275	-3.4125	-3.9396	-4.1562	-3.2333	-4.1979	-3.7875	-3.5667	-4.1813	-3.4521	-3.85	-4.1937	121.499	85.923	89.345	-39.662	118.945	47.915	103.946	128.922	-102.875	-78.621	91.499	192.535	174.357	200.568	148.464	-139.154	0.00023037	0.00015749	0.00012148	1139.2	2.4734e-06	2.5827e-06	1001	303.88	5.3734e-06	2.8682e-06	267.43	74.648	75.391	24.209	3.2458e-06	25.484	0.00026594	0.00025686	7.2881e-05	988.12	2.857e-06	2.9386e-06	869.96	265.27	3.2791e-06	2.6164e-06	233.07	65.196	65.837	21.172	3.0909e-06	22.468	-58.244	-18.772	-45.666	-139.892	-39.281	16.779	-141.264	-134.603	13.799	-8.102	-136.870	-132.223	-130.082	-125.218	10.181	-128.384	-8191	255	
1510.291	1	1	0	0	0.23622	0.23567	0.071231	0.20673	0.070354	0.1025	0.13534	0.25855	0.17347	0.17575	0.24698	0.18837	0.031854	0.27374	0.30006	0.073753	-2.8625	-4.0333	-3.7521	-3.4	-4.1042	-3.3896	-3.7333	-4.2271	-3.1729	-3.8875	-3.9396	-3.1917	-4.0271	-3.3875	-3.4604	-4.3562	36.937	177.327	52.884	117.112	179.362	-37.234	154.697	167.933	-121.595	-2.320	38.848	153.322	86.502	-148.243	90.802	77.701	0.00023697	0.00013769	0.00014965	1141	2.1253e-06	3.874e-06	1017.8	305.66	3.7334e-06	4.2492e-06	269.38	76.41	76.175	24.297	2.3785e-06	25.819	0.00025657	0.00024287	7.2154e-05	992.7	2.8676e-06	2.8554e-06	881.05	266.99	3.0966e-06	3.105e-06	234.15	65.993	66.445	21.274	2.9037e-06	22.584	-60.015	5.107	-73.093	-139.965	-32.707	4.817	-141.197	-134.603	-13.322	24.623	-136.892	-131.619	-129.760	-125.339	37.288	-128.603	-8191	255	
1510.363	1	1	0	0	0.20747	0.037238	0.13178	0.33714	0.1143	0.0386	0.1933	0.22419	0.14415	0.1177	0.079553	0.12981	0.097109	0.066034	0.095195	0.22357	-3.0333	-3.9896	-3.9875	-3.4083	-4.2812	-3.6979	-3.6458	-4.2958	-3.3042	-3.9583	-4.0396	-3.2979	-4.1646	-3.7417	-3.3667	-4.4062	186.680	-60.272	157.823	117.677	-131.030	-105.334	71.663	168.715	79.857	188.063	-40.410	204.764	68.510	-93.082	23.883	103.876	0.00023981	0.00049597	0.0001066	1156.2	2.6269e-06	2.8062e-06	1019	308.35	3.6371e-06	3.0329e-06	270.99	75.81	76.008	23.993	3.2168e-06	25.287	0.00026318	0.00027268	7.2028e-05	1001.1	2.8769e-06	2.9807e-06	886.03	268.01	3.1568e-06	2.9395e-06	235.86	65.82	66.485	21.113	3.0439e-06	22.348	-52.955	-73.503	-58.395	-139.954	22.373	-3.379	-141.218	-134.761	2.945	23.404	-136.704	-132.300	-129.590	-124.940	45.124	-128.246	-8191	255	
1510.459	1	1	0	0	0.27973	0.20994	0.11835	0.13834	0.13635	0.020721	0.20223	0.23786	0.39804	0.20472	0.15373	0.029549	0.1116	0.22262	0.16177	0.045126	-2.9229	-3.6312	-4.1333	-3.3375	-4.1083	-3.6854	-3.5167	-4.2542	-3.2729	-3.7646	-4.1479	-3.3271	-4.0979	-3.8771	-3.35	-4.3354	21.730	122.127	5.745	-131.066	-139.635	-15.688	145.802	141.229	-147.704	16.390	-12.002	79.042	-60.687	183.800	-72.546	177.934	0.00024185	0.00021326	0.0001314	1143.6	8.9758e-07	6.594e-07	1001.5	302.79	2.9825e-06	4.9574e-06	265.87	73.687	75.259	23.747	5.947e-06	24.884	0.00025536	0.00026128	7.1507e-05	991.12	2.7377e-06	2.9496e-06	870.36	264.16	3.2161e-06	2.5642e-06	230.19	64.373	65.374	20.898	3.1144e-06	21.994	-58.981	-68.409	-42.426	-139.933	-0.512	36.518	-141.189	-134.710	-23.408	-3.704	-137.070	-132.448	-129.712	-125.084	-9.161	-128.707	-8191	255	
1510.580	1	1	0	0	0.12159	0.14622	0.14693	0.30897	0.12215	0.03191	0.087626	0.14109	0.18533	0.25172	0.02507	0.089354	0.27149	0.10906	0.065678	0.1347	-3.225	-3.7104	-4.1438	-3.275	-3.9896	-3.8375	-3.4396	-4.2688	-3.5979	-3.5042	-4.2562	-3.3937	-3.8646	-3.9938	-3.2292	-4.3187	102.134	24.022	195.559	122.740	164.082	-75.937	129.721	118.733	-36.803	205.484	91.977	33.222	-148.711	185.289	138.677	81.085	0.00024574	0.00044947	8.785e-05	1130.5	5.4757e-06	1.7223e-06	999.46	302.41	4.9395e-06	4.8e-06	263.35	73.312	74.799	23.705	5.058e-06	25.198	0.00025106	0.00026282	6.4397e-05	982.47	3.0197e-06	2.7293e-06	865.74	263.56	3.1251e-06	2.8584e-06	230.1	64.336	65.391	20.855	3.0423e-06	22.139	-60.285	-52.909	-63.981	-139.849	-14.252	-45.422	-141.252	-134.736	-18.110	-23.249	-136.518	-132.361	-129.750	-124.861	4.861	-128.187	-8191	255	
1510.676	1	1	0	0	0.097605	0.16849	0.090347	0.088593	0.26556	0.11058	0.17134	0.08828	0.1715	0.12771	0.20864	0.11642	0.14815	0.11355	0.082869	0.13399	-3.2833	-3.6063	-4.2771	-3.4979	-3.7438	-4.0625	-3.2667	-4.3854	-3.625	-3.275	-4.4187	-3.3375	-3.7083	-4.1562	-3.2521	-4.0646	15.384	167.870	15.776	115.468	-37.291	1.904	29.672	-95.980	141.450	-3.699	168.420	115.149	-134.033	163.763	-137.834	197.052	0.00021012	0.00037057	0.00011802	1134.2	4.448e-06	3.9113e-06	1007.5	301.32	3.4634e-06	3.323e-06	265.13	74.312	74.857	23.704	2.3212e-06	25.457	0.00026296	0.00025581	7.6328e-05	983.92	3.1041e-06	2.7033e-06	868.87	262.19	2.941e-06	3.2064e-06	231.03	64.707	64.982	20.846	3.1557e-06	22.303	-54.858	-89.338	-96.965	-139.679	11.483	8.703	-141.028	-134.395	5.178	-3.635	-136.483	-132.085	-129.639	-124.741	19.151	-128.190	-8191	255	
1510.772	1	1	0	0	0.36742	0.091522	0.11074	0.10953	0.22965	0.06107	0.20499	0.12637	0.23225	0.099338	0.24713	0.09187	0.11944	0.15819	0.21922	0.10242	-3.4729	-3.2292	-4.2125	-3.4542	-3.5542	-4.1562	-3.3688	-4.0188	-3.7833	-3.3958	-4.2729	-3.5167	-3.5333	-4.1021	-3.2562	-3.8792	106.499	-85.932	122.357	182.994	181.666	-106.498	74.823	-78.358	-16.635	-90.435	136.691	190.043	132.531	102.827	4.105	145.364	0.00023585	0.0003086	0.0001016	1133.9	3.5473e-06	2.6759e-06	1004.3	299.68	3.666e-06	2.0995e-06	262.79	73.273	73.613	23.552	2.9012e-06	24.868	0.00025928	0.00027717	6.6606e-05	982.64	3.124e-06	2.649e-06	872.65	261.96	2.9016e-06	2.9143e-06	230.45	63.943	64.577	20.656	2.9322e-06	21.842	-62.397	-60.298	-99.615	-139.654	-41.964	9.570	-141.011	-134.124	-19.205	21.383	-136.388	-132.204	-129.916	-125.235	-10.283	-128.716	-8191	255	
1510.868	1	1	0	0	0.25246	0.28964	0.20994	0.3537	0.15557	0.050667	0.12025	0.13788	0.045026	0.22756	0.25786	0.19046	0.078203	0.20584	0.082675	0.20403	-3.5312	-3.2917	-4.1625	-3.5958	-3.4	-4.3604	-3.4875	-4.0458	-3.9	-3.1875	-4.2458	-3.7229	-3.5083	-4.2312	-3.2396	-3.8354	28.172	-76.342	-82.490	207.247	22.691	109.753	85.244	190.553	114.575	-102.701	-137.283	195.259	-92.579	199.294	-144.209	50.140	0.00024635	0.00014673	0.00011189	1123.1	3.9459e-06	2.6253e-06	981.86	294.8	4.361e-06	3.825e-06	258.2	71.991	71.914	23.236	4.4448e-06	24.495	0.00025642	0.00028543	7.2773e-05	972.27	3.0909e-06	2.578e-06	851.33	257.28	2.9128e-06	3.1735e-06	224.59	62.701	63.252	20.44	2.7786e-06	21.619	-57.482	202.357	-50.284	-139.760	-25.405	-13.939	-141.056	-134.490	-11.524	-44.946	-136.430	-131.957	-129.170	-124.964	-15.244	-128.726	-8191	255	
1510.964	1	1	0	0	0.05765	0.15303	0.3303	0.20243	0.22609	0.21183	0.15981	0.108	0.14893	0.21785	0.23034	0.27332	0.13397	0.20126	0.021823	0.1387	-3.5896	-3.3083	-3.9646	-3.6104	-3.4667	-4.2771	-3.5187	-3.9875	-4.0729	-3.2062	-4.1521	-3.8063	-3.3604	-4.3479	-3.5312	-3.6437	2.546	-97.763	138.796	150.661	-143.727	102.572	131.896	-143.108	-100.974	79.349	-128.905	123.023	2.827	179.835	6.758	68.249	0.00024392	0.00034088	0.00012624	1107.9	5.1782e-06	3.8495e-06	983.72	294.37	1.6955e-06	1.611e-06	258.86	72.022	72.461	23.128	4.7765e-06	24.625	0.00025836	0.00027983	7.2845e-05	965.12	3.2333e-06	2.8479e-06	853.66	256.84	2.9058e-06	3.0048e-06	225.65	62.711	63.23	20.399	2.8128e-06	21.739	-53.693	-77.807	-73.037	-139.896	-1.659	26.935	-141.179	-134.187	4.332	5.549	-136.398	-131.961	-129.647	-124.309	27.264	-128.344	-8191	255	
1511.060	1	1	0	0	0.29602	0.16096	0.1622	0.073546	0.028943	0.069644	0.12033	0.12511	0.13855	0.18365	0.071925	0.21889	0.26192	0.1603	0.11568	0.10153	-3.8792	-3.3146	-3.9292	-4.0792	-3.3354	-4.1479	-3.6188	-3.7854	-3.9938	-3.2521	-3.8042	-4.025	-3.325	-4.1542	-3.5062	-3.5438	-80.569	20.505	45.999	-98.419	174.476	144.826	108.873	133.666	83.677	155.913	173.699	145.521	-144.013	-138.100	-114.137	188.580	0.00022008	0.00042311	0.0001041	1115.6	4.0922e-06	1.4784e-06	989.94	293.55	3.8835e-06	4.0742e-06	261.06	71.979	72.462	23.335	3.3594e-06	24.669	0.00023958	0.00027454	7.2028e-05	967.19	3.1144e-06	2.8811e-06	858.31	256.78	2.8654e-06	2.8332e-06	226.85	63.05	63.445	20.523	2.8504e-06	21.833	-54.327	-72.872	-72.771	-139.523	9.412	19.925	-141.077	-134.396	5.667	-17.937	-136.136	-131.925	-129.687	-124.789	11.841	-127.786	-8191	255	
1511.155	1	1	0	0	0.24595	0.03473	0.22209	0.18844	0.2571	0.099421	0.24028	0.20033	0.1391	0.061601	0.18705	0.26235	0.11873	0.11633	0.053451	0.066029	-3.7396	-3.4062	-3.7771	-4.0208	-3.2729	-4.0896	-3.7938	-3.4396	-4.1771	-3.2833	-3.9042	-4.1438	-3.2375	-4.2708	-3.6479	-3.4833	-129.948	118.746	11.535	137.626	89.121	-71.494	134.075	186.388	158.271	7.269	6.154	-137.643	-54.229	168.378	-33.693	130.040	0.00025351	0.00024499	0.00014081	1109.8	2.5507e-06	3.2715e-06	989.45	293.83	5.2579e-06	4.7597e-06	257.67	71.883	72.05	23.187	1.8896e-06	24.499	0.00024218	0.00028857	7.5673e-05	965.29	3.184e-06	2.7365e-06	858.91	256.37	2.9718e-06	2.9824e-06	225.15	62.671	62.913	20.308	2.7303e-06	21.633	-57.643	-50.488	-55.023	-139.685	-12.438	-6.350	-141.272	-134.085	-21.957	-8.967	-136.210	-131.945	-129.601	-124.928	18.883	-127.925	-8191	255	
1511.253	1	1	0	0	0.045951	0.19176	0.10596	0.23765	0.01811	0.079	0.34494	0.19456	0.086937	0.16306	0.19487	0.090322	0.078842	0.2607	0.20442	0.15521	-3.8396	-3.2958	-3.5938	-4.2729	-3.2292	-3.9646	-4.0104	-3.3771	-4.1854	-3.3146	-3.7	-4.0917	-3.2062	-4.1292	-3.8646	-3.3	-82.988	-105.305	-87.045	108.101	43.772	-29.209	142.880	132.753	207.506	198.566	-147.980	169.493	167.300	-144.741	-145.297	162.496	0.00021772	0.00025056	0.00015125	1105	2.8573e-06	2.5638e-06	972.33	291.41	2.5624e-06	4.8158e-06	256.42	70.518	71.069	23.095	4.4266e-06	24.499	0.00023366	0.00028136	7.4048e-05	958.67	3.3248e-06	2.4548e-06	843.75	253.56	2.8411e-06	2.7448e-06	221.99	61.797	62.577	20.228	2.9594e-06	21.534	-63.994	-91.773	-50.764	-139.671	-16.469	-5.930	-140.898	-133.913	-13.984	14.465	-136.167	-131.989	-129.513	-124.633	-4.067	-128.486	-8191	255	
1511.372	1	1	0	0	0.12885	0.22684	0.11936	0.19857	0.32756	0.25123	0.1794	0.30715	0.1946	0.16974	0.2808	0.086903	0.2978	0.1908	0.046545	0.08328	-3.8292	-3.4542	-3.4958	-4.2979	-3.2792	-3.9	-4.1417	-3.3458	-4.275	-3.5667	-3.5354	-4.2125	-3.3312	-3.8771	-4.0813	-3.2604	145.483	-98.408	66.307	174.733	-48.195	-96.901	156.514	95.743	97.825	111.828	-138.099	-140.316	102.592	158.661	203.203	-25.611	0.00020751	0.00032333	5.9936e-05	1103	4.553e-06	4.2681e-06	979.29	290.92	3.8582e-06	2.639e-06	257.2	70.699	71.307	23.051	4.4901e-06	24.791	0.00026032	0.00025712	7.3087e-05	956.1	3.1601e-06	2.739e-06	846.84	253.18	2.892e-06	2.9979e-06	223.64	62.171	62.676	20.294	2.892e-06	21.709	-68.263	-46.195	-64.330	-139.699	-9.739	20.810	-140.923	-134.428	-25.599	-4.787	-136.195	-132.173	-129.641	-124.481	-5.362	-128.392	-8191	255	
1511.468	1	1	0	0	0.17761	0.24355	0.168	0.30827	0.24302	0.13972	0.19728	0.19818	0.20532	0.057898	0.31196	0.26448	0.29886	0.099922	0.11908	0.13975	-3.8583	-3.6271	-3.4938	-4.2375	-3.2229	-3.6937	-4.1604	-3.2917	-4.05	-3.7771	-3.5271	-4.2229	-3.4146	-3.8063	-4.3021	-3.3667	-144.139	152.595	146.396	154.293	-71.997	190.311	81.763	145.448	37.801	-50.761	171.209	169.617	113.671	149.105	-124.079	193.148	0.00019747	0.00026194	0.00011947	1107.3	1.8093e-06	4.6057e-06	979.12	290.99	3.7724e-06	3.7847e-06	258.11	71.592	72.496	23.163	3.0603e-06	24.783	0.00026193	0.00027252	7.4362e-05	959.61	3.0889e-06	2.7854e-06	851.27	254.24	2.9673e-06	2.6687e-06	225.34	62.877	63.106	20.328	2.6417e-06	21.883	-58.646	-76.720	-16.046	-139.395	-16.909	-14.898	-140.861	-134.296	-19.760	31.258	-135.865	-132.065	-128.588	-124.881	0.638	-128.862	-8191	255	
1511.564	1	1	0	0	0.24083	0.30608	0.24216	0.19313	0.12676	0.16849	0.15585	0.079492	0.068346	0.10727	0.10921	0.10584	0.24352	0.061479	0.11154	0.081879	-3.8312	-3.7333	-3.3563	-4.3125	-3.4917	-3.6042	-4.2167	-3.4938	-3.9292	-3.725	-3.3958	-4.3333	-3.5292	-3.7396	-4.1917	-3.3625	118.509	-135.022	-151.447	193.559	-97.133	-18.256	88.989	158.295	-86.306	199.873	201.363	171.297	-147.951	109.767	106.000	137.159	0.00023906	0.00042289	9.5241e-05	1112.4	4.7175e-06	1.195e-06	988.81	290.83	4.1191e-06	4.2422e-06	257.26	70.996	71.811	22.829	2.9866e-06	24.362	0.0002582	0.00027986	7.5224e-05	962.8	3.0259e-06	2.9418e-06	854.07	253.34	3.1466e-06	2.663e-06	224.03	62.224	62.442	20.109	2.7893e-06	21.439	-61.053	-96.670	-57.808	-139.581	26.384	-5.931	-141.072	-134.211	4.844	1.302	-136.305	-131.451	-129.749	-124.476	20.789	-128.185	-8191	255	
1511.660	1	1	0	0	0.2545	0.17672	0.19206	0.20305	0.118	0.22107	0.16854	0.25686	0.13772	0.098009	0.21359	0.18778	0.22002	0.28731	0.24681	0.16141	-3.5563	-3.9792	-3.3125	-4.2688	-3.6833	-3.5396	-4.3208	-3.3688	-3.9917	-4.0667	-3.3	-4.325	-3.7542	-3.5958	-4.4417	-3.5229	-32.835	-59.110	-9.224	190.849	1.935	-103.389	68.699	198.744	102.459	175.695	101.731	206.274	119.070	157.532	-51.770	108.154	0.00024546	0.00034812	0.00011175	1093.6	2.3896e-06	3.3881e-06	969.28	291.06	2.3455e-06	3.852e-06	252.43	70.439	70.897	22.685	4.1204e-06	24.446	0.00026986	0.00025654	7.1768e-05	950.27	3.0104e-06	3.1532e-06	839.67	251.87	2.9196e-06	2.897e-06	221.03	61.68	62.009	19.972	2.8363e-06	21.396	-57.829	-72.333	-68.664	-139.505	16.356	32.025	-140.816	-133.893	16.628	-22.124	-136.380	-131.845	-129.333	-124.252	-23.717	-128.147	-8191	255	
1511.756	1	1	0	0	0.24598	0.24877	0.26572	0.15388	0.10083	0.19487	0.2151	0.29192	0.15762	0.10266	0.19643	0.1517	0.081163	0.095844	0.16278	0.13338	-3.4583	-3.9813	-3.3792	-4.2417	-3.7479	-3.4104	-4.2562	-3.5479	-3.6583	-4.1667	-3.2229	-3.9813	-4.0271	-3.2833	-4.025	-3.6437	-63.559	-13.093	-78.090	122.456	-122.074	114.618	164.095	175.682	-73.176	145.872	146.578	103.226	205.727	96.106	-89.948	180.802	0.00024052	0.0002923	0.0001234	1096	4.9232e-06	3.0862e-06	970.91	289.14	3.5414e-06	4.5601e-06	257.12	71.214	70.918	22.707	3.7832e-06	24.391	0.00025657	0.00025584	7.7478e-05	952.14	3.1306e-06	3.0457e-06	843.12	251.73	2.9788e-06	2.9226e-06	222.48	62.205	62.11	19.97	2.7404e-06	21.485	-60.553	-54.741	-63.490	-139.624	2.714	-8.412	-140.891	-134.520	3.309	11.934	-135.925	-131.627	-129.350	-124.734	-3.630	-128.392	-8191	255	
1511.852	1	1	0	0	0.17588	0.18729	0.1167	0.10053	0.12148	0.13502	0.085022	0.090106	0.066989	0.18676	0.031133	0.056049	0.14639	0.31034	0.10668	0.27664	-3.3896	-4.2979	-3.225	-4.1021	-3.8438	-3.2667	-4.2271	-3.6521	-3.3688	-4.3187	-3.3604	-3.8292	-3.8854	-3.1979	-4.0479	-3.5979	-43.007	-31.952	56.612	76.477	54.656	146.263	117.533	148.501	73.676	-40.587	179.385	167.724	159.626	85.072	-43.176	62.879	0.00022718	0.00027196	0.00011064	1107.4	1.2645e-06	5.9839e-06	975.81	288.52	4.5378e-06	3.7925e-06	257.46	71.373	70.928	22.802	1.6867e-06	24.653	0.00025197	0.00023989	7.2351e-05	956.38	3.0614e-06	3.0807e-06	849.92	251.56	2.9481e-06	2.8829e-06	224.57	62.494	61.975	20.075	2.6548e-06	21.605	-49.691	-72.582	-72.176	-139.294	-25.250	1.849	-140.683	-134.076	-7.820	33.733	-136.050	-132.075	-129.115	-124.482	31.799	-128.621	-8191	255	
1511.973	1	1	0	0	0.14859	0.089105	0.025022	0.14932	0.25941	0.27171	0.17804	0.2343	0.069049	0.13276	0.18799	0.11402	0.25171	0.22952	0.31615	0.056461	-3.0417	-4.1625	-3.1958	-4.0021	-4.0104	-3.3125	-4.2354	-4.0021	-3.2958	-4.3688	-3.5375	-3.7938	-4.0104	-3.3542	-4.0354	-4.0167	-89.651	-22.367	27.557	173.175	38.449	-9.680	156.541	147.089	-47.775	-75.580	84.355	-2.014	197.626	62.007	-40.160	-87.900	0.00024932	0.00036816	9.6909e-05	1105.9	5.8238e-06	2.1959e-06	975.43	287.39	2.7457e-06	3.0218e-06	252.93	70.217	70.27	22.466	6.6549e-07	24.077	0.00026604	0.00024104	8.0315e-05	954.77	2.7921e-06	2.8729e-06	846.49	250.32	3.2468e-06	3.0174e-06	220.37	61.399	61.449	19.781	2.63e-06	21.071	-57.566	-89.728	-50.271	-139.571	-11.099	1.941	-140.946	-134.131	17.489	-6.012	-136.333	-131.802	-129.361	-124.455	24.423	-128.689	-8191	255	
1512.067	1	1	0	0	0.27543	0.20495	0.087156	0.029118	0.14903	0.040886	0.030902	0.089143	0.061012	0.12725	0.14531	0.16424	0.047186	0.1246	0.12704	0.29422	-3.0083	-4.2875	-3.1583	-3.6646	-4.0938	-3.3312	-4.1104	-3.7958	-3.4625	-4.1729	-3.5062	-3.6063	-4.275	-3.4188	-4.0333	-3.9542	-28.113	165.154	191.006	118.578	16.383	178.378	0.152	-91.921	-70.690	-144.212	81.418	127.446	-146.724	-98.886	4.965	116.833	0.00024055	0.00031977	0.00016414	1087.3	4.4645e-06	4.3974e-06	959.18	286.36	4.5855e-06	2.3941e-06	251.25	70.429	70.118	22.452	3.3735e-06	24.124	0.00025146	0.00024921	7.4937e-05	945.45	3.2688e-06	2.9264e-06	835.47	248.62	3.0182e-06	2.7863e-06	218.89	61.26	61.152	19.72	2.9406e-06	21.174	-56.066	-40.942	-74.534	-139.671	20.805	2.102	-140.781	-133.832	-8.800	-33.213	-135.969	-131.524	-129.588	-125.133	27.667	-128.298	-8191	255	
1512.163	1	1	0	0	0.042924	0.2095	0.017868	0.29128	0.053635	0.112	0.11078	0.23195	0.18689	0.02819	0.19892	0.080449	0.14679	0.047989	0.20795	0.138	-2.9271	-4.2021	-3.5	-3.6229	-4.1708	-3.4125	-4.0021	-3.9375	-3.3646	-4.1708	-3.6792	-3.5646	-4.3083	-3.3396	-3.9604	-4.0208	-33.146	-83.516	-51.184	-126.018	33.811	65.146	-129.273	35.984	125.313	197.792	186.625	54.500	-135.917	36.377	58.939	74.223	0.00022508	0.00031084	9.7185e-05	1094.9	1.7031e-06	3.3946e-06	968.44	285.53	4.4266e-06	3.7418e-06	252.38	69.813	70.183	22.429	5.001e-06	24.31	0.00025957	0.00025468	7.3267e-05	946.03	2.9839e-06	2.8782e-06	840.52	249.44	3.2314e-06	2.9392e-06	220.14	61.44	61.526	19.771	2.8376e-06	21.214	-58.038	-54.751	-74.564	-139.167	59.053	-32.997	-140.659	-134.106	23.327	3.919	-136.166	-131.858	-129.319	-124.859	30.077	-128.163	-8191	255	
1512.237	1	1	0	0	0.20681	0.13673	0.18185	0.22427	0.17001	0.23288	0.13773	0.031146	0.11973	0.080868	0.27102	0.21395	0.032117	0.064718	0.12525	0.16768	-3	-4.0625	-3.6958	-3.5396	-4.2562	-3.3167	-3.9188	-4.2583	-3.3063	-4.1604	-3.9833	-3.2521	-4.3187	-3.4	-3.6958	-4.2125	153.521	-142.003	88.160	179.239	-99.771	9.299	-70.884	-27.491	19.563	105.460	141.233	-141.258	196.375	132.580	-151.711	203.285	0.00023439	0.00027117	9.348e-05	1093.5	1.889e-06	4.8256e-06	980.72	288.37	3.0465e-06	4.8198e-06	256.04	70.366	70.76	22.353	3.9099e-06	24.348	0.00026483	0.00024114	6.9748e-05	949.59	2.8991e-06	2.9618e-06	848.94	250.23	3.048e-06	3.0358e-06	222.69	62.035	61.705	19.716	2.8544e-06	21.343	-59.549	-98.056	-105.269	-139.902	-14.591	5.735	-140.641	-134.290	-23.052	-9.725	-136.651	-131.439	-129.673	-124.923	37.652	-128.103	-8191	255	
1512.356	1	1	0	0	0.10473	0.11862	0.12393	0.28713	0.097761	0.11679	0.1686	0.17986	0.10771	0.10769	0.16805	0.12962	0.023442	0.33898	0.17859	0.082644	-2.925	-3.8042	-3.8458	-3.3083	-4.0917	-3.5646	-3.5812	-4.1937	-3.2083	-3.6896	-3.9562	-3.2188	-4.225	-3.5604	-3.5146	-4.2146	0.865	-88.487	199.452	117.544	52.733	117.306	76.133	172.587	115.660	-140.433	-142.418	78.108	-43.238	122.275	166.892	196.096	0.00025867	0.00025169	8.6913e-05	1091.8	2.8525e-06	2.4963e-06	961.54	284.29	4.2071e-06	3.9555e-06	249.19	69.766	69.277	22.247	2.7015e-06	23.888	0.00026081	0.00025513	7.0852e-05	947.2	2.75e-06	2.9875e-06	838.43	248.17	3.2596e-06	3.1912e-06	217.87	61.098	61.101	19.556	2.9202e-06	20.998	-61.810	-70.582	-70.087	-139.866	21.298	56.954	-140.775	-134.514	19.111	14.816	-136.548	-131.580	-129.702	-125.116	2.373	-128.545	-8191	255	
1512.452	1	1	0	0	0.096819	0.10131	0.095457	0.059178	0.18028	0.19381	0.32453	0.20952	0.17856	0.1677	0.16551	0.15693	0.13148	0.14172	0.19091	0.20281	-2.8937	-3.7687	-3.9813	-3.3854	-3.9917	-3.6396	-3.4375	-4.4104	-3.2167	-3.7687	-4.0583	-3.1646	-4.1771	-3.7812	-3.5438	-4.3625	-115.254	-6.767	-12.059	143.606	56.326	71.035	166.902	144.443	187.571	47.030	191.474	4.824	188.662	-89.891	103.504	122.310	0.00024004	0.00023708	0.00012634	1087.4	2.3003e-06	2.7235e-06	953.53	281.41	3.7477e-06	3.1791e-06	249.87	69.85	69.021	22.397	1.7998e-06	24.068	0.00026302	0.00025699	7.3482e-05	941.06	2.854e-06	2.9114e-06	831.76	246.22	2.9919e-06	2.6842e-06	218.2	60.968	60.728	19.647	2.9527e-06	21.13	-53.384	-98.864	-66.223	-139.515	10.163	21.676	-140.931	-134.434	-5.014	5.621	-136.568	-131.770	-130.007	-124.628	17.397	-128.058	-8191	255	
1512.548	1	1	0	0	0.053759	0.18852	0.19307	0.1111	0.16174	0.042592	0.2396	0.013777	0.2234	0.22319	0.056588	0.13304	0.079639	0.12794	0.19845	0.37653	-3.0792	-3.8187	-4.2292	-3.3708	-4.0563	-3.7604	-3.4562	-4.3458	-3.45	-3.5292	-4.3042	-3.3375	-4.0708	-3.9271	-3.2792	-4.1708	-131.961	-105.960	-12.233	40.805	-49.583	159.964	130.841	-25.453	-2.618	176.460	116.053	167.275	25.984	200.763	-26.577	155.304	0.00020436	0.00020226	8.7343e-05	1081.5	5.8881e-06	3.4967e-06	962.47	283.23	5.6207e-06	1.9866e-06	252.38	70.113	70.33	22.268	5.0905e-06	24.264	0.00024863	0.00023351	6.4487e-05	941.99	2.8736e-06	2.819e-06	837.06	247.32	3.1684e-06	2.9475e-06	219.68	61.396	61.218	19.621	2.836e-06	21.215	-56.773	-42.709	-66.902	-139.660	-30.287	20.501	-141.140	-133.930	-2.229	10.366	-136.358	-131.718	-129.467	-124.811	-8.696	-127.919	-8191	255	
1512.644	1	1	0	0	0.099881	0.14775	0.10412	0.16415	0.10819	0.20118	0.14741	0.3602	0.3144	0.16672	0.029595	0.14673	0.084205	0.21248	0.1251	0.24782	-3.0521	-3.5333	-4.2229	-3.3354	-4.0062	-4.0958	-3.4958	-4.2479	-3.4354	-3.4813	-4.3063	-3.1771	-3.9292	-4.0083	-3.2604	-4.2833	-151.407	-35.824	198.944	79.153	19.632	172.223	90.648	153.431	81.402	204.694	23.598	156.490	198.969	195.967	142.280	15.133	0.00022949	0.00038289	5.217e-05	1084.6	2.3145e-06	2.6831e-06	976.09	285.85	3.507e-06	2.5239e-06	253.73	70.518	70.439	22.375	2.0984e-06	24.056	0.00023587	0.00025565	6.8805e-05	945.13	2.809e-06	2.7422e-06	845.11	249.03	3.0969e-06	2.8926e-06	221.33	61.715	61.375	19.672	2.7286e-06	21.209	-66.260	-56.402	-78.161	-139.496	3.003	11.541	-141.118	-134.215	12.209	19.911	-136.182	-131.681	-129.623	-124.527	12.606	-127.557	-8191	255	
1512.765	1	1	0	0	0.11264	0.071345	0.11032	0.14919	0.18826	0.099214	0.017383	0.20544	0.21345	0.069217	0.053153	0.11787	0.026305	0.10556	0.12457	0.1199	-3.3521	-3.2854	-4.0667	-3.4417	-3.8875	-4.1104	-3.4542	-4.0521	-3.6979	-3.5792	-4.3083	-3.4458	-3.5563	-4.15	-3.0667	-4	-125.254	-49.050	39.697	-110.254	-64.453	-138.087	117.386	105.181	137.071	178.934	6.378	69.177	157.204	194.611	139.887	204.083	0.00024462	0.00050958	7.6523e-05	1087.4	3.0743e-06	4.32e-06	956.85	281.87	3.6399e-06	2.1913e-06	248.34	69.26	69.365	22.08	3.8298e-06	23.773	0.00025555	0.00026272	7.0143e-05	941.74	2.8305e-06	2.8922e-06	834.87	245.85	2.9625e-06	2.91e-06	217.16	60.584	60.763	19.417	2.9987e-06	20.797	-59.232	-49.011	-40.955	-139.636	8.554	2.964	-141.021	-133.845	-18.605	2.272	-136.444	-131.869	-129.103	-124.699	14.310	-128.106	-8191	255	
1512.837	1	1	0	0	0.12481	0.029668	0.17951	0.02787	0.1226	0.09066	0.27086	0.18879	0.085595	0.04694	0.21844	0.35217	0.18772	0.1666	0.175	0.12321	-3.4062	-3.1646	-4.1396	-3.4583	-3.5875	-4.1125	-3.2271	-4.1937	-3.8521	-3.1875	-4.2229	-3.5854	-3.4396	-4.2042	-3.15	-4.0625	138.544	-20.385	-141.251	166.952	97.977	-104.838	139.284	142.848	46.502	67.766	194.571	-91.470	118.394	-119.479	102.815	69.272	0.00022618	0.00027153	7.8886e-05	1080.8	2.2748e-06	3.8482e-06	959.5	282.49	3.6337e-06	2.7936e-06	251.64	70.262	69.366	22.253	3.455e-06	23.877	0.00024181	0.00028011	6.85e-05	938.18	3.016e-06	2.7693e-06	833.49	245.93	3.1245e-06	2.968e-06	218.6	61.193	60.852	19.574	2.9185e-06	21.013	-56.774	-106.918	-105.849	-139.881	-32.110	-17.485	-141.194	-134.039	10.669	8.595	-136.121	-131.369	-129.306	-124.728	16.416	-127.932	-8191	255	
1512.933	1	1	0	0	0.16626	0.084995	0.49772	0.2837	0.11578	0.10325	0.1885	0.029449	0.05755	0.14088	0.19318	0.19917	0.14936	0.10692	0.15569	0.10921	-3.55	-3.4062	-4.075	-3.5917	-3.2208	-4.3125	-3.2167	-3.9458	-3.8833	-3.35	-4.1375	-3.6021	-3.4104	-4.1979	-3.3021	-3.7917	-86.984	13.991	201.761	180.520	-60.926	92.839	-118.470	-95.620	-94.210	-103.161	148.521	160.871	-127.027	198.692	107.611	17.091	0.00020868	0.0003774	5.7484e-05	1087.2	3.1111e-06	8.2066e-07	968.45	284.23	3.5156e-06	9.4769e-07	252.5	69.885	69.886	22.24	4.7937e-06	24.062	0.00024652	0.00028521	7.0466e-05	943.73	2.7589e-06	2.7761e-06	838.53	247.85	2.8101e-06	2.8068e-06	220.29	61.44	61.247	19.665	3.0839e-06	21.221	-62.979	-65.027	-29.285	-140.055	-8.986	53.418	-141.169	-134.543	-15.855	80.571	-136.183	-132.230	-129.736	-124.807	-8.555	-128.664	-8191	255	
1513.053	1	1	0	0	0.0069434	0.03853	0.27939	0.067094	0.22676	0.29285	0.21067	0.19781	0.14519	0.11456	0.19228	0.12233	0.056931	0.25738	0.094708	0.093989	-3.6917	-3.3229	-4.0062	-4.0021	-3.4229	-4.2667	-3.5083	-3.725	-4.1521	-3.2146	-4.0771	-3.6583	-3.2812	-4.3583	-3.4188	-3.7	183.715	51.621	141.286	96.610	-142.311	160.141	135.739	140.562	24.440	-50.944	139.378	119.810	130.280	171.451	83.223	187.803	0.00023042	0.00052053	7.9816e-05	1090.5	3.0278e-06	2.2066e-06	975.86	284.57	3.5953e-06	4.3945e-06	253.57	70.323	69.751	22.32	3.7769e-06	24.203	0.00025953	0.00026525	7.544e-05	944.94	3.0147e-06	2.589e-06	846.08	248.7	2.9996e-06	2.8306e-06	221.27	61.825	61.482	19.659	2.9614e-06	21.235	-59.001	-58.932	-75.392	-139.743	52.821	10.503	-141.128	-134.320	-2.727	-39.880	-136.422	-132.061	-129.610	-124.705	8.185	-127.468	-8191	255	
1513.148	1	1	0	0	0.098988	0.084998	0.21219	0.23833	0.10554	0.11007	0.20498	0.29329	0.14655	0.049344	0.15762	0.01695	0.19291	0.15374	0.14592	0.33625	-3.7854	-3.2292	-3.8979	-3.9437	-3.3917	-4.2125	-3.7104	-3.4896	-4.1917	-3.2229	-3.95	-4.025	-3.2583	-4.225	-3.7146	-3.5042	-142.571	203.070	-128.486	168.462	117.778	-104.522	91.627	159.182	40.763	191.144	203.443	-34.475	-6.096	-17.564	-59.235	153.956	0.00022319	0.00025716	7.7806e-05	1075.6	3.4922e-06	2.8753e-06	965.27	283.2	3.6429e-06	3.5803e-06	250.75	70.175	69.455	22.173	2.1856e-06	23.935	0.00024822	0.00027025	6.4747e-05	939.49	2.9842e-06	2.7393e-06	836.3	247.03	2.7486e-06	2.8548e-06	218.15	61.168	60.92	19.55	2.8584e-06	21.081	-58.360	-65.433	-53.110	-140.010	33.287	-22.170	-140.963	-134.162	10.657	-3.143	-136.344	-132.232	-129.471	-124.506	-7.205	-128.215	-8191	255	
1513.246	1	1	0	0	0.073101	0.18656	0.30584	0.13746	0.14358	0.07146	0.21544	0.42714	0.10983	0.17918	0.064736	0.078041	0.23495	0.24314	0.1074	0.16136	-3.8271	-3.1771	-3.8771	-4.2958	-3.0458	-4.1667	-3.8812	-3.4417	-4.1	-3.2521	-3.8104	-4.0667	-3.4271	-3.9938	-3.9729	-3.5042	153.192	48.806	-80.805	206.240	-19.569	183.807	91.826	179.249	-144.647	-126.723	-16.625	55.111	-147.570	192.339	126.162	-130.256	0.00019963	0.00020239	0.0001338	1081.2	3.6119e-06	4.1667e-06	963.87	283.19	2.3444e-06	4.4189e-06	251.29	70.217	69.658	22.463	4.034e-06	24.064	0.0002513	0.00025033	7.4892e-05	941.01	3.1048e-06	3.0532e-06	837.31	246.7	2.7864e-06	2.9983e-06	219.43	61.419	61.059	19.707	2.7803e-06	21.209	-55.389	-85.444	-63.832	-139.822	-16.703	11.800	-141.036	-134.692	-26.277	-67.642	-136.480	-131.814	-130.104	-125.165	12.242	-127.990	-8191	255	
1513.364	1	1	0	0	0.13321	0.21837	0.090409	0.11156	0.025906	0.086849	0.15486	0.16148	0.086969	0.14825	0.16288	0.16336	0.24172	0.18749	0.18708	0.13974	-3.7812	-3.3917	-3.5062	-4.3375	-3.2875	-3.8833	-3.8542	-3.4375	-4.2063	-3.5396	-3.5167	-4.1083	-3.3104	-4.0292	-3.8417	-3.2729	-130.280	-26.445	-139.653	-103.156	164.823	79.544	132.284	72.925	-138.224	104.161	47.270	-48.877	154.615	-41.345	-22.517	-51.752	0.0001961	0.0002294	6.9399e-05	1086.8	3.0873e-06	1.6999e-06	972.49	283.34	1.7661e-06	3.917e-06	254.38	70.932	69.902	22.4	4.0945e-06	24.122	0.00024138	0.00026138	6.6471e-05	944.7	3.012e-06	2.9039e-06	842.05	247.58	3.0697e-06	3.0052e-06	221.56	61.853	61.38	19.828	2.9296e-06	21.339	-56.371	-45.677	-35.053	-139.776	-0.170	71.760	-140.948	-134.181	-63.470	15.113	-136.375	-131.642	-129.461	-124.883	65.222	-128.323	-8191	255	
1513.461	1	1	0	0	0.22807	0.11827	0.20836	0.18017	0.10095	0.063563	0.31287	0.12855	0.046721	0.048789	0.077178	0.090428	0.06243	0.054636	0.093163	0.036502	-3.8458	-3.5125	-3.5354	-4.2917	-3.2083	-3.7979	-4.1229	-3.475	-4.1958	-3.4354	-3.5583	-4.2438	-3.3979	-3.6542	-4.1833	-3.2313	-70.123	148.496	50.620	-146.751	205.202	50.236	155.472	167.248	62.524	62.139	202.065	17.477	63.859	50.486	-75.734	142.496	0.00023504	0.00036508	9.4436e-05	1093.3	3.568e-06	2.9424e-06	980.87	284.9	2.0958e-06	4.0655e-06	254.42	70.494	70.358	22.499	2.5465e-06	24.249	0.00023764	0.00027329	7.596e-05	947.12	2.9657e-06	2.9322e-06	850.48	248.89	2.9151e-06	2.8905e-06	222.45	61.809	61.483	19.729	2.9041e-06	21.29	-60.274	-64.954	-35.508	-140.128	-8.433	17.902	-141.031	-134.211	-7.003	-29.037	-136.294	-132.156	-129.666	-125.131	-19.418	-128.024	-8191	255	
1513.532	1	1	0	0	0.068946	0.18836	0.073545	0.2958	0.1333	0.15791	0.086869	0.081066	0.17365	0.056207	0.10664	0.19656	0.19267	0.17732	0.27535	0.14097	-3.8438	-3.8583	-3.2604	-4.4646	-3.2687	-3.7896	-4.2833	-3.5729	-3.9708	-3.8396	-3.475	-4.1562	-3.6312	-3.6625	-4.0188	-3.2667	-61.329	140.610	160.366	133.056	-123.389	-59.187	116.490	-151.695	-97.129	-86.586	192.025	202.870	187.880	-86.647	-143.685	140.133	0.00022056	0.00025659	8.8493e-05	1083	2.1658e-06	5.172e-06	965.65	282.8	2.4496e-06	1.1664e-06	251.76	69.981	69.597	22.208	2.2394e-06	24.16	0.00024554	0.00026071	7.1732e-05	941.31	3.0342e-06	2.9247e-06	836.28	246.6	2.7915e-06	2.9882e-06	218.99	61.204	60.964	19.598	2.8027e-06	21.1	-51.806	-45.083	-85.567	-139.808	15.044	-8.751	-141.220	-134.264	-14.659	-86.397	-136.208	-131.642	-129.536	-124.736	-7.990	-128.494	-8191	255	
1513.653	1	1	0	0	0.42544	0.088389	0.09798	0.14918	0.11699	0.23236	0.12396	0.11202	0.16981	0.23312	0.30209	0.031536	0.1085	0.25592	0.25009	0.17694	-3.7062	-4.0042	-3.1458	-4.2854	-3.6354	-3.3229	-4.2063	-3.5042	-3.9396	-3.8375	-3.2042	-4.2063	-3.6875	-3.5604	-4.2063	-3.5167	-85.192	-145.506	-143.974	118.516	-8.116	-64.075	169.933	152.956	-111.851	53.054	-151.666	33.313	-34.557	147.550	163.451	189.052	0.00021199	0.00017963	0.00014445	1076.3	1.9007e-06	3.7352e-06	967.42	283.67	4.9207e-06	3.4608e-06	253.76	70.441	69.37	22.346	3.1882e-06	24.165	0.00024444	0.00024847	7.6993e-05	938.75	3.1161e-06	2.8504e-06	841.39	247.06	2.7588e-06	2.9183e-06	220.08	61.851	60.97	19.752	2.5498e-06	21.33	-71.792	-59.024	-58.860	-139.739	71.423	7.132	-141.143	-134.238	0.331	42.181	-136.224	-132.121	-129.491	-124.539	-24.602	-127.893	-8191	255	
1513.749	1	1	0	0	0.15551	0.035306	0.15595	0.10341	0.074058	0.025046	0.16433	0.1699	0.20985	0.017663	0.095901	0.31243	0.2457	0.24729	0.10351	0.19191	-3.4375	-3.9729	-3.2667	-4.3167	-3.6604	-3.4396	-4.5	-3.4437	-3.7479	-4.0917	-3.1437	-4.1167	-3.6854	-3.3875	-4.2917	-3.4833	78.425	160.687	12.719	145.763	-66.908	-144.476	-114.691	119.163	78.986	-140.143	-36.478	186.366	-151.349	-84.701	133.226	150.806	0.00025335	0.00026227	0.00011211	1089.8	9.5514e-07	2.9965e-06	980.17	285.45	4.9438e-06	4.2344e-06	253.19	71.247	70.452	22.423	2.621e-06	24.427	0.00025569	0.00026432	7.4371e-05	943.54	3.1041e-06	3.0082e-06	847.58	248.17	3.1696e-06	2.9157e-06	221.25	62.231	61.564	19.795	2.952e-06	21.502	-61.222	-54.465	-54.972	-139.732	41.000	15.572	-140.962	-134.484	18.582	-37.052	-136.462	-131.910	-129.683	-124.610	0.244	-128.375	-8191	255	
1513.845	1	1	0	0	0.13915	0.072665	0.13463	0.13329	0.27096	0.024397	0.26834	0.13069	0.28288	0.06431	0.10678	0.25917	0.13169	0.28255	0.15424	0.18699	-3.3812	-4.1937	-3.2979	-4.2375	-3.8958	-3.2729	-4.5521	-3.5708	-3.7521	-4.1917	-3.3667	-4.1042	-3.9833	-3.275	-4.2667	-3.6354	112.452	15.151	72.879	-132.805	124.963	82.560	141.715	182.268	-18.718	-129.434	200.146	-138.948	189.078	182.018	-3.564	88.348	0.00020243	0.00018078	0.00016239	1087.6	3.1743e-06	2.5447e-06	980.5	284.75	5.2799e-06	1.4329e-06	253.39	71.035	70.023	22.374	5.0449e-06	24.204	0.00024995	0.0002674	7.7172e-05	946.66	2.9163e-06	2.88e-06	849.75	248.31	2.9301e-06	2.5869e-06	220.54	62.096	61.312	19.716	2.9004e-06	21.283	-59.714	-9.826	-43.998	-139.558	-71.559	-33.371	-140.950	-134.517	-21.907	41.928	-136.102	-131.387	-129.912	-124.530	51.481	-128.330	-8191	255	
1513.941	1	1	0	0	0.19427	0.11716	0.2207	0.065356	0.10463	0.088738	0.3215	0.25405	0.072058	0.039253	0.17391	0.13128	0.20911	0.21076	0.38672	0.20507	-3.3917	-4.1854	-3.4167	-4.0938	-3.8208	-3.35	-4.3458	-3.6792	-3.3875	-4.3625	-3.45	-3.7833	-4.0583	-3.4479	-4.1208	-3.7104	48.991	144.908	205.979	189.341	141.971	80.747	151.568	151.661	85.598	53.015	-127.434	-123.888	122.151	-134.091	22.332	126.574	0.00023051	0.00015864	0.00011092	1086.8	9.8747e-07	8.749e-07	971.14	280.5	4.3237e-06	2.1584e-06	248.4	70.911	69.891	22.326	2.1503e-06	24.08	0.00025571	0.00026782	7.3806e-05	942.64	2.909e-06	3.0685e-06	840.29	245.58	3.1043e-06	2.615e-06	217.89	61.63	61.134	19.623	2.7601e-06	21.238	-65.191	-88.816	-62.621	-139.802	-18.812	26.133	-141.109	-134.514	3.553	-12.798	-136.481	-132.038	-128.942	-124.420	-36.273	-127.848	-8191	255	
1514.060	1	1	0	0	0.16956	0.29238	0.1887	0.13472	0.26138	0.090418	0.028879	0.20791	0.19826	0.19454	0.35581	0.1565	0.28263	0.37719	0.09105	0.055878	-2.9896	-4.2438	-3.3792	-3.9542	-4.0563	-3.2562	-4.2958	-3.7958	-3.4292	-4.3417	-3.4083	-3.6917	-4.1104	-3.2292	-4.0062	-3.8042	126.923	-10.834	54.946	-132.395	99.616	161.494	130.864	50.510	-18.340	156.827	195.477	64.655	207.156	199.390	-88.423	145.443	0.00018308	0.00037686	0.00013384	1088.2	3.8064e-06	2.7102e-06	967.55	281.88	2.4053e-06	1.7136e-06	252.92	70.864	69.871	22.295	1.8942e-06	24.564	0.00024185	0.00025385	7.5799e-05	942.81	2.8944e-06	2.7736e-06	839.53	246.03	3.0601e-06	2.6547e-06	219.58	61.858	60.943	19.659	2.8225e-06	21.462	-59.194	-78.916	-53.416	-139.629	-24.412	-25.916	-140.739	-134.154	12.603	31.946	-136.141	-131.961	-129.210	-124.162	-8.439	-128.682	-8191	255	
1514.134	1	1	0	0	0.28409	0.24756	0.080655	0.3897	0.18357	0.028803	0.14254	0.21231	0.20428	0.1441	0.13832	0.094628	0.27433	0.16448	0.12371	0.06443	-3.1646	-4.2562	-3.5854	-3.7854	-4.2271	-3.2833	-4.1604	-3.9188	-3.2188	-4.1375	-3.6312	-3.3042	-4.1167	-3.2521	-3.8875	-4.0125	174.916	-94.487	0.983	205.968	-15.743	82.125	93.817	-143.813	87.697	113.177	-88.331	-144.937	196.914	83.728	47.767	95.025	0.00025485	0.00022455	0.00011754	1087.9	2.0012e-06	3.1768e-06	976.39	284.98	4.3745e-06	4.048e-06	253.76	71.502	70.375	22.545	3.4889e-06	24.762	0.00025748	0.00026311	7.7271e-05	944.77	2.8895e-06	2.8093e-06	849.57	248.05	3.0768e-06	3.0618e-06	221.68	62.532	61.438	19.764	3.0376e-06	21.566	-61.132	-40.604	-62.847	-139.735	27.865	-2.825	-140.875	-134.408	-9.594	-44.643	-136.213	-131.939	-130.013	-124.509	32.639	-127.754	-8191	255	
1514.228	1	1	0	0	0.12915	0.17177	0.10404	0.15058	0.05517	0.14111	0.26827	0.050427	0.12511	0.064312	0.083788	0.17323	0.2107	0.10733	0.27724	0.052198	-2.8417	-4.1292	-3.7917	-3.5333	-4.1937	-3.2729	-3.9583	-4.0417	-3.1188	-4.1583	-3.8771	-3.3312	-4.2937	-3.1833	-3.7333	-4.1146	138.013	6.545	144.981	117.208	-73.698	8.736	-99.325	118.088	88.799	-33.649	186.697	141.001	168.803	204.751	54.984	129.594	0.00025343	0.00025277	0.00010015	1089.6	3.0684e-06	5.3419e-06	974.77	283.17	2.1188e-06	4.9096e-06	253.76	70.274	69.881	22.332	5.2793e-06	24.323	0.00026222	0.00025862	7.131e-05	947.2	2.7556e-06	2.8882e-06	847.65	246.45	2.9705e-06	2.8018e-06	220.26	61.468	61.23	19.636	2.8967e-06	21.212	-60.384	-76.135	-50.494	-139.987	-10.772	14.855	-141.122	-134.466	-15.220	-4.636	-136.551	-131.855	-130.508	-124.439	-14.466	-128.044	-8191	255	
1514.326	1	1	0	0	0.24544	0.080311	0.16641	0.36688	0.064551	0.11802	0.14193	0.16577	0.090939	0.1513	0.14604	0.35935	0.16073	0.26601	0.23922	0.099422	-2.9021	-4.0542	-3.7646	-3.3292	-4.2958	-3.4833	-3.7188	-4.1646	-3.2875	-4.0083	-3.8021	-3.2333	-4.0188	-3.3979	-3.4417	-4.0583	6.343	-27.082	-13.112	-99.422	172.542	-104.892	167.114	72.954	113.620	-116.043	130.269	-76.139	-106.640	-120.683	190.013	187.039	0.00021504	0.00037985	0.00012458	1086.5	3.5092e-06	4.3402e-06	970.21	282.17	3.713e-06	4.0226e-06	250.12	69.593	70.246	22.273	3.7832e-06	23.789	0.00025001	0.00026487	7.3312e-05	940.11	2.9143e-06	3.0807e-06	838.12	244.93	3.0067e-06	2.9457e-06	217.9	61.09	60.921	19.526	2.8796e-06	21.058	-56.977	-45.778	-61.560	-139.599	-0.928	-27.866	-141.039	-134.286	-10.015	11.724	-136.381	-131.853	-129.818	-124.777	3.877	-128.137	-8191	255	
1514.445	1	1	0	0	0.20433	0.10843	0.13479	0.13506	0.26985	0.091142	0.15142	0.11287	0.20922	0.11237	0.12912	0.099782	0.070255	0.2338	0.19651	0.087593	-2.7771	-3.9125	-3.8521	-3.3792	-4.1271	-3.5458	-3.4417	-4.3458	-3.375	-3.8146	-4.0042	-3.2979	-4.2271	-3.8063	-3.425	-4.3	-111.872	52.490	-32.519	-64.933	165.750	129.302	-149.844	120.832	180.758	74.578	125.781	156.993	51.695	-95.661	191.902	-125.291	0.00022809	0.00025019	8.4806e-05	1088.2	3.9799e-06	3.3388e-06	964.37	280.81	3.5967e-06	3.6803e-06	249.6	69.928	69.481	22.143	5.449e-06	24.411	0.00025808	0.00026836	6.9811e-05	939.82	2.8302e-06	2.6786e-06	839.6	245.23	3.1114e-06	3.1321e-06	218.77	61.506	60.898	19.52	3.0822e-06	21.341	-57.291	-90.590	-67.457	-139.646	-18.949	34.545	-140.971	-134.154	11.412	-6.237	-136.328	-131.663	-129.446	-124.466	13.139	-128.065	-8191	255	
1514.541	1	1	0	0	0.1066	0.069103	0.32251	0.42875	0.089331	0.16168	0.3988	0.21723	0.053265	0.33458	0.054965	0.1457	0.10407	0.37473	0.12935	0.2002	-3.0104	-3.7979	-4.2417	-3.3667	-4.1854	-3.725	-3.6729	-4.35	-3.3479	-3.8604	-4.2063	-3.1771	-4.1542	-3.8708	-3.1521	-4.2146	66.335	48.202	128.242	206.947	-34.538	65.639	161.392	188.510	-114.983	133.212	34.981	-137.387	58.589	174.636	-76.152	-1.663	0.00022711	0.00036729	0.00011384	1085.6	5.5512e-06	3.5354e-06	974.22	281.54	4.426e-06	5.4147e-06	256.79	71.003	69.365	22.59	4.4965e-06	24.332	0.00025442	0.00024927	6.8114e-05	942.79	2.8358e-06	2.8754e-06	848.74	245.91	2.9708e-06	2.9514e-06	222.19	61.962	61.089	19.725	3.1305e-06	21.438	-61.961	-57.587	-41.327	-139.645	14.473	-6.234	-140.792	-134.527	-18.658	-6.950	-136.252	-131.389	-129.464	-124.672	13.935	-128.185	-8191	255	
1514.637	1	1	0	0	0.18448	0.085813	0.30269	0.14699	0.31304	0.15583	0.20053	0.10163	0.12765	0.20985	0.11849	0.047756	0.18561	0.18698	0.13015	0.08955	-3.0542	-3.4417	-4.1438	-3.4604	-3.975	-3.8542	-3.3563	-4.2875	-3.525	-3.4604	-4.2521	-3.3	-4.0938	-3.9208	-3.3083	-4.0542	122.290	-89.029	56.650	-120.516	199.459	-139.814	164.217	199.527	-29.162	-98.900	-57.444	193.528	-30.822	167.192	103.832	63.845	0.00023609	0.00021093	0.00015291	1090.1	3.5977e-06	2.8792e-06	969.24	281.49	2.3685e-06	5.5513e-06	251.08	69.978	69.456	22.201	2.1705e-06	23.923	0.00025953	0.0002552	7.7163e-05	942.86	2.96e-06	2.649e-06	843.9	245.47	2.7652e-06	3.1616e-06	218.47	61.201	60.856	19.572	2.7618e-06	21.079	-60.155	-115.404	-75.323	-139.576	31.675	-31.917	-141.036	-134.325	18.561	0.074	-136.635	-131.862	-129.326	-124.640	11.421	-128.021	-8191	255	
1514.733	1	1	0	0	0.24059	0.098229	0.18815	0.13804	0.12204	0.16127	0.27258	0.099303	0.17695	0.13394	0.081461	0.065138	0.15328	0.024787	0.22218	0.17296	-3.3771	-3.475	-4.225	-3.4083	-3.8917	-4.075	-3.475	-4.2396	-3.6542	-3.4313	-4.3562	-3.3604	-3.9125	-4.2229	-3.0479	-4.2104	-24.122	104.991	47.051	126.746	159.013	-81.751	178.464	-133.928	-45.274	-111.560	88.384	161.893	163.736	131.065	32.402	-108.607	0.0002176	0.00031108	0.00011574	1083.6	2.3062e-06	5.944e-06	966.26	279.05	4.8208e-06	6.0575e-06	249.84	69.631	69.328	22.248	4.7884e-06	23.783	0.00024381	0.00027243	6.7171e-05	937.14	2.9176e-06	2.8318e-06	836.81	244.41	2.9019e-06	2.9893e-06	217.57	61.103	60.484	19.475	2.9571e-06	21.039	-58.909	-93.513	-75.974	-139.915	-65.332	-24.474	-141.018	-134.289	-2.611	5.993	-136.665	-132.044	-129.451	-124.486	8.982	-128.088	-8191	255	
1514.829	1	1	0	0	0.2102	0.27758	0.11901	0.2557	0.22687	0.16449	0.064127	0.1608	0.18571	0.23563	0.33728	0.041673	0.23337	0.231	0.12572	0.18917	-3.4396	-3.2958	-4.1333	-3.4104	-3.6958	-4.125	-3.3646	-4.1708	-3.8271	-3.3542	-4.3021	-3.5083	-3.7438	-4.2167	-3.1688	-4.1625	-10.493	199.182	69.581	-144.342	57.587	83.791	-36.837	155.313	-30.425	63.143	142.664	176.204	60.039	-67.630	-63.169	101.212	0.00022092	0.00062565	0.00010944	1076.2	2.6426e-06	1.7043e-06	974.23	280.36	4.1884e-06	4.144e-06	252.38	70.366	69.29	22.206	4.0181e-06	23.976	0.00025395	0.00026897	7.3411e-05	938.57	3.0223e-06	2.5883e-06	843.12	244.53	2.9573e-06	2.9082e-06	219.5	61.41	60.51	19.505	2.8645e-06	21.134	-57.418	-47.215	-64.876	-139.889	-35.639	13.814	-141.449	-134.470	-6.768	-10.943	-136.628	-131.976	-129.846	-124.576	-14.012	-127.774	-8191	255	
1514.926	1	1	0	0	0.14932	0.046945	0.18126	0.10438	0.19485	0.1141	0.099477	0.13505	0.21695	0.13906	0.099516	0.098874	0.39616	0.093533	0.14075	0.083406	-3.4667	-3.2771	-4.1687	-3.625	-3.3563	-4.1229	-3.3417	-4.0417	-3.9125	-3.1042	-4.2875	-3.7292	-3.3354	-4.3271	-3.1958	-3.8917	85.777	3.927	133.326	185.343	-27.181	-151.316	97.952	143.472	-57.568	-101.499	180.203	180.288	153.264	57.871	82.906	17.386	0.00024062	0.00035927	0.00010657	1087.2	3.6018e-06	3.6079e-06	975.72	283.06	3.7626e-06	3.7657e-06	253.43	70.915	69.607	22.24	2.8268e-06	24.229	0.00025571	0.00027124	7.368e-05	940.34	3.0094e-06	2.8968e-06	846.64	246.42	3.0377e-06	3.0326e-06	220.75	61.927	60.932	19.568	2.9017e-06	21.356	-54.767	-36.439	-89.689	-139.814	-51.396	16.876	-141.416	-134.110	-24.797	-13.938	-136.406	-131.856	-129.694	-124.916	23.694	-128.374	-8191	255	
1515.046	1	1	0	0	0.22412	0.12892	0.23863	0.10813	0.21638	0.2412	0.16503	0.15899	0.094671	0.28107	0.0089144	0.068473	0.10677	0.23125	0.12692	0.16722	-3.7521	-3.2375	-4.2146	-3.6542	-3.4146	-4.1104	-3.5	-3.8417	-4.0021	-3.2188	-4.0437	-3.8063	-3.4396	-4.2646	-3.2792	-3.6729	-47.989	-137.917	-41.046	154.524	-86.757	4.183	18.434	192.944	-59.734	153.864	137.178	92.861	11.196	-127.422	75.876	-8.611	0.0002682	0.00035501	0.00010046	1079.3	2.5932e-06	2.2118e-06	970.44	281.66	3.7737e-06	2.3687e-06	248.61	69.653	68.985	22.094	2.8669e-06	23.847	0.00024579	0.00027486	7.3034e-05	938.54	2.964e-06	2.5862e-06	841.91	245.16	2.9814e-06	2.9936e-06	217.28	60.937	60.511	19.386	3.0191e-06	20.903	-58.605	-47.311	-32.649	-140.135	-3.821	27.001	-141.334	-134.256	24.616	-5.634	-136.157	-132.067	-130.050	-124.956	10.695	-128.021	-8191	255	
1515.141	1	1	0	0	0.076441	0.212	0.14605	0.35192	0.20438	0.18438	0.021941	0.20395	0.12577	0.35016	0.078588	0.055989	0.22685	0.17969	0.44416	0.27368	-3.6354	-3.2896	-3.8917	-3.9229	-3.4688	-4.1958	-3.6042	-3.6458	-4.1125	-3.1562	-4.0437	-4.1271	-3.3083	-4.2104	-3.4271	-3.6604	19.968	184.422	133.202	168.204	185.136	-126.782	160.497	96.353	-122.760	-125.499	-39.007	-57.585	-149.097	160.541	9.842	104.280	0.00020925	0.00021847	7.1269e-05	1072.7	4.2498e-06	3.4196e-06	972.85	279.92	3.8181e-06	4.2335e-06	249.08	69.646	69.08	22.063	3.2989e-06	23.827	0.00023932	0.00028011	7.2531e-05	933.21	3.1697e-06	2.8079e-06	837.86	243.41	2.7492e-06	2.9828e-06	216.74	60.613	60.194	19.368	2.7887e-06	20.864	-62.043	-100.579	-48.511	-140.449	-4.700	-11.807	-141.523	-134.522	-14.960	-6.961	-136.224	-131.575	-129.638	-124.638	16.150	-128.093	-8191	255	
1515.237	1	1	0	0	0.12673	0.082981	0.12702	0.039646	0.09424	0.1141	0.12783	0.23659	0.11853	0.13693	0.050274	0.15812	0.15539	0.10036	0.081728	0.25234	-3.9417	-3.2708	-4.0417	-4.0417	-3.4292	-4.1833	-3.7083	-3.6625	-4.0583	-3.1375	-3.7979	-4.0188	-3.1958	-4.2729	-3.7208	-3.3479	-11.283	-12.908	76.356	44.967	146.063	0.904	102.037	182.588	-46.129	102.396	-101.463	-143.229	202.182	-7.283	155.581	94.858	0.00023145	0.00039932	8.7401e-05	1086.1	2.3838e-06	6.6964e-06	973.93	278.26	2.6219e-06	2.7581e-06	251.06	69.95	68.988	22.017	2.54e-06	24.034	0.00024816	0.00027019	6.8168e-05	939.2	3.0909e-06	2.849e-06	841	243.16	2.8446e-06	2.7993e-06	218.51	61.197	60.563	19.361	2.7035e-06	20.978	-55.874	-96.627	-62.814	-140.244	-26.168	9.932	-141.390	-134.147	-29.951	8.498	-136.595	-132.287	-129.641	-124.962	-20.826	-127.717	-8191	255	
1515.333	1	1	0	0	0.19621	0.15572	0.14932	0.02045	0.099212	0.029724	0.22105	0.069197	0.27142	0.21555	0.090348	0.10393	0.11646	0.060098	0.12858	0.23741	-3.975	-3.4292	-3.7417	-4.1438	-3.1813	-4.1312	-3.9062	-3.4938	-4.1917	-3.3417	-3.7646	-4.15	-3.1667	-3.9354	-3.7333	-3.2625	194.409	-146.281	-67.097	62.418	-8.432	-146.736	136.948	-12.520	-93.647	-49.674	-129.515	-31.315	143.319	175.458	115.917	26.263	0.00022245	0.00037801	8.7854e-05	1079.6	3.2543e-06	4.1041e-06	978.41	280.52	4.0865e-06	3.1101e-06	255.13	70.241	69.182	22.217	1.5328e-06	24.137	0.00024824	0.00026577	7.8474e-05	938.17	3.0004e-06	2.9836e-06	849.37	245.3	3.0319e-06	3.003e-06	221.41	61.636	60.807	19.501	2.8152e-06	21.076	-61.816	-69.141	-74.109	-139.836	31.038	-8.406	-141.383	-134.267	-43.245	-5.074	-136.850	-131.469	-129.713	-124.508	-82.620	-127.989	-8191	255	
1515.429	1	1	0	0	0.15241	0.091457	0.055105	0.18558	0.12431	0.19148	0.18015	0.38107	0.13281	0.04441	0.2009	0.24062	0.20102	0.25957	0.15288	0.10318	-3.9667	-3.575	-3.4792	-4.2312	-3.3208	-4.0563	-4.0896	-3.3063	-4.1062	-3.4458	-3.525	-4.2458	-3.3708	-3.8812	-4.0854	-3.4062	153.629	-35.183	32.189	-138.951	75.820	-19.273	112.855	113.960	-115.235	178.871	-102.136	53.949	-98.442	-148.483	-29.919	1.863	0.00024735	0.00050477	0.00012837	1074.3	3.5661e-06	2.0421e-06	971.67	278.7	2.6002e-06	5.855e-06	250.32	69.091	68.545	22.056	2.7278e-06	23.481	0.00026559	0.00025289	7.702e-05	934.88	3.125e-06	2.6801e-06	840.89	243.12	2.6333e-06	2.875e-06	217.34	60.498	59.907	19.342	2.6823e-06	20.791	-64.855	-84.866	-74.767	-139.799	-39.694	-10.742	-141.447	-134.642	-3.307	5.738	-136.142	-131.868	-129.958	-124.848	23.930	-128.221	-8191	255	
1515.525	1	1	0	0	0.13482	0.2068	0.24786	0.25391	0.20474	0.10708	0.17457	0.44869	0.19596	0.090628	0.14263	0.11881	0.054877	0.21283	0.08534	0.08034	-3.9208	-3.5812	-3.3187	-4.3625	-3.2812	-3.8896	-4.2521	-3.525	-4.2479	-3.8125	-3.5896	-4.3854	-3.3792	-3.8521	-4.15	-3.4271	-129.867	125.682	-65.433	138.572	126.877	-138.464	-103.062	176.650	22.506	101.581	121.811	175.921	-110.549	-52.036	-126.128	168.754	0.00021277	0.00034366	1.503e-05	1078.7	2.4486e-06	1.1117e-06	971.72	276.96	3.1234e-06	4.6589e-06	249.06	69.013	69.416	21.988	2.097e-06	23.754	0.00025738	0.00027307	7.7433e-05	933.86	2.7487e-06	2.6165e-06	837.62	242.45	2.8725e-06	2.8631e-06	217.17	60.832	60.445	19.327	2.6494e-06	20.912	-67.195	-74.697	-61.945	-140.014	16.447	-19.766	-141.145	-134.592	-9.725	-32.317	-136.352	-131.956	-129.816	-124.854	33.057	-128.421	-8191	255	
1515.621	1	1	0	0	0.2049	0.14986	0.29556	0.38151	0.17191	0.12664	0.10851	0.095198	0.081619	0.068543	0.10976	0.33633	0.10418	0.043483	0.073443	0.21019	-3.8104	-3.6979	-3.3187	-4.3875	-3.45	-3.65	-4.3646	-3.5417	-4.2333	-3.8104	-3.375	-4.2104	-3.675	-3.5417	-4.3146	-3.3771	164.137	-80.112	93.659	159.777	128.407	-27.557	108.024	-136.484	188.839	205.555	-6.104	123.060	-150.246	131.162	-13.501	112.530	0.00022776	0.00040844	0.00011053	1070	3.4463e-06	1.4063e-06	966.48	277.4	3.1665e-06	3.4554e-06	251.61	69.961	68.71	22.153	2.653e-06	23.789	0.0002504	0.00027044	7.008e-05	933.37	3.067e-06	2.9064e-06	840.91	242.45	2.9189e-06	2.9594e-06	218.91	61.048	60.174	19.483	2.8172e-06	21.001	-63.460	-81.487	-70.556	-139.651	-19.489	10.546	-140.923	-134.292	7.117	-18.188	-136.481	-131.974	-129.174	-124.401	50.926	-127.920	-8191	255	
1515.742	1	1	0	0	0.067372	0.13505	0.16814	0.21547	0.13995	0.08221	0.2508	0.12188	0.069833	0.097378	0.25385	0.050467	0.23057	0.17811	0.03805	0.032347	-3.675	-3.8375	-3.3625	-4.375	-3.4896	-3.2792	-4.225	-3.3646	-3.8292	-4.0708	-3.4396	-4.2792	-3.6937	-3.3208	-4.2708	-3.2354	-10.761	-84.067	126.560	167.645	30.130	-82.926	133.181	86.853	68.732	-95.734	108.695	-121.467	114.214	147.625	90.194	-36.767	0.00020938	0.0005235	0.00011391	1080.6	4.1861e-06	3.9618e-06	975.48	279.92	3.3924e-06	2.5744e-06	250.73	70.444	68.988	22.132	3.9392e-06	24.128	0.00025263	0.00026759	7.7971e-05	937.03	2.9113e-06	2.7379e-06	848.55	244.69	3.0323e-06	2.9702e-06	219.24	61.544	60.558	19.411	2.8688e-06	21.074	-59.282	-85.740	-90.322	-139.963	22.926	18.052	-141.243	-134.286	3.144	34.526	-136.671	-131.501	-129.247	-124.250	25.476	-128.092	-8191	255	
1515.838	1	1	0	0	0.14585	0.2734	0.09053	0.22859	0.13959	0.10517	0.075371	0.20909	0.31666	0.17235	0.063521	0.11741	0.25337	0.063243	0.099183	0.22988	-3.3979	-4.0542	-2.9833	-4.0813	-3.6312	-3.3375	-4.3042	-3.4604	-3.8063	-4.1875	-3.2917	-4.0208	-3.7542	-3.3688	-4.1375	-3.7021	-7.968	91.830	178.350	154.282	-115.669	50.004	-92.080	101.137	-38.377	-89.773	133.194	200.746	91.279	189.235	181.978	106.090	0.00023966	0.00032313	0.00010884	1077.8	1.0707e-06	2.3308e-06	955.78	275.76	2.6721e-06	1.2763e-06	246.38	68.761	68.491	21.803	2.0502e-06	23.644	0.0002481	0.00025859	7.0942e-05	935.51	2.8586e-06	3.0678e-06	834.08	241.57	2.8264e-06	2.8844e-06	214.86	60.289	59.733	19.254	2.7826e-06	20.813	-57.450	-32.139	-84.678	-139.722	-57.227	-13.572	-140.776	-134.198	-11.109	-13.652	-136.675	-131.730	-129.444	-124.458	-0.483	-128.228	-8191	255	
1515.934	1	1	0	0	0.0091905	0.10325	0.090509	0.10774	0.17002	0.19718	0.17497	0.20576	0.23313	0.16013	0.14757	0.076723	0.042951	0.17923	0.0095791	0.1602	-3.3042	-4.275	-3.2917	-4.1062	-3.7708	-3.2687	-4.4583	-3.4813	-3.5208	-4.15	-3.4583	-4.0729	-3.9938	-3.5229	-4.2917	-3.5917	102.781	-32.072	4.736	173.092	-99.827	-134.527	188.141	178.785	-36.077	142.655	-3.730	36.035	172.753	-76.982	55.039	178.462	0.00023429	0.00052248	0.00012404	1071.2	5.0839e-06	3.4997e-06	966.66	276.27	4.418e-06	3.5523e-06	249.72	69.149	68.671	21.978	2.9839e-06	23.883	0.00024671	0.00024757	7.7576e-05	931.37	2.7556e-06	3.0132e-06	837.38	242.15	2.99e-06	2.8119e-06	216.47	60.541	60.015	19.265	2.951e-06	20.895	-55.940	-78.435	-65.526	-139.820	-13.687	-21.256	-141.004	-134.746	-22.734	-19.188	-136.669	-131.843	-129.384	-124.075	9.621	-127.915	-8191	255	
1516.006	1	1	0	0	0.037485	0.16695	0.11775	0.024828	0.22168	0.15023	0.21344	0.20469	0.081269	0.2167	0.096335	0.097391	0.094985	0.054591	0.15211	0.14253	-3.1562	-4.2375	-3.275	-3.8979	-3.9188	-3.2458	-4.2146	-3.7458	-3.3375	-4.3	-3.6042	-4.0333	-4.0958	-3.2458	-4.2729	-3.7896	167.994	-130.012	83.579	-122.812	76.255	-17.376	-32.870	119.578	-82.795	200.337	-53.407	-1.259	200.087	128.268	50.185	121.184	0.0002002	0.00018478	9.195e-05	1075.5	4.4856e-06	2.6709e-06	964.15	278.36	2.8753e-06	1.7743e-06	250.89	69.361	68.787	21.984	4.6519e-06	24.063	0.00024005	0.00025299	7.6903e-05	933.18	2.9322e-06	2.8161e-06	839.63	242.83	3.1094e-06	2.8432e-06	217.9	60.909	60.177	19.368	2.9976e-06	21.117	-63.213	-72.423	-66.386	-139.999	-30.434	-26.900	-141.004	-134.655	34.472	27.061	-136.364	-131.979	-129.565	-124.600	10.049	-128.189	-8191	255	
1516.127	1	1	0	0	0.080286	0.12264	0.11321	0.046915	0.14143	0.14018	0.34791	0.36586	0.11679	0.0090797	0.10465	0.16096	0.12004	0.25276	0.028533	0.17408	-3.0896	-4.35	-3.3896	-3.8625	-4.1792	-3.3458	-4.125	-3.8708	-3.4562	-4.1667	-3.4521	-3.6063	-4.1729	-3.2708	-3.8896	-3.9	79.664	49.034	56.322	49.327	-40.629	168.498	111.452	173.948	-20.116	-34.135	10.707	-140.138	-148.838	-82.991	21.356	54.727	0.00023576	0.00015978	3.811e-05	1081.6	4.2132e-06	2.9086e-06	974.68	279.28	1.6303e-06	4.2854e-06	251.24	70.118	69.107	21.991	1.9183e-06	23.589	0.00026406	0.00026237	7.2998e-05	937.26	3.0021e-06	2.9579e-06	846.18	243.43	3.1072e-06	2.7845e-06	218.44	61.146	60.521	19.342	2.7393e-06	20.815	-52.897	-41.376	-46.402	-139.498	-14.618	3.347	-141.019	-134.582	1.815	0.409	-136.152	-131.274	-129.846	-124.626	35.820	-128.264	-8191	255	
1516.221	1	1	0	0	0.039805	0.096428	0.095542	0.29513	0.18881	0.20396	0.19154	0.29895	0.13673	0.15611	0.24878	0.03117	0.073001	0.10187	0.13309	0.18809	-2.9708	-4.2479	-3.4062	-3.8021	-4.3333	-3.4729	-3.9604	-4.1896	-3.2708	-4.2125	-3.7646	-3.4688	-4.3063	-3.4875	-3.8042	-4.0896	171.566	-86.201	172.270	172.302	175.159	-116.683	124.797	165.309	56.666	110.571	189.776	-133.137	93.165	-132.704	-87.337	-34.493	0.00020788	0.00032592	0.00011277	1070.8	3.3744e-06	3.7021e-06	953.57	276.13	4.135e-06	3.9696e-06	245.76	69.539	69.06	21.81	2.863e-06	23.795	0.00024903	0.00025289	7.5844e-05	931.14	2.9756e-06	2.8068e-06	830.44	241.43	3.1383e-06	2.791e-06	214.21	60.584	60.042	19.197	2.9222e-06	20.871	-59.268	-79.357	-52.818	-139.892	-17.797	-13.053	-141.312	-134.514	-14.943	-17.658	-136.241	-131.585	-129.480	-124.125	9.739	-128.082	-8191	255	
1516.317	1	1	0	0	0.059065	0.11497	0.28443	0.38119	0.11753	0.070709	0.29686	0.28354	0.039963	0.21665	0.055985	0.075687	0.19922	0.11946	0.088635	0.066728	-3.025	-4.0667	-3.6396	-3.5312	-4.2979	-3.7	-3.9896	-4.0958	-3.3708	-4.1062	-3.8896	-3.4917	-4.3125	-3.6979	-3.6167	-4.2	-86.417	-7.142	-43.771	198.844	-29.449	-114.521	96.382	-132.414	-46.149	-67.385	201.781	127.135	76.844	-14.826	169.868	172.003	0.00019219	0.00039472	0.00010491	1074.6	3.5284e-06	4.3451e-06	962.37	277.94	4.7011e-06	5.5124e-06	246.7	69.048	68.476	21.83	2.0064e-06	23.75	0.00027065	0.00024251	7.5772e-05	930.84	3.1482e-06	2.8922e-06	834.64	241.97	3.1466e-06	2.9482e-06	215.42	60.463	59.986	19.248	2.7897e-06	20.943	-53.912	-71.434	-67.161	-139.819	-1.521	13.233	-141.379	-134.478	18.350	-16.112	-136.576	-131.366	-129.262	-124.562	87.323	-128.758	-8191	255	
1516.413	1	1	0	0	0.25497	0.093277	0.090927	0.30263	0.041257	0.13905	0.17838	0.19089	0.11424	0.088794	0.015187	0.1475	0.10057	0.33863	0.095879	0.16642	-2.7979	-3.9854	-3.9125	-3.5208	-4.3396	-3.6271	-3.7062	-4.4104	-3.35	-3.8479	-3.9708	-3.2938	-4.3979	-3.5812	-3.4854	-4.4396	77.095	-31.915	181.220	175.907	-106.593	-43.915	-60.424	157.566	163.380	-150.782	-125.748	118.880	-140.877	-148.945	182.933	134.222	0.00022485	0.00031689	8.7162e-05	1076.3	2.0185e-06	3.1506e-06	966.79	277.86	3.5885e-06	2.7326e-06	249.09	68.952	68.262	22.069	2.0238e-06	24.028	0.00026688	0.00025661	7.3976e-05	933.35	2.7639e-06	2.9e-06	838.22	242.29	3.1021e-06	2.8404e-06	217.25	61.071	60.264	19.36	2.9406e-06	21.123	-66.542	-68.694	-85.622	-139.785	2.799	-69.566	-141.145	-134.285	-21.352	-16.236	-136.170	-131.542	-129.689	-125.147	32.114	-128.914	-8191	255	
1516.534	1	1	0	0	0.25262	0.1245	0.1379	0.017559	0.11858	0.024018	0.23399	0.14388	0.31252	0.21444	0.15762	0.09652	0.13005	0.33779	0.13139	0.05957	-2.775	-3.8104	-3.8479	-3.3187	-4.1583	-3.5333	-3.7271	-4.4792	-3.3896	-3.6604	-4.2333	-3.3208	-4.2188	-3.5479	-3.3542	-4.3458	-1.003	104.779	-44.479	38.155	-6.335	-128.183	124.566	156.956	188.159	-98.483	-116.629	95.474	70.277	-148.992	77.490	29.587	0.00022557	0.00039003	0.0001133	1078.3	2.9927e-06	4.8873e-06	970.66	278.49	4.6352e-06	1.6912e-06	249.06	68.703	69.047	22.033	4.6562e-06	23.624	0.00025661	0.00027003	7.3114e-05	936.26	3.1492e-06	2.9275e-06	844.74	242.65	3.1101e-06	2.8566e-06	217.08	60.764	60.214	19.331	3.0439e-06	20.865	-56.027	-24.501	-50.832	-139.907	9.285	26.427	-140.834	-134.543	-19.215	-62.233	-136.470	-131.241	-129.088	-124.510	25.055	-127.907	-8191	255	
1516.630	1	1	0	0	0.13246	0.039827	0.073843	0.15743	0.15027	0.14922	0.17465	0.26234	0.14474	0.23666	0.25829	0.23361	0.12246	0.24296	0.22992	0.21919	-2.9729	-3.7354	-4.1792	-3.4396	-4.1917	-3.85	-3.8	-4.3021	-3.3542	-3.6063	-4.1937	-3.2792	-3.9771	-3.9167	-3.1229	-4.2333	-123.751	191.733	30.614	124.034	7.688	119.412	151.771	138.755	96.173	32.921	175.889	67.634	-101.737	90.845	151.122	178.547	0.00023148	0.000205	0.00011409	1071.3	4.8994e-06	1.6947e-06	961.34	275.82	4.6782e-06	3.7294e-06	243.05	69.364	67.844	21.837	2.5697e-06	23.723	0.00025201	0.00025161	7.3204e-05	927.86	2.8729e-06	2.7186e-06	831.41	241.02	3.088e-06	2.9749e-06	213.66	60.338	59.675	19.225	2.9195e-06	20.802	-61.355	-96.674	-47.826	-139.661	8.379	10.052	-140.738	-134.180	-7.475	-23.046	-136.154	-131.621	-128.775	-124.353	29.955	-127.624	-8191	255	
1516.726	1	1	0	0	0.12736	0.16796	0.012958	0.18943	0.026266	0.12748	0.041994	0.15644	0.03082	0.21915	0.1482	0.14862	0.22241	0.12947	0.11657	0.089776	-3.125	-3.6437	-4.1542	-3.4062	-3.9521	-3.8167	-3.2646	-4.2875	-3.4771	-3.5083	-4.1771	-3.3021	-3.6896	-3.9083	-3.1854	-4.0312	122.281	-19.493	96.046	137.531	-9.857	-3.388	-79.806	158.908	203.911	47.151	119.081	-152.052	171.371	143.117	61.492	126.987	0.00021331	0.00023251	0.00011306	1066.6	2.0066e-06	4.9427e-06	957.19	275.97	5.6385e-06	4.7974e-06	245.65	69.192	68.82	21.747	3.1631e-06	23.887	0.00025757	0.00024716	7.0897e-05	926.23	2.8133e-06	2.9757e-06	833.3	241.25	3.1286e-06	2.9009e-06	215.09	60.472	60.265	19.217	3.0299e-06	20.971	-57.460	-81.010	-78.341	-140.010	-10.871	-32.765	-140.923	-134.434	1.959	-46.728	-136.367	-131.838	-129.389	-124.387	1.216	-128.013	-8191	255	
1516.822	1	1	0	0	0.19219	0.0501	0.057242	0.32482	0.38771	0.19595	0.072531	0.10722	0.11282	0.049622	0.29889	0.29399	0.22199	0.054138	0.048365	0.13016	-3.2396	-3.5104	-4.075	-3.4188	-3.825	-3.8521	-3.4271	-4.2937	-3.6083	-3.3333	-4.2438	-3.5396	-3.7083	-4.1854	-3.2188	-4.1229	-14.670	-84.333	130.299	-151.188	-99.848	44.726	107.775	-152.536	128.031	80.031	147.951	-107.211	196.632	157.934	185.710	-150.813	0.00023228	0.00020865	5.0078e-05	1068.5	4.2302e-06	4.7666e-06	966.09	278.32	3.6699e-06	3.9828e-06	247.54	70.258	68.705	22.173	3.1566e-06	23.918	0.00025077	0.00025786	6.4469e-05	927.94	3.0485e-06	2.7947e-06	840.61	242.38	2.8802e-06	2.9529e-06	216.48	61.174	60.095	19.419	2.8896e-06	21.178	-52.180	-103.653	-58.712	-139.783	-7.212	12.801	-141.101	-134.636	8.710	-41.102	-136.270	-132.084	-129.663	-124.411	-26.520	-127.955	-8191	255	
1516.919	1	1	0	0	0.20421	0.25943	0.065817	0.18923	0.15157	0.14693	0.13326	0.071523	0.21457	0.10727	0.26645	0.13486	0.07834	0.19359	0.079815	0.07105	-3.4417	-3.3458	-4.1375	-3.3333	-3.7083	-4.0312	-3.4354	-4.0708	-3.8354	-3.2521	-4.2646	-3.5229	-3.3583	-4.1896	-3.3167	-3.9271	57.743	-92.395	-32.819	-0.162	89.375	106.171	202.412	-120.481	30.853	-4.935	154.955	-35.418	-70.245	154.306	25.860	78.072	0.00023981	0.00041701	9.5479e-05	1072	3.0252e-06	3.5582e-06	970.15	279.11	3.4491e-06	3.6767e-06	248.9	69.545	67.954	21.93	2.9286e-06	23.519	0.00026118	0.00027794	7.3527e-05	932.13	3.0286e-06	2.7651e-06	842.08	242.71	2.8424e-06	3.1213e-06	216.42	60.889	59.765	19.275	2.796e-06	20.727	-59.370	-51.716	-18.768	-140.104	1.459	-27.441	-140.863	-134.591	-16.780	-5.589	-136.418	-132.040	-129.080	-124.436	38.978	-127.885	-8191	255	
1517.015	1	1	0	0	0.26014	0.26628	0.13967	0.091012	0.14373	0.083778	0.18185	0.027169	0.20512	0.18736	0.34583	0.18346	0.15536	0.081574	0.13267	0.15467	-3.5938	-3.2812	-4.2312	-3.6729	-3.4604	-4.3938	-3.4792	-4.1292	-4.1312	-3.1813	-4.325	-3.6125	-3.2917	-4.3042	-3.4604	-3.7667	20.712	186.241	-101.091	154.173	-50.640	173.927	-47.672	149.431	-139.901	-1.798	142.527	105.498	-79.096	97.010	-57.418	164.268	0.00024898	0.00019912	0.00011085	1065.5	3.4617e-06	2.4671e-06	960.25	275.6	2.8216e-06	2.1336e-06	246.63	68.688	68.069	22.047	2.7093e-06	23.753	0.00025559	0.00024994	6.9586e-05	927.06	3.0591e-06	2.795e-06	830.41	240.79	2.9471e-06	2.9128e-06	214.64	60.167	59.624	19.274	2.7595e-06	20.856	-56.241	-56.639	-60.708	-139.817	-28.301	17.018	-141.236	-134.435	8.471	35.109	-136.260	-132.159	-129.419	-124.671	33.673	-128.036	-8191	255	
1517.134	1	1	0	0	0.17866	0.12629	0.1255	0.12258	0.24393	0.1108	0.099598	0.3844	0.044256	0.35041	0.10176	0.1599	0.11198	0.13014	0.1002	0.090064	-3.6729	-3.2875	-4.15	-3.7375	-3.3604	-4.3229	-3.4604	-3.7687	-4.125	-3.2667	-4.1958	-3.6688	-3.4646	-4.1708	-3.3583	-3.6937	43.292	149.181	26.337	76.556	39.181	108.410	183.858	160.490	-81.966	75.395	-110.737	123.287	193.845	137.246	-4.755	184.835	0.00021803	0.00033061	0.00012154	1068.6	2.301e-06	6.3026e-06	955.67	276.37	5.0721e-06	3.9737e-06	247.5	69.195	68.771	22.144	2.174e-06	24.007	0.00025026	0.00026365	7.0439e-05	927.16	2.9713e-06	2.8843e-06	830.71	240.94	2.8757e-06	2.9345e-06	216.36	60.41	60.227	19.406	2.8561e-06	21.024	-63.074	-40.095	-110.277	-139.970	-19.704	26.722	-141.214	-134.509	-22.277	-15.813	-136.305	-132.262	-129.998	-124.499	-36.153	-127.993	-8191	255	
1517.230	1	1	0	0	0.1691	0.15385	0.18976	0.21943	0.080201	0.093565	0.078986	0.35839	0.15872	0.10496	0.11851	0.13369	0.25275	0.15013	0.19085	0.13551	-3.6729	-3.1354	-4.1188	-4.0354	-3.2125	-4.2396	-3.5792	-3.5938	-4.2604	-3.2208	-4.0125	-3.9458	-3.3583	-4.2604	-3.5646	-3.6354	36.055	52.435	-3.831	178.187	175.060	126.227	-139.138	146.326	90.361	-116.069	83.146	122.696	149.384	-111.958	-129.462	-14.669	0.00025838	0.00015269	8.8222e-05	1069.9	3.3114e-06	3.719e-06	964.11	278.01	3.7684e-06	4.0166e-06	249.4	70.034	68.206	21.998	3.6257e-06	23.929	0.00025026	0.00025882	7.2926e-05	930.38	3.0014e-06	2.7019e-06	838.78	242.51	2.8597e-06	2.9103e-06	217.31	61.017	60.129	19.364	3.0074e-06	21.03	-63.281	-27.201	-68.440	-139.862	-9.395	-7.284	-141.131	-134.430	6.922	7.526	-136.381	-132.228	-129.696	-124.696	7.121	-127.800	-8191	255	
1517.301	1	1	0	0	0.14943	0.22745	0.11971	0.1258	0.13518	0.15147	0.10126	0.19944	0.16497	0.10145	0.1526	0.16971	0.22319	0.1672	0.063366	0.082094	-3.9083	-3.2958	-3.8021	-3.9604	-3.1958	-4.0958	-3.5667	-3.5521	-4.35	-3.2438	-3.8125	-4.1708	-3.3438	-4.4042	-3.6	-3.2938	0.060	-89.553	-43.854	97.619	73.578	94.468	24.245	146.996	-87.983	-49.218	150.653	-121.774	48.465	-84.206	179.536	202.083	0.00023495	0.00015398	0.00011029	1076.3	1.0035e-06	2.8884e-06	964.71	275.96	2.7785e-06	2.6987e-06	247.13	69.351	68.364	21.856	3.0014e-06	23.497	0.0002432	0.00027489	7.2432e-05	931.84	3.1237e-06	2.6965e-06	840.52	241.63	2.8638e-06	2.924e-06	216.53	60.723	59.882	19.185	2.9376e-06	20.787	-63.184	-121.092	-70.634	-139.766	-8.742	11.572	-141.500	-134.713	-4.264	-31.444	-136.301	-131.900	-129.365	-124.530	-15.606	-127.511	-8191	255	
1517.422	1	1	0	0	0.034153	0.079079	0.12604	0.084834	0.16165	0.12015	0.16655	0.31011	0.19048	0.038046	0.26815	0.10938	0.23222	0.10334	0.34542	0.13667	-3.7583	-3.2729	-3.6146	-4.1896	-3.1813	-4.15	-3.9188	-3.4271	-4.4437	-3.3375	-3.5521	-4.1667	-3.3312	-4.0125	-3.9417	-3.325	37.968	-26.072	60.163	167.589	-133.051	147.727	181.294	156.086	114.228	116.476	91.777	-11.067	92.577	170.125	-114.090	129.835	0.00021878	0.00010214	0.0001077	1067.7	1.8461e-06	4.4997e-06	953.78	275.83	2.9976e-06	1.5809e-06	247.45	68.886	67.306	21.962	2.9274e-06	23.646	0.00024271	0.00027006	7.5323e-05	926.74	3.0303e-06	2.9829e-06	830.06	240.55	2.7931e-06	2.9713e-06	214.54	60.365	59.416	19.262	2.8135e-06	20.812	-60.599	7.433	-91.998	-140.096	-40.811	3.829	-141.138	-134.586	-19.970	-31.244	-136.419	-132.038	-129.317	-124.597	29.078	-128.418	-8191	255	
1517.518	1	1	0	0	0.15784	0.36091	0.181	0.095067	0.24312	0.11588	0.2564	0.31081	0.075067	0.17715	0.10357	0.039322	0.10996	0.069783	0.11956	0.20426	-3.8792	-3.5625	-3.6	-4.2604	-3.4458	-3.9917	-3.9583	-3.2146	-4.2396	-3.5021	-3.5729	-4.3375	-3.3833	-3.8438	-4.0437	-3.2771	135.748	114.896	-83.714	174.376	109.140	-7.491	159.794	124.952	63.956	-90.314	-21.157	58.605	58.162	144.640	56.156	-110.752	0.00023296	0.00031178	0.00012539	1075.8	4.2159e-06	3.2496e-06	962.24	276.16	3.8851e-06	3.4163e-06	246.94	69.228	68.358	21.948	4.5945e-06	23.942	0.00025789	0.00025558	7.4147e-05	929.19	3.1343e-06	2.8943e-06	835.58	241.22	3.0111e-06	2.8739e-06	215.97	60.51	59.842	19.231	2.8712e-06	20.962	-63.299	-40.906	-88.529	-139.624	-22.621	61.710	-141.157	-134.260	-18.777	21.388	-136.423	-131.497	-129.062	-124.349	14.662	-128.474	-8191	255	
1517.614	1	1	0	0	0.18473	0.26816	0.17524	0.08312	0.12311	0.029062	0.032706	0.2516	0.0082848	0.13729	0.092115	0.31034	0.092593	0.066075	0.10663	0.21236	-3.8125	-3.65	-3.2792	-4.1958	-3.4	-3.7917	-4.1417	-3.3625	-4.0875	-3.6667	-3.5	-4.2479	-3.425	-3.6521	-4.175	-3.3104	-0.655	5.713	-43.167	203.315	150.524	127.649	107.461	147.821	20.187	-90.123	-104.715	130.221	-151.000	-25.753	11.047	-137.554	0.00020389	0.00058773	8.7286e-05	1076.9	1.3056e-06	4.0994e-06	960.89	277.42	4.6417e-06	3.5821e-06	252.71	70.222	68.312	22.002	3.1063e-06	24.22	0.00024726	0.00028562	7.6445e-05	931.04	3.0611e-06	2.9586e-06	838.79	242.26	2.9782e-06	2.9702e-06	218.27	61.359	59.864	19.348	3.0483e-06	21.166	-56.167	-54.197	-77.748	-139.829	9.057	7.623	-141.142	-134.409	-8.753	3.989	-136.044	-132.225	-129.681	-124.605	-3.908	-127.787	-8191	255	
1517.710	1	1	0	0	0.054407	0.13882	0.098902	0.21634	0.16561	0.077157	0.12795	0.10311	0.10288	0.15853	0.21624	0.12576	0.13856	0.25057	0.11026	0.17221	-3.7875	-3.6688	-3.4062	-4.2479	-3.35	-3.6417	-4.2854	-3.4271	-4.0271	-3.7917	-3.3312	-4.2312	-3.5917	-3.6333	-4.2312	-3.4021	141.299	33.885	-60.364	-98.787	117.133	40.704	98.583	185.545	-68.950	-108.629	-65.624	-91.225	191.165	-11.748	203.551	118.178	0.00021253	0.00023166	6.6182e-05	1072	3.2098e-06	2.4212e-06	963.46	276.69	4.223e-06	2.1415e-06	249.84	69.294	68.166	21.778	3.195e-06	23.654	0.00025283	0.00026445	7.5323e-05	931.26	3.0084e-06	2.885e-06	840.49	241.76	3.0223e-06	2.9384e-06	216.72	60.536	59.657	19.169	2.7266e-06	20.804	-59.366	-94.771	-62.423	-139.852	21.752	-3.665	-140.983	-134.731	-12.440	3.031	-136.384	-132.042	-129.570	-124.344	-11.196	-128.098	-8191	255	
1517.807	1	1	0	0	0.095236	0.10206	0.16516	0.18026	0.064303	0.25302	0.078451	0.30438	0.22745	0.16739	0.072801	0.22847	0.25844	0.17123	0.13964	0.10159	-3.6937	-3.9875	-2.9479	-4.3604	-3.5708	-3.5687	-4.2063	-3.4833	-3.9625	-4.0563	-3.4	-4.0375	-3.7167	-3.4875	-4.2688	-3.4521	38.655	179.002	100.808	135.424	-10.008	-100.605	206.792	146.434	102.149	95.631	-100.407	-94.206	84.908	-83.193	4.388	92.076	0.00022725	4.7381e-05	0.00011511	1069.6	4.5893e-06	4.7956e-06	953.48	274.67	4.089e-06	5.0226e-06	246.99	68.521	68.249	21.804	2.4489e-06	23.692	0.00025065	0.000251	7.4551e-05	925.57	3.1048e-06	2.9375e-06	828.41	238.96	3.023e-06	2.8191e-06	214.64	60.313	59.43	19.185	2.8547e-06	20.82	-55.999	-85.578	-72.511	-139.819	-1.877	2.178	-141.416	-134.544	35.978	17.663	-136.561	-131.942	-129.510	-124.636	16.089	-128.197	-8191	255	
1517.927	1	1	0	0	0.20674	0.086605	0.25284	0.2234	0.070376	0.10968	0.27639	0.34765	0.19573	0.12217	0.17026	0.20235	0.075649	0.15201	0.13119	0.13047	-3.3187	-4.225	-3.2125	-4.1021	-3.9	-3.4313	-4.2875	-3.7396	-3.6312	-4.0188	-3.4667	-4	-3.775	-3.3521	-4.0896	-3.3833	134.633	-50.529	-57.007	101.834	-101.955	145.891	101.172	131.212	17.407	90.801	-97.888	-131.972	-116.556	125.003	170.493	124.897	0.00020395	0.00023875	6.2835e-05	1063.9	4.4972e-06	2.1679e-06	962.81	275.84	2.9245e-06	4.8274e-06	247.19	70.114	68.199	21.858	3.2761e-06	23.637	0.00025834	0.00025574	7.298e-05	927.54	2.854e-06	3.065e-06	833.73	239.98	2.9529e-06	2.8876e-06	216.27	60.795	59.679	19.243	2.9134e-06	20.918	-57.860	-84.295	-68.622	-139.835	13.892	39.619	-140.937	-134.268	-18.930	3.610	-136.617	-131.823	-129.658	-124.675	16.033	-127.685	-8191	255	
1517.999	1	1	0	0	0.23712	0.1323	0.040978	0.3284	0.066978	0.16727	0.21828	0.20588	0.090709	0.41334	0.12131	0.040683	0.15424	0.19844	0.11459	0.11092	-3.1896	-4.1687	-3.2521	-3.9854	-3.9313	-3.4021	-4.4729	-3.7438	-3.5062	-4.0729	-3.3375	-3.9542	-4.0938	-3.3438	-4.1625	-3.7104	47.623	203.022	159.399	112.650	143.498	-62.834	184.756	128.439	132.007	18.090	-42.141	93.139	-21.443	123.972	-17.966	118.565	0.00022463	0.00033369	9.1412e-05	1063.7	3.5595e-06	2.0104e-06	973.54	276.9	4.0779e-06	3.8451e-06	250.47	70.231	68.797	21.992	3.8631e-06	23.894	0.00024718	0.00026628	7.6867e-05	926.55	2.9001e-06	2.8754e-06	843.96	241.37	3.2657e-06	3.1317e-06	218.06	61.274	60.051	19.392	3.0138e-06	21.118	-50.423	-67.521	-74.682	-139.702	-1.928	43.884	-140.906	-134.598	-8.346	0.412	-136.557	-131.676	-129.785	-123.926	-22.565	-128.262	-8191	255	
1518.095	1	1	0	0	0.24439	0.25059	0.1177	0.31254	0.076312	0.20179	0.053549	0.22028	0.061396	0.21191	0.086769	0.074644	0.18772	0.07295	0.228	0.10481	-3.1729	-4.2937	-3.1417	-3.9896	-4.0896	-3.2417	-4.3333	-3.8208	-3.4396	-4.0813	-3.3854	-3.625	-4.1125	-3.325	-3.9562	-3.9229	-114.751	-132.174	136.887	-139.880	132.850	119.203	-148.782	180.807	-75.287	30.716	-109.534	196.555	-35.798	8.847	60.050	-106.325	0.00020238	0.00017893	9.3151e-05	1075	3.7247e-06	3.1385e-06	968.4	276.17	4.8822e-06	2.34e-06	247.95	68.945	68.054	21.694	3.7858e-06	23.552	0.00026294	0.00023976	7.5449e-05	931.41	3.1104e-06	3.0253e-06	841.07	240.52	2.9455e-06	2.6868e-06	216.26	60.728	59.672	19.153	2.9621e-06	20.735	-59.779	-98.131	-69.753	-139.592	-39.912	-5.159	-140.914	-134.601	8.706	46.442	-136.765	-132.310	-129.715	-124.379	14.757	-128.465	-8191	255	
1518.214	1	1	0	0	0.14242	0.0469	0.034071	0.29592	0.084427	0.45357	0.10329	0.23052	0.31318	0.070002	0.17704	0.071743	0.22242	0.11595	0.15535	0.1785	-2.9354	-4.1167	-3.4271	-3.7479	-4.0917	-3.1604	-4.0646	-3.9625	-3.3042	-4.2833	-3.5833	-3.7062	-3.9708	-3.2854	-3.8875	-3.975	202.691	-101.874	84.914	133.891	52.922	109.705	158.197	134.677	72.669	64.290	83.447	-124.959	173.294	105.431	-144.723	73.674	0.00025056	0.00020496	7.5073e-05	1062.2	1.5045e-06	3.1433e-06	961.39	275.19	2.8044e-06	2.7739e-06	247.31	69.099	67.81	21.84	3.4609e-06	23.491	0.00025926	0.00025257	7.4874e-05	924.53	2.9183e-06	2.8607e-06	833.93	239.46	3.0569e-06	2.7069e-06	215.42	60.607	59.597	19.164	2.8118e-06	20.738	-65.478	-53.274	-32.001	-139.704	-45.946	-7.664	-140.795	-134.294	3.336	22.016	-136.361	-131.641	-129.564	-124.570	14.321	-128.066	-8191	255	
1518.310	1	1	0	0	0.047236	0.12399	0.073021	0.25833	0.044478	0.079797	0.070453	0.022991	0.075432	0.22171	0.23136	0.28227	0.10995	0.075664	0.19681	0.32843	-2.7687	-4.0479	-3.4208	-3.5812	-4.2667	-3.2042	-4.0479	-4.1708	-3.2729	-4.2646	-3.7146	-3.3583	-4.2625	-3.2417	-3.8833	-4.1354	197.102	21.224	45.465	-115.734	76.080	61.143	177.149	-105.288	130.238	188.988	-41.593	191.333	-135.681	66.547	-83.042	136.214	0.00023866	0.00031302	9.1329e-05	1064.2	2.4018e-06	5.3676e-06	961.77	275.7	1.6287e-06	3.1881e-06	246.13	69.418	67.82	21.851	4.4349e-06	23.799	0.00026959	0.00025436	7.7926e-05	925.86	3.0031e-06	3.0311e-06	835.38	240.16	3.1562e-06	2.6777e-06	216.01	60.83	59.581	19.214	2.9738e-06	21.016	-60.486	-57.940	-63.683	-139.521	-8.853	-7.714	-141.053	-134.316	7.219	15.444	-136.278	-131.831	-129.463	-124.590	9.471	-128.262	-8191	255	
1518.406	1	1	0	0	0.1922	0.19839	0.087927	0.059736	0.1511	0.22952	0.27962	0.2493	0.046508	0.22325	0.26848	0.074985	0.043249	0.06567	0.12901	0.14343	-2.9042	-4.0333	-3.7313	-3.5604	-4.1417	-3.3646	-3.8167	-4.3187	-3.25	-3.9542	-3.9333	-3.2875	-4.2063	-3.3646	-3.5708	-4.1458	15.768	-19.471	-65.612	-125.004	-78.277	190.303	167.600	163.819	154.623	-149.988	192.545	135.292	125.657	-136.242	-0.523	51.819	0.00022932	0.0004104	4.5102e-05	1058	3.4603e-06	2.7954e-06	969	274.98	4.1115e-06	3.5116e-06	251.2	70.002	68.964	21.982	3.0899e-06	24.009	0.00027188	0.00026336	7.2136e-05	924.5	2.8553e-06	3.1625e-06	842.44	240.97	3.2061e-06	2.6781e-06	218.99	61.491	60.255	19.361	2.8943e-06	21.151	-63.105	-90.491	-34.477	-139.558	-7.556	15.154	-141.149	-134.353	-11.791	29.316	-136.792	-131.764	-129.569	-124.283	14.723	-128.252	-8191	255	
1518.527	1	1	0	0	0.14692	0.24898	0.020673	0.1657	0.14787	0.18094	0.30275	0.23961	0.072051	0.082251	0.18544	0.10981	0.094564	0.067038	0.097876	0.098542	-2.8771	-3.9354	-3.7854	-3.2646	-4.0479	-3.3042	-3.4896	-4.1417	-3.1979	-4.1083	-3.8937	-3.2292	-4.2479	-3.6396	-3.5458	-4.2896	-23.875	126.996	78.065	171.035	186.869	-80.621	140.604	147.244	102.475	69.892	-110.368	65.827	204.095	-95.094	-41.054	76.673	0.00022077	0.00022393	8.9918e-05	1076.2	2.43e-06	2.9427e-06	969.08	275.36	2.9028e-06	2.7827e-06	246.88	69.158	67.805	21.646	1.4601e-06	23.793	0.00026569	0.00024994	7.4407e-05	932.21	2.7947e-06	2.7418e-06	842.82	240.8	2.9926e-06	2.9096e-06	215.41	60.533	59.64	19.147	2.9279e-06	20.791	-55.430	-52.581	-46.228	-140.073	-25.896	21.938	-141.154	-134.180	-23.125	14.268	-136.550	-131.519	-129.410	-124.948	2.900	-128.412	-8191	255	
1518.599	1	1	0	0	0.18521	0.19724	0.10229	0.16059	0.096248	0.19916	0.28279	0.26897	0.058557	0.10033	0.057506	0.13964	0.15121	0.1011	0.17998	0.22654	-2.9375	-3.8208	-4.0542	-3.15	-4.1771	-3.6583	-3.6625	-4.4125	-3.3083	-3.7062	-4.1896	-3.275	-4.0167	-3.5354	-3.3458	-4.3229	-118.644	46.592	24.203	171.687	130.951	-25.346	120.980	171.820	193.185	-132.374	65.605	-88.217	-114.595	88.418	157.657	174.319	0.00022603	0.00032647	7.3093e-05	1062.4	1.6693e-06	3.6918e-06	963.13	274.86	4.1598e-06	2.8844e-06	245.37	69.561	68.622	21.784	2.9566e-06	23.632	0.00025791	0.00026484	6.9676e-05	924.97	2.8046e-06	2.8797e-06	834.13	239.31	3.1591e-06	3.0077e-06	215.28	60.711	59.657	19.164	2.9876e-06	20.843	-61.181	-60.755	-122.411	-139.689	-17.988	-10.989	-140.874	-134.411	10.712	-5.688	-136.454	-131.621	-129.724	-125.036	63.499	-128.048	-8191	255	
1518.695	1	1	0	0	0.11804	0.09407	0.16809	0.228	0.11075	0.18328	0.16297	0.12579	0.094504	0.11818	0.16467	0.078418	0.053819	0.13094	0.095609	0.24718	-2.9708	-3.6312	-4.0563	-3.4333	-3.8812	-3.8479	-3.4	-4.2937	-3.4625	-3.7979	-4.3083	-3.3125	-3.825	-3.7979	-3.1958	-4.1833	-76.610	-68.075	75.119	137.441	128.497	149.283	73.231	43.460	-64.386	-73.441	199.593	65.755	-84.523	-105.412	47.300	-94.203	0.00023523	0.00033549	8.339e-05	1067.4	2.0266e-06	1.935e-06	967.31	275.23	2.0905e-06	2.4809e-06	248.85	70.12	68.778	22.004	4.2752e-06	23.99	0.00026898	0.00025664	6.8554e-05	925.42	3.0415e-06	2.8172e-06	838.66	239.65	2.8658e-06	2.8335e-06	216.49	61.11	59.99	19.308	2.9802e-06	21.077	-53.101	-51.909	-61.180	-139.740	-1.921	10.661	-141.440	-134.521	16.792	24.323	-136.351	-131.574	-129.304	-124.578	-7.425	-128.466	-8191	255	
1518.815	1	1	0	0	0.17921	0.082221	0.11021	0.046548	0.073189	0.32602	0.22171	0.25803	0.087318	0.25158	0.21527	0.28901	0.17761	0.25821	0.1106	0.27064	-3.1188	-3.3708	-4.2125	-3.4042	-4.0229	-3.8458	-3.3146	-4.1188	-3.5229	-3.4	-4.2646	-3.0333	-3.5729	-4.1083	-3.1354	-4.1188	-12.783	58.865	-8.022	-15.172	-121.270	176.092	126.900	162.911	69.778	66.144	197.345	124.934	-117.088	166.238	-21.999	55.127	0.00021697	0.00025661	0.00010359	1068.2	3.3811e-06	4.0899e-06	973.17	277.01	3.8322e-06	3.1571e-06	251.23	70.119	68.289	21.948	1.8495e-06	23.98	0.00025761	0.00028162	7.148e-05	927.58	2.9772e-06	2.9718e-06	845.28	241.72	3.2686e-06	2.8566e-06	218.34	61.56	60.096	19.35	3.0845e-06	21.194	-55.878	-78.899	-73.599	-139.750	-5.279	-28.858	-141.175	-134.036	-0.159	39.395	-136.687	-131.924	-129.150	-124.700	-5.125	-128.221	-8191	255	
1518.911	1	1	0	0	0.094297	0.24403	0.2187	0.18058	0.1031	0.1366	0.22395	0.19638	0.13935	0.18856	0.15984	0.06526	0.16465	0.19737	0.15144	0.21676	-3.2896	-3.2729	-4.1813	-3.3958	-3.6875	-3.9771	-3.4104	-4.1188	-3.6854	-3.2375	-4.3	-3.5458	-3.6813	-4.2771	-3.1521	-4.0563	-13.428	180.344	205.681	-151.320	-15.758	96.434	176.386	202.198	-103.938	201.056	-127.864	141.059	122.326	26.843	-141.026	-116.885	0.00023793	0.00034994	0.00012542	1069.6	4.8993e-06	1.3164e-06	970.53	277.13	3.2958e-06	2.5588e-06	246.67	69.531	68.186	21.827	3.5183e-06	23.752	0.00026961	0.0002797	7.4335e-05	929.91	3.1436e-06	2.97e-06	840.97	241.07	3.1613e-06	2.9467e-06	216.09	60.986	59.643	19.165	2.9651e-06	20.865	-56.584	-42.848	-57.808	-139.961	-15.769	54.903	-141.382	-134.241	14.935	1.434	-136.461	-131.509	-129.481	-124.638	-3.984	-128.745	-8191	255	
1519.008	1	1	0	0	0.30958	0.12702	0.16192	0.32988	0.29549	0.036313	0.15518	0.048156	0.06559	0.13656	0.056015	0.13039	0.12615	0.087522	0.15664	0.035145	-3.3104	-3.1604	-4.1417	-3.4708	-3.6958	-4.1292	-3.3146	-4.0167	-3.8625	-3.2521	-4.2333	-3.5771	-3.5542	-4.1708	-3.3729	-3.975	189.707	-114.143	153.148	188.521	-17.649	-48.144	27.227	-65.179	20.978	-61.776	141.966	81.559	-24.169	2.471	163.889	-48.088	0.00021417	0.00030507	0.00011423	1063.6	2.9056e-06	3.8645e-06	962.49	274.18	4.6776e-06	2.0179e-06	247.74	69.174	67.979	21.904	3.9479e-06	23.724	0.00025185	0.00028348	7.6679e-05	924.52	3.12e-06	2.5801e-06	836.06	239.92	3.0188e-06	2.9763e-06	215.03	60.601	59.526	19.186	2.9792e-06	20.878	-58.918	-75.555	-62.247	-139.600	20.442	21.890	-141.271	-134.244	13.440	2.547	-136.965	-131.785	-129.671	-124.557	-0.455	-128.119	-8191	255	
1519.127	1	1	0	0	0.10753	0.064722	0.1448	0.14218	0.23848	0.091509	0.22349	0.25328	0.15778	0.11514	0.056495	0.058211	0.14293	0.17461	0.19704	0.47842	-3.6417	-3.1854	-4.1229	-3.8292	-3.4667	-4.3063	-3.4792	-3.9583	-3.9833	-3.2396	-4.1792	-3.7021	-3.3	-4.2292	-3.4125	-3.7208	-10.055	205.469	-20.769	187.763	-40.732	171.064	30.542	82.025	-122.456	-135.305	-78.783	207.039	49.364	137.042	-131.114	-132.561	0.00022607	0.00031015	0.00010033	1064.9	3.4175e-06	4.1826e-06	969.52	275.84	3.6091e-06	4.327e-06	250.25	69.765	69.036	21.86	3.912e-06	24.06	0.00024869	0.00027883	7.1014e-05	925.27	2.9315e-06	2.6772e-06	841.03	240.47	3.0985e-06	3.1166e-06	218.15	61.156	59.988	19.204	3.1228e-06	21.145	-59.851	-21.545	-40.105	-139.795	-11.839	30.296	-141.335	-134.367	-29.528	-11.333	-136.593	-131.326	-129.255	-124.519	22.912	-127.714	-8191	255	
1519.198	1	1	0	0	0.0731	0.25254	0.15811	0.13613	0.21686	0.11555	0.2224	0.06873	0.17464	0.055455	0.13163	0.12777	0.098183	0.1846	0.064505	0.21404	-3.7562	-3.425	-4.0583	-3.9125	-3.1771	-4.1229	-3.5979	-3.7458	-4.3146	-3.2792	-4.1271	-3.7271	-3.3521	-4.2417	-3.4521	-3.4458	-19.045	94.674	-38.285	203.033	50.046	126.767	171.280	168.613	123.122	-72.276	-53.702	-151.201	8.082	180.454	-98.034	128.695	0.00023358	0.00033201	9.4018e-05	1063.2	4.6058e-06	2.8401e-06	975.81	276.18	1.693e-06	2.3345e-06	251.22	70.483	68.837	21.932	5.4269e-06	24.179	0.00025089	0.00028729	7.719e-05	927.13	3.0919e-06	2.9072e-06	848.34	241.24	3.0371e-06	2.9525e-06	219.01	61.743	59.961	19.338	3.0611e-06	21.334	-58.704	-84.960	-73.763	-139.466	-5.604	-22.454	-141.383	-134.336	16.408	-25.790	-136.413	-131.696	-129.462	-124.928	4.767	-127.674	-8191	255	
1519.294	1	1	0	0	0.13765	0.1173	0.2607	0.38959	0.066047	0.13731	0.11414	0.21974	0.1853	0.12826	0.1311	0.14623	0.069182	0.072248	0.20104	0.080769	-3.7313	-3.2396	-3.8875	-4.1271	-3.2958	-4.1625	-3.6854	-3.6042	-4.1583	-3.2625	-3.9396	-3.9104	-3.3583	-4.2083	-3.7479	-3.4	-115.231	-83.905	182.305	104.650	-144.418	58.458	-92.529	194.986	4.329	2.917	-147.727	-66.806	36.763	130.072	52.924	137.289	0.00022122	0.00026398	9.3382e-05	1074.3	2.492e-06	2.0097e-06	969.43	275.71	3.3246e-06	3.7338e-06	249.51	69.936	67.582	21.633	4.3798e-06	24.069	0.00026183	0.00027035	7.315e-05	930.78	3.0117e-06	2.9075e-06	843.19	240.53	2.779e-06	3.1955e-06	217.11	60.701	59.381	19.14	2.8893e-06	21.067	-59.770	-76.459	-81.600	-139.946	-27.170	-10.249	-140.920	-134.264	-7.082	-30.582	-136.336	-132.282	-128.888	-124.306	0.334	-128.598	-8191	255	
#DATA ENDS
