BOXY.EXE: ISS Imagent and Oximeter Data Acquisition Program Version 0.80
Ascii Record File

#ACQ INFORMATION
2  Detector Channels 
16  External MUX Channels 
1  Auxiliary Channels 
5000  Waveform (CCF) Frequency (Hz)
1  Waveforms Skipped 
30  Waveforms Averaged 
1  Cycles Averaged 
16  Acquisitions per Waveform 
10.0806  Updata Rate (Hz) 

#FILE INFORMATION
TRUE -- External MUX Channel results are PARSED.
FALSE -- AC DC and Phase are NOT grouped.
TRUE -- Companion Program Settings File CREATED.
FALSE -- AC data not excluded
FALSE -- DC data not excluded
FALSE -- Phase data not excluded
FALSE -- Auxillary Chn. data not excluded
Tab delimiters

#CALIBRATION STATE
TRUE -- Waveform Calibration Values APPLIED.


#AUX CALIBRATION VALUES
Val Type	aux-1	

Term	1.0000e+00	
Factor	0.0000e+00	


#WF CALIBRATION VALUES
A = Detector Channel
Val Type	A-AC1	A-AC2	A-AC3	A-AC4	A-AC5	A-AC6	A-AC7	A-AC8	A-AC9	A-AC10	A-AC11	A-AC12	A-AC13	A-AC14	A-AC15	A-AC16	A-DC1	A-DC2	A-DC3	A-DC4	A-DC5	A-DC6	A-DC7	A-DC8	A-DC9	A-DC10	A-DC11	A-DC12	A-DC13	A-DC14	A-DC15	A-DC16	A-Ph1	A-Ph2	A-Ph3	A-Ph4	A-Ph5	A-Ph6	A-Ph7	A-Ph8	A-Ph9	A-Ph10	A-Ph11	A-Ph12	A-Ph13	A-Ph14	A-Ph15	A-Ph16	

Term	0.00000e+00	0.00000e+00	0.00000e+00	0.00000e+00	0.00000e+00	0.00000e+00	0.00000e+00	0.00000e+00	0.00000e+00	0.00000e+00	0.00000e+00	0.00000e+00	0.00000e+00	0.00000e+00	0.00000e+00	0.00000e+00	0.00000e+00	0.00000e+00	0.00000e+00	0.00000e+00	0.00000e+00	0.00000e+00	0.00000e+00	0.00000e+00	0.00000e+00	0.00000e+00	0.00000e+00	0.00000e+00	0.00000e+00	0.00000e+00	0.00000e+00	0.00000e+00	0.00000e+00	0.00000e+00	0.00000e+00	0.00000e+00	0.00000e+00	0.00000e+00	0.00000e+00	0.00000e+00	0.00000e+00	0.00000e+00	0.00000e+00	0.00000e+00	0.00000e+00	0.00000e+00	0.00000e+00	0.00000e+00	
Factor	1.00000e+00	1.00000e+00	1.00000e+00	1.00000e+00	1.00000e+00	1.00000e+00	1.00000e+00	1.00000e+00	1.00000e+00	1.00000e+00	1.00000e+00	1.00000e+00	1.00000e+00	1.00000e+00	1.00000e+00	1.00000e+00	1.00000e+00	1.00000e+00	1.00000e+00	1.00000e+00	1.00000e+00	1.00000e+00	1.00000e+00	1.00000e+00	1.00000e+00	1.00000e+00	1.00000e+00	1.00000e+00	1.00000e+00	1.00000e+00	1.00000e+00	1.00000e+00	X	X	X	X	X	X	X	X	X	X	X	X	X	X	X	X	

B = Detector Channel
Val Type	B-AC1	B-AC2	B-AC3	B-AC4	B-AC5	B-AC6	B-AC7	B-AC8	B-AC9	B-AC10	B-AC11	B-AC12	B-AC13	B-AC14	B-AC15	B-AC16	B-DC1	B-DC2	B-DC3	B-DC4	B-DC5	B-DC6	B-DC7	B-DC8	B-DC9	B-DC10	B-DC11	B-DC12	B-DC13	B-DC14	B-DC15	B-DC16	B-Ph1	B-Ph2	B-Ph3	B-Ph4	B-Ph5	B-Ph6	B-Ph7	B-Ph8	B-Ph9	B-Ph10	B-Ph11	B-Ph12	B-Ph13	B-Ph14	B-Ph15	B-Ph16	

Term	0.00000e+00	0.00000e+00	0.00000e+00	0.00000e+00	0.00000e+00	0.00000e+00	0.00000e+00	0.00000e+00	0.00000e+00	0.00000e+00	0.00000e+00	0.00000e+00	0.00000e+00	0.00000e+00	0.00000e+00	0.00000e+00	0.00000e+00	0.00000e+00	0.00000e+00	0.00000e+00	0.00000e+00	0.00000e+00	0.00000e+00	0.00000e+00	0.00000e+00	0.00000e+00	0.00000e+00	0.00000e+00	0.00000e+00	0.00000e+00	0.00000e+00	0.00000e+00	-3.55938e+01	-1.27701e+02	-1.25281e+02	-1.82617e+02	-5.40153e+01	-6.01161e+01	-1.56707e+02	-1.61923e+02	-3.23848e+01	-6.96501e+01	-1.72081e+02	-1.72121e+02	-1.82310e+02	-1.75613e+02	-4.80221e+01	-1.49421e+02	
Factor	1.75935e-05	1.27067e-04	3.90881e-05	1.69756e-01	1.41494e-06	1.43045e-06	1.51472e-01	4.16107e-02	1.27005e-06	1.46452e-06	7.00974e-02	2.89022e-02	2.93523e-02	6.32495e-03	1.47419e-06	9.43134e-03	9.40978e-06	1.53733e-05	4.30930e-06	8.73817e-02	1.59016e-07	1.71387e-07	7.34779e-02	2.15944e-02	1.53695e-07	1.73083e-07	3.51862e-02	1.45699e-02	1.52597e-02	3.31565e-03	1.61020e-07	4.78232e-03	X	X	X	X	X	X	X	X	X	X	X	X	X	X	X	X	



#DISTANCE SETTINGS
A = Detector Channel
A-1	A-2	A-3	A-4	A-5	A-6	A-7	A-8	A-9	A-10	A-11	A-12	A-13	A-14	A-15	A-16	

1.0000e+01	1.0000e+01	1.0000e+01	1.4500e+00	1.0000e+01	1.0000e+01	1.5100e+00	1.9500e+00	1.0000e+01	1.0000e+01	2.0100e+00	2.5000e+00	2.4400e+00	2.9500e+00	1.0000e+01	3.0100e+00	

B = Detector Channel
B-1	B-2	B-3	B-4	B-5	B-6	B-7	B-8	B-9	B-10	B-11	B-12	B-13	B-14	B-15	B-16	

1.0000e+01	1.0000e+01	1.0000e+01	1.4500e+00	1.0000e+01	1.0000e+01	1.5100e+00	1.9500e+00	1.0000e+01	1.0000e+01	2.0100e+00	2.5000e+00	2.4400e+00	2.9500e+00	1.0000e+01	3.0100e+00	




#DATA BEGINS
time	group	step	mark	flag	A-AC1	A-AC2	A-AC3	A-AC4	A-AC5	A-AC6	A-AC7	A-AC8	A-AC9	A-AC10	A-AC11	A-AC12	A-AC13	A-AC14	A-AC15	A-AC16	A-DC1	A-DC2	A-DC3	A-DC4	A-DC5	A-DC6	A-DC7	A-DC8	A-DC9	A-DC10	A-DC11	A-DC12	A-DC13	A-DC14	A-DC15	A-DC16	A-Ph1	A-Ph2	A-Ph3	A-Ph4	A-Ph5	A-Ph6	A-Ph7	A-Ph8	A-Ph9	A-Ph10	A-Ph11	A-Ph12	A-Ph13	A-Ph14	A-Ph15	A-Ph16	B-AC1	B-AC2	B-AC3	B-AC4	B-AC5	B-AC6	B-AC7	B-AC8	B-AC9	B-AC10	B-AC11	B-AC12	B-AC13	B-AC14	B-AC15	B-AC16	B-DC1	B-DC2	B-DC3	B-DC4	B-DC5	B-DC6	B-DC7	B-DC8	B-DC9	B-DC10	B-DC11	B-DC12	B-DC13	B-DC14	B-DC15	B-DC16	B-Ph1	B-Ph2	B-Ph3	B-Ph4	B-Ph5	B-Ph6	B-Ph7	B-Ph8	B-Ph9	B-Ph10	B-Ph11	B-Ph12	B-Ph13	B-Ph14	B-Ph15	B-Ph16	aux-1	digaux	

2166.434	1	1	0	768	0.14893	0.17556	0.21568	0.051251	0.32969	0.32879	0.20812	0.24231	0.12786	0.19257	0.19664	0.10822	0.25786	0.12616	0.16558	0.12924	-3.0771	-4.2833	-3.3521	-3.5563	-4.0958	-3.5229	-4.2229	-3.8667	-3.3667	-4.3479	-3.5271	-3.6063	-4.3021	-3.2646	-3.8292	-4.05	193.668	-23.984	95.970	251.905	-0.008	44.508	-61.663	219.629	70.271	126.084	212.355	241.987	-14.575	249.592	125.003	-59.697	0.00012967	0.00043102	8.09e-05	1056.8	7.5526e-06	2.7782e-06	1221.1	361.51	6.8543e-07	3.1613e-06	431.1	115.27	77.584	27.576	3.1795e-06	36.687	0.00067939	0.00097528	0.00027522	923.5	1.0495e-05	1.082e-05	1068.6	316.35	1.0288e-05	1.0517e-05	380.72	102.59	68.87	24.461	1.0183e-05	32.647	253.491	-11.005	22.189	-58.349	105.900	128.643	-59.794	-53.243	160.997	41.531	-55.159	-49.882	-48.819	-42.484	79.062	-46.547	-8191	255	
2166.531	1	1	0	0	0.13855	0.17361	0.10246	0.18619	0.095119	0.20339	0.19817	0.073769	0.13628	0.24778	0.31246	0.09888	0.041417	0.08248	0.18516	0.13299	-2.9417	-4.0708	-3.3833	-3.6917	-4.2	-3.4062	-4.1813	-4.2729	-3.2104	-4.2417	-3.7167	-3.5646	-4.1729	-3.3729	-3.8771	-4.1167	227.857	201.378	284.396	245.430	132.566	168.791	192.447	-33.252	114.136	147.064	238.536	248.184	249.448	-64.781	266.610	172.460	8.6661e-05	0.00074111	0.00020983	1056.5	5.1797e-06	9.53e-06	1237.4	361.87	3.9635e-06	5.0939e-06	438.46	116.64	77.649	27.541	6.0639e-06	36.794	0.00071944	0.00097025	0.00026424	926.1	1.0388e-05	1.1073e-05	1077.2	317.62	1.0079e-05	1.0964e-05	384.48	103.21	69.05	24.41	1.0188e-05	32.566	265.368	22.102	7.341	-58.469	139.132	87.804	-59.812	-53.232	108.000	96.496	-55.369	-50.066	-48.232	-42.453	78.870	-46.202	-8191	255	
2166.627	1	1	0	0	0.031176	0.36578	0.10138	0.18528	0.20564	0.067782	0.27109	0.096963	0.1768	0.18143	0.19168	0.13995	0.10342	0.080784	0.12293	0.092728	-2.9146	-3.9708	-3.8563	-3.4667	-4.1792	-3.4042	-3.7583	-4.1708	-3.2062	-4.1083	-3.95	-3.5625	-4.2979	-3.5062	-3.7438	-4.3229	6.158	0.676	189.521	220.075	-54.390	271.009	179.666	275.975	111.475	131.415	272.545	197.613	197.658	-48.528	52.304	-67.856	6.5506e-05	0.00034123	0.00016236	1060.7	5.3375e-06	7.1694e-06	1227.7	360.52	3.9803e-06	7.1233e-06	432.86	115.2	77.494	27.249	5.9734e-06	36.296	0.00070742	0.00096291	0.00026784	926.23	1.033e-05	1.0831e-05	1072	316.76	1.0032e-05	1.1045e-05	380.95	101.58	68.738	24.337	1.0777e-05	32.245	217.781	13.525	10.450	-58.542	19.366	75.907	-59.730	-53.083	231.263	55.785	-55.559	-49.955	-48.268	-42.322	94.395	-46.282	-8191	255	
2166.723	1	1	0	0	0.17854	0.1196	0.2228	0.23873	0.24276	0.030864	0.092259	0.051595	0.18276	0.01122	0.16197	0.16464	0.29661	0.022942	0.2551	0.19658	-2.8958	-4.0167	-3.8229	-3.4083	-4.4062	-3.4021	-3.7958	-4.5458	-3.4146	-4.0646	-4.1333	-3.3896	-4.3292	-3.6167	-3.6104	-4.4125	209.381	281.509	-65.172	243.081	213.200	53.157	-13.914	235.272	178.860	118.976	286.004	231.626	-19.795	187.701	0.848	175.968	6.6082e-05	0.00040684	0.00020169	1053.3	2.0544e-06	5.6011e-06	1229.2	362.06	5.81e-06	4.5654e-06	433.95	114.51	78.076	27.481	4.4217e-06	36.476	0.00068041	0.00098498	0.00026242	921.09	1.0281e-05	1.1318e-05	1069.8	317.13	1.0276e-05	1.0699e-05	382.19	102.06	69.158	24.496	1.0399e-05	32.561	202.078	7.105	37.550	-58.452	119.487	43.477	-59.613	-53.069	89.707	54.765	-55.135	-50.146	-48.628	-42.375	120.206	-46.025	-8191	255	
2166.819	1	1	0	0	0.034154	0.17167	0.034292	0.18595	0.14313	0.15946	0.2457	0.10695	0.11505	0.16548	0.15193	0.19015	0.11614	0.10671	0.21275	0.35678	-3.1625	-3.8979	-4.05	-3.4792	-4.1042	-3.6479	-3.75	-4.3313	-3.4562	-3.7333	-4.1833	-3.4062	-4.0396	-3.8021	-3.5312	-4.4542	155.974	192.096	152.064	147.058	1.664	121.666	-54.908	-25.586	-49.521	-56.818	254.931	242.370	113.315	133.189	-6.319	207.437	9.5261e-05	0.00047983	0.00012709	1059.9	6.6713e-06	6.6378e-06	1232.2	364.84	6.0739e-06	1.2559e-06	441.23	115.23	78.329	27.659	3.3571e-06	37.286	0.00069197	0.00096397	0.00026845	925.65	1.0114e-05	1.0533e-05	1071.7	319.4	9.9937e-06	1.0775e-05	385.59	102.65	69.722	24.634	1.0159e-05	32.976	245.883	91.490	20.580	-58.225	92.538	138.119	-59.414	-52.744	154.207	71.375	-55.242	-49.649	-48.288	-42.205	79.858	-45.921	-8191	255	
2166.915	1	1	0	0	0.22841	0.086277	0.11189	0.095148	0.086191	0.1201	0.36991	0.0179	0.060273	0.25353	0.11575	0.037143	0.071539	0.17583	0.24808	0.025935	-3.1271	-3.8396	-4.125	-3.3187	-4.0583	-3.9104	-3.5792	-4.2583	-3.5979	-3.7167	-4.35	-3.4729	-4.0271	-3.8958	-3.3563	-4.325	118.631	120.018	198.463	167.260	146.490	277.378	259.051	67.949	56.314	165.847	203.769	97.778	-31.152	17.665	38.975	112.172	6.6461e-05	0.00063516	0.00028842	1064.4	2.3264e-06	7.0047e-06	1242.3	364.94	2.9198e-06	2.4037e-06	438.52	116.73	78.326	27.593	6.9772e-06	36.932	0.00067852	0.00096647	0.00026978	928.16	1.0731e-05	1.0528e-05	1079.6	320.54	1.0166e-05	1.1053e-05	384.85	103.17	69.809	24.725	1.0252e-05	32.739	266.406	44.736	13.573	-58.404	94.659	106.662	-59.512	-53.167	97.319	105.385	-55.033	-49.955	-47.892	-42.315	122.933	-46.367	-8191	255	
2167.034	1	1	0	0	0.070871	0.072785	0.12707	0.075822	0.30634	0.066979	0.18058	0.081666	0.067122	0.11663	0.24696	0.068906	0.23984	0.17683	0.17632	0.2722	-3.2375	-3.6271	-4.2333	-3.3729	-3.8646	-3.8833	-3.3917	-4.3146	-3.5167	-3.5833	-4.3125	-3.4688	-4.0604	-4.1604	-3.0167	-4.2063	198.251	269.859	42.708	-69.428	19.980	268.260	237.410	161.532	240.488	-40.473	277.066	187.166	255.139	259.417	31.591	192.867	8.5402e-05	0.00064088	0.00016449	1059.1	6.8981e-06	5.1203e-06	1234.8	364.81	4.3766e-06	3.2503e-06	437.42	115.51	78.098	27.618	5.0846e-06	36.558	0.00068848	0.00094991	0.00027941	925.53	9.8159e-06	1.0867e-05	1073.4	319.25	9.8166e-06	1.0998e-05	383.17	102.22	69.441	24.584	1.0246e-05	32.426	221.816	7.139	1.341	-58.419	108.877	80.204	-59.532	-52.748	65.663	45.686	-55.174	-50.251	-47.985	-41.979	115.044	-45.943	-8191	255	
2167.130	1	1	0	0	0.060707	0.099184	0.30717	0.22525	0.11157	0.24877	0.32686	0.018368	0.12454	0.17511	0.217	0.032895	0.053337	0.28681	0.30764	0.14525	-3.3396	-3.3583	-4.2	-3.4271	-3.7917	-4.2167	-3.4896	-4.3562	-3.6833	-3.5979	-4.3979	-3.5583	-3.7625	-4.2688	-3.3771	-4.1958	141.485	-54.765	94.964	-56.685	133.154	-58.658	155.760	276.806	55.078	88.507	188.125	262.172	265.975	226.303	23.747	247.383	6.5003e-05	0.00069823	0.00017646	1061.4	2.4987e-06	5.8039e-06	1228.6	364.64	2.7141e-06	3.4422e-06	439.39	115.98	78.476	27.681	7.6113e-06	36.894	0.00068742	0.0009625	0.00026709	927.11	1.0111e-05	1.0731e-05	1071.9	319.55	9.9735e-06	1.0723e-05	384.41	102.64	69.844	24.68	1.0447e-05	32.74	258.774	26.430	34.457	-58.220	68.673	66.808	-59.613	-52.952	-27.524	57.758	-55.071	-49.926	-48.329	-42.566	88.003	-45.870	-8191	255	
2167.226	1	1	0	0	0.044166	0.032201	0.1429	0.2065	0.11958	0.11326	0.13221	0.17349	0.083821	0.17822	0.094433	0.13149	0.34919	0.23089	0.10843	0.10367	-3.4729	-3.5125	-4.3125	-3.4958	-3.5125	-4.1188	-3.4604	-4.1042	-3.8604	-3.4375	-4.1583	-3.6333	-3.6667	-4.2042	-3.4542	-4.0938	11.526	-70.513	236.502	225.173	-2.491	171.675	242.797	277.833	159.593	115.404	274.960	-52.426	-35.010	163.877	-14.564	270.086	7.4688e-05	0.00037026	8.5986e-05	1056.4	3.213e-06	4.308e-06	1234.4	364.97	4.0482e-06	1.8577e-06	440.2	117.13	78.485	27.863	1.3236e-06	37.177	0.00067978	0.00094757	0.00027497	926.76	1.0473e-05	1.0569e-05	1074.4	320.66	9.7779e-06	1.0726e-05	386.48	103.48	69.93	24.808	1.0319e-05	33.09	242.793	79.383	13.978	-58.290	142.592	56.247	-59.332	-52.868	72.069	64.511	-55.359	-50.153	-48.495	-42.184	50.995	-46.241	-8191	255	
2167.322	1	1	0	0	0.11264	0.15958	0.079406	0.12078	0.064866	0.22869	0.11561	0.1643	0.15131	0.08171	0.20164	0.11741	0.17854	0.065931	0.16692	0.15954	-3.6146	-3.2458	-4.3521	-3.9562	-3.5375	-4.3187	-3.5104	-3.8875	-4.075	-3.2917	-4.3396	-3.725	-3.6125	-4.2104	-3.3854	-4.1646	18.923	206.458	-42.113	39.701	61.302	3.688	149.742	-43.377	4.503	28.896	242.607	11.516	234.148	-52.604	150.404	-15.491	8.1711e-05	0.00032872	8.7582e-05	1070.1	2.9358e-06	2.7247e-06	1231.4	364.83	2.0486e-06	2.9408e-06	439.94	116.03	78.297	27.73	2.9164e-06	36.99	0.00068305	0.00098021	0.00027161	935.06	9.9567e-06	1.0585e-05	1078	320.81	1.018e-05	1.1115e-05	386.26	103.23	69.712	24.659	1.0247e-05	32.605	-66.227	27.699	32.576	-58.187	117.856	73.613	-59.425	-52.813	108.459	177.812	-55.304	-50.065	-47.843	-41.875	157.499	-45.888	-8191	255	
2167.419	1	1	0	0	0.30033	0.33563	0.19144	0.018492	0.12428	0.20661	0.26838	0.16657	0.051657	0.083377	0.044785	0.26467	0.14616	0.2792	0.27188	0.2077	-3.6937	-3.375	-4.2771	-3.7958	-3.4479	-4.2792	-3.5604	-3.8063	-4.1042	-3.3354	-4.2417	-3.9146	-3.2771	-4.2438	-3.4875	-3.7646	257.985	75.965	11.699	172.951	221.538	254.548	217.573	228.312	-4.579	61.694	114.421	273.901	147.277	241.320	-69.223	201.096	8.3299e-05	0.00028366	9.8221e-05	1067	2.6588e-06	4.2751e-06	1220.4	365.26	3.065e-06	7.5021e-06	434.42	114.74	77.959	27.746	6.6772e-06	36.665	0.00067501	0.00099702	0.00026265	928.68	1.0303e-05	1.0911e-05	1067	319.27	1.0039e-05	1.0848e-05	381.94	101.89	69.413	24.668	1.0152e-05	32.547	269.931	9.504	58.396	-58.231	65.714	77.207	-59.219	-52.753	70.356	74.866	-55.006	-49.457	-47.850	-41.492	94.931	-45.762	-8191	255	
2167.515	1	1	0	0	0.1061	0.030677	0.11156	0.14838	0.12952	0.151	0.059883	0.093464	0.14562	0.38376	0.17722	0.14771	0.11045	0.05293	0.044681	0.28246	-3.5875	-3.4354	-4.0229	-4	-3.3292	-4.1521	-3.5083	-3.525	-4.1562	-3.2167	-3.9	-4.1396	-3.2375	-4.0563	-3.5375	-3.5292	115.398	-19.618	272.711	266.061	-16.440	61.067	176.931	279.648	-30.373	-7.057	-41.613	150.742	-38.479	-29.246	52.485	201.906	0.00011906	0.00055094	9.854e-05	1061.1	3.5995e-06	6.3819e-06	1222.9	363.17	1.7433e-06	3.0219e-06	435.51	115.43	78.718	27.741	1.9094e-06	36.928	0.00070889	0.00094959	0.00027452	927.21	1.0445e-05	1.0281e-05	1068.7	319.1	9.9716e-06	1.089e-05	382.69	102.4	69.985	24.715	9.9899e-06	32.766	273.511	36.080	88.266	-58.452	57.449	89.117	-59.167	-52.878	51.229	5.495	-54.995	-49.827	-47.993	-41.497	28.088	-45.891	-8191	255	
2167.635	1	1	0	0	0.17161	0.21464	0.082121	0.088741	0.17882	0.098699	0.63577	0.34644	0.063444	0.14525	0.13289	0.37352	0.10862	0.14115	0.2078	0.19174	-3.8396	-3.4437	-3.7333	-4.0979	-3.3479	-4.1	-3.7292	-3.5187	-4.3229	-3.3083	-4.0667	-4.0958	-3.45	-4.2583	-3.7458	-3.4125	210.804	70.714	257.080	269.029	5.425	287.121	230.620	-58.721	156.086	227.487	-35.729	12.236	45.137	224.772	152.115	243.563	9.4853e-05	0.0007737	0.00016559	1064.3	5.614e-06	2.8657e-06	1236.8	366.85	5.2785e-06	1.1319e-05	440.31	116.73	78.848	28.141	6.125e-06	37.059	0.0006963	0.00095475	0.00026004	930.64	9.9885e-06	1.0568e-05	1077.4	321.52	1.0059e-05	1.1321e-05	386.71	103.49	70.234	24.934	1.0418e-05	33.007	248.971	13.200	47.446	-58.230	49.379	88.665	-59.828	-53.062	151.367	68.516	-55.150	-50.033	-48.257	-42.346	117.881	-46.123	-8191	255	
2167.732	1	1	0	0	0.38896	0.24492	0.29656	0.16369	0.15587	0.081478	0.14734	0.10181	0.013432	0.046416	0.10781	0.19638	0.14599	0.16904	0.19014	0.091605	-3.9958	-3.55	-3.7021	-4.2021	-3.3604	-3.9938	-4.0458	-3.475	-4.4458	-3.4792	-3.8333	-4.3271	-3.3438	-4.1	-4.0417	-3.3625	163.430	214.670	-59.073	27.834	210.323	288.346	230.584	-12.073	77.398	196.050	218.224	197.490	116.708	-4.533	96.201	130.086	0.00017231	0.0004083	0.00010531	1061.5	2.8727e-06	3.0996e-06	1232.8	364.59	1.4049e-06	6.3897e-06	433.48	116.12	78.343	27.66	4.4693e-06	36.658	0.00068093	0.00098735	0.00028148	929.43	1.0608e-05	1.0922e-05	1075.5	320.49	1.0126e-05	1.1023e-05	383.23	102.51	69.652	24.649	1.049e-05	32.42	282.178	5.168	-5.335	-58.694	63.716	124.508	-59.455	-52.942	159.166	66.507	-54.746	-50.323	-47.767	-42.345	122.386	-46.356	-8191	255	
2167.826	1	1	0	0	0.20988	0.070506	0.16879	0.26084	0.18702	0.11794	0.11631	0.20761	0.20441	0.12873	0.30269	0.081813	0.1974	0.2069	0.17987	0.12893	-4.0062	-3.4958	-3.5208	-4.3708	-3.1937	-3.9146	-4.0979	-3.475	-4.0687	-3.6125	-3.5333	-4.4458	-3.4708	-3.9562	-3.8521	-3.3479	237.414	-46.609	225.732	231.926	76.390	-40.995	245.098	213.885	8.810	130.639	227.209	-61.683	12.759	257.512	263.745	246.191	0.00011532	0.00030676	0.00016593	1062.2	7.9681e-06	4.4066e-06	1230	363.45	1.6589e-06	5.3758e-06	436.63	115.11	77.994	27.76	2.1707e-06	36.765	0.00067225	0.00095116	0.00028082	927.81	1.0012e-05	1.0566e-05	1069.3	318.9	9.8637e-06	1.0818e-05	383.45	102	69.557	24.781	1.0328e-05	32.656	237.633	19.358	14.399	-58.089	166.760	104.208	-59.731	-52.794	118.990	42.855	-55.111	-49.126	-48.416	-41.965	157.815	-46.203	-8191	255	
2167.922	1	1	0	0	0.22177	0.15989	0.11365	0.22565	0.28185	0.20713	0.065174	0.27557	0.12721	0.14811	0.42037	0.12295	0.28811	0.026773	0.080814	0.078274	-3.8042	-3.6979	-3.3979	-4.2667	-3.3771	-3.7896	-4.2021	-3.35	-4.2375	-3.7	-3.5042	-4.3854	-3.5125	-3.75	-4.1271	-3.3896	-18.125	288.274	98.704	278.330	-38.954	266.270	237.375	244.794	52.410	38.967	237.329	-52.411	273.513	142.230	98.935	271.504	8.242e-05	0.00024799	0.00011112	1060.7	4.4757e-06	4.6163e-06	1230.4	365.48	3.2377e-06	3.0372e-06	441.04	117.2	78.312	27.986	3.008e-06	37.161	0.00068374	0.0009567	0.00026857	928.58	1.0219e-05	1.0785e-05	1073.4	321.03	1.0079e-05	1.0794e-05	385.99	103.35	69.995	24.98	1.0353e-05	32.988	281.365	59.051	32.478	-58.205	51.243	131.036	-59.599	-52.822	152.265	93.592	-55.022	-49.764	-47.816	-42.187	113.725	-46.145	-8191	255	
2167.995	1	1	0	0	0.054634	0.17197	0.53263	0.36725	0.17022	0.073288	0.38705	0.17365	0.14211	0.18063	0.29037	0.096752	0.22301	0.16254	0.24285	0.23214	-3.7854	-3.7812	-3.2833	-4.1729	-3.4917	-3.5875	-4.3604	-3.4667	-4.1188	-4.0271	-3.4458	-4.1667	-3.7062	-3.5187	-4.2292	-3.5771	76.800	97.503	94.859	276.512	-63.533	271.402	208.397	166.065	46.781	-2.169	271.806	132.302	229.044	14.304	14.955	213.957	7.5802e-05	0.00039435	0.0001887	1065.1	3.6443e-06	3.2618e-06	1239.1	367.91	2.4336e-06	4.568e-06	443.04	117.6	79.103	28.151	6.786e-06	37.206	0.00069423	0.00093521	0.00027361	929.95	1.0207e-05	1.0841e-05	1080.5	323.05	9.879e-06	1.0775e-05	388.7	104.14	70.727	25.125	1.0001e-05	33.056	261.033	32.071	20.293	-58.097	99.809	105.335	-59.352	-52.663	74.625	82.183	-54.659	-49.598	-48.087	-41.793	47.050	-46.431	-8191	255	
2168.114	1	1	0	0	0.019427	0.045688	0.16115	0.23141	0.30704	0.32255	0.087242	0.16585	0.29617	0.096727	0.17582	0.079015	0.18421	0.096064	0.022049	0.035044	-3.55	-3.9083	-3.1292	-4.1833	-3.4604	-3.5292	-4.3292	-3.4958	-3.7854	-4.0292	-3.4437	-4.2375	-3.8667	-3.5375	-4.2875	-3.4188	-49.416	261.199	225.498	270.593	63.413	94.135	222.349	197.745	238.922	239.839	256.205	170.059	-58.176	-30.030	-29.152	131.363	0.00013825	0.00071786	0.00017812	1072.1	8.6991e-06	5.315e-06	1243.1	369.75	1.232e-06	5.3352e-06	440.71	116.89	79.762	28.083	4.8936e-06	36.772	0.00067919	0.00098408	0.00027109	934.7	1.0459e-05	1.0853e-05	1081.7	323.78	9.9757e-06	1.0834e-05	386.43	103.54	70.359	24.942	1.0539e-05	32.611	237.991	-19.439	51.235	-58.293	92.338	96.388	-59.341	-52.952	141.069	59.471	-54.931	-49.471	-48.283	-42.049	131.211	-45.499	-8191	255	
2168.211	1	1	0	0	0.15031	0.07798	0.11633	0.27334	0.37852	0.13929	0.15541	0.111	0.10365	0.083399	0.080642	0.28445	0.18199	0.057222	0.065177	0.14506	-3.4542	-4.075	-3.2938	-4.2208	-3.8563	-3.2562	-4.4583	-3.5125	-3.5729	-4.1875	-3.4979	-4.1	-3.8833	-3.3958	-4.2042	-3.5542	219.702	117.773	124.919	217.857	-66.671	47.619	257.431	196.603	171.339	176.609	-9.614	236.406	53.870	96.379	56.876	238.737	9.074e-05	0.0006807	0.00011171	1063.7	7.1247e-06	3.6274e-06	1243.1	366.06	4.0559e-06	5.9042e-06	443.86	116.26	79.042	27.914	7.0956e-06	37.099	0.00068164	0.00097617	0.00028003	933.48	1.0191e-05	1.1041e-05	1081.1	321.78	1.0035e-05	1.0711e-05	386.65	103.13	70.44	24.939	1.0235e-05	32.886	246.810	-1.281	28.916	-58.013	111.153	58.519	-59.261	-52.753	111.352	79.383	-54.579	-49.568	-48.181	-41.693	96.140	-45.648	-8191	255	
2168.307	1	1	0	0	0.14955	0.1433	0.046668	0.20781	0.12406	0.18565	0.18401	0.17261	0.086521	0.25966	0.14969	0.1095	0.22939	0.074338	0.1398	0.14246	-3.3208	-4.0479	-3.3625	-3.9417	-3.7542	-3.3063	-4.4646	-3.6083	-3.2458	-4.1729	-3.4479	-3.8229	-4.0146	-3.0854	-4.1479	-3.7083	126.632	17.810	-23.984	-55.814	41.734	143.657	251.473	222.303	26.821	-42.935	189.552	190.161	28.174	9.700	76.683	-69.398	0.00013929	0.00043542	0.00026287	1070.9	4.6544e-06	3.8617e-06	1232.4	368.56	2.8942e-06	4.6383e-06	442.61	117.74	79.3	28.207	4.5174e-06	37.45	0.00068931	0.0010189	0.00027848	937.73	1.0368e-05	1.087e-05	1078.5	322.68	1.039e-05	1.1041e-05	388.6	104.05	70.456	25.084	1.0386e-05	33.069	236.684	12.135	2.758	-57.963	89.371	69.601	-58.894	-52.981	56.249	47.087	-54.972	-49.421	-47.838	-41.799	113.668	-45.819	-8191	255	
2168.403	1	1	0	0	0.083677	0.098716	0.11477	0.12838	0.069473	0.12665	0.17652	0.33656	0.16717	0.1993	0.15945	0.083198	0.24975	0.28861	0.23507	0.13854	-3.1083	-4.0958	-3.3312	-4.075	-4.0312	-3.2042	-4.1583	-3.8792	-3.4125	-4.2354	-3.5854	-3.7792	-4.0437	-3.3563	-3.8896	-3.8854	47.609	-35.909	-29.278	82.306	8.325	168.954	286.369	235.779	160.395	2.124	-10.112	148.329	30.378	274.616	136.766	160.002	0.00010311	0.0006787	0.00015804	1066.9	4.5007e-06	8.5083e-06	1243	367.72	3.101e-06	8.9397e-06	444.51	117.84	78.58	28.093	2.577e-06	36.999	0.00071079	0.0010058	0.00027642	937.23	1.0629e-05	1.1281e-05	1085.3	323.44	1.0416e-05	1.0882e-05	390.45	104.46	70.475	25.022	1.0676e-05	32.894	242.467	11.240	20.106	-57.788	73.194	71.496	-59.392	-52.623	25.903	76.009	-55.024	-49.420	-48.002	-42.185	92.123	-45.827	-8191	255	
2168.523	1	1	0	0	0.13039	0.043068	0.18412	0.11048	0.05464	0.077956	0.28141	0.27055	0.21336	0.12753	0.10545	0.12705	0.2464	0.088682	0.14669	0.098528	-2.9854	-4.0917	-3.5375	-3.6958	-4.1229	-3.2979	-4.1396	-4.0854	-3.3312	-4.2167	-3.7687	-3.4292	-4.1021	-3.2438	-3.9604	-4.0417	-10.398	-46.500	18.722	171.783	-10.033	-58.563	224.083	277.396	223.866	-44.368	166.954	153.548	9.448	241.910	-48.557	32.716	6.4813e-05	0.00020292	1.1229e-05	1077.8	6.4672e-06	5.4651e-06	1241.6	367.56	2.9272e-06	3.8435e-06	439.68	116.3	78.703	27.758	3.2645e-06	36.701	0.00069452	0.00096778	0.00027524	939.89	1.0487e-05	1.1069e-05	1083.2	322.65	1.0422e-05	1.0879e-05	385.4	102.94	69.808	24.715	1.0247e-05	32.425	264.731	144.658	279.940	-57.951	112.215	88.805	-59.035	-52.469	111.100	31.541	-54.956	-49.637	-47.987	-41.468	144.917	-45.972	-8191	255	
2168.595	1	1	0	0	0.21708	0.1145	0.18896	0.26531	0.088936	0.058644	0.27305	0.1545	0.17024	0.19379	0.070944	0.16343	0.17757	0.31474	0.13711	0.14547	-2.8688	-4.275	-3.7188	-3.5708	-4.2708	-3.4333	-4.1375	-4.1146	-3.5458	-4.1146	-3.8563	-3.5604	-4.5167	-3.4104	-3.8604	-4.2042	148.511	-21.223	103.784	-64.041	-18.756	51.620	241.211	-52.510	-1.294	249.697	169.279	22.492	215.039	232.000	-12.815	206.952	0.00010135	0.00075572	7.3123e-05	1075.4	4.8939e-06	5.1477e-06	1239	366.43	1.1397e-06	6.1852e-06	440.59	116.29	78.897	27.886	5.1885e-06	36.685	0.0007052	0.00098296	0.00027646	937.05	1.0451e-05	1.0985e-05	1081.1	321.97	1.0158e-05	1.0972e-05	386.49	102.85	70.082	24.852	1.0554e-05	32.709	241.874	15.862	58.203	-57.908	93.288	67.724	-59.140	-52.810	-56.871	85.282	-55.118	-49.392	-47.719	-42.103	159.609	-45.678	-8191	255	
2168.716	1	1	0	0	0.092823	0.11989	0.13585	0.19223	0.21323	0.18155	0.49027	0.17718	0.25934	0.085603	0.16223	0.23042	0.019492	0.22549	0.2179	0.14081	-3.1208	-3.9854	-3.7083	-3.6063	-4.2625	-3.5167	-3.8021	-4.2042	-3.3208	-4.1646	-3.8521	-3.3937	-4.1979	-3.5708	-3.4208	-4.1687	282.802	29.644	61.890	-50.778	-28.431	175.888	241.550	223.682	250.759	133.552	-20.415	183.320	-52.358	287.370	29.547	164.702	7.9578e-05	0.00070666	0.00011581	1072.8	5.6237e-06	6.6938e-06	1240.4	369.5	2.1733e-06	5.7328e-06	444.85	116.46	79.535	28.233	3.3816e-06	37.21	0.00070652	0.00099251	0.000279	939.01	1.018e-05	1.1247e-05	1084	324.38	1.0521e-05	1.1199e-05	388.3	103.37	70.637	25.086	1.0762e-05	33.108	286.182	29.451	36.635	-58.069	102.921	80.535	-58.994	-52.514	124.426	54.580	-54.820	-49.354	-48.205	-41.813	72.398	-45.764	-8191	255	
2168.812	1	1	0	0	0.1576	0.16909	0.16989	0.29552	0.11096	0.091221	0.26425	0.12576	0.15262	0.014247	0.11886	0.087471	0.15861	0.12191	0.051428	0.21033	-2.9146	-4.0312	-3.9062	-3.3625	-4.1979	-3.4583	-3.6146	-4.1396	-3.2062	-3.7729	-4.0917	-3.3042	-4.2188	-3.7125	-3.2479	-4.1708	47.892	256.111	213.478	201.663	51.152	-68.463	217.030	275.384	27.074	-64.215	272.268	188.572	231.095	39.345	-28.259	-58.735	6.5989e-05	0.00040496	0.00017718	1080.7	2.6445e-06	4.8037e-06	1254.8	371.43	5.3883e-06	5.096e-06	446.87	117.8	79.893	28.244	1.0075e-06	37.056	0.00069936	0.00097745	0.00027536	942.05	1.0669e-05	1.1233e-05	1090.4	325.49	1.0176e-05	1.1108e-05	390.23	104.3	71.027	25.11	1.0808e-05	32.955	281.172	9.001	6.209	-57.540	32.691	68.887	-59.216	-52.534	106.345	65.368	-55.004	-49.679	-47.599	-41.869	128.712	-45.787	-8191	255	
2168.906	1	1	0	0	0.17482	0.25003	0.24388	0.24512	0.37532	0.15678	0.2364	0.2469	0.13755	0.18186	0.083229	0.072147	0.17069	0.033809	0.17342	0.36235	-2.975	-3.8292	-4.0896	-3.3229	-4.1125	-3.7583	-3.6292	-4.4104	-3.4479	-3.7104	-4.2479	-3.3063	-4.2	-3.8063	-3.2875	-4.2667	222.797	12.030	141.459	223.352	1.728	207.081	214.271	-69.788	162.268	279.427	143.185	147.690	0.920	-69.199	64.723	240.494	0.00010737	0.00037981	0.0002021	1076.9	5.3012e-06	3.8696e-06	1250.9	375.13	2.5152e-06	5.4935e-06	446.15	117	79.21	28.268	5.3302e-06	36.722	0.00070516	0.00099094	0.00028304	939.36	1.0238e-05	1.0841e-05	1086.9	325.8	1.0409e-05	1.1396e-05	388.99	103.64	70.737	24.965	1.0857e-05	32.616	261.461	68.141	-30.781	-57.733	90.283	56.465	-59.299	-52.621	170.615	81.556	-54.766	-49.632	-48.109	-41.951	118.888	-45.640	-8191	255	
2169.004	1	1	0	0	0.21126	0.07637	0.16841	0.12735	0.2109	0.01479	0.18303	0.33133	0.30982	0.13071	0.35191	0.058978	0.15793	0.15525	0.22133	0.12074	-3.0667	-3.7062	-4.1625	-3.4083	-4.0938	-3.8	-3.525	-4.3854	-3.55	-3.7042	-4.1146	-3.4896	-4.0646	-4.1687	-3.2979	-4.4271	107.796	215.337	167.973	286.812	-24.971	254.975	216.008	275.222	80.040	114.257	288.035	-28.348	-67.671	-13.914	-12.889	47.160	7.2805e-05	0.00045439	0.00021232	1081.6	1.9391e-06	6.9437e-06	1251.2	372.49	1.4274e-06	4.3452e-06	443.79	117.43	79.909	28.096	6.8874e-06	36.934	0.0007045	0.001035	0.00027772	941.94	1.0827e-05	1.1019e-05	1089.1	325.67	1.0535e-05	1.1094e-05	388.93	103.77	70.765	25.028	1.0645e-05	32.796	218.726	59.153	28.958	-57.852	-20.644	85.471	-58.908	-52.422	204.229	-10.598	-54.887	-49.913	-47.370	-41.731	159.451	-46.006	-8191	255	
2169.123	1	1	0	0	0.090683	0.16822	0.22855	0.23391	0.014713	0.21263	0.071561	0.30166	0.12978	0.2412	0.25639	0.10289	0.10977	0.18476	0.090666	0.11227	-3.1312	-3.5229	-4.1521	-3.5312	-3.7833	-4.1104	-3.5229	-4.3812	-3.6771	-3.5521	-4.4563	-3.5521	-3.9542	-4.1583	-3.225	-4.2292	-53.988	252.571	154.013	265.881	64.225	-28.236	128.252	188.697	-58.531	213.506	270.361	136.203	184.915	224.889	-2.042	262.453	0.00011322	0.00051709	0.00016226	1082.2	3.5467e-06	6.2455e-06	1250.2	372.06	5.3292e-06	5.2512e-06	446.09	118.46	79.997	28.562	5.8602e-06	37.145	0.00068974	0.0010034	0.0002713	942.77	1.0815e-05	1.0644e-05	1089.9	326.08	1.0203e-05	1.1081e-05	390.86	104.61	71.064	25.17	1.0736e-05	33.083	241.318	3.249	-25.793	-57.984	79.055	91.568	-59.173	-52.685	145.292	54.827	-54.648	-49.351	-47.632	-41.981	132.164	-45.514	-8191	255	
2169.219	1	1	0	0	0.14776	0.069464	0.27063	0.15779	0.16406	0.029316	0.20785	0.30825	0.14296	0.045257	0.10774	0.10488	0.074291	0.15335	0.058603	0.2437	-3.2375	-3.2729	-4.1708	-3.5896	-3.7021	-4.1937	-3.5125	-4.1625	-3.7125	-3.3937	-4.3167	-3.5438	-3.9458	-4.3	-3.2208	-4.1271	102.412	209.548	21.521	-43.502	-29.041	135.911	179.765	245.012	-9.685	276.278	7.056	129.532	36.797	216.381	98.571	245.381	0.00012535	0.00067989	0.00017463	1082.1	2.4742e-06	8.2727e-06	1256.4	374.09	2.2857e-06	7.8605e-06	447.09	118.18	79.762	28.33	1.0032e-06	37.005	0.00072532	0.0010099	0.00027996	944.18	1.0515e-05	1.1231e-05	1094.6	326.93	1.0372e-05	1.1746e-05	390.93	104.24	70.904	25.04	1.0428e-05	32.757	240.895	53.287	48.375	-58.019	77.079	139.793	-59.196	-52.300	84.531	69.925	-54.568	-49.969	-48.165	-42.144	66.243	-45.573	-8191	255	
2169.291	1	1	0	0	0.27124	0.1864	0.09488	0.27491	0.12912	0.19213	0.40015	0.42208	0.13482	0.072842	0.30215	0.18502	0.20464	0.24164	0.044513	0.025907	-3.4917	-3.2188	-4.2042	-3.5187	-3.625	-4.2937	-3.3625	-4.1333	-3.9417	-3.1979	-4.2625	-3.6021	-3.5292	-4.3187	-3.3667	-3.8167	134.846	283.537	127.822	236.773	103.588	190.639	232.342	243.954	1.085	176.591	186.895	270.200	237.569	224.692	18.282	104.479	8.3256e-05	0.00040402	0.00028219	1078.1	4.3684e-06	2.1948e-06	1248	371.98	2.3464e-06	5.2194e-06	444.4	116.85	79.7	28.094	3.5371e-06	36.808	0.00070454	0.00098235	0.00027992	938.66	1.0457e-05	1.1112e-05	1085.6	325.08	1.0557e-05	1.1614e-05	388.59	103.62	70.933	24.93	1.0663e-05	32.629	256.657	27.225	64.731	-58.127	61.960	73.851	-59.045	-52.192	61.130	68.169	-54.576	-49.611	-48.050	-41.962	165.999	-45.596	-8191	255	
2169.412	1	1	0	0	0.15973	0.17366	0.22006	0.21395	0.18015	0.064143	0.19967	0.29726	0.096393	0.13766	0.27212	0.11311	0.18015	0.20867	0.10576	0.17471	-3.6437	-3.4396	-3.9958	-3.8729	-3.5563	-4.3583	-3.6896	-3.9042	-3.9854	-3.2854	-4.1896	-3.6688	-3.3208	-4.3479	-3.3229	-3.6667	169.850	38.987	-36.497	240.036	256.324	27.392	191.780	239.465	225.760	234.927	-40.321	-69.054	259.348	7.402	22.017	-38.110	0.00012342	0.00049589	0.00022837	1073.5	5.073e-06	2.8666e-06	1250.4	370.77	5.8806e-06	4.9278e-06	445.34	117.83	79.687	28.318	7.6184e-06	36.902	0.00068731	0.00098191	0.00027332	938.52	1.0636e-05	1.0978e-05	1087.4	324.96	1.0475e-05	1.1413e-05	390.54	103.98	70.82	25.086	1.0453e-05	32.85	278.158	42.947	11.278	-58.301	110.695	65.133	-59.469	-53.040	80.795	118.499	-55.217	-50.185	-47.984	-41.832	115.889	-45.844	-8191	255	
2169.508	1	1	0	0	0.29189	0.24719	0.23375	0.20266	0.25871	0.091836	0.086701	0.25264	0.14505	0.17223	0.12353	0.13552	0.14121	0.11713	0.2257	0.20755	-3.7313	-3.3125	-4.0542	-3.9437	-3.4562	-4.2417	-3.4104	-3.6896	-4.1542	-3.3375	-4.1875	-3.9354	-3.2667	-4.3083	-3.4771	-3.7042	231.091	100.050	132.467	262.318	-32.218	261.631	259.689	169.584	216.833	140.859	257.230	267.519	108.796	84.596	-58.015	211.316	8.9398e-05	0.00043461	0.0002574	1080.6	8.6291e-06	5.9393e-06	1252.9	372.64	1.3464e-06	2.7114e-06	450.74	119.03	80.6	28.444	3.0888e-06	37.325	0.00070436	0.0010211	0.00028191	942.66	1.0933e-05	1.1414e-05	1091.9	326.34	1.0215e-05	1.1406e-05	393.63	104.93	71.51	25.308	1.0355e-05	33.188	246.712	-9.195	14.267	-58.244	60.540	44.129	-59.439	-53.010	183.152	34.635	-55.334	-49.891	-48.773	-42.276	45.067	-46.255	-8191	255	
2169.604	1	1	0	0	0.12532	0.11311	0.19002	0.15203	0.21364	0.066354	0.26883	0.36473	0.17178	0.09562	0.34599	0.056152	0.15006	0.25501	0.10935	0.10412	-3.8146	-3.2687	-3.8396	-4.0958	-3.2521	-4.1562	-3.6896	-3.7146	-4.2812	-3.4646	-3.8667	-4.1062	-3.4688	-4.2604	-3.7208	-3.5167	188.639	190.567	-27.890	262.143	31.815	-30.875	186.724	231.253	198.728	83.835	224.810	60.664	254.624	230.858	5.850	233.632	8.7991e-05	0.00066446	7.7285e-05	1087.8	4.4488e-06	7.6185e-06	1257.4	372.88	1.1165e-06	5.6383e-06	444.95	117.98	79.729	28.15	6.9362e-06	36.659	0.00069595	0.0010264	0.00027711	945.85	1.0544e-05	1.1153e-05	1095	326.78	1.0269e-05	1.1154e-05	391.28	104.47	70.92	25.072	1.087e-05	32.557	256.201	2.861	62.426	-57.988	102.968	65.010	-59.482	-52.701	165.621	114.131	-54.997	-49.954	-48.089	-41.750	64.635	-45.894	-8191	255	
2169.700	1	1	0	0	0.065374	0.23281	0.1262	0.1802	0.2718	0.096964	0.072684	0.14804	0.16301	0.14894	0.205	0.18812	0.1467	0.26918	0.15465	0.24225	-3.8646	-3.3458	-3.7687	-4.3063	-3.2625	-4.1438	-3.9521	-3.55	-4.2188	-3.4208	-3.8875	-3.9771	-3.2979	-4.0687	-3.7542	-3.3833	42.034	120.214	191.516	289.333	88.538	53.989	260.305	274.886	229.302	224.849	272.097	-12.570	33.162	219.453	154.626	217.391	9.0016e-05	0.00090755	9.6437e-05	1080.8	3.7869e-06	7.1441e-06	1244.8	369.91	2.0796e-06	7.0576e-06	443.84	116.41	78.803	28.303	4.5278e-06	36.684	0.0006955	0.00098213	0.00027692	941.36	1.0554e-05	1.0988e-05	1087.8	325.05	1.042e-05	1.1355e-05	389.39	103.3	70.579	25.122	1.042e-05	32.632	238.403	-1.492	51.791	-58.038	66.135	82.752	-59.545	-52.429	134.983	55.484	-54.873	-49.774	-48.356	-42.153	115.000	-45.907	-8191	255	
2169.819	1	1	0	0	0.072379	0.34094	0.083852	0.17459	0.31846	0.11512	0.1926	0.24915	0.073562	0.18687	0.21777	0.12395	0.2408	0.2427	0.22696	0.20992	-3.9583	-3.5479	-3.4708	-4.3562	-3.3458	-3.8771	-4.0875	-3.4833	-4.1375	-3.6375	-3.5604	-4.2917	-3.1417	-4.0083	-4.0521	-3.3479	169.196	33.989	177.067	6.876	95.912	-12.026	248.383	276.249	130.014	-7.028	226.674	205.112	109.417	-13.937	149.693	257.995	9.3682e-05	0.00054449	0.00021274	1081.5	5.8806e-06	2.2204e-06	1250.9	374.02	6.0501e-07	5.6324e-06	447.06	118.67	80.336	28.447	4.6439e-06	37.446	0.00069211	0.00099126	0.00027588	942.76	1.0436e-05	1.1129e-05	1092.8	326.84	1.0446e-05	1.1036e-05	392.35	104.87	71.584	25.318	1.0608e-05	33.205	255.951	-12.882	38.128	-57.917	49.395	156.645	-59.207	-52.595	19.865	103.244	-54.898	-49.959	-47.768	-42.232	109.079	-46.475	-8191	255	
2169.892	1	1	0	0	0.19187	0.08748	0.1548	0.19127	0.31817	0.094068	0.23079	0.19387	0.12435	0.22996	0.29488	0.24751	0.29444	0.090384	0.15073	0.24573	-3.6583	-3.6854	-3.2958	-4.3792	-3.375	-3.9562	-4.2896	-3.5708	-4.1604	-3.6875	-3.6521	-4.1958	-3.3208	-3.9021	-4.0458	-3.4958	0.291	286.623	83.689	261.130	268.680	-4.995	-42.664	155.425	57.335	-31.711	209.400	220.241	274.004	212.340	50.226	171.821	8.1428e-05	0.00056276	3.2688e-05	1081.1	5.2905e-06	3.8285e-06	1263.2	375.34	2.0224e-06	4.7945e-06	451.77	120.45	81.255	28.566	3.0738e-06	38.026	0.00070622	0.00099904	0.00028274	946.48	1.0932e-05	1.1128e-05	1097.5	329.06	1.0377e-05	1.1412e-05	395.84	106.12	71.945	25.46	1.0445e-05	33.549	253.151	27.760	-4.404	-58.506	52.701	118.134	-59.574	-53.045	204.511	91.003	-55.092	-50.117	-48.158	-42.216	128.367	-45.892	-8191	255	
2169.987	1	1	0	0	0.17422	0.19819	0.13384	0.23601	0.19746	0.15787	0.12932	0.2022	0.11945	0.16694	0.31572	0.092735	0.1037	0.27217	0.052537	0.18094	-3.8604	-3.7417	-3.3937	-4.3438	-3.3417	-3.8208	-4.3063	-3.6188	-3.9917	-3.9562	-3.3458	-4.3083	-3.4625	-3.7979	-4.2167	-3.3979	49.326	133.761	93.392	-65.663	-11.261	25.783	224.501	264.815	-18.919	156.782	-8.315	273.771	-5.835	254.345	24.892	129.938	8.678e-05	0.00054669	0.00019477	1088.5	9.1916e-07	3.3256e-06	1258.2	373.69	2.5482e-06	5.157e-06	449.25	119.35	80.595	28.545	3.4552e-06	37.349	0.00071452	0.0010198	0.0002864	947.53	1.0639e-05	1.1175e-05	1098.5	327.83	1.0274e-05	1.112e-05	393.09	105.34	71.553	25.32	1.0486e-05	33.048	252.492	18.945	14.177	-58.175	-59.803	95.572	-59.423	-52.933	121.238	69.482	-55.256	-49.507	-48.377	-41.952	112.893	-46.158	-8191	255	
2170.085	1	1	0	0	0.10818	0.15479	0.098152	0.13848	0.13039	0.04964	0.13557	0.26283	0.043651	0.20782	0.082903	0.23285	0.2274	0.038064	0.1816	0.029808	-3.8042	-4.0583	-3.275	-4.3479	-3.5771	-3.5875	-4.4771	-3.5708	-4.0625	-3.8771	-3.3563	-4.2271	-3.6146	-3.4479	-4.2937	-3.375	-55.319	247.689	70.291	240.377	257.093	26.883	215.411	197.766	130.469	69.098	-4.664	6.138	32.471	121.668	251.802	252.452	6.9658e-05	0.00033366	0.00017051	1086.6	3.1672e-06	3.3485e-06	1252.6	374.55	3.829e-06	6.016e-06	449.84	117.94	80.945	28.48	4.5982e-06	37.209	0.00071007	0.00098405	0.00028502	946.41	1.064e-05	1.1232e-05	1092.1	327.87	1.0134e-05	1.1071e-05	393.14	104.95	71.905	25.377	1.0577e-05	33.11	248.519	72.126	-5.175	-58.373	111.209	90.192	-59.383	-52.811	125.305	66.467	-55.271	-50.034	-48.551	-42.085	108.376	-46.021	-8191	255	
2170.203	1	1	0	0	0.13182	0.21811	0.2794	0.23155	0.17569	0.042052	0.14477	0.087373	0.16063	0.12856	0.12076	0.22926	0.30861	0.15366	0.099277	0.049552	-3.4708	-4.0917	-3.3021	-4.3208	-3.7792	-3.4917	-4.3667	-3.4938	-3.9229	-4.2188	-3.4375	-4.2292	-3.9375	-3.3146	-4.1417	-3.6437	217.258	-67.946	116.313	-15.882	285.652	84.713	182.924	240.633	239.781	74.393	223.164	215.980	189.371	-25.805	230.045	2.784	7.9289e-05	0.00078863	0.00018337	1084	2.7398e-06	4.6696e-06	1256.2	373.3	4.7584e-06	8.4022e-06	449.4	118.27	80.773	28.816	3.2047e-06	37.721	0.00071742	0.0009959	0.00028826	945.57	1.058e-05	1.1496e-05	1097.4	327.96	1.0403e-05	1.1273e-05	393.99	105.55	71.721	25.491	1.026e-05	33.294	260.254	-8.193	22.212	-58.087	119.510	102.574	-59.332	-52.901	85.380	117.817	-54.741	-49.501	-48.379	-42.109	122.125	-45.888	-8191	255	
2170.300	1	1	0	0	0.29552	0.20419	0.14527	0.15153	0.19392	0.23147	0.16879	0.14137	0.33169	0.056153	0.10668	0.012198	0.19913	0.070871	0.19375	0.13243	-3.375	-4.1667	-3.4333	-4.1458	-3.9083	-3.3688	-4.5625	-3.825	-3.6625	-4.2042	-3.4729	-3.9583	-3.9396	-3.5271	-4.175	-3.6292	106.274	118.411	223.051	280.938	113.501	162.593	-68.155	269.433	68.958	145.303	156.984	44.321	270.235	7.375	100.298	149.220	5.442e-05	0.00071434	0.0001706	1081.8	8.2218e-06	5.3244e-06	1266.4	376.4	3.48e-06	7.5512e-06	455.21	120.26	80.753	28.393	3.2156e-06	37.281	0.00069342	0.0010143	0.00028275	945.98	1.0728e-05	1.1233e-05	1101.3	328.82	1.025e-05	1.1016e-05	397.36	106.7	71.79	25.453	1.0686e-05	33.33	272.140	6.900	-3.726	-57.909	79.689	89.039	-59.245	-52.662	113.098	71.210	-54.366	-49.916	-47.797	-41.838	64.685	-45.671	-8191	255	
2170.396	1	1	0	0	0.16106	0.18948	0.022968	0.26438	0.26656	0.080973	0.18308	0.23323	0.25796	0.10633	0.098072	0.27931	0.0085229	0.10067	0.10347	0.024105	-3.2812	-4.2729	-3.2771	-4.1708	-4.1021	-3.2313	-4.2375	-3.8917	-3.4708	-4.3083	-3.2875	-3.9021	-4.1104	-3.4042	-4.1792	-3.8604	215.040	-14.176	81.088	-50.416	0.150	183.340	219.576	217.509	-49.598	248.364	215.441	256.432	148.610	37.995	3.975	194.878	0.00011523	0.00010985	3.6264e-05	1097.3	6.1369e-06	1.6825e-06	1268.3	373.97	3.555e-06	8.5669e-07	449.07	118.54	80.771	28.589	7.3097e-06	36.78	0.00070113	0.0010157	0.00028862	951.31	1.0833e-05	1.1147e-05	1101.9	327.9	1.0339e-05	1.1153e-05	392.52	104.98	71.361	25.314	1.0655e-05	32.794	247.659	-70.628	-33.396	-58.323	114.113	84.938	-59.167	-52.759	85.672	212.803	-54.618	-49.823	-47.815	-41.890	140.295	-45.641	-8191	255	
2170.492	1	1	0	0	0.04539	0.042359	0.084128	0.08997	0.18486	0.12433	0.26203	0.41746	0.03261	0.22277	0.37887	0.026332	0.05271	0.14932	0.048569	0.093772	-2.975	-4.325	-3.6083	-3.7854	-4.1146	-3.4021	-4.2333	-3.9167	-3.3937	-4.2333	-3.6625	-3.6271	-4.1354	-3.3375	-4.0646	-3.9333	235.795	49.793	95.601	189.473	-30.285	73.623	254.571	207.814	228.829	78.209	261.405	258.962	216.808	248.362	248.164	161.090	9.2082e-05	0.00047406	0.00026862	1086.7	5.0249e-06	7.2854e-06	1263.5	372.61	1.4129e-06	2.6265e-06	447.96	118.38	80.58	28.185	7.1839e-06	36.869	0.00069623	0.0010024	0.0002874	947.64	1.0586e-05	1.1148e-05	1099.4	326.67	1.0776e-05	1.0693e-05	392.86	104.8	71.507	25.18	1.0719e-05	32.749	261.940	13.835	39.081	-57.933	103.520	48.786	-59.296	-52.702	285.316	77.744	-54.701	-49.740	-48.163	-41.473	98.596	-46.340	-8191	255	
2170.588	1	1	0	0	0.034376	0.13235	0.1117	0.28161	0.22798	0.31462	0.1384	0.33675	0.14266	0.083938	0.32202	0.009539	0.16376	0.078464	0.25991	0.18174	-2.8187	-4.3125	-3.5312	-3.8896	-4.3229	-3.55	-4.0917	-4.0813	-3.3312	-4.175	-3.7917	-3.6937	-4.3354	-3.4375	-3.8396	-4.2312	192.221	280.097	62.679	240.261	277.868	77.444	218.232	258.379	281.427	195.997	-68.731	-20.930	183.195	20.105	-43.599	211.137	0.00012269	0.00066433	6.9703e-05	1084.9	5.2894e-06	5.0617e-06	1266.1	371.64	8.7218e-06	3.0519e-06	449.14	119.47	80.936	28.433	5.5108e-06	37.412	0.00071793	0.00098245	0.00028605	947.51	1.0782e-05	1.1292e-05	1101.7	327.15	1.036e-05	1.1377e-05	393.55	105.46	72.041	25.322	1.0858e-05	33.187	282.684	13.183	-8.012	-57.925	138.239	122.162	-59.457	-52.860	85.802	27.927	-55.414	-49.722	-47.539	-42.240	61.523	-46.476	-8191	255	
2170.684	1	1	0	0	0.14415	0.071182	0.15014	0.16287	0.0852	0.085682	0.077046	0.17964	0.16768	0.07741	0.13274	0.21901	0.20356	0.14065	0.23949	0.1387	-2.8833	-4.1312	-3.6604	-3.5083	-4.2271	-3.3458	-3.9375	-4.225	-3.4792	-4.1479	-3.9333	-3.4625	-4.2312	-3.3479	-3.7188	-4.3146	121.563	-45.913	266.899	244.810	-6.247	-24.131	229.575	251.293	232.971	-37.286	267.132	253.254	144.035	181.050	211.853	21.351	9.4993e-05	0.00013928	0.00011952	1084.4	6.7632e-06	7.0805e-06	1270.6	374.64	6.2617e-06	6.463e-06	448.42	119.56	81.358	28.35	8.2748e-06	37.194	0.00072263	0.001012	0.00028959	950.09	1.0934e-05	1.1246e-05	1106.1	329.14	1.0414e-05	1.0841e-05	395.21	105.6	72.11	25.272	1.0837e-05	33.026	245.017	11.245	-5.655	-57.986	111.758	109.838	-59.490	-52.831	140.393	89.359	-55.070	-49.803	-48.039	-42.053	88.779	-46.257	-8191	255	
2170.805	1	1	0	0	0.34192	0.13982	0.18253	0.25008	0.19572	0.23309	0.3729	0.2573	0.12017	0.086917	0.12681	0.29859	0.11012	0.10448	0.13892	0.1835	-3.0271	-4.0437	-3.9437	-3.5417	-4.2042	-3.4188	-3.7938	-4.3833	-3.4604	-4.0125	-4.1125	-3.3292	-4.3	-3.5229	-3.5979	-4.2625	12.194	53.924	4.728	252.468	262.911	111.842	267.008	233.393	192.256	133.021	-65.776	194.624	-54.219	-58.069	251.125	-38.837	6.0032e-05	0.00060337	0.00010922	1087.4	2.7167e-06	4.0431e-06	1258.5	373.2	3.8081e-06	2.3786e-06	450.41	118.4	80.043	28.112	6.5813e-06	36.747	0.00071728	0.0010145	0.00028456	948.75	1.0519e-05	1.0979e-05	1101.5	327.2	1.0733e-05	1.1018e-05	393.63	104.63	71.337	25.143	1.0828e-05	32.624	260.894	29.756	18.241	-58.007	-60.970	90.658	-59.221	-52.691	172.639	42.641	-54.849	-50.304	-47.638	-41.912	104.951	-45.707	-8191	255	
2170.899	1	1	0	0	0.089266	0.22338	0.16152	0.26551	0.18983	0.12987	0.29315	0.18147	0.25607	0.037084	0.24934	0.10864	0.17968	0.094101	0.15375	0.19585	-3.1417	-3.7396	-4.0125	-3.5021	-4.1979	-3.5729	-3.575	-4.4187	-3.3708	-3.8583	-4.2562	-3.5583	-4.2396	-3.7687	-3.5229	-4.3146	160.242	39.980	120.096	253.289	251.740	54.589	195.352	235.504	190.725	261.765	136.938	-55.941	-45.019	-68.192	145.477	248.728	8.1022e-05	0.00023211	0.00017168	1090.4	3.3628e-06	7.4624e-06	1262.2	372.4	1.5264e-06	9.6033e-06	446.62	119.12	80.441	28.371	7.049e-06	36.807	0.00072173	0.00097572	0.00027977	949.65	1.0682e-05	1.1163e-05	1102	327.13	1.0792e-05	1.1471e-05	392.87	105.12	71.651	25.266	1.0628e-05	32.794	-60.570	28.909	2.872	-57.825	88.944	88.938	-59.007	-52.609	160.022	75.621	-54.901	-49.694	-48.205	-42.067	90.624	-45.904	-8191	255	
2170.995	1	1	0	0	0.11222	0.22269	0.10848	0.058929	0.15998	0.054658	0.29884	0.13529	0.29493	0.11288	0.25497	0.081437	0.13982	0.32059	0.19796	0.21542	-2.9542	-3.7438	-3.9813	-3.3479	-4.1729	-3.8833	-3.6021	-4.375	-3.4792	-3.7625	-4.2812	-3.2979	-4.1979	-3.9271	-3.4354	-4.4021	250.948	249.217	119.156	250.125	239.136	89.554	172.346	240.532	198.924	261.078	258.955	-57.688	24.785	77.814	42.543	207.005	6.3857e-05	0.0009339	0.00015206	1089.7	3.8651e-06	3.5088e-06	1266.7	374.53	2.6805e-06	2.867e-06	450.27	118.97	80.435	28.558	5.442e-06	37.567	0.00072593	0.0010426	0.00027403	950.44	1.0379e-05	1.141e-05	1105.2	328.46	1.0673e-05	1.1261e-05	395.55	105.54	71.933	25.477	1.096e-05	33.36	259.302	31.260	-9.022	-58.009	79.205	81.213	-59.597	-52.479	130.205	-5.877	-54.655	-49.706	-47.935	-41.759	125.434	-45.892	-8191	255	
2171.116	1	1	0	0	0.19554	0.22107	0.035004	0.083132	0.15755	0.14521	0.10394	0.19819	0.1546	0.12114	0.14536	0.095463	0.25031	0.08612	0.1596	0.063132	-3.1354	-3.5104	-4.0938	-3.4521	-3.9083	-4.0521	-3.3417	-4.3167	-3.4938	-3.6604	-4.2875	-3.3854	-3.8292	-4.1312	-3.2042	-4.2458	265.585	-4.315	-46.817	249.743	196.638	-41.397	264.529	259.901	185.528	-13.389	165.491	-43.664	268.137	234.475	98.510	-35.271	5.6956e-05	0.00047939	0.00023401	1090.3	6.7207e-06	6.0232e-06	1273.5	375.58	6.0646e-06	6.3316e-06	453.53	119.78	81.312	28.369	5.8629e-06	37.383	0.00071867	0.0010286	0.00028253	952.38	1.0975e-05	1.0991e-05	1109.4	330.01	1.0245e-05	1.165e-05	395.96	105.9	72.168	25.443	1.0661e-05	33.129	250.005	24.043	36.550	-57.851	102.224	94.535	-59.030	-52.440	153.121	101.397	-54.790	-50.121	-47.834	-41.811	84.322	-45.904	-8191	255	
2171.188	1	1	0	0	0.24089	0.13336	0.081638	0.31534	0.015413	0.15784	0.22937	0.33651	0.22614	0.22795	0.21432	0.18571	0.076986	0.17488	0.079234	0.31389	-3.4604	-3.4333	-4.25	-3.3875	-3.7062	-4.0167	-3.4729	-4.2479	-3.75	-3.5208	-4.5021	-3.4271	-3.7833	-4.1875	-3.2333	-4.1667	132.679	286.610	285.206	268.834	268.702	-42.578	229.808	-64.865	235.893	208.780	276.890	-67.723	122.088	34.672	135.303	186.115	0.0001416	0.00076614	0.00015485	1088.4	1.4006e-06	4.2076e-06	1262.4	373.68	6.1489e-06	4.7103e-06	449.58	118.57	80.741	28.469	3.8261e-06	36.996	0.00070738	0.0010063	0.00028326	951.13	1.065e-05	1.1449e-05	1102	328.45	1.0225e-05	1.1701e-05	394.65	105.17	71.873	25.294	1.0631e-05	33.078	253.973	36.339	4.848	-57.961	236.791	70.034	-59.309	-52.495	125.624	48.581	-54.793	-49.414	-47.988	-41.538	150.231	-45.809	-8191	255	
2171.284	1	1	0	0	0.17348	0.24575	0.21516	0.44722	0.10762	0.16685	0.03774	0.15756	0.22237	0.090878	0.054666	0.13127	0.20156	0.10365	0.068962	0.16467	-3.4479	-3.3542	-4.1333	-3.5792	-3.5854	-4.0396	-3.4146	-4.3187	-3.8917	-3.3917	-4.3875	-3.5792	-3.5854	-4.0938	-3.2958	-4.0208	55.108	-15.607	69.053	194.740	184.102	25.572	-11.242	210.590	274.415	-65.876	67.862	238.061	75.014	19.969	205.530	-34.124	9.9144e-05	0.00047251	0.00011238	1083	5.4347e-06	4.3243e-06	1272.7	376.19	2.4268e-06	6.9896e-06	452.59	118.67	81.327	28.627	5.3974e-06	37.39	0.00071093	0.0010106	0.00028563	949.66	1.0923e-05	1.0951e-05	1107.1	329.82	1.0342e-05	1.1285e-05	396.46	105.65	72.51	25.469	1.0763e-05	33.303	235.493	22.102	-28.864	-57.942	76.672	144.386	-59.414	-52.261	289.258	75.392	-54.672	-49.843	-48.235	-41.937	88.619	-45.740	-8191	255	
2171.380	1	1	0	0	0.15103	0.080857	0.035617	0.18544	0.1168	0.046089	0.26643	0.10603	0.16463	0.03435	0.17311	0.14319	0.18039	0.15576	0.24398	0.19251	-3.5771	-3.2188	-4.1792	-3.6646	-3.4896	-4.1937	-3.6813	-4.2083	-3.9375	-3.2958	-4.3896	-3.775	-3.5854	-4.2875	-3.5312	-3.9875	116.536	188.582	178.351	245.210	198.210	9.443	235.768	215.253	53.216	181.553	235.164	-52.490	215.361	241.094	60.627	276.827	0.00011694	7.9852e-05	0.0002362	1094.9	4.4482e-06	2.8774e-06	1263.5	374.86	6.0602e-06	3.9679e-06	454.33	120.43	81.151	28.717	5.425e-06	37.554	0.00070587	0.0010278	0.00028701	949.4	1.1024e-05	1.1169e-05	1106.9	329.9	1.0559e-05	1.1396e-05	398.4	106.57	72.581	25.566	1.0815e-05	33.547	268.056	-51.428	-20.898	-57.784	110.532	146.853	-58.994	-52.393	49.463	39.878	-54.869	-49.877	-47.603	-42.194	66.214	-45.716	-8191	255	
2171.501	1	1	0	0	0.12666	0.095947	0.0858	0.14447	0.26528	0.091363	0.36217	0.27527	0.1496	0.12983	0.12903	0.12715	0.13641	0.28256	0.11758	0.15592	-3.6375	-3.2333	-4.2896	-3.8396	-3.3396	-4.2792	-3.65	-3.8458	-4.1188	-3.2917	-4.2625	-3.9979	-3.3146	-4.3458	-3.5521	-3.6604	-14.757	233.896	-18.866	216.840	167.569	82.995	242.688	-44.504	283.356	202.983	-34.976	-52.484	173.531	-70.380	53.648	45.783	0.00012149	0.00027173	8.0796e-05	1090.5	8.9839e-06	2.6037e-06	1276.1	377.98	2.8936e-06	2.8579e-06	454.69	119.71	81.285	28.358	4.1905e-06	37.459	0.00072253	0.0010159	0.00029231	950.01	1.1215e-05	1.0965e-05	1114	330.63	1.032e-05	1.1538e-05	399.14	106.12	72.229	25.35	1.0951e-05	33.301	280.325	-52.494	75.145	-58.081	74.643	56.704	-59.279	-52.628	153.663	40.864	-54.859	-49.706	-47.979	-41.819	144.780	-46.200	-8191	255	
2171.597	1	1	0	0	0.070501	0.10171	0.23171	0.24524	0.20399	0.11722	0.35247	0.08913	0.057801	0.12725	0.25706	0.038366	0.08656	0.078414	0.23674	0.19351	-3.8021	-3.2146	-4.0563	-4.0458	-3.3937	-4.4208	-3.6542	-3.7479	-4.0729	-3.2271	-4.1771	-4.0312	-3.2104	-4.3521	-3.6562	-3.4646	219.354	-11.127	253.824	207.033	-31.476	190.403	232.706	225.307	186.607	17.201	230.726	-60.611	252.558	-19.315	128.822	182.930	8.6237e-05	0.0008348	0.00021718	1085.3	4.1556e-06	5.2322e-06	1271.8	373.8	3.618e-06	9.0373e-06	451.26	118.94	81.213	28.635	5.0018e-06	37.147	0.00071473	0.0010518	0.00029058	950.7	1.0848e-05	1.1523e-05	1108.4	328.94	1.032e-05	1.1742e-05	397.05	105.62	72.169	25.427	1.0689e-05	33.176	246.587	1.577	3.475	-58.149	42.291	50.830	-59.093	-52.435	127.895	49.812	-54.691	-50.048	-48.013	-41.739	56.364	-46.134	-8191	255	
2171.693	1	1	0	0	0.1472	0.12934	0.35126	0.12162	0.17588	0.097457	0.1728	0.030622	0.14712	0.21436	0.041303	0.013377	0.16887	0.31635	0.19889	0.20157	-3.8083	-3.2042	-3.8083	-4.1208	-3.2021	-4.0437	-3.7708	-3.4688	-4.2	-3.3937	-3.9	-4.1021	-3.0854	-4.1583	-3.5187	-3.4437	107.523	143.366	241.128	283.940	272.365	259.047	229.240	171.258	25.358	283.153	-56.456	144.555	159.397	-54.334	126.998	196.399	0.0001165	0.00080737	6.4353e-05	1084.2	4.4221e-06	3.5529e-06	1270.4	375.82	5.6099e-07	5.5617e-06	454.3	119.8	81.469	28.457	4.3738e-06	37.637	0.00070834	0.0010243	0.00028483	949.81	1.1222e-05	1.1502e-05	1106.9	329.93	1.0739e-05	1.1968e-05	398.58	106.28	72.496	25.393	1.1188e-05	33.428	273.582	18.102	40.296	-57.922	104.450	146.008	-59.120	-52.465	23.728	37.588	-54.726	-49.748	-47.899	-41.734	71.421	-45.598	-8191	255	
2171.765	1	1	0	0	0.10071	0.12242	0.2181	0.30256	0.17692	0.041651	0.37741	0.10833	0.081141	0.16253	0.028022	0.23149	0.16496	0.24377	0.18647	0.21108	-3.975	-3.3083	-3.7271	-4.275	-3.1833	-4.0917	-3.8542	-3.5146	-4.2167	-3.3021	-3.5729	-4.2375	-3.1917	-4.1208	-3.9521	-3.4208	271.202	183.788	14.942	241.872	234.858	237.383	159.741	150.664	27.502	120.824	188.118	192.332	263.818	229.884	-17.908	258.421	9.8495e-05	0.00023856	0.00017117	1089.4	7.2407e-06	3.1204e-06	1270.5	375.62	4.4611e-06	7.8676e-06	454.91	120.44	81.69	28.882	2.264e-06	37.715	0.00073326	0.0010236	0.0002963	952.32	1.0839e-05	1.1525e-05	1109.7	330.22	1.0743e-05	1.1943e-05	399.66	107.09	72.748	25.614	1.1174e-05	33.601	256.143	37.958	-4.152	-57.887	91.848	63.369	-59.352	-52.744	176.630	106.041	-54.783	-49.758	-47.906	-41.730	134.869	-45.600	-8191	255	
2171.885	1	1	0	0	0.1788	0.10278	0.1966	0.22026	0.29958	0.087176	0.05505	0.10023	0.073051	0.14341	0.42664	0.033013	0.082978	0.1458	0.074486	0.073947	-3.7687	-3.4625	-3.5479	-4.2229	-3.2812	-3.9896	-4.1333	-3.4229	-4.0687	-3.6229	-3.7188	-4.2958	-3.4062	-3.8021	-3.9396	-3.3063	115.564	161.170	-51.422	230.256	-58.878	118.491	-30.183	196.069	162.857	67.262	286.662	42.129	20.590	215.369	109.224	132.770	8.5881e-05	0.00055258	0.00016831	1092.5	2.1455e-06	2.6511e-06	1273.4	375.51	3.8425e-06	7.099e-06	452.23	120.09	81.052	28.173	5.8796e-06	37.417	0.00073032	0.0010342	0.00030163	953.49	1.114e-05	1.1196e-05	1111.8	329.59	1.1115e-05	1.1295e-05	397.77	106.23	72.387	25.293	1.0997e-05	33.124	243.322	4.310	10.532	-57.948	120.434	88.822	-59.000	-52.406	127.773	78.587	-55.025	-49.900	-48.187	-42.087	136.458	-45.876	-8191	255	
2171.980	1	1	0	0	0.11109	0.22038	0.12189	0.091957	0.23647	0.30504	0.18227	0.014527	0.19098	0.12506	0.15874	0.16367	0.17517	0.1355	0.067207	0.22077	-3.7438	-3.4813	-3.4458	-4.3896	-3.3021	-3.7479	-4.25	-3.4208	-4.0188	-3.7708	-3.4021	-4.2333	-3.4437	-3.8187	-4.1104	-3.4229	139.639	171.474	211.883	170.149	121.863	27.704	216.090	68.271	145.481	11.874	184.376	256.287	154.460	254.926	75.115	203.335	8.0815e-05	0.00041755	5.3764e-05	1084	1.9063e-06	7.0971e-06	1264.5	374.24	2.1835e-06	6.4215e-06	454.07	119.43	80.417	28.434	8.5656e-06	37.124	0.00072004	0.0010076	0.00028731	951.2	1.0852e-05	1.1276e-05	1106.4	328.38	1.0659e-05	1.1364e-05	397.56	106.26	71.608	25.303	1.1028e-05	33.016	243.462	-12.778	66.151	-57.799	109.137	90.619	-59.391	-52.468	159.207	74.518	-55.087	-49.879	-47.917	-42.209	118.054	-45.886	-8191	255	
2172.078	1	1	0	0	0.08442	0.26985	0.13754	0.19022	0.19826	0.22169	0.021065	0.17266	0.05587	0.15195	0.32103	0.16111	0.21744	0.057627	0.11786	0.09756	-3.7417	-3.7167	-3.3167	-4.25	-3.3417	-3.5667	-4.3292	-3.3812	-4.0833	-3.8354	-3.4021	-4.1896	-3.5812	-3.6125	-4.3167	-3.2083	3.471	89.315	69.622	246.317	253.321	3.101	-70.391	275.611	82.317	272.321	213.307	-34.244	230.588	-13.140	137.756	-22.593	9.321e-05	0.0003146	0.00011265	1078.7	2.0909e-06	3.7142e-06	1274	373.54	4.7263e-06	3.7355e-06	452.97	119.51	80.914	28.677	1.027e-06	37.705	0.00072357	0.0010044	0.0002922	951.51	1.0951e-05	1.1612e-05	1111.9	329.05	1.0786e-05	1.1618e-05	398.77	106.6	71.972	25.491	1.1023e-05	33.525	-69.641	14.390	4.471	-57.895	144.654	104.881	-59.042	-52.436	82.190	50.246	-54.711	-49.340	-47.676	-41.763	117.458	-45.962	-8191	255	
2172.196	1	1	0	0	0.10378	0.074443	0.19125	0.23711	0.23737	0.12429	0.13282	0.12742	0.060694	0.065902	0.27492	0.40469	0.064852	0.21166	0.01119	0.17567	-3.6083	-3.8021	-3.3042	-4.4021	-3.4688	-3.5021	-4.3917	-3.625	-3.8667	-3.9313	-3.3521	-4.3208	-3.6063	-3.4667	-4.1896	-3.4875	-67.691	286.212	-63.785	-57.544	218.062	132.623	210.535	112.104	28.728	-23.718	226.080	243.438	200.806	245.081	70.702	256.589	8.8779e-05	0.00076697	0.00014257	1094.9	5.105e-06	6.6261e-06	1283.4	376.67	2.256e-06	4.2217e-06	457.79	121.52	81.571	28.518	3.8612e-06	37.712	0.00072118	0.0010343	0.00028985	955.41	1.1207e-05	1.1649e-05	1118.1	330.81	1.1069e-05	1.2048e-05	401.98	107.61	72.513	25.507	1.0941e-05	33.532	272.210	-2.705	-2.369	-58.033	76.385	84.200	-59.190	-52.467	80.762	101.693	-54.676	-49.651	-47.756	-42.085	72.142	-45.551	-8191	255	
2172.293	1	1	0	0	0.29041	0.15837	0.19567	0.071872	0.11103	0.24165	0.28126	0.23972	0.046821	0.33374	0.16758	0.10482	0.10679	0.20503	0.020183	0.089519	-3.5333	-3.9437	-3.4188	-4.2604	-3.7979	-3.3708	-4.2521	-3.6396	-3.5417	-4.1833	-3.4188	-4.0167	-3.8729	-3.4479	-4.2812	-3.5729	27.499	52.735	3.524	201.499	201.314	10.243	212.223	250.009	132.934	65.558	-57.807	-62.311	157.273	7.792	74.016	221.830	0.00010918	0.00034787	8.2329e-05	1097.4	2.7153e-06	7.3611e-06	1281.2	375.28	1.087e-06	2.6482e-06	456.31	119.24	81.573	28.238	1.4924e-06	36.992	0.00072328	0.0010624	0.00029143	956.82	1.1236e-05	1.1925e-05	1118.3	329.4	1.0798e-05	1.1376e-05	399.63	106.34	72.325	25.221	1.107e-05	33	262.591	39.366	44.527	-57.686	78.278	43.050	-59.654	-52.779	137.211	91.335	-55.078	-49.489	-47.753	-41.924	197.491	-45.825	-8191	255	
2172.389	1	1	0	0	0.14951	0.054288	0.26205	0.0082682	0.184	0.2294	0.0026036	0.30239	0.10884	0.12622	0.044836	0.29177	0.16019	0.2815	0.13899	0.2866	-3.3104	-4.1354	-3.2583	-4.125	-4.0604	-3.3312	-4.4062	-3.8208	-3.425	-4.2458	-3.4208	-3.8354	-3.8333	-3.3771	-3.9625	-3.5042	136.862	123.411	271.653	96.521	-43.769	230.384	266.415	219.898	177.845	72.333	64.495	254.152	130.249	188.468	161.317	177.398	0.00012962	0.00034335	0.00013335	1092.9	4.7494e-06	5.1177e-06	1275.5	375.08	1.3291e-06	1.051e-05	454.63	119.67	80.633	28.4	1.1229e-07	37.304	0.00074641	0.0009993	0.0003077	954.73	1.1187e-05	1.1458e-05	1113.9	328.53	1.1256e-05	1.1359e-05	398.15	106.64	71.891	25.309	1.0794e-05	33.207	250.791	62.965	18.203	-58.011	137.869	81.967	-59.108	-53.043	46.471	49.997	-54.994	-49.844	-47.895	-41.816	253.624	-45.432	-8191	255	
2172.485	1	1	0	0	0.12134	0.15504	0.16469	0.44577	0.18521	0.18167	0.34548	0.25942	0.19865	0.2462	0.13584	0.38227	0.083664	0.15562	0.15672	0.10259	-3.1229	-4.1854	-3.325	-3.9083	-4.0062	-3.2125	-4.3042	-3.7542	-3.3271	-4.3042	-3.3563	-3.7104	-4.0917	-3.2604	-3.9583	-3.8208	221.539	96.143	-8.763	255.400	252.455	268.718	209.111	204.016	185.490	228.745	217.252	-68.671	52.569	239.117	141.324	178.944	0.00012133	0.00055018	0.00013275	1091.7	4.8044e-06	6.238e-06	1281.7	375.85	1.6101e-06	8.8435e-06	456.69	120.28	80.816	28.611	3.2906e-06	37.726	0.00074988	0.0010569	0.00030405	955.57	1.11e-05	1.1638e-05	1121.2	329.58	1.0903e-05	1.1938e-05	400.21	107.32	72.33	25.453	1.1225e-05	33.495	285.809	-18.065	33.595	-58.195	96.936	91.582	-59.085	-52.630	218.262	52.296	-54.548	-49.062	-47.603	-41.631	137.762	-45.694	-8191	255	
2172.581	1	1	0	0	0.16446	0.094535	0.03156	0.14028	0.076016	0.15037	0.14043	0.17407	0.22354	0.27974	0.036281	0.12073	0.16709	0.21342	0.045064	0.15537	-2.9938	-4.1625	-3.4375	-3.7417	-4.1854	-3.1729	-4.3479	-3.9292	-3.4188	-4.25	-3.5	-3.6167	-4.1646	-3.4417	-3.9083	-3.9271	265.055	-3.484	276.885	210.838	-44.566	-8.062	209.251	263.756	205.596	117.993	147.806	232.336	272.633	-59.235	59.762	-63.952	8.3845e-05	0.00018637	4.7903e-05	1104.6	3.4151e-06	6.0438e-06	1288.8	375.13	6.2744e-06	3.647e-06	457.73	121.05	81.543	28.709	1.208e-06	37.652	0.00075315	0.0010605	0.00029175	961.05	1.1414e-05	1.1661e-05	1124.8	330.45	1.1265e-05	1.1859e-05	402.38	107.62	72.459	25.479	1.1305e-05	33.348	232.606	48.002	139.948	-57.662	148.080	93.577	-58.857	-52.734	113.964	49.021	-54.575	-49.516	-47.765	-41.601	140.547	-45.700	-8191	255	
2172.677	1	1	0	0	0.23103	0.14446	0.07486	0.1309	0.20507	0.37208	0.052846	0.1277	0.2312	0.19634	0.16881	0.15347	0.15806	0.22904	0.25457	0.28817	-2.8937	-4.1458	-3.2854	-3.6562	-4.0979	-3.3187	-4.0521	-4.125	-3.3563	-4.1604	-3.7167	-3.6417	-4.1438	-3.2042	-3.7896	-3.9979	223.455	107.151	242.827	267.848	99.112	274.089	176.735	273.004	24.372	24.333	231.867	196.302	246.197	249.146	1.994	283.385	6.7117e-05	0.00070739	0.00020094	1105.2	6.7873e-06	6.7613e-06	1284.5	376.22	4.5265e-06	3.9793e-06	455.33	119.93	80.448	28.133	6.2184e-06	37.195	0.00076939	0.0010684	0.00029951	961.75	1.1215e-05	1.1641e-05	1120.4	329.49	1.0882e-05	1.1723e-05	399.11	106.54	71.965	25.101	1.1079e-05	33.018	262.047	-12.191	27.980	-57.880	131.063	93.849	-59.190	-52.512	152.405	55.589	-54.821	-49.503	-48.032	-41.903	87.880	-46.294	-8191	255	
2172.798	1	1	0	0	0.24109	0.096368	0.12365	0.30735	0.15374	0.16062	0.10738	0.25712	0.063126	0.23033	0.15681	0.25399	0.06633	0.24131	0.062411	0.20736	-2.7938	-4.1188	-3.7687	-3.5042	-4.2792	-3.4146	-3.8833	-4.4021	-3.1292	-4.0146	-3.9167	-3.5521	-4.3063	-3.5417	-3.775	-4.1312	-62.980	40.679	187.051	222.728	53.537	-2.178	-68.261	216.736	30.588	-24.824	-68.568	217.592	-60.644	4.370	152.393	201.045	8.0552e-05	0.00062853	0.00013184	1087.8	3.6438e-06	2.0807e-06	1287.3	377.46	2.4813e-06	7.1041e-06	458.25	121.85	80.969	28.462	2.0817e-06	37.71	0.00076366	0.0010612	0.00029074	955.26	1.1201e-05	1.203e-05	1122.8	330.37	1.1349e-05	1.1542e-05	401.71	107.78	72.542	25.368	1.1228e-05	33.455	266.491	41.293	33.929	-57.780	100.597	145.262	-59.224	-52.739	29.059	80.473	-54.935	-49.763	-47.316	-41.801	81.114	-46.005	-8191	255	
2172.892	1	1	0	0	0.052574	0.088507	0.11652	0.2957	0.13011	0.25665	0.39863	0.08016	0.050597	0.18287	0.18237	0.063769	0.17487	0.16768	0.28189	0.18669	-2.8771	-3.9146	-3.9	-3.4854	-4.0979	-3.4854	-3.8646	-4.2562	-3.2042	-3.9208	-4.1646	-3.2708	-4.1562	-3.6354	-3.5917	-4.3583	275.007	84.520	-29.066	263.331	184.844	228.856	216.277	255.199	217.606	-21.730	-48.279	271.128	205.178	-70.262	132.763	160.025	9.9981e-05	0.00033555	0.00010445	1100.2	2.9112e-06	6.191e-06	1299.9	380.19	3.2092e-06	7.3228e-06	461.24	123.41	82.444	28.901	3.1105e-06	37.969	0.00072951	0.0010555	0.00028676	960.92	1.1009e-05	1.139e-05	1133.5	333.93	1.0858e-05	1.2018e-05	405.62	109.41	73.476	25.741	1.084e-05	33.828	276.348	28.940	16.451	-57.725	69.187	49.403	-58.914	-52.346	105.245	94.528	-54.880	-49.284	-47.632	-41.847	108.692	-46.010	-8191	255	
2172.988	1	1	0	0	0.14281	0.084864	0.10604	0.14684	0.023899	0.073827	0.14805	0.11426	0.053157	0.17438	0.067369	0.11597	0.13867	0.23137	0.1315	0.27858	-3.0312	-3.8417	-3.8646	-3.3229	-4.1271	-3.6917	-3.625	-4.3417	-3.35	-3.8229	-4.0208	-3.4229	-4.1979	-3.8146	-3.2417	-4.3812	272.165	197.822	22.616	118.410	55.018	95.262	277.455	131.169	140.008	216.126	285.508	251.180	178.300	-62.342	142.237	214.087	7.5394e-05	0.00092504	0.0001374	1102.5	4.1166e-06	7.0578e-06	1309.7	382.88	2.5837e-06	1.0071e-05	469.27	123.92	82.823	28.71	1.9478e-06	37.707	0.00074088	0.0010097	0.00028457	967.89	1.0678e-05	1.1518e-05	1140.8	336.25	1.0706e-05	1.1408e-05	409.88	109.8	73.526	25.636	1.0719e-05	33.582	240.842	3.514	57.042	-58.087	79.494	110.806	-58.964	-52.639	260.633	92.137	-54.712	-49.441	-48.007	-42.111	113.688	-45.877	-8191	255	
2173.060	1	1	0	0	0.22657	0.034818	0.17715	0.18073	0.078085	0.15126	0.14252	0.32982	0.24676	0.1569	0.19271	0.12474	0.36058	0.36668	0.14582	0.12475	-3.15	-3.7062	-3.9792	-3.3312	-4.075	-3.8063	-3.6167	-4.4229	-3.3812	-3.6625	-4.1271	-3.3771	-3.9479	-3.9437	-3.1875	-4.3542	112.704	236.398	1.146	-54.110	135.749	34.928	229.338	233.503	262.232	-31.371	215.892	229.083	231.781	-62.994	94.240	54.611	0.00010225	0.00061947	0.00010379	1103.3	7.2873e-06	5.2499e-06	1300.1	380.89	3.2809e-06	8.8459e-06	461.63	122.67	82.241	28.511	4.1189e-06	37.433	0.00072945	0.0010444	0.00028256	969.65	1.1155e-05	1.1272e-05	1135	333.64	1.0737e-05	1.1595e-05	406.64	108.49	73.218	25.351	1.0334e-05	33.21	240.200	19.881	71.846	-58.110	119.327	165.348	-59.109	-52.492	69.227	72.517	-54.624	-49.941	-47.791	-41.978	113.719	-45.949	-8191	255	
2173.181	1	1	0	0	0.066423	0.15974	0.10972	0.24727	0.042494	0.1147	0.32789	0.1413	0.10198	0.16243	0.33269	0.1796	0.10596	0.16373	0.27129	0.11768	-3.1875	-3.5042	-4.0979	-3.4083	-3.8604	-3.925	-3.375	-4.2771	-3.5875	-3.3708	-4.2542	-3.2417	-3.9417	-3.9521	-3.3042	-4.0563	11.333	-31.882	-62.776	252.139	-32.678	186.082	242.420	214.292	73.220	-11.269	281.864	-44.213	78.130	282.036	277.848	20.693	6.4556e-05	0.00070254	3.403e-05	1104.1	3.6805e-06	5.4143e-06	1309.7	379.96	2.0303e-06	2.7519e-06	463.69	122.32	81.924	28.441	8.2016e-06	37.591	0.00071493	0.001043	0.00028279	966.94	1.0723e-05	1.1018e-05	1141.1	334.15	1.0686e-05	1.1592e-05	407.76	108.17	72.866	25.342	1.0885e-05	33.335	263.491	18.519	97.053	-57.667	124.752	111.886	-59.238	-52.622	107.066	27.945	-54.717	-49.450	-47.858	-42.210	105.608	-45.603	-8191	255	
2173.277	1	1	0	0	0.23584	0.25304	0.13415	0.17905	0.17796	0.18988	0.11454	0.28631	0.2394	0.047016	0.069359	0.29168	0.11557	0.13175	0.098978	0.19887	-3.3083	-3.3979	-4.2333	-3.5375	-3.9125	-3.9854	-3.3312	-4.4521	-3.5563	-3.4188	-4.3542	-3.4458	-3.7313	-4.1104	-3.1958	-4.1417	161.266	69.917	258.650	258.858	-7.609	117.319	288.304	244.355	-5.100	162.586	2.457	11.921	160.766	-62.281	278.723	-43.963	0.00012213	0.00085228	3.5831e-05	1121.1	5.9953e-06	8.8722e-06	1310.3	383.27	3.633e-06	6.8575e-06	469	123.06	82.714	28.567	3.4313e-06	37.872	0.00070593	0.0010097	0.00028936	975.54	1.036e-05	1.1209e-05	1144.7	336.41	1.0657e-05	1.1417e-05	411.38	109.52	73.458	25.473	1.1083e-05	33.654	265.058	30.354	-4.356	-58.168	86.187	110.157	-59.179	-52.624	86.654	95.384	-54.723	-49.560	-47.462	-41.782	127.431	-45.803	-8191	255	
2173.373	1	1	0	0	0.030152	0.093579	0.14593	0.27189	0.097799	0.1888	0.34362	0.17122	0.12472	0.10489	0.064525	0.26074	0.27018	0.20752	0.24461	0.13824	-3.5375	-3.3333	-4.2625	-3.5187	-3.7229	-4.0188	-3.3854	-4.1083	-3.85	-3.1292	-4.3083	-3.5312	-3.5917	-4.1917	-3.2333	-3.9167	57.785	15.989	-60.145	268.828	-26.420	210.641	152.592	-57.695	5.924	103.166	283.106	-32.045	-63.593	69.160	-46.429	125.040	0.00010489	0.00076451	0.0002294	1113.3	6.2475e-06	5.7679e-06	1318.9	382.58	2.4148e-06	9.368e-06	468.19	122.7	82.716	28.558	2.8106e-06	37.302	0.00073071	0.0010402	0.00028901	974.77	1.0799e-05	1.1165e-05	1152.9	337	1.0912e-05	1.1866e-05	412.13	109.19	73.572	25.397	1.1085e-05	33.297	267.739	1.039	45.728	-58.043	44.330	94.822	-59.140	-52.753	80.428	54.156	-54.677	-49.398	-47.578	-41.901	63.305	-45.866	-8191	255	
2173.469	1	1	0	0	0.24011	0.27505	0.20479	0.1107	0.077015	0.046672	0.16262	0.39065	0.20964	0.064592	0.13997	0.16049	0.20931	0.25061	0.029208	0.07579	-3.5312	-3.3375	-4.1479	-3.7375	-3.4688	-4.3167	-3.5042	-4.0396	-3.9708	-3.2625	-4.3104	-3.7583	-3.5042	-4.2271	-3.4708	-3.8417	200.487	94.559	282.998	221.199	210.691	192.606	192.002	197.665	251.164	284.328	-24.957	169.629	222.444	25.849	98.006	54.395	9.4205e-05	0.00033904	0.00025105	1112.4	3.8438e-06	8.5891e-06	1316.6	381.66	5.2243e-07	3.1755e-06	467.35	122.3	82.42	28.402	5.1714e-06	37.534	0.00070746	0.0010343	0.00029012	974.37	1.0903e-05	1.1293e-05	1147.7	336.22	1.0566e-05	1.1507e-05	411.68	108.57	73.288	25.307	1.121e-05	33.364	253.601	46.702	17.943	-57.881	47.114	129.060	-59.370	-52.308	59.292	91.032	-54.656	-49.672	-47.256	-41.717	70.867	-45.476	-8191	255	
2173.565	1	1	0	0	0.17663	0.10331	0.074019	0.26478	0.070791	0.09677	0.19589	0.3868	0.13753	0.2067	0.074754	0.17997	0.067197	0.17453	0.15782	0.08643	-3.6958	-3.0187	-4.0042	-3.6708	-3.4542	-4.1438	-3.6562	-3.9354	-4.1813	-3.3521	-4.1958	-4.0521	-3.5396	-4.3354	-3.4292	-3.6583	146.134	233.655	289.030	223.328	27.672	76.385	239.089	246.070	107.740	266.695	173.114	99.118	19.444	224.223	186.520	127.140	0.00014484	0.00046112	6.1318e-05	1107	3.6821e-06	5.0693e-06	1321.5	384.68	5.3158e-06	6.1886e-06	469.69	123.27	82.402	28.541	4.2941e-06	37.803	0.000734	0.0010695	0.00028546	973.61	1.1344e-05	1.1469e-05	1151.8	338.2	1.0695e-05	1.184e-05	413.29	109.32	73.502	25.411	1.1013e-05	33.516	245.380	35.901	11.895	-58.040	62.024	95.377	-59.038	-52.511	90.227	93.055	-54.752	-49.823	-47.478	-42.253	138.607	-45.858	-8191	255	
2173.661	1	1	0	0	0.15259	0.1831	0.22339	0.13608	0.22508	0.15364	0.11309	0.1067	0.066948	0.12532	0.13613	0.12108	0.24566	0.21334	0.12691	0.20862	-3.7625	-3.35	-4.0062	-4.1521	-3.2042	-4.1604	-3.725	-3.8125	-4.2292	-3.3458	-4.1438	-4.0125	-3.1188	-4.3125	-3.65	-3.5958	118.922	132.338	212.210	247.870	24.627	126.975	269.504	219.172	128.555	96.273	177.562	288.662	-46.944	-47.880	-27.734	188.993	0.00010535	0.00051423	0.0001227	1116	4.0851e-06	7.7413e-06	1320.1	385.64	4.8119e-06	4.4208e-06	472.62	123.78	83.011	28.663	4.7287e-07	37.882	0.00074047	0.0010552	0.00029504	977.6	1.1281e-05	1.1838e-05	1156.3	338.5	1.1443e-05	1.195e-05	415.71	109.85	73.576	25.501	1.1173e-05	33.751	248.661	18.155	23.659	-57.988	136.783	110.143	-59.096	-52.660	191.852	53.368	-54.715	-49.584	-47.598	-41.780	-68.143	-45.833	-8191	255	
2173.758	1	1	0	0	0.060678	0.14618	0.088142	0.16455	0.079751	0.15177	0.19188	0.062884	0.11172	0.16027	0.26043	0.18072	0.29056	0.10335	0.18175	0.041822	-3.95	-3.2542	-3.8438	-4.1729	-3.2292	-4.0896	-3.8646	-3.5792	-4.3438	-3.5354	-3.8354	-4.2917	-3.325	-4.1375	-3.7438	-3.5563	264.047	210.625	183.264	163.679	164.712	162.541	255.007	188.931	-36.035	134.437	-58.277	267.220	-24.046	274.541	-8.536	23.257	0.0001048	0.00065549	0.00013945	1117.7	9.6383e-06	8.2483e-06	1316.4	384.88	5.0127e-06	1.6541e-06	470.51	122.56	81.29	28.315	1.8548e-06	37.315	0.00075217	0.0010833	0.00029557	978.72	1.1728e-05	1.1643e-05	1157.6	337.61	1.114e-05	1.2422e-05	413.34	109.23	72.961	25.312	1.1131e-05	33.148	245.309	2.866	-11.418	-57.972	107.312	55.510	-59.119	-52.373	91.664	42.668	-54.594	-49.615	-47.588	-41.568	161.415	-45.661	-8191	255	
2173.878	1	1	0	0	0.049322	0.14152	0.12929	0.33286	0.2655	0.21573	0.2253	0.099334	0.11212	0.13077	0.083909	0.18821	0.2671	0.29268	0.14197	0.12967	-3.9583	-3.2854	-3.8354	-4.2021	-3.2417	-3.9521	-4.1167	-3.4792	-4.2875	-3.4479	-3.7396	-4.3521	-3.3271	-4.0312	-3.8604	-3.3125	-16.455	259.409	43.817	198.053	85.051	218.387	196.021	88.225	48.770	131.504	237.729	171.282	-42.726	190.867	-14.209	191.820	6.1177e-05	0.00052274	0.00023489	1115.4	3.5505e-06	6.4885e-06	1315.3	382.5	1.3758e-06	7.4523e-06	465.91	122.64	82.282	28.254	5.04e-06	37.202	0.00074371	0.0010915	0.00029783	976.51	1.1475e-05	1.1771e-05	1152.1	335.77	1.1006e-05	1.1952e-05	410.88	108.61	73.115	25.275	1.1321e-05	33.252	251.181	-5.676	53.975	-58.012	60.122	83.506	-59.271	-52.474	69.045	71.541	-54.833	-49.195	-47.734	-41.507	84.567	-45.869	-8191	255	
2173.973	1	1	0	0	0.019847	0.028214	0.17328	0.099608	0.16405	0.17514	0.2346	0.15361	0.17951	0.18402	0.16843	0.24087	0.1167	0.29333	0.14873	0.29305	-3.8438	-3.4708	-3.3063	-4.2438	-3.2375	-3.9333	-4.1708	-3.5083	-4.1479	-3.675	-3.5563	-4.2896	-3.35	-3.9458	-4.0062	-3.2438	24.326	281.874	35.573	193.166	201.138	56.014	219.043	257.826	185.770	66.543	264.783	-58.292	121.095	258.959	270.985	-65.926	8.5572e-05	0.00067907	0.00019355	1117	5.3322e-06	9.1555e-07	1317.4	384.27	5.2486e-06	7.5866e-06	470.78	123.41	82.434	28.64	2.8206e-06	37.834	0.0007576	0.001091	0.00029839	975.99	1.1361e-05	1.1725e-05	1151.3	336.98	1.1328e-05	1.219e-05	412.32	109.33	73.107	25.438	1.1207e-05	33.589	266.076	26.274	18.392	-57.582	98.358	91.447	-59.182	-52.321	122.566	51.611	-54.513	-49.688	-47.603	-41.670	65.427	-45.346	-8191	255	
2174.069	1	1	0	0	0.039239	0.19051	0.19465	0.15088	0.2562	0.11745	0.26606	0.20756	0.10881	0.15562	0.13617	0.11515	0.061128	0.16637	0.24807	0.035431	-3.7896	-3.5521	-3.5375	-4.4646	-3.3688	-3.8063	-4.1896	-3.475	-4.1396	-3.7479	-3.4583	-4.1458	-3.3396	-3.7333	-4.1708	-3.5062	41.382	-30.888	240.809	259.890	245.377	110.125	238.885	-59.087	57.528	189.039	175.209	232.962	178.267	-60.833	-19.871	71.081	0.00010317	0.00078415	2.5613e-05	1108.9	3.0287e-06	1.4532e-06	1325.1	384.32	4.0848e-06	4.9064e-06	472.4	123.62	82.311	28.654	5.2064e-06	38.081	0.00075804	0.0010929	0.00031239	976.25	1.1389e-05	1.2465e-05	1156.4	337.66	1.1498e-05	1.1952e-05	415.11	110.18	73.368	25.552	1.1683e-05	33.867	222.453	51.354	153.037	-57.735	143.517	111.945	-58.941	-52.715	116.427	26.264	-55.104	-50.368	-48.840	-42.464	89.579	-46.497	-8191	255	
2174.165	1	1	0	0	0.061813	0.083945	0.20133	0.10508	0.25016	0.09116	0.081733	0.21483	0.23066	0.04678	0.12455	0.14919	0.11877	0.24259	0.22094	0.32341	-3.7271	-3.8	-3.2583	-4.3208	-3.425	-3.5854	-4.2479	-3.4646	-3.8521	-3.7687	-3.4083	-4.3104	-3.6042	-3.6146	-4.1396	-3.5042	121.019	-20.407	99.161	163.922	13.029	162.115	27.600	280.610	215.007	128.577	259.095	202.432	13.015	275.014	-12.858	232.239	0.00014311	0.00051967	0.00013278	1109.1	2.9593e-06	3.1778e-06	1316.6	382.82	9.4178e-07	3.5362e-06	468.28	122.4	81.821	28.286	4.942e-06	37.29	0.00075347	0.0010946	0.00030643	971.5	1.1678e-05	1.1803e-05	1150.1	336.97	1.1452e-05	1.2281e-05	411.99	108.68	72.875	25.302	1.1472e-05	33.277	262.271	74.803	6.617	-58.758	92.956	117.192	-59.710	-53.445	74.941	116.137	-55.478	-50.194	-48.831	-42.318	89.810	-46.458	-8191	255	
2174.285	1	1	0	0	0.079973	0.18748	0.10932	0.082261	0.15314	0.080529	0.1094	0.17238	0.21164	0.17325	0.12702	0.069441	0.083054	0.15887	0.045509	0.37584	-3.6333	-3.95	-3.3688	-4.1333	-3.6521	-3.5687	-4.4354	-3.6312	-3.9292	-4.0729	-3.4292	-3.9625	-3.6458	-3.5708	-4.2792	-3.4688	196.485	171.195	159.346	271.837	128.143	229.147	165.578	233.954	160.819	197.593	192.488	219.743	-59.785	137.748	-1.335	178.213	8.4786e-05	0.00068338	3.9074e-05	1113.3	5.978e-06	3.2011e-06	1314.2	379.83	2.2187e-06	5.1799e-06	467.37	121.6	81.553	28.671	4.5843e-06	37.555	0.00075802	0.0010583	0.00031811	972.02	1.1513e-05	1.1731e-05	1146.1	335.29	1.1423e-05	1.2199e-05	411.18	108.25	72.848	25.374	1.1641e-05	33.395	279.073	35.754	47.819	-58.739	189.970	112.919	-60.036	-53.133	41.648	76.168	-55.442	-50.011	-48.011	-41.987	140.655	-46.568	-8191	255	
2174.357	1	1	0	0	0.079853	0.12212	0.16078	0.21925	0.032761	0.2132	0.30455	0.43554	0.17895	0.080598	0.2283	0.088212	0.04547	0.059485	0.074129	0.19912	-3.375	-4.0458	-3.2333	-4.05	-3.6646	-3.4562	-4.3979	-3.7771	-3.5625	-4.1104	-3.2083	-4.025	-3.8667	-3.2313	-4.1021	-3.5896	-69.287	82.020	-20.144	230.059	104.358	24.054	255.568	229.607	258.700	178.702	251.346	28.733	81.012	77.692	201.386	128.675	0.00013651	0.00078296	0.00022292	1103.9	3.3061e-06	1.0032e-05	1318.6	383.46	4.744e-06	2.469e-06	467.21	122.64	81.598	28.615	4.3288e-06	37.882	0.00075168	0.0011229	0.00031021	968.67	1.1611e-05	1.182e-05	1149.9	336.82	1.1419e-05	1.1914e-05	411.64	109.13	72.846	25.483	1.1736e-05	33.621	259.335	-3.357	16.546	-58.487	124.641	73.901	-59.733	-53.202	132.015	24.126	-55.107	-50.181	-48.778	-42.293	94.670	-46.118	-8191	255	
2174.478	1	1	0	0	0.090719	0.10797	0.18329	0.36921	0.27046	0.16572	0.2039	0.16494	0.11233	0.19717	0.19888	0.05518	0.092398	0.14542	0.13247	0.2367	-3.0854	-4.2292	-3.4479	-4.1083	-3.8604	-3.3187	-4.3583	-3.6375	-3.3688	-4.1729	-3.6146	-3.9917	-3.8958	-3.2021	-4.0813	-3.7104	103.462	151.430	280.095	241.738	65.745	10.854	141.823	249.520	241.528	-62.681	194.322	-56.643	111.628	199.334	37.160	-33.813	7.5107e-05	0.00044144	0.00014155	1111.9	8.8675e-06	6.8678e-06	1314.1	382.8	9.1856e-07	3.5824e-06	473.79	122.98	81.523	28.694	3.0702e-06	37.516	0.00074865	0.0010889	0.00030818	973.31	1.1752e-05	1.217e-05	1151.6	336.04	1.1618e-05	1.1678e-05	414.55	109.39	72.944	25.567	1.1789e-05	33.47	256.132	-25.768	40.431	-58.507	137.243	93.542	-59.462	-53.085	234.066	73.907	-55.264	-50.158	-48.711	-42.177	139.044	-46.237	-8191	255	
2174.574	1	1	0	0	0.18264	0.11715	0.20604	0.15679	0.023438	0.086817	0.13548	0.23417	0.086046	0.056045	0.24994	0.14035	0.24159	0.21993	0.032741	0.096191	-3.0729	-4.0708	-3.3229	-3.9021	-4.0208	-3.2292	-4.3229	-3.775	-3.2833	-4.3083	-3.3833	-3.7667	-3.9958	-3.3417	-3.9521	-3.8729	-41.292	75.277	135.436	181.196	196.753	70.660	197.102	258.017	-32.984	-51.027	257.847	172.313	258.341	218.344	128.222	145.106	0.00010364	0.00052834	7.5292e-05	1104.7	6.117e-06	2.4595e-06	1312.9	380.34	6.4185e-07	5.844e-06	465.61	121.13	80.907	28.419	6.3883e-06	37.006	0.00074804	0.0011228	0.0003053	968.57	1.1056e-05	1.2448e-05	1147.1	334.33	1.1514e-05	1.2162e-05	409.62	108.04	72.47	25.283	1.1387e-05	33.152	246.002	-11.030	9.629	-58.740	133.664	75.832	-59.749	-53.129	-28.718	78.755	-55.648	-50.202	-48.224	-42.284	107.144	-46.275	-8191	255	
2174.670	1	1	0	0	0.045011	0.13061	0.14268	0.25153	0.2372	0.24386	0.14646	0.17287	0.12581	0.08228	0.10222	0.14336	0.037574	0.066363	0.25808	0.17236	-3.0021	-4.0729	-3.375	-3.725	-4.0771	-3.1813	-4.1458	-4.1	-3.0646	-4.1021	-3.6417	-3.6896	-4.1188	-3.3333	-3.8583	-4.075	277.223	195.580	154.278	-47.272	100.922	127.113	257.004	238.844	-25.502	-6.592	-17.583	-56.929	174.349	206.709	229.130	199.082	8.1459e-05	0.00078662	0.00023418	1104.2	2.3021e-06	4.6812e-06	1309.9	380.57	3.6576e-06	6.7943e-06	467.6	121.73	81.731	28.402	7.6119e-06	37.483	0.00079342	0.0011712	0.0003158	966.65	1.1646e-05	1.2256e-05	1143.6	334.8	1.1436e-05	1.2254e-05	409.42	108.57	72.526	25.412	1.163e-05	33.384	256.446	67.837	4.819	-58.384	116.248	73.697	-59.623	-53.260	87.052	96.774	-55.071	-50.078	-48.699	-42.680	76.923	-46.380	-8191	255	
2174.766	1	1	0	0	0.28337	0.17136	0.21967	0.13005	0.16928	0.055231	0.12857	0.33321	0.12827	0.19111	0.2554	0.15403	0.21879	0.13513	0.27361	0.22666	-2.7917	-4.1292	-3.5604	-3.5854	-4.1917	-3.1437	-3.8854	-4.1292	-2.95	-4.1833	-3.8792	-3.5604	-4.3271	-3.4229	-3.6958	-4.1271	181.933	200.496	201.466	-37.330	-35.677	5.410	251.885	233.176	83.068	280.672	246.567	256.542	263.488	11.726	184.032	219.860	8.1491e-05	0.00024606	0.0001739	1107.7	7.6371e-06	7.4907e-06	1316	381.94	4.5145e-06	4.426e-06	471.46	123.02	81.9	28.785	9.2741e-06	37.779	0.00077382	0.0010819	0.00029985	968.24	1.193e-05	1.2352e-05	1146.5	335.97	1.1754e-05	1.2679e-05	413.37	109.42	73.147	25.658	1.162e-05	33.758	268.147	21.766	16.408	-58.508	109.748	87.646	-59.499	-53.308	71.916	87.195	-55.280	-49.798	-48.615	-42.469	128.525	-46.027	-8191	255	
2174.861	1	1	0	0	0.22239	0.21809	0.12703	0.11457	0.082674	0.2685	0.36777	0.12134	0.065129	0.044134	0.21991	0.24967	0.29433	0.23095	0.13853	0.074979	-2.9396	-4.0208	-3.6125	-3.3958	-4.2958	-3.4208	-3.9062	-4.3479	-3.225	-4.1729	-3.8583	-3.275	-4.2438	-3.3667	-3.5625	-4.1687	280.475	15.407	100.235	-29.998	201.295	226.021	193.942	259.753	-23.499	-16.977	158.987	-16.676	-54.296	221.533	118.347	180.095	0.00017557	0.00046029	0.00021084	1105.2	3.4693e-06	3.7235e-06	1316.8	383.29	2.6767e-06	3.7649e-06	470.5	122.6	81.491	28.669	2.6455e-06	37.584	0.00077615	0.0011284	0.00031577	970.33	1.1751e-05	1.2501e-05	1147.9	336.91	1.1774e-05	1.2598e-05	412.67	109.44	72.925	25.52	1.1539e-05	33.402	266.467	32.148	23.701	-58.046	87.401	51.689	-59.431	-52.866	173.455	90.780	-55.147	-50.091	-48.356	-42.266	114.937	-45.994	-8191	255	
2174.957	1	1	0	0	0.28097	0.1105	0.15912	0.28994	0.22413	0.12347	0.33541	0.42114	0.14006	0.02465	0.13953	0.096987	0.11079	0.05866	0.089136	0.1639	-2.8708	-3.85	-3.7979	-3.2021	-4.0354	-3.5479	-3.6	-4.2479	-3.1396	-3.8979	-3.8792	-3.3187	-4.2417	-3.4313	-3.5812	-4.2792	139.179	17.194	181.459	231.659	137.785	252.315	253.117	181.684	267.485	-66.897	252.951	266.307	4.321	273.742	136.392	142.725	0.00011102	0.00045451	9.3077e-05	1101.6	3.5673e-06	1.3332e-05	1302	381.16	2.5014e-06	1.7532e-06	464.12	122.21	81.302	28.497	2.4422e-06	37.865	0.00077972	0.0011206	0.00031265	966.13	1.144e-05	1.2236e-05	1140.4	334.39	1.1512e-05	1.2626e-05	408.59	108.46	72.953	25.402	1.218e-05	33.401	274.090	37.678	-21.753	-58.297	153.699	96.907	-59.652	-53.208	-1.451	24.791	-55.290	-50.205	-48.083	-42.095	183.529	-46.460	-8191	255	
2175.053	1	1	0	0	0.041997	0.17784	0.037276	0.13659	0.13657	0.024543	0.22908	0.25193	0.21781	0.23627	0.098659	0.17573	0.13352	0.28984	0.10046	0.028367	-2.8292	-3.8688	-3.8812	-3.3396	-4.1062	-3.6354	-3.575	-4.3875	-3.2583	-3.8146	-4.1708	-3.1667	-3.8708	-3.9625	-3.2958	-4.2167	193.888	-12.807	158.180	48.995	74.817	208.459	175.771	198.362	91.661	284.675	235.542	271.387	190.436	271.255	261.173	202.514	8.6174e-05	0.00037784	8.3494e-05	1100.3	5.9571e-06	1.701e-06	1310.7	381.94	6.6269e-06	2.8836e-06	464.74	122.57	82.348	28.754	5.6533e-06	38.015	0.00078858	0.0011531	0.00030914	964.93	1.1805e-05	1.2559e-05	1143.2	336.02	1.1826e-05	1.2524e-05	410.88	109.31	73.64	25.694	1.2139e-05	33.933	276.422	17.097	-68.492	-58.427	135.106	107.886	-59.632	-52.922	94.370	85.531	-55.079	-49.975	-48.095	-42.308	82.084	-46.070	-8191	255	
2175.149	1	1	0	0	0.31154	0.027749	0.22576	0.25035	0.023057	0.12651	0.34882	0.12577	0.14197	0.24003	0.36744	0.19826	0.29893	0.17635	0.14321	0.13467	-3.0292	-3.5938	-4.0083	-3.2354	-4.0292	-3.775	-3.4313	-4.4	-3.4417	-3.4417	-4.2312	-3.35	-3.9792	-3.7542	-3.3021	-4.3146	168.958	188.177	63.936	238.809	67.791	104.300	-57.696	186.380	162.978	70.491	228.111	235.805	-9.134	197.641	30.670	265.789	6.1334e-05	0.00032112	0.00010932	1102.3	1.7668e-06	3.173e-06	1305.7	384.03	5.1979e-06	5.5626e-06	471.81	124.23	82.048	28.982	6.0905e-06	38.585	0.00081644	0.0011469	0.00032301	964.76	1.1856e-05	1.2262e-05	1143.7	337.04	1.1919e-05	1.296e-05	413.66	110.34	73.741	25.862	1.2366e-05	34.266	262.682	8.990	82.330	-58.378	28.390	125.961	-59.733	-53.035	136.112	60.205	-55.424	-50.333	-48.141	-42.507	69.434	-45.902	-8191	255	
2175.245	1	1	0	0	0.091473	0.24709	0.16866	0.11153	0.14445	0.2279	0.077672	0.12112	0.050916	0.13268	0.22247	0.15203	0.13112	0.20858	0.24112	0.079406	-3.2479	-3.4437	-4.1583	-3.4771	-3.9146	-3.7208	-3.15	-4.4458	-3.6083	-3.3646	-4.2271	-3.2458	-3.9021	-3.9688	-3.2458	-4.1854	285.799	-12.501	59.305	259.817	29.714	199.382	287.560	277.186	137.264	-11.983	224.186	-49.181	231.526	14.306	202.224	163.489	6.8396e-05	0.00038615	0.00011948	1097.4	3.358e-06	4.1499e-06	1311	382.89	4.2143e-06	7.9739e-06	468.79	123.52	82.311	28.844	6.291e-06	37.835	0.00078893	0.0011028	0.00031192	962.55	1.1873e-05	1.2705e-05	1146.3	335.99	1.1926e-05	1.2916e-05	412.06	109.75	73.549	25.758	1.2325e-05	33.697	264.810	-65.227	16.168	-58.271	56.824	72.583	-59.534	-52.681	61.924	113.130	-55.230	-49.689	-47.834	-42.141	113.437	-46.031	-8191	255	
2175.366	1	1	0	0	0.16947	0.21352	0.099596	0.19806	0.22877	0.23243	0.11312	0.19912	0.12467	0.24683	0.19786	0.15795	0.14408	0.17105	0.10158	0.030029	-3.3438	-3.3125	-4.0521	-3.4667	-3.7375	-3.9021	-3.4437	-4.0625	-3.6188	-3.3854	-4.3	-3.5708	-3.8042	-4.0667	-3.2375	-4.0354	203.117	181.865	73.615	-3.613	-69.825	174.614	204.538	221.486	74.638	196.300	266.987	-53.694	-49.961	269.215	60.313	164.092	9.7393e-05	0.00058139	7.3526e-05	1100.4	4.7492e-06	4.7887e-06	1303.7	379.78	5.5982e-06	6.4631e-06	466.17	123.19	81.811	28.949	5.6514e-06	37.966	0.0008036	0.0011588	0.00031731	964.24	1.2443e-05	1.2488e-05	1138.6	334.99	1.2286e-05	1.2971e-05	409.36	109.36	73.126	25.753	1.2307e-05	33.798	205.642	19.630	30.151	-58.170	72.519	69.935	-59.278	-52.661	91.255	91.618	-55.234	-49.711	-48.291	-42.500	80.069	-45.992	-8191	255	
2175.462	1	1	0	0	0.064603	0.26494	0.021477	0.25127	0.065084	0.23449	0.16836	0.013396	0.34798	0.13794	0.22004	0.26383	0.3254	0.17445	0.27701	0.39836	-3.5312	-3.1667	-4.1188	-3.6792	-3.5792	-4.0875	-3.4938	-4.0333	-3.825	-3.3104	-4.3208	-3.6188	-3.6	-4.1604	-3.2313	-3.9167	-4.144	160.893	198.836	270.985	159.616	-17.185	220.360	242.105	164.856	205.345	259.478	286.110	-30.486	241.204	-57.872	211.290	9.6793e-05	0.00065126	0.0001007	1094.9	6.4685e-06	4.2919e-06	1300.5	381.71	6.592e-06	8.1112e-06	470.95	124.67	81.866	28.792	4.9684e-06	38.317	0.00077807	0.0011819	0.00031029	958.93	1.2724e-05	1.3036e-05	1137.3	335.63	1.2219e-05	1.3417e-05	412.9	110.27	73.528	25.843	1.2451e-05	34.131	285.419	67.313	28.933	-58.579	114.153	22.293	-59.794	-53.043	148.626	63.460	-55.698	-50.440	-48.263	-42.626	106.954	-46.865	-8191	255	
2175.558	1	1	0	0	0.022793	0.26676	0.16534	0.17934	0.18767	0.12966	0.04333	0.19642	0.25019	0.10077	0.20499	0.10766	0.19946	0.21703	0.16362	0.11873	-3.5104	-3.0583	-4.1521	-3.5938	-3.3896	-4.0083	-3.5167	-3.9208	-4.0708	-3.0938	-4.25	-3.625	-3.3542	-4.2667	-3.3417	-3.7333	238.567	121.570	2.384	196.803	-46.257	30.218	154.298	248.728	-41.025	193.296	250.403	178.328	116.299	-20.727	-20.124	172.380	0.00010589	0.00035977	3.1669e-05	1095.8	7.2952e-06	2.4687e-06	1313.6	381.18	5.7755e-06	3.8362e-06	474	124.96	83.138	29.076	6.2585e-06	38.767	0.00078885	0.0011522	0.00033177	962.71	1.2385e-05	1.2494e-05	1145.4	336.7	1.2102e-05	1.3298e-05	415.28	110.81	74.036	25.993	1.2712e-05	34.421	244.754	-18.974	4.300	-58.878	86.203	83.713	-59.951	-53.397	148.503	93.038	-55.520	-50.265	-48.715	-42.809	129.566	-46.533	-8191	255	
2175.654	1	1	0	0	0.22702	0.14622	0.075068	0.14226	0.077333	0.16143	0.17722	0.1264	0.25143	0.21234	0.17705	0.3177	0.10448	0.090206	0.051144	0.15906	-3.6208	-3.2354	-3.8271	-3.7375	-3.4396	-4.1708	-3.6479	-3.7687	-4.2375	-3.2375	-4.0188	-3.9062	-3.2458	-4.1813	-3.6	-3.6771	245.652	190.556	136.621	-70.632	264.848	202.752	219.298	207.756	-59.914	-10.024	189.262	263.880	208.170	-5.508	230.245	205.626	0.00016957	0.00056993	0.0001912	1097.1	5.2488e-06	8.5843e-06	1298.1	382.63	6.0177e-06	6.354e-06	467.72	122.9	82.445	29.024	5.4863e-06	38.281	0.00079609	0.0011584	0.00032137	962.82	1.2417e-05	1.2466e-05	1137.7	336.24	1.1878e-05	1.3263e-05	411.98	109.54	73.345	25.83	1.2418e-05	33.929	253.803	-15.946	11.407	-59.175	111.404	54.222	-60.089	-53.210	132.817	69.256	-55.454	-50.320	-48.541	-42.845	53.351	-46.622	-8191	255	
2175.750	1	1	0	0	0.13288	0.074104	0.17464	0.14669	0.21302	0.16697	0.14288	0.18019	0.097428	0.2557	0.11004	0.12521	0.20501	0.10551	0.1123	0.10259	-3.7667	-3.3521	-3.8417	-4.0604	-3.1813	-4.0042	-3.7583	-3.5729	-4.2417	-3.3104	-3.9708	-4.0104	-3.1875	-4.1	-3.6583	-3.4729	45.147	3.800	-48.480	-42.996	178.029	-28.621	279.033	272.262	-64.694	224.942	-67.903	-52.401	168.507	-69.247	137.488	262.758	0.00010625	0.00057961	0.00015113	1096.8	8.1518e-06	2.582e-06	1296.6	380.39	5.7738e-06	6.0965e-06	468.85	124.38	82.046	29.332	4.6966e-06	38.416	0.00080783	0.0012017	0.00033098	960.87	1.2778e-05	1.2706e-05	1136.7	335.35	1.2111e-05	1.2831e-05	411.99	110.03	73.601	26.025	1.2529e-05	34.157	234.910	44.188	17.584	-58.982	120.026	61.075	-60.051	-53.157	84.555	91.278	-55.734	-50.845	-48.436	-42.717	57.201	-46.566	-8191	255	
2175.847	1	1	0	0	0.22018	0.27216	0.035618	0.12252	0.24066	0.18015	0.089619	0.35104	0.016208	0.057574	0.26536	0.15712	0.045799	0.14397	0.16828	0.04694	-3.7396	-3.2375	-3.6208	-4.0271	-3.1063	-4.1229	-3.9	-3.6396	-4.3396	-3.3146	-3.7292	-4.1687	-3.2479	-4.2125	-3.7875	-3.4437	127.742	90.558	50.494	257.953	255.066	-17.675	244.772	220.921	6.517	125.607	217.717	187.447	278.422	197.795	115.082	234.999	7.709e-05	0.0003131	0.00016774	1091.7	3.5213e-06	8.1126e-07	1303	382.48	2.7368e-06	9.3358e-06	470.82	125.18	83.075	29.257	4.732e-06	38.701	0.00081971	0.0011906	0.00032899	957.42	1.2467e-05	1.2781e-05	1138.7	335.89	1.2021e-05	1.3085e-05	414.06	111.15	74.194	26.169	1.2256e-05	34.605	238.226	-4.020	80.765	-58.723	47.501	8.867	-59.746	-53.295	277.666	105.291	-55.106	-50.747	-48.403	-42.422	84.033	-46.150	-8191	255	
2175.965	1	1	0	0	0.36851	0.19483	0.13186	0.29778	0.25324	0.11869	0.23137	0.21974	0.20264	0.22006	0.30617	0.051023	0.1802	0.195	0.20791	0.26336	-3.9188	-3.2646	-3.4625	-4.3	-3.2208	-4.1	-4.0417	-3.55	-4.1188	-3.5729	-3.8	-4.2042	-3.2083	-3.9417	-3.8792	-3.2812	252.013	-13.220	95.471	228.466	130.642	267.991	-35.940	215.267	62.220	28.943	261.912	188.072	213.221	274.768	24.504	176.964	8.4524e-05	0.00011273	0.000155	1089.2	5.9743e-06	6.4717e-06	1304.6	382.54	4.1798e-06	7.5282e-06	471.41	125.54	82.996	29.424	3.2455e-06	38.922	0.00082157	0.001184	0.00032988	960.04	1.2279e-05	1.3257e-05	1141	337.71	1.2301e-05	1.345e-05	415.64	111.34	74.135	26.246	1.222e-05	34.535	198.667	38.072	48.062	-58.752	57.610	38.526	-60.189	-53.199	136.662	49.425	-55.417	-50.219	-48.567	-42.811	98.414	-47.014	-8191	255	
2176.062	1	1	0	0	0.1636	0.074507	0.22653	0.34545	0.15375	0.014218	0.27899	0.037803	0.11382	0.19614	0.11888	0.26683	0.15897	0.014928	0.1515	0.18869	-3.8229	-3.55	-3.4083	-4.3271	-3.1479	-3.8729	-4.2146	-3.4521	-4.1542	-3.6042	-3.6688	-4.1021	-3.3771	-3.8833	-3.9271	-3.2438	85.336	-34.806	258.074	269.818	44.107	239.263	240.810	278.196	285.365	224.306	237.691	222.903	234.480	-20.510	151.972	-14.945	0.00011235	0.00060765	0.00016468	1090	2.0508e-06	5.0379e-06	1299.7	381.21	3.1993e-06	4.62e-06	467.35	123.44	82.666	29.174	6.4585e-06	38.508	0.00079311	0.0011884	0.00033753	957.97	1.2472e-05	1.2977e-05	1135.1	335.57	1.2385e-05	1.2902e-05	411.51	110.04	73.831	26.039	1.2382e-05	34.219	283.952	7.831	31.224	-59.027	70.437	94.867	-59.959	-53.078	108.015	43.219	-55.747	-50.045	-48.817	-42.281	85.147	-46.487	-8191	255	
2176.158	1	1	0	0	0.13582	0.041787	0.055812	0.17357	0.16899	0.073004	0.10358	0.12206	0.17501	0.15549	0.42213	0.084369	0.0432	0.11768	0.099849	0.2341	-3.6854	-3.7854	-3.3417	-4.3208	-3.4729	-3.5646	-4.2833	-3.2438	-4.1167	-3.7687	-3.5208	-4.3875	-3.5646	-3.6312	-4.2354	-3.5917	-33.656	197.155	227.346	-58.059	86.645	110.651	232.787	183.915	20.932	269.449	240.069	100.776	254.620	261.121	34.138	247.369	0.00010415	0.00076082	0.00024344	1093	4.8355e-06	4.9986e-06	1300.8	382.02	3.1627e-06	5.3229e-06	469.09	125.52	83.321	29.47	3.4347e-06	38.915	0.00081199	0.0011915	0.00033578	957.84	1.2775e-05	1.3099e-05	1136.6	335.45	1.202e-05	1.3017e-05	412.77	111.12	74.028	26.248	1.2432e-05	34.607	247.592	16.568	7.264	-58.806	109.133	89.248	-60.140	-53.191	150.935	69.284	-55.483	-50.088	-48.464	-42.368	150.800	-46.254	-8191	255	
2176.254	1	1	0	0	0.14587	0.21467	0.15822	0.15749	0.21223	0.024912	0.060672	0.20035	0.15748	0.10181	0.25684	0.17727	0.31586	0.19437	0.086816	0.13157	-3.6104	-3.9292	-3.3208	-4.4187	-3.5042	-3.5167	-4.2875	-3.3375	-3.9646	-3.8083	-3.4667	-4.1854	-3.5396	-3.6458	-3.9917	-3.4938	227.549	255.898	139.429	264.878	192.921	191.072	198.273	187.289	-1.338	54.391	-45.932	189.400	245.882	249.087	162.384	250.183	8.1557e-05	0.00040737	0.0002422	1100	3.0955e-06	3.5523e-06	1305.9	384.05	4.7824e-06	2.4437e-06	471.11	125.83	82.94	29.542	5.1574e-06	39.02	0.00083841	0.0011699	0.00033787	961.11	1.2759e-05	1.2937e-05	1140.7	337.58	1.2521e-05	1.3609e-05	414.65	111.92	74.299	26.444	1.229e-05	34.918	199.232	-8.642	28.632	-58.833	138.106	70.368	-59.915	-53.364	58.279	108.423	-55.517	-50.248	-48.038	-42.172	202.152	-46.757	-8191	255	
#DATA ENDS
