BOXY.EXE: ISS Imagent and Oximeter Data Acquisition Program Version 0.80
Ascii Record File

#ACQ INFORMATION
2  Detector Channels 
16  External MUX Channels 
1  Auxiliary Channels 
5000  Waveform (CCF) Frequency (Hz)
1  Waveforms Skipped 
30  Waveforms Averaged 
1  Cycles Averaged 
16  Acquisitions per Waveform 
10.0806  Updata Rate (Hz) 

#FILE INFORMATION
TRUE -- External MUX Channel results are PARSED.
FALSE -- AC DC and Phase are NOT grouped.
TRUE -- Companion Program Settings File CREATED.
FALSE -- AC data not excluded
FALSE -- DC data not excluded
FALSE -- Phase data not excluded
FALSE -- Auxillary Chn. data not excluded
Tab delimiters

#CALIBRATION STATE
TRUE -- Waveform Calibration Values APPLIED.


#AUX CALIBRATION VALUES
Val Type	aux-1	

Term	1.0000e+00	
Factor	0.0000e+00	


#WF CALIBRATION VALUES
A = Detector Channel
Val Type	A-AC1	A-AC2	A-AC3	A-AC4	A-AC5	A-AC6	A-AC7	A-AC8	A-AC9	A-AC10	A-AC11	A-AC12	A-AC13	A-AC14	A-AC15	A-AC16	A-DC1	A-DC2	A-DC3	A-DC4	A-DC5	A-DC6	A-DC7	A-DC8	A-DC9	A-DC10	A-DC11	A-DC12	A-DC13	A-DC14	A-DC15	A-DC16	A-Ph1	A-Ph2	A-Ph3	A-Ph4	A-Ph5	A-Ph6	A-Ph7	A-Ph8	A-Ph9	A-Ph10	A-Ph11	A-Ph12	A-Ph13	A-Ph14	A-Ph15	A-Ph16	

Term	0.00000e+00	0.00000e+00	0.00000e+00	0.00000e+00	0.00000e+00	0.00000e+00	0.00000e+00	0.00000e+00	0.00000e+00	0.00000e+00	0.00000e+00	0.00000e+00	0.00000e+00	0.00000e+00	0.00000e+00	0.00000e+00	0.00000e+00	0.00000e+00	0.00000e+00	0.00000e+00	0.00000e+00	0.00000e+00	0.00000e+00	0.00000e+00	0.00000e+00	0.00000e+00	0.00000e+00	0.00000e+00	0.00000e+00	0.00000e+00	0.00000e+00	0.00000e+00	0.00000e+00	0.00000e+00	0.00000e+00	0.00000e+00	0.00000e+00	0.00000e+00	0.00000e+00	0.00000e+00	0.00000e+00	0.00000e+00	0.00000e+00	0.00000e+00	0.00000e+00	0.00000e+00	0.00000e+00	0.00000e+00	
Factor	1.00000e+00	1.00000e+00	1.00000e+00	1.00000e+00	1.00000e+00	1.00000e+00	1.00000e+00	1.00000e+00	1.00000e+00	1.00000e+00	1.00000e+00	1.00000e+00	1.00000e+00	1.00000e+00	1.00000e+00	1.00000e+00	1.00000e+00	1.00000e+00	1.00000e+00	1.00000e+00	1.00000e+00	1.00000e+00	1.00000e+00	1.00000e+00	1.00000e+00	1.00000e+00	1.00000e+00	1.00000e+00	1.00000e+00	1.00000e+00	1.00000e+00	1.00000e+00	X	X	X	X	X	X	X	X	X	X	X	X	X	X	X	X	

B = Detector Channel
Val Type	B-AC1	B-AC2	B-AC3	B-AC4	B-AC5	B-AC6	B-AC7	B-AC8	B-AC9	B-AC10	B-AC11	B-AC12	B-AC13	B-AC14	B-AC15	B-AC16	B-DC1	B-DC2	B-DC3	B-DC4	B-DC5	B-DC6	B-DC7	B-DC8	B-DC9	B-DC10	B-DC11	B-DC12	B-DC13	B-DC14	B-DC15	B-DC16	B-Ph1	B-Ph2	B-Ph3	B-Ph4	B-Ph5	B-Ph6	B-Ph7	B-Ph8	B-Ph9	B-Ph10	B-Ph11	B-Ph12	B-Ph13	B-Ph14	B-Ph15	B-Ph16	

Term	0.00000e+00	0.00000e+00	0.00000e+00	0.00000e+00	0.00000e+00	0.00000e+00	0.00000e+00	0.00000e+00	0.00000e+00	0.00000e+00	0.00000e+00	0.00000e+00	0.00000e+00	0.00000e+00	0.00000e+00	0.00000e+00	0.00000e+00	0.00000e+00	0.00000e+00	0.00000e+00	0.00000e+00	0.00000e+00	0.00000e+00	0.00000e+00	0.00000e+00	0.00000e+00	0.00000e+00	0.00000e+00	0.00000e+00	0.00000e+00	0.00000e+00	0.00000e+00	-3.55938e+01	-1.27701e+02	-1.25281e+02	-1.82617e+02	-5.40153e+01	-6.01161e+01	-1.56707e+02	-1.61923e+02	-3.23848e+01	-6.96501e+01	-1.72081e+02	-1.72121e+02	-1.82310e+02	-1.75613e+02	-4.80221e+01	-1.49421e+02	
Factor	1.75935e-05	1.27067e-04	3.90881e-05	1.69756e-01	1.41494e-06	1.43045e-06	1.51472e-01	4.16107e-02	1.27005e-06	1.46452e-06	7.00974e-02	2.89022e-02	2.93523e-02	6.32495e-03	1.47419e-06	9.43134e-03	9.40978e-06	1.53733e-05	4.30930e-06	8.73817e-02	1.59016e-07	1.71387e-07	7.34779e-02	2.15944e-02	1.53695e-07	1.73083e-07	3.51862e-02	1.45699e-02	1.52597e-02	3.31565e-03	1.61020e-07	4.78232e-03	X	X	X	X	X	X	X	X	X	X	X	X	X	X	X	X	



#DISTANCE SETTINGS
A = Detector Channel
A-1	A-2	A-3	A-4	A-5	A-6	A-7	A-8	A-9	A-10	A-11	A-12	A-13	A-14	A-15	A-16	

1.0000e+01	1.0000e+01	1.0000e+01	1.4500e+00	1.0000e+01	1.0000e+01	1.5100e+00	1.9500e+00	1.0000e+01	1.0000e+01	2.0100e+00	2.5000e+00	2.4400e+00	2.9500e+00	1.0000e+01	3.0100e+00	

B = Detector Channel
B-1	B-2	B-3	B-4	B-5	B-6	B-7	B-8	B-9	B-10	B-11	B-12	B-13	B-14	B-15	B-16	

1.0000e+01	1.0000e+01	1.0000e+01	1.4500e+00	1.0000e+01	1.0000e+01	1.5100e+00	1.9500e+00	1.0000e+01	1.0000e+01	2.0100e+00	2.5000e+00	2.4400e+00	2.9500e+00	1.0000e+01	3.0100e+00	




#DATA BEGINS
time	group	step	mark	flag	A-AC1	A-AC2	A-AC3	A-AC4	A-AC5	A-AC6	A-AC7	A-AC8	A-AC9	A-AC10	A-AC11	A-AC12	A-AC13	A-AC14	A-AC15	A-AC16	A-DC1	A-DC2	A-DC3	A-DC4	A-DC5	A-DC6	A-DC7	A-DC8	A-DC9	A-DC10	A-DC11	A-DC12	A-DC13	A-DC14	A-DC15	A-DC16	A-Ph1	A-Ph2	A-Ph3	A-Ph4	A-Ph5	A-Ph6	A-Ph7	A-Ph8	A-Ph9	A-Ph10	A-Ph11	A-Ph12	A-Ph13	A-Ph14	A-Ph15	A-Ph16	B-AC1	B-AC2	B-AC3	B-AC4	B-AC5	B-AC6	B-AC7	B-AC8	B-AC9	B-AC10	B-AC11	B-AC12	B-AC13	B-AC14	B-AC15	B-AC16	B-DC1	B-DC2	B-DC3	B-DC4	B-DC5	B-DC6	B-DC7	B-DC8	B-DC9	B-DC10	B-DC11	B-DC12	B-DC13	B-DC14	B-DC15	B-DC16	B-Ph1	B-Ph2	B-Ph3	B-Ph4	B-Ph5	B-Ph6	B-Ph7	B-Ph8	B-Ph9	B-Ph10	B-Ph11	B-Ph12	B-Ph13	B-Ph14	B-Ph15	B-Ph16	aux-1	digaux	

2227.899	1	1	0	256	0.064994	0.17932	0.1447	0.1614	0.20315	0.23088	0.29529	0.18443	0.15854	0.076324	0.2135	0.2531	0.18047	0.11655	0.18063	0.25885	-3.7083	-3.675	-3.3146	-4.2396	-3.3104	-3.6312	-4.1188	-3.3646	-3.8021	-3.7021	-3.4875	-4.275	-3.2958	-3.675	-3.8875	-3.2104	156.547	461.226	322.954	487.192	248.880	492.149	409.549	444.832	397.173	495.792	443.142	170.385	348.214	391.532	402.316	433.453	0.0003361	3.4616e-05	0.00013064	1083.7	6.9034e-06	4.8267e-06	1324.4	346.3	7.3339e-06	9.0237e-06	445.61	115.66	75.788	17.376	6.3923e-06	27.156	0.00069393	0.00092999	0.0002709	957.62	9.8895e-06	1.0528e-05	1159	305.79	1.0051e-05	1.0506e-05	393.63	102.25	67.473	15.607	1.0526e-05	24.236	281.530	494.140	229.948	156.079	257.472	321.616	154.318	161.080	315.077	285.737	159.024	163.404	165.781	172.122	308.195	167.449	-8191	255	
2227.995	1	1	0	0	0.16769	0.2704	0.2581	0.26941	0.14882	0.093535	0.49972	0.40543	0.053152	0.20294	0.20021	0.080178	0.29062	0.037836	0.19016	0.34494	-3.6667	-3.8292	-3.3271	-4.3125	-3.3958	-3.5146	-4.3354	-3.4146	-3.8542	-3.9771	-3.3417	-4.2833	-3.4333	-3.5062	-4.175	-3.35	419.513	355.405	265.056	439.913	219.820	406.427	463.008	443.214	167.474	489.512	218.089	501.154	476.012	213.224	478.589	453.814	0.00038384	0.00021078	0.00010677	1089.7	3.3953e-06	3.5863e-06	1319.1	345.52	4.0045e-06	5.1442e-06	445.92	117.4	76.384	17.26	5.8403e-06	27.217	0.00070628	0.00093348	0.00026903	956.33	9.8858e-06	1.0348e-05	1154.8	304.55	9.9165e-06	1.0506e-05	393.95	102.74	67.599	15.597	9.7702e-06	24.395	289.452	227.071	253.666	156.478	271.516	292.694	154.511	161.159	342.522	331.821	159.345	163.753	165.497	172.628	282.336	167.565	-8191	255	
2228.091	1	1	0	0	0.10953	0.16098	0.05182	0.28793	0.17988	0.14011	0.35967	0.094225	0.15768	0.016182	0.43379	0.23491	0.1561	0.22121	0.1626	0.15453	-3.375	-4.0083	-3.2313	-4.1083	-3.5729	-3.3542	-4.3021	-3.4104	-3.6917	-4.0479	-3.4604	-4.0292	-3.825	-3.1458	-4.05	-3.3104	156.132	284.822	369.067	168.154	355.739	304.912	422.694	406.321	338.253	465.847	447.740	160.209	465.450	370.049	261.674	426.652	0.00036741	0.00073174	0.00018127	1088.3	7.7593e-06	1.7917e-06	1329.6	346.24	2.5944e-06	5.9701e-06	445.55	116.37	76.109	17.406	5.8969e-06	27.371	0.00070887	0.00093992	0.00025038	955.87	9.9932e-06	1.0456e-05	1159.7	305.18	9.8365e-06	1.0763e-05	393.95	102.75	67.771	15.66	9.9718e-06	24.582	285.639	243.185	209.700	156.259	282.284	355.188	154.458	160.482	297.685	265.177	158.717	163.739	165.380	172.066	284.229	168.042	-8191	255	
2228.187	1	1	0	0	0.27054	0.21438	0.083088	0.30291	0.067993	0.19358	0.092781	0.026339	0.12459	0.13062	0.30176	0.17988	0.1609	0.094044	0.20878	0.14271	-3.3292	-4.0479	-3.1146	-4.0125	-3.7438	-3.2083	-4.2229	-3.5729	-3.525	-3.9188	-3.2062	-3.8812	-3.825	-3.2396	-4.0563	-3.5292	281.540	502.710	174.687	170.899	220.041	452.818	178.546	458.891	258.015	208.901	474.709	438.545	489.002	324.911	366.114	465.450	0.0003697	0.00038448	9.6134e-05	1083.4	1.1374e-05	6.1044e-06	1323.2	344.34	4.5931e-06	1.7753e-06	445.54	117.14	76.152	17.367	6.3536e-06	26.989	0.00071473	0.00094671	0.00026967	955.4	1.0303e-05	1.0646e-05	1160.1	303.82	1.0424e-05	1.0904e-05	394.9	103.1	67.496	15.605	1.0228e-05	24.384	285.923	219.506	248.647	156.778	293.783	285.305	154.283	161.053	348.619	378.508	158.724	163.461	165.940	172.170	306.450	167.267	-8191	255	
2228.283	1	1	0	0	0.171	0.14893	0.2302	0.13075	0.30021	0.044454	0.27693	0.17839	0.081667	0.15564	0.22284	0.093373	0.11862	0.042913	0.1505	0.17142	-3.0833	-4.1354	-3.2104	-3.9042	-3.925	-3.3979	-4.3875	-3.6375	-3.5125	-4.1708	-3.2896	-3.8479	-3.9771	-3.3312	-4.2417	-3.7375	240.459	204.239	430.637	406.935	361.798	366.684	402.841	156.662	320.957	383.990	445.373	389.467	319.903	152.995	459.837	486.867	0.00041872	0.00037767	0.00014598	1075.2	1.9708e-06	4.5434e-06	1310.5	341.87	3.3326e-06	2.5264e-06	442.35	115	75.665	17.106	6.95e-06	26.579	0.00072994	0.00093425	0.00027305	950.22	1.0362e-05	1.1211e-05	1151.6	302.15	1.0081e-05	1.0568e-05	389.77	101.23	66.964	15.35	9.8648e-06	23.87	296.254	206.876	214.612	156.125	300.335	296.623	154.420	161.049	283.109	318.266	158.931	163.429	165.501	172.244	281.650	167.819	-8191	255	
2228.378	1	1	0	0	0.1614	0.13461	0.22991	0.3864	0.2597	0.20295	0.19046	0.15087	0.13319	0.10048	0.23228	0.061146	0.085072	0.18729	0.22629	0.27056	-3.2083	-4.0271	-3.3958	-3.9562	-4.0271	-3.2104	-4.3562	-3.6937	-3.3688	-4.0667	-3.5729	-3.7271	-4.0958	-3.1917	-4	-3.825	427.168	214.247	243.838	502.750	447.697	187.371	452.219	394.849	459.529	456.805	171.726	294.591	257.582	256.628	450.540	369.415	0.00036519	0.00061436	0.00019848	1075	5.7635e-06	2.9313e-06	1311.6	340.52	3.3533e-06	5.45e-06	438.75	114.25	75.302	17.016	3.8343e-06	26.801	0.00072418	0.00094802	0.00027072	946	9.972e-06	1.0636e-05	1145.1	300.62	9.7458e-06	1.0714e-05	388.43	100.82	66.784	15.319	9.841e-06	23.94	277.619	211.199	236.427	156.398	298.962	290.936	154.556	161.034	340.382	276.555	159.194	163.890	165.873	172.157	295.764	167.547	-8191	255	
2228.498	1	1	0	0	0.044253	0.12627	0.28085	0.21279	0.18845	0.22969	0.08457	0.14554	0.25384	0.24698	0.11656	0.11345	0.16069	0.14626	0.26873	0.074566	-2.9958	-4.1833	-3.3937	-3.8292	-4.2354	-3.3	-3.9708	-3.8917	-3.2729	-4.1687	-3.625	-3.4771	-4.325	-3.3583	-3.8708	-3.9625	442.561	389.077	160.199	194.100	486.774	263.591	491.484	414.430	470.772	365.386	188.000	431.076	190.619	298.354	350.789	346.506	0.00037069	0.0003246	0.0001049	1076.3	3.0344e-06	6.0539e-06	1301.7	342.35	4.2276e-06	5.502e-06	442.46	116.48	75.472	17.112	3.9782e-06	26.921	0.00071946	0.00092884	0.00027098	945.97	9.6983e-06	1.0661e-05	1147.9	301.13	1.0236e-05	1.0748e-05	390.52	101.79	66.854	15.384	9.9973e-06	24.154	275.033	206.407	227.369	156.364	341.714	319.911	154.602	161.302	310.146	255.717	158.917	163.343	165.160	171.449	352.546	167.633	-8191	255	
2228.595	1	1	0	0	0.083572	0.092328	0.08534	0.13265	0.12006	0.13303	0.52001	0.13127	0.073054	0.19726	0.4829	0.16225	0.20615	0.278	0.13749	0.095258	-2.925	-4.0771	-3.7521	-3.4375	-4.1292	-3.2625	-3.8354	-4.2438	-3.1896	-4.075	-3.7062	-3.3646	-4.0687	-3.3375	-3.7646	-3.9792	181.242	338.622	443.509	490.139	491.373	457.528	485.920	490.037	198.602	249.428	482.662	431.939	467.161	474.023	375.069	361.654	0.00044987	0.00047224	8.1713e-05	1075.4	5.1331e-06	3.5003e-06	1312.1	342.16	5.9203e-06	4.2667e-06	444.27	116.65	74.585	16.892	6.8899e-06	26.808	0.0007164	0.00095519	0.00026199	947.57	9.9316e-06	1.068e-05	1152.9	301.68	9.8128e-06	1.0457e-05	391.98	102	66.593	15.306	9.8789e-06	24.081	282.808	242.700	280.715	156.418	269.396	349.491	154.403	161.297	281.196	259.927	158.822	163.940	165.364	171.967	281.136	167.741	-8191	255	
2228.691	1	1	0	0	0.21317	0.19856	0.17644	0.075365	0.2128	0.14427	0.22971	0.080136	0.21868	0.12167	0.31684	0.12617	0.054417	0.1848	0.29673	0.039871	-2.8771	-3.8021	-3.7854	-3.3646	-4.0021	-3.3438	-3.7521	-4.0813	-3.3083	-3.9562	-3.8583	-3.3729	-4.1333	-3.6063	-3.4625	-4.2958	201.069	429.157	362.292	237.731	343.979	355.218	488.878	474.408	306.620	260.066	468.614	423.465	362.726	164.865	246.660	316.759	0.0003956	0.00058213	0.00019577	1072.5	6.5544e-06	7.0233e-06	1306.4	339.08	4.4892e-06	1.1696e-06	437.86	114	74.645	16.794	3.0231e-06	26.221	0.0007271	0.00092634	0.0002632	944.87	1.0208e-05	1.0474e-05	1145.2	299.77	1.036e-05	1.0433e-05	387.05	100.46	66.368	15.211	9.9943e-06	23.627	283.300	236.050	233.793	156.341	295.957	291.140	154.573	160.979	318.716	242.382	158.817	163.849	165.665	171.922	305.801	167.463	-8191	255	
2228.787	1	1	0	0	0.20756	0.07322	0.16743	0.056175	0.13851	0.18868	0.25013	0.26219	0.18768	0.25494	0.043016	0.13757	0.21602	0.062566	0.14942	0.21345	-2.9021	-3.8104	-3.7583	-3.4333	-3.9896	-3.4062	-3.5938	-4.3083	-3.2438	-3.9313	-3.9688	-3.2854	-3.975	-3.7	-3.3167	-4.2146	282.461	349.494	273.882	146.730	175.651	355.382	415.620	475.282	278.321	347.231	262.714	483.397	456.164	360.962	242.239	480.093	0.00039964	0.00059502	8.1577e-05	1066.8	4.4519e-06	7.336e-06	1302.1	339.25	3.2875e-06	3.0962e-06	436.93	113.9	74.275	16.743	8.1756e-06	26.635	0.00071997	0.0009723	0.00025919	939.17	9.6095e-06	1.0543e-05	1141.4	298.84	1.0209e-05	1.0409e-05	384.92	100.23	66.339	15.163	9.9205e-06	23.88	287.973	292.501	198.515	156.451	301.055	310.845	154.624	161.036	341.198	183.047	158.336	163.153	165.485	171.578	314.826	167.508	-8191	255	
2228.883	1	1	0	0	0.15154	0.18099	0.057851	0.12022	0.17859	0.11685	0.11193	0.20321	0.026758	0.16149	0.16983	0.071437	0.01459	0.095673	0.23308	0.067812	-2.8417	-3.7458	-3.8312	-3.1813	-4.0771	-3.7208	-3.3208	-4.4062	-3.2938	-3.7562	-4.1896	-3.2812	-4.0146	-3.8083	-3.2812	-4.0021	335.372	400.477	292.044	394.680	176.726	409.403	335.771	441.107	188.086	424.535	148.001	496.679	480.377	152.809	458.306	398.121	0.00040256	0.00055603	0.00020132	1072	5.6323e-06	4.0957e-06	1305.1	339.12	7.1855e-06	6.1303e-06	437.63	113.94	75.367	16.8	5.8595e-06	26.474	0.00072987	0.00097749	0.00026385	942.74	9.7984e-06	1.0541e-05	1143	299.28	9.9194e-06	1.0512e-05	387.25	100.65	66.711	15.162	1.0262e-05	23.929	285.436	211.910	255.011	156.104	282.686	279.446	154.251	160.945	307.586	287.904	158.903	163.926	165.307	172.214	338.071	167.876	-8191	255	
2228.979	1	1	0	0	0.46556	0.11169	0.059957	0.089273	0.211	0.05182	0.22013	0.12222	0.24503	0.1324	0.28571	0.054136	0.30776	0.38644	0.34066	0.094246	-2.9313	-3.7208	-4.0833	-3.3604	-4.05	-3.8854	-3.4396	-4.1896	-3.3812	-3.4313	-4.15	-3.2188	-3.9479	-3.6896	-3.3104	-4.0854	428.901	225.888	357.789	391.652	210.911	154.557	407.885	164.320	184.794	284.122	417.478	218.087	495.023	457.896	502.448	257.716	0.00033871	0.00065592	0.00024546	1069.7	9.6881e-06	2.5404e-06	1304.3	340.47	5.5592e-06	6.5811e-06	440.2	115.29	74.246	16.895	2.5681e-06	26.216	0.00070714	0.00095795	0.00027411	942.56	1.01e-05	1.0575e-05	1147.8	299.85	9.994e-06	1.0786e-05	388.69	101.12	66.213	15.165	9.9198e-06	23.756	294.466	241.461	205.089	156.123	311.699	329.345	154.583	161.089	330.449	310.852	158.540	163.280	165.359	171.740	326.451	167.726	-8191	255	
2229.075	1	1	0	0	0.11716	0.13891	0.090019	0.31336	0.25465	0.07666	0.26495	0.048789	0.022834	0.44958	0.19039	0.057221	0.2597	0.11949	0.16293	0.24222	-2.9437	-3.3187	-4.1	-3.2875	-3.8771	-3.9562	-3.4292	-4.125	-3.6917	-3.1437	-4.2625	-3.2396	-3.6312	-3.9854	-3.2958	-4.0188	382.127	194.615	266.043	470.210	214.278	189.567	446.009	277.489	226.947	144.743	416.459	312.647	166.006	314.942	254.672	402.264	0.0004263	0.00043631	0.00017859	1065.5	8.621e-06	2.1248e-06	1300	338.83	7.1462e-06	5.4783e-06	438.05	112.78	74.115	16.666	6.2892e-06	26.319	0.00071336	0.00098934	0.00025542	939.24	9.8789e-06	1.0314e-05	1143.5	298.15	1.0046e-05	1.073e-05	386.34	99.914	66.124	15.074	9.9497e-06	23.654	284.305	234.168	253.188	155.889	324.435	327.869	154.450	161.384	330.004	360.226	158.864	163.719	166.080	171.707	301.981	167.940	-8191	255	
2229.172	1	1	0	0	0.19006	0.097145	0.17265	0.20423	0.19157	0.2371	0.38624	0.15372	0.144	0.20186	0.034147	0.25208	0.10156	0.15845	0.1609	0.065903	-3.2812	-3.4188	-4.2438	-3.3583	-3.6833	-4.2042	-3.4646	-3.8563	-3.7208	-3.2042	-4.1771	-3.4875	-3.6958	-4.075	-3.2417	-3.7979	386.897	369.570	273.564	477.859	358.817	188.324	458.488	365.538	389.635	251.862	260.446	426.483	405.522	427.600	278.801	406.707	0.00045202	0.00027167	0.00019414	1064.4	6.4545e-06	8.1068e-06	1300.9	337.75	3.7947e-06	5.0338e-06	441.82	113.49	74.374	16.936	5.2604e-06	26.874	0.00071283	0.00097012	0.0002702	939.51	1.0004e-05	1.0646e-05	1140.4	297.75	9.7711e-06	1.0454e-05	388.33	100.28	66.215	15.209	1.0021e-05	24.02	287.963	476.525	235.672	156.143	301.427	288.799	154.008	160.695	350.985	297.993	158.635	162.922	165.215	171.832	308.349	167.643	-8191	255	
2229.292	1	1	0	0	0.10848	0.22377	0.060866	0.1123	0.22203	0.10497	0.22012	0.13239	0.17071	0.18673	0.099288	0.096363	0.10394	0.039221	0.15801	0.18853	-3.3917	-3.1229	-4.0458	-3.55	-3.3917	-4.1604	-3.2188	-3.9938	-3.6917	-3.1792	-4.1229	-3.4437	-3.3458	-4.1208	-3.3583	-3.8854	363.774	156.035	439.797	456.364	432.498	262.751	413.039	481.685	202.285	465.310	365.295	489.665	464.790	454.459	213.086	447.890	0.00039333	0.00067109	0.00017123	1066.2	2.078e-06	2.8335e-06	1306.5	339.3	7.6088e-06	1.5207e-06	443.32	115.55	75.314	16.959	4.8274e-06	26.988	0.00072859	0.00096695	0.00026728	940.58	1.0383e-05	1.0941e-05	1143.5	299.92	9.8563e-06	1.0841e-05	390.36	101.6	66.843	15.359	1.0303e-05	24.238	279.102	198.934	192.273	156.197	273.531	180.412	154.338	161.246	311.156	174.077	159.002	163.706	165.663	171.870	298.173	167.708	-8191	255	
2229.387	1	1	0	0	0.077914	0.23833	0.018661	0.29536	0.067246	0.092689	0.33758	0.41162	0.22573	0.031868	0.17677	0.022006	0.19689	0.24674	0.16391	0.12903	-3.5708	-3.3	-3.9646	-3.5917	-3.2896	-4.1833	-3.3771	-3.7479	-3.9562	-3.2271	-4.2396	-3.8479	-3.1688	-4.1792	-3.3542	-3.7812	144.603	373.690	402.083	144.111	493.233	213.202	435.456	447.077	318.704	177.353	479.195	152.197	414.692	199.439	420.478	354.036	0.00037569	0.00057773	0.00021169	1067.6	7.5878e-06	5.1172e-06	1307.5	340.57	7.5296e-06	6.7375e-06	441.34	115.22	74.354	17.049	5.7009e-06	26.87	0.00070301	0.00097054	0.00026515	941.45	1.0333e-05	1.0517e-05	1147.3	300.52	1.0015e-05	1.083e-05	390.91	101.67	66.271	15.296	1.0155e-05	24.183	286.909	232.565	227.239	156.177	290.865	323.081	154.094	160.743	308.669	334.721	158.402	163.256	164.662	171.502	262.188	167.521	-8191	255	
2229.483	1	1	0	0	0.19408	0.098105	0.26218	0.023061	0.19899	0.14298	0.26494	0.28301	0.086954	0.049336	0.10474	0.076309	0.40557	0.093554	0.17602	0.24654	-3.75	-3.1729	-3.9229	-3.8	-3.2021	-4.1312	-3.3187	-3.6063	-4.1687	-3.0021	-3.825	-3.9729	-3.3	-4.1333	-3.4167	-3.65	365.440	167.276	334.546	464.562	252.724	279.043	469.810	389.178	324.104	387.812	437.630	274.446	480.869	198.216	352.385	402.681	0.00035519	0.00041769	0.00011122	1063.9	7.1366e-06	2.9299e-06	1295.3	338.52	7.5865e-06	4.9599e-06	435.96	114.19	74.874	16.936	6.209e-06	26.602	0.00072404	0.00096419	0.00026825	936.78	1.0096e-05	1.0446e-05	1137.9	298.98	1.0057e-05	1.0796e-05	385.34	100.49	66.394	15.199	1.0307e-05	23.908	295.175	240.498	196.283	156.010	298.303	315.820	153.919	160.979	315.717	238.913	158.339	163.369	165.153	171.598	313.484	167.314	-8191	255	
2229.579	1	1	0	0	0.15577	0.15261	0.16175	0.099258	0.25214	0.17977	0.44093	0.26443	0.18378	0.29087	0.40328	0.08373	0.12074	0.14635	0.099888	0.26218	-3.7396	-3.2042	-3.8875	-4.0771	-3.2979	-4.125	-3.6562	-3.5958	-4.2292	-3.2083	-4.0312	-3.9833	-3.0687	-4.1979	-3.5229	-3.4229	470.983	467.507	370.708	435.843	343.093	410.911	451.247	420.203	302.631	275.402	457.205	460.382	473.994	455.943	348.723	447.309	0.0003726	0.00059265	0.00010306	1053.5	3.2127e-06	7.2215e-06	1294	337.29	6.228e-06	5.4814e-06	437.63	114.41	75.442	16.876	5.8521e-06	26.834	0.00070146	0.00096506	0.00026957	932.72	9.9587e-06	1.0624e-05	1135.9	298.14	9.782e-06	1.0636e-05	386.62	100.72	66.314	15.198	1.0161e-05	24.055	281.114	279.759	228.080	156.095	269.690	315.609	154.414	160.953	327.754	271.016	158.477	163.672	164.858	172.114	290.710	167.367	-8191	255	
2229.675	1	1	0	0	0.12766	0.031438	0.2775	0.24283	0.2361	0.1384	0.35695	0.083738	0.044148	0.090263	0.19029	0.16971	0.10423	0.16001	0.15855	0.078514	-3.8146	-3.3333	-3.6583	-4.0062	-3.1229	-4.1167	-3.9062	-3.5354	-4.225	-3.4437	-3.7021	-4.1354	-3.2313	-4.0188	-3.6583	-3.2771	308.328	380.198	313.142	446.877	172.034	378.137	424.851	442.438	442.951	381.750	158.503	144.132	232.574	180.781	270.288	254.633	0.00038894	0.00036568	0.00027321	1063.3	5.1664e-06	4.5288e-06	1302.8	335.52	5.4631e-06	6.8008e-06	438.04	114.08	73.996	16.929	4.13e-06	26.852	0.00074588	0.00096938	0.00026772	936.26	1.0229e-05	1.0574e-05	1142.3	297.39	1.0134e-05	1.0702e-05	387.45	101.17	66.247	15.231	1.0114e-05	24.213	288.646	252.565	230.257	155.715	287.376	302.152	154.036	160.922	275.596	275.216	158.840	163.745	165.412	171.769	360.427	167.620	-8191	255	
2229.771	1	1	0	0	0.069139	0.12197	0.035143	0.19202	0.16856	0.065885	0.53735	0.1271	0.18643	0.078804	0.34427	0.25394	0.25769	0.026365	0.26995	0.026811	-3.8333	-3.2979	-3.5167	-4.2396	-3.2333	-3.7625	-3.9229	-3.3229	-4.1271	-3.5729	-3.5833	-4.2042	-3.1104	-3.8187	-3.7667	-3.325	229.230	201.911	180.216	483.348	324.968	249.619	418.681	403.009	225.914	403.694	386.505	229.146	398.821	175.669	171.187	261.031	0.00033661	0.0003184	0.0002498	1064.3	7.3218e-06	6.0943e-06	1301.7	337.35	3.9251e-06	5.188e-06	438.65	113.48	74.402	16.792	6.2827e-06	26.254	0.00071659	0.00096086	0.00026582	938.6	1.044e-05	1.0745e-05	1145	298.22	9.6415e-06	1.0737e-05	388.15	100.31	65.767	15.146	9.8453e-06	23.761	294.262	238.790	201.632	155.546	295.789	267.851	153.598	160.642	340.462	294.442	158.361	162.928	164.858	171.198	352.379	167.411	-8191	255	
2229.892	1	1	0	0	0.19254	0.11189	0.19442	0.22369	0.074293	0.16951	0.21535	0.23583	0.06454	0.099678	0.31636	0.1881	0.076445	0.15558	0.059652	0.16177	-3.7396	-3.6729	-3.3854	-4.2479	-3.2229	-3.6521	-4.0312	-3.3646	-4.0479	-3.7562	-3.3083	-4.2021	-3.2354	-3.6458	-3.9062	-3.1167	164.572	374.744	171.834	444.988	347.350	356.345	435.754	484.936	487.550	230.621	460.842	152.137	454.928	218.519	457.546	471.348	0.00032845	0.00013438	0.00012451	1057.2	5.0978e-06	7.0434e-06	1289.9	335.63	3.166e-06	2.0556e-06	432.34	112.21	73.273	16.565	7.241e-06	26.375	0.00071354	0.00094056	0.00026919	933.19	9.8123e-06	1.0739e-05	1132.6	295.75	9.9658e-06	1.0556e-05	382.97	99.344	65.482	14.974	1.0348e-05	23.635	290.266	225.343	285.731	155.390	315.141	297.990	153.440	160.451	340.859	285.159	158.404	163.218	164.538	171.085	280.439	166.989	-8191	255	
2229.988	1	1	0	0	0.24006	0.1489	0.066287	0.24963	0.0089006	0.1227	0.042307	0.17014	0.084467	0.17975	0.20124	0.067644	0.16301	0.099621	0.20629	0.20382	-3.5354	-3.6771	-3.3229	-4.1271	-3.4229	-3.675	-4.4417	-3.4021	-3.9062	-3.8417	-3.4167	-4.1917	-3.4646	-3.6708	-4.1188	-3.25	311.633	405.001	492.635	402.256	416.114	280.670	457.228	457.556	433.855	477.519	464.028	152.965	364.432	467.225	354.255	458.136	0.00042273	0.00026193	0.00027063	1060.5	2.2873e-06	3.894e-06	1289.8	335.45	6.2564e-06	5.121e-06	433.92	113.59	73.904	16.698	6.9599e-06	26.55	0.00072792	0.00093883	0.00027733	933.54	1.0373e-05	1.0377e-05	1134.7	295.74	9.8259e-06	1.0675e-05	383.85	99.934	65.619	15.111	9.7611e-06	23.839	286.743	270.696	216.692	155.651	340.197	255.283	153.495	160.448	301.202	266.109	158.256	163.153	164.398	172.185	379.891	166.834	-8191	255	
2230.084	1	1	0	0	0.2082	0.040734	0.065856	0.13361	0.21659	0.16872	0.2312	0.15417	0.25979	0.12148	0.12796	0.19942	0.10821	0.067787	0.060213	0.31106	-3.6375	-3.675	-3.2812	-4.2417	-3.4792	-3.5042	-4.3875	-3.5417	-3.7708	-3.9688	-3.4208	-4.2875	-3.5875	-3.2771	-4.0417	-3.3771	355.376	147.079	485.836	385.936	309.525	210.638	394.938	171.845	180.677	385.851	380.146	164.212	382.008	399.209	338.028	443.297	0.0003771	6.0152e-05	0.00010281	1059.9	5.9275e-06	7.3931e-06	1291.9	336.29	8.3031e-06	2.023e-06	436.71	113.63	73.755	16.796	9.0379e-06	26.8	0.00070634	0.00095769	0.00026738	934.34	9.9697e-06	1.0756e-05	1137	297.02	9.8983e-06	1.0441e-05	385.85	100.36	65.682	15.116	9.7665e-06	24.069	284.827	425.767	200.721	155.559	314.976	285.148	153.866	160.263	313.384	379.679	157.979	163.330	164.568	171.844	296.366	167.553	-8191	255	
2230.156	1	1	0	0	0.17246	0.11259	0.15894	0.16049	0.10555	0.21001	0.24639	0.029016	0.18259	0.19115	0.298	0.22552	0.22648	0.24682	0.076672	0.33464	-3.4313	-3.9375	-3.2062	-3.9646	-3.4833	-3.5104	-4.3104	-3.4729	-3.7104	-4.1667	-3.4396	-4.1542	-3.6583	-3.2729	-4.1042	-3.4604	165.874	207.968	150.978	169.284	343.557	472.527	434.861	466.010	423.195	184.241	427.073	453.855	364.764	414.170	360.159	408.052	0.00040301	0.00035553	9.3964e-05	1060.2	8.8689e-06	1.02e-05	1304.2	335.63	5.5799e-06	7.7351e-06	434.71	112.64	73.355	16.771	6.1712e-06	26.391	0.00070387	0.00092121	0.00027321	935.61	9.855e-06	1.024e-05	1140.2	295.8	9.6389e-06	1.0848e-05	385	99.549	65.463	15.015	1.0008e-05	23.622	290.121	205.504	218.357	155.870	323.066	319.865	154.117	160.477	319.573	272.666	158.569	163.141	165.116	171.612	309.541	166.939	-8191	255	
2230.275	1	1	0	0	0.026309	0.17902	0.069754	0.17331	0.15184	0.043915	0.29885	0.20844	0.10715	0.12525	0.37319	0.12405	0.1093	0.10463	0.20979	0.11002	-3.4167	-4.1146	-3.2271	-4.0813	-3.9979	-3.1	-4.4625	-3.4167	-3.4896	-4.1062	-3.3521	-4.0687	-3.8729	-3.2729	-4.2063	-3.4604	302.604	413.021	257.717	172.918	144.886	271.867	400.940	228.808	176.457	276.640	144.044	254.760	355.020	152.719	273.088	448.473	0.00033902	0.00057234	5.7053e-05	1053.1	3.5853e-06	6.394e-06	1290.7	332.47	5.1166e-06	6.1368e-06	431.48	112.72	73.837	16.663	6.6837e-06	26.246	0.00072583	0.00093992	0.00025762	930.42	9.9345e-06	1.0822e-05	1131.7	293.98	1.0141e-05	1.0298e-05	381.77	99.208	65.371	14.971	1.0054e-05	23.549	279.703	284.687	231.429	155.999	316.561	292.819	153.937	160.566	339.618	329.337	158.584	163.321	165.165	171.731	297.845	166.897	-8191	255	
2230.371	1	1	0	0	0.032028	0.26192	0.0031922	0.21176	0.1912	0.13187	0.12161	0.16398	0.20184	0.15121	0.12496	0.31712	0.30883	0.18129	0.06935	0.14766	-3.0667	-4.1021	-3.1188	-3.8146	-3.8792	-3.1667	-4.2229	-3.6646	-3.2208	-3.9333	-3.3438	-3.6708	-3.9292	-3.2146	-4.0771	-3.6396	442.834	226.432	387.167	494.283	225.246	255.106	396.980	399.298	187.736	225.236	454.002	391.327	343.208	195.923	455.912	423.978	0.00036706	0.00037885	0.00018258	1055	2.4815e-06	6.9068e-06	1289.2	335.93	5.3784e-06	2.5373e-06	433.16	113.14	74.426	16.851	5.4367e-06	26.649	0.00070367	0.00095853	0.00025155	929.36	1.0006e-05	1.0602e-05	1132.1	295.61	1.009e-05	1.0325e-05	384.07	99.817	66.055	15.11	1.0138e-05	23.929	286.117	218.219	182.818	155.874	319.480	308.728	153.804	160.445	313.917	313.121	158.389	163.062	164.923	171.602	257.494	166.931	-8191	255	
2230.467	1	1	0	0	0.065369	0.11244	0.051745	0.18287	0.083279	0.14165	0.094406	0.088917	0.16925	0.14038	0.28255	0.099757	0.13848	0.10538	0.1901	0.1921	-2.8479	-4.1292	-3.4729	-3.5417	-3.9854	-3.0667	-4.1125	-3.9271	-3.3792	-4.1375	-3.4896	-3.5708	-4.1312	-3.1688	-3.8396	-3.8438	433.633	447.687	142.734	195.031	261.668	401.469	223.289	348.167	440.338	434.545	434.288	473.229	249.428	480.507	288.334	388.254	0.00040646	0.00032129	6.4413e-05	1060.7	8.2931e-06	8.8318e-06	1294.4	337.16	8.0656e-06	3.6219e-06	437.51	114.09	74.514	16.961	4.4434e-06	27.253	0.00072263	0.00089011	0.00026824	931.91	1.0304e-05	1.0256e-05	1137.4	297.18	9.9079e-06	1.0698e-05	387.67	100.74	65.937	15.254	1.0047e-05	24.314	286.970	196.744	226.392	155.776	274.658	308.298	154.056	160.732	340.433	285.728	158.045	163.046	165.626	171.308	336.570	167.024	-8191	255	
2230.563	1	1	0	0	0.19516	0.031302	0.06294	0.22058	0.18234	0.2966	0.32664	0.15105	0.052182	0.06182	0.26339	0.088357	0.18762	0.26071	0.12678	0.2205	-2.9125	-3.9062	-3.375	-3.5604	-4.0938	-3.0875	-3.9646	-3.9521	-3.1521	-4.0854	-3.65	-3.35	-4.0625	-3.2333	-3.7896	-4.0292	447.742	427.949	244.196	481.131	293.276	294.916	473.179	399.775	214.435	297.089	194.415	164.557	400.478	169.168	483.405	409.008	0.00036809	0.00021875	0.0001006	1065.6	3.8645e-06	6.5833e-06	1298.3	338.13	5.9469e-06	2.9765e-06	436.77	113.39	74.004	16.96	2.7453e-06	26.664	0.00072477	0.00094571	0.00025757	936.99	9.4389e-06	1.0699e-05	1139.2	297.56	9.7116e-06	1.0533e-05	385.52	100.11	65.858	15.162	9.8232e-06	23.828	286.407	180.016	204.775	155.878	270.218	362.882	154.312	160.621	333.621	313.199	158.403	163.049	165.661	170.897	376.384	167.264	-8191	255	
2230.684	1	1	0	0	0.25272	0.12147	0.3263	0.090072	0.19626	0.24984	0.25024	0.0774	0.21768	0.10687	0.1122	0.07465	0.20082	0.1104	0.25381	0.17951	-2.8688	-3.8875	-3.5312	-3.3354	-4.0958	-3.4667	-3.7771	-4.0042	-3.0312	-4.0604	-3.7687	-3.2333	-4.1708	-3.1646	-3.5375	-3.975	438.661	261.962	315.699	240.383	254.020	406.866	143.952	447.858	274.460	479.617	308.244	368.605	394.079	186.370	149.519	374.904	0.00036475	0.00049257	0.00011123	1058.3	6.1663e-06	4.4699e-06	1289.9	336.73	5.4571e-06	3.4117e-06	431.87	113.03	73.951	16.664	4.2955e-06	26.295	0.00070644	0.00095266	0.00026411	931.04	9.8289e-06	1.064e-05	1131.1	296.62	9.6815e-06	1.0375e-05	381.87	99.586	65.611	15.015	9.798e-06	23.657	288.355	257.321	194.800	155.765	292.387	307.048	154.062	160.702	353.385	223.666	158.351	163.322	165.450	171.972	263.982	166.935	-8191	255	
2230.755	1	1	0	0	0.13318	0.14159	0.16453	0.17182	0.039974	0.40532	0.066399	0.23084	0.21613	0.20306	0.17661	0.079796	0.10597	0.32181	0.14543	0.13096	-2.8146	-4.1292	-3.825	-3.3458	-4.0729	-3.4375	-3.7208	-4.0083	-3.1063	-3.9083	-3.9646	-3.3	-4.2708	-3.4667	-3.1875	-4.2229	156.369	393.263	175.157	502.360	480.538	326.302	336.976	373.106	243.910	236.442	475.173	483.759	448.300	482.885	215.648	351.869	0.00037697	0.00036134	0.0001681	1055.2	6.3879e-06	2.6113e-06	1287.1	335.88	3.2124e-06	5.0343e-06	433.69	113.22	73.194	16.692	5.7859e-06	26.606	0.00070622	0.00092621	0.00026684	929.65	1.0153e-05	1.0624e-05	1131.4	295.88	9.9754e-06	1.0549e-05	383.31	99.846	65.584	15.046	9.9104e-06	23.847	285.496	191.563	211.455	156.231	308.147	302.345	154.332	160.985	300.766	274.823	158.634	163.335	165.139	171.602	264.702	167.494	-8191	255	
2230.852	1	1	0	0	0.12528	0.22693	0.16853	0.2196	0.03065	0.11101	0.15854	0.11011	0.19517	0.073885	0.16058	0.32988	0.17213	0.1189	0.32206	0.02238	-2.9458	-3.7417	-3.8917	-3.3208	-4.0188	-3.5875	-3.5167	-4.2271	-3.0729	-3.8771	-3.9792	-3.3167	-4.1521	-3.6833	-3.3604	-4.2833	256.162	195.783	436.903	476.273	183.065	218.966	448.424	153.034	368.150	258.265	373.848	498.464	319.542	378.513	241.542	421.333	0.00030144	0.00033104	0.00010747	1060	3.3224e-06	3.1944e-06	1301.5	335.6	5.2192e-06	6.0106e-06	438.21	113.35	74.387	16.793	6.0367e-06	26.764	0.00071853	0.00095516	0.00026297	932.17	1.0071e-05	1.0345e-05	1138.1	296.72	1.0052e-05	1.057e-05	385.59	100.44	65.961	15.161	9.787e-06	23.975	292.384	201.066	321.766	155.562	325.710	327.946	154.121	160.709	295.263	298.011	158.585	163.225	165.456	171.700	314.802	167.228	-8191	255	
2230.972	1	1	0	0	0.087989	0.20332	0.23328	0.18218	0.18421	0.16618	0.17274	0.097119	0.21947	0.10603	0.34249	0.051747	0.13827	0.14605	0.21599	0.05723	-3.0708	-3.575	-3.9521	-3.2896	-3.8958	-3.6833	-3.4104	-4.1562	-3.2125	-3.5167	-4.1438	-3.1813	-3.9771	-3.8646	-3.1437	-4.0833	235.096	374.819	173.157	471.814	459.921	437.467	474.392	491.372	355.290	230.088	501.838	386.147	370.113	492.199	157.786	475.170	0.0003728	0.00072237	0.00012058	1056.4	6.7395e-06	6.3399e-06	1289.5	335.13	4.098e-06	2.8674e-06	433.43	111.9	73.796	16.67	8.7526e-06	26.211	0.00070515	0.00095558	0.00026525	929.19	9.8805e-06	1.0225e-05	1135	295.69	9.912e-06	9.918e-06	383.02	98.96	65.421	14.963	9.9832e-06	23.433	289.019	253.220	232.010	156.150	272.569	308.465	154.213	160.825	292.687	286.620	158.674	163.136	165.296	171.545	316.783	167.549	-8191	255	
2231.068	1	1	0	0	0.28302	0.030155	0.12282	0.067336	0.16692	0.2593	0.26561	0.064865	0.25721	0.093508	0.17473	0.13271	0.26211	0.21537	0.38836	0.029409	-2.9854	-3.3729	-3.9188	-3.1146	-3.7938	-3.875	-3.4833	-4.3729	-3.3875	-3.3458	-4.1458	-3.3896	-3.8063	-3.9521	-3.1646	-4.2292	413.500	184.736	449.084	155.561	325.695	458.771	396.395	454.658	435.228	487.070	182.788	390.479	486.625	147.454	272.088	164.314	0.00038829	0.00040275	0.0001134	1050.9	3.8453e-06	3.0541e-06	1284.8	333.66	4.0374e-06	4.9972e-06	431.16	111.15	73.996	16.602	1.9238e-06	26.116	0.00069966	0.0008904	0.00025295	927.45	1.0007e-05	1.01e-05	1126.8	294.33	9.8871e-06	1.0724e-05	380.35	98.322	65.397	14.91	9.8715e-06	23.528	283.085	229.575	228.270	156.149	326.867	184.203	153.987	160.915	308.977	278.665	158.549	163.366	165.526	171.975	334.587	167.538	-8191	255	
2231.164	1	1	0	0	0.14836	0.052949	0.053554	0.10618	0.18516	0.027988	0.28599	0.26908	0.24814	0.13186	0.14539	0.15161	0.13856	0.14118	0.167	0.11801	-3.2687	-3.2229	-4.1438	-3.3583	-3.6688	-3.8979	-3.3354	-4.0687	-3.5333	-3.3396	-4.0083	-3.4708	-3.6354	-4.1104	-3.3604	-4.1083	161.290	484.254	364.270	260.850	368.544	459.167	186.516	489.445	289.764	440.360	338.278	499.876	390.376	471.649	459.190	472.535	0.0003884	0.00064882	0.00010074	1057.8	4.8788e-06	3.3958e-06	1279.4	334.04	6.3249e-06	4.6076e-06	431.35	111.89	73.269	16.756	6.1834e-06	26.246	0.00069176	0.00095475	0.00024998	929.77	9.9355e-06	1.0634e-05	1126.5	295.14	9.6703e-06	1.0618e-05	381.75	99.167	65.448	14.986	9.7819e-06	23.683	290.299	212.962	245.155	156.040	309.339	250.194	154.454	161.021	311.365	261.647	158.837	163.390	165.558	171.816	300.135	167.702	-8191	255	
2231.283	1	1	0	0	0.073894	0.15765	0.23033	0.2069	0.20417	0.39658	0.2315	0.23675	0.12353	0.12483	0.093977	0.092545	0.14204	0.096495	0.18845	0.046517	-3.2979	-3.2604	-4.1062	-3.6958	-3.4458	-4.0458	-3.2292	-4.1542	-3.8438	-3.2729	-4.2375	-3.5563	-3.4625	-4.0813	-3.2104	-3.8417	391.246	355.166	338.350	461.193	203.032	502.481	438.005	416.472	408.441	478.376	402.668	430.758	171.842	348.875	177.777	502.313	0.00038295	0.0002924	0.00013037	1056.6	2.7116e-06	3.9747e-06	1294.7	336.23	6.42e-06	1.3279e-06	436	113.61	74.819	16.943	7.4408e-06	26.756	0.00069762	0.0009535	0.00025748	930.19	1e-05	1.0585e-05	1134.8	295.84	9.416e-06	1.0294e-05	386.28	100.16	66.046	15.077	9.3972e-06	23.864	285.811	243.188	257.382	156.266	296.177	278.624	154.271	161.384	319.288	301.897	158.811	163.494	165.497	172.076	314.596	167.692	-8191	255	
2231.355	1	1	0	0	0.11904	0.30785	0.11097	0.068767	0.046158	0.23856	0.14098	0.28358	0.12762	0.11786	0.25187	0.097171	0.20076	0.19538	0.14983	0.10453	-3.4542	-3.2146	-4.0437	-3.6917	-3.3854	-3.9688	-3.4583	-3.9354	-4.0979	-3.3167	-4.225	-3.5167	-3.2833	-4.0312	-3.1583	-3.8167	409.035	197.485	298.386	213.759	458.029	350.566	444.288	434.709	253.779	211.209	484.558	410.534	229.401	392.769	273.426	242.236	0.00040464	0.000733	9.2425e-05	1063.2	5.5731e-06	3.0196e-06	1295.8	335.69	6.706e-06	3.3412e-06	434	111.6	73.381	16.702	4.2547e-06	26.158	0.00066692	0.00092426	0.00024915	932.42	9.5953e-06	9.6241e-06	1133.7	295.54	9.5845e-06	9.8235e-06	382.68	98.567	65.035	15.002	9.7571e-06	23.357	292.363	251.358	299.687	156.095	334.900	343.439	154.253	161.482	326.368	313.191	158.590	163.421	165.881	171.867	292.347	167.581	-8191	255	
2231.451	1	1	0	0	0.096583	0.20718	0.18009	0.093195	0.049484	0.25776	0.22158	0.12755	0.043999	0.09421	0.14778	0.26329	0.10338	0.21276	0.094555	0.3256	-3.6729	-3.1083	-3.8688	-3.6437	-3.2875	-4.0646	-3.5521	-3.7333	-4.0104	-3.2208	-4.0354	-3.9479	-3.2354	-4.1312	-3.2479	-3.6208	261.331	204.933	418.814	408.425	352.109	378.356	406.900	261.944	199.663	442.569	373.660	169.470	282.077	240.008	268.257	151.199	0.00033019	0.00040435	9.8248e-05	1054.2	5.3291e-06	7.8266e-06	1286.7	332.55	5.1507e-06	1.1281e-06	430.63	111.48	74.52	16.601	4.8863e-06	26.157	0.00068778	0.00091881	0.0002567	925.83	9.8206e-06	1.0046e-05	1125.4	294.45	9.3523e-06	1.0056e-05	381.13	98.475	65.412	14.928	9.7866e-06	23.483	286.909	232.309	200.669	156.504	293.945	291.384	154.260	161.549	274.870	352.149	158.725	163.269	165.035	171.752	325.945	167.747	-8191	255	
2231.572	1	1	0	0	0.077136	0.14214	0.24996	0.14604	0.16138	0.1483	0.33479	0.12838	0.084239	0.32649	0.4078	0.057115	0.017744	0.053357	0.24296	0.097014	-3.7938	-3.2583	-3.9062	-3.8958	-3.2687	-4.2542	-3.6875	-3.5438	-4.1188	-3.2083	-3.95	-3.7708	-3.2062	-4.1583	-3.6583	-3.5521	474.712	284.515	246.019	454.610	189.443	369.054	407.947	399.359	188.933	192.195	152.296	146.700	391.760	150.115	419.375	482.204	0.00033565	0.00032107	5.6038e-05	1052	5.3475e-06	6.2581e-06	1282.2	335.68	6.1876e-06	1.8715e-06	435.16	112.49	74.267	16.852	1.3896e-06	26.452	0.00068652	0.00094632	0.00026415	925.22	9.7132e-06	1.0415e-05	1124.5	295.99	9.3594e-06	1.0355e-05	383.46	99.153	65.532	15.053	9.8004e-06	23.628	294.316	220.579	208.326	156.116	321.149	326.778	154.353	161.159	308.203	243.039	158.970	163.578	165.790	172.228	361.259	167.764	-8191	255	
2231.668	1	1	0	0	0.093494	0.2165	0.18661	0.28246	0.086622	0.14122	0.20891	0.34769	0.051998	0.046852	0.11477	0.21364	0.10614	0.21463	0.08508	0.053841	-4.0312	-3.3812	-3.7208	-4.0229	-3.2562	-3.9792	-3.8833	-3.5	-4.2354	-3.4854	-3.85	-4.3229	-3.2771	-4.1271	-3.7875	-3.425	400.621	382.861	178.235	432.359	466.799	437.974	434.648	431.491	165.362	387.637	501.056	431.593	422.498	444.687	256.958	273.198	0.00035559	0.0003487	7.0579e-05	1056.2	6.5109e-06	6.0182e-06	1288	335.8	5.6246e-06	2.5104e-06	436.34	114.19	74.417	16.795	9.1439e-06	26.479	0.0006798	0.00089995	0.00025402	927.1	9.749e-06	1.0108e-05	1131	296.31	9.6789e-06	1.0547e-05	384.99	100.46	65.847	15.052	9.6515e-06	23.716	282.924	283.515	324.358	156.540	323.457	300.699	154.564	161.525	291.059	317.519	158.943	163.567	165.438	171.995	319.117	167.654	-8191	255	
2231.764	1	1	0	0	0.33044	0.073733	0.15888	0.16507	0.26833	0.010908	0.23402	0.27131	0.096107	0.027948	0.23586	0.15322	0.11064	0.30136	0.25227	0.18762	-3.8646	-3.4792	-3.5292	-4.175	-3.2042	-3.9875	-3.9938	-3.325	-4.2583	-3.4688	-3.6708	-4.2917	-3.1979	-3.8729	-3.8458	-3.4021	308.185	280.543	387.129	152.327	187.518	419.390	412.549	434.285	222.105	417.841	493.918	438.944	391.354	354.888	147.476	155.791	0.00040723	0.00074715	0.00014192	1058.4	2.722e-06	3.7857e-06	1285.5	334.26	5.9996e-06	3.4607e-06	435.28	111.32	73.622	16.579	7.1703e-06	25.954	0.00067821	0.00090952	0.00025454	930.57	9.7026e-06	1.0107e-05	1127.9	295.16	9.571e-06	1.0195e-05	381.89	98.241	65.084	14.91	9.5418e-06	23.319	279.526	186.934	222.592	155.939	316.847	266.393	154.550	161.291	319.273	325.505	159.106	163.861	165.607	172.095	312.953	167.924	-8191	255	
2231.860	1	1	0	0	0.089285	0.024548	0.294	0.1428	0.11217	0.057842	0.26188	0.41503	0.327	0.13834	0.22918	0.26138	0.19441	0.097597	0.090642	0.079577	-3.7083	-3.5479	-3.2313	-4.2125	-3.1646	-3.8854	-4.0833	-3.3063	-4.0917	-3.6688	-3.5729	-4.2521	-3.4083	-3.8438	-4.2063	-3.3854	286.918	201.854	366.657	382.519	388.434	295.559	432.482	502.411	339.024	462.813	239.829	280.495	451.358	145.424	223.400	193.730	0.00037749	0.00019262	8.1119e-05	1059.2	4.8327e-06	2.4276e-06	1280.2	333.36	5.8865e-06	4.6282e-06	430.97	112.38	73.977	16.748	2.0341e-06	26.272	0.00067911	0.00091532	0.00025321	929.69	9.6685e-06	9.8394e-06	1124.3	294.5	9.3139e-06	1.0313e-05	380.65	98.786	65.686	15.027	9.9366e-06	23.536	282.172	285.507	199.110	156.360	324.921	296.884	154.400	161.140	307.917	260.762	159.202	163.534	165.988	171.895	369.299	167.335	-8191	255	
2231.981	1	1	0	0	0.14063	0.084003	0.12874	0.14276	0.11668	0.051682	0.37106	0.10919	0.050746	0.088562	0.29186	0.16913	0.14636	0.14	0.029537	0.12066	-3.825	-3.7958	-3.3625	-4.2979	-3.4396	-3.5958	-4.2229	-3.4146	-4.0792	-3.6667	-3.2896	-4.2521	-3.4708	-3.6479	-4.1562	-3.4188	198.718	236.678	215.726	494.999	145.388	374.531	435.393	318.834	244.399	172.134	184.305	194.655	422.654	390.400	352.565	257.633	0.00038486	0.00048603	2.1072e-05	1060.9	2.3947e-06	7.2836e-06	1286.3	336.29	5.3508e-06	5.214e-06	436.61	114.05	74.887	16.886	9.8577e-06	26.43	0.00067758	0.00093188	0.00026172	928.27	9.7785e-06	1.0094e-05	1128.8	296.41	9.6901e-06	1.0122e-05	383.76	99.991	65.895	15.14	9.6639e-06	23.79	282.816	245.310	405.699	156.484	276.837	339.298	154.541	161.402	336.051	274.250	158.848	163.663	165.364	172.091	309.972	167.821	-8191	255	
2232.053	1	1	0	0	0.50235	0.047301	0.054108	0.4032	0.23455	0.14584	0.24043	0.36521	0.24779	0.10406	0.17616	0.10421	0.167	0.18954	0.17045	0.081833	-3.6271	-3.7938	-3.1583	-4.3354	-3.3438	-3.65	-4.275	-3.3354	-3.8708	-3.8896	-3.3708	-4.175	-3.6375	-3.5792	-4.2583	-3.3833	213.149	489.330	430.518	498.864	447.417	257.492	423.947	426.460	399.716	487.892	457.516	494.109	465.516	417.923	313.697	163.045	0.00037862	0.00035652	5.9886e-05	1060.5	5.689e-06	4.4132e-06	1290.1	336.97	6.9802e-06	3.555e-06	439.2	115.04	75.028	17.051	6.6529e-06	26.607	0.0006933	0.00092086	0.0002613	932.82	9.4025e-06	1.0229e-05	1130.8	297.09	9.7247e-06	1.0418e-05	386.81	100.53	66.06	15.217	9.8826e-06	23.786	286.932	225.344	293.917	156.551	303.497	298.126	154.642	161.422	312.387	311.265	159.219	164.260	165.231	171.977	332.260	167.773	-8191	255	
2232.149	1	1	0	0	0.12523	0.030844	0.28941	0.13381	0.29602	0.18444	0.11325	0.3165	0.096765	0.073995	0.24539	0.16491	0.060791	0.14725	0.08216	0.21239	-3.5687	-3.8688	-3.2188	-4.0583	-3.5292	-3.4688	-4.2917	-3.3625	-3.6542	-4.0833	-3.4208	-4.025	-3.6875	-3.3646	-4.1229	-3.475	149.351	462.015	307.381	434.593	232.856	497.141	394.671	151.010	486.412	421.320	197.487	210.964	405.267	244.770	266.844	154.493	0.0003707	0.00031773	0.00011362	1055.2	2.1001e-06	3.7612e-06	1292.5	334.71	6.3064e-06	3.1104e-06	431.48	111.14	73.93	16.706	5.4474e-06	26.024	0.00070279	0.00092714	0.00025865	929.04	9.7828e-06	1.0588e-05	1127.8	295.59	9.7327e-06	1.0138e-05	380.34	98.245	65.274	15.016	9.8162e-06	23.395	286.286	163.933	248.218	156.492	286.584	324.121	154.778	161.253	346.115	248.939	159.066	163.529	165.110	172.396	330.635	167.548	-8191	255	
2232.245	1	1	0	0	0.49851	0.10372	0.084984	0.06979	0.23478	0.28227	0.14226	0.24397	0.25203	0.1687	0.33312	0.26609	0.22976	0.26815	0.016268	0.20097	-3.3104	-4.1896	-3.1583	-3.9896	-3.7458	-3.2333	-4.3708	-3.5708	-3.5271	-4.1021	-3.4354	-3.9771	-3.8021	-3.2875	-4.1396	-3.5312	208.107	484.311	425.917	406.826	459.484	495.566	446.945	411.208	199.205	428.869	460.721	150.029	467.682	465.882	208.186	409.245	0.00038059	0.00064718	0.00018762	1045.2	6.0543e-06	1.5233e-06	1280.8	335.13	6.3093e-06	5.3705e-06	432.17	111.06	73.233	16.769	5.19e-06	26.174	0.00069464	0.00090395	0.000261	923.6	9.8305e-06	1.0238e-05	1124.4	294.57	9.8915e-06	1.0459e-05	380.09	98.482	65.24	15.055	1.0154e-05	23.471	282.910	234.554	255.258	156.566	292.813	386.430	154.703	161.311	324.202	267.477	158.995	163.824	165.322	172.297	328.639	168.065	-8191	255	
2232.364	1	1	0	0	0.074692	0.036858	0.20092	0.23663	0.1437	0.0096228	0.25894	0.19568	0.014179	0.14897	0.2388	0.042565	0.068051	0.012659	0.14166	0.12559	-3.2062	-4.0708	-3.3625	-4.0188	-3.8479	-3.2208	-4.4542	-3.7083	-3.4313	-4.1125	-3.4688	-3.7104	-3.8979	-3.3792	-4.0417	-3.8417	161.856	181.224	383.227	480.324	253.706	411.584	455.265	478.519	260.314	262.606	450.367	174.642	411.144	441.859	457.042	216.886	0.00039114	0.00075379	6.1641e-05	1053.2	6.7138e-06	5.8018e-06	1286.9	334.22	6.6834e-06	5.2253e-06	430.99	111.95	73.377	16.825	6.2618e-06	26.395	0.00069472	0.00091891	0.00026613	928.02	1.0119e-05	1.0748e-05	1127.5	295.54	9.7036e-06	1.038e-05	381.92	99.298	65.641	15.092	1.013e-05	23.689	279.655	258.605	244.405	156.590	315.832	325.341	154.603	161.281	325.265	219.330	159.301	163.325	166.028	172.441	348.122	167.434	-8191	255	
2232.460	1	1	0	0	0.17176	0.13666	0.31811	0.23243	0.12412	0.11554	0.35533	0.079943	0.06878	0.15778	0.12581	0.16881	0.15084	0.26499	0.13199	0.062695	-3.0646	-4.175	-3.2812	-3.7479	-4.3042	-3.3521	-4.0375	-3.775	-3.3854	-4.3313	-3.5375	-3.6188	-4	-3.3604	-3.9188	-3.775	322.670	434.164	168.917	420.789	417.085	311.965	436.083	199.492	371.189	499.216	172.846	233.393	229.365	465.554	493.646	477.139	0.00033849	0.00049426	3.4432e-05	1053.9	7.0399e-06	6.0735e-06	1288.4	336.5	6.9844e-06	4.7115e-06	435.42	112.83	74.167	16.605	2.995e-06	26.055	0.00069701	0.00095853	0.00026499	930.04	9.4058e-06	9.9894e-06	1130.4	296.83	1.0232e-05	1.0056e-05	383.58	99.533	65.598	14.976	9.5857e-06	23.504	290.378	218.188	211.217	156.470	302.615	307.225	154.326	161.324	296.319	289.781	159.075	163.785	166.312	172.239	323.990	167.504	-8191	255	
2232.556	1	1	0	0	0.19684	0.17448	0.11675	0.10946	0.15639	0.016989	0.27689	0.29662	0.087904	0.25258	0.14092	0.15325	0.073467	0.2336	0.18307	0.19473	-2.8063	-3.9562	-3.4833	-3.7208	-4.1333	-3.3708	-4.2458	-3.7917	-3.1854	-4.1937	-3.5417	-3.5354	-4.2833	-3.275	-3.8625	-4.0333	277.005	339.729	439.077	339.089	390.893	346.399	484.030	492.579	239.478	217.386	498.349	163.945	172.267	226.217	364.031	499.045	0.00039917	0.00045203	0.00011821	1055.8	7.439e-06	3.312e-06	1282.9	333.82	3.4018e-06	4.0045e-06	425.84	110.01	72.986	16.508	3.4637e-06	25.521	0.00071861	0.00087673	0.0002608	928.71	9.4638e-06	9.8348e-06	1124.7	294.56	9.4298e-06	1.034e-05	377.42	97.763	64.977	14.829	9.5689e-06	23.024	289.638	205.902	237.818	156.901	270.694	271.839	154.492	161.351	337.081	294.045	158.913	163.776	165.513	171.930	331.497	167.959	-8191	255	
2232.652	1	1	0	0	0.25046	0.067483	0.13297	0.2702	0.046828	0.11031	0.12725	0.098035	0.12589	0.11233	0.20392	0.20578	0.19378	0.088601	0.18607	0.31682	-3.0021	-4.0687	-3.4167	-3.4292	-4.0854	-3.3479	-3.8688	-4.0208	-3.1437	-3.9938	-3.6667	-3.2792	-4.2438	-3.3896	-3.6458	-4.0854	303.699	151.441	326.280	445.683	291.784	325.680	425.384	489.715	337.401	398.754	472.013	176.922	334.851	314.856	299.661	340.220	0.00034662	0.00024006	0.00016453	1048.8	5.0906e-06	4.3514e-06	1277.5	333.94	8.096e-06	1.8268e-06	430.01	111.13	73.359	16.614	5.7304e-06	26.014	0.00069185	0.00093963	0.00024637	925.24	9.4459e-06	1.0249e-05	1121.4	294.12	9.6783e-06	1.0152e-05	378.61	98.091	65.272	14.908	1.0071e-05	23.388	280.942	183.092	232.258	156.497	335.286	359.027	154.698	161.268	297.596	293.374	159.097	163.623	165.603	171.981	287.350	168.298	-8191	255	
2232.748	1	1	0	0	0.18249	0.062726	0.28661	0.092867	0.025788	0.081918	0.30797	0.24959	0.15078	0.23935	0.030096	0.076526	0.27473	0.29471	0.11964	0.21699	-2.8146	-3.9292	-3.5271	-3.4604	-4.125	-3.5208	-3.775	-4.2583	-3.3042	-3.9167	-3.8479	-3.425	-4.1625	-3.4667	-3.4813	-4.2333	460.183	495.924	282.776	164.188	232.199	413.619	157.900	152.754	446.215	199.811	371.829	255.463	457.594	458.375	270.601	185.741	0.00037303	0.00039186	3.3805e-05	1054.4	4.9849e-06	4.9489e-06	1284.4	334.98	7.7977e-06	3.8197e-06	432.45	111.14	74.157	16.609	1.4974e-06	26.447	0.00071652	0.00092474	0.00026345	927.77	9.8636e-06	1.0107e-05	1127.9	295.63	9.8173e-06	1.0292e-05	380.8	98.64	65.534	14.967	9.8987e-06	23.637	281.111	213.318	154.200	156.467	319.949	241.676	154.485	161.373	335.195	277.160	158.930	164.037	166.355	172.326	227.738	167.927	-8191	255	
2232.844	1	1	0	0	0.017579	0.27759	0.26564	0.35352	0.11515	0.13752	0.13008	0.26467	0.22791	0.051102	0.19197	0.12314	0.013698	0.23301	0.10186	0.1124	-2.9167	-3.8833	-3.7167	-3.2313	-4.0229	-3.5521	-3.7354	-4.3479	-3.2687	-3.8167	-4.0083	-3.2417	-3.9771	-3.6875	-3.3521	-4.3042	344.511	320.238	463.815	447.270	380.182	166.846	147.370	500.962	460.362	223.598	395.342	402.238	235.275	242.918	390.255	367.331	0.00036757	0.00042447	0.00016025	1058.5	6.1791e-06	6.6614e-06	1285.6	333.83	7.9399e-06	5.7355e-06	431.33	112.31	74.832	16.61	1.947e-06	25.973	0.00071099	0.00092615	0.00025589	929.47	9.8318e-06	1.0231e-05	1131.3	295.52	9.9095e-06	1.0057e-05	381.44	98.849	65.934	14.988	9.7658e-06	23.252	291.877	246.094	263.795	156.851	315.463	345.779	155.211	161.735	286.689	291.460	159.223	164.306	165.790	172.625	462.781	168.392	-8191	255	
2232.965	1	1	0	0	0.02699	0.14758	0.025322	0.14316	0.23025	0.20416	0.19892	0.38642	0.26495	0.088981	0.3023	0.43528	0.25442	0.35464	0.239	0.090243	-3.0125	-3.7062	-3.8937	-3.4062	-4.0042	-3.6562	-3.2854	-4.3438	-3.275	-3.4333	-4.0708	-3.2875	-3.9313	-3.625	-3.3333	-4.1375	276.123	164.046	272.716	158.712	146.084	277.438	442.075	443.169	252.731	165.581	406.004	481.267	495.160	487.898	337.968	449.020	0.00039013	0.00055212	4.6968e-05	1054.5	5.6136e-06	3.5451e-06	1273.9	336	5.2273e-06	6.9218e-06	428.52	110.79	73.035	16.536	9.3621e-06	26.008	0.00070064	0.00091	0.00025092	927.87	9.8428e-06	9.9908e-06	1120.7	295.41	9.2892e-06	1.0502e-05	376.87	97.313	65.088	14.835	9.5901e-06	23.186	285.848	268.755	313.900	156.872	319.707	249.261	154.810	161.671	317.911	297.384	159.094	163.803	165.976	172.465	291.863	167.912	-8191	255	
2233.061	1	1	0	0	0.11112	0.25586	0.031716	0.23823	0.079912	0.13158	0.17799	0.39272	0.17654	0.10382	0.091708	0.18652	0.11003	0.14246	0.14505	0.11241	-3.0771	-3.5062	-4.1042	-3.4208	-3.9333	-3.7917	-3.3979	-4.3104	-3.2646	-3.6708	-4.4375	-3.3792	-3.9562	-3.9104	-3.05	-4.0604	261.760	286.162	196.589	478.815	265.434	268.728	475.220	433.147	390.723	369.444	144.340	465.916	318.777	465.149	209.460	429.244	0.00032769	0.00042932	4.5414e-05	1045.7	4.557e-06	2.8913e-06	1277	335.16	5.5765e-06	7.6185e-06	429.8	111.79	73.711	16.523	7.1387e-06	26.064	0.00068242	0.00094264	0.00024827	924.14	9.6662e-06	1.0091e-05	1117.2	295.76	9.6354e-06	1.0173e-05	378.43	98.181	65.564	14.88	9.5401e-06	23.419	291.357	200.246	232.860	156.840	304.067	298.870	154.813	161.681	327.894	272.501	159.198	164.212	165.459	172.415	310.071	167.468	-8191	255	
2233.157	1	1	0	0	0.26092	0.26861	0.18938	0.14815	0.2063	0.032269	0.2176	0.45579	0.18659	0.15675	0.18354	0.16716	0.21121	0.24323	0.28118	0.068235	-3.1083	-3.4667	-4.0542	-3.3042	-3.6583	-3.7375	-3.3271	-4.2417	-3.6792	-3.4333	-4.3917	-3.4375	-3.6833	-4.075	-3.2521	-4.1125	321.397	226.661	203.189	486.649	304.772	364.281	382.942	439.523	352.766	374.196	181.733	178.544	482.132	180.442	343.904	404.815	0.00041317	0.0002714	8.9854e-05	1052	4.8486e-06	2.9994e-06	1280.6	334.57	3.3167e-06	4.6377e-06	430.74	112.01	73.761	16.772	2.0426e-06	26.335	0.00066806	0.00091862	0.00024098	925.62	9.5314e-06	1.0004e-05	1125.7	295.99	9.3747e-06	1.0313e-05	380.6	98.709	65.652	15.022	9.7816e-06	23.613	282.964	251.550	249.019	156.069	343.243	238.709	154.421	161.122	321.789	320.454	159.171	163.341	165.703	172.018	366.401	167.594	-8191	255	
2233.254	1	1	0	0	0.21215	0.2365	0.070105	0.25667	0.26333	0.10648	0.23567	0.074702	0.098244	0.094055	0.14983	0.13192	0.49258	0.052398	0.21639	0.21389	-3.4458	-3.3958	-4.2188	-3.4396	-3.7604	-3.9854	-3.5438	-4.2479	-3.8438	-3.1625	-4.3292	-3.4917	-3.6604	-4.2229	-3.3125	-4.075	148.018	270.701	420.463	150.016	373.454	409.356	411.176	451.492	450.123	330.374	404.773	359.829	467.921	374.700	444.009	451.953	0.0003819	0.00047386	8.8218e-05	1057.3	6.8057e-06	4.0059e-06	1286.9	336.67	7.1279e-06	5.8338e-06	428.16	112.16	73.634	16.51	8.1898e-06	25.681	0.00068776	0.00093774	0.00024892	929.02	9.6228e-06	1.0023e-05	1127.2	296.74	9.4112e-06	1.0557e-05	381.16	98.645	65.281	14.89	9.6122e-06	23.093	286.674	190.343	248.774	156.252	279.675	350.699	154.797	160.992	315.778	276.118	158.768	163.898	165.536	172.239	309.442	168.232	-8191	255	
2233.348	1	1	0	0	0.18774	0.14783	0.059514	0.19298	0.14831	0.091851	0.044782	0.39272	0.16227	0.19336	0.095587	0.143	0.22349	0.14124	0.14522	0.14152	-3.6208	-3.1625	-4.0625	-3.7042	-3.5104	-4.0917	-3.2938	-3.7562	-4.0271	-3.2083	-4.3146	-3.6604	-3.4042	-4.2937	-3.1917	-3.8604	414.555	465.797	237.114	211.625	234.853	450.326	468.072	441.753	291.769	425.401	458.957	428.143	182.493	215.413	308.172	447.820	0.0003139	0.00065594	0.00014685	1045.1	3.2545e-06	3.9832e-06	1274	334.86	5.5694e-06	5.4088e-06	431.29	111.55	74.101	16.743	3.5186e-06	25.968	0.00065421	0.00091343	0.00024479	926.12	9.5304e-06	9.8798e-06	1119.5	295.7	9.1195e-06	1.0179e-05	380.03	98.436	65.905	14.969	9.626e-06	23.295	291.495	216.284	186.057	156.291	306.163	368.671	154.481	161.391	312.489	288.981	159.197	163.766	166.227	171.735	311.430	167.426	-8191	255	
2233.444	1	1	0	0	0.18021	0.20631	0.3109	0.042749	0.14512	0.35577	0.34632	0.09627	0.24191	0.26915	0.063654	0.31371	0.16908	0.23721	0.052811	0.24544	-3.4333	-3.1437	-3.9896	-3.7542	-3.4042	-4.0979	-3.5979	-3.9229	-3.8083	-3.3187	-4.2458	-3.7562	-3.2271	-4.1333	-3.275	-3.6437	359.053	330.483	430.509	249.331	213.918	427.017	412.961	435.621	164.693	417.125	351.184	427.972	167.367	243.205	493.587	422.318	0.00035534	8.3083e-05	0.00015153	1055.9	3.7249e-06	7.1225e-06	1284.1	335.41	7.2579e-06	1.9594e-06	430.61	112.85	74.684	16.717	7.7722e-06	26.394	0.00068415	0.00090177	0.00024397	929.14	9.7331e-06	1.0196e-05	1125.5	297.32	9.2201e-06	1.0305e-05	381.55	98.932	66.084	15.083	9.3985e-06	23.631	283.426	331.615	227.225	156.553	280.342	327.379	154.364	161.626	290.012	271.766	158.847	163.314	165.712	172.208	303.810	167.429	-8191	255	
2233.540	1	1	0	0	0.3079	0.12063	0.2193	0.20168	0.1353	0.10425	0.32606	0.16708	0.046108	0.24909	0.1994	0.04692	0.21814	0.028982	0.28537	0.2729	-3.6646	-3.2958	-4.1083	-3.825	-3.1104	-4.2	-3.475	-3.7104	-4.1458	-3.3042	-4.0229	-3.7687	-3.125	-4.2146	-3.4396	-3.4813	434.977	267.686	267.198	500.421	326.104	490.466	412.754	498.835	381.754	199.063	146.418	176.438	446.487	502.064	432.282	374.965	0.00035936	0.00027903	0.00010583	1053.6	2.3852e-06	5.6431e-06	1288.8	338.92	5.1964e-06	4.4418e-06	433.96	112.71	73.838	17.002	5.0272e-06	26.32	0.00068476	0.00090542	0.00025228	928.99	1.002e-05	1.0251e-05	1129.3	298.33	9.5243e-06	1.0345e-05	383.66	99.519	66.269	15.24	9.6639e-06	23.775	281.151	289.252	245.069	156.775	307.735	221.025	154.524	161.554	285.102	278.617	158.904	163.412	165.492	172.383	321.392	167.865	-8191	255	
2233.661	1	1	0	0	0.067171	0.15303	0.15119	0.11656	0.14307	0.092083	0.25854	0.060951	0.094924	0.26597	0.16811	0.24986	0.24914	0.1763	0.14328	0.16774	-3.6063	-3.1437	-3.7938	-3.8521	-3.0271	-4.1562	-3.6875	-3.7062	-4.1979	-3.2583	-3.8771	-3.7479	-3.225	-3.9604	-3.6104	-3.4625	499.040	247.542	407.728	490.405	443.139	476.008	443.086	255.607	285.784	227.993	473.924	482.903	151.980	470.617	267.535	198.764	0.00040751	0.00019555	7.0022e-05	1054	5.7746e-06	4.7865e-06	1283.4	338.63	3.1757e-06	4.5668e-06	432.82	112.04	74.162	16.794	6.4207e-06	26.292	0.00069775	0.00089473	0.00025593	931.21	9.5155e-06	9.9947e-06	1128.4	298.29	9.4929e-06	1.0344e-05	382	98.867	65.752	15.059	9.5793e-06	23.44	285.333	218.404	238.260	156.101	284.319	280.510	154.421	161.075	306.223	315.388	159.045	163.681	165.318	172.494	321.533	167.746	-8191	255	
2233.757	1	1	0	0	0.20574	0.13093	0.10398	0.12374	0.26672	0.0098197	0.41928	0.39786	0.094084	0.17592	0.17408	0.047309	0.16419	0.21657	0.18886	0.14845	-3.6958	-3.1437	-3.5375	-4.0833	-3.15	-3.975	-3.7875	-3.5167	-4.0813	-3.3208	-3.6312	-4.3333	-3.2438	-3.7604	-3.8167	-3.4292	379.648	337.750	427.621	254.532	461.401	226.422	501.028	386.930	348.324	313.175	426.554	166.206	409.935	147.819	381.061	443.898	0.00035699	0.00043292	0.00014541	1054.8	4.4909e-06	2.992e-06	1271.9	335.08	4.8199e-06	4.254e-06	428.95	111.59	73.74	16.761	7.4672e-06	26.098	0.00065665	0.00092752	0.00024581	928.25	9.4254e-06	9.9455e-06	1120.6	296.64	9.3411e-06	9.9278e-06	379.25	98.525	65.606	15.068	9.4247e-06	23.442	286.440	265.972	269.240	156.263	276.045	277.063	154.513	161.284	319.027	383.257	159.118	163.360	165.736	172.527	339.706	167.735	-8191	255	
2233.853	1	1	0	0	0.18103	0.068819	0.20541	0.2224	0.11367	0.092625	0.17486	0.22242	0.13178	0.04695	0.23725	0.14438	0.13488	0.095909	0.20955	0.1091	-3.6813	-3.3333	-3.3937	-4.0979	-3.0833	-3.9792	-4.0188	-3.2687	-4.0229	-3.5187	-3.8042	-4.2063	-3.1958	-3.725	-3.7375	-3.1375	356.228	501.052	164.432	186.279	276.458	195.679	452.656	478.248	191.622	145.192	232.536	466.933	334.389	214.435	381.489	210.849	0.00038562	0.00043021	0.00015753	1058.1	3.8171e-06	1.8364e-06	1283.1	337.58	7.2555e-06	8.6188e-06	431.86	112.67	74.478	16.89	1.8379e-06	26.208	0.00068746	0.00091359	0.00025278	930.11	9.8617e-06	9.9398e-06	1123.3	298.27	9.4093e-06	1.0342e-05	381.71	98.897	66.053	15.149	9.0023e-06	23.587	286.724	252.287	242.526	156.445	275.681	330.738	154.517	161.464	296.744	282.947	159.012	163.583	165.852	172.570	271.325	168.238	-8191	255	
2233.925	1	1	0	0	0.18184	0.16776	0.27791	0.14726	0.097581	0.1914	0.37054	0.31648	0.090368	0.18106	0.071191	0.14503	0.082883	0.18871	0.10274	0.21816	-3.7208	-3.5375	-3.2833	-4.2667	-3.3958	-3.7354	-4.0271	-3.4	-4.1104	-3.6458	-3.3875	-4.1875	-3.2333	-3.6125	-3.9708	-3.2021	478.652	444.455	211.709	481.850	262.296	281.323	469.433	492.687	285.943	472.255	173.901	495.447	281.313	244.367	377.339	227.281	0.00033506	0.0001488	0.00014904	1058.1	1.8644e-06	7.0303e-06	1289.4	337.98	3.2877e-06	6.1877e-06	432.82	113.7	75.328	16.89	4.989e-06	26.378	0.00068246	0.00086536	0.00026344	934.14	9.6725e-06	9.6405e-06	1127.5	298.12	9.3581e-06	1.0105e-05	383.22	100.04	66.619	15.216	9.418e-06	23.775	285.010	237.097	265.168	156.623	245.812	253.932	154.682	161.404	298.914	322.428	159.391	163.734	165.709	172.606	274.063	168.130	-8191	255	
2234.045	1	1	0	0	0.014083	0.14746	0.22542	0.23329	0.10642	0.08398	0.043119	0.34909	0.16686	0.23882	0.17459	0.15959	0.18676	0.14498	0.12155	0.18003	-3.6042	-3.6188	-3.2812	-4.3521	-3.2958	-3.4854	-4.1687	-3.3104	-3.9083	-3.6667	-3.3979	-4.2354	-3.2854	-3.5729	-4.2229	-3.1458	144.543	464.792	398.733	184.310	234.331	500.519	492.098	158.635	203.940	402.952	446.846	215.386	191.450	481.407	463.097	354.170	0.00034227	0.000296	0.00021481	1056.1	5.8761e-06	7.724e-06	1281.7	337.9	7.6374e-06	6.8865e-06	430.79	111.63	74.236	16.765	5.0703e-06	25.975	0.00066996	0.00088208	0.00024812	932.07	9.745e-06	1.0274e-05	1124.4	298.27	9.2393e-06	1.014e-05	381.12	98.47	65.877	15.082	9.4921e-06	23.229	284.715	232.453	244.487	156.822	271.155	279.129	154.494	161.444	325.081	261.690	159.165	164.008	165.302	171.892	354.522	167.910	-8191	255	
2234.142	1	1	0	0	0.17476	0.094404	0.18803	0.17785	0.035107	0.24702	0.111	0.29232	0.16646	0.16521	0.26247	0.084891	0.28955	0.15278	0.21995	0.16311	-3.6063	-3.8063	-3.2812	-4.225	-3.3646	-3.3667	-4.1062	-3.3146	-3.7479	-3.9771	-3.3542	-4.0521	-3.4938	-3.3479	-4.0292	-3.1896	274.924	212.962	254.701	146.324	254.580	415.835	397.744	501.544	202.386	169.481	168.564	438.584	421.582	385.729	451.413	148.587	0.00035015	0.00042654	0.00022267	1059.3	3.531e-06	8.0265e-06	1276.1	334.87	5.9783e-06	5.0157e-06	429.55	111.53	74.451	16.592	6.9797e-06	26.18	0.00066074	0.00085633	0.00025341	931.01	9.4346e-06	9.9794e-06	1119.9	296.15	9.5326e-06	9.7143e-06	380.84	98.421	65.799	15.063	9.2868e-06	23.449	286.208	271.943	228.623	156.518	286.601	262.276	154.621	161.150	283.480	284.108	159.265	163.739	166.079	172.048	260.126	167.517	-8191	255	
2234.238	1	1	0	0	0.052826	0.093002	0.089887	0.26406	0.093433	0.13552	0.098745	0.31676	0.043533	0.3149	0.18336	0.14257	0.092794	0.019047	0.20487	0.11594	-3.3083	-3.9083	-3.1479	-4.1208	-3.5354	-3.3438	-4.3063	-3.3417	-3.5375	-4.0542	-3.2917	-4.0146	-3.7979	-3.2917	-4.0979	-3.4813	433.459	347.177	381.896	479.504	384.957	498.726	301.032	498.163	338.547	226.892	468.648	444.758	461.371	498.987	499.968	488.575	0.00036992	0.00062241	0.00021467	1060.1	4.5334e-06	4.0339e-06	1285.6	339.25	5.2273e-06	5.4706e-06	429.9	112.43	74.897	16.838	5.9806e-06	26.302	0.00067631	0.00088931	0.00025845	931.21	9.5052e-06	9.6895e-06	1125.9	298.49	9.522e-06	9.9317e-06	380.35	99.085	66.287	15.16	9.2076e-06	23.502	288.080	207.474	215.125	156.450	362.423	286.853	154.130	161.500	320.065	272.873	159.155	163.598	165.637	172.052	339.260	167.315	-8191	255	
2234.334	1	1	0	0	0.22809	0.23067	0.10227	0.28801	0.1587	0.20247	0.20496	0.22019	0.023131	0.14374	0.20987	0.02459	0.27858	0.1279	0.042433	0.15974	-3.0958	-3.9708	-3.0563	-4.0312	-3.8937	-3.1625	-4.2167	-3.55	-3.6188	-4.1833	-3.4104	-3.8729	-3.8125	-3.2771	-4.0375	-3.6396	257.410	210.957	426.391	175.869	224.467	435.906	328.485	492.342	222.467	389.215	201.392	177.427	172.103	448.711	205.179	439.874	0.0003943	0.00050231	7.2229e-05	1060.5	1.9854e-06	5.1546e-06	1288.3	337.56	6.8899e-06	1.4894e-06	435.17	113.09	74.945	16.833	4.716e-06	26.191	0.00069962	0.00091186	0.00025821	933.86	9.3432e-06	9.7898e-06	1130.8	298.03	9.5691e-06	1.0123e-05	383.53	99.574	66.309	15.105	9.1875e-06	23.45	289.385	262.934	174.854	156.451	291.918	292.283	154.618	161.332	282.953	351.537	159.108	163.956	166.197	172.119	294.094	168.245	-8191	255	
2234.453	1	1	0	0	0.21219	0.11261	0.10078	0.257	0.14417	0.060173	0.21339	0.12161	0.059014	0.1322	0.15737	0.081515	0.23287	0.23951	0.18969	0.11024	-3.0083	-4.2833	-3.2729	-4.0146	-4.0854	-3.2417	-4.2333	-3.5438	-3.3958	-4.1833	-3.4188	-3.7771	-3.9979	-3.1604	-3.9208	-3.6979	289.902	360.670	264.772	451.666	177.763	424.454	459.739	392.941	347.407	180.840	450.007	351.381	486.705	147.121	483.346	321.578	0.00039029	0.00029698	0.00014502	1063.5	1.0485e-06	2.2118e-06	1286.5	335.71	6.2561e-06	4.5344e-06	427.95	110.88	73.92	16.579	3.9241e-06	25.791	0.00066876	0.00088166	0.00024844	933.52	9.5579e-06	9.9712e-06	1126.7	297.04	9.4599e-06	9.6753e-06	378.72	97.793	65.328	14.932	9.4039e-06	23.052	293.514	199.097	244.237	156.400	383.046	323.654	154.587	161.437	313.710	256.584	159.356	164.249	166.227	172.061	312.975	167.742	-8191	255	
2234.526	1	1	0	0	0.057688	0.051793	0.059987	0.22569	0.10152	0.05873	0.32767	0.26163	0.06422	0.14114	0.20467	0.13284	0.052543	0.14207	0.098001	0.16076	-2.9896	-4.3292	-3.3583	-3.5938	-3.9938	-3.1188	-4.2021	-3.8229	-3.1167	-4.2417	-3.575	-3.6688	-4.2208	-3.3542	-3.9104	-4.0125	383.174	286.979	347.920	481.419	230.847	351.051	410.210	423.506	359.014	487.216	472.808	428.771	437.018	384.565	385.639	238.288	0.00031551	0.00028091	0.00013541	1062.3	5.4407e-06	4.262e-06	1279.9	336.29	5.1412e-06	4.725e-06	429.63	112.32	74.078	16.816	5.9322e-06	26.025	0.00064561	0.00089466	0.00024439	933.64	9.4764e-06	9.9483e-06	1124.4	296.33	8.9361e-06	1.002e-05	379.97	98.388	65.967	15.025	9.6417e-06	23.261	289.520	249.185	186.454	156.581	311.657	300.770	154.652	161.305	301.657	266.766	159.273	163.993	166.451	172.503	308.176	167.871	-8191	255	
2234.645	1	1	0	0	0.10066	0.076444	0.10436	0.16642	0.062719	0.19784	0.21798	0.093502	0.19044	0.099117	0.24136	0.15551	0.15441	0.32357	0.19056	0.17849	-2.9792	-4.075	-3.4938	-3.475	-4.0167	-3.1625	-3.8146	-4.0813	-3.1604	-4.2021	-3.7125	-3.5792	-4.2083	-3.4583	-3.9021	-4.1917	293.843	444.861	257.329	447.984	232.252	310.247	452.491	166.174	298.871	153.348	412.545	383.388	154.425	361.042	248.918	377.598	0.00032307	0.00041772	0.0001599	1055.4	4.3142e-06	4.5651e-06	1296.3	338.51	3.1952e-06	2.3256e-06	434.6	112.59	74.801	16.875	3.8085e-06	26.27	0.00067852	0.00086472	0.0002541	932.56	9.6907e-06	9.8894e-06	1131.8	298.69	9.5304e-06	1.0049e-05	383.31	99.251	66.503	15.174	9.9252e-06	23.703	292.045	196.303	212.169	156.753	294.017	344.254	154.819	161.404	318.281	164.983	158.867	163.964	165.819	172.622	337.468	168.282	-8191	255	
2234.741	1	1	0	0	0.049664	0.12915	0.20405	0.11868	0.19885	0.21575	0.142	0.2453	0.21309	0.09224	0.1538	0.10713	0.18543	0.061344	0.047428	0.096263	-2.9104	-4.0958	-3.5771	-3.5938	-4.1146	-3.4396	-3.8625	-4.3208	-3.3688	-3.9125	-4.0083	-3.4958	-4.2	-3.4979	-3.6188	-4.2979	444.317	489.628	463.690	450.568	375.659	230.623	477.926	461.378	406.471	168.235	453.711	143.608	295.086	482.509	222.757	169.906	0.00038799	0.00075498	0.00017114	1064.3	4.9037e-06	5.5017e-06	1295.6	338.78	5.2711e-06	6.3867e-06	438.17	113.69	75.195	16.827	6.1009e-06	26.505	0.00068356	0.00090357	0.00026102	938.57	9.4741e-06	9.903e-06	1136.2	300.15	9.4708e-06	1.028e-05	385.91	99.691	66.756	15.212	9.4378e-06	23.701	293.295	210.648	184.823	156.569	315.927	301.647	154.844	161.591	313.827	317.033	159.521	164.727	166.227	172.955	252.973	168.437	-8191	255	
2234.837	1	1	0	0	0.13478	0.10028	0.13824	0.22825	0.20808	0.14285	0.11894	0.33508	0.070568	0.19879	0.19004	0.23517	0.099373	0.25619	0.28767	0.038451	-2.8375	-3.8771	-3.8229	-3.3937	-4.325	-3.5604	-3.7062	-4.125	-3.1813	-3.8896	-4.0354	-3.2958	-4.0479	-3.4729	-3.3187	-4.1687	201.340	301.755	422.983	147.323	215.994	317.114	432.012	428.968	166.414	399.495	180.619	501.580	460.123	398.605	325.880	365.560	0.00038027	0.00079783	0.00019665	1068.3	2.1022e-06	4.5717e-06	1292.5	339.55	9.1947e-06	3.2908e-06	433.92	112.23	74.833	17.041	1.1533e-06	26.411	0.00068105	0.00093265	0.00024579	938.36	9.38e-06	9.8066e-06	1130.3	299.26	9.4557e-06	9.9732e-06	381.64	98.996	66.514	15.221	9.429e-06	23.447	286.716	256.438	229.965	156.824	262.427	320.487	155.075	161.865	346.536	358.648	159.207	164.016	166.200	172.600	272.419	168.198	-8191	255	
2234.934	1	1	0	0	0.1912	0.040552	0.16258	0.079154	0.21545	0.056236	0.18284	0.21095	0.0906	0.038404	0.10141	0.0881	0.17923	0.083635	0.042648	0.17972	-2.8208	-3.7188	-4.0604	-3.3333	-4.1875	-3.5167	-3.6562	-4.3583	-3.2833	-3.9688	-3.9708	-3.2208	-4.1667	-3.7562	-3.25	-4.1854	240.888	381.339	387.023	502.807	368.841	295.927	467.095	450.814	167.790	234.271	448.553	459.106	271.409	420.276	437.126	486.280	0.00033932	0.00022474	1.9278e-05	1066	6.7138e-06	2.7468e-06	1291.8	341.87	6.6295e-06	5.3153e-06	431.25	113.18	75.466	16.963	5.496e-06	26.251	0.0006865	0.0009241	0.00024781	936.72	9.6079e-06	1.0311e-05	1127.5	300.15	9.0942e-06	1.0072e-05	382.17	99.278	67.007	15.239	9.6723e-06	23.611	283.609	271.398	201.109	156.679	328.959	307.053	155.157	161.771	419.103	232.592	159.334	164.284	165.636	171.664	276.002	167.339	-8191	255	
2235.054	1	1	0	0	0.019062	0.36013	0.12511	0.24938	0.07949	0.11716	0.16636	0.24324	0.12135	0.241	0.11466	0.20006	0.17742	0.32286	0.080725	0.22157	-2.9792	-3.5958	-4.0563	-3.2125	-3.9604	-3.5271	-3.4583	-4.1604	-3.4667	-3.5042	-4.35	-3.1375	-3.975	-3.8625	-3.1375	-4.1458	406.490	453.895	430.703	482.743	472.523	325.080	388.105	481.686	427.002	282.556	188.769	444.736	485.118	158.605	479.378	377.626	0.00034462	0.00093158	0.00017654	1064.6	3.2308e-06	7.471e-06	1278.8	339.6	3.4872e-06	8.2526e-06	434.38	114.7	75.567	16.999	5.7062e-06	26.733	0.00068636	0.00094953	0.00025447	936.19	9.379e-06	9.959e-06	1128.6	300.59	9.7308e-06	1.0343e-05	383.88	100.47	67.214	15.303	9.6162e-06	23.961	285.453	230.703	197.555	155.924	310.789	310.770	154.176	161.005	316.306	282.167	158.424	163.292	165.152	171.160	339.320	167.068	-8191	255	
2235.149	1	1	0	0	0.079889	0.17671	0.17566	0.014108	0.035331	0.24072	0.25832	0.31651	0.070444	0.2097	0.32353	0.28941	0.080635	0.15904	0.054611	0.040819	-3.2083	-3.4396	-4.05	-3.4354	-3.9125	-3.7938	-3.5479	-4.1896	-3.4854	-3.5438	-4.2625	-3.3333	-3.7667	-3.8729	-3.1083	-4.1479	175.850	500.543	331.625	420.900	318.141	399.274	420.963	430.162	442.162	249.108	490.738	454.033	409.602	187.203	366.065	335.588	0.00037168	0.0006614	0.00013102	1064.6	8.0393e-06	3.753e-06	1292.3	338.64	4.3495e-06	4.4466e-06	432.72	113.35	75.785	16.979	5.7317e-06	26.434	0.00069756	0.00095065	0.00025118	934.26	9.69e-06	1.0055e-05	1134.3	301.05	9.4833e-06	1.0195e-05	383.39	99.72	67.154	15.273	9.6048e-06	23.549	290.209	226.158	203.643	155.680	269.190	353.061	154.245	160.835	310.062	334.850	158.008	162.938	165.136	171.757	275.445	166.820	-8191	255	
2235.222	1	1	0	0	0.16671	0.22923	0.05965	0.18454	0.033584	0.14416	0.33817	0.038453	0.098703	0.037466	0.10997	0.069546	0.17628	0.20271	0.048985	0.16558	-3.2125	-3.1688	-4.1937	-3.4979	-3.6813	-3.9938	-3.4417	-4.0729	-3.6479	-3.2042	-4.3708	-3.3792	-3.6188	-4.15	-3.2083	-3.8854	224.535	149.965	391.468	451.958	196.798	299.277	395.021	493.108	181.406	410.033	449.182	146.882	339.379	410.922	348.504	472.265	0.00033122	0.00046489	0.00017635	1054.1	6.9369e-06	2.8199e-06	1275.8	338.81	6.3296e-06	7.3357e-06	430.21	111.23	74.906	16.932	1.7094e-06	26.049	0.00068448	0.0009076	0.00025329	931.63	9.6473e-06	9.8819e-06	1122.3	299.36	9.5998e-06	1.0303e-05	380.64	98.462	66.455	15.184	9.4394e-06	23.382	286.774	206.593	219.672	155.648	294.595	294.890	153.761	160.685	306.109	316.717	158.427	163.001	165.159	171.436	343.757	166.791	-8191	255	
2235.341	1	1	0	0	0.15475	0.036867	0.18942	0.3568	0.16854	0.06686	0.25355	0.05101	0.15928	0.067192	0.21768	0.066591	0.27267	0.19293	0.17478	0.13749	-3.4917	-3.2833	-4.0208	-3.425	-3.7812	-4.0813	-3.2792	-3.9625	-3.6562	-3.2542	-4.2271	-3.4542	-3.5812	-4.0875	-3.1312	-3.675	249.762	296.704	361.965	456.656	377.398	338.532	451.811	154.676	144.539	193.062	365.303	435.020	149.377	214.218	173.076	335.517	0.00039732	0.00032064	5.0341e-05	1062.7	5.7088e-06	2.7904e-06	1275.8	339.25	6.9063e-06	4.2507e-06	430.98	110.98	75.005	16.936	8.4251e-06	26.429	0.00067421	0.00090725	0.00025774	932.27	9.3982e-06	1.0376e-05	1122.3	300.19	9.7314e-06	1.0145e-05	380.84	98.529	66.496	15.259	9.998e-06	23.587	287.968	214.933	159.199	155.230	300.353	341.797	153.804	160.498	328.211	230.956	158.343	163.207	164.847	171.104	332.671	166.788	-8191	255	
2235.437	1	1	0	0	0.0098388	0.16407	0.26953	0.087692	0.15866	0.14341	0.16851	0.2478	0.16819	0.24975	0.14972	0.15635	0.19265	0.18399	0.084386	0.1267	-3.4958	-3.2583	-4.0417	-3.6104	-3.3271	-4.0896	-3.4813	-3.9542	-3.7375	-3.1625	-4.1125	-3.5271	-3.3417	-4.2854	-3.3208	-3.7396	491.119	337.650	147.142	435.819	353.978	190.699	408.673	452.776	429.456	438.531	467.908	430.635	171.251	368.232	247.391	464.011	0.00036717	5.8834e-05	0.00014564	1060	4.1615e-06	3.6844e-06	1285.9	338.33	1.6697e-06	3.6127e-06	435.87	113.01	75.004	16.934	6.169e-06	26.364	0.00067737	0.00089575	0.0002483	935.73	9.4389e-06	9.7694e-06	1126.9	300.09	9.3671e-06	1.0143e-05	384.34	99.388	66.883	15.24	9.5226e-06	23.7	280.111	328.824	256.441	155.670	329.042	253.497	153.516	160.678	390.330	245.107	157.946	162.707	164.990	171.873	318.546	166.906	-8191	255	
2235.533	1	1	0	0	0.061409	0.15884	0.21754	0.15409	0.20516	0.04856	0.21678	0.1231	0.12088	0.20848	0.076808	0.14897	0.13484	0.089593	0.19942	0.1608	-3.6625	-3.2687	-3.9917	-3.725	-3.1771	-4.2979	-3.5958	-3.7583	-4.0417	-3.2687	-4.1583	-3.6979	-3.2354	-4.1292	-3.4417	-3.6396	461.830	429.571	151.527	478.479	231.716	311.355	414.184	353.627	203.670	474.453	401.150	494.241	465.979	447.244	302.295	169.049	0.00035732	0.0004001	4.7178e-05	1062.5	2.4852e-06	9.534e-06	1279.7	340.48	4.3225e-06	1.447e-06	433.03	111.87	74.16	16.703	6.5337e-06	25.924	0.00069227	0.00092438	0.00025368	937.34	9.487e-06	1.0049e-05	1127.3	300.33	9.5685e-06	1.0276e-05	381.81	98.473	66.133	15.07	9.5676e-06	23.359	286.804	221.232	201.274	155.209	369.253	277.831	153.672	160.552	302.807	299.301	157.922	162.784	165.062	171.443	289.548	167.127	-8191	255	
2235.629	1	1	0	0	0.10601	0.069511	0.13469	0.15985	0.18919	0.076209	0.37166	0.20584	0.14878	0.30808	0.1861	0.06627	0.084077	0.084082	0.12124	0.094804	-3.9271	-3.2292	-3.8208	-3.9562	-3.1833	-4.1708	-3.5792	-3.6771	-4.1667	-3.2729	-3.9437	-3.8875	-3.2062	-4.0938	-3.4729	-3.5646	499.793	329.071	460.240	483.704	217.545	471.997	405.689	453.089	252.406	230.621	489.766	185.008	459.294	433.441	387.104	453.858	0.00037084	0.0003615	0.00015414	1057.8	1.4598e-06	3.3463e-06	1280.5	338.19	3.7314e-06	4.1344e-06	432.15	112.16	74.749	16.939	7.5215e-06	26.198	0.00068858	0.00090837	0.00025084	935.13	9.3293e-06	9.7459e-06	1122.8	299.31	9.3241e-06	1.0174e-05	381.22	98.639	66.29	15.195	9.42e-06	23.498	290.030	226.757	240.755	155.702	353.350	324.431	153.731	160.603	301.069	286.552	157.815	162.621	164.563	171.119	283.398	166.883	-8191	255	
2235.750	1	1	0	0	0.024585	0.1833	0.3386	0.13479	0.25578	0.10124	0.27396	0.15568	0.074962	0.18533	0.24274	0.066486	0.1821	0.24248	0.15123	0.19453	-3.9625	-3.1667	-3.7229	-4.1167	-3.3146	-4.0458	-3.7083	-3.4938	-4.1271	-3.4083	-3.8625	-4.0563	-3.0687	-3.9625	-3.5687	-3.3646	205.269	414.406	158.076	490.347	411.170	174.926	496.006	458.324	330.494	426.290	495.271	449.773	188.655	448.218	249.681	152.550	0.00034809	0.00041645	9.5211e-05	1054.6	5.7262e-06	5.2724e-06	1286.2	340.12	7.1336e-06	2.3392e-06	433.35	113.46	76.407	17.113	3.2345e-06	26.611	0.00067345	0.0008945	0.00024542	932.9	9.3203e-06	9.9515e-06	1124.1	300.82	9.2406e-06	1.0367e-05	383.25	99.906	67.361	15.365	9.9158e-06	23.858	281.069	213.379	235.835	155.391	333.100	297.432	153.794	160.388	290.613	335.938	158.317	163.049	165.548	171.324	327.163	166.893	-8191	255	
2235.822	1	1	0	0	0.013696	0.12023	0.049954	0.16134	0.030825	0.32239	0.20767	0.33132	0.15711	0.081065	0.33437	0.12535	0.086387	0.062323	0.19905	0.14364	-3.8708	-3.2521	-3.5271	-3.9646	-3.1792	-3.9708	-3.9562	-3.3042	-4.0021	-3.475	-3.6896	-4.1729	-3.1188	-3.7833	-3.7604	-3.3063	221.856	241.193	273.836	490.343	267.884	396.809	446.135	492.654	179.341	230.124	434.322	389.037	498.320	385.696	485.106	206.130	0.00032542	0.00029754	0.00020357	1058.5	7.7038e-06	1.0087e-05	1290.5	342.43	4.3736e-06	3.0563e-06	441.58	114.31	76.414	17.138	5.5009e-06	27.246	0.00067854	0.00088896	0.00025505	936.79	9.8689e-06	1.0005e-05	1130.6	302.22	9.4237e-06	9.9815e-06	387.48	100.99	67.604	15.454	9.478e-06	24.157	277.212	265.041	215.287	155.263	316.935	289.532	153.962	160.790	259.757	292.648	157.953	163.405	165.157	171.708	300.161	166.618	-8191	255	
2235.918	1	1	0	0	0.24543	0.26419	0.10448	0.18048	0.20693	0.15071	0.38743	0.34189	0.048099	0.015387	0.23714	0.085369	0.10915	0.12088	0.062826	0.19766	-3.6521	-3.3271	-3.2729	-4.2729	-3.2188	-3.7938	-3.9208	-3.2938	-4.1396	-3.3083	-3.4354	-4.0625	-3.1917	-3.8125	-3.9	-3.2771	151.196	483.099	180.262	488.262	231.100	372.507	469.837	419.125	258.844	167.602	477.285	439.837	182.185	225.872	459.925	363.379	0.00041797	0.00038969	8.217e-05	1066.9	7.2633e-06	2.9492e-06	1286.7	344.11	6.4732e-06	2.4165e-06	432.56	112.84	75.244	17.006	3.5086e-06	26.233	0.00069605	0.00093431	0.00024816	938.14	9.597e-06	9.7816e-06	1129.6	303.06	9.5813e-06	1.0324e-05	382.89	99.354	66.925	15.342	9.1422e-06	23.622	281.472	262.255	190.436	155.825	312.798	292.868	153.439	160.614	303.122	222.751	158.119	162.789	164.676	171.665	234.603	167.124	-8191	255	
2236.014	1	1	0	0	0.08535	0.37833	0.19565	0.24248	0.17585	0.23183	0.29081	0.32902	0.14689	0.086511	0.19885	0.23918	0.14762	0.29228	0.042097	0.18392	-3.7729	-3.5458	-3.2042	-4.1854	-3.3458	-3.4958	-4.2333	-3.2479	-3.8063	-3.7062	-3.4562	-4.3229	-3.3333	-3.6125	-4.3021	-3.3521	336.738	372.528	373.260	183.650	346.703	325.094	368.504	463.585	493.633	187.694	360.266	420.882	265.698	387.887	321.790	328.409	0.00038457	0.00053134	3.7237e-05	1065	7.0651e-06	5.9953e-06	1275.2	339.41	8.589e-06	7.8355e-06	433.19	111.99	75.77	17.152	2.049e-06	26.588	0.0006837	0.0009175	0.00025565	936.17	9.6218e-06	9.9365e-06	1121.6	300.69	9.5198e-06	1.0333e-05	383.64	99.112	67.149	15.423	9.6246e-06	23.74	284.840	234.142	494.547	155.732	258.025	305.206	153.768	160.584	321.002	278.945	158.276	162.734	165.413	171.767	299.293	166.459	-8191	255	
2236.135	1	1	0	0	0.078132	0.22888	0.24344	0.18873	0.08612	0.15932	0.28687	0.12652	0.14848	0.15308	0.23412	0.14583	0.23452	0.066025	0.10114	0.091434	-3.6792	-3.6979	-3.0187	-4.5062	-3.3646	-3.4792	-4.3646	-3.3479	-3.9146	-4.0521	-3.2562	-4.1521	-3.6083	-3.3854	-4.0958	-3.3187	348.404	325.930	322.193	486.723	374.697	337.711	447.697	180.115	171.100	171.158	180.159	461.116	448.286	393.944	489.136	383.053	0.00035002	0.0004484	0.00012612	1062.3	4.8371e-06	3.5371e-06	1281.6	342.3	4.7183e-06	2.0825e-06	434.83	112.89	75.986	17.235	8.1788e-06	26.756	0.00067799	0.00090972	0.00024704	936.82	9.4157e-06	1.0035e-05	1126.3	301.91	9.5268e-06	1.0056e-05	384.29	99.945	67.172	15.475	9.4924e-06	23.941	280.937	234.603	243.833	156.070	274.059	276.894	154.246	160.767	346.635	299.992	158.878	163.124	165.504	171.586	341.765	166.966	-8191	255	
2236.231	1	1	0	0	0.10284	0.21959	0.213	0.10114	0.16948	0.098309	0.27969	0.3597	0.080403	0.27034	0.18517	0.088381	0.10918	0.19155	0.16578	0.089497	-3.5708	-3.9333	-3.0625	-4.2417	-3.5917	-3.6667	-4.3542	-3.5458	-3.7604	-4.0417	-3.3521	-4.175	-3.6437	-3.4979	-4.1625	-3.3958	491.249	412.191	484.509	191.819	403.173	197.092	444.147	423.225	321.371	474.466	349.668	152.311	397.598	476.166	299.207	331.197	0.00034823	0.00060177	7.1169e-05	1064.6	4.6662e-06	2.3958e-06	1298.8	343.23	7.4715e-06	2.9471e-06	436.88	115.19	75.63	17.245	2.8525e-06	26.89	0.00070268	0.00090661	0.00025157	938.94	9.5927e-06	1.0068e-05	1133	302.93	9.1247e-06	9.7695e-06	385.91	100.92	67.244	15.51	9.3173e-06	23.948	288.917	248.744	181.563	155.850	329.168	320.118	154.153	160.531	315.126	294.507	158.389	163.382	165.109	171.746	265.951	167.309	-8191	255	
2236.327	1	1	0	0	0.099298	0.17049	0.13173	0.1412	0.21067	0.24256	0.11775	0.098941	0.11054	0.072701	0.36549	0.19997	0.27725	0.19882	0.1426	0.17457	-3.4167	-4.0458	-3.1292	-4.2438	-3.6646	-3.0958	-4.2833	-3.4562	-3.6	-4.0646	-3.2896	-4.0458	-3.8688	-3.3479	-4.2125	-3.625	389.146	235.603	485.387	449.180	163.169	425.229	391.062	494.825	431.187	405.921	420.710	445.955	233.309	167.039	327.744	426.987	0.00037208	0.00022134	0.00022074	1072.6	4.6618e-06	4.4137e-06	1284.2	342.99	6.7747e-06	8.8921e-06	431.38	112.53	74.927	16.944	5.7087e-06	25.992	0.00067878	0.00087836	0.00024281	939.98	9.4472e-06	9.7519e-06	1124.6	302.23	9.2908e-06	9.9609e-06	381.28	98.956	66.585	15.267	9.3204e-06	23.421	286.045	283.080	198.376	156.194	298.955	275.663	154.016	160.667	327.942	319.213	158.732	163.719	165.265	171.802	276.962	166.748	-8191	255	
2236.446	1	1	0	0	0.061099	0.20731	0.1228	0.062831	0.12971	0.14545	0.1674	0.24647	0.27884	0.13261	0.18603	0.094773	0.27794	0.10334	0.16047	0.097068	-3.0646	-3.9125	-3.3063	-4.1292	-3.7562	-3.3771	-4.2	-3.5417	-3.4688	-4.1854	-3.3875	-3.9167	-3.8937	-3.0792	-4.0354	-3.9333	227.062	195.197	343.831	413.428	235.486	162.517	437.272	422.773	334.159	315.661	377.205	327.234	452.988	316.630	263.489	446.849	0.00038527	0.00034298	0.0001533	1065.5	4.6548e-06	5.5444e-06	1282.5	341.92	8.9861e-06	5.0635e-06	434.74	112.59	76.146	17.19	6.8578e-06	26.346	0.00067599	0.00089175	0.00025183	935.31	9.1739e-06	9.7559e-06	1120	301.39	9.3757e-06	1.0367e-05	381.61	99	67.158	15.427	9.5528e-06	23.65	283.603	234.105	281.881	155.943	258.693	282.775	154.028	160.734	327.836	261.115	158.545	163.016	165.204	171.435	304.815	166.872	-8191	255	
2236.517	1	1	0	0	0.18937	0.15041	0.099368	0.15674	0.28558	0.097323	0.19423	0.092008	0.040554	0.30548	0.25363	0.11827	0.31569	0.085032	0.24877	0.14078	-3.1312	-4.0312	-3.2854	-3.8458	-3.9521	-3.2646	-4.1937	-3.6771	-3.1729	-4.3	-3.5875	-3.7979	-4.0687	-3.1771	-3.9979	-3.6333	193.841	297.869	311.727	417.991	185.363	290.820	402.245	204.262	327.105	475.117	444.925	149.892	482.922	290.279	145.083	208.668	0.00034881	0.00035564	0.00011213	1066.5	3.3751e-06	3.8723e-06	1285	341.01	3.1011e-06	3.5703e-06	435.31	113.81	75.904	17.211	2.2298e-06	26.781	0.00067272	0.00087586	0.00025151	938.62	9.5728e-06	1.0314e-05	1125.6	301.94	8.9726e-06	1.0273e-05	384.17	100.38	67.446	15.49	9.6149e-06	23.979	283.709	197.978	281.394	155.931	237.080	297.735	153.839	160.688	281.141	290.571	157.804	163.431	164.944	172.126	343.215	167.476	-8191	255	
2236.614	1	1	0	0	0.18614	0.13474	0.17501	0.18691	0.12347	0.22134	0.26722	0.18643	0.078955	0.07952	0.3731	0.33904	0.033538	0.19103	0.1128	0.15664	-2.8167	-4.0021	-3.3875	-3.7167	-4.0521	-3.15	-4.1083	-4.0146	-3.2667	-4.0188	-3.6583	-3.425	-4.2354	-3.3417	-3.9208	-3.8542	393.607	356.590	249.091	471.813	429.189	335.489	472.586	462.185	443.011	177.223	400.100	466.813	375.439	154.900	206.393	477.205	0.00038816	0.00055258	0.00017766	1068.2	7.0101e-06	2.3672e-06	1285.6	342.75	7.277e-06	3.7493e-06	437.58	113.98	76.553	17.186	4.0871e-06	26.327	0.00068848	0.00086715	0.00025623	940.23	9.5357e-06	9.728e-06	1127.6	303.19	9.6114e-06	1.0158e-05	385.35	100.5	67.522	15.454	9.1808e-06	23.721	277.175	206.560	237.648	155.979	304.182	260.418	154.059	160.642	312.927	248.874	158.603	162.941	165.043	171.609	310.709	166.840	-8191	255	
2236.734	1	1	0	0	0.24563	0.079993	0.071822	0.26784	0.080883	0.075422	0.092441	0.29415	0.10843	0.10568	0.11173	0.080139	0.19892	0.25502	0.092191	0.13435	-2.8917	-4.0312	-3.4396	-3.425	-4.1562	-3.2417	-4.0729	-4.1188	-3.1354	-4.1833	-3.6021	-3.4313	-4.0521	-3.1229	-3.5917	-4.0396	428.027	488.395	251.306	485.858	269.043	270.457	415.976	449.056	495.974	233.475	485.310	244.625	288.618	471.374	448.121	149.978	0.00035619	0.00041304	0.00020457	1063.6	3.6973e-06	5.2993e-06	1279.7	342.35	5.7934e-06	5.9678e-06	433.34	111.39	75.845	16.872	5.5079e-06	26.044	0.000659	0.00086811	0.00025162	935.84	9.3034e-06	9.6316e-06	1120.7	301.79	9.2194e-06	9.9061e-06	381.5	98.429	66.841	15.22	9.7229e-06	23.346	292.935	262.272	242.204	155.931	291.146	309.064	154.390	160.707	307.392	262.971	158.202	163.256	164.927	171.360	306.126	166.824	-8191	255	
2236.830	1	1	0	0	0.1856	0.29738	0.08612	0.1955	0.21148	0.15148	0.11402	0.12562	0.13884	0.18706	0.16322	0.058798	0.18662	0.12816	0.12218	0.12002	-2.6688	-3.8542	-3.5667	-3.5479	-4.0479	-3.45	-3.8167	-4.2479	-3.1542	-3.95	-3.9917	-3.2292	-4.2625	-3.4542	-3.45	-4.1958	398.120	287.559	291.838	173.865	155.725	192.394	409.578	145.095	383.851	187.610	203.530	272.249	495.238	375.445	394.893	405.482	0.00038907	0.00045024	7.74e-05	1055.6	5.3317e-06	2.3086e-06	1274.2	343.02	9.5312e-06	3.3258e-06	431.33	111.83	75.148	16.97	4.6131e-06	26.619	0.00067152	0.00086872	0.00024715	933.75	9.426e-06	9.808e-06	1119.1	301.71	9.3379e-06	9.9022e-06	381.44	99.121	66.679	15.306	9.692e-06	23.656	286.220	216.608	288.833	156.188	262.266	293.012	154.155	160.738	310.423	244.289	158.094	163.544	165.399	171.929	299.503	167.135	-8191	255	
2236.926	1	1	0	0	0.16924	0.1099	0.036028	0.044234	0.096898	0.32262	0.1959	0.036558	0.28612	0.067736	0.073354	0.10866	0.1601	0.30146	0.22667	0.12356	-2.8125	-3.7812	-3.9021	-3.1937	-4.0521	-3.6937	-3.6	-4.2063	-3.3708	-3.7729	-3.9417	-3.2313	-4.175	-3.6542	-3.3792	-4.2354	262.811	363.599	262.993	450.180	292.819	316.004	441.875	159.406	223.584	184.520	327.435	406.832	403.163	471.816	195.116	149.856	0.00032081	0.00057256	0.00016357	1062.4	7.8828e-06	6.3235e-06	1280.3	339.67	5.5519e-06	6.2653e-06	435.64	114.49	76.384	17.165	7.2652e-06	26.732	0.00069356	0.00086805	0.00024942	938.48	9.3829e-06	9.9751e-06	1123.4	302.12	9.6206e-06	9.9195e-06	384.75	100.53	67.617	15.459	9.4284e-06	23.937	286.238	240.798	217.049	155.671	308.562	259.447	154.371	161.250	320.618	266.244	158.542	163.585	165.370	171.858	346.052	167.996	-8191	255	
2237.047	1	1	0	0	0.13629	0.27909	0.1084	0.35957	0.048593	0.24394	0.13316	0.24343	0.21952	0.14302	0.13582	0.25107	0.11809	0.33174	0.18102	0.15604	-2.95	-3.7042	-3.95	-3.1583	-4.1062	-3.6646	-3.5458	-4.3125	-3.2875	-3.6292	-4.0021	-3.2854	-4.0292	-3.6312	-3.2375	-4.2146	235.000	359.130	427.135	378.502	225.953	176.867	392.402	483.260	492.694	180.557	473.457	491.579	221.223	173.510	172.750	472.169	0.00038633	0.00029632	8.5257e-05	1071.8	5.3815e-06	2.3898e-06	1284.8	341.45	5.5869e-06	2.3326e-06	436.67	113.62	76.313	17.093	6.9521e-06	26.414	0.0006984	0.00089684	0.00025127	939.95	9.4197e-06	9.9126e-06	1127.8	303.63	9.2175e-06	9.9782e-06	385.37	100.01	67.546	15.434	9.6608e-06	23.719	282.972	253.618	248.153	155.979	312.099	317.023	154.115	161.055	296.687	311.380	158.005	163.145	165.686	171.461	349.170	166.946	-8191	255	
2237.119	1	1	0	0	0.21263	0.026185	0.16165	0.062304	0.10529	0.12849	0.28757	0.27127	0.28445	0.078528	0.31497	0.050248	0.091065	0.20778	0.24771	0.11205	-3.0146	-3.6	-4.0875	-3.3083	-3.8438	-3.8354	-3.475	-4.2625	-3.5104	-3.5292	-4.3417	-3.3812	-3.9729	-3.9	-3.2188	-4.2667	180.159	333.101	413.255	174.100	218.146	192.286	438.419	452.355	160.984	339.467	424.567	353.672	476.985	448.646	287.736	190.518	0.00036974	0.00025498	0.00012421	1051.6	1.0221e-05	3.7046e-06	1283.2	342.87	8.0853e-06	5.3503e-06	430.66	112.14	75.576	17.174	8.5401e-06	26.451	0.0006884	0.00088848	0.00024989	933.43	9.1911e-06	9.8969e-06	1122.7	303.12	9.4205e-06	9.7604e-06	382.59	99.347	67.407	15.46	9.8641e-06	23.778	284.623	231.990	273.468	155.603	319.557	336.631	153.687	160.884	312.522	277.505	158.477	162.753	165.264	171.522	307.540	167.380	-8191	255	
2237.215	1	1	0	0	0.27675	0.12921	0.25846	0.16326	0.16666	0.10658	0.15293	0.06247	0.30789	0.19572	0.19027	0.19068	0.054791	0.11642	0.12834	0.17253	-3.1083	-3.4208	-4.1646	-3.4062	-3.8833	-4.0354	-3.5625	-4.2812	-3.4604	-3.5417	-4.2417	-3.325	-3.6875	-4.0917	-3.2188	-4.1813	428.818	329.399	350.523	465.236	179.223	422.915	153.080	435.111	333.498	320.740	417.217	405.911	153.721	381.729	175.782	441.806	0.00035961	0.00026903	7.5675e-05	1063.4	5.244e-06	6.7618e-06	1272.4	343.17	4.1181e-06	2.6599e-06	435	112.79	76.793	17.316	2.7732e-06	26.646	0.00066545	0.0008938	0.00025764	936.72	9.3571e-06	1.0055e-05	1118.7	304	9.467e-06	1.0315e-05	384.54	99.931	68.019	15.538	9.5394e-06	24.047	277.331	281.312	222.746	155.852	273.961	332.215	153.979	161.097	303.565	325.323	158.438	163.171	165.381	171.930	311.663	167.335	-8191	255	
2237.311	1	1	0	0	0.041004	0.23339	0.11312	0.12125	0.37433	0.21147	0.2496	0.27383	0.19825	0.081217	0.19752	0.37086	0.18681	0.088582	0.026457	0.081687	-3.475	-3.2229	-4.125	-3.3896	-3.5	-4.0604	-3.4396	-4.1167	-3.7708	-3.2687	-4.3167	-3.375	-3.5521	-3.9854	-3.1917	-3.8604	376.342	190.315	292.883	177.846	317.851	181.246	385.908	436.997	403.922	321.068	182.641	467.903	227.980	402.737	357.997	491.318	0.0004019	0.00066421	0.00024251	1064.3	3.2956e-06	5.8707e-06	1279.6	344.66	4.5076e-06	3.6883e-06	436.49	113.99	77.135	17.422	5.924e-06	27.203	0.0006944	0.00093294	0.00025453	938.84	9.646e-06	1.0495e-05	1126.5	304.88	9.1083e-06	1.0578e-05	386	101.03	67.953	15.653	9.6944e-06	24.229	286.235	245.491	231.864	156.052	334.329	302.332	154.141	160.917	317.123	277.933	158.453	163.372	165.796	171.486	318.297	167.260	-8191	255	
2237.407	1	1	0	0	0.079942	0.35463	0.11243	0.20592	0.2106	0.31703	0.20365	0.16076	0.25959	0.069485	0.23871	0.0090992	0.15233	0.12583	0.098706	0.066376	-3.5417	-3.2833	-4.3	-3.5083	-3.4313	-4.1104	-3.3958	-4.0042	-3.9979	-3.3354	-4.2542	-3.7188	-3.4396	-4.2188	-3.2396	-3.8167	285.238	433.486	255.181	393.165	438.945	502.919	455.809	435.369	431.843	245.208	148.344	287.613	194.553	290.831	495.581	315.114	0.00038809	0.00041643	0.00018279	1061.9	2.463e-06	4.4222e-06	1283.8	345.27	4.1287e-06	6.4885e-06	437.57	113.5	76.554	17.259	3.9356e-06	26.362	0.00067666	0.00091295	0.0002486	937.08	9.4161e-06	9.7712e-06	1126.3	305.64	9.6623e-06	9.9616e-06	385.53	100.31	67.897	15.512	9.8541e-06	23.769	283.716	244.830	257.089	155.997	324.314	343.630	154.083	160.997	260.764	311.749	158.481	163.336	165.225	171.868	244.524	167.305	-8191	255	
2237.526	1	1	0	0	0.22211	0.077737	0.059766	0.17666	0.078108	0.17794	0.1906	0.058866	0.06856	0.31218	0.23823	0.031583	0.13229	0.2012	0.077515	0.13956	-3.6479	-3.2812	-3.9604	-3.7104	-3.2604	-4.1813	-3.3958	-3.8646	-3.925	-3.2938	-4.1771	-3.8083	-3.2354	-4.2792	-3.3208	-3.6083	155.610	397.353	374.006	177.012	410.934	197.539	489.119	391.458	162.712	348.810	370.124	385.752	192.468	494.873	204.225	264.677	0.00031856	0.00028475	0.00018709	1059.7	8.2294e-06	3.8329e-06	1272.3	342.34	7.0797e-06	8.4181e-06	431.38	112.63	76.511	17.285	5.5098e-06	26.298	0.00069638	0.00090088	0.0002486	935.2	9.4933e-06	9.7398e-06	1116.7	303.21	9.2688e-06	1.0061e-05	381.73	99.388	67.803	15.478	9.1879e-06	23.691	286.040	290.775	239.744	156.274	294.306	277.888	153.936	161.290	307.937	307.803	158.428	163.364	165.529	171.570	330.269	167.287	-8191	255	
2237.622	1	1	0	0	0.085714	0.21201	0.25704	0.087532	0.13883	0.10767	0.15369	0.20119	0.22239	0.081548	0.069651	0.098316	0.13294	0.23142	0.35146	0.071575	-3.6937	-3.1833	-4.0208	-3.9354	-3.2896	-4.1562	-3.4604	-3.5917	-4.0667	-3.2667	-4.0417	-3.875	-3.1833	-4.2146	-3.5896	-3.4958	385.294	223.711	160.003	433.219	340.501	313.691	424.813	493.906	470.475	281.185	489.177	423.878	158.627	405.246	377.744	419.800	0.00034926	0.0007511	0.00024515	1058.3	3.1311e-06	3.756e-06	1273.3	344.41	3.8107e-06	2.9273e-06	434.09	113.52	76.685	17.282	5.2886e-06	26.599	0.00068182	0.00092973	0.00024294	934.26	9.2968e-06	1.0365e-05	1119.4	303.71	9.6168e-06	1.0544e-05	383.42	99.722	67.993	15.47	1.0237e-05	23.974	275.110	215.628	225.887	155.919	245.300	281.552	154.055	161.110	306.986	280.172	158.512	163.786	165.372	171.781	322.208	166.987	-8191	255	
2237.694	1	1	0	0	0.062536	0.16728	0.30065	0.067115	0.084756	0.11671	0.13307	0.13657	0.20273	0.14327	0.35899	0.18134	0.15019	0.13106	0.26495	0.18615	-3.875	-3.3688	-3.9542	-3.9417	-3.1271	-4.1562	-3.6958	-3.4729	-3.9104	-3.2667	-3.7687	-3.9562	-3.3312	-4.0563	-3.4938	-3.4021	220.636	190.534	314.952	413.096	180.746	288.818	161.808	413.773	183.938	239.889	452.467	371.620	144.125	467.982	352.245	188.584	0.00043888	0.00065465	0.00013672	1070.6	7.8991e-06	2.9992e-06	1281	344.83	4.3207e-06	4.9043e-06	438.21	114.34	77.009	17.591	4.8502e-06	26.944	0.00069183	0.00092371	0.00025083	939.05	9.7281e-06	1.0035e-05	1124	304.73	9.2787e-06	1.0616e-05	387.34	100.98	68.072	15.737	9.7189e-06	24.218	282.335	234.161	242.671	156.213	274.818	245.286	154.376	161.015	303.798	293.487	158.734	163.021	165.455	171.959	289.836	167.452	-8191	255	
#DATA ENDS
