BOXY.EXE: ISS Imagent and Oximeter Data Acquisition Program Version 0.80
Ascii Record File

#ACQ INFORMATION
2  Detector Channels 
16  External MUX Channels 
1  Auxiliary Channels 
5000  Waveform (CCF) Frequency (Hz)
1  Waveforms Skipped 
30  Waveforms Averaged 
1  Cycles Averaged 
16  Acquisitions per Waveform 
10.0806  Updata Rate (Hz) 

#FILE INFORMATION
TRUE -- External MUX Channel results are PARSED.
FALSE -- AC DC and Phase are NOT grouped.
TRUE -- Companion Program Settings File CREATED.
FALSE -- AC data not excluded
FALSE -- DC data not excluded
FALSE -- Phase data not excluded
FALSE -- Auxillary Chn. data not excluded
Tab delimiters

#CALIBRATION STATE
TRUE -- Waveform Calibration Values APPLIED.


#AUX CALIBRATION VALUES
Val Type	aux-1	

Term	1.0000e+00	
Factor	0.0000e+00	


#WF CALIBRATION VALUES
A = Detector Channel
Val Type	A-AC1	A-AC2	A-AC3	A-AC4	A-AC5	A-AC6	A-AC7	A-AC8	A-AC9	A-AC10	A-AC11	A-AC12	A-AC13	A-AC14	A-AC15	A-AC16	A-DC1	A-DC2	A-DC3	A-DC4	A-DC5	A-DC6	A-DC7	A-DC8	A-DC9	A-DC10	A-DC11	A-DC12	A-DC13	A-DC14	A-DC15	A-DC16	A-Ph1	A-Ph2	A-Ph3	A-Ph4	A-Ph5	A-Ph6	A-Ph7	A-Ph8	A-Ph9	A-Ph10	A-Ph11	A-Ph12	A-Ph13	A-Ph14	A-Ph15	A-Ph16	

Term	0.00000e+00	0.00000e+00	0.00000e+00	0.00000e+00	0.00000e+00	0.00000e+00	0.00000e+00	0.00000e+00	0.00000e+00	0.00000e+00	0.00000e+00	0.00000e+00	0.00000e+00	0.00000e+00	0.00000e+00	0.00000e+00	0.00000e+00	0.00000e+00	0.00000e+00	0.00000e+00	0.00000e+00	0.00000e+00	0.00000e+00	0.00000e+00	0.00000e+00	0.00000e+00	0.00000e+00	0.00000e+00	0.00000e+00	0.00000e+00	0.00000e+00	0.00000e+00	0.00000e+00	0.00000e+00	0.00000e+00	0.00000e+00	0.00000e+00	0.00000e+00	0.00000e+00	0.00000e+00	0.00000e+00	0.00000e+00	0.00000e+00	0.00000e+00	0.00000e+00	0.00000e+00	0.00000e+00	0.00000e+00	
Factor	1.00000e+00	1.00000e+00	1.00000e+00	1.00000e+00	1.00000e+00	1.00000e+00	1.00000e+00	1.00000e+00	1.00000e+00	1.00000e+00	1.00000e+00	1.00000e+00	1.00000e+00	1.00000e+00	1.00000e+00	1.00000e+00	1.00000e+00	1.00000e+00	1.00000e+00	1.00000e+00	1.00000e+00	1.00000e+00	1.00000e+00	1.00000e+00	1.00000e+00	1.00000e+00	1.00000e+00	1.00000e+00	1.00000e+00	1.00000e+00	1.00000e+00	1.00000e+00	X	X	X	X	X	X	X	X	X	X	X	X	X	X	X	X	

B = Detector Channel
Val Type	B-AC1	B-AC2	B-AC3	B-AC4	B-AC5	B-AC6	B-AC7	B-AC8	B-AC9	B-AC10	B-AC11	B-AC12	B-AC13	B-AC14	B-AC15	B-AC16	B-DC1	B-DC2	B-DC3	B-DC4	B-DC5	B-DC6	B-DC7	B-DC8	B-DC9	B-DC10	B-DC11	B-DC12	B-DC13	B-DC14	B-DC15	B-DC16	B-Ph1	B-Ph2	B-Ph3	B-Ph4	B-Ph5	B-Ph6	B-Ph7	B-Ph8	B-Ph9	B-Ph10	B-Ph11	B-Ph12	B-Ph13	B-Ph14	B-Ph15	B-Ph16	

Term	0.00000e+00	0.00000e+00	0.00000e+00	0.00000e+00	0.00000e+00	0.00000e+00	0.00000e+00	0.00000e+00	0.00000e+00	0.00000e+00	0.00000e+00	0.00000e+00	0.00000e+00	0.00000e+00	0.00000e+00	0.00000e+00	0.00000e+00	0.00000e+00	0.00000e+00	0.00000e+00	0.00000e+00	0.00000e+00	0.00000e+00	0.00000e+00	0.00000e+00	0.00000e+00	0.00000e+00	0.00000e+00	0.00000e+00	0.00000e+00	0.00000e+00	0.00000e+00	-3.55938e+01	-1.27701e+02	-1.25281e+02	-1.82617e+02	-5.40153e+01	-6.01161e+01	-1.56707e+02	-1.61923e+02	-3.23848e+01	-6.96501e+01	-1.72081e+02	-1.72121e+02	-1.82310e+02	-1.75613e+02	-4.80221e+01	-1.49421e+02	
Factor	1.75935e-05	1.27067e-04	3.90881e-05	1.69756e-01	1.41494e-06	1.43045e-06	1.51472e-01	4.16107e-02	1.27005e-06	1.46452e-06	7.00974e-02	2.89022e-02	2.93523e-02	6.32495e-03	1.47419e-06	9.43134e-03	9.40978e-06	1.53733e-05	4.30930e-06	8.73817e-02	1.59016e-07	1.71387e-07	7.34779e-02	2.15944e-02	1.53695e-07	1.73083e-07	3.51862e-02	1.45699e-02	1.52597e-02	3.31565e-03	1.61020e-07	4.78232e-03	X	X	X	X	X	X	X	X	X	X	X	X	X	X	X	X	



#DISTANCE SETTINGS
A = Detector Channel
A-1	A-2	A-3	A-4	A-5	A-6	A-7	A-8	A-9	A-10	A-11	A-12	A-13	A-14	A-15	A-16	

1.0000e+01	1.0000e+01	1.0000e+01	1.4500e+00	1.0000e+01	1.0000e+01	1.5100e+00	1.9500e+00	1.0000e+01	1.0000e+01	2.0100e+00	2.5000e+00	2.4400e+00	2.9500e+00	1.0000e+01	3.0100e+00	

B = Detector Channel
B-1	B-2	B-3	B-4	B-5	B-6	B-7	B-8	B-9	B-10	B-11	B-12	B-13	B-14	B-15	B-16	

1.0000e+01	1.0000e+01	1.0000e+01	1.4500e+00	1.0000e+01	1.0000e+01	1.5100e+00	1.9500e+00	1.0000e+01	1.0000e+01	2.0100e+00	2.5000e+00	2.4400e+00	2.9500e+00	1.0000e+01	3.0100e+00	




#DATA BEGINS
time	group	step	mark	flag	A-AC1	A-AC2	A-AC3	A-AC4	A-AC5	A-AC6	A-AC7	A-AC8	A-AC9	A-AC10	A-AC11	A-AC12	A-AC13	A-AC14	A-AC15	A-AC16	A-DC1	A-DC2	A-DC3	A-DC4	A-DC5	A-DC6	A-DC7	A-DC8	A-DC9	A-DC10	A-DC11	A-DC12	A-DC13	A-DC14	A-DC15	A-DC16	A-Ph1	A-Ph2	A-Ph3	A-Ph4	A-Ph5	A-Ph6	A-Ph7	A-Ph8	A-Ph9	A-Ph10	A-Ph11	A-Ph12	A-Ph13	A-Ph14	A-Ph15	A-Ph16	B-AC1	B-AC2	B-AC3	B-AC4	B-AC5	B-AC6	B-AC7	B-AC8	B-AC9	B-AC10	B-AC11	B-AC12	B-AC13	B-AC14	B-AC15	B-AC16	B-DC1	B-DC2	B-DC3	B-DC4	B-DC5	B-DC6	B-DC7	B-DC8	B-DC9	B-DC10	B-DC11	B-DC12	B-DC13	B-DC14	B-DC15	B-DC16	B-Ph1	B-Ph2	B-Ph3	B-Ph4	B-Ph5	B-Ph6	B-Ph7	B-Ph8	B-Ph9	B-Ph10	B-Ph11	B-Ph12	B-Ph13	B-Ph14	B-Ph15	B-Ph16	aux-1	digaux	

1542.631	1	1	0	256	0.10768	0.015364	0.26046	0.2369	0.11761	0.25779	0.15349	0.227	0.25311	0.17358	0.44133	0.1904	0.070499	0.14938	0.21911	0.12833	-3.0208	-4.1958	-3.1917	-3.9813	-3.9313	-3.1625	-4.1625	-3.75	-3.3146	-4.2354	-3.3438	-3.8708	-4.0083	-3.3125	-4.1521	-3.5896	125.572	37.061	-17.588	109.929	146.894	-43.150	195.351	156.050	166.267	-38.020	157.775	116.175	-124.274	157.606	51.167	205.348	0.00019395	0.00026429	0.00013943	998.96	2.344e-06	1.6906e-06	903.76	250.05	4.4195e-06	4.815e-06	229.37	61.62	58.272	17.189	5.1121e-06	20.229	0.0002257	0.00023556	6.8231e-05	864.77	2.7069e-06	2.5265e-06	780.37	217.78	2.8603e-06	2.6777e-06	199.44	54.196	51.105	15.129	2.4633e-06	17.778	-61.807	-78.777	-45.948	-139.002	-0.227	-43.511	-140.383	-133.873	3.516	1.241	-135.784	-130.568	-129.358	-123.973	20.158	-127.466	-8191	255	
1542.727	1	1	0	0	0.36692	0.22031	0.082348	0.45816	0.0458	0.095818	0.13538	0.28327	0.12251	0.29271	0.088012	0.21476	0.1411	0.068711	0.085717	0.15333	-2.9333	-4.1042	-3.1188	-3.9271	-3.9771	-3.1896	-4.1937	-3.5792	-3.25	-4.0729	-3.5479	-3.6	-4.1312	-3.2083	-3.975	-3.8625	-122.802	-131.533	159.307	124.538	1.880	95.190	168.671	24.947	-13.737	-138.059	-89.681	-90.586	-42.487	55.274	-86.851	159.061	0.00015369	0.00032244	1.4328e-05	988.06	3.6804e-06	1.8424e-06	895.72	249.04	2.9455e-07	4.7821e-06	229.34	62.226	58.845	17.307	3.0736e-06	20.463	0.00021084	0.00022711	6.8383e-05	857.46	2.418e-06	2.6701e-06	773.73	216.92	2.7095e-06	2.5508e-06	200.01	54.326	51.258	15.164	2.6115e-06	17.888	-59.498	-33.208	-101.790	-138.952	15.754	1.777	-140.340	-133.886	-23.767	-5.960	-135.654	-130.840	-129.849	-123.970	-0.796	-127.085	-8191	255	
1542.823	1	1	0	0	0.29904	0.12863	0.02302	0.27126	0.1134	0.10308	0.35732	0.21338	0.0084504	0.27134	0.14112	0.27187	0.10397	0.27983	0.073856	0.15927	-3.0208	-4.1875	-3.3688	-3.6646	-4.0417	-3.3167	-4.2083	-3.9667	-3.2479	-4.2625	-3.5375	-3.5417	-4.0896	-3.4521	-3.8708	-3.9708	-96.657	162.863	-137.740	140.942	-58.127	191.372	122.257	137.486	200.534	-53.243	65.353	11.519	-81.101	-65.032	45.121	128.448	0.00020776	0.00019472	7.2567e-05	989.63	1.5826e-06	2.2306e-06	907.7	250.22	2.7327e-06	3.4971e-06	232.37	62.476	58.883	17.444	2.385e-06	20.559	0.00023811	0.00023505	6.6624e-05	860.95	2.4127e-06	2.4391e-06	782.76	217.77	3.0348e-06	2.6633e-06	201.93	54.662	51.239	15.217	2.586e-06	18.059	-60.130	-54.001	-51.304	-139.115	-24.518	-8.709	-140.555	-133.570	11.461	-31.095	-135.568	-131.021	-129.144	-124.075	-39.486	-127.399	-8191	255	
1542.919	1	1	0	0	0.058394	0.098441	0.12	0.30886	0.3153	0.16953	0.27156	0.26005	0.13573	0.23234	0.12765	0.096263	0.10439	0.12811	0.10543	0.32074	-2.8063	-4.1312	-3.5771	-3.4979	-4.1937	-3.3771	-3.7396	-4.0896	-3.2313	-4.1729	-3.6437	-3.4062	-4.275	-3.225	-3.8042	-4.0854	31.666	68.606	-145.015	88.661	140.040	207.035	186.316	185.004	-132.306	-93.629	99.549	-100.645	113.671	99.846	198.114	61.693	0.00019747	0.00031504	0.00010012	998.37	2.107e-06	3.6504e-06	909.64	251.97	2.9814e-06	2.6412e-06	234.41	63.209	58.682	17.234	3.3298e-06	20.645	0.00022609	0.0002535	6.6641e-05	866.19	2.5356e-06	2.3548e-06	792.98	219.54	2.8485e-06	2.2681e-06	204.57	55.416	51.7	15.172	2.5709e-06	18.131	-59.146	-55.800	-55.150	-139.104	4.741	29.632	-140.433	-134.052	2.186	2.119	-136.557	-131.151	-129.053	-123.929	45.273	-127.109	-8191	255	
1543.015	1	1	0	0	0.082977	0.13054	0.099869	0.20989	0.3273	0.075488	0.18829	0.25401	0.090091	0.33835	0.070108	0.25964	0.11725	0.23599	0.12668	0.13777	-2.7	-4.0375	-3.7125	-3.3417	-4.0854	-3.4979	-3.7438	-4.1625	-3.3396	-4.0958	-3.8146	-3.2083	-4.0354	-3.4542	-3.5187	-4.0958	188.816	155.245	194.049	-126.212	-17.967	43.942	187.981	139.314	-71.045	-144.629	-36.157	134.509	-66.496	145.728	120.143	-85.942	0.00019294	0.0002362	8.9934e-05	998.15	4.1735e-06	1.0671e-06	900.5	248.65	2.0696e-06	4.5475e-06	229.34	61.961	58.552	17.128	2.5393e-06	20.219	0.00022344	0.00021901	7.0035e-05	863.04	2.6161e-06	2.4823e-06	781.32	216.91	2.7118e-06	2.5966e-06	199.53	54.286	51.157	15.033	2.6303e-06	17.765	-60.488	-62.974	-15.708	-139.217	-18.813	-40.758	-140.345	-133.962	-44.670	-25.808	-135.731	-131.321	-129.336	-123.686	-6.980	-127.365	-8191	255	
1543.134	1	1	0	0	0.086748	0.18211	0.10994	0.21609	0.14648	0.058613	0.1136	0.12624	0.066897	0.12389	0.063468	0.19969	0.11765	0.07123	0.067767	0.34998	-2.85	-3.8771	-4.0021	-3.2229	-4.1083	-3.6042	-3.6583	-4.1062	-3.2	-3.8708	-4.0729	-3.3042	-4.2146	-3.6188	-3.3688	-4.2333	117.122	16.864	77.016	-129.561	6.635	131.872	166.923	141.190	27.478	-131.037	109.870	153.174	-110.197	149.068	-140.590	30.215	0.00018406	0.00014429	1.6121e-06	989.26	4.2023e-06	1.2062e-06	900.1	247.09	5.3307e-06	2.3836e-06	229.55	62.172	58.113	17.12	3.4101e-06	20.174	0.0002354	0.0002436	6.5034e-05	856.93	2.6387e-06	2.5515e-06	777.86	216.3	2.8286e-06	2.4044e-06	199.39	54.151	50.991	15.023	2.631e-06	17.809	-59.795	-74.902	27.572	-139.440	-23.190	50.318	-140.438	-133.684	-16.229	33.261	-135.912	-131.047	-129.544	-123.729	21.404	-127.654	-8191	255	
1543.230	1	1	0	0	0.13825	0.1996	0.2645	0.20077	0.1274	0.079191	0.42696	0.32325	0.21018	0.16098	0.10304	0.043475	0.16923	0.056086	0.14806	0.19399	-3.0687	-3.7125	-3.8958	-3.1604	-4.0667	-3.7458	-3.4792	-4.2354	-3.3833	-3.6292	-4.1396	-3.1875	-4.2729	-3.7083	-3.4396	-4.2896	-84.884	-82.786	107.309	186.269	-57.174	125.780	169.592	-130.390	178.745	-42.713	142.194	1.753	-121.018	-109.294	78.118	167.271	0.00019367	0.00044428	9.8409e-05	995.3	4.0986e-06	2.8876e-06	901.69	249.46	4.908e-06	2.3854e-06	231.94	62.343	58.127	17.014	1.413e-06	20.741	0.00023742	0.00024075	6.4657e-05	860.32	2.7583e-06	2.5465e-06	783.31	217.47	2.7521e-06	2.5447e-06	201.95	54.608	51.207	15.108	2.6545e-06	18.128	-47.476	-34.664	-20.940	-139.180	-24.038	-11.842	-140.284	-133.891	-15.066	8.417	-135.815	-130.742	-128.254	-123.886	-21.610	-127.183	-8191	255	
1543.327	1	1	0	0	0.14481	0.33477	0.082328	0.081535	0.16627	0.10735	0.39372	0.38196	0.21859	0.29813	0.14422	0.039867	0.046481	0.12956	0.13266	0.16137	-2.9604	-3.6542	-4.1604	-3.4833	-3.925	-3.9667	-3.4104	-4.2854	-3.5062	-3.5271	-4.3542	-3.2854	-3.8833	-3.9604	-3.1979	-4.2333	127.806	21.176	154.795	-134.208	-96.249	28.300	127.926	-142.650	178.101	-145.107	172.493	121.700	-139.584	-109.079	62.804	183.638	0.00016912	9.7282e-05	0.00011236	995.28	7.2287e-07	3.4692e-06	913.24	252.04	4.1883e-06	2.1901e-06	233.81	62.811	58.682	17.393	1.633e-06	20.837	0.00023795	0.00025251	6.8383e-05	864.82	2.7685e-06	2.5719e-06	793.26	219.18	2.9804e-06	2.681e-06	204.63	55.096	51.695	15.238	2.8789e-06	18.195	-59.567	-57.413	-56.126	-138.861	34.569	-4.792	-140.512	-134.135	-3.054	43.500	-135.877	-131.435	-128.784	-123.594	39.615	-127.247	-8191	255	
1543.398	1	1	0	0	0.11199	0.15395	0.10606	0.2541	0.15094	0.0061733	0.10496	0.16402	0.23459	0.10718	0.049699	0.16183	0.24336	0.27376	0.056441	0.052844	-3.2667	-3.3542	-4.2688	-3.3625	-3.8229	-3.9021	-3.2646	-4.2333	-3.6063	-3.4625	-4.2312	-3.3833	-3.575	-4.1125	-3.1542	-4.1458	42.378	120.252	-112.486	200.230	94.422	13.736	138.189	191.744	85.560	0.584	-39.839	66.948	195.188	132.442	102.897	9.098	0.00018914	0.00012615	0.00014634	995.28	2.558e-06	2.3012e-06	899.45	247.28	3.4145e-06	4.1484e-06	229.94	62.06	58.048	17.132	3.7612e-06	20.353	0.0002214	0.00023867	6.8931e-05	864.19	2.6436e-06	2.7647e-06	782.18	216.53	2.7262e-06	2.814e-06	199.65	54.097	50.967	15.029	2.7709e-06	17.899	-59.750	-28.418	-59.362	-139.201	4.491	-21.063	-140.633	-133.931	12.094	-31.850	-135.585	-131.149	-129.332	-124.076	8.656	-127.397	-8191	255	
1543.519	1	1	0	0	0.32586	0.14572	0.094863	0.2386	0.13995	0.22374	0.29634	0.022036	0.27376	0.17003	0.079692	0.12976	0.030056	0.26583	0.26264	0.097264	-3.1688	-3.2917	-4.0667	-3.3937	-3.6375	-4.1854	-3.0812	-4.2333	-3.7729	-3.3937	-4.2271	-3.4125	-3.5896	-4.2271	-3.2771	-4.0917	162.457	107.914	-69.930	89.447	106.114	-1.141	112.463	30.709	23.323	-129.524	195.811	-102.421	-98.960	159.283	149.394	113.562	0.00017573	0.00026225	0.00010638	992.34	5.2283e-06	2.4489e-06	901.67	248.65	4.5187e-06	2.277e-06	229.83	61.251	58.72	17.151	4.5003e-06	20.625	0.00022689	0.00025997	6.8222e-05	859.54	2.9382e-06	2.5283e-06	778.57	216.55	2.827e-06	2.9655e-06	200.09	54.033	51.094	15.142	2.8876e-06	18.05	-62.143	-50.450	-82.085	-139.485	-26.262	41.321	-140.407	-133.809	-11.197	-0.695	-135.672	-131.446	-129.303	-123.799	10.447	-128.021	-8191	255	
1543.615	1	1	0	0	0.13945	0.12412	0.18605	0.0046683	0.11933	0.11405	0.063946	0.13761	0.1145	0.10137	0.26491	0.045686	0.31335	0.11998	0.15901	0.18034	-3.4417	-3.1437	-4.1312	-3.4958	-3.3708	-4.1271	-3.2854	-4.0167	-3.9583	-3.1333	-4.2458	-3.5417	-3.4542	-4.2521	-3.3208	-3.875	166.666	174.284	-54.046	100.137	-54.915	-8.384	191.196	173.341	-49.647	150.500	134.456	36.777	-148.071	151.415	68.276	172.760	0.00022271	0.00042445	5.3653e-05	996.76	1.8182e-06	2.4741e-06	904.72	250.26	4.3169e-06	2.009e-06	233.63	62.529	59.178	17.343	3.9188e-06	20.795	0.00022513	0.00024962	6.8572e-05	863.17	2.9368e-06	2.5808e-06	786.7	217.79	2.8767e-06	2.7531e-06	202.18	54.584	51.464	15.199	2.7823e-06	18.198	-60.989	-33.911	-50.025	-139.289	-78.367	11.224	-140.316	-133.959	47.670	-50.182	-135.749	-130.444	-129.358	-123.993	-5.324	-127.383	-8191	255	
1543.711	1	1	0	0	0.2771	0.11021	0.30812	0.14575	0.24571	0.092824	0.30066	0.096529	0.042332	0.060766	0.13687	0.15228	0.073382	0.1753	0.16915	0.21292	-3.525	-3.1083	-4.0167	-3.8063	-3.3167	-4.1583	-3.4792	-3.8625	-4.0625	-3.2167	-4.1958	-3.6333	-3.5667	-4.1979	-3.3646	-3.4896	194.930	74.570	-67.488	185.632	-94.392	9.465	56.645	196.073	144.804	120.816	164.242	-61.303	126.930	-69.778	-56.355	51.935	0.00018713	0.00035536	9.081e-05	996.35	3.9805e-06	4.7372e-06	914.08	250.88	3.772e-06	4.0875e-06	235.41	63.521	59.115	17.351	1.0191e-06	20.875	0.00022415	0.00024296	6.7099e-05	864.86	2.9372e-06	2.6369e-06	794.31	219.03	2.7892e-06	2.7196e-06	205.39	55.279	51.832	15.295	2.7035e-06	18.221	-61.264	-76.572	-39.281	-139.366	1.670	12.155	-140.511	-133.962	-7.722	13.757	-135.805	-131.657	-129.458	-123.897	-25.601	-127.641	-8191	255	
1543.807	1	1	0	0	0.091932	0.15825	0.16776	0.087192	0.31066	0.18784	0.12674	0.32282	0.12398	0.26046	0.079184	0.036525	0.040439	0.24809	0.12984	0.21234	-3.6917	-3.2792	-3.9562	-3.8667	-3.4729	-4.3354	-3.3312	-3.7458	-4.2312	-3.3375	-3.9958	-3.9375	-3.1875	-4.1292	-3.5938	-3.5646	-109.248	-84.027	29.489	156.951	106.045	174.670	55.304	133.161	128.411	109.965	-108.005	4.604	-7.844	187.618	127.548	115.740	0.00017697	0.00038303	9.887e-05	992.4	2.4524e-06	9.2208e-07	897.45	249.06	8.8376e-07	3.7641e-06	230.99	62.076	58.36	17.178	3.1621e-06	20.386	0.00022385	0.0002362	6.0617e-05	860.29	2.9338e-06	2.6097e-06	780.21	217.02	2.7249e-06	2.5595e-06	200.04	54.358	51.15	15.164	2.732e-06	17.948	-55.089	-71.265	-62.198	-139.211	-7.586	20.995	-140.709	-134.023	-8.248	15.226	-136.055	-131.426	-129.613	-124.099	7.949	-127.487	-8191	255	
1543.928	1	1	0	0	0.17793	0.072021	0.091553	0.18151	0.16223	0.11241	0.2456	0.33115	0.077495	0.18984	0.1679	0.27164	0.16487	0.21847	0.14524	0.14078	-3.9938	-3.3396	-3.8312	-4.0396	-3.1479	-4.15	-3.7313	-3.375	-4.2083	-3.2125	-3.9333	-3.9604	-3.125	-4.1854	-3.5979	-3.3125	-124.663	-98.278	-100.983	165.595	-123.683	85.854	178.444	156.398	-10.714	170.776	68.476	-117.449	146.210	123.875	205.574	149.754	0.00018602	0.00018087	6.2485e-05	990.87	2.2643e-06	2.5671e-06	889.89	248.7	4.0464e-06	3.2604e-06	230.55	61.226	58.726	17.235	6.4854e-06	20.482	0.00021837	0.00024911	7.0152e-05	855.81	2.9213e-06	2.7779e-06	777.24	216.92	2.6653e-06	2.9071e-06	200.46	54.225	51.252	15.229	2.5857e-06	18.069	-50.572	-54.785	-60.827	-139.214	-19.544	-13.709	-140.876	-133.946	5.318	38.603	-135.864	-131.465	-128.969	-123.406	5.796	-127.467	-8191	255	
1544.000	1	1	0	0	0.13937	0.19838	0.13011	0.18145	0.12544	0.15096	0.14907	0.22583	0.11121	0.10371	0.36508	0.17589	0.19257	0.25798	0.11384	0.20243	-3.8812	-3.475	-3.6125	-4.2688	-3.2792	-4.0437	-3.7958	-3.3438	-4.1896	-3.5042	-3.7562	-4.2125	-3.0146	-4.0208	-3.8792	-3.1688	5.847	-11.848	22.166	185.935	-85.161	-82.987	207.582	201.556	-36.589	-52.201	149.879	192.156	11.063	197.733	18.027	111.325	0.00020545	8.2011e-05	5.1825e-05	990.56	1.5677e-06	1.2107e-06	900.47	249.97	3.5096e-06	3.7486e-06	233.16	63.298	59.336	17.389	3.6853e-06	20.744	0.00022313	0.00024514	7.0394e-05	858.18	2.75e-06	2.4391e-06	783.12	218.29	2.6144e-06	2.7607e-06	203.26	55.164	51.574	15.307	2.6458e-06	18.24	-57.175	-68.922	-26.854	-138.981	-57.240	25.977	-140.690	-133.710	-36.349	3.052	-135.863	-131.372	-129.300	-123.987	15.594	-127.693	-8191	255	
1544.096	1	1	0	0	0.28378	0.067695	0.11225	0.33844	0.079712	0.12589	0.22975	0.19639	0.13074	0.24655	0.11523	0.10618	0.13607	0.081047	0.017514	0.070887	-3.8958	-3.5604	-3.6083	-4.2312	-3.2938	-4.1833	-4.0771	-3.3458	-4.2479	-3.5563	-3.5438	-4.2896	-3.3333	-4.0042	-3.9792	-3.3354	-58.157	180.441	135.807	155.635	102.941	-66.841	-145.429	-137.657	-125.696	51.577	192.257	196.827	-36.189	141.697	-134.416	-31.997	0.00020499	0.00031056	9.0673e-05	996.66	4.2522e-06	2.3666e-06	919.82	251.87	3.8717e-06	3.2252e-06	235.95	62.986	59.124	17.429	2.318e-06	20.831	0.00022574	0.00022621	6.2943e-05	862.91	2.8295e-06	2.4715e-06	796.62	219.57	2.6551e-06	2.7358e-06	204.7	55.071	51.742	15.366	2.5267e-06	18.238	-65.861	-56.217	-41.900	-139.310	14.188	4.962	-140.818	-133.756	11.216	-39.575	-136.074	-131.567	-129.337	-123.884	51.263	-126.966	-8191	255	
1544.216	1	1	0	0	0.013557	0.064074	0.22827	0.043607	0.055982	0.041787	0.23155	0.24222	0.10389	0.098049	0.13404	0.16675	0.26705	0.26152	0.088472	0.31001	-3.9604	-3.6375	-3.3604	-4.4708	-3.4375	-3.7917	-4.2604	-3.3042	-4.0708	-3.6437	-3.3479	-4.1625	-3.45	-3.7188	-4.1	-3.1896	81.858	16.659	-106.457	-139.957	-23.649	-63.454	128.468	180.150	135.959	-102.328	-138.267	-62.522	-137.593	-124.769	176.461	134.369	0.00019532	0.00021435	8.1861e-05	984.87	2.6658e-06	3.2492e-06	895.98	247.95	3.4288e-06	2.4862e-06	229.09	62.055	58.514	17.385	4.082e-06	20.597	0.00021382	0.00023979	6.6543e-05	857.24	2.7742e-06	2.4905e-06	777.87	216.31	2.6676e-06	2.58e-06	199.52	54.229	51.102	15.21	2.5934e-06	18.014	-56.861	-80.784	-59.780	-139.499	-36.637	-16.828	-140.289	-133.767	-1.168	-50.239	-135.257	-131.222	-129.250	-123.616	-4.418	-127.774	-8191	255	
1544.311	1	1	0	0	0.09928	0.22166	0.080252	0.070641	0.18289	0.068538	0.24476	0.26898	0.15677	0.25444	0.124	0.11379	0.23104	0.091657	0.01964	0.085764	-3.7188	-3.8292	-3.3792	-4.3979	-3.3312	-3.7542	-4.3042	-3.3187	-3.9729	-3.8271	-3.4521	-4.3	-3.4146	-3.4917	-4.1687	-3.3708	90.824	165.491	48.290	42.539	17.620	-21.210	120.275	119.367	-135.251	-126.537	-137.808	112.910	175.859	53.191	-85.771	-130.067	0.00018579	0.00043544	7.0407e-05	983.4	1.598e-06	2.4563e-06	899.44	246.34	3.3168e-06	3.7609e-06	228.59	62.517	59.061	17.254	3.9562e-06	20.691	0.00021611	0.00024978	6.6839e-05	853.86	2.6499e-06	2.474e-06	780.16	215.67	2.6323e-06	2.606e-06	200.29	54.464	51.508	15.214	2.321e-06	18.186	-60.602	-47.153	-32.755	-138.770	37.944	76.239	-140.543	-133.881	-5.659	4.252	-135.895	-130.991	-128.803	-123.957	12.260	-127.535	-8191	255	
1544.407	1	1	0	0	0.16926	0.033315	0.037653	0.18615	0.10487	0.082892	0.37202	0.24415	0.32468	0.028314	0.14196	0.14414	0.30827	0.099005	0.24484	0.10783	-3.6229	-3.8937	-3.2833	-4.3042	-3.6312	-3.3896	-4.3313	-3.3875	-3.8354	-4.0437	-3.3458	-4.0854	-3.6583	-3.475	-4.225	-3.3792	-82.328	-24.774	-129.927	-137.241	-112.754	124.032	105.791	106.044	-123.957	-87.587	72.903	168.679	62.468	189.965	-86.624	121.106	0.00017111	0.00027566	6.9719e-05	981.64	1.664e-06	4.7539e-06	905.88	250.04	2.9857e-06	2.2127e-06	233.33	63.101	59.158	17.456	3.0838e-06	21.08	0.0002089	0.00023038	6.999e-05	856.86	2.6794e-06	2.4808e-06	789.35	217.41	2.9029e-06	2.6229e-06	203.59	55.124	51.796	15.367	2.634e-06	18.402	-52.346	-47.694	-85.331	-139.111	-14.317	-19.201	-140.376	-133.514	3.845	12.784	-135.526	-130.724	-128.479	-123.754	-19.990	-126.749	-8191	255	
1544.528	1	1	0	0	0.26524	0.049197	0.10287	0.20336	0.34828	0.11697	0.2799	0.10232	0.032829	0.17531	0.2467	0.20777	0.013011	0.20997	0.19852	0.14144	-3.4125	-4.0792	-3.2562	-4.3292	-3.8875	-3.3917	-4.2396	-3.4854	-3.6312	-4.1292	-3.275	-4.2458	-3.8063	-3.4313	-4.1146	-3.5563	51.112	160.774	-48.103	-148.414	35.918	-55.594	113.601	26.948	101.502	-141.475	178.439	-143.594	177.326	-85.873	-52.829	206.079	0.00020097	0.00025903	6.8785e-05	999.37	2.0268e-06	2.1772e-06	927.76	252.54	2.9003e-06	5.2974e-06	235.04	63.246	59.146	17.35	3.3123e-06	20.919	0.00022617	0.00023816	7.3141e-05	864.82	2.5638e-06	2.6597e-06	802.97	219.58	2.7233e-06	2.5068e-06	204.95	55.391	51.649	15.346	2.4452e-06	18.233	-55.677	-44.524	-48.020	-139.099	21.045	8.128	-140.287	-133.929	-4.107	23.726	-136.000	-130.769	-129.280	-123.575	0.083	-127.236	-8191	255	
1544.599	1	1	0	0	0.12138	0.23361	0.19044	0.2306	0.19456	0.052346	0.099617	0.10106	0.15177	0.079526	0.24387	0.22647	0.075427	0.20213	0.078797	0.088538	-3.225	-4.2333	-3.05	-3.9479	-3.7896	-3.3042	-4.2458	-3.525	-3.5521	-4.2229	-3.3417	-4.1396	-4.0396	-3.2208	-4.1562	-3.6958	75.701	83.299	-138.140	199.882	114.568	98.334	-109.147	28.199	-33.294	-57.566	-131.198	-150.804	26.212	126.154	156.134	204.643	0.00020917	0.00032486	4.7186e-05	985.17	3.8324e-06	2.5948e-06	905.45	248.85	3.7096e-06	1.1643e-06	228.31	61.988	58.448	17.108	4.6631e-06	20.475	0.0002218	0.00023604	7.2217e-05	856.94	2.696e-06	2.8725e-06	783.59	215.99	2.8648e-06	2.5371e-06	199.69	54.241	51.073	15.122	2.5917e-06	17.973	-60.935	-60.427	-15.804	-138.917	-34.777	-13.154	-140.224	-133.937	14.118	-46.321	-135.909	-131.310	-129.647	-123.713	-28.327	-127.748	-8191	255	
1544.695	1	1	0	0	0.10224	0.17728	0.18933	0.17866	0.27502	0.27484	0.15545	0.10617	0.1711	0.091766	0.30519	0.17015	0.28251	0.083831	0.059032	0.064559	-3.2062	-4.0875	-3.3771	-3.9458	-4.125	-3.1542	-4.2458	-3.7521	-3.3833	-4.1625	-3.4	-4.0417	-4.3854	-3.2917	-4.0979	-3.8208	14.596	-77.480	-34.138	-90.024	-125.777	-12.159	170.429	122.324	-58.300	-116.239	-129.271	-123.795	159.235	17.470	157.044	-46.644	0.00015805	0.00026257	7.7477e-05	981.64	3.8654e-06	1.932e-06	905.28	247.08	3.0546e-06	2.4243e-06	232.35	62.563	58.452	17.354	9.6816e-07	20.682	0.00022591	0.00023569	6.8024e-05	852.88	2.638e-06	2.4951e-06	784.88	215.76	2.713e-06	2.6374e-06	201.02	54.453	51.29	15.231	2.6736e-06	18.08	-58.672	-64.047	-53.522	-139.135	-29.830	18.563	-140.392	-133.585	-22.293	-33.989	-135.867	-130.593	-129.053	-123.950	-26.733	-127.879	-8191	255	
1544.816	1	1	0	0	0.11552	0.18242	0.064595	0.16216	0.092415	0.057978	0.27715	0.13866	0.15959	0.063239	0.10102	0.085602	0.14966	0.1871	0.17437	0.074534	-3.05	-4.1062	-3.4437	-3.7729	-4.15	-3.1583	-4.2063	-3.9896	-3.4333	-4.075	-3.3729	-3.7	-4.1167	-3.3	-3.8937	-3.8229	2.058	162.291	7.335	-129.006	109.066	-125.311	147.431	139.303	-144.099	28.872	-84.178	-134.609	-109.679	134.078	202.700	155.250	0.00022254	0.00036477	0.00011208	987.3	4.0158e-06	3.603e-06	919.04	249.16	3.8066e-06	1.5171e-06	233.75	62.914	59.106	17.379	1.6499e-06	20.871	0.00023597	0.00024661	7.1067e-05	856.59	2.7278e-06	2.865e-06	794.79	217.18	2.8949e-06	2.5937e-06	204.21	55.29	51.526	15.286	2.6447e-06	18.368	-54.502	-35.385	-59.164	-139.093	-9.585	2.269	-140.527	-133.593	-9.908	-11.283	-135.583	-131.351	-129.233	-124.032	-5.754	-127.270	-8191	255	
1544.912	1	1	0	0	0.19017	0.30636	0.1434	0.19002	0.078055	0.3498	0.32019	0.19476	0.062637	0.13924	0.16797	0.14822	0.22469	0.1525	0.15603	0.15496	-3.0125	-4.2542	-3.6125	-3.7333	-4.2771	-3.2875	-4.1188	-4.0792	-3.1625	-4.2146	-3.5833	-3.5833	-4.5021	-3.3854	-3.8563	-3.9042	-90.474	-145.796	109.415	159.289	120.367	146.566	157.249	203.446	-59.188	169.566	191.434	3.274	39.239	-121.183	157.715	59.657	0.00019028	0.00037706	5.2667e-05	1000.1	2.7095e-06	1.1996e-06	921.29	250.23	3.5618e-06	3.905e-06	236.36	64.087	58.799	17.243	1.315e-06	20.784	0.00023542	0.00025151	7.148e-05	865.83	2.6218e-06	2.7001e-06	803.84	218.84	2.7966e-06	2.7365e-06	205.89	55.609	51.591	15.264	2.7793e-06	18.266	-57.901	-63.517	-24.250	-139.132	3.446	20.736	-140.462	-133.664	-7.613	18.305	-135.984	-131.023	-128.811	-123.972	-71.091	-127.251	-8191	255	
1545.008	1	1	0	0	0.19592	0.19975	0.060392	0.13163	0.24684	0.16393	0.13269	0.20962	0.28346	0.095652	0.12775	0.15074	0.07623	0.13842	0.093462	0.30558	-3.0646	-4.1542	-3.5062	-3.3667	-4.2812	-3.3667	-3.8875	-4.175	-3.1458	-4.05	-3.6708	-3.3563	-4.2083	-3.3917	-3.6042	-4.1042	58.355	47.570	-9.077	184.762	135.288	95.971	177.157	-110.171	108.004	-47.960	16.509	-122.683	-90.205	-141.290	174.063	117.365	0.00022363	0.00022853	0.00010605	985.68	3.4641e-06	1.1282e-06	905.43	246.65	2.3041e-06	1.3638e-06	233.09	61.487	58.389	17.232	2.7413e-06	20.648	0.00024752	0.00023387	6.6758e-05	856.46	2.7288e-06	2.6072e-06	787.26	215.77	2.8837e-06	2.6074e-06	201.63	54.429	50.956	15.187	2.628e-06	18.121	-68.134	-78.567	-53.997	-139.348	-54.642	70.465	-140.238	-133.669	6.748	-70.311	-135.580	-130.982	-128.858	-123.936	-19.666	-127.670	-8191	255	
1545.105	1	1	0	0	0.13233	0.21467	0.28659	0.1298	0.20441	0.19727	0.11465	0.17692	0.26756	0.18221	0.291	0.12738	0.1542	0.3501	0.11102	0.18861	-2.8625	-3.95	-3.8438	-3.4854	-4.2625	-3.4188	-3.8187	-4.1708	-3.3	-3.8104	-4.0729	-3.1667	-4.2625	-3.6063	-3.6125	-4.3125	-19.802	102.746	-71.772	91.948	42.568	149.342	156.483	163.040	136.787	-34.570	-133.786	145.994	141.831	170.097	-5.908	-41.937	0.00021104	0.00020402	9.4653e-05	987.96	3.1253e-06	4.0638e-06	906.69	247.72	4.124e-06	2.4153e-06	235.03	62.775	58.659	17.308	4.0669e-06	20.907	0.00023799	0.00024274	6.806e-05	853.37	2.6294e-06	2.7208e-06	787.99	215.78	2.8571e-06	2.7434e-06	203.52	54.967	51.193	15.193	2.6424e-06	18.235	-50.583	-48.665	-51.356	-139.163	24.986	-21.969	-140.537	-133.792	36.113	30.092	-135.277	-131.202	-129.515	-123.965	-15.508	-127.150	-8191	255	
1545.223	1	1	0	0	0.23488	0.25077	0.21253	0.12994	0.10035	0.10702	0.063229	0.16307	0.19028	0.19861	0.19328	0.1182	0.065821	0.26227	0.21596	0.065923	-2.8104	-3.9042	-3.8625	-3.325	-4.2396	-3.6333	-3.5583	-4.4479	-3.4146	-3.8042	-4.1375	-3.4417	-4.1125	-3.6958	-3.35	-4.0792	56.182	14.910	174.700	-78.557	-107.539	29.507	-93.243	-129.797	25.121	-5.103	163.736	127.435	67.661	-79.208	167.715	-47.764	0.00021517	0.00011713	5.6466e-05	989.86	2.8375e-06	1.5038e-06	918.94	249.19	3.3364e-06	4.3814e-06	236.06	63.464	59.045	17.353	2.6899e-06	20.965	0.00022589	0.00023896	6.8006e-05	856.02	2.7728e-06	2.6179e-06	798.39	217.97	2.8078e-06	2.5937e-06	205.45	55.659	51.634	15.252	2.6793e-06	18.393	-54.178	-21.246	-45.823	-138.946	-27.561	-59.611	-140.509	-133.891	17.637	5.090	-136.211	-131.125	-129.672	-124.111	18.958	-127.758	-8191	255	
1545.295	1	1	0	0	0.13651	0.16586	0.16853	0.13028	0.21042	0.19929	0.28687	0.102	0.12472	0.074141	0.12734	0.18664	0.16278	0.1611	0.14091	0.10132	-3.05	-3.6708	-4.0229	-3.3875	-4.1208	-3.7167	-3.4167	-4.4021	-3.3854	-3.575	-4.225	-3.3458	-3.925	-3.9854	-3.3146	-4.3271	93.116	2.427	-34.174	113.644	-5.863	-24.872	181.465	90.866	10.052	-60.873	147.021	133.225	-92.101	174.389	97.564	167.629	0.00018933	0.00029141	0.00010718	998.74	3.0363e-06	4.8552e-06	923.25	249.9	3.0209e-06	2.0929e-06	236.47	63.132	58.959	17.347	2.3421e-06	20.824	0.00023797	0.00023454	6.3885e-05	863.71	2.7828e-06	2.5437e-06	803.76	218.02	2.714e-06	2.4232e-06	205.76	55.252	51.371	15.251	2.6719e-06	18.217	-54.405	-55.399	-60.757	-139.187	-30.101	-11.977	-140.439	-134.010	-13.346	-10.634	-135.942	-131.235	-129.192	-124.264	27.737	-127.143	-8191	255	
1545.391	1	1	0	0	0.1601	0.079146	0.25588	0.13948	0.13863	0.11695	0.10925	0.24114	0.31824	0.086669	0.16637	0.27413	0.074229	0.085786	0.38773	0.14639	-3.2208	-3.5583	-4.3542	-3.3833	-3.9333	-4.0229	-3.4562	-4.0938	-3.5312	-3.4479	-4.2625	-3.2479	-3.9104	-3.9875	-3.3917	-4.2625	178.241	155.893	90.108	203.952	174.055	-62.459	65.437	74.287	145.906	23.662	152.487	31.493	-92.640	-135.539	203.370	207.963	0.0001869	0.00028293	8.937e-05	973.5	2.2398e-06	4.2962e-06	901.04	245.62	3.9023e-06	4.6805e-06	229.75	62.257	57.578	17.126	3.259e-06	20.456	0.00022689	0.000233	6.2673e-05	850.68	2.6738e-06	2.3169e-06	781.4	214.61	2.7451e-06	2.5079e-06	200.43	54.419	50.693	15.039	2.6562e-06	18.019	-50.849	-64.985	-41.069	-139.081	-42.744	15.690	-140.275	-133.627	20.480	-10.183	-136.110	-130.901	-128.707	-123.852	23.020	-127.125	-8191	255	
1545.487	1	1	0	0	0.23633	0.10363	0.103	0.12234	0.081247	0.14197	0.29959	0.1237	0.03666	0.1034	0.10742	0.06217	0.08269	0.25953	0.15122	0.064139	-3.2562	-3.5958	-4.1521	-3.3729	-3.65	-4.1562	-3.4313	-4.2396	-3.7083	-3.3583	-4.3146	-3.4688	-3.8146	-4.0333	-3.1021	-4.0625	131.766	-108.164	169.146	192.238	-43.793	168.830	161.154	164.862	-118.785	-81.249	78.311	107.111	-13.397	137.497	174.746	169.461	0.00018723	8.647e-05	8.0127e-05	976.83	2.4779e-06	1.5986e-06	910.47	247.73	1.3037e-06	3.0311e-06	231.38	62.813	58.136	17.232	4.4021e-06	20.622	0.0002305	0.00023986	6.4316e-05	849.35	2.8716e-06	2.5815e-06	787.57	215.29	2.7675e-06	2.5598e-06	201.89	54.751	51.043	15.141	2.7263e-06	18.223	-53.990	-57.539	-39.481	-139.601	-33.309	-60.255	-140.218	-133.799	-16.450	-37.297	-136.141	-131.758	-129.202	-123.380	-12.673	-127.098	-8191	255	
1545.608	1	1	0	0	0.14678	0.093195	0.12072	0.09633	0.20816	0.17818	0.27783	0.32422	0.12862	0.15923	0.12974	0.19403	0.24043	0.16673	0.29607	0.28044	-3.4583	-3.2292	-4.0542	-3.7396	-3.4833	-4.0188	-3.25	-4.1625	-3.8646	-3.2562	-4.4208	-3.6354	-3.5542	-4.2042	-3.5104	-3.9333	26.899	47.074	-47.405	-95.324	109.661	-24.487	149.317	173.123	-116.285	144.935	-88.384	190.379	-0.605	47.874	144.450	207.348	0.00016648	0.0001935	0.00013968	989.09	3.7315e-06	3.1425e-06	916.1	247.93	3.1063e-06	3.946e-06	234.47	63.365	58.768	17.356	2.7245e-06	21.16	0.00021811	0.00024668	6.8446e-05	853.79	2.8139e-06	2.3926e-06	795.47	217.34	2.6019e-06	2.598e-06	204.89	55.435	51.581	15.318	2.5807e-06	18.455	-54.393	-90.318	-66.648	-139.182	-17.742	15.349	-140.745	-133.748	-10.191	36.831	-135.709	-130.879	-128.615	-123.430	-22.678	-126.969	-8191	255	
1545.704	1	1	0	0	0.12953	0.054834	0.15781	0.055892	0.067844	0.019935	0.2297	0.16303	0.059155	0.32041	0.21018	0.19894	0.057171	0.1951	0.045362	0.020431	-3.5812	-3.1958	-4.2188	-3.65	-3.5417	-4.3083	-3.4313	-3.8563	-3.9625	-3.2542	-4.3229	-3.7438	-3.4042	-4.1917	-3.2104	-3.7854	83.851	-130.429	-45.877	147.588	202.159	-98.168	159.000	108.414	101.626	-36.827	91.701	153.961	-80.554	197.919	172.716	-90.601	0.00020285	0.00016946	8.6708e-05	985.94	2.4943e-06	2.1986e-06	922.2	250	4.6074e-06	2.0643e-06	233.87	62.685	58.889	17.317	1.7416e-06	20.588	0.00021368	0.00022429	6.4406e-05	857.73	2.6731e-06	2.6701e-06	801.58	217.68	2.7969e-06	2.8263e-06	203.62	54.848	51.215	15.174	2.4925e-06	18.055	-64.244	-77.614	-29.489	-138.986	-10.058	13.830	-140.287	-133.566	-8.605	14.855	-135.723	-131.247	-128.975	-123.682	13.970	-127.503	-8191	255	
1545.800	1	1	0	0	0.042372	0.047424	0.28667	0.15985	0.18274	0.21087	0.17969	0.068551	0.058268	0.35937	0.22619	0.18302	0.12788	0.17146	0.079545	0.070473	-3.5833	-3.1688	-4.0104	-3.6646	-3.6	-4.2438	-3.4917	-3.7854	-4.05	-3.3271	-4.075	-3.8271	-3.2292	-4.2292	-3.4333	-3.5229	147.128	136.775	-49.533	149.077	146.454	75.083	107.150	163.089	134.095	-75.178	-7.952	199.345	147.812	108.904	-112.817	-73.854	0.00017636	0.00018678	2.8337e-05	971.34	1.7272e-06	2.4429e-06	897.76	246.11	4.6185e-06	4.754e-06	229.21	62.008	58.296	17.192	5.9113e-07	20.519	0.00020109	0.00024178	6.3383e-05	846.69	2.7894e-06	2.529e-06	778.29	214.54	2.6586e-06	2.7279e-06	199.81	53.943	50.791	15.087	2.6203e-06	18.017	-59.362	-56.504	-86.783	-139.389	48.718	9.701	-140.789	-134.064	-35.323	-8.929	-136.013	-131.831	-129.110	-123.728	76.851	-127.041	-8191	255	
1545.896	1	1	0	0	0.026667	0.0736	0.10464	0.11986	0.1798	0.02988	0.11735	0.1202	0.2056	0.40607	0.17387	0.033042	0.14821	0.17072	0.12062	0.20178	-3.9	-3.1833	-4	-3.9958	-3.3146	-4.1042	-3.5354	-3.7229	-4.0792	-3.2646	-4.0583	-4.0958	-3.2438	-4.2937	-3.6312	-3.4708	119.718	-8.588	104.049	-133.144	152.217	93.839	-97.795	80.501	105.042	-144.676	-140.274	179.885	127.046	-89.233	42.914	133.248	0.0001672	0.00022286	4.2297e-05	980.83	1.6148e-06	2.6233e-06	906.39	247.81	4.0631e-06	4.2434e-06	232.77	62.184	58.028	17.303	1.4622e-06	20.731	0.00021937	0.00025344	6.7225e-05	845.88	2.9189e-06	2.403e-06	785.78	215.82	2.6381e-06	2.8375e-06	201.28	54.454	50.857	15.13	2.6585e-06	18.141	-60.027	-44.636	-102.757	-139.130	15.928	29.575	-140.392	-133.925	0.908	-25.531	-135.861	-131.788	-129.121	-123.695	23.146	-127.466	-8191	255	
1545.993	1	1	0	0	0.14664	0.21856	0.058211	0.26328	0.03914	0.13934	0.16287	0.038871	0.18515	0.042668	0.21666	0.2612	0.049169	0.041229	0.21216	0.048932	-3.9708	-3.3396	-3.8021	-4.0312	-3.3	-4.2208	-3.7021	-3.5229	-4.225	-3.3354	-3.9042	-4.2375	-3.3187	-4.0479	-3.6063	-3.375	-29.415	-121.370	-136.803	115.471	21.046	-10.088	151.991	161.934	-45.668	160.578	9.689	96.930	-64.341	201.322	-52.797	113.836	0.00019985	0.00052131	8.1074e-05	985.48	1.6563e-06	1.3617e-06	910.35	247.56	2.3736e-06	2.4751e-06	234.93	63.625	58.27	17.342	3.6449e-06	20.861	0.00021546	0.000264	6.525e-05	852.31	2.647e-06	2.574e-06	795.24	216.44	2.5875e-06	2.6878e-06	204.8	55.425	51.147	15.269	2.524e-06	18.438	-55.251	-71.419	-59.677	-139.499	-28.023	-5.876	-140.312	-133.824	1.565	-6.469	-136.029	-131.510	-129.195	-123.950	14.058	-127.649	-8191	255	
1546.089	1	1	0	0	0.067106	0.13286	0.063764	0.076501	0.0061419	0.14578	0.23817	0.12494	0.056995	0.15702	0.22001	0.13068	0.13787	0.18515	0.027839	0.18589	-3.6271	-3.4688	-3.6333	-4.2396	-3.2313	-4.0208	-3.9417	-3.1937	-4.2021	-3.5417	-3.7083	-4.1583	-3.3042	-4.0854	-3.9792	-3.5312	-56.341	-79.873	-24.985	149.299	46.493	-101.925	-128.970	99.617	98.266	-128.380	108.272	64.161	-146.947	-99.542	-142.645	122.808	0.00016929	0.00025898	4.2889e-05	979.95	3.6707e-06	4.0683e-06	918.27	246.74	2.3168e-06	4.2175e-06	232.92	62.059	58.088	17.033	4.6503e-06	20.739	0.00021701	0.000229	6.7728e-05	856.04	2.863e-06	2.4901e-06	797.79	216.5	2.5808e-06	2.7037e-06	202.34	54.433	50.929	15.009	2.4361e-06	18.065	-57.277	-38.493	-94.911	-139.584	-6.191	14.931	-140.650	-134.024	-23.231	-14.680	-136.367	-131.338	-129.492	-124.448	4.840	-127.328	-8191	255	
1546.208	1	1	0	0	0.033972	0.047334	0.26532	0.14931	0.033901	0.2324	0.06205	0.12373	0.21946	0.092254	0.24173	0.0047399	0.36598	0.23703	0.14215	0.28642	-3.6937	-3.4667	-3.5646	-4.3271	-3.2167	-3.7562	-4.1854	-3.4042	-4.0917	-3.5625	-3.4708	-4.1458	-3.3521	-3.9542	-4.0583	-3.2729	181.591	-82.666	95.413	-151.964	-1.374	-51.524	158.465	-123.629	-89.555	188.884	160.009	-24.474	-106.008	-116.653	47.391	148.930	0.00019483	0.00031708	0.0001409	975.56	3.843e-06	4.1038e-06	892.81	244.77	3.3446e-06	3.0548e-06	228.58	61.949	57.621	17.089	2.3028e-06	20.394	0.00020556	0.00023265	6.2853e-05	844.8	2.809e-06	2.4137e-06	780.29	213.69	2.6525e-06	2.6341e-06	199.71	54.072	50.506	15.075	2.3596e-06	17.94	-56.656	-58.172	-72.458	-139.320	8.717	-22.798	-140.406	-134.200	-4.917	-0.873	-135.819	-131.493	-129.247	-124.142	-13.420	-127.621	-8191	255	
1546.304	1	1	0	0	0.043265	0.11117	0.025894	0.37187	0.1797	0.17531	0.2028	0.2964	0.20101	0.17996	0.064885	0.11571	0.07933	0.098191	0.14603	0.18471	-3.8021	-3.5625	-3.4042	-4.1479	-3.4104	-3.65	-4.1438	-3.2333	-4.0771	-3.8521	-3.5729	-4.2167	-3.5354	-3.775	-4.2146	-3.3042	96.863	-149.694	80.756	193.431	125.695	65.651	152.266	158.220	98.302	-120.415	-100.847	97.838	173.440	-54.705	95.224	47.260	0.00016145	9.5247e-05	2.9447e-05	981.69	3.3106e-06	3.1462e-06	908.22	246.89	3.1658e-06	2.7185e-06	230.86	61.884	57.528	17.179	3.099e-06	20.683	0.00020968	0.00022099	7.1382e-05	847.37	2.5754e-06	2.554e-06	786.46	215.03	2.6016e-06	2.8202e-06	202.24	54.437	50.652	15.106	2.6759e-06	18.114	-61.931	-59.733	-74.667	-139.223	3.349	0.797	-140.324	-133.278	-9.165	22.225	-135.895	-131.327	-129.097	-123.399	3.951	-126.888	-8191	255	
1546.400	1	1	0	0	0.13508	0.043214	0.23857	0.063501	0.18062	0.13467	0.11895	0.2343	0.21523	0.031156	0.25741	0.16624	0.15699	0.19532	0.18068	0.037104	-3.5625	-3.8667	-3.1208	-4.1833	-3.3979	-3.5521	-4.2333	-3.3333	-3.9292	-4.0375	-3.3625	-4.2708	-3.4688	-3.5167	-4.2333	-3.3729	100.498	-28.455	-57.427	-44.658	45.784	-52.398	87.769	175.157	103.326	-92.424	170.994	-91.645	-135.988	184.315	-81.717	128.942	0.00018525	0.00036412	8.6618e-05	981.41	2.8576e-06	3.1963e-06	919.95	249.51	1.6103e-06	3.7884e-06	236.55	63.62	58.506	17.34	3.049e-06	20.768	0.00021601	0.00022576	7.0286e-05	850.99	2.8573e-06	2.5687e-06	796.64	216.73	2.5443e-06	2.6229e-06	205.36	55.256	50.983	15.244	2.583e-06	18.334	-65.729	-62.783	-43.549	-139.275	-29.661	-21.771	-140.677	-133.691	-5.611	2.920	-135.506	-131.535	-129.057	-123.553	16.562	-127.107	-8191	255	
1546.496	1	1	0	0	0.099224	0.15866	0.32139	0.22194	0.46767	0.12577	0.21349	0.26681	0.12405	0.073486	0.17508	0.28135	0.028471	0.10386	0.13798	0.34074	-3.4875	-3.9542	-3.3521	-4.3208	-3.6479	-3.4167	-4.2271	-3.3667	-3.8208	-4.0896	-3.3167	-4.0583	-3.5792	-3.1792	-4.3271	-3.3146	-24.871	11.343	-58.197	168.002	77.787	-131.738	149.964	114.136	198.206	171.297	108.706	-85.137	-150.408	195.062	153.536	103.160	0.00017744	0.00021254	0.00011971	981.72	2.4257e-06	1.9042e-06	913.01	246.8	3.6067e-06	2.4829e-06	229.25	61.999	57.251	17.03	3.9638e-06	20.126	0.00023089	0.00022887	7.0017e-05	853.51	2.902e-06	2.8025e-06	795.02	215.28	2.8347e-06	2.3478e-06	201.03	54.382	50.409	15.017	2.5491e-06	17.838	-64.623	-66.872	-44.214	-139.049	46.503	48.317	-140.450	-134.244	4.938	-40.165	-136.814	-130.994	-129.622	-123.921	11.754	-127.612	-8191	255	
1546.592	1	1	0	0	0.032999	0.13517	0.10366	0.043477	0.27379	0.16878	0.17536	0.17277	0.23143	0.32142	0.14297	0.021497	0.26868	0.084579	0.11636	0.14942	-3.2604	-4.0854	-3.2354	-4.1521	-3.7583	-3.3312	-4.3854	-3.5833	-3.5229	-4.2771	-3.2896	-4.0479	-3.8542	-3.2354	-4.1312	-3.5625	-42.367	24.481	-137.104	-147.580	34.498	167.665	-11.785	-46.365	146.340	-137.282	144.526	-126.713	16.333	-21.915	128.707	167.666	0.00020861	0.00034402	0.00012771	967.85	2.7885e-06	1.878e-06	901.8	243.3	3.5323e-06	2.9596e-06	230.55	61.748	57.088	17.197	1.0977e-06	20.605	0.00022029	0.00021837	7.1238e-05	843.48	2.7328e-06	2.7258e-06	782.7	213.09	2.6871e-06	2.4325e-06	200.23	54.106	50.437	15.009	2.7806e-06	17.996	-62.416	-57.425	-61.141	-139.201	-24.967	50.939	-140.485	-133.938	-11.813	46.694	-135.835	-131.522	-129.854	-123.552	27.869	-127.474	-8191	255	
1546.688	1	1	0	0	0.18769	0.11425	0.21029	0.070039	0.27066	0.19195	0.049079	0.07166	0.1107	0.046577	0.251	0.088072	0.086394	0.1738	0.14129	0.46414	-3.2062	-4.1167	-3.2542	-4.05	-3.9021	-3.3	-4.3167	-3.7708	-3.4896	-4.1667	-3.3417	-3.9479	-4.0563	-3.3417	-4.1687	-3.8792	95.258	-36.314	42.514	-34.065	137.014	57.584	-42.437	167.191	-98.105	-110.973	-122.273	130.761	-66.363	-71.955	16.879	119.934	0.00020876	0.00017144	7.3636e-05	975.95	4.3054e-06	2.0851e-06	904.99	245.01	3.8133e-06	3.5391e-06	233.18	62.57	58.235	17.177	1.8803e-06	20.451	0.00021915	0.00021984	6.9146e-05	846.53	2.7414e-06	2.7836e-06	787.12	213.97	2.7806e-06	2.3694e-06	202.21	54.736	50.944	15.093	2.3925e-06	18.071	-56.701	-70.745	-71.207	-139.456	-34.766	-16.322	-140.325	-134.127	40.265	8.660	-136.146	-131.230	-129.367	-123.725	19.167	-126.753	-8191	255	
1546.785	1	1	0	0	0.17984	0.019652	0.13652	0.27433	0.19552	0.28979	0.21027	0.15944	0.05484	0.1694	0.10924	0.23528	0.27863	0.10276	0.17399	0.20916	-3.0292	-4.2396	-3.375	-3.8333	-4.0917	-3.2	-4.3063	-3.8937	-3.3187	-4.1896	-3.6063	-3.7562	-4.0896	-3.3875	-4.2104	-3.8021	-138.844	104.923	34.700	-89.448	75.995	-55.382	176.834	76.414	-95.910	148.477	-14.752	140.613	-11.034	-101.739	-74.952	145.379	0.00021199	0.000299	0.00014272	984.76	2.1406e-06	3.4353e-06	919.61	248.16	3.5925e-06	3.9305e-06	236.56	62.584	58.66	17.347	2.5797e-06	20.702	0.00023223	0.00023851	6.9416e-05	853.9	2.7073e-06	2.8479e-06	798.08	216.09	2.9359e-06	2.5436e-06	204.95	55.128	51.41	15.232	2.7035e-06	18.27	-60.448	-55.935	-60.901	-139.315	-58.600	45.081	-140.311	-134.019	-5.056	8.078	-135.944	-131.328	-128.905	-123.903	0.209	-127.145	-8191	255	
1546.881	1	1	0	0	0.17753	0.14861	0.097589	0.18625	0.076506	0.19257	0.039618	0.057247	0.10256	0.078041	0.11684	0.28486	0.13624	0.12022	0.21534	0.087035	-3.0646	-4.1729	-3.5021	-3.7125	-4.1708	-3.3521	-4.1229	-4.1562	-3.3563	-4.0979	-3.4979	-3.3563	-4.1208	-3.1625	-4.0062	-3.9229	6.867	-53.113	-144.158	137.823	23.634	91.678	-94.180	57.614	11.555	55.228	167.487	38.380	-142.831	-17.778	-4.201	-6.961	0.00021951	0.00024465	0.00010176	983.06	1.5416e-06	4.0584e-06	914.24	244.98	3.9653e-06	2.8361e-06	229.86	61.682	57.514	16.972	2.9809e-06	20.256	0.00023583	0.00023566	7.1274e-05	853.27	2.7864e-06	2.5326e-06	793.6	214.2	2.9122e-06	2.5241e-06	200.24	53.993	50.201	14.925	2.6112e-06	17.79	-61.680	-65.678	-66.682	-139.343	-11.176	-5.358	-140.364	-134.133	5.365	-20.440	-135.680	-130.666	-128.882	-124.298	13.863	-127.439	-8191	255	
1547.000	1	1	0	0	0.054294	0.14858	0.11571	0.165	0.010824	0.090851	0.16965	0.052628	0.073377	0.077886	0.15902	0.050364	0.095581	0.36344	0.19539	0.073892	-3.0417	-4.2188	-3.5604	-3.4604	-4.25	-3.275	-3.7792	-4.1646	-3.1292	-4.0875	-3.7292	-3.375	-4.0667	-3.2667	-3.8208	-4.2375	100.379	-70.878	94.264	-97.926	-4.738	-77.265	-61.933	199.538	148.859	-38.769	-147.980	103.446	189.956	202.414	-103.076	87.023	0.00019646	0.00036116	0.00010622	968.79	3.597e-06	1.9097e-06	906.56	244.7	3.8308e-06	4.0739e-06	227.21	61.564	57.855	16.996	1.685e-06	20.298	0.00022544	0.00023166	6.6417e-05	841.93	2.6377e-06	2.7786e-06	785.03	213.47	2.828e-06	2.5371e-06	198.45	53.994	50.607	14.976	2.4686e-06	17.888	-59.075	-71.600	-60.170	-139.296	-13.748	-3.433	-140.458	-134.101	15.160	-2.843	-135.948	-131.366	-129.395	-124.188	-0.869	-128.147	-8191	255	
1547.096	1	1	0	0	0.064192	0.25706	0.12057	0.2046	0.1816	0.14992	0.27041	0.26474	0.37586	0.046864	0.13478	0.21262	0.13097	0.013511	0.24955	0.1668	-2.9542	-4.2021	-3.7271	-3.25	-4.1979	-3.2792	-3.9	-4.2521	-3.1771	-3.9729	-3.9208	-3.3479	-4.2229	-3.4938	-3.6583	-4.2688	14.219	-104.484	40.248	-94.526	55.452	83.305	183.798	125.920	-17.223	136.003	81.291	95.751	30.421	-67.770	-38.941	-40.943	0.00019268	0.00026907	7.3478e-05	970.17	3.0898e-06	3.1742e-06	911.9	246.6	2.5458e-06	1.6133e-06	231.5	62.837	58.373	17.113	1.6032e-06	20.769	0.00022889	0.0002176	6.2081e-05	845.97	2.4966e-06	2.5872e-06	791.36	214.6	2.7265e-06	2.4012e-06	202.13	54.815	50.857	15.083	2.7256e-06	18.289	-56.803	-72.492	-67.270	-139.215	26.175	-1.868	-140.465	-133.777	8.467	10.061	-135.868	-131.414	-129.172	-123.491	-42.318	-127.187	-8191	255	
1547.169	1	1	0	0	0.19114	0.2413	0.18355	0.17713	0.14378	0.17557	0.029022	0.16085	0.16365	0.19641	0.1453	0.23727	0.13784	0.13325	0.040012	0.16796	-2.8729	-4.0188	-3.9313	-3.3396	-4.1583	-3.5167	-3.5729	-4.2167	-3.3042	-3.8875	-4.0521	-3.1917	-4.15	-3.7	-3.35	-4.1458	129.653	42.822	-7.738	88.452	-147.639	185.660	17.060	-132.396	-151.968	-135.980	140.079	-53.163	-118.988	-50.143	-107.458	115.353	0.00017871	0.00037922	4.0096e-05	974.96	4.4349e-06	3.4786e-06	923.34	246.09	2.9448e-06	1.6992e-06	235.85	62.877	58.798	17.155	4.0132e-06	20.773	0.0002225	0.00022182	6.2449e-05	849.48	2.6089e-06	2.539e-06	802.62	215.99	2.7226e-06	2.4657e-06	205.6	55.225	51.287	15.09	2.6233e-06	18.25	-51.998	-86.072	-19.030	-139.451	-22.839	6.640	-140.514	-133.983	-17.198	-40.952	-135.839	-131.243	-129.376	-124.225	-0.622	-127.354	-8191	255	
1547.290	1	1	0	0	0.13782	0.35736	0.20015	0.12804	0.17508	0.18789	0.31486	0.11661	0.25574	0.027174	0.11476	0.10407	0.035624	0.19018	0.14127	0.068969	-2.9917	-3.7646	-4.1167	-3.2375	-4.1917	-3.6833	-3.6	-4.3708	-3.4354	-3.75	-4.1521	-3.2208	-4.0021	-3.9437	-3.4188	-4.2438	23.077	6.638	94.315	-114.849	-71.709	18.117	196.458	99.041	148.502	182.336	187.863	-67.188	-103.655	167.562	-20.182	130.325	0.00018405	6.8818e-05	5.5653e-05	981.93	2.0134e-06	1.9055e-06	911.82	246.77	3.2134e-06	3.9577e-06	228.39	62.715	57.8	16.954	1.8224e-06	20.312	0.00023217	0.0002209	6.0707e-05	850.55	2.7013e-06	2.4765e-06	793.62	214.6	2.7134e-06	2.3922e-06	200.29	54.609	50.785	14.898	2.638e-06	17.927	-65.943	-124.997	-32.703	-139.570	16.875	58.054	-140.556	-133.857	-6.079	38.189	-135.860	-131.481	-128.994	-123.966	19.307	-127.002	-8191	255	
1547.384	1	1	0	0	0.10442	0.22701	0.14958	0.23185	0.1102	0.26781	0.32972	0.17792	0.29205	0.1555	0.17893	0.040977	0.2218	0.086496	0.14536	0.25304	-3.0312	-3.6937	-4.1521	-3.3187	-3.9313	-3.7958	-3.4437	-4.1604	-3.4562	-3.4667	-4.3042	-3.2792	-3.8979	-4.0021	-2.9854	-4.1438	-82.159	24.200	-9.944	-142.406	52.459	62.818	200.261	3.271	-118.001	-15.237	-93.946	168.669	63.638	138.939	-90.302	34.969	0.00020592	0.00025472	0.00011213	971.04	3.6407e-06	3.1152e-06	906.4	246.46	3.8772e-06	2.088e-06	231.52	62.696	57.702	17.077	3.391e-06	20.583	0.00022672	0.0002265	6.1129e-05	844.35	2.8046e-06	2.3976e-06	786.58	214.32	2.649e-06	2.6518e-06	201.75	54.578	50.689	15.049	2.574e-06	18.166	-59.346	-83.655	-17.995	-139.025	-9.288	28.711	-140.395	-133.940	8.882	21.049	-136.249	-131.283	-129.763	-124.577	-6.002	-127.820	-8191	255	
1547.480	1	1	0	0	0.10991	0.082963	0.26877	0.286	0.12651	0.15476	0.092826	0.09128	0.20889	0.12692	0.16524	0.077424	0.068521	0.18955	0.072644	0.058175	-3.0521	-3.4833	-4.1792	-3.3521	-3.9792	-3.9354	-3.3458	-4.1312	-3.6312	-3.2562	-4.1875	-3.3521	-3.7458	-3.9604	-3.2104	-4.1146	77.332	-4.974	-80.583	201.761	178.464	23.259	164.842	-114.307	72.354	112.681	-50.361	195.231	-140.048	30.045	-121.366	-46.933	0.00014016	0.00020421	3.8475e-05	973.82	2.4214e-06	2.5998e-06	921.89	247.74	3.5745e-06	3.5245e-06	235.01	62.483	57.953	17.12	4.2655e-06	21.008	0.00022968	0.0002322	5.9361e-05	846.29	2.5201e-06	2.4294e-06	798.73	215.77	2.7425e-06	2.7426e-06	203.31	55.137	50.914	15.083	2.4287e-06	18.417	-58.353	-108.016	-67.406	-139.572	10.962	61.552	-140.748	-134.261	-3.096	5.589	-136.510	-131.072	-129.077	-124.457	0.559	-127.690	-8191	255	
1547.576	1	1	0	0	0.10181	0.17668	0.20259	0.1424	0.086181	0.072397	0.27813	0.0602	0.11064	0.13476	0.18746	0.26995	0.1269	0.035045	0.26296	0.01345	-3.3688	-3.3979	-4.2146	-3.4271	-3.5875	-4.1188	-3.3458	-4.2542	-3.8667	-3.2875	-4.2688	-3.3771	-3.6896	-4.1625	-3.3021	-3.9854	106.041	-3.531	127.237	131.794	146.040	83.675	151.152	94.549	170.432	-21.862	51.880	129.552	105.773	152.273	-53.887	51.625	0.00019574	0.00025784	0.00010686	981.99	1.4672e-06	5.3672e-06	933.31	250.17	2.6025e-06	4.6501e-06	236.95	63.582	58.213	17.188	4.4981e-06	20.973	0.00022319	0.00025568	6.3598e-05	853.02	2.6629e-06	2.5273e-06	806.78	217.94	2.7348e-06	2.9356e-06	206.66	55.698	51.212	15.162	2.7092e-06	18.341	-59.400	-64.322	-58.672	-139.505	11.949	-29.139	-140.709	-133.827	-18.318	5.069	-135.505	-130.880	-128.856	-124.062	9.078	-127.549	-8191	255	
1547.697	1	1	0	0	0.15448	0.29666	0.090345	0.093939	0.050762	0.19677	0.16714	0.17	0.12826	0.10108	0.13202	0.058473	0.089354	0.13364	0.07285	0.045938	-3.7083	-3.2458	-4.2042	-3.6104	-3.3958	-4.0271	-3.2354	-4.075	-3.9813	-3.1104	-4.1458	-3.5729	-3.4708	-4.1875	-3.1604	-3.8187	-13.438	-63.616	203.912	190.069	204.459	146.786	-147.072	106.831	-94.325	-63.792	131.610	-97.021	-123.947	-82.608	-117.942	162.639	0.00021062	0.00033743	0.00010156	972.12	1.6188e-06	1.971e-06	907.79	245.23	5.2404e-06	2.4791e-06	231.46	62.312	57.405	16.975	3.3869e-06	20.614	0.00022164	0.00025584	7.0789e-05	846.27	2.7712e-06	2.4948e-06	788.88	213.95	2.535e-06	2.6276e-06	200.03	54.255	50.324	14.896	2.5924e-06	17.97	-58.486	-64.972	-28.574	-139.403	-26.040	-23.376	-140.327	-134.016	-3.924	-12.688	-136.145	-130.802	-128.891	-124.073	9.411	-127.470	-8191	255	
1547.769	1	1	0	0	0.073253	0.042401	0.11432	0.23326	0.060868	0.061275	0.05427	0.32804	0.18158	0.17449	0.11752	0.14258	0.26114	0.085303	0.071183	0.17503	-3.6646	-3.2625	-4.1146	-3.75	-3.4917	-4.4104	-3.3792	-3.875	-4.1625	-3.2104	-4.1438	-3.8563	-3.2208	-4.2396	-3.4062	-3.7938	55.403	55.558	-23.738	158.267	28.583	111.642	122.811	151.848	6.070	73.310	81.890	142.256	114.304	124.177	-146.549	137.538	0.00015839	0.00038106	2.7568e-05	968.4	1.8622e-06	3.9364e-06	907.6	243.99	2.6129e-06	3.2066e-06	228.08	61.729	57.572	16.986	2.8743e-06	20.52	0.00021472	0.00025062	6.6013e-05	841.57	2.5863e-06	2.2873e-06	786.93	212.89	2.6461e-06	2.8469e-06	199.76	54.244	50.507	14.934	2.7206e-06	18.103	-59.321	-93.765	-71.308	-139.247	-9.856	55.416	-140.766	-134.243	6.134	-0.542	-135.660	-130.798	-129.085	-123.735	-26.095	-127.396	-8191	255	
1547.889	1	1	0	0	0.078749	0.12145	0.11673	0.093624	0.25609	0.058379	0.31833	0.12787	0.13836	0.12831	0.18647	0.15369	0.21884	0.12868	0.19857	0.12199	-3.7771	-3.1667	-3.9313	-3.9292	-3.4354	-4.1937	-3.6417	-3.7938	-4.2188	-3.1729	-3.9771	-3.9042	-3.3479	-4.2083	-3.4437	-3.5729	193.091	-25.291	-55.723	157.826	-29.582	-24.796	164.586	117.370	-113.532	-31.252	-87.350	-119.396	-69.104	54.422	-61.862	66.246	0.00019829	0.0003711	6.8354e-05	974.45	6.7269e-07	2.8258e-06	913.17	246.15	2.1716e-06	3.926e-06	234.59	62.562	57.814	17.258	3.3424e-06	20.753	0.00021621	0.00025593	6.305e-05	844.92	2.8073e-06	2.5005e-06	792.05	214.67	2.3835e-06	2.7015e-06	203.56	54.951	50.615	15.1	2.6494e-06	18.278	-50.753	-75.178	-53.985	-139.297	36.635	-58.204	-140.374	-133.965	-16.918	-12.654	-135.953	-130.962	-128.724	-123.485	-1.046	-126.905	-8191	255	
1547.986	1	1	0	0	0.23721	0.28523	0.21698	0.12303	0.32703	0.25544	0.24003	0.090556	0.088356	0.1027	0.17793	0.12968	0.22226	0.17602	0.22733	0.27082	-3.9062	-3.3021	-3.8625	-4.0563	-3.3125	-4.2333	-3.6437	-3.5604	-4.1604	-3.3271	-3.8917	-3.9313	-3.3375	-4.175	-3.6875	-3.3208	-78.113	-58.210	-146.624	29.715	-132.529	-123.622	99.069	135.383	-138.153	95.728	-127.535	-140.785	-44.456	106.963	0.991	151.672	0.00019423	0.00045865	8.4315e-05	976.77	3.9097e-06	2.8307e-06	928.22	248.22	3.9404e-06	1.5665e-06	234.49	62.939	58.381	17.108	4.2944e-06	20.773	0.0002238	0.00023928	6.2144e-05	849.12	2.916e-06	2.5533e-06	805.15	216.44	2.7172e-06	2.6799e-06	204.98	55.13	51.133	15.04	2.5813e-06	18.158	-60.988	-95.625	-102.296	-139.249	5.436	-12.737	-140.553	-133.812	-12.873	-38.037	-135.606	-131.240	-129.503	-123.568	-18.510	-127.487	-8191	255	
1548.082	1	1	0	0	0.11938	0.06856	0.27149	0.12931	0.045295	0.16352	0.30381	0.15161	0.025297	0.13028	0.18709	0.05182	0.025425	0.043343	0.056573	0.064917	-3.8021	-3.3354	-3.8083	-4.2042	-3.0479	-4.0083	-3.7687	-3.4667	-4.1708	-3.3563	-3.8271	-4.2146	-3.1542	-3.9021	-3.7479	-3.3229	-123.192	-45.705	-134.675	114.052	51.273	30.307	163.738	58.346	-12.227	127.506	-97.305	69.869	32.575	157.160	189.249	-124.558	0.00019562	0.00036	0.00011431	969.4	4.7872e-06	4.1016e-06	904.76	245.13	3.719e-06	2.1458e-06	230.33	61.771	57.234	16.956	3.5311e-06	20.375	0.00022879	0.00023015	6.5196e-05	841.42	2.8361e-06	2.7011e-06	784.59	213.14	2.8478e-06	2.7041e-06	200.2	53.788	50.254	14.95	2.3683e-06	17.925	-52.674	-77.540	-78.918	-139.215	-23.644	38.233	-140.361	-133.592	26.070	19.957	-135.792	-130.929	-129.213	-123.535	19.719	-127.593	-8191	255	
1548.176	1	1	0	0	0.12239	0.32295	0.13752	0.2446	0.13897	0.20892	0.17144	0.19829	0.13474	0.058603	0.1606	0.07539	0.3027	0.049562	0.20156	0.082442	-3.8271	-3.4333	-3.6437	-4.2083	-3.1458	-3.95	-4.0917	-3.4188	-4.1667	-3.6375	-3.4375	-4.2146	-3.2208	-3.9208	-3.9917	-3.1896	-9.901	-61.074	-26.746	-79.062	91.571	80.137	177.263	165.308	73.825	132.035	158.891	-54.108	164.786	203.447	-10.485	19.399	0.00022014	0.00023299	8.4783e-05	969.66	3.1223e-06	3.1974e-06	900.58	244.53	2.1733e-06	1.912e-06	231.45	62.662	57.482	17.152	2.3097e-06	20.74	0.00021668	0.00023355	7.0188e-05	840.12	2.9444e-06	2.4055e-06	782.48	213.01	2.7876e-06	2.9413e-06	200.79	54.341	50.319	15.016	2.4119e-06	18.061	-54.449	-59.585	-43.782	-139.202	21.045	18.594	-140.824	-133.537	19.296	48.527	-135.469	-130.787	-129.769	-124.098	-1.487	-126.726	-8191	255	
1548.297	1	1	0	0	0.060008	0.34231	0.17747	0.18457	0.26431	0.10682	0.34248	0.114	0.2015	0.062824	0.13407	0.22658	0.14655	0.15595	0.10701	0.1524	-3.7354	-3.5854	-3.4958	-4.2	-3.1896	-3.8312	-4.0729	-3.2667	-4.2042	-3.6292	-3.5771	-4.1	-3.3125	-3.5708	-3.9437	-3.3187	194.339	-98.457	-108.592	157.414	24.532	-150.138	161.223	86.938	114.442	17.325	-142.761	-103.905	99.372	162.337	6.568	102.202	0.00016668	0.00026382	0.00013488	974.53	3.0117e-06	2.4665e-06	905.48	247.43	2.1523e-06	2.3656e-06	234.24	63.116	58.132	17.179	2.5283e-06	20.804	0.00021321	0.00022938	6.6211e-05	845.29	2.7331e-06	2.6944e-06	789.07	215.19	2.6102e-06	2.5425e-06	203.37	54.843	50.776	15.095	2.6172e-06	18.205	-59.595	-57.706	-68.570	-139.351	-49.902	-6.350	-140.449	-133.942	-13.996	-48.489	-135.500	-131.097	-129.392	-123.467	6.439	-127.583	-8191	255	
1548.393	1	1	0	0	0.19843	0.10987	0.1414	0.045999	0.08663	0.042562	0.21196	0.090019	0.10062	0.27513	0.25221	0.18119	0.069142	0.16241	0.26542	0.12467	-3.7167	-3.7667	-3.4042	-4.3479	-3.3854	-3.6208	-4.2979	-3.3063	-3.9979	-3.7062	-3.2083	-4.2333	-3.4833	-3.5792	-4.0729	-3.2708	-101.083	133.586	-13.815	-128.400	-95.370	-43.511	167.960	-122.614	-22.454	144.257	-71.665	59.439	-60.788	119.314	109.718	72.216	0.00019726	0.0001062	0.00010902	980.6	2.0617e-06	2.8573e-06	923.77	247.66	5.5261e-06	3.0608e-06	233.37	62.735	57.726	17.069	1.4932e-06	20.695	0.00023781	0.00023768	6.8706e-05	851.67	2.6867e-06	2.8436e-06	803.83	216.35	2.6772e-06	2.6063e-06	204.04	55.139	50.617	15.002	2.4633e-06	18.033	-53.035	-104.358	-74.775	-139.328	62.210	-55.878	-140.431	-133.902	-12.163	-5.860	-135.931	-131.762	-129.280	-123.939	55.431	-127.751	-8191	255	
1548.465	1	1	0	0	0.10308	0.12313	0.04592	0.17685	0.03688	0.069309	0.018655	0.19059	0.12252	0.027924	0.061696	0.05035	0.34267	0.086393	0.12724	0.12234	-3.5417	-4.0104	-3.2125	-4.2375	-3.2562	-3.4396	-4.3104	-3.2479	-3.9354	-4.0354	-3.1708	-4.0604	-3.6063	-3.4042	-4.1813	-3.2354	-45.142	-46.759	136.217	140.866	-89.309	-134.835	47.589	99.032	26.404	-42.524	115.281	-69.506	195.094	-51.046	-138.809	174.732	0.00017724	0.00046882	0.00010489	970.5	3.0296e-06	3.7475e-06	900.4	245.38	3.8568e-06	3.1122e-06	229.3	62.027	57.692	16.984	4.6658e-06	20.11	0.00021366	0.00023114	7.0915e-05	842.83	2.6383e-06	2.5576e-06	783.77	213.46	2.6935e-06	2.5714e-06	199.49	53.826	50.147	14.895	2.4901e-06	17.802	-60.210	-57.495	5.573	-139.437	-23.767	14.109	-140.899	-134.075	2.221	21.369	-136.236	-131.068	-129.067	-124.180	-5.438	-128.035	-8191	255	
1548.561	1	1	0	0	0.024834	0.02967	0.086694	0.25722	0.18471	0.22019	0.22595	0.14525	0.22603	0.037518	0.23995	0.040419	0.05646	0.24409	0.048137	0.19324	-3.5062	-3.9354	-3.1813	-4.2396	-3.6063	-3.3125	-4.3688	-3.4583	-3.775	-4.1021	-3.3729	-4.1396	-3.7292	-3.2958	-4.2125	-3.4979	-8.243	-26.424	98.534	-138.865	106.822	82.039	97.387	125.587	8.592	88.588	117.574	-76.106	-149.418	175.827	188.061	187.301	0.00020432	0.00032584	4.1873e-05	963.31	3.7347e-06	4.9174e-06	904.58	243.91	2.6808e-06	2.1916e-06	230.84	62.237	57.443	17.019	1.6574e-06	20.419	0.00022762	0.0002387	6.7934e-05	839.85	2.8696e-06	2.7126e-06	784.83	212.7	2.7838e-06	2.6705e-06	200.64	54.029	50.209	14.919	2.6186e-06	17.936	-55.677	-54.047	-82.500	-139.645	-13.601	-12.681	-140.691	-134.160	20.625	-19.633	-136.227	-130.933	-128.861	-123.695	62.887	-127.392	-8191	255	
1548.681	1	1	0	0	0.095832	0.13709	0.1498	0.19801	0.02296	0.14539	0.2231	0.26594	0.11949	0.12175	0.095865	0.17455	0.0037894	0.17707	0.20704	0.21372	-3.3521	-4.1125	-3.2104	-4.2333	-3.7333	-3.3063	-4.3438	-3.6437	-3.5604	-4.1438	-3.4167	-3.9188	-3.8542	-3.2062	-4.1729	-3.4188	-93.848	197.110	121.476	-149.872	106.608	-95.512	163.130	-146.588	47.751	29.320	67.950	161.204	-136.414	144.370	-105.436	51.274	0.00019534	0.00041329	3.9387e-05	976.7	3.7793e-06	2.1014e-06	912.09	245.25	4.7795e-06	9.8285e-07	232.67	62.881	57.27	17.069	1.8532e-06	20.701	0.00022523	0.00023784	6.7081e-05	844.24	2.6668e-06	2.8118e-06	794.43	213.95	2.6192e-06	2.4697e-06	203.43	54.83	50.439	14.994	2.5941e-06	18.213	-54.512	-86.888	-17.484	-139.329	-3.879	17.979	-140.835	-134.440	7.965	36.787	-136.560	-131.225	-129.387	-125.080	-4.450	-127.623	-8191	255	
1548.777	1	1	0	0	0.23377	0.17016	0.1273	0.20149	0.06783	0.18119	0.042653	0.16572	0.1382	0.10508	0.23169	0.15739	0.080627	0.10896	0.089368	0.35176	-3.0375	-4.1208	-3.1583	-3.9083	-3.8146	-3.2812	-4.1646	-3.7604	-3.5187	-4.2229	-3.3333	-3.6167	-4.1354	-3.2771	-4.1958	-3.8	-104.633	-16.036	-144.733	165.523	-121.148	89.113	183.947	114.892	183.258	-8.723	166.971	-145.717	2.896	34.224	-31.811	-121.801	0.00021439	0.00042164	0.00013765	982.62	4.1706e-06	3.1133e-06	923.47	246.94	2.1909e-06	3.7802e-06	232.3	62.471	57.236	16.829	6.6855e-08	20.105	0.00021884	0.00023867	7.2504e-05	851.62	2.8003e-06	2.6654e-06	803.02	214.83	2.6695e-06	2.5158e-06	202.33	54.655	50.327	14.872	2.4532e-06	17.788	-63.902	-76.622	-84.339	-139.538	-29.085	16.186	-140.849	-134.347	10.688	-5.098	-136.536	-130.701	-129.458	-123.964	34.067	-127.828	-8191	255	
1548.874	1	1	0	0	0.24255	0.12302	0.028985	0.14948	0.18139	0.041252	0.29517	0.27566	0.11971	0.067458	0.11113	0.12733	0.18061	0.20734	0.074333	0.11086	-2.9646	-4.1167	-3.4354	-3.8271	-4.0458	-3.2042	-4.2125	-3.9146	-3.3604	-4.2042	-3.5771	-3.7083	-4.0312	-3.2687	-3.7938	-3.8604	89.660	155.969	58.548	180.399	-25.701	198.841	178.108	140.189	-45.926	-115.471	190.827	-122.986	81.945	-98.783	-71.915	-11.149	0.00018757	0.00033219	9.0597e-05	969.57	4.2966e-06	3.7086e-06	899.26	242	2.2436e-06	3.7651e-06	226.89	61.147	56.931	16.798	4.4228e-07	20.27	0.00022832	0.00022195	6.9398e-05	839.74	2.6509e-06	2.5787e-06	780.1	211.8	2.6314e-06	2.5111e-06	197.92	53.683	49.958	14.831	2.5569e-06	17.778	-68.689	-108.564	-44.358	-139.190	26.380	-1.024	-140.742	-134.325	15.926	-42.878	-136.011	-131.245	-129.237	-124.078	-70.051	-127.881	-8191	255	
1548.970	1	1	0	0	0.10337	0.11819	0.17846	0.25858	0.14047	0.16826	0.31528	0.18405	0.095437	0.096068	0.061715	0.16521	0.17775	0.05754	0.089414	0.07209	-2.9333	-4.1562	-3.4542	-3.5208	-4.2229	-3.3187	-4.0792	-4.1104	-3.4583	-4.3333	-3.6375	-3.55	-4.1396	-3.3937	-3.8792	-3.9125	174.979	-43.142	50.694	-125.316	-5.628	-98.948	149.331	145.759	-71.274	140.776	-113.686	113.636	177.318	191.557	203.447	-74.614	0.00020004	0.00033951	5.4057e-05	964.33	2.7291e-06	1.4908e-07	900.39	244.2	5.2951e-06	4.6026e-06	228.93	61.379	57.664	16.783	4.7131e-06	20.361	0.00023066	0.00021715	6.3652e-05	836.98	2.5496e-06	2.6476e-06	782.91	212.25	2.7976e-06	2.5101e-06	200.19	53.933	50.316	14.824	2.7202e-06	17.879	-63.057	-88.985	-60.213	-139.564	27.437	9.925	-141.139	-134.553	-6.916	18.787	-136.451	-131.410	-129.595	-124.173	6.924	-128.299	-8191	255	
1549.066	1	1	0	0	0.090132	0.10716	0.038533	0.018245	0.28016	0.20029	0.070494	0.16164	0.13702	0.1241	0.23544	0.12466	0.27167	0.077531	0.21726	0.033206	-2.8833	-3.9875	-3.5958	-3.5167	-4.1021	-3.4125	-3.8458	-4.0312	-3.1146	-4.225	-3.7083	-3.3542	-4.1917	-3.375	-3.6958	-4.1479	-68.902	17.440	-52.550	45.061	141.879	194.776	121.778	-152.752	-15.507	-49.503	56.080	201.970	196.569	190.185	78.818	-130.160	0.00020785	0.0004324	4.4706e-05	969.28	3.4001e-06	1.5347e-06	915.53	246.39	1.8807e-06	2.7566e-06	231.98	62.678	57.738	16.838	4.6059e-06	20.552	0.0002215	0.00023377	6.4406e-05	841.31	2.5426e-06	2.5937e-06	793.34	214.29	2.7419e-06	2.5111e-06	202.29	54.803	50.599	14.873	2.6602e-06	18.078	-54.136	-75.124	-89.035	-139.633	20.687	-5.573	-140.592	-134.817	9.992	-14.956	-136.374	-131.422	-129.579	-124.654	8.714	-128.171	-8191	255	
1549.162	1	1	0	0	0.18279	0.084219	0.14651	0.14711	0.21177	0.094177	0.0095553	0.049682	0.088793	0.092735	0.079185	0.16973	0.19193	0.13	0.042624	0.28706	-2.8812	-4.1375	-3.8667	-3.3917	-4.2438	-3.3625	-3.7458	-4.2396	-3.0667	-3.8021	-3.8063	-3.1708	-4.2188	-3.5021	-3.625	-4.1771	-31.059	-138.890	172.365	142.957	195.336	-34.588	44.623	143.945	62.005	-132.355	205.509	186.021	-118.688	-37.783	178.935	127.078	0.00018106	0.00042239	8.1881e-05	979.41	4.5118e-06	1.545e-06	916.64	247.11	3.7065e-06	5.7494e-06	233.4	61.654	57.37	16.851	4.8239e-06	20.362	0.00022872	0.00023515	6.9784e-05	848.41	2.5078e-06	2.6569e-06	798.2	214.43	2.9775e-06	2.6363e-06	201.28	54.021	50.323	14.786	2.5756e-06	17.772	-60.340	-53.969	-94.424	-139.913	5.657	12.656	-140.796	-134.624	-2.683	0.115	-136.230	-130.825	-129.640	-124.623	-21.847	-127.036	-8191	255	
1549.258	1	1	0	0	0.2731	0.088893	0.10254	0.079532	0.095844	0.2005	0.16667	0.074053	0.088406	0.20294	0.094545	0.1096	0.090851	0.23182	0.17062	0.18019	-3.0958	-3.8646	-3.8458	-3.4188	-4.2	-3.7812	-3.5042	-4.3187	-3.3271	-3.9979	-4.0188	-3.1521	-4.2354	-3.6479	-3.3917	-4.3542	9.601	-149.182	67.276	-113.915	-41.462	28.222	120.346	11.532	207.153	54.104	27.782	-141.144	71.666	191.558	-141.150	171.634	0.00016824	0.00030505	0.00010244	961.37	1.11e-06	9.0211e-07	894.15	242.33	4.0509e-06	3.8477e-06	226.14	60.96	56.765	16.706	4.9053e-06	20.025	0.00022048	0.00023361	6.4648e-05	836.06	2.686e-06	2.4823e-06	776.7	210.94	2.666e-06	2.553e-06	197.68	53.437	49.762	14.67	2.577e-06	17.614	-56.198	-61.842	-85.283	-139.645	42.624	-113.445	-140.821	-134.515	-5.788	-15.599	-136.297	-132.201	-129.042	-124.924	-0.579	-128.009	-8191	255	
1549.377	1	1	0	0	0.11489	0.075887	0.22065	0.43623	0.21576	0.25627	0.051651	0.19848	0.12339	0.10281	0.2634	0.074354	0.095951	0.11389	0.15529	0.12158	-2.8458	-3.8208	-4.05	-3.2812	-4.0854	-3.6354	-3.5521	-4.3833	-3.5271	-3.8604	-4.1167	-3.3563	-3.8312	-3.9479	-3.3208	-4.2375	134.374	-75.377	169.192	154.250	-115.929	174.147	181.346	124.852	7.047	-69.147	192.501	198.758	-148.817	58.889	-70.631	-100.066	0.00018185	0.00023566	9.5481e-05	962.7	2.4968e-06	1.989e-06	896.97	243.43	3.0286e-06	1.6853e-06	229.29	61.484	57.075	16.605	3.7158e-06	20.189	0.00022344	0.00023351	6.78e-05	835.68	2.7603e-06	2.4712e-06	781.07	212.5	2.8216e-06	2.7946e-06	198.81	53.855	50.228	14.752	2.7253e-06	17.751	-54.281	-81.283	-88.971	-139.710	-52.798	-46.605	-140.447	-134.453	3.217	20.674	-136.632	-131.102	-129.412	-124.141	26.480	-127.803	-8191	255	
1549.473	1	1	0	0	0.2326	0.29758	0.0080758	0.24002	0.16244	0.1667	0.10683	0.14049	0.13935	0.10896	0.16499	0.096203	0.27262	0.13729	0.18801	0.057098	-3.1771	-3.4979	-4.0354	-3.4083	-3.9396	-3.9292	-3.4354	-4.1146	-3.3646	-3.4833	-4.1312	-3.2938	-3.8937	-3.8854	-3.3354	-4.1271	-94.745	-56.267	162.958	164.035	-25.677	-40.667	133.568	88.948	-112.282	124.632	140.903	149.301	-5.542	-150.477	-103.633	-56.357	0.00021046	0.00033696	5.136e-05	969.42	3.0425e-06	2.7593e-06	908.22	245.55	2.3141e-06	2.5895e-06	232.18	62.75	57.243	16.986	5.2909e-06	20.503	0.00023195	0.00024472	5.9603e-05	839.99	2.5906e-06	2.5897e-06	791.96	213.69	2.526e-06	2.8808e-06	202.31	54.7	50.35	14.873	2.681e-06	17.951	-55.984	-44.757	-66.597	-139.819	-27.121	4.205	-140.808	-134.257	18.602	-4.959	-136.130	-131.284	-129.374	-124.265	-17.999	-127.460	-8191	255	
1549.569	1	1	0	0	0.073365	0.054259	0.066116	0.12688	0.20543	0.24563	0.19917	0.068561	0.2814	0.21356	0.11405	0.26001	0.069661	0.19278	0.28816	0.04591	-3.2687	-3.475	-4.0771	-3.5	-3.5708	-4.1	-3.5062	-4.0188	-3.6562	-3.3792	-4.3396	-3.375	-3.6562	-4.1417	-3.1583	-4.0208	47.979	138.775	103.108	116.595	177.852	109.874	116.893	196.437	84.084	-17.933	143.698	-131.492	-60.859	-141.905	35.286	171.810	0.00019613	0.00034757	9.9561e-05	969.55	2.7564e-06	1.7968e-06	910.7	242.36	3.307e-06	3.2069e-06	227.62	61.268	56.641	16.658	2.9886e-06	19.833	0.00021772	0.00024075	6.8114e-05	843.95	2.805e-06	2.6761e-06	792.24	212.91	2.7784e-06	2.6218e-06	198.5	53.684	49.714	14.7	2.6803e-06	17.587	-61.466	-64.233	-19.076	-139.577	-23.870	18.840	-140.812	-134.298	-32.125	-9.136	-135.853	-131.339	-129.519	-124.548	-19.900	-127.300	-8191	255	
1549.690	1	1	0	0	0.1521	0.071739	0.18086	0.083911	0.40224	0.16293	0.14658	0.068815	0.077095	0.18211	0.099365	0.20905	0.19485	0.19853	0.080098	0.12648	-3.4083	-3.3833	-4.2021	-3.4667	-3.6833	-4.2688	-3.2854	-4.0729	-3.8354	-3.4313	-4.1562	-3.4646	-3.6437	-4.1354	-3.375	-3.9333	13.115	-116.601	-51.594	160.254	123.213	-106.571	-106.521	-114.758	-26.772	125.629	-77.803	184.924	132.668	150.731	205.707	-89.354	0.00016999	5.2838e-05	8.0708e-05	958.98	1.6408e-06	3.2489e-06	894.05	242.38	4.2747e-06	3.2564e-06	226.37	61.108	56.66	16.78	1.8896e-06	20.138	0.00022517	0.00024197	6.4675e-05	833.05	2.8467e-06	2.493e-06	775.85	211.19	2.6077e-06	2.694e-06	197.92	53.387	49.574	14.758	2.6981e-06	17.681	-62.856	-44.294	-72.151	-139.983	-59.425	54.686	-140.722	-134.304	-1.476	-30.888	-136.395	-131.220	-129.982	-124.222	-23.483	-127.062	-8191	255	
1549.762	1	1	0	0	0.11734	0.25295	0.13275	0.143	0.10061	0.17331	0.18236	0.28989	0.16694	0.11961	0.17671	0.13624	0.17744	0.056712	0.16749	0.16868	-3.7104	-3.2917	-4	-3.5771	-3.5479	-4.0333	-3.4333	-3.9792	-3.8625	-3.325	-4.3021	-3.4958	-3.2771	-4.4104	-3.0896	-3.7625	-59.406	15.484	141.984	40.271	61.878	164.776	15.331	114.337	205.714	69.794	143.715	150.749	78.364	-113.527	6.612	-152.229	0.00016642	0.0004065	5.4862e-05	963.87	2.1541e-06	3.7847e-06	901.91	243.57	3.3433e-06	3.5829e-06	228.39	61.5	57.195	16.868	4.4771e-06	20.053	0.00023489	0.00023614	6.9074e-05	834.16	2.6503e-06	2.6151e-06	782.06	212.61	2.6263e-06	2.9428e-06	199.75	53.865	50.01	14.771	2.4867e-06	17.788	-64.552	-65.827	-73.906	-139.525	-39.249	3.960	-141.024	-134.499	-53.509	-24.668	-136.455	-131.768	-129.476	-124.579	3.515	-127.941	-8191	255	
1549.858	1	1	0	0	0.14816	0.11194	0.1018	0.1292	0.10447	0.30035	0.14209	0.21906	0.20225	0.18866	0.29299	0.31977	0.055113	0.12711	0.050546	0.16493	-3.6479	-3.0458	-4.0062	-3.775	-3.4437	-4.0833	-3.3417	-3.8438	-4.0417	-3.275	-4.1458	-3.7333	-3.4271	-4.3771	-3.4333	-3.7458	170.998	24.473	-62.576	207.516	111.041	-71.246	103.799	70.145	-69.251	51.686	-122.057	159.659	60.415	193.990	-5.759	151.969	0.00018179	0.00014994	7.1016e-05	971.93	3.6664e-06	4.4853e-06	919.5	246.32	3.1881e-06	3.4529e-06	234.56	62.125	57.088	16.887	2.8421e-06	20.586	0.00022464	0.00025484	6.4675e-05	843.3	2.7884e-06	2.6922e-06	796.97	214.4	2.6496e-06	2.7113e-06	204.13	54.743	50.203	14.875	2.4079e-06	18.185	-62.364	-38.292	-81.068	-139.786	-3.922	22.893	-140.534	-134.386	17.517	-44.472	-136.245	-131.253	-129.116	-123.955	7.076	-127.316	-8191	255	
1549.978	1	1	0	0	0.21821	0.12506	0.083215	0.074775	0.14263	0.16231	0.12371	0.12969	0.13903	0.12262	0.023353	0.16971	0.18476	0.03919	0.091303	0.012363	-3.7146	-3.2	-4.0292	-3.8979	-3.1958	-4.1354	-3.5875	-3.6646	-4.0479	-3.1917	-3.8917	-3.9271	-3.3688	-4.0875	-3.3792	-3.3563	149.133	134.731	-1.797	124.852	183.511	29.690	125.586	-84.444	123.082	58.585	85.455	33.508	44.920	43.196	190.690	4.968	0.00020569	0.00031418	8.2481e-05	970.03	3.0444e-06	2.3615e-06	914.06	245.05	2.0675e-06	3.2143e-06	227.79	62.102	56.208	16.934	4.5701e-06	20.488	0.00022489	0.0002362	6.042e-05	845.4	2.7742e-06	2.5087e-06	795.07	213.95	2.6679e-06	2.7055e-06	199.54	54.195	49.644	14.813	2.6518e-06	17.927	-60.427	-11.210	-123.498	-139.689	12.390	-6.891	-141.288	-134.308	-22.327	-15.990	-136.044	-131.715	-129.542	-124.329	6.679	-127.118	-8191	255	
1550.073	1	1	0	0	0.32749	0.24066	0.028517	0.41383	0.35465	0.12823	0.10381	0.03875	0.19895	0.039743	0.31494	0.20227	0.098117	0.083762	0.1434	0.17929	-3.9521	-3.325	-3.7708	-3.975	-3.2396	-4.1375	-3.6208	-3.4979	-4.1854	-3.3708	-3.7458	-4.15	-3.325	-4.0146	-3.6958	-3.3208	61.054	-13.425	-120.142	167.485	83.929	125.704	166.926	136.195	-103.264	-79.668	-14.782	190.042	-7.023	105.292	121.452	-91.380	0.00018351	0.00028681	8.0178e-05	969.53	1.2191e-06	2.1174e-06	902.94	244.42	4.3634e-06	3.3946e-06	227.33	61.031	56.934	16.769	9.0863e-07	20.097	0.00020911	0.00023691	6.9245e-05	841.22	2.5333e-06	2.353e-06	783.35	212.29	2.698e-06	2.5753e-06	198.97	53.727	49.932	14.732	2.5622e-06	17.772	-63.297	-70.378	-22.168	-139.485	7.930	-23.473	-140.956	-134.206	26.973	-11.693	-136.124	-131.570	-130.163	-124.349	17.031	-127.830	-8191	255	
1550.169	1	1	0	0	0.11063	0.16983	0.097715	0.21517	0.04603	0.11835	0.42519	0.29866	0.037597	0.18018	0.10848	0.10499	0.093954	0.082911	0.12843	0.074929	-3.7812	-3.3625	-3.6958	-4.0312	-3.1937	-4.0896	-3.8604	-3.3083	-4.2271	-3.4313	-3.7979	-4.1937	-3.2438	-4.0771	-3.8021	-3.3063	195.602	117.846	137.186	67.973	-6.569	59.391	127.593	188.850	-86.669	-39.295	-69.466	22.838	-97.520	-44.842	3.705	89.523	0.00022848	0.00024483	5.7967e-05	968.06	4.6759e-06	2.7354e-06	914.07	244.32	5.9208e-06	3.2221e-06	229.78	62.419	57.882	16.855	3.4803e-06	20.474	0.00022578	0.00023451	6.5313e-05	841.52	2.8938e-06	2.4626e-06	790.06	213.13	2.5491e-06	2.9348e-06	201.57	54.465	50.585	14.852	2.4982e-06	17.932	-57.587	-64.308	-51.560	-139.920	-18.195	27.883	-141.259	-134.583	15.382	-32.813	-136.743	-131.536	-129.119	-124.708	7.118	-127.859	-8191	255	
1550.265	1	1	0	0	0.16506	0.20681	0.087656	0.12734	0.093062	0.10031	0.043714	0.24926	0.11215	0.22955	0.11107	0.13751	0.089527	0.14878	0.22583	0.069755	-3.8833	-3.4021	-3.4708	-4.2063	-3.1583	-3.9833	-3.8792	-3.3604	-4.0125	-3.6021	-3.7	-4.2771	-3.3146	-3.8438	-3.9938	-3.2833	184.003	89.188	-43.884	129.029	74.318	-136.866	131.303	147.392	80.313	199.568	-136.179	198.695	147.732	66.847	-129.374	136.947	0.00016875	0.00043845	8.8926e-05	979.9	2.787e-06	3.5145e-06	922.76	245.87	4.6947e-06	2.3886e-06	235.19	62.913	57.602	17.118	2.3284e-06	20.448	0.00021174	0.00023476	6.121e-05	847.52	2.8033e-06	2.5076e-06	797.9	214.94	2.5513e-06	2.5876e-06	204.4	55.128	50.514	14.996	2.7373e-06	18.058	-51.976	-90.599	-80.324	-139.584	-64.573	-0.569	-140.618	-134.465	-18.476	-20.971	-136.258	-131.226	-129.611	-124.577	21.389	-127.852	-8191	255	
1550.361	1	1	0	0	0.11535	0.1339	0.19037	0.24153	0.25658	0.26265	0.22293	0.21923	0.039187	0.13046	0.27327	0.22427	0.092424	0.20823	0.078089	0.22288	-3.7667	-3.6188	-3.4042	-4.2625	-3.2271	-3.6333	-3.9917	-3.3875	-4.175	-3.5167	-3.2104	-4.1729	-3.4479	-3.7812	-4.2042	-3.225	0.499	-108.193	1.821	172.497	147.921	-1.504	82.163	-130.546	20.923	115.873	-44.242	162.670	-65.359	-112.984	-80.921	29.589	0.00019576	0.00023805	9.8579e-06	975.65	1.2206e-06	1.6857e-06	910.01	244.1	1.4817e-06	2.547e-06	229.46	61.073	56.54	16.7	3.9782e-06	20.18	0.00021752	0.00022359	6.9954e-05	846.2	2.581e-06	2.594e-06	788.67	212.77	2.5853e-06	2.571e-06	199.74	53.84	49.699	14.742	2.5059e-06	17.673	-54.677	-62.147	-112.023	-139.572	-55.170	-47.807	-141.012	-134.055	-18.386	21.433	-136.413	-131.494	-129.667	-124.334	11.148	-127.193	-8191	255	
1550.457	1	1	0	0	0.12903	0.18243	0.20907	0.2881	0.071107	0.022368	0.07128	0.20601	0.12159	0.15223	0.20848	0.09949	0.17511	0.22951	0.16211	0.26509	-3.7062	-3.8292	-3.35	-4.2083	-3.3479	-3.6104	-4.4458	-3.3292	-3.9083	-3.95	-3.3438	-4.125	-3.3833	-3.6667	-4.1333	-3.3125	-64.994	-38.386	186.917	135.920	79.740	-49.023	104.736	105.829	-11.432	48.863	109.012	107.377	149.812	181.696	-34.306	192.803	0.00019913	0.00033865	7.5953e-05	967.77	3.4048e-06	3.7985e-06	901.93	242.11	3.869e-06	1.8707e-06	228.15	61.537	57.465	16.953	1.6544e-06	19.972	0.00020819	0.00023287	6.586e-05	838.36	2.6436e-06	2.6108e-06	781.03	211.01	2.6477e-06	2.4863e-06	199.09	53.978	49.911	14.82	2.3667e-06	17.739	-60.776	-65.411	-53.326	-139.846	-6.886	38.554	-140.752	-134.367	-1.350	-6.453	-136.306	-131.359	-129.574	-123.885	34.063	-127.413	-8191	255	
1550.554	1	1	0	0	0.075753	0.38062	0.016224	0.13815	0.22098	0.21222	0.10632	0.20909	0.02806	0.10335	0.17686	0.30163	0.14062	0.19273	0.077025	0.31889	-3.6125	-3.9917	-3.1708	-4.4104	-3.4	-3.5208	-4.3125	-3.5563	-3.7771	-3.9688	-3.1729	-4.2354	-3.4792	-3.4521	-4.1312	-3.4688	154.171	-34.650	37.906	103.959	103.920	-63.883	193.095	139.700	-36.489	152.747	201.487	-123.412	29.749	-118.584	-111.744	70.560	0.00020565	3.1206e-05	5.7314e-05	967.56	2.3392e-06	1.3764e-06	907.34	243.68	4.1547e-06	2.7326e-06	230.34	62.315	57.171	16.898	2.7581e-06	20.684	0.00020978	0.00020274	6.5573e-05	839.85	2.699e-06	2.6522e-06	787.16	212.75	2.5648e-06	2.5036e-06	201.29	54.543	50.189	14.844	2.3408e-06	18.075	-62.119	-118.444	0.410	-139.417	5.325	46.454	-140.860	-134.004	1.992	-16.510	-136.069	-130.894	-129.539	-124.606	-62.218	-127.858	-8191	255	
1550.650	1	1	0	0	0.17845	0.31072	0.075836	0.096481	0.24027	0.17281	0.29492	0.23113	0.16304	0.082219	0.18227	0.17083	0.062907	0.11605	0.059501	0.041462	-3.5479	-4.1229	-3.25	-4.3083	-3.7208	-3.4062	-4.3354	-3.3167	-3.6375	-4.125	-3.2062	-4.0479	-4.0104	-3.3479	-4.3	-3.5667	-142.402	-26.083	77.460	191.604	29.534	-41.159	171.664	-151.086	93.336	194.770	98.648	78.237	153.365	104.810	-88.784	127.494	0.00020657	0.00028059	6.7231e-05	967.38	2.2106e-06	2.045e-06	922.4	244.85	3.4679e-06	2.8201e-06	234.1	63.239	57.433	16.892	3.9777e-06	20.386	0.00022593	0.00022929	6.8805e-05	845.45	2.7377e-06	2.6129e-06	800.88	214.37	2.6243e-06	2.5757e-06	204.75	55.15	50.343	14.908	2.4059e-06	17.987	-61.010	-69.287	-74.240	-139.850	16.453	31.695	-140.837	-134.429	10.551	10.307	-136.247	-131.092	-130.155	-124.389	-8.241	-127.590	-8191	255	
1550.770	1	1	0	0	0.14134	0.23194	0.14618	0.12379	0.11076	0.084186	0.20843	0.10308	0.081283	0.12565	0.099359	0.2357	0.17509	0.16694	0.12177	0.12933	-3.2438	-4.1333	-3.1021	-3.9354	-3.7333	-3.2375	-4.3583	-3.5917	-3.6	-4.3208	-3.2313	-3.8146	-3.7687	-3.2667	-4.2	-3.5438	45.925	161.565	-112.296	-140.766	108.799	-121.257	186.463	147.836	-17.173	-118.296	206.603	61.306	132.640	180.764	160.313	180.880	0.00021075	0.00033173	2.5596e-05	977.7	3.1385e-06	3.3888e-06	907.07	241.19	2.5676e-06	3.4241e-06	227.17	61.701	56.37	16.809	2.0793e-06	20.031	0.00023168	0.00022394	6.7737e-05	842.32	2.584e-06	2.6865e-06	785.84	211.37	2.7784e-06	2.5256e-06	198.08	53.92	49.747	14.711	2.5401e-06	17.613	-61.846	-35.635	-87.719	-139.569	-35.110	0.946	-141.022	-134.455	-13.696	-9.691	-136.463	-130.881	-128.990	-124.340	0.786	-127.985	-8191	255	
1550.867	1	1	0	0	0.14228	0.1524	0.25078	0.38808	0.043847	0.12274	0.3849	0.21399	0.33119	0.069333	0.16301	0.099259	0.19407	0.19299	0.14607	0.08144	-3.1375	-4.3333	-3.2333	-3.8042	-4.1271	-3.1854	-4.4708	-3.9542	-3.3271	-4.2458	-3.4083	-3.7146	-3.9458	-3.3083	-4.1	-3.6896	43.745	100.270	191.913	194.916	157.073	-133.749	206.152	95.401	-132.585	148.420	18.540	97.894	199.893	60.520	-58.462	-4.372	0.00017672	0.0002279	7.6369e-05	962.04	1.3169e-06	1.573e-06	899.79	243.47	2.969e-06	3.1547e-06	227.04	61.852	56.63	16.628	2.4239e-06	19.95	0.00022823	0.00022932	6.6282e-05	836.46	2.5028e-06	2.5347e-06	780.56	211.18	2.568e-06	2.5317e-06	197.89	53.839	49.75	14.72	2.5612e-06	17.702	-58.646	-73.762	-46.569	-139.555	-2.542	-84.212	-140.621	-134.402	2.916	-31.250	-136.091	-131.733	-129.839	-124.544	-16.756	-127.186	-8191	255	
1550.938	1	1	0	0	0.088249	0.1941	0.23427	0.1421	0.26215	0.46712	0.24763	0.19212	0.16564	0.12429	0.21072	0.076539	0.017607	0.24418	0.28837	0.14915	-3.05	-4.15	-3.4813	-3.7271	-4.0167	-3.2729	-4.1438	-4.0167	-3.4813	-4.3167	-3.5312	-3.5104	-4.175	-3.1667	-3.8875	-3.8438	-20.138	85.140	78.304	144.286	73.885	127.766	-136.854	77.620	-24.182	31.288	141.804	96.766	-141.275	141.757	61.822	17.498	0.00015816	0.00041478	8.7562e-05	967.81	2.9227e-06	2.551e-07	907.84	243.73	3.8315e-06	2.824e-06	231.74	61.873	57.155	16.722	1.9131e-06	20.396	0.00021313	0.00023217	6.7737e-05	840.58	2.479e-06	2.3209e-06	788.65	212.17	2.869e-06	2.3651e-06	201.43	54.074	50.101	14.795	2.7467e-06	17.929	-58.248	-24.181	-44.833	-139.233	-1.677	-59.563	-140.369	-134.418	-20.206	-40.650	-135.858	-131.253	-129.375	-124.184	-40.402	-127.849	-8191	255	
1551.059	1	1	0	0	0.1595	0.20418	0.10029	0.039612	0.11601	0.18488	0.12127	0.16687	0.16955	0.2247	0.058119	0.29602	0.13249	0.24166	0.13479	0.21274	-2.9333	-4.0792	-3.5479	-3.5812	-4.2	-3.35	-3.9688	-4.0062	-3.2562	-4.2104	-3.8083	-3.4271	-4.2875	-3.1542	-3.8271	-4.0188	46.009	17.105	72.574	151.913	-120.662	149.282	130.865	75.985	124.549	68.100	-36.554	-142.306	-138.035	-111.386	29.879	201.198	0.00020416	0.00026273	3.8771e-05	977.9	1.4582e-06	1.6019e-06	918.89	246.2	4.012e-06	3.5465e-06	232.3	62.409	57.672	16.856	4.2063e-06	20.335	0.00023524	0.00022557	6.3724e-05	846.68	2.369e-06	2.6854e-06	800.77	214.72	2.8507e-06	2.5768e-06	202.9	54.725	50.087	14.843	2.6843e-06	17.855	-58.556	-75.273	-88.312	-139.432	3.593	43.742	-140.888	-134.137	-4.009	-3.294	-136.133	-131.567	-129.035	-124.105	10.478	-126.895	-8191	255	
1551.155	1	1	0	0	0.27243	0.15011	0.18721	0.13233	0.18686	0.24226	0.27131	0.50302	0.19218	0.24694	0.040929	0.19746	0.11985	0.073269	0.11109	0.06698	-2.9625	-4.2188	-3.7479	-3.4875	-4.1354	-3.4417	-3.9542	-4.1646	-3.3208	-4.2542	-3.7104	-3.3104	-4.0875	-3.5187	-3.5208	-4.1583	120.592	154.508	-46.213	-56.762	-87.350	-40.693	-117.885	-132.508	159.853	-146.362	-101.286	-6.999	-21.775	-52.962	-34.244	-106.032	0.00023414	0.000302	0.00010861	970.74	2.2432e-06	2.7534e-06	898.97	241.86	3.1755e-06	1.779e-06	226.55	61.581	56.317	16.545	1.7946e-06	20.05	0.00023838	0.00023925	6.6453e-05	842.11	2.7612e-06	2.6301e-06	782.28	210.93	2.7659e-06	2.3655e-06	197.5	53.529	49.463	14.645	2.4408e-06	17.61	-66.362	-75.838	-77.943	-139.279	20.852	25.236	-140.733	-134.210	-24.729	-30.889	-136.131	-131.255	-129.386	-124.191	-60.403	-127.267	-8191	255	
1551.251	1	1	0	0	0.23192	0.22817	0.29919	0.11879	0.13043	0.083925	0.18902	0.13885	0.23528	0.14506	0.19092	0.10866	0.052294	0.044106	0.13659	0.020138	-2.9	-3.9667	-3.85	-3.3771	-4.2146	-3.4854	-3.8104	-4.275	-3.2979	-4.0771	-4.0104	-3.2958	-4.2333	-3.5333	-3.5563	-4.1333	24.212	-10.391	-44.020	146.024	-99.608	19.667	102.399	191.640	77.340	-142.436	136.113	182.174	8.385	195.774	11.846	64.797	0.00019191	0.0001754	6.4163e-05	968.74	9.3781e-07	4.6568e-06	905.83	243	2.2228e-06	2.5285e-06	228.78	61.395	57.013	16.745	3.6253e-06	20.06	0.00021266	0.00022221	6.3984e-05	836.84	2.5688e-06	2.6283e-06	785.1	211.66	2.7476e-06	2.4188e-06	198.63	53.741	49.925	14.68	2.7598e-06	17.705	-59.629	-18.222	-38.442	-139.428	-39.008	-9.324	-140.467	-134.362	47.351	10.498	-136.557	-131.581	-129.035	-124.546	3.866	-127.738	-8191	255	
1551.370	1	1	0	0	0.083656	0.20632	0.18596	0.10879	0.23087	0.14565	0.16535	0.18717	0.2921	0.15722	0.036994	0.16227	0.091915	0.10063	0.096189	0.12084	-3	-3.6167	-4.0917	-3.5812	-4.0875	-3.7687	-3.6229	-4.1271	-3.3146	-3.8792	-3.95	-3.1167	-4.1146	-3.6708	-3.3854	-4.2458	150.217	64.851	-68.235	126.716	126.428	101.832	196.815	122.981	-56.519	5.941	205.342	197.435	164.639	-121.050	-145.260	-84.760	0.00021337	0.00035358	5.0369e-05	970.75	1.9741e-06	1.3875e-06	912.71	243.74	3.9525e-06	4.0348e-06	230.94	62.844	57.201	16.766	3.0841e-06	20.25	0.00022825	0.00024319	6.4011e-05	841.4	2.7056e-06	2.7036e-06	791.42	212.36	2.6973e-06	2.8007e-06	201.13	54.436	50.064	14.755	2.6058e-06	17.872	-55.228	-71.345	-64.445	-139.301	12.028	6.273	-140.331	-134.087	5.273	-8.300	-135.899	-131.290	-129.246	-124.372	2.834	-127.528	-8191	255	
1551.466	1	1	0	0	0.17023	0.035999	0.17274	0.31675	0.13901	0.18179	0.35081	0.12371	0.11163	0.14937	0.22914	0.2006	0.11531	0.21734	0.228	0.10623	-2.8708	-3.5812	-4.0667	-3.3792	-3.9854	-3.8	-3.4375	-4.3979	-3.3312	-3.7938	-4.2083	-3.15	-4.1146	-3.9625	-3.2792	-4.1979	-120.011	-32.198	85.327	158.252	0.851	59.307	203.447	147.621	168.204	26.682	103.896	-87.088	89.904	154.949	55.924	99.605	0.00020154	0.00032578	0.00010235	976.14	1.7481e-06	2.5217e-06	923.64	246.35	4.8063e-06	2.8042e-06	232.95	62.013	57.004	16.609	3.0306e-06	20.305	0.00022989	0.00023646	6.1883e-05	849.32	2.5191e-06	2.6151e-06	800.79	214.58	2.9045e-06	2.6186e-06	202.76	54.483	50.176	14.711	2.6099e-06	17.837	-57.430	-72.140	-133.512	-139.681	-13.388	39.208	-140.811	-134.143	22.197	-3.294	-136.065	-131.493	-128.997	-124.951	-0.742	-127.377	-8191	255	
1551.562	1	1	0	0	0.21631	0.11251	0.16927	0.27984	0.14505	0.10242	0.19772	0.094356	0.063004	0.019962	0.12826	0.29156	0.16679	0.24227	0.037789	0.074722	-3.1708	-3.5521	-4.2063	-3.2021	-3.9958	-4.0292	-3.3583	-4.3083	-3.5812	-3.4229	-4.425	-3.3292	-4.0104	-3.9479	-3.175	-4.1792	145.483	-9.374	124.391	168.258	-122.299	12.934	143.182	-0.571	134.008	-130.222	-128.635	-35.236	-99.521	96.389	84.993	0.642	0.00016877	0.00023759	7.7481e-05	966.59	1.3427e-06	1.9382e-06	905.8	241.5	4.5663e-06	2.3878e-06	226.7	60.812	56.959	16.52	4.6033e-06	20.025	0.00022842	0.00024331	6.0644e-05	839.13	2.6533e-06	2.6276e-06	783.04	210.62	2.7262e-06	2.5988e-06	197.53	53.284	49.676	14.552	2.5834e-06	17.576	-64.235	-62.569	-75.402	-139.884	23.415	-10.605	-140.897	-134.302	31.414	50.940	-135.809	-131.290	-129.874	-123.878	16.618	-127.262	-8191	255	
1551.659	1	1	0	0	0.14477	0.026409	0.2279	0.071949	0.072329	0.13681	0.1563	0.19669	0.16761	0.16552	0.20314	0.3555	0.052897	0.02671	0.1509	0.18365	-3.1583	-3.4354	-4.1646	-3.4917	-3.7625	-4.0396	-3.2729	-4.2104	-3.6208	-3.1813	-4.4375	-3.3792	-3.7021	-4.1792	-3.2687	-4.0062	-20.676	82.973	33.532	130.765	67.097	37.163	201.474	49.921	180.493	181.623	-127.311	-116.125	-129.552	81.827	182.329	199.212	0.00019197	0.00046178	0.00010212	959.04	2.7824e-06	1.1852e-06	897.79	242.54	4.5547e-06	2.7858e-06	230.07	61.435	56.759	16.601	1.6832e-06	20.194	0.00022254	0.00025606	6.3445e-05	835.82	2.7059e-06	2.3048e-06	779.73	210.94	2.8635e-06	2.738e-06	199.26	53.769	49.769	14.647	2.7521e-06	17.713	-59.684	-34.946	-69.287	-139.514	-12.922	-14.366	-140.931	-134.138	38.467	18.232	-135.785	-131.456	-129.748	-123.641	7.538	-127.646	-8191	255	
1551.755	1	1	0	0	0.15039	0.18928	0.13873	0.15128	0.15786	0.254	0.11272	0.091393	0.15648	0.21929	0.18101	0.23405	0.26227	0.13778	0.11746	0.28098	-3.3479	-3.4333	-4.1562	-3.7271	-3.7042	-4.1458	-3.275	-4.0208	-3.7292	-3.3958	-4.1813	-3.4833	-3.4021	-4.3438	-3.2646	-3.9521	149.371	106.714	-5.466	200.372	-142.175	41.361	-113.847	-77.534	164.957	163.486	198.846	190.052	195.396	-131.608	122.703	-56.545	0.00018062	0.00025499	6.8595e-05	968.33	3.1646e-06	2.1533e-06	913.36	243.4	7.8282e-07	2.6492e-06	231.05	61.645	56.781	16.627	3.7004e-06	20.43	0.00021443	0.00023777	6.0501e-05	840.16	2.6917e-06	2.3041e-06	792.22	212.58	2.5097e-06	2.7697e-06	201.52	54.227	50.008	14.729	2.6273e-06	17.92	-56.899	-73.730	-78.752	-139.632	-51.525	17.793	-140.811	-133.688	-16.626	-17.179	-135.802	-130.826	-129.012	-123.910	15.503	-127.304	-8191	255	
1551.851	1	1	0	0	0.097468	0.21481	0.19801	0.27075	0.14058	0.27383	0.1602	0.37353	0.060659	0.24344	0.14739	0.033744	0.050841	0.21555	0.19573	0.30671	-3.7667	-3.3375	-4.1	-3.6375	-3.4604	-4.15	-3.3229	-3.9708	-3.9646	-3.3896	-4.3646	-3.6229	-3.3458	-4.2708	-3.3896	-3.8167	-120.126	-85.191	28.950	-89.310	105.053	180.367	90.134	-124.287	-6.742	49.052	25.947	-81.529	119.871	114.416	123.642	-20.521	0.00019496	7.5897e-05	4.4579e-05	974.7	4.3938e-06	3.6805e-06	922.89	243.49	3.4429e-06	1.4652e-06	229.71	61.63	56.698	16.801	3.5264e-06	20.078	0.00021407	0.00025132	6.2368e-05	846.48	2.6099e-06	2.4573e-06	800.29	212.85	2.6618e-06	2.7895e-06	200.55	53.885	49.868	14.681	2.6132e-06	17.614	-49.577	-88.982	-67.503	-139.497	12.998	35.530	-140.464	-134.074	-7.926	7.191	-135.776	-131.371	-129.407	-123.857	38.209	-127.204	-8191	255	
1551.947	1	1	0	0	0.20613	0.055708	0.062799	0.11169	0.08634	0.25667	0.11164	0.19184	0.15029	0.14315	0.20958	0.080636	0.18839	0.25927	0.11522	0.22455	-3.6312	-3.2396	-3.9229	-3.8521	-3.3583	-4.3	-3.5229	-3.7188	-4.0542	-3.2396	-4.1292	-3.8063	-3.4021	-4.3313	-3.3625	-3.6854	-30.065	195.157	143.198	162.934	-72.640	-9.789	62.462	171.522	39.880	-20.147	177.548	31.486	18.051	-39.183	63.068	-57.645	0.00016948	0.00015384	0.00013662	965.46	3.8106e-06	3.0513e-06	892.39	240.46	4.2829e-06	5.2716e-06	228.24	60.325	56.989	16.558	5.3042e-06	19.861	0.00022523	0.00024197	6.1704e-05	835.47	2.8312e-06	2.4598e-06	774.86	209.85	2.7204e-06	2.668e-06	196.88	53.031	49.537	14.553	2.4935e-06	17.524	-51.498	-79.740	-66.730	-139.475	-5.117	38.381	-140.446	-133.776	-2.558	-16.368	-135.507	-131.181	-129.177	-124.062	-17.145	-126.973	-8191	255	
1552.068	1	1	0	0	0.13678	0.073007	0.038012	0.13144	0.033386	0.14854	0.19005	0.069569	0.12484	0.20858	0.2157	0.25006	0.10321	0.057357	0.019624	0.10791	-3.6833	-3.2479	-3.9771	-4.15	-3.1708	-4.3	-3.6146	-3.7062	-4.2063	-3.4437	-3.9292	-4.0896	-3.1146	-4.1521	-3.6813	-3.3354	132.443	-93.525	186.098	38.187	13.825	-14.648	158.658	-98.346	113.138	57.656	155.220	-84.785	174.180	48.881	92.466	-111.489	0.00017469	0.00033199	9.0222e-05	961.98	3.634e-06	2.986e-06	897.07	241.57	3.3376e-06	2.9354e-06	228.59	60.915	56.858	16.552	2.7958e-06	20.17	0.00021505	0.00023854	6.5681e-05	832.71	2.7738e-06	2.2873e-06	780.35	210.3	2.6548e-06	2.7084e-06	199.09	53.514	49.558	14.599	2.6297e-06	17.685	-54.787	-42.546	-74.817	-139.186	-32.947	-3.928	-140.669	-133.707	17.151	14.599	-135.888	-131.501	-128.992	-124.350	34.126	-127.591	-8191	255	
1552.162	1	1	0	0	0.27646	0.19293	0.28805	0.10411	0.12948	0.11028	0.096277	0.11179	0.16553	0.14009	0.15234	0.021765	0.10076	0.21734	0.19542	0.092928	-3.8167	-3.1458	-3.8021	-4.05	-3.3438	-4.1667	-3.85	-3.4271	-4.1562	-3.3979	-3.7042	-4.0312	-3.1542	-3.9271	-3.775	-3.3812	181.725	128.673	-147.811	-147.721	-61.989	190.599	160.893	159.623	-27.380	33.030	121.228	106.413	-24.942	183.934	-100.858	-149.774	0.00018641	0.00033807	0.00010552	965.31	4.3191e-06	3.3377e-06	910.38	241.96	3.5115e-06	1.6467e-06	233.07	62.393	57.12	16.808	1.9113e-06	20.457	0.00021986	0.00025645	6.8392e-05	838.58	2.8722e-06	2.6622e-06	792.2	211.94	2.5328e-06	2.4545e-06	201.75	54.526	50.05	14.787	2.692e-06	17.994	-60.102	-23.127	-67.682	-139.532	-13.703	-36.625	-140.692	-133.792	-7.777	-7.813	-136.360	-131.846	-129.369	-124.004	-33.478	-127.527	-8191	255	
1552.235	1	1	0	0	0.2443	0.25802	0.10093	0.2723	0.20772	0.20655	0.17268	0.34726	0.13607	0.31076	0.13852	0.11752	0.272	0.21469	0.33953	0.1045	-3.9042	-3.4104	-3.6125	-4.0854	-3.2979	-3.8833	-3.9875	-3.3458	-4.1813	-3.4021	-3.5667	-4.0708	-3.2521	-3.8563	-3.7771	-3.2375	57.563	38.232	31.432	172.845	-109.263	-42.348	142.711	131.054	73.473	151.617	106.234	97.687	157.483	194.408	201.076	85.673	0.0002093	0.0002255	0.00010495	972.04	3.4699e-06	1.2564e-06	918.65	243.43	4.6513e-06	1.8368e-06	229.43	61.523	56.521	16.596	4.1901e-06	20.029	0.0002127	0.00024239	6.8814e-05	843.51	2.8305e-06	2.5697e-06	797.09	212.4	2.6371e-06	2.6929e-06	200.8	53.83	49.674	14.653	2.4854e-06	17.602	-60.561	-36.366	-76.449	-139.267	-1.181	79.751	-140.657	-134.173	-21.655	18.054	-135.760	-131.570	-129.021	-123.455	27.693	-127.419	-8191	255	
1552.332	1	1	0	0	0.083541	0.18469	0.16183	0.21161	0.113	0.025394	0.17444	0.039735	0.13487	0.081584	0.23274	0.13781	0.098756	0.16131	0.13184	0.16056	-3.7625	-3.6896	-3.4771	-4.3167	-3.3229	-3.8563	-4.1375	-3.4437	-3.9958	-3.5208	-3.5312	-4.1375	-3.3333	-3.9854	-3.9208	-3.375	89.715	47.692	184.061	163.779	183.985	-21.165	136.891	176.659	-145.191	91.524	116.035	113.291	195.184	195.807	170.308	128.358	0.000206	0.00030589	5.633e-05	961.28	1.4799e-06	1.997e-06	897.03	240.09	3.5043e-06	3.4833e-06	226.74	60.629	56.431	16.37	3.3209e-06	19.86	0.00023466	0.00024434	6.1892e-05	834.48	2.6526e-06	2.4533e-06	778.87	209.61	2.6461e-06	2.7109e-06	197.25	53.165	49.23	14.438	2.3781e-06	17.439	-50.302	-61.731	-59.559	-139.193	-29.303	-8.403	-140.653	-133.983	9.794	14.693	-136.209	-130.171	-129.719	-123.858	40.201	-127.417	-8191	255	
1552.450	1	1	0	0	0.039283	0.16727	0.23943	0.07052	0.23162	0.24017	0.32337	0.20999	0.14929	0.079012	0.25264	0.11743	0.35488	0.25579	0.14824	0.081617	-3.7687	-3.7771	-3.3396	-4.1083	-3.2083	-3.8125	-4.2375	-3.1417	-3.9875	-3.8937	-3.4646	-4.3562	-3.4125	-3.6708	-4.0375	-3.3438	165.233	100.318	-38.637	194.806	105.449	16.774	121.245	149.460	-38.471	30.111	60.936	128.454	116.373	162.446	169.874	-141.309	0.00019833	0.00043178	4.8796e-05	964.34	1.9737e-06	3.8566e-06	899.65	241.41	3.5336e-06	3.3319e-06	229.96	61.228	56.282	16.425	2.3522e-06	20.065	0.00021107	0.00025869	6.5726e-05	834.48	2.7606e-06	2.5044e-06	782.58	210.06	2.5789e-06	2.681e-06	199.23	53.611	49.515	14.489	2.7296e-06	17.62	-59.439	-47.467	-94.591	-139.314	0.163	8.390	-140.745	-133.963	-0.976	-4.093	-135.944	-130.985	-129.125	-123.962	18.685	-127.269	-8191	255	
#DATA ENDS
