BOXY.EXE: ISS Imagent and Oximeter Data Acquisition Program Version 0.80
Ascii Record File

#ACQ INFORMATION
2  Detector Channels 
16  External MUX Channels 
1  Auxiliary Channels 
5000  Waveform (CCF) Frequency (Hz)
1  Waveforms Skipped 
30  Waveforms Averaged 
1  Cycles Averaged 
16  Acquisitions per Waveform 
10.0806  Updata Rate (Hz) 

#FILE INFORMATION
TRUE -- External MUX Channel results are PARSED.
FALSE -- AC DC and Phase are NOT grouped.
TRUE -- Companion Program Settings File CREATED.
FALSE -- AC data not excluded
FALSE -- DC data not excluded
FALSE -- Phase data not excluded
FALSE -- Auxillary Chn. data not excluded
Tab delimiters

#CALIBRATION STATE
TRUE -- Waveform Calibration Values APPLIED.


#AUX CALIBRATION VALUES
Val Type	aux-1	

Term	1.0000e+00	
Factor	0.0000e+00	


#WF CALIBRATION VALUES
A = Detector Channel
Val Type	A-AC1	A-AC2	A-AC3	A-AC4	A-AC5	A-AC6	A-AC7	A-AC8	A-AC9	A-AC10	A-AC11	A-AC12	A-AC13	A-AC14	A-AC15	A-AC16	A-DC1	A-DC2	A-DC3	A-DC4	A-DC5	A-DC6	A-DC7	A-DC8	A-DC9	A-DC10	A-DC11	A-DC12	A-DC13	A-DC14	A-DC15	A-DC16	A-Ph1	A-Ph2	A-Ph3	A-Ph4	A-Ph5	A-Ph6	A-Ph7	A-Ph8	A-Ph9	A-Ph10	A-Ph11	A-Ph12	A-Ph13	A-Ph14	A-Ph15	A-Ph16	

Term	0.00000e+00	0.00000e+00	0.00000e+00	0.00000e+00	0.00000e+00	0.00000e+00	0.00000e+00	0.00000e+00	0.00000e+00	0.00000e+00	0.00000e+00	0.00000e+00	0.00000e+00	0.00000e+00	0.00000e+00	0.00000e+00	0.00000e+00	0.00000e+00	0.00000e+00	0.00000e+00	0.00000e+00	0.00000e+00	0.00000e+00	0.00000e+00	0.00000e+00	0.00000e+00	0.00000e+00	0.00000e+00	0.00000e+00	0.00000e+00	0.00000e+00	0.00000e+00	0.00000e+00	0.00000e+00	0.00000e+00	0.00000e+00	0.00000e+00	0.00000e+00	0.00000e+00	0.00000e+00	0.00000e+00	0.00000e+00	0.00000e+00	0.00000e+00	0.00000e+00	0.00000e+00	0.00000e+00	0.00000e+00	
Factor	1.00000e+00	1.00000e+00	1.00000e+00	1.00000e+00	1.00000e+00	1.00000e+00	1.00000e+00	1.00000e+00	1.00000e+00	1.00000e+00	1.00000e+00	1.00000e+00	1.00000e+00	1.00000e+00	1.00000e+00	1.00000e+00	1.00000e+00	1.00000e+00	1.00000e+00	1.00000e+00	1.00000e+00	1.00000e+00	1.00000e+00	1.00000e+00	1.00000e+00	1.00000e+00	1.00000e+00	1.00000e+00	1.00000e+00	1.00000e+00	1.00000e+00	1.00000e+00	X	X	X	X	X	X	X	X	X	X	X	X	X	X	X	X	

B = Detector Channel
Val Type	B-AC1	B-AC2	B-AC3	B-AC4	B-AC5	B-AC6	B-AC7	B-AC8	B-AC9	B-AC10	B-AC11	B-AC12	B-AC13	B-AC14	B-AC15	B-AC16	B-DC1	B-DC2	B-DC3	B-DC4	B-DC5	B-DC6	B-DC7	B-DC8	B-DC9	B-DC10	B-DC11	B-DC12	B-DC13	B-DC14	B-DC15	B-DC16	B-Ph1	B-Ph2	B-Ph3	B-Ph4	B-Ph5	B-Ph6	B-Ph7	B-Ph8	B-Ph9	B-Ph10	B-Ph11	B-Ph12	B-Ph13	B-Ph14	B-Ph15	B-Ph16	

Term	0.00000e+00	0.00000e+00	0.00000e+00	0.00000e+00	0.00000e+00	0.00000e+00	0.00000e+00	0.00000e+00	0.00000e+00	0.00000e+00	0.00000e+00	0.00000e+00	0.00000e+00	0.00000e+00	0.00000e+00	0.00000e+00	0.00000e+00	0.00000e+00	0.00000e+00	0.00000e+00	0.00000e+00	0.00000e+00	0.00000e+00	0.00000e+00	0.00000e+00	0.00000e+00	0.00000e+00	0.00000e+00	0.00000e+00	0.00000e+00	0.00000e+00	0.00000e+00	-3.55938e+01	-1.27701e+02	-1.25281e+02	-1.82617e+02	-5.40153e+01	-6.01161e+01	-1.56707e+02	-1.61923e+02	-3.23848e+01	-6.96501e+01	-1.72081e+02	-1.72121e+02	-1.82310e+02	-1.75613e+02	-4.80221e+01	-1.49421e+02	
Factor	1.75935e-05	1.27067e-04	3.90881e-05	1.69756e-01	1.41494e-06	1.43045e-06	1.51472e-01	4.16107e-02	1.27005e-06	1.46452e-06	7.00974e-02	2.89022e-02	2.93523e-02	6.32495e-03	1.47419e-06	9.43134e-03	9.40978e-06	1.53733e-05	4.30930e-06	8.73817e-02	1.59016e-07	1.71387e-07	7.34779e-02	2.15944e-02	1.53695e-07	1.73083e-07	3.51862e-02	1.45699e-02	1.52597e-02	3.31565e-03	1.61020e-07	4.78232e-03	X	X	X	X	X	X	X	X	X	X	X	X	X	X	X	X	



#DISTANCE SETTINGS
A = Detector Channel
A-1	A-2	A-3	A-4	A-5	A-6	A-7	A-8	A-9	A-10	A-11	A-12	A-13	A-14	A-15	A-16	

1.0000e+01	1.0000e+01	1.0000e+01	1.4500e+00	1.0000e+01	1.0000e+01	1.5100e+00	1.9500e+00	1.0000e+01	1.0000e+01	2.0100e+00	2.5000e+00	2.4400e+00	2.9500e+00	1.0000e+01	3.0100e+00	

B = Detector Channel
B-1	B-2	B-3	B-4	B-5	B-6	B-7	B-8	B-9	B-10	B-11	B-12	B-13	B-14	B-15	B-16	

1.0000e+01	1.0000e+01	1.0000e+01	1.4500e+00	1.0000e+01	1.0000e+01	1.5100e+00	1.9500e+00	1.0000e+01	1.0000e+01	2.0100e+00	2.5000e+00	2.4400e+00	2.9500e+00	1.0000e+01	3.0100e+00	




#DATA BEGINS
time	group	step	mark	flag	A-AC1	A-AC2	A-AC3	A-AC4	A-AC5	A-AC6	A-AC7	A-AC8	A-AC9	A-AC10	A-AC11	A-AC12	A-AC13	A-AC14	A-AC15	A-AC16	A-DC1	A-DC2	A-DC3	A-DC4	A-DC5	A-DC6	A-DC7	A-DC8	A-DC9	A-DC10	A-DC11	A-DC12	A-DC13	A-DC14	A-DC15	A-DC16	A-Ph1	A-Ph2	A-Ph3	A-Ph4	A-Ph5	A-Ph6	A-Ph7	A-Ph8	A-Ph9	A-Ph10	A-Ph11	A-Ph12	A-Ph13	A-Ph14	A-Ph15	A-Ph16	B-AC1	B-AC2	B-AC3	B-AC4	B-AC5	B-AC6	B-AC7	B-AC8	B-AC9	B-AC10	B-AC11	B-AC12	B-AC13	B-AC14	B-AC15	B-AC16	B-DC1	B-DC2	B-DC3	B-DC4	B-DC5	B-DC6	B-DC7	B-DC8	B-DC9	B-DC10	B-DC11	B-DC12	B-DC13	B-DC14	B-DC15	B-DC16	B-Ph1	B-Ph2	B-Ph3	B-Ph4	B-Ph5	B-Ph6	B-Ph7	B-Ph8	B-Ph9	B-Ph10	B-Ph11	B-Ph12	B-Ph13	B-Ph14	B-Ph15	B-Ph16	aux-1	digaux	

2292.554	1	1	0	256	0.17177	0.043671	0.16346	0.10758	0.024629	0.18653	0.11065	0.23071	0.14419	0.19052	0.14234	0.24006	0.191	0.14063	0.20996	0.20454	-3.8708	-3.325	-3.2938	-4.1438	-3.1562	-3.7875	-3.9	-3.0854	-4.0542	-3.5792	-3.2167	-4.1562	-3.1417	-3.7646	-3.9646	-3.0417	196.741	28.890	-12.546	131.812	22.240	225.157	189.868	105.102	-28.890	38.698	245.141	239.351	236.444	221.629	31.808	65.969	5.5688e-05	8.0704e-05	9.4167e-05	224.5	2.8419e-06	2.7741e-06	361.19	60.305	2.4207e-06	3.2857e-06	94.928	28.229	13.329	3.1015	1.4457e-06	6.7795	0.00053618	0.00092864	0.00025944	200.05	9.7593e-06	1.0306e-05	313.6	53.85	9.1721e-06	1.0532e-05	84.54	25.284	12.543	2.904	9.4767e-06	6.1869	-79.514	12.974	-33.155	-69.079	202.449	114.325	-69.689	-64.184	179.029	143.576	-66.138	-61.918	-58.118	-55.150	-75.044	-59.346	-8191	255	
2292.627	1	1	0	0	0.082151	0.10913	0.15556	0.19015	0.098814	0.21984	0.078387	0.1562	0.051074	0.049183	0.066295	0.16348	0.05867	0.22246	0.11122	0.072561	-3.625	-3.3438	-3.25	-4.1146	-3.3312	-3.6104	-3.9896	-3.1188	-3.9979	-3.6104	-3.2667	-3.9896	-3.3604	-3.4938	-3.9313	-3.2646	182.114	230.075	-10.276	68.506	-18.491	-73.692	202.273	-77.956	207.744	100.799	175.132	272.126	-21.141	-10.310	60.089	178.892	1.2057e-05	0.00053726	9.3829e-05	227.4	2.079e-06	4.5184e-06	355.54	59.554	3.1582e-06	2.2416e-06	95.895	27.367	13.181	3.0184	1.7951e-06	6.5998	0.00055061	0.00088297	0.00025332	200.85	9.4939e-06	9.9444e-06	310.5	53.226	9.0248e-06	1.0056e-05	84.475	24.696	12.455	2.8269	9.4042e-06	6.0857	245.109	59.311	-11.705	-69.985	276.264	23.305	-70.455	-63.753	-36.863	127.558	-65.641	-61.145	-59.052	-54.550	73.472	-58.951	-8191	255	
2292.746	1	1	0	0	0.17242	0.16164	0.11441	0.20353	0.2751	0.13673	0.16552	0.24327	0.045421	0.2888	0.12346	0.17857	0.076661	0.16357	0.091579	0.21591	-3.6375	-3.7687	-3.1958	-4.0687	-3.3063	-3.5417	-4.1813	-2.9979	-3.7	-3.9333	-3.2167	-4.0833	-3.3917	-3.3083	-4.0417	-2.9854	83.526	91.344	102.428	26.121	121.024	234.601	266.328	67.966	194.678	247.154	167.538	270.692	248.490	-60.008	-3.086	133.249	1.6238e-05	0.00030881	0.00019899	228.29	9.0779e-07	3.7227e-06	356.24	59.717	3.245e-06	4.4758e-06	95.758	27.402	13.004	2.9771	2.2235e-06	6.7372	0.00057021	0.00087874	0.00024474	201.24	9.3989e-06	9.9169e-06	310.83	53.167	8.7837e-06	9.9645e-06	84.223	24.804	12.407	2.8638	9.2489e-06	6.1132	-36.444	-18.955	47.364	-69.776	28.631	86.367	-70.600	-64.048	38.702	78.739	-65.769	-61.391	-57.996	-54.966	81.807	-60.003	-8191	255	
2292.842	1	1	0	0	0.1472	0.22063	0.3238	0.18295	0.19369	0.10726	0.17033	0.22109	0.10509	0.062759	0.24838	0.15093	0.09414	0.084829	0.21716	0.22226	-3.4542	-3.8375	-3.2042	-4.1021	-3.3354	-3.4708	-4.1979	-3.1083	-3.8917	-3.9188	-3.0917	-4.0917	-3.6	-3.3083	-4.1333	-3.3729	165.612	138.112	99.603	-77.602	-66.259	37.275	203.183	276.672	-24.378	-4.557	-19.830	-14.074	35.175	240.768	51.832	183.204	3.5283e-05	0.00028584	4.553e-05	227.98	4.0349e-06	2.0183e-06	353.76	59.524	4.8821e-07	2.1546e-06	94.073	27.257	13.202	3.0806	1.9385e-06	6.772	0.0005622	0.00089617	0.00026197	201.68	9.3806e-06	9.9644e-06	309.73	53.291	9.246e-06	1.0208e-05	84.368	24.853	12.4	2.852	9.2808e-06	6.2153	219.032	133.173	91.326	-69.663	15.769	184.182	-70.516	-62.876	113.571	88.034	-65.859	-61.304	-57.521	-54.937	251.944	-58.777	-8191	255	
2292.938	1	1	0	0	0.16621	0.14203	0.20538	0.2829	0.072552	0.1344	0.093305	0.29256	0.12712	0.21183	0.2154	0.11396	0.28866	0.054804	0.063423	0.038381	-3.3417	-4.0146	-3.3292	-3.9542	-3.675	-3.2917	-4.1104	-3.2271	-3.6271	-4.0563	-3.1292	-3.9938	-3.7625	-3.2208	-4.0229	-3.6021	33.321	179.044	150.025	32.279	180.093	26.801	197.122	226.361	256.629	238.750	25.562	-63.687	-4.792	181.104	139.370	151.051	1.4978e-05	0.00033455	0.00010806	226.52	2.1996e-06	3.5094e-06	354.59	59.992	3.3194e-06	4.5107e-06	95.56	28.3	13.289	3.0441	3.5088e-06	6.7476	0.00056802	0.00087884	0.00025784	201.99	9.3992e-06	1.0421e-05	311.27	53.562	9.0136e-06	9.9288e-06	84.805	25.321	12.621	2.8802	9.2982e-06	6.144	236.504	82.467	-66.138	-69.413	7.365	151.905	-71.067	-63.389	137.642	56.793	-66.276	-61.565	-59.347	-55.440	5.230	-59.188	-8191	255	
2293.059	1	1	0	0	0.10676	0.12601	0.090354	0.10467	0.23436	0.13356	0.254	0.12514	0.033306	0.38163	0.14256	0.049312	0.086933	0.083722	0.1694	0.13689	-2.9583	-4.0146	-3.2021	-3.7188	-3.8292	-3.225	-4.1521	-3.4729	-3.4292	-4.2146	-3.3625	-3.9083	-3.9458	-3.2083	-3.9667	-3.5583	177.559	4.412	-38.831	-47.726	167.903	178.828	256.852	-40.079	11.121	116.896	-37.118	-61.279	5.344	-13.011	29.895	-53.160	4.3434e-06	0.00013972	0.0001316	226.62	1.3073e-06	1.7991e-06	355.19	59.952	1.2871e-06	3.799e-06	94.215	27.546	13.382	2.9963	5.933e-06	6.6847	0.00055333	0.00087724	0.00026535	201.95	9.2736e-06	1.0144e-05	311.38	53.288	9.1938e-06	1.024e-05	83.839	24.827	12.46	2.8296	9.6431e-06	6.072	187.734	-36.572	31.686	-69.315	188.575	63.595	-70.332	-63.850	135.137	-5.677	-65.609	-61.403	-59.230	-55.475	9.945	-59.223	-8191	255	
2293.155	1	1	0	0	0.065778	0.12038	0.17215	0.22714	0.066508	0.054834	0.18704	0.029806	0.12789	0.14335	0.18476	0.095865	0.055331	0.15008	0.026606	0.14011	-2.925	-4	-3.3604	-3.4958	-3.7542	-3.1708	-3.9833	-3.5604	-3.1354	-4.2125	-3.4042	-3.7333	-4.0188	-3.1792	-4.0083	-3.5875	249.587	238.866	61.457	209.812	17.034	176.041	-19.260	-51.600	274.804	128.517	-2.895	160.182	220.972	-72.349	76.256	-40.687	3.7069e-05	0.00029073	9.9024e-05	228.4	2.5104e-06	3.9176e-06	353.22	58.786	2.6819e-06	2.2013e-06	94.41	27.758	12.795	3.0588	2.395e-06	6.5748	0.0005869	0.00091436	0.00024992	201.4	9.2269e-06	1.0295e-05	310.59	53.118	9.0837e-06	9.8957e-06	84.168	24.898	12.282	2.8568	9.3754e-06	6.0933	92.502	-14.880	-5.579	-69.167	44.633	-51.660	-70.233	-63.355	38.625	49.057	-66.168	-61.330	-59.679	-55.606	3.762	-58.972	-8191	255	
2293.227	1	1	0	0	0.11386	0.11893	0.17763	0.099204	0.19977	0.20974	0.13307	0.093934	0.24483	0.12391	0.15096	0.054153	0.14977	0.28567	0.12638	0.17305	-3.1292	-3.9333	-3.4458	-3.35	-4.0333	-3.3125	-3.9146	-3.7396	-3.1792	-4.1292	-3.4292	-3.4562	-3.875	-3.1688	-3.9042	-3.7396	13.787	9.522	161.600	-67.296	150.471	53.408	224.441	108.349	-39.871	136.924	131.174	-10.804	69.411	189.687	276.908	-37.183	5.13e-05	0.00022978	0.00011165	225.43	2.1152e-06	2.7303e-06	353.79	59.659	1.5543e-06	5.9696e-06	94.724	27.564	12.974	3.0714	2.0833e-06	6.7256	0.00055829	0.00087945	0.00024879	200.79	9.2829e-06	1.0356e-05	310.79	53.443	9.1477e-06	9.7947e-06	84.327	24.971	12.395	2.865	9.0426e-06	6.1521	204.249	47.433	75.548	-69.738	75.505	-53.478	-69.818	-63.238	182.618	36.250	-66.201	-61.103	-59.600	-54.757	39.951	-59.020	-8191	255	
2293.347	1	1	0	0	0.083947	0.18957	0.060496	0.36988	0.14627	0.14571	0.0067269	0.090972	0.044474	0.041991	0.13597	0.11751	0.096413	0.20034	0.094369	0.19103	-2.8542	-4.0646	-3.5	-3.3667	-4.2083	-3.2792	-3.8625	-3.9708	-3.0667	-4.1021	-3.5729	-3.2104	-4.0042	-3.1021	-3.775	-4.0938	155.737	-65.412	201.642	94.862	-27.430	41.741	85.576	261.519	-38.943	135.005	-28.268	94.281	39.323	-56.097	-32.905	17.933	2.6139e-05	0.00023976	0.0001107	229.01	1.5305e-06	1.4496e-06	357.03	59.324	3.5499e-06	1.5249e-06	93.196	27.012	13.14	3.052	3.7787e-06	6.4956	0.00057594	0.00091132	0.00024553	203.32	9.0401e-06	9.9762e-06	311.65	53.326	9.4612e-06	1.0021e-05	84.172	24.884	12.401	2.8745	9.2553e-06	6.0691	-11.539	133.672	-37.732	-69.063	188.883	130.051	-70.075	-63.717	57.171	17.175	-65.864	-61.977	-59.801	-53.417	253.607	-58.912	-8191	255	
2293.442	1	1	0	0	0.26102	0.10184	0.020095	0.25229	0.24458	0.14034	0.12738	0.21074	0.17819	0.14618	0.13917	0.2212	0.13964	0.21693	0.068386	0.090681	-2.6667	-3.7812	-3.7229	-3.2396	-4.1396	-3.2771	-3.8854	-3.9437	-3.0729	-4.1479	-3.6125	-3.2917	-4.1479	-3.4333	-3.5583	-4.0938	172.124	141.811	164.974	210.302	192.258	96.745	116.443	31.555	146.859	155.693	271.341	85.544	96.457	122.116	-51.746	-21.129	9.4664e-05	0.00019651	9.2564e-05	229.06	1.9961e-06	1.4372e-06	356.96	59.072	1.2638e-06	2.6661e-06	93.815	27.463	12.977	2.9161	1.8403e-06	6.65	0.00059399	0.00087625	0.00025337	203.07	9.2733e-06	9.8783e-06	311.7	53.13	9.1983e-06	1.0312e-05	83.632	24.654	12.383	2.822	9.4948e-06	6.0736	264.119	242.748	37.244	-69.339	85.162	258.432	-69.941	-63.662	275.030	201.295	-66.597	-62.375	-59.902	-55.187	176.396	-58.626	-8191	255	
2293.538	1	1	0	0	0.12227	0.13826	0.12649	0.2215	0.21892	0.11698	0.075989	0.17691	0.077359	0.11645	0.035449	0.10856	0.15531	0.070415	0.12422	0.053169	-2.8375	-3.9333	-3.7812	-3.2375	-4.0521	-3.3875	-3.5708	-4.0521	-3.0458	-3.8688	-3.9313	-2.9313	-4.0604	-3.3667	-3.3604	-4.1167	-71.712	173.260	229.456	99.697	-7.076	94.670	248.497	190.969	11.246	-21.555	84.479	2.905	203.709	-52.268	243.759	230.134	4.8245e-05	0.00028176	0.00012987	226.53	3.3519e-06	5.1622e-06	350.3	59.863	3.9272e-06	1.5635e-06	93.864	27.366	13.314	3.0641	5.1257e-06	6.6415	0.00058076	0.00087884	0.00025527	201.91	9.2494e-06	1.0046e-05	309.26	53.344	9.279e-06	1.0201e-05	83.748	24.724	12.459	2.854	9.7447e-06	6.0702	12.828	264.337	265.491	-68.886	269.538	45.677	-70.065	-63.823	-53.832	29.770	-65.888	-60.747	-57.538	-54.103	129.088	-58.180	-8191	255	
2293.634	1	1	0	0	0.16561	0.38936	0.13657	0.26302	0.19693	0.14966	0.091737	0.098134	0.28515	0.108	0.096329	0.047914	0.19156	0.16376	0.06748	0.089216	-2.9729	-3.6688	-3.8	-3.1896	-4.0563	-3.425	-3.4354	-4.1333	-3.2104	-3.7271	-4.1167	-3.2062	-4.0771	-3.7979	-3.3812	-4.1646	68.641	-65.800	28.432	257.091	-40.906	69.391	10.824	100.990	201.617	41.408	214.570	56.291	200.501	-42.677	82.855	118.900	2.383e-05	0.00020459	0.0001018	225	1.2245e-06	1.7152e-06	357.11	60.144	2.7487e-06	1.1581e-06	93.785	27.842	13.504	3.0349	3.7269e-06	6.5902	0.00056069	0.00088208	0.00024874	200.67	9.1073e-06	1.0011e-05	310.97	53.444	9.4766e-06	1.0048e-05	84.11	24.859	12.63	2.841	9.5535e-06	6.0885	249.654	271.131	159.836	-68.620	177.324	138.080	-69.988	-63.393	13.148	130.873	-65.505	-61.209	-58.751	-54.636	155.497	-59.176	-8191	255	
2293.755	1	1	0	0	0.2242	0.29927	0.13329	0.10917	0.13274	0.11421	0.12081	0.17722	0.058341	0.13866	0.18256	0.20386	0.26941	0.2914	0.0888	0.093431	-2.9083	-3.5833	-3.8583	-3.0563	-3.8812	-3.6021	-3.2833	-4.0958	-3.3208	-3.5458	-3.9292	-3.1604	-3.8083	-3.6771	-3.2708	-3.9979	146.673	124.659	199.259	181.930	18.506	115.715	-6.529	270.768	114.874	227.760	213.557	121.648	67.731	91.822	214.318	-52.970	2.1184e-05	0.00022799	6.3985e-05	229.14	2.8903e-06	6.8109e-06	355.36	60.216	1.8817e-06	2.6565e-06	95.373	27.406	13.371	3.0476	1.2206e-06	6.689	0.00057243	0.00089338	0.00024402	203.4	9.4522e-06	9.5613e-06	311.82	53.787	9.1186e-06	1.0304e-05	84.771	24.98	12.649	2.8718	9.2959e-06	6.1061	11.281	74.187	70.495	-68.512	97.757	131.132	-69.986	-63.455	-37.541	63.339	-64.816	-60.784	-57.329	-54.706	153.868	-59.749	-8191	255	
2293.851	1	1	0	0	0.10583	0.07303	0.14252	0.054366	0.10825	0.1976	0.10544	0.21213	0.13037	0.091264	0.028322	0.17702	0.094949	0.061733	0.19116	0.12169	-3.0583	-3.3771	-3.9958	-3.0812	-3.9	-3.7313	-3.175	-4.0854	-3.45	-3.3979	-4.1646	-3.2125	-3.6729	-3.8146	-3.0708	-4.0854	92.314	-51.638	87.836	57.301	6.310	-74.379	247.963	264.707	192.693	114.018	258.776	251.024	92.664	-29.822	79.961	76.056	1.4397e-05	0.00054685	3.1235e-05	229.54	1.1965e-06	8.808e-07	355.79	59.566	4.0316e-06	2.5304e-06	93.675	27.036	13.219	3.1185	3.7619e-06	6.6421	0.00058435	0.00090517	0.00025243	201.56	9.5883e-06	1.0015e-05	311.78	53.411	8.8765e-06	9.9332e-06	83.711	24.661	12.536	2.8967	9.4663e-06	6.0561	271.651	227.833	234.542	-68.978	138.978	-25.449	-69.887	-63.515	117.571	29.941	-66.362	-60.888	-58.449	-55.095	116.558	-57.993	-8191	255	
2293.923	1	1	0	0	0.071663	0.37829	0.27909	0.1043	0.19947	0.11046	0.11702	0.11608	0.33299	0.24088	0.1434	0.05249	0.24817	0.17128	0.17482	0.12009	-3.0458	-3.3438	-3.9792	-3.1562	-3.6375	-3.975	-3.1854	-3.9688	-3.5521	-3.2146	-3.9833	-3.3896	-3.4813	-3.9771	-3.0938	-3.9167	76.580	94.283	13.499	250.571	73.016	224.928	264.074	63.283	206.930	108.828	225.234	-80.042	-34.547	264.744	190.205	115.927	4.2659e-05	0.00016006	0.00012306	228.96	2.149e-06	2.6253e-06	350.98	59.877	2.6832e-06	4.3632e-06	93.703	27.058	13.242	3.0609	2.0433e-06	6.7087	0.00056676	0.00090241	0.000244	201.73	9.2402e-06	9.7012e-06	309.63	53.578	9.1051e-06	1.0068e-05	84.088	24.76	12.488	2.8707	9.5357e-06	6.1151	126.585	162.509	36.026	-69.074	198.237	70.980	-69.401	-63.016	234.286	56.382	-65.413	-61.403	-57.821	-54.772	-76.078	-59.241	-8191	255	
2294.019	1	1	0	0	0.11812	0.093219	0.14911	0.062818	0.067837	0.16383	0.15272	0.19072	0.22013	0.1992	0.028374	0.02626	0.18804	0.066675	0.33102	0.25591	-3.4083	-3.1104	-4.0833	-3.3063	-3.5167	-3.9646	-3.1625	-3.7333	-3.7458	-3.2396	-4.2438	-3.4292	-3.4104	-4.0854	-3.1854	-3.7583	59.690	219.310	219.174	154.613	-9.550	33.568	172.572	-13.998	69.494	222.993	-57.845	87.436	198.691	193.670	-45.164	97.067	6.9409e-05	0.0002484	6.2215e-05	225.11	3.3265e-06	1.134e-06	351.81	60.473	1.6804e-06	9.7758e-07	96.076	27.17	13.127	3.0465	3.5191e-06	6.7384	0.00058109	0.00090315	0.0002455	201.8	9.7702e-06	9.8962e-06	309.18	53.989	8.9325e-06	1.0231e-05	85.249	24.8	12.554	2.888	9.5629e-06	6.1506	23.323	44.814	271.149	-69.241	204.199	50.705	-70.021	-62.688	-58.189	251.619	-66.238	-61.035	-57.253	-54.765	82.178	-58.297	-8191	255	
2294.139	1	1	0	0	0.095004	0.16254	0.022572	0.048674	0.2075	0.34866	0.063489	0.276	0.17708	0.15849	0.066248	0.31268	0.32991	0.10762	0.14339	0.084999	-3.5938	-3.0583	-4.0687	-3.3083	-3.5875	-4.2104	-3.4229	-3.9229	-3.9229	-3.1875	-3.9896	-3.5042	-3.2458	-4.1271	-3.125	-3.7542	175.129	201.560	79.658	221.989	10.672	46.254	164.187	-62.650	-62.590	142.921	73.653	104.392	123.862	80.079	-23.587	128.147	5.3234e-05	8.7615e-05	1.3961e-05	226.98	2.9101e-06	3.5817e-06	354.99	60.817	2.2558e-06	2.8104e-06	95.616	26.755	13.387	3.1522	1.4148e-06	6.6494	0.00056341	0.00091052	0.00024888	202.65	9.6331e-06	1.003e-05	311.36	54.155	9.1381e-06	1.0228e-05	84.619	24.825	12.636	2.8978	9.6914e-06	6.1277	238.928	-57.678	156.134	-69.463	97.238	72.492	-69.994	-63.361	49.826	82.175	-65.226	-60.526	-57.705	-54.810	234.448	-59.105	-8191	255	
2294.236	1	1	0	0	0.052463	0.23291	0.037167	0.036208	0.066626	0.08971	0.10038	0.074948	0.043708	0.056946	0.14587	0.085356	0.32202	0.1012	0.11615	0.064054	-3.5229	-2.8604	-4	-3.6042	-3.2146	-4.0833	-3.3708	-3.6688	-4.0667	-3.1958	-3.9938	-3.5354	-3.1771	-4.0958	-3.4917	-3.5604	233.021	159.412	110.909	272.996	156.740	158.894	94.283	166.176	-77.094	-68.987	37.899	182.343	43.428	120.755	-55.974	187.812	2.6913e-05	0.00020661	0.00021514	230.95	3.3764e-06	2.9998e-06	351.84	59.622	2.7263e-06	1.8346e-06	94.128	27.346	13.119	3.1037	5.1567e-06	6.5165	0.00056553	0.0009141	0.00025581	204.23	9.5741e-06	1.0044e-05	309.31	53.587	8.7254e-06	1.0165e-05	84.52	24.616	12.554	2.8734	9.4089e-06	6.0609	29.963	264.475	53.904	-69.076	199.331	-9.991	-70.243	-63.534	115.650	241.205	-65.994	-61.115	-57.766	-54.881	154.851	-59.289	-8191	255	
2294.332	1	1	0	0	0.065735	0.10844	0.12456	0.12992	0.26795	0.12951	0.26788	0.21219	0.13879	0.28368	0.19986	0.10992	0.19501	0.10775	0.12763	0.21104	-3.7042	-3.3104	-3.9417	-3.9	-3.1562	-4.1021	-3.3917	-3.5062	-3.9958	-3.1688	-3.7812	-3.8792	-2.9938	-4.2688	-3.4062	-3.2792	181.634	28.237	89.079	128.527	115.238	51.116	206.941	-15.038	77.575	252.813	-57.650	133.603	-75.972	138.466	274.828	132.369	3.9011e-05	0.0002739	7.5787e-05	228.2	1.4048e-06	3.9782e-06	352.88	60.885	1.9399e-06	3.3719e-06	93.763	27.564	13.259	3.0446	3.7273e-06	6.5945	0.00057237	0.00093483	0.00024743	202.35	9.5234e-06	9.5963e-06	309.99	53.878	9.0007e-06	1.0032e-05	84.105	24.883	12.483	2.8826	9.3945e-06	6.1297	-73.269	66.838	-3.593	-69.092	132.827	6.795	-69.772	-63.370	79.989	-80.686	-65.694	-60.933	-57.972	-53.769	206.056	-58.686	-8191	255	
2294.428	1	1	0	0	0.1151	0.21591	0.041372	0.14755	0.13728	0.12311	0.12102	0.15313	0.23896	0.21567	0.17734	0.14823	0.18842	0.21023	0.19515	0.21695	-3.8542	-3.3229	-3.7625	-3.8438	-3.1688	-3.8333	-3.5	-3.3771	-4.0563	-3.1479	-3.8104	-3.9604	-3.0396	-3.9625	-3.5687	-3.2479	233.334	136.057	75.269	-78.160	167.908	0.728	128.298	-48.338	261.013	38.739	-47.089	261.586	213.342	-11.672	144.079	-14.277	2.1009e-05	0.00026886	7.7405e-05	229.04	4.4726e-06	1.8975e-07	356.87	59.721	2.2753e-06	1.7548e-06	94.478	27.815	13.131	3.1396	4.7979e-06	6.7961	0.00057319	0.00090581	0.00025304	202.99	9.6798e-06	9.5827e-06	310.5	53.704	9.182e-06	1.0044e-05	84.832	25.077	12.602	2.9047	9.5733e-06	6.1634	-53.311	-7.348	-55.632	-68.685	219.853	219.167	-70.015	-62.895	242.308	268.860	-64.742	-60.756	-58.551	-54.914	73.783	-57.858	-8191	255	
2294.522	1	1	0	0	0.07522	0.066886	0.30452	0.086504	0.24434	0.094574	0.16445	0.15765	0.092459	0.13971	0.19736	0.23802	0.11817	0.15822	0.20966	0.078943	-3.6667	-3.4062	-3.5104	-4.0333	-2.9917	-4.0083	-3.8354	-3.425	-4.0708	-3.4104	-3.6417	-3.9938	-3.3083	-3.8583	-3.9229	-3.3667	-44.747	245.462	89.050	17.479	236.558	68.768	258.068	276.959	117.752	69.491	253.748	161.171	272.928	206.445	138.927	22.537	5.2904e-05	0.00047177	3.1871e-05	226.72	2.7482e-06	4.4196e-07	358.28	60.806	2.9302e-06	2.853e-06	95.04	28.044	13.513	3.1147	1.5549e-06	6.665	0.00056284	0.00093188	0.00025418	202.58	9.3293e-06	9.9201e-06	314.39	54.159	9.2297e-06	1.0626e-05	84.297	25.072	12.668	2.8945	9.1181e-06	6.1165	-32.172	-60.922	104.798	-68.229	40.454	129.527	-70.136	-63.088	173.713	85.884	-65.827	-60.358	-58.711	-54.414	15.684	-57.840	-8191	255	
2294.618	1	1	0	0	0.094916	0.17433	0.035863	0.14525	0.3474	0.047723	0.1503	0.073073	0.19321	0.072392	0.17357	0.17323	0.18245	0.055505	0.056513	0.23237	-3.7896	-3.3	-3.4771	-3.9521	-3.1208	-3.9208	-3.7313	-3.2979	-4.1396	-3.3083	-3.3979	-4.0396	-3.0687	-3.625	-3.7333	-3.1833	103.433	-57.423	194.632	41.593	162.033	-25.589	180.048	48.813	175.697	90.115	103.297	231.191	136.501	269.813	-42.738	223.716	3.115e-05	0.00042141	0.00017053	227.73	3.3396e-06	3.1598e-06	355	60.653	2.1295e-06	4.2344e-06	94.93	27.486	13.363	3.0709	4.1623e-06	6.6908	0.00055714	0.00088774	0.0002462	202.51	9.3912e-06	1.0282e-05	311.87	54.129	8.8951e-06	1.056e-05	84.543	24.709	12.687	2.8956	9.4401e-06	6.1417	250.553	5.848	213.347	-68.951	113.290	156.776	-69.794	-62.755	232.694	71.659	-65.133	-61.526	-58.401	-54.907	211.093	-57.910	-8191	255	
2294.739	1	1	0	0	0.20287	0.12928	0.11619	0.097638	0.041333	0.1154	0.027467	0.090363	0.15651	0.049971	0.12063	0.051456	0.27391	0.28091	0.25953	0.21117	-3.7104	-3.4417	-3.15	-3.9958	-3.1083	-3.8021	-3.9917	-3.1188	-3.9667	-3.6521	-3.2042	-4.0896	-3.3688	-3.625	-3.9938	-3.1937	149.137	259.152	-76.874	183.270	229.433	174.382	-46.615	93.086	-2.158	55.788	93.828	273.282	24.317	-73.059	133.462	-50.346	5.8787e-05	0.00011346	5.5502e-05	231.53	1.6134e-06	2.5524e-07	356.12	60.327	3.8324e-06	2.862e-06	95.454	27.237	13.141	3.0499	1.54e-06	6.7139	0.00057551	0.00091561	0.00025709	203.71	9.3409e-06	9.9573e-06	311.29	54.149	8.8903e-06	1.016e-05	84.945	24.828	12.626	2.89	9.5746e-06	6.1782	221.707	270.835	-33.800	-68.793	-28.430	239.180	-70.317	-63.112	224.314	-10.333	-65.424	-61.341	-58.168	-53.907	28.343	-59.243	-8191	255	
2294.835	1	1	0	0	0.155	0.24872	0.086048	0.16767	0.092967	0.19917	0.24083	0.12266	0.02888	0.10505	0.073302	0.067326	0.19764	0.11298	0.12513	0.12271	-3.6958	-3.6229	-3.125	-4.0938	-3.3458	-3.5208	-4.0625	-3.1312	-3.8979	-3.8042	-3.375	-4.1021	-3.4875	-3.3333	-4.0896	-3.1771	96.687	-31.972	207.742	-55.930	227.001	171.632	177.081	83.050	-56.894	90.762	63.680	88.034	68.788	151.170	162.270	60.663	3.0191e-05	0.00016237	3.4063e-05	229.66	1.8375e-06	5.869e-07	359.24	60.366	2.9997e-06	1.5812e-06	95.41	27.357	13.525	3.0668	5.0549e-06	6.7398	0.00056678	0.000883	0.00025012	202.79	9.4399e-06	1.0039e-05	312.81	53.914	9.2527e-06	9.9941e-06	85.017	25.131	12.643	2.9081	9.4136e-06	6.2186	-67.823	231.063	-76.494	-68.725	82.010	-40.664	-69.543	-62.796	212.810	150.751	-65.683	-60.643	-58.470	-53.880	38.368	-57.908	-8191	255	
2294.931	1	1	0	0	0.18681	0.0046803	0.26207	0.2189	0.21169	0.15822	0.094127	0.027381	0.26055	0.11074	0.11634	0.093075	0.25935	0.1801	0.070755	0.037042	-3.4729	-3.825	-3.1583	-4.1458	-3.2771	-3.4813	-4.2354	-3.1167	-3.7104	-3.7333	-3.2375	-3.975	-3.4813	-3.2	-4.0813	-3.4271	157.267	126.355	-1.713	158.741	63.976	-1.455	201.041	92.040	-54.625	107.271	167.341	82.822	152.085	39.876	206.912	222.771	3.581e-05	0.00029607	5.9045e-05	228.85	2.9431e-06	1.3872e-06	358.58	60.579	3.6205e-06	3.1722e-06	96.323	27.678	13.581	3.1003	1.543e-06	6.6543	0.00058576	0.00090683	0.00025372	203.3	9.2905e-06	1.0048e-05	312.73	54.321	9.1327e-06	9.9891e-06	84.957	24.93	12.747	2.9104	9.3304e-06	6.1368	250.220	14.173	194.462	-68.962	159.138	122.949	-69.433	-62.484	-35.225	58.916	-65.632	-61.246	-58.614	-54.904	271.232	-58.986	-8191	255	
2295.027	1	1	0	0	0.12983	0.21967	0.30243	0.18888	0.10807	0.061124	0.12916	0.070435	0.073691	0.22777	0.051623	0.13249	0.30856	0.036653	0.12669	0.16697	-3.3958	-3.9917	-3.1792	-3.975	-3.5771	-3.2979	-4.1917	-3.3083	-3.6417	-4.1083	-3.2021	-3.8917	-3.7229	-3.2479	-4.2646	-3.3417	231.790	-9.929	58.187	275.019	137.528	38.602	95.162	236.706	191.188	-70.029	-28.034	25.625	10.135	-53.093	-13.248	-62.377	2.2322e-05	0.00031769	8.1251e-05	228.78	4.5484e-06	3.5841e-06	358.72	61.125	1.9507e-07	3.2521e-06	94.422	27.293	13.686	3.0998	3.433e-06	6.673	0.00060093	0.00091064	0.00024765	203.72	9.5102e-06	1.005e-05	313.22	54.419	9.1227e-06	1.0245e-05	84.806	24.897	12.759	2.9055	9.0755e-06	6.1909	198.544	57.428	96.501	-68.821	71.017	219.814	-69.607	-63.424	163.575	66.377	-64.963	-60.680	-56.686	-54.882	22.619	-59.211	-8191	255	
2295.148	1	1	0	0	0.15729	0.11509	0.097026	0.074293	0.20505	0.19473	0.035657	0.23299	0.14101	0.17602	0.11393	0.23913	0.25304	0.050934	0.32357	0.080238	-3.0375	-4.1188	-2.9146	-4.0167	-3.6958	-3.1875	-4.1833	-3.3563	-3.3937	-4.0667	-3.1229	-3.8146	-3.7042	-3.3021	-4.0417	-3.5521	197.352	68.548	23.634	-80.927	216.262	-31.159	145.434	235.603	-61.387	153.768	223.572	141.878	-24.081	-53.578	-13.733	80.447	3.0374e-05	8.7895e-06	0.00012459	232.18	3.7341e-06	1.7692e-06	355.36	60.664	1.258e-06	3.7569e-06	95.428	27.839	13.681	3.1343	1.4782e-06	6.7224	0.00057831	0.00086135	0.00025871	204.47	9.0457e-06	1.0463e-05	312.08	54.12	9.1448e-06	1.035e-05	84.995	25.063	12.819	2.9416	9.2999e-06	6.1738	58.174	143.500	-27.158	-68.094	240.513	109.810	-69.943	-63.664	-42.061	-0.552	-65.658	-61.013	-58.526	-54.282	191.571	-58.936	-8191	255	
2295.220	1	1	0	0	0.19691	0.14285	0.16374	0.11248	0.29446	0.1133	0.20239	0.088175	0.016916	0.1514	0.17775	0.23088	0.1277	0.13659	0.1533	0.042042	-2.8917	-4.1146	-3.0646	-3.8458	-3.9625	-3.1104	-4.0292	-3.5021	-3.3	-4.0833	-3.3021	-3.7542	-3.9562	-3.2208	-3.9854	-3.7729	136.076	-67.394	264.235	219.678	-21.989	243.775	211.423	167.880	25.110	-4.235	172.283	169.029	-52.182	27.218	213.250	139.751	2.2152e-05	0.00020377	4.6159e-05	230.06	4.1463e-06	2.8632e-06	356.3	60.683	4.3984e-06	3.0124e-06	95.319	27.961	13.767	3.1821	3.1143e-06	6.7894	0.00059003	0.00084428	0.00024327	204.58	9.1915e-06	1.0596e-05	312.8	54.354	8.9998e-06	1.0018e-05	85.375	25.351	12.874	2.9801	9.5371e-06	6.235	242.402	223.660	196.193	-68.944	-50.193	59.456	-69.933	-63.382	-14.506	56.169	-66.032	-61.563	-59.365	-54.109	51.415	-58.740	-8191	255	
2295.316	1	1	0	0	0.24626	0.20252	0.054043	0.15278	0.26456	0.14816	0.028397	0.27784	0.21237	0.1987	0.16238	0.054884	0.14597	0.088379	0.26349	0.093659	-2.8458	-4.0021	-3.3979	-3.4521	-3.9958	-3.4229	-4.0792	-3.6667	-3.3146	-4.1042	-3.3125	-3.6063	-4.0479	-3.1646	-3.8167	-3.7354	266.599	264.393	250.596	252.476	188.415	218.038	159.530	42.371	107.638	256.578	-80.726	31.733	50.856	181.792	63.441	229.900	2.6602e-05	0.00038162	2.89e-05	229.91	2.2091e-06	5.4047e-07	358.83	60.34	2.9082e-06	2.7848e-06	96.515	27.655	13.651	3.1419	1.4123e-06	6.7408	0.00058909	0.00092403	0.00026065	203.98	9.2948e-06	1.0157e-05	314.2	54.231	9.1666e-06	1.0142e-05	85.258	25.165	12.754	2.9374	9.5891e-06	6.1605	23.598	63.923	203.173	-70.074	-11.036	2.713	-70.549	-63.056	202.453	-16.160	-65.316	-61.348	-57.489	-53.986	107.504	-58.813	-8191	255	
2295.435	1	1	0	0	0.13552	0.07314	0.21228	0.28231	0.123	0.16242	0.18219	0.072587	0.12635	0.13511	0.15041	0.074067	0.11689	0.079598	0.23052	0.25464	-2.9583	-4.0271	-3.3771	-3.4375	-4.2333	-3.2833	-3.7896	-4.0292	-3.2146	-3.9813	-3.5896	-3.3292	-4.0458	-3.4521	-3.9688	-3.9896	-65.489	224.861	-79.513	138.693	119.510	84.203	215.242	-32.158	10.138	135.603	206.500	263.969	-64.741	2.556	157.380	210.962	5.1094e-05	0.00015009	7.594e-05	228.8	5.5645e-06	2.1129e-06	356.7	59.928	3.1228e-06	6.7275e-06	94.545	27.831	13.667	3.0515	1.5033e-06	6.7715	0.00057227	0.00093989	0.00024376	203.34	9.2657e-06	1.034e-05	312.78	54.017	9.0712e-06	1.0059e-05	84.542	25.169	12.797	2.9154	9.2318e-06	6.154	252.983	244.718	10.152	-68.535	168.434	256.303	-70.724	-62.610	241.432	60.015	-65.214	-61.936	-58.926	-53.835	-69.999	-58.685	-8191	255	
2295.531	1	1	0	0	0.11473	0.12263	0.013389	0.10832	0.10122	0.10067	0.2707	0.28709	0.20659	0.089035	0.12159	0.1967	0.088942	0.087073	0.037983	0.098239	-2.8333	-4.0104	-3.3833	-3.4938	-4.15	-3.2646	-3.6104	-3.8792	-3.2375	-3.9083	-3.6937	-3.1875	-4.1125	-3.2375	-3.7062	-4.075	150.419	73.883	38.911	-63.742	239.315	249.419	-5.639	152.727	248.992	251.732	113.540	277.837	189.331	-25.869	-2.251	257.976	5.0625e-05	0.00016308	5.2764e-05	229.04	4.5524e-06	2.5986e-06	358.67	61.205	1.8123e-06	2.5599e-06	95.355	27.631	13.667	3.0864	2.6773e-06	6.8228	0.00057719	0.00086824	0.00026061	204.48	9.5764e-06	1.0241e-05	314.37	54.438	9.2569e-06	1.0133e-05	85.338	25.118	12.659	2.9289	9.4324e-06	6.2683	-29.890	219.118	93.625	-68.650	155.395	15.297	-70.273	-63.846	-58.749	50.037	-65.160	-61.911	-58.400	-54.818	79.739	-58.960	-8191	255	
2295.627	1	1	0	0	0.2806	0.11262	0.23374	0.17122	0.14609	0.29815	0.056128	0.16048	0.15717	0.25694	0.24295	0.07148	0.18631	0.08239	0.18008	0.0088724	-2.775	-3.9521	-3.6562	-3.1917	-4.2292	-3.1813	-3.5625	-3.8792	-3.1063	-3.8958	-3.9396	-3.0708	-4.0458	-3.3771	-3.4771	-4.0042	23.928	274.649	258.650	273.663	144.710	-45.029	20.031	151.341	146.780	216.011	-76.856	238.769	242.706	184.897	160.442	227.109	6.0957e-05	8.6594e-05	0.00012083	228.68	2.9993e-06	5.4224e-06	357.01	61.134	1.4817e-06	2.2379e-06	96.922	27.812	13.422	3.0577	4.9127e-06	6.8687	0.00056233	0.00088348	0.00026006	204.02	9.1766e-06	9.9237e-06	313.69	54.79	9.2668e-06	1.0424e-05	85.509	25.519	12.836	2.938	9.4113e-06	6.3071	75.302	160.759	-22.733	-68.904	149.455	257.057	-70.160	-63.791	189.340	-65.206	-65.593	-61.799	-59.196	-54.403	108.587	-58.627	-8191	255	
2295.723	1	1	0	0	0.050362	0.097714	0.06237	0.17165	0.24922	0.17377	0.2057	0.2951	0.056687	0.21576	0.15429	0.24845	0.16764	0.1454	0.189	0.23724	-2.9646	-3.9375	-3.7604	-3.3083	-4.0958	-3.5396	-3.4979	-4.2104	-3.4104	-3.9167	-3.9646	-3.1437	-3.9729	-3.5396	-3.3063	-4.1333	177.601	274.316	-7.990	276.769	256.274	17.144	268.736	198.472	122.586	37.692	98.882	34.168	-12.513	3.365	88.980	194.182	3.9569e-05	0.00010211	5.3391e-05	232.62	6.0584e-07	1.6335e-06	358.54	61.679	2.1958e-06	2.6791e-06	95.551	27.852	13.599	3.1327	2.8146e-06	6.7946	0.00060307	0.00089726	0.00025664	204.76	9.5559e-06	9.8419e-06	314.22	54.919	8.971e-06	1.0069e-05	85.591	25.235	13.001	2.9507	9.6031e-06	6.2515	173.482	56.913	217.742	-68.768	161.302	247.870	-69.783	-63.394	170.662	187.664	-65.810	-61.369	-57.808	-54.721	50.388	-58.923	-8191	255	
2295.819	1	1	0	0	0.24177	0.39404	0.12456	0.35614	0.088053	0.053947	0.16735	0.11411	0.14962	0.16458	0.099076	0.20831	0.16813	0.22437	0.11605	0.10804	-2.95	-3.6479	-3.8958	-3.2562	-3.9833	-3.7521	-3.3937	-4.2104	-3.3292	-3.6979	-4.1271	-3.2438	-3.9604	-3.8104	-3.1188	-4.2604	186.817	53.122	40.115	174.669	249.140	229.547	87.184	152.851	77.931	112.445	227.475	153.716	51.237	144.863	21.229	-39.429	1.0205e-05	0.00033135	8.8416e-05	233.17	3.4986e-06	4.4473e-06	357.79	61.343	4.0005e-06	3.8815e-06	96.465	28.029	13.688	3.1743	2.2728e-06	6.8008	0.00058715	0.00091273	0.00025064	205.83	9.3541e-06	1.0203e-05	313.67	54.805	9.1986e-06	1.0388e-05	85.503	25.326	12.953	2.9611	9.5163e-06	6.2228	209.869	37.885	-16.407	-69.839	265.302	92.292	-70.381	-63.063	90.328	77.710	-65.677	-62.186	-58.478	-54.545	93.677	-59.783	-8191	255	
2295.916	1	1	0	0	0.18419	0.031372	0.16097	0.094161	0.16375	0.19722	0.14218	0.11495	0.14712	0.06129	0.022302	0.21149	0.18447	0.054928	0.17117	0.28921	-3.0708	-3.4917	-3.9688	-3.1854	-3.8083	-3.7	-3.3792	-4.0146	-3.3937	-3.4458	-4.2083	-3.2458	-3.8458	-3.8854	-3.1667	-4.0542	9.736	61.412	269.580	-62.108	241.493	-22.768	246.635	153.661	4.281	239.943	-19.971	103.934	-77.941	73.978	-35.917	212.799	3.7168e-05	0.00050167	7.7525e-05	229.21	1.9499e-06	2.0044e-06	360.3	62.032	2.6663e-07	3.5775e-06	96.188	27.693	13.45	3.1633	5.4225e-06	6.8326	0.00055951	0.00089655	0.00025634	203.88	9.4615e-06	1.0074e-05	314.19	55.113	9.109e-06	1.0635e-05	85.785	25.356	12.833	2.9608	9.9339e-06	6.3283	247.076	75.075	67.925	-68.917	-16.948	42.695	-70.448	-63.833	-33.076	26.444	-65.736	-61.655	-58.385	-55.144	95.006	-60.090	-8191	255	
2296.012	1	1	0	0	0.16146	0.28143	0.17533	0.10635	0.14474	0.10654	0.15837	0.15983	0.14023	0.14141	0.10285	0.14058	0.1077	0.16961	0.093729	0.1559	-3.2667	-3.45	-4.0625	-3.2542	-3.7208	-3.9083	-3.0917	-4.0604	-3.4917	-3.0062	-4.075	-3.2562	-3.5833	-4.0792	-3.3396	-4.0875	216.026	67.926	158.371	135.800	215.617	234.606	-63.735	157.638	149.675	68.823	-46.537	142.628	267.349	-58.367	-60.605	138.152	5.8565e-05	0.00019114	7.602e-05	231.47	1.2327e-06	9.7006e-07	359.34	61.54	3.4447e-06	3.8932e-06	96.725	28.265	13.573	3.1467	4.7075e-06	6.9507	0.00058833	0.000937	0.00025718	204.25	9.3568e-06	1.0309e-05	314.78	54.988	9.3213e-06	1.0496e-05	86.37	25.734	12.949	2.9655	9.6374e-06	6.3569	266.226	-32.789	-0.855	-69.121	204.469	-9.074	-70.545	-62.893	57.758	132.501	-65.390	-61.081	-58.575	-55.863	117.596	-58.257	-8191	255	
2296.108	1	1	0	0	0.27885	0.065358	0.28141	0.22762	0.088672	0.17317	0.0041946	0.35813	0.070474	0.20191	0.31837	0.095596	0.089714	0.16231	0.18814	0.29093	-3.2	-3.1396	-4.0604	-3.3063	-3.5958	-4.125	-3.0667	-3.9042	-3.5687	-3.3375	-4.1521	-3.4729	-3.5438	-4.1354	-3.25	-3.9292	122.245	154.726	-73.455	71.132	262.760	-7.582	130.076	-54.703	230.170	-63.722	202.511	195.164	137.470	276.719	-79.326	194.815	7.8204e-05	0.00023372	8.3417e-05	230.41	1.8013e-06	4.0612e-06	360.8	61.942	1.5117e-06	2.0574e-06	95.774	28.1	13.544	3.1865	1.5506e-06	6.8157	0.00055876	0.00090651	0.00025112	204.71	9.6957e-06	1.0347e-05	315.34	54.944	9.4004e-06	1.0839e-05	85.334	25.49	12.998	2.987	9.3271e-06	6.2646	255.370	-11.098	130.711	-69.008	101.502	28.269	-70.030	-63.731	3.507	21.227	-65.614	-61.172	-58.311	-53.998	56.922	-57.858	-8191	255	
2296.228	1	1	0	0	0.18723	0.26274	0.042186	0.060135	0.1579	0.21759	0.18116	0.10231	0.24298	0.16855	0.13961	0.23106	0.15178	0.28189	0.31985	0.12428	-3.3958	-3.1958	-4.1604	-3.4354	-3.3229	-4.025	-3.1729	-3.8125	-3.7667	-3.125	-4.1104	-3.5375	-3.2313	-4.0813	-3.225	-3.8792	163.651	105.973	-38.374	-56.657	103.860	141.166	25.807	66.855	71.678	163.105	134.869	128.535	77.293	125.778	219.957	226.881	3.8135e-05	0.00010824	0.00019329	229	3.6963e-06	4.0315e-06	358.55	60.808	2.0706e-06	1.6917e-06	96.435	27.822	13.591	3.2029	2.5313e-06	6.7783	0.0005847	0.00093364	0.00025607	204.16	9.7268e-06	1.0275e-05	312.95	54.509	8.9367e-06	1.0425e-05	85.567	25.343	12.804	2.9673	9.5119e-06	6.2664	248.143	187.224	215.240	-69.598	202.587	64.443	-69.606	-62.906	70.594	233.601	-65.057	-61.662	-58.876	-53.990	24.679	-58.825	-8191	255	
2296.323	1	1	0	0	0.042244	0.1355	0.22965	0.27616	0.15309	0.16102	0.11736	0.066682	0.22818	0.13046	0.027889	0.15469	0.13705	0.023712	0.11686	0.16993	-3.3688	-3.2062	-3.9875	-3.4458	-3.3354	-4.1937	-3.1562	-3.7979	-3.9021	-3.1521	-3.9146	-3.6208	-3.3604	-4.0833	-3.2771	-3.4833	82.606	35.266	-71.759	226.539	120.092	-46.313	232.325	-63.210	52.704	6.568	65.167	43.654	276.537	-63.716	74.622	255.728	2.5083e-05	0.00035441	8.6454e-05	227.12	5.743e-06	2.9372e-06	358.69	61.071	2.9639e-06	2.9976e-06	97.415	28.035	13.753	3.1207	3.6472e-06	6.9429	0.00057123	0.0009583	0.00025412	202.35	9.6076e-06	1.0161e-05	313.41	54.723	9.1653e-06	1.0343e-05	86.397	25.524	12.969	2.9601	9.8289e-06	6.3823	164.791	11.560	204.809	-69.330	48.653	-36.697	-70.331	-62.600	126.108	38.038	-66.040	-61.286	-58.037	-54.018	162.507	-59.386	-8191	255	
2296.421	1	1	0	0	0.32544	0.026641	0.14841	0.20276	0.27003	0.22527	0.11106	0.010127	0.093864	0.15958	0.35386	0.042476	0.070452	0.15364	0.13226	0.079848	-3.6583	-3.1854	-4.0375	-3.6208	-3.125	-4.1042	-3.275	-3.4417	-3.8708	-3.1667	-4.0479	-3.7542	-3.275	-4.0917	-3.3229	-3.4479	65.925	75.312	206.186	131.693	-48.220	224.144	88.358	-60.074	-34.164	35.471	269.510	199.183	201.849	92.203	125.623	100.721	3.4858e-05	0.00018125	5.3692e-05	226.48	3.6601e-06	3.1585e-06	361.73	61.773	4.7722e-06	2.201e-06	97.559	28.497	13.621	3.1677	8.3544e-07	7.0898	0.00057882	0.00092003	0.00024845	203.9	9.7659e-06	1.017e-05	315.75	55.131	9.1336e-06	1.0491e-05	86.962	25.759	12.907	2.9823	9.7172e-06	6.4457	268.561	-0.702	81.829	-69.000	142.313	89.948	-70.294	-63.421	235.749	39.989	-65.602	-60.811	-58.133	-54.503	136.714	-59.189	-8191	255	
2296.517	1	1	0	0	0.064087	0.14956	0.10811	0.18279	0.11405	0.17041	0.02587	0.1236	0.025255	0.08603	0.078918	0.096381	0.10217	0.32152	0.05714	0.074162	-3.7667	-3.2396	-3.7854	-3.725	-3.0417	-4.1542	-3.6146	-3.25	-3.9979	-3.1292	-3.8896	-4.0042	-3.2146	-4.1333	-3.5875	-3.3812	59.245	207.170	-62.638	210.240	44.757	247.163	218.008	101.747	47.847	162.560	162.650	258.373	88.239	-31.559	226.155	77.207	5.1699e-05	0.0001036	6.3117e-05	227.3	1.8708e-06	1.8622e-06	359.59	61.806	2.9647e-06	1.6544e-06	96.55	28.381	13.612	3.116	4.6027e-06	6.8858	0.00056755	0.00094104	0.00024963	203.54	9.5377e-06	1.0296e-05	315.13	54.743	9.1506e-06	1.0102e-05	86.247	25.657	12.928	2.9611	9.6863e-06	6.3302	25.297	57.151	183.503	-69.047	-32.093	250.111	-69.616	-63.307	77.856	96.000	-66.498	-61.588	-58.371	-55.510	25.974	-57.924	-8191	255	
2296.611	1	1	0	0	0.11919	0.064676	0.1161	0.056034	0.1391	0.179	0.15566	0.3439	0.2363	0.22923	0.19243	0.10164	0.024459	0.087577	0.1673	0.26832	-3.7125	-3.1792	-3.5438	-3.95	-3.1521	-4.1646	-3.6542	-3.3167	-4.1458	-3.2958	-3.6417	-3.9729	-3.2938	-4.0062	-3.6542	-3.3438	44.609	215.081	224.625	-64.084	102.456	139.809	-41.042	221.906	-58.935	140.698	106.981	148.967	137.378	-45.083	250.445	186.076	2.4732e-05	0.00017248	0.00023519	227.12	1.0042e-06	1.1853e-06	357.19	60.627	4.8644e-06	1.4223e-06	98.491	28.436	13.649	3.0978	4.6632e-06	6.895	0.00057329	0.00093825	0.00025128	203.64	9.2875e-06	9.9715e-06	314.09	54.718	8.93e-06	1.0111e-05	86.714	25.585	12.917	2.9345	9.6464e-06	6.3198	-42.002	-36.929	53.686	-68.482	147.558	17.559	-70.194	-62.904	96.355	55.486	-65.299	-61.767	-58.400	-55.494	67.107	-58.451	-8191	255	
2296.707	1	1	0	0	0.20501	0.24149	0.17574	0.037239	0.087413	0.14969	0.11825	0.17032	0.10347	0.10566	0.18937	0.18931	0.12663	0.065867	0.16012	0.19541	-3.7271	-3.2667	-3.3542	-3.9917	-3.2458	-3.8563	-3.8104	-3.2604	-4	-3.4625	-3.3812	-3.9437	-3.2188	-3.6708	-3.8438	-3.2583	7.617	68.307	8.221	-6.275	-81.102	30.536	-69.221	18.215	172.335	146.913	239.576	-5.667	-31.456	81.457	-8.017	89.651	2.7405e-05	0.00032131	0.00010976	230.88	4.3159e-07	2.0389e-06	358.11	61.124	2.7776e-06	6.7141e-07	96.794	28.426	13.715	3.1393	6.512e-07	7.0369	0.00058152	0.00093345	0.00026824	204.24	9.5529e-06	1.0098e-05	314.01	54.5	8.7952e-06	1.0293e-05	86.454	25.577	12.958	2.9637	9.7923e-06	6.4127	136.554	-64.710	64.448	-68.871	-75.932	-64.469	-70.484	-63.121	153.972	-53.068	-65.148	-61.633	-58.543	-55.350	-51.172	-59.007	-8191	255	
2296.828	1	1	0	0	0.093834	0.37799	0.18009	0.22597	0.12205	0.29264	0.20253	0.10545	0.17627	0.35951	0.16832	0.054636	0.22985	0.12472	0.02898	0.19373	-3.6583	-3.4417	-3.1667	-3.9083	-3.2083	-3.7562	-3.8187	-3.2146	-4.0813	-3.5687	-3.3208	-4.2167	-3.1979	-3.6667	-4.0062	-3.1125	3.810	45.349	-37.762	13.087	258.057	-25.144	58.818	216.415	52.288	108.083	138.461	200.584	97.175	197.136	118.425	258.768	3.0318e-05	0.00016873	3.924e-05	231.32	7.0221e-08	7.9273e-07	362.02	61.185	8.5078e-07	2.7059e-06	96.902	28.381	13.711	3.1586	5.438e-07	7.0522	0.00057831	0.00092935	0.00026701	204.57	9.5519e-06	1.0289e-05	316.72	54.949	9.3526e-06	1.0218e-05	86.431	25.884	13.06	2.9984	9.6253e-06	6.4256	269.184	263.195	33.798	-68.266	234.806	-41.738	-69.678	-62.534	-52.724	3.123	-65.091	-60.169	-58.484	-56.032	5.404	-58.352	-8191	255	
2296.924	1	1	0	0	0.1783	0.16507	0.09664	0.077291	0.22412	0.03351	0.089501	0.18256	0.18133	0.071194	0.10506	0.068306	0.14739	0.098913	0.13309	0.15079	-3.6958	-3.6771	-3.0771	-4.0771	-3.3833	-3.6562	-4.1646	-3.2958	-3.8396	-3.775	-3.2229	-4.0917	-3.3271	-3.3167	-4.0458	-3.1188	-58.707	97.316	-18.783	-74.248	78.783	71.938	-56.785	249.842	63.604	5.343	62.194	-4.765	185.552	179.117	18.524	212.284	5.7162e-05	0.00037642	0.00011033	229.67	2.2417e-06	4.8121e-06	354.22	60.895	1.4162e-06	2.6637e-06	96.937	28.309	13.683	3.213	1.0555e-06	6.8855	0.00059315	0.00091628	0.00025759	204.33	9.4058e-06	1.0669e-05	313.49	54.639	9.3466e-06	1.0194e-05	86.607	25.69	12.983	2.9819	9.4183e-06	6.3206	154.328	41.310	-20.132	-69.159	169.807	168.463	-69.565	-63.109	-60.809	116.262	-66.072	-61.316	-59.084	-55.242	254.488	-58.778	-8191	255	
2297.020	1	1	0	0	0.25235	0.10784	0.21208	0.19212	0.11543	0.12499	0.088576	0.2965	0.1404	0.044664	0.22853	0.18411	0.19168	0.27897	0.14602	0.061411	-3.4917	-3.6854	-3.1729	-4.125	-3.2833	-3.2417	-4.0292	-3.1125	-3.7	-3.9354	-3.0521	-3.95	-3.3792	-3.4792	-3.9437	-3.0917	263.065	109.091	152.373	181.666	244.317	103.467	62.795	128.701	259.785	15.468	55.912	175.079	-41.985	239.075	-26.542	100.759	2.4882e-05	0.00048452	0.00015422	232.05	4.9827e-07	2.9175e-06	359	61.878	1.6137e-06	3.3058e-06	96.791	28.413	13.766	3.097	1.7843e-06	6.9652	0.00058366	0.0009232	0.00026587	204.07	9.1968e-06	1.0085e-05	315.42	54.814	9.0581e-06	1.0297e-05	86.198	25.739	12.935	2.9669	9.2694e-06	6.4048	2.391	-31.994	41.365	-68.367	4.675	-27.002	-70.118	-62.632	231.770	59.870	-65.092	-60.802	-57.954	-54.261	-0.192	-59.177	-8191	255	
2297.092	1	1	0	0	0.25203	0.11039	0.11534	0.20992	0.18495	0.24082	0.091397	0.07217	0.076627	0.1797	0.20444	0.085171	0.11859	0.024795	0.15485	0.14328	-3.3271	-3.9271	-3.0292	-3.8042	-3.3958	-3.3396	-4.0604	-3.2229	-3.5604	-3.9667	-3	-3.9479	-3.7729	-3.1771	-4.1813	-3.3167	108.700	70.555	13.702	265.704	138.391	139.653	204.469	188.700	-9.886	164.578	141.190	144.765	140.240	211.921	18.468	81.283	6.1156e-05	0.00023917	2.3876e-05	233.62	1.8803e-06	2.9102e-06	361.35	62.325	5.3377e-06	2.9178e-06	97.127	28.465	13.695	3.0809	3.0079e-06	7.0449	0.00058437	0.00091977	0.00025909	205.67	9.863e-06	1.0118e-05	314.91	54.854	9.3014e-06	1.02e-05	86.616	25.775	12.922	2.9587	9.3989e-06	6.4173	-52.867	-16.210	150.312	-68.942	133.779	57.461	-69.956	-63.230	23.006	262.581	-65.802	-60.476	-58.092	-53.652	-14.160	-57.959	-8191	255	
2297.213	1	1	0	0	0.27966	0.17812	0.29052	0.13255	0.19635	0.19349	0.15059	0.17783	0.11618	0.4603	0.16602	0.068695	0.07703	0.23148	0.1721	0.30514	-3.1042	-4.0687	-3.1854	-3.8063	-3.6813	-3.2812	-4.2125	-3.275	-3.45	-3.9583	-3.2979	-4.0021	-3.8604	-3.2083	-4.0604	-3.4	91.189	95.798	49.178	76.777	-16.301	-78.101	12.770	223.441	-17.013	220.183	83.536	123.854	199.851	-30.398	254.501	184.219	4.7355e-05	0.00032636	2.0712e-05	230.87	5.0567e-06	3.1e-06	364	61.602	2.082e-06	5.049e-06	98.254	28.435	13.67	3.25	5.8236e-06	7.1262	0.00059119	0.0009175	0.00026264	203.92	9.4843e-06	1.0597e-05	317.72	54.886	9.0629e-06	1.0224e-05	87.097	25.843	13.072	2.9914	9.5364e-06	6.447	-28.523	26.284	-15.078	-68.448	91.187	31.397	-69.452	-63.433	235.899	117.274	-65.673	-61.000	-57.463	-53.587	119.659	-58.288	-8191	255	
2297.309	1	1	0	0	0.14382	0.14762	0.26758	0.16525	0.14234	0.19291	0.055521	0.11301	0.33583	0.18852	0.21341	0.11533	0.37849	0.21806	0.15057	0.20129	-3.1312	-4.0417	-3.2438	-3.6875	-3.7021	-3.0854	-3.9938	-3.3604	-3.0875	-4.1208	-3.0812	-3.5854	-3.9271	-3.1625	-3.9042	-3.7104	204.610	120.500	-60.668	154.175	-44.600	165.715	133.362	-15.801	-12.097	213.552	-79.250	153.799	148.485	110.231	100.095	-49.259	2.3484e-05	0.00025034	3.5929e-05	233.02	3.0846e-06	2.3758e-06	359.39	61.386	4.3429e-06	2.088e-06	97.902	29.068	13.681	3.097	5.6036e-07	6.8294	0.00058652	0.00091058	0.00025376	204.38	9.6261e-06	1.0858e-05	316.87	54.93	9.1753e-06	1.0217e-05	86.606	25.842	12.892	2.9593	9.5146e-06	6.2968	29.821	230.633	61.142	-68.837	-1.233	50.323	-70.350	-63.263	232.653	-22.994	-65.140	-61.440	-58.273	-54.534	20.593	-58.336	-8191	255	
2297.403	1	1	0	0	0.15217	0.27599	0.21863	0.12148	0.1701	0.18532	0.086929	0.081792	0.23753	0.17433	0.18602	0.074256	0.42824	0.16717	0.038382	0.12802	-2.9562	-4.0271	-3.3208	-3.5938	-3.8896	-3.1896	-3.9396	-3.3792	-3.2313	-4.0938	-3.4313	-3.5208	-4.0437	-3.0729	-3.925	-3.9521	141.985	-9.453	-5.817	142.023	-20.619	127.749	56.759	277.762	16.991	35.113	-54.594	34.855	166.104	150.771	-60.134	197.036	3.8047e-05	0.00063755	6.0619e-05	228.96	1.055e-06	3.5085e-06	362.67	61.721	3.0099e-06	2.1388e-06	97.23	28.59	13.758	3.1544	2.9158e-06	6.8328	0.00059491	0.000919	0.00025734	203.82	9.5897e-06	1.0734e-05	317.65	54.798	9.2339e-06	1.0247e-05	86.576	25.809	13.001	2.9646	9.5917e-06	6.3301	-41.393	-72.896	53.199	-68.028	128.285	26.907	-70.382	-62.873	236.520	122.957	-65.208	-60.685	-57.091	-54.153	-11.619	-59.086	-8191	255	
2297.501	1	1	0	0	0.21691	0.17923	0.15727	0.30827	0.17117	0.14241	0.36058	0.023413	0.30223	0.13149	0.20137	0.14916	0.16587	0.15476	0.021861	0.32941	-2.9437	-4.0521	-3.3958	-3.5708	-3.9271	-2.9604	-3.8563	-3.9229	-3.0062	-4.1604	-3.4813	-3.375	-4.0125	-3.0708	-3.75	-3.9021	261.008	-78.726	119.688	-51.044	-40.828	246.739	192.655	45.036	72.110	227.375	174.046	42.008	-24.028	209.175	245.370	202.831	1.4217e-05	9.1691e-05	0.00016596	228.69	1.2663e-06	4.1303e-07	361.92	61.028	6.8095e-07	2.4983e-06	97.364	28.571	13.759	3.1604	3.0739e-06	7.1116	0.00057939	0.00086529	0.00024762	203.71	9.3558e-06	1.0269e-05	316.31	54.459	9.076e-06	1.0268e-05	86.53	25.744	12.939	2.9808	9.2771e-06	6.4554	-66.154	-62.141	-18.643	-68.897	53.490	23.243	-69.359	-62.493	-25.665	-66.849	-66.214	-60.921	-58.278	-55.179	109.440	-58.777	-8191	255	
2297.620	1	1	0	0	0.12173	0.20697	0.32806	0.092545	0.25774	0.17009	0.16231	0.041806	0.23199	0.28949	0.1408	0.19518	0.23492	0.24601	0.23276	0.12574	-2.7854	-4.0375	-3.425	-3.3625	-3.9938	-3.1146	-3.7146	-3.8917	-3.1813	-4.0625	-3.5563	-3.2438	-4.1375	-3.1937	-3.6437	-3.9958	-77.143	23.816	167.850	-4.918	-20.725	65.267	-80.236	161.567	49.182	-29.236	219.951	-65.617	196.426	129.090	-68.584	166.491	2.1149e-05	0.00037396	7.0095e-05	230.32	3.8152e-06	4.5295e-06	358.9	61.639	9.4321e-07	3.3798e-06	98.045	28.727	13.925	3.219	3.3037e-06	6.878	0.00059456	0.00091827	0.00026598	204.13	9.3502e-06	1.0193e-05	316.2	54.855	9.3021e-06	1.0093e-05	87.568	26.113	13.042	3.0003	9.5314e-06	6.391	40.858	117.838	-39.376	-68.746	67.940	101.545	-69.432	-62.588	83.839	184.006	-64.698	-60.283	-58.311	-54.450	135.600	-58.772	-8191	255	
2297.692	1	1	0	0	0.046371	0.083029	0.25022	0.051607	0.11913	0.030948	0.31035	0.096972	0.098627	0.18909	0.038448	0.066198	0.20078	0.15274	0.16424	0.12733	-2.8354	-3.9792	-3.5083	-3.3583	-4.0979	-3.3583	-3.5979	-4.0708	-3.1792	-3.8354	-3.8208	-3.3375	-3.9271	-3.3417	-3.4958	-4.1937	256.286	263.747	137.560	51.992	-21.354	-52.617	-61.961	-67.392	258.538	277.185	-56.613	-34.852	162.474	208.452	93.624	160.194	2.0422e-05	0.00016663	1.1874e-05	231.93	1.8263e-06	6.2449e-07	364.77	60.475	2.2752e-06	2.1754e-06	97.186	28.421	14.029	3.1524	8.6869e-07	6.9223	0.00058805	0.0008945	0.00025338	204.36	9.3846e-06	9.8337e-06	317.07	54.509	9.229e-06	1.0081e-05	86.806	25.816	13.11	2.9614	9.7407e-06	6.3405	230.961	166.454	13.297	-69.137	135.620	-17.452	-69.909	-62.834	60.418	36.517	-65.733	-61.345	-57.725	-55.324	48.852	-58.235	-8191	255	
2297.788	1	1	0	0	0.12767	0.035065	0.23218	0.23919	0.086685	0.17361	0.058923	0.13425	0.20632	0.071714	0.091118	0.15256	0.15349	0.090709	0.25124	0.050692	-2.7417	-3.8563	-3.7833	-3.0396	-4.1479	-3.3271	-3.4146	-3.9813	-3.1917	-3.7792	-3.775	-3.2396	-4.1125	-3.4896	-3.2292	-4.0813	196.201	240.635	216.503	255.001	138.696	266.902	45.586	-80.585	243.093	220.383	-49.634	-51.527	-36.588	-67.388	209.828	-79.459	4.8806e-05	0.00027148	0.00011104	228.8	2.0789e-06	4.7326e-06	363.6	61.549	4.598e-06	9.7917e-08	97.294	28.597	13.997	3.1293	2.9985e-06	6.9303	0.00060393	0.0009363	0.0002604	203.99	9.5277e-06	1.049e-05	315.26	54.723	9.4586e-06	1.0407e-05	87.05	25.731	12.969	2.9579	9.8185e-06	6.3696	168.090	66.496	22.652	-68.657	-75.630	131.812	-69.538	-62.624	96.654	16.346	-64.870	-61.086	-57.584	-54.733	-38.214	-58.156	-8191	255	
2297.908	1	1	0	0	0.1393	0.23732	0.23742	0.058862	0.19657	0.092012	0.25902	0.21102	0.068024	0.1321	0.070984	0.25089	0.16627	0.10993	0.12682	0.042093	-2.8563	-3.6896	-3.875	-3.125	-4.1	-3.7146	-3.3021	-4.1667	-3.225	-3.5979	-3.9167	-3.1854	-3.8854	-3.4896	-3.3125	-3.8708	182.849	-73.765	-36.990	-38.385	259.451	-47.563	-73.702	192.730	32.446	216.592	196.688	273.012	145.469	244.785	-64.446	207.365	4.1882e-05	0.00022376	8.9882e-05	231.76	2.9389e-06	1.6261e-06	360.38	61.146	2.153e-06	1.833e-06	97.457	28.678	13.42	3.1334	2.1721e-06	7.0786	0.00057088	0.00091423	0.00025291	204.51	9.3641e-06	1.0034e-05	316.04	54.595	9.101e-06	1.0146e-05	86.873	25.91	12.888	2.9735	9.362e-06	6.4608	-43.302	-28.272	24.100	-68.219	13.887	136.316	-70.253	-63.661	212.426	269.036	-65.437	-61.015	-58.687	-54.807	192.718	-59.145	-8191	255	
2298.005	1	1	0	0	0.077929	0.10342	0.26362	0.20706	0.20947	0.16871	0.23692	0.19621	0.065625	0.079127	0.090944	0.14839	0.11495	0.033149	0.09205	0.1647	-2.8833	-3.4188	-3.9479	-3.0417	-3.9313	-3.6021	-3.1771	-3.9354	-3.2417	-3.6063	-4.0958	-3.1937	-3.8208	-3.5625	-3.2417	-3.9896	-34.395	163.844	-11.384	233.892	-2.720	108.385	254.923	4.156	-79.799	18.813	131.643	265.117	169.860	6.065	62.540	152.912	2.747e-05	0.00023783	6.0933e-05	231.72	3.1003e-06	1.2451e-06	361.62	61.381	3.1506e-06	3.3492e-06	99.084	28.707	13.799	3.1617	3.7983e-06	7.0243	0.00057051	0.0009298	0.00025023	204.99	9.5158e-06	1.0333e-05	317.63	54.556	9.3193e-06	1.0491e-05	88.041	26.07	12.968	2.9985	9.3982e-06	6.4399	39.678	168.268	-15.021	-69.254	45.775	85.976	-70.025	-63.668	74.534	43.980	-65.221	-61.631	-58.450	-55.128	94.854	-60.206	-8191	255	
2298.101	1	1	0	0	0.21181	0.25342	0.15466	0.022051	0.12798	0.13849	0.24097	0.085877	0.21999	0.22067	0.057109	0.033965	0.064972	0.061214	0.10477	0.22461	-3.0146	-3.2896	-4.0417	-3.2354	-3.7021	-3.9979	-3.1396	-3.9188	-3.3937	-3.1958	-4.0646	-3.1188	-3.725	-3.8812	-3.1104	-4.0271	122.478	-4.915	127.847	229.724	211.935	-62.247	29.911	-51.800	33.485	5.993	-25.873	250.880	277.275	-62.187	261.911	212.804	3.7856e-05	8.4362e-05	1.2392e-05	230.42	2.2385e-06	2.0783e-06	360.72	61.101	6.5346e-07	2.3419e-06	97.183	28.129	13.611	3.2248	3.6576e-06	6.9007	0.00056372	0.00089543	0.00025416	204.33	9.5393e-06	1.0056e-05	316.35	54.867	8.7263e-06	1.0392e-05	86.59	25.698	12.813	3.0027	9.6192e-06	6.3378	-78.681	118.612	251.979	-69.204	102.403	27.123	-69.961	-63.344	-18.144	25.709	-65.576	-62.046	-58.785	-55.040	118.165	-58.312	-8191	255	
2298.221	1	1	0	0	0.060042	0.16895	0.13265	0.21822	0.026371	0.18722	0.068357	0.070812	0.048057	0.066906	0.23715	0.14175	0.1886	0.27033	0.27515	0.099869	-3.175	-3.2833	-4.0417	-3.2521	-3.5375	-3.7458	-3.1021	-4.0333	-3.7083	-3.2229	-4.0521	-3.2458	-3.5812	-3.9208	-3.1937	-3.9208	1.235	-74.964	129.576	18.864	252.971	-44.345	218.792	-10.017	-16.126	0.755	73.288	233.810	28.614	-60.161	108.971	-77.347	1.7077e-05	0.00043559	5.7356e-05	228.53	4.774e-06	2.4998e-07	360.92	60.907	1.4658e-06	1.7063e-06	97.568	28.761	13.925	3.1566	3.4216e-06	7.0004	0.00057192	0.00091561	0.0002509	202.8	9.8716e-06	1.0059e-05	315.78	54.455	9.2649e-06	1.0334e-05	86.872	25.832	12.954	2.955	9.5894e-06	6.4273	254.132	14.168	-34.015	-69.867	169.393	277.144	-69.875	-63.464	75.510	22.672	-65.608	-60.826	-57.690	-55.055	79.263	-58.560	-8191	255	
2298.318	1	1	0	0	0.057864	0.19298	0.20914	0.10819	0.21579	0.084213	0.16375	0.211	0.17594	0.1447	0.099752	0.36689	0.067338	0.18198	0.19331	0.14913	-3.3083	-3.2479	-4.0667	-3.4917	-3.4938	-4.1208	-3.1542	-3.8375	-3.8104	-3.1833	-4.05	-3.35	-3.425	-4.2667	-3.1312	-3.7125	99.553	254.122	-38.114	192.867	58.113	219.646	25.420	117.208	16.029	130.408	41.528	45.155	189.669	97.549	126.565	158.312	5.0645e-05	0.00036809	0.00013178	229.54	2.9808e-06	4.4268e-06	360.62	61.077	6.1691e-07	2.1189e-06	98.029	28.016	13.583	3.1782	6.9908e-07	7.0915	0.00058893	0.00090859	0.00025242	203.44	9.9511e-06	9.7709e-06	316.59	54.564	9.221e-06	1.0583e-05	87.285	25.864	12.839	2.9935	9.6572e-06	6.4435	-7.353	-16.400	-8.528	-69.413	150.750	226.799	-69.749	-63.439	-68.374	-24.483	-65.215	-61.843	-58.348	-55.239	-45.828	-58.843	-8191	255	
2298.389	1	1	0	0	0.16507	0.11288	0.12637	0.12949	0.17783	0.16403	0.20454	0.14427	0.14431	0.31688	0.38095	0.090999	0.083187	0.23498	0.16714	0.1978	-3.4375	-3.0958	-3.9437	-3.4062	-3.1937	-3.9458	-3.3729	-3.5521	-4.0646	-3.0396	-3.8708	-3.5417	-3.2729	-4.0375	-3.2333	-3.6396	242.158	272.188	105.138	228.247	31.670	222.561	90.937	-68.211	-28.869	-71.944	220.978	130.645	-30.573	53.032	-69.862	-58.820	3.4969e-05	0.00034808	4.5146e-05	227.39	2.8694e-06	1.3047e-06	357.94	61.345	3.7695e-06	1.2246e-06	98.315	28.631	14.25	3.1318	2.5643e-06	7.0241	0.0005865	0.00096711	0.00026104	203.7	9.8504e-06	1.0153e-05	316.04	55.054	9.3101e-06	1.0302e-05	87.837	25.969	13.129	2.9678	9.6528e-06	6.4511	230.351	-9.860	109.846	-68.953	101.377	79.221	-70.329	-63.294	48.729	57.543	-66.405	-62.234	-58.829	-54.831	118.018	-58.797	-8191	255	
2298.508	1	1	0	0	0.26765	0.18268	0.098525	0.095093	0.19539	0.19487	0.24345	0.1028	0.078142	0.083278	0.28665	0.11265	0.13036	0.21035	0.094719	0.14796	-3.5875	-3.0542	-3.8396	-3.5458	-3.25	-4.1333	-3.2458	-3.4813	-4.1083	-3.0854	-3.725	-3.8646	-3.0375	-4.0458	-3.3042	-3.4437	149.824	-16.003	134.413	186.876	277.043	-51.609	62.458	256.478	42.929	-43.717	206.362	37.042	36.214	83.308	-41.754	268.519	3.5711e-05	0.00033309	0.0001691	231.53	2.8111e-06	2.0214e-06	357.05	61.149	1.6385e-06	1.1404e-06	98.018	28.998	13.414	3.0923	6.2299e-07	7.0042	0.00057098	0.00093133	0.00024982	204.71	9.3627e-06	1.0098e-05	315.18	54.782	9.1096e-06	1.0259e-05	86.962	25.932	12.805	2.9562	9.7165e-06	6.4081	236.259	-31.559	61.936	-69.537	-7.019	114.210	-70.534	-64.539	-3.588	-43.318	-65.443	-61.798	-59.451	-54.362	130.992	-58.857	-8191	255	
2298.604	1	1	0	0	0.16532	0.15973	0.14166	0.184	0.16026	0.018818	0.02985	0.097943	0.1841	0.16852	0.12814	0.25506	0.086673	0.1668	0.16408	0.069161	-3.5917	-3.0958	-3.6521	-3.7667	-3.1354	-4.0458	-3.4104	-3.3583	-3.9417	-3.1792	-3.7729	-3.7625	-3.0021	-4.1646	-3.4667	-3.3187	-66.517	141.885	276.361	275.638	201.204	-47.812	47.669	197.745	168.447	-79.318	-64.261	28.165	254.602	-67.827	246.213	180.604	8.6756e-06	0.00033357	4.6927e-05	229.64	2.861e-07	2.479e-06	361.27	60.995	2.8945e-06	2.0069e-06	98.659	28.612	13.648	3.1283	3.2029e-06	7.0065	0.00057956	0.00089562	0.00025499	204.23	9.5605e-06	1.0043e-05	315.43	54.36	9.3866e-06	9.9869e-06	87.241	25.801	12.877	2.9604	9.6867e-06	6.4215	271.245	-13.935	-74.229	-69.584	245.510	-12.855	-70.141	-62.912	240.088	263.430	-66.009	-62.316	-59.947	-55.372	183.184	-59.289	-8191	255	
2298.700	1	1	0	0	0.076717	0.19964	0.045919	0.17184	0.096658	0.074807	0.18016	0.084042	0.17246	0.069139	0.053539	0.19379	0.058509	0.10769	0.23892	0.13441	-3.5917	-3.2313	-3.6479	-4.0021	-3.1604	-4.0792	-3.5729	-3.2833	-3.9979	-3.1417	-3.6813	-3.8979	-3.2083	-3.9521	-3.6083	-3.3708	58.673	24.321	98.784	147.517	197.709	25.557	217.649	208.989	77.479	166.204	-46.951	101.344	84.348	261.483	3.202	271.061	1.342e-05	0.00059123	0.00013567	228.47	2.7879e-06	1.0152e-06	360.96	60.946	2.1703e-06	4.2623e-06	97.935	28.937	13.792	3.1977	1.316e-06	7.0802	0.00056657	0.00093777	0.00026806	202.44	9.8033e-06	1.0406e-05	317.5	54.547	9.4567e-06	1.0635e-05	87.315	26.115	12.892	2.997	9.3666e-06	6.5249	-73.937	-57.537	156.392	-69.339	205.652	243.448	-69.852	-63.628	187.506	9.525	-66.638	-62.174	-59.085	-55.223	13.232	-59.816	-8191	255	
2298.797	1	1	0	0	0.083317	0.015719	0.16325	0.032314	0.18268	0.14052	0.19246	0.050952	0.04068	0.21808	0.079852	0.16638	0.13358	0.10782	0.14936	0.081484	-3.7208	-3.1333	-3.4792	-4.0708	-3.1646	-3.8312	-3.8	-3.3167	-4.0875	-3.1458	-3.6396	-4.0583	-3.1625	-3.7583	-3.8729	-3.3396	252.319	93.281	-70.267	107.861	-62.336	132.117	68.526	213.961	257.273	206.207	-42.535	118.299	138.167	159.938	212.603	268.370	2.224e-05	0.00011277	7.6905e-05	229.16	2.1115e-06	4.3357e-06	364.56	61.031	2.2227e-06	3.496e-06	97.447	29.02	13.859	3.1181	2.6591e-06	6.9313	0.0005726	0.00092474	0.00025145	203.57	9.6672e-06	1.0259e-05	319.05	54.824	8.6348e-06	1.0814e-05	87.152	25.979	12.939	2.9803	9.6726e-06	6.4139	24.376	107.101	-6.560	-69.719	182.004	35.874	-71.006	-64.018	255.102	98.415	-65.971	-61.985	-58.609	-55.032	121.428	-60.205	-8191	255	
2298.917	1	1	0	0	0.11027	0.062403	0.22721	0.20799	0.10672	0.060301	0.052659	0.23562	0.20463	0.13633	0.27764	0.051861	0.31303	0.24192	0.06714	0.03771	-3.7938	-3.2562	-3.5479	-4.0729	-3.1229	-3.9208	-3.8063	-3.2313	-4.125	-3.3979	-3.4313	-4.1208	-3.3604	-3.7125	-3.9479	-3.0979	-66.360	210.774	-22.215	251.409	61.258	74.912	196.984	165.510	-37.162	240.323	186.498	184.582	218.402	30.958	198.563	-34.830	3.2465e-05	0.00023452	0.00015813	226.64	1.864e-06	2.7144e-06	360.34	60.399	2.3512e-06	4.0799e-06	97.411	28.83	13.552	3.1426	6.2251e-06	7.0582	0.00058297	0.00094072	0.00024389	202.33	9.2504e-06	1.0103e-05	316.03	54.321	9.0299e-06	1.0281e-05	87.112	25.928	12.854	2.9821	9.424e-06	6.4342	31.960	261.478	269.242	-69.739	141.168	-7.008	-70.843	-64.174	204.606	174.711	-65.626	-61.220	-59.349	-55.863	127.199	-59.115	-8191	255	
2298.989	1	1	0	0	0.079349	0.097909	0.12923	0.13259	0.16217	0.098145	0.12831	0.25816	0.051844	0.18993	0.092967	0.13169	0.20843	0.11499	0.14573	0.18096	-3.6708	-3.6833	-3.2188	-4.0646	-3.3042	-3.6813	-4.0312	-2.9896	-3.8937	-3.675	-3.2792	-3.9958	-3.3833	-3.5208	-3.9062	-3.125	227.903	141.335	-50.863	31.643	-30.036	-52.774	-1.909	123.102	-0.759	83.368	232.261	170.263	203.022	-42.692	-45.490	45.191	4.7679e-05	5.832e-05	6.2816e-05	226.41	1.8951e-06	9.6472e-07	357.55	60.723	3.1605e-06	6.3985e-07	98.824	28.903	13.537	3.1144	3.1094e-06	7.0221	0.00058821	0.00093992	0.00026009	201.91	9.4399e-06	1.0078e-05	315.23	54.328	9.0398e-06	1.0303e-05	87.653	26.002	12.971	2.9502	9.415e-06	6.488	199.257	238.658	-17.389	-70.227	38.110	19.324	-70.975	-63.877	19.007	236.494	-66.318	-61.596	-58.836	-55.452	-40.656	-59.554	-8191	255	
2299.085	1	1	0	0	0.11967	0.11238	0.1023	0.15523	0.26015	0.17326	0.24585	0.37351	0.1724	0.053309	0.32848	0.055873	0.19241	0.096331	0.26033	0.14433	-3.5917	-3.5687	-3.2229	-4.1021	-3.2562	-3.5375	-4.125	-3.2292	-3.8	-3.8458	-3.2917	-4.1062	-3.3729	-3.3167	-3.9646	-3.1771	99.326	151.363	76.492	267.190	137.279	66.324	249.754	34.863	-45.917	178.452	-77.600	17.585	55.612	-50.553	7.050	150.199	2.7332e-05	0.00014705	0.00012426	228.51	2.296e-06	5.0729e-06	360.95	61.049	1.5627e-06	4.267e-07	98.822	29.168	13.901	3.2166	1.6873e-06	7.1047	0.00058727	0.00090504	0.00026211	202.73	9.8852e-06	1.0148e-05	317.05	54.463	8.9252e-06	1.0541e-05	87.953	26.365	13.026	2.9958	9.6055e-06	6.5517	265.537	16.927	151.526	-70.232	191.658	12.545	-70.611	-63.370	128.384	277.609	-66.372	-62.292	-58.843	-55.457	24.101	-58.607	-8191	255	
2299.181	1	1	0	0	0.17013	0.09633	0.071384	0.12483	0.19623	0.091212	0.2392	0.1366	0.15584	0.055853	0.19758	0.091707	0.22127	0.064679	0.091979	0.15367	-3.5375	-3.9437	-3.2292	-3.9646	-3.5521	-3.3063	-3.9167	-3.1208	-3.65	-4.0167	-3.0646	-3.9875	-3.4771	-3.05	-4.0917	-3.2875	230.067	39.392	232.423	229.871	38.823	275.195	205.434	23.512	23.050	-6.045	230.614	274.382	178.083	127.008	-44.381	71.984	5.1729e-05	0.00037223	4.9181e-05	226.39	2.2125e-06	1.1377e-06	361.28	60.781	3.6447e-06	3.0952e-06	97.888	28.876	13.845	3.1682	2.4348e-06	7.0351	0.00056731	0.00091071	0.00025772	202.93	9.5489e-06	1.0351e-05	317.78	54.634	9.1637e-06	1.0287e-05	87.477	26.11	13.055	2.9685	9.5391e-06	6.4767	-37.699	92.190	-18.242	-69.357	22.870	103.180	-70.538	-64.315	91.013	95.032	-66.045	-61.998	-58.429	-55.511	142.247	-59.495	-8191	255	
2299.300	1	1	0	0	0.011474	0.082853	0.18575	0.13667	0.091844	0.14814	0.13001	0.10614	0.20746	0.19059	0.25414	0.25842	0.12713	0.23053	0.22753	0.057759	-3.3063	-3.9667	-3.0375	-3.9042	-3.7354	-3.1729	-3.9813	-3.4125	-3.4875	-4.0312	-3.0875	-3.825	-3.5792	-3.1917	-3.9021	-3.3042	142.876	-82.533	-52.896	61.763	-61.160	212.196	110.046	55.888	-45.150	90.075	-29.474	136.468	108.593	123.951	218.507	162.507	6.2872e-05	0.00040286	6.4338e-05	229.5	6.0264e-06	1.3862e-06	358.11	60.778	1.3436e-06	2.035e-06	100.02	29.354	14.047	3.1028	3.4356e-06	7.1727	0.00057015	0.00093383	0.00026154	203.72	9.4114e-06	9.9712e-06	314.96	54.022	9.2896e-06	9.7518e-06	87.646	26.031	13.007	2.9446	9.5787e-06	6.5021	236.323	271.513	261.177	-68.711	101.327	46.338	-70.403	-64.740	-6.432	39.763	-65.858	-62.031	-59.103	-54.745	29.563	-58.615	-8191	255	
2299.396	1	1	0	0	0.14826	0.087375	0.057152	0.085807	0.2466	0.15066	0.24748	0.14234	0.18882	0.063575	0.096068	0.067267	0.094198	0.33178	0.14034	0.039257	-3.0458	-4.0833	-3.0938	-3.6625	-3.775	-2.9917	-4.0042	-3.325	-3.4083	-4.0292	-3.1583	-3.7854	-3.8479	-3.1625	-3.9854	-3.5354	60.484	148.858	202.178	44.485	109.302	-77.526	235.832	217.744	44.756	78.142	188.045	-69.588	236.077	180.360	190.887	-12.475	4.4801e-05	0.00020713	7.9598e-05	228.23	2.1239e-06	3.6513e-06	361.84	61.141	2.6648e-06	2.9203e-06	98.129	28.935	13.723	3.1278	2.8408e-06	7.1601	0.00055051	0.00090808	0.00025213	202.74	9.4734e-06	1.0067e-05	317.82	54.524	8.945e-06	9.9299e-06	87.407	26.299	12.99	2.9412	9.6226e-06	6.4958	-76.412	246.497	59.952	-69.123	77.572	114.977	-69.967	-63.624	159.502	-41.542	-66.528	-61.745	-58.525	-54.613	-73.243	-59.398	-8191	255	
2299.492	1	1	0	0	0.12708	0.20969	0.12778	0.14502	0.20783	0.12493	0.093091	0.085485	0.16764	0.082867	0.051121	0.11925	0.17137	0.10395	0.17394	0.10946	-3.0187	-4.0479	-3.125	-3.5438	-3.8667	-2.9396	-4.0125	-3.7125	-3.3458	-4.0583	-3.2958	-3.5563	-3.9688	-3.2979	-3.9875	-3.6813	190.127	114.708	-48.551	233.425	180.992	72.862	137.078	217.375	14.531	-10.383	209.539	183.540	151.528	197.654	230.807	-36.537	4.3783e-05	0.00027636	0.00013082	231.42	3.3262e-06	4.0769e-06	358.63	60.253	1.3807e-06	3.8902e-07	98.727	29.257	13.741	3.0726	1.7215e-06	7.1419	0.00057915	0.00090763	0.00026619	203.66	9.5479e-06	1.0303e-05	317.02	54.11	9.4452e-06	1.0137e-05	87.878	26.32	12.841	2.9789	9.8396e-06	6.5633	277.336	70.064	58.013	-69.445	115.978	55.060	-70.375	-63.592	34.263	-30.641	-66.813	-60.950	-59.542	-55.240	41.906	-59.447	-8191	255	
2299.588	1	1	0	0	0.008541	0.091456	0.09617	0.18873	0.14402	0.3363	0.11127	0.13862	0.21523	0.22738	0.10446	0.17442	0.065404	0.12968	0.075515	0.20376	-2.825	-4.1312	-3.2708	-3.3042	-3.8417	-3.15	-3.9313	-3.8604	-3.1437	-4.1083	-3.4375	-3.4021	-4.2021	-3.2021	-3.95	-3.7042	74.488	51.421	99.825	62.410	-7.366	-12.280	-74.173	142.949	198.141	-3.175	130.702	-40.865	99.299	263.431	-15.433	250.081	2.878e-05	0.00016757	8.7528e-05	227.26	2.084e-06	2.5779e-06	360.69	61.033	1.1413e-06	2.4489e-06	98.609	29.163	13.544	3.115	2.1135e-06	7.1109	0.00059405	0.00087967	0.00025435	202.69	9.7344e-06	1.0716e-05	317.53	54.383	9.1541e-06	1.0268e-05	87.555	26.239	12.805	2.9612	9.3646e-06	6.561	84.899	204.049	9.218	-68.945	71.123	31.732	-70.532	-63.887	108.158	230.431	-66.343	-61.692	-59.526	-56.263	-27.766	-58.596	-8191	255	
2299.685	1	1	0	0	0.11007	0.064676	0.074234	0.21431	0.1712	0.2407	0.21352	0.27675	0.11687	0.20141	0.13495	0.24641	0.084786	0.12295	0.22885	0.20689	-2.775	-4.05	-3.6875	-3.3187	-4.1167	-3.1417	-3.7917	-3.8104	-3.1646	-4.1125	-3.5542	-3.25	-4.1854	-3.4062	-3.6375	-3.9396	5.959	84.588	-70.681	232.260	175.467	3.086	224.077	85.932	168.830	206.522	80.650	-35.136	-45.678	56.479	255.280	179.855	4.2159e-05	0.00019331	8.0392e-05	229.4	1.989e-06	8.822e-07	364.56	60.085	3.4774e-06	5.7036e-07	98.646	28.901	13.52	3.168	1.742e-06	7.1287	0.00057774	0.00087154	0.00025394	202.93	9.1232e-06	1.0263e-05	317.02	54.108	9.1858e-06	1.0217e-05	87.601	26.028	12.795	2.963	9.5179e-06	6.5159	124.352	231.300	3.212	-69.762	99.337	32.224	-70.071	-63.947	159.168	20.718	-66.251	-61.376	-58.367	-55.218	220.112	-59.236	-8191	255	
2299.781	1	1	0	0	0.15693	0.10441	0.34385	0.065948	0.13337	0.13683	0.15262	0.18459	0.16617	0.22315	0.14673	0.20825	0.12524	0.0039336	0.23258	0.071522	-2.8812	-4	-3.575	-3.1854	-4.0396	-3.2292	-3.7146	-3.7771	-3.2417	-4.1021	-3.5479	-3.0938	-4.1125	-3.4417	-3.4542	-4.0833	232.125	72.593	187.386	18.212	199.741	237.484	254.746	-32.695	-27.023	63.347	-70.902	57.907	198.225	70.300	109.643	226.673	6.2055e-05	0.0003264	0.00010065	228.43	2.0557e-06	3.0647e-06	360.82	60.683	5.0528e-06	5.7742e-06	98.802	28.9	13.652	3.1538	1.423e-06	6.9732	0.00057945	0.00090757	0.00025364	202.87	9.221e-06	1.0119e-05	316.88	54.115	9.2262e-06	1.0029e-05	87.507	26.087	12.773	2.9947	9.636e-06	6.4926	186.295	78.708	190.212	-69.073	252.536	17.044	-70.241	-64.692	21.837	111.458	-67.017	-61.261	-58.455	-54.998	193.670	-59.444	-8191	255	
2299.901	1	1	0	0	0.072024	0.13049	0.055286	0.15436	0.11575	0.24056	0.18533	0.30869	0.19249	0.17497	0.1316	0.12259	0.066463	0.13145	0.2153	0.17483	-2.6479	-3.9437	-3.7687	-3.1021	-3.9437	-3.525	-3.4917	-4.1271	-3.0625	-3.9125	-3.9604	-3.2146	-4.0062	-3.5542	-3.5021	-4.0062	186.043	196.599	90.286	10.598	108.091	165.489	-62.342	42.645	107.896	122.946	218.011	136.261	157.206	150.767	190.245	191.827	3.4128e-05	0.00015689	3.7329e-05	225.2	1.3974e-06	1.2679e-06	364.03	60.347	4.2079e-06	3.2702e-06	99.82	28.609	13.71	3.1293	1.6391e-06	7.1265	0.00059101	0.00092602	0.00025936	200.59	9.2435e-06	1.0152e-05	317.99	54.186	9.3357e-06	1.0595e-05	88.499	26.221	13.004	2.9614	9.6015e-06	6.5344	14.242	123.317	74.191	-69.424	62.664	216.600	-70.277	-63.951	130.965	132.178	-65.795	-61.623	-59.745	-53.472	261.021	-58.270	-8191	255	
2299.998	1	1	0	0	0.099201	0.1472	0.20994	0.085863	0.1203	0.27473	0.12373	0.07099	0.1457	0.089887	0.25825	0.13525	0.20733	0.26785	0.11327	0.15535	-2.7979	-3.8125	-3.8271	-3.0604	-4.0271	-3.5021	-3.25	-4.175	-3.0875	-3.6063	-3.9729	-3.1333	-3.9854	-3.5708	-3.0833	-4.0854	170.028	207.684	209.403	211.775	255.733	132.283	243.320	45.041	253.115	59.809	61.993	34.577	183.409	183.180	-63.491	-71.821	2.0552e-06	4.3002e-05	5.0592e-05	227.78	3.1798e-06	8.9304e-07	364.96	60.441	1.7887e-06	1.9301e-06	98.437	29.412	13.448	3.0942	3.0119e-06	6.9839	0.00059015	0.00090789	0.00026089	202.04	9.4903e-06	1.015e-05	318.32	54.043	9.2374e-06	1.0202e-05	87.607	26.337	12.878	2.9452	9.6793e-06	6.4494	-37.204	-34.249	68.565	-69.874	203.731	145.486	-70.367	-64.427	15.645	46.970	-66.200	-60.861	-58.334	-55.683	128.824	-57.871	-8191	255	
2300.094	1	1	0	0	0.075495	0.17447	0.077293	0.16662	0.096611	0.26716	0.1895	0.25868	0.15553	0.20192	0.080079	0.14923	0.099475	0.063762	0.25656	0.079373	-2.8479	-3.65	-4.0417	-3.1729	-3.8229	-3.6437	-3.1917	-4.0542	-3.4521	-3.4354	-4.0687	-3.0958	-3.8688	-3.7479	-3.2208	-4.1438	22.141	113.303	274.220	-31.258	257.881	18.359	247.067	172.806	23.533	156.491	87.378	257.665	89.285	230.992	27.650	-75.646	1.7903e-05	0.00011714	6.239e-05	228.65	2.4239e-06	3.019e-06	360.79	60.295	2.0411e-06	3.2938e-06	99.574	28.592	13.683	3.2122	4.4535e-06	6.9976	0.00058348	0.00089642	0.00025296	202.87	9.6573e-06	1.0136e-05	316.92	53.972	9.4423e-06	1.0219e-05	88.115	26.111	12.859	2.9535	9.1224e-06	6.4806	195.906	-9.344	63.690	-69.880	37.712	3.439	-70.060	-63.894	11.513	64.046	-66.312	-62.120	-58.470	-55.728	31.956	-59.471	-8191	255	
2300.190	1	1	0	0	0.1814	0.11617	0.23333	0.21659	0.12261	0.1362	0.068553	0.12208	0.11487	0.21161	0.11667	0.036735	0.11851	0.070959	0.1627	0.070167	-3.1708	-3.3812	-4.0312	-3.3104	-3.8479	-3.8667	-3.2625	-4	-3.5312	-3.475	-4.0083	-3.1771	-3.8979	-3.8187	-3.2438	-4.0729	216.431	110.471	152.266	235.322	19.108	-42.088	147.616	266.732	4.485	181.879	-19.759	-17.829	-35.859	149.061	172.649	210.093	1.8514e-05	0.00014951	0.00010469	227.82	4.1114e-06	1.0548e-06	358.19	60.164	2.369e-06	3.7891e-06	99.09	28.946	13.913	3.13	6.9317e-07	7.2827	0.00059089	0.00090293	0.00024685	202.55	9.7662e-06	9.5613e-06	315.93	54.2	9.1458e-06	1.0161e-05	87.969	26.347	12.982	2.9515	9.7447e-06	6.6193	203.849	-14.303	56.333	-70.059	-28.917	-43.207	-69.720	-63.374	104.553	115.997	-65.862	-61.576	-58.679	-56.586	176.556	-59.447	-8191	255	
2300.286	1	1	0	0	0.23774	0.25538	0.11762	0.31329	0.093775	0.10746	0.05615	0.11395	0.067287	0.1003	0.13765	0.05729	0.12384	0.18073	0.02704	0.15887	-3.0042	-3.3104	-4.0521	-3.3271	-3.5687	-4.1333	-3.2083	-4.0354	-3.7458	-3.2583	-4.1792	-3.3083	-3.6479	-3.9125	-3.1708	-3.8292	172.275	168.651	240.005	175.758	252.256	-50.837	187.061	238.131	259.873	139.663	195.437	60.544	70.898	7.131	174.070	126.131	4.9874e-05	0.00013497	5.5619e-05	226.36	4.118e-06	7.0535e-06	359.3	60.808	5.5087e-06	5.7201e-06	98.238	29.227	14.003	3.1673	1.6032e-06	7.226	0.0005746	0.00086715	0.00025612	201.76	9.4747e-06	9.9212e-06	317.71	54.271	9.4471e-06	1.0219e-05	87.981	26.407	12.912	2.9547	9.6434e-06	6.592	220.568	-11.064	-8.946	-69.512	47.902	65.772	-70.481	-63.722	142.503	99.317	-65.753	-61.485	-58.534	-55.260	96.452	-59.085	-8191	255	
2300.382	1	1	0	0	0.014153	0.24903	0.13928	0.21675	0.15341	0.24468	0.10271	0.11317	0.26237	0.10996	0.079131	0.057656	0.21881	0.036286	0.1281	0.19659	-3.3312	-3.2458	-4.0208	-3.2875	-3.4833	-4.0604	-3.3542	-3.8604	-3.7375	-3.1771	-4.1958	-3.4021	-3.3229	-4.0917	-3.1875	-3.8021	125.402	-2.080	-28.867	164.986	130.833	-47.559	-17.762	264.412	170.245	77.981	202.343	92.026	-8.821	-47.929	-8.828	-63.215	3.148e-05	9.6828e-05	4.1104e-05	226.55	2.0932e-06	8.6786e-07	361.12	60.864	1.4396e-06	2.7572e-06	99.264	29.123	13.567	3.1226	3.8455e-06	7.0645	0.00058497	0.00089787	0.00025667	201.98	9.5913e-06	1.0224e-05	317.59	54.27	9.1394e-06	1.0011e-05	88.155	26.302	12.805	2.941	9.5163e-06	6.5023	263.429	68.241	17.837	-70.108	13.567	-54.911	-69.926	-63.729	-23.453	12.163	-66.881	-61.605	-58.258	-56.132	44.040	-59.569	-8191	255	
2300.477	1	1	0	0	0.126	0.26408	0.16559	0.13279	0.43867	0.35786	0.11495	0.19212	0.10523	0.15322	0.18667	0.17979	0.14798	0.026641	0.12001	0.47307	-3.6896	-3.0687	-4	-3.4479	-3.2229	-4.0667	-3.2417	-3.7729	-4.1312	-3.4125	-4.175	-3.65	-3.2167	-3.9938	-3.2062	-3.6562	217.776	-77.561	158.699	215.929	218.715	117.407	85.114	159.504	-33.910	-71.888	99.776	105.379	-34.677	151.237	-36.542	35.529	2.9216e-05	0.00013036	5.7936e-05	227.58	2.9642e-06	4.4779e-06	362.04	60.592	4.0401e-06	2.5132e-06	99.329	29.006	13.994	3.0483	2.0872e-06	7.1077	0.00056657	0.00088947	0.00024866	201.99	9.6311e-06	9.8923e-06	317.26	54.087	9.4372e-06	9.9187e-06	88.03	26.188	13.022	2.9125	9.5293e-06	6.5343	249.707	-13.290	-68.207	-69.591	7.680	81.620	-70.486	-63.912	140.888	60.292	-65.976	-62.080	-59.006	-56.443	38.914	-59.682	-8191	255	
2300.573	1	1	0	0	0.076471	0.057363	0.21277	0.11493	0.24606	0.13821	0.02812	0.14869	0.054807	0.27891	0.18165	0.22746	0.055826	0.24824	0.1683	0.043688	-3.7292	-3.1146	-3.9354	-3.5896	-3.2375	-4.1542	-3.3125	-3.5375	-3.9479	-2.9813	-4.0979	-3.6937	-3.1896	-3.8792	-3.2271	-3.4208	65.543	228.949	-29.478	-9.536	92.111	60.185	-34.244	34.655	185.838	174.112	49.375	140.772	160.048	131.030	207.328	22.154	6.5003e-05	0.00030848	0.00010839	226.61	4.7301e-06	1.3902e-06	359.85	60.169	2.822e-06	1.0796e-06	99.037	29.124	13.753	3.2035	3.9528e-06	7.1248	0.00059176	0.00091647	0.00025582	202.03	9.7967e-06	1.0229e-05	317.25	53.95	9.4311e-06	1.0175e-05	88.139	26.318	12.931	2.9647	9.7296e-06	6.56	264.818	15.018	163.718	-69.272	52.758	-8.526	-70.680	-63.711	231.582	6.039	-66.110	-61.982	-57.921	-55.395	252.818	-59.527	-8191	255	
2300.693	1	1	0	0	0.21699	0.18855	0.11625	0.14451	0.12882	0.042952	0.17044	0.13188	0.13806	0.24523	0.20465	0.18494	0.080106	0.14503	0.069969	0.055088	-3.5521	-3.2667	-3.7458	-3.7188	-3.1	-4.0042	-3.4167	-3.4375	-4.0021	-3.1896	-3.8563	-3.9562	-3.1833	-4.0417	-3.6333	-3.3542	267.371	198.187	56.112	117.377	-70.455	-35.108	114.365	202.344	78.124	182.222	118.219	-15.243	187.494	162.699	-29.033	72.880	1.3554e-05	0.00016921	7.3359e-05	228.36	2.7067e-06	2.9895e-06	362.27	60.031	2.0595e-06	3.0227e-06	99.012	29.178	13.892	3.1871	4.6446e-06	7.3369	0.00057372	0.00093262	0.00025389	201.84	9.2816e-06	9.9955e-06	318.46	53.741	9.0376e-06	1.0441e-05	88.509	26.508	12.98	2.9574	9.6394e-06	6.6535	235.631	28.228	11.828	-69.657	108.868	255.085	-70.531	-63.352	61.766	245.424	-66.675	-61.016	-58.987	-54.190	113.479	-59.388	-8191	255	
2300.789	1	1	0	0	0.2986	0.31586	0.16603	0.11869	0.21104	0.09003	0.083196	0.13712	0.14374	0.11733	0.11777	0.12639	0.076392	0.24908	0.051881	0.15924	-3.7396	-3.0604	-3.875	-3.9083	-3.1083	-4.0375	-3.6375	-3.2167	-4.125	-3.2021	-3.6146	-3.9521	-3.275	-3.9542	-3.6625	-3.3438	64.278	14.519	173.605	183.755	96.609	-38.681	91.854	148.825	42.121	72.763	-81.238	201.494	-23.227	-65.532	197.028	232.862	3.5033e-05	0.00031845	7.6173e-05	227.06	3.1138e-06	6.0036e-06	363.01	59.724	2.7546e-06	3.1336e-06	98.262	28.654	13.653	3.1194	3.0407e-06	7.1679	0.00055878	0.00090658	0.0002485	202.32	9.8497e-06	9.9558e-06	318.11	53.687	8.7971e-06	1.0288e-05	87.839	26.088	12.863	2.9196	9.417e-06	6.5239	9.374	62.856	272.641	-69.340	-5.590	110.217	-69.883	-63.397	50.939	-58.961	-65.764	-61.375	-59.689	-54.556	70.794	-59.397	-8191	255	
2300.861	1	1	0	0	0.11907	0.22958	0.047037	0.10806	0.12807	0.098445	0.087432	0.021833	0.16194	0.082752	0.099093	0.15468	0.11905	0.12747	0.047333	0.13969	-3.8229	-3.2062	-3.5292	-3.9083	-2.9646	-3.8063	-3.6146	-3.1125	-4.1333	-3.2271	-3.4313	-3.9521	-3.2479	-3.8604	-3.55	-3.1583	225.227	197.369	134.880	84.295	189.629	179.327	128.276	30.655	195.590	46.744	61.365	136.988	250.270	166.366	169.359	-22.781	6.0054e-05	6.1588e-05	5.3511e-05	225.47	6.0041e-07	1.4911e-06	360.05	60.499	2.9003e-06	7.8673e-07	98.735	28.56	13.324	3.0935	1.4518e-07	7.1629	0.00056118	0.00089831	0.00025489	200.87	9.2335e-06	1.021e-05	316.32	53.865	9.0923e-06	1.0044e-05	87.691	26.016	12.802	2.9134	9.5797e-06	6.5496	268.450	12.433	-67.280	-69.664	0.325	201.116	-70.074	-63.560	-51.146	-45.908	-64.889	-62.178	-59.516	-56.017	-34.985	-59.464	-8191	255	
2300.982	1	1	0	0	0.27274	0.18953	0.081741	0.15428	0.23932	0.06977	0.054457	0.14021	0.12021	0.084539	0.21564	0.13278	0.11413	0.10562	0.1154	0.17664	-3.6979	-3.3063	-3.1292	-3.9833	-3.0646	-3.8104	-3.7958	-3.1646	-4.0938	-3.575	-3.3146	-4.1229	-3.1104	-3.6292	-3.8292	-3.1104	257.201	-3.804	238.074	97.172	-18.783	248.216	95.877	162.464	71.019	19.120	187.262	44.031	147.421	13.881	43.593	151.430	5.3241e-05	0.00021677	7.7518e-05	226.38	3.131e-06	3.3425e-06	361	60.13	2.0685e-06	2.4585e-06	99.146	29.172	13.35	3.106	5.0315e-06	7.0962	0.00058999	0.00089277	0.00026389	201.2	9.4061e-06	9.6405e-06	315.81	53.911	8.9204e-06	1.0151e-05	88.455	26.411	12.772	2.9217	9.3479e-06	6.5517	222.610	66.384	-24.336	-69.229	93.130	-37.889	-70.567	-63.759	93.363	258.148	-65.489	-62.748	-58.309	-54.751	104.945	-59.679	-8191	255	
2301.078	1	1	0	0	0.044606	0.12321	0.121	0.098444	0.34665	0.1098	0.10744	0.18351	0.15068	0.097815	0.085696	0.063266	0.041504	0.13794	0.16025	0.051591	-3.65	-3.3896	-3.2	-4.1271	-3.0563	-3.575	-3.95	-3.1708	-4.0521	-3.4875	-3.2167	-4.0354	-3.3812	-3.4146	-4.1875	-3.1188	245.730	240.051	192.880	2.062	274.339	-16.078	173.416	-56.922	88.674	-55.106	266.788	-80.934	-6.157	176.706	-79.976	257.115	1.6199e-05	0.00021542	6.229e-05	227.07	3.6548e-06	2.7137e-06	362.18	60.181	4.1386e-06	1.7256e-06	100.52	29.356	13.665	3.0264	3.874e-06	7.1738	0.00056357	0.00088963	0.00024758	201.62	9.6612e-06	9.8326e-06	318.37	53.778	9.0632e-06	1.0147e-05	88.663	26.557	12.849	2.9203	9.262e-06	6.5943	214.264	44.183	1.111	-69.045	192.872	24.227	-71.114	-64.216	124.811	266.930	-66.555	-62.203	-58.694	-53.657	127.737	-60.159	-8191	255	
2301.174	1	1	0	0	0.27498	0.018277	0.1084	0.13701	0.093481	0.10683	0.092264	0.12824	0.060301	0.060949	0.33855	0.11631	0.1635	0.14182	0.065632	0.14379	-3.6021	-3.7125	-3.0604	-4.0625	-3.2938	-3.3646	-4.1104	-3.1312	-3.8854	-3.65	-3.2354	-4.0437	-3.5312	-3.4083	-4.0208	-3.025	72.166	188.627	93.130	219.014	203.573	81.168	264.191	208.819	176.355	84.350	268.907	-19.473	98.999	53.594	132.282	-15.639	4.6258e-05	0.00019583	6.3999e-05	225.13	2.0357e-06	4.8174e-06	363.69	59.639	1.8184e-06	3.3339e-06	99.639	28.991	13.638	3.1004	6.6373e-06	7.1651	0.00054436	0.00089255	0.00026034	200.29	9.4923e-06	9.9512e-06	317.41	53.427	8.9915e-06	1.0056e-05	88.31	26.297	12.739	2.92	9.6478e-06	6.5016	-54.000	267.668	254.366	-69.484	171.210	157.987	-69.949	-63.641	145.029	29.348	-65.653	-62.513	-60.625	-55.711	130.117	-59.082	-8191	255	
2301.270	1	1	0	0	0.026867	0.1106	0.12969	0.12004	0.093658	0.17015	0.12534	0.12269	0.047685	0.17243	0.10052	0.049499	0.10311	0.067588	0.16956	0.14361	-3.4313	-3.7687	-3.0604	-3.9583	-3.4313	-3.2646	-4.1104	-3.0646	-3.6604	-3.8083	-3.0354	-4.2208	-3.5583	-3.2896	-4.0437	-3.1958	107.984	150.787	57.707	36.906	-8.958	121.759	-15.862	-14.722	119.637	179.145	16.006	148.634	21.758	217.887	15.572	200.554	5.4898e-05	0.00033617	2.3328e-05	226.01	2.5576e-07	3.3235e-06	361.63	60.287	3.318e-06	3.146e-06	99.144	28.776	13	3.0989	2.2078e-06	7.1898	0.00057084	0.0008569	0.00025387	201.41	9.2236e-06	9.8823e-06	316.56	53.815	9.3504e-06	9.9429e-06	87.931	26.262	12.596	2.9149	9.2237e-06	6.5643	-51.961	-34.486	120.776	-69.876	-40.917	89.044	-70.581	-64.111	-10.191	226.187	-66.237	-61.461	-59.295	-54.768	35.769	-59.181	-8191	255	
2301.389	1	1	0	0	0.21574	0.29547	0.28647	0.032529	0.12563	0.20178	0.12678	0.065868	0.11018	0.074532	0.034813	0.093338	0.16639	0.33917	0.1466	0.02125	-3.3354	-4.0125	-3.0229	-3.9521	-3.6083	-3.1583	-4.1604	-3.1625	-3.5563	-3.9688	-3.1792	-3.9208	-3.7167	-3.3937	-3.975	-3.2	144.507	225.058	-4.191	-33.606	153.019	13.272	-11.294	91.609	77.824	260.371	92.107	102.444	36.445	-39.769	31.941	-15.209	4.072e-05	0.00023913	5.6554e-05	225.67	3.7354e-06	3.853e-06	361.03	59.452	1.9178e-06	2.8464e-06	97.596	29.22	13.689	3.1467	1.1582e-06	7.2168	0.00055786	0.00090417	0.00025059	200.71	9.3909e-06	9.8812e-06	317.07	53.555	9.1195e-06	9.6526e-06	87.962	26.383	12.822	2.9275	9.3626e-06	6.5605	-79.896	-40.590	93.906	-69.322	69.725	-12.121	-70.491	-64.584	134.182	126.050	-66.445	-61.256	-58.717	-55.718	77.624	-59.590	-8191	255	
2301.485	1	1	0	0	0.14595	0.097341	0.24298	0.19325	0.096439	0.09492	0.071889	0.19426	0.19369	0.12743	0.23918	0.10577	0.26755	0.019957	0.1442	0.23839	-3.2083	-4.0667	-3.0979	-3.7417	-3.7812	-3.2271	-4.0333	-3.4771	-3.3396	-4.0958	-3.3583	-3.8271	-3.8667	-3.1479	-3.9208	-3.5229	-7.949	82.378	246.722	-24.124	77.203	153.604	253.145	-24.271	244.605	227.350	41.830	184.164	21.640	-49.455	119.883	-30.520	2.7028e-05	8.4702e-05	0.00010367	225.41	4.5829e-07	5.0292e-06	365.63	60.038	4.1777e-06	5.1657e-06	99.759	29.484	13.621	3.1296	2.27e-06	7.2752	0.00059184	0.00090661	0.0002535	200.8	9.4373e-06	9.8969e-06	319.37	53.643	9.1237e-06	9.8329e-06	88.303	26.583	12.845	2.9388	9.2724e-06	6.6288	-59.235	259.925	217.424	-69.130	139.051	150.507	-70.101	-63.888	149.862	32.109	-65.629	-61.516	-58.094	-54.857	7.074	-59.108	-8191	255	
2301.581	1	1	0	0	0.21502	0.19876	0.23144	0.093727	0.14128	0.056418	0.24736	0.19996	0.28989	0.08604	0.075874	0.086113	0.13085	0.081816	0.18887	0.15204	-2.9396	-4.0167	-3.1583	-3.9313	-3.975	-3.25	-4.0625	-3.4958	-3.3479	-4.1208	-3.4625	-3.6646	-4.0958	-3.1521	-3.8271	-3.6708	182.789	-79.166	86.946	23.327	240.805	-52.737	-45.229	57.239	-44.168	251.967	87.571	-43.206	-76.552	108.862	-27.890	228.662	3.5075e-05	0.00051807	5.0189e-05	229.23	3.0974e-06	4.5353e-06	362.79	59.96	8.0392e-07	1.0551e-06	99.1	29.192	13.476	3.0645	7.8482e-06	7.0143	0.00055963	0.00089316	0.00024828	201.72	9.2077e-06	1.0308e-05	318.51	53.365	8.9527e-06	9.7009e-06	87.757	26.373	12.735	2.9086	9.0577e-06	6.5161	122.191	99.795	-58.342	-69.419	137.607	73.651	-70.521	-63.596	222.072	-38.311	-66.364	-61.832	-58.934	-55.625	97.726	-59.043	-8191	255	
2301.678	1	1	0	0	0.12636	0.016722	0.075643	0.18546	0.13188	0.09454	0.1342	0.23748	0.16828	0.017838	0.17779	0.21345	0.12588	0.14454	0.071007	0.14846	-2.95	-4.1542	-3.4104	-3.5	-3.8937	-3.1708	-4.1125	-3.6792	-3.0667	-4.175	-3.3646	-3.4083	-4.0083	-3.1562	-3.7708	-3.8688	31.088	5.710	-38.491	98.615	202.800	237.743	229.166	140.384	210.126	53.410	222.373	11.293	68.162	-6.138	99.859	215.710	2.4984e-05	0.00024123	6.345e-05	225.45	4.8995e-06	1.7348e-06	360.49	59.182	3.6999e-06	6.7537e-06	98.896	28.96	13.276	3.1427	1.6777e-06	7.1365	0.0005479	0.00087359	0.00025223	199.67	8.9519e-06	1.0074e-05	317.04	53.322	9.1685e-06	1.0071e-05	88.156	26.298	12.645	2.9178	9.5344e-06	6.5182	-80.895	-22.381	-1.166	-69.195	225.384	115.073	-70.697	-63.992	276.112	53.632	-66.390	-61.394	-59.185	-54.901	61.933	-59.063	-8191	255	
2301.774	1	1	0	0	0.12767	0.214	0.1177	0.091518	0.2566	0.12418	0.18594	0.10185	0.13896	0.21689	0.063275	0.14224	0.18375	0.10038	0.16315	0.13489	-2.7562	-4.0854	-3.3896	-3.3583	-4.0771	-3.2958	-3.8417	-3.8187	-3.1562	-3.8896	-3.5292	-3.5792	-4.1062	-3.1813	-3.6813	-4.0104	13.806	20.234	-78.811	125.377	99.185	275.767	250.249	18.144	97.248	129.578	-62.972	-32.516	227.780	272.750	-61.581	152.197	3.0237e-05	0.00024797	0.00017409	224.34	3.2185e-06	5.5976e-06	360.28	59.39	1.5873e-06	1.3383e-06	99.628	29.06	13.606	3.0485	2.8797e-06	7.3109	0.00057174	0.00088188	0.00025139	200.58	9.2713e-06	9.7698e-06	317.33	53.2	8.7238e-06	1.0105e-05	88.003	26.459	12.773	2.911	9.5944e-06	6.6398	226.976	-54.065	64.940	-69.407	54.679	44.136	-70.072	-64.236	246.764	136.065	-66.082	-62.363	-57.919	-54.932	67.077	-58.635	-8191	255	
2301.870	1	1	0	0	0.1881	0.14116	0.19535	0.096413	0.20045	0.045601	0.16679	0.19947	0.1042	0.085427	0.088919	0.15455	0.20768	0.23933	0.09539	0.13402	-2.8771	-3.8792	-3.5479	-3.3229	-4.025	-3.2854	-3.6292	-3.9708	-3.2062	-4.0604	-3.6437	-3.35	-4.0146	-3.3958	-3.4979	-4.0771	269.823	176.694	5.430	55.202	-72.842	-2.869	161.121	-74.153	130.311	27.487	259.510	180.255	218.146	111.033	-40.607	-4.152	5.8987e-05	0.00025518	9.5128e-05	225.07	4.8957e-06	1.4887e-06	361.64	60.028	1.6752e-06	4.2183e-07	100.1	29.668	13.231	3.0494	1.8525e-06	7.2026	0.00055641	0.00088384	0.00025351	199.74	9.4148e-06	1.032e-05	318.68	53.302	9.1576e-06	9.5859e-06	88.793	26.703	12.633	2.877	9.4103e-06	6.6268	230.613	173.258	-34.178	-69.241	68.435	222.074	-69.853	-63.579	-70.946	44.727	-65.734	-61.558	-58.430	-55.258	-51.531	-58.580	-8191	255	
2301.990	1	1	0	0	0.10534	0.10816	0.20843	0.28031	0.050781	0.16238	0.17953	0.21235	0.095325	0.24927	0.078623	0.2043	0.039435	0.038296	0.14236	0.12371	-2.8563	-3.6917	-3.9188	-3.1312	-4.1396	-3.2896	-3.3312	-4.1375	-3.0333	-3.9979	-3.6833	-3.2604	-3.9437	-3.3917	-3.3854	-4.1875	245.969	166.661	186.004	251.765	193.331	128.396	215.435	188.134	-15.217	-69.832	-6.600	237.518	213.601	269.352	-32.761	219.179	4.7573e-05	0.00026178	5.9443e-05	225.29	1.5222e-06	8.5222e-07	359.96	59.623	1.5987e-07	3.526e-06	99.235	29.092	13.391	3.0706	2.5883e-06	7.1462	0.0005581	0.00090856	0.00024184	200.15	9.3525e-06	1.0064e-05	317.42	53.455	9.0459e-06	9.8657e-06	88.175	26.398	12.607	2.8742	9.1305e-06	6.5504	-57.510	-48.139	131.906	-69.002	-32.679	-37.709	-70.353	-63.650	203.813	100.686	-66.081	-60.400	-59.479	-54.623	210.844	-58.984	-8191	255	
2302.087	1	1	0	0	0.22094	0.1062	0.05817	0.17242	0.22173	0.21123	0.31873	0.14063	0.045822	0.14093	0.1888	0.13774	0.075155	0.17861	0.10796	0.14605	-2.9583	-3.6979	-3.7625	-3.2667	-4.0479	-3.4625	-3.3042	-4.125	-3.2938	-3.7229	-3.8271	-3.175	-4.0146	-3.4708	-3.2854	-4.1333	225.710	-54.922	185.018	192.615	-72.323	-22.977	-34.426	136.810	73.044	78.608	200.529	18.251	152.340	79.119	-21.385	-7.650	2.8489e-05	0.00026922	7.4861e-05	220.65	1.8604e-06	1.5693e-06	361.06	59.316	2.3659e-06	1.6039e-06	97.053	29.392	13.433	3.1546	2.4576e-06	7.1888	0.00055784	0.00089671	0.00023943	198.76	9.0553e-06	9.7905e-06	316.6	53.268	9.0039e-06	1.0022e-05	87.477	26.241	12.592	2.8975	9.2623e-06	6.5705	243.857	-25.125	61.773	-69.002	262.197	-23.406	-69.867	-63.503	164.510	-32.544	-66.234	-61.129	-59.175	-56.324	-13.212	-59.338	-8191	255	
2302.158	1	1	0	0	0.30259	0.20017	0.18738	0.17408	0.10845	0.045357	0.073106	0.19624	0.10354	0.043358	0.049735	0.1514	0.037497	0.3253	0.058618	0.13986	-2.7062	-3.4938	-3.9083	-3.1688	-3.9292	-3.5375	-3.4083	-4.1104	-3.2938	-3.5708	-4.1417	-3.1688	-3.7917	-3.7271	-3.0687	-4.05	242.178	137.721	-68.579	223.879	36.349	80.781	245.521	-54.397	22.419	114.758	59.829	-16.855	-14.315	151.142	225.630	91.405	2.0172e-05	0.0001145	0.000108	220.69	4.6523e-06	1.4071e-06	359.04	59.682	3.1889e-06	9.8038e-07	98.653	29.012	13.436	3.1045	4.8755e-06	7.2841	0.00057153	0.00087125	0.00023593	198.2	9.1961e-06	9.8708e-06	316.54	53.154	8.9479e-06	1.0328e-05	88.077	26.469	12.708	2.889	9.1915e-06	6.5895	-12.797	122.992	95.981	-69.500	74.245	150.328	-70.433	-63.851	82.413	-54.701	-65.954	-61.661	-58.304	-54.442	54.894	-58.845	-8191	255	
2302.279	1	1	0	0	0.20543	0.1803	0.0819	0.046228	0.12642	0.12215	0.096556	0.23674	0.13769	0.13897	0.29279	0.12677	0.11894	0.16028	0.083082	0.034505	-3.0333	-3.3229	-3.9958	-3.0312	-3.8521	-3.8146	-3.3042	-4.1479	-3.525	-3.3187	-4.1667	-3.0354	-3.5708	-3.8063	-2.9146	-4.2063	259.479	229.284	103.085	240.054	226.988	-38.191	125.146	-26.975	62.821	175.973	68.779	123.481	125.016	-36.289	87.171	190.214	3.1482e-05	4.9858e-05	1.5311e-05	227.22	5.1854e-06	2.27e-06	363.31	59.873	1.0868e-06	3.6268e-06	100.19	29.559	13.632	3.0716	2.0613e-06	7.1811	0.0005749	0.00087561	0.00025065	200.91	9.2799e-06	9.6873e-06	319.14	53.379	8.9165e-06	9.5188e-06	88.831	26.69	12.716	2.8922	9.5478e-06	6.6528	-38.227	44.916	206.022	-70.246	143.488	22.765	-70.580	-63.224	276.335	71.332	-66.699	-61.777	-59.443	-55.146	114.938	-58.839	-8191	255	
2302.373	1	1	0	0	0.11118	0.16712	0.19649	0.067044	0.044439	0.13184	0.16122	0.19154	0.052607	0.11442	0.16794	0.28556	0.35352	0.24813	0.35675	0.23548	-3.2667	-3.3479	-3.9229	-3.1979	-3.7375	-3.9292	-3.1125	-3.8187	-3.5104	-3.2229	-4.1562	-3.2125	-3.5604	-3.85	-3.2667	-3.9104	4.120	49.031	-4.583	227.127	10.380	171.148	218.394	-69.225	0.114	-42.275	108.528	73.624	143.302	-32.364	88.593	255.509	7.8243e-05	0.00024372	8.1739e-05	223.71	5.0575e-06	4.8887e-06	361.62	59.074	1.8501e-06	7.9824e-07	100.23	29.114	13.518	3.1096	1.7659e-06	7.2419	0.00058374	0.00088698	0.00024916	199.42	9.0202e-06	9.6288e-06	316.61	52.95	8.644e-06	1.0119e-05	88.706	26.484	12.657	2.8722	9.2845e-06	6.6107	-42.684	215.046	22.592	-69.560	275.350	11.308	-70.394	-63.002	75.896	13.924	-66.113	-61.801	-58.723	-55.981	-34.273	-59.550	-8191	255	
#DATA ENDS
