BOXY.EXE: ISS Imagent and Oximeter Data Acquisition Program Version 0.80
Ascii Record File

#ACQ INFORMATION
2  Detector Channels 
16  External MUX Channels 
1  Auxiliary Channels 
5000  Waveform (CCF) Frequency (Hz)
1  Waveforms Skipped 
30  Waveforms Averaged 
1  Cycles Averaged 
16  Acquisitions per Waveform 
10.0806  Updata Rate (Hz) 

#FILE INFORMATION
TRUE -- External MUX Channel results are PARSED.
FALSE -- AC DC and Phase are NOT grouped.
TRUE -- Companion Program Settings File CREATED.
FALSE -- AC data not excluded
FALSE -- DC data not excluded
FALSE -- Phase data not excluded
FALSE -- Auxillary Chn. data not excluded
Tab delimiters

#CALIBRATION STATE
TRUE -- Waveform Calibration Values APPLIED.


#AUX CALIBRATION VALUES
Val Type	aux-1	

Term	1.0000e+00	
Factor	0.0000e+00	


#WF CALIBRATION VALUES
A = Detector Channel
Val Type	A-AC1	A-AC2	A-AC3	A-AC4	A-AC5	A-AC6	A-AC7	A-AC8	A-AC9	A-AC10	A-AC11	A-AC12	A-AC13	A-AC14	A-AC15	A-AC16	A-DC1	A-DC2	A-DC3	A-DC4	A-DC5	A-DC6	A-DC7	A-DC8	A-DC9	A-DC10	A-DC11	A-DC12	A-DC13	A-DC14	A-DC15	A-DC16	A-Ph1	A-Ph2	A-Ph3	A-Ph4	A-Ph5	A-Ph6	A-Ph7	A-Ph8	A-Ph9	A-Ph10	A-Ph11	A-Ph12	A-Ph13	A-Ph14	A-Ph15	A-Ph16	

Term	0.00000e+00	0.00000e+00	0.00000e+00	0.00000e+00	0.00000e+00	0.00000e+00	0.00000e+00	0.00000e+00	0.00000e+00	0.00000e+00	0.00000e+00	0.00000e+00	0.00000e+00	0.00000e+00	0.00000e+00	0.00000e+00	0.00000e+00	0.00000e+00	0.00000e+00	0.00000e+00	0.00000e+00	0.00000e+00	0.00000e+00	0.00000e+00	0.00000e+00	0.00000e+00	0.00000e+00	0.00000e+00	0.00000e+00	0.00000e+00	0.00000e+00	0.00000e+00	0.00000e+00	0.00000e+00	0.00000e+00	0.00000e+00	0.00000e+00	0.00000e+00	0.00000e+00	0.00000e+00	0.00000e+00	0.00000e+00	0.00000e+00	0.00000e+00	0.00000e+00	0.00000e+00	0.00000e+00	0.00000e+00	
Factor	1.00000e+00	1.00000e+00	1.00000e+00	1.00000e+00	1.00000e+00	1.00000e+00	1.00000e+00	1.00000e+00	1.00000e+00	1.00000e+00	1.00000e+00	1.00000e+00	1.00000e+00	1.00000e+00	1.00000e+00	1.00000e+00	1.00000e+00	1.00000e+00	1.00000e+00	1.00000e+00	1.00000e+00	1.00000e+00	1.00000e+00	1.00000e+00	1.00000e+00	1.00000e+00	1.00000e+00	1.00000e+00	1.00000e+00	1.00000e+00	1.00000e+00	1.00000e+00	X	X	X	X	X	X	X	X	X	X	X	X	X	X	X	X	

B = Detector Channel
Val Type	B-AC1	B-AC2	B-AC3	B-AC4	B-AC5	B-AC6	B-AC7	B-AC8	B-AC9	B-AC10	B-AC11	B-AC12	B-AC13	B-AC14	B-AC15	B-AC16	B-DC1	B-DC2	B-DC3	B-DC4	B-DC5	B-DC6	B-DC7	B-DC8	B-DC9	B-DC10	B-DC11	B-DC12	B-DC13	B-DC14	B-DC15	B-DC16	B-Ph1	B-Ph2	B-Ph3	B-Ph4	B-Ph5	B-Ph6	B-Ph7	B-Ph8	B-Ph9	B-Ph10	B-Ph11	B-Ph12	B-Ph13	B-Ph14	B-Ph15	B-Ph16	

Term	0.00000e+00	0.00000e+00	0.00000e+00	0.00000e+00	0.00000e+00	0.00000e+00	0.00000e+00	0.00000e+00	0.00000e+00	0.00000e+00	0.00000e+00	0.00000e+00	0.00000e+00	0.00000e+00	0.00000e+00	0.00000e+00	0.00000e+00	0.00000e+00	0.00000e+00	0.00000e+00	0.00000e+00	0.00000e+00	0.00000e+00	0.00000e+00	0.00000e+00	0.00000e+00	0.00000e+00	0.00000e+00	0.00000e+00	0.00000e+00	0.00000e+00	0.00000e+00	-3.55938e+01	-1.27701e+02	-1.25281e+02	-1.82617e+02	-5.40153e+01	-6.01161e+01	-1.56707e+02	-1.61923e+02	-3.23848e+01	-6.96501e+01	-1.72081e+02	-1.72121e+02	-1.82310e+02	-1.75613e+02	-4.80221e+01	-1.49421e+02	
Factor	1.75935e-05	1.27067e-04	3.90881e-05	1.69756e-01	1.41494e-06	1.43045e-06	1.51472e-01	4.16107e-02	1.27005e-06	1.46452e-06	7.00974e-02	2.89022e-02	2.93523e-02	6.32495e-03	1.47419e-06	9.43134e-03	9.40978e-06	1.53733e-05	4.30930e-06	8.73817e-02	1.59016e-07	1.71387e-07	7.34779e-02	2.15944e-02	1.53695e-07	1.73083e-07	3.51862e-02	1.45699e-02	1.52597e-02	3.31565e-03	1.61020e-07	4.78232e-03	X	X	X	X	X	X	X	X	X	X	X	X	X	X	X	X	



#DISTANCE SETTINGS
A = Detector Channel
A-1	A-2	A-3	A-4	A-5	A-6	A-7	A-8	A-9	A-10	A-11	A-12	A-13	A-14	A-15	A-16	

1.0000e+01	1.0000e+01	1.0000e+01	1.4500e+00	1.0000e+01	1.0000e+01	1.5100e+00	1.9500e+00	1.0000e+01	1.0000e+01	2.0100e+00	2.5000e+00	2.4400e+00	2.9500e+00	1.0000e+01	3.0100e+00	

B = Detector Channel
B-1	B-2	B-3	B-4	B-5	B-6	B-7	B-8	B-9	B-10	B-11	B-12	B-13	B-14	B-15	B-16	

1.0000e+01	1.0000e+01	1.0000e+01	1.4500e+00	1.0000e+01	1.0000e+01	1.5100e+00	1.9500e+00	1.0000e+01	1.0000e+01	2.0100e+00	2.5000e+00	2.4400e+00	2.9500e+00	1.0000e+01	3.0100e+00	




#DATA BEGINS
time	group	step	mark	flag	A-AC1	A-AC2	A-AC3	A-AC4	A-AC5	A-AC6	A-AC7	A-AC8	A-AC9	A-AC10	A-AC11	A-AC12	A-AC13	A-AC14	A-AC15	A-AC16	A-DC1	A-DC2	A-DC3	A-DC4	A-DC5	A-DC6	A-DC7	A-DC8	A-DC9	A-DC10	A-DC11	A-DC12	A-DC13	A-DC14	A-DC15	A-DC16	A-Ph1	A-Ph2	A-Ph3	A-Ph4	A-Ph5	A-Ph6	A-Ph7	A-Ph8	A-Ph9	A-Ph10	A-Ph11	A-Ph12	A-Ph13	A-Ph14	A-Ph15	A-Ph16	B-AC1	B-AC2	B-AC3	B-AC4	B-AC5	B-AC6	B-AC7	B-AC8	B-AC9	B-AC10	B-AC11	B-AC12	B-AC13	B-AC14	B-AC15	B-AC16	B-DC1	B-DC2	B-DC3	B-DC4	B-DC5	B-DC6	B-DC7	B-DC8	B-DC9	B-DC10	B-DC11	B-DC12	B-DC13	B-DC14	B-DC15	B-DC16	B-Ph1	B-Ph2	B-Ph3	B-Ph4	B-Ph5	B-Ph6	B-Ph7	B-Ph8	B-Ph9	B-Ph10	B-Ph11	B-Ph12	B-Ph13	B-Ph14	B-Ph15	B-Ph16	aux-1	digaux	

1492.598	1	1	0	256	0.11609	0.16109	0.16763	0.13588	0.21435	0.147	0.24716	0.27291	0.095658	0.041658	0.29733	0.17371	0.03635	0.19543	0.22881	0.21227	-3.8958	-3.3375	-3.6583	-4.0104	-3.3458	-4.1271	-3.8208	-3.3604	-4.1062	-3.4521	-3.8333	-4.0583	-3.2687	-3.9562	-3.7812	-3.2875	196.413	-27.481	-62.180	164.737	26.100	88.605	171.064	206.827	-91.618	-89.313	-131.687	-113.183	-56.419	-113.937	43.917	196.378	0.00022077	0.00041841	0.00010021	1198.3	1.2416e-06	2.3629e-06	1061.9	325.32	4.6761e-06	4.4458e-06	291.8	78.949	79.135	25.439	4.4841e-06	27.181	0.00030829	0.00033017	0.0001024	1040.3	3.8773e-06	3.7755e-06	923.5	283.36	3.8978e-06	3.792e-06	254.34	69.18	69.116	22.373	3.8111e-06	23.918	-55.610	-84.671	-98.831	-139.967	30.453	-5.206	-141.320	-134.963	-16.623	-0.369	-136.959	-133.010	-130.514	-125.203	25.896	-129.325	-8191	255	
1492.718	1	1	0	0	0.14003	0.19744	0.34714	0.080689	0.2636	0.17388	0.070003	0.34363	0.017395	0.2322	0.2253	0.21138	0.24516	0.17643	0.1726	0.16407	-3.9208	-3.4542	-3.625	-4.1667	-3.3854	-3.9813	-3.9146	-3.375	-4.3438	-3.4125	-3.5583	-4.2146	-3.2229	-3.9833	-3.9562	-3.3021	-33.715	175.667	-7.558	119.151	-32.290	-3.250	155.985	187.681	-115.961	39.116	160.702	-120.040	-84.807	-107.691	38.541	85.882	0.00024943	0.00024398	2.2635e-05	1200.9	3.1103e-06	3.5544e-06	1069.6	323.39	6.3433e-06	4.9657e-06	290.91	78.49	78.886	25.166	5.1786e-06	26.949	0.00031493	0.00033479	9.8764e-05	1044.1	4.1391e-06	3.6363e-06	926.22	282.79	3.7863e-06	3.9351e-06	253.25	68.809	68.809	22.156	3.9014e-06	23.689	-54.356	-86.946	-35.311	-140.293	2.349	-29.923	-141.906	-134.988	-0.882	14.655	-137.322	-132.802	-130.453	-125.989	21.197	-128.806	-8191	255	
1492.813	1	1	0	0	0.21207	0.23293	0.18926	0.054409	0.054887	0.15117	0.13019	0.3282	0.032329	0.18134	0.19321	0.13777	0.18033	0.091576	0.38334	0.088703	-3.8771	-3.4813	-3.3979	-4.2521	-3.2333	-3.7854	-4.1562	-3.4354	-4.1292	-3.6729	-3.3937	-4.2167	-3.25	-3.7229	-4.1438	-3.3604	-82.492	96.670	186.395	112.321	32.046	85.074	61.775	151.191	-137.212	141.084	114.988	-151.131	-107.797	-149.910	-48.976	174.759	0.00024914	0.00029739	0.00010451	1191.5	4.0516e-07	4.4716e-06	1047.7	320.86	1.9101e-06	5.1168e-06	286.88	77.498	78.341	25.153	1.1179e-06	26.837	0.00029798	0.0003523	0.00010029	1036.9	3.989e-06	3.8319e-06	913.43	280.49	3.7345e-06	3.8096e-06	249.92	67.997	68.27	22.108	3.632e-06	23.548	-61.918	-73.871	-100.083	-140.400	-27.942	17.082	-141.684	-135.353	20.596	-2.064	-137.758	-132.775	-130.474	-125.621	25.064	-129.605	-8191	255	
1492.909	1	1	0	0	0.28191	0.19554	0.18831	0.061876	0.057381	0.28112	0.23208	0.10798	0.12421	0.28474	0.052261	0.046486	0.12218	0.26877	0.2271	0.18544	-3.825	-3.6417	-3.2396	-4.2958	-3.2979	-3.8125	-4.1	-3.4375	-4.0583	-3.7229	-3.4333	-4.15	-3.4562	-3.6146	-4.0708	-3.2833	-122.104	146.583	194.339	191.556	79.831	-2.838	186.682	148.754	-64.597	186.461	12.310	-21.112	154.953	-95.504	167.262	-91.881	0.00025231	0.00032548	0.00014631	1194	4.1113e-06	3.3451e-06	1052.1	319.34	4.3924e-06	5.4628e-06	285.98	77.893	78.056	24.986	3.9459e-06	27.185	0.00029168	0.00034984	0.00010166	1034.1	3.7498e-06	3.7652e-06	915.34	279.95	3.6976e-06	3.8096e-06	250.29	68.428	68.255	22.074	3.9356e-06	23.788	-57.766	-74.050	-58.736	-140.485	-18.444	41.588	-141.559	-135.164	-9.902	4.416	-137.246	-132.856	-130.639	-125.922	-14.903	-129.100	-8191	255	
1493.005	1	1	0	0	0.098885	0.046725	0.037313	0.31573	0.068448	0.11624	0.28846	0.16302	0.2126	0.13547	0.16932	0.17506	0.19996	0.16359	0.19936	0.23171	-3.6604	-3.8354	-3.1813	-4.0167	-3.4958	-3.4625	-4.1229	-3.1083	-3.8417	-3.7521	-3.2896	-4.1396	-3.5521	-3.4771	-4.1937	-3.4271	79.768	26.542	27.139	169.162	-118.295	88.473	119.670	150.300	206.123	-129.433	141.495	-119.452	-118.799	73.689	16.141	-115.302	0.00026482	0.00026604	7.8845e-05	1196.4	3.6674e-06	3.1284e-06	1054.9	322.82	4.0782e-06	2.5059e-06	290.38	79.185	79.143	25.373	3.8243e-06	27.287	0.00031021	0.00033158	0.00010207	1038.4	3.8253e-06	3.9019e-06	919.99	282.13	3.8039e-06	3.7783e-06	253.42	69.164	68.959	22.278	3.529e-06	23.896	-57.471	-64.255	-69.718	-140.612	-0.449	48.705	-141.709	-135.270	-16.126	-67.125	-137.441	-133.017	-130.425	-125.883	-16.791	-129.008	-8191	255	
1493.126	1	1	0	0	0.11319	0.066679	0.24294	0.074071	0.18778	0.15275	0.070051	0.070377	0.1478	0.22285	0.14652	0.20543	0.14439	0.066527	0.35146	0.21567	-3.4979	-3.8146	-3.2208	-4.3083	-3.6688	-3.225	-4.3562	-3.5333	-3.7729	-4.1104	-3.3042	-4.0563	-3.7021	-3.3583	-4.1813	-3.4833	-49.848	111.716	-31.596	-6.474	-132.920	60.876	100.467	161.841	-23.522	39.788	160.300	-86.314	139.196	105.816	16.677	167.414	0.00023279	0.00051666	9.2392e-05	1202	3.4586e-06	4.5945e-06	1064.2	323.13	5.3659e-06	4.6173e-06	288.87	78.236	77.361	25.205	5.3094e-06	26.755	0.00032136	0.00033652	0.00010086	1040	3.7498e-06	3.8094e-06	921.27	281.8	3.6775e-06	3.7844e-06	251.3	68.648	68.21	22.137	3.6806e-06	23.519	-51.937	-71.702	-65.676	-140.285	-4.796	12.444	-141.611	-134.948	-21.685	-31.803	-136.855	-132.631	-130.664	-125.771	9.898	-129.229	-8191	255	
1493.197	1	1	0	0	0.2316	0.12633	0.13865	0.21924	0.1284	0.17518	0.16942	0.23468	0.034171	0.071499	0.21762	0.37233	0.096173	0.23886	0.097567	0.15043	-3.1479	-4.15	-3.2104	-3.9375	-3.8021	-3.325	-4.2667	-3.6104	-3.4646	-3.9437	-3.325	-3.8125	-4.1417	-3.1458	-4.0667	-3.5521	-28.453	164.538	-141.028	184.125	-149.005	199.609	126.857	143.480	203.047	73.893	123.469	-125.272	8.486	-112.438	109.769	119.810	0.00028234	0.00030822	8.4408e-05	1184.8	2.4217e-06	2.5366e-06	1041	319.93	5.513e-06	2.3915e-06	284.17	76.804	78.036	25.078	2.4082e-06	26.569	0.00030921	0.00033065	9.8997e-05	1030.2	3.5441e-06	3.7941e-06	908.3	279.1	3.7786e-06	3.7707e-06	247.32	67.686	68.074	21.94	3.6182e-06	23.392	-58.479	-56.358	-71.514	-140.588	-16.564	-1.190	-141.288	-135.177	2.884	3.210	-137.195	-133.029	-130.533	-125.487	-4.127	-129.386	-8191	255	
1493.294	1	1	0	0	0.23304	0.15024	0.25926	0.084743	0.15248	0.35117	0.24165	0.1784	0.16962	0.10148	0.21272	0.41372	0.14905	0.13704	0.045188	0.38075	-3.0729	-4.2979	-3.3021	-3.9417	-3.8583	-3.1521	-4.3438	-3.6646	-3.3917	-4.0583	-3.2562	-3.8667	-3.875	-3.4083	-3.9604	-3.7479	96.703	1.542	2.748	200.519	-114.656	199.356	172.607	100.079	-46.951	-105.624	142.655	166.288	162.649	-72.391	-126.211	-24.844	0.00025624	0.00042484	0.0001249	1189.6	4.1587e-06	4.525e-06	1047.9	318.61	2.2708e-06	2.8252e-06	286.15	77.768	78.552	24.994	2.3856e-06	26.802	0.00031848	0.00032502	9.432e-05	1029.6	3.775e-06	3.8801e-06	908.45	278.85	3.5939e-06	3.497e-06	248.58	68.032	68.246	21.975	3.8021e-06	23.535	-61.723	-55.780	-60.763	-140.465	11.347	0.110	-141.426	-135.383	-26.893	-44.764	-137.295	-132.773	-130.048	-126.100	84.471	-128.847	-8191	255	
1493.390	1	1	0	0	0.08219	0.078346	0.17484	0.20561	0.22892	0.15901	0.17626	0.2177	0.30118	0.08486	0.18164	0.16815	0.16704	0.11031	0.29746	0.086465	-2.9688	-4.0896	-3.3271	-3.7354	-4.1146	-3.2854	-4.1208	-3.9062	-3.2021	-4.2458	-3.4667	-3.6417	-4.1417	-3.3792	-3.925	-3.7667	-20.219	-97.106	92.064	162.765	137.334	-54.971	22.932	180.834	31.015	178.480	159.444	-128.978	136.243	-135.206	182.793	91.379	0.00029136	0.00025409	9.2184e-05	1185.5	2.3749e-06	4.6287e-06	1057.5	323.14	3.4462e-06	2.3965e-06	289.44	78.693	79.203	25.043	1.0145e-06	27.26	0.0003175	0.00033155	9.5083e-05	1032	3.7153e-06	3.4031e-06	917.68	280.59	3.9599e-06	3.6859e-06	251.7	68.57	68.939	22.119	3.7243e-06	23.788	-56.447	-60.646	-45.002	-140.222	5.172	4.575	-141.593	-135.253	9.623	4.923	-137.314	-132.417	-130.468	-125.278	3.025	-129.064	-8191	255	
1493.509	1	1	0	0	0.13606	0.03793	0.18098	0.22788	0.081978	0.12118	0.25895	0.13086	0.10407	0.19761	0.12659	0.15185	0.06854	0.086614	0.11889	0.25836	-2.8438	-3.9958	-3.5042	-3.5729	-4.1458	-3.3292	-3.9729	-3.9125	-3.1042	-4.1229	-3.5312	-3.3458	-4.1125	-3.3396	-3.8229	-4.0271	-109.652	-94.375	108.495	183.255	29.964	4.818	116.127	170.472	9.406	35.758	-12.014	89.222	-136.790	-121.190	41.630	46.852	0.00022415	0.00032529	0.00011552	1195.9	2.1322e-06	4.683e-06	1055.2	322.42	2.9338e-06	4.4793e-06	285.18	78.285	78.472	24.954	3.2638e-06	26.398	0.00033218	0.00032281	9.3943e-05	1036.1	3.603e-06	3.6802e-06	916.69	280.56	3.7175e-06	3.5276e-06	248.59	68.117	68.379	21.921	3.5632e-06	23.24	-64.211	-37.590	-78.472	-139.970	-15.364	-15.281	-141.613	-134.967	-25.330	-9.711	-137.479	-132.144	-130.652	-125.332	2.288	-129.347	-8191	255	
1493.605	1	1	0	0	0.19235	0.1257	0.16166	0.26022	0.067974	0.013964	0.24305	0.087877	0.23151	0.088606	0.21063	0.28002	0.11849	0.074172	0.19506	0.23153	-2.7354	-4.325	-3.6208	-3.6396	-4.2688	-3.35	-3.9583	-4.1833	-3.3937	-4.1312	-3.7	-3.3187	-4.125	-3.5646	-3.7562	-4.3875	-41.731	76.752	-116.636	158.925	76.848	104.430	126.201	99.618	-22.526	0.130	153.378	100.318	156.034	-32.194	8.457	117.589	0.00028582	0.00019792	9.1453e-05	1174.1	4.0811e-06	2.9238e-06	1039.8	318.17	5.8719e-06	3.167e-06	283.51	76.165	77.277	24.654	7.9261e-07	26.552	0.0003236	0.00031576	9.1537e-05	1023.4	3.7972e-06	3.8959e-06	905.06	277.51	3.7902e-06	3.6283e-06	246.23	67.058	67.477	21.768	3.8222e-06	23.216	-54.173	-57.693	-48.683	-140.368	21.228	21.148	-141.371	-135.055	-14.171	-26.278	-136.847	-132.564	-130.348	-126.040	50.227	-129.300	-8191	255	
1493.701	1	1	0	0	0.10874	0.062151	0.03374	0.37515	0.16825	0.11573	0.17881	0.28075	0.29545	0.25049	0.1702	0.034407	0.17397	0.15506	0.059342	0.13528	-3.0708	-4.0583	-3.8354	-3.4396	-4.2188	-3.3708	-3.825	-4.2229	-3.2167	-4.1021	-3.9979	-3.375	-4.2875	-3.4375	-3.5521	-4.1896	32.134	142.374	103.008	167.714	137.218	50.473	-82.913	111.115	134.836	155.677	27.622	6.734	-144.877	182.865	52.211	115.951	0.00025281	0.0002409	0.00011569	1181.1	3.27e-06	2.577e-06	1050.4	317.26	5.1877e-06	4.1121e-06	283.17	77.55	77.975	24.859	2.8825e-06	26.624	0.00032468	0.00032668	9.4598e-05	1023.6	3.6594e-06	3.7295e-06	908.9	278	3.8558e-06	3.6863e-06	247.64	67.633	67.776	21.798	3.7038e-06	23.313	-66.615	-27.659	-60.761	-140.310	-22.761	-31.859	-141.417	-134.957	-12.335	-32.468	-136.804	-132.213	-130.593	-125.752	-27.552	-129.332	-8191	255	
1493.797	1	1	0	0	0.030287	0.35825	0.077033	0.17078	0.13001	0.016261	0.072993	0.091731	0.35897	0.12068	0.073819	0.080309	0.077568	0.19754	0.3	0.06318	-2.9625	-3.9042	-3.8896	-3.4771	-4.1167	-3.4458	-3.6333	-4.5312	-3.1417	-3.8167	-4.0625	-3.2687	-4.0833	-3.4542	-3.5917	-4.1958	83.725	117.663	63.864	138.346	168.772	135.517	181.280	121.386	49.203	-29.825	101.635	20.048	-72.701	111.563	28.772	185.849	0.00023019	0.00027316	9.2182e-05	1182	3.6127e-06	4.1002e-06	1055.9	319.51	5.0816e-06	5.8317e-06	287.97	77.848	77.735	24.685	3.3872e-06	26.762	0.00032556	0.00035365	8.7847e-05	1025.9	3.7756e-06	3.6638e-06	912.81	279.28	3.9384e-06	3.6315e-06	250.15	67.857	67.958	21.901	3.9128e-06	23.539	-61.015	-70.145	-30.758	-140.321	-27.782	3.130	-141.563	-134.822	-31.559	8.607	-137.127	-131.770	-130.208	-125.365	31.891	-129.074	-8191	255	
1493.893	1	1	0	0	0.029346	0.17052	0.15264	0.22918	0.050672	0.1386	0.051297	0.16911	0.0049117	0.34325	0.055396	0.10256	0.22262	0.30245	0.25425	0.058874	-2.9313	-3.6937	-4.0813	-3.3417	-4.15	-3.6542	-3.6458	-4.3333	-3.4229	-3.7104	-4.2458	-3.4437	-4.1958	-3.7917	-3.2542	-4.3083	-23.910	-8.244	-3.758	205.358	47.538	177.512	136.395	-48.840	-151.266	-69.666	161.381	-27.912	115.323	-80.038	101.807	-90.069	0.00026363	0.00028215	5.3341e-05	1183.7	3.6119e-06	6.5808e-06	1047.1	320.7	4.852e-06	4.0018e-06	283.37	77.479	77.859	24.675	3.5005e-06	26.162	0.00031162	0.00032671	9.5056e-05	1028.2	3.8061e-06	3.9633e-06	910.31	279.21	3.867e-06	3.7022e-06	248.32	67.597	68.182	21.744	4.0755e-06	23.1	-60.968	-65.273	-91.720	-140.324	-37.999	11.964	-141.537	-135.254	-28.140	-11.314	-137.344	-132.743	-129.946	-125.787	33.901	-128.882	-8191	255	
1493.989	1	1	0	0	0.23778	0.22733	0.10886	0.073144	0.16971	0.18139	0.23542	0.25447	0.16587	0.24326	0.2402	0.19658	0.050422	0.22245	0.059548	0.16165	-3.0563	-3.6375	-4.1333	-3.375	-4.0938	-3.9292	-3.4813	-4.3875	-3.5479	-3.6042	-4.2708	-3.3896	-4.1375	-4.1083	-3.3146	-4.4333	75.733	173.930	86.263	-88.012	-52.758	160.413	91.323	107.657	167.256	96.049	88.872	-145.931	134.676	119.714	-120.673	12.510	0.00024866	0.00051509	0.00010202	1171.4	3.1777e-06	3.4293e-06	1042.9	317.19	3.298e-06	2.5605e-06	283.28	76.648	77.005	24.646	5.1298e-06	26.353	0.00029629	0.00034199	9.0217e-05	1020.3	3.766e-06	3.7355e-06	902.87	276.7	3.9067e-06	3.6542e-06	247.16	67.074	67.467	21.668	3.7565e-06	23.176	-62.400	-78.224	-88.878	-140.070	-21.786	9.150	-141.313	-135.232	-12.501	-7.785	-136.803	-132.458	-129.748	-125.729	12.592	-129.006	-8191	255	
1494.085	1	1	0	0	0.18322	0.10999	0.10566	0.2123	0.10102	0.22475	0.2277	0.39857	0.2129	0.25019	0.23807	0.15977	0.09981	0.12453	0.036656	0.22899	-3.2	-3.4354	-4.1771	-3.4167	-3.8688	-4.0229	-3.4458	-4.2583	-3.7146	-3.7146	-4.2708	-3.3458	-3.7271	-4.0021	-3.3646	-4.1	166.194	144.628	-76.935	138.153	-10.722	148.717	61.921	111.742	57.255	-143.204	-143.422	-119.460	-80.522	113.222	48.692	169.793	0.00025401	0.00041507	0.00016431	1180	2.3453e-06	2.2685e-06	1040.3	318.12	4.4471e-06	1.7169e-06	282.92	77.008	77.979	24.817	3.4752e-06	26.667	0.00030952	0.0003426	9.2479e-05	1021.8	3.764e-06	3.8177e-06	904.82	277.62	3.9304e-06	3.9946e-06	247.03	67.616	68.211	21.85	3.6652e-06	23.312	-56.245	-73.680	-79.097	-140.048	13.475	-28.160	-141.413	-134.729	-9.536	2.182	-136.918	-132.262	-130.135	-125.682	-30.565	-128.684	-8191	255	
1494.206	1	1	0	0	0.21067	0.37465	0.29776	0.13794	0.27609	0.11562	0.020964	0.50989	0.15411	0.091771	0.16031	0.36783	0.18579	0.24417	0.075767	0.28291	-3.5604	-3.4062	-4.1792	-3.4667	-3.6667	-4.2104	-3.3667	-4.0354	-3.8417	-3.2667	-4.4521	-3.3667	-3.6667	-4.275	-3.3021	-4.0896	50.960	150.661	41.607	202.741	35.901	-29.375	177.626	154.917	-28.597	-124.787	160.434	167.729	-75.311	184.590	-141.451	53.086	0.0002651	0.00028088	6.7513e-05	1182.1	2.5794e-06	2.9299e-06	1049	320.04	3.1412e-06	2.2164e-06	284.18	78.467	77.73	24.83	6.7757e-06	26.618	0.00030831	0.00032486	9.0163e-05	1024.3	3.7988e-06	3.492e-06	911.39	279.25	3.8113e-06	3.718e-06	249.23	68.183	67.904	21.909	3.7457e-06	23.458	-56.957	-79.024	-65.917	-140.267	19.729	-1.222	-141.959	-134.874	-3.671	-0.912	-137.471	-132.608	-130.009	-125.491	-6.622	-128.945	-8191	255	
1494.302	1	1	0	0	0.25048	0.10056	0.13501	0.19171	0.062355	0.20525	0.22425	0.29489	0.10359	0.12498	0.22321	0.13825	0.10392	0.11878	0.12369	0.060024	-3.5687	-3.3167	-4.1375	-3.4667	-3.5104	-4.2	-3.3875	-4.0104	-3.9604	-3.2375	-4.2083	-3.6958	-3.4854	-4.3812	-3.2917	-3.7687	28.987	-40.372	-79.990	158.934	84.621	92.698	135.451	128.578	79.387	74.576	-133.859	151.358	169.859	31.628	-9.753	179.295	0.00026548	0.00029285	0.00013145	1181.5	3.9879e-06	5.2373e-06	1041.7	318.29	3.394e-06	2.9192e-06	283.09	76.301	77.084	24.399	2.4026e-06	26.054	0.00031535	0.00035794	9.2955e-05	1027.6	4.0274e-06	3.5484e-06	907.79	278.5	3.7508e-06	3.7509e-06	247.58	66.933	67.528	21.653	3.9017e-06	23.037	-56.343	-85.136	-79.837	-140.554	-38.195	-11.298	-141.643	-135.153	-11.513	27.346	-137.136	-132.434	-129.653	-125.779	47.038	-128.985	-8191	255	
1494.398	1	1	0	0	0.11662	0.085444	0.16069	0.15646	0.12003	0.22724	0.24704	0.18461	0.14749	0.033592	0.07547	0.23271	0.13862	0.057407	0.17751	0.23415	-3.8063	-3.175	-4.075	-3.9083	-3.3042	-4.3375	-3.4333	-4.0229	-4.325	-3.0875	-4.2521	-3.725	-3.2646	-4.2875	-3.4271	-3.6188	116.667	2.527	-106.482	165.058	91.606	34.777	94.261	-134.384	133.952	-20.719	-143.457	69.727	186.565	46.596	-90.624	191.320	0.00022534	0.00041891	0.00018436	1165.8	1.7662e-06	3.2565e-06	1034.1	314.94	4.5905e-06	2.4424e-06	279.92	75.776	77.045	24.635	5.367e-06	26.243	0.00030072	0.00033069	9.0836e-05	1016	3.8379e-06	3.4549e-06	898.86	276.19	3.5869e-06	3.8482e-06	244.55	66.364	67.165	21.608	3.6555e-06	22.954	-68.104	-86.111	-56.404	-140.290	-51.734	38.838	-141.498	-134.769	-7.909	37.310	-137.098	-132.806	-130.238	-126.009	9.846	-129.220	-8191	255	
1494.495	1	1	0	0	0.12151	0.21498	0.058471	0.30292	0.16968	0.15501	0.29665	0.4238	0.18184	0.056652	0.13331	0.20559	0.21177	0.11604	0.11329	0.11172	-3.8125	-3.4271	-3.8812	-3.9625	-3.2979	-4.3229	-3.6667	-3.7583	-4.1083	-3.4604	-4.2562	-3.7562	-3.0875	-4.3021	-3.4375	-3.5271	48.493	-7.575	-99.384	173.516	-139.292	35.428	95.182	159.550	53.580	44.944	160.474	-101.880	52.172	182.803	88.906	-41.904	0.00022769	0.00041119	7.1135e-05	1170.7	4.4584e-06	4.6241e-06	1033.8	316.28	3.5245e-06	2.685e-06	283.86	77.225	76.707	24.72	3.0706e-06	26.342	0.00029111	0.00035765	9.6618e-05	1015.3	3.722e-06	3.5595e-06	900.81	276.71	3.6932e-06	3.6149e-06	246.47	67.167	67.229	21.751	3.7726e-06	23.116	-63.167	-56.422	-29.735	-140.307	8.167	1.051	-141.516	-134.806	-7.412	-43.421	-137.325	-132.951	-130.299	-125.681	-1.456	-128.759	-8191	255	
1494.589	1	1	0	0	0.071856	0.17033	0.12227	0.17739	0.29877	0.18756	0.32718	0.28975	0.13719	0.13224	0.21151	0.067494	0.17941	0.2452	0.21358	0.049452	-3.8688	-3.2562	-4.0021	-4.1021	-3.3125	-4.0979	-3.5875	-3.5604	-4.2979	-3.3917	-3.9313	-4.0125	-3.2792	-4.2417	-3.7938	-3.3917	-72.210	-44.220	-53.277	-147.642	38.260	12.744	169.550	201.007	161.240	3.263	191.653	100.305	93.993	156.391	-151.316	7.813	0.00025671	0.00031276	0.00010754	1175	3.0313e-06	4.1082e-06	1040.9	318.96	5.2723e-06	5.1144e-06	282.75	77.435	77.375	24.569	1.8375e-06	26.338	0.00029245	0.00034286	9.6681e-05	1020.7	3.9429e-06	3.4874e-06	903.25	278.5	3.7146e-06	3.9037e-06	247.96	67.449	67.577	21.733	3.6109e-06	23.215	-56.459	-72.518	-31.032	-140.434	-5.382	5.917	-141.625	-134.885	-15.190	-14.655	-137.211	-132.738	-130.522	-125.426	-15.071	-129.462	-8191	255	
1494.685	1	1	0	0	0.04993	0.25142	0.1281	0.39752	0.19064	0.12421	0.24717	0.1255	0.090149	0.24492	0.2223	0.11161	0.060101	0.088167	0.25467	0.22815	-3.9188	-3.1646	-3.7896	-4.1833	-3.3042	-4.2438	-4.0458	-3.5042	-4.4208	-3.4188	-3.7125	-4.1771	-3.2562	-4.2063	-3.95	-3.3563	94.156	130.735	30.000	177.938	111.776	183.264	113.383	173.966	197.600	1.807	-136.807	176.795	195.214	-62.806	-91.718	127.821	0.00024452	0.00033056	0.00010051	1184.6	5.1999e-06	3.2834e-06	1046.8	317.24	4.8837e-06	4.658e-06	282.83	75.836	76.52	24.566	3.8201e-06	25.933	0.00029939	0.00035243	9.4831e-05	1023.4	3.979e-06	3.5484e-06	906.08	277.16	3.7255e-06	3.7393e-06	246.18	66.555	67.05	21.601	3.6263e-06	22.818	-57.062	-65.172	-89.246	-139.949	-27.299	-27.357	-141.670	-134.860	-3.878	-38.223	-137.171	-133.056	-130.163	-125.441	7.794	-129.023	-8191	255	
1494.806	1	1	0	0	0.15059	0.15599	0.11209	0.25489	0.103	0.1564	0.16733	0.043669	0.24356	0.088808	0.15369	0.23392	0.4019	0.13654	0.17982	0.050378	-3.8646	-3.5604	-3.6104	-4.1521	-3.3396	-3.9646	-4.0375	-3.4417	-4.2125	-3.3729	-3.7417	-4.2042	-3.3042	-4.0146	-3.9646	-3.4542	165.160	43.493	70.340	200.257	-38.001	-40.747	-121.675	42.649	105.035	116.998	140.207	56.674	180.811	-132.573	-9.761	146.613	0.0002097	0.0003876	8.6887e-05	1164.4	5.0976e-06	4.4097e-06	1026.5	315.57	4.8016e-06	5.4924e-06	277.98	75.481	76.21	24.363	2.2506e-06	26.026	0.00029927	0.00034561	9.1303e-05	1011.6	3.5974e-06	3.6331e-06	893.36	275.58	3.5046e-06	3.7609e-06	243.77	66.132	67.026	21.552	3.6964e-06	22.814	-64.200	-71.962	-37.096	-140.455	20.276	18.854	-141.699	-135.103	-18.299	-41.410	-137.013	-132.843	-130.025	-125.909	-22.229	-129.104	-8191	255	
1494.902	1	1	0	0	0.042852	0.072635	0.049881	0.074692	0.063022	0.1565	0.39631	0.15254	0.1291	0.069342	0.17821	0.16655	0.14164	0.12889	0.16649	0.27202	-3.8208	-3.4708	-3.3208	-4.4187	-3.2687	-3.7854	-4.1333	-3.2188	-4.1604	-3.7583	-3.5208	-4.4167	-3.3917	-3.7542	-4.0583	-3.45	133.315	146.347	8.706	10.566	160.702	-74.014	146.666	-123.372	-115.963	114.599	115.091	-129.802	144.358	22.295	126.509	-32.132	0.0002093	0.00024904	0.00010692	1163.9	4.4897e-06	2.58e-06	1033	316.18	3.4164e-06	5.8716e-06	282.19	76.332	76.978	24.654	5.4067e-06	26.235	0.00030441	0.0003181	9.3144e-05	1011.9	3.7488e-06	3.5242e-06	897.1	275.74	3.5388e-06	3.5543e-06	245.86	66.881	67.41	21.621	3.4777e-06	23.078	-62.811	-41.290	-64.736	-140.545	-22.953	-40.798	-141.456	-135.279	16.013	-5.908	-136.955	-132.789	-130.070	-126.068	-8.012	-129.314	-8191	255	
1494.998	1	1	0	0	0.26868	0.16246	0.14329	0.24887	0.21226	0.22076	0.12783	0.1775	0.25304	0.23603	0.054059	0.24527	0.27341	0.055584	0.036556	0.13014	-3.7104	-3.8396	-3.4646	-4.5167	-3.3792	-3.6396	-4.2375	-3.2792	-3.9083	-3.8583	-3.4583	-4.3167	-3.5875	-3.6104	-4.2396	-3.2438	-69.536	-74.310	181.227	184.833	104.100	164.398	-148.818	121.712	-41.750	199.227	-150.417	172.288	-25.681	-58.046	-55.420	104.936	0.00025476	0.00037741	0.00012578	1170	4.0797e-06	3.907e-06	1040.1	316.91	4.4132e-06	5.2033e-06	284.77	76.84	76.672	24.798	5.9499e-06	26.603	0.00031123	0.00031701	9.2264e-05	1017.7	3.8164e-06	3.6291e-06	903.85	276.61	3.6419e-06	3.7382e-06	247.98	67.423	67.475	21.758	3.3002e-06	23.257	-57.481	-64.688	-25.571	-139.940	5.358	-3.954	-141.697	-134.915	-1.379	-3.525	-137.152	-132.746	-130.242	-125.301	5.172	-129.162	-8191	255	
1495.070	1	1	0	0	0.11499	0.11233	0.28458	0.35306	0.16975	0.05202	0.10257	0.18793	0.19264	0.16213	0.12264	0.1599	0.083803	0.14403	0.16017	0.21635	-3.8833	-3.7521	-3.3208	-4.3938	-3.5833	-3.4813	-4.2583	-3.3667	-3.9104	-3.9708	-3.2479	-4.3771	-3.7938	-3.5333	-4.3021	-3.3438	-47.525	7.530	-143.839	-102.404	126.334	32.499	132.436	191.889	-115.446	109.121	168.338	43.587	190.789	-30.264	116.847	-123.074	0.00028942	0.00041716	8.8562e-05	1171.8	5.7261e-06	4.8413e-06	1039.7	315.14	2.5453e-06	2.9624e-06	279.15	75.718	77.16	24.381	4.7132e-06	25.918	0.00031991	0.00031493	9.7237e-05	1016.4	3.6938e-06	3.6248e-06	900.89	275.63	3.5651e-06	3.3066e-06	243.93	66.423	66.924	21.449	3.4525e-06	22.663	-50.211	-57.544	-79.867	-140.079	-11.589	-7.070	-141.708	-135.064	4.844	27.687	-137.136	-132.814	-130.407	-125.275	32.206	-129.262	-8191	255	
1495.190	1	1	0	0	0.18351	0.14955	0.10686	0.22344	0.13047	0.073356	0.083152	0.22265	0.078625	0.1835	0.10525	0.20429	0.19874	0.050344	0.20165	0.039759	-3.5125	-4.1729	-3.3083	-4.3896	-3.7146	-3.4167	-4.3625	-3.5667	-3.8563	-4.075	-3.3563	-4.075	-3.7104	-3.3292	-4.2562	-3.4688	12.928	60.414	17.644	198.008	127.492	100.895	155.617	87.495	-98.901	132.753	180.061	106.971	-131.114	127.907	-118.821	-37.215	0.00027717	0.00025224	4.734e-05	1164.2	2.7099e-06	5.4141e-06	1028.8	313.32	3.6101e-06	4.2491e-06	279.62	75.587	76.477	24.513	3.2512e-06	25.763	0.00029786	0.00033767	9.4194e-05	1010.7	3.51e-06	3.6202e-06	891.73	273.83	3.4895e-06	3.4606e-06	243.57	66.092	66.843	21.477	3.3817e-06	22.713	-60.311	-106.033	-76.904	-140.162	-41.452	12.477	-141.983	-134.927	-9.689	7.874	-137.381	-132.865	-130.334	-125.548	35.537	-129.175	-8191	255	
1495.286	1	1	0	0	0.25995	0.06503	0.096866	0.18699	0.13278	0.10643	0.18587	0.27586	0.20915	0.21691	0.081067	0.32961	0.24298	0.13736	0.057818	0.075951	-3.3604	-3.9542	-3.4167	-4.1687	-3.9792	-3.3479	-4.4812	-3.7542	-3.5958	-4.2688	-3.4292	-4.1188	-3.8646	-3.3187	-4.1438	-3.6896	-114.323	163.016	-116.511	-86.747	72.477	152.064	70.572	140.804	-7.547	-11.019	179.867	110.174	-135.013	30.506	80.930	9.760	0.00029093	0.00039016	7.4048e-05	1164.8	5.2973e-06	2.6727e-06	1028.2	314.94	1.2718e-06	2.4422e-06	280.54	75.996	76.924	24.701	4.2038e-06	26.111	0.00031615	0.00032294	9.5119e-05	1010.6	3.5215e-06	3.8894e-06	893.28	274.8	3.8459e-06	3.4761e-06	244.71	66.575	67.117	21.67	3.4656e-06	22.928	-56.230	-38.813	-40.791	-140.151	-4.049	-27.838	-141.717	-134.940	-31.046	-12.351	-137.010	-133.294	-130.496	-125.329	41.259	-128.848	-8191	255	
1495.383	1	1	0	0	0.097114	0.20014	0.22759	0.18623	0.1477	0.23067	0.13154	0.25913	0.047254	0.23532	0.19399	0.098253	0.14714	0.21608	0.079094	0.11014	-3.2083	-4.1937	-3.2125	-4.1062	-3.9958	-3.3708	-4.4333	-3.8917	-3.65	-4.2792	-3.4958	-3.8292	-4.175	-3.2667	-4.1604	-3.8583	-105.824	-68.874	67.260	-112.258	-17.179	47.222	-133.521	170.450	148.246	-79.966	194.596	7.754	138.554	-136.944	172.641	141.182	0.00024287	0.00041556	0.00010613	1164.9	3.0587e-06	2.6168e-06	1035.1	316.74	4.5908e-06	4.4464e-06	282.54	77.882	77.223	24.803	4.7748e-06	26.506	0.00030805	0.00032233	9.335e-05	1013.4	3.5676e-06	3.6688e-06	900.45	275.47	3.8465e-06	3.4173e-06	246.67	67.467	67.462	21.71	3.5451e-06	23.161	-59.255	-77.881	-51.861	-140.283	17.534	-30.097	-141.283	-135.097	-6.333	12.140	-137.290	-132.238	-130.840	-125.705	4.856	-129.408	-8191	255	
1495.479	1	1	0	0	0.093707	0.18807	0.14645	0.2447	0.10768	0.19535	0.067675	0.13527	0.093355	0.10165	0.070047	0.23029	0.057099	0.15879	0.070882	0.074637	-3.0979	-4.2125	-3.3979	-3.8187	-4.1875	-3.1542	-4.1771	-3.8479	-3.4375	-4.3438	-3.575	-3.75	-4.1396	-3.1646	-4.1708	-3.9583	140.594	-64.196	52.074	184.203	197.402	128.240	125.636	47.194	95.990	-9.017	21.423	-104.539	-32.332	-135.286	178.866	81.242	0.00024809	0.00036407	0.00015905	1172.7	3.094e-06	2.0295e-06	1035.1	314.36	3.6382e-06	4.5873e-06	280.95	75.363	76.048	24.343	3.0532e-06	25.652	0.0002938	0.00033113	9.4769e-05	1015	3.4619e-06	3.5509e-06	898.26	274.38	3.6698e-06	3.629e-06	243.94	66.065	66.707	21.444	3.4468e-06	22.552	-60.526	-60.265	-62.612	-140.238	-12.159	-2.548	-141.671	-135.410	-1.693	7.996	-137.178	-132.136	-130.621	-125.962	-25.233	-129.129	-8191	255	
1495.598	1	1	0	0	0.15783	0.21885	0.13646	0.2137	0.035355	0.06658	0.10419	0.26431	0.13939	0.22427	0.32757	0.14339	0.013668	0.24863	0.14769	0.036817	-3.1146	-4.1312	-3.6375	-3.6937	-4.4208	-3.3583	-4.3187	-4.0687	-3.5583	-4.2917	-3.7896	-3.7125	-4.3917	-3.4021	-4.1542	-4.2354	-64.124	197.999	36.930	183.413	41.801	79.054	-42.897	140.111	159.831	-117.892	142.008	-37.262	-117.840	-150.416	39.288	-12.841	0.00022937	0.00050903	7.8532e-05	1156.8	2.062e-06	3.1323e-06	1022.2	314.93	4.4416e-06	4.2589e-06	278.22	75.462	75.732	24.439	4.3823e-06	25.825	0.00029092	0.00030817	9.1752e-05	1006.2	3.6494e-06	3.6891e-06	889.97	274.32	3.7553e-06	3.5435e-06	242.6	65.868	66.674	21.444	3.8068e-06	22.659	-59.291	-75.461	-91.437	-140.648	13.779	-29.916	-141.665	-135.044	-0.268	-4.495	-137.261	-132.565	-130.352	-125.600	-6.800	-128.885	-8191	255	
1495.694	1	1	0	0	0.20542	0.10362	0.14597	0.29114	0.12492	0.1473	0.35458	0.29584	0.1415	0.091163	0.1129	0.16125	0.057407	0.28615	0.22466	0.2853	-3.0667	-4.2979	-3.725	-3.6771	-4.3021	-3.3583	-4.0813	-4.2521	-3.4083	-4.3354	-3.9625	-3.6917	-4.4521	-3.5583	-3.7792	-4.2896	35.050	187.491	-89.595	187.333	-15.048	-2.320	142.501	147.180	152.540	202.463	-138.943	200.951	49.828	199.768	120.342	-38.652	0.00024502	0.00015285	3.634e-05	1157.4	1.0353e-06	3.1183e-06	1024.7	315.23	2.9955e-06	3.5687e-06	278.64	75.216	76.392	24.376	2.6192e-06	26.071	0.00029182	0.00031397	9.1815e-05	1008	3.446e-06	3.567e-06	893.82	274.87	3.6637e-06	3.4905e-06	244.19	66.335	66.919	21.473	3.7732e-06	22.835	-62.232	-52.014	-74.020	-140.412	-70.510	17.725	-141.560	-135.164	-14.229	-15.690	-137.294	-132.258	-130.098	-125.901	18.891	-129.168	-8191	255	
1495.767	1	1	0	0	0.024068	0.048404	0.019543	0.16878	0.15276	0.066465	0.41087	0.22001	0.17352	0.14418	0.187	0.16862	0.18387	0.092505	0.23609	0.1282	-3.1188	-4.1188	-3.8354	-3.6979	-4.3375	-3.65	-3.875	-4.3938	-3.3667	-4.1813	-4.025	-3.3333	-4.4875	-3.6479	-3.8104	-4.425	-3.415	19.516	67.831	-98.814	-24.334	78.438	153.191	198.582	-18.096	-22.501	-122.112	153.991	-7.831	-92.370	-134.221	0.035	0.00022607	0.00038835	0.00010436	1165.9	4.49e-06	4.0825e-06	1038.4	316.38	6.6178e-06	3.4844e-06	282.05	76.312	76.324	24.507	2.3044e-06	26.047	0.00029629	0.00031611	9.0774e-05	1012.3	3.883e-06	3.5131e-06	899.91	275.72	3.9471e-06	3.6182e-06	246.34	66.777	66.955	21.616	3.5616e-06	22.915	-58.860	-71.982	-29.815	-140.429	-35.458	-32.447	-141.408	-135.222	-14.029	-25.597	-137.318	-133.072	-130.216	-125.103	-62.199	-129.044	-8191	255	
1495.886	1	1	0	0	0.12224	0.049783	0.32266	0.053511	0.17826	0.11058	0.15531	0.1873	0.10877	0.19591	0.066125	0.035917	0.16429	0.31109	0.036629	0.34227	-3.0271	-4.0979	-4.1646	-3.525	-4.2854	-3.7583	-3.7979	-4.4083	-3.5479	-3.9688	-4.1479	-3.4271	-4.4458	-4.0667	-3.5771	-4.4375	-29.029	0.705	7.240	-144.044	-19.435	163.048	129.445	162.598	5.164	-109.141	-8.572	126.996	177.045	170.945	-99.979	159.349	0.00020493	0.00053088	2.3028e-05	1162.7	3.2221e-06	1.5153e-06	1035	314.46	4.9973e-06	3.4992e-06	280.07	75.01	75.74	24.099	3.0585e-06	25.841	0.00029643	0.00032899	9.1662e-05	1010.2	3.7316e-06	3.6106e-06	897.35	274.11	3.9298e-06	3.6322e-06	243.5	65.594	66.586	21.239	3.7021e-06	22.647	-60.013	-86.752	-145.725	-140.238	-36.428	0.098	-141.481	-135.279	4.419	41.031	-137.234	-132.586	-130.283	-125.852	9.398	-129.566	-8191	255	
1495.982	1	1	0	0	0.10689	0.011592	0.15495	0.072457	0.030633	0.12754	0.048053	0.026318	0.054455	0.29322	0.19046	0.15159	0.17101	0.1969	0.041195	0.11171	-3.2125	-4.0354	-4.1479	-3.4958	-4.2479	-3.8167	-3.6333	-4.4437	-3.6604	-3.7938	-4.3187	-3.3854	-4.2125	-4.0354	-3.5938	-4.4729	144.100	62.107	167.784	132.955	89.858	50.958	-49.660	141.075	163.106	185.329	-88.540	119.167	134.527	54.050	27.435	-104.632	0.00025571	0.00039699	0.00011965	1156.3	4.3938e-06	3.1178e-06	1023.3	312	5.0491e-06	2.1427e-06	278.62	74.826	76.012	24.164	3.5348e-06	25.708	0.00031297	0.00031986	8.4283e-05	1004.6	3.6136e-06	3.6598e-06	890.43	272.98	3.656e-06	3.6095e-06	241.98	65.748	66.343	21.275	3.685e-06	22.584	-65.798	-92.717	-64.839	-140.480	-36.246	47.137	-141.521	-134.805	-13.920	-25.160	-137.404	-132.580	-130.761	-125.734	7.897	-129.079	-8191	255	
1496.078	1	1	0	0	0.050553	0.077347	0.10847	0.30132	0.21272	0.2202	0.22624	0.055289	0.29769	0.14327	0.21842	0.062991	0.031311	0.38825	0.1922	0.11837	-3.4646	-3.6604	-4.2917	-3.525	-4.1729	-4.1271	-3.5875	-4.4729	-3.6271	-3.6271	-4.3	-3.4208	-4.1104	-4.0687	-3.45	-4.425	113.941	112.333	-151.165	181.470	68.884	-133.077	73.528	-106.022	-6.298	-84.454	36.186	-40.420	106.153	140.444	-108.835	155.803	0.00023786	0.00041653	0.00015175	1156.1	2.804e-06	4.2297e-06	1031.2	315.1	4.0454e-06	6.0228e-06	279.36	75.344	76.635	24.469	9.075e-07	25.965	0.00030613	0.00031486	8.9777e-05	1004.8	3.6488e-06	3.718e-06	895.22	274.18	3.7156e-06	3.8551e-06	243.77	65.923	66.87	21.474	3.7239e-06	22.762	-51.207	-70.605	-63.701	-140.274	23.850	0.736	-141.748	-134.692	-15.946	12.625	-137.281	-132.615	-130.097	-125.826	45.838	-129.159	-8191	255	
1496.199	1	1	0	0	0.17995	0.10383	0.1168	0.18715	0.1788	0.076455	0.089634	0.035257	0.089915	0.063748	0.19318	0.17805	0.11551	0.15135	0.10123	0.040044	-3.2875	-3.4958	-4.3438	-3.4646	-4.0479	-4.0437	-3.5792	-4.4854	-3.8271	-3.4521	-4.4583	-3.2958	-3.9396	-4.1229	-3.4458	-4.2063	132.900	174.120	158.096	-66.362	-112.376	19.990	157.401	80.440	21.829	148.861	89.742	187.230	-99.393	205.745	97.403	-97.975	0.00022713	0.00048925	0.0001567	1165	4.3085e-06	3.3489e-06	1032.1	314.88	4.5854e-06	3.6653e-06	280.86	75.917	76.718	24.415	3.8355e-06	25.895	0.00030678	0.00033578	9.124e-05	1008	3.5378e-06	3.517e-06	898.09	275.2	3.5961e-06	3.8572e-06	246.03	66.75	66.95	21.511	3.5595e-06	22.827	-60.512	-91.781	-65.488	-140.256	-16.222	53.121	-141.352	-135.102	-9.964	-17.230	-137.405	-132.369	-130.641	-125.320	2.862	-128.818	-8191	255	
1496.295	1	1	0	0	0.27587	0.29711	0.25238	0.14833	0.031674	0.13922	0.20696	0.2222	0.20615	0.080787	0.21339	0.31518	0.16964	0.25143	0.2051	0.25653	-3.5521	-3.4208	-4.1229	-3.6167	-3.7375	-4.0625	-3.5	-4.2771	-3.9083	-3.4229	-4.3104	-3.4375	-3.7208	-4.375	-3.4	-4.1771	7.056	205.614	190.756	124.603	126.579	-146.431	156.637	172.334	-118.297	-144.828	169.657	-123.826	152.234	-142.220	78.450	75.561	0.00025244	0.00045811	6.0829e-05	1161.1	4.3295e-06	3.3408e-06	1029.2	313.67	2.3567e-06	4.818e-06	276.17	74.723	75.21	24.156	3.0373e-06	25.568	0.00030952	0.00031858	8.5315e-05	1006.6	3.8137e-06	3.5791e-06	892.62	273.47	3.9151e-06	3.5954e-06	241.98	65.568	66.241	21.246	3.578e-06	22.494	-60.876	-36.774	-70.707	-140.704	3.297	12.217	-141.487	-134.745	-25.975	-10.904	-136.849	-132.629	-130.251	-125.842	40.944	-128.964	-8191	255	
1496.367	1	1	0	0	0.22181	0.22157	0.20308	0.14237	0.11952	0.19725	0.22442	0.030232	0.11503	0.1582	0.13493	0.14714	0.063155	0.04852	0.050946	0.20812	-3.6833	-3.4188	-4.3417	-3.6146	-3.5208	-4.2896	-3.4833	-4.1188	-3.9813	-3.5021	-4.3979	-3.5854	-3.4771	-4.475	-3.2958	-3.9396	108.968	106.216	-57.642	91.068	162.846	25.929	3.704	201.487	126.591	-60.032	-40.502	47.242	97.641	33.737	185.340	-87.165	0.00023207	0.00063938	0.00016655	1152.1	5.4549e-06	3.8143e-06	1023.8	313.74	5.3965e-06	2.7773e-06	278.15	75.522	75.986	24.175	5.3554e-06	25.637	0.00029745	0.00034734	9.2991e-05	1001.6	3.8373e-06	3.5681e-06	888.66	273.43	3.6563e-06	3.8143e-06	242.67	65.706	66.459	21.294	3.7501e-06	22.618	-57.409	-62.638	-61.731	-140.352	-62.829	58.323	-141.236	-134.627	-4.671	-33.561	-136.930	-133.121	-130.540	-125.642	7.598	-128.915	-8191	255	
1496.487	1	1	0	0	0.15892	0.11975	0.094132	0.42856	0.19674	0.10283	0.22905	0.093832	0.16576	0.17197	0.071114	0.24433	0.12136	0.14797	0.12521	0.1377	-3.675	-3.1708	-4.1646	-3.8646	-3.5208	-4.3063	-3.7083	-3.9292	-4.2583	-3.4021	-4.2646	-3.8229	-3.4292	-4.3104	-3.6958	-3.7375	191.629	-131.394	75.682	105.335	154.690	-118.293	151.604	-141.102	-58.734	-38.124	-139.275	131.279	159.602	153.956	104.985	171.239	0.00025475	0.00045554	0.00013033	1156.2	4.3521e-06	1.928e-06	1029.1	313.84	4.7956e-06	4.3305e-06	281.98	75.481	76.242	24.372	4.9232e-06	26.133	0.00030711	0.00034497	8.773e-05	1004.8	3.7362e-06	3.382e-06	893.1	274.19	3.4162e-06	3.7956e-06	245.26	66.218	66.953	21.457	3.4931e-06	22.873	-62.945	-68.280	-97.260	-140.120	-2.393	-20.091	-141.135	-134.357	12.088	13.009	-137.470	-132.700	-129.855	-125.276	29.678	-128.935	-8191	255	
1496.582	1	1	0	0	0.11448	0.065003	0.19106	0.12436	0.087378	0.083317	0.2765	0.30932	0.26814	0.06489	0.32004	0.13906	0.081534	0.28745	0.20474	0.11356	-3.9	-3.4083	-4.1979	-4.0583	-3.2812	-4.5437	-3.6875	-3.7771	-4.3833	-3.4958	-4.125	-3.9062	-3.575	-4.3146	-3.5375	-3.4	-127.790	24.304	90.328	117.665	-1.742	-24.890	152.587	164.671	65.071	111.111	-110.115	34.491	191.929	107.741	-39.833	84.191	0.00027501	0.0002121	0.00013345	1160.4	2.3669e-06	2.3036e-06	1030.2	314.72	3.1351e-06	3.1521e-06	281.05	75.995	77.42	24.507	5.1476e-06	26.074	0.00031248	0.00033075	9.0001e-05	1007	3.8177e-06	3.3731e-06	896.91	275.13	3.7028e-06	3.7974e-06	246.29	66.605	67.346	21.534	3.5414e-06	22.945	-56.726	-52.355	-44.376	-140.191	-18.433	-12.852	-141.433	-134.840	4.316	-14.412	-136.790	-132.481	-130.082	-125.245	-24.314	-128.233	-8191	255	
1496.678	1	1	0	0	0.091133	0.04284	0.13963	0.1095	0.17809	0.33704	0.034362	0.15107	0.057211	0.022938	0.15333	0.14403	0.2693	0.18201	0.10842	0.085008	-3.9667	-3.3521	-3.9062	-4.1354	-3.2396	-4.1583	-3.6771	-3.5542	-4.1562	-3.3333	-3.9375	-4.0479	-3.3167	-4.1521	-3.6125	-3.4562	139.299	-108.563	-79.609	161.018	22.656	76.936	-78.942	143.327	5.108	50.030	150.144	132.840	150.557	51.815	83.052	177.196	0.00028405	0.00023579	3.8273e-05	1153.8	2.9961e-06	4.7139e-06	1022.4	313.38	2.5737e-06	4.5846e-06	278.21	75.119	76.462	24.113	4.4312e-06	25.851	0.00029306	0.00030564	8.6545e-05	1006.3	3.7163e-06	3.6352e-06	891.99	273.63	3.6163e-06	3.8857e-06	242.14	65.746	66.648	21.284	3.4747e-06	22.587	-58.531	-57.532	-85.262	-140.015	-19.280	-8.201	-141.307	-134.905	10.063	-18.809	-136.778	-132.315	-129.990	-125.543	28.046	-128.663	-8191	255	
1496.774	1	1	0	0	0.17656	0.13548	0.11379	0.13514	0.31071	0.22334	0.075572	0.039226	0.14576	0.029168	0.10344	0.11237	0.20302	0.14367	0.19549	0.095939	-3.7625	-3.2687	-3.5708	-4.1229	-3.2646	-4.0813	-3.8104	-3.4458	-4.2562	-3.3792	-3.8937	-4.0437	-3.1937	-3.9562	-3.8083	-3.4333	-137.875	-48.221	-32.488	-97.401	-20.089	-2.589	75.142	-146.805	197.546	68.742	97.035	-23.317	-122.373	172.648	77.832	106.668	0.00024982	0.00041286	0.00010891	1152.5	1.9705e-06	4.3288e-06	1023.9	311.23	3.7354e-06	3.7554e-06	280.03	75.179	76.053	24.35	5.673e-06	25.765	0.00029296	0.0003492	8.9687e-05	998.36	3.4881e-06	3.4438e-06	884.82	271.72	3.412e-06	3.5017e-06	242.86	65.527	66.54	21.391	3.529e-06	22.611	-62.830	-85.013	-22.216	-140.174	-17.974	1.170	-141.486	-134.870	-20.808	-11.473	-136.831	-132.270	-130.323	-125.410	13.738	-129.149	-8191	255	
1496.895	1	1	0	0	0.31872	0.25394	0.1985	0.12156	0.23791	0.056061	0.20126	0.26603	0.072891	0.16469	0.085253	0.096245	0.28872	0.19187	0.014375	0.10944	-3.8563	-3.3833	-3.6333	-4.1833	-3.3312	-3.9667	-3.9396	-3.4792	-4.2042	-3.5896	-3.5563	-4.1958	-3.0917	-3.8958	-4.0833	-3.3875	46.507	72.711	-92.171	-122.569	-148.266	30.323	-104.157	97.046	107.957	181.856	183.092	-89.145	-59.139	197.522	172.269	72.558	0.00024181	0.00028822	0.00014979	1153.7	4.6116e-06	5.8705e-06	1026.6	313.45	3.416e-06	2.6751e-06	278.54	75.911	76.072	24.249	4.7007e-06	25.844	0.00029188	0.0003272	9.432e-05	1002.7	3.7243e-06	3.5088e-06	889.43	273.77	3.769e-06	3.59e-06	243.15	66.226	66.846	21.405	3.5176e-06	22.755	-57.445	-96.186	-90.590	-140.134	33.767	32.492	-141.314	-134.895	-1.002	-40.770	-136.648	-132.811	-129.880	-125.540	8.223	-128.885	-8191	255	
1496.967	1	1	0	0	0.21719	0.12212	0.086839	0.10737	0.042038	0.23383	0.13866	0.22439	0.14565	0.089463	0.2871	0.049981	0.18307	0.14589	0.066316	0.033575	-3.9437	-3.3917	-3.4771	-4.4187	-3.2562	-3.8542	-4.1292	-3.2771	-4.1771	-3.5896	-3.55	-4.2063	-3.4208	-3.6063	-4.1125	-3.2646	148.366	-99.007	200.691	-114.383	-78.530	173.123	-108.289	132.552	16.714	39.696	-135.139	125.934	-112.229	-12.964	-9.585	104.030	0.00022404	0.00046695	9.1721e-05	1163.9	3.1868e-06	4.0747e-06	1036.4	315.3	6.0277e-06	3.031e-06	284.45	76.221	76.535	24.604	2.4632e-06	26.066	0.00028663	0.00032595	9.2165e-05	1006.1	3.6514e-06	3.4959e-06	898.44	274.57	3.5824e-06	3.7472e-06	246.68	66.781	67.18	21.594	3.4921e-06	22.887	-59.240	-61.696	-0.678	-140.303	-4.383	44.808	-141.710	-134.801	-4.370	-19.791	-136.918	-132.730	-129.817	-125.619	28.065	-128.638	-8191	255	
1497.063	1	1	0	0	0.25824	0.28612	0.10902	0.30311	0.051164	0.074059	0.18214	0.32766	0.075682	0.11227	0.32571	0.019985	0.11175	0.15881	0.24546	0.029961	-3.7396	-3.6771	-3.3479	-4.2229	-3.3312	-3.7667	-4.2792	-3.2375	-4.1062	-3.8479	-3.1688	-4.2875	-3.4625	-3.7167	-4.1292	-3.3625	-79.557	154.895	118.474	-130.229	11.807	26.418	159.300	110.563	-45.855	175.082	93.371	-126.380	-15.113	-114.504	-114.488	-129.984	0.00024945	0.00036871	0.00014773	1153.1	1.6112e-06	4.8989e-06	1022.4	312.13	5.1632e-06	2.8786e-06	279.94	75.328	75.591	24.304	3.941e-06	25.543	0.00030897	0.00032736	9.8036e-05	1007.1	3.5885e-06	3.6456e-06	892.38	273.05	3.5148e-06	3.5626e-06	243.65	66.177	66.342	21.365	3.4405e-06	22.463	-57.499	-74.982	-57.563	-139.913	0.951	10.003	-141.410	-134.971	1.720	0.419	-136.749	-132.834	-130.191	-125.455	16.044	-129.554	-8191	255	
1497.159	1	1	0	0	0.21604	0.052721	0.10474	0.12191	0.069043	0.17378	0.31314	0.3857	0.077212	0.25179	0.15157	0.030792	0.13093	0.22512	0.1223	0.21662	-3.5958	-3.9417	-3.1917	-4.2271	-3.4896	-3.6188	-4.3167	-3.2958	-3.7875	-4.0687	-3.4667	-4.0479	-3.6729	-3.5042	-4.2896	-3.3833	-148.921	122.175	17.425	126.418	13.164	62.983	140.310	130.669	146.180	51.596	-96.349	-22.436	-8.087	149.808	-110.055	12.418	0.00025906	0.00026606	1.7961e-05	1146.5	5.9005e-06	3.2556e-06	1023.1	312.86	4.514e-06	4.534e-06	278.21	75.08	76.041	24.351	2.7129e-06	25.65	0.00030764	0.00030186	9.1555e-05	999.91	3.4864e-06	3.6502e-06	889.46	271.74	3.3864e-06	3.6286e-06	242.18	65.937	66.497	21.446	3.5384e-06	22.634	-53.026	-65.286	-16.448	-139.856	-16.449	17.648	-141.473	-134.666	-7.864	27.589	-136.804	-132.631	-129.954	-125.264	17.610	-128.696	-8191	255	
1497.279	1	1	0	0	0.19146	0.050067	0.053258	0.08035	0.096912	0.13517	0.25579	0.12421	0.085716	0.19511	0.18073	0.12033	0.19553	0.21281	0.078455	0.043087	-3.4729	-4.0958	-3.3333	-4.3479	-3.6792	-3.4188	-4.3042	-3.4292	-3.8208	-4.0625	-3.4604	-3.975	-3.9625	-3.5917	-4.2	-3.5104	200.658	75.654	106.389	123.727	129.107	91.881	148.487	188.842	65.975	-79.202	144.433	-140.545	140.440	163.972	61.173	105.232	0.00023462	0.00050358	4.2861e-05	1154.7	3.5423e-06	3.925e-06	1025.5	313.27	4.8551e-06	4.5348e-06	280.26	76.258	76.34	24.476	2.9612e-06	26.06	0.00028278	0.00032957	8.6698e-05	1001.5	3.6865e-06	3.6056e-06	891.19	273.08	3.6608e-06	3.2961e-06	244.84	66.592	66.929	21.506	3.6246e-06	22.831	-50.249	-85.261	-35.551	-140.026	5.047	-6.341	-141.501	-134.814	-6.010	-11.619	-137.074	-131.948	-130.578	-125.423	-8.353	-128.835	-8191	255	
1497.376	1	1	0	0	0.10732	0.079966	0.13304	0.18313	0.20719	0.12721	0.1594	0.18095	0.10134	0.19691	0.2044	0.027602	0.092299	0.21879	0.19507	0.25842	-3.3271	-4.1562	-3.2729	-4.2271	-3.825	-3.2062	-4.3354	-3.4417	-3.5146	-4.125	-3.2854	-3.9313	-3.9854	-3.3604	-4.1188	-3.6875	195.551	-25.642	4.002	200.697	-1.771	72.404	150.291	82.843	79.340	62.895	-133.510	79.290	198.189	117.110	50.454	119.092	0.0002376	0.00025101	3.834e-05	1155.9	4.5525e-06	4.6762e-06	1033.1	314.44	4.5622e-06	4.9209e-06	281.13	76.231	77.303	24.388	5.4344e-06	26.083	0.00030437	0.00031374	9.6043e-05	1002.3	3.6295e-06	3.5949e-06	896.6	273.79	3.7306e-06	3.4014e-06	245.91	66.992	67.02	21.49	3.6203e-06	22.898	-55.164	-50.718	19.531	-139.967	34.717	-26.980	-141.271	-135.088	16.475	-10.870	-136.823	-132.592	-129.963	-125.761	49.886	-128.863	-8191	255	
1497.472	1	1	0	0	0.11901	0.1042	0.060817	0.17048	0.10833	0.12559	0.21793	0.28001	0.13998	0.19754	0.21941	0.11826	0.014935	0.071032	0.19994	0.13865	-3.2729	-4.1583	-3.2792	-4.0708	-4.0021	-3.3229	-4.4667	-3.6896	-3.4437	-4.2521	-3.3	-3.7917	-4.1813	-3.3688	-3.9875	-3.7896	171.250	129.826	-114.045	-67.737	167.093	-81.935	129.522	-149.990	160.080	-39.141	36.905	-101.319	-38.503	46.984	195.848	170.633	0.00023453	0.00014521	0.00012573	1151.1	2.2988e-06	5.3847e-06	1023.4	311.8	3.6266e-06	2.4209e-07	277.62	75.23	75.805	24.157	3.675e-06	25.497	0.00032083	0.00032262	9.1923e-05	1002.4	3.7246e-06	3.6727e-06	890.21	271.99	3.6919e-06	3.3387e-06	242.19	65.771	66.276	21.275	3.7209e-06	22.423	-52.828	-81.676	-67.520	-139.853	49.228	14.758	-141.219	-134.976	-6.552	-51.934	-136.945	-132.520	-130.417	-125.417	-11.496	-129.109	-8191	255	
1497.568	1	1	0	0	0.065771	0.096995	0.22024	0.022312	0.12648	0.015398	0.17603	0.08019	0.1719	0.13196	0.048628	0.056238	0.14548	0.17628	0.22649	0.17217	-3.0521	-4.2188	-3.3396	-3.8833	-4.0604	-3.175	-4.1542	-4.0271	-3.05	-4.2396	-3.5354	-3.7229	-4.0396	-3.2458	-4.1021	-4.0458	-25.196	201.598	116.864	-105.155	-56.757	72.388	143.774	18.424	-60.873	151.656	-15.365	-22.017	114.519	146.021	-11.438	13.988	0.00022338	0.00026793	0.00018188	1147.1	3.2775e-06	1.9732e-06	1016.3	310.85	4.426e-06	2.1733e-06	276.96	75.412	76.272	24.132	4.8141e-06	25.747	0.00030154	0.00030932	9.3512e-05	997.13	3.5726e-06	3.6645e-06	885.37	270.88	3.8699e-06	3.4689e-06	241.84	65.884	66.558	21.317	3.5673e-06	22.553	-57.207	-42.999	-55.356	-140.169	13.034	-31.043	-141.462	-134.840	11.970	26.883	-136.727	-132.072	-130.089	-125.222	-5.439	-128.704	-8191	255	
1497.664	1	1	0	0	0.15541	0.080178	0.047051	0.12439	0.20637	0.091081	0.17293	0.22447	0.42315	0.092092	0.19244	0.13305	0.13608	0.033756	0.11172	0.11542	-2.8833	-4.1708	-3.4417	-3.6021	-4.1604	-3.3292	-4.1	-4.1062	-3.1271	-4.1896	-3.5417	-3.5062	-4.1667	-3.4229	-3.7021	-3.8646	17.268	-5.965	-28.175	141.977	-28.083	-45.798	146.441	124.793	31.966	74.229	-70.312	-55.679	-99.307	-63.673	57.627	120.964	0.00024844	0.00048144	0.00012654	1141.6	2.8494e-06	4.9679e-06	1027.8	313.57	2.1625e-06	3.7811e-06	278.68	75.597	75.398	24.115	2.5572e-06	25.919	0.0003187	0.00032515	9.827e-05	995.93	3.7571e-06	4.0969e-06	889.87	272.57	3.7332e-06	3.2861e-06	243.91	66.22	66.505	21.294	3.481e-06	22.747	-66.244	-47.946	-71.197	-140.242	-9.516	26.618	-141.502	-135.100	-10.032	-19.838	-137.127	-131.990	-129.714	-125.202	-24.647	-128.806	-8191	255	
1497.760	1	1	0	0	0.16156	0.13644	0.17547	0.22749	0.1611	0.069935	0.12003	0.19979	0.13447	0.081932	0.16085	0.27264	0.22803	0.12574	0.13893	0.039267	-2.8563	-4.1979	-3.6333	-3.4167	-4.0563	-3.3396	-3.9583	-4.2	-3.1875	-4.0125	-3.7542	-3.2313	-4.15	-3.25	-3.6458	-4.0292	203.536	-79.507	162.821	181.742	-137.880	25.139	178.652	174.439	-147.285	-18.537	187.105	186.627	123.965	91.503	-58.513	174.733	0.00023977	0.00025678	3.3118e-05	1157.2	2.2571e-06	2.6477e-06	1032	313.39	2.4045e-06	3.7066e-06	279.91	76.343	76.227	24.208	3.5517e-06	25.948	0.00030166	0.00031518	9.0684e-05	1001.3	3.5093e-06	3.5966e-06	897.6	273.18	3.7703e-06	3.5435e-06	245.39	66.631	66.641	21.367	3.7011e-06	22.767	-53.354	-36.056	-113.824	-140.045	-0.342	14.921	-141.195	-134.826	-9.335	23.729	-136.881	-132.131	-129.970	-125.356	-42.586	-128.956	-8191	255	
1497.879	1	1	0	0	0.34868	0.07585	0.13428	0.036887	0.23071	0.1567	0.19084	0.10689	0.1524	0.25069	0.14085	0.03044	0.055602	0.080807	0.15829	0.090628	-2.8563	-3.9708	-3.7917	-3.5104	-4.0958	-3.4833	-3.575	-4.175	-3.2771	-3.9562	-3.9542	-3.2125	-4.1521	-3.425	-3.5833	-4.1833	-68.643	130.555	-50.817	-111.013	-56.698	48.853	127.114	71.821	-93.801	-140.143	-148.966	91.496	98.489	-46.130	-31.841	-11.813	0.00024873	0.00037135	7.7051e-05	1143.3	5.5072e-06	1.9238e-06	1027.3	310.01	2.3906e-06	1.3883e-06	276.53	74.646	75.124	24.027	2.6846e-06	25.577	0.00029466	0.00032319	9.221e-05	998.6	3.5865e-06	3.6602e-06	890.16	270.94	3.6061e-06	3.89e-06	241.16	65.204	66.003	21.13	3.6347e-06	22.414	-56.010	-86.767	-98.628	-139.784	3.033	-128.160	-141.297	-134.864	-70.962	34.235	-136.765	-132.450	-129.596	-125.691	26.868	-128.868	-8191	255	
1497.975	1	1	0	0	0.26595	0.21835	0.072606	0.13578	0.017169	0.14994	0.30138	0.27969	0.27146	0.23969	0.12322	0.08611	0.061163	0.052453	0.089292	0.21516	-3.0708	-3.8292	-3.9542	-3.2562	-3.9583	-3.4083	-3.6375	-4.0771	-3.3563	-3.8063	-3.9625	-3.1271	-4.1646	-3.7062	-3.2313	-4.2562	194.882	-116.129	127.936	192.260	76.001	149.023	92.705	166.588	-71.831	72.667	89.104	-112.333	-152.416	40.200	-95.977	68.842	0.00024281	0.00040433	0.0001983	1150.5	4.8348e-06	2.5067e-06	1016.4	310.38	4.7643e-06	3.8611e-06	275.67	75.651	75.806	23.978	4.7063e-06	25.577	0.00031189	0.00032963	8.9041e-05	995.62	3.6673e-06	3.562e-06	883.36	271.03	3.7169e-06	3.6145e-06	240.93	65.821	66.229	21.125	3.7336e-06	22.392	-56.018	-64.066	-84.000	-139.760	-51.651	29.695	-140.992	-134.473	-16.438	1.427	-136.861	-132.823	-130.293	-125.336	17.690	-128.560	-8191	255	
1498.071	1	1	0	0	0.17499	0.25505	0.24643	0.13442	0.15124	0.22944	0.32521	0.28497	0.23407	0.15149	0.12904	0.14057	0.2324	0.19796	0.13715	0.15306	-3.0917	-3.8146	-4.1104	-3.2646	-4.1167	-3.6042	-3.3708	-4.2312	-3.3667	-3.7729	-4.0417	-3.3063	-4	-3.8167	-3.4813	-4.3646	117.838	-64.962	87.732	-111.288	-24.891	156.756	183.292	189.998	-57.076	-68.016	183.970	24.482	-20.147	95.906	66.732	-110.762	0.0002275	0.00011881	0.00013097	1146.7	2.9731e-06	2.1064e-06	1027.7	312.45	3.057e-06	4.5097e-06	280.02	75.55	75.744	24.145	4.1863e-06	25.8	0.00029923	0.00031861	9.6717e-05	995.4	3.5414e-06	3.4963e-06	891.24	271.9	3.8866e-06	3.6344e-06	243.4	66.035	66.58	21.267	3.8192e-06	22.656	-60.156	-21.680	-95.570	-139.885	-20.289	-38.583	-141.353	-134.522	27.557	-21.391	-136.900	-132.271	-130.114	-125.126	14.762	-128.380	-8191	255	
1498.168	1	1	0	0	0.16127	0.12082	0.067497	0.22542	0.10024	0.051191	0.10898	0.33435	0.16392	0.18	0.24175	0.23115	0.10732	0.019524	0.26851	0.2818	-3.0021	-3.5563	-4.0833	-3.275	-4.0042	-3.8292	-3.2625	-4.2604	-3.4896	-3.5458	-4.3917	-3.2896	-4.0208	-3.9125	-3.1917	-4.3	-73.429	29.599	67.299	-119.177	-32.061	-22.053	156.197	148.817	-150.699	91.237	-121.396	197.060	-29.347	191.441	154.365	65.921	0.00025073	0.00029786	0.00012574	1146.6	2.174e-06	3.8231e-06	1033.1	311.57	4.5743e-06	3.3341e-06	281.42	76.013	75.287	24.385	3.4064e-06	25.931	0.00029615	0.00034061	9.5244e-05	998.36	3.5623e-06	3.5134e-06	898.18	272.48	3.7713e-06	3.8493e-06	245.34	66.366	66.551	21.354	3.6907e-06	22.685	-52.794	-37.970	-74.923	-140.001	13.337	-10.259	-141.200	-135.109	-20.817	-27.753	-136.688	-132.146	-130.199	-125.618	8.849	-128.382	-8191	255	
1498.264	1	1	0	0	0.081436	0.28423	0.10552	0.29789	0.23603	0.044713	0.218	0.084449	0.1102	0.21665	0.11219	0.14598	0.067103	0.17394	0.10595	0.14555	-3.2479	-3.2896	-4.1083	-3.4271	-3.7854	-3.8271	-3.375	-4.0708	-3.3396	-3.45	-4.2729	-3.3583	-3.7521	-4.1562	-3.4542	-4.0292	118.316	-119.066	106.984	-61.077	33.758	186.535	124.458	199.691	15.105	-17.497	202.222	178.965	-129.393	-3.168	-95.337	173.360	0.00022085	0.00021267	0.00013402	1152.8	3.7675e-06	2.9125e-06	1024	310.61	4.7444e-06	5.1236e-06	277.84	74.486	75.06	23.976	3.6869e-06	25.177	0.00029304	0.00032771	9.6636e-05	998.05	3.8267e-06	3.6131e-06	888.42	270.34	3.754e-06	3.5998e-06	241.15	65.133	66.067	21.112	3.794e-06	22.258	-53.956	-6.301	-65.537	-139.978	-0.852	0.406	-140.839	-134.698	3.693	-17.161	-137.117	-132.647	-130.262	-125.456	0.479	-128.958	-8191	255	
1498.360	1	1	0	0	0.30717	0.26879	0.15058	0.18315	0.24806	0.10118	0.28937	0.33752	0.16519	0.026602	0.086768	0.44443	0.15757	0.38361	0.15237	0.31443	-3.3625	-3.2396	-4.2583	-3.425	-3.7125	-3.9813	-3.3771	-4.0771	-3.8771	-3.1312	-4.3667	-3.5083	-3.6729	-4.1	-3.2792	-4.0708	10.973	141.183	59.542	-136.340	-86.525	108.097	202.236	123.738	-99.036	-25.377	-7.285	203.877	-52.012	191.448	97.730	175.149	0.00022818	0.00017675	0.00013957	1144.5	1.4703e-06	4.2049e-06	1017.2	308.88	9.7731e-07	3.1744e-06	278.04	74.47	74.958	24.076	4.0255e-06	25.51	0.0002848	0.0003295	8.826e-05	993.06	3.7806e-06	3.3895e-06	884.08	270.38	3.6925e-06	3.5929e-06	241.78	65.282	65.775	21.073	3.9104e-06	22.353	-52.634	-101.040	-77.228	-139.965	-10.815	8.515	-141.340	-134.354	-100.825	-30.266	-136.791	-132.002	-129.739	-125.073	-13.047	-128.735	-8191	255	
1498.456	1	1	0	0	0.29845	0.1075	0.050637	0.25867	0.14869	0.28731	0.31974	0.25209	0.10422	0.14209	0.062642	0.076213	0.1739	0.20985	0.20297	0.080493	-3.45	-3.2667	-4.1229	-3.5875	-3.6521	-4.2792	-3.2896	-4.0479	-3.9104	-3.1125	-4.1708	-3.5771	-3.5187	-4.3229	-3.1604	-3.8417	-73.403	-3.701	113.713	-146.560	7.045	96.841	-132.335	203.847	42.212	-33.616	137.790	-151.055	123.346	107.315	87.038	37.074	0.00024271	0.00038489	0.00010699	1146.7	4.8354e-06	2.6695e-06	1018.6	311.34	3.8021e-06	4.4759e-06	279.56	75.906	75.892	24.19	5.6338e-06	25.692	0.00030223	0.00031464	9.1393e-05	996.08	3.7428e-06	3.281e-06	888.44	271.6	3.5676e-06	3.7999e-06	243.55	65.989	66.57	21.246	3.6464e-06	22.602	-56.773	-62.604	-95.258	-139.918	5.887	-0.253	-141.308	-134.547	8.550	-8.616	-136.979	-132.378	-129.380	-125.262	-10.979	-128.668	-8191	255	
1498.577	1	1	0	0	0.1635	0.14865	0.10596	0.1519	0.11146	0.10846	0.38375	0.33718	0.16652	0.26343	0.027961	0.084796	0.13411	0.48121	0.14261	0.13924	-3.8479	-3.0312	-4.1083	-3.6458	-3.2625	-4.2167	-3.6229	-3.8729	-4.1396	-3.1417	-4.2771	-3.8187	-3.4521	-4.2854	-3.4229	-3.6667	58.030	116.093	167.696	188.286	64.746	28.597	-148.021	162.849	29.323	137.753	201.687	124.455	121.474	121.119	-152.688	70.887	0.00022304	0.00048329	8.4359e-05	1145	4.0947e-06	2.2761e-06	1028.3	313.05	3.7993e-06	2.3026e-06	278.88	75.674	76.225	24.049	5.9015e-07	25.694	0.00029349	0.00036153	9.3224e-05	997.86	3.7389e-06	3.4813e-06	893.63	272.88	3.5801e-06	3.9459e-06	244.39	66.368	66.781	21.227	3.522e-06	22.693	-57.298	-44.752	-28.383	-139.803	4.199	-23.804	-141.215	-134.713	-22.493	-7.285	-136.735	-132.199	-129.932	-125.145	-64.692	-128.610	-8191	255	
1498.671	1	1	0	0	0.14936	0.15883	0.19438	0.20409	0.079025	0.17042	0.23717	0.1444	0.075435	0.22999	0.17699	0.033965	0.039965	0.25164	0.093148	0.20797	-3.6854	-3.2375	-4.0667	-4.0083	-3.3667	-4.2625	-3.5062	-3.7646	-4.1604	-3.1833	-3.9167	-3.9521	-3.4062	-4.2292	-3.4854	-3.5854	45.851	62.624	-69.534	169.382	35.240	-59.301	144.137	-68.743	74.974	159.977	179.733	-65.578	180.284	-131.023	-22.521	150.012	0.00027245	0.00011557	9.8559e-05	1147.6	1.959e-06	4.4771e-06	1017.9	309.81	2.6448e-06	3.2791e-06	277.28	74.907	75.53	23.926	6.4775e-06	25.185	0.00030548	0.00033142	9.1294e-05	995.6	3.5971e-06	3.7402e-06	883.91	270.47	3.3979e-06	3.6632e-06	240.99	65.583	66.046	21.055	3.4066e-06	22.264	-59.183	-31.131	-59.653	-139.955	28.807	-1.906	-141.268	-134.510	7.587	-25.123	-136.629	-132.321	-130.070	-125.054	3.598	-128.228	-8191	255	
1498.767	1	1	0	0	0.21116	0.2073	0.17443	0.19223	0.15599	0.19799	0.044592	0.23216	0.20461	0.19497	0.17451	0.024538	0.07656	0.20302	0.044074	0.22115	-3.8208	-3.2396	-3.8375	-3.9854	-3.0958	-4.2375	-3.8146	-3.6083	-4.0333	-3.4604	-3.8729	-4.0854	-3.2667	-4.0708	-3.7313	-3.5354	182.129	-136.296	29.196	197.315	145.174	-103.134	59.551	89.494	-149.684	27.711	127.706	-150.335	-82.731	146.590	205.923	63.177	0.0002227	0.00046488	7.8496e-05	1140.8	4.5367e-06	5.1608e-06	1018.5	310.72	4.884e-06	3.0549e-06	277.6	74.335	75.64	23.897	1.9253e-06	25.718	0.00029796	0.00034478	9.159e-05	991.23	3.6438e-06	3.5149e-06	882.34	270.54	3.6131e-06	3.8165e-06	241.65	65.44	66.068	21.133	3.7662e-06	22.454	-65.353	-65.557	-89.903	-139.914	24.665	-7.558	-141.450	-134.273	6.761	-7.604	-136.463	-132.035	-130.077	-124.892	-26.373	-128.619	-8191	255	
1498.863	1	1	0	0	0.31268	0.15797	0.17852	0.026614	0.22728	0.12451	0.29541	0.2926	0.085709	0.043273	0.29098	0.11098	0.11116	0.14225	0.033996	0.096389	-3.8208	-3.3104	-3.7396	-4.1687	-3.1854	-3.9521	-3.875	-3.55	-4.2125	-3.5604	-3.8688	-3.9458	-3.4437	-4.1479	-3.8438	-3.2021	-111.842	128.258	47.562	50.343	171.076	-137.352	137.779	140.620	191.773	96.362	139.793	-112.082	196.195	79.315	13.780	-152.070	0.00027247	0.00031331	0.00018175	1140.2	7.1057e-06	3.847e-06	1015.9	310.29	2.5566e-06	4.4768e-06	279.59	75.762	76.189	24.176	1.5264e-06	26.003	0.00028578	0.00032457	9.291e-05	992.03	3.7266e-06	3.311e-06	884.31	271.22	3.5212e-06	3.5331e-06	243.51	66.315	66.557	21.216	3.6518e-06	22.728	-57.709	-93.735	-67.758	-139.956	-2.171	-4.428	-141.055	-134.379	-21.809	-41.984	-136.529	-132.353	-129.608	-124.691	-16.813	-128.688	-8191	255	
1498.959	1	1	0	0	0.14792	0.11333	0.10674	0.17014	0.1975	0.11262	0.24913	0.18529	0.21008	0.096246	0.10304	0.15361	0.020352	0.30446	0.24945	0.17847	-3.9167	-3.4729	-3.5104	-4.2438	-3.1208	-4.0021	-4	-3.3937	-4.1667	-3.4958	-3.6125	-4.2333	-3.2167	-4.0167	-4.0146	-3.2354	97.757	179.785	-38.084	126.134	-145.207	-127.990	183.623	174.638	164.235	162.740	183.948	161.119	53.575	153.419	-66.614	161.197	0.00029788	0.00038986	9.9196e-05	1146.5	2.3345e-06	5.0638e-06	1026.2	312.11	5.2982e-06	4.4223e-06	281.38	76.158	75.767	24.085	1.9527e-06	25.572	0.00031299	0.00032457	9.335e-05	998.14	3.7236e-06	3.4488e-06	892.74	272.45	3.4828e-06	3.2738e-06	245.61	66.664	66.391	21.243	3.3915e-06	22.532	-60.247	-52.129	-44.652	-139.688	-0.438	-15.986	-141.433	-134.578	3.735	-26.614	-136.586	-132.392	-129.997	-125.222	11.746	-128.315	-8191	255	
1499.056	1	1	0	0	0.11821	0.29129	0.16809	0.093178	0.12536	0.14817	0.15435	0.085846	0.18629	0.18437	0.093944	0.01963	0.25643	0.21299	0.17876	0.39361	-3.5875	-3.7521	-3.3563	-4.2917	-3.3083	-3.8104	-4.2521	-3.3854	-3.8583	-3.5833	-3.5917	-4.3042	-3.3917	-3.6729	-4.0958	-3.3438	192.148	105.436	173.823	165.417	-17.327	40.547	83.352	1.857	46.810	177.745	10.775	-124.101	99.115	-142.977	135.470	169.934	0.00024364	0.00026267	9.1962e-05	1145.5	4.7423e-06	2.9039e-06	1018	309.45	4.5998e-06	4.2393e-06	275.34	74.322	75.621	23.748	5.786e-06	25.358	0.00028884	0.00032764	8.6087e-05	995.07	3.9456e-06	3.492e-06	884	270.01	3.5683e-06	3.4692e-06	240.4	65.363	66.279	21.028	3.2821e-06	22.258	-54.838	-56.908	-27.849	-140.276	-5.933	2.698	-141.322	-134.917	-3.897	13.536	-136.531	-132.033	-130.131	-124.637	6.643	-128.617	-8191	255	
1499.152	1	1	0	0	0.10056	0.049333	0.20401	0.15961	0.080003	0.11423	0.16553	0.21365	0.10522	0.10711	0.20364	0.087979	0.071241	0.28561	0.17937	0.24135	-3.6625	-3.6396	-3.3417	-4.2646	-3.1813	-3.7	-4.3479	-3.2854	-3.9938	-3.6583	-3.3542	-4.3125	-3.6125	-3.5958	-4.1937	-3.1604	-49.428	-18.792	194.446	-142.610	155.592	31.062	98.278	128.862	-137.977	173.777	195.636	25.362	-135.522	187.099	-118.374	165.081	0.00025252	0.00041262	0.00013268	1143.4	3.0342e-06	3.5054e-06	1014.7	309.94	1.846e-06	3.1583e-06	275.71	74.329	74.386	24.024	4.1748e-06	25.588	0.00030466	0.00031701	9.6358e-05	991.77	3.8419e-06	3.7116e-06	881.75	269.62	3.6096e-06	3.581e-06	241.83	65.457	65.541	21.116	3.4807e-06	22.398	-49.407	-50.097	-72.709	-140.035	-12.083	27.771	-141.377	-134.721	7.966	45.653	-136.523	-132.531	-129.763	-124.976	20.664	-129.132	-8191	255	
1499.248	1	1	0	0	0.1123	0.2446	0.21051	0.1134	0.16056	0.14299	0.22597	0.16757	0.041294	0.11285	0.10898	0.052071	0.10045	0.13076	0.057813	0.11401	-3.5521	-3.8646	-3.3187	-4.2812	-3.55	-3.3833	-4.3063	-3.2833	-3.8896	-4.0563	-3.3646	-4.1542	-3.5792	-3.475	-4.1417	-3.4208	24.271	78.536	-134.566	191.638	172.780	128.287	42.784	124.295	180.482	-70.989	139.285	108.363	141.193	132.011	-121.421	-1.830	0.00024921	0.00033544	8.1412e-05	1143	4.7834e-06	2.9234e-06	1021.6	311.32	3.4336e-06	3.2167e-06	278.7	75.559	75.435	24.199	4.5308e-06	25.519	0.00029882	0.00031035	9.555e-05	992.06	3.6348e-06	3.6841e-06	886.01	270.26	3.4508e-06	3.6625e-06	242.54	66.087	66.304	21.263	3.3915e-06	22.471	-62.861	-56.166	-31.031	-139.765	31.814	-13.997	-141.467	-134.803	-21.466	27.075	-136.689	-132.246	-129.885	-125.039	10.757	-128.633	-8191	255	
1499.369	1	1	0	0	0.034916	0.14884	0.1374	0.14872	0.15416	0.18592	0.40551	0.18011	0.19827	0.12828	0.049066	0.25351	0.17904	0.13758	0.11143	0.34421	-3.4271	-4.125	-3.2667	-4.3104	-3.7583	-3.2542	-4.3688	-3.3542	-3.7542	-4.0563	-3.3667	-4.0062	-3.8021	-3.3146	-4.2271	-3.525	-1.964	147.240	77.372	138.627	192.595	106.461	162.777	103.501	137.016	8.153	20.727	135.043	111.355	29.212	53.363	-142.181	0.00022144	0.00052649	8.9356e-05	1147.7	4.0031e-06	3.8001e-06	1031.2	310.74	5.9622e-06	5.0998e-06	281.52	75.65	76.13	23.921	5.2802e-06	25.645	0.00030792	0.00031333	9.4939e-05	996	3.7339e-06	3.6131e-06	893.84	271.79	3.8251e-06	3.6153e-06	244.75	66.25	66.37	21.114	3.5411e-06	22.519	-64.959	-70.162	-49.617	-140.150	-10.604	-5.530	-141.488	-134.929	4.403	-0.589	-137.136	-132.501	-129.806	-124.958	-25.362	-128.661	-8191	255	
1499.465	1	1	0	0	0.18714	0.031256	0.09383	0.27523	0.082041	0.18415	0.13403	0.14907	0.27707	0.071992	0.21345	0.098684	0.13856	0.17001	0.042882	0.3371	-3.2771	-4.0896	-3.3042	-3.9813	-3.85	-3.3063	-4.3229	-3.6167	-3.5708	-4.2583	-3.2938	-3.9875	-3.9813	-3.3583	-4.1813	-3.475	-86.756	-138.585	143.864	156.672	86.929	-122.829	168.346	96.972	-90.891	87.046	148.023	-134.568	-121.818	146.527	-101.565	121.253	0.00025365	0.00016781	9.9456e-05	1143.9	5.6118e-06	5.2387e-06	1018.4	308.01	4.6677e-06	2.4286e-06	274.88	74.142	74.99	23.882	4.5637e-06	25.303	0.00030615	0.00028572	9.6465e-05	993.81	3.6786e-06	3.6016e-06	881.63	269.06	3.6803e-06	3.3993e-06	240.36	65.043	65.858	21.045	3.4361e-06	22.155	-55.440	-12.494	-59.869	-139.791	-45.665	13.169	-141.175	-134.813	-19.256	-10.404	-136.849	-132.585	-130.534	-125.050	12.420	-129.105	-8191	255	
1499.561	1	1	0	0	0.10435	0.15087	0.19516	0.13367	0.07829	0.18967	0.11932	0.23603	0.083036	0.18411	0.071875	0.034771	0.099419	0.18102	0.14291	0.19023	-3.1542	-4.1042	-3.3208	-4.1271	-4.0125	-3.3125	-4.1979	-3.4875	-3.3167	-4.3208	-3.4917	-3.8896	-4.1396	-3.2229	-4.0104	-3.8312	-94.512	119.676	152.419	162.699	131.830	191.640	130.526	-90.554	-89.867	-76.355	43.000	-141.849	110.478	-83.540	143.485	-137.832	0.00023588	0.00032848	7.518e-05	1139.4	2.954e-06	2.7533e-06	1019.5	308.59	3.7682e-06	2.3505e-06	277.18	74.99	75.037	24.057	5.7763e-06	25.257	0.00029457	0.0003263	8.7748e-05	990.64	3.501e-06	3.722e-06	883.67	268.42	3.5186e-06	3.3636e-06	240.6	65.438	65.738	21.064	3.5545e-06	22.315	-63.437	-103.438	-47.727	-139.993	-4.068	-34.549	-141.477	-134.801	10.053	2.352	-136.793	-132.071	-130.164	-125.443	18.184	-128.624	-8191	255	
1499.657	1	1	0	0	0.078391	0.25271	0.22463	0.24498	0.068322	0.26252	0.34981	0.46171	0.1159	0.17489	0.15014	0.16984	0.11662	0.1281	0.13554	0.14146	-2.9875	-4.3479	-3.1271	-3.7625	-4.0646	-3.1792	-4.225	-3.9917	-3.2896	-4.1167	-3.6083	-3.6458	-4.2292	-3.1979	-3.8667	-3.9562	-129.005	-0.971	164.786	205.076	-73.956	-92.514	129.902	148.157	20.969	6.280	123.318	-84.187	118.416	-125.672	84.250	162.214	0.0002567	0.00048036	8.1158e-05	1139.5	3.492e-06	6.0669e-06	1022.6	308.79	6.564e-06	4.6237e-06	277.23	75.911	75.414	24.144	3.5781e-06	25.74	0.00029709	0.00029482	9.291e-05	990.67	3.7882e-06	3.7466e-06	887.35	269.46	3.6816e-06	3.4444e-06	242.37	66.186	65.956	21.171	3.7397e-06	22.584	-60.529	-101.524	-32.611	-140.005	2.516	-15.719	-141.133	-134.375	0.175	11.034	-136.812	-132.082	-129.969	-125.396	15.276	-128.852	-8191	255	
1499.751	1	1	0	0	0.21796	0.3175	0.095298	0.16576	0.088831	0.10195	0.075437	0.34501	0.11866	0.014463	0.2993	0.071685	0.13699	0.27096	0.10533	0.14279	-2.8104	-3.9604	-3.5271	-3.6542	-4.1333	-3.4562	-4.2417	-4.1917	-3.3271	-4.2292	-3.7021	-3.5125	-4.2271	-3.3583	-3.8896	-4.0792	-85.175	43.951	-141.357	77.002	-148.357	111.957	35.979	76.281	165.647	-27.519	137.072	-83.619	100.128	141.390	-8.295	-137.976	0.00022071	0.00023397	9.5929e-05	1144.4	3.3794e-06	3.3082e-06	1023.8	310.54	2.9693e-06	6.1514e-06	277.52	75.553	75.581	23.965	3.448e-06	25.487	0.00031176	0.00030785	8.9023e-05	995.32	3.5156e-06	3.592e-06	894.4	270.84	3.8805e-06	3.7498e-06	243.12	66.472	66.223	21.128	3.4136e-06	22.39	-67.260	-46.141	-39.544	-139.595	-22.653	-0.905	-141.241	-135.026	-9.130	1.440	-137.072	-131.724	-129.380	-125.322	15.110	-128.575	-8191	255	
1499.848	1	1	0	0	0.090957	0.083827	0.19378	0.11163	0.17731	0.19479	0.12733	0.19787	0.12007	0.19417	0.28007	0.032241	0.30289	0.051063	0.15703	0.17459	-2.9229	-4.1438	-3.5708	-3.5667	-4.3104	-3.3812	-3.825	-3.9917	-3.225	-4.0979	-3.7917	-3.3583	-4.2688	-3.6333	-3.7958	-4.1771	179.464	54.912	107.382	190.925	60.699	151.156	119.687	77.830	-29.903	-64.885	139.661	25.696	197.078	-81.269	-140.805	-109.847	0.00024665	0.00050383	0.00013262	1139.7	4.031e-06	1.3757e-06	1012.9	308.88	3.013e-06	1.7681e-06	276	74.21	75.076	23.642	3.0112e-06	25.377	0.00030051	0.00031105	8.7524e-05	991.81	3.6796e-06	3.5913e-06	883.97	268.83	3.6038e-06	3.6081e-06	240.13	65.165	65.678	20.956	3.6786e-06	22.28	-64.604	-77.545	-47.126	-139.619	13.881	148.582	-140.825	-134.752	-7.365	10.287	-137.056	-132.358	-129.954	-124.966	44.476	-128.730	-8191	255	
1499.968	1	1	0	0	0.044304	0.21599	0.16894	0.18315	0.096104	0.18992	0.3384	0.15071	0.27554	0.052646	0.015612	0.13457	0.039624	0.1609	0.20684	0.22095	-2.8542	-4.1	-3.7292	-3.3125	-4.2625	-3.4208	-3.6521	-4.3688	-3.1688	-3.8688	-4.0104	-3.3146	-4.0917	-3.7083	-3.4646	-4.175	-146.088	118.306	73.254	-93.807	-42.974	64.255	155.326	169.528	26.139	-32.686	31.142	194.048	-148.019	50.137	190.465	149.687	0.00024109	0.00025806	0.00010862	1138.3	4.2637e-06	5.3768e-06	1022	308.04	3.5079e-06	3.0823e-06	277.08	75.005	75.051	23.975	1.9396e-06	25.503	0.00029502	0.00033645	9.1357e-05	988.7	3.3851e-06	3.4713e-06	883.67	268.4	3.5638e-06	3.757e-06	241.14	65.412	65.903	21.079	3.6967e-06	22.459	-63.218	-59.557	-77.402	-139.922	26.101	-9.548	-140.933	-134.728	-18.427	-38.104	-136.661	-132.005	-129.553	-125.278	-25.735	-128.491	-8191	255	
1500.064	1	1	0	0	0.10163	0.17662	0.095227	0.067295	0.013417	0.19058	0.35823	0.23333	0.080954	0.13877	0.46177	0.024391	0.063092	0.21999	0.21398	0.073287	-3.1833	-3.9062	-4.1062	-3.4021	-4.0354	-3.4521	-3.6063	-4.5729	-3.2104	-3.8438	-4.1458	-3.2833	-4.2083	-3.6437	-3.3646	-4.3063	-134.793	94.153	188.421	-25.831	-21.421	-103.891	136.985	85.602	32.992	-14.665	184.523	127.116	-133.466	176.110	-26.609	25.311	0.00023088	0.00045936	0.00012135	1140	4.51e-06	4.8372e-06	1022.2	307.97	4.8866e-06	2.5674e-06	280.23	75.914	74.714	24.08	4.4232e-06	25.921	0.00030327	0.00032361	9.1097e-05	989.51	3.4914e-06	3.5566e-06	889.06	269.23	3.8776e-06	3.4901e-06	243.8	66.284	66.086	21.211	3.6055e-06	22.691	-56.280	-62.919	-38.277	-139.929	-17.424	-7.611	-141.308	-134.613	4.834	9.406	-136.546	-132.346	-130.052	-125.330	-7.279	-128.611	-8191	255	
1500.136	1	1	0	0	0.17698	0.16652	0.072216	0.36786	0.11296	0.19709	0.18201	0.22006	0.25	0.15366	0.36081	0.26353	0.058359	0.038047	0.11839	0.031487	-3.075	-3.7562	-4.0354	-3.3292	-3.9479	-3.6229	-3.5354	-4.2104	-3.2042	-3.6437	-4.1333	-3.1333	-4.1229	-3.9292	-3.3208	-4.0833	-67.932	-7.338	30.846	136.366	-97.217	179.843	-131.942	163.442	30.611	-7.934	124.666	148.361	-115.784	-29.317	-95.107	-60.865	0.00026844	0.00035222	0.00015966	1145	3.9414e-06	5.9593e-06	1023.5	311.36	3.3289e-06	2.3544e-06	281.77	75.893	75.612	24.006	3.7943e-06	25.891	0.00030519	0.00032486	8.4624e-05	994.32	3.448e-06	3.5849e-06	890.87	271.21	3.6083e-06	3.4909e-06	244.17	66.348	66.355	21.153	3.635e-06	22.645	-59.782	-25.367	-22.647	-139.704	-36.416	-3.453	-140.943	-134.509	-24.536	22.613	-136.644	-131.919	-129.745	-125.193	-30.191	-128.140	-8191	255	
1500.232	1	1	0	0	0.082738	0.2217	0.083431	0.18364	0.0431	0.030835	0.2021	0.24463	0.17566	0.23525	0.11124	0.20614	0.33829	0.24972	0.090886	0.20828	-3.0062	-3.6458	-4.1396	-3.5312	-3.9354	-3.8083	-3.2062	-4.3125	-3.5333	-3.2333	-4.35	-3.4875	-3.7583	-4.0042	-3.1896	-4.1937	-87.612	-125.258	-5.035	129.384	175.002	98.808	177.109	-115.877	207.178	83.291	101.421	176.545	110.006	53.147	198.733	130.301	0.00023803	0.00041325	0.0001082	1135.4	1.6573e-06	1.7662e-06	1018	309.59	5.2518e-06	4.9925e-06	277	75.052	74.746	23.895	6.8065e-06	25.619	0.0002989	0.00031067	8.3169e-05	987.3	3.5338e-06	3.8244e-06	884.63	269.07	3.6733e-06	3.6531e-06	241.64	65.547	65.707	21.041	3.6588e-06	22.491	-54.382	-43.048	-52.852	-139.812	99.220	27.587	-141.018	-134.739	3.713	-13.576	-136.898	-132.393	-129.766	-124.849	-16.603	-128.486	-8191	255	
1500.353	1	1	0	0	0.0409	0.10486	0.16057	0.22416	0.34305	0.096749	0.25776	0.37594	0.28521	0.15209	0.13671	0.13734	0.132	0.15562	0.30309	0.28014	-3.3167	-3.4083	-4.1917	-3.4583	-3.8667	-4.0646	-3.3521	-4.2604	-3.5792	-3.325	-4.1146	-3.3458	-3.8375	-4.1188	-3.1104	-4.1479	41.402	-74.853	-95.484	161.143	81.977	-95.064	111.649	192.300	-85.096	192.233	-66.617	170.273	179.252	153.650	-107.899	-12.368	0.00024368	0.00031232	0.00011831	1132.8	2.5731e-06	3.383e-06	1018.4	307.06	2.7705e-06	4.6572e-06	277.48	75.572	75.367	23.963	4.1342e-06	25.873	0.00028474	0.00031054	8.0252e-05	984.78	3.4569e-06	3.5145e-06	883.36	268.34	3.5705e-06	3.7793e-06	242.37	65.842	65.964	21.103	3.4844e-06	22.664	-58.982	-78.508	-34.867	-139.745	-47.840	-4.042	-141.166	-134.396	2.823	-5.437	-136.877	-132.429	-129.512	-124.918	8.864	-128.420	-8191	255	
1500.449	1	1	0	0	0.1368	0.13958	0.12398	0.034725	0.15655	0.29174	0.026927	0.078822	0.26974	0.04225	0.019227	0.087587	0.12807	0.14849	0.35611	0.25576	-3.3292	-3.425	-4.2125	-3.4479	-3.5896	-3.9271	-3.5312	-4.025	-3.8396	-3.3563	-4.1729	-3.4125	-3.6354	-4.3125	-3.2271	-4.0729	122.889	-1.439	16.326	-29.656	-102.303	-47.517	-32.014	-151.648	36.543	147.298	169.710	146.743	154.699	127.771	-121.851	154.605	0.00022639	0.00028547	8.3122e-05	1139.3	3.4618e-06	1.4593e-06	1025.1	310.31	4.1057e-06	5.572e-06	280.44	74.97	75.794	24.081	2.9608e-06	25.879	0.00029821	0.00033684	8.9274e-05	988.43	3.71e-06	3.3806e-06	888.43	269.79	3.5353e-06	3.8259e-06	243.53	66.188	66.534	21.189	3.7179e-06	22.791	-56.312	-66.013	-102.658	-140.181	16.557	3.674	-140.842	-134.488	-41.934	-14.999	-136.986	-132.795	-129.631	-125.003	35.228	-128.235	-8191	255	
1500.545	1	1	0	0	0.24285	0.1663	0.064854	0.19942	0.13713	0.13416	0.085529	0.10236	0.36091	0.075728	0.068929	0.1616	0.12726	0.17885	0.22331	0.081267	-3.6354	-3.1437	-4.0708	-3.7333	-3.4792	-4.1354	-3.3688	-3.9313	-4.0583	-3.2604	-4.3271	-3.675	-3.4417	-4.1875	-3.2188	-3.7396	-111.535	-120.688	-136.587	205.427	56.444	87.357	43.172	177.611	-118.472	-43.888	-76.101	178.240	109.491	5.096	49.645	143.379	0.00023984	0.00016597	0.00014556	1137.6	3.776e-06	5.1565e-06	1027.3	309.31	3.8234e-06	2.5516e-06	279.21	75.679	75.495	23.98	5.0855e-06	25.72	0.00027577	0.00032377	8.7712e-05	989.82	3.6262e-06	3.2242e-06	894.05	270.44	3.5987e-06	3.7909e-06	244.38	66.305	66.323	21.17	3.6112e-06	22.611	-59.674	-29.727	-73.008	-139.627	-20.746	3.066	-140.724	-134.139	1.675	-23.852	-136.331	-132.337	-129.741	-124.797	13.378	-128.125	-8191	255	
1500.641	1	1	0	0	0.014719	0.12568	0.11069	0.30609	0.076692	0.14603	0.18846	0.21568	0.22602	0.075268	0.34926	0.058375	0.36636	0.23075	0.044493	0.07871	-3.7604	-3.2875	-4.1146	-3.8875	-3.3125	-4.1687	-3.6188	-3.7875	-3.9896	-3.1583	-4.1021	-3.8958	-3.1562	-4.0167	-3.5771	-3.8125	60.827	93.353	206.723	-139.070	116.888	-121.484	114.728	200.755	76.127	81.673	165.995	38.052	180.814	144.375	41.514	144.048	0.00024618	0.00047275	0.00011528	1133.4	3.3539e-06	1.382e-06	1014.5	308.51	2.4717e-06	2.5691e-06	276.06	74.177	74.946	23.735	3.3015e-06	25.441	0.00030184	0.0003483	8.4687e-05	985.35	3.5656e-06	3.3813e-06	882.88	268.11	3.3806e-06	3.6106e-06	240.45	65.036	65.556	20.993	3.6337e-06	22.325	-61.426	-81.852	-73.022	-139.863	7.912	44.172	-141.167	-134.277	17.039	9.010	-136.307	-131.906	-129.757	-124.990	-15.821	-128.467	-8191	255	
1500.760	1	1	0	0	0.098641	0.042492	0.24539	0.14202	0.1577	0.14652	0.20191	0.10019	0.13385	0.080085	0.094367	0.25493	0.25169	0.11446	0.052189	0.19937	-3.7875	-3.3354	-4.0958	-3.9167	-3.2146	-4.2937	-3.6333	-3.7979	-4.3167	-3.3438	-3.9958	-3.8937	-3.2542	-4.2812	-3.5958	-3.6208	140.601	29.378	79.986	-122.120	10.830	-89.795	136.551	-126.366	49.527	-122.479	164.184	142.169	-51.201	140.385	112.405	-60.513	0.00028347	0.00049586	4.9627e-05	1136	4.7625e-06	3.6e-06	1011.2	306.16	2.8801e-06	2.61e-06	276.82	74.96	74.604	23.915	4.0719e-06	25.45	0.00030441	0.00033242	9.0396e-05	984.61	3.5997e-06	3.2899e-06	877.83	267.92	3.4572e-06	3.6427e-06	241.53	65.449	65.711	21.009	3.3536e-06	22.464	-57.631	-48.087	-105.044	-139.812	-24.272	33.974	-140.812	-134.302	-5.390	-12.904	-136.548	-131.768	-129.965	-124.574	-6.679	-128.534	-8191	255	
1500.832	1	1	0	0	0.19649	0.28586	0.029736	0.1503	0.091445	0.072425	0.13734	0.14906	0.10315	0.14254	0.093711	0.1804	0.10087	0.087654	0.12087	0.24081	-3.9625	-3.4938	-3.875	-4.1292	-3.275	-4.1583	-3.7167	-3.6437	-4.0771	-3.4375	-3.7604	-4.0333	-3.3208	-4.1937	-3.7104	-3.3083	70.696	-93.899	143.901	-122.896	163.471	-106.816	104.584	183.474	171.334	148.141	186.139	-102.561	178.445	162.878	98.643	124.751	0.0002267	0.00034182	5.8481e-05	1132.3	1.7362e-06	3.4314e-06	1013.8	308.43	3.1145e-06	3.3497e-06	277.49	75.565	75.667	24.038	2.092e-06	25.593	0.00029074	0.00032537	8.9705e-05	984.02	3.6103e-06	3.6206e-06	881.98	268.52	3.7117e-06	3.6481e-06	242.73	65.849	65.923	21.107	3.3965e-06	22.581	-61.044	-73.889	-91.664	-139.666	15.350	3.702	-140.733	-134.361	26.696	11.822	-136.304	-132.139	-130.069	-125.021	-0.448	-128.532	-8191	255	
1500.930	1	1	0	0	0.22833	0.11001	0.18912	0.18708	0.12317	0.16004	0.22718	0.22433	0.078325	0.1054	0.19256	0.16359	0.31449	0.1439	0.1938	0.32893	-3.9958	-3.2583	-3.6688	-4.2458	-3.0438	-4.1875	-3.9021	-3.4854	-4.2604	-3.4104	-3.6958	-4.3333	-3.4271	-4.0563	-3.9167	-3.2146	147.356	13.925	205.654	-131.323	125.194	44.515	167.407	-147.652	-124.266	159.639	106.676	189.476	-101.589	-37.290	-17.383	136.456	0.00022096	0.00026839	0.00018948	1135	1.9516e-06	4.3646e-06	1026.2	308.85	5.2563e-06	4.2889e-06	280.1	75.176	74.548	24.067	5.4472e-06	25.569	0.00029327	0.00031864	9.5316e-05	984.99	3.7422e-06	3.3706e-06	889	269.16	3.4645e-06	3.5951e-06	243.46	65.893	65.544	21.095	3.4878e-06	22.49	-58.701	-74.781	-68.702	-139.782	-22.317	16.691	-140.869	-134.208	9.370	0.415	-136.105	-132.206	-129.627	-125.025	40.635	-128.180	-8191	255	
1501.049	1	1	0	0	0.17626	0.24094	0.04562	0.20194	0.06363	0.1418	0.26809	0.21905	0.062058	0.1388	0.19606	0.068347	0.13285	0.20936	0.016728	0.08504	-3.9667	-3.6083	-3.5417	-4.0667	-3.2854	-3.9917	-3.9854	-3.3479	-4.2083	-3.6375	-3.5271	-4.2708	-3.175	-3.9875	-4.125	-3.3875	-3.896	74.267	-19.618	136.883	-45.977	-45.887	199.431	125.631	-88.546	17.053	124.019	127.425	-106.605	150.680	27.264	104.153	0.00023883	0.00033254	7.6181e-05	1127.2	2.0963e-06	3.5502e-06	1007	305.66	3.7887e-06	8.5358e-07	274.51	73.919	74.89	23.665	5.158e-06	25.217	0.00029386	0.00033703	8.9274e-05	983.22	3.7044e-06	3.6516e-06	876.3	266.52	3.3643e-06	3.4847e-06	239.1	64.959	65.463	20.81	3.6672e-06	22.155	-60.903	-102.075	-28.342	-139.887	45.765	-1.375	-141.079	-134.422	-15.614	11.039	-136.609	-132.315	-129.787	-124.516	-1.302	-127.882	-8191	255	
1501.145	1	1	0	0	0.12566	0.22472	0.14656	0.025549	0.13948	0.32315	0.14724	0.096997	0.089195	0.18003	0.20146	0.1645	0.21038	0.11187	0.22516	0.16737	-3.7146	-3.7833	-3.2146	-4.2875	-3.2604	-3.7958	-4.2958	-3.225	-4.2604	-3.375	-3.3917	-4.2688	-3.425	-3.7021	-4.0062	-3.2417	26.841	135.152	41.501	-106.109	6.830	19.971	118.613	158.860	-79.839	-29.306	-138.294	149.686	-136.865	-22.119	42.067	-147.394	0.00024106	0.00034033	0.00011606	1133	2.2706e-06	2.24e-06	1011.5	306.41	4.0871e-06	3.6169e-06	276.22	75.112	74.411	23.601	6.2288e-06	25.613	0.00029625	0.00033078	9.2587e-05	980.97	3.7591e-06	3.7598e-06	876.57	266.98	3.9093e-06	3.5817e-06	240.87	65.503	65.255	20.875	3.5478e-06	22.251	-54.138	-53.642	-78.784	-139.553	-14.373	21.676	-140.881	-134.493	21.301	-24.427	-136.142	-132.328	-129.595	-124.551	0.222	-128.451	-8191	255	
1501.241	1	1	0	0	0.10357	0.035799	0.084969	0.052339	0.075113	0.15708	0.049477	0.10928	0.18107	0.16709	0.11383	0.25281	0.13397	0.051821	0.093861	0.10843	-3.7417	-3.8625	-3.4583	-4.3458	-3.6479	-3.5229	-4.3458	-3.2354	-4.0646	-3.9813	-3.3042	-4.3146	-3.5104	-3.7104	-4.0563	-3.3812	55.002	-53.546	-100.188	49.322	27.264	56.374	-12.129	63.843	-85.602	62.974	189.097	-115.422	190.147	-29.060	-93.625	-25.477	0.0002314	0.00060598	0.00013572	1127	1.4679e-06	2.8116e-06	1014.8	306.79	7.7194e-06	3.9464e-06	278.75	75.197	74.75	23.816	4.3263e-06	25.579	0.00028314	0.00031227	8.7793e-05	979.36	3.5746e-06	3.4192e-06	881.86	267.52	3.6573e-06	3.5165e-06	242.1	65.801	65.659	20.975	3.532e-06	22.534	-52.352	-66.447	-85.998	-139.751	11.084	10.846	-140.991	-134.376	0.236	-36.260	-136.686	-131.618	-129.652	-124.430	-8.404	-128.074	-8191	255	
1501.361	1	1	0	0	0.14467	0.07406	0.041413	0.23747	0.25374	0.20214	0.1724	0.34818	0.083574	0.076128	0.14682	0.076926	0.36057	0.14182	0.060613	0.096776	-3.5667	-3.8354	-3.1688	-4.4354	-3.6479	-3.6063	-4.1875	-3.4938	-3.6833	-3.8479	-3.6188	-4.1375	-3.6375	-3.4583	-4.2854	-3.4313	200.985	64.411	-118.125	45.860	25.863	46.456	181.108	138.138	139.652	-8.071	-130.968	168.127	174.251	197.260	73.577	42.659	0.00022965	0.00041235	7.8138e-05	1139.2	1.959e-06	1.1346e-06	1024.5	308.54	4.1847e-06	5.358e-06	277.72	75.006	74.178	23.841	8.4083e-07	25.401	0.00029506	0.00031922	8.9005e-05	986.94	3.6845e-06	3.4285e-06	889.52	268.43	3.5375e-06	3.3924e-06	242.29	65.671	65.472	20.98	3.5314e-06	22.328	-55.347	-56.063	-100.769	-139.774	-32.730	63.421	-141.021	-134.236	-9.353	-2.502	-136.346	-132.203	-129.294	-124.530	95.750	-128.262	-8191	255	
1501.433	1	1	0	0	0.091123	0.12284	0.18598	0.069113	0.14103	0.11923	0.27196	0.34236	0.052104	0.16958	0.1274	0.097617	0.1622	0.19207	0.16617	0.058622	-3.4604	-3.9708	-3.1063	-4.1604	-3.6354	-3.2333	-4.4208	-3.5812	-3.825	-4.1125	-3.2167	-4.0396	-3.8146	-3.225	-4.1292	-3.3854	183.687	52.372	44.335	186.728	59.929	148.620	125.835	155.173	186.884	71.142	-34.545	-95.102	181.750	174.115	84.421	161.389	0.00026318	0.00026967	0.00015961	1135.8	3.2476e-06	2.823e-06	1008.2	303.97	2.9983e-06	2.5094e-06	273.94	73.793	74.7	23.692	3.4578e-06	25.373	0.00029678	0.00030446	9.2794e-05	981.62	3.5563e-06	3.4163e-06	877.59	265.13	3.5878e-06	3.567e-06	238.89	64.782	65.028	20.824	3.2653e-06	22.125	-54.377	-63.953	-81.614	-139.496	31.138	-2.920	-140.959	-134.344	-35.151	-6.404	-136.443	-132.181	-129.485	-124.679	-6.525	-128.228	-8191	255	
1501.529	1	1	0	0	0.066141	0.25178	0.2388	0.089352	0.13375	0.12758	0.070327	0.26951	0.17952	0.14468	0.1663	0.21732	0.071198	0.30844	0.10134	0.12522	-3.1896	-4.1458	-3.0917	-4.1542	-3.7292	-3.3042	-4.25	-3.4437	-3.6437	-4.2521	-3.2854	-3.9583	-4.1438	-3.1854	-4.0563	-3.6667	1.747	90.218	5.505	140.811	160.848	63.230	-119.992	184.068	89.052	-109.461	-135.995	178.496	71.873	33.199	-62.787	138.977	0.00025921	0.00049814	9.8213e-05	1128.1	2.5458e-06	3.3544e-06	1010.5	305.32	3.1594e-06	3.399e-06	274.8	74.891	74.65	23.595	2.9939e-06	25.431	0.00030064	0.0003206	9.2865e-05	980.81	3.6676e-06	3.657e-06	876.99	265.41	3.8116e-06	3.2871e-06	239.7	65.339	65.172	20.782	3.4502e-06	22.262	-60.202	-71.080	-39.749	-139.350	-5.445	27.323	-140.932	-134.469	-12.339	-14.913	-136.420	-131.495	-129.852	-124.842	-18.145	-128.391	-8191	255	
1501.650	1	1	0	0	0.13707	0.10637	0.24503	0.28491	0.052026	0.22662	0.13766	0.12463	0.15986	0.029632	0.11785	0.15505	0.17874	0.12435	0.045512	0.043668	-2.8646	-4.0708	-3.1167	-3.9062	-4.025	-3.3063	-4.2229	-3.7583	-3.425	-4.275	-3.4021	-3.7917	-4.0208	-3.4271	-3.9917	-3.7458	-118.902	102.705	-61.622	-136.812	-106.563	72.341	61.767	185.126	-65.682	141.860	8.199	-104.434	-146.417	61.440	-55.091	59.355	0.00024528	0.00035173	9.7279e-05	1138.3	4.3676e-06	3.0783e-06	1016.5	305.54	2.2357e-06	2.7586e-06	277.25	75.629	74.165	23.719	2.9768e-06	25.599	0.00029839	0.00032636	9.4095e-05	984.13	3.4808e-06	3.6673e-06	882.42	266.76	3.7447e-06	3.4501e-06	242.05	65.914	65.206	20.909	3.5649e-06	22.58	-55.924	-65.181	-29.843	-139.326	-9.856	-18.758	-140.526	-134.231	12.207	16.070	-136.396	-131.455	-129.473	-124.863	19.878	-127.955	-8191	255	
1501.744	1	1	0	0	0.10914	0.08126	0.09641	0.13665	0.037647	0.088499	0.26643	0.10397	0.18027	0.15683	0.17978	0.10682	0.26985	0.18364	0.092189	0.21811	-3.0438	-4.1354	-3.325	-3.7854	-3.925	-3.2167	-4.2438	-3.7083	-3.2729	-4.15	-3.5354	-3.5687	-4.1583	-3.3667	-3.9938	-4.0167	30.485	187.240	-60.901	56.623	-111.862	-2.832	79.782	33.873	193.842	23.395	140.687	202.527	106.942	203.181	-17.909	-69.639	0.00025537	0.00036411	9.1419e-05	1131.7	1.7802e-06	4.4625e-06	1023.6	305.13	2.9373e-06	1.3581e-06	279.16	75.283	74.139	23.758	3.5692e-06	25.424	0.00029964	0.0003262	9.2147e-05	984.94	3.825e-06	3.5891e-06	888.68	266.66	3.8324e-06	3.5352e-06	242.53	65.857	65.229	20.906	3.7893e-06	22.431	-54.210	-75.448	-42.932	-139.452	-41.526	23.858	-140.757	-134.313	24.901	-8.513	-136.539	-131.225	-129.918	-125.093	17.688	-128.346	-8191	255	
1501.840	1	1	0	0	0.064037	0.17244	0.019288	0.2044	0.19348	0.06855	0.21234	0.19052	0.22544	0.16303	0.11375	0.13084	0.11822	0.28174	0.2193	0.28424	-3.0458	-4.1188	-3.5187	-3.5104	-4.0729	-3.1875	-3.9479	-3.9521	-3.1521	-4.2188	-3.5646	-3.4771	-4.1354	-3.3854	-3.8042	-4.0021	-63.667	50.378	154.715	114.720	63.467	-149.263	107.554	-147.743	0.469	-74.143	-57.128	-113.201	-131.774	186.434	-57.616	75.860	0.00026174	0.00031848	0.00011351	1132.1	3.2198e-06	2.4136e-06	1011.3	303.15	3.5346e-06	3.4032e-06	272.22	74.42	74.812	23.743	1.9897e-06	25.149	0.00030631	0.00031112	9.1519e-05	978.82	3.6153e-06	3.5184e-06	877.13	264.2	3.7524e-06	3.6077e-06	238.2	65.033	65.212	20.818	3.5666e-06	22.179	-59.434	-62.774	-48.065	-139.091	11.445	-28.301	-140.454	-134.137	-4.463	-11.820	-136.013	-131.392	-129.601	-124.584	-27.634	-128.579	-8191	255	
1501.937	1	1	0	0	0.086356	0.084527	0.084457	0.089409	0.017795	0.26464	0.31476	0.41704	0.11501	0.16941	0.082897	0.2	0.19986	0.13787	0.11761	0.34623	-2.8708	-3.9938	-3.5542	-3.4458	-4.0833	-3.4604	-3.8833	-4.1479	-3.3438	-3.9229	-3.8417	-3.425	-4.3125	-3.2313	-3.575	-4.1188	10.021	99.905	183.583	126.813	-114.338	183.097	202.309	116.972	-32.877	48.662	-100.755	-128.981	-52.210	86.409	193.348	51.147	0.00022014	0.00022476	0.00011509	1130.1	2.8203e-06	2.8687e-06	1009.5	302.76	1.7666e-06	4.8662e-06	274.98	74.899	75.094	23.472	2.3245e-06	25.548	0.00030929	0.00032169	8.7793e-05	976.91	3.6501e-06	3.6545e-06	877.44	264.4	3.5305e-06	3.6405e-06	240.2	65.508	65.429	20.699	3.4401e-06	22.458	-58.139	-68.933	-94.359	-139.436	-18.666	26.834	-140.495	-134.365	-36.137	-23.355	-136.603	-131.537	-129.850	-124.669	20.477	-127.755	-8191	255	
1502.057	1	1	0	0	0.27974	0.087153	0.14272	0.25545	0.24588	0.10486	0.24781	0.023433	0.042557	0.12122	0.031412	0.14949	0.30187	0.16951	0.14412	0.10789	-2.8542	-4.0375	-3.8792	-3.3063	-4.2375	-3.4729	-3.65	-4.1604	-3.3479	-4.05	-4.0021	-3.3625	-4.2771	-3.5521	-3.5333	-4.2125	58.171	-7.401	-128.369	175.753	166.691	-7.364	24.214	197.433	-52.313	-60.773	137.709	205.694	-123.878	6.803	-148.341	111.579	0.00022418	0.00036774	0.00014593	1126.6	3.5882e-06	3.8252e-06	1014.7	303.67	5.3042e-06	1.7759e-06	277.21	75.651	74.997	23.733	1.7358e-06	25.722	0.00029211	0.00032358	9.1977e-05	980.09	3.4288e-06	3.4285e-06	881.81	265.61	3.6627e-06	3.6081e-06	241.57	66.066	65.622	20.883	3.6048e-06	22.571	-59.456	-97.509	-68.709	-139.388	5.582	5.786	-140.486	-134.372	-2.066	13.683	-136.718	-131.643	-129.243	-124.514	-7.108	-128.059	-8191	255	
1502.129	1	1	0	0	0.11973	0.17393	0.17616	0.20276	0.047667	0.065241	0.16864	0.19433	0.088002	0.3298	0.14198	0.15031	0.17679	0.18168	0.28569	0.18497	-3.0292	-3.8187	-4.0167	-3.3438	-4.15	-3.5438	-3.525	-4.2354	-3.3438	-3.7104	-3.9854	-3.2562	-4.0854	-3.55	-3.3458	-4.4	12.330	131.592	82.543	168.346	-61.158	-104.445	188.154	90.213	-147.608	182.718	-144.703	119.929	-117.364	195.701	-85.014	200.637	0.00024848	0.00023782	0.00014625	1123.5	2.5268e-06	1.2019e-06	1024.7	306.62	5.55e-06	3.2373e-06	276.86	75.365	74.336	23.693	4.3035e-06	25.39	0.00029821	0.00031544	9.3521e-05	979.47	3.6511e-06	3.3196e-06	887.06	266.5	3.9544e-06	3.6225e-06	241.33	65.831	65.143	20.798	3.4616e-06	22.315	-61.492	-90.255	-57.221	-139.239	-40.347	45.969	-140.625	-134.316	12.350	-39.104	-136.251	-131.580	-129.396	-124.807	18.467	-128.452	-8191	255	
1502.225	1	1	0	0	0.19295	0.25689	0.068716	0.13892	0.12314	0.23133	0.084044	0.14674	0.094911	0.087072	0.16728	0.22908	0.17901	0.13734	0.1553	0.21128	-3.0292	-3.7208	-3.9958	-3.3854	-3.9833	-3.7958	-3.3979	-4.3438	-3.3458	-3.7188	-4.3042	-3.3646	-4.0271	-3.9062	-3.3812	-4.2417	-58.403	-134.777	-17.951	-60.043	57.855	33.324	97.890	158.967	183.545	-3.263	-121.514	131.764	111.969	93.862	-1.862	55.333	0.00028282	0.00061954	0.00016255	1120.3	3.9038e-06	3.3509e-06	1000.4	300.5	3.5924e-06	3.4515e-06	274.18	73.828	73.898	23.356	2.842e-06	25.144	0.00031342	0.00030407	8.8942e-05	972.92	3.4871e-06	3.1717e-06	873.87	262.8	3.6016e-06	3.2554e-06	237.62	64.611	64.787	20.58	3.5834e-06	22.161	-61.370	-84.620	-62.708	-139.747	-4.038	-36.162	-141.059	-134.541	-1.739	-25.823	-136.090	-132.077	-129.491	-124.722	-27.828	-128.270	-8191	255	
1502.321	1	1	0	0	0.1324	0.1813	0.044614	0.4768	0.15348	0.26417	0.28465	0.30915	0.094767	0.069964	0.15786	0.22154	0.094713	0.18153	0.05067	0.18161	-3.1542	-3.4146	-4.0708	-3.3333	-4.0729	-3.9625	-3.3312	-4.2312	-3.5854	-3.4333	-4.4083	-3.3375	-4.0229	-4.0604	-3.0958	-4.2063	123.892	-116.457	75.897	153.882	120.187	54.051	112.606	146.621	101.761	144.700	132.950	158.207	-91.449	152.241	166.058	191.329	0.00023703	0.0002265	0.00013014	1117.7	5.4232e-06	1.4012e-06	1007.1	300.73	1.9956e-06	4.3292e-06	274.85	73.82	73.982	23.424	3.0788e-06	25.316	0.00028814	0.00029683	8.3816e-05	972.88	3.4848e-06	3.5431e-06	873.28	263.26	3.5231e-06	3.8323e-06	239.16	64.711	64.731	20.656	3.784e-06	22.271	-59.737	-79.737	-55.200	-139.650	0.190	37.603	-140.551	-134.187	-43.582	-4.375	-136.172	-131.283	-129.025	-124.765	6.672	-127.871	-8191	255	
1502.442	1	1	0	0	0.26065	0.23037	0.096652	0.28717	0.13432	0.1983	0.2991	0.024076	0.20114	0.17112	0.2078	0.074675	0.083389	0.25273	0.14053	0.22141	-3.2958	-3.2833	-4.1625	-3.3917	-3.7313	-4.0333	-3.2646	-4.225	-3.5792	-3.4271	-4.2042	-3.4083	-3.8063	-4.2792	-3.1813	-4.1292	77.175	-1.212	46.926	200.404	-23.665	-150.959	167.668	-80.590	-106.357	-138.745	126.618	81.543	-128.705	164.827	69.073	103.811	0.00026858	0.00038189	0.00010708	1129.4	1.8914e-06	2.8016e-06	1015.3	305.42	4.4461e-06	4.757e-06	275.18	74.633	74.53	23.699	3.3666e-06	25.424	0.00028553	0.00030856	8.8763e-05	975.62	3.4924e-06	3.1321e-06	878.04	265.79	3.7617e-06	3.6903e-06	240.53	65.384	65.127	20.727	3.5122e-06	22.423	-60.633	-34.645	-28.432	-139.252	-31.465	1.395	-140.490	-133.912	-13.628	37.318	-136.406	-131.393	-129.178	-124.358	-26.465	-128.143	-8191	255	
#DATA ENDS
