BOXY.EXE: ISS Imagent and Oximeter Data Acquisition Program Version 0.80
Ascii Record File

#ACQ INFORMATION
2  Detector Channels 
16  External MUX Channels 
1  Auxiliary Channels 
5000  Waveform (CCF) Frequency (Hz)
1  Waveforms Skipped 
30  Waveforms Averaged 
1  Cycles Averaged 
16  Acquisitions per Waveform 
10.0806  Updata Rate (Hz) 

#FILE INFORMATION
TRUE -- External MUX Channel results are PARSED.
FALSE -- AC DC and Phase are NOT grouped.
TRUE -- Companion Program Settings File CREATED.
FALSE -- AC data not excluded
FALSE -- DC data not excluded
FALSE -- Phase data not excluded
FALSE -- Auxillary Chn. data not excluded
Tab delimiters

#CALIBRATION STATE
TRUE -- Waveform Calibration Values APPLIED.


#AUX CALIBRATION VALUES
Val Type	aux-1	

Term	1.0000e+00	
Factor	0.0000e+00	


#WF CALIBRATION VALUES
A = Detector Channel
Val Type	A-AC1	A-AC2	A-AC3	A-AC4	A-AC5	A-AC6	A-AC7	A-AC8	A-AC9	A-AC10	A-AC11	A-AC12	A-AC13	A-AC14	A-AC15	A-AC16	A-DC1	A-DC2	A-DC3	A-DC4	A-DC5	A-DC6	A-DC7	A-DC8	A-DC9	A-DC10	A-DC11	A-DC12	A-DC13	A-DC14	A-DC15	A-DC16	A-Ph1	A-Ph2	A-Ph3	A-Ph4	A-Ph5	A-Ph6	A-Ph7	A-Ph8	A-Ph9	A-Ph10	A-Ph11	A-Ph12	A-Ph13	A-Ph14	A-Ph15	A-Ph16	

Term	0.00000e+00	0.00000e+00	0.00000e+00	0.00000e+00	0.00000e+00	0.00000e+00	0.00000e+00	0.00000e+00	0.00000e+00	0.00000e+00	0.00000e+00	0.00000e+00	0.00000e+00	0.00000e+00	0.00000e+00	0.00000e+00	0.00000e+00	0.00000e+00	0.00000e+00	0.00000e+00	0.00000e+00	0.00000e+00	0.00000e+00	0.00000e+00	0.00000e+00	0.00000e+00	0.00000e+00	0.00000e+00	0.00000e+00	0.00000e+00	0.00000e+00	0.00000e+00	0.00000e+00	0.00000e+00	0.00000e+00	0.00000e+00	0.00000e+00	0.00000e+00	0.00000e+00	0.00000e+00	0.00000e+00	0.00000e+00	0.00000e+00	0.00000e+00	0.00000e+00	0.00000e+00	0.00000e+00	0.00000e+00	
Factor	1.00000e+00	1.00000e+00	1.00000e+00	1.00000e+00	1.00000e+00	1.00000e+00	1.00000e+00	1.00000e+00	1.00000e+00	1.00000e+00	1.00000e+00	1.00000e+00	1.00000e+00	1.00000e+00	1.00000e+00	1.00000e+00	1.00000e+00	1.00000e+00	1.00000e+00	1.00000e+00	1.00000e+00	1.00000e+00	1.00000e+00	1.00000e+00	1.00000e+00	1.00000e+00	1.00000e+00	1.00000e+00	1.00000e+00	1.00000e+00	1.00000e+00	1.00000e+00	X	X	X	X	X	X	X	X	X	X	X	X	X	X	X	X	

B = Detector Channel
Val Type	B-AC1	B-AC2	B-AC3	B-AC4	B-AC5	B-AC6	B-AC7	B-AC8	B-AC9	B-AC10	B-AC11	B-AC12	B-AC13	B-AC14	B-AC15	B-AC16	B-DC1	B-DC2	B-DC3	B-DC4	B-DC5	B-DC6	B-DC7	B-DC8	B-DC9	B-DC10	B-DC11	B-DC12	B-DC13	B-DC14	B-DC15	B-DC16	B-Ph1	B-Ph2	B-Ph3	B-Ph4	B-Ph5	B-Ph6	B-Ph7	B-Ph8	B-Ph9	B-Ph10	B-Ph11	B-Ph12	B-Ph13	B-Ph14	B-Ph15	B-Ph16	

Term	0.00000e+00	0.00000e+00	0.00000e+00	0.00000e+00	0.00000e+00	0.00000e+00	0.00000e+00	0.00000e+00	0.00000e+00	0.00000e+00	0.00000e+00	0.00000e+00	0.00000e+00	0.00000e+00	0.00000e+00	0.00000e+00	0.00000e+00	0.00000e+00	0.00000e+00	0.00000e+00	0.00000e+00	0.00000e+00	0.00000e+00	0.00000e+00	0.00000e+00	0.00000e+00	0.00000e+00	0.00000e+00	0.00000e+00	0.00000e+00	0.00000e+00	0.00000e+00	-3.55938e+01	-1.27701e+02	-1.25281e+02	-1.82617e+02	-5.40153e+01	-6.01161e+01	-1.56707e+02	-1.61923e+02	-3.23848e+01	-6.96501e+01	-1.72081e+02	-1.72121e+02	-1.82310e+02	-1.75613e+02	-4.80221e+01	-1.49421e+02	
Factor	1.75935e-05	1.27067e-04	3.90881e-05	1.69756e-01	1.41494e-06	1.43045e-06	1.51472e-01	4.16107e-02	1.27005e-06	1.46452e-06	7.00974e-02	2.89022e-02	2.93523e-02	6.32495e-03	1.47419e-06	9.43134e-03	9.40978e-06	1.53733e-05	4.30930e-06	8.73817e-02	1.59016e-07	1.71387e-07	7.34779e-02	2.15944e-02	1.53695e-07	1.73083e-07	3.51862e-02	1.45699e-02	1.52597e-02	3.31565e-03	1.61020e-07	4.78232e-03	X	X	X	X	X	X	X	X	X	X	X	X	X	X	X	X	



#DISTANCE SETTINGS
A = Detector Channel
A-1	A-2	A-3	A-4	A-5	A-6	A-7	A-8	A-9	A-10	A-11	A-12	A-13	A-14	A-15	A-16	

1.0000e+01	1.0000e+01	1.0000e+01	1.4500e+00	1.0000e+01	1.0000e+01	1.5100e+00	1.9500e+00	1.0000e+01	1.0000e+01	2.0100e+00	2.5000e+00	2.4400e+00	2.9500e+00	1.0000e+01	3.0100e+00	

B = Detector Channel
B-1	B-2	B-3	B-4	B-5	B-6	B-7	B-8	B-9	B-10	B-11	B-12	B-13	B-14	B-15	B-16	

1.0000e+01	1.0000e+01	1.0000e+01	1.4500e+00	1.0000e+01	1.0000e+01	1.5100e+00	1.9500e+00	1.0000e+01	1.0000e+01	2.0100e+00	2.5000e+00	2.4400e+00	2.9500e+00	1.0000e+01	3.0100e+00	




#DATA BEGINS
time	group	step	mark	flag	A-AC1	A-AC2	A-AC3	A-AC4	A-AC5	A-AC6	A-AC7	A-AC8	A-AC9	A-AC10	A-AC11	A-AC12	A-AC13	A-AC14	A-AC15	A-AC16	A-DC1	A-DC2	A-DC3	A-DC4	A-DC5	A-DC6	A-DC7	A-DC8	A-DC9	A-DC10	A-DC11	A-DC12	A-DC13	A-DC14	A-DC15	A-DC16	A-Ph1	A-Ph2	A-Ph3	A-Ph4	A-Ph5	A-Ph6	A-Ph7	A-Ph8	A-Ph9	A-Ph10	A-Ph11	A-Ph12	A-Ph13	A-Ph14	A-Ph15	A-Ph16	B-AC1	B-AC2	B-AC3	B-AC4	B-AC5	B-AC6	B-AC7	B-AC8	B-AC9	B-AC10	B-AC11	B-AC12	B-AC13	B-AC14	B-AC15	B-AC16	B-DC1	B-DC2	B-DC3	B-DC4	B-DC5	B-DC6	B-DC7	B-DC8	B-DC9	B-DC10	B-DC11	B-DC12	B-DC13	B-DC14	B-DC15	B-DC16	B-Ph1	B-Ph2	B-Ph3	B-Ph4	B-Ph5	B-Ph6	B-Ph7	B-Ph8	B-Ph9	B-Ph10	B-Ph11	B-Ph12	B-Ph13	B-Ph14	B-Ph15	B-Ph16	aux-1	digaux	

2320.117	1	1	0	256	0.18657	0.04058	0.13685	0.084836	0.20137	0.10697	0.12396	0.13276	0.13544	0.15002	0.048385	0.10671	0.1565	0.19204	0.12636	0.16628	-3.1104	-4.15	-3.35	-3.8833	-3.9688	-3.225	-4.275	-3.6021	-3.4458	-4.1125	-3.2792	-3.7938	-4.075	-3.1979	-4.0292	-3.5167	-6.650	189.510	210.715	-77.379	8.101	4.821	191.571	39.159	73.910	52.341	89.059	260.907	207.551	42.106	-62.867	232.884	3.5971e-05	0.00045408	3.0827e-05	210.97	4.3321e-06	2.0877e-06	364.01	55.319	2.7778e-07	4.8563e-06	99.116	27.251	11.771	2.6514	3.447e-07	6.3222	0.00053177	0.0008439	0.00023729	186.44	8.887e-06	9.4081e-06	321.33	49.646	8.4199e-06	9.5982e-06	87.532	24.671	11.342	2.5	8.6458e-06	5.7491	111.704	59.205	141.203	-66.928	166.431	165.226	-68.269	-62.654	32.616	-7.544	-63.648	-59.152	-55.486	-52.558	-77.586	-58.090	-8191	255	
2320.236	1	1	0	0	0.1162	0.31492	0.22871	0.16417	0.1012	0.10341	0.14786	0.12039	0.074683	0.30994	0.11709	0.11046	0.27862	0.054348	0.12846	0.2292	-2.8479	-4.2729	-3.2729	-3.5208	-3.9292	-3.35	-4.1062	-3.5687	-3.1875	-4.0854	-3.3396	-3.8438	-4.1792	-3.1312	-3.9562	-3.7833	-60.107	203.953	217.213	87.271	224.217	25.143	190.217	111.237	63.379	-1.910	220.859	177.109	95.913	204.055	117.630	135.484	3.2568e-05	0.00027413	9.0178e-05	208.9	2.4337e-06	4.4069e-06	366.12	56.377	5.0505e-06	1.763e-06	98.107	27.409	12.082	2.6683	6.3681e-07	6.248	0.00054038	0.0008479	0.00023062	186.67	8.3235e-06	9.357e-06	322	49.94	8.5166e-06	9.6198e-06	87.464	25.005	11.366	2.5048	8.5649e-06	5.7711	268.107	123.086	-7.133	-67.921	97.458	143.875	-68.696	-62.397	93.456	-59.373	-63.902	-59.942	-56.345	-53.348	151.872	-57.584	-8191	255	
2320.332	1	1	0	0	0.22718	0.14132	0.029249	0.41642	0.24333	0.31948	0.24196	0.11793	0.1897	0.15363	0.12811	0.15871	0.22825	0.099484	0.16763	0.10511	-2.8438	-4.0771	-3.4625	-3.5792	-4.1271	-3.3688	-4.0833	-4	-3.2021	-4.1104	-3.6208	-3.3854	-4.0667	-3.3521	-3.8146	-3.9479	160.649	229.432	-10.923	219.027	-17.025	268.518	248.643	20.719	152.379	250.638	140.192	182.648	135.902	78.900	160.895	132.932	2.6969e-05	0.00025203	0.00016548	212.08	3.6542e-06	1.0473e-06	369.65	55.724	1.1621e-06	2.6178e-06	98.638	27.283	12.043	2.6438	1.3571e-06	6.2181	0.00052667	0.00082106	0.00024053	186.32	8.572e-06	9.1985e-06	323.12	49.791	8.0725e-06	9.2361e-06	87.98	25.066	11.378	2.5229	8.6843e-06	5.7233	264.286	24.810	253.894	-67.486	115.067	-53.546	-68.433	-62.456	155.511	14.620	-64.395	-60.107	-57.240	-54.701	229.352	-57.298	-8191	255	
2320.429	1	1	0	0	0.35705	0.14927	0.16357	0.31905	0.045621	0.1082	0.13542	0.10182	0.091787	0.15282	0.086985	0.05281	0.13393	0.20396	0.42948	0.03732	-2.8521	-4.0083	-3.5604	-3.2396	-4.1229	-3.3521	-3.8208	-4.1146	-3.3396	-4.0354	-3.6083	-3.4583	-4.15	-3.2583	-3.5938	-4.0125	47.425	184.203	148.109	90.478	212.548	98.659	241.611	256.441	66.306	250.717	82.427	140.188	-49.472	266.292	-40.562	39.789	1.9187e-05	0.00021593	3.5764e-05	209.9	2.9468e-06	2.9788e-06	365.96	55.486	2.3362e-06	2.2126e-06	98.909	27.695	12.022	2.6577	4.1313e-06	6.1285	0.00052861	0.00082109	0.00022685	186.11	8.4925e-06	9.4192e-06	321.31	49.472	8.491e-06	9.0595e-06	87.648	24.754	11.281	2.5145	8.7085e-06	5.6556	135.716	20.925	183.134	-67.726	139.848	80.530	-68.621	-62.321	24.429	55.158	-64.056	-59.534	-57.849	-54.678	107.937	-56.897	-8191	255	
2320.549	1	1	0	0	0.17096	0.094051	0.20027	0.31874	0.11571	0.24694	0.22383	0.16608	0.13602	0.074119	0.17356	0.22917	0.096174	0.18	0.31911	0.08301	-2.775	-3.9938	-3.6083	-3.4417	-4.2188	-3.4979	-3.675	-4.1792	-3.1375	-4.0667	-3.8333	-3.2521	-4.0542	-3.4729	-3.4	-4.1979	110.390	-25.748	103.563	31.467	65.194	-25.658	269.661	241.734	77.493	-36.694	19.001	44.394	0.276	46.829	-37.832	121.314	7.6422e-06	0.00037242	5.9302e-05	210.37	3.1286e-06	4.2773e-06	368.49	55.457	4.0898e-06	3.9851e-06	98.378	27.295	11.96	2.659	1.4525e-06	6.1291	0.00051579	0.0008275	0.00022352	185.96	8.355e-06	9.442e-06	322.25	49.832	8.3066e-06	9.2185e-06	87.019	24.813	11.353	2.4864	8.4867e-06	5.6583	178.619	105.985	11.937	-67.265	112.399	117.736	-68.273	-62.094	63.984	146.583	-63.686	-59.625	-57.967	-53.906	95.344	-57.330	-8191	255	
2320.621	1	1	0	0	0.055056	0.15077	0.39798	0.025219	0.040575	0.095607	0.27773	0.082517	0.2669	0.15394	0.30951	0.15016	0.15602	0.2609	0.18421	0.094364	-2.975	-3.9188	-3.7375	-3.2979	-4.1396	-3.5542	-3.5354	-4.2458	-3.1958	-3.9729	-3.95	-3.1458	-4.0896	-3.5625	-3.4062	-4.1646	267.014	251.651	236.600	-48.895	73.768	-54.918	156.495	-26.716	171.492	132.381	55.022	207.748	-74.561	127.468	-59.424	-3.542	3.2054e-05	0.00013063	5.0537e-05	208.87	5.6669e-06	9.056e-07	361.36	55.667	2.917e-06	4.2481e-06	98.599	27.972	11.779	2.6687	3.6978e-06	6.2784	0.00052571	0.00079333	0.00022233	186.65	8.412e-06	9.0732e-06	320.67	49.623	8.4077e-06	9.0292e-06	87.664	25.065	11.272	2.4983	9.0097e-06	5.7508	155.927	88.064	67.411	-67.020	136.555	228.195	-68.619	-61.853	204.752	35.106	-64.081	-59.890	-56.473	-53.032	155.957	-57.182	-8191	255	
2320.717	1	1	0	0	0.22816	0.11153	0.14681	0.11156	0.043466	0.15658	0.05582	0.081785	0.17017	0.18254	0.026507	0.22202	0.2565	0.23351	0.22736	0.16792	-2.8979	-3.7771	-3.875	-3.0396	-4.0188	-3.7854	-3.3792	-4.2625	-3.3625	-3.5833	-4.2458	-3.2792	-4.0979	-3.7354	-3.4458	-4.3375	232.748	84.078	257.435	234.730	-23.095	44.406	228.195	171.445	95.787	-56.860	20.234	43.545	-62.567	117.211	176.197	64.003	1.2271e-05	0.00028443	9.0132e-05	211.38	2.4544e-06	5.5803e-06	372.13	55.504	1.1623e-06	2.6464e-06	101.17	28.175	12.019	2.604	1.6099e-06	6.2673	0.00052018	0.00078663	0.00021968	186.64	8.4169e-06	9.0114e-06	324.04	49.847	8.4996e-06	8.9924e-06	88.513	25.187	11.422	2.4788	8.4854e-06	5.7523	2.666	36.250	228.982	-67.938	192.651	92.350	-68.499	-61.889	-8.735	110.098	-64.290	-60.128	-56.525	-53.292	34.488	-57.232	-8191	255	
2320.838	1	1	0	0	0.064346	0.084281	0.066962	0.21158	0.14738	0.07439	0.097978	0.18042	0.013102	0.14927	0.10366	0.071154	0.065164	0.052716	0.15879	0.13304	-2.9729	-3.4292	-4.0854	-3.2562	-4.1042	-3.9188	-3.3854	-4.2479	-3.5771	-3.7021	-4.2333	-3.2042	-3.9417	-3.8604	-3.1979	-4.3333	213.202	259.654	-43.977	267.739	10.654	-55.111	101.564	-39.699	74.488	-78.777	144.642	205.543	263.796	228.758	233.575	214.870	2.6255e-05	0.00010258	8.935e-05	205.58	2.0474e-06	1.1733e-06	368.66	55.64	4.7431e-06	3.5625e-06	96.735	27.028	12.033	2.6523	2.0248e-06	6.1115	0.00052744	0.00078772	0.00022618	185.31	8.1062e-06	8.8347e-06	321.84	49.754	8.0091e-06	9.1658e-06	86.894	24.708	11.277	2.4785	8.3059e-06	5.6247	239.951	46.864	-72.936	-67.492	94.520	276.156	-68.537	-62.183	-38.990	28.095	-64.094	-60.114	-57.268	-53.957	140.940	-58.493	-8191	255	
2320.932	1	1	0	0	0.21859	0.032239	0.14033	0.1379	0.31931	0.12011	0.2188	0.059038	0.12434	0.087925	0.11337	0.098071	0.071403	0.31168	0.075484	0.11228	-3.3854	-3.5375	-4.0292	-3.575	-3.8542	-4.0521	-3.1958	-4.1271	-3.7104	-3.525	-4.1458	-3.525	-3.7896	-4.0417	-3.4125	-4.0479	17.042	50.243	186.368	-41.920	98.525	61.564	13.572	177.029	9.093	216.293	28.567	108.435	187.439	-10.180	227.345	-10.296	9.4159e-06	5.7343e-05	0.0001105	209.14	2.0067e-06	1.8085e-06	364.83	55.611	2.7109e-07	7.893e-07	97.989	27.13	11.989	2.6217	3.1781e-06	6.0901	0.00049852	0.00079941	0.00022531	185.61	8.4915e-06	8.5197e-06	321.64	49.785	8.0632e-06	9.0212e-06	87.388	24.63	11.376	2.4709	8.6343e-06	5.636	129.665	198.765	-31.688	-66.033	222.247	36.540	-68.839	-61.773	-54.201	166.601	-63.869	-60.458	-58.137	-52.242	164.235	-57.884	-8191	255	
2321.028	1	1	0	0	0.30944	0.12898	0.27428	0.097402	0.13374	0.40892	0.047552	0.33054	0.055719	0.26663	0.14116	0.036439	0.062524	0.37388	0.11194	0.12682	-3.4042	-3.2708	-4.3125	-3.4667	-3.7708	-4.0125	-3.2542	-4.1	-3.7333	-3.3812	-4.2083	-3.5604	-3.4896	-4.2688	-3.3104	-3.9333	162.552	-9.504	151.260	271.549	-51.057	156.710	-44.524	264.694	112.826	200.581	247.497	-21.203	96.502	80.943	271.368	140.601	4.1651e-05	0.00016463	5.4945e-05	207.31	8.1821e-07	2.7245e-06	365.99	55.502	2.2795e-06	3.6659e-06	97.724	27.24	11.961	2.6443	3.2502e-06	6.3199	0.00052146	0.00079019	0.00021665	185.84	8.2215e-06	8.8704e-06	322.8	49.918	8.0312e-06	9.1644e-06	87.479	24.824	11.374	2.5026	8.628e-06	5.7318	259.186	52.891	82.588	-67.267	165.363	233.746	-68.545	-62.879	85.059	-29.696	-64.442	-60.148	-56.554	-51.822	208.451	-57.710	-8191	255	
2321.126	1	1	0	0	0.1302	0.10862	0.13573	0.064399	0.10987	0.028087	0.14666	0.25303	0.11186	0.020509	0.13569	0.16209	0.13813	0.081549	0.22574	0.22389	-3.4562	-3.375	-4.3063	-3.5625	-3.4688	-4.2562	-3.2271	-3.9646	-3.8854	-3.2938	-4.2667	-3.625	-3.5646	-4.3229	-3.1875	-3.9437	171.354	49.583	130.651	-55.840	116.633	-17.861	253.774	30.410	187.518	-4.953	-78.738	-54.477	153.295	216.291	-48.139	260.250	2.2905e-05	0.00013198	6.3616e-05	206.49	3.7147e-06	3.8863e-06	369.61	55.984	4.526e-06	2.9759e-06	99.255	27.962	12.104	2.5959	2.2308e-06	6.2713	0.00050389	0.00081011	0.00021794	185.27	8.3056e-06	8.4698e-06	324.16	50.111	7.9258e-06	9.3043e-06	88.185	25.211	11.401	2.4786	8.582e-06	5.7244	27.989	119.495	55.297	-68.023	122.686	27.736	-68.564	-62.667	102.241	140.214	-63.812	-59.764	-57.139	-53.210	257.573	-57.649	-8191	255	
2321.221	1	1	0	0	0.22139	0.14698	0.11163	0.20362	0.14325	0.053321	0.31678	0.12525	0.11397	0.20975	0.059757	0.1821	0.22341	0.083037	0.14268	0.15541	-3.65	-3.3146	-4.0042	-3.6229	-3.5042	-4.2208	-3.5479	-3.7458	-4.0417	-3.2417	-4.0271	-3.725	-3.4042	-4.05	-3.4458	-3.7583	-72.551	56.925	-38.276	251.260	-8.588	179.525	159.997	240.900	-51.968	-25.001	2.093	-10.614	-73.084	190.846	119.996	170.066	2.9452e-05	0.00031172	0.0001036	208.99	2.0709e-06	3.5097e-06	366.73	55.24	1.5939e-06	1.3223e-06	98.072	27.27	11.718	2.6289	4.4124e-06	6.1285	0.00050103	0.00078093	0.00021125	186.12	8.1393e-06	8.7233e-06	322.15	49.594	7.7203e-06	9.0735e-06	87.184	24.71	11.332	2.4937	8.373e-06	5.6563	-56.006	0.409	36.958	-67.637	136.601	143.658	-68.264	-61.490	163.146	276.680	-63.955	-60.014	-55.978	-53.235	78.455	-57.946	-8191	255	
2321.317	1	1	0	0	0.32544	0.11709	0.23592	0.29177	0.24322	0.044607	0.16385	0.20463	0.21366	0.15571	0.23582	0.10958	0.1813	0.037525	0.21715	0.27067	-3.7542	-3.2771	-3.9917	-3.7938	-3.3396	-4.2188	-3.575	-3.5917	-4.225	-3.5125	-4.0542	-4.1125	-3.4479	-4.1792	-3.5604	-3.5396	28.500	81.036	117.523	2.780	-22.242	-63.584	-35.015	234.989	110.644	247.743	28.233	-35.834	127.491	56.793	182.298	126.797	3.2022e-05	5.425e-05	4.8253e-05	206.59	1.6228e-06	2.5076e-07	363.76	56.013	1.5805e-06	2.142e-06	97.592	27.61	11.888	2.5974	1.8102e-06	6.1807	0.00047715	0.00079	0.0002181	185.42	8.2549e-06	8.7329e-06	321.25	50.049	8.2323e-06	9.0721e-06	87.604	25.061	11.311	2.502	8.2593e-06	5.7227	74.610	-71.048	-31.436	-67.714	-31.647	-31.620	-68.092	-61.916	153.225	232.084	-64.245	-59.546	-57.894	-53.095	248.084	-57.123	-8191	255	
2321.413	1	1	0	0	0.15998	0.057807	0.052647	0.12381	0.048467	0.1627	0.14343	0.058714	0.24039	0.042296	0.090111	0.040109	0.10927	0.15993	0.24395	0.31139	-3.7229	-3.5312	-3.825	-3.9542	-3.1729	-4.1875	-3.6104	-3.4938	-4.325	-3.3458	-3.8896	-4.1167	-3.3542	-4.1687	-3.7083	-3.5292	236.594	156.153	132.020	117.883	47.664	138.941	-21.247	133.530	134.222	277.146	-59.991	-41.118	237.137	189.243	-45.449	71.342	5.1479e-05	0.00043109	7.9265e-05	206.17	2.963e-06	3.0031e-06	364.6	55.71	8.2972e-07	2.3198e-06	96.547	27.501	11.855	2.6468	4.1339e-06	6.1772	0.00048623	0.00079323	0.00021726	184.81	8.1055e-06	8.7818e-06	322.22	50.071	7.8221e-06	8.648e-06	87.547	24.991	11.321	2.4898	8.2784e-06	5.7107	237.180	129.937	17.614	-67.662	131.681	134.296	-68.551	-61.918	-5.822	-64.999	-63.801	-59.521	-56.342	-53.252	78.438	-56.058	-8191	255	
2321.509	1	1	0	0	0.047627	0.030044	0.23215	0.065452	0.26912	0.093726	0.14723	0.16078	0.049117	0.10032	0.13767	0.060023	0.046277	0.025825	0.13269	0.2836	-3.9479	-3.4688	-3.7646	-4.0729	-3.3063	-4.0958	-3.8167	-3.3417	-4.2063	-3.3958	-3.6708	-4.0958	-3.3125	-4.0333	-3.9146	-3.2979	28.773	204.365	243.655	-24.159	36.171	152.980	105.039	205.911	126.882	181.604	227.567	247.620	-67.276	-67.481	79.682	-3.696	5.3179e-05	5.0618e-05	6.9651e-05	206.97	3.6404e-06	1.5687e-06	369.25	55.269	4.0399e-06	1.3843e-06	97.835	27.099	11.954	2.5815	3.4304e-06	6.288	0.00049748	0.0007851	0.00021476	186.44	8.2274e-06	8.538e-06	323.74	49.926	7.6527e-06	8.7818e-06	87.845	24.947	11.313	2.464	8.2425e-06	5.7196	-57.493	181.650	99.979	-67.542	273.312	9.422	-68.176	-61.951	90.049	60.924	-64.268	-60.173	-56.835	-54.269	169.210	-56.724	-8191	255	
2321.630	1	1	0	0	0.089424	0.084114	0.28437	0.13942	0.1473	0.12734	0.042694	0.078272	0.055002	0.32105	0.2447	0.065679	0.072806	0.21836	0.32283	0.2175	-3.9646	-3.4729	-3.4417	-4.1792	-3.2188	-3.9479	-3.7458	-3.1979	-4.1896	-3.5771	-3.5125	-4.025	-3.3479	-3.8167	-3.9917	-3.3937	-3.844	209.897	67.852	61.146	264.123	232.350	113.130	58.333	-35.070	-54.435	230.243	16.242	-70.222	-50.124	-36.678	246.759	2.6386e-05	7.0438e-05	7.3326e-05	207.27	9.6239e-07	4.4833e-06	362.75	55.025	4.8368e-06	2.317e-06	96.761	27.349	11.974	2.6494	2.756e-06	6.1363	0.00050221	0.00076101	0.0002255	185.97	8.0671e-06	8.5212e-06	321.93	49.491	7.6815e-06	8.736e-06	86.675	24.866	11.357	2.4747	7.8698e-06	5.6414	-15.478	99.388	222.913	-67.004	14.398	22.681	-68.373	-61.574	91.776	-42.840	-63.934	-59.735	-57.249	-53.878	58.554	-56.713	-8191	255	
2321.726	1	1	0	0	0.086116	0.34225	0.12206	0.14325	0.13187	0.022743	0.15207	0.095935	0.12075	0.048306	0.046214	0.11203	0.073487	0.1219	0.18798	0.092813	-3.9188	-3.6188	-3.2313	-4.3063	-3.3792	-3.7812	-4.1792	-3.2062	-4.175	-3.7104	-3.2354	-4.1792	-3.3354	-3.6625	-4.0708	-3.3292	127.229	171.744	184.461	161.445	203.494	94.709	-24.197	223.194	66.985	208.893	253.859	251.600	200.160	185.388	-27.984	-0.583	7.318e-06	0.00058816	7.6955e-05	205.08	2.979e-06	3.0294e-06	363.56	54.508	1.2996e-06	5.5857e-07	96.753	26.985	11.866	2.6038	1.4875e-06	6.1065	0.00048035	0.00079185	0.00021239	184.91	7.8484e-06	8.6733e-06	321.52	49.417	7.8685e-06	8.5348e-06	87.112	24.744	11.32	2.4587	7.8001e-06	5.6475	278.155	62.381	73.733	-67.372	177.345	262.323	-68.339	-61.162	167.497	35.833	-63.896	-59.531	-56.987	-53.577	-70.727	-56.670	-8191	255	
2321.797	1	1	0	0	0.22043	0.14684	0.07332	0.079039	0.12393	0.15719	0.030411	0.090351	0.011387	0.087237	0.28239	0.14973	0.044589	0.15644	0.20749	0.063253	-3.6646	-3.9979	-3.3812	-4.1833	-3.4417	-3.5708	-4.1833	-3.1813	-4.1438	-4.0312	-3.2833	-4.1896	-3.6146	-3.5542	-4.1667	-3.0979	-17.744	279.514	104.476	212.249	26.656	-13.210	229.696	165.138	53.699	17.087	-9.349	-76.457	150.253	205.219	257.960	136.770	7.6644e-05	0.00020942	0.00013557	208.08	2.541e-06	1.7975e-06	360.5	54.98	2.1272e-06	3.8853e-06	97.908	27.303	11.831	2.5936	1.7222e-06	6.1715	0.00049192	0.00078074	0.00020845	185.52	8.029e-06	8.5883e-06	319.84	49.453	7.3133e-06	8.6888e-06	87.344	25.006	11.253	2.4621	7.6021e-06	5.6941	-3.229	-76.299	-4.932	-68.427	73.345	207.038	-67.533	-61.662	-13.427	110.930	-63.528	-59.660	-57.125	-52.703	194.327	-57.044	-8191	255	
2321.918	1	1	0	0	0.21568	0.058936	0.12989	0.27297	0.21423	0.078188	0.24764	0.13597	0.05015	0.064372	0.046478	0.11107	0.10363	0.18556	0.13528	0.16564	-3.5521	-3.8083	-3.2625	-4.1438	-3.6583	-3.4313	-4.2542	-3.3229	-3.9354	-4.0771	-3.2708	-4.2125	-3.75	-3.2938	-4.2667	-3.4271	144.916	158.143	261.567	193.839	121.848	93.302	146.901	232.717	168.965	-59.939	61.234	-25.079	25.491	19.974	32.543	170.331	1.294e-05	9.0964e-05	5.9438e-05	206.75	1.6109e-06	1.7056e-06	365.09	55.313	1.7101e-06	2.8447e-06	98.099	26.836	11.709	2.5671	7.6204e-07	6.0328	0.00049933	0.00073558	0.00020105	184.65	8.0777e-06	8.4658e-06	321.69	49.779	7.8231e-06	8.335e-06	87.657	24.746	11.231	2.4413	8.0483e-06	5.5939	264.210	-31.325	4.624	-67.185	164.791	279.243	-67.952	-61.519	36.879	120.687	-63.429	-58.490	-55.938	-53.556	112.505	-57.071	-8191	255	
2322.012	1	1	0	0	0.23933	0.053774	0.2787	0.072842	0.32523	0.064497	0.26251	0.21769	0.036565	0.095692	0.11614	0.086863	0.1892	0.092908	0.027106	0.32578	-3.4104	-4.1375	-3.325	-4.1396	-3.7458	-3.5896	-4.375	-3.3875	-3.6604	-4.0125	-3.3771	-4.1604	-3.8792	-3.4	-4.1813	-3.2833	23.107	224.398	184.222	207.213	78.235	194.467	220.560	86.093	80.185	190.328	198.199	179.751	-52.304	199.716	267.457	122.597	4.468e-05	0.00038662	8.9614e-05	205.93	2.2919e-06	5.5565e-06	358.96	54.601	5.9383e-07	1.7937e-06	97.407	27.012	11.667	2.5819	2.5023e-06	6.0174	0.00047176	0.00076758	0.00021453	185.03	7.3737e-06	8.6226e-06	318.74	49.348	7.06e-06	7.8576e-06	86.994	24.653	11.21	2.4444	7.6099e-06	5.5537	246.959	78.045	35.948	-66.999	19.579	98.440	-68.008	-61.981	-8.934	119.247	-63.537	-59.964	-56.570	-52.689	4.981	-56.683	-8191	255	
2322.110	1	1	0	0	0.28712	0.050733	0.21147	0.092012	0.11795	0.1385	0.22238	0.033572	0.30852	0.11612	0.12984	0.099061	0.22106	0.12679	0.10106	0.19098	-3.2833	-4.1083	-3.4062	-4.0583	-3.8604	-3.4	-4.2562	-3.6979	-3.5979	-4.3021	-3.3396	-3.8187	-3.9396	-3.3708	-4.2271	-3.6542	234.871	63.597	145.382	91.621	115.065	274.578	248.293	74.469	120.240	248.789	267.073	187.708	-61.404	105.076	-13.115	242.517	3.7596e-05	0.00018201	5.4289e-05	207.44	2.0362e-06	3.0922e-06	360.07	53.385	2.2456e-06	2.9476e-06	95.541	27.652	11.877	2.5727	2.5096e-06	6.0659	0.00046251	0.00075576	0.00021958	185.89	7.6937e-06	8.4123e-06	321.25	48.853	7.3104e-06	8.6116e-06	86.112	24.887	11.261	2.4447	7.7065e-06	5.6139	248.768	74.382	-61.322	-67.912	244.415	208.639	-68.402	-61.558	142.192	-70.005	-64.375	-59.292	-56.423	-54.230	95.075	-56.452	-8191	255	
2322.229	1	1	0	0	0.041201	0.15737	0.205	0.25667	0.29732	0.078435	0.18796	0.12515	0.18719	0.23338	0.051993	0.14342	0.096551	0.098868	0.30584	0.11539	-3.1146	-4.15	-3.4625	-3.9875	-3.8187	-3.3979	-4.1583	-3.5958	-3.2542	-4.2063	-3.5833	-3.7021	-4.0771	-3.1396	-4.075	-3.7521	87.537	260.937	6.567	265.804	220.448	12.850	91.876	223.534	153.875	26.369	-42.646	-31.631	-49.257	70.716	-5.211	122.520	4.3052e-05	0.00019097	8.5389e-05	204.49	2.7779e-06	1.5086e-06	360.7	54.516	3.4686e-06	9.4333e-07	97.359	27.265	11.728	2.6143	2.1255e-06	6.0762	0.000476	0.00070919	0.00020572	183.38	7.7656e-06	8.2605e-06	320.47	49.376	7.4584e-06	7.797e-06	86.906	24.761	11.161	2.4565	7.7565e-06	5.6558	226.572	132.284	192.615	-66.886	40.723	165.571	-68.241	-62.070	-65.270	228.048	-63.720	-58.849	-57.734	-53.186	9.981	-57.033	-8191	255	
2322.325	1	1	0	0	0.20451	0.12718	0.26346	0.15435	0.23633	0.070763	0.063621	0.08023	0.1192	0.18368	0.16254	0.18361	0.12372	0.15472	0.065925	0.10988	-2.975	-4.3812	-3.2583	-3.7292	-4.1271	-3.2396	-4.1583	-3.7146	-3.3187	-4.2042	-3.6646	-3.6312	-4.2521	-3.275	-3.9958	-3.9875	201.804	63.424	16.438	-55.600	204.610	39.469	177.470	241.497	150.400	57.960	173.151	142.987	-0.426	276.225	268.357	115.666	2.7653e-05	0.00028119	8.7093e-05	205.86	2.1958e-06	1.5293e-06	362.94	54.402	5.5417e-07	5.7392e-06	95.109	27.083	11.906	2.5652	9.8095e-07	6.0941	0.0004741	0.00073882	0.00021092	184.79	7.9425e-06	8.2566e-06	321.49	49.284	7.7283e-06	8.1821e-06	86.536	24.855	11.299	2.4472	7.6394e-06	5.5863	8.582	-10.505	237.690	-67.411	35.556	-52.500	-67.428	-61.636	204.409	58.581	-63.506	-59.105	-56.558	-54.088	104.704	-56.877	-8191	255	
2322.422	1	1	0	0	0.18136	0.0061736	0.18962	0.19224	0.21832	0.18957	0.17912	0.17657	0.098744	0.14274	0.11887	0.24508	0.11058	0.20587	0.1607	0.17	-3.0271	-4.2979	-3.6146	-3.4917	-4.2063	-3.3937	-3.9104	-3.9354	-3.2354	-4.1833	-3.5354	-3.3688	-4.1917	-3.3479	-4.0729	-4.2312	267.222	-68.951	-15.015	-17.508	139.738	126.302	211.301	-55.781	238.331	0.694	152.141	-27.648	251.753	177.402	147.883	-62.066	4.3066e-05	0.00029026	7.2412e-05	208.52	1.2677e-06	2.298e-06	362.81	54.019	3.3019e-06	5.661e-06	96.635	27.01	11.682	2.5452	2.8843e-07	5.9548	0.00045488	0.0006983	0.00020027	186.02	7.382e-06	8.2677e-06	320.53	49.041	7.4379e-06	8.1955e-06	86.698	24.568	11.166	2.4359	7.5394e-06	5.5522	138.304	53.310	4.200	-67.022	97.304	98.853	-68.079	-62.112	225.715	15.633	-63.805	-59.366	-56.455	-54.254	252.765	-57.523	-8191	255	
2322.518	1	1	0	0	0.21118	0.1231	0.10602	0.035719	0.21337	0.051552	0.26462	0.11492	0.066271	0.046261	0.025078	0.062563	0.076134	0.21101	0.16928	0.045558	-3.0563	-4.0979	-3.6958	-3.4313	-4.1667	-3.4437	-3.7188	-3.9792	-3.2729	-4.1417	-3.6562	-3.2083	-4.2396	-3.5104	-3.5438	-4.1729	228.154	-31.214	68.986	103.523	170.438	-2.517	159.762	224.541	88.867	244.573	174.641	-76.880	236.090	268.594	140.553	-46.275	3.8787e-05	0.00010601	5.7228e-05	203.32	1.2805e-06	3.8491e-06	363.28	54.477	3.7991e-06	1.0403e-06	95.928	26.879	11.816	2.5658	1.6682e-06	6.084	0.00046163	0.00073737	0.00020519	184.01	7.4413e-06	8.0645e-06	320.72	49.112	7.401e-06	7.8792e-06	86.555	24.537	11.077	2.4337	7.6317e-06	5.599	-31.401	193.866	84.992	-67.156	144.037	93.320	-68.105	-61.232	-31.798	119.922	-64.018	-60.572	-56.822	-53.746	18.206	-57.180	-8191	255	
2322.614	1	1	0	0	0.13532	0.15259	0.2161	0.15529	0.18388	0.12205	0.090299	0.19966	0.066976	0.27889	0.17001	0.13186	0.31071	0.38785	0.090008	0.19172	-3.0563	-3.9333	-3.8229	-3.3396	-4.2833	-3.5083	-3.7521	-4.1979	-3.1917	-3.6979	-3.9396	-3.3063	-4.3125	-3.6458	-3.6146	-4.1958	212.986	17.109	53.929	183.385	224.143	122.285	211.245	209.606	210.968	255.525	42.530	51.382	40.186	90.221	-50.036	115.552	2.2784e-05	0.00036842	5.7823e-05	205.98	2.1916e-06	2.9189e-06	362.33	54.177	2.4231e-06	5.5404e-06	95.933	27.357	11.915	2.5538	6.1867e-06	5.9459	0.00048948	0.00071323	0.00020703	184.89	7.5427e-06	8.1291e-06	321.09	49.271	7.7107e-06	8.0563e-06	86.423	25.044	11.224	2.4384	7.6582e-06	5.5865	276.681	230.350	144.835	-67.519	71.392	249.573	-68.060	-61.972	116.588	77.007	-63.954	-59.903	-57.071	-52.548	85.605	-57.784	-8191	255	
2322.710	1	1	0	0	0.093808	0.11463	0.078354	0.24905	0.14032	0.090432	0.072911	0.11216	0.11937	0.29765	0.13501	0.1726	0.048593	0.30068	0.09141	0.24785	-3.0667	-4.125	-4.0312	-3.475	-4.1729	-3.7396	-3.6083	-4.3479	-3.4729	-3.7979	-4.1083	-3.3208	-4.1604	-3.8125	-3.4875	-4.3187	-70.928	227.821	203.906	227.124	157.409	146.426	145.001	-75.120	225.939	188.623	230.747	83.574	17.853	158.383	-19.723	-75.885	4.0148e-05	0.00044175	9.7673e-05	206.42	3.5934e-06	2.4672e-06	357.13	54.675	1.7972e-06	7.7186e-07	96.16	27.137	11.847	2.5197	1.0727e-06	5.9926	0.00047217	0.00072098	0.0001993	184.49	7.3061e-06	8.0795e-06	318.63	49.014	7.2477e-06	8.2337e-06	86.403	24.752	11.129	2.403	7.4686e-06	5.5259	-52.686	8.910	69.436	-67.230	43.384	-5.564	-67.985	-61.949	225.471	-23.802	-64.212	-59.891	-56.065	-54.790	182.961	-57.929	-8191	255	
2322.831	1	1	0	0	0.27214	0.11742	0.17678	0.16902	0.11365	0.15544	0.090899	0.044557	0.043459	0.065332	0.10462	0.046202	0.11077	0.11279	0.21452	0.10639	-2.9792	-3.7771	-4.1021	-3.1729	-4.0604	-3.8937	-3.4938	-4.275	-3.4708	-3.7021	-4.1083	-3.3771	-4.0479	-3.9708	-3.4417	-4.2958	-30.278	236.359	275.266	132.704	224.182	43.683	2.111	-73.507	180.786	239.655	142.562	211.857	138.768	100.885	-73.431	212.243	1.7336e-05	0.00013848	3.2464e-05	202.18	2.6063e-06	4.0396e-06	356.29	53.91	4.2851e-06	1.8489e-06	95.839	26.761	11.841	2.5072	1.2439e-06	6.0449	0.00045988	0.00073564	0.00019781	183.64	7.2233e-06	8.0481e-06	317.32	48.933	7.3287e-06	7.9377e-06	86.072	24.391	11.12	2.3918	7.5236e-06	5.5654	114.919	17.320	129.285	-67.029	116.952	128.403	-67.986	-61.387	68.319	126.448	-64.491	-58.744	-56.334	-53.915	21.080	-57.235	-8191	255	
2322.925	1	1	0	0	0.24073	0.21178	0.090627	0.26015	0.039858	0.10158	0.1409	0.037842	0.34507	0.018285	0.17488	0.14775	0.12796	0.14675	0.17629	0.32448	-3.3104	-3.6458	-4.2667	-3.4083	-3.8646	-4	-3.35	-4.2542	-3.4896	-3.5333	-4.3104	-3.2875	-3.9104	-3.8875	-3.2667	-4.1792	122.494	-32.613	278.152	71.165	251.232	119.067	-44.645	0.004	20.751	248.571	218.885	175.342	259.437	117.789	214.407	246.759	2.3185e-05	0.00021625	9.4411e-06	205.56	4.5304e-06	3.6426e-06	354.85	53.92	1.998e-06	2.0946e-06	94.477	26.527	11.498	2.5678	8.9451e-07	6.175	0.00046145	0.00071563	0.00020496	183.76	7.4181e-06	7.8342e-06	317.49	48.722	7.1939e-06	8.1403e-06	85.647	24.452	11.091	2.4363	7.5881e-06	5.5917	251.248	61.356	26.890	-66.530	66.311	22.922	-67.879	-61.631	233.191	103.849	-63.428	-59.015	-56.965	-52.924	116.489	-56.305	-8191	255	
2323.021	1	1	0	0	0.12403	0.28833	0.13492	0.077339	0.097859	0.10844	0.27296	0.18193	0.20541	0.11423	0.15511	0.21895	0.16962	0.26429	0.085238	0.15098	-3.4562	-3.2938	-4.2271	-3.5542	-3.9146	-4.1896	-3.3063	-4.1937	-3.7188	-3.4542	-4.4708	-3.3438	-3.7958	-4.1917	-3.2	-4.1354	215.848	-57.342	128.138	-73.562	18.223	172.358	-57.600	96.175	259.852	-62.104	249.868	159.984	-14.657	191.627	9.791	-71.941	3.9531e-05	0.00019214	9.5386e-05	203.41	2.856e-06	1.0797e-06	354.17	53.609	1.3513e-06	1.1507e-06	96.439	27.085	12.176	2.5564	3.7708e-06	6.1843	0.00043881	0.00073737	0.00019542	183.83	7.443e-06	7.7049e-06	318.09	48.88	6.9262e-06	7.9939e-06	86.33	24.625	11.229	2.4236	7.375e-06	5.6636	163.150	215.338	197.099	-67.019	83.133	213.815	-67.716	-61.071	189.568	55.676	-63.820	-58.324	-56.154	-53.903	-27.581	-57.047	-8191	255	
2323.093	1	1	0	0	0.13967	0.060068	0.091847	0.20426	0.16797	0.17223	0.27242	0.019808	0.0939	0.18588	0.13284	0.13331	0.25461	0.10401	0.29227	0.083939	-3.3021	-3.2792	-4.1958	-3.5312	-3.6833	-4.2917	-3.3063	-4.1479	-3.9062	-3.3688	-4.0958	-3.7771	-3.4292	-4.2104	-3.4125	-3.9917	-46.146	2.068	177.296	-57.439	-52.893	180.716	70.717	268.569	127.066	-49.861	75.654	-19.427	-55.163	211.824	54.441	210.185	2.3349e-05	0.00010462	3.7379e-05	201.15	3.0263e-06	2.0153e-06	355.95	54.224	2.6482e-06	5.6023e-06	95.331	26.856	11.592	2.5066	1.4925e-06	6.0743	0.00044377	0.00071912	0.00019308	182.92	7.6245e-06	7.8078e-06	318.2	49.09	7.1135e-06	7.854e-06	85.829	24.687	11.114	2.4044	7.2372e-06	5.5752	196.925	-1.120	-38.604	-66.739	262.059	47.969	-67.334	-61.757	167.853	170.456	-63.345	-59.573	-57.625	-53.023	-43.177	-57.115	-8191	255	
2323.191	1	1	0	0	0.077309	0.14482	0.14325	0.16263	0.073257	0.16117	0.10882	0.094913	0.074133	0.11588	0.10784	0.21738	0.16913	0.15245	0.096879	0.11411	-3.7208	-3.4188	-3.9917	-3.7271	-3.4375	-4.3021	-3.3187	-4.0375	-4.0333	-3.3125	-4.15	-3.6479	-3.4625	-4.275	-3.3292	-3.8458	74.499	148.492	148.000	108.836	38.589	23.085	105.201	-24.495	-45.264	131.573	-61.806	82.649	146.756	176.469	211.583	-74.807	4.8443e-05	0.00025843	5.0052e-05	205.71	1.6625e-06	3.7584e-06	353.96	53.701	1.798e-06	2.7787e-06	94.414	26.221	11.483	2.5022	3.6803e-06	5.9756	0.00046088	0.00068837	0.00019909	184.18	7.2521e-06	7.6421e-06	316.53	48.732	7.3328e-06	7.9077e-06	85.25	24.156	11.06	2.3857	7.2905e-06	5.5135	258.742	34.493	139.411	-66.883	58.546	34.651	-68.077	-61.599	224.976	65.532	-63.335	-58.428	-57.163	-52.594	98.255	-56.642	-8191	255	
2323.310	1	1	0	0	0.2053	0.018069	0.073149	0.218	0.025445	0.048975	0.19862	0.29715	0.12134	0.09065	0.072381	0.14235	0.033124	0.16192	0.15837	0.074346	-3.8917	-3.3667	-4.0854	-3.7833	-3.2687	-4.2583	-3.6833	-3.9437	-4.1479	-3.4229	-4.0833	-3.9854	-3.3333	-4.4688	-3.7396	-3.6146	-52.642	192.790	-49.875	36.239	-54.257	151.532	199.844	238.760	104.918	-21.322	31.870	252.662	-49.221	-21.144	123.198	-35.579	8.5144e-06	7.4458e-05	3.0487e-05	203.36	3.6512e-06	1.5729e-06	351.36	53.873	1.2498e-06	3.041e-06	93.827	26.684	11.743	2.5313	4.1306e-06	5.9577	0.00042462	0.00069638	0.00018665	182.12	7.4665e-06	7.5771e-06	316.29	48.684	6.8836e-06	7.9261e-06	85.496	24.504	11.139	2.4172	7.1077e-06	5.5384	-72.076	264.479	245.433	-67.405	165.488	125.899	-67.831	-61.691	230.266	-14.366	-63.742	-59.503	-55.730	-53.537	100.254	-56.812	-8191	255	
2323.406	1	1	0	0	0.19772	0.27202	0.32612	0.19393	0.087297	0.090327	0.30697	0.12267	0.063327	0.036831	0.17268	0.12123	0.022269	0.17828	0.1296	0.04124	-3.9667	-3.3063	-3.9396	-4.0729	-3.4313	-4.175	-3.5521	-3.5625	-4.2875	-3.4021	-4.075	-4.0833	-3.25	-4.2458	-3.7667	-3.6604	54.454	75.145	97.142	13.913	-64.526	76.358	177.734	173.100	-46.331	-14.927	183.537	160.217	82.035	248.318	109.035	123.066	1.6263e-05	0.00049494	0.00012492	201.61	2.5266e-06	3.047e-06	358.06	53.652	9.7295e-07	2.8338e-06	96.255	26.807	11.715	2.5775	1.336e-06	6.0726	0.00043479	0.00068142	0.00019577	182.56	7.3528e-06	7.5132e-06	318.32	48.537	6.9006e-06	7.8673e-06	86.24	24.564	11.143	2.4318	7.103e-06	5.6222	227.277	19.631	126.917	-66.329	78.794	-28.488	-68.210	-61.583	31.485	33.055	-63.550	-59.975	-57.906	-52.333	113.009	-57.993	-8191	255	
2323.502	1	1	0	0	0.083147	0.12516	0.2204	0.14891	0.1825	0.2503	0.14139	0.040843	0.31712	0.12245	0.1945	0.24939	0.25599	0.13964	0.049538	0.088162	-4.1354	-3.3479	-3.8875	-4.05	-3.4813	-4.2	-3.825	-3.4583	-4.2521	-3.5583	-3.8417	-4.1625	-3.3333	-4.0833	-3.8396	-3.3	-43.772	260.428	78.134	-30.967	145.968	140.838	176.893	172.697	135.647	122.707	-79.495	-71.041	151.035	277.527	31.555	172.284	4.2017e-05	0.00035978	0.00010849	208.59	1.3593e-06	1.5055e-06	360.55	55.085	7.3948e-07	1.6381e-06	96.444	26.761	11.605	2.5057	9.5559e-07	6.0055	0.00043499	0.0006869	0.00019727	184.59	7.4261e-06	7.9727e-06	318.8	48.958	6.8151e-06	7.9542e-06	86.319	24.434	11.05	2.3898	7.467e-06	5.5528	253.204	2.270	-72.686	-67.616	-33.551	-26.221	-68.225	-62.019	206.068	175.416	-63.708	-59.758	-56.230	-54.140	170.828	-56.744	-8191	255	
2323.598	1	1	0	0	0.087271	0.16871	0.092064	0.21658	0.23299	0.20684	0.062396	0.12207	0.19083	0.19102	0.19074	0.10226	0.13838	0.027721	0.092168	0.30112	-3.8833	-3.5229	-3.7271	-4.1125	-3.3042	-4.2146	-4.0396	-3.4542	-4.2688	-3.6542	-3.6542	-4.375	-3.3479	-3.8146	-3.8896	-3.3063	94.740	206.561	74.916	-70.606	195.045	173.221	68.165	258.258	13.702	178.184	125.817	-19.242	274.637	216.774	28.747	152.839	1.935e-05	0.00031935	7.6725e-05	201.76	2.2677e-06	1.6757e-06	359.32	54.409	4.1243e-06	3.4241e-06	95.076	26.749	11.36	2.5525	1.7145e-06	6.1094	0.0004314	0.00068703	0.00019546	182.22	7.1143e-06	7.6639e-06	317.36	49.017	6.9954e-06	7.8064e-06	85.047	24.349	11.023	2.3923	7.162e-06	5.5489	102.487	-5.031	-60.395	-67.570	30.846	137.869	-68.688	-61.899	66.573	-8.577	-63.478	-59.737	-57.386	-51.738	-63.360	-57.008	-8191	255	
2323.719	1	1	0	0	0.054509	0.13656	0.08971	0.095218	0.26833	0.059582	0.16969	0.080797	0.19164	0.15472	0.12767	0.2532	0.1749	0.24279	0.088242	0.11214	-3.8292	-3.6417	-3.5167	-4.1813	-3.3042	-3.9437	-4.1479	-3.25	-4.1937	-3.5958	-3.5583	-4.1521	-3.4271	-3.7583	-4.0646	-3.3167	240.917	277.240	225.430	213.348	77.135	158.234	101.600	19.307	64.414	112.618	212.475	118.900	15.024	235.431	5.564	225.102	1.2218e-05	3.4402e-05	7.6902e-05	204.79	1.5477e-06	2.4188e-06	362.66	55.161	6.7632e-07	4.4445e-06	95.006	26.86	12.051	2.5736	4.9184e-06	6.0191	0.00042771	0.0006811	0.00018881	182.48	7.3346e-06	7.9331e-06	317.71	48.975	6.7754e-06	7.5818e-06	85.227	24.427	11.251	2.3897	7.0792e-06	5.543	-63.359	213.314	37.258	-67.169	10.758	87.121	-68.350	-61.852	-64.954	76.705	-63.701	-60.031	-57.120	-54.391	38.993	-56.231	-8191	255	
2323.790	1	1	0	0	0.11928	0.11621	0.20919	0.16787	0.059559	0.092958	0.123	0.12736	0.1349	0.11734	0.10017	0.099095	0.11387	0.156	0.16398	0.042048	-3.9437	-3.7208	-3.5458	-4.2292	-3.3354	-3.7208	-4.0646	-3.2313	-4.0813	-3.9583	-3.3937	-4.15	-3.5292	-3.6813	-4.2292	-3.4083	55.594	104.710	42.452	198.386	118.924	246.028	32.758	218.197	44.735	92.470	-42.989	-79.251	34.107	-52.633	277.854	-21.128	3.38e-05	0.00037102	4.0963e-05	204.15	5.1317e-06	3.8865e-07	357.57	53.922	3.6786e-06	3.3633e-06	96.978	26.992	11.86	2.5877	2.0324e-06	6.1218	0.00042926	0.00067213	0.00019381	182.82	7.214e-06	7.7703e-06	317.45	48.65	6.8026e-06	7.5846e-06	86.735	24.522	11.118	2.4314	6.9423e-06	5.6397	97.556	-50.529	51.168	-67.115	180.706	41.350	-68.278	-61.239	34.572	-8.485	-63.549	-59.325	-55.647	-53.278	115.944	-56.785	-8191	255	
2323.911	1	1	0	0	0.25752	0.070378	0.21308	0.12058	0.11937	0.064574	0.14347	0.2173	0.092517	0.24959	0.27225	0.19388	0.14434	0.19709	0.11164	0.22205	-3.5729	-3.8646	-3.4083	-4.35	-3.7021	-3.6042	-4.3771	-3.4229	-3.9437	-4.0417	-3.3875	-4.1833	-3.4938	-3.5083	-4.0896	-3.4167	231.589	25.756	-24.711	153.913	199.300	20.967	269.784	259.880	66.570	149.330	216.799	-75.170	74.012	-22.355	-27.094	115.899	4.3606e-05	0.00036023	1.6728e-05	203.5	2.4476e-06	3.6625e-06	358.24	54.02	1.3569e-06	3.4528e-06	95.568	26.961	11.591	2.5412	3.853e-06	5.9332	0.00042473	0.00068309	0.00019777	182.88	7.3065e-06	7.576e-06	317.5	48.767	6.9156e-06	7.7386e-06	85.816	24.519	11.051	2.4125	7.2506e-06	5.4965	4.737	35.892	179.324	-68.028	72.897	-11.158	-68.124	-61.228	128.975	31.427	-63.392	-59.138	-57.230	-53.533	73.665	-57.432	-8191	255	
2324.005	1	1	0	0	0.12794	0.13616	0.18167	0.035079	0.12308	0.25463	0.12422	0.1519	0.11959	0.1511	0.088579	0.10985	0.21263	0.15217	0.15821	0.12002	-3.5958	-4.1396	-3.1896	-4.2604	-3.7271	-3.4146	-4.1896	-3.3792	-3.8646	-4.1771	-3.4333	-4.0604	-3.5104	-3.2604	-4.2354	-3.5875	23.031	258.276	204.878	90.311	204.416	-17.666	199.342	-60.038	-29.082	43.953	161.977	256.407	175.352	237.901	59.112	75.959	3.701e-05	0.00033907	6.7735e-05	205.65	1.8824e-06	3.5648e-06	356.38	54.144	2.6588e-06	1.407e-06	96.281	27.088	11.371	2.5146	2.8189e-06	6.0116	0.00042085	0.00065493	0.00019251	183.02	7.1382e-06	7.5525e-06	316.14	48.982	6.7491e-06	7.0643e-06	86.003	24.529	10.961	2.4007	6.8873e-06	5.5495	266.990	25.282	14.819	-67.543	134.869	203.361	-68.484	-61.264	122.943	168.025	-62.989	-60.173	-56.126	-52.666	128.820	-57.282	-8191	255	
2324.102	1	1	0	0	0.11448	0.13802	0.18309	0.25774	0.033847	0.1141	0.047997	0.11929	0.15608	0.22184	0.19913	0.11512	0.23869	0.17653	0.24925	0.041559	-3.4396	-4.2063	-3.2729	-4.1687	-3.9188	-3.4562	-4.4083	-3.5187	-3.6896	-4.1521	-3.1188	-4.2	-4.1146	-3.2229	-4.2521	-3.5542	48.751	236.102	140.813	230.208	17.826	240.630	-62.534	187.542	17.580	9.487	131.882	0.686	112.457	210.536	211.487	8.627	2.4727e-05	0.00013726	0.00012676	204.17	1.1841e-06	3.2513e-06	353.18	53.622	3.4224e-06	1.5464e-06	94.54	26.409	11.625	2.5073	4.0309e-06	6.0898	0.00042524	0.0006484	0.0001848	182.41	6.8278e-06	7.4336e-06	315.83	48.511	7.0062e-06	7.3315e-06	85.609	24.422	10.978	2.3998	6.903e-06	5.5832	225.351	274.700	3.189	-66.802	176.785	40.290	-68.103	-61.654	241.125	41.116	-63.732	-59.343	-57.035	-54.181	161.717	-57.355	-8191	255	
2324.198	1	1	0	0	0.20724	0.10011	0.092338	0.10658	0.18239	0.2	0.13481	0.1506	0.14709	0.13003	0.23599	0.23181	0.27914	0.054867	0.029105	0.17197	-3.3146	-4.2021	-3.2625	-3.9625	-3.9229	-3.3563	-4.3771	-3.6021	-3.3083	-4.1604	-3.5167	-3.9625	-4.0437	-3.1771	-4.1833	-3.7375	79.067	1.581	110.116	79.694	200.501	172.398	90.304	38.515	213.989	234.114	204.837	175.988	16.976	207.225	163.451	-3.022	2.3065e-05	5.3794e-05	0.00015409	201.67	2.683e-06	3.9907e-06	358.88	53.987	6.2373e-07	1.9084e-06	95.662	26.459	11.669	2.5582	3.9e-06	6.0005	0.00043855	0.00068209	0.00018935	181.7	6.7353e-06	7.55e-06	317.44	48.565	7.1068e-06	7.17e-06	86.359	24.605	11.053	2.4325	7.1409e-06	5.5982	261.015	51.666	28.359	-67.101	120.143	146.065	-68.348	-61.875	231.161	77.389	-62.722	-59.412	-55.889	-52.836	22.958	-57.358	-8191	255	
2324.318	1	1	0	0	0.055094	0.34698	0.26545	0.096015	0.1691	0.25262	0.1574	0.29998	0.14101	0.28515	0.09358	0.20497	0.069754	0.14153	0.26921	0.1215	-3.2021	-4.0354	-3.3563	-3.8021	-4.0563	-3.3646	-4.1375	-3.8125	-3.4458	-4.3021	-3.4896	-3.8208	-4.1333	-3.325	-3.9562	-4.0083	154.171	271.448	106.468	11.821	7.595	65.426	18.955	-21.966	192.752	47.165	105.413	-24.229	-10.109	148.452	266.805	246.562	1.4779e-05	0.0002965	3.4399e-05	201.91	1.0188e-06	1.459e-06	356.38	53.849	3.3616e-06	1.5686e-06	95.238	26.923	11.523	2.5302	2.3814e-06	5.9435	0.00042718	0.00064196	0.00018452	182.04	6.6065e-06	7.6653e-06	317.06	48.669	6.7286e-06	7.6445e-06	85.558	24.572	10.967	2.3992	6.8272e-06	5.4822	221.223	29.253	52.371	-67.076	-33.195	49.915	-67.748	-61.732	85.131	262.879	-63.251	-59.365	-55.653	-51.105	102.677	-56.732	-8191	255	
2324.390	1	1	0	0	0.13935	0.077582	0.025043	0.053765	0.031372	0.17142	0.256	0.13933	0.12294	0.11772	0.044542	0.14474	0.067346	0.14332	0.12636	0.070623	-2.9354	-4.1896	-3.6979	-3.5958	-4.2667	-3.4646	-4.1	-3.8979	-3.3604	-4.3187	-3.7208	-3.5833	-4.1792	-3.3521	-3.9271	-4.0875	-9.727	212.385	4.792	95.616	211.666	152.990	193.562	-71.491	-78.805	256.234	-4.563	-52.179	166.524	59.315	253.719	105.846	2.2443e-05	8.863e-05	4.5696e-05	202.68	1.4974e-06	2.2819e-06	349.67	54.073	2.8024e-07	4.8505e-06	94.822	26.751	11.748	2.4879	1.857e-06	5.8818	0.00044444	0.00063482	0.00018212	183.38	6.8516e-06	7.2583e-06	314.77	48.585	6.4997e-06	7.3553e-06	85.266	24.408	11.037	2.3713	7.0352e-06	5.4714	205.981	195.613	-23.182	-66.573	-52.113	-25.057	-67.984	-61.889	-53.437	17.833	-63.317	-58.845	-56.175	-54.424	137.572	-56.590	-8191	255	
2324.486	1	1	0	0	0.40591	0.081589	0.16138	0.15418	0.30785	0.18799	0.25514	0.17683	0.11067	0.16312	0.10692	0.095244	0.21155	0.29476	0.21652	0.13619	-2.8125	-4.2229	-3.7167	-3.2792	-4.2812	-3.3646	-4.0375	-4.1167	-3.4104	-4.1896	-3.7979	-3.525	-4.1854	-3.3312	-3.8208	-4.2	147.374	145.471	127.953	57.533	63.621	232.837	273.323	219.762	88.548	-77.242	-31.147	-27.582	224.268	87.281	92.478	17.412	3.951e-05	0.00043181	3.5975e-05	201.55	3.6518e-06	5.6402e-06	355.87	53.208	2.8099e-06	1.3812e-06	94.763	26.255	11.492	2.5579	5.0616e-07	5.9917	0.00042436	0.00067556	0.00017803	181.75	7.0792e-06	7.3075e-06	316.13	48.413	6.6752e-06	7.5562e-06	85.317	24.329	10.983	2.4171	6.8474e-06	5.5595	-60.509	49.458	187.336	-67.384	114.189	104.401	-68.167	-61.304	83.207	-67.713	-63.991	-57.989	-56.615	-53.297	239.618	-57.433	-8191	255	
2324.607	1	1	0	0	0.10825	0.081174	0.042277	0.23546	0.061219	0.20452	0.086069	0.14548	0.27867	0.2486	0.14408	0.078221	0.18441	0.28973	0.26292	0.093927	-2.8771	-4.1937	-3.85	-3.3667	-4.2312	-3.5292	-3.7542	-4.15	-3.1833	-4.0813	-3.9604	-3.3688	-4.25	-3.5521	-3.6229	-4.1562	-32.282	265.761	129.581	205.241	55.815	120.456	-61.139	-2.364	278.865	249.098	222.081	144.369	-23.537	188.896	17.520	219.665	1.6544e-06	7.4771e-05	9.1297e-05	202.17	1.263e-06	1.0649e-06	353.91	53.867	1.4773e-06	8.4906e-07	95.34	26.81	11.688	2.5442	1.1027e-06	6.0928	0.0004412	0.00066611	0.00018621	182.03	6.8695e-06	7.566e-06	314.91	48.482	6.8804e-06	7.3802e-06	86.065	24.624	10.998	2.3945	7.1436e-06	5.6081	-19.381	233.109	54.425	-66.706	2.146	31.011	-67.521	-61.594	-41.489	-29.278	-63.240	-59.743	-56.325	-53.832	262.075	-57.320	-8191	255	
2324.703	1	1	0	0	0.10243	0.096364	0.11039	0.15399	0.17233	0.23318	0.33191	0.13087	0.18055	0.19283	0.13998	0.11242	0.23246	0.11064	0.17411	0.093505	-3.0125	-3.9917	-3.9333	-3.4792	-4.1354	-3.4188	-3.4188	-4.2479	-3.3104	-3.85	-3.9854	-3.4292	-4.0417	-3.6521	-3.4667	-4.1167	-68.105	153.567	6.605	-13.847	-1.566	232.648	170.307	208.245	277.032	270.349	259.063	200.626	109.566	107.346	119.269	103.977	3.5257e-05	0.00016013	4.7582e-05	206.54	3.3414e-06	3.7566e-06	356.66	53.151	1.5036e-06	1.9473e-06	94.263	26.158	11.63	2.5025	4.5359e-06	6.007	0.00042058	0.00066387	0.00019105	183.18	7.006e-06	7.4764e-06	315.98	48.344	6.8794e-06	7.5767e-06	85.118	24.1	10.888	2.3771	6.9041e-06	5.5219	-45.075	212.504	-42.299	-66.669	137.245	60.055	-67.827	-61.278	149.154	271.700	-63.109	-59.941	-56.664	-53.386	97.658	-55.903	-8191	255	
2324.799	1	1	0	0	0.22759	0.15146	0.086939	0.4302	0.17353	0.11691	0.078577	0.18908	0.19413	0.19282	0.18919	0.11649	0.14461	0.20406	0.12092	0.14187	-3.2188	-3.9604	-4.0062	-3.3375	-4.1271	-3.6146	-3.5229	-4.2438	-3.4729	-3.7208	-4.1687	-3.3542	-4.0479	-3.8	-3.3896	-4.3292	186.157	269.311	212.358	216.372	69.227	2.357	-47.896	72.742	277.133	-56.201	-52.481	131.161	9.285	269.427	277.829	19.184	3.5319e-05	0.00025461	4.0747e-05	200.3	2.6196e-06	6.0757e-06	356.69	52.778	2.5298e-07	1.6491e-06	95.154	26.305	11.405	2.4755	2.4628e-06	5.9927	0.00041287	0.00065839	0.00017786	181.54	6.8887e-06	7.4068e-06	316.62	48.107	6.7606e-06	7.5287e-06	85.225	24.207	10.887	2.3654	6.8081e-06	5.5279	260.809	-34.446	110.994	-67.408	45.931	87.533	-67.888	-62.090	229.032	-54.845	-63.289	-60.340	-55.700	-53.422	134.258	-55.688	-8191	255	
2324.895	1	1	0	0	0.23061	0.13875	0.18653	0.16509	0.1768	0.07204	0.27286	0.11496	0.31531	0.2352	0.090981	0.19877	0.094876	0.083571	0.11321	0.17595	-2.9833	-3.6167	-4.0833	-3.2667	-4.0583	-3.7604	-3.4146	-4.1167	-3.4333	-3.725	-4.2417	-3.4167	-3.8604	-3.975	-3.1083	-4.2146	33.254	40.728	276.704	243.822	256.151	163.606	235.758	30.603	-72.518	-45.248	101.871	171.279	9.130	-2.574	262.552	112.784	1.6509e-05	0.00041448	6.0275e-05	201.56	7.3259e-07	1.1253e-06	366.11	54.748	2.6164e-06	2.606e-06	97.693	27.24	11.961	2.5448	8.5962e-07	6.1888	0.00043261	0.00064456	0.00018069	181.99	6.733e-06	7.4193e-06	317.24	48.844	6.882e-06	7.6777e-06	85.891	24.459	11.103	2.3917	7.2137e-06	5.5658	-48.347	6.473	-24.784	-67.573	80.014	239.036	-69.644	-63.235	23.455	149.235	-66.048	-61.555	-58.883	-54.215	2.655	-59.070	-8191	255	
2324.991	1	1	0	0	0.11175	0.17109	0.1746	0.026126	0.15468	0.091116	0.23655	0.16624	0.4114	0.1485	0.060443	0.1814	0.099651	0.052402	0.18337	0.018704	-3.2646	-3.3875	-3.9792	-3.3542	-3.7042	-4.0292	-3.3167	-4.1438	-3.6708	-3.2938	-4.3167	-3.1937	-3.6688	-4.0896	-3.2292	-4.0917	170.991	-43.412	153.391	148.683	16.903	95.850	164.660	133.853	269.615	-30.333	-32.521	202.294	108.919	73.912	180.226	98.785	6.6221e-05	0.00062582	7.6425e-05	206.15	4.444e-06	1.7425e-06	362.73	54.651	2.6501e-06	2.5207e-06	98.884	27.867	11.949	2.6147	4.7299e-07	6.1769	0.00042493	0.00067181	0.00018843	183	6.7784e-06	7.1222e-06	317.55	48.801	6.7491e-06	7.8482e-06	86.921	24.744	11.251	2.4071	7.0725e-06	5.6097	-55.850	-6.444	78.740	-68.657	101.160	82.237	-69.271	-63.694	-6.664	137.901	-65.437	-61.114	-59.230	-53.987	-32.249	-58.570	-8191	255	
2325.086	1	1	0	0	0.15068	0.22375	0.14368	0.13881	0.10587	0.37895	0.24767	0.13264	0.21182	0.19238	0.1621	0.15253	0.11091	0.11438	0.01684	0.23786	-3.5021	-3.2792	-3.9062	-3.5396	-3.4771	-4.0563	-3.3417	-4.0833	-3.8042	-3.3563	-4.1354	-3.4917	-3.4917	-4.0813	-3.2646	-3.9938	265.622	217.346	105.526	-42.456	0.951	-20.127	112.039	130.691	83.240	26.423	195.596	222.439	172.964	-55.040	74.615	215.701	4.5063e-05	0.00037231	4.9388e-05	205.75	1.1226e-06	8.9364e-07	367.25	55.214	8.7701e-07	3.8498e-06	98.319	27.51	11.882	2.5545	4.1827e-06	6.1009	0.00040929	0.000655	0.00018363	181.88	6.8281e-06	7.3847e-06	316.99	48.885	6.5503e-06	7.5673e-06	86.177	24.465	10.957	2.404	6.8926e-06	5.4568	270.895	-59.439	193.118	-68.673	1.289	7.263	-70.638	-63.689	198.429	122.478	-65.942	-61.343	-59.147	-54.335	48.358	-58.239	-8191	255	
2325.182	1	1	0	0	0.23361	0.11795	0.19765	0.10443	0.15912	0.12941	0.17775	0.090972	0.01395	0.17497	0.10376	0.1561	0.24656	0.12747	0.06454	0.075688	-3.5312	-3.1917	-4.1083	-3.4583	-3.4938	-4.1229	-3.3	-3.8583	-3.9708	-3.2313	-4.0687	-3.75	-3.3542	-4.1396	-3.2188	-3.8812	65.013	-70.536	223.482	-25.529	-61.058	89.932	188.130	-38.063	-44.091	178.832	179.034	207.836	5.103	-48.328	-54.179	31.369	1.8002e-05	0.00019652	8.8617e-05	207.59	1.5985e-06	1.1504e-06	360.6	54.464	2.3084e-06	1.7004e-06	97.237	27.015	11.914	2.6211	9.9517e-07	6.1191	0.00040078	0.00066592	0.0001841	182.9	6.9e-06	7.2586e-06	314.62	48.62	6.6614e-06	7.4336e-06	85.799	24.229	10.972	2.4098	6.9839e-06	5.5118	215.562	63.982	-42.132	-68.445	37.241	167.806	-69.167	-63.147	-68.252	181.571	-65.391	-60.936	-58.965	-56.528	248.446	-57.788	-8191	255	
2325.278	1	1	0	0	0.15507	0.18903	0.11183	0.2667	0.19933	0.089295	0.29113	0.058343	0.36585	0.27684	0.14511	0.13416	0.14891	0.1123	0.073209	0.074271	-3.7146	-3.275	-4.025	-3.7812	-3.4688	-4.275	-3.4437	-3.8146	-3.9813	-3.2104	-4.1854	-3.8187	-3.3458	-4.0792	-3.3708	-3.5625	258.931	7.821	-31.424	274.039	40.015	120.415	249.860	-59.896	256.520	109.132	-0.129	210.805	248.522	127.673	-74.398	-12.379	6.0876e-06	0.00040426	7.766e-05	208.75	3.7577e-06	2.6438e-06	361.94	54.748	2.2241e-06	3.2137e-06	97.326	27.357	12.192	2.6078	5.709e-06	6.2366	0.00039162	0.00062701	0.00018341	183.77	6.8629e-06	7.2468e-06	316.9	48.731	6.5608e-06	7.5828e-06	85.987	24.513	11.167	2.393	7.1567e-06	5.598	-13.590	10.610	-8.988	-68.744	-25.375	127.973	-69.955	-64.134	23.621	40.133	-65.021	-60.878	-58.629	-53.699	157.103	-59.007	-8191	255	
2325.399	1	1	0	0	0.18225	0.083468	0.12626	0.17157	0.13564	0.092529	0.081343	0.091834	0.12046	0.078093	0.0092758	0.1919	0.2023	0.091388	0.15485	0.11751	-3.7479	-3.1854	-4	-3.8708	-3.3958	-4.2125	-3.4771	-3.6708	-4.1479	-3.3563	-4.0104	-3.9562	-3.2146	-4.1375	-3.6437	-3.4562	132.696	35.121	-18.856	-53.825	12.949	243.717	118.436	236.138	276.783	243.853	127.741	169.237	171.438	-72.146	64.008	145.341	2.8229e-05	0.00038106	8.0244e-05	210.02	1.852e-06	1.9332e-06	366.71	55.41	2.6774e-06	3.1721e-06	98.389	27.387	11.685	2.5506	3.3346e-06	6.1151	0.00043065	0.00068101	0.0001747	183.26	6.8615e-06	7.2254e-06	318.72	48.796	6.6572e-06	7.2543e-06	86.45	24.625	11.083	2.4055	6.7363e-06	5.569	238.044	-15.149	78.530	-69.762	49.621	39.406	-69.554	-63.312	62.696	62.993	-64.751	-60.741	-58.168	-54.254	173.438	-58.755	-8191	255	
2325.493	1	1	0	0	0.13859	0.30178	0.11739	0.20496	0.12976	0.20972	0.15173	0.077795	0.2983	0.17082	0.06492	0.003113	0.088598	0.2467	0.11884	0.11281	-3.8917	-3.2333	-3.9479	-4.0312	-3.2896	-4.3438	-3.7313	-3.45	-4.1167	-3.4146	-3.8688	-4.1396	-3.2313	-4.1271	-3.7146	-3.3458	-1.172	0.643	265.641	41.556	159.500	227.517	33.781	21.932	160.528	-32.828	125.035	141.008	-20.162	89.278	128.514	91.929	3.6462e-05	0.00068736	2.6922e-05	206.76	8.9917e-07	1.4103e-06	365.45	55.818	2.8034e-06	1.5565e-06	97.736	27.419	11.725	2.587	9.4495e-07	6.1713	0.00041115	0.00062947	0.00017974	182.29	6.7082e-06	7.0055e-06	317.07	49.021	6.4488e-06	7.113e-06	85.674	24.473	10.923	2.3889	6.6488e-06	5.5357	260.223	236.932	22.220	-68.107	75.518	140.537	-69.743	-63.386	159.623	110.549	-64.666	-61.110	-57.766	-54.195	-61.563	-57.771	-8191	255	
2325.589	1	1	0	0	0.14003	0.19128	0.13858	0.22568	0.23098	0.15805	0.044893	0.12458	0.20221	0.10815	0.094415	0.24394	0.18771	0.099766	0.059506	0.17731	-3.8792	-3.4458	-3.8146	-4.2312	-3.1	-3.9688	-3.8458	-3.2833	-4.1854	-3.4833	-3.7396	-4.2063	-3.3187	-4.0583	-3.9521	-3.4646	228.421	25.283	31.169	195.383	156.961	-4.884	3.748	218.641	146.901	145.467	265.586	85.717	75.522	142.076	-13.933	-62.683	3.0759e-05	0.00010177	9.106e-05	207.36	1.4402e-06	3.3272e-06	366.1	54.512	3.4731e-06	7.0194e-07	97.005	27.097	11.648	2.5479	2.0179e-06	6.0651	0.00040995	0.000659	0.00017232	183.23	6.8387e-06	7.1272e-06	317.18	48.456	6.3585e-06	7.3124e-06	85.468	24.269	10.992	2.3921	6.6696e-06	5.5246	235.580	229.136	255.766	-69.024	-35.530	56.101	-69.810	-62.954	77.711	8.266	-64.525	-60.908	-57.861	-53.602	133.846	-57.356	-8191	255	
2325.685	1	1	0	0	0.023959	0.10739	0.19927	0.11454	0.24404	0.11551	0.27402	0.15426	0.14986	0.17174	0.16585	0.23394	0.27199	0.023417	0.10556	0.18489	-3.9167	-3.4854	-3.6854	-4.1708	-3.4354	-4.0104	-3.9479	-3.2396	-4.3187	-3.6583	-3.5208	-4.3	-3.3167	-3.9708	-3.8604	-3.5458	121.222	256.432	-3.839	160.214	33.704	75.813	184.168	100.524	96.601	136.187	-33.628	85.413	258.432	90.381	29.297	-49.230	2.2731e-05	0.00012977	7.2717e-05	205.73	1.4426e-06	2.4983e-06	354.41	53.568	9.0665e-07	1.8371e-06	95.874	26.401	11.733	2.5145	8.7658e-07	5.9668	0.00041975	0.00061022	0.00018518	183.72	6.6562e-06	7.2383e-06	314.01	48.458	6.525e-06	7.4559e-06	85.351	24.25	10.928	2.3931	6.79e-06	5.5154	-31.308	-78.527	3.342	-67.520	270.180	52.867	-68.366	-61.337	-75.057	167.107	-62.931	-59.011	-57.630	-53.441	-46.690	-56.737	-8191	255	
2325.782	1	1	0	0	0.15608	0.19664	0.14271	0.17865	0.35233	0.31961	0.10019	0.089393	0.20053	0.15744	0.096548	0.28342	0.3157	0.16363	0.093972	0.28603	-3.8604	-3.6333	-3.4875	-4.2833	-3.3875	-3.9562	-4.0708	-3.2521	-4.1854	-3.7667	-3.3812	-4.3354	-3.4813	-3.7229	-3.9688	-3.4271	78.398	-23.553	262.463	246.782	137.328	131.466	165.686	133.972	210.227	159.800	160.857	148.322	256.728	170.523	-18.173	100.249	1.7721e-05	0.00027146	6.4252e-05	205.33	5.3787e-08	3.5814e-06	355.01	54.185	1.862e-06	3.5182e-06	95.639	26.564	11.768	2.5307	4.9343e-06	6.0069	0.00040525	0.00062774	0.00017985	183.21	6.7095e-06	7.4604e-06	315.22	48.655	6.3037e-06	7.4815e-06	85.405	24.395	11.045	2.3999	6.3774e-06	5.5082	-50.262	-45.356	191.868	-66.896	-37.591	109.915	-67.975	-61.457	174.425	193.114	-63.079	-59.910	-57.110	-52.035	255.451	-58.120	-8191	255	
2325.902	1	1	0	0	0.28515	0.10616	0.12386	0.019099	0.14284	0.28183	0.12641	0.19719	0.3576	0.05095	0.17651	0.091772	0.10052	0.26833	0.12864	0.16011	-3.8063	-3.9604	-3.3396	-4.3479	-3.6417	-3.7542	-4.2292	-3.4833	-3.9479	-3.9333	-3.5292	-4.2	-3.5146	-3.6625	-4.2896	-3.4833	-41.497	78.543	107.607	274.978	-16.530	130.477	250.747	-48.284	237.535	175.429	202.187	165.310	40.858	37.901	169.081	-4.212	1.1393e-05	7.7451e-05	0.00012934	204.38	1.3711e-06	1.8464e-06	356.89	53.727	2.5465e-06	1.6502e-06	95.15	26.598	11.404	2.5043	1.1317e-06	5.9832	0.00039545	0.0006214	0.00018137	181.76	6.5064e-06	7.4696e-06	315.09	48.357	6.5029e-06	7.1732e-06	85.124	24.147	10.847	2.3909	6.6712e-06	5.4843	-45.581	66.195	-26.401	-67.931	73.476	23.011	-67.943	-62.014	107.929	177.787	-63.861	-60.183	-56.556	-53.318	227.367	-56.792	-8191	255	
2325.998	1	1	0	0	0.095147	0.078333	0.010792	0.16118	0.24508	0.054827	0.1828	0.15954	0.16013	0.24252	0.081804	0.085276	0.25222	0.0433	0.17413	0.23417	-3.4875	-4	-3.275	-4.2562	-3.7188	-3.4146	-4.3208	-3.5	-3.9062	-4.1979	-3.3542	-4.3604	-3.6146	-3.4417	-4.3333	-3.4833	-60.377	121.094	8.000	-51.539	97.079	253.067	276.974	274.805	181.735	98.039	82.581	-37.232	-2.802	110.703	-74.749	153.346	3.5777e-05	0.00024238	2.7401e-05	205.93	1.7024e-06	2.4939e-07	356.6	53.964	2.8889e-06	2.536e-06	96.165	27.243	11.872	2.5707	4.8628e-06	6.0724	0.00040505	0.00061753	0.00018256	182.17	6.4239e-06	7.2533e-06	313.33	48.408	6.6204e-06	7.3265e-06	85.178	24.339	10.972	2.411	6.7118e-06	5.4848	267.562	-18.869	215.313	-67.791	191.249	-3.120	-68.585	-61.824	-17.712	98.537	-64.431	-59.391	-59.004	-52.834	175.359	-58.128	-8191	255	
2326.094	1	1	0	0	0.075205	0.12774	0.22458	0.15077	0.091026	0.076852	0.071195	0.20805	0.11175	0.15611	0.27812	0.066064	0.37705	0.30294	0.12718	0.12539	-3.4688	-4.1458	-3.2792	-4.1708	-3.8937	-3.4437	-4.2417	-3.6292	-3.7208	-4.1875	-3.2083	-4.0917	-3.7396	-3.3354	-4.2292	-3.4146	222.804	-8.757	86.257	-66.835	18.994	219.359	171.206	-42.714	72.024	190.132	132.088	194.144	160.713	-47.952	218.358	109.956	8.3003e-06	0.00012482	7.1724e-05	209.86	2.5208e-06	2.2165e-06	366.16	54.205	3.875e-06	3.1112e-06	96.095	27.289	11.714	2.5794	3.6355e-06	6.1091	0.00039845	0.00061641	0.00017586	183.71	6.7963e-06	6.994e-06	316.61	48.323	6.5801e-06	7.4804e-06	85.182	24.549	10.998	2.4066	6.7528e-06	5.5638	-3.669	-53.787	186.921	-67.497	-70.789	264.648	-68.920	-62.028	108.503	96.856	-63.832	-59.858	-56.984	-54.121	46.880	-57.209	-8191	255	
2326.191	1	1	0	0	0.27702	0.31786	0.036462	0.082613	0.26677	0.17089	0.042568	0.20763	0.20093	0.198	0.10568	0.10662	0.10524	0.062657	0.18711	0.1211	-3.2042	-4.2146	-3.2125	-3.9667	-3.9	-3.2542	-4.2812	-3.5146	-3.4188	-4.2042	-3.3292	-3.7687	-3.9167	-3.2042	-4.1	-3.7708	202.719	154.402	147.219	-42.092	89.868	155.736	-2.150	31.315	219.885	-32.343	171.255	163.619	23.338	-66.071	103.941	49.514	2.3818e-05	8.0811e-05	7.7234e-05	205.52	1.6038e-06	3.211e-06	361.95	54.871	7.3263e-07	3.6088e-06	97.173	27.398	11.948	2.6263	5.8416e-07	6.0325	0.00042667	0.00061468	0.00018676	182.9	6.9136e-06	7.1854e-06	315.81	48.708	6.5906e-06	7.1065e-06	85.894	24.512	11.173	2.4245	6.7662e-06	5.4844	-17.371	87.683	153.513	-67.493	189.100	240.625	-68.221	-63.000	115.565	-79.943	-64.149	-59.784	-57.327	-53.401	-61.895	-57.244	-8191	255	
2326.287	1	1	0	0	0.13783	0.19301	0.23696	0.12101	0.045469	0.21025	0.071717	0.049479	0.26236	0.1009	0.16601	0.080419	0.29181	0.14289	0.20795	0.12473	-3.0417	-4.15	-3.4313	-3.9938	-4.025	-3.2562	-4.1562	-3.9	-3.3312	-4.3646	-3.6375	-3.8333	-4.1125	-3.1479	-4.0479	-3.8354	31.940	71.720	194.145	183.747	131.291	57.054	270.968	-16.066	274.666	-61.758	48.598	-6.686	8.237	192.308	-50.300	156.982	3.6498e-05	0.00018431	1.2784e-05	208.05	2.8338e-06	2.9048e-06	359.93	55.009	1.9697e-06	1.0076e-06	96.775	27.091	11.916	2.5368	2.2269e-06	5.8643	0.00043814	0.0006174	0.00017825	183.68	6.6111e-06	7.2618e-06	315.21	48.677	6.483e-06	7.1956e-06	84.908	24.23	11.111	2.3689	6.5834e-06	5.4053	204.295	-10.523	-26.284	-67.844	-68.982	96.695	-68.914	-61.735	139.266	11.168	-64.602	-59.810	-56.210	-52.930	40.314	-58.204	-8191	255	
2326.381	1	1	0	0	0.073246	0.19988	0.1442	0.18821	0.17658	0.11737	0.24942	0.14826	0.092349	0.043681	0.049586	0.16878	0.17784	0.35777	0.072805	0.14967	-2.9354	-4.1958	-3.3417	-3.6063	-4.0083	-3.3271	-4.1208	-3.8354	-3.4417	-4.1479	-3.4313	-3.5187	-4.0104	-3.1437	-3.9917	-3.975	167.642	93.988	178.078	-39.597	168.201	59.589	19.217	-42.175	-15.794	224.967	241.903	248.870	194.801	96.108	147.418	261.648	5.6439e-05	0.00040434	9.5416e-05	208.89	3.0202e-06	4.0501e-06	364.66	54.354	9.8623e-07	4.3149e-06	95.782	27.559	11.912	2.522	3.2848e-06	5.9953	0.00042009	0.00063517	0.00018203	183.96	6.5074e-06	7.3065e-06	316.3	48.466	6.5445e-06	6.8498e-06	85.331	24.296	11.07	2.3803	6.6944e-06	5.5068	-20.096	-15.402	8.731	-67.253	129.992	101.157	-68.725	-63.386	100.645	17.754	-64.374	-60.252	-57.868	-53.679	101.599	-58.627	-8191	255	
2326.477	1	1	0	0	0.11068	0.089251	0.2439	0.08958	0.12894	0.14161	0.14567	0.13089	0.065542	0.20988	0.07308	0.062172	0.091093	0.25827	0.1493	0.095183	-3.0521	-4.3542	-3.5979	-3.4188	-4.2354	-3.325	-3.9104	-4.0542	-3.2167	-4.1146	-3.8146	-3.3917	-4.1854	-3.3167	-3.6667	-3.9604	266.103	-40.090	114.591	273.027	150.625	1.578	214.972	193.828	-48.576	-74.278	71.168	211.276	170.736	200.527	273.021	155.384	2.4261e-05	0.00048366	7.7133e-05	210.49	1.6921e-06	1.858e-06	363.71	54.595	1.7715e-06	4.4316e-06	96.401	27.693	11.809	2.6054	1.6572e-06	6.153	0.00042681	0.00067921	0.00019578	183.66	6.673e-06	7.3829e-06	316.89	48.666	6.5141e-06	7.4451e-06	85.524	24.478	11.064	2.4061	7.2627e-06	5.5312	-1.192	-30.277	-81.264	-68.738	62.081	16.832	-69.446	-63.331	49.406	45.236	-64.362	-60.344	-57.920	-53.926	26.306	-57.681	-8191	255	
2326.573	1	1	0	0	0.20212	0.10706	0.17037	0.18987	0.070879	0.31014	0.10068	0.19852	0.17154	0.18705	0.21608	0.20434	0.16027	0.090054	0.11467	0.14905	-2.7125	-4.0146	-3.8042	-3.5292	-4.2354	-3.4167	-3.7875	-4.1146	-3.1437	-3.9604	-3.8396	-3.3187	-4.3021	-3.3792	-3.5604	-4.2646	66.920	157.813	-37.762	244.090	239.114	163.113	-7.979	-14.573	98.793	-59.949	114.195	41.705	13.695	133.151	108.467	66.800	3.4074e-05	0.00034833	1.4599e-05	207.96	1.3082e-06	2.4584e-06	361.91	54.121	2.0064e-06	3.6958e-06	96.685	27.302	11.493	2.6024	1.4683e-06	6.0798	0.00041211	0.0006648	0.00018469	184.1	6.7535e-06	7.2372e-06	316.19	48.421	6.3819e-06	7.519e-06	85.653	24.504	10.921	2.4154	6.8544e-06	5.4936	-26.020	136.380	78.848	-68.245	107.235	-5.317	-68.344	-61.919	103.563	256.837	-64.159	-59.080	-56.843	-54.283	27.800	-57.356	-8191	255	
2326.671	1	1	0	0	0.061833	0.16257	0.15951	0.11658	0.20826	0.13542	0.21381	0.23623	0.31168	0.15816	0.21974	0.078271	0.02647	0.2269	0.15995	0.16075	-2.875	-3.9646	-3.8771	-3.4208	-4.2458	-3.6396	-3.6437	-4.2937	-3.3167	-3.925	-3.9729	-3.3312	-3.875	-3.7104	-3.4625	-4.0375	-73.570	257.957	111.062	-19.237	130.577	10.952	85.978	66.321	210.995	165.364	212.099	258.677	82.662	182.356	1.153	161.061	3.1334e-05	0.00026698	0.00010899	209.95	7.4463e-07	2.5854e-06	357.08	54.079	8.5519e-07	3.8537e-07	96.309	26.172	11.795	2.5397	1.2775e-06	5.9819	0.00042252	0.00067034	0.00017515	184.16	6.6346e-06	7.1322e-06	313.75	48.608	6.3322e-06	6.999e-06	85.036	24.03	10.954	2.3767	7.0198e-06	5.428	16.531	229.098	154.738	-68.022	165.467	-24.975	-69.031	-62.261	-39.797	37.139	-63.511	-59.507	-56.969	-53.930	76.380	-56.906	-8191	255	
2326.790	1	1	0	0	0.22378	0.24743	0.22529	0.19173	0.17085	0.14725	0.21798	0.10213	0.057921	0.12869	0.1044	0.092691	0.1406	0.15943	0.17499	0.18	-3.0333	-3.8333	-3.9333	-3.2167	-4.0979	-3.5271	-3.4	-4.2771	-3.3688	-3.6875	-4.1042	-3.4125	-4.0979	-3.6604	-3.4042	-4.0375	27.553	238.001	11.840	81.663	175.750	46.151	260.499	-53.793	180.398	28.076	157.350	-38.051	213.821	-33.729	172.747	61.081	1.113e-05	0.00017686	7.4899e-05	204.8	3.5833e-06	1.7524e-06	360.59	55.628	7.9398e-07	1.6663e-06	96.13	27.022	11.885	2.5858	4.262e-06	6.0181	0.00042128	0.00062115	0.00017874	182.1	6.9079e-06	7.1897e-06	315.21	48.827	6.3601e-06	7.5836e-06	84.883	24.198	10.999	2.4189	6.5065e-06	5.4799	240.916	116.635	-55.739	-67.422	6.246	65.920	-68.870	-62.857	254.238	183.148	-63.960	-59.476	-56.752	-54.525	89.916	-57.820	-8191	255	
2326.886	1	1	0	0	0.088109	0.12472	0.18497	0.2635	0.045538	0.15476	0.26832	0.16373	0.38023	0.19311	0.15996	0.32913	0.29304	0.2107	0.18821	0.17954	-3.1167	-3.5917	-4.025	-3.3292	-4.025	-3.7	-3.2417	-4.1583	-3.2979	-3.6521	-4.0583	-3.2333	-3.7771	-3.9333	-3.2375	-4.0792	-46.569	219.415	270.434	263.744	239.780	148.860	207.841	-66.699	197.422	-47.549	179.025	164.547	178.435	-50.032	80.752	101.423	6.6943e-05	0.00027475	8.5455e-05	205.51	2.355e-06	1.9029e-06	361.63	55.001	2.9855e-06	1.16e-06	97.255	27.241	11.924	2.6212	1.503e-06	6.057	0.00043232	0.00064545	0.00018445	182.64	6.3759e-06	7.4332e-06	315.67	48.629	6.8369e-06	6.9496e-06	85.673	24.388	10.96	2.4192	6.9453e-06	5.536	266.755	105.617	61.439	-68.859	168.461	24.700	-69.423	-63.121	101.414	-46.119	-65.693	-60.617	-58.544	-54.997	-71.932	-57.981	-8191	255	
2326.983	1	1	0	0	0.057175	0.20208	0.10282	0.21862	0.13906	0.26801	0.22366	0.37925	0.20723	0.13082	0.039146	0.043068	0.087705	0.1405	0.23375	0.25562	-2.9542	-3.3771	-3.9708	-3.1188	-3.9021	-3.8542	-3.1771	-4.0042	-3.2958	-3.3958	-4.2292	-3.1375	-3.7458	-3.8021	-3.2979	-4.0917	198.152	185.990	167.834	81.026	-44.988	273.967	164.191	-77.873	-53.692	206.665	129.834	92.655	82.472	-59.999	161.297	-41.330	2.7604e-05	0.00013551	4.6943e-05	207.48	3.5057e-06	1.0372e-06	362.81	54.203	1.6429e-06	2.9985e-06	96.073	27.259	11.888	2.5573	4.5382e-07	6.0951	0.00041432	0.00067671	0.00018461	183.02	7.2833e-06	7.2243e-06	316.27	48.703	6.7632e-06	7.5504e-06	85.377	24.313	11.069	2.3911	7.1345e-06	5.4826	-67.926	255.874	38.771	-69.405	7.795	68.064	-70.798	-63.734	273.225	83.002	-66.506	-61.725	-59.780	-57.271	170.873	-61.181	-8191	255	
2327.079	1	1	0	0	0.22926	0.19481	0.41335	0.15543	0.21675	0.097766	0.21087	0.15682	0.091961	0.083223	0.21077	0.042213	0.099774	0.11892	0.13333	0.19822	-3.2313	-3.3187	-4.0396	-3.3583	-3.5583	-4.0333	-3.2	-4.0458	-3.6354	-3.2792	-4.2396	-3.5583	-3.5563	-4.1042	-3.1896	-4.0583	140.339	140.835	163.383	-75.486	113.186	34.041	135.504	214.428	57.682	-27.134	217.457	176.037	7.210	250.931	239.589	164.060	2.326e-05	0.00030163	6.1595e-05	206.61	4.6091e-06	2.6488e-06	363.3	54.461	2.1683e-06	3.5109e-06	96.658	26.593	11.883	2.5422	2.8878e-06	5.9379	0.00040564	0.00068088	0.00018128	182.11	6.6296e-06	7.0772e-06	316.13	48.343	7.0043e-06	7.4112e-06	84.965	24.058	11.062	2.3728	6.6551e-06	5.454	274.425	-6.141	275.849	-69.990	57.450	-34.802	-70.853	-64.068	54.459	31.626	-66.638	-62.321	-59.528	-56.270	9.578	-60.318	-8191	255	
2327.175	1	1	0	0	0.15007	0.090326	0.10734	0.089397	0.3823	0.026165	0.33126	0.23007	0.19746	0.14556	0.22611	0.087045	0.13367	0.29795	0.058286	0.1181	-3.4188	-3.1979	-4.0771	-3.3125	-3.4542	-3.9708	-3.2479	-3.9479	-3.8396	-3.2812	-4.0125	-3.3042	-3.4229	-4.1167	-3.2354	-3.8125	47.817	-58.256	29.073	-37.763	-71.332	102.420	224.783	-82.228	275.569	42.786	-63.709	-11.713	147.057	-5.808	43.109	48.786	4.761e-05	0.00019292	2.1999e-05	207.95	8.0672e-07	3.4563e-06	358.78	55.364	2.4163e-06	3.1468e-06	96.68	26.661	11.899	2.5542	1.7589e-06	6.014	0.00042981	0.000664	0.00017623	182.95	7.0033e-06	7.1511e-06	314.13	48.657	6.5407e-06	7.3751e-06	85.49	24.294	11.067	2.3646	7.3955e-06	5.4548	264.754	97.601	-61.202	-69.858	218.048	159.990	-70.986	-64.945	150.493	76.376	-66.834	-62.503	-58.445	-55.009	-20.123	-60.009	-8191	255	
2327.271	1	1	0	0	0.16835	0.012845	0.21155	0.13042	0.2098	0.24131	0.28649	0.21958	0.11637	0.13049	0.16125	0.19414	0.10122	0.14039	0.3002	0.13006	-3.6188	-3.2333	-4.0792	-3.5312	-3.4583	-4.1521	-3.3667	-3.4896	-4.0125	-3.2542	-4.1062	-3.6021	-3.2687	-4.225	-3.4021	-3.6333	238.908	-63.765	-21.074	-68.985	42.529	138.235	33.704	61.739	173.385	232.392	153.255	124.004	-41.693	101.061	-8.794	-36.264	3.7702e-05	0.00013481	9.5482e-05	207.44	4.8691e-06	4.1328e-06	358.84	54.393	1.8902e-06	1.4297e-06	96.639	27.46	11.959	2.5345	4e-06	6.0912	0.00041613	0.00066256	0.0001808	182.08	7.1385e-06	7.1515e-06	315.29	48.584	6.7642e-06	7.2334e-06	85.641	24.432	11.086	2.3926	6.847e-06	5.5461	246.282	223.344	211.979	-70.017	98.839	-9.206	-70.696	-64.243	26.125	-40.899	-66.343	-61.882	-59.375	-56.309	210.115	-59.551	-8191	255	
2327.392	1	1	0	0	0.042066	0.21209	0.1506	0.16712	0.16899	0.20283	0.19332	0.084131	0.18804	0.089456	0.085471	0.14387	0.065521	0.069335	0.12574	0.17877	-3.8438	-3.3104	-3.9958	-3.6542	-3.1437	-4.2354	-3.4125	-3.7146	-3.9271	-3.125	-3.7521	-3.85	-3.1188	-4.0354	-3.475	-3.5438	-63.271	101.173	258.612	255.539	105.431	195.351	138.013	-43.242	204.226	223.236	198.702	256.603	237.873	-36.533	46.999	-41.503	5.3268e-05	0.00015501	5.2037e-05	206.02	3.7294e-06	1.8857e-06	361.75	55.134	1.9252e-06	1.9012e-06	96.498	27.229	11.633	2.5701	3.7762e-06	6.16	0.00041695	0.00069439	0.00018183	182.97	7.2223e-06	7.2143e-06	315.53	48.82	6.2659e-06	7.1516e-06	85.57	24.383	11.025	2.4289	7.1905e-06	5.5315	33.170	-22.116	-69.142	-69.346	57.752	97.084	-70.625	-64.135	141.674	220.576	-66.757	-61.860	-59.459	-56.537	86.945	-59.337	-8191	255	
2327.486	1	1	0	0	0.39212	0.12753	0.22037	0.10433	0.1052	0.27001	0.27345	0.19976	0.17126	0.22204	0.1036	0.071897	0.061496	0.081676	0.19063	0.086587	-3.8	-3.3375	-3.9833	-3.9562	-3.2083	-3.9542	-3.5667	-3.3708	-4.05	-3.1833	-3.7938	-3.8417	-3.3583	-4.125	-3.6458	-3.275	174.514	-12.408	116.559	72.724	95.114	150.134	164.149	226.798	236.971	231.579	133.464	106.593	18.199	-29.391	159.725	27.743	2.2662e-05	0.00013179	8.6847e-06	210.1	2.6893e-06	1.9078e-06	361.63	54.65	4.99e-06	1.2425e-06	94.729	26.858	11.467	2.5784	1.6768e-06	5.964	0.0004232	0.00062665	0.00018305	184.13	6.8569e-06	7.3004e-06	315.19	48.47	6.532e-06	7.6744e-06	84.493	24.128	10.892	2.3767	6.9896e-06	5.4488	-60.129	52.263	35.932	-70.113	-50.901	-28.234	-70.475	-63.898	7.053	172.567	-66.208	-61.234	-59.098	-55.917	265.993	-59.273	-8191	255	
2327.582	1	1	0	0	0.20398	0.10974	0.20465	0.14415	0.14705	0.209	0.19198	0.19815	0.11783	0.24997	0.025707	0.061039	0.34365	0.16054	0.047457	0.20462	-3.9229	-3.2792	-3.7896	-4.0333	-3.2562	-4.1438	-3.6937	-3.3063	-3.9917	-3.3604	-3.6688	-3.975	-3.1792	-3.9771	-3.6458	-3.3958	-9.462	31.020	4.963	215.293	227.452	-74.666	10.968	-34.976	165.947	173.693	-55.888	104.283	-39.542	-49.323	115.440	252.587	2.3858e-05	0.00027216	5.7341e-05	208.75	4.5399e-07	3.7972e-06	360.07	55.367	2.1205e-06	2.5803e-06	96.572	26.971	11.862	2.6382	2.6747e-06	6.0481	0.0003999	0.00069017	0.00018124	182.33	6.846e-06	7.4429e-06	314.79	48.776	6.2471e-06	7.6045e-06	85.277	24.21	11.068	2.4205	6.8672e-06	5.4815	209.577	224.378	-42.739	-69.174	156.591	103.944	-70.586	-63.829	70.387	61.353	-65.946	-61.524	-57.321	-55.280	18.710	-58.527	-8191	255	
2327.678	1	1	0	0	0.075173	0.17292	0.11074	0.076991	0.15143	0.15401	0.018017	0.30236	0.25247	0.05298	0.24138	0.27057	0.16976	0.10942	0.091149	0.10388	-3.8771	-3.3292	-3.4875	-4.0813	-3.2604	-3.8833	-3.8063	-3	-4.2417	-3.4979	-3.4479	-4.0563	-3.2604	-3.8354	-3.9792	-3.2646	39.701	203.854	225.092	7.427	65.554	154.848	181.856	228.507	208.709	247.930	79.895	49.596	104.963	-20.154	-14.994	-56.646	8.0569e-06	0.00020403	0.00013939	207.05	4.6733e-06	3.6347e-06	360.27	54.132	2.6408e-06	1.4293e-06	96.018	27.568	11.59	2.6369	1.1149e-06	6.1201	0.00042828	0.00066775	0.00018804	182.63	6.6171e-06	7.4593e-06	315.35	48.314	6.6934e-06	7.5287e-06	85.164	24.471	11.036	2.4276	6.7122e-06	5.539	225.115	-38.669	20.249	-68.938	256.116	100.947	-70.277	-63.532	65.762	160.546	-65.487	-62.016	-58.621	-54.459	146.663	-59.163	-8191	255	
2327.774	1	1	0	0	0.099927	0.22388	0.13233	0.10509	0.34295	0.18028	0.36045	0.091711	0.18057	0.14751	0.084458	0.17456	0.082638	0.25273	0.087617	0.30084	-3.8354	-3.5542	-3.4354	-4.2312	-3.2729	-3.8042	-4.0604	-3.1292	-4.1646	-3.6833	-3.4021	-4.2375	-3.4396	-3.7833	-4.0938	-3.3208	122.848	254.216	78.126	-34.462	-22.805	-17.034	261.973	-4.143	105.731	-65.732	210.350	92.603	153.166	239.156	81.386	42.845	3.4432e-05	0.00032611	9.8916e-05	205.85	3.1095e-06	3.2356e-06	363.84	54.353	6.8381e-07	2.3831e-06	96.445	26.959	11.849	2.551	2.2583e-06	6.0343	0.00041625	0.00067489	0.00018826	182.92	7.0375e-06	7.0822e-06	317.11	48.548	6.402e-06	7.4231e-06	85.256	24.124	10.994	2.3932	6.9571e-06	5.4739	211.957	118.241	-45.299	-69.605	274.118	68.240	-70.568	-63.872	231.040	126.678	-65.593	-62.173	-57.791	-55.713	-23.653	-59.166	-8191	255	
2327.871	1	1	0	0	0.11355	0.17719	0.038346	0.16237	0.24816	0.1199	0.1262	0.026974	0.18989	0.057554	0.1376	0.069463	0.045513	0.14457	0.035063	0.061421	-3.6729	-3.7208	-3.2	-4.0875	-3.4021	-3.6542	-4.2188	-3.3583	-4.0396	-3.8604	-3.1771	-4.1438	-3.4521	-3.4542	-4.2125	-3.3563	-34.174	203.335	262.165	43.210	107.512	257.906	33.440	217.902	245.714	46.571	-59.654	130.636	224.790	45.397	-43.314	39.939	3.6062e-05	0.00017527	0.00011556	208.66	5.4604e-06	2.6419e-06	356.61	54.214	4.9933e-06	3.0264e-06	96.183	26.918	11.509	2.498	3.9317e-06	5.9748	0.00041211	0.0006434	0.00018343	184.03	6.6797e-06	7.28e-06	312.91	48.328	6.6572e-06	7.3809e-06	85.105	24.261	10.873	2.3617	6.9762e-06	5.4711	125.046	176.255	-25.688	-69.277	104.190	-72.317	-69.960	-64.527	-38.920	111.949	-66.089	-61.858	-59.163	-54.799	91.790	-59.545	-8191	255	
2327.967	1	1	0	0	0.10865	0.068197	0.20859	0.026096	0.23661	0.089378	0.071617	0.074874	0.26899	0.23991	0.18421	0.15859	0.23971	0.052333	0.10758	0.078605	-3.4417	-3.7646	-3.2167	-4.0083	-3.4562	-3.4208	-4.2854	-3.3312	-3.8708	-3.8833	-3.3063	-4.1937	-3.5	-3.4583	-4.3083	-3.2167	3.667	185.496	228.017	-29.557	2.942	73.989	247.232	204.429	-76.147	40.563	189.182	268.342	211.565	15.008	113.397	135.049	5.2172e-05	0.0002578	9.6426e-05	206.81	1.3728e-06	2.334e-06	357.46	53.95	1.5217e-06	2.3311e-06	95.019	26.848	11.709	2.6016	2.6091e-06	6.0306	0.00041534	0.00065141	0.00018522	183.4	6.9974e-06	7.0451e-06	314.52	48.297	6.5016e-06	7.1278e-06	84.673	24.355	10.998	2.3984	6.573e-06	5.5107	-70.281	-44.146	-19.880	-68.974	231.065	85.704	-70.802	-64.561	150.279	129.624	-65.813	-61.768	-59.665	-55.758	2.627	-59.404	-8191	255	
2328.087	1	1	0	0	0.057455	0.12287	0.06539	0.13527	0.26217	0.20369	0.20519	0.10536	0.33459	0.13876	0.2259	0.13538	0.19945	0.10574	0.13045	0.18185	-3.4396	-4.0104	-3.1042	-4.1604	-3.7146	-3.4562	-4.1479	-3.3854	-3.6271	-4.1229	-3.4354	-3.9896	-3.5438	-3.3021	-4.0729	-3.2125	7.206	75.560	215.811	141.401	128.423	146.170	252.546	156.678	138.964	50.460	235.991	41.058	265.224	200.354	89.239	95.875	1.8067e-05	7.9775e-05	6.6534e-05	208.6	1.6134e-06	3.4151e-06	362.1	54.703	2.3749e-06	5.2484e-06	97.334	27.057	11.854	2.5901	4.0474e-06	5.9721	0.00041423	0.00068386	0.00019276	183.24	6.8016e-06	7.3504e-06	316.94	48.541	6.475e-06	7.0286e-06	85.759	24.447	11.035	2.411	6.4629e-06	5.5426	-17.864	-70.492	22.566	-69.354	6.885	28.520	-69.956	-64.342	167.055	-80.626	-65.248	-61.498	-57.857	-55.969	92.196	-59.662	-8191	255	
2328.159	1	1	0	0	0.10788	0.0786	0.14059	0.23308	0.12847	0.079497	0.087787	0.30388	0.076234	0.064017	0.13295	0.18564	0.10386	0.16796	0.042999	0.22507	-3.15	-4.0188	-3.1562	-3.9333	-3.8333	-3.1896	-4.3083	-3.4875	-3.5812	-4.1896	-3.3979	-3.9229	-3.7042	-3.1542	-4.0396	-3.5062	163.254	-49.869	253.978	248.061	-30.345	196.537	186.390	11.632	52.374	209.168	-45.933	214.896	40.724	-2.856	206.168	183.512	4.3405e-05	3.5614e-05	1.7178e-05	207.07	4.3035e-06	4.7675e-06	361.88	54.389	1.5451e-06	1.336e-06	96.23	26.972	12.091	2.5679	3.6077e-06	5.974	0.00041217	0.00064065	0.00018015	183.69	6.953e-06	7.2022e-06	317.42	48.384	6.6777e-06	7.5468e-06	85.364	24.422	11.106	2.4106	6.8319e-06	5.4257	4.482	130.228	-18.095	-69.428	31.772	-29.335	-69.367	-63.708	35.933	202.576	-65.868	-61.802	-58.804	-55.356	127.387	-58.660	-8191	255	
2328.255	1	1	0	0	0.10664	0.076519	0.09042	0.34911	0.20599	0.11688	0.29946	0.16173	0.11528	0.20075	0.21365	0.13031	0.16756	0.30818	0.11503	0.10967	-3.1125	-4.4938	-3.2562	-3.7167	-3.7812	-3.2708	-4.2375	-3.4646	-3.4167	-4.0958	-3.4917	-3.7938	-3.9313	-3.1333	-4.0729	-3.6063	115.710	78.561	-54.155	263.549	-24.475	-4.551	227.925	257.847	70.299	241.103	0.427	60.521	-0.913	255.889	32.403	265.357	2.8066e-05	0.00026838	0.000132	207.67	2.1011e-06	5.2214e-06	362.84	53.962	2.5439e-06	2.5716e-06	96.556	26.879	11.853	2.5681	3.3825e-06	6.064	0.00043348	0.00064469	0.0001798	183.47	6.5034e-06	6.9458e-06	316.42	48.135	6.6579e-06	7.4108e-06	85.073	24.159	11.105	2.3802	6.8178e-06	5.4708	-78.731	-51.331	-33.758	-69.453	206.907	26.357	-70.357	-63.973	254.356	122.486	-66.183	-62.503	-57.380	-55.231	215.329	-59.701	-8191	255	
2328.351	1	1	0	0	0.22581	0.14129	0.16506	0.1355	0.084391	0.1684	0.21527	0.16704	0.15476	0.042554	0.097119	0.026124	0.12116	0.11667	0.077041	0.093244	-2.7687	-4.0979	-3.2958	-3.7188	-4.0312	-3.3354	-3.9583	-3.8875	-3.3396	-4.0708	-3.3333	-3.6917	-4.1208	-3.1583	-4.0292	-3.8042	175.698	123.806	46.896	40.117	26.221	121.454	188.561	179.845	270.231	220.237	5.801	193.303	-58.939	235.926	152.139	-29.475	6.9454e-06	0.00038401	6.4348e-05	209.87	3.9791e-06	1.9966e-06	363.33	54.517	4.0754e-06	2.9934e-06	97.656	27.05	11.472	2.5547	7.7819e-07	6.0948	0.00042232	0.00065208	0.00018444	183.95	6.4007e-06	7.1422e-06	317.13	48.339	6.6406e-06	7.1198e-06	85.635	24.362	10.852	2.3849	6.9654e-06	5.5273	188.603	-0.120	-26.001	-69.900	59.721	-30.114	-70.420	-63.254	30.213	240.383	-65.858	-61.518	-58.151	-55.416	182.719	-58.799	-8191	255	
2328.470	1	1	0	0	0.14559	0.073574	0.12969	0.22697	0.087465	0.088622	0.24124	0.20116	0.061892	0.12664	0.33612	0.17221	0.21899	0.1594	0.10222	0.14533	-2.7583	-4.2229	-3.5979	-3.4646	-4.1188	-3.4667	-4.0042	-3.7292	-3.3667	-4.0813	-3.5021	-3.45	-4.2354	-3.2	-3.8646	-3.9229	103.460	-44.280	-6.981	137.921	59.230	196.586	232.412	122.901	199.437	205.392	64.287	183.214	73.569	-55.437	-3.813	114.964	3.0795e-05	0.00033373	7.4729e-05	208.51	9.7375e-07	4.3483e-06	360.54	54.497	2.3639e-06	3.1282e-06	97.469	27.277	11.956	2.5592	8.8653e-07	6.0402	0.00041638	0.00063376	0.00018756	184.02	6.742e-06	6.9208e-06	317.89	48.467	6.7267e-06	7.2511e-06	85.97	24.539	10.982	2.3944	6.731e-06	5.521	-9.226	90.854	-51.938	-69.393	257.851	19.016	-69.876	-63.407	53.055	41.064	-65.554	-61.926	-58.431	-55.229	223.837	-58.761	-8191	255	
2328.566	1	1	0	0	0.067587	0.20941	0.2402	0.086136	0.033515	0.078591	0.17051	0.30591	0.11694	0.19809	0.11155	0.077187	0.069805	0.16209	0.15731	0.093226	-2.9604	-4.0396	-3.5958	-3.3604	-4.2604	-3.2188	-3.8875	-4.0104	-3.2729	-4.1375	-3.8563	-3.4125	-4.3167	-3.5	-3.7667	-4.2292	12.132	264.743	-69.160	223.020	32.134	204.719	133.495	139.504	-41.532	28.700	55.224	152.952	176.925	-23.201	111.304	141.292	7.2328e-05	0.00023557	0.00016435	206.88	2.7791e-06	1.2415e-06	357.33	54.655	4.2821e-06	2.8696e-06	96.662	27.149	11.991	2.5668	1.6675e-06	6.0646	0.00041703	0.00065884	0.0001831	183.83	6.5733e-06	7.1372e-06	316.6	48.475	6.7046e-06	7.034e-06	85.623	24.541	11.083	2.3877	7.2086e-06	5.5006	-58.524	48.502	-13.419	-69.668	209.242	221.991	-69.752	-63.795	-56.079	60.989	-66.144	-61.241	-60.096	-55.231	208.021	-59.340	-8191	255	
2328.663	1	1	0	0	0.076697	0.041967	0.092401	0.071837	0.1155	0.085253	0.16741	0.11114	0.068219	0.10063	0.28558	0.15026	0.21479	0.12501	0.11035	0.085954	-2.6604	-3.9167	-3.5729	-3.2979	-4.0479	-3.2938	-3.6896	-4.1042	-3.2062	-4.0729	-3.8375	-3.2271	-4.2458	-3.6583	-3.6729	-4.2458	214.905	71.313	53.933	-79.252	230.518	-70.363	270.187	190.424	163.215	82.264	245.005	171.010	140.262	-12.025	228.762	90.751	2.338e-05	0.0002844	8.7353e-05	207.45	4.8365e-07	2.495e-06	365.44	54.222	1.7827e-06	6.2057e-06	96.014	26.857	11.618	2.6202	3.733e-06	6.0426	0.00040684	0.0006295	0.00017531	183.47	6.5147e-06	7.3168e-06	318.28	48.19	6.639e-06	7.5205e-06	85.252	24.374	10.989	2.4027	6.8678e-06	5.4935	151.639	13.478	-58.847	-68.888	10.157	6.672	-70.284	-63.733	71.705	56.772	-65.349	-61.793	-59.612	-55.262	-61.524	-58.129	-8191	255	
2328.783	1	1	0	0	0.1612	0.051643	0.20033	0.10327	0.12743	0.12961	0.22694	0.24256	0.13909	0.075266	0.19746	0.17421	0.31017	0.22858	0.22844	0.18447	-2.8104	-3.7167	-3.8937	-3.1271	-4.2	-3.5771	-3.5271	-4.0521	-3.2812	-3.8104	-4.0729	-3.2375	-4.0875	-3.6208	-3.275	-4.1396	102.760	198.030	73.234	55.394	-71.200	-57.781	278.201	145.416	12.080	53.549	-17.789	239.929	249.522	113.378	178.925	216.003	4.5732e-05	0.00012467	8.9857e-05	207.24	5.1538e-06	3.1874e-06	364.81	54.288	1.5863e-06	5.1383e-06	97.503	27.386	11.999	2.5154	2.7802e-06	6.0027	0.00040964	0.0006509	0.00018255	182.45	6.9023e-06	7.0365e-06	318.18	48.463	6.3908e-06	7.4624e-06	85.977	24.532	10.998	2.3845	6.997e-06	5.5351	221.965	-23.102	-47.558	-69.853	174.288	106.825	-69.431	-63.509	23.878	261.630	-65.615	-60.918	-59.432	-55.816	48.173	-58.789	-8191	255	
2328.855	1	1	0	0	0.18063	0.23338	0.13671	0.3109	0.15227	0.093868	0.27442	0.18773	0.27175	0.14281	0.053835	0.087106	0.125	0.1245	0.077988	0.17401	-2.9771	-3.525	-3.9625	-3.0354	-4.0021	-3.6271	-3.325	-4.1583	-3.3771	-3.6042	-4.2458	-3.1771	-4.1042	-3.8812	-3.2479	-4.3354	158.223	-20.741	57.641	120.716	-43.786	225.304	142.626	153.488	-8.773	-30.791	-39.800	224.277	23.625	271.966	63.171	215.726	5.586e-05	0.00033886	9.7242e-05	207.96	1.4666e-06	6.1787e-06	362.46	54.43	1.468e-06	3.5476e-06	97.204	27.26	12.025	2.5688	4.4849e-06	6.1796	0.00041454	0.00065814	0.00017366	183.41	6.8251e-06	6.9855e-06	317.41	48.432	6.4366e-06	7.0841e-06	86.292	24.591	11.08	2.3917	6.9809e-06	5.5972	86.003	58.538	-23.151	-69.360	223.631	86.339	-70.068	-63.726	71.768	8.002	-65.457	-60.755	-58.596	-56.757	84.835	-60.235	-8191	255	
2328.951	1	1	0	0	0.12418	0.055713	0.31135	0.14119	0.15812	0.26057	0.16353	0.1043	0.22622	0.06587	0.16636	0.12626	0.1038	0.16723	0.37058	0.21905	-3.25	-3.5667	-4.0771	-3.2313	-3.9917	-3.7646	-3.4208	-4.0604	-3.6375	-3.5708	-4.2458	-3.2354	-3.8542	-4.0042	-3.1729	-4.1479	119.731	119.544	-66.049	126.060	-71.068	-0.179	90.287	274.890	-22.199	175.656	-48.907	125.018	211.872	219.510	232.329	-77.421	6.1775e-05	0.00040733	0.00010357	209.45	3.135e-06	1.4298e-06	364.46	54.837	1.9365e-06	6.3176e-06	96.401	26.973	11.85	2.5615	2.252e-06	6.1338	0.0004263	0.00063918	0.00017647	184.45	7.0414e-06	7.0012e-06	319.31	48.511	6.8743e-06	7.3427e-06	85.714	24.43	11.072	2.3895	6.8027e-06	5.5492	277.870	10.681	-21.118	-68.995	64.666	10.888	-69.927	-63.318	40.871	66.043	-65.221	-61.439	-58.515	-55.297	-61.325	-58.950	-8191	255	
2329.072	1	1	0	0	0.16673	0.19808	0.11696	0.29542	0.26007	0.25608	0.1125	0.11079	0.2505	0.014331	0.1166	0.20745	0.12382	0.12574	0.19997	0.14657	-3.2438	-3.425	-4.2021	-3.2979	-3.7521	-4.0083	-3.25	-4.1125	-3.6854	-3.5292	-4.3208	-3.4688	-3.7625	-3.8812	-3.2729	-3.9646	264.836	45.348	-71.317	-54.487	250.407	271.375	270.056	247.293	84.974	130.837	24.207	0.423	218.850	174.505	186.213	-69.545	3.071e-05	0.00037123	1.8332e-05	210.02	2.3228e-06	2.5466e-06	363.85	54.756	1.8879e-06	1.8077e-06	95.963	27.449	11.742	2.6017	1.4874e-06	5.9879	0.00040791	0.00062976	0.00017146	184.76	6.9089e-06	7.3525e-06	317.62	48.419	6.6371e-06	7.2864e-06	85.312	24.549	11.068	2.3668	6.8437e-06	5.4877	80.279	-74.854	80.883	-68.842	-8.409	121.590	-70.031	-63.122	50.027	139.397	-65.450	-60.088	-59.090	-54.672	147.835	-58.403	-8191	255	
2329.168	1	1	0	0	0.15757	0.15544	0.024064	0.043597	0.10172	0.072234	0.12957	0.3291	0.045596	0.15476	0.26705	0.14402	0.083291	0.09258	0.2028	0.079013	-3.5021	-3.2479	-4.0917	-3.3063	-3.5792	-4.0062	-3.3521	-3.9188	-3.7833	-3.4292	-4.1729	-3.5563	-3.3229	-4.1333	-3.2896	-3.8563	177.302	277.584	250.536	-42.921	209.826	86.008	155.558	156.078	117.074	29.518	173.143	-59.036	269.727	78.567	173.759	45.025	8.3158e-06	0.00020067	9.1505e-05	207.59	2.3555e-06	4.7228e-06	361.79	54.538	2.381e-06	3.8612e-06	95.876	27.526	11.605	2.5739	4.4579e-07	6.1026	0.00041715	0.000651	0.00017436	183.25	6.7131e-06	7.1626e-06	317.2	48.084	6.5528e-06	7.519e-06	85.839	24.644	10.993	2.3821	6.4542e-06	5.5549	251.036	-38.890	89.045	-69.392	217.057	100.165	-70.372	-63.170	33.089	-31.320	-65.256	-61.347	-59.150	-55.862	257.756	-58.496	-8191	255	
2329.264	1	1	0	0	0.16276	0.17766	0.076322	0.12545	0.079021	0.10404	0.24886	0.17088	0.17066	0.15751	0.11706	0.038173	0.024292	0.24806	0.2856	0.15802	-3.6375	-3.2854	-4.1125	-3.5708	-3.3917	-4.2167	-3.3688	-3.8146	-3.9229	-3.1708	-4.0542	-3.6854	-3.3917	-4.2875	-3.1958	-3.7375	216.749	-64.133	-79.977	277.170	-10.506	138.670	-23.768	119.333	204.562	61.121	201.120	141.591	73.257	-67.320	44.670	138.796	2.8481e-05	0.00014119	3.63e-05	209.13	1.7495e-06	1.955e-06	365.8	55.221	4.4899e-07	2.1836e-06	97.674	27.606	11.897	2.552	1.712e-06	6.1934	0.0004017	0.00066522	0.00016942	183.17	6.9437e-06	7.1122e-06	319.47	48.698	6.3377e-06	7.5223e-06	86.259	24.704	11.092	2.3888	6.6176e-06	5.6226	151.734	117.896	141.610	-69.004	-57.688	100.178	-69.201	-63.010	-23.336	51.249	-64.966	-60.933	-57.557	-54.860	-9.360	-58.993	-8191	255	
2329.383	1	1	0	0	0.1893	0.17451	0.1328	0.021054	0.07493	0.13979	0.075489	0.16973	0.01541	0.18983	0.1028	0.17262	0.059973	0.14812	0.061419	0.090767	-3.6958	-3.1833	-3.9646	-3.7104	-3.2292	-4.1292	-3.3625	-3.8521	-4.1917	-3.2771	-4.0042	-3.8125	-3.3333	-4.1625	-3.4938	-3.6521	136.748	250.957	37.555	148.438	-39.377	34.661	248.023	-63.150	53.904	273.913	246.281	255.379	68.173	87.885	205.128	9.371	2.1909e-05	0.00025854	5.2146e-05	208.11	1.9715e-06	2.0512e-06	363.07	54.085	2.9358e-06	2.2116e-06	97.335	27.805	11.601	2.5422	3.7208e-06	6.1891	0.00039784	0.00065135	0.00017384	183.03	6.842e-06	6.8148e-06	318.17	48.692	6.0828e-06	7.5086e-06	85.907	24.776	10.898	2.3797	6.8205e-06	5.5651	-38.510	57.750	-1.169	-69.397	-15.221	125.880	-69.572	-62.415	53.492	91.492	-65.364	-60.798	-57.522	-56.084	138.036	-58.718	-8191	255	
2329.454	1	1	0	0	0.057774	0.15936	0.15112	0.057797	0.026205	0.057935	0.07927	0.22796	0.16922	0.19361	0.14361	0.21054	0.21848	0.13778	0.033339	0.17845	-3.7667	-3.2458	-3.9979	-4.0333	-3.3563	-4.1958	-3.6979	-3.4875	-4.2583	-3.2771	-3.7521	-4.0792	-3.1437	-4.0792	-3.5312	-3.45	64.782	35.280	-34.980	218.245	36.490	18.222	17.571	218.506	169.470	-2.033	-72.847	-11.476	82.758	176.791	-37.924	174.623	2.31e-05	0.00035157	0.00013661	209.94	1.5904e-06	1.5083e-06	365.14	54.274	1.6879e-06	4.8963e-06	97.595	27.661	11.996	2.5822	1.382e-06	6.1421	0.00041146	0.00065657	0.0001804	183.49	6.7171e-06	7.0719e-06	318.29	48.317	6.7475e-06	6.9951e-06	86.523	24.584	10.943	2.3963	7.0506e-06	5.5639	-68.862	-30.627	-16.367	-68.969	229.491	31.050	-69.463	-62.781	-1.126	208.500	-65.074	-60.966	-57.810	-53.826	85.737	-57.141	-8191	255	
2329.551	1	1	0	0	0.2253	0.22	0.071501	0.14641	0.21955	0.11526	0.24371	0.11276	0.058257	0.1163	0.053235	0.20461	0.10486	0.17416	0.095695	0.3019	-3.9021	-3.1958	-3.8833	-3.9521	-3.2812	-4.0062	-3.6083	-3.2542	-4.2146	-3.2521	-3.6771	-3.9458	-3.2104	-4.0667	-3.5854	-3.3958	83.478	68.158	52.728	203.796	-61.329	-69.735	210.661	-16.298	258.381	-22.956	169.787	1.928	211.984	205.219	169.635	-49.601	5.5147e-05	0.00013267	4.5014e-05	210.68	4.1631e-06	1.0445e-06	362.9	55.09	8.3664e-07	1.746e-06	97.039	27.056	11.768	2.5802	2.262e-06	6.1416	0.00040882	0.00065839	0.00017865	183.72	6.8582e-06	6.9901e-06	317.31	48.549	6.1833e-06	7.4418e-06	86.12	24.571	11.021	2.4103	6.5579e-06	5.5947	-78.854	-68.875	222.915	-68.684	14.574	179.707	-69.437	-63.210	207.019	20.185	-64.554	-60.686	-57.421	-54.399	98.307	-57.688	-8191	255	
2329.647	1	1	0	0	0.12727	0.29932	0.12189	0.13884	0.14201	0.23592	0.16269	0.17005	0.11634	0.22707	0.015968	0.18338	0.099356	0.075703	0.056004	0.11312	-3.8771	-3.2583	-3.6271	-4.1562	-3.1229	-4.0938	-3.9042	-3.2667	-4.2562	-3.575	-3.55	-4.1458	-3.1896	-4.075	-3.9104	-3.0062	163.292	-37.460	-17.450	243.690	271.226	155.856	239.217	189.838	109.563	24.980	128.949	14.797	55.572	-76.140	96.168	39.831	4.1457e-05	6.7387e-05	9.9207e-05	204.98	8.5791e-07	1.1367e-06	360.32	54.638	1.8215e-06	1.4031e-06	97.207	27.481	11.718	2.6417	4.5323e-06	6.1834	0.0004128	0.00066618	0.00017867	181.93	6.8606e-06	7.1129e-06	317.34	48.242	6.362e-06	7.1591e-06	86.387	24.784	10.961	2.403	6.4512e-06	5.5833	275.996	173.249	-16.175	-68.224	-48.694	-71.537	-68.760	-62.412	59.541	52.223	-64.036	-60.265	-57.645	-54.200	175.740	-58.456	-8191	255	
2329.767	1	1	0	0	0.13834	0.082862	0.11711	0.11854	0.23798	0.1641	0.19363	0.19635	0.15356	0.15788	0.25208	0.099663	0.13323	0.1706	0.11991	0.12437	-3.7708	-3.4958	-3.5646	-4.2063	-3.4458	-3.9271	-4.1417	-3.1688	-4.0771	-3.6	-3.4583	-4.3271	-3.3104	-3.6208	-3.9708	-3.2062	-7.094	274.778	95.236	179.568	259.054	139.083	-60.397	215.510	0.163	62.408	119.112	124.315	140.595	50.743	266.425	-36.578	3.8726e-05	2.5117e-05	2.6845e-05	206.13	1.0291e-06	4.1466e-06	365.6	54.244	2.5998e-06	1.7374e-06	96.603	27.353	11.739	2.5423	4.2002e-06	6.0997	0.00040856	0.0006501	0.00017586	181.83	6.522e-06	7.1619e-06	318.66	48.226	6.3495e-06	7.0639e-06	85.846	24.632	10.926	2.3558	6.3767e-06	5.5457	-6.954	222.106	278.976	-68.024	181.998	39.261	-69.498	-62.178	5.340	98.329	-64.493	-60.459	-56.330	-54.036	263.319	-58.286	-8191	255	
2329.864	1	1	0	0	0.13732	0.24372	0.17761	0.32742	0.11435	0.16265	0.037069	0.11751	0.058717	0.26921	0.074095	0.19617	0.01999	0.27721	0.11425	0.1051	-3.6625	-3.8187	-3.3875	-4.1042	-3.3229	-3.7771	-4.1792	-3.3583	-4.0208	-3.6771	-3.3271	-4.2292	-3.3604	-3.4938	-4.0583	-3.3438	150.661	-25.193	72.994	265.671	42.968	-40.710	195.014	247.746	80.386	218.329	149.082	270.306	110.079	-51.668	95.800	220.053	3.8444e-05	4.713e-05	7.5928e-05	205.25	1.3394e-06	1.6594e-06	361.72	55.2	2.1935e-06	3.8128e-06	97.205	27.588	11.946	2.5921	4.1497e-06	6.1233	0.00039633	0.00060699	0.00017908	181.51	6.79e-06	7.1044e-06	316.04	48.347	6.6233e-06	7.3052e-06	86.059	24.528	11.143	2.3795	6.6947e-06	5.5547	241.626	75.466	45.156	-68.398	152.815	19.695	-68.978	-62.140	150.842	54.768	-64.311	-59.574	-57.249	-53.918	109.993	-58.152	-8191	255	
2329.960	1	1	0	0	0.15733	0.19598	0.22056	0.03405	0.12564	0.23812	0.1283	0.174	0.19002	0.10472	0.26955	0.14414	0.062683	0.28667	0.12604	0.17088	-3.6312	-3.9313	-3.1688	-4.2708	-3.3729	-3.4583	-4.1625	-3.2417	-3.8167	-3.95	-3.3875	-4.0229	-3.5687	-3.3646	-4.2729	-3.425	-46.705	248.908	-40.680	73.342	-21.390	194.141	209.031	225.496	253.590	110.493	250.835	211.518	116.319	-27.548	173.472	264.817	2.9211e-05	0.0002537	6.1953e-05	206.44	1.6186e-06	2.1291e-06	363.03	53.457	1.6029e-06	4.3018e-07	97.351	27.84	11.714	2.509	1.2011e-06	6.2069	0.00040084	0.0006353	0.00017853	182.41	6.4243e-06	7.2168e-06	317.44	47.905	6.7869e-06	7.0124e-06	85.913	24.749	11.038	2.3715	6.5367e-06	5.6118	241.133	46.717	203.728	-67.751	5.562	2.066	-69.136	-62.260	202.120	-15.138	-64.217	-59.806	-58.124	-53.280	267.423	-57.801	-8191	255	
#DATA ENDS
