BOXY.EXE: ISS Imagent and Oximeter Data Acquisition Program Version 0.80
Ascii Record File

#ACQ INFORMATION
2  Detector Channels 
16  External MUX Channels 
1  Auxiliary Channels 
5000  Waveform (CCF) Frequency (Hz)
1  Waveforms Skipped 
30  Waveforms Averaged 
1  Cycles Averaged 
16  Acquisitions per Waveform 
10.0806  Updata Rate (Hz) 

#FILE INFORMATION
TRUE -- External MUX Channel results are PARSED.
FALSE -- AC DC and Phase are NOT grouped.
TRUE -- Companion Program Settings File CREATED.
FALSE -- AC data not excluded
FALSE -- DC data not excluded
FALSE -- Phase data not excluded
FALSE -- Auxillary Chn. data not excluded
Tab delimiters

#CALIBRATION STATE
TRUE -- Waveform Calibration Values APPLIED.


#AUX CALIBRATION VALUES
Val Type	aux-1	

Term	1.0000e+00	
Factor	0.0000e+00	


#WF CALIBRATION VALUES
A = Detector Channel
Val Type	A-AC1	A-AC2	A-AC3	A-AC4	A-AC5	A-AC6	A-AC7	A-AC8	A-AC9	A-AC10	A-AC11	A-AC12	A-AC13	A-AC14	A-AC15	A-AC16	A-DC1	A-DC2	A-DC3	A-DC4	A-DC5	A-DC6	A-DC7	A-DC8	A-DC9	A-DC10	A-DC11	A-DC12	A-DC13	A-DC14	A-DC15	A-DC16	A-Ph1	A-Ph2	A-Ph3	A-Ph4	A-Ph5	A-Ph6	A-Ph7	A-Ph8	A-Ph9	A-Ph10	A-Ph11	A-Ph12	A-Ph13	A-Ph14	A-Ph15	A-Ph16	

Term	0.00000e+00	0.00000e+00	0.00000e+00	0.00000e+00	0.00000e+00	0.00000e+00	0.00000e+00	0.00000e+00	0.00000e+00	0.00000e+00	0.00000e+00	0.00000e+00	0.00000e+00	0.00000e+00	0.00000e+00	0.00000e+00	0.00000e+00	0.00000e+00	0.00000e+00	0.00000e+00	0.00000e+00	0.00000e+00	0.00000e+00	0.00000e+00	0.00000e+00	0.00000e+00	0.00000e+00	0.00000e+00	0.00000e+00	0.00000e+00	0.00000e+00	0.00000e+00	0.00000e+00	0.00000e+00	0.00000e+00	0.00000e+00	0.00000e+00	0.00000e+00	0.00000e+00	0.00000e+00	0.00000e+00	0.00000e+00	0.00000e+00	0.00000e+00	0.00000e+00	0.00000e+00	0.00000e+00	0.00000e+00	
Factor	1.00000e+00	1.00000e+00	1.00000e+00	1.00000e+00	1.00000e+00	1.00000e+00	1.00000e+00	1.00000e+00	1.00000e+00	1.00000e+00	1.00000e+00	1.00000e+00	1.00000e+00	1.00000e+00	1.00000e+00	1.00000e+00	1.00000e+00	1.00000e+00	1.00000e+00	1.00000e+00	1.00000e+00	1.00000e+00	1.00000e+00	1.00000e+00	1.00000e+00	1.00000e+00	1.00000e+00	1.00000e+00	1.00000e+00	1.00000e+00	1.00000e+00	1.00000e+00	X	X	X	X	X	X	X	X	X	X	X	X	X	X	X	X	

B = Detector Channel
Val Type	B-AC1	B-AC2	B-AC3	B-AC4	B-AC5	B-AC6	B-AC7	B-AC8	B-AC9	B-AC10	B-AC11	B-AC12	B-AC13	B-AC14	B-AC15	B-AC16	B-DC1	B-DC2	B-DC3	B-DC4	B-DC5	B-DC6	B-DC7	B-DC8	B-DC9	B-DC10	B-DC11	B-DC12	B-DC13	B-DC14	B-DC15	B-DC16	B-Ph1	B-Ph2	B-Ph3	B-Ph4	B-Ph5	B-Ph6	B-Ph7	B-Ph8	B-Ph9	B-Ph10	B-Ph11	B-Ph12	B-Ph13	B-Ph14	B-Ph15	B-Ph16	

Term	0.00000e+00	0.00000e+00	0.00000e+00	0.00000e+00	0.00000e+00	0.00000e+00	0.00000e+00	0.00000e+00	0.00000e+00	0.00000e+00	0.00000e+00	0.00000e+00	0.00000e+00	0.00000e+00	0.00000e+00	0.00000e+00	0.00000e+00	0.00000e+00	0.00000e+00	0.00000e+00	0.00000e+00	0.00000e+00	0.00000e+00	0.00000e+00	0.00000e+00	0.00000e+00	0.00000e+00	0.00000e+00	0.00000e+00	0.00000e+00	0.00000e+00	0.00000e+00	-3.55938e+01	-1.27701e+02	-1.25281e+02	-1.82617e+02	-5.40153e+01	-6.01161e+01	-1.56707e+02	-1.61923e+02	-3.23848e+01	-6.96501e+01	-1.72081e+02	-1.72121e+02	-1.82310e+02	-1.75613e+02	-4.80221e+01	-1.49421e+02	
Factor	1.75935e-05	1.27067e-04	3.90881e-05	1.69756e-01	1.41494e-06	1.43045e-06	1.51472e-01	4.16107e-02	1.27005e-06	1.46452e-06	7.00974e-02	2.89022e-02	2.93523e-02	6.32495e-03	1.47419e-06	9.43134e-03	9.40978e-06	1.53733e-05	4.30930e-06	8.73817e-02	1.59016e-07	1.71387e-07	7.34779e-02	2.15944e-02	1.53695e-07	1.73083e-07	3.51862e-02	1.45699e-02	1.52597e-02	3.31565e-03	1.61020e-07	4.78232e-03	X	X	X	X	X	X	X	X	X	X	X	X	X	X	X	X	



#DISTANCE SETTINGS
A = Detector Channel
A-1	A-2	A-3	A-4	A-5	A-6	A-7	A-8	A-9	A-10	A-11	A-12	A-13	A-14	A-15	A-16	

1.0000e+01	1.0000e+01	1.0000e+01	1.4500e+00	1.0000e+01	1.0000e+01	1.5100e+00	1.9500e+00	1.0000e+01	1.0000e+01	2.0100e+00	2.5000e+00	2.4400e+00	2.9500e+00	1.0000e+01	3.0100e+00	

B = Detector Channel
B-1	B-2	B-3	B-4	B-5	B-6	B-7	B-8	B-9	B-10	B-11	B-12	B-13	B-14	B-15	B-16	

1.0000e+01	1.0000e+01	1.0000e+01	1.4500e+00	1.0000e+01	1.0000e+01	1.5100e+00	1.9500e+00	1.0000e+01	1.0000e+01	2.0100e+00	2.5000e+00	2.4400e+00	2.9500e+00	1.0000e+01	3.0100e+00	




#DATA BEGINS
time	group	step	mark	flag	A-AC1	A-AC2	A-AC3	A-AC4	A-AC5	A-AC6	A-AC7	A-AC8	A-AC9	A-AC10	A-AC11	A-AC12	A-AC13	A-AC14	A-AC15	A-AC16	A-DC1	A-DC2	A-DC3	A-DC4	A-DC5	A-DC6	A-DC7	A-DC8	A-DC9	A-DC10	A-DC11	A-DC12	A-DC13	A-DC14	A-DC15	A-DC16	A-Ph1	A-Ph2	A-Ph3	A-Ph4	A-Ph5	A-Ph6	A-Ph7	A-Ph8	A-Ph9	A-Ph10	A-Ph11	A-Ph12	A-Ph13	A-Ph14	A-Ph15	A-Ph16	B-AC1	B-AC2	B-AC3	B-AC4	B-AC5	B-AC6	B-AC7	B-AC8	B-AC9	B-AC10	B-AC11	B-AC12	B-AC13	B-AC14	B-AC15	B-AC16	B-DC1	B-DC2	B-DC3	B-DC4	B-DC5	B-DC6	B-DC7	B-DC8	B-DC9	B-DC10	B-DC11	B-DC12	B-DC13	B-DC14	B-DC15	B-DC16	B-Ph1	B-Ph2	B-Ph3	B-Ph4	B-Ph5	B-Ph6	B-Ph7	B-Ph8	B-Ph9	B-Ph10	B-Ph11	B-Ph12	B-Ph13	B-Ph14	B-Ph15	B-Ph16	aux-1	digaux	

1441.507	1	1	0	256	0.167	0.19012	0.17395	0.23521	0.081073	0.159	0.1758	0.2871	0.074723	0.064697	0.12414	0.14227	0.11573	0.21665	0.14226	0.21895	-3.8063	-3.4021	-3.6188	-4.1271	-3.2	-4.2771	-3.8479	-3.3688	-4.2021	-3.4771	-3.7292	-4.2396	-3.2708	-4.0167	-3.8458	-3.35	-139.513	2.622	76.388	123.934	-144.253	-56.136	144.549	168.807	-17.401	-68.213	-6.704	161.482	-37.417	-154.094	160.362	184.016	0.00028254	0.001359	0.00016387	1222.6	2.2335e-06	9.9536e-06	1066.4	274.52	6.079e-06	1.141e-05	256.23	80.68	71.569	27.026	8.1524e-06	34.12	0.0092246	0.014935	0.0041142	1144.8	0.00015076	0.00016346	995.2	259.78	0.00014631	0.00016495	255.86	84.121	76.972	26.779	0.0001505	34.412	-32.425	-5.708	22.672	-141.195	-141.617	-83.207	-142.509	-136.481	40.579	201.523	-137.937	-133.900	-132.065	-127.776	-49.998	-130.869	-8191	255	
1441.603	1	1	0	0	0.19664	0.049555	0.10237	0.1906	0.36656	0.21192	0.2222	0.19768	0.12467	0.29671	0.34024	0.098165	0.11973	0.12416	0.023297	0.22416	-4.075	-3.3542	-3.6771	-4.2354	-3.3208	-4.075	-4.0271	-3.2833	-4.2875	-3.4333	-3.6042	-4.2417	-3.2583	-3.9104	-3.9208	-3.4542	135.479	-25.647	173.109	168.499	160.290	-66.306	-8.164	167.798	-11.637	63.209	188.587	-118.376	-136.850	-150.611	11.955	-84.339	8.3118e-05	0.001086	0.0001527	1232.7	1.5544e-05	8.7988e-06	1078	276.3	6.6007e-06	1.3428e-05	254.84	80.849	71.978	26.806	6.461e-06	33.648	0.0088992	0.014044	0.0039273	1147.9	0.0001446	0.00015527	996.44	259.69	0.00013702	0.00015697	254.34	83.033	76.282	26.509	0.00014393	33.771	-59.364	-99.631	-109.858	-141.144	8.863	8.697	-142.653	-136.547	-83.927	-5.020	-138.250	-133.969	-132.429	-127.616	66.557	-130.459	-8191	255	
1441.724	1	1	0	0	0.23228	0.18819	0.21317	0.1241	0.24211	0.11978	0.27911	0.074261	0.27405	0.17032	0.0029841	0.16096	0.13131	0.13852	0.15892	0.10765	-3.9062	-3.6875	-3.4125	-4.2042	-3.2458	-3.8333	-4.0458	-3.4521	-4.1062	-3.6375	-3.4104	-4.1229	-3.2667	-3.8958	-3.9083	-3.1688	-140.340	13.340	-148.638	157.109	27.247	-112.274	134.157	178.299	-65.093	98.644	11.177	117.936	70.747	-100.873	10.067	178.126	0.00037964	0.00024905	0.00022142	1231.1	1.2225e-05	9.028e-06	1065.6	273.98	1.7041e-06	1.4203e-05	252.8	80.134	72.46	26.629	8.5743e-06	33.524	0.0086174	0.013731	0.0038938	1143.2	0.00014175	0.00015071	989.92	257.04	0.00013512	0.00015207	251.16	82.268	75.577	26.301	0.00014084	33.536	-43.538	145.916	-30.092	-141.393	153.290	-60.415	-142.231	-136.653	104.952	-109.692	-137.924	-134.090	-132.316	-127.658	-50.049	-130.970	-8191	255	
1441.795	1	1	0	0	0.099954	0.014408	0.027512	0.34492	0.29174	0.084208	0.10691	0.19492	0.17498	0.018725	0.095702	0.072626	0.1044	0.10216	0.15318	0.097714	-3.7875	-3.5229	-3.4208	-4.3479	-3.3937	-3.6688	-4.2438	-3.2833	-4.0667	-3.8833	-3.3833	-4.1833	-3.4229	-3.6292	-4.0771	-3.3563	-63.804	188.901	151.903	161.620	-11.641	-41.185	-41.940	96.373	-76.500	-73.503	-150.862	29.024	140.025	-84.052	8.440	114.244	0.00047145	0.0016491	0.000312	1226.9	6.4869e-06	5.2882e-06	1067	273.59	1.2424e-05	1.9382e-05	254.03	79.732	71.065	26.519	9.99e-06	33.511	0.0081929	0.013301	0.00373	1140.2	0.00013713	0.00014654	990.69	255.93	0.00013008	0.00014695	250.92	82.103	75.086	26.15	0.00013528	33.465	-56.678	-107.583	-74.183	-141.186	-50.213	-42.078	-142.104	-136.338	-89.232	-2.574	-138.142	-133.818	-132.334	-127.720	29.590	-130.439	-8191	255	
1441.892	1	1	0	0	0.025498	0.18645	0.10708	0.075511	0.070587	0.20828	0.096063	0.35833	0.28966	0.10551	0.25478	0.17685	0.1533	0.27367	0.035182	0.19739	-3.6771	-3.9167	-3.3563	-4.2667	-3.5146	-3.5542	-4.2958	-3.3688	-3.8125	-3.8604	-3.3417	-4.3167	-3.6229	-3.5146	-4.1687	-3.2292	202.992	71.483	147.368	-142.732	-72.546	121.325	-47.487	136.907	-41.188	-46.462	179.870	136.474	168.185	165.296	-34.835	-152.939	0.00014784	0.00030201	0.0001757	1238.2	5.143e-06	3.6415e-06	1076.2	273.45	9.2019e-06	6.4385e-06	256.65	79.649	72.68	26.583	1.6084e-05	33.546	0.0079867	0.012727	0.0035942	1148.2	0.00013066	0.00014181	997.02	256.11	0.00012661	0.00014211	251.91	81.875	74.909	26.08	0.00012988	33.435	-59.596	-98.892	-121.774	-141.646	-146.580	70.782	-142.042	-136.705	-65.957	69.219	-138.216	-134.190	-132.446	-127.465	-13.198	-130.444	-8191	255	
1441.988	1	1	0	0	0.056959	0.2626	0.098919	0.13585	0.19944	0.091686	0.15423	0.1535	0.16647	0.17006	0.18307	0.1001	0.21663	0.26026	0.095054	0.22237	-3.4583	-3.875	-3.1667	-4.2812	-3.6688	-3.4417	-4.275	-3.4292	-3.6562	-4.0292	-3.2417	-4.3063	-3.8771	-3.5417	-4.0771	-3.5187	145.256	198.486	9.380	197.852	117.977	172.964	157.846	105.747	-41.390	177.863	-120.666	-77.999	-148.068	113.132	28.100	131.694	0.00048811	0.00083618	0.000374	1249	9.9568e-06	2.3503e-05	1085.8	275.98	8.3786e-06	5.0827e-06	255.34	79.699	72.834	26.387	7.1211e-06	33.44	0.0077149	0.012364	0.00347	1152.5	0.00012869	0.00014015	997.24	257.98	0.00012636	0.00014277	250.46	81.741	75.439	26.081	0.00013309	33.316	-34.689	-21.812	-46.996	-141.179	98.673	-87.656	-142.106	-136.497	43.348	-35.764	-138.062	-133.907	-131.969	-127.222	40.415	-130.834	-8191	255	
1442.107	1	1	0	0	0.13633	0.23532	0.093194	0.17461	0.087131	0.3161	0.31689	0.16093	0.14601	0.11987	0.1108	0.13211	0.10275	0.29249	0.058419	0.087842	-3.2062	-4.2312	-3.2208	-4.0708	-3.9042	-3.2667	-4.1146	-3.5563	-3.65	-4.1771	-3.2396	-3.9813	-3.8771	-3.4083	-4.0854	-3.5104	-60.618	204.246	56.792	164.706	-63.398	119.614	117.766	-121.873	-97.171	97.638	128.620	35.085	136.251	147.689	-132.763	-43.843	0.00030582	0.00074718	0.0006028	1244.8	1.1992e-05	7.5924e-06	1087	275.79	1.0714e-05	8.323e-06	254.91	79.714	71.634	26.711	1.1927e-05	33.375	0.0080451	0.012909	0.0036175	1152.5	0.00013311	0.00014285	998.63	258.08	0.00012731	0.00014441	250.6	81.739	75.079	26.064	0.00013349	33.241	-73.878	-47.022	-92.412	-141.329	-76.801	96.646	-142.262	-136.602	-89.592	-40.676	-138.618	-133.537	-131.983	-127.791	161.794	-130.365	-8191	255	
1442.203	1	1	0	0	0.12529	0.17029	0.13723	0.33888	0.14613	0.21373	0.34555	0.016756	0.24306	0.1491	0.22546	0.008181	0.46227	0.3529	0.074711	0.29101	-3.1229	-4.2771	-3.2313	-4.1562	-4.0417	-3.1625	-4.2625	-3.5979	-3.2562	-4.15	-3.3937	-3.9396	-3.9167	-3.2583	-4.1562	-3.6625	145.372	59.062	-34.956	184.364	-63.571	-2.472	180.374	85.367	169.794	122.668	144.810	63.854	82.321	138.089	-62.071	121.406	0.00036737	0.00029033	0.00033052	1247.3	6.0845e-06	8.0344e-06	1078.7	274.51	9.9678e-06	8.3073e-06	253.61	79.452	71.77	26.637	8.6276e-06	33.605	0.0078523	0.012651	0.003522	1152.9	0.00012807	0.00013969	995.19	256.4	0.00012371	0.0001396	249.57	81.327	74.632	25.961	0.00012929	33.21	-63.900	-6.457	-137.098	-141.336	89.044	-90.491	-142.693	-136.766	-92.426	-80.943	-138.068	-133.640	-132.476	-127.271	-117.892	-130.664	-8191	255	
1442.299	1	1	0	0	0.10967	0.13402	0.27285	0.24436	0.12625	0.080386	0.040741	0.25377	0.22332	0.0043348	0.26607	0.26296	0.070201	0.11275	0.078289	0.099034	-3.0875	-4.1979	-3.2479	-3.7687	-4.1417	-3.2833	-4.1062	-3.8646	-3.3583	-4.2875	-3.3146	-3.5271	-4.1312	-3.2854	-3.9229	-4.0167	125.555	65.975	-58.343	189.862	190.059	-64.483	36.906	199.104	-92.989	-62.309	143.509	123.712	30.905	131.342	-80.520	-145.467	0.0002911	0.00063988	0.00044546	1247.8	5.7209e-06	8.8032e-06	1091.9	276.48	1.1577e-05	1.4779e-06	256.58	80.968	71.972	26.975	1.9221e-05	33.852	0.0077298	0.012359	0.0034927	1153	0.00012736	0.0001393	1005.9	257.53	0.00012484	0.00014084	252.02	82.216	75.063	26.146	0.00013005	33.445	-41.910	-43.979	-89.256	-141.330	76.782	-109.189	-142.058	-136.896	-116.348	12.428	-138.178	-133.407	-131.984	-127.491	23.069	-131.007	-8191	255	
1442.395	1	1	0	0	0.16488	0.011187	0.25018	0.10062	0.063185	0.14216	0.13868	0.18935	0.18155	0.071407	0.16453	0.062894	0.08649	0.034534	0.080386	0.17048	-2.9333	-4.2396	-3.5687	-3.8063	-4.1146	-3.3479	-4.1687	-3.9667	-3.0458	-4.0979	-3.5021	-3.7708	-4.1312	-3.3229	-3.9333	-4.1167	-124.927	17.283	-84.144	171.044	106.553	-66.586	64.455	112.399	70.585	11.083	113.010	-22.589	-106.287	-134.214	20.850	116.622	0.00016867	0.00044663	0.00036647	1260.8	2.2403e-05	9.8396e-06	1093.4	279.67	9.3581e-06	7.5741e-06	254.09	80.72	72.795	26.384	1.9914e-05	33.297	0.0078457	0.01249	0.0035255	1159.3	0.00013049	0.00013947	1005	259.61	0.00012365	0.00013971	249.89	81.973	75.578	25.894	0.00013101	32.974	-91.891	138.504	-93.768	-141.126	-13.131	46.775	-142.297	-136.543	-17.061	-42.430	-138.063	-133.397	-132.087	-127.827	-31.304	-130.569	-8191	255	
1442.491	1	1	0	0	0.13392	0.24422	0.092711	0.15493	0.19989	0.12677	0.093757	0.22947	0.18442	0.017476	0.23166	0.09944	0.10303	0.069745	0.27614	0.23431	-2.7479	-4.2396	-3.6708	-3.5792	-4.1687	-3.3271	-3.8625	-4.1292	-3.225	-4.2417	-3.8042	-3.4354	-4.2333	-3.4125	-3.6354	-4.2562	-43.658	105.775	-96.990	-48.185	82.034	67.107	139.376	195.327	-122.940	-65.181	127.446	-104.998	132.069	-119.594	-41.804	127.309	0.00042273	0.00092574	0.00049172	1255.9	5.8956e-06	7.7871e-07	1087.5	278.45	5.4519e-06	2.9374e-06	256.32	80.018	72.142	26.803	1.1699e-05	33.371	0.0077939	0.012495	0.003516	1157.4	0.00012873	0.00014022	1000.4	258.99	0.00012658	0.00014024	251.58	82.12	75.212	26.108	0.00013101	33.252	-61.077	-10.393	-28.858	-141.154	67.666	138.678	-142.065	-136.481	113.541	131.267	-137.739	-133.996	-132.028	-127.623	133.149	-130.652	-8191	255	
1442.587	1	1	0	0	0.1434	0.18932	0.12971	0.091448	0.082417	0.12564	0.20945	0.24533	0.056573	0.20475	0.10573	0.044816	0.12204	0.21186	0.25748	0.22356	-2.8354	-4.0104	-3.6813	-3.5521	-4.05	-3.4042	-3.8104	-4.1312	-3.1729	-4.1604	-3.9104	-3.3021	-4.1542	-3.4167	-3.5542	-4.2083	100.763	-126.760	85.126	193.092	70.260	179.954	124.045	143.275	-121.156	-73.498	157.917	166.045	11.630	-85.147	83.590	59.577	0.0003952	0.00048783	0.00059228	1252.1	1.3444e-05	1.0886e-05	1091.4	277.09	5.8956e-06	5.2746e-06	256.74	81.574	71.624	26.895	4.4156e-06	33.736	0.0078272	0.012502	0.0035029	1155.9	0.00012839	0.00013801	1006.1	258.81	0.00012422	0.00013874	251.83	82.309	74.926	26.115	0.00012841	33.392	-78.711	-20.188	-48.017	-141.100	-18.166	-4.905	-142.104	-136.392	23.992	27.112	-138.302	-133.586	-131.398	-127.450	35.709	-130.538	-8191	255	
1442.684	1	1	0	0	0.12461	0.077689	0.32855	0.27199	0.077989	0.23128	0.12223	0.14265	0.068519	0.17065	0.14549	0.18887	0.25687	0.14129	0.093999	0.20549	-2.8979	-3.9542	-3.9	-3.2917	-3.8896	-3.5292	-3.65	-4.2625	-3.3146	-3.9167	-3.8646	-3.4583	-4.2021	-3.7146	-3.5312	-4.2312	-1.081	-2.566	160.295	180.418	-115.873	50.178	106.645	185.152	176.908	-48.841	180.303	-147.272	179.192	91.102	-59.262	114.474	0.00036803	0.0014104	0.00013968	1252.5	1.2977e-05	7.4675e-06	1086.4	278.08	4.1078e-06	1.1503e-05	256.78	80.722	73.301	26.795	1.7248e-05	33.806	0.0075488	0.012286	0.0034163	1157.5	0.00012563	0.0001364	1006.6	258.93	0.00012012	0.00013528	251.26	81.995	75.259	26.077	0.00012679	33.365	-67.509	46.803	-81.156	-141.149	-70.993	-28.926	-142.233	-136.564	-70.336	-23.811	-137.766	-133.481	-131.564	-127.688	29.032	-130.499	-8191	255	
1442.804	1	1	0	0	0.30451	0.10688	0.10615	0.36757	0.063536	0.12987	0.1035	0.2479	0.14135	0.20128	0.040083	0.075294	0.12499	0.35007	0.16444	0.237	-2.9417	-3.7458	-3.8625	-3.1771	-4.0958	-3.65	-3.5438	-4.3771	-3.3187	-3.9	-4.3313	-3.2	-4.2771	-3.8771	-3.5604	-4.2646	64.549	-73.047	123.662	-117.401	-115.438	64.165	181.157	155.963	-138.252	-124.321	-47.276	182.591	108.151	131.586	-66.118	91.582	0.00022959	0.0015215	0.0001596	1261	5.9949e-06	2.1336e-05	1087.9	279.09	1.4341e-05	7.4972e-06	257.28	80.199	72.575	26.726	6.3906e-06	33.538	0.0075444	0.012102	0.0033932	1163.6	0.00012472	0.0001364	1002.6	259.67	0.00012146	0.00013858	251.34	81.875	75.305	26.013	0.00012716	33.012	-96.760	-104.761	191.265	-141.102	29.882	67.161	-142.548	-136.761	-30.430	68.201	-137.972	-133.847	-132.084	-127.705	-9.996	-130.680	-8191	255	
1442.900	1	1	0	0	0.18693	0.27617	0.21605	0.31266	0.16452	0.10016	0.22046	0.08496	0.18903	0.1522	0.21515	0.11376	0.037904	0.067917	0.093853	0.085423	-3.0604	-3.6604	-4.1021	-3.3083	-3.9771	-3.8708	-3.3625	-4.4667	-3.3729	-3.6	-4.2063	-3.3812	-4.0167	-3.9062	-3.4917	-4.2562	-58.089	62.689	91.253	163.042	-100.843	139.244	107.546	173.499	-46.157	133.791	182.178	117.397	-66.337	-29.432	183.838	181.378	0.00027622	0.0010367	0.00035396	1263	5.6514e-06	5.6047e-06	1089.1	279.37	7.038e-06	1.3162e-05	255.2	80.075	71.864	26.716	5.8715e-06	33.711	0.0075237	0.012099	0.0034096	1158.8	0.00012411	0.00013437	1000.6	258.96	0.00011905	0.00013454	250.08	81.15	74.533	25.958	0.00012475	33.153	-51.920	-88.660	61.646	-141.094	56.420	-17.121	-141.756	-136.629	-16.937	-77.080	-137.585	-134.234	-132.383	-127.156	176.205	-130.218	-8191	255	
1442.996	1	1	0	0	0.020278	0.08712	0.19173	0.052969	0.14184	0.10312	0.13509	0.083798	0.30417	0.12514	0.20056	0.099467	0.22849	0.38593	0.14014	0.018501	-3.2229	-3.5062	-4.2354	-3.2875	-3.8896	-3.7938	-3.3271	-4.2958	-3.575	-3.55	-4.4354	-3.4854	-3.8729	-4.1604	-3.0896	-4.325	87.430	69.157	-48.564	117.077	-147.026	-38.054	70.613	-138.823	163.984	-99.419	57.325	-37.301	-105.700	166.393	94.932	124.424	0.00054614	0.00095802	0.0001057	1258.1	1.9503e-05	3.584e-06	1098.7	277.61	1.5188e-05	4.6445e-06	257.37	80.633	72.074	26.465	1.2631e-05	33.795	0.0073276	0.011731	0.0032945	1155.4	0.00012017	0.00013074	1004.5	258.45	0.0001155	0.00012931	249.48	81.073	74.218	25.739	0.00011923	33.073	-77.967	-61.654	-79.456	-141.320	67.555	-122.322	-141.976	-136.270	25.444	-50.929	-138.339	-133.396	-131.696	-127.223	-74.967	-130.373	-8191	255	
1443.091	1	1	0	0	0.13916	0.063235	0.075425	0.23517	0.016462	0.22322	0.28624	0.21718	0.087038	0.17056	0.078809	0.14315	0.3886	0.15801	0.006186	0.17336	-3.425	-3.3583	-4.3146	-3.4875	-3.5875	-4.1167	-3.2938	-4.275	-3.6562	-3.4208	-4.4062	-3.6312	-3.8292	-4.1875	-3.3917	-4.1208	69.415	80.909	110.818	170.655	-126.657	16.480	163.783	193.798	36.880	-26.093	-92.758	172.581	-148.223	-139.353	49.989	-102.895	0.00039799	0.0018947	0.00047817	1262	1.7079e-05	7.009e-06	1094.4	278.52	8.7431e-06	5.232e-06	258.41	80.701	73.062	26.626	1.4513e-05	33.728	0.0071114	0.011528	0.0032005	1158.5	0.00011817	0.0001268	1004.6	258.25	0.00011335	0.00012826	250.71	81.25	74.656	25.812	0.00012038	32.855	-75.022	-68.683	191.462	-141.098	-76.789	-153.292	-141.991	-136.248	-54.432	-81.544	-137.924	-133.415	-132.156	-127.286	-34.751	-130.085	-8191	255	
1443.187	1	1	0	0	0.34876	0.059568	0.23848	0.31674	0.062947	0.10481	0.42369	0.23141	0.19421	0.12021	0.045727	0.20157	0.17109	0.21113	0.26481	0.016741	-3.5292	-3.3354	-4.4187	-3.5292	-3.4958	-4.2292	-3.4708	-4.15	-3.8187	-3.3771	-4.2792	-3.6396	-3.7	-4.4583	-3.3312	-3.9917	-18.421	135.606	152.424	-152.785	35.407	98.153	155.115	126.063	-14.369	-37.163	145.457	165.763	-134.532	51.226	143.849	120.934	0.00033044	0.0015187	0.00023182	1264.9	6.7065e-06	8.541e-06	1092	278.81	7.1048e-06	9.8781e-06	254.89	79.801	72.508	26.63	5.8094e-06	33.25	0.0071682	0.011508	0.0032136	1159.8	0.00011911	0.00012901	999.19	259.58	0.00011595	0.00013021	248.95	80.716	74.542	25.79	0.00012141	32.688	-69.773	-92.910	-98.979	-141.123	-130.476	-141.908	-141.848	-136.433	99.894	-3.546	-137.639	-133.665	-131.544	-127.384	-90.839	-130.117	-8191	255	
1443.283	1	1	0	0	0.21155	0.060051	0.062495	0.2826	0.18951	0.24838	0.32472	0.20157	0.1286	0.033777	0.095806	0.2872	0.20803	0.35672	0.091344	0.025424	-3.6292	-3.2354	-4.1188	-3.5729	-3.4896	-4.1354	-3.4479	-3.9646	-4.0938	-3.2771	-4.1917	-3.8271	-3.5396	-4.3396	-3.3792	-3.8333	-152.575	-49.082	128.315	203.958	198.446	105.293	129.731	130.232	173.621	172.756	8.002	123.504	62.293	158.372	-127.208	-103.141	0.00039965	0.00096256	0.00034859	1256.8	9.6747e-06	1.127e-05	1094	280.39	6.9609e-06	1.6741e-05	256.11	79.996	72.844	26.557	9.4274e-06	33.565	0.007172	0.011466	0.0032328	1154.9	0.00011802	0.00012702	1000.8	259.16	0.00011427	0.00012757	248.81	80.499	74.439	25.723	0.00011927	32.829	-67.077	138.077	-1.847	-141.325	-91.393	-103.011	-142.093	-136.472	27.947	-1.390	-137.912	-133.767	-131.764	-127.290	2.790	-130.004	-8191	255	
1443.404	1	1	0	0	0.063138	0.14115	0.1026	0.34749	0.16575	0.15964	0.19038	0.26191	0.13156	0.29717	0.10085	0.099728	0.025195	0.17857	0.19826	0.056581	-3.7979	-3.1708	-4.3042	-3.7771	-3.3125	-4.3625	-3.6312	-3.7646	-4.1188	-3.3625	-4.1125	-3.8729	-3.2812	-4.2333	-3.6	-3.5875	160.078	-58.751	-64.485	108.316	3.268	-102.994	114.899	78.274	33.485	91.211	-100.238	148.544	55.760	127.080	37.496	45.343	0.000293	0.001677	0.00048384	1256.6	1.4488e-05	2.3201e-06	1101.4	280.09	4.5206e-06	5.9187e-07	258.68	79.871	72.181	26.712	1.6183e-06	33.651	0.0069915	0.011229	0.0031816	1156.2	0.00011615	0.00012438	1003.9	259.07	0.00011194	0.00012623	250.15	80.478	74.059	25.827	0.0001163	33.114	-81.272	-65.659	34.507	-141.193	-107.009	-145.272	-142.256	-136.586	195.110	23.681	-137.725	-134.264	-131.264	-127.625	14.048	-130.485	-8191	255	
1443.500	1	1	0	0	0.23243	0.039687	0.12376	0.16784	0.16706	0.11071	0.23696	0.4248	0.21762	0.23019	0.065439	0.098791	0.13206	0.13399	0.081939	0.18251	-3.8708	-3.3104	-4	-3.9771	-3.2896	-4.1813	-3.6771	-3.7458	-4.1646	-3.2896	-3.9104	-4.0104	-3.3354	-4.2792	-3.5125	-3.5042	-63.583	-17.757	-77.897	90.950	151.651	-21.254	97.274	155.425	57.727	104.057	-131.910	-25.950	-117.530	-40.349	-13.952	63.895	0.00041762	0.0010408	0.00031986	1273.6	1.4122e-05	4.1719e-06	1103.7	279.57	9.0907e-06	1.2206e-05	259.38	81.136	72.822	27.193	1.2775e-05	33.763	0.0069404	0.01118	0.0031556	1164.8	0.0001175	0.0001264	1009.4	260.18	0.00011272	0.00012789	251.46	81.681	74.721	26.093	0.00012141	32.967	-69.051	-72.576	-13.091	-141.619	-118.923	-86.802	-142.379	-136.536	203.870	-21.113	-137.895	-133.283	-132.140	-127.184	55.722	-130.025	-8191	255	
1443.596	1	1	0	0	0.11203	0.36531	0.13567	0.22427	0.087478	0.14262	0.20579	0.15983	0.12723	0.25677	0.21206	0.10551	0.087894	0.12095	0.27831	0.078595	-3.9917	-3.3521	-3.8563	-4.1229	-3.2833	-4.0375	-3.7167	-3.5521	-4.2021	-3.3833	-3.8187	-4.0146	-3.2062	-4.3083	-3.6271	-3.3542	-141.784	73.668	-14.101	187.836	-150.981	-79.081	178.827	168.961	-125.989	-106.121	165.734	167.021	-6.139	-116.428	-45.597	-137.138	0.00038571	0.00049463	0.00030321	1273.2	8.6672e-06	1.6846e-05	1087.8	280.34	6.5292e-06	1.1663e-05	256.62	79.969	72.513	26.791	2.356e-05	33.556	0.0071269	0.011411	0.0032116	1167.2	0.00011914	0.00012687	1000.5	260.95	0.0001137	0.00012951	250.15	80.771	74.608	25.976	0.00012116	32.909	-75.701	177.335	-73.309	-141.423	18.391	8.352	-142.106	-136.606	117.270	159.540	-137.899	-134.527	-131.584	-127.450	22.777	-130.806	-8191	255	
1443.668	1	1	0	0	0.33492	0.13671	0.17151	0.065646	0.13897	0.12481	0.12409	0.16386	0.086267	0.043516	0.043048	0.050438	0.13946	0.079517	0.26311	0.34108	-3.9271	-3.2687	-3.7104	-4.2312	-3.1875	-4.0292	-3.6604	-3.3354	-4.0583	-3.4313	-3.6604	-4.175	-3.3771	-4.1542	-4.0542	-3.3688	-102.607	111.687	118.908	151.572	-37.779	60.814	77.759	204.718	124.582	98.635	94.115	-98.402	136.773	124.335	139.818	169.309	0.00027552	6.4443e-05	0.00019288	1269.1	1.8233e-05	3.8823e-06	1096.6	281.8	5.9639e-06	4.5816e-06	256.03	80.733	73.727	26.826	1.0675e-05	33.884	0.0071689	0.011484	0.0032508	1165.9	0.00011911	0.00012984	1006.1	261.63	0.00011627	0.00013009	250.63	81.247	75.038	26.093	0.00012067	33.152	-86.719	82.621	-6.266	-141.078	44.950	-50.775	-142.324	-136.129	134.830	-99.606	-138.067	-133.801	-131.932	-127.292	47.921	-130.213	-8191	255	
1443.788	1	1	0	0	0.16923	0.013835	0.16725	0.24345	0.20452	0.0972	0.28558	0.16756	0.13463	0.12535	0.14096	0.1388	0.15485	0.22252	0.18007	0.32785	-3.7771	-3.4021	-3.6646	-4.2646	-3.3521	-3.8937	-4.0271	-3.425	-4.2354	-3.5	-3.4938	-4.2229	-3.1625	-3.9167	-3.9958	-3.3937	-68.453	-86.672	-45.514	179.157	46.350	196.084	146.703	-145.970	1.912	-117.384	83.029	37.691	83.822	114.478	172.487	76.993	0.00037328	0.00049782	0.0001104	1272.4	1.3801e-05	3.1826e-06	1093.7	281.62	1.2316e-05	4.4111e-06	257.82	80.937	73.038	26.783	1.6992e-05	33.88	0.0071679	0.011551	0.0032288	1167.7	0.00011976	0.00012806	1006.6	261.51	0.00011536	0.00012908	251.17	81.495	74.767	26.078	0.00012032	33.26	-62.466	26.329	-71.575	-141.326	32.501	66.842	-142.054	-136.366	71.017	58.855	-138.198	-133.649	-131.902	-127.269	94.613	-130.259	-8191	255	
1443.885	1	1	0	0	0.087843	0.1821	0.14198	0.25771	0.20026	0.14942	0.21174	0.18248	0.15616	0.12665	0.21181	0.078118	0.040156	0.13808	0.14267	0.14035	-3.825	-3.7083	-3.4625	-4.35	-3.3167	-3.7854	-4.2021	-3.3458	-4.1271	-3.7542	-3.4375	-4.2812	-3.5896	-3.7083	-4.1958	-3.3458	-89.142	0.188	-2.922	154.223	-85.246	184.653	68.253	151.278	39.537	76.351	160.458	13.899	6.809	111.669	4.813	122.951	0.00030401	0.000988	0.00037563	1267.8	1.1556e-05	1.546e-05	1096.3	282.24	1.4644e-05	9.8392e-06	258.08	80.777	73.378	26.811	1.2205e-05	33.552	0.0071788	0.011417	0.0032248	1167.8	0.00011916	0.00012863	1008	262.08	0.00011582	0.00013158	250.3	80.96	75.349	26.093	0.00012365	32.94	-37.901	-23.239	-110.192	-141.353	-102.559	8.115	-141.919	-136.218	106.836	-150.123	-137.944	-133.361	-132.429	-127.304	-12.242	-130.675	-8191	255	
1443.981	1	1	0	0	0.1397	0.10143	0.20319	0.20466	0.30938	0.099251	0.077194	0.24771	0.22544	0.047154	0.16671	0.018589	0.12599	0.15585	0.14591	0.091124	-3.7938	-3.9437	-3.275	-4.3167	-3.4146	-3.5646	-4.3729	-3.2729	-3.9313	-3.7438	-3.4646	-4.2562	-3.5958	-3.5563	-4.2271	-3.4188	74.577	107.213	138.384	-152.889	-145.816	153.279	70.072	201.640	-106.613	131.748	13.905	-83.220	203.313	107.550	191.890	-92.419	0.00032313	0.00077479	0.00060658	1268.6	6.5601e-06	7.4069e-06	1085.6	281.34	1.0443e-05	1.0972e-05	255.37	79.323	72.913	26.809	4.4018e-06	33.416	0.0072155	0.01176	0.0032983	1165.9	0.00012096	0.00013188	999.23	261.09	0.00011601	0.00013042	249.77	80.764	74.94	26.03	0.00012185	32.924	-68.501	-23.986	-55.542	-141.195	-100.549	-104.462	-142.096	-136.512	86.296	85.536	-138.207	-133.727	-132.502	-127.194	102.573	-130.333	-8191	255	
1444.077	1	1	0	0	0.10444	0.1096	0.13551	0.14689	0.24808	0.040147	0.33354	0.27771	0.31749	0.1673	0.13164	0.03087	0.19834	0.078625	0.17724	0.29679	-3.6875	-3.8583	-3.2542	-4.1917	-3.5333	-3.4417	-4.2708	-3.3771	-3.85	-4.0188	-3.325	-4.1896	-3.7292	-3.4271	-4.2667	-3.4021	161.909	-130.728	15.934	184.328	-134.644	122.579	184.425	120.820	106.816	118.553	76.935	3.824	155.414	87.309	-70.022	143.492	0.00029437	0.00072129	0.00025828	1271.3	7.8738e-06	1.0838e-05	1088.5	280.7	7.7015e-06	7.9093e-06	256.84	81.516	72.731	26.711	8.4328e-06	33.39	0.0072306	0.011553	0.0032291	1165.6	0.00011787	0.00012905	1001.3	260.57	0.00011458	0.00012774	249.49	81.187	74.648	26.043	0.00011917	33.001	-62.384	-102.713	-148.378	-141.168	-34.187	130.993	-142.395	-135.984	-40.374	74.873	-137.695	-134.044	-132.302	-127.136	115.200	-130.849	-8191	255	
1444.196	1	1	0	0	0.20372	0.05972	0.18953	0.17285	0.16997	0.23169	0.21191	0.25025	0.21246	0.14267	0.27749	0.1333	0.1019	0.17574	0.25133	0.22444	-3.525	-4.025	-3.2438	-4.1813	-3.7667	-3.3479	-4.3917	-3.5687	-3.4938	-4.0479	-3.1729	-4.0604	-3.6583	-3.3438	-4.1604	-3.4875	55.280	160.210	99.624	183.694	201.319	-120.649	94.740	108.882	29.972	38.040	-4.984	-139.052	180.403	176.686	166.682	191.810	0.00034285	0.00074387	0.00017736	1272.3	1.5173e-05	1.3131e-05	1096.2	282.32	1.3749e-05	9.8754e-06	257.7	80.748	73.212	26.946	2.0063e-05	34.143	0.0070393	0.011297	0.0031582	1165.2	0.00011685	0.00012491	1006.8	261.1	0.00011214	0.00012649	251.17	81.225	74.965	26.074	0.00011746	33.251	-94.112	135.806	65.430	-140.903	-34.495	164.931	-142.248	-136.376	-118.861	153.415	-137.766	-133.792	-131.258	-127.335	-31.302	-130.378	-8191	255	
1444.267	1	1	0	0	0.23721	0.12411	0.25869	0.34273	0.17969	0.18707	0.2106	0.075028	0.14631	0.15383	0.23185	0.41579	0.40943	0.10204	0.20246	0.16131	-3.2687	-4.0854	-3.1208	-4.1375	-3.8396	-3.3688	-4.2646	-3.6688	-3.4896	-4.1792	-3.3792	-3.8563	-4.1083	-3.4958	-4.1208	-3.5229	-52.672	51.284	97.216	170.343	137.030	-4.348	117.707	177.512	99.055	-14.989	109.253	162.346	197.696	-76.845	-118.352	111.669	0.00041136	5.5483e-05	0.00050665	1277.4	5.1689e-06	6.022e-06	1092.6	283.38	5.2716e-06	1.0779e-05	256.71	80.496	73.099	26.962	6.9931e-06	33.385	0.006977	0.011274	0.0031466	1172.4	0.00011738	0.00012581	1003.7	262.67	0.00011255	0.00012808	250.02	80.966	75.088	25.981	0.00011838	32.767	-69.013	-14.504	-60.693	-141.020	134.647	-134.388	-141.727	-136.719	-100.294	98.642	-137.780	-133.197	-132.366	-127.476	89.692	-130.446	-8191	255	
1444.365	1	1	0	0	0.098505	0.082683	0.17586	0.28203	0.029711	0.22029	0.23017	0.065453	0.17125	0.1757	0.059534	0.099892	0.16005	0.1573	0.21976	0.055147	-3.1729	-4.1958	-3.225	-3.9542	-4.0583	-3.0979	-4.3688	-3.6417	-3.3625	-4.2937	-3.2646	-3.7896	-4.225	-3.2271	-4.0542	-3.8021	-103.674	43.770	145.495	130.202	105.165	119.564	170.451	67.936	-117.434	105.881	166.148	160.099	119.582	21.403	190.553	-33.378	0.00041199	0.00095268	0.00048669	1280	8.6984e-06	1.406e-05	1094.1	280.04	6.2245e-06	6.254e-06	256.42	80.393	73.211	26.838	9.7104e-06	33.536	0.0071407	0.01142	0.0032234	1168.7	0.00011959	0.00012833	1000.6	260.96	0.00011609	0.00012862	248.9	80.832	74.73	26.065	0.00012068	32.807	-57.071	-5.778	-48.653	-140.587	54.408	50.734	-141.611	-136.429	-111.973	22.246	-137.800	-133.873	-131.722	-127.045	20.742	-130.476	-8191	255	
1444.484	1	1	0	0	0.12426	0.14217	0.047288	0.20846	0.18891	0.13579	0.062975	0.23598	0.11557	0.19106	0.15835	0.21159	0.091348	0.28403	0.035668	0.018058	-2.925	-4.2354	-3.3979	-3.6354	-3.9313	-3.1813	-4.0875	-3.9583	-3.3187	-4.1625	-3.4792	-3.6958	-4.125	-3.2708	-3.9292	-3.95	98.272	161.892	-124.933	190.943	139.812	-65.199	34.311	176.793	34.666	109.161	183.495	-140.538	-36.864	103.248	-87.670	-76.927	0.00058885	0.0015756	0.00021779	1268	4.657e-06	1.1125e-05	1093.3	281.9	9.0272e-06	5.1949e-06	257.49	79.759	72.734	26.672	1.5131e-06	33.436	0.0072736	0.011652	0.0032424	1168.7	0.00011906	0.00012971	1003.7	261.43	0.00011727	0.0001314	249.84	81.178	75.029	26.051	0.00012392	32.902	-75.150	-57.621	44.698	-140.965	-8.838	-63.236	-141.918	-136.505	141.951	194.237	-137.788	-133.327	-131.732	-126.902	-101.844	-130.342	-8191	255	
1444.580	1	1	0	0	0.037405	0.054726	0.19841	0.20035	0.2105	0.32006	0.077013	0.24752	0.19959	0.21703	0.071673	0.18613	0.28189	0.26651	0.096432	0.080846	-2.8708	-4.075	-3.4333	-3.5667	-4.2063	-3.2521	-4.0896	-4.0375	-3.2458	-4.0333	-3.5958	-3.4437	-4.275	-3.1875	-3.8646	-4.0792	141.834	170.208	56.816	166.248	-137.999	-43.308	150.431	156.991	-8.827	59.291	-152.622	162.633	184.936	-89.563	194.495	198.092	0.00042067	0.000488	0.00017123	1269	5.5324e-06	6.2288e-06	1100.9	281.97	1.1384e-05	1.7245e-05	256.38	80.311	72.984	26.974	2.0813e-05	33.452	0.0074145	0.011731	0.0032553	1171.6	0.00012124	0.00012976	1008.6	261.33	0.00011647	0.00013107	249.95	81.205	75.459	26.066	0.00012283	32.974	-67.296	61.316	37.755	-140.708	-111.164	41.735	-141.936	-136.424	42.500	-64.289	-138.148	-133.595	-131.126	-127.360	91.121	-130.256	-8191	255	
1444.677	1	1	0	0	0.088397	0.078914	0.02705	0.14628	0.17241	0.19828	0.37263	0.27183	0.1046	0.17118	0.1463	0.22386	0.20859	0.13527	0.065054	0.097676	-2.8979	-4.2271	-3.6583	-3.6021	-4.1937	-3.4729	-3.8146	-4.0854	-3.3625	-3.9792	-3.8563	-3.2333	-4.3854	-3.4042	-3.5938	-4.0875	168.295	-137.092	55.211	169.558	-13.350	51.325	120.585	160.762	9.897	139.433	-137.182	-59.255	181.456	139.906	67.396	98.067	0.00046391	0.00096615	0.00020315	1266.7	6.3467e-06	1.2272e-05	1077	281.79	8.3667e-06	1.3426e-05	252.58	79.257	72.234	26.612	2.1306e-05	32.763	0.0073243	0.011754	0.0033268	1168.9	0.00012391	0.00013439	995.46	261.25	0.0001192	0.00013469	247.35	80.468	75.026	26.017	0.00012702	32.553	-58.853	-131.223	133.258	-140.721	20.626	55.936	-141.986	-136.096	9.198	97.700	-138.092	-133.626	-131.577	-127.493	-17.071	-130.413	-8191	255	
1444.797	1	1	0	0	0.19302	0.21751	0.26627	0.24706	0.32086	0.21474	0.018776	0.041283	0.11106	0.19723	0.27418	0.09469	0.14374	0.26805	0.074586	0.24132	-2.9021	-3.9896	-3.8125	-3.4521	-4.2063	-3.4313	-3.6708	-4.2	-3.1042	-3.9604	-3.9458	-3.1188	-4.3042	-3.6417	-3.5083	-4.0458	86.047	-39.467	173.306	150.336	-78.639	137.605	-48.087	47.289	-87.388	-73.368	157.304	-27.403	-43.951	-117.513	-51.667	55.235	0.00018909	0.00039498	0.00027701	1267.6	1.2986e-05	7.5237e-06	1078.7	279.36	9.7864e-06	1.5064e-05	252.3	79.073	72.225	26.663	9.9716e-07	33.134	0.0075603	0.012105	0.0033818	1164.4	0.00012374	0.00013293	993.02	259.71	0.00011975	0.00013525	246.5	80.326	75.196	25.998	0.0001269	32.775	-36.955	-129.229	-48.253	-141.300	44.114	51.894	-141.916	-136.374	-48.636	-65.883	-137.952	-133.314	-131.496	-127.446	178.680	-130.130	-8191	255	
1444.892	1	1	0	0	0.40448	0.078605	0.16118	0.12145	0.20405	0.11436	0.19745	0.16031	0.18582	0.29435	0.33761	0.13192	0.18708	0.047398	0.085441	0.080255	-2.7458	-3.925	-3.7667	-3.5208	-4.2125	-3.6792	-3.6583	-4.2375	-3.2667	-3.7625	-4.15	-3.2771	-4.175	-3.7812	-3.25	-4.1917	-48.241	-12.465	-131.961	178.874	-23.298	-28.231	197.646	100.143	31.879	-47.717	155.089	-113.447	-138.264	101.505	-71.451	-19.185	0.00027827	0.0010317	0.0002528	1258.4	8.5543e-06	9.668e-06	1076.8	278.76	1.5093e-05	3.5613e-06	255.42	80.347	72.644	26.75	1.8112e-06	33.589	0.0076196	0.012263	0.0034743	1160.5	0.00012855	0.0001368	994	259.17	0.00012201	0.00013631	248.32	80.928	75.268	26.078	0.00012622	33.059	-33.871	191.304	-50.907	-140.825	-75.308	26.272	-141.987	-136.036	-41.431	69.569	-138.096	-133.326	-131.812	-127.230	108.904	-130.502	-8191	255	
1444.965	1	1	0	0	0.13113	0.24139	0.068821	0.0912	0.12061	0.10054	0.17858	0.28352	0.16084	0.11467	0.23116	0.14952	0.14423	0.1774	0.099228	0.10744	-3.0354	-3.7333	-4.0437	-3.3563	-4.0771	-3.7396	-3.5312	-4.25	-3.3271	-3.8375	-4.2604	-3.3937	-4.1396	-3.8042	-3.3396	-4.1833	72.952	32.433	20.676	186.545	1.404	118.099	196.205	117.306	107.280	-39.935	-56.531	165.611	192.115	-76.030	54.896	-39.026	0.00034464	0.00064415	9.5058e-05	1253.7	7.5717e-06	4.6497e-06	1079.9	279.71	1.0968e-05	1.5804e-05	255.91	80.654	72.401	26.824	1.3792e-06	33.243	0.007572	0.012144	0.0034161	1158.2	0.00012467	0.00013413	997.71	259.91	0.00012039	0.00013544	249.02	81.372	75.011	26.157	0.00012557	32.926	-66.601	114.612	157.572	-140.727	25.142	154.936	-141.896	-136.057	10.251	17.423	-138.185	-133.791	-131.951	-127.262	15.501	-130.270	-8191	255	
1445.086	1	1	0	0	0.10115	0.069462	0.082135	0.27049	0.20195	0.21299	0.25585	0.13019	0.21074	0.18424	0.18636	0.17938	0.2667	0.14385	0.12815	0.045454	-3.0646	-3.5979	-4.0542	-3.4333	-3.975	-3.9688	-3.3375	-4.2771	-3.5896	-3.4938	-4.3	-3.3771	-4.0792	-3.9437	-3.1958	-4.2625	65.601	-145.046	168.530	160.563	109.585	61.821	123.850	120.751	48.387	-98.934	169.474	-29.003	-94.393	175.768	54.736	189.510	0.00036911	0.0021308	0.00021096	1245	2.2998e-05	5.1106e-06	1069.6	278.61	1.4529e-05	2.732e-06	251.59	78.775	72.571	26.856	3.7629e-06	33.242	0.0074726	0.012315	0.0034088	1152.1	0.00012649	0.0001377	987.88	259.6	0.00012175	0.00013895	247.58	80.335	75.19	26.172	0.0001273	32.838	-46.320	-114.977	-66.858	-140.963	-98.239	-146.871	-142.154	-135.901	-119.127	70.499	-138.015	-133.505	-131.537	-127.136	-8.044	-130.181	-8191	255	
1445.180	1	1	0	0	0.18566	0.16233	0.16522	0.16265	0.3192	0.14499	0.11889	0.41823	0.21853	0.055317	0.20366	0.3334	0.13439	0.056325	0.1066	0.17897	-3.1188	-3.3854	-4.0021	-3.5187	-3.9667	-4.1438	-3.3021	-4.2	-3.6292	-3.2771	-4.2271	-3.2917	-3.8354	-3.9896	-3.2917	-4.3167	-115.178	-124.422	-109.371	143.260	4.087	-55.176	154.330	201.500	188.091	110.706	185.707	133.573	-13.542	88.904	169.531	162.630	0.00025453	0.00061873	0.00056703	1245.3	1.1646e-05	6.3277e-06	1071.9	279.71	1.9623e-06	6.786e-06	253.93	80.493	72.476	26.72	5.7778e-06	33.244	0.0074285	0.012001	0.0033507	1151	0.00012375	0.00013115	988.83	259.34	0.00011804	0.00013237	247.75	80.869	74.766	26.099	0.00012431	32.876	-39.001	-32.200	-52.478	-140.857	39.298	108.448	-142.272	-135.808	-123.652	56.116	-137.964	-133.034	-131.623	-127.364	-64.072	-130.110	-8191	255	
1445.276	1	1	0	0	0.11608	0.14364	0.26623	0.22408	0.12965	0.20092	0.24342	0.085982	0.12995	0.068242	0.24175	0.089791	0.39658	0.15488	0.24406	0.071211	-3.2875	-3.2375	-4.2167	-3.2562	-3.7375	-4.1271	-3.3583	-4.1333	-3.6188	-3.3521	-4.3292	-3.5042	-3.575	-4.3458	-3.3688	-4.0854	145.228	-108.982	-40.485	180.518	-147.919	154.696	-138.582	-65.345	3.899	126.893	169.256	-124.849	-138.150	156.033	92.184	-111.323	0.00031699	0.00073367	0.00026444	1243.8	1.5899e-05	1.2976e-05	1071.4	277.2	6.7198e-06	1.0338e-05	250.07	78.149	70.91	26.442	5.2769e-06	33.023	0.0073207	0.011868	0.0032929	1145.6	0.00012155	0.00013053	982.86	256.48	0.00011623	0.00013065	244.37	79.059	73.406	25.741	0.00012127	32.499	-53.654	-9.171	-108.848	-140.577	-85.544	-62.757	-141.927	-136.059	96.047	-14.468	-137.459	-133.447	-131.640	-127.160	114.998	-129.782	-8191	255	
1445.372	1	1	0	0	0.1968	0.11112	0.18251	0.15095	0.11303	0.086106	0.10993	0.08778	0.24269	0.12715	0.055515	0.16661	0.06005	0.059247	0.16049	0.034567	-3.5104	-3.3396	-4.3021	-3.5792	-3.5229	-4.0396	-3.4021	-3.9708	-3.8438	-3.2125	-4.1438	-3.6125	-3.5229	-4.2708	-3.2542	-3.9021	-67.071	34.631	-98.610	96.643	159.324	-4.557	-89.158	154.541	-29.435	-142.495	7.101	166.532	9.782	123.600	-50.114	51.015	0.00035965	0.00129	0.00015754	1251.1	4.2047e-06	1.896e-05	1071.7	277.34	2.6676e-06	1.5113e-05	248.73	78.031	71.071	26.305	5.2377e-06	32.882	0.0071945	0.011596	0.0032277	1150.4	0.00011958	0.00012986	985.91	257.24	0.00011724	0.00013225	245.32	79.665	74.079	25.806	0.00012827	32.628	-62.631	-0.904	-63.863	-141.090	26.039	85.991	-141.741	-136.038	-1.271	-43.066	-137.564	-133.662	-131.186	-127.209	180.470	-130.701	-8191	255	
1445.468	1	1	0	0	0.23792	0.21212	0.15112	0.062897	0.28418	0.17953	0.24705	0.20238	0.13358	0.35052	0.21929	0.18088	0.10724	0.19632	0.28955	0.079693	-3.7208	-3.1312	-4.075	-3.7125	-3.2875	-4.3896	-3.5396	-3.8396	-3.9792	-3.1	-4.0062	-3.7708	-3.2667	-4.1896	-3.1292	-3.7229	83.511	13.034	-141.061	126.474	-11.557	-119.967	120.495	-134.899	41.359	-130.044	149.313	183.554	10.087	169.950	-115.696	29.578	0.00047284	0.00088201	0.00030251	1235.9	1.2871e-05	1.0845e-05	1049	272.75	1.6339e-05	1.3803e-06	247.02	77.805	71.344	26.394	1.1831e-05	32.77	0.0077436	0.012638	0.0035363	1145.4	0.00013106	0.00014225	973.02	255.12	0.00012708	0.00014375	244.25	80.077	74.393	25.897	0.00013226	32.588	-80.565	1.419	-153.385	-141.239	9.334	18.677	-142.041	-136.390	-43.175	25.421	-137.817	-133.490	-131.293	-127.226	-76.947	-129.850	-8191	255	
1445.565	1	1	0	0	0.17299	0.16295	0.29696	0.049726	0.14669	0.26234	0.11412	0.15536	0.12599	0.28309	0.22314	0.13086	0.31254	0.30177	0.30162	0.2418	-3.6688	-3.1021	-4.1104	-3.8063	-3.3042	-4.3375	-3.6354	-3.5792	-4.0938	-3.3854	-3.8688	-3.9562	-3.2313	-4.2667	-3.4958	-3.5396	-126.773	107.465	194.257	41.747	98.067	-69.791	125.226	149.472	18.448	124.971	160.482	179.091	191.297	66.555	-78.480	32.404	0.00035464	0.001232	0.00013439	1242.9	1.2373e-05	1.9016e-05	1054.3	272.13	5.3279e-06	7.3723e-06	249.16	78.297	71.011	26.616	1.0389e-06	33.084	0.0077718	0.012441	0.0035308	1144.7	0.00013061	0.00013921	974.02	254.58	0.00012292	0.00014043	245.02	80.058	74.543	26.058	0.00012989	32.913	-56.842	-66.651	-67.420	-141.062	-126.447	26.599	-141.889	-135.792	51.946	-12.090	-138.072	-133.923	-131.987	-127.668	8.394	-130.549	-8191	255	
1445.661	1	1	0	0	0.21499	0.16538	0.071503	0.090102	0.18154	0.18368	0.21598	0.21788	0.2548	0.23235	0.26524	0.14368	0.24059	0.1557	0.17496	0.21027	-4.0104	-3.4667	-3.8917	-4.1562	-3.3021	-4.1604	-3.8125	-3.5104	-4.2146	-3.4021	-3.9271	-3.9813	-3.3271	-4.1396	-3.5875	-3.4813	-27.460	-128.041	162.104	155.868	13.842	-2.669	88.726	155.366	-38.287	174.179	201.803	-69.103	-149.487	-123.727	102.979	-143.735	0.00035977	0.00087189	0.00023453	1241.1	1.4907e-05	1.9135e-05	1066.2	274.75	9.4904e-06	1.175e-05	248.45	78.897	72.22	26.848	3.4437e-06	33.391	0.0077621	0.012547	0.0034934	1144.5	0.00013002	0.00014034	981.51	256.26	0.00012526	0.00014241	246.23	80.784	75.524	26.331	0.00013561	33.362	-66.633	-20.906	114.841	-140.696	131.347	-19.802	-141.959	-136.015	23.238	116.012	-137.559	-133.548	-131.609	-127.096	-43.463	-129.949	-8191	255	
1445.757	1	1	0	0	0.15653	0.24459	0.054454	0.081083	0.060789	0.32416	0.017756	0.1811	0.17253	0.088449	0.095695	0.10303	0.23264	0.27856	0.15082	0.2414	-3.7521	-3.3333	-3.8104	-4.1833	-3.3229	-3.9833	-3.8396	-3.3312	-4.2312	-3.3917	-3.8312	-4.1312	-3.3187	-4.0396	-3.8271	-3.2687	150.810	122.655	168.447	188.063	-121.103	-68.696	-46.278	82.283	202.416	78.335	99.004	119.760	36.882	115.366	83.864	116.442	0.00038671	0.0010355	0.00011173	1234.7	1.7467e-05	1.807e-05	1053.1	274.34	5.2029e-06	2.1113e-05	247.47	78.715	72.056	26.9	1.4764e-05	33.248	0.0080572	0.012968	0.0036682	1144.3	0.00013621	0.00014788	974.08	256.64	0.00013434	0.00015037	246.37	81.053	75.871	26.389	0.00013906	33.1	-65.391	-63.430	42.379	-141.113	70.891	-7.275	-141.915	-135.983	-97.760	62.860	-137.696	-133.482	-131.536	-127.493	113.877	-130.144	-8191	255	
1445.878	1	1	0	0	0.21516	0.024252	0.16468	0.10989	0.11681	0.19022	0.17898	0.17788	0.10656	0.23687	0.08833	0.29131	0.11195	0.14669	0.080825	0.03481	-4.0708	-3.3729	-3.5354	-4.3208	-3.1729	-4.0437	-4.0333	-3.2479	-4.1792	-3.4625	-3.6792	-4.225	-3.4625	-3.9083	-4.0333	-3.3167	-86.620	-121.441	-71.209	141.887	15.650	10.484	36.565	158.440	-148.570	55.199	-140.379	200.090	160.679	-104.937	72.946	182.723	0.00029218	0.00012212	0.00017124	1231.9	1.3312e-05	3.7829e-06	1048.1	272.96	1.3529e-05	9.0817e-06	247.38	78.667	71.703	26.625	5.6941e-06	32.998	0.0081525	0.013212	0.0037062	1143.1	0.00013643	0.0001455	970.73	255.23	0.00013081	0.00014967	245.24	80.764	75.564	26.275	0.00013939	33.066	-46.892	-51.728	-153.362	-140.624	66.315	3.646	-141.659	-136.379	34.486	-43.598	-138.149	-133.083	-131.783	-127.366	1.950	-130.439	-8191	255	
1445.974	1	1	0	0	0.030207	0.1479	0.20265	0.30415	0.25466	0.21505	0.23937	0.14468	0.050165	0.17094	0.1978	0.22799	0.086712	0.16847	0.070446	0.028817	-3.9021	-3.6104	-3.5938	-4.2625	-3.3	-3.8917	-4.3521	-3.4208	-4.1646	-3.5208	-3.3479	-4.15	-3.3271	-3.9313	-3.9458	-3.4021	-141.548	173.789	59.742	202.962	44.706	19.872	192.116	29.463	65.679	-6.245	54.581	-78.856	-94.309	77.513	108.925	156.496	0.00027302	0.001932	9.4015e-05	1228.3	1.0659e-05	9.205e-06	1045.2	270.24	9.1415e-06	1.8932e-05	248.91	78.158	70.607	26.756	8.0769e-06	33.431	0.0082755	0.013273	0.0037453	1138.3	0.00013811	0.00014755	970.79	254.4	0.00013355	0.00015121	246.64	81.145	75.222	26.397	0.00014052	33.368	-67.524	-93.056	63.438	-141.128	-82.476	-137.226	-142.113	-135.976	34.171	-64.088	-138.043	-133.494	-131.791	-127.207	26.975	-130.111	-8191	255	
1446.068	1	1	0	0	0.15804	0.22786	0.20168	0.30278	0.29412	0.23331	0.18878	0.2044	0.035493	0.11461	0.12433	0.13542	0.1579	0.26539	0.1539	0.11687	-3.9313	-3.7083	-3.2062	-4.2958	-3.3229	-3.7396	-4.2917	-3.5229	-4.1167	-3.7125	-3.4375	-4.3854	-3.3771	-3.8542	-4.2125	-3.3604	164.890	15.293	70.509	195.652	137.903	-45.423	177.843	127.210	-63.714	89.319	-138.006	117.995	90.382	-104.306	-99.315	56.952	0.00035714	0.0022762	0.00015209	1216.9	8.9805e-06	1.3301e-05	1051.9	269.54	1.0936e-05	1.5975e-05	248.15	78.272	71.56	27.032	1.1616e-05	33.347	0.0083939	0.01338	0.0038035	1135.2	0.00014028	0.00015134	973.63	254.08	0.00013457	0.00015318	246.58	81.372	75.791	26.603	0.00014234	33.48	-76.516	123.653	98.031	-141.243	-90.790	-109.111	-141.967	-136.140	-66.202	61.192	-138.291	-133.380	-132.073	-127.074	141.776	-130.840	-8191	255	
1446.166	1	1	0	0	0.36203	0.09114	0.062982	0.026371	0.25255	0.13744	0.095891	0.055464	0.19364	0.10746	0.33625	0.18829	0.05971	0.13238	0.22445	0.050251	-3.6729	-3.9979	-3.3333	-4.2167	-3.525	-3.6417	-4.3104	-3.4333	-3.9271	-3.8312	-3.3875	-4.2708	-3.7521	-3.3854	-4.2542	-3.2875	107.801	80.682	134.535	37.938	50.592	-115.790	98.720	-89.085	67.624	-135.901	185.587	41.572	120.423	175.239	-98.704	179.554	0.00045731	0.00095721	0.00022007	1225.2	4.7402e-06	1.1329e-05	1035.8	269.9	2.9714e-06	1.7041e-05	247.11	78.559	71.368	26.726	9.3633e-06	32.942	0.0085446	0.013741	0.0038869	1140.2	0.00014432	0.00015498	967.67	254.61	0.00014008	0.00015847	246.42	81.641	76.25	26.547	0.00014771	33.299	-62.310	127.690	7.257	-141.074	116.651	60.758	-141.696	-136.160	26.460	-11.722	-137.598	-133.690	-131.160	-127.440	67.706	-130.746	-8191	255	
1446.260	1	1	0	0	0.080745	0.10001	0.3078	0.23311	0.13912	0.15216	0.074026	0.17319	0.15279	0.14013	0.088013	0.1634	0.21079	0.30566	0.22883	0.22685	-3.5625	-4.0563	-3.1188	-4.2937	-3.6396	-3.4875	-4.4083	-3.3688	-3.6125	-4.0938	-3.3833	-4.2104	-3.6208	-3.3688	-4.2083	-3.5229	8.950	136.960	96.665	174.074	158.050	-44.197	186.198	155.409	197.050	27.458	113.850	-90.410	100.738	-134.228	6.793	110.416	0.00014305	0.00025409	0.00015234	1220.6	1.1142e-05	1.9808e-05	1041	269.65	4.1505e-06	5.391e-06	245.95	78.249	71.329	26.81	3.1628e-05	33.269	0.0087976	0.014121	0.0039383	1139	0.00014452	0.00015681	968.8	253.81	0.00014073	0.000158	246.14	81.458	75.8	26.525	0.00014766	33.458	-65.974	174.771	88.365	-140.652	-37.309	-38.969	-142.182	-136.245	122.865	94.951	-138.047	-133.448	-131.997	-127.512	-48.826	-130.236	-8191	255	
1446.357	1	1	0	0	0.14692	0.11256	0.20672	0.11512	0.17879	0.060343	0.10769	0.24624	0.076726	0.085025	0.085282	0.17221	0.1414	0.27028	0.026091	0.045149	-3.3792	-4.1062	-3.1813	-4.1146	-3.8292	-3.4354	-4.4708	-3.525	-3.6	-4.2583	-3.4583	-3.975	-3.9917	-3.3479	-4.1625	-3.6375	-26.715	-102.256	-30.957	199.639	58.153	118.879	184.820	89.553	-10.037	142.367	130.596	-131.684	154.301	174.073	-77.020	-122.157	0.0003838	0.0014359	0.00028658	1209.7	6.2105e-06	2.5054e-05	1039.5	269.49	7.4024e-06	1.3149e-05	246.94	78.119	72.17	26.717	1.0772e-05	33.559	0.0087337	0.01405	0.0039509	1135.4	0.00014651	0.00015795	971.75	254.7	0.00014109	0.00015932	247	81.627	76.407	26.583	0.00014757	33.719	-74.541	-118.236	-125.774	-140.541	116.579	3.720	-141.542	-136.334	129.193	-33.230	-137.987	-133.400	-132.011	-127.247	48.559	-130.127	-8191	255	
1446.477	1	1	0	0	0.3519	0.15126	0.22392	0.10929	0.21852	0.16707	0.13543	0.07543	0.04904	0.030561	0.30078	0.22041	0.016715	0.15307	0.084716	0.27185	-3.2188	-4.3292	-3.2604	-4.0354	-3.9896	-3.3104	-4.375	-3.8854	-3.5187	-4.15	-3.3917	-3.9208	-4.2146	-3.3063	-4.3458	-3.7687	45.960	-92.600	1.237	-56.733	44.503	-92.781	158.034	126.628	-154.332	88.142	202.620	155.091	-125.712	-138.109	-98.717	152.374	0.00030147	0.001113	0.0005483	1226.3	2.8296e-06	7.13e-06	1043	270.08	2.0735e-05	2.1517e-05	245.92	79.624	70.744	26.836	2.221e-06	33.6	0.008867	0.014307	0.0040131	1141.3	0.00014726	0.00016061	976.06	255.01	0.00014388	0.00016101	247.63	82.611	76.408	26.69	0.00015182	33.776	-110.412	-133.000	-68.315	-140.681	25.087	-44.936	-141.697	-136.340	-32.186	-42.389	-137.836	-133.182	-131.613	-127.154	-96.712	-130.586	-8191	255	
1446.573	1	1	0	0	0.27474	0.13853	0.14635	0.12634	0.051229	0.054434	0.16149	0.29769	0.10832	0.14254	0.09741	0.095854	0.18689	0.07265	0.32173	0.27583	-3.1458	-4.2792	-3.4896	-3.8438	-4.1521	-3.2146	-4.2292	-3.8479	-3.3333	-4.2625	-3.6562	-3.9104	-4.3313	-3.2625	-4.0687	-3.8604	-131.038	-134.737	-78.291	137.866	-118.505	-53.362	110.444	172.912	143.155	-1.227	95.483	-141.813	118.448	13.389	125.682	139.530	0.00034467	0.00071245	8.7509e-05	1221.7	9.0084e-06	1.2411e-05	1037.6	269.74	9.94e-06	1.3036e-05	246.28	77.684	70.801	26.726	2.0726e-05	32.849	0.0089656	0.014432	0.0040987	1141.3	0.00014833	0.00016164	970.9	255.6	0.00014605	0.00016544	246.81	81.743	76.362	26.624	0.00015287	33.536	-41.641	184.566	44.592	-141.132	-35.089	15.470	-141.883	-136.314	82.528	-120.857	-137.939	-133.959	-131.609	-127.357	-43.781	-129.911	-8191	255	
1446.669	1	1	0	0	0.14336	0.1406	0.089082	0.14277	0.22567	0.064806	0.077696	0.3146	0.040312	0.24143	0.27503	0.25544	0.10231	0.33955	0.032033	0.13989	-3.2271	-4.2896	-3.4875	-3.6792	-4.1208	-3.2979	-4.1396	-4.1083	-3.2438	-4.2354	-3.6583	-3.6958	-4.3771	-3.2292	-3.9062	-4.0833	-80.444	-65.698	99.193	-122.106	-118.833	85.795	-9.486	161.358	144.436	97.089	-131.043	135.533	-95.853	158.131	-68.855	53.357	0.00028593	0.00090012	0.00036781	1213.1	7.0673e-06	1.5094e-05	1033	269.51	5.0718e-06	1.5397e-05	246.66	78.845	71.623	27.026	1.538e-05	33.196	0.0091131	0.014595	0.0041462	1133.9	0.00015119	0.00016506	966.15	254.63	0.00014846	0.00016656	247.87	82.481	76.904	26.818	0.00015512	33.702	-91.209	121.090	-65.840	-140.693	9.663	76.221	-141.485	-136.100	-101.615	40.173	-137.665	-133.742	-131.363	-127.602	120.530	-130.868	-8191	255	
1446.766	1	1	0	0	0.047574	0.17155	0.057409	0.27741	0.09807	0.074029	0.20378	0.063778	0.17445	0.14345	0.097637	0.29145	0.13986	0.18078	0.36129	0.077573	-2.9208	-3.9958	-3.5917	-3.55	-4.2063	-3.2333	-3.9688	-4.3104	-3.2604	-4.1979	-3.8146	-3.3875	-4.1375	-3.4833	-3.8042	-4.2438	16.373	-21.346	2.827	172.533	95.406	-126.533	132.636	83.337	-116.299	-19.816	-119.700	69.133	134.632	118.718	-30.735	23.186	0.00041117	0.0012845	0.00025785	1213.3	1.6175e-05	8.5785e-06	1037	267.79	2.7707e-06	7.4416e-06	247.88	77.847	72.003	26.774	7.3679e-06	33.661	0.0090631	0.014714	0.0041346	1136.1	0.0001508	0.00016377	972.48	254.52	0.00014781	0.00016572	249.68	82.849	77.35	26.833	0.00015447	34.048	-63.006	-50.404	-16.308	-141.042	62.802	162.645	-141.660	-136.133	108.088	178.470	-138.055	-133.514	-131.868	-127.190	116.544	-130.747	-8191	255	
1446.862	1	1	0	0	0.055991	0.28073	0.082582	0.1487	0.041442	0.1115	0.15254	0.061542	0.11988	0.14728	0.044794	0.33759	0.21521	0.077584	0.11314	0.1648	-2.7208	-4.2583	-3.7917	-3.5062	-4.2771	-3.6292	-3.8812	-4.2708	-3.425	-4.1854	-3.8458	-3.2833	-4.2375	-3.4458	-3.4958	-4.1167	-74.592	154.251	-17.527	93.658	88.347	171.941	176.188	-57.201	56.384	-96.554	189.282	-99.413	166.184	35.037	-10.670	-135.315	0.00030483	0.0012102	0.00025262	1221	1.0622e-05	7.1124e-06	1053	272.87	1.4185e-05	1.5934e-05	249.57	78.313	72.216	26.936	5.2901e-06	33.344	0.0092965	0.014894	0.0041477	1141	0.00015367	0.00016455	981.16	257.63	0.00014754	0.00016953	250.81	83.228	77.768	26.906	0.00015868	34.023	-43.594	-97.846	-137.137	-140.596	97.954	85.575	-141.677	-136.210	34.788	19.215	-138.104	-133.227	-131.508	-127.487	-110.140	-130.643	-8191	255	
1446.958	1	1	0	0	0.31683	0.046089	0.088532	0.1499	0.14272	0.12289	0.16799	0.16737	0.21519	0.12749	0.10555	0.076536	0.084872	0.19003	0.13277	0.036965	-2.8667	-4.0271	-3.7979	-3.3458	-4.3042	-3.6292	-3.7354	-4.2688	-3.1437	-3.9917	-4.0875	-3.325	-4.0979	-3.6479	-3.5438	-4.225	137.186	41.295	-47.100	-108.330	-55.626	181.606	-145.923	173.595	-64.228	156.569	-79.164	139.857	145.553	161.174	118.236	-63.616	0.0004506	0.0006154	0.00030934	1222.6	7.2952e-06	1.4292e-05	1040.7	271.81	7.4407e-06	1.9798e-05	248.56	79.02	71.279	26.672	4.9886e-06	33.153	0.0093836	0.015193	0.0042795	1142.3	0.00015845	0.00016865	975.77	257.75	0.00015291	0.00017194	251.04	82.992	77.63	26.864	0.00015884	33.996	-65.868	-116.498	125.063	-140.731	-8.182	3.008	-141.471	-136.372	76.134	35.582	-137.756	-133.172	-131.762	-127.274	-121.552	-130.270	-8191	255	
1447.054	1	1	0	0	0.10118	0.17116	0.16617	0.30812	0.25731	0.033705	0.27115	0.14255	0.20667	0.17673	0.052347	0.11422	0.23084	0.11093	0.27485	0.31811	-2.9813	-3.8667	-4.0208	-3.325	-4.1583	-3.6312	-3.6646	-4.4146	-3.2958	-3.7979	-4.1562	-3.4688	-4.1542	-3.7708	-3.4625	-4.2312	59.052	89.593	190.395	-149.245	-7.733	-88.315	99.785	158.316	100.654	-94.847	-83.163	2.794	-46.058	193.875	-50.779	67.631	0.00030255	0.0016909	0.00034766	1215	6.8134e-06	6.2769e-06	1048	270.42	4.6295e-06	4.1057e-06	248.7	79.587	72.609	26.992	4.872e-06	33.716	0.0094242	0.015199	0.0042736	1143.2	0.00015615	0.00016903	977.05	256.85	0.00015175	0.00017083	250.71	83.413	77.897	26.927	0.00015926	34.105	-45.428	-45.311	-147.638	-141.004	-68.773	5.162	-141.649	-136.181	-103.976	-97.973	-137.700	-133.739	-131.353	-127.533	96.575	-130.384	-8191	255	
1447.148	1	1	0	0	0.19555	0.26395	0.08907	0.41411	0.089684	0.052873	0.28287	0.26606	0.15893	0.2275	0.30551	0.11674	0.21002	0.13132	0.13605	0.031406	-3.1	-3.6917	-4.0729	-3.4562	-4.0312	-3.8187	-3.5833	-4.4479	-3.4083	-3.6	-4.2417	-3.3208	-3.8833	-3.8521	-3.1792	-4.1583	-8.831	-4.101	-130.966	168.408	126.775	46.636	77.909	-146.461	-149.757	31.407	201.352	138.558	-90.518	203.017	3.276	-104.950	0.00039073	0.00019199	0.00024241	1226.7	1.0933e-05	1.4931e-05	1044.3	270.74	5.6698e-06	1.001e-05	249.49	79.303	71.277	26.726	1.0292e-05	33.819	0.0094686	0.015238	0.0042683	1147.1	0.00015514	0.00016891	982.67	257.8	0.00015084	0.00016788	251.31	83.317	77.446	26.92	0.00015886	34.262	-46.779	185.659	-70.948	-140.828	-113.506	-148.700	-141.564	-136.508	-32.015	51.086	-138.207	-133.810	-131.954	-127.159	-42.433	-130.431	-8191	255	
1447.269	1	1	0	0	0.15753	0.13641	0.067995	0.098368	0.16163	0.19251	0.11765	0.079522	0.086047	0.096376	0.082493	0.15196	0.19066	0.10362	0.30535	0.16185	-3.3104	-3.5917	-4.2271	-3.4375	-3.9667	-4.0521	-3.3563	-4.1979	-3.6188	-3.475	-4.2667	-3.3708	-3.7667	-4.1229	-3.0958	-4.3812	102.722	110.395	48.739	31.367	19.172	-49.522	58.460	28.184	-73.492	32.917	183.773	195.754	24.343	-57.241	17.231	-115.899	0.00044808	0.00059349	0.00022713	1232.9	2.4411e-05	8.7746e-06	1053.5	273.48	1.3785e-05	9.3019e-06	248.54	78.457	71.823	26.778	2.4493e-05	33.05	0.0093351	0.015108	0.0042039	1150.4	0.00015559	0.00016775	985	258.75	0.00014886	0.00016679	250.46	82.888	77.482	26.764	0.00015517	33.66	-49.131	9.233	-97.468	-140.780	79.334	5.113	-141.441	-136.759	15.226	-12.355	-138.631	-133.403	-131.641	-127.155	1.708	-130.224	-8191	255	
1447.365	1	1	0	0	0.081245	0.12959	0.053335	0.20248	0.28274	0.12957	0.20407	0.30049	0.14798	0.04586	0.074145	0.15102	0.15788	0.13037	0.050799	0.11772	-3.3771	-3.5208	-4.1896	-3.4313	-3.8583	-4.1625	-3.4125	-4.1	-3.7583	-3.3438	-4.3146	-3.4271	-3.8312	-4.1208	-3.2354	-4.2208	36.768	-95.656	169.982	90.701	-88.335	97.821	106.821	202.908	92.716	-17.212	-147.474	-104.528	113.280	117.669	65.686	32.104	0.00037071	0.00066558	0.00022032	1228.5	1.3815e-05	1.0963e-05	1046.7	272.08	6.6255e-06	1.3786e-05	247.44	77.988	70.515	26.762	7.003e-06	33.397	0.0092138	0.014909	0.00417	1149.1	0.00015283	0.00016527	981.07	257.88	0.00014799	0.00016463	249.76	82.141	76.684	26.614	0.00015347	33.792	-36.518	141.025	-93.408	-140.874	38.266	4.207	-141.779	-136.513	105.321	169.095	-138.268	-134.042	-131.405	-127.611	0.540	-130.572	-8191	255	
1447.437	1	1	0	0	0.13732	0.07116	0.16214	0.22313	0.17565	0.20515	0.34668	0.20561	0.30605	0.21018	0.14497	0.27729	0.12465	0.28225	0.09139	0.098915	-3.3917	-3.4437	-4.1646	-3.7771	-3.5396	-4.1583	-3.4792	-3.9521	-3.925	-3.4729	-4.2188	-3.6208	-3.7458	-4.2917	-3.2271	-4.0375	143.773	185.286	153.822	-107.744	64.960	169.678	178.537	124.142	67.715	-112.129	72.921	87.891	99.089	187.538	59.177	-29.435	0.00048717	0.00026786	0.00039834	1227.4	1.1801e-05	4.1736e-06	1055.9	273.79	1.2384e-05	1.0116e-05	251.99	78.798	71.813	26.822	9.6331e-06	33.404	0.0090301	0.014624	0.0041115	1149	0.00015021	0.00016007	986.79	258.46	0.00014661	0.0001649	250.24	82.441	76.842	26.739	0.00015137	33.83	-65.199	-110.834	-59.445	-141.130	-124.085	75.466	-141.748	-136.380	-69.125	-39.093	-138.086	-133.485	-131.835	-127.529	159.317	-130.750	-8191	255	
1447.558	1	1	0	0	0.083391	0.218	0.16761	0.19378	0.16349	0.10114	0.21822	0.18014	0.039701	0.12679	0.17359	0.24107	0.12402	0.20786	0.21867	0.14515	-3.5812	-3.2896	-4.2104	-3.7708	-3.6437	-4.1813	-3.5896	-3.9417	-4.0062	-3.3958	-4.3646	-3.7167	-3.5167	-4.2417	-3.3104	-3.9833	-86.783	-15.641	-89.841	140.323	130.755	4.933	144.728	95.928	36.031	-150.281	116.375	103.878	200.301	156.630	-115.358	151.384	0.00035983	0.00091946	0.00039929	1230.3	4.5569e-06	1.0325e-06	1059.2	275.32	1.6426e-05	1.9534e-05	252.19	79.734	72.488	27.093	1.8775e-05	33.709	0.0088564	0.014406	0.004046	1154.5	0.00014741	0.00015915	992.49	260.23	0.00014287	0.00016162	251.93	82.764	77.391	26.889	0.00015087	34.015	-55.761	-122.835	85.736	-140.989	66.864	-102.697	-141.666	-136.349	-42.284	-40.519	-137.617	-134.074	-131.313	-127.473	4.750	-130.017	-8191	255	
1447.654	1	1	0	0	0.22715	0.0095633	0.22895	0.35584	0.26478	0.085201	0.097934	0.15574	0.23606	0.068095	0.23648	0.15757	0.10902	0.12919	0.1299	0.25971	-3.6583	-3.225	-4.1583	-4.0021	-3.3667	-4.325	-3.5375	-3.6583	-4.0833	-3.4125	-4.0458	-3.8667	-3.4583	-4.3167	-3.5583	-3.6937	18.616	-37.832	201.940	-137.349	-24.809	53.585	-55.077	103.114	93.903	-43.615	-96.801	-150.582	196.855	-4.073	-27.860	103.574	0.00023992	0.0017543	0.00031227	1237.7	2.4024e-05	1.4821e-05	1061.8	275.22	6.1188e-06	8.8702e-06	252	79.324	72.53	26.933	2.8995e-05	33.564	0.0089691	0.014503	0.0040215	1158.2	0.00014862	0.0001628	989.5	260.67	0.00014341	0.00016159	252.21	82.515	77.15	26.774	0.00014986	33.683	-34.803	-95.779	112.568	-140.814	-110.441	9.998	-141.721	-136.203	182.900	-81.105	-137.803	-133.957	-131.390	-127.067	-11.241	-130.099	-8191	255	
1447.750	1	1	0	0	0.18978	0.15338	0.19453	0.1042	0.21392	0.12845	0.24216	0.10944	0.1931	0.13202	0.19075	0.25326	0.30389	0.13346	0.34048	0.16619	-3.8708	-3.3563	-4.0021	-3.8292	-3.45	-4.1042	-3.7396	-3.5729	-4.1708	-3.2	-4	-4.0479	-3.2792	-4.2167	-3.6354	-3.5667	96.384	23.042	-48.490	97.142	148.137	103.801	122.854	-25.376	-100.756	45.861	100.964	115.911	-74.861	-130.957	124.820	-34.250	5.9077e-05	0.00064368	0.00039413	1237.3	1.3716e-05	1.5607e-05	1066.8	276.83	9.4536e-06	4.2863e-06	254.27	79.318	72.539	27.135	3.361e-06	33.653	0.008816	0.014199	0.0039453	1159.9	0.0001456	0.00015907	993.83	260.24	0.0001403	0.00016029	251.8	82.746	77.169	26.896	0.00014735	33.866	4.075	202.960	-5.335	-141.131	91.472	-58.904	-141.962	-136.272	-8.667	-65.118	-137.763	-133.396	-131.396	-127.264	-100.611	-130.175	-8191	255	
1447.846	1	1	0	0	0.25408	0.11885	0.13862	0.080159	0.091489	0.07888	0.2141	0.28756	0.12038	0.12298	0.083072	0.16309	0.15664	0.065693	0.038342	0.089341	-3.9688	-3.3083	-3.7958	-4.2417	-3.2687	-4.3375	-3.8229	-3.4229	-4.1438	-3.4125	-3.9437	-4.0604	-3.3312	-4.3	-3.8042	-3.6375	190.578	42.969	54.045	-25.679	-40.477	-69.133	184.369	203.702	-121.503	-71.437	153.978	-53.139	126.666	67.669	-144.831	-96.108	0.00039202	0.0009384	0.00031582	1245	1.2234e-06	1.9517e-05	1074.8	278.07	1.2473e-05	1.3741e-05	251.34	80.321	74.037	27.203	1.3128e-05	34.183	0.0086504	0.013929	0.0039209	1164.3	0.00014392	0.00015626	1000.6	261.56	0.00013828	0.00015641	251.95	82.658	77.709	26.924	0.00014347	34.035	-66.729	201.016	33.775	-140.816	189.853	46.182	-141.644	-136.299	-21.804	-74.806	-137.787	-133.844	-131.718	-127.324	204.696	-130.178	-8191	255	
1447.967	1	1	0	0	0.1854	0.066762	0.13662	0.11526	0.16287	0.1195	0.23434	0.036844	0.072006	0.080913	0.20734	0.083024	0.22565	0.18665	0.23699	0.16136	-3.9	-3.3729	-3.8083	-4.2812	-3.2771	-4.2354	-3.9417	-3.3583	-4.2625	-3.475	-3.8104	-4.2729	-3.2771	-3.9562	-3.7729	-3.3354	173.415	111.151	6.863	190.453	164.983	7.943	97.391	-65.816	170.208	-58.644	-43.124	96.697	5.017	110.228	54.460	150.893	0.00030153	0.0014871	0.00025277	1248.8	1.1494e-05	4.1755e-06	1082.6	278.85	3.7118e-06	8.7242e-06	255.29	79.732	74.006	27.383	1.7865e-05	33.757	0.0085717	0.013769	0.0038549	1167.5	0.00014203	0.00015322	1005.9	262.64	0.0001363	0.0001545	253.16	83.367	77.845	27.011	0.00014575	33.888	-53.037	-67.990	-113.067	-140.954	-39.972	190.244	-141.836	-136.274	-125.652	8.769	-137.735	-133.642	-131.458	-127.231	-89.163	-130.029	-8191	255	
1448.061	1	1	0	0	0.098584	0.018166	0.12954	0.24311	0.13651	0.18196	0.339	0.26053	0.20099	0.10262	0.2567	0.15693	0.1781	0.039557	0.45102	0.090801	-3.7167	-3.5083	-3.7167	-4.2604	-3.275	-3.9854	-4.0104	-3.3312	-4.1312	-3.6188	-3.5187	-4.1917	-3.3021	-4.0229	-4.1125	-3.2542	-22.343	162.264	-116.635	141.568	74.361	-71.694	152.188	72.706	85.624	-84.798	161.682	-32.039	-79.039	133.142	-16.308	125.002	0.00041464	0.0013897	0.00048659	1263.8	4.0919e-06	6.4184e-06	1083.3	280.7	2.717e-05	4.3589e-07	255.44	80.079	73.202	27.296	1.417e-05	33.681	0.0085981	0.013797	0.0038324	1174.9	0.00014263	0.00015267	1003.9	262.8	0.00013614	0.00015192	252.78	82.684	77.067	26.827	0.00013938	33.764	-102.327	47.766	-38.944	-141.030	100.807	-59.126	-141.784	-135.643	2.798	-124.882	-137.563	-133.644	-131.540	-126.866	-12.318	-129.952	-8191	255	
1448.157	1	1	0	0	0.15798	0.091639	0.20906	0.15013	0.11903	0.12694	0.11108	0.048542	0.25236	0.21196	0.10339	0.2347	0.20047	0.21614	0.10074	0.16758	-3.8479	-3.7	-3.4562	-4.1792	-3.4375	-3.8438	-4.3083	-3.3125	-4.1417	-3.775	-3.5708	-4.4	-3.525	-3.6521	-4.0938	-3.2521	-88.249	108.198	-91.482	-47.628	168.632	-107.108	54.243	175.675	-87.827	191.510	172.148	-114.721	-144.249	160.763	29.202	140.186	0.00034616	0.0005464	0.00036711	1270.2	9.4827e-06	6.6026e-06	1091.6	280.98	7.0681e-06	1.2565e-05	259.47	81.373	73.133	27.429	1.1907e-05	34.069	0.0082031	0.013052	0.0036773	1174.4	0.00013584	0.00014573	1009.4	262.32	0.00012988	0.00014726	253.57	82.997	76.961	26.909	0.00013526	33.807	-57.552	-129.578	3.156	-140.768	79.454	73.149	-141.580	-136.211	-26.887	48.630	-137.845	-133.511	-131.574	-126.526	-116.187	-130.133	-8191	255	
1448.253	1	1	0	0	0.20275	0.25589	0.18105	0.17909	0.30542	0.17441	0.26385	0.13124	0.077732	0.11233	0.084409	0.19153	0.25786	0.090643	0.10054	0.32498	-3.7313	-3.7354	-3.3563	-4.4083	-3.5187	-3.6729	-4.3688	-3.2625	-3.9188	-3.9083	-3.3438	-4.3042	-3.6458	-3.6104	-4.1479	-3.4708	12.949	79.808	58.421	140.249	23.479	157.411	183.487	41.532	164.003	55.667	204.109	188.274	-84.399	97.096	108.860	87.762	0.00038117	0.00064635	0.00011703	1273.5	4.7126e-06	7.2953e-06	1096.6	282.76	5.3805e-06	2.1921e-05	259.15	81.974	73.549	27.556	6.4752e-06	34.502	0.0079287	0.012761	0.00353	1177.1	0.00013022	0.00013997	1012.3	264.02	0.00012563	0.00014002	254.18	83.137	76.844	26.865	0.00012898	33.884	-72.728	204.386	2.902	-140.840	23.218	-1.984	-141.291	-136.235	12.014	-57.534	-137.761	-133.562	-131.552	-126.660	-86.273	-130.115	-8191	255	
1448.349	1	1	0	0	0.30232	0.1568	0.16472	0.25936	0.18026	0.11079	0.14176	0.046835	0.023565	0.17731	0.063	0.16296	0.18702	0.17815	0.30808	0.148	-3.5187	-4.0896	-3.3208	-4.4229	-3.5521	-3.5312	-4.3729	-3.5271	-3.9375	-4.1417	-3.4021	-4.3583	-3.6521	-3.6042	-4.2937	-3.3729	-92.241	47.367	163.691	192.852	166.575	18.451	146.499	-104.552	179.617	-13.129	-114.224	69.195	178.981	134.462	-63.848	-59.029	0.00044031	0.0012159	0.00052453	1288.2	1.5029e-05	8.3201e-06	1103.7	285.44	5.9689e-06	1.3243e-05	262.39	82.961	73.938	27.54	1.2383e-05	34.138	0.0076887	0.01228	0.0035071	1183.1	0.00012852	0.00013709	1016.3	265.93	0.00012223	0.00013846	255.11	83.115	77.042	26.892	0.00012782	33.654	-56.527	-99.981	-29.387	-140.534	18.419	-26.326	-142.152	-136.060	43.794	54.245	-137.541	-133.255	-131.431	-127.042	-7.271	-129.848	-8191	255	
1448.446	1	1	0	0	0.13616	0.11095	0.22069	0.16771	0.080085	0.20436	0.13401	0.10502	0.10488	0.075094	0.16695	0.15443	0.08289	0.26696	0.1093	0.1348	-3.3688	-4.2521	-3.0917	-4.3021	-3.7979	-3.3208	-4.4167	-3.6271	-3.8479	-4.2438	-3.275	-4.1917	-3.9042	-3.4667	-4.3354	-3.6021	-9.647	167.143	192.611	171.469	-32.894	-30.509	111.279	164.766	78.992	-7.192	154.849	163.184	45.637	-86.310	-63.330	142.031	0.00031189	0.00035416	0.00045075	1279	1.8444e-05	7.6984e-06	1108.4	285.23	1.4374e-05	6.0126e-06	258.65	81.358	74.488	27.553	4.7472e-06	33.898	0.0076437	0.012284	0.0034882	1181.1	0.00012647	0.00013704	1015.6	266.47	0.00012305	0.00013829	254.16	82.524	76.923	26.825	0.00012801	33.452	-39.839	50.175	-110.722	-140.525	-49.950	-81.612	-141.807	-136.111	9.300	-45.349	-137.990	-133.206	-131.292	-126.775	-125.578	-130.257	-8191	255	
1448.566	1	1	0	0	0.15589	0.17277	0.11807	0.19166	0.17824	0.049592	0.1324	0.10683	0.13997	0.14008	0.18965	0.36104	0.13538	0.17173	0.21595	0.25676	-3.2167	-4.1062	-3.3229	-4.1229	-3.7812	-3.4625	-4.4396	-3.6333	-3.4292	-4.1771	-3.3083	-3.8042	-4.075	-3.4146	-4.1354	-3.6271	67.830	-103.968	142.617	161.504	48.773	-143.662	21.884	185.570	136.162	93.849	10.789	172.182	140.734	-151.680	48.848	111.457	0.00030628	0.0011662	0.00022942	1301.8	1.1262e-05	7.1701e-06	1111	287.47	1.2055e-05	1.1348e-05	260.33	81.814	74.793	27.684	1.9191e-05	34.095	0.0076838	0.012154	0.0033695	1191.1	0.00012712	0.00013588	1021.9	267.58	0.00012037	0.00013817	254.38	82.684	77.08	26.878	0.00012422	33.586	-62.168	-19.472	-101.558	-140.727	48.013	-24.197	-141.686	-135.926	7.584	-67.193	-137.515	-132.938	-130.937	-126.732	-111.700	-129.694	-8191	255	
1448.662	1	1	0	0	0.063642	0.19245	0.059283	0.42017	0.15538	0.16828	0.20647	0.019692	0.16569	0.22698	0.0078043	0.27775	0.28202	0.37062	0.19256	0.25905	-3.0708	-4.2208	-3.3354	-3.8729	-4.0437	-3.1813	-4.3271	-3.8542	-3.5208	-4.2937	-3.3937	-3.9083	-4.1438	-3.2958	-4.1146	-3.6813	-128.626	130.217	-2.469	134.135	-56.570	112.326	-131.393	-86.521	49.891	97.399	154.646	-81.634	117.695	-130.588	44.569	114.594	0.00027534	0.00038887	0.00021112	1298.4	1.0438e-05	1.7559e-05	1118.3	291.19	1.1292e-05	4.8668e-06	263.91	82.292	75.298	27.584	1.7265e-05	33.922	0.0076009	0.012074	0.0033795	1193.6	0.00012411	0.00013311	1026.7	269.52	0.00011969	0.00013523	257	82.646	77.092	26.786	0.00012487	33.382	-43.479	-61.963	-5.792	-140.699	29.327	31.580	-141.571	-136.028	-106.766	-92.911	-137.392	-133.189	-131.140	-126.485	-144.802	-129.861	-8191	255	
1448.734	1	1	0	0	0.10636	0.11525	0.021086	0.17067	0.15964	0.14046	0.043665	0.34675	0.30579	0.12432	0.26452	0.093163	0.13696	0.13271	0.19779	0.21912	-3.0563	-4.2604	-3.4271	-3.8354	-4.15	-3.2104	-4.1875	-3.9583	-3.4417	-4.3812	-3.5875	-3.65	-4.2438	-3.375	-3.85	-3.9958	-54.932	-42.510	6.255	153.034	-15.042	63.709	-130.118	171.240	66.928	184.846	122.761	-48.170	-145.993	44.574	-137.833	-109.834	0.0003257	0.00046585	0.00046659	1299.9	8.0232e-06	2.5855e-05	1113.2	288.28	5.4264e-06	6.207e-06	259.57	81.422	75.196	27.274	1.5047e-05	33.378	0.0074687	0.012107	0.003353	1195.5	0.00012434	0.00013413	1019.8	268.96	0.00012136	0.00013792	254.82	82.523	77.324	26.604	0.00012698	33.014	-66.709	27.368	-69.676	-140.636	106.070	-35.073	-141.440	-135.908	-22.228	118.243	-137.325	-132.877	-131.022	-126.334	-119.075	-130.181	-8191	255	
1448.830	1	1	0	0	0.09965	0.10624	0.10048	0.1733	0.095864	0.076975	0.11838	0.063669	0.079498	0.15603	0.1375	0.16165	0.20825	0.32692	0.155	0.10928	-2.9417	-4.175	-3.5167	-3.6813	-4.2854	-3.2062	-4.1917	-4.0792	-3.1688	-4.2896	-3.6354	-3.3417	-4.4333	-3.4146	-3.9896	-4.15	-46.871	-20.483	-61.205	97.978	196.026	-98.833	143.555	-85.813	146.795	144.005	83.972	-59.598	181.218	170.429	23.114	175.118	0.0003862	0.00055859	0.00053571	1296.2	1.2104e-05	1.3158e-05	1106.7	287.09	1.5188e-05	8.0288e-06	260	81.105	75.057	27.442	1.3749e-05	33.697	0.0075126	0.0122	0.0033808	1192.9	0.00012521	0.00013366	1017.2	267.56	0.00011849	0.00013425	252.76	81.943	76.931	26.581	0.000123	33.173	-75.658	-62.899	-90.605	-140.700	4.520	-23.048	-141.852	-135.963	-46.339	-75.147	-137.741	-133.518	-131.003	-126.331	-24.507	-129.748	-8191	255	
1448.951	1	1	0	0	0.16782	0.12911	0.11779	0.13341	0.2407	0.15457	0.22362	0.14233	0.0084392	0.06035	0.39262	0.41127	0.078653	0.16859	0.29267	0.20419	-2.9396	-4.25	-3.6083	-3.4479	-4.2562	-3.1979	-4.0729	-4.1292	-3.2104	-4.0813	-3.7125	-3.35	-4.3542	-3.4271	-3.7479	-4.1583	-26.288	154.163	-63.435	92.454	67.028	-63.136	122.117	-146.964	99.457	38.414	103.244	35.376	199.173	195.946	-37.785	-117.103	0.0002021	0.0013014	0.00044073	1301.5	1.3945e-05	9.6005e-06	1114.6	289.22	2.2974e-05	5.2575e-06	263.47	80.913	75.24	27.425	8.8522e-06	33.704	0.0073992	0.011904	0.0033264	1192.1	0.00012136	0.00013162	1021.6	268.17	0.00011884	0.0001331	254.74	82.184	76.78	26.62	0.00012372	33.294	-9.194	-79.993	-83.337	-140.515	76.222	71.685	-141.667	-136.098	-2.427	-5.249	-137.650	-132.641	-131.042	-126.771	61.765	-129.977	-8191	255	
1449.045	1	1	0	0	0.17721	0.15071	0.31265	0.18785	0.075442	0.1318	0.39634	0.11532	0.082898	0.19187	0.25838	0.22135	0.15627	0.1687	0.1268	0.10722	-3.0687	-4.1042	-3.7417	-3.5396	-4.2271	-3.5104	-3.6479	-4.2292	-3.2521	-4.1729	-3.9062	-3.3104	-4.2146	-3.7542	-3.4896	-4.2688	13.678	27.978	-54.810	193.101	-128.818	115.885	191.631	161.073	138.429	67.322	158.573	121.928	117.769	186.972	25.345	131.945	0.00027871	0.00082848	0.00032974	1304.1	2.1267e-05	6.9723e-06	1122.5	290.81	5.6736e-06	9.2758e-06	264.79	82.265	75.237	27.449	9.1783e-06	33.676	0.0073146	0.011779	0.0032995	1197.5	0.00012171	0.00013169	1030	269.3	0.00011758	0.00013353	256.91	82.771	77.145	26.717	0.00012605	33.131	-51.286	40.784	-125.569	-140.443	-41.057	-47.114	-141.096	-135.638	-27.716	191.346	-137.283	-132.370	-131.167	-126.297	4.452	-129.535	-8191	255	
1449.141	1	1	0	0	0.30608	0.059425	0.1367	0.17897	0.17369	0.065164	0.063373	0.24752	0.12289	0.062711	0.16499	0.15117	0.043364	0.13759	0.068264	0.12267	-2.9229	-3.8563	-4.0375	-3.4958	-4.0375	-3.5542	-3.7042	-4.2917	-3.4146	-3.9688	-4.0458	-3.3417	-4.1208	-3.6646	-3.3812	-4.3271	-140.636	16.059	104.187	183.306	148.944	190.409	-140.150	130.868	163.587	-17.038	83.434	-91.848	99.958	106.255	68.229	101.524	0.00015791	0.0013493	0.00020118	1307.1	8.3722e-06	1.9889e-05	1116.8	291.42	1.0375e-05	1.8945e-05	261.41	81.522	74.733	27.368	2.4486e-05	33.529	0.0074276	0.012052	0.0033655	1202.5	0.00012438	0.00013304	1023.9	270.48	0.00011952	0.00013605	254.91	82.06	77.143	26.678	0.00012469	33.043	-44.874	-5.313	-137.345	-140.924	-134.007	-35.226	-141.370	-135.591	29.808	-2.305	-137.717	-132.937	-131.431	-126.911	38.307	-129.869	-8191	255	
1449.239	1	1	0	0	0.22049	0.20956	0.070611	0.31688	0.094069	0.33659	0.29055	0.26736	0.2572	0.13579	0.092719	0.063023	0.054387	0.12257	0.021204	0.20952	-3.0646	-3.7333	-4.0958	-3.5938	-3.9479	-3.5771	-3.6125	-4.4917	-3.3229	-3.7604	-4.1417	-3.25	-4.0854	-4.0229	-3.3833	-4.3646	85.011	34.065	-57.793	181.205	6.089	30.596	123.646	132.304	31.260	91.259	-74.430	148.443	-136.308	-137.372	-106.522	126.474	0.00023127	0.00092071	0.00023325	1300.2	7.9098e-06	5.0688e-06	1113.2	290.11	8.2002e-06	9.6712e-06	263	81.427	75.784	27.57	1.2803e-05	33.832	0.0075056	0.011982	0.0033358	1198.8	0.00012348	0.00013145	1024	269.82	0.00012049	0.00013546	255.45	82.31	77.551	26.774	0.00012591	33.349	-30.853	-45.205	-139.531	-140.497	-5.126	68.662	-141.385	-135.805	12.791	-20.494	-137.617	-133.029	-130.999	-126.469	106.361	-129.679	-8191	255	
1449.334	1	1	0	0	0.36584	0.11259	0.12985	0.059275	0.019409	0.019629	0.29254	0.17454	0.062678	0.33588	0.09901	0.30228	0.17721	0.064383	0.07729	0.23471	-3.2479	-3.6917	-4.1083	-3.2646	-4.0125	-3.7313	-3.4188	-4.1813	-3.4417	-3.6021	-4.3958	-3.4625	-3.9354	-3.9958	-3.375	-4.0188	-133.451	-41.831	-93.228	171.172	-53.257	163.186	114.947	115.985	143.128	-6.938	61.430	-127.543	64.243	-82.201	180.582	124.024	0.00044123	0.00062661	0.00021272	1309.3	1.5155e-05	8.7105e-06	1122.3	294.48	1.1984e-05	8.9075e-06	267.09	83.267	76.143	27.749	1.1502e-05	33.865	0.0073861	0.011894	0.0033175	1205.7	0.00012237	0.0001312	1033	273.13	0.00011775	0.00013336	258.63	83.285	78	26.896	0.00012289	33.225	-60.124	-92.380	-78.958	-140.411	-101.214	-40.802	-141.370	-135.663	75.983	-149.613	-137.452	-132.888	-130.600	-126.175	-3.143	-129.698	-8191	255	
1449.430	1	1	0	0	0.13397	0.089894	0.23261	0.1517	0.039955	0.26647	0.17404	0.21645	0.052508	0.13893	0.11655	0.14839	0.17743	0.034864	0.020449	0.25228	-3.2896	-3.5333	-4.0896	-3.3438	-4.1	-4.0646	-3.3604	-4.2438	-3.6125	-3.5438	-4.3854	-3.5062	-3.6771	-4.2312	-3.125	-4.2479	-56.899	142.501	-1.245	-124.710	-38.833	-1.034	195.673	116.710	-18.664	205.032	41.932	-35.313	195.366	-20.566	69.992	186.074	0.00025339	0.00047025	0.00038138	1321.8	1.2785e-05	9.8402e-06	1139.3	299.44	1.6125e-06	2.33e-05	265.62	83.008	75.839	27.482	1.454e-05	33.241	0.0073432	0.011653	0.0032399	1212.2	0.00012133	0.00012889	1039.4	277.34	0.00011571	0.00013261	257.67	82.936	78.359	26.796	0.00012448	32.798	-69.754	65.664	-66.139	-140.452	68.983	202.377	-141.173	-135.658	147.098	-54.347	-137.988	-133.380	-130.665	-126.382	30.722	-129.406	-8191	255	
1449.526	1	1	0	0	0.11583	0.16027	0.086089	0.26102	0.031917	0.20325	0.29316	0.52841	0.077161	0.089997	0.33353	0.12773	0.21764	0.13517	0.20231	0.19509	-3.3896	-3.4833	-4.175	-3.4417	-3.7833	-4.0854	-3.3792	-4.1771	-3.9437	-3.3688	-4.2229	-3.5438	-3.6625	-4.3146	-3.3	-4.0417	89.856	-136.272	-83.927	164.600	102.400	-99.382	126.960	-152.103	-136.497	-36.467	72.454	117.779	13.602	163.891	13.178	126.314	0.00054655	0.00094645	0.00042135	1334.5	9.129e-06	8.1766e-06	1126.8	303	1.6966e-05	3.9483e-06	268.17	82.428	76.603	27.699	9.7176e-06	33.633	0.0074512	0.012005	0.0033423	1225.2	0.00012234	0.00013372	1032.1	279.84	0.00011884	0.00013565	260.54	83.166	78.95	26.916	0.00012812	33.1	-52.306	-2.888	-49.709	-140.796	159.296	-60.155	-141.648	-135.686	-47.959	39.422	-137.086	-132.776	-131.019	-126.351	11.982	-129.711	-8191	255	
1449.647	1	1	0	0	0.10776	0.16128	0.17508	0.30392	0.22728	0.20192	0.3619	0.18683	0.14281	0.14762	0.090005	0.17815	0.063396	0.16933	0.13584	0.1571	-3.5563	-3.2146	-4.3146	-3.6708	-3.75	-4.3271	-3.4542	-4.0312	-3.8979	-3.3604	-4.225	-3.6917	-3.65	-4.3438	-3.2646	-3.9542	23.557	-128.288	45.578	187.216	11.519	-27.350	177.986	-127.303	-125.581	-115.517	-141.384	77.993	50.308	149.720	-103.927	156.797	0.0004036	0.00019081	0.00039249	1340	8.9514e-06	2.2644e-05	1140.5	302.67	9.822e-06	9.3464e-06	270.22	82.968	76.752	27.897	1.2968e-05	33.452	0.0075771	0.012199	0.0034315	1230.7	0.00012488	0.00013581	1045.8	281.28	0.0001225	0.00013575	263.34	84.136	79.134	27.135	0.00012854	33.372	-81.357	-54.945	113.526	-140.598	4.236	-21.419	-140.992	-135.487	-32.398	192.025	-137.265	-133.083	-130.425	-125.955	18.984	-129.370	-8191	255	
1449.743	1	1	0	0	0.10737	0.22355	0.081027	0.09884	0.16754	0.14138	0.16631	0.35581	0.09801	0.21825	0.094464	0.084387	0.21994	0.12467	0.1235	0.059806	-3.7875	-3.0521	-4.1542	-3.6667	-3.5312	-4.3542	-3.4625	-3.9542	-4.2542	-3.2979	-4.3333	-3.8667	-3.425	-4.3063	-3.5104	-3.825	126.343	124.110	-42.389	-15.994	-91.642	-135.594	90.729	-138.990	-96.460	-93.597	105.712	113.707	-24.027	-73.992	143.094	67.298	0.00039446	0.00075517	9.524e-05	1346.3	3.0577e-06	1.4979e-05	1147.2	304.98	5.6645e-06	1.6565e-05	272.14	84.442	77.65	28.057	1.3533e-05	34.61	0.0076008	0.012301	0.0034166	1232.7	0.00012759	0.0001379	1052.8	283.24	0.00012591	0.00014129	266.86	85.751	80.679	27.514	0.00013463	34.358	-11.863	-12.660	79.525	-140.555	-135.639	-99.044	-141.459	-135.362	-33.974	81.035	-137.265	-133.051	-130.648	-126.535	81.403	-129.343	-8191	255	
1449.839	1	1	0	0	0.26607	0.20338	0.11738	0.093647	0.0061849	0.097474	0.01001	0.06093	0.10534	0.23342	0.29871	0.01997	0.051217	0.18088	0.19717	0.088273	-3.7292	-3.3271	-3.9979	-3.8479	-3.4667	-4.3521	-3.6833	-3.8604	-4.2021	-3.3729	-4.0896	-4	-3.4208	-4.2083	-3.3958	-3.6354	-104.928	-36.231	-68.296	157.366	54.521	189.286	203.977	187.007	62.647	-17.777	103.385	119.827	-102.525	201.125	186.374	103.416	0.00037246	0.0010931	0.00036531	1358.9	1.3641e-05	1.7659e-05	1152.7	310.02	4.8407e-06	3.2127e-06	274.58	85.516	79.131	28.48	6.7038e-06	34.657	0.0080587	0.012881	0.003632	1250.4	0.00013502	0.00014679	1062.4	287.86	0.00013263	0.00015287	270.71	87.266	82.492	28.105	0.0001434	34.763	-67.153	47.697	-82.238	-140.841	16.388	67.194	-141.481	-135.608	-28.683	46.679	-137.324	-132.871	-130.647	-126.138	-20.272	-129.655	-8191	255	
1449.960	1	1	0	0	0.025859	0.1936	0.040799	0.13536	0.11125	0.1858	0.33054	0.22628	0.26004	0.068177	0.37209	0.081688	0.1646	0.10112	0.091609	0.2166	-3.9062	-3.1688	-3.9688	-4.1062	-3.1729	-4.3396	-3.7313	-3.6208	-4.2417	-3.1625	-4.0146	-4.1292	-3.2646	-4.3688	-3.5375	-3.65	66.929	-24.826	146.574	198.292	-102.116	114.197	137.316	138.537	146.068	161.393	-130.888	-132.326	110.376	-125.753	-100.491	147.104	0.00034344	0.00082567	2.7878e-05	1360.9	1.3221e-05	9.8313e-06	1164.1	309.57	2.1e-05	3.8505e-06	276.54	86.529	79.861	29.324	1.6298e-05	35.704	0.0085842	0.013904	0.003897	1258.8	0.0001442	0.00015497	1073	289.73	0.00014065	0.00016076	274.19	89.087	83.502	28.753	0.0001487	35.712	-59.190	-34.738	181.694	-140.880	101.946	205.423	-141.480	-135.523	-39.991	-11.078	-137.377	-132.587	-130.792	-126.093	10.680	-129.338	-8191	255	
1450.031	1	1	0	0	0.018782	0.091451	0.14572	0.20037	0.10206	0.079466	0.28488	0.086364	0.13433	0.023513	0.22495	0.20975	0.12027	0.10815	0.12118	0.18553	-3.9313	-3.2667	-3.7854	-4.1604	-3.2979	-3.9604	-3.8271	-3.5854	-4.1438	-3.3333	-3.7708	-4.2542	-3.2979	-4.1021	-3.7687	-3.4771	41.742	161.487	-20.961	-149.071	186.050	-94.816	176.200	161.983	-35.298	48.412	140.059	-98.095	-53.321	63.095	125.775	-127.184	0.00031939	0.001748	3.9128e-05	1365.7	1.1307e-05	1.1215e-05	1168.9	312	1.7613e-05	5.009e-06	283.28	88.759	80.642	29.763	4.9949e-06	36.329	0.0089078	0.014157	0.0040144	1267.3	0.00014643	0.00015969	1082.1	291.63	0.0001426	0.00015888	278.51	90.439	84.322	29.054	0.00014798	36.222	-70.421	-113.232	98.193	-140.459	-128.209	-27.664	-141.567	-135.456	-40.840	-74.444	-137.283	-132.628	-131.038	-125.985	-95.901	-129.582	-8191	255	
1450.127	1	1	0	0	0.17502	0.19595	0.11758	0.22071	0.18244	0.20524	0.1298	0.20886	0.045	0.058238	0.12839	0.10174	0.14554	0.10991	0.11762	0.25251	-4	-3.625	-3.5792	-4.3792	-3.4792	-3.9896	-4.1021	-3.4417	-4.25	-3.6979	-3.7979	-4.3417	-3.2271	-3.9667	-3.8937	-3.2042	178.522	-139.549	-29.638	176.393	-81.348	-25.117	142.972	173.060	146.482	179.607	155.255	178.934	104.222	-110.006	5.398	135.037	0.00024045	0.0012124	0.00043292	1365.7	4.7578e-06	8.0354e-06	1175.7	312.89	5.1976e-06	4.0441e-06	281.6	88.283	80.787	29.761	1.1295e-05	36.278	0.0088757	0.014199	0.0040208	1266	0.00014923	0.00016303	1090.2	292.95	0.00014711	0.00016652	279.54	91.041	85.131	29.297	0.00015483	36.367	-14.779	-101.216	29.426	-140.337	117.768	201.368	-141.262	-135.857	-77.071	3.522	-137.013	-133.017	-130.803	-126.297	11.337	-129.885	-8191	255	
1450.246	1	1	0	0	0.19342	0.12322	0.1169	0.17549	0.20177	0.053309	0.21749	0.2175	0.08955	0.26787	0.13741	0.23854	0.081137	0.38176	0.091945	0.32652	-3.7729	-3.6354	-3.4604	-4.4563	-3.5	-3.95	-4.1521	-3.3229	-4.2042	-3.7375	-3.5792	-4.2667	-3.5625	-3.7896	-4.1	-3.2938	-114.457	178.907	-148.138	184.749	-77.775	118.643	143.637	129.492	162.935	21.361	91.380	193.408	-116.114	188.535	16.891	121.848	0.00035408	0.00039771	0.00017814	1363.9	4.1358e-06	1.6046e-05	1159.7	309.26	1.4763e-05	5.8333e-06	277.87	86.728	79.871	29.122	1.1104e-05	35.329	0.0091438	0.014748	0.0041178	1263.8	0.0001517	0.00016325	1074.9	290.18	0.00014672	0.00016499	274.51	89.496	83.996	28.799	0.0001528	35.548	-52.313	2.823	-123.648	-140.160	-30.070	-6.882	-141.212	-135.622	52.235	108.657	-137.354	-133.464	-130.490	-126.099	-120.499	-129.612	-8191	255	
1450.342	1	1	0	0	0.096608	0.12202	0.018373	0.2458	0.042968	0.24453	0.14381	0.14517	0.16894	0.14643	0.17209	0.1238	0.068289	0.16308	0.16471	0.36047	-3.7729	-3.875	-3.3646	-4.2917	-3.3187	-3.8771	-4.3792	-3.4375	-4.0833	-3.9229	-3.4729	-4.4667	-3.5771	-3.8375	-4.2438	-3.4188	79.349	-60.470	63.530	132.589	89.474	-93.609	144.704	119.154	100.085	-96.862	-146.975	168.312	64.106	171.714	-81.043	185.849	0.00025474	0.00076912	0.00028597	1346.7	1.4158e-05	8.4211e-06	1151.3	308.5	1.492e-05	4.3913e-06	280.47	87.633	79.563	29.144	1.3456e-05	35.52	0.0091077	0.01468	0.0041162	1250.8	0.00015075	0.00016274	1068	289.38	0.00014365	0.0001623	274.67	89.387	83.48	28.788	0.00014832	35.8	-88.912	-0.477	-52.213	-140.239	133.566	140.564	-141.373	-135.959	-3.789	114.263	-136.847	-132.926	-131.121	-126.279	-16.619	-129.147	-8191	255	
1450.439	1	1	0	0	0.11418	0.27078	0.093415	0.15004	0.2888	0.11969	0.15737	0.049343	0.065466	0.083482	0.29626	0.2181	0.045048	0.12776	0.066233	0.25458	-3.7917	-3.8583	-3.2979	-4.2937	-3.5375	-3.5417	-4.4667	-3.275	-3.8396	-4.0687	-3.3271	-4.1833	-3.6542	-3.575	-4.3417	-3.3125	170.087	51.782	133.573	144.798	137.475	51.829	187.842	201.315	-126.662	-15.237	-151.297	-78.959	-140.021	-89.835	-34.888	66.719	0.0004248	0.00093971	0.00042394	1346.3	6.7994e-06	7.4578e-06	1159.2	311.75	1.2462e-05	5.2054e-06	280.27	87.601	80.04	29.653	1.5337e-05	36.333	0.0088805	0.014299	0.0039934	1248.7	0.00014812	0.00015798	1073.1	289.94	0.00014162	0.0001583	275.83	89.509	83.369	29.021	0.00014516	35.924	-52.424	-48.428	-32.940	-140.394	167.319	-102.709	-141.643	-135.785	19.620	-75.916	-137.155	-132.670	-130.794	-125.795	-39.155	-130.023	-8191	255	
1450.535	1	1	0	0	0.10967	0.17339	0.35551	0.1555	0.29747	0.14703	0.041047	0.14655	0.12634	0.10427	0.18858	0.091574	0.26532	0.1013	0.084398	0.25176	-3.5438	-3.8771	-3.3875	-4.3438	-3.7208	-3.3917	-4.3521	-3.6417	-3.8563	-4.2396	-3.4813	-4.3542	-3.6542	-3.4938	-4.2562	-3.5271	65.937	-75.547	-82.294	-131.781	132.909	120.896	-9.498	175.986	159.234	142.962	138.839	-141.099	-119.122	24.341	30.472	202.560	0.00035274	0.00097465	0.00019248	1361	1.966e-05	2.1658e-05	1165.5	311.95	8.3299e-06	6.8909e-06	283.35	86.801	79.323	29.3	1.8202e-05	35.663	0.0085051	0.013783	0.0038543	1255.3	0.00014157	0.00015177	1074	289.89	0.00013653	0.00015187	276.39	89.368	83.444	28.747	0.00014268	35.467	-75.775	85.493	-75.580	-140.276	-50.996	79.600	-141.496	-135.905	-23.203	-72.869	-137.688	-133.168	-130.619	-126.362	-87.370	-129.970	-8191	255	
1450.631	1	1	0	0	0.11366	0.075331	0.082372	0.33847	0.11114	0.126	0.14876	0.26731	0.02436	0.25498	0.18321	0.11381	0.27209	0.019084	0.11708	0.20534	-3.4417	-4.1646	-3.1833	-4.1937	-3.7313	-3.3937	-4.3542	-3.6479	-3.6396	-4.0979	-3.4521	-3.95	-3.7438	-3.2896	-4.2875	-3.6437	-102.300	-96.401	160.260	130.773	-13.083	145.719	156.422	153.481	-134.693	15.689	137.588	-142.168	103.326	68.178	-99.090	148.069	0.00028737	0.0006064	0.00054407	1355.2	1.2749e-05	9.7831e-06	1149.4	309.58	9.7308e-06	1.6936e-05	275.85	86.255	78.558	28.64	1.8084e-05	35.09	0.0085648	0.013644	0.0038303	1251.2	0.00013997	0.00014981	1064.8	288.78	0.00013439	0.00015004	271.18	87.564	81.832	28.168	0.00013865	34.892	-50.020	26.846	-125.420	-140.160	50.603	104.632	-141.179	-135.451	-26.562	85.866	-137.206	-132.808	-130.928	-126.694	169.185	-129.951	-8191	255	
1450.727	1	1	0	0	0.28398	0.12319	0.14435	0.11937	0.2551	0.34497	0.14212	0.27212	0.33041	0.16986	0.18433	0.20163	0.16244	0.11983	0.17181	0.20924	-3.1937	-4.2562	-3.3708	-4.0896	-4.0792	-3.2854	-4.5104	-3.8271	-3.5	-4.1396	-3.4271	-3.925	-3.9938	-3.3896	-4.1917	-3.7562	-36.902	-136.701	-86.001	90.626	202.976	8.434	106.683	188.253	147.909	98.685	141.990	42.172	-57.038	109.102	-101.971	153.363	0.0003498	0.00072176	0.00017699	1336.2	1.197e-05	7.6419e-06	1140.9	303.99	1.5489e-05	1.6503e-05	271.82	85.642	77.486	28.535	1.8103e-05	35.14	0.0082936	0.013261	0.0037254	1238.7	0.00013704	0.00014773	1052.7	283.38	0.00013042	0.00014686	266.49	86.734	80.392	27.851	0.00013268	34.688	-57.678	-131.122	-115.978	-140.135	-7.806	133.288	-141.427	-135.884	14.687	117.025	-137.381	-133.005	-131.104	-126.278	35.549	-129.598	-8191	255	
1450.823	1	1	0	0	0.15767	0.21731	0.14906	0.20826	0.072558	0.20146	0.037429	0.29869	0.13264	0.074182	0.31118	0.33819	0.17862	0.085209	0.039444	0.12727	-3.1937	-4.0646	-3.3521	-3.9604	-4.1917	-3.1562	-4.2333	-3.9354	-3.3396	-4.1292	-3.5771	-3.7542	-4.0271	-3.3563	-4.0771	-3.8646	25.228	-115.541	81.717	199.136	49.095	180.765	140.880	202.036	21.810	71.982	204.354	-71.121	193.283	-102.762	21.589	-41.595	0.00036612	0.0022236	0.00032648	1318.1	1.0516e-05	5.4048e-06	1135	298.57	1.1772e-05	2.6239e-06	269.21	85.262	76.757	28.38	1.146e-05	34.924	0.007814	0.012349	0.0034846	1213.6	0.00012725	0.00013759	1043.2	276.77	0.00012233	0.00013788	262	85.557	79.038	27.565	0.00012943	34.389	-81.615	-128.128	-61.137	-140.255	40.205	98.415	-141.649	-136.074	-51.774	123.804	-137.221	-133.125	-130.812	-126.620	-39.722	-129.762	-8191	255	
1450.919	1	1	0	0	0.16197	0.090206	0.17934	0.19292	0.076015	0.15977	0.21403	0.37448	0.17592	0.28224	0.26985	0.14158	0.15026	0.1102	0.14365	0.25624	-2.9167	-4.2896	-3.3333	-3.6958	-4.125	-3.35	-3.9458	-3.9833	-3.2396	-4.3625	-3.6479	-3.5354	-4.2896	-3.5	-3.775	-4.1062	9.022	130.467	196.816	161.301	-53.849	-63.104	86.775	149.348	-85.062	39.000	205.115	161.756	-120.382	1.964	186.376	138.376	0.00019714	0.00062109	0.00034253	1311.2	2.0723e-06	2.1186e-05	1129.8	295.8	6.3659e-06	2.245e-05	268.35	84.297	76.383	28.217	9.3448e-06	34.514	0.007617	0.012409	0.0034564	1210.7	0.00012753	0.00013746	1041.6	275.12	0.00012299	0.00013781	261.17	84.904	79.089	27.384	0.00013006	33.898	-35.032	-9.752	-119.329	-140.341	154.535	-43.095	-141.387	-135.681	22.600	-66.139	-137.461	-132.890	-131.595	-126.325	68.857	-130.140	-8191	255	
1451.038	1	1	0	0	0.275	0.076659	0.08109	0.06852	0.085254	0.22897	0.31355	0.16098	0.072805	0.10624	0.10356	0.13869	0.12425	0.2683	0.07048	0.1722	-2.9146	-4.25	-3.5479	-3.6562	-4.1417	-3.425	-4.1417	-4.1167	-3.2333	-4.0854	-3.7229	-3.4979	-4.2979	-3.4771	-3.7292	-4.1479	-24.110	4.985	75.765	176.331	-121.638	16.589	147.398	-127.773	72.673	144.173	156.032	134.336	150.308	-87.975	136.635	174.627	0.00022842	0.00074256	0.00014702	1320.5	5.2405e-06	5.7409e-06	1127.2	294.06	1.8043e-05	1.6573e-05	263.93	82.805	76.644	27.978	9.9981e-06	34.307	0.0077298	0.012523	0.0035066	1214.9	0.00012951	0.00014086	1039.5	273.67	0.00012687	0.00014294	259.7	84.546	79.124	27.353	0.00013199	33.924	-57.692	73.118	-93.895	-140.345	26.412	-10.142	-141.233	-135.885	-60.435	75.241	-137.094	-133.110	-131.286	-126.219	-15.628	-130.003	-8191	255	
1451.134	1	1	0	0	0.039763	0.23076	0.12329	0.15263	0.15111	0.16409	0.1841	0.10013	0.16074	0.085657	0.071941	0.026127	0.061523	0.18753	0.11163	0.1275	-2.9792	-4.2167	-3.6583	-3.6312	-4.1917	-3.5875	-3.8771	-4.3354	-3.2667	-3.9833	-3.9604	-3.5187	-4.15	-3.5479	-3.6375	-4.3792	-123.903	77.194	3.993	121.633	179.996	128.874	170.650	126.092	185.875	-61.548	-125.244	-137.068	-131.197	-125.676	-28.730	-123.670	0.00030342	0.00056342	0.00023813	1319.2	5.1055e-06	4.5428e-06	1136.8	294.01	1.6544e-05	1.9145e-05	264.76	83.865	75.876	27.961	1.0052e-05	34.481	0.0079427	0.012706	0.0035449	1214.9	0.0001313	0.00014242	1044.8	272.3	0.00012759	0.00014314	259.98	84.766	78.891	27.374	0.00013352	34.139	-63.406	27.901	-30.587	-140.488	-142.514	92.687	-141.299	-135.762	-64.114	-38.278	-137.157	-133.196	-130.782	-126.917	20.834	-130.018	-8191	255	
1451.230	1	1	0	0	0.059933	0.028436	0.062898	0.12509	0.2262	0.083607	0.05022	0.17702	0.039475	0.1179	0.37659	0.075887	0.071253	0.19034	0.078255	0.24239	-2.9833	-3.9479	-3.9396	-3.5187	-4.2562	-3.5938	-3.7687	-4.4062	-3.35	-4.1521	-4.0188	-3.25	-4.2542	-3.675	-3.3479	-4.3208	-39.734	125.912	125.453	103.318	-46.073	-69.153	78.195	-99.159	-147.852	55.164	115.695	197.198	4.067	133.848	-92.822	113.093	0.00037803	0.0003423	0.00046858	1314.8	4.7418e-06	6.354e-06	1137.5	292.83	6.3237e-06	2.2671e-05	267.3	83.787	75.699	28.216	1.3637e-05	34.642	0.0079349	0.012902	0.0035669	1217.1	0.00013223	0.00014228	1047.5	272.6	0.00012765	0.00014247	260.67	85.099	78.667	27.524	0.0001347	34.428	-63.413	-66.341	-126.656	-140.021	108.291	-15.646	-141.403	-135.674	-136.051	-0.656	-137.618	-132.708	-131.021	-126.612	22.299	-129.553	-8191	255	
1451.327	1	1	0	0	0.094687	0.20614	0.13469	0.2632	0.22653	0.084408	0.12195	0.18958	0.1631	0.03197	0.034258	0.11554	0.14352	0.076619	0.098543	0.32006	-2.8396	-3.9396	-4	-3.3875	-4.1271	-3.6271	-3.5771	-4.3521	-3.4521	-3.6625	-4.2354	-3.4271	-4.2	-3.9604	-3.2687	-4.325	-71.490	-52.184	94.766	189.916	-94.837	-134.301	140.525	202.424	-128.760	135.858	135.719	121.740	198.592	34.917	-75.267	-151.947	0.00012941	0.000702	0.0003329	1321.9	1.0853e-05	1.2171e-05	1128.5	293.62	1.3691e-05	1.4224e-05	264.62	82.543	76.361	28.023	9.1735e-06	34.315	0.0080414	0.013019	0.0036427	1216.6	0.00013619	0.00014622	1041.9	273.28	0.00013009	0.00014892	259.84	84.776	79.544	27.456	0.00013829	34.11	-74.359	151.327	129.633	-140.318	-3.248	99.161	-141.539	-135.951	31.630	-20.948	-137.566	-132.960	-131.178	-126.634	-47.588	-129.692	-8191	255	
#DATA ENDS
