BOXY.EXE: ISS Imagent and Oximeter Data Acquisition Program Version 0.80
Ascii Record File

#ACQ INFORMATION
2  Detector Channels 
16  External MUX Channels 
1  Auxiliary Channels 
5000  Waveform (CCF) Frequency (Hz)
1  Waveforms Skipped 
30  Waveforms Averaged 
1  Cycles Averaged 
16  Acquisitions per Waveform 
10.0806  Updata Rate (Hz) 

#FILE INFORMATION
TRUE -- External MUX Channel results are PARSED.
FALSE -- AC DC and Phase are NOT grouped.
TRUE -- Companion Program Settings File CREATED.
FALSE -- AC data not excluded
FALSE -- DC data not excluded
FALSE -- Phase data not excluded
FALSE -- Auxillary Chn. data not excluded
Tab delimiters

#CALIBRATION STATE
TRUE -- Waveform Calibration Values APPLIED.


#AUX CALIBRATION VALUES
Val Type	aux-1	

Term	1.0000e+00	
Factor	0.0000e+00	


#WF CALIBRATION VALUES
A = Detector Channel
Val Type	A-AC1	A-AC2	A-AC3	A-AC4	A-AC5	A-AC6	A-AC7	A-AC8	A-AC9	A-AC10	A-AC11	A-AC12	A-AC13	A-AC14	A-AC15	A-AC16	A-DC1	A-DC2	A-DC3	A-DC4	A-DC5	A-DC6	A-DC7	A-DC8	A-DC9	A-DC10	A-DC11	A-DC12	A-DC13	A-DC14	A-DC15	A-DC16	A-Ph1	A-Ph2	A-Ph3	A-Ph4	A-Ph5	A-Ph6	A-Ph7	A-Ph8	A-Ph9	A-Ph10	A-Ph11	A-Ph12	A-Ph13	A-Ph14	A-Ph15	A-Ph16	

Term	0.00000e+00	0.00000e+00	0.00000e+00	0.00000e+00	0.00000e+00	0.00000e+00	0.00000e+00	0.00000e+00	0.00000e+00	0.00000e+00	0.00000e+00	0.00000e+00	0.00000e+00	0.00000e+00	0.00000e+00	0.00000e+00	0.00000e+00	0.00000e+00	0.00000e+00	0.00000e+00	0.00000e+00	0.00000e+00	0.00000e+00	0.00000e+00	0.00000e+00	0.00000e+00	0.00000e+00	0.00000e+00	0.00000e+00	0.00000e+00	0.00000e+00	0.00000e+00	0.00000e+00	0.00000e+00	0.00000e+00	0.00000e+00	0.00000e+00	0.00000e+00	0.00000e+00	0.00000e+00	0.00000e+00	0.00000e+00	0.00000e+00	0.00000e+00	0.00000e+00	0.00000e+00	0.00000e+00	0.00000e+00	
Factor	1.00000e+00	1.00000e+00	1.00000e+00	1.00000e+00	1.00000e+00	1.00000e+00	1.00000e+00	1.00000e+00	1.00000e+00	1.00000e+00	1.00000e+00	1.00000e+00	1.00000e+00	1.00000e+00	1.00000e+00	1.00000e+00	1.00000e+00	1.00000e+00	1.00000e+00	1.00000e+00	1.00000e+00	1.00000e+00	1.00000e+00	1.00000e+00	1.00000e+00	1.00000e+00	1.00000e+00	1.00000e+00	1.00000e+00	1.00000e+00	1.00000e+00	1.00000e+00	X	X	X	X	X	X	X	X	X	X	X	X	X	X	X	X	

B = Detector Channel
Val Type	B-AC1	B-AC2	B-AC3	B-AC4	B-AC5	B-AC6	B-AC7	B-AC8	B-AC9	B-AC10	B-AC11	B-AC12	B-AC13	B-AC14	B-AC15	B-AC16	B-DC1	B-DC2	B-DC3	B-DC4	B-DC5	B-DC6	B-DC7	B-DC8	B-DC9	B-DC10	B-DC11	B-DC12	B-DC13	B-DC14	B-DC15	B-DC16	B-Ph1	B-Ph2	B-Ph3	B-Ph4	B-Ph5	B-Ph6	B-Ph7	B-Ph8	B-Ph9	B-Ph10	B-Ph11	B-Ph12	B-Ph13	B-Ph14	B-Ph15	B-Ph16	

Term	0.00000e+00	0.00000e+00	0.00000e+00	0.00000e+00	0.00000e+00	0.00000e+00	0.00000e+00	0.00000e+00	0.00000e+00	0.00000e+00	0.00000e+00	0.00000e+00	0.00000e+00	0.00000e+00	0.00000e+00	0.00000e+00	0.00000e+00	0.00000e+00	0.00000e+00	0.00000e+00	0.00000e+00	0.00000e+00	0.00000e+00	0.00000e+00	0.00000e+00	0.00000e+00	0.00000e+00	0.00000e+00	0.00000e+00	0.00000e+00	0.00000e+00	0.00000e+00	-3.55938e+01	-1.27701e+02	-1.25281e+02	-1.82617e+02	-5.40153e+01	-6.01161e+01	-1.56707e+02	-1.61923e+02	-3.23848e+01	-6.96501e+01	-1.72081e+02	-1.72121e+02	-1.82310e+02	-1.75613e+02	-4.80221e+01	-1.49421e+02	
Factor	1.75935e-05	1.27067e-04	3.90881e-05	1.69756e-01	1.41494e-06	1.43045e-06	1.51472e-01	4.16107e-02	1.27005e-06	1.46452e-06	7.00974e-02	2.89022e-02	2.93523e-02	6.32495e-03	1.47419e-06	9.43134e-03	9.40978e-06	1.53733e-05	4.30930e-06	8.73817e-02	1.59016e-07	1.71387e-07	7.34779e-02	2.15944e-02	1.53695e-07	1.73083e-07	3.51862e-02	1.45699e-02	1.52597e-02	3.31565e-03	1.61020e-07	4.78232e-03	X	X	X	X	X	X	X	X	X	X	X	X	X	X	X	X	



#DISTANCE SETTINGS
A = Detector Channel
A-1	A-2	A-3	A-4	A-5	A-6	A-7	A-8	A-9	A-10	A-11	A-12	A-13	A-14	A-15	A-16	

1.0000e+01	1.0000e+01	1.0000e+01	1.4500e+00	1.0000e+01	1.0000e+01	1.5100e+00	1.9500e+00	1.0000e+01	1.0000e+01	2.0100e+00	2.5000e+00	2.4400e+00	2.9500e+00	1.0000e+01	3.0100e+00	

B = Detector Channel
B-1	B-2	B-3	B-4	B-5	B-6	B-7	B-8	B-9	B-10	B-11	B-12	B-13	B-14	B-15	B-16	

1.0000e+01	1.0000e+01	1.0000e+01	1.4500e+00	1.0000e+01	1.0000e+01	1.5100e+00	1.9500e+00	1.0000e+01	1.0000e+01	2.0100e+00	2.5000e+00	2.4400e+00	2.9500e+00	1.0000e+01	3.0100e+00	




#DATA BEGINS
time	group	step	mark	flag	A-AC1	A-AC2	A-AC3	A-AC4	A-AC5	A-AC6	A-AC7	A-AC8	A-AC9	A-AC10	A-AC11	A-AC12	A-AC13	A-AC14	A-AC15	A-AC16	A-DC1	A-DC2	A-DC3	A-DC4	A-DC5	A-DC6	A-DC7	A-DC8	A-DC9	A-DC10	A-DC11	A-DC12	A-DC13	A-DC14	A-DC15	A-DC16	A-Ph1	A-Ph2	A-Ph3	A-Ph4	A-Ph5	A-Ph6	A-Ph7	A-Ph8	A-Ph9	A-Ph10	A-Ph11	A-Ph12	A-Ph13	A-Ph14	A-Ph15	A-Ph16	B-AC1	B-AC2	B-AC3	B-AC4	B-AC5	B-AC6	B-AC7	B-AC8	B-AC9	B-AC10	B-AC11	B-AC12	B-AC13	B-AC14	B-AC15	B-AC16	B-DC1	B-DC2	B-DC3	B-DC4	B-DC5	B-DC6	B-DC7	B-DC8	B-DC9	B-DC10	B-DC11	B-DC12	B-DC13	B-DC14	B-DC15	B-DC16	B-Ph1	B-Ph2	B-Ph3	B-Ph4	B-Ph5	B-Ph6	B-Ph7	B-Ph8	B-Ph9	B-Ph10	B-Ph11	B-Ph12	B-Ph13	B-Ph14	B-Ph15	B-Ph16	aux-1	digaux	

2214.406	1	1	0	256	0.089889	0.30037	0.18711	0.090412	0.14076	0.27866	0.19075	0.17946	0.048515	0.2098	0.29042	0.27104	0.066875	0.071682	0.14049	0.2112	-2.6875	-4.0271	-3.5375	-3.475	-4.0917	-3.1562	-3.8667	-4.0271	-3.1104	-4.1917	-3.6875	-3.3375	-4.125	-3.3167	-3.7625	-4.0458	335.144	382.644	465.644	181.600	421.781	501.458	342.665	499.517	449.490	410.785	424.729	193.325	241.897	439.529	441.182	243.353	0.00035215	0.00053948	8.717e-05	1072.5	4.8237e-06	4.457e-06	1276	329.29	4.6703e-06	5.8923e-06	420.69	109.18	72.611	16.731	6.6414e-06	25.279	0.00090718	0.0012652	0.00036872	943.2	1.3141e-05	1.3717e-05	1118	291.06	1.3344e-05	1.4161e-05	373.45	96.951	64.735	15.002	1.3298e-05	22.874	282.117	283.347	236.281	155.894	297.677	303.923	154.512	160.867	340.808	268.748	158.831	163.460	165.565	171.815	323.468	168.261	-8191	255	
2214.502	1	1	0	0	0.1514	0.084011	0.052598	0.36004	0.18717	0.068022	0.15753	0.12001	0.2353	0.10486	0.080707	0.2048	0.13113	0.1533	0.16172	0.21757	-2.9229	-3.8792	-3.7979	-3.3354	-4.1208	-3.2854	-3.6646	-4.1854	-3.3063	-4	-3.975	-3.3958	-4.0875	-3.4688	-3.4729	-4.1854	265.618	310.001	400.715	488.869	322.353	285.571	145.279	487.115	284.794	499.026	342.281	204.079	347.548	187.219	309.984	455.711	0.000354	0.00075408	0.00015676	1064.9	2.8837e-06	5.8132e-06	1262.9	327.82	5.6372e-06	5.2176e-06	416.63	107.84	72.156	16.415	6.4191e-06	25.187	0.00089681	0.0012521	0.00035744	940.86	1.2953e-05	1.4177e-05	1111.9	289.32	1.3275e-05	1.3905e-05	368.91	95.568	64.579	14.836	1.3085e-05	22.587	286.912	197.579	297.824	156.102	306.018	337.400	154.411	161.199	311.656	278.853	159.167	163.651	165.536	172.033	293.299	167.869	-8191	255	
2214.599	1	1	0	0	0.17553	0.25111	0.17259	0.096435	0.12189	0.067435	0.055343	0.28583	0.074629	0.1414	0.10794	0.23019	0.33614	0.048	0.092714	0.045932	-2.8417	-3.7708	-3.7417	-3.4437	-4.1604	-3.4458	-3.5187	-4.2375	-3.3604	-3.8271	-3.9	-3.1208	-4.1646	-3.6562	-3.225	-4.275	215.451	328.748	429.390	448.106	336.985	418.120	164.679	476.797	495.504	240.258	445.648	470.631	435.498	290.609	182.800	146.700	0.00036375	0.00053962	0.00014015	1062.1	9.1627e-06	5.511e-06	1263.9	328.12	2.1575e-06	5.5133e-06	418.46	108.35	72.996	16.345	4.9694e-06	25.425	0.00090875	0.0012754	0.00034944	936.36	1.3024e-05	1.4067e-05	1110.3	289.8	1.3073e-05	1.3886e-05	369.17	95.857	64.545	14.856	1.3127e-05	22.777	275.239	324.559	215.373	156.578	303.935	316.957	154.453	161.256	318.113	276.014	158.694	163.948	165.269	171.851	278.520	167.812	-8191	255	
2214.695	1	1	0	0	0.30886	0.1271	0.15133	0.11675	0.022256	0.13768	0.10523	0.12647	0.14336	0.12323	0.1144	0.11773	0.085401	0.089878	0.16772	0.13805	-2.9208	-3.75	-3.9083	-3.1646	-4.025	-3.5938	-3.4646	-4.2792	-3.3167	-3.7729	-4.0729	-3.1521	-4.0396	-3.7146	-3.2854	-4.1083	414.801	143.679	224.980	468.218	383.137	477.929	167.586	387.526	442.690	162.695	184.343	269.530	429.947	382.356	467.855	178.813	0.00035476	0.00038255	0.00010715	1064.4	5.3518e-06	2.9105e-06	1273.4	328.41	6.0891e-06	7.1708e-06	417.16	107.96	72.476	16.599	6.745e-06	25.681	0.00089162	0.0012443	0.00034624	938.98	1.2996e-05	1.3584e-05	1113.4	289.74	1.2928e-05	1.3891e-05	369.59	96.107	64.598	14.892	1.3072e-05	22.925	286.912	199.484	176.792	156.137	269.283	254.960	154.552	161.213	328.192	325.496	158.940	164.114	165.625	172.103	294.871	167.658	-8191	255	
2214.814	1	1	0	0	0.19131	0.064292	0.10191	0.31784	0.20619	0.027046	0.27896	0.014225	0.14152	0.029271	0.29515	0.28311	0.17955	0.19884	0.12273	0.18056	-2.9646	-3.5542	-3.975	-3.1104	-3.9792	-3.8479	-3.4875	-4.3146	-3.3833	-3.525	-4.1479	-3.4729	-3.9979	-3.8667	-3.2417	-4.175	330.904	402.360	145.052	488.448	360.396	499.939	481.028	324.769	297.391	314.039	151.235	438.448	168.668	417.867	383.608	438.734	0.00042635	0.00032855	0.00018278	1065.1	6.807e-06	3.8568e-06	1270.5	330.12	2.1575e-06	4.4572e-06	421.72	107.97	71.613	16.479	6.848e-06	24.987	0.00089736	0.0012389	0.00035109	937.68	1.2996e-05	1.3386e-05	1114.7	290.31	1.2472e-05	1.3865e-05	371.4	95.565	64.074	14.719	1.3208e-05	22.49	285.595	240.267	213.271	156.430	258.395	361.579	154.706	161.300	337.782	274.695	159.356	163.735	165.756	171.860	355.496	168.049	-8191	255	
2214.885	1	1	0	0	0.19085	0.014214	0.13771	0.23596	0.12471	0.13996	0.24274	0.20376	0.070262	0.2297	0.11929	0.36379	0.14848	0.2026	0.051767	0.18662	-3.3542	-3.4354	-4.2292	-3.3542	-3.9167	-4.0687	-3.4667	-4.2479	-3.4917	-3.2583	-4.2167	-3.4583	-3.8688	-4.0437	-3.2271	-4.1083	440.575	381.321	219.411	424.577	335.427	468.239	401.437	395.257	446.973	339.846	451.581	437.852	491.769	287.051	363.261	344.063	0.00038591	0.00058119	0.00015735	1057	2.9575e-06	2.5456e-06	1253.8	324.18	5.9094e-06	9.9621e-06	413.06	106.86	71.426	16.12	8.8643e-06	24.781	0.00088217	0.0012411	0.00032765	933.09	1.2585e-05	1.3088e-05	1103.4	287.51	1.2248e-05	1.3417e-05	365.48	94.321	63.661	14.608	1.2991e-05	22.292	291.134	231.273	185.286	156.492	284.703	265.858	154.596	161.296	319.931	264.458	159.172	163.829	166.093	172.522	276.889	168.472	-8191	255	
2214.981	1	1	0	0	0.038389	0.084845	0.21374	0.051838	0.027231	0.20046	0.20102	0.1462	0.24712	0.24595	0.20166	0.1332	0.037113	0.065422	0.2342	0.15779	-3.2667	-3.4188	-4.1292	-3.4021	-3.6667	-4.0646	-3.2938	-3.9313	-3.8479	-3.2729	-4.075	-3.4292	-3.6771	-4.1375	-3.1125	-3.9938	163.435	392.385	302.260	470.131	503.321	352.110	428.658	487.346	441.431	198.327	441.791	458.870	190.258	316.073	172.369	156.534	0.00036675	0.00047366	0.00010472	1061.3	3.8294e-06	7.1379e-06	1256	326.9	2.6296e-06	4.2354e-06	416.65	107.29	71.826	16.101	7.2864e-06	24.775	0.0008734	0.0012213	0.00033998	932.52	1.2358e-05	1.3579e-05	1102.7	287.85	1.2372e-05	1.3299e-05	366.54	94.749	63.807	14.669	1.2722e-05	22.441	287.626	206.763	229.912	156.415	303.787	272.378	154.520	161.612	352.619	227.152	159.171	163.740	166.096	172.808	294.274	168.457	-8191	255	
2215.078	1	1	0	0	0.11777	0.10528	0.11648	0.25056	0.17802	0.21553	0.050609	0.21221	0.10087	0.35308	0.10982	0.17063	0.17192	0.15407	0.14556	0.15246	-3.5062	-3.1625	-4.1312	-3.6021	-3.3833	-4.1375	-3.2854	-3.9458	-3.8708	-3.1958	-4.2125	-3.4313	-3.3333	-4.1521	-3.2979	-3.8167	424.467	156.109	479.622	144.111	295.977	458.855	189.809	345.789	382.866	383.786	464.068	477.771	283.372	474.072	423.369	208.805	0.00031781	0.00057234	8.7726e-05	1055.8	7.003e-06	1.1332e-06	1262.7	325.88	5.6313e-06	5.3598e-06	418.73	108.98	72.022	16.38	5.1382e-06	25.284	0.00086041	0.0012211	0.00033825	931.95	1.2635e-05	1.2963e-05	1108.2	288.33	1.2513e-05	1.3314e-05	369.27	96.101	64.18	14.792	1.2485e-05	22.754	289.203	169.052	260.245	156.408	347.906	202.189	154.872	161.785	315.080	276.163	159.522	163.830	166.088	172.478	328.482	167.981	-8191	255	
2215.198	1	1	0	0	0.29477	0.29468	0.13817	0.3074	0.12628	0.16326	0.18012	0.38322	0.080278	0.094858	0.042728	0.14199	0.18627	0.10746	0.21765	0.085591	-3.5833	-3.2479	-3.8583	-3.6271	-3.3979	-4.2312	-3.4313	-3.7542	-3.8104	-3.1729	-4.1042	-3.6708	-3.2562	-4.0521	-3.2729	-3.5604	152.530	392.436	209.274	483.405	319.313	411.917	491.394	383.410	360.301	417.007	482.274	480.893	487.667	480.304	340.832	177.034	0.00030265	0.00020652	0.00016687	1062.8	6.1273e-06	6.7567e-06	1261.9	327.78	4.1997e-06	5.0942e-06	418.09	107.03	71.797	16.159	3.4083e-06	24.895	0.00085792	0.0012036	0.00033794	937.47	1.2604e-05	1.3148e-05	1108.9	288.71	1.2147e-05	1.3308e-05	368.62	94.745	63.832	14.664	1.268e-05	22.443	278.118	273.197	185.864	156.883	268.359	327.187	154.959	161.817	291.305	284.182	159.095	163.984	166.391	172.505	295.753	168.465	-8191	255	
2215.294	1	1	0	0	0.23262	0.10954	0.059043	0.22656	0.084273	0.18293	0.18236	0.066969	0.032183	0.14973	0.12285	0.16106	0.1691	0.10532	0.064516	0.12193	-3.75	-3.2333	-3.8229	-3.8229	-3.2146	-4.025	-3.5021	-3.5771	-4.0167	-3.3187	-4.0958	-3.9229	-3.2354	-4.0375	-3.4	-3.5229	388.373	449.641	483.641	484.226	371.702	349.144	146.957	155.436	239.469	372.560	252.593	245.141	184.733	169.822	251.936	303.877	0.00035554	0.00010981	6.7662e-05	1056.2	6.6952e-06	4.7027e-06	1255.6	325.53	6.0027e-06	1.0853e-06	413.33	105.89	70.721	16.075	2.0323e-06	24.414	0.00083837	0.0012197	0.00033406	929.97	1.2475e-05	1.2898e-05	1101.6	287.85	1.2234e-05	1.3548e-05	364.52	93.77	63.463	14.567	1.319e-05	22.136	288.599	204.136	232.521	156.624	284.666	475.380	154.694	161.350	344.699	408.189	159.036	163.635	165.447	172.416	286.313	167.824	-8191	255	
2215.391	1	1	0	0	0.14037	0.19869	0.12411	0.19457	0.14613	0.14844	0.22955	0.24075	0.17687	0.27625	0.06559	0.14159	0.31146	0.31713	0.030877	0.10115	-3.9771	-3.1958	-3.7562	-3.9938	-3.0292	-4.0958	-3.625	-3.5333	-4.1708	-3.2896	-3.9708	-4.0521	-3.1521	-4.0062	-3.7375	-3.3604	290.043	365.613	462.961	457.663	161.204	477.314	482.547	452.421	362.555	436.430	191.453	498.882	178.512	145.141	180.694	269.215	0.0003621	0.00045625	0.00034481	1052.9	4.5497e-06	7.6145e-06	1250.5	324.19	6.0595e-06	7.0589e-06	416.03	106.04	70.876	16.27	1.0443e-05	24.846	0.00085776	0.0012486	0.00033507	927.95	1.2606e-05	1.3585e-05	1098.4	285.9	1.2136e-05	1.387e-05	365.23	94.129	63.551	14.59	1.2881e-05	22.318	285.139	229.190	236.270	156.429	292.042	280.238	154.675	161.419	319.872	263.035	159.188	163.801	165.658	171.951	331.782	167.614	-8191	255	
2215.487	1	1	0	0	0.12125	0.056159	0.17724	0.23515	0.14274	0.10518	0.11987	0.12882	0.14393	0.14561	0.10084	0.074154	0.24055	0.09543	0.18358	0.21875	-3.8958	-3.4	-3.7667	-4.0708	-3.1437	-4.1125	-3.7458	-3.4917	-4.0083	-3.4667	-3.6646	-4.0625	-3.3604	-3.9229	-3.7167	-3.3667	236.862	440.761	316.089	471.863	164.275	220.929	398.267	476.998	250.864	278.750	356.450	187.621	365.930	147.728	310.303	469.974	0.00035887	0.00054998	0.00020631	1053.5	2.12e-06	2.7275e-06	1249.5	324.02	5.6863e-06	4.5312e-06	416.76	107.36	71.199	16.23	5.2657e-06	24.988	0.00086739	0.0012126	0.00034497	930.19	1.3065e-05	1.3338e-05	1099.8	286.64	1.2543e-05	1.409e-05	367.77	94.707	63.641	14.638	1.2688e-05	22.414	290.941	242.558	196.742	156.657	407.589	308.217	154.628	161.418	327.756	295.319	159.271	164.101	165.759	172.233	288.194	168.059	-8191	255	
2215.583	1	1	0	0	0.054017	0.37957	0.17122	0.10608	0.13935	0.044217	0.15055	0.17558	0.12456	0.12247	0.2525	0.11745	0.15698	0.075915	0.12323	0.031915	-3.7792	-3.325	-3.4604	-4.1083	-3.2083	-3.9125	-3.9875	-3.2375	-4.1792	-3.6188	-3.3771	-4.1458	-3.2958	-3.8312	-3.8729	-3.1937	396.016	461.092	232.923	156.668	161.866	502.177	409.019	187.431	224.640	467.816	432.409	413.234	180.659	177.460	437.970	435.825	0.00032372	0.00049681	9.7491e-05	1053.9	6.0248e-06	5.2323e-06	1255.3	323.78	4.3749e-06	4.6184e-06	414.06	105.58	71.326	16.088	7.0665e-06	24.345	0.00086423	0.0012369	0.00034343	931.36	1.2836e-05	1.339e-05	1100.9	286.56	1.2132e-05	1.3941e-05	364.73	93.581	63.116	14.53	1.2541e-05	22.091	284.095	236.066	298.133	156.476	307.779	289.111	154.762	161.646	344.821	300.828	159.155	164.417	166.076	172.794	256.543	167.710	-8191	255	
2215.679	1	1	0	0	0.11843	0.14512	0.22482	0.19059	0.19487	0.14244	0.2139	0.1481	0.083396	0.033418	0.3378	0.034926	0.099774	0.22081	0.096352	0.065074	-3.7562	-3.4333	-3.4396	-4.0938	-3.1813	-3.6771	-4.1521	-3.1854	-4.0583	-3.5208	-3.4333	-4.1979	-3.3312	-3.7062	-3.9188	-3.1063	467.925	475.801	272.286	416.520	266.450	258.362	411.010	418.594	378.671	426.853	438.273	448.987	473.900	184.708	218.154	407.193	0.00036777	0.00040304	0.00023665	1053.8	4.0128e-06	4.5132e-06	1250.9	323.41	7.3724e-06	3.08e-06	410.63	106.97	71.57	16.211	8.727e-06	24.464	0.00083486	0.0011794	0.0003422	926.82	1.2957e-05	1.3624e-05	1093.2	285.53	1.2335e-05	1.3056e-05	362.95	93.556	63.441	14.595	1.2711e-05	22.093	285.138	188.777	253.184	156.916	247.853	286.851	154.803	161.787	316.190	329.175	159.568	164.513	165.652	172.774	287.141	168.075	-8191	255	
2215.798	1	1	0	0	0.24919	0.061999	0.19419	0.18228	0.053081	0.16055	0.068613	0.37384	0.024724	0.15559	0.35266	0.099887	0.1001	0.15351	0.1172	0.30163	-3.5792	-3.6333	-3.2812	-4.0979	-3.2354	-3.5354	-4.3333	-3.2938	-3.6479	-3.9104	-3.3042	-4.1042	-3.3625	-3.5021	-4.0771	-3.3146	402.799	330.703	191.073	348.023	379.667	383.759	180.102	451.907	259.846	235.761	449.477	459.328	236.530	413.087	419.100	212.634	0.00035669	0.0004782	0.0001582	1044.5	5.7497e-06	5.3369e-07	1253.1	325.21	4.2501e-07	3.1216e-06	415.36	107.16	71.484	16.261	5.94e-06	24.968	0.00085307	0.0011963	0.00032968	927.79	1.2784e-05	1.3297e-05	1098.7	287.1	1.2672e-05	1.3617e-05	366.46	94.641	63.992	14.697	1.2338e-05	22.504	284.146	207.380	284.913	156.811	313.713	266.394	154.543	161.660	244.053	240.066	159.438	164.053	166.176	172.722	287.763	167.864	-8191	255	
2215.894	1	1	0	0	0.24449	0.18039	0.1682	0.26305	0.31546	0.1925	0.21983	0.10815	0.055655	0.22353	0.1288	0.22707	0.15061	0.054767	0.18367	0.25189	-3.5542	-3.6333	-3.0333	-4.2375	-3.4167	-3.5229	-4.2604	-3.2917	-3.7021	-3.8438	-3.3708	-4.1625	-3.4583	-3.4729	-4.1813	-3.2271	239.825	354.598	215.852	466.375	473.165	308.614	393.025	343.994	494.762	446.034	461.079	386.172	304.392	461.700	214.558	440.391	0.0003733	0.00031035	1.3316e-05	1058.8	3.5051e-06	2.5219e-06	1243.3	326.28	5.6987e-06	2.9767e-06	413.31	108.34	72.484	16.55	3.8107e-06	24.779	0.00088126	0.001157	0.00034478	928.88	1.2271e-05	1.3494e-05	1097	287.62	1.2016e-05	1.3481e-05	367.83	95.404	64.228	14.776	1.2899e-05	22.421	295.996	205.220	486.457	156.662	291.807	354.491	154.689	161.895	333.300	280.235	159.638	164.234	165.804	172.053	340.342	167.715	-8191	255	
2215.990	1	1	0	0	0.11546	0.066269	0.058235	0.26732	0.18734	0.018636	0.13619	0.22003	0.19358	0.16268	0.20374	0.089683	0.26825	0.10559	0.28364	0.13113	-3.3667	-4.1083	-3.1188	-4.2208	-3.7625	-3.3458	-4.4	-3.4854	-3.65	-4.0417	-3.3708	-4.0375	-3.8625	-3.2375	-4.1354	-3.4979	271.606	399.155	434.252	421.468	228.635	466.639	178.497	495.174	244.298	146.565	502.956	309.875	496.362	443.018	287.464	233.833	0.00033065	0.00044263	9.9711e-05	1054.2	1.8104e-06	5.497e-06	1246.4	325.7	4.9582e-06	3.2629e-06	411.34	105.03	71.147	16.076	5.3911e-06	24.536	0.00086003	0.0011787	0.00033748	927.37	1.276e-05	1.342e-05	1096.3	286.73	1.2156e-05	1.3407e-05	363.79	93.167	63.397	14.571	1.2129e-05	22.009	290.909	296.767	283.459	156.864	241.470	322.077	155.132	161.697	289.192	235.807	159.328	164.134	166.194	173.006	281.030	167.987	-8191	255	
2216.086	1	1	0	0	0.14702	0.21361	0.14933	0.34835	0.14436	0.07171	0.12556	0.25884	0.095386	0.13411	0.22507	0.15203	0.13299	0.13514	0.28154	0.121	-3.2438	-3.9667	-3.1146	-3.9062	-3.5958	-3.0938	-4.2896	-3.6542	-3.4396	-4.0583	-3.3167	-3.9083	-3.9104	-3.1146	-4.1354	-3.4771	300.589	311.262	271.131	173.599	272.787	382.843	418.293	470.012	184.512	258.008	461.503	454.920	450.762	493.832	463.802	349.737	0.00030226	0.00034374	0.00011745	1040.6	7.8826e-06	2.6559e-06	1236.7	324.9	3.7598e-06	1.8404e-06	410.67	105.4	71.261	16.025	9.3574e-07	24.502	0.00083771	0.0012314	0.00032532	922.94	1.2552e-05	1.3598e-05	1090.4	285.93	1.2477e-05	1.3129e-05	362.37	93.529	63.368	14.549	1.2867e-05	22.098	291.187	197.045	271.388	156.907	326.136	287.683	155.128	161.597	311.782	234.715	159.549	164.235	166.578	172.944	389.986	168.105	-8191	255	
2216.182	1	1	0	0	0.34817	0.10946	0.19589	0.2421	0.22711	0.12961	0.15782	0.083139	0.099373	0.14037	0.11596	0.12819	0.22799	0.067123	0.037805	0.17359	-3.1042	-4.0625	-3.2083	-3.9208	-4.0833	-3.0646	-4.2729	-3.6437	-3.3979	-4.1562	-3.6437	-3.8521	-4	-3.2854	-4.0625	-3.5938	149.756	147.633	500.779	476.737	242.986	169.546	381.154	455.213	331.790	343.715	156.044	413.770	204.260	277.509	340.605	395.782	0.00033747	0.00053108	0.0001099	1048.2	5.1588e-06	7.3311e-06	1244.7	322.2	5.6192e-06	2.0599e-06	410.04	107.17	71.194	16.227	4.3109e-06	24.937	0.00086235	0.0011722	0.00033608	927.06	1.26e-05	1.3275e-05	1093.7	285.46	1.3009e-05	1.3121e-05	363.63	94.405	63.66	14.643	1.2832e-05	22.379	286.634	159.439	381.912	157.076	301.374	299.481	153.807	160.013	305.270	222.158	158.043	163.477	164.684	171.515	247.318	167.439	-8191	255	
2216.279	1	1	0	0	0.10289	0.046374	0.23303	0.1562	0.074894	0.16941	0.207	0.16419	0.24358	0.070017	0.25165	0.045178	0.022743	0.14536	0.12377	0.10796	-3.0333	-4.0104	-3.3063	-3.5229	-3.975	-3.1208	-4.05	-3.8958	-3.2062	-4.0813	-3.6042	-3.4583	-4.2438	-3.2687	-3.8917	-3.7979	381.079	467.759	455.088	442.134	436.320	237.842	500.105	469.912	382.687	434.281	412.938	208.688	287.327	182.808	428.707	327.103	0.00037187	0.00062078	3.837e-05	1047	6.4035e-06	6.9355e-06	1250.3	324.99	3.2279e-06	3.6382e-06	413.02	106.9	71.59	16.071	3.0914e-06	24.8	0.00086317	0.0011913	0.00035074	928.07	1.2918e-05	1.3465e-05	1099.3	287.47	1.2536e-05	1.33e-05	365.91	94.441	63.952	14.645	1.2456e-05	22.329	292.947	199.148	498.871	155.393	302.777	382.711	153.841	160.675	327.560	273.402	158.175	163.027	164.944	170.820	270.587	166.361	-8191	255	
2216.375	1	1	0	0	0.17156	0.27611	0.078044	0.34147	0.14617	0.12044	0.18945	0.097009	0.086889	0.019632	0.22694	0.11203	0.11774	0.1682	0.18927	0.18278	-2.7375	-4.1333	-3.5333	-3.6167	-3.8854	-3.3354	-4.0271	-3.9604	-3.1312	-3.9875	-3.6188	-3.4396	-4.1396	-3.3688	-3.7292	-3.9062	197.375	258.723	363.308	501.519	385.867	482.270	407.871	283.915	185.023	352.244	406.895	469.375	165.106	418.785	254.181	306.741	0.00037823	0.00036525	5.2009e-05	1054	3.1783e-06	7.7294e-06	1248.7	324.83	8.4532e-06	3.3894e-06	411.27	105.73	70.576	16.138	6.712e-06	24.509	0.00087031	0.0011997	0.00033284	927.03	1.2484e-05	1.325e-05	1093.5	286.2	1.2517e-05	1.2899e-05	363.52	93.277	63.23	14.593	1.2226e-05	22.136	287.543	171.665	283.328	155.905	248.267	305.809	154.006	160.466	309.429	294.684	157.924	162.749	164.803	171.002	328.708	167.085	-8191	255	
2216.495	1	1	0	0	0.11871	0.19232	0.20168	0.098496	0.099886	0.1897	0.080864	0.12629	0.13595	0.051354	0.021335	0.23968	0.13905	0.17265	0.024177	0.16553	-2.7125	-4.0354	-3.5167	-3.3521	-3.8292	-3.3208	-3.8417	-4.2417	-3.4271	-4.125	-3.8271	-3.5396	-4.2937	-3.4292	-3.575	-4.2042	340.326	457.667	204.631	432.258	484.892	244.709	377.830	475.642	459.085	303.014	216.228	249.545	404.939	367.968	300.665	483.571	0.00031583	0.00083331	0.00013872	1053.7	3.9496e-06	3.765e-06	1246	325.72	4.4416e-06	6.5175e-06	414.34	107.71	72.625	16.373	8.6682e-06	24.895	0.0008382	0.0011848	0.00032679	927.7	1.2192e-05	1.2934e-05	1093.2	287.87	1.2137e-05	1.2907e-05	365.11	94.671	64.411	14.766	1.2088e-05	22.432	291.952	221.754	233.435	155.628	303.279	250.708	153.862	160.488	311.980	289.331	158.118	163.854	165.174	172.100	366.092	168.029	-8191	255	
2216.592	1	1	0	0	0.21133	0.13154	0.33161	0.27088	0.14774	0.18409	0.27222	0.35595	0.19473	0.24433	0.18891	0.28086	0.1534	0.23941	0.19209	0.17487	-2.8479	-3.8833	-3.7583	-3.3604	-3.9667	-3.4104	-3.7687	-4.2542	-3.2292	-3.8229	-4.0042	-3.2771	-4.125	-3.5125	-3.4792	-4.1146	311.451	217.903	492.652	489.933	499.028	460.778	475.463	483.269	201.760	325.860	484.928	422.912	324.693	423.338	276.020	366.927	0.00032815	0.00041815	0.00013279	1057.6	6.5017e-06	2.0746e-06	1242.7	328.01	7.4212e-06	2.1072e-07	418.12	108.51	72.487	16.355	1.0093e-05	24.752	0.00084925	0.0010996	0.00033133	929.55	1.2308e-05	1.2513e-05	1097	289.63	1.2072e-05	1.3287e-05	367.66	95.521	64.516	14.783	1.2576e-05	22.519	284.368	206.917	247.135	155.991	339.786	197.623	154.003	160.844	289.087	358.392	158.529	163.475	165.685	171.956	283.932	166.901	-8191	255	
2216.686	1	1	0	0	0.069082	0.15888	0.051898	0.26537	0.058833	0.17897	0.14477	0.10966	0.087151	0.1696	0.30449	0.23891	0.057859	0.14301	0.25459	0.1886	-2.9562	-3.7979	-3.8229	-3.4167	-4.1167	-3.5875	-3.4896	-4.1875	-3.3438	-3.6375	-4.0021	-3.0458	-3.9208	-3.7292	-3.3479	-4.275	199.042	405.771	426.194	144.447	172.100	346.925	476.116	356.672	498.551	165.173	435.667	430.996	473.426	430.992	394.804	255.036	0.00039565	0.00042025	3.2326e-05	1054.9	7.5314e-06	2.5885e-06	1251.8	326.51	2.9282e-06	4.7034e-06	412.6	106.86	72.24	16.244	5.1214e-06	24.557	0.00087276	0.0011876	0.00032587	930.74	1.2267e-05	1.3004e-05	1099	289.02	1.2235e-05	1.3108e-05	366	94.351	63.97	14.702	1.2509e-05	22.182	285.559	228.441	235.365	156.274	261.560	316.155	154.453	161.229	319.824	230.689	158.290	163.406	165.327	171.862	402.428	167.263	-8191	255	
2216.759	1	1	0	0	0.28217	0.1616	0.18523	0.23556	0.053027	0.085435	0.16697	0.18227	0.02486	0.14961	0.24328	0.22713	0.050249	0.15106	0.10726	0.09318	-2.9313	-3.6917	-3.9354	-3.3625	-3.9271	-3.6042	-3.4729	-4.2438	-3.3438	-3.4708	-4.1438	-3.2458	-4.0437	-3.8167	-3.3042	-4.1792	358.066	437.628	331.995	466.166	327.707	371.375	443.240	409.078	458.118	154.828	454.076	480.885	444.897	221.689	251.479	268.617	0.00033655	0.00064813	0.00016838	1049.1	4.9004e-06	4.6601e-06	1244.6	323.67	5.4387e-06	1.6871e-06	410.66	105.05	70.976	16.211	3.4428e-06	24.585	0.00082804	0.0011375	0.00031463	925.73	1.2173e-05	1.2812e-05	1092.2	286.72	1.1708e-05	1.2835e-05	363.03	93.256	63.57	14.651	1.2483e-05	22.085	284.855	220.453	273.599	155.826	331.767	252.267	154.151	160.999	309.191	309.422	158.801	163.258	165.589	172.511	285.552	167.525	-8191	255	
2216.880	1	1	0	0	0.26326	0.11216	0.079727	0.22333	0.27583	0.29711	0.15373	0.32704	0.027458	0.091664	0.091963	0.15965	0.28674	0.079156	0.10119	0.079689	-3.175	-3.4646	-4.0521	-3.4604	-3.8208	-3.9667	-3.4042	-4.1479	-3.4104	-3.3104	-4.2208	-3.3333	-3.9729	-3.8396	-3.3104	-4.0396	267.205	211.038	492.311	483.691	386.989	420.739	486.841	444.493	285.805	347.481	182.090	488.966	474.303	474.070	338.463	313.463	0.00033173	0.00026021	8.262e-05	1049.6	3.8811e-06	3.8662e-06	1243.6	326.09	4.565e-06	4.7278e-06	411.97	106.43	71.738	16.259	4.3722e-06	24.876	0.00084008	0.0011439	0.00031383	926.4	1.2053e-05	1.2484e-05	1093.8	287.65	1.1616e-05	1.304e-05	364.31	93.878	64.001	14.652	1.1957e-05	22.27	287.275	459.514	319.975	156.033	370.812	269.057	154.273	161.372	305.059	278.167	158.371	163.381	165.324	171.575	286.072	167.431	-8191	255	
2216.974	1	1	0	0	0.051798	0.2735	0.15401	0.2603	0.068094	0.092271	0.24664	0.054169	0.17369	0.19181	0.14205	0.21137	0.077821	0.11543	0.037205	0.29096	-3.3	-3.3896	-4.0854	-3.2792	-3.725	-3.9958	-3.375	-4.1354	-3.6958	-3.3146	-4.2021	-3.5417	-3.6	-4.0229	-3.2167	-3.9708	211.360	459.097	442.432	483.132	335.324	398.954	400.273	153.389	151.611	163.237	371.012	221.248	470.119	433.674	364.643	188.025	0.00034503	0.00029748	0.00016167	1056.7	3.3028e-06	3.5648e-06	1248	328.01	4.1824e-06	4.5972e-06	413.67	107.34	72.204	16.388	6.291e-06	24.735	0.00082504	0.0011732	0.00031759	928.13	1.1688e-05	1.3026e-05	1094.3	289.04	1.2409e-05	1.3735e-05	366.11	94.757	64.496	14.773	1.3054e-05	22.399	283.135	247.479	219.576	156.695	290.034	280.349	153.962	160.882	307.192	297.861	158.896	163.586	165.055	171.418	304.128	167.358	-8191	255	
2217.071	1	1	0	0	0.23779	0.14456	0.070383	0.1439	0.15716	0.16546	0.16933	0.16206	0.12017	0.23865	0.18609	0.21507	0.071893	0.17805	0.13918	0.077801	-3.4104	-3.0479	-4.0604	-3.475	-3.5729	-4.2958	-3.4417	-3.9979	-3.7354	-3.3875	-4.3708	-3.4813	-3.5458	-4.2438	-3.3292	-3.9458	486.362	453.991	265.074	181.832	352.045	198.339	371.786	416.167	411.525	375.115	425.795	216.129	311.791	160.265	262.382	484.998	0.00036399	0.00060342	0.00018017	1045.9	2.6797e-06	4.9898e-06	1239.6	325.9	3.2645e-06	6.1392e-06	413.49	105.23	72.243	16.492	2.598e-06	24.567	0.00084182	0.0011989	0.00033556	927.41	1.249e-05	1.2912e-05	1093	289.01	1.1717e-05	1.3238e-05	365.94	93.59	64.219	14.755	1.228e-05	22.083	284.822	208.368	217.527	155.777	316.893	322.132	154.383	161.267	339.551	294.672	158.595	162.817	165.258	171.598	346.392	167.409	-8191	255	
2217.167	1	1	0	0	0.12933	0.14411	0.13298	0.26793	0.2921	0.10265	0.091714	0.028022	0.22588	0.044995	0.20786	0.082525	0.040458	0.087571	0.20072	0.16245	-3.5708	-3.3021	-4.1083	-3.7354	-3.4229	-4.1854	-3.5729	-3.7167	-4.0312	-3.2229	-4.2	-3.5208	-3.3438	-4.2271	-3.3354	-3.6979	281.044	338.667	362.499	476.146	207.998	396.611	367.991	485.277	433.158	427.434	480.382	356.525	250.771	487.429	202.298	472.495	0.00038582	0.00050381	0.00015655	1049.5	6.3677e-06	6.1399e-06	1231.8	328.79	4.4048e-06	3.6308e-06	410.52	105.62	72.333	16.319	4.5071e-06	24.382	0.00081712	0.0012051	0.00032287	925.51	1.2953e-05	1.2843e-05	1085.2	289.34	1.2289e-05	1.3264e-05	364.14	93.578	64.25	14.738	1.246e-05	22.132	287.419	212.782	186.416	155.710	281.146	325.017	153.952	160.771	317.451	406.126	158.723	163.519	165.272	171.643	280.677	166.760	-8191	255	
2217.287	1	1	0	0	0.12196	0.12359	0.18761	0.12129	0.14555	0.12174	0.25659	0.14999	0.10075	0.26884	0.12586	0.23215	0.025102	0.10649	0.14784	0.12319	-3.6167	-3.2021	-4.0437	-3.8917	-3.2583	-4.0563	-3.5292	-3.625	-4.1542	-3.3292	-4.1417	-3.8438	-3.2521	-4.2729	-3.575	-3.4813	418.805	216.868	477.343	376.283	272.468	196.061	295.877	484.125	285.972	353.954	451.549	311.368	180.921	490.028	240.480	362.847	0.00043231	0.00078331	0.00012009	1054.5	6.3312e-06	5.1836e-06	1241.9	326.93	7.9934e-06	2.1855e-06	414.52	107.05	72.299	16.49	3.7843e-06	24.747	0.00084092	0.0011861	0.00032561	929.71	1.2478e-05	1.292e-05	1089.4	289.27	1.1893e-05	1.3235e-05	365.81	94.407	64.376	14.899	1.2597e-05	22.292	283.224	272.401	186.013	155.543	303.671	265.959	153.854	161.222	342.285	415.176	158.851	163.361	164.879	171.242	332.128	167.273	-8191	255	
2217.383	1	1	0	0	0.17058	0.11823	0.31183	0.19384	0.16637	0.027403	0.38501	0.25436	0.11528	0.10369	0.13587	0.072416	0.030243	0.0309	0.054211	0.25247	-3.8833	-3.25	-3.8583	-4.1062	-3.3312	-4.1625	-3.7375	-3.5667	-4.1292	-3.2333	-4	-3.9854	-3.2333	-4.1125	-3.6937	-3.4479	492.183	452.268	309.502	476.706	284.505	329.547	478.674	386.036	477.534	149.375	203.044	480.450	451.968	224.130	205.391	441.247	0.0003713	0.00028055	0.0002232	1054.6	1.0413e-05	5.1673e-06	1250.4	327.26	3.0879e-06	6.6703e-06	413.73	107.52	73.481	16.373	5.3966e-06	25.001	0.00084853	0.001182	0.00033789	931.02	1.2656e-05	1.2774e-05	1095.4	289.43	1.2016e-05	1.3589e-05	366.18	94.848	65.007	14.876	1.2351e-05	22.434	284.470	162.291	216.502	155.513	279.473	315.549	153.927	161.576	378.490	315.667	158.172	162.798	164.897	171.739	296.585	167.651	-8191	255	
2217.480	1	1	0	0	0.11227	0.13481	0.10531	0.23842	0.12564	0.092065	0.031939	0.21986	0.0040489	0.082906	0.17535	0.18518	0.19966	0.22018	0.20378	0.2211	-3.8688	-3.2854	-3.7646	-4.1062	-3.2687	-4.1229	-3.8937	-3.6083	-4.1271	-3.3937	-3.8417	-4.1708	-3.2833	-4	-3.7896	-3.3187	331.779	491.659	460.010	418.163	240.413	302.560	338.480	423.097	332.587	424.569	263.614	425.306	441.709	485.363	363.650	151.175	0.00042346	0.00065631	0.00012724	1054.2	7.9538e-06	8.3637e-06	1243	326.72	5.1662e-06	6.5658e-06	408.58	105.47	72.208	16.389	4.6932e-06	24.414	0.00086021	0.0011465	0.00032955	928.36	1.2367e-05	1.3368e-05	1091	288.74	1.1963e-05	1.3242e-05	362.15	93.225	64.19	14.771	1.195e-05	22.023	291.613	196.744	220.514	155.829	276.860	335.518	153.803	160.807	287.615	308.646	158.299	162.895	165.441	171.632	263.219	167.425	-8191	255	
2217.576	1	1	0	0	0.10488	0.076687	0.069403	0.15787	0.1522	0.020367	0.15974	0.052061	0.094462	0.12743	0.1898	0.20007	0.14523	0.10274	0.062737	0.30103	-3.8479	-3.3833	-3.5187	-4.15	-3.15	-3.9333	-3.8375	-3.325	-4.1042	-3.5917	-3.6	-4.2292	-3.1979	-3.7979	-3.7938	-3.4	240.680	201.321	401.688	429.711	253.747	469.748	147.883	437.437	305.694	381.307	446.328	217.194	448.424	408.423	267.995	439.906	0.00037153	0.00038531	0.00017666	1056.5	3.9738e-06	4.0233e-06	1231.4	326.69	5.4247e-06	3.8972e-06	408.48	105.87	71.88	16.431	2.0663e-06	24.474	0.00084229	0.0011911	0.00032309	926.8	1.289e-05	1.2867e-05	1083	288.5	1.2255e-05	1.3487e-05	361.12	93.454	64.116	14.786	1.2082e-05	22.104	286.025	168.698	224.714	156.462	305.086	255.893	154.117	161.445	288.617	276.649	158.362	163.166	165.469	171.606	303.807	167.045	-8191	255	
2217.672	1	1	0	0	0.0327	0.18012	0.20743	0.16325	0.1147	0.41166	0.2848	0.13816	0.20737	0.2785	0.25783	0.1459	0.22901	0.15356	0.027845	0.15124	-3.9354	-3.5583	-3.4542	-4.1875	-3.1958	-3.6958	-4.0687	-3.2771	-4.2021	-3.4562	-3.4854	-4.1292	-3.2542	-3.7208	-4.0437	-3.3646	285.232	372.582	383.073	443.994	336.567	349.821	459.978	490.707	242.198	159.016	184.053	170.617	386.561	415.743	259.517	383.810	0.0003517	0.00061414	0.00021874	1051.7	3.4214e-06	8.6337e-06	1227.5	327.11	7.4286e-06	2.3966e-06	411.56	106.03	71.975	16.48	6.9356e-06	24.577	0.00083337	0.0011666	0.0003255	927.16	1.2508e-05	1.2972e-05	1085.3	289.39	1.261e-05	1.3758e-05	363.32	93.602	64.559	14.806	1.2757e-05	22.198	279.734	251.586	279.178	155.582	266.988	284.478	153.982	160.938	330.625	303.945	158.887	163.116	165.815	171.523	343.785	167.381	-8191	255	
2217.768	1	1	0	0	0.23356	0.1766	0.098077	0.17405	0.2279	0.13897	0.15464	0.15924	0.14965	0.11415	0.1685	0.13383	0.28357	0.056408	0.2739	0.2791	-3.7062	-3.7292	-3.3271	-4.2479	-3.3458	-3.6896	-4.1958	-3.25	-3.9229	-3.7021	-3.5	-3.9792	-3.4729	-3.5646	-4.1042	-3.3021	317.117	356.906	300.693	470.657	408.611	359.181	357.568	415.894	346.076	300.275	424.967	387.238	450.555	240.463	369.021	481.946	0.00035483	0.00021771	0.00013724	1055.5	5.9538e-06	1.2503e-06	1239.6	327.06	6.9193e-06	1.2382e-06	410.93	107.46	71.279	16.568	4.9178e-06	24.33	0.00086564	0.0011871	0.00033213	930.71	1.2574e-05	1.2944e-05	1090.9	289.84	1.209e-05	1.3177e-05	365.18	94.725	64.346	14.901	1.2165e-05	22.08	286.853	319.870	219.058	156.116	274.838	486.431	153.751	160.758	295.807	307.532	158.350	162.922	164.772	171.833	330.535	166.572	-8191	255	
2217.887	1	1	0	0	0.077219	0.067353	0.16767	0.2209	0.11054	0.062249	0.16758	0.21271	0.11489	0.034202	0.27138	0.1538	0.11019	0.09009	0.020078	0.13344	-3.6083	-3.7792	-3.1375	-4.1625	-3.5875	-3.4188	-4.3667	-3.4938	-3.7375	-3.8375	-3.2375	-4.1479	-3.7458	-3.4167	-4.0771	-3.2979	498.095	375.119	411.930	444.065	262.921	237.270	482.617	436.887	198.614	392.257	421.563	163.022	220.014	383.814	156.222	182.764	0.00029093	0.00055676	0.00016838	1054.9	7.5487e-06	7.5416e-06	1235.7	326.77	2.9639e-06	2.401e-06	407.51	103.8	71.234	16.142	3.4427e-06	24.223	0.00082602	0.0011632	0.00032395	930.2	1.2085e-05	1.2751e-05	1084.4	288.57	1.2063e-05	1.3111e-05	359.82	92.173	63.709	14.625	1.267e-05	21.74	276.135	244.916	195.947	156.075	293.376	317.245	153.998	161.345	348.283	251.123	158.661	163.009	165.059	172.081	383.290	167.519	-8191	255	
2217.983	1	1	0	0	0.20817	0.22292	0.073814	0.3116	0.032836	0.053935	0.26498	0.29825	0.0675	0.056255	0.3974	0.15392	0.25919	0.102	0.11388	0.15692	-3.4396	-3.9167	-3.3937	-4.1896	-3.6583	-3.3583	-4.4208	-3.4625	-3.6063	-4.1375	-3.2812	-4.0229	-3.575	-3.35	-4.2083	-3.3896	335.735	372.333	292.680	441.003	187.027	247.479	422.699	414.487	472.391	464.324	466.597	342.274	170.281	207.383	370.761	185.647	0.00037771	0.00067585	0.00011367	1047.3	7.2781e-06	3.5543e-06	1233.3	324.58	5.3454e-06	4.0143e-06	408.66	105.12	71.9	16.154	1.2643e-06	24.207	0.0008516	0.0011677	0.00034311	926.77	1.2498e-05	1.3225e-05	1081.1	286.94	1.2297e-05	1.3001e-05	361.14	92.917	64.111	14.658	1.2324e-05	21.836	285.263	264.216	220.946	156.296	292.099	206.798	154.197	161.143	257.193	307.998	158.917	163.579	165.250	171.578	398.342	167.647	-8191	255	
2218.055	1	1	0	0	0.026354	0.17072	0.0068752	0.078687	0.18866	0.041608	0.10246	0.18091	0.095673	0.099615	0.3189	0.064956	0.38399	0.38214	0.23224	0.10735	-3.3125	-4.0042	-3.2542	-4.0729	-3.6917	-3.4083	-4.3854	-3.5687	-3.6396	-4.1104	-3.375	-3.9229	-3.8354	-3.2396	-4.1771	-3.6333	330.945	476.087	495.464	369.317	254.117	478.269	255.178	458.905	282.535	424.540	482.816	442.900	475.846	459.988	206.269	471.703	0.00037531	0.00034022	0.00010716	1049.4	8.5144e-06	2.176e-06	1236.5	327.55	2.4788e-06	5.6057e-06	408.83	106.13	71.847	16.457	3.2357e-06	24.604	0.00083808	0.0011721	0.00033699	926.9	1.3134e-05	1.3219e-05	1082.8	289.06	1.2061e-05	1.3501e-05	362.31	93.607	64.283	14.88	1.2593e-05	22.16	282.323	495.972	260.192	156.393	300.154	291.089	154.187	160.908	257.603	334.417	158.784	162.876	164.875	171.906	291.421	167.423	-8191	255	
2218.151	1	1	0	0	0.068679	0.092774	0.21932	0.2081	0.14974	0.24414	0.028516	0.1441	0.096135	0.17303	0.11483	0.083614	0.22992	0.078046	0.16377	0.11892	-3.0708	-4.2458	-3.1437	-3.9896	-3.9792	-3.3771	-4.2521	-3.6667	-3.4667	-4.0958	-3.4	-3.6667	-4.0667	-3.1042	-4.0229	-3.5667	247.027	173.112	462.589	374.350	378.257	249.012	420.325	340.611	249.972	267.435	144.430	207.305	468.802	252.334	177.092	403.286	0.00037449	0.00047749	0.00016591	1059.7	4.0877e-06	7.0392e-06	1241.1	328.16	7.9018e-06	2.4887e-06	408.44	105.26	71.565	16.464	3.7743e-06	24.197	0.00082081	0.0011625	0.00032106	932.8	1.2038e-05	1.312e-05	1089.7	290.27	1.2329e-05	1.3033e-05	362.44	93.485	64.451	14.888	1.2595e-05	22.032	289.921	268.726	199.104	156.118	340.653	360.531	153.699	160.572	338.676	254.081	158.357	163.660	164.896	171.551	323.345	167.031	-8191	255	
2218.272	1	1	0	0	0.33928	0.23502	0.17533	0.041053	0.092082	0.2325	0.23107	0.24176	0.37279	0.1013	0.043874	0.028724	0.29981	0.27863	0.039407	0.32034	-2.9313	-4.0563	-3.2854	-3.6896	-4.0687	-3.1542	-4.1417	-3.9417	-3.1396	-4.2125	-3.5292	-3.5021	-4.0604	-3.2729	-4.0062	-3.8187	310.557	207.633	163.269	436.780	501.267	477.297	423.802	142.707	355.994	221.648	476.640	415.938	148.840	350.801	183.385	402.269	0.00038744	0.00055422	0.00010515	1055.7	4.5616e-06	2.3908e-06	1229.6	329.04	5.0247e-06	5.1706e-06	407.48	104.98	72.259	16.391	3.3397e-06	24.345	0.0008526	0.0011959	0.00032575	930.74	1.2165e-05	1.307e-05	1082.2	289.76	1.1874e-05	1.2387e-05	361.17	92.853	64.435	14.798	1.2412e-05	21.959	287.014	283.259	290.389	155.979	389.930	421.970	153.900	160.637	280.919	261.675	158.207	163.270	165.224	171.806	214.154	167.589	-8191	255	
2218.368	1	1	0	0	0.21996	0.096978	0.20403	0.12166	0.16993	0.10284	0.16976	0.11219	0.012771	0.075901	0.47933	0.19218	0.1495	0.1671	0.071193	0.22511	-3.0062	-4.0938	-3.2958	-3.5417	-4.1687	-3.2396	-3.9	-3.9646	-3.3146	-4.0771	-3.6229	-3.4083	-4.1979	-3.2021	-3.7479	-3.9625	431.464	337.757	155.840	450.322	238.497	338.121	492.386	422.855	467.508	229.257	462.953	497.416	288.213	161.051	494.565	459.391	0.00031744	0.00020601	8.8634e-05	1062	3.5248e-06	4.2286e-06	1234	328.33	7.1591e-06	4.0995e-06	405.54	105.89	72.313	16.432	4.2693e-06	24.589	0.00078977	0.0011621	0.00032931	932.8	1.2012e-05	1.326e-05	1086.3	289.8	1.2253e-05	1.2893e-05	360.68	93.637	64.384	14.849	1.2509e-05	22.147	286.645	213.887	208.608	156.014	200.181	379.170	154.115	160.993	313.745	290.434	158.129	163.312	165.814	172.071	257.892	167.253	-8191	255	
2218.464	1	1	0	0	0.038938	0.11094	0.19936	0.32042	0.0511	0.14088	0.20331	0.16375	0.11801	0.096008	0.30275	0.28067	0.17321	0.090563	0.19123	0.056509	-2.7729	-4.1646	-3.6646	-3.3708	-4.1125	-3.1625	-3.9167	-4.1521	-3.2229	-4.0813	-3.6917	-3.3708	-4.0333	-3.1854	-3.5687	-4.0083	311.541	321.886	233.819	408.793	169.136	327.795	475.535	472.959	224.800	460.736	426.113	297.740	282.802	206.567	314.758	286.539	0.00035303	0.00064016	9.1325e-05	1061.1	2.0899e-06	3.6462e-06	1241.1	328.76	7.6981e-06	7.0868e-06	410.98	106.95	72.802	16.577	8.444e-06	24.971	0.00086541	0.0011818	0.00032036	934.98	1.1974e-05	1.2577e-05	1091.2	291.56	1.1833e-05	1.263e-05	363.74	94.325	65.006	15.016	1.2214e-05	22.449	289.403	269.063	279.332	156.090	355.007	313.776	154.017	160.457	288.709	258.346	158.090	163.171	165.243	171.376	282.783	166.721	-8191	255	
2218.560	1	1	0	0	0.16846	0.10736	0.20594	0.18097	0.23277	0.1128	0.24231	0.20899	0.19571	0.25005	0.24627	0.19135	0.097752	0.1472	0.24111	0.25669	-2.9062	-3.9771	-3.7146	-3.4521	-3.9646	-3.2292	-3.7146	-4.1896	-3.0917	-3.6417	-3.9229	-3.2604	-4.2292	-3.6063	-3.4521	-4.2146	196.817	176.413	396.187	181.198	372.991	466.967	156.378	156.927	248.066	152.398	454.652	469.686	415.851	385.315	143.249	338.721	0.00031602	0.00041972	9.9383e-05	1061.8	5.3927e-06	8.1257e-06	1245.2	329.58	5.8766e-06	6.0787e-06	411.11	106.26	72.406	16.454	7.4023e-06	24.223	0.00082251	0.0011365	0.00031577	937.09	1.233e-05	1.3022e-05	1094.1	291.54	1.1964e-05	1.2698e-05	362.65	93.762	64.764	14.904	1.2013e-05	21.934	285.304	215.494	225.517	155.742	258.821	286.648	153.890	160.599	301.414	343.557	158.157	163.180	165.050	171.503	308.619	167.006	-8191	255	
2218.656	1	1	0	0	0.16622	0.25247	0.20627	0.18195	0.046547	0.22909	0.089873	0.31074	0.075093	0.041254	0.063503	0.17943	0.16839	0.078558	0.21882	0.12916	-2.8083	-3.8292	-3.6667	-3.3167	-4.0146	-3.4229	-3.5687	-4.2375	-3.0833	-3.7062	-4.0771	-3.1688	-4.0417	-3.5792	-3.2646	-4.3083	374.380	299.959	222.251	190.750	376.299	379.071	423.251	413.835	434.536	448.513	411.051	351.729	286.808	457.947	327.164	282.942	0.00031148	0.00056155	0.00022907	1064.1	5.5908e-06	5.0869e-06	1234.9	328.55	6.2902e-06	4.268e-06	407.6	104.63	72.639	16.458	4.1041e-06	24.503	0.00084159	0.0011421	0.00032097	933.79	1.2189e-05	1.2981e-05	1082.3	290.36	1.203e-05	1.2775e-05	359.48	92.642	64.559	14.864	1.1837e-05	21.917	287.238	186.526	196.496	155.843	232.623	269.288	153.837	160.576	335.151	287.660	158.461	163.476	165.705	171.904	258.765	167.265	-8191	255	
2218.752	1	1	0	0	0.2873	0.04067	0.10813	0.05021	0.31761	0.021392	0.13612	0.32127	0.068083	0.17245	0.13826	0.087133	0.23897	0.18568	0.10749	0.14477	-2.8604	-3.7625	-3.9583	-3.3771	-3.9083	-3.575	-3.4417	-4.1583	-3.3167	-3.4229	-4.1104	-3.3354	-3.9854	-3.7396	-3.3042	-4.2146	318.112	226.940	212.146	497.797	319.986	488.978	418.199	394.310	264.919	166.410	443.150	218.030	486.903	196.110	483.058	167.200	0.00033924	0.00040691	0.00015606	1056.3	9.8708e-07	2.8538e-06	1236.6	330.43	5.523e-06	3.3424e-06	403.57	105.84	72.625	16.527	3.6987e-06	24.415	0.00081275	0.0011544	0.00030584	932.57	1.1763e-05	1.2833e-05	1085.5	290.67	1.2038e-05	1.3122e-05	360.56	93.724	64.91	14.962	1.2182e-05	22.078	286.540	173.176	283.044	155.820	339.782	276.819	153.869	160.636	303.027	287.582	158.286	163.309	165.072	171.349	330.298	167.473	-8191	255	
2218.848	1	1	0	0	0.12331	0.11685	0.17674	0.22014	0.1557	0.058382	0.31529	0.17501	0.054269	0.16422	0.19946	0.25729	0.19159	0.15495	0.13514	0.07435	-3.0729	-3.475	-4.1271	-3.2229	-3.7938	-3.6854	-3.2438	-4.2146	-3.4437	-3.4604	-4.2146	-3.175	-3.9458	-3.9938	-3.0875	-4.0646	304.299	329.609	293.911	485.409	181.191	340.472	434.330	458.158	417.474	402.672	480.496	178.604	209.277	236.840	232.356	424.766	0.00031662	0.000668	0.00012788	1056.7	7.2562e-07	3.8452e-06	1236.9	331.82	3.8904e-06	5.0278e-06	411.01	106.67	72.669	16.467	5.092e-06	24.476	0.00083471	0.0011438	0.00031348	932.53	1.1916e-05	1.2331e-05	1088.1	292.14	1.1526e-05	1.2608e-05	362.91	94.57	64.874	14.896	1.2679e-05	22.062	296.807	259.807	258.726	155.791	360.918	365.809	153.901	160.428	306.350	340.270	158.069	162.933	164.810	171.297	351.435	166.993	-8191	255	
2218.967	1	1	0	0	0.24209	0.22417	0.053797	0.15589	0.096604	0.11847	0.084823	0.27476	0.093382	0.13354	0.11168	0.093306	0.13954	0.12033	0.18253	0.14154	-3.2729	-3.3563	-3.9729	-3.3604	-3.9188	-4.0729	-3.425	-4.2375	-3.5083	-3.2562	-4.3562	-3.3792	-3.7021	-3.9979	-3.1562	-4.05	260.662	427.986	306.942	478.924	367.962	324.335	249.326	492.219	192.707	392.095	457.223	148.660	393.045	495.113	469.662	329.500	0.00033709	0.00033409	2.4402e-05	1061.2	4.8421e-06	4.0591e-06	1242.9	330.35	9.3612e-06	4.9713e-06	408.4	105.73	73.111	16.492	5.0777e-06	24.039	0.00084633	0.0011245	0.00033048	934.39	1.1694e-05	1.2041e-05	1087.9	292.16	1.1706e-05	1.2411e-05	362.29	93.189	64.96	14.894	1.2009e-05	21.768	277.879	276.774	207.415	155.229	230.758	333.844	153.731	160.724	325.185	267.629	158.148	163.315	164.686	171.196	254.184	166.983	-8191	255	
2219.064	1	1	0	0	0.15918	0.2324	0.27337	0.18995	0.10542	0.17807	0.22002	0.25092	0.11346	0.11687	0.17272	0.29058	0.14666	0.17933	0.14446	0.13408	-3.4437	-3.275	-4.0521	-3.3063	-3.5958	-4.0333	-3.2771	-4.0437	-3.6583	-3.1646	-4.2542	-3.4979	-3.5312	-4.1854	-3.1	-4.0271	355.585	184.434	345.138	215.915	261.062	467.110	447.136	402.302	155.754	452.056	396.340	452.229	207.833	318.382	411.067	302.294	0.00037013	0.00046105	0.00013098	1054.4	6.692e-06	4.3921e-06	1226.8	328.31	3.2724e-06	3.215e-06	408.91	104.63	72.903	16.424	6.2882e-06	24.346	0.00080946	0.0011447	0.00030949	932.57	1.1725e-05	1.2543e-05	1080.8	291.32	1.1872e-05	1.2892e-05	361.58	92.737	64.994	14.871	1.2088e-05	21.959	291.318	247.767	273.003	155.620	274.370	345.142	153.554	160.737	286.163	222.929	157.692	162.863	164.664	171.368	282.999	166.872	-8191	255	
2219.160	1	1	0	0	0.14206	0.20945	0.043943	0.17004	0.087054	0.11642	0.25871	0.13298	0.061192	0.12729	0.38039	0.099003	0.12452	0.21848	0.056937	0.08129	-3.3979	-3.1063	-4.0979	-3.5458	-3.5271	-4.225	-3.3875	-3.8479	-3.7708	-3.2313	-4.1292	-3.6021	-3.3812	-4.1479	-3.2833	-3.7708	491.495	416.818	168.030	420.366	405.167	200.568	144.414	485.627	435.116	283.213	414.896	324.149	175.187	149.048	300.974	320.435	0.00037442	0.0007846	0.00017412	1052.7	4.6564e-06	6.3192e-06	1232	332.64	6.5795e-06	4.7878e-06	411.14	105.65	73.569	16.703	2.8835e-06	24.534	0.00079532	0.0011466	0.00031056	932.89	1.1771e-05	1.194e-05	1084.1	293.44	1.1386e-05	1.3102e-05	363.85	93.841	65.504	15.04	1.2001e-05	22.163	287.289	238.270	218.943	155.516	232.695	293.069	153.524	160.183	321.183	313.354	158.092	162.909	165.350	171.240	286.532	166.758	-8191	255	
2219.280	1	1	0	0	0.074957	0.23169	0.18508	0.16313	0.098707	0.23861	0.075414	0.23964	0.05666	0.06431	0.14616	0.21469	0.25691	0.10679	0.43401	0.1957	-3.6521	-3.0333	-3.8563	-3.7208	-3.3396	-4.1333	-3.4729	-3.7812	-3.9146	-3.1646	-4.1062	-3.7854	-3.1979	-4.0875	-3.3167	-3.6437	306.661	461.783	358.795	182.335	281.683	442.034	390.525	449.926	297.125	423.798	385.418	194.523	416.720	262.417	265.262	149.860	0.00032821	0.00081421	0.00018798	1063.2	4.1921e-06	5.3739e-06	1239.2	332.55	6.1145e-06	6.3057e-06	411.77	107.82	73.814	16.776	3.1671e-06	24.651	0.00079856	0.0011823	0.00032538	936.55	1.165e-05	1.2281e-05	1089.5	293.66	1.1274e-05	1.2333e-05	365.72	95.12	65.913	15.119	1.1508e-05	22.278	282.733	249.606	236.021	155.479	224.278	233.123	153.860	160.789	293.259	269.443	158.260	162.529	165.011	172.032	261.312	166.955	-8191	255	
2219.352	1	1	0	0	0.048802	0.11173	0.087609	0.17296	0.10069	0.11755	0.12763	0.38436	0.09542	0.14772	0.026733	0.12953	0.098333	0.15752	0.28571	0.26018	-3.7875	-3.1063	-3.9958	-3.9042	-3.1688	-4.175	-3.5271	-3.675	-4.1125	-3.25	-4.0396	-3.9667	-3.2729	-4.2333	-3.4729	-3.4813	183.968	190.943	178.912	456.690	388.659	339.862	374.570	336.439	476.221	323.685	441.000	172.656	499.615	342.757	447.042	307.993	0.00039374	0.00042328	0.0001323	1069.2	5.1327e-06	3.8928e-06	1237.2	331.11	4.2492e-06	9.3273e-06	410.76	104.58	73.574	16.499	8.8273e-06	24.094	0.0007972	0.0011553	0.0003144	940.65	1.1943e-05	1.1718e-05	1086.8	293.84	1.1768e-05	1.2611e-05	362.92	93.057	65.427	15.018	1.1582e-05	21.891	281.780	267.583	240.771	155.462	270.115	305.685	153.648	160.598	288.700	285.997	157.941	162.647	165.349	171.352	295.441	167.249	-8191	255	
2219.448	1	1	0	0	0.10645	0.20505	0.067311	0.19612	0.20052	0.26305	0.1299	0.2575	0.18388	0.11158	0.12129	0.13603	0.026752	0.17715	0.12907	0.34142	-3.7833	-3.325	-3.8917	-4.0604	-3.0979	-4.1104	-3.9458	-3.375	-4.0125	-3.2687	-3.9042	-4.0896	-3.4042	-4.125	-3.7979	-3.4708	380.516	290.599	423.452	446.560	236.047	239.938	374.285	484.676	440.050	449.739	485.721	395.870	187.945	421.073	243.258	472.146	0.00036945	0.00057945	0.00026916	1064.2	1.3399e-06	1.5482e-06	1230.8	332.83	7.6962e-06	3.6902e-06	407.96	106.28	73.565	16.686	5.5292e-06	24.559	0.00077958	0.0011286	0.00031126	936.28	1.1536e-05	1.1997e-05	1084.4	293.89	1.1269e-05	1.2348e-05	362.81	93.81	65.66	15.092	1.1761e-05	22.072	285.688	226.403	221.679	155.318	312.908	309.027	153.443	160.504	315.520	270.863	157.965	162.463	164.639	171.759	239.835	167.512	-8191	255	
2219.569	1	1	0	0	0.024781	0.18775	0.084099	0.30613	0.050222	0.25928	0.030452	0.10675	0.1319	0.061872	0.091476	0.1331	0.079323	0.27356	0.023942	0.15793	-3.825	-3.3979	-3.5646	-4.1125	-3.2771	-3.8063	-3.8208	-3.4333	-4.0813	-3.3583	-3.5708	-4.2438	-3.2562	-4.0521	-3.85	-3.2583	164.855	209.349	486.708	430.516	192.304	298.451	343.635	358.465	428.097	249.315	465.396	438.120	459.692	439.427	355.818	450.749	0.00030208	0.00032679	0.00010105	1061.9	6.0559e-06	5.8329e-06	1238.2	333.42	7.1999e-06	4.2239e-06	413.54	106.84	73.763	16.88	6.0278e-06	24.816	0.00078746	0.0010802	0.0003034	938.11	1.1708e-05	1.2287e-05	1086.8	295.25	1.1333e-05	1.2353e-05	365.71	94.61	65.923	15.187	1.1506e-05	22.312	283.480	227.334	202.925	155.399	255.618	325.705	153.450	160.870	321.813	276.099	158.234	162.563	165.404	172.035	273.933	167.082	-8191	255	
2219.663	1	1	0	0	0.304	0.14575	0.18382	0.18391	0.13309	0.18147	0.078397	0.20075	0.10662	0.24994	0.25666	0.2114	0.12881	0.15939	0.11005	0.19924	-3.7438	-3.4792	-3.5729	-4.25	-3.3271	-3.8229	-4.0667	-3.3333	-4.0458	-3.6542	-3.5021	-4.1854	-3.5062	-3.8042	-4.1271	-3.2771	299.699	451.219	185.378	470.845	339.912	456.874	413.037	479.969	235.368	381.902	453.541	496.368	398.771	365.251	448.443	427.934	0.00026013	0.0005776	0.00010719	1063.8	7.449e-06	8.8939e-06	1243.1	331.85	6.5995e-06	4.6973e-06	415.43	107.41	73.723	16.715	5.5747e-06	24.43	0.0008134	0.0011582	0.00031523	937.21	1.214e-05	1.2569e-05	1091.2	294.97	1.1709e-05	1.2294e-05	367.28	94.758	65.994	15.196	1.2076e-05	22.215	295.682	251.786	205.853	155.963	318.069	287.931	153.687	161.023	328.462	287.313	158.114	163.039	165.293	171.607	345.355	167.503	-8191	255	
2219.759	1	1	0	0	0.37793	0.14968	0.24193	0.27181	0.070502	0.25608	0.27666	0.26382	0.14192	0.27241	0.12801	0.071649	0.14727	0.21845	0.25148	0.088159	-3.7375	-3.4583	-3.3187	-4.2521	-3.5708	-3.6625	-4.2667	-3.2375	-4.075	-3.7146	-3.5146	-4.2104	-3.4333	-3.6937	-4.0917	-3.425	368.583	222.130	282.939	412.921	221.351	408.071	442.234	433.776	373.805	246.168	193.904	448.381	363.111	415.622	376.432	452.685	0.00032139	0.00027495	0.00010359	1062.8	2.4395e-06	4.0606e-06	1234.2	333.43	2.9902e-06	4.7556e-06	408.96	105.27	73.443	16.715	4.3992e-06	24.177	0.00079962	0.0011167	0.00031633	939.99	1.2016e-05	1.2907e-05	1086.2	294.96	1.1897e-05	1.2109e-05	362.73	93.104	65.698	15.134	1.1524e-05	21.844	284.401	234.347	225.771	155.591	329.786	275.745	153.600	160.464	297.426	279.709	158.069	163.047	164.877	171.369	298.483	167.163	-8191	255	
2219.855	1	1	0	0	0.15344	0.19184	0.20192	0.20956	0.076582	0.18515	0.30494	0.14819	0.094251	0.35693	0.084296	0.27962	0.19091	0.27902	0.079158	0.076238	-3.8063	-3.6979	-3.1312	-4.3271	-3.3083	-3.6333	-4.2229	-3.2833	-3.9792	-3.9354	-3.3146	-4.1854	-3.7313	-3.475	-4.0938	-3.1562	401.309	143.876	332.344	453.344	224.970	187.515	145.113	496.473	456.697	162.776	350.608	152.265	446.047	445.111	205.379	452.870	0.00025001	0.0003665	0.00010135	1069.3	2.7125e-06	3.684e-06	1235.7	334.12	6.5801e-06	2.0962e-06	410.78	106.36	73.726	16.759	6.2571e-06	24.27	0.00077478	0.0010809	0.00031582	939.79	1.1545e-05	1.1834e-05	1086.4	295.28	1.1407e-05	1.28e-05	364.06	93.91	65.812	15.179	1.2076e-05	22.045	287.013	203.637	266.869	156.055	272.372	275.153	153.711	160.850	318.610	248.186	158.300	162.984	165.073	171.223	318.462	167.500	-8191	255	
2219.952	1	1	0	0	0.16087	0.18645	0.24713	0.27015	0.23434	0.33114	0.3935	0.17786	0.19583	0.12262	0.37187	0.14027	0.14093	0.10274	0.0082874	0.065864	-3.5104	-3.7958	-3.1813	-4.025	-3.5146	-3.2917	-4.3458	-3.2854	-3.7729	-3.9979	-3.3	-3.95	-3.6667	-3.3688	-4.1146	-3.3937	376.109	371.735	317.694	446.425	150.118	430.366	488.437	406.189	151.378	243.292	475.140	411.668	408.382	393.087	445.975	261.507	0.00038144	0.00046956	0.00010158	1066.1	2.2611e-06	1.7577e-06	1242.3	333.28	9.8361e-06	3.6964e-06	411.03	107.31	74.571	16.776	3.2198e-06	24.817	0.00080277	0.0011003	0.00031248	939.55	1.1922e-05	1.2307e-05	1091.2	295.74	1.1445e-05	1.2393e-05	365.68	94.835	66.251	15.262	1.1731e-05	22.311	283.001	222.242	208.000	155.830	323.955	327.770	153.936	160.614	315.443	246.172	158.168	163.017	164.548	171.304	230.519	167.320	-8191	255	
2220.048	1	1	0	0	0.16839	0.29737	0.026349	0.038933	0.32948	0.18016	0.14955	0.3471	0.18534	0.043884	0.28929	0.076874	0.082956	0.17998	0.19687	0.35662	-3.2917	-3.8458	-3.2396	-4.0917	-3.9333	-3.2812	-4.2188	-3.5125	-3.5417	-4.1729	-3.3729	-4.0687	-3.7979	-3.3083	-4.1292	-3.3312	450.621	243.450	202.810	338.040	321.577	340.458	422.359	465.166	334.613	200.492	483.794	164.722	330.524	223.208	479.781	487.648	0.00034892	0.00023771	9.6902e-05	1071.5	3.0589e-06	3.6894e-06	1243.1	336.83	3.3769e-06	3.2594e-06	416.89	107.92	74.137	16.947	7.406e-06	24.923	0.0008212	0.0011079	0.00031399	944.56	1.16e-05	1.2118e-05	1094.2	297.32	1.1574e-05	1.2705e-05	368.11	95.373	66.468	15.322	1.1687e-05	22.325	277.539	226.072	232.391	155.697	293.299	237.822	154.023	160.937	340.176	271.589	158.336	163.064	165.143	172.285	306.984	167.546	-8191	255	
2220.144	1	1	0	0	0.1983	0.065499	0.16412	0.28969	0.26439	0.14551	0.18571	0.20153	0.067814	0.15452	0.23972	0.11825	0.0046618	0.065673	0.2374	0.043547	-3.3354	-4.1604	-3.2438	-4.025	-3.6479	-3.1604	-4.2812	-3.6458	-3.5021	-4.1396	-3.3521	-3.8458	-4.0792	-3.0729	-4.1958	-3.6604	295.763	156.017	281.534	470.291	400.483	384.631	481.727	452.094	484.625	501.316	166.881	459.950	266.616	299.574	155.940	463.910	0.00033399	0.0004911	0.00024873	1072.3	6.4634e-06	6.3948e-06	1244.1	336.13	1.5638e-06	1.0606e-06	411.58	105.63	74.18	16.901	5.7388e-06	24.443	0.00078732	0.0010947	0.00031158	944.52	1.1583e-05	1.2583e-05	1091.8	296.91	1.1432e-05	1.2427e-05	364.05	93.63	65.935	15.222	1.1752e-05	22.049	271.310	236.969	222.193	156.469	269.596	338.134	153.666	160.729	308.459	489.840	158.222	163.492	165.672	171.481	298.851	166.867	-8191	255	
2220.240	1	1	0	0	0.074172	0.083913	0.14861	0.043284	0.24058	0.10517	0.1796	0.17616	0.27496	0.2737	0.13374	0.28918	0.22313	0.32718	0.20451	0.119	-3.0333	-4.1188	-3.3917	-3.7625	-3.8354	-3.1917	-4.2083	-3.7521	-3.325	-3.9833	-3.5208	-3.6833	-4.0417	-3.175	-4.0271	-3.6833	497.088	361.026	160.466	146.994	449.698	339.913	444.591	183.296	489.602	345.241	344.533	477.572	244.808	432.481	433.557	501.138	0.00026637	0.00025982	8.4785e-05	1072.7	8.3006e-06	6.03e-06	1240	335.51	5.5303e-06	5.2814e-06	411.58	106.8	73.689	17.078	4.5519e-06	24.671	0.00079387	0.0011129	0.00030703	944.23	1.1433e-05	1.2462e-05	1092	296.48	1.1729e-05	1.2522e-05	365.29	94.545	66.051	15.399	1.1529e-05	22.304	295.027	283.368	228.942	156.105	272.163	334.274	153.735	160.819	303.795	295.774	158.693	163.118	165.377	171.419	245.312	167.547	-8191	255	
2220.361	1	1	0	0	0.19411	0.23311	0.21389	0.37774	0.061423	0.071662	0.32627	0.15175	0.098731	0.11584	0.33668	0.17706	0.068637	0.037896	0.12407	0.33937	-2.7979	-4.1271	-3.3083	-3.7438	-4.1917	-3.2021	-4.1438	-4.0208	-3.25	-3.9625	-3.6271	-3.4104	-4.0667	-3.2271	-3.775	-4.0646	306.115	163.631	171.614	491.855	447.662	194.761	413.425	450.843	290.045	229.206	373.275	414.114	345.869	348.574	167.356	426.820	0.00031395	0.00056391	0.0001451	1070.9	7.1882e-06	2.2664e-06	1247.9	337.28	3.0375e-06	7.512e-06	412.7	107.99	75.088	17.098	3.7158e-06	24.928	0.00082624	0.0010645	0.00030095	945.17	1.1941e-05	1.246e-05	1095.1	297.67	1.192e-05	1.2709e-05	366.88	95.421	66.873	15.419	1.1815e-05	22.528	287.487	218.262	264.556	156.311	286.692	319.423	154.148	160.920	367.370	282.771	158.499	163.593	165.444	171.805	316.101	167.677	-8191	255	
2220.457	1	1	0	0	0.21057	0.077608	0.30228	0.17727	0.026831	0.10346	0.19111	0.31939	0.13642	0.11443	0.2703	0.13224	0.14989	0.15324	0.2551	0.11274	-2.7917	-4.0729	-3.4958	-3.4521	-4.1208	-3.1312	-3.9354	-4.2167	-3.2938	-4.2063	-3.675	-3.5438	-4.1896	-3.2896	-3.7021	-4.2188	349.181	178.838	398.369	164.441	223.115	478.061	476.311	473.814	326.095	238.448	414.188	440.055	429.172	171.745	284.511	470.952	0.00035001	0.00067051	0.00019598	1075.5	9.3054e-06	4.9028e-06	1258.3	338.05	4.6542e-06	4.6855e-06	417.28	108.59	74.999	17.188	3.4147e-06	24.831	0.00079591	0.0010967	0.00031951	947.01	1.1508e-05	1.2377e-05	1103.3	299.42	1.1763e-05	1.2383e-05	369.08	95.67	66.753	15.411	1.2069e-05	22.31	287.823	241.265	250.050	156.029	281.608	326.159	154.197	161.273	299.082	318.049	158.427	162.986	165.756	172.354	314.786	167.583	-8191	255	
2220.553	1	1	0	0	0.12414	0.078953	0.23154	0.16172	0.38207	0.11363	0.08981	0.062832	0.16049	0.25884	0.071276	0.19173	0.19631	0.13794	0.12911	0.12882	-2.7667	-3.9771	-3.6021	-3.4521	-4.125	-3.4854	-3.7562	-4.0938	-3.1208	-3.9188	-3.7875	-3.2208	-4.0979	-3.4125	-3.55	-4.1667	230.773	389.704	248.683	174.809	217.115	240.754	399.998	355.940	455.310	382.093	380.909	168.545	250.672	325.698	247.063	487.031	0.0003652	0.00044049	0.0001492	1074.9	1.4301e-06	4.8726e-06	1245.4	337.59	2.7758e-06	5.117e-06	412.79	106.3	74.428	16.971	4.4351e-06	24.869	0.00081708	0.0010623	0.00031709	948.92	1.1723e-05	1.2393e-05	1092.8	298.31	1.1634e-05	1.2402e-05	365.02	93.936	66.349	15.316	1.1742e-05	22.266	281.553	243.163	165.497	156.386	246.495	322.873	154.366	161.101	337.241	275.233	158.652	163.658	165.601	171.472	301.268	166.966	-8191	255	
2220.649	1	1	0	0	0.10047	0.1772	0.044226	0.39499	0.10426	0.048208	0.27482	0.083988	0.084583	0.1037	0.17738	0.061917	0.22795	0.09701	0.2517	0.15345	-2.8271	-3.825	-3.7917	-3.3708	-4.125	-3.4583	-3.4958	-4.2188	-3.125	-3.8229	-4.025	-3.1208	-4.1687	-3.5042	-3.425	-4.1396	420.466	471.713	312.841	499.178	489.050	245.417	462.058	457.591	172.524	457.629	159.271	149.411	484.454	173.716	331.855	188.353	0.00032894	0.00091007	0.0002074	1074.8	4.3986e-06	2.7965e-06	1243.6	336.89	6.3918e-06	4.8897e-06	416.22	106.58	75.478	16.945	4.5098e-06	24.903	0.00080675	0.001129	0.00031369	946.72	1.1843e-05	1.2336e-05	1096.5	297.83	1.1671e-05	1.245e-05	367.15	94.863	66.872	15.337	1.1787e-05	22.395	288.369	250.208	194.081	155.844	267.323	290.075	153.856	160.463	299.735	326.777	157.950	162.784	164.903	171.293	201.462	166.860	-8191	255	
2220.745	1	1	0	0	0.18524	0.21527	0.20493	0.37974	0.19907	0.16964	0.31543	0.082664	0.28239	0.24677	0.1803	0.039694	0.17317	0.098288	0.1441	0.15463	-2.9583	-3.75	-3.875	-3.1896	-4.0646	-3.7229	-3.5271	-4.3396	-3.2667	-3.6333	-4.0771	-3.1771	-4.0396	-3.7687	-3.225	-3.9938	254.589	175.505	306.029	490.152	416.602	357.990	378.106	375.926	304.985	326.745	182.774	306.921	148.114	400.599	483.661	440.561	0.00036385	0.0005812	0.00010539	1074.8	1.0484e-06	6.0583e-06	1249.2	337.79	8.4571e-06	1.0828e-05	416.82	107.28	75.019	17.054	5.2397e-06	25.199	0.00082124	0.0011384	0.00030735	947.93	1.1895e-05	1.2486e-05	1099.5	299.41	1.1634e-05	1.2637e-05	369.23	95.581	67.025	15.477	1.1856e-05	22.693	289.599	274.361	266.279	155.290	429.325	320.886	154.015	160.595	356.994	304.796	158.056	162.620	165.234	171.222	331.977	166.969	-8191	255	
2220.841	1	1	0	0	0.21762	0.060751	0.17539	0.20178	0.15411	0.15034	0.199	0.17288	0.098347	0.20117	0.22354	0.18528	0.096432	0.16928	0.16885	0.22059	-2.8146	-3.6417	-4.0396	-3.25	-3.8875	-3.6917	-3.3146	-4.2521	-3.4958	-3.5458	-4.0604	-3.4271	-4.0354	-4.0042	-3.2188	-4.0646	363.088	344.981	320.048	414.184	254.731	231.664	408.732	433.184	465.513	414.094	166.049	154.863	198.410	194.878	477.413	496.140	0.00037077	0.00057151	0.00017201	1072.7	6.5262e-06	2.8723e-06	1257.7	339.8	3.1235e-06	1.1755e-06	419.39	107.66	75.393	17.016	5.5571e-06	24.658	0.00082879	0.0011239	0.00031997	949.36	1.1894e-05	1.2176e-05	1104.4	300.59	1.1701e-05	1.2486e-05	370.22	95.633	66.975	15.392	1.1978e-05	22.428	284.440	229.700	209.540	155.376	242.101	260.544	153.308	160.623	290.364	340.783	158.071	162.940	165.310	171.626	311.282	167.418	-8191	255	
2220.960	1	1	0	0	0.051415	0.24343	0.0086133	0.083699	0.04625	0.059783	0.19528	0.26159	0.28953	0.12692	0.13949	0.12355	0.14373	0.16495	0.11551	0.11341	-3.0708	-3.4625	-4.1479	-3.2938	-3.775	-4.0563	-3.2687	-4.0687	-3.3187	-3.4021	-4.2229	-3.4208	-3.8521	-3.9313	-3.1021	-3.9792	383.983	464.312	355.634	366.988	469.979	464.375	429.308	439.212	463.135	206.981	411.997	225.276	247.268	491.405	266.470	353.754	0.00037725	0.00019017	0.00014449	1064.2	4.1839e-06	4.5982e-06	1246.5	337.77	5.6347e-06	4.1085e-06	410.03	107.12	74.633	17.036	3.975e-06	24.649	0.0007756	0.0011234	0.00030873	945.71	1.1817e-05	1.2358e-05	1096.2	299.53	1.1366e-05	1.2705e-05	365.11	94.94	66.627	15.348	1.2127e-05	22.257	285.182	197.446	259.551	155.524	287.933	287.117	153.490	160.591	278.238	297.223	158.180	162.979	165.441	172.067	359.674	166.982	-8191	255	
2221.056	1	1	0	0	0.14757	0.1715	0.1042	0.042382	0.11767	0.20058	0.2638	0.1651	0.034348	0.16626	0.10683	0.10634	0.17423	0.20501	0.2296	0.13921	-3.1771	-3.2438	-4.0604	-3.4625	-3.6604	-3.9833	-3.3333	-4.0771	-3.6854	-3.2896	-4.2833	-3.5042	-3.6167	-4.2021	-3.2729	-3.9208	217.085	407.540	490.454	255.697	387.887	459.622	446.460	455.018	173.766	167.658	496.475	264.570	496.712	270.242	216.896	468.391	0.00033487	0.00040296	0.00014841	1066	7.0124e-06	3.268e-07	1242.3	337.1	6.4437e-06	6.4448e-06	414.55	107.39	74.601	17.101	5.0087e-06	24.52	0.00081487	0.0011301	0.00033414	943.93	1.2032e-05	1.2423e-05	1096.1	299.14	1.1695e-05	1.2704e-05	367.98	95.034	67.036	15.47	1.2267e-05	22.391	279.807	219.994	244.081	155.480	305.959	277.131	153.660	160.718	307.685	279.345	158.310	162.693	165.563	171.359	320.043	167.538	-8191	255	
2221.153	1	1	0	0	0.050434	0.20112	0.098891	0.14076	0.25879	0.015008	0.083365	0.22995	0.12728	0.095083	0.12877	0.23588	0.15942	0.22068	0.1456	0.088036	-3.3833	-3.2146	-3.9854	-3.4583	-3.4792	-4.1188	-3.3208	-3.9229	-3.8396	-3.2583	-4.1125	-3.4021	-3.4875	-4.0729	-3.3354	-3.7896	429.138	347.222	499.997	230.894	395.994	328.544	392.083	478.982	274.364	446.086	384.253	408.259	217.751	212.927	211.875	166.214	0.00034529	0.00019497	5.5975e-05	1079.5	5.3755e-06	2.9381e-06	1246.9	340.3	6.7145e-06	8.4324e-06	418.13	108.48	75.851	17.194	6.6335e-06	24.971	0.00080622	0.001157	0.0003175	950.48	1.2017e-05	1.3375e-05	1096.9	300.7	1.1648e-05	1.3126e-05	369.69	95.957	67.326	15.567	1.1878e-05	22.685	291.729	166.289	227.534	155.752	338.849	275.082	153.963	160.764	262.434	277.427	158.360	162.808	165.584	171.982	338.008	167.031	-8191	255	
2221.249	1	1	0	0	0.15622	0.09114	0.27434	0.31445	0.063729	0.095606	0.097724	0.41032	0.073586	0.087454	0.23435	0.20801	0.10758	0.057856	0.11858	0.12914	-3.6188	-3.2458	-4.1	-3.7292	-3.4938	-4.0687	-3.4167	-3.6729	-3.8979	-3.1771	-4.0604	-3.5563	-3.2708	-4.1021	-3.2354	-3.5792	371.011	373.624	438.603	499.258	417.936	276.448	477.953	484.721	338.168	430.146	454.108	436.703	169.196	148.086	345.059	311.811	0.00035721	0.0003243	0.00015113	1075.9	7.6765e-06	4.1542e-06	1256.8	339.39	5.9879e-06	8.8007e-06	420.03	108.41	75.164	17.145	7.3066e-06	24.902	0.00083455	0.0011559	0.00031277	949.55	1.2428e-05	1.2892e-05	1103.5	300.72	1.1858e-05	1.2475e-05	370.73	95.706	67.137	15.509	1.2012e-05	22.51	286.309	216.033	247.180	155.662	318.187	347.143	153.361	160.655	258.835	240.215	158.190	163.148	165.320	171.637	304.667	166.956	-8191	255	
2221.345	1	1	0	0	0.2218	0.16813	0.12524	0.30352	0.15603	0.13429	0.32852	0.19157	0.058273	0.21853	0.14598	0.099192	0.12021	0.16468	0.07496	0.048271	-3.55	-3.2062	-3.8625	-3.9292	-3.0938	-3.9313	-3.4854	-3.6125	-4.0604	-3.0479	-3.9146	-3.7729	-3.2021	-4.1104	-3.2292	-3.3271	356.434	484.046	152.539	201.446	432.334	264.403	429.140	493.853	168.251	472.668	486.792	487.835	296.775	254.940	296.067	181.776	0.00038851	0.00028218	9.4279e-05	1074.7	2.4175e-06	5.804e-06	1248.5	339.47	2.8911e-06	6.2428e-06	415.76	106.68	75.068	17.001	4.5353e-06	24.813	0.00080044	0.0011311	0.00032436	947.57	1.2059e-05	1.2561e-05	1098.8	300.11	1.1606e-05	1.2687e-05	368.19	94.885	66.81	15.422	1.1889e-05	22.487	282.995	184.751	234.000	155.715	350.374	361.922	153.671	160.751	339.519	267.302	158.343	162.274	165.004	171.409	340.500	166.669	-8191	255	
2221.441	1	1	0	0	0.26737	0.17366	0.14509	0.059815	0.095178	0.23503	0.35425	0.18058	0.050336	0.13519	0.16709	0.35343	0.1781	0.07179	0.14832	0.13097	-3.9188	-3.3563	-3.8646	-3.8896	-3.0625	-4.1542	-3.7292	-3.7229	-4.1354	-3.4062	-3.8521	-4.2146	-3.2458	-3.9938	-3.5104	-3.3021	144.724	147.126	301.152	391.483	247.052	299.586	475.188	436.015	232.455	358.301	406.559	367.496	447.657	170.638	357.075	330.779	0.00029834	0.00068037	0.00012929	1073.6	3.1538e-06	9.0323e-06	1249.6	340.05	4.308e-06	3.1854e-06	417.79	107.53	74.498	17.216	3.5191e-06	25.01	0.00080042	0.0011256	0.00030948	948.52	1.1709e-05	1.2366e-05	1098.5	300.93	1.1268e-05	1.2083e-05	370.35	95.66	67.12	15.592	1.2089e-05	22.648	277.053	249.169	279.477	155.251	231.709	299.301	153.312	160.568	315.086	277.422	158.069	162.522	164.828	172.010	303.138	166.684	-8191	255	
2221.537	1	1	0	0	0.085613	0.33222	0.1212	0.25957	0.22243	0.13803	0.40492	0.22069	0.19335	0.22807	0.099849	0.20606	0.21661	0.20301	0.058723	0.31893	-3.8688	-3.4271	-3.6437	-4.1208	-3.2208	-4.0437	-3.9333	-3.2771	-4.1542	-3.2708	-3.6396	-4.0813	-3.1896	-3.8937	-3.6646	-3.3833	311.699	460.578	224.179	442.568	494.074	174.502	453.205	479.131	377.630	158.329	404.260	382.013	198.282	406.980	283.225	195.198	0.00038855	0.00059145	9.4295e-05	1076.3	4.7391e-06	8.306e-06	1259.2	339.21	9.3368e-06	7.8561e-06	420.73	108.08	75.261	17.292	9.7455e-06	25.173	0.00082585	0.0010984	0.0003046	950.94	1.159e-05	1.2294e-05	1106.5	300.94	1.0895e-05	1.2613e-05	372.59	96.161	67.301	15.626	1.1633e-05	22.791	284.616	204.731	156.485	155.648	245.370	258.564	153.805	161.011	297.330	266.194	158.208	162.687	165.090	171.750	302.067	166.598	-8191	255	
2221.658	1	1	0	0	0.11441	0.072381	0.11137	0.032888	0.27609	0.18416	0.15729	0.12952	0.16136	0.11813	0.11087	0.092848	0.40183	0.064226	0.16628	0.18823	-3.5917	-3.1813	-3.3812	-4.0792	-3.3875	-3.7854	-4.0104	-3.2458	-4.2271	-3.4	-3.5563	-4.1146	-3.1104	-3.7604	-3.8937	-3.2146	365.689	455.253	260.250	210.926	323.014	200.631	403.906	396.413	278.097	440.567	395.508	164.854	451.285	332.241	167.487	177.203	0.00040149	0.00048327	7.4631e-05	1072.5	4.8278e-06	3.7649e-06	1257.8	341.28	6.5991e-06	5.7628e-06	419.39	108.63	76.465	17.067	3.503e-06	24.977	0.00080599	0.0010843	0.00032243	953.57	1.1638e-05	1.1994e-05	1106.7	302.09	1.1375e-05	1.1898e-05	372.33	96.33	67.601	15.515	1.1889e-05	22.598	286.540	224.890	198.421	155.543	298.096	309.380	153.564	160.633	298.630	344.073	158.322	162.623	165.065	171.824	324.962	166.866	-8191	255	
2221.752	1	1	0	0	0.19367	0.079513	0.17429	0.15334	0.13356	0.066984	0.20714	0.12017	0.10944	0.15611	0.15777	0.17718	0.27626	0.26032	0.041406	0.058567	-3.7125	-3.5875	-3.5563	-4.1792	-3.2562	-3.8896	-4.1562	-3.3646	-4.0021	-3.6625	-3.3312	-4.1042	-3.3208	-3.6375	-3.9104	-3.2167	370.136	160.346	348.411	179.070	478.174	306.373	462.464	460.711	329.688	251.287	398.635	159.551	376.865	168.244	466.482	251.816	0.00040499	0.00043574	0.00013317	1080.5	6.8639e-06	6.2043e-06	1262.8	339.47	5.3938e-06	9.3798e-06	418.12	108.37	75.565	17.264	6.5938e-06	25.116	0.00079981	0.0011252	0.00031563	953.76	1.1579e-05	1.2398e-05	1106.3	300.54	1.1354e-05	1.2599e-05	370.53	95.727	67.399	15.584	1.1493e-05	22.537	283.344	234.599	245.279	155.592	306.786	257.384	153.722	160.757	302.023	276.502	158.160	162.480	165.178	171.850	308.885	166.775	-8191	255	
2221.826	1	1	0	0	0.098536	0.040163	0.095243	0.19428	0.2489	0.11247	0.16023	0.32023	0.024293	0.22187	0.22808	0.2488	0.22885	0.31081	0.05715	0.21663	-3.5854	-3.7271	-3.2479	-4.3333	-3.3771	-3.4875	-4.3354	-3.3292	-4.2104	-3.7917	-3.3271	-4.1833	-3.5625	-3.5354	-4.1312	-3.3208	219.678	229.470	478.037	455.491	481.476	388.033	473.409	370.591	371.050	489.254	483.624	463.196	173.601	429.144	459.850	380.293	0.00030837	0.00043566	0.00011921	1082.4	3.1591e-06	5.7488e-06	1261.4	338.07	3.3787e-06	3.4889e-06	420.34	108.62	76.327	17.212	5.1275e-06	25.549	0.0008084	0.0010855	0.0003178	953.81	1.1788e-05	1.2583e-05	1106.7	300.65	1.1558e-05	1.2459e-05	371.5	96.09	67.794	15.673	1.1699e-05	22.85	294.063	223.688	251.313	155.576	264.012	276.070	154.021	160.704	300.029	274.120	158.251	162.700	165.247	171.905	312.906	167.020	-8191	255	
2221.922	1	1	0	0	0.17799	0.097345	0.019661	0.056741	0.17563	0.044482	0.1652	0.20278	0.17068	0.20989	0.059307	0.14597	0.13304	0.27926	0.28865	0.25092	-3.5896	-3.8104	-3.1292	-4.0458	-3.3542	-3.4208	-4.3354	-3.2625	-3.8583	-3.8604	-3.3917	-4.2167	-3.4229	-3.5375	-4.175	-3.3063	355.110	167.127	202.380	340.088	489.329	454.119	428.874	464.764	310.199	460.348	478.339	350.190	257.468	413.764	358.176	384.402	0.00030685	0.00038963	0.00016137	1083.7	6.4102e-06	3.1807e-06	1264.2	340.23	4.1897e-06	9.6617e-06	420.92	109.64	76.508	17.495	3.2169e-06	25.658	0.00080309	0.0011157	0.0003035	954.88	1.1805e-05	1.2615e-05	1109.9	302.6	1.1499e-05	1.2555e-05	373.16	97.317	68.06	15.839	1.1594e-05	23.038	288.969	233.858	251.869	155.786	281.689	327.888	153.932	160.600	283.706	290.492	158.127	163.534	165.369	171.620	365.020	166.780	-8191	255	
2222.041	1	1	0	0	0.1297	0.022846	0.28873	0.069423	0.17535	0.19109	0.22595	0.23052	0.28775	0.097673	0.43443	0.060751	0.15853	0.13184	0.22794	0.086814	-3.4104	-4.0292	-3.0979	-4.1062	-3.5979	-3.2896	-4.3792	-3.4375	-3.7417	-4.0604	-3.1792	-4.0354	-3.7062	-3.325	-4.1979	-3.3958	389.300	478.728	431.634	353.485	273.513	185.242	455.304	467.979	261.107	393.888	439.173	389.825	410.350	500.204	310.405	148.125	0.00033195	0.00052394	0.00016052	1083.2	2.4662e-06	1.7884e-06	1268.1	342.09	5.4695e-06	4.1983e-06	420.19	110.11	76.357	17.316	2.4946e-06	25.418	0.00081489	0.0010904	0.00031319	957.27	1.1567e-05	1.2487e-05	1116.4	302.91	1.1285e-05	1.2529e-05	374.11	97.045	67.956	15.709	1.1418e-05	22.845	285.366	204.568	227.268	156.022	287.754	256.782	153.585	160.738	300.694	263.710	158.197	163.171	165.335	171.511	315.628	166.967	-8191	255	
2222.137	1	1	0	0	0.084405	0.21527	0.1899	0.12953	0.13406	0.10375	0.092087	0.20937	0.23924	0.15424	0.1333	0.094949	0.22555	0.17647	0.10661	0.065297	-3.1188	-4.0437	-3.2062	-4.0292	-3.8083	-3.1208	-4.2292	-3.5312	-3.5979	-3.8979	-3.4354	-3.8229	-3.975	-3.1021	-4.0437	-3.4354	381.472	284.355	476.926	231.429	401.635	425.222	429.035	428.935	245.581	146.360	178.696	408.425	460.361	445.774	445.886	488.453	0.00034507	0.00045156	0.00015027	1078.9	4.5223e-06	2.9121e-06	1258	340.54	2.3986e-06	2.2095e-06	422.3	108.36	75.815	17.392	6.3984e-06	25.483	0.00079338	0.0011052	0.00030616	955.25	1.1715e-05	1.2323e-05	1107.3	301.86	1.1799e-05	1.2611e-05	373.3	96.36	67.485	15.675	1.1253e-05	22.916	286.201	233.699	171.464	155.733	280.032	297.374	153.775	161.036	256.332	352.411	158.258	163.165	165.407	171.893	328.858	167.330	-8191	255	
2222.233	1	1	0	0	0.26541	0.14844	0.19346	0.067031	0.12697	0.28467	0.12284	0.11982	0.20796	0.020759	0.26453	0.079811	0.11142	0.065763	0.14472	0.21258	-2.8563	-4.0521	-3.0917	-3.8854	-3.9	-3.3583	-4.2812	-3.6917	-3.3875	-4.1687	-3.1771	-3.6667	-3.9833	-3.2938	-3.9229	-3.85	311.659	428.641	192.039	489.394	233.625	241.062	403.010	368.065	355.139	486.665	143.067	435.469	302.766	321.974	291.377	324.766	0.0003338	0.00052618	0.00011068	1085.9	5.4137e-06	6.2519e-06	1259.9	341.61	5.8023e-06	3.5598e-06	422.98	110.4	76.651	17.425	4.3795e-06	25.18	0.00080503	0.0011001	0.00031094	958.44	1.1907e-05	1.2413e-05	1109	302.75	1.1459e-05	1.1984e-05	373.47	97.168	67.97	15.774	1.1974e-05	22.893	282.258	282.286	310.670	156.467	271.280	275.845	154.170	160.916	347.225	406.343	158.352	163.585	165.433	171.404	288.991	167.598	-8191	255	
2222.329	1	1	0	0	0.18164	0.029343	0.065599	0.32588	0.19942	0.18195	0.26111	0.12879	0.23778	0.10571	0.40655	0.2526	0.18095	0.084285	0.084583	0.24283	-2.9458	-4.1083	-3.2771	-3.4979	-4.025	-3.1937	-4.0458	-3.9708	-3.2979	-4.1625	-3.5708	-3.4854	-4.1646	-3.1333	-3.9562	-3.8042	309.383	196.247	209.534	467.510	299.566	170.839	443.530	427.186	391.709	248.934	387.341	388.045	390.301	287.881	443.814	458.318	0.00033806	0.00045392	0.00019291	1091.3	2.8026e-06	3.6467e-06	1271.8	343.76	2.337e-06	4.2895e-06	425.39	110.83	76.696	17.561	7.3335e-06	25.892	0.00080836	0.0011019	0.00030477	961.94	1.1935e-05	1.2012e-05	1117.9	303.79	1.1405e-05	1.1967e-05	376.16	97.66	68.258	15.87	1.1498e-05	23.194	285.525	215.131	232.414	156.376	197.808	314.407	154.369	160.878	287.520	315.066	158.577	163.436	165.551	172.306	307.705	167.592	-8191	255	
2222.450	1	1	0	0	0.24569	0.33796	0.12647	0.14557	0.10812	0.29481	0.041111	0.41382	0.1359	0.12775	0.244	0.18632	0.1825	0.04081	0.32608	0.21041	-2.7375	-3.9062	-3.4083	-3.5021	-3.9979	-3.2729	-3.8729	-4.0417	-3.2146	-4.0104	-3.6354	-3.5979	-4.1875	-3.3604	-3.6437	-3.9646	183.672	472.758	244.734	191.006	334.865	171.084	149.693	419.421	343.471	335.656	437.063	207.190	230.087	257.769	378.326	180.210	0.00036226	0.00046814	0.00010611	1082.8	5.2953e-06	4.5883e-06	1272.1	345.54	3.7885e-06	5.8863e-06	424.01	109.8	75.645	17.394	9.0542e-06	25.379	0.00079934	0.0010893	0.00031268	958.47	1.1418e-05	1.1904e-05	1119.6	303.47	1.1201e-05	1.206e-05	375.86	97.267	67.709	15.78	1.157e-05	22.841	289.445	195.919	227.119	156.020	280.689	283.738	153.998	160.863	254.405	275.772	158.753	163.270	165.412	172.188	341.355	167.579	-8191	255	
2222.521	1	1	0	0	0.24801	0.25541	0.04837	0.23709	0.11482	0.16615	0.26012	0.20126	0.51071	0.0637	0.19826	0.16063	0.09114	0.14855	0.20852	0.11503	-2.8333	-3.9062	-3.6083	-3.425	-4.2375	-3.1583	-3.9062	-3.9917	-3.15	-3.9688	-3.8146	-3.45	-4.1792	-3.5687	-3.5729	-4.0729	189.589	442.807	221.448	165.332	359.968	348.123	460.326	441.420	494.118	293.481	479.736	435.994	308.860	379.318	411.512	173.610	0.00033525	0.00050757	2.5942e-05	1080.8	8.2922e-06	4.9812e-06	1260.6	344.19	7.0737e-06	4.5733e-06	423.16	110.23	76.21	17.185	6.6765e-06	25.48	0.00079195	0.0010844	0.00031058	954.52	1.127e-05	1.2105e-05	1111.4	303.22	1.1329e-05	1.251e-05	373.44	97.302	67.817	15.627	1.1569e-05	22.921	287.981	234.428	166.178	156.525	337.743	271.894	154.158	160.907	317.701	300.398	158.602	163.573	165.632	172.210	303.773	167.419	-8191	255	
2222.642	1	1	0	0	0.18789	0.18845	0.10378	0.12067	0.27056	0.15994	0.26659	0.1274	0.077742	0.25405	0.23295	0.22735	0.16992	0.22735	0.058707	0.13392	-2.7458	-3.8	-3.8792	-3.3417	-4.1604	-3.5271	-3.7917	-4.2292	-3.2583	-3.7771	-3.9542	-3.3167	-4.0125	-3.5229	-3.4333	-4.1979	446.669	308.584	200.824	435.856	207.258	151.984	468.192	150.164	245.110	387.255	449.391	492.603	151.107	169.324	273.660	153.805	0.0003219	0.00076485	9.6616e-05	1086.3	1.3874e-06	5.448e-06	1260.9	343.46	5.8768e-06	6.2008e-06	420.35	109.49	75.912	17.493	6.509e-06	25.94	0.00079799	0.001096	0.00030998	955.86	1.118e-05	1.1791e-05	1111.3	303.66	1.1152e-05	1.1863e-05	373.8	97.175	67.951	15.767	1.1804e-05	23.227	290.917	222.098	256.658	156.198	225.897	245.056	154.189	161.251	325.932	322.223	158.545	163.632	165.415	172.101	319.408	167.468	-8191	255	
2222.738	1	1	0	0	0.15657	0.1862	0.16528	0.085542	0.19503	0.072688	0.090632	0.37763	0.056038	0.16383	0.1557	0.21943	0.28319	0.33515	0.19742	0.2064	-2.9313	-3.7271	-4.0167	-3.3	-3.9271	-3.4979	-3.3521	-4.3354	-3.2542	-3.7729	-4.0646	-3.1354	-4.025	-3.6562	-3.3083	-4.2208	379.571	328.047	464.433	221.413	299.951	387.971	413.374	154.666	365.262	339.569	236.426	502.645	189.511	484.328	325.557	408.304	0.00038658	0.00021263	0.00011108	1089.6	7.454e-06	5.7871e-06	1265.5	344.02	6.3999e-06	4.5967e-06	427.42	110.63	75.808	17.561	6.1432e-06	25.735	0.0008164	0.0010841	0.00031122	958.02	1.1484e-05	1.2392e-05	1115	304.48	1.161e-05	1.2168e-05	377.63	97.741	68.143	15.826	1.1976e-05	23.292	293.776	155.598	256.884	156.371	305.722	272.871	154.405	161.477	285.548	284.863	158.959	163.713	166.273	171.762	304.880	168.278	-8191	255	
2222.833	1	1	0	0	0.17444	0.24477	0.11298	0.39822	0.27266	0.069115	0.09721	0.14308	0.11538	0.18535	0.14116	0.40557	0.19914	0.28696	0.329	0.13205	-2.9854	-3.6562	-4.025	-3.2375	-3.9396	-3.7479	-3.4562	-4.2479	-3.4042	-3.5771	-4.2812	-3.2021	-4	-3.9062	-3.2062	-4.2521	426.641	234.163	262.260	468.053	296.886	346.715	450.761	454.446	210.714	488.001	389.940	449.276	502.402	405.147	297.846	440.249	0.00037566	0.00064364	0.00017917	1091.2	3.1984e-06	1.8084e-06	1268.1	344.32	4.8907e-06	7.3583e-06	424.74	109.66	76.612	17.57	2.877e-06	25.565	0.00080046	0.0011005	0.00030214	959.35	1.1698e-05	1.2504e-05	1117.2	304.11	1.1637e-05	1.2265e-05	375.91	96.807	68.121	15.777	1.1638e-05	22.965	289.305	207.291	195.724	156.143	293.235	303.427	154.708	161.361	328.072	247.119	158.599	163.392	166.132	172.191	300.361	168.290	-8191	255	
2222.930	1	1	0	0	0.1002	0.090605	0.18775	0.15051	0.15119	0.27432	0.25747	0.31072	0.17075	0.090262	0.15531	0.24749	0.072382	0.046328	0.070385	0.06543	-3.2375	-3.425	-4.1833	-3.375	-3.9021	-3.9542	-3.4021	-4.2396	-3.6188	-3.3229	-4.2875	-3.3417	-3.725	-4.1167	-3.2354	-4.3	430.136	179.958	145.672	348.630	235.388	159.923	435.071	408.081	281.978	391.821	485.495	151.486	391.796	331.435	286.913	329.513	0.00035956	0.00042548	0.00016273	1087.2	6.7635e-06	5.1223e-06	1265	342.24	5.1198e-06	2.958e-06	424.14	109.55	75.571	17.422	6.6165e-06	25.778	0.0007867	0.0011077	0.00029721	957	1.1567e-05	1.1542e-05	1114	303.03	1.1247e-05	1.235e-05	374.59	96.988	67.955	15.765	1.102e-05	23.061	294.644	266.209	243.219	156.308	290.275	291.800	154.516	161.688	353.878	318.905	159.149	163.566	166.139	172.185	274.469	167.749	-8191	255	
2223.049	1	1	0	0	0.13535	0.098105	0.13615	0.27122	0.19438	0.047805	0.066315	0.28314	0.074791	0.17582	0.24965	0.068731	0.19418	0.12211	0.2423	0.23441	-3.3854	-3.2375	-4.05	-3.2417	-3.7979	-4.1104	-3.3	-4.2396	-3.5333	-3.3125	-4.2438	-3.3417	-3.5583	-4.0042	-3.1917	-3.975	177.718	178.436	294.175	440.127	327.095	475.869	153.952	456.916	426.051	162.171	387.942	500.385	498.569	413.660	379.705	212.729	0.00039435	0.00043558	0.00016844	1087.3	6.0565e-06	4.1117e-06	1267.5	344.03	3.7776e-06	7.327e-06	424.79	110.57	76.943	17.404	7.1001e-06	25.771	0.00078199	0.0010869	0.00029961	958.18	1.1431e-05	1.1431e-05	1114.3	303.82	1.1311e-05	1.2055e-05	376.12	97.759	68.473	15.81	1.167e-05	23.227	285.747	233.177	276.486	156.231	290.528	288.702	154.395	161.680	291.862	307.796	159.251	163.294	165.148	172.132	314.164	167.902	-8191	255	
2223.121	1	1	0	0	0.081575	0.088857	0.18219	0.11611	0.16964	0.26018	0.33107	0.2478	0.033009	0.14016	0.24337	0.25293	0.18316	0.1406	0.2335	0.05432	-3.5833	-3.2542	-4.1062	-3.2896	-3.6125	-3.9979	-3.5458	-3.9354	-3.6292	-3.2687	-4.1521	-3.6042	-3.3792	-4.175	-3.2146	-3.9896	301.642	498.507	227.507	496.186	365.060	487.940	449.015	430.804	439.481	459.026	430.941	442.884	318.418	461.535	323.415	454.772	0.0003489	0.00057995	0.00014919	1088.1	5.4449e-07	3.383e-06	1275.9	347.81	6.2556e-06	5.5517e-06	430.63	112.54	77.339	17.559	2.7885e-06	26.105	0.0007765	0.0011272	0.00030192	958.1	1.1433e-05	1.1942e-05	1120.2	305.84	1.1297e-05	1.2124e-05	379.82	98.918	68.584	15.856	1.1065e-05	23.432	280.476	259.684	211.181	156.591	502.709	284.911	154.305	161.570	310.018	241.374	159.031	163.520	165.654	172.463	290.643	168.313	-8191	255	
2223.217	1	1	0	0	0.10816	0.13653	0.23139	0.19743	0.021902	0.11267	0.2691	0.12713	0.26074	0.059656	0.1914	0.19953	0.13237	0.1486	0.13132	0.20424	-3.725	-3.0667	-4.1833	-3.7438	-3.3542	-4.2375	-3.4083	-3.9521	-3.9667	-3.2042	-4.1438	-3.7417	-3.6542	-4.1375	-3.2396	-3.6792	501.555	302.171	444.189	454.359	179.590	487.408	459.861	470.521	196.424	428.826	498.548	214.220	188.788	289.739	451.404	428.168	0.0003399	0.00067525	0.00010892	1092.6	3.1857e-06	7.9632e-06	1280.4	348.62	5.2736e-06	1.5154e-06	425.09	109.65	76.61	17.415	4.9142e-06	25.96	0.00076405	0.0010803	0.00029535	961.64	1.1376e-05	1.1901e-05	1122.2	306.46	1.1154e-05	1.2181e-05	377.43	97.165	68.146	15.754	1.0988e-05	23.188	292.676	201.801	256.534	156.460	294.029	321.679	154.468	161.271	297.704	358.710	158.991	163.874	165.957	172.158	322.963	168.031	-8191	255	
2223.338	1	1	0	0	0.32195	0.14989	0.17509	0.40878	0.088761	0.12043	0.22571	0.11314	0.043954	0.12822	0.18913	0.12383	0.048248	0.17568	0.025004	0.13811	-3.6458	-3.2333	-4.0208	-3.8042	-3.4313	-4.2354	-3.4938	-3.6813	-3.9333	-3.1896	-4.1062	-3.8	-3.2271	-4.0208	-3.2667	-3.5583	371.742	183.981	491.295	431.333	358.412	451.064	449.646	453.993	427.258	495.108	484.418	489.057	413.129	420.030	297.040	361.462	0.00035973	0.00045336	4.8106e-05	1084.4	3.0159e-07	5.2845e-06	1274	344.05	5.2505e-06	1.0332e-05	427.03	110.57	76.507	17.574	4.9119e-06	25.797	0.0007649	0.001032	0.00029319	958.94	1.1171e-05	1.0935e-05	1115.7	304.46	1.0554e-05	1.1775e-05	377.39	97.689	68.263	15.804	1.1186e-05	23.145	282.729	287.648	182.548	156.830	175.185	309.094	154.524	161.616	324.150	313.758	159.413	163.541	165.765	172.456	349.514	168.095	-8191	255	
2223.434	1	1	0	0	0.18088	0.077066	0.094736	0.17795	0.18679	0.062352	0.23101	0.23678	0.24409	0.017755	0.29771	0.057877	0.14219	0.066493	0.13206	0.06967	-3.8229	-3.1542	-3.9396	-3.9271	-3.1958	-4.1667	-3.6063	-3.5104	-4.1083	-3.2271	-3.8229	-3.8917	-3.15	-4.1375	-3.4521	-3.3375	437.406	285.634	406.871	489.438	475.842	502.118	366.107	165.303	393.363	291.302	427.029	306.948	434.946	418.128	395.117	471.696	0.00034901	0.00052727	0.00011404	1089.7	5.7447e-06	5.7534e-06	1273	345.61	7.3575e-06	1.1721e-06	429.58	111.99	76.246	17.708	7.2431e-06	26.205	0.00077237	0.0011016	0.00029453	960.98	1.1591e-05	1.1134e-05	1119.4	305.73	1.0266e-05	1.1775e-05	379.65	98.492	68.283	15.892	1.1065e-05	23.46	289.778	273.708	180.934	156.630	319.628	319.703	154.587	161.594	315.663	299.973	159.061	163.949	165.712	172.544	303.241	167.118	-8191	255	
2223.530	1	1	0	0	0.10338	0.44191	0.3544	0.29568	0.15419	0.10004	0.4047	0.058167	0.22785	0.071414	0.067785	0.2306	0.28131	0.21807	0.18384	0.063101	-3.8187	-3.15	-3.7021	-4.075	-3.2167	-4.0375	-3.7729	-3.4875	-4.1292	-3.3271	-3.8521	-3.9792	-3.1083	-4.0229	-3.6125	-3.3333	437.739	272.861	193.550	446.683	428.621	175.301	385.798	456.517	416.471	264.732	460.942	450.667	161.473	349.743	418.621	335.208	0.00037771	0.00044085	0.00024357	1093.3	2.2298e-06	5.8984e-07	1280.5	346.81	5.3709e-06	9.5134e-06	434.19	112	77.254	17.821	7.5237e-06	26.455	0.00074241	0.001043	0.0002971	963.4	1.0809e-05	1.1472e-05	1125.1	307.06	1.0848e-05	1.1387e-05	382.72	98.852	68.732	16.03	1.1075e-05	23.619	290.628	238.739	237.170	156.035	329.885	282.936	154.178	161.295	330.679	253.463	159.064	163.763	165.228	172.071	315.542	167.866	-8191	255	
2223.626	1	1	0	0	0.17184	0.067299	0.29939	0.21461	0.087173	0.11104	0.33978	0.26633	0.11501	0.18722	0.17279	0.19195	0.12772	0.15346	0.047787	0.057364	-3.8167	-3.2667	-3.5708	-4.0542	-3.1896	-3.9979	-3.9271	-3.3812	-4.0042	-3.4875	-3.6208	-4.2833	-3.2042	-3.7438	-3.7646	-3.1833	323.319	275.270	225.193	444.806	274.329	355.995	438.574	482.933	469.951	429.250	452.192	173.109	483.018	192.304	182.645	437.266	0.00039333	0.00041787	0.00022142	1097.7	8.6814e-06	3.2921e-06	1291	346.58	6.6257e-06	1.0131e-05	430.9	112	77.493	17.673	6.4023e-06	25.978	0.00075755	0.0010169	0.0002872	962.83	1.0829e-05	1.1269e-05	1128.1	306.48	1.0423e-05	1.1263e-05	381.39	98.923	68.544	15.886	1.0653e-05	23.349	284.464	247.261	238.727	156.253	306.135	296.039	154.230	161.459	304.561	321.814	159.155	163.940	166.024	172.197	275.084	167.617	-8191	255	
2223.745	1	1	0	0	0.20405	0.087109	0.11721	0.25841	0.15226	0.13045	0.013295	0.22884	0.052734	0.14066	0.29626	0.17773	0.32896	0.22334	0.14632	0.181	-3.8167	-3.4979	-3.3021	-4.2917	-3.3167	-3.9521	-4.1125	-3.3208	-3.9875	-3.6167	-3.3833	-4.3083	-3.4083	-3.8396	-3.9646	-3.2042	202.930	315.240	450.042	466.905	239.873	479.556	421.258	479.475	484.158	413.995	403.021	404.478	491.291	495.996	180.118	415.012	0.00038564	0.00018997	0.00010854	1094.8	7.713e-06	5.3869e-06	1276.4	347.75	3.07e-06	4.5707e-06	431.4	111.13	77.345	17.781	9.1874e-06	26.14	0.00074541	0.0010227	0.00028182	964.66	1.0853e-05	1.1302e-05	1123.9	306.49	1.0503e-05	1.1412e-05	380.75	98.156	68.447	15.981	1.0782e-05	23.496	280.748	204.848	236.768	156.362	293.233	300.841	154.119	161.250	279.598	248.521	158.820	163.437	165.379	172.423	270.481	167.884	-8191	255	
2223.817	1	1	0	0	0.14546	0.22719	0.28742	0.12458	0.23981	0.19976	0.12761	0.080878	0.14144	0.17071	0.19948	0.18313	0.072571	0.15685	0.060762	0.15104	-3.7687	-3.5708	-3.1958	-4.3521	-3.3688	-3.6479	-4.2167	-3.2521	-3.9542	-3.8292	-3.2708	-4.2521	-3.3646	-3.7375	-3.9875	-3.3896	374.729	411.091	367.892	493.572	479.644	286.234	450.344	179.355	241.776	487.937	475.523	486.608	149.695	173.721	189.936	431.082	0.0003855	0.0004762	0.00010092	1090.4	3.4738e-07	9.7816e-07	1278.3	347.81	7.6087e-06	3.7523e-06	428.93	112.39	76.744	17.75	6.9448e-06	26.26	0.00076425	0.0010109	0.00028873	962.72	1.0751e-05	1.1172e-05	1125.1	306.48	1.0747e-05	1.0964e-05	380.75	99.284	68.272	15.985	1.0345e-05	23.587	287.526	220.452	256.496	156.225	379.109	449.836	154.309	161.416	338.704	257.385	158.789	163.379	165.744	172.068	274.604	168.007	-8191	255	
2223.913	1	1	0	0	0.23077	0.06482	0.12923	0.20351	0.077708	0.085963	0.14911	0.23686	0.087219	0.049867	0.24343	0.069972	0.12336	0.11929	0.25475	0.14805	-3.5375	-3.6813	-3.1854	-4.2292	-3.5125	-3.3854	-4.2042	-3.3021	-3.9875	-3.8896	-3.3	-4.275	-3.5271	-3.5312	-4.1083	-3.3354	220.901	319.915	200.916	407.135	241.662	202.586	426.180	467.162	252.835	491.918	403.337	159.364	459.208	174.915	392.263	384.250	0.00039855	0.00060606	0.00013478	1088.4	5.3257e-06	3.7463e-06	1292.6	347.57	4.1955e-06	4.1253e-06	438.2	113.74	77.707	17.898	3.7815e-06	26.345	0.00072628	0.0010121	0.00027878	963.05	1.0662e-05	1.1164e-05	1132.9	307.2	1.0633e-05	1.0862e-05	386.23	100.38	69.194	16.08	1.0309e-05	23.795	277.593	213.237	236.998	156.406	256.797	334.381	154.455	161.380	317.379	257.227	158.759	164.027	165.879	172.127	348.696	167.923	-8191	255	
2224.009	1	1	0	0	0.1841	0.17199	0.38441	0.03475	0.19757	0.13483	0.36221	0.047624	0.30183	0.18692	0.13894	0.063302	0.11984	0.038379	0.24451	0.25276	-3.5458	-3.7792	-3.1979	-4.1646	-3.6771	-3.3104	-4.3479	-3.4917	-3.6521	-4.0833	-3.3042	-4.1458	-3.65	-3.2646	-4.1646	-3.4646	353.730	321.947	266.563	366.256	370.236	364.231	451.951	428.457	215.043	260.265	362.827	148.033	409.517	166.533	404.250	444.622	0.00035077	0.00049049	0.00013648	1096.2	5.2559e-06	4.6218e-06	1296.2	348.88	4.3926e-06	6.0179e-06	434.38	112.47	77.479	17.735	5.5725e-06	26.178	0.00073414	0.0009658	0.00029202	967.17	1.0532e-05	1.0997e-05	1133.8	307.64	1.0612e-05	1.0841e-05	382.92	99.059	68.574	15.963	9.9876e-06	23.522	291.644	268.619	218.900	156.458	311.708	322.293	154.374	161.387	333.002	298.789	158.856	163.818	165.583	172.773	378.073	167.776	-8191	255	
2224.130	1	1	0	0	0.35132	0.19534	0.18628	0.12462	0.096588	0.25883	0.028231	0.37572	0.28398	0.11529	0.34223	0.06148	0.057348	0.13896	0.11923	0.15847	-3.3771	-4.1271	-3.225	-4.0375	-3.8146	-3.2625	-4.3167	-3.4562	-3.4917	-4.0813	-3.4167	-4	-3.8083	-3.1979	-3.8812	-3.5667	300.343	456.738	245.556	473.242	321.213	404.258	281.228	483.741	431.299	445.318	420.947	160.507	183.233	467.350	437.413	144.209	0.00037627	0.00029505	0.00013088	1090.3	5.7078e-06	7.1201e-06	1291.7	348.4	5.2032e-06	6.1462e-06	428.27	112.67	77.317	17.767	6.2121e-06	26.255	0.00073475	0.00099629	0.00028137	964.46	1.0275e-05	1.0889e-05	1132.3	306.69	1.0274e-05	1.1165e-05	381.11	99.561	68.516	15.935	1.0744e-05	23.582	289.928	220.823	176.811	156.537	289.742	299.031	154.816	161.876	350.351	289.943	158.753	163.747	166.053	172.463	328.380	167.913	-8191	255	
2224.224	1	1	0	0	0.25778	0.076161	0.23089	0.15498	0.047023	0.2305	0.22493	0.057684	0.25043	0.18132	0.22018	0.22353	0.23796	0.11926	0.18321	0.16781	-3.0062	-4.1375	-3.2313	-4.0042	-3.8125	-3.1375	-4.1813	-3.7333	-3.3688	-4.0917	-3.3438	-3.9062	-4.0458	-3.4958	-4.0979	-3.5271	463.815	449.286	206.599	392.819	398.771	392.135	459.201	502.398	492.772	385.231	489.798	357.512	145.048	463.055	192.738	440.240	0.0003812	0.00041788	9.9458e-05	1099.5	2.9566e-06	2.4266e-06	1291.1	347.66	5.256e-06	8.4222e-06	435.51	113.1	77.626	17.796	7.1407e-06	26.46	0.00073343	0.00096817	0.00028312	966.45	1.0291e-05	1.1048e-05	1133.5	306.76	1.0609e-05	1.0814e-05	384.03	100.19	68.836	16.036	1.0531e-05	23.737	290.747	227.386	303.167	156.753	304.577	312.394	154.626	161.419	328.863	277.318	158.810	164.139	166.075	172.982	270.402	167.930	-8191	255	
#DATA ENDS
