BOXY.EXE: ISS Imagent and Oximeter Data Acquisition Program Version 0.80
Ascii Record File

#ACQ INFORMATION
2  Detector Channels 
16  External MUX Channels 
1  Auxiliary Channels 
5000  Waveform (CCF) Frequency (Hz)
1  Waveforms Skipped 
30  Waveforms Averaged 
1  Cycles Averaged 
16  Acquisitions per Waveform 
10.0806  Updata Rate (Hz) 

#FILE INFORMATION
TRUE -- External MUX Channel results are PARSED.
FALSE -- AC DC and Phase are NOT grouped.
TRUE -- Companion Program Settings File CREATED.
FALSE -- AC data not excluded
FALSE -- DC data not excluded
FALSE -- Phase data not excluded
FALSE -- Auxillary Chn. data not excluded
Tab delimiters

#CALIBRATION STATE
TRUE -- Waveform Calibration Values APPLIED.


#AUX CALIBRATION VALUES
Val Type	aux-1	

Term	1.0000e+00	
Factor	0.0000e+00	


#WF CALIBRATION VALUES
A = Detector Channel
Val Type	A-AC1	A-AC2	A-AC3	A-AC4	A-AC5	A-AC6	A-AC7	A-AC8	A-AC9	A-AC10	A-AC11	A-AC12	A-AC13	A-AC14	A-AC15	A-AC16	A-DC1	A-DC2	A-DC3	A-DC4	A-DC5	A-DC6	A-DC7	A-DC8	A-DC9	A-DC10	A-DC11	A-DC12	A-DC13	A-DC14	A-DC15	A-DC16	A-Ph1	A-Ph2	A-Ph3	A-Ph4	A-Ph5	A-Ph6	A-Ph7	A-Ph8	A-Ph9	A-Ph10	A-Ph11	A-Ph12	A-Ph13	A-Ph14	A-Ph15	A-Ph16	

Term	0.00000e+00	0.00000e+00	0.00000e+00	0.00000e+00	0.00000e+00	0.00000e+00	0.00000e+00	0.00000e+00	0.00000e+00	0.00000e+00	0.00000e+00	0.00000e+00	0.00000e+00	0.00000e+00	0.00000e+00	0.00000e+00	0.00000e+00	0.00000e+00	0.00000e+00	0.00000e+00	0.00000e+00	0.00000e+00	0.00000e+00	0.00000e+00	0.00000e+00	0.00000e+00	0.00000e+00	0.00000e+00	0.00000e+00	0.00000e+00	0.00000e+00	0.00000e+00	0.00000e+00	0.00000e+00	0.00000e+00	0.00000e+00	0.00000e+00	0.00000e+00	0.00000e+00	0.00000e+00	0.00000e+00	0.00000e+00	0.00000e+00	0.00000e+00	0.00000e+00	0.00000e+00	0.00000e+00	0.00000e+00	
Factor	1.00000e+00	1.00000e+00	1.00000e+00	1.00000e+00	1.00000e+00	1.00000e+00	1.00000e+00	1.00000e+00	1.00000e+00	1.00000e+00	1.00000e+00	1.00000e+00	1.00000e+00	1.00000e+00	1.00000e+00	1.00000e+00	1.00000e+00	1.00000e+00	1.00000e+00	1.00000e+00	1.00000e+00	1.00000e+00	1.00000e+00	1.00000e+00	1.00000e+00	1.00000e+00	1.00000e+00	1.00000e+00	1.00000e+00	1.00000e+00	1.00000e+00	1.00000e+00	X	X	X	X	X	X	X	X	X	X	X	X	X	X	X	X	

B = Detector Channel
Val Type	B-AC1	B-AC2	B-AC3	B-AC4	B-AC5	B-AC6	B-AC7	B-AC8	B-AC9	B-AC10	B-AC11	B-AC12	B-AC13	B-AC14	B-AC15	B-AC16	B-DC1	B-DC2	B-DC3	B-DC4	B-DC5	B-DC6	B-DC7	B-DC8	B-DC9	B-DC10	B-DC11	B-DC12	B-DC13	B-DC14	B-DC15	B-DC16	B-Ph1	B-Ph2	B-Ph3	B-Ph4	B-Ph5	B-Ph6	B-Ph7	B-Ph8	B-Ph9	B-Ph10	B-Ph11	B-Ph12	B-Ph13	B-Ph14	B-Ph15	B-Ph16	

Term	0.00000e+00	0.00000e+00	0.00000e+00	0.00000e+00	0.00000e+00	0.00000e+00	0.00000e+00	0.00000e+00	0.00000e+00	0.00000e+00	0.00000e+00	0.00000e+00	0.00000e+00	0.00000e+00	0.00000e+00	0.00000e+00	0.00000e+00	0.00000e+00	0.00000e+00	0.00000e+00	0.00000e+00	0.00000e+00	0.00000e+00	0.00000e+00	0.00000e+00	0.00000e+00	0.00000e+00	0.00000e+00	0.00000e+00	0.00000e+00	0.00000e+00	0.00000e+00	-3.55938e+01	-1.27701e+02	-1.25281e+02	-1.82617e+02	-5.40153e+01	-6.01161e+01	-1.56707e+02	-1.61923e+02	-3.23848e+01	-6.96501e+01	-1.72081e+02	-1.72121e+02	-1.82310e+02	-1.75613e+02	-4.80221e+01	-1.49421e+02	
Factor	1.75935e-05	1.27067e-04	3.90881e-05	1.69756e-01	1.41494e-06	1.43045e-06	1.51472e-01	4.16107e-02	1.27005e-06	1.46452e-06	7.00974e-02	2.89022e-02	2.93523e-02	6.32495e-03	1.47419e-06	9.43134e-03	9.40978e-06	1.53733e-05	4.30930e-06	8.73817e-02	1.59016e-07	1.71387e-07	7.34779e-02	2.15944e-02	1.53695e-07	1.73083e-07	3.51862e-02	1.45699e-02	1.52597e-02	3.31565e-03	1.61020e-07	4.78232e-03	X	X	X	X	X	X	X	X	X	X	X	X	X	X	X	X	



#DISTANCE SETTINGS
A = Detector Channel
A-1	A-2	A-3	A-4	A-5	A-6	A-7	A-8	A-9	A-10	A-11	A-12	A-13	A-14	A-15	A-16	

1.0000e+01	1.0000e+01	1.0000e+01	1.4500e+00	1.0000e+01	1.0000e+01	1.5100e+00	1.9500e+00	1.0000e+01	1.0000e+01	2.0100e+00	2.5000e+00	2.4400e+00	2.9500e+00	1.0000e+01	3.0100e+00	

B = Detector Channel
B-1	B-2	B-3	B-4	B-5	B-6	B-7	B-8	B-9	B-10	B-11	B-12	B-13	B-14	B-15	B-16	

1.0000e+01	1.0000e+01	1.0000e+01	1.4500e+00	1.0000e+01	1.0000e+01	1.5100e+00	1.9500e+00	1.0000e+01	1.0000e+01	2.0100e+00	2.5000e+00	2.4400e+00	2.9500e+00	1.0000e+01	3.0100e+00	




#DATA BEGINS
time	group	step	mark	flag	A-AC1	A-AC2	A-AC3	A-AC4	A-AC5	A-AC6	A-AC7	A-AC8	A-AC9	A-AC10	A-AC11	A-AC12	A-AC13	A-AC14	A-AC15	A-AC16	A-DC1	A-DC2	A-DC3	A-DC4	A-DC5	A-DC6	A-DC7	A-DC8	A-DC9	A-DC10	A-DC11	A-DC12	A-DC13	A-DC14	A-DC15	A-DC16	A-Ph1	A-Ph2	A-Ph3	A-Ph4	A-Ph5	A-Ph6	A-Ph7	A-Ph8	A-Ph9	A-Ph10	A-Ph11	A-Ph12	A-Ph13	A-Ph14	A-Ph15	A-Ph16	B-AC1	B-AC2	B-AC3	B-AC4	B-AC5	B-AC6	B-AC7	B-AC8	B-AC9	B-AC10	B-AC11	B-AC12	B-AC13	B-AC14	B-AC15	B-AC16	B-DC1	B-DC2	B-DC3	B-DC4	B-DC5	B-DC6	B-DC7	B-DC8	B-DC9	B-DC10	B-DC11	B-DC12	B-DC13	B-DC14	B-DC15	B-DC16	B-Ph1	B-Ph2	B-Ph3	B-Ph4	B-Ph5	B-Ph6	B-Ph7	B-Ph8	B-Ph9	B-Ph10	B-Ph11	B-Ph12	B-Ph13	B-Ph14	B-Ph15	B-Ph16	aux-1	digaux	

2276.565	1	1	0	512	0.17252	0.062566	0.071373	0.10112	0.30446	0.2217	0.1771	0.14927	0.041036	0.19271	0.26482	0.088258	0.035984	0.090248	0.24129	0.13531	-2.9104	-4.025	-3.8833	-3.2687	-4.0854	-3.4771	-3.4562	-4.0875	-3.2687	-3.7438	-3.9125	-3.2958	-4.0083	-3.4458	-3.3896	-4.2583	-14.768	227.151	-68.349	187.268	201.703	-35.988	142.463	-27.947	177.741	130.975	240.846	227.087	88.401	228.613	15.246	139.927	5.6417e-06	0.00010308	8.3816e-06	235.5	2.6695e-06	6.2709e-07	346.6	61.828	1.7216e-06	3.7123e-06	97.801	29.85	14.328	3.6977	1.7273e-06	8.3878	0.00060542	0.00098812	0.0002751	207.71	1.0255e-05	1.0912e-05	303.88	55.547	1.0005e-05	1.0724e-05	87.224	26.847	13.354	3.453	1.0129e-05	7.6782	244.019	229.592	210.998	-68.415	102.047	135.642	-69.290	-62.670	218.304	-0.161	-65.072	-60.487	-58.613	-55.183	14.006	-57.521	-8191	255	
2276.684	1	1	0	0	0.14151	0.2455	0.45417	0.11922	0.1893	0.22376	0.13003	0.16666	0.17525	0.20058	0.029921	0.13893	0.16009	0.1184	0.2274	0.39692	-2.9042	-3.6125	-3.9125	-3.0167	-3.9917	-3.5667	-3.3167	-4.0792	-3.2979	-3.7938	-4.1021	-3.1729	-4.0479	-3.5708	-3.1	-4.1417	182.975	192.606	151.798	-26.262	1.291	111.059	206.197	-21.210	101.241	106.318	74.715	216.576	264.735	193.148	87.180	177.801	2.9194e-05	0.00013273	6.0236e-05	233.53	3.5645e-06	1.5244e-06	346.74	62.926	2.7351e-06	2.6824e-06	98.983	29.897	14.037	3.7507	5.4285e-06	8.5135	0.00063389	0.00098274	0.00026399	207.29	1.031e-05	1.1071e-05	304.9	55.648	9.9015e-06	1.1689e-05	88.211	26.964	13.346	3.4769	1.0423e-05	7.7713	-60.733	-75.607	123.825	-67.976	37.563	101.085	-69.125	-62.499	154.865	177.619	-64.220	-60.627	-58.345	-54.622	133.509	-58.320	-8191	255	
2276.757	1	1	0	0	0.143	0.039521	0.24562	0.23324	0.1651	0.18998	0.24785	0.13208	0.156	0.26761	0.13202	0.27459	0.15113	0.062209	0.27949	0.16524	-3.0438	-3.5208	-4.0583	-3.3521	-3.9208	-3.9292	-3.3063	-4.0896	-3.3708	-3.5708	-4.2583	-3.2542	-3.8375	-3.8583	-3.2292	-4.0958	33.668	256.350	207.182	190.279	-73.655	237.543	-64.605	41.995	198.879	-23.419	56.726	179.569	184.386	46.977	171.382	138.164	0.00010791	0.00032735	0.0001572	235.71	1.9084e-06	2.6729e-06	349.19	62.499	1.4031e-06	4.7557e-06	98.157	29.029	13.809	3.6564	3.468e-06	8.3704	0.00065812	0.00096749	0.0002736	208.14	1.0382e-05	1.0524e-05	305.75	55.588	9.9559e-06	1.1303e-05	87.3	26.385	13.235	3.4285	1.0261e-05	7.5634	-71.985	-12.228	45.247	-67.860	188.789	115.570	-69.100	-62.286	245.293	-27.254	-64.880	-59.960	-57.328	-54.718	60.798	-56.618	-8191	255	
2276.853	1	1	0	0	0.114	0.070789	0.28521	0.15717	0.28982	0.051035	0.1192	0.24552	0.17437	0.2197	0.16968	0.16805	0.079616	0.15602	0.090921	0.1332	-3.2458	-3.3583	-3.9833	-3.3354	-3.9042	-3.9188	-3.3042	-3.9813	-3.5958	-3.3875	-4.1208	-3.2938	-3.7583	-3.9542	-3.2	-4.0417	177.243	250.081	155.802	206.912	-17.829	94.600	133.701	-70.322	121.342	82.272	47.769	33.828	57.528	21.684	46.693	255.283	9.4528e-06	0.00017869	7.8298e-05	234.17	1.7981e-06	3.4554e-06	346	62.482	5.9249e-06	4.121e-06	97.571	28.812	13.643	3.629	2.4768e-06	8.3526	0.00064371	0.00097941	0.00026538	208.49	1.0327e-05	1.0855e-05	304.34	55.531	9.8137e-06	1.1037e-05	86.867	26.349	13.218	3.4277	1.04e-05	7.6012	79.289	97.729	76.837	-67.802	34.612	63.073	-68.987	-62.809	0.249	46.513	-64.780	-60.516	-58.255	-54.143	107.310	-57.862	-8191	255	
2276.949	1	1	0	0	0.17242	0.26907	0.09814	0.17649	0.090582	0.074289	0.29526	0.1635	0.1447	0.010156	0.13747	0.085302	0.090308	0.15264	0.16079	0.06194	-3.3167	-3.45	-4.1208	-3.2792	-3.4979	-4.0833	-3.2417	-3.9583	-3.6292	-3.2375	-4.1104	-3.3208	-3.6708	-4.0917	-3.3021	-4	206.972	221.461	97.261	96.548	129.593	94.582	248.819	32.243	82.090	-36.336	20.844	147.221	223.054	71.351	31.491	-69.697	2.5245e-05	0.00037895	0.0001064	234.83	1.8168e-06	1.7285e-06	348.7	62.155	3.9392e-06	3.636e-06	97.452	29.42	14.309	3.6336	3.7956e-06	8.406	0.00061736	0.00097851	0.00026911	208.8	1.0081e-05	1.0975e-05	304.82	55.222	9.7679e-06	1.1178e-05	87.112	26.824	13.397	3.4276	1.0574e-05	7.6736	150.505	174.543	56.695	-69.139	121.685	85.133	-69.474	-62.802	-5.474	-12.834	-65.167	-60.809	-58.658	-56.085	-76.049	-56.625	-8191	255	
2277.068	1	1	0	0	0.070495	0.077927	0.066456	0.21076	0.11592	0.22025	0.21252	0.065328	0.065953	0.22876	0.22457	0.19019	0.12402	0.19411	0.17235	0.1623	-3.4417	-3.1542	-3.9542	-3.3812	-3.4729	-4.1083	-3.3125	-3.875	-3.7729	-3.0938	-4.0854	-3.5854	-3.2479	-4.0208	-3.2271	-3.7979	-17.891	102.405	84.026	169.595	241.348	268.346	174.552	-10.343	208.821	39.963	-65.692	10.634	163.880	147.868	65.965	231.965	5.0309e-05	0.00022276	9.455e-05	230.17	2.2176e-06	1.0245e-06	350.82	61.858	4.9813e-06	1.4357e-06	98.438	29.809	14.121	3.6873	1.4162e-06	8.3183	0.0006265	0.00097451	0.00027577	207.34	1.046e-05	1.0915e-05	305.04	55.554	9.8326e-06	1.1197e-05	87.417	26.723	13.448	3.4481	1.0618e-05	7.6384	187.248	4.551	10.609	-68.285	5.818	132.482	-68.941	-62.098	13.351	224.571	-63.730	-59.870	-56.573	-54.520	49.486	-57.071	-8191	255	
2277.164	1	1	0	0	0.37165	0.10807	0.05676	0.03526	0.13794	0.077222	0.28304	0.14766	0.13834	0.12202	0.11805	0.078056	0.29377	0.19315	0.16237	0.10352	-3.5958	-3.0667	-3.8917	-3.5396	-3.3708	-4.0458	-3.2188	-3.6417	-3.9417	-3.2354	-4.0917	-3.6312	-3.175	-4.0979	-3.1521	-3.5542	243.127	119.631	-60.380	255.488	125.132	212.375	232.045	44.313	16.817	33.693	16.858	124.888	-77.970	191.267	268.958	-71.627	2.6148e-05	0.00013834	4.384e-05	235.88	5.0921e-07	2.9933e-06	342.67	62.367	4.2641e-06	2.1404e-06	95.704	29.231	13.908	3.679	2.1164e-06	8.1472	0.00062304	0.00098732	0.00027366	208.78	1.0158e-05	1.1156e-05	302.31	55.758	9.684e-06	1.1368e-05	86.185	26.437	13.345	3.4429	1.0281e-05	7.4873	260.893	114.093	75.011	-68.498	274.482	-49.780	-69.100	-61.556	165.729	162.958	-65.011	-60.772	-58.168	-53.984	-76.999	-56.959	-8191	255	
2277.261	1	1	0	0	0.18948	0.18015	0.10324	0.06316	0.10551	0.10896	0.14854	0.1648	0.16512	0.23429	0.16962	0.19424	0.15292	0.080929	0.1806	0.25825	-3.7417	-3.2604	-3.9479	-3.6208	-3.3417	-4.1312	-3.5125	-3.5958	-4.1083	-3.1437	-3.9292	-3.6604	-3.0958	-3.9875	-3.3833	-3.4542	-80.228	-12.887	76.217	175.937	135.086	-69.925	137.013	224.582	76.314	128.004	-80.256	242.719	-39.978	231.954	-35.287	73.893	1.6077e-05	0.00021824	4.6124e-05	231.48	3.8101e-06	3.2743e-06	342.02	61.891	4.2096e-06	4.7998e-06	98.587	29.18	13.971	3.725	9.9706e-07	8.3364	0.00062528	0.0010135	0.00028177	208.03	1.0521e-05	1.0886e-05	302.36	55.419	1.0121e-05	1.0941e-05	86.847	26.441	13.288	3.4456	1.0596e-05	7.5559	68.062	108.175	93.614	-68.604	99.650	167.842	-70.322	-63.938	59.025	68.226	-66.580	-61.808	-61.613	-55.802	222.695	-58.516	-8191	255	
2277.357	1	1	0	0	0.23669	0.11323	0.24129	0.22065	0.13178	0.19911	0.047823	0.19426	0.046137	0.15729	0.096967	0.18542	0.30889	0.17107	0.12655	0.17313	-3.6396	-2.9771	-3.6479	-3.8104	-3.0146	-3.9938	-3.4875	-3.3708	-4.2188	-3.2021	-3.7979	-3.8667	-2.8812	-4.0729	-3.4917	-3.4313	57.446	149.940	217.975	-6.050	228.736	167.706	167.556	183.903	70.402	-42.931	83.605	-68.301	246.596	-78.192	-13.710	150.506	3.6626e-05	0.00015942	6.9514e-05	233.08	4.2751e-06	4.7378e-06	345.1	62.318	1.312e-06	1.5716e-06	97.531	29.328	14.008	3.6207	2.732e-06	8.2782	0.00060487	0.00098902	0.00026559	207.85	1.0349e-05	1.1024e-05	303.56	55.825	1.0281e-05	1.0921e-05	87.182	26.687	13.331	3.4503	1.0176e-05	7.5992	11.702	248.580	114.715	-70.173	158.102	244.383	-71.409	-63.968	163.153	107.429	-66.906	-62.022	-60.483	-56.364	-30.990	-59.105	-8191	255	
2277.453	1	1	0	0	0.13082	0.1315	0.14621	0.13888	0.10075	0.13994	0.067805	0.16186	0.14878	0.19176	0.14883	0.18147	0.25373	0.096161	0.1223	0.18767	-3.8167	-3.3063	-3.5854	-3.8104	-3.0729	-3.9437	-3.6396	-3.15	-4.1521	-3.35	-3.5271	-3.9792	-3.0938	-3.8958	-3.3708	-3.1771	132.756	86.881	232.095	-42.047	-64.311	216.159	137.957	224.451	72.634	-6.927	36.799	97.236	239.564	32.588	177.267	205.013	4.042e-05	0.00022871	7.9327e-05	235.78	1.2427e-06	2.9035e-06	345.6	62.603	5.7595e-07	3.471e-06	98.259	29.416	14.345	3.7612	1.0953e-06	8.2222	0.00061991	0.00097102	0.00027524	208.38	9.9836e-06	1.0788e-05	304.89	55.823	9.8758e-06	1.109e-05	87.323	26.564	13.38	3.4641	1.0126e-05	7.5338	265.407	270.369	256.037	-70.709	107.723	-1.424	-71.153	-64.754	161.297	45.180	-66.942	-62.829	-59.910	-57.285	235.913	-58.915	-8191	255	
2277.549	1	1	0	0	0.15899	0.13476	0.13293	0.060448	0.21038	0.22045	0.24925	0.11424	0.098765	0.07841	0.048805	0.042125	0.14837	0.032972	0.18551	0.13645	-3.6542	-3.275	-3.5229	-3.9396	-3.1875	-3.9375	-3.8333	-3.1937	-4.0229	-3.3896	-3.5146	-3.9333	-3.0125	-3.7667	-3.7417	-3.2875	163.952	-65.092	-59.305	59.456	130.174	258.096	206.072	69.709	-42.025	130.310	183.715	9.087	227.302	-47.858	89.377	151.588	5.4214e-05	0.00034298	1.9956e-05	234.54	1.9995e-06	4.8207e-07	340.29	61.926	1.7214e-06	7.9172e-06	96.93	29.098	13.857	3.6347	4.2238e-06	8.2138	0.00061579	0.0010168	0.00028422	208.12	1.0285e-05	1.1e-05	302.25	55.576	9.6783e-06	1.1251e-05	86.373	26.326	13.216	3.4138	1.0061e-05	7.4629	-65.886	64.117	255.201	-70.084	272.195	223.089	-71.244	-64.412	192.817	56.882	-66.789	-62.408	-59.088	-55.614	86.264	-59.648	-8191	255	
2277.670	1	1	0	0	0.077575	0.086765	0.039968	0.070363	0.19697	0.12086	0.29063	0.13794	0.22729	0.093613	0.2163	0.18967	0.089014	0.20687	0.071798	0.30284	-3.5854	-3.4938	-3.3688	-4.2458	-3.0312	-3.5708	-3.8688	-3.2438	-4.1104	-3.5062	-3.3792	-3.9562	-3.1521	-3.6063	-3.8917	-3.0062	237.284	216.127	247.713	74.930	127.775	-34.055	259.124	181.206	137.003	37.865	-72.468	69.745	77.617	166.101	121.712	28.895	3.6764e-05	0.00018444	4.4472e-05	231.21	5.2586e-06	2.8101e-06	346.4	61.491	1.4433e-06	4.2152e-06	96.818	28.602	13.954	3.6841	2.5442e-06	8.2312	0.00062136	0.00098988	0.00026756	207.51	1.0332e-05	1.0399e-05	303.47	55.456	9.8198e-06	1.1232e-05	86.571	26.193	13.21	3.454	1.0046e-05	7.4788	259.872	-36.653	266.470	-70.158	-8.295	112.142	-70.933	-64.547	191.077	143.169	-66.419	-62.642	-59.950	-55.804	248.798	-59.625	-8191	255	
2277.764	1	1	0	0	0.1634	0.12624	0.14546	0.047619	0.047117	0.049413	0.17168	0.1119	0.10881	0.12101	0.12093	0.15107	0.20206	0.31491	0.06163	0.10003	-3.6417	-3.6979	-3.3729	-4.1229	-3.0604	-3.675	-4.2479	-3.0375	-4.0354	-3.6312	-3.1604	-4.1625	-3.4292	-3.5083	-4.2167	-3.0833	144.095	138.733	171.626	-63.633	247.191	118.340	83.405	138.054	-4.472	250.191	137.825	93.213	139.569	-53.699	64.187	162.568	4.3304e-05	0.00019099	9.703e-05	235.34	5.4606e-06	4.3402e-06	342.16	62.082	2.6345e-06	3.6291e-06	96.854	29.47	13.81	3.732	2.8469e-06	8.2579	0.00062005	0.0009649	0.00027247	208.37	1.0549e-05	1.0771e-05	302.46	55.467	9.9806e-06	1.0856e-05	86.628	26.722	13.319	3.4843	1.0351e-05	7.5616	187.809	238.943	193.345	-69.903	-24.221	31.141	-70.645	-63.748	164.160	-0.860	-66.846	-62.520	-60.137	-56.213	78.655	-59.276	-8191	255	
2277.860	1	1	0	0	0.1227	0.12012	0.087982	0.16869	0.18013	0.11461	0.088992	0.026988	0.11116	0.098752	0.15787	0.14627	0.13394	0.088307	0.2646	0.1581	-3.575	-3.6562	-3.125	-4.0875	-3.4854	-3.3792	-4.1917	-3.1854	-3.8937	-4.0396	-3.1542	-4.1438	-3.4271	-3.3271	-4.0396	-3.1771	189.408	153.041	124.909	50.546	192.773	67.212	276.091	76.777	-3.778	208.409	221.766	-68.115	93.499	151.668	251.265	151.831	1.0911e-05	9.1767e-05	8.1543e-05	233.4	2.5924e-06	2.8882e-06	348.89	62.281	2.395e-06	1.4635e-06	97.593	29.279	14.228	3.6849	2.4466e-06	8.0789	0.00063189	0.00094905	0.00028382	208.61	1.0276e-05	1.1207e-05	305.41	56.098	9.5579e-06	1.0876e-05	86.691	26.513	13.422	3.4509	1.0303e-05	7.4293	30.548	73.130	25.243	-69.701	26.905	186.519	-70.419	-64.549	39.664	71.119	-65.994	-62.567	-60.009	-56.226	164.850	-59.322	-8191	255	
2277.981	1	1	0	0	0.16037	0.12713	0.063899	0.10393	0.20798	0.2434	0.058513	0.12388	0.33535	0.13667	0.17126	0.28916	0.094886	0.22849	0.15549	0.21271	-3.4125	-3.8396	-3.2167	-4.0042	-3.6333	-3.3396	-4.1937	-3.1833	-3.8042	-3.9854	-3.1583	-4.1333	-3.5542	-3.3521	-4.1229	-3.275	238.281	95.402	90.982	196.011	205.185	120.982	188.415	-54.121	168.750	78.833	92.912	-50.429	145.796	220.985	199.385	105.841	7.791e-05	0.00023823	1.2072e-05	237.57	1.4592e-06	1.9533e-06	345.83	63.118	2.2505e-06	8.6244e-07	96.156	29.07	13.951	3.6198	5.0769e-06	8.2772	0.00061126	0.00097941	0.00027612	210.22	1.025e-05	1.0791e-05	303.06	55.919	9.668e-06	1.0905e-05	85.937	26.231	13.305	3.4425	1.0441e-05	7.4985	251.057	6.032	22.005	-69.807	-65.593	163.125	-70.920	-64.238	30.916	-53.009	-66.332	-61.489	-59.271	-56.585	-1.420	-59.129	-8191	255	
2278.053	1	1	0	0	0.1573	0.21823	0.40557	0.28382	0.15061	0.202	0.12027	0.251	0.1976	0.14186	0.13503	0.13957	0.12831	0.25484	0.20354	0.25507	-3.3354	-3.9938	-3.1146	-3.8521	-3.6292	-3.2125	-4.1188	-3.4104	-3.6167	-4.0979	-3.2354	-3.9042	-3.7417	-3.2188	-4.0708	-3.2646	-37.497	231.719	120.234	-55.190	121.615	60.330	-6.654	272.873	191.329	113.772	232.780	-19.392	-50.637	-73.456	-24.774	138.220	1.4822e-05	0.00048912	8.6171e-05	237.82	4.9802e-06	1.1188e-06	344.35	62.351	2.7748e-06	3.8219e-06	97.48	28.805	14.007	3.7101	4.0527e-06	8.2846	0.0006253	0.00096749	0.00027034	209.83	1.0348e-05	1.1017e-05	302.36	55.806	9.6914e-06	1.1028e-05	86.811	26.358	13.364	3.4408	1.0323e-05	7.4895	196.403	-14.539	147.360	-69.288	128.949	198.657	-70.335	-63.743	36.996	-13.538	-66.310	-61.164	-59.074	-56.224	78.570	-58.833	-8191	255	
2278.149	1	1	0	0	0.17752	0.11016	0.20815	0.15359	0.3182	0.24387	0.14232	0.32798	0.28491	0.098967	0.27216	0.23376	0.0024333	0.23563	0.11019	0.078256	-2.9896	-4.0917	-2.975	-3.7562	-3.75	-3.1958	-4.1813	-3.5625	-3.4333	-4.075	-3.2583	-3.8625	-3.8458	-3.2146	-3.9437	-3.5917	-69.551	188.695	-73.832	38.726	-24.155	-20.715	144.399	265.507	-79.447	108.872	249.847	185.759	70.708	180.078	-52.080	27.493	7.6319e-05	0.00012178	0.00010731	234.67	3.3262e-06	2.2946e-06	347.2	62.326	3.5712e-06	1.7735e-06	98.218	29.062	13.995	3.6917	8.2616e-07	8.261	0.00062653	0.00097528	0.00028315	208.89	1.0241e-05	1.0785e-05	304.43	55.735	9.6392e-06	1.0983e-05	87.268	26.335	13.347	3.5	9.9664e-06	7.5116	266.242	-7.676	237.380	-69.240	151.484	114.840	-70.147	-63.929	109.331	107.733	-66.184	-61.955	-59.049	-56.101	226.984	-59.490	-8191	255	
2278.245	1	1	0	0	0.18926	0.24089	0.013849	0.21304	0.10259	0.067215	0.17343	0.026726	0.057445	0.079784	0.18062	0.14414	0.17529	0.1339	0.13616	0.19087	-2.9833	-4.0604	-3.1813	-3.7917	-3.8646	-3.1583	-4.1083	-3.65	-3.1917	-4.2229	-3.2958	-3.5771	-4.075	-3.2479	-4.0771	-3.6875	75.908	22.351	100.618	-57.644	-68.700	265.700	106.042	84.875	92.976	199.956	-56.356	180.287	76.855	236.083	215.626	147.311	5.2973e-05	0.00018864	7.9348e-05	236.28	4.8014e-06	1.1901e-06	346.34	62.297	2.1833e-06	2.4754e-06	96.073	29.099	14.116	3.7425	2.0034e-06	8.1731	0.00062961	0.00097211	0.00028541	210.78	1.0213e-05	1.089e-05	303.48	55.898	1.0021e-05	1.0926e-05	86.342	26.484	13.324	3.4473	9.9493e-06	7.4073	264.418	122.215	125.792	-69.702	149.745	66.208	-70.072	-63.888	272.257	-45.143	-67.104	-60.993	-59.591	-58.209	123.853	-59.050	-8191	255	
2278.365	1	1	0	0	0.032244	0.046121	0.28079	0.068482	0.2157	0.2148	0.21972	0.12991	0.10683	0.12762	0.18821	0.19458	0.21207	0.25425	0.30497	0.17994	-2.7	-4.0042	-3.3646	-3.575	-4.0458	-3.1583	-3.8563	-3.7438	-3.1562	-4.2063	-3.2875	-3.5	-4.175	-3.1063	-3.8021	-3.9625	114.804	-21.293	232.812	-29.684	100.917	236.798	219.663	193.589	267.901	144.667	233.706	92.374	133.357	-81.037	214.949	-18.485	2.8599e-05	0.00010841	8.5075e-05	235.08	4.8352e-06	7.9883e-06	342.95	62.054	3.4933e-06	1.8199e-06	96.424	29.121	14.256	3.6351	2.2609e-06	8.1837	0.00063743	0.00096109	0.00027596	209.94	9.9766e-06	1.126e-05	303.23	55.586	9.9188e-06	1.0654e-05	86.169	26.302	13.374	3.4147	1.0257e-05	7.3958	233.545	64.889	99.683	-69.194	253.124	81.880	-69.938	-64.153	271.441	136.714	-66.232	-61.751	-56.950	-54.717	237.375	-59.090	-8191	255	
2278.462	1	1	0	0	0.063046	0.12362	0.043096	0.27256	0.092499	0.12698	0.032969	0.20578	0.068198	0.30387	0.083251	0.24793	0.18722	0.057416	0.20973	0.23857	-2.9604	-4.1312	-3.4313	-3.4146	-4.0958	-3.1271	-3.7583	-3.9167	-3.2042	-4.1875	-3.5396	-3.2979	-4.0271	-3.3208	-3.7208	-3.8438	-3.135	18.064	44.145	110.917	54.314	-73.954	5.441	131.907	197.338	112.868	-22.547	206.614	-1.445	-32.002	-32.338	85.989	4.3971e-05	0.00011028	0.00011196	236.66	1.3382e-06	4.0947e-06	342.34	62.445	1.8061e-06	5.4984e-06	96.567	29.088	13.824	3.6779	1.1576e-06	8.1249	0.00063095	0.00097236	0.00027483	209.44	1.0168e-05	1.1124e-05	302.91	55.693	9.913e-06	1.0723e-05	85.933	26.526	13.278	3.4512	9.995e-06	7.4669	218.414	215.075	-66.089	-69.475	-79.696	154.490	-70.550	-63.924	-35.598	164.665	-65.623	-60.958	-59.161	-56.326	66.123	-58.933	-8191	255	
2278.558	1	1	0	0	0.25262	0.14297	0.20162	0.12629	0.076199	0.19882	0.17671	0.092448	0.085353	0.071175	0.049272	0.2471	0.18928	0.21461	0.15483	0.12693	-2.8312	-4.0771	-3.6833	-3.3	-4.1833	-3.3458	-3.5458	-3.8563	-3.0771	-3.9062	-3.7583	-3.1292	-4.1188	-3.2479	-3.4667	-3.9458	123.014	-74.225	263.396	-39.962	122.103	85.695	-78.539	114.557	92.868	207.936	103.527	189.035	157.699	-72.338	99.513	64.012	3.1792e-05	0.00020875	6.0801e-05	237.3	2.5081e-06	2.3105e-06	347.6	62.644	6.2418e-07	1.7509e-06	97.363	29.053	13.938	3.6141	1.6334e-06	8.3054	0.00061552	0.0010007	0.00027263	211.06	1.0351e-05	1.1071e-05	304.86	55.771	9.8646e-06	1.109e-05	86.84	26.403	13.455	3.4392	1.0299e-05	7.5362	212.007	49.770	120.954	-68.825	97.748	119.280	-70.381	-64.064	85.589	178.782	-65.390	-61.889	-59.001	-55.926	-41.284	-58.993	-8191	255	
2278.629	1	1	0	0	0.1367	0.1008	0.1172	0.13046	0.069389	0.15152	0.065619	0.011724	0.12176	0.24241	0.14972	0.15581	0.10567	0.044976	0.14992	0.074175	-2.8604	-3.8771	-3.7625	-3.2833	-4.1687	-3.4458	-3.4042	-3.9938	-3.1646	-3.9146	-3.7792	-3.1229	-3.8063	-3.5229	-3.4	-4.1667	187.961	159.168	-29.798	194.813	-67.147	152.877	155.380	183.937	201.062	232.504	5.528	203.888	130.818	263.485	-77.116	174.198	5.8307e-05	0.00019144	0.00015131	236.25	5.4477e-06	6.4135e-06	347.09	63.15	1.7284e-06	1.6628e-06	96.034	29.003	14.131	3.6573	2.0261e-06	8.127	0.00062401	0.00098085	0.0002743	209.9	1.0086e-05	1.0993e-05	304.94	56.084	1.0159e-05	1.0913e-05	86.371	26.221	13.287	3.4203	1.0442e-05	7.3677	273.030	211.796	26.735	-68.767	59.779	17.361	-70.101	-63.256	-5.868	129.880	-66.199	-61.632	-58.261	-55.265	174.378	-58.356	-8191	255	
2278.750	1	1	0	0	0.14103	0.16284	0.11459	0.099475	0.048856	0.22518	0.33701	0.064342	0.053614	0.12639	0.24379	0.33926	0.17727	0.10373	0.20856	0.11319	-2.8	-3.8187	-4.0271	-3.3375	-4.1271	-3.5708	-3.4792	-4.35	-3.2542	-3.7292	-4.0396	-3.2438	-3.8688	-3.6	-3.3021	-4.2646	195.961	-57.178	139.484	35.394	272.958	-73.546	246.505	-58.843	-43.966	75.566	-8.496	190.471	-79.146	235.089	182.023	107.413	4.6395e-05	0.00013343	2.6673e-05	236.12	5.198e-06	3.1288e-06	346.42	62.12	2.4822e-06	2.6996e-06	96.736	29.175	14.141	3.6357	4.3522e-06	8.1639	0.00060722	0.00097992	0.00027459	209.82	1.0172e-05	1.1216e-05	304.26	55.734	1.0109e-05	1.0969e-05	86.007	26.197	13.282	3.4213	1.0388e-05	7.4272	-16.745	189.605	136.065	-69.541	23.456	113.832	-70.634	-63.658	249.939	129.703	-65.607	-61.056	-57.009	-54.775	17.730	-59.096	-8191	255	
2278.846	1	1	0	0	0.26677	0.20143	0.17027	0.16985	0.1902	0.11893	0.19478	0.021304	0.38911	0.25529	0.056512	0.21167	0.20716	0.14928	0.28654	0.23236	-2.9917	-3.7687	-4.0687	-3.0062	-3.9958	-3.8104	-3.3167	-4.1667	-3.4479	-3.3937	-4.1625	-3.1583	-3.9417	-3.6042	-3.2729	-4.0625	-19.214	-23.525	101.498	0.027	204.194	221.014	224.020	-75.066	-44.389	-29.200	76.062	5.424	254.369	83.784	-13.753	175.846	2.5659e-05	0.00046016	6.7397e-05	234.15	2.4281e-06	1.8849e-06	348.58	62.246	2.8166e-06	2.4683e-06	97.898	29.261	14.029	3.6777	1.721e-06	8.22	0.00062054	0.00098626	0.00026273	208.97	1.0108e-05	1.0449e-05	304.86	55.476	9.6459e-06	1.1169e-05	86.711	26.307	13.305	3.4438	1.0557e-05	7.4112	-43.970	254.339	262.523	-69.057	2.016	221.438	-69.927	-63.664	238.832	-31.306	-65.778	-61.851	-57.464	-56.179	266.385	-58.229	-8191	255	
2278.942	1	1	0	0	0.17209	0.19038	0.17358	0.16965	0.27898	0.12363	0.16279	0.090605	0.093474	0.085686	0.048282	0.087865	0.022796	0.049942	0.04863	0.043313	-3.0125	-3.3812	-4.1458	-3.2125	-3.8937	-3.7771	-3.175	-4.2146	-3.4104	-3.25	-4.2646	-3.1708	-3.7958	-3.8958	-3.2729	-4.1375	41.985	-6.581	80.792	100.687	-65.424	15.486	165.888	60.633	172.079	-11.604	-4.725	126.393	273.483	111.881	-50.959	101.090	3.1207e-05	0.0004321	0.00010775	236.75	4.7865e-06	4.6444e-06	348.48	62.54	4.6578e-06	2.7353e-06	98.695	29.381	14.157	3.7271	2.3436e-06	8.1809	0.00062467	0.00097432	0.00026815	210.45	9.6874e-06	1.1069e-05	305.88	55.955	9.7327e-06	1.1383e-05	87.093	26.45	13.375	3.4659	1.003e-05	7.4567	264.583	46.565	-22.169	-69.105	24.559	168.345	-70.012	-62.818	194.386	78.037	-65.888	-60.682	-57.973	-54.916	256.875	-58.354	-8191	255	
2279.061	1	1	0	0	0.057881	0.15447	0.057107	0.074164	0.11989	0.099684	0.10048	0.062417	0.2297	0.084962	0.16174	0.27286	0.17699	0.096733	0.063543	0.021616	-3.0854	-3.2375	-4.1188	-3.1979	-3.7313	-3.9333	-3.0958	-4.0479	-3.625	-3.2375	-4.1562	-3.3063	-3.5167	-3.9875	-3.0812	-3.8771	97.443	80.535	43.504	202.179	189.001	83.814	218.916	-19.296	241.701	-64.156	186.573	213.184	264.914	183.589	190.889	257.320	5.6387e-05	0.00025165	6.6832e-05	237.07	3.8446e-06	2.0078e-06	347.26	63.381	2.4903e-06	6.0292e-06	95.999	28.76	13.848	3.6516	3.1588e-06	8.0517	0.00062516	0.00098767	0.00026735	210.11	1.0278e-05	1.1003e-05	303.67	56.351	9.8624e-06	1.116e-05	85.748	25.981	13.217	3.4402	9.9983e-06	7.3098	-44.143	102.806	51.095	-69.082	60.535	99.354	-70.369	-63.438	162.887	3.584	-65.552	-60.549	-58.017	-55.996	247.217	-58.561	-8191	255	
2279.157	1	1	0	0	0.09062	0.13358	0.14741	0.37824	0.12577	0.116	0.18823	0.39509	0.21338	0.1502	0.1323	0.088673	0.10909	0.020136	0.16878	0.1813	-3.2562	-3.2646	-4.0437	-3.325	-3.4688	-3.8417	-3.3063	-3.9813	-3.7854	-3.1562	-4.2083	-3.3958	-3.475	-4.0542	-3.3333	-3.8896	266.563	107.283	226.448	185.127	246.288	177.814	27.909	197.970	237.866	237.330	93.031	-27.132	39.287	49.578	151.977	-32.930	3.0467e-05	0.0002611	7.8448e-05	236.11	1.339e-06	3.1596e-06	341.4	62.554	4.0432e-06	2.7439e-06	96.789	28.569	13.996	3.7536	3.04e-06	8.0712	0.0006024	0.00097681	0.0002729	209.33	1.0205e-05	1.0637e-05	302.02	55.948	9.7904e-06	1.1094e-05	86.216	26.054	13.366	3.4643	9.8064e-06	7.3829	-20.282	220.476	238.498	-69.130	278.777	215.238	-69.512	-62.993	237.321	139.556	-65.314	-61.699	-58.016	-55.851	115.068	-59.072	-8191	255	
2279.254	1	1	0	0	0.14607	0.052641	0.20328	0.16976	0.47259	0.21208	0.12949	0.16945	0.18852	0.049265	0.22396	0.24381	0.074264	0.17414	0.24536	0.084462	-3.5917	-3.1	-4.125	-3.5833	-3.4979	-4.1729	-3.2771	-3.8854	-3.8354	-3.1646	-4.1729	-3.5458	-3.2812	-4.1521	-3.2438	-3.7771	60.972	184.973	201.052	11.032	-75.548	-51.511	-47.771	261.599	166.719	209.869	259.141	-68.215	255.443	180.741	-11.061	199.067	5.8179e-05	0.00055362	0.00010277	235.42	3.6045e-06	3.2875e-06	346.62	62.788	4.0071e-06	4.3324e-06	97.659	28.918	13.822	3.6918	5.0379e-06	8.1665	0.00061256	0.00097771	0.00026771	208.28	1.0185e-05	1.089e-05	302.51	56.08	9.5774e-06	1.1284e-05	86.715	26.216	13.266	3.4694	1.0337e-05	7.4405	223.889	274.048	-63.234	-69.207	255.514	264.486	-70.021	-62.446	89.194	95.705	-65.691	-61.339	-58.853	-56.164	-48.300	-58.137	-8191	255	
2279.350	1	1	0	0	0.09907	0.33233	0.17294	0.15166	0.037219	0.10925	0.012647	0.17043	0.12274	0.33804	0.21837	0.18118	0.09721	0.23473	0.20089	0.16501	-3.6083	-3.1625	-4.0521	-3.6312	-3.1708	-4.0792	-3.4458	-3.7229	-3.9604	-3.2125	-4.0062	-3.7292	-3.25	-4.0229	-3.2604	-3.4979	-70.568	1.573	57.596	1.531	2.453	-73.646	-34.683	112.892	209.342	-53.740	174.489	191.258	47.497	1.096	180.835	236.514	5.1344e-05	5.0721e-05	3.6279e-05	235.04	3.2052e-06	3.2815e-06	345.88	62.406	1.2995e-06	1.3757e-06	97.369	28.91	13.972	3.7234	1.1337e-06	8.136	0.0006201	0.0009632	0.00027213	208.93	1.0132e-05	1.0736e-05	304.56	55.921	9.9284e-06	1.1071e-05	86.959	26.262	13.271	3.4978	1.0495e-05	7.4184	-5.511	268.555	-65.794	-68.534	103.778	30.208	-69.875	-62.687	153.267	150.028	-64.868	-61.194	-56.639	-54.675	90.953	-57.774	-8191	255	
2279.446	1	1	0	0	0.15118	0.064567	0.20611	0.063837	0.2193	0.11075	0.21485	0.040924	0.11602	0.13794	0.10836	0.123	0.17652	0.14287	0.36915	0.24511	-3.8979	-3.2125	-3.9521	-3.8438	-3.1375	-4.1479	-3.2687	-3.5229	-4.2354	-3.2271	-3.9021	-3.9	-3.0771	-4.1146	-3.5062	-3.3271	-74.633	5.909	256.385	36.422	200.979	25.548	227.836	64.967	180.548	171.959	251.401	-25.677	113.094	233.029	83.442	153.400	6.8143e-06	0.00046754	0.00010783	236.86	2.7867e-06	2.2994e-06	346.72	62.803	2.6028e-06	4.2931e-06	97.106	28.847	14.167	3.6874	4.2051e-06	8.0201	0.0006215	0.00098171	0.00027009	209.42	1.0218e-05	1.0567e-05	301.66	56.171	9.4881e-06	1.0836e-05	86.571	26.036	13.185	3.4469	1.0201e-05	7.3609	212.886	-35.652	207.962	-69.487	93.622	79.172	-69.723	-62.294	273.017	130.085	-66.055	-61.031	-58.329	-55.928	125.952	-57.642	-8191	255	
2279.542	1	1	0	0	0.050146	0.19257	0.20484	0.11251	0.018445	0.10548	0.16522	0.26287	0.11853	0.066144	0.15385	0.17911	0.14736	0.19113	0.14329	0.27687	-3.7583	-3.2375	-3.7	-3.9667	-3.0333	-4.0521	-3.4229	-3.2938	-4.1625	-3.2458	-3.6937	-4.0229	-3.0542	-4.0625	-3.5104	-3.2521	37.798	213.641	-63.876	6.039	170.811	203.241	211.820	190.061	-16.205	-52.656	165.306	197.119	127.505	-28.330	253.959	-56.098	1.8257e-05	0.00010964	7.209e-05	232.96	2.2874e-06	7.4355e-07	344.39	63.041	1.7912e-06	3.3941e-06	97.013	28.715	13.901	3.6308	4.391e-06	8.0922	0.00061177	0.00098136	0.00027132	208.13	1.0013e-05	1.0629e-05	300.73	55.959	9.6383e-06	1.1206e-05	86.54	25.972	13.233	3.4408	1.035e-05	7.4093	229.666	190.175	100.356	-69.169	273.250	5.394	-69.413	-62.575	244.829	107.943	-65.019	-60.618	-57.381	-54.645	134.735	-58.417	-8191	255	
2279.663	1	1	0	0	0.20161	0.15194	0.11672	0.2357	0.089906	0.097073	0.23918	0.15344	0.025164	0.082715	0.030048	0.20605	0.24556	0.2581	0.022982	0.1388	-3.8729	-3.3458	-3.6875	-4.0646	-3.0375	-3.9292	-3.8167	-3.275	-4.1813	-3.4667	-3.5542	-3.9896	-3.1688	-3.9875	-3.7854	-3.225	178.686	166.527	60.565	236.950	253.252	11.469	124.544	241.467	248.537	35.662	149.350	131.509	67.256	202.169	-19.525	118.432	2.9474e-05	0.00011102	2.7811e-05	234.72	2.3406e-06	4.3012e-06	346.24	62.906	4.2485e-06	2.512e-06	96.613	28.881	13.984	3.769	2.431e-06	8.1537	0.00061234	0.00097335	0.00027389	208.46	1.0175e-05	1.0781e-05	302.51	55.887	9.8931e-06	1.1529e-05	86.67	26.063	13.376	3.4888	1.0466e-05	7.4689	240.912	144.419	-19.505	-68.961	62.639	56.139	-69.957	-62.599	226.872	211.346	-65.470	-61.013	-57.686	-54.501	174.986	-58.494	-8191	255	
2279.757	1	1	0	0	0.20357	0.18016	0.19189	0.13134	0.038454	0.17773	0.13108	0.076783	0.26979	0.21115	0.19597	0.14558	0.18103	0.20963	0.16183	0.16536	-3.6583	-3.5625	-3.3292	-4.0188	-3.2167	-3.8542	-3.8208	-3.1979	-4.1146	-3.5333	-3.325	-4.0833	-3.1937	-3.9229	-3.8979	-3.1958	-0.548	83.936	-61.186	232.798	171.137	-69.829	160.787	156.942	70.374	-70.780	59.982	149.484	-41.960	-66.506	-15.358	-24.616	1.1745e-05	0.00015305	9.7777e-05	235.29	3.0094e-06	2.2198e-06	345.33	63.54	3.1886e-06	2.7846e-06	97.908	28.707	13.915	3.742	4.3313e-06	8.2596	0.00061332	0.00097214	0.00026995	209.62	1.0138e-05	1.0851e-05	303.53	56.304	9.9508e-06	1.093e-05	87.184	26.03	13.319	3.4647	1.0089e-05	7.4906	91.938	48.961	153.554	-69.233	81.469	82.587	-70.366	-63.709	205.070	173.036	-65.720	-61.305	-58.827	-55.795	90.281	-58.286	-8191	255	
2279.853	1	1	0	0	0.038791	0.058258	0.10293	0.15264	0.1635	0.037999	0.16327	0.15599	0.038057	0.22677	0.3001	0.12317	0.26847	0.08957	0.17263	0.18607	-3.4938	-3.4062	-3.325	-4.2354	-3.2458	-3.7125	-3.925	-3.2062	-4.05	-3.7438	-3.3292	-4.1104	-3.2292	-3.5917	-3.9104	-3.1896	177.095	136.840	50.206	73.834	182.884	53.928	275.113	84.357	245.072	59.128	200.663	230.477	126.978	116.162	247.673	62.052	2.8246e-05	0.00040242	0.00015138	233.36	7.1481e-07	3.238e-06	344.6	62.833	2.7495e-06	1.6094e-06	96.937	28.772	13.986	3.7346	1.5859e-06	8.2691	0.00060456	0.00095798	0.00027479	207.74	1.033e-05	1.0647e-05	302.55	56.159	9.8618e-06	1.0942e-05	86.253	25.927	13.247	3.4761	1.0151e-05	7.4582	-42.779	14.698	145.949	-69.097	-80.740	67.711	-69.638	-63.913	237.477	-60.036	-65.312	-61.581	-57.868	-55.413	236.479	-59.404	-8191	255	
2279.927	1	1	0	0	0.20362	0.046606	0.26628	0.10691	0.19492	0.065134	0.25783	0.16735	0.18001	0.25686	0.065686	0.068292	0.22153	0.18004	0.1782	0.166	-3.7792	-3.7188	-3.3187	-4.0708	-3.3208	-3.6521	-4.125	-3.1167	-3.9229	-3.8604	-3.0375	-4.2271	-3.3542	-3.4458	-4.1125	-3.1958	131.930	76.463	140.780	149.022	98.269	47.648	238.875	19.067	129.486	106.104	22.962	257.510	274.502	195.721	-60.616	89.523	4.843e-05	0.00048622	6.7806e-05	237.38	5.2835e-06	2.1768e-06	341.93	62.762	2.526e-06	6.9814e-06	96.498	28.366	14.387	3.7716	1.2196e-06	8.0324	0.00061218	0.0010078	0.00026813	209.56	1.0555e-05	1.053e-05	300.16	56.057	9.5444e-06	1.1018e-05	86.667	25.831	13.471	3.4956	1.0279e-05	7.408	235.369	100.432	-62.458	-68.885	82.957	180.605	-70.051	-62.394	176.346	75.108	-65.426	-60.641	-59.169	-55.108	-51.299	-58.239	-8191	255	
2280.045	1	1	0	0	0.056214	0.063408	0.27608	0.072141	0.24167	0.066502	0.091402	0.34474	0.15008	0.11542	0.10177	0.11683	0.05746	0.17653	0.18739	0.053571	-3.3625	-3.9313	-3.2208	-3.9938	-3.4729	-3.5042	-4.1458	-3.3583	-3.7646	-3.9708	-2.9083	-3.9979	-3.6333	-3.5167	-3.9625	-3.3083	-59.711	191.271	64.565	182.865	76.702	90.808	230.496	276.363	-53.665	-30.654	-48.196	225.427	130.028	92.329	167.078	58.583	7.4654e-05	0.00010947	0.00010323	238.37	4.0733e-06	1.4779e-06	342.51	62.757	4.2048e-06	2.0163e-06	97.935	28.783	14.119	3.699	2.354e-06	8.2679	0.00061536	0.00095824	0.00026901	209.98	9.7417e-06	1.0782e-05	302.02	56.005	9.694e-06	1.0723e-05	87.125	26.015	13.377	3.4842	9.9114e-06	7.4896	-53.156	49.280	-81.625	-68.145	143.856	139.796	-70.923	-64.255	261.400	205.763	-65.473	-62.038	-59.215	-56.181	139.649	-60.026	-8191	255	
2280.142	1	1	0	0	0.095469	0.20181	0.12142	0.033438	0.082606	0.07779	0.031894	0.04099	0.094146	0.053676	0.17547	0.018	0.09428	0.18143	0.22341	0.066167	-3.4917	-3.9479	-3.075	-3.9229	-3.5938	-3.2521	-3.9625	-3.1958	-3.6521	-3.9062	-3.1917	-3.9021	-3.6229	-3.0812	-4.0354	-3.3812	232.088	159.096	-39.767	-31.319	224.536	141.142	251.772	-80.393	-5.743	257.528	-26.718	232.633	-61.516	179.862	-62.740	-22.847	2.4719e-05	0.00033005	3.2985e-05	237.6	4.4592e-06	2.6962e-06	345.05	62.66	4.1271e-06	5.2051e-06	97.809	28.632	14.155	3.7541	2.2206e-06	8.0708	0.0006166	0.00096996	0.00027467	209.21	9.7778e-06	1.0456e-05	301.57	56.151	9.676e-06	1.074e-05	87.382	25.929	13.339	3.4859	1.0058e-05	7.46	241.914	-3.418	187.476	-70.076	-14.431	-78.609	-71.034	-64.055	214.006	108.203	-67.313	-61.339	-60.430	-57.486	145.874	-60.067	-8191	255	
2280.238	1	1	0	0	0.060069	0.073305	0.063681	0.16024	0.24631	0.1359	0.024589	0.15227	0.28258	0.13337	0.073693	0.040048	0.26362	0.059522	0.21795	0.048454	-3.0542	-3.8438	-3.0958	-3.8792	-3.8833	-3.1625	-3.9708	-3.2583	-3.4875	-3.8917	-3.1479	-3.8042	-3.8125	-3.0271	-4.1104	-3.5646	82.953	259.716	38.691	174.256	260.526	104.384	-47.881	102.243	102.650	248.318	79.854	137.654	180.713	-18.511	113.228	243.946	2.0037e-05	0.00028739	5.5198e-05	233.25	2.2175e-06	3.5151e-06	342.28	62.941	1.9999e-06	4.4471e-06	97.243	28.141	14.09	3.7188	1.6095e-06	8.1156	0.00061507	0.00092996	0.00026217	208.38	9.9614e-06	1.0725e-05	300.97	56.15	9.6226e-06	1.0566e-05	86.086	25.601	13.321	3.4948	9.8698e-06	7.4403	213.702	-27.890	89.411	-69.927	5.795	123.095	-70.957	-64.351	250.027	-62.513	-66.310	-62.464	-59.331	-55.235	54.109	-60.630	-8191	255	
2280.334	1	1	0	0	0.14822	0.18964	0.23913	0.088086	0.26849	0.18113	0.14363	0.1608	0.039934	0.18922	0.11674	0.23631	0.12009	0.23383	0.035544	0.054384	-2.9208	-4.2292	-3.0833	-3.7021	-3.9146	-3.0396	-4.0208	-3.5167	-3.2104	-3.9792	-3.0896	-3.5917	-4.0437	-3.1	-3.9208	-3.6646	161.123	51.138	113.529	203.001	-46.863	-21.145	-68.410	147.101	252.699	-4.484	-77.064	-58.346	-45.046	-37.638	258.492	-18.149	7.4666e-05	0.00022122	0.00013012	236.49	1.6806e-06	2.2192e-06	344.17	63.047	2.133e-06	3.919e-06	95.902	28.719	14.405	3.7288	2.6577e-06	8.1203	0.00061462	0.00094434	0.00026962	208.97	9.9143e-06	1.0915e-05	300.52	56.338	9.554e-06	1.0632e-05	86.314	25.978	13.372	3.4922	1.018e-05	7.4171	268.971	231.164	-11.811	-69.224	66.392	180.408	-71.199	-64.229	30.375	40.103	-66.339	-62.336	-59.364	-56.464	163.993	-58.856	-8191	255	
2280.455	1	1	0	0	0.20492	0.037121	0.047967	0.21809	0.10462	0.11923	0.19699	0.068717	0.079961	0.22578	0.20553	0.14674	0.24611	0.11478	0.15655	0.052243	-2.8958	-4	-3.0583	-3.6104	-3.9062	-3.275	-4.0417	-3.6729	-3.3187	-3.9854	-3.4292	-3.4896	-3.9854	-3.1562	-3.9958	-3.8583	199.796	73.903	267.871	209.613	242.606	122.543	111.256	227.949	162.945	124.177	-30.357	-66.009	54.718	142.968	-18.183	250.932	2.6981e-05	0.00045755	3.272e-05	233.18	3.2315e-06	3.0639e-06	342.64	62.554	3.1933e-06	3.7695e-06	95.814	28.321	13.982	3.7598	3.2165e-06	8.2267	0.00061624	0.00096263	0.00027255	208.4	1.0044e-05	1.0979e-05	302.17	56.4	1.007e-05	1.0927e-05	86.371	25.904	13.215	3.516	1.0379e-05	7.4773	93.356	193.993	94.439	-69.988	148.032	69.054	-70.673	-64.154	-81.125	17.098	-66.415	-63.175	-59.912	-56.602	85.481	-59.530	-8191	255	
2280.526	1	1	0	0	0.11592	0.1373	0.1136	0.071834	0.12099	0.12824	0.1056	0.026392	0.09593	0.20568	0.21905	0.24921	0.084572	0.13533	0.13745	0.18847	-2.9521	-3.9354	-3.2667	-3.3958	-4.0396	-3.2313	-4.0458	-3.7479	-3.1833	-3.9604	-3.3646	-3.3646	-4.0062	-3.1354	-3.8312	-3.825	263.400	153.207	-42.637	64.244	-27.579	133.719	148.463	-38.901	97.339	208.439	140.232	48.877	261.575	-23.692	228.037	216.334	5.455e-06	0.00026908	0.0001167	235.25	1.1723e-06	5.8586e-06	342.83	63.086	2.0906e-06	3.079e-06	96.032	28.561	14.449	3.6967	4.4436e-06	8.1576	0.00063306	0.00097563	0.00027547	207.91	1.0236e-05	1.0913e-05	301.76	56.163	9.9123e-06	1.086e-05	85.996	25.864	13.453	3.4745	1.0354e-05	7.4376	-33.072	231.935	-22.404	-70.783	-10.198	-27.409	-70.703	-64.060	219.893	21.452	-67.069	-62.087	-60.323	-56.540	99.933	-59.517	-8191	255	
2280.622	1	1	0	0	0.21102	0.14827	0.145	0.19602	0.27038	0.14935	0.02369	0.051746	0.30274	0.074134	0.16654	0.090709	0.097798	0.14611	0.11255	0.19438	-3.025	-3.8917	-3.4521	-3.3083	-4.1021	-3.3042	-3.7458	-4.0292	-3.2562	-3.8812	-3.5792	-3.1583	-4.0687	-3.1708	-3.4792	-4.0354	145.843	238.389	40.833	222.264	120.904	259.563	17.057	62.944	87.816	37.815	164.301	1.486	-4.563	214.707	37.896	84.889	2.7906e-05	0.00023857	0.00017362	234.3	4.8496e-06	3.959e-06	342.01	62.308	5.182e-06	4.2222e-06	96.754	28.479	13.924	3.6582	3.0965e-06	8.0755	0.00060744	0.00096477	0.00026438	208.79	9.9554e-06	1.0553e-05	299.21	56.137	9.7683e-06	1.0521e-05	86.576	25.842	13.169	3.4412	1.0066e-05	7.3943	-22.725	-56.890	-79.054	-70.304	97.709	149.650	-70.456	-64.493	125.229	150.167	-66.828	-62.179	-58.814	-55.876	114.820	-59.660	-8191	255	
2280.743	1	1	0	0	0.10961	0.059578	0.21571	0.23419	0.065248	0.15476	0.069471	0.17099	0.31672	0.18867	0.20349	0.21503	0.10652	0.1058	0.22259	0.073883	-2.7958	-3.9354	-3.6708	-3.2313	-4.0188	-3.2521	-3.6813	-4.0917	-3.1521	-3.8792	-3.6813	-3.3021	-4.0271	-3.2313	-3.5021	-3.9896	129.563	192.272	220.234	112.196	49.957	-49.921	217.901	108.239	183.676	139.784	148.145	267.817	108.586	46.399	148.365	130.635	6.3681e-05	0.0002108	7.5403e-05	233.44	3.6657e-06	4.457e-06	343.86	62.418	1.874e-06	2.4127e-06	96.857	28.67	14.425	3.7388	1.0214e-06	8.152	0.00062095	0.00095068	0.00026644	207.99	1.0038e-05	1.1057e-05	300.57	55.985	9.7042e-06	1.0854e-05	86.76	25.85	13.341	3.4885	9.8816e-06	7.4682	-24.278	142.070	-70.538	-69.630	84.226	78.073	-70.626	-64.086	172.973	132.407	-66.351	-62.009	-59.613	-56.257	215.740	-59.461	-8191	255	
2280.839	1	1	0	0	0.077179	0.17341	0.24681	0.12122	0.016913	0.11664	0.30469	0.35379	0.25926	0.12508	0.086336	0.16759	0.073855	0.026482	0.19265	0.11553	-2.7417	-3.7229	-3.8271	-2.9917	-3.9729	-3.3063	-3.3333	-4.1562	-3.0208	-3.6792	-3.8396	-3.1792	-4.0292	-3.4583	-3.2083	-4.0896	135.406	-22.981	13.242	270.753	-56.084	61.089	-67.610	202.109	-50.537	-71.427	-28.320	222.414	17.084	224.184	-46.867	128.622	2.4886e-05	0.00027644	1.7341e-05	232.66	5.1995e-06	3.395e-06	340.34	62.862	5.9701e-07	3.4205e-06	97.62	28.51	14.095	3.7928	4.5164e-06	8.2289	0.00061111	0.00096496	0.00027184	208.04	1.0253e-05	1.0524e-05	301.49	56.3	1.0259e-05	1.0627e-05	86.941	25.775	13.326	3.51	9.9101e-06	7.5534	50.311	74.818	-24.762	-69.740	56.571	32.113	-70.723	-63.479	-15.054	-52.378	-66.099	-61.455	-59.690	-56.694	95.039	-59.290	-8191	255	
2280.934	1	1	0	0	0.29132	0.29672	0.12384	0.17896	0.066433	0.19391	0.097528	0.21219	0.11199	0.14593	0.1807	0.20132	0.11789	0.073205	0.12694	0.14432	-2.7938	-3.6646	-3.8979	-3.1792	-3.9938	-3.5354	-3.4562	-4.1333	-3.1104	-3.5917	-3.9896	-3.2667	-3.9854	-3.575	-3.2708	-4.0104	235.794	133.701	37.165	171.349	114.304	235.502	265.377	-64.808	-11.231	243.541	250.373	270.408	163.596	0.873	-79.770	101.720	8.6162e-06	0.0003414	4.3915e-05	232.16	4.6294e-07	1.1961e-06	344.89	63.321	2.4405e-06	1.5838e-06	97.311	28.254	14.201	3.7535	1.2379e-06	8.0559	0.00062604	0.00096714	0.00026813	207.77	1.0027e-05	1.08e-05	301.79	56.279	9.5774e-06	1.0953e-05	86.38	25.746	13.337	3.4808	1.0129e-05	7.415	251.007	-10.281	236.322	-69.304	60.236	42.971	-70.672	-63.878	222.195	-13.035	-65.768	-61.551	-58.796	-55.917	52.117	-59.867	-8191	255	
2281.031	1	1	0	0	0.082438	0.1152	0.059377	0.1527	0.14024	0.12547	0.050198	0.19515	0.20894	0.18061	0.022508	0.18776	0.10912	0.095832	0.20771	0.13491	-3.1208	-3.4062	-4.1021	-3.2146	-3.9125	-3.75	-3.1375	-4.1625	-3.2875	-3.3729	-4.1292	-3.1625	-3.5958	-3.7208	-3.2292	-3.9708	180.317	29.062	28.478	97.331	3.691	164.506	-19.183	191.322	141.783	45.704	74.926	0.571	82.583	207.605	-16.570	156.959	2.2564e-05	0.00013473	0.00015431	235.78	1.9646e-06	3.7161e-06	342.78	62.747	1.4051e-06	2.9853e-06	95.638	28.247	13.994	3.636	1.7741e-06	8.0913	0.0006053	0.00097941	0.00027271	208.17	9.8726e-06	1.0813e-05	300.71	56.269	9.6568e-06	1.0837e-05	85.49	25.622	13.247	3.4347	1.0476e-05	7.3596	161.612	151.442	174.951	-69.974	253.126	31.096	-70.826	-63.497	44.426	-17.674	-66.746	-62.300	-59.511	-56.613	-46.298	-59.283	-8191	255	
2281.150	1	1	0	0	0.0087434	0.090632	0.4506	0.13338	0.11051	0.17745	0.19944	0.15642	0.32621	0.061726	0.14315	0.13843	0.13911	0.15731	0.3276	0.13617	-2.9792	-3.3292	-4.0896	-3.0771	-3.7938	-3.9792	-3.1667	-3.9896	-3.4146	-3.3979	-4.1146	-3.1354	-3.6917	-3.9562	-3.1292	-4.2104	275.462	156.882	143.691	111.768	13.469	-69.345	224.312	236.396	179.630	-54.608	259.546	86.608	172.047	35.767	90.815	154.250	1.4664e-05	6.0224e-05	3.6194e-05	233.6	4.076e-06	1.9108e-06	343.38	62.82	3.1573e-06	1.792e-06	97.018	28.243	13.828	3.7188	1.5857e-06	8.1822	0.0006282	0.00097877	0.00027156	207.4	1.0064e-05	1.0992e-05	301	56.401	9.7487e-06	1.0845e-05	86.649	25.712	13.304	3.4808	1.0195e-05	7.4396	173.694	165.224	116.212	-70.214	117.438	-74.813	-70.461	-63.918	99.104	45.066	-66.589	-61.313	-58.173	-56.337	63.481	-58.294	-8191	255	
2281.222	1	1	0	0	0.22889	0.13273	0.11927	0.33702	0.12687	0.26061	0.35265	0.10941	0.22929	0.085096	0.12724	0.091958	0.27586	0.1726	0.050469	0.30976	-3.3375	-3.1458	-4.1521	-3.3396	-3.4813	-4.0104	-3.1854	-3.85	-3.5771	-3.1896	-3.9396	-3.325	-3.4083	-4.1604	-3.2687	-3.8896	124.927	198.669	208.856	232.585	145.933	232.294	157.438	-52.569	27.224	141.587	50.439	65.726	39.651	62.407	145.470	239.227	5.2822e-05	0.00030405	8.0759e-05	235.19	1.9565e-06	2.5194e-06	341.98	62.311	3.698e-06	2.4829e-06	97.432	28.822	14.027	3.7625	2.3909e-06	8.3509	0.00062244	0.00097848	0.00027341	208.66	1.0213e-05	1.047e-05	301.74	56.006	1.0063e-05	1.0723e-05	86.926	26.175	13.273	3.5002	9.8044e-06	7.5059	273.459	107.823	21.745	-69.609	-32.406	6.734	-70.091	-63.431	-54.544	49.647	-66.378	-62.552	-58.539	-56.156	88.483	-58.662	-8191	255	
2281.343	1	1	0	0	0.06385	0.15641	0.13096	0.14699	0.35591	0.13641	0.11292	0.14372	0.24268	0.40588	0.054364	0.18273	0.17695	0.15374	0.045494	0.091679	-3.4208	-3.2604	-4.0958	-3.2646	-3.275	-4.1021	-3.0375	-3.8021	-3.7458	-3.1646	-4.0563	-3.4854	-3.2583	-4.2271	-3.225	-3.8604	100.308	-56.515	-11.256	-62.402	42.647	97.976	-15.906	224.158	7.925	165.459	277.612	140.437	28.676	-52.183	150.044	230.465	3.9756e-05	0.00050258	2.6146e-05	233.79	1.7015e-06	2.2733e-06	344.57	62.807	1.9751e-06	3.5069e-06	97.07	28.466	14.436	3.6776	4.0621e-06	8.0762	0.00060293	0.00097162	0.0002691	208.13	1.0236e-05	1.09e-05	301.61	56.242	9.5076e-06	1.0636e-05	86.04	25.921	13.442	3.4597	9.9775e-06	7.3617	-79.136	-81.258	21.362	-69.676	145.041	99.825	-70.676	-63.564	-49.365	215.781	-66.318	-61.895	-58.011	-55.746	-52.020	-58.609	-8191	255	
2281.439	1	1	0	0	0.21182	0.081736	0.12325	0.12692	0.16343	0.024238	0.25817	0.1151	0.18927	0.14003	0.16883	0.081379	0.12831	0.12993	0.13701	0.031319	-3.3521	-3.2021	-3.9354	-3.5146	-3.1896	-4.125	-3.2667	-3.7062	-4.0021	-3.2	-4.0729	-3.5812	-3.2896	-4.0896	-3.1104	-3.7146	54.187	188.588	256.182	83.171	78.441	88.933	235.221	128.823	124.772	-44.362	80.148	3.888	141.572	213.975	278.255	-54.224	3.9089e-05	0.00041991	0.00011631	229.53	2.9209e-06	1.9951e-06	343.11	63.053	4.4222e-06	1.6317e-06	97.134	28.276	14.064	3.7008	4.7499e-06	7.9666	0.00059999	0.00098293	0.00027425	207.04	9.7702e-06	1.0662e-05	300.48	56.212	9.6344e-06	1.1214e-05	86.15	25.644	13.162	3.4309	1.0328e-05	7.358	173.951	175.381	-7.755	-69.943	-12.067	236.186	-70.277	-63.423	10.639	84.323	-66.231	-61.415	-58.430	-56.043	78.191	-59.553	-8191	255	
2281.535	1	1	0	0	0.045958	0.051749	0.1645	0.18463	0.22909	0.21766	0.16953	0.24735	0.13982	0.24125	0.0869	0.19649	0.23833	0.29222	0.074601	0.055051	-3.6229	-3.2125	-3.7729	-3.7333	-3.2521	-4.2292	-3.2979	-3.4729	-4.0021	-3.1083	-3.9292	-3.8167	-3.1063	-4.0979	-3.4458	-3.4062	40.763	125.765	51.216	156.924	-52.161	16.412	-38.250	-60.309	274.957	27.092	145.209	147.432	253.579	175.569	241.000	163.519	5.4419e-05	4.3524e-05	0.0001172	233.58	3.7224e-06	2.3549e-06	345.18	63.023	4.9833e-06	2.3284e-06	97.449	28.685	14.343	3.6888	5.1651e-06	8.0377	0.00060044	0.00097733	0.00027336	208.47	1.0412e-05	1.079e-05	302.13	56.115	9.6546e-06	1.1105e-05	86.955	25.906	13.302	3.4737	1.0143e-05	7.4054	-65.562	94.084	15.859	-69.224	-68.142	117.236	-71.580	-63.714	163.779	268.789	-66.133	-62.121	-57.803	-55.499	67.017	-58.430	-8191	255	
2281.631	1	1	0	0	0.26447	0.14415	0.23697	0.36506	0.15581	0.16257	0.056794	0.13102	0.12519	0.09871	0.24421	0.22637	0.070505	0.22488	0.11114	0.21456	-3.6562	-3.1312	-3.8729	-3.6917	-3.0854	-4.0729	-3.4062	-3.5042	-4.0625	-3.3688	-3.7083	-3.9	-3.1146	-3.8875	-3.5521	-3.3646	-44.403	91.347	156.226	42.576	172.775	-44.830	-73.996	268.081	46.168	110.338	83.157	-52.254	203.657	91.233	161.730	248.692	6.3682e-05	9.96e-05	5.826e-05	234.8	9.7369e-07	2.5282e-06	343.69	63.503	1.774e-06	2.1119e-06	98.51	28.725	14.225	3.7341	2.5454e-06	8.2108	0.00062975	0.00094959	0.00028389	208.81	1.0244e-05	1.0798e-05	300.91	56.468	9.6357e-06	1.0737e-05	87.086	26.028	13.463	3.5014	1.0278e-05	7.4675	190.080	49.482	72.417	-69.227	13.061	28.088	-70.853	-63.719	49.329	271.604	-65.381	-61.579	-58.002	-55.473	-74.078	-58.823	-8191	255	
2281.727	1	1	0	0	0.02791	0.10435	0.088538	0.1361	0.31447	0.079893	0.23913	0.19953	0.17479	0.20497	0.26093	0.13916	0.27271	0.07051	0.16963	0.19893	-3.8792	-3.1729	-3.6521	-4.1	-3.1	-4.0042	-3.6583	-3.3542	-4.1542	-3.1896	-3.6583	-4.0042	-3.2229	-3.8521	-3.6625	-3.2521	109.074	206.878	173.338	113.964	20.577	29.082	152.049	164.605	265.745	173.340	220.595	156.641	161.926	243.520	110.137	140.438	3.0535e-05	0.00017679	9.7331e-05	235.86	4.1409e-06	1.1458e-06	342.17	62.599	2.5845e-06	2.6097e-06	97.37	28.396	14.363	3.631	4.3695e-06	8.0249	0.0006064	0.00096077	0.00027369	209.3	1.0149e-05	1.0945e-05	300.6	56.466	9.4567e-06	1.0778e-05	86.571	25.907	13.391	3.4355	9.9768e-06	7.3143	6.894	-4.390	13.202	-69.884	54.582	217.122	-70.985	-63.121	226.150	31.445	-66.148	-61.502	-58.937	-55.584	130.284	-58.564	-8191	255	
2281.823	1	1	0	0	0.066783	0.15347	0.22056	0.0664	0.10682	0.3838	0.033832	0.22975	0.12935	0.22112	0.16203	0.16659	0.052672	0.033754	0.11625	0.14881	-3.6333	-3.3458	-3.4313	-4.0208	-3.0833	-3.8917	-3.7854	-3.2875	-4.1813	-3.2708	-3.6521	-4.1021	-3.1083	-3.8292	-3.6958	-3.1729	129.624	206.671	222.785	223.827	37.374	-27.638	125.502	-28.688	-68.008	170.120	267.111	150.820	216.504	150.070	22.553	246.399	7.8513e-05	0.00051984	7.4112e-05	238.46	1.3102e-06	3.2422e-06	343.43	62.448	1.4723e-06	3.2799e-06	95.787	28.697	14.008	3.7636	2.0402e-06	8.0455	0.00063747	0.0009682	0.00027326	210.25	1.0309e-05	1.0516e-05	301.39	56.107	9.8144e-06	1.0795e-05	86.48	26.014	13.346	3.4941	9.8484e-06	7.3704	267.382	36.855	-16.394	-69.242	38.096	30.785	-70.109	-63.671	273.446	36.950	-66.064	-62.210	-58.529	-56.253	45.205	-58.791	-8191	255	
2281.920	1	1	0	0	0.18746	0.34099	0.20727	0.20737	0.098333	0.24182	0.10285	0.2864	0.12422	0.102	0.25191	0.086997	0.11221	0.21147	0.10701	0.20207	-3.7229	-3.3688	-3.3146	-4.1125	-3.1021	-3.6771	-3.975	-3.1542	-3.9271	-3.5312	-3.25	-4.1375	-3.1937	-3.8021	-3.9208	-3.1167	-30.512	101.851	135.401	189.119	-39.837	218.627	93.289	278.193	105.628	-26.692	-67.041	-51.156	69.421	80.959	92.520	3.616	5.3008e-05	9.1118e-05	0.00011608	233.9	2.9452e-06	4.6893e-06	344.52	63.425	4.7032e-06	4.3182e-07	97.221	28.656	14.472	3.7034	8.3351e-07	8.1166	0.00061295	0.00095779	0.00027398	207.87	1.0443e-05	1.0805e-05	303.35	56.368	9.823e-06	1.1195e-05	86.576	26.082	13.404	3.4623	1.0065e-05	7.3746	-45.702	242.680	-20.307	-69.509	86.364	146.562	-70.433	-63.659	47.354	-29.092	-65.413	-61.539	-57.759	-56.178	124.913	-59.625	-8191	255	
2282.014	1	1	0	0	0.196	0.10312	0.17187	0.23366	0.09564	0.29572	0.19827	0.27964	0.069674	0.1394	0.2477	0.17493	0.11393	0.13404	0.0684	0.31478	-3.6854	-3.4979	-3.3167	-4.0021	-3.2292	-3.4188	-3.9396	-3.0312	-3.8479	-3.6	-3.1667	-4.2438	-3.3854	-3.4042	-3.8646	-3.1708	69.758	200.225	-2.685	258.367	35.904	42.973	239.062	194.805	170.532	153.513	-20.346	250.618	64.222	124.128	-60.610	7.320	6.9645e-05	0.0003683	0.00010147	237.66	3.0577e-06	1.505e-06	347.66	63.431	1.2409e-06	3.4435e-06	97.29	28.883	14.096	3.6619	9.6232e-07	8.1969	0.00062377	0.0009576	0.00028635	210.42	9.9077e-06	1.1123e-05	304.98	56.668	9.5163e-06	1.0905e-05	86.957	26.189	13.483	3.4655	1.0295e-05	7.4292	-78.145	38.770	-2.567	-68.911	188.738	129.290	-70.314	-63.900	61.444	251.397	-66.239	-61.805	-58.464	-55.478	233.074	-58.966	-8191	255	
2282.112	1	1	0	0	0.10031	0.041072	0.1029	0.089056	0.1727	0.099031	0.28387	0.12043	0.13624	0.076368	0.01877	0.15684	0.21003	0.19539	0.14477	0.14247	-3.5083	-3.8146	-3.2083	-4.1333	-3.4083	-3.4771	-4.0771	-3.1708	-3.9188	-3.7479	-3.1646	-4.1188	-3.3292	-3.4167	-4.1583	-3.2542	35.889	189.040	219.445	135.756	87.537	205.632	245.477	228.733	-31.059	129.060	-15.512	-35.116	108.334	-67.698	229.480	-70.165	4.2508e-05	0.00014039	8.9031e-05	238.01	4.7559e-06	2.9777e-06	342.92	63.951	3.3745e-06	1.6242e-06	96.351	28.383	14.171	3.6619	1.0956e-06	7.8096	0.00062304	0.00097143	0.0002792	209.66	9.8935e-06	1.113e-05	303.13	56.598	9.9271e-06	1.0829e-05	86.621	25.857	13.401	3.4342	1.0065e-05	7.2337	252.084	16.864	176.215	-69.278	220.489	148.353	-70.358	-64.217	84.727	113.726	-66.175	-61.206	-59.411	-55.719	-9.491	-59.199	-8191	255	
2282.231	1	1	0	0	0.094916	0.16501	0.24596	0.18878	0.089771	0.25838	0.20712	0.16441	0.029526	0.038858	0.13496	0.072389	0.18675	0.21507	0.12348	0.083574	-3.3583	-3.975	-3.0708	-4.0458	-3.5479	-3.3646	-4.2021	-3.2375	-3.6312	-4.0062	-3.1833	-4.0854	-3.5187	-3.2458	-4.2104	-3.275	17.003	104.487	137.044	61.501	-54.064	272.193	-23.055	208.982	268.579	124.429	92.257	104.742	41.031	198.785	7.359	269.477	8.904e-06	0.00025432	7.431e-05	235.6	1.1698e-06	8.036e-07	345.84	62.474	1.5278e-06	2.6631e-06	97.296	28.834	14.036	3.7346	6.0608e-06	8.0548	0.00061689	0.00095122	0.00027175	209.55	9.973e-06	1.1021e-05	303.5	55.997	9.6629e-06	1.0941e-05	86.648	25.94	13.304	3.4717	1.0081e-05	7.3247	224.177	-50.269	242.324	-69.558	208.161	67.183	-70.260	-63.406	57.987	183.446	-65.755	-61.054	-59.393	-55.764	121.636	-58.295	-8191	255	
2282.327	1	1	0	0	0.046154	0.10207	0.099096	0.15001	0.25369	0.24885	0.11243	0.063922	0.12029	0.17356	0.19898	0.18137	0.22301	0.15523	0.09357	0.099437	-3.3	-3.9625	-3.1437	-3.9771	-3.5021	-3.2833	-4.1979	-3.3417	-3.5563	-4.1521	-3.2438	-3.875	-3.6708	-3.2562	-4.1	-3.5146	134.163	254.814	40.251	212.556	125.041	174.176	199.469	184.752	-79.080	-3.646	-24.782	75.338	118.796	52.822	-35.330	45.315	5.7852e-05	0.00015219	7.7757e-05	234.83	1.7557e-06	2.7507e-06	342.67	63.485	3.8628e-06	3.3272e-06	96.841	28.645	14.203	3.661	1.192e-06	8.1151	0.00061275	0.00095212	0.00027335	210.76	1.0518e-05	1.0732e-05	302.92	56.419	1.0144e-05	1.0747e-05	86.327	26.029	13.43	3.4623	1.0104e-05	7.3852	213.625	7.666	49.849	-69.314	271.877	78.413	-70.682	-63.358	165.817	37.388	-66.172	-61.294	-59.163	-55.500	-62.925	-58.944	-8191	255	
2282.423	1	1	0	0	0.076046	0.17142	0.11321	0.21058	0.1945	0.020542	0.061551	0.19619	0.14315	0.24924	0.11008	0.19417	0.19736	0.085376	0.031999	0.1844	-3.1312	-3.9562	-3.0583	-3.8708	-3.8146	-3.2583	-4.2688	-3.6292	-3.4271	-3.9813	-3.2104	-3.9729	-3.7708	-3.1854	-3.9604	-3.5417	128.801	189.405	14.840	112.397	3.111	239.352	42.857	47.319	112.068	66.702	21.254	258.250	-1.982	33.335	252.834	157.868	4.1281e-05	1.643e-05	6.7582e-05	235.26	6.152e-07	2.1501e-06	349.02	62.539	2.6216e-06	1.6522e-06	96.85	29.299	14.406	3.7144	2.2214e-06	8.121	0.00061197	0.00096535	0.00028101	210.06	1.0272e-05	1.1095e-05	305.25	56.134	1.0139e-05	1.119e-05	86.885	26.454	13.468	3.4766	9.9259e-06	7.4065	-75.082	154.935	245.874	-69.738	87.786	37.771	-70.212	-64.067	10.498	-25.868	-66.125	-61.365	-58.972	-56.034	36.340	-58.590	-8191	255	
2282.519	1	1	0	0	0.18631	0.1605	0.12738	0.24516	0.22494	0.082842	0.16461	0.15605	0.2602	0.16755	0.27904	0.045867	0.24173	0.065185	0.14008	0.066692	-2.8792	-4.1125	-3.3187	-3.7042	-3.9417	-3.2083	-4.0625	-3.6396	-3.15	-4.1792	-3.0938	-3.6896	-3.8167	-3.3521	-3.9083	-3.5625	24.526	108.707	-57.506	194.886	15.939	126.594	227.204	219.249	-31.710	-77.439	189.083	81.430	-45.519	63.904	191.187	164.033	4.8407e-05	0.00044059	2.6831e-05	235.11	1.0904e-06	5.533e-06	343.59	62.64	9.6788e-07	3.6277e-06	97.422	28.792	14.108	3.7179	3.5094e-06	7.9185	0.00062159	0.00099654	0.00027515	210.86	1.0601e-05	1.1113e-05	303.32	56.198	1.0151e-05	1.0638e-05	86.167	26.039	13.359	3.4565	1.0105e-05	7.2972	-26.151	45.463	3.289	-69.174	-17.536	153.484	-71.014	-63.589	147.837	-11.998	-65.900	-61.629	-58.348	-56.243	47.438	-58.540	-8191	255	
2282.615	1	1	0	0	0.22829	0.0911	0.1006	0.25891	0.14604	0.33061	0.063927	0.35609	0.23732	0.051904	0.13757	0.38653	0.20467	0.11483	0.23239	0.099923	-2.9292	-3.9729	-3.1979	-3.4521	-4.0312	-3.1333	-3.8292	-3.8063	-3.1667	-4.1083	-3.4125	-3.5771	-4.0458	-3.0042	-3.8646	-3.7458	-30.213	266.818	235.604	-64.753	9.117	108.856	22.716	276.308	-33.228	143.014	272.569	15.534	274.491	259.627	172.020	160.579	1.3461e-05	0.0003603	0.00011157	238.15	1.9659e-06	2.8473e-06	342.37	62.73	2.3974e-06	1.3185e-06	96.584	28.559	13.871	3.6262	8.9015e-07	7.9744	0.00062569	0.00099228	0.00027679	210.48	1.0499e-05	1.0758e-05	303.07	55.968	1.0007e-05	1.0513e-05	85.762	25.844	13.301	3.436	1.033e-05	7.3149	-58.975	48.931	29.062	-69.343	-9.324	192.559	-70.026	-63.887	50.156	193.957	-66.734	-61.941	-59.737	-54.686	177.116	-59.023	-8191	255	
2282.711	1	1	0	0	0.030188	0.015488	0.10904	0.14484	0.13764	0.097516	0.15953	0.071871	0.15812	0.01601	0.28411	0.1832	0.16035	0.074586	0.051306	0.092098	-2.7292	-3.9979	-3.4917	-3.3667	-4.0208	-3.2229	-3.7833	-3.8312	-3.1312	-4.0375	-3.6854	-3.3958	-3.9458	-3.0896	-3.775	-4.0375	146.182	233.515	268.917	-22.706	21.661	194.534	200.750	178.882	76.703	-64.980	46.577	245.659	39.814	213.762	171.280	-1.496	2.4972e-05	0.00048384	7.017e-05	235.32	4.4192e-06	9.0601e-07	344.28	62.282	1.0076e-06	1.1042e-06	97.102	28.933	14.134	3.6649	2.9812e-06	8.0834	0.00063263	0.00099167	0.00027486	210.83	1.0205e-05	1.0848e-05	304.73	56.119	9.791e-06	1.09e-05	86.215	26.222	13.433	3.4575	1.0235e-05	7.3745	259.932	87.938	132.163	-68.831	105.915	173.506	-70.407	-63.893	105.857	37.028	-66.223	-61.433	-58.949	-55.701	145.103	-58.107	-8191	255	
2282.832	1	1	0	0	0.11238	0.10525	0.08457	0.19178	0.11767	0.1335	0.11624	0.17938	0.26191	0.18156	0.078483	0.2939	0.1019	0.08464	0.052505	0.080709	-2.8208	-3.8708	-3.7438	-3.175	-4.1396	-3.2542	-3.7	-3.8417	-3.0458	-4.0958	-3.7875	-3.1271	-4.1771	-3.4292	-3.575	-3.9167	102.710	182.495	11.465	270.537	249.423	157.909	-9.607	-63.914	266.333	15.842	26.619	-49.743	136.416	155.692	277.157	172.529	5.4778e-05	0.00025937	5.9059e-05	237.79	4.5047e-06	3.3207e-06	348.2	63.019	1.0288e-06	2.1794e-06	97.043	28.697	14.532	3.7127	5.0352e-06	8.2304	0.00064135	0.00096038	0.00027638	210.43	1.0249e-05	1.092e-05	305.15	56.381	9.8182e-06	1.0858e-05	86.778	26.26	13.461	3.4717	1.0416e-05	7.396	219.574	219.281	90.036	-69.252	80.531	154.091	-70.062	-63.532	115.343	181.980	-65.662	-60.666	-59.145	-55.786	222.259	-58.910	-8191	255	
2282.926	1	1	0	0	0.13246	0.19713	0.074522	0.10046	0.17371	0.1077	0.036786	0.15541	0.22185	0.14382	0.10442	0.21076	0.096667	0.018361	0.18051	0.087536	-2.7313	-3.8792	-3.8271	-3.2729	-4.1333	-3.3729	-3.3604	-4.0708	-3.1208	-3.8104	-3.8229	-3.0792	-4.0875	-3.6125	-3.3812	-4.0979	162.563	-4.388	72.370	98.975	133.136	213.615	120.001	204.020	205.239	125.756	253.244	269.888	116.099	76.976	261.178	172.862	8.9652e-06	0.00029479	8.8357e-05	237.11	1.259e-06	3.6444e-06	344.25	63.126	5.3998e-06	1.7745e-06	96.468	28.559	14.075	3.684	3.9913e-06	8.1153	0.00061189	0.00095971	0.00027206	209.9	1.0299e-05	1.0757e-05	303.55	56.416	1.0061e-05	1.0481e-05	85.944	25.928	13.343	3.4467	1.0541e-05	7.2921	271.565	82.044	56.330	-69.012	109.708	276.558	-69.753	-63.780	121.539	88.111	-65.768	-61.805	-58.067	-56.334	157.381	-57.773	-8191	255	
2283.023	1	1	0	0	0.17759	0.056688	0.33433	0.1349	0.08734	0.078903	0.11441	0.12686	0.20099	0.097137	0.12237	0.17334	0.15666	0.18005	0.2767	0.032129	-2.9146	-3.8479	-3.8187	-3.0875	-3.9292	-3.4604	-3.4271	-3.9542	-3.4229	-3.6667	-3.8104	-3.0375	-3.9437	-3.4042	-3.1625	-4.1396	199.396	234.032	75.658	24.546	119.432	67.075	-34.577	-25.394	114.473	262.822	72.632	16.286	159.927	31.835	-33.319	123.812	2.6538e-05	0.00013578	9.0462e-05	235.79	3.6632e-06	3.9713e-06	347.45	63.045	1.5187e-06	3.7562e-06	97.52	28.438	14.328	3.7205	5.0016e-06	7.9619	0.00062455	0.00094946	0.00026771	209.69	9.8179e-06	1.1086e-05	304.57	56.224	9.7756e-06	1.0998e-05	86.412	25.955	13.323	3.4557	1.0111e-05	7.336	214.529	173.664	22.675	-68.743	234.409	69.479	-69.997	-63.712	31.850	132.332	-65.342	-60.832	-58.123	-56.086	186.180	-58.959	-8191	255	
2283.119	1	1	0	0	0.10714	0.09435	0.15571	0.28293	0.033475	0.36446	0.14296	0.050026	0.191	0.040431	0.22476	0.13955	0.097711	0.21966	0.20727	0.16718	-3.0479	-3.6083	-4.0833	-3.2646	-3.9083	-3.7333	-3.175	-4.1312	-3.275	-3.3646	-4.0687	-3.0146	-3.8667	-3.9521	-3.275	-4.0417	239.234	9.814	184.676	-8.517	34.035	197.275	56.677	7.704	153.672	4.955	236.057	-78.287	-71.748	16.084	157.039	193.043	4.7532e-05	0.00038397	4.9451e-05	236.43	2.8328e-06	3.5223e-06	346.71	63.468	1.7554e-06	3.9518e-06	97.755	28.862	14.235	3.7443	1.7252e-06	8.1405	0.00060911	0.00098373	0.00026097	210.12	1.0279e-05	1.0795e-05	305.25	56.378	1.0257e-05	1.0954e-05	86.495	26.177	13.441	3.48	1.0423e-05	7.3606	238.155	44.867	19.503	-69.120	177.318	164.530	-70.213	-62.915	264.282	82.874	-65.329	-60.280	-59.001	-54.598	203.398	-57.924	-8191	255	
2283.215	1	1	0	0	0.024401	0.25715	0.25141	0.1462	0.019918	0.062358	0.049919	0.035581	0.079812	0.089278	0.1072	0.18984	0.13235	0.18445	0.18037	0.083702	-2.9604	-3.425	-3.8812	-3.1458	-3.7146	-3.7167	-3.0625	-4.1271	-3.4437	-3.3333	-4.125	-3.0208	-3.6146	-3.7833	-3.0146	-4.1229	-34.451	141.084	125.676	236.021	47.381	79.082	151.805	-78.765	268.342	170.382	207.622	230.183	44.422	67.664	75.570	67.873	1.222e-05	0.00026804	3.4092e-05	237.89	6.0928e-06	5.9841e-06	347.6	63.594	1.4016e-06	4.2697e-06	97.334	29.257	14.087	3.729	1.5901e-06	8.0386	0.00063318	0.00097861	0.00027514	208.61	9.9885e-06	1.0987e-05	305.11	56.523	9.5364e-06	1.1094e-05	87.225	26.389	13.465	3.4906	1.0117e-05	7.366	169.307	88.919	173.101	-69.215	84.428	109.792	-70.432	-63.749	181.681	19.925	-65.789	-62.563	-59.104	-56.446	74.782	-58.985	-8191	255	
2283.311	1	1	0	0	0.25308	0.13162	0.38733	0.057697	0.23188	0.27607	0.10608	0.15861	0.17901	0.047329	0.27586	0.11753	0.1528	0.12134	0.16731	0.12948	-3.2938	-3.2438	-4.0167	-3.1479	-3.6521	-4.0437	-3.3667	-4.1125	-3.7	-3.3812	-4.2354	-3.2792	-3.4583	-4.0896	-3.0854	-3.8521	63.196	174.438	12.629	225.890	-59.907	-18.868	52.552	227.046	-6.544	-16.919	89.044	194.739	127.065	32.411	-47.291	243.439	2.886e-05	0.00029247	5.2957e-05	239.01	1.028e-06	1.6033e-06	348.2	63.342	1.4742e-06	4.6988e-06	96.937	28.71	13.938	3.6665	5.9315e-06	7.8967	0.00060121	0.00094744	0.00025577	210.43	1.0072e-05	1.0386e-05	305.48	56.34	9.684e-06	1.1117e-05	86.465	26.071	13.357	3.4414	9.9997e-06	7.2702	-48.853	33.519	265.892	-69.753	-14.866	-2.390	-70.773	-64.365	-79.841	-72.522	-65.995	-62.720	-58.693	-56.144	75.462	-59.641	-8191	255	
2283.407	1	1	0	0	0.10298	0.35266	0.05983	0.20371	0.1689	0.051474	0.13247	0.23028	0.2203	0.17619	0.30798	0.28446	0.0087097	0.042225	0.12488	0.22851	-3.1542	-3.3771	-4.1146	-3.3271	-3.5062	-3.8458	-3.0792	-4.0729	-3.8812	-3.1604	-3.9354	-3.3417	-3.4792	-3.8896	-3.1625	-3.8021	143.072	13.077	6.249	259.217	72.593	50.213	247.543	-35.176	-20.558	22.889	235.642	273.095	-75.407	67.793	214.650	-56.826	3.3135e-05	0.00041726	8.3839e-05	234.98	2.7655e-06	1.7819e-06	349.49	63.166	1.505e-06	4.3392e-06	96.651	28.993	14.517	3.8237	5.597e-06	8.1254	0.00062673	0.00096916	0.0002644	208.4	9.919e-06	1.0468e-05	305.85	56.456	9.5717e-06	1.0657e-05	86.617	26.151	13.468	3.4665	1.0222e-05	7.3852	150.247	-37.688	1.920	-69.879	123.946	-23.455	-70.467	-63.517	86.982	3.282	-66.771	-62.516	-58.398	-55.661	58.274	-59.261	-8191	255	
2283.528	1	1	0	0	0.23946	0.17752	0.078195	0.14114	0.31311	0.078376	0.14666	0.15272	0.13192	0.036019	0.2525	0.16469	0.078817	0.096902	0.28667	0.074731	-3.4	-3.1521	-4.0542	-3.4688	-3.3354	-3.9021	-3.0792	-3.7417	-3.8271	-3.2417	-4.0083	-3.4792	-3.3979	-4.1167	-3.1396	-3.7146	252.022	-6.808	55.691	174.855	190.695	140.535	272.011	229.509	214.656	151.907	189.150	10.293	24.247	182.179	101.738	-42.606	9.3576e-06	5.846e-05	2.9249e-05	236.89	5.1534e-06	5.3102e-06	345.1	62.73	1.7105e-06	2.9787e-06	97.672	29.034	14.229	3.706	3.3272e-06	8.0926	0.0006146	0.00099641	0.00027552	210.22	1.0301e-05	1.0841e-05	304.44	56.348	9.8384e-06	1.0869e-05	87.337	26.217	13.428	3.4322	1.0164e-05	7.4305	196.032	-57.323	56.884	-69.810	-1.079	256.235	-70.969	-63.638	-46.057	8.314	-65.993	-61.971	-60.025	-56.535	50.021	-58.962	-8191	255	
2283.624	1	1	0	0	0.18648	0.12026	0.074283	0.1198	0.23299	0.038688	0.048428	0.11116	0.15285	0.1152	0.15328	0.19385	0.24853	0.14594	0.13303	0.15805	-3.5646	-3.1458	-4.0062	-3.5	-3.2042	-3.9917	-3.4562	-3.6375	-3.9458	-3.2854	-3.9208	-3.6229	-3.1417	-4.0333	-3.3896	-3.5333	28.488	147.207	92.860	243.972	172.678	97.867	59.024	-18.436	132.701	255.008	72.993	34.899	185.058	13.106	94.496	260.803	2.5194e-05	7.6826e-05	0.00012662	238.34	2.2157e-06	4.5784e-06	347.61	63.314	3.1906e-06	4.1899e-06	98.476	29.487	14.476	3.7859	4.0501e-06	8.1949	0.00060458	0.00097553	0.00027159	210.31	1.0363e-05	1.0993e-05	306.15	56.65	9.807e-06	1.0755e-05	87.692	26.416	13.63	3.4741	9.9148e-06	7.4035	146.707	-10.623	99.768	-69.172	31.294	27.801	-70.804	-63.804	135.987	156.606	-65.965	-62.568	-59.516	-56.375	51.446	-58.885	-8191	255	
2283.696	1	1	0	0	0.10269	0.33925	0.12733	0.11825	0.12316	0.22243	0.14967	0.14935	0.16806	0.1293	0.13128	0.22081	0.15781	0.19916	0.093184	0.15814	-3.7104	-3.0917	-3.8354	-3.8333	-3.1688	-4.2292	-3.3354	-3.4938	-4.0375	-3.1979	-3.9708	-3.7958	-3.0667	-3.9938	-3.5229	-3.4896	247.732	137.305	60.654	265.072	216.918	203.113	187.013	65.078	31.788	206.558	-29.632	266.460	2.509	177.519	-1.417	142.229	7.7743e-05	0.00048052	5.506e-05	236.18	4.3836e-06	3.2039e-06	347.44	63.605	2.9835e-06	6.3733e-06	98.187	28.829	14.262	3.6444	3.4138e-06	8.1343	0.00060176	0.00098075	0.00026957	209.93	1.025e-05	1.0816e-05	306.09	56.584	9.7362e-06	1.0604e-05	87.122	26.172	13.545	3.4437	1.0183e-05	7.367	276.401	56.144	42.288	-70.013	84.462	234.104	-70.733	-63.460	67.285	64.741	-66.222	-62.460	-59.769	-56.500	96.281	-59.701	-8191	255	
2283.792	1	1	0	0	0.12347	0.033396	0.2873	0.11679	0.11262	0.38123	0.090295	0.085702	0.4489	0.15207	0.072495	0.24613	0.27719	0.14133	0.10043	0.1167	-3.7458	-3.1354	-3.5312	-3.9188	-3.1021	-4.0125	-3.5125	-3.3104	-4.1208	-3.2354	-3.6771	-3.7083	-3.0563	-4.0354	-3.575	-3.3417	221.722	78.362	122.559	241.827	44.749	193.473	23.330	-49.305	-12.605	271.369	222.428	75.752	182.543	254.461	97.330	204.700	4.1433e-05	0.00038339	0.00011007	237.15	2.7305e-06	2.0097e-06	349.52	63.216	2.6035e-06	4.9423e-06	97.033	29.178	14.45	3.7002	2.3208e-06	8.0189	0.0005986	0.00094879	0.00026733	209.92	1.009e-05	1.0718e-05	305.86	56.393	9.922e-06	1.0795e-05	87.101	26.207	13.432	3.4544	1.0224e-05	7.3631	228.889	-16.585	232.727	-70.018	258.476	159.389	-70.394	-63.758	88.566	231.387	-65.503	-61.886	-59.860	-56.226	123.725	-58.582	-8191	255	
2283.911	1	1	0	0	0.11821	0.18733	0.21193	0.048691	0.25494	0.16705	0.068767	0.11794	0.19067	0.12556	0.15117	0.148	0.19748	0.12739	0.17108	0.18343	-3.6792	-3.0896	-3.5979	-3.8937	-3.125	-4.0687	-3.7292	-3.3542	-4.1083	-3.3479	-3.4917	-4.0167	-3.1146	-3.8417	-3.7125	-3.075	277.321	237.177	199.082	86.954	219.386	65.061	-59.842	126.270	-27.540	25.547	126.803	186.258	119.439	99.947	9.087	236.776	2.0326e-05	0.00046279	6.3146e-05	236.46	6.3332e-06	2.0837e-06	349.51	63.601	1.5644e-06	2.0112e-06	98.502	29.028	14.446	3.6905	2.3964e-06	7.9787	0.00061838	0.00099257	0.00027913	209.88	1.027e-05	1.0889e-05	306.99	56.374	9.6005e-06	1.09e-05	87.921	26.325	13.573	3.4619	1.0194e-05	7.3898	274.833	-34.173	-62.501	-69.564	190.242	172.215	-71.020	-63.850	82.715	76.444	-66.291	-61.811	-58.642	-57.282	121.057	-59.420	-8191	255	
2284.007	1	1	0	0	0.080449	0.20399	0.19484	0.14732	0.067255	0.18811	0.15428	0.17705	0.18215	0.18092	0.2462	0.059108	0.037089	0.266	0.037725	0.097429	-3.7771	-3.3312	-3.4458	-4.0437	-3.2292	-3.6813	-3.8625	-3.0854	-4.0208	-3.3958	-3.5146	-4.0146	-3.2687	-3.6792	-3.7646	-3.1	271.041	35.830	82.976	-70.183	103.177	179.197	251.746	200.822	-64.968	90.131	-15.007	-67.127	239.939	264.749	52.497	203.007	7.612e-05	0.00019315	0.00011563	236.14	2.0342e-06	4.0886e-06	348.16	63.464	2.6613e-06	2.1962e-06	99.733	28.664	14.197	3.7712	1.9396e-06	8.0514	0.00060681	0.0009632	0.00027465	209.91	1.0046e-05	1.0427e-05	307.25	56.835	9.4935e-06	1.0835e-05	88.042	26.242	13.484	3.4829	1.0516e-05	7.362	184.399	-43.386	100.255	-69.759	147.431	21.901	-70.567	-63.735	-40.129	174.265	-65.987	-62.505	-58.819	-56.497	12.881	-59.895	-8191	255	
2284.105	1	1	0	0	0.10305	0.30352	0.1736	0.25098	0.10661	0.25856	0.14495	0.018052	0.2091	0.20148	0.090497	0.05484	0.20293	0.11667	0.056017	0.036006	-3.6146	-3.5854	-3.2917	-4.0542	-3.3083	-3.6958	-3.9813	-3.1333	-4.1438	-3.7313	-3.2479	-4.0542	-3.3688	-3.5417	-4.0125	-3.2542	224.059	5.849	-0.286	237.575	194.264	187.595	-66.917	105.846	109.233	56.025	-22.779	-53.666	239.205	213.742	195.647	-5.967	6.9571e-05	3.4421e-05	4.775e-05	236.74	2.5899e-06	3.0309e-06	348.71	63.193	3.4001e-06	4.931e-07	98.604	28.578	14.131	3.7111	4.4615e-06	8.0754	0.0006053	0.00094347	0.00026632	210.21	1.0123e-05	1.0599e-05	306.74	56.557	9.5352e-06	1.1103e-05	87.224	26.086	13.366	3.4567	9.8641e-06	7.3565	196.364	153.406	-3.233	-70.242	173.612	129.343	-70.583	-64.039	96.869	62.068	-66.453	-62.023	-57.826	-55.272	57.440	-58.871	-8191	255	
2284.224	1	1	0	0	0.032566	0.12699	0.34215	0.049098	0.056506	0.093526	0.1054	0.073269	0.13246	0.18325	0.19321	0.10051	0.073987	0.34276	0.15245	0.10983	-3.5958	-3.6542	-3.1813	-4.1687	-3.2958	-3.5729	-4.1438	-3.3771	-4.0563	-3.6896	-3.2583	-3.9229	-3.3292	-3.4354	-4.0917	-3.2354	171.572	156.868	79.812	179.387	100.906	75.292	150.335	267.375	206.079	150.131	95.739	150.640	69.412	206.982	244.985	63.938	4.1161e-05	0.00025854	6.3834e-05	237.53	3.4197e-06	1.3334e-06	349.89	62.453	4.0481e-06	2.4684e-06	98.364	29.152	14.469	3.7529	6.9736e-06	8.1079	0.00058891	0.00093531	0.00027422	210.11	1.0095e-05	1.0671e-05	306.31	56.434	9.6415e-06	1.0695e-05	86.901	26.28	13.501	3.4782	9.9883e-06	7.3803	-19.237	-28.103	-75.912	-69.659	133.887	181.529	-70.142	-64.172	62.817	58.623	-66.098	-61.468	-58.353	-56.320	76.014	-58.198	-8191	255	
2284.320	1	1	0	0	0.11444	0.25533	0.088848	0.16853	0.12595	0.18009	0.14463	0.09556	0.13327	0.15098	0.25581	0.28639	0.1726	0.2633	0.09821	0.074648	-3.6042	-3.725	-3.0062	-4.1146	-3.4375	-3.4417	-4.05	-3.2354	-3.6583	-3.7958	-3.2208	-4.0188	-3.5958	-3.2625	-3.8792	-3.2	275.864	-52.558	4.538	24.987	11.374	239.548	250.271	168.256	-43.779	148.137	1.455	-18.315	120.281	27.419	67.819	70.293	3.1056e-05	0.00034354	7.6083e-05	235.8	5.7866e-06	2.9339e-06	347.19	63.729	5.155e-06	5.6421e-06	98.958	29.356	14.048	3.6588	4.0918e-06	8.1171	0.00060971	0.00093053	0.00027125	209.98	1.0084e-05	1.058e-05	307.32	56.81	9.6953e-06	1.0956e-05	87.739	26.416	13.468	3.4734	1.0238e-05	7.4494	203.051	44.177	175.075	-69.729	45.225	6.262	-70.084	-63.562	37.590	57.797	-65.842	-61.980	-58.155	-55.862	218.479	-58.665	-8191	255	
2284.391	1	1	0	0	0.10051	0.12834	0.2463	0.060118	0.077781	0.40353	0.15391	0.030475	0.089389	0.16336	0.33577	0.12197	0.1962	0.2601	0.18987	0.12436	-3.2938	-3.8667	-3.2188	-3.9167	-3.4708	-3.4437	-4.125	-3.325	-3.6646	-4.0188	-3.2458	-3.7333	-3.7083	-3.2458	-4.1271	-3.4125	197.069	168.967	224.738	214.390	173.798	204.444	149.182	147.684	106.690	-77.109	-71.474	-32.047	55.557	216.867	117.481	-53.256	3.9479e-05	0.00024652	5.7878e-05	233.91	2.4881e-06	4.6199e-06	351.19	63.465	2.9246e-06	1.7562e-06	99.012	29.406	14.414	3.7333	1.8007e-06	8.0528	0.00061369	0.00095001	0.00026526	209.66	9.8289e-06	1.0722e-05	308.06	56.68	1.0007e-05	1.0858e-05	88.293	26.489	13.603	3.4685	9.7799e-06	7.3678	-48.281	29.669	-15.245	-69.599	17.377	40.473	-69.996	-63.493	215.796	113.833	-65.492	-61.789	-59.058	-55.619	5.104	-59.490	-8191	255	
2284.512	1	1	0	0	0.117	0.11921	0.35209	0.17555	0.14669	0.050439	0.22245	0.20235	0.22143	0.074549	0.054996	0.048397	0.18288	0.24926	0.12061	0.18573	-3.1458	-3.9667	-3.2729	-3.8875	-3.7354	-3.1958	-4.125	-3.3229	-3.5187	-4.075	-3.2313	-3.8125	-3.8167	-3.2313	-4.0646	-3.4833	42.611	9.407	-35.563	9.393	-37.882	9.454	23.851	111.688	154.465	178.072	113.327	77.628	36.632	223.087	-17.091	110.009	5.9127e-05	0.0001568	5.0578e-05	236.91	3.8637e-06	1.8684e-06	347.8	63.23	1.3209e-06	2.9948e-06	96.874	29.036	14.203	3.7258	2.4601e-06	7.9848	0.00061603	0.00096628	0.00025169	209.7	9.5618e-06	1.0543e-05	306.14	56.578	9.4449e-06	1.0506e-05	87.244	26.293	13.357	3.4762	9.6461e-06	7.3409	-48.948	173.841	99.631	-69.320	114.053	-8.349	-70.196	-63.488	113.905	255.721	-65.865	-61.763	-58.010	-55.482	27.886	-59.052	-8191	255	
2284.608	1	1	0	0	0.090612	0.069984	0.3259	0.16112	0.17265	0.045667	0.089675	0.22143	0.082498	0.064192	0.068417	0.16376	0.10414	0.31577	0.16657	0.18604	-3.0125	-4.0771	-3.175	-3.5917	-3.8771	-3.1479	-3.9979	-3.6167	-3.1958	-4.0958	-3.3438	-3.7333	-3.7646	-3.1979	-4.0646	-3.9479	123.801	67.439	13.563	-60.756	7.071	22.329	214.977	168.298	84.071	162.677	113.488	-67.908	-42.914	214.405	2.035	1.923	2.3136e-05	0.0004444	3.5924e-05	235.94	2.6003e-06	4.3017e-06	350.46	62.998	1.8693e-06	2.2894e-06	98.969	29.419	14.169	3.7013	3.8111e-06	7.9906	0.00061073	0.00094331	0.00027073	209.18	9.6317e-06	1.0881e-05	306.84	56.424	9.473e-06	1.0558e-05	87.704	26.397	13.521	3.4689	1.0142e-05	7.36	194.451	22.560	-74.875	-69.506	3.167	185.414	-70.407	-63.239	191.622	30.189	-65.573	-60.810	-58.856	-55.298	58.094	-58.653	-8191	255	
2284.704	1	1	0	0	0.08085	0.14189	0.2432	0.070005	0.1401	0.37758	0.19566	0.16724	0.14189	0.28028	0.28475	0.22286	0.11533	0.14343	0.14986	0.1277	-2.7771	-3.9917	-3.3417	-3.7729	-3.9188	-3.2812	-3.925	-3.7583	-3.3083	-4.1083	-3.4021	-3.5271	-4.0771	-3.0354	-3.8229	-3.6646	203.201	-13.266	65.741	248.347	167.126	267.151	-78.214	-6.530	209.936	85.753	261.754	236.273	-43.226	39.654	-56.147	217.353	7.1656e-06	0.00015736	7.3057e-05	234.36	1.3937e-06	7.1599e-07	350.75	63.018	2.0514e-06	2.2247e-06	99.398	29.475	14.251	3.7682	4.8703e-06	8.0949	0.00062193	0.00093591	0.00026303	209.45	9.9435e-06	1.0806e-05	307.98	56.647	9.8678e-06	1.1094e-05	88.139	26.549	13.528	3.492	1.0118e-05	7.4125	167.083	72.956	-10.741	-69.741	252.742	19.813	-69.462	-63.491	35.504	70.461	-66.448	-61.636	-59.420	-56.030	207.901	-59.010	-8191	255	
2284.825	1	1	0	0	0.20681	0.14011	0.13297	0.14938	0.12242	0.10178	0.081644	0.2161	0.098995	0.089846	0.098428	0.011987	0.1067	0.21451	0.094765	0.08149	-2.8979	-3.9604	-3.4396	-3.2812	-4.1208	-3.1708	-3.9583	-3.6833	-3.1667	-4.1333	-3.3979	-3.2146	-3.8167	-3.0812	-3.8354	-3.8083	153.000	-78.920	215.552	271.555	77.140	47.029	212.088	93.994	-42.843	167.544	233.985	22.016	100.455	261.782	18.332	-17.866	2.9455e-05	0.00028025	9.0359e-05	235.88	2.5261e-06	2.768e-06	353.68	63.739	2.2142e-06	2.4821e-06	99.095	28.942	14.343	3.7295	5.5363e-06	8.0147	0.00062553	0.00098235	0.00027464	211.29	9.8077e-06	1.1041e-05	309.71	56.838	9.5022e-06	1.0532e-05	88.213	26.496	13.588	3.4524	1.0266e-05	7.3762	-63.878	-72.303	227.480	-69.353	97.617	58.827	-70.169	-63.486	11.003	73.855	-65.726	-61.837	-58.624	-56.020	29.828	-58.164	-8191	255	
2284.919	1	1	0	0	0.10707	0.25597	0.38309	0.029485	0.08519	0.16673	0.21138	0.15885	0.14394	0.11528	0.28852	0.32776	0.084055	0.080714	0.061114	0.21498	-2.7708	-3.9271	-3.4167	-3.2958	-4.0146	-3.2313	-3.625	-4.0021	-3.2271	-4.0208	-3.5833	-3.3625	-4.0021	-3.2083	-3.5563	-4.0042	58.453	233.725	258.977	-18.131	115.909	-37.243	199.914	213.962	229.627	131.826	190.438	-40.834	-80.193	209.153	183.821	232.589	3.1256e-05	0.00024071	3.7309e-05	239.2	7.4467e-07	2.8223e-06	350.24	63.762	3.9281e-06	3.3467e-06	98.462	29.195	14.34	3.7107	5.3617e-07	8.159	0.00060528	0.00092714	0.00026742	209.38	1.0031e-05	1.0629e-05	307.99	56.55	9.8662e-06	1.0292e-05	87.677	26.32	13.446	3.4413	1.0253e-05	7.4006	205.377	-0.990	44.061	-68.584	278.533	223.638	-70.143	-63.343	9.530	52.721	-66.262	-61.971	-57.847	-55.826	194.898	-58.459	-8191	255	
2284.991	1	1	0	0	0.22361	0.091083	0.067441	0.14112	0.25834	0.18581	0.14392	0.14225	0.17777	0.094707	0.07001	0.061586	0.060374	0.10731	0.12014	0.023335	-2.7333	-3.7917	-3.7479	-3.3104	-4.1333	-3.3937	-3.4583	-3.9792	-3.2917	-3.7854	-3.8104	-3.0875	-4.0667	-3.4208	-3.425	-3.9479	136.119	35.809	80.053	94.248	-1.916	121.006	-35.012	157.166	232.330	-3.291	234.979	150.141	64.358	148.027	201.314	91.789	7.0488e-05	0.00033533	4.2386e-05	237.49	3.5354e-06	2.3773e-06	349.97	63.306	1.6574e-06	5.353e-06	97.81	29.679	14.292	3.7223	6.5245e-06	8.0997	0.00060395	0.0009681	0.00026964	209.17	1.021e-05	1.0516e-05	307.85	56.445	9.9918e-06	1.0728e-05	87.596	26.441	13.54	3.4818	1.0266e-05	7.4644	-53.616	-31.592	11.679	-69.016	-78.263	-73.950	-70.112	-63.476	-51.768	-9.804	-65.419	-60.145	-58.452	-55.908	107.791	-58.289	-8191	255	
2285.087	1	1	0	0	0.13713	0.034611	0.28002	0.068286	0.11816	0.061523	0.063031	0.14153	0.13884	0.072752	0.27156	0.14204	0.21384	0.18571	0.080166	0.16082	-2.8354	-3.7417	-3.85	-3.2917	-4.0875	-3.5417	-3.5062	-3.9542	-3.175	-3.7125	-4.0062	-3.1063	-3.8979	-3.4292	-3.3729	-4.1062	99.072	233.656	103.343	211.165	179.126	204.838	-67.692	161.243	-32.373	132.565	28.883	226.091	217.027	41.826	247.536	-14.667	3.893e-05	0.00045715	8.0428e-05	238.26	4.4058e-06	3.9483e-06	352.15	63.663	1.9067e-06	1.7432e-06	98.327	29.318	14.341	3.7317	4.1926e-06	8.1649	0.00061875	0.00095254	0.00027496	210.29	1.0376e-05	1.0842e-05	308	56.823	9.7622e-06	1.1218e-05	88.11	26.592	13.511	3.4795	9.7699e-06	7.4851	-6.707	-29.873	15.800	-68.827	-36.678	157.799	-70.267	-63.820	-51.978	267.915	-65.457	-61.052	-58.784	-55.322	163.460	-59.187	-8191	255	
2285.208	1	1	0	0	0.16444	0.077809	0.14738	0.30456	0.080373	0.12749	0.175	0.11329	0.12915	0.14476	0.15706	0.10632	0.16896	0.12715	0.20315	0.2576	-2.9375	-3.6021	-3.9313	-3.1021	-4.0729	-3.7333	-3.4396	-4.1542	-3.2125	-3.6396	-4.0083	-3.1375	-3.8625	-3.7188	-3.2646	-4.0813	154.201	16.728	55.366	219.662	2.693	145.939	-56.659	173.583	145.825	223.653	275.168	271.815	165.238	-40.836	237.215	182.398	2.9993e-05	0.00034246	9.6625e-05	236.68	1.5607e-06	2.245e-06	349.89	63.607	2.3672e-06	2.1583e-06	99.671	29.115	14.577	3.7013	3.5985e-06	8.0706	0.0006235	0.00097329	0.00027295	210.34	1.006e-05	1.0846e-05	308.56	56.795	9.9514e-06	1.0871e-05	88.392	26.481	13.641	3.477	1.0371e-05	7.3754	266.065	221.485	25.296	-69.072	256.036	43.033	-70.380	-63.528	217.753	-28.738	-65.812	-61.197	-58.509	-55.463	69.347	-59.126	-8191	255	
2285.304	1	1	0	0	0.22262	0.04752	0.17172	0.18701	0.31316	0.24348	0.25126	0.2009	0.19645	0.1016	0.28844	0.14555	0.10587	0.17444	0.18504	0.21468	-3	-3.4042	-4.0604	-3.1083	-3.7792	-3.9229	-3.2083	-4.1542	-3.3292	-3.3271	-4.1417	-3.0563	-4	-3.7479	-3.1688	-4.1208	-36.234	171.766	12.405	-61.047	102.974	146.604	180.900	244.864	89.248	-10.080	83.953	-58.454	80.723	125.736	40.505	189.897	3.4462e-05	0.0004808	0.00011081	236.69	2.8181e-07	5.3556e-06	348.62	63.678	2.5552e-06	3.3944e-06	97.314	28.565	14.425	3.5959	3.8393e-06	8.1499	0.00062422	0.00095782	0.00026714	208.61	1.01e-05	1.0447e-05	305.41	56.7	9.6937e-06	1.0951e-05	87.185	26.244	13.562	3.4715	1.0509e-05	7.4951	266.759	-1.734	261.332	-68.472	73.055	46.634	-69.810	-63.342	-6.352	11.410	-65.238	-61.015	-58.461	-54.626	22.428	-58.934	-8191	255	
2285.400	1	1	0	0	0.056027	0.23337	0.10325	0.19871	0.15472	0.09018	0.11837	0.24707	0.19379	0.052002	0.090003	0.098346	0.086064	0.18498	0.20284	0.062332	-3.0812	-3.3917	-4.0938	-3.0458	-3.6688	-3.8438	-3.1729	-4.0042	-3.5875	-3.3312	-3.9667	-3.0667	-3.5563	-3.8833	-3.1104	-3.9104	59.129	19.141	252.446	165.697	123.018	-55.548	193.472	3.856	276.348	-64.920	183.315	15.150	-63.094	254.352	124.129	46.858	9.2049e-05	0.00034107	6.0987e-05	232.2	1.718e-06	3.1027e-06	347.22	64.373	2.3251e-06	2.2312e-06	100.09	29.503	14.571	3.7059	4.2577e-06	8.1568	0.00058948	0.0009632	0.00026391	208.67	9.8189e-06	1.0233e-05	305.91	57.079	9.5067e-06	1.077e-05	88.023	26.504	13.608	3.4786	9.894e-06	7.4584	263.970	67.873	-39.681	-69.819	270.701	0.072	-70.771	-64.322	21.806	29.436	-65.994	-62.208	-59.174	-56.453	19.992	-58.821	-8191	255	
2285.496	1	1	0	0	0.11923	0.11116	0.060775	0.10883	0.13424	0.034063	0.051251	0.16506	0.080698	0.033583	0.21374	0.19554	0.064657	0.13935	0.10883	0.084943	-3.2792	-3.2	-4.0292	-3.2625	-3.475	-3.875	-3.2854	-3.9333	-3.7625	-3.2125	-3.975	-3.4458	-3.5187	-3.9479	-3.0708	-3.9333	2.590	221.815	195.650	-46.399	-8.695	244.002	-1.521	112.692	-34.943	22.106	-6.779	150.113	9.766	268.566	205.734	33.557	4.6319e-05	0.00015994	0.00012861	232.64	1.1746e-06	3.3348e-06	353.23	63.385	4.9658e-06	3.2143e-06	99.702	29.633	14.491	3.7815	3.6876e-06	8.2216	0.0006115	0.00095785	0.00025274	207.68	1.011e-05	1.0553e-05	308.06	56.986	9.7971e-06	1.0536e-05	88.691	26.671	13.554	3.4769	1.0093e-05	7.557	-61.623	138.670	154.429	-68.859	56.959	127.140	-70.535	-63.618	99.384	54.413	-66.196	-61.848	-59.325	-55.581	139.561	-58.782	-8191	255	
2285.617	1	1	0	0	0.091598	0.3138	0.054453	0.063348	0.034621	0.071059	0.27635	0.13284	0.13508	0.098431	0.096177	0.032609	0.27998	0.32866	0.078802	0.25556	-3.3417	-3.1521	-4.0833	-3.3479	-3.2979	-4.1354	-3.3417	-3.8167	-3.8042	-3.075	-3.9521	-3.5167	-3.4479	-4.1896	-3.3708	-3.6833	22.222	111.909	-68.811	60.733	51.920	33.099	154.423	256.385	-18.424	141.634	52.031	190.870	21.473	3.476	218.737	240.060	4.4245e-05	9.6694e-05	9.631e-05	232.71	3.7987e-06	2.4144e-06	348.39	63.685	3.8094e-06	9.4097e-07	99.315	29.141	14.226	3.7816	3.4233e-06	8.1153	0.00061285	0.00098014	0.00027293	208.24	9.9922e-06	1.0158e-05	306.74	57.133	9.5774e-06	1.071e-05	88.509	26.371	13.462	3.4749	9.948e-06	7.4389	45.652	99.239	229.310	-70.370	143.270	-17.438	-70.211	-63.172	83.811	151.824	-66.677	-61.946	-58.845	-55.529	150.852	-58.352	-8191	255	
2285.689	1	1	0	0	0.1987	0.23715	0.098902	0.14998	0.29597	0.02396	0.31296	0.073494	0.17113	0.021292	0.093585	0.099944	0.12757	0.2132	0.1409	0.1255	-3.6375	-3.1188	-4.0583	-3.5104	-3.2917	-4.2292	-3.325	-3.5875	-3.9562	-3.2833	-3.9375	-3.4792	-3.3312	-3.9604	-3.2083	-3.5417	63.630	-21.399	174.292	24.753	270.681	98.339	63.507	-62.180	263.484	262.938	183.886	134.264	16.427	-69.272	66.334	19.467	7.2921e-06	0.00033921	5.6781e-05	233.68	4.5898e-06	5.352e-07	350.31	63.204	2.8961e-06	4.141e-06	97.927	28.915	14.147	3.7193	3.1546e-07	8.0794	0.00063332	0.00096676	0.00026851	208.75	1.0073e-05	1.0269e-05	306.93	56.504	9.9351e-06	1.1024e-05	87.661	26.17	13.431	3.4696	1.0138e-05	7.3919	-43.524	237.688	175.293	-69.955	103.695	-50.074	-70.465	-63.393	130.964	152.394	-65.656	-61.956	-59.395	-56.553	16.247	-58.796	-8191	255	
2285.785	1	1	0	0	0.098192	0.18346	0.19601	0.15671	0.18095	0.29876	0.10508	0.19888	0.20688	0.30238	0.3896	0.18495	0.16705	0.087348	0.12857	0.13655	-3.7021	-3.0812	-3.9208	-3.6896	-3.1229	-4.0396	-3.5458	-3.6937	-4.0958	-3.0479	-3.9562	-3.7583	-3.3354	-3.9917	-3.3688	-3.5563	52.758	82.701	64.049	4.074	-68.238	19.718	65.766	215.130	231.860	-17.702	271.826	254.196	-8.892	187.378	236.369	246.086	6.8942e-05	4.4167e-05	2.3408e-05	233.53	1.7115e-06	7.5233e-07	347.33	63.768	2.3363e-06	2.3602e-06	98.568	29.388	14.297	3.6908	7.3708e-07	8.1674	0.0006076	0.00094421	0.00027283	208.09	1.0079e-05	1.0626e-05	305.27	56.773	9.6255e-06	1.0457e-05	87.879	26.395	13.444	3.4715	9.6706e-06	7.4466	-54.471	272.086	-39.012	-70.333	47.800	108.982	-70.514	-63.346	224.891	46.041	-66.009	-61.316	-58.066	-55.865	53.510	-59.164	-8191	255	
2285.905	1	1	0	0	0.077367	0.068785	0.15385	0.062264	0.10047	0.1208	0.17267	0.34291	0.1711	0.057868	0.1205	0.16206	0.14573	0.1127	0.084435	0.12095	-3.5729	-3.2271	-3.8104	-4.025	-3.1813	-3.9813	-3.45	-3.3312	-4.0375	-3.3312	-3.8104	-3.9083	-3.1792	-3.9417	-3.425	-3.2	276.799	266.154	257.452	189.477	1.103	-21.815	271.683	237.330	38.242	-22.104	-32.748	190.345	122.934	38.527	-74.915	207.506	6.026e-05	0.00019347	5.9099e-05	232.56	1.9049e-06	4.663e-06	347.67	63.712	7.943e-07	1.2914e-07	99.294	29.345	14.263	3.7632	1.2253e-06	8.1301	0.00059989	0.0009519	0.00026294	207.3	9.7765e-06	1.0835e-05	305.49	57.053	9.9956e-06	1.0558e-05	88.46	26.531	13.495	3.486	9.7642e-06	7.4858	251.135	6.642	26.289	-68.973	97.105	22.916	-70.317	-63.296	117.707	214.175	-65.637	-61.268	-59.861	-56.023	231.219	-59.562	-8191	255	
2286.000	1	1	0	0	0.13966	0.31621	0.11307	0.24424	0.076011	0.15237	0.21278	0.18382	0.3505	0.18418	0.15582	0.080706	0.042634	0.11772	0.24348	0.24003	-3.8375	-3.0875	-3.5646	-4.0375	-3.0958	-4.0104	-3.4854	-3.2812	-4.0729	-3.2917	-3.6042	-3.8854	-3.1292	-3.9938	-3.7917	-3.1458	239.729	85.301	-9.452	260.593	28.658	9.079	161.887	-57.030	-36.611	98.305	-30.690	-46.235	273.365	-2.006	94.798	222.560	1.8651e-05	0.00017131	4.2312e-05	234.47	9.7004e-07	3.5674e-06	344.77	64.49	2.5982e-06	3.8812e-06	99.721	28.946	14.843	3.7062	1.8163e-06	8.2561	0.00061179	0.00093175	0.00026469	208.35	9.8312e-06	1.0666e-05	304.63	57.8	9.66e-06	1.0821e-05	88.997	26.157	13.706	3.4899	9.8923e-06	7.4666	-53.684	234.747	18.872	-68.802	186.749	81.657	-70.071	-62.895	196.719	77.490	-65.738	-61.191	-57.804	-56.076	-73.711	-58.787	-8191	255	
2286.096	1	1	0	0	0.21221	0.053196	0.22123	0.1262	0.042399	0.049274	0.12382	0.021318	0.17246	0.09431	0.094169	0.055396	0.13164	0.16681	0.18603	0.20286	-3.8917	-3.3375	-3.4583	-4.1104	-3.1792	-3.925	-3.7542	-3.2354	-4.1646	-3.3833	-3.4208	-4.0396	-3.0167	-3.8021	-3.7521	-3.1813	70.147	245.208	225.406	150.575	87.440	156.509	146.376	120.852	135.102	103.544	14.043	22.755	92.746	177.773	95.610	213.430	2.5395e-05	0.00040253	4.5895e-05	235.69	4.0313e-06	2.1234e-06	347.95	65.295	3.0057e-06	6.4476e-06	99.556	29.06	14.425	3.7017	5.2222e-06	8.3342	0.00058897	0.00096077	0.00026652	208.41	9.8431e-06	1.0583e-05	304.15	57.873	9.2268e-06	1.0817e-05	88.529	26.317	13.565	3.4719	1.0135e-05	7.521	140.643	-42.139	121.016	-69.361	84.740	94.636	-70.099	-63.434	169.901	-3.025	-65.616	-61.655	-58.573	-55.602	-11.694	-58.541	-8191	255	
2286.192	1	1	0	0	0.22334	0.16112	0.22788	0.13473	0.23769	0.02114	0.14587	0.28753	0.19273	0.19173	0.037633	0.1104	0.056265	0.26147	0.07399	0.12374	-3.6437	-3.2833	-3.2146	-3.9771	-3.0854	-3.8167	-3.8042	-3.2021	-3.9271	-3.7042	-3.5375	-4.1562	-3.3375	-3.7292	-3.8917	-3.1521	86.415	169.360	-81.139	-14.483	-9.955	242.552	85.745	214.678	-80.057	158.838	138.057	140.697	-72.495	79.824	111.967	17.869	8.1076e-05	0.00033011	9.1027e-05	232.09	2.8749e-06	2.7313e-06	350.16	64.655	2.5288e-06	3.7435e-06	100.44	29.059	14.232	3.6635	1.6394e-06	8.2172	0.00058219	0.00094889	0.00026678	207.5	9.8573e-06	1.0425e-05	305.35	57.898	9.2217e-06	1.0442e-05	88.798	26.307	13.401	3.474	9.7575e-06	7.5581	214.158	-17.692	-56.643	-68.501	153.058	246.683	-69.762	-63.211	-39.015	42.422	-65.767	-61.809	-58.482	-56.037	-9.318	-58.912	-8191	255	
2286.288	1	1	0	0	0.19649	0.17245	0.073205	0.11024	0.14001	0.2761	0.14229	0.20244	0.21336	0.1499	0.13131	0.20754	0.11117	0.14346	0.044858	0.1375	-3.6729	-3.4562	-3.3229	-4.0875	-3.3354	-3.6458	-4.0125	-3.2125	-3.8604	-3.7479	-3.2271	-3.9958	-3.4437	-3.5271	-4.1625	-3.1458	96.796	275.054	-74.937	151.372	217.312	211.584	158.107	176.300	176.502	227.979	232.094	-3.502	278.021	67.529	162.763	264.515	4.6857e-05	0.00023087	0.0001186	228.69	4.4763e-06	2.1554e-06	345.81	65.569	2.2479e-06	5.1593e-06	100.01	29.332	14.626	3.8949	2.2181e-06	8.3556	0.00058147	0.00094491	0.00027115	206.32	9.9017e-06	1.0078e-05	305.47	58.486	9.2044e-06	1.0712e-05	89.664	26.711	13.738	3.5671	1.0064e-05	7.6012	-8.050	245.333	21.174	-69.432	195.158	172.740	-69.944	-63.041	256.647	22.973	-65.851	-61.530	-58.993	-55.604	159.249	-58.797	-8191	255	
2286.384	1	1	0	0	0.30022	0.11247	0.10789	0.087568	0.11835	0.036494	0.0968	0.18968	0.18171	0.1205	0.1476	0.18116	0.034391	0.095962	0.32366	0.27044	-3.3	-3.7062	-3.075	-4.1687	-3.5542	-3.5687	-4.1208	-3.1646	-3.7354	-4.0104	-3.1208	-4.1083	-3.4271	-3.475	-4.0271	-3.1896	143.917	28.445	223.809	143.363	184.323	-3.394	123.070	-70.777	50.516	246.015	-61.837	-75.936	-22.203	199.853	209.912	219.962	9.2731e-06	0.00036591	8.342e-05	235.68	2.7577e-06	2.5963e-06	348.69	65.016	2.7836e-06	2.7823e-06	99.718	29.236	14.192	3.7398	1.2218e-06	8.2362	0.00059574	0.00094898	0.00026642	208.36	1.0044e-05	1.0873e-05	306.92	58.137	9.5268e-06	1.0411e-05	89.232	26.417	13.53	3.5137	9.7018e-06	7.5004	-62.419	-75.777	261.468	-69.273	144.647	67.632	-69.898	-62.815	68.592	63.166	-65.253	-61.087	-58.341	-56.645	88.207	-59.871	-8191	255	
#DATA ENDS
