BOXY.EXE: ISS Imagent and Oximeter Data Acquisition Program Version 0.80
Ascii Record File

#ACQ INFORMATION
2  Detector Channels 
16  External MUX Channels 
1  Auxiliary Channels 
5000  Waveform (CCF) Frequency (Hz)
1  Waveforms Skipped 
30  Waveforms Averaged 
1  Cycles Averaged 
16  Acquisitions per Waveform 
10.0806  Updata Rate (Hz) 

#FILE INFORMATION
TRUE -- External MUX Channel results are PARSED.
FALSE -- AC DC and Phase are NOT grouped.
TRUE -- Companion Program Settings File CREATED.
FALSE -- AC data not excluded
FALSE -- DC data not excluded
FALSE -- Phase data not excluded
FALSE -- Auxillary Chn. data not excluded
Tab delimiters

#CALIBRATION STATE
TRUE -- Waveform Calibration Values APPLIED.


#AUX CALIBRATION VALUES
Val Type	aux-1	

Term	1.0000e+00	
Factor	0.0000e+00	


#WF CALIBRATION VALUES
A = Detector Channel
Val Type	A-AC1	A-AC2	A-AC3	A-AC4	A-AC5	A-AC6	A-AC7	A-AC8	A-AC9	A-AC10	A-AC11	A-AC12	A-AC13	A-AC14	A-AC15	A-AC16	A-DC1	A-DC2	A-DC3	A-DC4	A-DC5	A-DC6	A-DC7	A-DC8	A-DC9	A-DC10	A-DC11	A-DC12	A-DC13	A-DC14	A-DC15	A-DC16	A-Ph1	A-Ph2	A-Ph3	A-Ph4	A-Ph5	A-Ph6	A-Ph7	A-Ph8	A-Ph9	A-Ph10	A-Ph11	A-Ph12	A-Ph13	A-Ph14	A-Ph15	A-Ph16	

Term	0.00000e+00	0.00000e+00	0.00000e+00	0.00000e+00	0.00000e+00	0.00000e+00	0.00000e+00	0.00000e+00	0.00000e+00	0.00000e+00	0.00000e+00	0.00000e+00	0.00000e+00	0.00000e+00	0.00000e+00	0.00000e+00	0.00000e+00	0.00000e+00	0.00000e+00	0.00000e+00	0.00000e+00	0.00000e+00	0.00000e+00	0.00000e+00	0.00000e+00	0.00000e+00	0.00000e+00	0.00000e+00	0.00000e+00	0.00000e+00	0.00000e+00	0.00000e+00	0.00000e+00	0.00000e+00	0.00000e+00	0.00000e+00	0.00000e+00	0.00000e+00	0.00000e+00	0.00000e+00	0.00000e+00	0.00000e+00	0.00000e+00	0.00000e+00	0.00000e+00	0.00000e+00	0.00000e+00	0.00000e+00	
Factor	1.00000e+00	1.00000e+00	1.00000e+00	1.00000e+00	1.00000e+00	1.00000e+00	1.00000e+00	1.00000e+00	1.00000e+00	1.00000e+00	1.00000e+00	1.00000e+00	1.00000e+00	1.00000e+00	1.00000e+00	1.00000e+00	1.00000e+00	1.00000e+00	1.00000e+00	1.00000e+00	1.00000e+00	1.00000e+00	1.00000e+00	1.00000e+00	1.00000e+00	1.00000e+00	1.00000e+00	1.00000e+00	1.00000e+00	1.00000e+00	1.00000e+00	1.00000e+00	X	X	X	X	X	X	X	X	X	X	X	X	X	X	X	X	

B = Detector Channel
Val Type	B-AC1	B-AC2	B-AC3	B-AC4	B-AC5	B-AC6	B-AC7	B-AC8	B-AC9	B-AC10	B-AC11	B-AC12	B-AC13	B-AC14	B-AC15	B-AC16	B-DC1	B-DC2	B-DC3	B-DC4	B-DC5	B-DC6	B-DC7	B-DC8	B-DC9	B-DC10	B-DC11	B-DC12	B-DC13	B-DC14	B-DC15	B-DC16	B-Ph1	B-Ph2	B-Ph3	B-Ph4	B-Ph5	B-Ph6	B-Ph7	B-Ph8	B-Ph9	B-Ph10	B-Ph11	B-Ph12	B-Ph13	B-Ph14	B-Ph15	B-Ph16	

Term	0.00000e+00	0.00000e+00	0.00000e+00	0.00000e+00	0.00000e+00	0.00000e+00	0.00000e+00	0.00000e+00	0.00000e+00	0.00000e+00	0.00000e+00	0.00000e+00	0.00000e+00	0.00000e+00	0.00000e+00	0.00000e+00	0.00000e+00	0.00000e+00	0.00000e+00	0.00000e+00	0.00000e+00	0.00000e+00	0.00000e+00	0.00000e+00	0.00000e+00	0.00000e+00	0.00000e+00	0.00000e+00	0.00000e+00	0.00000e+00	0.00000e+00	0.00000e+00	-3.55938e+01	-1.27701e+02	-1.25281e+02	-1.82617e+02	-5.40153e+01	-6.01161e+01	-1.56707e+02	-1.61923e+02	-3.23848e+01	-6.96501e+01	-1.72081e+02	-1.72121e+02	-1.82310e+02	-1.75613e+02	-4.80221e+01	-1.49421e+02	
Factor	1.75935e-05	1.27067e-04	3.90881e-05	1.69756e-01	1.41494e-06	1.43045e-06	1.51472e-01	4.16107e-02	1.27005e-06	1.46452e-06	7.00974e-02	2.89022e-02	2.93523e-02	6.32495e-03	1.47419e-06	9.43134e-03	9.40978e-06	1.53733e-05	4.30930e-06	8.73817e-02	1.59016e-07	1.71387e-07	7.34779e-02	2.15944e-02	1.53695e-07	1.73083e-07	3.51862e-02	1.45699e-02	1.52597e-02	3.31565e-03	1.61020e-07	4.78232e-03	X	X	X	X	X	X	X	X	X	X	X	X	X	X	X	X	



#DISTANCE SETTINGS
A = Detector Channel
A-1	A-2	A-3	A-4	A-5	A-6	A-7	A-8	A-9	A-10	A-11	A-12	A-13	A-14	A-15	A-16	

1.0000e+01	1.0000e+01	1.0000e+01	1.4500e+00	1.0000e+01	1.0000e+01	1.5100e+00	1.9500e+00	1.0000e+01	1.0000e+01	2.0100e+00	2.5000e+00	2.4400e+00	2.9500e+00	1.0000e+01	3.0100e+00	

B = Detector Channel
B-1	B-2	B-3	B-4	B-5	B-6	B-7	B-8	B-9	B-10	B-11	B-12	B-13	B-14	B-15	B-16	

1.0000e+01	1.0000e+01	1.0000e+01	1.4500e+00	1.0000e+01	1.0000e+01	1.5100e+00	1.9500e+00	1.0000e+01	1.0000e+01	2.0100e+00	2.5000e+00	2.4400e+00	2.9500e+00	1.0000e+01	3.0100e+00	




#DATA BEGINS
time	group	step	mark	flag	A-AC1	A-AC2	A-AC3	A-AC4	A-AC5	A-AC6	A-AC7	A-AC8	A-AC9	A-AC10	A-AC11	A-AC12	A-AC13	A-AC14	A-AC15	A-AC16	A-DC1	A-DC2	A-DC3	A-DC4	A-DC5	A-DC6	A-DC7	A-DC8	A-DC9	A-DC10	A-DC11	A-DC12	A-DC13	A-DC14	A-DC15	A-DC16	A-Ph1	A-Ph2	A-Ph3	A-Ph4	A-Ph5	A-Ph6	A-Ph7	A-Ph8	A-Ph9	A-Ph10	A-Ph11	A-Ph12	A-Ph13	A-Ph14	A-Ph15	A-Ph16	B-AC1	B-AC2	B-AC3	B-AC4	B-AC5	B-AC6	B-AC7	B-AC8	B-AC9	B-AC10	B-AC11	B-AC12	B-AC13	B-AC14	B-AC15	B-AC16	B-DC1	B-DC2	B-DC3	B-DC4	B-DC5	B-DC6	B-DC7	B-DC8	B-DC9	B-DC10	B-DC11	B-DC12	B-DC13	B-DC14	B-DC15	B-DC16	B-Ph1	B-Ph2	B-Ph3	B-Ph4	B-Ph5	B-Ph6	B-Ph7	B-Ph8	B-Ph9	B-Ph10	B-Ph11	B-Ph12	B-Ph13	B-Ph14	B-Ph15	B-Ph16	aux-1	digaux	

1056.927	1	1	0	768	0.36422	0.094184	0.12544	0.12148	0.21915	0.22679	0.27172	0.16521	0.11329	0.19062	0.054532	0.039247	0.31952	0.11021	0.16597	0.10811	-4.3083	-3.65	-4.3146	-4.4875	-3.5854	-4.4896	-4.2604	-4.1021	-4.7896	-3.7062	-4.4979	-4.4146	-3.8021	-4.8042	-4.1083	-3.8375	34.355	-0.840	123.609	148.160	151.379	-66.327	145.799	164.289	-110.326	-109.325	108.005	159.144	167.432	146.477	78.363	192.558	0.00047366	0.00060408	0.00013117	1323.3	4.4776e-06	6.7671e-06	1358.5	358.38	4.6224e-06	5.2033e-06	401.22	137.42	113.87	37.777	5.8526e-06	48.793	0.00053683	0.00056859	0.00015454	1341.5	6.2165e-06	6.1896e-06	1379	365.13	5.9922e-06	6.3287e-06	408.24	140.42	116.31	38.723	6.3157e-06	50.239	-66.105	-72.726	-47.751	-135.704	13.413	-3.195	-135.953	-130.979	6.393	23.242	-131.502	-127.214	-126.384	-121.650	4.999	-122.766	-8191	255	
1057.023	1	1	0	0	0.15693	0.052651	0.10643	0.10108	0.30645	0.096628	0.29481	0.2228	0.085191	0.074328	0.25652	0.18516	0.060137	0.10608	0.12904	0.12005	-4.4313	-3.7208	-4.1521	-4.6792	-3.5729	-4.6	-4.2146	-3.8937	-4.6479	-3.9229	-4.2521	-4.65	-3.7208	-4.5396	-4.0771	-3.8542	-107.480	54.959	-62.737	38.272	32.183	34.084	132.973	187.780	175.825	-139.124	-111.114	-115.802	141.393	205.169	140.862	122.851	0.00048984	0.00048752	0.0001249	1323.8	5.1505e-06	3.6742e-06	1363.3	358.48	6.3661e-06	6.5396e-06	400.63	137.31	114.03	37.706	5.5388e-06	48.982	0.00053961	0.00055914	0.00015317	1341.5	6.0993e-06	6.0528e-06	1378.9	365.06	5.9701e-06	6.2097e-06	408.22	140.36	116.49	38.75	6.1399e-06	50.201	-66.588	-45.327	-51.510	-135.470	7.602	5.993	-135.812	-130.768	17.890	12.217	-131.187	-127.101	-126.307	-121.690	25.177	-122.529	-8191	255	
1057.119	1	1	0	0	0.24098	0.085339	0.10089	0.18879	0.17569	0.087689	0.16416	0.094134	0.23352	0.12584	0.15488	0.14234	0.25785	0.12793	0.29154	0.26466	-4.1167	-3.9	-4.0021	-4.7458	-3.7917	-4.4375	-4.4917	-3.8229	-4.6292	-3.9542	-4.2458	-4.625	-3.8875	-4.3479	-4.3479	-3.7708	151.977	18.842	-63.447	200.097	19.754	-50.106	129.799	182.864	141.687	175.339	202.413	163.472	-91.751	196.012	91.395	151.455	0.0004816	0.00050624	0.0001276	1323.8	3.1736e-06	6.0078e-06	1361.5	358.83	3.9378e-06	3.175e-06	400.44	137.02	114.32	37.842	3.7656e-06	49.013	0.00054096	0.00055779	0.00015542	1341.3	6.0747e-06	6.0253e-06	1378.1	365.15	5.9858e-06	6.095e-06	407.8	140.43	116.46	38.838	5.8346e-06	50.203	-65.090	-79.627	-70.042	-135.586	-19.772	1.592	-135.762	-130.833	12.930	-9.008	-131.178	-127.055	-126.377	-121.463	24.342	-122.575	-8191	255	
1057.216	1	1	0	0	0.20204	0.16063	0.068638	0.21591	0.26032	0.16983	0.37342	0.34926	0.25695	0.099759	0.019817	0.34137	0.058224	0.27259	0.16769	0.092873	-4.4167	-4.0667	-3.95	-4.9083	-3.7625	-4.0375	-4.45	-3.8729	-4.4958	-4.1562	-4.0938	-4.7771	-3.7	-4.1167	-4.3333	-3.95	-114.570	8.430	67.826	126.194	90.334	56.062	142.850	143.812	138.209	145.715	104.233	-115.451	127.044	158.175	-123.622	189.724	0.00049601	0.00039289	0.00012646	1325.2	3.6262e-06	3.8179e-06	1360.1	358.77	3.2922e-06	6.2307e-06	401.36	137.16	113.52	37.798	5.8739e-06	48.889	0.00054538	0.00055187	0.00014934	1340.9	6.0075e-06	6.0553e-06	1378.2	364.95	5.8202e-06	5.9317e-06	407.94	140.45	115.99	38.744	5.8615e-06	50.126	-67.484	-52.030	-31.992	-135.555	6.834	6.744	-135.714	-130.842	-0.606	-15.943	-131.456	-126.977	-126.562	-121.644	7.718	-122.614	-8191	255	
1057.312	1	1	0	0	0.15284	0.20872	0.14508	0.2449	0.12894	0.11863	0.21468	0.073664	0.019835	0.17389	0.21107	0.10437	0.19689	0.36747	0.025679	0.23043	-4.2188	-4.1333	-3.6875	-4.7021	-3.7625	-4.0792	-4.7896	-3.6625	-4.4833	-4.3438	-3.75	-4.8833	-4.0062	-3.9667	-4.5813	-3.8	-45.291	81.563	179.912	170.790	124.342	144.707	195.487	113.127	-49.048	48.266	180.322	116.030	147.943	200.805	-110.723	110.473	0.00047014	0.00046013	0.0002329	1325	4.8793e-06	5.0286e-06	1359.7	356.74	5.5597e-06	4.5098e-06	399.75	137.77	112.8	37.615	5.3206e-06	48.824	0.00052867	0.00052666	0.00015419	1341.1	6.1546e-06	5.9761e-06	1376.6	364.03	5.7933e-06	5.9977e-06	407.27	140.56	115.75	38.627	5.7615e-06	50.124	-65.181	-37.581	-59.984	-135.463	-9.971	-3.494	-135.884	-130.810	-4.147	-4.418	-131.364	-127.426	-126.669	-121.903	0.443	-122.957	-8191	255	
1057.408	1	1	0	0	0.097817	0.21454	0.47671	0.18539	0.21692	0.1164	0.16521	0.082404	0.25949	0.31536	0.19251	0.16795	0.10586	0.16636	0.12666	0.34862	-3.8542	-4.3292	-3.5583	-4.8313	-3.9167	-3.9833	-4.7542	-3.8354	-4.3187	-4.4125	-3.7687	-4.725	-4.1125	-3.9562	-4.6104	-3.8542	-39.537	-5.218	18.293	118.201	28.168	144.679	166.462	-31.857	-138.807	-31.383	200.666	128.718	-12.584	-128.915	95.999	129.990	0.00049432	0.0003995	9.6115e-05	1318	3.5305e-06	4.9332e-06	1359.4	356.24	4.5187e-06	2.8714e-06	399.36	137.54	113.75	37.803	5.2099e-06	48.707	0.00053012	0.00053922	0.00015084	1337.4	5.9605e-06	6.0768e-06	1377.1	363.58	5.7914e-06	5.7968e-06	406.7	140.32	116.13	38.665	5.7974e-06	50.057	-65.500	-64.841	-61.555	-135.692	-9.050	-12.747	-136.158	-131.394	-14.571	19.886	-131.907	-127.373	-126.790	-122.010	10.118	-123.478	-8191	255	
1057.528	1	1	0	0	0.13946	0.20414	0.236	0.24864	0.10533	0.28316	0.21626	0.36882	0.085967	0.075105	0.19985	0.20035	0.24397	0.16935	0.11392	0.09182	-3.8667	-4.3833	-3.6833	-4.5354	-4.1167	-3.7833	-4.6854	-3.9437	-4.2208	-4.5	-3.9667	-4.6083	-4.225	-4.05	-4.5271	-4.1354	-148.057	160.190	-78.895	180.100	-34.315	86.315	127.270	196.597	-125.469	133.847	171.854	205.122	146.205	9.671	36.773	176.581	0.00051046	0.00031126	0.00016048	1321	5.3992e-06	4.1473e-06	1361.3	355.99	5.3691e-06	5.1717e-06	398.81	137.3	113.32	37.603	5.0226e-06	48.761	0.00053685	0.00053294	0.00015442	1339	5.8544e-06	6.0046e-06	1376	362.93	6.0511e-06	5.6238e-06	406.72	140.28	115.96	38.711	6.0436e-06	50.057	-63.861	-32.302	-63.242	-135.984	8.520	4.337	-136.118	-131.580	10.400	-7.822	-131.902	-127.307	-126.614	-121.926	14.774	-122.846	-8191	255	
1057.623	1	1	0	0	0.023157	0.057184	0.13318	0.083625	0.15127	0.11313	0.10804	0.055595	0.10441	0.14325	0.35417	0.14993	0.23591	0.064307	0.11387	0.20126	-3.725	-4.5938	-3.675	-4.5354	-4.3375	-3.7917	-4.7333	-3.9833	-4.15	-4.4771	-3.8292	-4.4917	-4.3583	-3.9271	-4.4708	-3.9167	105.456	-39.959	-95.484	-98.869	44.723	162.141	189.528	119.857	32.950	197.762	148.550	210.423	40.795	-136.926	207.187	145.783	0.00048221	0.00055595	0.0001418	1323.3	2.8351e-06	7.3523e-06	1355.3	356.39	5.1096e-06	1.7117e-06	399.23	136.54	113.52	37.614	6.7359e-06	48.768	0.00053724	0.0005421	0.00015131	1340.3	5.9177e-06	6.1196e-06	1374.7	363.15	5.9736e-06	5.7442e-06	407.13	140.31	115.81	38.681	5.8024e-06	50.013	-64.833	-51.690	-55.994	-135.916	1.934	18.229	-136.266	-131.357	9.447	33.763	-131.748	-127.421	-126.576	-121.623	-10.231	-122.742	-8191	255	
1057.719	1	1	0	0	0.028437	0.13864	0.16755	0.085092	0.1518	0.15179	0.12528	0.28498	0.20828	0.26991	0.10588	0.013398	0.15362	0.29805	0.044465	0.088375	-3.6333	-4.4771	-3.5708	-4.5229	-4.3604	-3.5979	-4.8104	-4.1333	-3.7438	-4.6042	-3.8104	-4.3479	-4.4187	-3.8083	-4.3938	-4.2542	25.711	47.826	-50.662	170.216	175.879	-111.939	69.363	127.597	-26.011	-131.350	208.597	206.173	203.944	-147.870	-52.618	-109.971	0.00050184	0.00034227	0.00018055	1321.4	3.7967e-06	5.6893e-06	1354.7	357.78	4.5732e-06	5.7592e-06	399.86	136.66	113.18	37.613	4.2847e-06	48.771	0.00054543	0.0005331	0.00015267	1338.6	5.704e-06	6.0293e-06	1374.2	363.6	5.9006e-06	5.7911e-06	406.91	140.13	115.96	38.619	5.8816e-06	50.101	-66.850	-55.600	-54.829	-135.792	-2.320	0.610	-136.137	-131.272	0.253	1.019	-131.753	-127.278	-126.664	-121.814	-6.935	-122.984	-8191	255	
1057.815	1	1	0	0	0.080341	0.17275	0.12457	0.27439	0.15869	0.093139	0.25098	0.24684	0.066463	0.088605	0.21298	0.25145	0.17543	0.13848	0.16737	0.11558	-3.4688	-4.6	-3.7062	-4.2208	-4.4646	-3.7104	-4.5708	-4.3542	-3.5208	-4.6813	-4.0333	-4.1333	-4.4229	-3.7625	-4.2833	-4.3438	192.303	119.823	148.968	148.759	-36.995	-132.593	118.502	97.057	185.105	-123.596	158.823	112.934	167.619	62.777	150.525	201.845	0.00047941	0.00038922	0.00012679	1323.2	4.3305e-06	5.1915e-06	1356.7	356.91	4.4179e-06	4.3662e-06	399.07	137.19	113.25	37.716	5.3869e-06	48.821	0.00054345	0.00052532	0.00015099	1339.6	5.9512e-06	5.9375e-06	1376.9	363.26	5.7479e-06	5.7063e-06	406.26	140.46	116.08	38.699	5.8668e-06	50.142	-64.773	-58.856	-55.310	-135.767	4.761	22.656	-136.042	-131.306	-11.147	-11.362	-131.537	-127.218	-126.614	-122.069	3.442	-122.942	-8191	255	
1057.911	1	1	0	0	0.34152	0.12087	0.061581	0.097701	0.17821	0.15392	0.15774	0.15766	0.19336	0.010211	0.17586	0.20574	0.056424	0.16575	0.1296	0.33846	-3.3312	-4.5979	-3.9542	-4.1438	-4.5875	-3.4458	-4.7562	-4.4938	-3.7083	-4.4792	-4.1188	-4.025	-4.7771	-3.8812	-4.3729	-4.6292	75.203	-3.822	-58.557	-140.416	-15.925	-23.610	186.614	115.949	-102.061	162.517	172.657	190.904	7.102	37.510	122.446	184.385	0.00049351	0.00043799	0.00012883	1319.7	4.7226e-06	4.3511e-06	1361	356.88	4.4908e-06	5.038e-06	399.66	137.49	113.05	37.802	4.442e-06	48.953	0.00054389	0.00053483	0.00015373	1339.3	5.8064e-06	5.8386e-06	1378.9	364.18	5.9432e-06	5.9133e-06	406.85	140.64	116.14	38.762	5.8289e-06	50.253	-62.522	-76.477	-62.090	-135.886	-16.867	-10.292	-136.122	-131.322	16.788	8.327	-131.706	-127.388	-126.937	-122.062	9.402	-123.121	-8191	255	
1058.007	1	1	0	0	0.11285	0.13823	0.13885	0.21397	0.097886	0.26715	0.20165	0.24125	0.30791	0.085666	0.16087	0.31998	0.14661	0.15511	0.27893	0.27167	-3.2938	-4.6229	-3.8729	-4.075	-4.6167	-3.7062	-4.3208	-4.7208	-3.6104	-4.5042	-4.3187	-3.7458	-4.6792	-3.7646	-4.0667	-4.6729	-108.366	155.945	-3.344	197.152	108.915	18.788	152.608	125.661	-114.403	76.688	155.743	185.054	119.721	-146.998	-28.533	85.829	0.00046414	0.00041666	0.00016789	1320.6	5.6368e-06	4.3736e-06	1362.7	357.8	5.3956e-06	4.8979e-06	400.01	137.04	113.3	37.514	4.7116e-06	48.99	0.00054283	0.00053012	0.00015624	1339.3	5.8183e-06	6.0896e-06	1381.2	364.24	5.8718e-06	5.9681e-06	407.32	140.43	116.13	38.689	5.997e-06	50.214	-67.641	-45.983	-49.439	-136.050	-6.929	4.938	-136.081	-131.510	-0.842	0.923	-131.710	-127.458	-126.956	-121.945	-7.914	-123.117	-8191	255	
1058.104	1	1	0	0	0.038586	0.16636	0.11044	0.23888	0.27974	0.054128	0.34822	0.2167	0.097445	0.19215	0.0079817	0.2665	0.20216	0.060403	0.13868	0.012428	-3.5187	-4.3604	-4.1917	-3.9875	-4.5396	-4.0229	-4.3333	-4.6792	-3.6188	-4.2937	-4.4375	-3.7792	-4.6	-3.9562	-4.0542	-4.6583	175.901	-49.600	78.031	-136.535	60.165	166.337	183.078	133.023	179.783	186.466	-54.864	60.441	205.959	-136.695	-20.862	138.739	0.00050838	0.00036126	0.00012936	1325.1	4.1808e-06	5.2302e-06	1361.3	356.83	3.2946e-06	5.4762e-06	399.58	137.06	113.4	37.59	5.1908e-06	48.728	0.00054996	0.00053598	0.0001517	1341.7	5.8104e-06	5.8068e-06	1378.1	363.66	5.9422e-06	5.7658e-06	406.57	140.3	116.06	38.696	6.0345e-06	50.055	-67.105	-67.373	-63.612	-135.818	-8.467	-0.307	-136.131	-131.410	0.336	3.762	-131.980	-127.385	-126.678	-121.850	10.130	-122.959	-8191	255	
1058.224	1	1	0	0	0.1164	0.11692	0.20253	0.10813	0.11052	0.09063	0.34801	0.17742	0.13336	0.14104	0.053274	0.20119	0.16528	0.066615	0.10752	0.24955	-3.2396	-4.3104	-4.2042	-3.9146	-4.4729	-3.8146	-4.1229	-4.7333	-3.5312	-4.1229	-4.4917	-3.7958	-4.5229	-3.9938	-3.8	-4.7292	-18.224	-67.379	-2.360	119.132	154.256	202.844	142.653	-118.403	37.165	200.375	68.012	-147.303	164.504	-147.137	-140.550	100.406	0.00049241	0.00053554	0.00016008	1327	3.8988e-06	6.7607e-06	1356.7	357.57	4.8816e-06	5.4731e-06	399.8	136.79	114.01	37.756	3.6496e-06	48.763	0.00055461	0.00053262	0.00014939	1340.3	5.9455e-06	6.0546e-06	1377.9	364.09	6.0328e-06	5.9047e-06	407.52	140.21	116.3	38.716	6.0748e-06	50.142	-63.764	-87.947	-51.730	-135.899	10.111	9.027	-136.201	-131.454	-13.318	-25.953	-132.010	-127.465	-126.657	-122.113	-1.096	-123.466	-8191	255	
1058.320	1	1	0	0	0.091064	0.17525	0.19647	0.17888	0.12978	0.22023	0.26568	0.22958	0.062984	0.060028	0.10762	0.12843	0.090689	0.10792	0.047032	0.14984	-3.4917	-4.3021	-4.3021	-3.6729	-4.5458	-4.0125	-3.9292	-4.7188	-3.7208	-4.2146	-4.5813	-3.7333	-4.5604	-4.3021	-3.7021	-4.6646	-127.137	-51.884	166.512	128.201	-40.531	144.147	126.388	-141.263	35.799	151.023	3.187	2.824	-42.858	178.723	46.781	169.551	0.00047341	0.00046161	0.00010619	1322.3	4.2598e-06	4.0811e-06	1357	358.67	5.6833e-06	3.5076e-06	398.79	136.73	113.12	37.485	4.1704e-06	48.832	0.00054775	0.00054156	0.00014729	1341.3	6.2464e-06	6.0614e-06	1376.9	364.35	6.0085e-06	6.0255e-06	406.47	140.2	115.8	38.542	6.0664e-06	50.099	-62.595	-36.411	-44.095	-135.791	-13.405	12.881	-136.068	-131.267	-14.709	6.774	-131.872	-127.495	-126.723	-121.966	-5.365	-123.164	-8191	255	
1058.417	1	1	0	0	0.02726	0.25021	0.042456	0.18297	0.13418	0.015729	0.29821	0.2473	0.18242	0.11574	0.23213	0.15866	0.2336	0.20423	0.24641	0.28188	-3.4958	-4.0396	-4.4958	-3.7354	-4.3729	-4.1208	-3.9167	-4.8187	-3.7917	-4.0167	-4.6771	-3.7646	-4.3438	-4.5708	-3.7938	-4.6062	92.426	-70.110	58.301	173.713	-111.317	20.189	112.584	141.944	139.059	-135.795	185.861	-139.646	-112.515	127.201	81.162	-136.582	0.00046917	0.00045466	0.00015374	1318.8	3.7495e-06	4.7995e-06	1357.4	356.78	5.1343e-06	3.9924e-06	397.73	137.29	113.74	37.583	4.6311e-06	48.789	0.00053836	0.00053643	0.00015072	1337.9	5.8925e-06	5.8832e-06	1377.1	363.26	5.9483e-06	5.9955e-06	406.53	140.37	116.16	38.662	6.0007e-06	50.169	-65.792	-63.755	-65.860	-135.953	3.922	6.216	-136.127	-131.420	14.608	20.397	-131.934	-127.401	-126.822	-122.121	9.174	-123.026	-8191	255	
1058.488	1	1	0	0	0.1177	0.043566	0.18022	0.28757	0.28434	0.37676	0.074302	0.14809	0.12283	0.12487	0.15304	0.068072	0.19712	0.060058	0.046338	0.18212	-3.7188	-4	-4.5708	-3.8563	-4.3417	-4.4	-3.9437	-4.7667	-4.1208	-3.7958	-4.7167	-3.6562	-4.3063	-4.5062	-3.6771	-4.6875	115.993	-86.747	-121.079	142.293	167.313	-130.033	-102.206	-132.169	-62.270	146.539	-105.735	-139.351	186.773	-85.754	-39.753	160.144	0.00046997	0.00046773	0.00011586	1322	4.5649e-06	5.0231e-06	1362.1	358.62	4.3039e-06	4.2238e-06	398.98	137.38	113.52	37.583	3.3442e-06	48.75	0.00053753	0.00055738	0.00015051	1339.4	5.875e-06	6.0093e-06	1378.5	364.5	6.0556e-06	6.1178e-06	406.96	140.46	115.99	38.632	6.1499e-06	50.147	-64.620	-67.697	-48.159	-135.934	-29.505	0.300	-136.119	-131.217	3.505	-2.524	-131.641	-127.373	-126.561	-121.930	7.062	-122.787	-8191	255	
1058.607	1	1	0	0	0.17539	0.31825	0.2509	0.19396	0.056735	0.23762	0.067379	0.42828	0.19306	0.20476	0.10488	0.24473	0.12137	0.27249	0.13759	0.15583	-3.8667	-3.8167	-4.6792	-3.9979	-4.2458	-4.4979	-3.9479	-4.5208	-3.9437	-3.7062	-4.7979	-4.0417	-4.1417	-4.5729	-3.6437	-4.6333	-148.405	45.344	-6.875	184.111	84.931	47.711	136.568	184.239	122.111	7.218	138.623	-64.637	179.854	210.010	114.685	-99.144	0.0004956	0.00036908	0.00017699	1323.3	3.934e-06	4.1196e-06	1360.5	356.85	5.7428e-06	4.9493e-06	399.24	136.83	112.61	37.543	5.8783e-06	48.842	0.00055051	0.00054966	0.0001488	1340.9	6.027e-06	6.0332e-06	1378.3	364.16	5.8606e-06	6.1535e-06	406.46	140.08	115.87	38.595	5.9866e-06	50.113	-64.819	-62.667	-46.229	-136.095	3.808	6.011	-136.053	-131.383	13.284	-10.767	-131.813	-127.979	-126.839	-122.155	-0.942	-122.982	-8191	255	
1058.703	1	1	0	0	0.18945	0.12266	0.11389	0.07439	0.060759	0.010004	0.12615	0.2928	0.10681	0.048137	0.14058	0.23051	0.06417	0.18678	0.1142	0.11722	-3.9458	-3.5687	-4.6625	-4.0792	-3.875	-4.4042	-3.9229	-4.4375	-4.3562	-3.6521	-4.775	-3.9792	-4.0604	-4.5646	-3.7271	-4.1958	196.840	30.169	-26.712	101.119	-91.739	-135.895	157.058	-138.814	172.682	-20.271	-120.466	74.733	180.846	174.012	-82.443	-120.460	0.00047404	0.00056994	0.00011075	1321.9	5.013e-06	5.9208e-06	1358.9	356.78	4.661e-06	5.4263e-06	399.53	136.4	112.9	37.564	3.935e-06	48.972	0.00052808	0.00054905	0.00014964	1339.4	6.0804e-06	5.704e-06	1377.4	363.59	5.8359e-06	6.1199e-06	407.08	139.97	115.69	38.683	5.8984e-06	50.106	-64.492	-58.633	-35.773	-135.771	-17.934	-3.082	-136.034	-131.106	-5.716	-8.686	-131.534	-127.403	-126.586	-121.936	-11.702	-122.996	-8191	255	
1058.799	1	1	0	0	0.094302	0.049329	0.19894	0.043676	0.10151	0.25816	0.21643	0.24714	0.1694	0.13137	0.34302	0.078816	0.032551	0.04059	0.26658	0.1872	-4.1333	-3.5646	-4.4979	-4.1562	-3.6542	-4.6188	-3.9542	-4.5188	-4.4146	-3.5542	-4.5125	-4.1083	-3.8417	-4.7604	-3.7396	-4.3333	-39.536	90.547	46.566	64.600	166.352	71.587	209.999	158.215	7.157	22.012	121.026	195.154	-117.419	-44.706	136.582	183.089	0.00047249	0.00033805	0.00020533	1319.5	5.071e-06	5.0909e-06	1361.3	357.5	6.8891e-06	5.8938e-06	399.67	137	113.56	37.586	4.7388e-06	48.727	0.00052477	0.00053707	0.00014876	1340	6.033e-06	5.6965e-06	1377.1	363.94	5.8398e-06	6.2544e-06	407.18	140.12	115.96	38.598	6.1154e-06	50.111	-66.374	-58.850	-34.672	-136.312	4.945	22.741	-136.205	-131.462	-14.978	-3.213	-132.079	-127.731	-127.094	-122.164	-26.772	-123.148	-8191	255	
1058.896	1	1	0	0	0.1922	0.21193	0.18547	0.10705	0.17773	0.16779	0.22334	0.1916	0.13664	0.12159	0.083591	0.11959	0.10043	0.05183	0.19342	0.3172	-4.2167	-3.6896	-4.5312	-4.5542	-3.7771	-4.5792	-4.0917	-4.2729	-4.4812	-3.5833	-4.5833	-4.2854	-3.6854	-4.75	-3.8187	-4.025	146.639	-0.981	-78.692	-137.562	115.871	-80.387	145.943	176.958	122.297	6.233	4.361	107.216	100.659	15.975	-62.362	50.358	0.00050098	0.000469	0.00014334	1326.2	4.3274e-06	5.6204e-06	1358.2	356.48	4.753e-06	3.6439e-06	399.91	136.91	113.41	37.428	4.6204e-06	48.69	0.00053849	0.00056318	0.00015118	1343.7	6.081e-06	5.9582e-06	1378.9	364.15	5.9832e-06	6.2295e-06	406.96	139.96	116.09	38.544	6.2559e-06	50.056	-65.750	-75.111	-42.281	-136.035	-3.519	0.031	-136.551	-131.427	-16.161	20.632	-131.694	-127.530	-126.533	-122.212	5.885	-123.025	-8191	255	
1059.016	1	1	0	0	0.21645	0.075678	0.13798	0.23932	0.334	0.20592	0.24054	0.09692	0.10991	0.30753	0.17831	0.16176	0.15464	0.20688	0.2853	0.23774	-4.3458	-3.6667	-4.3354	-4.475	-3.5854	-4.5854	-4.1333	-3.9958	-4.6208	-3.6688	-4.3375	-4.3688	-3.8187	-4.5188	-3.9792	-3.8229	127.016	-148.544	-30.536	152.089	-43.352	59.106	147.924	121.314	-67.994	64.644	120.895	130.708	144.173	167.079	45.629	30.979	0.00046763	0.00049261	0.00014981	1324.7	4.506e-06	3.6238e-06	1361.4	357.66	5.9407e-06	6.8962e-06	401.27	136.93	113.07	37.613	6.772e-06	48.585	0.00053544	0.00055658	0.00015687	1341.6	6.245e-06	5.78e-06	1378.2	364.06	6.0284e-06	6.1113e-06	407.35	140.06	115.87	38.608	6.1983e-06	50.003	-64.319	-69.652	-51.141	-135.996	-9.859	8.499	-136.417	-131.357	-9.218	-12.861	-131.774	-127.593	-126.772	-121.923	-16.049	-122.978	-8191	255	
1059.088	1	1	0	0	0.072792	0.15297	0.13146	0.20999	0.040154	0.12504	0.25778	0.1744	0.097726	0.10734	0.11737	0.075019	0.24083	0.14061	0.21224	0.11821	-4.2604	-3.7458	-4.0958	-4.5896	-3.5167	-4.5625	-4.4979	-3.9958	-4.5333	-3.8104	-4.2125	-4.6854	-3.6958	-4.6146	-4.2104	-3.8229	137.170	70.746	126.108	192.608	-73.594	-126.747	140.293	-142.647	-26.682	-43.759	127.607	-89.555	139.060	-129.537	15.268	157.435	0.00046093	0.00032881	0.00010827	1324.9	4.9632e-06	6.1096e-06	1356.5	357.36	3.2669e-06	4.6709e-06	398.94	136.94	113	37.471	5.192e-06	48.548	0.00054053	0.00056622	0.00015254	1343.1	6.2623e-06	6.0264e-06	1377.2	363.54	5.8987e-06	6.2119e-06	406.7	139.94	115.89	38.514	6.0178e-06	49.966	-63.051	-30.817	-53.510	-136.007	-13.280	17.658	-136.024	-131.011	10.091	1.176	-131.664	-127.173	-126.575	-121.956	4.271	-122.730	-8191	255	
1059.208	1	1	0	0	0.006152	0.033231	0.13849	0.22088	0.11226	0.085844	0.29189	0.35826	0.17207	0.2406	0.23574	0.21413	0.11488	0.047896	0.22698	0.18184	-4.2937	-3.7417	-3.8229	-4.7479	-3.7687	-4.4563	-4.4646	-3.9062	-4.5437	-3.875	-4.0646	-4.6292	-3.6604	-4.5021	-4.2625	-3.6667	-17.822	-116.170	128.678	196.359	101.236	193.289	160.037	176.416	-33.036	26.188	-102.057	161.047	-26.642	-81.607	141.135	140.451	0.00044486	0.00046651	0.00017225	1321	6.0394e-06	2.8691e-06	1358.3	357.17	4.8793e-06	5.4427e-06	399.98	136.96	112.92	37.616	3.7109e-06	48.694	0.00054093	0.00055578	0.00015235	1341	6.1211e-06	5.8168e-06	1379.1	363.88	5.963e-06	6.099e-06	407.36	140	115.84	38.613	6.0359e-06	50.041	-65.437	-65.611	-66.827	-135.974	-9.137	2.592	-136.269	-131.168	2.060	1.982	-131.662	-127.475	-126.600	-121.930	4.240	-122.894	-8191	255	
1059.305	1	1	0	0	0.22054	0.015205	0.28403	0.1128	0.22359	0.057099	0.16075	0.12486	0.20082	0.10819	0.2528	0.13563	0.11424	0.15672	0.19321	0.10417	-4.1146	-3.8771	-3.8729	-4.725	-3.6437	-4.45	-4.4792	-3.6937	-4.5813	-3.9688	-4.0625	-4.7625	-3.7	-4.2771	-4.5208	-3.9229	11.890	192.876	103.750	121.957	157.576	54.859	125.366	104.259	-7.629	-52.881	-145.341	189.360	-42.478	-101.613	72.942	-68.528	0.00045909	0.00032757	0.00013825	1327.3	4.5762e-06	4.0476e-06	1358.1	356.88	3.8535e-06	5.4413e-06	400.97	137.42	113.46	37.647	5.7472e-06	48.54	0.00053265	0.00056186	0.00016136	1341.4	6.1615e-06	5.9889e-06	1377.8	364	5.9221e-06	5.9941e-06	407.66	140.17	115.82	38.613	6.0074e-06	49.849	-64.678	-42.666	-71.639	-135.760	1.108	29.627	-136.103	-131.023	-12.538	5.900	-131.753	-127.396	-126.920	-121.814	-9.737	-123.081	-8191	255	
1059.401	1	1	0	0	0.091634	0.11831	0.033491	0.087305	0.15137	0.20637	0.071268	0.039968	0.15089	0.12024	0.12969	0.10429	0.094243	0.28974	0.11544	0.23002	-4.0896	-4.1417	-3.7208	-4.6542	-3.6104	-3.9917	-4.6562	-3.9167	-4.4292	-4.1542	-3.8083	-4.4896	-3.9562	-4.0604	-4.45	-3.7229	57.042	63.862	117.835	149.116	31.716	-60.267	163.365	183.536	-2.705	87.211	-14.821	104.245	-34.667	-106.214	149.273	167.415	0.00051036	0.00044404	0.00015451	1326.7	5.3719e-06	5.5963e-06	1357.8	357.59	6.5064e-06	6.3394e-06	400.25	136.64	112.99	37.606	6.1549e-06	48.589	0.00054222	0.00055149	0.00015555	1341.1	6.2013e-06	6.2203e-06	1378.7	364.08	6.0492e-06	6.2609e-06	407.5	139.95	115.77	38.597	5.9389e-06	49.974	-66.968	-49.322	-55.449	-135.851	11.659	14.673	-136.062	-131.167	-1.306	-13.150	-131.598	-127.293	-126.530	-121.879	-9.945	-122.928	-8191	255	
1059.497	1	1	0	0	0.054837	0.39787	0.037727	0.057834	0.19852	0.033732	0.072678	0.32316	0.011662	0.042926	0.10287	0.12585	0.26166	0.28218	0.29247	0.22833	-3.9333	-4.1667	-3.7188	-4.7063	-3.8417	-4.0188	-4.7979	-3.6792	-4.3771	-4.4271	-3.9	-4.6854	-4.1125	-4.1146	-4.7333	-3.8583	203.319	-35.236	32.751	196.880	47.572	68.658	202.612	86.418	19.085	-148.465	108.910	-47.730	101.855	-135.165	46.719	196.408	0.0004836	0.00034481	0.00014301	1320.2	3.4622e-06	3.65e-06	1359.5	357.96	5.4502e-06	4.3948e-06	400.82	136.35	112.72	37.426	4.7242e-06	48.56	0.00055228	0.00055357	0.00015927	1341.4	6.2341e-06	6.2185e-06	1379.6	364.04	6.1238e-06	6.1477e-06	407.27	139.86	115.75	38.551	5.9862e-06	49.936	-64.951	-78.635	-41.368	-135.830	-36.478	-29.742	-135.973	-131.094	-17.029	-17.962	-131.545	-127.258	-126.510	-121.821	2.329	-122.689	-8191	255	
1059.618	1	1	0	0	0.22635	0.03706	0.08485	0.14136	0.19774	0.2221	0.27398	0.11017	0.11811	0.033701	0.071083	0.21058	0.47464	0.089448	0.083079	0.16393	-3.8125	-4.2771	-3.7	-4.5583	-3.8167	-3.8854	-4.8083	-3.9104	-4.1458	-4.5104	-3.625	-4.7021	-4.1542	-3.875	-4.5667	-3.9854	-48.449	111.686	50.116	-141.253	33.579	-26.641	182.509	-82.394	74.133	210.672	62.534	180.593	172.311	168.265	156.869	46.532	0.00048622	0.00049987	0.00016289	1327.9	5.1353e-06	2.9648e-06	1361.3	356.37	6.0533e-06	3.4448e-06	398.88	137.28	112.96	37.411	4.9938e-06	48.676	0.00055443	0.00055421	0.00015891	1342.4	6.2676e-06	6.1978e-06	1380.6	363.57	6.208e-06	6.072e-06	406.74	140.26	115.82	38.547	5.994e-06	50.006	-68.248	-75.992	-41.330	-135.780	-13.689	3.562	-136.078	-131.080	1.841	-16.086	-131.395	-126.979	-126.716	-121.839	7.995	-122.767	-8191	255	
1059.712	1	1	0	0	0.2077	0.070707	0.15727	0.092977	0.20609	0.12325	0.096468	0.04159	0.087844	0.033934	0.12732	0.25935	0.11635	0.29533	0.13222	0.21336	-3.8708	-4.6188	-3.6854	-4.575	-4.2042	-3.7083	-4.7937	-3.9958	-3.7188	-4.4062	-3.7646	-4.4313	-4.2208	-3.8042	-4.4646	-4.0125	-5.132	58.931	201.179	188.929	210.105	207.511	150.418	5.252	34.370	-83.842	196.361	-35.456	-66.403	-118.742	125.945	154.996	0.00049217	0.00042983	0.00017627	1327.5	2.6986e-06	4.3452e-06	1361.2	357.68	4.8773e-06	4.5267e-06	399.84	136.69	113.32	37.676	5.6151e-06	48.591	0.00055002	0.00054313	0.00015398	1344.1	6.2546e-06	6.2435e-06	1379.4	364.26	6.1977e-06	6.1329e-06	407.26	140.18	115.8	38.638	6.1687e-06	50.023	-64.870	-70.689	-59.134	-135.536	7.885	-6.626	-135.739	-130.986	-4.953	-19.472	-131.217	-126.956	-126.458	-121.631	13.142	-122.495	-8191	255	
1059.808	1	1	0	0	0.13952	0.12806	0.11559	0.074006	0.059117	0.25265	0.16776	0.081583	0.10365	0.18885	0.06644	0.15543	0.20169	0.38892	0.12778	0.22048	-3.7021	-4.5771	-3.6312	-4.4313	-4.3667	-3.7729	-4.7396	-4.1562	-3.9167	-4.5875	-3.9188	-4.3417	-4.4917	-3.6437	-4.4583	-4.1542	-127.997	63.976	191.064	145.741	185.007	-96.154	-127.339	-36.354	-41.367	-41.300	-143.047	167.701	-28.870	206.720	-29.493	154.258	0.00049397	0.00051095	9.9961e-05	1330.3	6.2146e-06	6.48e-06	1368.4	357.28	5.0709e-06	5.9139e-06	400.21	137.62	112.87	37.559	3.9406e-06	48.705	0.00056086	0.00056795	0.00015649	1345.3	6.2603e-06	6.2624e-06	1384.2	364.18	6.3316e-06	6.1971e-06	407.96	140.45	115.93	38.641	6.0661e-06	50.047	-62.312	-55.844	-43.381	-135.611	-4.612	-10.823	-135.851	-131.115	-6.129	-12.239	-131.561	-127.146	-126.685	-121.706	2.709	-122.650	-8191	255	
1059.904	1	1	0	0	0.32973	0.051943	0.09257	0.19032	0.060804	0.18353	0.12214	0.22089	0.15308	0.25675	0.28835	0.1637	0.23501	0.18238	0.122	0.084986	-3.3958	-4.6062	-3.6271	-4.2854	-4.4458	-3.6479	-4.7396	-4.4313	-3.7542	-4.575	-3.8729	-4.2354	-4.6	-3.8417	-4.5563	-4.4	46.798	-31.424	7.876	180.350	-122.325	82.361	56.910	118.904	-5.113	144.201	135.540	6.540	180.040	167.909	71.309	-98.767	0.00046521	0.00048499	0.0001009	1328	3.8912e-06	5.3524e-06	1359.4	358.14	3.957e-06	5.2899e-06	399.44	137.42	113.3	37.706	3.2849e-06	48.804	0.00054922	0.00055318	0.00016511	1344.9	6.0555e-06	6.2389e-06	1380.2	364.4	6.2992e-06	6.0053e-06	407.24	140.44	116.17	38.676	6.0017e-06	50.051	-65.995	-80.002	-67.533	-135.518	-10.023	12.759	-135.944	-131.118	6.250	28.299	-131.769	-127.102	-126.349	-121.722	-1.693	-122.595	-8191	255	
1060.000	1	1	0	0	0.033068	0.076545	0.15905	0.28002	0.1633	0.094027	0.17118	0.090737	0.19965	0.037488	0.18802	0.16495	0.17849	0.11254	0.083368	0.21806	-3.3521	-4.6312	-3.9062	-4.1896	-4.5646	-3.7292	-4.8146	-4.5625	-3.5646	-4.4958	-4.1104	-4.1458	-4.6104	-3.8854	-4.2854	-4.5583	121.587	-147.288	92.540	210.683	45.759	127.689	78.199	136.336	-125.306	-39.829	-145.399	-39.571	193.149	122.282	25.418	175.905	0.00046339	0.00047118	0.00012796	1333.2	3.4189e-06	4.1622e-06	1361.7	357.27	3.384e-06	5.9947e-06	398.64	137.14	113.38	37.635	5.8818e-06	48.748	0.00055141	0.00054146	0.00015829	1346.7	5.8776e-06	6.2099e-06	1381.1	364.13	6.2288e-06	6.103e-06	407.31	140.24	116.14	38.675	6.2026e-06	50.079	-64.214	-45.293	-44.933	-135.471	-23.900	25.413	-135.828	-131.052	8.980	-13.449	-131.491	-127.150	-126.396	-121.805	9.535	-122.750	-8191	255	
1060.097	1	1	0	0	0.17937	0.069104	0.03161	0.23731	0.09558	0.2698	0.21093	0.099744	0.10274	0.061407	0.13502	0.18299	0.27082	0.14295	0.11106	0.080472	-3.375	-4.5708	-3.8917	-4.1792	-4.6	-3.7875	-4.5833	-4.6188	-3.5292	-4.5583	-4.2937	-3.8958	-4.8104	-3.7417	-4.225	-4.5938	205.639	183.617	177.567	182.104	145.063	-102.243	140.892	167.529	39.962	-147.801	113.978	-120.985	144.010	-33.770	-79.548	163.600	0.00047939	0.00038286	0.00018071	1327.7	4.8967e-06	4.5971e-06	1366.1	359.48	4.971e-06	7.2244e-06	399.64	137.06	113.25	37.642	4.3168e-06	48.716	0.00055865	0.00054524	0.00016156	1346.4	6.038e-06	6.2035e-06	1384.3	365.25	6.1837e-06	6.0871e-06	407.62	140.3	116.03	38.628	6.157e-06	50.103	-63.118	-54.234	-49.635	-135.730	20.367	-14.064	-135.876	-131.031	-5.541	-2.887	-131.525	-126.922	-126.574	-121.621	-15.029	-122.545	-8191	255	
1060.193	1	1	0	0	0.12346	0.20732	0.069471	0.093233	0.11952	0.042198	0.15005	0.16243	0.086872	0.11681	0.18208	0.1106	0.077055	0.043997	0.014799	0.18376	-3.3458	-4.4979	-4.1208	-3.9458	-4.7146	-3.7417	-4.375	-4.7063	-3.6542	-4.4208	-4.45	-3.7958	-4.7042	-3.8833	-3.9958	-4.7125	117.754	-123.508	203.350	157.346	44.426	-145.030	185.486	147.512	-16.261	113.677	167.004	205.126	71.033	196.746	-23.133	147.822	0.00049826	0.00065346	0.00013725	1331.1	3.4779e-06	4.2633e-06	1362.7	358.06	5.574e-06	4.3728e-06	400.68	137.52	113.71	37.485	5.1275e-06	48.674	0.00056253	0.00055462	0.0001557	1346.3	6.0363e-06	6.1674e-06	1383.3	364.75	6.2182e-06	5.9822e-06	407.73	140.34	116.05	38.578	6.156e-06	50.142	-62.998	-57.289	-64.313	-135.466	-11.254	5.660	-135.928	-131.150	-10.215	-7.684	-131.525	-127.259	-126.296	-121.793	-2.094	-122.481	-8191	255	
1060.313	1	1	0	0	0.0072695	0.28419	0.10146	0.41343	0.093383	0.050821	0.21029	0.085493	0.2327	0.17543	0.10738	0.18947	0.18571	0.071948	0.26538	0.091524	-3.3	-4.3313	-4.1083	-3.7375	-4.6792	-3.9229	-4.0333	-4.6896	-3.7938	-4.1979	-4.5312	-3.6625	-4.6979	-3.9479	-3.8771	-4.5333	-29.338	-98.230	-8.091	206.456	-73.178	23.518	111.119	-114.801	86.915	-135.623	140.763	-72.606	72.796	179.697	77.791	-122.775	0.00048609	0.00044389	0.00015861	1325.1	3.6977e-06	5.0523e-06	1366	357.88	7.4302e-06	5.549e-06	401.81	137.95	113.96	37.581	6.5534e-06	48.843	0.00056184	0.00055482	0.00015873	1344.5	5.9866e-06	5.93e-06	1384.2	364.57	6.1837e-06	6.3568e-06	408.35	140.52	116.25	38.63	6.2992e-06	50.166	-65.422	-50.522	-53.274	-135.511	-21.295	-7.308	-135.570	-130.909	-4.811	-16.338	-131.427	-127.132	-126.279	-121.926	-3.544	-122.617	-8191	255	
1060.385	1	1	0	0	0.1877	0.054728	0.19672	0.011886	0.22496	0.081058	0.32038	0.060835	0.1298	0.15965	0.18821	0.35357	0.12656	0.088903	0.20176	0.22737	-3.3208	-4.1792	-4.2375	-3.8958	-4.4896	-4.1646	-3.9708	-4.7958	-3.7021	-4.2188	-4.625	-3.7292	-4.6521	-4.2396	-3.7062	-4.7333	-59.979	-68.211	-8.605	174.935	125.303	-41.378	115.315	-88.820	166.380	-136.605	164.783	-134.047	210.642	-74.604	-41.781	134.432	0.00046698	0.00047815	0.0001948	1332.5	5.7045e-06	5.6116e-06	1368.4	360.33	4.4164e-06	4.7527e-06	399.4	137.14	113.35	37.787	5.723e-06	48.359	0.00055071	0.00056811	0.00015544	1346.6	6.146e-06	6.2642e-06	1384	365.3	6.2932e-06	6.3341e-06	407.94	140.33	116.06	38.644	6.3059e-06	50.015	-63.687	-69.024	-63.700	-135.289	-4.561	10.009	-135.784	-130.785	9.985	2.125	-131.292	-126.931	-126.012	-121.646	4.088	-122.400	-8191	255	
1060.481	1	1	0	0	0.23599	0.11055	0.19765	0.14458	0.074436	0.18078	0.34616	0.18127	0.060146	0.15872	0.11695	0.15836	0.0075875	0.21833	0.12776	0.11846	-3.625	-4.0958	-4.4729	-3.7667	-4.5	-4.0083	-3.9958	-4.7312	-3.8708	-3.9521	-4.5458	-3.6771	-4.5292	-4.4042	-3.5687	-4.7125	-14.497	118.986	119.253	118.225	80.695	-30.829	74.057	-136.797	-51.233	31.362	159.924	55.536	179.212	199.278	170.663	176.768	0.00047182	0.00060315	0.00015593	1328.7	4.6899e-06	4.716e-06	1366.9	358.95	4.9115e-06	5.5644e-06	401.28	137.08	113.37	37.628	5.5045e-06	49.001	0.00055653	0.0005764	0.00015742	1346.4	6.1423e-06	6.2396e-06	1385.1	365.48	6.3159e-06	6.5047e-06	408.24	140.32	116.06	38.689	6.375e-06	50.21	-65.293	-61.196	-56.713	-135.296	-1.202	5.139	-135.898	-131.121	-3.205	-7.222	-131.603	-127.227	-126.460	-121.867	-5.098	-122.752	-8191	255	
1060.577	1	1	0	0	0.28976	0.12983	0.13131	0.29227	0.28189	0.12372	0.21602	0.24858	0.069609	0.21227	0.061392	0.18415	0.12715	0.36194	0.074192	0.15836	-3.5792	-3.8854	-4.5542	-3.95	-4.2312	-4.3646	-3.9562	-4.6646	-3.9458	-4	-4.5396	-3.9062	-4.3479	-4.5354	-3.5563	-4.7896	-59.860	-30.916	-34.780	145.865	143.079	148.247	164.841	161.180	-17.010	41.344	-124.659	177.608	-139.859	188.688	207.752	44.957	0.00046281	0.00042448	0.0001491	1331.2	3.2396e-06	3.8019e-06	1366.7	358.53	6.3583e-06	3.6967e-06	401.66	137.7	114.15	37.497	3.0139e-06	48.853	0.00056004	0.00057711	0.00015411	1347.4	6.1493e-06	6.2271e-06	1384.5	365.37	6.305e-06	6.2404e-06	409.21	140.84	116.53	38.628	6.2929e-06	50.189	-64.404	-67.737	-66.669	-135.567	15.364	-8.798	-135.981	-131.103	-10.256	6.155	-131.433	-127.169	-126.281	-121.736	5.226	-122.821	-8191	255	
1060.696	1	1	0	0	0.21226	0.19292	0.078689	0.24895	0.15287	0.13704	0.1306	0.16711	0.11364	0.12216	0.27997	0.039025	0.090165	0.07127	0.28763	0.26056	-3.6667	-3.8854	-4.6375	-3.7938	-4.1396	-4.4938	-3.8167	-4.7208	-4.0125	-3.875	-4.7604	-3.8604	-4.3313	-4.6375	-3.6208	-4.5104	29.178	-90.473	-31.472	170.049	39.596	85.538	169.607	127.526	174.896	-14.914	165.243	121.083	185.377	119.968	-56.547	177.805	0.00046551	0.00034857	8.9896e-05	1331.3	4.0449e-06	6.3011e-06	1368.4	359.63	5.6447e-06	6.9091e-06	401.73	137.43	113.95	37.677	5.8902e-06	48.959	0.00055851	0.00057935	0.00015573	1349.4	6.4524e-06	6.2649e-06	1385.8	366.12	6.3185e-06	6.6071e-06	408.57	140.77	116.55	38.772	6.2663e-06	50.199	-63.842	-47.497	-62.218	-135.409	9.375	8.533	-135.952	-130.911	9.167	1.728	-131.327	-127.012	-126.137	-121.633	-0.713	-122.478	-8191	255	
1060.792	1	1	0	0	0.16626	0.11884	0.048553	0.14342	0.18427	0.15329	0.23695	0.25368	0.16374	0.10816	0.18052	0.086091	0.21797	0.029429	0.071885	0.083955	-3.8646	-3.5917	-4.5125	-4.0687	-3.9083	-4.6	-3.8875	-4.5292	-4.1062	-3.7104	-4.7604	-4.0958	-3.8979	-4.6229	-3.7729	-4.2854	-38.576	-83.503	199.928	112.715	189.690	147.646	158.389	129.322	161.232	208.559	174.323	-52.642	-118.208	198.795	-28.177	152.221	0.00049515	0.00045838	0.00011605	1331.6	4.5085e-06	5.0094e-06	1368.6	358.65	4.987e-06	5.9585e-06	403.3	137.64	114	37.68	5.625e-06	49.084	0.00056014	0.00057349	0.00015399	1348.2	6.3835e-06	6.1807e-06	1387.3	365.78	6.1315e-06	6.4088e-06	409.59	140.84	116.72	38.75	6.4089e-06	50.356	-66.507	-49.710	-53.339	-135.461	-3.250	29.742	-135.771	-130.949	-11.554	1.806	-131.090	-126.717	-126.270	-121.631	2.882	-122.874	-8191	255	
1060.888	1	1	0	0	0.21455	0.13657	0.15784	0.16157	0.1012	0.0129	0.2188	0.1595	0.16818	0.085607	0.20638	0.22307	0.20567	0.089369	0.12611	0.22558	-4.0104	-3.6542	-4.4729	-4.3375	-3.7812	-4.5521	-3.7708	-4.4958	-4.3333	-3.6646	-4.55	-4.1229	-3.8667	-4.7812	-3.8583	-4.4292	197.938	31.654	-57.667	142.849	-71.730	165.550	207.383	151.642	83.902	138.782	-103.129	133.314	181.535	56.201	-131.251	53.518	0.00050863	0.00044756	0.00014182	1328.1	4.7227e-06	3.1401e-06	1366.8	358.34	5.6543e-06	5.8273e-06	400.6	137.98	114.4	37.883	4.319e-06	49.037	0.00055529	0.00057221	0.00015329	1349.4	6.3805e-06	6.351e-06	1386.2	366.17	6.2e-06	6.7935e-06	409	141.05	116.97	38.948	6.3754e-06	50.496	-66.664	-45.387	-65.617	-135.857	8.655	-36.708	-136.065	-131.362	5.977	8.217	-131.723	-127.467	-126.561	-121.703	-24.926	-122.634	-8191	255	
1060.985	1	1	0	0	0.22602	0.38103	0.10171	0.19964	0.18064	0.19257	0.17951	0.12148	0.18603	0.23292	0.20393	0.23281	0.11934	0.11866	0.21268	0.17019	-4.2812	-3.55	-4.4187	-4.3313	-3.5854	-4.6438	-4.1729	-4.3187	-4.4646	-3.7	-4.4437	-4.3896	-3.7979	-4.5896	-3.8458	-4.2042	25.731	185.051	149.694	138.679	206.524	92.492	189.914	86.320	-56.443	-26.204	141.657	117.434	-11.678	180.122	96.959	166.944	0.00048718	0.00046651	0.00016747	1340	3.8515e-06	5.8203e-06	1374.4	360.23	4.8571e-06	4.1716e-06	401.81	138.21	114.57	37.864	6.2382e-06	49.425	0.00056296	0.00060196	0.00016252	1355.6	6.6416e-06	6.4617e-06	1393.2	367.84	6.4404e-06	6.6403e-06	409.81	141.57	117.13	39.075	6.4774e-06	50.702	-63.958	-68.784	-47.076	-135.672	17.635	12.483	-136.060	-131.095	1.743	-1.707	-131.263	-127.041	-126.531	-121.742	-2.845	-122.832	-8191	255	
1061.081	1	1	0	0	0.12311	0.12978	0.34672	0.10393	0.17334	0.0085614	0.1812	0.10656	0.084675	0.12051	0.30409	0.16966	0.097304	0.041062	0.10453	0.18984	-4.1188	-3.5542	-4.3542	-4.4125	-3.7812	-4.5833	-4.1396	-4.0958	-4.6146	-3.6396	-4.4563	-4.3958	-3.7417	-4.5917	-4.0667	-3.8854	-66.466	-90.758	-116.393	94.105	-97.274	33.503	164.223	118.924	182.537	194.113	184.248	152.650	-92.686	59.591	199.503	150.100	0.00049208	0.00052954	0.0001345	1342.5	3.6511e-06	4.1801e-06	1376.5	362.14	4.6874e-06	4.218e-06	405.66	138.7	115.39	38.298	3.5985e-06	49.541	0.0005619	0.00059783	0.00016058	1357	6.5803e-06	6.4288e-06	1394.4	368.14	6.298e-06	6.6568e-06	412.82	142.26	117.85	39.313	6.3693e-06	50.883	-63.830	-61.533	-60.622	-136.006	5.575	0.546	-136.364	-131.273	11.303	20.400	-131.706	-127.502	-126.996	-121.986	9.476	-122.558	-8191	255	
1061.177	1	1	0	0	0.18443	0.32288	0.10996	0.13597	0.16162	0.17586	0.28298	0.064991	0.12289	0.15585	0.13025	0.062482	0.080525	0.29003	0.083838	0.17693	-4.4083	-3.6917	-4.025	-4.6083	-3.5833	-4.5771	-4.2146	-3.9875	-4.6083	-3.7708	-4.3438	-4.5771	-3.5354	-4.6479	-4.0563	-3.8542	-24.952	-6.312	48.404	153.848	-137.205	58.854	109.355	93.368	-41.167	-0.084	92.904	-131.154	-17.849	152.250	-116.722	203.960	0.00048105	0.00059088	0.00015256	1338.7	5.7724e-06	4.3914e-06	1383	362.52	4.6248e-06	4.9988e-06	405.94	139.74	116.09	38.263	6.997e-06	49.751	0.00056145	0.00058002	0.00016029	1359.8	6.3232e-06	6.2888e-06	1399.3	369.47	6.2029e-06	6.513e-06	413.53	142.9	118.33	39.406	6.3777e-06	51.153	-64.702	-54.238	-44.151	-135.750	-4.481	14.959	-135.954	-131.077	7.780	21.055	-131.536	-127.303	-126.750	-122.007	-9.920	-122.938	-8191	255	
1061.298	1	1	0	0	0.095078	0.093927	0.19052	0.31785	0.098067	0.079299	0.18432	0.23326	0.10135	0.35037	0.22539	0.06298	0.092873	0.19792	0.035034	0.13022	-4.3688	-3.8	-4.0458	-4.5833	-3.5417	-4.5188	-4.2875	-3.9729	-4.4354	-3.8583	-4.1604	-4.5458	-3.575	-4.4333	-4.175	-3.8063	198.443	109.102	-119.454	202.348	139.444	-18.716	-142.707	131.094	-145.469	44.932	168.596	42.854	26.174	-141.529	-110.956	195.197	0.00049192	0.00036686	0.00012574	1343.7	3.8562e-06	4.3736e-06	1380	361.88	6.6486e-06	4.3607e-06	406.04	139.49	115.8	38.201	5.2462e-06	49.695	0.00055773	0.00059242	0.0001662	1362.3	6.5816e-06	6.1971e-06	1399.5	369.03	6.2323e-06	6.4156e-06	412.64	142.6	118.24	39.388	6.5243e-06	50.97	-64.067	-53.645	-40.427	-136.021	2.274	4.619	-136.267	-131.395	-15.842	7.457	-131.744	-127.416	-126.706	-121.831	1.114	-122.627	-8191	255	
1061.394	1	1	0	0	0.1841	0.064835	0.16185	0.098494	0.10561	0.1071	0.16721	0.12794	0.032604	0.17532	0.24389	0.35293	0.28386	0.28248	0.081586	0.24028	-4.3042	-4.0292	-3.9833	-4.7688	-3.5125	-4.3771	-4.6042	-3.7896	-4.5375	-3.8583	-4.0938	-4.7396	-3.8833	-4.3	-4.4458	-3.7375	7.985	12.285	205.138	147.401	-104.831	12.375	106.927	130.932	155.629	-147.686	165.716	187.043	-144.337	207.789	106.231	158.499	0.0005107	0.0006069	0.00015063	1347.3	4.8938e-06	4.8408e-06	1382.2	362.39	6.4042e-06	4.6746e-06	404.95	139.43	115.19	38.321	6.1302e-06	49.725	0.00057394	0.0006002	0.00016513	1362.8	6.4928e-06	6.3381e-06	1400.5	369.24	6.3633e-06	6.3853e-06	412.31	142.59	118.08	39.409	6.5196e-06	51.021	-66.874	-31.523	-48.594	-135.675	8.703	-11.883	-135.982	-131.304	-7.389	-9.663	-131.366	-127.086	-126.693	-121.669	-12.227	-122.905	-8191	255	
1061.490	1	1	0	0	0.18794	0.1195	0.15549	0.12949	0.13622	0.098322	0.37272	0.40776	0.064893	0.2416	0.028496	0.14013	0.20743	0.19588	0.057522	0.090515	-4.1167	-4.1521	-3.6417	-4.7583	-3.8229	-4.1417	-4.6479	-4.0062	-4.5542	-4.1438	-3.8521	-4.7958	-3.8333	-4.2812	-4.5333	-3.8479	-44.272	50.636	104.716	-91.599	59.824	93.321	125.723	161.020	-92.865	150.621	185.552	-127.327	82.849	196.821	113.932	-90.393	0.00051528	0.00054178	0.00014496	1350.8	2.5146e-06	5.7982e-06	1380.2	362.34	4.2059e-06	5.1387e-06	406.42	139.83	116.02	38.442	6.0954e-06	49.69	0.00058282	0.00060584	0.0001706	1365.5	6.6459e-06	6.6884e-06	1401.4	369.5	6.3886e-06	6.6482e-06	413.59	142.95	118.37	39.456	6.744e-06	51.079	-66.158	-58.836	-67.754	-135.900	-11.177	-3.954	-136.386	-131.375	5.094	-5.300	-131.633	-127.444	-126.969	-121.991	-3.969	-122.745	-8191	255	
1061.609	1	1	0	0	0.35362	0.1535	0.2063	0.070791	0.11432	0.32654	0.081017	0.33827	0.2081	0.23093	0.030636	0.095595	0.1195	0.24975	0.049597	0.13301	-4.1729	-4.1875	-3.6937	-4.7646	-3.9208	-3.9167	-4.7896	-3.8021	-4.4229	-4.3938	-3.775	-4.7792	-4.0833	-3.9979	-4.6792	-3.9333	186.741	157.441	48.807	-84.179	195.595	69.937	161.923	166.605	0.808	61.121	-148.160	117.109	112.325	182.133	170.754	-10.069	0.00048731	0.00052741	0.00015923	1353.9	3.6806e-06	4.111e-06	1383.6	362.53	5.2685e-06	4.6885e-06	406.64	140.1	115.16	38.396	5.848e-06	49.756	0.00058519	0.00060488	0.00017299	1368.4	6.6949e-06	6.7287e-06	1401	369.64	6.7037e-06	6.6467e-06	413.45	142.97	118.22	39.45	6.4331e-06	51.047	-65.803	-53.332	-45.369	-135.846	-20.818	-1.817	-136.332	-131.436	5.701	-21.134	-131.414	-127.100	-126.508	-121.881	13.899	-123.169	-8191	255	
1061.680	1	1	0	0	0.13645	0.214	0.3089	0.35405	0.14351	0.25583	0.3563	0.21531	0.044004	0.26121	0.24464	0.14532	0.32483	0.45567	0.11007	0.18006	-3.875	-4.2792	-3.5542	-4.775	-4.0542	-3.8292	-4.9688	-3.8688	-4.225	-4.3063	-3.7354	-4.6542	-4.1104	-3.925	-4.5625	-4.0542	-69.250	2.480	198.125	207.219	95.592	50.160	197.053	102.325	29.699	-145.953	-145.398	-117.563	202.514	141.548	-148.001	73.190	0.00047509	0.00067222	0.00016778	1349.4	4.3138e-06	4.042e-06	1383.9	363.03	4.6197e-06	4.5548e-06	405.5	139.77	115.57	38.526	4.8997e-06	49.689	0.00057429	0.00059443	0.00017198	1366.5	6.6817e-06	6.4931e-06	1402.9	370.08	6.4677e-06	6.4095e-06	412.89	142.72	118.22	39.548	6.5065e-06	51.072	-65.698	-60.587	-50.573	-135.908	-3.377	10.657	-136.018	-131.413	-16.464	-2.059	-132.118	-127.839	-126.993	-122.203	0.469	-123.107	-8191	255	
1061.777	1	1	0	0	0.14505	0.10535	0.091302	0.1346	0.088926	0.20994	0.27944	0.055456	0.07413	0.23165	0.41307	0.099658	0.20825	0.078785	0.10234	0.16212	-3.6833	-4.4875	-3.525	-4.6937	-4.1	-3.85	-4.9229	-3.9271	-4.0687	-4.4437	-3.8417	-4.5958	-4.2625	-3.75	-4.5833	-4.1146	18.821	-102.593	-133.205	196.063	112.474	103.028	-145.119	-98.677	97.736	201.663	-132.410	-12.288	-110.195	173.597	-125.116	82.763	0.0004829	0.00048139	0.00014623	1347.7	6.7159e-06	6.013e-06	1386	361.95	6.78e-06	4.3945e-06	407.14	139.28	115.05	38.43	5.4348e-06	49.859	0.0005877	0.00059274	0.00016604	1365.9	6.5044e-06	6.7052e-06	1404.4	369.56	6.5567e-06	6.5097e-06	413.94	142.94	118.14	39.527	6.3774e-06	51.095	-65.693	-65.687	-77.890	-136.064	-11.659	4.551	-136.530	-131.845	-4.099	17.275	-132.001	-127.896	-127.151	-122.230	23.864	-123.317	-8191	255	
1061.873	1	1	0	0	0.1552	0.14132	0.11261	0.24412	0.10241	0.093966	0.13383	0.24036	0.33637	0.10099	0.21224	0.31979	0.18186	0.060135	0.11091	0.092476	-3.7604	-4.5333	-3.6417	-4.4563	-4.1521	-3.7396	-4.7937	-4.0292	-3.7396	-4.5625	-3.7938	-4.3063	-4.5312	-3.6875	-4.4625	-4.2417	-21.834	-30.935	88.174	131.736	184.524	-86.089	148.739	76.111	154.659	-51.406	125.978	-148.881	19.556	149.708	-51.867	129.519	0.00048995	0.00042865	0.0001099	1349	4.7851e-06	6.5123e-06	1381.9	363.92	4.6288e-06	6.9097e-06	405.7	139.76	115.61	38.29	5.0383e-06	49.798	0.0005907	0.00060677	0.00017395	1366.8	6.4037e-06	6.678e-06	1403.4	370.21	6.5128e-06	6.5162e-06	413.34	142.97	118.44	39.432	6.6058e-06	51.086	-63.795	-44.255	-69.311	-136.182	-10.297	18.718	-136.478	-131.549	-5.324	-7.693	-132.081	-127.725	-127.101	-122.398	-14.591	-123.317	-8191	255	
1061.993	1	1	0	0	0.29679	0.10576	0.2099	0.10244	0.037883	0.24247	0.22571	0.12727	0.093203	0.28033	0.20657	0.15318	0.15898	0.070248	0.26438	0.25411	-3.45	-4.5833	-3.5917	-4.4208	-4.35	-3.5312	-4.7667	-4.0604	-3.6813	-4.6667	-3.9854	-4.1312	-4.5479	-3.6813	-4.6854	-4.2854	16.979	24.580	14.720	130.657	48.497	145.022	134.801	205.005	-9.887	-136.991	202.682	-83.320	182.938	-6.635	105.167	-141.739	0.0004996	0.00045448	0.00013647	1354.3	5.2182e-06	4.9918e-06	1387.1	363.51	4.3925e-06	6.5598e-06	404.38	139.79	115.34	38.349	4.8305e-06	49.613	0.00057954	0.00059053	0.00017119	1368	6.5279e-06	6.5459e-06	1406.1	370.41	6.6415e-06	6.601e-06	413.05	142.96	118.25	39.45	6.5012e-06	51.019	-67.850	-94.483	-34.106	-136.096	-3.259	4.786	-136.425	-131.927	9.405	-7.473	-132.205	-127.627	-127.065	-122.361	0.961	-123.441	-8191	255	
1062.089	1	1	0	0	0.029689	0.093493	0.20155	0.42951	0.21774	0.013236	0.16925	0.16833	0.062188	0.22753	0.11515	0.21119	0.1302	0.3071	0.047798	0.22006	-3.2875	-4.6729	-3.9437	-4.3479	-4.5354	-3.6583	-4.6104	-4.4021	-3.8187	-4.5687	-4.0271	-4.1583	-4.65	-3.775	-4.4458	-4.4313	6.884	-23.724	180.964	-141.038	58.064	164.466	147.007	171.001	152.667	-20.659	-129.447	-32.631	71.814	-127.990	-142.293	188.439	0.00048129	0.00045629	0.00012869	1349.3	4.0295e-06	3.507e-06	1390.7	363.52	4.4245e-06	5.7482e-06	405.44	139.89	115.77	38.365	3.4606e-06	49.54	0.00057413	0.00057967	0.0001683	1370.3	6.4683e-06	6.8112e-06	1406.8	370.25	6.6156e-06	6.4697e-06	413.11	142.92	118.35	39.449	6.5458e-06	51.066	-65.836	-61.923	-64.178	-136.240	-24.886	3.614	-136.368	-131.615	5.968	-3.140	-132.100	-127.591	-127.363	-122.277	-16.135	-123.425	-8191	255	
1062.186	1	1	0	0	0.16992	0.11084	0.098459	0.011945	0.098111	0.15333	0.35983	0.16791	0.21892	0.14081	0.2349	0.097618	0.057812	0.17385	0.0668	0.083357	-3.2917	-4.5667	-4.0229	-3.9938	-4.5354	-3.825	-4.5333	-4.475	-3.5604	-4.6438	-4.0396	-3.7875	-4.5854	-3.8354	-4.2188	-4.5271	24.816	5.105	170.109	-149.554	-13.390	-72.902	169.771	194.356	-130.598	-33.110	93.496	201.778	168.228	94.478	197.043	126.705	0.00047689	0.00048286	0.00012625	1346.2	5.2911e-06	5.8633e-06	1390	363.56	5.5959e-06	7.053e-06	405.76	139.67	115.77	38.477	6.2874e-06	50.013	0.00058394	0.00060574	0.00016701	1367.8	6.5001e-06	6.5731e-06	1406.6	370.4	6.7056e-06	6.439e-06	413.6	143.2	118.57	39.473	6.4036e-06	51.132	-63.063	-60.874	-54.600	-136.142	15.080	-11.727	-136.582	-132.033	-6.699	6.022	-132.027	-127.820	-127.115	-122.506	15.925	-123.228	-8191	255	
1062.257	1	1	0	0	0.085109	0.086481	0.13741	0.27167	0.19528	0.051996	0.28854	0.21422	0.14901	0.14365	0.20601	0.16129	0.092761	0.33206	0.11763	0.16455	-3.1979	-4.6729	-4.1146	-3.9917	-4.5708	-3.7188	-4.175	-4.5958	-3.675	-4.3292	-4.3917	-3.8833	-4.6229	-4.0854	-4.075	-4.4292	194.033	51.502	104.570	182.530	-56.440	116.121	148.631	131.827	-35.987	81.563	111.307	199.307	-27.158	180.508	159.783	141.437	0.00047112	0.00056509	8.4534e-05	1347.4	3.7931e-06	6.0683e-06	1386.1	363.15	4.5759e-06	5.0387e-06	405.58	139.48	115.29	38.417	4.8025e-06	49.8	0.00058049	0.00058998	0.00016462	1369.3	6.4173e-06	6.7395e-06	1407.3	369.97	6.5951e-06	6.7484e-06	414.24	143.17	118.47	39.506	6.6052e-06	51.15	-64.789	-69.447	-78.148	-136.421	25.807	23.169	-136.521	-131.713	5.337	-10.596	-132.413	-127.780	-127.165	-122.622	4.724	-123.431	-8191	255	
1062.378	1	1	0	0	0.13471	0.15147	0.06496	0.47621	0.24431	0.16795	0.20337	0.33639	0.066296	0.15532	0.34434	0.1715	0.10645	0.28683	0.21157	0.12809	-3.3708	-4.4354	-4.1104	-3.725	-4.6312	-3.9083	-4.2104	-4.6583	-3.6604	-4.45	-4.4729	-3.7479	-4.7312	-3.9313	-3.9167	-4.7646	37.780	106.591	169.750	-140.498	-30.290	-55.540	194.696	-114.004	128.726	-0.990	135.453	186.751	-59.376	140.853	54.498	91.622	0.00049569	0.000399	0.00016044	1356.7	4.8572e-06	5.2914e-06	1388.2	363.85	5.3174e-06	3.6433e-06	404.75	139.6	115.68	38.371	5.7369e-06	49.721	0.00058274	0.00060574	0.00016612	1371.9	6.3676e-06	6.6127e-06	1407	370.31	6.4552e-06	6.4181e-06	413.74	143.08	118.55	39.536	6.5837e-06	51.169	-65.124	-59.727	-68.911	-136.270	1.594	10.891	-136.623	-131.787	7.910	6.320	-132.233	-127.944	-126.849	-122.545	-9.658	-123.392	-8191	255	
1062.474	1	1	0	0	0.15532	0.18486	0.16097	0.24015	0.11806	0.16291	0.24288	0.18595	0.23714	0.11559	0.17122	0.11766	0.32837	0.33778	0.15283	0.090378	-3.3917	-4.2896	-4.3458	-3.9396	-4.2604	-3.9125	-4.1042	-4.725	-3.475	-4.2833	-4.3854	-3.7	-4.5771	-4.1917	-3.6729	-4.7688	115.262	-72.219	201.770	154.093	-22.083	47.412	170.471	-121.472	162.614	45.712	89.227	184.289	191.964	169.297	173.518	108.740	0.00047595	0.00056589	0.00016032	1352	5.4313e-06	4.1245e-06	1388.6	363.99	4.7879e-06	4.4991e-06	406.21	139.79	115.56	38.429	4.6054e-06	50.032	0.00057078	0.00060026	0.00016046	1370.8	6.414e-06	6.4481e-06	1407	370.74	6.5612e-06	6.478e-06	413.93	143.27	118.5	39.522	6.4505e-06	51.278	-64.925	-60.487	-54.734	-136.265	12.463	8.094	-136.690	-131.975	5.980	-22.406	-132.362	-128.032	-127.271	-122.700	13.940	-123.483	-8191	255	
1062.570	1	1	0	0	0.21966	0.1257	0.025691	0.11747	0.12324	0.13878	0.070166	0.12148	0.13603	0.21767	0.14403	0.13667	0.11059	0.19524	0.29006	0.285	-3.3979	-4.1188	-4.4708	-3.6792	-4.3521	-4.0146	-3.9396	-4.7812	-3.8042	-4.0062	-4.7146	-3.525	-4.3688	-4.2	-3.6396	-4.6479	-129.591	89.131	84.457	133.698	49.619	18.481	98.607	37.307	133.470	-133.749	88.273	136.178	186.580	194.009	-140.206	130.208	0.00047877	0.00041102	0.0001631	1355.8	5.6914e-06	5.0096e-06	1388.6	364.36	6.3756e-06	6.2613e-06	407.06	139.86	115.76	38.339	5.0929e-06	49.95	0.00057402	0.00059017	0.00016016	1369.7	6.3381e-06	6.3756e-06	1407	370.3	6.3293e-06	6.558e-06	414.17	143.13	118.6	39.518	6.5964e-06	51.236	-66.786	-74.138	-63.828	-136.664	-19.806	2.921	-136.597	-131.675	3.000	-3.737	-132.260	-128.035	-127.399	-122.716	20.808	-123.332	-8191	255	
1062.689	1	1	0	0	0.15017	0.071762	0.035698	0.17356	0.23729	0.13912	0.16458	0.16747	0.17989	0.14258	0.02285	0.35881	0.10825	0.26959	0.18114	0.35336	-3.45	-3.9562	-4.4625	-3.8688	-4.3875	-4.2688	-3.7792	-4.7104	-4.0917	-4.0062	-4.7958	-3.7854	-4.3938	-4.4917	-3.7062	-4.7521	56.440	-25.853	209.303	-137.455	23.441	83.028	126.929	161.081	125.844	-17.346	-104.590	160.266	174.129	177.976	53.943	158.760	0.00052843	0.00040684	0.00011107	1351.5	4.2718e-06	4.6341e-06	1388.4	363.49	5.2883e-06	3.5124e-06	406.98	139.52	115.31	38.462	6.8526e-06	49.572	0.0005668	0.00061067	0.00015908	1369.8	6.5362e-06	6.3567e-06	1405.5	370.33	6.346e-06	6.416e-06	414.31	143.08	118.48	39.508	6.532e-06	51.113	-63.297	-80.922	-59.964	-136.458	-2.404	-11.461	-136.852	-132.032	-1.953	-4.817	-132.478	-128.008	-127.330	-122.627	24.660	-123.520	-8191	255	
1062.785	1	1	0	0	0.071463	0.12487	0.15573	0.22773	0.16602	0.13003	0.23678	0.22706	0.073908	0.067969	0.24797	0.063799	0.051008	0.095658	0.10449	0.3119	-3.6354	-3.725	-4.55	-3.8125	-4.2021	-4.2625	-3.7542	-4.6646	-4.1021	-3.875	-4.7	-4.0396	-4.2042	-4.6542	-3.4479	-4.4125	146.527	-3.637	179.867	194.322	-82.473	99.438	130.758	180.188	46.568	26.046	154.796	52.856	98.057	152.598	192.481	181.682	0.00048969	0.00050368	0.00012815	1351.1	6.3083e-06	3.3105e-06	1386.9	364.41	5.3607e-06	4.9521e-06	404.57	140.22	116.21	38.548	5.0411e-06	49.784	0.00057086	0.00058524	0.00015656	1367.9	6.3858e-06	6.3606e-06	1404	370.57	6.2912e-06	6.4095e-06	413.07	143.23	118.65	39.534	6.2999e-06	51.196	-67.442	-48.823	-48.479	-136.420	5.972	26.325	-136.712	-131.642	-19.051	-8.434	-132.007	-127.934	-127.124	-122.645	8.988	-123.876	-8191	255	
1062.881	1	1	0	0	0.22564	0.16329	0.05313	0.26146	0.078771	0.083292	0.14145	0.1049	0.09527	0.23038	0.19438	0.13593	0.12039	0.1735	0.33895	0.1178	-3.8479	-3.8	-4.4792	-3.9771	-3.9542	-4.6562	-3.6875	-4.7229	-4.1583	-3.5083	-4.7292	-3.8854	-3.9688	-4.6937	-3.7229	-4.4104	173.705	89.768	154.363	192.243	159.629	-100.038	136.834	175.426	-122.161	-148.624	164.273	156.602	92.581	155.066	105.456	168.993	0.00049814	0.0005136	0.00015561	1352	5.8418e-06	5.3969e-06	1386.5	364.37	5.4276e-06	2.6243e-06	405.69	139.8	115.88	38.475	5.2681e-06	49.636	0.00055626	0.00059091	0.00015675	1368.9	6.4312e-06	6.271e-06	1406.1	370.54	6.1536e-06	6.5919e-06	413.6	143.25	118.76	39.586	6.377e-06	51.119	-65.418	-61.703	-56.727	-136.500	-12.004	31.070	-136.699	-131.641	5.431	21.931	-132.110	-127.916	-127.128	-122.485	4.169	-123.333	-8191	255	
1062.978	1	1	0	0	0.13199	0.085514	0.11288	0.17604	0.2654	0.094547	0.2299	0.16765	0.22652	0.18178	0.17993	0.21945	0.17187	0.11261	0.23393	0.084103	-4.1271	-3.7146	-4.5687	-4.1333	-3.7146	-4.7063	-3.9188	-4.6042	-4.3833	-3.5417	-4.6958	-4.1333	-3.8667	-4.8854	-3.6667	-4.2292	23.721	-130.634	-55.062	161.743	39.848	0.670	122.054	180.116	16.269	96.989	152.316	-136.572	162.670	-134.533	-71.362	193.130	0.00053383	0.00051378	0.00014048	1347.9	4.5074e-06	5.5022e-06	1383.8	361.95	5.1956e-06	4.1593e-06	405.2	139.47	115.36	38.51	5.2747e-06	49.809	0.0005599	0.00059866	0.00016278	1366.1	6.5531e-06	6.2242e-06	1401.9	369.89	6.3947e-06	6.5e-06	413.61	142.8	118.3	39.507	6.4945e-06	51.131	-64.191	-59.220	-51.313	-136.367	6.992	22.499	-136.370	-131.628	18.387	-8.788	-132.170	-127.786	-127.013	-122.656	15.101	-123.495	-8191	255	
1063.074	1	1	0	0	0.21156	0.12089	0.20506	0.056319	0.11848	0.12886	0.23874	0.048645	0.206	0.050656	0.29198	0.027626	0.1379	0.21263	0.33757	0.054961	-4.3917	-3.7	-4.6167	-4.2917	-3.575	-4.4958	-3.95	-4.2438	-4.5979	-3.7146	-4.6042	-4.2375	-3.7687	-4.75	-3.8833	-4.0792	-144.558	177.292	45.501	130.399	-92.441	-94.696	166.564	173.486	110.933	43.403	108.836	-145.645	155.699	203.809	-7.455	161.292	0.00049474	0.00039966	0.000167	1346.7	4.6995e-06	4.0347e-06	1380.1	362.07	5.2396e-06	5.8101e-06	405.63	139.84	115.43	38.285	3.5969e-06	49.853	0.00055898	0.00058636	0.00015901	1365.6	6.3507e-06	6.3328e-06	1401.1	369.64	6.3386e-06	6.3428e-06	413.21	142.99	118.46	39.464	6.418e-06	51.134	-64.909	-54.531	-65.337	-136.269	-14.143	-8.711	-136.628	-131.734	1.475	10.193	-132.113	-127.924	-127.194	-122.620	8.651	-123.647	-8191	255	
1063.170	1	1	0	0	0.080636	0.26402	0.14197	0.026442	0.23696	0.057108	0.50327	0.18232	0.298	0.10487	0.1049	0.29554	0.13761	0.28099	0.036709	0.16171	-4.2125	-3.4313	-4.425	-4.4667	-3.6729	-4.5771	-4.0146	-4.0646	-4.5417	-3.7833	-4.55	-4.3438	-3.6833	-4.6417	-3.9125	-3.9562	3.048	136.615	-0.395	16.984	163.280	93.428	154.798	137.767	-119.942	143.283	186.312	122.996	149.286	134.208	76.649	182.772	0.00049526	0.00053729	0.00013756	1345.5	3.9469e-06	4.435e-06	1385.7	363.56	5.8054e-06	6.2246e-06	404.89	139.56	115.33	38.584	4.7967e-06	49.659	0.00057041	0.00059443	0.00015769	1366.2	6.2662e-06	6.1857e-06	1405.1	370.53	6.2397e-06	6.4834e-06	412.77	142.86	118.57	39.608	6.2513e-06	51.184	-66.075	-52.010	-36.298	-136.321	-11.945	27.659	-136.704	-131.766	-1.329	-5.918	-132.188	-128.080	-127.229	-123.031	-1.872	-123.761	-8191	255	
1063.290	1	1	0	0	0.14309	0.097157	0.14219	0.22297	0.16263	0.35533	0.24748	0.21837	0.10347	0.1653	0.061859	0.026008	0.13905	0.086524	0.22448	0.20416	-4.1729	-3.4667	-4.1958	-4.5958	-3.5729	-4.5917	-4.1771	-3.8896	-4.6479	-3.6292	-4.4	-4.4146	-3.7833	-4.5979	-4.0229	-3.95	116.394	-139.980	17.691	-142.621	-89.838	-50.586	118.556	-122.604	-132.271	-62.607	-135.780	-147.302	-141.097	-16.040	69.028	159.588	0.00049716	0.00052342	0.00012783	1347.1	6.0678e-06	6.8377e-06	1386	362.87	4.8384e-06	6.2532e-06	405.56	139.74	115.94	38.486	4.6379e-06	49.901	0.00057104	0.00059293	0.00016434	1367.1	6.4163e-06	6.3396e-06	1405.7	369.99	6.2192e-06	6.3222e-06	413.66	143.3	118.6	39.604	6.205e-06	51.26	-63.511	-46.394	-55.633	-136.747	-2.053	3.305	-137.030	-131.940	-3.534	23.265	-132.360	-127.888	-127.162	-122.623	-6.817	-123.675	-8191	255	
1063.387	1	1	0	0	0.20862	0.29747	0.10708	0.16265	0.3471	0.15198	0.41006	0.10851	0.27323	0.061472	0.10927	0.27177	0.24785	0.2097	0.1254	0.050381	-4.1	-3.6604	-4.0437	-4.6813	-3.5521	-4.3562	-4.3229	-4.0646	-4.625	-4.0312	-4.0604	-4.7917	-3.7396	-4.6	-4.2896	-3.8771	-124.516	-112.592	-74.682	99.234	-65.042	35.840	145.206	146.807	-109.387	89.151	-139.117	136.327	-131.462	-115.926	-79.321	-133.234	0.00046733	0.00034217	0.00015743	1348.5	3.5566e-06	5.0984e-06	1383.6	364.22	6.7445e-06	3.9459e-06	406.51	140.09	116.08	38.304	4.8559e-06	50.06	0.00055533	0.00058659	0.00016032	1366.9	6.2579e-06	6.2035e-06	1402.2	370.21	6.1372e-06	6.2126e-06	413.55	143.47	118.62	39.565	6.0731e-06	51.235	-64.998	-61.072	-71.777	-136.360	-8.022	-21.333	-136.706	-131.983	7.178	-2.890	-132.393	-128.124	-127.350	-122.608	4.768	-123.886	-8191	255	
1063.483	1	1	0	0	0.10684	0.092257	0.17301	0.2581	0.087659	0.23898	0.11657	0.16297	0.15815	0.30857	0.24803	0.14275	0.13553	0.10847	0.1105	0.11602	-4.4812	-3.8542	-3.9021	-4.7562	-3.6708	-4.3708	-4.6125	-3.8833	-4.7	-3.9437	-4.0583	-4.75	-3.6542	-4.3979	-4.2208	-3.875	-103.384	-9.082	-51.174	162.750	-56.193	-137.261	170.671	34.149	-105.373	47.877	148.011	-140.525	134.187	25.656	-107.786	84.962	0.00048629	0.00059091	9.2726e-05	1346.9	5.031e-06	5.5352e-06	1379.8	363.6	4.182e-06	3.312e-06	404.54	139.52	115.69	38.451	3.9102e-06	49.662	0.00055527	0.00056766	0.00015698	1365.5	6.471e-06	6.1278e-06	1402	369.87	5.9557e-06	6.2642e-06	412.74	143.17	118.28	39.564	5.9946e-06	51.172	-65.903	-74.438	-63.064	-136.402	-2.620	10.446	-136.784	-131.654	14.716	6.974	-132.287	-127.790	-127.421	-122.484	-3.320	-123.406	-8191	255	
1063.554	1	1	0	0	0.087872	0.10364	0.24783	0.13865	0.089076	0.15273	0.24888	0.073285	0.12713	0.14083	0.1936	0.12037	0.12207	0.12221	0.11821	0.1997	-4.1833	-3.9313	-3.9792	-4.6958	-3.6937	-4.2208	-4.6312	-3.7208	-4.5292	-4.0354	-3.8146	-4.9208	-3.8688	-4.2	-4.65	-3.5479	157.332	-57.197	99.963	144.365	42.385	-72.580	185.486	168.460	161.112	-53.385	195.901	-82.908	159.124	-13.039	88.276	206.681	0.00051412	0.00040378	0.00016532	1345.9	4.5322e-06	6.4435e-06	1379.3	363.2	6.0734e-06	5.25e-06	404.51	139.98	116.12	38.494	5.0249e-06	49.689	0.00055914	0.00057621	0.00016005	1365.4	6.2712e-06	6.0921e-06	1401.8	369.36	6.1305e-06	6.2407e-06	412.92	143.13	118.52	39.593	6.0349e-06	51.15	-66.409	-96.499	-60.183	-136.685	-13.638	14.336	-136.823	-131.901	8.318	-3.114	-132.520	-127.977	-127.443	-122.773	8.592	-123.421	-8191	255	
1063.651	1	1	0	0	0.333	0.20465	0.075082	0.28449	0.24075	0.11117	0.1415	0.20492	0.057571	0.17435	0.14057	0.13663	0.13547	0.274	0.012102	0.19699	-4.0021	-4.075	-3.6375	-4.7979	-3.6979	-3.9896	-4.7229	-3.8125	-4.2812	-4.1479	-3.8792	-4.5729	-3.9708	-4.125	-4.4708	-3.7479	174.484	195.382	184.157	202.485	178.020	-148.527	-145.703	122.617	135.797	53.412	141.517	156.870	201.613	-125.755	4.580	140.713	0.00049864	0.00038369	0.00018498	1350	5.2271e-06	5.4399e-06	1383.4	363.08	6.6297e-06	6.4879e-06	406.77	139.98	115.75	38.542	7.3157e-06	49.86	0.00055392	0.0005496	0.00015517	1365.2	6.255e-06	6.1749e-06	1402.1	369.68	6.1497e-06	6.2083e-06	412.79	143.38	118.56	39.637	6.001e-06	51.233	-64.439	-65.945	-57.118	-136.400	-5.580	8.487	-136.689	-131.909	-12.912	2.700	-132.257	-128.280	-127.206	-122.649	0.953	-123.820	-8191	255	
1063.769	1	1	0	0	0.11922	0.22883	0.12045	0.15634	0.21803	0.35436	0.066333	0.070807	0.19134	0.13156	0.062523	0.14675	0.1413	0.40161	0.26255	0.24098	-4.0437	-4.2042	-3.6104	-4.8083	-3.9521	-3.7729	-4.8396	-3.8708	-4.2	-4.4229	-3.6875	-4.5896	-4.0833	-3.7583	-4.5333	-3.7229	207.460	-8.732	198.059	87.705	117.895	186.157	115.636	162.703	-116.346	36.472	-11.020	159.926	152.284	204.861	-54.733	163.545	0.0004837	0.00064693	0.00011866	1349.4	4.7431e-06	5.0349e-06	1383.9	362.32	4.6776e-06	5.0463e-06	403.9	140.1	115.64	38.603	3.9824e-06	49.661	0.00055906	0.0005733	0.0001605	1368.7	6.2682e-06	6.2392e-06	1403.1	369.92	6.0962e-06	5.9843e-06	412.75	143.54	118.38	39.671	6.2724e-06	51.123	-61.098	-55.563	-62.308	-136.389	3.540	11.331	-136.838	-132.133	-15.667	5.072	-132.466	-128.311	-127.443	-122.831	-0.165	-123.769	-8191	255	
1063.866	1	1	0	0	0.20376	0.27858	0.27769	0.28293	0.20367	0.10767	0.058353	0.28613	0.20102	0.06715	0.12725	0.16475	0.093436	0.15884	0.076628	0.047719	-3.7417	-4.3438	-3.5479	-4.7146	-4.075	-3.6854	-4.8625	-3.8729	-4.05	-4.4646	-3.8167	-4.4146	-4.2688	-3.7542	-4.5375	-3.8125	177.409	141.986	-96.858	198.842	168.256	-99.082	199.879	183.212	-12.962	105.462	116.268	121.422	135.622	192.092	-21.959	-59.132	0.00051433	0.00038223	0.00011615	1348.2	3.6796e-06	4.1298e-06	1386.8	362.04	6.6616e-06	4.3625e-06	407	140.53	115.97	38.481	5.4575e-06	49.77	0.00056625	0.00056468	0.00016353	1369	6.2937e-06	6.4317e-06	1405.5	369.22	6.1564e-06	6.3186e-06	413.21	143.43	118.41	39.567	6.2459e-06	51.071	-64.280	-68.982	-48.907	-136.663	-29.084	-8.278	-136.920	-132.069	-3.752	-1.538	-132.549	-127.856	-127.347	-122.814	-8.422	-123.958	-8191	255	
1063.962	1	1	0	0	0.17185	0.1597	0.13601	0.18886	0.14344	0.067321	0.25327	0.315	0.15713	0.11354	0.12033	0.13046	0.15088	0.1112	0.19924	0.19234	-3.6063	-4.6396	-3.5438	-4.5833	-4.1417	-3.5854	-4.85	-4.0521	-3.9896	-4.6396	-3.7021	-4.5708	-4.2542	-3.725	-4.6312	-4.0042	135.287	-111.333	108.409	-124.009	53.662	84.497	164.367	143.900	-21.931	144.679	148.907	-24.425	-137.272	193.798	-100.638	-128.165	0.00047098	0.00036751	0.00013159	1343.3	3.5183e-06	4.5562e-06	1385	362.16	5.6728e-06	4.5793e-06	404.62	139.72	116.19	38.512	5.6772e-06	49.892	0.00056512	0.00055818	0.0001626	1366.1	6.2623e-06	6.5881e-06	1403.5	369.61	6.2137e-06	6.0943e-06	413.01	143.06	118.61	39.618	6.1724e-06	51.223	-63.837	-74.247	-64.593	-136.444	15.962	8.163	-136.816	-132.139	-14.083	-9.537	-132.425	-128.085	-127.781	-122.796	3.317	-123.845	-8191	255	
1064.058	1	1	0	0	0.30107	0.068489	0.16867	0.14061	0.13551	0.09941	0.14377	0.22975	0.24093	0.18743	0.20166	0.15248	0.25677	0.19965	0.12301	0.23214	-3.5896	-4.5021	-3.8083	-4.4542	-4.2417	-3.6437	-4.7375	-4.2583	-3.7687	-4.5875	-3.675	-4.3542	-4.4771	-3.6063	-4.6458	-4.175	34.707	-51.186	28.784	-31.905	-105.793	191.862	130.584	180.002	176.556	-73.047	194.339	158.075	168.388	-128.017	48.571	141.580	0.00051246	0.00059784	0.00012169	1351.1	4.1376e-06	4.6623e-06	1385.7	362.67	4.7379e-06	6.177e-06	406.4	140.02	115.59	38.512	4.0169e-06	49.783	0.00056374	0.00056388	0.00015519	1367.9	6.2387e-06	6.3024e-06	1403.8	369.83	6.111e-06	6.0493e-06	413.53	143.24	118.56	39.601	6.0772e-06	51.179	-63.080	-44.720	-52.837	-136.548	-31.053	25.346	-136.837	-132.045	3.377	1.229	-132.443	-128.296	-127.416	-122.589	-16.366	-123.699	-8191	255	
1064.154	1	1	0	0	0.16383	0.026419	0.077949	0.28399	0.078304	0.029389	0.20437	0.2716	0.33477	0.22012	0.23582	0.10311	0.17966	0.18384	0.15707	0.18344	-3.3375	-4.5542	-3.6042	-4.1708	-4.3812	-3.5604	-4.5667	-4.3583	-3.7875	-4.6854	-3.9625	-3.9833	-4.4729	-3.775	-4.1188	-4.2188	22.205	-37.627	-95.163	184.751	135.953	180.369	172.263	-145.843	36.873	143.260	156.076	-61.608	-146.665	-36.270	146.363	142.493	0.00049004	0.00043893	0.00012087	1346.3	4.2698e-06	4.9282e-06	1380.7	361.7	5.161e-06	4.9802e-06	404.19	139.73	115.69	38.538	5.1956e-06	49.831	0.00055765	0.00054825	0.0001572	1366.4	6.0188e-06	6.3096e-06	1402.5	368.99	6.41e-06	6.0878e-06	412.18	142.92	118.56	39.554	6.1513e-06	51.094	-66.085	-63.913	-46.143	-136.470	-1.998	-0.878	-136.746	-132.146	-1.443	-7.835	-132.574	-127.739	-127.453	-122.678	-5.916	-123.764	-8191	255	
1064.250	1	1	0	0	0.13987	0.077831	0.068016	0.34874	0.075065	0.15218	0.067025	0.16268	0.099563	0.24369	0.17869	0.14579	0.084463	0.17203	0.095529	0.10046	-3.1958	-4.5083	-3.8042	-4.0708	-4.3896	-3.6958	-4.5125	-4.5083	-3.6188	-4.5312	-4.0854	-3.9	-4.7479	-3.8542	-4.4083	-4.4896	44.031	118.568	13.213	130.832	68.567	24.331	186.908	144.734	26.301	-98.611	-96.413	183.545	-6.272	131.399	-5.146	54.633	0.00048941	0.0003966	0.00016134	1345	6.1403e-06	4.5071e-06	1383.5	362.51	4.2432e-06	4.0827e-06	403.58	139.39	115.53	38.476	6.6099e-06	49.967	0.00054918	0.0005568	0.00015674	1366	6.0635e-06	6.2414e-06	1402.9	369.17	6.1532e-06	5.9021e-06	411.99	143.12	118.45	39.583	6.0513e-06	51.148	-66.691	-63.035	-65.718	-136.338	-9.900	-11.103	-136.762	-131.885	-12.329	-20.674	-132.523	-127.891	-127.308	-122.705	15.312	-123.827	-8191	255	
1064.371	1	1	0	0	0.16053	0.1054	0.12249	0.13817	0.10279	0.19093	0.28593	0.23096	0.21483	0.1466	0.26148	0.11111	0.2243	0.19711	0.20274	0.13718	-3.2729	-4.6375	-4.0312	-4.0375	-4.5979	-3.9083	-4.3646	-4.7083	-3.6375	-4.4875	-4.2708	-3.8167	-4.7333	-3.9	-4.0542	-4.5229	-110.190	147.026	137.522	-128.060	13.502	131.600	178.173	135.579	144.614	-40.272	209.599	119.927	44.176	187.937	-53.705	139.174	0.00048619	0.00053607	0.00014317	1349.9	4.4038e-06	5.6679e-06	1379.8	361.76	5.0325e-06	6.2835e-06	404.67	140.12	115.1	38.527	4.4032e-06	49.711	0.00055147	0.00055696	0.00015881	1366	5.8819e-06	6.2214e-06	1401.4	368.55	6.1558e-06	6.1142e-06	411.87	143.19	118.36	39.627	6.0631e-06	51.132	-65.112	-43.151	-57.858	-136.397	-3.553	8.321	-136.624	-131.916	6.897	-9.292	-132.580	-128.132	-127.372	-122.896	14.238	-123.671	-8191	255	
1064.467	1	1	0	0	0.20351	0.067384	0.086011	0.20167	0.15678	0.21468	0.17562	0.21018	0.099708	0.24285	0.37335	0.12688	0.26484	0.18611	0.16933	0.18005	-3.1771	-4.4792	-4.0292	-3.8771	-4.6062	-3.8375	-4.2792	-4.5625	-3.7396	-4.3042	-4.3542	-3.7438	-4.6813	-3.8958	-3.8396	-4.6562	99.586	160.476	7.053	196.010	-81.343	126.259	159.376	63.574	185.664	-0.291	171.958	155.137	164.895	164.214	127.871	168.431	0.00049939	0.00051698	0.00015585	1348.1	4.8153e-06	5.7749e-06	1387	361.45	5.4351e-06	4.6703e-06	405.83	140.31	115.88	38.361	7.374e-06	49.878	0.00056447	0.00054591	0.00015736	1365.3	6.1085e-06	6.0182e-06	1404.7	368.79	6.2832e-06	6.1005e-06	412.28	143.26	118.48	39.52	6.3224e-06	51.139	-65.225	-34.580	-67.091	-136.464	-0.963	4.071	-136.500	-131.871	13.336	23.862	-132.242	-127.956	-127.016	-122.801	-0.530	-123.590	-8191	255	
1064.563	1	1	0	0	0.3078	0.15691	0.2571	0.12258	0.023551	0.087346	0.2477	0.17494	0.15968	0.19895	0.12956	0.093735	0.1989	0.088048	0.30385	0.072047	-3.2438	-4.1583	-4.3396	-3.7583	-4.6375	-3.9938	-4.0354	-4.7812	-3.5458	-4.2937	-4.5771	-3.725	-4.5833	-4.3146	-3.6813	-4.6458	138.477	53.251	91.134	-148.340	132.788	182.753	200.516	-131.254	119.160	-107.940	-80.246	3.227	203.760	158.461	-118.443	178.055	0.00049801	0.00031874	8.8214e-05	1349.8	4.9428e-06	4.7018e-06	1381.5	362.96	4.2879e-06	5.1051e-06	405.85	139.71	115.82	38.414	4.548e-06	49.826	0.000553	0.00055834	0.00015443	1368	6.2049e-06	6.0818e-06	1404.4	370.29	6.305e-06	6.1343e-06	413.17	143.21	118.71	39.516	6.3254e-06	51.202	-62.795	-34.781	-46.438	-136.515	-1.890	16.297	-136.922	-131.803	8.662	-11.099	-132.447	-127.870	-127.084	-122.940	-4.670	-123.726	-8191	255	
1064.659	1	1	0	0	0.11217	0.16657	0.19918	0.2537	0.0818	0.094826	0.26604	0.17926	0.02441	0.099591	0.096518	0.17698	0.24017	0.17605	0.099693	0.17283	-3.4833	-4.1979	-4.4125	-3.7896	-4.5354	-4.0188	-3.8187	-4.7271	-3.6542	-4.1	-4.6062	-3.8208	-4.6229	-4.3438	-3.6333	-4.6396	69.799	-145.582	12.704	185.085	158.342	140.340	125.932	136.178	32.945	-74.638	-53.421	116.293	176.007	123.403	106.442	175.681	0.00055701	0.00040391	0.00016308	1351	3.497e-06	6.19e-06	1386.1	362.27	3.9204e-06	5.6762e-06	404.46	139.62	115.94	38.36	4.3148e-06	49.714	0.0005708	0.00057118	0.00015184	1368.1	6.2792e-06	6.251e-06	1405.9	369.75	6.4039e-06	6.4167e-06	412.59	143.25	118.59	39.505	6.3948e-06	51.148	-63.974	-42.720	-65.093	-136.588	-7.230	17.192	-136.736	-131.712	-16.523	10.688	-132.284	-128.191	-127.449	-122.629	15.937	-123.454	-8191	255	
1064.778	1	1	0	0	0.1671	0.075724	0.2638	0.089426	0.11488	0.12652	0.086756	0.23846	0.11902	0.12635	0.14298	0.19943	0.23333	0.083802	0.28402	0.22845	-3.4521	-4.1646	-4.3896	-3.7542	-4.3771	-4.3187	-3.8042	-4.7917	-3.8063	-3.9	-4.6146	-3.6771	-4.3417	-4.4396	-3.6833	-4.6708	81.145	129.419	128.032	-147.484	-111.789	-91.123	134.840	185.315	160.525	20.971	204.230	-48.055	97.638	45.525	56.088	166.011	0.0004858	0.00049227	0.00010045	1345.8	5.1871e-06	6.4976e-06	1383.1	363.79	6.9545e-06	3.8204e-06	404.13	139.89	115.51	38.391	5.2172e-06	49.66	0.00055939	0.00057608	0.00015452	1364.3	6.3013e-06	6.2774e-06	1403.7	370.07	6.2717e-06	6.2115e-06	412.4	143.05	118.41	39.487	6.3636e-06	51.043	-63.960	-64.272	-49.714	-136.547	-2.645	16.792	-136.585	-131.939	14.191	6.589	-132.114	-128.042	-127.178	-122.695	11.211	-123.517	-8191	255	
1064.850	1	1	0	0	0.17107	0.029296	0.05931	0.22583	0.067875	0.087104	0.26737	0.34948	0.13956	0.15886	0.069005	0.18415	0.31976	0.080128	0.11551	0.28127	-3.5625	-3.9208	-4.5479	-3.7812	-4.4146	-4.4542	-3.9417	-4.7021	-3.9354	-3.8625	-4.7208	-3.8625	-4.1813	-4.5188	-3.775	-4.5667	-146.181	177.737	204.300	164.724	76.969	-90.171	144.300	107.550	91.045	166.619	-45.901	-119.822	-147.523	181.399	-89.226	147.854	0.00051114	0.00042942	0.00015967	1349.2	6.0142e-06	4.2155e-06	1382.2	363.34	6.2958e-06	4.6445e-06	404.94	139.51	115.42	38.426	3.4032e-06	49.687	0.00056086	0.00057829	0.00015421	1366.6	6.2016e-06	6.0325e-06	1402.5	369.79	6.4385e-06	6.2148e-06	412.89	142.82	118.3	39.469	6.3365e-06	51.118	-65.709	-45.535	-55.931	-136.613	0.782	5.525	-136.685	-131.824	-5.851	-18.604	-132.374	-128.031	-127.128	-122.600	21.980	-123.372	-8191	255	
1064.946	1	1	0	0	0.13203	0.088893	0.15159	0.15805	0.05243	0.19087	0.22906	0.15563	0.24349	0.10045	0.10304	0.085381	0.061515	0.1855	0.22938	0.25609	-3.7938	-3.6125	-4.6438	-3.9	-4.0062	-4.5375	-3.7854	-4.4417	-4.2771	-3.8792	-4.7333	-3.7333	-4.1146	-4.7063	-3.6104	-4.6292	163.724	26.639	204.174	143.832	173.038	-13.681	146.544	87.606	191.921	-54.127	68.714	194.799	182.324	197.468	15.409	124.718	0.0005041	0.00049375	0.00010287	1348.2	4.9769e-06	3.9999e-06	1387.7	363	6.6881e-06	4.0219e-06	405.61	139.65	115.63	38.377	5.7909e-06	49.833	0.00056357	0.00059104	0.00015942	1366.9	6.3835e-06	6.1517e-06	1406.5	369.83	6.1654e-06	6.4106e-06	413.65	143.22	118.49	39.513	6.414e-06	51.192	-65.062	-59.477	-69.405	-136.505	-9.469	-4.476	-136.714	-131.811	-11.598	1.050	-132.340	-128.069	-127.290	-122.730	16.371	-123.434	-8191	255	
1065.067	1	1	0	0	0.0079114	0.11113	0.16319	0.20226	0.23246	0.10017	0.25382	0.27162	0.22899	0.11517	0.15251	0.09192	0.15979	0.10835	0.43526	0.22418	-3.8688	-3.4125	-4.6646	-3.95	-3.8333	-4.5854	-3.675	-4.3604	-4.2479	-3.7021	-4.7917	-4.025	-3.9229	-4.425	-3.6833	-4.4104	164.809	20.557	69.601	144.451	41.249	73.367	154.785	133.892	25.486	-20.467	105.130	93.940	203.515	189.464	38.712	120.349	0.00049428	0.00059	7.7188e-05	1349.4	4.3228e-06	5.3769e-06	1383.4	363.31	4.071e-06	5.0922e-06	405.54	139.76	115.52	38.415	5.3788e-06	49.826	0.00055969	0.00058704	0.00015399	1366.8	6.3139e-06	6.14e-06	1404	369.69	6.0873e-06	6.4365e-06	413.29	142.98	118.34	39.481	6.1952e-06	51.173	-63.143	-53.573	-64.033	-136.408	20.326	6.392	-136.661	-131.677	0.760	-31.298	-132.376	-128.218	-127.189	-122.633	4.423	-123.438	-8191	255	
1065.163	1	1	0	0	0.059862	0.021825	0.097049	0.081797	0.1221	0.2257	0.21637	0.17087	0.092075	0.16478	0.12745	0.13083	0.28395	0.044061	0.2033	0.042848	-3.9854	-3.5854	-4.5	-4.2917	-3.7833	-4.5583	-3.9396	-4.2042	-4.4563	-3.5667	-4.5396	-3.9354	-3.7292	-4.6542	-3.8896	-4.2542	-20.704	-92.230	205.465	-48.172	15.883	14.367	135.055	-132.866	9.952	77.886	-23.556	-90.868	-104.172	178.350	-24.385	184.637	0.00049895	0.0004747	0.00013754	1347.4	2.7742e-06	4.677e-06	1381.7	363.46	4.5396e-06	5.4827e-06	405.91	140.1	116.38	38.542	4.6683e-06	49.966	0.0005579	0.00056635	0.00015803	1366.5	6.3616e-06	6.1432e-06	1404.1	369.82	6.0591e-06	6.3673e-06	413.16	143.26	118.88	39.64	6.1718e-06	51.294	-65.402	-64.017	-44.489	-136.426	-10.210	1.929	-136.676	-131.804	-0.929	-14.813	-132.298	-127.992	-127.110	-122.613	-1.835	-123.584	-8191	255	
1065.259	1	1	0	0	0.12515	0.010044	0.028864	0.53008	0.14356	0.1384	0.36195	0.2613	0.098152	0.28434	0.29363	0.090329	0.19582	0.1022	0.22033	0.10748	-4.2396	-3.6792	-4.4187	-4.2625	-3.8	-4.7083	-3.9854	-4.2	-4.5563	-3.6188	-4.4583	-4.3417	-3.6292	-4.6979	-3.8146	-4.0521	-4.916	93.102	-35.028	140.480	36.795	-6.495	168.087	177.772	23.571	-83.202	150.601	45.085	-96.564	109.194	61.447	-46.201	0.00048611	0.0004708	0.00012456	1350.5	3.2064e-06	4.9871e-06	1385.1	361.57	4.8733e-06	5.7643e-06	406.33	139.85	115.18	38.467	5.746e-06	49.823	0.00054332	0.00057381	0.00015567	1368.7	6.362e-06	6.1132e-06	1404.5	369.66	6.1058e-06	6.4322e-06	413.32	143.19	118.5	39.554	6.3143e-06	51.226	-64.052	-61.010	-66.464	-136.535	21.757	5.990	-136.898	-131.784	10.585	5.574	-132.282	-127.805	-127.178	-122.606	-12.445	-123.534	-8191	255	
1065.355	1	1	0	0	0.19231	0.19083	0.14017	0.10701	0.13759	0.30999	0.13143	0.068925	0.052723	0.21863	0.072335	0.12013	0.13313	0.16106	0.11016	0.1652	-4.2688	-3.7687	-4.2458	-4.2688	-3.7562	-4.6583	-4.2708	-3.9167	-4.5979	-3.6521	-4.4104	-4.4667	-3.6292	-4.7479	-3.9396	-3.9313	138.048	148.642	187.079	197.662	-26.847	-18.893	206.097	84.866	-135.585	-140.644	-106.808	-149.606	-19.008	-133.036	-52.629	154.490	0.00051079	0.00053086	0.00012278	1356.4	3.835e-06	6.3423e-06	1389.4	363.54	5.1083e-06	5.8299e-06	406.62	139.67	115.66	38.668	5.7645e-06	49.654	0.00056455	0.00054912	0.00015963	1368.8	6.2874e-06	6.171e-06	1407	370.26	6.2362e-06	6.3183e-06	413.98	143.16	118.65	39.634	6.2714e-06	51.159	-65.059	-57.207	-55.248	-136.503	0.554	2.341	-136.670	-131.691	-7.615	-5.433	-132.029	-127.655	-126.897	-122.476	14.063	-123.027	-8191	255	
1065.451	1	1	0	0	0.13563	0.16821	0.15611	0.27388	0.087313	0.031102	0.096412	0.47812	0.19954	0.082833	0.20448	0.30682	0.074634	0.35742	0.17784	0.11643	-4.2896	-3.6458	-4.2854	-4.5896	-3.5521	-4.6021	-4.3521	-3.9396	-4.5188	-3.7729	-4.0292	-4.7354	-3.8312	-4.4812	-4.1167	-3.7708	-18.023	152.260	4.967	-147.826	-117.989	30.368	162.932	183.194	-121.751	59.935	-118.129	-147.971	-126.743	-114.774	91.689	133.071	0.00050438	0.00041676	0.00016927	1352.8	5.0414e-06	3.9346e-06	1388.9	364.36	6.3574e-06	3.3214e-06	405.1	139.92	116.41	38.451	5.4826e-06	49.774	0.00056025	0.00058082	0.0001605	1369.8	6.3096e-06	6.1917e-06	1407	370.72	6.3037e-06	6.3568e-06	413.85	143.06	118.91	39.565	6.2449e-06	51.231	-62.339	-61.229	-50.895	-136.176	-12.071	-0.298	-136.664	-131.681	0.925	1.653	-132.213	-127.990	-127.425	-122.807	11.229	-123.594	-8191	255	
1065.547	1	1	0	0	0.061954	0.11433	0.22964	0.15313	0.45419	0.090969	0.067331	0.19698	0.077402	0.13562	0.10919	0.14746	0.10717	0.15333	0.10134	0.058403	-4.525	-3.6604	-4.1188	-4.6583	-3.6229	-4.4646	-4.5271	-3.8292	-4.4625	-3.9104	-4.0667	-4.5396	-3.7854	-4.525	-4.45	-3.7833	135.971	47.591	23.915	-148.545	73.476	-86.183	153.700	170.989	39.221	-26.367	153.954	-59.432	111.741	-136.448	-129.644	162.474	0.00048877	0.00035266	0.00017114	1350.6	5.0328e-06	4.1091e-06	1388.4	363.07	5.5111e-06	4.1815e-06	405.73	139.29	115.58	38.446	5.2585e-06	49.691	0.00055986	0.00058668	0.00016009	1367.3	6.3928e-06	6.065e-06	1406.2	370.03	6.1065e-06	6.3359e-06	413.22	143.12	118.29	39.546	6.1224e-06	51.102	-67.263	-48.999	-48.073	-136.346	-1.930	14.274	-136.737	-131.533	-12.936	-0.865	-132.153	-128.305	-127.405	-122.523	14.821	-123.401	-8191	255	
1065.644	1	1	0	0	0.082148	0.11783	0.061383	0.17622	0.06703	0.17487	0.23865	0.32833	0.18432	0.028722	0.042418	0.059366	0.093138	0.24063	0.067315	0.11668	-4.1625	-4.0104	-3.7792	-4.7021	-3.825	-4.3021	-4.575	-4.0167	-4.4479	-3.9938	-4.0146	-4.6021	-3.8875	-4.2937	-4.4917	-3.8625	-132.329	7.390	-9.964	205.054	203.836	-87.112	156.927	184.865	-118.604	168.874	91.225	162.385	-132.280	191.592	131.856	157.338	0.00048838	0.00041201	0.00017076	1350.7	3.9708e-06	3.8039e-06	1384.4	363.44	5.2642e-06	5.3412e-06	405.25	139.87	115.23	38.559	6.2035e-06	49.504	0.0005562	0.0005626	0.00015723	1366.5	6.3732e-06	6.1375e-06	1404.1	369.85	6.0905e-06	6.1434e-06	413.41	143.15	118.2	39.59	6.1117e-06	51.135	-64.195	-78.320	-63.527	-136.493	9.033	2.238	-136.721	-131.691	-13.075	-13.437	-132.513	-128.051	-126.951	-122.417	20.869	-123.702	-8191	255	
1065.740	1	1	0	0	0.093406	0.19509	0.20406	0.21264	0.15615	0.18011	0.34951	0.29004	0.21765	0.074024	0.171	0.09517	0.24936	0.13354	0.095798	0.22248	-4.2208	-4.0521	-3.7667	-4.725	-3.9083	-4.1333	-4.6354	-3.5167	-4.3646	-4.0771	-3.7333	-4.5792	-3.7896	-4.0042	-4.6021	-3.7021	78.000	154.785	-22.698	186.057	-91.578	-27.930	190.232	187.897	-39.369	-5.670	-117.402	143.078	-8.551	74.534	-41.926	161.862	0.00051517	0.00047687	0.00013394	1346.9	5.5752e-06	3.8091e-06	1384	362.64	6.5447e-06	5.3669e-06	404.58	140.17	115.77	38.461	5.2681e-06	49.882	0.00056025	0.00055414	0.00015821	1365.9	6.256e-06	6.2414e-06	1404.5	369.64	6.2451e-06	5.9937e-06	412.79	143.45	118.51	39.543	5.9534e-06	51.216	-65.379	-49.538	-47.251	-136.474	-3.791	7.899	-136.721	-131.800	7.238	3.076	-132.352	-128.286	-127.431	-122.560	3.865	-123.626	-8191	255	
1065.859	1	1	0	0	0.34454	0.15099	0.20571	0.35388	0.3491	0.15477	0.13755	0.2544	0.16243	0.2913	0.076423	0.1058	0.19608	0.13293	0.066716	0.17374	-3.8771	-4.1729	-3.5417	-4.6479	-3.7729	-3.8312	-4.675	-3.8125	-4.2125	-4.4104	-3.6771	-4.5958	-4.0208	-3.9646	-4.5375	-3.7167	206.514	5.388	65.349	164.011	-19.589	207.976	208.791	-115.468	-148.709	-98.172	202.632	-140.284	-143.047	179.804	204.941	183.112	0.00050183	0.00032153	0.00015201	1349.5	5.0956e-06	5.8036e-06	1383.6	362.25	5.4903e-06	3.4661e-06	406.05	140.08	115.21	38.529	4.8595e-06	49.726	0.00055949	0.00055104	0.0001557	1367.5	6.0764e-06	6.2589e-06	1404	369.52	5.9742e-06	6.3071e-06	413.04	143.36	118.15	39.577	5.9913e-06	51.095	-63.946	-47.446	-58.310	-136.325	-1.964	-4.365	-136.725	-131.953	1.798	2.053	-132.250	-127.881	-127.324	-122.401	5.734	-123.519	-8191	255	
1065.955	1	1	0	0	0.35813	0.1412	0.065658	0.086703	0.15508	0.19877	0.20086	0.11612	0.24257	0.040555	0.024457	0.24258	0.19299	0.069293	0.061209	0.2729	-4.0062	-4.2854	-3.6083	-4.6625	-3.9708	-3.8604	-4.9146	-3.8438	-4.025	-4.55	-3.7833	-4.5625	-4.1708	-3.9396	-4.5417	-4.0813	-48.599	-35.782	69.415	63.016	-133.448	-39.827	147.521	196.943	169.171	56.185	-104.584	182.051	192.274	196.238	113.748	-125.864	0.0004875	0.00028185	0.00010949	1353.3	4.9999e-06	3.3404e-06	1385.4	361.46	6.3439e-06	6.5718e-06	406.02	139.62	115.92	38.596	4.6182e-06	49.818	0.00055182	0.00054803	0.00015807	1367.9	5.9883e-06	6.1018e-06	1404.8	369.18	5.9531e-06	6.0842e-06	412.8	143.29	118.57	39.598	5.9134e-06	51.192	-65.274	-53.013	-63.115	-136.457	6.465	5.369	-136.934	-131.922	-21.434	-0.749	-132.162	-128.004	-127.131	-122.718	-19.136	-123.712	-8191	255	
1066.051	1	1	0	0	0.047997	0.057258	0.20503	0.10846	0.11464	0.10341	0.17439	0.23248	0.15626	0.11747	0.030156	0.077371	0.060386	0.38266	0.11904	0.032418	-3.7812	-4.5208	-3.55	-4.6167	-4.1854	-3.8438	-4.8104	-3.9979	-3.9583	-4.4896	-3.8021	-4.5771	-4.3313	-3.9042	-4.6521	-3.9437	-101.652	-138.898	7.689	-140.097	-21.474	44.966	147.729	180.411	129.394	21.892	-14.748	162.386	64.734	166.185	161.230	119.510	0.0004952	0.00052572	0.00012999	1348.2	3.1134e-06	4.5941e-06	1383.9	361.91	5.0227e-06	5.7266e-06	404.9	139.99	115.89	38.56	5.3096e-06	49.921	0.00054765	0.00055712	0.00015458	1366.2	6.0933e-06	6.1078e-06	1403.4	369.31	5.9573e-06	5.9995e-06	413.43	143.46	118.86	39.637	5.9624e-06	51.203	-64.331	-36.264	-52.260	-136.355	-1.103	7.006	-136.525	-131.748	-0.696	-10.012	-132.209	-128.226	-127.135	-122.413	-0.422	-123.647	-8191	255	
1066.147	1	1	0	0	0.14845	0.097788	0.093393	0.094762	0.21304	0.10914	0.1644	0.30035	0.15353	0.21504	0.037768	0.15163	0.073824	0.29846	0.2055	0.1305	-3.5625	-4.6271	-3.7792	-4.6188	-4.4792	-3.5583	-4.9417	-4.0167	-3.8917	-4.6354	-3.8458	-4.475	-4.6271	-3.9271	-4.5687	-4.1667	78.644	190.615	-105.029	-112.971	-30.185	54.146	151.621	166.127	37.054	191.022	16.176	112.846	154.720	185.560	197.621	102.870	0.00049738	0.00030931	0.00017849	1348	4.0416e-06	6.5198e-06	1385.9	362.93	5.7413e-06	3.6311e-06	405.55	140.62	116.15	38.513	4.6077e-06	50.056	0.00054712	0.00054707	0.00015241	1366.9	5.8737e-06	6.1789e-06	1405.7	369.97	5.9739e-06	5.8744e-06	412.59	143.66	118.67	39.633	5.9852e-06	51.27	-62.861	-53.199	-57.798	-136.087	-6.690	17.489	-136.497	-131.807	-5.341	9.598	-131.935	-127.541	-127.244	-122.391	-2.944	-123.437	-8191	255	
1066.243	1	1	0	0	0.29325	0.22213	0.12369	0.097923	0.13737	0.28148	0.3124	0.23302	0.14736	0.13251	0.088944	0.074894	0.11109	0.34824	0.17457	0.14127	-3.5958	-4.3938	-3.7292	-4.2812	-4.4313	-3.4792	-4.7771	-4.1625	-3.8042	-4.6396	-3.8146	-4.1562	-4.5417	-3.8104	-4.3958	-4.2792	-103.282	95.112	-91.184	146.845	3.975	45.984	160.543	122.494	-52.203	75.204	38.360	142.542	58.215	-128.123	201.151	151.767	0.00049888	0.00040621	0.00014086	1347.2	3.7102e-06	4.6841e-06	1388.7	362.31	5.4558e-06	5.4284e-06	405.67	140.23	115.93	38.725	7.6477e-06	49.852	0.00055498	0.0005494	0.00015556	1367.5	6.1529e-06	6.0964e-06	1405.2	369.22	6.1638e-06	6.0886e-06	412.85	143.77	118.61	39.731	6.106e-06	51.278	-64.146	-71.266	-45.754	-136.243	14.661	-1.561	-136.760	-132.008	5.552	11.095	-132.345	-128.107	-127.594	-122.815	-1.454	-123.823	-8191	255	
1066.339	1	1	0	0	0.19737	0.19546	0.14906	0.21205	0.3094	0.17005	0.24923	0.17317	0.1246	0.16306	0.16384	0.017355	0.29513	0.060533	0.12676	0.097678	-3.4604	-4.5354	-3.8771	-4.1813	-4.5938	-3.4896	-4.3208	-4.4417	-3.6063	-4.7896	-4.0208	-4.0146	-4.7792	-3.6896	-4.275	-4.5167	172.822	146.490	198.345	-144.031	177.842	16.508	130.524	132.333	-81.552	6.959	180.331	86.907	187.866	-108.196	81.564	-138.467	0.00050567	0.00045437	0.0001491	1354.3	4.3351e-06	4.6901e-06	1388.7	363.16	5.4658e-06	3.5093e-06	406.7	140.64	116.15	38.526	6.0762e-06	49.921	0.0005493	0.00054168	0.0001541	1369.5	6.0009e-06	6.1271e-06	1408.5	369.91	6.225e-06	5.9443e-06	413.28	143.76	118.84	39.713	6.0929e-06	51.34	-64.055	-60.854	-71.514	-136.466	-6.193	23.934	-136.758	-131.930	-1.918	6.155	-132.468	-128.042	-127.500	-122.804	7.248	-123.724	-8191	255	
1066.460	1	1	0	0	0.05803	0.18724	0.07108	0.22882	0.19055	0.12842	0.12746	0.24196	0.027818	0.39553	0.31674	0.18735	0.094861	0.16388	0.16079	0.17169	-3.2583	-4.5042	-3.9521	-3.8083	-4.6188	-3.8125	-4.5271	-4.5146	-3.5	-4.5312	-3.9667	-3.7083	-4.8	-3.8729	-4.0292	-4.6417	-25.249	183.558	-101.718	192.468	-0.220	-44.851	116.901	-127.104	-88.728	157.702	100.105	47.669	116.718	139.871	-13.265	165.207	0.00048713	0.00036889	0.00014218	1350.3	3.2762e-06	3.5673e-06	1388.5	362.67	5.1914e-06	6.7724e-06	405.93	140.7	116.02	38.578	5.1415e-06	50.077	0.00055543	0.00053931	0.00015795	1367.9	6.1079e-06	6.1867e-06	1408.2	369.7	6.1888e-06	6.0446e-06	412.95	143.7	118.67	39.648	6.1463e-06	51.232	-63.190	-72.334	-57.163	-136.446	-21.719	16.350	-136.899	-131.906	-22.887	-12.908	-132.411	-127.986	-127.231	-122.823	-2.613	-123.559	-8191	255	
1066.554	1	1	0	0	0.067693	0.068503	0.19065	0.18563	0.081439	0.10638	0.32884	0.30794	0.14648	0.060545	0.20746	0.26735	0.055604	0.14278	0.098679	0.054297	-3.3688	-4.5583	-4.1833	-3.7438	-4.5708	-3.8438	-4.3271	-4.5792	-3.8167	-4.4313	-4.4021	-3.6792	-4.5125	-4.0875	-3.9146	-4.7312	77.833	205.023	73.721	-124.535	123.646	-102.501	192.037	126.159	150.639	127.196	174.236	124.511	172.648	189.248	-107.641	206.470	0.00050928	0.00050992	0.00013208	1350.3	2.9227e-06	5.8981e-06	1383.3	362.26	5.6657e-06	4.0437e-06	405.13	140.18	115.96	38.652	6.0915e-06	50.007	0.00056947	0.00055088	0.00015419	1369.2	5.9532e-06	6.4788e-06	1404.9	369.41	6.1676e-06	5.9761e-06	413.05	143.69	118.54	39.668	6.1338e-06	51.261	-64.261	-54.853	-48.953	-136.517	-22.315	7.979	-136.625	-132.028	5.550	2.926	-132.323	-128.021	-127.035	-122.534	10.966	-123.615	-8191	255	
1066.650	1	1	0	0	0.13535	0.14195	0.16935	0.29596	0.015603	0.092778	0.36523	0.30805	0.10314	0.060274	0.23694	0.1617	0.35721	0.089667	0.10785	0.20379	-3.2792	-4.3521	-4.2688	-3.7812	-4.6333	-4.0917	-4.15	-4.5583	-3.5604	-4.3313	-4.5208	-3.6604	-4.6937	-3.9396	-3.9042	-4.6292	-20.278	-11.272	88.940	167.167	182.426	145.288	113.380	156.578	116.726	-33.105	192.091	-103.073	147.632	-54.738	92.843	129.476	0.00047524	0.00042681	0.00012276	1351	4.527e-06	5.0156e-06	1386.7	363.66	5.605e-06	4.2591e-06	405.14	140.14	115.94	38.574	4.8257e-06	50.076	0.00055606	0.00056045	0.00014691	1369.6	6.0453e-06	6.1207e-06	1406.2	370.2	6.0786e-06	6.019e-06	413.23	143.67	118.63	39.678	6.0453e-06	51.339	-63.078	-34.220	-60.396	-136.435	-2.807	15.175	-136.462	-131.743	1.915	-14.900	-132.409	-127.980	-127.351	-122.713	5.395	-123.729	-8191	255	
1066.747	1	1	0	0	0.094084	0.17635	0.03447	0.28917	0.053563	0.078187	0.1723	0.30652	0.19555	0.027154	0.028148	0.23868	0.16398	0.18331	0.11631	0.16863	-3.4792	-4.0583	-4.2958	-3.8937	-4.5917	-3.9417	-3.95	-4.7875	-3.6646	-4.2396	-4.5687	-3.6937	-4.45	-4.175	-3.6854	-4.7708	-28.783	181.975	-5.614	181.278	-131.958	-136.710	166.861	131.702	-67.585	-6.250	78.592	193.996	167.396	206.168	-93.160	114.563	0.00050156	0.0004196	0.00014561	1352.6	4.0402e-06	5.1434e-06	1388	361.89	4.3104e-06	3.3498e-06	404.99	140.37	116.85	38.571	4.688e-06	49.945	0.00055565	0.00056385	0.00015636	1368.1	5.9942e-06	5.9696e-06	1406.1	369.78	6.0911e-06	6.0871e-06	413.08	143.85	119.19	39.707	6.0839e-06	51.316	-64.140	-62.504	-65.746	-136.430	-11.891	11.090	-136.753	-131.752	12.684	-12.938	-132.197	-127.941	-127.390	-122.856	7.018	-123.468	-8191	255	
#DATA ENDS
