BOXY.EXE: ISS Imagent and Oximeter Data Acquisition Program Version 0.80
Ascii Record File

#ACQ INFORMATION
2  Detector Channels 
16  External MUX Channels 
1  Auxiliary Channels 
5000  Waveform (CCF) Frequency (Hz)
1  Waveforms Skipped 
30  Waveforms Averaged 
1  Cycles Averaged 
16  Acquisitions per Waveform 
10.0806  Updata Rate (Hz) 

#FILE INFORMATION
TRUE -- External MUX Channel results are PARSED.
FALSE -- AC DC and Phase are NOT grouped.
TRUE -- Companion Program Settings File CREATED.
FALSE -- AC data not excluded
FALSE -- DC data not excluded
FALSE -- Phase data not excluded
FALSE -- Auxillary Chn. data not excluded
Tab delimiters

#CALIBRATION STATE
TRUE -- Waveform Calibration Values APPLIED.


#AUX CALIBRATION VALUES
Val Type	aux-1	

Term	1.0000e+00	
Factor	0.0000e+00	


#WF CALIBRATION VALUES
A = Detector Channel
Val Type	A-AC1	A-AC2	A-AC3	A-AC4	A-AC5	A-AC6	A-AC7	A-AC8	A-AC9	A-AC10	A-AC11	A-AC12	A-AC13	A-AC14	A-AC15	A-AC16	A-DC1	A-DC2	A-DC3	A-DC4	A-DC5	A-DC6	A-DC7	A-DC8	A-DC9	A-DC10	A-DC11	A-DC12	A-DC13	A-DC14	A-DC15	A-DC16	A-Ph1	A-Ph2	A-Ph3	A-Ph4	A-Ph5	A-Ph6	A-Ph7	A-Ph8	A-Ph9	A-Ph10	A-Ph11	A-Ph12	A-Ph13	A-Ph14	A-Ph15	A-Ph16	

Term	0.00000e+00	0.00000e+00	0.00000e+00	0.00000e+00	0.00000e+00	0.00000e+00	0.00000e+00	0.00000e+00	0.00000e+00	0.00000e+00	0.00000e+00	0.00000e+00	0.00000e+00	0.00000e+00	0.00000e+00	0.00000e+00	0.00000e+00	0.00000e+00	0.00000e+00	0.00000e+00	0.00000e+00	0.00000e+00	0.00000e+00	0.00000e+00	0.00000e+00	0.00000e+00	0.00000e+00	0.00000e+00	0.00000e+00	0.00000e+00	0.00000e+00	0.00000e+00	0.00000e+00	0.00000e+00	0.00000e+00	0.00000e+00	0.00000e+00	0.00000e+00	0.00000e+00	0.00000e+00	0.00000e+00	0.00000e+00	0.00000e+00	0.00000e+00	0.00000e+00	0.00000e+00	0.00000e+00	0.00000e+00	
Factor	1.00000e+00	1.00000e+00	1.00000e+00	1.00000e+00	1.00000e+00	1.00000e+00	1.00000e+00	1.00000e+00	1.00000e+00	1.00000e+00	1.00000e+00	1.00000e+00	1.00000e+00	1.00000e+00	1.00000e+00	1.00000e+00	1.00000e+00	1.00000e+00	1.00000e+00	1.00000e+00	1.00000e+00	1.00000e+00	1.00000e+00	1.00000e+00	1.00000e+00	1.00000e+00	1.00000e+00	1.00000e+00	1.00000e+00	1.00000e+00	1.00000e+00	1.00000e+00	X	X	X	X	X	X	X	X	X	X	X	X	X	X	X	X	

B = Detector Channel
Val Type	B-AC1	B-AC2	B-AC3	B-AC4	B-AC5	B-AC6	B-AC7	B-AC8	B-AC9	B-AC10	B-AC11	B-AC12	B-AC13	B-AC14	B-AC15	B-AC16	B-DC1	B-DC2	B-DC3	B-DC4	B-DC5	B-DC6	B-DC7	B-DC8	B-DC9	B-DC10	B-DC11	B-DC12	B-DC13	B-DC14	B-DC15	B-DC16	B-Ph1	B-Ph2	B-Ph3	B-Ph4	B-Ph5	B-Ph6	B-Ph7	B-Ph8	B-Ph9	B-Ph10	B-Ph11	B-Ph12	B-Ph13	B-Ph14	B-Ph15	B-Ph16	

Term	0.00000e+00	0.00000e+00	0.00000e+00	0.00000e+00	0.00000e+00	0.00000e+00	0.00000e+00	0.00000e+00	0.00000e+00	0.00000e+00	0.00000e+00	0.00000e+00	0.00000e+00	0.00000e+00	0.00000e+00	0.00000e+00	0.00000e+00	0.00000e+00	0.00000e+00	0.00000e+00	0.00000e+00	0.00000e+00	0.00000e+00	0.00000e+00	0.00000e+00	0.00000e+00	0.00000e+00	0.00000e+00	0.00000e+00	0.00000e+00	0.00000e+00	0.00000e+00	-3.55938e+01	-1.27701e+02	-1.25281e+02	-1.82617e+02	-5.40153e+01	-6.01161e+01	-1.56707e+02	-1.61923e+02	-3.23848e+01	-6.96501e+01	-1.72081e+02	-1.72121e+02	-1.82310e+02	-1.75613e+02	-4.80221e+01	-1.49421e+02	
Factor	1.75935e-05	1.27067e-04	3.90881e-05	1.69756e-01	1.41494e-06	1.43045e-06	1.51472e-01	4.16107e-02	1.27005e-06	1.46452e-06	7.00974e-02	2.89022e-02	2.93523e-02	6.32495e-03	1.47419e-06	9.43134e-03	9.40978e-06	1.53733e-05	4.30930e-06	8.73817e-02	1.59016e-07	1.71387e-07	7.34779e-02	2.15944e-02	1.53695e-07	1.73083e-07	3.51862e-02	1.45699e-02	1.52597e-02	3.31565e-03	1.61020e-07	4.78232e-03	X	X	X	X	X	X	X	X	X	X	X	X	X	X	X	X	



#DISTANCE SETTINGS
A = Detector Channel
A-1	A-2	A-3	A-4	A-5	A-6	A-7	A-8	A-9	A-10	A-11	A-12	A-13	A-14	A-15	A-16	

1.0000e+01	1.0000e+01	1.0000e+01	1.4500e+00	1.0000e+01	1.0000e+01	1.5100e+00	1.9500e+00	1.0000e+01	1.0000e+01	2.0100e+00	2.5000e+00	2.4400e+00	2.9500e+00	1.0000e+01	3.0100e+00	

B = Detector Channel
B-1	B-2	B-3	B-4	B-5	B-6	B-7	B-8	B-9	B-10	B-11	B-12	B-13	B-14	B-15	B-16	

1.0000e+01	1.0000e+01	1.0000e+01	1.4500e+00	1.0000e+01	1.0000e+01	1.5100e+00	1.9500e+00	1.0000e+01	1.0000e+01	2.0100e+00	2.5000e+00	2.4400e+00	2.9500e+00	1.0000e+01	3.0100e+00	




#DATA BEGINS
time	group	step	mark	flag	A-AC1	A-AC2	A-AC3	A-AC4	A-AC5	A-AC6	A-AC7	A-AC8	A-AC9	A-AC10	A-AC11	A-AC12	A-AC13	A-AC14	A-AC15	A-AC16	A-DC1	A-DC2	A-DC3	A-DC4	A-DC5	A-DC6	A-DC7	A-DC8	A-DC9	A-DC10	A-DC11	A-DC12	A-DC13	A-DC14	A-DC15	A-DC16	A-Ph1	A-Ph2	A-Ph3	A-Ph4	A-Ph5	A-Ph6	A-Ph7	A-Ph8	A-Ph9	A-Ph10	A-Ph11	A-Ph12	A-Ph13	A-Ph14	A-Ph15	A-Ph16	B-AC1	B-AC2	B-AC3	B-AC4	B-AC5	B-AC6	B-AC7	B-AC8	B-AC9	B-AC10	B-AC11	B-AC12	B-AC13	B-AC14	B-AC15	B-AC16	B-DC1	B-DC2	B-DC3	B-DC4	B-DC5	B-DC6	B-DC7	B-DC8	B-DC9	B-DC10	B-DC11	B-DC12	B-DC13	B-DC14	B-DC15	B-DC16	B-Ph1	B-Ph2	B-Ph3	B-Ph4	B-Ph5	B-Ph6	B-Ph7	B-Ph8	B-Ph9	B-Ph10	B-Ph11	B-Ph12	B-Ph13	B-Ph14	B-Ph15	B-Ph16	aux-1	digaux	

2305.927	1	1	0	256	0.125	0.32163	0.067262	0.18331	0.12891	0.11403	0.26257	0.19409	0.13436	0.21162	0.19667	0.20387	0.06771	0.025605	0.044053	0.087029	-2.8333	-4.0583	-3.3021	-3.4	-4.0813	-3.0583	-3.8479	-3.7854	-3.1625	-4.1479	-3.5354	-3.375	-4.1229	-3.2458	-3.7979	-3.9562	174.491	-45.266	75.657	242.505	216.191	113.965	230.890	204.173	64.887	-40.630	-56.842	95.675	226.086	234.986	229.266	261.778	5.7419e-05	0.00014594	7.6144e-05	215.51	2.038e-06	4.1839e-06	355.82	54.965	3.3434e-06	2.6738e-06	97.152	28.224	12.725	2.7441	5.196e-06	6.9909	0.00052128	0.00082715	0.00024638	191.02	8.7263e-06	9.432e-06	312.06	49.321	8.5983e-06	9.6166e-06	86.191	25.53	11.786	2.5994	8.7266e-06	6.3365	-33.824	270.130	77.669	-69.476	242.452	23.051	-69.501	-63.753	110.737	-1.291	-65.200	-61.629	-59.384	-55.298	149.378	-58.101	-8191	255	
2306.024	1	1	0	0	0.062601	0.070527	0.13343	0.23362	0.16723	0.2853	0.13652	0.12452	0.2704	0.14748	0.058271	0.22458	0.35358	0.17437	0.1567	0.19207	-2.7875	-3.9562	-3.5021	-3.2438	-4.1354	-3.1583	-3.8187	-3.9146	-3.1771	-4.0833	-3.4896	-3.2958	-4.0312	-3.2917	-3.4833	-4.0813	103.234	-9.875	242.663	146.204	201.743	64.388	-64.823	-63.182	140.559	252.038	-18.016	205.296	-44.157	114.854	74.697	156.143	6.6042e-05	0.00012367	0.00014895	215.61	2.042e-06	2.5304e-06	354.9	55.876	1.9209e-06	2.2975e-06	99.283	28.207	12.301	2.8057	2.3646e-06	6.9298	0.00051824	0.00080598	0.00022683	189.94	8.8224e-06	8.9725e-06	311.92	49.47	8.3181e-06	9.1305e-06	86.464	25.586	11.614	2.643	9.0926e-06	6.3052	-62.401	241.254	-30.627	-68.432	-27.422	196.644	-69.768	-63.126	24.869	210.617	-65.367	-61.582	-57.001	-55.565	143.700	-58.829	-8191	255	
2306.144	1	1	0	0	0.34455	0.28164	0.18196	0.12679	0.092289	0.10004	0.32107	0.078645	0.13063	0.2335	0.22664	0.09355	0.083559	0.050398	0.13206	0.057781	-2.6417	-3.8417	-3.7479	-3.2313	-4.1417	-3.2667	-3.5354	-4.1583	-3.225	-3.8937	-3.6063	-3.2604	-4.1417	-3.4021	-3.4771	-4.0542	241.080	88.185	39.808	185.603	177.970	121.012	181.973	73.126	45.961	166.068	125.713	246.629	197.212	116.272	2.222	246.388	3.0097e-05	0.00038133	5.9377e-05	212.25	3.7714e-06	2.2338e-06	351.16	55.227	3.135e-06	2.4042e-07	95.234	27.736	12.276	2.7361	1.6388e-06	6.9057	0.00054026	0.00081485	0.0002381	189.03	8.6034e-06	9.3785e-06	310.72	49.295	8.2918e-06	9.309e-06	84.915	25.248	11.537	2.6007	8.6491e-06	6.23	-30.774	-22.295	-71.244	-68.900	151.074	-3.222	-69.917	-63.948	36.624	61.371	-65.296	-61.517	-58.877	-55.076	-52.890	-58.685	-8191	255	
2306.240	1	1	0	0	0.089113	0.10814	0.17038	0.20082	0.15235	0.10059	0.129	0.37743	0.13686	0.19264	0.23972	0.22465	0.053416	0.19628	0.070063	0.090158	-2.9333	-3.6708	-3.9771	-3.3396	-3.9667	-3.3937	-3.4688	-4.1937	-3.2333	-3.7271	-3.925	-2.9833	-4.0104	-3.5292	-3.1979	-4.1771	174.685	240.829	245.610	182.177	228.297	228.534	196.349	215.444	-77.248	-66.437	146.444	198.009	-40.910	65.983	246.020	-66.784	5.4096e-05	0.00022579	5.3384e-05	214.19	1.5419e-06	3.3653e-06	353.79	56.082	4.1018e-06	4.0447e-06	95.011	28.028	12.225	2.8092	5.1482e-06	6.9332	0.00051601	0.00080812	0.00023081	189.28	8.6386e-06	9.1032e-06	309.94	49.514	8.4125e-06	8.851e-06	84.692	25.416	11.564	2.5939	8.8772e-06	6.2341	-39.953	213.113	-73.471	-68.649	105.765	252.163	-69.506	-63.367	-3.624	166.822	-65.663	-61.639	-59.080	-55.470	124.806	-58.465	-8191	255	
2306.336	1	1	0	0	0.035589	0.20421	0.20497	0.11039	0.14457	0.10067	0.14941	0.17446	0.25987	0.28604	0.097199	0.18461	0.24336	0.20769	0.13848	0.075434	-2.8688	-3.65	-3.8063	-3.1562	-4.0563	-3.8271	-3.1604	-4.0729	-3.3917	-3.725	-4.0188	-3.1667	-3.8438	-3.7167	-3.2271	-4.1854	88.265	68.804	180.119	89.292	98.759	268.374	273.891	38.159	215.830	138.947	189.788	-9.086	-8.250	127.047	236.910	156.451	5.6861e-05	0.00022379	3.8481e-05	210.32	3.4809e-07	3.0992e-06	354.17	55.886	2.3376e-06	1.5481e-06	95.508	28.085	12.274	2.7979	4.4818e-06	6.9098	0.00053169	0.00082298	0.0002306	188.08	8.7293e-06	9.2189e-06	311.18	49.607	8.4807e-06	9.1871e-06	85.2	25.523	11.535	2.6177	8.7699e-06	6.2963	182.094	-4.648	148.288	-69.322	114.101	161.333	-69.369	-62.736	28.874	-63.142	-65.399	-61.716	-58.217	-54.159	63.153	-58.192	-8191	255	
2306.433	1	1	0	0	0.11369	0.13137	0.19971	0.041801	0.056207	0.070679	0.22282	0.15256	0.14723	0.20872	0.22638	0.15037	0.070889	0.081327	0.16991	0.026386	-3.0771	-3.5229	-4.0062	-3.0583	-3.9833	-3.7542	-3.1688	-4.0625	-3.4813	-3.4542	-4.1708	-3.1604	-4.0542	-3.85	-3.1729	-4.1542	74.460	262.088	17.894	78.004	-19.013	-31.629	108.924	1.842	-71.670	10.405	180.113	155.107	-79.584	-19.927	1.401	46.481	7.9299e-05	0.00012109	9.1211e-05	213.2	2.4359e-06	2.5445e-06	357.73	55.406	1.3859e-06	2.5948e-06	95.977	28.357	12.528	2.8275	3.63e-06	6.8974	0.00051409	0.00081876	0.00023316	189.37	8.5915e-06	9.311e-06	312.55	49.378	8.4045e-06	9.4442e-06	85.391	25.61	11.654	2.6117	8.692e-06	6.2366	226.300	-13.247	45.038	-68.811	-32.527	65.225	-69.928	-62.957	5.927	-73.896	-65.370	-60.644	-58.084	-54.363	244.373	-58.502	-8191	255	
2306.551	1	1	0	0	0.019754	0.079916	0.099322	0.11575	0.14331	0.085096	0.063198	0.031879	0.044403	0.086558	0.25086	0.16689	0.18878	0.11545	0.017645	0.10376	-2.9792	-3.4375	-4.1062	-3.125	-3.5062	-3.9042	-3.1521	-4.0062	-3.4042	-3.3187	-4.1458	-3.3417	-3.6646	-3.9062	-3.1375	-3.9229	-80.226	231.999	160.295	86.898	187.908	-4.037	91.749	-4.906	174.904	182.292	-31.909	174.358	118.906	16.698	242.690	28.589	4.0523e-05	6.2485e-05	6.9763e-05	214.9	3.1346e-06	2.3855e-06	351.94	55.336	1.5535e-06	2.9738e-06	96.311	27.607	12.394	2.7142	1.5122e-06	6.7264	0.00052158	0.00084428	0.00022445	190.29	8.3523e-06	9.3927e-06	309.44	49.521	8.1906e-06	9.2751e-06	84.619	25.136	11.495	2.5411	8.6796e-06	6.1675	175.572	-23.196	-62.194	-68.380	273.859	198.889	-69.427	-62.681	252.171	103.888	-65.200	-60.917	-58.285	-54.220	193.570	-57.556	-8191	255	
2306.625	1	1	0	0	0.12537	0.20029	0.16866	0.26381	0.080529	0.12814	0.15428	0.20259	0.19069	0.33299	0.2277	0.12401	0.15059	0.070199	0.13983	0.14206	-3.2542	-3.1271	-3.85	-3.2292	-3.5187	-4.0312	-3.3438	-3.9792	-3.6792	-3.2083	-4.2021	-3.3479	-3.6042	-3.9604	-3.0604	-3.9458	31.242	233.605	206.091	174.816	184.908	139.174	164.262	26.607	178.466	-50.798	264.674	221.006	237.152	90.327	-48.082	71.797	3.8612e-05	0.00046675	9.5325e-05	212.43	5.6342e-06	1.0667e-06	350.6	55.396	4.6949e-07	3.5056e-06	94.939	27.891	12.308	2.7196	3.2718e-06	6.7574	0.00051628	0.00080924	0.00023488	188.56	8.6081e-06	9.0953e-06	308.7	49.114	8.7209e-06	9.5733e-06	84.659	25.201	11.598	2.5673	8.8943e-06	6.1713	-9.556	14.365	-76.058	-69.529	37.911	164.167	-69.721	-62.905	1.977	181.897	-65.216	-60.664	-58.683	-55.057	99.676	-57.696	-8191	255	
2306.744	1	1	0	0	0.16325	0.30029	0.25198	0.11783	0.27617	0.26477	0.079017	0.064955	0.033542	0.1263	0.18844	0.13921	0.19244	0.2001	0.13166	0.079713	-3.4875	-3.3083	-3.9167	-3.3896	-3.225	-4.1396	-3.1	-3.7354	-3.8063	-3.0917	-4.1937	-3.4375	-3.2771	-3.9958	-3.4083	-3.6958	65.972	168.405	-56.252	205.027	256.244	-79.094	255.113	-50.371	232.780	-64.136	273.581	193.151	196.354	-31.251	-45.094	32.573	8.5003e-06	0.00029712	0.00010102	210.17	5.2085e-07	2.4082e-06	352.19	55.853	2.1487e-06	8.1599e-07	96.789	27.822	12.368	2.6963	1.4262e-06	6.8927	0.00051756	0.00083692	0.00022394	187.7	8.6121e-06	9.101e-06	310.02	49.28	8.4167e-06	9.5827e-06	84.865	25.328	11.605	2.5705	8.6384e-06	6.2495	-40.451	-61.271	-75.032	-69.038	222.525	21.728	-69.417	-63.278	199.811	139.120	-65.213	-59.928	-58.840	-55.065	69.132	-58.788	-8191	255	
2306.840	1	1	0	0	0.31196	0.12986	0.068365	0.24324	0.083601	0.2223	0.27226	0.23813	0.11171	0.1689	0.054858	0.085518	0.1882	0.15516	0.19039	0.26487	-3.625	-3.1271	-4.1521	-3.5104	-3.1896	-4.1312	-3.3063	-3.6833	-4.0417	-3.0083	-3.9792	-3.6813	-3.3	-4.1271	-3.4562	-3.3688	-15.508	153.376	7.575	231.602	213.146	159.274	-53.814	75.203	173.347	-0.074	192.250	22.642	-32.518	264.960	202.177	244.741	1.6927e-06	8.5181e-05	8.7555e-05	210.88	3.4446e-06	2.5582e-06	357.5	55.348	8.7663e-07	1.4103e-06	97.572	27.993	11.986	2.7733	7.284e-07	6.8252	0.00050842	0.00085239	0.00023359	187.53	8.7618e-06	9.3328e-06	311.39	49.11	8.2637e-06	9.5953e-06	85.931	25.329	11.509	2.5846	9.0476e-06	6.2293	-40.099	167.659	74.265	-68.956	78.564	236.078	-69.553	-62.660	215.297	19.207	-65.679	-59.469	-58.834	-53.906	215.797	-57.477	-8191	255	
2306.936	1	1	0	0	0.11138	0.35008	0.26046	0.13424	0.18537	0.22955	0.057225	0.33402	0.18519	0.33255	0.13647	0.12686	0.089103	0.05438	0.22686	0.13398	-3.625	-3.1646	-3.8333	-3.5604	-3.1979	-4.1521	-3.4458	-3.3854	-3.9292	-3.2042	-4.0104	-3.7833	-3.1833	-4.05	-3.4313	-3.4562	88.622	26.846	227.808	155.510	247.179	-1.316	-60.035	256.685	-44.387	-36.758	-10.267	257.501	-74.831	113.350	166.755	143.296	4.7974e-05	5.9254e-05	4.6369e-05	211.74	1.9341e-06	5.8679e-06	353.38	55.336	2.6071e-06	4.5049e-06	95.21	27.851	12.155	2.6146	2.8038e-06	6.9527	0.00052712	0.00079509	0.000243	188.3	9.0424e-06	9.2385e-06	308.92	49.08	8.2566e-06	9.4691e-06	84.858	25.156	11.356	2.5151	8.5592e-06	6.2353	214.425	-0.621	-53.697	-69.048	250.794	34.328	-69.776	-62.749	67.730	61.143	-65.487	-61.361	-57.408	-54.945	146.463	-58.336	-8191	255	
2307.032	1	1	0	0	0.14708	0.016197	0.2063	0.25046	0.14367	0.15184	0.09286	0.06771	0.13373	0.22329	0.1925	0.21896	0.0065851	0.1418	0.15989	0.12603	-3.5979	-3.2021	-3.6875	-3.7938	-3.2729	-3.9979	-3.5625	-3.4208	-4.1479	-3.3125	-3.5771	-3.8646	-3.0854	-3.9938	-3.725	-3.2667	-16.587	-24.440	91.231	265.052	3.615	216.671	-63.138	156.518	122.463	37.868	131.947	181.178	156.435	268.407	95.490	269.146	1.6359e-05	0.000169	1.5859e-05	212.3	1.5131e-06	2.7423e-06	354.21	55.046	1.2862e-06	3.6536e-06	96.034	27.819	11.837	2.7022	2.318e-06	6.9648	0.00051548	0.00084588	0.00022661	187.64	9.0281e-06	9.2924e-06	310.17	49.133	8.4487e-06	9.0576e-06	85.363	25.219	11.37	2.5654	8.5384e-06	6.2565	-44.698	217.787	65.120	-69.980	203.121	-80.374	-69.742	-63.540	155.831	49.484	-65.012	-61.197	-57.089	-55.388	122.125	-58.493	-8191	255	
2307.153	1	1	0	0	0.11121	0.17742	0.094966	0.23353	0.067582	0.0017121	0.18888	0.2987	0.20961	0.16522	0.19719	0.07897	0.21968	0.15295	0.23064	0.30104	-3.8833	-3.3646	-3.6146	-4.0146	-3.0958	-4.0458	-3.6146	-3.0479	-4	-3.5042	-3.5667	-4.0854	-3.1125	-3.8688	-3.8521	-3.3063	64.631	94.575	153.633	59.524	253.258	180.000	30.728	236.193	157.716	250.463	35.166	-55.917	-39.285	67.297	16.467	-63.144	2.8643e-05	0.00031308	6.5168e-05	210.5	3.8344e-06	2.6053e-06	357.29	55.11	1.1768e-06	5.0606e-07	96.245	28.582	12.213	2.8144	2.9192e-06	6.7918	0.0005222	0.00087147	0.00022747	186.98	8.8045e-06	9.0835e-06	310.85	49.125	8.1068e-06	9.5524e-06	85.562	25.666	11.488	2.6016	8.5964e-06	6.2436	254.109	-7.229	-26.624	-68.947	157.217	113.691	-69.125	-63.592	216.484	216.837	-65.159	-60.878	-58.133	-53.599	119.194	-57.459	-8191	255	
2307.225	1	1	0	0	0.15327	0.20414	0.23013	0.11516	0.30142	0.12988	0.12777	0.16955	0.066665	0.0295	0.17192	0.17128	0.054401	0.18598	0.1264	0.16211	-3.7958	-3.2958	-3.475	-4.1354	-3.4125	-3.8771	-3.9521	-3.2167	-4.0938	-3.3063	-3.5917	-4.1896	-3.2396	-3.75	-3.8104	-3.1188	-47.374	198.619	155.737	147.084	113.025	227.002	211.998	2.179	137.207	24.630	166.110	138.168	273.739	123.126	-7.396	97.046	9.5253e-06	0.00017446	0.00018066	211.22	3.3051e-06	4.9423e-06	355.06	54.314	3.9392e-07	6.9887e-07	96.142	28.146	12.251	2.7314	4.0325e-06	6.8531	0.00052483	0.00084752	0.0002348	188.09	8.6979e-06	9.331e-06	309.47	48.997	8.5233e-06	9.2827e-06	85.395	25.274	11.436	2.5527	8.7457e-06	6.164	177.851	16.403	-27.513	-68.531	-62.993	-40.380	-69.597	-63.549	63.534	-9.530	-65.761	-60.992	-58.262	-53.777	-35.484	-58.496	-8191	255	
2307.321	1	1	0	0	0.065645	0.10989	0.25498	0.10761	0.22637	0.26979	0.17381	0.14163	0.21697	0.2249	0.21636	0.10753	0.071159	0.077662	0.16612	0.26202	-3.8854	-3.5333	-3.3229	-4.3042	-3.1979	-3.8354	-4.2167	-3.3208	-3.9771	-3.6813	-3.3375	-4.1021	-3.3417	-3.5396	-4.075	-3.2167	139.610	89.851	15.945	46.781	76.104	-31.275	176.023	107.675	33.365	-21.793	87.291	-55.029	-6.050	243.709	204.890	208.895	6.8799e-05	9.7294e-05	7.9693e-05	211.07	1.7982e-06	1.4247e-06	352.69	55.191	3.406e-06	6.9508e-06	96.167	27.56	12.14	2.7074	5.3772e-06	6.6647	0.00052914	0.00083435	0.00023582	187.38	8.5912e-06	9.3138e-06	309.64	49.074	7.9758e-06	9.5062e-06	84.838	25.01	11.471	2.5343	8.8195e-06	6.1729	-73.161	244.137	-4.512	-68.987	106.527	33.589	-69.976	-62.781	58.790	56.478	-64.978	-60.010	-57.671	-53.915	-8.102	-57.291	-8191	255	
2307.417	1	1	0	0	0.12931	0.032492	0.061423	0.16089	0.1734	0.079999	0.15309	0.11043	0.064648	0.053089	0.089449	0.18952	0.17821	0.2033	0.17748	0.24391	-3.7792	-3.775	-3.1396	-4.0958	-3.2229	-3.5563	-4.0604	-3.1792	-4.075	-3.8375	-3.1188	-4.2042	-3.1729	-3.4375	-4.1375	-3.35	6.007	253.755	89.419	160.081	119.725	-50.779	220.503	207.653	66.921	-7.403	-13.920	276.870	-9.205	90.667	123.927	93.386	4.3732e-05	0.00013712	9.8577e-05	209.78	5.0721e-06	8.5838e-07	352.01	55.195	4.3455e-06	2.9761e-06	95.847	28.315	12.089	2.7047	1.7973e-06	6.7489	0.00052207	0.00081937	0.00023188	186.64	8.9218e-06	9.2674e-06	308.09	48.952	8.0891e-06	9.1197e-06	84.909	25.223	11.46	2.546	8.8229e-06	6.1779	272.679	-79.221	83.401	-69.065	5.539	99.248	-70.098	-63.310	95.542	166.630	-65.301	-60.725	-57.675	-55.398	30.052	-58.447	-8191	255	
2307.536	1	1	0	0	0.13327	0.32702	0.25475	0.063319	0.087234	0.17537	0.23467	0.068525	0.075708	0.21798	0.10175	0.083318	0.19204	0.14012	0.18704	0.078645	-3.5854	-3.8396	-3.0229	-4.0104	-3.5479	-3.3854	-4.1188	-3.3042	-3.7562	-3.9208	-3.1417	-4.0312	-3.6417	-3.2979	-4.1875	-3.2667	187.009	-77.800	-59.898	192.916	61.675	42.095	211.669	54.424	191.638	129.437	-50.750	175.536	129.752	129.244	101.164	136.902	1.4832e-05	0.00024662	1.8508e-05	211.47	3.2658e-06	1.3192e-06	355.06	54.091	1.1011e-06	6.22e-07	97.157	27.961	11.932	2.7774	1.9967e-06	6.7613	0.00050566	0.00084371	0.00023798	188.03	8.6482e-06	9.7327e-06	311.13	48.702	8.4132e-06	9.3155e-06	85.099	25.319	11.399	2.5534	8.8625e-06	6.1998	-8.694	37.088	-68.222	-69.770	108.571	163.675	-69.343	-63.310	129.361	173.643	-64.847	-60.608	-58.848	-53.907	115.210	-58.966	-8191	255	
2307.632	1	1	0	0	0.055081	0.13534	0.10446	0.11469	0.14151	0.13711	0.1422	0.25073	0.13143	0.14321	0.20508	0.070726	0.14988	0.12855	0.069395	0.19314	-3.3333	-3.9542	-3.2	-3.8208	-3.7146	-3.2417	-4.0708	-3.1562	-3.6833	-4.0979	-3.0646	-3.8771	-3.7438	-3.3167	-3.9875	-3.3292	60.856	188.046	70.104	207.010	81.161	-7.202	-71.392	37.816	116.849	193.784	193.514	78.096	77.085	109.613	124.543	269.649	4.1823e-05	0.00019073	0.00016337	212	3.806e-06	5.1381e-06	352.09	55.053	4.8726e-06	2.2528e-06	96.587	27.748	11.737	2.6608	4.871e-06	6.6804	0.0005192	0.00082942	0.00023427	187.91	8.7346e-06	9.4338e-06	308.85	48.873	8.311e-06	9.177e-06	84.844	24.947	11.244	2.5085	8.1318e-06	6.0852	-63.185	78.878	229.807	-68.301	-0.014	135.932	-69.606	-63.231	19.033	89.965	-64.845	-61.098	-58.083	-54.025	104.385	-58.608	-8191	255	
2307.728	1	1	0	0	0.030804	0.28849	0.21778	0.22416	0.14684	0.13556	0.18801	0.14765	0.09051	0.1429	0.22185	0.073356	0.21151	0.1632	0.30883	0.054899	-3.3396	-4.1146	-3.3208	-4.0042	-3.4625	-3.2771	-3.9938	-3.5583	-3.3104	-4.0083	-3.1688	-3.9	-3.8438	-3.1146	-4.0646	-3.5396	147.236	-66.321	106.430	181.957	274.140	193.297	116.426	156.980	-34.838	61.380	0.017	-60.103	23.687	241.058	201.216	12.535	4.8989e-05	0.00037565	5.4393e-05	212.41	3.4489e-07	1.6525e-06	352.76	54.412	1.965e-06	7.3792e-07	95.446	27.287	11.879	2.5703	3.5872e-06	6.6168	0.00054038	0.0008137	0.00022907	188.27	8.2824e-06	9.4759e-06	308.29	48.402	8.1112e-06	8.9199e-06	83.86	24.769	11.233	2.4646	8.3321e-06	6.0073	-72.236	-35.520	10.495	-69.150	227.455	134.083	-70.084	-64.110	133.076	-44.638	-65.573	-61.241	-58.365	-54.336	149.530	-59.514	-8191	255	
2307.824	1	1	0	0	0.49086	0.14891	0.34225	0.22903	0.12446	0.18056	0.058321	0.10425	0.097826	0.080881	0.34689	0.15304	0.1522	0.11187	0.26692	0.26743	-3.1771	-4.1188	-3.0312	-3.6792	-4.0042	-3.275	-4.1438	-3.7333	-3.325	-4.1854	-3.3812	-3.6625	-3.9417	-3.1188	-4.0188	-3.5708	67.466	-30.395	103.047	75.354	246.340	-48.465	65.815	100.490	122.092	27.401	-45.770	248.868	82.141	42.670	81.087	265.999	1.1035e-05	0.0002514	6.0248e-05	212	4.7326e-07	6.9561e-07	350.05	54.37	1.1827e-06	2.5734e-06	95.662	28.008	11.871	2.6464	2.4341e-06	6.5517	0.00053698	0.00082625	0.00022799	187.86	8.8767e-06	9.331e-06	307.81	48.68	8.7122e-06	9.5791e-06	84.229	25.009	11.384	2.4866	8.5938e-06	6.0486	77.416	188.156	-6.441	-69.497	125.216	131.094	-70.727	-64.083	224.270	-66.542	-66.093	-61.449	-58.706	-54.687	74.001	-59.662	-8191	255	
2307.920	1	1	0	0	0.15463	0.081624	0.1919	0.21732	0.21401	0.1401	0.11878	0.12152	0.097996	0.057961	0.20214	0.041286	0.2438	0.090429	0.11214	0.17682	-2.9667	-4.0083	-3.2771	-3.5604	-4.0646	-3.0292	-3.9292	-3.5458	-3.1979	-4.0833	-3.4562	-3.4521	-4.0813	-3.2896	-3.7625	-3.7458	239.633	34.888	152.176	181.818	22.080	109.928	263.633	72.234	-23.546	-53.501	159.564	197.591	27.457	240.204	-22.300	118.775	4.3591e-05	0.00012896	8.2643e-05	210.13	3.1557e-07	1.4214e-06	354.79	54.121	4.2025e-07	1.7031e-06	95.418	28.261	12.231	2.6296	2.3839e-06	6.6485	0.00052899	0.00083416	0.0002315	187.72	8.7774e-06	9.1935e-06	309.76	48.334	8.6107e-06	9.3497e-06	84.328	25.146	11.344	2.518	8.8487e-06	6.081	-75.069	20.120	-34.932	-68.995	84.250	185.841	-69.447	-63.842	84.664	56.760	-65.872	-60.799	-59.483	-57.058	174.928	-59.520	-8191	255	
2308.015	1	1	0	0	0.29664	0.047671	0.23593	0.20666	0.0495	0.14867	0.0081921	0.10673	0.19229	0.24311	0.12253	0.11851	0.18417	0.24929	0.12938	0.15923	-2.8104	-4.0354	-3.3646	-3.3396	-3.9042	-3.1708	-3.9083	-3.8083	-3.275	-4.0417	-3.5812	-3.4271	-4.05	-3.0875	-3.7313	-4	5.389	101.114	271.620	36.577	87.309	92.902	-18.526	75.805	140.833	130.072	171.277	166.903	94.091	-37.006	92.940	215.138	3.2751e-05	0.00026023	8.4084e-05	212.71	1.8831e-06	6.4016e-06	351.11	54.179	6.7792e-07	3.0076e-06	94.635	26.803	11.944	2.6176	2.6883e-06	6.4261	0.00052458	0.00080719	0.00023224	187.11	8.3238e-06	9.698e-06	308.1	48.53	8.5758e-06	8.8427e-06	83.698	24.447	11.261	2.4793	8.5159e-06	5.9246	114.924	150.403	-0.779	-69.550	132.181	101.091	-70.343	-64.567	158.158	35.728	-66.401	-61.389	-58.189	-56.313	60.492	-59.022	-8191	255	
2308.113	1	1	0	0	0.12692	0.12313	0.17127	0.11943	0.12133	0.21616	0.17014	0.1251	0.0816	0.10232	0.096985	0.11001	0.013012	0.074685	0.12206	0.10206	-2.7604	-3.9833	-3.5021	-3.275	-4.0229	-3.4729	-3.8271	-4.1333	-3.2062	-3.8771	-3.7313	-3.4458	-3.9979	-3.3021	-3.6896	-3.9875	-46.722	161.482	222.778	-4.040	49.504	-8.782	154.322	51.277	85.869	103.505	179.781	79.830	262.844	235.651	-50.779	120.685	2.854e-05	0.00034745	0.00010982	212.14	3.8476e-06	1.4258e-06	352.77	53.937	1.1192e-06	4.4235e-07	94.249	27.533	11.813	2.572	2.0346e-06	6.5053	0.00054592	0.00078711	0.0002307	187.05	8.4149e-06	9.0325e-06	307.65	48.051	8.7997e-06	9.3991e-06	83.377	24.709	11.148	2.4667	8.6709e-06	5.9613	-81.833	-37.111	251.048	-69.670	-52.867	65.491	-70.153	-64.143	122.325	34.992	-65.764	-62.008	-59.918	-54.377	59.139	-58.953	-8191	255	
2308.231	1	1	0	0	0.12025	0.18734	0.11536	0.076064	0.1013	0.22682	0.12876	0.019062	0.28222	0.17184	0.12079	0.1726	0.087265	0.19268	0.19573	0.1632	-2.7271	-3.8458	-3.6542	-3.2375	-4.0833	-3.4521	-3.4562	-4.0687	-3.3438	-3.875	-3.7042	-3.2917	-4.0583	-3.4313	-3.3708	-4.1833	189.647	-21.512	160.291	257.208	86.442	-60.069	267.672	215.718	154.840	119.478	255.671	-35.793	154.673	193.401	190.173	177.931	5.6852e-05	0.000214	0.00016127	211.41	2.9082e-06	3.2822e-06	350.95	53.605	2.8074e-06	3.0354e-07	94.194	27.967	11.655	2.5863	2.0639e-06	6.5948	0.00053161	0.00084938	0.00023267	187.29	8.6826e-06	9.7223e-06	308.33	48.137	8.2467e-06	9.3523e-06	83.388	24.943	11.203	2.4552	8.9269e-06	6.0056	-65.507	237.254	21.595	-69.039	126.405	169.661	-70.155	-64.294	-10.672	-52.975	-65.570	-61.122	-57.880	-54.779	2.484	-58.851	-8191	255	
2308.328	1	1	0	0	0.12447	0.12943	0.08466	0.23448	0.10048	0.084212	0.19273	0.32958	0.098408	0.060309	0.2026	0.14323	0.2609	0.17295	0.12868	0.16963	-2.7229	-3.6833	-3.9833	-3.1021	-3.9375	-3.5875	-3.4437	-4.1229	-3.1833	-3.7354	-3.7917	-3.2229	-4.0958	-3.5354	-3.3208	-4.2354	216.591	-50.800	59.898	-0.222	-53.400	216.350	220.855	146.020	148.033	5.860	170.761	101.882	239.817	92.949	148.734	233.343	5.0154e-05	0.00035063	0.00015563	208.28	1.5864e-06	3.0555e-06	347.09	53.711	5.6379e-06	2.1754e-06	95.72	27.464	12.08	2.6231	3.7389e-06	6.4619	0.00055441	0.0008455	0.00023991	186.17	8.6273e-06	9.6445e-06	307.59	48.245	8.482e-06	9.7691e-06	84.403	24.87	11.279	2.4895	9.0456e-06	5.9712	-78.844	-14.285	41.704	-69.666	183.654	54.010	-70.372	-64.105	18.388	149.651	-65.636	-61.254	-58.574	-54.212	98.922	-58.187	-8191	255	
2308.424	1	1	0	0	0.28134	0.21519	0.1668	0.22123	0.060179	0.12424	0.05654	0.08462	0.21626	0.28699	0.16226	0.087939	0.064576	0.048539	0.070288	0.15305	-2.9021	-3.6021	-4.0625	-3.1333	-4.1562	-3.6937	-3.2042	-4.0771	-3.3625	-3.6208	-3.9458	-3.1625	-3.9292	-3.7417	-3.2104	-4.0625	193.603	123.042	190.754	175.054	29.008	-24.614	50.086	210.606	223.388	142.728	271.339	-14.814	62.191	-41.128	-7.657	42.577	1.6726e-05	0.00021407	3.8862e-05	212.33	2.3604e-06	4.7021e-06	347.81	53.777	1.008e-06	3.8548e-06	93.59	26.786	11.86	2.5548	2.6966e-06	6.4336	0.00054187	0.0008267	0.00023561	187.63	8.8393e-06	9.3474e-06	306.33	48.378	8.5778e-06	9.4334e-06	83.291	24.321	11.176	2.4359	9.2395e-06	5.8924	47.944	134.627	276.591	-69.673	47.747	42.115	-70.234	-63.807	199.868	107.063	-65.864	-62.400	-58.924	-55.108	119.950	-59.090	-8191	255	
2308.520	1	1	0	0	0.13292	0.081021	0.24756	0.28672	0.21631	0.090296	0.20434	0.068008	0.25194	0.041787	0.14914	0.026993	0.1183	0.17743	0.18694	0.12656	-2.925	-3.3708	-4.0667	-3.2917	-3.9125	-3.8438	-3.2854	-4.0813	-3.5958	-3.4792	-4.2604	-3.1104	-3.9167	-3.7604	-3.0458	-4.0646	7.446	72.869	-50.814	160.759	-71.430	18.697	65.724	-44.541	-1.690	185.388	0.427	91.219	-44.838	64.575	55.235	18.244	2.9742e-05	0.00023606	5.4624e-05	211.15	1.5645e-06	1.7146e-06	350.96	53.906	2.3808e-06	3.7264e-06	93.74	26.84	11.988	2.5475	1.5504e-06	6.5083	0.00052391	0.00086222	0.00023301	186.6	8.4358e-06	9.3238e-06	306.2	48.28	8.3834e-06	9.2992e-06	83.256	24.332	11.193	2.4364	9.0319e-06	5.9403	112.898	61.527	79.795	-69.118	270.665	25.182	-69.676	-63.318	204.225	3.284	-65.438	-61.552	-59.680	-54.225	51.970	-59.299	-8191	255	
2308.616	1	1	0	0	0.10754	0.17748	0.086692	0.32415	0.36509	0.016683	0.26196	0.26858	0.1637	0.13434	0.23655	0.20799	0.20161	0.12561	0.1221	0.11998	-3.0875	-3.4458	-4.1167	-3.2083	-3.75	-3.8417	-3.2021	-4.0542	-3.5646	-3.3708	-4.2208	-3.2896	-3.6896	-4.0062	-3.1917	-4.0417	252.943	67.358	107.052	-78.626	134.449	184.141	271.971	197.461	244.401	268.880	-56.899	220.680	245.063	71.705	-23.114	189.073	3.1382e-06	0.00037464	7.231e-05	206.87	1.0181e-06	7.4332e-07	354.53	53.895	4.6607e-06	3.3294e-06	95.051	27.127	11.895	2.6606	6.6481e-07	6.6405	0.0005335	0.00085697	0.00023726	184.34	8.7585e-06	9.4999e-06	307.92	48.203	8.2893e-06	9.7186e-06	83.98	24.618	11.265	2.474	8.9178e-06	5.9939	-48.228	227.925	35.005	-69.334	247.302	-29.277	-69.818	-63.816	99.673	201.929	-65.530	-61.108	-58.527	-55.110	35.783	-58.434	-8191	255	
2308.712	1	1	0	0	0.20998	0.41309	0.17016	0.16739	0.23482	0.032038	0.35904	0.32397	0.19839	0.28613	0.0752	0.15802	0.063809	0.031276	0.27586	0.083994	-3.4125	-3.3563	-4.1417	-3.4021	-3.5396	-3.9292	-3.2479	-3.9896	-3.8604	-3.225	-4.2188	-3.3563	-3.4833	-4.2	-3.1896	-3.9875	185.733	-68.585	-46.608	112.579	271.976	106.928	247.244	-66.141	75.266	272.927	276.010	-4.316	97.000	38.800	240.195	110.301	6.4943e-05	0.00023499	5.4533e-05	211.45	3.0699e-06	2.5141e-06	352.84	53.891	4.2231e-06	6.7082e-07	94.199	27.317	11.567	2.5875	2.5403e-06	6.5298	0.00055181	0.00082113	0.00024339	186.48	8.5229e-06	9.0996e-06	309.07	48.256	8.5227e-06	9.3429e-06	83.685	24.588	11.159	2.4639	9.0933e-06	5.9648	277.377	150.966	30.656	-69.562	143.182	10.523	-69.752	-63.235	22.577	157.499	-65.115	-60.894	-57.157	-55.066	211.305	-58.585	-8191	255	
2308.833	1	1	0	0	0.14058	0.099629	0.16137	0.14018	0.11744	0.12705	0.18696	0.21245	0.15056	0.10603	0.17403	0.22889	0.08803	0.070712	0.14014	0.29015	-3.5167	-3.1625	-4.0792	-3.3542	-3.2854	-4.1042	-3.225	-3.8521	-3.9375	-3.2	-3.9542	-3.4958	-3.5646	-4.1771	-3.3104	-3.6708	238.628	256.428	-70.269	-81.084	-16.441	150.822	50.798	157.837	211.883	132.935	64.517	59.968	258.224	30.341	233.399	-36.793	6.8835e-06	0.00025375	1.7101e-05	208.87	1.4029e-06	3.3956e-06	352.55	53.934	2.2852e-06	4.5372e-06	93.031	26.253	11.523	2.6134	2.9923e-07	6.2812	0.00053857	0.00084406	0.00023682	185.84	9.0765e-06	9.3092e-06	307.36	48.139	8.3142e-06	9.6858e-06	82.827	24.109	11.049	2.4433	8.9594e-06	5.8311	11.357	-5.095	196.008	-69.059	6.448	206.560	-69.470	-63.296	242.446	-72.463	-65.305	-61.277	-59.471	-54.872	85.767	-58.342	-8191	255	
2308.927	1	1	0	0	0.21325	0.070199	0.0872	0.22598	0.18318	0.1293	0.15946	0.18359	0.15433	0.18142	0.11905	0.23104	0.16949	0.17225	0.058601	0.14625	-3.5938	-3.3271	-3.8229	-3.6771	-3.2208	-4.2146	-3.2125	-3.7062	-3.9417	-3.2771	-3.9646	-3.7333	-3.1208	-3.9333	-3.5521	-3.3563	261.014	39.978	125.994	273.458	-21.864	-80.193	275.169	-64.588	52.809	16.309	-71.027	158.853	78.989	240.653	196.740	206.574	2.9902e-05	0.00035236	0.00011268	210.21	3.8251e-06	2.6564e-06	349.68	53.051	6.2612e-07	4.7955e-07	94.313	27.181	11.869	2.6146	4.8186e-06	6.5268	0.00052503	0.00082971	0.00023558	185.7	8.9712e-06	9.472e-06	305.87	47.83	8.4884e-06	9.8365e-06	83.841	24.462	11.23	2.4695	9.0419e-06	5.9227	231.638	-13.351	171.922	-68.362	21.521	73.724	-69.111	-62.761	194.021	92.237	-64.659	-60.928	-58.802	-54.719	158.424	-58.250	-8191	255	
2309.023	1	1	0	0	0.18024	0.052637	0.067772	0.071749	0.035187	0.11818	0.15649	0.10735	0.05842	0.030661	0.10339	0.13564	0.066849	0.14264	0.1089	0.33913	-3.6708	-3.1417	-4.0813	-3.85	-3.1	-4.0521	-3.3937	-3.5083	-4.0979	-3.1937	-4.0917	-3.7792	-3.125	-4.1229	-3.4938	-3.3854	116.979	23.072	-22.186	196.173	251.145	124.858	33.908	59.265	72.653	104.269	203.172	146.813	57.637	-73.387	121.196	176.663	3.4479e-05	0.00021435	8.8498e-05	208.74	4.2631e-06	7.6703e-07	351.7	54.173	3.7517e-06	4.3659e-06	94.464	26.702	11.771	2.6325	3.2658e-06	6.5496	0.00054498	0.00081911	0.00022907	185.31	9.0934e-06	9.3492e-06	307.53	48.398	8.2838e-06	9.5239e-06	83.791	24.306	11.168	2.4736	8.8735e-06	5.9743	124.057	-18.589	269.376	-68.787	101.581	60.476	-69.536	-63.217	8.569	144.447	-65.693	-60.713	-58.202	-54.491	160.702	-58.644	-8191	255	
2309.095	1	1	0	0	0.30908	0.11139	0.18447	0.12229	0.055988	0.14509	0.19294	0.15724	0.14246	0.28226	0.072567	0.2016	0.089729	0.37663	0.14765	0.30074	-3.675	-3.2167	-3.75	-3.9792	-3.1396	-4.1208	-3.6792	-3.2729	-4.1208	-3.25	-3.6833	-3.8354	-3.1937	-4.0604	-3.5375	-3.2729	239.246	-63.919	221.965	162.136	198.338	187.743	223.471	18.916	-13.667	240.636	39.696	173.593	270.575	255.598	165.312	19.675	4.3247e-05	0.00049351	0.00012113	209.24	2.5092e-06	2.3678e-07	348.57	53.707	1.2531e-06	2.9585e-06	93.85	27.044	11.898	2.6169	4.6671e-06	6.3913	0.00053618	0.000875	0.00024039	185.61	9.0023e-06	9.3342e-06	306.39	48.126	8.5445e-06	9.4107e-06	83.718	24.425	11.117	2.4561	8.9228e-06	5.8769	8.405	61.382	60.855	-69.285	50.723	121.213	-69.034	-62.536	116.301	253.078	-65.676	-60.948	-57.346	-54.059	93.827	-58.729	-8191	255	
2309.216	1	1	0	0	0.22491	0.11439	0.141	0.20635	0.17864	0.27002	0.111	0.16856	0.11664	0.44109	0.13573	0.12018	0.10855	0.37222	0.0305	0.084235	-3.8375	-3.2208	-3.6333	-4.0896	-3.0917	-3.8333	-3.7229	-3.2979	-4.2146	-3.3354	-3.5042	-4.0813	-3.2208	-3.8583	-3.8396	-3.1333	40.098	-67.695	148.313	194.626	274.749	-57.748	149.274	111.045	223.156	217.012	207.932	156.594	182.656	-21.035	274.213	20.050	6.2194e-05	0.0004463	6.064e-05	208.35	1.9124e-06	3.9531e-06	348.83	53.981	1.4558e-06	2.4434e-06	92.698	26.685	11.799	2.586	2.24e-06	6.3054	0.00052438	0.00085732	0.00023317	185.47	8.843e-06	9.2335e-06	306.62	48.154	8.492e-06	9.4081e-06	82.439	24.091	11.131	2.4476	8.7742e-06	5.8337	211.866	-26.115	96.721	-69.146	205.563	60.537	-69.707	-63.384	112.553	-71.042	-65.636	-61.901	-58.951	-53.167	3.061	-58.669	-8191	255	
2309.312	1	1	0	0	0.16611	0.096997	0.052368	0.16377	0.17177	0.092999	0.22406	0.12508	0.1616	0.056839	0.064749	0.12629	0.10288	0.12541	0.15791	0.13316	-3.7375	-3.5771	-3.5979	-4.0375	-3.2917	-3.8646	-3.8333	-3.1542	-4.0729	-3.6792	-3.4917	-3.95	-3.4313	-3.8583	-3.8979	-3.2396	221.328	262.520	-69.927	188.195	259.129	-40.813	170.434	-49.164	-21.852	-20.687	193.445	192.634	151.284	233.019	-69.965	144.853	4.7727e-05	0.00011277	0.00010867	211.97	5.2554e-06	4.7954e-06	349.67	53.406	2.4159e-06	2.1475e-06	92.876	27.068	12.128	2.589	1.1877e-06	6.4319	0.00054883	0.00085649	0.00024072	185.99	8.9046e-06	9.1999e-06	306.25	47.908	8.817e-06	9.4204e-06	83.089	24.416	11.169	2.4395	8.7541e-06	5.8482	272.788	222.864	50.885	-69.534	68.514	123.230	-70.671	-63.829	13.551	139.703	-66.052	-61.398	-58.316	-53.961	53.354	-58.508	-8191	255	
2309.408	1	1	0	0	0.086218	0.1771	0.10756	0.1511	0.15059	0.22294	0.18187	0.14578	0.08137	0.30472	0.2132	0.16955	0.3021	0.2008	0.10188	0.18042	-3.6917	-3.6667	-3.1875	-4.1521	-3.3833	-3.7042	-4.1167	-3.2042	-4.0708	-3.6854	-3.4125	-4.0479	-3.3896	-3.6125	-4.1167	-3.2438	273.700	-76.257	-33.237	-48.838	94.354	-47.326	-26.546	22.601	62.095	38.592	28.118	185.399	238.689	195.616	152.406	56.161	1.4558e-05	0.00035882	8.385e-05	208.28	5.2271e-06	3.3071e-06	350.43	54.03	1.3507e-06	1.3829e-06	93.43	27.159	11.72	2.5903	4.0071e-06	6.5713	0.00052928	0.00085812	0.00024655	185.46	8.884e-06	9.1064e-06	305.94	48.038	8.6918e-06	9.2062e-06	83.425	24.497	11.115	2.4715	8.6957e-06	5.9527	28.484	162.589	132.748	-69.225	85.712	260.612	-69.702	-63.987	46.310	57.444	-66.541	-60.550	-59.741	-54.133	116.057	-58.439	-8191	255	
2309.504	1	1	0	0	0.054752	0.13725	0.10868	0.099006	0.28414	0.09124	0.20439	0.22795	0.14046	0.2764	0.23792	0.20195	0.17141	0.11766	0.17808	0.087069	-3.6042	-3.8104	-3.1396	-4.1521	-3.3979	-3.4729	-3.9938	-3.2042	-3.8292	-3.8458	-3.3021	-4.0229	-3.4104	-3.4604	-4.075	-3.0708	214.157	-47.991	172.037	249.650	154.978	13.939	11.197	-0.493	229.934	10.528	229.474	-75.914	247.951	263.372	69.691	94.502	5.5626e-05	0.00039495	4.9409e-05	211.3	3.5875e-06	3.2099e-06	349.69	53.487	3.2303e-06	9.7902e-07	95.251	26.977	11.945	2.6033	1.3663e-06	6.3769	0.00052207	0.00085562	0.00023539	186.54	9.1163e-06	9.416e-06	305.15	48.029	8.5851e-06	9.2985e-06	83.369	24.31	11.155	2.4381	8.7863e-06	5.844	258.290	-3.501	116.406	-69.504	137.014	49.354	-69.490	-63.630	63.647	109.909	-65.495	-60.441	-59.453	-54.685	67.409	-58.961	-8191	255	
2309.625	1	1	0	0	0.13985	0.20874	0.2657	0.0208	0.25586	0.18779	0.077969	0.19337	0.2244	0.09933	0.14342	0.22436	0.1582	0.13111	0.10438	0.12537	-3.4729	-3.8312	-3.2146	-4.1104	-3.7083	-3.5604	-4.0979	-3.0896	-3.7833	-3.9313	-3.0833	-3.9542	-3.5042	-3.2375	-4.2396	-3.2792	254.190	-8.794	162.441	250.354	252.044	-23.373	83.845	-31.463	94.169	77.286	146.110	181.392	-80.760	148.410	-72.059	182.025	3.57e-05	0.00036794	6.1416e-05	208.48	3.812e-06	4.8812e-06	349.24	53.558	7.4439e-07	3.5052e-06	92.007	26.168	11.628	2.5017	3.5565e-06	6.3007	0.00053542	0.00085431	0.00023961	186.01	9.0937e-06	9.1971e-06	305.33	47.885	8.376e-06	9.441e-06	82.453	24.005	11.041	2.423	8.5589e-06	5.8083	272.405	231.539	106.576	-69.474	70.076	64.186	-69.754	-63.624	-68.558	-45.013	-65.880	-60.692	-58.015	-53.875	102.138	-58.477	-8191	255	
2309.721	1	1	0	0	0.28616	0.23179	0.25826	0.14014	0.10996	0.29733	0.083876	0.26301	0.13385	0.24449	0.23269	0.1987	0.20883	0.12163	0.2033	0.2073	-3.4271	-4.0125	-3.2	-3.8771	-3.6937	-3.3396	-4.0813	-3.3396	-3.7104	-4.0729	-3.1083	-3.9854	-3.725	-3.0875	-4.0854	-3.4	-78.607	-13.273	17.923	-8.584	56.326	7.172	143.960	104.037	-21.854	248.566	249.051	21.636	211.461	177.786	128.126	32.060	7.344e-06	7.9818e-05	7.8709e-05	209.19	1.2672e-06	3.7589e-06	348.03	53.606	2.1041e-06	4.9054e-06	93.336	26.704	11.855	2.588	3.0375e-06	6.3934	0.00054992	0.00083925	0.00023773	186.82	8.5998e-06	9.4285e-06	304.78	47.841	8.6677e-06	9.3973e-06	82.864	24.205	11.112	2.4615	9.2492e-06	5.8425	182.778	-1.678	-56.875	-69.054	93.633	79.179	-69.913	-63.413	-37.919	175.869	-65.067	-60.624	-59.764	-54.761	161.119	-58.095	-8191	255	
2309.793	1	1	0	0	0.089153	0.30745	0.14935	0.14032	0.024528	0.086137	0.19373	0.25224	0.071627	0.21137	0.20484	0.15314	0.033456	0.079739	0.069058	0.081398	-3.225	-4.1021	-3.1542	-3.8604	-3.6625	-3.1479	-4.1708	-3.3312	-3.5521	-4.1167	-3.1208	-3.7729	-3.6771	-3.1854	-4.1312	-3.5458	137.978	50.512	255.255	93.134	-60.533	137.115	218.700	242.275	30.656	222.234	163.485	199.401	162.280	-39.700	166.478	-81.196	3.8225e-05	0.00015282	6.3069e-06	211.04	1.5866e-06	3.3625e-06	348.98	54.148	3.8168e-06	2.3618e-06	93.168	26.69	11.723	2.5715	2.867e-06	6.2909	0.00055126	0.00084652	0.00023426	186.07	8.5965e-06	9.2396e-06	306.92	48.112	8.5243e-06	9.3717e-06	83.016	24.389	11.129	2.4419	8.7095e-06	5.8644	-73.672	-70.399	-74.429	-68.789	62.059	17.082	-69.453	-63.495	164.254	4.247	-65.411	-61.741	-60.141	-54.548	-25.277	-59.449	-8191	255	
2309.913	1	1	0	0	0.050947	0.0106	0.16083	0.2732	0.10023	0.156	0.23867	0.03013	0.073676	0.079609	0.11808	0.081749	0.14621	0.18427	0.22623	0.29146	-3.1354	-4.1792	-3.3417	-3.8708	-3.8937	-3.0583	-4.0917	-3.5708	-3.2417	-4.1	-3.3542	-3.6458	-3.9854	-3.2083	-4.0021	-3.5354	218.746	24.493	-45.434	155.948	96.591	275.649	142.928	80.372	67.224	191.807	220.851	252.051	192.574	-39.671	133.367	26.772	3.9685e-05	0.00023341	7.5387e-05	210.88	9.4816e-07	1.5374e-06	348	54.096	3.6574e-06	3.5062e-06	91.921	26.311	11.511	2.5114	2.1116e-06	6.2407	0.00053122	0.00083115	0.00023022	186.49	8.7068e-06	9.6084e-06	306.31	48.106	8.5832e-06	9.5127e-06	82.423	23.937	11.06	2.413	8.4052e-06	5.7443	236.346	25.000	-10.712	-69.529	-4.696	101.332	-69.843	-63.494	223.472	129.736	-66.612	-61.540	-57.442	-55.131	9.869	-59.251	-8191	255	
2310.008	1	1	0	0	0.24869	0.061493	0.11915	0.24781	0.1159	0.18926	0.21826	0.045766	0.20615	0.22988	0.047563	0.13	0.11952	0.066613	0.19081	0.075002	-2.9667	-4.0625	-3.4354	-3.7604	-4.1229	-3.2146	-4.025	-3.6104	-3.1688	-4.0229	-3.5563	-3.6271	-4.1583	-3.0854	-3.9167	-3.8708	128.070	14.521	276.078	-25.322	124.344	-16.914	82.030	99.804	-29.454	18.290	80.328	279.274	166.577	74.213	41.600	-67.638	8.2497e-05	0.00014051	8.1531e-05	212.7	9.0541e-07	1.2062e-06	349.37	53.792	7.8289e-06	4.0008e-06	91.702	26.667	11.567	2.5772	2.618e-06	6.2134	0.0005313	0.00081216	0.00024105	186.88	8.4593e-06	9.3963e-06	305.46	47.901	8.6306e-06	9.1186e-06	82.029	24.062	11.101	2.4383	8.4948e-06	5.7537	248.130	101.664	237.316	-69.608	275.780	-47.783	-70.139	-62.561	122.177	74.093	-65.056	-61.464	-59.482	-54.615	108.343	-58.236	-8191	255	
2310.104	1	1	0	0	0.036818	0.25768	0.29508	0.30938	0.15543	0.20591	0.18693	0.22283	0.21178	0.24013	0.087028	0.16214	0.45458	0.14321	0.2597	0.137	-2.875	-4.0583	-3.4333	-3.3375	-4.0708	-3.2875	-3.7708	-4.0271	-3.2188	-4.0938	-3.4125	-3.4146	-3.9938	-3.175	-3.6521	-3.9813	159.038	181.311	93.700	-76.520	158.140	146.411	110.142	68.091	279.222	189.208	-33.854	203.415	182.678	259.958	239.985	-44.092	1.0586e-05	0.00014178	9.6333e-05	210.25	1.689e-06	3.9589e-06	347.74	53.64	3.1647e-06	2.4254e-06	92.13	27.055	11.666	2.6172	2.8921e-06	6.4023	0.00053455	0.00085146	0.00023205	186.3	8.6137e-06	9.3478e-06	306.06	47.869	8.3786e-06	9.2239e-06	82.587	24.293	11.198	2.4687	8.9091e-06	5.8649	65.321	213.150	25.676	-68.740	170.985	263.514	-70.332	-62.677	-37.616	18.512	-65.228	-61.162	-57.401	-55.368	-40.301	-58.229	-8191	255	
2310.224	1	1	0	0	0.070326	0.29247	0.11358	0.27712	0.27465	0.074537	0.16714	0.22083	0.23225	0.2018	0.22171	0.088397	0.0050728	0.18176	0.22661	0.16001	-2.6646	-3.9479	-3.5208	-3.2458	-4.0375	-3.3271	-3.8229	-3.9875	-3.1021	-3.8604	-3.6208	-3.2583	-4.1333	-3.2042	-3.4562	-4.0687	27.667	168.974	52.681	-53.976	-80.158	267.483	138.067	178.778	71.076	-22.587	99.718	213.782	277.155	194.163	178.254	103.540	2.5513e-05	0.00021787	7.2853e-05	208.22	2.2231e-06	3.2617e-06	351.68	53.913	2.1231e-06	2.2708e-06	93.668	27.126	11.864	2.6008	3.3264e-06	6.4051	0.00053569	0.00084118	0.00023664	185.94	8.402e-06	9.732e-06	306.9	48.223	8.5025e-06	9.4045e-06	83.157	24.437	11.219	2.4693	8.7749e-06	5.8721	94.161	126.098	53.416	-68.867	-49.680	-79.261	-69.994	-62.942	98.122	231.117	-66.062	-60.971	-56.090	-55.866	129.542	-58.302	-8191	255	
2310.321	1	1	0	0	0.029217	0.12471	0.086776	0.19323	0.15806	0.12405	0.21907	0.012247	0.4036	0.037345	0.037969	0.098412	0.12676	0.12584	0.18413	0.15157	-2.5896	-3.9042	-3.8083	-3.1437	-4.0333	-3.2875	-3.5271	-4.2292	-3.2313	-3.8937	-3.7833	-3.1542	-4.0813	-3.4313	-3.5	-4.1583	213.871	207.394	99.037	136.133	190.097	223.918	-6.998	224.858	233.311	139.934	239.215	188.279	139.466	88.719	14.797	122.097	3.8487e-05	0.00022433	3.9813e-05	206.99	2.861e-06	2.17e-06	351.06	54.226	1.439e-06	1.5386e-06	93.506	26.59	11.427	2.6135	4.0386e-06	6.256	0.00053634	0.00086193	0.00023183	185	8.6564e-06	9.5374e-06	306.71	48.342	8.6658e-06	9.38e-06	82.776	23.975	11.055	2.4638	8.8068e-06	5.773	240.227	113.058	-4.370	-68.748	163.372	117.935	-70.028	-63.579	226.720	-50.586	-65.243	-61.434	-58.087	-54.499	59.009	-58.592	-8191	255	
2310.392	1	1	0	0	0.24131	0.23684	0.15629	0.075313	0.066721	0.13326	0.11225	0.17513	0.24226	0.21604	0.26153	0.26179	0.074319	0.1811	0.25996	0.11129	-2.8104	-3.6542	-3.8521	-3.325	-3.9625	-3.6208	-3.4396	-4.0708	-3.2104	-3.5896	-3.8917	-3.2188	-3.8833	-3.5792	-3.2792	-3.9625	230.815	206.448	179.002	70.359	132.134	-22.674	72.026	154.833	113.938	176.373	221.545	219.112	206.335	276.916	-21.904	116.369	1.8396e-05	0.00023108	0.00010555	209.52	2.8984e-06	4.9745e-06	349.92	53.476	2.7586e-06	2.8141e-06	92.901	26.864	11.89	2.6272	9.4965e-07	6.3714	0.00053526	0.00083701	0.00023009	186.15	8.4669e-06	9.5234e-06	306.77	48.001	8.5509e-06	9.5196e-06	82.634	24.338	11.208	2.4602	9.0248e-06	5.8689	143.003	120.286	248.079	-68.456	135.490	-13.773	-69.322	-62.610	80.534	79.259	-66.252	-60.791	-58.853	-54.940	-38.681	-58.434	-8191	255	
2310.513	1	1	0	0	0.17042	0.15592	0.11443	0.16376	0.11159	0.23038	0.14064	0.064649	0.12948	0.088417	0.02538	0.16334	0.044914	0.14854	0.079085	0.12236	-3.0062	-3.5729	-3.9	-3.325	-3.8875	-3.6792	-3.2792	-4.1833	-3.3083	-3.5458	-3.9833	-3.1604	-3.8958	-3.8833	-3.1521	-4.1896	34.561	187.762	105.306	171.952	-28.499	-76.826	174.009	263.731	-39.806	43.439	8.132	-56.077	195.596	46.631	104.599	31.611	3.5587e-05	7.9626e-05	6.45e-05	208.89	3.3673e-06	2.2869e-06	351.86	54.605	3.7296e-06	2.6552e-06	91.541	26.941	11.691	2.573	3.956e-06	6.3252	0.00054232	0.00084454	0.0002342	186.98	8.723e-06	9.2378e-06	306.78	48.52	8.9137e-06	9.7929e-06	82.375	24.347	11.249	2.4416	8.8504e-06	5.8469	278.249	10.290	8.315	-68.935	87.437	71.787	-69.787	-62.931	226.411	-31.537	-65.850	-61.535	-57.096	-54.526	93.963	-58.032	-8191	255	
2310.609	1	1	0	0	0.11269	0.060213	0.2412	0.25114	0.031674	0.20822	0.017639	0.035414	0.23448	0.19938	0.10489	0.020933	0.13854	0.27764	0.13799	0.15981	-2.9771	-3.5021	-4.0125	-3.3292	-3.8125	-3.8812	-3.2271	-3.9625	-3.4396	-3.4333	-4.1125	-3.3229	-3.6521	-3.7229	-3.2521	-3.9958	244.298	244.298	28.038	254.639	26.977	36.757	250.801	264.819	131.815	-20.841	6.030	137.934	159.990	151.854	98.174	218.814	6.531e-05	0.00025487	3.7029e-05	207.57	1.2852e-06	8.5267e-07	354.7	54.113	1.8809e-06	4.6571e-07	95.134	26.975	11.779	2.6164	3.5517e-06	6.3725	0.00053795	0.00086549	0.00023642	185.78	9.0722e-06	9.4517e-06	308.25	48.336	8.8298e-06	9.6807e-06	83.652	24.508	11.238	2.479	8.8655e-06	5.8844	-36.993	-7.735	180.493	-68.900	-40.981	222.729	-69.432	-63.750	9.309	277.935	-65.076	-61.175	-58.477	-53.275	129.462	-58.320	-8191	255	
2310.705	1	1	0	0	0.19286	0.12967	0.10863	0.19264	0.19246	0.15239	0.089748	0.12907	0.21882	0.056267	0.35714	0.056524	0.12932	0.091115	0.2482	0.096321	-3.2417	-3.1833	-4.2188	-3.3917	-3.6417	-3.9229	-3.3021	-3.9417	-3.5146	-3.3896	-4.1375	-3.5104	-3.6042	-4.1375	-3.1146	-3.9979	258.566	-23.713	33.175	263.475	174.369	-13.682	170.945	71.791	62.410	178.579	46.192	254.588	92.114	60.668	-20.027	82.775	1.8142e-05	0.00025344	4.1565e-05	209.78	5.6784e-06	1.9149e-06	353.29	53.895	4.5459e-06	9.0094e-07	93.896	27.056	12.013	2.6035	3.6687e-06	6.2749	0.00054904	0.00086167	0.00023385	186.56	8.8701e-06	9.462e-06	307.34	48.221	8.6735e-06	9.6887e-06	83.05	24.099	11.172	2.4794	8.9302e-06	5.8113	16.651	15.456	108.834	-69.807	131.250	115.939	-69.165	-63.454	124.138	41.832	-65.299	-61.404	-58.372	-53.605	119.531	-59.010	-8191	255	
2310.801	1	1	0	0	0.25531	0.33285	0.23624	0.13365	0.12883	0.24492	0.23108	0.10367	0.048755	0.089754	0.018972	0.15641	0.13016	0.079291	0.15454	0.09724	-3.2188	-3.075	-4.0417	-3.3521	-3.5938	-4.0354	-3.1792	-3.8396	-3.7604	-2.9938	-4.1312	-3.4292	-3.4292	-4.1125	-3.1292	-3.8167	10.559	-59.379	160.745	161.685	241.926	94.326	149.368	53.390	80.525	-80.359	250.813	29.345	216.488	274.311	119.608	-7.321	3.8512e-05	0.00034683	9.0141e-05	211	2.9778e-06	4.2913e-06	348.55	54.475	2.7199e-06	2.2512e-06	94.175	26.79	11.608	2.6675	6.0559e-07	6.4518	0.00054392	0.00086942	0.00023373	187.55	9.0583e-06	9.3606e-06	307.17	48.427	8.2262e-06	9.3559e-06	83.052	24.345	11.205	2.4736	9.0711e-06	5.8976	-32.817	-30.980	-44.869	-69.062	168.094	75.718	-69.668	-62.914	-12.006	80.769	-64.562	-61.141	-57.730	-54.514	96.578	-58.790	-8191	255	
2310.920	1	1	0	0	0.25221	0.14511	0.11122	0.14039	0.19706	0.13692	0.15101	0.33576	0.048435	0.37619	0.29249	0.20134	0.15794	0.10398	0.10444	0.20754	-3.3625	-3.2354	-4.2104	-3.5187	-3.3958	-4.0125	-3.1646	-3.6792	-3.8438	-3.2042	-4.0417	-3.5875	-3.4083	-4.0458	-3.1729	-3.5917	55.397	28.837	100.129	220.820	201.601	266.653	155.438	219.405	21.373	217.463	198.360	52.817	168.431	-67.338	59.668	235.369	5.8099e-05	0.00030381	6.3723e-05	209.87	2.7688e-06	2.1452e-06	354.29	53.589	5.2014e-06	4.0135e-06	92.861	27.597	11.699	2.6124	4.5403e-06	6.4531	0.00053055	0.00082074	0.00023072	186.32	8.4275e-06	9.5141e-06	308.9	48.205	8.5995e-06	9.7759e-06	83.329	24.511	11.321	2.4988	9.0117e-06	5.9064	259.591	-17.351	-79.943	-69.144	38.301	81.478	-70.292	-62.757	16.843	102.438	-65.616	-61.672	-57.605	-53.978	79.885	-58.058	-8191	255	
2311.016	1	1	0	0	0.20845	0.24914	0.055665	0.063588	0.20689	0.074821	0.12933	0.022506	0.034501	0.259	0.048174	0.04904	0.10876	0.20117	0.23753	0.03441	-3.675	-3.1813	-3.9708	-3.5833	-3.2917	-4.1708	-3.2917	-3.7938	-3.9938	-3.1854	-3.9833	-3.7271	-3.1792	-4.1521	-3.1083	-3.5458	242.960	135.194	1.248	145.791	-63.770	188.224	54.490	177.161	203.776	243.374	-71.586	85.345	92.252	53.840	-80.141	238.350	1.1149e-05	9.4678e-05	6.0321e-05	209.66	1.4047e-06	2.2878e-06	352.77	54.005	1.2504e-06	3.5071e-06	94.527	27.146	11.796	2.6383	6.0486e-06	6.5541	0.00055533	0.00087349	0.00023812	186.54	9.0311e-06	9.4809e-06	307.92	48.407	8.5887e-06	9.3732e-06	84.009	24.448	11.205	2.4944	8.8339e-06	5.948	195.080	103.856	24.238	-68.670	-52.680	96.633	-69.239	-62.440	272.457	-51.421	-65.759	-61.028	-57.152	-54.851	22.966	-57.451	-8191	255	
2311.088	1	1	0	0	0.067671	0.060748	0.22435	0.14207	0.16256	0.065972	0.1732	0.2233	0.20617	0.21231	0.096324	0.17201	0.18785	0.17922	0.11838	0.18143	-3.4979	-3.1146	-3.8417	-3.7313	-3.2333	-3.9958	-3.6167	-3.3542	-3.9562	-3.0708	-3.9125	-3.7854	-3.0687	-4.0563	-3.4958	-3.3542	116.907	204.753	155.450	13.889	194.790	131.984	109.067	276.799	171.661	-51.579	67.995	237.578	260.555	65.129	-50.707	110.856	3.3475e-05	0.0004404	0.00011396	210.01	3.0873e-06	2.2939e-06	349.26	54.477	1.7861e-06	3.476e-06	92.056	26.828	11.713	2.6458	3.9452e-06	6.3631	0.00053259	0.00087391	0.00023599	187.08	8.8801e-06	8.9725e-06	307.08	48.634	8.304e-06	9.3367e-06	82.639	24.081	11.121	2.4776	9.0161e-06	5.8357	200.344	238.257	74.506	-68.584	35.526	253.380	-69.613	-62.390	108.075	116.038	-65.490	-60.002	-57.754	-54.869	234.436	-59.234	-8191	255	
2311.186	1	1	0	0	0.29889	0.10843	0.12672	0.23245	0.21536	0.21587	0.063216	0.25499	0.17425	0.30011	0.28614	0.24606	0.12031	0.16782	0.066582	0.2479	-3.6375	-3.1937	-3.7271	-3.7875	-3.2042	-4.0417	-3.5833	-3.2708	-3.9396	-3.3187	-3.6458	-3.8521	-2.9313	-3.8833	-3.5042	-3.3187	69.283	163.989	-80.346	-21.187	86.695	163.652	62.975	49.302	216.349	177.986	261.868	134.872	-62.346	277.926	272.767	-54.907	2.4892e-05	0.00033383	7.5455e-05	209.86	8.4117e-07	3.2167e-06	349.19	54.437	4.0358e-06	2.5288e-06	94.151	26.57	11.565	2.6372	2.6153e-06	6.3646	0.00051495	0.00084835	0.00023738	186.46	8.9317e-06	9.4784e-06	306.19	48.703	8.5842e-06	9.9757e-06	82.998	24.38	11.207	2.4826	8.9168e-06	5.8512	148.268	125.684	28.276	-69.143	145.060	73.355	-69.689	-62.515	168.423	238.457	-65.234	-60.817	-58.237	-54.640	-9.522	-56.814	-8191	255	
2311.305	1	1	0	0	0.035179	0.24269	0.22297	0.24425	0.076596	0.17849	0.26035	0.25129	0.33251	0.14139	0.23687	0.11412	0.10247	0.19656	0.057432	0.14208	-3.8896	-3.1646	-3.5146	-4.0271	-3.1292	-3.9292	-3.7604	-3.2333	-3.9396	-3.2042	-3.5833	-3.9917	-3.1813	-3.8937	-3.7396	-3.2083	277.448	272.771	-5.531	272.753	161.542	-6.813	269.904	125.430	-18.510	-78.376	-68.499	50.295	43.263	191.493	85.963	117.445	2.3336e-05	3.5606e-05	5.158e-05	208.62	5.7985e-06	2.1259e-06	350.69	54.219	1.0946e-06	1.2435e-06	93.281	27.145	12.199	2.6803	3.1149e-06	6.3964	0.00052111	0.00085098	0.00023954	186.45	9.0238e-06	9.3467e-06	306.82	48.317	8.2358e-06	9.2744e-06	83.371	24.504	11.454	2.5122	8.8276e-06	5.8688	211.507	40.756	-61.326	-68.340	250.277	121.770	-68.943	-62.315	134.087	22.919	-64.663	-61.578	-58.466	-53.887	-13.741	-57.550	-8191	255	
2311.401	1	1	0	0	0.22971	0.17602	0.020274	0.17593	0.29094	0.2087	0.24113	0.16585	0.12421	0.020979	0.088551	0.055757	0.25548	0.11367	0.068904	0.097499	-3.8292	-3.2479	-3.4562	-4.0833	-3.0479	-3.8375	-3.8146	-3.1292	-3.9542	-3.4896	-3.3146	-4.0667	-3.1542	-3.5875	-3.9229	-3.0875	253.599	266.857	207.136	19.246	-37.700	-59.565	116.427	239.354	101.179	278.288	242.981	-8.474	27.894	146.400	31.841	245.435	2.7401e-05	0.0003127	4.2795e-05	210.14	2.228e-06	2.7427e-06	352.85	53.71	1.6613e-06	5.3688e-06	93.892	26.891	12.302	2.7185	5.0768e-06	6.5212	0.00051885	0.00083141	0.00024208	187.7	8.7548e-06	9.4795e-06	308.74	48.469	8.3767e-06	9.8358e-06	84.325	24.514	11.435	2.5182	8.8776e-06	5.9266	-6.266	64.680	86.801	-68.553	150.842	237.690	-68.968	-62.313	-9.761	48.742	-64.361	-60.691	-56.599	-54.176	225.349	-58.544	-8191	255	
2311.497	1	1	0	0	0.26962	0.061563	0.25894	0.21274	0.13598	0.081614	0.055867	0.058147	0.1774	0.14672	0.096483	0.19193	0.18305	0.19879	0.29561	0.12848	-3.7687	-3.5229	-3.2875	-3.9771	-3.3354	-3.7167	-4.0083	-3.0229	-3.9062	-3.7687	-3.3792	-3.9521	-3.2979	-3.5563	-4.0125	-3.2208	33.683	269.321	220.136	95.767	108.734	-56.376	226.399	211.551	-10.274	151.812	179.142	228.632	-12.555	130.884	15.917	222.560	1.1995e-06	0.00046969	8.4124e-05	213.56	2.9191e-06	7.8075e-07	350.47	54.673	2.1141e-06	3.6248e-06	92.74	26.575	11.786	2.6268	4.4065e-06	6.3518	0.00052783	0.00085959	0.00023952	187.95	8.8218e-06	9.4467e-06	305.74	48.731	8.232e-06	9.5538e-06	82.589	24.146	11.209	2.4929	8.6125e-06	5.8222	56.535	34.460	24.901	-68.829	76.156	43.868	-69.239	-62.171	56.882	279.136	-65.239	-60.297	-55.565	-54.137	110.842	-58.755	-8191	255	
2311.593	1	1	0	0	0.063562	0.22649	0.1879	0.15226	0.21876	0.21858	0.24803	0.12561	0.11061	0.12302	0.06946	0.18269	0.21692	0.42621	0.021877	0.17798	-3.7	-3.6562	-3.1292	-4.2521	-3.525	-3.4021	-4.0646	-3.3479	-3.9771	-3.8083	-3.1708	-4.0229	-3.3854	-3.3833	-4.1833	-3.1958	-17.060	218.037	-53.110	163.494	-53.337	153.334	132.018	76.424	152.733	-45.740	84.736	57.699	13.649	-75.781	79.388	73.845	3.6067e-05	0.00012552	2.941e-05	211.93	1.2057e-06	2.34e-06	346.48	53.203	4.0983e-06	2.2804e-06	93.279	26.974	11.867	2.6664	4.1227e-06	6.3676	0.00051932	0.0008691	0.00024666	188.26	8.7909e-06	9.4056e-06	306.74	48.125	8.2697e-06	9.4925e-06	83.048	24.37	11.344	2.5131	8.9269e-06	5.8705	216.980	-35.972	79.922	-68.547	75.225	-37.287	-69.411	-62.064	60.842	5.351	-64.437	-60.825	-59.007	-54.947	92.659	-57.977	-8191	255	
2311.689	1	1	0	0	0.15998	0.14578	0.19864	0.20486	0.14378	0.20744	0.089706	0.038565	0.12883	0.17499	0.12625	0.12815	0.14482	0.075276	0.17255	0.13262	-3.4979	-3.8312	-3.2375	-4.0979	-3.4583	-3.5	-4.0708	-3.15	-3.8542	-3.8292	-3.1854	-4.0146	-3.6333	-3.3271	-4.0958	-3.2021	-8.440	96.450	225.370	252.339	216.345	63.881	80.150	124.163	229.398	-24.046	73.655	10.525	80.227	36.092	210.515	171.222	6.7192e-05	0.00022379	6.2444e-06	208.94	7.7964e-07	1.1587e-06	352.04	54.094	2.1909e-06	3.2425e-06	94.203	26.867	12.004	2.7505	3.7173e-06	6.4671	0.00053673	0.00083704	0.00024051	186.78	8.8088e-06	9.8941e-06	306.6	48.655	8.5774e-06	9.6148e-06	83.523	24.499	11.425	2.5556	8.8084e-06	5.9223	238.717	228.165	-74.885	-69.602	1.545	52.229	-69.292	-63.027	-4.278	39.548	-65.167	-61.386	-58.468	-54.804	184.595	-59.243	-8191	255	
2311.786	1	1	0	0	0.076671	0.12947	0.29172	0.058232	0.16056	0.087943	0.1197	0.3724	0.091777	0.19381	0.18916	0.16642	0.1404	0.167	0.064749	0.030782	-3.3479	-3.9271	-3.15	-4.0083	-3.6167	-3.3	-4.0979	-3.4625	-3.5042	-3.9917	-3.0375	-3.9562	-3.7333	-3.1771	-4.0646	-3.425	64.017	151.112	141.264	19.934	228.013	-48.766	152.514	212.012	54.318	251.548	195.395	-35.770	248.056	4.691	74.644	-50.388	1.3942e-05	0.00014265	0.00012528	212.42	2.8184e-06	1.8664e-06	349.52	54.196	3.234e-06	1.3124e-06	93.248	27.157	11.847	2.6692	2.298e-06	6.3854	0.00053728	0.00082475	0.00024518	187.3	8.8648e-06	9.6081e-06	306.42	48.705	8.4257e-06	9.4442e-06	83.304	24.51	11.243	2.5148	8.7779e-06	5.8487	-23.625	104.532	81.071	-69.657	57.760	276.814	-70.333	-62.997	91.184	235.168	-65.601	-61.083	-59.059	-52.772	28.096	-58.241	-8191	255	
2311.906	1	1	0	0	0.015923	0.028734	0.01198	0.15152	0.19247	0.12136	0.04363	0.21538	0.020094	0.11831	0.31753	0.093431	0.18882	0.33503	0.05303	0.066895	-3.1875	-4.0354	-3.1458	-3.8208	-3.7708	-2.9688	-4.0896	-3.3771	-3.3937	-4.2312	-3.2708	-3.7271	-3.8958	-3.0396	-4.0417	-3.4562	151.034	195.574	46.349	241.744	79.911	129.166	144.784	41.042	224.743	-64.605	138.476	49.299	46.660	-66.518	-60.581	30.833	3.3684e-05	0.00032257	8.415e-05	211.81	7.8624e-07	2.3995e-06	347.25	55.265	3.3259e-06	3.3223e-06	93.191	26.94	11.369	2.6399	2.6199e-06	6.3002	0.0005432	0.00084086	0.0002415	187.16	9.0967e-06	9.5499e-06	305.73	48.93	8.7263e-06	9.6068e-06	82.575	24.131	11.09	2.4951	8.9265e-06	5.8045	1.637	41.567	-80.500	-69.180	251.453	-5.330	-69.664	-63.556	30.219	47.329	-65.604	-60.578	-58.754	-54.767	36.149	-58.121	-8191	255	
2312.001	1	1	0	0	0.09652	0.093796	0.39836	0.25555	0.3282	0.063563	0.28976	0.32153	0.10454	0.18419	0.054669	0.10953	0.098799	0.11538	0.18747	0.11922	-2.9104	-4.1687	-3.0854	-3.6396	-3.9729	-3.2062	-4.1042	-3.4062	-3.3458	-4.0896	-3.4062	-3.6708	-4.0146	-3.1688	-3.95	-3.7812	-1.491	179.983	215.287	194.462	239.837	34.409	207.097	-25.062	221.919	181.463	203.006	81.249	-2.855	207.122	134.222	119.935	5.0093e-05	0.00016168	0.00012543	212.57	3.2031e-06	2.7153e-06	351.22	54.4	2.2338e-06	1.5632e-06	92.734	26.82	11.787	2.5899	1.1952e-06	6.2561	0.00053122	0.00082334	0.00024382	188.45	8.8731e-06	8.9693e-06	307.1	48.562	8.328e-06	9.6213e-06	82.671	24.202	11.385	2.504	8.8625e-06	5.8538	251.751	-67.102	243.700	-68.724	174.645	98.297	-69.763	-62.980	274.115	-51.609	-65.312	-61.283	-58.018	-54.118	164.048	-57.863	-8191	255	
2312.097	1	1	0	0	0.11844	0.19738	0.23748	0.11267	0.11198	0.16172	0.15859	0.19753	0.37415	0.16381	0.20789	0.23448	0.16238	0.080277	0.27522	0.14797	-2.9917	-3.8688	-3.4188	-3.4625	-4.0375	-3.2583	-3.9375	-3.6729	-3.25	-4.0396	-3.3521	-3.3312	-4.2083	-3.0792	-3.7917	-3.8229	-7.686	131.140	-34.182	159.777	50.222	-21.334	10.776	244.382	92.036	20.588	-5.544	130.750	-21.773	74.371	235.826	56.440	4.578e-05	9.0883e-05	1.7973e-05	208.83	3.3468e-06	4.0119e-06	351.16	54.977	2.2778e-06	2.1137e-06	93.807	27.401	11.924	2.6311	3.1492e-06	6.3717	0.00055667	0.00081331	0.00023944	187.28	8.6415e-06	9.2478e-06	307.94	48.974	8.735e-06	9.3414e-06	83.498	24.588	11.414	2.5282	9.1466e-06	5.9165	36.669	274.322	15.255	-68.882	-3.729	189.314	-69.715	-63.104	97.896	30.720	-65.428	-61.147	-58.240	-54.919	121.111	-58.355	-8191	255	
2312.193	1	1	0	0	0.053204	0.080665	0.096978	0.22369	0.009727	0.1078	0.094354	0.44255	0.096669	0.070033	0.32564	0.095552	0.16469	0.20376	0.098436	0.11697	-2.8146	-4.1583	-3.3937	-3.4083	-3.9958	-3.3542	-3.7396	-3.9417	-3.0396	-4.1396	-3.4188	-3.3146	-4.2438	-3.2167	-3.6458	-3.9417	26.265	156.430	140.798	278.941	55.521	85.801	8.310	100.070	88.252	15.143	277.467	-25.084	229.075	-6.530	-76.957	-32.689	1.5632e-05	0.00037561	8.2882e-05	213.17	2.9833e-06	2.8213e-06	354.85	54.449	2.6173e-06	2.2386e-06	93.399	26.523	12.042	2.6043	8.8398e-07	6.3781	0.0005391	0.00084444	0.00023715	187.9	8.9351e-06	9.8223e-06	308.62	48.712	9.0068e-06	9.6836e-06	83.12	24.282	11.402	2.5372	8.8544e-06	5.8868	90.332	-9.128	74.777	-68.468	38.749	-29.644	-69.792	-62.333	7.886	42.771	-65.062	-60.652	-58.014	-54.555	-25.929	-58.405	-8191	255	
2312.289	1	1	0	0	0.24993	0.087441	0.065957	0.030362	0.18911	0.2644	0.049468	0.19032	0.18636	0.035956	0.17097	0.20161	0.25187	0.1272	0.19993	0.025544	-2.7458	-4.1583	-3.7375	-3.4	-4.0625	-3.2583	-3.7479	-3.9708	-3.1917	-4.0292	-3.7979	-3.225	-4.1188	-3.2938	-3.5667	-4.1062	131.164	263.402	276.565	-60.997	245.732	220.841	-44.452	173.779	268.850	266.767	-32.381	180.653	150.474	142.121	61.916	227.686	3.7032e-06	0.00020855	6.1659e-06	212.29	2.2224e-06	4.3136e-06	349.21	54.283	3.989e-07	2.3009e-06	92.475	26.931	12.251	2.6523	3.7213e-06	6.3918	0.00055075	0.00083759	0.00023055	188.89	8.7757e-06	8.9836e-06	307.22	48.694	8.3872e-06	9.733e-06	82.331	24.245	11.367	2.5043	8.6229e-06	5.8583	-24.667	277.182	-5.400	-68.722	33.424	114.792	-69.358	-63.230	77.345	42.932	-65.661	-60.356	-58.021	-54.593	114.209	-58.708	-8191	255	
2312.385	1	1	0	0	0.13005	0.2314	0.11798	0.17613	0.14588	0.12292	0.22921	0.25689	0.38398	0.22488	0.23185	0.078821	0.071979	0.22362	0.26345	0.022169	-2.75	-3.8812	-3.8375	-3.1854	-3.9688	-3.4667	-3.5167	-4.2229	-3.1042	-3.8146	-3.9146	-3.0875	-3.975	-3.4	-3.4188	-4.0792	62.482	200.363	236.247	-43.442	266.115	228.237	230.407	175.321	276.279	14.146	92.286	121.105	-48.303	157.993	0.036	155.416	3.6932e-05	0.00033161	5.8055e-05	214.46	3.3932e-07	2.826e-06	347.14	53.903	2.5857e-06	3.7871e-06	93.307	27.309	11.796	2.737	3.0468e-06	6.5134	0.00053059	0.00081975	0.00024322	188.6	8.8781e-06	9.5524e-06	305.66	48.717	8.5208e-06	9.5827e-06	83.461	24.399	11.371	2.5292	9.0174e-06	5.8747	194.506	94.508	255.094	-69.091	-47.010	31.235	-69.327	-63.407	50.615	37.014	-66.049	-61.317	-58.354	-53.382	154.858	-58.140	-8191	255	
2312.481	1	1	0	0	0.26029	0.075847	0.1027	0.25932	0.17939	0.13913	0.031032	0.27974	0.19587	0.29447	0.22143	0.1998	0.09662	0.24496	0.24465	0.22788	-2.7542	-3.7896	-3.9271	-3.2562	-4.175	-3.5979	-3.4521	-4.0813	-3.3208	-3.7542	-4.1646	-3.1604	-3.9667	-3.7021	-3.3542	-4.2625	105.937	-77.619	153.819	144.290	-80.764	-75.493	208.774	228.235	-30.698	134.909	-11.873	157.080	207.020	93.690	116.158	243.684	2.1353e-05	0.00017735	8.8545e-05	210.18	2.4167e-06	1.7226e-06	353.32	54.807	3.0376e-06	9.4132e-07	93.737	27.097	11.956	2.7175	4.52e-06	6.3871	0.00056257	0.00087224	0.00023568	188.22	9.376e-06	9.6923e-06	308.06	48.784	8.6713e-06	9.2953e-06	83.499	24.641	11.425	2.5366	9.5562e-06	5.9451	272.660	34.969	104.066	-69.153	36.984	221.488	-69.838	-63.015	51.499	46.815	-64.995	-60.731	-58.577	-54.696	90.381	-57.878	-8191	255	
2312.602	1	1	0	0	0.3801	0.18223	0.051503	0.31964	0.023438	0.21733	0.1317	0.22584	0.032143	0.023104	0.070634	0.2914	0.014882	0.19388	0.22129	0.044461	-2.9625	-3.5687	-3.85	-3.1854	-3.7938	-3.6813	-3.3833	-4.0979	-3.4396	-3.7354	-4.1562	-3.0938	-3.8854	-3.6937	-3.3083	-4.0375	72.816	104.198	140.262	243.024	104.937	247.799	-64.187	-29.796	-13.207	39.462	210.809	7.379	115.327	193.901	-57.119	-48.594	1.9491e-05	2.8795e-05	4.5796e-05	210.91	5.231e-06	2.7638e-06	352.38	54.599	2.2709e-06	3.2763e-06	93.285	27.492	12.211	2.6566	4.3837e-06	6.4377	0.00054004	0.00085363	0.00023866	188.16	8.8599e-06	9.9355e-06	307.73	48.882	8.573e-06	9.9616e-06	83.053	24.661	11.363	2.5162	9.27e-06	5.8948	-78.117	254.819	222.190	-68.684	62.019	147.906	-69.637	-62.728	136.212	95.657	-64.366	-60.942	-57.336	-54.843	87.541	-57.536	-8191	255	
2312.698	1	1	0	0	0.20527	0.12405	0.06576	0.08266	0.32165	0.18112	0.21328	0.28775	0.040123	0.28102	0.035336	0.028959	0.074246	0.18074	0.25531	0.22537	-3.1292	-3.3833	-4.1292	-3.1792	-3.7729	-3.8667	-3.1917	-4.2188	-3.6208	-3.4771	-4.2354	-3.325	-3.7542	-3.8937	-3.2646	-4.1354	-14.188	8.376	-32.300	222.272	94.744	-30.355	176.926	199.648	6.338	256.216	99.617	221.922	-11.465	-33.668	55.840	209.224	1.5851e-05	0.00020389	0.00013193	213.86	1.7518e-06	4.7217e-06	349.27	55.138	7.905e-07	1.8102e-06	94.064	27.202	11.897	2.638	2.8699e-06	6.4883	0.00053224	0.00088726	0.00023708	188.2	8.9904e-06	9.5056e-06	306.64	49.003	8.6271e-06	9.6317e-06	83.046	24.277	11.323	2.5194	9.1647e-06	5.8835	-37.913	-67.195	211.039	-68.514	275.200	96.929	-69.674	-63.001	220.856	248.722	-65.547	-61.215	-58.206	-52.732	32.285	-58.441	-8191	255	
2312.794	1	1	0	0	0.061917	0.22265	0.099619	0.077927	0.089633	0.14958	0.040298	0.15342	0.19471	0.082703	0.10934	0.28457	0.10047	0.21655	0.15458	0.24148	-3.1917	-3.4979	-4.075	-3.2146	-3.5646	-3.9562	-3.0917	-3.9104	-3.5771	-3.4146	-4.2562	-3.4583	-3.5938	-4.0042	-3.1833	-3.9104	198.395	256.717	93.532	119.737	228.319	101.924	269.316	-3.254	198.236	-5.173	72.754	8.028	213.111	-63.214	139.875	-0.250	3.7111e-05	0.00049935	6.8962e-05	213	3.5018e-06	3.0744e-06	351.9	54.636	1.3324e-06	1.6149e-06	93.753	27.055	11.872	2.6239	2.7483e-06	6.585	0.00053304	0.00087119	0.00024156	187.82	9.1093e-06	9.2114e-06	307.38	48.748	8.6892e-06	1.0157e-05	83.303	24.467	11.373	2.5269	9.5787e-06	5.9291	-47.431	-65.446	241.384	-68.679	24.294	97.532	-69.665	-63.127	143.775	95.077	-65.069	-60.525	-58.751	-54.378	111.258	-57.683	-8191	255	
2312.889	1	1	0	0	0.1297	0.15784	0.3379	0.12874	0.085927	0.11129	0.098574	0.16808	0.22151	0.089212	0.10146	0.10548	0.13243	0.16844	0.035155	0.086315	-3.4125	-3.2583	-4.1438	-3.2812	-3.6229	-4.1208	-3.2	-3.9417	-3.7708	-3.3396	-4.1958	-3.4521	-3.5021	-4.0271	-3.1896	-3.9542	139.594	254.217	118.153	240.352	143.741	79.486	243.449	258.641	199.705	-16.839	1.626	7.205	231.670	274.395	7.422	125.049	7.043e-05	0.00025603	5.0989e-05	211.39	1.7157e-06	2.3294e-06	351.65	54.618	3.9449e-06	2.7137e-06	95.658	27.113	12.167	2.6838	6.0673e-06	6.419	0.00054192	0.00088963	0.0002476	188.23	8.9871e-06	9.4609e-06	308.41	48.954	8.6489e-06	9.9822e-06	84.192	24.527	11.46	2.5443	9.314e-06	5.9833	221.091	73.847	8.797	-68.031	54.181	68.023	-69.637	-62.022	165.933	-23.030	-65.166	-60.758	-57.203	-53.700	130.276	-57.708	-8191	255	
2312.985	1	1	0	0	0.22104	0.12446	0.031271	0.087519	0.045258	0.10231	0.12657	0.39237	0.13371	0.062731	0.24217	0.10401	0.11317	0.21883	0.2523	0.11762	-3.5792	-3.1146	-3.9479	-3.5521	-3.2646	-4.1833	-3.1646	-3.5938	-3.9396	-2.9354	-4.0521	-3.6	-3.2125	-4.0167	-3.2708	-3.7687	170.736	-65.176	82.603	183.732	264.902	80.184	127.784	275.934	-36.799	46.416	201.888	-39.230	1.029	24.264	172.043	44.907	6.192e-05	0.00011178	0.0001236	214.27	1.7869e-06	2.2163e-06	351.56	55.178	2.4994e-06	3.3666e-06	93.112	27.351	12.269	2.6564	1.833e-06	6.3231	0.00052918	0.00088489	0.00024525	189.52	9.1501e-06	1.014e-05	308	49.122	8.5544e-06	1.0159e-05	83.512	24.645	11.523	2.5339	9.1359e-06	5.863	230.332	-51.677	270.976	-68.620	-71.592	203.111	-69.528	-63.605	-10.110	50.039	-65.164	-60.875	-58.895	-54.079	217.570	-58.338	-8191	255	
2313.081	1	1	0	0	0.090617	0.10339	0.15136	0.20219	0.16803	0.16824	0.12467	0.23818	0.28411	0.10577	0.17201	0.13541	0.13431	0.13627	0.20806	0.18871	-3.7333	-3.0583	-3.9813	-3.6083	-3.3	-4.2063	-3.1979	-3.6396	-4.0375	-3.3312	-4.2417	-3.7521	-3.1458	-4.1375	-3.5854	-3.6562	151.496	23.682	248.692	226.973	-14.775	167.394	13.211	37.763	80.094	108.408	276.609	32.960	180.433	256.138	172.736	217.330	2.8362e-05	7.9187e-05	0.00010468	209.09	2.2196e-06	1.9655e-06	350.81	54.54	6.8854e-07	1.0252e-06	93.899	26.645	12.189	2.6487	4.2089e-06	6.31	0.00054549	0.00084156	0.00024947	187.63	9.1176e-06	9.6709e-06	306.81	49.017	8.4417e-06	9.5037e-06	83.439	24.287	11.527	2.5175	8.945e-06	5.8579	-39.719	170.943	50.511	-68.862	-6.443	128.844	-69.204	-62.702	40.137	100.356	-65.470	-60.829	-56.790	-53.745	149.416	-58.904	-8191	255	
2313.177	1	1	0	0	0.2333	0.15483	0.10618	0.089548	0.25162	0.10834	0.17207	0.082288	0.26361	0.041134	0.027136	0.16435	0.14702	0.062101	0.080202	0.26959	-3.6125	-3.2292	-3.7938	-3.6292	-3.2167	-4.0083	-3.4688	-3.4229	-3.9313	-3.5083	-3.6292	-3.9708	-3.1604	-3.9979	-3.3854	-3.2417	273.480	160.739	-1.644	99.503	57.849	73.990	83.915	-48.103	156.454	240.405	115.358	79.409	-31.910	194.532	231.763	188.267	6.6228e-05	0.0003673	1.787e-05	209.57	1.3395e-06	3.7563e-06	348.43	55.231	1.5132e-06	3.5181e-06	94.05	27.309	11.942	2.7548	2.8691e-06	6.5548	0.00054806	0.00091273	0.00023727	188.2	9.2448e-06	9.7519e-06	307.09	49.118	8.6508e-06	9.9916e-06	83.543	24.601	11.456	2.5539	9.365e-06	5.9879	-62.159	-36.484	234.551	-68.493	-20.778	247.039	-69.388	-62.723	155.005	77.381	-64.645	-59.752	-58.210	-53.435	91.331	-57.555	-8191	255	
2313.273	1	1	0	0	0.19256	0.23193	0.14361	0.13874	0.039433	0.09978	0.056934	0.19512	0.37148	0.17647	0.23581	0.2735	0.16585	0.14352	0.097885	0.2349	-3.8312	-3.2104	-3.7417	-3.9833	-3.2229	-3.8354	-3.5458	-3.3521	-4.0813	-3.3229	-3.6083	-3.9875	-3.0104	-3.9125	-3.5938	-3.1771	-32.875	117.798	-14.931	-7.666	95.058	187.041	20.305	-35.899	-53.187	251.895	139.973	267.562	146.160	141.469	-67.802	188.168	5.4905e-05	0.0001317	8.3025e-05	210.31	1.3366e-06	1.5606e-06	352.53	53.959	2.6526e-06	3.8003e-06	95.675	27.43	12.21	2.6193	2.9189e-06	6.4513	0.00054892	0.00088653	0.00025159	187.27	9.0831e-06	9.7023e-06	309.13	48.908	9.1567e-06	9.8088e-06	84.003	24.64	11.634	2.5229	9.4294e-06	5.975	-8.933	35.542	76.460	-68.026	269.025	195.076	-69.305	-62.669	40.037	-4.120	-64.846	-59.946	-56.722	-54.162	-22.396	-57.319	-8191	255	
2313.394	1	1	0	0	0.17784	0.12616	0.13171	0.13764	0.1491	0.19529	0.17185	0.065243	0.063702	0.084532	0.18813	0.25542	0.095228	0.19055	0.22919	0.3575	-3.8146	-3.3	-3.6188	-3.975	-3.1688	-4.0188	-3.8833	-3.2958	-4.15	-3.45	-3.4083	-3.9625	-3.2583	-3.8396	-3.8417	-3.1875	-29.852	257.268	-36.365	109.374	-37.419	87.576	125.368	88.063	220.671	215.687	67.495	97.254	178.303	128.528	79.130	-48.664	2.0072e-05	0.00041022	8.3671e-05	211.02	1.468e-06	3.7318e-07	351.21	54.74	1.7104e-06	2.4437e-06	94.442	26.979	11.994	2.6034	3.8111e-06	6.41	0.00052963	0.00086286	0.00023692	188.17	8.9745e-06	9.8166e-06	308.11	49.143	8.6854e-06	9.8578e-06	83.409	24.519	11.484	2.511	9.269e-06	5.9096	-21.208	-21.151	59.873	-68.509	200.096	70.745	-69.049	-62.583	84.077	114.574	-65.093	-60.211	-57.186	-52.625	151.747	-57.569	-8191	255	
2313.490	1	1	0	0	0.099405	0.10184	0.26531	0.01283	0.13983	0.13169	0.024074	0.026711	0.27742	0.11325	0.090418	0.18463	0.053181	0.18494	0.28871	0.013558	-3.7687	-3.4188	-3.5187	-4.0896	-3.2042	-3.8083	-3.8125	-3.1	-4.2021	-3.4792	-3.325	-4.0771	-3.2812	-3.775	-3.9021	-3.2667	116.094	49.736	218.048	274.606	137.213	120.083	251.296	129.412	-32.089	73.363	42.316	61.875	-28.496	235.185	68.864	-57.113	5.3283e-05	0.00029738	1.1516e-05	213.67	4.0134e-06	2.6565e-06	351	54.856	3.8143e-06	2.664e-06	94.055	26.908	12.38	2.6798	2.8544e-06	6.4189	0.00055026	0.00089258	0.00024421	188.35	8.8592e-06	9.4924e-06	307.45	49.101	8.8426e-06	9.7071e-06	83.645	24.35	11.615	2.5337	9.0886e-06	5.9203	-61.639	86.216	4.127	-67.921	-48.005	86.708	-69.418	-62.754	198.077	11.806	-64.786	-60.290	-57.060	-53.097	113.391	-57.658	-8191	255	
2313.586	1	1	0	0	0.095756	0.079658	0.14265	0.25346	0.10172	0.11392	0.14094	0.0851	0.27364	0.15639	0.21651	0.16592	0.13247	0.11043	0.017482	0.17821	-3.7292	-3.6375	-3.3688	-4.0833	-3.3396	-3.6	-4.075	-3.25	-4.0375	-3.7042	-3.1813	-4.1417	-3.3646	-3.5583	-4.0938	-3.3021	56.557	183.374	113.113	127.964	253.892	57.610	-23.664	190.025	204.389	-37.118	273.735	199.211	149.012	34.275	122.848	89.227	2.9483e-05	0.00034931	3.4783e-05	211.18	4.0306e-06	3.5822e-06	350.4	54.508	1.8752e-06	9.7369e-07	94.132	27.135	12.223	2.6786	3.8923e-06	6.4638	0.00055961	0.0008594	0.00024963	188.36	9.3604e-06	9.7544e-06	307.24	48.936	8.9604e-06	9.8567e-06	83.611	24.375	11.588	2.5274	8.9849e-06	5.9319	180.246	80.534	277.444	-68.568	131.429	207.031	-69.250	-62.082	-30.678	146.279	-64.462	-60.593	-57.614	-52.566	263.832	-57.614	-8191	255	
2313.682	1	1	0	0	0.11137	0.25782	0.076603	0.11675	0.1942	0.088405	0.085296	0.1163	0.096678	0.084683	0.07716	0.092864	0.16992	0.1263	0.065319	0.27364	-3.6292	-3.7917	-3.1979	-4.1333	-3.2354	-3.5146	-4.1438	-3.1417	-3.9833	-3.8542	-3.3937	-3.9896	-3.5083	-3.4688	-4.1625	-3.2521	-62.378	150.417	256.806	-24.342	215.909	275.099	100.709	200.351	-48.596	173.765	72.440	0.217	115.521	-26.541	250.704	147.610	8.0888e-05	0.00043883	3.9219e-05	213.28	6.5257e-06	1.3681e-06	354.53	54.698	7.0202e-07	7.0526e-07	95.021	27.484	12.045	2.7257	1.4709e-06	6.6109	0.00054226	0.00087769	0.00025707	188.22	9.4118e-06	1.0039e-05	309.05	49.065	8.5691e-06	1.0041e-05	84.426	24.886	11.512	2.5611	9.4737e-06	6.0215	-72.758	30.723	99.291	-68.336	209.901	-30.274	-69.110	-61.779	140.605	22.696	-64.892	-59.833	-57.292	-52.887	216.773	-57.868	-8191	255	
2313.778	1	1	0	0	0.3468	0.15156	0.18663	0.097177	0.15749	0.14107	0.13309	0.12441	0.097968	0.096298	0.14675	0.19893	0.14908	0.21515	0.031416	0.084036	-3.5083	-3.7562	-3.05	-4.1354	-3.6854	-3.3396	-4.15	-3.125	-3.7083	-4.0583	-3.2146	-3.9792	-3.7792	-3.2687	-4.0396	-3.2375	244.011	189.529	181.158	7.720	82.702	101.393	153.842	81.561	-5.046	-50.245	260.994	-47.104	269.653	256.156	161.231	-59.976	5.2052e-05	0.00018201	8.5727e-05	209.27	2.2906e-06	5.7667e-07	356.97	54.978	2.8977e-06	2.2416e-06	93.227	27.287	12.02	2.6324	3.2662e-06	6.501	0.0005569	0.00089751	0.00025491	188.11	9.1603e-06	9.7619e-06	309.56	49.185	8.7251e-06	9.7493e-06	83.295	24.623	11.482	2.5169	9.3962e-06	5.9042	146.079	-36.380	-58.507	-67.891	201.636	273.520	-69.323	-62.655	180.916	-37.248	-65.158	-60.601	-55.423	-53.798	104.208	-58.899	-8191	255	
2313.875	1	1	0	0	0.17392	0.22908	0.17268	0.21734	0.064308	0.12406	0.13468	0.061443	0.20526	0.016957	0.12741	0.30256	0.12368	0.13928	0.14271	0.095318	-3.2583	-4.1667	-3.15	-3.9917	-3.7792	-3.4146	-4.1292	-3.3729	-3.4917	-4.0042	-3.1375	-3.9292	-3.7104	-3.2438	-4.0583	-3.35	183.352	37.758	134.639	184.631	-50.737	259.617	-24.806	204.603	-9.248	-70.066	-55.688	209.967	39.731	103.545	-68.958	274.015	8.6902e-05	3.9209e-05	7.1193e-05	214.97	1.0565e-06	1.0647e-06	354.91	54.558	3.2479e-06	2.086e-06	93.718	27.25	11.774	2.7192	3.2903e-06	6.3909	0.00057015	0.00087465	0.00024885	189.78	9.4734e-06	9.9501e-06	308.66	48.985	8.8224e-06	9.6826e-06	83.413	24.575	11.452	2.5295	9.2009e-06	5.8936	53.423	136.768	230.740	-68.350	82.132	-26.581	-69.596	-62.526	83.185	37.024	-64.383	-60.555	-57.374	-53.417	201.975	-58.670	-8191	255	
2313.994	1	1	0	0	0.034293	0.2103	0.076921	0.055059	0.16897	0.1706	0.039532	0.073567	0.16325	0.29551	0.10348	0.029894	0.026066	0.26588	0.089107	0.17352	-3.1958	-3.9562	-3.1604	-3.875	-3.8063	-3.3542	-4.1479	-3.5708	-3.3458	-4.1375	-3.1542	-3.8083	-3.9938	-3.1	-3.9729	-3.7875	80.511	202.371	71.970	260.361	209.236	-35.417	-17.706	-17.321	119.599	60.261	-68.866	-3.737	169.870	-71.303	173.036	7.519	3.2815e-05	0.0002811	0.00012164	213.78	1.192e-06	2.0766e-06	354.11	55.026	4.719e-06	2.0241e-06	94.388	27.534	12.267	2.683	3.5107e-06	6.565	0.00054412	0.00087993	0.00024841	188.95	8.9476e-06	9.9233e-06	309.27	48.979	9.0699e-06	1.0087e-05	83.677	24.652	11.545	2.5596	9.1026e-06	5.9536	212.523	-72.767	-54.793	-68.069	95.809	128.243	-68.906	-62.911	181.535	244.394	-64.277	-60.117	-57.663	-53.188	135.555	-57.308	-8191	255	
2314.090	1	1	0	0	0.0053338	0.093075	0.14667	0.25939	0.13584	0.25563	0.18898	0.22538	0.10289	0.17803	0.033884	0.26666	0.13074	0.17987	0.22536	0.15347	-2.975	-4.125	-3.3375	-3.6854	-3.95	-3.1312	-4.0604	-3.6604	-3.3208	-4.0938	-3.4083	-3.7687	-4.0021	-3.1625	-3.8292	-3.6896	132.691	228.986	-69.981	186.256	227.331	-15.910	-19.888	135.663	-41.507	-50.741	265.076	-42.919	-58.016	0.319	232.650	14.318	2.7289e-05	0.0001541	3.2694e-05	212.86	4.927e-06	2.9128e-06	353.2	54.886	3.9065e-06	4.184e-06	94.212	27.817	12.323	2.7698	8.8941e-07	6.5013	0.0005621	0.00088294	0.00024629	189.66	9.0735e-06	9.7295e-06	308.71	49.248	8.9476e-06	1.0302e-05	84.081	25.082	11.548	2.5519	9.4327e-06	5.9962	88.498	26.311	60.179	-68.204	63.610	-43.535	-68.587	-62.742	74.492	-63.721	-64.388	-59.970	-56.476	-52.588	239.343	-57.926	-8191	255	
2314.186	1	1	0	0	0.1332	0.14086	0.17729	0.50982	0.098766	0.10991	0.17476	0.15132	0.26942	0.091748	0.007072	0.20635	0.06238	0.23658	0.1962	0.22089	-2.7958	-4.2438	-3.2708	-3.3854	-4.0604	-3.2313	-4.0229	-3.8438	-3.1437	-4.1438	-3.4792	-3.5708	-4.0708	-3.1667	-3.9396	-3.8	-63.707	258.087	213.307	131.474	240.987	-76.985	177.430	153.628	263.477	219.470	157.405	234.339	89.330	269.916	107.043	160.562	5.5196e-05	0.00016222	4.5884e-05	213.49	3.1242e-06	2.8587e-06	356.73	54.965	5.1952e-07	3.4834e-06	93.867	27.066	12.086	2.7439	1.2666e-06	6.4261	0.00056659	0.00091564	0.00025151	189.54	8.9854e-06	9.7509e-06	310.35	49.238	9.2659e-06	9.5931e-06	83.606	24.758	11.47	2.5656	9.3053e-06	5.9311	253.457	49.556	-26.916	-66.710	119.819	-53.300	-68.638	-62.363	-16.728	34.085	-64.318	-60.730	-57.263	-52.868	248.908	-58.443	-8191	255	
2314.282	1	1	0	0	0.23456	0.032112	0.1428	0.093952	0.1845	0.21338	0.17513	0.15808	0.1163	0.22044	0.15735	0.20568	0.13316	0.073799	0.099216	0.062967	-2.7917	-4.0583	-3.4271	-3.4167	-4.2583	-3.3458	-3.7208	-3.8771	-3.2625	-4.0479	-3.5979	-3.1604	-4.1229	-3.2313	-3.7917	-3.9021	-39.220	263.137	257.542	209.531	187.422	99.533	261.907	90.423	71.474	134.456	-2.927	-15.424	134.267	200.568	112.293	49.978	2.9266e-05	0.00054873	2.6387e-05	213.52	2.8505e-06	2.9234e-06	354.36	55.024	3.4991e-06	2.9973e-06	94.109	27.094	12.083	2.6715	3.5212e-06	6.481	0.00055012	0.00090863	0.00024814	189.33	9.0056e-06	9.7184e-06	309.22	49.273	8.9047e-06	9.6378e-06	83.544	24.58	11.523	2.5578	9.1483e-06	5.9411	254.368	105.375	90.836	-68.454	104.038	53.247	-68.418	-62.610	129.902	-32.648	-64.741	-59.439	-58.358	-55.527	-36.358	-57.952	-8191	255	
2314.378	1	1	0	0	0.086821	0.11241	0.069665	0.11119	0.23042	0.21655	0.064171	0.047339	0.26471	0.040194	0.25529	0.22988	0.20209	0.11232	0.10031	0.044083	-2.6437	-3.8375	-3.6646	-3.3187	-4.1646	-3.2229	-3.575	-4.05	-3.2292	-3.8812	-3.6792	-3.3	-4.0604	-3.3083	-3.6063	-3.9833	79.793	238.546	149.774	245.411	143.004	-40.108	-64.215	265.573	205.315	211.951	-47.296	134.321	102.046	-9.171	216.553	278.737	3.1838e-05	0.00026952	2.3971e-05	213.57	2.8812e-06	2.1676e-06	353.36	54.691	7.6975e-07	1.382e-06	94.46	27.445	12.208	2.6472	2.6146e-06	6.6186	0.00057196	0.00089095	0.00024467	189.66	9.1514e-06	9.878e-06	309.88	49.085	8.8611e-06	1.0058e-05	83.795	24.752	11.463	2.5463	9.3764e-06	5.9917	238.482	93.390	-27.113	-68.851	171.695	-22.752	-69.542	-62.721	261.922	197.155	-64.222	-61.200	-57.045	-55.442	101.701	-58.885	-8191	255	
2314.474	1	1	0	0	0.064077	0.2828	0.18264	0.319	0.13476	0.13537	0.38255	0.12305	0.24096	0.13595	0.2362	0.24182	0.088503	0.039465	0.20026	0.0082016	-2.7313	-3.8229	-3.7354	-3.2771	-4.1854	-3.3438	-3.4729	-4.1771	-2.9729	-3.7292	-3.8167	-3.3479	-3.9958	-3.5	-3.2896	-4.0021	54.893	11.119	127.956	87.161	-4.198	190.658	249.286	192.395	74.518	114.095	195.294	18.305	-0.479	2.897	164.408	-61.417	3.1519e-05	0.00026356	7.7088e-05	215.04	2.7771e-06	1.1256e-06	354.52	55.252	1.1264e-06	3.0768e-06	94.82	27.441	12.074	2.6955	6.8564e-06	6.5094	0.00056331	0.00088576	0.00024994	189.67	9.0795e-06	9.8958e-06	311.83	49.258	9.0139e-06	9.9263e-06	84.323	24.863	11.614	2.5631	9.0007e-06	5.9916	81.781	150.883	-22.730	-69.575	61.288	-35.338	-69.831	-64.340	7.982	93.451	-66.035	-61.051	-58.925	-54.873	59.829	-57.396	-8191	255	
2314.570	1	1	0	0	0.12918	0.049323	0.23868	0.16453	0.11876	0.19214	0.2216	0.068123	0.20801	0.17308	0.16374	0.1693	0.3116	0.14582	0.10368	0.081951	-2.8146	-3.6458	-4.0479	-3.3083	-3.8208	-3.4667	-3.4188	-4.0958	-3.1646	-3.5104	-4.0208	-3.1854	-3.9479	-3.6229	-3.1792	-4.1833	72.205	59.860	156.932	225.666	229.147	200.013	61.962	225.391	10.089	70.726	-45.373	39.443	251.532	-63.148	-23.577	256.878	3.3507e-05	0.00023109	0.00019373	214.43	3.5727e-06	3.864e-06	350.21	55.246	5.0973e-07	1.5427e-06	94.856	27.696	12.167	2.7705	3.3477e-06	6.4066	0.00057694	0.00089402	0.00024513	189.19	9.2233e-06	9.8526e-06	309.51	49.281	9.0264e-06	9.5823e-06	84.459	24.831	11.544	2.5797	9.4062e-06	5.9529	165.947	-56.802	28.980	-69.892	65.484	69.549	-69.915	-63.609	49.495	125.006	-65.659	-61.933	-58.110	-55.399	140.422	-58.793	-8191	255	
2314.667	1	1	0	0	0.081306	0.13576	0.28914	0.23805	0.17542	0.19185	0.14749	0.040273	0.067202	0.38366	0.039627	0.076858	0.29809	0.1903	0.13292	0.04999	-2.9896	-3.5458	-4.1333	-3.0167	-3.8583	-3.6583	-3.5062	-4.1417	-3.2792	-3.4625	-4.2583	-3.3125	-3.7958	-3.6979	-3.1125	-4.1521	233.613	235.696	170.868	54.205	164.239	-40.653	-76.827	120.824	221.779	227.739	148.014	25.919	213.588	158.848	189.765	40.701	3.7489e-05	0.00019781	6.8053e-05	213.33	4.7639e-06	1.5528e-06	356.1	55.212	2.7584e-06	3.4979e-06	93.509	27.443	12.676	2.7673	2.2539e-06	6.5176	0.0005767	0.00089639	0.00024527	188.97	9.1994e-06	9.5066e-06	310.9	49.142	9.0081e-06	1.0114e-05	83.624	24.762	11.657	2.5788	9.3247e-06	5.9722	20.990	142.682	-11.663	-68.890	112.621	175.329	-70.363	-63.369	40.625	225.354	-65.428	-61.517	-58.363	-54.829	197.305	-58.540	-8191	255	
2314.785	1	1	0	0	0.27838	0.12027	0.27291	0.069946	0.19353	0.12423	0.028848	0.30316	0.14	0.14601	0.0352	0.25396	0.089555	0.20436	0.071589	0.057556	-3.0833	-3.2292	-4.0771	-3.1104	-3.7896	-3.9604	-3.3104	-3.9688	-3.5604	-3.2792	-4.1583	-3.2146	-3.5604	-3.8979	-3.2167	-4.1875	-18.354	229.602	199.509	199.447	197.721	194.950	236.638	-11.005	158.091	201.621	112.080	219.391	-55.144	262.435	57.572	262.950	4.904e-05	0.00033803	0.00011563	213.79	4.0659e-06	3.4044e-06	353.36	55.019	4.1573e-06	1.5499e-06	95.024	27.226	12.032	2.7231	1.9868e-06	6.6058	0.00057284	0.00088634	0.00024629	189.45	9.0874e-06	9.732e-06	310.77	49.107	8.9681e-06	1.0059e-05	84.61	24.657	11.484	2.569	9.1949e-06	6.0477	142.611	52.607	60.311	-70.165	142.581	43.899	-69.778	-63.852	140.776	87.839	-65.137	-61.822	-57.267	-52.378	-29.080	-59.153	-8191	255	
2314.859	1	1	0	0	0.28702	0.2565	0.17681	0.10498	0.01307	0.093844	0.051644	0.24352	0.16838	0.25731	0.21475	0.26063	0.033462	0.18691	0.23845	0.22201	-3.1937	-3.4	-4.075	-3.3042	-3.7354	-4.1396	-3.1063	-3.7771	-3.8208	-3.325	-4.0312	-3.2729	-3.3833	-4.0854	-3.1083	-4.0583	206.315	-44.868	-6.490	247.597	174.552	-27.853	204.714	232.308	80.076	-48.560	160.308	-14.076	174.190	215.241	-3.473	156.920	1.4457e-05	9.1835e-05	0.00012006	213.37	1.5651e-06	3.1578e-06	359.28	55.692	1.8478e-06	5.6557e-07	94.877	27.937	11.96	2.7714	2.7622e-06	6.5541	0.00055986	0.00089377	0.00024787	188.76	9.4843e-06	9.6241e-06	311.89	49.435	9.158e-06	9.9223e-06	84.565	25.124	11.573	2.6032	9.2784e-06	6.0665	-11.034	82.287	64.563	-69.059	105.593	-64.029	-69.680	-63.331	-61.380	114.871	-65.577	-61.673	-58.040	-54.525	23.498	-58.208	-8191	255	
2314.955	1	1	0	0	0.15358	0.095837	0.15736	0.16745	0.17449	0.17692	0.091811	0.21022	0.14952	0.043617	0.093025	0.19689	0.11981	0.16985	0.26054	0.07806	-3.3667	-3.1875	-3.9354	-3.3438	-3.325	-4	-3.0146	-3.7167	-3.7292	-3.225	-4.1479	-3.3333	-3.4771	-3.95	-3.1771	-3.8083	112.503	69.109	-42.805	1.636	-61.909	-70.116	109.972	156.617	167.979	-10.571	270.099	0.011	23.725	195.777	160.751	273.842	6.7994e-05	0.0003228	5.3209e-05	211.63	2.7073e-06	5.0408e-06	354.05	55.852	1.2551e-06	4.8881e-06	94.791	27.715	12.204	2.6634	2.4118e-06	6.5221	0.00056467	0.00089924	0.00024898	188.85	9.1626e-06	1.0137e-05	311.12	49.671	8.9534e-06	1.015e-05	84.449	24.928	11.666	2.5516	9.3355e-06	5.9827	260.543	27.962	-31.495	-69.217	223.705	78.786	-70.205	-63.302	177.867	134.286	-65.233	-61.705	-58.369	-55.422	-56.301	-57.990	-8191	255	
2315.074	1	1	0	0	0.16682	0.2392	0.046219	0.24055	0.20827	0.05089	0.21091	0.017941	0.086333	0.040281	0.24708	0.21587	0.19747	0.15253	0.019126	0.077814	-3.625	-2.9479	-4.0917	-3.4583	-3.1083	-4.2208	-3.2167	-3.7042	-4.05	-3.2542	-4.1229	-3.5375	-3.1896	-4.1208	-3.3083	-3.5958	-62.022	41.933	126.598	-28.274	258.430	201.969	97.675	80.992	215.671	246.042	214.710	79.090	169.884	216.551	136.350	-7.925	5.3623e-05	0.00020256	0.00016065	216.12	4.2559e-06	2.6593e-06	351.64	54.91	3.0716e-06	2.9373e-06	94.961	27.721	12.29	2.7202	2.5348e-06	6.5071	0.00056755	0.00088304	0.00023528	189.26	9.3485e-06	9.3267e-06	309.2	49.169	8.873e-06	1.002e-05	84.083	24.864	11.608	2.5729	8.9768e-06	6.0539	19.731	83.482	39.496	-68.740	264.010	129.617	-69.825	-63.095	104.611	198.978	-65.388	-61.502	-57.654	-53.683	192.510	-58.235	-8191	255	
2315.170	1	1	0	0	0.13632	0.14144	0.058266	0.1448	0.12071	0.051896	0.16396	0.16215	0.079814	0.10334	0.081264	0.1326	0.18477	0.13002	0.33648	0.092559	-3.6958	-3.2125	-3.9229	-3.6792	-3.2417	-4.1958	-3.4167	-3.5458	-4.0667	-3.2458	-3.9625	-3.8438	-3.2562	-4.2229	-3.4354	-3.5333	203.884	25.213	205.089	226.692	207.708	166.523	108.969	156.208	105.062	98.297	90.032	28.482	-71.331	-35.655	-76.672	34.947	2.4105e-05	0.00018737	4.0102e-05	209.69	8.737e-07	2.4556e-06	355.12	55.782	7.4376e-07	2.3824e-06	95.533	27.707	12.23	2.7491	4.1015e-06	6.6904	0.00055322	0.00088073	0.00025566	188.41	9.2057e-06	9.7662e-06	310.29	49.505	8.8394e-06	9.9461e-06	85.115	24.877	11.635	2.5812	9.3509e-06	6.1047	-66.669	273.180	62.822	-69.082	-18.478	-2.614	-69.759	-62.950	-48.698	8.681	-65.118	-61.081	-59.374	-54.190	-19.616	-57.381	-8191	255	
2315.266	1	1	0	0	0.2307	0.12984	0.096172	0.24522	0.22448	0.11753	0.11779	0.11744	0.18739	0.17143	0.07614	0.18246	0.15563	0.10807	0.072964	0.19097	-3.6979	-3.0792	-3.8958	-3.8333	-3.1521	-4.0062	-3.5979	-3.4229	-4.1458	-3.3667	-3.8625	-3.8542	-3.0687	-3.9417	-3.5625	-3.4625	-28.183	83.172	52.334	58.424	51.586	35.710	-33.929	236.834	185.354	156.479	93.436	246.333	199.854	259.107	157.167	177.963	4.5271e-05	0.0001577	0.0001052	212.6	2.7027e-06	2.3562e-06	355	56.425	2.2921e-06	3.8371e-06	96.999	27.561	12.588	2.7312	4.7937e-06	6.6454	0.00055298	0.00086139	0.0002467	189.04	9.0083e-06	9.8166e-06	311.27	49.673	9.5678e-06	9.9945e-06	85.23	25.102	11.727	2.5921	9.2744e-06	6.1299	265.201	26.843	202.132	-69.814	165.765	147.542	-69.463	-63.015	112.619	74.201	-64.845	-60.813	-58.623	-54.418	227.195	-58.563	-8191	255	
2315.387	1	1	0	0	0.17383	0.16965	0.32381	0.18486	0.22754	0.14016	0.067937	0.081883	0.067814	0.1805	0.092505	0.20598	0.16254	0.09436	0.11969	0.18516	-3.8438	-3.0896	-3.7562	-3.9688	-3.0979	-3.9854	-3.7146	-3.2667	-4.0229	-3.325	-3.5125	-3.8438	-3.0958	-3.9167	-3.7438	-3.4062	150.248	67.802	207.418	-62.944	142.357	243.702	214.538	82.589	65.850	122.989	181.277	59.647	-2.082	238.297	123.440	245.783	2.7965e-05	0.00043982	0.00011388	215.05	1.8369e-06	3.4986e-06	360.79	55.486	5.765e-06	8.5054e-07	94.878	27.526	12.222	2.7025	1.8266e-06	6.586	0.0005471	0.00087423	0.00025191	189.38	9.4167e-06	9.3449e-06	313.9	49.469	8.5963e-06	9.8787e-06	84.798	24.965	11.673	2.5769	9.1905e-06	6.0489	76.919	60.013	27.118	-68.989	41.670	-9.394	-69.488	-63.238	130.035	-24.409	-65.573	-61.188	-58.087	-54.466	28.292	-57.932	-8191	255	
2315.458	1	1	0	0	0.13971	0.037364	0.15751	0.25946	0.12812	0.15351	0.14599	0.096144	0.21167	0.16659	0.098158	0.045516	0.076467	0.04928	0.052545	0.14855	-3.5938	-3.4792	-3.4417	-4.0917	-3.0458	-3.8958	-3.7167	-3.3271	-4.0583	-3.3917	-3.4875	-4.0979	-3.2438	-3.8792	-3.7833	-3.3021	36.798	272.204	-57.687	238.386	138.978	-74.581	208.408	117.772	184.976	264.889	75.000	109.786	276.828	188.902	221.386	181.949	1.5028e-05	0.00012326	0.00022554	216.29	3.0079e-06	3.5677e-06	355.58	55.572	4.6716e-06	1.2263e-06	96.689	27.657	12.214	2.7158	1.7877e-06	6.6648	0.00055604	0.00090645	0.00025201	189.71	9.4661e-06	9.9858e-06	310.27	49.454	8.8013e-06	9.8993e-06	85.333	25.044	11.537	2.581	9.1701e-06	6.0511	47.622	33.730	277.944	-68.411	258.740	25.667	-69.996	-62.935	16.407	40.848	-65.079	-60.651	-58.271	-53.850	229.249	-58.019	-8191	255	
2315.555	1	1	0	0	0.33628	0.14052	0.1629	0.041003	0.28332	0.035367	0.21888	0.074444	0.10467	0.26917	0.06849	0.28215	0.12984	0.18162	0.094872	0.068772	-3.8375	-3.6083	-3.2875	-4.1333	-3.1083	-3.8417	-3.7854	-3.2042	-3.9625	-3.5438	-3.375	-4.2354	-3.3917	-3.7625	-4.025	-3.3729	195.282	163.807	-24.954	137.239	-70.585	73.497	201.212	92.275	-63.196	147.833	200.705	178.877	271.596	171.339	-49.348	-28.450	5.6311e-05	0.00022533	0.00017477	213.5	4.2742e-06	3.0941e-06	355.26	55.697	2.2089e-07	9.2179e-07	96.775	27.922	12.589	2.6872	4.3774e-06	6.683	0.00057492	0.00089229	0.00024918	188.82	9.3124e-06	9.8294e-06	312.5	49.584	8.9409e-06	9.8654e-06	85.44	25.119	11.742	2.5718	9.5166e-06	6.1163	269.423	271.656	51.597	-68.133	164.016	135.442	-69.613	-63.631	-53.395	-7.084	-65.346	-60.931	-57.600	-54.380	94.679	-58.561	-8191	255	
2315.675	1	1	0	0	0.10885	0.10039	0.057727	0.13376	0.21467	0.16511	0.15329	0.45125	0.2418	0.16381	0.096378	0.28343	0.32229	0.12955	0.11532	0.28587	-3.675	-3.8625	-3.1104	-4.3375	-3.3708	-3.7896	-4.2396	-3.2875	-3.9958	-3.7583	-3.4271	-4.2667	-3.3646	-3.5208	-4.0375	-3.1979	121.357	141.832	188.074	228.741	161.234	68.167	210.905	64.634	60.362	33.271	215.374	-27.553	118.997	214.848	126.987	98.240	4.4613e-05	0.00011773	3.0875e-05	216.12	6.3449e-06	1.2996e-06	357.12	55.074	2.5042e-06	2.0829e-06	96.597	28.349	12.544	2.7319	1.8092e-06	6.752	0.0005374	0.00089793	0.00024384	190.71	9.6119e-06	9.9373e-06	314.52	49.465	8.743e-06	1.0129e-05	86.053	25.465	11.714	2.588	9.1691e-06	6.133	202.895	84.443	25.327	-68.213	-22.614	268.296	-69.827	-62.583	65.280	128.344	-65.492	-60.992	-57.840	-54.619	4.867	-59.046	-8191	255	
2315.771	1	1	0	0	0.20375	0.28421	0.017745	0.13931	0.40708	0.058775	0.17319	0.15968	0.10456	0.0098781	0.076228	0.19607	0.31645	0.16645	0.14251	0.17728	-3.675	-3.8167	-3.1042	-4.1687	-3.4333	-3.5125	-4.1292	-3.1562	-3.8833	-3.9562	-3.3458	-4.125	-3.4458	-3.4333	-4.0396	-3.2687	16.067	191.058	100.004	133.815	182.163	18.375	248.430	-54.252	-4.445	197.037	110.054	224.209	7.030	88.270	223.511	2.529	1.1711e-05	0.00024411	8.4087e-05	211.06	4.0637e-06	3.7185e-06	357.77	55.135	9.3649e-07	2.994e-06	95.225	27.542	12.449	2.7383	3.9772e-06	6.7437	0.00056782	0.00094222	0.00024972	189.11	9.2749e-06	1.0229e-05	312.3	49.353	8.5067e-06	1.0231e-05	84.569	24.894	11.649	2.5771	9.5307e-06	6.0409	211.110	72.808	78.146	-68.223	214.105	49.762	-69.261	-62.933	150.321	37.746	-64.738	-61.010	-57.893	-52.955	241.856	-59.166	-8191	255	
#DATA ENDS
