BOXY.EXE: ISS Imagent and Oximeter Data Acquisition Program Version 0.80
Ascii Record File

#ACQ INFORMATION
2  Detector Channels 
16  External MUX Channels 
1  Auxiliary Channels 
5000  Waveform (CCF) Frequency (Hz)
1  Waveforms Skipped 
30  Waveforms Averaged 
1  Cycles Averaged 
16  Acquisitions per Waveform 
10.0806  Updata Rate (Hz) 

#FILE INFORMATION
TRUE -- External MUX Channel results are PARSED.
FALSE -- AC DC and Phase are NOT grouped.
TRUE -- Companion Program Settings File CREATED.
FALSE -- AC data not excluded
FALSE -- DC data not excluded
FALSE -- Phase data not excluded
FALSE -- Auxillary Chn. data not excluded
Tab delimiters

#CALIBRATION STATE
TRUE -- Waveform Calibration Values APPLIED.


#AUX CALIBRATION VALUES
Val Type	aux-1	

Term	1.0000e+00	
Factor	0.0000e+00	


#WF CALIBRATION VALUES
A = Detector Channel
Val Type	A-AC1	A-AC2	A-AC3	A-AC4	A-AC5	A-AC6	A-AC7	A-AC8	A-AC9	A-AC10	A-AC11	A-AC12	A-AC13	A-AC14	A-AC15	A-AC16	A-DC1	A-DC2	A-DC3	A-DC4	A-DC5	A-DC6	A-DC7	A-DC8	A-DC9	A-DC10	A-DC11	A-DC12	A-DC13	A-DC14	A-DC15	A-DC16	A-Ph1	A-Ph2	A-Ph3	A-Ph4	A-Ph5	A-Ph6	A-Ph7	A-Ph8	A-Ph9	A-Ph10	A-Ph11	A-Ph12	A-Ph13	A-Ph14	A-Ph15	A-Ph16	

Term	0.00000e+00	0.00000e+00	0.00000e+00	0.00000e+00	0.00000e+00	0.00000e+00	0.00000e+00	0.00000e+00	0.00000e+00	0.00000e+00	0.00000e+00	0.00000e+00	0.00000e+00	0.00000e+00	0.00000e+00	0.00000e+00	0.00000e+00	0.00000e+00	0.00000e+00	0.00000e+00	0.00000e+00	0.00000e+00	0.00000e+00	0.00000e+00	0.00000e+00	0.00000e+00	0.00000e+00	0.00000e+00	0.00000e+00	0.00000e+00	0.00000e+00	0.00000e+00	0.00000e+00	0.00000e+00	0.00000e+00	0.00000e+00	0.00000e+00	0.00000e+00	0.00000e+00	0.00000e+00	0.00000e+00	0.00000e+00	0.00000e+00	0.00000e+00	0.00000e+00	0.00000e+00	0.00000e+00	0.00000e+00	
Factor	1.00000e+00	1.00000e+00	1.00000e+00	1.00000e+00	1.00000e+00	1.00000e+00	1.00000e+00	1.00000e+00	1.00000e+00	1.00000e+00	1.00000e+00	1.00000e+00	1.00000e+00	1.00000e+00	1.00000e+00	1.00000e+00	1.00000e+00	1.00000e+00	1.00000e+00	1.00000e+00	1.00000e+00	1.00000e+00	1.00000e+00	1.00000e+00	1.00000e+00	1.00000e+00	1.00000e+00	1.00000e+00	1.00000e+00	1.00000e+00	1.00000e+00	1.00000e+00	X	X	X	X	X	X	X	X	X	X	X	X	X	X	X	X	

B = Detector Channel
Val Type	B-AC1	B-AC2	B-AC3	B-AC4	B-AC5	B-AC6	B-AC7	B-AC8	B-AC9	B-AC10	B-AC11	B-AC12	B-AC13	B-AC14	B-AC15	B-AC16	B-DC1	B-DC2	B-DC3	B-DC4	B-DC5	B-DC6	B-DC7	B-DC8	B-DC9	B-DC10	B-DC11	B-DC12	B-DC13	B-DC14	B-DC15	B-DC16	B-Ph1	B-Ph2	B-Ph3	B-Ph4	B-Ph5	B-Ph6	B-Ph7	B-Ph8	B-Ph9	B-Ph10	B-Ph11	B-Ph12	B-Ph13	B-Ph14	B-Ph15	B-Ph16	

Term	0.00000e+00	0.00000e+00	0.00000e+00	0.00000e+00	0.00000e+00	0.00000e+00	0.00000e+00	0.00000e+00	0.00000e+00	0.00000e+00	0.00000e+00	0.00000e+00	0.00000e+00	0.00000e+00	0.00000e+00	0.00000e+00	0.00000e+00	0.00000e+00	0.00000e+00	0.00000e+00	0.00000e+00	0.00000e+00	0.00000e+00	0.00000e+00	0.00000e+00	0.00000e+00	0.00000e+00	0.00000e+00	0.00000e+00	0.00000e+00	0.00000e+00	0.00000e+00	-5.38156e+01	-1.31042e+02	-1.24433e+02	-1.81592e+02	-5.12389e+01	-6.77519e+01	-1.57010e+02	-1.62015e+02	-4.49559e+01	-6.47779e+01	-1.71977e+02	-1.70149e+02	-1.79453e+02	-1.77250e+02	-5.57634e+01	-1.50141e+02	
Factor	2.03653e-05	1.65828e-04	4.62255e-05	1.62462e-01	1.69913e-06	1.87841e-06	1.83249e-01	6.39994e-02	1.44152e-06	1.88062e-06	8.71469e-02	2.95149e-02	3.17034e-02	9.42612e-03	1.54103e-06	1.33165e-02	8.12842e-06	1.10171e-05	3.07108e-06	8.26260e-02	1.14284e-07	1.22168e-07	8.76959e-02	3.26199e-02	1.15569e-07	1.22005e-07	4.32266e-02	1.46927e-02	1.64001e-02	4.85771e-03	1.18033e-07	6.63519e-03	X	X	X	X	X	X	X	X	X	X	X	X	X	X	X	X	



#DISTANCE SETTINGS
A = Detector Channel
A-1	A-2	A-3	A-4	A-5	A-6	A-7	A-8	A-9	A-10	A-11	A-12	A-13	A-14	A-15	A-16	

2.5000e+00	3.0000e+00	2.5000e+00	3.0000e+00	2.0000e+00	3.0000e+00	1.5000e+00	3.0000e+00	3.0000e+00	3.0000e+00	3.0000e+00	3.0000e+00	3.0000e+00	3.0000e+00	1.5000e+00	3.0000e+00	

B = Detector Channel
B-1	B-2	B-3	B-4	B-5	B-6	B-7	B-8	B-9	B-10	B-11	B-12	B-13	B-14	B-15	B-16	

1.0000e+01	1.0000e+01	1.0000e+01	1.4400e+00	1.0000e+01	1.0000e+01	1.5100e+00	1.9400e+00	1.0000e+01	1.0000e+01	1.9900e+00	2.4900e+00	2.4100e+00	2.9000e+00	1.0000e+01	2.9800e+00	




#DATA BEGINS
time	group	step	mark	flag	A-AC1	A-AC2	A-AC3	A-AC4	A-AC5	A-AC6	A-AC7	A-AC8	A-AC9	A-AC10	A-AC11	A-AC12	A-AC13	A-AC14	A-AC15	A-AC16	A-DC1	A-DC2	A-DC3	A-DC4	A-DC5	A-DC6	A-DC7	A-DC8	A-DC9	A-DC10	A-DC11	A-DC12	A-DC13	A-DC14	A-DC15	A-DC16	A-Ph1	A-Ph2	A-Ph3	A-Ph4	A-Ph5	A-Ph6	A-Ph7	A-Ph8	A-Ph9	A-Ph10	A-Ph11	A-Ph12	A-Ph13	A-Ph14	A-Ph15	A-Ph16	B-AC1	B-AC2	B-AC3	B-AC4	B-AC5	B-AC6	B-AC7	B-AC8	B-AC9	B-AC10	B-AC11	B-AC12	B-AC13	B-AC14	B-AC15	B-AC16	B-DC1	B-DC2	B-DC3	B-DC4	B-DC5	B-DC6	B-DC7	B-DC8	B-DC9	B-DC10	B-DC11	B-DC12	B-DC13	B-DC14	B-DC15	B-DC16	B-Ph1	B-Ph2	B-Ph3	B-Ph4	B-Ph5	B-Ph6	B-Ph7	B-Ph8	B-Ph9	B-Ph10	B-Ph11	B-Ph12	B-Ph13	B-Ph14	B-Ph15	B-Ph16	aux-1	digaux	

21729.811	1	1	0	256	0.18851	0.12323	0.12634	0.35863	0.25012	0.24887	0.29479	0.071551	0.18705	0.32459	0.049565	0.15841	0.25914	0.18988	0.23612	0.2724	-1.6917	-2.5958	-2.1833	-2.3542	-2.4083	-1.9833	-2.425	-2.5146	-2.2938	-2.4958	-2.4354	-2.3583	-2.4188	-2.0417	-2.2833	-2.5125	0.170	213.666	5.509	200.295	-47.736	116.855	144.971	101.119	169.085	0.521	-65.118	-83.041	149.745	10.829	64.142	-83.715	0.00017302	0.00031648	8.8653e-05	1103.7	2.7178e-06	3.155e-06	1171.5	230.3	2.4747e-06	3.5007e-06	290.89	82.999	64.337	18.859	2.0062e-06	26.787	0.00014607	0.00010969	3.0512e-05	1091.9	1.4109e-06	1.2181e-06	1162.9	229.69	1.4022e-06	1.2511e-06	289.37	83.244	64.566	19.077	1.2354e-06	27.12	-79.264	-35.009	-64.655	-133.667	2.877	-4.130	-133.327	-126.673	3.055	27.634	-127.166	-120.015	-120.174	-113.024	58.612	-113.434	-8191	255	
21729.930	1	1	0	0	0.058774	0.23127	0.20767	0.25651	0.30507	0.16627	0.22426	0.24329	0.2536	0.10824	0.30128	0.16589	0.12301	0.31821	0.13167	0.1718	-1.7958	-2.5958	-2.3896	-2.3125	-2.5104	-2.2	-2.475	-2.4604	-2.0062	-2.4125	-2.2146	-2.0917	-2.4604	-2.2542	-2.3125	-2.2521	-70.343	-113.693	-81.451	-127.881	-61.587	103.946	173.906	-126.663	188.028	104.646	109.048	-126.400	153.291	209.105	37.447	105.760	0.00020825	0.00049394	6.0313e-05	1098.7	1.8665e-06	1.8583e-06	1161	229.61	2.8189e-06	2.6128e-06	288.18	82.08	63.202	18.517	3.3109e-06	26.495	0.00015334	0.00011224	2.8376e-05	1085.5	1.4262e-06	1.2067e-06	1154	229.15	1.3611e-06	1.1316e-06	288.1	82.601	63.916	18.912	1.2703e-06	26.878	-80.307	-46.189	-31.860	-133.693	-7.987	-9.542	-133.517	-126.572	-2.364	34.915	-127.107	-120.303	-120.047	-113.190	5.520	-113.150	-8191	255	
21730.002	1	1	0	0	0.050078	0.023734	0.16056	0.088522	0.27261	0.35945	0.22646	0.23469	0.20669	0.27046	0.33708	0.32829	0.079582	0.1746	0.083747	0.41414	-1.4229	-2.275	-2.2917	-2.2	-2.5812	-2.1063	-2.4271	-2.4604	-2.1083	-2.3917	-2.2458	-2.1875	-2.4229	-2.1917	-2.3521	-2.4313	36.776	69.445	184.348	-34.837	-106.537	-136.407	160.526	-87.882	162.158	-4.935	-127.190	173.938	28.164	-136.524	-107.443	119.039	0.00021792	0.00029076	0.00010426	1086	2.6495e-06	2.3932e-06	1158.9	228.31	1.9697e-06	2.9887e-06	286.48	80.967	62.924	18.427	3.8284e-06	26.243	0.00015491	0.00011123	3.1536e-05	1075.4	1.4409e-06	1.2879e-06	1145.1	227.52	1.3972e-06	1.2193e-06	285.54	81.521	63.409	18.696	1.4085e-06	26.531	-81.495	-61.455	-25.489	-133.777	-8.568	-16.706	-133.621	-126.630	23.305	-9.794	-126.661	-120.689	-119.965	-113.111	-12.584	-113.248	-8191	255	
21730.098	1	1	0	0	0.067184	0.18728	0.15222	0.27823	0.11708	0.3164	0.38581	0.12463	0.18296	0.18393	0.28162	0.29739	0.33753	0.19064	0.11811	0.24169	-1.5458	-2.3854	-2.3875	-1.9562	-2.4771	-2.3	-2.325	-2.5979	-2.1312	-2.3854	-2.2208	-1.925	-2.5396	-2.2167	-2.2687	-2.5938	-81.248	-37.192	107.289	64.938	153.937	56.467	208.176	-14.484	-79.578	-77.622	38.983	-126.029	-107.844	154.836	-18.749	162.112	0.00021108	0.0002949	9.3275e-05	1078	1.9941e-06	2.3932e-06	1139.5	225.5	1.5003e-06	2.3068e-06	282.47	80.245	62.625	18.354	2.4061e-06	26.161	0.00016138	0.00012493	3.5727e-05	1064.8	1.5e-06	1.282e-06	1130.1	224.81	1.4116e-06	1.2597e-06	282.81	81.084	62.89	18.633	1.3357e-06	26.554	-78.512	-53.499	-32.614	-133.705	-15.535	-15.640	-133.786	-126.487	-10.424	-17.364	-126.747	-120.376	-119.980	-112.570	18.157	-113.752	-8191	255	
21730.219	1	1	0	0	0.20563	0.22833	0.17202	0.093444	0.15344	0.13535	0.19379	0.18762	0.12093	0.1658	0.14429	0.1003	0.20511	0.16013	0.1575	0.035773	-1.5479	-2.1813	-2.3708	-2.0021	-2.475	-2.4104	-2.3729	-2.6688	-2.2021	-2.3271	-2.6646	-2.0687	-2.5458	-2.1917	-2.1562	-2.3833	81.479	-125.036	186.161	-110.847	-121.816	-45.395	152.380	179.387	40.908	-2.075	98.875	-134.255	-114.204	-44.926	-3.059	106.279	0.00019667	0.00024253	9.9378e-05	1069.1	1.8417e-06	2.8339e-06	1133.4	225.26	1.9752e-06	2.8511e-06	282.79	80.001	62.11	18.29	2.748e-06	26.168	0.00015744	0.00012114	3.6072e-05	1056	1.5078e-06	1.3482e-06	1124.4	224.66	1.4901e-06	1.4991e-06	282.21	80.815	62.728	18.562	1.4161e-06	26.523	-82.880	-42.506	-47.880	-133.558	31.127	30.934	-133.769	-126.597	42.154	5.107	-126.780	-120.408	-119.805	-112.857	2.638	-113.436	-8191	255	
21730.314	1	1	0	0	0.052361	0.15982	0.12141	0.15158	0.2396	0.18124	0.1905	0.14705	0.19104	0.19406	0.31512	0.12133	0.014936	0.26489	0.21211	0.031019	-1.6896	-2.2104	-2.5312	-2.2938	-2.4313	-2.3917	-2.2146	-2.4917	-2.1646	-2.2771	-2.5646	-2.1813	-2.4708	-2.325	-2.1	-2.6646	165.422	63.578	-130.796	75.103	-50.514	-62.507	-55.799	206.118	85.429	66.296	166.907	103.592	-123.893	15.584	27.487	7.311	0.00019184	0.00035963	7.3479e-05	1072.1	1.5698e-06	2.9328e-06	1135.1	226.05	2.5073e-06	2.9939e-06	282.04	80.382	62.586	18.394	1.8127e-06	26.029	0.00016223	0.00013175	3.2822e-05	1057.8	1.5536e-06	1.3741e-06	1124.9	224.34	1.4523e-06	1.4163e-06	281.92	81.005	62.949	18.589	1.3908e-06	26.45	-76.239	-44.483	-9.247	-133.558	-0.219	-4.616	-133.702	-126.736	7.597	25.655	-127.037	-120.387	-119.886	-112.679	-1.084	-113.534	-8191	255	
21730.410	1	1	0	0	0.25287	0.11171	0.20496	0.42405	0.18713	0.19148	0.17337	0.20271	0.046072	0.034857	0.26155	0.18093	0.32105	0.17591	0.20919	0.24428	-1.8604	-2.1729	-2.3604	-2.1854	-2.3271	-2.3896	-2.3	-2.3479	-2.2646	-2.1625	-2.6396	-2.1708	-2.525	-2.4208	-1.9583	-2.3604	76.058	79.289	107.361	-132.084	-78.339	-94.254	130.664	149.237	-130.991	-4.257	164.395	151.726	207.644	70.877	-42.996	-20.162	0.00019548	0.00029801	9.9519e-05	1067.8	2.0704e-06	1.9846e-06	1129.9	225.65	1.9603e-06	3.8108e-06	282.26	80.636	62.407	18.407	1.4702e-06	26.165	0.00015369	0.00012573	3.3993e-05	1056.9	1.5221e-06	1.3538e-06	1122.4	224.17	1.5166e-06	1.3108e-06	281.76	81.083	62.864	18.628	1.3734e-06	26.493	-78.125	-50.517	-52.362	-133.816	-17.834	17.526	-133.541	-126.753	-2.720	-4.121	-126.500	-120.496	-119.592	-112.533	-0.055	-113.496	-8191	255	
21730.531	1	1	0	0	0.1856	0.14123	0.094974	0.10989	0.15238	0.024755	0.13295	0.038088	0.20435	0.14066	0.11522	0.23331	0.2991	0.081453	0.35895	0.068736	-1.7313	-2.1104	-2.5417	-2.2354	-2.2812	-2.6021	-2.1208	-2.5812	-2.4146	-2.1146	-2.5812	-2.3083	-2.2313	-2.5625	-2.2812	-2.3646	-17.209	212.204	195.476	158.729	183.031	-114.850	161.718	86.608	77.527	113.737	-108.707	75.089	-103.107	-96.677	119.617	178.830	0.00017913	0.00034565	7.5566e-05	1070.2	2.5286e-06	2.3306e-06	1134.6	224.6	2.9573e-06	3.0702e-06	282.07	80.095	62.185	18.457	2.7542e-06	26.278	0.00015386	0.00012631	3.3148e-05	1055.5	1.5245e-06	1.3487e-06	1124.1	224.25	1.474e-06	1.3565e-06	281.67	80.792	62.638	18.638	1.3832e-06	26.589	-79.544	-31.048	-37.431	-133.522	7.149	4.163	-133.737	-126.407	-2.950	4.536	-126.830	-120.447	-119.685	-113.199	16.115	-113.160	-8191	255	
21730.629	1	1	0	0	0.067892	0.2408	0.26329	0.26137	0.19841	0.074651	0.28279	0.2035	0.12896	0.10745	0.0909	0.1266	0.18739	0.14298	0.095826	0.06964	-1.9125	-2.0354	-2.3833	-2.35	-2.1771	-2.5979	-2.3792	-2.5646	-2.4292	-1.95	-2.4562	-2.3333	-2.2375	-2.5521	-2.1229	-2.5563	137.650	35.052	80.577	173.676	-9.519	198.946	132.293	114.933	115.820	173.355	-76.706	-42.559	75.938	177.679	204.651	106.415	0.00020694	0.00033151	7.507e-05	1065.3	3.2568e-06	2.4065e-06	1126.3	224.05	2.1041e-06	3.4078e-06	282.99	79.722	62.203	18.339	2.6077e-06	26.128	0.00015695	0.00013257	3.3718e-05	1054.4	1.51e-06	1.3785e-06	1120.6	224.03	1.4978e-06	1.4102e-06	281.54	80.527	62.542	18.577	1.4422e-06	26.462	-81.430	-40.813	-63.500	-133.816	-3.727	-8.167	-133.679	-126.612	26.791	32.313	-127.031	-120.175	-120.022	-113.066	1.106	-113.385	-8191	255	
21730.699	1	1	0	0	0.13726	0.076058	0.10923	0.17077	0.37011	0.0843	0.27898	0.20293	0.09685	0.3099	0.066985	0.16344	0.34819	0.20056	0.21011	0.22228	-1.8583	-1.9771	-2.2604	-2.4521	-2.2708	-2.4542	-2.2667	-2.3187	-2.4958	-2.0333	-2.4979	-2.3125	-2.0729	-2.4333	-2.0854	-2.3646	-41.980	-136.604	91.618	119.163	-135.305	-83.471	105.539	197.780	68.601	-87.356	-39.724	-28.486	-126.478	-50.010	124.685	196.489	0.00018194	0.00024813	0.00011774	1066.7	1.7245e-06	2.7087e-06	1128.9	224.71	1.8499e-06	3.2361e-06	283.07	79.751	61.84	18.316	2.4506e-06	26.128	0.00015517	0.00011892	3.423e-05	1051.7	1.5878e-06	1.2286e-06	1119.3	223.94	1.3914e-06	1.4069e-06	281.92	80.814	62.582	18.573	1.3736e-06	26.423	-84.572	-48.956	-54.919	-133.584	10.300	0.542	-133.799	-126.452	12.728	43.519	-126.631	-119.974	-120.223	-113.003	0.818	-113.461	-8191	255	
21730.818	1	1	0	0	0.23214	0.14855	0.22203	0.29459	0.36492	0.38844	0.23957	0.076104	0.23124	0.26287	0.22402	0.24092	0.083453	0.08877	0.22727	0.19158	-2.0854	-2.1479	-2.4167	-2.7021	-2.0917	-2.4729	-2.4313	-2.2333	-2.4292	-2.0521	-2.4729	-2.5979	-1.9854	-2.5938	-2.1312	-2.1146	-124.815	-12.611	-118.109	210.899	88.733	172.421	183.390	165.527	-125.956	194.835	-130.954	155.643	37.691	-98.536	-142.111	186.848	0.0002051	0.00029473	8.1409e-05	1059.8	4.0903e-06	2.7163e-06	1129.9	224.46	2.4481e-06	3.5307e-06	282.96	79.652	62.654	18.51	3.5726e-06	26.077	0.00015209	0.00012332	3.4505e-05	1052.2	1.5655e-06	1.2896e-06	1120.9	223.83	1.4969e-06	1.5014e-06	282.02	80.678	62.807	18.587	1.5379e-06	26.456	-82.753	-46.809	-70.746	-133.643	6.877	2.886	-133.709	-126.823	17.040	9.454	-126.569	-120.154	-119.982	-112.957	5.689	-113.146	-8191	255	
21730.914	1	1	0	0	0.15766	0.090396	0.02887	0.10459	0.11699	0.15892	0.24869	0.39184	0.18613	0.2503	0.3411	0.22631	0.10802	0.34289	0.080558	0.20306	-2.1792	-2.1521	-2.4188	-2.3688	-2.0583	-2.6208	-2.5167	-2.3063	-2.4938	-2.1583	-2.4479	-2.3229	-2.1125	-2.375	-2.2375	-2.1979	-48.466	15.457	76.177	142.021	-9.632	160.689	197.747	182.660	-100.917	-11.065	109.562	-143.214	157.985	105.075	-36.047	145.883	0.00019549	0.000361	4.075e-05	1068.2	5.5512e-07	1.2267e-06	1136.8	223.75	1.6058e-06	8.64e-07	283.24	80.186	62.618	18.384	2.1992e-06	26.282	0.00015647	0.00013675	3.6482e-05	1057.9	1.6616e-06	1.4332e-06	1126	224.16	1.5989e-06	1.4214e-06	283.06	81.124	62.928	18.665	1.5526e-06	26.518	-78.586	-58.317	-23.572	-133.742	-78.118	14.373	-133.571	-126.434	22.953	-27.937	-126.758	-120.211	-119.747	-112.777	34.520	-113.394	-8191	255	
21731.012	1	1	0	0	0.25502	0.061167	0.1888	0.10121	0.073978	0.098552	0.17893	0.21908	0.061715	0.11427	0.13889	0.054935	0.25371	0.10287	0.14184	0.20258	-2.1646	-2.1063	-2.2542	-2.7708	-2.0417	-2.5312	-2.4938	-2.2	-2.5062	-2.2146	-2.4708	-2.6083	-2.0292	-2.3875	-2.1125	-2.2333	116.509	159.189	11.863	39.947	71.939	175.026	-140.322	141.238	136.762	-57.239	174.359	197.493	109.058	-101.175	-20.476	197.720	0.00017802	0.00041232	8.2003e-05	1067.4	1.5468e-06	3.4e-06	1138.2	226.36	1.7352e-06	2.1994e-06	282.24	80.022	62.186	18.424	1.3721e-06	26.209	0.00015264	0.00013315	3.7358e-05	1058.2	1.6905e-06	1.5342e-06	1126.3	224.61	1.6546e-06	1.4859e-06	281.47	80.873	62.686	18.635	1.5748e-06	26.521	-76.886	-28.487	-36.007	-133.812	7.901	-15.096	-133.555	-126.251	39.149	-0.389	-126.713	-120.301	-119.547	-112.732	23.701	-113.780	-8191	255	
21731.107	1	1	0	0	0.092868	0.034046	0.34882	0.099461	0.20246	0.11944	0.25614	0.18464	0.14674	0.087648	0.22474	0.22569	0.21881	0.079904	0.13918	0.22986	-2.2521	-2.3563	-2.3167	-2.4417	-2.1063	-2.3688	-2.4771	-2.1333	-2.6229	-2.2396	-2.3438	-2.4854	-2.0917	-2.425	-2.3521	-2.075	94.620	141.584	129.747	-32.362	-5.678	167.144	112.415	211.235	112.094	17.576	169.254	125.914	-84.960	60.437	115.885	46.836	0.0001823	0.00024989	8.5899e-05	1078.2	1.9882e-06	2.1184e-06	1136.2	225.53	2.3007e-06	2.5381e-06	282.75	80.161	62.008	18.346	2.5922e-06	26.109	0.00017215	0.00013918	4.0238e-05	1062.1	1.7378e-06	1.6414e-06	1128.1	224.64	1.6806e-06	1.5584e-06	281.93	80.751	62.678	18.574	1.6827e-06	26.431	-79.011	-55.021	-54.384	-133.409	-2.900	16.276	-133.709	-126.759	-16.460	-12.148	-126.950	-120.304	-120.139	-113.358	19.760	-113.707	-8191	255	
21731.227	1	1	0	0	0.10341	0.16361	0.18447	0.37057	0.10753	0.10886	0.20761	0.26267	0.067374	0.078902	0.033389	0.20293	0.24145	0.15143	0.076777	0.28708	-1.925	-2.3167	-2.1167	-2.6167	-2.1042	-2.3375	-2.5771	-2.0896	-2.6125	-2.2687	-2.2708	-2.4771	-2.1917	-2.4333	-2.4792	-2.2146	-51.741	-48.453	24.352	-124.309	213.530	-54.379	123.958	165.669	-112.368	-41.724	-96.841	134.382	-72.293	-143.512	92.897	161.236	0.00019548	0.00025589	7.6512e-05	1071.8	1.0902e-06	1.9764e-06	1136.9	224.9	2.4458e-06	2.7697e-06	284	79.809	62.88	18.472	2.7732e-06	26.194	0.0001696	0.00013673	4.0929e-05	1062.1	1.644e-06	1.4999e-06	1127	224.33	1.6302e-06	1.4132e-06	282.18	80.725	62.915	18.661	1.5047e-06	26.572	-81.322	-63.125	-55.029	-133.713	47.970	27.581	-133.534	-126.580	17.437	-11.491	-126.892	-120.265	-119.698	-112.449	7.068	-113.373	-8191	255	
21731.299	1	1	0	0	0.12384	0.23621	0.052878	0.065736	0.056298	0.16871	0.095902	0.20902	0.063051	0.21635	0.11668	0.088734	0.10855	0.1389	0.1884	0.27762	-2.1333	-2.2417	-1.9854	-2.5729	-2.2521	-2.2229	-2.4896	-2.2062	-2.3729	-2.4104	-2.3333	-2.7062	-2.2792	-2.1583	-2.5208	-2.25	-79.793	210.454	-135.559	-9.049	-129.659	43.731	117.667	130.644	210.651	-28.336	-108.259	131.257	69.339	22.423	162.969	20.338	0.00018975	0.00019932	8.287e-05	1074.7	1.954e-06	2.9369e-06	1134.9	225.79	2.4123e-06	3.1057e-06	281.1	80.133	62.57	18.376	1.8696e-06	26.087	0.00016365	0.00012734	3.6571e-05	1060.4	1.6355e-06	1.4658e-06	1125.5	223.98	1.5674e-06	1.4496e-06	281.39	80.886	62.773	18.579	1.5101e-06	26.474	-75.276	-29.602	-34.751	-133.771	-20.492	14.841	-133.527	-126.438	12.790	-7.656	-126.463	-120.566	-119.848	-112.425	7.609	-113.112	-8191	255	
21731.395	1	1	0	0	0.14697	0.14357	0.2127	0.25734	0.061607	0.33859	0.12594	0.12428	0.14374	0.06166	0.11878	0.27188	0.093396	0.17441	0.11617	0.15399	-2.0521	-2.2375	-2.0458	-2.8208	-2.3688	-2.2375	-2.5938	-2.25	-2.3708	-2.4521	-2.2271	-2.5312	-2.3167	-2.1833	-2.5104	-2.0979	163.639	180.167	39.928	134.818	139.502	-88.275	-106.677	164.801	170.799	-71.996	89.765	-109.769	-76.092	-135.706	85.807	207.670	0.00020019	0.00028172	4.7695e-05	1072.5	2.7e-06	2.3341e-06	1133.3	224.53	2.5652e-06	3.2444e-06	281.35	79.79	62.585	18.356	2.8297e-06	26.064	0.00015839	0.00013163	3.8606e-05	1058.6	1.6328e-06	1.4635e-06	1124.8	223.93	1.5448e-06	1.4567e-06	280.59	80.531	62.6	18.612	1.3891e-06	26.509	-86.758	-39.701	-89.080	-133.687	7.531	0.539	-133.638	-126.602	5.826	-1.142	-126.757	-120.305	-119.824	-112.510	-9.653	-113.349	-8191	255	
21731.490	1	1	0	0	0.26833	0.23315	0.21539	0.1321	0.34557	0.15359	0.053869	0.0090156	0.22224	0.11757	0.37634	0.40449	0.17881	0.17293	0.12904	0.15908	-1.9042	-2.3521	-1.9292	-2.5479	-2.3312	-2.2875	-2.5354	-2.2771	-2.4354	-2.4771	-2.125	-2.4854	-2.3646	-2.2062	-2.6854	-2.1729	15.665	-20.934	-26.754	197.150	-83.781	40.633	-99.424	55.675	138.868	-86.426	-108.124	179.907	78.561	-138.619	65.654	13.710	0.00019081	0.00029456	0.00010051	1067.7	3.1092e-06	4.1796e-06	1130.9	223.34	2.7014e-06	2.4191e-06	282.23	80.008	62.035	18.367	2.6392e-06	26.046	0.00015427	0.00011988	3.4434e-05	1055.7	1.4883e-06	1.4311e-06	1120.5	222.99	1.4449e-06	1.2513e-06	280.55	80.655	62.52	18.629	1.352e-06	26.488	-75.699	-72.889	-21.281	-133.561	25.505	0.979	-133.567	-126.516	22.481	7.787	-126.816	-119.978	-119.929	-112.998	24.515	-113.659	-8191	255	
21731.609	1	1	0	0	0.34553	0.38054	0.26947	0.36432	0.13588	0.26807	0.1636	0.18162	0.1218	0.068971	0.028108	0.13631	0.24433	0.18269	0.12819	0.21878	-1.8937	-2.3917	-2.1583	-2.4542	-2.1958	-2.0833	-2.325	-2.2521	-2.1021	-2.3104	-2.3229	-2.2896	-2.2521	-2.0167	-2.4688	-2.2417	-23.548	34.047	-37.633	154.048	-74.221	-16.626	169.724	166.976	124.319	-45.716	152.271	-131.506	-80.964	-22.305	197.876	163.082	0.00018284	0.00030769	6.9055e-05	1066.2	3.3751e-06	2.2456e-06	1124.3	223.72	2.1424e-06	3.934e-06	279.71	79.463	61.947	18.527	1.1252e-06	25.822	0.0001519	0.00012004	3.5778e-05	1053.1	1.5497e-06	1.354e-06	1116.1	223.09	1.5094e-06	1.3184e-06	279.47	80.275	62.268	18.59	1.4685e-06	26.33	-77.299	-50.317	-61.988	-133.590	14.786	7.051	-133.515	-126.535	20.071	12.672	-126.987	-120.107	-119.973	-112.830	20.960	-113.755	-8191	255	
21731.705	1	1	0	0	0.091286	0.12631	0.11245	0.13739	0.36442	0.096614	0.22901	0.23947	0.14792	0.40217	0.053645	0.12578	0.29912	0.14268	0.092123	0.35673	-1.8	-2.4854	-2.1583	-2.45	-2.3896	-2.1521	-2.5979	-2.3312	-2.0875	-2.5396	-2.2521	-2.3438	-2.55	-2.2083	-2.5042	-2.3354	-49.184	3.662	-80.299	50.566	84.260	-94.069	112.302	-89.561	-128.771	94.555	25.903	-89.194	-19.203	169.529	61.753	199.852	0.00020587	0.00040298	6.9053e-05	1063.4	1.4087e-06	4.315e-06	1126.3	224.25	3.3671e-06	4.77e-06	280.62	79.809	61.922	18.408	2.6568e-06	25.984	0.00016233	0.00013266	3.7237e-05	1052.4	1.645e-06	1.4869e-06	1116.2	222.78	1.6613e-06	1.4214e-06	279.32	80.375	62.299	18.552	1.4157e-06	26.278	-79.459	-51.266	-7.272	-133.632	-26.424	-23.285	-133.667	-126.918	23.472	21.839	-126.951	-120.139	-119.983	-112.922	11.949	-113.395	-8191	255	
21731.803	1	1	0	0	0.13455	0.28039	0.060204	0.51908	0.17707	0.41132	0.37344	0.29335	0.097164	0.14853	0.2509	0.20677	0.044647	0.06538	0.2003	0.17274	-1.6083	-2.3812	-2.2292	-2.4917	-2.5771	-2.1625	-2.6125	-2.3354	-2.1688	-2.6146	-2.3083	-2.1958	-2.45	-2.05	-2.4729	-2.3125	-3.825	62.553	-138.732	187.404	212.099	-13.809	149.283	97.040	52.698	-122.405	172.858	175.382	68.605	192.456	-50.958	143.133	0.00016721	0.00022435	6.2135e-05	1059.4	2.3329e-06	2.4153e-06	1127.6	222.7	2.5022e-06	3.3015e-06	279.64	79.92	61.924	18.293	2.9803e-06	26.093	0.00015974	0.00013078	3.7634e-05	1049.8	1.665e-06	1.4757e-06	1116.5	222.02	1.5855e-06	1.3428e-06	279.22	80.476	62.305	18.533	1.4307e-06	26.344	-77.355	-40.470	-46.756	-133.767	11.766	16.349	-133.546	-126.653	16.864	8.846	-126.787	-120.016	-119.719	-112.840	22.217	-113.314	-8191	255	
21731.898	1	1	0	0	0.099952	0.11388	0.090279	0.36994	0.22808	0.1806	0.14803	0.24794	0.38245	0.11451	0.096342	0.2451	0.21527	0.098845	0.18052	0.19363	-1.6854	-2.3875	-2.1417	-2.2292	-2.5458	-2.3458	-2.3917	-2.5	-2.1208	-2.4688	-2.3812	-2.2583	-2.5521	-2.1854	-2.1208	-2.3396	-31.391	106.567	106.383	125.415	26.603	178.472	190.298	-104.898	163.706	22.642	-80.181	124.686	-130.908	-74.639	-97.877	-79.415	0.00019358	0.00028469	0.00012813	1064.1	2.7049e-06	2.8582e-06	1123.1	222.79	2.5055e-06	3.373e-06	279.67	79.266	61.696	18.224	1.3108e-06	25.991	0.0001643	0.00013436	3.7039e-05	1051.2	1.7002e-06	1.5653e-06	1114	222.18	1.6437e-06	1.477e-06	279.05	79.902	62.169	18.467	1.5873e-06	26.236	-79.758	-49.142	-59.486	-133.803	-2.856	2.769	-133.482	-126.561	10.832	18.430	-126.738	-120.421	-119.663	-113.002	20.632	-113.592	-8191	255	
21731.994	1	1	0	0	0.33505	0.21884	0.13497	0.35084	0.23711	0.21416	0.033593	0.20352	0.098289	0.17364	0.12009	0.31785	0.050152	0.13827	0.090152	0.32565	-1.55	-2.3396	-2.275	-2.2438	-2.5979	-2.2396	-2.5958	-2.4646	-2.0812	-2.325	-2.4604	-2.0917	-2.625	-2.3063	-2.2292	-2.5521	5.443	-16.083	104.062	-62.470	88.304	73.324	168.816	-113.384	213.404	144.754	107.964	111.877	-101.195	88.444	-35.336	-139.203	0.00018712	0.0004174	6.0152e-05	1068.1	3.3002e-06	1.3151e-06	1125.4	223.26	3.2856e-06	3.6113e-06	281.18	79.354	62.333	18.32	7.2874e-07	25.886	0.00017039	0.00014109	4.1536e-05	1051.4	1.7078e-06	1.5984e-06	1114.6	222.24	1.748e-06	1.5528e-06	279.97	80.137	62.386	18.493	1.5952e-06	26.152	-80.610	-63.566	-30.801	-133.638	2.334	45.673	-133.698	-126.467	-12.015	-11.391	-126.738	-119.639	-119.862	-113.024	36.434	-113.603	-8191	255	
21732.092	1	1	0	0	0.10794	0.39129	0.0775	0.32705	0.095527	0.13035	0.31217	0.20479	0.10514	0.1953	0.050476	0.066103	0.2391	0.1789	0.12264	0.33649	-1.6979	-2.2979	-2.3083	-2.1896	-2.6396	-2.0958	-2.6125	-2.5042	-2.2375	-2.4083	-2.3438	-2.1833	-2.5104	-2.2271	-2.2562	-2.4771	204.397	194.502	-72.634	-112.766	104.471	-137.762	138.882	-101.253	-35.827	-130.722	48.534	36.342	-118.179	-48.472	185.580	-41.565	0.00019339	0.00011381	5.0697e-05	1065.6	1.5603e-06	2.5881e-06	1130.7	223.32	3.6555e-06	2.3348e-06	280.08	79.494	62.203	18.221	1.9e-06	25.836	0.00017231	0.00013872	3.8683e-05	1051.8	1.6633e-06	1.5548e-06	1115	222.27	1.6416e-06	1.4544e-06	279.97	80.086	62.348	18.463	1.4661e-06	26.176	-77.043	-35.561	-29.899	-133.669	7.695	1.235	-133.784	-126.283	-5.559	2.747	-127.054	-120.273	-119.839	-112.432	-10.708	-113.231	-8191	255	
21732.213	1	1	0	0	0.17988	0.091343	0.18454	0.1231	0.23918	0.40606	0.4552	0.18162	0.065348	0.14118	0.18932	0.08626	0.056402	0.21327	0.0072952	0.16995	-1.5979	-2.4417	-2.3375	-2.2146	-2.3833	-2.2354	-2.3271	-2.525	-2.1208	-2.4083	-2.3667	-2.2333	-2.3937	-2.4042	-2.0438	-2.3479	85.001	-31.465	-67.671	177.408	66.988	37.195	166.657	110.473	-10.127	-132.152	-133.755	-48.885	4.172	-81.154	80.599	-60.893	0.00018714	0.00032685	6.9282e-05	1064	2.1053e-06	4.0051e-06	1126.3	224.4	2.9384e-06	2.9161e-06	278.18	79.75	62.021	18.104	1.9049e-06	25.851	0.00017036	0.00013475	3.6904e-05	1053.3	1.6733e-06	1.6065e-06	1115.2	222.39	1.5587e-06	1.5922e-06	278.98	80.127	62.371	18.434	1.5477e-06	26.244	-80.343	-50.553	-38.078	-133.646	25.193	19.558	-133.451	-126.467	2.661	20.913	-126.729	-120.355	-119.731	-112.917	1.517	-113.585	-8191	255	
21732.309	1	1	0	0	0.06928	0.24189	0.16888	0.19633	0.16146	0.22449	0.07779	0.10044	0.19275	0.15823	0.10661	0.27979	0.036148	0.15059	0.17133	0.19385	-1.6938	-2.2188	-2.4437	-2.1417	-2.4062	-2.5062	-2.3667	-2.6042	-2.0812	-2.2417	-2.5812	-2.2146	-2.3521	-2.3521	-2.1875	-2.4625	152.303	43.350	124.851	150.321	-76.099	158.969	214.683	199.773	31.587	-125.042	-57.107	109.989	-78.333	-18.178	45.727	-57.056	0.00019816	0.00025382	8.5144e-05	1065.1	2.3424e-06	3.3017e-06	1121.3	222.71	3.4248e-06	4.7305e-06	280.65	79.873	61.884	18.309	3.71e-06	25.863	0.00016616	0.00013264	3.6047e-05	1052.2	1.5476e-06	1.3711e-06	1114.9	222.22	1.5587e-06	1.3888e-06	279.82	80.188	62.304	18.507	1.5748e-06	26.185	-75.895	-44.655	-63.212	-133.624	58.086	32.956	-133.639	-126.419	14.398	11.402	-126.486	-120.342	-119.807	-112.879	15.096	-113.399	-8191	255	
21732.404	1	1	0	0	0.054659	0.28693	0.1051	0.16594	0.16917	0.2519	0.23972	0.14536	0.10291	0.14632	0.09227	0.17776	0.043507	0.29085	0.11331	0.21756	-1.5854	-2.0542	-2.3312	-2.2396	-2.4542	-2.3167	-2.2792	-2.6083	-2.1292	-2.1521	-2.6021	-2.2417	-2.4646	-2.4021	-2.1562	-2.5062	-103.573	114.415	-7.926	115.552	-10.186	68.426	139.155	-4.890	150.857	175.176	131.352	210.567	17.110	84.629	-94.181	201.703	0.00017573	0.00026787	6.9439e-05	1063	2.746e-06	3.2587e-06	1125.5	223.68	1.7788e-06	1.7323e-06	281.71	79.864	62.273	18.314	3.5401e-06	25.949	0.0001646	0.00013367	3.7237e-05	1050.2	1.5626e-06	1.5004e-06	1114.8	222.72	1.5669e-06	1.4071e-06	279.87	80.294	62.33	18.481	1.6161e-06	26.25	-75.703	-34.579	-32.035	-133.751	6.964	11.112	-133.582	-126.572	-4.385	-4.502	-126.958	-120.227	-120.082	-112.590	11.229	-113.465	-8191	255	
21732.500	1	1	0	0	0.24502	0.17015	0.020282	0.23885	0.18479	0.045843	0.41115	0.23997	0.16323	0.059715	0.25397	0.29229	0.17424	0.10824	0.23449	0.085385	-1.9521	-2.0958	-2.5687	-2.2833	-2.1146	-2.3604	-2.0167	-2.4396	-2.2062	-2.0938	-2.4375	-2.1458	-2.2896	-2.4958	-2.0312	-2.4583	88.207	-98.048	211.613	167.242	214.674	145.407	189.534	-120.108	10.146	202.580	-94.785	160.149	195.770	193.991	172.261	183.558	0.00019207	0.00023824	9.7386e-05	1067.1	3.2992e-06	2.0404e-06	1127.3	222.37	1.9485e-06	2.3861e-06	279.3	79.978	61.678	18.215	1.5861e-06	25.677	0.00016336	0.00013126	3.581e-05	1053.1	1.5731e-06	1.4339e-06	1115.8	221.94	1.558e-06	1.5022e-06	279.17	80.287	62.205	18.483	1.544e-06	26.215	-84.884	-57.375	-50.944	-133.718	5.254	26.853	-133.543	-126.731	-12.674	4.598	-127.136	-120.459	-119.967	-112.932	-31.152	-112.969	-8191	255	
21732.596	1	1	0	0	0.10764	0.19468	0.028616	0.28447	0.23524	0.16132	0.25683	0.057471	0.13295	0.16571	0.063028	0.3747	0.11437	0.137	0.31818	0.1315	-1.9354	-2.1875	-2.3292	-2.3958	-2.4417	-2.5146	-2.1521	-2.4062	-2.1833	-1.9646	-2.6354	-2.2375	-2.1458	-2.4979	-2.4854	-2.5958	-86.772	204.886	6.750	139.227	-78.977	-26.983	74.987	65.755	203.035	157.783	-102.150	179.116	-126.859	-96.469	208.438	95.729	0.00019331	0.00027817	0.00010606	1063.5	1.4132e-06	3.2142e-06	1125.1	221.61	1.913e-06	2.0496e-06	279.79	79.096	61.954	18.189	2.5737e-06	25.675	0.00016003	0.00013002	3.4569e-05	1051	1.5533e-06	1.2978e-06	1114.2	221.68	1.3912e-06	1.3718e-06	278.85	80	62.098	18.396	1.382e-06	26.13	-75.030	-65.838	-65.647	-133.711	28.553	21.196	-133.654	-126.292	22.492	-1.972	-127.017	-120.040	-119.823	-112.960	14.932	-113.609	-8191	255	
21732.691	1	1	0	0	0.084159	0.2131	0.16532	0.17012	0.10051	0.097992	0.18173	0.084295	0.14711	0.1823	0.35299	0.14341	0.22847	0.080785	0.23084	0.17357	-1.9542	-2	-2.4667	-2.4104	-2.2687	-2.6125	-2.1375	-2.5354	-2.4437	-2.1167	-2.5271	-2.1646	-2.0083	-2.6813	-2.0438	-2.2	34.610	8.544	-102.796	62.646	20.208	75.704	165.448	181.994	184.980	100.451	156.593	172.710	-97.163	12.419	-130.275	131.865	0.00018024	0.00021104	9.4491e-05	1049.8	2.396e-06	3.4135e-06	1113.7	222.51	2.0365e-06	3.1277e-06	279.28	79.291	61.46	18.181	1.6348e-06	25.956	0.00015077	0.00011311	3.1965e-05	1038.8	1.5059e-06	1.2436e-06	1103.2	221.25	1.3428e-06	1.3494e-06	278.33	79.868	62.072	18.399	1.3335e-06	26.147	-75.809	-64.148	-75.242	-133.704	-7.227	3.559	-133.372	-126.483	-8.718	3.265	-126.810	-120.412	-119.869	-113.172	18.361	-113.266	-8191	255	
21732.787	1	1	0	0	0.27019	0.14408	0.075825	0.078325	0.31683	0.29089	0.07833	0.27648	0.10351	0.19402	0.23309	0.15954	0.093187	0.10046	0.070081	0.15722	-1.8396	-2.0146	-2.2729	-2.4396	-2.0875	-2.4146	-2.3854	-2.2083	-2.3312	-1.9521	-2.3792	-2.4646	-2.0938	-2.4854	-2.1188	-2.3396	70.084	68.798	-127.519	-130.370	69.794	100.948	149.580	145.923	-85.250	110.014	-42.921	-141.001	-48.730	70.800	-85.110	189.761	0.00018492	0.00034056	8.416e-05	1053.8	2.5055e-06	2.2785e-06	1116.9	222.65	1.371e-06	2.108e-06	279.4	79.086	61.517	18.176	7.4977e-07	25.725	0.00015178	0.00013012	3.6623e-05	1041.7	1.5366e-06	1.3273e-06	1106.5	221.22	1.4884e-06	1.4887e-06	278.95	79.873	62.043	18.374	1.4835e-06	26.116	-76.373	-41.877	-33.071	-133.754	-6.314	-18.170	-133.444	-126.591	-12.749	11.768	-127.154	-120.288	-119.791	-112.878	26.733	-113.132	-8191	255	
21732.906	1	1	0	0	0.3999	0.26054	0.15878	0.26331	0.18636	0.14336	0.32695	0.10471	0.12844	0.030224	0.27405	0.14629	0.45225	0.22677	0.13014	0.1458	-1.9375	-1.9979	-2.2625	-2.4604	-2.0146	-2.7125	-2.3	-2.0271	-2.3729	-2.0687	-2.2458	-2.5208	-1.8667	-2.5375	-2.2583	-2.2771	-56.536	58.791	182.078	204.408	-78.440	-120.189	174.468	189.265	82.686	206.908	120.909	156.295	1.474	-85.945	-7.208	-76.482	0.00017562	0.0001608	8.287e-05	1054.7	3.0706e-06	2.7362e-06	1115.4	221.85	2.6135e-06	2.2033e-06	280.15	79.023	61.684	18.066	2.6289e-06	25.776	0.0001563	0.00013317	3.3897e-05	1043.9	1.5383e-06	1.2935e-06	1107	221.43	1.3859e-06	1.353e-06	278.68	79.735	62.052	18.34	1.408e-06	26.163	-82.738	-41.816	-56.310	-133.788	1.984	9.999	-133.357	-126.385	-5.381	-7.657	-126.826	-120.114	-119.720	-113.112	9.827	-113.404	-8191	255	
21733.004	1	1	0	0	0.21882	0.092703	0.019895	0.12781	0.25521	0.14642	0.34285	0.18737	0.30645	0.34289	0.23886	0.048469	0.0731	0.048767	0.26628	0.031951	-1.8917	-2.0833	-2.475	-2.5167	-2.2021	-2.5375	-2.4729	-2.075	-2.4062	-2.1354	-2.325	-2.3646	-2.0042	-2.5708	-2.2708	-2.125	-66.742	69.228	-109.967	-75.862	69.988	176.138	144.107	-90.494	118.132	28.569	198.149	3.431	-105.239	-64.276	160.138	-141.555	0.00020211	0.00035298	8.4795e-05	1056.7	1.5601e-06	2.5723e-06	1116.4	221.3	2.5939e-06	2.9512e-06	280.5	78.889	61.663	18.069	2.3424e-06	25.828	0.00015789	0.00012615	3.4498e-05	1043.9	1.6376e-06	1.337e-06	1107.4	221.18	1.4251e-06	1.4242e-06	278.91	79.965	62.067	18.356	1.4272e-06	26.156	-81.976	-45.571	-74.736	-133.657	-19.030	19.526	-133.314	-126.838	11.471	12.911	-126.715	-120.395	-119.521	-112.608	3.829	-113.308	-8191	255	
21733.100	1	1	0	0	0.088687	0.21822	0.25082	0.20271	0.14599	0.15378	0.21316	0.28841	0.30563	0.25962	0.17504	0.14935	0.085997	0.25175	0.22884	0.38011	-2.0583	-2.1292	-2.2021	-2.6396	-1.9042	-2.4813	-2.4188	-2.2208	-2.475	-2.1813	-2.3417	-2.5187	-2.1521	-2.3625	-2.2604	-2.0979	-49.541	209.438	88.470	-45.919	-132.775	-28.999	175.828	145.485	-107.262	-130.059	78.659	-131.610	211.081	164.182	123.473	73.268	0.00018302	0.00023824	6.7722e-05	1055.7	3.1654e-06	2.4401e-06	1116.9	221.8	2.3193e-06	3.7206e-06	279.82	79.443	62.026	18.269	1.6295e-06	25.703	0.00015461	0.0001334	3.5266e-05	1045.6	1.6062e-06	1.3785e-06	1108.3	221.36	1.4855e-06	1.3085e-06	278.99	80.008	62.258	18.424	1.3001e-06	26.148	-80.943	-52.825	-31.060	-133.738	17.836	-5.852	-133.597	-126.432	15.686	-6.203	-126.930	-120.352	-119.984	-112.730	21.006	-113.479	-8191	255	
21733.172	1	1	0	0	0.11918	0.06618	0.1419	0.09541	0.22322	0.050925	0.19933	0.14133	0.20107	0.016052	0.17051	0.4143	0.078639	0.097201	0.18266	0.089467	-2.0875	-2.1958	-2.0875	-2.5833	-2.1729	-2.5062	-2.4125	-1.9896	-2.3896	-2.1792	-2.35	-2.2771	-2.2354	-2.3729	-2.3563	-2.0792	-133.783	-47.881	-81.510	122.672	149.972	64.648	68.911	171.983	-56.844	-30.656	127.498	157.904	-95.763	0.436	133.191	-135.593	0.00020857	0.00028922	6.0422e-05	1058.7	3.0216e-06	3.2315e-06	1121.2	223.92	2.9906e-06	2.8259e-06	280.23	80.057	62.286	18.219	2.4592e-06	25.696	0.00014685	0.00012374	3.3852e-05	1045.4	1.5286e-06	1.2713e-06	1108.4	221.8	1.4829e-06	1.2793e-06	278.89	80.15	62.322	18.368	1.4329e-06	26.124	-80.672	-60.609	-25.276	-133.796	16.426	1.507	-133.567	-126.481	-5.535	9.823	-126.740	-120.269	-119.641	-112.540	48.260	-113.180	-8191	255	
21733.293	1	1	0	0	0.050308	0.089788	0.17421	0.31907	0.050638	0.046606	0.051874	0.26215	0.17616	0.22176	0.074107	0.12871	0.083937	0.065535	0.14511	0.0724	-2.1625	-2.3542	-2.0729	-2.4792	-2.1875	-2.2771	-2.6375	-2.0438	-2.3646	-2.35	-2.1479	-2.6354	-2.0458	-2.2521	-2.4375	-2.2188	48.320	-106.302	-142.252	195.177	148.035	-26.652	173.626	136.690	176.949	76.326	150.067	165.252	41.684	24.297	-143.061	-80.416	0.00017964	0.00021716	0.00011199	1062.1	2.2903e-06	2.6672e-06	1124	221.7	2.5276e-06	2.1682e-06	279.54	79.169	62.406	18.199	1.8374e-06	25.614	0.00015561	0.0001348	3.7115e-05	1047.6	1.5362e-06	1.3846e-06	1112.3	221.4	1.4973e-06	1.3662e-06	278.9	80.037	62.359	18.433	1.437e-06	26.133	-83.641	-59.824	-76.464	-133.899	5.195	-2.801	-133.338	-126.424	5.768	23.602	-126.678	-119.948	-120.141	-113.066	16.057	-112.949	-8191	255	
21733.389	1	1	0	0	0.14124	0.13208	0.36653	0.25179	0.11428	0.022818	0.105	0.13948	0.45832	0.22894	0.31266	0.038195	0.15588	0.29518	0.28353	0.31096	-2.0458	-2.2208	-2.0917	-2.525	-2.1583	-2.2958	-2.6417	-2.1875	-2.4625	-2.3438	-2.1083	-2.4583	-2.1458	-2.3375	-2.3833	-1.9333	-143.594	14.727	111.562	182.941	154.256	47.285	-11.927	131.464	105.758	-28.305	-108.842	164.884	47.115	155.698	-88.171	-1.104	0.00018215	0.00022419	0.0001017	1056.8	1.383e-06	3.5218e-06	1120.6	221.72	1.0357e-06	3.3512e-06	279.08	79.948	62.118	18.351	2.6288e-06	26.105	0.00015871	0.00012695	3.5081e-05	1046.7	1.589e-06	1.3703e-06	1108.6	221.53	1.4046e-06	1.3393e-06	278.14	80.081	62.333	18.423	1.3414e-06	26.195	-73.916	-56.405	-35.636	-133.550	-7.076	16.508	-133.437	-126.758	-31.868	13.264	-126.996	-120.237	-119.801	-112.737	1.653	-113.469	-8191	255	
21733.484	1	1	0	0	0.17646	0.22313	0.087481	0.1404	0.093914	0.14831	0.42684	0.15292	0.18006	0.18256	0.15033	0.34377	0.16601	0.15904	0.27981	0.091691	-1.8438	-2.475	-2.0917	-2.4792	-2.1521	-2.1646	-2.4292	-2.1583	-2.375	-2.2438	-2.1083	-2.3646	-2.3479	-2.0812	-2.4625	-2.3292	-36.592	56.856	142.682	121.919	191.220	114.928	190.306	128.588	140.732	52.989	-77.588	15.458	175.212	-135.818	71.843	-82.449	0.0001998	0.00031359	4.6657e-05	1056.7	3.1081e-06	2.5171e-06	1119.1	222.15	1.8271e-06	2.9456e-06	279.55	79.188	61.836	18.237	2.9757e-06	25.783	0.00015783	0.0001275	3.7832e-05	1045.2	1.5838e-06	1.4973e-06	1108.4	221.43	1.5055e-06	1.4913e-06	278.84	79.873	62.136	18.421	1.4548e-06	26.198	-79.945	-40.687	-25.030	-133.787	21.265	13.182	-133.578	-126.770	-21.126	26.485	-126.726	-120.071	-120.103	-112.505	31.617	-113.421	-8191	255	
21733.580	1	1	0	0	0.13398	0.26785	0.2056	0.24082	0.089471	0.084576	0.27937	0.13076	0.30502	0.16543	0.17322	0.21925	0.03288	0.14923	0.12522	0.20852	-1.9271	-2.2708	-2.0333	-2.5917	-2.4708	-2.1354	-2.4792	-1.9458	-2.3917	-2.3771	-1.9708	-2.2146	-2.2792	-1.9792	-2.5104	-2.3875	72.246	-124.107	103.426	211.144	30.435	-130.235	158.099	195.170	139.391	-13.083	127.691	174.402	-114.960	107.409	206.130	83.614	0.00018056	0.00025175	8.8275e-05	1059.4	3.8774e-06	3.2305e-06	1121	221.95	2.1352e-06	3.3063e-06	280.04	79.126	61.866	18.382	2.8025e-06	25.787	0.00015889	0.00012973	3.8587e-05	1047.7	1.7576e-06	1.5243e-06	1110.7	221.66	1.7193e-06	1.4783e-06	278.91	80.046	62.178	18.461	1.6121e-06	26.139	-81.982	-36.931	-53.475	-133.563	28.485	-15.824	-133.557	-126.673	8.723	0.912	-127.084	-120.102	-119.957	-113.086	-6.775	-113.517	-8191	255	
21733.701	1	1	0	0	0.032284	0.18188	0.096003	0.34507	0.11517	0.11547	0.13223	0.27004	0.16226	0.077539	0.18879	0.23142	0.21242	0.093553	0.25467	0.18889	-1.5521	-2.5125	-1.9229	-2.4646	-2.2333	-1.9479	-2.5146	-2.3333	-1.95	-2.4917	-2.0625	-2.2792	-2.3896	-2.1417	-2.4813	-2.2125	-57.792	48.780	70.294	96.901	-132.207	37.313	118.597	107.850	212.135	150.219	147.142	154.602	130.591	-39.515	123.295	68.791	0.00017598	0.00039703	9.512e-05	1058.4	2.7557e-06	2.842e-06	1123.6	222.39	3.2321e-06	8.6603e-07	278.71	79.586	61.832	18.235	2.1699e-06	25.831	0.00016365	0.00014056	4.1101e-05	1048.2	1.7143e-06	1.5938e-06	1113.3	222.19	1.7172e-06	1.4399e-06	278.8	80.225	62.31	18.432	1.4845e-06	26.145	-79.413	-22.017	-63.302	-133.648	17.453	12.217	-133.174	-126.808	-5.959	10.243	-126.705	-120.232	-119.790	-113.083	21.868	-113.401	-8191	255	
21733.797	1	1	0	0	0.27207	0.22422	0.10147	0.039607	0.11191	0.062434	0.27335	0.26728	0.13392	0.23177	0.030118	0.13023	0.33311	0.15239	0.11824	0.075899	-1.7167	-2.5104	-2.1375	-2.6021	-2.3146	-2.075	-2.3875	-2.3542	-1.9729	-2.625	-1.9396	-2.2875	-2.4396	-2.0271	-2.4792	-2.3688	13.911	-27.461	-120.704	-13.313	-7.125	86.904	194.301	119.579	5.417	133.082	107.661	32.365	-8.964	106.862	158.693	92.270	0.00017953	0.00029632	6.3865e-05	1054.3	8.3382e-07	3.5386e-06	1124.5	222.73	1.672e-06	1.7572e-06	281.4	79.439	61.906	18.192	2.147e-06	25.776	0.00015957	0.00013891	3.8542e-05	1047.6	1.6316e-06	1.5093e-06	1112.8	221.57	1.702e-06	1.5774e-06	279.33	80.114	62.182	18.421	1.4951e-06	26.132	-79.148	-56.473	-42.990	-133.792	37.749	-9.553	-133.513	-126.754	15.103	20.356	-126.734	-120.306	-119.972	-112.771	22.106	-113.346	-8191	255	
21733.893	1	1	0	0	0.1313	0.21099	0.27675	0.15487	0.087239	0.17594	0.020761	0.094544	0.037175	0.09127	0.11363	0.15612	0.093711	0.14813	0.1766	0.081252	-1.5458	-2.4021	-2.2562	-2.4458	-2.4521	-2.1437	-2.5438	-2.2292	-1.9917	-2.4354	-2.3083	-2.3604	-2.5104	-2.1833	-2.4396	-2.5187	65.678	-25.180	-104.462	81.614	-11.095	-126.433	-57.819	197.383	-127.746	74.172	-111.960	-87.466	192.293	-74.607	-114.048	108.294	0.00018772	0.00025341	7.9946e-05	1061.4	2.9929e-06	3.005e-06	1118.8	222.61	2.1237e-06	4.0441e-06	281.57	79.702	62.07	18.137	2.681e-06	25.85	0.00016289	0.00013037	3.8369e-05	1049.3	1.6902e-06	1.59e-06	1111.6	222.34	1.7436e-06	1.503e-06	279.36	80.265	62.304	18.402	1.6271e-06	26.207	-79.289	-36.857	-57.873	-133.574	4.292	13.662	-133.635	-126.670	16.604	21.420	-126.895	-119.925	-119.720	-112.916	-5.352	-113.485	-8191	255	
21733.988	1	1	0	0	0.11555	0.17674	0.10996	0.25565	0.25079	0.2093	0.079894	0.15063	0.30691	0.24141	0.17982	0.31225	0.15902	0.24486	0.25906	0.11009	-1.7458	-2.3958	-2.2229	-2.2938	-2.4875	-2.0729	-2.3	-2.3021	-1.975	-2.3563	-2.2	-2.2167	-2.4958	-2.0292	-2.4062	-2.2812	173.039	-44.506	117.874	-127.158	-63.882	119.750	83.445	-26.773	196.533	11.629	41.576	189.311	142.890	54.035	-116.543	53.710	0.00018413	0.00040221	6.2305e-05	1056.8	2.0426e-06	1.8781e-06	1119.7	223.25	2.5323e-06	2.967e-06	279.85	79.645	61.936	18.094	2.6301e-06	25.814	0.00016555	0.00014602	4.0366e-05	1047.4	1.7135e-06	1.579e-06	1112.2	222.01	1.6596e-06	1.4841e-06	278.73	80.372	62.429	18.384	1.5489e-06	26.155	-81.608	-43.151	-62.281	-133.781	26.955	10.109	-133.425	-126.637	-6.690	22.358	-126.962	-120.197	-119.584	-112.847	28.252	-113.526	-8191	255	
21734.084	1	1	0	0	0.28963	0.13964	0.27103	0.17438	0.023154	0.15713	0.31574	0.11575	0.14025	0.069374	0.13582	0.31696	0.26523	0.16407	0.15001	0.15221	-1.6333	-2.4604	-2.0875	-2.2125	-2.3438	-1.975	-2.4146	-2.4188	-2.0417	-2.4583	-2.3812	-2.1937	-2.2854	-2.1458	-2.2458	-2.475	-110.377	105.725	118.468	-124.681	-100.813	-110.846	139.141	85.714	155.775	130.940	-67.415	148.529	203.339	-141.647	-85.995	14.480	0.00017999	0.00020972	7.8898e-05	1059.5	2.6471e-06	3.9718e-06	1124.6	222.77	2.8022e-06	2.7859e-06	280.09	79.437	61.531	18.248	3.0767e-06	25.925	0.00017198	0.00013535	3.9707e-05	1050.2	1.6262e-06	1.5006e-06	1115.3	222.08	1.6719e-06	1.5553e-06	279.55	80.318	62.127	18.454	1.6478e-06	26.202	-78.468	-56.253	-54.516	-133.692	-21.578	13.420	-133.401	-126.805	35.399	28.815	-126.807	-119.896	-119.820	-112.744	35.593	-113.492	-8191	255	
21734.180	1	1	0	0	0.15813	0.21063	0.051618	0.29054	0.15714	0.19088	0.22918	0.34595	0.1657	0.070523	0.041226	0.099599	0.084605	0.23964	0.17448	0.24202	-1.7083	-2.4458	-2.1479	-2.2	-2.5229	-2.1458	-2.3583	-2.5146	-2.0042	-2.5062	-2.5125	-2.0729	-2.3896	-2.1854	-2.1021	-2.4792	139.799	46.460	-98.550	170.773	158.953	-108.865	141.691	-130.970	-88.115	117.389	-95.074	-66.349	215.198	102.006	104.146	112.473	0.00018085	0.00020931	9.4678e-05	1066.8	9.093e-07	2.3766e-06	1125.4	224.11	3.5128e-06	3.3043e-06	281.21	79.497	61.831	18.265	1.4273e-06	25.895	0.00016501	0.00013315	3.8568e-05	1053	1.7124e-06	1.5398e-06	1115.4	222.51	1.6668e-06	1.5337e-06	279.55	80.343	62.351	18.467	1.574e-06	26.236	-86.020	-61.298	-62.640	-133.680	6.532	18.904	-133.440	-126.342	-2.575	15.710	-126.750	-120.269	-120.284	-112.762	-7.523	-113.314	-8191	255	
21734.301	1	1	0	0	0.066446	0.046392	0.13616	0.26021	0.1378	0.14141	0.13176	0.20699	0.14015	0.08634	0.19589	0.22237	0.25902	0.13203	0.027495	0.20939	-1.6104	-2.0938	-2.4229	-2.0729	-2.2979	-2.2833	-2.1667	-2.5375	-2.1417	-2.4667	-2.3375	-2.0438	-2.5208	-2.2313	-2.1146	-2.5438	-93.937	15.668	-11.476	214.447	31.313	-49.643	194.617	162.828	10.066	54.266	213.271	-19.998	-36.260	82.349	-52.711	125.513	0.0001867	0.00023275	0.00010475	1066.2	2.2765e-06	2.515e-06	1128.7	223.74	1.0476e-06	3.1367e-06	279.57	79.827	62.011	18.242	2.4471e-06	26.057	0.00016694	0.00013413	3.9048e-05	1052.1	1.6628e-06	1.5144e-06	1118	222.47	1.5388e-06	1.5088e-06	279.67	80.387	62.287	18.498	1.5689e-06	26.208	-75.413	-40.041	-45.542	-133.746	-22.146	-7.788	-133.434	-126.587	-2.364	30.174	-126.642	-120.389	-120.061	-112.672	24.392	-113.362	-8191	255	
21734.396	1	1	0	0	0.23369	0.2261	0.14736	0.16746	0.13541	0.11821	0.12962	0.20254	0.037632	0.22434	0.14567	0.094556	0.052588	0.16245	0.16414	0.21277	-1.6333	-2.225	-2.375	-2.0729	-2.3167	-2.2792	-2.2	-2.6542	-2.1167	-2.1958	-2.5125	-2.175	-2.3563	-2.1792	-2.0396	-2.4437	-60.175	22.147	134.771	183.909	-102.026	-127.128	204.415	194.463	144.819	-52.905	141.010	-103.003	-78.243	-71.171	-84.084	-84.127	0.00019867	0.00027934	6.0688e-05	1061.7	3.2101e-06	2.8204e-06	1120.5	223.09	2.8607e-06	3.5091e-06	280.21	79.184	62.341	18.189	2.271e-06	25.88	0.00016894	0.00013721	3.6443e-05	1052.4	1.6355e-06	1.5818e-06	1114.3	222.56	1.5279e-06	1.5909e-06	279.47	80.063	62.451	18.446	1.5096e-06	26.261	-78.255	-58.164	-42.176	-133.470	30.961	11.400	-133.397	-126.662	2.581	14.334	-126.711	-120.289	-120.068	-112.659	2.162	-113.260	-8191	255	
21734.469	1	1	0	0	0.18349	0.049337	0.20362	0.24682	0.27488	0.18302	0.20591	0.16005	0.15926	0.24225	0.31696	0.099924	0.21695	0.13994	0.16063	0.21595	-1.8104	-2.1646	-2.5438	-2.1937	-2.4375	-2.2083	-2.2167	-2.5979	-2.1792	-2.1646	-2.6917	-2.1479	-2.3042	-2.2542	-2.0625	-2.4125	152.589	141.503	59.543	152.492	61.079	170.548	162.856	156.438	113.970	45.903	-95.901	-47.930	-16.776	155.720	28.140	-16.489	0.00018037	0.00030698	6.3873e-05	1068.4	1.3826e-06	1.7663e-06	1124.4	222.66	1.9058e-06	2.9834e-06	281.93	80.003	62.486	18.392	2.1821e-06	26.005	0.00016301	0.00013787	3.8548e-05	1052	1.5874e-06	1.5113e-06	1112.8	222.38	1.5638e-06	1.5716e-06	280.05	80.464	62.483	18.495	1.6045e-06	26.31	-77.770	-70.219	-57.832	-133.766	-41.229	-14.213	-133.402	-126.608	-4.229	-8.883	-127.110	-120.147	-119.844	-112.848	16.375	-113.383	-8191	255	
21734.564	1	1	0	0	0.052632	0.22472	0.15009	0.19318	0.14111	0.13393	0.21499	0.354	0.28189	0.20264	0.090904	0.19791	0.28889	0.24428	0.077307	0.073285	-1.8146	-1.9958	-2.5042	-2.2354	-2.3417	-2.2542	-2.1354	-2.5062	-2.2771	-1.9333	-2.5771	-2.075	-2.4042	-2.4437	-2.05	-2.4083	130.335	88.679	-16.412	167.204	-13.924	-58.506	-125.445	179.799	-57.560	63.712	-43.150	-78.081	-75.908	191.488	207.041	112.830	0.0001929	0.00033411	5.5512e-05	1066.7	1.7459e-06	3.6411e-06	1119.8	223.68	1.6121e-06	2.3051e-06	280.6	79.305	62.128	18.218	2.2596e-06	25.936	0.00016741	0.00014171	3.8305e-05	1051.8	1.6038e-06	1.4976e-06	1114.3	222.32	1.5876e-06	1.5904e-06	280.1	80.339	62.454	18.492	1.5499e-06	26.283	-82.514	-76.605	-44.134	-133.751	-17.527	0.986	-133.327	-126.691	10.315	39.953	-126.876	-120.293	-119.879	-112.752	15.643	-113.508	-8191	255	
21734.684	1	1	0	0	0.19888	0.25486	0.27168	0.34651	0.23749	0.26585	0.084734	0.23271	0.29216	0.21211	0.33469	0.28634	0.19008	0.13875	0.15529	0.14658	-1.7437	-2.0312	-2.5312	-2.3417	-2.3771	-2.3271	-2.1333	-2.3458	-2.1813	-2.05	-2.2375	-2.15	-2.1958	-2.5208	-1.9625	-2.3833	106.321	-42.693	160.124	99.673	10.632	-119.674	50.178	130.426	45.699	-141.449	108.450	195.626	8.783	-36.705	-99.434	86.669	0.00018237	0.00025155	8.5488e-05	1060.2	2.1988e-06	4.1916e-06	1120.7	222.87	2.6874e-06	4.6603e-06	280.64	79.655	62.039	18.245	2.6902e-06	25.848	0.00016499	0.00014056	3.7851e-05	1050.3	1.6857e-06	1.4706e-06	1112.8	222.39	1.6457e-06	1.5843e-06	279.68	80.444	62.359	18.478	1.6023e-06	26.247	-83.101	-43.505	-33.784	-133.647	40.322	22.502	-133.539	-126.552	-12.581	24.653	-126.883	-120.269	-119.660	-112.879	-5.134	-113.650	-8191	255	
21734.779	1	1	0	0	0.12982	0.10769	0.051627	0.20087	0.1292	0.162	0.13557	0.047129	0.030299	0.19792	0.30988	0.19249	0.26538	0.013886	0.21096	0.18384	-1.8792	-1.9062	-2.1292	-2.2229	-2.0708	-2.4313	-2.0938	-2.3042	-2.2917	-2.0333	-2.3792	-2.2687	-2.1937	-2.3438	-2.1813	-2.4062	98.733	0.278	-23.401	-132.182	153.838	205.616	206.531	150.990	-88.499	29.794	-127.525	-115.756	195.732	212.227	135.305	207.888	0.00020879	0.00019578	8.4004e-05	1063.9	2.8335e-06	4.3163e-06	1122.8	221.52	2.7761e-06	2.086e-06	280.53	79.428	62.224	18.284	3.777e-06	25.981	0.0001775	0.00014035	3.9016e-05	1051.3	1.7562e-06	1.5755e-06	1114.7	222.02	1.6355e-06	1.5261e-06	279.54	80.317	62.417	18.501	1.6045e-06	26.303	-79.634	-61.351	-36.763	-133.736	-4.236	13.811	-133.688	-126.330	19.859	-1.136	-127.102	-120.178	-120.206	-112.886	25.866	-113.577	-8191	255	
21734.877	1	1	0	0	0.10452	0.21874	0.12701	0.24915	0.23445	0.23239	0.35113	0.11987	0.14332	0.28919	0.13819	0.013955	0.20748	0.033516	0.048123	0.20267	-1.7812	-1.9125	-2.4417	-2.3667	-2.0208	-2.5333	-2.2354	-2.2896	-2.4292	-2.1667	-2.5292	-2.375	-2.1188	-2.4646	-2.0938	-2.3854	143.120	-46.910	145.676	165.618	-21.191	-89.681	98.051	80.766	-129.959	208.033	212.417	-42.955	114.878	-62.007	96.134	157.274	0.00017245	0.00036647	5.475e-05	1060.8	3.6759e-06	3.9133e-06	1126.5	222.75	1.5912e-06	3.2886e-06	279.43	79.049	61.916	18.21	1.4156e-06	25.79	0.0001679	0.00014933	4.018e-05	1050.5	1.7257e-06	1.5531e-06	1113.3	222.58	1.6442e-06	1.5495e-06	278.53	80.049	62.357	18.443	1.5514e-06	26.174	-75.346	-68.219	-48.969	-133.514	8.639	30.769	-133.771	-126.224	-1.415	-1.722	-126.894	-120.023	-119.944	-112.791	23.749	-113.357	-8191	255	
21734.973	1	1	0	0	0.20782	0.089333	0.15679	0.13161	0.13464	0.068192	0.35312	0.13234	0.032655	0.52228	0.16582	0.20684	0.32104	0.20156	0.093773	0.31224	-2.0729	-1.9396	-2.175	-2.4708	-1.9625	-2.4625	-2.3042	-2.2917	-2.3792	-1.9875	-2.4146	-2.2458	-1.9333	-2.5729	-2.2292	-2.1479	175.230	55.883	-48.501	109.868	76.793	27.239	176.497	198.819	76.442	203.951	69.611	-131.460	-116.817	24.416	-90.737	44.123	0.00017542	0.00034463	6.8908e-05	1059.8	3.5361e-06	4.4196e-06	1127.1	222.19	2.3488e-06	2.5956e-06	279.62	79.382	62.435	18.271	2.9198e-06	25.782	0.00015835	0.00014125	3.7474e-05	1045.9	1.6419e-06	1.4164e-06	1111.9	222.01	1.6093e-06	1.4252e-06	279.49	80.212	62.455	18.483	1.4943e-06	26.202	-79.968	-67.536	-43.178	-133.650	-15.639	25.819	-133.482	-126.390	-7.980	8.895	-126.845	-120.391	-119.661	-112.767	14.299	-113.127	-8191	255	
21735.068	1	1	0	0	0.21357	0.16446	0.047137	0.2392	0.14985	0.048834	0.28415	0.029618	0.26652	0.23259	0.21105	0.2162	0.33933	0.1139	0.041325	0.14094	-2.0833	-1.9521	-2.2771	-2.6063	-1.9438	-2.4813	-2.5396	-2.1479	-2.4729	-2.1021	-2.2708	-2.4062	-1.9646	-2.3542	-2.2583	-2.0187	-86.374	-24.335	168.876	183.593	-3.202	-81.565	-137.197	17.402	16.877	-123.474	109.811	98.144	-47.814	-142.643	42.610	-59.636	0.00020464	0.00040161	7.4046e-05	1060.3	2.0087e-06	3.0206e-06	1124.4	221.36	3.387e-06	4.1781e-06	280.25	79.556	61.719	18.201	3.2173e-06	25.799	0.00016502	0.00013478	3.7621e-05	1046.4	1.6574e-06	1.4123e-06	1112	222.24	1.4762e-06	1.5149e-06	279.3	80.282	62.16	18.438	1.5157e-06	26.219	-78.852	-65.533	-49.624	-133.518	-33.083	25.254	-133.458	-127.097	8.474	24.469	-127.030	-120.106	-120.280	-113.032	7.327	-113.621	-8191	255	
21735.164	1	1	0	0	0.21987	0.29251	0.30052	0.36448	0.11171	0.18517	0.14428	0.17243	0.099283	0.045765	0.05424	0.41983	0.097145	0.12277	0.37992	0.18586	-2.0792	-2.0875	-2.0812	-2.55	-1.8104	-2.4375	-2.3187	-2.1562	-2.4375	-2.1375	-2.3354	-2.4625	-2.1104	-2.4375	-2.1688	-2.1208	78.851	21.054	154.414	168.330	206.568	22.647	173.700	166.073	187.881	-61.172	-128.651	179.234	-118.754	-31.758	-53.646	63.099	0.00018376	0.00031969	9.9393e-05	1061	3.0868e-06	1.2058e-06	1120.6	222.1	2.4541e-06	2.4473e-06	281.09	79.594	62.131	18.27	3.1795e-06	25.829	0.00015788	0.00013016	3.874e-05	1048.1	1.6464e-06	1.5235e-06	1111.2	222.1	1.4769e-06	1.3568e-06	279.42	80.206	62.389	18.506	1.5066e-06	26.245	-84.335	-64.531	-39.072	-133.760	-2.872	24.498	-133.327	-126.717	-7.872	14.425	-126.857	-119.930	-120.159	-112.881	19.695	-113.471	-8191	255	
21735.262	1	1	0	0	0.14084	0.20506	0.20899	0.2118	0.24558	0.065637	0.21308	0.21784	0.077853	0.24576	0.10657	0.018068	0.37123	0.14894	0.056677	0.33546	-1.9	-1.9646	-1.9312	-2.3708	-2.0583	-2.3063	-2.4062	-2.1208	-2.3104	-2.0417	-2.2271	-2.4125	-1.9521	-2.2667	-2.2583	-1.9937	166.292	81.346	4.882	-133.743	105.577	-13.826	171.733	150.266	71.523	143.745	-133.669	-122.241	211.838	177.214	32.344	192.407	0.00018954	0.00031535	9.8245e-05	1058.8	2.4302e-06	2.5952e-06	1121.8	223.88	1.7404e-06	3.6058e-06	279.34	79.503	62.081	18.283	1.4472e-06	25.766	0.00016868	0.00014003	3.7838e-05	1048.5	1.6562e-06	1.3983e-06	1112.7	222.54	1.5855e-06	1.4979e-06	279.58	80.212	62.394	18.502	1.5588e-06	26.203	-78.254	-63.254	-70.881	-133.645	-1.594	24.785	-133.503	-126.814	13.623	16.846	-126.609	-120.367	-119.803	-112.979	48.593	-113.553	-8191	255	
21735.381	1	1	0	0	0.054943	0.23277	0.13711	0.12853	0.19212	0.25289	0.14201	0.29933	0.14268	0.082721	0.26376	0.25323	0.15578	0.23129	0.13211	0.1936	-1.9021	-2.0604	-1.9208	-2.4542	-2.1896	-2.2583	-2.3438	-1.9833	-2.0354	-2.1542	-2	-2.3708	-2.1125	-2.0271	-2.3125	-2.0438	11.416	73.362	24.630	211.477	208.851	169.055	157.189	178.586	-18.323	107.606	152.333	173.246	52.265	126.363	64.880	195.305	0.00018061	0.00029472	0.00010188	1065.2	2.2745e-06	4.0494e-06	1124.6	223.48	2.2301e-06	3.3387e-06	280.37	79.284	62.197	18.183	2.4741e-06	25.929	0.00015974	0.00013131	3.8017e-05	1050	1.6643e-06	1.5449e-06	1112.6	222.55	1.5587e-06	1.445e-06	278.97	80.139	62.425	18.447	1.4688e-06	26.245	-80.524	-62.466	-32.560	-133.607	-16.030	5.258	-133.645	-126.737	13.266	14.743	-126.850	-120.156	-120.230	-113.355	3.047	-113.937	-8191	255	
21735.477	1	1	0	0	0.17353	0.19316	0.17805	0.53081	0.10963	0.092837	0.18105	0.084153	0.063325	0.21685	0.37212	0.33506	0.13033	0.21638	0.073957	0.30885	-1.9208	-2.0896	-2.0125	-2.5083	-2.2271	-2.0771	-2.4938	-2.1375	-2.3958	-2.0604	-2.0604	-2.5062	-2.3625	-2.0979	-2.3646	-2.0687	60.069	-28.750	-16.112	174.308	36.880	-71.285	55.125	80.701	129.264	106.535	153.429	153.302	-88.052	-40.289	189.684	86.752	0.00018767	0.00023939	8.7648e-05	1062.5	1.9223e-06	4.2897e-06	1117.1	222.23	1.3304e-06	3.4199e-06	281.78	79.432	62.241	18.173	3.2009e-06	25.989	0.00016372	0.0001356	4.0941e-05	1049	1.6783e-06	1.4933e-06	1110.3	221.8	1.5611e-06	1.4763e-06	279.39	80.123	62.389	18.501	1.5258e-06	26.312	-82.157	-74.821	-27.820	-133.701	-14.595	10.803	-133.501	-126.505	-5.545	18.625	-126.772	-120.323	-119.555	-112.923	27.784	-113.254	-8191	255	
21735.572	1	1	0	0	0.16257	0.046788	0.15011	0.16628	0.13089	0.075664	0.27814	0.24617	0.20466	0.24672	0.26886	0.15671	0.098367	0.16518	0.071431	0.217	-1.8542	-2.3667	-1.9833	-2.4604	-2.1125	-2.0938	-2.4833	-2.0167	-2.3354	-2.3479	-2.0646	-2.5396	-2.3021	-2.1125	-2.3688	-2.2271	19.371	-49.939	-116.526	-107.631	-99.711	100.154	112.597	49.418	61.675	111.997	191.121	-125.481	-118.442	-75.803	72.938	120.432	0.00018117	0.0003295	7.5852e-05	1057.8	1.2425e-06	2.7089e-06	1123.9	222.08	2.265e-06	2.7348e-06	279.26	79.225	62.465	18.234	2.9255e-06	25.976	0.00016448	0.00013808	3.7563e-05	1048.8	1.629e-06	1.4772e-06	1112.7	222.02	1.6064e-06	1.5057e-06	279.33	80.25	62.572	18.469	1.4061e-06	26.257	-83.187	-60.584	-45.021	-133.719	43.993	27.653	-133.467	-126.483	9.429	-3.844	-126.680	-120.105	-119.757	-113.029	7.107	-113.306	-8191	255	
21735.691	1	1	0	0	0.34046	0.29734	0.17101	0.15876	0.22467	0.15979	0.062218	0.082793	0.021304	0.15348	0.17752	0.093601	0.13854	0.055516	0.27255	0.1703	-1.625	-2.3833	-1.9375	-2.4813	-2.325	-1.9167	-2.6646	-2.2646	-2.1146	-2.4021	-2.0708	-2.4146	-2.2979	-2.0521	-2.5521	-2.2958	38.456	-126.996	109.553	57.362	98.611	202.228	157.328	-76.677	46.839	68.748	179.215	195.149	180.970	-92.890	178.946	22.267	0.00019481	0.00026533	6.1943e-05	1059.5	2.6761e-06	3.1479e-06	1122.6	222.17	1.4851e-06	2.8835e-06	281.95	79.466	62.276	18.361	1.3718e-06	26.055	0.00016279	0.00013264	3.9495e-05	1048.9	1.6183e-06	1.4866e-06	1112.1	222.18	1.6382e-06	1.4697e-06	280.12	80.352	62.429	18.571	1.5566e-06	26.314	-75.247	-38.947	-68.519	-133.693	4.067	40.352	-133.405	-126.660	3.928	-4.562	-126.825	-120.148	-119.738	-112.945	77.946	-113.388	-8191	255	
21735.764	1	1	0	0	0.22889	0.040297	0.22417	0.11839	0.29371	0.013563	0.21622	0.21923	0.21032	0.10505	0.086112	0.086369	0.17994	0.1807	0.081784	0.18387	-1.7021	-2.4583	-2.075	-2.4938	-2.25	-2.1271	-2.5521	-2.0146	-2.0687	-2.5979	-2.0458	-2.2188	-2.3854	-2.1042	-2.4917	-2.3	-105.067	97.647	-95.325	157.892	101.168	-81.865	105.946	122.355	162.060	-119.616	-88.407	15.558	-139.675	94.519	-138.826	-38.448	0.00019431	0.00034937	5.6298e-05	1062.6	2.5306e-06	2.5694e-06	1120	222.63	1.547e-06	3.0871e-06	279.6	79.588	61.965	18.367	1.5015e-06	25.948	0.0001633	0.00013	3.851e-05	1048.5	1.6305e-06	1.4757e-06	1111.3	222.44	1.5113e-06	1.4191e-06	279.39	80.206	62.283	18.524	1.4503e-06	26.224	-82.219	-60.203	-68.277	-133.812	-2.530	6.647	-133.568	-126.416	47.651	15.693	-126.842	-119.985	-120.015	-112.617	5.242	-113.349	-8191	255	
21735.859	1	1	0	0	0.035222	0.088551	0.27532	0.1609	0.062025	0.042213	0.15501	0.18083	0.30318	0.12602	0.28428	0.16646	0.14909	0.012035	0.086856	0.078798	-1.6146	-2.45	-2.0687	-2.2729	-2.4083	-1.9958	-2.4917	-2.3812	-2.0729	-2.3896	-2.1833	-2.3479	-2.3792	-2.1771	-2.6125	-2.2979	29.952	-144.755	119.718	66.618	-26.954	150.921	107.869	81.783	-135.415	99.768	-144.060	64.249	-121.807	210.900	181.217	21.025	0.0001847	0.00028638	5.7847e-05	1062.2	2.5032e-06	2.0377e-06	1128.2	221.98	1.7811e-06	3.9285e-06	280.92	79.251	61.671	18.24	2.4971e-06	25.795	0.00016255	0.00013606	3.7557e-05	1050.1	1.6621e-06	1.4948e-06	1113.5	222.28	1.5258e-06	1.3987e-06	279.4	80.301	62.225	18.481	1.4953e-06	26.3	-70.394	-68.245	-32.870	-133.587	23.855	8.860	-133.503	-126.795	-8.887	12.013	-126.663	-120.164	-119.397	-113.261	20.421	-113.259	-8191	255	
21735.980	1	1	0	0	0.16576	0.1483	0.21675	0.22123	0.11465	0.031289	0.18926	0.19267	0.17057	0.27555	0.064272	0.35374	0.098627	0.10323	0.18695	0.28062	-1.6	-2.4542	-2.1979	-2.3271	-2.3021	-2.1896	-2.2208	-2.3375	-1.9958	-2.3917	-2.3187	-2.0667	-2.4583	-2.0708	-2.4688	-2.225	-119.583	-86.169	165.419	182.236	-68.665	-77.511	182.985	-137.993	199.748	149.496	-30.877	202.216	142.866	99.168	-126.611	103.989	0.00017377	0.00033103	6.7094e-05	1060.9	2.5166e-06	4.4987e-06	1120.9	222.59	2.123e-06	2.2505e-06	280.64	79.343	61.841	18.138	2.7604e-06	25.831	0.00016013	0.00014005	3.7723e-05	1051.4	1.6471e-06	1.5905e-06	1112.4	222.16	1.6596e-06	1.4117e-06	280.09	80.28	62.458	18.435	1.5991e-06	26.282	-83.473	-40.686	-51.516	-133.861	-29.433	-15.276	-133.472	-126.705	36.319	35.488	-126.849	-120.121	-119.828	-112.682	-7.225	-113.294	-8191	255	
21736.076	1	1	0	0	0.17095	0.14603	0.15114	0.34699	0.14316	0.31368	0.17884	0.14957	0.23581	0.13774	0.11832	0.20097	0.046377	0.066069	0.30001	0.15112	-1.4188	-2.3875	-2.2021	-2.1896	-2.3417	-2.1875	-2.3458	-2.2375	-2.1063	-2.4021	-2.3125	-2.2229	-2.6625	-2.25	-2.2854	-2.3604	120.890	44.668	-5.909	151.403	152.752	-110.235	192.227	77.108	200.064	-101.206	72.235	22.141	202.816	54.493	6.007	163.411	0.00020279	0.00013235	5.551e-05	1061.1	4.2799e-06	3.0277e-06	1124.8	222.28	2.5014e-06	2.8435e-06	281.19	79.256	62.031	18.157	3.0365e-06	25.879	0.00016814	0.00013296	3.7998e-05	1049.1	1.7021e-06	1.5874e-06	1112.8	221.61	1.7176e-06	1.4313e-06	279.28	80.225	62.322	18.453	1.5266e-06	26.228	-75.515	-36.077	-63.862	-133.789	14.768	36.367	-133.621	-126.822	17.307	9.906	-127.034	-120.321	-119.912	-112.754	-4.056	-113.215	-8191	255	
21736.174	1	1	0	0	0.33888	0.22098	0.14143	0.26916	0.19574	0.051626	0.22056	0.21969	0.21392	0.22585	0.41034	0.26188	0.18255	0.2169	0.054561	0.2175	-1.65	-2.2979	-2.1979	-2.0771	-2.3521	-2.2021	-2.4521	-2.4271	-2.15	-2.425	-2.4125	-2.2917	-2.5854	-2.1021	-2.1958	-2.6083	136.552	116.080	144.303	173.574	-39.499	-119.815	151.665	98.814	103.741	-84.570	193.662	174.505	-38.495	56.944	137.524	212.025	0.00019529	0.00024823	4.8765e-05	1061.5	2.4741e-06	3.5421e-06	1125.7	223.59	1.1231e-06	3.7204e-06	279.59	78.972	62.445	18.23	2.5332e-06	25.926	0.0001687	0.00014543	3.8325e-05	1049.1	1.6481e-06	1.5347e-06	1113.2	222.2	1.65e-06	1.4491e-06	279.18	80.189	62.48	18.471	1.5942e-06	26.248	-81.021	-63.907	-28.686	-133.669	-26.440	12.269	-133.591	-126.324	7.331	10.582	-126.970	-120.247	-119.942	-112.592	27.188	-113.721	-8191	255	
21736.270	1	1	0	0	0.17925	0.27428	0.2622	0.29792	0.21226	0.18446	0.16949	0.16153	0.012768	0.26088	0.081561	0.24087	0.11624	0.27295	0.085092	0.24818	-1.3646	-2.2583	-2.1896	-2.1583	-2.4188	-2.0854	-2.2021	-2.5229	-1.9417	-2.3625	-2.3625	-2.1542	-2.5	-2.0667	-2.2875	-2.4917	199.653	-71.689	-56.677	-126.803	201.583	-22.602	105.621	6.589	-56.529	76.768	183.300	-77.379	123.543	129.493	-59.784	-100.160	0.0001873	0.00022538	7.1207e-05	1057.9	3.4181e-06	4.5015e-06	1126.8	222.52	3.5145e-06	2.4296e-06	280.55	79.505	61.874	18.093	2.2994e-06	25.827	0.00016905	0.00014428	3.9035e-05	1048.3	1.6893e-06	1.5403e-06	1113.8	222.14	1.6808e-06	1.4577e-06	279.89	80.116	62.176	18.43	1.5349e-06	26.241	-81.089	-84.786	-84.069	-133.666	-15.313	-6.439	-133.420	-126.796	4.416	-7.774	-126.659	-120.276	-119.546	-113.263	5.459	-113.744	-8191	255	
21736.365	1	1	0	0	0.15516	0.14714	0.22002	0.12476	0.21102	0.048536	0.29898	0.17944	0.35938	0.24611	0.12842	0.090789	0.15244	0.25484	0.1085	0.1718	-1.65	-2.4188	-2.2625	-2.075	-2.5896	-2.1813	-2.3104	-2.3	-2.0479	-2.375	-2.4917	-2.2146	-2.3042	-2.1792	-2.2583	-2.4833	187.251	5.025	39.537	63.428	100.848	-67.849	152.745	5.987	91.666	-93.698	64.679	36.553	64.647	137.494	-4.949	111.381	0.0001985	0.00021442	0.00010136	1063.8	1.6088e-06	2.7181e-06	1122.1	221.93	4.0052e-06	3.7216e-06	279.15	79.711	62.025	18.303	3.5966e-06	25.73	0.00016993	0.00015089	3.7646e-05	1049.2	1.6724e-06	1.5775e-06	1114.2	222.14	1.6979e-06	1.4722e-06	279.55	80.41	62.475	18.527	1.5814e-06	26.234	-77.920	-38.481	-64.272	-133.627	-31.112	41.210	-133.603	-126.308	12.443	29.523	-126.816	-120.468	-119.892	-113.032	11.225	-113.127	-8191	255	
21736.463	1	1	0	0	0.3608	0.12681	0.3164	0.38585	0.18656	0.21261	0.1942	0.11394	0.11396	0.028994	0.21152	0.22192	0.062338	0.24836	0.18281	0.081207	-1.6854	-2.2812	-2.2792	-2.1042	-2.1813	-2.1854	-2.1417	-2.5229	-2.2167	-2.2958	-2.6333	-2.0854	-2.3	-2.4792	-1.9771	-2.5812	87.259	-120.631	134.901	147.136	-28.947	202.761	141.033	173.728	174.670	-130.770	193.455	184.160	-100.800	187.231	-88.504	15.907	0.00019122	0.00032337	6.1932e-05	1059.5	2.1043e-06	1.5901e-06	1119.5	223.58	3.564e-06	3.3563e-06	279.48	79.275	62.275	18.188	2.1516e-06	25.804	0.00017676	0.00014389	3.8165e-05	1050	1.6869e-06	1.6014e-06	1112.6	222.56	1.6755e-06	1.4991e-06	279.76	80.074	62.402	18.462	1.5885e-06	26.27	-74.497	-45.825	-55.921	-133.788	-4.284	-19.516	-133.586	-126.900	-18.408	23.048	-126.586	-120.136	-120.144	-112.728	-4.232	-113.182	-8191	255	
21736.559	1	1	0	0	0.18814	0.15214	0.066576	0.16014	0.12913	0.17789	0.25266	0.1964	0.046416	0.10966	0.16147	0.16131	0.34743	0.21969	0.3488	0.26874	-1.7854	-2.3542	-2.3396	-2.2792	-2.2	-2.3187	-2.1208	-2.5979	-2.3083	-2.0833	-2.5312	-2.0729	-2.5687	-2.3563	-2.05	-2.4896	137.373	26.920	36.868	-95.439	-2.147	-15.197	93.686	100.377	213.056	57.877	187.163	193.885	-139.043	-115.958	78.177	196.548	0.00017387	0.0002493	8.2198e-05	1057.3	1.5326e-06	2.6586e-06	1122.8	223.33	2.4506e-06	2.8094e-06	280.7	79.15	61.898	18.13	2.5744e-06	25.747	0.00016364	0.00014051	3.6738e-05	1048.3	1.6926e-06	1.4579e-06	1113.8	222.54	1.6038e-06	1.4989e-06	279.62	80.112	62.272	18.423	1.6089e-06	26.239	-81.810	-66.907	-81.013	-133.498	36.625	18.218	-133.621	-126.618	-1.620	-33.003	-127.053	-120.761	-120.184	-113.174	-3.956	-113.612	-8191	255	
21736.654	1	1	0	0	0.3026	0.11663	0.26753	0.14507	0.25006	0.31598	0.21293	0.34442	0.075537	0.30156	0.21978	0.050769	0.11689	0.1835	0.2122	0.049108	-1.6875	-2.1229	-2.7188	-2.2146	-2.3896	-2.3063	-2.0229	-2.5938	-2.2938	-2.2979	-2.5563	-2.0521	-2.2125	-2.3979	-2.0312	-2.3667	-48.570	-110.245	199.521	161.838	-105.872	201.550	209.657	138.094	56.071	-43.376	143.936	131.211	187.681	-94.456	5.774	40.910	0.00019269	0.00037747	7.0322e-05	1062.5	2.3225e-06	3.6136e-06	1123.3	222.14	3.3164e-06	2.1404e-06	280.25	79.621	62.29	18.201	2.2815e-06	25.799	0.00016641	0.0001471	3.7659e-05	1049.9	1.6869e-06	1.4408e-06	1111.6	222.1	1.7256e-06	1.6148e-06	279.15	80.187	62.404	18.482	1.5755e-06	26.17	-77.872	-61.417	-39.992	-133.654	-1.143	21.332	-133.529	-126.707	19.247	-14.532	-126.998	-120.439	-119.961	-112.663	11.623	-113.287	-8191	255	
21736.773	1	1	0	0	0.044269	0.22001	0.14763	0.026116	0.1439	0.12621	0.14616	0.23845	0.075565	0.1654	0.1347	0.035675	0.10993	0.31486	0.051517	0.28543	-1.9333	-2.2188	-2.6125	-2.1937	-2.1792	-2.5396	-2.3104	-2.3917	-2.1083	-2.1104	-2.3292	-2.225	-2.2104	-2.6667	-2.0979	-2.3083	26.071	213.588	207.446	-75.638	37.266	-46.268	204.307	75.005	169.420	-22.907	-63.905	4.472	-68.486	199.970	52.718	187.769	0.00018836	0.00028983	7.5772e-05	1058.3	1.5054e-06	2.9637e-06	1123.9	222.03	2.8955e-06	2.8591e-06	280.16	79.609	61.962	18.218	1.7718e-06	25.949	0.00016922	0.00014618	3.9419e-05	1048.4	1.81e-06	1.594e-06	1113	221.99	1.6758e-06	1.5828e-06	279.9	80.215	62.32	18.48	1.682e-06	26.263	-80.092	-67.621	-30.365	-133.709	-18.742	2.417	-133.382	-126.363	7.094	9.091	-126.711	-120.466	-120.347	-113.083	24.302	-113.631	-8191	255	
21736.869	1	1	0	0	0.046724	0.1674	0.26529	0.24626	0.098289	0.086474	0.38848	0.20219	0.10299	0.10838	0.22175	0.20484	0.35816	0.16998	0.17452	0.19888	-2.0417	-2.0167	-2.3688	-2.1833	-2.125	-2.5187	-2.0958	-2.3875	-2.1917	-2.0729	-2.5125	-2.4792	-2.0563	-2.5208	-2.0938	-2.175	164.305	19.386	87.961	183.652	-76.732	71.252	56.289	172.775	196.921	150.814	-105.299	163.848	-104.275	-121.430	-51.526	-104.517	0.0001969	0.00021665	8.0517e-05	1064.2	3.0284e-06	1.764e-06	1122.3	222.71	3.22e-06	2.8016e-06	279.4	79.421	62.046	18.152	2.4325e-06	25.692	0.00016707	0.00015647	3.9943e-05	1051.6	1.7512e-06	1.5523e-06	1112.8	222.3	1.7111e-06	1.7231e-06	279.92	80.205	62.362	18.447	1.592e-06	26.209	-82.654	-88.536	-50.105	-133.674	32.510	42.292	-133.586	-126.642	9.842	22.243	-126.875	-120.469	-119.629	-112.985	18.847	-113.411	-8191	255	
21736.965	1	1	0	0	0.13486	0.16491	0.32469	0.33225	0.032493	0.014417	0.26466	0.15634	0.24216	0.27561	0.15355	0.06684	0.10372	0.26132	0.11204	0.10493	-2.05	-1.8813	-2.1917	-2.3521	-2.1354	-2.5187	-2.1583	-2.4771	-2.2979	-1.9771	-2.5229	-2.2958	-1.925	-2.5625	-2.1813	-2.2042	51.035	105.710	-26.609	-136.657	-94.792	-130.907	146.242	208.827	166.860	79.616	71.305	176.083	175.645	-139.056	96.220	163.050	0.00019036	0.00030384	8.3857e-05	1060.9	3.4921e-06	1.9935e-06	1125.4	224.37	2.7969e-06	2.6539e-06	280.21	79.146	62.141	18.272	1.6333e-06	26.171	0.00016734	0.00014678	3.9092e-05	1050.6	1.7914e-06	1.5159e-06	1114.8	222.83	1.6577e-06	1.5868e-06	280.12	80.252	62.536	18.462	1.503e-06	26.32	-79.248	-58.634	-40.800	-133.797	37.453	26.365	-133.657	-126.594	-3.164	11.349	-126.701	-120.338	-119.732	-113.025	-24.630	-113.505	-8191	255	
21737.061	1	1	0	0	0.089874	0.2233	0.18811	0.14349	0.11945	0.20704	0.20238	0.30271	0.15752	0.38499	0.19211	0.074651	0.36334	0.075246	0.19222	0.38368	-1.9479	-2.0583	-2.3271	-2.4688	-2.0771	-2.5146	-2.3688	-2.0396	-2.3854	-2.0729	-2.5187	-2.4	-1.9375	-2.3812	-2.3417	-2.2292	23.854	124.408	-40.138	139.212	-138.986	15.777	146.235	124.494	22.038	207.851	187.412	-91.472	213.139	-105.549	11.962	-83.686	0.0001872	0.00020291	8.5616e-05	1063.4	2.0496e-06	3.6826e-06	1124.2	222.1	1.3285e-06	4.1207e-06	278.9	79.473	62.007	18.326	2.7856e-06	25.957	0.00016692	0.00014937	3.9771e-05	1049.5	1.6947e-06	1.4894e-06	1114.8	222.34	1.6442e-06	1.5713e-06	279.47	80.348	62.345	18.499	1.5253e-06	26.344	-83.663	-52.047	-59.979	-133.694	-18.142	-28.671	-133.669	-126.527	33.544	17.516	-126.965	-120.422	-119.876	-113.249	-2.261	-113.674	-8191	255	
21737.156	1	1	0	0	0.12221	0.12082	0.11148	0.22016	0.028661	0.083492	0.27433	0.21856	0.14741	0.13772	0.29369	0.075415	0.10451	0.090343	0.104	0.15401	-2.1	-1.9917	-2.1917	-2.6146	-2.0771	-2.5812	-2.2604	-2.2167	-2.5854	-1.9542	-2.2521	-2.4396	-2.0396	-2.4521	-2.2667	-2.1875	176.685	-11.386	-136.209	-60.222	90.007	-29.773	162.181	197.378	-42.502	145.209	-107.772	58.100	116.066	145.368	189.201	-1.786	0.00018096	0.0002049	5.8815e-05	1061.8	1.7316e-06	3.8486e-06	1123.8	222.52	3.0258e-06	2.7133e-06	278.44	79.438	62.358	18.293	2.5103e-06	26.106	0.00015857	0.00013638	4.0263e-05	1049.5	1.6774e-06	1.479e-06	1113.7	222.25	1.6336e-06	1.5228e-06	279	80.275	62.611	18.442	1.5853e-06	26.317	-82.354	-61.297	-49.685	-133.677	8.307	8.328	-133.581	-126.458	16.231	0.365	-127.164	-120.005	-120.270	-112.673	28.389	-113.235	-8191	255	
21737.254	1	1	0	0	0.18341	0.16936	0.31128	0.25934	0.14709	0.093524	0.22357	0.24601	0.17023	0.10772	0.14258	0.11755	0.16008	0.065537	0.15882	0.23407	-2.0833	-2.1792	-2.2562	-2.4417	-2.0375	-2.4417	-2.2729	-2.075	-2.5292	-2.1833	-2.2167	-2.4396	-2.1562	-2.3875	-2.3104	-1.9813	-127.513	-55.227	-102.977	157.939	-60.409	7.782	167.816	194.031	-98.947	-104.330	34.721	189.402	-2.897	76.857	-102.567	-118.019	0.0001849	0.00026829	7.8992e-05	1063.6	2.4702e-06	2.9009e-06	1126.4	222.59	1.7069e-06	3.4766e-06	279.98	79.93	61.574	18.216	2.0256e-06	25.763	0.00016043	0.00014116	3.7851e-05	1050.4	1.7326e-06	1.5065e-06	1114.9	221.91	1.5693e-06	1.5596e-06	279.28	80.31	62.21	18.442	1.4993e-06	26.24	-78.503	-42.943	-36.256	-133.510	-4.053	0.600	-133.435	-126.714	-6.358	16.725	-126.907	-120.244	-119.950	-112.945	-14.964	-113.339	-8191	255	
21737.373	1	1	0	0	0.1103	0.29568	0.030165	0.23533	0.21092	0.23186	0.21612	0.17983	0.17147	0.11312	0.11095	0.16762	0.19271	0.13365	0.19332	0.14003	-2.0104	-2.1521	-2.1229	-2.7	-2.1083	-2.3917	-2.4354	-1.925	-2.3063	-2.2479	-2.2	-2.45	-2.0583	-2.3479	-2.4313	-2.0938	35.796	-126.634	-136.598	206.445	-9.068	106.192	152.812	-48.753	173.046	207.203	-116.807	116.537	11.930	172.324	152.976	205.413	0.00018228	0.00038767	9.5337e-05	1065.7	2.2102e-06	2.6877e-06	1128	222.94	2.3497e-06	2.5791e-06	279.57	79.519	62.249	18.185	3.3035e-06	25.832	0.00016386	0.00013686	3.9425e-05	1050.5	1.7109e-06	1.5034e-06	1115.2	222	1.6478e-06	1.4453e-06	279.66	80.292	62.486	18.427	1.544e-06	26.282	-77.249	-52.853	-49.038	-133.667	-6.222	5.467	-133.702	-126.430	17.430	13.790	-126.532	-120.296	-119.667	-112.756	0.533	-113.315	-8191	255	
21737.471	1	1	0	0	0.27274	0.033491	0.12819	0.19274	0.16228	0.23368	0.34135	0.062968	0.13773	0.12451	0.48963	0.13434	0.31498	0.17854	0.087823	0.12837	-1.9292	-2.1854	-2.0812	-2.6125	-2.1292	-2.225	-2.4521	-2.0917	-2.2729	-2.2896	-2.2917	-2.3125	-2.1375	-2.1708	-2.475	-2.0979	-4.180	212.468	209.147	201.964	123.821	90.801	134.392	-109.004	-113.543	-137.815	116.561	130.178	114.229	97.138	36.365	159.363	0.00018669	0.0003332	7.1327e-05	1059.9	2.2721e-06	3.3069e-06	1122.5	222.84	2.6815e-06	3.908e-06	280.27	79.432	61.884	18.176	1.6126e-06	25.774	0.00016601	0.00014442	3.8427e-05	1048.4	1.7085e-06	1.4798e-06	1113.4	222.3	1.6476e-06	1.5762e-06	279.5	80.237	62.344	18.494	1.4597e-06	26.236	-83.968	-50.668	-52.047	-133.783	-20.156	0.216	-133.570	-126.597	15.166	-1.840	-126.622	-120.266	-119.973	-112.816	49.614	-113.264	-8191	255	
21737.566	1	1	0	0	0.064608	0.11994	0.15969	0.31497	0.11352	0.07972	0.17935	0.12169	0.086928	0.19202	0.18209	0.075913	0.23645	0.051664	0.20066	0.24515	-1.9521	-2.1729	-2.0375	-2.6292	-2.1542	-2.1833	-2.7208	-2.1625	-2.3771	-2.3771	-2.15	-2.5563	-2.35	-2.0729	-2.6042	-2.1354	159.654	-121.390	-89.632	180.222	203.549	104.396	-140.913	-55.008	9.174	-91.425	-103.947	-23.791	84.608	-144.184	5.704	-9.170	0.00016829	0.00047713	8.3951e-05	1062	2.3361e-06	4.0353e-06	1125.4	224.21	2.8468e-06	2.5118e-06	280.41	79.854	62.723	18.258	1.3635e-06	26.205	0.00016406	0.00012665	3.7749e-05	1050.4	1.6678e-06	1.5052e-06	1113.1	222.7	1.6286e-06	1.4735e-06	279.32	80.332	62.52	18.47	1.5531e-06	26.361	-77.792	-43.968	-44.323	-133.571	7.191	11.767	-133.923	-126.769	17.662	18.493	-126.421	-119.732	-119.958	-113.129	27.760	-113.698	-8191	255	
21737.662	1	1	0	0	0.10186	0.31601	0.095398	0.25719	0.38429	0.10151	0.10259	0.19603	0.1401	0.14799	0.26225	0.050234	0.19193	0.23541	0.24647	0.30574	-1.85	-2.3792	-2.0312	-2.6958	-2.1979	-2.1646	-2.4562	-2.0917	-2.3	-2.2708	-2.0812	-2.1354	-2.5021	-2.1521	-2.4021	-1.8375	34.263	-59.831	-34.741	146.981	31.778	-49.772	47.152	155.417	50.331	-113.296	110.141	-136.559	-83.954	-52.697	24.073	175.218	0.00017519	0.0003099	0.00010215	1064.1	3.2729e-06	2.6494e-06	1123.5	223.57	3.8189e-06	1.8242e-06	280.69	79.695	62.129	18.164	1.796e-06	25.876	0.00016931	0.00013404	3.9489e-05	1049.9	1.6928e-06	1.5154e-06	1112.6	222.64	1.6317e-06	1.5154e-06	279.68	80.387	62.314	18.5	1.5079e-06	26.316	-79.644	-55.587	-62.688	-133.586	-5.662	-5.605	-133.556	-126.673	5.108	-5.915	-126.678	-120.249	-120.154	-113.110	16.657	-113.589	-8191	255	
21737.758	1	1	0	0	0.045921	0.16366	0.049482	0.033552	0.047524	0.22958	0.043842	0.083447	0.10205	0.21095	0.27556	0.12479	0.085458	0.041924	0.17188	0.21031	-1.6875	-2.4104	-1.925	-2.55	-2.1	-2.0667	-2.6354	-2.1917	-2.1396	-2.4437	-2.0667	-2.4479	-2.1083	-2.0583	-2.2854	-2.1688	72.924	-45.795	-13.263	-28.044	66.628	12.230	159.811	-127.819	45.587	31.482	121.740	-95.367	211.237	-131.303	-137.005	-45.885	0.00021573	0.00019101	8.9047e-05	1060.7	1.3032e-06	3.5983e-06	1126.2	223.31	2.4219e-06	2.1752e-06	280.89	79.582	61.368	18.199	2.9726e-06	25.935	0.00017009	0.00013099	4.0276e-05	1049.9	1.7209e-06	1.5083e-06	1113.5	222.54	1.59e-06	1.5711e-06	279.86	80.348	62.195	18.458	1.5684e-06	26.282	-78.490	-47.887	-53.386	-133.685	-39.066	7.866	-133.842	-126.435	-7.272	-12.099	-126.776	-120.473	-119.560	-113.079	5.348	-113.149	-8191	255	
21737.854	1	1	0	0	0.17164	0.28616	0.098498	0.30828	0.084399	0.28962	0.065534	0.33687	0.071237	0.062349	0.19129	0.15867	0.25062	0.15429	0.18621	0.23592	-1.7375	-2.4854	-2.0646	-2.3417	-2.1854	-2.1271	-2.5438	-2.2229	-2.2812	-2.4688	-1.8729	-2.3187	-2.3438	-1.8813	-2.425	-2.3833	-132.410	126.777	195.716	161.161	182.693	-44.985	-78.669	149.695	-6.893	198.460	-79.123	137.067	145.496	-87.799	195.764	99.640	0.00017136	0.00034372	7.7373e-05	1061.3	3.043e-06	3.7258e-06	1119.6	223.5	2.3747e-06	3.6708e-06	280.27	79.707	62.102	18.377	1.9064e-06	25.826	0.00017049	0.0001395	4.0321e-05	1050.8	1.6705e-06	1.4938e-06	1112.5	222.22	1.6745e-06	1.444e-06	279.93	80.396	62.317	18.492	1.4545e-06	26.252	-75.447	-48.502	-42.018	-133.692	4.040	-10.975	-133.618	-127.004	2.967	-18.619	-126.775	-120.345	-119.734	-112.568	7.864	-113.627	-8191	255	
21737.949	1	1	0	0	0.18592	0.088023	0.21805	0.11852	0.10825	0.10586	0.16112	0.20107	0.16598	0.17715	0.17368	0.22585	0.3477	0.30242	0.28289	0.21546	-1.6854	-2.5333	-2.0812	-2.5312	-2.2083	-2.2542	-2.5146	-2.1958	-2.2125	-2.4396	-2.1312	-2.2521	-2.525	-2.0854	-2.3375	-2.2771	194.377	164.413	2.484	50.174	21.140	102.792	150.033	149.253	-14.601	-47.460	-99.108	139.253	-57.171	-128.035	-129.672	-124.009	0.00019115	0.00025895	6.2913e-05	1062.2	2.284e-06	2.477e-06	1129	221.69	3.3156e-06	2.2438e-06	279.79	79.389	61.636	18.269	2.8494e-06	26.041	0.00016563	0.00013521	3.7704e-05	1050.2	1.6514e-06	1.4833e-06	1113.5	221.73	1.7506e-06	1.5901e-06	278.88	80.048	62.256	18.468	1.5256e-06	26.279	-80.930	-28.729	-44.072	-133.584	0.053	21.838	-133.720	-126.278	20.604	11.090	-126.961	-120.355	-119.987	-112.797	7.607	-113.670	-8191	255	
21738.070	1	1	0	0	0.10847	0.21281	0.35709	0.31594	0.16332	0.12912	0.20366	0.3303	0.034879	0.028409	0.26483	0.37097	0.28863	0.11733	0.27863	0.29633	-1.7938	-2.3646	-2.0563	-2.2812	-2.5646	-2.1521	-2.4229	-2.4979	-2.0854	-2.5375	-2.3958	-2.2229	-2.3312	-2.0354	-2.1208	-2.3187	179.220	126.865	-136.503	-140.816	19.263	140.499	151.861	-77.739	146.679	205.593	157.034	-95.068	181.231	143.930	214.724	103.242	0.00018121	0.00033603	7.0937e-05	1060.6	1.9267e-06	3.5162e-06	1124.6	222.97	1.8192e-06	4.1208e-06	279.63	79.581	62.133	18.185	3.6765e-06	25.886	0.00016448	0.0001376	3.7902e-05	1048	1.6259e-06	1.436e-06	1111.6	221.84	1.6018e-06	1.3962e-06	279.45	80.301	62.339	18.443	1.5418e-06	26.228	-79.090	-60.552	-22.774	-133.616	3.118	11.883	-133.527	-126.533	8.007	17.043	-126.866	-120.236	-119.917	-112.901	24.959	-113.768	-8191	255	
21738.166	1	1	0	0	0.38618	0.087196	0.099619	0.19238	0.087122	0.10443	0.28959	0.23204	0.083615	0.15617	0.1391	0.11539	0.093858	0.45811	0.076842	0.079997	-1.6521	-2.3708	-2.1688	-2.2938	-2.4458	-2.2958	-2.3354	-2.5167	-2.1667	-2.3417	-2.2729	-2.2083	-2.45	-2.0083	-2.2479	-2.4896	30.129	103.928	157.621	-66.189	144.418	144.885	191.513	161.196	77.444	-6.930	121.916	107.811	61.851	182.920	39.250	129.446	0.00017078	0.0003315	8.9483e-05	1060.4	1.7049e-06	4.0606e-06	1120.4	222.49	1.9037e-06	3.5186e-06	277.7	79.809	61.876	18.15	3.9749e-06	25.748	0.00016594	0.00014017	3.6981e-05	1047.3	1.7e-06	1.522e-06	1110.7	221.91	1.7018e-06	1.5584e-06	278.73	80.249	62.306	18.444	1.6539e-06	26.188	-81.186	-46.770	-67.567	-133.540	31.240	18.911	-133.543	-126.588	-1.606	4.578	-127.064	-119.947	-119.990	-112.622	9.183	-113.167	-8191	255	
21738.238	1	1	0	0	0.13568	0.098363	0.24352	0.36256	0.15542	0.071984	0.22877	0.30162	0.15646	0.034804	0.21792	0.29987	0.084456	0.14444	0.25331	0.093422	-1.3937	-2.3229	-2.2979	-2.2771	-2.7271	-2.0146	-2.4229	-2.4729	-2.0625	-2.275	-2.4333	-2.125	-2.425	-2.1063	-2.15	-2.4771	145.241	-130.851	-25.545	185.507	115.165	-90.814	119.979	41.027	114.194	-74.920	133.308	189.909	-45.386	82.985	173.543	200.134	0.00017797	0.00023345	8.2797e-05	1058	2.5211e-06	3.0996e-06	1119.3	222.77	1.4691e-06	2.9735e-06	279.97	78.677	61.946	18.234	3.3256e-06	25.753	0.00016563	0.00014414	3.6968e-05	1047.2	1.6512e-06	1.5582e-06	1111.1	221.79	1.7109e-06	1.49e-06	279.19	79.881	62.38	18.477	1.6375e-06	26.205	-80.758	-71.448	-53.724	-133.645	11.993	-7.720	-133.439	-126.465	16.323	-2.233	-126.950	-120.401	-119.972	-113.018	5.735	-113.454	-8191	255	
21738.334	1	1	0	0	0.18567	0.31328	0.25983	0.26898	0.17629	0.14484	0.17798	0.13811	0.19545	0.09693	0.29267	0.024748	0.025173	0.31667	0.22686	0.24012	-1.7708	-2.4542	-2.2917	-2.3417	-2.5438	-2.2292	-2.3271	-2.6771	-2.2167	-2.4229	-2.4188	-2.1104	-2.4146	-2.2188	-2.1958	-2.6437	-134.941	160.544	210.146	202.590	50.828	-42.672	214.731	141.100	-130.655	-18.374	179.545	-91.713	67.600	-114.180	-33.984	60.447	0.00019767	0.00025267	9.3068e-05	1060.8	1.965e-06	4.0949e-06	1122	223.62	2.6186e-06	3.2051e-06	279.13	79.639	62.191	18.301	2.6626e-06	25.85	0.00016748	0.00013833	3.9239e-05	1048.9	1.6547e-06	1.5584e-06	1112.3	222.65	1.7015e-06	1.4839e-06	278.99	80.165	62.386	18.466	1.6136e-06	26.261	-82.538	-58.637	-52.289	-133.762	11.315	6.950	-133.792	-126.779	-27.646	16.705	-126.928	-120.102	-120.022	-112.808	31.332	-113.207	-8191	255	
21738.453	1	1	0	0	0.34727	0.16253	0.16856	0.23939	0.14896	0.32563	0.27073	0.17405	0.08344	0.23945	0.27407	0.25629	0.27232	0.28057	0.093085	0.19465	-1.6917	-2.25	-2.3604	-2.2708	-2.5687	-2.1542	-2.3229	-2.5812	-2.2875	-2.3063	-2.4167	-2.0812	-2.475	-2.3333	-2.15	-2.6333	66.176	-88.464	-108.908	157.314	-138.600	-130.539	110.803	-128.076	-70.427	157.443	56.293	115.785	-103.907	151.818	-36.231	113.273	0.00016229	0.00022837	8.6102e-05	1060.4	2.1696e-06	2.8288e-06	1118.1	222.51	3.2505e-06	3.099e-06	280.02	79.1	62.575	18.354	2.1884e-06	25.758	0.00016602	0.00014026	3.7602e-05	1048.7	1.6543e-06	1.4828e-06	1111.9	222.3	1.6435e-06	1.4974e-06	279.14	80.281	62.44	18.504	1.5234e-06	26.14	-77.957	-53.549	-62.538	-133.530	31.880	-0.043	-133.591	-126.210	5.885	21.467	-126.944	-119.972	-119.766	-113.460	19.276	-113.271	-8191	255	
21738.551	1	1	0	0	0.40055	0.1623	0.13478	0.053164	0.067267	0.37742	0.11798	0.20015	0.09402	0.35249	0.040211	0.2224	0.18178	0.26448	0.2627	0.25231	-1.7521	-2.2708	-2.4771	-2.2687	-2.2021	-2.1479	-2.4146	-2.6333	-2.1312	-2.3063	-2.6458	-2.1792	-2.3875	-2.3771	-2.1229	-2.6458	119.721	75.673	77.406	83.991	-111.206	-94.513	178.579	62.298	38.519	167.262	116.217	-67.427	190.610	46.159	120.276	-104.665	0.00017438	0.00018988	4.3043e-05	1059.1	6.4878e-07	2.8323e-06	1116.6	222.22	2.6616e-06	2.1487e-06	279.67	79.396	62.567	18.276	2.6079e-06	25.8	0.00016883	0.00014288	3.9348e-05	1047.1	1.6231e-06	1.4798e-06	1109.3	221.81	1.5888e-06	1.4775e-06	279.1	80.202	62.434	18.494	1.4951e-06	26.226	-79.080	-35.431	-38.671	-133.862	36.298	36.934	-133.454	-126.419	10.905	56.898	-126.567	-120.058	-120.310	-112.865	-3.208	-113.694	-8191	255	
21738.646	1	1	0	0	0.2505	0.21114	0.22705	0.09218	0.14145	0.086738	0.22264	0.30362	0.20439	0.073627	0.1055	0.15181	0.13835	0.139	0.28447	0.078639	-1.6479	-2.2646	-2.4333	-2.075	-2.3125	-2.3854	-2.0896	-2.4646	-2.1937	-2.075	-2.5083	-2.2229	-2.3292	-2.275	-2.0875	-2.4917	-118.637	157.159	-141.960	141.345	84.316	135.753	1.160	104.622	-110.977	209.472	44.814	2.517	-82.396	-140.000	125.217	-79.012	0.00018101	0.00023657	0.00011532	1061.9	1.1896e-06	3.0824e-06	1119.1	222.53	1.9205e-06	3.2676e-06	281.11	79.435	62.091	18.347	3.0897e-06	25.684	0.00015823	0.00013602	3.7525e-05	1047.4	1.6112e-06	1.4602e-06	1110.5	222.04	1.5749e-06	1.5014e-06	279.7	80.008	62.478	18.488	1.5782e-06	26.132	-81.101	-45.391	-43.599	-133.754	-41.326	17.607	-133.580	-126.491	-10.359	11.262	-126.694	-120.300	-119.965	-112.909	-3.336	-113.359	-8191	255	
21738.742	1	1	0	0	0.076755	0.24519	0.11481	0.098181	0.16289	0.076655	0.20629	0.19828	0.27435	0.1535	0.14444	0.12243	0.24492	0.2113	0.095375	0.27007	-1.7979	-2.1417	-2.5208	-2.2375	-2.3375	-2.475	-2.2875	-2.5479	-2.3563	-2.0646	-2.5	-2.2521	-2.2562	-2.5958	-2.1583	-2.3312	-101.836	174.345	9.592	-39.671	-40.217	-16.986	166.094	-112.441	159.953	-88.054	124.465	102.903	24.992	-42.538	90.014	167.985	0.00018993	0.00043601	7.8036e-05	1056.6	2.5387e-06	3.4283e-06	1121	223.13	1.6824e-06	2.7156e-06	280.73	79.984	61.939	18.311	7.1674e-07	25.916	0.00015801	0.00013478	3.5912e-05	1044.4	1.5886e-06	1.4864e-06	1110.2	222.04	1.5903e-06	1.3911e-06	279.44	80.204	62.113	18.481	1.4835e-06	26.235	-78.104	-56.818	-67.900	-133.488	19.894	30.968	-133.441	-126.627	-13.273	24.779	-126.643	-120.266	-119.609	-112.956	20.035	-113.744	-8191	255	
21738.861	1	1	0	0	0.17974	0.073057	0.23765	0.072053	0.020135	0.24526	0.25647	0.22582	0.22548	0.18278	0.18404	0.10635	0.10272	0.27102	0.14228	0.10335	-1.8833	-2.1396	-2.4042	-2.1104	-2.3625	-2.4958	-2.1813	-2.5125	-2.4292	-2.2146	-2.4625	-2.25	-2.2687	-2.4062	-1.8625	-2.2854	-76.573	-121.128	64.348	-4.591	198.889	4.183	101.441	-1.890	141.875	-100.770	164.745	-115.733	-129.761	72.759	179.029	134.595	0.00019603	0.00026832	8.6609e-05	1059.1	1.4141e-06	3.3257e-06	1117.6	223.75	3.2955e-06	2.9807e-06	280.05	79.595	61.622	18.211	1.2517e-06	25.881	0.00016472	0.00013852	3.9969e-05	1046.4	1.6764e-06	1.5057e-06	1109.8	222.22	1.6225e-06	1.5629e-06	279.08	80.213	62.097	18.477	1.6001e-06	26.187	-80.449	-46.167	-80.533	-133.502	2.735	10.943	-133.449	-126.255	-8.403	23.427	-126.495	-120.312	-120.201	-112.958	21.889	-113.802	-8191	255	
21738.936	1	1	0	0	0.3095	0.070451	0.2383	0.18259	0.095136	0.27536	0.24119	0.04759	0.11212	0.27896	0.11431	0.090681	0.16668	0.060809	0.19807	0.10821	-1.7729	-1.8667	-2.4542	-2.3375	-2.1875	-2.5875	-2.1917	-2.3458	-2.3917	-2.0563	-2.4792	-2.5187	-2.1333	-2.5479	-2.1437	-2.2979	198.064	106.250	-131.360	133.419	-109.357	186.978	108.497	78.726	186.585	195.754	123.452	100.888	134.553	24.962	103.193	-104.746	0.00018861	0.00020183	7.1154e-05	1053.7	2.863e-06	4.0437e-06	1117	222.1	2.9925e-06	2.9842e-06	279.53	79.634	61.953	18.11	2.4217e-06	25.977	0.00016281	0.00013712	3.7691e-05	1045.9	1.7528e-06	1.4994e-06	1109.9	221.91	1.5366e-06	1.4986e-06	279.05	80.326	62.243	18.427	1.5076e-06	26.26	-81.067	-51.919	-69.963	-133.459	0.922	-1.220	-133.706	-126.298	1.346	16.237	-126.818	-120.297	-119.861	-112.900	-6.664	-113.755	-8191	255	
21739.055	1	1	0	0	0.33007	0.24351	0.26073	0.19756	0.1323	0.35833	0.21187	0.12087	0.13585	0.21377	0.086472	0.11912	0.16434	0.089648	0.14447	0.04616	-2.0542	-2.1688	-2.3042	-2.4854	-2.0625	-2.6417	-2.3208	-2.3021	-2.3812	-2.1083	-2.4604	-2.4271	-2.1604	-2.6688	-2.2854	-2.2917	108.438	90.915	85.254	185.439	145.312	-112.676	204.174	-50.016	211.532	24.931	-56.921	122.342	131.278	-52.845	180.688	208.624	0.00018496	0.00024813	7.6195e-05	1060.6	1.9166e-06	3.5827e-06	1119.5	222.88	3.2317e-06	2.912e-06	279.49	79.306	62.11	18.372	2.2439e-06	25.784	0.00015825	0.00014768	3.6149e-05	1048.6	1.6231e-06	1.3904e-06	1109.5	221.86	1.6001e-06	1.4862e-06	279.22	80.168	62.433	18.476	1.5135e-06	26.175	-81.198	-59.703	-31.352	-133.736	-1.203	15.635	-133.723	-126.829	27.532	18.168	-126.576	-120.176	-120.257	-112.891	-51.903	-113.266	-8191	255	
21739.150	1	1	0	0	0.1065	0.10225	0.13889	0.26201	0.087125	0.11007	0.41155	0.50072	0.18919	0.14596	0.1514	0.23193	0.19597	0.067272	0.14765	0.26785	-1.9625	-2.0438	-2.1979	-2.5167	-2.1063	-2.4437	-2.4479	-2.2438	-2.5438	-1.9062	-2.4729	-2.4208	-2.0146	-2.4771	-2.1312	-2.1688	-30.307	75.721	136.973	182.800	63.234	-58.003	121.108	141.755	-32.065	106.035	83.877	-137.635	200.830	-99.333	7.030	20.903	0.00018546	0.00033192	5.9149e-05	1058.8	1.804e-06	1.3975e-06	1118	222.46	1.8246e-06	3.3901e-06	280.28	79.58	61.822	18.254	2.8805e-06	25.791	0.00017339	0.00013234	3.8331e-05	1047.6	1.7057e-06	1.5233e-06	1110.8	221.78	1.5852e-06	1.4397e-06	279.25	80.089	62.18	18.464	1.5964e-06	26.198	-84.116	-74.363	-39.940	-133.584	-13.789	6.592	-133.389	-126.406	9.352	15.481	-126.682	-120.038	-119.550	-112.956	12.164	-113.265	-8191	255	
21739.246	1	1	0	0	0.23257	0.25416	0.16986	0.18118	0.16659	0.13497	0.13029	0.2053	0.067402	0.14027	0.047152	0.15534	0.084033	0.073765	0.1696	0.056766	-2.0938	-2.0875	-2.4354	-2.5375	-2.3208	-2.4604	-2.2917	-2.0521	-2.5771	-2.2604	-2.4667	-2.3729	-2.1312	-2.4042	-2.3208	-2.3042	74.166	-98.201	158.382	173.147	121.583	10.402	145.632	-117.053	-110.605	-100.365	-91.853	-63.552	7.177	-9.077	-27.112	-129.727	0.00019529	0.00021815	6.6991e-05	1059.2	2.8745e-06	3.6117e-06	1117.9	222.42	2.6361e-06	2.0438e-06	280.48	79.31	61.954	18.267	2.2686e-06	25.912	0.00016319	0.00013884	3.7825e-05	1046.9	1.6814e-06	1.4938e-06	1110.3	222.01	1.5024e-06	1.4531e-06	279.53	80.22	62.363	18.464	1.4919e-06	26.273	-80.584	-50.753	-48.521	-133.746	13.423	-6.505	-133.487	-126.485	-26.325	28.054	-126.670	-120.235	-119.881	-112.617	40.872	-113.380	-8191	255	
21739.344	1	1	0	0	0.096229	0.16634	0.10741	0.20088	0.32326	0.10163	0.16741	0.011265	0.15148	0.037268	0.29484	0.32807	0.13637	0.14602	0.20614	0.21424	-2	-2.2125	-2.275	-2.6688	-1.9354	-2.4437	-2.5042	-2.2729	-2.5208	-2.1729	-2.2646	-2.5146	-2.1417	-2.4083	-2.4396	-2.1375	112.682	125.024	-10.473	139.759	-105.955	-10.207	79.263	80.288	82.764	70.240	91.829	-100.478	-78.711	152.201	16.492	62.439	0.00019693	0.00036078	5.9186e-05	1062.9	1.4276e-06	3.144e-06	1126.3	222.33	2.8612e-06	3.1786e-06	277.66	79.53	61.648	18.177	2.3781e-06	25.876	0.00016047	0.00013099	3.7768e-05	1048.4	1.6655e-06	1.4777e-06	1111.9	222.25	1.5327e-06	1.4353e-06	279	80.072	62.133	18.446	1.5125e-06	26.164	-79.189	-61.073	-54.477	-133.815	-23.177	-2.807	-133.256	-126.525	-34.163	13.898	-126.957	-120.086	-119.868	-112.741	8.569	-113.340	-8191	255	
21739.463	1	1	0	0	0.18345	0.075764	0.032123	0.080192	0.11413	0.19918	0.22219	0.049471	0.17068	0.10648	0.18379	0.10175	0.10584	0.21912	0.1686	0.015787	-2.1188	-2.1917	-2.1271	-2.7042	-2.275	-2.2021	-2.6979	-2.0979	-2.4167	-2.4354	-2.2438	-2.6063	-2.0687	-2.2979	-2.4167	-2.0062	-72.229	-48.210	80.360	123.772	-72.192	145.691	186.499	-122.103	-3.028	-62.764	142.217	143.494	21.323	151.596	41.405	-60.610	0.00018374	0.00028833	8.4424e-05	1059.1	2.6803e-06	5.2455e-06	1121.2	221.47	2.8474e-06	2.2576e-06	278.95	79.607	61.846	18.264	2.0296e-06	25.981	0.00015773	0.00013423	4.0321e-05	1047.6	1.5886e-06	1.4597e-06	1110.1	221.53	1.4814e-06	1.5078e-06	279.21	80.15	62.289	18.47	1.5157e-06	26.242	-75.532	-40.697	-32.112	-133.640	-23.764	13.971	-133.464	-126.324	5.330	-14.207	-126.876	-120.117	-119.337	-112.930	-3.546	-113.684	-8191	255	
21739.535	1	1	0	0	0.30628	0.29577	0.19629	0.18799	0.082929	0.20319	0.52405	0.038544	0.11591	0.064707	0.20564	0.24673	0.28853	0.21414	0.24285	0.0059905	-1.9813	-2.2604	-2.0854	-2.5354	-2.05	-2.3771	-2.5229	-2.0771	-2.3458	-2.3438	-2.1625	-2.625	-2.3375	-2.1958	-2.3917	-2.0396	-21.628	-59.778	-98.170	178.835	-50.251	189.267	129.166	49.199	85.886	137.757	-75.962	-136.802	-64.770	202.842	84.821	-119.506	0.0001873	0.00025584	5.5421e-05	1061.6	1.8725e-06	3.5896e-06	1118.1	221.81	3.1614e-06	3.4325e-06	279.17	79.353	61.804	18.141	1.484e-06	25.892	0.00016904	0.00013955	3.8843e-05	1047.7	1.6764e-06	1.3904e-06	1110.2	221.8	1.5696e-06	1.5426e-06	278.94	80.091	62.4	18.446	1.41e-06	26.248	-80.611	-37.694	-38.011	-133.786	58.578	33.796	-133.620	-126.604	8.974	34.806	-126.765	-120.206	-119.988	-113.018	-1.042	-113.505	-8191	255	
21739.631	1	1	0	0	0.11645	0.031228	0.11859	0.21237	0.18724	0.10977	0.44037	0.082601	0.23073	0.30004	0.081755	0.13367	0.15468	0.10005	0.32811	0.16387	-1.8021	-2.1	-2.2	-2.5438	-2.2396	-2.2042	-2.6146	-2.0229	-2.2625	-2.2729	-2.0292	-2.4188	-2.2687	-2.4333	-2.6104	-2.0479	-128.342	18.477	-128.057	137.589	26.233	204.145	153.784	-86.851	-119.751	-71.306	181.764	30.143	168.180	154.150	-65.628	142.993	0.00017652	0.00021325	0.0001098	1058.1	2.6915e-06	3.6355e-06	1120.1	222.09	3.3413e-07	2.1139e-06	280.47	79.522	61.845	18.17	2.4866e-06	25.751	0.00016336	0.00012954	3.9022e-05	1044.8	1.5838e-06	1.3998e-06	1108.2	221.69	1.5823e-06	1.5017e-06	279.1	80.031	62.254	18.437	1.5103e-06	26.186	-74.691	-66.416	-56.357	-133.955	-51.210	8.347	-133.287	-126.555	-7.509	12.205	-126.631	-120.366	-119.744	-112.944	15.137	-113.226	-8191	255	
#DATA ENDS
