BOXY.EXE: ISS Imagent and Oximeter Data Acquisition Program Version 0.80
Ascii Record File

#ACQ INFORMATION
2  Detector Channels 
16  External MUX Channels 
1  Auxiliary Channels 
5000  Waveform (CCF) Frequency (Hz)
1  Waveforms Skipped 
30  Waveforms Averaged 
1  Cycles Averaged 
16  Acquisitions per Waveform 
10.0806  Updata Rate (Hz) 

#FILE INFORMATION
TRUE -- External MUX Channel results are PARSED.
FALSE -- AC DC and Phase are NOT grouped.
TRUE -- Companion Program Settings File CREATED.
FALSE -- AC data not excluded
FALSE -- DC data not excluded
FALSE -- Phase data not excluded
FALSE -- Auxillary Chn. data not excluded
Tab delimiters

#CALIBRATION STATE
TRUE -- Waveform Calibration Values APPLIED.


#AUX CALIBRATION VALUES
Val Type	aux-1	

Term	1.0000e+00	
Factor	0.0000e+00	


#WF CALIBRATION VALUES
A = Detector Channel
Val Type	A-AC1	A-AC2	A-AC3	A-AC4	A-AC5	A-AC6	A-AC7	A-AC8	A-AC9	A-AC10	A-AC11	A-AC12	A-AC13	A-AC14	A-AC15	A-AC16	A-DC1	A-DC2	A-DC3	A-DC4	A-DC5	A-DC6	A-DC7	A-DC8	A-DC9	A-DC10	A-DC11	A-DC12	A-DC13	A-DC14	A-DC15	A-DC16	A-Ph1	A-Ph2	A-Ph3	A-Ph4	A-Ph5	A-Ph6	A-Ph7	A-Ph8	A-Ph9	A-Ph10	A-Ph11	A-Ph12	A-Ph13	A-Ph14	A-Ph15	A-Ph16	

Term	0.00000e+00	0.00000e+00	0.00000e+00	0.00000e+00	0.00000e+00	0.00000e+00	0.00000e+00	0.00000e+00	0.00000e+00	0.00000e+00	0.00000e+00	0.00000e+00	0.00000e+00	0.00000e+00	0.00000e+00	0.00000e+00	0.00000e+00	0.00000e+00	0.00000e+00	0.00000e+00	0.00000e+00	0.00000e+00	0.00000e+00	0.00000e+00	0.00000e+00	0.00000e+00	0.00000e+00	0.00000e+00	0.00000e+00	0.00000e+00	0.00000e+00	0.00000e+00	0.00000e+00	0.00000e+00	0.00000e+00	0.00000e+00	0.00000e+00	0.00000e+00	0.00000e+00	0.00000e+00	0.00000e+00	0.00000e+00	0.00000e+00	0.00000e+00	0.00000e+00	0.00000e+00	0.00000e+00	0.00000e+00	
Factor	1.00000e+00	1.00000e+00	1.00000e+00	1.00000e+00	1.00000e+00	1.00000e+00	1.00000e+00	1.00000e+00	1.00000e+00	1.00000e+00	1.00000e+00	1.00000e+00	1.00000e+00	1.00000e+00	1.00000e+00	1.00000e+00	1.00000e+00	1.00000e+00	1.00000e+00	1.00000e+00	1.00000e+00	1.00000e+00	1.00000e+00	1.00000e+00	1.00000e+00	1.00000e+00	1.00000e+00	1.00000e+00	1.00000e+00	1.00000e+00	1.00000e+00	1.00000e+00	X	X	X	X	X	X	X	X	X	X	X	X	X	X	X	X	

B = Detector Channel
Val Type	B-AC1	B-AC2	B-AC3	B-AC4	B-AC5	B-AC6	B-AC7	B-AC8	B-AC9	B-AC10	B-AC11	B-AC12	B-AC13	B-AC14	B-AC15	B-AC16	B-DC1	B-DC2	B-DC3	B-DC4	B-DC5	B-DC6	B-DC7	B-DC8	B-DC9	B-DC10	B-DC11	B-DC12	B-DC13	B-DC14	B-DC15	B-DC16	B-Ph1	B-Ph2	B-Ph3	B-Ph4	B-Ph5	B-Ph6	B-Ph7	B-Ph8	B-Ph9	B-Ph10	B-Ph11	B-Ph12	B-Ph13	B-Ph14	B-Ph15	B-Ph16	

Term	0.00000e+00	0.00000e+00	0.00000e+00	0.00000e+00	0.00000e+00	0.00000e+00	0.00000e+00	0.00000e+00	0.00000e+00	0.00000e+00	0.00000e+00	0.00000e+00	0.00000e+00	0.00000e+00	0.00000e+00	0.00000e+00	0.00000e+00	0.00000e+00	0.00000e+00	0.00000e+00	0.00000e+00	0.00000e+00	0.00000e+00	0.00000e+00	0.00000e+00	0.00000e+00	0.00000e+00	0.00000e+00	0.00000e+00	0.00000e+00	0.00000e+00	0.00000e+00	-5.38156e+01	-1.31042e+02	-1.24433e+02	-1.81592e+02	-5.12389e+01	-6.77519e+01	-1.57010e+02	-1.62015e+02	-4.49559e+01	-6.47779e+01	-1.71977e+02	-1.70149e+02	-1.79453e+02	-1.77250e+02	-5.57634e+01	-1.50141e+02	
Factor	2.03653e-05	1.65828e-04	4.62255e-05	1.62462e-01	1.69913e-06	1.87841e-06	1.83249e-01	6.39994e-02	1.44152e-06	1.88062e-06	8.71469e-02	2.95149e-02	3.17034e-02	9.42612e-03	1.54103e-06	1.33165e-02	8.12842e-06	1.10171e-05	3.07108e-06	8.26260e-02	1.14284e-07	1.22168e-07	8.76959e-02	3.26199e-02	1.15569e-07	1.22005e-07	4.32266e-02	1.46927e-02	1.64001e-02	4.85771e-03	1.18033e-07	6.63519e-03	X	X	X	X	X	X	X	X	X	X	X	X	X	X	X	X	



#DISTANCE SETTINGS
A = Detector Channel
A-1	A-2	A-3	A-4	A-5	A-6	A-7	A-8	A-9	A-10	A-11	A-12	A-13	A-14	A-15	A-16	

2.5000e+00	3.0000e+00	2.5000e+00	3.0000e+00	2.0000e+00	3.0000e+00	1.5000e+00	3.0000e+00	3.0000e+00	3.0000e+00	3.0000e+00	3.0000e+00	3.0000e+00	3.0000e+00	1.5000e+00	3.0000e+00	

B = Detector Channel
B-1	B-2	B-3	B-4	B-5	B-6	B-7	B-8	B-9	B-10	B-11	B-12	B-13	B-14	B-15	B-16	

1.0000e+01	1.0000e+01	1.0000e+01	1.4400e+00	1.0000e+01	1.0000e+01	1.5100e+00	1.9400e+00	1.0000e+01	1.0000e+01	1.9900e+00	2.4900e+00	2.4100e+00	2.9000e+00	1.0000e+01	2.9800e+00	




#DATA BEGINS
time	group	step	mark	flag	A-AC1	A-AC2	A-AC3	A-AC4	A-AC5	A-AC6	A-AC7	A-AC8	A-AC9	A-AC10	A-AC11	A-AC12	A-AC13	A-AC14	A-AC15	A-AC16	A-DC1	A-DC2	A-DC3	A-DC4	A-DC5	A-DC6	A-DC7	A-DC8	A-DC9	A-DC10	A-DC11	A-DC12	A-DC13	A-DC14	A-DC15	A-DC16	A-Ph1	A-Ph2	A-Ph3	A-Ph4	A-Ph5	A-Ph6	A-Ph7	A-Ph8	A-Ph9	A-Ph10	A-Ph11	A-Ph12	A-Ph13	A-Ph14	A-Ph15	A-Ph16	B-AC1	B-AC2	B-AC3	B-AC4	B-AC5	B-AC6	B-AC7	B-AC8	B-AC9	B-AC10	B-AC11	B-AC12	B-AC13	B-AC14	B-AC15	B-AC16	B-DC1	B-DC2	B-DC3	B-DC4	B-DC5	B-DC6	B-DC7	B-DC8	B-DC9	B-DC10	B-DC11	B-DC12	B-DC13	B-DC14	B-DC15	B-DC16	B-Ph1	B-Ph2	B-Ph3	B-Ph4	B-Ph5	B-Ph6	B-Ph7	B-Ph8	B-Ph9	B-Ph10	B-Ph11	B-Ph12	B-Ph13	B-Ph14	B-Ph15	B-Ph16	aux-1	digaux	

21812.566	1	1	0	256	0.2846	0.14582	0.10579	0.23949	0.050131	0.23027	0.19081	0.23884	0.071803	0.1182	0.09103	0.23705	0.34042	0.064123	0.093644	0.060055	-1.9937	-2.4146	-2.0625	-2.6854	-2.3646	-2.3417	-2.7104	-2.3438	-2.4313	-2.5729	-2.3271	-2.6417	-2.4188	-2.3292	-2.5729	-2.2	-30.978	-128.282	136.709	149.184	193.865	96.222	109.541	-64.546	-37.865	-134.500	174.547	115.536	156.092	-100.482	-91.356	37.468	0.00040588	0.00059493	0.00013538	1408.6	5.4568e-06	3.3866e-06	1396.8	382.22	6.4078e-06	5.298e-06	434.83	143.93	125.51	42.837	2.4978e-06	52.586	0.00052836	0.00053536	0.00014823	1439.3	5.9602e-06	6.0041e-06	1426.7	391.14	5.8719e-06	6.0232e-06	445.11	148.65	129.52	44.337	6.0057e-06	54.606	-78.722	-57.123	-72.800	-136.175	2.388	12.838	-136.112	-131.436	9.987	10.362	-131.976	-127.741	-127.032	-122.419	21.116	-123.388	-8191	255	
21812.662	1	1	0	0	0.15756	0.20475	0.15995	0.26256	0.36399	0.052922	0.1024	0.22334	0.10996	0.24614	0.3176	0.32614	0.18489	0.10578	0.20293	0.056887	-1.9646	-2.4917	-2.1875	-2.8521	-2.4062	-2.1854	-2.7354	-2.5042	-2.4813	-2.4979	-2.2354	-2.7438	-2.3563	-2.25	-2.5625	-2.3042	28.952	-75.878	100.429	188.626	-126.422	-43.411	-77.259	168.352	123.611	43.073	143.612	188.473	-118.008	-74.830	-2.719	177.027	0.00043189	0.00071197	0.00016103	1407.5	2.1556e-06	4.2341e-06	1392.7	382.15	4.1977e-06	6.2442e-06	435.41	143.78	125.59	42.909	3.9495e-06	52.981	0.00053847	0.00053796	0.00015353	1436.8	6.0516e-06	5.9883e-06	1424.1	391.65	5.9588e-06	5.9521e-06	444.41	148.27	129.09	44.299	6.0634e-06	54.525	-84.378	-67.203	-41.791	-135.831	10.948	22.656	-135.908	-131.501	6.172	4.119	-131.867	-127.622	-127.074	-122.634	8.523	-123.535	-8191	255	
21812.783	1	1	0	0	0.08171	0.29989	0.3168	0.30964	0.40033	0.076312	0.25425	0.30708	0.14486	0.036064	0.28813	0.14064	0.14418	0.21843	0.099261	0.2029	-1.7958	-2.6292	-2.175	-2.5458	-2.5958	-2.0875	-2.6896	-2.4083	-2.3646	-2.4792	-2.3979	-2.7167	-2.6396	-2.2687	-2.5187	-2.5708	199.253	55.436	48.862	151.014	-57.537	70.634	-94.733	144.378	169.567	187.921	45.746	-143.077	-93.159	209.795	16.179	181.485	0.00041818	0.00060154	0.00017085	1407.4	3.5647e-06	6.0726e-06	1389.7	382.03	2.7512e-06	3.2962e-06	434.96	143.98	125.5	42.863	4.4907e-06	52.516	0.00053228	0.00055756	0.00015368	1434.3	5.8966e-06	6.0611e-06	1422.1	390.82	6.0597e-06	6.0128e-06	443.95	148.05	129.1	44.18	6.0644e-06	54.388	-81.379	-86.370	-55.441	-135.973	30.205	17.172	-135.826	-131.481	-14.978	5.706	-131.855	-127.717	-126.966	-122.481	21.027	-123.108	-8191	255	
21812.881	1	1	0	0	0.10393	0.16499	0.11166	0.14461	0.071266	0.063306	0.2828	0.35081	0.34657	0.10293	0.26362	0.22294	0.13037	0.2651	0.023552	0.19208	-1.8917	-2.5687	-2.1	-2.6417	-2.3958	-2.1125	-2.6271	-2.7188	-2.1479	-2.5333	-2.3896	-2.5417	-2.7042	-2.1792	-2.4854	-2.4708	48.799	-34.602	-67.278	-111.830	-45.065	101.518	204.597	89.670	-51.815	94.364	-142.777	195.368	154.996	132.990	121.264	53.019	0.00046443	0.00058091	8.8977e-05	1409.2	5.6125e-06	8.1959e-06	1390.8	381.37	4.4244e-06	3.6628e-06	432.08	143.54	125.2	42.703	5.6071e-06	52.789	0.00055148	0.00056001	0.00015494	1433.2	6.1047e-06	6.0453e-06	1420.5	390.33	5.9383e-06	6.0992e-06	442.96	147.86	128.93	44.065	6.0728e-06	54.323	-80.931	-61.096	-27.504	-136.128	-10.776	-3.001	-135.969	-131.389	-30.999	1.680	-132.141	-127.563	-127.122	-122.733	0.874	-123.462	-8191	255	
21812.977	1	1	0	0	0.12866	0.088783	0.21041	0.38308	0.28931	0.12074	0.3497	0.34838	0.3145	0.20469	0.21113	0.33527	0.061645	0.18166	0.037303	0.21501	-1.6125	-2.5771	-2.4917	-2.4667	-2.4854	-2.0729	-2.5896	-2.4062	-2.0687	-2.7229	-2.45	-2.3292	-2.6021	-2.2438	-2.3854	-2.4521	-0.343	-145.768	130.318	205.545	-29.382	1.597	204.856	106.168	149.068	-27.384	162.199	158.683	172.813	-121.658	-12.327	74.697	0.00041192	0.00035612	0.00017519	1408.6	3.653e-06	5.6516e-06	1393	380.71	2.7121e-06	7.2182e-06	431.82	143.61	124.49	42.732	3.1697e-06	52.437	0.00054579	0.00056118	0.0001552	1430.9	6.1504e-06	6.043e-06	1418.4	389.59	6.1644e-06	6.1813e-06	442.39	147.92	128.38	44.109	6.2021e-06	54.238	-76.852	-63.278	-68.800	-135.771	-17.595	-6.814	-135.859	-131.341	8.150	-3.282	-131.890	-127.709	-127.200	-122.616	23.075	-123.372	-8191	255	
21813.072	1	1	0	0	0.061864	0.26427	0.13256	0.088365	0.23967	0.15896	0.095183	0.28141	0.022796	0.15379	0.23567	0.10178	0.13332	0.30275	0.078328	0.14558	-1.5896	-2.4146	-2.4208	-2.4417	-2.6646	-2.15	-2.4437	-2.6292	-2.175	-2.6354	-2.4979	-2.55	-2.5854	-2.2646	-2.2208	-2.5187	132.958	124.270	184.797	118.469	195.048	-38.882	-128.736	-45.804	206.027	18.926	151.234	155.149	140.345	181.868	5.039	194.333	0.00044112	0.00063162	0.00015591	1399.9	3.9968e-06	3.5912e-06	1383.5	380.36	4.7421e-06	4.0043e-06	430.76	143.16	124.38	42.751	4.1261e-06	52.427	0.0005496	0.00055448	0.00015521	1428.7	6.1144e-06	6.2285e-06	1415.9	389.7	6.2222e-06	5.9704e-06	442.15	147.5	128.32	44.065	6.1202e-06	54.177	-84.356	-65.698	-58.932	-135.978	-12.868	11.879	-136.074	-131.537	6.961	-11.000	-132.091	-127.486	-127.007	-122.216	-13.407	-123.794	-8191	255	
21813.193	1	1	0	0	0.1095	0.20918	0.22775	0.22407	0.14846	0.084387	0.057169	0.11752	0.11317	0.11459	0.20873	0.16286	0.28571	0.23747	0.15492	0.35558	-1.7146	-2.35	-2.2896	-2.2958	-2.4583	-2.1792	-2.2833	-2.4375	-2.1771	-2.4708	-2.7229	-2.1208	-2.625	-2.2833	-2.35	-2.5354	53.482	3.433	203.315	208.218	40.530	176.651	145.181	109.409	-87.050	127.745	56.667	127.516	191.657	190.888	25.149	119.758	0.0004386	0.00045927	0.00019369	1403.7	4.5155e-06	6.875e-06	1386.1	378.43	5.6777e-06	5.2063e-06	430.77	142.99	125.21	42.379	3.2614e-06	52.188	0.00054928	0.00053536	0.00015241	1425.9	6.0197e-06	6.0361e-06	1413	388.65	6.0455e-06	6.0263e-06	441.53	147.28	128.52	43.955	6.0143e-06	54.066	-84.614	-61.458	-55.418	-135.983	1.744	-7.879	-135.970	-131.377	-4.487	13.320	-131.945	-127.731	-127.061	-122.652	-6.380	-123.232	-8191	255	
21813.266	1	1	0	0	0.11047	0.30984	0.18438	0.056297	0.27923	0.027112	0.23689	0.13224	0.15158	0.14863	0.21456	0.19168	0.025749	0.16837	0.12629	0.045844	-1.7021	-2.6083	-2.4542	-2.4875	-2.6063	-2.3604	-2.4958	-2.7062	-2.0625	-2.6188	-2.6146	-2.2313	-2.65	-2.3063	-2.4479	-2.6979	130.418	17.184	35.621	-143.433	206.996	20.608	-123.288	130.104	163.316	113.732	191.287	153.796	-3.166	181.927	-109.808	207.881	0.0004269	0.0007197	0.00016921	1397.6	6.6003e-06	3.8146e-06	1382.5	379.24	3.7664e-06	5.783e-06	430.05	142.87	124.33	42.588	5.1434e-06	52.556	0.00055629	0.00055662	0.00015274	1424.5	6.1328e-06	6.2474e-06	1414	388.67	6.2388e-06	6.3557e-06	441.55	147.34	128.16	43.968	6.5385e-06	54.205	-79.463	-58.389	-60.518	-136.018	-16.616	-7.193	-136.094	-131.222	-6.991	34.147	-132.144	-127.734	-126.998	-122.420	12.963	-123.230	-8191	255	
21813.383	1	1	0	0	0.2326	0.18715	0.23536	0.14873	0.13225	0.084844	0.123	0.18281	0.11071	0.11645	0.2641	0.10653	0.25686	0.05493	0.2334	0.17229	-1.7437	-2.5062	-2.4729	-2.4	-2.7271	-2.4667	-2.4021	-2.7271	-2.225	-2.4979	-2.5604	-2.1688	-2.625	-2.4375	-2.1646	-2.6188	-131.320	116.831	147.821	131.868	46.541	197.185	141.477	123.552	151.854	102.736	165.198	131.900	201.308	-108.889	-93.952	127.238	0.00042747	0.00058018	0.00010488	1401.4	3.5319e-06	5.0857e-06	1386.4	379.33	3.275e-06	5.4395e-06	433.16	143.15	124.43	42.512	4.6939e-06	52.333	0.00056648	0.0005787	0.00016575	1427.9	6.4213e-06	6.4507e-06	1415.9	388.94	6.4923e-06	6.4149e-06	442.18	147.23	128.21	43.936	6.4207e-06	54.139	-80.745	-77.400	-54.148	-135.883	4.731	-6.051	-136.051	-131.401	-8.447	23.415	-131.885	-127.572	-126.690	-122.502	4.249	-123.506	-8191	255	
21813.480	1	1	0	0	0.19156	0.27777	0.054216	0.099239	0.13729	0.28663	0.15559	0.19656	0.11384	0.053681	0.21919	0.059443	0.16253	0.26828	0.071824	0.096203	-1.8542	-2.375	-2.5396	-2.4604	-2.4792	-2.5458	-2.3729	-2.6229	-2.2271	-2.4562	-2.5979	-2.3146	-2.4917	-2.3979	-2.1146	-2.5479	162.968	-75.615	154.671	202.948	-20.313	-64.297	133.273	40.020	207.899	105.395	-120.168	163.440	38.013	89.095	70.349	58.058	0.00041521	0.00041569	0.00010854	1398.7	3.9301e-06	4.8571e-06	1385	378.67	4.2381e-06	5.6459e-06	430.68	143.05	124.68	42.585	3.9186e-06	52.479	0.00055917	0.00056919	0.00015869	1426.6	6.2147e-06	6.3611e-06	1415.4	388.73	6.3828e-06	6.4126e-06	440.78	147.2	128.32	43.978	6.4025e-06	54.088	-82.984	-64.795	-52.216	-135.926	-18.773	21.150	-136.063	-131.188	-11.493	-5.556	-132.110	-127.484	-126.836	-122.569	-0.436	-123.171	-8191	255	
21813.576	1	1	0	0	0.18661	0.15934	0.12151	0.18628	0.23015	0.13383	0.3122	0.3907	0.16566	0.05265	0.04978	0.17698	0.38268	0.1144	0.21454	0.14843	-1.7563	-2.2292	-2.3125	-2.4625	-2.4042	-2.5292	-2.2167	-2.4896	-2.2896	-2.3625	-2.5792	-2.2438	-2.5271	-2.3729	-2.15	-2.45	-57.183	81.479	199.315	84.457	-120.226	-96.753	85.634	150.916	98.309	-100.360	-122.480	-102.990	194.049	30.393	-83.274	-145.256	0.00042508	0.00080627	8.3035e-05	1407.4	5.1704e-06	4.713e-06	1388.3	379.93	3.8407e-06	6.8939e-06	432.63	143.05	124.84	42.473	4.0665e-06	52.298	0.00056919	0.00058767	0.00016505	1430.3	6.3518e-06	6.4617e-06	1415	389.53	6.4639e-06	6.5827e-06	442.18	147.41	128.68	43.978	6.6814e-06	54.148	-83.460	-49.746	-51.829	-136.062	-6.894	23.155	-135.950	-131.380	-4.726	11.727	-132.147	-127.483	-127.204	-122.656	-37.760	-123.483	-8191	255	
21813.672	1	1	0	0	0.30018	0.30249	0.05429	0.14366	0.30938	0.19216	0.1185	0.35257	0.17317	0.26035	0.15803	0.21047	0.045782	0.1879	0.13094	0.29048	-1.925	-2.2313	-2.6042	-2.5104	-2.4667	-2.4521	-2.4667	-2.5792	-2.35	-2.5208	-2.7062	-2.3333	-2.3604	-2.5625	-2.0875	-2.4354	83.708	-101.918	-48.853	156.292	-26.293	147.487	155.391	206.684	196.394	28.444	116.771	73.170	177.760	196.429	151.890	131.258	0.0004252	0.00063973	0.00014982	1407	5.2839e-06	4.3653e-06	1393.2	381.22	4.6787e-06	3.7202e-06	433.51	143.58	125.19	42.676	3.6277e-06	52.491	0.00059265	0.00060672	0.00016897	1434.1	6.6801e-06	6.7322e-06	1422.6	390.56	6.7928e-06	6.8524e-06	443.92	147.88	128.84	44.103	6.8784e-06	54.322	-83.659	-72.625	-46.264	-136.045	-8.532	-14.650	-136.306	-131.382	30.446	7.293	-131.916	-127.638	-127.037	-122.458	-13.000	-123.069	-8191	255	
21813.768	1	1	0	0	0.1354	0.14706	0.10555	0.15714	0.11676	0.13733	0.14865	0.25115	0.043749	0.078433	0.21845	0.14575	0.14747	0.27094	0.10552	0.096122	-1.9062	-2.1667	-2.5312	-2.2938	-2.2958	-2.45	-2.3521	-2.575	-2.35	-2.1104	-2.6917	-2.3167	-2.3479	-2.6896	-2.1333	-2.4646	-123.593	-147.800	-2.108	155.154	-111.374	-8.981	66.320	160.283	47.400	196.624	176.770	122.953	27.701	-107.904	158.981	21.288	0.00042689	0.00044803	0.00021558	1408	4.8293e-06	5.7766e-06	1392.7	381.48	2.9109e-06	6.407e-06	433.05	143.58	125.07	42.564	3.6332e-06	52.536	0.00059331	0.00061767	0.00016885	1435	6.5054e-06	6.7325e-06	1423.9	390.83	6.6674e-06	6.6137e-06	443.93	148.11	128.71	44.084	6.5051e-06	54.425	-81.198	-60.830	-63.379	-135.803	18.312	-16.532	-135.973	-131.470	-34.328	-5.137	-131.698	-127.703	-127.118	-122.348	-28.959	-123.353	-8191	255	
21813.863	1	1	0	0	0.27285	0.26912	0.12698	0.057465	0.15056	0.21426	0.093597	0.22805	0.12207	0.10366	0.030678	0.034983	0.42425	0.14287	0.13888	0.28984	-1.9688	-1.9792	-2.3979	-2.4229	-2.0875	-2.5521	-2.3917	-2.5208	-2.6437	-2.2292	-2.5896	-2.6292	-2.2854	-2.6833	-2.3146	-2.5625	88.969	-98.636	61.583	133.997	29.200	-55.621	148.045	103.489	-147.812	70.310	128.790	-52.530	205.466	161.959	-74.730	-72.797	0.00039931	0.00024208	0.0002117	1412.6	4.6556e-06	4.9846e-06	1394.8	379.99	3.6829e-06	7.669e-06	433.7	143.13	125.24	42.47	3.5347e-06	52.624	0.00058211	0.00061397	0.00016856	1438.2	6.5775e-06	6.8641e-06	1425	390.52	6.8082e-06	6.8709e-06	444.45	147.93	128.88	44.074	6.7684e-06	54.373	-79.208	-53.075	-76.978	-136.009	-10.839	8.221	-135.992	-131.470	-1.050	10.468	-132.213	-127.888	-126.997	-122.563	-22.537	-123.203	-8191	255	
21813.961	1	1	0	0	0.11706	0.11671	0.1426	0.052454	0.15638	0.12317	0.11323	0.28658	0.023867	0.19258	0.09472	0.13721	0.34656	0.071167	0.26489	0.14179	-2.1667	-2.0271	-2.4854	-2.5563	-2.1854	-2.5979	-2.6042	-2.4729	-2.4938	-2.05	-2.5	-2.4292	-2.3479	-2.7438	-2.0667	-2.3604	-121.816	165.362	-138.472	-118.198	119.866	15.680	206.944	144.558	174.134	49.715	-73.110	171.039	172.043	45.426	112.351	109.402	0.00043	0.00051832	0.00020216	1413.4	5.5697e-06	5.4994e-06	1396.9	380.9	4.5657e-06	7.0894e-06	435.07	143.15	125.41	42.81	3.6791e-06	52.643	0.00059525	0.00061799	0.00016832	1438.5	6.7051e-06	6.7121e-06	1423.2	390.53	6.6467e-06	6.5624e-06	444.65	147.82	128.84	44.155	6.5235e-06	54.407	-79.633	-65.015	-74.401	-136.154	12.451	2.306	-136.172	-131.262	-8.197	13.816	-131.966	-127.726	-126.962	-122.386	11.580	-123.416	-8191	255	
21814.057	1	1	0	0	0.19799	0.30872	0.19239	0.31973	0.15755	0.073167	0.23847	0.21548	0.17915	0.09489	0.11206	0.20248	0.14184	0.17869	0.22108	0.17875	-1.9521	-2.2042	-2.4083	-2.6167	-2.1167	-2.4875	-2.2604	-2.25	-2.4396	-2.1813	-2.5542	-2.4979	-2.1229	-2.5167	-2.1979	-2.3458	-82.863	113.638	34.914	125.321	-126.427	-62.491	80.035	182.566	35.249	134.878	29.273	89.112	126.048	151.431	-114.062	142.504	0.00044648	0.00047574	0.00016403	1409.8	3.8755e-06	3.6165e-06	1395.6	381.63	5.5943e-06	4.674e-06	435.11	143.86	124.66	42.676	4.085e-06	52.619	0.00057363	0.00058639	0.00016523	1436.2	6.5832e-06	6.4973e-06	1425.6	390.84	6.6387e-06	6.5944e-06	444.21	148	128.96	44.071	6.5572e-06	54.335	-80.067	-35.129	-74.979	-136.161	-20.626	35.715	-136.076	-131.311	-6.626	26.603	-131.895	-127.484	-127.116	-122.519	31.937	-123.257	-8191	255	
21814.152	1	1	0	0	0.07914	0.13586	0.21655	0.06477	0.14644	0.12348	0.38724	0.27462	0.046795	0.29316	0.19364	0.054338	0.35641	0.23231	0.042156	0.021231	-1.9562	-2.0979	-2.3708	-2.8021	-2.2146	-2.7625	-2.6771	-2.3792	-2.5979	-2.1063	-2.5438	-2.475	-2.2625	-2.7104	-2.4271	-2.2333	-59.095	130.727	-126.792	203.051	97.733	-53.134	138.622	70.064	-60.153	83.361	98.338	91.566	187.876	138.335	48.342	59.457	0.00046641	0.00046862	0.00016244	1411.8	2.7608e-06	4.0779e-06	1397.3	380.47	3.539e-06	6.2844e-06	433.01	143.46	125.31	42.737	2.8991e-06	52.567	0.00058848	0.0005946	0.00016559	1436.3	6.6254e-06	6.7042e-06	1425.1	390.85	6.4627e-06	6.5199e-06	444.34	147.88	128.87	44.156	6.5019e-06	54.366	-81.036	-55.564	-66.487	-135.960	13.578	-15.798	-135.916	-131.415	-8.538	4.172	-132.070	-127.732	-127.089	-122.311	-11.705	-123.292	-8191	255	
21814.271	1	1	0	0	0.087865	0.23892	0.15792	0.36379	0.10642	0.25538	0.34869	0.30856	0.22652	0.1869	0.030705	0.089867	0.16855	0.20435	0.13395	0.097591	-2.0479	-2.1896	-2.3187	-2.6646	-2.0542	-2.3271	-2.4396	-2.1792	-2.5167	-2.1958	-2.4646	-2.6146	-2.1542	-2.5729	-2.6	-2.3042	-71.884	86.605	-73.761	177.666	189.655	-20.936	147.371	-145.420	-128.980	37.148	78.099	-74.846	-144.661	183.114	-56.628	168.411	0.00038014	0.00060202	0.00013834	1410.7	5.1251e-06	4.8865e-06	1397.1	379.44	5.198e-06	5.0827e-06	432.94	143.08	125.15	42.739	3.6565e-06	52.355	0.00056999	0.00057927	0.00016472	1436.9	6.4859e-06	6.2894e-06	1424	390.69	6.4028e-06	6.3758e-06	444.16	148.11	128.86	44.139	6.2602e-06	54.305	-80.422	-60.659	-44.791	-136.035	-3.444	13.621	-136.242	-131.263	7.618	-8.048	-131.949	-127.712	-126.982	-122.192	-8.710	-123.418	-8191	255	
21814.367	1	1	0	0	0.098716	0.074931	0.14563	0.55357	0.018497	0.080726	0.13125	0.14508	0.17811	0.090062	0.1094	0.3905	0.083366	0.12481	0.11554	0.33666	-2.2417	-2.3438	-2.2333	-2.8187	-2.0812	-2.375	-2.5979	-2.2583	-2.6937	-2.2354	-2.3854	-2.5917	-2.2083	-2.5	-2.6562	-2.0021	-70.269	-8.028	154.255	-145.724	-44.860	-37.806	95.360	143.278	-57.709	-37.097	121.569	168.991	-140.841	-142.658	81.725	207.556	0.0004075	0.00035359	0.00013642	1412.5	3.7636e-06	5.9114e-06	1398.1	380.6	4.1815e-06	4.2131e-06	432.98	143.66	125.21	42.547	5.2511e-06	52.622	0.00054943	0.00055453	0.00015321	1436.2	6.1433e-06	6.1076e-06	1424.1	390.46	6.0062e-06	6.1526e-06	443.96	148.26	128.98	44.109	6.1357e-06	54.369	-83.196	-67.056	-49.064	-136.106	-24.116	-2.635	-135.971	-131.518	18.725	-13.000	-131.930	-127.806	-126.859	-122.433	20.354	-123.614	-8191	255	
21814.465	1	1	0	0	0.087224	0.14334	0.070919	0.21132	0.30308	0.12349	0.20712	0.20449	0.020523	0.20361	0.13317	0.089941	0.13234	0.41115	0.048161	0.16451	-2.0438	-2.3063	-2.0729	-2.8688	-2.0604	-2.4625	-2.6167	-2.2229	-2.5854	-2.5896	-2.4313	-2.6437	-2.1354	-2.3854	-2.4021	-2.3083	-68.187	-121.179	-69.151	-67.974	16.277	-145.706	150.914	-116.703	150.014	-101.558	-109.228	200.937	-30.841	187.272	64.235	138.184	0.00042946	0.00047032	0.00014386	1404.6	6.1835e-06	7.9768e-06	1392	380.32	4.7547e-06	3.7222e-06	434.12	143.52	125.37	42.655	5.0121e-06	52.748	0.00055532	0.00057183	0.0001611	1435.1	6.2359e-06	6.3349e-06	1423.7	390.69	6.1805e-06	6.2744e-06	444.41	148.09	129.1	44.181	6.1655e-06	54.41	-81.315	-58.428	-58.107	-135.943	-5.427	-33.555	-136.058	-131.398	-0.908	39.636	-131.796	-127.689	-127.176	-122.506	-5.929	-122.985	-8191	255	
21814.561	1	1	0	0	0.19386	0.3464	0.057513	0.24676	0.17815	0.18638	0.24544	0.092045	0.19971	0.21754	0.25718	0.11183	0.44874	0.24433	0.30769	0.22028	-2.075	-2.2687	-2.1063	-2.7875	-2.1333	-2.4104	-2.7146	-2.1521	-2.5479	-2.4062	-2.0938	-2.6417	-2.3479	-2.2792	-2.4854	-2.2375	204.254	-57.580	-85.842	175.269	156.507	186.936	192.871	151.218	102.658	89.733	58.729	-47.591	191.575	138.970	-22.343	183.846	0.00043618	0.00057862	0.00016174	1410.6	6.7938e-06	3.8848e-06	1392.7	382.59	6.0952e-06	5.9079e-06	432.19	143.7	124.81	42.67	2.719e-06	52.372	0.00055434	0.00058012	0.00016117	1437.9	6.329e-06	6.4398e-06	1423.4	391.37	6.2472e-06	6.3679e-06	443.98	148.01	128.87	44.1	6.3541e-06	54.295	-78.634	-70.575	-45.744	-136.045	-9.519	-45.308	-136.076	-131.317	-15.425	34.763	-131.994	-127.485	-127.204	-122.504	-0.424	-123.507	-8191	255	
21814.656	1	1	0	0	0.13381	0.30505	0.22341	0.32636	0.30266	0.10343	0.31861	0.12512	0.078555	0.18047	0.33096	0.2666	0.22203	0.031076	0.28764	0.14226	-1.9667	-2.3917	-1.9958	-2.75	-2.2292	-2.2438	-2.7292	-2.3563	-2.5125	-2.5479	-2.2583	-2.6562	-2.3958	-2.4313	-2.8271	-2.3479	-82.581	106.319	101.582	142.107	27.346	57.847	131.791	133.296	-24.549	172.944	113.890	163.761	116.948	-115.210	-137.421	-74.122	0.00045591	0.00042097	0.00015342	1407.8	4.4342e-06	7.8004e-06	1397	379.59	4.4696e-06	4.2791e-06	431.95	143.76	124.88	42.694	3.8687e-06	52.683	0.00055598	0.00058262	0.00016141	1434.5	6.2499e-06	6.2904e-06	1424.8	390.65	6.175e-06	6.1625e-06	443.68	148.01	129.05	44.165	6.1967e-06	54.309	-84.308	-65.619	-36.961	-136.050	14.926	4.338	-136.290	-131.291	10.518	0.712	-131.987	-127.668	-126.975	-122.452	15.324	-123.405	-8191	255	
21814.752	1	1	0	0	0.17229	0.33953	0.17497	0.15673	0.20608	0.050993	0.2391	0.34414	0.1107	0.36029	0.069682	0.19411	0.14941	0.19298	0.069651	0.43889	-1.9833	-2.5104	-2.1813	-2.65	-2.2396	-2.1875	-2.8937	-2.3063	-2.2625	-2.7687	-2.3875	-2.6375	-2.4562	-2.3292	-2.6854	-2.5292	89.859	20.293	148.655	-83.930	160.745	181.379	123.683	130.765	113.744	-111.344	131.875	171.295	-123.398	171.565	172.586	181.684	0.00040066	0.00042923	0.00012998	1410.5	4.8331e-06	4.7381e-06	1397	381.24	5.3437e-06	2.764e-06	431.77	143.46	125	42.863	4.3503e-06	52.351	0.00054801	0.00056265	0.00016232	1434.6	6.1349e-06	6.2553e-06	1424.4	390.97	6.1906e-06	6.1925e-06	443.38	148.08	128.95	44.176	6.1134e-06	54.359	-79.107	-81.739	-64.840	-136.009	-26.448	-8.975	-136.055	-131.407	12.020	13.531	-131.904	-127.931	-126.924	-122.532	-19.077	-123.337	-8191	255	
21814.873	1	1	0	0	0.16362	0.034932	0.28521	0.36959	0.10304	0.14109	0.29868	0.086395	0.17123	0.44403	0.30312	0.18555	0.34335	0.16431	0.19827	0.08028	-1.9479	-2.6167	-2.1688	-2.6542	-2.4708	-2.1604	-2.7104	-2.2729	-2.2562	-2.5854	-2.2417	-2.4771	-2.5479	-2.0854	-2.6396	-2.2562	99.270	86.516	158.917	161.259	48.782	63.190	162.133	-144.776	-78.498	142.443	181.431	141.400	185.812	155.492	99.075	206.099	0.00043804	0.00048218	0.0001542	1405.5	5.4236e-06	4.3962e-06	1396.4	381.51	4.2427e-06	5.1394e-06	432.04	143.86	125.95	42.721	7.0187e-06	52.481	0.00055026	0.00057378	0.00015767	1434	6.2597e-06	6.2993e-06	1424.3	390.89	6.2833e-06	6.2146e-06	443.88	148.16	129.36	44.129	6.3379e-06	54.338	-81.744	-65.426	-54.170	-135.998	15.912	-0.082	-135.880	-131.438	15.087	16.079	-132.152	-127.805	-127.075	-122.275	-28.425	-123.218	-8191	255	
21814.969	1	1	0	0	0.10761	0.11565	0.29279	0.31313	0.28102	0.10445	0.37244	0.18118	0.11548	0.18583	0.245	0.39097	0.26173	0.12166	0.13806	0.049625	-1.9604	-2.6958	-2.3396	-2.6354	-2.4604	-2.0333	-2.8833	-2.4625	-2.3479	-2.6937	-2.3312	-2.3792	-2.6542	-2.2021	-2.7167	-2.6271	121.332	96.572	-104.220	146.810	154.650	169.651	136.363	161.862	-82.565	124.985	198.926	163.058	137.187	-134.214	-145.061	178.819	0.00044691	0.00023682	0.00014775	1413.2	5.9784e-06	5.646e-06	1391.9	381.62	4.7808e-06	3.6185e-06	433.42	143.95	124.92	42.635	3.7601e-06	52.682	0.00056269	0.00057587	0.00016075	1436.3	6.3511e-06	6.3828e-06	1423.7	391.3	6.3197e-06	6.3211e-06	444.01	148.18	128.78	44.174	6.3039e-06	54.398	-82.654	-40.361	-57.548	-136.222	-33.757	2.576	-136.084	-131.537	23.665	-2.278	-132.032	-127.687	-127.174	-122.452	0.400	-123.409	-8191	255	
21815.064	1	1	0	0	0.20381	0.090953	0.014195	0.17711	0.10871	0.046777	0.062998	0.24523	0.12731	0.34653	0.19354	0.097239	0.12344	0.19975	0.12798	0.48248	-1.775	-2.5521	-2.2	-2.6917	-2.5812	-2.0917	-2.6937	-2.6813	-2.2687	-2.6292	-2.3812	-2.4562	-2.5042	-2.35	-2.4062	-2.4667	-141.011	13.431	-129.070	194.602	105.937	32.877	167.540	122.454	-20.898	-145.058	183.631	-38.351	167.783	130.710	54.656	151.335	0.00043133	0.00081384	0.00016334	1406.9	4.9595e-06	4.1139e-06	1400.9	382	3.7437e-06	6.2954e-06	434.56	144.08	125.39	42.84	4.4142e-06	52.918	0.00055338	0.0005778	0.00016061	1434.7	6.3054e-06	6.4917e-06	1425.3	391.26	6.332e-06	6.2195e-06	444.67	148.14	128.84	44.174	6.3268e-06	54.529	-83.273	-56.280	-62.536	-135.912	-28.543	-2.070	-136.079	-131.337	-3.171	-19.541	-131.922	-127.719	-127.088	-122.661	38.329	-123.143	-8191	255	
21815.160	1	1	0	0	0.10679	0.16653	0.0091836	0.37779	0.07547	0.084656	0.30564	0.28144	0.3194	0.2074	0.30911	0.098824	0.27372	0.076968	0.26803	0.16879	-1.8354	-2.45	-2.2667	-2.4583	-2.4979	-2.2875	-2.5917	-2.5208	-2.0062	-2.7687	-2.5708	-2.3833	-2.7083	-2.2812	-2.3896	-2.7479	36.255	-34.176	-25.844	199.533	85.916	111.299	78.184	126.550	184.931	-54.490	-146.073	-2.234	200.429	161.504	-4.439	195.183	0.00042891	0.00062118	0.00016752	1415.3	4.2967e-06	2.6634e-06	1395.2	381.75	4.5103e-06	5.3028e-06	434.71	143.89	125.29	42.892	3.7652e-06	52.659	0.00056289	0.00056612	0.00016028	1436.9	6.3004e-06	6.3471e-06	1426.6	390.46	6.3556e-06	6.1392e-06	444.57	148.28	128.95	44.233	6.1871e-06	54.384	-81.223	-66.218	-51.068	-135.979	9.877	26.301	-136.029	-131.590	-9.226	21.081	-132.132	-127.522	-126.997	-122.563	-3.524	-123.405	-8191	255	
21815.256	1	1	0	0	0.068277	0.1089	0.17182	0.34246	0.18902	0.13627	0.097327	0.22806	0.086358	0.21739	0.37301	0.42332	0.1157	0.3424	0.15183	0.11535	-1.6375	-2.5521	-2.3563	-2.3667	-2.7604	-2.225	-2.4167	-2.6542	-2.0229	-2.6667	-2.3042	-2.2521	-2.6271	-2.2646	-2.475	-2.6562	-123.275	-132.055	-65.570	166.446	108.210	-16.705	150.255	133.169	50.818	-98.739	198.463	195.949	61.297	196.932	165.436	162.483	0.00045321	0.0005865	0.00012674	1414.3	5.7475e-06	6.3049e-06	1398.8	382.12	5.3849e-06	4.0195e-06	436.22	143.75	125.21	42.936	3.9667e-06	52.883	0.00057331	0.00055944	0.00015864	1436.3	6.1199e-06	6.0405e-06	1424.2	391.13	6.1668e-06	6.0545e-06	444.28	148.14	129.07	44.243	6.1409e-06	54.446	-81.499	-79.933	-52.660	-136.104	26.585	0.076	-136.031	-131.211	-8.177	2.943	-132.036	-127.624	-126.971	-122.498	16.974	-123.361	-8191	255	
21815.352	1	1	0	0	0.22036	0.37895	0.12117	0.40865	0.069616	0.27957	0.1842	0.18144	0.082883	0.049174	0.39354	0.32023	0.12999	0.41764	0.084177	0.26516	-1.6604	-2.4396	-2.3458	-2.3458	-2.6458	-2.2875	-2.5708	-2.8271	-2.175	-2.5896	-2.6646	-2.1979	-2.675	-2.2354	-2.2771	-2.5896	105.930	-121.575	2.292	167.886	85.112	100.904	105.640	-70.684	135.268	70.429	157.256	186.080	84.085	-130.602	4.835	5.323	0.00044017	0.00065864	0.00011374	1409.5	3.9854e-06	5.8378e-06	1397.8	382.82	5.4659e-06	6.6212e-06	435.39	143.48	125.45	42.863	5.4844e-06	52.839	0.0005593	0.00054996	0.00015632	1435.9	6.1094e-06	6.2028e-06	1425.7	391.72	6.2162e-06	5.98e-06	445.25	148.21	129.17	44.257	6.2449e-06	54.561	-77.444	-57.563	-35.303	-135.822	-5.586	17.120	-135.954	-131.266	15.519	2.365	-131.943	-127.718	-127.325	-122.314	18.011	-123.265	-8191	255	
21815.447	1	1	0	0	0.20588	0.089125	0.068839	0.47645	0.079045	0.29479	0.066613	0.22457	0.08728	0.17683	0.26146	0.20005	0.33739	0.34082	0.30919	0.29111	-1.6708	-2.3438	-2.3229	-2.2125	-2.4958	-2.5958	-2.6625	-2.7313	-2.0042	-2.4792	-2.4125	-2.1354	-2.4167	-2.4208	-2.2938	-2.6896	202.845	-95.970	64.767	133.203	166.396	21.215	-142.614	102.516	50.307	97.945	95.390	172.318	193.497	146.723	86.850	177.675	0.00044366	0.00040851	0.00018566	1411.7	4.331e-06	5.3647e-06	1400.9	381.29	4.7856e-06	6.7047e-06	433.01	144.01	125.56	42.83	2.775e-06	53.078	0.00054581	0.00055499	0.00015533	1437.5	5.9475e-06	6.1685e-06	1424.5	391.14	6.1307e-06	6.2205e-06	444.1	148.54	129.33	44.229	6.0652e-06	54.66	-81.645	-65.953	-45.582	-136.243	-21.260	4.419	-136.079	-131.471	0.424	23.238	-131.876	-127.549	-127.003	-122.667	2.162	-123.231	-8191	255	
21815.568	1	1	0	0	0.2903	0.13016	0.1411	0.23981	0.078275	0.20832	0.31042	0.34011	0.19026	0.090024	0.26477	0.18722	0.28111	0.22205	0.076846	0.5473	-1.6896	-2.3438	-2.3792	-2.4188	-2.6104	-2.3312	-2.2917	-2.5333	-2.1937	-2.1979	-2.6688	-2.2917	-2.4437	-2.4313	-2.2854	-2.5042	59.683	-37.531	-8.329	-119.526	55.220	28.348	192.898	194.922	-31.922	72.432	190.207	144.782	-107.950	168.879	102.222	119.871	0.0004152	0.00053042	0.00011268	1415.4	4.0456e-06	6.2465e-06	1401.2	382.12	5.954e-06	7.9102e-06	435.36	144.34	126.29	42.917	4.3544e-06	52.574	0.00054421	0.00054939	0.00015444	1438	6.068e-06	6.2484e-06	1427.4	391.49	6.1656e-06	6.2307e-06	444.55	148.36	129.46	44.273	6.2725e-06	54.412	-79.353	-89.467	-50.012	-136.054	7.272	-7.036	-135.934	-131.436	-2.149	-4.306	-132.238	-127.503	-127.167	-122.430	-19.785	-123.179	-8191	255	
21815.664	1	1	0	0	0.12698	0.13661	0.19466	0.2305	0.13777	0.11909	0.27508	0.097805	0.084247	0.1884	0.24694	0.18886	0.099669	0.20048	0.20671	0.085217	-1.9125	-2.3833	-2.5312	-2.4521	-2.4938	-2.5021	-2.3083	-2.7271	-2.2521	-2.3667	-2.6688	-2.275	-2.6104	-2.4729	-2.1188	-2.6125	-137.288	135.025	180.726	149.692	164.547	101.609	134.965	134.931	132.910	133.304	86.761	69.475	49.823	150.696	107.388	207.738	0.00042788	0.00056067	0.00015073	1405.3	4.9309e-06	5.6715e-06	1394.6	381.81	5.9255e-06	5.5922e-06	434.52	144.05	125.77	42.802	5.5235e-06	52.956	0.00055746	0.00058136	0.00016126	1434.5	6.1649e-06	6.2255e-06	1423.4	391.5	6.286e-06	6.4663e-06	444.26	148.15	129.3	44.228	6.3996e-06	54.538	-81.854	-70.656	-53.433	-136.088	12.027	10.529	-136.202	-131.485	2.974	-5.988	-132.024	-127.552	-127.194	-122.583	-0.678	-123.174	-8191	255	
21815.736	1	1	0	0	0.24501	0.067592	0.12426	0.11102	0.19422	0.20266	0.22771	0.063326	0.25118	0.13203	0.37517	0.18698	0.18917	0.14179	0.32552	0.30889	-1.7708	-2.0708	-2.3979	-2.3542	-2.3229	-2.55	-2.3625	-2.5187	-2.2625	-2.2375	-2.6688	-2.3292	-2.4896	-2.5375	-2.0875	-2.6917	-70.218	-63.747	98.271	140.360	32.790	179.993	97.235	143.530	-100.278	63.866	190.733	196.151	-92.126	-5.186	69.521	181.959	0.0004366	0.00058515	0.0001376	1408.9	5.1088e-06	3.9818e-06	1400.4	382.72	6.2872e-06	7.4478e-06	433.23	143.7	125.49	42.868	3.2313e-06	52.887	0.00056919	0.00059042	0.00015865	1435.4	6.2806e-06	6.3326e-06	1424.7	391.44	6.4745e-06	6.2957e-06	444.01	148.32	129.05	44.258	6.4544e-06	54.496	-83.729	-55.235	-51.937	-136.078	-5.709	-7.707	-136.049	-131.370	1.267	-5.746	-131.846	-127.548	-127.075	-122.380	4.686	-123.265	-8191	255	
21815.832	1	1	0	0	0.20372	0.1988	0.32658	0.38788	0.12327	0.19919	0.13859	0.33806	0.10067	0.061824	0.14721	0.11303	0.32911	0.20392	0.14133	0.051623	-1.9333	-2.1104	-2.5396	-2.2979	-2.2667	-2.3604	-2.2771	-2.5396	-2.3292	-2.2062	-2.7646	-2.5771	-2.4896	-2.7146	-2.0396	-2.5417	-85.169	-12.103	-84.419	-148.334	57.516	-66.613	-145.091	146.413	69.164	187.650	-138.175	132.785	134.126	119.858	-14.031	24.228	0.00041731	0.00054514	0.00014958	1409.2	5.9123e-06	4.9499e-06	1395	383.62	4.4235e-06	7.6428e-06	434.55	144	125	42.727	3.4442e-06	52.818	0.00057212	0.00059508	0.00016243	1435.5	6.3385e-06	6.5049e-06	1425.1	391.36	6.3284e-06	6.3316e-06	444.3	148.14	128.97	44.163	6.2602e-06	54.425	-82.342	-88.431	-53.163	-135.922	-22.176	7.929	-136.078	-131.459	-6.072	16.254	-132.074	-127.765	-126.937	-122.377	11.014	-123.093	-8191	255	
21815.953	1	1	0	0	0.036988	0.08696	0.22009	0.17423	0.062346	0.2953	0.10486	0.10131	0.071938	0.15605	0.36823	0.27496	0.11058	0.21217	0.053655	0.16752	-1.8792	-2.0083	-2.6479	-2.7042	-2.3375	-2.4792	-2.3375	-2.4938	-2.4313	-2.1583	-2.6125	-2.4625	-2.3417	-2.6333	-2.275	-2.4729	-46.185	-92.352	-66.694	172.489	131.625	91.064	132.658	-130.277	207.078	-139.310	161.787	132.108	206.811	78.202	72.184	182.681	0.00044514	0.00044279	0.00016686	1409	5.9353e-06	6.3631e-06	1397.6	380.98	5.2506e-06	3.3415e-06	434.24	143.47	125.43	42.768	5.0263e-06	52.664	0.00056633	0.00058097	0.00015863	1435.1	6.2828e-06	6.2207e-06	1422.1	390.78	6.2593e-06	6.2576e-06	444.5	147.88	129.02	44.17	6.3339e-06	54.393	-84.822	-85.976	-44.659	-135.863	35.903	16.141	-136.059	-131.249	8.037	-9.500	-131.864	-127.519	-127.072	-122.389	-13.047	-123.247	-8191	255	
21816.049	1	1	0	0	0.21982	0.05192	0.08546	0.099892	0.178	0.11706	0.33089	0.077753	0.43721	0.11474	0.20873	0.28226	0.25133	0.18321	0.10359	0.097733	-2.0771	-2.1333	-2.4208	-2.5333	-2.2625	-2.6583	-2.45	-2.4583	-2.5708	-2.4208	-2.6208	-2.5292	-2.3208	-2.7375	-2.2083	-2.4896	205.172	75.052	208.431	180.854	119.881	177.879	119.525	-81.866	-84.200	56.064	-107.500	185.497	167.195	136.883	104.275	-2.816	0.00046165	0.00056899	0.00014466	1412.9	3.2848e-06	5.6076e-06	1396.8	382.8	4.7249e-06	6.2649e-06	434.11	143.6	125.14	42.892	3.8832e-06	52.733	0.00056328	0.00057934	0.00015781	1435.6	6.2713e-06	6.3759e-06	1423.3	391.23	6.2386e-06	6.3799e-06	444.5	148.19	129.2	44.258	6.3283e-06	54.497	-79.081	-81.813	-54.665	-135.992	13.830	2.575	-135.974	-131.378	2.511	17.070	-132.034	-127.668	-126.914	-122.258	14.051	-123.475	-8191	255	
21816.146	1	1	0	0	0.27587	0.22944	0.15195	0.18798	0.10796	0.16837	0.44416	0.1809	0.19452	0.31411	0.16924	0.10141	0.20178	0.10412	0.19771	0.17995	-2.075	-2.1063	-2.2625	-2.4625	-2.1417	-2.4708	-2.425	-2.4313	-2.5125	-2.1729	-2.6083	-2.4917	-2.3521	-2.7083	-2.275	-2.5	-43.425	178.217	135.024	-125.723	198.483	37.559	162.710	159.195	120.811	85.496	115.493	-145.654	179.876	-66.456	-148.111	186.590	0.00045594	0.0004353	0.00017442	1412.4	5.3959e-06	5.2225e-06	1398.7	382.76	1.7088e-06	4.7313e-06	435.46	144.24	126.37	42.875	6.1868e-06	52.807	0.00057338	0.00057886	0.00015806	1439.2	6.4056e-06	6.2179e-06	1427.4	391.74	6.2092e-06	6.2103e-06	444.96	148.57	129.53	44.248	6.4677e-06	54.571	-81.744	-80.012	-53.646	-136.013	-5.079	4.713	-136.075	-131.429	2.473	-12.524	-131.981	-127.589	-127.025	-122.611	1.271	-123.070	-8191	255	
21816.266	1	1	0	0	0.20194	0.20661	0.22006	0.11876	0.2245	0.18072	0.17682	0.3742	0.18967	0.33778	0.3427	0.48896	0.24112	0.19702	0.15663	0.24608	-2.2229	-2.0875	-2.4479	-2.7021	-2.2125	-2.6958	-2.5958	-2.3729	-2.5187	-2.2833	-2.5583	-2.6583	-2.2042	-2.5083	-2.3479	-2.3271	-129.785	187.496	151.377	127.459	112.424	148.650	160.266	208.670	28.992	1.979	-92.341	194.413	49.663	168.394	-46.383	141.715	0.00042633	0.00034264	0.00014884	1414.8	4.9849e-06	5.9787e-06	1401.2	382.74	4.9763e-06	5.9439e-06	435.18	144.2	125.34	42.972	4.886e-06	52.828	0.00056704	0.00057748	0.00015598	1439.4	6.4156e-06	6.1789e-06	1427.8	391.63	6.4591e-06	6.4942e-06	444.95	148.43	129.18	44.311	6.4967e-06	54.512	-80.979	-45.739	-73.149	-136.123	8.925	-3.956	-136.128	-131.530	6.580	2.448	-131.712	-127.538	-127.022	-122.208	18.244	-123.244	-8191	255	
21816.361	1	1	0	0	0.12148	0.19186	0.09941	0.47678	0.1028	0.14144	0.12427	0.26906	0.10964	0.1627	0.10972	0.15533	0.16204	0.11985	0.26764	0.29589	-2.0917	-2.2229	-2.5375	-2.575	-2.3292	-2.5417	-2.6271	-2.3729	-2.7646	-2.1688	-2.5021	-2.7917	-2.1771	-2.6625	-2.2292	-2.2	-110.981	169.932	189.528	175.780	-143.088	44.146	155.119	172.090	124.523	95.191	210.136	129.840	-93.771	-79.175	137.159	113.571	0.00044331	0.00041213	9.5785e-05	1416.9	5.8343e-06	6.255e-06	1399.2	382	6.0129e-06	3.5142e-06	435.74	144.62	125.48	42.764	3.9064e-06	52.53	0.0005696	0.0005952	0.00016524	1440.9	6.5044e-06	6.6228e-06	1426.4	391.85	6.6122e-06	6.6638e-06	445.43	148.48	129.15	44.16	6.7212e-06	54.418	-85.627	-60.984	-82.163	-136.094	12.843	-10.662	-136.104	-131.354	-10.900	10.011	-132.106	-127.704	-126.919	-122.494	25.186	-123.099	-8191	255	
21816.434	1	1	0	0	0.12359	0.18011	0.20016	0.25412	0.25525	0.091167	0.078271	0.15185	0.13669	0.026246	0.31241	0.20313	0.064972	0.1515	0.10851	0.33769	-2.1458	-2.2458	-2.0687	-2.7396	-2.2771	-2.5	-2.7229	-2.3396	-2.5625	-2.2583	-2.6312	-2.8271	-2.3417	-2.6396	-2.4292	-2.3875	170.557	44.230	-99.635	135.550	82.417	178.586	101.034	143.879	149.025	8.356	170.633	-77.745	132.835	133.607	132.793	132.912	0.00041779	0.00030558	0.00013867	1409.5	3.9369e-06	4.1531e-06	1399.6	382.97	5.0466e-06	5.2434e-06	434.58	143.82	125	42.889	4.573e-06	52.733	0.00058409	0.00060702	0.00016858	1437.3	6.6825e-06	6.5304e-06	1427.2	391.35	6.5467e-06	6.6894e-06	444.52	148.18	128.92	44.172	6.7136e-06	54.401	-79.405	-87.299	-48.533	-135.929	14.281	9.988	-136.136	-131.473	-5.439	42.023	-131.907	-127.663	-126.885	-122.441	13.886	-123.374	-8191	255	
21816.553	1	1	0	0	0.22447	0.16097	0.028785	0.22972	0.18717	0.13533	0.29754	0.095827	0.16979	0.084053	0.04305	0.14261	0.19933	0.26645	0.1678	0.26912	-1.9542	-2.4625	-1.9979	-2.7271	-2.2104	-2.5229	-2.6646	-2.3896	-2.4354	-2.35	-2.1771	-2.7438	-2.3708	-2.4542	-2.4813	-2.0917	62.531	69.308	68.817	-143.101	-44.254	143.006	129.701	116.729	-137.540	85.418	-33.275	127.814	113.142	-142.601	152.548	125.945	0.00042566	0.00067843	0.00011369	1406	7.8738e-06	7.2029e-06	1393.8	381.28	5.4877e-06	5.7016e-06	433.08	143.61	124.83	42.384	6.4579e-07	52.713	0.00058777	0.00061166	0.00017402	1436.4	6.7301e-06	6.5604e-06	1423.6	390.91	6.676e-06	6.7555e-06	444.02	147.77	128.7	43.969	6.7166e-06	54.255	-83.291	-61.155	-66.360	-135.987	2.693	-22.378	-135.950	-131.445	-15.660	13.369	-131.850	-127.554	-127.121	-122.327	32.053	-123.294	-8191	255	
21816.648	1	1	0	0	0.17671	0.10184	0.090274	0.23083	0.23422	0.22511	0.28203	0.19003	0.18338	0.28318	0.090651	0.10816	0.13856	0.21639	0.04949	0.080572	-2.0583	-2.3937	-2.3417	-2.8354	-2.3646	-2.5083	-2.9104	-2.4896	-2.6167	-2.5792	-2.3417	-2.6854	-2.3771	-2.5729	-2.5646	-2.2792	126.857	15.725	45.386	110.970	-57.454	-119.338	120.974	-5.055	37.635	59.325	-58.673	173.780	155.701	-130.911	3.478	66.615	0.00041454	0.00053348	9.9396e-05	1411.3	2.4614e-06	7.3933e-06	1393.5	381.66	5.4088e-06	6.5868e-06	434.35	143.24	125.18	42.573	5.3376e-06	52.55	0.00057168	0.0006014	0.00016803	1435.1	6.5466e-06	6.8167e-06	1421.2	390.55	6.585e-06	6.5481e-06	443.22	147.78	128.62	44.103	6.5432e-06	54.257	-80.903	-29.284	-32.451	-136.013	23.090	-10.656	-135.892	-131.036	9.082	19.123	-131.876	-127.829	-126.921	-122.624	0.955	-123.077	-8191	255	
21816.744	1	1	0	0	0.24773	0.13278	0.22601	0.17616	0.22205	0.12638	0.16603	0.1535	0.06749	0.26544	0.32019	0.079585	0.3787	0.086943	0.1023	0.17411	-2.1292	-2.55	-2.2771	-2.8417	-2.0438	-2.3479	-2.6979	-2.2583	-2.5167	-2.4708	-2.4167	-2.6813	-2.5687	-2.2062	-2.6458	-2.425	33.545	126.169	130.356	-135.667	-58.078	-50.320	116.074	117.429	-132.759	-31.653	166.807	87.551	173.763	-62.748	41.711	206.059	0.00042261	0.00065164	0.00012989	1406	5.7595e-06	5.788e-06	1393.9	381.21	3.9914e-06	6.8062e-06	433.3	142.95	124.46	42.657	4.1947e-06	52.28	0.00056912	0.00060052	0.00016585	1432.6	6.4459e-06	6.5067e-06	1421.5	390.36	6.5301e-06	6.5324e-06	443.62	147.62	128.5	44.056	6.449e-06	54.34	-80.091	-76.904	-46.274	-136.000	-18.767	20.996	-136.061	-131.625	-0.430	23.736	-131.969	-127.474	-126.955	-122.436	2.574	-123.616	-8191	255	
21816.865	1	1	0	0	0.16253	0.11076	0.24456	0.1608	0.12464	0.24676	0.17142	0.12373	0.10055	0.14325	0.020983	0.2303	0.11507	0.14888	0.39696	0.15545	-2.0312	-2.5583	-2.0854	-2.6792	-2.3104	-2.325	-2.9229	-2.3625	-2.4396	-2.4854	-2.3063	-2.6021	-2.5521	-2.4271	-2.8479	-2.4938	191.401	-62.823	-3.516	154.222	-2.233	210.120	-144.385	128.367	187.509	24.614	-149.324	110.939	-118.674	140.507	6.355	28.900	0.00044691	0.00053754	0.00012411	1407.1	4.7068e-06	5.9227e-06	1389.6	380.48	4.7518e-06	3.6573e-06	433.55	143.37	124.94	42.573	3.6665e-06	52.539	0.00055891	0.0005896	0.0001644	1432.9	6.4654e-06	6.4869e-06	1421.5	389.77	6.4728e-06	6.3961e-06	443.7	147.78	128.88	44.079	6.5235e-06	54.329	-83.935	-51.964	-38.763	-135.983	16.119	-18.746	-136.067	-131.420	6.554	0.696	-131.955	-127.575	-127.156	-122.664	-33.399	-123.383	-8191	255	
21816.963	1	1	0	0	0.093826	0.019977	0.19716	0.37332	0.14703	0.19618	0.22645	0.26446	0.1881	0.25439	0.065001	0.12242	0.20894	0.071394	0.016333	0.16411	-1.8646	-2.5958	-2.2188	-2.7792	-2.4979	-2.3708	-2.8604	-2.6188	-2.2812	-2.7667	-2.3271	-2.5604	-2.4292	-2.3167	-2.6042	-2.4688	167.773	119.221	-125.721	151.163	-39.886	-121.322	40.545	144.610	32.217	171.472	-139.094	122.331	81.970	-80.520	52.304	66.240	0.0004024	0.00042315	0.00016157	1410.2	3.9281e-06	4.0993e-06	1387.7	381.34	3.1118e-06	5.5123e-06	433.59	143.56	124.66	42.511	6.3204e-06	52.594	0.00055143	0.00059366	0.00016195	1432.5	6.264e-06	6.3846e-06	1418.4	389.9	6.2561e-06	6.2162e-06	442.74	147.76	128.57	44.062	6.2476e-06	54.284	-80.854	-43.295	-42.168	-136.041	-18.234	-10.233	-136.068	-131.413	-4.085	8.240	-131.906	-127.623	-127.321	-122.453	1.442	-123.499	-8191	255	
21817.033	1	1	0	0	0.077248	0.185	0.38194	0.32694	0.1871	0.28335	0.13798	0.12443	0.15854	0.29992	0.23037	0.24963	0.16114	0.13626	0.067536	0.14229	-1.7938	-2.7938	-2.25	-2.7896	-2.4292	-2.0542	-2.7979	-2.5604	-2.325	-2.6396	-2.425	-2.5979	-2.5646	-2.2292	-2.5958	-2.3583	-7.507	-57.820	13.305	-139.406	87.655	160.414	146.943	136.773	120.349	125.267	-148.393	206.031	193.501	-20.109	41.286	38.776	0.00041801	0.00050741	0.00012559	1405.5	4.9276e-06	4.4424e-06	1389.1	380.91	4.2655e-06	6.7536e-06	432.12	143.29	124.76	42.751	5.421e-06	52.656	0.00055056	0.00056222	0.00016075	1430	6.2371e-06	6.2718e-06	1420.2	390.06	6.1295e-06	6.2152e-06	442.7	147.91	128.81	44.158	6.2695e-06	54.341	-84.666	-69.634	-40.055	-136.003	6.060	-10.860	-136.043	-131.588	19.028	10.508	-132.066	-127.719	-127.085	-122.372	-19.150	-123.244	-8191	255	
21817.131	1	1	0	0	0.09676	0.038736	0.12239	0.17987	0.20909	0.085589	0.24045	0.23734	0.049653	0.14961	0.155	0.090435	0.109	0.15036	0.010548	0.063127	-1.8813	-2.6833	-2.1396	-2.6771	-2.6354	-2.3146	-2.6542	-2.6625	-2.1625	-2.4375	-2.3312	-2.4875	-2.5958	-2.3146	-2.4396	-2.4854	30.854	-40.065	197.949	206.563	42.754	181.345	57.619	148.502	72.434	127.720	197.915	162.838	104.307	-146.557	32.624	132.188	0.00042166	0.0005734	0.0001846	1407.9	3.531e-06	7.0208e-06	1392.9	379.99	3.5005e-06	6.0316e-06	433.53	143.51	125.52	42.724	3.5947e-06	52.474	0.00057448	0.00057514	0.00016404	1434.6	6.3002e-06	6.4197e-06	1421.4	390.48	6.4808e-06	6.4299e-06	443.65	148.06	129.02	44.175	6.3148e-06	54.429	-78.941	-38.671	-59.725	-135.992	-13.908	9.959	-136.094	-131.536	-16.384	-6.569	-132.158	-127.635	-127.206	-122.392	6.294	-123.340	-8191	255	
21817.248	1	1	0	0	0.16668	0.032653	0.10981	0.25658	0.11453	0.16118	0.17549	0.13387	0.17377	0.16932	0.21624	0.11843	0.22532	0.34625	0.13348	0.39772	-1.8542	-2.8354	-2.1771	-2.5687	-2.5667	-2.1937	-2.7271	-2.6479	-2.275	-2.5042	-2.2938	-2.3146	-2.6771	-2.25	-2.4167	-2.6083	195.327	43.539	33.485	180.672	55.086	-55.426	45.563	61.007	-54.228	150.800	-126.768	-24.578	158.843	-127.901	43.441	194.178	0.00042076	0.0004061	0.00022344	1404.6	5.1075e-06	3.1371e-06	1390.8	380.59	5.145e-06	5.0259e-06	434.07	143.9	124.98	42.747	3.1432e-06	52.778	0.00055602	0.00056942	0.00015603	1431.5	6.2902e-06	6.3151e-06	1421.9	389.77	6.3548e-06	6.2418e-06	443.71	147.9	128.8	44.111	6.1296e-06	54.332	-81.056	-88.726	-56.220	-136.163	9.746	-26.419	-135.946	-131.502	20.078	26.695	-132.086	-127.662	-127.132	-122.443	-21.089	-123.216	-8191	255	
21817.346	1	1	0	0	0.10432	0.078218	0.057835	0.49397	0.20393	0.20695	0.26309	0.18289	0.070493	0.094813	0.22106	0.17262	0.13681	0.43578	0.083024	0.14761	-1.6646	-2.4854	-2.2083	-2.6146	-2.4333	-2.3167	-2.575	-2.6854	-2.1854	-2.6813	-2.5187	-2.2812	-2.6	-2.3021	-2.4396	-2.6583	152.660	-129.494	14.575	208.091	116.478	-20.458	144.103	97.282	186.295	-78.610	-110.822	171.570	-120.764	171.459	-111.634	24.722	0.00045503	0.00059119	0.00013609	1404.4	4.0393e-06	5.6479e-06	1389.8	381.46	3.5392e-06	5.9746e-06	433.01	143.43	124.7	42.774	6.5225e-06	52.633	0.00055239	0.00056869	0.00015462	1430.9	6.1287e-06	6.1405e-06	1417.2	390.67	6.2675e-06	6.2085e-06	443.35	147.7	128.86	44.137	6.1212e-06	54.407	-79.794	-60.181	-77.020	-136.017	-23.279	-19.536	-135.928	-131.411	10.087	-10.419	-131.893	-127.782	-126.984	-122.547	-3.806	-123.283	-8191	255	
21817.441	1	1	0	0	0.21223	0.14512	0.085039	0.24916	0.074615	0.08882	0.18966	0.25976	0.15263	0.19002	0.23165	0.052818	0.13857	0.21721	0.19967	0.19248	-1.8875	-2.4521	-2.5917	-2.3625	-2.6271	-2.2021	-2.5271	-2.7438	-2.25	-2.4833	-2.4813	-2.3375	-2.6875	-2.5187	-2.2917	-2.7104	177.179	-88.425	208.563	-122.731	195.367	-133.022	199.571	198.986	7.201	35.011	167.258	127.801	135.858	125.771	62.725	178.067	0.00043455	0.00060585	0.00016281	1404.8	4.8743e-06	2.6884e-06	1388.5	380.42	3.4352e-06	4.7174e-06	433.09	142.86	124.53	42.789	4.7235e-06	52.551	0.00055774	0.00056924	0.00016154	1429	6.2268e-06	6.267e-06	1418	390	6.2179e-06	6.1633e-06	443.56	147.62	128.63	44.12	6.241e-06	54.332	-82.266	-81.589	-66.329	-136.053	-42.691	15.527	-136.029	-131.542	7.539	16.006	-132.051	-127.527	-127.054	-122.516	-19.790	-123.285	-8191	255	
21817.537	1	1	0	0	0.12335	0.21578	0.12721	0.37338	0.060429	0.12406	0.1116	0.20762	0.045866	0.23516	0.033081	0.18214	0.10244	0.17628	0.068602	0.17971	-1.7792	-2.3812	-2.3187	-2.2896	-2.575	-2.4292	-2.5167	-2.7771	-2.1396	-2.4104	-2.5875	-2.3625	-2.4813	-2.3792	-2.2417	-2.55	57.934	11.940	-26.064	163.035	68.079	136.699	170.948	153.290	122.593	183.626	-81.280	-138.214	190.480	-34.998	-29.857	169.994	0.00038431	0.00057216	0.00017171	1402.4	3.911e-06	3.8358e-06	1390.8	380.69	4.7061e-06	6.8982e-06	432.46	143.57	124.54	42.586	4.7388e-06	52.829	0.00056244	0.00056688	0.00016154	1430.3	6.1756e-06	6.4034e-06	1417.2	390.34	6.2547e-06	6.2596e-06	443.44	147.84	128.69	44.071	6.0401e-06	54.322	-80.152	-51.775	-53.341	-136.112	-5.948	18.673	-136.100	-131.488	-1.384	1.727	-132.084	-127.738	-127.150	-122.686	-7.099	-123.146	-8191	255	
21817.633	1	1	0	0	0.22158	0.13993	0.09441	0.31393	0.098357	0.10882	0.45475	0.37928	0.17733	0.063723	0.13438	0.17095	0.17616	0.1352	0.2912	0.19007	-1.825	-2.4479	-2.3542	-2.3208	-2.6688	-2.3229	-2.3833	-2.8563	-2.35	-2.4354	-2.5104	-2.2354	-2.5917	-2.4938	-2.3875	-2.6042	44.813	162.953	95.209	-77.116	35.303	145.231	-147.984	146.382	-71.520	-145.219	77.362	68.606	170.827	88.318	-95.702	150.738	0.00038742	0.0004245	0.00023045	1402.9	4.4881e-06	5.4896e-06	1394	379.31	4.7265e-06	5.3649e-06	432.97	143.6	124.96	42.724	2.8051e-06	52.689	0.00054471	0.0005543	0.00015658	1430.2	5.9366e-06	6.1295e-06	1420.2	389.63	6.1603e-06	6.1669e-06	443.24	147.81	128.75	44.156	6.178e-06	54.388	-83.432	-64.799	-45.751	-135.934	29.350	-0.691	-136.148	-131.394	22.540	-25.414	-131.856	-127.592	-127.133	-122.305	-14.996	-123.423	-8191	255	
21817.729	1	1	0	0	0.1264	0.11587	0.03341	0.25809	0.1328	0.13715	0.15356	0.16711	0.24594	0.23522	0.25545	0.15381	0.049616	0.29489	0.14735	0.25445	-1.7938	-2.2667	-2.6083	-2.6208	-2.6083	-2.6208	-2.4104	-2.6646	-2.2812	-2.2625	-2.6937	-2.6146	-2.6021	-2.5396	-2.2062	-2.8292	90.035	-16.002	-143.543	180.890	168.839	131.150	141.428	41.643	158.858	19.111	157.000	150.394	-84.830	195.257	111.554	150.832	0.00043542	0.0004807	0.00010348	1409.7	4.4061e-06	2.6439e-06	1391.6	381.55	5.2066e-06	2.895e-06	433.77	143.35	125.36	42.593	6.2592e-06	52.807	0.00055756	0.00055811	0.00015623	1433.8	6.1623e-06	6.1458e-06	1421.5	390.86	6.3279e-06	6.2851e-06	444.57	147.99	128.96	44.122	6.2806e-06	54.419	-76.768	-57.007	-48.160	-135.986	-13.227	-17.665	-136.353	-131.509	-32.484	23.573	-132.101	-127.595	-127.053	-122.382	-3.805	-123.227	-8191	255	
21817.826	1	1	0	0	0.16624	0.079988	0.10425	0.12493	0.13639	0.28156	0.27466	0.064194	0.12338	0.24387	0.14319	0.22804	0.13442	0.26547	0.20282	0.25755	-1.9354	-2.1667	-2.5583	-2.4125	-2.3583	-2.5333	-2.4083	-2.6729	-2.2812	-2.1521	-2.7562	-2.3479	-2.4979	-2.4813	-2.1021	-2.7313	77.853	8.702	10.233	206.331	-84.417	40.460	122.088	-93.925	-43.937	40.572	181.856	-145.431	103.886	-115.854	54.386	34.056	0.00037866	0.00037708	0.00014427	1408.8	3.3913e-06	8.4415e-06	1396.1	381.39	3.3014e-06	4.13e-06	433.05	143.7	124.72	42.707	5.4918e-06	52.601	0.00055617	0.0005632	0.00015744	1434.3	6.1406e-06	6.3352e-06	1422.1	390.62	6.2862e-06	6.3565e-06	443.35	148.01	128.86	44.133	6.2538e-06	54.292	-79.805	-56.524	-71.803	-135.907	-2.047	-16.706	-136.110	-131.616	18.950	43.901	-131.936	-127.684	-127.003	-122.749	16.344	-123.386	-8191	255	
21817.945	1	1	0	0	0.14972	0.089282	0.11912	0.2264	0.19541	0.085818	0.30947	0.15145	0.33058	0.074484	0.12782	0.1728	0.21225	0.1769	0.25107	0.15917	-1.7604	-2.3521	-2.5938	-2.4646	-2.2583	-2.4854	-2.5104	-2.5521	-2.3979	-2.1688	-2.7729	-2.4	-2.3292	-2.6333	-1.9833	-2.7083	-85.404	-120.101	7.404	84.121	123.035	-146.729	140.267	125.453	171.135	64.352	208.011	188.713	-51.049	-33.336	-93.494	166.553	0.00041507	0.00034586	0.00015401	1408.1	6.1995e-06	5.0344e-06	1390.3	380.54	3.8399e-06	3.0809e-06	433.63	143.75	124.51	42.737	4.4813e-06	52.546	0.00055446	0.00056327	0.00015639	1432.7	6.1759e-06	6.0746e-06	1418.1	390.21	6.246e-06	5.9554e-06	443.18	147.97	128.55	44.129	5.9823e-06	54.406	-78.988	-68.429	-67.526	-135.967	0.295	-3.075	-135.971	-131.515	-9.672	45.915	-131.760	-127.827	-126.952	-122.179	-2.041	-123.469	-8191	255	
21818.043	1	1	0	0	0.1748	0.17143	0.14781	0.13699	0.28996	0.21256	0.099442	0.17266	0.17169	0.15149	0.2909	0.095537	0.13001	0.46109	0.20539	0.28707	-1.8542	-2.2875	-2.6729	-2.4313	-2.1271	-2.4437	-2.4104	-2.6188	-2.3646	-2.2812	-2.5708	-2.5146	-2.4375	-2.6625	-2.15	-2.5396	-119.821	-12.165	62.846	175.361	-61.513	131.547	88.502	106.005	-43.480	6.425	168.809	-132.176	-144.341	177.921	146.901	45.852	0.00042613	0.00046032	0.00016891	1406	3.9376e-06	5.6139e-06	1387.3	380.24	3.3975e-06	7.7009e-06	433.52	144.05	125.21	42.726	5.9837e-06	52.547	0.00053405	0.00055508	0.00014954	1430.9	5.9942e-06	5.999e-06	1417.8	389.88	5.9388e-06	5.8957e-06	443.26	148.12	128.9	44.22	5.8544e-06	54.471	-81.435	-69.735	-34.439	-135.970	3.638	13.294	-135.905	-131.274	-3.406	-5.348	-132.120	-127.475	-127.228	-122.579	6.111	-123.228	-8191	255	
21818.139	1	1	0	0	0.084786	0.20385	0.12524	0.30699	0.21011	0.08804	0.27611	0.33819	0.089618	0.16077	0.31748	0.22191	0.22628	0.19112	0.106	0.2073	-2.1312	-2.1354	-2.6583	-2.5771	-2.2562	-2.6583	-2.3375	-2.3458	-2.4854	-2.1646	-2.6646	-2.2562	-2.2958	-2.6875	-2.2083	-2.4313	-108.200	200.773	52.331	169.788	-73.241	152.024	57.839	81.224	-9.766	44.724	184.803	-25.742	-146.607	144.130	139.222	17.514	0.00039769	0.00072666	9.6265e-05	1405.9	5.1715e-06	3.2672e-06	1400.6	382.66	6.0626e-06	6.2985e-06	435.87	143.67	125.81	42.712	3.1619e-06	52.721	0.00053629	0.00055012	0.00015138	1432.5	6.0078e-06	6.2555e-06	1423.6	391.22	6.3712e-06	6.1961e-06	444.75	147.82	129.34	44.166	6.4148e-06	54.479	-80.549	-47.428	-58.155	-135.923	-15.159	16.704	-136.044	-131.211	-12.163	7.331	-132.022	-127.700	-127.136	-122.611	-36.586	-123.041	-8191	255	
21818.234	1	1	0	0	0.13047	0.28507	0.28829	0.22224	0.10973	0.1352	0.17598	0.13894	0.20258	0.19474	0.10772	0.11668	0.16858	0.42949	0.13107	0.0305	-2.0583	-1.9542	-2.5563	-2.7354	-2.3396	-2.7104	-2.2125	-2.5708	-2.6208	-2.0938	-2.5875	-2.4979	-2.425	-2.7333	-2.2812	-2.2417	12.777	134.129	85.625	-144.339	132.755	26.481	97.762	197.410	-26.236	-22.736	125.444	0.733	191.275	150.095	-0.498	21.092	0.00042772	0.00053216	0.00013399	1412.1	4.7227e-06	7.0948e-06	1399	381.65	2.138e-06	4.5559e-06	435.79	144.66	125.07	42.817	3.4205e-06	52.495	0.00057117	0.00058572	0.00016252	1439.4	6.4385e-06	6.3393e-06	1426.1	391.18	6.304e-06	6.267e-06	444.25	148.18	128.79	44.115	5.9584e-06	54.364	-78.363	-64.068	-69.796	-135.936	27.605	-4.190	-135.935	-131.316	2.115	21.096	-131.944	-127.649	-127.026	-122.281	10.220	-123.496	-8191	255	
21818.328	1	1	0	0	0.21032	0.15592	0.11856	0.41173	0.089451	0.18095	0.27597	0.29134	0.10557	0.21462	0.31299	0.13364	0.2502	0.24285	0.28283	0.22182	-2.1229	-2.15	-2.3292	-2.7021	-2.0542	-2.4125	-2.5542	-2.2375	-2.5917	-2.2354	-2.5667	-2.4313	-2.1146	-2.4292	-2.4542	-2.3875	85.324	-142.913	170.949	137.256	-131.466	-148.497	130.009	181.316	126.813	-143.556	195.301	-61.462	-136.383	-98.262	-115.791	-64.176	0.00043081	0.00057095	0.00013517	1406.4	4.3272e-06	4.9132e-06	1394.9	380.27	4.426e-06	2.881e-06	433.77	143.12	125.41	42.806	5.3239e-06	52.516	0.00053732	0.00054041	0.00014908	1433.6	5.9711e-06	5.8753e-06	1421.5	390.03	5.8793e-06	5.9348e-06	443.58	147.65	129.02	44.155	6.0543e-06	54.309	-81.480	-69.858	-54.127	-135.858	-4.131	12.085	-136.079	-131.260	-38.815	-26.362	-131.807	-127.705	-127.123	-122.719	-19.050	-123.371	-8191	255	
21818.426	1	1	0	0	0.18739	0.18213	0.1441	0.2282	0.17198	0.11434	0.27629	0.28934	0.12127	0.16878	0.10572	0.065487	0.17611	0.29904	0.25307	0.17894	-2.2958	-2.0458	-2.3354	-2.7917	-2.3	-2.4708	-2.6417	-2.4042	-2.7542	-2.4313	-2.5563	-2.6125	-2.4062	-2.5083	-2.4229	-2.3063	57.897	2.655	-58.544	112.790	50.744	-146.519	171.891	119.348	-66.048	197.347	178.704	-84.920	-107.567	154.287	114.732	131.466	0.00040729	0.0005382	0.00018343	1407.4	4.8149e-06	5.3858e-06	1395.9	381.83	5.4403e-06	4.1337e-06	434.36	143.39	125.1	42.844	4.2069e-06	52.556	0.00054127	0.00055356	0.00015758	1436.3	6.2023e-06	6.0435e-06	1425.7	391.21	6.1875e-06	6.2446e-06	444.01	147.93	128.89	44.221	6.2262e-06	54.364	-82.056	-61.881	-77.721	-135.882	-1.034	6.994	-136.058	-131.472	-4.166	13.917	-131.897	-127.326	-126.917	-122.655	1.203	-123.337	-8191	255	
21818.547	1	1	0	0	0.33087	0.13979	0.092278	0.29751	0.24887	0.23022	0.31153	0.19522	0.14992	0.05636	0.040841	0.23313	0.055716	0.15695	0.14081	0.10732	-2.1625	-2.2833	-2.3896	-2.6604	-2.2542	-2.5042	-2.6646	-2.3667	-2.5354	-2.1958	-2.4813	-2.4771	-2.3	-2.5542	-2.4375	-2.3063	-72.393	18.878	183.771	182.250	123.665	-22.178	151.643	106.710	94.630	-1.593	-27.184	-89.521	-143.446	-136.589	-22.113	187.897	0.0004141	0.00066832	0.00013591	1410	5.7143e-06	2.935e-06	1393.1	380.67	2.9602e-06	7.4868e-06	433.11	143.58	124.87	42.825	4.8593e-06	52.576	0.00053375	0.00055939	0.0001562	1436.1	6.0559e-06	6.0295e-06	1422.3	390.6	6.0183e-06	6.2848e-06	443.62	148.1	128.84	44.163	5.987e-06	54.362	-81.102	-49.319	-59.435	-135.912	-16.264	16.254	-136.236	-131.086	25.373	-15.961	-132.095	-127.511	-126.998	-122.402	0.425	-123.475	-8191	255	
21818.643	1	1	0	0	0.14384	0.18973	0.10986	0.40448	0.11602	0.28876	0.053796	0.21712	0.009876	0.12836	0.2427	0.25724	0.37264	0.12444	0.015825	0.20994	-2.0771	-2.3167	-2.1896	-2.6979	-2.2896	-2.3875	-2.7396	-2.4208	-2.5958	-2.4437	-2.4792	-2.6875	-2.1292	-2.5062	-2.5812	-2.2854	189.182	-80.744	176.743	204.635	-9.742	204.547	176.264	77.908	9.884	27.040	173.766	142.717	178.812	64.921	-31.875	-75.820	0.00043266	0.00046748	0.00016598	1411.7	2.7127e-06	7.0315e-06	1390.2	382.22	4.5788e-06	5.4365e-06	433.42	143.39	125.69	42.902	3.4521e-06	52.649	0.00054362	0.00054101	0.00015309	1437.1	5.9821e-06	5.9997e-06	1422.1	391.39	5.9701e-06	5.9236e-06	443.42	148.1	128.98	44.185	6.1485e-06	54.406	-83.288	-41.592	-52.042	-135.967	17.463	-9.066	-135.996	-131.487	-5.078	-10.654	-132.206	-127.716	-127.174	-122.351	-3.357	-123.318	-8191	255	
21818.738	1	1	0	0	0.2254	0.040774	0.14303	0.37207	0.19636	0.054387	0.32798	0.18519	0.046149	0.12784	0.20349	0.053529	0.18067	0.60569	0.10684	0.26758	-1.9813	-2.1729	-2.325	-2.6979	-2.2	-2.5125	-2.6625	-2.2979	-2.5917	-2.3896	-2.5104	-2.6833	-2.4625	-2.3479	-2.4667	-2.1792	-92.402	24.129	-88.629	184.185	69.506	-19.493	200.225	188.157	-92.385	21.216	169.929	136.723	19.985	165.180	-80.552	134.845	0.00041867	0.00059824	0.0001507	1413.4	5.8106e-06	3.8525e-06	1396.9	380.4	4.2248e-06	2.4891e-06	434.72	143.8	125.76	42.768	3.0279e-06	52.304	0.00053607	0.00055845	0.00015318	1437.2	6.1016e-06	5.9677e-06	1424.7	390.37	6.0255e-06	6.0784e-06	444.22	148.27	128.93	44.2	6.2046e-06	54.329	-81.096	-86.573	-64.739	-135.855	-9.326	17.871	-136.118	-131.371	-9.757	22.222	-131.998	-127.564	-127.185	-122.417	43.926	-123.297	-8191	255	
21818.834	1	1	0	0	0.034509	0.1409	0.27791	0.11595	0.1877	0.28048	0.050298	0.087698	0.37238	0.081644	0.32815	0.24488	0.12815	0.10627	0.2263	0.23165	-2.1896	-2.4062	-2.0375	-2.4458	-2.3937	-2.2792	-2.9083	-2.3333	-2.4188	-2.5604	-2.4167	-2.6542	-2.375	-2.3042	-2.6042	-2.1437	-48.530	136.510	209.330	43.993	156.751	5.429	140.069	163.067	95.246	67.493	63.922	198.143	-121.236	185.387	-58.417	-99.496	0.00043409	0.0007392	0.00013895	1410.4	6.8935e-06	6.2624e-06	1399	382.71	3.5742e-06	4.4969e-06	436.48	143.91	125.81	42.705	5.0504e-06	52.71	0.0005351	0.00054888	0.00015563	1436.9	6.0371e-06	6.0405e-06	1427	391.63	5.8784e-06	5.9137e-06	444.56	148.23	129.34	44.218	6.043e-06	54.515	-77.983	-45.185	-51.385	-136.143	-16.008	24.890	-136.025	-131.499	-1.293	9.902	-131.700	-127.674	-126.994	-122.201	16.580	-123.195	-8191	255	
21818.930	1	1	0	0	0.017729	0.076791	0.08025	0.19453	0.069242	0.033626	0.15354	0.27094	0.1819	0.23915	0.25437	0.14717	0.076102	0.081662	0.26928	0.14944	-2.1167	-2.5417	-2.2708	-2.6333	-2.3792	-2.2188	-2.7562	-2.3438	-2.4021	-2.4958	-2.3104	-2.6479	-2.4708	-2.3708	-2.5771	-2.3187	-23.846	-40.951	-140.252	155.854	94.435	129.464	108.243	195.548	-125.357	-115.986	172.631	-81.859	-93.800	-22.036	-67.003	191.915	0.0004239	0.00064934	0.00010644	1413	5.4108e-06	5.4298e-06	1400.4	381.14	5.0742e-06	7.9222e-06	433.92	143.83	125.63	43.046	2.149e-06	52.673	0.00053304	0.00053431	0.00015046	1437.8	5.8002e-06	5.7788e-06	1425.5	390.98	5.8627e-06	5.9434e-06	444.13	148.14	129.19	44.328	5.8913e-06	54.552	-84.859	-63.314	-71.339	-135.966	-9.101	-0.211	-135.921	-131.459	-5.452	12.037	-132.059	-127.836	-126.928	-122.627	0.495	-123.451	-8191	255	
21819.027	1	1	0	0	0.22996	0.24291	0.22854	0.16077	0.23898	0.29862	0.20787	0.15854	0.19934	0.17324	0.12577	0.22531	0.15577	0.16462	0.087732	0.22646	-1.9688	-2.3708	-2.2125	-2.7208	-2.3583	-2.0854	-2.6937	-2.2021	-2.4167	-2.7104	-2.2354	-2.5833	-2.4813	-2.2521	-2.6813	-2.4188	140.356	131.341	-12.159	179.049	-122.493	-140.560	130.452	-131.630	-137.900	87.350	145.588	169.752	145.393	-140.789	-79.500	130.258	0.00040566	0.00040734	0.00014783	1413.3	5.4447e-06	7.3704e-06	1393.6	380.87	4.5564e-06	4.4002e-06	436.27	144.74	126.21	43.053	3.8344e-06	52.704	0.00052924	0.0005358	0.00015048	1437.4	5.8314e-06	5.8748e-06	1423.9	390.88	5.7922e-06	5.8458e-06	444.61	148.51	129.51	44.285	5.8532e-06	54.557	-77.935	-80.264	-37.370	-136.032	11.202	15.466	-136.075	-131.524	-2.187	25.907	-132.241	-127.722	-127.154	-122.394	-15.749	-123.356	-8191	255	
21819.123	1	1	0	0	0.19631	0.28529	0.2603	0.15614	0.17542	0.2152	0.18676	0.23883	0.079628	0.15942	0.1063	0.12513	0.29898	0.36211	0.11323	0.39159	-1.85	-2.5854	-2.1833	-2.6437	-2.4979	-2.3604	-2.7854	-2.4729	-2.2479	-2.8104	-2.4021	-2.5354	-2.5667	-2.3083	-2.6646	-2.6083	-148.535	123.818	-122.187	-84.971	-32.272	186.236	182.392	134.803	-81.473	-24.866	88.735	134.527	121.375	-115.281	-3.296	138.623	0.00042489	0.00047227	0.00016154	1403.8	4.7377e-06	4.0442e-06	1395.9	383.04	2.3731e-06	6.866e-06	432.16	144.41	125.4	42.786	3.4948e-06	52.68	0.0005283	0.00052547	0.00014595	1434.8	5.7973e-06	5.9715e-06	1423.8	391.8	5.6593e-06	5.6666e-06	444.1	148.33	129.19	44.312	5.6523e-06	54.526	-81.984	-45.752	-84.633	-135.826	2.348	37.972	-136.123	-131.444	24.315	-5.202	-131.704	-127.673	-127.056	-122.404	9.468	-123.290	-8191	255	
21819.219	1	1	0	0	0.12038	0.084272	0.031918	0.19175	0.18684	0.10526	0.16309	0.23423	0.11195	0.081753	0.20327	0.21456	0.27624	0.042801	0.12393	0.41667	-1.7979	-2.7188	-2.2375	-2.5208	-2.4958	-2.1625	-2.7021	-2.5583	-2.1167	-2.6208	-2.3812	-2.3563	-2.6146	-2.325	-2.5271	-2.5125	150.501	-74.059	27.173	203.589	34.271	202.824	100.350	169.852	126.873	18.777	138.535	96.159	198.068	145.305	-141.644	149.604	0.00043149	0.00066288	0.00015031	1409.7	5.5117e-06	4.9e-06	1397.5	383.6	5.966e-06	2.7367e-06	434.37	144.45	125.28	43.04	5.3565e-06	52.728	0.00053228	0.00053451	0.00014806	1434.7	5.8021e-06	5.819e-06	1424.9	391.43	5.8244e-06	5.8596e-06	444.4	148.4	129.28	44.399	5.8033e-06	54.589	-82.760	-61.509	-44.747	-136.120	-18.582	-5.363	-136.182	-131.326	-24.016	4.594	-131.805	-127.573	-126.914	-122.706	10.499	-123.398	-8191	255	
21819.338	1	1	0	0	0.11705	0.27179	0.34868	0.31143	0.02985	0.15745	0.22675	0.34989	0.27223	0.1114	0.19983	0.17085	0.1462	0.22364	0.40968	0.41901	-1.6208	-2.4458	-2.2417	-2.5563	-2.6688	-2.3458	-2.6042	-2.7479	-2.2625	-2.5229	-2.5167	-2.3979	-2.6188	-2.2646	-2.5896	-2.4875	55.099	160.883	17.529	145.149	7.683	-34.618	114.223	146.527	73.800	181.365	195.446	-59.994	-144.891	-139.911	130.829	-111.212	0.00042232	0.0003217	0.00013719	1404.2	5.3594e-06	2.9138e-06	1397.3	381.35	3.2105e-06	5.4881e-06	435.14	144.49	125.78	42.954	5.881e-06	52.758	0.00053295	0.00052501	0.00014956	1436.3	5.8502e-06	5.7302e-06	1426.8	391.23	5.9463e-06	5.8504e-06	444.66	148.42	129.34	44.292	5.7322e-06	54.627	-83.754	-75.122	-26.215	-136.027	-0.755	12.250	-135.929	-131.368	-22.295	18.434	-132.019	-127.666	-127.106	-122.518	6.804	-123.333	-8191	255	
21819.434	1	1	0	0	0.20263	0.22498	0.33492	0.22869	0.040078	0.15708	0.46229	0.1679	0.083781	0.30349	0.04322	0.4693	0.14142	0.059571	0.046327	0.090641	-1.7979	-2.2458	-2.2958	-2.6021	-2.5104	-2.3125	-2.5146	-2.7104	-2.2687	-2.5521	-2.5333	-2.3604	-2.8021	-2.4313	-2.3167	-2.7438	-14.389	38.870	-81.414	126.286	-109.230	-77.749	164.315	40.077	11.718	79.846	14.466	144.130	-139.560	95.470	168.400	166.778	0.00038613	0.00048938	8.0904e-05	1408.2	4.7148e-06	3.6107e-06	1404.1	380.6	3.5475e-06	5.5646e-06	434.44	144.11	125.84	42.852	3.4861e-06	52.754	0.00053084	0.00052221	0.00014904	1435	5.9866e-06	5.9473e-06	1427.2	390.91	5.9655e-06	5.8624e-06	444.64	148.65	129.42	44.274	5.8593e-06	54.574	-84.313	-79.323	-16.695	-136.062	-6.406	-5.940	-136.145	-131.336	9.263	-29.690	-131.770	-127.603	-127.158	-122.513	-27.580	-123.365	-8191	255	
21819.529	1	1	0	0	0.15443	0.12179	0.021874	0.12785	0.17612	0.057069	0.26569	0.24494	0.12398	0.13938	0.078217	0.17214	0.036041	0.19943	0.33365	0.06075	-1.7604	-2.4	-2.3708	-2.4	-2.6479	-2.2938	-2.6667	-2.8563	-2.0583	-2.6312	-2.525	-2.55	-2.6542	-2.4313	-2.3479	-2.6979	-21.853	80.797	-13.361	118.051	112.246	190.520	-147.074	117.564	147.569	49.397	-145.237	-7.616	-109.457	22.367	142.507	-98.134	0.00044945	0.00056468	0.0001378	1411.6	5.0589e-06	5.3894e-06	1394	382.15	5.4851e-06	6.0968e-06	436.21	143.61	125.58	42.996	3.4982e-06	52.604	0.0005424	0.00052524	0.00015106	1437.1	5.8699e-06	5.8401e-06	1424.7	391.43	6.0118e-06	5.8278e-06	444.52	148.33	129.18	44.325	5.9216e-06	54.488	-82.718	-36.278	-68.927	-136.061	6.879	1.267	-135.998	-131.242	-15.137	16.168	-132.054	-127.377	-126.930	-122.653	-20.221	-123.402	-8191	255	
21819.627	1	1	0	0	0.10185	0.2126	0.19752	0.29669	0.077444	0.25637	0.17448	0.39562	0.17545	0.19288	0.32085	0.088421	0.21724	0.16147	0.058194	0.016994	-1.7375	-2.5062	-2.7438	-2.2938	-2.6521	-2.3521	-2.5208	-2.625	-2.3521	-2.4146	-2.6188	-2.2375	-2.3875	-2.5542	-2.3937	-2.7812	-27.577	-100.669	-26.501	139.422	159.102	-31.181	116.844	169.722	-60.444	-5.190	142.594	-80.845	-143.028	205.883	-135.832	158.511	0.0004314	0.00054882	0.00018336	1412.4	1.2839e-06	6.4964e-06	1397.8	382.9	4.656e-06	3.8823e-06	434.98	143.76	125.17	42.948	3.3497e-06	52.903	0.00054379	0.00053011	0.00014989	1435.6	5.934e-06	5.9544e-06	1424.6	391.64	5.9229e-06	5.8453e-06	444.56	148.3	129.16	44.322	6.0425e-06	54.589	-82.786	-71.667	-46.471	-135.887	4.806	-17.882	-135.985	-131.428	19.803	22.020	-131.784	-127.813	-127.113	-122.740	-8.993	-123.212	-8191	255	
21819.723	1	1	0	0	0.061088	0.092509	0.20482	0.23089	0.10764	0.16166	0.28463	0.13729	0.033382	0.17539	0.19159	0.15076	0.14937	0.31842	0.27138	0.17093	-1.825	-2.2521	-2.4667	-2.1854	-2.5625	-2.3042	-2.6042	-2.6729	-2.1958	-2.2479	-2.6021	-2.2833	-2.5771	-2.5438	-2.2208	-2.7562	162.303	-148.629	37.576	123.503	45.803	162.855	157.498	-111.451	92.483	92.873	129.700	-135.567	-7.048	209.953	23.162	179.363	0.00043648	0.00062907	0.00013406	1409.2	5.3454e-06	4.3309e-06	1396	382.66	4.2125e-06	5.6461e-06	433.02	143.59	125.27	42.901	1.8885e-06	52.792	0.00054096	0.00054094	0.00015336	1434.7	5.9142e-06	6.1117e-06	1424.2	391.71	5.9316e-06	5.9236e-06	443.89	148.35	129.33	44.29	5.9995e-06	54.569	-84.197	-37.521	-46.338	-135.835	-8.570	14.116	-136.040	-131.268	-1.144	-7.382	-131.955	-127.475	-126.905	-122.258	-3.952	-123.269	-8191	255	
21819.818	1	1	0	0	0.12493	0.23817	0.14383	0.34535	0.25741	0.27342	0.29365	0.096303	0.26891	0.068807	0.29051	0.37389	0.066947	0.18159	0.13068	0.059276	-1.8792	-2.2583	-2.7542	-2.5062	-2.4979	-2.6458	-2.4313	-2.6521	-2.2729	-2.0917	-2.8708	-2.2625	-2.4125	-2.6792	-2.1396	-2.4125	179.616	102.946	192.901	206.569	-93.734	188.635	124.656	-131.697	168.708	159.220	206.957	189.688	-53.955	-118.632	-110.371	169.903	0.00041391	0.00059721	0.0001696	1410	5.0363e-06	3.3809e-06	1396.1	381.33	2.7418e-06	4.4451e-06	434.37	144.11	125.67	42.885	4.25e-06	52.944	0.00053814	0.00054874	0.00015552	1437.7	6.019e-06	6.1038e-06	1424.8	391.22	6.2229e-06	6.146e-06	444.69	148.5	129.32	44.264	6.2521e-06	54.486	-78.577	-55.915	-46.160	-135.912	-1.027	-2.944	-136.038	-131.371	2.063	6.311	-132.036	-127.522	-127.310	-122.485	-25.347	-123.182	-8191	255	
21819.914	1	1	0	0	0.169	0.19103	0.18898	0.45815	0.053703	0.2058	0.46257	0.14386	0.02296	0.13585	0.24823	0.18611	0.11834	0.23507	0.13805	0.1177	-1.7833	-1.9542	-2.5625	-2.4188	-2.2604	-2.5812	-2.3396	-2.6104	-2.2188	-2.4083	-2.7812	-2.4729	-2.3312	-2.6562	-2.1771	-2.6646	169.049	44.540	-4.577	204.845	136.178	86.599	181.339	83.188	-62.414	43.997	-149.043	164.151	13.898	154.880	5.792	5.656	0.00043309	0.00032069	8.5589e-05	1414.3	5.0404e-06	7.4753e-06	1398.7	382.19	5.4973e-06	4.5088e-06	434.52	143.82	125.6	43.114	4.1596e-06	53.058	0.00054606	0.00056155	0.00015612	1436.8	6.023e-06	6.2532e-06	1426.1	391.49	6.0426e-06	6.053e-06	444.67	148.47	129.48	44.356	6.1188e-06	54.613	-77.432	-39.549	-60.291	-135.984	13.265	9.283	-136.028	-131.437	8.874	-6.992	-132.043	-127.750	-127.230	-122.684	-7.209	-123.549	-8191	255	
21820.035	1	1	0	0	0.27538	0.071285	0.15204	0.16102	0.0037618	0.069627	0.042919	0.18209	0.15159	0.22098	0.051764	0.082707	0.12978	0.067312	0.16204	0.17306	-1.9979	-2.1021	-2.5604	-2.5187	-2.3417	-2.5292	-2.575	-2.7271	-2.3375	-2.1729	-2.7396	-2.3771	-2.5146	-2.6562	-2.2458	-2.5	122.045	58.711	149.286	171.527	-10.738	207.976	118.518	179.014	161.296	76.231	-135.410	-5.928	59.129	82.228	149.453	90.732	0.00042217	0.00051989	0.00018572	1413.8	3.6247e-06	7.0161e-06	1401.8	381.37	4.53e-06	5.9799e-06	435.37	144.48	125.22	43.115	4.6641e-06	52.79	0.0005527	0.00054007	0.0001533	1438.2	5.9809e-06	5.9913e-06	1427.8	391.31	5.9923e-06	6.0232e-06	445.3	148.55	129.33	44.354	6.1284e-06	54.535	-78.389	-51.279	-67.222	-135.858	32.584	-2.029	-136.043	-131.381	-8.727	8.213	-132.024	-127.646	-127.088	-122.581	25.026	-123.309	-8191	255	
21820.131	1	1	0	0	0.10768	0.19896	0.11934	0.010981	0.13847	0.062406	0.33012	0.10053	0.30756	0.30438	0.041094	0.31212	0.43357	0.094508	0.17346	0.36542	-2.0667	-2.0042	-2.6604	-2.5583	-2.3458	-2.6833	-2.3021	-2.6979	-2.6396	-2.2708	-2.5687	-2.4021	-2.4604	-2.6479	-2.1146	-2.4208	-38.579	45.672	108.816	-35.176	151.181	106.992	154.265	156.414	96.635	-23.257	205.692	133.303	192.851	-145.104	186.624	154.812	0.00042904	0.00053001	0.00017756	1411.3	4.9876e-06	4.4272e-06	1398.9	382.53	2.4151e-06	7.1802e-06	434.31	143.91	125.46	42.905	4.4401e-06	52.923	0.00053829	0.0005697	0.00015356	1438.1	5.9678e-06	6.0371e-06	1425	391.34	5.8146e-06	5.9795e-06	444.86	148.47	129.36	44.274	5.9154e-06	54.609	-82.579	-53.698	-50.235	-136.256	21.006	-6.881	-136.196	-131.590	16.061	13.268	-131.833	-127.656	-127.325	-122.599	3.048	-123.131	-8191	255	
21820.229	1	1	0	0	0.21883	0.28403	0.31937	0.1129	0.19391	0.20003	0.27817	0.37775	0.24134	0.116	0.12089	0.29884	0.088137	0.13633	0.074141	0.01444	-2.1292	-2.1625	-2.4062	-2.675	-2.3937	-2.6542	-2.5021	-2.5396	-2.6437	-2.2896	-2.6146	-2.5104	-2.3375	-2.6354	-2.2354	-2.4146	-81.137	-62.132	24.774	-96.785	158.286	-146.178	134.433	175.464	-27.797	-44.191	43.348	157.353	-71.522	25.489	-21.993	-12.649	0.00042341	0.00048908	0.00013245	1411.1	6.2664e-06	7.303e-06	1398.7	382.46	3.4399e-06	8.6312e-06	433.61	143.81	125.53	42.802	3.5112e-06	52.847	0.0005476	0.00056116	0.00015149	1437.1	6.0983e-06	6.0496e-06	1425.8	391.52	6.0105e-06	5.9282e-06	444.56	148.08	129.14	44.314	6.0617e-06	54.582	-79.965	-68.884	-50.842	-135.922	-11.779	-14.617	-136.055	-131.542	-12.762	8.407	-131.902	-127.821	-127.191	-122.771	-20.654	-123.402	-8191	255	
21820.322	1	1	0	0	0.12154	0.014252	0.25658	0.52382	0.26485	0.28134	0.1655	0.31154	0.10458	0.10293	0.13881	0.18613	0.24964	0.38134	0.17793	0.15485	-2.1604	-2.3083	-2.5229	-2.5521	-2.2438	-2.5167	-2.6104	-2.5271	-2.5563	-2.2458	-2.6083	-2.55	-2.3063	-2.7896	-2.3354	-2.3438	-3.942	-116.246	66.978	207.851	-25.253	-32.500	-122.666	99.754	198.762	178.389	-141.987	103.841	142.315	-139.078	-99.685	-107.781	0.00039648	0.00033418	8.1401e-05	1410.2	4.6886e-06	5.586e-06	1397.3	381.27	4.0283e-06	5.1627e-06	434.24	143.84	125.55	42.835	2.7298e-06	52.803	0.0005453	0.0005559	0.00015035	1436	5.9573e-06	6.0107e-06	1424.4	391.42	6.0428e-06	6.055e-06	444.38	148.22	129.31	44.252	6.089e-06	54.537	-79.750	-53.507	-70.690	-136.054	7.012	3.493	-136.129	-131.372	1.750	-20.626	-131.996	-127.534	-127.107	-122.184	3.717	-123.336	-8191	255	
21820.418	1	1	0	0	0.15436	0.21648	0.092639	0.10997	0.13689	0.15846	0.31164	0.094383	0.17624	0.083501	0.398	0.072073	0.26576	0.21816	0.22326	0.34199	-2.125	-2.2208	-2.3479	-2.5625	-2.175	-2.575	-2.5604	-2.5312	-2.7021	-2.1625	-2.5146	-2.6542	-2.3125	-2.7125	-2.4979	-2.3271	98.260	129.448	-128.642	129.563	-114.495	135.082	153.077	60.960	67.447	-6.964	147.277	41.427	180.622	182.063	-20.352	125.478	0.0004356	0.00028122	0.00013696	1407.9	4.6439e-06	4.3359e-06	1395	383.02	4.9839e-06	5.8973e-06	433.38	144	125.08	42.871	2.9586e-06	52.525	0.00053311	0.00056263	0.00015082	1436.3	6.0263e-06	6.0835e-06	1423.6	391.44	6.1018e-06	6.1186e-06	444.7	148.29	129.33	44.269	6.0821e-06	54.443	-81.348	-56.547	-70.090	-136.219	11.364	-9.226	-136.078	-131.600	-3.673	-0.901	-131.703	-127.861	-127.058	-122.667	13.706	-123.351	-8191	255	
21820.514	1	1	0	0	0.19206	0.23931	0.22307	0.062151	0.14942	0.16743	0.33887	0.18891	0.12093	0.15102	0.38661	0.029978	0.11947	0.19958	0.092071	0.11949	-2.2354	-2.2292	-2.5563	-2.7854	-2.2354	-2.5854	-2.6146	-2.3812	-2.6104	-2.3896	-2.4479	-2.7417	-2.3833	-2.825	-2.5854	-2.3667	177.378	-76.153	137.112	127.002	-95.952	47.779	133.389	204.407	-34.598	202.456	166.687	121.852	-99.734	-110.150	65.124	-70.261	0.00041253	0.0004444	0.00012958	1406.2	4.3677e-06	5.8613e-06	1394.6	382.03	7.0641e-06	4.2248e-06	434.07	143.75	124.83	42.882	4.0155e-06	52.63	0.0005381	0.00054615	0.00015148	1434.2	6.0902e-06	6.0835e-06	1425.5	391.24	6.0315e-06	6.0604e-06	444.6	148.32	129.16	44.298	6.0325e-06	54.51	-82.292	-71.648	-70.411	-136.135	21.235	-0.249	-136.191	-131.585	-12.787	-6.550	-131.999	-127.511	-127.248	-122.598	-24.679	-123.301	-8191	255	
21820.635	1	1	0	0	0.12076	0.27364	0.10796	0.20144	0.11731	0.076777	0.10489	0.024937	0.12184	0.055273	0.40463	0.39769	0.17596	0.21813	0.20653	0.12849	-1.9083	-2.2333	-2.3771	-2.7854	-2.1771	-2.5542	-2.7083	-2.4521	-2.7583	-2.5479	-2.5187	-2.7313	-2.0917	-2.4688	-2.4292	-2.1229	192.312	-36.386	-95.429	-119.104	79.675	-26.846	205.040	193.664	90.772	60.797	179.101	158.073	-123.609	206.337	-51.627	-0.577	0.00041162	0.00055572	0.00015609	1409.6	3.3761e-06	4.9637e-06	1397.8	381.5	5.7381e-06	4.1643e-06	435.92	143.5	125.46	42.902	4.6425e-06	52.837	0.00053929	0.00055893	0.00015648	1435.3	6.1018e-06	6.0285e-06	1425.7	391.3	5.9593e-06	6.221e-06	445.76	148.06	129.11	44.272	6.2816e-06	54.508	-78.154	-42.531	-38.779	-136.078	24.064	-15.860	-135.915	-131.650	2.511	6.440	-131.839	-127.333	-127.075	-122.668	10.434	-123.285	-8191	255	
21820.730	1	1	0	0	0.33462	0.031422	0.16577	0.12357	0.077359	0.080016	0.044829	0.40445	0.26156	0.14877	0.24915	0.17833	0.16833	0.069834	0.13741	0.1706	-2.1625	-2.325	-2.2646	-2.7854	-2.2313	-2.6312	-2.7833	-2.2604	-2.4458	-2.35	-2.4437	-2.5854	-2.2958	-2.4833	-2.6771	-2.2562	193.066	112.451	184.315	-128.643	-68.969	-127.587	75.167	188.883	49.978	-71.953	188.160	-128.879	-143.601	133.423	-27.397	94.764	0.00042433	0.00043927	0.00015118	1409.6	5.6406e-06	5.7469e-06	1396.7	381.52	3.3182e-06	3.5888e-06	435.62	143.83	125.55	42.783	4.6406e-06	52.85	0.00054122	0.00056683	0.00015925	1436	6.1252e-06	6.3151e-06	1425.6	390.71	6.1199e-06	6.2019e-06	444.82	148.17	129.06	44.278	6.167e-06	54.53	-82.997	-76.271	-73.264	-136.075	-14.524	-0.347	-135.910	-131.497	-29.116	-5.053	-131.990	-127.748	-127.056	-122.293	2.338	-123.364	-8191	255	
21820.803	1	1	0	0	0.1277	0.33134	0.10742	0.18657	0.051009	0.094275	0.23856	0.11282	0.17484	0.085663	0.30957	0.16527	0.31029	0.21949	0.0077026	0.050562	-1.925	-2.4125	-2.1729	-2.7896	-2.2333	-2.4104	-2.7771	-2.2625	-2.6479	-2.4813	-2.4188	-2.7458	-2.3875	-2.3896	-2.7062	-2.325	124.953	143.586	180.934	-120.624	173.658	2.633	23.269	207.794	77.720	-71.280	96.777	137.034	169.550	34.283	-74.730	66.115	0.00041457	0.00045813	0.00019422	1408	3.298e-06	7.5539e-06	1397.7	382.16	4.9051e-06	5.1652e-06	434.9	144.46	125.53	42.723	7.0652e-06	52.84	0.00053815	0.00057546	0.00015549	1436.9	6.1992e-06	6.2199e-06	1424.9	391.06	6.0146e-06	6.2546e-06	444.36	148.26	129.31	44.228	6.0413e-06	54.464	-82.708	-70.028	-36.039	-136.021	0.101	13.299	-136.286	-131.301	-2.983	34.397	-131.772	-127.553	-127.142	-122.627	3.680	-123.638	-8191	255	
21820.898	1	1	0	0	0.26257	0.24724	0.31297	0.19844	0.37876	0.09743	0.074794	0.065376	0.089658	0.095731	0.17289	0.21676	0.19781	0.18053	0.22698	0.20857	-2.1917	-2.5792	-2.3646	-2.6625	-2.3479	-2.425	-2.6729	-2.1833	-2.6354	-2.5125	-2.3438	-2.7042	-2.3688	-2.4	-2.7479	-2.2833	-104.186	-59.780	34.173	-119.394	11.867	-120.291	187.262	-122.199	-100.426	120.167	148.050	157.848	-131.621	154.435	-39.128	210.350	0.00042362	0.00062957	0.00015969	1409.8	4.8919e-06	3.8813e-06	1397.2	381.77	4.1659e-06	6.0125e-06	434.1	143.6	125.9	42.825	4.386e-06	52.9	0.00054736	0.00057794	0.00015819	1436.8	6.2028e-06	6.2405e-06	1425.2	391.36	6.1449e-06	6.2093e-06	444.5	148.3	129.38	44.299	6.1028e-06	54.503	-80.740	-78.185	-47.708	-136.098	28.464	-14.571	-136.069	-131.413	-28.047	12.393	-132.083	-127.768	-127.189	-122.613	-3.244	-123.286	-8191	255	
21820.994	1	1	0	0	0.13627	0.10059	0.27925	0.24648	0.062132	0.22105	0.10431	0.42122	0.068227	0.17604	0.1036	0.22973	0.12221	0.26534	0.094211	0.28627	-2.075	-2.5708	-2.0625	-2.8396	-2.35	-2.2	-2.8854	-2.4813	-2.3583	-2.6521	-2.3187	-2.5708	-2.5583	-2.3021	-2.775	-2.4667	58.877	-102.301	86.643	208.573	164.349	172.771	-72.303	179.426	-91.395	207.905	-111.975	136.390	194.275	152.841	-3.843	110.827	0.00040685	0.00056552	0.00013469	1413.3	3.9453e-06	4.6016e-06	1397.4	383.5	5.4715e-06	4.3524e-06	434.21	144.42	125.85	42.87	3.9867e-06	52.759	0.00055432	0.00056428	0.00015963	1437.8	6.189e-06	6.1234e-06	1425.3	391.52	6.1442e-06	6.1318e-06	445.3	148.55	129.17	44.305	6.123e-06	54.552	-79.868	-83.409	-77.878	-136.026	-16.050	13.639	-136.092	-131.543	12.285	-8.166	-131.979	-127.645	-127.247	-122.705	-22.283	-123.434	-8191	255	
21821.115	1	1	0	0	0.20188	0.039347	0.062788	0.31899	0.17375	0.16376	0.18375	0.30139	0.12925	0.12401	0.25329	0.17663	0.29953	0.34209	0.19714	0.22201	-1.9729	-2.5354	-1.9979	-2.8063	-2.6479	-2.2479	-2.9062	-2.4021	-2.4229	-2.6708	-2.1688	-2.525	-2.6063	-2.1208	-2.4125	-2.35	101.918	-113.123	188.938	181.825	-83.409	209.969	194.531	101.968	-28.474	59.351	173.890	187.303	170.975	154.386	-126.147	42.675	0.00041445	0.00052471	0.00014242	1415.6	4.1766e-06	3.3884e-06	1399	384.24	3.9595e-06	3.9375e-06	434.68	144.1	126.06	42.814	4.2868e-06	52.739	0.00054609	0.00056825	0.00016046	1436.8	6.1087e-06	6.2395e-06	1424.3	392.15	6.1353e-06	6.193e-06	444.67	148.44	129.39	44.35	6.1333e-06	54.541	-83.150	-85.772	-99.050	-136.094	6.161	8.988	-136.053	-131.484	-17.952	32.569	-131.807	-127.650	-127.154	-122.520	3.278	-123.260	-8191	255	
21821.213	1	1	0	0	0.10406	0.38511	0.072544	0.33134	0.12401	0.063534	0.36542	0.25428	0.091848	0.1519	0.02475	0.080724	0.13722	0.10736	0.063778	0.24838	-1.7563	-2.4729	-2.3417	-2.5542	-2.4042	-2.2104	-2.675	-2.375	-2.1958	-2.7938	-2.3042	-2.6583	-2.5312	-2.4729	-2.5708	-2.5729	6.965	196.580	62.374	-108.307	39.073	-12.622	120.650	182.952	18.912	54.944	43.377	144.936	159.807	-83.880	-124.210	31.782	0.00041147	0.00052808	0.00016838	1410	4.7673e-06	4.547e-06	1394.7	381.73	4.0223e-06	6.7076e-06	434.13	144.32	125.56	42.761	3.5686e-06	52.804	0.00054897	0.0005517	0.000154	1437.1	6.1109e-06	6.3578e-06	1423.3	391.59	6.1668e-06	6.1353e-06	444.91	148.38	129.27	44.271	5.9614e-06	54.556	-80.109	-41.246	-56.338	-135.960	-4.091	1.460	-135.844	-131.506	-14.708	27.968	-132.073	-127.680	-127.028	-122.507	19.639	-123.309	-8191	255	
21821.309	1	1	0	0	0.17433	0.16733	0.20862	0.068176	0.15672	0.10137	0.2212	0.22721	0.075205	0.060291	0.39269	0.20804	0.27345	0.14588	0.13313	0.036734	-1.875	-2.6729	-2.3146	-2.5521	-2.4125	-2.2562	-2.6542	-2.6854	-2.3688	-2.6958	-2.3354	-2.6542	-2.5229	-2.3271	-2.4646	-2.6625	41.020	-27.953	-70.958	190.780	-70.738	179.555	140.320	131.137	135.021	80.166	162.863	151.136	-148.559	202.502	-66.510	32.154	0.0004422	0.00040456	0.0001289	1408.8	5.4369e-06	8.5661e-06	1393.7	381.67	3.3947e-06	6.3284e-06	434.84	144.1	125.61	42.969	5.2613e-06	52.666	0.00054835	0.00055609	0.00015504	1435.2	6.0054e-06	5.9e-06	1424	390.64	6.1105e-06	6.0718e-06	444.61	148.28	129.27	44.337	6.0307e-06	54.459	-81.043	-44.780	-65.741	-135.999	-3.525	-1.654	-136.044	-131.375	-5.700	-16.186	-132.011	-127.592	-126.933	-122.480	10.857	-123.239	-8191	255	
21821.428	1	1	0	0	0.24912	0.091681	0.11143	0.3152	0.013936	0.29314	0.34116	0.25705	0.17417	0.071826	0.027694	0.099504	0.13764	0.25465	0.30139	0.17713	-1.5854	-2.45	-2.1562	-2.3583	-2.5583	-2.1542	-2.5729	-2.6646	-2.2229	-2.6896	-2.5687	-2.475	-2.5938	-2.2771	-2.4458	-2.5917	31.570	53.426	136.336	165.805	200.282	74.185	180.390	169.922	-117.739	-125.195	147.648	164.074	-77.814	191.906	42.518	86.897	0.0004467	0.00058959	0.00014168	1413	3.9949e-06	6.0509e-06	1399.5	381.74	6.0737e-06	3.3183e-06	434.84	143.7	125.44	42.718	2.2609e-06	52.577	0.00054972	0.00056098	0.00015462	1436.8	6.028e-06	6.2372e-06	1425.4	391.13	6.0768e-06	6.0248e-06	444.55	148.21	129.1	44.199	6.1148e-06	54.38	-80.845	-65.650	-34.880	-136.047	30.596	12.443	-136.082	-131.393	-1.545	30.605	-131.928	-127.686	-126.975	-122.387	6.751	-123.146	-8191	255	
21821.498	1	1	0	0	0.14022	0.21912	0.20495	0.20268	0.18441	0.29991	0.13987	0.15093	0.16873	0.096681	0.016326	0.26956	0.25215	0.12634	0.11111	0.013945	-1.6958	-2.4625	-2.2938	-2.4667	-2.6354	-2.2562	-2.5083	-2.5938	-2.2229	-2.6958	-2.4479	-2.375	-2.7042	-2.1958	-2.4458	-2.5479	-76.076	-139.974	177.934	-142.032	79.710	-3.599	183.934	117.009	-74.802	-80.900	9.131	196.991	183.803	-69.789	-34.306	-76.934	0.0004796	0.0006626	8.1475e-05	1402.1	2.7349e-06	6.1122e-06	1392.3	381.5	4.7287e-06	7.1202e-06	434.3	143.43	125.01	42.361	6.5838e-06	52.243	0.00054721	0.000554	0.00015734	1433.3	6.1383e-06	6.2166e-06	1419.4	390.58	6.1348e-06	6.1694e-06	443.71	147.72	128.49	43.939	6.1498e-06	54.155	-81.615	-86.224	-49.983	-136.037	7.162	-0.034	-136.230	-131.594	20.094	-4.806	-132.013	-127.409	-127.106	-122.329	9.730	-123.442	-8191	255	
21821.596	1	1	0	0	0.06343	0.23777	0.14706	0.3975	0.2319	0.21492	0.34632	0.11792	0.26096	0.18894	0.12515	0.14608	0.32322	0.30479	0.21889	0.23382	-1.8104	-2.3521	-2.2625	-2.3646	-2.6	-2.3688	-2.6188	-2.8583	-2.2729	-2.7417	-2.5146	-2.2625	-2.7687	-2.3542	-2.4521	-2.5917	-117.185	128.182	-55.407	182.037	43.280	-76.858	182.799	14.754	-134.808	181.271	-140.336	120.538	-137.776	194.921	95.181	116.687	0.00043789	0.00052534	0.00016898	1405.1	3.8573e-06	3.1999e-06	1388.4	380.06	5.9558e-06	4.99e-06	432.52	143.15	124.91	42.495	1.863e-06	52.476	0.00055951	0.00055102	0.00015716	1430.5	6.1233e-06	6.1201e-06	1419.4	389.79	6.0149e-06	6.055e-06	443.1	147.46	128.69	43.952	6.0868e-06	54.229	-84.118	-60.837	-49.232	-136.043	-15.875	19.304	-136.122	-131.584	0.292	-4.809	-131.943	-127.633	-126.994	-122.587	-56.886	-123.524	-8191	255	
21821.715	1	1	0	0	0.18626	0.14485	0.24349	0.28713	0.14561	0.1196	0.11024	0.16575	0.27935	0.16468	0.055661	0.35861	0.085632	0.3241	0.093427	0.094835	-1.7771	-2.525	-2.5292	-2.3854	-2.5062	-2.2938	-2.5667	-2.6604	-2.2125	-2.5542	-2.5812	-2.2646	-2.6729	-2.3896	-2.2188	-2.4875	-118.269	-50.383	43.280	177.699	-37.333	137.317	146.702	-102.239	71.532	9.171	113.885	135.089	208.775	139.484	-92.973	115.193	0.00040624	0.0004731	0.00011027	1403.5	3.9615e-06	5.6859e-06	1391.3	379.26	3.2975e-06	7.8149e-06	431.86	143.27	124.28	42.669	4.3724e-06	52.388	0.00054852	0.00055478	0.00015568	1431.2	6.0663e-06	6.0501e-06	1417.7	388.94	6.0804e-06	6.0357e-06	442.77	147.49	128.27	44.041	6.167e-06	54.13	-77.511	-58.600	-62.850	-136.115	16.931	15.406	-136.138	-131.537	-24.419	2.617	-132.064	-127.615	-127.148	-122.490	5.383	-123.232	-8191	255	
21821.811	1	1	0	0	0.14146	0.26441	0.049279	0.26673	0.277	0.032542	0.14261	0.28928	0.32026	0.2259	0.1214	0.14476	0.16791	0.31477	0.088937	0.089398	-1.9229	-2.2521	-2.3479	-2.3021	-2.4062	-2.4188	-2.4125	-2.7396	-2.1625	-2.4688	-2.575	-2.2375	-2.5938	-2.5354	-2.2292	-2.8812	101.974	79.160	196.302	-114.303	-56.540	-102.562	135.639	183.821	191.519	86.230	66.060	113.712	175.235	148.031	156.431	-13.816	0.00040702	0.00044992	0.00013109	1400.1	3.1737e-06	5.335e-06	1389.1	379.44	2.9062e-06	7.2499e-06	432.79	143.54	124.94	42.688	2.2937e-06	52.771	0.00054276	0.00054879	0.00015462	1427.2	5.9561e-06	6.0807e-06	1416.7	389.43	6.0963e-06	6.0377e-06	441.64	147.72	128.45	43.981	6.2117e-06	54.28	-82.047	-60.557	-57.182	-135.950	-24.264	11.215	-136.006	-131.273	8.359	1.607	-131.695	-127.655	-127.087	-122.419	-18.658	-123.177	-8191	255	
21821.908	1	1	0	0	0.11305	0.20518	0.1469	0.44919	0.096657	0.20042	0.10768	0.28804	0.032745	0.082474	0.11871	0.32448	0.22777	0.22709	0.014112	0.2148	-1.9438	-2.3542	-2.5271	-2.5	-2.6292	-2.4625	-2.3667	-2.7062	-2.2646	-2.3417	-2.6833	-2.2396	-2.65	-2.4562	-2.1417	-2.5271	200.658	-70.269	208.424	196.163	207.097	195.387	-63.725	179.022	203.501	-86.894	149.793	137.640	71.609	203.517	-4.046	159.699	0.00042151	0.00058844	5.9944e-05	1400.1	4.127e-06	5.1974e-06	1389.7	379.95	6.0636e-06	2.823e-06	431.92	143.18	124.83	42.49	3.5023e-06	52.527	0.0005265	0.00057041	0.00015799	1429.1	6.0299e-06	6.3927e-06	1417.1	389.18	6.0183e-06	6.1343e-06	443.13	147.46	128.49	44.026	6.0831e-06	54.265	-80.425	-50.837	-70.276	-135.914	1.318	21.188	-136.010	-131.375	18.212	9.972	-131.981	-127.482	-127.209	-122.309	-25.786	-123.003	-8191	255	
21822.027	1	1	0	0	0.31838	0.096084	0.11808	0.20464	0.057916	0.12674	0.35396	0.06111	0.17694	0.21603	0.12143	0.064237	0.46552	0.11828	0.14497	0.066207	-1.9104	-2.1229	-2.3792	-2.3187	-2.3583	-2.5208	-2.1708	-2.7292	-2.1813	-2.3896	-2.7542	-2.25	-2.3375	-2.5375	-2.1354	-2.75	-62.123	-85.328	119.752	116.680	188.367	-67.985	173.494	117.375	-135.476	-128.242	-35.888	-39.160	-124.048	133.100	-122.034	90.389	0.00043432	0.00038524	0.0001481	1407.7	4.2247e-06	5.2267e-06	1391	378.81	3.9613e-06	5.1175e-06	431.25	143.58	125.08	42.803	3.3338e-06	52.547	0.00055151	0.00054744	0.00015281	1431.1	5.8759e-06	5.9285e-06	1416.1	389.67	5.9282e-06	5.839e-06	442.49	147.79	128.68	44.141	5.8975e-06	54.382	-84.072	-85.204	-69.656	-136.023	-5.872	-20.781	-136.239	-131.258	5.820	-21.786	-131.508	-127.764	-127.193	-122.310	-6.853	-123.144	-8191	255	
21822.100	1	1	0	0	0.2372	0.23744	0.13902	0.39328	0.13226	0.079149	0.41555	0.16466	0.097713	0.22353	0.12417	0.24439	0.44328	0.12164	0.30215	0.12545	-2.0771	-2.0958	-2.5771	-2.4313	-2.3292	-2.5646	-2.2521	-2.6042	-2.5021	-2.2396	-2.7208	-2.5354	-2.525	-2.7062	-2.2083	-2.4042	184.042	196.681	172.849	183.208	-126.215	175.551	137.832	137.778	-40.417	205.437	-36.669	118.247	149.358	-66.141	164.679	-108.666	0.0004076	0.00049536	0.0002436	1403.7	3.5829e-06	6.9758e-06	1391.7	381.5	5.6076e-06	6.337e-06	433.67	143.71	125.39	42.619	4.3e-06	52.534	0.00052034	0.00053389	0.00014722	1428.6	5.8342e-06	5.9346e-06	1416.9	390.08	5.8297e-06	5.9284e-06	443.44	148.01	128.92	44.087	5.8852e-06	54.221	-82.000	-45.850	-56.812	-135.793	4.129	-17.192	-136.022	-131.359	-13.785	9.786	-131.656	-127.710	-127.283	-122.332	7.127	-123.380	-8191	255	
21822.195	1	1	0	0	0.077281	0.1443	0.12049	0.5233	0.11688	0.16634	0.1591	0.28163	0.10708	0.2822	0.12515	0.042218	0.039522	0.0047987	0.12249	0.18742	-2.0563	-1.9937	-2.5292	-2.2542	-2.3479	-2.6229	-2.3979	-2.4458	-2.4333	-2.0354	-2.6875	-2.3646	-2.2167	-2.7687	-2.1104	-2.4167	137.722	16.805	-18.862	203.871	-80.379	98.124	197.292	136.920	-87.174	-121.147	85.853	137.224	124.368	-46.361	-38.299	51.580	0.00043391	0.0005335	0.00013967	1403.1	4.2727e-06	3.5049e-06	1389.8	381.08	3.5737e-06	7.5901e-06	432.8	143.21	124.65	42.755	3.8472e-06	52.573	0.00053529	0.00056109	0.00014441	1429.5	5.8475e-06	5.7931e-06	1418.6	390.08	5.9154e-06	5.857e-06	442.97	147.94	128.6	44.086	5.9316e-06	54.267	-84.238	-35.302	-50.044	-136.152	1.765	7.829	-135.968	-131.381	-33.115	-2.432	-132.051	-127.718	-126.948	-122.360	0.573	-123.248	-8191	255	
21822.293	1	1	0	0	0.1084	0.25665	0.30607	0.22094	0.18485	0.13165	0.17808	0.11625	0.13285	0.23091	0.32425	0.3049	0.093635	0.31558	0.19322	0.15637	-2.0896	-1.9646	-2.5208	-2.4562	-2.1458	-2.5833	-2.1583	-2.5958	-2.45	-2.2042	-2.6167	-2.2646	-2.5125	-2.6583	-2.1646	-2.3979	-75.846	-41.379	-78.074	166.935	193.889	-4.048	79.193	-20.560	-76.459	-30.308	173.323	192.060	88.033	-142.188	46.788	-86.451	0.00043444	0.00025978	0.00018654	1401.3	4.1744e-06	4.8781e-06	1386.6	379.95	3.8345e-06	5.4097e-06	433.86	143.05	124.88	42.78	7.1052e-06	52.327	0.00052594	0.00054262	0.00014643	1428.5	5.6994e-06	5.6722e-06	1414.7	389.78	5.829e-06	5.9002e-06	443.46	147.61	128.57	44.095	5.9112e-06	54.244	-77.612	-101.243	-65.958	-135.925	-12.892	-10.805	-136.022	-131.455	8.769	20.325	-131.946	-127.775	-127.312	-122.614	-14.475	-123.148	-8191	255	
21822.410	1	1	0	0	0.18188	0.27416	0.13589	0.33972	0.11964	0.43528	0.16551	0.20532	0.12553	0.10765	0.05941	0.13958	0.14995	0.20137	0.095259	0.27866	-2.1417	-2.0438	-2.6688	-2.6437	-2.0333	-2.6437	-2.4104	-2.5938	-2.5667	-2.4104	-2.7125	-2.4208	-2.3458	-2.7271	-2.2021	-2.3833	-109.494	146.495	-23.320	172.585	48.686	-10.218	137.315	92.246	90.884	32.242	-115.918	170.809	116.138	-126.199	-129.427	131.928	0.00039755	0.00045473	8.3976e-05	1406.2	2.6492e-06	5.1299e-06	1389.1	380.47	3.4714e-06	3.6134e-06	432.94	143.32	124.72	42.668	4.0158e-06	52.57	0.00053194	0.00052531	0.00014673	1430.5	5.8904e-06	5.7931e-06	1418.2	389.89	5.8858e-06	5.8405e-06	442.86	147.99	128.62	44.092	5.9489e-06	54.298	-80.611	-53.288	-48.410	-135.931	25.590	2.185	-135.932	-131.381	-9.041	3.742	-131.945	-127.698	-127.141	-122.293	35.106	-123.273	-8191	255	
#DATA ENDS
