BOXY.EXE: ISS Imagent and Oximeter Data Acquisition Program Version 0.80
Ascii Record File

#ACQ INFORMATION
2  Detector Channels 
16  External MUX Channels 
1  Auxiliary Channels 
5000  Waveform (CCF) Frequency (Hz)
1  Waveforms Skipped 
30  Waveforms Averaged 
1  Cycles Averaged 
16  Acquisitions per Waveform 
10.0806  Updata Rate (Hz) 

#FILE INFORMATION
TRUE -- External MUX Channel results are PARSED.
FALSE -- AC DC and Phase are NOT grouped.
TRUE -- Companion Program Settings File CREATED.
FALSE -- AC data not excluded
FALSE -- DC data not excluded
FALSE -- Phase data not excluded
FALSE -- Auxillary Chn. data not excluded
Tab delimiters

#CALIBRATION STATE
TRUE -- Waveform Calibration Values APPLIED.


#AUX CALIBRATION VALUES
Val Type	aux-1	

Term	1.0000e+00	
Factor	0.0000e+00	


#WF CALIBRATION VALUES
A = Detector Channel
Val Type	A-AC1	A-AC2	A-AC3	A-AC4	A-AC5	A-AC6	A-AC7	A-AC8	A-AC9	A-AC10	A-AC11	A-AC12	A-AC13	A-AC14	A-AC15	A-AC16	A-DC1	A-DC2	A-DC3	A-DC4	A-DC5	A-DC6	A-DC7	A-DC8	A-DC9	A-DC10	A-DC11	A-DC12	A-DC13	A-DC14	A-DC15	A-DC16	A-Ph1	A-Ph2	A-Ph3	A-Ph4	A-Ph5	A-Ph6	A-Ph7	A-Ph8	A-Ph9	A-Ph10	A-Ph11	A-Ph12	A-Ph13	A-Ph14	A-Ph15	A-Ph16	

Term	0.00000e+00	0.00000e+00	0.00000e+00	0.00000e+00	0.00000e+00	0.00000e+00	0.00000e+00	0.00000e+00	0.00000e+00	0.00000e+00	0.00000e+00	0.00000e+00	0.00000e+00	0.00000e+00	0.00000e+00	0.00000e+00	0.00000e+00	0.00000e+00	0.00000e+00	0.00000e+00	0.00000e+00	0.00000e+00	0.00000e+00	0.00000e+00	0.00000e+00	0.00000e+00	0.00000e+00	0.00000e+00	0.00000e+00	0.00000e+00	0.00000e+00	0.00000e+00	0.00000e+00	0.00000e+00	0.00000e+00	0.00000e+00	0.00000e+00	0.00000e+00	0.00000e+00	0.00000e+00	0.00000e+00	0.00000e+00	0.00000e+00	0.00000e+00	0.00000e+00	0.00000e+00	0.00000e+00	0.00000e+00	
Factor	1.00000e+00	1.00000e+00	1.00000e+00	1.00000e+00	1.00000e+00	1.00000e+00	1.00000e+00	1.00000e+00	1.00000e+00	1.00000e+00	1.00000e+00	1.00000e+00	1.00000e+00	1.00000e+00	1.00000e+00	1.00000e+00	1.00000e+00	1.00000e+00	1.00000e+00	1.00000e+00	1.00000e+00	1.00000e+00	1.00000e+00	1.00000e+00	1.00000e+00	1.00000e+00	1.00000e+00	1.00000e+00	1.00000e+00	1.00000e+00	1.00000e+00	1.00000e+00	X	X	X	X	X	X	X	X	X	X	X	X	X	X	X	X	

B = Detector Channel
Val Type	B-AC1	B-AC2	B-AC3	B-AC4	B-AC5	B-AC6	B-AC7	B-AC8	B-AC9	B-AC10	B-AC11	B-AC12	B-AC13	B-AC14	B-AC15	B-AC16	B-DC1	B-DC2	B-DC3	B-DC4	B-DC5	B-DC6	B-DC7	B-DC8	B-DC9	B-DC10	B-DC11	B-DC12	B-DC13	B-DC14	B-DC15	B-DC16	B-Ph1	B-Ph2	B-Ph3	B-Ph4	B-Ph5	B-Ph6	B-Ph7	B-Ph8	B-Ph9	B-Ph10	B-Ph11	B-Ph12	B-Ph13	B-Ph14	B-Ph15	B-Ph16	

Term	0.00000e+00	0.00000e+00	0.00000e+00	0.00000e+00	0.00000e+00	0.00000e+00	0.00000e+00	0.00000e+00	0.00000e+00	0.00000e+00	0.00000e+00	0.00000e+00	0.00000e+00	0.00000e+00	0.00000e+00	0.00000e+00	0.00000e+00	0.00000e+00	0.00000e+00	0.00000e+00	0.00000e+00	0.00000e+00	0.00000e+00	0.00000e+00	0.00000e+00	0.00000e+00	0.00000e+00	0.00000e+00	0.00000e+00	0.00000e+00	0.00000e+00	0.00000e+00	2.53724e+01	-1.25825e+02	-1.32423e+02	-1.86157e+02	-5.31231e+01	-7.74207e+01	-1.59021e+02	-1.62015e+02	-9.81342e+01	-6.42266e+01	-1.73719e+02	-1.69925e+02	-1.79918e+02	-1.77120e+02	-6.73402e+01	-1.50188e+02	
Factor	4.43643e-05	1.31752e-04	3.84766e-05	6.00296e-01	1.09162e-06	1.23883e-06	1.58776e-01	4.81384e-02	1.60025e-06	1.38813e-06	8.39062e-02	2.75674e-02	2.39658e-02	9.07276e-03	1.49700e-06	1.30833e-02	1.61200e-06	1.67637e-06	4.65165e-07	2.83808e-01	1.83225e-08	1.83332e-08	7.47258e-02	2.41391e-02	1.82575e-08	1.83873e-08	4.04860e-02	1.32768e-02	1.20086e-02	4.53932e-03	1.82600e-08	6.30792e-03	X	X	X	X	X	X	X	X	X	X	X	X	X	X	X	X	



#DISTANCE SETTINGS
A = Detector Channel
A-1	A-2	A-3	A-4	A-5	A-6	A-7	A-8	A-9	A-10	A-11	A-12	A-13	A-14	A-15	A-16	

2.5000e+00	3.0000e+00	2.5000e+00	3.0000e+00	2.0000e+00	3.0000e+00	1.5000e+00	3.0000e+00	3.0000e+00	3.0000e+00	3.0000e+00	3.0000e+00	3.0000e+00	3.0000e+00	1.5000e+00	3.0000e+00	

B = Detector Channel
B-1	B-2	B-3	B-4	B-5	B-6	B-7	B-8	B-9	B-10	B-11	B-12	B-13	B-14	B-15	B-16	

1.0000e+01	1.0000e+01	1.0000e+01	1.4400e+00	1.0000e+01	1.0000e+01	1.5100e+00	1.9400e+00	1.0000e+01	1.0000e+01	1.9900e+00	2.4900e+00	2.4100e+00	2.9000e+00	1.0000e+01	2.9800e+00	




#DATA BEGINS
time	group	step	mark	flag	A-AC1	A-AC2	A-AC3	A-AC4	A-AC5	A-AC6	A-AC7	A-AC8	A-AC9	A-AC10	A-AC11	A-AC12	A-AC13	A-AC14	A-AC15	A-AC16	A-DC1	A-DC2	A-DC3	A-DC4	A-DC5	A-DC6	A-DC7	A-DC8	A-DC9	A-DC10	A-DC11	A-DC12	A-DC13	A-DC14	A-DC15	A-DC16	A-Ph1	A-Ph2	A-Ph3	A-Ph4	A-Ph5	A-Ph6	A-Ph7	A-Ph8	A-Ph9	A-Ph10	A-Ph11	A-Ph12	A-Ph13	A-Ph14	A-Ph15	A-Ph16	B-AC1	B-AC2	B-AC3	B-AC4	B-AC5	B-AC6	B-AC7	B-AC8	B-AC9	B-AC10	B-AC11	B-AC12	B-AC13	B-AC14	B-AC15	B-AC16	B-DC1	B-DC2	B-DC3	B-DC4	B-DC5	B-DC6	B-DC7	B-DC8	B-DC9	B-DC10	B-DC11	B-DC12	B-DC13	B-DC14	B-DC15	B-DC16	B-Ph1	B-Ph2	B-Ph3	B-Ph4	B-Ph5	B-Ph6	B-Ph7	B-Ph8	B-Ph9	B-Ph10	B-Ph11	B-Ph12	B-Ph13	B-Ph14	B-Ph15	B-Ph16	aux-1	digaux	

3294.750	1	1	0	256	0.15993	0.2696	0.11878	0.22644	0.10264	0.060425	0.079394	0.1342	0.1232	0.02566	0.058816	0.073619	0.21785	0.14701	0.074654	0.17879	-2.4667	-2.6042	-2.3875	-2.9542	-2.6063	-2.6813	-2.9042	-2.5312	-2.75	-2.6417	-2.4417	-2.9646	-2.5375	-2.6542	-2.7438	-2.5271	-43.872	-38.557	197.262	205.807	66.675	32.161	37.111	176.289	-46.544	166.771	78.516	208.604	84.273	198.578	-98.091	1.531	0.00048283	0.00040857	0.00021138	814.1	3.374e-06	6.8994e-06	886.32	245.56	2.0924e-06	4.9943e-06	306.62	97.803	77.135	32.333	6.3529e-06	44.961	0.00017714	0.00016585	4.2827e-05	661.59	1.8622e-06	1.824e-06	743.56	206.66	1.8953e-06	1.7437e-06	255.39	82.142	64.992	27.33	1.5631e-06	37.551	3.640	164.839	-14.537	-92.939	227.973	-21.993	-94.488	-87.558	157.435	101.956	-89.333	-85.425	-82.943	-77.652	-33.911	-80.828	-8191	255	
3294.848	1	1	0	0	0.067211	0.14008	0.15553	0.094149	0.10854	0.25459	0.019702	0.10446	0.12875	0.16476	0.078964	0.15157	0.10071	0.12002	0.17193	0.10253	-2.1458	-2.6583	-2.1729	-2.8937	-2.5708	-2.7167	-2.8875	-2.4521	-2.7625	-2.7375	-2.5187	-3.0146	-2.5187	-2.7188	-3.0854	-2.4833	52.595	134.650	45.289	105.896	88.687	94.299	210.411	165.133	76.465	-29.007	127.367	136.175	210.624	30.283	-72.340	225.643	0.00033813	0.00078931	0.00018013	826.91	4.5355e-06	5.5312e-06	890.68	248.37	5.6607e-06	4.9845e-06	308.17	98.778	77.983	32.599	8.5296e-06	45.371	0.00018156	0.0001576	4.0939e-05	666.89	1.9456e-06	1.6328e-06	747.32	207.64	1.8864e-06	1.6937e-06	255.93	82.772	65.721	27.451	1.5178e-06	38.006	-8.115	-52.255	21.724	-92.732	38.414	39.854	-93.894	-87.697	-2.871	40.119	-90.189	-85.114	-82.583	-77.274	61.635	-80.393	-8191	255	
3294.943	1	1	0	0	0.074818	0.085687	0.087461	0.15291	0.19464	0.28114	0.22297	0.13853	0.062096	0.12371	0.042257	0.26568	0.20827	0.24887	0.078618	0.08391	-2.45	-2.6417	-2.3667	-2.8104	-2.4604	-2.6896	-2.8125	-2.8042	-2.8604	-2.7625	-2.5833	-2.8625	-2.7271	-2.5354	-2.9083	-2.5812	96.120	-51.542	132.178	170.348	-95.431	-103.048	204.650	139.881	59.923	244.020	87.840	239.412	237.037	160.743	-25.775	-16.980	0.00025919	0.00053961	2.1242e-05	808.03	6.2756e-06	1.3825e-06	895.1	247.43	2.7908e-06	3.5381e-06	307.28	100.21	78.526	32.686	5.2635e-06	46.32	0.00017142	0.00014492	3.9327e-05	664.38	1.7914e-06	1.6158e-06	750.23	207.3	1.7739e-06	1.5853e-06	257.21	83.573	65.818	27.642	1.5734e-06	38.639	-24.564	-22.391	-75.905	-93.029	57.599	-25.712	-94.147	-87.668	-18.857	42.271	-89.955	-85.045	-82.733	-77.586	32.143	-80.855	-8191	255	
3295.039	1	1	0	0	0.31287	0.11788	0.27862	0.14572	0.19959	0.25339	0.19026	0.17185	0.10778	0.1536	0.18818	0.075553	0.062222	0.18251	0.16887	0.16428	-2.05	-2.8271	-2.4458	-2.7292	-2.6042	-2.6292	-3.1104	-2.6813	-2.6479	-2.9188	-2.4375	-2.8792	-2.6375	-2.5167	-3	-2.5083	224.366	40.225	-26.121	248.147	92.230	-16.278	188.020	60.641	-11.874	-25.883	-89.253	148.808	-67.498	249.720	57.096	204.025	0.00044299	0.00051516	0.00026751	811.31	2.9408e-06	6.2461e-06	892.92	245.33	8.6825e-06	5.0364e-06	304.1	96.52	77.803	32.252	6.7174e-06	44.368	0.00016742	0.00014876	4.0265e-05	663.72	1.7616e-06	1.5603e-06	749.9	206.96	1.6886e-06	1.4736e-06	253.83	81.428	64.83	27.115	1.5704e-06	37.422	-12.088	-71.609	10.913	-93.124	85.162	13.598	-94.530	-87.705	-21.143	61.848	-89.790	-85.529	-83.111	-77.238	82.483	-80.695	-8191	255	
3295.135	1	1	0	0	0.14988	0.18966	0.29303	0.034214	0.29396	0.10983	0.23657	0.20174	0.23643	0.058083	0.17347	0.077702	0.18741	0.19096	0.087046	0.095019	-2.1688	-2.7021	-2.5354	-2.6458	-2.7875	-2.6417	-2.8583	-2.5438	-2.6688	-2.8812	-2.4208	-2.8688	-2.5938	-2.4958	-2.7896	-2.7562	249.668	-97.395	216.422	-61.116	129.478	-36.895	222.786	134.343	-38.635	73.773	-62.097	148.009	169.007	60.191	143.310	113.184	0.00039399	0.00075193	9.4671e-05	820.66	1.3538e-06	3.9185e-06	893.42	244.44	4.1133e-06	4.7689e-06	307.32	97.998	76.786	32.144	5.9922e-06	44.813	0.00015475	0.00013561	4.177e-05	664.58	1.6414e-06	1.4978e-06	744.01	205.66	1.6116e-06	1.4245e-06	255.02	81.955	64.453	27.149	1.7369e-06	37.475	-18.402	-18.765	-20.479	-93.185	15.179	-9.808	-94.373	-87.596	12.560	101.503	-89.999	-85.145	-82.643	-77.203	157.496	-80.296	-8191	255	
3295.256	1	1	0	0	0.18303	0.16218	0.19515	0.28366	0.2972	0.21962	0.14475	0.053494	0.13455	0.06198	0.04889	0.22981	0.29938	0.26688	0.078208	0.29154	-2.1458	-2.8354	-2.4771	-2.6437	-2.7667	-2.4479	-2.9688	-2.7167	-2.4396	-2.9646	-2.5812	-2.65	-2.9833	-2.5854	-2.7458	-2.7417	-84.576	217.024	41.138	235.584	173.555	226.381	163.739	183.841	-40.556	16.040	-93.104	150.455	188.830	133.566	222.850	166.957	0.00033475	0.00035949	0.00020277	802.65	2.8264e-06	4.332e-06	887.78	246.44	9.1027e-06	8.8734e-07	303.73	98.982	78.108	32.614	1.8498e-06	45.7	0.00015766	0.00012982	4.4497e-05	660.45	1.6311e-06	1.539e-06	746.21	206.86	1.6695e-06	1.6603e-06	255.38	82.714	65.206	27.445	2.0107e-06	38.147	-7.088	-28.302	41.294	-93.222	70.192	103.357	-94.178	-87.601	-63.972	79.970	-89.438	-85.180	-82.474	-77.557	171.066	-80.689	-8191	255	
3295.352	1	1	0	0	0.16729	0.17973	0.10551	0.22522	0.065313	0.10235	0.20971	0.28208	0.073419	0.25248	0.16019	0.31755	0.15664	0.21993	0.069744	0.24419	-1.9083	-2.6271	-2.6312	-2.6792	-2.8396	-2.5979	-2.9396	-2.7062	-2.4521	-2.7542	-2.7438	-2.5646	-2.8271	-2.4708	-2.8063	-2.8	-76.842	189.231	190.003	136.425	50.552	197.057	216.664	156.292	88.186	249.934	183.583	120.923	245.462	-64.893	233.772	141.291	0.00037995	0.00023053	3.5991e-05	811.2	4.3028e-06	3.0575e-06	896.95	244.89	1.8514e-06	3.0529e-06	307.49	99.524	78.023	32.607	5.127e-06	45.07	0.00016939	0.00016366	5.3058e-05	664.24	1.7787e-06	1.8923e-06	752.71	206.63	1.9055e-06	1.9817e-06	258.15	83.473	65.101	27.479	2.1305e-06	37.692	-9.867	22.635	-55.347	-92.961	7.558	114.138	-94.080	-87.443	132.814	194.088	-89.169	-84.739	-82.438	-77.330	60.249	-80.630	-8191	255	
3295.448	1	1	0	0	0.36937	0.071295	0.27686	0.11348	0.261	0.063657	0.32032	0.21304	0.068996	0.17625	0.26693	0.072991	0.18828	0.071192	0.16415	0.056631	-1.9167	-2.8312	-2.5854	-2.4271	-2.8271	-2.5438	-2.8563	-2.7938	-2.6104	-2.9479	-2.7292	-2.6458	-2.7917	-2.4479	-2.6771	-2.6854	166.263	160.212	244.564	181.686	-68.619	189.448	192.457	126.473	-54.146	67.709	109.796	-102.815	70.422	-59.409	-55.433	35.377	0.00031231	0.00031106	0.00012182	803.34	4.6732e-07	7.1763e-06	885.22	247.51	9.8058e-06	6.1112e-06	306.79	99.392	77.923	32.613	7.4006e-06	44.339	0.00017445	0.00018327	5.3497e-05	661.34	1.7476e-06	2.0995e-06	745.68	207.52	1.9281e-06	2.1822e-06	257.69	82.849	65.542	27.501	2.204e-06	37.33	-10.759	43.250	0.307	-93.116	218.183	30.881	-94.182	-87.260	-12.906	-16.756	-90.082	-85.186	-82.285	-77.527	-1.284	-80.437	-8191	255	
3295.520	1	1	0	0	0.28974	0.11339	0.29207	0.10919	0.18705	0.076023	0.032536	0.057511	0.1492	0.14601	0.14169	0.35097	0.29452	0.18356	0.13519	0.18529	-2.2917	-2.7562	-2.625	-2.4083	-2.85	-2.4	-2.7354	-2.9625	-2.5167	-2.7625	-2.7125	-2.45	-2.7958	-2.5833	-2.4813	-3.0208	195.843	68.488	143.899	234.500	78.833	97.639	229.835	62.510	174.870	47.118	170.796	167.635	219.600	204.980	219.156	92.540	0.000481	0.00013711	0.00018947	820.99	2.645e-06	8.2637e-06	891.74	248.58	3.2583e-06	2.7712e-06	310.73	99.37	79.566	32.725	6.3917e-06	45.108	0.00019557	0.000218	5.8135e-05	669.9	2.0199e-06	2.3905e-06	748.28	209.16	2.076e-06	2.3743e-06	260.43	84.011	66.87	27.789	2.3191e-06	37.966	-8.072	26.396	51.403	-93.077	64.727	59.982	-94.243	-87.670	190.590	101.066	-90.097	-85.068	-83.169	-77.270	81.695	-81.001	-8191	255	
3295.640	1	1	0	0	0.21786	0.14786	0.36344	0.20589	0.21019	0.23634	0.16709	0.34267	0.15915	0.29825	0.092759	0.34291	0.0063876	0.023049	0.19146	0.045932	-2.0771	-2.6625	-2.7333	-2.3688	-2.9042	-2.5854	-2.7125	-2.8542	-2.5958	-2.6229	-2.8688	-2.4542	-2.9646	-2.4792	-2.5021	-2.7313	14.903	201.596	147.018	162.372	-99.593	-49.096	188.717	253.829	-5.706	189.963	191.499	-11.849	192.417	152.672	91.949	108.704	0.00036367	0.00050059	8.4494e-05	826.99	8.9218e-06	8.2085e-06	896.62	251.24	2.85e-06	1.7361e-06	313.47	101.64	79.678	33.13	5.8342e-06	45.861	0.00021339	0.00023272	5.932e-05	673.44	2.3919e-06	2.6134e-06	753.01	210.57	2.371e-06	2.5615e-06	262.12	85.416	67.756	28.072	2.2522e-06	38.591	1.149	13.192	-24.823	-92.482	27.442	25.805	-94.102	-87.641	-32.274	147.648	-89.663	-84.784	-83.465	-77.909	4.855	-80.817	-8191	255	
3295.735	1	1	0	0	0.083339	0.091089	0.11017	0.05031	0.10294	0.18359	0.094389	0.12609	0.15145	0.23466	0.039993	0.25247	0.083782	0.13878	0.14975	0.20054	-2.1208	-2.6854	-2.6437	-2.4104	-2.8792	-2.4729	-2.4979	-2.9271	-2.5167	-2.5917	-2.7583	-2.5	-2.7938	-2.8146	-2.5583	-2.8646	170.424	-45.119	109.114	68.295	218.314	87.599	-27.875	162.479	-99.589	-99.769	-90.551	-85.168	212.001	-41.357	-97.819	212.314	0.00047541	0.00054678	0.00017452	827.65	2.7909e-06	5.5938e-06	904.61	252.61	4.0852e-06	6.0919e-07	313.42	99.447	79.417	32.607	3.8375e-06	45.252	0.00022401	0.00023047	5.6877e-05	678.77	2.5209e-06	2.4712e-06	756.67	211.75	2.6649e-06	2.6006e-06	262.58	84.267	67.723	27.878	2.4902e-06	37.988	-8.766	-39.175	-2.231	-93.151	45.699	65.143	-93.862	-87.110	-99.766	-63.796	-89.724	-85.701	-82.391	-77.411	71.287	-80.625	-8191	255	
3295.831	1	1	0	0	0.15911	0.18659	0.16656	0.12263	0.1227	0.11994	0.30413	0.22276	0.13908	0.17887	0.1785	0.13779	0.25403	0.1269	0.3646	0.11895	-1.9479	-2.65	-2.7062	-2.5167	-2.7771	-2.6458	-2.6896	-2.9167	-2.5271	-2.5583	-2.9125	-2.5167	-2.8625	-2.7521	-2.3063	-2.9542	227.328	230.863	108.559	-92.357	106.159	48.987	132.527	-103.772	-101.128	142.476	-36.848	136.857	238.041	-71.831	168.474	162.155	0.00062708	0.0006005	0.00032717	807.78	6.2605e-06	3.2006e-06	891.72	251.01	6.4343e-06	4.0176e-06	309.19	99.656	79.921	32.824	2.5373e-06	44.767	0.00026382	0.00024302	6.0281e-05	672.54	2.7949e-06	2.5469e-06	748.66	211.48	2.7815e-06	2.5681e-06	259.7	83.911	67.487	27.779	2.2017e-06	37.804	-9.463	23.071	-71.258	-93.555	-13.845	29.142	-93.889	-87.937	2.310	21.133	-89.680	-85.671	-83.033	-77.561	51.498	-80.289	-8191	255	
3295.929	1	1	0	0	0.15733	0.034623	0.13417	0.04706	0.22331	0.2408	0.32839	0.051802	0.15327	0.1537	0.15155	0.080058	0.11865	0.057565	0.069859	0.29046	-2.1042	-2.6813	-2.8312	-2.3167	-2.55	-2.6375	-2.4875	-3.0083	-2.5438	-2.6125	-2.9521	-2.5583	-2.7792	-2.6771	-2.5333	-2.8875	195.937	156.415	45.658	198.580	132.398	84.893	207.658	167.863	27.059	86.189	232.022	-88.933	240.785	125.724	2.888	201.209	0.00027116	0.00031489	0.00015952	819.18	4.1193e-06	1.2313e-06	890.73	252.26	5.4616e-06	6.2301e-06	311.11	99.437	80.109	32.97	4.503e-06	45.303	0.00024779	0.00021502	5.5246e-05	680.4	2.6756e-06	2.3321e-06	746.1	211.84	2.6411e-06	2.41e-06	259.76	84.497	67.953	27.966	2.3003e-06	38.246	-0.063	-67.462	120.261	-93.082	20.593	40.699	-94.379	-87.690	13.402	86.838	-90.288	-85.187	-82.853	-77.530	-35.504	-80.972	-8191	255	
3296.048	1	1	0	0	0.12601	0.18185	0.27079	0.29282	0.20451	0.055074	0.18313	0.076184	0.19469	0.13064	0.33291	0.15765	0.2246	0.17305	0.10422	0.012862	-2.1458	-2.4979	-2.6562	-2.4688	-2.7458	-2.7333	-2.4896	-2.8958	-2.4583	-2.5292	-2.8229	-2.5958	-2.4625	-2.7208	-2.5583	-2.95	118.892	107.464	16.649	57.863	-5.413	154.012	248.081	108.185	169.334	220.210	206.815	194.108	-79.470	247.430	225.985	169.800	0.00023341	0.00073309	0.00014902	807.14	2.9718e-06	3.986e-06	904.16	251.96	9.2318e-06	8.1799e-06	314.88	101.44	80.96	32.804	3.7145e-06	45.289	0.00024907	0.000224	5.7775e-05	677.75	2.5758e-06	2.4207e-06	752.39	212.75	2.5858e-06	2.3895e-06	262.89	85.736	68.461	28.077	2.3614e-06	38.355	36.726	-39.894	-79.388	-93.275	21.039	-16.087	-94.257	-87.467	25.359	77.768	-89.652	-85.253	-82.735	-77.951	84.789	-80.740	-8191	255	
3296.119	1	1	0	0	0.26037	0.23163	0.12211	0.22481	0.24226	0.30257	0.11101	0.11095	0.09249	0.013307	0.054586	0.0038009	0.15819	0.41072	0.058556	0.17548	-2.0125	-2.4688	-2.7729	-2.5458	-2.5354	-3	-2.4688	-2.9771	-2.5958	-2.5417	-3.0104	-2.6333	-2.5	-2.9437	-2.575	-2.8667	169.451	232.723	50.805	174.603	95.590	82.738	126.016	146.337	175.773	-76.586	123.797	205.819	205.624	-64.987	150.742	232.313	0.0004099	0.00018451	9.9891e-05	798.71	3.3446e-06	2.5897e-06	885.6	250.56	7.3601e-06	1.6312e-06	304.96	97.959	79.097	32.641	5.4675e-06	44.187	0.00022889	0.0002107	5.8251e-05	675.7	2.4367e-06	2.1643e-06	743.56	210.72	2.3225e-06	2.1438e-06	256.35	82.833	66.628	27.472	2.3277e-06	37.39	-24.987	-6.898	-75.875	-93.170	21.011	-24.014	-94.185	-87.354	13.196	71.108	-89.674	-85.168	-83.127	-77.201	91.093	-80.751	-8191	255	
3296.215	1	1	0	0	0.10629	0.050959	0.29945	0.17662	0.37209	0.18261	0.37189	0.24516	0.38011	0.19998	0.11019	0.15287	0.090156	0.24482	0.26565	0.1798	-2.075	-2.4396	-2.6688	-2.6729	-2.5062	-2.8083	-2.6542	-2.8063	-2.5875	-2.4562	-2.8771	-2.7646	-2.5833	-2.6708	-2.3708	-2.8292	-40.462	-99.147	103.944	117.940	45.632	141.453	215.431	242.517	139.884	-21.931	-41.652	132.507	151.157	193.493	164.943	199.344	0.00038891	0.00053672	5.9377e-05	798.49	4.7531e-06	1.9906e-06	880.93	249.67	7.4285e-06	3.7195e-06	304.82	97.276	78.649	32.213	4.426e-06	44.403	0.00020974	0.00019279	5.7532e-05	664.18	2.1593e-06	1.999e-06	739.18	209.55	2.0766e-06	1.9459e-06	256.33	82.12	66.037	27.262	2.2904e-06	37.32	18.675	7.672	119.512	-92.865	39.547	22.144	-93.692	-87.394	4.403	48.941	-89.898	-85.026	-82.855	-77.048	95.778	-80.517	-8191	255	
3296.336	1	1	0	0	0.27358	0.061803	0.1977	0.24278	0.17829	0.26859	0.072946	0.093096	0.032175	0.29448	0.12315	0.1573	0.094785	0.17362	0.239	0.16308	-2.2375	-2.4437	-2.7188	-2.6417	-2.6646	-2.7417	-2.6271	-2.7083	-2.8937	-2.3521	-2.8167	-2.7188	-2.55	-2.8146	-2.75	-2.6625	-56.014	249.471	238.065	-94.321	176.715	12.540	-99.293	208.844	-72.194	-62.457	234.729	186.033	2.742	238.052	150.241	209.419	0.00038125	0.00016106	0.00011699	805.69	3.8461e-06	3.2232e-06	884.39	248.29	2.2217e-06	6.6905e-06	307.72	98.4	78.103	32.35	2.7792e-06	45.116	0.00018684	0.00017811	5.6341e-05	662.94	1.9403e-06	1.855e-06	742.64	208.8	1.8731e-06	1.9472e-06	257.56	83.045	65.994	27.486	2.3112e-06	37.937	-21.003	61.138	-41.922	-92.634	87.518	62.642	-94.113	-87.654	-8.524	9.763	-89.650	-85.323	-82.467	-77.928	162.646	-80.696	-8191	255	
3296.432	1	1	0	0	0.18462	0.12433	0.054394	0.30187	0.070374	0.1591	0.10518	0.18203	0.060876	0.14534	0.094405	0.27278	0.13008	0.1897	0.17783	0.094966	-2.3417	-2.5	-2.8875	-2.5146	-2.4042	-2.8375	-2.7083	-2.7104	-2.8812	-2.3708	-2.8937	-2.8979	-2.4375	-2.8104	-2.4854	-2.6354	185.254	-88.323	171.168	157.823	-7.825	-10.366	239.809	251.279	24.316	-28.273	178.516	213.218	65.049	209.931	135.917	-82.383	0.0003498	0.0004988	0.00013176	816.18	4.0961e-06	5.7029e-06	889.01	248.1	4.9464e-06	2.4028e-06	307.21	96.755	76.313	31.973	2.1766e-06	43.519	0.00018697	0.00019286	6.2226e-05	669.94	2.0405e-06	2.1626e-06	745.17	208.47	2.0554e-06	2.3158e-06	255.93	81.026	64.527	27.055	2.3641e-06	36.777	-11.011	-64.899	33.099	-93.531	-35.093	46.818	-94.048	-87.079	-101.961	15.218	-89.688	-85.460	-83.056	-77.535	53.327	-80.723	-8191	255	
3296.528	1	1	0	0	0.15695	0.14225	0.15383	0.16497	0.12528	0.28667	0.24511	0.13551	0.043472	0.13987	0.31975	0.25207	0.20402	0.17242	0.19661	0.039822	-2.3271	-2.1937	-2.525	-2.7625	-2.4313	-2.8229	-2.7812	-2.4	-2.7146	-2.3312	-2.7333	-2.8063	-2.4333	-2.9625	-2.6188	-2.4062	84.115	77.156	74.729	221.755	173.115	97.788	149.567	-99.702	210.607	183.800	143.696	204.498	253.354	-72.826	140.297	91.216	0.00027619	0.00014081	5.3186e-05	800.19	2.5205e-06	2.8828e-06	860.37	239.31	3.7866e-06	3.2551e-06	296.43	93.266	74.636	31.212	5.5859e-06	43.257	0.00018328	0.00020226	5.6494e-05	657.78	1.9255e-06	2.1863e-06	725.63	202.43	1.9257e-06	2.2215e-06	247.16	78.307	62.634	26.437	2.0964e-06	36.171	-1.706	-12.599	-47.219	-93.227	39.334	-25.633	-94.076	-87.819	47.208	77.227	-89.901	-85.192	-82.596	-77.714	84.647	-80.877	-8191	255	
3296.649	1	1	0	0	0.039586	0.15187	0.14583	0.051758	0.084444	0.22074	0.13616	0.36186	0.061043	0.010866	0.27259	0.22699	0.071347	0.07237	0.11663	0.12207	-2.3771	-2.5396	-2.6708	-2.5583	-2.475	-2.6437	-2.7	-2.4146	-2.7896	-2.5542	-2.8021	-2.8792	-2.4896	-2.8271	-2.65	-2.5687	-99.545	32.418	191.704	238.793	7.156	-78.876	242.743	169.522	9.641	46.602	185.810	-13.187	77.124	134.173	-50.916	38.534	0.00052705	0.00035421	0.00014145	798.75	6.7667e-06	4.5811e-06	870.38	238.8	3.605e-06	8.0135e-06	292.76	93.742	73.964	31.14	7.2341e-06	43.064	0.00018415	0.00020516	5.3601e-05	647.84	1.9086e-06	2.2476e-06	726.63	200.57	1.9782e-06	2.2198e-06	246.83	78.36	62.58	26.368	1.9228e-06	36.313	5.889	-60.528	-51.929	-93.138	-33.085	74.659	-94.432	-87.610	-36.451	53.538	-89.545	-85.526	-82.968	-77.758	85.798	-80.501	-8191	255	
3296.721	1	1	0	0	0.035869	0.14212	0.12372	0.16806	0.12742	0.055892	0.21276	0.11155	0.14618	0.17955	0.10566	0.10726	0.082199	0.26406	0.14869	0.15835	-2.4875	-2.375	-2.4396	-2.8854	-2.7042	-2.7812	-2.8104	-2.725	-2.85	-2.5521	-2.6688	-3.0958	-2.5583	-2.8917	-2.7167	-2.475	15.934	163.279	199.696	-20.151	-27.774	50.300	123.149	178.039	29.589	163.991	188.852	169.661	105.111	235.604	-99.079	227.126	0.00036213	0.00042093	0.00017438	781.27	7.893e-06	2.3922e-06	870	240.1	2.6308e-06	9.6045e-06	293.77	94.69	74.171	31.333	3.1597e-06	43.667	0.00018117	0.0001879	4.6391e-05	645.77	1.8627e-06	2.0188e-06	727.31	200.81	1.9019e-06	1.9612e-06	247.12	78.933	62.264	26.438	1.6763e-06	36.501	7.588	-13.289	-71.980	-93.158	7.852	97.327	-93.957	-87.776	247.134	50.141	-89.757	-85.064	-82.638	-77.470	206.336	-80.745	-8191	255	
3296.817	1	1	0	0	0.087835	0.045497	0.12661	0.11276	0.12612	0.1711	0.143	0.14895	0.033448	0.043092	0.12685	0.26182	0.20751	0.18722	0.11651	0.3647	-2.4813	-2.5563	-2.4792	-2.9625	-2.4188	-2.8479	-2.8688	-2.4229	-2.8104	-2.5208	-2.5104	-2.9083	-2.5146	-2.5563	-2.8646	-2.4167	-0.666	9.216	32.436	-96.017	-23.447	-48.581	187.537	249.924	205.853	191.687	127.943	-11.088	205.551	182.283	213.031	220.205	0.00039139	0.0004766	5.1575e-05	785.03	2.1607e-06	1.7829e-06	863.18	236.88	6.3305e-06	2.7343e-06	289.29	90.25	71.388	30.429	1.9918e-06	42.07	0.0001738	0.00016797	4.0193e-05	641.11	1.8116e-06	1.7473e-06	721.33	197.8	1.8284e-06	1.7719e-06	241.79	75.791	60.27	25.626	1.641e-06	35.422	-10.261	-45.809	156.987	-93.241	209.822	56.064	-94.279	-87.866	18.792	12.383	-90.101	-85.099	-82.800	-77.240	178.178	-80.618	-8191	255	
3296.936	1	1	0	0	0.13065	0.19853	0.216	0.17461	0.1221	0.22397	0.16021	0.17716	0.16693	0.28104	0.10945	0.014443	0.26666	0.19281	0.16882	0.16951	-2.4271	-2.7396	-2.5104	-2.8583	-2.4813	-2.7938	-2.9271	-2.6208	-2.8667	-2.7125	-2.3625	-2.7979	-2.6646	-2.5625	-2.8917	-2.4417	-60.941	220.989	233.503	-101.204	69.902	239.858	181.836	157.225	218.125	123.038	-95.365	45.054	231.484	151.796	193.907	207.528	0.00014939	0.00076276	0.00012193	784.42	3.1689e-06	3.2404e-06	858.42	234.75	2.7434e-06	5.0791e-06	289.1	90.035	71.604	30.382	1.4979e-06	42.659	0.00018015	0.0001645	4.2629e-05	640.73	1.9443e-06	1.8151e-06	717.91	197.19	2.0268e-06	1.8606e-06	241.08	75.816	60.419	25.685	1.7371e-06	35.85	-6.314	48.426	-47.966	-92.848	52.042	27.645	-94.117	-87.766	-52.612	26.306	-89.380	-85.402	-82.437	-77.320	-97.528	-80.301	-8191	255	
3297.032	1	1	0	0	0.092649	0.020802	0.1404	0.42335	0.14586	0.17474	0.33153	0.20267	0.19131	0.15915	0.22282	0.25897	0.23819	0.046667	0.18664	0.10949	-2.4833	-2.7896	-2.3	-2.8083	-2.6667	-2.5604	-2.9604	-2.5667	-2.6458	-2.7687	-2.4708	-2.9896	-2.7458	-2.4979	-2.8771	-2.4146	29.322	107.935	-24.546	-40.447	98.557	49.351	147.238	102.927	145.472	111.526	207.519	135.835	-77.539	131.531	-51.135	168.435	0.00035221	0.00037879	0.00012046	774.22	7.6885e-06	5.2832e-06	865.55	231.78	2.8688e-06	2.9901e-06	290.76	90.65	71.616	30.643	6.935e-06	43.217	0.00020157	0.00017139	4.5024e-05	641.68	2.1075e-06	1.9129e-06	722.92	195.87	2.0347e-06	1.8539e-06	241.98	76.461	60.357	25.825	1.6921e-06	36.426	18.934	-28.656	-27.052	-93.492	52.277	-37.472	-93.877	-87.450	41.569	41.318	-90.377	-85.001	-82.748	-77.328	81.654	-80.290	-8191	255	
3297.128	1	1	0	0	0.24193	0.054726	0.11102	0.16767	0.16348	0.026223	0.072493	0.073099	0.34212	0.12753	0.047381	0.19091	0.16162	0.35145	0.030892	0.15526	-2.3604	-2.8146	-2.4958	-2.85	-2.7792	-2.3937	-3.0667	-2.5667	-2.5125	-2.8354	-2.4229	-2.8937	-2.6417	-2.3896	-3.0042	-2.7562	-7.324	206.573	209.551	-25.271	-84.350	90.088	171.734	195.916	220.728	-72.897	-10.821	-72.697	215.545	-82.539	-54.086	181.885	0.00033807	0.00045356	0.00012237	784.06	5.266e-06	5.912e-06	865.99	233.48	4.5999e-06	1.9528e-06	288.12	90.325	70.086	30.144	7.3357e-06	42.391	0.00018797	0.00016653	4.7082e-05	650.34	2.1422e-06	2.0039e-06	728.92	196.5	2.1535e-06	1.9676e-06	241.15	75.887	59.489	25.483	1.9501e-06	35.753	31.172	26.906	-26.183	-93.417	73.067	1.506	-93.602	-87.652	-12.128	123.369	-89.861	-84.936	-82.587	-77.513	45.777	-80.643	-8191	255	
3297.224	1	1	0	0	0.05546	0.098925	0.2457	0.12437	0.29887	0.2264	0.21518	0.05479	0.1549	0.16732	0.09663	0.023277	0.034187	0.11264	0.066012	0.18536	-2.3396	-2.7958	-2.5938	-2.5917	-2.6229	-2.4417	-2.9646	-2.7583	-2.6167	-2.9792	-2.4479	-2.8458	-2.8354	-2.4208	-2.9938	-2.7104	-88.383	-4.072	-77.193	76.167	35.013	143.572	208.295	81.689	163.482	27.647	-77.474	135.405	108.881	213.059	145.766	-73.142	0.00030607	0.00025783	5.5864e-05	784.47	5.5433e-06	2.933e-06	860.29	231.19	7.5517e-06	6.0294e-07	282.84	88.215	69.398	29.903	4.8622e-06	41.853	0.00019213	0.00016845	5.1483e-05	649.88	1.9388e-06	1.7937e-06	719.89	193.55	2.0094e-06	1.8288e-06	236.48	74.511	58.473	25.231	2.0643e-06	35.509	-6.205	28.232	149.156	-92.786	149.870	-43.412	-94.086	-87.562	-105.257	105.278	-90.361	-85.363	-82.660	-77.671	55.431	-80.818	-8191	255	
3297.345	1	1	0	0	0.056304	0.0081	0.21266	0.24083	0.16528	0.26944	0.12837	0.25269	0.043033	0.051929	0.16271	0.10801	0.15855	0.16144	0.056859	0.25238	-2.1437	-2.7458	-2.5125	-2.7479	-2.8479	-2.3917	-2.9667	-2.7042	-2.6104	-2.8292	-2.5125	-2.55	-2.7125	-2.4167	-2.9479	-2.7667	135.007	-25.038	34.543	-97.345	225.144	26.973	170.935	238.285	242.213	48.049	-12.928	30.351	252.455	207.446	195.040	-71.932	0.00017919	0.00039078	6.9974e-05	792.51	1.6331e-06	4.3658e-06	860.8	230.57	6.1279e-06	1.0897e-06	285.87	88.414	69.575	29.926	8.5547e-06	42.816	0.0001839	0.00017059	5.3437e-05	649.53	1.9683e-06	1.8803e-06	721.81	194.09	1.9754e-06	1.9437e-06	239.4	74.838	58.861	25.449	2.4093e-06	36.005	15.599	-4.205	180.952	-93.551	-45.913	-73.190	-93.791	-87.279	-57.067	30.319	-90.192	-84.875	-82.888	-77.481	21.804	-80.355	-8191	255	
3297.416	1	1	0	0	0.10611	0.035247	0.15839	0.05487	0.09238	0.14342	0.25237	0.14521	0.24074	0.16361	0.050533	0.080603	0.14806	0.1706	0.2108	0.32632	-2.2125	-2.8833	-2.5083	-2.7146	-2.7292	-2.6042	-2.8458	-2.7479	-2.4146	-3.0292	-2.5646	-2.6646	-2.75	-2.5146	-2.8187	-2.7313	205.921	239.315	76.514	227.368	1.443	143.409	205.978	230.580	-11.568	246.362	-54.239	239.126	-33.618	-76.218	-105.319	-53.432	0.00016217	0.0004484	0.00011788	799.35	5.9099e-06	4.0695e-06	865.81	230.51	4.5297e-06	1.3683e-06	289.4	90.699	71.071	30.448	8.1763e-06	43.647	0.00020732	0.00019288	6.2471e-05	654.05	2.1319e-06	2.2242e-06	728.27	194.29	2.1337e-06	2.2931e-06	242.87	76.675	59.971	25.921	2.5725e-06	36.644	17.999	-11.260	-70.347	-93.679	30.517	27.671	-93.860	-87.505	-23.133	-81.360	-89.661	-85.816	-82.337	-77.168	35.302	-80.679	-8191	255	
3297.513	1	1	0	0	0.18082	0.079525	0.22712	0.22769	0.19375	0.08177	0.27099	0.074232	0.027728	0.087305	0.1266	0.010031	0.16893	0.065589	0.061181	0.046543	-2.1771	-2.9021	-2.5646	-2.6562	-2.7167	-2.4771	-2.975	-2.625	-2.3688	-2.9188	-2.625	-2.6562	-2.8125	-2.5646	-2.5917	-2.7333	138.701	17.975	-88.879	190.860	144.152	45.214	207.308	152.391	109.159	66.549	242.879	-11.771	213.271	-84.071	104.701	110.568	0.00039422	0.00054883	0.00016586	785.99	3.9959e-06	2.6746e-06	863.69	229.67	3.2198e-06	5.6566e-06	284.26	88.565	69.574	29.726	3.1521e-06	42.078	0.00020204	0.00021795	6.4673e-05	652.07	2.1385e-06	2.3848e-06	725.82	194.1	2.2505e-06	2.471e-06	239.21	74.881	58.695	25.417	2.5548e-06	35.535	3.405	-28.153	-9.750	-93.198	132.550	-20.047	-93.876	-87.658	225.419	58.929	-89.295	-85.546	-82.663	-77.221	53.173	-80.293	-8191	255	
3297.609	1	1	0	0	0.14943	0.13522	0.09041	0.1403	0.10174	0.12823	0.22404	0.16491	0.11736	0.049532	0.25812	0.050327	0.15982	0.19056	0.080583	0.18541	-2.2104	-2.6646	-2.5479	-2.6146	-2.8979	-2.625	-2.8604	-2.7083	-2.2	-2.9792	-2.7604	-2.5208	-3.0167	-2.6146	-2.5021	-2.875	-61.234	-100.343	205.368	212.527	244.349	203.873	228.792	186.577	109.355	200.874	214.627	238.083	175.842	188.473	-104.772	124.241	0.00059185	0.0005324	0.0001074	791.15	1.1902e-06	2.645e-06	853.8	231.63	4.235e-06	6.9167e-06	287.49	89.924	70.706	30.203	2.0229e-06	42.578	0.000209	0.00024829	6.7476e-05	654.09	2.4016e-06	2.8925e-06	720.73	195.23	2.5124e-06	2.95e-06	240.44	75.888	59.979	25.841	2.5814e-06	35.917	-17.574	245.253	-18.601	-92.700	188.949	35.006	-94.189	-87.411	135.501	22.481	-90.130	-85.488	-82.780	-77.258	97.899	-80.394	-8191	255	
3297.728	1	1	0	0	0.30928	0.098027	0.032072	0.15063	0.11907	0.12128	0.2672	0.15557	0.090808	0.12962	0.16298	0.19763	0.089261	0.098745	0.11953	0.29496	-2.0417	-2.8354	-2.5271	-2.4146	-2.8042	-2.4604	-2.6917	-2.9604	-2.4292	-2.7646	-2.7646	-2.3667	-2.8771	-2.7021	-2.5938	-2.8187	143.278	-62.697	128.692	-41.791	90.244	-58.739	-97.899	166.211	155.867	205.368	197.135	166.493	75.586	-85.138	131.200	205.573	0.00024028	0.00065286	0.00030299	782.89	6.7907e-06	6.6204e-07	871	231.36	3.9254e-06	8.2269e-06	286.03	90.533	72.041	30.608	7.1044e-06	43.809	0.00023508	0.00025897	6.3388e-05	652.62	2.4934e-06	2.9066e-06	727.95	195.97	2.8023e-06	3.1045e-06	242.56	77.135	61.219	26.304	2.8237e-06	36.627	-2.348	57.642	6.819	-92.501	99.644	-64.799	-94.111	-87.820	-44.395	25.358	-89.378	-85.081	-82.707	-77.536	45.479	-81.052	-8191	255	
3297.824	1	1	0	0	0.085331	0.077225	0.13634	0.10517	0.054695	0.21894	0.0853	0.2586	0.028758	0.27052	0.16469	0.11113	0.14107	0.17254	0.13074	0.039018	-2.0583	-2.7542	-2.5979	-2.3167	-2.9938	-2.3208	-2.5583	-2.8354	-2.525	-2.8042	-2.8	-2.5021	-3.0333	-2.7062	-2.6833	-2.7896	-44.801	134.541	-75.386	148.638	139.161	221.768	-93.455	181.198	-9.491	-75.179	188.046	-43.176	147.442	252.140	-49.838	215.125	0.00030069	0.0009735	0.00017111	790.51	2.0709e-06	8.2552e-06	867.19	234.78	1.2205e-05	1.3495e-06	290.03	91.165	71.37	30.576	2.4782e-06	42.509	0.00028843	0.00029443	6.9374e-05	660.56	3.0105e-06	3.1242e-06	731.17	198.4	3e-06	2.9322e-06	244.59	77.303	61.082	26.092	2.7705e-06	36.077	8.667	21.981	-74.575	-92.932	-23.628	-19.067	-94.401	-87.764	21.132	56.174	-89.429	-85.136	-82.801	-77.732	-11.187	-80.783	-8191	255	
3297.920	1	1	0	0	0.21231	0.055893	0.13186	0.27932	0.17438	0.23605	0.33305	0.20921	0.24793	0.27571	0.28666	0.10217	0.056359	0.086493	0.24391	0.10646	-2.1625	-2.7354	-2.7708	-2.3958	-2.7313	-2.625	-2.7188	-2.8729	-2.5729	-2.6125	-2.8333	-2.5312	-2.7708	-2.6458	-2.4625	-2.9542	6.241	203.215	-84.668	128.233	118.616	-88.892	211.309	213.344	211.377	36.938	235.458	-52.063	221.901	203.221	38.224	41.448	0.0002845	0.00040917	6.6719e-05	790.5	6.7907e-06	4.7958e-06	860.47	231.06	2.2156e-06	5.4988e-06	288.3	89.803	70.875	30.487	1.0829e-05	42.203	0.00028932	0.00027412	6.9465e-05	660.17	3.2146e-06	3.0174e-06	722.27	195.98	3.3126e-06	3.0904e-06	240.98	76.077	60.642	25.949	2.7379e-06	35.868	0.433	126.788	-54.343	-92.736	15.521	18.524	-93.878	-87.400	-26.043	56.187	-89.666	-85.343	-82.947	-77.757	-5.829	-81.101	-8191	255	
3298.016	1	1	0	0	0.34495	0.18634	0.021702	0.23152	0.11568	0.13263	0.019759	0.11029	0.1643	0.084825	0.11373	0.039498	0.20895	0.078686	0.19319	0.26212	-2.1396	-2.6604	-2.7062	-2.5104	-2.7083	-2.7604	-2.2458	-2.8833	-2.5667	-2.4646	-2.8521	-2.4792	-2.6875	-2.6604	-2.5104	-2.7438	13.336	233.179	91.632	150.701	-70.995	142.832	-7.813	-62.725	83.700	220.507	207.923	148.249	-39.032	157.951	144.706	194.683	0.00022255	0.0007937	0.00010105	769.11	3.3e-06	4.7406e-06	858.25	231.08	3.2214e-06	7.8262e-06	287.85	90.141	70.736	30.379	4.838e-08	42.456	0.00028687	0.00025071	6.2171e-05	654.08	2.9793e-06	2.5665e-06	720.01	195.48	2.8781e-06	2.7104e-06	239.87	76.365	60.255	25.922	2.5546e-06	36.154	-3.959	-71.123	126.804	-92.888	-16.797	74.823	-93.778	-87.834	232.872	80.364	-89.766	-85.069	-82.972	-77.171	206.461	-80.609	-8191	255	
3298.112	1	1	0	0	0.16934	0.089334	0.21267	0.049775	0.10229	0.082369	0.079063	0.078125	0.28548	0.13708	0.033017	0.3308	0.21311	0.1015	0.35271	0.085784	-2.225	-2.4208	-2.9271	-2.5229	-2.7062	-2.6521	-2.5896	-2.8583	-2.6396	-2.6521	-2.7938	-2.4083	-2.7604	-2.8063	-2.5187	-2.95	95.465	-80.809	-30.950	152.186	-83.953	-88.571	252.540	207.353	56.058	38.789	60.301	165.536	221.508	173.544	-41.631	188.440	0.00044186	0.00067876	0.00026577	777.54	7.155e-06	6.3319e-06	863.76	232.73	8.1478e-06	5.3109e-06	288.65	90.589	70.73	30.41	6.4234e-06	43.337	0.00027689	0.0002528	6.5471e-05	664.07	2.9903e-06	2.61e-06	725.24	196.08	2.7368e-06	2.5376e-06	242.01	76.913	60.323	25.892	2.4568e-06	36.675	26.313	75.664	-52.004	-92.436	90.800	-54.059	-93.926	-87.263	20.951	29.485	-90.109	-85.136	-82.529	-77.635	50.495	-80.228	-8191	255	
3298.208	1	1	0	0	0.17131	0.3668	0.097924	0.13441	0.10925	0.072521	0.50315	0.074126	0.19582	0.1802	0.13775	0.21784	0.25648	0.081945	0.22472	0.18098	-2.1729	-2.4313	-2.9729	-2.5792	-2.5854	-3.0667	-2.4688	-2.8542	-2.6854	-2.5563	-2.8833	-2.5833	-2.6708	-2.8833	-2.4271	-2.8021	224.251	133.689	-32.696	-31.639	231.294	125.299	217.072	22.546	33.366	225.318	-27.920	-87.017	229.444	-92.085	89.822	59.131	0.00035796	0.00072615	0.00021134	784.54	2.1644e-06	9.5634e-06	862.15	230.55	6.9168e-06	3.7863e-06	284.36	88.997	68.701	29.847	4.2107e-06	41.743	0.00024062	0.00022401	6.5049e-05	660.32	2.6192e-06	2.3972e-06	724.13	194.16	2.5849e-06	2.4286e-06	238.3	75.321	58.588	25.345	2.6529e-06	35.565	9.769	-48.391	15.235	-92.727	50.981	26.319	-93.942	-87.568	26.841	50.133	-89.976	-84.981	-82.670	-77.361	115.119	-80.503	-8191	255	
3298.329	1	1	0	0	0.19437	0.17616	0.12303	0.073741	0.15265	0.21267	0.059924	0.12628	0.089134	0.10847	0.18953	0.17597	0.12397	0.12927	0.087167	0.152	-2.3333	-2.4521	-2.6063	-2.4771	-2.7104	-3.0042	-2.6562	-2.7896	-2.5354	-2.3917	-2.9375	-2.5375	-2.6146	-2.8167	-2.4813	-2.6854	-64.034	252.394	20.198	139.312	124.276	248.236	-96.313	252.141	191.391	197.607	250.110	85.616	-82.451	4.072	141.985	-88.983	0.0004077	0.00051938	0.00017362	790.02	1.8755e-06	3.6719e-06	850.46	227.81	7.2672e-06	5.5269e-06	281.33	87.749	69.235	29.873	6.5908e-06	42.15	0.00023156	0.0002143	6.5051e-05	659.12	2.4362e-06	2.211e-06	717.4	192.69	2.3596e-06	2.2362e-06	237.61	74.248	58.656	25.23	2.5702e-06	35.614	32.163	100.308	-43.877	-93.198	-95.869	27.485	-93.674	-87.388	-18.109	81.980	-89.703	-84.932	-82.723	-77.331	-95.889	-80.569	-8191	255	
3298.425	1	1	0	0	0.1195	0.24733	0.033024	0.11813	0.21355	0.24016	0.24315	0.16049	0.27923	0.22058	0.027533	0.10126	0.20562	0.10934	0.016437	0.14902	-2.5417	-2.3396	-2.6646	-2.7042	-2.7521	-3.1125	-2.5729	-2.6854	-2.8042	-2.4542	-2.7896	-2.5187	-2.3896	-2.8583	-2.4521	-2.75	131.578	-38.062	229.291	125.745	13.984	114.442	172.772	-8.464	-8.783	148.933	-69.985	-89.647	247.942	248.463	198.258	221.869	0.00040874	0.00042602	8.2978e-05	787.28	3.8629e-06	6.9669e-06	862.59	228.28	5.7693e-07	3.9088e-06	283.5	88.714	69.523	29.915	3.9381e-06	42.638	0.0002203	0.00020014	6.5122e-05	652.96	2.2489e-06	2.2304e-06	723.6	193	2.3177e-06	2.3351e-06	238.36	75.035	59.031	25.517	2.6719e-06	35.997	-25.738	-13.100	1.830	-92.918	117.585	91.305	-93.890	-87.414	121.158	40.941	-90.112	-84.928	-82.701	-77.250	243.687	-80.603	-8191	255	
3298.521	1	1	0	0	0.15447	0.076902	0.3676	0.083298	0.07984	0.08079	0.12965	0.27714	0.071103	0.069284	0.253	0.14725	0.062501	0.11278	0.10925	0.15087	-2.4146	-2.2812	-2.6625	-2.7271	-2.3958	-2.9667	-2.4938	-2.6896	-2.7104	-2.5417	-2.7604	-2.6083	-2.5479	-2.6604	-2.5521	-2.6333	55.253	143.629	-17.714	248.468	36.256	214.495	-54.318	239.132	24.345	-101.023	253.816	250.020	172.581	58.540	190.188	238.062	0.00043371	0.00067566	0.0001337	801.25	6.1029e-06	3.0549e-06	867.13	233.11	8.5703e-06	6.1539e-06	286.12	90.053	71.139	30.359	5.4186e-06	42.627	0.00020532	0.00020995	6.3697e-05	651.35	2.1149e-06	2.1614e-06	725.02	194.61	2.0542e-06	2.2442e-06	240.95	76.104	59.719	25.77	2.4153e-06	35.997	-39.279	147.321	-24.213	-93.933	28.788	158.596	-94.102	-87.621	6.824	68.247	-89.728	-85.089	-82.899	-77.569	11.019	-80.490	-8191	255	
3298.617	1	1	0	0	0.10194	0.06439	0.042463	0.17287	0.091714	0.27417	0.064644	0.069408	0.13006	0.16196	0.049066	0.10385	0.0079795	0.20355	0.21764	0.039452	-2.3292	-2.3979	-2.8396	-2.8063	-2.4271	-2.9083	-2.7875	-2.5708	-2.8833	-2.4125	-2.6646	-2.7917	-2.375	-2.9062	-2.625	-2.5958	-100.495	205.925	235.038	153.650	60.366	253.549	197.097	-52.629	24.191	229.421	239.941	33.298	120.525	22.113	-81.403	-51.775	0.00036605	0.00030823	0.00015431	789.5	2.3356e-06	4.4781e-06	857.78	232.32	5.5919e-06	5.0029e-06	285.89	88.256	70.514	29.985	1.557e-06	41.899	0.00018684	0.00021362	6.0589e-05	648.45	1.9738e-06	2.2937e-06	718.98	194.99	1.9124e-06	2.2619e-06	239.36	74.4	59.258	25.614	2.0726e-06	35.36	-5.461	41.919	-57.851	-92.962	-63.202	-53.872	-94.101	-87.640	-12.532	-31.662	-89.860	-84.654	-82.732	-77.289	120.969	-81.015	-8191	255	
3298.714	1	1	0	0	0.17326	0.31672	0.21002	0.41037	0.31947	0.090604	0.065894	0.1248	0.40281	0.079683	0.15737	0.23998	0.37444	0.24147	0.1242	0.26703	-2.4521	-2.4479	-2.8146	-2.5583	-2.2667	-2.8083	-2.7958	-2.6167	-2.8438	-2.725	-2.4729	-2.7875	-2.3187	-2.6521	-2.7042	-2.5417	47.379	67.031	127.075	-78.077	-30.592	182.176	218.388	37.527	-21.739	-14.828	-51.073	127.587	221.228	-79.862	63.320	250.018	0.00042851	0.00061675	0.00032232	780.42	2.6303e-06	3.9457e-06	856.97	234.03	3.2014e-06	3.8508e-06	285.88	90.581	71.816	30.456	1.1658e-05	42.684	0.0001782	0.00019835	5.1567e-05	642.33	1.8945e-06	2.2062e-06	718.42	196.55	1.9087e-06	2.189e-06	240.43	76.098	60.478	25.935	1.9481e-06	35.84	-18.382	28.025	-33.639	-92.761	33.161	253.477	-94.128	-87.657	-46.221	-4.215	-89.529	-85.094	-82.673	-77.463	85.318	-80.871	-8191	255	
3298.808	1	1	0	0	0.11199	0.12444	0.17767	0.147	0.19794	0.30045	0.19723	0.28221	0.13965	0.13276	0.10092	0.24332	0.21776	0.17047	0.1637	0.28247	-2.4021	-2.4979	-2.4354	-2.9125	-2.5833	-2.7104	-2.7458	-2.4125	-2.8042	-2.5771	-2.7083	-2.8104	-2.3958	-2.7979	-2.8125	-2.6396	91.719	94.671	26.672	246.478	223.843	-46.581	213.105	170.789	179.650	-24.222	151.654	203.799	-72.574	-98.939	-37.619	76.297	0.00025263	0.00052245	0.00027986	796.54	2.8859e-06	1.5314e-06	859.18	236.01	9.5215e-06	4.403e-06	294.54	92.38	72.84	31.082	1.4987e-06	43.949	0.00018122	0.00019535	4.757e-05	646.02	1.8576e-06	1.9437e-06	721.71	198.23	1.7376e-06	1.8156e-06	244.17	77.187	61.496	26.348	1.6714e-06	36.698	-20.615	31.889	8.825	-92.804	38.960	-47.335	-94.121	-87.754	33.738	-5.542	-89.199	-85.066	-82.814	-77.693	105.554	-80.975	-8191	255	
3298.904	1	1	0	0	0.050574	0.23428	0.053784	0.10814	0.026619	0.21576	0.20955	0.14464	0.086776	0.064963	0.3264	0.05995	0.015052	0.1567	0.036898	0.20436	-2.3187	-2.4958	-2.3854	-2.8104	-2.3729	-2.6896	-2.8688	-2.4708	-2.7396	-2.3417	-2.6437	-2.7646	-2.3854	-2.8479	-2.9417	-2.5729	16.864	-36.561	48.538	164.746	-86.702	43.194	209.864	22.389	174.720	193.844	250.243	148.735	147.277	153.154	-47.039	192.046	0.00051397	0.00062677	0.00012384	796.55	2.5272e-06	5.3703e-06	872.01	240.22	3.6662e-06	5.4604e-06	292.42	92.336	73.607	31.327	1.9044e-06	42.968	0.00017364	0.00016846	4.2749e-05	648.36	1.8439e-06	1.8659e-06	727.89	200.63	1.8524e-06	1.8472e-06	244.88	77.408	61.898	26.302	1.7181e-06	36.001	-3.719	-19.869	-96.205	-92.544	-78.956	48.385	-94.240	-87.524	8.414	78.734	-89.677	-84.883	-82.566	-77.356	58.485	-80.388	-8191	255	
3299.025	1	1	0	0	0.13054	0.045569	0.12925	0.18481	0.32922	0.078871	0.16006	0.22751	0.12044	0.24698	0.21959	0.27793	0.044631	0.083941	0.20203	0.11207	-2.4688	-2.6	-2.4938	-3.0375	-2.4917	-2.6063	-2.7021	-2.4562	-2.7729	-2.7625	-2.5	-2.9521	-2.5	-2.6229	-2.7896	-2.5479	173.362	71.055	42.348	-68.464	-81.936	203.578	109.401	149.349	125.601	49.235	226.802	215.585	25.867	151.147	-36.837	-47.875	0.00033485	0.00026858	0.00011717	796.23	3.5039e-06	4.3346e-06	853.47	237.48	7.8487e-06	6.2636e-06	289.99	92.188	73.128	31.332	4.581e-06	42.709	0.00018642	0.00016289	4.2374e-05	647.97	2.072e-06	1.8276e-06	716.77	200.02	2.0434e-06	1.8858e-06	243.28	77.321	62.033	26.256	1.9288e-06	35.98	-25.481	-48.264	7.826	-93.058	-0.462	-0.818	-93.908	-87.714	-36.218	60.429	-90.019	-85.302	-82.534	-77.467	72.237	-80.743	-8191	255	
3299.121	1	1	0	0	0.1678	0.036723	0.074096	0.31351	0.17635	0.23142	0.26553	0.19298	0.16564	0.021548	0.24246	0.34265	0.17735	0.13524	0.20817	0.15739	-2.4313	-2.6083	-2.4917	-2.8875	-2.3354	-2.6125	-2.9896	-2.7125	-2.6521	-2.7812	-2.4104	-2.8271	-2.6063	-2.7354	-2.6646	-2.5708	16.367	-23.227	-101.306	-99.393	33.063	149.895	229.071	106.763	89.694	23.780	157.983	177.007	199.602	-11.035	216.727	78.961	0.00023106	0.00048841	0.0003266	781.69	2.0978e-06	3.9968e-06	854.82	239.22	8.8583e-06	5.3436e-06	292.8	91.255	73.864	31.126	5.1137e-06	43.003	0.00022066	0.00019069	4.9662e-05	653.65	2.3719e-06	2.1353e-06	719.12	200.54	2.2983e-06	2.0778e-06	244.33	77.463	62.237	26.264	2.0223e-06	36.155	6.377	-29.701	4.085	-93.551	55.141	-4.455	-94.018	-87.730	211.893	23.990	-89.743	-85.651	-83.065	-77.450	-20.465	-81.044	-8191	255	
3299.217	1	1	0	0	0.090121	0.12067	0.05915	0.14395	0.048315	0.14796	0.27439	0.085252	0.13181	0.13386	0.18868	0.26772	0.16488	0.061802	0.10062	0.11751	-2.2604	-2.8021	-2.3937	-2.9	-2.6896	-2.725	-2.7646	-2.6562	-2.5229	-2.9437	-2.6583	-2.8417	-2.6937	-2.6104	-2.6854	-2.3333	148.422	17.826	242.954	213.273	54.236	150.295	204.424	244.880	-81.171	199.867	172.322	224.443	-67.894	201.465	128.335	-78.092	0.0004922	0.00055242	0.00016589	786.76	4.0082e-06	2.4569e-06	863.36	239.14	2.8955e-06	6.1111e-06	293.53	92.796	74.658	31.361	4.0923e-06	43.082	0.00021355	0.00019252	5.0683e-05	658.33	2.2846e-06	2.0652e-06	722.48	200.89	2.203e-06	1.987e-06	246.02	78.846	62.747	26.444	2.0243e-06	36.546	27.686	-27.877	-30.212	-92.766	21.370	-42.503	-94.123	-87.480	110.339	13.558	-89.616	-85.493	-82.912	-77.337	61.446	-80.548	-8191	255	
3299.289	1	1	0	0	0.094437	0.21451	0.068144	0.098574	0.30094	0.19881	0.11181	0.11083	0.15198	0.15431	0.139	0.22299	0.16351	0.24156	0.091768	0.16563	-2.1146	-2.9188	-2.4	-2.7208	-2.6646	-2.3771	-2.9375	-2.3333	-2.5354	-2.9875	-2.3937	-2.8458	-2.8125	-2.4375	-2.9562	-2.5687	123.575	144.406	28.132	-96.617	184.325	48.846	104.996	-72.558	103.500	253.997	150.976	219.691	241.376	248.590	149.399	-35.777	0.0004247	0.00039954	0.00013164	787.68	4.9229e-06	2.9386e-06	858.89	237.44	8.2073e-06	5.3383e-06	289.37	91.742	72.942	30.871	5.1832e-06	42.34	0.00020946	0.00018269	5.324e-05	652.11	2.1779e-06	1.9376e-06	720.86	200.97	2.2006e-06	2.0645e-06	243.09	77.69	61.915	26.086	2.3918e-06	35.702	0.637	13.540	21.185	-93.149	48.946	40.027	-94.210	-87.470	252.210	14.310	-89.936	-85.874	-82.416	-77.523	101.018	-80.603	-8191	255	
3299.409	1	1	0	0	0.45256	0.1508	0.2201	0.14611	0.060256	0.1196	0.051282	0.22981	0.22907	0.108	0.11659	0.24252	0.17156	0.16942	0.14883	0.25102	-2.0521	-2.8979	-2.3312	-2.7062	-2.9021	-2.2729	-2.8896	-2.7229	-2.6604	-2.8521	-2.4917	-2.7042	-2.7583	-2.525	-2.7812	-2.6917	-9.201	-41.220	132.393	30.826	139.156	70.633	180.079	132.787	-13.983	121.469	-33.309	-73.117	138.894	-73.886	242.396	-98.683	0.00043143	0.00019449	0.00011371	789.14	5.3851e-06	5.2356e-06	849.53	238.66	4.857e-06	2.0911e-06	288.97	91.901	73.373	30.761	1.2115e-05	42.152	0.00021133	0.0001886	6.1282e-05	655.05	2.2172e-06	2.1249e-06	715.79	200.05	2.3232e-06	2.1571e-06	243.7	77.398	62.021	26.078	2.7077e-06	35.712	-22.603	143.649	242.254	-93.247	59.452	13.724	-93.854	-87.806	22.577	34.477	-89.879	-85.625	-82.624	-77.673	28.939	-80.768	-8191	255	
3299.505	1	1	0	0	0.1242	0.21066	0.12066	0.15969	0.017194	0.29273	0.15662	0.077813	0.042707	0.41943	0.24277	0.11265	0.24884	0.11986	0.086393	0.23362	-2.0979	-2.7062	-2.5312	-2.7188	-2.9062	-2.4917	-3.0167	-2.6875	-2.4333	-2.8146	-2.7042	-2.5729	-2.7625	-2.7667	-2.7208	-2.8646	69.278	79.214	22.172	-10.317	251.039	-6.998	139.739	-96.349	-47.699	200.893	230.340	25.761	222.897	-21.469	149.572	-98.719	0.000425	0.00064026	0.00020668	780.78	2.1631e-06	5.0534e-06	852.49	238.47	8.1745e-06	7.7127e-06	291.83	92.377	74.409	30.96	5.1687e-06	42.811	0.00022623	0.000217	7.1752e-05	654.48	2.4208e-06	2.4441e-06	717.96	200.41	2.3308e-06	2.4387e-06	245.94	78.145	62.825	26.331	2.8556e-06	36.238	-27.165	48.103	66.232	-93.027	49.684	76.377	-94.120	-87.708	20.135	6.436	-89.636	-85.331	-83.286	-77.454	-6.466	-80.984	-8191	255	
3299.602	1	1	0	0	0.21381	0.12322	0.15876	0.20276	0.13507	0.12214	0.16442	0.092909	0.12603	0.23827	0.21781	0.044745	0.038578	0.19458	0.23821	0.10637	-2.1125	-2.7	-2.3063	-2.6479	-2.8063	-2.3958	-2.8542	-2.8958	-2.3854	-2.7104	-2.7562	-2.5042	-2.8458	-2.6917	-2.6625	-2.7979	180.576	173.794	173.541	232.667	174.466	-34.512	160.350	121.520	-54.497	209.166	-31.491	237.026	-101.881	-7.723	-84.095	102.797	0.00044812	0.00038209	0.00016287	783.37	1.8669e-06	4.7035e-06	851.92	237.82	6.4197e-06	6.4913e-06	291.28	92.299	74.337	30.893	3.135e-06	41.893	0.00022592	0.00023663	7.1349e-05	658.1	2.3371e-06	2.5641e-06	720.22	201.03	2.3389e-06	2.6164e-06	245.52	78.095	62.877	26.388	2.9893e-06	35.683	-0.083	19.017	36.295	-93.912	-6.747	2.739	-93.936	-87.500	15.313	94.757	-90.298	-85.758	-83.053	-77.621	86.213	-80.855	-8191	255	
3299.698	1	1	0	0	0.10809	0.065698	0.106	0.058916	0.11843	0.17803	0.21554	0.2629	0.065939	0.034557	0.16611	0.23381	0.1363	0.089578	0.27374	0.11126	-2.0187	-2.7708	-2.4104	-2.3604	-2.875	-2.5396	-2.7083	-2.7708	-2.4604	-2.7229	-2.5312	-2.4896	-2.7958	-2.4458	-2.6646	-2.9708	21.090	216.485	-8.729	144.773	152.771	44.842	160.738	240.713	145.490	218.378	222.275	-88.358	-79.494	-24.324	103.996	174.592	0.00042449	0.0010209	0.00011344	783.3	4.1166e-06	1.2822e-06	848.63	236.91	3.9167e-06	2.8372e-06	287.49	91.264	73.835	30.477	4.5167e-06	42.1	0.00024311	0.0002837	7.9175e-05	658.36	2.7419e-06	3.2611e-06	713.67	200.1	2.8466e-06	3.2416e-06	243.45	77.602	62.99	26.233	3.2742e-06	35.637	2.500	90.522	35.292	-93.084	85.094	48.358	-94.152	-87.536	-100.329	-54.146	-89.716	-85.777	-82.672	-77.917	59.496	-81.164	-8191	255	
3299.817	1	1	0	0	0.19935	0.13992	0.19293	0.38801	0.13453	0.17481	0.25864	0.11486	0.27352	0.37743	0.25399	0.14089	0.10747	0.22512	0.11075	0.22079	-1.9542	-2.8063	-2.425	-2.4208	-2.6813	-2.5896	-2.6417	-2.6979	-2.4104	-2.7729	-2.7271	-2.4333	-2.8667	-2.5979	-2.4417	-2.9125	-30.116	128.154	22.505	112.720	-65.433	31.398	-103.639	174.276	221.637	-66.005	59.530	185.498	159.230	206.887	168.626	183.600	0.00046183	0.00071564	8.227e-05	791.98	4.5536e-06	4.222e-06	846.54	238.39	7.9246e-06	6.8516e-06	288.88	92.518	74.577	31.068	2.8439e-06	42.941	0.00029226	0.00033122	8.4084e-05	663.18	3.1971e-06	3.6735e-06	715.03	201.09	3.2991e-06	3.6976e-06	245.18	78.642	63.778	26.739	3.4928e-06	36.303	-25.834	-24.381	-35.766	-93.463	8.008	-30.748	-94.262	-87.540	-61.371	-55.671	-90.105	-85.167	-83.160	-78.072	-26.956	-80.779	-8191	255	
3299.890	1	1	0	0	0.086323	0.032364	0.051233	0.20001	0.073701	0.22607	0.40336	0.13967	0.074046	0.24303	0.12393	0.2192	0.13047	0.2614	0.37013	0.24539	-1.9604	-2.6729	-2.6125	-2.4354	-2.9854	-2.475	-2.6833	-2.9958	-2.6542	-2.8396	-2.7833	-2.5833	-2.7083	-2.6229	-2.4604	-2.9083	162.266	81.053	113.876	-50.907	126.524	236.563	206.444	215.430	-10.934	-38.396	194.703	-76.171	-20.090	-20.076	248.612	150.453	0.00037664	0.00037067	0.00030201	777.29	6.5145e-06	2.6421e-06	854.06	240.54	1.0832e-05	8.0845e-06	294.35	94.126	75.845	31.336	5.4012e-06	43.624	0.00034012	0.00035892	9.0174e-05	668.54	3.7519e-06	3.8817e-06	720.78	202.88	3.854e-06	3.8517e-06	248.8	80.225	65.034	27.14	3.5267e-06	36.948	21.631	-40.424	-5.310	-92.700	41.441	24.189	-93.887	-87.609	-84.458	54.559	-89.566	-85.116	-82.631	-77.602	32.438	-81.003	-8191	255	
3300.009	1	1	0	0	0.073242	0.0867	0.077926	0.11824	0.24109	0.018326	0.22011	0.31039	0.25099	0.11917	0.13882	0.29289	0.1661	0.22984	0.15547	0.17078	-2.0667	-2.5229	-2.9333	-2.3083	-2.9104	-2.6021	-2.7646	-2.8979	-2.425	-2.5833	-2.7542	-2.5396	-2.8417	-2.8	-2.5104	-2.8167	-25.828	-91.162	63.759	156.730	25.843	138.358	-89.670	226.554	-20.426	89.970	38.222	89.882	-43.414	222.749	62.535	180.477	0.00056531	0.00055011	0.00026461	789.91	4.8128e-06	6.4591e-06	847.25	237.76	3.8012e-06	5.3141e-06	288.57	91.489	74.005	30.933	1.5209e-06	42.335	0.00037308	0.00035436	8.8779e-05	671.24	4.1345e-06	3.9968e-06	719.9	201.67	4.4268e-06	4.0426e-06	244.75	78.492	64.164	26.757	3.8376e-06	36.203	-12.017	170.238	-20.426	-92.721	53.115	8.240	-94.134	-87.377	189.129	52.741	-89.480	-85.439	-83.087	-78.104	-41.840	-80.581	-8191	255	
3300.105	1	1	0	0	0.21282	0.17973	0.12025	0.11376	0.18597	0.018888	0.079122	0.17278	0.076044	0.2742	0.31033	0.36847	0.14913	0.17366	0.19572	0.11517	-1.9208	-2.3708	-2.6792	-2.2604	-2.6958	-2.6854	-2.5812	-2.9188	-2.5042	-2.5563	-2.9729	-2.4625	-2.6896	-2.675	-2.4604	-2.9729	26.340	134.081	136.965	-3.062	237.356	160.285	95.475	107.791	228.135	-48.603	-104.870	-100.168	-46.446	91.443	27.540	207.407	0.00052161	0.00068601	0.00018617	775.92	1.2016e-06	2.9783e-06	846.89	237.6	1.008e-05	7.6285e-06	286.89	91.702	74.538	31.439	3.4854e-06	42.472	0.00041986	0.00038907	0.00010133	679.59	4.6861e-06	4.3483e-06	716.64	202.32	4.7194e-06	4.2528e-06	245.51	79.202	64.888	26.914	4.1331e-06	36.679	-31.151	-25.365	-103.469	-92.583	77.535	68.726	-93.928	-87.597	73.033	99.953	-89.820	-85.246	-82.735	-77.610	240.059	-81.511	-8191	255	
3300.201	1	1	0	0	0.11092	0.11934	0.33141	0.29407	0.21596	0.3086	0.14601	0.25006	0.14518	0.10315	0.33204	0.35734	0.3362	0.18989	0.11522	0.072089	-2.0292	-2.5187	-2.8167	-2.45	-2.7521	-2.8292	-2.5458	-2.8854	-2.5792	-2.6333	-2.875	-2.4729	-2.7687	-2.7812	-2.3083	-3.1063	152.080	-84.232	1.727	-62.230	-86.151	147.505	242.994	196.039	99.365	199.924	199.284	-105.151	-56.179	160.740	-82.246	-78.147	0.00024468	0.0014117	9.9197e-05	787.91	5.9488e-06	2.5349e-06	848.44	235.74	3.9603e-06	1.6366e-05	291.25	93.036	75.457	31.379	5.2217e-06	42.821	0.00044388	0.00040909	0.00010852	695.2	5.0301e-06	4.4684e-06	722.71	202.91	4.8004e-06	4.3128e-06	246.61	80.206	64.693	27.112	4.0298e-06	37.063	39.609	-90.378	-76.181	-93.165	31.832	-26.726	-94.275	-87.446	11.912	52.040	-89.874	-85.615	-82.509	-77.707	57.432	-80.449	-8191	255	
3300.297	1	1	0	0	0.35312	0.24565	0.080959	0.19075	0.13895	0.14941	0.16306	0.27899	0.20455	0.16819	0.04307	0.10556	0.12717	0.1913	0.1727	0.19828	-2.2021	-2.4833	-2.8896	-2.5021	-2.6813	-2.9479	-2.7229	-2.7708	-2.7167	-2.4958	-2.8104	-2.4417	-2.6792	-2.9188	-2.4667	-2.7917	31.804	-14.150	231.334	-52.457	215.964	44.752	154.977	175.459	159.016	173.427	183.629	-30.517	56.558	192.060	-61.566	110.346	0.0002752	0.00019741	0.00032258	785.42	9.3349e-06	5.2132e-06	850.52	235.81	3.9038e-06	1.2039e-05	289	93.047	74.468	31.316	2.3874e-06	42.635	0.0004053	0.00038729	0.00010637	689.73	4.5036e-06	4.2666e-06	726.18	202.61	4.3624e-06	4.1019e-06	246.89	80.092	64.397	26.932	4.6099e-06	36.809	-3.625	-24.431	61.811	-93.035	-26.185	158.252	-94.145	-87.567	8.276	32.805	-89.820	-84.881	-82.699	-77.921	59.383	-80.927	-8191	255	
3300.418	1	1	0	0	0.31146	0.037883	0.13713	0.17251	0.13345	0.10856	0.09434	0.2216	0.17607	0.13826	0.2766	0.15763	0.37828	0.19531	0.24097	0.21451	-2.2708	-2.3833	-2.7417	-2.6625	-2.4542	-3.0167	-2.4479	-2.8667	-2.7188	-2.3271	-2.8688	-2.6292	-2.5979	-2.9813	-2.4708	-2.7042	167.546	246.423	8.735	-89.347	56.225	-6.230	148.566	225.755	118.860	-37.479	108.503	243.571	151.122	212.602	253.659	109.283	0.00032632	0.00087964	0.00027854	786.84	5.2337e-06	5.1134e-06	845.54	234.42	7.9724e-07	7.6453e-06	286.78	90.084	73.325	30.497	7.242e-06	42.097	0.00041461	0.00040266	0.00012261	694.73	4.6845e-06	4.2313e-06	719.95	201.15	4.6078e-06	4.3035e-06	244.12	78.071	62.961	26.468	4.7422e-06	36.455	21.515	-3.579	-5.721	-92.690	93.796	100.001	-94.220	-87.715	11.989	79.153	-89.573	-85.068	-82.634	-77.978	175.451	-81.016	-8191	255	
3300.514	1	1	0	0	0.15903	0.0072591	0.024667	0.10018	0.26507	0.12452	0.26566	0.25996	0.091064	0.26134	0.12761	0.21147	0.21627	0.20557	0.1987	0.17959	-2.2687	-2.5854	-2.8875	-2.5521	-2.4354	-2.6875	-2.4542	-2.7479	-2.5958	-2.375	-2.9938	-2.7229	-2.5667	-2.8917	-2.6125	-2.8812	63.947	-94.168	-102.424	17.902	76.309	17.582	179.282	121.793	100.533	20.992	183.090	-54.274	-83.407	212.720	23.994	220.443	0.00023904	0.00064278	0.00010849	785.88	5.2186e-06	1.3024e-06	844.64	233.95	4.2097e-06	7.7184e-06	284.54	91.108	72.853	30.886	1.0531e-06	42.148	0.00039472	0.00038191	0.00012276	689.53	4.3335e-06	4.1241e-06	721.02	200.42	4.4164e-06	4.2786e-06	245.7	78.601	62.931	26.543	4.7173e-06	36.506	-19.321	52.078	179.740	-93.670	112.666	-9.750	-94.232	-88.326	-33.731	0.313	-89.774	-85.387	-82.670	-78.146	24.680	-81.112	-8191	255	
3300.586	1	1	0	0	0.10372	0.18915	0.069578	0.11071	0.03951	0.092363	0.2652	0.014543	0.080095	0.28539	0.16953	0.19259	0.1864	0.08699	0.10654	0.093211	-2.3125	-2.1958	-2.7125	-2.7729	-2.6396	-2.7708	-2.6292	-2.4146	-2.8208	-2.45	-2.7812	-2.7	-2.4667	-2.8479	-2.5646	-2.7042	8.240	-68.955	199.505	24.994	24.013	50.813	124.025	199.930	71.149	-42.190	250.367	174.887	241.752	73.072	246.809	219.862	0.00028359	0.00055273	4.2983e-05	781.12	1.0371e-06	1.9386e-06	855.58	232.89	3.9772e-06	5.9012e-06	283.39	92.131	72.54	31.115	1.4126e-06	43.03	0.00036636	0.00037731	0.00012015	681.71	4.0948e-06	4.2748e-06	727.51	199.64	4.0304e-06	4.437e-06	245.23	78.757	62.758	26.76	4.5831e-06	36.833	17.504	-6.714	226.499	-92.526	21.690	149.197	-94.142	-87.743	-54.592	185.811	-89.552	-85.075	-82.537	-77.977	194.561	-80.751	-8191	255	
3300.682	1	1	0	0	0.07851	0.15358	0.29327	0.10181	0.044197	0.19393	0.090456	0.22092	0.18918	0.37789	0.21439	0.20668	0.25154	0.058484	0.2219	0.12395	-2.5104	-2.5646	-2.8021	-2.5729	-2.4521	-2.8979	-2.7875	-2.525	-2.7146	-2.5938	-2.7979	-2.7458	-2.4792	-2.6833	-2.5438	-2.6562	-55.814	111.975	204.402	137.969	186.586	222.566	252.037	188.605	89.569	-15.369	202.753	228.993	219.863	10.419	45.111	164.424	0.00054949	0.00063838	0.00014098	791.94	2.3915e-06	4.8739e-06	844.61	231.53	5.2667e-06	1.0739e-05	280.27	89.274	70.671	29.834	2.6871e-06	41.315	0.00034233	0.00037249	0.00010949	674.87	3.6371e-06	4.0776e-06	721.03	197.55	3.5623e-06	4.1096e-06	240.49	76.042	60.48	25.912	4.0301e-06	35.523	2.829	246.058	-63.744	-94.275	-28.828	112.100	-93.419	-87.619	216.827	-2.284	-89.734	-85.687	-82.287	-77.954	-3.611	-80.616	-8191	255	
3300.801	1	1	0	0	0.24393	0.12787	0.063392	0.054286	0.079286	0.20125	0.28264	0.16898	0.21824	0.14248	0.11108	0.29326	0.015732	0.12046	0.13505	0.066834	-2.4583	-2.4021	-2.4042	-2.8	-2.4542	-2.8542	-2.5458	-2.4333	-2.7958	-2.2521	-2.6458	-2.7896	-2.5062	-2.6562	-2.5667	-2.4604	20.912	-72.884	253.027	178.692	184.658	179.317	177.005	102.135	192.508	19.834	15.152	101.688	108.162	231.562	141.648	108.434	0.00031147	0.00055577	0.000268	780.88	3.8102e-06	3.5482e-06	848.2	230.51	1.0184e-06	9.7715e-06	282.51	88.786	69.57	29.977	2.4589e-06	41.736	0.00032422	0.00037946	0.00010008	667.27	3.6004e-06	4.3081e-06	717.29	195.28	3.7252e-06	4.2832e-06	239.45	75.783	60.114	25.911	3.6604e-06	35.508	-11.979	14.971	-76.040	-93.362	-14.453	-76.314	-93.699	-87.660	-66.893	51.160	-90.182	-85.798	-82.754	-77.765	-87.374	-80.909	-8191	255	
3300.897	1	1	0	0	0.033745	0.095553	0.21567	0.12641	0.14551	0.18325	0.25293	0.24079	0.29928	0.33198	0.23172	0.096415	0.17861	0.21185	0.10643	0.20013	-2.3125	-2.4833	-2.5792	-2.7771	-2.4979	-2.7021	-2.7104	-2.4875	-2.8333	-2.5021	-2.5375	-2.8333	-2.3604	-2.6708	-2.8312	-2.5375	9.545	171.732	168.994	-37.007	220.158	-103.104	-85.313	190.747	-25.900	98.668	198.394	-90.307	-68.535	188.678	68.034	-75.719	0.00053677	0.0001228	0.00012611	778.89	3.5694e-06	4.0219e-06	851.9	228.02	3.1651e-06	1.6355e-06	281.4	87.805	70.333	30.026	4.9404e-06	42.082	0.00031549	0.00036517	8.7945e-05	658.8	3.4624e-06	3.7856e-06	718.6	194.04	3.5429e-06	3.7555e-06	239.48	75.358	60.438	25.832	3.4325e-06	35.894	16.532	242.326	15.249	-93.524	74.606	-14.309	-93.887	-87.502	65.572	73.518	-89.919	-85.226	-82.725	-77.742	87.464	-80.582	-8191	255	
3300.993	1	1	0	0	0.28762	0.074806	0.00863	0.20085	0.1512	0.18655	0.25029	0.066757	0.27924	0.061479	0.23604	0.048074	0.24585	0.22713	0.043466	0.14142	-2.375	-2.6083	-2.5792	-2.8354	-2.3708	-2.6208	-2.9292	-2.3625	-2.9229	-2.5083	-2.5812	-2.8812	-2.5812	-2.7167	-2.7292	-2.4938	108.363	79.784	159.223	76.607	-8.663	-7.394	109.740	174.937	200.984	-99.066	244.659	239.314	-99.868	-55.439	129.278	198.027	0.00061447	0.00012473	0.00020168	793.6	8.6417e-06	2.9439e-06	860.69	230.6	6.2758e-06	9.611e-07	284.11	88.858	69.451	29.605	7.9025e-06	41.705	0.00034559	0.00034951	8.8577e-05	669.23	3.8728e-06	3.7974e-06	724.55	194.43	3.8887e-06	3.6918e-06	239.69	75.797	59.926	25.632	3.2663e-06	35.581	-14.035	-34.090	-53.629	-93.199	47.805	-60.588	-93.836	-87.528	5.333	-18.840	-89.547	-85.251	-83.129	-77.639	35.638	-80.559	-8191	255	
3301.114	1	1	0	0	0.09416	0.2442	0.15254	0.078533	0.11556	0.28179	0.19242	0.1054	0.20486	0.046192	0.34233	0.2361	0.04624	0.1005	0.17602	0.2035	-2.5042	-2.6583	-2.4688	-2.725	-2.5625	-2.6917	-2.825	-2.5083	-2.5583	-2.6063	-2.4083	-2.7646	-2.4562	-2.5229	-2.7229	-2.4146	59.529	-47.508	-56.748	47.455	37.745	22.219	153.826	-39.771	167.044	-58.584	191.767	-13.671	117.190	139.801	-67.562	203.109	0.00040275	0.00074516	0.00015929	788.52	4.7773e-06	7.2862e-06	841.28	226.06	3.674e-06	5.8104e-06	275.53	86.087	67.625	29.268	5.3018e-06	41.389	0.00033726	0.00032555	7.9843e-05	664.06	3.7423e-06	3.4497e-06	713.9	191.66	3.725e-06	3.4219e-06	233.31	73.697	58.335	25.177	3.0613e-06	35.304	-26.994	-65.310	-30.396	-91.962	80.211	-36.420	-93.934	-87.878	-50.672	13.155	-89.830	-85.383	-82.714	-77.709	56.821	-80.712	-8191	255	
3301.185	1	1	0	0	0.23971	0.15981	0.12197	0.11386	0.14073	0.20098	0.20811	0.10505	0.15381	0.26453	0.15071	0.11777	0.099312	0.11619	0.21194	0.043125	-2.3167	-2.5875	-2.5104	-2.8042	-2.525	-2.6667	-2.8646	-2.5208	-2.8625	-2.5187	-2.3729	-2.8563	-2.6875	-2.5708	-2.7812	-2.4917	116.228	166.328	-15.530	-8.712	227.147	-47.338	175.956	155.787	56.894	231.192	228.759	-75.324	105.272	156.260	114.637	72.576	0.00032241	0.00034755	0.00014044	777.21	4.6524e-06	6.0087e-06	850.79	225.26	3.1035e-06	9.8919e-06	277.63	86.972	67.977	29.261	4.6025e-06	41.857	0.00034589	0.00030206	7.8519e-05	665.77	3.7007e-06	3.3676e-06	717.46	191.53	3.7634e-06	3.3321e-06	234.97	74.396	58.458	25.19	3.0754e-06	35.646	-4.123	70.602	-40.401	-93.019	111.977	81.704	-93.890	-87.715	-85.499	97.249	-90.276	-85.247	-82.832	-77.638	-83.626	-81.248	-8191	255	
3301.282	1	1	0	0	0.25932	0.38712	0.18393	0.19926	0.20926	0.16252	0.12114	0.1185	0.087689	0.25955	0.15755	0.12806	0.073455	0.29305	0.0093285	0.2215	-2.35	-2.7083	-2.4375	-2.7021	-2.5312	-2.5625	-2.9458	-2.4688	-2.6542	-2.8	-2.6937	-2.7271	-2.6	-2.6437	-3.0292	-2.4729	228.286	217.979	-88.115	81.891	227.017	19.723	189.394	61.308	165.618	32.462	-19.245	174.685	239.099	-95.840	-45.722	-55.383	0.00022965	0.00031731	0.00010514	788.65	5.9891e-06	5.3716e-06	855.69	226.46	6.2105e-06	8.0042e-06	279.9	87.4	68.674	29.593	2.7002e-07	42.642	0.00033021	0.00029549	7.7579e-05	670.38	3.529e-06	3.2422e-06	722.84	192.45	3.591e-06	3.2823e-06	237.02	74.97	58.63	25.307	3.4041e-06	36.216	-14.257	112.458	-17.851	-93.366	76.797	6.026	-94.009	-87.790	116.766	42.755	-89.482	-85.225	-82.917	-77.506	93.260	-80.699	-8191	255	
3301.378	1	1	0	0	0.12035	0.38037	0.31209	0.27221	0.2636	0.066097	0.057779	0.21022	0.099452	0.11913	0.17558	0.065343	0.24683	0.05309	0.25907	0.031781	-2.2562	-2.7687	-2.5458	-2.7125	-2.7167	-2.375	-2.9958	-2.575	-2.7333	-2.9542	-2.6688	-2.7938	-2.5708	-2.5583	-2.8125	-2.6271	127.063	-63.976	148.327	28.372	155.809	49.523	77.485	153.385	58.441	-22.157	1.721	182.123	-99.135	223.991	-104.924	231.453	0.00026567	0.00090396	3.784e-05	784.92	3.2576e-06	5.5799e-06	858.44	225.06	4.0628e-06	1.1279e-06	275.05	85.354	66.675	28.916	4.0494e-06	40.923	0.00033255	0.00030597	8.8818e-05	677.1	3.5758e-06	3.3952e-06	726	191.67	3.6035e-06	3.236e-06	234.45	73.441	57.196	24.789	3.6829e-06	35.09	-0.635	-40.114	-24.611	-93.563	78.602	-7.856	-94.089	-87.322	-32.199	138.342	-89.966	-84.962	-82.749	-77.386	187.760	-80.462	-8191	255	
3301.498	1	1	0	0	0.12376	0.21931	0.18947	0.089487	0.33708	0.31515	0.11914	0.24037	0.19011	0.06746	0.11541	0.21042	0.15856	0.12097	0.024733	0.033883	-2.0354	-2.8104	-2.4396	-2.6208	-2.75	-2.3708	-2.7417	-2.5938	-2.5146	-2.7771	-2.5729	-2.6125	-2.5729	-2.3438	-2.5417	-2.6333	6.536	-77.812	-9.655	40.685	135.596	33.912	76.854	182.749	243.862	-39.097	12.537	195.466	-88.486	-91.827	164.563	247.844	0.00017775	3.6885e-05	9.7303e-05	794.16	2.9951e-06	5.2013e-06	847.72	220.58	4.1638e-06	5.091e-06	269.31	83.943	66.082	28.439	1.3198e-05	40.916	0.00032691	0.00030452	9.8044e-05	677.6	3.6885e-06	3.5113e-06	720.26	188.98	3.6837e-06	3.3887e-06	231.82	72.436	56.759	24.584	4.0787e-06	35.134	35.591	226.764	179.023	-92.608	-9.540	-59.818	-94.182	-87.611	-61.166	176.307	-89.611	-84.976	-82.477	-77.219	0.249	-80.452	-8191	255	
3301.595	1	1	0	0	0.12457	0.18633	0.19228	0.18272	0.28938	0.074806	0.16995	0.10289	0.11153	0.15074	0.13967	0.19996	0.1099	0.23412	0.17631	0.33607	-2.0375	-2.7417	-2.5104	-2.6479	-2.675	-2.2083	-2.7604	-2.7479	-2.6312	-3.0229	-2.5729	-2.5458	-2.6771	-2.4167	-2.8792	-2.6417	-30.945	-65.502	211.413	-73.119	-53.872	94.554	123.933	191.091	81.758	44.375	205.968	-93.846	238.430	-49.756	-30.505	227.552	0.00022913	0.00045097	0.00029772	774.1	2.5797e-06	2.0803e-06	852.76	218.73	4.8649e-06	5.9238e-06	272.16	84.755	65.905	28.404	1.0345e-05	41.429	0.00032676	0.00032396	0.00010623	668.67	3.6214e-06	3.7068e-06	726.92	187.65	3.7771e-06	3.849e-06	233.55	73.126	56.966	24.749	4.5122e-06	35.555	27.274	-7.423	248.757	-92.941	95.672	181.682	-94.260	-87.297	-56.412	105.341	-89.381	-84.757	-82.872	-77.384	-62.622	-80.839	-8191	255	
3301.691	1	1	0	0	0.099202	0.068937	0.137	0.087487	0.064552	0.14417	0.11444	0.21132	0.1642	0.005573	0.14229	0.082371	0.069249	0.23819	0.15617	0.15303	-1.9125	-2.7417	-2.4542	-2.4271	-2.9104	-2.4562	-2.7958	-2.6646	-2.2812	-2.7375	-2.7729	-2.4708	-2.7958	-2.5125	-2.7896	-2.7792	118.138	29.323	165.774	231.243	-4.885	-29.348	224.738	89.821	-91.741	-12.032	183.600	-90.488	122.252	100.370	-36.250	234.112	0.00024425	0.00046936	3.5309e-05	778.58	5.8e-06	9.034e-06	863.53	220.98	1.1439e-05	1.7846e-06	276.64	85.134	65.576	28.62	1.3301e-06	41.547	0.00034668	0.00035558	0.00010985	676.71	3.5425e-06	3.849e-06	732.62	187.61	3.5551e-06	3.8372e-06	234.7	72.998	56.645	24.905	4.0094e-06	35.376	38.991	-9.022	83.972	-92.416	106.861	-55.148	-93.993	-87.525	-22.415	-53.140	-89.468	-85.121	-82.206	-77.526	231.449	-81.155	-8191	255	
3301.810	1	1	0	0	0.27854	0.10139	0.17423	0.15044	0.15905	0.036576	0.17193	0.10332	0.122	0.28642	0.33756	0.21853	0.20788	0.18915	0.1141	0.15204	-1.9562	-2.9062	-2.6	-2.4458	-2.6667	-2.6875	-2.8375	-2.8167	-2.4479	-2.8083	-2.7604	-2.6583	-2.7438	-2.6479	-2.7771	-2.6667	91.184	42.495	115.332	162.912	-75.593	-10.247	251.839	178.278	99.688	205.193	193.057	187.728	186.916	79.636	-87.439	1.531	0.00034688	0.0012578	0.00034561	770.5	1.5303e-06	2.224e-08	855.66	219.52	1.8546e-06	1.6547e-06	270.95	83.003	65.196	28.365	8.0256e-06	40.687	0.00031299	0.00035656	9.9019e-05	669.44	3.3958e-06	4.1339e-06	723.76	186.84	3.4774e-06	4.0966e-06	230.21	71.397	56.071	24.61	3.83e-06	34.655	-42.512	32.780	-3.359	-92.838	132.372	103.111	-93.928	-87.844	-59.675	229.656	-90.303	-85.494	-83.301	-77.377	-11.110	-80.596	-8191	255	
3301.881	1	1	0	0	0.075595	0.214	0.28462	0.18875	0.15366	0.23388	0.17973	0.24708	0.20827	0.15379	0.22433	0.10844	0.2577	0.08462	0.27764	0.033623	-2.1063	-2.7208	-2.6375	-2.4792	-2.8917	-2.5604	-2.625	-2.9	-2.3667	-2.8604	-2.7625	-2.6729	-2.9479	-2.5	-2.6271	-2.9167	126.485	97.782	-60.395	-61.148	136.570	165.321	179.871	225.599	182.676	-60.282	240.714	200.646	245.522	-73.047	-32.561	-100.100	0.00036442	0.00070718	6.5884e-05	784.45	4.4628e-07	1.0023e-05	847.54	219.55	7.8742e-06	5.0466e-06	268.57	83.806	65.641	28.636	6.2762e-06	40.54	0.00031728	0.00037451	9.5652e-05	671.91	3.6781e-06	4.2049e-06	718.81	187.18	3.8173e-06	4.3111e-06	228.95	71.74	56.572	24.824	3.7644e-06	34.855	9.205	35.132	124.803	-92.161	-70.711	15.400	-94.321	-87.686	-4.384	-28.670	-89.838	-85.457	-83.252	-77.319	-23.919	-81.107	-8191	255	
3301.977	1	1	0	0	0.15824	0.085913	0.11553	0.19861	0.28886	0.2051	0.24026	0.18952	0.13145	0.11464	0.23457	0.15164	0.064481	0.16308	0.28135	0.09371	-1.7854	-2.6646	-2.8021	-2.3458	-2.85	-2.625	-2.5229	-2.9542	-2.625	-2.7708	-2.8187	-2.5938	-2.9354	-2.5938	-2.5771	-2.9917	20.841	197.278	247.002	41.378	118.017	222.266	138.451	238.271	-63.843	245.166	-78.726	-50.408	159.915	153.357	46.887	134.122	0.0004511	0.0012328	0.00022095	792.42	4.0152e-06	6.8642e-06	857.21	221.51	5.9875e-06	7.6405e-06	272.93	84.786	66.171	28.807	4.1645e-06	41.672	0.00035635	0.0003808	9.2046e-05	672.19	3.9287e-06	4.1548e-06	722.56	188.31	3.9432e-06	3.9505e-06	231.74	72.65	57.408	24.993	3.399e-06	35.427	-8.465	-52.058	-75.076	-93.195	114.522	64.721	-93.971	-87.853	200.956	-17.360	-89.622	-85.359	-82.634	-77.291	50.941	-80.938	-8191	255	
3302.098	1	1	0	0	0.072902	0.17904	0.15367	0.096246	0.055883	0.084877	0.16017	0.15497	0.17073	0.33338	0.16212	0.1775	0.21544	0.18046	0.21237	0.2231	-2.0479	-2.6396	-2.9021	-2.4708	-2.8458	-2.7042	-2.4979	-2.9396	-2.65	-2.7708	-3.0083	-2.5292	-2.9792	-2.5729	-2.5729	-2.9771	222.180	25.432	-20.022	19.824	14.253	224.627	200.739	-45.690	-53.202	-14.510	80.229	203.046	227.251	150.362	190.344	201.277	0.00051897	0.00025775	9.7868e-05	790.93	2.5913e-06	2.2594e-06	858.4	222.27	8.6561e-06	5.3818e-06	272.08	83.865	66.522	28.679	6.4742e-06	40.191	0.00035103	0.00033691	8.9665e-05	667.7	3.9136e-06	3.7779e-06	724.93	189.27	4.0001e-06	3.7832e-06	231.56	72.074	57.476	24.833	3.3917e-06	34.48	-4.232	-64.437	202.421	-92.733	70.093	4.422	-94.303	-87.667	-19.025	-3.697	-89.827	-84.978	-82.980	-77.902	47.237	-80.473	-8191	255	
3302.194	1	1	0	0	0.12638	0.16033	0.26468	0.38604	0.080136	0.10577	0.24291	0.24855	0.20035	0.2359	0.044023	0.1063	0.1579	0.32998	0.12561	0.0637	-2.0938	-2.5958	-2.7438	-2.5875	-2.7562	-2.7292	-2.6458	-2.9396	-2.475	-2.5312	-2.8521	-2.4813	-2.6833	-2.6417	-2.4813	-2.8438	-43.572	-44.779	97.046	198.045	90.841	-103.796	197.350	203.440	21.326	196.598	150.491	213.720	195.347	-90.460	-52.217	-59.811	0.00035515	0.00090599	8.5808e-05	781.15	5.1974e-06	1.9283e-06	843.32	221.08	9.9259e-07	4.93e-06	269.68	83.952	66.227	28.774	3.985e-06	40.433	0.00036611	0.00033975	8.3549e-05	668.65	4.081e-06	3.6831e-06	713.42	188.68	4.1555e-06	3.7948e-06	229.13	72.196	57.626	24.789	3.6612e-06	34.755	-49.935	20.069	94.494	-93.546	21.709	-51.066	-93.719	-87.411	-100.654	26.824	-89.864	-85.617	-82.489	-77.513	-1.564	-80.322	-8191	255	
3302.290	1	1	0	0	0.17654	0.21226	0.22879	0.26672	0.040809	0.043058	0.1209	0.045817	0.11046	0.22841	0.25662	0.28867	0.19469	0.14471	0.14884	0.064811	-2.0229	-2.4271	-2.8792	-2.5125	-2.9188	-2.6875	-2.5687	-2.9313	-2.675	-2.3729	-2.8812	-2.6146	-2.7	-2.7625	-2.3646	-2.7875	-28.429	17.338	53.954	-69.729	72.316	189.683	111.977	194.433	-62.840	42.889	190.241	246.926	-53.131	-27.091	109.226	182.396	0.00050087	0.000486	6.1264e-05	780.49	4.395e-06	4.9687e-07	845.88	221.87	8.7725e-06	6.5492e-06	272.87	83.9	66.757	28.729	3.1665e-06	41.2	0.00040005	0.00037172	9.3166e-05	679.46	4.3911e-06	4.0261e-06	715.32	189.74	4.3745e-06	3.9413e-06	231.27	72.989	58.235	24.93	3.9133e-06	35.425	10.461	30.588	-24.748	-93.842	28.836	155.337	-93.795	-87.666	-9.823	143.532	-89.918	-85.239	-82.871	-78.149	58.410	-80.635	-8191	255	
3302.411	1	1	0	0	0.12277	0.15489	0.053835	0.28634	0.029322	0.27829	0.20401	0.15148	0.034235	0.088428	0.15417	0.33778	0.14199	0.17182	0.27475	0.089451	-2.2	-2.3937	-2.8438	-2.6104	-2.5792	-2.9208	-2.3625	-2.6146	-2.6937	-2.3333	-2.8688	-2.6042	-2.6708	-2.875	-2.5187	-2.8417	76.400	248.136	210.844	239.168	152.351	101.626	196.574	-26.746	33.042	123.517	64.379	186.733	85.484	222.247	-46.068	233.510	0.00037523	0.00039312	0.00025927	778.77	7.7958e-06	6.5556e-06	848.56	224.47	4.447e-06	8.1098e-06	274.54	86.598	68.474	29.237	3.264e-06	41.125	0.00040402	0.00038337	9.8883e-05	687.83	4.4715e-06	4.0275e-06	717.3	193.12	4.3912e-06	4.1537e-06	234.78	74.93	59.619	25.317	4.3745e-06	35.687	2.779	168.590	-42.474	-92.753	139.353	67.820	-94.352	-87.224	-16.202	10.040	-89.436	-85.115	-82.758	-77.764	105.122	-80.824	-8191	255	
3302.483	1	1	0	0	0.1746	0.12239	0.3243	0.10155	0.12121	0.12243	0.33708	0.18718	0.26396	0.14247	0.11029	0.21003	0.1001	0.18182	0.070175	0.068167	-2.0542	-2.3479	-2.7313	-2.5833	-2.5854	-2.7292	-2.6417	-2.85	-2.6167	-2.4479	-2.9271	-2.6333	-2.6542	-3.0083	-2.5479	-2.7562	204.640	-0.292	-65.883	9.656	237.797	-56.034	185.313	194.303	234.277	-83.381	-66.198	209.028	240.857	-98.183	198.884	227.451	0.00033176	0.0004157	0.00020003	790.16	8.3761e-06	5.9115e-06	842.03	225.63	4.3297e-06	8.1608e-06	271.67	84.268	67.958	28.797	4.9259e-06	40.076	0.00040721	0.00040019	0.00011784	697.84	4.707e-06	4.426e-06	719.05	193.65	4.6965e-06	4.5045e-06	234.36	73.882	59.407	25.055	5.1629e-06	35.036	-14.465	-21.507	-9.606	-93.719	-12.911	30.677	-93.742	-87.478	129.021	248.303	-89.490	-85.293	-82.996	-77.570	-87.737	-80.932	-8191	255	
3302.579	1	1	0	0	0.24129	0.083929	0.070624	0.066773	0.12482	0.11968	0.17176	0.29762	0.15255	0.069063	0.15405	0.13785	0.27997	0.13829	0.22345	0.40925	-2.2854	-2.45	-2.7292	-2.5375	-2.5375	-2.8271	-2.6667	-2.8021	-2.7125	-2.5167	-2.9646	-2.7604	-2.6312	-2.7417	-2.5687	-2.7792	245.461	88.215	68.388	198.271	-97.760	15.648	-0.350	215.038	55.402	89.614	204.984	-59.007	214.697	-61.722	-59.448	128.233	0.00022232	0.00049969	0.0002517	767.17	1.7357e-06	7.5866e-06	836.71	225.6	5.1652e-06	7.4813e-06	272.39	85.894	68.709	29.133	1.2132e-05	40.653	0.00043779	0.00040847	0.0001342	690.06	4.882e-06	4.6981e-06	714.76	193.25	5.0572e-06	5.0056e-06	236.23	74.703	59.98	25.434	5.8631e-06	35.404	-13.304	-38.586	34.353	-92.510	26.778	15.247	-93.994	-87.996	215.289	-32.776	-90.226	-85.381	-82.951	-77.752	6.050	-80.727	-8191	255	
3302.675	1	1	0	0	0.1477	0.076488	0.082446	0.23096	0.21027	0.2112	0.23701	0.067908	0.20997	0.24378	0.070019	0.1855	0.14525	0.061161	0.1971	0.13199	-2.3812	-2.4792	-2.7729	-2.5938	-2.3333	-2.95	-2.7104	-2.7062	-2.9292	-2.3583	-2.9104	-2.6542	-2.5896	-2.9333	-2.5146	-2.7625	58.155	39.376	176.304	151.347	-61.587	-4.753	237.809	158.296	-96.722	-1.686	196.615	119.904	234.575	-103.028	-42.489	194.974	0.00019154	0.00066169	0.00018883	777.64	2.4107e-06	9.841e-06	842.42	227.19	1.7525e-06	8.3475e-06	274.67	86.268	68.129	29.575	6.0971e-06	41.436	0.00046659	0.00047571	0.00015246	694.72	5.1744e-06	5.3874e-06	720.01	194.55	5.2156e-06	5.4431e-06	238.34	75.291	60.247	25.752	5.9239e-06	35.79	-24.751	99.349	93.983	-93.226	70.523	14.873	-94.241	-86.934	184.623	209.324	-89.084	-85.464	-83.110	-77.560	100.146	-81.257	-8191	255	
3302.771	1	1	0	0	0.098074	0.11904	0.17451	0.13798	0.18787	0.32357	0.16625	0.15365	0.30082	0.14503	0.049402	0.22159	0.32829	0.34862	0.092573	0.18836	-2.5125	-2.2708	-2.7771	-2.8021	-2.5604	-2.9729	-2.7167	-2.7854	-2.7687	-2.5375	-2.825	-2.6167	-2.5042	-2.75	-2.6479	-2.5292	79.780	99.190	209.258	209.689	198.102	81.790	-96.172	28.418	-34.387	174.818	73.802	-84.931	243.620	-38.031	229.050	188.902	0.00055659	0.0003084	0.00025528	787.18	3.7468e-06	9.8486e-06	838.51	225.38	6.6865e-06	1.2333e-05	277.92	86.31	69.076	29.396	1.0817e-05	40.504	0.0004479	0.00051417	0.00015054	698.65	4.9816e-06	5.7628e-06	721.24	194.4	5.1227e-06	6.0319e-06	239.67	75.409	60.685	25.907	6.2724e-06	35.464	-27.281	90.865	-7.738	-92.780	95.465	42.118	-94.108	-87.834	-86.172	64.165	-89.827	-85.394	-83.278	-78.169	34.738	-80.556	-8191	255	
3302.890	1	1	0	0	0.36503	0.28269	0.077489	0.15623	0.15012	0.2292	0.19537	0.11727	0.15877	0.16875	0.20301	0.092852	0.10049	0.14059	0.19557	0.2966	-2.4229	-2.5042	-2.5354	-2.9146	-2.5208	-2.8937	-2.8146	-2.4188	-2.8292	-2.7313	-2.7875	-2.7125	-2.5438	-2.7146	-2.6292	-2.6396	67.132	-56.260	179.222	154.804	181.759	210.404	-28.857	-75.072	105.596	223.071	-60.490	-94.648	238.881	-85.909	75.140	231.279	0.00049186	0.00027789	5.2648e-05	784.17	1.0493e-05	1.2202e-05	832.87	224.37	7.8565e-06	5.4339e-06	272.24	85.793	67.659	29.211	1.2493e-05	40.349	0.00050423	0.00059545	0.0001558	701.39	5.4297e-06	6.5049e-06	717.27	193.54	5.6184e-06	6.6192e-06	237.08	74.947	60.483	25.898	6.127e-06	35.495	-28.452	30.693	151.991	-93.143	35.000	49.218	-93.946	-88.057	247.846	49.605	-89.685	-85.693	-82.436	-77.439	88.091	-80.957	-8191	255	
3302.986	1	1	0	0	0.076781	0.083693	0.066607	0.11666	0.19434	0.17545	0.11768	0.044337	0.074183	0.14663	0.10192	0.18448	0.16276	0.29168	0.29191	0.11257	-2.4917	-2.6188	-2.5542	-2.8646	-2.625	-2.85	-2.7271	-2.5208	-2.7729	-2.5021	-2.6042	-2.7958	-2.4625	-2.7333	-2.725	-2.4979	61.274	-68.770	30.709	214.562	227.730	201.362	157.380	242.112	85.874	-83.354	202.820	229.175	-20.254	185.856	237.802	233.425	0.00037978	0.00094217	0.00044699	773.19	4.4565e-06	4.3937e-06	838.36	223.2	2.6837e-06	4.2996e-06	271.64	86.63	69.135	29.35	3.1075e-06	41.251	0.00053383	0.00062019	0.00015582	692.11	5.991e-06	6.6079e-06	718.48	193.5	5.9282e-06	6.5964e-06	236.37	75.434	60.956	25.94	5.7583e-06	35.851	3.019	-47.217	-65.093	-92.514	111.505	-59.917	-94.132	-87.817	-14.482	165.035	-89.889	-85.403	-82.604	-77.874	-56.559	-80.617	-8191	255	
3303.060	1	1	0	0	0.20572	0.29927	0.3815	0.24109	0.0813	0.026842	0.14851	0.1429	0.21536	0.19374	0.043158	0.22183	0.23733	0.15131	0.18367	0.045003	-2.2438	-2.6333	-2.4	-2.7562	-2.6188	-2.7458	-2.8854	-2.6375	-2.6479	-2.6917	-2.6729	-2.7479	-2.5	-2.5979	-2.6417	-2.5687	106.076	151.914	28.633	-52.457	75.976	248.258	249.570	83.081	-85.830	-44.004	-46.056	36.205	-84.426	174.366	54.071	163.536	0.00052646	0.00057007	4.597e-05	783.43	7.1674e-06	5.0068e-06	843.46	226.18	8.1301e-06	3.118e-06	277.24	87.778	68.912	29.664	7.9394e-06	41.658	0.00055351	0.00058205	0.00014411	695.35	6.1419e-06	6.154e-06	719.95	193.7	5.9692e-06	5.9313e-06	239.6	76.323	61.608	26.079	5.485e-06	36.338	-8.846	-42.606	211.322	-93.403	-40.644	98.580	-93.883	-87.888	14.130	-4.742	-89.724	-85.425	-82.687	-77.937	80.804	-80.544	-8191	255	
3303.178	1	1	0	0	0.12746	0.23643	0.17808	0.19517	0.15094	0.2293	0.48529	0.12818	0.1239	0.32224	0.1738	0.22511	0.23669	0.032285	0.29229	0.099664	-2.4125	-2.4896	-2.3125	-2.8	-2.5542	-2.5	-2.9938	-2.4062	-2.85	-2.7375	-2.4479	-2.9396	-2.5271	-2.5792	-2.8479	-2.5938	88.795	-63.080	34.425	182.727	228.743	-87.291	201.293	110.067	-88.330	-74.787	-84.611	-68.449	142.580	206.011	22.827	-11.707	0.00026589	0.0007423	0.00025501	788.22	4.3936e-06	1.0895e-05	839.91	222.77	6.1437e-06	1.2493e-05	273.04	84.92	68.106	28.878	6.4748e-06	40.445	0.00056735	0.00055427	0.00014202	699.18	6.5167e-06	5.8712e-06	720.38	192.59	6.1791e-06	5.5891e-06	234.36	74.228	59.83	25.378	4.9332e-06	35.231	3.399	-21.748	28.209	-93.855	209.294	53.329	-94.188	-87.750	-35.733	130.172	-89.748	-85.633	-83.270	-77.593	-12.225	-80.755	-8191	255	
3303.275	1	1	0	0	0.16323	0.078683	0.11006	0.2873	0.22908	0.28582	0.14481	0.10001	0.13543	0.31091	0.053645	0.24136	0.047162	0.18492	0.04166	0.029078	-2.4062	-2.7521	-2.425	-2.675	-2.4667	-2.7042	-2.8667	-2.2104	-2.5812	-2.5729	-2.2771	-2.7771	-2.625	-2.4437	-2.8833	-2.4104	148.607	0.488	74.393	-16.987	224.512	-39.479	-68.521	166.941	127.917	113.766	43.410	136.020	88.292	-62.222	188.722	-68.833	0.00042618	0.00076813	5.6676e-05	786.95	7.8936e-06	8.9945e-06	839.18	223.74	7.462e-06	4.5675e-06	270.53	84.978	68.217	29.044	8.1354e-06	40.765	0.0005442	0.00049505	0.00012858	697.73	6.1257e-06	5.6e-06	715.37	192.74	6.204e-06	5.567e-06	233.65	74.629	59.95	25.486	4.9651e-06	35.641	-54.691	0.656	123.232	-93.598	28.362	-53.263	-94.067	-87.878	226.475	-62.095	-89.796	-85.799	-82.771	-78.277	2.404	-81.044	-8191	255	
3303.371	1	1	0	0	0.17752	0.073021	0.044977	0.23533	0.11226	0.28333	0.18056	0.15567	0.15208	0.24307	0.20197	0.37547	0.077563	0.027588	0.033316	0.17987	-2.2458	-2.6521	-2.4333	-2.6917	-2.6542	-2.3438	-2.7979	-2.4188	-2.5833	-2.9583	-2.5021	-2.6979	-2.6396	-2.3521	-2.7521	-2.5958	58.019	-28.265	201.265	-76.738	-67.403	92.535	-3.824	207.697	26.691	43.442	220.165	162.803	-65.294	239.011	205.268	-19.838	0.00040313	0.00013962	0.00015809	775.45	4.0704e-06	2.2482e-06	840.51	222.91	5.771e-06	1.1293e-05	273.47	86.122	68.056	28.968	5.5417e-06	41.11	0.00052671	0.00047543	0.00012306	694.88	5.5488e-06	4.9851e-06	717.5	192.15	5.5514e-06	5.0103e-06	235.82	75.369	59.754	25.481	4.968e-06	36.061	13.605	-43.361	-6.665	-92.704	12.526	3.464	-93.974	-87.465	-48.137	7.259	-89.461	-85.143	-82.739	-77.684	253.703	-80.520	-8191	255	
3303.491	1	1	0	0	0.25441	0.065636	0.21022	0.20382	0.13593	0.12817	0.16197	0.17764	0.20164	0.10772	0.35363	0.13285	0.056174	0.18713	0.19394	0.1071	-2.0938	-2.5563	-2.3792	-2.6417	-2.6917	-2.5604	-3.0062	-2.6167	-2.6083	-2.7021	-2.5583	-2.6875	-2.6208	-2.5646	-2.8063	-2.6292	123.841	-23.798	180.611	155.075	155.501	198.896	166.327	252.902	162.839	55.629	-80.800	-54.920	-93.522	217.312	27.891	37.277	8.3129e-05	0.00011317	0.0001353	778.84	1.5152e-06	9.4806e-06	848.06	223.55	1.9488e-06	6.1984e-06	271.44	85.489	67.015	28.896	9.7234e-06	40.653	0.00049165	0.00045452	0.00012721	701.77	5.2963e-06	4.8416e-06	725.28	192.43	5.2715e-06	4.8555e-06	236.05	75.004	58.922	25.245	5.0518e-06	35.587	39.158	67.361	-54.924	-93.178	101.612	48.616	-94.119	-87.446	-13.764	-42.312	-89.704	-84.781	-83.238	-77.443	103.701	-80.255	-8191	255	
3303.587	1	1	0	0	0.023995	0.16721	0.17276	0.15296	0.30963	0.15113	0.27737	0.13137	0.21306	0.21928	0.30084	0.16347	0.098097	0.37873	0.15255	0.098409	-2.0708	-2.7292	-2.5521	-2.4625	-2.5125	-2.3292	-2.9479	-2.7021	-2.5687	-2.9042	-2.3729	-2.7042	-2.6542	-2.5375	-2.775	-2.6688	28.793	26.073	160.472	-99.304	135.385	108.064	252.266	46.173	183.173	76.521	115.276	134.921	166.016	-50.094	198.498	-83.305	0.00027329	0.00070898	7.5793e-05	783.58	6.1249e-06	9.1665e-07	846.56	220.37	9.0367e-06	1.0009e-05	269.64	83.877	65.885	28.19	3.3536e-06	40.775	0.00045363	0.00041681	0.00013088	692.76	4.7513e-06	4.4634e-06	718.11	189.56	4.6009e-06	4.3961e-06	232.11	72.971	57.61	24.681	5.0019e-06	35.093	-3.988	-12.911	-78.148	-92.327	73.045	-48.372	-94.160	-87.478	-75.219	80.013	-89.412	-85.724	-83.141	-77.371	87.319	-81.045	-8191	255	
3303.684	1	1	0	0	0.16127	0.2876	0.56404	0.17914	0.11321	0.080164	0.13732	0.34281	0.07294	0.24197	0.12726	0.20417	0.23785	0.2617	0.12214	0.25588	-2.1583	-2.8063	-2.4333	-2.6125	-2.6771	-2.3542	-2.675	-2.6229	-2.6	-2.9333	-2.5354	-2.6729	-2.8458	-2.3521	-2.8208	-2.7188	222.696	245.714	197.437	236.107	60.396	-95.556	89.270	184.184	170.670	-38.481	123.883	229.094	-46.243	192.361	96.113	1.167	0.00034944	0.0004131	0.00013221	767.18	5.6418e-06	1.1411e-05	845.09	221.13	3.9987e-06	1.2531e-05	270.84	84.906	66.616	28.76	4.1037e-06	40.943	0.00041864	0.00040801	0.00013285	685.23	4.4672e-06	4.3389e-06	718.42	188.9	4.4214e-06	4.3796e-06	232.89	73.169	57.78	25.018	5.233e-06	35.358	-52.855	20.804	30.397	-93.107	29.821	42.585	-94.147	-88.036	64.249	38.518	-89.481	-84.790	-82.620	-77.484	157.139	-80.432	-8191	255	
3303.780	1	1	0	0	0.14359	0.065176	0.072243	0.094918	0.069672	0.13706	0.12885	0.27969	0.17978	0.019746	0.019758	0.37891	0.12451	0.20956	0.049662	0.084918	-2.1708	-2.8187	-2.6125	-2.5583	-2.7938	-2.3625	-2.7687	-2.8812	-2.2875	-3.0333	-2.4104	-2.45	-2.875	-2.55	-2.7958	-2.7313	-92.169	178.221	91.968	17.526	25.832	-5.061	248.658	224.327	152.454	211.074	60.616	219.216	-98.867	142.371	252.578	152.988	0.0004216	0.00095734	8.1895e-05	779.38	7.8759e-06	3.0489e-06	851.87	220.31	5.5666e-06	9.58e-06	271	85.51	67.365	28.414	1.2693e-05	41.591	0.00040488	0.00042409	0.00013382	684.73	4.4638e-06	4.708e-06	724.57	188.91	4.2575e-06	4.6047e-06	233.7	73.734	58.155	25.053	4.892e-06	35.705	-19.658	-81.149	-2.768	-93.177	87.964	99.758	-94.145	-87.596	-67.288	124.758	-89.877	-84.979	-82.313	-77.328	17.529	-80.256	-8191	255	
3303.874	1	1	0	0	0.031082	0.17183	0.10982	0.03354	0.22419	0.099748	0.080673	0.40526	0.068151	0.12278	0.42889	0.068429	0.14939	0.16519	0.10716	0.25123	-2.0083	-2.85	-2.5146	-2.6521	-2.8146	-2.35	-2.8167	-2.8979	-2.4083	-2.7667	-2.6729	-2.4562	-2.6958	-2.6521	-2.7146	-2.7125	245.890	-82.279	90.185	-10.098	0.999	33.914	73.685	161.297	231.899	95.866	133.807	182.005	-86.282	244.871	-21.071	87.538	0.00050407	0.000255	0.00014194	785.14	1.1043e-05	4.401e-06	849.61	219.61	8.7671e-06	1.484e-06	271.01	83.765	65.514	28.578	5.1245e-06	40.489	0.0003845	0.00044277	0.00012643	685.16	4.1777e-06	4.9448e-06	721.47	187.91	4.1681e-06	4.8757e-06	231.96	72.198	56.969	24.835	4.7992e-06	34.824	-22.736	83.874	-20.798	-93.155	173.932	120.059	-93.850	-87.172	63.580	47.929	-90.205	-85.431	-82.711	-77.568	223.999	-81.252	-8191	255	
3303.970	1	1	0	0	0.087995	0.088911	0.18794	0.24838	0.086447	0.14632	0.26949	0.086366	0.17092	0.086455	0.16634	0.2495	0.38291	0.29704	0.088218	0.10161	-1.8708	-2.7375	-2.8146	-2.4562	-2.8812	-2.6	-2.7354	-2.8333	-2.4125	-3.025	-2.5521	-2.4375	-2.825	-2.6979	-2.6188	-2.7521	200.380	-44.541	84.602	225.399	-22.316	210.971	150.228	166.969	-74.830	225.176	73.234	130.203	204.866	189.580	-64.600	97.296	0.00010701	0.00059967	4.1624e-05	763.54	3.6264e-06	4.4531e-06	849.39	219.27	2.7401e-06	8.8912e-06	267.7	83.038	65.414	28.645	1.0115e-05	40.463	0.00039236	0.00046069	0.00011875	674.47	4.2596e-06	4.9907e-06	718.31	186.91	4.266e-06	4.7832e-06	229.84	71.864	56.98	24.887	4.3765e-06	34.796	-20.782	47.539	96.585	-93.046	11.554	-11.096	-94.315	-87.727	-9.996	29.154	-90.022	-85.066	-82.793	-77.255	83.454	-80.958	-8191	255	
3304.066	1	1	0	0	0.16673	0.18885	0.079678	0.25011	0.16624	0.25661	0.19313	0.22139	0.17594	0.060344	0.21526	0.09768	0.094603	0.083681	0.24163	0.38664	-2.2354	-2.7042	-2.5896	-2.5417	-2.9625	-2.4354	-2.625	-2.975	-2.4771	-2.6792	-2.8354	-2.5312	-2.8208	-2.7708	-2.3958	-2.8417	209.365	55.398	170.873	-91.890	159.687	62.599	201.652	-99.009	24.921	122.052	83.791	88.126	-30.061	154.158	172.352	233.632	0.00068831	0.00085774	6.4583e-05	775.22	8.8926e-06	2.6497e-06	849.44	221.7	1.9686e-06	4.4709e-06	271.14	84.41	66.431	28.88	2.2851e-06	40.741	0.00040636	0.00045922	0.00011412	675.11	4.5566e-06	4.9193e-06	721.68	187.77	4.8018e-06	4.9068e-06	232.18	73.018	57.84	25.101	4.4047e-06	35.217	30.385	-53.762	171.254	-92.836	8.462	72.815	-93.985	-87.413	-15.487	174.113	-89.776	-85.481	-82.592	-77.902	236.724	-80.727	-8191	255	
3304.187	1	1	0	0	0.14246	0.051007	0.11533	0.19483	0.35249	0.053444	0.34616	0.26307	0.32924	0.14922	0.18602	0.23532	0.082146	0.33697	0.13135	0.13999	-2.0917	-2.7667	-2.6437	-2.2938	-2.9125	-2.6646	-2.6813	-2.9208	-2.3625	-2.5896	-2.8667	-2.5563	-2.8979	-2.7812	-2.4208	-2.7542	187.061	128.299	-43.192	169.329	213.653	-7.378	210.915	143.492	205.655	180.040	103.735	-100.629	113.643	234.021	237.167	195.057	0.00026711	0.00082321	0.00019346	776.91	8.8904e-07	8.7924e-06	852.72	221.13	5.5585e-06	5.1404e-06	273.51	86.114	66.858	28.861	6.3765e-06	40.75	0.00042747	0.0004344	0.00010374	672.65	4.6992e-06	4.6073e-06	722.43	188.7	4.7329e-06	4.554e-06	234.02	73.836	58.2	25.095	4.0806e-06	35.341	-33.897	0.442	-54.405	-93.037	-79.494	-0.357	-94.116	-87.574	204.547	-11.060	-89.776	-85.361	-82.395	-77.586	-86.236	-80.551	-8191	255	
3304.283	1	1	0	0	0.20004	0.19776	0.085084	0.14553	0.017114	0.089799	0.2258	0.18601	0.083325	0.091026	0.16599	0.07378	0.16512	0.2368	0.22944	0.34738	-2.0521	-2.5896	-2.8208	-2.5854	-2.9062	-2.6458	-2.5146	-2.9437	-2.6271	-2.6646	-3.0167	-2.5292	-2.8833	-2.8146	-2.4479	-2.9792	77.806	126.995	191.834	154.991	242.183	153.168	191.189	-2.291	227.471	135.324	-55.161	228.937	243.385	-70.062	57.830	250.070	0.00064284	0.0006101	6.6161e-05	781.93	2.4925e-06	7.7784e-06	835.99	217.92	8.0454e-06	3.3418e-06	269.85	83.272	65.673	28.669	1.2878e-05	40.365	0.00042536	0.00040115	9.989e-05	673.57	4.7542e-06	4.1941e-06	712.41	187.4	4.7266e-06	4.3344e-06	230.26	72.294	57.564	24.799	3.8882e-06	34.877	10.688	-87.401	148.294	-92.854	89.596	-96.217	-94.478	-87.674	64.782	187.656	-89.842	-85.224	-82.693	-77.675	36.438	-80.645	-8191	255	
3304.355	1	1	0	0	0.10183	0.06227	0.25062	0.36221	0.16453	0.24295	0.18813	0.20362	0.11525	0.046917	0.084738	0.031233	0.19516	0.24097	0.096801	0.11927	-2.0792	-2.5646	-2.8542	-2.5104	-2.7313	-2.6625	-2.5625	-2.6854	-2.5104	-2.6	-2.85	-2.6437	-2.5854	-2.8167	-2.5396	-2.7583	34.076	193.968	-73.503	192.437	-7.934	103.785	-88.801	234.552	73.897	173.432	16.774	235.368	165.667	-52.213	-6.232	-90.059	0.00011119	0.00075421	0.00014676	762.71	5.1287e-06	5.5867e-06	844.81	220.24	6.0857e-06	1.1206e-05	270.1	85.871	66.924	29.011	4.5678e-06	40.921	0.00041422	0.00037191	9.6152e-05	674.17	4.5225e-06	4.1433e-06	718.43	188.92	4.5783e-06	4.1876e-06	230.89	73.396	58.177	24.996	3.9457e-06	35.389	-99.053	-46.396	219.963	-92.648	178.839	41.140	-94.153	-87.227	18.905	77.988	-89.923	-85.594	-82.746	-77.539	-8.758	-80.955	-8191	255	
3304.451	1	1	0	0	0.17185	0.019635	0.18918	0.17286	0.28646	0.038494	0.2278	0.21629	0.11216	0.078215	0.20409	0.23439	0.27286	0.17549	0.12013	0.14813	-2.3083	-2.4417	-2.8438	-2.5354	-2.7313	-2.8604	-2.3917	-2.8854	-2.5958	-2.4042	-2.8604	-2.5042	-2.7375	-2.7479	-2.2604	-2.925	166.367	197.586	14.954	-61.048	201.591	-32.939	60.381	-58.740	126.783	-48.452	248.629	-86.400	186.301	106.518	-23.450	207.369	0.00034484	0.00069694	0.00021434	776.68	4.1522e-06	6.1022e-06	851.68	220.99	1.0313e-05	3.729e-06	273.44	85.592	66.776	29.079	1.2023e-05	41.392	0.0004045	0.0003653	9.7856e-05	679.53	4.2485e-06	3.9579e-06	722.25	189.93	4.1502e-06	3.9302e-06	233.42	74.19	58.287	25.096	4.0408e-06	35.922	6.914	-31.153	-25.653	-93.303	75.079	-55.401	-93.841	-87.324	-1.957	4.921	-89.736	-85.273	-82.986	-77.700	-26.309	-80.621	-8191	255	
3304.572	1	1	0	0	0.19829	0.10249	0.040519	0.34893	0.068521	0.18285	0.31828	0.10007	0.18885	0.090546	0.072629	0.1549	0.16767	0.16818	0.21235	0.25124	-2.2979	-2.3063	-2.7708	-2.6833	-2.6854	-2.8979	-2.5438	-2.8229	-2.8396	-2.4646	-2.8333	-2.5458	-2.5729	-2.8312	-2.3417	-2.7771	-89.339	91.207	-51.925	205.595	193.171	126.493	188.974	253.532	-83.370	-80.682	106.049	214.936	17.670	31.500	230.969	137.328	0.00035815	6.8108e-05	0.00019409	789.96	5.3567e-06	3.8318e-06	853.88	222.78	5.5762e-06	6.4674e-06	271.2	85.6	66.78	28.601	3.9334e-06	40.446	0.00036935	0.00035476	0.00010513	688.3	4.222e-06	3.8743e-06	721.89	190.55	4.2174e-06	3.9951e-06	232.78	73.536	57.813	24.79	4.3954e-06	35.028	-13.996	100.324	-32.104	-92.570	104.265	32.102	-94.262	-87.949	-43.549	4.597	-89.754	-85.140	-82.945	-78.169	246.416	-80.835	-8191	255	
#DATA ENDS
