BOXY.EXE: ISS Imagent and Oximeter Data Acquisition Program Version 0.80
Ascii Record File

#ACQ INFORMATION
2  Detector Channels 
16  External MUX Channels 
1  Auxiliary Channels 
5000  Waveform (CCF) Frequency (Hz)
1  Waveforms Skipped 
30  Waveforms Averaged 
1  Cycles Averaged 
16  Acquisitions per Waveform 
10.0806  Updata Rate (Hz) 

#FILE INFORMATION
TRUE -- External MUX Channel results are PARSED.
FALSE -- AC DC and Phase are NOT grouped.
TRUE -- Companion Program Settings File CREATED.
FALSE -- AC data not excluded
FALSE -- DC data not excluded
FALSE -- Phase data not excluded
FALSE -- Auxillary Chn. data not excluded
Tab delimiters

#CALIBRATION STATE
TRUE -- Waveform Calibration Values APPLIED.


#AUX CALIBRATION VALUES
Val Type	aux-1	

Term	1.0000e+00	
Factor	0.0000e+00	


#WF CALIBRATION VALUES
A = Detector Channel
Val Type	A-AC1	A-AC2	A-AC3	A-AC4	A-AC5	A-AC6	A-AC7	A-AC8	A-AC9	A-AC10	A-AC11	A-AC12	A-AC13	A-AC14	A-AC15	A-AC16	A-DC1	A-DC2	A-DC3	A-DC4	A-DC5	A-DC6	A-DC7	A-DC8	A-DC9	A-DC10	A-DC11	A-DC12	A-DC13	A-DC14	A-DC15	A-DC16	A-Ph1	A-Ph2	A-Ph3	A-Ph4	A-Ph5	A-Ph6	A-Ph7	A-Ph8	A-Ph9	A-Ph10	A-Ph11	A-Ph12	A-Ph13	A-Ph14	A-Ph15	A-Ph16	

Term	0.00000e+00	0.00000e+00	0.00000e+00	0.00000e+00	0.00000e+00	0.00000e+00	0.00000e+00	0.00000e+00	0.00000e+00	0.00000e+00	0.00000e+00	0.00000e+00	0.00000e+00	0.00000e+00	0.00000e+00	0.00000e+00	0.00000e+00	0.00000e+00	0.00000e+00	0.00000e+00	0.00000e+00	0.00000e+00	0.00000e+00	0.00000e+00	0.00000e+00	0.00000e+00	0.00000e+00	0.00000e+00	0.00000e+00	0.00000e+00	0.00000e+00	0.00000e+00	0.00000e+00	0.00000e+00	0.00000e+00	0.00000e+00	0.00000e+00	0.00000e+00	0.00000e+00	0.00000e+00	0.00000e+00	0.00000e+00	0.00000e+00	0.00000e+00	0.00000e+00	0.00000e+00	0.00000e+00	0.00000e+00	
Factor	1.00000e+00	1.00000e+00	1.00000e+00	1.00000e+00	1.00000e+00	1.00000e+00	1.00000e+00	1.00000e+00	1.00000e+00	1.00000e+00	1.00000e+00	1.00000e+00	1.00000e+00	1.00000e+00	1.00000e+00	1.00000e+00	1.00000e+00	1.00000e+00	1.00000e+00	1.00000e+00	1.00000e+00	1.00000e+00	1.00000e+00	1.00000e+00	1.00000e+00	1.00000e+00	1.00000e+00	1.00000e+00	1.00000e+00	1.00000e+00	1.00000e+00	1.00000e+00	X	X	X	X	X	X	X	X	X	X	X	X	X	X	X	X	

B = Detector Channel
Val Type	B-AC1	B-AC2	B-AC3	B-AC4	B-AC5	B-AC6	B-AC7	B-AC8	B-AC9	B-AC10	B-AC11	B-AC12	B-AC13	B-AC14	B-AC15	B-AC16	B-DC1	B-DC2	B-DC3	B-DC4	B-DC5	B-DC6	B-DC7	B-DC8	B-DC9	B-DC10	B-DC11	B-DC12	B-DC13	B-DC14	B-DC15	B-DC16	B-Ph1	B-Ph2	B-Ph3	B-Ph4	B-Ph5	B-Ph6	B-Ph7	B-Ph8	B-Ph9	B-Ph10	B-Ph11	B-Ph12	B-Ph13	B-Ph14	B-Ph15	B-Ph16	

Term	0.00000e+00	0.00000e+00	0.00000e+00	0.00000e+00	0.00000e+00	0.00000e+00	0.00000e+00	0.00000e+00	0.00000e+00	0.00000e+00	0.00000e+00	0.00000e+00	0.00000e+00	0.00000e+00	0.00000e+00	0.00000e+00	0.00000e+00	0.00000e+00	0.00000e+00	0.00000e+00	0.00000e+00	0.00000e+00	0.00000e+00	0.00000e+00	0.00000e+00	0.00000e+00	0.00000e+00	0.00000e+00	0.00000e+00	0.00000e+00	0.00000e+00	0.00000e+00	2.53724e+01	-1.25825e+02	-1.32423e+02	-1.86157e+02	-5.31231e+01	-7.74207e+01	-1.59021e+02	-1.62015e+02	-9.81342e+01	-6.42266e+01	-1.73719e+02	-1.69925e+02	-1.79918e+02	-1.77120e+02	-6.73402e+01	-1.50188e+02	
Factor	4.43643e-05	1.31752e-04	3.84766e-05	6.00296e-01	1.09162e-06	1.23883e-06	1.58776e-01	4.81384e-02	1.60025e-06	1.38813e-06	8.39062e-02	2.75674e-02	2.39658e-02	9.07276e-03	1.49700e-06	1.30833e-02	1.61200e-06	1.67637e-06	4.65165e-07	2.83808e-01	1.83225e-08	1.83332e-08	7.47258e-02	2.41391e-02	1.82575e-08	1.83873e-08	4.04860e-02	1.32768e-02	1.20086e-02	4.53932e-03	1.82600e-08	6.30792e-03	X	X	X	X	X	X	X	X	X	X	X	X	X	X	X	X	



#DISTANCE SETTINGS
A = Detector Channel
A-1	A-2	A-3	A-4	A-5	A-6	A-7	A-8	A-9	A-10	A-11	A-12	A-13	A-14	A-15	A-16	

2.5000e+00	3.0000e+00	2.5000e+00	3.0000e+00	2.0000e+00	3.0000e+00	1.5000e+00	3.0000e+00	3.0000e+00	3.0000e+00	3.0000e+00	3.0000e+00	3.0000e+00	3.0000e+00	1.5000e+00	3.0000e+00	

B = Detector Channel
B-1	B-2	B-3	B-4	B-5	B-6	B-7	B-8	B-9	B-10	B-11	B-12	B-13	B-14	B-15	B-16	

1.0000e+01	1.0000e+01	1.0000e+01	1.4400e+00	1.0000e+01	1.0000e+01	1.5100e+00	1.9400e+00	1.0000e+01	1.0000e+01	1.9900e+00	2.4900e+00	2.4100e+00	2.9000e+00	1.0000e+01	2.9800e+00	




#DATA BEGINS
time	group	step	mark	flag	A-AC1	A-AC2	A-AC3	A-AC4	A-AC5	A-AC6	A-AC7	A-AC8	A-AC9	A-AC10	A-AC11	A-AC12	A-AC13	A-AC14	A-AC15	A-AC16	A-DC1	A-DC2	A-DC3	A-DC4	A-DC5	A-DC6	A-DC7	A-DC8	A-DC9	A-DC10	A-DC11	A-DC12	A-DC13	A-DC14	A-DC15	A-DC16	A-Ph1	A-Ph2	A-Ph3	A-Ph4	A-Ph5	A-Ph6	A-Ph7	A-Ph8	A-Ph9	A-Ph10	A-Ph11	A-Ph12	A-Ph13	A-Ph14	A-Ph15	A-Ph16	B-AC1	B-AC2	B-AC3	B-AC4	B-AC5	B-AC6	B-AC7	B-AC8	B-AC9	B-AC10	B-AC11	B-AC12	B-AC13	B-AC14	B-AC15	B-AC16	B-DC1	B-DC2	B-DC3	B-DC4	B-DC5	B-DC6	B-DC7	B-DC8	B-DC9	B-DC10	B-DC11	B-DC12	B-DC13	B-DC14	B-DC15	B-DC16	B-Ph1	B-Ph2	B-Ph3	B-Ph4	B-Ph5	B-Ph6	B-Ph7	B-Ph8	B-Ph9	B-Ph10	B-Ph11	B-Ph12	B-Ph13	B-Ph14	B-Ph15	B-Ph16	aux-1	digaux	

1504.954	1	1	0	256	0.076565	0.27767	0.06367	0.20077	0.19309	0.12696	0.17345	0.011083	0.1019	0.056623	0.08096	0.21874	0.35478	0.12076	0.066373	0.17335	-2.3354	-2.5792	-2.8771	-2.7042	-2.7208	-2.8625	-2.6562	-3.025	-2.8896	-2.65	-3.1	-2.6125	-2.9708	-3.0458	-2.6208	-2.9021	-51.419	-89.959	-90.508	175.636	19.076	-10.925	194.816	82.185	103.266	-43.620	-47.992	46.161	-70.948	219.014	10.122	182.365	0.0001367	0.00050175	0.00030257	1153	9.0727e-06	1.6315e-06	1222.5	238.72	1.4338e-05	9.3686e-06	299.96	85.088	67.412	19.145	7.8408e-06	27.222	0.0012153	0.0011477	0.00029731	1269.7	1.3486e-05	1.2269e-05	1233.6	249.15	1.3289e-05	1.2514e-05	315.88	93.065	74.029	21.688	1.2268e-05	31.293	9.100	-68.279	-0.797	-86.545	122.680	12.002	-86.588	-79.504	90.765	-66.126	-79.746	-73.306	-72.705	-65.452	-18.599	-66.567	-8191	255	
1505.050	1	1	0	0	0.21178	0.35221	0.20767	0.19068	0.10106	0.16234	0.14774	0.14913	0.15541	0.18355	0.203	0.17419	0.15568	0.12171	0.15929	0.20285	-2.3375	-2.6375	-2.8375	-2.6729	-2.8688	-3.0687	-2.8021	-3	-2.7708	-2.4958	-2.8688	-2.7333	-2.6688	-2.8896	-2.4813	-2.7021	80.547	38.638	60.718	-36.664	-70.713	-84.661	205.757	132.967	67.091	105.393	-56.930	79.156	12.481	262.091	-48.406	209.155	0.00031831	0.00073734	0.00016634	1157.9	9.2081e-06	1.3373e-05	1231	238.16	9.387e-06	3.5561e-06	301.52	86.311	67.284	19.125	4.3008e-06	26.911	0.0011825	0.0011462	0.00031472	1285.2	1.339e-05	1.2262e-05	1242.7	251.13	1.2997e-05	1.258e-05	318.73	93.86	73.839	21.628	1.308e-05	31.244	48.494	-5.327	144.728	-86.381	65.773	62.398	-86.714	-79.580	48.634	214.411	-79.517	-73.016	-72.849	-66.113	232.257	-66.204	-8191	255	
1505.146	1	1	0	0	0.26111	0.089389	0.17327	0.32145	0.22825	0.10132	0.35844	0.31996	0.090631	0.13141	0.04574	0.31882	0.25521	0.15165	0.29233	0.22057	-2.3021	-2.5208	-2.7771	-2.4792	-2.5354	-2.9813	-2.7479	-2.8521	-2.8708	-2.3812	-2.9271	-2.7854	-2.6479	-2.9104	-2.3083	-2.6979	-18.755	136.395	8.560	-62.520	199.497	149.672	200.609	186.007	162.224	182.354	3.946	251.507	193.876	-69.573	59.926	209.107	0.0003003	0.00038409	0.00014762	1157.3	3.0714e-06	6.02e-06	1223.8	238.75	6.5684e-06	5.4953e-06	298.34	85.681	67.222	18.979	6.475e-07	27.113	0.0011303	0.0011088	0.0003298	1279.2	1.2598e-05	1.1672e-05	1240.8	250.15	1.2092e-05	1.1742e-05	317.85	92.817	73.061	21.423	1.2801e-05	30.773	236.252	-7.372	111.041	-86.915	122.325	152.269	-86.439	-79.444	-85.893	-20.626	-79.867	-73.203	-72.703	-65.903	58.266	-66.304	-8191	255	
1505.242	1	1	0	0	0.047725	0.1836	0.17215	0.33106	0.16375	0.039189	0.26527	0.27551	0.1433	0.063664	0.15086	0.44131	0.21397	0.1987	0.20191	0.17173	-2.4813	-2.4688	-2.9125	-2.8167	-2.525	-2.8646	-2.6417	-2.7229	-2.8812	-2.3729	-2.9542	-2.9125	-2.6354	-3.0458	-2.5729	-2.6542	250.718	121.487	237.969	-59.097	183.694	123.566	232.847	214.031	56.983	211.111	-83.286	222.073	-67.466	84.034	0.612	-20.626	0.00037663	0.0010133	0.00019725	1156.7	9.4586e-06	3.3544e-06	1222.5	237.85	4.3554e-06	2.9389e-06	299.94	85.702	67.453	19.099	9.6723e-06	26.895	0.0010297	0.0010422	0.00032273	1250.7	1.1623e-05	1.0998e-05	1235.6	247.72	1.1192e-05	1.1422e-05	317.84	92.111	72.682	21.465	1.3133e-05	30.557	-4.028	251.158	165.844	-86.283	29.212	-5.375	-86.437	-79.408	79.213	12.241	-79.971	-73.319	-72.891	-65.920	103.742	-66.541	-8191	255	
1505.339	1	1	0	0	0.08625	0.17603	0.20007	0.1808	0.13156	0.21627	0.29236	0.2828	0.13644	0.22521	0.17934	0.083917	0.32612	0.25616	0.08899	0.28417	-2.5792	-2.3833	-2.7938	-2.7667	-2.6688	-3.1688	-2.825	-2.8187	-2.925	-2.5833	-3	-2.9083	-2.5062	-2.9646	-2.6646	-2.6333	49.919	252.507	2.152	-60.532	-75.753	184.375	-91.658	228.001	-91.215	67.181	-87.521	179.908	191.008	223.167	4.176	135.635	0.00042666	0.00071023	8.5562e-05	1155.7	7.0066e-06	3.8905e-06	1220	237.77	1.0656e-05	1.1174e-06	299.73	84.836	66.76	18.843	8.528e-06	26.832	0.0010005	0.0010795	0.00033281	1242.4	1.1237e-05	1.1659e-05	1233	246.53	1.0637e-05	1.1791e-05	315.53	91.019	71.804	21.304	1.1948e-05	29.936	-3.029	148.310	66.227	-86.833	21.570	63.340	-86.397	-79.493	-90.708	242.471	-79.754	-73.202	-72.954	-65.994	-3.273	-66.107	-8191	255	
1505.435	1	1	0	0	0.13335	0.20791	0.30943	0.08741	0.11862	0.077342	0.38016	0.12123	0.062949	0.21651	0.20872	0.12181	0.090927	0.051716	0.30073	0.2015	-2.5	-2.5687	-2.8458	-3.075	-2.3917	-2.9854	-2.8792	-2.7583	-3.025	-2.65	-2.8854	-2.9938	-2.5375	-3.0833	-2.6562	-2.5542	27.828	202.612	8.487	-40.699	-25.374	253.036	231.548	233.029	171.091	-60.626	195.826	198.170	225.112	92.398	155.795	-25.805	0.00048204	0.00059333	0.00021847	1145.4	3.8047e-06	3.6378e-06	1205.1	235.7	3.4704e-06	5.6003e-06	295.98	84.872	66.628	18.89	9.2816e-07	26.736	0.0009097	0.001061	0.0002997	1211.5	1.0278e-05	1.1563e-05	1213.8	243.18	1.0153e-05	1.191e-05	312.17	90.229	71.42	21.413	1.1476e-05	29.893	15.086	179.570	12.379	-86.245	70.593	241.788	-86.498	-79.383	132.085	73.843	-79.463	-73.401	-72.963	-65.847	41.217	-65.659	-8191	255	
1505.555	1	1	0	0	0.22468	0.055304	0.039945	0.15455	0.1293	0.14486	0.25105	0.17431	0.23531	0.33806	0.26269	0.12507	0.28267	0.22291	0.27585	0.17369	-2.3979	-2.8146	-2.6937	-2.8458	-2.5083	-2.8854	-2.9958	-2.4646	-3.0333	-2.6	-2.8	-2.9625	-2.4354	-2.8521	-2.8604	-2.5854	-67.531	175.380	169.254	92.838	60.689	191.127	83.850	-58.979	-70.467	214.005	241.399	-81.031	214.314	-91.942	78.716	194.875	0.00027544	0.0004366	0.00024844	1135.6	4.4191e-06	5.1401e-06	1206.2	235.82	5.7243e-06	3.6707e-06	298.19	85.145	66.577	19.105	1.1708e-05	27.032	0.00094698	0.0011233	0.00029613	1211.8	1.1189e-05	1.2607e-05	1215	243.95	1.1291e-05	1.2827e-05	313.16	90.368	72.265	21.791	1.156e-05	30.067	-43.267	212.408	-19.546	-86.396	60.909	-71.315	-86.357	-79.489	178.503	230.543	-79.758	-73.456	-72.889	-65.646	-24.574	-66.307	-8191	255	
1505.651	1	1	0	0	0.11112	0.29301	0.17832	0.21874	0.10811	0.23789	0.13833	0.22075	0.22425	0.26233	0.35973	0.33868	0.22151	0.21735	0.02882	0.27209	-2.6021	-2.5104	-2.7021	-3.0583	-2.6562	-2.775	-2.9958	-2.35	-3.0646	-2.8354	-2.5792	-3.0354	-2.7938	-2.9208	-2.7479	-2.4375	5.397	134.763	35.677	260.167	207.118	89.304	240.014	228.954	227.854	-43.068	97.933	261.078	151.627	249.809	-59.682	140.748	0.00053281	0.00075475	8.2903e-05	1141.9	9.1831e-06	2.2252e-06	1210.1	235.58	6.9722e-06	8.6805e-06	298.87	84.927	66.492	19.121	5.1886e-06	27.023	0.0010562	0.0011706	0.00029866	1219.8	1.2284e-05	1.2863e-05	1222.1	244.52	1.2224e-05	1.2576e-05	313.14	90.668	72.918	21.623	1.1084e-05	29.963	-70.146	247.842	-12.633	-86.321	217.313	-34.334	-86.658	-79.670	144.565	-17.303	-79.581	-73.332	-72.576	-65.821	-13.358	-66.448	-8191	255	
1505.748	1	1	0	0	0.082452	0.2796	0.1087	0.13606	0.098535	0.063054	0.26391	0.34061	0.24399	0.13771	0.071619	0.070338	0.14551	0.20695	0.17837	0.10881	-2.5083	-2.725	-2.5229	-2.8937	-2.6917	-2.7042	-2.95	-2.4646	-2.8708	-2.7083	-2.6542	-2.9896	-2.4646	-2.7042	-2.8625	-2.8104	188.194	-78.774	-2.000	240.865	-77.136	127.887	195.384	221.621	-61.801	-50.367	82.015	126.704	200.647	-52.276	219.320	239.855	0.00057068	0.0014034	8.9837e-05	1146.9	4.9406e-06	4.2674e-06	1209.4	235.53	6.9517e-06	4.8868e-06	298.07	84.894	66.431	19.071	1.0459e-05	27.096	0.00109	0.0010936	0.00028267	1215	1.2317e-05	1.1875e-05	1217.1	244.14	1.2257e-05	1.1582e-05	311.59	90.565	72.84	21.402	1.0444e-05	30.108	-49.287	-7.495	-44.177	-86.236	-92.479	97.363	-86.592	-79.537	-57.329	21.538	-79.939	-73.330	-72.729	-65.771	67.465	-66.305	-8191	255	
1505.844	1	1	0	0	0.12507	0.17523	0.10499	0.14994	0.084984	0.17183	0.27117	0.16582	0.092862	0.026951	0.20543	0.24289	0.13722	0.21282	0.12953	0.15249	-2.4729	-2.6875	-2.4396	-3.0625	-2.7021	-2.7271	-3.1521	-2.5521	-2.8187	-2.65	-2.5146	-2.7438	-2.6833	-2.7167	-2.9083	-2.4896	-16.160	40.847	-70.512	237.075	170.055	255.452	243.107	-71.158	-89.971	128.229	230.649	-89.289	-75.335	-84.711	39.361	137.209	0.00037739	0.0011579	0.00024017	1149.8	8.9998e-06	2.8498e-06	1212.4	235.88	2.5779e-06	6.1217e-06	298	84.864	66.463	19.226	4.2439e-06	26.892	0.0010921	0.0010163	0.00026994	1223.6	1.2079e-05	1.1127e-05	1217.5	244.67	1.1872e-05	1.0719e-05	309.87	90.782	72.27	21.23	9.8472e-06	30.029	-36.571	26.184	-18.908	-86.586	88.211	-59.701	-86.139	-79.515	39.785	80.783	-79.598	-73.020	-72.342	-66.079	64.099	-66.315	-8191	255	
1505.940	1	1	0	0	0.33605	0.28935	0.11581	0.18483	0.15199	0.12816	0.27329	0.16294	0.077476	0.15748	0.32071	0.10268	0.16744	0.20943	0.094206	0.10815	-2.3458	-2.9021	-2.3833	-2.9521	-2.8187	-2.6	-3.2771	-2.6396	-2.6979	-3.0146	-2.6625	-2.8688	-2.8375	-2.475	-2.9771	-2.6312	101.192	161.408	23.346	204.758	106.991	75.044	174.007	141.277	-54.514	153.515	-60.521	241.375	-60.876	203.643	127.986	64.692	0.0002052	0.00058397	0.00022054	1138.1	5.4608e-06	4.2461e-06	1205.7	234.95	6.1253e-06	3.4987e-06	296.44	84.466	66.578	18.842	4.1886e-06	26.759	0.0010121	0.00094538	0.0002527	1220.7	1.1187e-05	1.0335e-05	1206.9	243.68	1.1078e-05	1.001e-05	307.18	90.451	71.332	20.89	9.5657e-06	29.955	47.360	-36.949	54.800	-86.875	80.431	90.727	-86.414	-79.110	-53.073	105.046	-79.316	-73.031	-72.467	-65.822	66.826	-66.488	-8191	255	
1506.034	1	1	0	0	0.17213	0.11779	0.10076	0.16034	0.18873	0.24036	0.14052	0.084559	0.11888	0.12875	0.088528	0.16863	0.091591	0.27212	0.045131	0.20172	-2.3896	-2.8063	-2.5833	-2.8854	-2.8396	-2.5062	-2.9604	-2.6521	-2.6417	-3.0333	-2.7083	-2.8771	-2.7521	-2.6063	-2.9146	-2.6667	102.881	-70.334	48.116	259.799	146.547	7.144	-70.255	148.036	107.013	252.359	172.669	-17.328	-70.793	-32.497	208.372	-75.037	0.00012404	0.00031903	0.00025016	1129.6	2.3913e-06	4.6059e-06	1197.1	233.83	3.709e-06	5.6254e-06	294.84	84.285	66.282	19.001	4.6713e-06	26.749	0.00093037	0.00087582	0.00025057	1210.6	1.0267e-05	9.7995e-06	1200.3	242.42	1.0262e-05	9.5828e-06	307.75	90.458	70.774	20.834	1.0178e-05	29.915	196.834	13.594	90.304	-86.090	36.208	51.806	-86.571	-79.352	-2.346	-8.443	-79.626	-73.432	-72.607	-65.963	107.602	-66.188	-8191	255	
1506.132	1	1	0	0	0.083968	0.049025	0.14007	0.071841	0.1257	0.35723	0.22473	0.251	0.24657	0.12	0.33865	0.029693	0.36077	0.28474	0.14944	0.055945	-2.15	-2.8917	-2.4354	-2.8521	-2.8917	-2.725	-3.3625	-2.7333	-2.6792	-2.825	-2.7812	-2.8458	-2.8542	-2.3958	-2.8875	-2.7417	155.595	247.086	-80.586	9.648	-79.222	117.852	168.090	228.724	80.621	249.813	-77.071	117.443	22.735	-76.797	123.800	100.658	0.00010423	0.00099318	8.8723e-05	1128.9	1.2735e-06	5.7092e-06	1196.6	234.09	5.1888e-06	4.725e-06	295.61	84.172	65.985	18.852	3.2385e-06	26.97	0.00091353	0.00087404	0.00026747	1213	1.0026e-05	9.7442e-06	1202.1	242.42	1.0156e-05	9.455e-06	309.08	90.265	70.736	20.805	1.0883e-05	29.909	233.901	25.513	129.817	-86.275	189.560	32.844	-86.364	-79.448	32.641	261.243	-79.601	-72.724	-72.755	-66.050	31.206	-66.049	-8191	255	
1506.251	1	1	0	0	0.14956	0.1075	0.22934	0.21165	0.29358	0.058169	0.27556	0.21361	0.029823	0.14976	0.2263	0.25229	0.15984	0.22983	0.095749	0.1115	-2.0938	-2.9458	-2.3688	-2.6979	-2.9104	-2.3479	-2.9938	-2.9042	-2.6	-2.9146	-2.8083	-2.6937	-3.0021	-2.4375	-2.9021	-2.8354	166.778	186.025	-80.534	-84.966	100.731	107.860	187.208	213.689	155.828	29.507	-45.602	52.850	156.470	218.729	-37.905	110.528	7.1685e-05	0.00030351	0.00024871	1127.5	3.1968e-06	8.4605e-06	1197.1	234.05	7.3513e-06	7.598e-06	295.16	84.558	66.242	19.021	1.6859e-06	27.052	0.00089359	0.00087603	0.00028234	1205.7	9.8596e-06	9.8643e-06	1204.7	241.95	1.0059e-05	9.9105e-06	310.11	90.073	70.653	21.044	1.159e-05	29.748	174.574	150.388	156.675	-86.396	4.216	174.136	-86.364	-79.196	257.379	0.317	-79.723	-72.695	-72.951	-65.826	32.099	-66.578	-8191	255	
1506.347	1	1	0	0	0.20277	0.2656	0.23139	0.21832	0.23714	0.060789	0.28001	0.097883	0.2818	0.071059	0.099172	0.072056	0.18793	0.095145	0.039154	0.15657	-2.0917	-2.9958	-2.6958	-2.5375	-2.9833	-2.5646	-2.8812	-2.775	-2.3479	-2.9125	-2.7646	-2.6917	-3.0146	-2.6292	-2.6854	-2.8958	90.548	157.046	36.704	23.823	-48.284	-23.332	217.110	-39.787	242.993	31.626	240.602	-0.465	228.439	251.994	222.377	-73.105	0.00027775	0.00043877	0.00020598	1128.8	6.3817e-06	7.176e-06	1193.7	234.44	3.3085e-06	3.6812e-06	295.72	84.613	66.067	18.827	6.6676e-06	26.683	0.00091153	0.00095694	0.00029972	1206.8	1.0127e-05	1.0958e-05	1207.9	241.96	1.0276e-05	1.1082e-05	311.21	90.101	70.614	21.215	1.1762e-05	29.742	-68.432	-11.015	-67.214	-86.597	47.119	245.168	-86.528	-79.349	193.323	196.734	-79.588	-72.762	-72.742	-65.651	-77.737	-66.164	-8191	255	
1506.443	1	1	0	0	0.16334	0.087707	0.19871	0.39524	0.098372	0.14158	0.20516	0.10766	0.19521	0.20938	0.12652	0.2903	0.37425	0.21056	0.18733	0.23372	-2.0646	-3.0438	-2.6562	-2.6604	-2.9708	-2.6188	-2.8771	-3.0792	-2.3417	-2.9458	-2.8083	-2.5458	-2.9917	-2.5812	-2.675	-3.0604	44.918	251.036	-32.840	252.081	98.193	141.295	187.888	203.317	218.039	-63.310	-82.308	-79.230	-94.239	-30.867	-27.496	230.088	0.00016121	0.00064743	0.00025618	1133.7	3.1636e-06	1.6469e-06	1195.9	234.28	5.8528e-06	9.4671e-06	296.11	84.432	65.999	18.857	6.0532e-06	26.626	0.00091217	0.0010473	0.00029448	1205.3	1.0096e-05	1.1727e-05	1206	241.55	1.0424e-05	1.1857e-05	310.06	89.689	70.846	21.245	1.1491e-05	29.538	-2.246	146.475	-61.459	-86.351	216.850	96.986	-86.333	-79.368	116.399	-82.134	-79.869	-73.062	-72.968	-65.826	20.427	-65.995	-8191	255	
1506.540	1	1	0	0	0.2521	0.14537	0.14403	0.045053	0.02566	0.15781	0.30486	0.10747	0.16469	0.35823	0.17318	0.19997	0.21564	0.20696	0.23395	0.068888	-2.0875	-2.9917	-2.7979	-2.6542	-2.9146	-2.7333	-2.9167	-3.0563	-2.4729	-2.8417	-2.9875	-2.6625	-3.0792	-2.6813	-2.6937	-3.0104	41.404	-63.861	196.051	-39.802	83.902	147.949	194.089	-71.671	85.707	166.263	250.309	234.206	-12.559	-14.588	41.623	125.645	0.00042619	6.4844e-05	0.00011648	1132.8	5.3904e-06	4.823e-06	1188	233.06	8.4412e-06	7.3753e-06	293.87	84.001	65.555	18.662	6.0069e-06	26.745	0.00096173	0.0011066	0.00028567	1200.9	1.066e-05	1.2066e-05	1201.4	240.65	1.0819e-05	1.1947e-05	307.41	88.767	70.632	21.103	1.0816e-05	29.311	-13.184	98.846	-94.204	-86.016	147.987	18.002	-86.368	-79.573	-83.272	104.247	-79.845	-72.835	-72.806	-65.873	7.616	-66.771	-8191	255	
1506.636	1	1	0	0	0.20118	0.0944	0.053597	0.43175	0.24869	0.12257	0.12227	0.12522	0.23208	0.17446	0.28159	0.19128	0.18455	0.23855	0.28926	0.11469	-2.2062	-2.6229	-2.9854	-2.625	-2.8438	-2.7313	-2.9938	-3.1542	-2.5417	-2.7458	-3.0125	-2.4375	-3.1375	-2.7854	-2.6	-3.1146	5.620	258.143	117.017	-70.867	19.907	169.188	198.220	216.457	209.889	133.010	206.496	249.816	-93.629	-10.562	-96.655	120.822	0.00057204	0.0013714	6.4231e-05	1128.3	3.5412e-06	3.4455e-06	1185	233.52	3.3606e-06	4.2587e-06	292.92	83.37	64.828	18.531	3.4508e-06	26.456	0.00099375	0.001086	0.0002724	1193.7	1.134e-05	1.1794e-05	1194.5	240.19	1.1639e-05	1.1912e-05	307.06	88.778	71.058	20.992	1.1111e-05	29.417	-38.423	-16.934	233.582	-86.263	173.017	8.284	-86.333	-79.535	162.897	40.428	-79.583	-73.316	-72.565	-66.030	127.901	-66.394	-8191	255	
1506.732	1	1	0	0	0.2152	0.35299	0.28406	0.2206	0.21114	0.31197	0.25564	0.16775	0.1171	0.26761	0.15104	0.14424	0.083978	0.28201	0.12433	0.28761	-2.275	-2.8333	-2.85	-2.5667	-2.8646	-2.9542	-2.775	-3.1021	-2.5979	-2.7271	-3.1479	-2.6792	-2.8458	-2.9417	-2.5625	-3	157.533	-51.832	112.045	123.010	55.611	105.699	-77.315	260.396	27.802	189.632	215.566	203.730	-78.040	7.729	228.864	174.882	0.00024306	0.00075674	0.00045049	1128.3	6.2195e-06	8.7637e-06	1186.8	231.85	3.031e-06	6.4239e-06	294.59	83.595	65.331	18.406	5.675e-06	26.408	0.0010921	0.0010918	0.00027789	1200.7	1.2402e-05	1.1919e-05	1196.9	240.31	1.265e-05	1.2097e-05	307.21	89.485	71.441	20.695	1.0263e-05	29.104	15.476	99.708	3.935	-86.809	179.217	111.070	-86.339	-79.261	85.547	3.172	-79.589	-73.090	-72.677	-65.605	104.298	-66.236	-8191	255	
1506.828	1	1	0	0	0.12511	0.17422	0.077681	0.13002	0.057342	0.062241	0.19127	0.16615	0.080145	0.08146	0.14504	0.14188	0.043897	0.21266	0.14618	0.13637	-2.2604	-2.725	-3	-2.4542	-2.8521	-2.6875	-2.6813	-2.9313	-2.6646	-2.7229	-3.0875	-2.6021	-2.8667	-2.8563	-2.6896	-2.9	-60.193	117.682	55.875	-14.755	161.535	29.672	190.109	152.889	226.643	87.117	-56.608	251.756	23.123	193.604	80.289	16.306	0.00050224	0.00093032	0.00014149	1096.1	5.5243e-06	3.5819e-06	1155.8	225.74	2.3659e-06	6.9899e-06	287.83	81.9	63.879	18.013	6.9523e-06	25.848	0.00095487	0.00086511	0.0002163	1144.9	9.9496e-06	8.9812e-06	1156.3	232.74	1.0223e-05	9.6897e-06	296.79	86.953	68.995	20.068	9.4324e-06	28.864	-53.322	-71.254	-39.758	-86.117	75.442	67.794	-86.589	-79.512	66.315	236.118	-79.501	-72.735	-72.559	-65.504	-42.196	-66.297	-8191	255	
1506.947	1	1	0	0	0.15743	0.1525	0.13726	0.10479	0.17478	0.15297	0.44604	0.1181	0.085026	0.11864	0.14707	0.15222	0.16275	0.19294	0.12659	0.24249	-2.2062	-2.5896	-2.8396	-2.6292	-2.7792	-2.9313	-2.7562	-3.1125	-2.8521	-2.5583	-3.1083	-2.6896	-2.6479	-2.9188	-2.6667	-2.8063	261.475	251.697	175.554	83.475	76.736	141.583	221.846	156.884	37.582	99.011	244.386	-68.811	133.419	-36.478	166.088	-67.762	0.00033458	0.00038688	0.00013882	1083.9	4.997e-06	7.5814e-06	1153.9	227.69	8.4831e-06	1.0441e-05	287.64	82.117	64.076	18.328	7.4802e-06	25.912	0.00093974	0.00090551	0.00023078	1165.5	1.0311e-05	9.343e-06	1160.2	234.53	9.9806e-06	9.3921e-06	297.52	87.323	68.705	20.016	9.1415e-06	28.971	-64.108	40.881	127.671	-86.318	168.313	67.178	-86.197	-79.463	-34.736	78.543	-79.691	-73.058	-72.858	-66.092	64.197	-65.845	-8191	255	
1507.043	1	1	0	0	0.24197	0.28865	0.074327	0.1405	0.11395	0.014876	0.24928	0.3141	0.21871	0.38433	0.29247	0.3239	0.12405	0.18511	0.11661	0.12087	-2.3896	-2.4354	-3.0583	-2.775	-2.675	-3.0646	-2.6146	-2.9875	-2.8063	-2.4938	-2.975	-2.7229	-2.7354	-3	-2.4875	-2.9896	-88.552	225.470	-64.134	207.619	-67.120	56.623	244.044	-86.031	239.651	157.669	-69.877	223.744	212.978	-70.308	166.133	193.442	0.0001724	0.00017472	6.2062e-05	1102	3.0246e-06	1.6785e-06	1172.5	228.47	1.5561e-06	7.3301e-06	290.42	82.391	65.109	18.281	4.2642e-06	25.976	0.00088127	0.00086197	0.00024119	1181.9	1.0174e-05	9.4674e-06	1175	236.34	9.9394e-06	9.4435e-06	301.21	87.571	68.736	19.89	9.3677e-06	28.854	34.643	218.206	95.394	-86.143	45.917	62.900	-86.295	-79.320	116.894	62.521	-79.454	-72.956	-72.373	-65.519	-14.134	-66.030	-8191	255	
1507.115	1	1	0	0	0.2187	0.1198	0.084237	0.12679	0.11603	0.070832	0.30041	0.18693	0.16388	0.095315	0.15141	0.23219	0.04937	0.26828	0.20586	0.24264	-2.4729	-2.5979	-2.9	-2.7042	-2.7667	-2.9917	-2.7375	-2.9	-2.8604	-2.5021	-3.1333	-2.6479	-2.625	-2.975	-2.7042	-2.7979	-79.679	221.570	123.992	230.076	134.410	148.097	223.081	-88.446	99.764	49.917	25.837	206.247	-47.959	228.074	217.460	252.457	0.00023577	0.00035768	0.00013466	1105.6	2.4223e-06	5.2135e-06	1170.5	228.1	3.1879e-06	2.1204e-06	290.58	82.349	64.67	18.291	4.0431e-06	26.324	0.00081556	0.00081308	0.00023977	1164.6	8.7149e-06	7.7325e-06	1168.3	233.37	7.3994e-06	7.1675e-06	296.88	85.666	67.025	19.341	6.8665e-06	27.679	5.041	57.260	-12.185	-86.144	-17.451	-57.662	-86.399	-79.566	43.585	-14.663	-79.583	-73.041	-72.900	-65.311	64.353	-66.221	-8191	255	
1507.213	1	1	0	0	0.1763	0.31832	0.2327	0.092819	0.063933	0.20667	0.23654	0.2644	0.15308	0.24078	0.10951	0.097492	0.15827	0.19006	0.20416	0.12349	-2.6583	-2.4292	-2.6958	-2.6813	-2.525	-3.1292	-2.8958	-2.9146	-2.9542	-2.4562	-2.9458	-2.8937	-2.6479	-2.9458	-2.5042	-2.7458	72.775	149.958	182.460	169.582	138.623	62.560	204.316	233.408	57.595	23.207	143.519	208.410	199.923	-47.224	-68.516	248.717	0.00017734	0.0006273	0.00011353	1104.2	1.8293e-06	2.2597e-06	1167.7	229.91	3.7156e-06	3.8898e-06	289.62	81.996	64.176	18.212	7.1186e-06	26.14	0.00049575	0.00048367	0.00014329	1091.9	4.6493e-06	4.2057e-06	1153.2	228.11	3.9053e-06	3.9898e-06	289.05	82.777	65.059	18.738	4.2398e-06	26.754	31.549	50.292	33.140	-86.193	1.839	202.170	-86.238	-79.265	29.462	59.849	-79.579	-73.141	-72.646	-65.956	73.692	-66.109	-8191	255	
1507.331	1	1	0	0	0.17266	0.13788	0.10206	0.26856	0.15954	0.23833	0.2857	0.073636	0.058533	0.056242	0.22121	0.22302	0.11813	0.12516	0.13682	0.15676	-2.6729	-2.6333	-2.7354	-2.7062	-2.2729	-3.075	-2.725	-2.6042	-3.0687	-2.5583	-2.8438	-2.9854	-2.3563	-2.9583	-2.5708	-2.7542	122.333	231.767	-55.001	139.585	98.820	-52.920	-91.755	62.621	-93.893	63.197	218.536	231.167	209.221	-19.463	14.113	-6.004	0.0002189	0.00045247	0.00027222	1109	4.4153e-06	3.1184e-06	1169.5	228.33	3.5513e-06	6.8158e-06	291.59	81.969	64.293	18.339	5.2301e-06	26.249	0.00032681	0.00035143	0.00010603	1076	3.6068e-06	3.8205e-06	1150.4	227.31	3.6168e-06	4.0508e-06	288.66	82.701	64.909	18.858	4.1451e-06	26.848	-38.589	81.431	-31.609	-86.148	62.436	56.468	-86.227	-79.197	2.196	-68.130	-79.933	-73.159	-72.531	-65.660	32.285	-66.089	-8191	255	
1507.428	1	1	0	0	0.13104	0.20999	0.18096	0.068325	0.065531	0.25239	0.25537	0.28694	0.065906	0.14643	0.10241	0.19773	0.19739	0.23415	0.15995	0.069578	-2.4292	-2.4729	-2.8	-2.7708	-2.4708	-2.9875	-2.8625	-2.5146	-2.8	-2.6167	-2.9521	-2.8292	-2.4729	-2.9313	-2.8583	-2.6271	257.887	60.880	238.368	127.497	223.384	75.653	173.694	190.354	-68.552	176.264	235.985	222.126	-27.500	13.615	194.491	-55.914	0.00024395	0.00024245	8.2951e-05	1108.3	3.0562e-06	1.5511e-06	1174.4	228.78	1.9934e-06	4.7211e-06	290.91	82.08	64.876	18.401	1.6149e-06	26.268	0.00032497	0.00037519	0.00010326	1077.8	3.6642e-06	4.1127e-06	1154.9	227.46	3.6384e-06	4.1868e-06	289.55	82.827	65.361	18.935	3.9672e-06	26.853	-18.825	-46.076	11.357	-86.591	99.341	-45.238	-86.538	-79.279	241.187	51.069	-79.890	-72.923	-72.820	-65.252	40.556	-66.262	-8191	255	
1507.524	1	1	0	0	0.099924	0.14425	0.2067	0.13991	0.35811	0.17281	0.40719	0.39191	0.14143	0.038542	0.16892	0.080097	0.15863	0.1978	0.070533	0.10874	-2.6083	-2.7208	-2.7542	-3.2583	-2.5687	-2.9375	-2.9083	-2.5312	-2.8646	-2.7229	-2.9229	-3.0667	-2.5979	-2.7917	-2.8625	-2.5875	-0.938	-90.899	-78.628	158.036	87.633	31.564	219.573	247.623	53.258	38.660	-89.219	217.524	-36.952	-44.448	69.654	85.882	0.00015028	0.00035642	4.5017e-05	1115.4	8.3076e-07	1.0194e-06	1176.1	229.57	7.4896e-06	1.4717e-06	291.41	81.531	64.899	18.276	2.1571e-06	26.214	0.00033604	0.00038769	0.00010224	1078.6	3.8607e-06	4.2703e-06	1156.2	227.9	3.9168e-06	4.3295e-06	289.41	82.823	65.326	18.948	3.9508e-06	26.89	-37.634	-32.682	205.183	-86.493	178.021	46.708	-86.382	-79.289	240.412	14.536	-79.657	-72.847	-72.515	-65.098	-13.198	-66.538	-8191	255	
1507.644	1	1	0	0	0.11159	0.26562	0.22416	0.175	0.024146	0.088641	0.3415	0.159	0.23147	0.12392	0.29097	0.21203	0.165	0.26583	0.38818	0.23043	-2.4146	-2.6	-2.5458	-3.1083	-2.4375	-2.9417	-3.0729	-2.5292	-3	-2.6125	-2.7271	-3.0521	-2.6875	-2.7083	-2.8417	-2.5354	-79.535	25.011	248.782	106.668	119.602	48.185	201.373	65.660	24.028	164.309	-92.428	212.667	205.654	-64.419	-18.218	213.732	0.00027369	0.00014431	0.000139	1107.4	2.5182e-06	4.6761e-06	1177.9	228.69	3.4282e-06	3.5102e-06	292.49	82.546	64.406	18.5	3.4586e-06	26.296	0.0003717	0.000396	0.00010272	1077.4	4.2843e-06	4.4019e-06	1156.1	227.95	4.2579e-06	4.3251e-06	289.82	83.144	65.757	19.053	4.0642e-06	27.053	-36.235	93.658	-21.679	-86.345	150.912	35.085	-86.375	-79.218	15.195	33.359	-79.667	-73.010	-72.715	-65.793	-2.822	-66.332	-8191	255	
1507.716	1	1	0	0	0.078131	0.40911	0.29272	0.3625	0.17228	0.045798	0.21331	0.3378	0.1668	0.14498	0.039088	0.33122	0.07818	0.18753	0.021519	0.10878	-2.575	-2.5187	-2.5083	-3.1396	-2.625	-2.5687	-3.1229	-2.6292	-2.9062	-2.7208	-2.4833	-2.9604	-2.6792	-2.8312	-2.9896	-2.5979	-37.463	179.794	49.587	157.326	111.941	57.656	239.464	195.975	140.126	14.033	-35.308	243.284	217.801	208.449	-43.621	4.965	0.00024173	0.00066577	0.00014297	1120.2	9.524e-07	6.3871e-06	1180.4	229.81	3.9946e-06	2.0025e-06	291.12	83.221	65.139	18.489	4.937e-07	26.277	0.00041623	0.00041152	0.00010824	1087.2	4.7953e-06	4.6136e-06	1160	229.18	4.9343e-06	4.6347e-06	290.48	84.031	66.372	19.173	4.3845e-06	27.33	-18.383	34.676	-6.417	-86.339	106.878	18.823	-86.396	-79.258	-36.245	247.258	-79.621	-73.326	-72.541	-65.307	145.650	-66.518	-8191	255	
1507.812	1	1	0	0	0.22268	0.17519	0.07657	0.23773	0.10495	0.23563	0.19859	0.27577	0.15738	0.078934	0.21356	0.40689	0.35569	0.27866	0.16685	0.36097	-2.4583	-2.6312	-2.4688	-2.8542	-2.6771	-2.6937	-3.2188	-2.8208	-2.8792	-2.9708	-2.6333	-2.9625	-2.7188	-2.7208	-2.9375	-2.6	17.883	68.603	38.014	258.692	21.101	-64.608	163.058	248.614	262.312	32.236	247.844	207.531	258.153	-17.268	-21.170	-54.905	0.00027346	0.00045454	0.00013797	1124.3	7.1163e-06	2.9814e-06	1188.2	229.76	4.818e-06	3.9734e-06	291.9	83.265	65.736	18.438	3.8566e-06	26.605	0.00047416	0.00043992	0.00011695	1104	5.3405e-06	4.9167e-06	1168.5	230.9	5.4627e-06	4.9542e-06	292.78	84.588	66.885	19.309	4.7461e-06	27.648	-43.507	33.946	-68.665	-86.312	12.760	115.954	-86.315	-79.407	81.656	127.558	-79.746	-72.898	-72.779	-65.678	21.114	-66.150	-8191	255	
1507.933	1	1	0	0	0.2603	0.049929	0.2289	0.075367	0.14411	0.13897	0.086793	0.09851	0.23324	0.011885	0.14392	0.23352	0.28847	0.28378	0.32484	0.16391	-2.6042	-2.7625	-2.4229	-3.0896	-2.8271	-2.5771	-3.2188	-2.7583	-2.8688	-3.1083	-2.7021	-3.1417	-2.8354	-2.6188	-2.8167	-2.6896	-62.509	192.812	23.754	-72.775	73.004	94.229	235.047	-33.954	48.912	4.201	217.286	0.753	211.057	-93.515	167.354	241.925	0.00032618	0.00011546	0.00011258	1121.1	8.9049e-06	6.1993e-06	1186.4	232.31	1.4641e-06	6.2656e-06	294.16	83.052	65.665	18.634	3.3683e-06	26.636	0.00050582	0.00045935	0.0001254	1117.9	5.5572e-06	5.2422e-06	1172.7	232.95	5.6048e-06	5.1198e-06	294.23	85.184	67.064	19.424	4.9465e-06	27.793	-36.577	14.340	145.163	-86.374	65.324	17.279	-86.608	-79.218	22.300	60.862	-79.831	-73.165	-72.954	-66.093	176.533	-65.996	-8191	255	
1508.027	1	1	0	0	0.18754	0.12813	0.041738	0.071994	0.05664	0.06253	0.35245	0.16917	0.12321	0.20511	0.1065	0.12269	0.2456	0.2353	0.14278	0.1429	-2.2375	-2.9167	-2.6521	-2.8667	-2.8854	-2.65	-3.3792	-2.6979	-2.5438	-2.9813	-2.7292	-2.9125	-2.8479	-2.4521	-2.9167	-2.7792	228.958	112.734	218.960	73.580	254.225	144.280	199.235	131.760	232.791	217.704	92.502	-26.141	114.088	-94.141	96.639	201.300	0.00022405	0.00045898	3.7665e-05	1134.2	3.0132e-06	3.4956e-06	1201.5	234.29	2.6088e-06	4.5595e-06	293.81	84.322	66.153	18.629	2.3699e-06	26.49	0.00047878	0.00043871	0.00012731	1126.5	4.9908e-06	4.7768e-06	1181.4	234	4.9204e-06	4.4446e-06	294.57	85.31	66.828	19.279	4.6385e-06	27.628	-0.531	-24.161	31.887	-86.432	24.139	58.566	-86.492	-79.370	222.801	72.931	-79.714	-72.890	-73.001	-65.919	68.989	-66.684	-8191	255	
1508.123	1	1	0	0	0.0437	0.27362	0.25608	0.19111	0.053365	0.25864	0.20901	0.21381	0.15982	0.15742	0.3172	0.23598	0.1933	0.15271	0.086889	0.13922	-2.2125	-2.8667	-2.5563	-2.9042	-2.7792	-2.4833	-3.1875	-2.7771	-2.6479	-3.0083	-2.8187	-2.775	-2.7417	-2.5875	-3.0542	-2.6854	63.825	40.144	-92.424	-0.319	86.057	-66.860	218.148	177.135	237.842	165.479	-96.111	208.491	-23.180	-70.187	203.551	99.666	0.00031817	0.00062073	2.0615e-05	1133.7	2.9753e-06	5.6214e-06	1204.8	233.16	7.0355e-06	6.1143e-06	294.98	83.811	65.816	18.58	3.4451e-06	26.679	0.00041673	0.00037694	0.00011985	1115.3	4.3979e-06	4.2622e-06	1183.6	233.17	4.6323e-06	4.2956e-06	295.34	85.177	66.819	19.289	5.0948e-06	27.628	-30.917	58.435	244.289	-85.989	28.211	36.732	-86.541	-79.233	24.478	-18.595	-79.502	-73.277	-72.886	-65.923	60.317	-66.565	-8191	255	
1508.244	1	1	0	0	0.17581	0.14427	0.28062	0.18423	0.23236	0.18153	0.38901	0.27446	0.16688	0.05012	0.1596	0.24709	0.058336	0.086155	0.089798	0.091589	-2.0812	-2.8646	-2.6958	-2.625	-3.0229	-2.4375	-3.1479	-2.8708	-2.5854	-3	-2.725	-2.775	-3.0229	-2.5833	-2.975	-2.8771	168.950	163.927	200.089	-60.470	-5.274	86.151	208.897	204.061	225.504	-55.364	226.589	-68.402	-95.459	-20.964	128.891	42.002	0.00024059	0.00023491	0.00021689	1142.1	4.4833e-06	2.9889e-06	1202.4	233.99	6.1843e-06	5.818e-06	294.3	84.452	65.896	18.5	4.7303e-06	26.764	0.00042671	0.00040503	0.00013163	1121.2	4.4568e-06	4.5052e-06	1187.4	233.31	4.5568e-06	4.4633e-06	295.44	85.41	66.787	19.323	5.0411e-06	27.523	3.713	95.053	47.891	-86.378	55.584	207.896	-86.315	-79.377	-29.233	102.970	-80.023	-73.343	-72.769	-65.721	185.746	-66.130	-8191	255	
1508.316	1	1	0	0	0.16953	0.15593	0.041295	0.18445	0.09854	0.12252	0.38131	0.026325	0.25263	0.26425	0.15991	0.21127	0.14941	0.10302	0.098765	0.092524	-2.0042	-2.8438	-2.6604	-2.6292	-2.8792	-2.6167	-2.9979	-2.8771	-2.5333	-2.9083	-2.8542	-2.4896	-3.1167	-2.4729	-2.7604	-3.0875	133.834	39.949	-68.521	-49.213	-20.147	27.907	155.538	202.537	245.017	144.439	231.559	191.988	-81.267	110.706	47.440	236.920	0.00025784	0.00021483	6.3296e-05	1139.6	3.5169e-06	4.397e-06	1202.1	233.66	3.4738e-06	2.3708e-06	294.15	83.628	66.106	18.666	2.2809e-06	26.657	0.00040709	0.00041504	0.0001264	1118.8	4.313e-06	4.6697e-06	1188.1	232.75	4.3396e-06	4.6109e-06	295.71	85.047	66.651	19.398	4.7023e-06	27.369	-18.772	40.649	45.392	-86.634	44.167	-66.202	-86.405	-79.629	-70.562	167.562	-79.809	-72.958	-72.821	-65.652	117.271	-66.599	-8191	255	
1508.412	1	1	0	0	0.17071	0.044259	0.096778	0.10322	0.05443	0.069834	0.15696	0.18476	0.20201	0.10895	0.18604	0.3088	0.31641	0.089968	0.12199	0.20991	-2.1667	-2.7771	-2.5854	-2.4437	-2.9417	-2.3792	-2.7271	-3.0208	-2.5792	-2.8458	-2.75	-2.4167	-2.9271	-2.6833	-2.7625	-2.9292	-61.595	74.360	256.402	136.778	-56.282	109.382	139.091	204.920	-59.890	12.901	-65.220	248.368	181.857	-57.371	89.473	204.021	0.00032005	0.00018251	0.00013096	1142.7	3.2626e-06	2.3036e-06	1206	233.34	3.4143e-06	3.2449e-06	295.82	84.108	65.685	18.8	4.4921e-06	26.591	0.00037748	0.00042283	0.0001178	1115.5	4.0297e-06	4.6941e-06	1186	233.15	4.1741e-06	4.684e-06	294.91	85.133	66.699	19.454	4.5936e-06	27.389	-33.426	176.561	0.323	-86.277	84.543	198.895	-86.101	-79.529	31.432	30.361	-79.947	-73.459	-72.865	-66.037	-26.678	-66.302	-8191	255	
1508.508	1	1	0	0	0.061908	0.1416	0.18524	0.21933	0.22165	0.042671	0.31515	0.057376	0.02537	0.088517	0.046066	0.20978	0.10221	0.12443	0.13404	0.057048	-2.1333	-2.9458	-2.6021	-2.4667	-3.0583	-2.6958	-2.9813	-3.1146	-2.2875	-2.7125	-2.8167	-2.3833	-2.9	-2.5208	-2.5521	-3.0542	-47.042	64.206	-1.211	218.916	77.292	93.763	231.392	-53.905	155.364	-5.074	83.211	-87.871	193.696	121.662	169.674	113.782	0.00017186	0.0002658	0.0001411	1137.3	4.5873e-06	2.3451e-06	1202.7	235.81	1.7831e-06	7.3609e-06	294.61	84.428	66.209	18.844	1.4421e-06	26.674	0.00039231	0.00043678	0.00011398	1110.6	4.2564e-06	4.7915e-06	1183.7	233.96	4.3416e-06	4.7397e-06	294.29	84.954	66.973	19.456	4.2921e-06	27.236	-10.332	258.339	-30.950	-86.200	199.875	167.907	-86.448	-79.727	70.800	50.649	-79.810	-73.383	-72.860	-66.158	62.814	-66.581	-8191	255	
1508.629	1	1	0	0	0.13527	0.2456	0.25631	0.195	0.19132	0.2102	0.3105	0.14426	0.23833	0.15716	0.31292	0.24762	0.22419	0.30241	0.049894	0.24947	-2.1167	-2.8229	-2.9583	-2.5479	-3.0625	-2.7812	-2.8292	-3.0583	-2.625	-2.8187	-2.8354	-2.6771	-2.9688	-2.9437	-2.6708	-2.8875	19.484	26.723	187.264	207.534	201.839	7.375	157.794	154.784	-24.752	-30.870	111.941	-87.264	214.522	222.606	-96.736	-39.537	0.00017087	0.00033765	0.0002178	1143.8	2.1702e-06	5.1733e-06	1207	234.4	2.8296e-06	4.3317e-06	298.1	84.26	65.832	18.733	5.9407e-06	26.726	0.00039786	0.00041644	0.00010384	1104.3	4.3224e-06	4.4403e-06	1181	233.1	4.3676e-06	4.3764e-06	294.71	84.691	66.852	19.32	3.9465e-06	27.273	1.282	-45.878	19.085	-86.399	63.891	-61.078	-86.434	-79.439	-55.905	98.267	-79.747	-73.358	-72.525	-65.726	104.371	-66.230	-8191	255	
1508.725	1	1	0	0	0.27323	0.21314	0.11581	0.17913	0.11275	0.25448	0.26545	0.1175	0.3035	0.12879	0.11086	0.24411	0.050259	0.15605	0.12545	0.25195	-2.2708	-2.675	-2.9437	-2.5396	-2.9688	-2.7833	-2.5854	-2.9729	-2.5979	-2.7104	-3.0312	-2.3896	-2.9167	-2.8583	-2.4229	-2.8792	127.059	-51.436	-28.291	174.658	205.382	54.124	234.451	-58.365	187.738	61.584	140.415	189.425	107.651	-91.893	-12.451	198.879	0.00027557	0.0004105	4.239e-05	1137.6	3.1788e-06	5.1202e-06	1196.1	234.55	6.4538e-06	1.9626e-06	295.43	84.295	65.723	18.833	2.1779e-06	26.511	0.0003943	0.00038159	9.6225e-05	1099.5	4.2691e-06	4.0454e-06	1175.7	232.71	4.3117e-06	4.0365e-06	293.08	84.804	66.916	19.326	3.785e-06	27.329	-29.037	-16.841	21.437	-86.620	87.901	20.245	-86.272	-79.235	-83.194	22.957	-79.901	-72.853	-72.767	-65.943	4.611	-66.211	-8191	255	
1508.821	1	1	0	0	0.48226	0.16243	0.032383	0.046684	0.14361	0.15983	0.14699	0.10816	0.089953	0.13717	0.31733	0.25731	0.31146	0.13832	0.18046	0.12942	-2.1125	-2.55	-2.7375	-2.6625	-2.7562	-2.7979	-2.6792	-2.8917	-2.7146	-2.4958	-3.0396	-2.4479	-2.8063	-2.8187	-2.4104	-2.975	57.347	40.107	125.131	219.236	251.184	-19.647	-95.303	223.785	201.130	-89.541	184.709	177.317	194.200	238.260	58.169	144.297	0.00029968	0.00049227	0.00018302	1131.9	2.1661e-06	3.2264e-06	1195	233.36	4.6671e-06	3.8004e-06	296.98	83.781	66.128	18.905	5.1887e-06	26.802	0.00039236	0.00036789	9.2732e-05	1101.5	4.3085e-06	3.8725e-06	1174.8	233.11	4.2781e-06	3.979e-06	293.3	85.009	66.838	19.39	3.8493e-06	27.576	-0.191	22.968	-32.203	-85.857	27.186	-85.341	-86.410	-79.427	-51.658	125.665	-79.723	-72.916	-72.629	-65.689	81.260	-66.298	-8191	255	
1508.917	1	1	0	0	0.051954	0.1333	0.25415	0.080679	0.094015	0.18312	0.20452	0.13512	0.29499	0.2374	0.30865	0.14371	0.12656	0.16804	0.22605	0.094663	-2.2646	-2.4896	-2.8458	-2.5354	-2.4771	-2.7313	-2.6708	-3.0104	-2.6813	-2.6979	-3.1813	-2.6417	-2.5625	-2.9958	-2.4104	-2.6937	40.944	-73.969	161.091	109.305	120.536	36.900	222.640	229.745	181.228	148.764	-73.256	201.963	187.243	225.924	-39.100	163.080	0.00018625	0.00055505	0.00013835	1127.8	5.4631e-06	8.1e-06	1202.4	234.5	8.6395e-06	2.7086e-06	295.56	84.692	65.946	18.84	3.9418e-06	26.94	0.00038956	0.00037158	9.659e-05	1107	4.3224e-06	3.976e-06	1178.3	234.18	4.2542e-06	4.0664e-06	293.56	85.324	66.843	19.373	4.0887e-06	27.752	24.406	-14.469	-17.143	-86.101	107.684	69.006	-86.206	-79.558	5.245	39.850	-80.171	-73.259	-72.986	-65.680	90.197	-66.137	-8191	255	
1509.012	1	1	0	0	0.22227	0.12026	0.12494	0.15442	0.18314	0.24845	0.36394	0.07611	0.11436	0.30444	0.24149	0.11472	0.26548	0.047479	0.05782	0.020629	-2.2042	-2.4979	-2.8396	-2.675	-2.4854	-2.8271	-2.7313	-3.0312	-2.8354	-2.4167	-2.9188	-2.45	-2.7875	-2.8625	-2.5208	-2.9958	7.968	228.978	72.103	221.448	111.608	-28.627	173.313	88.881	262.700	144.918	217.074	193.383	77.016	260.769	-76.683	171.408	0.00027567	0.00031667	8.8407e-05	1127.6	3.1048e-06	3.1125e-06	1196.4	234.75	5.5662e-06	3.3271e-06	296.28	84.357	66.258	19.066	1.523e-06	26.751	0.00038618	0.00037304	0.00010337	1110.8	4.3351e-06	3.9835e-06	1177.1	234.25	4.2621e-06	4.1777e-06	294.56	85.502	66.989	19.529	4.4908e-06	27.805	-17.156	57.858	-11.953	-86.600	90.373	69.294	-86.430	-79.284	45.591	189.248	-79.636	-72.821	-72.336	-65.630	94.816	-66.061	-8191	255	
1509.108	1	1	0	0	0.11043	0.066777	0.19647	0.18014	0.11406	0.25935	0.20355	0.2471	0.094432	0.0078469	0.2483	0.16456	0.21108	0.032064	0.14017	0.29435	-2.375	-2.4208	-3.0271	-2.7729	-2.6083	-2.9354	-2.7354	-3.0458	-2.8792	-2.4792	-2.9479	-2.6646	-2.6271	-2.9083	-2.5292	-2.9771	76.452	134.329	-95.825	-93.884	229.093	63.165	144.891	197.160	223.537	71.686	-56.652	-94.026	202.921	1.943	72.508	24.178	0.00024846	0.00043797	1.8092e-05	1129.9	3.0305e-06	5.3493e-06	1196.2	234.65	1.4188e-06	3.2616e-06	295.82	84.486	66.101	19.004	4.3084e-06	26.92	0.00039336	0.00038062	0.0001155	1111.8	4.4213e-06	4.088e-06	1179.6	234.58	4.2769e-06	4.242e-06	295.38	85.503	66.972	19.537	4.8216e-06	27.866	-50.131	-23.713	-8.393	-86.047	71.647	67.344	-86.607	-79.421	-53.849	72.555	-79.718	-73.641	-72.670	-65.900	61.415	-66.245	-8191	255	
1509.204	1	1	0	0	0.11826	0.061604	0.068783	0.18448	0.3223	0.13871	0.048837	0.17519	0.036233	0.40321	0.020487	0.1096	0.22853	0.17617	0.19799	0.046724	-2.4333	-2.4375	-2.7708	-2.7062	-2.5104	-2.9437	-2.8125	-2.6708	-2.8042	-2.425	-2.8563	-2.7562	-2.5167	-3.0042	-2.7667	-2.7396	256.832	32.605	246.712	198.651	-58.537	195.755	82.591	245.318	28.952	207.086	117.642	18.963	95.859	172.966	105.373	80.028	0.00020702	0.00039577	0.00010603	1136.5	4.0155e-06	1.3946e-06	1194.1	235.5	7.0044e-06	2.2871e-06	295.73	84.125	65.751	19.042	5.2333e-06	27.086	0.00038969	0.00039229	0.00012331	1111.8	4.4305e-06	4.2437e-06	1179.8	234.34	4.2196e-06	4.422e-06	296.34	85.199	66.775	19.61	4.8951e-06	27.775	-58.946	52.655	6.367	-86.284	22.431	-43.752	-86.572	-79.492	32.944	215.465	-79.761	-73.033	-72.537	-65.683	85.051	-65.937	-8191	255	
1509.324	1	1	0	0	0.14187	0.098071	0.16978	0.078732	0.22288	0.15088	0.29664	0.35363	0.096472	0.084332	0.1308	0.35642	0.19432	0.2697	0.14495	0.022944	-2.5229	-2.7083	-2.7021	-2.7542	-2.5583	-2.9479	-2.8187	-2.775	-2.9562	-2.5396	-2.9521	-2.8375	-2.4625	-2.8583	-2.5875	-2.575	-29.121	18.199	120.498	-32.475	14.572	56.043	225.738	183.560	-41.915	68.763	222.634	-37.697	-79.194	-6.755	182.364	-72.180	0.00013905	0.00012795	9.1036e-05	1141.5	7.5481e-06	4.4855e-06	1195.6	234.73	5.343e-06	3.637e-06	296.48	84.253	66.148	18.84	3.0487e-06	27.065	0.00037982	0.00041529	0.00012433	1109.6	4.3427e-06	4.5058e-06	1180.4	234.36	4.1777e-06	4.6785e-06	296.51	85.202	66.788	19.556	4.7184e-06	27.773	20.104	124.427	-19.436	-86.530	67.813	145.468	-86.453	-79.125	214.671	142.640	-79.595	-73.017	-72.833	-65.882	102.429	-66.358	-8191	255	
1509.421	1	1	0	0	0.3152	0.18146	0.14582	0.19131	0.07726	0.073205	0.35022	0.25692	0.05839	0.32273	0.10413	0.098205	0.31269	0.066373	0.12291	0.15071	-2.5375	-2.3958	-2.7479	-2.9188	-2.5625	-2.9437	-2.875	-2.6458	-2.9396	-2.5958	-2.7271	-2.8438	-2.6792	-2.9542	-2.8438	-2.45	-18.244	207.232	257.882	243.660	257.889	-63.024	158.701	236.790	-94.385	130.260	201.984	-82.960	-43.236	-36.217	43.461	-78.919	0.00032695	0.00020947	0.00011156	1135.6	2.2499e-06	4.7468e-06	1198.9	235.13	6.1951e-06	2.2378e-06	296.53	84.039	66.103	19.026	4.562e-06	26.852	0.00037484	0.00043915	0.0001209	1108.3	4.2434e-06	4.7778e-06	1180.5	234.54	4.2042e-06	4.8751e-06	296.3	85.026	67.019	19.698	4.5251e-06	27.674	-8.439	86.017	-29.440	-86.198	160.271	3.566	-86.427	-79.292	190.357	147.669	-79.865	-73.000	-72.480	-65.980	30.064	-66.024	-8191	255	
1509.517	1	1	0	0	0.17914	0.017683	0.18289	0.139	0.03784	0.16995	0.16586	0.21924	0.051469	0.24982	0.10163	0.13062	0.02747	0.37108	0.18949	0.24413	-2.4958	-2.5354	-2.6188	-3.0396	-2.4667	-2.875	-2.7979	-2.5125	-2.8187	-2.6417	-2.6937	-2.9604	-2.525	-2.8771	-2.7812	-2.4458	250.111	-47.339	-18.399	-13.566	37.129	-84.386	136.647	-86.881	27.266	-15.254	192.799	102.790	-75.781	-86.892	173.630	-95.763	0.00027388	0.00037097	0.00024244	1133.7	2.9099e-06	4.6865e-06	1200.8	234.79	2.7146e-06	3.8794e-06	296.6	84.167	66.365	18.888	1.7099e-06	27.108	0.00038768	0.00044847	0.00011626	1103.6	4.4419e-06	4.8038e-06	1180	234.22	4.4018e-06	4.9064e-06	295.64	84.931	67.076	19.717	4.3531e-06	27.75	-17.880	-44.462	29.972	-86.415	143.490	14.345	-86.437	-79.532	-32.841	88.015	-79.670	-73.275	-72.890	-65.753	37.227	-66.401	-8191	255	
1509.613	1	1	0	0	0.12479	0.15113	0.11582	0.30779	0.089184	0.0073038	0.15658	0.087547	0.33168	0.13085	0.013398	0.064738	0.12392	0.12608	0.10544	0.039309	-2.5854	-2.7521	-2.6312	-2.9188	-2.3937	-2.6792	-3.025	-2.5062	-2.8563	-2.7104	-2.6854	-2.9688	-2.4896	-2.9042	-2.7854	-2.6167	-42.528	232.899	59.107	84.429	31.402	89.871	145.481	38.628	129.850	-73.051	90.682	-88.017	159.975	148.393	115.046	-72.675	0.00029844	0.00039344	4.6137e-05	1131.3	4.9691e-06	5.2105e-06	1195.1	234.56	5.1433e-06	7.1902e-06	297.41	84.624	66.141	19.172	7.8086e-06	26.844	0.00040551	0.00043331	0.00011275	1101.4	4.6533e-06	4.7713e-06	1177.3	233.98	4.628e-06	4.6589e-06	295.66	85.237	67.321	19.692	4.2448e-06	27.639	-28.620	-26.607	-22.977	-86.428	57.749	7.736	-86.319	-79.567	-23.226	52.101	-79.878	-73.106	-72.866	-65.873	63.005	-66.543	-8191	255	
1509.709	1	1	0	0	0.27786	0.38522	0.13901	0.083056	0.11334	0.23181	0.37656	0.32498	0.19597	0.22341	0.10056	0.11877	0.16249	0.2529	0.16024	0.11978	-2.3812	-2.6771	-2.4875	-2.9604	-2.5083	-2.7854	-3.0667	-2.6229	-2.9	-2.7146	-2.5646	-2.9354	-2.5854	-2.5292	-3.0021	-2.3333	49.687	90.641	-61.551	35.919	4.936	47.870	151.050	82.689	212.828	8.418	-69.581	-1.388	-89.978	252.322	221.794	54.841	0.00014462	0.00037983	0.00015026	1126.6	3.4355e-06	2.3768e-06	1197.9	234.69	5.2796e-06	4.3174e-06	297.21	84.049	65.957	18.833	4.5224e-06	26.929	0.00042799	0.00041338	0.00011031	1102.2	4.8415e-06	4.5724e-06	1178.6	234.35	4.8931e-06	4.5842e-06	295.92	85.161	67.243	19.611	4.2059e-06	27.741	-72.940	-20.296	-48.789	-86.531	107.219	226.375	-86.349	-79.417	32.669	119.637	-79.779	-73.291	-72.857	-66.051	64.768	-66.433	-8191	255	
1509.805	1	1	0	0	0.15767	0.11094	0.050697	0.34061	0.1131	0.1522	0.22748	0.39792	0.030062	0.1427	0.24943	0.11865	0.34803	0.16509	0.22103	0.049746	-2.6458	-2.7042	-2.2854	-3.0042	-2.65	-2.6688	-3.1542	-2.6146	-2.8	-2.8208	-2.3125	-2.9354	-2.6813	-2.4417	-3	-2.5792	149.272	-60.944	154.988	145.163	-92.714	81.920	175.455	-44.266	154.147	-29.625	254.270	-52.625	-72.466	243.692	-50.232	-11.556	0.00032299	0.00026087	0.00014887	1129.9	4.7262e-06	2.7705e-06	1195.1	234.81	2.7876e-07	4.8526e-06	297.23	83.35	66.303	19.025	3.597e-06	26.888	0.0004496	0.00041362	0.00011202	1110.5	4.948e-06	4.6607e-06	1177.5	234.84	5.0676e-06	4.6265e-06	296.37	85.545	67.556	19.705	4.3784e-06	27.953	5.638	-46.270	-53.135	-86.224	12.420	98.408	-86.314	-79.518	38.343	16.328	-79.774	-73.394	-72.887	-66.158	-31.951	-66.809	-8191	255	
1509.926	1	1	0	0	0.13057	0.1623	0.29199	0.21577	0.14662	0.32799	0.53711	0.40087	0.21073	0.05531	0.20392	0.16913	0.17405	0.11204	0.1612	0.2317	-2.4354	-2.7667	-2.4479	-2.8729	-2.7917	-2.5979	-3.1521	-2.725	-2.6396	-2.8792	-2.4479	-3.1437	-2.7	-2.4125	-2.9854	-2.5479	-42.272	39.706	51.777	219.810	57.813	227.140	158.702	213.701	187.794	-84.361	237.564	174.059	48.621	220.730	204.662	182.483	0.00025863	0.00055586	7.911e-05	1133.7	2.4458e-06	2.6399e-06	1201	235.61	5.1868e-06	7.2183e-06	297.69	84.2	66.235	19.027	5.2418e-06	27.007	0.0004543	0.00042478	0.00011579	1122.6	5.0018e-06	4.8542e-06	1181.4	236.07	5.0409e-06	4.6324e-06	297.2	85.873	67.413	19.691	4.612e-06	28.066	-5.726	14.503	85.078	-86.454	187.967	-20.912	-86.302	-79.284	-57.908	-39.827	-79.431	-73.090	-72.618	-65.943	156.467	-66.174	-8191	255	
1510.020	1	1	0	0	0.18204	0.2035	0.23024	0.060941	0.22559	0.042611	0.11642	0.12879	0.1727	0.10132	0.18613	0.16115	0.17886	0.21056	0.12116	0.073296	-2.3479	-2.8229	-2.3792	-2.8021	-2.6604	-2.6271	-3.0125	-2.6833	-2.5042	-2.9271	-2.575	-2.9021	-2.7104	-2.4146	-2.9083	-2.5708	150.413	26.789	-18.096	-19.261	216.919	18.583	222.969	175.648	44.009	132.460	211.465	123.500	-83.967	258.787	-18.311	118.490	9.3798e-05	0.00053629	6.1274e-05	1134.6	2.2263e-06	5.6493e-06	1199.5	236.03	4.1995e-06	4.8185e-06	297.94	84.352	66.265	18.948	4.376e-06	26.802	0.00044986	0.00041533	0.00012117	1124.5	4.7886e-06	4.6585e-06	1181.8	236.23	4.9321e-06	4.4572e-06	297.59	85.904	67.243	19.632	4.8627e-06	28.016	-44.569	7.324	-29.980	-86.700	95.133	41.768	-86.309	-79.578	-47.247	49.596	-79.705	-73.145	-72.787	-65.363	24.502	-66.491	-8191	255	
1510.116	1	1	0	0	0.1501	0.16398	0.18085	0.27544	0.36437	0.339	0.22141	0.23174	0.32884	0.050592	0.29504	0.061207	0.1498	0.066052	0.14564	0.27861	-2.3354	-2.9938	-2.2438	-2.7979	-2.8729	-2.6646	-3.0812	-2.8083	-2.6896	-2.8375	-2.5875	-2.9542	-3.0187	-2.4729	-2.7583	-2.7479	161.761	17.154	134.975	-62.605	244.023	-93.449	172.210	-80.334	84.400	11.021	154.415	101.059	158.948	181.026	248.598	249.941	0.00029762	0.00019766	0.00017823	1135.5	1.0139e-06	6.2811e-06	1201.6	235.42	6.9935e-06	4.9762e-06	296.68	84.721	66.068	19.03	5.379e-06	27.044	0.00044	0.00040284	0.00012781	1121.1	4.7537e-06	4.5909e-06	1185.2	235.87	4.8743e-06	4.5151e-06	297.81	85.849	67.328	19.697	5.3133e-06	28.001	-14.923	79.944	83.571	-86.561	-45.100	112.168	-86.183	-79.413	256.852	77.583	-79.946	-73.438	-72.731	-65.959	243.757	-66.335	-8191	255	
1510.213	1	1	0	0	0.16627	0.091462	0.1481	0.097297	0.072377	0.23523	0.17685	0.19942	0.1472	0.14398	0.12905	0.30667	0.39611	0.1235	0.12314	0.17056	-2.1104	-2.9333	-2.4813	-2.7083	-3.0354	-2.5667	-3.0687	-2.8875	-2.5083	-3.1125	-2.4708	-2.6646	-3.15	-2.4646	-2.9062	-2.975	124.132	103.560	-65.616	-13.557	68.125	182.224	156.613	174.778	53.091	-38.283	107.370	-69.160	-72.088	-44.566	-93.540	-31.585	0.00016237	0.0004859	4.1009e-05	1137.9	3.6707e-06	2.6521e-06	1200.7	236.19	2.5911e-06	7.3883e-06	297.29	84.79	66.196	18.954	3.6797e-06	26.89	0.00044081	0.00042671	0.00013783	1123.1	4.708e-06	4.8372e-06	1185.6	236.03	4.8884e-06	4.8601e-06	298.55	85.794	67.245	19.735	5.4474e-06	27.93	-34.685	32.355	91.534	-86.384	-87.125	50.373	-86.351	-79.699	215.878	75.799	-79.802	-73.294	-72.770	-66.374	-46.187	-66.201	-8191	255	
1510.309	1	1	0	0	0.091549	0.12559	0.17972	0.11158	0.090124	0.1717	0.1299	0.15272	0.043541	0.13438	0.27464	0.064117	0.26033	0.13931	0.20853	0.18885	-2.1479	-2.8875	-2.5646	-2.5938	-2.9979	-2.525	-2.8875	-2.8708	-2.4313	-3.0229	-2.6354	-2.6146	-2.9271	-2.6042	-2.7521	-2.9229	-82.847	-78.452	256.237	87.316	159.065	-28.067	71.851	166.562	233.516	51.759	252.388	-55.941	180.711	233.596	171.481	259.327	0.00016505	0.00054723	0.00011074	1132.5	4.3488e-06	1.4403e-06	1202.8	235.72	8.05e-06	2.2883e-06	296.76	84.777	66.076	19.038	5.9177e-06	26.722	0.00043519	0.00045265	0.00013953	1116.7	4.6769e-06	5.2618e-06	1186.2	235.62	4.8911e-06	5.2993e-06	298.79	85.783	67.312	19.874	5.502e-06	27.86	22.458	-3.266	-73.036	-86.091	72.836	42.975	-86.441	-79.429	-26.147	-60.803	-79.940	-73.345	-72.854	-65.217	101.342	-66.339	-8191	255	
1510.405	1	1	0	0	0.084449	0.14581	0.14175	0.092246	0.12776	0.024324	0.2371	0.091692	0.18623	0.14931	0.13304	0.17657	0.14816	0.3877	0.18866	0.2243	-2.1771	-2.8312	-2.7771	-2.5771	-2.7396	-2.5271	-2.7875	-2.8021	-2.4896	-2.9625	-2.7229	-2.4146	-3.0625	-2.4417	-2.5896	-2.9062	75.190	-82.838	198.220	250.506	204.298	17.642	216.166	209.596	261.054	-47.765	-57.980	156.143	221.581	99.904	-46.941	231.571	0.00016014	0.00018522	1.9263e-05	1134	2.6424e-06	1.1065e-06	1193.8	237.26	7.339e-07	4.4761e-06	297.06	84.478	66.449	19.066	2.4902e-06	26.726	0.00044295	0.00049403	0.00013811	1122.2	4.8289e-06	5.5752e-06	1182.8	236.39	4.9836e-06	5.5486e-06	298.66	85.808	67.259	19.921	5.2768e-06	27.785	-20.998	-73.321	28.064	-86.530	145.473	262.428	-86.356	-79.192	-26.809	11.468	-79.945	-73.286	-72.597	-65.979	24.684	-66.340	-8191	255	
1510.501	1	1	0	0	0.10296	0.19698	0.11109	0.24633	0.19287	0.10382	0.18996	0.18111	0.18037	0.0507	0.26063	0.10704	0.26015	0.2342	0.31571	0.061323	-1.9562	-2.7646	-2.6688	-2.3187	-2.9854	-2.4854	-2.925	-3.0187	-2.5146	-2.9604	-3.0187	-2.4583	-2.9729	-2.5687	-2.3896	-3.0875	-61.266	51.664	238.061	-86.493	-79.647	48.243	231.756	-93.001	-96.125	-41.609	259.710	31.842	261.150	251.393	255.500	-39.913	0.00014338	0.00018935	0.00014989	1131.6	2.9958e-06	1.1906e-06	1201.8	236.63	2.1205e-06	5.315e-06	296.07	84.604	66.285	18.792	4.2885e-06	26.957	0.00045298	0.00051315	0.00012994	1119.6	4.9188e-06	5.5291e-06	1185.3	235.71	5.1408e-06	5.4749e-06	297.57	85.677	67.51	19.817	4.9954e-06	27.789	49.192	-68.479	13.115	-86.655	21.022	19.767	-86.542	-79.747	-3.609	73.595	-79.814	-73.169	-72.525	-66.058	5.393	-66.494	-8191	255	
1510.597	1	1	0	0	0.2024	0.2219	0.11712	0.11212	0.17038	0.028645	0.14639	0.29688	0.28975	0.21862	0.165	0.18378	0.25413	0.076859	0.047083	0.21035	-1.825	-2.5708	-2.7979	-2.4417	-2.8417	-2.6542	-2.7083	-3.1292	-2.3187	-2.8104	-2.8167	-2.4646	-2.9625	-2.6437	-2.5333	-3.0771	-32.082	-26.678	257.811	184.274	15.692	63.072	209.712	163.167	124.411	3.706	240.709	-78.598	256.007	114.587	159.558	10.060	0.00027667	0.00062755	0.00014167	1130.3	4.141e-06	8.5423e-06	1202	235.71	3.5631e-06	7.0491e-06	298.15	84.811	65.856	19.08	7.3088e-06	26.827	0.0004677	0.00048749	0.00012229	1113.2	5.1337e-06	5.2136e-06	1183.9	235.28	5.1939e-06	5.1388e-06	297.13	85.626	67.713	19.797	4.7097e-06	27.72	-21.779	-23.402	-53.079	-86.344	171.874	37.300	-86.542	-79.627	207.479	53.754	-79.637	-72.974	-72.731	-65.822	27.795	-66.367	-8191	255	
1510.718	1	1	0	0	0.06123	0.096839	0.24772	0.020649	0.19102	0.1529	0.18164	0.37103	0.10589	0.21314	0.28071	0.16251	0.13666	0.19043	0.13215	0.31881	-2.3021	-2.6312	-2.9813	-2.3937	-2.7792	-2.7542	-2.8187	-2.9917	-2.6188	-2.7458	-2.9146	-2.4854	-2.9938	-2.8812	-2.4021	-2.9333	225.741	18.260	119.958	84.698	198.401	179.248	164.705	210.262	218.236	254.876	247.734	246.939	194.741	177.974	111.173	194.085	0.00025442	0.001025	0.00024903	1137.5	4.2106e-06	5.3376e-06	1200.6	235.74	3.3954e-06	5.8223e-06	298.54	84.636	66.389	18.922	3.8751e-06	26.959	0.00046178	0.00045155	0.00011438	1112.1	5.1715e-06	4.7911e-06	1182.6	235.65	5.2195e-06	4.9155e-06	297.8	85.785	67.745	19.633	4.5748e-06	27.878	-44.016	-31.622	10.226	-86.370	-18.314	73.762	-86.263	-79.397	145.673	9.482	-79.737	-73.391	-72.792	-65.559	6.247	-66.742	-8191	255	
1510.814	1	1	0	0	0.36442	0.046031	0.1539	0.23482	0.25789	0.069622	0.40579	0.26774	0.16502	0.18758	0.12208	0.28288	0.050967	0.1846	0.1041	0.21207	-2.1458	-2.4667	-2.9188	-2.5333	-2.675	-2.775	-2.7	-2.9062	-2.7333	-2.6729	-3.0812	-2.5563	-2.6042	-2.8583	-2.4062	-2.9938	196.314	247.518	-30.966	-61.438	170.477	19.412	165.412	186.305	202.052	-46.863	195.952	228.254	-4.936	-71.824	70.334	252.762	0.00017131	0.00057862	2.9784e-05	1137.9	5.0892e-06	1.7754e-06	1196.3	236.61	5.6443e-06	1.0681e-05	297.95	84.626	66.46	18.853	3.4923e-06	26.964	0.00046775	0.00044194	0.00011116	1118.1	5.2239e-06	4.7264e-06	1181.3	236.48	5.1981e-06	4.8966e-06	296.87	86.253	67.88	19.628	4.6604e-06	27.997	-87.483	-15.270	260.339	-86.253	35.511	143.931	-86.699	-79.609	36.058	52.501	-80.016	-73.161	-72.569	-66.118	147.378	-66.301	-8191	255	
1510.886	1	1	0	0	0.077494	0.13687	0.063226	0.27493	0.1378	0.12164	0.2556	0.30217	0.29732	0.083924	0.34754	0.018172	0.16628	0.068919	0.26594	0.10372	-2.3333	-2.5375	-2.9646	-2.7042	-2.7958	-2.8312	-2.7583	-3.1104	-2.7375	-2.45	-3.0687	-2.6833	-2.8812	-2.9104	-2.4396	-2.725	150.728	56.705	-55.920	231.466	-21.468	175.952	184.207	220.549	183.816	-22.587	189.925	0.982	-42.540	39.641	249.388	41.505	7.1349e-05	0.00014181	3.9207e-05	1131.9	3.8753e-06	1.4178e-06	1203	236.43	1.5314e-06	7.6993e-06	297.73	84.477	66.165	19.074	3.3235e-06	27.017	0.00045593	0.00044485	0.0001154	1126.6	5.1006e-06	4.5991e-06	1184.3	236.79	4.9017e-06	4.731e-06	297.29	86.185	67.676	19.645	4.6878e-06	28.062	-29.900	-81.594	-14.895	-85.950	68.429	20.882	-86.636	-79.719	-62.292	47.984	-79.865	-73.115	-72.538	-65.813	-4.650	-66.141	-8191	255	
1511.006	1	1	0	0	0.24899	0.086009	0.15392	0.40751	0.12071	0.37416	0.52283	0.067591	0.31696	0.15716	0.29354	0.060507	0.19881	0.2002	0.17945	0.28712	-2.4792	-2.4625	-2.8563	-2.5542	-2.6833	-2.9146	-2.5979	-2.9667	-2.7292	-2.4104	-3	-2.7083	-2.6604	-3.0833	-2.6833	-2.7854	158.877	203.673	48.194	163.592	232.972	226.366	201.197	139.415	115.928	41.039	223.172	115.979	111.623	220.263	28.725	85.327	0.00021057	0.00040222	0.00012605	1136.2	4.2353e-06	3.0855e-06	1199.6	237.2	6.6177e-06	3.585e-06	298.15	84.69	66.462	19.052	1.4888e-06	26.725	0.00044006	0.00042686	0.00011933	1125.5	4.9198e-06	4.498e-06	1185.2	237.34	4.7508e-06	4.648e-06	298.23	86.18	67.587	19.596	4.9257e-06	27.987	-45.914	205.188	121.333	-86.200	180.942	59.256	-86.663	-79.574	-79.853	35.910	-79.548	-72.997	-72.990	-66.309	128.351	-66.678	-8191	255	
1511.102	1	1	0	0	0.030086	0.063472	0.21613	0.31668	0.21702	0.32753	0.3858	0.17057	0.027176	0.075318	0.13318	0.20979	0.073475	0.0973	0.16457	0.19377	-2.3167	-2.2917	-2.9479	-2.6813	-2.4313	-2.8896	-2.8312	-2.9458	-2.8979	-2.3167	-3.15	-2.7479	-2.5833	-3.0604	-2.5458	-2.7479	58.923	244.213	-47.884	-37.645	-10.101	257.896	170.738	245.757	148.794	23.247	251.620	23.902	134.861	64.250	-95.559	175.236	0.00043995	0.00058823	4.6291e-05	1138.9	5.1032e-06	6.3105e-06	1206.1	237.27	6.2059e-06	1.869e-06	299.8	84.535	66.245	18.993	3.425e-06	27.158	0.00042672	0.00041338	0.00012478	1123.9	4.7569e-06	4.3809e-06	1187.8	236.88	4.6449e-06	4.517e-06	299.44	85.825	67.425	19.63	5.2013e-06	28.035	-29.635	-83.382	156.484	-86.360	88.839	76.083	-86.547	-79.517	72.631	57.101	-79.914	-72.807	-73.052	-66.005	169.304	-66.122	-8191	255	
1511.197	1	1	0	0	0.15739	0.18938	0.2013	0.36908	0.18507	0.29079	0.27884	0.35989	0.10901	0.045314	0.102	0.24283	0.23758	0.25051	0.11936	0.14868	-2.5146	-2.4146	-2.85	-2.7333	-2.5208	-2.9062	-2.8583	-2.5792	-2.7812	-2.4708	-2.8542	-2.7667	-2.5	-2.7833	-2.6562	-2.6021	1.066	244.481	75.764	-88.417	82.846	8.561	189.377	233.658	-22.410	150.292	8.927	185.923	144.606	-50.533	105.813	164.262	6.3087e-05	0.00037658	7.1212e-05	1141.1	5.2854e-06	3.201e-06	1202.6	236.49	5.914e-06	8.3138e-07	298.11	84.753	66.165	19.032	8.0279e-06	27.196	0.00041146	0.00041482	0.00013187	1121.6	4.6976e-06	4.4407e-06	1189.1	236.65	4.3932e-06	4.5783e-06	298.59	85.86	67.345	19.684	5.0639e-06	27.929	16.227	-30.708	-7.433	-86.200	68.104	191.965	-86.371	-79.683	-44.351	-13.426	-79.560	-73.193	-72.498	-66.141	37.697	-66.279	-8191	255	
1511.293	1	1	0	0	0.18124	0.22763	0.24005	0.16126	0.1839	0.22386	0.27623	0.24804	0.075978	0.1369	0.23422	0.13123	0.13846	0.10332	0.051285	0.054399	-2.6417	-2.4875	-2.8146	-2.8125	-2.5229	-3.1146	-2.775	-2.6167	-2.8729	-2.5896	-2.7458	-2.8438	-2.3563	-2.8083	-2.6875	-2.3708	51.474	-97.424	72.570	243.938	200.310	72.528	209.192	213.873	-60.271	179.832	260.196	-45.839	-80.020	70.539	-77.109	-16.753	0.00020466	0.0005334	0.00019446	1145.6	6.3658e-06	5.0878e-06	1202.4	238.06	6.7894e-06	1.3703e-06	298.58	84.908	66.85	18.997	7.0977e-07	26.936	0.00038889	0.00042999	0.00012718	1117.4	4.4074e-06	4.6923e-06	1185.5	236.91	4.2814e-06	4.8316e-06	299.18	85.821	67.41	19.766	4.8811e-06	27.822	-14.608	24.780	1.862	-86.388	75.251	54.757	-86.420	-79.512	-49.119	201.819	-79.671	-72.991	-72.539	-65.986	176.204	-66.227	-8191	255	
1511.414	1	1	0	0	0.11264	0.17963	0.24954	0.29064	0.10978	0.10446	0.132	0.39709	0.20624	0.16042	0.22913	0.3882	0.13715	0.21083	0.13181	0.033126	-2.4583	-2.3438	-2.7146	-2.7687	-2.4208	-2.8792	-2.8396	-2.6792	-2.8875	-2.725	-2.8333	-2.9167	-2.4688	-2.6688	-2.6	-2.5104	217.385	8.699	145.495	-60.528	149.786	55.986	217.502	231.519	39.837	212.901	244.969	214.826	227.134	-67.744	-61.511	199.000	0.00017275	0.00036408	0.00028877	1134.8	1.0592e-05	1.6445e-06	1199.2	236.52	6.0978e-06	5.1118e-07	298.3	85.366	66.366	18.872	7.3643e-06	27.169	0.0003892	0.00045267	0.0001235	1112.4	4.4002e-06	4.918e-06	1185.3	236.12	4.3655e-06	5.0699e-06	298.39	85.855	67.263	19.729	4.5603e-06	27.834	-51.662	27.443	70.465	-86.434	95.771	155.914	-86.302	-79.435	23.605	107.721	-79.890	-73.260	-73.007	-66.262	58.044	-66.410	-8191	255	
1511.485	1	1	0	0	0.14326	0.20504	0.14225	0.099631	0.098978	0.13165	0.20711	0.1543	0.088992	0.11394	0.052886	0.1294	0.14839	0.10352	0.16829	0.24512	-2.5875	-2.3521	-2.5812	-2.6958	-2.2938	-2.7896	-2.7438	-2.5771	-2.7625	-2.4625	-2.5271	-2.9167	-2.5375	-2.8146	-2.725	-2.5229	6.036	-62.396	246.236	170.903	132.357	57.758	198.745	113.332	163.071	151.409	-50.414	181.591	248.232	238.530	141.251	82.007	0.00034701	0.00040003	0.00011533	1136.5	2.3976e-06	3.3251e-06	1197.2	237.15	5.1459e-06	2.5434e-06	299.87	84.526	66.557	19.012	4.1154e-06	27.092	0.00039238	0.00045283	0.00011641	1104.7	4.5004e-06	4.891e-06	1180.9	236.39	4.4073e-06	4.8722e-06	298.06	85.36	67.567	19.74	4.3513e-06	27.755	-33.714	213.184	-21.495	-86.361	31.573	1.101	-86.191	-79.084	2.411	-7.220	-79.807	-73.321	-72.902	-65.181	37.576	-66.699	-8191	255	
1511.606	1	1	0	0	0.035411	0.10049	0.16213	0.20545	0.17627	0.086294	0.17916	0.074204	0.073034	0.18552	0.044628	0.14528	0.11254	0.22077	0.16578	0.18432	-2.35	-2.5875	-2.5938	-2.9208	-2.425	-2.5687	-2.9292	-2.4938	-2.9646	-2.7458	-2.7438	-2.9062	-2.4917	-2.6937	-2.9813	-2.4833	76.206	81.315	145.821	10.608	-46.271	52.620	156.922	177.209	47.381	172.877	124.174	237.990	-48.274	7.381	-16.865	-80.007	0.000339	0.00060906	6.0075e-05	1128.7	2.215e-06	8.4012e-06	1196.3	235.69	3.8671e-06	6.285e-06	297.56	84.939	66.19	19.092	6.5387e-06	26.992	0.00041251	0.0004383	0.00011297	1105	4.7804e-06	4.7884e-06	1179.5	235.66	4.7453e-06	4.7121e-06	296.98	85.522	67.524	19.711	4.3043e-06	27.781	-10.858	-0.664	44.607	-86.351	-6.732	39.198	-86.475	-79.298	17.437	44.462	-79.751	-72.883	-72.765	-65.727	30.007	-66.463	-8191	255	
1511.702	1	1	0	0	0.17871	0.34221	0.11681	0.36508	0.048538	0.029763	0.24142	0.24178	0.18366	0.16664	0.35357	0.14846	0.20856	0.25936	0.20544	0.18487	-2.2896	-2.6437	-2.3667	-2.9792	-2.55	-2.7042	-2.9396	-2.5958	-2.7396	-2.7812	-2.3667	-3.1042	-2.6896	-2.6042	-3.0208	-2.5292	80.259	154.912	145.438	215.227	107.489	79.720	248.955	256.179	201.734	72.961	242.389	43.483	158.118	216.366	-61.485	255.355	0.00023121	0.00058544	9.7303e-05	1134.5	4.7206e-06	6.4436e-06	1197.7	235.84	7.4467e-06	2.2126e-06	297.92	84.693	66.261	18.818	5.1599e-06	27.083	0.00043649	0.00042114	0.0001107	1108	4.8705e-06	4.6126e-06	1179.4	236.06	4.876e-06	4.4675e-06	296.67	85.554	67.63	19.57	4.0625e-06	27.76	15.026	6.117	-54.430	-86.177	199.688	27.796	-86.390	-79.659	222.267	33.792	-79.663	-72.933	-72.287	-66.158	4.104	-66.279	-8191	255	
1511.798	1	1	0	0	0.067712	0.19833	0.13322	0.22563	0.12066	0.25529	0.30735	0.19991	0.27017	0.035382	0.16305	0.072188	0.11685	0.13993	0.17573	0.13821	-2.3688	-2.7604	-2.4854	-3.0187	-2.5396	-2.4208	-2.9667	-2.5792	-2.6521	-2.7625	-2.4437	-3.0271	-2.6083	-2.4229	-2.7875	-2.425	164.460	85.824	173.648	165.689	-60.294	121.251	214.765	203.117	229.449	93.619	-73.686	260.136	51.304	176.165	218.047	49.848	0.00033788	0.00036818	0.00018353	1124.7	3.5597e-06	1.7159e-06	1194.2	237.15	2.5273e-06	3.4011e-07	300.08	84.531	66.679	19.077	4.7615e-06	26.922	0.00042546	0.00039427	0.00010649	1106.1	4.7021e-06	4.4317e-06	1175.7	235.77	4.7179e-06	4.286e-06	296.72	85.669	67.565	19.621	4.0609e-06	27.846	-11.579	-80.231	-87.929	-85.978	53.520	44.183	-86.397	-79.363	11.506	-0.858	-79.809	-73.107	-72.678	-65.661	8.273	-66.278	-8191	255	
1511.894	1	1	0	0	0.1558	0.17396	0.13083	0.19848	0.063468	0.1585	0.26668	0.25311	0.18628	0.44323	0.22325	0.1566	0.35459	0.15551	0.042059	0.21234	-2.2979	-2.7208	-2.3063	-2.925	-2.5792	-2.5667	-2.9938	-2.7292	-2.6479	-2.7833	-2.6208	-2.7146	-2.6729	-2.4458	-2.7208	-2.6625	192.816	-92.848	-6.177	151.920	239.901	147.608	158.257	252.362	-75.982	-75.119	53.062	185.248	211.315	123.770	44.180	43.295	0.00030385	0.00044487	9.6086e-05	1133.9	3.7887e-06	1.2299e-06	1196.8	236.15	4.6046e-06	3.2028e-06	297.43	84.647	66.436	18.953	7.1696e-07	26.855	0.00041761	0.00038999	0.00010656	1111.8	4.5241e-06	4.3258e-06	1175.9	236.2	4.59e-06	4.1731e-06	296.78	85.797	67.247	19.583	4.1913e-06	27.811	5.631	-9.930	-37.393	-86.384	30.309	117.226	-86.568	-79.436	-57.400	128.314	-79.913	-73.208	-72.952	-66.189	190.295	-66.436	-8191	255	
1512.013	1	1	0	0	0.097453	0.29319	0.11171	0.16326	0.091611	0.045521	0.016784	0.14758	0.33106	0.16096	0.3085	0.034361	0.10749	0.20038	0.21021	0.19917	-2.1979	-2.7583	-2.2875	-2.8083	-2.6542	-2.3646	-3.1667	-2.8208	-2.7333	-2.8146	-2.5229	-2.9062	-2.8208	-2.4313	-2.7917	-2.6833	208.924	-29.610	255.571	198.593	214.698	98.928	209.997	-71.128	-44.525	224.400	212.915	120.392	112.892	42.190	76.401	-8.155	0.00025947	0.00045332	7.6481e-05	1137.6	2.5592e-06	3.0175e-06	1192.3	237.1	3.8189e-06	1.3164e-06	296.88	84.674	66.267	18.969	1.851e-06	27.014	0.00040874	0.00037153	0.00010983	1113.7	4.3541e-06	4.1897e-06	1176.5	236.08	4.4246e-06	4.0478e-06	296.33	85.737	67.17	19.548	4.4062e-06	27.887	-11.492	-32.654	-1.682	-86.570	61.201	59.237	-86.461	-79.553	183.476	253.068	-79.569	-73.260	-72.503	-65.616	101.875	-66.058	-8191	255	
1512.109	1	1	0	0	0.14794	0.1749	0.25	0.27295	0.31608	0.15954	0.14529	0.17298	0.26209	0.12627	0.35673	0.19375	0.089687	0.10295	0.14296	0.17276	-2.2875	-2.7958	-2.6167	-2.7854	-2.7938	-2.6729	-3.0563	-2.7167	-2.5312	-2.9833	-2.6167	-2.5646	-2.8417	-2.3771	-2.875	-2.8375	-85.341	-89.746	227.089	-70.110	124.914	163.723	204.249	159.323	233.271	171.870	207.879	-74.203	247.743	182.945	211.174	194.368	0.00010664	0.00044922	2.9205e-05	1139.1	2.4504e-06	4.6187e-06	1197.1	237.24	6.3747e-06	2.7902e-06	296.49	84.825	66.502	18.997	8.4858e-07	27.104	0.00039272	0.00036176	0.00011579	1112.2	4.2076e-06	4.1492e-06	1178.4	235.41	4.3315e-06	4.0614e-06	296.45	85.687	67.122	19.55	4.6313e-06	27.802	30.073	-22.346	242.312	-86.356	235.012	101.744	-86.365	-79.505	5.260	30.510	-79.791	-72.989	-72.922	-65.638	111.799	-66.652	-8191	255	
1512.181	1	1	0	0	0.092711	0.22106	0.30095	0.41174	0.051383	0.33951	0.16772	0.17863	0.053368	0.12943	0.2174	0.25691	0.19102	0.22446	0.040904	0.21087	-2.1083	-2.975	-2.5208	-2.5896	-2.9396	-2.45	-3.0021	-2.9562	-2.5333	-3.0271	-2.6271	-2.7354	-2.7958	-2.5354	-2.8104	-2.8229	115.967	-91.405	234.680	222.262	176.661	59.915	247.759	185.652	148.519	92.538	2.321	-63.278	60.823	123.842	238.558	182.870	0.00020845	0.00031051	0.00015107	1139.5	1.7153e-06	2.0509e-06	1201.3	236.2	1.8483e-06	2.9934e-06	296.94	84.207	66.629	18.919	3.1739e-06	27.003	0.00038468	0.00037105	0.00012023	1109.4	4.1199e-06	4.1952e-06	1180	235.56	4.1973e-06	4.2187e-06	297.53	85.446	67.047	19.585	4.6984e-06	27.771	-66.469	58.740	-13.779	-86.133	6.474	28.592	-86.508	-79.472	259.810	148.365	-79.547	-73.061	-72.788	-65.696	135.427	-66.641	-8191	255	
1512.277	1	1	0	0	0.15577	0.12371	0.18651	0.13651	0.1857	0.16807	0.11207	0.077542	0.20211	0.33457	0.27924	0.077234	0.23363	0.2057	0.16276	0.19516	-1.9813	-3.0021	-2.6333	-2.7833	-3.0083	-2.5812	-2.9313	-2.7958	-2.6083	-2.9667	-2.8875	-2.6937	-3.1125	-2.6083	-2.8125	-2.8187	-21.584	-51.540	37.100	-96.148	-33.650	-33.876	194.705	164.718	226.034	131.469	-94.628	-21.704	234.475	225.132	107.329	112.290	0.00012464	0.00017657	0.0002134	1130.1	6.895e-06	1.7516e-06	1195.2	235.07	5.6305e-06	3.0522e-06	298.09	84.719	66.497	19.229	9.4221e-06	27.034	0.00037648	0.00039558	0.00011781	1104.2	3.9709e-06	4.4343e-06	1178.6	234.49	4.0601e-06	4.4036e-06	296.93	85.453	66.873	19.682	4.4908e-06	27.705	20.669	112.030	-32.007	-86.143	34.303	261.676	-86.254	-79.281	-19.870	54.054	-79.994	-73.258	-72.581	-65.659	120.718	-66.128	-8191	255	
1512.398	1	1	0	0	0.10968	0.13	0.18608	0.23371	0.065328	0.20905	0.2941	0.1649	0.19182	0.14885	0.12799	0.18399	0.2697	0.096055	0.18287	0.066512	-2.0896	-2.9354	-2.6125	-2.7604	-2.9854	-2.3792	-2.8083	-2.9792	-2.3979	-2.7708	-2.7042	-2.4938	-2.9646	-2.7792	-2.6646	-3.0979	-56.993	235.297	147.147	37.599	-49.737	-26.069	238.865	167.924	62.496	95.518	188.697	-75.028	90.302	90.998	8.572	57.349	0.00023055	0.00016337	5.2332e-05	1128.5	4.692e-06	4.6453e-06	1189.9	236.01	4.4993e-06	3.2589e-06	296.99	84.556	65.81	19.039	2.2826e-06	27.038	0.00036728	0.00041105	0.00011197	1100.8	3.9491e-06	4.5794e-06	1173.9	234.82	4.1376e-06	4.6246e-06	296.34	85.426	66.726	19.682	4.4093e-06	27.661	6.955	110.165	-85.114	-86.496	34.859	64.812	-86.335	-79.220	115.077	72.819	-79.866	-72.936	-72.831	-65.550	64.587	-66.259	-8191	255	
1512.494	1	1	0	0	0.23175	0.19138	0.06726	0.19491	0.066828	0.10483	0.17667	0.19948	0.16981	0.21834	0.19908	0.19886	0.23166	0.13824	0.069255	0.1281	-2.1479	-2.8937	-2.8417	-2.5333	-2.8521	-2.6917	-2.6813	-3.0542	-2.5104	-2.7687	-2.9333	-2.5542	-3.0708	-2.5875	-2.5604	-3.0479	-89.001	6.728	212.195	-13.667	138.162	115.200	192.518	112.384	-46.880	103.807	119.739	14.336	-78.314	22.854	179.663	239.745	0.00024178	0.00031058	8.8799e-05	1135.6	5.3863e-06	1.9411e-06	1189	235.06	2.1895e-06	4.3823e-06	298.29	84.208	65.92	19.001	6.5282e-06	26.736	0.00037391	0.00041909	0.00010867	1104.2	4.1503e-06	4.6572e-06	1174.7	234.34	4.3116e-06	4.558e-06	295.35	85.038	66.963	19.599	4.2001e-06	27.523	1.604	11.367	-79.990	-86.412	88.169	142.420	-86.398	-79.282	21.798	172.763	-79.487	-72.715	-72.779	-65.878	29.627	-66.370	-8191	255	
1512.590	1	1	0	0	0.366	0.079987	0.19094	0.08616	0.062017	0.073855	0.28967	0.14476	0.23661	0.167	0.3421	0.20568	0.1459	0.13827	0.17639	0.24288	-2.1771	-2.675	-2.8	-2.4896	-2.8896	-2.5	-2.6292	-2.9437	-2.6	-2.7625	-2.8958	-2.6708	-2.8812	-2.7771	-2.5292	-3.1042	-80.356	254.545	51.739	135.902	255.229	-19.280	234.495	135.559	192.584	-70.910	-86.889	121.597	96.053	202.473	239.636	192.557	0.0002048	0.00050519	0.00014379	1126.2	1.9065e-07	3.1331e-06	1193.8	234.82	4.8e-06	7.0684e-06	296.61	84.439	66.246	19.034	3.4254e-06	26.792	0.00039765	0.00041875	0.00010535	1094.7	4.4289e-06	4.4761e-06	1172.5	233.9	4.4439e-06	4.453e-06	294.95	85.004	67.092	19.569	4.0716e-06	27.512	-11.397	-27.735	-21.973	-86.408	-53.484	59.004	-86.286	-79.434	1.897	47.558	-79.639	-73.102	-72.630	-65.902	167.049	-66.093	-8191	255	
1512.686	1	1	0	0	0.36115	0.13585	0.14983	0.18691	0.28531	0.14784	0.088575	0.075744	0.073522	0.1675	0.1823	0.081277	0.17459	0.23725	0.13222	0.16331	-2.1375	-2.5354	-2.9125	-2.5375	-2.7083	-2.7375	-2.6104	-3.0542	-2.4833	-2.4	-3.0708	-2.4125	-2.7896	-2.7396	-2.4208	-2.9292	-89.930	-63.989	43.131	251.145	-41.888	238.414	-40.155	168.018	-49.907	134.344	221.615	38.931	197.125	159.429	-36.537	200.051	1.9972e-05	0.00045679	4.2876e-05	1116.5	5.3564e-06	7.3737e-06	1189.9	234.94	2.4418e-06	2.0246e-06	296.07	84.358	66.296	18.947	5.1221e-06	26.865	0.00040388	0.00039482	9.902e-05	1093.3	4.4749e-06	4.202e-06	1170.6	234.1	4.5676e-06	4.2565e-06	294.28	85.151	67.155	19.572	4.0306e-06	27.578	-48.176	5.471	-23.112	-86.288	96.348	43.160	-86.505	-79.501	116.788	23.358	-80.058	-73.189	-72.786	-65.773	10.863	-66.132	-8191	255	
1512.782	1	1	0	0	0.22736	0.20221	0.056685	0.29429	0.21364	0.07303	0.11004	0.37943	0.10554	0.11729	0.15075	0.031087	0.13277	0.10295	0.11448	0.23506	-2.0438	-2.6063	-2.8542	-2.5521	-2.8	-2.7771	-2.6354	-3.0771	-2.6	-2.5146	-2.7646	-2.6146	-2.7167	-2.8021	-2.2646	-3.0062	-63.550	236.564	238.658	215.788	-93.828	-81.395	217.906	146.433	249.342	158.428	50.597	111.242	258.547	-56.190	149.804	137.155	0.00015981	0.00034008	0.00013697	1123.1	4.827e-06	1.6501e-06	1192.9	234.93	6.9781e-06	3.8021e-06	297.55	84.117	66.151	19.102	4.827e-06	26.903	0.00041597	0.00038989	9.7389e-05	1098.6	4.5703e-06	4.1706e-06	1171.3	234.19	4.5374e-06	4.2224e-06	294.68	85.309	67.03	19.512	3.9799e-06	27.719	231.702	-89.507	-76.019	-86.069	42.845	26.408	-86.289	-79.276	3.502	119.018	-79.945	-73.304	-72.698	-65.577	153.276	-66.375	-8191	255	
1512.878	1	1	0	0	0.16013	0.21383	0.21106	0.41328	0.12294	0.22527	0.19848	0.092339	0.15054	0.2725	0.13639	0.19684	0.099966	0.14081	0.10803	0.024165	-2.3438	-2.6021	-3.0167	-2.4833	-2.4875	-2.775	-2.65	-2.9771	-2.6521	-2.3187	-2.9813	-2.6417	-2.8875	-2.9833	-2.3771	-2.7125	217.474	249.702	21.689	-86.223	-31.562	173.355	224.501	233.303	221.167	169.633	-60.811	-73.041	81.331	-64.356	67.038	245.542	0.0001598	0.00043046	9.2692e-05	1126.9	4.1821e-06	1.9861e-07	1190.6	234.91	3.9693e-06	2.242e-06	297.38	84.292	66.096	18.9	1.9219e-06	26.826	0.00039899	0.00038168	9.9076e-05	1103.4	4.4397e-06	4.017e-06	1169.1	234.99	4.338e-06	4.1158e-06	295.51	85.396	66.843	19.472	4.1182e-06	27.756	20.916	-8.926	-56.687	-86.106	67.736	99.753	-86.335	-79.158	8.830	-4.478	-79.813	-73.215	-72.684	-65.934	60.778	-66.171	-8191	255	
1512.975	1	1	0	0	0.11077	0.14094	0.15836	0.048189	0.074643	0.19095	0.10724	0.38809	0.22639	0.30214	0.14351	0.28822	0.075513	0.35471	0.18746	0.31644	-2.1312	-2.3937	-2.975	-2.5417	-2.7729	-2.8563	-2.675	-2.6771	-2.6625	-2.3458	-2.9917	-2.5	-2.6208	-2.9271	-2.4979	-2.7021	-82.953	134.005	129.830	125.823	262.522	142.739	125.455	246.767	22.051	0.341	49.227	228.466	-85.251	-10.595	97.094	-73.778	0.0003056	0.00034426	0.00015015	1123.8	5.0038e-06	4.6153e-06	1191.4	235.68	7.0204e-07	1.689e-06	293.94	84.182	66.397	18.987	8.1028e-07	26.757	0.0003813	0.00037188	0.00010477	1103	4.2362e-06	3.8596e-06	1170.3	234.88	4.185e-06	4.0408e-06	294.65	85.422	66.938	19.425	4.3519e-06	27.771	0.541	-15.043	68.385	-86.461	77.411	32.097	-86.289	-79.378	88.571	113.017	-79.706	-72.997	-72.768	-65.801	157.773	-66.639	-8191	255	
1513.094	1	1	0	0	0.25344	0.27324	0.17042	0.27808	0.16398	0.19718	0.39455	0.1985	0.059523	0.14725	0.34892	0.047661	0.23179	0.083615	0.27322	0.2633	-2.475	-2.2979	-2.7354	-2.6875	-2.4896	-3.0062	-2.6208	-2.8312	-2.7625	-2.7354	-3.0042	-2.8021	-2.6146	-2.9771	-2.5187	-2.8021	-42.734	-45.663	75.373	17.047	261.474	-27.125	198.542	136.820	-95.511	-25.596	140.622	-65.161	244.949	164.895	-33.721	-93.807	0.00026089	0.00048133	0.00015029	1121.2	1.3763e-06	1.0182e-06	1190.9	235.64	1.262e-06	1.2768e-06	297.54	84.691	66.096	19.005	3.1796e-06	26.939	0.00038009	0.00037426	0.00011183	1103	4.2502e-06	3.9438e-06	1172.5	234.77	4.1007e-06	4.0793e-06	296.2	85.399	66.913	19.43	4.5757e-06	27.716	3.168	51.606	-15.945	-86.603	58.841	-83.924	-86.450	-79.503	204.525	-52.465	-80.001	-73.300	-72.387	-65.902	-52.041	-66.216	-8191	255	
1513.190	1	1	0	0	0.05089	0.34306	0.3047	0.22925	0.096894	0.19584	0.23296	0.19044	0.16691	0.067807	0.085269	0.18104	0.15745	0.28444	0.22816	0.042505	-2.5125	-2.4688	-2.7771	-2.6375	-2.3875	-3.2625	-2.7708	-2.7687	-2.9521	-2.4813	-2.8229	-2.8333	-2.6813	-3	-2.4938	-2.6458	97.571	258.441	-15.592	-26.922	-94.357	-41.467	168.348	224.552	-50.063	40.834	223.987	210.281	-49.877	236.100	226.967	-29.110	0.00014709	0.00023188	0.00015041	1124.9	3.3504e-06	2.3617e-06	1186.1	236.05	2.9994e-06	7.25e-07	297.78	84.369	66.094	18.946	4.1003e-06	26.82	0.0003654	0.00037672	0.00011514	1099.8	4.1403e-06	4.0516e-06	1171.7	234.78	4.0301e-06	4.2071e-06	295.97	85.138	66.699	19.545	4.6438e-06	27.627	15.018	-7.146	-40.244	-86.285	21.794	230.625	-86.394	-79.292	-85.648	70.181	-79.806	-73.122	-72.739	-66.009	29.702	-66.052	-8191	255	
1513.286	1	1	0	0	0.0043521	0.038654	0.38395	0.063061	0.050533	0.07933	0.01699	0.21935	0.063228	0.018699	0.17701	0.1001	0.068243	0.058441	0.26047	0.2016	-2.4083	-2.5812	-2.7667	-3.0354	-2.5333	-2.9604	-2.6188	-2.6479	-2.9104	-2.4792	-2.8917	-2.8354	-2.4833	-3.0167	-2.7146	-2.7062	28.384	217.759	14.017	87.692	-46.679	213.794	-65.986	162.135	249.222	77.758	213.002	-65.077	141.978	-28.792	210.307	182.708	0.00011796	0.00038143	9.9753e-05	1128.9	3.5079e-06	3.4443e-06	1192.1	234.09	5.5501e-06	4.8604e-06	296.49	84.535	66.467	18.972	2.2902e-06	26.948	0.00036382	0.00039944	0.00011791	1099.1	4.1188e-06	4.3562e-06	1173.9	234.07	3.9724e-06	4.5266e-06	295.75	85.243	66.834	19.573	4.5559e-06	27.605	-11.283	145.851	111.384	-86.154	16.979	41.962	-86.239	-79.389	-50.485	125.182	-79.724	-73.133	-72.820	-65.600	245.126	-66.514	-8191	255	
1513.406	1	1	0	0	0.17093	0.16454	0.22912	0.24072	0.14972	0.24151	0.3271	0.16772	0.054619	0.11361	0.27698	0.25672	0.071114	0.20246	0.14137	0.25213	-2.5208	-2.4208	-2.8125	-2.8167	-2.3187	-2.875	-2.9292	-2.6271	-2.9771	-2.7833	-2.6479	-2.9271	-2.5187	-2.9271	-2.9354	-2.5479	-42.457	53.088	214.392	-8.321	78.860	121.894	220.996	115.911	147.602	-64.507	145.658	-61.493	219.746	245.602	-54.732	-92.682	0.00018267	0.0002502	0.00018442	1135.2	1.322e-06	7.7149e-07	1186.1	235.02	8.3933e-06	6.8427e-06	297.43	84.407	66.284	18.849	1.7073e-06	26.75	0.00035875	0.00042371	0.00011591	1099.3	4.1345e-06	4.6339e-06	1171.6	234.08	4.0029e-06	4.7323e-06	295.52	84.993	66.83	19.58	4.3948e-06	27.605	16.287	-37.159	-25.481	-86.412	196.378	226.054	-86.392	-79.327	-60.221	-35.899	-79.938	-73.085	-72.989	-65.862	212.749	-66.616	-8191	255	
1513.478	1	1	0	0	0.042152	0.26265	0.13394	0.305	0.20218	0.18415	0.16157	0.053778	0.038345	0.38777	0.31477	0.16154	0.30319	0.17438	0.20488	0.21789	-2.5542	-2.6042	-2.4542	-2.9271	-2.5104	-2.775	-2.9062	-2.4688	-3.0354	-2.7208	-2.5979	-3.075	-2.7292	-2.9833	-2.8854	-2.5479	201.588	130.835	172.833	11.164	-83.199	-2.872	145.634	157.661	12.374	-86.993	233.653	248.079	202.656	120.158	27.860	252.006	0.00018078	0.00058662	0.00021193	1124.3	4.0765e-06	6.2482e-06	1186.2	235.21	3.9664e-06	1.3817e-06	297.21	84.197	65.931	18.867	2.6577e-06	26.795	0.00037675	0.00043009	0.00011288	1094.5	4.3334e-06	4.7999e-06	1170	234.2	4.2915e-06	4.7397e-06	295.11	84.901	66.912	19.615	4.3394e-06	27.585	-56.542	-11.957	-38.568	-86.350	196.025	69.439	-86.421	-79.638	109.872	64.191	-79.873	-73.176	-72.715	-65.951	-56.863	-66.118	-8191	255	
1513.574	1	1	0	0	0.14924	0.37905	0.068018	0.16041	0.24071	0.18987	0.19767	0.23448	0.075864	0.081058	0.25451	0.21381	0.096732	0.3502	0.36253	0.043746	-2.5896	-2.6667	-2.5667	-2.9583	-2.5583	-2.9229	-2.9479	-2.6312	-3.0438	-2.8458	-2.475	-2.9396	-2.7396	-2.8833	-2.6063	-2.4979	-52.027	-95.472	6.875	10.105	59.288	169.871	228.547	237.623	-57.459	-2.806	200.933	91.953	218.058	-72.240	-90.977	-90.493	0.00027866	0.00048681	2.8051e-05	1132.7	2.7908e-06	1.3053e-06	1188	235.05	4.1249e-06	2.747e-06	298.25	83.627	66.278	18.775	4.1951e-06	26.849	0.00040869	0.00042662	0.0001103	1096.3	4.6715e-06	4.7446e-06	1168.8	234.14	4.6901e-06	4.676e-06	295.5	84.748	67.093	19.493	4.3776e-06	27.566	-55.755	-32.675	261.590	-86.634	143.503	209.124	-86.619	-79.722	-60.692	88.375	-79.867	-73.123	-72.661	-65.692	16.897	-66.158	-8191	255	
1513.670	1	1	0	0	0.19177	0.10359	0.13145	0.081614	0.1581	0.10097	0.29183	0.085103	0.13327	0.085214	0.1346	0.21678	0.12868	0.14244	0.11466	0.056521	-2.4583	-2.7208	-2.4083	-2.9813	-2.7042	-2.7917	-3.0875	-2.4396	-2.7687	-2.95	-2.5792	-2.8667	-2.6708	-2.8375	-2.9979	-2.6396	-34.637	222.666	258.509	154.869	-72.029	140.661	205.296	-95.754	60.776	-6.774	200.934	-94.947	20.998	107.878	244.748	261.399	0.000312	0.00036655	0.00026394	1115.2	2.6949e-06	5.5764e-06	1184.1	234.51	7.4602e-06	4.4355e-06	294.39	83.164	65.376	18.701	4.5605e-06	26.615	0.00044965	0.00043205	0.00011446	1095.4	5.099e-06	4.7545e-06	1166.5	233.79	5.0934e-06	4.7237e-06	294.37	84.597	67.094	19.439	4.3568e-06	27.52	-20.361	-50.398	32.990	-86.413	108.314	50.119	-86.577	-79.324	16.484	25.014	-80.013	-73.309	-72.615	-65.673	-7.529	-66.373	-8191	255	
1513.791	1	1	0	0	0.090904	0.14985	0.18281	0.15211	0.15446	0.10819	0.23654	0.27389	0.10527	0.21378	0.1749	0.1345	0.16505	0.21787	0.23229	0.19236	-2.1479	-2.7646	-2.3333	-3.0979	-2.5187	-2.7583	-3.1937	-2.4833	-2.875	-2.8458	-2.7146	-2.9813	-2.7062	-2.6437	-2.9667	-2.5812	-50.545	233.040	-55.147	180.788	44.991	196.183	-49.284	149.699	191.984	-15.405	251.194	-12.185	177.505	198.299	-90.064	62.306	0.00029361	0.00046771	0.00018354	1115.2	1.3839e-06	5.6743e-06	1180.3	233.25	5.6186e-06	1.4017e-06	293.89	83.467	65.379	18.548	3.9347e-06	26.608	0.00046575	0.0004218	0.00011314	1098.9	5.0574e-06	4.7137e-06	1161.4	233.26	4.9693e-06	4.541e-06	293.25	84.719	66.488	19.272	4.2118e-06	27.545	-2.882	58.326	-28.132	-86.298	221.518	41.696	-86.286	-79.313	25.287	53.701	-79.975	-72.955	-72.766	-65.960	14.384	-66.099	-8191	255	
1513.887	1	1	0	0	0.13491	0.10875	0.075531	0.10547	0.05378	0.29792	0.28096	0.19127	0.067726	0.24902	0.028854	0.16463	0.11601	0.22669	0.13002	0.14196	-2.2	-2.8583	-2.2833	-2.7833	-2.7292	-2.6188	-3.0354	-2.6417	-2.6604	-2.9083	-2.625	-2.9375	-2.9271	-2.5938	-2.9396	-2.4625	107.561	-53.609	-72.189	-48.703	-42.404	50.489	172.783	213.449	206.997	13.942	79.600	159.251	-60.573	261.688	211.549	244.465	0.00023001	0.00035037	7.536e-05	1117.8	3.4584e-06	4.119e-06	1179.5	232.15	1.4907e-06	3.6274e-06	293.95	83.464	65.253	18.753	1.4451e-06	26.331	0.0004337	0.00039791	0.00010895	1099.6	4.6321e-06	4.4322e-06	1158.9	232.86	4.6341e-06	4.18e-06	292.84	84.531	66.205	19.268	4.2238e-06	27.385	-10.901	25.999	48.338	-86.388	3.206	-14.537	-86.248	-79.300	30.796	-42.235	-79.797	-73.271	-72.738	-66.017	49.236	-66.157	-8191	255	
1513.982	1	1	0	0	0.27004	0.075676	0.19741	0.28167	0.094048	0.18639	0.32162	0.063888	0.040768	0.1179	0.066636	0.19536	0.19117	0.088878	0.41157	0.09444	-2.2083	-2.9771	-2.3812	-2.7812	-2.7375	-2.6396	-2.9229	-2.8104	-2.7313	-3.0458	-2.6188	-2.8771	-2.7292	-2.4604	-2.9896	-2.6562	160.575	106.619	113.032	-39.787	-38.004	98.347	205.583	152.281	204.737	199.416	-45.374	118.157	-49.207	247.940	-87.241	197.517	0.00020186	0.00043635	7.5727e-05	1110.4	3.8702e-06	3.6865e-06	1173.7	232.95	4.2699e-06	3.5767e-06	292	83.415	65.121	18.662	3.0668e-06	26.446	0.00041244	0.00037858	0.00011282	1094.8	4.4819e-06	4.2784e-06	1155.9	232.45	4.4634e-06	4.1493e-06	291.85	84.461	65.968	19.207	4.487e-06	27.336	20.567	3.528	-55.099	-86.152	87.196	71.885	-86.356	-79.537	221.061	61.682	-79.719	-72.928	-72.557	-65.794	123.383	-66.391	-8191	255	
1514.055	1	1	0	0	0.16786	0.16935	0.24474	0.11493	0.13592	0.19203	0.36044	0.22002	0.2181	0.023705	0.10795	0.13135	0.20768	0.13537	0.21019	0.027182	-2.1229	-2.8875	-2.6312	-2.7188	-2.8771	-2.4938	-3.1	-2.825	-2.6396	-3.0104	-2.6167	-2.6104	-2.8833	-2.4979	-3.0042	-2.7375	-66.080	-75.624	155.892	100.606	205.855	145.980	199.315	-96.383	-47.911	-5.000	-73.513	261.099	165.756	-19.792	251.509	245.866	8.6179e-05	0.00020589	9.1368e-05	1103.6	3.0195e-06	8.4588e-06	1171.7	231.84	4.2158e-06	8.7323e-06	292.4	82.929	64.903	18.598	4.0474e-06	26.504	0.00039488	0.00037254	0.00011783	1088.5	4.2215e-06	4.0645e-06	1154.9	231.76	4.3414e-06	4.0126e-06	291.75	83.908	65.708	19.09	4.5322e-06	27.145	18.047	-45.733	0.409	-86.361	18.619	3.419	-86.516	-79.142	56.618	77.032	-80.145	-73.244	-72.630	-65.809	114.834	-66.595	-8191	255	
1514.174	1	1	0	0	0.38202	0.053179	0.16592	0.32248	0.10201	0.14589	0.17988	0.062882	0.23475	0.15239	0.29105	0.20111	0.051475	0.16256	0.19051	0.24788	-2.2354	-2.8354	-2.5958	-2.8312	-2.9604	-2.5604	-3.1562	-2.9125	-2.4917	-2.8417	-2.725	-2.8854	-2.7188	-2.5479	-2.7417	-2.7729	188.957	157.128	-59.310	75.844	135.740	160.499	154.766	-68.392	-95.163	-72.295	237.914	17.261	-18.360	-90.235	200.091	226.281	0.00017772	5.0057e-05	4.9783e-05	1107.3	4.9138e-06	6.3377e-06	1166.9	231.06	1.0894e-06	1.8749e-06	292.07	82.753	64.765	18.589	4.8005e-06	26.44	0.00037895	0.00036362	0.00011784	1084	4.0331e-06	4.1029e-06	1150.6	230.48	4.085e-06	4.0429e-06	291.73	83.95	65.443	19.11	4.5747e-06	27.046	10.915	-96.767	107.625	-86.286	33.679	48.873	-86.271	-79.290	-6.527	181.841	-79.475	-73.052	-72.696	-65.650	119.336	-66.180	-8191	255	
1514.270	1	1	0	0	0.15111	0.15075	0.0576	0.27561	0.050395	0.21988	0.4116	0.32027	0.15175	0.08812	0.061897	0.17642	0.26446	0.0047383	0.26982	0.17788	-2.1188	-3.0333	-2.6417	-2.6813	-2.9104	-2.6375	-3.0479	-2.9729	-2.5479	-3.0875	-2.7229	-2.5667	-3.0375	-2.6271	-3.0083	-2.9313	-65.842	9.098	203.458	167.338	113.236	37.798	227.363	171.714	148.390	-76.974	21.455	140.843	245.789	212.118	245.715	239.044	0.00021376	0.00045757	8.1162e-05	1102.5	2.2681e-06	1.3599e-06	1167.5	230.6	2.4327e-06	1.9084e-06	293.17	82.982	64.808	18.425	6.089e-06	26.408	0.00036075	0.00038471	0.00011607	1077.7	3.8504e-06	4.2974e-06	1147.8	230.13	3.9459e-06	4.2737e-06	291.18	83.481	65.277	19.146	4.3262e-06	26.96	33.013	217.542	-4.435	-85.839	43.524	154.661	-86.076	-79.351	2.422	21.604	-79.564	-72.899	-72.564	-66.094	1.822	-65.998	-8191	255	
1514.366	1	1	0	0	0.18512	0.28373	0.21298	0.27104	0.17483	0.096668	0.14858	0.076155	0.04445	0.30137	0.10761	0.18818	0.14134	0.17929	0.26104	0.23655	-1.9062	-2.7104	-2.6479	-2.3625	-2.9813	-2.7062	-2.7458	-2.9146	-2.5062	-2.8688	-2.7167	-2.5104	-2.9771	-2.5687	-2.4313	-2.9479	214.398	227.718	206.592	136.275	8.564	82.430	219.508	226.461	238.779	238.759	142.184	184.295	214.774	262.177	29.555	249.123	0.00022813	0.0002152	8.8274e-05	1102	2.1169e-06	3.4256e-06	1168	231.64	6.1381e-06	5.295e-06	289.53	83.515	64.519	18.536	4.8862e-06	26.083	0.0003508	0.00039714	0.00010744	1071.5	3.812e-06	4.3989e-06	1145.6	229.72	3.9543e-06	4.3984e-06	289.45	83.579	65.187	19.134	4.2271e-06	26.901	-60.477	164.986	49.827	-86.153	26.085	-1.117	-86.193	-79.261	-39.142	48.823	-79.510	-72.751	-72.581	-65.787	-18.767	-66.011	-8191	255	
1514.487	1	1	0	0	0.18314	0.13724	0.051453	0.067135	0.077333	0.066886	0.21323	0.14682	0.07115	0.086111	0.15358	0.17699	0.48709	0.13246	0.20096	0.11128	-2.0875	-2.8063	-2.6958	-2.4521	-2.7438	-2.6833	-2.8896	-2.9542	-2.4375	-2.8812	-2.9688	-2.4792	-2.8833	-2.5646	-2.4875	-2.9208	185.429	117.265	29.807	-38.477	191.431	-32.343	209.162	24.270	47.759	91.994	-7.400	-96.816	-53.281	250.943	148.079	7.911	0.00038975	0.00027098	0.0001556	1096.4	1.8039e-06	2.7019e-06	1162	229.88	2.1952e-06	1.2985e-06	292.38	82.579	64.847	18.455	3.084e-06	26.283	0.00036801	0.00040633	0.00010535	1070.7	4.0617e-06	4.443e-06	1144.6	229.25	4.1394e-06	4.4563e-06	289.53	83.311	65.677	19.125	4.1293e-06	26.907	-20.865	-7.417	0.828	-86.308	193.411	-25.263	-86.286	-79.360	192.466	160.442	-79.533	-73.303	-72.269	-65.801	75.011	-66.207	-8191	255	
1514.583	1	1	0	0	0.20043	0.1332	0.16901	0.13703	0.19914	0.069055	0.25174	0.17156	0.086311	0.018792	0.15579	0.2008	0.076229	0.18653	0.21965	0.078596	-2.2604	-2.8271	-2.7562	-2.3625	-2.9146	-2.5583	-2.7021	-2.9167	-2.4688	-2.6708	-2.9333	-2.5021	-2.9229	-2.7708	-2.675	-2.9125	237.355	-64.899	-23.534	-42.999	-78.144	159.850	188.436	195.942	59.365	199.422	249.796	174.100	126.643	-29.384	9.783	9.773	0.00038507	0.000703	8.7852e-05	1093.8	4.2341e-06	2.9241e-06	1164	229.79	2.9434e-06	1.3123e-06	292.45	83.377	65.018	18.403	7.5721e-06	26.349	0.00038862	0.00040324	0.00010156	1068.1	4.2456e-06	4.3076e-06	1144.8	229.2	4.3612e-06	4.296e-06	289.81	83.446	65.775	19.053	3.9261e-06	26.873	-29.537	-19.001	-62.303	-86.344	102.765	78.201	-86.251	-79.487	187.286	111.034	-79.580	-73.211	-72.639	-65.901	63.757	-66.513	-8191	255	
1514.655	1	1	0	0	0.084784	0.015139	0.29797	0.17257	0.1092	0.13053	0.19546	0.22706	0.11714	0.11115	0.19218	0.20586	0.31597	0.035327	0.15074	0.13593	-2.1	-2.6104	-3.0146	-2.4896	-2.8604	-2.8396	-2.575	-2.9229	-2.6083	-2.625	-3.0979	-2.4938	-2.8896	-2.7417	-2.3583	-3.0125	-73.429	-50.563	83.744	101.490	4.114	-61.383	-80.474	-66.386	-69.857	-58.364	-85.138	143.872	199.486	203.233	238.498	27.276	0.00028979	0.00085868	4.946e-05	1100.3	2.9737e-06	3.1679e-06	1161.7	231.29	2.5416e-06	3.2366e-06	291.46	82.647	64.877	18.545	2.3279e-06	26.321	0.00039366	0.00037613	9.5575e-05	1069.1	4.2943e-06	3.9737e-06	1141.1	229.47	4.3052e-06	4.0589e-06	288.88	83.343	65.711	18.969	3.71e-06	26.915	-31.668	-51.235	152.629	-86.665	23.173	62.729	-86.298	-79.164	29.948	22.355	-79.893	-73.136	-72.897	-65.500	257.317	-66.368	-8191	255	
1514.775	1	1	0	0	0.23402	0.066599	0.15149	0.19997	0.28353	0.064126	0.16933	0.075541	0.17315	0.24918	0.13248	0.26434	0.22187	0.10178	0.28858	0.27978	-2.3021	-2.5812	-2.9458	-2.4938	-2.7396	-2.7333	-2.425	-2.8292	-2.5854	-2.6271	-3.0583	-2.4688	-2.7833	-2.9604	-2.5563	-2.9646	203.771	-48.523	136.292	230.581	-43.625	69.062	237.300	251.294	-70.856	259.039	231.638	158.157	148.668	94.515	-60.787	230.556	0.00022679	0.00012551	0.00021505	1096.4	4.3319e-06	4.0882e-06	1161.2	230.31	3.6036e-06	7.3897e-06	290.71	82.673	64.475	18.464	2.9994e-06	26.351	0.00037374	0.00035049	8.8086e-05	1063.7	4.0384e-06	3.6299e-06	1138.1	228.69	3.9278e-06	3.6173e-06	287.67	83.204	65.104	18.878	3.3931e-06	26.854	-12.773	-56.992	-30.741	-86.308	130.684	23.778	-86.454	-79.214	175.300	42.031	-79.460	-73.337	-72.703	-65.221	105.015	-66.410	-8191	255	
#DATA ENDS
