BOXY.EXE: ISS Imagent and Oximeter Data Acquisition Program Version 0.80
Ascii Record File

#ACQ INFORMATION
2  Detector Channels 
16  External MUX Channels 
1  Auxiliary Channels 
5000  Waveform (CCF) Frequency (Hz)
1  Waveforms Skipped 
30  Waveforms Averaged 
1  Cycles Averaged 
16  Acquisitions per Waveform 
10.0806  Updata Rate (Hz) 

#FILE INFORMATION
TRUE -- External MUX Channel results are PARSED.
FALSE -- AC DC and Phase are NOT grouped.
TRUE -- Companion Program Settings File CREATED.
FALSE -- AC data not excluded
FALSE -- DC data not excluded
FALSE -- Phase data not excluded
FALSE -- Auxillary Chn. data not excluded
Tab delimiters

#CALIBRATION STATE
TRUE -- Waveform Calibration Values APPLIED.


#AUX CALIBRATION VALUES
Val Type	aux-1	

Term	1.0000e+00	
Factor	0.0000e+00	


#WF CALIBRATION VALUES
A = Detector Channel
Val Type	A-AC1	A-AC2	A-AC3	A-AC4	A-AC5	A-AC6	A-AC7	A-AC8	A-AC9	A-AC10	A-AC11	A-AC12	A-AC13	A-AC14	A-AC15	A-AC16	A-DC1	A-DC2	A-DC3	A-DC4	A-DC5	A-DC6	A-DC7	A-DC8	A-DC9	A-DC10	A-DC11	A-DC12	A-DC13	A-DC14	A-DC15	A-DC16	A-Ph1	A-Ph2	A-Ph3	A-Ph4	A-Ph5	A-Ph6	A-Ph7	A-Ph8	A-Ph9	A-Ph10	A-Ph11	A-Ph12	A-Ph13	A-Ph14	A-Ph15	A-Ph16	

Term	0.00000e+00	0.00000e+00	0.00000e+00	0.00000e+00	0.00000e+00	0.00000e+00	0.00000e+00	0.00000e+00	0.00000e+00	0.00000e+00	0.00000e+00	0.00000e+00	0.00000e+00	0.00000e+00	0.00000e+00	0.00000e+00	0.00000e+00	0.00000e+00	0.00000e+00	0.00000e+00	0.00000e+00	0.00000e+00	0.00000e+00	0.00000e+00	0.00000e+00	0.00000e+00	0.00000e+00	0.00000e+00	0.00000e+00	0.00000e+00	0.00000e+00	0.00000e+00	0.00000e+00	0.00000e+00	0.00000e+00	0.00000e+00	0.00000e+00	0.00000e+00	0.00000e+00	0.00000e+00	0.00000e+00	0.00000e+00	0.00000e+00	0.00000e+00	0.00000e+00	0.00000e+00	0.00000e+00	0.00000e+00	
Factor	1.00000e+00	1.00000e+00	1.00000e+00	1.00000e+00	1.00000e+00	1.00000e+00	1.00000e+00	1.00000e+00	1.00000e+00	1.00000e+00	1.00000e+00	1.00000e+00	1.00000e+00	1.00000e+00	1.00000e+00	1.00000e+00	1.00000e+00	1.00000e+00	1.00000e+00	1.00000e+00	1.00000e+00	1.00000e+00	1.00000e+00	1.00000e+00	1.00000e+00	1.00000e+00	1.00000e+00	1.00000e+00	1.00000e+00	1.00000e+00	1.00000e+00	1.00000e+00	X	X	X	X	X	X	X	X	X	X	X	X	X	X	X	X	

B = Detector Channel
Val Type	B-AC1	B-AC2	B-AC3	B-AC4	B-AC5	B-AC6	B-AC7	B-AC8	B-AC9	B-AC10	B-AC11	B-AC12	B-AC13	B-AC14	B-AC15	B-AC16	B-DC1	B-DC2	B-DC3	B-DC4	B-DC5	B-DC6	B-DC7	B-DC8	B-DC9	B-DC10	B-DC11	B-DC12	B-DC13	B-DC14	B-DC15	B-DC16	B-Ph1	B-Ph2	B-Ph3	B-Ph4	B-Ph5	B-Ph6	B-Ph7	B-Ph8	B-Ph9	B-Ph10	B-Ph11	B-Ph12	B-Ph13	B-Ph14	B-Ph15	B-Ph16	

Term	0.00000e+00	0.00000e+00	0.00000e+00	0.00000e+00	0.00000e+00	0.00000e+00	0.00000e+00	0.00000e+00	0.00000e+00	0.00000e+00	0.00000e+00	0.00000e+00	0.00000e+00	0.00000e+00	0.00000e+00	0.00000e+00	0.00000e+00	0.00000e+00	0.00000e+00	0.00000e+00	0.00000e+00	0.00000e+00	0.00000e+00	0.00000e+00	0.00000e+00	0.00000e+00	0.00000e+00	0.00000e+00	0.00000e+00	0.00000e+00	0.00000e+00	0.00000e+00	2.53724e+01	-1.25825e+02	-1.32423e+02	-1.86157e+02	-5.31231e+01	-7.74207e+01	-1.59021e+02	-1.62015e+02	-9.81342e+01	-6.42266e+01	-1.73719e+02	-1.69925e+02	-1.79918e+02	-1.77120e+02	-6.73402e+01	-1.50188e+02	
Factor	4.43643e-05	1.31752e-04	3.84766e-05	6.00296e-01	1.09162e-06	1.23883e-06	1.58776e-01	4.81384e-02	1.60025e-06	1.38813e-06	8.39062e-02	2.75674e-02	2.39658e-02	9.07276e-03	1.49700e-06	1.30833e-02	1.61200e-06	1.67637e-06	4.65165e-07	2.83808e-01	1.83225e-08	1.83332e-08	7.47258e-02	2.41391e-02	1.82575e-08	1.83873e-08	4.04860e-02	1.32768e-02	1.20086e-02	4.53932e-03	1.82600e-08	6.30792e-03	X	X	X	X	X	X	X	X	X	X	X	X	X	X	X	X	



#DISTANCE SETTINGS
A = Detector Channel
A-1	A-2	A-3	A-4	A-5	A-6	A-7	A-8	A-9	A-10	A-11	A-12	A-13	A-14	A-15	A-16	

2.5000e+00	3.0000e+00	2.5000e+00	3.0000e+00	2.0000e+00	3.0000e+00	1.5000e+00	3.0000e+00	3.0000e+00	3.0000e+00	3.0000e+00	3.0000e+00	3.0000e+00	3.0000e+00	1.5000e+00	3.0000e+00	

B = Detector Channel
B-1	B-2	B-3	B-4	B-5	B-6	B-7	B-8	B-9	B-10	B-11	B-12	B-13	B-14	B-15	B-16	

1.0000e+01	1.0000e+01	1.0000e+01	1.4400e+00	1.0000e+01	1.0000e+01	1.5100e+00	1.9400e+00	1.0000e+01	1.0000e+01	1.9900e+00	2.4900e+00	2.4100e+00	2.9000e+00	1.0000e+01	2.9800e+00	




#DATA BEGINS
time	group	step	mark	flag	A-AC1	A-AC2	A-AC3	A-AC4	A-AC5	A-AC6	A-AC7	A-AC8	A-AC9	A-AC10	A-AC11	A-AC12	A-AC13	A-AC14	A-AC15	A-AC16	A-DC1	A-DC2	A-DC3	A-DC4	A-DC5	A-DC6	A-DC7	A-DC8	A-DC9	A-DC10	A-DC11	A-DC12	A-DC13	A-DC14	A-DC15	A-DC16	A-Ph1	A-Ph2	A-Ph3	A-Ph4	A-Ph5	A-Ph6	A-Ph7	A-Ph8	A-Ph9	A-Ph10	A-Ph11	A-Ph12	A-Ph13	A-Ph14	A-Ph15	A-Ph16	B-AC1	B-AC2	B-AC3	B-AC4	B-AC5	B-AC6	B-AC7	B-AC8	B-AC9	B-AC10	B-AC11	B-AC12	B-AC13	B-AC14	B-AC15	B-AC16	B-DC1	B-DC2	B-DC3	B-DC4	B-DC5	B-DC6	B-DC7	B-DC8	B-DC9	B-DC10	B-DC11	B-DC12	B-DC13	B-DC14	B-DC15	B-DC16	B-Ph1	B-Ph2	B-Ph3	B-Ph4	B-Ph5	B-Ph6	B-Ph7	B-Ph8	B-Ph9	B-Ph10	B-Ph11	B-Ph12	B-Ph13	B-Ph14	B-Ph15	B-Ph16	aux-1	digaux	

1887.024	1	1	0	512	0.20773	0.18931	0.2182	0.29528	0.21784	0.069846	0.16422	0.19386	0.11643	0.032792	0.2246	0.2401	0.25958	0.17345	0.1128	0.31046	-2.2667	-2.7896	-2.9229	-2.3646	-3.0667	-2.7542	-2.8375	-3.1917	-2.5979	-3.0104	-3.0208	-2.7271	-2.9521	-2.9542	-2.6813	-3.1208	163.071	-57.675	246.959	-29.628	148.873	194.538	228.291	195.537	80.786	216.865	143.627	155.499	175.426	-99.054	92.383	184.641	0.0012237	0.0017108	0.00075949	751.74	1.2094e-05	2.1415e-05	883.33	291.19	2.5432e-05	9.2418e-06	382.37	153.27	111.47	44.091	6.0796e-06	62.33	0.0026221	0.0029045	0.00068959	1035.5	2.9798e-05	3.1005e-05	896.48	293.13	3.0482e-05	3.0847e-05	396.88	153.98	118.95	46.701	2.6639e-05	63.985	-32.710	-62.194	11.036	-86.393	220.712	82.480	-88.651	-82.635	174.822	11.723	-84.609	-80.725	-78.089	-74.594	99.124	-77.678	-8191	255	
1887.120	1	1	0	0	0.3365	0.15797	0.17873	0.27747	0.14624	0.18423	0.023215	0.094494	0.16004	0.10087	0.11606	0.30831	0.13476	0.131	0.12272	0.18176	-2.1208	-2.8229	-3.0021	-2.6792	-3.1396	-2.8333	-2.8875	-3.0229	-2.7833	-2.7604	-3.1333	-2.6042	-2.875	-2.7125	-2.7542	-3.0167	180.955	53.622	-55.394	171.205	-36.544	54.903	-43.341	229.057	239.103	239.895	143.167	-99.541	-74.137	246.451	154.394	197.024	9.3326e-05	0.0023042	0.00045514	749.63	2.9824e-06	3.5274e-06	888.01	290.35	7.3193e-06	3.8379e-05	385.72	153.33	112.34	44.226	2.1807e-05	62.695	0.0027661	0.0027198	0.00065464	1041.2	3.1543e-05	2.8713e-05	898.52	295.05	3.1518e-05	2.8642e-05	397.06	156.35	120.3	46.184	2.5833e-05	64.732	206.963	12.278	5.392	-87.545	-31.821	61.887	-88.200	-82.532	14.282	28.976	-85.300	-80.718	-78.363	-74.615	123.658	-78.013	-8191	255	
1887.239	1	1	0	0	0.12347	0.15269	0.13462	0.286	0.21769	0.24534	0.31317	0.15509	0.15259	0.12941	0.032715	0.051775	0.31984	0.24303	0.15816	0.061402	-2.2792	-2.7917	-2.9021	-2.8271	-2.8479	-2.9062	-2.7417	-2.8312	-2.75	-2.7396	-3.2083	-2.6583	-2.9479	-3.025	-2.5583	-3.1792	112.513	195.087	8.786	-96.897	53.108	25.042	143.141	-95.463	-58.181	34.722	-75.932	186.092	176.621	226.303	211.670	-0.804	0.0005946	0.0006017	0.00060251	738.56	8.7823e-06	2.9754e-06	881.05	291.85	1.2763e-05	2.3738e-05	385.22	152.05	111.48	43.861	1.0661e-05	61.26	0.0028063	0.0025503	0.00063449	1074	3.1538e-05	2.7071e-05	893.57	299.33	3.09e-05	2.7682e-05	394.31	156.59	119.11	45.408	2.5498e-05	64.645	235.711	36.835	-21.989	-87.141	143.826	26.781	-88.345	-82.760	-9.764	-15.415	-84.850	-80.797	-78.097	-74.530	214.678	-77.618	-8191	255	
1887.335	1	1	0	0	0.046118	0.25072	0.30281	0.021621	0.13965	0.12452	0.09151	0.34497	0.15751	0.1186	0.14297	0.21721	0.26571	0.024137	0.079362	0.21134	-2.3542	-2.7375	-3.0083	-2.6375	-2.75	-3.1042	-2.8146	-2.9521	-2.775	-2.6625	-3.1667	-2.7	-3.0458	-3.1271	-2.6104	-3.0563	-11.778	215.727	153.226	17.680	120.203	188.354	132.315	235.303	169.569	23.092	222.947	250.742	252.578	-93.979	15.141	233.400	0.00021691	0.0024618	0.00037573	726.09	1.0334e-05	1.5207e-05	873.52	289.26	3.3218e-05	1.1413e-05	377.81	150.37	110.46	43.709	2.7455e-06	61.509	0.0026862	0.0024817	0.00063038	1099.9	2.9895e-05	2.5881e-05	883.52	299.5	2.8925e-05	2.6431e-05	390.55	156.51	116.97	44.999	2.6431e-05	65.369	81.927	-58.953	256.814	-86.668	62.766	8.424	-88.923	-82.493	27.747	45.775	-85.036	-80.561	-77.937	-74.453	227.120	-77.744	-8191	255	
1887.431	1	1	0	0	0.16471	0.10239	0.175	0.041081	0.12679	0.074541	0.021071	0.27654	0.12142	0.22778	0.31648	0.1623	0.26832	0.30031	0.11696	0.038233	-2.4813	-2.6479	-3.0333	-2.7833	-2.7792	-3.0833	-2.7604	-3.1521	-2.9938	-2.5479	-3.1667	-2.9813	-2.9188	-2.925	-2.6271	-2.8917	46.167	144.876	-39.385	184.104	-71.840	-12.073	156.963	189.534	244.827	-34.285	142.834	-84.272	215.239	193.083	240.052	132.257	3.2075e-05	0.00060312	0.00014841	748.56	1.8539e-05	1.3473e-05	875.8	290.26	1.893e-05	4.5253e-06	382.24	152.76	110.98	43.997	1.4012e-05	62.534	0.0024959	0.0023957	0.0006689	1122.6	2.8097e-05	2.507e-05	896.48	302.23	2.7576e-05	2.612e-05	400.54	158.02	116.9	45.174	2.9261e-05	65.806	95.689	112.013	218.994	-87.837	80.721	59.901	-88.487	-82.504	47.641	4.287	-84.989	-80.708	-78.649	-74.444	183.876	-78.075	-8191	255	
1887.527	1	1	0	0	0.052789	0.10679	0.15907	0.22198	0.2638	0.15044	0.20325	0.11651	0.17718	0.091562	0.17692	0.12072	0.31434	0.13828	0.16244	0.17804	-2.6208	-2.6	-3.0479	-2.6896	-2.6271	-3.0958	-2.7438	-3.175	-2.8208	-2.6354	-3.3042	-2.8667	-2.7396	-3.1333	-2.7438	-2.9146	-86.103	236.812	197.858	198.635	-9.122	34.587	-48.501	96.440	53.789	7.129	201.205	186.697	236.497	215.262	-14.822	183.214	0.00018663	0.0024541	0.00017358	754.9	1.7177e-05	6.2742e-06	891.06	294.27	1.4938e-06	3.6603e-06	385.1	152.88	112.88	45.056	1.115e-05	63.027	0.0023629	0.0023872	0.00073949	1108.9	2.705e-05	2.4605e-05	916.25	302.12	2.609e-05	2.5913e-05	408.97	157.62	117.07	45.946	3.0977e-05	65.888	144.250	13.519	205.668	-86.854	13.358	-22.054	-88.537	-82.522	178.876	-90.718	-84.972	-80.766	-78.385	-74.348	134.394	-77.924	-8191	255	
1887.623	1	1	0	0	0.099007	0.14804	0.056808	0.13955	0.088218	0.20987	0.39849	0.26563	0.16595	0.18164	0.10763	0.19463	0.31562	0.2653	0.041899	0.20007	-2.6521	-2.6854	-2.9417	-2.9	-2.6	-2.9813	-2.6375	-3.0417	-3.0792	-2.6396	-3.2125	-2.8125	-2.9083	-3.0042	-2.9062	-2.7458	174.902	116.979	81.892	182.430	1.559	93.419	171.424	156.084	120.740	-64.743	104.871	-79.241	-86.986	184.198	179.310	225.716	0.00062401	0.00033779	0.00022242	758.21	1.2266e-05	1.1046e-05	887.18	293.78	1.7379e-05	4.5375e-06	383.74	153.3	111.03	43.164	2.0105e-07	61.667	0.0022682	0.0023817	0.00078418	1075.2	2.618e-05	2.5599e-05	920.4	300.41	2.4878e-05	2.7174e-05	408.37	155.51	115.7	45.408	3.1547e-05	63.931	-33.409	253.362	166.238	-87.500	47.791	189.335	-88.200	-82.442	59.357	243.111	-84.771	-80.854	-78.246	-74.593	171.847	-77.862	-8191	255	
1887.719	1	1	0	0	0.094526	0.3347	0.24555	0.11939	0.20404	0.055075	0.35631	0.30359	0.076155	0.12588	0.23496	0.28339	0.12148	0.14193	0.20535	0.20582	-2.6417	-2.6625	-2.8292	-2.9313	-2.7208	-3.3042	-2.9167	-2.5729	-3.2271	-2.4521	-3.0271	-3.0292	-2.7	-2.9688	-2.8292	-2.7229	163.106	206.648	-3.651	249.751	150.561	-16.077	187.274	215.983	189.214	243.060	217.464	217.620	52.013	242.698	56.430	242.183	0.0009236	0.0013171	0.00010704	735.53	1.112e-05	1.2734e-05	873.26	289.13	2.0603e-05	3.0397e-06	379.36	150.75	110.15	42.764	2.055e-05	60.595	0.0022203	0.0026214	0.00080813	1049.7	2.6166e-05	2.9097e-05	906.66	295.08	2.5146e-05	3.0442e-05	402.98	153.4	115.16	45.699	3.0883e-05	62.912	-44.177	142.132	-2.577	-87.585	58.416	168.244	-88.380	-82.526	-77.388	-39.089	-84.830	-80.510	-78.188	-74.513	-14.903	-77.349	-8191	255	
1887.815	1	1	0	0	0.20781	0.011864	0.24401	0.18033	0.042406	0.044012	0.092524	0.10501	0.22858	0.26423	0.22693	0.1539	0.14869	0.37266	0.04522	0.25171	-2.5812	-2.6625	-2.8688	-2.8542	-2.5542	-2.9271	-2.8063	-2.7917	-3.0875	-2.6375	-2.7271	-2.9979	-2.7896	-3.1437	-2.8312	-2.7542	215.278	88.186	201.584	-31.421	65.762	19.682	198.493	-1.684	257.415	-51.447	232.920	245.565	256.381	213.857	187.356	203.355	0.00078315	0.00078524	0.00087872	728.84	5.5582e-06	4.3821e-06	870.53	292.54	1.2089e-05	6.8447e-06	380.2	152.23	111.17	43.564	2.0801e-05	61.389	0.0022526	0.0028771	0.00077967	1031.9	2.6488e-05	3.1429e-05	896.95	294.93	2.5562e-05	3.184e-05	400.15	153.08	116.62	46.682	2.8185e-05	63.3	-44.107	59.185	-52.053	-87.535	-96.310	-96.033	-88.295	-82.528	134.538	221.017	-84.624	-80.715	-78.721	-74.478	11.031	-77.339	-8191	255	
1887.934	1	1	0	0	0.11823	0.074372	0.14412	0.13637	0.28242	0.18182	0.34231	0.14809	0.24118	0.13531	0.16559	0.10786	0.11523	0.25819	0.099769	0.17195	-2.6792	-2.4854	-2.7792	-3.1188	-2.6583	-2.9771	-3.025	-2.6729	-2.7833	-2.9188	-2.7667	-3.0917	-2.6417	-3.0771	-2.9625	-2.5729	105.304	-12.009	-85.499	246.013	73.647	152.861	175.627	213.472	228.940	164.324	-87.170	-68.983	53.189	252.072	183.510	202.974	0.0010799	0.0015426	0.00047619	753.24	1.387e-05	9.1553e-06	882.08	290.6	1.736e-05	2.556e-05	386.4	154.21	112.65	44.246	1.4338e-05	62.385	0.002366	0.0029347	0.00072895	1019.4	2.8131e-05	3.1982e-05	898.59	294.75	2.7661e-05	3.174e-05	400.57	154.25	119.03	47.111	2.661e-05	63.875	-29.066	-80.486	-63.240	-87.315	214.195	43.496	-88.116	-82.412	-88.598	71.671	-85.072	-80.905	-78.665	-74.547	9.902	-77.896	-8191	255	
1888.030	1	1	0	0	0.17561	0.070506	0.10737	0.2441	0.12292	0.12074	0.35606	0.12589	0.017142	0.064309	0.14333	0.14748	0.16814	0.070557	0.13603	0.33682	-2.6	-2.9333	-2.4792	-2.7938	-2.7292	-2.8146	-3.0042	-2.6813	-3.1521	-2.7771	-2.8083	-3.0125	-2.8396	-3.0917	-2.9479	-2.7812	237.251	128.353	68.771	-72.509	184.822	-18.831	241.637	-95.935	5.993	156.681	196.625	-92.523	213.446	171.473	66.732	227.260	0.0014465	0.0027951	0.00036838	758.25	6.0251e-06	3.0766e-05	891.47	293.59	2.4123e-05	7.5929e-06	384.22	153.13	111.74	44.16	1.6321e-07	61.76	0.0025765	0.0028111	0.0006936	1018.7	3.0411e-05	3.0805e-05	899.35	295.89	3.0438e-05	3.0262e-05	398.29	154.27	120.28	46.651	2.5773e-05	63.507	-42.434	9.806	-43.200	-87.152	204.001	85.307	-88.583	-82.496	136.990	26.419	-84.679	-81.154	-78.266	-74.651	71.652	-77.727	-8191	255	
1888.127	1	1	0	0	0.23187	0.10471	0.10737	0.11977	0.131	0.12088	0.18313	0.14059	0.19212	0.19641	0.19818	0.067236	0.078128	0.092479	0.25064	0.2274	-2.7333	-2.8979	-2.4146	-3.0875	-2.9062	-2.6417	-3.0542	-2.7	-3.025	-2.8792	-2.8187	-3.4229	-2.8333	-2.8333	-3.075	-2.825	-66.784	-30.624	32.314	48.456	145.953	80.255	197.561	146.164	40.914	134.289	-6.420	91.610	-24.883	-95.443	105.633	186.104	0.00033445	0.0018828	0.00042305	740.43	1.3361e-05	1.9014e-05	874.28	288.86	8.5655e-06	1.9189e-05	377.92	150.46	112.19	43.268	1.696e-05	60.484	0.0027809	0.0026429	0.00067061	1034.7	3.184e-05	2.8947e-05	881.54	294.88	3.1838e-05	2.7963e-05	390.76	153.8	120.03	45.558	2.5093e-05	63.162	31.023	-10.561	151.908	-88.163	-76.334	65.444	-88.521	-82.706	2.578	24.259	-84.944	-80.810	-78.420	-74.600	94.049	-78.019	-8191	255	
1888.223	1	1	0	0	0.1146	0.13814	0.26892	0.11	0.17841	0.036048	0.25874	0.19078	0.077289	0.080599	0.13874	0.29361	0.28959	0.089232	0.11435	0.22993	-2.4938	-2.8917	-2.4917	-3.1146	-2.8604	-2.7562	-3.3667	-2.8521	-2.8854	-3.1979	-2.8312	-3.1146	-2.9979	-2.7833	-2.9604	-2.9271	167.338	228.305	204.546	13.140	-25.667	73.477	199.850	213.521	188.289	-16.104	174.977	-97.168	240.024	175.539	78.098	218.699	0.00064348	0.00053728	0.000286	742.14	1.2896e-05	1.422e-05	871.85	288.47	1.8628e-05	3.904e-05	373.3	151.27	111.29	43.303	1.2646e-05	60.595	0.0028293	0.0025171	0.0006588	1072	3.1494e-05	2.7747e-05	874.43	297.17	3.127e-05	2.687e-05	388.48	155.81	118.54	45.087	2.4947e-05	64.079	-20.458	80.649	-55.078	-88.733	5.520	243.076	-88.563	-82.365	-27.179	23.475	-84.667	-80.613	-78.566	-74.987	244.066	-78.211	-8191	255	
1888.319	1	1	0	0	0.020816	0.24736	0.10125	0.10971	0.14974	0.16685	0.043933	0.09186	0.14237	0.13665	0.14561	0.21774	0.19072	0.10542	0.25254	0.53603	-2.4458	-2.9958	-2.4125	-2.9188	-2.7229	-2.8438	-3.2562	-2.7042	-2.7125	-3.1063	-2.65	-3.2417	-2.975	-2.6333	-3.0187	-2.7271	-42.271	240.178	180.666	-86.631	232.863	-68.978	120.527	156.324	-89.116	162.844	167.949	-39.556	230.446	-13.432	41.699	206.839	0.00011474	0.0015559	0.00041735	743.39	1.7592e-06	1.0367e-05	869.61	290.04	3.1167e-05	1.2934e-05	375.37	150.88	112.38	43.554	1.5465e-05	61.017	0.0027084	0.0024089	0.00066821	1114.8	2.9651e-05	2.7179e-05	881.38	300.25	2.9862e-05	2.6032e-05	392.16	157.77	117.96	45.187	2.6611e-05	64.994	79.320	-45.417	-18.613	-87.525	100.502	26.582	-88.680	-82.741	-4.277	86.946	-85.370	-80.784	-78.466	-74.679	227.310	-77.821	-8191	255	
1888.415	1	1	0	0	0.27373	0.10781	0.21779	0.20289	0.078669	0.047867	0.1294	0.34733	0.12332	0.091873	0.083201	0.073477	0.14049	0.13471	0.12549	0.25559	-2.3396	-2.8937	-2.5729	-3.025	-2.8958	-2.8146	-3.1312	-2.7938	-2.6875	-3.225	-2.7562	-3.1875	-3.125	-2.7604	-2.7438	-2.8688	222.665	125.313	-44.504	241.792	163.460	123.072	130.478	240.849	47.885	144.648	248.049	-98.913	-57.602	-52.490	219.671	230.129	8.4336e-05	0.00048058	0.0006436	749.26	2.1013e-05	1.2037e-05	883.19	291.37	3.2329e-06	1.7444e-05	377.7	152.58	111.89	43.309	1.3232e-05	61.062	0.0025748	0.0023335	0.00071376	1132.1	2.7857e-05	2.636e-05	899.52	302.32	2.8208e-05	2.5412e-05	400.15	158.01	116.94	45.093	2.9361e-05	64.611	6.413	-60.855	149.644	-87.545	70.219	15.483	-88.944	-82.197	145.292	101.050	-85.130	-80.624	-78.011	-74.907	-97.941	-77.665	-8191	255	
1888.536	1	1	0	0	0.14976	0.1878	0.15907	0.097606	0.10851	0.10857	0.13686	0.33759	0.18182	0.25014	0.18018	0.14874	0.17324	0.092398	0.17841	0.29784	-2.3167	-2.9188	-2.5875	-2.8396	-2.9104	-2.6521	-3.1479	-3.0292	-2.65	-3.1063	-2.7438	-2.725	-2.9354	-2.7229	-2.8312	-3.0375	167.263	148.075	-97.982	205.736	-6.628	188.804	149.604	259.227	101.189	219.165	-80.955	-90.994	223.315	-88.422	-100.334	-99.097	0.00081708	7.5133e-05	0.00060728	751.9	7.525e-06	6.9769e-06	865.48	291.91	1.6595e-05	2.022e-05	375.97	150.02	110.68	43.572	5.6877e-06	61.454	0.0024505	0.0022847	0.00077207	1112.8	2.674e-05	2.5997e-05	897.25	297.43	2.7043e-05	2.5077e-05	400.38	154.64	115.23	45.452	3.1148e-05	63.694	30.546	-69.256	131.821	-87.990	69.090	-22.805	-88.493	-82.696	-16.988	236.783	-85.043	-80.662	-78.458	-74.266	167.075	-77.981	-8191	255	
1888.630	1	1	0	0	0.14354	0.24604	0.38558	0.22918	0.040839	0.15404	0.05094	0.34845	0.049441	0.044156	0.25784	0.24618	0.30396	0.12397	0.090306	0.23012	-2.25	-2.9833	-2.5438	-2.675	-2.8979	-2.5083	-2.9979	-2.8708	-2.6792	-3.1188	-2.8875	-2.8208	-3.1271	-2.7354	-2.8021	-2.9688	124.750	238.830	122.003	-51.240	40.108	165.116	105.423	201.964	13.786	121.149	216.437	203.484	-99.268	237.999	-83.176	177.686	0.00053789	0.0015218	0.0004987	765.83	3.417e-06	6.7573e-06	870.27	288.7	2.0391e-05	2.1331e-06	376.12	150.13	111.28	43.682	2.7495e-05	61.704	0.002323	0.0023469	0.00080003	1076.1	2.499e-05	2.6933e-05	899.93	293.66	2.5844e-05	2.6743e-05	400.84	152.93	114.59	45.994	3.1275e-05	63.447	24.268	165.350	-75.079	-87.422	-99.501	195.066	-88.629	-82.520	-51.356	141.739	-85.007	-80.620	-78.282	-74.770	114.132	-77.771	-8191	255	
1888.726	1	1	0	0	0.087325	0.062188	0.12656	0.26792	0.037076	0.31827	0.10539	0.21572	0.14215	0.16526	0.13905	0.37802	0.18723	0.18929	0.22375	0.33282	-2.2104	-2.9833	-2.7354	-2.7396	-3.0375	-2.525	-3.0792	-2.9917	-2.6167	-3.1063	-2.8708	-2.5563	-3.0292	-2.6833	-2.8021	-3.0375	150.420	143.689	253.369	-85.516	218.624	-42.666	5.573	-86.657	40.643	-10.264	189.625	161.216	235.391	-9.943	114.383	182.768	7.0979e-05	0.0014501	0.00057389	737.98	9.5738e-07	3.2343e-06	874.65	288.74	1.4955e-05	2.1751e-05	378.94	151.15	110.98	44.088	1.5254e-05	61.234	0.0022828	0.0025641	0.00078743	1050.2	2.4448e-05	2.9256e-05	900.67	292.61	2.5027e-05	2.9326e-05	400.69	152.71	114.76	46.764	2.9964e-05	62.97	-75.934	164.325	14.649	-87.931	68.132	218.838	-88.400	-82.760	178.334	202.797	-84.981	-80.542	-78.305	-74.527	26.712	-78.048	-8191	255	
1888.822	1	1	0	0	0.025373	0.18024	0.049707	0.22662	0.18221	0.013311	0.21325	0.062936	0.27107	0.14402	0.11241	0.071777	0.0026305	0.10633	0.13969	0.095829	-2.1917	-2.8187	-2.5979	-2.6479	-2.9104	-2.8667	-3.0021	-3	-2.45	-2.8187	-2.9771	-2.65	-3.0917	-2.6979	-2.8604	-3.1604	-96.488	0.082	-13.035	169.069	116.389	-15.010	244.575	213.538	81.056	54.293	-93.970	226.298	148.174	189.232	234.951	129.896	0.0011933	0.0022547	0.00044687	740.14	8.3814e-06	7.5575e-06	871.57	287.91	1.5636e-05	2.5687e-05	373.94	147.13	109.4	44.071	2.1651e-05	61.291	0.0022902	0.0028154	0.00074149	1038.3	2.5411e-05	3.1556e-05	892.06	290.01	2.6197e-05	3.1457e-05	392.07	149.87	114.38	46.971	2.8094e-05	62.543	-21.133	131.652	-24.844	-87.312	90.961	224.586	-88.567	-82.775	237.489	-58.363	-84.886	-80.678	-78.443	-74.636	3.406	-78.080	-8191	255	
1888.896	1	1	0	0	0.089422	0.13516	0.068169	0.31719	0.19133	0.11018	0.065281	0.31742	0.042422	0.2668	0.29051	0.058918	0.21856	0.24104	0.11273	0.23583	-2.0521	-2.8875	-2.7958	-2.6375	-2.9062	-2.7875	-2.7458	-3.0146	-2.7125	-2.8875	-3.2521	-2.6708	-3	-2.9292	-2.7333	-2.9458	5.938	45.409	42.264	118.154	228.187	238.179	232.226	190.333	188.825	-2.688	257.145	22.804	249.377	178.190	59.251	111.327	0.00095588	0.00049625	0.00039156	742.12	1.6122e-05	9.0134e-06	860.12	286.76	8.4574e-06	2.1194e-05	374.16	146.25	109.58	44.014	2.0351e-05	61.598	0.0024351	0.0028939	0.00069972	1028.8	2.7598e-05	3.1864e-05	880.67	288.68	2.8985e-05	3.1823e-05	390.2	149.23	116.58	46.846	2.7093e-05	62.864	-45.460	13.419	-63.005	-86.435	207.206	-24.393	-88.933	-82.233	189.099	90.407	-85.063	-80.609	-78.086	-74.813	65.470	-77.808	-8191	255	
1889.015	1	1	0	0	0.19237	0.091271	0.066792	0.044671	0.30374	0.18842	0.23357	0.10826	0.35101	0.063516	0.088458	0.24573	0.23853	0.11238	0.25408	0.21098	-2.2625	-2.8458	-2.8479	-2.5271	-2.8292	-2.8375	-2.9958	-2.9833	-2.6458	-2.875	-2.8792	-2.6125	-2.9417	-2.8208	-2.7458	-3.2354	133.589	182.583	113.511	140.799	4.952	175.683	168.379	-62.622	204.148	77.010	199.094	159.831	229.595	80.328	75.348	252.470	0.00040307	0.0016026	0.00076383	745.25	1.7553e-05	2.0003e-05	873.2	289.55	2.352e-05	1.5331e-05	376.47	147.32	108.98	44.332	1.5631e-05	61.534	0.0026286	0.0027648	0.00065654	1020.1	2.9539e-05	2.9441e-05	881.94	290.75	3.0368e-05	2.9446e-05	388.22	149.9	117.46	46.441	2.5801e-05	63.047	-30.755	-35.715	-81.381	-87.114	217.672	65.213	-88.579	-82.689	134.653	66.309	-84.793	-80.807	-78.067	-74.674	28.600	-77.840	-8191	255	
1889.111	1	1	0	0	0.12147	0.24354	0.083062	0.16731	0.11317	0.38068	0.16005	0.37255	0.20882	0.32677	0.34132	0.082804	0.14976	0.12475	0.11045	0.21707	-2.5208	-2.6146	-2.9625	-2.7646	-2.8479	-2.9958	-2.8479	-3.0979	-2.6792	-2.775	-3.1896	-2.8958	-2.9979	-3.0333	-2.5167	-2.9104	102.260	239.985	106.236	-92.402	50.532	-73.780	86.731	-95.776	43.715	251.354	194.234	121.622	120.336	142.455	-24.018	-84.864	0.00064706	0.0017519	0.00017046	741.37	9.4255e-06	1.8365e-05	864.77	288.78	9.7985e-06	1.478e-05	372.85	147.11	110.62	44.388	7.2739e-06	61.799	0.0027296	0.0025718	0.00062309	1031.9	3.0628e-05	2.6652e-05	868.35	290.92	3.0261e-05	2.6975e-05	381.82	150.38	117.93	46.03	2.4829e-05	64.354	-38.335	-24.181	116.177	-87.167	-35.662	36.143	-88.949	-82.151	-90.906	-29.567	-85.251	-80.652	-78.703	-74.224	162.715	-77.742	-8191	255	
1889.207	1	1	0	0	0.094377	0.041466	0.037933	0.21707	0.18447	0.32114	0.11088	0.38565	0.22876	0.19887	0.34392	0.078532	0.20475	0.13493	0.35176	0.29041	-2.275	-2.6125	-3.0292	-2.5792	-2.775	-2.9792	-2.4083	-3.1708	-2.9104	-2.6396	-3.2271	-2.6104	-2.8937	-2.9188	-2.6063	-3.0083	-51.209	177.372	184.779	141.356	-78.008	185.773	112.422	195.864	14.917	124.024	213.633	216.490	190.217	-55.489	-49.100	207.970	0.00049349	0.002068	0.00044624	732.28	1.3343e-05	9.5428e-06	869.86	286.98	4.0755e-06	2.9516e-06	378.43	148.13	110.82	45.079	2.8242e-05	62.381	0.0027059	0.0024395	0.00060444	1065.2	2.9999e-05	2.5466e-05	872.1	295.28	2.886e-05	2.5745e-05	384.86	152.82	116.89	46.059	2.4036e-05	65.272	29.737	-47.414	43.709	-87.595	17.485	11.785	-88.237	-82.387	256.918	109.012	-85.074	-80.858	-78.688	-74.502	214.968	-77.799	-8191	255	
1889.328	1	1	0	0	0.025844	0.1157	0.076009	0.15132	0.046624	0.25057	0.18207	0.11575	0.041064	0.066931	0.06948	0.32468	0.22013	0.021272	0.10074	0.067382	-2.3833	-2.7729	-2.95	-2.5625	-2.8896	-3.1771	-2.6542	-3.1562	-2.7188	-2.4896	-3.1813	-2.8354	-2.8875	-3.1042	-2.8333	-3.0333	110.512	-60.956	31.967	-25.275	0.863	-61.380	-25.014	153.379	55.843	174.510	148.618	169.665	127.373	177.704	153.219	243.917	6.9188e-05	0.0021821	4.9773e-05	736.5	4.3333e-06	1.6025e-05	871.93	291.52	2.3419e-05	8.8587e-06	381.68	150.87	112.1	45.659	1.0564e-05	64.416	0.0024743	0.0023216	0.00060904	1099.1	2.8126e-05	2.4512e-05	886.09	299.56	2.708e-05	2.5162e-05	393.31	155.49	116.84	46.372	2.5752e-05	66.877	87.954	32.127	240.216	-87.883	67.673	47.145	-89.023	-82.299	29.462	25.080	-84.560	-81.171	-78.433	-74.436	150.979	-77.371	-8191	255	
1889.424	1	1	0	0	0.22571	0.27708	0.19955	0.08252	0.26483	0.12727	0.20368	0.078762	0.3011	0.22257	0.32846	0.15425	0.2619	0.183	0.091648	0.12824	-2.5375	-2.6125	-2.975	-2.6667	-2.7604	-3.2958	-2.7854	-2.9875	-2.8771	-2.3667	-3.0604	-3.1167	-2.575	-2.9729	-2.7896	-3.0083	-73.183	-60.065	-78.749	56.915	153.346	133.837	137.907	76.456	186.955	-38.064	-45.666	197.389	189.565	241.206	-24.272	144.050	0.00038207	0.0020691	0.00064524	756.83	3.5693e-06	5.5623e-06	894.56	294.87	1.5575e-05	3.514e-06	387.4	154.39	112.99	46.035	2.5917e-05	65.043	0.0022988	0.0022135	0.00065482	1105.3	2.6267e-05	2.3341e-05	906.96	303.04	2.5576e-05	2.446e-05	404.69	157.37	117.43	46.789	2.8566e-05	67.708	51.218	-19.442	106.311	-87.934	176.249	31.377	-88.298	-82.400	45.120	36.373	-84.989	-80.519	-78.080	-74.260	100.866	-77.679	-8191	255	
1889.495	1	1	0	0	0.1159	0.12452	0.43529	0.33042	0.16433	0.31556	0.11231	0.12738	0.15295	0.10541	0.39872	0.3153	0.31506	0.13685	0.15452	0.088751	-2.4708	-2.7896	-3.0271	-2.7896	-2.7812	-2.9854	-2.6437	-2.9333	-2.9354	-2.5312	-3.0708	-2.8167	-2.75	-3.2208	-2.6	-2.9562	208.050	253.399	75.159	257.003	165.267	156.092	-98.627	200.243	187.594	108.919	255.002	-82.430	-83.877	-38.990	242.866	136.032	0.00084933	0.002538	0.00031554	784.61	3.5829e-06	1.0479e-05	906.85	301.19	1.0823e-05	9.8608e-06	396.11	155.15	114.21	46.461	5.2688e-06	65.998	0.0022358	0.0022307	0.00072767	1093.9	2.566e-05	2.3538e-05	931.19	304.54	2.445e-05	2.4844e-05	416	157.46	117.77	47.431	3.0062e-05	67.707	16.023	-57.282	230.852	-87.675	138.180	-10.960	-88.436	-82.663	78.224	234.945	-85.107	-80.443	-78.311	-74.189	118.040	-77.712	-8191	255	
1889.616	1	1	0	0	0.2749	0.11747	0.11919	0.30791	0.53381	0.098629	0.146	0.057523	0.18648	0.39798	0.26709	0.11352	0.32321	0.19267	0.098533	0.11472	-2.4729	-2.2646	-2.9708	-2.8479	-2.5896	-2.9792	-2.7104	-3.0208	-2.9042	-2.7062	-2.9854	-2.9542	-2.5687	-3.2021	-2.5146	-2.7771	-50.638	-42.763	124.877	152.819	14.748	222.280	-28.804	106.163	27.640	96.181	181.447	20.835	200.312	-97.262	115.990	255.599	0.00048152	0.00043336	0.00027269	773.74	1.1841e-05	1.2001e-05	894.19	295.72	2.5492e-05	1.3796e-05	386.89	150.21	111.73	45.307	1.1873e-05	64.099	0.0021367	0.0023591	0.00076743	1059.8	2.4915e-05	2.5428e-05	921.05	299.12	2.3514e-05	2.6731e-05	408.66	152.55	115.1	47.146	2.9479e-05	65.489	-78.745	135.626	-67.849	-87.370	133.284	223.637	-88.659	-82.191	-14.638	244.632	-84.964	-80.446	-78.465	-74.298	103.847	-77.274	-8191	255	
1889.712	1	1	0	0	0.19656	0.21455	0.13896	0.25152	0.068545	0.1412	0.39437	0.2854	0.086903	0.1096	0.22545	0.43506	0.14489	0.09678	0.12024	0.32907	-2.6104	-2.3875	-2.8458	-2.9271	-2.4875	-3.0708	-2.9167	-2.6083	-3.0563	-2.5687	-2.8438	-3.0792	-2.8438	-3.0958	-2.7729	-2.7687	-98.000	35.189	-28.569	251.382	222.235	-56.128	217.149	245.303	78.522	11.897	-21.564	-83.235	217.461	128.726	-42.268	187.104	0.00075094	0.00063102	0.00034565	750.53	8.5868e-06	2.0576e-05	880.61	288.83	4.5273e-06	1.4114e-05	379.66	149.46	111.31	45.276	2.697e-05	63.983	0.0020717	0.0025464	0.00074978	1028.8	2.4311e-05	2.7905e-05	900.12	292.62	2.3117e-05	2.8965e-05	399.85	150.2	114.69	47.692	2.7915e-05	65.142	-7.548	140.429	23.205	-88.044	161.481	245.083	-88.592	-82.238	-0.425	-35.115	-84.494	-80.615	-78.158	-74.134	61.858	-77.638	-8191	255	
1889.808	1	1	0	0	0.12102	0.33236	0.1191	0.073909	0.064746	0.22051	0.15414	0.22867	0.17376	0.16617	0.19733	0.084461	0.28156	0.18785	0.11673	0.15687	-2.6854	-2.5729	-2.4729	-3.1146	-2.675	-2.8833	-2.7021	-2.6792	-2.9271	-2.6146	-2.8958	-3.0417	-2.7146	-2.9188	-2.8271	-2.6896	50.453	116.819	76.718	-85.259	210.299	-33.461	192.912	-97.354	245.535	243.822	240.499	101.044	203.137	209.967	-7.564	-92.190	0.00059176	0.0011269	0.00031846	747.39	5.8564e-06	4.571e-06	880.01	291.34	1.2666e-05	1.3813e-05	382.32	149.86	110.69	46.157	1.8322e-05	64.646	0.002123	0.0027218	0.00070967	1014	2.5242e-05	2.9967e-05	892.68	292.3	2.513e-05	3.0573e-05	397.65	150.37	116.01	48.412	2.6386e-05	65.247	-19.140	102.272	-9.000	-86.965	10.728	187.534	-88.397	-82.404	158.808	116.557	-84.652	-80.783	-78.213	-74.124	6.277	-77.815	-8191	255	
1889.927	1	1	0	0	0.19303	0.10861	0.2169	0.25814	0.27844	0.23054	0.37649	0.079896	0.19733	0.13888	0.057229	0.17904	0.064611	0.21067	0.0055509	0.18117	-2.7438	-2.5917	-2.675	-3.1792	-2.6146	-2.7729	-3.1333	-2.7	-2.8167	-2.7729	-2.875	-3.0521	-2.5292	-2.9646	-2.7875	-2.6646	202.029	215.238	-66.062	-57.501	37.104	219.983	174.633	-20.083	44.730	57.456	-72.504	225.248	217.012	-6.740	-57.482	158.101	0.00057725	0.001731	0.00064557	774.07	8.399e-06	1.9224e-05	884.95	294.17	1.761e-05	6.8198e-06	383.26	148.82	110.92	45.938	1.3077e-05	63.985	0.0023263	0.0027632	0.00068118	1014.6	2.7498e-05	3.0172e-05	893.86	292.95	2.7907e-05	3.0447e-05	395.97	149.88	117.65	48.251	2.5891e-05	64.888	25.117	-6.753	164.181	-87.570	-33.301	63.509	-88.795	-82.420	130.405	92.987	-85.141	-80.883	-78.470	-74.418	64.933	-77.410	-8191	255	
1890.023	1	1	0	0	0.15175	0.073381	0.10031	0.10284	0.11119	0.20164	0.13049	0.22842	0.11651	0.15324	0.15285	0.067425	0.18407	0.39972	0.079602	0.11912	-2.7229	-2.8417	-2.6021	-3.2521	-2.7188	-2.5583	-2.9854	-2.7938	-3.1021	-2.7604	-2.7708	-3.2646	-2.6292	-2.8354	-3.1042	-2.6208	63.809	199.408	137.795	134.957	121.902	-88.183	214.313	229.455	250.789	189.957	184.114	177.250	-23.533	-98.636	-9.709	239.304	0.00067129	0.0020375	0.00046084	748.1	1.4071e-05	1.5854e-05	870.71	289.39	1.309e-05	2.1292e-05	379	148.5	110.79	45.721	1.7974e-05	63.387	0.0025894	0.0026879	0.00066525	1009.3	2.9958e-05	2.8883e-05	876.92	291.27	2.9856e-05	2.8117e-05	389.98	150.15	118.73	47.641	2.4284e-05	65.226	-46.512	-49.721	3.113	-87.280	222.935	27.250	-88.497	-82.346	108.204	5.818	-84.739	-80.715	-78.049	-74.360	22.153	-77.780	-8191	255	
1890.095	1	1	0	0	0.10155	0.27675	0.12487	0.11162	0.12572	0.09292	0.20753	0.091778	0.26986	0.11358	0.078456	0.17141	0.15159	0.31195	0.11016	0.16619	-2.4583	-2.8417	-2.3854	-3.0125	-2.8167	-2.7083	-3.0271	-2.8417	-2.9333	-2.9042	-2.6417	-3.2208	-2.8479	-2.8146	-2.9292	-2.75	130.203	226.517	196.343	97.555	-96.277	197.155	223.587	172.042	-98.559	-68.239	146.188	229.869	-100.331	259.329	-26.437	-65.778	0.00043366	0.0010465	0.00035826	748.23	3.0468e-06	8.0282e-06	880.07	287.93	8.3714e-06	1.0113e-05	380.13	148.53	110.98	45.894	1.511e-05	64.067	0.0027101	0.0024861	0.00064338	1036.9	3.0681e-05	2.7228e-05	875.9	293.27	3.0135e-05	2.6046e-05	388.99	152.1	118.53	47.227	2.3423e-05	66.165	-18.244	-36.276	-55.514	-88.050	-99.582	-76.983	-88.588	-82.557	-99.307	11.027	-85.033	-80.987	-78.781	-74.404	158.878	-77.596	-8191	255	
1890.191	1	1	0	0	0.13001	0.021268	0.25408	0.16521	0.10342	0.23824	0.21365	0.22468	0.22777	0.16148	0.26607	0.22002	0.11111	0.25935	0.22077	0.09936	-2.7042	-2.7708	-2.5125	-3.1896	-2.9375	-2.7188	-3.275	-2.6146	-2.6063	-3.0125	-2.6458	-3.1896	-2.7479	-2.4729	-3.1083	-2.9	37.497	252.486	-63.817	245.032	80.448	-80.251	-96.047	-94.899	24.868	-19.900	247.981	173.036	223.500	233.787	100.877	250.171	0.00062329	0.00032873	0.00023363	744.17	9.3732e-06	1.0874e-05	885.97	291.25	5.6565e-06	3.2148e-05	383.83	151.43	113.29	45.943	2.3869e-05	65.177	0.0026395	0.002333	0.000624	1081.6	2.9375e-05	2.6321e-05	884.62	299.56	2.9282e-05	2.531e-05	392.44	155.71	118.21	47.21	2.3736e-05	67.502	4.553	246.932	-68.017	-88.060	14.277	-21.927	-88.336	-82.555	32.865	64.656	-84.949	-80.817	-78.279	-74.287	130.041	-77.748	-8191	255	
1890.312	1	1	0	0	0.11029	0.17498	0.23624	0.24348	0.12906	0.17332	0.32721	0.22822	0.078626	0.084168	0.22586	0.12781	0.29764	0.19623	0.11269	0.20317	-2.2167	-2.9104	-2.4229	-2.9583	-2.8042	-2.5375	-3.2083	-2.7667	-2.7354	-3.0583	-2.7917	-3.0312	-2.9938	-2.6958	-3.1833	-2.8354	174.306	8.497	90.590	170.873	242.950	211.494	-79.930	184.362	134.481	148.396	230.207	215.464	247.091	232.861	-94.872	210.556	0.00048348	0.0016742	0.00027025	771.89	1.7474e-05	9.6995e-06	903.04	295.41	2.2779e-05	6.7127e-06	389.42	153.36	114.01	46.335	8.8321e-06	66.079	0.0024784	0.0022353	0.00063658	1109.5	2.7515e-05	2.5304e-05	900.51	303.38	2.7363e-05	2.432e-05	402.25	158.53	118.05	47.505	2.6029e-05	68.415	-10.668	7.680	-71.718	-87.763	32.484	-9.112	-88.624	-82.887	54.509	-9.754	-84.841	-80.730	-78.375	-74.386	172.172	-77.757	-8191	255	
1890.408	1	1	0	0	0.13068	0.29527	0.054933	0.23969	0.12801	0.0854	0.045709	0.16072	0.1196	0.073391	0.10963	0.10841	0.053934	0.15902	0.14388	0.19654	-2.3729	-2.9333	-2.6083	-2.7292	-2.9583	-2.6979	-3.2167	-2.8333	-2.9271	-3.1667	-2.6125	-2.8479	-3.2354	-2.6688	-2.9583	-2.8104	-82.755	144.113	93.293	6.739	148.144	153.680	132.913	202.774	122.347	44.596	162.220	-13.976	230.380	91.504	-93.859	-92.859	0.00070507	0.0016459	0.00022341	788.18	1.5278e-05	1.0298e-05	898.2	294.11	2.0837e-05	1.7599e-05	384.64	152.89	113.27	45.923	1.8136e-05	64.461	0.0023718	0.0021654	0.00069303	1119.5	2.5677e-05	2.4483e-05	912.86	302.96	2.6272e-05	2.3688e-05	404.62	156.72	116.62	47.095	2.8699e-05	66.856	10.624	-32.406	196.988	-87.556	77.801	47.422	-88.607	-82.203	22.357	121.768	-85.031	-80.610	-78.525	-74.612	238.300	-77.421	-8191	255	
1890.504	1	1	0	0	0.13956	0.16296	0.46716	0.064902	0.10879	0.11497	0.20419	0.17293	0.14555	0.097575	0.043946	0.39213	0.21406	0.21707	0.22213	0.053618	-2.4167	-3.1729	-2.6125	-2.9437	-2.8438	-2.6542	-3.0917	-3.0062	-2.5167	-3.0417	-2.7854	-2.7562	-3.0875	-2.5292	-2.9229	-2.9646	226.072	66.505	122.105	193.076	219.592	-93.507	98.096	-10.513	-88.130	162.225	-89.517	213.010	215.891	-87.919	221.177	128.434	0.00032584	0.0015668	0.00034071	761.09	1.3719e-05	1.549e-05	874.59	291.33	1.0754e-05	8.4351e-06	377.93	150.56	111.48	45.646	1.734e-05	64.245	0.0022864	0.0021674	0.00074794	1080.9	2.4489e-05	2.4646e-05	902.44	295.44	2.5072e-05	2.4305e-05	400.55	152.8	114.58	46.998	3.0014e-05	65.783	25.296	26.316	221.264	-87.685	53.535	231.433	-88.419	-82.419	44.199	109.622	-84.983	-80.392	-78.360	-74.321	108.052	-77.746	-8191	255	
1890.600	1	1	0	0	0.52446	0.11994	0.19115	0.11603	0.05008	0.28006	0.14815	0.25022	0.13542	0.13067	0.18739	0.22982	0.033881	0.21433	0.1796	0.18655	-2.1021	-3.0354	-2.5958	-2.8458	-3.125	-2.6167	-3.0083	-3.0771	-2.5521	-3.1312	-2.6729	-2.7792	-3.1896	-2.6854	-2.8604	-3.0292	48.647	-76.156	10.588	176.057	198.729	156.450	153.431	237.187	156.442	61.357	107.995	222.904	226.528	228.815	249.492	-89.075	0.00048719	0.00057256	0.00043742	754.5	1.3691e-05	1.2303e-05	881.68	289.28	5.8968e-06	1.0554e-05	382.6	150.35	111.18	45.77	8.6093e-06	64.29	0.0022136	0.0023325	0.00077023	1056.5	2.3887e-05	2.6816e-05	908.25	293.03	2.4414e-05	2.6615e-05	401.99	152.55	114.43	47.589	2.9551e-05	65.159	-19.746	222.218	-98.697	-87.815	12.952	152.695	-88.617	-82.628	-82.187	215.935	-85.195	-80.769	-78.315	-74.105	58.497	-77.956	-8191	255	
1890.719	1	1	0	0	0.17356	0.061029	0.36904	0.15027	0.13928	0.12196	0.10943	0.32236	0.20649	0.19466	0.12564	0.15041	0.25971	0.10376	0.30348	0.25273	-2.0604	-2.8646	-2.7021	-2.7792	-3.2375	-2.6542	-2.9729	-3.0646	-2.5438	-3.025	-2.9	-2.8396	-3.2229	-2.8167	-3.0083	-3.0125	-42.608	-72.772	160.887	66.689	136.497	210.861	249.751	167.139	-46.362	234.965	241.894	-96.396	223.743	61.737	-64.730	106.791	0.00046284	0.0010765	0.00062353	753.72	1.4448e-05	8.2398e-06	880.85	292.78	1.6649e-05	1.3786e-05	382.49	151.36	111.08	45.85	2.4151e-05	64.021	0.002163	0.0025555	0.00073996	1040.8	2.3459e-05	2.927e-05	904.37	293.61	2.4681e-05	2.9415e-05	400.13	152.57	114.92	48.056	2.7985e-05	64.92	-24.576	73.849	-5.489	-87.680	90.484	150.003	-88.606	-82.211	168.345	208.204	-84.856	-81.076	-78.604	-74.506	10.745	-77.857	-8191	255	
1890.793	1	1	0	0	0.076763	0.11294	0.11325	0.19063	0.27626	0.10975	0.19608	0.065151	0.24787	0.18906	0.3283	0.16125	0.15616	0.3002	0.20756	0.063362	-2.2354	-3.0708	-2.7917	-2.7687	-3.0438	-2.8521	-2.8458	-3.1688	-2.5542	-3.0896	-2.8521	-2.55	-3.1437	-2.7333	-2.6292	-3.3021	59.067	250.038	106.680	75.588	-17.267	64.211	159.122	242.414	-72.638	239.308	238.274	133.773	142.857	-100.259	-96.761	7.874	0.00059236	3.8406e-05	0.00032619	752.18	4.281e-06	1.0013e-05	887.99	292.39	1.2298e-05	2.7059e-05	384.28	149.74	111.38	45.368	5.2714e-06	63.094	0.0021883	0.0026914	0.00067515	1018.3	2.4212e-05	2.951e-05	896.24	291.73	2.5418e-05	2.9864e-05	394.6	150.82	115.73	47.594	2.6016e-05	63.523	-17.472	-6.769	-33.863	-88.160	242.023	25.064	-88.622	-82.400	189.038	69.838	-84.643	-80.841	-78.203	-74.313	-89.510	-77.541	-8191	255	
1890.889	1	1	0	0	0.18154	0.21011	0.074415	0.0060804	0.038075	0.16396	0.064848	0.13943	0.31111	0.1959	0.10784	0.033649	0.1026	0.2152	0.072285	0.28044	-2.0646	-2.9479	-3.0333	-2.4125	-3.0583	-2.7958	-2.8958	-3.0187	-2.5104	-2.8792	-3.0563	-2.8229	-3.0229	-3.1625	-2.7313	-3.0271	12.917	-94.702	237.463	252.779	252.663	197.901	160.879	197.229	-67.555	-7.296	113.201	224.541	-39.183	-72.272	222.635	194.725	0.001014	0.0010736	0.00045494	758.77	1.8925e-05	1.6986e-05	870	289	9.2672e-06	1.2898e-05	374.44	147.9	110.81	44.993	4.4066e-06	62.132	0.0023698	0.0027073	0.00063707	1003.8	2.6471e-05	2.89e-05	876.56	287.49	2.7305e-05	2.8589e-05	383.96	148.3	116.35	46.879	2.488e-05	63.212	-40.689	-10.931	1.728	-86.679	202.456	39.267	-88.611	-82.713	149.652	3.127	-84.918	-80.725	-78.147	-74.450	57.232	-77.464	-8191	255	
1891.008	1	1	0	0	0.27407	0.085306	0.069838	0.24095	0.1035	0.087001	0.3274	0.2205	0.12514	0.1008	0.24259	0.2927	0.27346	0.13208	0.24826	0.18894	-2.2229	-2.9042	-2.7188	-2.725	-3.0667	-2.8042	-2.8	-3.1646	-2.6125	-2.9333	-3.0667	-2.5812	-3.1521	-2.95	-2.4062	-2.8937	211.920	63.436	19.515	-1.717	-47.894	98.142	-74.541	156.929	233.113	125.069	-95.485	203.133	-83.637	151.751	-65.093	-32.942	0.00055867	0.00086844	0.0002476	757.86	1.6066e-05	2.5232e-05	871.28	288.6	1.3006e-05	7.2516e-06	375.48	148.53	109.95	45.389	1.2963e-05	63.266	0.0025043	0.002518	0.0005963	1001.8	2.811e-05	2.6454e-05	871.93	288.25	2.8508e-05	2.6503e-05	383.05	148.96	117.07	46.629	2.3661e-05	63.927	3.101	105.743	-42.634	-87.495	259.016	39.876	-88.961	-82.698	9.179	-49.170	-84.726	-81.061	-78.259	-74.500	79.226	-77.541	-8191	255	
1891.104	1	1	0	0	0.18766	0.086463	0.17806	0.14067	0.1263	0.22138	0.13462	0.19463	0.16224	0.15871	0.12958	0.040424	0.1747	0.093431	0.27464	0.25043	-2.4083	-2.8187	-2.8958	-2.5479	-3.2104	-2.8	-2.6229	-3.0458	-2.7625	-2.9604	-3.1771	-2.8187	-2.9667	-3.0438	-2.4521	-2.9562	62.043	-85.997	44.812	112.754	-22.433	27.210	9.627	192.289	-54.205	133.449	-57.121	218.075	169.853	-18.436	120.266	168.550	0.00031108	0.0017706	0.00022513	741.03	8.9492e-06	7.4988e-06	876.34	288.17	1.5625e-05	7.8811e-06	376.06	148.28	110.89	45.046	1.1426e-05	62.497	0.0025475	0.0023506	0.0005735	1025.7	2.8759e-05	2.4828e-05	873.59	291.25	2.8266e-05	2.5059e-05	381.85	150.16	116.57	46.029	2.2833e-05	64.135	65.294	46.900	46.061	-87.550	65.337	153.861	-88.485	-82.477	-13.893	47.077	-84.920	-80.427	-78.310	-74.400	75.372	-78.096	-8191	255	
1891.200	1	1	0	0	0.075897	0.32282	0.13072	0.17699	0.37287	0.22871	0.18508	0.23937	0.13787	0.14261	0.083528	0.13777	0.14051	0.16366	0.20845	0.10354	-2.5646	-2.5708	-3.0312	-2.5333	-2.7604	-3.0333	-2.6854	-2.9604	-2.6396	-2.6583	-3.1562	-2.6104	-2.8271	-3.0938	-2.4354	-2.9375	77.333	182.746	-88.307	54.420	91.001	-74.210	191.588	218.075	-65.891	254.146	214.954	225.447	57.789	158.964	159.844	-58.917	0.00018311	0.00071356	0.00038788	747.45	1.5022e-05	9.2152e-06	861.07	285.05	2.2835e-05	8.606e-06	368.53	146.25	108.52	44.265	1.089e-05	61.664	0.0024344	0.0022329	0.00056963	1059	2.7774e-05	2.38e-05	863.35	291.47	2.7057e-05	2.4552e-05	377.23	150.14	114.37	45.282	2.3665e-05	64.183	-43.856	-31.301	-99.924	-88.258	50.143	20.700	-88.488	-82.275	-7.278	0.958	-84.739	-80.337	-78.298	-74.591	181.540	-77.513	-8191	255	
1891.296	1	1	0	0	0.2297	0.25424	0.1495	0.23007	0.13554	0.28067	0.24969	0.17106	0.14108	0.13157	0.1971	0.17582	0.12325	0.29212	0.1017	0.18301	-2.375	-2.5792	-3.0083	-2.6896	-2.6479	-2.9542	-2.7625	-2.9271	-2.8625	-2.6146	-2.9229	-2.5375	-2.6729	-2.9896	-2.5792	-2.9437	-86.536	99.465	187.619	138.375	-11.789	-50.888	208.489	144.576	46.973	-40.856	133.104	218.117	212.280	253.651	43.573	60.543	0.00017194	0.0014965	0.00027952	745.07	1.7069e-05	7.5773e-06	861.7	287.4	1.4618e-05	1.4797e-05	372.83	147.2	110.48	44.882	2.0233e-05	62.547	0.0022786	0.0021659	0.000595	1068.6	2.556e-05	2.2367e-05	867.45	294.12	2.4533e-05	2.3246e-05	383.68	151.12	114.03	45.503	2.5342e-05	64.923	246.140	33.004	127.958	-87.241	-39.249	95.323	-88.676	-82.658	-7.364	101.643	-84.714	-80.920	-78.021	-74.133	-89.280	-77.305	-8191	255	
1891.392	1	1	0	0	0.13058	0.038628	0.31549	0.31344	0.12446	0.2865	0.19668	0.28332	0.13071	0.050932	0.12761	0.14916	0.26158	0.11469	0.20456	0.036611	-2.525	-2.5458	-2.9729	-2.725	-2.5854	-2.9646	-2.6188	-2.8167	-3.0208	-2.4229	-2.8271	-3.0021	-2.7313	-3.1813	-2.6688	-2.9083	257.393	191.571	12.331	208.330	187.717	139.481	200.934	205.581	-54.672	44.419	216.595	-64.242	-63.878	-78.144	26.452	129.648	0.00029891	0.00025438	0.00032515	747.17	1.6952e-05	1.4819e-05	873.07	290.41	5.179e-06	2.5216e-05	377.69	148.22	110.28	45.564	1.2241e-05	63.836	0.0021441	0.0020874	0.00064443	1061.9	2.4305e-05	2.1739e-05	885.24	294.64	2.319e-05	2.2734e-05	393.64	150.85	113.99	45.864	2.6791e-05	65.305	-19.526	9.440	188.851	-87.886	17.261	-24.246	-88.044	-82.119	160.584	123.863	-84.918	-80.602	-77.894	-73.726	226.769	-77.577	-8191	255	
1891.488	1	1	0	0	0.11411	0.21322	0.21658	0.11974	0.04942	0.1836	0.20078	0.11361	0.30453	0.26464	0.021329	0.26697	0.23036	0.27484	0.13431	0.25513	-2.4625	-2.525	-2.9021	-2.6604	-2.4417	-3.1458	-2.775	-2.8708	-3.2333	-2.3958	-3.2146	-2.7604	-2.5708	-3.2417	-2.7062	-2.7646	49.193	160.333	128.166	108.049	228.139	227.972	192.670	-69.748	87.553	-44.392	97.815	174.080	135.700	250.491	81.477	197.611	0.0010115	7.7457e-05	0.00043286	775.09	5.1349e-06	6.3976e-06	892.07	293.81	1.3893e-05	5.7626e-07	386.7	151.2	112.12	46.102	2.1941e-05	64.998	0.0020319	0.0020856	0.00069405	1044.3	2.3458e-05	2.2255e-05	906.64	296.12	2.2029e-05	2.3455e-05	403.82	151.65	114.28	46.739	2.7491e-05	66.007	44.768	1.399	249.330	-87.195	30.658	182.060	-88.671	-82.109	10.194	106.780	-84.676	-80.549	-78.025	-74.068	22.266	-77.594	-8191	255	
1891.609	1	1	0	0	0.13058	0.24318	0.14171	0.060416	0.20651	0.23833	0.43903	0.15027	0.15654	0.10986	0.16781	0.10114	0.16391	0.1185	0.1209	0.25345	-2.5417	-2.3729	-2.8604	-2.6875	-2.8146	-2.9854	-2.9	-2.8208	-2.9792	-2.4896	-2.8729	-2.9271	-2.6729	-3.0479	-2.7438	-2.6875	179.043	35.514	-5.543	-35.999	-78.193	-59.546	191.446	-60.653	-1.874	220.984	214.020	232.586	-83.406	241.437	120.106	207.373	0.00063706	0.00079111	0.00019032	766.79	1.511e-05	1.3762e-05	905.45	296.5	3.1735e-05	2.8688e-05	387.07	151.11	111.45	45.779	1.523e-05	64.873	0.0019387	0.0022238	0.00070885	1027.6	2.2894e-05	2.4615e-05	922.01	297.55	2.2315e-05	2.6558e-05	406.62	151.3	114.66	47.535	2.7745e-05	65.427	-35.137	221.603	-7.648	-87.500	33.096	197.013	-88.471	-82.209	-57.852	164.797	-84.464	-80.288	-78.271	-74.073	-16.548	-77.668	-8191	255	
1891.703	1	1	0	0	0.20344	0.018048	0.2299	0.11215	0.1979	0.11727	0.061807	0.16636	0.2463	0.16108	0.33702	0.1811	0.099004	0.34948	0.045333	0.12081	-2.5542	-2.6396	-2.7979	-3.0271	-2.6167	-3.3125	-2.7917	-2.7854	-2.9292	-2.8	-2.9896	-3.0521	-2.7062	-2.9333	-2.8854	-2.9854	253.267	-22.879	115.103	139.470	62.047	93.749	191.557	220.658	113.070	112.298	221.004	55.524	31.559	193.062	7.268	198.007	0.0003232	1.6102e-05	0.00017484	753.27	1.6153e-05	8.2546e-06	878.71	288.59	1.4165e-05	7.4184e-06	379.17	147.18	109.71	45.678	2.0505e-06	63.79	0.0019816	0.0024898	0.00070035	1007.6	2.324e-05	2.7285e-05	891.41	290.45	2.2488e-05	2.8416e-05	393.28	147.33	113.62	47.629	2.6101e-05	64.43	1.302	-25.102	3.755	-87.954	226.374	245.916	-88.197	-82.144	211.202	231.422	-85.060	-80.596	-78.354	-73.704	48.668	-77.242	-8191	255	
1891.800	1	1	0	0	0.16615	0.1554	0.21947	0.10995	0.20851	0.22828	0.15464	0.084604	0.12384	0.14167	0.13599	0.21244	0.09339	0.075338	0.071914	0.31632	-2.4729	-2.7271	-2.8896	-2.9208	-2.6167	-3.0229	-3.2396	-2.3958	-3.1271	-2.775	-2.9437	-3.1813	-2.6292	-2.9958	-2.8646	-2.6937	249.371	71.760	26.458	239.392	-99.362	-29.140	150.088	78.788	192.879	108.105	250.538	197.440	234.127	221.079	235.360	184.060	0.0011444	0.0012599	0.00066421	754.87	9.9771e-06	1.4078e-05	872.69	287.59	6.0305e-06	1.0786e-05	378.05	147.43	109.35	45.654	1.3654e-05	63.725	0.0021054	0.0026864	0.00067133	996.72	2.5122e-05	2.915e-05	881.01	287.44	2.4433e-05	2.9071e-05	388.27	146.57	114.59	47.654	2.4683e-05	64.322	-28.642	134.448	-7.712	-87.491	-78.480	-72.605	-88.356	-82.315	184.310	21.786	-84.725	-80.529	-78.028	-74.042	96.800	-77.216	-8191	255	
1891.896	1	1	0	0	0.126	0.41118	0.10973	0.14393	0.2442	0.099453	0.17887	0.30091	0.10117	0.073301	0.19688	0.27139	0.059927	0.44231	0.18702	0.11716	-2.5896	-2.7167	-2.7062	-2.9042	-2.5667	-2.9479	-2.8792	-2.4771	-2.9833	-2.7875	-2.6542	-3.0479	-2.8271	-2.8563	-3.05	-2.6042	218.496	209.106	61.784	143.347	220.113	167.162	112.139	185.384	61.362	130.235	180.956	216.095	240.879	248.178	-99.995	52.672	0.00081968	0.0023207	0.00024378	744.99	7.6297e-06	2.9011e-05	875.87	286.83	1.3931e-05	2.4132e-05	381.37	148.7	110.07	45.711	8.5153e-06	63.517	0.0023206	0.0026302	0.00063979	983.49	2.7155e-05	2.8589e-05	878.28	288.45	2.6934e-05	2.7757e-05	390.21	147.66	116.48	47.565	2.3673e-05	64.366	-25.624	-25.397	-85.939	-87.868	-73.655	-1.127	-88.727	-82.476	115.334	40.973	-84.835	-80.944	-78.246	-74.405	79.942	-77.699	-8191	255	
1892.016	1	1	0	0	0.30968	0.22934	0.054006	0.1499	0.14507	0.30126	0.24841	0.27245	0.084066	0.21082	0.081334	0.016201	0.16638	0.23356	0.2037	0.14693	-2.6125	-2.6521	-2.3979	-3.0979	-2.5812	-2.6917	-2.9813	-2.7146	-2.8042	-2.8896	-2.6146	-2.8875	-2.7625	-2.9	-2.95	-2.5479	-26.381	-31.662	181.482	-94.704	182.728	222.197	179.856	209.750	179.102	211.154	-8.974	209.043	191.160	183.940	231.076	-67.948	0.00061282	0.0011065	0.00016425	753.98	5.5891e-06	1.7957e-05	880.02	288.62	8.7987e-06	2.4299e-05	372.55	145.13	109.22	44.982	8.7168e-06	62.263	0.0024956	0.0024351	0.00062297	1000.4	2.8941e-05	2.7105e-05	874.29	289.8	2.9158e-05	2.6111e-05	382.31	146.71	116.17	46.484	2.2977e-05	63.905	-24.660	-6.149	241.134	-87.230	-17.593	31.495	-88.393	-82.105	128.142	50.408	-84.850	-80.793	-78.012	-73.866	-42.924	-77.478	-8191	255	
1892.088	1	1	0	0	0.053063	0.064525	0.23435	0.18624	0.0059902	0.19178	0.18927	0.21571	0.14542	0.16784	0.069096	0.01382	0.3015	0.12966	0.060806	0.2147	-2.5104	-2.7708	-2.5958	-2.9146	-2.6167	-2.6042	-3.2333	-2.8021	-2.7354	-2.9062	-2.5917	-3.0792	-2.7083	-2.8125	-3.0396	-2.8063	49.492	226.494	29.869	216.458	182.249	-82.133	144.996	134.532	14.644	58.159	239.306	200.136	197.912	246.132	30.102	220.545	0.0008666	0.00075699	0.00017497	744.09	5.0375e-06	1.5818e-05	862.88	284.63	1.8412e-05	2.0233e-05	372.8	145.08	109.71	45.154	5.8928e-06	62.677	0.0025978	0.0023126	0.0006075	1031.6	2.9401e-05	2.5822e-05	865.06	291.39	2.9158e-05	2.4937e-05	381.56	149	115.99	46.531	2.3185e-05	65.212	-15.979	121.966	135.357	-87.179	37.070	31.027	-88.716	-82.412	45.119	11.576	-84.407	-80.395	-78.430	-74.142	258.530	-77.755	-8191	255	
1892.184	1	1	0	0	0.10126	0.092835	0.32413	0.21055	0.14375	0.043996	0.25185	0.034554	0.15019	0.20096	0.2714	0.068218	0.22091	0.16544	0.3652	0.21696	-2.3375	-2.7125	-2.5917	-2.8104	-2.8354	-2.65	-3.1937	-2.7417	-3.0396	-2.9437	-2.7208	-2.9854	-2.8875	-2.7375	-3.1646	-2.7729	-70.645	-83.871	232.005	74.168	1.814	157.980	199.077	74.587	11.800	-83.894	259.347	145.844	-66.681	225.186	199.217	195.147	0.00050074	0.0024444	0.00030599	736.78	1.0678e-05	1.173e-05	873.93	287.7	1.989e-05	2.2066e-05	374.24	146.72	110.17	45.747	1.2707e-05	63.763	0.002564	0.0022782	0.00062256	1082.1	2.8329e-05	2.6e-05	872.2	296.13	2.8716e-05	2.4849e-05	386.87	152.57	116.16	46.984	2.5103e-05	66.875	74.328	-20.341	-31.389	-87.681	4.172	58.679	-88.659	-82.022	59.151	79.482	-84.702	-80.660	-78.445	-74.227	198.899	-77.998	-8191	255	
1892.280	1	1	0	0	0.23919	0.084718	0.10701	0.28039	0.16416	0.24918	0.21132	0.10658	0.19008	0.10122	0.11219	0.10844	0.19937	0.15385	0.16178	0.14852	-2.4792	-2.8937	-2.5875	-3.0583	-2.8646	-2.7583	-3.0375	-2.9833	-2.675	-3.1	-2.7	-2.8438	-3.1104	-2.525	-3.1104	-2.7792	-94.839	-32.370	-83.985	239.707	216.845	16.055	163.894	125.495	91.968	107.042	233.028	152.410	-92.651	247.027	218.071	140.844	0.00070415	0.0025876	0.00063322	770.29	5.9659e-06	1.5248e-05	877.23	289.71	1.7935e-05	1.0298e-05	378.18	148.63	111	46.009	1.6285e-05	64.378	0.0025018	0.0022659	0.00067387	1128.2	2.7451e-05	2.5761e-05	890.5	299.68	2.754e-05	2.4429e-05	397.34	154.57	115.63	47.19	2.7804e-05	67.431	0.970	9.115	179.151	-88.261	35.089	-4.447	-88.901	-82.196	34.905	18.661	-84.661	-80.497	-77.967	-74.326	201.703	-77.624	-8191	255	
1892.401	1	1	0	0	0.29258	0.16565	0.1408	0.35987	0.21922	0.10619	0.18596	0.23176	0.30229	0.35015	0.26141	0.10618	0.099302	0.15127	0.18391	0.13898	-2.1042	-2.8937	-2.6604	-2.775	-3.0083	-2.5458	-2.9479	-2.8708	-2.6813	-2.9042	-2.7875	-2.9354	-2.9542	-2.65	-3.0187	-2.9104	26.970	141.001	143.061	187.718	48.240	-95.913	227.984	234.294	177.636	125.456	170.725	142.460	99.128	120.238	204.047	251.199	0.00085331	0.0015146	0.00021268	773.65	1.206e-05	5.7978e-06	886.52	290.29	9.689e-06	4.7937e-06	379.15	148.36	110.2	45.624	2.2483e-05	63.067	0.0023809	0.0022122	0.00073637	1119.6	2.6016e-05	2.5017e-05	906.61	298.72	2.6328e-05	2.4189e-05	401.83	152.59	114.83	46.79	2.9962e-05	65.484	7.174	66.534	70.555	-87.571	105.533	71.011	-88.768	-82.297	89.940	73.881	-84.589	-80.400	-78.302	-73.871	198.933	-77.818	-8191	255	
1892.497	1	1	0	0	0.2813	0.23873	0.21374	0.069155	0.040574	0.27421	0.19404	0.13428	0.19098	0.11858	0.1691	0.18443	0.15475	0.031726	0.24922	0.10375	-2.2729	-3.1188	-2.6375	-2.8229	-2.9875	-2.55	-3.0271	-3.075	-2.4562	-3.0729	-2.9333	-2.9417	-2.9542	-2.6667	-3.1167	-3.1312	96.820	174.385	-85.496	158.835	-91.249	172.987	176.383	-80.749	237.211	21.830	164.266	-13.696	-14.986	-83.601	50.671	67.201	0.00036511	0.00098221	0.00043806	760.09	5.8612e-06	1.3407e-05	864.81	286.23	6.3983e-06	5.5495e-06	370.18	145.5	108.11	44.432	4.8746e-06	61.82	0.0023185	0.0022425	0.00077662	1076.3	2.4648e-05	2.5679e-05	894.49	290.36	2.4793e-05	2.5144e-05	393.4	147.74	111.83	46.144	2.9924e-05	63.685	26.392	62.297	127.830	-87.298	230.664	128.287	-88.097	-82.195	-4.730	232.547	-84.491	-80.741	-78.103	-74.089	103.053	-77.283	-8191	255	
1892.593	1	1	0	0	0.17974	0.06006	0.092312	0.18553	0.17638	0.22907	0.044069	0.21875	0.089422	0.15492	0.17444	0.10273	0.16098	0.25856	0.11903	0.2417	-2.3083	-2.9417	-2.6854	-2.6729	-3.1708	-2.5979	-3.0896	-3.1708	-2.4813	-3.1896	-2.5833	-2.7771	-3.175	-2.8104	-2.8917	-3.1479	-81.650	27.846	133.828	230.467	129.354	-74.629	-43.136	180.122	197.284	85.828	105.080	144.058	73.029	225.120	68.669	126.415	0.00080886	0.0024526	0.00024909	740.58	1.8782e-05	2.0563e-05	864.18	284.23	1.4363e-05	1.1808e-05	372.29	145.73	108.76	44.556	1.1553e-05	62.067	0.0021743	0.0023878	0.0007608	1036.5	2.3421e-05	2.7328e-05	887.21	286.69	2.4056e-05	2.7344e-05	391.5	146.96	111.33	46.723	2.8283e-05	63.109	-19.388	151.756	75.692	-87.153	61.265	-85.729	-88.673	-82.487	-64.312	-10.619	-84.892	-80.668	-78.083	-73.552	-5.688	-77.454	-8191	255	
1892.689	1	1	0	0	0.094318	0.30347	0.097415	0.2167	0.23981	0.094508	0.097594	0.36875	0.3253	0.054842	0.25832	0.2763	0.18016	0.3861	0.067377	0.13755	-2.0854	-2.8104	-2.6229	-2.45	-3.0563	-2.7583	-2.8667	-2.9813	-2.675	-2.9375	-2.7833	-2.8229	-3.0896	-2.7083	-2.8563	-3.125	172.461	-57.370	31.837	141.471	33.235	242.524	162.002	190.138	227.346	49.763	229.444	249.561	229.712	230.252	101.722	15.696	0.0006469	0.0017197	0.00036109	742.78	1.1475e-05	1.6432e-05	870.77	286.91	5.1232e-06	1.2248e-06	374.69	146.4	109.5	45.339	2.0636e-05	63.41	0.0021153	0.0025863	0.00070291	1017.8	2.3391e-05	2.9084e-05	886.51	287.48	2.4587e-05	2.9351e-05	390.11	147.47	113.26	47.767	2.6859e-05	63.908	-65.393	178.537	-18.773	-87.051	157.871	-42.709	-88.570	-82.195	182.932	119.558	-84.760	-80.785	-78.344	-74.183	90.429	-77.703	-8191	255	
1892.784	1	1	0	0	0.10288	0.14458	0.19981	0.11021	0.13701	0.30134	0.15659	0.072801	0.14099	0.12928	0.16416	0.071013	0.16487	0.058215	0.15283	0.042474	-1.9896	-3.0458	-2.7104	-2.5563	-3.0042	-2.7521	-2.8271	-3.0021	-2.6396	-2.9833	-2.9	-2.7	-3.1604	-2.825	-2.6458	-3.2146	86.644	15.858	-9.258	254.708	29.015	12.864	-93.042	233.128	195.095	114.830	233.741	215.692	194.099	-72.763	203.287	188.477	0.00132	0.0017193	0.00063973	774.66	6.4114e-06	1.422e-05	887.13	289.63	1.5008e-05	2.4595e-05	380.74	147.66	109.66	45.429	8.1174e-06	63.729	0.0022475	0.002704	0.00065462	1014.5	2.4947e-05	2.9425e-05	892.26	289.46	2.6157e-05	2.9585e-05	390.8	148.38	115.5	47.909	2.6017e-05	64.2	-18.017	104.404	-13.014	-87.509	-82.560	13.405	-88.621	-82.263	248.041	-61.631	-84.996	-80.576	-78.057	-74.305	215.319	-77.495	-8191	255	
1892.880	1	1	0	0	0.079685	0.019429	0.016463	0.07811	0.16289	0.24565	0.25578	0.22639	0.16779	0.15303	0.31572	0.053135	0.057699	0.30937	0.030056	0.083662	-2.1854	-2.8167	-3.0021	-2.4646	-3.0771	-2.7104	-2.8479	-3.0563	-2.5646	-2.7375	-2.9104	-2.4917	-2.8333	-2.9208	-2.5458	-3.0792	-3.930	99.816	50.350	160.601	-7.000	1.925	206.634	185.062	163.690	171.576	244.444	147.714	45.709	203.721	-39.548	2.194	0.00091749	0.00084547	0.00040968	763.01	1.6266e-05	3.495e-06	865.31	284.61	2.8773e-05	1.5114e-05	371.9	145.08	108.88	45.262	2.0489e-05	62.689	0.0024884	0.002711	0.00064146	1012.7	2.8296e-05	2.8759e-05	876.47	286.03	2.8856e-05	2.8625e-05	383.02	146.32	115.84	47.056	2.5143e-05	63.639	-29.420	-39.027	-3.920	-87.972	202.002	124.778	-88.384	-82.446	85.060	54.484	-84.754	-80.608	-78.520	-74.010	16.664	-77.724	-8191	255	
1892.978	1	1	0	0	0.17231	0.085809	0.10584	0.32292	0.08699	0.32414	0.12174	0.34001	0.19678	0.23335	0.1307	0.076596	0.262	0.39786	0.16284	0.16048	-2.3187	-2.8271	-2.9417	-2.7542	-2.9688	-2.7458	-2.9125	-3.0812	-2.7229	-2.7771	-3.0042	-2.7479	-2.8937	-3.1	-2.6729	-2.8667	230.053	192.246	186.337	-42.183	240.003	-40.963	-74.564	179.236	137.271	-44.159	258.956	229.386	-91.261	244.782	214.608	145.367	0.00059094	0.0036926	0.00076798	755.65	1.5374e-05	1.2103e-05	865.31	285.61	1.7334e-05	3.8203e-06	371.76	145.82	109.39	45.584	2.566e-05	62.421	0.0026449	0.0025632	0.0006215	1032.3	3.029e-05	2.7479e-05	874.29	287.76	3.0433e-05	2.7638e-05	380.32	148.22	117.19	46.878	2.4817e-05	64.666	-66.531	-3.295	-17.888	-87.104	128.916	-48.462	-88.158	-82.631	-70.527	-91.266	-84.416	-80.849	-78.171	-73.911	40.212	-77.403	-8191	255	
1893.097	1	1	0	0	0.24299	0.20822	0.10564	0.24105	0.11906	0.057646	0.20595	0.26423	0.27932	0.30063	0.10691	0.35108	0.25246	0.29341	0.085216	0.35077	-2.2229	-2.7083	-3.0542	-2.8146	-2.8583	-3.1354	-2.5333	-3.1479	-2.9833	-2.6188	-3.0917	-2.8125	-2.8125	-3.1042	-2.7708	-2.925	202.135	69.150	160.887	100.177	130.852	53.684	219.566	224.945	-87.240	146.397	-75.970	228.827	84.718	-96.240	13.326	249.611	0.00068608	0.0015746	0.00019018	741.57	8.9943e-06	1.4627e-05	865.24	286.7	9.5567e-06	7.0937e-06	373.56	145.62	109.38	45.536	9.781e-06	63.406	0.0026367	0.0024235	0.00059122	1057.7	2.9594e-05	2.5411e-05	869.44	291.82	2.9216e-05	2.6087e-05	380.48	149.99	116.16	46.463	2.3919e-05	65.758	26.951	-40.902	3.935	-87.605	86.166	-26.825	-88.511	-82.207	44.752	-71.685	-84.689	-80.632	-78.695	-74.275	-90.800	-77.219	-8191	255	
1893.193	1	1	0	0	0.31144	0.19881	0.24161	0.043299	0.31905	0.16685	0.25686	0.10104	0.14483	0.1758	0.047838	0.037189	0.14901	0.22163	0.17373	0.13077	-2.3604	-2.6333	-2.8271	-2.7792	-2.8187	-2.8208	-2.7083	-2.9854	-2.8896	-2.4938	-2.9646	-2.9021	-2.7125	-2.9875	-2.7604	-2.9521	218.131	105.324	5.581	43.497	225.479	156.970	186.777	193.730	127.058	24.735	124.008	184.257	206.804	226.756	247.616	227.403	0.00020772	0.002132	9.7699e-05	749.27	5.1766e-06	5.7141e-06	858.43	283.66	2.8667e-05	1.7601e-05	366.27	143.34	108.34	44.753	1.1082e-05	61.745	0.0024852	0.0022995	0.00059038	1082.4	2.7707e-05	2.4036e-05	866.05	292.29	2.6659e-05	2.4663e-05	377.58	148.48	113.58	45.508	2.478e-05	64.746	87.023	24.912	23.233	-87.609	10.923	30.958	-88.573	-82.423	8.783	40.286	-84.881	-80.332	-78.096	-73.853	166.328	-77.286	-8191	255	
1893.289	1	1	0	0	0.31196	0.14684	0.27321	0.19196	0.16218	0.12579	0.31245	0.29568	0.10791	0.10778	0.26577	0.15732	0.15059	0.16107	0.11624	0.15463	-2.3937	-2.5833	-2.8542	-2.5938	-2.7812	-3.0687	-2.6646	-3.1312	-2.8	-2.6667	-2.9917	-2.8417	-2.7979	-3.1042	-2.4708	-3.0125	-100.198	69.561	76.540	-62.181	95.117	256.080	169.472	169.771	-85.556	37.233	-88.721	140.942	162.297	220.514	223.866	147.035	0.00038984	0.002115	0.00030262	732.71	6.0072e-06	6.4185e-06	845.55	281.58	1.5032e-05	2.3352e-06	363.86	142.75	107.71	44.54	1.4502e-05	61.582	0.0022941	0.0022006	0.00062887	1083	2.5924e-05	2.2913e-05	861.99	289.76	2.4971e-05	2.4124e-05	379.74	147.29	112.39	45.37	2.7558e-05	64.501	29.627	-19.932	178.017	-87.771	31.503	25.505	-88.421	-82.473	12.343	215.039	-84.829	-80.550	-78.099	-74.071	234.354	-77.366	-8191	255	
1893.385	1	1	0	0	0.24085	0.13528	0.20241	0.14109	0.16483	0.14601	0.15259	0.15057	0.25105	0.33507	0.16544	0.15599	0.24819	0.086948	0.25394	0.16031	-2.3812	-2.3875	-3.0896	-2.8125	-2.8771	-3.0792	-2.7	-2.8333	-3.0542	-2.7313	-2.975	-2.8771	-2.5438	-3.2875	-2.6042	-2.8833	8.046	45.550	225.526	213.426	136.349	106.792	150.886	160.740	-35.585	204.482	79.954	104.292	234.740	40.169	-81.354	227.536	0.00067515	0.0017459	3.7461e-05	747.86	1.0927e-05	1.2039e-05	856.41	282.08	2.1151e-06	8.5805e-06	365.39	144.02	107.89	44.425	1.3814e-05	61.94	0.0022276	0.0022113	0.00071014	1072.1	2.5472e-05	2.3457e-05	876.75	288.48	2.4232e-05	2.4207e-05	386.74	146.38	111.99	45.46	2.9003e-05	64.129	-8.722	74.318	-8.843	-87.917	67.474	29.095	-88.376	-81.896	24.886	47.399	-84.473	-80.333	-77.937	-73.930	-70.290	-77.329	-8191	255	
1893.481	1	1	0	0	0.11124	0.11442	0.090035	0.11705	0.12106	0.10802	0.13052	0.13314	0.2511	0.27307	0.066741	0.19003	0.21269	0.15426	0.117	0.195	-2.5625	-2.5104	-2.8417	-2.8812	-2.6542	-3.1208	-2.6958	-2.7979	-3.0104	-2.8104	-2.8354	-3.0062	-2.4167	-3.0667	-2.6979	-2.8167	164.767	222.350	122.740	246.746	-9.992	164.593	147.724	243.036	-58.347	-38.725	65.800	-5.929	259.679	137.689	40.938	188.652	0.00054438	0.00034765	0.00059338	754.81	1.2818e-05	9.2754e-06	859.47	283.06	9.6541e-06	9.1668e-06	373.29	145.25	109.04	44.76	6.912e-06	63.193	0.0021064	0.0022744	0.00075541	1038.6	2.4605e-05	2.4856e-05	886.27	288.61	2.3393e-05	2.5885e-05	395	146.98	112.24	46.258	2.8962e-05	64.428	-36.699	65.542	97.753	-86.080	27.640	201.670	-88.453	-82.223	-91.771	223.337	-84.128	-80.346	-78.182	-74.014	114.764	-77.053	-8191	255	
1893.577	1	1	0	0	0.053378	0.11143	0.11094	0.31046	0.044305	0.16082	0.22272	0.10326	0.19647	0.11921	0.07883	0.25878	0.064431	0.064791	0.14627	0.092209	-2.6312	-2.5125	-2.8688	-2.9333	-2.5521	-3.0146	-2.8521	-2.7542	-3.0708	-2.5979	-2.9417	-3.1083	-2.5542	-3.0354	-2.6833	-2.6396	-18.574	-48.293	208.512	-47.898	53.614	125.542	109.093	-78.010	-69.769	129.466	154.212	-59.995	135.451	132.014	160.138	205.214	0.00053916	0.0026466	0.0003239	757.68	1.1071e-05	7.4403e-06	878.06	285.98	7.9579e-06	4.7086e-06	378.34	145.61	108.59	44.624	2.5215e-05	62.814	0.0020255	0.0024388	0.00074105	1018.1	2.3616e-05	2.6878e-05	897.7	289.56	2.259e-05	2.779e-05	396.35	146.64	112.24	46.834	2.7436e-05	63.882	-16.781	110.651	-41.163	-87.216	60.083	-45.245	-88.296	-82.268	41.014	-39.056	-84.941	-80.222	-78.100	-74.077	77.277	-77.148	-8191	255	
1893.698	1	1	0	0	0.16177	0.21359	0.12354	0.11606	0.59691	0.20483	0.078054	0.28787	0.27483	0.080259	0.22629	0.38456	0.1172	0.13476	0.1338	0.17126	-2.5	-2.7771	-2.6375	-3.2	-2.5062	-2.9333	-2.9396	-2.5583	-3.0979	-2.8021	-3.0792	-3.0125	-2.775	-2.9813	-2.7083	-2.925	-18.869	202.443	149.159	84.657	78.814	38.024	165.921	144.748	3.111	66.926	258.218	239.234	-34.560	170.543	193.003	202.049	0.000605	0.00056761	0.00042627	744.84	5.0653e-06	1.1027e-05	863.18	282.92	1.5255e-05	1.9873e-05	369.54	143.2	107.42	44.625	2.1749e-05	61.8	0.0020331	0.0026216	0.00069853	996.44	2.398e-05	2.8789e-05	875.61	285.31	2.3654e-05	2.9579e-05	385.66	143.9	112.32	47.048	2.5923e-05	63.062	-30.346	-29.651	-22.599	-87.544	213.384	-52.113	-88.243	-82.398	-98.543	46.507	-84.507	-80.502	-78.054	-73.657	82.962	-77.276	-8191	255	
1893.793	1	1	0	0	0.11985	0.28194	0.060426	0.12578	0.13081	0.095158	0.31558	0.25535	0.15209	0.13003	0.14291	0.18701	0.24697	0.22527	0.16009	0.056327	-2.6792	-2.7438	-2.8542	-3.1396	-2.7104	-3.0208	-3.0375	-2.7687	-3.0687	-2.7479	-2.8625	-3.15	-2.6854	-2.8438	-2.9375	-2.5458	-30.091	-47.614	143.423	214.467	-64.112	214.077	181.589	230.782	-12.237	66.349	-51.197	256.208	-90.673	-32.874	161.078	-3.913	0.00093148	0.00092038	0.00026178	748.89	2.9702e-06	1.229e-05	854.42	280.64	1.6145e-05	4.1624e-06	368.6	142.9	107.57	44.754	2.4373e-05	62.647	0.0022359	0.0027309	0.00066927	982.94	2.6697e-05	2.9844e-05	864.76	283.65	2.6576e-05	2.9682e-05	382.94	143.99	113.88	47.087	2.5036e-05	63.571	-34.389	34.037	-14.640	-87.866	-94.678	188.041	-88.566	-82.125	170.574	195.129	-84.762	-80.630	-78.244	-73.592	-5.485	-77.427	-8191	255	
1893.889	1	1	0	0	0.26771	0.23806	0.19883	0.20732	0.10974	0.30253	0.14913	0.083731	0.25743	0.075762	0.15098	0.15545	0.1257	0.12708	0.2463	0.1054	-2.5542	-2.8479	-2.6458	-3.1229	-2.7604	-2.8854	-3.1771	-2.6875	-2.8792	-2.8792	-2.6771	-3.2146	-2.7854	-2.6604	-2.9771	-2.5708	84.532	12.588	122.276	-28.414	-91.724	139.191	-96.270	232.081	21.377	194.878	44.481	220.963	241.912	-79.634	233.495	104.955	0.0009039	0.0020888	0.00022714	730.15	9.2076e-06	2.8889e-05	859.86	283.48	1.1944e-05	1.9808e-05	372.53	145.31	107.92	45.165	1.5301e-05	63.01	0.0024957	0.0026486	0.00065441	994.99	2.9074e-05	2.8827e-05	868.22	286.35	2.9061e-05	2.7968e-05	383.7	145.8	115.68	46.932	2.3942e-05	64.144	-13.600	46.647	107.004	-88.193	209.019	44.825	-88.553	-82.146	60.182	26.027	-84.926	-80.219	-77.848	-73.566	27.684	-77.478	-8191	255	
1893.960	1	1	0	0	0.33952	0.1922	0.28449	0.1785	0.021757	0.14274	0.1111	0.051493	0.13926	0.19108	0.2598	0.15017	0.20575	0.18457	0.24399	0.32305	-2.6125	-2.8521	-2.3021	-3.1688	-2.8104	-2.8771	-3.025	-2.7729	-3.0958	-3.0396	-2.6479	-3.1	-2.6813	-2.7104	-2.9958	-2.6521	135.858	-95.992	-47.601	132.191	180.813	119.353	143.229	-96.905	42.772	254.588	207.933	243.934	-91.945	-65.280	217.957	199.504	0.00072517	0.0013181	0.00078644	746.13	1.259e-05	1.9954e-05	875.13	287.56	8.928e-06	1.7686e-05	378.96	145.93	110.04	45.003	1.2357e-06	63.374	0.0026152	0.0024443	0.00062553	1018.8	2.9939e-05	2.676e-05	876.12	291.33	2.9784e-05	2.6227e-05	387.19	148.55	116.8	46.705	2.3306e-05	65.328	-17.613	-47.986	-27.240	-87.757	60.852	42.577	-88.616	-82.035	-99.870	52.549	-84.536	-80.929	-77.898	-73.717	53.768	-77.110	-8191	255	
1894.081	1	1	0	0	0.082231	0.13604	0.080006	0.20816	0.16917	0.035989	0.087568	0.20361	0.050586	0.12904	0.10818	0.2141	0.38209	0.21479	0.15907	0.24807	-2.2708	-3.0271	-2.5125	-3.1042	-2.7104	-2.8083	-2.9771	-2.725	-2.7812	-2.9729	-2.7229	-3.2062	-2.8438	-2.7521	-3.1292	-2.625	-73.071	109.727	226.663	142.491	52.439	183.632	30.830	205.042	179.754	1.268	13.993	185.458	-63.919	-89.515	134.158	-80.936	0.00065016	0.00023097	0.00012402	748.66	2.0027e-05	3.9697e-06	864.06	283.57	2.3354e-05	1.1198e-05	368.45	142.99	108.63	44.894	1.3238e-05	62.018	0.0026431	0.0023123	0.00061606	1057.3	2.9099e-05	2.5781e-05	863.41	291.59	2.9197e-05	2.5262e-05	379.57	148.31	114.96	46.325	2.3991e-05	65.247	8.971	144.843	34.864	-88.447	41.681	-0.805	-88.384	-82.255	-20.405	51.171	-84.512	-80.947	-77.938	-73.943	-55.288	-77.231	-8191	255	
1894.177	1	1	0	0	0.18117	0.15332	0.13828	0.17124	0.15515	0.059654	0.091244	0.046101	0.12999	0.097349	0.20834	0.20118	0.12096	0.28577	0.26552	0.17155	-2.4167	-2.8	-2.5354	-2.9021	-2.9229	-2.7313	-3.0333	-2.7687	-2.9437	-2.8146	-2.6271	-2.9167	-2.7396	-2.6375	-3.1354	-2.9521	-21.814	48.075	114.337	58.048	53.789	121.587	192.111	-88.896	-78.426	50.147	-28.531	185.838	-71.521	-99.714	140.180	244.457	0.00025393	0.001105	0.0003915	741.39	1.4808e-05	1.4409e-05	858.57	281.63	1.9207e-05	1.3617e-05	366.01	143.29	107.3	45.037	2.2753e-05	61.881	0.0025686	0.0022966	0.00063957	1094.4	2.7762e-05	2.5381e-05	861.48	291.37	2.7536e-05	2.4264e-05	379.85	148.78	113.08	46.102	2.5778e-05	65.559	-3.273	-75.195	136.384	-86.723	32.131	3.141	-88.475	-82.136	14.946	-76.177	-84.793	-80.487	-78.108	-74.046	258.232	-76.977	-8191	255	
1894.273	1	1	0	0	0.14558	0.3297	0.099468	0.2061	0.10428	0.078907	0.058546	0.16997	0.15819	0.085213	0.21316	0.14577	0.19621	0.35369	0.13811	0.25379	-2.3688	-3.0687	-2.6063	-3.0333	-3	-2.5792	-3.1104	-2.9604	-2.6437	-3.1667	-2.6083	-3.0208	-3.0271	-2.7333	-3.0104	-2.9354	-77.196	-58.371	-30.781	9.620	-47.165	92.024	228.462	207.350	-25.707	256.748	231.486	-82.952	241.687	-17.279	112.612	235.379	0.00022137	0.0011752	0.00043182	758.91	1.5879e-05	8.0208e-06	855.71	282.06	2.4212e-05	1.1291e-05	367.59	142.73	107.81	44.357	1.8032e-05	62.255	0.0024174	0.0022167	0.00069831	1118.6	2.654e-05	2.5248e-05	876.8	292.15	2.6726e-05	2.3885e-05	388.29	148.88	112.71	45.913	2.8705e-05	65.383	-1.914	25.635	159.363	-86.554	40.696	126.737	-88.683	-82.271	69.414	36.043	-84.789	-80.368	-77.842	-74.005	168.496	-77.553	-8191	255	
1894.369	1	1	0	0	0.27058	0.14393	0.37433	0.12497	0.17445	0.084928	0.36125	0.15815	0.26746	0.17493	0.23384	0.04081	0.39688	0.39983	0.24841	0.26948	-2.3438	-3.0021	-2.625	-2.9479	-2.95	-2.8	-3.1271	-2.9875	-2.5167	-3.1125	-2.6	-3.0583	-2.975	-2.7396	-2.8063	-2.8833	200.126	-6.071	-41.334	-26.635	147.234	84.228	251.622	30.327	248.792	16.431	166.953	230.862	226.847	217.806	232.136	212.923	0.00051222	0.00093483	0.00031142	750.5	2.3393e-05	1.5343e-05	845.45	281.27	1.3467e-05	1.037e-05	365.02	141.69	107.14	44.503	1.1127e-05	61.498	0.0023612	0.002211	0.00075678	1088.9	2.5571e-05	2.5308e-05	881.89	289.18	2.5938e-05	2.4747e-05	390.01	146.46	111.26	45.982	3.0505e-05	63.874	22.443	245.043	-7.996	-88.035	76.369	157.361	-88.413	-82.179	-46.708	54.550	-84.488	-80.803	-78.241	-73.430	207.180	-77.542	-8191	255	
1894.490	1	1	0	0	0.092962	0.18	0.27273	0.14781	0.14982	0.061885	0.25394	0.11017	0.048327	0.071932	0.088218	0.066369	0.13927	0.18491	0.2216	0.2335	-2.1417	-3.1646	-2.6937	-2.7375	-2.875	-2.5542	-3.0896	-2.7979	-2.6542	-2.9625	-2.8208	-2.6375	-3.2188	-2.5271	-2.9542	-2.9583	-43.821	11.199	-37.302	182.045	56.410	156.570	198.709	154.499	191.182	-82.202	78.165	-84.529	-98.412	-29.340	19.273	147.668	0.00045567	0.0023247	0.00046227	741.31	1.204e-05	5.2387e-06	847.96	279.61	8.7327e-07	3.0612e-05	365.66	141.2	106.17	43.959	6.9514e-06	61.134	0.0022739	0.0023361	0.00078484	1057.2	2.4519e-05	2.6847e-05	882	284.51	2.5206e-05	2.6821e-05	388.08	144.98	110.53	46.334	3.0225e-05	63.015	43.924	153.930	-63.469	-88.051	24.550	133.561	-88.660	-82.007	-65.876	203.182	-85.052	-80.569	-78.114	-73.932	57.888	-77.454	-8191	255	
1894.562	1	1	0	0	0.33658	0.093052	0.047889	0.050288	0.29402	0.043607	0.043362	0.3608	0.09288	0.11352	0.08456	0.443	0.26501	0.22833	0.11186	0.24578	-2.2083	-2.8542	-2.8271	-2.6542	-3.0208	-2.775	-2.9188	-2.7687	-2.6625	-3.0938	-2.8875	-2.6479	-2.9521	-2.7438	-2.6937	-2.9708	117.398	215.439	96.931	-93.656	70.496	19.649	146.376	207.031	254.990	-21.151	240.089	-89.521	235.961	-15.053	64.437	193.079	0.00017305	0.00084551	0.00068895	740.76	4.297e-06	6.4787e-06	850.45	282.09	7.8084e-06	8.3196e-06	368.45	142.94	107.84	44.546	1.6001e-05	62.292	0.0022043	0.0025623	0.00075618	1038.9	2.3746e-05	2.9024e-05	878.53	284.17	2.4524e-05	2.8771e-05	386.75	145.06	111.38	47.09	2.837e-05	63.157	101.821	156.111	21.853	-88.113	114.430	173.738	-88.215	-82.410	37.491	140.511	-84.863	-80.242	-78.242	-74.150	41.499	-77.338	-8191	255	
1894.658	1	1	0	0	0.077581	0.14129	0.14034	0.064464	0.17542	0.41905	0.059469	0.21591	0.16552	0.18441	0.14531	0.38688	0.26517	0.1566	0.1325	0.50424	-2.2833	-2.9979	-2.6208	-2.6083	-3.1188	-2.775	-2.5062	-3.1312	-2.6542	-2.9125	-2.9229	-2.5438	-3.2062	-2.6708	-2.6104	-3.1271	174.153	82.474	191.941	137.663	-88.428	146.759	159.728	142.103	231.820	27.059	-70.646	-77.232	-55.644	202.593	100.414	195.867	0.00081274	0.0015111	0.00043435	742.72	8.7152e-06	1.1381e-05	865.98	282.69	8.1928e-06	2.4614e-06	370.82	144.16	108.49	44.761	1.7495e-05	62.722	0.0022106	0.0027214	0.00070429	1027.5	2.4486e-05	3.0123e-05	880.75	284.52	2.5398e-05	3.0035e-05	385.36	145.28	112.63	47.337	2.6401e-05	63.326	-33.405	113.482	-46.479	-87.603	-95.650	98.805	-88.509	-82.047	-61.660	139.472	-84.646	-80.441	-77.930	-73.956	67.928	-77.270	-8191	255	
1894.778	1	1	0	0	0.18917	0.016041	0.1039	0.08881	0.17513	0.094217	0.030319	0.17864	0.13112	0.23393	0.35877	0.31778	0.08306	0.13277	0.056963	0.15271	-2.0521	-2.625	-2.8625	-2.5667	-2.8875	-2.5625	-2.9667	-2.9521	-2.5438	-2.8542	-3.0646	-2.7292	-2.9625	-2.775	-2.5021	-2.9333	-15.251	29.393	63.343	11.572	-42.184	69.141	248.989	197.532	-67.284	-73.003	-86.375	228.630	-96.927	-75.075	78.327	185.934	0.0013712	0.0021206	0.000517	761.04	9.6622e-06	6.4963e-06	876.13	286.69	3.8723e-06	2.0693e-05	378.08	146.08	109.03	45.228	1.5031e-05	63.165	0.0023763	0.0027414	0.00065967	1022.8	2.7022e-05	3.0098e-05	887.46	287.83	2.8003e-05	3.0006e-05	389.4	147.13	115.77	47.404	2.5881e-05	63.648	-19.168	27.041	-7.714	-87.287	193.056	33.704	-88.181	-81.929	213.562	-35.952	-84.775	-80.602	-77.792	-73.760	4.759	-77.114	-8191	255	
1894.873	1	1	0	0	0.29391	0.065609	0.16216	0.13541	0.21966	0.084642	0.15492	0.21816	0.095103	0.26033	0.15103	0.20625	0.056531	0.17742	0.096331	0.13768	-2.2271	-2.7938	-2.9396	-2.6958	-2.9	-2.8604	-2.6083	-3.2875	-2.5563	-2.6479	-3.0438	-2.6375	-3.0563	-2.8771	-2.5208	-3.2667	77.605	119.151	12.244	49.312	163.706	174.262	243.218	-68.548	151.704	146.563	141.307	137.832	208.389	-94.069	82.133	104.300	0.00061608	0.0021904	0.00044003	754.18	1.1995e-05	3.0436e-05	864.65	282.98	1.8997e-05	1.5351e-05	366.84	143.22	107.74	44.861	1.6261e-05	61.953	0.00257	0.0026527	0.00063182	1022	2.9404e-05	2.8338e-05	875.31	285.71	2.9885e-05	2.8347e-05	379.29	145.46	115.52	46.359	2.5111e-05	63.243	-38.472	-54.391	59.427	-87.169	-78.233	24.255	-88.039	-82.030	-77.580	28.527	-84.635	-80.667	-77.743	-73.262	4.257	-77.425	-8191	255	
1894.969	1	1	0	0	0.33174	0.28497	0.17247	0.13253	0.18569	0.14929	0.27618	0.16957	0.1696	0.12123	0.10646	0.1908	0.035597	0.23408	0.10348	0.12488	-2.2542	-2.5875	-3.1063	-2.625	-2.8375	-2.9292	-2.6667	-3.1167	-2.7562	-2.6521	-3.1708	-2.7125	-2.8125	-2.9521	-2.7375	-3.0187	191.621	104.237	162.542	65.955	139.297	-43.163	256.603	-50.732	203.482	213.307	51.174	33.821	-68.672	218.164	84.282	-59.791	0.00081628	0.00085662	0.00047522	749.84	8.7353e-06	2.6058e-05	855.74	282.57	1.3082e-05	3.3791e-06	364.43	142.22	107.73	44.714	8.1634e-06	61.975	0.0026547	0.0024682	0.00060877	1034	3.0151e-05	2.6149e-05	861.58	285.8	2.9728e-05	2.6339e-05	374.56	146.3	115.35	46.012	2.4227e-05	64.213	-9.864	85.814	50.076	-88.094	94.890	17.633	-88.314	-82.559	227.191	4.515	-84.843	-80.679	-77.657	-73.588	127.602	-77.259	-8191	255	
1895.090	1	1	0	0	0.049947	0.10508	0.14336	0.43328	0.26356	0.21957	0.094207	0.13195	0.15724	0.12079	0.11663	0.27386	0.19498	0.41364	0.16779	0.19811	-2.2792	-2.5938	-3.0812	-2.475	-2.9562	-2.7875	-2.925	-3.1937	-2.8604	-2.8187	-3.175	-2.8479	-2.7396	-2.9271	-2.5771	-3.0354	65.586	233.887	208.860	18.135	-50.874	73.290	210.658	-4.552	6.548	67.461	45.444	210.724	223.115	257.308	110.338	233.537	0.00050854	0.0024732	0.00045185	745.77	1.1623e-05	1.7462e-05	859.32	282.74	1.9207e-05	8.6106e-06	365.68	142.45	107.85	45.004	7.1898e-06	62.046	0.0026187	0.002401	0.00060246	1079.5	2.9384e-05	2.5205e-05	866.17	290.91	2.8574e-05	2.5942e-05	376.89	148.55	114.84	46.131	2.4959e-05	65.452	-40.304	5.288	8.990	-87.714	3.530	88.523	-88.259	-82.118	2.643	-81.012	-84.633	-80.502	-78.249	-73.764	178.964	-77.371	-8191	255	
1895.186	1	1	0	0	0.1606	0.24614	0.03948	0.12238	0.1566	0.084244	0.084205	0.136	0.072583	0.14533	0.12206	0.11428	0.2143	0.066081	0.13804	0.298	-2.425	-2.6604	-3.0146	-2.5896	-2.6896	-3.0167	-2.5417	-3.125	-2.675	-2.7167	-3.3083	-2.7896	-2.8229	-3.0542	-2.4083	-2.8521	101.299	-88.093	64.303	-21.546	119.047	-6.633	-94.561	195.916	46.452	55.367	217.695	249.275	235.489	221.306	-53.747	181.215	0.00059341	0.00081359	0.00038342	750.71	1.535e-05	1.0217e-05	872.42	283.24	2.2524e-05	1.4519e-05	374.84	144.66	109.31	45.08	1.1178e-05	62.978	0.0024584	0.0023286	0.00062442	1109.7	2.7982e-05	2.4475e-05	879.71	294.52	2.677e-05	2.5352e-05	387.09	150.54	114.34	46.127	2.6825e-05	65.967	11.175	239.825	166.842	-87.142	75.213	32.131	-88.881	-82.361	-82.794	30.532	-84.756	-80.263	-78.473	-73.700	217.567	-77.061	-8191	255	
1895.257	1	1	0	0	0.14503	0.11196	0.15939	0.19085	0.10977	0.11912	0.30052	0.36669	0.13523	0.20378	0.26678	0.1796	0.069209	0.11582	0.10912	0.24475	-2.2958	-2.4625	-2.9813	-2.5646	-2.6063	-3.1437	-2.6417	-3.0563	-2.9125	-2.4458	-3.0542	-2.7062	-2.7083	-3.1396	-2.6979	-2.975	-99.279	23.986	17.346	17.237	198.469	137.452	215.628	222.360	235.746	246.621	253.423	214.579	114.682	-44.113	11.758	203.336	0.00031374	0.0016462	0.00080905	753.77	8.1079e-06	1.4959e-05	857.42	284.09	1.7779e-05	2.5433e-05	364.64	142.15	107.63	44.716	2.0785e-05	61.458	0.0023139	0.0022686	0.00068568	1102.7	2.6613e-05	2.3897e-05	881.78	292.48	2.5574e-05	2.4932e-05	386.23	147.78	113.03	45.607	2.9638e-05	64.552	-30.722	-51.477	152.607	-87.327	136.249	72.590	-88.549	-82.066	-81.204	26.452	-84.758	-80.610	-78.012	-74.078	206.001	-77.324	-8191	255	
1895.378	1	1	0	0	0.031766	0.16062	0.10548	0.30372	0.14233	0.27615	0.2028	0.15392	0.16772	0.1477	0.04023	0.098868	0.1622	0.38623	0.30947	0.030308	-2.4458	-2.5208	-2.8937	-2.875	-2.6688	-3.0333	-2.8146	-2.8708	-2.95	-2.6646	-3.0354	-2.9958	-2.5604	-3.1333	-2.6854	-2.8979	255.168	109.941	105.329	130.498	103.867	-56.877	218.520	243.749	44.617	-73.423	259.488	100.713	-97.275	218.640	245.283	-48.016	0.00049119	0.00043727	0.00029369	756.78	9.3157e-06	1.0574e-05	845.49	282.9	1.3045e-05	1.9028e-05	362.28	142.26	107.61	44.338	1.4339e-05	61.396	0.0022705	0.0023185	0.00076105	1076.4	2.6142e-05	2.4815e-05	882.64	288.64	2.4849e-05	2.6098e-05	388.52	146.01	112.57	46.024	3.1085e-05	64.138	-13.142	154.027	186.532	-88.179	18.001	245.441	-88.602	-82.224	-25.660	172.223	-84.758	-80.630	-78.188	-74.200	-59.133	-77.502	-8191	255	
1895.474	1	1	0	0	0.091252	0.40371	0.21084	0.089492	0.18526	0.01417	0.47689	0.19263	0.0391	0.12346	0.043356	0.085042	0.21963	0.16347	0.14146	0.083108	-2.5604	-2.6188	-3.0062	-2.9	-2.6667	-3.0792	-2.6813	-2.8667	-3.1167	-2.5292	-3.1271	-2.9813	-2.6792	-2.775	-2.9	-2.5667	209.420	-22.089	187.803	133.706	99.103	-58.966	169.197	-92.813	153.269	18.613	-60.225	125.375	157.593	238.035	5.067	249.873	0.00034671	0.0020722	0.00028021	757.07	5.7415e-06	2.0903e-05	854.34	283.01	6.9271e-07	9.2748e-06	365.25	142.85	107.41	44.513	1.829e-05	61.808	0.002194	0.0024793	0.00079961	1055.3	2.5666e-05	2.727e-05	888.4	288.41	2.4484e-05	2.8525e-05	391.6	145.61	112.2	46.719	3.0371e-05	63.882	23.905	91.736	-36.352	-87.675	-9.020	191.790	-88.605	-82.478	129.613	251.510	-84.740	-80.846	-77.910	-74.488	20.000	-77.416	-8191	255	
1895.570	1	1	0	0	0.1977	0.13452	0.03464	0.13582	0.28447	0.32182	0.22814	0.34124	0.090835	0.13305	0.20916	0.11038	0.19912	0.19439	0.09844	0.16663	-2.5062	-2.7833	-2.8917	-2.7208	-2.6104	-3.0375	-2.8771	-2.7833	-2.9979	-2.7146	-2.875	-3.1875	-2.5646	-3.0021	-2.9583	-2.65	224.294	143.895	-37.961	-11.501	65.532	176.965	183.037	184.992	127.466	204.366	233.702	129.597	224.046	-48.515	101.233	99.408	0.00054438	0.0018867	0.00018844	755.01	5.7803e-06	1.9309e-05	864.58	284.23	9.8028e-06	1.0254e-05	372.28	144.12	109.08	44.757	1.4283e-05	62.86	0.002153	0.0027094	0.00077449	1040.1	2.5422e-05	2.9969e-05	893.55	289.19	2.4751e-05	3.1009e-05	394.17	146.51	113.83	47.831	2.8671e-05	64.4	-20.241	84.333	229.697	-87.826	171.994	179.202	-88.559	-82.330	117.446	79.914	-84.996	-80.782	-78.337	-73.971	11.503	-77.237	-8191	255	
1895.667	1	1	0	0	0.10262	0.20796	0.26424	0.1475	0.27649	0.026099	0.38502	0.26281	0.074179	0.1855	0.16661	0.25249	0.096111	0.20369	0.18401	0.1025	-2.7062	-2.7979	-2.7729	-3.0896	-2.4646	-2.8146	-2.9875	-2.4625	-3.0687	-2.7687	-2.7792	-3.0792	-2.6875	-2.9167	-2.7604	-2.7396	108.579	-70.502	-55.526	40.200	31.841	-59.497	179.868	188.998	-40.498	258.938	243.202	256.783	182.723	99.893	98.368	230.101	0.00060489	0.002201	0.00073097	748.12	1.4316e-06	1.1899e-05	856.9	282.87	2.4842e-05	2.0828e-05	366.12	143.16	106.97	44.279	1.3394e-05	60.38	0.002263	0.0028634	0.00072724	1016	2.6639e-05	3.0998e-05	877.33	286.85	2.6113e-05	3.1286e-05	384.48	143.95	113.53	47.171	2.6733e-05	62.502	-81.586	-87.415	-61.957	-88.556	189.309	240.462	-88.696	-82.264	160.273	15.279	-84.949	-80.762	-78.242	-73.750	73.756	-77.005	-8191	255	
1895.785	1	1	0	0	0.18858	0.086952	0.16196	0.2104	0.20365	0.074942	0.13107	0.16917	0.18592	0.16471	0.2785	0.329	0.1768	0.11126	0.13044	0.13175	-2.6958	-2.7313	-2.7958	-2.9521	-2.5917	-3.0167	-3.0104	-2.5812	-3.0646	-2.7542	-2.9292	-3.0583	-2.7979	-2.8542	-2.9521	-2.7625	2.036	222.152	20.543	175.535	23.681	-4.842	-75.908	-25.730	104.932	236.080	-100.054	251.018	45.936	121.170	230.603	150.286	0.00075896	0.0015618	0.00015294	743.46	1.6398e-05	1.8657e-05	847.66	280.36	8.5154e-06	1.6283e-05	363.64	140.91	106.48	44.23	1.9588e-05	60.926	0.0024733	0.0028261	0.00069176	998.18	2.8581e-05	3.0512e-05	856.25	282.48	2.8503e-05	2.9609e-05	378.35	142.36	114.08	46.719	2.5446e-05	62.541	-70.689	56.744	-72.061	-87.448	187.904	57.515	-88.442	-82.203	-83.786	59.614	-84.471	-80.473	-77.968	-73.866	62.552	-77.439	-8191	255	
1895.857	1	1	0	0	0.36613	0.058579	0.049329	0.13495	0.12731	0.13842	0.35	0.29474	0.1831	0.16632	0.050641	0.1658	0.21125	0.28113	0.10921	0.19298	-2.6542	-2.7771	-2.925	-3.0271	-2.5125	-2.9313	-3.1937	-2.6208	-3.1458	-2.8458	-2.6021	-3.025	-2.5854	-3.0396	-3.0417	-2.8438	242.778	250.602	234.026	219.150	248.436	88.464	150.940	219.555	227.221	198.917	216.095	246.237	-83.726	256.833	159.157	-35.298	0.00060674	0.0013722	0.0005648	740.05	1.6647e-05	2.3054e-05	847.11	279.38	6.2401e-06	1.7492e-05	362.62	142.53	106.53	44.179	5.7222e-06	60.877	0.0026695	0.0026659	0.00066959	1013	3.0931e-05	2.9328e-05	856.76	284.7	3.0787e-05	2.8193e-05	377.99	144.26	115.37	46.344	2.4396e-05	63.206	25.920	-48.116	-26.052	-88.086	228.801	58.984	-88.546	-82.499	-65.521	0.686	-84.895	-80.503	-78.057	-74.129	48.486	-77.479	-8191	255	
1895.953	1	1	0	0	0.24287	0.13577	0.17602	0.047159	0.090332	0.2998	0.28934	0.089772	0.0068969	0.11392	0.15561	0.19255	0.14237	0.1969	0.074787	0.18204	-2.4917	-2.8333	-2.6625	-2.9875	-2.7917	-2.5979	-3.0104	-2.8312	-2.9354	-2.9125	-2.6125	-3.0271	-2.7396	-2.6146	-2.9417	-2.675	190.037	201.214	37.584	231.300	-31.836	109.385	220.437	244.790	-7.445	-55.597	104.117	200.145	-45.323	206.190	187.226	245.737	0.00018629	0.0026312	0.00046459	739.82	9.1878e-06	2.4411e-06	846.81	281.68	2.04e-05	1.7105e-05	368.96	142.87	107.39	43.96	4.6652e-06	61.248	0.0027522	0.0024712	0.00064499	1042.1	3.0702e-05	2.744e-05	855.73	288.56	3.0713e-05	2.6771e-05	381.05	147.01	115.17	45.895	2.3977e-05	64.172	-20.913	25.583	-93.963	-87.033	63.307	59.954	-88.585	-82.393	88.045	31.201	-84.596	-80.584	-78.041	-73.981	72.908	-77.257	-8191	255	
1896.051	1	1	0	0	0.20039	0.28007	0.064712	0.089173	0.11753	0.33955	0.22107	0.19088	0.26692	0.16504	0.057484	0.11606	0.21828	0.18889	0.069491	0.3083	-2.5917	-2.7396	-2.6937	-3.1167	-2.8646	-2.6437	-3.0958	-2.7	-2.9792	-2.9917	-2.6708	-3.1542	-2.8312	-2.5792	-3.05	-2.8292	161.392	81.474	-73.844	-48.342	9.045	51.153	128.235	232.287	-99.748	77.084	49.103	179.574	259.155	213.272	143.572	-93.818	0.00061721	0.00098413	0.00065261	733.84	3.1953e-05	9.3841e-06	851.25	279.39	2.4888e-05	2.0144e-05	362.58	140.33	105.79	43.32	1.9824e-05	59.857	0.0026902	0.0023688	0.00063744	1077.1	2.9233e-05	2.6596e-05	855.3	290.41	2.9298e-05	2.5747e-05	378.26	146.87	112.35	45.021	2.5139e-05	63.651	8.492	33.717	20.272	-86.766	32.108	256.326	-88.627	-82.414	-46.654	-19.465	-85.059	-80.357	-77.915	-73.864	-87.647	-77.469	-8191	255	
1896.170	1	1	0	0	0.20024	0.32293	0.074038	0.08242	0.076203	0.26991	0.15677	0.30291	0.11741	0.38906	0.18477	0.16082	0.13409	0.066991	0.28459	0.2469	-2.3917	-2.8979	-2.6188	-2.8208	-2.8146	-2.8479	-3.1708	-2.8042	-2.925	-3.2042	-2.6708	-3.2875	-2.9458	-2.3729	-3.0083	-2.8937	195.409	141.304	-77.334	248.889	135.359	208.100	194.980	98.594	155.209	-92.985	238.609	220.180	199.662	3.576	26.349	243.860	0.00052895	0.0014304	0.00054634	720.57	2.7201e-05	5.5164e-06	822.05	276.98	1.8056e-05	1.0978e-05	355.72	139.24	104.61	42.977	1.725e-05	59.007	0.002549	0.002296	0.0006756	1093.2	2.7831e-05	2.5893e-05	842.44	288.16	2.7737e-05	2.4895e-05	376.25	146.12	110.24	44.503	2.7814e-05	63.018	38.272	-38.123	160.826	-86.445	48.554	-6.236	-88.513	-81.940	-82.995	-16.539	-84.720	-80.530	-77.659	-73.389	223.488	-77.548	-8191	255	
1896.266	1	1	0	0	0.15959	0.12082	0.2383	0.17641	0.12133	0.19522	0.18356	0.19078	0.27444	0.20993	0.1755	0.10357	0.27309	0.1293	0.25319	0.26943	-2.3438	-2.9229	-2.6396	-2.8771	-2.7562	-2.5062	-3.0083	-2.7521	-2.5938	-3.0667	-2.5521	-3.0521	-3.0104	-2.5167	-3.0792	-2.9313	252.095	30.792	185.699	241.438	9.624	180.220	256.259	214.945	128.548	177.977	64.212	251.893	-63.983	-45.448	201.900	121.179	0.00043459	0.0015271	0.00033029	722.93	9.534e-06	8.3143e-06	825.29	276.6	1.5718e-05	1.1564e-05	359.01	140.15	104.09	42.785	1.9852e-05	59.527	0.0024473	0.0022602	0.0007485	1095.4	2.6803e-05	2.5731e-05	857.36	287.01	2.7085e-05	2.4987e-05	384.55	145.83	109.7	44.495	3.0193e-05	62.646	-2.229	8.335	36.322	-87.341	62.638	-97.745	-88.728	-81.959	-61.954	-24.258	-84.279	-80.445	-77.815	-73.592	88.239	-77.156	-8191	255	
1896.362	1	1	0	0	0.40295	0.30159	0.094849	0.11183	0.095708	0.22462	0.20792	0.13536	0.18897	0.17216	0.18326	0.097703	0.13842	0.082549	0.16329	0.30243	-2.1312	-3.0187	-2.7313	-2.7333	-2.9792	-2.5771	-3.0708	-3.0146	-2.5167	-3	-2.8708	-2.8521	-2.9313	-2.7146	-2.9104	-2.9625	184.578	136.464	-25.075	-82.273	101.313	61.386	222.027	70.253	235.942	19.558	-99.344	119.061	105.735	211.925	-38.886	197.099	0.00062169	0.0005788	0.00031706	711.25	7.3512e-06	8.523e-06	837.3	278.46	1.9019e-05	1.4046e-05	363.7	142.07	105.88	43.111	1.9751e-05	60.02	0.0023541	0.0022753	0.00078656	1053.5	2.5276e-05	2.5917e-05	877.45	286.1	2.5885e-05	2.5886e-05	392.14	146.31	109.87	45.184	3.1247e-05	62.471	-17.188	127.831	103.952	-87.762	32.175	-62.979	-88.383	-82.112	-91.672	199.058	-84.421	-80.106	-77.765	-73.437	44.332	-76.738	-8191	255	
1896.458	1	1	0	0	0.26802	0.24484	0.21882	0.15027	0.13872	0.15818	0.27831	0.088612	0.24768	0.29989	0.08788	0.23641	0.29024	0.13063	0.23762	0.1105	-2.0812	-3.0417	-2.6396	-2.6875	-3.2125	-2.5396	-2.8271	-2.9104	-2.4167	-3.0208	-2.7687	-2.9188	-3.1896	-2.7083	-2.8771	-2.8854	45.188	-60.531	248.502	-64.460	3.006	112.237	118.532	-15.151	177.182	114.496	174.295	228.023	-91.902	-3.654	-82.252	176.278	0.00090961	0.0019694	0.0006721	715.64	8.8933e-06	1.592e-05	857.04	278.97	1.394e-05	1.7235e-05	369.33	143.08	104.89	42.627	5.9114e-06	59.713	0.0022855	0.0024914	0.00079283	1035.5	2.4245e-05	2.8171e-05	889.09	284.19	2.4979e-05	2.8333e-05	392.27	145.74	108.92	45.417	3.0114e-05	61.404	3.418	69.135	-30.501	-87.346	43.822	202.858	-88.087	-81.864	-39.332	253.303	-84.508	-80.079	-77.307	-73.319	-25.956	-77.105	-8191	255	
1896.555	1	1	0	0	0.53529	0.070667	0.23521	0.2377	0.11469	0.14214	0.091299	0.11991	0.24993	0.18788	0.1914	0.09883	0.15122	0.12376	0.092694	0.11639	-2.2625	-3.0458	-2.8333	-2.6583	-3.1625	-2.6896	-2.8937	-2.9708	-2.5542	-3.1125	-2.9479	-2.6125	-3.2208	-2.8333	-2.6854	-3.15	162.629	126.042	226.362	-29.848	-2.025	21.355	208.167	236.132	45.308	-38.290	170.416	207.977	156.723	-41.549	173.540	186.235	0.00094122	0.00078429	0.00019503	709.21	1.1769e-05	4.3228e-06	828.63	268.17	2.5085e-05	1.6268e-05	356.77	140.11	103.62	41.308	1.0074e-05	57.49	0.002249	0.0027126	0.00074583	997.64	2.4271e-05	3.0226e-05	851.95	273.92	2.492e-05	2.9769e-05	375.19	142.5	107.88	44.461	2.7381e-05	58.93	-22.714	182.587	-54.264	-87.218	253.653	42.279	-88.037	-81.476	36.855	175.928	-84.389	-79.867	-77.593	-73.241	-32.690	-76.824	-8191	255	
1896.651	1	1	0	0	0.15498	0.225	0.014476	0.27023	0.15098	0.23851	0.40197	0.28556	0.25364	0.096792	0.055371	0.13009	0.13745	0.26414	0.049535	0.077051	-2.2646	-3.0062	-2.7417	-2.6167	-2.8375	-2.675	-2.8021	-3.0604	-2.6542	-3.075	-2.9104	-2.7917	-2.8729	-2.8354	-2.825	-3.1042	247.410	-51.151	56.091	-91.057	-47.411	-51.010	233.757	222.179	152.535	-67.520	219.584	135.886	139.173	96.847	70.880	14.146	0.00082649	0.00069445	0.0006275	687.86	8.4682e-06	1.4253e-05	826.57	268.71	1.5935e-05	1.5997e-05	359.73	142.87	105.84	40.961	1.6222e-05	56.809	0.0022328	0.0027042	0.00066433	958.05	2.4671e-05	2.9443e-05	838.89	269.57	2.5389e-05	2.88e-05	372.29	143.95	110.57	43.392	2.4849e-05	57.574	-54.295	98.723	-17.474	-86.748	-67.782	-7.635	-88.189	-81.761	88.752	59.134	-84.530	-80.215	-77.228	-72.982	12.828	-77.074	-8191	255	
1896.771	1	1	0	0	0.3293	0.12424	0.37251	0.12861	0.19504	0.16247	0.076509	0.13698	0.16192	0.04	0.26492	0.29605	0.13178	0.16036	0.28155	0.26762	-2.1813	-2.8354	-2.8438	-2.4771	-2.9938	-2.7125	-2.6979	-3.15	-2.625	-2.6937	-3.0271	-2.5917	-3.0354	-2.875	-2.7021	-3.075	-72.355	-26.329	75.062	115.183	158.909	-2.101	216.554	176.480	242.127	-52.598	-94.922	-84.511	244.614	41.794	219.273	203.271	0.00077286	0.0011011	0.0006625	684.84	2.2592e-05	6.4626e-06	846.38	271.27	3.4067e-05	2.5622e-05	367.89	148.58	109.33	40.554	2.7829e-06	56.073	0.0023362	0.0025727	0.0006028	935.31	2.6208e-05	2.7143e-05	848.87	272.08	2.6658e-05	2.6577e-05	375.89	148.05	114.48	42.359	2.3165e-05	57.065	-45.110	-38.846	-75.746	-86.291	194.100	-5.717	-88.017	-81.599	216.407	52.763	-84.123	-80.205	-77.396	-73.343	190.758	-76.813	-8191	255	
1896.866	1	1	0	0	0.14784	0.14544	0.1979	0.10758	0.086183	0.19721	0.046752	0.32588	0.24073	0.047582	0.12973	0.255	0.17225	0.076436	0.096935	0.19538	-2.1833	-2.7583	-2.9938	-2.5229	-2.8875	-2.7125	-2.7188	-3.1646	-2.5208	-2.7583	-3.1729	-2.8312	-3.2083	-3.0146	-2.4667	-3.0854	56.689	60.497	-10.321	230.001	-39.706	120.365	189.002	-70.204	102.329	-6.267	113.828	201.527	207.147	40.017	245.660	-98.587	0.00050538	0.0016543	0.00040434	688.51	1.197e-05	1.2227e-05	840.77	273.67	6.1314e-06	5.0496e-06	368.5	148.89	109.77	40.117	2.0676e-05	55.535	0.0023998	0.0023417	0.00056626	938.83	2.7271e-05	2.4818e-05	839.22	274.12	2.7344e-05	2.4712e-05	373.61	149.25	115.5	41.498	2.2221e-05	57.059	-44.122	-24.768	18.475	-86.559	234.122	-64.617	-88.753	-81.638	186.348	38.767	-84.380	-80.422	-77.521	-73.628	-23.445	-76.956	-8191	255	
#DATA ENDS
