BOXY.EXE: ISS Imagent and Oximeter Data Acquisition Program Version 0.80
Ascii Record File

#ACQ INFORMATION
2  Detector Channels 
16  External MUX Channels 
1  Auxiliary Channels 
5000  Waveform (CCF) Frequency (Hz)
1  Waveforms Skipped 
30  Waveforms Averaged 
1  Cycles Averaged 
16  Acquisitions per Waveform 
10.0806  Updata Rate (Hz) 

#FILE INFORMATION
TRUE -- External MUX Channel results are PARSED.
FALSE -- AC DC and Phase are NOT grouped.
TRUE -- Companion Program Settings File CREATED.
FALSE -- AC data not excluded
FALSE -- DC data not excluded
FALSE -- Phase data not excluded
FALSE -- Auxillary Chn. data not excluded
Tab delimiters

#CALIBRATION STATE
TRUE -- Waveform Calibration Values APPLIED.


#AUX CALIBRATION VALUES
Val Type	aux-1	

Term	1.0000e+00	
Factor	0.0000e+00	


#WF CALIBRATION VALUES
A = Detector Channel
Val Type	A-AC1	A-AC2	A-AC3	A-AC4	A-AC5	A-AC6	A-AC7	A-AC8	A-AC9	A-AC10	A-AC11	A-AC12	A-AC13	A-AC14	A-AC15	A-AC16	A-DC1	A-DC2	A-DC3	A-DC4	A-DC5	A-DC6	A-DC7	A-DC8	A-DC9	A-DC10	A-DC11	A-DC12	A-DC13	A-DC14	A-DC15	A-DC16	A-Ph1	A-Ph2	A-Ph3	A-Ph4	A-Ph5	A-Ph6	A-Ph7	A-Ph8	A-Ph9	A-Ph10	A-Ph11	A-Ph12	A-Ph13	A-Ph14	A-Ph15	A-Ph16	

Term	0.00000e+00	0.00000e+00	0.00000e+00	0.00000e+00	0.00000e+00	0.00000e+00	0.00000e+00	0.00000e+00	0.00000e+00	0.00000e+00	0.00000e+00	0.00000e+00	0.00000e+00	0.00000e+00	0.00000e+00	0.00000e+00	0.00000e+00	0.00000e+00	0.00000e+00	0.00000e+00	0.00000e+00	0.00000e+00	0.00000e+00	0.00000e+00	0.00000e+00	0.00000e+00	0.00000e+00	0.00000e+00	0.00000e+00	0.00000e+00	0.00000e+00	0.00000e+00	0.00000e+00	0.00000e+00	0.00000e+00	0.00000e+00	0.00000e+00	0.00000e+00	0.00000e+00	0.00000e+00	0.00000e+00	0.00000e+00	0.00000e+00	0.00000e+00	0.00000e+00	0.00000e+00	0.00000e+00	0.00000e+00	
Factor	1.00000e+00	1.00000e+00	1.00000e+00	1.00000e+00	1.00000e+00	1.00000e+00	1.00000e+00	1.00000e+00	1.00000e+00	1.00000e+00	1.00000e+00	1.00000e+00	1.00000e+00	1.00000e+00	1.00000e+00	1.00000e+00	1.00000e+00	1.00000e+00	1.00000e+00	1.00000e+00	1.00000e+00	1.00000e+00	1.00000e+00	1.00000e+00	1.00000e+00	1.00000e+00	1.00000e+00	1.00000e+00	1.00000e+00	1.00000e+00	1.00000e+00	1.00000e+00	X	X	X	X	X	X	X	X	X	X	X	X	X	X	X	X	

B = Detector Channel
Val Type	B-AC1	B-AC2	B-AC3	B-AC4	B-AC5	B-AC6	B-AC7	B-AC8	B-AC9	B-AC10	B-AC11	B-AC12	B-AC13	B-AC14	B-AC15	B-AC16	B-DC1	B-DC2	B-DC3	B-DC4	B-DC5	B-DC6	B-DC7	B-DC8	B-DC9	B-DC10	B-DC11	B-DC12	B-DC13	B-DC14	B-DC15	B-DC16	B-Ph1	B-Ph2	B-Ph3	B-Ph4	B-Ph5	B-Ph6	B-Ph7	B-Ph8	B-Ph9	B-Ph10	B-Ph11	B-Ph12	B-Ph13	B-Ph14	B-Ph15	B-Ph16	

Term	0.00000e+00	0.00000e+00	0.00000e+00	0.00000e+00	0.00000e+00	0.00000e+00	0.00000e+00	0.00000e+00	0.00000e+00	0.00000e+00	0.00000e+00	0.00000e+00	0.00000e+00	0.00000e+00	0.00000e+00	0.00000e+00	0.00000e+00	0.00000e+00	0.00000e+00	0.00000e+00	0.00000e+00	0.00000e+00	0.00000e+00	0.00000e+00	0.00000e+00	0.00000e+00	0.00000e+00	0.00000e+00	0.00000e+00	0.00000e+00	0.00000e+00	0.00000e+00	-5.38156e+01	-1.31042e+02	-1.24433e+02	-1.81592e+02	-5.12389e+01	-6.77519e+01	-1.57010e+02	-1.62015e+02	-4.49559e+01	-6.47779e+01	-1.71977e+02	-1.70149e+02	-1.79453e+02	-1.77250e+02	-5.57634e+01	-1.50141e+02	
Factor	2.03653e-05	1.65828e-04	4.62255e-05	1.62462e-01	1.69913e-06	1.87841e-06	1.83249e-01	6.39994e-02	1.44152e-06	1.88062e-06	8.71469e-02	2.95149e-02	3.17034e-02	9.42612e-03	1.54103e-06	1.33165e-02	8.12842e-06	1.10171e-05	3.07108e-06	8.26260e-02	1.14284e-07	1.22168e-07	8.76959e-02	3.26199e-02	1.15569e-07	1.22005e-07	4.32266e-02	1.46927e-02	1.64001e-02	4.85771e-03	1.18033e-07	6.63519e-03	X	X	X	X	X	X	X	X	X	X	X	X	X	X	X	X	



#DISTANCE SETTINGS
A = Detector Channel
A-1	A-2	A-3	A-4	A-5	A-6	A-7	A-8	A-9	A-10	A-11	A-12	A-13	A-14	A-15	A-16	

2.5000e+00	3.0000e+00	2.5000e+00	3.0000e+00	2.0000e+00	3.0000e+00	1.5000e+00	3.0000e+00	3.0000e+00	3.0000e+00	3.0000e+00	3.0000e+00	3.0000e+00	3.0000e+00	1.5000e+00	3.0000e+00	

B = Detector Channel
B-1	B-2	B-3	B-4	B-5	B-6	B-7	B-8	B-9	B-10	B-11	B-12	B-13	B-14	B-15	B-16	

1.0000e+01	1.0000e+01	1.0000e+01	1.4400e+00	1.0000e+01	1.0000e+01	1.5100e+00	1.9400e+00	1.0000e+01	1.0000e+01	1.9900e+00	2.4900e+00	2.4100e+00	2.9000e+00	1.0000e+01	2.9800e+00	




#DATA BEGINS
time	group	step	mark	flag	A-AC1	A-AC2	A-AC3	A-AC4	A-AC5	A-AC6	A-AC7	A-AC8	A-AC9	A-AC10	A-AC11	A-AC12	A-AC13	A-AC14	A-AC15	A-AC16	A-DC1	A-DC2	A-DC3	A-DC4	A-DC5	A-DC6	A-DC7	A-DC8	A-DC9	A-DC10	A-DC11	A-DC12	A-DC13	A-DC14	A-DC15	A-DC16	A-Ph1	A-Ph2	A-Ph3	A-Ph4	A-Ph5	A-Ph6	A-Ph7	A-Ph8	A-Ph9	A-Ph10	A-Ph11	A-Ph12	A-Ph13	A-Ph14	A-Ph15	A-Ph16	B-AC1	B-AC2	B-AC3	B-AC4	B-AC5	B-AC6	B-AC7	B-AC8	B-AC9	B-AC10	B-AC11	B-AC12	B-AC13	B-AC14	B-AC15	B-AC16	B-DC1	B-DC2	B-DC3	B-DC4	B-DC5	B-DC6	B-DC7	B-DC8	B-DC9	B-DC10	B-DC11	B-DC12	B-DC13	B-DC14	B-DC15	B-DC16	B-Ph1	B-Ph2	B-Ph3	B-Ph4	B-Ph5	B-Ph6	B-Ph7	B-Ph8	B-Ph9	B-Ph10	B-Ph11	B-Ph12	B-Ph13	B-Ph14	B-Ph15	B-Ph16	aux-1	digaux	

22219.123	1	1	0	768	0.048962	0.030409	0.36835	0.22775	0.27794	0.1711	0.1824	0.098035	0.17215	0.21076	0.16073	0.26251	0.2895	0.22742	0.056284	0.32428	-1.6021	-2.1729	-2.2792	-1.9646	-2.35	-2.3229	-1.8438	-2.5729	-2.2042	-2.1937	-2.2854	-2.0479	-2.2646	-2.3458	-1.8271	-2.3771	206.728	-87.413	-136.500	-20.501	-72.426	130.182	-127.960	-64.345	59.702	-126.996	-129.813	77.418	118.949	3.140	-108.349	125.488	3.7646e-05	0.00013056	3.9139e-05	237.7	6.4528e-07	1.9787e-07	203.4	60.818	4.7386e-07	1.417e-06	58.372	15.972	16.188	4.4236	6.3565e-07	4.9085	0.0001521	0.00018419	4.8952e-05	233.68	1.91e-06	1.9791e-06	198.04	59.841	2.0005e-06	1.9922e-06	57.403	16.056	15.936	4.342	2.0742e-06	4.969	-94.337	-52.216	-64.392	-130.087	-134.677	-95.683	-131.403	-125.551	13.363	-51.958	-128.126	-123.986	-122.095	-117.580	68.132	-120.759	-8191	255	
22219.221	1	1	0	0	0.136	0.27218	0.18393	0.15797	0.088614	0.081709	0.39124	0.088152	0.18073	0.26665	0.27049	0.29518	0.14755	0.32851	0.24378	0.24243	-1.6521	-2.0042	-2.3958	-2.0583	-2.0625	-2.3438	-2.0208	-2.4313	-1.9646	-2.0104	-2.4688	-1.9729	-2.2542	-2.3521	-2.0896	-2.2667	69.424	-98.396	207.233	-132.631	-107.457	-102.358	17.576	45.550	191.430	67.740	1.700	-116.473	177.653	37.751	-17.534	149.937	3.2803e-05	0.00010046	2.303e-05	238.71	9.6799e-07	1.3787e-06	201.24	60.112	7.3294e-07	6.0629e-07	58.054	16.203	15.972	4.4017	1.1091e-06	5.0226	0.00015183	0.00018713	5.1882e-05	234.68	1.9021e-06	2.0321e-06	198.74	59.624	1.9825e-06	2.0212e-06	57.337	16.17	15.884	4.3493	2.0019e-06	5.0034	-61.427	-15.825	84.976	-130.554	110.181	14.328	-131.800	-125.839	-122.581	77.931	-128.277	-124.541	-121.452	-118.144	-36.550	-120.965	-8191	255	
22219.316	1	1	0	0	0.064752	0.097381	0.12994	0.1509	0.19967	0.037854	0.22749	0.34627	0.42453	0.19054	0.079036	0.36635	0.10184	0.036325	0.086141	0.10286	-1.7229	-1.9458	-2.2854	-1.9208	-2.2375	-2.4562	-2.1208	-2.3396	-2.1458	-2.0042	-2.3563	-2.1063	-2.1396	-2.3125	-1.9562	-2.2938	-118.331	136.603	-30.558	64.158	82.908	111.641	117.913	160.479	163.869	12.986	52.421	215.750	22.085	-12.781	-64.966	153.572	4.6323e-05	7.7277e-05	3.7326e-05	240.25	1.0161e-06	1.5908e-06	203	60.926	1.8073e-06	2.1652e-06	57.786	16.129	15.798	4.2959	9.4945e-07	4.9384	0.00014712	0.00017726	5.1805e-05	234.11	1.885e-06	1.9595e-06	198.95	59.81	1.9411e-06	2.0995e-06	57.092	16.095	15.808	4.3215	1.9151e-06	4.9402	-86.680	147.866	-70.470	-130.564	-30.203	39.165	-131.488	-125.782	-16.382	61.982	-128.643	-124.267	-121.311	-117.012	38.924	-121.760	-8191	255	
22219.412	1	1	0	0	0.058449	0.20484	0.19763	0.12459	0.15536	0.25508	0.071033	0.2317	0.1675	0.16501	0.30473	0.090085	0.31125	0.058699	0.099212	0.081064	-1.8625	-1.8979	-2.4688	-2.2375	-2.0104	-2.4458	-2.0312	-2.3271	-2.4896	-1.9792	-2.2354	-2.1771	-2.0229	-2.3167	-2.0833	-2.3396	-40.325	-114.275	-42.582	10.404	29.977	-107.270	4.027	179.460	3.345	13.492	-132.262	19.860	129.146	-70.161	-59.141	130.118	4.1756e-05	7.3456e-05	2.2483e-05	239.05	5.4942e-07	9.1232e-07	202.03	60.535	6.5159e-07	2.487e-06	57.816	15.929	15.743	4.2925	6.4741e-07	4.8446	0.00015137	0.00018442	5.0039e-05	234.06	1.9288e-06	1.8536e-06	198.3	59.633	1.8997e-06	2.054e-06	56.888	15.931	15.693	4.2899	1.8939e-06	4.8723	-93.087	157.361	58.710	-130.384	7.744	88.873	-131.535	-126.033	-33.032	-23.340	-128.021	-124.250	-121.691	-117.995	79.461	-120.322	-8191	255	
22219.508	1	1	0	0	0.21313	0.22565	0.10043	0.12502	0.14763	0.18343	0.16688	0.054779	0.089037	0.15764	0.2923	0.12356	0.23643	0.28219	0.15479	0.094768	-2.0521	-1.9729	-2.3104	-2.2938	-2.0563	-2.3708	-2.0083	-2.1521	-2.3604	-1.7729	-2.3	-2.2167	-1.8104	-2.3083	-2.0375	-2.3104	126.426	144.368	176.541	140.896	-18.594	111.976	-135.256	-98.083	209.064	-97.236	132.484	84.807	-141.739	177.052	-29.038	193.540	3.4617e-05	0.00013787	2.5969e-05	239.93	7.1157e-07	8.5305e-07	203.43	60.773	8.4972e-07	1.8052e-06	57.294	16.202	15.953	4.2758	9.8898e-07	4.9448	0.00014245	0.00017515	5.0654e-05	234.66	1.8224e-06	1.9656e-06	199.38	59.563	1.9972e-06	2.0243e-06	57.314	16.019	15.669	4.307	2.0021e-06	4.9415	-93.682	-99.077	-53.967	-130.458	49.156	41.257	-132.090	-125.548	-15.462	-42.155	-128.626	-124.308	-121.733	-118.774	-65.599	-121.817	-8191	255	
22219.604	1	1	0	0	0.067977	0.27225	0.17209	0.21464	0.25903	0.19339	0.1055	0.096029	0.12126	0.26827	0.095267	0.4389	0.3375	0.19509	0.32224	0.15651	-1.8396	-1.9146	-2.3458	-2.2354	-1.9604	-2.4542	-2.1708	-2.1167	-2.5125	-1.9333	-2.3208	-2.275	-1.9979	-2.4708	-2.1917	-2.1104	-7.895	-41.207	83.559	-60.848	48.226	-110.979	109.407	-92.439	119.204	-137.675	44.142	158.340	168.386	-42.777	3.726	-13.173	2.7176e-05	3.3514e-05	5.689e-05	239.71	7.817e-07	1.475e-06	203.07	60.515	5.8384e-07	8.5809e-07	58.508	16.317	16.033	4.2721	1.6344e-06	5.0181	0.00014465	0.00017786	4.9534e-05	234.81	1.9945e-06	1.9799e-06	200.17	59.561	1.9469e-06	2.0891e-06	57.703	16.145	15.829	4.3101	1.9131e-06	4.9629	-72.702	-7.398	-69.952	-130.036	154.448	100.763	-131.166	-125.419	-33.312	100.332	-128.639	-123.857	-121.948	-118.123	163.586	-121.487	-8191	255	
22219.725	1	1	0	0	0.30745	0.20998	0.22114	0.097127	0.13132	0.063192	0.14284	0.14906	0.078453	0.27854	0.13331	0.17914	0.25009	0.15532	0.061738	0.29328	-2.0687	-1.9562	-2.3125	-2.325	-2.0833	-2.3583	-2.1333	-2.1292	-2.2708	-2.0979	-2.1479	-2.4125	-1.9771	-2.5333	-2.0187	-1.9375	97.100	-100.004	-128.436	158.470	-129.501	-79.486	85.101	74.287	149.651	-45.499	8.843	200.293	-62.729	-98.088	-84.723	55.144	4.6456e-05	0.00028616	5.1118e-05	241.2	2.4393e-07	4.1803e-07	204.4	61.486	7.8816e-07	1.457e-06	58.226	16.296	15.948	4.2962	2.0699e-06	5.0219	0.00015068	0.00018545	4.9937e-05	235.63	1.8674e-06	2.0168e-06	200.37	60.175	1.8977e-06	1.9706e-06	57.454	16.158	15.758	4.2995	1.9896e-06	4.9599	-94.269	-18.816	171.058	-130.273	-14.679	69.923	-131.942	-126.090	-0.729	15.437	-127.421	-123.824	-121.746	-117.279	4.422	-121.612	-8191	255	
22219.820	1	1	0	0	0.23708	0.20638	0.23557	0.17566	0.12864	0.18815	0.34453	0.016623	0.13537	0.14358	0.16914	0.18861	0.19639	0.14544	0.088445	0.066807	-1.7938	-2.0312	-2.2625	-2.3438	-2.0792	-2.3854	-2.1417	-2.0354	-2.2938	-1.9708	-2.0854	-2.2708	-1.8188	-2.3229	-2.3	-1.9958	130.613	-11.359	33.572	117.701	-95.912	-5.214	124.924	-102.709	-48.362	167.241	-20.021	-1.676	-76.074	123.543	-126.332	107.214	5.1611e-05	0.00018613	1.7577e-05	239.84	1.592e-06	1.8481e-06	205.36	60.333	8.0585e-07	8.2056e-07	58.159	16.183	15.718	4.2945	1.8005e-06	4.92	0.00014892	0.0001822	5.0698e-05	235.67	1.9214e-06	1.8903e-06	200.02	59.945	1.9004e-06	1.9851e-06	57.713	16.132	15.789	4.3112	1.8548e-06	4.9354	-47.159	-131.871	-72.449	-130.164	5.196	-34.529	-131.864	-125.691	38.823	-42.883	-129.413	-124.108	-121.347	-118.329	167.976	-121.313	-8191	255	
22219.918	1	1	0	0	0.17266	0.11071	0.37217	0.27277	0.05806	0.10226	0.29713	0.23257	0.21659	0.042301	0.28016	0.1904	0.23601	0.1741	0.042259	0.01884	-1.9188	-2.1083	-2.0542	-2.4646	-1.8417	-2.275	-2.0812	-1.9458	-2.3333	-2.1688	-2.1229	-2.4854	-1.8396	-2.0917	-2.1167	-2.0229	200.249	-16.730	198.763	140.169	-15.877	36.647	178.167	152.847	-7.241	99.552	100.369	164.789	73.614	-115.966	-118.266	80.387	3.7544e-05	4.0104e-05	1.2873e-05	242.35	1.3715e-06	1.4119e-06	204.97	61.124	1.2488e-06	1.791e-06	57.73	16.09	15.835	4.319	8.4538e-07	4.997	0.00014645	0.00018123	4.8478e-05	236.22	1.8847e-06	1.9437e-06	200.24	59.972	1.9228e-06	2.0599e-06	57.776	16.089	15.786	4.3225	1.8317e-06	4.9741	-79.205	-5.898	152.552	-130.186	0.249	59.457	-131.369	-125.504	-68.621	80.417	-128.737	-124.266	-121.546	-117.573	18.808	-120.940	-8191	255	
22220.014	1	1	0	0	0.16217	0.37174	0.13802	0.25283	0.1439	0.31344	0.11853	0.042087	0.1967	0.11905	0.19371	0.18475	0.045271	0.16894	0.070382	0.12109	-2.0917	-2.0104	-2.0646	-2.4792	-1.8042	-2.3688	-2.3563	-1.9396	-2.4208	-2.225	-1.8958	-2.4917	-2.0917	-2.1042	-2.3063	-2.0875	-65.294	101.047	208.957	-88.645	-0.136	155.792	-14.097	-90.838	207.737	183.597	-99.404	142.007	-20.985	-62.545	-76.263	213.601	3.3396e-05	2.8051e-05	1.9219e-05	241.08	1.2089e-06	1.4091e-06	203.39	61.178	6.3158e-07	1.2438e-06	58.554	16.366	15.954	4.3575	1.3039e-06	5.0178	0.00014452	0.00018988	5.1524e-05	236.62	1.9964e-06	1.9789e-06	200.49	60.299	1.9329e-06	2.0271e-06	58.111	16.232	15.879	4.3348	1.9456e-06	5.0128	-72.505	205.823	49.442	-130.517	80.138	9.352	-132.102	-125.316	5.778	10.356	-128.254	-123.894	-121.772	-117.572	-37.869	-121.769	-8191	255	
22220.109	1	1	0	0	0.1437	0.14655	0.37483	0.086175	0.11783	0.24407	0.12652	0.17607	0.30584	0.19855	0.11238	0.13334	0.052787	0.11588	0.25055	0.045357	-1.9979	-2.2229	-1.9167	-2.5687	-2.0208	-2.0375	-2.1958	-1.9458	-2.2313	-2.2812	-1.9312	-2.4542	-2.1875	-2.2625	-2.2729	-1.9562	45.972	4.846	174.121	18.922	-4.409	70.361	181.050	-67.026	156.005	178.096	57.056	43.378	38.075	25.258	18.739	14.670	4.3389e-05	0.0001677	2.0403e-05	245.37	1.0188e-06	2.3554e-07	207.7	61.683	1.4714e-06	1.0941e-06	59.593	16.436	16.02	4.4008	9.5981e-07	5.0332	0.00015083	0.00018405	4.9265e-05	238.61	1.9147e-06	2.0181e-06	202.31	60.771	1.9151e-06	1.9559e-06	58.688	16.391	16.02	4.3862	1.9089e-06	5.0478	-102.988	-34.484	-48.801	-129.935	-20.245	38.627	-131.657	-125.353	13.398	32.554	-128.866	-124.016	-121.467	-118.728	72.211	-120.793	-8191	255	
22220.203	1	1	0	0	0.16904	0.11287	0.23328	0.36205	0.19082	0.13596	0.10547	0.26028	0.25029	0.13093	0.2052	0.12378	0.22798	0.10307	0.093744	0.003342	-1.9083	-2.3729	-1.8917	-2.4688	-2.1979	-2.2125	-2.3937	-2	-2.3375	-2.3729	-1.9917	-2.2958	-2.1083	-2.0646	-2.4604	-1.95	-128.720	-89.140	148.354	-98.486	-140.121	72.848	133.951	-48.709	143.226	154.946	-71.254	-116.597	64.436	192.482	131.504	-95.066	3.792e-05	0.00014115	1.0924e-05	242.3	8.1994e-07	1.3528e-06	205.38	61.59	4.8564e-07	1.5707e-06	58.479	16.328	15.878	4.3308	1.7947e-06	5.0326	0.00015261	0.00017758	5.4243e-05	237.82	1.8931e-06	2.0662e-06	202.04	60.53	1.9271e-06	1.9844e-06	57.922	16.259	15.903	4.3523	1.904e-06	5.0026	-92.030	195.907	77.283	-130.358	59.316	-49.348	-131.223	-125.061	115.151	-59.304	-128.618	-124.837	-121.762	-118.290	33.666	-121.394	-8191	255	
22220.303	1	1	0	0	0.086163	0.17911	0.25891	0.2445	0.18072	0.26117	0.053372	0.14124	0.18144	0.13192	0.16515	0.090479	0.16512	0.12024	0.23427	0.11399	-1.8875	-2.2771	-1.9354	-2.3729	-2.1667	-1.9396	-2.3563	-1.9458	-2.3438	-2.1479	-1.9875	-2.3229	-2.1521	-2.0396	-2.4146	-1.9813	-59.532	67.951	213.163	187.898	-104.605	-6.704	117.848	-124.464	-75.464	107.967	-9.827	146.068	-89.020	103.737	2.793	-23.174	3.7389e-05	0.00013237	5.7076e-05	244.62	1.2766e-06	1.469e-06	204.83	61.488	9.8271e-07	1.7131e-07	59.775	16.435	16.322	4.3594	1.7097e-06	5.0585	0.00014987	0.00016528	5.0558e-05	238.1	1.8269e-06	2.0135e-06	201.73	60.529	1.9324e-06	1.9376e-06	58.518	16.314	16.006	4.3744	1.9357e-06	5.034	-69.326	-109.003	-73.319	-130.499	-64.244	-27.956	-131.459	-125.582	-53.185	38.604	-127.991	-124.194	-121.884	-117.508	52.129	-120.455	-8191	255	
22220.422	1	1	0	0	0.28399	0.089252	0.091845	0.20111	0.19825	0.27863	0.10074	0.057587	0.25223	0.10389	0.28534	0.21403	0.068792	0.24665	0.26249	0.10822	-1.8458	-2.4542	-1.9167	-2.3271	-2.2833	-2.1292	-2.3771	-2.0208	-2.0812	-2.5042	-1.9	-2.1604	-2.1	-1.8625	-2.3708	-2.075	77.523	-89.033	176.895	13.073	-141.767	55.911	-93.146	-8.280	60.468	-75.838	45.992	31.122	-24.904	-50.352	20.803	-62.578	4.0131e-05	6.3042e-05	3.9824e-05	242.63	9.9218e-07	7.7849e-07	206.71	61.237	1.7923e-06	4.9017e-07	59.061	16.186	15.893	4.3782	5.112e-07	5.0695	0.0001527	0.00018256	5.3437e-05	237.47	1.9233e-06	2.0939e-06	202.11	60.759	1.9396e-06	2.0543e-06	58.323	16.219	15.949	4.3953	1.9689e-06	5.0248	-76.655	7.735	190.743	-130.003	-50.238	-86.977	-132.015	-125.908	26.902	176.667	-128.533	-123.323	-121.740	-117.616	183.169	-122.132	-8191	255	
22220.518	1	1	0	0	0.24529	0.052499	0.076207	0.10334	0.13015	0.012056	0.14526	0.23316	0.15997	0.22018	0.24691	0.22501	0.095474	0.16248	0.25375	0.22127	-1.7125	-2.25	-1.9417	-2.2271	-2.1708	-1.9833	-2.3583	-2.1208	-2.1521	-2.4396	-1.9167	-2.2146	-2.2271	-2.0083	-2.425	-2.2333	32.342	172.910	153.693	-43.401	33.827	112.654	23.939	-92.397	28.866	132.218	91.685	49.938	150.996	-1.961	-113.307	-81.644	3.1045e-05	0.00016695	4.1063e-05	242.98	2.2799e-06	1.5119e-06	205.14	61.914	1.4355e-06	1.494e-06	59.866	16.655	16.229	4.3713	1.5422e-06	5.0378	0.00014504	0.00017974	5.3366e-05	238.79	1.9231e-06	2.0117e-06	202.92	60.845	1.8944e-06	1.9485e-06	58.717	16.479	16.099	4.4022	1.9731e-06	5.051	-98.158	67.153	-68.746	-130.111	46.174	1.155	-132.104	-125.821	38.593	-98.602	-127.723	-123.808	-122.462	-118.228	16.169	-121.156	-8191	255	
22220.613	1	1	0	0	0.11317	0.3083	0.069628	0.18118	0.081452	0.12315	0.081168	0.17652	0.31437	0.15133	0.23047	0.1813	0.078331	0.31437	0.098128	0.11674	-1.5542	-2.2229	-1.8625	-1.9417	-2.3958	-2.1667	-2.3021	-2.4396	-2.0708	-2.3583	-2.0896	-1.9875	-2.2667	-1.8937	-2.0208	-2.3396	-56.071	27.012	-52.914	65.546	14.919	55.879	88.513	-70.917	144.121	129.094	-39.001	32.452	145.523	95.509	81.594	-11.526	5.1116e-05	0.0002383	5.4795e-06	245.32	1.3716e-06	7.1828e-07	208.62	61.885	1.217e-06	4.6258e-07	59.049	16.413	16.075	4.3966	8.7502e-07	4.9533	0.00015314	0.00018513	5.2579e-05	239.36	2e-06	1.9891e-06	202.37	61.004	1.936e-06	1.9292e-06	58.399	16.31	16.075	4.402	1.9234e-06	5.0098	-98.954	-117.336	-59.991	-130.638	59.907	38.621	-131.525	-125.858	-9.564	50.572	-128.468	-124.941	-122.064	-117.708	213.904	-120.989	-8191	255	
22220.686	1	1	0	0	0.16695	0.060657	0.10999	0.17062	0.11083	0.22444	0.15881	0.14098	0.1106	0.30183	0.27108	0.099331	0.15572	0.18664	0.13333	0.12939	-1.5646	-2.2625	-2.1188	-2.0708	-2.2979	-2.0042	-2.3708	-2.3042	-1.9062	-2.3833	-2.0104	-1.9813	-2.2625	-1.8813	-2.1333	-2.4833	-83.907	3.338	86.420	148.094	-54.140	158.195	156.818	-2.504	216.264	90.458	138.476	202.300	-64.002	77.318	-91.427	-11.744	2.9846e-05	0.00012301	2.8343e-05	244.2	1.9328e-06	2.4997e-06	206.2	61.938	6.0747e-07	1.1531e-06	58.841	16.568	16.325	4.3652	1.4433e-06	5.1042	0.0001478	0.00017662	5.0334e-05	239.01	1.8962e-06	2.0219e-06	202.34	61.023	1.9059e-06	2.0294e-06	58.337	16.377	16.158	4.3887	1.9352e-06	5.0551	-75.385	-95.791	-125.332	-129.992	-31.714	2.026	-131.869	-125.097	-8.075	-57.816	-128.209	-123.665	-122.203	-118.723	47.386	-121.304	-8191	255	
22220.805	1	1	0	0	0.066507	0.10233	0.068238	0.096183	0.17955	0.17041	0.23319	0.12017	0.10811	0.20877	0.089442	0.15234	0.34114	0.1861	0.077038	0.26198	-1.6125	-2.4896	-2.1	-2.0187	-2.4292	-2.0938	-2.0104	-2.2979	-1.7792	-2.2958	-2.0979	-1.9583	-2.4021	-2.0333	-2.0708	-2.1792	80.295	-100.434	106.537	164.897	114.154	-53.493	-105.573	13.754	114.240	108.801	-31.816	111.964	-128.923	-136.168	-75.580	-20.638	4.8451e-05	4.4914e-05	3.3354e-05	243.51	9.2299e-07	1.4428e-06	203.72	61.392	8.8672e-07	2.2429e-06	59.646	16.736	15.995	4.3933	1.7622e-06	4.9448	0.00015278	0.00017444	5.185e-05	238.22	1.8702e-06	1.9649e-06	200.97	60.54	2.0167e-06	2.0436e-06	58.289	16.419	16.03	4.397	2.0599e-06	4.9936	-73.256	-67.164	-78.676	-130.259	-43.608	175.735	-131.491	-125.717	26.650	-16.345	-127.516	-123.911	-121.516	-118.617	71.021	-121.130	-8191	255	
22220.900	1	1	0	0	0.015021	0.2892	0.073275	0.062885	0.24011	0.14659	0.12813	0.407	0.21864	0.067554	0.2927	0.13398	0.13853	0.13261	0.050087	0.13247	-1.4875	-2.1312	-2.0938	-2.025	-2.4292	-2.0125	-2.0146	-2.1188	-2.1437	-2.2896	-2.1208	-1.9688	-2.5438	-2.2292	-2.0958	-2.3312	14.525	205.667	125.137	-75.878	132.732	9.937	-39.166	186.759	56.298	86.078	75.933	51.191	-112.411	68.668	202.409	77.321	6.7546e-05	0.0001371	2.07e-05	242.67	9.5966e-07	1.7056e-06	206.53	61.879	9.8441e-07	7.0016e-07	59.029	16.454	16.295	4.3059	1.0568e-06	5.1103	0.0001496	0.00017343	5.1025e-05	238	1.9357e-06	1.9674e-06	202.08	61.356	1.9856e-06	1.9831e-06	58.532	16.455	16.174	4.3923	2.0252e-06	5.047	-51.754	-58.102	-72.291	-130.024	144.732	-102.686	-131.844	-125.478	54.364	109.196	-128.122	-124.119	-122.272	-117.856	28.722	-121.187	-8191	255	
22220.998	1	1	0	0	0.14427	0.11596	0.10852	0.29145	0.046616	0.20698	0.24913	0.034332	0.097816	0.059101	0.14353	0.10757	0.37636	0.26406	0.23715	0.059418	-1.525	-2.1146	-2.2375	-2.0229	-2.4292	-2.1604	-2.0687	-2.4083	-2.075	-2.3396	-2.3958	-1.9146	-2.3729	-1.9896	-2.3167	-2.3833	-115.066	113.833	123.868	-128.867	46.330	-3.180	154.221	1.414	75.886	216.200	52.090	186.730	149.608	205.258	-117.293	213.670	3.9094e-05	0.00014993	3.302e-05	242	1.1079e-06	2.7087e-06	204.28	61.984	1.9553e-06	1.4242e-06	58.761	16.313	16.307	4.4772	6.8768e-07	5.0476	0.00014524	0.00018068	4.9847e-05	237.38	1.9324e-06	1.959e-06	200.98	60.822	1.9969e-06	1.9198e-06	58.233	16.27	16.092	4.4044	1.9635e-06	5.01	-102.116	10.551	20.416	-130.440	74.417	-83.524	-131.963	-125.641	59.396	-4.435	-128.473	-124.535	-121.845	-117.480	26.758	-120.765	-8191	255	
22221.094	1	1	0	0	0.38243	0.032346	0.38913	0.20634	0.11066	0.14397	0.11504	0.24944	0.056965	0.21587	0.12878	0.075066	0.13395	0.054246	0.13591	0.29124	-1.5417	-2.1437	-2.3396	-1.825	-2.0917	-2.2146	-2.075	-2.4875	-2.0875	-2.2104	-2.2604	-1.9688	-2.3542	-2.1708	-2.0125	-2.6688	24.087	75.463	-40.142	30.782	-25.488	-96.578	177.215	-10.778	-126.413	-22.361	26.540	205.631	83.579	27.917	110.134	-132.303	4.5051e-05	9.5771e-05	3.3266e-05	241.24	7.7956e-07	1.8501e-06	203.71	61.329	1.0808e-06	1.5266e-06	58.785	16.147	15.905	4.3882	5.8784e-07	5.0248	0.00014934	0.00017988	5.1594e-05	236.37	1.9462e-06	1.8819e-06	199.76	60.496	1.9216e-06	2.0372e-06	57.876	16.109	15.967	4.353	1.9301e-06	4.9911	-77.202	69.049	-14.172	-130.343	95.769	107.877	-131.730	-126.235	72.804	26.514	-128.568	-124.290	-121.607	-118.796	105.111	-120.498	-8191	255	
22221.213	1	1	0	0	0.067374	0.07724	0.087437	0.33838	0.2244	0.12203	0.14513	0.1643	0.093629	0.33701	0.16879	0.041549	0.23487	0.2833	0.07109	0.26675	-1.6833	-2.2479	-2.5687	-2.125	-2.425	-2.1188	-2.0792	-2.3208	-2.0521	-2.0375	-2.3563	-1.9354	-2.1958	-2.2479	-2.0687	-2.4729	-123.510	-31.104	6.635	173.270	155.075	20.277	89.001	-1.958	-31.407	157.360	115.714	-106.749	76.282	-126.166	156.851	117.138	3.6448e-05	9.1074e-05	5.368e-05	242.35	1.2947e-06	1.7551e-06	203.47	61.583	5.7981e-07	1.9115e-06	58.367	16.244	15.722	4.3033	1.2107e-06	4.9907	0.00014616	0.00018426	5.1434e-05	235.75	1.8412e-06	2.0499e-06	200.15	60.218	1.8407e-06	1.8669e-06	57.528	16.141	15.782	4.3346	2.0447e-06	4.9566	-71.954	-43.235	-31.926	-130.634	3.253	-40.845	-131.878	-125.676	-116.317	124.592	-128.092	-124.291	-121.599	-118.776	-140.646	-120.905	-8191	255	
22221.285	1	1	0	0	0.21791	0.18848	0.12424	0.21385	0.18083	0.30948	0.15872	0.13114	0.19039	0.19062	0.38603	0.21518	0.17406	0.069287	0.34113	0.11735	-1.6021	-1.8979	-2.3958	-2.25	-2.3104	-2.3021	-2.0792	-2.3292	-1.9854	-2.0729	-2.3292	-2.1208	-2.2708	-2.2333	-1.9625	-2.3979	132.153	29.242	208.917	94.368	28.653	-13.838	68.737	144.685	108.537	-121.472	177.983	93.087	176.793	128.576	-28.700	58.575	4.2918e-05	0.00011857	6.1389e-05	238.12	1.2339e-06	1.7414e-06	203.58	61.517	1.3592e-06	6.359e-07	59.333	16.279	16.008	4.3422	1.1869e-06	5.0068	0.00015073	0.0001726	5.0078e-05	234.36	1.894e-06	1.9962e-06	199.72	60.504	1.9493e-06	2.0728e-06	57.883	16.189	15.911	4.345	2.028e-06	5.0234	-73.161	-65.187	-54.655	-130.219	-59.222	-51.657	-131.973	-125.940	118.747	25.634	-127.969	-123.501	-121.234	-118.340	-140.785	-121.137	-8191	255	
22221.404	1	1	0	0	0.30682	0.070069	0.10104	0.11054	0.20086	0.25697	0.13135	0.038758	0.16107	0.070431	0.054191	0.12379	0.18069	0.27456	0.24477	0.16778	-1.6917	-1.9229	-2.6063	-2.05	-2.3208	-2.4708	-2.0125	-2.4229	-2.3667	-2.1625	-2.5979	-2.1271	-2.2062	-2.5187	-1.9729	-2.2229	56.456	57.707	49.557	182.099	109.743	175.762	135.898	-64.199	-103.601	-56.179	133.013	57.891	9.395	170.939	201.397	-21.408	6.5368e-05	5.6396e-05	3.7988e-05	238.07	2.3721e-07	4.2613e-07	203.42	61.07	8.2843e-07	4.8202e-07	59.157	16.145	15.952	4.322	1.3292e-07	5.0503	0.00014076	0.00017962	4.9617e-05	234.79	1.7802e-06	1.9572e-06	199.75	60.217	1.877e-06	2.0123e-06	57.923	16.148	16.019	4.3355	1.8718e-06	4.9999	-75.066	-15.900	-87.495	-130.041	-81.401	-1.847	-131.832	-125.630	9.362	187.664	-129.146	-124.467	-122.175	-118.013	7.607	-121.719	-8191	255	
22221.502	1	1	0	0	0.12852	0.147	0.25744	0.11442	0.10043	0.087118	0.19752	0.094803	0.14915	0.13099	0.076567	0.097847	0.11814	0.14934	0.13264	0.17805	-1.6958	-2.0646	-2.4125	-1.9646	-2.0042	-2.2833	-1.8875	-2.3542	-2.2562	-2.0417	-2.3375	-2.3104	-2.2021	-2.2333	-1.9583	-2.3042	37.037	-39.014	209.941	-59.787	102.304	26.968	-3.758	-116.452	75.481	6.674	41.460	-93.552	-7.207	21.226	160.228	47.347	2.1855e-05	0.0001097	2.9853e-05	239.53	8.2737e-07	1.2893e-06	202.89	61.103	2.3268e-06	1.241e-06	58.068	16.151	16.074	4.3305	1.42e-06	4.905	0.00014655	0.00016895	4.7819e-05	234.81	1.9783e-06	1.8659e-06	199.05	60.222	1.8667e-06	1.9526e-06	57.665	16.122	15.928	4.3062	1.9124e-06	4.9579	-36.975	-97.159	188.154	-130.530	-59.916	-41.168	-131.587	-125.595	5.987	-13.604	-128.637	-124.296	-122.121	-118.160	-29.883	-121.796	-8191	255	
22221.598	1	1	0	0	0.072938	0.022752	0.12756	0.16531	0.16595	0.07573	0.070581	0.052247	0.23086	0.36621	0.13113	0.20569	0.14908	0.19158	0.20703	0.11315	-1.7917	-1.8458	-2.2333	-2.3063	-2.0354	-2.3875	-2.0354	-2.1646	-2.4958	-1.8188	-2.4437	-2.1437	-2.0979	-2.525	-2.0833	-2.1875	202.566	83.079	-81.914	-128.605	-34.274	148.142	186.491	85.575	41.616	54.172	119.058	84.234	105.456	64.654	119.137	-104.751	3.6736e-05	0.00013077	7.7254e-05	240.87	1.1408e-06	1.5678e-06	203.77	60.763	6.442e-07	8.465e-07	58.741	16.228	15.985	4.3947	2.8941e-07	4.9651	0.00014382	0.00017575	4.7736e-05	234.84	1.8828e-06	1.9147e-06	200	60.126	1.8197e-06	1.9208e-06	57.593	16.15	15.901	4.325	1.89e-06	4.9714	-100.714	-116.731	-30.293	-130.067	84.988	60.758	-132.031	-125.824	33.950	-104.240	-128.463	-124.117	-121.281	-117.822	31.950	-121.056	-8191	255	
22221.693	1	1	0	0	0.22872	0.21649	0.12973	0.24132	0.076159	0.062329	0.24161	0.18802	0.085842	0.12657	0.14568	0.1059	0.20063	0.15658	0.13988	0.079252	-1.8979	-1.8687	-2.3479	-2.0792	-1.7979	-2.3833	-2.1479	-2.1813	-2.4479	-1.8417	-2.1458	-2.3417	-1.925	-2.4979	-2.2521	-2.3563	51.120	138.483	149.675	151.520	-22.659	201.132	62.553	124.269	205.722	-138.935	-142.739	192.306	78.048	36.994	187.777	178.540	2.4368e-05	2.4666e-05	6.6203e-05	240.59	1.7659e-06	7.5798e-07	203.5	61.41	1.6064e-06	1.0466e-06	58.322	16.191	15.713	4.415	1.0984e-06	5.1059	0.00014616	0.00017444	4.7813e-05	235.52	1.9152e-06	1.9529e-06	200.19	60.336	1.9066e-06	1.9818e-06	57.88	16.245	15.869	4.3646	1.9257e-06	5.0306	-93.381	-37.743	-101.426	-130.433	-48.439	-120.177	-131.800	-125.301	-28.533	-62.443	-128.871	-124.129	-121.454	-118.197	-73.628	-121.198	-8191	255	
22221.814	1	1	0	0	0.086593	0.17701	0.1083	0.16386	0.084652	0.19248	0.30614	0.12684	0.06678	0.2919	0.23027	0.08422	0.30467	0.16025	0.17616	0.10534	-1.9958	-2.0208	-2.1813	-2.4375	-2.0521	-2.3354	-2.0146	-1.9646	-2.4208	-1.8896	-2.0646	-2.1646	-2.0292	-2.2375	-2.1479	-1.9375	147.716	-76.773	132.407	-75.574	69.402	25.806	-67.089	39.583	-28.562	-15.682	131.973	-113.845	176.005	69.565	212.269	155.420	5.111e-05	0.00010145	2.228e-05	241.13	1.2832e-06	2.9846e-07	205.44	61.118	1.9548e-06	1.2853e-06	59.114	16.411	16.191	4.3377	1.0256e-06	5.0005	0.00014226	0.00017765	4.9368e-05	235.45	1.9288e-06	1.8603e-06	200.89	60.502	1.8368e-06	1.9917e-06	58.148	16.319	15.976	4.3418	1.9025e-06	5.0225	-79.726	-63.048	-16.761	-130.326	53.712	188.928	-131.361	-125.082	-21.755	15.964	-129.333	-123.836	-121.270	-118.811	61.013	-120.915	-8191	255	
22221.910	1	1	0	0	0.03268	0.097289	0.14565	0.07422	0.15299	0.21645	0.012979	0.10176	0.12146	0.20125	0.19329	0.13972	0.26381	0.1876	0.055626	0.23117	-1.9375	-2.0021	-2.075	-2.2667	-2.0479	-2.2417	-2.3271	-2.1188	-2.5167	-2.1896	-2.1792	-2.3063	-1.8521	-2.3375	-2.225	-2.0917	74.660	169.144	-71.262	-136.084	131.154	210.358	-130.402	155.224	114.804	-69.678	67.049	99.742	195.495	-73.440	40.612	84.702	4.6611e-05	0.00015239	7.7854e-05	239.76	1.714e-06	3.6189e-07	203.01	61.758	1.7908e-06	6.7491e-07	58.49	16.346	15.933	4.3954	1.9889e-06	4.8905	0.00014643	0.0001726	4.9982e-05	234.88	1.9209e-06	1.8895e-06	199.92	60.627	1.9611e-06	2.0324e-06	57.832	16.137	15.897	4.3657	1.9574e-06	4.9652	-66.750	-108.894	-61.271	-130.281	2.676	-70.113	-131.304	-125.568	-26.782	-50.760	-128.573	-124.136	-120.837	-117.567	-30.901	-120.458	-8191	255	
22222.006	1	1	0	0	0.27344	0.3895	0.21519	0.093909	0.17833	0.11435	0.062332	0.097412	0.056965	0.052543	0.1972	0.15431	0.25063	0.11555	0.41736	0.12612	-1.9458	-2.0625	-2.1229	-2.4562	-1.8312	-2.2438	-2.1792	-1.7896	-2.2771	-2.2729	-1.9937	-2.2625	-1.9458	-2.2396	-2.3458	-1.8042	-28.046	-23.926	-41.966	-134.604	81.247	-83.124	-54.117	196.605	161.900	-50.467	-16.225	144.816	-65.750	101.196	-70.063	-92.855	4.9266e-05	5.3753e-05	2.0112e-05	240.82	1.4643e-06	3.0579e-07	204.97	62.018	1.5359e-06	2.9509e-06	58.993	16.348	16.197	4.3546	2.6859e-06	5.0169	0.00014591	0.00017366	4.9579e-05	235.36	1.9152e-06	1.8562e-06	199.93	60.727	1.814e-06	2.0751e-06	58.014	16.271	15.979	4.3878	1.9581e-06	5.0365	-70.207	35.297	-64.406	-130.368	19.144	71.790	-132.054	-125.665	185.427	-1.361	-128.556	-124.394	-122.816	-118.084	13.199	-122.298	-8191	255	
22222.102	1	1	0	0	0.10014	0.25207	0.12585	0.28827	0.19474	0.11482	0.23092	0.085142	0.14052	0.18902	0.16228	0.33054	0.11789	0.17472	0.087852	0.14149	-1.8854	-1.8792	-2.1312	-2.5021	-2.0333	-2.2354	-2.5187	-1.9583	-2.3708	-2.1771	-2.0187	-2.3979	-1.9458	-2.3292	-2.3563	-1.8417	181.598	104.638	0.155	93.599	-109.017	126.343	103.917	213.870	71.230	-120.702	71.146	198.360	31.803	-3.855	146.459	20.739	1.9592e-05	3.9784e-05	1.9559e-05	240.45	8.1423e-07	2.4601e-06	203.08	62.029	2.5419e-07	1.7522e-06	59.063	16.372	16.049	4.3303	1.0441e-06	5.0069	0.0001446	0.00017239	4.8472e-05	234.83	1.8512e-06	1.9753e-06	199.11	60.486	1.7872e-06	1.93e-06	58.189	16.25	15.985	4.3346	1.9168e-06	4.9994	-84.049	74.560	-47.555	-130.516	-36.794	1.911	-131.904	-125.168	123.928	41.188	-128.532	-123.553	-122.128	-118.898	92.880	-121.431	-8191	255	
22222.197	1	1	0	0	0.084498	0.094406	0.084355	0.1501	0.11132	0.31164	0.22021	0.14311	0.26351	0.13832	0.12996	0.060863	0.2365	0.14006	0.17162	0.16801	-1.8792	-2.1792	-1.9917	-2.4292	-2.0521	-2.1917	-2.3271	-1.8896	-2.3729	-2.2562	-2.1354	-2.25	-1.9833	-2	-2.4042	-2.0542	211.515	-15.294	171.200	166.768	-19.017	147.315	3.527	-103.379	121.257	1.790	183.593	-4.457	-74.042	-95.472	118.717	-33.368	5.2544e-05	0.0001171	1.8202e-05	239.65	1.2248e-06	2.0912e-06	203.49	61.738	1.107e-06	1.5406e-06	59.261	16.538	16.509	4.4137	3.488e-07	5.1012	0.00015117	0.00018068	5.075e-05	234.62	1.9202e-06	1.8839e-06	199.76	60.489	1.9444e-06	1.8916e-06	58.504	16.448	16.2	4.4081	1.9141e-06	5.1028	-77.564	-113.120	-25.970	-130.164	-55.234	-70.539	-131.900	-125.716	71.979	166.141	-128.116	-123.439	-122.070	-117.561	-31.135	-121.625	-8191	255	
22222.293	1	1	0	0	0.2651	0.066007	0.19854	0.092054	0.25712	0.14815	0.049535	0.31987	0.096747	0.2098	0.052708	0.14533	0.026607	0.02871	0.17707	0.42372	-1.9208	-2.0292	-1.9396	-2.45	-2.0604	-2.0563	-2.3542	-1.9937	-2.3083	-2.2687	-2.0938	-2.3146	-1.9771	-2.0938	-2.5458	-2.0479	121.799	158.742	173.767	-99.417	132.471	137.399	70.532	131.944	189.708	-124.731	191.041	44.315	211.903	95.640	-14.309	21.171	3.0671e-05	3.8601e-06	7.6124e-06	240.65	1.045e-06	1.1118e-06	203.94	61.29	1.3128e-06	5.24e-07	58.965	16.333	15.877	4.3585	8.1757e-07	4.9637	0.00014208	0.00017685	4.9662e-05	235.87	1.9257e-06	1.9198e-06	199.29	60.627	1.9478e-06	1.9434e-06	58.028	16.209	15.883	4.345	1.8787e-06	5.0036	-86.829	102.223	-106.942	-130.337	-96.789	69.069	-131.452	-125.918	28.719	-17.957	-128.550	-124.170	-121.561	-118.795	120.905	-121.257	-8191	255	
22222.389	1	1	0	0	0.22471	0.23952	0.30462	0.20096	0.13461	0.22262	0.13056	0.14135	0.19137	0.22463	0.086561	0.11522	0.12021	0.21137	0.043356	0.044478	-1.8146	-2.3021	-2.0292	-2.3021	-2.2021	-2.1771	-2.625	-2.1021	-2.1625	-2.4083	-1.7812	-2.4354	-2.3521	-2.0542	-2.4437	-1.9438	197.978	-141.911	-100.833	144.398	133.572	-9.980	85.835	119.288	1.896	-92.960	130.621	-89.098	159.088	103.396	-140.636	-103.537	4.8302e-05	3.0801e-05	5.6077e-05	238.61	1.0276e-06	1.0345e-06	202.9	62.436	1.695e-06	1.0499e-06	59.377	16.105	16.294	4.3628	1.4954e-06	5.0484	0.00014961	0.00017315	4.8869e-05	233.56	1.9297e-06	1.9776e-06	199.03	60.524	1.892e-06	1.9145e-06	57.972	16.105	15.956	4.3374	1.8575e-06	5.0077	-56.594	-0.521	59.816	-129.809	-18.609	-28.729	-131.576	-125.796	61.160	24.297	-129.156	-123.845	-121.527	-117.990	-45.670	-121.563	-8191	255	
22222.510	1	1	0	0	0.20262	0.17432	0.13142	0.1059	0.1108	0.17718	0.091947	0.061825	0.12988	0.33803	0.089873	0.18695	0.2741	0.059388	0.17986	0.11919	-1.7229	-2.4667	-2.0062	-2.3771	-2.1229	-2.1604	-2.4437	-2.0667	-2.2188	-2.3625	-1.9188	-2.1021	-2.2083	-1.9438	-2.3833	-1.9792	-36.154	136.838	174.769	83.251	-116.432	161.751	46.553	13.212	200.654	12.670	8.184	-58.296	-93.940	-74.586	172.735	157.831	3.8396e-05	0.00015592	5.3231e-05	239.13	1.5616e-06	2.1986e-06	202.31	61.145	8.2612e-07	8.1854e-07	59.134	16.164	15.89	4.3266	1.5159e-06	4.9888	0.00014221	0.00017545	4.9822e-05	234.1	1.9e-06	1.9773e-06	198.43	60.108	1.9565e-06	1.902e-06	58.058	16.152	15.843	4.3391	1.9043e-06	4.9653	-83.643	-70.909	-38.608	-130.250	1.007	10.385	-131.883	-125.698	-47.428	88.852	-128.316	-124.297	-122.017	-117.704	-67.232	-120.048	-8191	255	
22222.580	1	1	0	0	0.15979	0.054663	0.26224	0.37694	0.19484	0.13312	0.08511	0.13233	0.1697	0.10031	0.1425	0.06049	0.16591	0.38045	0.033209	0.19056	-1.4188	-2.1688	-1.9312	-2.3479	-2.2125	-1.9833	-2.2875	-2.1604	-2.1729	-2.3625	-2.0646	-2.4708	-2.2313	-2.0646	-2.2062	-1.95	181.778	102.659	-6.992	-13.906	-86.544	110.721	124.823	-114.931	200.926	113.217	182.863	-50.555	105.431	-132.211	-110.201	-85.357	3.0345e-05	0.00015967	1.3662e-05	237.71	1.1806e-06	1.4619e-06	203.77	61.168	7.892e-07	1.3788e-06	59.769	16.367	15.943	4.3449	2.3533e-06	4.9739	0.00014695	0.00017749	5.0321e-05	233.44	1.9052e-06	2.0102e-06	199.73	60.365	1.9329e-06	1.9961e-06	58.114	16.294	15.957	4.3426	1.8912e-06	5.0017	-86.960	-91.413	109.648	-130.090	-54.368	20.354	-131.974	-125.528	146.597	-92.843	-128.182	-124.241	-121.609	-117.651	8.388	-120.398	-8191	255	
22222.678	1	1	0	0	0.17259	0.17561	0.22152	0.12041	0.20361	0.20886	0.1717	0.24362	0.25159	0.27338	0.20962	0.15849	0.10586	0.15063	0.2789	0.2458	-1.4292	-2.3667	-1.9562	-2.2062	-2.2542	-1.9312	-2.3375	-2.375	-2.0167	-2.4125	-2.1021	-2.1667	-2.4229	-1.8312	-2.3104	-2.2521	80.473	40.236	90.415	193.279	150.166	-83.306	188.012	78.920	-55.793	170.869	-33.225	151.413	-73.146	180.708	180.314	177.963	4.5586e-05	5.7466e-05	2.4662e-05	238.38	9.4708e-07	2.1751e-07	203.89	61.416	6.212e-07	5.5556e-07	58.767	16.224	16.191	4.3564	1.5824e-06	4.9621	0.0001488	0.00017882	4.9246e-05	234.78	1.9307e-06	2.0237e-06	200.24	60.671	2.0075e-06	2.0172e-06	58.303	16.294	16.031	4.3741	1.8327e-06	5.0235	-86.739	-41.993	92.852	-130.204	64.299	-141.635	-131.246	-125.994	-53.753	-65.093	-128.375	-123.844	-122.404	-117.862	-47.567	-121.750	-8191	255	
22222.773	1	1	0	0	0.32404	0.25698	0.088301	0.16583	0.27718	0.18107	0.21902	0.050018	0.29575	0.2295	0.15206	0.29321	0.14123	0.14682	0.11925	0.22388	-1.5646	-2.2458	-2.1188	-2.2958	-2.3667	-2.05	-2.3146	-2.2188	-1.9771	-2.3229	-2.3875	-2.1833	-2.3604	-2.025	-2.2896	-2.1312	76.977	-30.577	-93.160	191.433	22.374	105.581	189.778	140.235	123.532	-70.527	-133.686	40.581	69.573	-6.099	-23.600	181.491	1.7943e-05	5.0382e-05	3.5666e-05	239.37	4.534e-07	2.2843e-06	203.71	61.077	3.9594e-07	6.2238e-07	58.962	16.188	15.972	4.3983	7.1721e-07	4.9511	0.00014758	0.00017058	4.8485e-05	233.46	1.9826e-06	1.9488e-06	198.28	60.302	1.9743e-06	1.9587e-06	57.803	16.256	15.857	4.3592	1.9598e-06	5.0097	-100.452	-14.214	56.358	-130.139	43.512	-42.226	-131.925	-125.635	15.959	73.464	-128.909	-123.632	-121.354	-118.594	-12.045	-121.368	-8191	255	
22222.895	1	1	0	0	0.20325	0.11021	0.33937	0.31415	0.078451	0.25312	0.23482	0.087127	0.094875	0.10866	0.33148	0.11072	0.11942	0.25322	0.090052	0.083462	-1.3625	-2.2062	-2.1208	-2.2104	-2.3	-2.025	-2.5521	-2.3042	-1.975	-2.3146	-2.1312	-2	-2.3771	-2.0021	-2.2667	-2.4271	-80.124	184.652	146.830	130.230	160.975	-7.330	27.745	204.847	91.468	58.493	13.192	-118.510	-122.985	110.757	129.561	168.715	4.3629e-05	8.0043e-05	2.8885e-05	240.53	4.8457e-07	8.1624e-07	203.37	60.849	5.3333e-07	1.1055e-06	59.449	16.156	16.011	4.3347	7.8029e-07	5.0216	0.00014748	0.00017584	4.947e-05	234.86	1.9121e-06	2.0557e-06	199.02	60.284	1.9437e-06	1.9633e-06	58.044	16.197	15.883	4.3492	1.9202e-06	5.0201	-67.339	35.738	-26.089	-130.285	71.009	83.707	-131.926	-125.428	-13.110	43.938	-128.488	-123.566	-122.312	-118.662	10.497	-121.886	-8191	255	
22222.990	1	1	0	0	0.1353	0.081128	0.22711	0.13408	0.037986	0.14552	0.33227	0.098054	0.11035	0.1499	0.12255	0.074436	0.086715	0.09126	0.19188	0.2023	-1.7062	-2.4062	-2.1333	-2.1958	-2.3937	-2.0875	-2.2042	-2.3271	-1.9458	-2.425	-2.1542	-1.8125	-2.3438	-2.1937	-2.0875	-2.2812	96.123	64.305	85.150	-18.835	108.059	-83.309	201.077	105.350	-6.647	148.561	195.773	21.591	60.066	-46.911	155.792	160.275	2.9779e-05	0.00010808	8.6457e-05	239.96	3.6314e-07	2.9471e-07	204.36	60.952	1.2596e-06	1.6821e-06	59.319	16.581	15.886	4.4261	7.6759e-07	5.1014	0.00014861	0.00017632	4.8235e-05	234.75	1.8916e-06	2.0954e-06	200	60.355	1.8544e-06	1.9455e-06	58.173	16.376	15.987	4.379	2.0046e-06	5.0673	-85.569	-97.904	-61.177	-130.663	197.046	17.306	-131.345	-125.090	-60.151	-56.204	-128.458	-124.088	-122.061	-117.784	55.906	-121.229	-8191	255	
22223.088	1	1	0	0	0.14935	0.16097	0.15667	0.25838	0.1456	0.17278	0.067195	0.095603	0.18571	0.022386	0.31188	0.067463	0.087223	0.16705	0.28917	0.11929	-1.4792	-2.1042	-2.1813	-2.0563	-2.2917	-2.1104	-1.9667	-2.3812	-1.9604	-2.2833	-2.3563	-1.8937	-2.3229	-2.1562	-2.0312	-2.4333	199.338	8.348	86.222	-6.312	6.885	-126.711	122.207	-132.570	166.666	129.703	-19.715	206.730	214.547	-61.424	34.284	2.465	3.7456e-05	0.00013471	2.6156e-05	239.31	3.5119e-07	9.8296e-07	202.71	61.644	1.81e-06	2.6793e-06	59.196	16.472	16.088	4.399	1.2043e-06	5.043	0.0001489	0.00017035	4.8459e-05	234.09	2.0143e-06	2.0142e-06	199.67	60.616	1.9124e-06	1.9628e-06	58.043	16.402	15.968	4.3628	1.9443e-06	5.0358	-86.900	-46.888	-66.522	-130.508	175.385	-47.603	-131.955	-125.723	-135.376	-26.814	-128.540	-124.181	-121.634	-118.721	28.185	-121.330	-8191	255	
22223.184	1	1	0	0	0.15359	0.080214	0.37001	0.25255	0.1439	0.19795	0.047518	0.16986	0.077368	0.002426	0.22707	0.2408	0.13092	0.066316	0.20108	0.13108	-1.5771	-2.2021	-2.3604	-1.9979	-2.3542	-2.0896	-1.9708	-2.4354	-1.9875	-2.1542	-2.3688	-1.7917	-2.2542	-2.2938	-2.0396	-2.4604	164.330	171.026	-17.599	-53.229	-54.015	171.327	98.868	203.058	143.440	180.000	203.797	50.360	68.153	-63.922	25.661	135.544	3.6407e-05	6.0933e-05	3.1544e-05	238.85	1.9907e-06	2.6499e-06	202.2	61.019	1.4543e-06	1.1655e-06	58.608	16.169	16.218	4.2904	2.6654e-07	4.9509	0.00014799	0.00018045	5.0078e-05	234.02	1.9133e-06	2.0496e-06	198.27	59.931	1.9514e-06	2.0754e-06	57.713	16.12	15.909	4.2915	1.9962e-06	4.9744	-87.309	-50.485	207.061	-130.545	-41.764	-50.265	-131.748	-125.346	55.821	102.503	-128.247	-123.976	-121.900	-117.650	-36.761	-121.351	-8191	255	
22223.277	1	1	0	0	0.050242	0.086118	0.14425	0.20487	0.2468	0.20776	0.16722	0.10269	0.16695	0.1047	0.09169	0.063813	0.13584	0.08628	0.26162	0.25238	-1.5875	-2.2875	-2.1604	-2.0042	-2.3063	-2.3812	-1.8813	-2.3708	-2.0229	-2.0354	-2.2708	-1.8687	-2.3208	-2.0729	-1.9604	-2.2792	93.329	12.884	-2.464	3.575	165.375	-63.433	205.456	-81.857	213.334	199.745	165.195	-34.917	117.854	111.352	-55.964	-141.569	5.2764e-05	0.0001187	2.2998e-05	239.69	1.6036e-06	1.0322e-06	202.18	60.709	1.6739e-06	1.2865e-06	58.067	16.119	15.703	4.3311	2.136e-06	4.9416	0.0001427	0.0001827	4.8734e-05	234.16	1.9074e-06	1.9239e-06	199.01	59.769	1.9136e-06	2.0682e-06	57.523	16.063	15.811	4.3098	1.998e-06	4.9304	-78.779	197.937	-129.676	-130.243	-55.991	-32.716	-131.582	-125.646	20.118	50.119	-128.467	-124.015	-122.031	-117.702	13.555	-120.546	-8191	255	
22223.375	1	1	0	0	0.23553	0.31267	0.20336	0.044622	0.1027	0.41988	0.31728	0.17259	0.042987	0.2122	0.17386	0.10639	0.069094	0.17127	0.16544	0.15522	-1.5812	-2.075	-2.2917	-1.8104	-2.3021	-2.2875	-2.1104	-2.3667	-2.0917	-2.1458	-2.4021	-1.8729	-2.0708	-2.3542	-1.7437	-2.2208	35.544	7.467	136.050	158.512	-48.354	172.806	-53.409	128.977	119.484	-62.836	90.733	-63.071	118.417	9.477	-57.662	150.698	5.5129e-05	0.00013011	1.0106e-05	239.3	9.7619e-07	4.7327e-07	201.53	60.922	1.1036e-06	1.3321e-06	58.662	16.332	16.005	4.3181	1.104e-06	4.9722	0.00014662	0.00018582	5.0481e-05	234.5	1.9257e-06	1.998e-06	198.39	59.994	1.9021e-06	2.0286e-06	57.633	16.176	15.895	4.3222	2.008e-06	4.9687	-62.230	-67.168	-81.589	-130.035	-32.850	59.868	-131.496	-126.029	32.204	9.392	-128.263	-123.595	-121.979	-117.944	-121.138	-120.531	-8191	255	
22223.494	1	1	0	0	0.12474	0.3397	0.19849	0.28977	0.10814	0.076419	0.10623	0.13506	0.37487	0.14148	0.26534	0.21628	0.44262	0.10665	0.047924	0.1287	-1.4542	-1.9062	-2.3979	-2.0583	-2.1583	-2.3167	-1.8687	-2.2042	-2.1167	-1.9646	-2.4354	-2.0292	-2.1333	-2.3354	-1.9312	-2.1417	-85.902	160.117	92.433	-87.256	174.070	-68.141	170.598	-136.073	213.774	147.559	19.804	175.394	173.544	43.554	2.847	144.178	1.8793e-05	6.1618e-05	2.8884e-05	239.66	1.0381e-06	1.2737e-06	203.97	61.17	2.6359e-07	1.4983e-06	58.937	16.204	15.746	4.2518	1.5733e-06	4.9276	0.00014336	0.00018589	4.8926e-05	235.03	2.0404e-06	1.9977e-06	199.83	60.249	1.9729e-06	2.0698e-06	58.153	16.262	15.833	4.2735	1.9874e-06	4.9746	-82.680	-6.268	-49.937	-130.113	-26.897	-56.206	-131.600	-125.433	124.720	214.305	-128.730	-123.561	-120.988	-118.138	-13.736	-122.199	-8191	255	
22223.590	1	1	0	0	0.16237	0.14157	0.21722	0.1694	0.095364	0.23868	0.096321	0.0099559	0.18335	0.18095	0.22444	0.11999	0.056877	0.29484	0.13789	0.14432	-1.7396	-1.7875	-2.4354	-2.0479	-2.2708	-2.3354	-1.9	-2.2062	-2.1958	-1.9604	-2.3729	-2.1604	-2.1208	-2.35	-1.9083	-2.2562	-102.664	-1.635	-20.308	171.059	20.284	-22.844	109.918	97.520	11.392	52.283	-5.130	155.665	213.866	186.766	-106.409	119.009	4.0056e-05	0.00016222	9.6262e-06	240.28	1.6598e-06	1.1628e-06	204.72	60.234	7.576e-07	5.1258e-07	57.639	16.16	15.91	4.3032	1.1382e-06	4.9251	0.00015027	0.00018362	5.0698e-05	235.33	1.8962e-06	2.0081e-06	199.31	59.658	1.9379e-06	2.1104e-06	57.159	16.067	15.697	4.2829	1.9591e-06	4.914	-49.150	-97.703	-85.402	-130.292	-7.842	91.445	-132.210	-125.581	-8.142	-2.537	-128.582	-124.292	-121.948	-118.849	20.399	-121.224	-8191	255	
22223.686	1	1	0	0	0.40402	0.099873	0.14158	0.21562	0.26705	0.19624	0.055711	0.16541	0.2753	0.25573	0.065692	0.13768	0.21484	0.1981	0.19238	0.34794	-1.7563	-2.0792	-2.3042	-2.1583	-2.0729	-2.5042	-1.925	-2.2667	-2.0854	-1.9021	-2.2208	-2.4062	-1.9042	-2.3729	-1.8792	-2.0729	123.247	-40.270	8.639	199.622	-13.873	18.899	156.220	13.738	-99.451	115.476	-62.059	124.457	3.218	-9.057	214.730	129.852	3.58e-05	0.00018995	6.6978e-06	239.66	9.3264e-07	2.1913e-06	204.21	60.732	5.1974e-07	4.7922e-07	58.855	16.228	16.139	4.3427	4.7348e-07	5.014	0.00014568	0.00018931	5.1684e-05	234.68	1.9935e-06	1.9555e-06	200.11	60.065	1.9712e-06	1.9938e-06	57.7	16.133	15.954	4.3305	1.9372e-06	4.9821	-32.251	-40.843	38.034	-130.413	151.000	42.319	-131.486	-125.550	201.706	-44.647	-128.410	-124.733	-121.882	-117.941	206.532	-120.930	-8191	255	
22223.807	1	1	0	0	0.13326	0.2694	0.30443	0.23086	0.2594	0.029062	0.052422	0.25732	0.13462	0.28549	0.22121	0.16059	0.32987	0.090164	0.1521	0.1064	-1.8312	-1.8729	-2.3375	-2.2542	-1.975	-2.5917	-2.1063	-2.0979	-2.2208	-2.0125	-2.3458	-2.2021	-1.9708	-2.5917	-2.1917	-2.175	-130.331	43.575	162.827	168.794	9.564	-50.417	37.449	-108.539	8.651	109.595	129.523	64.273	52.474	65.825	140.901	145.733	5.04e-05	9.2733e-05	2.2523e-05	239.72	1.1175e-07	1.6384e-06	205.52	61.324	7.5054e-07	6.2292e-07	58.014	16.006	15.961	4.2981	1.9418e-06	5.0105	0.00014704	0.0001844	5.1076e-05	235.71	2.0043e-06	1.9743e-06	200.62	60.467	1.9276e-06	2.0611e-06	57.65	16.122	15.886	4.2773	1.9207e-06	4.9554	-98.918	-24.453	10.713	-130.573	-41.935	-41.894	-131.449	-125.516	187.212	82.238	-128.914	-124.675	-121.216	-118.309	65.006	-121.407	-8191	255	
22223.879	1	1	0	0	0.15	0.10981	0.11862	0.13865	0.084677	0.05235	0.13249	0.20522	0.20236	0.46984	0.18578	0.11168	0.069458	0.17027	0.19388	0.35736	-1.9062	-1.8417	-2.1625	-2.0458	-2.1208	-2.3417	-2.2979	-1.9771	-2.5104	-2.0229	-2.1042	-2.1396	-2.0542	-2.2896	-2.0729	-1.9937	-113.888	52.808	-85.000	124.300	73.093	5.395	41.160	-143.428	31.697	-110.831	-59.384	190.984	54.117	-48.865	21.933	184.168	2.5482e-05	5.3017e-05	4.3631e-05	238.71	1.2801e-06	8.8505e-07	205.48	61.022	7.7406e-07	1.495e-06	58.497	16.349	16.155	4.3781	1.5571e-06	4.9803	0.00014843	0.00018506	4.7301e-05	235.27	1.9521e-06	1.9336e-06	200.59	60.335	1.8843e-06	2.1722e-06	57.761	16.314	15.943	4.3397	2.022e-06	4.9965	-59.080	30.602	-94.186	-130.249	66.276	-62.568	-131.727	-125.524	200.066	49.540	-128.178	-124.104	-120.540	-118.523	63.918	-120.735	-8191	255	
22223.975	1	1	0	0	0.22025	0.1409	0.18282	0.17447	0.15307	0.24939	0.23109	0.031673	0.09999	0.15018	0.078136	0.13106	0.1434	0.2872	0.18703	0.14781	-1.6812	-1.7833	-1.9708	-2.2479	-1.8792	-2.4104	-2.2021	-2.0625	-2.35	-2.0542	-2.2542	-2.1896	-1.9438	-2.3438	-2.1083	-2.1896	-95.994	-0.521	67.533	164.657	19.051	31.656	-13.439	183.371	139.385	-129.530	200.738	-81.866	-99.834	-61.932	141.309	170.351	4.9779e-05	0.00010018	8.5435e-06	239.83	6.3249e-07	2.0704e-07	205.26	61.945	7.8873e-07	6.747e-07	58.342	16.194	16.256	4.3539	9.3885e-07	5.001	0.00014868	0.00018096	5.1882e-05	236.81	2.0026e-06	1.8366e-06	200.82	60.754	1.8881e-06	2.0487e-06	57.837	16.168	16.029	4.3286	1.9746e-06	4.9842	-79.855	-78.411	-113.843	-130.335	207.102	61.064	-131.379	-125.511	143.561	-126.355	-128.007	-123.835	-122.147	-117.681	202.713	-121.773	-8191	255	
22224.070	1	1	0	0	0.21282	0.093075	0.29477	0.19593	0.21087	0.29696	0.27094	0.32537	0.18068	0.15264	0.093104	0.11615	0.18785	0.095209	0.094416	0.11895	-1.9417	-2.0542	-2.1521	-2.3312	-1.9083	-2.2812	-2.325	-1.8208	-2.3812	-1.9688	-2.1688	-2.3896	-2.1896	-2.4458	-2.2438	-2.0062	2.405	164.571	9.810	59.062	-122.365	-135.682	196.983	134.896	-122.034	-5.865	-117.023	31.137	205.611	212.129	78.721	206.449	2.8357e-05	0.00017443	1.568e-05	241.49	9.2444e-07	1.1775e-06	201.02	61.278	5.2316e-07	8.4027e-07	58.461	16.134	15.796	4.3543	1.238e-06	4.8456	0.00014382	0.00018137	4.9931e-05	234.86	1.94e-06	1.9687e-06	198.24	60.01	1.872e-06	1.8819e-06	57.537	16.067	15.849	4.3127	1.9699e-06	4.9121	-59.844	-31.395	4.110	-130.533	66.458	-15.962	-131.967	-125.718	137.416	-39.412	-128.575	-123.989	-122.329	-118.310	106.118	-120.415	-8191	255	
22224.189	1	1	0	0	0.095827	0.13593	0.21078	0.17379	0.17643	0.23794	0.29203	0.20081	0.15981	0.22728	0.11572	0.03974	0.16827	0.047805	0.042481	0.18656	-1.8563	-1.9625	-1.9583	-2.4021	-2.075	-2.2729	-2.2562	-2.0021	-2.2604	-2.2167	-2.1771	-2.4167	-2.1417	-2.1583	-2.3937	-2.0021	155.189	-41.208	183.670	-86.482	-31.747	110.833	188.200	-27.490	119.182	-110.026	130.139	-63.781	137.612	204.254	181.624	-75.408	4.4105e-05	0.00024138	6.8117e-05	238.92	8.6117e-07	1.4806e-06	202.38	60.97	1.2776e-06	2.019e-06	58.523	16.28	15.953	4.3454	9.2481e-07	4.9065	0.00015175	0.00018419	5.1076e-05	233.78	1.9445e-06	2.0316e-06	198.68	59.925	1.8729e-06	2.0288e-06	57.813	16.116	15.88	4.3226	1.938e-06	4.9458	-96.453	-73.333	-123.023	-130.291	107.361	-50.543	-131.555	-125.225	83.813	28.516	-128.335	-124.563	-121.998	-117.995	-46.360	-122.000	-8191	255	
22224.285	1	1	0	0	0.21861	0.1589	0.093502	0.28742	0.11819	0.30084	0.15692	0.26733	0.14362	0.19913	0.11901	0.081463	0.065672	0.30184	0.051579	0.023105	-2.0333	-2.1521	-2.1354	-2.3979	-2.0187	-2.2875	-2.3396	-2.0729	-2.4271	-2.2208	-2.0729	-2.425	-1.9396	-2.0292	-2.2542	-1.8188	89.592	161.999	118.143	42.229	121.589	129.345	209.410	-11.409	-7.562	-1.304	156.106	138.490	99.903	126.617	-126.101	-91.543	2.7453e-05	3.4021e-05	4.4155e-05	237.55	1.1507e-06	1.5375e-06	201.41	60.791	1.5242e-07	9.0613e-07	59.185	16.068	15.935	4.3342	1.406e-06	5.0105	0.0001426	0.00017331	5.1537e-05	232.63	1.9569e-06	1.9102e-06	198.19	59.993	1.9476e-06	1.9379e-06	57.93	16.166	15.902	4.3387	1.8809e-06	5.0045	-79.624	131.342	-20.770	-130.097	80.537	9.678	-131.604	-125.272	109.112	205.884	-128.634	-124.802	-121.681	-117.511	-58.810	-121.259	-8191	255	
22224.383	1	1	0	0	0.047222	0.029815	0.03981	0.14939	0.217	0.3186	0.10998	0.052535	0.25146	0.20944	0.0863	0.065838	0.081639	0.27192	0.15378	0.10068	-1.8	-2.3063	-1.9979	-2.325	-2.0604	-2.2042	-2.5229	-1.9417	-2.3229	-2.2188	-2.1104	-2.2667	-2.1083	-2.2979	-2.4562	-1.9854	44.266	-118.467	-117.355	36.798	34.156	-58.539	-135.230	103.352	58.635	173.447	-93.800	-45.325	141.579	127.772	-35.675	176.919	2.905e-05	7.4074e-05	3.5736e-05	236.52	4.9673e-07	1.1795e-06	200.77	61.126	1.5458e-06	1.3929e-06	59.62	16.279	15.995	4.2675	9.4638e-08	4.9616	0.00014748	0.00018075	5.1607e-05	232.26	1.9447e-06	2.0051e-06	197.77	60.014	1.9827e-06	1.9628e-06	57.749	16.224	15.834	4.3308	1.9515e-06	5.0049	-74.384	-13.090	17.277	-130.188	-23.065	135.289	-131.977	-125.681	48.300	77.777	-128.402	-124.249	-121.886	-118.640	-102.268	-121.030	-8191	255	
22224.455	1	1	0	0	0.11164	0.1425	0.077416	0.17575	0.13082	0.21499	0.23775	0.091251	0.14411	0.11406	0.15532	0.168	0.13481	0.21714	0.11933	0.27181	-1.7646	-2.0062	-2.1292	-2.3083	-2.0938	-2.0042	-2.5042	-2.0625	-2.2417	-2.3063	-1.7812	-2.3625	-2.1937	-2.1708	-2.4521	-2.0771	37.891	113.202	54.355	-85.186	58.081	21.208	185.876	-113.292	-104.756	17.551	-50.221	163.643	159.328	123.384	-124.303	102.712	5.355e-05	0.00014389	4.8816e-05	235.88	1.9293e-06	1.292e-06	201.07	60.507	1.0751e-06	1.8979e-06	58.089	16.396	15.902	4.2781	1.5828e-06	4.9184	0.00014552	0.00017914	4.8529e-05	231.54	1.9374e-06	1.9249e-06	197.56	59.717	1.9351e-06	1.9864e-06	57.308	16.138	15.76	4.2927	1.908e-06	4.9258	-63.786	-84.110	-133.042	-130.284	69.821	142.153	-131.893	-125.916	48.010	39.242	-128.428	-124.321	-122.292	-117.938	-42.607	-120.754	-8191	255	
22224.574	1	1	0	0	0.11188	0.14972	0.10391	0.27639	0.27605	0.30937	0.09903	0.24284	0.093717	0.18764	0.075133	0.038334	0.16142	0.13793	0.2149	0.14716	-1.7437	-2.3875	-1.7146	-2.2687	-2.1417	-2.0646	-2.5187	-2.1896	-2.2687	-2.3167	-1.9854	-2.1833	-2.2542	-2.0104	-2.5167	-2.0187	100.866	-8.298	59.542	-124.670	46.875	-114.747	205.723	112.089	12.208	143.062	-19.252	86.478	-41.627	-13.088	83.265	201.064	3.3314e-05	0.00020687	4.7733e-05	235.45	2.4145e-06	1.5839e-07	200.54	59.68	5.1762e-07	3.0592e-06	58.049	16.198	15.78	4.2409	1.1401e-06	4.973	0.00014843	0.00017453	4.972e-05	231.29	1.8833e-06	1.8794e-06	196.99	59.268	1.8363e-06	1.9406e-06	57.068	15.97	15.666	4.2511	1.9185e-06	4.9413	-74.996	-0.036	-30.147	-130.090	-0.995	147.271	-131.549	-125.418	12.606	70.665	-128.376	-123.958	-121.913	-117.826	-18.990	-121.349	-8191	255	
22224.670	1	1	0	0	0.20608	0.11381	0.09693	0.18038	0.16585	0.16538	0.1585	0.25246	0.14977	0.14462	0.20631	0.16133	0.15008	0.079707	0.27004	0.14182	-1.6521	-2.3312	-2.0062	-2.0854	-2.1208	-2.0083	-2.2792	-2.0854	-2.0542	-2.3792	-2.0312	-2.2521	-2.25	-2.0125	-2.3896	-2.2375	193.629	-33.902	177.794	-141.165	145.030	-109.876	118.331	-11.709	-10.392	-51.401	-106.250	-137.075	-133.154	214.604	85.691	52.028	4.6906e-05	0.00011284	1.2118e-05	238.9	4.8516e-07	1.6554e-06	201.78	60.999	6.8735e-07	1.8908e-06	58.442	16.329	15.85	4.267	1.1816e-06	5.0222	0.0001477	0.00017676	5.0417e-05	232.38	1.9312e-06	2.0048e-06	198.53	59.804	1.9579e-06	1.9399e-06	57.683	16.138	15.796	4.2883	1.9736e-06	4.9832	-76.427	-17.266	82.718	-130.469	40.742	-109.125	-131.867	-125.615	-68.729	-11.802	-128.866	-124.293	-121.568	-118.271	87.220	-121.211	-8191	255	
22224.768	1	1	0	0	0.073688	0.32457	0.154	0.23889	0.11154	0.24125	0.26291	0.26314	0.35658	0.14401	0.16909	0.2078	0.24511	0.17282	0.17277	0.090505	-1.5125	-2.5812	-1.8917	-2.3208	-2.3771	-1.8146	-2.4375	-2.1229	-2.1437	-2.5021	-1.9937	-2.125	-2.2458	-2	-2.2917	-2.1229	40.486	122.540	68.122	-109.627	89.231	-64.100	-49.460	-33.956	-58.201	47.661	162.952	-42.641	-43.834	141.215	212.488	111.925	4.4468e-05	0.0001787	2.5441e-05	237.18	8.2598e-07	1.6239e-06	203.23	60.976	5.8659e-07	1.4332e-07	58.095	16.262	16.021	4.3344	7.482e-07	5.0738	0.00014579	0.00017412	5.2727e-05	232.04	1.9826e-06	1.9633e-06	198.05	60.042	2.0087e-06	1.9038e-06	57.831	16.251	15.922	4.3368	1.9798e-06	5.0149	-82.447	16.589	-138.683	-129.979	122.067	-5.967	-131.733	-125.840	-5.104	67.584	-128.506	-124.754	-121.437	-118.226	-61.134	-122.348	-8191	255	
22224.887	1	1	0	0	0.30879	0.14517	0.23452	0.12631	0.11652	0.026091	0.30691	0.29913	0.24129	0.27872	0.11641	0.36335	0.36088	0.20358	0.2354	0.21097	-1.6667	-2.2687	-2.0812	-2.2396	-2.3979	-1.9375	-2.3646	-2.2375	-1.9937	-2.2667	-2.2812	-2.0938	-2.425	-2.0521	-2.2854	-2.1854	190.132	105.897	7.213	37.647	-127.274	13.344	-100.249	93.972	-28.177	94.171	37.969	-99.032	-5.677	150.338	1.860	13.002	3.9553e-05	4.049e-05	2.0137e-05	237.68	5.0412e-07	9.9827e-07	201.39	61.418	5.0756e-07	2.0471e-06	58.851	16.154	16.018	4.3166	1.5901e-06	5.0266	0.00014934	0.00017857	4.8984e-05	233	1.7719e-06	2.014e-06	198.3	60.353	1.9416e-06	1.8957e-06	57.875	16.129	15.873	4.3211	1.8706e-06	4.9669	-75.275	35.807	-1.667	-129.846	85.284	-21.229	-131.546	-125.593	-48.995	32.827	-128.977	-124.174	-122.067	-118.194	-24.729	-121.582	-8191	255	
22224.982	1	1	0	0	0.10656	0.20705	0.057491	0.10812	0.092417	0.13919	0.10341	0.057009	0.27332	0.039237	0.28107	0.22159	0.044211	0.24506	0.30663	0.16874	-1.5625	-2.325	-2.0979	-2.0229	-2.4083	-1.8604	-2.25	-2.1229	-1.9813	-2.2188	-1.9729	-2.0125	-2.4729	-2.0833	-2.1625	-2.2625	174.913	168.609	-78.504	62.063	32.499	-34.049	160.601	40.790	205.704	110.624	-22.232	93.197	-37.546	115.045	-123.578	-85.949	2.5073e-05	0.00017948	4.7856e-05	239.48	1.202e-06	7.6363e-07	203.21	60.789	1.1598e-06	1.9004e-06	59.153	16.488	15.972	4.2995	7.9981e-07	4.947	0.00015061	0.00017157	4.9144e-05	232.75	1.8619e-06	2.0188e-06	198.66	59.9	1.9529e-06	1.9475e-06	57.731	16.143	15.834	4.3045	1.8966e-06	4.9695	-131.221	9.102	-72.281	-130.566	49.734	216.606	-131.934	-125.181	-0.398	52.665	-128.917	-124.058	-121.605	-118.264	39.829	-121.255	-8191	255	
22225.078	1	1	0	0	0.14892	0.23169	0.097507	0.1385	0.10714	0.0069764	0.1361	0.068704	0.16871	0.36454	0.25348	0.17892	0.20286	0.34843	0.086212	0.078557	-1.4917	-2.4021	-2.0479	-1.9708	-2.3833	-1.9521	-1.9229	-2.2333	-2.0146	-2.6208	-2.2542	-1.9917	-2.2958	-1.7979	-2.3542	-2.1125	187.677	-54.542	164.862	128.597	-43.890	-45.838	115.043	-62.799	173.621	198.587	127.221	50.164	158.121	140.016	202.594	56.650	4.3075e-05	0.00018844	1.2422e-05	238.88	1.4376e-06	9.4935e-07	201.91	60.636	1.1571e-06	1.7573e-06	58.487	16.285	15.788	4.3401	1.201e-06	4.977	0.00014662	0.00017976	5.0519e-05	233.48	1.9378e-06	1.9916e-06	199.11	60.067	1.9122e-06	1.9409e-06	57.686	16.166	15.83	4.332	1.9525e-06	5.0022	-70.140	-130.815	75.776	-130.454	187.410	-14.332	-131.699	-125.990	-27.675	78.322	-128.648	-124.329	-122.902	-118.967	-6.389	-121.774	-8191	255	
22225.176	1	1	0	0	0.17788	0.0999	0.19955	0.089978	0.125	0.061969	0.07168	0.28105	0.36528	0.21751	0.33871	0.20171	0.14741	0.22981	0.11821	0.19186	-1.5438	-2.1479	-2.025	-1.9458	-2.25	-1.9646	-1.9167	-2.3604	-1.8479	-2.1771	-2.0917	-1.9396	-2.3354	-2.1625	-1.9104	-2.3896	198.451	88.096	58.782	143.649	-130.203	-143.060	-34.847	-76.572	-4.272	144.867	-118.029	-14.941	165.474	-44.555	-39.581	15.570	8.1541e-06	0.00014762	2.0687e-05	238.51	1.9474e-06	8.8719e-07	202.47	60.126	1.0872e-06	4.4633e-07	59.17	16.354	15.892	4.3349	1.0761e-06	4.9663	0.0001495	0.0001681	4.6981e-05	233.41	1.8816e-06	1.9941e-06	199.1	59.851	1.9743e-06	1.964e-06	57.991	16.265	15.856	4.3473	2.0058e-06	4.9759	-69.602	-122.557	-134.146	-130.294	-114.265	-4.118	-131.639	-125.729	-12.853	117.449	-129.010	-124.329	-121.359	-118.260	70.831	-121.410	-8191	255	
22225.270	1	1	0	0	0.084818	0.21628	0.1142	0.15714	0.078959	0.18087	0.20977	0.15044	0.10486	0.22302	0.11859	0.29551	0.21434	0.22963	0.069674	0.18736	-1.5521	-2.05	-2.2729	-1.875	-2.3729	-2.2229	-2.0458	-2.2125	-1.9354	-2.2604	-2.3438	-1.6833	-2.4333	-2.0312	-1.8375	-2.3688	53.072	-137.325	-17.644	86.755	-69.806	133.924	-140.087	132.152	73.313	-133.886	58.328	140.539	-96.651	6.780	73.513	164.749	1.6138e-05	0.00014581	2.1142e-05	240.95	1.051e-06	4.8778e-07	204.21	61.807	1.1554e-06	1.1103e-06	59.329	16.042	15.978	4.2789	1.1051e-06	5.0044	0.00015822	0.00018187	4.6591e-05	234.56	1.8507e-06	2.0537e-06	199.62	60.352	1.9437e-06	1.9872e-06	58.075	16.11	15.849	4.3027	1.9682e-06	5.0032	-82.078	-112.320	-79.716	-130.195	-9.039	42.324	-131.268	-124.976	-28.964	-9.547	-128.795	-123.846	-121.343	-118.533	-19.791	-121.321	-8191	255	
22225.365	1	1	0	0	0.089402	0.24	0.073381	0.34823	0.27063	0.44106	0.21088	0.36971	0.099674	0.096169	0.089357	0.32525	0.12762	0.13162	0.11911	0.1713	-1.7146	-2.2792	-2.3521	-1.7188	-2.2854	-2.3312	-1.9708	-2.4042	-2.0771	-2.1542	-2.4104	-1.8062	-2.1667	-2.1521	-2.1021	-2.4333	26.678	-30.369	61.288	-140.506	79.230	-142.622	52.649	108.281	-120.713	104.346	211.514	-103.580	-110.620	-85.413	32.488	-3.794	3.0551e-05	7.942e-05	1.5115e-05	239.92	1.5841e-06	1.2201e-06	204.96	60.52	1.7218e-06	1.1805e-06	58.006	16.188	15.701	4.2522	2.5131e-06	4.9315	0.00014125	0.00018743	4.9355e-05	234.29	1.7581e-06	1.9521e-06	199.3	59.955	1.9148e-06	1.8537e-06	57.572	16.129	15.718	4.2845	1.9411e-06	4.9322	-63.944	-48.724	197.426	-129.748	-28.156	95.190	-131.577	-125.239	23.131	29.628	-128.233	-124.051	-121.438	-118.329	9.206	-121.680	-8191	255	
22225.486	1	1	0	0	0.29753	0.15215	0.051893	0.039361	0.07618	0.11703	0.17721	0.065028	0.056067	0.16412	0.1565	0.051347	0.061533	0.082325	0.10804	0.098511	-1.6063	-2.1604	-2.3688	-1.9896	-2.2625	-2.2521	-2.0021	-2.3229	-2.0604	-2.1229	-2.4625	-1.9979	-2.1688	-2.2729	-1.9417	-2.4271	158.980	-13.761	179.259	200.832	149.741	88.755	-104.512	-83.381	-59.057	-66.084	-112.644	-87.501	-2.537	-124.116	204.219	161.513	4.0389e-05	0.00014417	7.8546e-05	238.56	1.379e-06	5.1904e-07	205.92	61.433	6.8474e-07	2.7758e-06	58.807	16.288	15.913	4.3733	8.0291e-07	5.0243	0.00014435	0.0001847	4.7896e-05	233.68	1.8419e-06	1.9583e-06	199.65	60.202	2.0306e-06	1.9366e-06	57.938	16.26	15.792	4.3365	2.0174e-06	5.0195	-71.056	-45.908	-28.460	-130.173	-29.221	126.424	-131.827	-125.639	-63.673	44.839	-128.667	-123.195	-121.700	-119.181	-1.389	-121.270	-8191	255	
22225.582	1	1	0	0	0.12236	0.074453	0.11708	0.20229	0.13173	0.26768	0.29226	0.19546	0.19757	0.043458	0.22133	0.35327	0.1814	0.28743	0.26818	0.027739	-1.5875	-1.9417	-2.2667	-1.9146	-2.2375	-2.1833	-1.8937	-2.3625	-2.0687	-2.0208	-2.4583	-1.9937	-2.0896	-2.3125	-1.9354	-2.2875	-41.445	126.225	-38.334	105.114	-11.581	207.951	-137.504	-70.390	128.472	-43.296	147.647	116.022	-55.446	20.799	46.088	25.094	2.1204e-05	0.00017571	5.7924e-05	240.15	1.4319e-06	5.367e-07	205.2	61.88	2.2484e-06	3.0683e-07	58.868	16.504	16.122	4.4361	1.5696e-06	5.1389	0.00014646	0.00018422	5.1332e-05	235.34	1.9069e-06	1.8407e-06	201.1	60.906	1.9257e-06	1.9841e-06	58.336	16.398	16.077	4.4104	1.9544e-06	5.0906	-56.652	-55.529	12.189	-130.366	176.660	36.630	-131.585	-125.418	-8.242	-7.095	-129.333	-123.548	-122.393	-118.091	30.113	-121.036	-8191	255	
22225.680	1	1	0	0	0.1088	0.36172	0.048842	0.20959	0.16325	0.17383	0.16713	0.23965	0.23453	0.10893	0.10762	0.05448	0.13452	0.1932	0.12806	0.061543	-1.6458	-2.1688	-2.4771	-2.2104	-2.0771	-2.4313	-2.0042	-2.3563	-2.325	-2.0167	-2.4542	-2.1542	-2.0938	-2.3187	-2.1292	-2.4333	134.483	-27.122	61.713	147.725	37.551	89.587	-82.347	-131.107	94.680	170.088	129.019	-52.312	13.507	168.696	84.793	114.630	3.7627e-05	0.00015166	3.3716e-05	242.21	1.3287e-06	8.6942e-07	205.63	61.701	2.4519e-06	9.0312e-07	59.168	16.418	16.125	4.3371	1.1648e-06	4.9306	0.0001485	0.00017308	4.7608e-05	235.51	1.9764e-06	1.8984e-06	200.38	60.652	1.9057e-06	2.0022e-06	58.359	16.282	16.016	4.3458	1.9751e-06	5.0239	-64.621	-127.006	-51.747	-130.698	188.141	-130.595	-131.445	-125.293	3.132	11.521	-128.054	-124.836	-121.150	-117.962	30.859	-120.434	-8191	255	
22225.752	1	1	0	0	0.17394	0.24798	0.28839	0.17679	0.16889	0.20278	0.19899	0.21546	0.097987	0.015351	0.28994	0.19043	0.25433	0.12648	0.049341	0.37795	-1.7271	-1.9312	-2.325	-1.9354	-2.0229	-2.325	-2.1354	-2.2812	-2.2854	-1.9479	-2.2583	-2.0333	-1.9917	-2.5479	-2.1063	-2.1562	-56.743	151.782	113.413	-106.047	-92.797	-34.564	204.704	134.893	-39.475	84.952	-6.688	213.171	-116.720	88.562	-54.859	113.734	2.7699e-05	0.00022825	4.9924e-05	242.18	1.1343e-06	8.4131e-07	203.14	61.018	1.2557e-06	1.2818e-06	59.326	16.253	15.945	4.3426	8.8995e-07	4.957	0.00014331	0.00019133	4.9988e-05	235.37	1.9114e-06	1.8417e-06	198.51	60.293	1.9707e-06	1.9953e-06	58.226	16.283	15.97	4.3372	1.9114e-06	4.9959	-31.987	-11.748	-69.584	-130.673	46.165	-19.032	-131.645	-125.795	-68.551	18.243	-129.128	-123.195	-121.888	-118.390	102.520	-120.583	-8191	255	
22225.848	1	1	0	0	0.22727	0.1031	0.22999	0.028146	0.34319	0.11074	0.043213	0.20626	0.10456	0.14081	0.09929	0.24613	0.2183	0.27078	0.08782	0.16573	-1.7771	-1.7417	-2.3542	-2.5	-1.9667	-2.3521	-2.0271	-2.0687	-2.1958	-1.9229	-2.2396	-2.0875	-2.1104	-2.2833	-2.0833	-2.2021	207.279	-4.536	101.733	4.492	-113.865	37.989	-133.712	151.750	54.386	187.912	-56.161	24.977	175.780	201.876	92.974	-33.946	5.5292e-05	3.3661e-05	3.5571e-05	237.4	1.1282e-06	1.2229e-06	201.23	60.842	1.3817e-06	1.3922e-06	58.953	16.282	16.069	4.2878	1.5797e-06	5.0086	0.00014311	0.00018102	4.9169e-05	234.42	1.8288e-06	1.8926e-06	199.15	60.108	1.8091e-06	2.0253e-06	58.053	16.264	15.879	4.3217	1.9657e-06	4.9901	-76.584	-73.126	0.140	-130.419	55.432	-113.953	-131.652	-125.271	-5.278	-49.827	-128.493	-124.112	-121.505	-118.379	-7.863	-121.350	-8191	255	
22225.969	1	1	0	0	0.28872	0.11128	0.1895	0.11357	0.045074	0.18543	0.19758	0.17114	0.11366	0.2609	0.18496	0.16084	0.24631	0.13604	0.08825	0.083254	-1.8375	-1.8708	-2.0521	-2.3042	-1.9542	-2.2479	-2.0521	-2.0375	-2.1562	-1.8521	-2.0896	-1.9479	-1.8729	-2.3375	-2.1625	-2.0938	190.726	194.574	11.118	-101.031	172.626	-83.831	109.726	106.192	-40.340	58.846	-24.117	205.019	-26.521	-83.331	171.645	158.526	1.5736e-05	7.5783e-05	3.2165e-05	239.12	5.1826e-07	2.6671e-06	204.59	61.539	7.1947e-07	1.0961e-06	59.876	16.575	16.213	4.3812	1.0731e-06	5.0183	0.00015053	0.00019053	5.0001e-05	234.8	1.9743e-06	1.9514e-06	201.03	60.632	1.9548e-06	2.04e-06	58.551	16.48	16.09	4.3744	1.9048e-06	5.0548	-100.621	58.288	-45.374	-130.059	8.456	62.320	-131.945	-125.708	68.333	-73.975	-128.756	-123.948	-121.192	-118.173	-0.047	-121.063	-8191	255	
22226.064	1	1	0	0	0.30399	0.033302	0.23488	0.023929	0.089034	0.068316	0.29175	0.056162	0.21918	0.2403	0.066959	0.28354	0.33127	0.19761	0.077284	0.29232	-1.9375	-1.7896	-2.2208	-2.2396	-1.9354	-2.4521	-2.1792	-2.2354	-2.4833	-2.0125	-2.2292	-2.2667	-1.8854	-2.3042	-2.1854	-2.0938	-20.990	-113.910	-53.401	-62.117	69.180	-133.156	52.971	-17.570	98.458	81.856	162.074	-141.044	-40.122	-53.897	-86.543	183.237	3.3809e-05	3.9711e-05	2.1782e-05	241.14	1.2834e-06	2.6438e-06	204.03	61.167	1.4066e-06	4.5463e-07	58.381	16.214	15.896	4.3103	6.0916e-07	5.0136	0.00014369	0.00018511	4.8696e-05	234.62	1.8964e-06	1.9817e-06	199.95	60.504	1.9131e-06	1.9544e-06	57.789	16.12	15.916	4.2973	1.9163e-06	4.9834	-76.225	-141.762	-78.089	-130.242	-60.036	29.535	-131.930	-126.011	7.647	13.202	-128.370	-123.862	-122.666	-117.887	-110.517	-121.392	-8191	255	
22226.160	1	1	0	0	0.1694	0.23959	0.057649	0.19617	0.31266	0.22968	0.18598	0.10599	0.17822	0.17389	0.13626	0.059663	0.40185	0.123	0.018982	0.1518	-1.9792	-1.8042	-2.1063	-2.3333	-1.9146	-2.275	-2.0812	-2.0229	-2.4083	-1.9771	-2.0833	-2.3667	-2.1042	-2.325	-2.3021	-1.775	-142.699	92.670	157.857	129.528	56.820	129.038	72.116	102.634	130.071	-134.297	209.380	68.653	-135.357	150.700	-123.733	94.858	4.5772e-05	0.00010627	7.1854e-06	241.18	5.1828e-07	1.9298e-06	203.12	61.334	1.4793e-06	8.2271e-07	58.683	16.341	16.122	4.2718	1.013e-06	5.0407	0.00014758	0.00018236	4.8984e-05	234.66	1.9788e-06	1.9987e-06	199.03	60.307	1.9196e-06	1.9925e-06	57.883	16.214	15.884	4.3112	2.0063e-06	4.9965	-74.435	136.184	194.813	-130.554	203.914	56.609	-131.296	-125.555	-70.877	14.133	-128.499	-124.160	-120.938	-118.215	60.728	-120.545	-8191	255	
22226.256	1	1	0	0	0.24878	0.2374	0.12848	0.083423	0.17769	0.28753	0.20447	0.01227	0.064854	0.1063	0.2769	0.23214	0.2186	0.10868	0.11777	0.15815	-1.9125	-1.8771	-2.2146	-2.2333	-2.0708	-2.2979	-2.2646	-1.9354	-2.2271	-2.175	-1.9438	-2.2042	-1.9583	-2.2938	-2.275	-1.8979	160.387	-131.802	170.074	-48.050	0.979	100.419	203.497	211.238	-89.696	-55.545	-83.772	-50.858	-7.305	31.577	127.328	69.479	3.3232e-05	0.00012401	4.7844e-05	238.79	1.2341e-06	1.1516e-06	203.85	61.036	1.3804e-06	9.4477e-07	57.776	16.159	15.863	4.1977	1.083e-06	4.9572	0.00014782	0.00018063	5.0353e-05	234.5	1.9547e-06	1.984e-06	199.27	59.979	1.9163e-06	1.8979e-06	57.729	16.07	15.759	4.2593	1.8824e-06	4.9696	-62.405	120.585	-67.081	-130.313	-140.376	-42.494	-131.524	-125.791	49.050	70.058	-128.826	-124.293	-121.657	-118.220	115.767	-121.152	-8191	255	
22226.350	1	1	0	0	0.16973	0.16944	0.1976	0.12914	0.16985	0.076201	0.092238	0.36401	0.25664	0.30129	0.071027	0.42109	0.21532	0.098282	0.21267	0.18567	-1.8	-2.1875	-2.05	-2.3042	-2.0917	-2.2375	-2.2875	-1.9521	-2.3896	-2.2833	-2.0125	-2.5604	-2.0187	-2.3417	-2.3708	-1.9771	72.613	186.053	164.732	85.896	198.616	31.523	55.097	188.663	-29.436	-73.720	-17.924	-29.528	-73.351	-84.275	180.700	-102.738	3.8421e-05	0.00021329	2.4795e-05	237.88	1.3747e-06	6.3362e-07	203.31	61.019	9.7945e-07	1.2464e-06	58.428	16.129	15.952	4.2946	4.5421e-07	4.8802	0.00014406	0.00017671	5.2887e-05	233.66	1.9628e-06	1.9387e-06	199.16	60.064	1.937e-06	2.0497e-06	57.892	16.105	15.782	4.2925	1.8816e-06	4.929	-74.782	100.514	215.689	-129.895	0.284	-69.671	-131.831	-125.228	-134.949	70.345	-128.773	-123.972	-121.506	-117.995	-138.244	-120.734	-8191	255	
22226.447	1	1	0	0	0.062834	0.224	0.077834	0.13579	0.11898	0.11605	0.13878	0.12716	0.13429	0.4606	0.18234	0.23292	0.2134	0.17757	0.092861	0.050162	-2.1083	-2.2292	-2.0062	-2.3417	-2.1083	-2.1729	-2.4729	-2.0417	-2.1937	-2.2875	-1.9771	-2.3792	-2.0687	-1.9417	-2.375	-1.8875	-143.299	93.337	64.954	-129.123	3.716	11.524	82.508	107.261	204.860	92.736	165.712	83.682	108.574	-143.600	45.490	80.782	7.8258e-06	8.9102e-05	3.7179e-05	237.33	1.3053e-06	1.6015e-06	205.04	61.122	1.0381e-06	1.4956e-06	58.7	16.677	15.969	4.292	1.0254e-06	4.9801	0.0001477	0.00017623	4.8971e-05	233.84	1.915e-06	2.0051e-06	200.56	60.053	1.9177e-06	1.8972e-06	58.266	16.314	15.879	4.3271	1.9984e-06	4.994	-70.553	174.012	-28.837	-130.408	-105.967	-129.664	-131.608	-125.650	148.166	-19.328	-127.842	-123.727	-121.945	-118.054	-56.904	-121.429	-8191	255	
22226.566	1	1	0	0	0.17439	0.20495	0.15059	0.11693	0.19738	0.30359	0.2114	0.14752	0.17999	0.34852	0.16317	0.27148	0.12381	0.19897	0.062559	0.26591	-1.9417	-2.4917	-1.8208	-2.325	-2.2333	-2.1604	-2.2854	-1.85	-2.1562	-2.4062	-2.1063	-2.2396	-2.0938	-2.0104	-2.6646	-2.0187	-136.430	26.138	122.094	65.226	-121.828	124.352	119.200	-65.816	168.917	125.973	178.096	144.584	119.090	53.097	134.478	125.519	4.7857e-05	8.1353e-05	2.4328e-05	239.7	2.5286e-07	2.0486e-06	203.6	61.167	1.6835e-06	1.4772e-06	58.401	16.356	15.756	4.3147	2.594e-06	5.006	0.00014872	0.00017735	4.8945e-05	235.19	1.8216e-06	1.9608e-06	200.33	60.441	1.8973e-06	1.9592e-06	58.013	16.25	15.91	4.3352	1.8848e-06	4.9741	-91.114	-102.948	-21.033	-130.999	-33.564	-61.899	-131.698	-125.459	151.755	43.723	-128.362	-124.690	-121.420	-118.305	-0.059	-121.326	-8191	255	
22226.662	1	1	0	0	0.30811	0.15652	0.062788	0.24866	0.086991	0.13404	0.14323	0.1212	0.12608	0.10192	0.041004	0.20606	0.16271	0.15744	0.22053	0.25539	-1.8062	-2.2271	-1.9083	-2.4125	-2.2396	-2.1479	-2.5896	-2.1896	-2.1146	-2.3146	-1.9396	-2.2062	-2.1396	-1.8792	-2.2708	-2.1333	-99.830	-70.474	-142.165	-79.835	207.774	-8.799	216.257	192.205	118.591	-42.733	96.184	-4.457	106.529	170.908	40.252	129.908	3.1637e-05	0.00014292	4.6285e-05	241.6	1.0122e-07	1.1122e-06	203.72	61.101	3.4387e-07	1.6267e-06	59.136	16.278	16.045	4.3523	8.3189e-07	4.9694	0.00014828	0.00017985	4.9515e-05	235.79	1.9224e-06	1.9524e-06	201.05	60.393	1.8453e-06	1.9917e-06	58.007	16.241	15.914	4.3249	1.8807e-06	4.9724	-63.677	-77.368	-17.697	-130.597	-115.575	141.303	-131.723	-125.414	29.027	150.009	-128.065	-124.818	-122.139	-118.564	5.827	-121.487	-8191	255	
22226.760	1	1	0	0	0.34417	0.30124	0.080331	0.13695	0.23357	0.11041	0.16926	0.25704	0.21363	0.076318	0.053778	0.30633	0.071498	0.1199	0.18834	0.30009	-1.6104	-2.1292	-1.9583	-2.1979	-2.3271	-2.0292	-2.3187	-2.1521	-2.1292	-2.475	-2.1375	-2.175	-2.1813	-1.9625	-2.3229	-2.0896	123.506	-42.959	-6.086	125.588	-74.274	-72.360	26.746	-132.207	-108.167	-89.523	-30.218	37.293	-78.862	144.117	118.378	119.450	3.8194e-05	6.1043e-05	3.1962e-05	240.65	9.3841e-07	2.2383e-06	204.99	61.296	1.3707e-06	5.5891e-07	58.763	16.226	16.261	4.3594	3.5484e-07	4.9843	0.00014369	0.00018217	5.0673e-05	235.57	1.9407e-06	1.9855e-06	200.52	60.38	1.911e-06	1.9564e-06	58.567	16.293	16.015	4.36	1.8804e-06	5.0154	-67.178	73.620	-33.152	-130.456	26.050	-7.983	-131.686	-125.595	-17.704	114.926	-128.211	-124.495	-121.713	-118.569	150.702	-121.742	-8191	255	
22226.855	1	1	0	0	0.07209	0.059802	0.18118	0.12176	0.18213	0.1139	0.10272	0.073478	0.22135	0.28255	0.075773	0.11095	0.12782	0.13879	0.29352	0.11908	-1.6458	-2.3187	-1.9708	-2.1792	-2.2375	-1.9458	-2.3854	-2.1271	-2.05	-2.5771	-2.0333	-2.3833	-2.1354	-1.8354	-2.2313	-2.1188	-5.778	-78.360	135.862	180.851	83.228	71.094	-140.156	-127.934	-105.566	207.684	211.865	107.334	49.079	63.545	-70.373	-122.798	4.8348e-05	0.00016851	2.1178e-05	242.65	1.2847e-06	1.0781e-06	203.51	61.312	2.4636e-06	2.7976e-06	58.876	16.572	16.018	4.2832	2.0632e-06	5.0646	0.00014508	0.00017331	5.2861e-05	236.79	1.8755e-06	2.0349e-06	200.53	60.634	1.9702e-06	1.9073e-06	58.374	16.357	15.978	4.3304	1.9512e-06	5.0243	-68.620	73.738	-43.519	-130.766	30.126	0.177	-131.441	-125.769	14.672	22.364	-128.298	-124.413	-122.101	-117.486	51.259	-121.569	-8191	255	
22226.977	1	1	0	0	0.16759	0.14815	0.10318	0.12979	0.32344	0.35854	0.022186	0.086823	0.097858	0.25739	0.27146	0.042806	0.01192	0.30016	0.35796	0.10531	-1.525	-2.2729	-2.025	-2.15	-2.2271	-2.0333	-2.3479	-2.125	-2.0042	-2.5083	-2.0354	-2.0521	-2.4375	-1.9833	-2.2646	-2.3187	-40.618	-44.467	-38.292	-119.587	16.799	87.864	-21.296	-80.004	-64.336	108.145	-11.370	214.786	-137.668	4.053	138.387	-23.743	3.2775e-05	0.00014509	3.2887e-05	239.5	1.9551e-06	9.5541e-07	203.93	61.434	1.0898e-06	4.9413e-07	58.38	16.473	16.036	4.3484	9.9425e-07	5.0354	0.00014458	0.00017315	5.1153e-05	235.68	1.9509e-06	2.0158e-06	200.29	60.496	1.9914e-06	1.9379e-06	57.805	16.256	15.868	4.3222	2.0211e-06	4.9938	-69.909	-22.109	-82.166	-130.591	50.114	4.749	-131.541	-125.331	6.769	-142.621	-128.548	-123.662	-121.565	-118.985	35.777	-121.172	-8191	255	
22227.049	1	1	0	0	0.20581	0.18122	0.23973	0.24531	0.13063	0.12723	0.2218	0.19912	0.14799	0.12086	0.28119	0.42297	0.063598	0.09775	0.19642	0.18115	-1.5292	-2.3125	-1.9875	-2.1896	-2.4333	-1.8542	-2.1021	-2.3063	-1.9167	-2.4417	-1.9604	-1.95	-2.5083	-1.8188	-2.175	-2.2458	8.544	86.508	6.557	100.735	-53.609	-130.398	139.882	51.130	19.034	111.909	40.302	-98.526	-36.087	-9.701	51.362	-135.301	3.2113e-05	9.7954e-05	8.5795e-05	239.6	8.8653e-07	1.8699e-06	205.35	62.422	6.6448e-07	1.6438e-06	59.34	16.101	16.149	4.2845	1.6089e-06	4.9972	0.00015507	0.00018396	4.8529e-05	235.28	1.9126e-06	1.9868e-06	200.06	60.728	2.04e-06	1.9582e-06	57.983	16.089	15.885	4.2907	1.9384e-06	4.9541	-104.789	-97.780	-45.751	-129.825	-40.553	-49.648	-131.676	-125.238	10.723	-13.463	-129.235	-124.303	-122.243	-118.748	52.684	-121.978	-8191	255	
22227.170	1	1	0	0	0.17562	0.12265	0.051585	0.13928	0.15018	0.45499	0.16713	0.13226	0.13843	0.157	0.18542	0.19752	0.32887	0.022873	0.27986	0.15377	-1.5417	-2.3396	-2.0771	-2.0333	-2.5896	-2.1167	-2.1625	-2.2687	-1.9167	-2.2271	-2.1604	-2.0417	-2.4083	-1.9312	-2.075	-2.3917	138.465	41.718	-62.900	-62.699	-1.692	-138.052	-49.980	79.970	-8.167	39.895	143.125	-14.106	7.523	2.978	110.269	14.291	4.3613e-05	5.4623e-05	2.2312e-05	238.92	7.0975e-07	6.1007e-07	203.68	60.988	4.8275e-07	2.9789e-06	58.351	16.302	16.232	4.3352	1.5512e-06	4.9744	0.00014243	0.00017772	4.9668e-05	234.21	1.8969e-06	2.0417e-06	198.84	59.903	1.8431e-06	1.9584e-06	57.714	16.118	15.854	4.3131	1.8841e-06	4.9577	-74.489	0.969	19.614	-130.235	38.454	17.449	-131.674	-125.080	-17.346	29.027	-128.275	-124.048	-121.595	-117.823	-59.620	-121.794	-8191	255	
22227.264	1	1	0	0	0.084176	0.12974	0.056367	0.067079	0.035648	0.30082	0.075463	0.18017	0.12228	0.080878	0.32366	0.10391	0.20743	0.26264	0.033992	0.21395	-1.5104	-2.1562	-2.0563	-2.0208	-2.2604	-1.9729	-1.9958	-2.2375	-1.9688	-2.2271	-2.1479	-1.9771	-2.4583	-1.9917	-1.9104	-2.5563	112.096	31.271	60.932	180.124	184.863	160.867	55.034	-121.297	85.405	-5.864	-79.164	-25.861	33.898	95.385	156.307	52.962	3.3448e-05	6.2892e-05	6.548e-06	240.52	4.7164e-07	3.2084e-06	202.72	60.488	1.0061e-06	6.6564e-07	58.618	16.077	15.9	4.2795	2.7248e-07	5.0114	0.00015024	0.00017728	4.7371e-05	233.46	1.9509e-06	1.8788e-06	198.9	59.859	1.8898e-06	1.9976e-06	57.832	16.084	15.767	4.2763	1.893e-06	4.9878	-48.099	-117.356	-99.371	-130.144	-29.140	-27.240	-131.047	-125.181	4.865	-55.064	-127.876	-123.714	-122.149	-118.267	14.360	-120.435	-8191	255	
22227.359	1	1	0	0	0.43822	0.15867	0.14046	0.11916	0.2403	0.20542	0.17761	0.12084	0.19204	0.07777	0.15903	0.23817	0.27679	0.20166	0.19002	0.019045	-1.3729	-2.3458	-2.3042	-2.0271	-2.3812	-2.2521	-2.0625	-2.2708	-2.0542	-2.3	-2.2938	-2.0083	-2.3479	-1.9771	-1.8708	-2.2188	75.651	205.238	157.403	175.329	139.019	39.178	100.585	121.200	124.005	178.427	31.711	91.383	80.653	124.782	16.857	27.778	2.7191e-05	0.00012855	3.9706e-05	240.51	8.1161e-07	6.0957e-07	204.61	60.538	5.8299e-07	1.9516e-06	58.471	16.212	15.767	4.2464	1.0462e-06	4.9111	0.00014523	0.00017217	4.9451e-05	233.8	1.7881e-06	1.9043e-06	200.05	59.944	1.9163e-06	1.9401e-06	57.636	16.094	15.758	4.2548	1.9724e-06	4.9223	-91.081	-36.377	-19.371	-130.347	-70.720	-31.204	-131.685	-125.819	203.508	-48.292	-128.394	-124.411	-122.522	-118.108	86.611	-120.930	-8191	255	
22227.455	1	1	0	0	0.15865	0.38038	0.031643	0.089997	0.2606	0.24078	0.098652	0.10008	0.1242	0.15046	0.23368	0.17709	0.36714	0.03556	0.21808	0.25501	-1.7646	-2.0854	-2.2521	-1.8208	-2.2521	-2.1375	-1.9625	-2.3417	-1.9	-2.0229	-2.4083	-1.9792	-2.1437	-2.3542	-2.0292	-2.4958	-104.542	204.466	26.942	120.599	109.699	139.448	-95.533	28.504	-0.081	188.265	93.941	172.255	147.363	152.312	190.608	213.916	3.4031e-05	0.00013298	4.3827e-05	236	1.2581e-07	1.1858e-06	203.71	60.196	3.7861e-07	9.8511e-07	58.345	16.188	15.638	4.2042	1.1286e-06	4.9664	0.00014528	0.00016936	4.5721e-05	233.08	1.9024e-06	1.9201e-06	198.64	59.668	1.918e-06	1.8563e-06	57.403	16.074	15.705	4.2522	1.9195e-06	4.931	-93.028	60.997	-97.689	-129.943	-25.544	78.054	-131.540	-125.117	194.456	-15.688	-128.251	-124.538	-121.912	-117.615	16.297	-121.018	-8191	255	
22227.551	1	1	0	0	0.10273	0.16022	0.25193	0.11449	0.10654	0.14685	0.16171	0.1068	0.14016	0.2865	0.4336	0.12216	0.11697	0.036129	0.10439	0.11838	-1.5458	-2.0292	-2.3083	-2.0812	-2.3187	-2.2292	-1.8875	-2.3896	-2	-2.0479	-2.3646	-1.9	-1.8979	-2.3417	-1.9562	-2.3333	62.994	206.391	119.526	-19.000	-65.137	102.533	46.905	173.078	-16.628	122.329	-103.556	88.498	115.416	-116.891	88.799	213.989	3.8638e-05	9.6984e-05	4.0069e-05	239.84	9.5587e-07	2.8581e-07	204.52	60.408	1.1318e-06	2.5717e-07	58.665	16.343	15.978	4.2872	1.0005e-06	5.1004	0.00013947	0.00017974	4.59e-05	233.72	1.8462e-06	1.8984e-06	199.74	59.749	1.8195e-06	1.857e-06	57.594	16.196	15.752	4.2789	1.9264e-06	4.9605	-90.515	-7.280	-4.828	-130.551	131.396	-137.921	-131.513	-125.575	-61.033	179.552	-128.120	-124.121	-121.051	-117.643	-95.333	-121.343	-8191	255	
22227.648	1	1	0	0	0.22839	0.096066	0.051611	0.1925	0.20004	0.023644	0.056514	0.39219	0.18838	0.23608	0.096777	0.17739	0.15792	0.02334	0.17562	0.060769	-1.6917	-2.0375	-2.4167	-1.8813	-2.0854	-2.3729	-1.9146	-2.2583	-2.0333	-2.0042	-2.3729	-2.0229	-2.1354	-2.4021	-1.8292	-2.2083	55.079	138.521	-41.383	-26.752	-121.601	101.902	43.104	174.000	69.413	209.893	-71.180	-104.193	77.077	-59.776	194.328	31.915	3.0799e-05	6.035e-05	1.9369e-05	237.69	7.5393e-07	7.843e-07	203.5	61.201	2.1848e-06	1.353e-06	58.379	16.397	15.803	4.2397	1.0834e-06	5.0158	0.00014296	0.0001822	4.7263e-05	233.66	1.9352e-06	1.9572e-06	200.35	60.123	1.8676e-06	1.8634e-06	57.642	16.188	15.796	4.2788	1.9222e-06	4.9975	-56.883	164.535	-111.030	-130.478	94.678	-71.497	-131.670	-125.949	-0.893	-6.927	-127.824	-124.230	-121.578	-118.191	16.782	-121.016	-8191	255	
22227.744	1	1	0	0	0.39	0.11323	0.12435	0.084352	0.13222	0.070004	0.12099	0.1712	0.20711	0.26249	0.13382	0.24395	0.18046	0.097046	0.18936	0.38809	-1.7208	-1.9479	-2.4021	-1.9354	-2.0667	-2.3979	-2.1312	-2.2625	-2.1104	-2.0292	-2.3458	-1.8687	-2.0042	-2.2667	-1.9312	-2.4083	-111.727	-43.277	99.764	21.053	142.555	-105.707	64.574	89.180	-67.364	74.780	39.059	133.915	188.489	-12.329	146.834	-97.335	3.5251e-05	9.3812e-05	3.4601e-05	239.2	1.7131e-06	3.0053e-06	205.73	61.76	1.3167e-06	1.5472e-06	58.941	16.078	15.979	4.3564	1.2864e-06	4.9686	0.00014904	0.00017985	4.6252e-05	235.01	1.8224e-06	1.931e-06	200.75	60.59	1.8775e-06	2.036e-06	58.126	16.175	15.949	4.3221	2.041e-06	4.9871	-64.374	-138.051	-25.127	-130.502	118.525	-0.548	-131.621	-125.676	-28.390	-88.568	-128.655	-123.714	-121.969	-118.159	1.272	-121.035	-8191	255	
22227.840	1	1	0	0	0.14096	0.24249	0.17341	0.19049	0.064004	0.11186	0.20929	0.22736	0.41767	0.21407	0.12709	0.060216	0.11374	0.12098	0.34933	0.19591	-1.7917	-2.0187	-2.1875	-2.0167	-2.175	-2.4958	-1.9562	-2.2208	-2.2792	-2.0167	-2.2125	-1.9854	-2.0042	-2.2167	-2.05	-2.2542	-39.694	5.654	42.533	91.407	157.709	185.695	45.612	-76.649	137.284	169.138	-122.164	-87.689	-99.777	183.292	3.881	-117.914	2.7549e-05	0.00013	5.3781e-05	238.83	5.7419e-07	1.1926e-06	203.41	61.492	1.2951e-06	1.6671e-06	58.957	16.389	15.919	4.3246	1.2238e-06	5.1677	0.00014751	0.00017561	5.0724e-05	234.53	1.8309e-06	1.9672e-06	199.43	60.497	1.9204e-06	1.9757e-06	58.05	16.236	15.931	4.3043	1.8701e-06	5.0643	-85.191	38.197	-82.146	-130.359	-18.203	64.955	-131.468	-126.179	-66.877	-30.214	-128.156	-124.686	-121.895	-117.886	-34.947	-121.342	-8191	255	
22227.936	1	1	0	0	0.11049	0.18573	0.053969	0.1411	0.15116	0.012675	0.22423	0.1099	0.033914	0.22363	0.19157	0.18964	0.18984	0.17287	0.14374	0.1635	-1.775	-1.8188	-2.0708	-2.125	-2.0062	-2.4083	-2.0104	-2.375	-2.1667	-1.8771	-2.0854	-2.0229	-1.9104	-2.3625	-1.9396	-1.9667	51.138	49.148	74.227	-124.373	15.347	-27.368	34.902	-119.192	167.358	-128.854	19.535	89.129	202.522	5.178	9.561	-61.437	2.661e-05	0.00012688	3.0623e-05	240.57	1.3434e-06	1.11e-06	202.52	61.316	5.4053e-07	1.8125e-06	58.771	16.514	15.879	4.3215	6.8342e-07	4.9723	0.0001446	0.00017871	4.8645e-05	235.55	1.999e-06	1.9784e-06	199.39	60.33	1.9276e-06	1.9915e-06	58.039	16.311	15.86	4.3133	1.8507e-06	5.004	-98.961	-47.138	-65.427	-129.847	1.811	95.449	-131.608	-125.677	-130.121	-57.816	-128.717	-123.160	-121.876	-118.566	-82.882	-121.022	-8191	255	
22228.057	1	1	0	0	0.10006	0.20327	0.42897	0.059099	0.077219	0.1707	0.44806	0.28548	0.19391	0.17141	0.091032	0.27282	0.16369	0.14464	0.15	0.090536	-1.8083	-1.8854	-2.1646	-2.0583	-1.8854	-2.5187	-1.8729	-2.0104	-2.2104	-1.95	-2.0771	-2.0563	-1.7938	-2.4146	-2.0312	-2.1729	26.779	20.696	167.062	-48.658	-123.236	24.849	212.873	-125.962	-140.851	109.098	93.466	142.596	-22.262	212.901	8.205	129.013	3.6502e-05	0.00013267	1.9899e-05	239.98	8.9166e-07	1.1165e-06	204.06	61.519	1.0984e-06	1.4617e-06	59.149	16.241	15.918	4.3223	2.1753e-06	5.1109	0.00014497	0.00017928	4.8165e-05	234.79	1.8831e-06	1.9099e-06	200.03	60.282	1.9755e-06	1.96e-06	58.209	16.316	15.914	4.3344	1.8819e-06	5.033	-54.449	-88.459	120.732	-130.427	-51.730	-77.873	-131.596	-125.581	-24.274	35.782	-127.569	-124.268	-122.189	-117.508	-94.543	-120.779	-8191	255	
22228.150	1	1	0	0	0.060915	0.4074	0.17129	0.17108	0.080152	0.1447	0.21085	0.095964	0.16745	0.25918	0.1157	0.23295	0.18148	0.055249	0.08076	0.25068	-1.7062	-1.8292	-2.2292	-2.2938	-1.7729	-2.2708	-2.2271	-2.0958	-2.5312	-1.8354	-2.2833	-2.2396	-1.9604	-2.2271	-2.0208	-2.0354	99.201	-15.265	171.911	143.802	-16.318	163.457	156.153	-115.118	177.801	80.538	-127.688	44.276	119.697	79.510	-126.822	190.425	2.837e-05	0.00024272	7.5745e-05	239.76	1.4963e-06	8.6223e-07	204.72	61.373	2.0125e-06	1.558e-06	59.428	16.461	16.093	4.4271	1.2948e-06	5.0808	0.00015173	0.00017754	4.9252e-05	235.28	1.9126e-06	1.9234e-06	200.68	60.55	1.9798e-06	1.9645e-06	58.408	16.349	16.033	4.3703	1.8686e-06	5.0688	-54.045	-53.450	-79.021	-130.522	20.896	7.603	-131.370	-126.000	41.670	105.481	-128.629	-123.950	-122.106	-117.973	33.507	-121.255	-8191	255	
22228.248	1	1	0	0	0.23852	0.1508	0.46493	0.252	0.18077	0.16001	0.23547	0.39913	0.35557	0.12164	0.19506	0.12868	0.047224	0.21417	0.13125	0.23956	-1.9167	-1.9083	-2.0167	-2.2917	-1.9625	-2.3063	-2.2	-1.9208	-2.4313	-1.9854	-2.2875	-2.3792	-1.8854	-2.2771	-2.3104	-2.05	4.227	184.885	-34.510	20.383	-93.623	140.845	-73.247	89.104	19.650	21.997	162.980	-48.988	138.748	-99.842	-138.768	151.003	3.7265e-05	0.00015569	3.2256e-05	239.64	1.4592e-06	1.9936e-06	206.55	61.396	1.1359e-06	2.2289e-06	59.335	16.389	15.973	4.3441	1.9408e-06	5.0132	0.00013771	0.00017687	5.0206e-05	235.32	1.904e-06	1.932e-06	201.1	60.725	2.0073e-06	2.0349e-06	58.186	16.263	15.886	4.3284	1.9097e-06	5.027	-126.399	-9.589	-92.777	-130.443	97.471	141.046	-131.216	-125.552	123.820	11.689	-128.799	-124.484	-122.043	-117.611	-131.477	-121.584	-8191	255	
22228.344	1	1	0	0	0.15425	0.22174	0.51154	0.13813	0.19754	0.12494	0.18724	0.2126	0.10651	0.39906	0.058136	0.19422	0.20185	0.2016	0.055605	0.2106	-2.0354	-2	-2.075	-2.3958	-2.2042	-2.3396	-2.1917	-1.8125	-2.3	-2.1	-1.9937	-2.3229	-1.9021	-2.1917	-2.2479	-1.9333	-41.303	-95.962	-32.338	172.775	-44.384	-10.823	96.838	-71.477	28.072	60.553	-82.841	36.498	-36.133	-119.299	-141.356	157.392	3.4586e-05	0.00014315	3.8655e-05	241.26	1.157e-06	1.8334e-06	204.87	60.935	6.1748e-07	1.929e-06	59.884	16.293	16.188	4.3269	1.5353e-06	4.9696	0.00014215	0.00017967	5.0321e-05	235.59	1.895e-06	1.9733e-06	200.68	60.291	1.8669e-06	1.9203e-06	58.392	16.264	15.91	4.3057	1.8944e-06	5.0105	-66.855	-54.994	89.330	-130.458	73.616	-1.003	-131.683	-125.882	-6.020	-63.215	-128.667	-123.368	-121.144	-118.723	161.741	-121.884	-8191	255	
22228.439	1	1	0	0	0.16438	0.19873	0.11137	0.10645	0.04131	0.14886	0.10415	0.080209	0.25906	0.16335	0.17262	0.091945	0.093406	0.11647	0.091158	0.0999	-1.8083	-2.1604	-2.0042	-2.1271	-1.8708	-2.2542	-2.1708	-1.8458	-2.3271	-2.1688	-2.0042	-2.3979	-2.0771	-2.0646	-2.0958	-1.9125	-62.378	103.045	-86.684	-12.301	-131.189	-140.908	143.971	-36.589	189.896	-2.766	-107.403	-127.260	-20.508	85.627	-9.886	172.007	2.5865e-05	0.00014469	3.3143e-05	241.41	1.8476e-07	1.1552e-06	205.55	61.624	1.478e-06	1.3798e-06	59.979	16.231	15.967	4.3071	1.0074e-06	5.1084	0.00014944	0.00017214	5.0654e-05	235.04	1.91e-06	1.9753e-06	200.64	60.541	1.84e-06	1.9544e-06	58.288	16.283	15.899	4.3304	1.8989e-06	5.0672	-111.844	-79.380	-65.335	-130.587	151.083	144.101	-131.884	-125.814	-14.785	19.066	-128.041	-124.287	-121.630	-117.227	189.729	-120.490	-8191	255	
22228.535	1	1	0	0	0.14765	0.15762	0.13876	0.18412	0.11685	0.3633	0.11028	0.20386	0.22015	0.092815	0.10393	0.16336	0.024667	0.31905	0.19913	0.17449	-1.775	-2.1521	-1.9479	-2.3854	-2.0792	-2.0396	-2.3896	-1.9688	-2.0062	-2.3625	-2.1958	-2.35	-2.1437	-1.9021	-2.3708	-1.8146	172.433	-89.366	56.365	24.144	40.480	109.308	72.299	155.713	136.113	-34.149	-135.825	3.118	-116.351	-1.192	199.704	-16.233	3.73e-05	0.0003269	1.7282e-05	239.22	8.9561e-07	2.4298e-06	204.97	61.565	1.7769e-06	1.3563e-06	59.199	16.538	16.17	4.3813	1.0707e-06	5.0865	0.0001394	0.00017703	4.8773e-05	235.22	1.8624e-06	1.9598e-06	200.74	60.555	1.8643e-06	1.9851e-06	58.6	16.408	16.053	4.3698	1.8334e-06	5.1107	-90.195	-53.961	-4.718	-130.175	-1.574	5.977	-131.100	-125.404	-29.500	-47.380	-129.190	-123.881	-121.258	-118.040	37.319	-121.393	-8191	255	
22228.656	1	1	0	0	0.19445	0.12271	0.28882	0.20313	0.19438	0.11638	0.26902	0.22977	0.18709	0.10868	0.086237	0.13562	0.065857	0.37277	0.32254	0.46314	-1.7396	-2.3063	-1.7958	-2.3479	-2.1479	-2.1833	-2.3292	-1.9604	-2.2604	-2.2583	-2.025	-2.4958	-2.225	-1.9937	-2.2979	-1.7521	-61.323	43.022	-67.606	80.315	80.482	-16.287	-138.344	59.108	111.711	-52.046	33.512	-44.295	-80.515	203.094	-13.431	177.042	4.3049e-05	5.0754e-05	2.912e-05	241.26	1.7052e-06	1.3627e-06	206.96	61.072	1.6437e-06	9.3013e-07	59.861	16.428	15.832	4.408	2.428e-06	5.0694	0.00014497	0.00017935	4.9304e-05	235.79	1.9285e-06	2.0842e-06	201.16	60.383	1.9199e-06	1.9567e-06	58.713	16.313	15.961	4.3834	1.9581e-06	5.1019	-79.287	28.658	-37.399	-130.297	11.988	-63.991	-131.848	-125.661	-5.184	155.264	-129.087	-124.128	-122.530	-118.443	-37.296	-121.801	-8191	255	
22228.752	1	1	0	0	0.30198	0.14332	0.13481	0.12042	0.15132	0.20079	0.18852	0.16958	0.26039	0.28773	0.012372	0.13417	0.021865	0.098452	0.043225	0.26392	-1.8417	-2.2333	-2.0708	-2.3333	-1.9	-1.8417	-2.3333	-1.8833	-2.2083	-2.1542	-1.9021	-2.3125	-2.1792	-2.0542	-2.4521	-2.1021	190.264	49.912	48.335	-81.308	187.846	-39.499	148.438	-118.728	71.243	-75.663	207.105	-116.182	151.850	184.451	160.297	-17.953	5.6738e-05	0.00012323	2.6842e-05	241.39	2.0305e-06	1.5608e-06	204.7	62.028	1.2598e-06	3.0267e-06	60.282	16.26	16.065	4.4095	1.1711e-06	5.0578	0.00015483	0.00017017	5.1025e-05	236.43	1.9516e-06	1.9516e-06	200.64	60.717	1.9182e-06	1.992e-06	58.701	16.364	15.934	4.3555	1.9239e-06	5.0557	-72.042	-15.363	159.093	-130.101	-31.979	-98.456	-132.077	-125.533	6.533	-40.777	-129.081	-123.982	-122.099	-117.917	-67.134	-121.206	-8191	255	
22228.850	1	1	0	0	0.12865	0.10274	0.083306	0.13906	0.26014	0.083468	0.16163	0.30092	0.086471	0.30105	0.080839	0.13871	0.18543	0.32169	0.093005	0.17931	-1.5438	-2.4792	-2.1063	-2.3312	-2.15	-1.8083	-2.3708	-2.1979	-2.0458	-2.1521	-2.0354	-2.2646	-2.3208	-1.9375	-2.2271	-2.0708	63.910	71.707	31.313	-71.620	-37.064	149.706	-116.371	-114.347	-56.355	-43.064	-122.742	-1.204	-105.804	200.189	66.094	181.096	4.5292e-05	0.00026957	2.7669e-05	240	1.1212e-06	1.4366e-06	206.15	61.037	9.2158e-07	1.4185e-06	59.727	16.395	15.843	4.2981	1.1493e-06	5.0703	0.00014687	0.00017887	5.1229e-05	235.77	1.9509e-06	1.9697e-06	200.98	60.579	2.0179e-06	2.0283e-06	58.499	16.312	15.947	4.3453	1.8713e-06	5.0445	-90.978	-20.858	22.074	-130.658	100.901	-97.472	-131.414	-125.161	52.134	169.450	-128.650	-124.487	-122.406	-117.821	-134.409	-121.008	-8191	255	
22228.945	1	1	0	0	0.24143	0.12256	0.40605	0.29756	0.31537	0.0982	0.17226	0.13082	0.13436	0.14819	0.31848	0.16552	0.16837	0.12391	0.086707	0.070666	-1.5979	-2.4062	-1.8896	-2.2292	-2.3542	-2.0083	-2.3708	-2.1104	-2.0354	-2.3875	-2.0854	-2.1833	-2.2438	-1.9188	-2.2375	-2.0917	28.829	149.224	-35.296	151.656	103.586	71.139	-67.864	-66.865	-67.340	-4.604	206.004	71.554	83.947	-64.351	60.131	169.111	5.5065e-05	3.7748e-05	1.6707e-05	241.4	1.219e-06	7.7901e-07	207.06	62.291	2.2089e-07	2.0392e-06	59.782	16.45	16.053	4.3529	2.1523e-06	5.1956	0.00014944	0.00017391	5.192e-05	236.13	1.8957e-06	2.0295e-06	201.52	60.677	1.9895e-06	1.8087e-06	58.819	16.502	16.001	4.3594	1.8718e-06	5.1178	-98.898	153.829	-29.216	-130.053	51.195	-60.033	-131.483	-125.069	-45.434	-54.733	-128.639	-123.432	-121.785	-118.173	63.045	-121.102	-8191	255	
#DATA ENDS
