BOXY.EXE: ISS Imagent and Oximeter Data Acquisition Program Version 0.80
Ascii Record File

#ACQ INFORMATION
2  Detector Channels 
16  External MUX Channels 
1  Auxiliary Channels 
5000  Waveform (CCF) Frequency (Hz)
1  Waveforms Skipped 
30  Waveforms Averaged 
1  Cycles Averaged 
16  Acquisitions per Waveform 
10.0806  Updata Rate (Hz) 

#FILE INFORMATION
TRUE -- External MUX Channel results are PARSED.
FALSE -- AC DC and Phase are NOT grouped.
TRUE -- Companion Program Settings File CREATED.
FALSE -- AC data not excluded
FALSE -- DC data not excluded
FALSE -- Phase data not excluded
FALSE -- Auxillary Chn. data not excluded
Tab delimiters

#CALIBRATION STATE
TRUE -- Waveform Calibration Values APPLIED.


#AUX CALIBRATION VALUES
Val Type	aux-1	

Term	1.0000e+00	
Factor	0.0000e+00	


#WF CALIBRATION VALUES
A = Detector Channel
Val Type	A-AC1	A-AC2	A-AC3	A-AC4	A-AC5	A-AC6	A-AC7	A-AC8	A-AC9	A-AC10	A-AC11	A-AC12	A-AC13	A-AC14	A-AC15	A-AC16	A-DC1	A-DC2	A-DC3	A-DC4	A-DC5	A-DC6	A-DC7	A-DC8	A-DC9	A-DC10	A-DC11	A-DC12	A-DC13	A-DC14	A-DC15	A-DC16	A-Ph1	A-Ph2	A-Ph3	A-Ph4	A-Ph5	A-Ph6	A-Ph7	A-Ph8	A-Ph9	A-Ph10	A-Ph11	A-Ph12	A-Ph13	A-Ph14	A-Ph15	A-Ph16	

Term	0.00000e+00	0.00000e+00	0.00000e+00	0.00000e+00	0.00000e+00	0.00000e+00	0.00000e+00	0.00000e+00	0.00000e+00	0.00000e+00	0.00000e+00	0.00000e+00	0.00000e+00	0.00000e+00	0.00000e+00	0.00000e+00	0.00000e+00	0.00000e+00	0.00000e+00	0.00000e+00	0.00000e+00	0.00000e+00	0.00000e+00	0.00000e+00	0.00000e+00	0.00000e+00	0.00000e+00	0.00000e+00	0.00000e+00	0.00000e+00	0.00000e+00	0.00000e+00	0.00000e+00	0.00000e+00	0.00000e+00	0.00000e+00	0.00000e+00	0.00000e+00	0.00000e+00	0.00000e+00	0.00000e+00	0.00000e+00	0.00000e+00	0.00000e+00	0.00000e+00	0.00000e+00	0.00000e+00	0.00000e+00	
Factor	1.00000e+00	1.00000e+00	1.00000e+00	1.00000e+00	1.00000e+00	1.00000e+00	1.00000e+00	1.00000e+00	1.00000e+00	1.00000e+00	1.00000e+00	1.00000e+00	1.00000e+00	1.00000e+00	1.00000e+00	1.00000e+00	1.00000e+00	1.00000e+00	1.00000e+00	1.00000e+00	1.00000e+00	1.00000e+00	1.00000e+00	1.00000e+00	1.00000e+00	1.00000e+00	1.00000e+00	1.00000e+00	1.00000e+00	1.00000e+00	1.00000e+00	1.00000e+00	X	X	X	X	X	X	X	X	X	X	X	X	X	X	X	X	

B = Detector Channel
Val Type	B-AC1	B-AC2	B-AC3	B-AC4	B-AC5	B-AC6	B-AC7	B-AC8	B-AC9	B-AC10	B-AC11	B-AC12	B-AC13	B-AC14	B-AC15	B-AC16	B-DC1	B-DC2	B-DC3	B-DC4	B-DC5	B-DC6	B-DC7	B-DC8	B-DC9	B-DC10	B-DC11	B-DC12	B-DC13	B-DC14	B-DC15	B-DC16	B-Ph1	B-Ph2	B-Ph3	B-Ph4	B-Ph5	B-Ph6	B-Ph7	B-Ph8	B-Ph9	B-Ph10	B-Ph11	B-Ph12	B-Ph13	B-Ph14	B-Ph15	B-Ph16	

Term	0.00000e+00	0.00000e+00	0.00000e+00	0.00000e+00	0.00000e+00	0.00000e+00	0.00000e+00	0.00000e+00	0.00000e+00	0.00000e+00	0.00000e+00	0.00000e+00	0.00000e+00	0.00000e+00	0.00000e+00	0.00000e+00	0.00000e+00	0.00000e+00	0.00000e+00	0.00000e+00	0.00000e+00	0.00000e+00	0.00000e+00	0.00000e+00	0.00000e+00	0.00000e+00	0.00000e+00	0.00000e+00	0.00000e+00	0.00000e+00	0.00000e+00	0.00000e+00	-1.10335e+02	-1.62587e+02	-1.90705e+02	-1.85735e+02	-7.95890e+01	-9.80034e+01	-1.58876e+02	-1.62015e+02	-9.35963e+01	-1.16549e+02	-1.73504e+02	-1.69991e+02	-1.80150e+02	-1.77034e+02	-1.13923e+02	-1.49910e+02	
Factor	1.77319e-05	8.39323e-05	2.32807e-05	6.63806e-01	6.50858e-07	8.58057e-07	1.78611e-01	5.53004e-02	7.65979e-07	9.03384e-07	9.65138e-02	3.13854e-02	2.64622e-02	1.04344e-02	8.22500e-07	1.50170e-02	3.36373e-07	3.38385e-07	9.36488e-08	2.35456e-01	3.72523e-09	3.70374e-09	7.59690e-02	2.46404e-02	3.72491e-09	3.70198e-09	3.96877e-02	1.30564e-02	1.13969e-02	4.37442e-03	3.68760e-09	5.98844e-03	X	X	X	X	X	X	X	X	X	X	X	X	X	X	X	X	



#DISTANCE SETTINGS
A = Detector Channel
A-1	A-2	A-3	A-4	A-5	A-6	A-7	A-8	A-9	A-10	A-11	A-12	A-13	A-14	A-15	A-16	

2.5000e+00	3.0000e+00	2.5000e+00	3.0000e+00	2.0000e+00	3.0000e+00	1.5000e+00	3.0000e+00	3.0000e+00	3.0000e+00	3.0000e+00	3.0000e+00	3.0000e+00	3.0000e+00	1.5000e+00	3.0000e+00	

B = Detector Channel
B-1	B-2	B-3	B-4	B-5	B-6	B-7	B-8	B-9	B-10	B-11	B-12	B-13	B-14	B-15	B-16	

1.0000e+01	1.0000e+01	1.0000e+01	1.4400e+00	1.0000e+01	1.0000e+01	1.5100e+00	1.9400e+00	1.0000e+01	1.0000e+01	1.9900e+00	2.4900e+00	2.4100e+00	2.9000e+00	1.0000e+01	2.9800e+00	




#DATA BEGINS
time	group	step	mark	flag	A-AC1	A-AC2	A-AC3	A-AC4	A-AC5	A-AC6	A-AC7	A-AC8	A-AC9	A-AC10	A-AC11	A-AC12	A-AC13	A-AC14	A-AC15	A-AC16	A-DC1	A-DC2	A-DC3	A-DC4	A-DC5	A-DC6	A-DC7	A-DC8	A-DC9	A-DC10	A-DC11	A-DC12	A-DC13	A-DC14	A-DC15	A-DC16	A-Ph1	A-Ph2	A-Ph3	A-Ph4	A-Ph5	A-Ph6	A-Ph7	A-Ph8	A-Ph9	A-Ph10	A-Ph11	A-Ph12	A-Ph13	A-Ph14	A-Ph15	A-Ph16	B-AC1	B-AC2	B-AC3	B-AC4	B-AC5	B-AC6	B-AC7	B-AC8	B-AC9	B-AC10	B-AC11	B-AC12	B-AC13	B-AC14	B-AC15	B-AC16	B-DC1	B-DC2	B-DC3	B-DC4	B-DC5	B-DC6	B-DC7	B-DC8	B-DC9	B-DC10	B-DC11	B-DC12	B-DC13	B-DC14	B-DC15	B-DC16	B-Ph1	B-Ph2	B-Ph3	B-Ph4	B-Ph5	B-Ph6	B-Ph7	B-Ph8	B-Ph9	B-Ph10	B-Ph11	B-Ph12	B-Ph13	B-Ph14	B-Ph15	B-Ph16	aux-1	digaux	

7229.797	1	1	0	512	0.086352	0.30252	0.24721	0.19137	0.20255	0.08211	0.25234	0.19278	0.03191	0.020073	0.38082	0.35043	0.064061	0.21035	0.1434	0.025314	-2.7042	-2.6146	-2.8479	-2.9083	-2.2896	-2.9458	-3.1625	-2.6813	-2.9167	-2.3958	-2.8563	-2.9833	-2.3937	-2.9604	-2.8583	-2.9875	179.793	166.877	20.109	-38.922	131.189	7.295	96.636	63.673	0.824	70.566	173.610	-159.008	-150.804	94.462	143.672	-105.979	0.00055804	0.0016225	0.00016574	868.9	4.3661e-06	8.9861e-06	1220.6	299.79	6.5422e-06	5.4684e-06	494.14	159.75	98.278	40.767	4.4577e-06	74.606	0.00038723	0.00041834	0.00012697	838.24	4.2203e-06	4.608e-06	1089.6	268.67	4.1033e-06	4.6578e-06	427.15	137.95	87.377	36.118	4.7441e-06	61.785	-141.318	144.304	30.772	-160.872	7.542	169.591	-160.736	-154.790	7.616	166.229	-155.842	-151.537	-149.834	-145.067	-50.500	-146.837	-8191	255	
7229.868	1	1	0	0	0.28532	0.35659	0.16267	0.022456	0.077059	0.27615	0.39008	0.088835	0.0674	0.085968	0.11932	0.096481	0.25735	0.2329	0.09304	0.34529	-2.5375	-2.4083	-2.8833	-2.9562	-2.5354	-3.0042	-2.8917	-2.5417	-2.8833	-2.6	-2.8604	-3.1771	-2.7583	-3.0833	-2.6604	-2.6562	115.511	-32.758	-12.784	12.563	79.216	109.121	141.476	140.825	-126.824	-4.496	-110.581	78.771	50.238	170.401	9.639	145.821	0.00067459	0.0011492	0.00021509	870.38	4.0453e-06	7.2396e-06	1223.7	300.93	2.8536e-06	7.2676e-06	497.85	161.92	99.068	41.035	4.4351e-06	74.694	0.00037357	0.00043643	0.00012073	827.44	4.1863e-06	4.9011e-06	1085.5	268.74	4.2212e-06	4.9972e-06	426.73	138.72	88.658	36.543	4.5222e-06	61.984	-136.058	117.362	-111.396	-160.222	36.379	179.665	-160.670	-154.954	73.701	82.625	-155.558	-151.553	-150.395	-144.671	-43.693	-146.662	-8191	255	
7229.964	1	1	0	0	0.13372	0.10349	0.091995	0.20285	0.13979	0.22267	0.1172	0.046458	0.094393	0.063571	0.14185	0.24548	0.10289	0.45527	0.20966	0.10842	-2.7208	-2.4958	-2.6604	-3.0729	-2.6417	-2.6667	-3.1521	-2.4729	-2.9562	-2.7875	-2.6542	-3.0062	-2.6542	-2.8271	-3.075	-2.6	87.156	-51.974	12.858	-122.805	-48.909	-0.416	92.791	96.482	-25.952	137.471	-89.461	-73.170	92.651	185.066	170.040	147.940	0.00043322	8.8448e-05	5.5933e-05	861.4	2.9621e-06	6.1004e-06	1231.8	304.7	9.2869e-06	6.0179e-06	499.82	164.33	99.567	41.323	8.3081e-06	75.36	0.0003942	0.0004523	0.00011475	816.05	4.3718e-06	4.9658e-06	1085.2	269.16	4.4663e-06	4.9565e-06	427.15	139.9	90.571	36.874	4.4626e-06	62.284	-148.166	90.221	132.710	-160.434	-145.315	-53.614	-160.712	-155.054	-149.141	55.016	-155.473	-152.028	-150.210	-145.027	-149.046	-147.474	-8191	255	
7230.085	1	1	0	0	0.11654	0.056608	0.22348	0.19175	0.055853	0.48339	0.20665	0.15641	0.01344	0.06556	0.10228	0.24041	0.19054	0.072819	0.1164	0.046596	-2.4062	-2.5458	-2.5896	-3.0167	-2.6583	-2.7083	-2.9708	-2.6521	-2.8458	-2.7625	-2.6292	-3.05	-2.6979	-2.8458	-3.0083	-2.7458	-150.178	-18.799	-73.940	17.681	128.227	22.425	143.500	147.758	64.886	65.587	162.323	130.736	-36.887	46.442	20.675	-92.160	0.00070636	0.0009371	0.00018216	859.69	2.353e-06	6.5965e-06	1228	300.98	1.1212e-05	1.1099e-05	502.52	161.56	99.469	41.031	9.6136e-06	74.45	0.00043143	0.00044986	0.00011251	817.49	4.8448e-06	4.9391e-06	1085.9	268.81	4.9124e-06	4.9146e-06	427.75	139.09	91.229	36.386	4.3639e-06	61.889	-143.581	-116.979	-75.732	-160.627	30.752	-60.531	-160.570	-155.079	-145.504	-5.970	-155.603	-151.569	-150.270	-144.753	39.322	-147.497	-8191	255	
7230.181	1	1	0	0	0.13927	0.43146	0.3255	0.02638	0.13001	0.11692	0.062304	0.27614	0.17393	0.15372	0.49407	0.21912	0.14777	0.10379	0.18745	0.10735	-2.5833	-2.7562	-2.5687	-3.0833	-2.3375	-2.6083	-3.2438	-2.5438	-2.6042	-2.7708	-2.7771	-3.175	-2.7792	-2.8063	-3.0708	-2.6146	-73.437	165.748	-107.616	136.744	-6.787	-49.120	165.546	173.523	-3.979	-88.143	156.685	100.312	128.674	-41.742	127.341	104.285	0.00054526	0.0016338	0.00012578	880.08	4.9309e-06	1.193e-05	1232.1	303.13	2.1697e-06	5.4841e-06	496.98	160.58	98.906	40.743	2.3494e-06	74.26	0.0004577	0.00043334	0.00011182	831.34	5.1635e-06	4.7611e-06	1085	270.8	5.2134e-06	4.7773e-06	425.15	139.8	91.521	36.11	4.307e-06	62.341	-121.975	-160.383	-74.864	-160.317	-84.922	-16.997	-160.929	-155.147	171.169	-35.527	-155.986	-151.542	-150.117	-144.598	19.047	-147.334	-8191	255	
7230.277	1	1	0	0	0.041768	0.059128	0.19255	0.19082	0.14061	0.14377	0.26734	0.24403	0.19864	0.054544	0.24535	0.16057	0.21518	0.3016	0.12646	0.33552	-2.1667	-2.8312	-2.4396	-3.0458	-2.7229	-2.6479	-3.1813	-2.7604	-2.6896	-3.1667	-2.3104	-3.0854	-2.775	-2.6542	-2.9792	-2.8396	181.481	96.681	66.427	-155.632	69.452	76.993	132.091	169.252	80.403	-103.572	101.835	-113.932	-61.755	129.475	-114.267	138.867	0.0004147	7.4253e-05	0.00013799	869.44	5.3096e-06	8.5278e-06	1232.1	304.32	7.1481e-06	3.037e-06	500.38	160.91	98.717	40.65	2.5987e-06	74.676	0.00047989	0.00042845	0.00011093	857.38	5.2817e-06	4.7173e-06	1084.8	273.89	5.2233e-06	4.6871e-06	425.95	141.5	91.599	36.063	4.3981e-06	63.35	-122.827	148.967	-158.261	-161.045	-100.831	-68.602	-160.669	-154.964	-24.202	-62.914	-155.743	-151.494	-150.581	-144.914	55.586	-147.153	-8191	255	
7230.374	1	1	0	0	0.038862	0.15209	0.24426	0.12759	0.25931	0.19102	0.061948	0.27732	0.093226	0.25564	0.10159	0.28145	0.17042	0.11736	0.20545	0.16097	-2.3812	-2.9771	-2.425	-3.0771	-2.6333	-2.4167	-3.1437	-2.8354	-2.6167	-2.9188	-2.6792	-2.9708	-2.8917	-2.6479	-3.0604	-2.7646	5.823	-0.719	124.692	-116.645	-71.708	108.868	157.867	74.823	33.575	5.281	158.886	-117.070	120.294	-105.904	109.998	-141.488	0.00065754	0.00094118	0.00023305	872.2	6.6396e-06	8.351e-06	1230.3	303.43	3.2964e-06	6.6656e-06	505.76	161.89	99.385	40.862	5.3583e-06	75.056	0.00048191	0.00043325	0.00011502	890.78	5.176e-06	4.7127e-06	1088.1	276.49	5.0644e-06	4.552e-06	429	143.29	91.312	35.93	4.4908e-06	63.747	-130.019	-83.658	-89.890	-160.249	10.373	-18.266	-160.768	-155.045	85.744	99.371	-155.460	-152.276	-150.463	-144.971	135.190	-147.040	-8191	255	
7230.470	1	1	0	0	0.030975	0.047122	0.17439	0.092336	0.14673	0.1069	0.20148	0.30685	0.054288	0.29431	0.11081	0.24277	0.12199	0.34422	0.20895	0.18886	-2.3708	-2.8354	-2.4292	-2.8854	-2.7729	-2.5271	-3.2021	-2.575	-2.7188	-3.1604	-2.5771	-2.9	-2.8854	-2.35	-3.0292	-2.9271	58.997	117.548	-100.683	168.622	140.669	56.256	76.642	60.609	-95.267	-91.986	96.008	132.887	104.652	164.332	-27.161	-171.052	0.00050142	0.00053465	0.00021368	886.62	3.1737e-06	7.9864e-06	1236.7	304.71	2.2685e-06	1.2919e-05	502.78	163.42	99.361	40.484	9.2594e-06	74.259	0.00045515	0.00041577	0.00011809	901.92	4.8687e-06	4.5358e-06	1097.4	278.46	4.8914e-06	4.473e-06	433.14	143.86	90.756	35.795	4.9164e-06	63.396	-125.146	-23.750	22.241	-160.820	-34.502	2.108	-160.609	-155.106	-49.287	29.180	-155.922	-151.808	-150.239	-144.752	131.899	-146.878	-8191	255	
7230.564	1	1	0	0	0.15389	0.075466	0.10354	0.17579	0.10659	0.22846	0.15446	0.16426	0.089674	0.16866	0.062021	0.17096	0.26005	0.17606	0.17333	0.035516	-2.2854	-2.8125	-2.4917	-2.7208	-2.9688	-2.4625	-3.1729	-2.8958	-2.4313	-3.1042	-2.8458	-2.6458	-2.9417	-2.4542	-2.9271	-2.8104	98.046	-172.476	170.954	-11.951	-94.375	-165.147	28.081	130.027	-151.941	-162.212	100.575	120.516	74.889	59.158	-63.599	183.452	0.00079424	0.00056032	8.5592e-05	876.14	1.4929e-05	8.331e-06	1245	304.54	8.8028e-06	5.2593e-06	501.48	162	99.23	40.523	7.2383e-06	73.795	0.00044073	0.00040278	0.00012849	894.37	4.7608e-06	4.4641e-06	1106.5	276.15	4.7761e-06	4.4331e-06	436.27	142.1	89.969	35.711	5.3136e-06	62.726	-142.574	11.757	30.284	-160.871	30.678	-155.545	-161.000	-155.034	5.371	124.810	-155.965	-151.559	-150.396	-144.749	-163.405	-146.697	-8191	255	
7230.660	1	1	0	0	0.14859	0.17766	0.12295	0.13033	0.19506	0.093153	0.071111	0.35618	0.2725	0.34951	0.26322	0.25476	0.13493	0.1283	0.13888	0.32175	-2.1167	-2.9271	-2.675	-2.4771	-3.0333	-2.3083	-2.9771	-2.8625	-2.4125	-3.0958	-2.875	-2.6417	-2.9313	-2.7083	-2.9146	-2.9708	84.902	112.129	48.931	15.656	-121.541	70.834	40.860	156.236	180.829	172.575	160.128	149.937	165.283	-145.729	10.516	126.400	0.00073905	0.00025736	0.00011422	890.91	8.1452e-06	7.1867e-06	1236.9	303.12	5.7664e-06	9.7134e-06	502.4	161.82	97.958	40.134	3.7511e-06	73.638	0.00044187	0.00042265	0.00013837	885.49	4.7674e-06	4.775e-06	1113	274.53	4.7648e-06	4.799e-06	438.56	141.77	89.396	36.013	5.5332e-06	62.467	-137.094	-151.679	115.126	-160.989	-49.088	-44.721	-160.671	-154.885	-44.848	-114.697	-155.790	-151.415	-150.452	-145.174	-129.800	-146.811	-8191	255	
7230.756	1	1	0	0	0.084793	0.20775	0.21705	0.21524	0.16266	0.081801	0.29955	0.10001	0.10072	0.11424	0.23006	0.23405	0.19884	0.47067	0.17234	0.23492	-1.9771	-3	-2.6646	-2.5542	-3.0667	-2.6375	-2.7833	-2.7104	-2.5458	-3.0354	-2.7708	-2.6979	-2.9958	-2.5583	-2.8604	-3.0938	65.615	-57.227	-54.605	-138.474	72.387	-73.761	-150.289	-151.178	161.254	32.462	72.352	61.245	169.788	156.161	-146.684	88.508	0.00049526	0.00049343	1.9488e-05	881.46	8.7755e-06	9.1892e-06	1237.1	302.23	1.3308e-05	5.2273e-06	502.92	161.86	98.535	40.203	7.7082e-06	74.096	0.00043248	0.000455	0.00014018	879.8	4.6882e-06	5.2499e-06	1114.5	274.05	4.8062e-06	5.3879e-06	441.36	142.34	90.112	36.824	5.6138e-06	62.691	-150.719	27.302	176.093	-160.491	-60.695	175.591	-160.693	-155.007	-53.740	-135.979	-155.911	-152.121	-150.098	-144.504	-121.768	-147.166	-8191	255	
7230.877	1	1	0	0	0.052236	0.17636	0.06541	0.039083	0.074306	0.17722	0.1613	0.070075	0.12713	0.08091	0.25918	0.19535	0.24239	0.018518	0.31087	0.068576	-1.8583	-2.75	-2.5938	-2.6125	-3.0062	-2.75	-2.6604	-2.9583	-2.4375	-2.7583	-2.8979	-2.4562	-3.0271	-2.4792	-2.6104	-3.0229	138.776	-159.263	-22.391	-160.129	151.761	180.677	105.910	152.847	-35.886	69.516	181.717	115.899	167.863	-28.051	31.901	132.392	0.00070148	0.00073398	0.00022102	889.88	8.3987e-06	6.7427e-06	1242.3	303.26	9.2592e-06	1.2106e-05	501.66	162.97	99.695	40.281	1.3095e-05	73.797	0.00044175	0.00050511	0.00014019	885.49	4.8412e-06	5.7325e-06	1117.7	274.92	4.9752e-06	5.7582e-06	438.66	142.47	91.076	37.198	5.4923e-06	62.6	-145.508	123.847	-127.825	-160.866	-135.817	120.610	-160.765	-154.866	-151.466	-52.656	-155.806	-151.737	-150.257	-145.275	-96.269	-147.115	-8191	255	
7230.971	1	1	0	0	0.27446	0.057061	0.054792	0.12969	0.066337	0.10719	0.17532	0.11449	0.28746	0.086713	0.060506	0.33998	0.0403	0.17179	0.35602	0.053999	-2.1	-2.6708	-2.7646	-2.5604	-2.6562	-2.5396	-2.8375	-3.3083	-2.5792	-2.6813	-2.7792	-2.5438	-2.9354	-2.7271	-2.4458	-3.0708	-131.216	166.445	155.471	38.795	70.956	52.055	149.165	-161.903	136.765	-38.795	41.283	159.650	76.971	-147.158	-3.407	-172.075	0.00056642	0.00036259	0.00057387	867.7	4.0273e-06	8.9483e-06	1247.7	301.17	5.2945e-06	2.0886e-06	499.05	161.85	98.77	40.091	8.0915e-06	73.293	0.00047909	0.0005426	0.000137	875.46	5.1456e-06	5.8891e-06	1114	273.17	5.3446e-06	5.84e-06	434.51	140.64	91.601	36.931	5.2903e-06	61.984	-167.599	185.868	-155.550	-160.226	154.658	-161.339	-160.728	-154.936	-45.909	-114.261	-155.665	-151.777	-150.465	-144.663	114.413	-146.910	-8191	255	
7231.069	1	1	0	0	0.097195	0.035026	0.12212	0.1761	0.10397	0.0474	0.36796	0.1157	0.10831	0.16162	0.18422	0.29726	0.10065	0.13274	0.072492	0.080666	-2.0687	-2.7854	-2.9	-2.7625	-3.0187	-2.8083	-2.7562	-3.0938	-2.6208	-2.8479	-3.0271	-2.5375	-2.95	-2.7938	-2.5729	-2.9875	-68.171	73.514	121.347	-153.419	41.785	-128.057	116.181	161.913	55.495	133.911	-99.658	147.469	-56.918	3.646	32.982	-168.346	0.00057522	0.0010337	0.00019693	877.61	8.5071e-06	5.6927e-06	1238.6	302.94	2.6641e-06	4.545e-06	503.35	161.23	98.542	40.008	5.1605e-06	73.655	0.00051444	0.00054151	0.00013647	881.38	5.7845e-06	5.93e-06	1109.7	272.91	5.8065e-06	5.7619e-06	433.46	140.69	92.762	36.7	5.1538e-06	62.034	-136.719	-81.064	-152.357	-160.616	-138.580	-47.228	-160.778	-155.039	-109.253	-70.368	-155.405	-151.762	-150.434	-144.821	26.087	-146.973	-8191	255	
7231.164	1	1	0	0	0.069403	0.15655	0.13979	0.169	0.21123	0.37086	0.24465	0.31574	0.24765	0.16429	0.115	0.15233	0.093318	0.10348	0.20827	0.089953	-2.2562	-2.5521	-2.825	-2.5	-2.8667	-2.7062	-2.8125	-3.1271	-2.6208	-2.7583	-3.0354	-2.5979	-3.0187	-2.825	-2.5208	-3.0479	-98.982	152.861	57.272	137.439	8.625	-128.596	141.900	159.614	129.550	134.411	111.635	16.946	158.733	34.308	183.404	-87.205	0.00088781	0.00030435	0.00029719	886.27	1.7577e-06	1.5e-05	1236.9	301.6	1.0765e-05	5.2203e-06	497.67	160.43	98.92	39.94	2.9858e-06	73.856	0.00054422	0.00051814	0.00013189	892.42	6.0831e-06	5.6724e-06	1106.9	274.46	6.0739e-06	5.5337e-06	431.93	142.1	93.909	36.412	5.0252e-06	62.796	-158.417	-140.342	-93.411	-161.181	-46.743	88.688	-160.851	-155.001	-156.606	-59.199	-155.702	-151.401	-150.079	-145.072	-155.496	-147.262	-8191	255	
7231.260	1	1	0	0	0.32659	0.1617	0.056025	0.11196	0.030349	0.1631	0.52071	0.19792	0.062976	0.2341	0.055632	0.060949	0.031587	0.33226	0.1593	0.17582	-2.3563	-2.6396	-2.9188	-2.7625	-2.6937	-3.0375	-2.4979	-3.1271	-2.6646	-2.75	-3.0333	-2.7708	-2.8854	-3.1354	-2.3187	-3.0896	-75.575	-17.616	22.627	-119.788	54.503	99.694	134.128	106.075	133.074	69.619	-104.214	162.885	-100.620	107.281	105.589	153.982	0.00057114	0.00026646	0.00024078	870.55	8.1551e-06	2.8373e-06	1239	303.12	7.8482e-06	8.6721e-06	500.05	162.03	99.921	40.317	6.3994e-06	74.286	0.00054806	0.0004906	0.00012552	905.29	5.9609e-06	5.3248e-06	1105.2	277.23	5.8845e-06	5.2534e-06	431.29	144.32	93.617	36.336	4.9423e-06	63.771	-153.221	89.524	-121.066	-160.343	61.276	173.365	-160.758	-155.333	61.619	-169.351	-155.574	-151.706	-150.424	-144.850	79.682	-147.050	-8191	255	
7231.356	1	1	0	0	0.12149	0.23539	0.12476	0.14748	0.24209	0.31009	0.34849	0.1241	0.16249	0.30633	0.146	0.1462	0.18539	0.098613	0.15527	0.1115	-2.2938	-2.5354	-2.9458	-2.7854	-2.8125	-2.9875	-2.7292	-2.8958	-2.7646	-2.5771	-3.1646	-2.8542	-2.8042	-3.1625	-2.3625	-3.075	-90.891	-11.570	54.044	4.040	33.168	145.039	118.394	36.901	116.343	-13.084	57.859	135.697	180.486	-133.049	82.296	-144.862	0.00073114	0.00070814	0.00023527	899.07	5.309e-06	7.3839e-06	1246.8	300.74	7.7205e-06	8.8079e-06	500.73	160.83	98.307	40.116	8.2194e-06	73.718	0.0005324	0.00048056	0.00012459	935.02	5.7319e-06	5.1662e-06	1107.8	278.5	5.5906e-06	5.0591e-06	430.91	144.24	92.061	35.931	5.0684e-06	63.599	-143.233	-151.452	-3.444	-160.408	-76.246	-24.826	-160.650	-155.190	-55.416	-9.502	-155.664	-152.004	-150.129	-144.723	-117.467	-147.123	-8191	255	
7231.477	1	1	0	0	0.12595	0.18728	0.17573	0.17848	0.1067	0.02277	0.28555	0.11071	0.10249	0.093459	0.15504	0.073962	0.12108	0.18733	0.096663	0.31179	-2.5771	-2.5292	-2.9458	-2.7083	-2.7792	-2.8729	-2.8771	-3.0438	-2.9708	-2.4833	-3.0354	-2.8917	-2.4083	-3.2333	-2.5521	-2.9042	-98.343	174.655	133.726	-29.486	-41.352	-138.070	108.146	51.228	136.702	-99.729	168.888	60.184	-11.256	109.954	134.691	141.797	0.0006775	0.0009969	0.00023154	862.59	7.3617e-06	6.2651e-06	1237.5	300.41	7.0239e-06	9.884e-06	501.2	159.79	98.669	39.936	6.9733e-06	72.91	0.00050506	0.00046617	0.00013114	936.52	5.5194e-06	5.0543e-06	1110.7	279.84	5.4342e-06	5.0485e-06	434.69	143.92	91.406	35.761	5.4322e-06	63.176	-135.557	-57.113	98.727	-159.518	1.997	7.603	-160.814	-155.183	-70.183	-28.227	-155.965	-151.940	-150.433	-144.965	-158.513	-146.917	-8191	255	
7231.573	1	1	0	0	0.10149	0.25676	0.12711	0.12521	0.22989	0.19262	0.16217	0.38722	0.099602	0.13809	0.38033	0.26891	0.26691	0.15451	0.21864	0.067883	-2.4542	-2.3187	-2.9771	-2.6771	-2.6708	-3.2375	-2.5917	-3.0229	-2.8229	-2.5812	-3.025	-2.7021	-2.6354	-3.0917	-2.5833	-2.95	163.386	57.221	20.728	118.347	-81.425	-91.587	-161.569	127.247	31.862	-47.352	111.233	178.490	121.759	74.113	89.838	-171.244	0.00058152	0.0010595	0.00026236	878.65	3.9323e-06	6.7598e-06	1237.9	303.51	4.9896e-06	1.3819e-05	501.62	162.63	98.302	40.215	3.968e-06	72.86	0.00048566	0.0004516	0.00013977	933.76	5.4023e-06	4.9833e-06	1116.4	279.04	5.2943e-06	5.0303e-06	440.56	143.88	91.536	35.903	5.8637e-06	63.2	-144.865	119.804	144.943	-160.159	-26.361	69.495	-160.844	-154.950	6.041	-60.967	-155.802	-151.636	-150.098	-144.353	-37.106	-146.508	-8191	255	
7231.669	1	1	0	0	0.012334	0.04152	0.096718	0.021177	0.068845	0.070743	0.025963	0.15386	0.1026	0.10453	0.23791	0.065883	0.26719	0.062625	0.10374	0.10801	-2.6146	-2.2729	-2.8312	-2.775	-2.4458	-3.0021	-2.9562	-2.9229	-2.9625	-2.6958	-3.0167	-2.9708	-2.6375	-3.0458	-2.8292	-2.6292	48.732	-24.499	-60.300	116.633	-128.208	122.099	179.338	81.574	-15.150	26.850	170.563	-95.764	124.834	-119.444	40.908	-50.320	0.00042302	0.00054213	0.00010257	892.71	2.556e-06	7.4514e-06	1245.3	303.87	6.0079e-06	7.4028e-06	500.72	161.85	99.241	39.99	8.7699e-06	73.516	0.00047512	0.00045912	0.00014751	915.46	5.1584e-06	5.0642e-06	1126.8	277.63	5.1124e-06	5.2266e-06	443.6	143.84	91.322	36.341	6.0596e-06	63.375	186.679	173.837	-83.349	-160.298	20.396	162.113	-160.877	-155.144	-63.233	-80.263	-155.865	-151.703	-150.271	-144.762	-41.067	-146.629	-8191	255	
7231.741	1	1	0	0	0.20568	0.18267	0.17917	0.033079	0.20478	0.26779	0.31982	0.22569	0.20812	0.22285	0.20257	0.29948	0.12615	0.26486	0.11316	0.20534	-2.6417	-2.6792	-2.5146	-3.0187	-2.6583	-2.8729	-3.0771	-2.8958	-2.9146	-2.7562	-2.9583	-3.0521	-2.6729	-3.1167	-2.7083	-2.6625	69.694	164.252	-113.346	97.438	185.775	-86.477	92.305	128.838	-90.219	154.912	-161.359	151.537	32.758	115.615	-158.554	-103.592	0.00054526	0.00099895	0.00014399	886.18	2.1821e-06	1.5814e-05	1246.9	303.32	7.8703e-06	1.106e-05	501.96	160.75	97.676	40.021	1.2298e-05	72.864	0.0004707	0.00050255	0.00015413	911.65	5.112e-06	5.4728e-06	1128.2	276.12	4.8891e-06	5.5263e-06	441.75	142.47	90.221	36.558	5.8059e-06	62.429	-158.081	141.902	-126.755	-160.803	-147.163	-149.636	-160.394	-155.025	-73.443	-153.327	-156.025	-151.680	-150.088	-145.104	-119.848	-146.766	-8191	255	
7231.861	1	1	0	0	0.11911	0.24998	0.26556	0.12862	0.045146	0.073561	0.13104	0.11346	0.1134	0.09921	0.031674	0.13563	0.2091	0.041631	0.12967	0.13588	-2.7104	-2.6458	-2.7521	-3.0042	-2.4917	-3.0542	-2.8937	-2.5812	-3.1604	-2.5729	-2.8979	-3.1375	-2.5604	-2.8583	-2.9437	-2.6042	8.696	95.827	-132.994	73.507	174.488	-23.310	147.019	-131.093	66.437	-9.444	-156.031	156.188	15.204	-98.837	-21.628	68.141	0.00061395	0.00095206	0.00020543	889.65	7.0902e-06	4.7272e-06	1241.4	301.21	5.2661e-06	8.1449e-06	495.57	160.06	97.604	39.593	4.5578e-06	72.722	0.00045961	0.00053406	0.00014865	901.56	5.1471e-06	5.967e-06	1122.8	274.64	5.1077e-06	5.9685e-06	438.25	140.77	90.382	36.755	5.5038e-06	61.915	-142.120	-41.234	-153.055	-160.353	-50.004	-132.531	-160.818	-155.443	-79.389	-79.173	-155.586	-151.685	-150.563	-144.984	-62.983	-146.848	-8191	255	
7231.957	1	1	0	0	0.31636	0.25527	0.062223	0.1197	0.22726	0.1407	0.12893	0.29778	0.18694	0.075951	0.17943	0.10064	0.057868	0.18739	0.28502	0.17532	-2.5917	-2.7292	-2.4667	-3.1896	-2.6417	-2.8187	-3.0146	-2.8146	-2.9833	-2.5687	-2.6437	-3.0792	-2.8125	-2.7146	-3.0021	-2.4125	-150.692	180.579	-0.529	116.670	59.408	-44.989	95.571	180.434	8.879	-34.805	-89.626	125.939	154.392	-43.301	-48.309	-111.351	0.00060467	0.00089246	6.8508e-05	883.41	6.7676e-06	4.035e-06	1243.4	300.94	5.5964e-06	4.4486e-06	499.83	159.49	97.022	39.702	5.4797e-06	73.232	0.00047575	0.00055109	0.00014065	885.4	5.3887e-06	6.0878e-06	1117.3	274.17	5.5536e-06	6.1706e-06	436.73	140.51	91.743	36.871	5.4082e-06	62.017	-152.712	-106.194	148.335	-160.166	134.511	-71.890	-160.668	-155.017	60.650	-89.832	-155.833	-151.422	-150.883	-144.741	-42.349	-146.608	-8191	255	
7232.054	1	1	0	0	0.22284	0.025197	0.23112	0.19344	0.17249	0.046202	0.30553	0.061412	0.16957	0.088539	0.16117	0.20768	0.098035	0.19116	0.014772	0.12649	-2.4771	-2.7021	-2.5312	-3.0021	-2.6208	-2.7646	-2.9792	-2.325	-2.8979	-2.7854	-2.5958	-3.1125	-2.5208	-2.8604	-2.8854	-2.4625	-17.990	-57.593	-49.178	40.995	-39.621	9.173	165.736	-34.508	-153.320	71.450	149.512	186.374	54.202	118.252	78.236	141.582	0.0006445	0.00034409	0.00041277	889.53	8.5508e-06	5.3371e-06	1248.6	299.26	1.5373e-05	8.0146e-06	498.46	160.53	96.553	39.242	8.2725e-06	72.629	0.00051142	0.00054237	0.00013616	878.34	5.795e-06	6.0307e-06	1115.9	273.28	6.0191e-06	6.0289e-06	435.59	140.72	93.467	36.687	5.504e-06	62.332	-150.317	-51.535	-79.738	-160.149	-143.010	1.839	-160.686	-155.070	-101.224	-55.556	-155.597	-151.293	-150.852	-144.661	-25.309	-146.784	-8191	255	
7232.150	1	1	0	0	0.1408	0.29286	0.089107	0.15789	0.13052	0.11893	0.25698	0.18779	0.26678	0.2576	0.21763	0.14767	0.32471	0.15066	0.077153	0.068421	-2.5667	-2.65	-2.3729	-2.9708	-2.4292	-2.6979	-3.0792	-2.7562	-3.0875	-2.7438	-2.5583	-3.2	-2.4875	-2.6604	-3.1396	-2.6	-141.218	-66.654	-147.167	-105.202	170.134	-2.008	86.591	78.027	43.916	-6.485	168.484	131.876	-126.518	-168.966	44.199	-92.971	0.00050676	0.00047364	0.00034235	886.71	8.0513e-06	1.993e-05	1229.3	294.1	4.125e-07	1.2358e-05	487.98	154.88	95.316	38.448	1.2797e-05	71.4	0.00058052	0.00055657	0.000143	908.8	6.5176e-06	6.1202e-06	1112.6	272.29	6.7235e-06	6.3259e-06	431.95	140.71	94.818	36.59	5.9591e-06	62.828	-148.163	-51.497	-161.642	-159.844	171.428	-1.954	-160.628	-155.030	-91.896	-50.593	-155.615	-151.818	-150.475	-144.627	-111.767	-147.281	-8191	255	
7232.269	1	1	0	0	0.21696	0.030844	0.15306	0.079795	0.05265	0.16254	0.12785	0.41541	0.068387	0.13281	0.1696	0.32177	0.26464	0.26382	0.096774	0.2001	-2.6562	-2.8583	-2.3146	-2.9417	-2.7042	-2.5583	-3.1292	-2.4458	-2.7292	-3.0375	-2.5396	-3.0271	-2.9875	-2.5375	-3.1479	-2.7958	-164.659	-74.640	-113.335	151.979	-139.271	145.718	84.767	155.179	-136.308	145.983	87.386	-167.583	117.635	149.389	46.908	49.034	0.00035094	0.00050065	0.00025577	885.49	4.5783e-06	7.6151e-06	1228.9	293.71	4.4745e-06	1.2134e-05	485.75	155.14	95.438	38.218	9.9882e-06	71.047	0.00065196	0.00057868	0.00014881	953.27	6.8929e-06	6.1446e-06	1109.3	274.35	6.751e-06	6.0318e-06	428.29	141.4	93.597	36.06	5.815e-06	63.301	-137.362	-51.916	-116.005	-161.205	-63.139	149.956	-160.915	-155.083	39.172	-37.352	-155.596	-151.614	-150.348	-144.691	-49.569	-147.023	-8191	255	
7232.365	1	1	0	0	0.19916	0.071612	0.24143	0.28126	0.073606	0.19897	0.16348	0.15996	0.1459	0.35098	0.11181	0.15564	0.18281	0.21639	0.22148	0.0955	-2.375	-2.75	-2.3937	-3.0833	-2.5958	-2.6146	-3.0333	-2.5438	-2.7333	-2.825	-2.6708	-2.9375	-2.8688	-2.6312	-2.7562	-2.775	111.195	-117.003	15.037	-76.084	157.093	28.623	-130.456	-166.452	107.156	118.432	-131.519	-113.803	-169.214	107.635	34.496	-111.318	0.00055488	0.00092228	0.00020367	857.54	8.616e-06	5.5986e-06	1230.9	289.6	6.8952e-06	1.1545e-05	479.67	153.87	94.22	37.84	6.213e-06	70.292	0.00064059	0.00057613	0.00015223	994.44	6.8977e-06	6.2668e-06	1112.5	278.08	6.9256e-06	6.2969e-06	431.11	143.38	92.961	36.086	6.3948e-06	64.167	-149.081	-86.371	7.363	-160.632	-102.658	131.661	-160.876	-155.206	0.414	19.723	-155.941	-151.875	-150.451	-144.475	128.820	-146.810	-8191	255	
7232.436	1	1	0	0	0.026874	0.21924	0.047901	0.13895	0.26171	0.12516	0.19583	0.29515	0.14215	0.063692	0.034698	0.17922	0.36041	0.1606	0.18287	0.18945	-2.5021	-3.1562	-2.3458	-2.7438	-2.9938	-2.625	-3.1021	-2.6667	-2.6437	-3.0917	-2.6625	-2.9208	-2.6854	-2.6229	-2.975	-2.6854	-95.783	-41.505	176.197	-154.191	60.092	-24.217	104.984	143.885	-49.376	114.718	91.213	-137.858	151.485	-164.455	87.186	99.297	0.00055354	0.00069073	0.00042427	866.01	8.9675e-06	8.876e-06	1224.7	286.04	1.5205e-05	3.6379e-06	478.51	153.08	94.035	37.943	1.7896e-05	71.443	0.00065784	0.00060283	0.00017425	1054.3	7.2546e-06	6.6916e-06	1131.6	280.91	7.0694e-06	6.4385e-06	437.78	144.4	92.696	36.116	6.8576e-06	64.788	-84.823	-118.081	26.141	-160.095	53.725	82.128	-160.894	-154.962	-2.364	-17.130	-155.713	-151.438	-150.289	-144.468	143.812	-147.102	-8191	255	
7232.557	1	1	0	0	0.083269	0.17205	0.19789	0.18633	0.22153	0.10249	0.25675	0.1949	0.22127	0.081608	0.087265	0.16206	0.080429	0.41632	0.07346	0.23658	-2.1896	-3.0958	-2.4167	-2.7771	-2.9708	-2.5563	-3.0583	-2.9354	-2.7958	-3.125	-2.7542	-2.975	-2.9938	-2.675	-2.8688	-2.9813	63.252	120.981	32.416	102.288	42.949	-46.433	151.258	55.123	67.695	-12.224	-148.683	48.169	137.778	-154.852	109.609	12.402	0.00062216	0.00062799	0.00017207	873.47	1.0098e-05	9.5804e-06	1232.6	287.97	3.0768e-06	1.3576e-06	479.84	152.71	93.172	37.781	1.2249e-05	70.081	0.00062991	0.00057552	0.00018251	1038.7	6.9621e-06	6.6063e-06	1150.1	281.34	7.1162e-06	6.608e-06	447.19	144.33	92.855	36.447	7.8364e-06	64.562	-143.909	-146.896	-74.416	-161.111	36.227	52.821	-160.781	-155.220	-46.634	125.708	-155.669	-151.846	-150.234	-144.967	127.713	-146.657	-8191	255	
7232.653	1	1	0	0	0.17004	0.14031	0.064276	0.06566	0.091138	0.13207	0.20498	0.20106	0.18383	0.035333	0.24583	0.16222	0.26282	0.16505	0.13196	0.15402	-2.2812	-2.9708	-2.5604	-2.825	-2.8979	-2.6167	-2.9604	-2.8521	-2.6896	-3.1333	-2.5563	-2.8833	-3.0604	-2.5896	-3.0229	-3.0938	-150.171	140.303	-132.511	-164.980	99.842	-5.943	90.510	158.378	111.194	90.184	150.760	-96.336	79.224	64.240	-162.786	76.374	0.00059454	6.037e-05	0.00010262	864.95	1.1813e-05	1.3661e-05	1227.4	288.91	8.6198e-06	8.4812e-06	482.03	153.13	93.95	37.856	3.1893e-06	70.068	0.00065042	0.00061914	0.00020194	1033.6	6.8711e-06	6.8325e-06	1154	278.12	6.8e-06	6.7632e-06	447.79	142.44	91.905	36.644	7.8553e-06	63.434	-134.535	-41.725	-25.550	-159.398	-6.029	-170.475	-161.269	-154.875	-67.216	182.296	-155.576	-151.590	-150.484	-145.263	-148.700	-146.573	-8191	255	
7232.749	1	1	0	0	0.040341	0.081331	0.31895	0.10349	0.16651	0.12641	0.065331	0.27449	0.13568	0.10172	0.20567	0.33377	0.17536	0.12251	0.28726	0.38865	-2.1792	-2.8542	-2.8479	-2.7875	-3.0708	-2.5396	-3.0521	-3.0938	-2.5042	-2.925	-2.8604	-2.8521	-3.0479	-2.7833	-2.9083	-3.1417	143.788	-122.256	-28.307	-56.279	-81.559	102.162	174.996	142.534	-8.170	-169.819	96.421	104.040	143.824	77.805	-91.043	90.086	0.00051766	0.00096314	0.00055677	867.08	8.6252e-06	4.9347e-06	1226.6	287.01	1.3521e-05	1.53e-05	477.49	151.66	92.304	37.564	7.6865e-06	69.177	0.00062469	0.00065721	0.0002059	1027.4	6.9132e-06	7.6637e-06	1160.8	278.05	7.162e-06	7.8349e-06	451.08	142.91	92.369	37.765	8.1374e-06	63.229	-165.999	148.018	-69.562	-160.946	53.777	-171.227	-161.022	-155.202	-41.932	176.309	-155.994	-151.484	-150.117	-144.684	-45.254	-146.662	-8191	255	
7232.870	1	1	0	0	0.19978	0.12315	0.28573	0.18614	0.038362	0.13234	0.21325	0.16505	0.087061	0.078995	0.14061	0.099248	0.11801	0.20281	0.076389	0.14564	-2.3292	-3.0229	-2.6792	-2.6042	-3.1792	-2.7417	-3.05	-2.9896	-2.4083	-2.9979	-3.0458	-2.5354	-3.0292	-2.8125	-2.7271	-3.1521	52.849	134.824	101.672	-158.580	-160.756	-104.035	70.690	154.055	-28.300	-156.770	-163.328	153.366	-102.722	96.464	-137.633	128.837	0.00064542	0.0010275	0.00028441	863.03	4.8029e-06	5.2279e-06	1217.6	286.48	7.753e-06	2.036e-05	477.62	152.93	92.269	37.664	1.4505e-05	70.224	0.00063988	0.00072478	0.00020318	1025.3	7.0576e-06	8.3141e-06	1155.1	277.9	7.4395e-06	8.6255e-06	451.35	143.72	94.005	38.793	8.2789e-06	64.186	-137.526	62.541	-71.647	-160.701	178.396	-65.303	-160.646	-154.684	108.370	185.653	-155.563	-151.659	-151.158	-145.026	-92.634	-146.691	-8191	255	
7232.964	1	1	0	0	0.099374	0.16156	0.19205	0.28211	0.0331	0.22973	0.29495	0.1799	0.20928	0.078393	0.12109	0.34431	0.063611	0.23712	0.16245	0.13451	-2	-2.8125	-2.9625	-2.6521	-2.9313	-2.5396	-2.7125	-3.1063	-2.3271	-2.8	-2.95	-2.6271	-3.2479	-2.7479	-2.6208	-2.9958	129.056	-113.108	-169.189	-137.019	-51.158	-89.162	165.646	140.022	171.145	99.257	122.960	93.140	93.346	-166.475	-79.779	98.812	0.00061144	0.0017921	0.0003826	874.27	9.9384e-06	1.0205e-05	1223	284.43	1.4132e-05	4.3857e-06	480.94	152.42	93.24	37.937	3.4942e-06	70.521	0.0007114	0.00080847	0.00020554	1039.4	7.717e-06	8.7572e-06	1156.4	276.77	7.8151e-06	8.6689e-06	447.52	143.41	95.612	38.705	7.8336e-06	63.737	-167.117	118.696	-92.648	-160.368	-113.055	1.395	-160.708	-155.162	-47.213	0.850	-155.660	-151.571	-150.519	-145.034	67.178	-146.635	-8191	255	
7233.038	1	1	0	0	0.31493	0.15007	0.0063966	0.13809	0.16282	0.13504	0.084529	0.11737	0.089395	0.099081	0.058671	0.20132	0.18067	0.15028	0.098145	0.25724	-2.0271	-2.8854	-2.8187	-2.7562	-3.1375	-2.7104	-2.7562	-3.1146	-2.7146	-2.8708	-3.0687	-2.6625	-2.9042	-2.7333	-2.4667	-3.1458	6.355	-39.115	98.404	77.722	146.936	164.188	119.608	146.818	-9.168	-21.425	107.292	179.949	117.720	171.953	55.973	126.943	0.00069266	0.00095773	0.00030589	861.9	9.6374e-06	9.5095e-06	1227.6	286.5	1.0233e-05	4.6329e-06	476.04	152.44	92.393	37.815	1.3304e-05	69.968	0.0007471	0.00080488	0.00020325	1044.4	8.6805e-06	9.0789e-06	1164.2	279.03	8.9897e-06	9.035e-06	447.88	143.68	98.026	38.46	7.9412e-06	63.747	-164.043	-96.751	-114.822	-160.490	-153.347	44.865	-160.409	-154.920	99.211	-73.807	-155.743	-151.890	-150.577	-144.396	-41.375	-146.566	-8191	255	
7233.157	1	1	0	0	0.12077	0.19629	0.10871	0.086523	0.10835	0.024416	0.35474	0.31319	0.1008	0.08851	0.22527	0.34467	0.3715	0.068898	0.053173	0.029439	-2.1271	-2.6188	-2.7729	-2.55	-2.8688	-2.875	-2.6875	-3.0604	-2.5833	-2.5729	-2.9688	-2.7604	-3.1146	-2.9562	-2.6	-2.9521	127.151	107.676	145.894	2.934	-42.455	152.159	142.872	149.579	-64.112	67.048	-136.238	140.362	122.237	108.112	7.523	110.602	0.00068572	0.0011062	0.00018968	875.09	5.6046e-06	9.8137e-06	1219.8	284.58	1.718e-05	1.0608e-05	474.98	152.31	92.206	37.435	1.4975e-05	69.734	0.00081621	0.00079193	0.00020158	1055.4	9.194e-06	8.7231e-06	1154	280.32	9.5574e-06	8.9276e-06	446.07	145.24	99.816	38.243	7.9985e-06	64.701	-169.255	-8.791	-56.260	-160.429	-99.093	-107.409	-160.839	-155.183	-163.355	-5.986	-155.816	-151.830	-150.698	-145.012	-171.347	-146.703	-8191	255	
7233.253	1	1	0	0	0.1305	0.12675	0.24204	0.072326	0.20373	0.12417	0.37186	0.13112	0.049443	0.076998	0.28651	0.086922	0.31538	0.011656	0.058365	0.12704	-2.3604	-2.6667	-3.0229	-2.6729	-2.9146	-2.9437	-2.7104	-3.0938	-2.6146	-2.6271	-3.0938	-2.7667	-3.0042	-2.8042	-2.4417	-3.075	81.642	106.133	150.519	-135.593	79.942	-120.225	-146.884	168.233	-39.986	158.332	163.860	-125.506	158.770	-91.214	62.493	183.586	0.00036626	0.0021558	0.00044706	874.1	6.0452e-06	1.4347e-05	1225.3	285.14	9.6687e-06	1.9727e-05	475.31	151.16	91.549	37.318	6.2236e-06	69.562	0.00084989	0.00077188	0.00019602	1086.8	9.2994e-06	8.4016e-06	1149	283.91	9.3057e-06	8.4971e-06	444.12	147.26	99.424	38.072	8.0518e-06	66.084	158.706	-39.975	-146.971	-161.393	-12.061	31.142	-160.910	-155.162	-69.676	-30.870	-156.086	-152.093	-150.288	-144.299	27.439	-146.897	-8191	255	
7233.349	1	1	0	0	0.14481	0.34214	0.21316	0.35313	0.064136	0.14141	0.35716	0.18288	0.16145	0.037623	0.12139	0.23581	0.24158	0.09555	0.20048	0.23187	-2.2542	-2.6437	-2.7812	-2.4479	-2.8187	-3.1396	-2.6667	-2.9208	-2.7313	-2.775	-3.1479	-2.8333	-2.7354	-2.9729	-2.525	-3.1583	18.560	108.239	-1.074	186.639	-64.426	-127.570	134.211	157.166	9.899	-108.126	-127.407	137.271	-121.771	126.789	-154.343	122.875	0.00040311	0.0012347	0.00025056	881.06	7.4241e-06	1.4646e-05	1225.5	286.95	2.2433e-06	1.0664e-05	478.09	152.52	92.925	37.655	1.7694e-05	70.444	0.00085035	0.0007742	0.00019888	1130.1	9.0182e-06	8.1168e-06	1149.3	286.82	8.7316e-06	8.063e-06	445	149.32	98.483	37.773	8.0743e-06	67.115	-166.838	81.739	8.453	-160.735	77.072	-2.674	-160.838	-154.937	-35.902	-48.375	-155.829	-151.541	-150.170	-144.451	-164.812	-146.659	-8191	255	
7233.445	1	1	0	0	0.18741	0.11979	0.027646	0.17079	0.11717	0.3648	0.06806	0.094692	0.088486	0.22104	0.33664	0.22362	0.28208	0.11955	0.09487	0.1899	-2.2146	-2.1896	-2.9354	-2.7417	-2.5979	-2.9333	-2.5938	-3.0292	-2.9813	-2.3771	-2.8958	-2.6667	-2.6333	-3.0771	-2.5271	-2.8688	151.240	-117.780	-2.812	12.504	28.951	40.168	89.226	75.222	-138.215	-99.048	127.704	176.967	111.164	94.301	73.386	-165.223	0.00044855	0.0010181	0.00026555	854.28	1.3938e-05	1.0109e-06	1233.8	285.95	1.2149e-05	7.2982e-06	478.02	150.51	91.51	37.512	8.1375e-06	69.387	0.00080686	0.00074831	0.00020657	1157.2	8.6766e-06	7.8424e-06	1162.1	289.04	8.4011e-06	7.7995e-06	448.94	148.35	96.431	37.215	8.5324e-06	66.556	-128.594	-21.874	52.603	-160.972	14.754	110.117	-160.830	-154.815	36.669	-58.473	-156.105	-151.674	-150.420	-144.474	-155.914	-146.832	-8191	255	
7233.566	1	1	0	0	0.22222	0.078	0.058155	0.16612	0.16062	0.044274	0.22072	0.36388	0.18471	0.3444	0.18199	0.074723	0.23447	0.41167	0.080111	0.089711	-2.5396	-2.6208	-2.9854	-2.7604	-2.5812	-3.2062	-2.7687	-2.9646	-2.8604	-2.4688	-3.2396	-2.9417	-2.6854	-2.9667	-2.6396	-2.7771	-127.716	125.619	-46.400	-2.786	-167.033	156.898	109.674	107.810	104.587	95.408	147.248	-84.355	163.816	123.537	79.358	-87.644	0.00063853	0.00033439	6.9811e-05	872.92	2.1567e-06	2.1376e-06	1218.2	285.97	4.1206e-06	5.1282e-06	477.98	149.92	91.352	37.349	5.5084e-06	69.217	0.00077375	0.00072906	0.00022148	1145.6	8.5042e-06	7.7878e-06	1169.4	288.42	8.2607e-06	7.9085e-06	456.53	146.98	95.59	37.13	9.1321e-06	65.866	-126.715	97.019	-65.949	-159.937	-141.621	152.821	-160.832	-154.746	-95.200	-30.810	-155.990	-151.504	-150.301	-144.501	154.854	-146.832	-8191	255	
7233.662	1	1	0	0	0.19562	0.13129	0.038983	0.086768	0.13628	0.25197	0.25069	0.066785	0.023459	0.20261	0.24666	0.15152	0.21677	0.095936	0.151	0.25043	-2.4167	-2.5083	-2.8	-2.725	-2.65	-3.0542	-2.7021	-2.6312	-2.8792	-2.6417	-2.9646	-3.1104	-2.7021	-3.0833	-2.7375	-2.8208	106.278	44.080	24.222	159.597	130.695	-127.738	90.789	96.497	-142.325	63.164	140.461	110.909	-140.287	-116.630	-170.281	185.184	0.00073611	0.00068613	0.00033199	863.39	6.4622e-06	3.3721e-06	1216.6	284.61	4.68e-06	1.5123e-05	472.43	149.74	91.814	37.108	6.4357e-06	68.942	0.00076056	0.00074876	0.00023933	1130.2	8.4901e-06	8.1181e-06	1184.1	285.29	8.1168e-06	8.1987e-06	459.67	146.04	95.457	37.693	9.5251e-06	65.296	-105.024	-148.304	138.166	-160.205	-19.219	175.885	-161.142	-155.419	68.392	-129.630	-155.767	-151.402	-150.455	-145.350	-113.153	-146.249	-8191	255	
7233.734	1	1	0	0	0.14138	0.12873	0.16727	0.092117	0.061876	0.13579	0.2031	0.31792	0.067135	0.17374	0.16874	0.12299	0.30924	0.18565	0.12381	0.34714	-2.5083	-2.5563	-2.9521	-2.8667	-2.3083	-2.7687	-2.7146	-2.575	-3.0146	-2.4417	-3.0667	-3.0396	-2.5187	-3.0604	-2.675	-2.6771	39.476	91.495	79.596	-125.750	44.868	-135.864	-138.651	105.377	112.827	29.546	-145.670	140.080	132.095	-94.305	18.142	163.985	0.00076416	0.001813	0.0003382	879.26	1.6636e-05	9.41e-06	1222.8	281.28	1.0113e-05	1.6505e-05	476.95	151.29	92.091	37.216	9.3737e-06	69.712	0.00073404	0.00078831	0.00024425	1109.3	8.3172e-06	8.8577e-06	1186.8	283.98	8.1524e-06	9.0807e-06	463.44	146.58	95.695	38.756	9.4588e-06	65.472	-117.331	124.775	-57.137	-160.734	1.056	-163.419	-160.733	-155.289	-65.023	-165.955	-155.831	-151.978	-150.219	-145.027	137.220	-147.036	-8191	255	
7233.830	1	1	0	0	0.14669	0.069988	0.22838	0.15487	0.23358	0.1996	0.13671	0.15313	0.11914	0.081556	0.1813	0.04411	0.060385	0.25405	0.14768	0.18331	-2.5667	-2.7729	-2.8667	-2.825	-2.2208	-2.7479	-2.8375	-2.7354	-3.0083	-2.6667	-2.875	-3.0708	-2.5521	-2.8854	-2.7	-2.7313	162.771	44.477	-60.859	74.801	2.842	101.573	42.299	71.155	-41.128	-62.148	-96.124	176.343	-56.580	6.375	65.227	83.333	0.0008298	0.00087613	0.00042952	867.32	4.0933e-06	2.6511e-06	1223.3	282.23	8.1373e-06	1.5215e-05	475.17	150.42	91.668	37.18	9.4608e-06	69.441	0.00072815	0.00083861	0.00023507	1088.6	8.1878e-06	9.4355e-06	1181.6	283.43	8.2791e-06	9.7106e-06	459.47	145.06	95.793	39.295	8.9951e-06	64.739	-142.834	-90.207	-137.908	-161.054	51.633	71.983	-160.565	-155.090	-119.607	-111.629	-155.594	-151.781	-150.523	-144.699	-117.997	-147.150	-8191	255	
7233.950	1	1	0	0	0.14165	0.26846	0.33188	0.041033	0.12048	0.18294	0.077898	0.1859	0.20538	0.19876	0.3618	0.40538	0.12928	0.051128	0.092071	0.27855	-2.6458	-2.5521	-2.5292	-3.0875	-2.475	-2.7104	-2.8854	-2.5708	-3.0458	-2.7188	-2.7438	-2.9583	-2.6729	-3.0375	-3.0229	-2.5	106.996	-123.026	90.604	-43.882	-105.327	-132.011	101.058	-111.801	152.112	140.778	117.196	83.080	147.418	-121.021	115.808	90.521	0.00043455	0.0014139	0.00032933	863.18	1.4689e-06	7.0589e-06	1222.5	283.27	1.2372e-05	2.7711e-06	471.06	148.84	91.166	36.825	9.9412e-06	69.022	0.00075659	0.00088247	0.00022746	1073.9	8.5515e-06	9.6927e-06	1167.8	281.47	8.7689e-06	9.8155e-06	453.01	143.33	97.528	39.276	8.8487e-06	64.298	171.010	-96.967	-101.935	-161.130	-52.304	-146.692	-161.026	-154.925	-99.574	23.818	-155.586	-151.587	-150.730	-144.585	-110.681	-147.112	-8191	255	
7234.045	1	1	0	0	0.033209	0.18358	0.075516	0.10461	0.20064	0.14883	0.11523	0.20456	0.12866	0.12367	0.31614	0.34675	0.318	0.15199	0.16844	0.23649	-2.4292	-2.7896	-2.4646	-2.95	-2.3563	-2.8312	-2.9229	-2.3771	-2.7167	-2.7167	-2.6813	-3.1042	-2.4354	-2.6375	-2.9938	-2.4562	-141.497	92.723	183.093	168.207	-48.807	69.786	-161.648	94.203	26.588	-37.107	128.505	126.224	126.749	145.206	-141.166	119.650	0.00065845	0.00076997	0.00023141	861.37	9.3539e-06	9.6249e-06	1214.7	284.18	6.2695e-06	8.0719e-06	472.57	149.66	91.051	36.967	5.8535e-06	69.035	0.00082361	0.00088549	0.00022196	1061.2	9.2056e-06	9.5702e-06	1158.8	279.18	9.2744e-06	9.5283e-06	450.8	143.56	99.568	38.924	8.5567e-06	64.331	-144.538	-122.011	113.290	-161.529	-103.544	-119.508	-160.776	-155.142	-145.285	-43.687	-155.388	-151.849	-150.716	-144.629	30.236	-146.794	-8191	255	
7234.141	1	1	0	0	0.066356	0.070266	0.078673	0.083731	0.20411	0.098944	0.12238	0.3895	0.037153	0.1054	0.17501	0.07199	0.033735	0.15507	0.2101	0.2506	-2.4042	-2.7313	-2.5625	-3.0292	-2.6458	-2.4958	-3.2292	-2.6208	-2.8438	-2.6625	-2.3812	-3.0021	-2.9062	-2.6542	-2.675	-2.5708	99.766	-125.201	-135.731	-38.614	-38.311	146.630	98.395	154.762	-95.483	134.129	177.415	53.923	142.049	-73.257	163.037	174.968	0.00061764	0.00037029	0.00057294	868.08	4.6746e-06	1.7669e-05	1219.3	280.85	4.6843e-06	2.15e-05	474.22	150.75	91.975	37.34	9.437e-06	69.649	0.00087031	0.00084721	0.0002149	1072.8	9.6436e-06	9.0743e-06	1151.5	280.09	9.5385e-06	8.8493e-06	446.99	143.99	99.922	38.254	8.0033e-06	65.118	-159.975	129.334	-120.154	-161.179	-135.175	21.614	-160.798	-155.031	-67.979	-4.355	-155.751	-151.932	-150.176	-144.294	1.621	-146.516	-8191	255	
7234.239	1	1	0	0	0.16891	0.12728	0.28607	0.31195	0.1234	0.061662	0.19953	0.10425	0.36251	0.32758	0.19408	0.12678	0.18539	0.19561	0.1602	0.36824	-2.4938	-2.6833	-2.3667	-2.9271	-2.5938	-2.6583	-3.175	-2.6437	-2.725	-2.8187	-2.6021	-2.9729	-2.7812	-2.3833	-2.7938	-2.5646	-163.706	-63.760	23.392	-169.785	-3.287	120.453	61.285	83.297	34.581	-102.871	-99.717	37.560	123.277	160.416	47.828	164.364	0.00049096	0.00074588	0.000148	861.3	1.238e-05	1.361e-05	1223.8	283.59	1.2209e-05	7.9898e-06	475.4	150.85	91.668	37.308	9.1425e-06	69.541	0.0008721	0.00079372	0.00020618	1094.5	9.6168e-06	8.7431e-06	1151.4	284.47	9.4146e-06	8.4609e-06	444.17	146.71	98.518	37.932	7.6977e-06	65.701	-143.214	136.792	-87.232	-161.183	16.895	8.731	-160.573	-155.065	103.508	-124.966	-155.861	-151.627	-150.811	-144.419	-95.955	-146.858	-8191	255	
7234.333	1	1	0	0	0.091217	0.071883	0.16658	0.14455	0.080818	0.19337	0.1921	0.16197	0.22876	0.31383	0.29398	0.11186	0.10341	0.16261	0.15327	0.40359	-2.3979	-2.9854	-2.3688	-2.9667	-2.9542	-2.6208	-3.0354	-2.7104	-2.7875	-3.1167	-2.5125	-2.9583	-2.7687	-2.6854	-3.0979	-2.7104	6.966	142.546	64.346	140.119	-69.341	126.206	82.578	128.415	56.888	-173.427	111.331	106.645	133.890	97.025	108.931	125.119	0.00075597	0.0017163	5.4093e-05	865.75	4.3821e-06	1.5103e-06	1220.1	283.77	9.729e-06	7.9222e-06	472.27	149.77	91.705	37.203	2.1247e-05	69.077	0.00081991	0.00073982	0.00019534	1106	8.8184e-06	8.1111e-06	1142.5	285.34	8.6845e-06	7.8323e-06	439.03	145.82	95.639	37.09	7.5114e-06	65.434	-119.930	-77.807	168.030	-160.811	-166.375	2.978	-160.815	-155.529	-61.760	-25.053	-155.767	-151.802	-150.126	-144.546	-154.940	-146.717	-8191	255	
7234.429	1	1	0	0	0.15482	0.073729	0.04769	0.095368	0.045623	0.15388	0.27098	0.19819	0.12381	0.30102	0.12154	0.12594	0.15256	0.36764	0.060369	0.10897	-2.3063	-3.0146	-2.3604	-2.7833	-2.9958	-2.6375	-3.1312	-2.6375	-2.7021	-2.9521	-2.5042	-2.975	-3.1833	-2.6729	-3.1292	-2.6521	-91.775	21.263	122.582	65.910	-25.382	-33.404	146.463	93.190	2.127	-134.365	-123.883	115.950	151.970	181.500	132.668	-136.752	0.00027124	0.00098692	0.00017413	861.86	2.3078e-06	1.1972e-05	1215.5	282.57	9.2093e-06	5.9768e-06	474.99	149.57	91.577	36.744	4.2789e-06	69.038	0.00075951	0.00069765	0.00019633	1112.1	8.2148e-06	7.6032e-06	1143.4	285.18	8.2174e-06	7.59e-06	446.47	146.7	95.828	37.019	8.2702e-06	65.921	-113.268	-14.572	70.523	-160.843	-101.191	-0.607	-160.964	-155.235	-126.080	-11.893	-155.996	-151.783	-150.423	-144.825	-163.056	-146.665	-8191	255	
7234.550	1	1	0	0	0.16014	0.21774	0.14075	0.083148	0.080054	0.18908	0.11713	0.26263	0.37793	0.14386	0.2663	0.20436	0.076326	0.39023	0.31976	0.13288	-2.2229	-3.0542	-2.45	-2.8146	-3.0438	-2.5917	-2.9437	-2.725	-2.4479	-2.9479	-2.5438	-2.8396	-3.0396	-2.5687	-2.775	-2.9729	-123.189	171.087	-129.523	172.416	-100.810	171.138	-163.517	170.494	80.673	86.342	155.061	-107.297	-117.099	157.189	116.420	147.132	0.00057513	0.00045643	0.00067699	878.05	1.2992e-06	4.1555e-06	1220.8	283.75	8.0039e-06	4.236e-06	472.73	150.97	92.224	37.217	4.2449e-06	70.044	0.00076929	0.00071809	0.00022235	1141.6	8.5154e-06	7.9704e-06	1169	286.79	8.3689e-06	7.7302e-06	454.95	147.42	96.112	37.398	9.231e-06	66.499	-117.710	42.416	91.967	-160.147	-99.198	3.714	-161.056	-154.959	16.011	28.121	-155.248	-151.382	-150.764	-144.321	134.560	-146.586	-8191	255	
7234.646	1	1	0	0	0.14072	0.088641	0.19418	0.19048	0.050709	0.27297	0.35334	0.13	0.26937	0.23736	0.087596	0.36559	0.25356	0.13126	0.07651	0.2477	-2.0604	-2.8979	-2.6312	-2.6917	-3.0062	-2.5583	-3.0979	-2.8312	-2.4167	-2.95	-2.9292	-2.725	-3.0312	-2.5312	-3.1875	-2.9646	-110.486	-107.231	-6.716	35.919	-135.783	127.521	167.549	166.860	171.888	-83.024	85.558	124.126	136.073	136.550	-95.747	-142.058	0.00030206	0.0019464	9.7835e-05	877.09	8.5166e-06	1.6958e-05	1229.8	283.51	9.7032e-06	1.1396e-05	471.19	151.45	92.103	37.286	4.7518e-06	69.982	0.00079288	0.00076123	0.0002473	1157.8	8.7241e-06	8.4748e-06	1191.3	287.38	8.5672e-06	8.3324e-06	463.39	147.71	95.94	38.175	9.6932e-06	66.142	-100.472	171.049	49.580	-161.054	8.926	-172.674	-160.793	-155.148	-68.259	22.010	-155.891	-151.471	-150.677	-144.887	72.037	-146.879	-8191	255	
7234.742	1	1	0	0	0.21171	0.11102	0.054045	0.043427	0.12173	0.05733	0.23329	0.19671	0.079803	0.11486	0.17611	0.16537	0.39296	0.018023	0.17503	0.063165	-1.975	-3.0563	-2.6021	-2.7292	-3.0458	-2.3125	-2.85	-3.0958	-2.2687	-3.0333	-2.8583	-2.5833	-2.95	-2.5563	-2.6979	-2.8646	-36.209	-102.962	80.020	-67.810	114.782	-52.123	148.245	87.764	-135.019	10.900	67.014	181.962	-171.880	97.356	18.788	48.883	0.00052763	0.002068	0.0002419	864.38	1.7429e-05	2.4195e-05	1226.6	282.88	6.9487e-06	1.0751e-05	473.37	150.45	91.669	37.292	1.8353e-05	69.082	0.00077752	0.00080993	0.00025355	1143.2	8.4498e-06	9.1513e-06	1194.4	285.21	8.3701e-06	9.0666e-06	463.23	146.62	95.531	38.884	9.5693e-06	65.254	-127.802	148.310	-171.086	-160.549	-2.232	-132.744	-160.914	-154.978	-23.939	-87.352	-155.573	-151.730	-150.081	-144.832	13.492	-146.799	-8191	255	
7234.838	1	1	0	0	0.019186	0.31694	0.28307	0.35129	0.13031	0.23317	0.1154	0.24138	0.17551	0.26932	0.14785	0.28491	0.17168	0.11548	0.055333	0.21719	-2.1979	-3.0042	-2.9583	-2.2792	-3.0687	-2.8083	-3.0333	-2.9583	-2.5854	-3.025	-2.5771	-2.8146	-3.025	-2.6604	-2.8479	-3.2167	-68.463	14.424	184.348	155.080	-43.301	-162.450	181.735	152.788	-74.433	158.280	155.728	139.914	-133.601	-104.069	95.107	143.690	0.00056242	0.0010447	0.00039388	864.82	3.873e-06	8.525e-06	1228.4	283.42	5.3085e-06	1.3285e-05	470.43	150.5	92.056	36.828	8.8791e-06	68.83	0.00075885	0.00085912	0.00024298	1126.3	8.5156e-06	9.9445e-06	1197.3	286.1	8.853e-06	1.0066e-05	463.48	146.47	96.711	39.727	9.4018e-06	64.969	-122.825	114.751	-83.795	-160.254	-87.236	-160.575	-160.873	-155.198	-23.012	-167.196	-155.933	-151.779	-150.906	-144.463	1.199	-147.079	-8191	255	
7234.935	1	1	0	0	0.15303	0.29277	0.031349	0.20254	0.073274	0.17852	0.16079	0.079444	0.21966	0.3056	0.17678	0.044861	0.25645	0.25459	0.33224	0.17083	-2.2104	-2.6625	-2.8625	-2.525	-3.1542	-2.6562	-2.9458	-3.0708	-2.4792	-3.1688	-2.9271	-2.4542	-3.0604	-2.6396	-2.7167	-3.2146	59.137	63.849	-161.393	34.711	-121.215	-11.387	146.165	171.285	-64.555	-43.424	-166.208	178.859	160.641	-144.569	85.032	110.962	0.00057576	0.0013004	0.00030134	876.33	2.3854e-06	2.5043e-05	1224.2	283.15	9.825e-06	1.8556e-05	475.02	151.11	92.291	37.251	1.7497e-05	69.322	0.00079913	0.00091072	0.00023611	1111.3	8.8594e-06	1.0203e-05	1185.8	284.42	9.4343e-06	1.0485e-05	462.19	146.97	99.37	40.109	9.3544e-06	65.378	-172.324	124.453	-156.042	-160.818	-57.775	-12.309	-160.751	-155.127	-135.861	-24.269	-155.472	-151.630	-150.684	-144.481	-50.889	-147.069	-8191	255	
7235.031	1	1	0	0	0.12545	0.13815	0.22942	0.18778	0.024915	0.053572	0.28429	0.2981	0.094307	0.2753	0.14809	0.15949	0.047447	0.22919	0.17111	0.031035	-2.1875	-2.6625	-2.9604	-2.6792	-2.7521	-2.8479	-2.6083	-3.0229	-2.6813	-2.9083	-3.0812	-2.7417	-3.0771	-2.7625	-2.6708	-3.0667	89.102	-147.997	-167.461	-144.476	18.605	77.991	-161.541	183.822	-91.702	-94.004	132.602	-117.640	152.883	-150.618	-110.759	-106.708	0.00053032	0.00042703	0.00035157	878.63	6.3485e-06	1.4238e-05	1230.4	283.81	1.6959e-05	2.3055e-05	477.71	150.59	92.438	37.583	1.1372e-05	69.832	0.00087678	0.00094117	0.00023784	1119.3	9.831e-06	1.0302e-05	1188.1	284.55	1.0237e-05	1.0424e-05	462.55	148.07	102.77	40.402	9.5071e-06	66.113	-168.106	-71.416	-158.944	-161.213	132.546	-7.195	-160.578	-154.864	-120.852	-100.165	-156.080	-152.178	-151.165	-144.579	-84.870	-147.043	-8191	255	
7235.127	1	1	0	0	0.31427	0.084969	0.14485	0.12268	0.24515	0.19493	0.2904	0.19811	0.24878	0.08444	0.21381	0.33462	0.1642	0.2082	0.19711	0.14256	-2.0479	-2.7458	-3.1167	-2.3688	-2.9125	-2.8083	-2.6021	-3.0979	-2.9021	-2.525	-3.1042	-2.6437	-2.8125	-2.8917	-2.4708	-2.9979	-23.332	110.205	-122.459	179.553	96.897	-169.410	145.362	141.058	160.968	-93.181	71.457	164.415	-96.101	44.407	183.417	150.412	0.00049916	0.0010368	0.0002353	891.47	8.7223e-06	3.8635e-06	1229.9	283.98	1.3107e-05	9.355e-06	476.86	150.48	91.877	37.328	6.7258e-06	69.787	0.0009588	0.00093254	0.0002373	1141.8	1.0576e-05	1.0097e-05	1190.5	287.99	1.0785e-05	1.015e-05	462.34	149.73	104.24	39.953	9.5059e-06	67.066	-146.855	-68.020	-67.028	-161.028	-104.410	-10.557	-160.855	-155.484	-41.793	-56.705	-155.802	-151.897	-150.839	-145.035	28.841	-146.866	-8191	255	
7235.246	1	1	0	0	0.24346	0.08602	0.21302	0.1007	0.12485	0.45844	0.38907	0.15543	0.088344	0.15268	0.10686	0.10202	0.39369	0.28643	0.093595	0.13757	-2.2667	-2.6833	-3.1625	-2.3167	-2.7438	-3.025	-2.6417	-3.0563	-2.6833	-2.6542	-3.1521	-2.7146	-2.7833	-2.9875	-2.5312	-3.0083	-148.365	45.642	142.964	-117.396	-93.575	59.742	146.702	112.213	-68.980	-137.812	145.760	-165.074	178.454	132.516	2.879	120.947	0.00074363	0.0011544	0.00034062	870.93	2.7693e-06	1.7641e-05	1228.7	283.54	2.6782e-06	1.3233e-05	475.9	150.39	91.805	37.126	1.2131e-05	69.411	0.0010106	0.00093358	0.00024136	1213.9	1.119e-05	1.0279e-05	1193.1	294.31	1.1126e-05	1.0093e-05	458.59	152.03	103.44	39.637	9.4077e-06	68.034	-137.262	-24.782	-139.318	-161.380	-134.931	-31.249	-160.383	-155.291	129.920	-111.133	-156.198	-151.679	-150.209	-144.230	149.689	-147.422	-8191	255	
7235.342	1	1	0	0	0.12527	0.22812	0.22352	0.027283	0.11731	0.12184	0.20176	0.26027	0.030282	0.10778	0.19932	0.14006	0.10823	0.094954	0.35185	0.47075	-2.3625	-2.5687	-2.8896	-2.6292	-2.6521	-2.9521	-2.7604	-3.1208	-2.8104	-2.575	-3.0042	-2.7812	-2.7271	-3.0667	-2.4917	-3.0896	-49.676	-163.428	98.675	103.491	7.190	-90.939	56.343	-151.358	-12.623	149.751	150.751	102.285	-165.732	172.577	-45.404	117.526	0.00047478	0.00048612	0.00031832	861.34	6.6581e-06	5.8241e-06	1230.5	282.41	2.1656e-05	2.4894e-05	475.82	150.13	91.826	36.951	4.381e-06	69.586	0.00098509	0.00091295	0.00023616	1238.7	1.0782e-05	9.8932e-06	1190.1	297.97	1.0741e-05	1.0028e-05	460.84	154.01	102.68	39.31	9.5549e-06	69.101	-140.075	-88.863	-139.590	-160.931	-40.291	27.841	-160.800	-155.102	22.620	-50.008	-156.090	-151.584	-150.490	-144.407	49.093	-147.045	-8191	255	
7235.438	1	1	0	0	0.1098	0.21161	0.11891	0.076634	0.085933	0.25195	0.37907	0.14864	0.10155	0.22402	0.33775	0.25885	0.18708	0.063997	0.27005	0.12125	-2.4	-2.5229	-3	-2.6083	-2.8063	-3.0729	-2.5812	-3.0187	-2.8646	-2.7083	-3.0917	-2.8146	-2.7146	-2.8479	-2.6479	-2.9396	16.791	-112.783	162.606	35.927	-121.685	90.682	182.273	169.892	182.219	119.730	153.456	125.160	176.645	-112.517	102.472	73.733	0.00051911	0.00074727	0.00025535	855	3.4546e-06	2.5283e-05	1230.9	286.31	1.0661e-05	7.5571e-06	475.45	151.55	92.857	36.913	1.3781e-05	69.701	0.000946	0.00088599	0.0002447	1261.4	1.047e-05	9.7538e-06	1206.5	301.78	1.0409e-05	9.7938e-06	469.58	155.9	102.3	39.194	1.027e-05	69.604	-95.729	-74.702	0.197	-161.162	70.252	10.185	-160.800	-155.204	89.225	177.851	-156.352	-151.672	-150.726	-144.933	-137.819	-146.390	-8191	255	
7235.534	1	1	0	0	0.058166	0.05101	0.32152	0.15049	0.15753	0.103	0.13003	0.091788	0.12831	0.10363	0.13888	0.31048	0.26349	0.35115	0.14188	0.12894	-2.55	-2.125	-2.8146	-2.8292	-2.5167	-3.0771	-2.7396	-2.8542	-2.8729	-2.3208	-3.0958	-2.8354	-2.55	-3.2604	-2.6792	-2.8375	-112.477	34.283	-93.522	-143.014	55.846	157.373	88.400	126.784	-153.782	101.540	182.095	53.214	131.562	-27.632	-64.512	-147.935	0.00072458	0.0016879	0.00053968	896.34	7.847e-06	1.6212e-05	1239.2	286.2	1.0696e-05	9.4125e-06	476.36	150.32	92.763	37.419	7.3309e-06	69.301	0.00093396	0.000883	0.00026422	1271.7	1.0246e-05	9.5322e-06	1224.5	301.87	1.0295e-05	9.7461e-06	478.09	154.52	102.35	39.222	1.0929e-05	68.93	-141.743	-92.853	107.110	-160.781	-122.790	37.546	-160.783	-155.065	-25.302	-31.894	-156.117	-151.849	-150.541	-144.546	88.553	-146.629	-8191	255	
7235.630	1	1	0	0	0.12201	0.2413	0.20961	0.09195	0.18138	0.025888	0.31728	0.10634	0.15565	0.18348	0.25445	0.25338	0.28358	0.065205	0.081557	0.16858	-2.4938	-2.3083	-2.8354	-2.7229	-2.4562	-3.0792	-2.9104	-2.5292	-2.8458	-2.625	-2.8812	-2.8708	-2.6333	-3.0938	-2.4417	-2.8104	169.682	67.385	10.822	-2.801	-51.491	-159.232	137.518	32.603	-151.498	155.499	123.514	130.605	186.064	66.369	-124.462	2.169	0.00039614	0.0010699	0.0002142	887	1.9993e-05	1.2299e-05	1234.6	285.87	7.5772e-06	3.2649e-06	476.52	150.24	91.981	36.804	8.4649e-06	68.402	0.00092631	0.0008937	0.00027774	1239.6	1.0007e-05	9.5968e-06	1228.5	298.12	1.0095e-05	1.0256e-05	483.72	153.94	102.41	40.09	1.1743e-05	68.763	-132.657	119.645	23.742	-160.130	30.007	183.659	-160.608	-154.969	15.973	-141.211	-155.783	-151.861	-150.236	-144.889	115.973	-146.811	-8191	255	
7235.726	1	1	0	0	0.07212	0.05248	0.35413	0.23156	0.14368	0.13697	0.13637	0.41909	0.048227	0.19074	0.18793	0.25559	0.084193	0.18371	0.14538	0.16416	-2.7083	-2.3646	-2.6312	-2.8979	-2.3771	-2.9	-2.9167	-2.6833	-2.8812	-2.8896	-2.9979	-2.7875	-2.375	-3.0438	-2.8104	-2.6937	184.049	-96.889	69.309	-138.091	158.304	-128.241	142.513	104.170	37.545	102.983	185.260	139.892	-81.973	48.898	-19.753	-160.071	0.00039518	0.00097294	0.00027306	874.18	1.1034e-05	1.4932e-05	1230	286.74	1.8464e-05	2.3484e-05	478.62	150.29	92.236	37.159	5.3235e-06	69.692	0.0009284	0.00097985	0.00029227	1236.7	9.9994e-06	1.0299e-05	1227.4	295.22	9.3905e-06	1.0358e-05	480.25	151.32	100.24	40.394	1.1092e-05	67.963	-134.900	131.702	-107.034	-160.532	-35.299	88.246	-160.599	-155.210	-59.684	170.404	-155.822	-151.430	-150.568	-145.142	-33.640	-146.823	-8191	255	
7235.823	1	1	0	0	0.19917	0.25415	0.1548	0.13666	0.15643	0.17021	0.16718	0.14739	0.035522	0.40114	0.070554	0.17018	0.29585	0.18543	0.15136	0.276	-2.7104	-2.4979	-2.7625	-2.9271	-2.4021	-2.9792	-2.8375	-2.4479	-2.8979	-2.9021	-2.7062	-2.7729	-2.5812	-2.9604	-2.6271	-2.675	171.574	-120.720	-106.475	58.440	-9.014	102.938	-60.402	-115.321	162.035	100.035	-118.986	65.097	112.842	158.748	110.666	-160.497	0.00031572	0.00058131	0.00045091	880.33	8.4977e-06	1.1983e-05	1243.4	288.64	1.1947e-05	7.2551e-06	480.83	150.37	92.182	37.195	1.7336e-05	69.906	0.00087623	0.00098929	0.00027639	1203.1	9.7097e-06	1.0719e-05	1225.2	295.62	9.5549e-06	1.1054e-05	478.53	151.72	101.55	41.261	1.0908e-05	68.238	-159.726	71.890	-133.543	-159.703	-152.861	168.544	-160.452	-154.864	114.805	-115.362	-155.533	-151.701	-150.377	-144.521	10.321	-146.951	-8191	255	
7235.919	1	1	0	0	0.15395	0.28379	0.16898	0.11455	0.049714	0.059656	0.0616	0.19736	0.22867	0.1116	0.15424	0.10297	0.13925	0.14816	0.024963	0.23282	-2.5458	-2.6146	-2.8458	-3.0021	-2.4958	-2.85	-2.9875	-2.7604	-2.9688	-2.5708	-2.8937	-3.2333	-2.5229	-2.9729	-2.9333	-2.6271	48.594	101.083	-12.028	-28.718	6.348	16.654	-74.494	18.429	89.806	160.484	-164.041	-114.311	-74.874	-98.781	-67.828	147.127	0.00065107	0.0026847	0.00017384	875.67	7.8041e-06	8.7801e-06	1245.7	285.67	2.398e-05	4.0629e-06	479.63	151.65	92.153	37.313	8.8472e-06	69.753	0.00091287	0.0010416	0.00027215	1193.7	1.0234e-05	1.1241e-05	1219.4	293.21	1.0068e-05	1.1122e-05	475.09	150.32	102.64	41.112	1.0228e-05	67.197	-155.175	174.929	-136.672	-160.765	-78.543	29.908	-161.017	-155.053	-166.422	116.605	-155.793	-151.534	-150.210	-144.486	20.209	-146.274	-8191	255	
7236.038	1	1	0	0	0.23838	0.14195	0.18734	0.36281	0.040681	0.037482	0.32495	0.17195	0.1228	0.18504	0.12643	0.11924	0.0443	0.21154	0.1765	0.48928	-2.6958	-2.7479	-2.4729	-3.0042	-2.6708	-2.6312	-3.0354	-2.6521	-2.8292	-2.8979	-2.5604	-3.0521	-2.6917	-3.0563	-3.0167	-2.5792	-9.038	133.289	-26.550	138.803	-126.767	-120.736	92.623	79.383	-8.711	-159.771	164.378	163.447	39.428	-134.395	-28.163	100.015	0.00088475	0.002386	0.00037706	889.87	1.2071e-05	1.726e-06	1240	284.78	4.8329e-06	2.3437e-05	481.74	151.02	91.339	37.267	1.639e-05	69.144	0.0009371	0.0010041	0.00025947	1161.5	1.0487e-05	1.0759e-05	1206.9	289.69	1.0229e-05	1.0414e-05	466.55	147.03	101.62	39.813	9.3173e-06	65.962	-169.818	-57.154	-26.980	-160.932	-140.968	-112.557	-161.020	-154.941	88.822	18.510	-155.499	-152.096	-150.604	-144.281	6.060	-146.898	-8191	255	
7236.134	1	1	0	0	0.21213	0.12447	0.13585	0.11767	0.293	0.12874	0.1257	0.25141	0.20067	0.12676	0.36097	0.21798	0.12027	0.07891	0.05675	0.19411	-2.55	-2.6312	-2.3896	-2.95	-2.7229	-2.6312	-3.0333	-2.6396	-2.7333	-2.9021	-2.6937	-2.9667	-2.4729	-2.7354	-2.9979	-2.6979	141.252	-24.801	-145.133	126.346	-155.585	78.539	-28.973	144.175	157.163	-41.850	154.008	157.373	142.539	-128.287	169.386	109.211	0.00071214	0.0010928	0.00017117	877.2	3.9141e-06	2.2384e-05	1241.5	287.74	1.3862e-05	9.8271e-06	480.98	151.33	92.455	37.44	6.2477e-06	69.639	0.00093469	0.00092386	0.00023898	1135.5	1.034e-05	9.7512e-06	1188.7	288.23	1.0067e-05	9.5666e-06	460.33	146.87	101.54	38.964	8.5676e-06	66.061	-163.789	-116.515	65.420	-161.141	98.691	12.306	-160.829	-155.252	164.517	-31.682	-155.479	-151.976	-150.437	-144.357	-107.920	-146.886	-8191	255	
7236.230	1	1	0	0	0.22376	0.2249	0.30885	0.12611	0.17193	0.042043	0.25845	0.39203	0.34482	0.21053	0.033453	0.066675	0.066635	0.10377	0.042472	0.041621	-2.2917	-2.8625	-2.4583	-2.8167	-2.6437	-2.4271	-3.1104	-2.7062	-2.8604	-2.9354	-2.7146	-3.0875	-2.7646	-2.5021	-3.2062	-2.7687	90.116	81.517	74.697	97.656	82.850	83.904	84.518	165.505	112.932	79.735	-162.823	27.412	135.770	52.283	167.402	-31.787	0.00020253	0.0019431	0.00064808	894.51	7.6901e-06	1.1291e-05	1244.3	286.11	1.1772e-05	1.2598e-05	483.61	151.89	93.211	37.421	5.0803e-06	69.967	0.00090683	0.00084607	0.00021813	1139.6	1.0053e-05	9.1795e-06	1180.2	289.79	9.7911e-06	8.9353e-06	456.54	149.02	100.93	38.679	8.1985e-06	66.93	-129.834	-59.260	-145.513	-161.172	-67.239	-121.464	-160.540	-155.038	18.331	-44.713	-155.746	-151.792	-150.652	-144.620	-39.696	-147.184	-8191	255	
7236.326	1	1	0	0	0.023449	0.12698	0.079911	0.25012	0.17361	0.27447	0.3966	0.49255	0.019466	0.18361	0.12315	0.12867	0.10914	0.2187	0.18242	0.21257	-2.25	-2.8333	-2.4813	-2.8417	-2.8625	-2.5917	-3.2646	-2.8875	-2.6896	-3.0104	-2.6312	-3.0896	-2.9271	-2.4104	-2.9771	-2.7271	8.237	75.441	-127.941	-162.795	88.216	123.542	185.695	75.186	67.337	-108.651	100.219	130.121	85.759	-43.582	183.148	121.545	0.00030629	0.0011683	9.6087e-05	882.68	1.1473e-05	7.654e-06	1241.2	287.34	7.3346e-07	2.1165e-05	486.13	152.1	93.352	37.333	1.3592e-05	70.007	0.00087988	0.00082316	0.00021872	1188.9	9.9711e-06	9.2969e-06	1187.3	296.12	9.928e-06	9.1426e-06	462.08	152.53	101.25	38.778	8.7845e-06	68.178	-102.353	-86.746	24.968	-161.362	70.178	16.076	-160.581	-155.188	11.812	-43.326	-155.704	-151.488	-150.594	-144.952	147.780	-146.704	-8191	255	
7236.422	1	1	0	0	0.072524	0.30434	0.19749	0.12149	0.075768	0.31846	0.18261	0.2446	0.14643	0.056337	0.070299	0.1631	0.15343	0.15478	0.27823	0.10655	-2.2979	-2.9896	-2.5458	-2.8583	-2.9167	-2.4021	-3.0458	-2.6625	-2.6188	-3.0271	-2.5167	-2.7854	-2.8958	-2.5375	-2.7687	-2.6375	117.338	67.800	186.870	36.351	68.999	93.752	93.564	156.957	-14.645	-169.113	-11.290	175.875	168.393	98.958	-99.636	179.146	0.00058594	0.0017229	6.7554e-05	872.02	4.9223e-06	8.4353e-06	1253.6	284.98	1.4951e-06	1.0081e-05	479.53	150.12	91.11	36.596	1.1841e-05	69.492	0.00087267	0.00080728	0.00022651	1208.3	9.5561e-06	8.9606e-06	1199.3	296.98	9.6396e-06	8.8959e-06	464.49	152.44	99.996	38.404	9.7199e-06	68.268	-133.540	-42.513	84.014	-160.709	-6.668	-33.147	-160.713	-155.001	-100.359	16.885	-156.020	-151.930	-150.438	-144.428	180.485	-147.231	-8191	255	
7236.518	1	1	0	0	0.071661	0.081244	0.22781	0.099258	0.10868	0.23605	0.17138	0.11077	0.14067	0.058506	0.06169	0.049052	0.1503	0.17409	0.1256	0.36332	-2.3271	-3.0187	-2.4188	-2.7208	-2.8833	-2.2896	-2.9646	-2.6458	-2.6792	-2.9979	-2.5521	-2.7792	-2.8958	-2.6125	-3.0167	-2.7667	45.679	-148.061	-97.957	-145.520	-113.460	169.420	96.145	41.590	-58.643	9.563	33.004	-16.455	-166.549	47.153	23.400	125.676	0.00037799	0.0009098	0.00024433	876.13	1.1388e-05	1.1967e-05	1244.9	280.65	4.204e-06	6.456e-06	471.2	147.4	89.79	36.087	1.3766e-05	68.103	0.00088717	0.00081384	0.00025043	1224.7	9.6772e-06	9.2084e-06	1214.1	295.1	9.9086e-06	9.1573e-06	469.57	149.93	98.699	38.265	1.07e-05	67.691	-168.608	-34.560	75.567	-161.391	6.719	-68.567	-161.126	-154.914	144.522	-64.908	-156.047	-151.706	-150.471	-144.482	182.151	-146.879	-8191	255	
7236.639	1	1	0	0	0.057401	0.17899	0.18334	0.19861	0.05946	0.096002	0.1224	0.13722	0.22207	0.28878	0.14368	0.11458	0.33807	0.14771	0.079405	0.12368	-2.1167	-3.0042	-2.4083	-2.6271	-2.9104	-2.5896	-2.9417	-2.7792	-2.4792	-2.9646	-2.6792	-2.675	-2.9979	-2.5062	-2.8396	-3	134.863	-127.738	50.321	136.213	-133.105	75.024	160.494	133.571	126.933	-38.507	51.889	148.174	117.753	41.344	-133.690	-152.997	0.00055091	0.00084814	0.00024305	869.15	1.2112e-05	4.4688e-06	1228.3	272.04	1.3153e-05	2.0714e-05	455.82	142.66	86.692	35.187	4.7128e-06	67.488	0.00091784	0.00086749	0.00028012	1240.3	1.0066e-05	9.9701e-06	1227.3	290.47	1.0388e-05	1.023e-05	472.84	148.37	97.452	38.628	1.1364e-05	67.089	-90.105	100.852	15.318	-161.618	60.040	-142.891	-161.034	-154.640	-16.902	183.624	-155.701	-151.592	-150.375	-144.719	-82.605	-146.478	-8191	255	
7236.735	1	1	0	0	0.18687	0.18451	0.15467	0.25265	0.22222	0.12171	0.088351	0.31519	0.17656	0.12861	0.12269	0.074751	0.065745	0.22273	0.11137	0.19611	-1.8667	-2.9646	-2.8875	-2.6042	-2.9042	-2.6813	-2.9354	-2.7583	-2.4854	-2.9375	-2.8438	-2.625	-2.9042	-2.6188	-2.8667	-3.05	-49.685	-24.425	-106.009	105.722	-52.287	77.922	122.711	-122.681	130.603	-169.012	93.989	121.606	-73.774	9.428	-160.370	-35.811	0.00041567	0.0004683	0.00019776	877.85	1.6492e-05	9.8403e-06	1236.5	275.89	1.4191e-05	1.1518e-05	467.58	145.72	89.219	35.759	1.6072e-05	69.01	0.00089074	0.00091807	0.00028178	1209.4	9.4555e-06	1.02e-05	1228.1	288.29	9.7353e-06	1.0428e-05	474.57	148.93	97.925	39.722	1.1098e-05	67.458	-144.695	4.121	-41.386	-160.448	-41.414	152.944	-160.947	-155.044	-19.870	168.753	-155.576	-151.677	-150.536	-144.891	-30.679	-146.323	-8191	255	
7236.831	1	1	0	0	0.24069	0.15209	0.24118	0.053821	0.21566	0.2242	0.20855	0.22696	0.054934	0.18124	0.15244	0.034463	0.22974	0.24774	0.27704	0.12854	-2.1667	-2.8833	-2.6042	-2.6083	-3.0667	-2.6708	-2.8854	-3.0187	-2.5958	-2.8958	-2.8688	-2.525	-3.0563	-2.8333	-2.5833	-2.8333	-164.121	102.723	45.688	-170.861	-35.204	174.440	60.826	-124.649	152.048	85.449	76.111	76.058	-151.552	-81.753	44.221	149.920	0.00058875	0.00074908	0.00024851	879.78	2.366e-06	2.1864e-05	1236.1	277.74	8.8007e-06	9.963e-06	461.91	144.92	88.759	35.618	1.3088e-05	68.153	0.0008798	0.00098538	0.00027895	1205.9	9.5902e-06	1.1002e-05	1227.9	287.1	9.863e-06	1.1198e-05	468.73	147.7	98.021	40.181	1.0672e-05	66.218	-134.967	-43.606	-78.224	-161.047	5.099	185.503	-160.699	-155.112	-155.348	-115.164	-155.430	-151.579	-150.592	-144.743	-15.867	-146.750	-8191	255	
7236.903	1	1	0	0	0.18795	0.11662	0.083765	0.14493	0.1247	0.11472	0.21671	0.16176	0.074149	0.10985	0.22358	0.10073	0.1406	0.12139	0.14878	0.14288	-2.1396	-2.7812	-2.7396	-2.4417	-2.8875	-2.8021	-2.65	-3.1458	-2.6708	-2.8771	-2.9542	-2.5646	-2.8812	-2.4813	-2.675	-3.275	-28.269	42.881	17.565	-157.185	-84.460	154.547	157.408	-143.172	169.538	79.792	56.295	98.102	104.935	136.494	-142.826	140.507	0.00056361	0.0013971	3.005e-05	865.13	9.5968e-06	3.3986e-06	1226.9	274.32	1.1124e-05	1.5114e-05	461.92	144.03	87.467	35.366	6.9281e-06	67.754	0.00090074	0.0010217	0.00026669	1180.9	9.9198e-06	1.1345e-05	1209	283.83	1.0248e-05	1.1377e-05	461.65	145.09	99.102	40.133	1.0605e-05	65.834	-143.183	-147.675	182.142	-160.127	-90.328	-158.645	-160.543	-154.913	183.819	-25.822	-155.738	-151.368	-151.012	-144.067	171.649	-146.432	-8191	255	
7237.022	1	1	0	0	0.23861	0.089777	0.16467	0.13208	0.11352	0.064925	0.22225	0.07772	0.041322	0.17241	0.19861	0.19023	0.33858	0.10362	0.24027	0.10255	-1.9292	-2.4708	-2.7854	-2.5458	-3.0604	-2.6688	-2.6792	-3.0646	-2.5563	-2.6604	-3.025	-2.6917	-2.8292	-2.6063	-2.6542	-3.0583	-126.403	-55.162	112.096	94.202	143.542	-14.700	94.997	71.599	-123.527	76.939	114.761	48.182	-88.549	-165.052	4.183	146.045	0.0009918	0.0019463	0.00066944	882.76	6.2321e-06	1.3953e-05	1229.8	274.61	2.4546e-05	1.0546e-05	461.63	144.04	87.963	35.807	1.2402e-05	67.97	0.00098768	0.0010462	0.00026725	1175.7	1.0789e-05	1.1244e-05	1204.8	281.17	1.0891e-05	1.105e-05	458.99	144.99	101.42	39.918	1.0352e-05	66.036	-157.398	-110.679	-94.105	-159.875	-162.869	-37.037	-160.797	-154.920	-160.738	1.453	-155.774	-151.994	-150.697	-144.361	78.594	-146.623	-8191	255	
7237.118	1	1	0	0	0.18006	0.1364	0.26564	0.16734	0.10575	0.1618	0.31388	0.16757	0.14128	0.26581	0.092034	0.33447	0.29355	0.20877	0.27811	0.33311	-2.0458	-2.6979	-2.9104	-2.6104	-3.0646	-2.6854	-2.5417	-3.3	-2.7417	-2.6042	-3.0521	-2.6188	-2.8312	-2.8042	-2.3375	-2.8646	116.352	140.284	64.488	52.125	62.343	-46.722	156.687	101.090	-0.159	-97.939	-167.371	-154.418	-112.356	165.483	-12.180	-72.646	0.00060578	0.0015141	0.00024011	855.95	5.2251e-06	1.4526e-05	1224	274.22	3.3452e-06	1.9768e-05	459.68	144.73	87.486	35.597	1.5716e-05	68.136	0.0010457	0.0010144	0.00025896	1194.5	1.1478e-05	1.1072e-05	1207.8	285.71	1.1741e-05	1.1083e-05	459.5	147.87	103.7	39.768	1.0249e-05	67.204	-168.507	-76.150	-71.797	-160.314	-11.019	38.207	-160.865	-155.258	-61.864	-55.354	-155.412	-152.007	-150.368	-144.238	-60.296	-146.457	-8191	255	
7237.214	1	1	0	0	0.17358	0.1007	0.18371	0.068854	0.067699	0.25868	0.35884	0.2145	0.14747	0.069959	0.06066	0.18569	0.13977	0.27684	0.12903	0.30062	-2.3229	-2.3875	-2.9042	-2.5625	-2.7583	-2.8	-2.4104	-2.9062	-2.7938	-2.5917	-3.1125	-2.6562	-2.4979	-2.7479	-2.3542	-2.9333	140.159	116.323	112.424	115.075	-160.374	-120.994	74.207	74.944	156.912	29.596	-126.235	129.386	66.217	172.596	-98.715	89.262	0.00059639	0.0011408	0.00043704	863.2	1.3514e-05	9.4243e-06	1232.3	274.27	1.0405e-05	1.4331e-05	452.34	144.3	87.244	34.917	3.5119e-06	67.589	0.0010768	0.0010013	0.00025714	1246.5	1.2051e-05	1.1097e-05	1210.5	291.88	1.2137e-05	1.1199e-05	456.06	151	104.08	39.512	1.0415e-05	68.671	-145.678	-51.220	-68.471	-161.708	9.026	6.964	-160.623	-154.980	185.251	-36.054	-155.916	-152.097	-150.885	-144.863	-26.551	-146.926	-8191	255	
7237.312	1	1	0	0	0.24993	0.076649	0.060908	0.224	0.17367	0.24614	0.15862	0.22595	0.099346	0.098883	0.1935	0.089164	0.032112	0.18206	0.15819	0.10453	-2.0917	-2.5	-2.925	-2.4708	-2.6937	-3.0187	-2.7188	-2.9875	-2.5062	-2.6562	-3.1292	-2.8021	-2.7333	-2.9313	-2.4125	-2.9542	61.739	-49.166	-53.561	173.873	22.854	88.126	103.764	-128.985	132.311	-79.680	120.929	-9.004	151.480	-61.315	111.620	105.363	0.00035075	0.0020223	0.00046635	877.6	1.1896e-05	9.6544e-06	1218.2	269.92	1.3541e-05	1.2717e-05	454.09	142.94	86.398	35.429	1.0099e-05	67.941	0.0010988	0.0010167	0.00026205	1310.1	1.184e-05	1.0803e-05	1203.2	294.52	1.1723e-05	1.0851e-05	455.25	152.4	102.42	39.335	1.0644e-05	69.879	186.597	-34.060	166.690	-160.877	-3.476	38.684	-161.016	-155.065	-61.158	-52.825	-155.527	-151.887	-150.663	-143.998	-2.417	-146.667	-8191	255	
7237.431	1	1	0	0	0.029652	0.11598	0.20113	0.091517	0.087135	0.16582	0.27107	0.065767	0.034037	0.1789	0.10865	0.24028	0.33991	0.2722	0.12697	0.10053	-2.4104	-2.7604	-2.9708	-2.5875	-2.7562	-3	-2.6937	-2.8312	-2.6813	-2.4	-3.0021	-2.7229	-2.5125	-2.9042	-2.625	-2.8021	98.876	172.316	48.985	108.955	98.846	17.788	37.809	186.597	-111.868	10.587	172.863	142.887	-166.368	140.025	157.279	22.711	0.00034667	0.0010975	0.00017949	877.12	3.5937e-06	1.0731e-05	1236	279.94	3.5834e-06	4.6548e-06	470.82	146.54	90.181	36.353	1.3208e-05	69.048	0.0010651	0.00099664	0.00027362	1347.2	1.1776e-05	1.0694e-05	1228.5	301.84	1.1118e-05	1.0271e-05	467.76	153.9	101.79	38.792	1.0516e-05	69.407	-154.837	-25.681	27.208	-161.583	128.447	41.576	-161.080	-154.902	-137.038	100.650	-156.406	-151.836	-150.649	-144.248	168.573	-146.452	-8191	255	
7237.503	1	1	0	0	0.14185	0.083363	0.21821	0.20877	0.029779	0.22257	0.021152	0.36901	0.13614	0.1803	0.17031	0.27285	0.084846	0.16692	0.23505	0.32206	-2.3854	-2.3792	-3.0042	-2.5479	-2.3354	-2.9979	-2.6125	-2.7687	-2.9688	-2.475	-3.0854	-2.8333	-2.6771	-3.1458	-2.5271	-2.7104	-8.743	59.621	-166.051	138.461	25.174	80.220	-154.795	146.266	-155.856	77.414	162.603	138.371	56.595	79.673	148.789	95.332	0.00063588	0.00040821	0.00085211	877.94	5.9085e-06	7.2981e-06	1253.1	283.4	8.1823e-06	6.1548e-06	476.24	150.37	92.788	37.03	1.0077e-05	70.171	0.00094878	0.00088591	0.00026393	1264.8	1.025e-05	9.3782e-06	1231.2	299.1	9.9792e-06	9.3732e-06	474.82	153.07	100.79	38.501	1.0319e-05	68.34	-108.819	-20.633	93.547	-159.720	-170.168	-84.148	-160.819	-154.648	41.098	-108.090	-155.702	-152.019	-150.765	-144.648	-66.501	-146.486	-8191	255	
7237.599	1	1	0	0	0.088426	0.11637	0.061214	0.21318	0.034177	0.054828	0.13747	0.3616	0.12665	0.27734	0.22732	0.21325	0.13532	0.29155	0.1858	0.18887	-2.5062	-2.5542	-2.9813	-2.5167	-2.5375	-2.9958	-2.8083	-2.6542	-2.8271	-2.6167	-3.0187	-3.0792	-2.5021	-2.8979	-2.6583	-2.8479	80.311	-75.891	-23.354	-111.252	175.778	99.987	70.430	173.817	-152.964	166.872	166.193	163.688	44.614	107.213	-132.684	121.471	0.00063757	0.00071235	0.00029733	873.32	7.7481e-06	2.1791e-06	1262.2	286.01	1.8254e-05	5.9799e-06	483.06	152	93.655	37.197	1.4068e-05	70.303	0.00086	0.00082635	0.00026163	1203.9	9.4282e-06	9.0312e-06	1238.8	294.07	9.2182e-06	9.2224e-06	477.38	151.04	99.574	38.874	1.0421e-05	67.574	-128.117	-74.986	-126.252	-159.874	-18.810	-61.331	-160.692	-154.873	-81.800	151.001	-155.705	-151.818	-150.670	-145.081	-165.210	-146.311	-8191	255	
7237.719	1	1	0	0	0.028118	0.13723	0.11669	0.080748	0.10065	0.15732	0.094868	0.194	0.21673	0.078202	0.21041	0.23152	0.12845	0.23849	0.042239	0.20949	-2.6979	-2.4354	-2.7208	-2.925	-2.475	-2.9521	-2.5771	-2.6188	-3.0458	-2.6979	-2.9271	-2.9667	-2.7104	-2.9729	-2.6437	-2.7062	-26.427	150.782	8.794	-155.400	88.574	130.171	-20.305	129.458	-4.946	-143.248	62.167	138.769	-101.903	-73.260	136.768	64.944	0.00050265	0.0017009	0.00036314	892.82	1.0839e-05	1.7201e-05	1261.6	285.84	1.386e-05	2.0628e-05	481.49	149.79	91.893	36.959	1.974e-05	69.09	0.0008259	0.00086997	0.00026599	1182.8	9.1363e-06	9.589e-06	1239	292.04	9.1181e-06	1.0074e-05	478.91	150.56	99.674	40.04	1.08e-05	67.764	-130.966	125.554	-165.108	-161.132	-56.007	-157.199	-160.604	-154.670	-109.586	126.986	-155.533	-152.053	-150.382	-145.111	-50.208	-146.799	-8191	255	
7237.816	1	1	0	0	0.19594	0.26041	0.095835	0.21318	0.24482	0.082066	0.21903	0.079756	0.1928	0.12741	0.26285	0.12214	0.24011	0.24383	0.088249	0.31919	-2.7479	-2.4583	-2.4938	-2.95	-2.6896	-3.0563	-2.8167	-2.3896	-2.9396	-2.6083	-3.0021	-2.9208	-2.5938	-3.0042	-2.7083	-2.3688	-103.692	-79.620	-23.974	-164.153	45.217	71.421	128.120	82.986	-161.697	-91.442	174.555	-19.623	181.716	-99.837	-85.903	-160.995	0.00062183	0.0013692	0.00013128	880.48	9.0814e-06	6.4393e-06	1258.5	281.76	7.7907e-06	2.1603e-05	479.8	151.34	92.744	37.108	1.2316e-05	69.524	0.00086299	0.00098423	0.00027673	1207.8	9.7707e-06	1.0928e-05	1244.8	293.82	9.6128e-06	1.108e-05	478.27	150.73	100.94	40.891	1.0661e-05	67.758	-142.026	116.921	-118.259	-160.368	-119.941	133.001	-160.887	-155.056	-92.575	171.391	-155.629	-151.761	-150.689	-144.429	-65.239	-146.769	-8191	255	
7237.912	1	1	0	0	0.22965	0.1386	0.092222	0.34365	0.34704	0.11474	0.20152	0.16008	0.16921	0.26106	0.068557	0.21232	0.2179	0.13049	0.21058	0.11043	-2.5771	-2.8125	-2.5938	-2.8937	-2.4292	-2.9708	-3.1542	-2.4625	-2.9229	-2.7792	-2.6188	-3.0667	-2.3417	-2.9292	-2.9083	-2.5187	20.395	66.432	177.164	173.704	-131.228	-72.561	16.026	-168.143	161.268	137.799	36.979	25.562	-127.852	138.239	-5.767	98.680	0.00083461	0.0010562	0.00042812	882.27	9.5602e-06	3.3655e-06	1261.7	281.95	7.149e-06	2.1038e-06	477.13	152.4	93.263	37.014	9.4747e-06	69.826	0.00090387	0.0010426	0.00027465	1204.8	1.0378e-05	1.1542e-05	1243	294.66	1.041e-05	1.1615e-05	479.71	151.74	103.94	41.466	1.066e-05	68.012	180.953	-38.187	-110.458	-160.939	-74.063	50.641	-160.706	-154.701	-121.795	50.036	-155.964	-151.954	-150.671	-144.541	-122.817	-146.808	-8191	255	
7238.032	1	1	0	0	0.23123	0.22676	0.34361	0.19222	0.18159	0.0645	0.19368	0.30618	0.1336	0.21014	0.21735	0.22013	0.19583	0.22207	0.11136	0.23299	-2.475	-2.6	-2.5917	-3.0375	-2.5333	-2.6458	-3.1583	-2.5062	-2.9479	-2.6667	-2.5833	-3.0604	-2.4688	-2.7896	-2.9125	-2.6104	134.460	-65.259	-47.376	154.385	84.499	-108.071	-113.608	129.440	22.919	-64.289	-84.347	128.726	-35.445	-170.431	-127.238	172.885	0.00077446	0.0006267	0.00025805	890.13	5.5306e-06	1.0812e-05	1264.8	285.42	1.6305e-05	2.4013e-05	480.17	151.39	92.936	37.195	1.4983e-05	70.026	0.0009865	0.0010637	0.00027692	1204.9	1.1323e-05	1.1667e-05	1247.8	296.55	1.161e-05	1.1987e-05	487.13	153.73	109.28	42.445	1.1404e-05	69.325	-150.502	185.584	-166.904	-160.536	18.289	-123.271	-160.794	-154.797	178.641	-15.695	-155.760	-151.739	-151.209	-144.914	-2.401	-146.702	-8191	255	
7238.104	1	1	0	0	0.2798	0.18183	0.21343	0.15844	0.11397	0.20003	0.1326	0.054409	0.051998	0.20896	0.21437	0.33635	0.20185	0.21431	0.17184	0.46043	-2.4625	-2.6854	-2.4333	-3.0938	-2.4292	-2.6167	-3.0563	-2.6375	-2.9333	-2.5646	-2.5708	-3.1917	-2.625	-2.625	-2.8979	-2.6667	-124.211	116.232	-161.000	138.754	-169.942	-86.066	95.188	-136.581	139.276	-34.683	127.173	85.116	14.867	-145.557	153.609	126.222	0.00036122	0.0002343	7.966e-05	882.76	2.0158e-05	9.0256e-06	1259.8	282.9	4.1798e-06	1.6131e-05	479.92	150.32	92.568	37.572	8.5508e-06	69.807	0.0011027	0.0010884	0.00028181	1237.8	1.2307e-05	1.1875e-05	1248.6	299.04	1.2319e-05	1.1777e-05	483.62	154.34	109.41	41.877	1.094e-05	69.707	-164.898	174.229	46.195	-160.501	-151.194	71.687	-160.491	-155.063	-142.191	6.552	-155.384	-152.414	-150.573	-144.309	-74.501	-147.181	-8191	255	
7238.200	1	1	0	0	0.25401	0.17215	0.052559	0.074748	0.1302	0.087295	0.32346	0.43584	0.28785	0.17324	0.12045	0.1423	0.1478	0.041245	0.076964	0.11666	-2.5542	-2.8167	-2.5458	-3.3042	-2.8438	-2.5354	-3.0583	-2.7917	-2.7542	-2.9208	-2.4938	-2.9896	-2.7667	-2.6646	-2.9083	-2.8979	-162.489	25.998	-70.285	159.644	-5.204	169.329	134.859	138.116	71.936	-73.484	82.787	137.736	112.531	61.472	-54.736	-169.019	0.00075671	0.00037411	0.00023251	872.42	7.7987e-06	6.7304e-06	1266.2	286.07	1.0027e-05	7.3404e-06	481.78	152.7	94.163	37.668	1.1697e-06	70.104	0.0011298	0.0010672	0.00027834	1287.4	1.2688e-05	1.1819e-05	1245.5	307.44	1.26e-05	1.1785e-05	484.21	160.17	111.08	42.104	1.0897e-05	71.684	-115.055	-135.027	-98.127	-162.068	101.001	22.217	-160.862	-155.697	-98.528	-87.969	-155.545	-151.735	-150.904	-144.604	-117.563	-147.091	-8191	255	
7238.319	1	1	0	0	0.060907	0.17094	0.18323	0.26527	0.084725	0.039308	0.078546	0.23373	0.043451	0.18957	0.15028	0.038258	0.33121	0.068656	0.10507	0.33146	-2.3625	-2.8	-2.5042	-2.8771	-2.6771	-2.5396	-3.1229	-2.6583	-2.7	-2.8979	-2.6521	-3.0542	-2.8042	-2.5708	-2.9875	-2.8187	-171.732	-34.393	-21.640	-148.894	133.963	48.893	122.995	162.104	-85.316	-29.683	116.847	-93.133	164.810	122.305	38.282	140.419	0.00052851	0.0011621	0.00041724	869.4	1.0215e-05	3.8392e-06	1265.4	287.31	5.4894e-06	1.0696e-05	485.3	153.07	94.184	37.479	6.5857e-06	70.005	0.0011463	0.001075	0.00028303	1360.5	1.281e-05	1.2085e-05	1258.8	315.65	1.2967e-05	1.2121e-05	492.92	164.64	112.36	42.523	1.1619e-05	73.385	-149.440	-11.242	-2.662	-160.371	-42.644	9.877	-160.789	-155.385	99.910	-74.996	-156.110	-151.967	-150.980	-145.113	-10.090	-146.951	-8191	255	
7238.415	1	1	0	0	0.25893	0.15539	0.098219	0.2659	0.099703	0.1887	0.37319	0.37651	0.017269	0.11478	0.23678	0.040481	0.33591	0.16143	0.11052	0.13388	-2.2479	-2.9042	-2.6583	-2.8937	-2.8	-2.3771	-2.9542	-2.7583	-2.7333	-3.0354	-2.5938	-2.8833	-3.0729	-2.5625	-2.7687	-2.8208	113.331	-140.551	107.311	55.521	147.182	88.544	112.967	158.478	-56.394	-10.505	111.439	-114.282	94.592	-73.250	-140.467	-123.193	0.00051059	0.0019007	0.00074005	883.97	1.4486e-05	1.9872e-05	1269.6	285.65	5.9462e-06	1.7358e-05	482.25	153.94	93.554	37.621	2.2058e-05	69.985	0.001165	0.0010781	0.00029809	1395.2	1.2619e-05	1.1946e-05	1272.3	318.58	1.2864e-05	1.1931e-05	501.42	166.17	111.52	42.414	1.2637e-05	74.425	-123.373	-41.448	100.203	-160.288	-5.663	-19.526	-160.905	-154.917	-12.663	-61.352	-156.235	-151.810	-150.257	-144.644	147.117	-147.144	-8191	255	
7238.511	1	1	0	0	0.23197	0.2764	0.1615	0.26995	0.11716	0.24015	0.13055	0.14279	0.26602	0.096212	0.30052	0.28581	0.43607	0.069903	0.1288	0.071722	-2.4292	-3.0917	-2.4167	-2.8542	-2.9667	-2.7792	-3.225	-2.8896	-2.6437	-3.1188	-2.8271	-2.9292	-2.8021	-2.8042	-3.0146	-2.9292	-102.825	134.100	27.932	-101.595	158.021	-151.431	104.228	164.912	-136.938	-92.318	114.774	111.405	183.995	43.196	49.096	106.615	0.00046269	0.00079126	0.00033597	894.33	1.0457e-05	3.8976e-06	1265.9	286.35	1.3123e-05	1.8199e-06	484.6	152.31	91.9	36.842	1.9256e-05	69.7	0.0011985	0.0011111	0.00033511	1452.3	1.3094e-05	1.2182e-05	1301	321.62	1.3086e-05	1.2101e-05	513.11	166.17	111.2	42.507	1.3767e-05	74.131	-131.108	-142.890	17.981	-161.032	-108.351	-164.278	-161.035	-155.222	-34.564	114.317	-156.353	-151.473	-150.602	-144.934	128.328	-146.568	-8191	255	
7238.607	1	1	0	0	0.23569	0.18422	0.16222	0.13378	0.19817	0.28395	0.16048	0.031273	0.061291	0.060724	0.1512	0.207	0.13069	0.33088	0.16612	0.20198	-2.175	-2.95	-2.5292	-2.6396	-2.9271	-2.3812	-2.9979	-2.8354	-2.55	-2.9938	-2.8417	-2.9458	-3.1375	-2.4521	-2.9688	-2.9875	-39.330	73.862	-116.798	43.435	27.537	133.557	123.048	138.646	165.716	107.082	28.500	-168.776	133.267	134.348	34.156	130.801	0.00071827	0.00057706	0.00038765	884.31	1.8149e-05	7.7877e-06	1263.9	283.36	1.7478e-05	1.0896e-05	479.95	152.57	93.771	37.406	1.0938e-05	69.24	0.0012103	0.0011363	0.00036097	1438.4	1.2938e-05	1.2486e-05	1305.6	316.56	1.2753e-05	1.2328e-05	516.17	164.34	110.14	42.972	1.3889e-05	73.079	-112.095	-140.981	-4.762	-161.077	48.755	123.028	-160.804	-155.117	12.406	94.536	-155.910	-151.767	-150.545	-145.038	-122.523	-147.032	-8191	255	
7238.728	1	1	0	0	0.23337	0.12984	0.093117	0.17459	0.053301	0.14405	0.10871	0.17243	0.20143	0.17368	0.32411	0.30639	0.29185	0.051913	0.23698	0.1245	-2.2521	-2.8375	-2.7146	-2.75	-3.1146	-2.7021	-2.925	-2.7521	-2.4958	-2.9896	-2.8292	-2.7729	-3.1333	-2.5792	-2.9354	-3.1229	45.160	81.492	32.846	110.030	-47.677	-20.640	10.333	-172.531	-51.137	-160.367	-64.256	124.489	88.524	-9.985	-7.392	-0.976	0.00068098	0.00066115	0.00055424	876.54	3.6447e-06	2.4605e-05	1258.5	282.87	1.5081e-05	2.1479e-05	480.37	151.02	92.003	36.926	1.5055e-05	69.383	0.0011456	0.0011724	0.00036105	1416.9	1.2538e-05	1.3535e-05	1318.8	316.55	1.2639e-05	1.3324e-05	515.03	163.24	108.59	43.745	1.3732e-05	72.208	-113.033	118.696	-142.453	-161.461	67.983	-133.280	-160.755	-155.352	-69.097	-157.597	-156.274	-152.452	-150.691	-145.058	2.090	-146.648	-8191	255	
7238.800	1	1	0	0	0.12774	0.094352	0.10904	0.15943	0.092554	0.2749	0.31462	0.064481	0.19944	0.21626	0.39261	0.19857	0.23172	0.2495	0.21403	0.20955	-2.1854	-2.8396	-2.9562	-2.4417	-3.0792	-2.7188	-2.8917	-2.8917	-2.5146	-2.9229	-2.8333	-2.7875	-2.8979	-2.8646	-2.5979	-2.9313	-136.807	-108.594	-107.977	66.693	185.256	81.597	105.502	161.444	80.288	-29.528	55.362	134.780	-139.116	182.590	153.021	132.158	0.00055503	0.0013301	0.00037725	884.9	4.2989e-06	2.4016e-05	1258.1	285.92	1.3827e-05	7.7216e-06	480.4	153.63	93.962	37.489	1.129e-05	69.779	0.0011082	0.0012079	0.00034402	1367.1	1.1826e-05	1.3408e-05	1294.8	310.5	1.2009e-05	1.3364e-05	506.64	161.98	108.57	44.206	1.3014e-05	71.634	-130.291	100.421	-59.694	-159.878	-156.312	-125.513	-160.759	-155.392	-82.646	38.614	-155.819	-151.602	-150.835	-144.852	-82.954	-146.528	-8191	255	
7238.896	1	1	0	0	0.039606	0.13974	0.11129	0.10027	0.12827	0.080015	0.15183	0.19155	0.045865	0.19957	0.34099	0.12638	0.23007	0.09014	0.046143	0.22277	-2.1458	-2.9479	-2.8729	-2.8	-2.8167	-2.8063	-2.8875	-2.9979	-2.6625	-2.8	-2.9188	-2.6312	-3.0333	-2.8542	-2.6125	-3.0812	-39.346	100.484	164.505	42.456	-34.382	-64.940	140.482	155.570	89.732	74.826	120.742	99.104	111.565	-33.368	-135.185	-162.023	0.00063061	0.0007241	0.0006484	875.29	7.5804e-06	1.8981e-05	1269.5	284.18	2.1178e-05	3.4936e-06	481.31	151.85	93.735	37.129	3.6229e-06	69.392	0.0011173	0.0012475	0.00033203	1358	1.2492e-05	1.4118e-05	1300.9	309.11	1.2781e-05	1.3612e-05	502.08	159.66	109.73	43.86	1.2522e-05	70.463	-164.560	-66.294	-156.440	-161.080	96.024	-13.037	-160.576	-154.812	-153.840	-165.773	-155.635	-152.098	-151.168	-144.256	-163.109	-147.038	-8191	255	
7238.992	1	1	0	0	0.11235	0.18192	0.023177	0.15895	0.40219	0.062275	0.28648	0.02001	0.22913	0.12444	0.26803	0.3297	0.2613	0.041286	0.21854	0.065041	-2.1875	-2.8063	-2.7292	-2.5	-3.0625	-2.7604	-3.0708	-3.2	-2.5458	-2.9125	-3.175	-2.9375	-3.1229	-2.725	-2.4417	-3.0563	-68.174	114.907	-35.545	164.048	91.597	164.276	148.591	112.399	92.144	-36.917	-168.108	83.075	98.307	-160.641	129.405	157.382	0.00092247	0.0009002	0.00072681	879.77	6.086e-06	4.8112e-06	1247.9	279.17	9.2365e-06	1.5019e-05	468.48	146.24	89.735	35.284	3.2475e-06	67.713	0.0011664	0.0012418	0.00032607	1339.4	1.3391e-05	1.4283e-05	1290.4	306.47	1.4091e-05	1.4268e-05	498.35	156.9	110.89	43.243	1.3031e-05	69.979	-161.960	185.346	-67.512	-160.639	-109.682	-163.569	-160.659	-154.810	169.789	11.987	-156.126	-151.487	-151.129	-144.588	28.020	-146.688	-8191	255	
7239.111	1	1	0	0	0.043918	0.097609	0.26519	0.046877	0.23551	0.27786	0.058686	0.12554	0.10679	0.0727	0.086725	0.11185	0.021083	0.033536	0.17852	0.13585	-2.3167	-2.6188	-2.8771	-2.5438	-2.9229	-2.9354	-2.6333	-2.9042	-2.8187	-2.8604	-2.9979	-2.8646	-2.9813	-2.9271	-2.8688	-3.0417	148.472	-102.602	11.657	36.607	157.362	67.123	130.430	120.328	71.496	24.677	-85.163	125.100	22.774	-97.314	88.814	-140.460	0.00047318	0.0023056	0.00015719	873.46	7.7745e-06	7.7845e-06	1238.7	274.53	8.3699e-06	1.2737e-05	460.17	144.35	87.538	35.365	1.2467e-05	67.938	0.0012703	0.0012512	0.00032797	1356.1	1.4211e-05	1.3877e-05	1271	304.25	1.4831e-05	1.4143e-05	492.16	158.4	113.43	43.549	1.3348e-05	72.204	-107.916	-87.925	35.849	-161.701	-101.769	-62.561	-160.765	-155.052	-150.887	8.310	-155.619	-151.958	-150.683	-144.501	-52.334	-146.691	-8191	255	
7239.207	1	1	0	0	0.39567	0.16384	0.11453	0.13562	0.11645	0.10036	0.10711	0.096009	0.032323	0.10387	0.11599	0.31353	0.13549	0.19919	0.25305	0.34963	-2.2188	-2.6667	-2.9125	-2.6229	-2.6437	-3.0042	-2.9604	-2.8667	-2.8333	-2.6875	-3.1083	-2.4729	-3	-2.9604	-2.575	-3.0375	104.284	-79.249	-169.469	-155.139	159.922	111.319	142.877	182.660	164.734	-57.809	-92.640	162.226	-45.356	128.621	50.316	-108.293	0.00055901	0.00092152	0.00081106	882.76	1.8297e-05	2.2686e-05	1244.8	275.94	2.1286e-05	1.4159e-05	463.98	146.03	89.053	35.713	1.1807e-05	68.751	0.0013808	0.0012943	0.0003334	1437.5	1.4848e-05	1.3782e-05	1270.5	309.94	1.4673e-05	1.3761e-05	487.63	161.64	112.62	43.029	1.26e-05	73.298	-118.121	31.060	-91.946	-161.885	-59.808	-86.003	-160.559	-155.124	39.212	-69.072	-155.611	-151.921	-151.446	-144.466	135.016	-147.419	-8191	255	
7239.303	1	1	0	0	0.030742	0.22918	0.13989	0.08008	0.14745	0.29422	0.17094	0.32918	0.17208	0.05944	0.10885	0.15705	0.13531	0.12607	0.10183	0.22354	-2.3187	-2.55	-2.9333	-2.45	-2.8187	-3.025	-2.6521	-3.0979	-2.8583	-2.35	-3.0708	-2.7833	-2.6542	-2.9313	-2.5583	-2.8875	-158.228	-130.536	-63.710	59.712	157.971	-113.948	134.466	116.978	-155.429	13.569	152.186	-103.330	109.984	185.876	170.324	-171.576	0.00035632	0.0012759	0.00024053	871.26	8.9634e-06	9.5662e-06	1241.8	272.16	1.2694e-05	5.6541e-06	455.51	144.38	86.783	34.597	1.7379e-05	66.956	0.0013184	0.0012479	0.00031841	1472.6	1.4327e-05	1.3412e-05	1267.9	313.58	1.4391e-05	1.3454e-05	483.36	162.03	110	41.736	1.288e-05	73.027	-105.687	11.959	171.890	-161.079	-61.793	37.630	-160.816	-155.094	-10.410	13.278	-155.839	-151.816	-150.547	-144.389	-155.891	-146.929	-8191	255	
7239.399	1	1	0	0	0.093224	0.033247	0.23774	0.050397	0.33306	0.12356	0.43914	0.12164	0.13114	0.0049546	0.095002	0.11127	0.28426	0.16508	0.075526	0.24045	-2.3729	-2.4896	-3.0625	-2.6208	-2.6937	-2.8542	-2.7438	-3.15	-2.7542	-2.575	-3.2979	-2.725	-2.6708	-3.1479	-2.5458	-2.8896	-147.787	123.610	-111.434	-17.930	-17.317	-37.500	111.829	146.427	75.277	60.354	-116.599	177.680	-164.179	2.180	-48.842	146.995	0.00036552	0.0020123	0.000624	872.47	7.0129e-06	2.2221e-05	1225.5	266.07	7.8979e-06	2.4379e-05	448.01	140.42	84.247	34.154	1.6096e-05	66.803	0.0012705	0.001201	0.00033308	1517.4	1.4543e-05	1.3639e-05	1275.7	313.31	1.4179e-05	1.311e-05	482.37	160.03	106.69	40.54	1.3183e-05	72.239	-83.555	-34.939	134.316	-160.221	106.695	90.042	-161.042	-155.172	-127.337	-38.520	-156.099	-151.993	-150.724	-143.898	-161.174	-146.595	-8191	255	
7239.496	1	1	0	0	0.12716	0.31542	0.28754	0.14932	0.11802	0.084049	0.41595	0.13837	0.038909	0.049343	0.1637	0.051679	0.089322	0.037721	0.10543	0.054967	-2.575	-2.5917	-2.8688	-2.9396	-2.5958	-3.0062	-2.6854	-2.9896	-2.9333	-2.4604	-2.9313	-2.9104	-2.6604	-2.9583	-2.6333	-2.9208	-92.650	-48.237	85.070	-85.409	-46.691	21.194	153.026	-138.737	61.545	21.623	139.876	100.932	103.956	115.229	-18.034	-132.554	0.00017267	0.0013777	0.00058571	871.77	1.21e-05	1.707e-05	1232.8	270.22	1.0972e-05	1.845e-05	462.37	143.85	88.014	34.976	1.8562e-05	67.599	0.0012002	0.0011069	0.0003295	1446.8	1.3261e-05	1.2368e-05	1282.8	310.25	1.3293e-05	1.2291e-05	493.81	158.78	107.05	40.973	1.3944e-05	72.47	-126.642	-169.438	85.818	-160.231	-36.876	-67.342	-161.470	-155.163	32.476	-157.748	-155.806	-151.421	-150.452	-144.718	-167.013	-146.461	-8191	255	
7239.592	1	1	0	0	0.28381	0.23922	0.16255	0.046386	0.049632	0.074644	0.25867	0.07064	0.19385	0.13948	0.18184	0.24393	0.048915	0.21801	0.24404	0.099026	-2.6583	-2.3396	-2.9667	-2.5563	-2.5729	-3.0187	-2.7146	-2.8917	-2.8604	-2.4437	-3.0354	-2.7917	-2.7083	-3.0021	-2.8937	-2.7625	-107.748	34.477	-119.057	-53.108	-27.824	-56.390	116.947	99.910	155.735	-8.339	149.863	173.957	43.192	-6.585	-102.389	-30.500	0.00018569	0.0012032	0.00039368	867.88	1.9741e-05	1.7655e-05	1244.2	274.13	1.9795e-06	2.5747e-06	466.19	145.85	88.031	35.722	1.167e-05	69.332	0.0011738	0.0011158	0.0003423	1398.2	1.2334e-05	1.178e-05	1287.5	305.05	1.2368e-05	1.2318e-05	499.52	157.52	104.85	40.778	1.3115e-05	70.845	-107.635	93.773	97.757	-160.142	58.837	-22.870	-161.035	-154.998	43.941	175.475	-156.321	-151.281	-150.754	-144.274	6.153	-146.319	-8191	255	
#DATA ENDS
