BOXY.EXE: ISS Imagent and Oximeter Data Acquisition Program Version 0.80
Ascii Record File

#ACQ INFORMATION
2  Detector Channels 
16  External MUX Channels 
1  Auxiliary Channels 
5000  Waveform (CCF) Frequency (Hz)
1  Waveforms Skipped 
30  Waveforms Averaged 
1  Cycles Averaged 
16  Acquisitions per Waveform 
10.0806  Updata Rate (Hz) 

#FILE INFORMATION
TRUE -- External MUX Channel results are PARSED.
FALSE -- AC DC and Phase are NOT grouped.
TRUE -- Companion Program Settings File CREATED.
FALSE -- AC data not excluded
FALSE -- DC data not excluded
FALSE -- Phase data not excluded
FALSE -- Auxillary Chn. data not excluded
Tab delimiters

#CALIBRATION STATE
TRUE -- Waveform Calibration Values APPLIED.


#AUX CALIBRATION VALUES
Val Type	aux-1	

Term	1.0000e+00	
Factor	0.0000e+00	


#WF CALIBRATION VALUES
A = Detector Channel
Val Type	A-AC1	A-AC2	A-AC3	A-AC4	A-AC5	A-AC6	A-AC7	A-AC8	A-AC9	A-AC10	A-AC11	A-AC12	A-AC13	A-AC14	A-AC15	A-AC16	A-DC1	A-DC2	A-DC3	A-DC4	A-DC5	A-DC6	A-DC7	A-DC8	A-DC9	A-DC10	A-DC11	A-DC12	A-DC13	A-DC14	A-DC15	A-DC16	A-Ph1	A-Ph2	A-Ph3	A-Ph4	A-Ph5	A-Ph6	A-Ph7	A-Ph8	A-Ph9	A-Ph10	A-Ph11	A-Ph12	A-Ph13	A-Ph14	A-Ph15	A-Ph16	

Term	0.00000e+00	0.00000e+00	0.00000e+00	0.00000e+00	0.00000e+00	0.00000e+00	0.00000e+00	0.00000e+00	0.00000e+00	0.00000e+00	0.00000e+00	0.00000e+00	0.00000e+00	0.00000e+00	0.00000e+00	0.00000e+00	0.00000e+00	0.00000e+00	0.00000e+00	0.00000e+00	0.00000e+00	0.00000e+00	0.00000e+00	0.00000e+00	0.00000e+00	0.00000e+00	0.00000e+00	0.00000e+00	0.00000e+00	0.00000e+00	0.00000e+00	0.00000e+00	0.00000e+00	0.00000e+00	0.00000e+00	0.00000e+00	0.00000e+00	0.00000e+00	0.00000e+00	0.00000e+00	0.00000e+00	0.00000e+00	0.00000e+00	0.00000e+00	0.00000e+00	0.00000e+00	0.00000e+00	0.00000e+00	
Factor	1.00000e+00	1.00000e+00	1.00000e+00	1.00000e+00	1.00000e+00	1.00000e+00	1.00000e+00	1.00000e+00	1.00000e+00	1.00000e+00	1.00000e+00	1.00000e+00	1.00000e+00	1.00000e+00	1.00000e+00	1.00000e+00	1.00000e+00	1.00000e+00	1.00000e+00	1.00000e+00	1.00000e+00	1.00000e+00	1.00000e+00	1.00000e+00	1.00000e+00	1.00000e+00	1.00000e+00	1.00000e+00	1.00000e+00	1.00000e+00	1.00000e+00	1.00000e+00	X	X	X	X	X	X	X	X	X	X	X	X	X	X	X	X	

B = Detector Channel
Val Type	B-AC1	B-AC2	B-AC3	B-AC4	B-AC5	B-AC6	B-AC7	B-AC8	B-AC9	B-AC10	B-AC11	B-AC12	B-AC13	B-AC14	B-AC15	B-AC16	B-DC1	B-DC2	B-DC3	B-DC4	B-DC5	B-DC6	B-DC7	B-DC8	B-DC9	B-DC10	B-DC11	B-DC12	B-DC13	B-DC14	B-DC15	B-DC16	B-Ph1	B-Ph2	B-Ph3	B-Ph4	B-Ph5	B-Ph6	B-Ph7	B-Ph8	B-Ph9	B-Ph10	B-Ph11	B-Ph12	B-Ph13	B-Ph14	B-Ph15	B-Ph16	

Term	0.00000e+00	0.00000e+00	0.00000e+00	0.00000e+00	0.00000e+00	0.00000e+00	0.00000e+00	0.00000e+00	0.00000e+00	0.00000e+00	0.00000e+00	0.00000e+00	0.00000e+00	0.00000e+00	0.00000e+00	0.00000e+00	0.00000e+00	0.00000e+00	0.00000e+00	0.00000e+00	0.00000e+00	0.00000e+00	0.00000e+00	0.00000e+00	0.00000e+00	0.00000e+00	0.00000e+00	0.00000e+00	0.00000e+00	0.00000e+00	0.00000e+00	0.00000e+00	2.53724e+01	-1.25825e+02	-1.32423e+02	-1.86157e+02	-5.31231e+01	-7.74207e+01	-1.59021e+02	-1.62015e+02	-9.81342e+01	-6.42266e+01	-1.73719e+02	-1.69925e+02	-1.79918e+02	-1.77120e+02	-6.73402e+01	-1.50188e+02	
Factor	4.43643e-05	1.31752e-04	3.84766e-05	6.00296e-01	1.09162e-06	1.23883e-06	1.58776e-01	4.81384e-02	1.60025e-06	1.38813e-06	8.39062e-02	2.75674e-02	2.39658e-02	9.07276e-03	1.49700e-06	1.30833e-02	1.61200e-06	1.67637e-06	4.65165e-07	2.83808e-01	1.83225e-08	1.83332e-08	7.47258e-02	2.41391e-02	1.82575e-08	1.83873e-08	4.04860e-02	1.32768e-02	1.20086e-02	4.53932e-03	1.82600e-08	6.30792e-03	X	X	X	X	X	X	X	X	X	X	X	X	X	X	X	X	



#DISTANCE SETTINGS
A = Detector Channel
A-1	A-2	A-3	A-4	A-5	A-6	A-7	A-8	A-9	A-10	A-11	A-12	A-13	A-14	A-15	A-16	

2.5000e+00	3.0000e+00	2.5000e+00	3.0000e+00	2.0000e+00	3.0000e+00	1.5000e+00	3.0000e+00	3.0000e+00	3.0000e+00	3.0000e+00	3.0000e+00	3.0000e+00	3.0000e+00	1.5000e+00	3.0000e+00	

B = Detector Channel
B-1	B-2	B-3	B-4	B-5	B-6	B-7	B-8	B-9	B-10	B-11	B-12	B-13	B-14	B-15	B-16	

1.0000e+01	1.0000e+01	1.0000e+01	1.4400e+00	1.0000e+01	1.0000e+01	1.5100e+00	1.9400e+00	1.0000e+01	1.0000e+01	1.9900e+00	2.4900e+00	2.4100e+00	2.9000e+00	1.0000e+01	2.9800e+00	




#DATA BEGINS
time	group	step	mark	flag	A-AC1	A-AC2	A-AC3	A-AC4	A-AC5	A-AC6	A-AC7	A-AC8	A-AC9	A-AC10	A-AC11	A-AC12	A-AC13	A-AC14	A-AC15	A-AC16	A-DC1	A-DC2	A-DC3	A-DC4	A-DC5	A-DC6	A-DC7	A-DC8	A-DC9	A-DC10	A-DC11	A-DC12	A-DC13	A-DC14	A-DC15	A-DC16	A-Ph1	A-Ph2	A-Ph3	A-Ph4	A-Ph5	A-Ph6	A-Ph7	A-Ph8	A-Ph9	A-Ph10	A-Ph11	A-Ph12	A-Ph13	A-Ph14	A-Ph15	A-Ph16	B-AC1	B-AC2	B-AC3	B-AC4	B-AC5	B-AC6	B-AC7	B-AC8	B-AC9	B-AC10	B-AC11	B-AC12	B-AC13	B-AC14	B-AC15	B-AC16	B-DC1	B-DC2	B-DC3	B-DC4	B-DC5	B-DC6	B-DC7	B-DC8	B-DC9	B-DC10	B-DC11	B-DC12	B-DC13	B-DC14	B-DC15	B-DC16	B-Ph1	B-Ph2	B-Ph3	B-Ph4	B-Ph5	B-Ph6	B-Ph7	B-Ph8	B-Ph9	B-Ph10	B-Ph11	B-Ph12	B-Ph13	B-Ph14	B-Ph15	B-Ph16	aux-1	digaux	

3311.605	1	1	0	256	0.084756	0.25711	0.028809	0.077155	0.070665	0.14297	0.14989	0.33207	0.17498	0.29055	0.20145	0.1015	0.50316	0.14891	0.40134	0.04817	-2.5521	-2.5938	-2.6125	-2.9625	-2.6083	-2.6146	-2.9313	-2.5187	-2.6417	-2.6792	-2.5979	-2.9062	-2.4688	-2.7938	-2.8083	-2.4875	36.593	-84.766	207.511	-81.686	217.560	-44.608	-92.570	183.852	66.594	222.836	225.427	233.452	211.889	197.306	196.143	235.238	0.00054043	0.00030626	0.00011435	1048.3	5.7698e-06	7.8997e-06	1117.9	313.84	4.7242e-06	3.1421e-06	367.79	122.44	106.31	39.447	6.3432e-06	52.65	0.00037328	0.00034458	8.792e-05	875.74	4.0559e-06	3.7544e-06	939.64	265.05	4.0589e-06	3.6264e-06	308.54	103.95	90.629	33.806	3.2831e-06	44.732	-4.148	-89.287	-13.148	-92.647	-20.600	63.320	-93.679	-87.407	-25.321	-8.976	-89.761	-85.781	-82.977	-77.881	-54.984	-80.801	-8191	255	
3311.725	1	1	0	0	0.092315	0.1775	0.047521	0.22177	0.12713	0.21428	0.2516	0.14229	0.31386	0.046815	0.25964	0.1515	0.10478	0.36222	0.1954	0.20448	-2.2896	-2.7208	-2.3792	-2.7396	-2.6	-2.7625	-3.0875	-2.5375	-2.6646	-2.8979	-2.4146	-2.6979	-2.7125	-2.3917	-2.8958	-2.5292	232.832	166.554	53.676	182.406	49.996	195.798	167.890	216.775	189.232	134.708	-3.854	2.538	-29.705	234.194	194.799	183.537	0.00039911	0.00095493	0.00021208	1041.6	2.3925e-06	7.5024e-07	1104.6	313.18	1.3531e-05	7.3973e-06	365.57	123.27	106.37	39.997	5.1327e-06	52.928	0.00035574	0.00031726	8.2728e-05	877.56	3.9498e-06	3.5301e-06	930.84	263.98	3.9724e-06	3.4961e-06	307.56	104.41	90.716	34.03	3.3061e-06	44.923	4.499	-46.528	-12.514	-92.824	-33.626	-64.960	-93.841	-87.183	29.701	30.512	-89.961	-86.053	-83.577	-78.025	49.213	-81.101	-8191	255	
3311.821	1	1	0	0	0.2755	0.15881	0.19702	0.18927	0.33704	0.29192	0.28376	0.21742	0.2052	0.16827	0.10573	0.095863	0.16136	0.12951	0.079152	0.29453	-2.1771	-2.6896	-2.4125	-2.9458	-2.6437	-2.5958	-3.0208	-2.4521	-2.7854	-2.7146	-2.6354	-2.8896	-2.9562	-2.6708	-2.8167	-2.625	-24.749	228.908	209.746	241.254	-82.454	204.486	190.920	227.662	67.560	-34.319	173.729	44.566	41.243	136.194	-45.583	156.434	0.00044685	0.00061533	0.00035103	1052.4	9.2405e-06	1.2036e-05	1113.7	315.47	3.6676e-06	1.0512e-05	368.59	122.82	107.28	39.668	1.4307e-06	53.403	0.00036019	0.00031947	8.4978e-05	886.78	3.8886e-06	3.5169e-06	933.6	265.2	3.7948e-06	3.443e-06	308.47	104.75	90.786	33.878	3.2729e-06	45.214	8.309	-34.117	-33.902	-92.870	87.510	87.068	-94.089	-87.516	1.765	56.819	-89.773	-85.858	-82.877	-78.033	77.178	-81.108	-8191	255	
3311.918	1	1	0	0	0.18049	0.10723	0.28486	0.022902	0.20451	0.083066	0.34034	0.084583	0.10634	0.11373	0.28367	0.17629	0.033205	0.26975	0.17057	0.068326	-2.2583	-2.8312	-2.4479	-2.9979	-2.6542	-2.3458	-3.0667	-2.6417	-2.6292	-2.8104	-2.6208	-2.8	-2.7479	-2.5146	-3.0021	-2.6229	228.418	-63.587	113.666	-14.348	156.183	231.716	216.725	181.786	67.406	199.791	30.659	225.892	-48.929	222.945	8.246	168.911	0.00018191	0.00077344	0.00018904	1038.5	7.2967e-06	1.5962e-07	1119.4	313.3	1.2581e-05	6.4493e-06	371.87	126.18	107.21	40.148	6.4588e-06	53.885	0.00032516	0.00028525	8.3009e-05	879.31	3.4746e-06	3.1879e-06	940.16	265.28	3.5951e-06	3.1901e-06	312.78	106.46	91.249	34.194	3.5605e-06	45.89	-22.274	230.344	7.361	-92.594	61.718	37.631	-93.600	-87.135	15.147	80.245	-89.525	-85.985	-82.834	-78.220	190.712	-81.154	-8191	255	
3312.014	1	1	0	0	0.3513	0.14494	0.051501	0.031814	0.11625	0.24058	0.27244	0.28174	0.075431	0.11802	0.096969	0.11021	0.34645	0.06498	0.21782	0.11611	-2.1604	-2.8854	-2.4083	-2.7271	-2.6375	-2.5604	-2.9562	-2.7458	-2.6396	-2.9729	-2.7062	-2.6104	-2.7313	-2.7375	-2.8583	-2.6896	29.935	237.632	56.957	43.276	-33.021	154.147	-81.247	203.335	-25.417	162.546	-99.256	217.826	202.576	109.733	5.106	-98.500	0.00037402	0.00050247	0.0001184	1055	5.2494e-06	3.8332e-06	1120.9	315.49	2.6448e-06	3.0081e-06	371.27	125.57	107.66	40.226	4.8516e-06	53.507	0.00032797	0.00029753	9.4976e-05	884.86	3.5543e-06	3.301e-06	944.77	266.68	3.4472e-06	3.3369e-06	312.92	106.26	91.381	34.185	3.949e-06	45.461	30.116	-7.553	58.213	-92.876	35.864	61.553	-93.787	-87.450	60.472	27.177	-89.830	-85.401	-83.232	-78.103	-43.291	-81.119	-8191	255	
3312.110	1	1	0	0	0.025925	0.090635	0.14631	0.3894	0.23112	0.088988	0.1022	0.11459	0.19038	0.18441	0.15011	0.062541	0.041066	0.15983	0.29458	0.18802	-2.1854	-2.8271	-2.4562	-2.6979	-2.8792	-2.5354	-2.8438	-2.8854	-2.6562	-2.9292	-2.6854	-2.6937	-2.7667	-2.5667	-2.7979	-2.8583	196.155	62.658	91.187	211.871	155.564	-26.191	181.754	207.542	-23.201	181.697	185.012	218.442	103.794	-66.028	141.399	-80.891	0.00038022	0.00038068	0.00028394	1046.9	3.0775e-06	7.1416e-06	1119.3	314.37	7.1396e-06	2.2081e-06	374.38	125.48	108.85	40.519	9.0459e-06	53.423	0.00031586	0.00030156	9.777e-05	877.01	3.3228e-06	3.306e-06	943.69	266.26	3.2989e-06	3.3269e-06	314.43	106.47	91.577	34.361	3.9744e-06	45.472	6.152	-83.958	-41.644	-92.764	96.000	-39.714	-93.994	-87.302	-9.453	163.851	-89.492	-86.235	-83.092	-78.542	-37.296	-81.262	-8191	255	
3312.206	1	1	0	0	0.3611	0.054999	0.032523	0.16423	0.074755	0.15964	0.10234	0.18498	0.32009	0.056676	0.22298	0.16958	0.10738	0.22255	0.073332	0.26868	-2.0521	-2.7896	-2.7396	-2.5104	-2.8875	-2.5625	-2.8688	-2.925	-2.5708	-2.8729	-2.6333	-2.7292	-3.0042	-2.6021	-2.7792	-2.8521	41.387	107.148	232.639	66.623	3.792	-39.363	139.193	-101.364	-6.607	-24.267	160.634	207.409	112.112	179.931	245.607	63.834	0.0005049	0.00017548	2.5438e-05	1052	7.8773e-06	1.0885e-06	1127.9	315.88	8.1582e-07	2.9717e-06	372.7	125.89	108.98	40.5	4.2151e-06	54.092	0.00030744	0.00032392	0.00010367	881.99	3.3287e-06	3.6944e-06	949.9	267.97	3.3774e-06	3.6539e-06	316.02	107	91.965	34.503	3.9732e-06	45.924	0.072	-19.359	129.303	-92.138	102.019	-51.269	-93.860	-87.109	253.298	117.768	-89.595	-85.626	-83.337	-78.160	39.079	-81.300	-8191	255	
3312.325	1	1	0	0	0.25358	0.14921	0.13997	0.12428	0.12029	0.16092	0.24178	0.29126	0.25424	0.065543	0.14354	0.23425	0.064591	0.043017	0.094059	0.018224	-2.0646	-2.7479	-2.4771	-2.6583	-2.8063	-2.4604	-2.7354	-2.9125	-2.3917	-2.7646	-2.7271	-2.6437	-2.9896	-2.8583	-2.6937	-2.975	-74.354	222.943	136.095	-60.241	49.131	83.479	164.292	216.291	23.299	219.204	-70.027	83.407	215.676	-46.027	-26.968	235.240	0.00040982	0.00091363	0.00020178	1048.8	3.6202e-06	7.1527e-07	1124.5	316.87	1.2494e-05	2.6152e-06	375.17	127.47	108.79	40.273	5.774e-06	53.764	0.00029376	0.00033777	9.552e-05	872.53	3.1709e-06	3.7269e-06	949.54	267.41	3.245e-06	3.8652e-06	315.89	107.37	92.24	34.552	3.7349e-06	45.491	7.446	-4.200	-15.673	-92.200	185.426	181.932	-93.820	-87.251	3.419	66.706	-89.696	-85.773	-82.987	-78.478	34.849	-81.175	-8191	255	
3312.421	1	1	0	0	0.052167	0.11386	0.13974	0.17342	0.096929	0.099758	0.29051	0.15388	0.22713	0.12121	0.14602	0.23515	0.15976	0.040517	0.16019	0.15392	-1.9583	-2.7667	-2.7438	-2.6917	-2.9417	-2.5958	-2.7125	-2.8167	-2.4583	-2.8833	-2.7646	-2.6562	-2.9333	-2.7125	-2.6688	-2.8667	-97.861	132.294	56.386	254.263	193.667	92.169	148.469	203.604	64.581	22.852	89.835	-99.467	229.961	-100.363	101.346	236.247	0.00049985	0.00077394	0.000163	1041.5	3.5155e-06	5.0494e-06	1116.9	314.71	2.163e-06	1.3149e-05	373.31	124.07	106.81	39.751	7.8993e-06	53.34	0.00031622	0.00037058	9.3685e-05	873.77	3.553e-06	4.1443e-06	941.85	265.28	3.6148e-06	4.0774e-06	313.81	105.37	91.053	34.242	3.5297e-06	45.368	-6.870	-29.683	4.198	-92.304	-68.294	99.888	-93.823	-87.404	-62.731	91.796	-89.581	-85.673	-83.657	-77.958	7.020	-81.248	-8191	255	
3312.517	1	1	0	0	0.12948	0.031254	0.092642	0.31936	0.11721	0.28689	0.20736	0.15947	0.049512	0.28546	0.26715	0.047934	0.10673	0.17085	0.10233	0.020661	-1.8521	-2.8542	-2.6354	-2.4896	-2.8063	-2.5021	-2.5458	-2.8896	-2.5583	-2.8042	-2.6708	-2.4938	-2.7792	-2.6937	-2.6729	-2.9979	208.038	-10.982	158.712	14.437	-72.013	163.036	-35.696	-68.617	-64.177	-30.318	223.488	-20.607	101.165	142.886	118.964	227.065	0.00059287	0.00016543	0.00024002	1044.1	6.2966e-06	6.9797e-06	1120.1	315.08	6.0365e-06	4.6511e-06	374.9	126.26	109.36	40.562	1.8453e-06	54.181	0.00033669	0.00036319	9.0456e-05	871.79	3.6503e-06	3.9547e-06	944.72	265.73	3.7935e-06	4.0083e-06	314.78	106.89	92.214	34.599	3.486e-06	45.899	3.077	-104.931	17.461	-92.439	53.424	231.284	-93.830	-87.453	-8.857	8.615	-89.125	-85.502	-82.915	-78.137	-23.147	-81.185	-8191	255	
3312.589	1	1	0	0	0.089392	0.090106	0.28235	0.079605	0.27536	0.034002	0.28704	0.30089	0.035744	0.18128	0.13677	0.17205	0.19088	0.077802	0.30229	0.31125	-2.2062	-2.7146	-2.7562	-2.4229	-2.8563	-2.7146	-2.6167	-2.9875	-2.7229	-2.4625	-2.7875	-2.4896	-2.7854	-2.7438	-2.4417	-2.8896	-68.042	20.198	-59.292	79.516	75.774	242.748	230.572	160.476	222.651	-60.165	233.984	124.331	192.884	248.883	254.212	235.056	0.00060786	0.00035604	0.00024988	1045	1.2702e-06	4.8441e-06	1128.3	316.84	4.0725e-06	1.0253e-05	375.36	127.09	109.74	40.793	4.5495e-06	54.45	0.00037035	0.00036683	9.0759e-05	878.24	4.1144e-06	3.9314e-06	950.45	268.05	4.1559e-06	4.0023e-06	316.69	107.9	92.999	34.829	3.5882e-06	46.196	-33.643	-69.660	-42.644	-92.593	210.769	37.387	-94.104	-87.402	4.371	-26.212	-89.323	-85.437	-83.270	-78.317	157.602	-81.226	-8191	255	
3312.709	1	1	0	0	0.17041	0.19845	0.16623	0.13911	0.15857	0.14566	0.32049	0.20035	0.24683	0.26246	0.25877	0.35169	0.087195	0.16017	0.27936	0.17847	-2.1542	-2.5771	-2.8187	-2.3542	-2.7438	-2.7521	-2.5125	-2.9771	-2.3208	-2.5417	-2.8229	-2.4313	-2.7062	-2.7521	-2.4625	-2.8812	-73.277	146.148	-66.865	234.646	166.939	-53.461	234.191	253.478	-45.874	94.117	218.901	195.876	-48.491	164.360	-45.552	121.670	0.00044682	0.00054186	0.00014846	1046.2	7.9492e-06	4.3246e-06	1127.5	318.7	4.0259e-06	9.5182e-06	369.93	126.2	108.81	40.138	8.9121e-06	53.676	0.00039944	0.00035875	9.1913e-05	880.69	4.2954e-06	3.9203e-06	948.36	269.51	4.5097e-06	4.0246e-06	313.46	107.23	92.486	34.508	3.7277e-06	45.761	2.134	-37.645	70.441	-93.764	62.668	-21.087	-93.424	-87.228	24.245	39.712	-89.576	-85.940	-83.532	-78.505	64.461	-81.507	-8191	255	
3312.806	1	1	0	0	0.083814	0.030664	0.1405	0.1876	0.016014	0.16917	0.26735	0.33067	0.13082	0.25076	0.24714	0.23487	0.19188	0.32961	0.32616	0.32211	-2.1375	-2.5521	-2.7458	-2.6083	-2.7354	-2.7812	-2.4	-3.1688	-2.3688	-2.5729	-2.95	-2.6292	-2.7146	-2.9771	-2.3312	-2.9417	125.852	-87.499	214.998	-53.493	1.909	183.746	226.445	178.129	-55.143	59.506	234.654	228.207	-95.688	245.027	123.472	222.619	0.00042104	0.00093717	0.00017042	1054.6	1.0828e-05	4.1646e-06	1119.3	315.61	1.5256e-05	1.3794e-05	371.4	127.76	108.03	40.478	1.1136e-06	54.037	0.00040561	0.00036532	9.2334e-05	887.47	4.4086e-06	4.0017e-06	942.52	268	4.4053e-06	3.8933e-06	313.82	108.21	92.209	34.655	3.816e-06	46.141	4.837	-60.827	-94.683	-92.474	24.550	13.046	-93.730	-87.333	15.390	55.060	-89.548	-85.930	-83.641	-78.687	-12.348	-81.278	-8191	255	
3312.902	1	1	0	0	0.12361	0.10241	0.22903	0.097773	0.3554	0.12182	0.20619	0.2556	0.11074	0.14239	0.25411	0.092247	0.28612	0.16853	0.09379	0.069569	-2.2354	-2.5458	-2.9667	-2.5229	-2.7083	-2.7396	-2.4521	-2.8812	-2.7667	-2.4188	-2.9521	-2.5938	-2.6354	-2.8646	-2.4896	-2.7792	245.555	-86.560	239.812	14.286	87.260	78.473	-79.054	144.320	-1.252	242.542	-77.653	193.519	216.309	-63.216	235.165	12.196	0.00050118	0.00060764	0.00015198	1046.1	4.1046e-06	2.6694e-06	1121.5	314.07	1.2981e-05	5.6449e-06	371.89	127.61	108.35	40.788	5.1871e-06	53.954	0.0004026	0.00036612	9.8205e-05	888.91	4.3759e-06	3.9563e-06	945.98	267.12	4.3306e-06	4.0101e-06	314.29	108.14	92.528	34.806	4.3009e-06	46.469	68.714	-46.558	-46.853	-92.706	9.035	55.925	-93.413	-87.525	-2.941	56.747	-89.613	-85.803	-83.260	-78.518	44.320	-81.005	-8191	255	
3312.998	1	1	0	0	0.12796	0.39332	0.25701	0.16025	0.16637	0.16902	0.32472	0.19215	0.32667	0.10862	0.085029	0.18911	0.31196	0.11907	0.16682	0.22552	-2.225	-2.4708	-2.7875	-2.4521	-2.7562	-2.6833	-2.7146	-2.9458	-2.4396	-2.3042	-2.9375	-2.6792	-2.7562	-3.0083	-2.4604	-2.9479	80.792	215.159	225.430	-82.715	-94.929	135.729	144.034	130.691	212.571	-54.406	-63.044	217.519	208.587	238.879	-80.849	131.544	0.00017383	0.00037424	0.00011852	1045.4	4.4652e-06	5.8477e-06	1107.4	313.55	1.091e-05	7.5251e-06	371.93	125.68	107.84	40.383	6.0118e-06	53.449	0.00041957	0.00038776	0.00011848	901.05	4.6639e-06	4.2222e-06	943.27	267.07	4.7661e-06	4.4598e-06	315	107.83	91.925	34.608	5.116e-06	46.098	1.482	-66.681	189.813	-92.128	0.986	39.031	-93.913	-87.533	-32.848	70.375	-90.115	-85.816	-83.421	-78.403	105.897	-81.470	-8191	255	
3313.094	1	1	0	0	0.034778	0.12529	0.10118	0.10101	0.21316	0.20888	0.051239	0.047247	0.09918	0.042025	0.32994	0.076504	0.098602	0.30388	0.013821	0.14367	-2.5375	-2.3167	-2.9333	-2.5333	-2.4958	-2.9062	-2.7	-2.8458	-2.7458	-2.5646	-3.0312	-2.6979	-2.4979	-2.9271	-2.7521	-2.7292	97.966	212.457	98.347	240.167	232.226	27.629	253.080	178.165	50.885	211.585	-94.327	136.536	141.375	250.350	160.952	190.015	0.00054212	0.00058362	0.00017127	1035.3	7.5077e-06	8.0625e-06	1096.5	307.38	1.0855e-05	9.9689e-06	359.05	122.68	104.76	39.287	4.4382e-06	52.244	0.00043991	0.00041657	0.00013428	894.39	4.9376e-06	4.5481e-06	935.13	262.99	4.8676e-06	4.6827e-06	306.47	104.83	89.611	33.859	5.5217e-06	44.941	-10.703	-3.817	-14.276	-92.614	201.801	33.414	-93.526	-87.490	-26.666	-15.875	-89.450	-85.998	-83.020	-78.122	182.176	-81.231	-8191	255	
3313.213	1	1	0	0	0.18119	0.25889	0.10882	0.080952	0.032948	0.058913	0.14737	0.07468	0.36003	0.28611	0.28878	0.18109	0.081959	0.057207	0.082982	0.28333	-2.3542	-2.4188	-2.6479	-2.5604	-2.5396	-2.8125	-2.7604	-2.5563	-2.8063	-2.4667	-2.7812	-2.7438	-2.6271	-3.0271	-2.4792	-2.7229	178.909	-93.025	-42.567	219.300	-69.639	-33.746	182.476	214.340	66.181	-68.919	215.978	152.802	253.682	-43.623	103.563	207.761	8.0024e-05	0.00015091	0.00013178	1023.9	1.1926e-05	2.3756e-06	1097.8	306.19	7.3431e-06	8.5246e-06	360.88	122.98	106.06	39.578	1.3859e-05	52.837	0.00044193	0.00043622	0.00014166	885.4	4.805e-06	4.9098e-06	931.62	260.9	4.8818e-06	4.9578e-06	309.21	105.38	90.222	34.243	5.6914e-06	45.495	-22.876	-76.773	87.335	-92.481	52.381	166.827	-93.926	-87.237	-28.835	-22.678	-89.342	-85.577	-83.690	-78.705	18.256	-81.224	-8191	255	
3313.286	1	1	0	0	0.12899	0.20631	0.25328	0.2371	0.21278	0.1389	0.32335	0.25509	0.06791	0.28488	0.13098	0.23223	0.15829	0.19314	0.2133	0.22875	-2.4354	-2.2521	-2.5042	-2.7	-2.5917	-2.8354	-2.5979	-2.6271	-2.7271	-2.45	-2.7562	-2.6479	-2.4125	-2.9396	-2.5958	-2.7417	14.944	-85.800	96.944	133.967	-59.094	7.717	178.057	200.984	-75.829	214.145	-45.530	202.351	207.696	-87.719	-41.289	205.392	0.0002847	0.00056858	0.0001983	1035.3	1.7941e-06	6.2451e-06	1098.8	309.83	6.2311e-06	6.694e-06	362.53	123.66	105.51	39.643	4.6365e-06	53.164	0.00043724	0.00046744	0.00013956	886.44	4.5784e-06	5.154e-06	935.36	262.26	4.6485e-06	5.3173e-06	309.69	105.51	90.13	34.258	5.5604e-06	45.532	-62.068	15.822	-67.194	-93.143	-72.706	122.505	-93.887	-87.370	77.715	25.479	-89.946	-86.212	-83.005	-78.172	-46.349	-81.221	-8191	255	
3313.405	1	1	0	0	0.10085	0.21441	0.28014	0.23378	0.1956	0.16302	0.58121	0.30391	0.1346	0.20018	0.18836	0.17672	0.33285	0.24169	0.11342	0.12213	-2.3771	-2.6292	-2.55	-2.6437	-2.3563	-2.7188	-2.6354	-2.6042	-2.8667	-2.6	-2.8812	-2.9354	-2.4313	-3.1188	-2.6896	-2.5938	110.037	202.061	52.216	240.398	135.787	50.934	172.930	-90.738	81.901	36.289	171.060	200.026	216.480	143.544	113.844	87.482	0.000445	0.00064092	0.00025968	1033.5	5.2933e-06	7.8669e-06	1091.9	302.59	7.4129e-06	7.5279e-06	355.98	121.3	104.25	38.95	2.3066e-05	51.981	0.00044406	0.00052202	0.00014018	886.03	4.8451e-06	5.6692e-06	928.15	258.52	4.7708e-06	5.6847e-06	304.29	103.27	88.915	33.759	5.0028e-06	44.532	11.404	-40.945	235.795	-92.469	31.751	221.158	-93.948	-87.432	65.601	92.324	-89.802	-85.572	-83.594	-77.651	22.621	-81.196	-8191	255	
3313.501	1	1	0	0	0.20888	0.083399	0.10804	0.21242	0.28845	0.17478	0.13707	0.22964	0.43226	0.1868	0.18706	0.19867	0.18202	0.22108	0.20804	0.031387	-2.4313	-2.6667	-2.7167	-2.8604	-2.3563	-2.775	-2.7625	-2.5583	-2.9	-2.5896	-2.5792	-2.9167	-2.4792	-2.7125	-2.5563	-2.6813	-13.739	58.428	209.964	-69.843	-85.480	179.268	156.688	227.029	218.101	-65.039	-102.868	-66.635	-99.153	-91.497	194.559	249.468	0.00025544	0.00040216	0.00063397	1018.2	2.4791e-06	1.0417e-05	1086.9	304.82	6.9386e-06	5.9263e-06	354.85	119.87	103.31	39.161	2.9697e-06	52.096	0.00043064	0.00050297	0.00012435	871.3	4.8119e-06	5.424e-06	921.68	258.63	4.7793e-06	5.4662e-06	302.34	102.58	88.418	33.652	4.5588e-06	44.431	44.251	221.832	-41.252	-92.685	148.647	11.721	-93.922	-87.183	-86.190	97.401	-89.764	-85.647	-83.161	-78.143	173.553	-81.163	-8191	255	
3313.598	1	1	0	0	0.10193	0.25937	0.16297	0.13082	0.064302	0.056131	0.17137	0.27491	0.262	0.098189	0.21824	0.087207	0.061497	0.19434	0.081173	0.10363	-2.4521	-2.6854	-2.3708	-2.8542	-2.4792	-2.6625	-2.9437	-2.6312	-2.7521	-2.6167	-2.7188	-2.9875	-2.3521	-2.7854	-2.8917	-2.3625	12.097	-88.610	16.580	207.449	49.353	226.654	-29.834	197.350	-1.255	-74.380	180.473	254.222	209.541	202.348	252.574	144.491	0.00057561	0.00079904	0.00018475	1025.4	5.9794e-06	5.916e-06	1099.3	310.63	2.8295e-06	9.349e-06	366.68	124.41	106.17	39.791	8.5066e-06	53.147	0.00042995	0.00045086	0.00011063	869.76	4.6422e-06	4.9204e-06	929.55	262.34	4.8709e-06	4.8488e-06	310.25	105.52	91.364	34.242	4.4062e-06	45.142	17.315	-14.347	-53.980	-92.550	112.543	-16.345	-93.793	-87.347	-81.911	65.734	-89.827	-85.575	-83.289	-78.425	99.840	-81.074	-8191	255	
3313.694	1	1	0	0	0.26479	0.13942	0.19683	0.077245	0.26816	0.066783	0.098161	0.2553	0.10052	0.19834	0.18896	0.20892	0.2462	0.16179	0.12361	0.34632	-2.2854	-2.5771	-2.3917	-2.9708	-2.5875	-2.7104	-2.9771	-2.5438	-2.8229	-2.6896	-2.3917	-3	-2.7854	-2.7146	-2.8354	-2.3729	76.348	176.426	-25.243	42.456	188.512	229.702	137.188	197.297	127.192	-46.317	-46.520	228.783	151.514	160.127	-66.018	183.192	0.00023117	0.00044335	0.00033929	1020.9	4.7281e-06	5.5614e-06	1092.4	307	5.1716e-06	1.3513e-05	364.32	123.06	105.32	39.687	4.2125e-06	52.61	0.00045488	0.00043326	0.00010865	870.77	4.8853e-06	4.5746e-06	927.26	259.4	4.8741e-06	4.521e-06	307.72	104.66	90.354	33.909	4.1557e-06	44.943	-16.303	-9.462	-55.903	-93.324	-37.246	34.762	-93.696	-87.447	178.578	24.226	-89.630	-86.019	-83.225	-78.752	2.218	-81.160	-8191	255	
3313.814	1	1	0	0	0.24363	0.12314	0.16168	0.1628	0.18976	0.11706	0.43641	0.10984	0.055482	0.089016	0.31099	0.2585	0.12806	0.35803	0.058563	0.2718	-2.4021	-2.5354	-2.3187	-2.8458	-2.6125	-2.5875	-2.8042	-2.6104	-2.8104	-2.7458	-2.3333	-2.9354	-2.6083	-2.3542	-2.7771	-2.45	106.591	206.919	-68.725	-68.948	83.166	36.888	177.102	216.970	155.951	34.478	-1.915	223.098	155.613	195.081	-59.033	224.856	0.00046627	0.00083746	0.00016396	1024.6	3.7681e-06	1.2564e-05	1088.4	305.95	5.5472e-06	6.9346e-06	355.76	121.47	104.11	38.79	1.2639e-05	51.702	0.00045844	0.00040791	0.00010364	876.38	4.9013e-06	4.3599e-06	920.53	258.83	4.8167e-06	4.3822e-06	302.22	103.27	89.343	33.347	4.0018e-06	44.33	-26.776	210.194	-5.142	-92.816	-10.010	21.575	-93.843	-87.167	254.719	39.936	-89.819	-85.719	-83.253	-78.493	15.043	-80.775	-8191	255	
3313.886	1	1	0	0	0.37938	0.24343	0.28609	0.15541	0.26749	0.24657	0.43007	0.23955	0.12332	0.18064	0.087501	0.15545	0.32648	0.14477	0.028218	0.30583	-2.2687	-2.8375	-2.25	-2.8	-2.6958	-2.5104	-2.8521	-2.7313	-2.5604	-2.7625	-2.4125	-2.9688	-2.5146	-2.6021	-2.9813	-2.5542	51.119	131.263	27.808	95.417	-24.223	83.710	178.268	-97.539	50.792	-8.693	-84.851	175.804	221.899	121.231	-21.382	240.252	0.00060605	0.00039268	0.00027283	1017.8	5.365e-06	5.6772e-06	1088.6	304.2	8.2212e-06	4.1618e-06	355.26	121.07	102.81	38.787	9.1493e-06	51.171	0.00043953	0.00039661	0.00010403	872.23	4.7868e-06	4.2507e-06	919.75	259.23	4.6719e-06	4.1454e-06	301.87	103.01	88.189	33.331	4.0684e-06	43.995	-20.607	-51.985	-17.116	-92.730	11.938	26.193	-93.586	-87.240	24.458	18.368	-89.860	-85.922	-83.621	-78.326	31.131	-81.268	-8191	255	
3314.007	1	1	0	0	0.23737	0.17665	0.076197	0.039156	0.16193	0.18568	0.097195	0.30542	0.33755	0.24149	0.022286	0.2489	0.11422	0.077049	0.18368	0.15949	-2.4646	-2.8312	-2.4417	-2.8937	-2.4896	-2.6875	-3.0042	-2.7875	-2.5604	-2.8021	-2.4958	-2.8583	-2.7125	-2.6437	-2.7917	-2.5896	-98.445	-22.929	175.273	58.427	-42.449	131.858	-81.611	210.522	-99.996	203.626	-13.117	186.663	79.690	-37.936	212.372	120.224	0.0004018	0.00027982	0.00026121	1020.7	5.9612e-06	6.7438e-06	1093.4	301.87	5.1659e-06	1.697e-06	356.44	120.33	103.38	38.7	1.5106e-05	52.019	0.00041638	0.000374	0.00010415	875.62	4.4455e-06	3.9993e-06	920.81	257.78	4.2821e-06	3.9731e-06	303.07	102.8	88.2	33.218	4.3633e-06	44.622	4.853	-27.887	56.711	-92.748	-39.023	68.140	-93.625	-87.250	-69.549	109.091	-89.797	-85.342	-83.028	-78.277	81.446	-81.088	-8191	255	
3314.103	1	1	0	0	0.19992	0.052998	0.067923	0.22906	0.087738	0.1933	0.069208	0.11247	0.34333	0.06269	0.069767	0.072256	0.23207	0.10737	0.26845	0.26426	-2.2438	-2.925	-2.4042	-2.7958	-2.7021	-2.3917	-2.9979	-2.7	-2.7021	-2.8979	-2.5938	-2.7271	-3.0292	-2.3229	-2.8854	-2.675	179.572	73.972	-63.683	139.088	183.802	33.097	46.090	144.818	180.798	174.084	95.549	-101.772	220.587	19.375	139.831	123.450	0.00051187	0.0013139	2.6996e-05	1030.1	9.9032e-06	7.3073e-06	1098	302.54	1.5534e-05	8.9485e-06	355.73	119.89	103.65	38.334	1.0249e-05	51.448	0.00039708	0.00035743	0.00011015	876.87	4.1789e-06	3.9304e-06	923.47	257.79	4.0746e-06	3.8509e-06	302.13	101.81	87.573	32.829	4.5714e-06	43.834	-21.848	-1.358	88.149	-93.237	74.199	-11.480	-93.859	-87.370	-62.165	32.806	-89.833	-85.882	-83.299	-77.894	105.277	-81.193	-8191	255	
3314.199	1	1	0	0	0.24086	0.19637	0.27432	0.1804	0.145	0.21307	0.25209	0.1917	0.084847	0.038458	0.067036	0.19309	0.14007	0.097083	0.30566	0.24914	-2.0333	-2.9125	-2.4875	-2.6146	-2.7938	-2.4292	-3.0875	-2.7396	-2.4667	-3.0563	-2.5292	-2.6688	-2.8521	-2.3937	-2.7875	-2.5229	147.947	143.752	15.487	75.804	102.564	165.672	187.325	140.375	132.744	253.793	113.797	-94.764	-69.339	119.451	89.452	135.220	0.00045338	0.00045626	0.00032197	1025.5	9.952e-06	1.7273e-06	1077.4	303.61	1.2788e-05	5.1995e-06	354.49	120.09	103.29	38.431	2.8168e-06	51.096	0.00037327	0.00035909	0.00011625	871.17	4.0052e-06	3.833e-06	915.47	257.95	3.8623e-06	3.8756e-06	302.59	101.65	87.666	32.96	4.4529e-06	43.6	-25.597	-64.631	44.815	-92.821	25.538	184.650	-93.542	-87.382	41.284	-65.336	-89.972	-85.651	-83.109	-78.071	64.685	-81.359	-8191	255	
3314.293	1	1	0	0	0.23665	0.1125	0.19414	0.16172	0.43127	0.16118	0.29971	0.11139	0.17612	0.18338	0.32734	0.2004	0.09659	0.2881	0.16265	0.26049	-1.9583	-2.7479	-2.4896	-2.7292	-2.7375	-2.4437	-2.9646	-2.7833	-2.4833	-2.7875	-2.5833	-2.6833	-2.9562	-2.4854	-2.7917	-2.8	144.487	-0.726	197.062	-63.289	248.574	3.610	116.939	-59.283	31.054	178.935	-101.393	-52.601	114.008	225.595	223.376	172.139	0.00034485	0.00054066	0.00015234	1033.3	7.3722e-06	1.6175e-06	1091.1	303.52	6.5356e-06	4.3037e-06	360.7	121.03	103.75	38.704	1.8262e-05	51.66	0.00035357	0.00036196	0.00011569	870.86	3.8853e-06	4.1315e-06	921.81	257.61	3.8483e-06	4.1864e-06	304.31	102.54	88.017	33.143	4.4737e-06	43.986	-10.739	-76.851	-102.466	-92.734	132.604	51.874	-93.789	-87.451	73.652	21.235	-89.982	-85.687	-83.346	-78.421	19.815	-80.901	-8191	255	
3314.414	1	1	0	0	0.26882	0.24527	0.13746	0.23472	0.085683	0.097342	0.155	0.0557	0.1417	0.18249	0.19623	0.12199	0.057136	0.22532	0.11706	0.35018	-2.0458	-2.9375	-2.35	-2.5854	-2.9271	-2.7083	-2.825	-2.9792	-2.4458	-3.0479	-2.5625	-2.6125	-2.7875	-2.6521	-2.7938	-2.7646	-22.112	-21.683	250.986	213.925	123.836	106.426	247.062	-22.169	-69.866	217.486	182.709	225.753	236.097	229.707	81.327	193.974	0.00046146	0.00053143	0.00031632	1029.8	2.6423e-06	3.9516e-06	1099.8	308.36	7.7667e-06	2.9708e-06	361.38	122.56	104.94	39.119	8.6466e-06	52.065	0.0003369	0.00038506	0.00011053	864.5	3.5042e-06	4.2472e-06	927.55	260.37	3.6776e-06	4.3088e-06	306.62	103.9	88.916	33.527	3.9727e-06	44.164	-25.953	8.478	-24.114	-92.630	165.916	-23.177	-93.638	-87.418	-6.644	-9.542	-89.567	-85.550	-83.028	-78.358	3.287	-81.215	-8191	255	
3314.510	1	1	0	0	0.18907	0.07676	0.2962	0.082163	0.29231	0.14386	0.35002	0.12147	0.069689	0.1819	0.16433	0.15732	0.34102	0.1902	0.089674	0.34011	-2.0021	-2.7125	-2.5854	-2.6604	-2.8354	-2.5271	-2.8375	-3.0042	-2.4375	-2.7854	-2.7625	-2.5854	-2.85	-2.5271	-2.525	-2.9875	-21.149	-73.245	229.060	89.224	15.630	40.759	173.126	-98.170	6.358	63.087	45.349	-61.224	173.161	69.256	157.277	206.142	0.00022563	0.00070161	0.0001782	1021.1	3.0062e-06	4.7584e-06	1094.5	306.09	8.7072e-06	4.3957e-06	359.73	121.72	104.34	39.015	7.0234e-06	51.692	0.00033684	0.00038952	0.0001017	863.27	3.7444e-06	4.4542e-06	920.89	259.32	3.825e-06	4.4855e-06	304.55	102.59	88.881	33.337	3.8819e-06	43.796	-23.319	-41.693	-23.441	-93.037	77.794	119.999	-93.974	-87.435	239.001	56.749	-89.541	-86.028	-83.268	-78.496	13.528	-80.760	-8191	255	
3314.582	1	1	0	0	0.090056	0.32984	0.11476	0.16538	0.15516	0.13921	0.20777	0.38472	0.16026	0.041621	0.15945	0.17176	0.22878	0.26316	0.074011	0.19497	-2.1188	-2.6854	-2.7542	-2.3625	-2.8417	-2.7438	-2.7333	-3.0021	-2.4062	-2.8375	-2.9167	-2.3125	-2.9875	-2.5417	-2.4125	-3.0333	201.196	238.420	144.826	-18.176	46.485	123.859	198.468	195.094	232.911	177.069	119.971	205.080	236.770	102.396	-48.631	-96.922	0.0002703	0.00018187	9.1071e-05	1019.2	8.8564e-07	7.2331e-06	1089.8	307.09	7.4158e-06	3.6662e-06	362.44	123.12	104.82	39.014	5.0006e-06	51.678	0.0003624	0.00040105	9.9256e-05	858.6	3.9853e-06	4.3186e-06	919.41	259.55	4.0351e-06	4.1592e-06	305.31	102.88	89.219	33.335	3.6967e-06	43.887	-29.621	11.429	-27.959	-92.594	192.057	72.676	-93.867	-87.602	9.950	-96.879	-89.708	-85.410	-83.150	-78.269	128.216	-81.356	-8191	255	
3314.678	1	1	0	0	0.25143	0.035431	0.30439	0.11369	0.057503	0.079612	0.22666	0.26651	0.25784	0.36016	0.052112	0.33145	0.12838	0.18048	0.10553	0.13063	-2.0438	-2.8104	-2.7083	-2.4542	-2.725	-2.8187	-2.5729	-2.9729	-2.5604	-2.7771	-2.8042	-2.6688	-2.8896	-2.7729	-2.65	-2.8417	-96.921	9.018	208.233	-69.927	88.187	90.737	201.529	249.560	178.446	174.178	5.573	233.197	-48.099	237.930	171.181	150.856	0.00031031	0.00085399	2.1103e-05	1032.5	3.7462e-06	4.8847e-06	1099.1	310.04	2.9407e-06	2.8184e-06	361.83	122.63	104.58	38.978	1.1034e-05	52.202	0.00037133	0.00038078	9.2767e-05	863.19	4.079e-06	4.0061e-06	923.97	260.93	4.157e-06	4.0234e-06	305.54	103.71	89.497	33.329	3.5507e-06	44.39	-21.265	-31.049	-64.798	-93.091	-35.481	7.994	-93.886	-87.373	9.451	25.233	-89.816	-85.635	-83.223	-78.214	138.197	-80.677	-8191	255	
3314.774	1	1	0	0	0.10375	0.33383	0.28683	0.30152	0.22174	0.08633	0.22056	0.088121	0.24006	0.2034	0.085055	0.23578	0.31651	0.085717	0.081351	0.16453	-2.1875	-2.6896	-2.8729	-2.4854	-2.7375	-2.7313	-2.5271	-2.9625	-2.3979	-2.6229	-3.0292	-2.6937	-2.775	-2.9021	-2.3937	-2.9271	-77.326	77.040	-45.971	161.159	-33.148	26.676	128.625	247.778	-61.764	-17.114	-83.169	-40.902	207.678	198.537	-16.810	204.834	0.00032823	0.00096937	0.00022639	1029.9	4.9552e-06	6.7921e-06	1101.1	305.56	8.2732e-06	1.2049e-05	359.84	119.98	103.74	38.574	7.6828e-07	51.401	0.00037986	0.00034702	8.5636e-05	863.85	4.0201e-06	3.6043e-06	924.5	258.81	4.0727e-06	3.6925e-06	303.51	102.09	88.2	32.952	3.2539e-06	43.673	-12.345	29.859	-53.546	-92.730	39.657	39.527	-93.553	-87.318	-38.866	59.846	-89.869	-85.754	-83.072	-77.971	-29.219	-80.961	-8191	255	
3314.895	1	1	0	0	0.1549	0.39851	0.040778	0.14802	0.028416	0.11089	0.22229	0.12082	0.25415	0.16919	0.25292	0.11469	0.10294	0.14624	0.22786	0.028395	-2.0896	-2.725	-2.9271	-2.525	-2.6833	-2.775	-2.5542	-2.8937	-2.5208	-2.5667	-2.8583	-2.7125	-2.7958	-2.7792	-2.4375	-2.8271	3.292	154.642	-67.314	-43.677	102.104	254.081	207.487	247.230	113.294	88.737	-78.635	-22.728	-79.919	248.914	18.623	160.153	0.00044852	0.0009507	0.00011035	1018.6	6.1017e-06	3.0693e-06	1093.9	305.25	6.4526e-06	4.9797e-06	361.12	120.62	103.78	38.391	9.6972e-06	51.618	0.00035726	0.0003096	7.9526e-05	854.64	3.7592e-06	3.3537e-06	920.78	258.09	3.7599e-06	3.3456e-06	302.4	101.93	87.688	32.813	3.2756e-06	43.817	-18.168	-26.046	193.895	-92.887	63.039	59.699	-93.590	-87.599	-48.484	86.266	-89.929	-85.865	-83.136	-78.141	96.288	-81.030	-8191	255	
3314.991	1	1	0	0	0.21272	0.19714	0.11344	0.15586	0.21384	0.34326	0.32149	0.29632	0.16603	0.0857	0.14239	0.33327	0.10994	0.12632	0.23255	0.41437	-1.9375	-2.3875	-2.8896	-2.4917	-2.8	-2.7667	-2.5833	-2.7979	-2.6667	-2.4854	-2.9292	-2.6146	-2.4708	-2.9437	-2.3563	-2.9958	-63.859	115.936	105.837	66.704	7.308	142.032	180.961	137.986	140.956	30.212	174.092	171.813	137.604	136.052	249.210	246.288	0.00059684	0.0013159	0.00010441	1013.5	6.6322e-06	1.3749e-06	1101.4	304	2.662e-06	6.9483e-06	360.65	120.75	101.83	38.277	3.3766e-06	51.707	0.000337	0.0002975	8.0323e-05	862.81	3.4127e-06	3.2091e-06	924.41	257.88	3.3442e-06	2.9802e-06	302.8	102.05	86.599	32.446	3.0983e-06	43.866	13.918	-11.056	54.162	-92.577	50.218	164.806	-93.803	-87.673	152.921	150.557	-90.126	-85.147	-83.360	-77.826	-27.337	-80.882	-8191	255	
3315.087	1	1	0	0	0.074757	0.072517	0.12677	0.26557	0.26468	0.23975	0.24032	0.12026	0.20215	0.046125	0.2815	0.091908	0.32024	0.25209	0.060248	0.13636	-2.45	-2.5854	-2.8771	-2.4604	-2.6458	-3.0208	-2.6771	-2.9604	-2.5187	-2.7854	-2.9854	-2.7	-2.675	-2.7417	-2.5854	-2.5667	66.874	254.217	112.327	96.897	119.411	161.044	223.483	113.056	-92.139	20.350	-90.934	-93.946	232.236	-49.139	119.216	-27.427	0.0002755	0.0012264	7.5494e-05	1020.8	5.5745e-06	6.5948e-06	1113.8	305.06	4.787e-06	1.1779e-05	363.29	120.71	102.08	38.413	9.3328e-06	51.544	0.0002933	0.00027321	7.7201e-05	859.43	3.1069e-06	2.8172e-06	932.85	257.92	3.086e-06	2.8687e-06	306.31	102.33	86.819	32.543	3.2037e-06	43.796	3.677	-51.386	79.715	-92.810	178.071	41.586	-93.624	-87.728	-36.253	29.867	-89.695	-85.544	-83.123	-77.893	-69.385	-81.002	-8191	255	
3315.183	1	1	0	0	0.10773	0.16019	0.26222	0.19932	0.15602	0.090648	0.050463	0.34669	0.19548	0.12656	0.16976	0.22735	0.251	0.091704	0.20789	0.10522	-2.3729	-2.4083	-2.8146	-2.5354	-2.6125	-2.8354	-2.6521	-2.9208	-2.7896	-2.3979	-2.8937	-2.5958	-2.6375	-2.8792	-2.4437	-2.8458	94.412	50.512	-79.741	85.442	-37.140	176.483	148.086	215.083	201.014	253.795	96.924	-69.486	-80.101	253.820	221.897	220.423	0.00013427	0.00053888	0.00012597	1030.7	7.3485e-06	9.0733e-06	1099.7	302.54	6.3758e-06	1.1712e-05	360.1	119.29	102.23	37.853	8.4546e-06	51.547	0.00028015	0.00026141	8.0272e-05	859.77	3.0021e-06	2.7787e-06	925.87	255.25	3.0533e-06	2.7743e-06	302.7	100.46	85.812	32.166	3.3371e-06	43.482	40.698	-29.804	47.571	-93.202	31.946	52.079	-93.943	-87.411	43.550	52.233	-89.504	-85.351	-83.381	-77.811	35.579	-80.700	-8191	255	
3315.279	1	1	0	0	0.049863	0.17793	0.13479	0.3768	0.076021	0.081606	0.03031	0.033227	0.26373	0.11981	0.14758	0.26793	0.092175	0.24219	0.098796	0.20835	-2.5312	-2.5896	-2.8542	-2.7	-2.4167	-2.8646	-2.5146	-2.7958	-2.7875	-2.5729	-2.7687	-2.6562	-2.5917	-2.8875	-2.6562	-2.6604	-60.153	103.262	168.647	123.554	213.820	0.870	168.942	126.370	51.715	-82.542	144.608	81.496	196.685	185.564	-75.725	206.518	0.00052117	0.00028011	2.3097e-05	1012.3	6.5213e-06	5.8769e-06	1101.7	304.9	1.1818e-05	7.4167e-06	361.18	121.28	102.53	38.1	6.7234e-06	51.481	0.0002766	0.00026656	8.6113e-05	848.11	2.8186e-06	2.836e-06	928.45	256.61	2.9067e-06	2.9531e-06	304.87	101.98	86.581	32.459	3.4758e-06	43.569	-11.069	-36.436	245.018	-92.653	48.908	126.522	-94.082	-87.273	-3.603	72.333	-89.828	-85.817	-83.172	-77.837	62.094	-80.562	-8191	255	
3315.375	1	1	0	0	0.15146	0.21	0.24015	0.08425	0.20388	0.056029	0.16378	0.24103	0.063115	0.34535	0.18664	0.27682	0.034221	0.034384	0.26722	0.34254	-2.2792	-2.3229	-2.6458	-2.5167	-2.3146	-2.8646	-2.5458	-2.6979	-2.8625	-2.4771	-2.7687	-2.5833	-2.4479	-2.7646	-2.5812	-2.4688	-53.985	-7.481	254.332	235.604	-34.336	208.176	221.197	-99.627	26.190	48.671	160.992	237.941	242.664	226.991	133.082	114.119	0.00034741	0.00093454	0.00029006	1043.1	1.8552e-06	3.3511e-06	1109.1	306.04	1.3732e-05	9.6113e-06	365.29	120.52	101.87	38.434	3.3557e-06	52.457	0.00026136	0.00028302	8.7852e-05	858.13	2.8002e-06	3.1596e-06	935.59	257.51	2.9281e-06	3.2529e-06	307.07	102.05	86.447	32.748	3.3051e-06	44.182	-22.797	-18.279	-14.485	-92.588	-59.556	114.739	-93.786	-87.390	-44.466	158.747	-90.254	-85.455	-83.157	-78.059	10.628	-80.593	-8191	255	
3315.494	1	1	0	0	0.20779	0.16658	0.13517	0.26085	0.17692	0.039791	0.21373	0.13271	0.064285	0.16181	0.16665	0.062651	0.1494	0.19229	0.20958	0.099864	-2.5042	-2.2938	-2.6354	-2.8458	-2.3604	-2.9042	-2.8167	-2.6146	-2.7687	-2.425	-2.7729	-2.9562	-2.4604	-2.8292	-2.6646	-2.475	121.223	196.167	-26.822	-3.302	179.267	214.125	224.022	-51.306	97.937	-90.418	-80.209	165.870	214.018	217.623	179.741	229.938	0.00039052	0.0011719	0.00031087	1041.2	3.4588e-06	4.6604e-06	1108.2	304.77	8.6116e-06	7.3722e-06	361.24	119.7	101.39	37.636	1.09e-05	51.364	0.00026761	0.00030802	8.4614e-05	858.21	2.8058e-06	3.3673e-06	934.07	256.15	2.8423e-06	3.4273e-06	304.1	100.63	85.415	32.174	3.0781e-06	43.222	4.381	63.422	-69.642	-92.715	32.830	21.867	-93.609	-87.098	39.214	140.359	-89.688	-85.479	-83.410	-78.065	51.287	-80.904	-8191	255	
3315.591	1	1	0	0	0.13338	0.049974	0.24331	0.13721	0.072558	0.20386	0.20008	0.35452	0.24932	0.22551	0.22241	0.19494	0.24664	0.070809	0.11923	0.099507	-2.4292	-2.4521	-2.6937	-2.8521	-2.5854	-2.8333	-2.7979	-2.6292	-2.7729	-2.6854	-2.7792	-2.8917	-2.7375	-2.8167	-2.7458	-2.5271	191.504	-95.820	226.003	-93.466	-55.092	-0.589	245.475	195.670	-70.850	-18.238	182.459	200.532	-76.140	18.893	238.203	-88.276	0.00055445	0.00072607	0.00010128	1014.2	8.9887e-06	2.1596e-06	1103.3	300.93	5.2115e-06	1.1143e-05	359.86	118.9	100.69	37.358	4.5193e-06	50.856	0.00027745	0.00031207	7.885e-05	847.23	3.0577e-06	3.4252e-06	925.22	253.47	3.0404e-06	3.5539e-06	301.18	99.734	84.965	32.034	3.0992e-06	43.158	-15.866	-4.023	213.496	-92.486	135.508	-104.202	-94.042	-87.230	187.106	45.862	-89.611	-84.902	-83.102	-77.739	212.846	-80.776	-8191	255	
3315.687	1	1	0	0	0.19895	0.056646	0.18492	0.16229	0.13741	0.19848	0.23207	0.14218	0.052779	0.10136	0.20246	0.34214	0.3185	0.1403	0.27898	0.24682	-2.5646	-2.525	-2.5104	-2.9125	-2.45	-2.6	-2.6458	-2.3417	-2.9167	-2.7854	-2.5833	-2.7521	-2.5042	-2.7021	-2.7729	-2.4625	-76.452	23.877	130.643	71.988	144.813	102.404	-57.828	187.673	-96.555	5.074	-50.854	-77.018	28.981	238.705	-29.959	224.224	0.00057715	0.00072416	0.00029685	1006.9	6.1421e-06	3.7874e-06	1109.7	299.3	9.6624e-06	1.2069e-05	357.59	118.93	100.01	37.359	2.0699e-06	51.467	0.00029254	0.0003167	7.6246e-05	841.88	3.1716e-06	3.2933e-06	929.81	252.13	3.262e-06	3.2646e-06	301.55	99.856	84.845	31.881	2.9269e-06	43.355	-16.793	-26.120	7.289	-92.539	216.680	5.595	-93.800	-87.298	21.172	70.639	-89.622	-85.351	-82.790	-77.195	-41.303	-80.831	-8191	255	
3315.783	1	1	0	0	0.14309	0.27888	0.052729	0.22941	0.01345	0.16438	0.094951	0.078574	0.045061	0.099946	0.22118	0.079806	0.088844	0.13182	0.30068	0.27803	-2.4396	-2.7479	-2.5687	-2.8979	-2.5042	-2.6917	-3.05	-2.5667	-2.8583	-2.7167	-2.5604	-3.0646	-2.6271	-2.6042	-2.8167	-2.5417	153.990	253.425	-11.893	223.356	43.206	137.922	155.176	158.682	104.460	-52.688	141.040	228.146	86.584	235.401	98.928	-95.142	0.00051594	0.00081249	9.9469e-05	1017.2	6.4848e-06	7.4407e-06	1105.8	299.33	7.4878e-06	3.0088e-06	359.27	118.95	100.94	37.506	1.09e-05	51.523	0.00030332	0.00029352	7.2903e-05	839.82	3.2513e-06	3.1938e-06	929.93	251.72	3.3185e-06	3.1856e-06	302.69	100.31	85.309	31.915	2.8347e-06	43.668	-27.662	9.622	17.570	-92.243	104.824	40.841	-93.845	-87.549	6.413	146.962	-89.688	-85.418	-83.241	-77.818	80.172	-80.957	-8191	255	
3315.879	1	1	0	0	0.16492	0.09122	0.13604	0.17574	0.10704	0.13721	0.20786	0.049953	0.20035	0.09679	0.036801	0.26665	0.24135	0.087659	0.14964	0.17278	-2.4	-2.4958	-2.5896	-2.9	-2.4938	-2.8	-3.0208	-2.6354	-2.825	-2.5979	-2.2687	-2.8812	-2.4792	-2.5229	-2.8542	-2.625	-11.386	-22.713	-98.687	-52.211	-58.281	12.571	-54.011	21.194	49.166	37.445	141.460	238.616	-87.404	181.793	249.066	-34.230	0.00032231	0.00082628	0.00026681	1030.8	5.5908e-06	1.5713e-06	1108.5	297.91	1.2178e-05	3.2705e-06	354.09	116.3	98.676	37.053	7.1664e-06	50.58	0.00032057	0.00028205	7.1122e-05	852.54	3.3795e-06	3.0306e-06	927.28	251.94	3.3271e-06	3.0336e-06	297.84	98.239	83.788	31.467	2.7149e-06	42.791	-30.930	30.591	-21.776	-92.598	34.342	118.232	-93.937	-87.373	-20.428	148.207	-89.838	-85.445	-83.174	-77.730	-0.447	-80.286	-8191	255	
3315.975	1	1	0	0	0.12729	0.18644	0.075486	0.089591	0.16899	0.082171	0.28896	0.12015	0.11975	0.13691	0.19401	0.16862	0.22679	0.2173	0.21709	0.043309	-2.1437	-2.6646	-2.4562	-2.6875	-2.6	-2.4833	-2.8521	-2.2188	-2.8854	-2.5167	-2.4396	-2.7	-2.5687	-2.5458	-2.8958	-2.6271	-63.664	-87.126	127.407	-50.504	-31.942	181.927	159.859	148.863	16.971	36.322	226.256	141.421	53.643	235.912	2.261	172.081	0.0004996	0.001166	0.00017986	1032.3	6.6579e-06	4.0415e-06	1103.8	296.47	1.2509e-05	9.6433e-06	353.91	117.4	98.85	37.404	3.9514e-06	51.218	0.00030141	0.00026601	7.0554e-05	854.62	3.274e-06	2.9554e-06	923.6	251.15	3.2285e-06	2.9779e-06	298.01	99.12	83.879	31.697	2.9653e-06	43.25	-23.521	-29.043	-29.568	-92.772	37.398	77.019	-93.650	-87.340	31.938	68.165	-89.430	-85.507	-82.691	-77.486	138.352	-80.792	-8191	255	
3316.071	1	1	0	0	0.11465	0.12529	0.042686	0.15651	0.12486	0.073819	0.10785	0.20338	0.08784	0.24124	0.27872	0.047597	0.36826	0.10204	0.29082	0.30362	-2.1562	-2.8167	-2.3708	-2.6833	-2.6458	-2.4938	-2.7896	-2.6646	-2.7333	-2.9333	-2.6521	-3	-2.7229	-2.5979	-2.6458	-2.5792	135.564	110.787	195.003	104.648	6.951	37.242	-83.789	159.661	5.921	233.957	169.236	232.602	209.536	-31.489	-92.767	207.989	0.00052086	0.00076064	0.00024533	1028.5	1.3733e-05	2.895e-06	1103.7	295.59	4.8151e-06	5.3048e-06	353.89	117.89	98.893	37.329	4.0808e-06	51.01	0.00030948	0.0002753	7.4919e-05	854.46	3.2803e-06	2.8895e-06	925.7	249.66	3.0504e-06	2.8439e-06	298.73	99.619	83.236	31.683	3.0042e-06	43.407	-4.410	-42.621	42.197	-92.287	53.102	80.288	-93.688	-87.249	-2.243	93.855	-89.431	-85.355	-82.865	-77.422	235.477	-80.796	-8191	255	
3316.190	1	1	0	0	0.17409	0.019699	0.16974	0.15524	0.12714	0.35157	0.063575	0.37351	0.076059	0.22148	0.27507	0.10585	0.13124	0.084134	0.061974	0.29546	-2.1833	-2.7729	-2.3917	-2.6083	-2.7979	-2.3917	-3.0062	-2.7646	-2.6854	-2.9229	-2.5312	-2.6979	-2.7188	-2.5792	-2.7562	-2.3833	109.186	122.466	171.841	109.428	-96.639	15.065	-75.683	216.777	105.788	-97.313	173.804	-42.126	239.841	-67.786	-31.313	196.216	0.00020103	0.00020636	0.00013766	1018.6	3.6597e-06	1.7499e-06	1105.6	292.43	7.2745e-06	1.1065e-05	353.18	115.21	96.955	36.757	1.2593e-06	50.019	0.00029247	0.00026052	7.9373e-05	855.98	3.0905e-06	2.9729e-06	928.42	247.92	3.258e-06	2.9761e-06	297.32	97.814	82.348	31.122	3.3088e-06	42.471	-22.617	-92.896	210.991	-93.097	15.735	-104.608	-93.819	-87.144	91.492	72.072	-89.413	-84.753	-83.129	-78.257	-93.891	-80.760	-8191	255	
3316.286	1	1	0	0	0.10381	0.25393	0.10272	0.072865	0.23203	0.21743	0.31861	0.13288	0.089267	0.094381	0.11221	0.18483	0.14421	0.37031	0.33039	0.16005	-2.1813	-2.7667	-2.5125	-2.6792	-2.8167	-2.4875	-3.0396	-2.6833	-2.4333	-2.9854	-2.6521	-2.8563	-2.8292	-2.4667	-2.9146	-2.6646	-37.418	177.957	130.297	7.886	10.012	-3.833	230.649	-70.171	-82.496	66.124	202.706	214.075	221.566	-68.314	-21.360	-65.506	0.00034924	0.00082836	0.00020748	1008.4	6.1382e-06	5.3899e-06	1082.6	290.25	7.7926e-06	5.1445e-06	346.08	113.79	95.074	36.071	2.0918e-06	49.546	0.00027682	0.00025375	8.4437e-05	842.64	2.9435e-06	2.7562e-06	914.67	244.27	2.9423e-06	2.8252e-06	291.81	95.506	80.174	30.519	3.3399e-06	41.923	-17.848	-86.612	-28.307	-92.940	107.022	24.236	-93.300	-87.377	-56.803	-6.373	-89.613	-85.191	-83.382	-77.809	137.661	-80.390	-8191	255	
3316.382	1	1	0	0	0.2279	0.092343	0.1664	0.10307	0.10475	0.014793	0.35307	0.21963	0.24786	0.28303	0.41613	0.039788	0.21694	0.090484	0.19845	0.065963	-2.1208	-2.7229	-2.3167	-2.5958	-2.7604	-2.4375	-2.7292	-2.6875	-2.3812	-2.8208	-2.6125	-2.575	-2.8229	-2.6	-2.8229	-2.7229	76.340	-99.191	-92.396	57.291	114.672	-79.498	221.363	96.844	96.566	-4.529	177.496	-19.055	194.617	1.672	133.312	-100.171	0.00030086	0.00031001	0.00010075	999.62	4.4277e-06	3.8952e-06	1085.4	286.69	8.2778e-06	6.4926e-07	346.56	113.02	94.543	35.861	3.4985e-06	49.805	0.00026043	0.00025996	8.4591e-05	833.21	2.81e-06	2.8559e-06	912.43	241.6	2.7462e-06	2.9601e-06	291.7	95.423	79.705	30.446	3.2146e-06	41.822	-26.064	-52.890	-78.688	-92.744	147.187	209.297	-93.656	-87.286	36.614	-12.951	-89.766	-85.339	-83.069	-77.572	57.650	-80.812	-8191	255	
3316.456	1	1	0	0	0.198	0.21586	0.092465	0.14764	0.43427	0.084583	0.2051	0.45223	0.18411	0.067089	0.11354	0.15838	0.067157	0.11358	0.18308	0.10813	-2.1458	-2.7625	-2.4667	-2.7313	-2.8083	-2.4458	-3.0687	-2.8354	-2.6125	-2.7625	-2.5417	-2.7354	-2.9604	-2.6104	-2.8833	-2.6708	-95.633	78.426	-101.519	205.281	200.053	171.810	176.744	176.840	16.207	181.312	153.360	218.181	177.689	244.688	208.592	114.718	0.00026757	0.00077324	0.00014613	1003.3	9.595e-06	6.0749e-06	1084.4	280.71	1.6403e-06	4.254e-06	338.65	111.17	92.109	34.912	6.4957e-07	48.817	0.00025198	0.00026501	7.9171e-05	830.15	2.6696e-06	2.968e-06	913.73	237.19	2.6169e-06	2.9277e-06	286.2	93.837	77.836	29.835	2.8924e-06	41.208	-7.050	-53.699	251.112	-93.253	35.601	1.822	-93.663	-87.697	205.542	49.541	-89.358	-85.227	-82.384	-77.303	29.175	-80.252	-8191	255	
3316.575	1	1	0	0	0.27949	0.29185	0.25903	0.204	0.14954	0.1531	0.20272	0.14065	0.090297	0.17251	0.37382	0.25635	0.33667	0.13303	0.17272	0.24756	-1.9042	-2.5708	-2.4896	-2.4396	-2.825	-2.6937	-2.6771	-2.775	-2.4854	-2.9	-2.9042	-2.5021	-2.9167	-2.7438	-2.8187	-3.0062	94.664	-11.506	74.957	116.697	-103.806	-16.367	200.062	199.043	79.210	150.847	193.434	135.556	247.280	-52.380	39.990	-37.380	0.00044392	0.00022429	0.00013324	997.25	2.7988e-06	1.0139e-06	1071.4	276.86	8.7441e-06	2.7464e-06	336.24	107.86	90.4	34.075	5.942e-06	47.371	0.00024704	0.00027092	7.2844e-05	823.57	2.5388e-06	3.0618e-06	903.32	233.81	2.5893e-06	3.0125e-06	281.62	91.289	76.18	29.173	2.812e-06	40.166	13.085	252.647	20.816	-92.563	55.578	-5.531	-93.618	-87.318	-56.928	26.976	-89.494	-84.971	-83.081	-77.095	106.022	-80.518	-8191	255	
3316.671	1	1	0	0	0.17327	0.15543	0.15618	0.14729	0.19185	0.044738	0.16141	0.24117	0.089457	0.10419	0.15104	0.2272	0.24007	0.048102	0.35077	0.036727	-2.1875	-2.9042	-2.6458	-2.6208	-2.9083	-2.8021	-2.8771	-2.8229	-2.5417	-2.9167	-2.9354	-2.6125	-2.8667	-2.6958	-2.85	-2.9208	218.338	-23.566	61.972	-80.752	4.432	222.949	-74.782	202.266	63.196	209.724	118.753	175.779	196.019	106.810	192.368	182.559	0.00034531	0.0002234	0.00020979	984.2	3.902e-07	3.9322e-06	1062.9	273.33	2.4525e-06	6.79e-06	331.46	107.73	88.652	33.979	9.9831e-06	47.905	0.00025073	0.00029519	7.1621e-05	818.84	2.7826e-06	3.1426e-06	893.08	230.56	2.8011e-06	3.0255e-06	278.18	90.577	75.213	28.933	2.5686e-06	40.296	-12.356	-21.868	47.657	-92.922	87.465	-60.006	-93.793	-87.115	112.370	85.239	-89.490	-85.576	-82.838	-77.227	65.765	-80.556	-8191	255	
3316.767	1	1	0	0	0.098943	0.04886	0.25117	0.29886	0.021985	0.13872	0.28585	0.15319	0.12326	0.15197	0.26069	0.27689	0.16719	0.099539	0.11038	0.058671	-2.1354	-2.7687	-2.7146	-2.4854	-2.8521	-2.6896	-2.7875	-2.7625	-2.6146	-2.6875	-2.7229	-2.6208	-2.8792	-2.7583	-2.5938	-2.8063	-89.631	203.810	193.758	95.858	163.549	-42.952	152.585	132.091	-0.942	75.084	247.420	174.911	91.556	221.662	29.099	229.634	0.00042244	0.00064715	6.9206e-05	984.94	2.7165e-06	1.7563e-06	1068	274.7	9.1577e-06	6.6613e-06	330.33	107.93	88.786	33.618	5.0778e-06	47.737	0.00025556	0.00025911	6.5383e-05	810.21	2.8619e-06	2.8821e-06	895.62	230.34	2.9408e-06	2.8857e-06	277.07	90.677	75.504	28.896	2.6758e-06	40.466	0.752	5.256	-5.576	-92.021	-20.171	165.158	-93.700	-87.187	-10.353	3.084	-89.635	-84.987	-82.643	-76.974	85.069	-80.147	-8191	255	
3316.888	1	1	0	0	0.08322	0.1574	0.14714	0.17184	0.32042	0.23759	0.20737	0.13493	0.11775	0.052855	0.074251	0.17982	0.21042	0.17295	0.18192	0.17417	-1.9833	-2.5604	-2.8458	-2.5708	-3.0042	-2.6708	-2.4917	-3.0062	-2.5083	-2.7438	-2.8896	-2.5896	-2.7417	-2.7083	-2.375	-2.9396	206.134	-16.686	43.138	-98.540	-44.529	188.556	142.407	163.961	250.232	198.290	73.081	93.590	240.226	-101.928	8.062	180.595	0.00034053	0.0010255	0.0001456	989.9	5.5256e-06	4.5143e-06	1070.2	274.62	8.8082e-06	4.6892e-06	332.73	107.27	88.373	33.686	1.1671e-05	47.194	0.00028398	0.00026391	6.7108e-05	814.83	3.1206e-06	2.8662e-06	896.33	231.26	3.0821e-06	2.8554e-06	278.48	90.173	75.271	28.799	2.495e-06	39.887	-12.700	-20.275	-52.397	-93.062	96.876	18.508	-93.745	-87.542	-3.410	119.445	-89.735	-85.247	-82.771	-77.219	2.525	-80.722	-8191	255	
3316.984	1	1	0	0	0.081171	0.14775	0.1625	0.33157	0.31024	0.094857	0.32094	0.24627	0.30298	0.19489	0.17817	0.14712	0.025624	0.15603	0.31569	0.046574	-2.0521	-2.4208	-2.7104	-2.3104	-2.8792	-2.9167	-2.4062	-2.9208	-2.625	-2.6396	-2.7625	-2.6104	-2.8229	-2.7896	-2.4979	-2.9021	203.184	-79.795	30.065	225.937	226.527	108.557	239.763	191.665	199.862	-86.385	230.140	233.354	138.523	-103.217	235.331	-11.714	0.00035183	0.00085752	0.00029086	968.25	6.5287e-06	5.7333e-06	1059.7	274.47	7.4579e-06	1.5186e-06	329.71	106.36	89.833	34.116	1.1334e-05	47.881	0.00028046	0.00024561	6.1408e-05	808.46	2.9067e-06	2.5672e-06	887.09	230.38	2.8804e-06	2.5343e-06	276.46	90.167	75.645	28.872	2.3454e-06	40.196	9.559	-63.961	-59.928	-92.515	20.566	-21.095	-93.837	-87.169	-4.832	130.027	-89.437	-85.392	-83.174	-76.940	57.926	-80.600	-8191	255	
3317.055	1	1	0	0	0.1781	0.20099	0.17345	0.14169	0.10485	0.086037	0.058973	0.30289	0.12165	0.092243	0.22593	0.092318	0.26151	0.083887	0.22755	0.086379	-2.1167	-2.6104	-2.7833	-2.6562	-2.8063	-2.8042	-2.6688	-2.8375	-2.5687	-2.4021	-2.8187	-2.5542	-2.7521	-2.7771	-2.4813	-2.8771	87.170	76.347	21.395	-97.650	-56.657	-78.058	169.554	95.194	57.443	225.074	107.697	138.329	-96.266	240.491	42.678	64.843	0.00039246	0.00018885	0.00018747	989.54	4.7467e-06	3.8307e-06	1056.3	274.9	5.0917e-06	1.1362e-05	329.63	106.14	89.054	33.949	3.2526e-06	47.125	0.00025284	0.00022667	6.0463e-05	817.06	2.7376e-06	2.4999e-06	889.91	231.56	2.8573e-06	2.5675e-06	277.55	89.605	75.062	28.817	2.4824e-06	39.968	-5.345	20.855	-14.676	-93.055	77.541	94.207	-93.622	-87.031	-87.160	-6.678	-89.325	-85.337	-82.939	-77.304	-7.639	-80.003	-8191	255	
3317.176	1	1	0	0	0.25019	0.16626	0.078294	0.13486	0.13331	0.097875	0.35457	0.10641	0.142	0.34262	0.27887	0.42204	0.11099	0.27239	0.14916	0.30188	-2.1375	-2.5104	-2.8958	-2.7188	-2.6562	-2.9875	-2.6167	-2.8604	-2.8104	-2.4542	-2.9958	-2.4583	-2.6396	-2.9875	-2.5792	-2.8979	52.280	167.901	85.812	185.873	240.820	100.002	166.593	178.421	207.192	44.142	235.272	152.761	-63.848	177.674	-1.909	196.097	0.00012399	0.00031741	0.00014271	981.15	3.7547e-06	5.2275e-06	1060.1	275.26	3.3647e-06	4.4056e-06	333.44	107.27	89.862	34.077	7.8758e-06	47.381	0.00025863	0.00022086	6.4461e-05	819.42	2.675e-06	2.4112e-06	890.5	231.37	2.684e-06	2.5077e-06	279.51	90.749	75.669	28.894	2.6062e-06	40.254	-45.882	24.307	-20.493	-92.032	12.153	12.700	-93.887	-87.096	223.961	99.578	-88.742	-85.035	-82.812	-76.873	-19.551	-80.253	-8191	255	
3317.272	1	1	0	0	0.1735	0.085297	0.074046	0.075051	0.22116	0.13249	0.29979	0.090338	0.21047	0.044313	0.2069	0.21265	0.22552	0.2436	0.34628	0.49901	-2.275	-2.5812	-2.7917	-2.45	-2.5667	-3.1604	-2.5875	-2.8438	-2.7521	-2.4708	-3.0021	-2.6792	-2.4521	-2.7125	-2.65	-2.6125	-53.269	-19.196	52.262	-101.772	-13.764	195.374	182.969	218.138	48.609	-63.146	208.862	-84.805	248.216	43.628	-94.695	184.406	0.00052826	0.00032355	0.00016607	967.81	2.7975e-06	5.1798e-06	1057.4	272.84	8.1089e-06	1.3728e-06	327.93	105.16	88.505	33.651	1.9297e-07	46.54	0.00024403	0.0002267	6.9883e-05	813.31	2.6922e-06	2.3923e-06	888.83	230.54	2.5774e-06	2.454e-06	275.86	88.542	74.246	28.368	2.7654e-06	39.34	-13.456	-64.602	32.507	-92.194	47.201	78.242	-93.853	-87.009	-27.575	77.121	-88.932	-85.231	-82.854	-77.190	28.245	-80.530	-8191	255	
3317.367	1	1	0	0	0.088572	0.11448	0.24575	0.20949	0.14546	0.022951	0.20197	0.10467	0.058575	0.25368	0.15108	0.18302	0.17449	0.064138	0.28968	0.077842	-2.3729	-2.6396	-2.6021	-2.7104	-2.6229	-2.9437	-2.7083	-2.7208	-2.9021	-2.4396	-2.9062	-2.6521	-2.6354	-2.8854	-2.7	-2.7812	110.187	90.734	110.773	42.958	23.803	46.802	151.815	-76.847	-73.558	151.700	176.445	5.987	165.145	-79.657	93.045	123.080	0.00025812	0.00012122	0.00024505	972.61	5.1754e-06	3.3159e-06	1050.6	270.35	1.0575e-06	6.3448e-06	324.04	105.73	87.809	33.107	3.0863e-06	46.62	0.00022649	0.00020542	6.7646e-05	800.98	2.2856e-06	2.2975e-06	883.81	228.22	2.3533e-06	2.2935e-06	273.8	88.624	73.84	28.277	2.7564e-06	39.545	-11.249	121.795	-42.078	-92.322	-4.591	-16.642	-93.845	-87.542	-70.931	43.861	-89.045	-85.157	-82.826	-77.089	211.594	-80.046	-8191	255	
3317.487	1	1	0	0	0.30029	0.21477	0.21142	0.23884	0.10482	0.031476	0.22003	0.20473	0.17613	0.065195	0.14505	0.1237	0.11625	0.10262	0.10598	0.34729	-2.3063	-2.5312	-2.6708	-2.75	-2.475	-2.8563	-2.6354	-2.6417	-2.6958	-2.4917	-2.8917	-2.5812	-2.5938	-2.6896	-2.5438	-2.5938	206.408	184.326	238.359	-99.158	-6.996	-42.886	173.608	218.005	163.561	174.540	207.719	202.984	148.040	-56.417	153.904	155.633	0.00028036	0.00056763	0.00013185	967.89	3.1332e-06	3.885e-06	1057.2	268.9	5.6679e-06	5.7506e-06	330.77	104.44	86.906	33.359	1.7868e-06	47.138	0.00022674	0.00022723	7.109e-05	799.81	2.3372e-06	2.4438e-06	884.8	227.22	2.37e-06	2.5006e-06	275.24	88.075	73.429	28.263	2.6111e-06	39.608	14.149	-12.310	209.203	-92.311	103.206	1.522	-93.708	-87.092	148.674	-13.236	-89.580	-85.375	-82.703	-76.949	12.533	-80.243	-8191	255	
3317.583	1	1	0	0	0.048066	0.19991	0.15053	0.03852	0.11934	0.096875	0.28935	0.12403	0.1006	0.093791	0.087484	0.2176	0.36583	0.22896	0.047614	0.15114	-2.3812	-2.3438	-2.5854	-2.9646	-2.3625	-3.0729	-2.7042	-2.5979	-2.8104	-2.4	-2.7	-2.7812	-2.1854	-2.8563	-2.6417	-2.5625	47.335	-67.497	117.838	87.454	231.174	190.890	236.756	171.498	79.776	222.299	-64.288	62.061	196.170	176.428	223.986	-90.030	0.00049512	0.00048389	0.00024916	976.67	5.057e-06	4.49e-06	1058.1	271.42	9.5192e-06	6.3484e-06	330.02	103.7	86.751	33.005	6.7581e-06	46.282	0.00020797	0.00023118	6.4831e-05	802.92	2.1913e-06	2.5595e-06	887.08	228.1	2.2369e-06	2.6408e-06	274.76	87.636	73.038	28.046	2.555e-06	38.873	-13.312	-58.884	-36.708	-91.922	246.768	118.965	-93.903	-86.957	14.781	31.205	-89.513	-85.353	-82.819	-76.991	85.999	-79.767	-8191	255	
3317.680	1	1	0	0	0.29888	0.15342	0.077037	0.025312	0.093171	0.24966	0.13393	0.20013	0.066762	0.17468	0.059979	0.1446	0.12028	0.081872	0.12467	0.068186	-2.3625	-2.425	-2.475	-2.825	-2.3833	-2.9021	-2.7583	-2.5333	-2.9	-2.8354	-2.5833	-2.9562	-2.2667	-2.9042	-2.8333	-2.3771	-19.501	84.821	45.988	148.015	-71.599	198.172	203.212	124.989	8.407	-46.944	19.774	82.414	118.909	231.856	-3.462	-90.400	0.00028431	0.00016154	0.00025792	959.92	3.224e-07	2.4555e-06	1047.1	269.56	8.6742e-07	6.9928e-06	324.24	102.55	86.99	32.715	6.3116e-06	46.445	0.00021249	0.00024516	6.3692e-05	791.06	2.2925e-06	2.5841e-06	877.33	226.48	2.2714e-06	2.6663e-06	271.42	86.904	73.114	27.866	2.3591e-06	39.02	18.129	-60.032	72.315	-92.106	-13.552	62.353	-93.801	-87.616	-40.259	98.364	-89.445	-85.276	-82.976	-77.044	96.520	-79.764	-8191	255	
3317.751	1	1	0	0	0.13907	0.15369	0.18075	0.36745	0.20243	0.12136	0.11915	0.32496	0.12517	0.19022	0.066257	0.32989	0.30063	0.1373	0.17595	0.072253	-2.4667	-2.4958	-2.5417	-2.9604	-2.5792	-2.8958	-2.8708	-2.4958	-2.9458	-2.55	-2.7292	-2.8479	-2.6458	-2.7896	-2.6979	-2.6688	190.684	-35.539	125.964	-39.408	184.296	196.493	-79.011	158.733	230.674	74.440	241.851	224.570	232.250	227.775	71.910	122.864	0.00034591	0.00050449	0.00031441	969.23	3.0301e-06	2.6024e-06	1048.2	270.55	5.9249e-06	4.7116e-06	327.84	104.8	86.811	33.124	1.0282e-06	47.163	0.00021899	0.00023841	5.9856e-05	790.67	2.3865e-06	2.5556e-06	880.6	227.23	2.4386e-06	2.6002e-06	274.31	88.234	73.545	28.056	2.3933e-06	39.483	7.690	-62.813	-56.878	-92.646	99.062	58.527	-93.643	-87.005	19.818	245.091	-89.478	-84.979	-82.871	-76.957	252.553	-80.190	-8191	255	
3317.872	1	1	0	0	0.12122	0.25459	0.0053039	0.14477	0.26299	0.084367	0.10337	0.29002	0.011461	0.20708	0.15532	0.12669	0.23504	0.15452	0.14641	0.065592	-2.3333	-2.5	-2.4292	-3.0542	-2.5917	-2.6729	-2.9354	-2.4	-2.7625	-2.8125	-2.6646	-3.0354	-2.5563	-2.8375	-2.8708	-2.5979	208.504	219.374	153.715	-58.803	-54.716	61.277	83.657	201.099	210.980	176.460	210.428	189.122	-89.728	146.200	228.877	9.166	0.00039066	0.00047604	0.0001036	978.1	5.2116e-06	5.7601e-06	1054.8	273.12	3.8438e-06	1.8641e-06	331.33	105.58	88.054	33.506	1.0663e-05	46.956	0.00024028	0.0002293	5.7023e-05	800.68	2.6174e-06	2.5322e-06	884.62	229.03	2.477e-06	2.4834e-06	276.85	89.144	74.354	28.364	2.1798e-06	39.698	29.121	-104.942	-56.979	-91.798	131.258	44.087	-93.571	-86.984	-55.085	55.072	-89.540	-85.287	-82.958	-77.193	34.493	-80.602	-8191	255	
3317.968	1	1	0	0	0.18091	0.11781	0.13831	0.24222	0.13896	0.14445	0.25193	0.30542	0.10625	0.11332	0.24948	0.15615	0.21698	0.093958	0.14176	0.22005	-2.4042	-2.5729	-2.4771	-2.8688	-2.5062	-2.7167	-3.0667	-2.5583	-2.6729	-2.7021	-2.4271	-3.1583	-2.5667	-2.5521	-2.9	-2.5354	-99.086	205.443	252.802	11.669	210.354	118.135	117.653	156.478	74.093	-22.732	-104.461	193.009	-58.239	77.105	-59.513	159.509	0.00054567	0.00094543	0.00016789	972.93	5.7876e-06	2.429e-06	1052.8	269.46	7.5351e-06	1.2302e-06	327.04	103.86	86.476	32.846	1.1817e-06	46.166	0.00024634	0.00021503	5.5099e-05	795.92	2.5224e-06	2.248e-06	884.16	227.47	2.5246e-06	2.2216e-06	274.17	87.622	73.218	27.821	2.0161e-06	38.939	15.754	4.191	-36.161	-92.836	36.692	243.049	-93.592	-87.236	21.075	110.078	-89.709	-85.510	-82.886	-77.120	-72.803	-80.039	-8191	255	
3318.064	1	1	0	0	0.075122	0.2084	0.11979	0.17665	0.10759	0.054499	0.03957	0.21374	0.1674	0.079596	0.22627	0.15719	0.17878	0.26232	0.12435	0.092287	-2.1521	-2.8292	-2.2125	-2.8458	-2.6146	-2.6083	-3.0917	-2.5396	-2.6771	-2.8229	-2.5292	-2.8271	-2.6396	-2.6604	-2.9938	-2.5667	52.445	63.476	198.265	69.063	183.853	-56.518	-64.349	244.012	218.626	227.283	251.650	148.737	255.071	210.255	234.208	-6.175	0.0005017	0.00062345	8.7236e-05	959.85	3.2372e-06	3.4401e-06	1060.6	267.94	9.7984e-06	5.5937e-06	328.88	104.3	86.418	33.083	6.2559e-06	46.643	0.0002284	0.00019852	5.1959e-05	792.69	2.4723e-06	2.1772e-06	883.06	227.06	2.4346e-06	2.1902e-06	274.52	88.375	73.114	27.985	2.079e-06	39.395	-19.530	-53.390	-17.633	-91.961	122.884	74.490	-93.793	-86.914	76.477	62.054	-89.581	-85.496	-82.810	-76.898	144.724	-80.019	-8191	255	
3318.160	1	1	0	0	0.25981	0.028427	0.26837	0.044192	0.29888	0.044751	0.2898	0.1336	0.25918	0.12007	0.20659	0.19385	0.099196	0.060146	0.079385	0.20135	-2.3	-2.8354	-2.6229	-2.9729	-2.6458	-2.5354	-2.9896	-2.6312	-2.6083	-2.8417	-2.6875	-2.9708	-2.7271	-2.5146	-2.9437	-2.4896	101.180	71.101	217.024	-93.896	101.237	236.040	249.457	152.547	-25.793	109.258	-77.580	189.783	214.519	204.340	-104.068	206.054	0.00037582	0.0006464	6.9096e-05	975.4	6.6384e-07	4.269e-06	1059.2	271.2	1.6336e-06	6.9325e-06	331.08	105.04	87.54	32.999	1.6815e-06	47.204	0.00022137	0.00019639	5.2546e-05	800.46	2.3347e-06	2.0827e-06	884.78	227.64	2.3157e-06	2.0657e-06	276.03	88.668	73.363	27.917	2.1566e-06	39.743	1.282	-0.621	54.114	-92.822	8.323	29.526	-93.841	-87.190	-75.218	-8.412	-89.370	-85.549	-82.586	-76.870	-20.194	-80.262	-8191	255	
3318.279	1	1	0	0	0.41001	0.065497	0.085488	0.19168	0.12148	0.10984	0.11856	0.13522	0.089299	0.13899	0.053619	0.31371	0.21551	0.21346	0.21836	0.081389	-2.4146	-2.9979	-2.3187	-2.8292	-2.7854	-2.4896	-3.1604	-2.4938	-2.6375	-2.85	-2.5417	-2.7104	-2.8083	-2.3688	-3.0062	-2.6063	-5.245	195.068	226.062	67.514	214.998	191.153	216.961	183.751	183.208	-79.394	246.601	-19.167	-16.313	182.601	198.928	220.908	0.00038379	0.00035764	9.1853e-05	977.36	2.3732e-06	6.115e-06	1068.4	270.25	5.2357e-06	6.8881e-06	329.55	105.25	86.805	32.769	3.1756e-06	46.6	0.00021486	0.00018656	5.613e-05	804.99	2.2427e-06	2.0951e-06	890.35	227.34	2.3244e-06	2.0639e-06	276.18	88.429	72.995	27.763	2.322e-06	39.318	7.471	-45.939	-34.359	-92.074	35.315	13.275	-93.680	-86.975	-15.074	21.214	-89.165	-84.687	-82.743	-76.596	184.427	-80.670	-8191	255	
3318.353	1	1	0	0	0.29818	0.13388	0.094446	0.23161	0.16746	0.22704	0.13365	0.19673	0.1683	0.28202	0.10084	0.25218	0.27277	0.19175	0.16652	0.19406	-2.2812	-2.9917	-2.3896	-2.7354	-2.5062	-2.5083	-3.2958	-2.4771	-2.5542	-2.8021	-2.5083	-2.8167	-2.8917	-2.3688	-2.8208	-2.6021	-44.349	2.743	-38.593	153.635	15.837	211.437	238.549	133.277	222.131	135.619	-67.415	239.053	231.950	-93.615	250.792	6.631	0.00050663	0.00022597	6.351e-05	979.11	4.1945e-06	4.9592e-06	1048.2	266.84	8.6736e-06	7.8491e-06	322.72	102.95	85.737	32.742	3.9133e-06	46.196	0.00021759	0.0001947	6.1628e-05	803.01	2.2661e-06	2.1187e-06	882.02	224.66	2.3032e-06	2.1672e-06	272.44	86.832	71.645	27.47	2.5415e-06	39.072	32.673	-10.530	-46.630	-92.056	78.441	94.063	-93.460	-87.189	-1.465	43.358	-90.010	-84.719	-82.817	-77.110	227.844	-79.865	-8191	255	
3318.449	1	1	0	0	0.14265	0.45823	0.12378	0.22267	0.2285	0.15777	0.050729	0.32128	0.10608	0.12643	0.1795	0.090497	0.13393	0.30084	0.037693	0.49766	-2.2438	-2.8125	-2.4792	-2.5021	-2.9604	-2.5438	-2.8375	-2.7125	-2.6396	-2.8063	-2.5917	-2.7562	-2.7375	-2.65	-2.8604	-2.6146	128.246	138.834	82.524	168.189	-59.037	74.300	179.671	-104.214	24.639	234.006	196.179	202.707	-45.570	247.421	-63.694	174.902	0.00031329	0.00018806	0.00015441	971.48	5.2043e-06	2.348e-06	1055.3	268.9	3.9513e-06	2.8719e-06	327.61	103.76	86.252	32.544	3.2155e-06	46.354	0.00021152	0.00020652	6.6729e-05	794.08	2.2146e-06	2.2245e-06	883.35	225.41	2.1965e-06	2.1992e-06	274.4	87.495	72.322	27.655	2.5676e-06	39.303	15.959	-48.355	19.101	-91.978	15.929	91.774	-93.850	-87.307	-4.483	-39.188	-89.807	-85.039	-82.612	-77.285	-14.137	-80.260	-8191	255	
3318.568	1	1	0	0	0.087879	0.17308	0.10687	0.26397	0.1099	0.26372	0.28258	0.34284	0.24872	0.087822	0.17187	0.048523	0.13658	0.070385	0.060564	0.35592	-2.0646	-2.8333	-2.4833	-2.65	-2.9375	-2.4479	-2.9813	-2.8479	-2.6729	-3.0208	-2.6771	-2.475	-2.9104	-2.5187	-2.6312	-2.8979	149.734	-39.737	-99.898	-77.117	41.444	162.892	188.020	219.391	-3.635	42.594	-75.835	231.911	152.697	135.057	124.325	180.118	0.00039759	0.00027873	0.00019791	966.79	6.8531e-07	1.2286e-06	1059.8	267.53	6.1043e-06	3.1022e-06	328.44	104.98	85.856	33.108	5.1124e-06	46.708	0.00020132	0.00021764	6.5934e-05	795.06	2.1495e-06	2.4207e-06	887.72	225.18	2.1586e-06	2.3561e-06	275.44	88.349	72.301	27.883	2.4123e-06	39.511	15.599	241.342	-16.359	-92.857	17.083	39.055	-93.415	-87.099	-105.031	-7.446	-89.589	-85.161	-82.478	-76.693	135.743	-80.749	-8191	255	
3318.664	1	1	0	0	0.16436	0.035779	0.3446	0.19732	0.17269	0.19685	0.25526	0.4727	0.12388	0.15646	0.13586	0.18606	0.15897	0.12443	0.03827	0.081518	-2.1375	-2.9146	-2.6354	-2.5542	-2.9062	-2.3729	-2.875	-3.0021	-2.3854	-2.9125	-2.6771	-2.5146	-2.8104	-2.2396	-2.7771	-2.8292	87.818	62.130	168.522	158.067	28.038	176.309	-104.701	213.578	-16.116	-73.607	226.924	-39.982	103.678	240.055	50.710	-27.482	0.00044364	0.00019605	2.2607e-05	956.55	2.237e-06	3.1866e-06	1053.5	266.73	3.5837e-06	3.0516e-06	327.19	103.92	85.17	32.563	3.9223e-06	46.755	0.00019833	0.00022869	6.2142e-05	789.37	2.0925e-06	2.5472e-06	884.04	224.55	2.2846e-06	2.6093e-06	272.92	87.192	72.078	27.615	2.5342e-06	39.14	-6.571	133.860	-97.609	-92.179	-18.884	-90.386	-93.839	-87.418	-57.802	85.291	-89.524	-85.360	-82.794	-76.903	-28.452	-80.075	-8191	255	
3318.760	1	1	0	0	0.044172	0.25291	0.26087	0.36026	0.27422	0.21911	0.17629	0.17009	0.10062	0.1589	0.071271	0.18608	0.15084	0.17567	0.18487	0.22337	-2.0875	-2.7667	-2.4542	-2.5271	-2.9583	-2.5354	-2.6854	-2.7417	-2.6292	-2.725	-2.7292	-2.5646	-2.9167	-2.5187	-2.4292	-2.8688	180.826	218.979	144.052	88.353	16.431	173.073	207.297	241.379	-55.538	75.348	146.704	220.283	217.772	222.280	125.017	14.820	0.0002762	0.00071825	0.00012749	970.4	1.3983e-06	3.5715e-06	1040.9	264.05	5.6915e-06	4.6754e-06	323.69	104.09	85.096	32.746	2.5006e-06	46.857	0.0002191	0.00024999	6.2231e-05	794.76	2.3504e-06	2.7454e-06	879.29	223.26	2.5236e-06	2.7904e-06	271.58	87.5	72.18	27.852	2.4674e-06	39.303	5.107	10.743	-26.672	-91.795	90.099	-7.832	-93.722	-87.163	226.625	29.647	-89.237	-85.025	-82.869	-77.012	38.574	-80.144	-8191	255	
3318.856	1	1	0	0	0.25905	0.17203	0.19202	0.32262	0.080299	0.16218	0.25538	0.21114	0.14669	0.13791	0.21018	0.018833	0.23177	0.11324	0.19528	0.1342	-1.925	-2.8375	-2.675	-2.3521	-2.8896	-2.5187	-2.7854	-2.9354	-2.7729	-2.4896	-2.8792	-2.3875	-2.9354	-2.6854	-2.5896	-2.9062	-40.121	141.409	-55.598	96.179	-40.863	147.005	190.866	215.318	153.646	-82.176	-97.198	86.063	-70.581	-53.628	160.763	6.007	0.00030401	0.00077152	0.00012347	959.1	4.3241e-06	4.3605e-06	1057.9	265.99	5.9064e-06	4.0297e-06	328.26	104.88	86.565	32.719	8.9798e-06	47.388	0.00024957	0.0002516	6.1863e-05	791.19	2.5713e-06	2.7453e-06	883.05	224.1	2.6694e-06	2.7777e-06	274.81	88.294	73.161	27.998	2.5227e-06	39.951	3.387	37.791	-1.408	-92.431	71.136	12.966	-93.799	-87.541	151.622	32.935	-89.649	-85.238	-82.752	-76.957	185.164	-80.418	-8191	255	
3318.952	1	1	0	0	0.086904	0.23622	0.057222	0.048767	0.20915	0.16505	0.54903	0.17597	0.25206	0.12914	0.10923	0.28474	0.29492	0.080644	0.23633	0.040591	-2.0417	-2.6833	-2.7313	-2.3417	-2.9437	-2.6562	-2.6854	-2.8583	-2.5875	-2.6479	-2.8208	-2.4313	-2.8146	-2.6917	-2.4437	-2.6542	-98.749	105.657	69.136	-79.194	178.017	186.601	225.802	137.776	253.934	187.797	-30.943	216.453	196.660	252.782	-46.062	229.578	0.00041622	0.00060531	0.00016142	956.32	2.177e-06	9.4036e-06	1060	264.84	9.023e-06	1.0552e-05	326.97	105.25	85.866	32.606	1.1333e-06	46.435	0.00027545	0.00025274	6.3811e-05	793.13	2.9034e-06	2.8283e-06	889.8	224.69	2.9807e-06	2.7835e-06	274.28	88.469	72.701	27.806	2.4563e-06	39.174	-21.757	-61.343	2.714	-91.898	28.398	-6.467	-93.681	-87.330	67.009	-1.990	-89.707	-85.404	-83.148	-77.057	47.772	-80.284	-8191	255	
3319.048	1	1	0	0	0.091192	0.13099	0.076381	0.26199	0.4369	0.074267	0.071697	0.29669	0.072413	0.14695	0.091836	0.081806	0.27196	0.14111	0.24123	0.12629	-2.1167	-2.5375	-2.8125	-2.3583	-2.7396	-2.7542	-2.5104	-2.8792	-2.3646	-2.4667	-2.8042	-2.4375	-2.6437	-2.5812	-2.4813	-2.6521	-75.916	223.046	23.201	173.620	96.753	-58.886	185.101	230.176	106.201	-0.146	184.877	168.530	174.794	73.470	155.976	227.948	0.00036821	0.00027649	7.5771e-05	944.02	1.4418e-06	4.0267e-06	1048	265.68	4.1604e-06	7.8037e-06	325.81	104.51	84.698	32.454	2.6243e-06	45.86	0.00027225	0.00024108	5.9079e-05	791.54	2.8854e-06	2.6084e-06	877.6	224.14	2.9518e-06	2.6023e-06	272.58	87.722	72.173	27.666	2.496e-06	39.166	-9.053	0.774	235.565	-92.273	87.730	12.499	-93.883	-87.144	2.435	17.638	-89.781	-85.091	-82.086	-77.022	68.394	-80.110	-8191	255	
3319.169	1	1	0	0	0.16944	0.041491	0.33373	0.029084	0.15287	0.062979	0.099498	0.037773	0.067074	0.17435	0.23296	0.071509	0.14626	0.13554	0.049233	0.12918	-2.0979	-2.4938	-2.9208	-2.5563	-2.6542	-2.8833	-2.5604	-3.0521	-2.5125	-2.4062	-2.9021	-2.4604	-2.8271	-2.7313	-2.425	-2.8125	46.302	86.318	66.361	187.237	195.360	130.262	214.907	118.107	42.289	39.934	239.302	237.088	221.740	185.890	200.341	-52.685	0.00045413	0.00072666	8.2423e-05	958.57	3.0721e-06	1.3113e-05	1045.4	263.45	9.3363e-06	1.9225e-06	323.44	104.27	84.771	32.19	3.0671e-06	46.224	0.0002738	0.00023598	6.1267e-05	798	2.819e-06	2.556e-06	878.49	223.47	2.8688e-06	2.6251e-06	270.33	87.82	71.705	27.445	2.4363e-06	39.156	10.352	24.396	43.258	-92.802	-13.185	41.879	-93.672	-86.967	1.537	217.071	-89.391	-85.030	-82.734	-77.289	-12.323	-80.499	-8191	255	
3319.265	1	1	0	0	0.12592	0.11382	0.1321	0.13111	0.089781	0.025599	0.14913	0.35099	0.21443	0.14875	0.20126	0.23849	0.061243	0.15254	0.18121	0.14134	-2.1917	-2.3979	-2.8271	-2.4958	-2.7104	-2.7729	-2.4167	-2.8167	-2.6167	-2.5479	-2.9396	-2.5354	-2.6583	-2.8771	-2.5187	-2.7917	198.321	181.947	176.999	-54.879	210.191	-51.603	253.986	184.804	221.883	126.484	180.908	195.755	181.948	-10.076	71.616	155.501	0.00029609	0.0001861	6.4834e-05	962.12	4.1852e-06	7.3601e-06	1051.6	262.85	9.5933e-06	5.8104e-06	323.29	104.97	84.504	32.465	6.2726e-06	46.608	0.0002451	0.00021618	6.0377e-05	801.51	2.5891e-06	2.3118e-06	880.53	222.29	2.64e-06	2.3998e-06	272.02	88.32	71.741	27.528	2.5195e-06	39.493	-24.798	-65.291	148.022	-92.150	185.266	-18.319	-93.743	-87.103	-27.330	64.965	-89.482	-84.770	-82.963	-76.615	118.803	-80.152	-8191	255	
3319.360	1	1	0	0	0.038309	0.057495	0.25034	0.145	0.19051	0.15575	0.27964	0.32171	0.028189	0.26462	0.1162	0.088775	0.12295	0.14172	0.24322	0.18312	-2.3	-2.4188	-2.7896	-2.5083	-2.5187	-2.8	-2.6188	-2.8646	-2.8646	-2.4021	-2.7521	-2.7104	-2.6104	-2.975	-2.5812	-2.8542	-21.063	-46.320	-67.126	-31.531	-89.623	-78.675	157.678	219.682	34.435	239.834	107.225	173.500	140.245	160.374	-97.191	-53.237	0.00025561	0.00033476	0.00026419	960.6	6.7496e-06	4.5338e-06	1038.6	261.81	7.0324e-06	4.4389e-06	316.79	101.36	83.333	31.57	5.727e-06	45.471	0.00023288	0.000214	6.4906e-05	795.14	2.4909e-06	2.3109e-06	876.22	221.17	2.5088e-06	2.246e-06	267.28	85.737	70.106	26.939	2.5284e-06	38.577	2.213	12.463	-0.214	-92.632	70.130	53.522	-93.753	-86.873	31.991	51.775	-89.504	-85.251	-82.900	-77.122	-36.205	-80.224	-8191	255	
3319.456	1	1	0	0	0.049736	0.24716	0.16207	0.14793	0.18993	0.19758	0.24149	0.16378	0.15814	0.1432	0.12329	0.12291	0.13417	0.18009	0.21259	0.25781	-2.2479	-2.4521	-2.8542	-2.4542	-2.5958	-2.8604	-2.4708	-2.8479	-2.6562	-2.4771	-2.9396	-2.7542	-2.475	-3.1	-2.5062	-2.7646	182.595	250.949	120.568	134.914	-28.651	198.798	-103.965	167.909	80.035	84.832	147.385	191.092	-84.351	209.676	-80.478	194.619	0.00035255	0.00037039	0.00012311	958.46	4.1044e-06	2.6391e-06	1042.2	261.24	8.2486e-06	5.18e-06	319.98	100.55	83.221	31.974	7.379e-06	45.93	0.00021767	0.00020218	6.4352e-05	790.42	2.3437e-06	2.2096e-06	872.56	220.19	2.2606e-06	2.1643e-06	268.68	85.621	70.243	27.087	2.5822e-06	38.78	-32.909	176.301	-1.268	-92.479	5.476	85.005	-93.765	-87.039	-25.694	50.291	-89.229	-85.312	-82.245	-76.674	61.825	-80.301	-8191	255	
3319.576	1	1	0	0	0.076142	0.34669	0.16639	0.10407	0.074711	0.31206	0.077519	0.083323	0.027406	0.10195	0.19576	0.061633	0.12008	0.14266	0.24216	0.10725	-2.3208	-2.2333	-2.6229	-2.6417	-2.3458	-2.7896	-2.7958	-2.5854	-2.8292	-2.5396	-2.6396	-2.6	-2.5812	-2.7854	-2.4979	-2.4667	68.378	233.622	-48.666	212.718	202.824	229.131	46.249	232.876	206.558	161.867	254.567	128.221	157.931	-46.602	27.835	126.059	0.00045434	0.00012667	7.9256e-05	957.24	3.3969e-06	4.2732e-06	1045.7	264.64	4.3157e-06	6.0098e-06	322.99	102.72	83.592	32.047	1.2568e-06	46.374	0.00020319	0.00020638	6.5116e-05	788.67	2.2153e-06	2.2241e-06	878.15	221.92	2.1101e-06	2.281e-06	271.55	86.346	70.381	27.214	2.4323e-06	38.993	-4.771	90.321	81.903	-92.639	123.011	-69.930	-93.628	-87.224	-34.160	117.398	-89.308	-84.831	-82.241	-76.983	235.301	-80.567	-8191	255	
3319.648	1	1	0	0	0.17352	0.098789	0.13923	0.16696	0.17124	0.16784	0.19309	0.15914	0.095031	0.17959	0.097592	0.17486	0.21511	0.15937	0.25295	0.1732	-2.4792	-2.3312	-2.5042	-2.4792	-2.6167	-2.9313	-2.7021	-2.6729	-3.0083	-2.5062	-2.6875	-2.6375	-2.65	-2.7396	-2.5229	-2.5312	-81.356	205.256	-16.194	140.683	-20.410	230.217	163.467	188.186	-73.929	100.288	171.541	210.008	-25.532	243.129	123.462	222.915	0.00015786	0.00025721	4.0907e-05	959.79	4.0871e-06	4.5329e-06	1053	261.44	2.0729e-06	7.691e-06	320.96	102.9	82.715	31.845	9.0921e-06	45.891	0.00019285	0.00021315	6.2259e-05	789.13	2.0373e-06	2.2985e-06	884.3	220.35	2.0491e-06	2.3404e-06	269.24	86	69.939	27.068	2.3519e-06	38.497	21.987	-58.980	-90.142	-92.143	123.914	-2.022	-93.757	-87.070	60.570	8.594	-89.452	-84.893	-82.718	-77.269	40.496	-79.974	-8191	255	
3319.744	1	1	0	0	0.11762	0.2082	0.18009	0.18956	0.14179	0.22076	0.35702	0.14171	0.06651	0.16727	0.11551	0.12963	0.19748	0.10797	0.28782	0.19401	-2.4167	-2.3521	-2.4521	-2.7042	-2.4521	-2.675	-2.6958	-2.5875	-2.8458	-2.3333	-2.6396	-2.9208	-2.4917	-2.7729	-2.8063	-2.5646	163.486	-68.406	161.733	233.788	132.481	202.092	207.561	228.419	63.421	174.577	204.068	227.282	215.139	-94.358	10.011	146.696	0.00042312	0.00098988	6.5861e-05	943.77	2.18e-06	3.1768e-06	1036.7	258.89	4.1898e-06	2.6435e-06	318.72	100.2	82.456	31.632	3.2025e-06	45.577	0.00019628	0.0002254	5.919e-05	777.45	2.0945e-06	2.3514e-06	870.87	217.8	2.0768e-06	2.4437e-06	266.53	84.411	69.361	26.836	2.2547e-06	38.161	6.359	14.654	-8.598	-93.013	-96.562	114.537	-93.467	-86.896	47.379	31.263	-89.640	-84.880	-82.538	-76.477	65.369	-80.190	-8191	255	
3319.840	1	1	0	0	0.16684	0.27729	0.17216	0.26588	0.075064	0.046425	0.15537	0.1447	0.19228	0.11807	0.2652	0.059183	0.040735	0.12256	0.15136	0.12313	-2.3958	-2.525	-2.6604	-2.8812	-2.4771	-2.7333	-2.6917	-2.4917	-2.8229	-2.5396	-2.7771	-2.9083	-2.6271	-2.8979	-2.7146	-2.5062	55.140	206.386	-103.545	200.603	-32.318	85.836	121.540	-37.022	125.175	142.642	220.683	202.083	71.067	-2.478	-79.713	62.673	0.00038814	0.00086848	0.00024535	955.51	5.5447e-06	1.779e-06	1041.9	260.11	3.4311e-06	3.7482e-06	317.3	101.03	82.18	31.7	3.7525e-06	45.704	0.00020425	0.00022325	5.6916e-05	777.35	2.1693e-06	2.4555e-06	871.94	218.43	2.2034e-06	2.3655e-06	265.57	84.759	69.429	26.877	2.1027e-06	38.588	-15.639	49.236	-23.739	-93.020	-3.520	2.858	-93.562	-87.107	68.108	-100.765	-89.755	-85.019	-82.770	-76.701	93.422	-79.968	-8191	255	
3319.961	1	1	0	0	0.095094	0.14583	0.18281	0.10102	0.12293	0.061394	0.071747	0.25716	0.32549	0.14382	0.19412	0.091869	0.11481	0.14044	0.19643	0.12785	-2.4896	-2.5687	-2.6708	-2.8563	-2.3458	-2.6396	-2.9437	-2.4917	-2.8875	-2.5771	-2.7833	-2.9375	-2.525	-2.7667	-2.8208	-2.5708	-32.275	-19.946	-47.673	-58.251	-77.343	-40.875	56.240	170.659	-49.019	251.527	133.978	174.594	184.142	46.775	-18.492	-71.355	0.00029374	0.00083048	0.00016165	970.43	2.812e-06	7.8998e-06	1048.4	261.06	7.8861e-06	9.8364e-06	321.45	102.73	83.414	32.369	5.6826e-06	45.97	0.00021769	0.00021562	5.387e-05	783.43	2.4629e-06	2.3779e-06	877.21	219.44	2.4982e-06	2.4001e-06	268.52	86.264	70.33	27.275	2.1155e-06	38.791	-21.697	-49.703	22.436	-92.190	139.601	-16.015	-93.397	-87.505	38.134	56.963	-89.813	-84.969	-82.801	-77.100	3.239	-79.707	-8191	255	
3320.057	1	1	0	0	0.38443	0.28615	0.088912	0.24268	0.18324	0.12308	0.15602	0.23272	0.11668	0.19343	0.067573	0.12139	0.099025	0.16668	0.18156	0.027728	-2.1167	-2.7333	-2.5438	-2.7729	-2.5125	-2.8021	-3.0542	-2.3937	-2.7583	-2.5521	-2.6188	-2.8146	-2.5583	-2.5646	-2.7146	-2.425	99.966	141.333	229.834	146.336	161.318	191.098	153.385	172.163	-3.716	148.098	216.372	159.122	46.929	96.406	225.989	8.988	0.00039511	0.00042328	9.6003e-05	947	4.1543e-06	3.0817e-06	1042.2	259.92	1.0346e-05	4.8498e-06	317.67	99.82	81.769	31.386	2.3954e-06	45.132	0.00023431	0.00020416	5.1152e-05	778.76	2.4067e-06	2.1653e-06	870.34	218.55	2.3064e-06	2.1506e-06	265.13	83.938	69.291	26.661	1.946e-06	37.978	-14.605	-38.657	-62.388	-92.977	140.952	4.732	-93.632	-87.074	10.372	58.218	-89.315	-85.021	-82.147	-76.432	108.711	-79.914	-8191	255	
3320.153	1	1	0	0	0.088246	0.2425	0.089524	0.12261	0.16345	0.20027	0.10722	0.12812	0.18314	0.12027	0.12521	0.15918	0.3434	0.12141	0.23025	0.13721	-2.4521	-2.5167	-2.2812	-2.8167	-2.3083	-2.5271	-3.0729	-2.6917	-2.8021	-2.675	-2.4396	-2.75	-2.5792	-2.6958	-2.9229	-2.5271	211.803	34.437	222.588	-21.316	47.940	-68.757	169.831	148.872	-32.986	178.504	182.775	185.491	-88.783	77.972	219.517	250.349	0.0002717	0.0010511	8.3918e-05	954.3	2.8924e-06	2.19e-06	1032.5	258.48	8.6254e-06	3.8626e-06	316.72	99.908	81.751	31.649	3.6121e-06	45.322	0.00021711	0.00019019	4.8298e-05	779.82	2.2991e-06	2.045e-06	864.6	217.34	2.3134e-06	2.1009e-06	264.46	84.357	69.26	26.74	1.9298e-06	38.255	16.482	1.714	48.893	-92.323	41.347	107.653	-93.342	-87.081	-4.801	33.080	-89.863	-84.979	-82.399	-76.723	58.164	-80.134	-8191	255	
3320.249	1	1	0	0	0.1546	0.29385	0.091512	0.26335	0.05169	0.32156	0.19109	0.054188	0.086406	0.2931	0.22633	0.1544	0.31097	0.22836	0.16707	0.073284	-2.3917	-2.725	-2.2792	-2.8167	-2.7729	-2.5812	-2.9479	-2.4437	-2.7167	-2.7542	-2.3167	-2.8604	-2.7417	-2.3292	-2.7646	-2.5042	-95.391	39.796	52.006	228.839	121.529	238.611	212.726	-63.726	36.947	65.781	133.137	-46.913	98.505	191.489	194.113	-100.027	0.00039714	0.00042579	0.00013493	946.45	2.8967e-06	8.5945e-07	1033.9	259.25	1.0178e-06	7.7217e-06	321.76	99.744	82.209	31.956	5.0273e-06	46.009	0.00021785	0.00018485	4.9501e-05	777.87	2.2356e-06	2.033e-06	864.45	217.91	2.1911e-06	1.9728e-06	266.6	84.988	69.524	26.868	1.9748e-06	38.744	23.183	0.421	-29.852	-91.758	-44.472	-97.911	-93.752	-86.891	54.192	-2.505	-89.219	-84.912	-82.540	-76.760	44.163	-79.695	-8191	255	
3320.346	1	1	0	0	0.052223	0.21775	0.087147	0.22195	0.12229	0.21089	0.38693	0.35851	0.21085	0.14397	0.20889	0.22309	0.13897	0.24063	0.1507	0.27667	-2.3125	-2.6583	-2.4938	-2.8937	-2.5375	-2.375	-2.8229	-2.6	-2.5604	-2.6708	-2.4917	-2.6312	-2.6958	-2.4708	-2.8563	-2.7542	34.334	173.185	243.216	237.670	-102.956	83.035	179.821	202.472	110.131	-82.168	191.452	135.173	-74.944	101.950	210.080	142.942	0.00048121	0.00056883	0.00014673	954.45	3.8473e-06	5.0183e-06	1045.1	260.73	2.2088e-06	5.6335e-06	321.59	101.03	82.558	31.633	7.2262e-06	45.717	0.00019915	0.00018572	5.251e-05	787.4	2.1327e-06	1.9751e-06	874.16	219.16	2.1209e-06	1.8906e-06	268.32	85.09	69.647	26.811	2.0872e-06	38.391	17.812	-29.994	10.262	-92.525	-28.280	82.313	-93.632	-87.404	221.499	52.739	-89.071	-84.771	-82.581	-76.829	53.232	-80.303	-8191	255	
3320.440	1	1	0	0	0.27005	0.046783	0.14754	0.32104	0.010635	0.096826	0.43201	0.14812	0.095514	0.23228	0.13048	0.047091	0.02849	0.16082	0.27979	0.1708	-2.1042	-2.6875	-2.4542	-2.7521	-2.6458	-2.4729	-3.0938	-2.7396	-2.6688	-2.7354	-2.4625	-2.6875	-2.7229	-2.3583	-2.8521	-2.6958	180.266	242.477	186.181	204.547	-12.321	-22.881	215.535	225.639	51.040	58.568	-82.224	-56.807	176.175	-5.987	222.553	148.791	0.0001896	0.00034521	0.00010737	949.92	5.8143e-06	5.7254e-06	1036.7	256.08	6.0757e-06	4.8354e-06	314.18	99.899	81.011	31.063	4.4068e-06	45.116	0.00019306	0.00016963	5.4457e-05	781.38	2.0415e-06	1.9007e-06	864.92	216.81	2.0787e-06	1.851e-06	263.43	83.473	68.223	26.319	2.1416e-06	38.025	-12.594	207.563	49.770	-92.456	79.481	7.055	-93.579	-86.925	133.848	12.822	-89.527	-84.952	-82.501	-77.158	63.594	-80.396	-8191	255	
3320.538	1	1	0	0	0.15003	0.06349	0.023423	0.049555	0.057465	0.16534	0.25824	0.096932	0.10772	0.099819	0.17985	0.082007	0.12421	0.16798	0.11409	0.22599	-1.9125	-2.6604	-2.6437	-2.5604	-2.6875	-2.4292	-2.9437	-2.5208	-2.5667	-2.9229	-2.6375	-2.7375	-2.8979	-2.4292	-2.7687	-2.7583	13.910	-16.825	89.180	178.827	244.773	39.756	176.651	228.209	197.063	23.524	12.349	95.529	-13.728	65.206	195.564	125.513	0.00040984	0.00031388	0.00010566	952.76	3.8538e-06	4.6435e-06	1030.6	257.52	3.819e-06	6.4503e-06	313.81	99.47	81.505	31.303	8.9381e-06	45.47	0.00018707	0.00016801	5.5978e-05	774.7	1.9227e-06	1.8877e-06	862.38	216.54	1.9213e-06	1.9561e-06	265.5	83.974	68.854	26.569	2.3819e-06	38.128	11.634	-62.751	-71.183	-93.035	58.054	-45.533	-94.048	-87.352	-14.490	49.947	-89.583	-84.904	-82.412	-76.934	112.609	-80.018	-8191	255	
3320.657	1	1	0	0	0.21079	0.086919	0.18127	0.33306	0.2177	0.17025	0.42082	0.24901	0.17601	0.13212	0.10588	0.032429	0.12316	0.0712	0.18222	0.25833	-2.0687	-2.7521	-2.3667	-2.5708	-2.775	-2.3583	-2.9062	-2.7375	-2.4708	-2.7771	-2.6271	-2.6979	-2.9021	-2.4854	-2.825	-2.6146	-67.399	47.876	236.178	-34.369	195.418	-16.866	181.222	-72.828	169.010	-16.936	-74.346	-73.559	205.212	-46.963	115.554	197.891	0.00036203	0.0001952	0.00012492	957.47	5.1026e-06	4.2191e-06	1036.9	258.65	1.0649e-05	3.9312e-06	315.94	101.55	82.574	31.509	3.0122e-06	45.605	0.00018664	0.00018526	5.7298e-05	777.69	1.9053e-06	2.0523e-06	868	217.84	1.9267e-06	2.0459e-06	266.35	84.902	69.307	26.717	2.1762e-06	38.47	-1.779	31.503	80.123	-92.900	36.656	10.855	-93.532	-86.766	2.926	110.225	-89.471	-84.935	-82.510	-76.600	124.790	-79.982	-8191	255	
3320.753	1	1	0	0	0.077075	0.2395	0.082373	0.13382	0.11898	0.064636	0.12966	0.1183	0.12441	0.12782	0.1862	0.15637	0.34003	0.095918	0.063372	0.079933	-1.9562	-2.9458	-2.6688	-2.5312	-2.8583	-2.4562	-2.8854	-2.9958	-2.2104	-2.9729	-2.8312	-2.6354	-3.0146	-2.6333	-2.6479	-3.0062	40.838	103.694	201.003	111.729	192.223	181.718	148.368	247.134	66.018	159.846	181.148	-16.658	248.712	-67.748	3.693	-55.446	0.00028536	0.00034664	0.00012479	942.85	4.8158e-06	5.7522e-06	1036.6	259.16	6.0486e-06	4.6197e-06	317.46	99.426	81.088	31.339	1.2405e-05	45.386	0.00018145	0.00018704	5.4046e-05	769.06	1.828e-06	2.1551e-06	867.2	217.58	1.8456e-06	2.08e-06	264.58	83.734	68.225	26.51	2.0817e-06	37.957	-8.277	45.712	-40.678	-92.629	49.766	200.312	-93.515	-87.181	-11.622	120.606	-89.579	-85.016	-82.823	-76.887	19.241	-80.082	-8191	255	
3320.849	1	1	0	0	0.17542	0.20233	0.24341	0.19631	0.1465	0.13031	0.11671	0.19534	0.11584	0.20633	0.24883	0.15332	0.21374	0.21448	0.20434	0.10585	-2.0229	-2.9479	-2.6604	-2.4958	-2.9521	-2.4292	-2.8146	-2.9458	-2.45	-2.7958	-2.6583	-2.45	-2.8312	-2.625	-2.4688	-2.9854	79.320	150.673	98.031	202.184	-8.411	100.204	160.911	216.461	146.308	-58.561	38.943	-76.238	154.187	-25.349	196.402	101.736	0.00037484	0.00070834	4.773e-05	937.24	2.7465e-06	6.5346e-06	1033.1	258.64	3.0859e-06	7.1028e-06	318.72	101.37	82.691	31.331	4.9808e-06	45.723	0.00017507	0.00019754	5.0771e-05	770.25	1.8431e-06	2.1981e-06	866.32	217.24	1.9544e-06	2.2083e-06	266.79	84.475	69.324	26.686	1.9878e-06	38.307	1.622	14.590	-54.141	-92.974	-86.266	105.883	-93.696	-87.557	239.689	89.236	-89.245	-85.142	-82.760	-76.656	42.025	-80.241	-8191	255	
3320.945	1	1	0	0	0.20964	0.12001	0.062243	0.22885	0.14988	0.27492	0.035446	0.1552	0.18	0.072129	0.26536	0.13615	0.10894	0.20537	0.25435	0.30005	-1.9312	-2.8479	-2.5687	-2.3729	-2.8292	-2.6229	-2.6583	-2.9792	-2.45	-2.7208	-2.5875	-2.5917	-2.9333	-2.6104	-2.6292	-2.9646	-63.536	-65.385	164.364	224.195	170.266	25.283	63.861	65.322	-5.195	156.977	65.756	23.693	-98.394	-54.129	173.858	-81.038	0.00045852	0.00043935	0.00017867	944.42	3.386e-06	2.8521e-06	1041.7	261.82	9.9608e-06	3.6118e-06	322.03	101.96	83.302	32.274	1.0491e-05	45.798	0.0001909	0.00019826	5.0845e-05	771.61	1.9959e-06	2.178e-06	872.15	219.63	2.1149e-06	2.1943e-06	269.17	85.941	70.402	27.162	1.9631e-06	38.724	-8.894	-74.734	-89.561	-92.854	66.220	2.247	-93.316	-86.938	5.811	189.459	-89.080	-84.530	-82.518	-77.019	12.798	-79.903	-8191	255	
3321.041	1	1	0	0	0.30211	0.14072	0.17256	0.1711	0.10848	0.21808	0.15767	0.10484	0.071765	0.23477	0.11733	0.0091274	0.1437	0.085041	0.048918	0.068866	-2.0438	-2.7854	-2.6417	-2.4479	-2.9479	-2.5229	-2.7208	-2.8271	-2.5125	-2.7292	-2.7687	-2.6458	-2.7146	-2.5771	-2.4417	-2.8792	94.148	-94.770	119.471	80.565	14.332	180.192	167.874	235.215	116.339	-72.576	224.772	212.710	14.152	78.708	124.539	-85.466	0.00018906	0.00053478	7.2417e-05	963.28	1.4655e-06	4.4153e-06	1054.4	263.51	5.5899e-06	8.3978e-06	323.88	102.91	84.031	31.99	5.536e-06	46.373	0.00020775	0.00020402	4.9347e-05	780.71	2.2348e-06	2.125e-06	879.07	221.2	2.2381e-06	2.1358e-06	271.47	86.784	71.01	27.042	1.9287e-06	38.84	-39.121	24.779	-13.669	-91.760	64.830	-0.072	-94.015	-87.071	163.468	24.339	-89.482	-84.845	-82.546	-77.011	31.656	-80.562	-8191	255	
3321.137	1	1	0	0	0.14438	0.215	0.046376	0.16377	0.32431	0.30755	0.19166	0.25433	0.069696	0.18391	0.24264	0.4225	0.14951	0.17846	0.10573	0.28026	-1.9229	-2.3438	-2.8271	-2.4854	-2.85	-2.8229	-2.5604	-3.0875	-2.6417	-2.6375	-2.9917	-2.4375	-2.8104	-2.8187	-2.4875	-3.1688	218.082	93.180	-59.994	-90.803	-83.251	176.412	216.456	244.791	-16.465	113.834	-98.758	194.243	57.973	242.943	-99.671	-89.398	0.00034314	0.00085021	6.401e-05	948.69	2.9487e-06	9.518e-06	1041.4	261.06	2.9979e-06	3.3804e-06	321.58	101.34	83.4	31.558	2.5134e-06	45.676	0.00021591	0.00018774	4.8581e-05	775.74	2.1849e-06	2.0518e-06	869.24	220.03	2.2861e-06	2.0745e-06	269	85.523	70.246	26.918	1.8568e-06	38.555	-1.424	21.039	75.095	-92.793	113.513	-69.369	-93.638	-87.271	0.087	7.621	-89.070	-84.958	-82.254	-77.091	35.125	-80.236	-8191	255	
3321.258	1	1	0	0	0.11086	0.14511	0.2441	0.11118	0.10397	0.15686	0.17056	0.28426	0.14139	0.20641	0.092191	0.11234	0.24773	0.16197	0.21586	0.3462	-2.0458	-2.4188	-2.8167	-2.4083	-2.7313	-2.6813	-2.5146	-2.9313	-2.7062	-2.5604	-2.8937	-2.4646	-2.7146	-2.8812	-2.3563	-2.7583	-90.632	49.951	-77.066	-74.624	-45.337	-91.641	149.688	-68.232	226.630	222.245	-85.172	242.346	-51.379	-71.256	209.310	137.909	0.00032846	0.0006384	4.1989e-05	950.01	6.6774e-06	6.5692e-06	1044	263.75	6.2445e-06	3.4625e-06	322.78	102.23	83.43	31.997	7.3805e-06	46.004	0.0002189	0.00018862	4.8119e-05	779.23	2.3328e-06	2.0733e-06	875.44	220.95	2.3896e-06	2.0702e-06	270.29	86.365	70.484	27.065	2.0556e-06	38.983	-0.818	-88.939	180.308	-92.868	57.559	54.807	-93.851	-87.165	41.109	34.868	-89.321	-85.156	-82.349	-76.643	64.276	-80.060	-8191	255	
3321.353	1	1	0	0	0.27522	0.20129	0.062107	0.31755	0.12415	0.015627	0.20524	0.22054	0.15384	0.17733	0.29843	0.037722	0.12168	0.21173	0.20129	0.16259	-2.1896	-2.3812	-2.7562	-2.4896	-2.6437	-2.6833	-2.4792	-2.9417	-2.5312	-2.6063	-2.8333	-2.6708	-2.7792	-2.9208	-2.4479	-2.6937	167.386	176.015	7.440	130.866	36.574	239.394	229.106	106.846	109.481	228.625	-98.053	74.009	89.837	178.422	-13.252	107.190	0.00037635	0.0004324	0.0001243	952.31	4.4162e-06	6.6408e-06	1051	262.31	8.1193e-06	3.9343e-06	325.71	104.6	84.579	31.952	1.0214e-05	46.676	0.00021722	0.00019305	5.1683e-05	784.79	2.2505e-06	1.9867e-06	878.89	221.59	2.1833e-06	2.0108e-06	271.53	87.396	71.166	27.126	2.032e-06	39.416	-6.818	-18.968	15.692	-92.643	76.399	12.454	-93.307	-87.056	-81.467	80.898	-89.566	-85.095	-82.907	-76.668	-4.884	-80.059	-8191	255	
3321.449	1	1	0	0	0.11402	0.042493	0.11493	0.16392	0.25403	0.12648	0.30298	0.14046	0.065858	0.18478	0.3868	0.24121	0.14937	0.29113	0.084322	0.13818	-2.2333	-2.4708	-2.8792	-2.6104	-2.7083	-2.6104	-2.5625	-2.9917	-2.4333	-2.4021	-2.6375	-2.4813	-2.2958	-2.9104	-2.3937	-2.8854	94.066	76.753	-74.930	-4.916	151.178	-10.615	209.529	192.929	-86.353	238.354	192.540	203.873	-86.217	164.385	71.690	178.040	0.00033475	0.00041572	0.00017645	959.33	1.9613e-06	5.2717e-06	1054.5	261.83	1.2205e-06	8.0824e-06	323.29	102.23	83.965	31.823	1.4406e-06	45.551	0.00020671	0.00018982	5.4806e-05	787.59	2.1562e-06	2.0563e-06	880.24	221.15	2.2387e-06	2.0273e-06	270.8	86.479	70.584	26.926	2.3763e-06	38.631	0.690	-25.558	-74.106	-92.430	16.816	8.454	-93.649	-87.284	-53.100	78.820	-89.311	-84.954	-83.296	-76.968	65.940	-80.171	-8191	255	
#DATA ENDS
