BOXY.EXE: ISS Imagent and Oximeter Data Acquisition Program Version 0.80
Ascii Record File

#ACQ INFORMATION
2  Detector Channels 
16  External MUX Channels 
1  Auxiliary Channels 
5000  Waveform (CCF) Frequency (Hz)
1  Waveforms Skipped 
30  Waveforms Averaged 
1  Cycles Averaged 
16  Acquisitions per Waveform 
10.0806  Updata Rate (Hz) 

#FILE INFORMATION
TRUE -- External MUX Channel results are PARSED.
FALSE -- AC DC and Phase are NOT grouped.
TRUE -- Companion Program Settings File CREATED.
FALSE -- AC data not excluded
FALSE -- DC data not excluded
FALSE -- Phase data not excluded
FALSE -- Auxillary Chn. data not excluded
Tab delimiters

#CALIBRATION STATE
TRUE -- Waveform Calibration Values APPLIED.


#AUX CALIBRATION VALUES
Val Type	aux-1	

Term	1.0000e+00	
Factor	0.0000e+00	


#WF CALIBRATION VALUES
A = Detector Channel
Val Type	A-AC1	A-AC2	A-AC3	A-AC4	A-AC5	A-AC6	A-AC7	A-AC8	A-AC9	A-AC10	A-AC11	A-AC12	A-AC13	A-AC14	A-AC15	A-AC16	A-DC1	A-DC2	A-DC3	A-DC4	A-DC5	A-DC6	A-DC7	A-DC8	A-DC9	A-DC10	A-DC11	A-DC12	A-DC13	A-DC14	A-DC15	A-DC16	A-Ph1	A-Ph2	A-Ph3	A-Ph4	A-Ph5	A-Ph6	A-Ph7	A-Ph8	A-Ph9	A-Ph10	A-Ph11	A-Ph12	A-Ph13	A-Ph14	A-Ph15	A-Ph16	

Term	0.00000e+00	0.00000e+00	0.00000e+00	0.00000e+00	0.00000e+00	0.00000e+00	0.00000e+00	0.00000e+00	0.00000e+00	0.00000e+00	0.00000e+00	0.00000e+00	0.00000e+00	0.00000e+00	0.00000e+00	0.00000e+00	0.00000e+00	0.00000e+00	0.00000e+00	0.00000e+00	0.00000e+00	0.00000e+00	0.00000e+00	0.00000e+00	0.00000e+00	0.00000e+00	0.00000e+00	0.00000e+00	0.00000e+00	0.00000e+00	0.00000e+00	0.00000e+00	0.00000e+00	0.00000e+00	0.00000e+00	0.00000e+00	0.00000e+00	0.00000e+00	0.00000e+00	0.00000e+00	0.00000e+00	0.00000e+00	0.00000e+00	0.00000e+00	0.00000e+00	0.00000e+00	0.00000e+00	0.00000e+00	
Factor	1.00000e+00	1.00000e+00	1.00000e+00	1.00000e+00	1.00000e+00	1.00000e+00	1.00000e+00	1.00000e+00	1.00000e+00	1.00000e+00	1.00000e+00	1.00000e+00	1.00000e+00	1.00000e+00	1.00000e+00	1.00000e+00	1.00000e+00	1.00000e+00	1.00000e+00	1.00000e+00	1.00000e+00	1.00000e+00	1.00000e+00	1.00000e+00	1.00000e+00	1.00000e+00	1.00000e+00	1.00000e+00	1.00000e+00	1.00000e+00	1.00000e+00	1.00000e+00	X	X	X	X	X	X	X	X	X	X	X	X	X	X	X	X	

B = Detector Channel
Val Type	B-AC1	B-AC2	B-AC3	B-AC4	B-AC5	B-AC6	B-AC7	B-AC8	B-AC9	B-AC10	B-AC11	B-AC12	B-AC13	B-AC14	B-AC15	B-AC16	B-DC1	B-DC2	B-DC3	B-DC4	B-DC5	B-DC6	B-DC7	B-DC8	B-DC9	B-DC10	B-DC11	B-DC12	B-DC13	B-DC14	B-DC15	B-DC16	B-Ph1	B-Ph2	B-Ph3	B-Ph4	B-Ph5	B-Ph6	B-Ph7	B-Ph8	B-Ph9	B-Ph10	B-Ph11	B-Ph12	B-Ph13	B-Ph14	B-Ph15	B-Ph16	

Term	0.00000e+00	0.00000e+00	0.00000e+00	0.00000e+00	0.00000e+00	0.00000e+00	0.00000e+00	0.00000e+00	0.00000e+00	0.00000e+00	0.00000e+00	0.00000e+00	0.00000e+00	0.00000e+00	0.00000e+00	0.00000e+00	0.00000e+00	0.00000e+00	0.00000e+00	0.00000e+00	0.00000e+00	0.00000e+00	0.00000e+00	0.00000e+00	0.00000e+00	0.00000e+00	0.00000e+00	0.00000e+00	0.00000e+00	0.00000e+00	0.00000e+00	0.00000e+00	-1.74148e+02	-1.27087e+02	-1.30125e+02	-1.81316e+02	-8.55190e+01	-6.66878e+01	-1.57075e+02	-1.62015e+02	-8.14386e+01	-6.69092e+01	-1.71893e+02	-1.70622e+02	-1.79843e+02	-1.76980e+02	-7.36244e+01	-1.49926e+02	
Factor	3.06324e-05	1.62235e-04	4.72445e-05	1.48920e-01	1.49831e-06	1.76165e-06	1.72106e-01	6.28372e-02	1.68338e-06	1.86821e-06	8.65051e-02	2.99025e-02	3.08083e-02	9.61349e-03	1.55958e-06	1.36815e-02	1.62461e-05	2.79970e-05	7.84780e-06	7.48325e-02	2.67660e-07	3.17064e-07	8.15900e-02	3.16269e-02	2.77634e-07	3.15248e-07	4.25007e-02	1.47081e-02	1.57617e-02	4.89367e-03	2.89544e-07	6.76532e-03	X	X	X	X	X	X	X	X	X	X	X	X	X	X	X	X	



#DISTANCE SETTINGS
A = Detector Channel
A-1	A-2	A-3	A-4	A-5	A-6	A-7	A-8	A-9	A-10	A-11	A-12	A-13	A-14	A-15	A-16	

2.5000e+00	3.0000e+00	2.5000e+00	3.0000e+00	2.0000e+00	3.0000e+00	1.5000e+00	3.0000e+00	3.0000e+00	3.0000e+00	3.0000e+00	3.0000e+00	3.0000e+00	3.0000e+00	1.5000e+00	3.0000e+00	

B = Detector Channel
B-1	B-2	B-3	B-4	B-5	B-6	B-7	B-8	B-9	B-10	B-11	B-12	B-13	B-14	B-15	B-16	

1.0000e+01	1.0000e+01	1.0000e+01	1.4400e+00	1.0000e+01	1.0000e+01	1.5100e+00	1.9400e+00	1.0000e+01	1.0000e+01	1.9900e+00	2.4900e+00	2.4100e+00	2.9000e+00	1.0000e+01	2.9800e+00	




#DATA BEGINS
time	group	step	mark	flag	A-AC1	A-AC2	A-AC3	A-AC4	A-AC5	A-AC6	A-AC7	A-AC8	A-AC9	A-AC10	A-AC11	A-AC12	A-AC13	A-AC14	A-AC15	A-AC16	A-DC1	A-DC2	A-DC3	A-DC4	A-DC5	A-DC6	A-DC7	A-DC8	A-DC9	A-DC10	A-DC11	A-DC12	A-DC13	A-DC14	A-DC15	A-DC16	A-Ph1	A-Ph2	A-Ph3	A-Ph4	A-Ph5	A-Ph6	A-Ph7	A-Ph8	A-Ph9	A-Ph10	A-Ph11	A-Ph12	A-Ph13	A-Ph14	A-Ph15	A-Ph16	B-AC1	B-AC2	B-AC3	B-AC4	B-AC5	B-AC6	B-AC7	B-AC8	B-AC9	B-AC10	B-AC11	B-AC12	B-AC13	B-AC14	B-AC15	B-AC16	B-DC1	B-DC2	B-DC3	B-DC4	B-DC5	B-DC6	B-DC7	B-DC8	B-DC9	B-DC10	B-DC11	B-DC12	B-DC13	B-DC14	B-DC15	B-DC16	B-Ph1	B-Ph2	B-Ph3	B-Ph4	B-Ph5	B-Ph6	B-Ph7	B-Ph8	B-Ph9	B-Ph10	B-Ph11	B-Ph12	B-Ph13	B-Ph14	B-Ph15	B-Ph16	aux-1	digaux	

27086.107	1	1	0	256	0.27449	0.035348	0.095354	0.24923	0.18016	0.11118	0.08793	0.31576	0.043768	0.23096	0.1735	0.30572	0.11607	0.082935	0.24013	0.17057	-1.6562	-1.8271	-2.1292	-2.2125	-2.025	-2.3438	-2.0687	-2.2021	-2.3021	-2.0021	-2.3708	-2.1583	-2.0438	-2.375	-1.9312	-2.2271	84.178	-29.188	108.341	154.499	-54.603	65.963	56.196	189.907	-36.146	53.569	118.427	174.790	87.743	110.909	156.735	189.694	0.00039471	0.0002799	6.8583e-05	1270.1	2.1505e-06	1.7501e-06	1337.6	266.86	3.8905e-06	3.5058e-06	330.21	92.008	72.675	21.08	1.8361e-06	29.284	0.00040619	0.00043104	0.00012297	1252.4	5.027e-06	4.7751e-06	1324.7	263.98	4.8493e-06	5.0249e-06	328.66	92.17	72.574	21.268	4.798e-06	29.831	157.537	-68.122	-69.697	-156.696	-73.962	-7.061	-156.997	-150.305	-63.498	-2.733	-150.170	-144.170	-143.993	-136.246	-29.516	-136.772	-8191	255	
27086.205	1	1	0	0	0.17002	0.16902	0.12389	0.31827	0.13494	0.090037	0.105	0.069233	0.25049	0.033249	0.1653	0.2521	0.086696	0.19653	0.073521	0.13842	-1.7625	-1.8333	-2.2938	-2.2667	-1.8729	-2.3625	-2.1958	-2.1271	-2.3229	-1.9	-2.3312	-2.2854	-1.9583	-2.4437	-2.0458	-2.0021	177.852	19.427	-132.591	113.318	157.085	-149.508	112.616	18.800	75.693	-153.730	-131.580	27.454	45.371	-91.807	169.507	-130.269	0.00038305	0.0003316	7.0722e-05	1251.5	3.6468e-06	3.6419e-06	1321.9	262.94	4.081e-06	2.7159e-06	325.95	90.723	71.583	20.662	3.739e-06	28.864	0.00041103	0.00043879	0.00011706	1238.4	5.0002e-06	4.5664e-06	1308.4	260.26	4.6579e-06	4.6033e-06	323.73	90.877	71.41	20.914	4.5175e-06	29.388	158.209	-52.786	-56.979	-156.956	-44.784	5.631	-156.816	-150.122	-30.320	-2.182	-150.056	-144.186	-143.701	-136.459	-33.957	-136.896	-8191	255	
27086.324	1	1	0	0	0.20216	0.12487	0.10192	0.20363	0.061982	0.17526	0.29576	0.053849	0.063307	0.31828	0.25332	0.36273	0.06024	0.22633	0.068756	0.13289	-1.8854	-1.8417	-2.2708	-2.4667	-1.8937	-2.3229	-2.2875	-2.1833	-2.2458	-2.0083	-2.4125	-2.2021	-2.0375	-2.4	-2.0875	-2.0479	179.329	191.248	-10.959	121.132	170.282	-9.430	139.602	129.495	-113.939	91.200	141.842	136.126	33.181	-27.557	39.025	-31.048	0.00037402	0.00039814	0.00013134	1244.7	3.7951e-06	3.1287e-06	1310.6	257.17	3.8101e-06	4.0981e-06	321.77	89.701	70.478	20.442	2.159e-06	28.66	0.00038361	0.00040957	0.00011249	1227.7	4.4749e-06	4.4026e-06	1297.1	255.97	4.1431e-06	4.4194e-06	320.4	89.868	70.694	20.686	4.0235e-06	29.156	153.023	-65.962	-92.848	-156.816	-54.070	-4.050	-157.090	-149.710	-58.124	-13.997	-149.710	-144.071	-143.596	-136.172	-26.686	-136.645	-8191	255	
27086.395	1	1	0	0	0.21514	0.2116	0.23267	0.3286	0.23281	0.16817	0.24316	0.063472	0.11023	0.10381	0.14458	0.053393	0.22638	0.085811	0.36037	0.11329	-1.8979	-1.9833	-2.0187	-2.4167	-2.0333	-2.4042	-2.2167	-2.0521	-2.4437	-1.9708	-2.1625	-2.4062	-1.9604	-2.2229	-2.1854	-2.0458	-70.010	-40.126	-147.583	77.571	-27.482	-82.736	-141.987	43.620	-19.041	-88.903	-67.255	175.023	174.995	-110.051	77.545	-4.049	0.00039616	0.00035903	7.9567e-05	1235.7	2.291e-06	2.8788e-06	1309.6	257.22	3.1326e-06	4.4081e-06	320.57	89.547	70.227	20.368	2.1943e-06	28.634	0.00035958	0.00037475	0.00010452	1218.8	4.3668e-06	3.9785e-06	1294.1	254.96	4.0303e-06	4.2361e-06	319.16	89.71	70.51	20.617	3.8588e-06	29.1	158.437	-74.361	-75.527	-156.370	-73.132	-15.518	-156.907	-149.527	-79.774	-6.096	-149.990	-144.304	-143.500	-136.281	-24.667	-136.664	-8191	255	
27086.490	1	1	0	0	0.11001	0.25493	0.22937	0.2734	0.11385	0.040823	0.11644	0.074935	0.46892	0.18727	0.15601	0.22598	0.15576	0.29404	0.097817	0.12046	-1.8229	-1.9854	-1.9521	-2.4	-1.9354	-2.2562	-2.2938	-2.1583	-2.3812	-2.1292	-2.0875	-2.5042	-1.9708	-2.1708	-2.1479	-1.9979	-72.967	-141.179	-33.348	182.075	-54.347	-142.138	-15.225	53.397	-146.566	-17.895	142.772	168.169	84.307	140.519	185.060	77.558	0.00038984	0.00022045	8.9279e-05	1236	3.4849e-06	1.602e-06	1308.4	257.68	3.3489e-06	3.3646e-06	319.92	89.758	70.153	20.513	2.7903e-06	28.698	0.0003586	0.00037096	0.00010058	1218.4	4.2279e-06	4.0036e-06	1294.2	255.25	3.969e-06	4.1061e-06	319.1	89.765	70.366	20.674	4.0723e-06	29.089	158.043	-71.355	-95.717	-156.643	-68.742	-21.451	-156.850	-149.820	-61.212	-27.870	-149.993	-144.087	-143.961	-136.427	-13.327	-137.139	-8191	255	
27086.611	1	1	0	0	0.12012	0.22179	0.038868	0.23974	0.14306	0.12924	0.31894	0.12546	0.22348	0.14453	0.14298	0.113	0.094357	0.25264	0.10399	0.22383	-1.9083	-2.1083	-2.0396	-2.6083	-2.1021	-2.3833	-2.4208	-1.8708	-2.35	-2.0938	-2.1083	-2.2875	-1.8813	-2.3146	-2.2979	-1.8521	0.035	170.760	36.609	165.342	-130.922	183.498	129.940	146.777	189.338	141.228	76.458	53.440	61.696	73.029	-158.416	32.475	0.00039356	0.00033851	5.2779e-05	1238.5	2.6936e-06	3.2485e-06	1306.8	256.41	3.92e-06	3.7486e-06	320.66	89.595	69.952	20.474	2.1465e-06	28.554	0.00037728	0.00038782	0.00010663	1220.4	4.3896e-06	4.1317e-06	1294.4	254.97	4.1396e-06	4.0785e-06	319.2	89.656	70.376	20.614	3.6808e-06	29.006	157.677	-64.563	-68.189	-156.704	-79.114	-25.247	-156.910	-149.872	-55.953	-18.685	-150.041	-144.021	-143.589	-136.022	-37.594	-136.602	-8191	255	
27086.707	1	1	0	0	0.11439	0.06087	0.067101	0.071277	0.25206	0.13107	0.2236	0.16031	0.22143	0.26426	0.015062	0.28168	0.085314	0.33007	0.23557	0.23458	-1.8958	-2.0771	-1.8625	-2.7396	-2.0021	-2.3083	-2.4458	-1.9604	-2.2313	-2.0062	-2.1146	-2.3875	-2.0229	-2.2479	-2.2542	-2.0417	189.614	99.671	163.801	-147.894	138.339	-105.222	161.117	-116.359	79.077	17.627	-42.388	174.132	126.316	4.425	-65.771	7.867	0.00036821	0.00028423	9.0916e-05	1233	3.0224e-06	2.6484e-06	1302.8	253.48	3.4882e-06	1.7612e-06	317.06	88.25	68.741	20.042	2.9741e-06	27.921	0.00035176	0.00033672	9.558e-05	1214	3.958e-06	3.5841e-06	1286.8	251.57	3.7984e-06	3.5702e-06	314.51	88.587	69.136	20.272	3.1627e-06	28.532	159.089	-91.641	-71.819	-156.647	-50.480	-12.957	-156.972	-150.070	-33.592	-41.871	-149.947	-144.015	-143.715	-135.786	-49.718	-136.477	-8191	255	
27086.805	1	1	0	0	0.18059	0.23014	0.17833	0.067434	0.05127	0.19338	0.13816	0.38341	0.19511	0.12588	0.28686	0.16718	0.30641	0.039367	0.30345	0.18036	-1.8521	-2.2771	-1.9542	-2.6667	-2.2083	-2.2062	-2.4667	-2.0229	-2.3104	-2.2667	-2.0646	-2.5667	-2.1146	-2.0271	-2.2479	-2.0812	-46.710	-131.816	-35.319	-53.242	174.557	144.847	76.045	-150.119	-135.372	-6.984	191.947	49.795	190.277	190.069	-9.499	26.248	0.00036602	0.00031431	0.0001	1216.5	2.0519e-06	4.0779e-06	1289.5	250.96	3.9656e-06	3.2992e-06	312.22	87.171	68.541	19.963	2.2273e-06	27.875	0.00032942	0.00031992	8.7503e-05	1201.7	3.8041e-06	3.5848e-06	1274.9	248.9	3.6422e-06	3.6076e-06	311.31	87.6	68.829	20.11	3.5204e-06	28.271	156.275	-63.421	-87.722	-156.566	-46.274	-4.987	-156.992	-149.775	-58.049	-19.608	-149.821	-143.829	-143.631	-136.061	-35.406	-136.242	-8191	255	
27086.926	1	1	0	0	0.20334	0.20515	0.062042	0.24103	0.19197	0.23578	0.12711	0.31597	0.17689	0.15125	0.26375	0.1118	0.072976	0.3229	0.33219	0.1331	-1.8271	-2.2479	-2.0833	-2.5292	-2.0792	-2.0208	-2.5854	-2.1542	-2.1958	-2.3875	-1.7792	-2.5812	-2.1333	-1.9854	-2.375	-2.1437	-94.918	182.586	-18.747	191.348	92.008	33.873	107.652	95.839	147.217	146.944	97.829	112.427	150.260	137.559	80.451	52.858	0.00038984	0.00027039	8.4976e-05	1216.5	3.5362e-06	2.5405e-06	1276.3	250.7	3.93e-06	3.5323e-06	309.57	87.145	68.078	19.784	2.7838e-06	27.636	0.00034936	0.00032762	9.5858e-05	1196.6	4.0913e-06	3.8048e-06	1265.8	247.08	3.862e-06	3.4559e-06	308.87	87.173	68.191	19.885	3.4046e-06	28.125	158.534	-70.677	-69.980	-156.742	-60.222	-32.023	-156.740	-149.735	-67.615	-26.715	-149.981	-143.987	-143.831	-135.968	-40.651	-136.536	-8191	255	
27087.020	1	1	0	0	0.17091	0.17561	0.24814	0.13258	0.14444	0.1664	0.29133	0.2762	0.20823	0.22548	0.15523	0.15269	0.184	0.14957	0.20834	0.090966	-1.7646	-2.1667	-1.8917	-2.5687	-2.375	-2.0938	-2.5417	-2.1063	-2.1271	-2.2125	-2.0187	-2.3125	-2.2792	-2.0042	-2.3083	-2.1146	-131.383	41.608	-63.210	173.857	-10.543	50.064	43.911	169.829	-74.821	167.419	101.820	-69.582	147.568	105.409	131.075	181.584	0.00037555	0.00035634	0.00013858	1201.1	1.9757e-06	3.4699e-06	1266.1	246.91	2.9211e-06	4.1654e-06	307.14	86.182	67.26	19.407	2.8632e-06	27.45	0.00033362	0.00032237	9.2032e-05	1184.6	3.59e-06	3.3853e-06	1254.8	244.63	3.3744e-06	3.2142e-06	305.5	86.297	67.389	19.596	3.1126e-06	27.881	158.796	-50.255	-82.551	-156.450	-68.520	3.924	-156.712	-149.772	-32.233	-21.319	-149.625	-143.933	-143.437	-135.823	-49.920	-136.333	-8191	255	
27087.092	1	1	0	0	0.14794	0.18894	0.077927	0.3897	0.089318	0.14453	0.16537	0.25824	0.093019	0.29342	0.16391	0.20957	0.11178	0.17983	0.3737	0.057199	-1.6396	-2.2271	-2.0646	-2.3625	-2.4271	-1.9146	-2.3792	-2.1063	-1.9292	-2.5062	-2.2229	-2.1792	-2.2271	-2.0208	-2.5312	-2.3438	-144.369	137.209	184.893	177.524	-77.173	-131.592	130.712	93.205	-18.147	189.329	-96.500	-54.588	185.230	-124.288	-34.485	-122.389	0.00036188	0.00022691	0.00010733	1186.9	1.9232e-06	1.7456e-06	1252.6	243.93	3.1947e-06	2.9359e-06	303.15	85.553	67.046	19.427	2.2305e-06	27.32	0.00031883	0.00026982	8.1306e-05	1169.4	3.3279e-06	3.2519e-06	1239.4	241.87	3.2327e-06	3.1006e-06	303.03	85.739	66.987	19.541	3.03e-06	27.733	158.603	-66.350	-62.958	-156.596	-50.146	-32.865	-156.769	-149.470	-62.753	-18.338	-149.755	-143.726	-143.391	-135.849	-45.193	-136.356	-8191	255	
27087.213	1	1	0	0	0.062139	0.084194	0.085614	0.33549	0.39451	0.10067	0.27278	0.18359	0.16335	0.18118	0.11886	0.085939	0.20435	0.21368	0.15077	0.181	-1.475	-2.3875	-2.1583	-2.4292	-2.2604	-1.9979	-2.6083	-2.3417	-2.0083	-2.3979	-2.1146	-2.2958	-2.3167	-1.7417	-2.3417	-2.225	163.614	-123.634	172.099	145.960	-98.451	64.886	137.867	114.827	132.530	51.655	70.793	37.205	-121.800	115.378	-146.542	40.031	0.00035886	0.00038823	7.4477e-05	1179.3	2.4314e-06	4.4101e-06	1251.3	244.17	2.9161e-06	3.366e-06	304.75	85.359	66.859	19.373	3.212e-06	27.333	0.0003104	0.00027163	8.2484e-05	1163.3	3.3826e-06	3.3173e-06	1235.5	241.32	3.2871e-06	2.9298e-06	303.58	85.608	66.839	19.561	3.1228e-06	27.818	157.874	-88.626	-80.756	-156.700	-70.924	-35.663	-156.933	-149.851	-53.256	-28.334	-149.471	-144.098	-143.033	-135.698	-26.142	-136.652	-8191	255	
27087.309	1	1	0	0	0.27408	0.30776	0.085938	0.15671	0.1873	0.13795	0.43107	0.21021	0.062746	0.37095	0.23815	0.20919	0.26356	0.26622	0.064334	0.28046	-1.2708	-2.3833	-2.0563	-2.2667	-2.3333	-2.0083	-2.4562	-2.3542	-2.0396	-2.3563	-2.3438	-2.2104	-2.2917	-1.9833	-2.0792	-2.375	-123.313	-62.355	136.279	96.110	161.480	-9.370	116.414	-5.081	-149.882	-43.702	155.742	166.718	149.327	-90.354	-106.930	128.036	0.00037332	0.00035701	0.00010995	1182.7	1.4042e-06	2.1425e-06	1260.9	242.5	3.6357e-06	2.8176e-06	303.87	85.066	67.443	19.39	2.7995e-06	27.483	0.00031609	0.00028003	8.5819e-05	1165.4	3.4065e-06	3.3061e-06	1240.5	241.04	3.4085e-06	3.3009e-06	303.31	85.699	67.144	19.53	3.1717e-06	27.839	158.334	-69.878	-97.691	-156.595	-58.155	-16.356	-156.802	-149.773	-56.929	31.729	-149.770	-143.598	-143.439	-135.958	-18.456	-136.195	-8191	255	
27087.404	1	1	0	0	0.14448	0.263	0.14075	0.10011	0.15946	0.091593	0.30842	0.27716	0.13243	0.084207	0.17725	0.16328	0.11931	0.32346	0.14877	0.19381	-1.6708	-2.4625	-2.0042	-2.1625	-2.4917	-1.8854	-2.1854	-2.3104	-1.9062	-2.2583	-2.0958	-2.0062	-2.3375	-2.175	-2.2292	-2.4354	110.855	3.069	-161.798	97.622	48.058	-160.544	73.547	113.000	1.213	49.692	-135.335	95.690	74.049	-101.832	-43.011	123.203	0.00038222	0.00020029	3.0192e-05	1185.3	2.5092e-06	4.0247e-06	1248.1	242.94	4.117e-06	4.5023e-06	304.26	85.232	67.052	19.254	3.5044e-06	27.384	0.00031704	0.00029239	8.165e-05	1168.3	3.4835e-06	3.6337e-06	1239.2	241.54	3.4166e-06	3.3416e-06	303.54	85.605	67.132	19.53	3.296e-06	27.754	154.577	-74.706	-80.650	-156.539	-58.117	1.580	-156.848	-149.746	-64.937	-18.561	-149.891	-143.659	-143.552	-135.522	-1.958	-136.051	-8191	255	
27087.500	1	1	0	0	0.10016	0.094697	0.16855	0.12893	0.060045	0.14459	0.55992	0.23682	0.35502	0.32702	0.33197	0.069002	0.066637	0.2613	0.14708	0.096011	-1.4979	-2.2292	-2.1188	-2.2687	-2.3729	-2.0479	-2.1437	-2.4896	-2.0125	-2.25	-2.4	-1.9146	-2.2167	-2.0583	-2.1396	-2.4458	-23.400	71.134	181.418	-140.252	153.698	83.442	109.977	107.157	-97.858	122.277	-97.883	156.993	-135.281	-116.832	-142.393	81.161	0.00034473	0.00014587	9.7018e-05	1180.7	3.0003e-06	2.9039e-06	1249.7	244.28	3.5348e-06	1.8279e-06	304.43	84.952	66.974	19.25	2.9412e-06	27.281	0.00032174	0.00030604	8.7192e-05	1164.6	3.6017e-06	3.3153e-06	1237	241.69	3.5682e-06	3.3817e-06	303.2	85.269	66.84	19.466	3.3557e-06	27.747	159.521	-91.418	-77.061	-156.571	-65.364	-0.309	-156.999	-149.702	-43.761	9.284	-149.766	-143.833	-143.480	-136.051	-34.121	-136.384	-8191	255	
27087.621	1	1	0	0	0.17964	0.1008	0.185	0.27506	0.11672	0.19553	0.090704	0.049813	0.31416	0.16195	0.21263	0.2263	0.14097	0.084748	0.33827	0.27585	-1.6562	-2.15	-2.3937	-2.225	-2.5438	-2.25	-2.2042	-2.3896	-2.0042	-2.2146	-2.5292	-2.0208	-2.2146	-2.0625	-1.9	-2.4333	108.247	163.990	178.694	111.801	-162.979	180.959	118.725	86.659	128.439	54.901	140.835	117.509	-90.060	-76.128	-48.206	119.976	0.00034525	0.00037471	9.5008e-05	1179.1	2.6749e-06	2.7074e-06	1251.3	242.93	4.1737e-06	2.9157e-06	303.17	84.919	66.902	19.419	3.0968e-06	27.205	0.00033166	0.00030266	7.8347e-05	1163.9	3.7422e-06	3.4639e-06	1236.6	241.17	3.6717e-06	3.2457e-06	302.77	85.485	67.002	19.499	3.4812e-06	27.699	154.297	-73.766	-84.777	-156.771	-57.997	-12.598	-156.651	-149.652	-67.492	-25.931	-149.630	-143.780	-143.791	-135.923	-28.282	-136.271	-8191	255	
27087.691	1	1	0	0	0.18515	0.25611	0.083915	0.23876	0.1028	0.24763	0.37231	0.15558	0.20514	0.047546	0.23929	0.16528	0.13969	0.18684	0.11052	0.22828	-1.5521	-2.0854	-2.1854	-2.2188	-2.1813	-2.1479	-2.1437	-2.3312	-2	-2.2271	-2.4146	-2.1875	-2.3667	-2.2333	-1.9771	-2.3771	148.674	90.065	68.633	112.420	-135.939	-81.419	25.514	97.838	-37.064	102.640	160.069	144.370	-12.367	159.458	-160.483	130.887	0.00035865	0.00029208	6.9968e-05	1182.2	3.4638e-06	4.0606e-06	1250.6	243.36	4.5172e-06	3.3467e-06	306.28	85.204	67.034	19.299	2.5398e-06	27.294	0.0003365	0.00034051	8.8811e-05	1164.2	3.7768e-06	3.5346e-06	1238.2	241.31	3.9528e-06	3.4736e-06	304.09	85.386	67.056	19.498	3.556e-06	27.795	155.686	-59.719	-89.230	-156.630	-60.423	-22.884	-156.699	-149.656	-56.556	-12.128	-149.794	-144.067	-143.569	-136.032	-28.479	-136.336	-8191	255	
27087.789	1	1	0	0	0.15543	0.15172	0.23241	0.32329	0.056417	0.10999	0.37302	0.36397	0.20916	0.19307	0.2151	0.089561	0.079626	0.25859	0.078332	0.13566	-1.6583	-2.0521	-2.3521	-2.2229	-2.3063	-2.1125	-2.0125	-2.3854	-2.1354	-1.9417	-2.4208	-2.0458	-2.2062	-2.2729	-1.9542	-2.3979	52.727	-96.026	-108.495	147.733	-148.096	7.826	162.181	154.869	-67.966	-49.699	-70.236	-150.865	-107.351	-118.402	-61.290	164.093	0.00037255	0.00035289	7.3677e-05	1181.5	2.3201e-06	2.9275e-06	1252.7	243.69	3.2319e-06	3.033e-06	304.34	85.543	67.116	19.372	3.5366e-06	27.422	0.00034168	0.00033497	8.7062e-05	1166.9	3.8314e-06	3.6192e-06	1240.3	241.64	3.7724e-06	3.756e-06	303.85	85.73	66.993	19.527	3.86e-06	27.786	158.415	-83.224	-70.011	-156.460	-53.579	-39.271	-156.815	-149.848	-56.429	-28.778	-150.066	-144.089	-143.561	-136.275	-23.607	-136.627	-8191	255	
27087.885	1	1	0	0	0.28862	0.21138	0.23327	0.51268	0.01844	0.13619	0.14948	0.14931	0.35289	0.15432	0.22272	0.25715	0.27076	0.099232	0.06909	0.35056	-1.8479	-2.0938	-2.1771	-2.1521	-2.1167	-2.3563	-2.0917	-2.5604	-2.0812	-1.9396	-2.4583	-2.0854	-2.2938	-2.25	-2.0792	-2.3604	148.053	158.390	-159.161	154.331	-67.811	-108.673	118.122	179.421	114.243	103.101	166.425	135.723	-133.536	4.779	150.355	64.820	0.00036687	0.00029417	7.9055e-05	1181.5	2.4897e-06	3.8968e-06	1251.7	244.72	3.4979e-06	1.8047e-06	305	85.483	67.153	19.332	3.9616e-06	27.291	0.00033399	0.00032459	9.3536e-05	1167.9	3.8956e-06	3.6674e-06	1240.2	242.2	3.6249e-06	3.5846e-06	303.36	85.655	67.123	19.48	3.8805e-06	27.859	162.099	-78.228	-70.869	-156.632	-56.534	-36.823	-156.818	-150.034	-52.248	-26.267	-149.744	-143.981	-143.448	-136.259	-19.855	-136.229	-8191	255	
27088.006	1	1	0	0	0.15814	0.10003	0.22671	0.16561	0.06142	0.080382	0.072922	0.24956	0.21952	0.15686	0.18289	0.20947	0.34368	0.10078	0.11535	0.22151	-1.6396	-1.9417	-2.4125	-2.2917	-2.2104	-2.2833	-2.1688	-2.1583	-2.0958	-1.8354	-2.3833	-2.1188	-1.9104	-2.2479	-2.0521	-2.2208	139.933	80.329	-101.300	45.460	-142.563	184.102	88.911	109.210	107.016	-60.083	113.490	71.037	-149.077	158.205	74.800	-167.376	0.00035208	0.00027668	5.3592e-05	1186.4	2.7205e-06	3.7316e-06	1253.4	244.8	2.5256e-06	3.1116e-06	304.63	85.088	66.814	19.288	2.748e-06	27.221	0.00034361	0.00033188	8.8713e-05	1170.3	3.8236e-06	3.6079e-06	1242.2	241.86	3.6619e-06	3.6753e-06	303.58	85.524	66.967	19.465	3.822e-06	27.754	158.756	-93.015	-77.826	-156.457	-60.321	-16.976	-156.769	-149.843	-60.393	-16.934	-149.756	-144.212	-143.304	-136.105	-61.384	-136.330	-8191	255	
27088.100	1	1	0	0	0.26817	0.16311	0.048732	0.16184	0.069694	0.16063	0.22993	0.059904	0.21916	0.24375	0.21458	0.15911	0.28664	0.24415	0.2375	0.12206	-1.6604	-1.7521	-2.5187	-2.3875	-1.9729	-2.3646	-2.2313	-2.2708	-2.3146	-1.8542	-2.4062	-2.15	-1.8312	-2.1604	-1.9542	-2.2687	118.634	-35.911	-28.879	-165.550	85.881	41.369	104.617	-40.070	76.573	10.002	-143.002	53.351	-151.702	63.007	54.150	128.277	0.00038184	0.00032305	9.2531e-05	1188.8	2.5837e-06	2.8899e-06	1248.6	244.06	4.3684e-06	3.0763e-06	304.21	85.009	67.167	19.301	2.2278e-06	27.504	0.0003387	0.00031584	9.3487e-05	1170.8	3.9915e-06	3.4824e-06	1239.6	241.85	3.733e-06	3.7639e-06	303.17	85.558	67.295	19.482	3.9776e-06	27.795	157.885	-82.679	-62.058	-156.446	-85.869	-20.150	-156.731	-149.695	-63.585	-20.558	-149.891	-143.792	-143.732	-135.710	-25.732	-136.467	-8191	255	
27088.195	1	1	0	0	0.24155	0.38049	0.19206	0.17388	0.35344	0.25002	0.2096	0.37895	0.23109	0.28142	0.088182	0.2542	0.022597	0.012416	0.2215	0.11611	-1.8417	-1.8146	-2.0687	-2.3688	-1.9583	-2.1417	-2.0854	-2.2062	-2.3104	-1.9229	-2.2271	-2.4313	-1.9917	-2.3375	-2.1146	-2.1396	149.008	-165.167	114.972	86.623	110.522	151.616	122.041	112.720	-149.487	113.596	-61.256	67.038	-109.370	129.799	-165.942	109.259	0.0003899	0.00035222	8.6654e-05	1189.8	2.8875e-06	1.8482e-06	1258.2	244.89	3.1545e-06	2.4614e-06	305.87	85.81	67.063	19.305	2.3989e-06	27.328	0.00035785	0.00036863	9.9978e-05	1172.6	4.2296e-06	4.0512e-06	1244.3	242.37	4.2276e-06	4.1862e-06	304.58	85.907	67.176	19.529	4.1459e-06	27.846	159.382	-50.658	-71.359	-156.515	-36.186	-3.360	-156.837	-149.792	-51.575	4.355	-149.967	-143.716	-143.496	-136.184	-28.075	-136.383	-8191	255	
27088.293	1	1	0	0	0.18408	0.16222	0.14523	0.18979	0.15841	0.071427	0.26599	0.11783	0.16944	0.19678	0.04566	0.25003	0.15491	0.04408	0.081535	0.13982	-1.9	-1.9729	-2.0292	-2.3417	-1.6896	-2.3208	-2.2354	-2.2938	-2.1354	-1.7458	-2.4896	-2.3187	-1.7646	-2.3438	-2.0333	-2.1021	-61.275	128.541	-38.775	102.786	58.722	93.214	187.016	138.059	108.787	113.674	131.069	-98.377	-37.413	-142.461	109.275	-106.372	0.00038801	0.00030296	7.7238e-05	1190.7	2.686e-06	2.4508e-06	1259.7	244.18	2.862e-06	2.5661e-06	304.18	85.628	67.41	19.393	2.8771e-06	27.441	0.00036435	0.00037656	0.00010241	1172.5	4.1766e-06	4.073e-06	1245.7	242.12	3.8545e-06	4.0332e-06	304.48	85.843	67.28	19.498	3.8793e-06	27.885	157.931	-82.718	-87.241	-156.630	-53.961	-4.362	-156.865	-149.968	-60.540	-17.073	-149.842	-143.730	-143.353	-136.337	-34.464	-136.463	-8191	255	
27088.389	1	1	0	0	0.024334	0.081079	0.12051	0.20891	0.13999	0.18818	0.070285	0.25888	0.045199	0.14287	0.25271	0.23521	0.093903	0.14007	0.30188	0.20122	-1.8354	-1.9604	-2.2375	-2.2562	-1.8	-2.375	-2.2542	-2.0792	-2.5375	-2.05	-2.2271	-2.4021	-1.9833	-2.2375	-2.1937	-2.1479	-42.706	190.183	-44.327	157.315	-8.838	-97.563	145.352	186.071	156.898	-144.102	178.389	-29.024	-149.271	127.653	-129.144	79.237	0.00039257	0.00029133	7.2711e-05	1185.9	3.353e-06	2.2226e-06	1260.4	244.75	2.3301e-06	3.6994e-06	305.11	85.655	67.253	19.244	1.7453e-06	27.348	0.00036168	0.00035889	9.867e-05	1169.8	4.3567e-06	4.0492e-06	1243.5	242.42	3.9251e-06	4.1284e-06	304.49	85.827	67.327	19.542	3.9879e-06	27.827	157.575	-110.321	-89.122	-156.694	-44.064	-19.486	-156.784	-149.941	-77.554	4.015	-149.901	-144.192	-143.398	-135.958	-20.547	-136.312	-8191	255	
27088.484	1	1	0	0	0.16378	0.11305	0.053486	0.28786	0.096025	0.17233	0.2115	0.29906	0.034359	0.24629	0.34041	0.20306	0.10312	0.10742	0.074928	0.27887	-1.9625	-1.8083	-2	-2.4542	-2.0333	-2.1354	-2.4313	-1.9813	-2.5167	-2.0812	-2.0604	-2.3875	-2.0583	-2.25	-2.2812	-1.9667	-143.994	-21.313	64.726	169.349	-166.103	-3.030	75.440	72.093	72.365	104.374	95.973	133.667	15.380	-80.768	89.630	165.679	0.00035759	0.00023458	0.00010687	1193.4	2.1739e-06	2.2567e-06	1258.7	244.75	4.3522e-06	3.0789e-06	305.67	85.397	67.75	19.481	3.8033e-06	27.641	0.00037295	0.00039312	0.00010429	1174.5	4.5664e-06	4.4349e-06	1249.4	243.06	4.4815e-06	4.3143e-06	305.45	86.08	67.743	19.651	4.2117e-06	28.015	157.574	-90.634	-67.255	-156.717	-78.080	0.835	-156.874	-149.692	-63.978	8.473	-150.055	-143.910	-143.753	-135.958	-33.209	-136.428	-8191	255	
27088.605	1	1	0	0	0.12624	0.24793	0.35318	0.27976	0.27721	0.13152	0.13138	0.13986	0.14334	0.078922	0.34225	0.16089	0.11413	0.22848	0.1719	0.27993	-2.0687	-2.0104	-1.9833	-2.5208	-2.175	-2.1083	-2.325	-1.9458	-2.5	-2.2313	-2.1562	-2.3625	-2.0167	-2.2125	-2.4771	-2.1625	53.035	-164.902	-47.349	171.226	128.891	-77.781	152.681	72.887	57.681	164.167	-114.519	-105.361	136.191	160.364	-14.901	167.847	0.00036011	0.00025053	8.4957e-05	1197.2	3.3416e-06	2.6552e-06	1265.2	245.92	4.0479e-06	2.0699e-06	307.34	86.159	67.686	19.485	2.0225e-06	27.49	0.00036513	0.00039966	0.00011007	1181.2	4.5502e-06	4.141e-06	1252.5	243.56	4.3161e-06	4.3439e-06	305.98	86.188	67.594	19.602	3.8316e-06	28.004	154.742	-69.673	-65.291	-156.567	-50.531	-28.196	-156.858	-149.742	-61.693	6.577	-149.520	-143.583	-143.387	-136.183	-38.762	-136.323	-8191	255	
27088.699	1	1	0	0	0.22044	0.15324	0.090234	0.29272	0.13348	0.37962	0.15411	0.10936	0.16934	0.21555	0.096056	0.23317	0.058338	0.20265	0.10964	0.31936	-1.6354	-2.1833	-1.7875	-2.5833	-2.0563	-1.9708	-2.4292	-1.9875	-2.2938	-2.1979	-1.9521	-2.2979	-2.0125	-2.2375	-2.2438	-2.1083	-88.061	181.452	-126.584	137.922	-50.845	25.646	98.626	40.119	114.416	-126.536	-66.422	119.634	-21.774	-165.389	-66.039	48.491	0.0004058	0.00034059	6.0484e-05	1192.8	2.7961e-06	4.0849e-06	1260.5	244.91	3.0796e-06	4.0187e-06	306.67	85.457	67.369	19.317	1.9917e-06	27.487	0.00036425	0.00036204	0.00010287	1176.7	4.4047e-06	4.0327e-06	1248.1	243.12	3.8614e-06	3.6194e-06	305.84	85.878	67.363	19.533	3.7556e-06	27.899	159.986	-88.224	-95.400	-156.424	-45.407	1.341	-156.772	-149.857	-55.494	-20.872	-149.775	-143.749	-143.351	-136.200	-16.388	-136.199	-8191	255	
27088.795	1	1	0	0	0.059196	0.23279	0.26706	0.41177	0.11335	0.04199	0.15788	0.13734	0.028049	0.12854	0.22679	0.16513	0.20067	0.33703	0.15807	0.22497	-1.7167	-2.2646	-1.8646	-2.3479	-2.0021	-2.0583	-2.5729	-1.9979	-2.1708	-2.3167	-1.9229	-2.3583	-2.1063	-2.1083	-2.4	-2.0083	175.208	161.160	175.115	163.172	-55.707	-0.734	20.440	76.138	-116.829	152.914	174.867	131.888	-141.806	-151.226	136.444	66.057	0.00033176	0.00027759	7.2437e-05	1189.6	3.8624e-06	2.2842e-06	1259.3	244.37	3.8588e-06	3.6234e-06	305.94	86.174	67.036	19.382	3.3454e-06	27.533	0.00034537	0.00035626	0.00010153	1174.1	4.1939e-06	3.9072e-06	1246.3	242.94	4.12e-06	3.8756e-06	305.22	86.082	67.372	19.586	3.9499e-06	27.943	157.634	-66.545	-78.810	-156.533	-70.287	19.377	-156.966	-149.963	-65.928	-7.244	-149.910	-143.748	-143.404	-135.877	-27.160	-136.606	-8191	255	
27088.916	1	1	0	0	0.22717	0.21342	0.16086	0.14747	0.024278	0.38821	0.4283	0.18395	0.26839	0.29362	0.16936	0.13967	0.26484	0.16139	0.11206	0.2493	-1.6396	-2.1667	-1.9271	-2.5062	-2.2354	-2.1167	-2.5104	-2.125	-2.0958	-2.2875	-1.9833	-2.4125	-2.1729	-1.8687	-2.3125	-2.0417	-51.446	127.380	-19.520	174.858	186.048	-70.128	125.166	51.263	11.373	-82.434	173.345	31.074	14.403	-109.822	-97.173	-94.182	0.00034899	0.00038884	9.2152e-05	1192.5	2.4942e-06	2.4293e-06	1258.6	244.43	3.5481e-06	3.1116e-06	306.58	86.23	67.24	19.274	8.0181e-07	27.23	0.00034699	0.00034302	0.00010562	1176	4.1621e-06	3.9494e-06	1246.8	243.09	4.0402e-06	4.0562e-06	305.24	86.032	67.24	19.483	3.8666e-06	27.869	159.185	-58.191	-68.658	-156.697	-60.556	-29.271	-156.793	-149.843	-67.454	-17.389	-149.424	-143.689	-143.374	-135.754	11.020	-136.419	-8191	255	
27088.988	1	1	0	0	0.25709	0.19275	0.13068	0.26078	0.066554	0.21274	0.2399	0.24381	0.14373	0.12776	0.27606	0.047245	0.1975	0.2466	0.18825	0.38098	-1.6812	-2.3042	-1.9312	-2.425	-2.1896	-1.9958	-2.6333	-2.1042	-2.0187	-2.2667	-2.075	-2.2583	-2.2062	-1.9021	-2.2417	-2.0438	-126.976	-49.987	155.903	165.164	-90.120	16.065	77.779	134.342	39.198	133.472	128.241	-101.287	-74.684	-127.901	18.823	144.931	0.00037211	0.0001892	8.0952e-05	1192.4	3.3098e-06	3.2013e-06	1257.8	245.72	3.2082e-06	3.3967e-06	306.41	86.098	67.024	19.298	1.9157e-06	27.44	0.00035004	0.00035486	9.8572e-05	1175	4.1381e-06	3.9811e-06	1248.1	243.17	4.0037e-06	3.955e-06	305.1	86.01	67.315	19.543	3.939e-06	27.972	156.742	-94.310	-80.892	-156.445	-81.196	-24.162	-156.918	-149.893	-43.281	-3.640	-149.798	-143.949	-143.393	-135.606	-39.292	-136.588	-8191	255	
27089.084	1	1	0	0	0.049982	0.15052	0.2098	0.46484	0.16605	0.15236	0.36299	0.16837	0.22497	0.045458	0.10328	0.02452	0.21871	0.16712	0.21979	0.058486	-1.6396	-2.4125	-2.0604	-2.4	-2.3	-2.0938	-2.45	-2.0896	-2.1792	-2.3771	-2.2208	-2.2292	-2.325	-1.7771	-2.1813	-2.1604	59.478	-104.980	-70.419	-162.351	100.519	91.910	94.450	132.772	185.776	-127.048	122.752	160.601	-158.423	-35.877	-156.012	117.216	0.00037646	0.00042224	0.00011559	1189.4	3.1881e-06	3.3296e-06	1261.4	245.04	5.0695e-06	3.2454e-06	306.97	85.544	67.672	19.378	3.0199e-06	27.572	0.0003632	0.00035644	0.00010439	1175	4.0852e-06	4.2995e-06	1248.9	243.17	4.2599e-06	4.0391e-06	305	85.995	67.571	19.573	3.7689e-06	28.008	157.937	-91.628	-93.673	-156.637	-63.911	0.105	-156.624	-149.691	-65.986	7.059	-149.965	-143.958	-143.586	-136.042	-29.607	-136.413	-8191	255	
27089.180	1	1	0	0	0.14584	0.34943	0.078319	0.39329	0.17453	0.26639	0.41564	0.22104	0.075522	0.09868	0.32879	0.11402	0.13497	0.11751	0.21342	0.065781	-1.6333	-2.3229	-2.0917	-2.3917	-2.2521	-1.8667	-2.4938	-2.2979	-1.7521	-2.2917	-2.1562	-2.1083	-2.2812	-1.8	-2.3292	-2.1729	128.312	82.435	144.433	162.675	-137.094	143.180	108.530	80.550	75.976	-27.467	163.285	115.633	-67.710	164.828	-24.309	33.341	0.00037404	0.00021958	9.2367e-05	1192.4	2.4372e-06	3.2513e-06	1263.2	244.13	3.7204e-06	2.7189e-06	306.62	85.865	67.759	19.498	1.8595e-06	27.474	0.00036801	0.00035702	0.00010308	1177.6	4.1855e-06	4.1833e-06	1249.7	242.47	4.3276e-06	4.0063e-06	305.02	86.046	67.527	19.568	3.8696e-06	27.921	157.843	-98.182	-86.752	-156.728	-21.832	-33.755	-156.846	-149.708	-50.554	-23.720	-149.911	-143.878	-143.417	-135.791	-24.154	-136.659	-8191	255	
27089.275	1	1	0	0	0.21426	0.24823	0.21268	0.071022	0.094673	0.058463	0.12289	0.23647	0.2745	0.095234	0.1237	0.074141	0.36015	0.087567	0.038821	0.16183	-1.4771	-2.3583	-1.9229	-2.1271	-2.4521	-1.8563	-2.3375	-2.4417	-1.7729	-2.4229	-2.1229	-2.1063	-2.3896	-2.0875	-2.2958	-2.3104	-17.807	-94.976	38.363	-96.388	181.237	152.444	-157.741	37.645	-61.640	16.586	177.352	-34.911	152.910	-162.929	165.311	142.663	0.00042031	0.00024218	0.00011024	1192.4	2.4538e-06	2.9374e-06	1259.3	244.27	4.3692e-06	3.1857e-06	305.95	84.977	67.311	19.309	3.1945e-06	27.457	0.00036699	0.00036968	0.0001031	1177.7	4.1878e-06	4.4752e-06	1249.7	242.95	4.2166e-06	3.9373e-06	304.79	85.819	67.349	19.562	3.9281e-06	27.958	160.883	-97.706	-65.891	-156.713	-44.164	-1.510	-156.606	-149.789	-54.006	-12.897	-149.837	-144.028	-143.395	-136.398	-68.714	-136.637	-8191	255	
27089.395	1	1	0	0	0.13725	0.14117	0.080382	0.083831	0.10468	0.20346	0.34732	0.28518	0.1822	0.016537	0.082251	0.19743	0.3128	0.095	0.23316	0.17845	-1.4396	-2.2604	-2.1979	-2.2	-2.4667	-2.0354	-2.3438	-2.3708	-1.825	-2.2729	-2.1292	-1.8917	-2.3333	-2.0312	-2.0958	-2.4146	143.825	47.006	-18.438	141.708	174.348	129.441	135.790	-164.665	47.387	126.151	-124.592	116.924	107.390	-154.454	49.277	145.111	0.00038367	0.00039209	9.433e-05	1196.1	2.2865e-06	3.078e-06	1265.8	243.34	2.4874e-06	2.7281e-06	306.56	85.68	67.083	19.259	3.4711e-06	27.53	0.00037336	0.00036443	0.00010289	1178.3	4.2876e-06	4.1991e-06	1250.8	242.49	4.1784e-06	3.8296e-06	305.33	85.951	67.28	19.58	3.8521e-06	27.986	154.732	-82.976	-68.779	-156.630	-66.862	15.208	-156.792	-149.481	-46.647	-9.566	-149.998	-143.756	-143.470	-136.147	-16.583	-136.349	-8191	255	
27089.490	1	1	0	0	0.036313	0.24158	0.22179	0.11073	0.13267	0.28282	0.35811	0.11548	0.035655	0.090705	0.093293	0.13	0.13326	0.048935	0.24521	0.1657	-1.5187	-2.2604	-2.1708	-2.0521	-2.3333	-1.8937	-2.2562	-2.4417	-1.8917	-2.1958	-2.3375	-1.975	-2.4771	-2.1667	-1.9979	-2.3854	-117.732	107.361	-64.964	-136.161	134.661	115.154	78.257	179.436	65.810	140.913	-135.561	9.909	157.025	-109.929	107.755	162.496	0.00038947	0.0003594	8.39e-05	1191	3.517e-06	3.0225e-06	1261.4	243.58	2.2309e-06	3.2671e-06	305.62	85.392	66.795	19.229	1.9652e-06	27.409	0.00036317	0.00035778	9.6021e-05	1174	3.9848e-06	4.0558e-06	1244.7	241.93	3.9904e-06	3.7987e-06	304.51	85.838	67.127	19.428	3.6042e-06	27.802	160.787	-67.999	-77.056	-156.547	-51.789	-11.688	-156.607	-149.851	-74.228	10.783	-149.821	-143.642	-143.313	-136.281	-8.541	-136.471	-8191	255	
27089.564	1	1	0	0	0.25903	0.15767	0.25673	0.35171	0.22708	0.067724	0.18563	0.21493	0.08015	0.36163	0.19007	0.20086	0.32126	0.42424	0.3358	0.25291	-1.4833	-2.2229	-2.2729	-2.2042	-2.3271	-2.0833	-2.2646	-2.5375	-1.9333	-2.1833	-2.1771	-2.05	-2.225	-1.9771	-2.0687	-2.4146	-123.938	41.460	-92.078	143.835	-61.264	93.922	164.286	134.107	-96.248	-123.840	125.734	22.527	102.134	178.449	-166.952	52.436	0.00035266	0.00044566	6.059e-05	1180.4	2.9853e-06	3.5108e-06	1244.3	242.02	3.8132e-06	2.7223e-06	303.34	85.033	66.881	19.113	2.1699e-06	27.302	0.00034195	0.00031724	8.716e-05	1163.2	3.8036e-06	3.5723e-06	1233.7	240.48	3.7365e-06	3.3955e-06	302.12	85.204	66.759	19.314	3.3925e-06	27.651	159.907	-68.256	-87.692	-156.702	-52.856	-13.504	-156.725	-149.812	-53.127	-35.501	-149.547	-143.912	-143.716	-135.635	-24.586	-136.447	-8191	255	
27089.684	1	1	0	0	0.1214	0.10288	0.093824	0.30308	0.14449	0.20007	0.21958	0.089077	0.073534	0.10169	0.12018	0.17135	0.089133	0.16826	0.090782	0.15904	-1.3979	-2.2292	-2.2208	-2.2125	-2.4667	-2.3771	-2.2979	-2.3271	-2.0896	-2.2146	-2.3812	-1.8854	-2.2083	-2.225	-2.0625	-2.4562	123.243	9.489	-53.540	135.942	-121.038	31.487	134.642	157.661	-158.144	-84.084	185.106	66.995	106.540	117.195	-52.248	83.775	0.00035486	0.00038945	0.00011941	1171.7	2.0554e-06	2.4401e-06	1234.8	241.41	3.4969e-06	3.3389e-06	301.09	84.442	66.131	19.075	3.1839e-06	26.994	0.00033044	0.0003096	8.5181e-05	1154.5	3.6101e-06	3.3886e-06	1225.7	239.32	3.4832e-06	3.1735e-06	300.47	84.82	66.301	19.314	3.5107e-06	27.489	157.101	-70.146	-90.618	-156.522	-53.008	-5.573	-156.864	-149.712	-76.186	-22.554	-149.923	-143.598	-143.300	-135.757	-29.371	-136.596	-8191	255	
27089.779	1	1	0	0	0.13617	0.36346	0.051924	0.25887	0.023167	0.1242	0.14278	0.26189	0.24532	0.29279	0.29075	0.2387	0.19208	0.2594	0.057188	0.091342	-1.5542	-2.1437	-2.4125	-1.9562	-2.0771	-2.4042	-2.1167	-2.4875	-1.9438	-2.0125	-2.6292	-2.0083	-2.1813	-2.3458	-1.9562	-2.4813	124.249	50.755	135.709	118.015	-155.535	114.694	-148.966	-125.682	-18.507	27.487	86.071	56.478	-86.086	172.363	-109.874	93.393	0.00037238	0.0002365	0.00010466	1163	2.1567e-06	2.3317e-06	1233.9	240.65	3.4885e-06	3.0086e-06	300.17	84.494	66.576	19.132	2.8226e-06	26.96	0.00033139	0.00029758	8.4691e-05	1148.3	3.4734e-06	3.2611e-06	1220.7	238.64	3.3611e-06	3.3265e-06	299.97	84.704	66.156	19.227	3.3641e-06	27.452	158.389	-46.500	-89.873	-156.452	-52.740	-33.313	-156.574	-149.861	-68.024	-30.848	-149.705	-143.454	-143.347	-136.464	-28.148	-136.303	-8191	255	
27089.877	1	1	0	0	0.10599	0.039673	0.11017	0.21306	0.085785	0.082021	0.29566	0.19721	0.044308	0.18522	0.14918	0.22937	0.17681	0.12241	0.10755	0.055793	-1.6021	-1.9062	-2.3604	-1.9542	-2.2188	-2.2146	-2.1521	-2.4021	-2.0812	-2.075	-2.3625	-2.0708	-2.0062	-2.2604	-1.8875	-2.4188	73.498	3.415	-38.315	135.537	164.912	54.148	57.301	58.123	80.179	-160.862	111.186	112.102	157.240	99.386	137.982	-37.089	0.00037446	0.00029112	7.9599e-05	1164	3.2113e-06	2.98e-06	1230.7	239.59	2.3041e-06	2.9087e-06	299.29	84.143	66.122	19.05	2.7214e-06	26.968	0.00032817	0.00031421	8.4969e-05	1146.3	3.4913e-06	3.3166e-06	1217.5	238.16	3.4843e-06	3.3154e-06	299.84	84.537	66.198	19.27	3.3696e-06	27.375	159.896	-78.009	-101.100	-156.495	-62.714	-28.137	-156.825	-149.888	-40.360	3.339	-149.687	-143.758	-143.497	-135.891	-46.009	-136.141	-8191	255	
27089.996	1	1	0	0	0.16245	0.045661	0.22807	0.095985	0.13198	0.11958	0.39282	0.2233	0.14291	0.138	0.097902	0.025426	0.12603	0.11495	0.026905	0.203	-1.7729	-1.925	-2.3854	-2.1229	-2.2021	-2.4833	-1.9229	-2.3042	-2.1708	-1.8979	-2.3083	-2.0979	-1.9125	-2.4104	-2.0979	-2.3146	-65.940	-132.625	-17.263	120.983	154.968	-81.872	133.022	97.545	108.334	94.565	105.181	119.688	163.142	81.259	29.642	-96.739	0.0003735	0.00022307	6.4322e-05	1156.1	3.5568e-06	3.0528e-06	1223.8	240.11	3.6497e-06	3.8076e-06	301.66	84.08	65.878	18.994	2.0788e-06	26.963	0.00031287	0.00030418	7.7873e-05	1142.2	3.6636e-06	3.3668e-06	1214.5	238.18	3.519e-06	3.6116e-06	299.48	84.421	66.032	19.185	3.4685e-06	27.424	155.872	-61.226	-101.378	-156.587	-40.016	-9.532	-156.573	-149.486	-58.417	-15.657	-149.924	-143.818	-143.599	-135.974	-18.786	-136.562	-8191	255	
27090.094	1	1	0	0	0.17964	0.024799	0.18196	0.28177	0.27382	0.18946	0.11006	0.11491	0.25512	0.15648	0.21512	0.14111	0.34141	0.25305	0.22166	0.13403	-1.7729	-1.8271	-2.2708	-2.475	-1.8188	-2.2708	-2.1813	-2.2792	-2.4271	-1.8646	-2.6229	-2.1729	-2.1188	-2.3042	-2.1104	-2.35	-34.183	-107.479	1.582	172.158	-114.763	178.295	-36.873	109.218	-3.458	-146.676	181.758	147.359	-30.288	166.253	113.870	-27.161	0.00034214	0.0002507	0.00012663	1160	3.7264e-06	2.4133e-06	1224	237.86	2.7821e-06	3.4319e-06	300.53	84.042	65.73	19.069	3.0854e-06	26.837	0.0003079	0.00031724	8.2762e-05	1141.6	3.653e-06	3.4302e-06	1214	236.8	3.4004e-06	3.3456e-06	299.49	84.352	65.905	19.202	3.4926e-06	27.318	158.122	-75.077	-63.688	-156.572	-57.383	-19.682	-156.568	-149.635	-56.699	-18.424	-149.598	-143.648	-143.337	-135.421	-32.013	-136.335	-8191	255	
27090.189	1	1	0	0	0.15844	0.15788	0.23539	0.34346	0.037918	0.16884	0.26523	0.13592	0.24039	0.26222	0.22366	0.25285	0.19757	0.28243	0.13426	0.15051	-1.8687	-1.8979	-2.4146	-2.3771	-1.9	-2.275	-2.175	-2.1771	-2.1625	-2.0563	-2.1083	-2.1417	-2.0333	-2.4813	-2.1	-2.0021	-146.518	177.578	-117.844	146.811	186.291	167.499	126.648	192.055	189.829	134.806	-159.560	131.453	-68.801	-133.772	167.275	100.588	0.00036957	0.00029224	6.8732e-05	1155	2.8215e-06	2.5815e-06	1227.8	240.37	2.9465e-06	3.6107e-06	301.45	84.412	65.972	19.061	3.05e-06	26.824	0.00032418	0.0003145	8.4593e-05	1141.2	3.7852e-06	3.4382e-06	1212.5	237.66	3.5635e-06	3.4894e-06	299.99	84.464	65.817	19.179	3.3213e-06	27.401	156.413	-64.177	-89.830	-156.584	-23.030	-19.617	-156.762	-149.734	-66.046	-31.717	-149.876	-143.888	-143.276	-135.957	-44.688	-136.259	-8191	255	
27090.285	1	1	0	0	0.018124	0.1887	0.047135	0.14451	0.11684	0.052209	0.18525	0.085558	0.026601	0.1682	0.23868	0.15845	0.18423	0.091286	0.30581	0.20052	-1.8396	-1.9708	-2.2313	-2.4562	-2.0333	-2.2875	-2.3187	-2.2146	-2.3375	-1.9813	-2.2958	-2.3458	-2.0125	-2.4437	-2.1729	-2.1063	-119.237	-14.501	4.203	188.527	25.649	119.435	120.783	136.237	-8.329	96.687	37.466	33.092	121.794	178.786	17.898	-3.482	0.00038822	0.0004117	0.00014505	1153.8	2.3893e-06	3.4582e-06	1224.6	239.85	3.9364e-06	2.4149e-06	300.24	84.344	65.565	19.068	2.234e-06	26.965	0.00033095	0.00032319	8.8419e-05	1139.5	3.7065e-06	3.2777e-06	1211.2	237.41	3.4062e-06	3.6221e-06	299.32	84.416	65.795	19.179	3.3086e-06	27.443	161.866	-78.250	-90.902	-156.539	-71.731	-22.699	-156.509	-149.485	-58.537	-16.038	-149.885	-143.902	-143.315	-135.971	-34.989	-136.291	-8191	255	
27090.379	1	1	0	0	0.20787	0.049086	0.1406	0.079604	0.075661	0.066656	0.43475	0.097252	0.2035	0.22787	0.06458	0.068883	0.11223	0.16339	0.24426	0.40762	-1.8292	-2.0521	-2.1729	-2.5396	-2.0208	-2.2667	-2.3688	-2.175	-2.2917	-2.1208	-2.3521	-2.3479	-1.875	-2.2292	-2.0417	-2.1063	27.015	-150.134	-52.315	180.719	-11.137	104.204	113.784	174.512	157.544	45.850	88.765	136.417	-90.806	88.499	-143.213	156.594	0.0003432	0.00038166	7.4178e-05	1155.1	3.1342e-06	1.7118e-06	1226.7	238.15	3.114e-06	2.1909e-06	301.54	84.121	65.879	19.009	2.5539e-06	26.888	0.00031714	0.0003201	8.3432e-05	1140	3.7221e-06	3.3239e-06	1212.3	237.2	3.3385e-06	3.3331e-06	299.49	84.263	65.837	19.176	3.1017e-06	27.344	160.200	-79.959	-49.330	-156.574	-57.503	-13.919	-156.623	-149.517	-51.275	-9.633	-149.576	-143.914	-143.541	-135.665	-43.914	-136.228	-8191	255	
27090.475	1	1	0	0	0.067263	0.071945	0.033384	0.37308	0.042834	0.17113	0.1937	0.19819	0.067127	0.30213	0.12017	0.2998	0.15112	0.11838	0.063004	0.33032	-1.9208	-2.2167	-2.0771	-2.4708	-1.9979	-2.2125	-2.4271	-1.9188	-2.5646	-2.0438	-2.0854	-2.4458	-1.8229	-2.2354	-2.1646	-1.8312	-54.098	-33.122	-155.188	170.367	-69.710	171.523	32.256	128.448	56.517	80.321	135.948	163.363	72.012	162.775	73.743	76.775	0.00035935	0.00025127	9.3943e-05	1151.2	3.2074e-06	2.9397e-06	1217.3	238.41	2.506e-06	3.6682e-06	300.42	83.818	65.811	18.78	2.4457e-06	26.985	0.00030299	0.00029444	7.7742e-05	1137.3	3.4043e-06	3.2374e-06	1208.8	236.32	3.2281e-06	3.027e-06	298.68	83.887	65.775	19.097	3.0836e-06	27.346	155.437	-76.915	-95.636	-156.699	-65.778	-18.017	-156.587	-149.718	-62.201	-4.200	-149.683	-143.666	-143.207	-135.436	-43.296	-135.903	-8191	255	
27090.572	1	1	0	0	0.21694	0.029418	0.12895	0.29226	0.19853	0.29341	0.18102	0.37464	0.46072	0.11566	0.053801	0.2303	0.16654	0.12213	0.10486	0.22746	-1.8333	-2.05	-1.9917	-2.5438	-1.9229	-2.2896	-2.4188	-1.9042	-2.4354	-2.0938	-2.0104	-2.4604	-1.8604	-2.2188	-2.3521	-1.9146	-121.370	186.759	-108.906	81.466	-144.288	-3.979	82.938	118.581	-108.619	-135.684	-135.534	186.664	14.134	69.016	85.606	40.134	0.00038228	0.00031382	8.705e-05	1152.8	3.0056e-06	2.4193e-06	1218.1	237.12	3.5107e-06	4.1513e-06	299.88	83.653	65.534	19.07	1.9931e-06	26.899	0.00031697	0.00027437	8.0211e-05	1135.4	3.5415e-06	2.9923e-06	1206.7	235.87	3.3108e-06	3.1006e-06	298.33	83.982	65.708	19.171	3.2085e-06	27.335	157.241	-92.456	-53.613	-156.570	-65.914	-18.495	-156.524	-149.805	-55.037	-20.098	-149.790	-143.937	-143.305	-135.912	-43.245	-136.684	-8191	255	
27090.691	1	1	0	0	0.14776	0.16094	0.17064	0.29434	0.11688	0.30077	0.4221	0.23338	0.23628	0.17785	0.27287	0.024413	0.12038	0.11965	0.043498	0.18975	-1.8396	-2.0958	-2.1375	-2.3021	-1.9083	-2.2021	-2.5292	-2.0271	-2.1917	-2.2125	-2.0354	-2.3917	-1.975	-2.2167	-2.3854	-1.8479	-156.424	57.022	171.199	134.675	-159.264	156.461	102.457	-132.558	-112.740	-132.511	67.153	8.909	120.345	-64.797	90.481	179.620	0.00033627	0.00022216	0.00011945	1150.7	3.1138e-06	1.544e-06	1220.2	237.92	3.5925e-06	3.0451e-06	298.68	83.373	65.215	19.02	3.3669e-06	26.659	0.00030431	0.00027355	7.9949e-05	1137.2	3.6023e-06	3.1323e-06	1207.8	235.84	3.2206e-06	3.1098e-06	297.64	83.966	65.536	19.171	3.0064e-06	27.241	158.909	-77.638	-75.517	-156.529	-69.111	1.192	-156.764	-149.604	-45.627	-22.185	-149.754	-143.983	-143.416	-135.512	-30.427	-136.104	-8191	255	
27090.787	1	1	0	0	0.13126	0.22152	0.12951	0.20095	0.26044	0.34197	0.48661	0.22095	0.24494	0.027388	0.1898	0.29342	0.096567	0.1194	0.27357	0.010277	-1.8542	-2.1021	-2.0187	-2.4583	-2.0625	-2.1146	-2.5625	-1.8833	-2.0979	-2.1708	-2.0417	-2.3042	-2.1125	-2.0917	-2.3458	-2.0333	27.943	71.622	42.839	130.107	106.119	175.662	128.826	128.257	100.771	29.136	178.835	131.771	11.280	172.929	117.862	27.081	0.00036808	0.00026134	6.9786e-05	1153.7	2.6714e-06	1.9679e-06	1216.1	238.76	3.8972e-06	2.4809e-06	299.7	83.589	65.67	18.94	3.3723e-06	26.824	0.00030942	0.00028277	8.2402e-05	1136.1	3.4043e-06	3.0848e-06	1204.8	236.19	3.1535e-06	3.0467e-06	298.39	83.924	65.674	19.119	2.9751e-06	27.231	155.956	-66.276	-61.134	-156.715	-41.500	-1.800	-156.638	-149.582	-39.999	-5.416	-149.847	-143.493	-143.493	-135.607	-34.964	-136.328	-8191	255	
27090.859	1	1	0	0	0.144	0.12425	0.080247	0.30775	0.046553	0.2138	0.30086	0.084573	0.1677	0.014915	0.037605	0.10019	0.12571	0.29113	0.35252	0.15013	-1.7062	-2.25	-1.7854	-2.4833	-2.1521	-1.9417	-2.5104	-2.0438	-2.2	-2.2042	-1.775	-2.45	-2.2125	-1.9312	-2.3688	-2.15	8.965	-70.899	-31.836	185.603	178.306	-104.062	-97.694	-5.398	0.281	78.948	129.008	-44.879	169.514	-86.522	-130.426	143.125	0.00037435	0.0002358	6.7031e-05	1152.9	2.7007e-06	3.1283e-06	1218.2	238.22	2.3516e-06	3.1658e-06	297.04	83.38	65.626	18.867	2.0231e-06	26.588	0.00030786	0.00027828	8.2238e-05	1133	3.1852e-06	3.0432e-06	1202.2	235.57	3.2049e-06	2.9134e-06	296.76	83.702	65.401	19.073	2.8611e-06	27.111	157.936	-100.204	-78.203	-156.305	-56.454	-15.953	-156.575	-149.620	-17.894	-10.728	-149.605	-143.970	-143.335	-135.906	-8.110	-136.017	-8191	255	
27090.955	1	1	0	0	0.16217	0.22153	0.22328	0.28875	0.12931	0.060046	0.21015	0.074031	0.28854	0.077774	0.18088	0.19479	0.15293	0.076595	0.090068	0.27703	-1.6458	-2.3042	-1.925	-2.3792	-2.3896	-2.1021	-2.6229	-2.25	-2.1167	-2.3729	-2.2687	-2.4458	-2.3625	-1.9771	-2.1979	-2.1333	128.852	103.631	18.881	-150.198	79.744	-146.108	64.095	183.429	59.609	61.985	-158.004	160.798	33.186	73.034	-78.956	73.262	0.0003318	0.00026949	7.4192e-05	1142.1	3.7015e-06	2.9016e-06	1214.1	236.24	3.8619e-06	2.9285e-06	298.15	83.325	65.579	18.906	2.1081e-06	26.819	0.00029788	0.00026935	8.0211e-05	1125.9	3.2682e-06	3.0564e-06	1200.3	234.81	3.1251e-06	3.1223e-06	297.22	83.785	65.416	19.038	3.0481e-06	27.163	157.640	-74.256	-69.837	-156.515	-74.362	-5.134	-156.773	-149.678	-54.326	-8.142	-149.804	-143.863	-143.425	-135.860	-15.803	-136.141	-8191	255	
27091.076	1	1	0	0	0.24471	0.11029	0.24078	0.16309	0.18007	0.23105	0.17406	0.22875	0.21463	0.12079	0.030013	0.38725	0.083769	0.16598	0.11508	0.19521	-1.4958	-2.2771	-2.0854	-2.2583	-2.2292	-1.9583	-2.5542	-2.3333	-1.9146	-2.4396	-2.0792	-2.1396	-2.4125	-1.9479	-2.3167	-2.3083	-166.301	58.033	172.770	135.704	27.674	-13.434	94.902	108.573	137.629	-17.656	-1.234	-74.266	169.093	-153.160	112.708	116.390	0.00032959	0.00036605	7.0805e-05	1146.2	1.6799e-06	3.0827e-06	1211.5	236.71	3.7912e-06	2.9503e-06	295.68	83.549	65.361	18.988	2.3014e-06	26.771	0.00030668	0.00027291	7.9753e-05	1128.6	3.3826e-06	3.3014e-06	1199.3	234.88	3.2188e-06	3.1137e-06	296.23	83.688	65.365	19.043	2.9063e-06	27.191	160.446	-50.447	-92.604	-156.415	-59.753	6.557	-156.583	-149.323	-56.356	1.623	-149.618	-143.859	-143.337	-135.931	-48.375	-136.506	-8191	255	
27091.174	1	1	0	0	0.2667	0.3084	0.3064	0.11475	0.1759	0.18781	0.21665	0.11851	0.27239	0.094493	0.067111	0.24733	0.14607	0.14445	0.24501	0.19972	-1.3833	-2.3937	-2.1042	-1.9562	-2.2667	-2.0021	-2.4562	-2.2854	-2.0375	-2.5917	-2.1479	-2.2375	-2.4375	-1.9062	-2.2292	-2.3312	-161.087	-60.754	-140.442	66.940	92.855	-95.020	-149.906	127.129	54.338	172.983	-118.770	-106.824	116.189	72.404	91.194	-123.796	0.00035682	0.00027887	8.9649e-05	1145.2	2.7791e-06	3.0902e-06	1208.4	237.03	2.8564e-06	2.1025e-06	296.86	83.343	65.069	18.887	2.6907e-06	26.639	0.00030627	0.00027501	7.9786e-05	1128.8	3.2286e-06	3.0445e-06	1198.9	235.15	3.1778e-06	2.9811e-06	296.77	83.521	65.178	19.074	3.109e-06	27.195	159.642	-74.905	-74.633	-156.605	-82.188	-17.260	-156.631	-149.674	-49.920	-6.225	-149.775	-143.896	-143.532	-135.616	-51.795	-136.450	-8191	255	
27091.270	1	1	0	0	0.2019	0.23035	0.11949	0.23587	0.27114	0.30961	0.25304	0.28836	0.24161	0.12397	0.096342	0.17592	0.16883	0.1078	0.13924	0.13388	-1.4917	-2.3542	-2.1917	-2.2479	-2.4021	-2.0104	-2.2479	-2.2854	-1.8813	-2.4417	-2.2479	-1.9583	-2.4458	-2.0333	-2.1583	-2.4437	155.641	88.054	101.541	155.095	157.284	17.242	167.243	139.207	70.153	21.754	68.165	-125.187	140.308	186.892	47.225	112.632	0.00036267	0.00027467	5.9435e-05	1140.2	1.465e-06	1.7501e-06	1212.3	236.63	3.528e-06	4.0859e-06	298.82	83.47	65.257	18.895	2.9001e-06	26.897	0.00032076	0.0002644	8.1519e-05	1126.1	3.2872e-06	3.1581e-06	1200	234.88	3.3004e-06	3.0441e-06	297.24	83.744	65.241	19.075	3.0227e-06	27.268	159.090	-90.756	-56.586	-156.348	-58.808	-2.322	-156.534	-149.730	-43.285	-18.491	-149.640	-143.609	-143.242	-135.702	-19.035	-136.538	-8191	255	
27091.365	1	1	0	0	0.14842	0.20695	0.31619	0.066499	0.10255	0.20784	0.37665	0.18056	0.15106	0.22735	0.094268	0.099966	0.22104	0.070836	0.13628	0.088757	-1.5583	-2.2313	-2.2458	-2.0729	-2.2729	-2.0938	-2.2521	-2.4354	-1.7229	-2.3812	-2.2687	-2.0521	-2.2812	-1.8937	-2.0958	-2.4729	-94.227	138.280	137.702	8.408	-51.478	-15.016	61.552	50.354	-94.839	162.558	-167.246	-11.074	-60.421	-165.043	115.166	10.047	0.00038338	0.00030475	0.00010338	1142.8	2.9136e-06	3.0884e-06	1211.3	236.25	3.1372e-06	2.6568e-06	298.22	83.544	65.268	18.9	2.5275e-06	26.565	0.00031419	0.00027875	7.8004e-05	1128	3.3636e-06	3.0326e-06	1199.3	234.71	3.3536e-06	2.916e-06	296.73	83.687	65.343	19.049	3.1554e-06	27.148	156.260	-62.435	-83.680	-156.488	-49.911	-25.118	-156.557	-149.662	-31.634	8.155	-149.460	-143.503	-143.225	-135.839	-35.132	-136.485	-8191	255	
27091.461	1	1	0	0	0.061354	0.21689	0.11733	0.22876	0.047695	0.1857	0.40842	0.17229	0.2366	0.11905	0.24741	0.11825	0.16867	0.52817	0.10089	0.21072	-1.5417	-2.3042	-2.1521	-2.15	-2.3146	-2.1583	-2.3812	-2.3292	-2.1083	-2.2062	-2.375	-2.1646	-2.4625	-2.0458	-2.0687	-2.2854	-41.199	170.518	13.130	184.305	19.245	-167.280	179.491	50.049	-37.880	162.041	78.839	141.617	-112.843	176.431	152.225	164.510	0.00035735	0.00031482	0.00010841	1137.9	2.7292e-06	1.5278e-06	1205.8	237.14	3.481e-06	2.6329e-06	297.07	83.321	65.597	18.973	2.6489e-06	26.774	0.00030343	0.000276	7.4783e-05	1125	3.2855e-06	3.0266e-06	1197.9	234.93	2.9984e-06	3.027e-06	296.25	83.64	65.441	19.092	3.0294e-06	27.257	159.691	-70.592	-83.739	-156.594	-96.365	-73.409	-156.567	-149.495	-47.472	-25.528	-149.815	-143.613	-143.386	-135.450	-4.445	-136.203	-8191	255	
27091.559	1	1	0	0	0.42137	0.081445	0.071405	0.3044	0.16047	0.07773	0.31911	0.073217	0.22076	0.2408	0.20344	0.21292	0.2792	0.13341	0.22685	0.19474	-1.7812	-2.0625	-2.1	-1.9958	-2.5563	-2.15	-2.2771	-2.4479	-1.8167	-2.3167	-2.25	-1.9583	-2.5083	-2.2333	-1.8458	-2.6083	-78.196	-101.618	-44.849	-139.909	88.272	37.485	144.661	-22.282	95.615	184.693	5.513	-155.161	110.488	-16.754	65.423	-36.238	0.00036627	0.0003603	5.2492e-05	1144.4	2.772e-06	2.3324e-06	1210.3	237.58	3.8677e-06	3.2322e-06	297.59	83.185	65.434	18.853	2.2145e-06	26.713	0.00031402	0.00028528	7.5895e-05	1125.8	3.2337e-06	3.0029e-06	1198.5	234.68	3.1188e-06	2.8793e-06	296.64	83.614	65.241	19.036	3.0257e-06	27.183	162.461	-75.656	-102.227	-156.475	-83.615	-35.483	-156.582	-149.403	-61.791	-2.018	-149.827	-143.513	-143.892	-135.673	-32.643	-136.162	-8191	255	
27091.676	1	1	0	0	0.24078	0.095889	0.11662	0.35069	0.1505	0.23668	0.16479	0.05615	0.047701	0.27297	0.082211	0.092075	0.075302	0.11362	0.24756	0.16384	-1.5333	-2.1063	-2.3125	-2.0792	-2.1146	-2.1458	-2.1375	-2.3021	-2.0042	-2.0583	-2.2896	-2.0771	-2.1896	-2.3708	-1.9333	-2.3521	-161.897	184.077	-58.561	-154.150	-38.076	-14.058	49.225	142.648	-159.941	-126.928	-0.527	-56.144	-1.363	129.724	-59.359	-37.514	0.00037916	0.00029751	7.5402e-05	1143.4	2.3681e-06	1.8917e-06	1210.5	236.06	4.1585e-06	2.8028e-06	297.25	83.194	65.093	18.895	2.5715e-06	26.652	0.00031856	0.00026609	7.6843e-05	1124.8	3.1918e-06	2.9487e-06	1198.5	234.45	3.1552e-06	3.0901e-06	296.11	83.458	65.216	19.097	3.185e-06	27.152	159.164	-72.790	-89.117	-156.498	-61.519	7.647	-156.911	-149.709	-69.206	-4.261	-149.811	-143.538	-143.428	-135.891	-31.934	-136.198	-8191	255	
27091.773	1	1	0	0	0.24236	0.10545	0.16811	0.41117	0.26753	0.031818	0.10207	0.23972	0.090215	0.095899	0.1703	0.18539	0.20265	0.42604	0.27909	0.12034	-1.5917	-1.9458	-2.2625	-2.425	-2.2542	-2.275	-1.9396	-2.5062	-2.2354	-1.9188	-2.5312	-2.1188	-2.2646	-2.3125	-1.8896	-2.2667	-132.493	106.016	10.202	174.850	11.025	-58.393	109.690	-157.810	54.846	167.804	171.856	-137.285	138.618	-85.071	172.587	173.816	0.00034942	0.00024128	6.8912e-05	1139.7	2.022e-06	3.4e-06	1210.6	237.35	3.4382e-06	3.028e-06	298.39	82.958	65.435	18.925	2.3602e-06	26.849	0.00030164	0.00028872	7.4734e-05	1125.6	3.1305e-06	3.1555e-06	1197.9	234.75	3.1986e-06	3.0454e-06	296.7	83.474	65.354	19.057	3.1066e-06	27.227	155.534	-63.402	-81.092	-156.528	-60.182	-27.633	-156.711	-149.361	-49.488	-22.651	-149.596	-143.832	-143.439	-135.773	-54.446	-136.394	-8191	255	
27091.869	1	1	0	0	0.39728	0.29953	0.063294	0.25636	0.15475	0.088713	0.29546	0.18561	0.115	0.21072	0.23718	0.05716	0.25019	0.13559	0.10383	0.20011	-1.7021	-2.0938	-2.3208	-2.2708	-2.1271	-2.4167	-1.9917	-2.4542	-2.225	-2.0792	-2.4729	-1.9792	-2.2021	-2.4104	-1.9917	-2.4125	63.884	190.327	20.897	159.883	132.442	134.559	90.577	112.649	28.094	60.166	139.228	37.704	-34.040	124.255	-4.976	144.132	0.00034919	0.00033577	5.7955e-05	1140.9	2.9259e-06	3.1627e-06	1212.7	236.52	3.9188e-06	3.4815e-06	297.92	83.602	65.308	18.99	1.9623e-06	26.826	0.00030817	0.00028674	7.8936e-05	1126.4	3.3463e-06	3.2341e-06	1198	234.65	3.2223e-06	3.2011e-06	296.79	83.614	65.429	19.079	3.3931e-06	27.183	162.882	-81.582	-72.524	-156.511	-76.054	-12.020	-156.745	-149.559	-33.514	-29.785	-149.750	-143.732	-143.730	-135.770	-23.953	-136.281	-8191	255	
27091.965	1	1	0	0	0.36788	0.19763	0.11619	0.050325	0.10596	0.086605	0.32304	0.17124	0.072867	0.28299	0.071235	0.081508	0.20973	0.36847	0.10249	0.16997	-1.5875	-1.7792	-2.4292	-2.2604	-2.1854	-2.3896	-2.1104	-2.3083	-2.1813	-1.8667	-2.6562	-2.1479	-2.0979	-2.6188	-2.0875	-2.2687	71.075	65.663	-93.705	40.359	85.068	108.110	147.555	118.618	49.521	-127.769	-74.669	148.794	-154.874	100.068	28.852	-99.817	0.00038309	0.00024315	9.7441e-05	1145.2	3.1733e-06	3.6338e-06	1209.3	237.75	3.7318e-06	1.3035e-06	297.55	83.088	65.219	18.977	3.1633e-06	26.6	0.00030384	0.00030633	7.7007e-05	1127.7	3.4695e-06	3.0544e-06	1199	234.98	3.353e-06	2.9574e-06	296.32	83.583	65.219	19.068	3.1771e-06	27.11	158.856	-104.677	-70.479	-156.452	-71.084	-7.282	-156.852	-149.798	-37.664	-11.819	-149.561	-143.877	-143.131	-135.935	-49.656	-136.246	-8191	255	
27092.086	1	1	0	0	0.11855	0.12135	0.11947	0.32514	0.14464	0.050685	0.17673	0.32997	0.36253	0.039944	0.071326	0.27537	0.42478	0.21227	0.16034	0.19225	-1.9021	-1.8333	-2.2792	-2.3896	-1.9583	-2.5021	-2.3208	-2.3229	-2.2583	-2.0458	-2.4521	-2.225	-1.7875	-2.4417	-2.0271	-2.3729	160.857	-106.022	-151.683	148.264	-106.987	-59.812	97.894	133.491	162.020	-140.500	97.311	175.078	178.765	-141.203	93.127	10.860	0.0003537	0.00036694	9.2769e-05	1142.8	2.2714e-06	3.2359e-06	1208.4	236.16	4.5743e-06	3.5584e-06	295.79	83.353	65.296	18.882	2.6995e-06	26.787	0.00029527	0.00029543	7.8691e-05	1125.3	3.6268e-06	3.0696e-06	1200.1	234.6	3.3819e-06	3.2168e-06	295.77	83.628	65.391	19.038	3.2055e-06	27.151	158.895	-75.725	-96.756	-156.575	-54.921	6.001	-156.643	-149.502	-47.574	-17.970	-149.702	-143.940	-143.150	-135.635	-8.957	-136.166	-8191	255	
27092.156	1	1	0	0	0.083883	0.17418	0.054222	0.22488	0.16661	0.30037	0.2446	0.20141	0.16802	0.078116	0.090677	0.20206	0.17654	0.032893	0.19439	0.077463	-1.7687	-1.7875	-2.175	-2.3042	-2.0667	-2.2125	-2.3583	-2.2583	-2.3729	-1.7896	-2.1896	-2.1813	-2.0563	-2.4521	-1.9583	-2.0833	-95.849	103.015	-12.585	139.824	76.207	-101.929	135.449	-8.189	-134.596	164.665	-50.721	124.435	-140.722	7.579	87.706	-96.255	0.00036115	0.00027855	7.8392e-05	1146	2.1205e-06	1.9459e-06	1214.5	236.95	4.0021e-06	3.1082e-06	296.12	83.271	65.449	18.942	2.2858e-06	26.771	0.00031135	0.00030406	7.9377e-05	1127.3	3.5047e-06	3.1389e-06	1200	235.26	3.29e-06	3.2595e-06	295.98	83.502	65.323	19.068	3.0064e-06	27.147	161.255	-55.023	-111.774	-156.595	-62.069	-1.867	-156.692	-149.651	-60.998	-11.223	-149.887	-143.781	-143.351	-135.975	-39.386	-136.379	-8191	255	
27092.277	1	1	0	0	0.15042	0.37514	0.19355	0.22454	0.11549	0.20721	0.071002	0.13764	0.13821	0.15261	0.22931	0.22681	0.19643	0.25757	0.22497	0.28926	-1.8563	-1.9167	-2.2083	-2.4062	-1.7812	-2.3937	-2.1292	-2.1437	-2.3708	-2.0438	-2.2208	-2.2646	-1.8937	-2.1437	-2.1854	-2.0875	-157.442	66.604	-55.162	146.058	13.627	-152.682	-6.373	-45.601	45.536	39.095	191.896	-145.808	130.264	-150.419	41.255	182.266	0.0003524	0.00028688	6.9208e-05	1139.1	1.9889e-06	2.3771e-06	1212.2	236.29	2.2662e-06	3.1586e-06	299.1	83.701	65.762	18.848	2.386e-06	26.744	0.00030912	0.00029496	8.1208e-05	1126.1	3.5114e-06	2.952e-06	1199.1	234.91	3.0499e-06	3.1347e-06	297.2	83.863	65.485	19.104	3.2176e-06	27.166	158.084	-50.363	-68.234	-156.640	-45.781	-16.610	-156.702	-149.937	-68.275	0.982	-149.974	-143.955	-143.687	-136.024	-45.556	-135.938	-8191	255	
27092.373	1	1	0	0	0.25747	0.23061	0.11837	0.27001	0.099545	0.12117	0.01485	0.22336	0.03947	0.19139	0.15899	0.21304	0.076892	0.29909	0.19581	0.10714	-1.95	-2.0563	-2.0833	-2.375	-1.8563	-2.3792	-2.2812	-2.0917	-2.3354	-2.0146	-2.2333	-2.2958	-1.9833	-2.4333	-2.0875	-2.1688	-142.652	149.678	-146.338	180.232	68.374	188.425	26.316	188.618	33.797	148.052	15.076	95.418	-162.950	96.462	-123.652	124.285	0.00037293	0.00029687	6.9031e-05	1143.6	2.5997e-06	3.2433e-06	1212.8	236.84	2.2777e-06	2.8458e-06	296.8	82.837	65.315	18.939	2.3559e-06	26.785	0.00031304	0.00028102	7.578e-05	1127.5	3.377e-06	3.0418e-06	1199.6	234.86	3.1303e-06	2.9082e-06	296.37	83.486	65.233	19.056	3.0287e-06	27.183	160.064	-72.468	-87.537	-156.469	-52.581	-15.984	-156.763	-149.589	-33.423	27.039	-149.630	-143.991	-143.277	-136.038	-42.045	-136.180	-8191	255	
27092.469	1	1	0	0	0.30879	0.19367	0.15676	0.4082	0.26594	0.1528	0.29479	0.046518	0.18764	0.1829	0.2283	0.071112	0.023899	0.16747	0.05416	0.040596	-1.8458	-2.0875	-2.0521	-2.4062	-1.9729	-2.275	-2.3854	-1.8542	-2.3958	-1.9583	-2.2792	-2.3667	-1.9229	-2.1813	-2.1292	-2	-80.308	79.616	122.984	122.734	-137.871	98.113	142.723	50.356	55.592	-48.574	111.273	108.777	48.891	-104.601	65.335	95.857	0.00037402	0.00027898	7.4423e-05	1143.6	2.1431e-06	3.9338e-06	1215.4	237.08	3.3408e-06	3.2748e-06	296.94	82.973	64.661	19.043	2.6083e-06	26.725	0.00030939	0.00027163	7.6598e-05	1127.3	3.3636e-06	2.9071e-06	1199.5	234.73	3.0846e-06	3.094e-06	296.36	83.396	65.213	19.128	3.1204e-06	27.177	157.685	-55.987	-52.029	-156.448	-63.831	2.085	-156.510	-149.566	-58.284	-12.809	-149.932	-143.631	-143.257	-135.879	-14.309	-136.081	-8191	255	
27092.564	1	1	0	0	0.21426	0.34159	0.077864	0.19038	0.31021	0.10807	0.15946	0.17157	0.2618	0.26172	0.17053	0.24139	0.36433	0.034663	0.1799	0.19989	-1.9479	-2.0479	-2.0708	-2.6271	-1.875	-2.1167	-2.3854	-2.1771	-2.4771	-2.2083	-2.0875	-2.5	-2.2021	-2.1729	-2.2583	-1.7958	100.165	9.987	184.280	-135.097	16.381	4.604	129.596	-90.819	-155.702	182.214	175.724	170.788	-78.541	-120.377	-44.917	-116.204	0.00034086	0.00029372	7.2908e-05	1146.7	2.8647e-06	3.2612e-06	1206	236.48	3.1584e-06	3.3989e-06	296.58	83.488	65.213	18.772	2.8712e-06	26.539	0.00029829	0.0002798	7.9688e-05	1127.2	3.2933e-06	2.9923e-06	1196.6	234.42	3.1321e-06	2.9114e-06	295.98	83.433	65.28	19.071	2.9359e-06	27.142	155.666	-78.022	-52.352	-156.467	-54.529	-44.723	-156.677	-149.792	-24.245	-15.425	-150.046	-143.788	-143.119	-135.832	-22.580	-136.595	-8191	255	
27092.660	1	1	0	0	0.095459	0.20621	0.15749	0.12305	0.11631	0.23016	0.19983	0.26187	0.23632	0.27948	0.23717	0.18062	0.14776	0.11135	0.086277	0.25124	-1.925	-2.3312	-1.9458	-2.4896	-1.9958	-2.0438	-2.5125	-1.9896	-2.4062	-2.475	-2.0896	-2.4146	-2.0625	-2.3375	-2.3125	-2.2208	55.216	-79.164	58.994	-6.605	-78.000	-129.638	89.551	78.368	-76.894	192.125	96.101	175.635	131.773	138.434	48.219	123.869	0.00038558	0.00021946	7.8075e-05	1141.8	2.6692e-06	3.0258e-06	1210.8	236.5	2.2684e-06	2.1682e-06	298.24	83.827	65.356	18.895	1.6787e-06	26.851	0.00030651	0.00028703	7.6418e-05	1125.2	3.2744e-06	3.1687e-06	1198	234.31	3.0794e-06	3.0395e-06	296.5	83.67	65.309	19.086	2.9473e-06	27.152	161.317	-66.924	-73.774	-156.498	-61.374	-13.002	-156.666	-149.748	-54.079	19.591	-149.971	-143.935	-143.350	-135.206	-31.442	-136.074	-8191	255	
27092.758	1	1	0	0	0.097082	0.048586	0.18074	0.18485	0.088243	0.16707	0.25304	0.045193	0.15807	0.10976	0.12605	0.2253	0.23209	0.10737	0.24251	0.16581	-2.0271	-2.3542	-2.025	-2.6292	-2.2687	-2.1937	-2.4354	-2.0687	-2.2396	-2.4875	-2.2646	-2.375	-2.0979	-2.2687	-2.4333	-2.1146	-108.075	-18.414	98.708	187.454	35.814	148.431	99.236	-44.959	-145.553	169.353	36.947	-144.116	191.371	-117.027	-31.165	27.436	0.00034745	0.00032346	7.503e-05	1142.4	2.554e-06	2.8683e-06	1209.7	236.26	2.3904e-06	2.3539e-06	297.61	83.637	65.363	18.888	2e-06	26.776	0.00029334	0.00028475	7.7628e-05	1125.6	3.2811e-06	3.1667e-06	1197.4	234.4	3.0574e-06	2.9364e-06	296.36	83.5	65.255	19.047	2.8611e-06	27.149	159.419	-56.613	-69.113	-156.576	-54.029	-0.136	-156.573	-149.636	-26.097	-14.548	-149.636	-143.579	-143.144	-135.904	-38.370	-136.176	-8191	255	
27092.854	1	1	0	0	0.049925	0.26641	0.25488	0.12251	0.11911	0.29342	0.18573	0.2374	0.25972	0.098541	0.20584	0.15543	0.049888	0.4508	0.10019	0.096294	-1.7917	-2.2667	-1.9625	-2.5771	-2.1146	-1.9896	-2.675	-1.9937	-2.4021	-2.2625	-2.0938	-2.3688	-2.2375	-2.0333	-2.4875	-2.1042	151.855	185.153	175.363	-137.745	102.890	-117.167	-161.861	111.579	-80.756	109.341	183.786	154.227	-48.462	185.870	12.857	62.869	0.00035797	0.00030131	7.1592e-05	1137.4	2.8148e-06	2.226e-06	1208.1	236.28	2.8758e-06	2.0714e-06	296.83	83.321	64.891	18.973	2.3904e-06	26.795	0.00030177	0.00028382	7.7497e-05	1123.4	3.2749e-06	3.0445e-06	1197.6	234.27	3.2362e-06	3.0842e-06	296.02	83.486	65.206	19.095	2.8858e-06	27.116	163.631	-84.868	-78.206	-156.409	-76.498	-3.661	-156.509	-149.599	-62.933	7.609	-149.608	-143.501	-143.430	-135.978	-13.858	-135.897	-8191	255	
27092.949	1	1	0	0	0.18306	0.15513	0.15771	0.044193	0.22862	0.13137	0.0082249	0.35426	0.36644	0.26641	0.09693	0.21431	0.24726	0.1154	0.1775	0.067038	-1.8375	-2.3208	-1.8917	-2.3812	-2.2417	-2.0687	-2.5854	-2.1375	-2.0792	-2.4646	-2.1396	-2.3729	-2.3542	-2.2021	-2.4271	-2.1521	-42.313	-71.167	91.791	169.901	-151.881	-93.810	37.847	108.383	112.649	100.984	161.646	-141.685	57.028	102.189	-25.997	117.894	0.00036834	0.00031711	0.00011271	1140.1	2.9822e-06	2.5178e-06	1211.1	235.72	4.1052e-06	2.195e-06	297.02	82.975	65.388	18.968	2.132e-06	26.565	0.00029808	0.00028819	7.838e-05	1123.3	3.3987e-06	2.9652e-06	1196.3	234.16	3.2287e-06	2.83e-06	295.61	83.376	65.086	19.115	2.9105e-06	27.076	160.679	-81.259	-85.488	-156.524	-61.818	-7.450	-156.657	-149.526	-61.926	-35.793	-149.630	-143.666	-143.438	-135.931	-21.478	-135.959	-8191	255	
27093.045	1	1	0	0	0.086659	0.28915	0.045629	0.35997	0.24315	0.18922	0.43714	0.126	0.029394	0.13828	0.070168	0.18725	0.25942	0.19675	0.18387	0.1312	-1.6396	-2.3417	-1.7458	-2.0812	-2.1021	-1.9458	-2.4938	-2.1833	-2.0146	-2.4062	-1.9813	-2.1146	-2.4	-2.0479	-2.2771	-2.2667	62.063	85.719	-151.843	168.456	-161.226	97.848	85.466	172.539	-28.455	-24.487	-158.694	111.508	84.541	-116.874	-157.854	-37.459	0.00034528	0.00038112	7.2824e-05	1138.3	2.1011e-06	3.3501e-06	1208.7	235.43	2.7424e-06	2.1517e-06	297.78	83.687	64.991	18.899	3.103e-06	26.838	0.00030191	0.0002739	7.565e-05	1123.3	3.3703e-06	3.2737e-06	1196.4	234.1	3.3628e-06	2.8773e-06	296.29	83.545	65.101	19.101	3.0643e-06	27.178	157.459	-91.984	-69.201	-156.451	-87.512	-9.366	-156.614	-149.760	-46.469	-27.839	-149.761	-143.579	-143.281	-135.996	-34.442	-136.106	-8191	255	
27093.166	1	1	0	0	0.25704	0.084547	0.28277	0.22302	0.26621	0.11275	0.15105	0.27996	0.11247	0.22941	0.18255	0.18034	0.0775	0.17135	0.11191	0.038838	-1.5021	-2.3563	-2.0854	-2.1167	-2.2687	-1.8958	-2.5312	-2.1688	-2.0917	-2.5417	-2.2167	-2.2479	-2.525	-1.9875	-2.2354	-2.3875	86.861	175.654	-118.543	-165.357	141.270	63.682	164.193	71.011	136.190	113.188	127.039	106.068	-136.752	179.845	-57.525	35.445	0.00036583	0.00029253	9.6645e-05	1140.4	2.8898e-06	2.2477e-06	1211	236.09	2.3936e-06	2.5022e-06	296.69	83.211	65.146	18.866	3.3918e-06	26.746	0.00030854	0.0002665	7.4832e-05	1126.5	3.3904e-06	3.0187e-06	1200.1	234.03	3.2876e-06	2.9082e-06	296.09	83.431	65.113	19.104	2.9781e-06	27.132	155.100	-73.160	-67.288	-156.577	-52.715	-3.167	-156.549	-149.347	-46.412	-5.212	-149.631	-143.510	-143.529	-135.998	-20.427	-136.356	-8191	255	
27093.262	1	1	0	0	0.045155	0.12844	0.1524	0.31811	0.12344	0.11426	0.26789	0.090727	0.26918	0.15071	0.26275	0.22574	0.034429	0.10934	0.14501	0.12172	-1.4604	-2.5125	-2.1979	-2.2979	-2.4646	-1.9333	-2.4396	-2.3333	-1.8917	-2.2167	-2.3771	-1.9937	-2.4625	-1.925	-2.2042	-2.2792	169.245	14.492	-117.227	171.589	50.401	83.132	113.189	69.721	155.139	75.108	107.790	-88.685	88.969	21.608	-73.787	-161.623	0.00033453	0.00029908	0.00010268	1133.3	2.5717e-06	2.6312e-06	1201.2	234.12	4.338e-06	2.7738e-06	294.67	82.711	64.423	18.653	1.6441e-06	26.505	0.00030289	0.00026516	7.2249e-05	1119	3.184e-06	2.7816e-06	1187.2	232.21	3.1332e-06	2.7105e-06	293.28	82.63	64.533	18.846	2.6029e-06	26.835	158.548	-90.275	-66.775	-156.307	-78.817	-2.838	-156.657	-149.413	-53.416	12.245	-149.780	-144.081	-143.678	-135.781	-23.158	-136.089	-8191	255	
27093.357	1	1	0	0	0.019801	0.26136	0.082288	0.31548	0.18783	0.21089	0.31954	0.33371	0.27063	0.13938	0.17669	0.27186	0.027882	0.075889	0.13652	0.4058	-1.4708	-2.275	-2.3042	-2.1333	-2.4896	-1.9062	-2.4958	-2.4125	-1.7896	-2.2979	-2.3667	-2.0875	-2.4188	-1.9917	-2.1042	-2.3583	39.593	30.734	70.114	162.211	-8.026	143.037	15.091	185.773	-25.984	-98.096	-117.651	-39.570	32.025	-154.966	-95.051	-125.055	0.00035499	0.00026851	6.7772e-05	1116.1	2.7623e-06	3.1518e-06	1183.8	232.67	2.7592e-06	3.1588e-06	292.06	82.299	64.472	18.628	2.1803e-06	26.419	0.00029845	0.00022468	6.9339e-05	1102.4	2.8896e-06	2.7637e-06	1173.3	230.85	2.9475e-06	2.6507e-06	291.67	82.533	64.315	18.804	2.7965e-06	26.866	158.410	-85.958	-85.940	-156.337	-45.370	1.052	-156.444	-149.347	-76.015	-38.713	-149.837	-143.540	-143.130	-135.547	-21.117	-135.857	-8191	255	
27093.453	1	1	0	0	0.19227	0.21446	0.093905	0.39296	0.26186	0.2873	0.30212	0.18571	0.24009	0.052816	0.39295	0.065952	0.1929	0.27394	0.092131	0.047988	-1.675	-2.3438	-2.3083	-2.0208	-2.4062	-2.0667	-2.1813	-2.4979	-1.9521	-2.2729	-2.4938	-2.1562	-2.5042	-1.9937	-2.1562	-2.3875	43.362	-13.752	68.260	172.880	59.761	164.474	111.748	87.739	-8.663	-160.145	140.908	44.958	-151.993	97.426	69.957	-132.407	0.00034841	0.00026811	9.0796e-05	1116.4	3.4448e-06	3.6659e-06	1190.6	233.7	3.7353e-06	2.9359e-06	292.91	82.39	64.558	18.699	2.7685e-06	26.488	0.00029077	0.00023897	6.5545e-05	1101.6	2.9833e-06	2.8285e-06	1175.1	231.5	3.0401e-06	2.7913e-06	292.55	82.596	64.483	18.855	3.0957e-06	26.874	161.715	-62.697	-50.283	-156.368	-56.949	-20.920	-156.802	-149.618	-47.659	-4.335	-149.599	-143.962	-143.532	-135.883	-30.363	-136.019	-8191	255	
27093.549	1	1	0	0	0.27084	0.22514	0.068752	0.11955	0.16949	0.37857	0.37966	0.14405	0.14114	0.10218	0.23466	0.28591	0.21949	0.30808	0.16388	0.24866	-1.6417	-2.1542	-2.3146	-2.1	-2.2833	-2.1854	-2.2208	-2.5271	-2.0146	-2.3396	-2.3208	-2.175	-2.4271	-2.1083	-1.9375	-2.2896	-39.607	36.629	-153.338	-40.525	58.822	-6.846	169.761	157.759	178.414	46.852	170.161	-151.016	-19.267	-43.685	1.557	146.754	0.00037537	0.00036058	8.259e-05	1120	2.6204e-06	3.1857e-06	1189	233.24	2.9004e-06	2.3871e-06	293.53	82.347	64.253	18.787	3.0919e-06	26.554	0.00029845	0.00026131	7.457e-05	1102.6	3.0469e-06	2.9784e-06	1175.3	231.09	2.9562e-06	2.8537e-06	292.47	82.54	64.362	18.909	2.9871e-06	26.851	158.458	-77.447	-106.764	-156.298	-54.297	-19.709	-156.526	-149.621	-40.102	-21.025	-149.690	-143.543	-143.401	-136.006	-27.030	-136.077	-8191	255	
27093.646	1	1	0	0	0.037892	0.16653	0.15055	0.23337	0.11237	0.24909	0.22776	0.090561	0.088882	0.078425	0.1142	0.048335	0.14078	0.30901	0.20135	0.22709	-1.4854	-2.1104	-2.2292	-2.1104	-2.2438	-2.2604	-2.0708	-2.3625	-2.0625	-2.0104	-2.575	-2.0333	-2.2458	-2.0687	-1.9604	-2.325	7.538	32.492	-140.901	102.208	144.074	-83.996	176.212	-154.220	62.034	-21.293	103.479	-154.640	-164.265	178.666	-21.263	96.425	0.00036516	0.00039851	8.8405e-05	1117.3	2.3716e-06	2.9099e-06	1189.7	232.58	3.5235e-06	3.5664e-06	291.46	82.137	64.227	18.734	2.2563e-06	26.37	0.00029145	0.00026679	6.7409e-05	1101.9	3.063e-06	2.7591e-06	1175.5	231.1	2.8191e-06	2.6435e-06	292.07	82.402	64.256	18.867	2.7609e-06	26.809	157.811	-58.964	-79.540	-156.409	-61.382	-31.542	-156.506	-149.613	-44.226	-16.484	-149.449	-143.562	-143.188	-135.494	-54.707	-136.216	-8191	255	
27093.766	1	1	0	0	0.28777	0.12064	0.22514	0.12743	0.1414	0.17171	0.25519	0.23821	0.10805	0.15852	0.25042	0.11283	0.08688	0.14339	0.05001	0.40891	-1.5438	-1.9646	-2.3917	-2.1979	-2.1104	-2.2812	-2.1083	-2.4542	-2.075	-1.9125	-2.5542	-2.1	-2.1437	-2.3146	-1.8687	-2.4938	114.138	-165.958	-140.348	-165.556	-4.796	-79.875	121.630	142.864	-99.514	31.385	178.805	163.706	38.473	-43.829	-99.370	76.441	0.0003608	0.00029485	8.3548e-05	1109.4	2.976e-06	3.6469e-06	1176.8	231.65	3.7625e-06	2.9557e-06	292.41	81.967	64.261	18.686	2.8371e-06	26.308	0.0002795	0.00023337	6.6003e-05	1096.4	3.0708e-06	2.7327e-06	1167.2	229.75	2.7249e-06	2.7262e-06	291.1	82.194	64.022	18.857	2.7549e-06	26.797	159.750	-72.339	-90.109	-156.243	-56.318	0.488	-156.742	-149.322	-44.957	-36.539	-149.894	-143.747	-143.194	-136.049	-39.796	-135.981	-8191	255	
27093.861	1	1	0	0	0.18463	0.26565	0.28321	0.06433	0.31183	0.1906	0.23081	0.093894	0.23733	0.18121	0.14718	0.29116	0.33172	0.047282	0.15315	0.30275	-1.8021	-1.9958	-2.4646	-2.1688	-2.0125	-2.3958	-2.125	-2.375	-2.3187	-2.0104	-2.4208	-2.0896	-2.1125	-2.5354	-1.8062	-2.3875	111.801	93.939	23.269	122.640	1.095	30.109	-46.731	121.519	-27.762	-9.461	-124.311	101.762	-103.800	-89.955	-19.550	-45.691	0.00034829	0.0003013	6.9483e-05	1107.6	2.3024e-06	2.583e-06	1180	231.17	2.6036e-06	3.6818e-06	292.27	81.83	64.023	18.669	3.015e-06	26.279	0.00029703	0.00024824	6.3845e-05	1094.8	3.15e-06	2.7598e-06	1167.6	229.99	2.8833e-06	2.6744e-06	291.18	82.047	64.076	18.827	2.8098e-06	26.778	161.784	-86.550	-93.392	-156.598	-57.053	-56.739	-156.409	-149.574	-39.973	-15.126	-149.529	-143.707	-143.171	-135.842	-10.304	-136.311	-8191	255	
27093.957	1	1	0	0	0.22351	0.2759	0.18993	0.2085	0.18634	0.1396	0.10446	0.15414	0.041549	0.093604	0.33206	0.2341	0.20969	0.27504	0.16218	0.31141	-1.7687	-2.0062	-2.3125	-2.1188	-2.0458	-2.3208	-2.1125	-2.2812	-2.0521	-1.9604	-2.2687	-2.0604	-2.0125	-2.4271	-2.0104	-2.3021	189.846	-88.736	27.543	167.568	136.117	108.203	-91.346	109.460	54.379	-162.611	123.596	32.747	11.697	78.453	-159.545	73.497	0.00033414	0.00017957	7.634e-05	1112.2	1.8767e-06	3.0763e-06	1179.5	232.08	3.7576e-06	2.929e-06	291.75	81.912	63.552	18.717	2.2481e-06	26.313	0.00028546	0.00025886	6.5006e-05	1095.6	3.0786e-06	2.7017e-06	1167.9	229.95	2.8903e-06	2.8313e-06	290.89	82.31	63.911	18.818	2.8894e-06	26.798	160.388	-101.396	-94.006	-156.264	-70.781	2.942	-156.819	-149.623	-62.970	-21.940	-149.395	-143.674	-143.443	-135.808	-4.020	-136.339	-8191	255	
27094.055	1	1	0	0	0.2824	0.32039	0.17852	0.2904	0.052294	0.23223	0.12681	0.15488	0.21987	0.032286	0.1542	0.052911	0.27712	0.089604	0.23498	0.16949	-1.7625	-1.9208	-2.2604	-2.1604	-2.1771	-2.4958	-2.275	-2.175	-2.3812	-1.7458	-2.5	-2.1125	-2.1375	-2.3104	-2.0833	-2.1292	-147.179	34.758	26.944	112.537	-35.293	85.269	124.866	57.243	122.965	-96.399	-75.110	-80.300	-112.387	168.256	-156.204	-148.703	0.00038369	0.00032422	7.7489e-05	1111.9	2.9923e-06	2.2926e-06	1180.5	232.05	3.7519e-06	2.948e-06	293.74	82.293	64.434	18.732	2.6481e-06	26.559	0.0003015	0.00025874	7.4031e-05	1098.1	3.2744e-06	2.6501e-06	1168.6	230.02	3.0806e-06	2.9633e-06	291.4	82.35	64.356	18.857	2.846e-06	26.876	163.055	-80.159	-73.197	-156.642	-73.043	3.665	-156.732	-149.584	-44.235	-21.941	-150.017	-143.583	-143.340	-135.782	-25.130	-136.310	-8191	255	
27094.150	1	1	0	0	0.063543	0.069551	0.11159	0.079295	0.16537	0.14872	0.15432	0.16382	0.19362	0.14267	0.116	0.11899	0.25369	0.29754	0.24048	0.12859	-2.0146	-1.9958	-2.3563	-2.3458	-2.0208	-2.3812	-2.1437	-2.2417	-2.1896	-2.0687	-2.3958	-2.2625	-1.9021	-2.1729	-1.8208	-2.0229	-72.246	37.613	-31.436	-66.539	27.958	167.657	133.806	122.855	167.435	162.321	187.752	139.665	153.386	109.460	108.800	34.240	0.00040026	0.00028304	0.00010758	1116.9	2.9425e-06	3.0699e-06	1183.1	232.28	3.8391e-06	3.202e-06	293.08	81.891	64.129	18.729	2.436e-06	26.693	0.00029639	0.00026539	6.8309e-05	1100.5	3.2638e-06	2.6435e-06	1171.9	230.33	3.0412e-06	2.9594e-06	291.98	82.45	64.204	18.876	2.931e-06	26.92	157.286	-72.042	-74.391	-156.457	-61.044	-11.232	-156.428	-149.573	-64.323	-1.645	-149.888	-144.024	-143.375	-135.550	-17.349	-136.199	-8191	255	
27094.246	1	1	0	0	0.15175	0.093493	0.17493	0.15056	0.35743	0.067869	0.15481	0.15238	0.2254	0.13524	0.20886	0.013307	0.22355	0.083751	0.19969	0.065364	-1.9208	-1.85	-2.2562	-2.2479	-1.8625	-2.3729	-2.2083	-2.1813	-2.4229	-1.8792	-2.3417	-2.2562	-2.0458	-2.3542	-1.9833	-2.0187	143.273	148.087	-36.328	152.393	57.861	55.698	159.209	108.558	-158.166	-125.228	-158.423	-26.790	-63.814	-156.652	-127.753	-148.516	0.00033798	0.00017414	7.7834e-05	1113.9	3.0878e-06	2.3131e-06	1183	232.86	3.2679e-06	3.0662e-06	292.05	81.907	64.817	18.588	2.4449e-06	26.344	0.00029402	0.00027402	7.3769e-05	1099.7	3.1852e-06	2.5425e-06	1172.1	230.79	2.7289e-06	2.7584e-06	291.45	82.314	64.431	18.838	2.7633e-06	26.838	157.458	-100.368	-92.950	-156.641	-59.317	-4.995	-156.635	-149.166	-57.410	6.024	-149.911	-143.716	-143.388	-135.692	-28.019	-136.214	-8191	255	
27094.342	1	1	0	0	0.22837	0.10704	0.25307	0.25373	0.25614	0.16857	0.23713	0.1163	0.091034	0.20237	0.090627	0.15117	0.28939	0.12624	0.19974	0.24452	-1.9438	-1.8458	-2.1562	-2.2438	-1.7542	-2.275	-2.2	-1.9771	-2.3958	-2.0229	-2.1646	-2.5375	-2.0354	-2.2708	-2.2938	-1.9375	-99.345	-111.893	24.602	-134.722	-61.048	-104.717	126.644	174.199	-49.027	-131.530	141.129	36.831	186.769	145.756	-55.962	175.449	0.00034614	0.00031316	9.2546e-05	1117.4	2.1026e-06	3.2717e-06	1181.8	232.46	2.7065e-06	2.4388e-06	293.24	82.625	64.33	18.826	3.0407e-06	26.542	0.00028153	0.00023267	6.6265e-05	1098.8	3.2069e-06	2.5715e-06	1172.1	230.85	2.5999e-06	2.6028e-06	291.8	82.469	64.267	18.866	2.7567e-06	26.869	157.246	-74.473	-72.355	-156.228	-52.215	5.243	-156.597	-149.634	-42.746	-33.529	-150.116	-143.734	-143.536	-135.757	-38.881	-136.106	-8191	255	
27094.461	1	1	0	0	0.21555	0.099459	0.13565	0.19338	0.049762	0.16484	0.23761	0.078081	0.14149	0.096639	0.2208	0.078407	0.11921	0.26872	0.13433	0.26071	-1.8646	-1.9688	-2.2188	-2.4271	-1.9604	-2.4292	-2.5375	-1.9542	-2.4208	-1.8854	-2.2417	-2.4667	-1.9958	-2.3146	-2.3479	-1.9729	-153.557	-9.944	-134.444	151.790	71.155	51.625	133.139	-7.950	65.579	161.401	-118.053	-136.483	-98.810	-70.117	-14.629	108.313	0.00034535	0.00020063	7.5006e-05	1110.9	1.9704e-06	2.4374e-06	1180.4	232.41	3.6095e-06	3.2786e-06	292.27	81.206	64.099	18.583	2.7014e-06	26.375	0.00028549	0.00023482	7.0303e-05	1097.4	3.0262e-06	2.7578e-06	1168.9	230.27	2.6254e-06	2.7138e-06	291.19	82.108	64.159	18.79	2.7205e-06	26.833	157.264	-56.410	-68.238	-156.489	-53.476	-18.580	-156.630	-149.739	-37.410	-12.082	-149.648	-143.883	-143.468	-135.548	-42.143	-136.148	-8191	255	
27094.557	1	1	0	0	0.17168	0.11322	0.083103	0.10456	0.020163	0.21983	0.21094	0.19719	0.19224	0.36559	0.040262	0.065647	0.15831	0.18338	0.26732	0.065598	-1.8333	-2.1458	-1.85	-2.5312	-1.9333	-2.3021	-2.3563	-1.6479	-2.2979	-2.1292	-2.1188	-2.3542	-2.0083	-2.2	-2.1479	-1.8375	-36.538	-8.158	7.886	88.551	53.935	-124.702	107.076	95.387	-0.640	94.824	-88.307	13.746	69.272	124.080	-78.180	124.880	0.00036537	0.00024418	9.9029e-05	1114.8	1.9346e-06	2.5226e-06	1180.7	233.03	2.1511e-06	3.3615e-06	294.09	82.132	64.701	18.666	3.1337e-06	26.304	0.00028729	0.000256	6.7426e-05	1095.9	2.9872e-06	2.7604e-06	1168.2	230.23	2.8307e-06	2.6494e-06	292.14	82.18	64.275	18.864	2.8997e-06	26.81	158.043	-93.515	-56.751	-156.476	-54.510	-7.472	-156.497	-149.383	-41.809	-58.005	-149.613	-143.793	-143.189	-135.780	-24.374	-136.039	-8191	255	
27094.629	1	1	0	0	0.21235	0.27102	0.075781	0.14078	0.1396	0.38786	0.28357	0.28918	0.095178	0.13919	0.23533	0.17111	0.34514	0.14904	0.19507	0.072958	-1.7396	-1.9833	-1.9625	-2.6354	-1.9479	-2.0708	-2.3458	-2.0458	-2.1271	-2.1375	-1.9417	-2.4375	-1.9396	-1.9958	-2.1375	-2.0062	-78.753	-107.882	60.360	-121.843	-104.681	14.933	127.076	192.254	91.162	70.658	147.934	75.600	134.768	-161.801	-55.487	93.283	0.00034581	0.00023603	7.0792e-05	1118.2	2.6324e-06	3.2104e-06	1183.1	234.17	2.5212e-06	3.1339e-06	293.43	82.242	64.79	18.796	2.1498e-06	26.325	0.00029355	0.00026632	7.4358e-05	1099.7	3.1746e-06	3.0233e-06	1172.9	231.29	2.899e-06	2.9252e-06	292.16	82.457	64.441	18.862	2.8617e-06	26.891	158.030	-76.099	-78.729	-156.413	-63.659	-29.321	-156.564	-149.478	-51.250	-43.274	-149.496	-143.446	-143.345	-135.693	-18.807	-136.049	-8191	255	
27094.727	1	1	0	0	0.18555	0.11872	0.24011	0.14881	0.19358	0.15245	0.09584	0.24962	0.21364	0.16996	0.23824	0.15442	0.11492	0.21073	0.23042	0.26816	-1.8354	-2.0917	-1.8792	-2.4437	-2.1688	-2.1	-2.6771	-2.0729	-2.2042	-2.3458	-1.9625	-2.3896	-1.9771	-2.225	-2.3792	-2.0542	97.959	131.693	131.284	119.629	-58.449	107.332	184.092	48.785	50.553	7.600	58.734	2.697	42.699	-78.086	-147.419	125.035	0.00036755	0.00023633	0.000109	1117.1	2.3815e-06	3.488e-06	1184.7	232.29	3.5988e-06	3.4525e-06	293.42	82.175	64.378	18.738	1.8482e-06	26.616	0.00029744	0.00027233	7.6598e-05	1102.5	3.2755e-06	2.9764e-06	1175.7	230.92	3.2755e-06	3.0448e-06	292.46	82.487	64.48	18.921	2.744e-06	26.934	159.020	-68.308	-86.420	-156.259	-65.040	-27.913	-156.639	-149.599	-34.033	-18.651	-149.588	-143.744	-143.226	-135.543	-34.915	-136.298	-8191	255	
27094.846	1	1	0	0	0.10361	0.11129	0.22549	0.21681	0.13987	0.15083	0.058937	0.053614	0.15034	0.20869	0.16553	0.075561	0.29241	0.076589	0.149	0.19729	-1.575	-2.2521	-2.0125	-2.4792	-2.0521	-2.0979	-2.5021	-2.2458	-2.1667	-2.2458	-2.05	-2.425	-2.1104	-2.0583	-2.4625	-2.1396	-101.494	153.210	-160.565	169.630	119.468	1.850	-61.964	91.742	127.818	-152.107	-153.336	95.045	5.098	152.455	179.398	104.942	0.00035321	0.00020338	4.71e-05	1117	2.5799e-06	2.5929e-06	1187.5	233.49	3.0464e-06	3.7713e-06	291.64	82.084	64.219	18.675	2.7353e-06	26.537	0.00030214	0.00027233	7.3377e-05	1102.6	3.203e-06	2.9401e-06	1174.4	230.92	3.0308e-06	2.8773e-06	291.63	82.502	64.342	18.867	2.9268e-06	26.912	157.777	-67.930	-65.345	-156.578	-65.139	-2.438	-156.609	-149.441	-48.187	-19.105	-149.491	-143.596	-143.290	-135.681	-23.592	-136.296	-8191	255	
27094.941	1	1	0	0	0.20721	0.10835	0.45897	0.19018	0.11758	0.11297	0.1578	0.348	0.043929	0.25588	0.27202	0.032884	0.14391	0.031511	0.31936	0.18575	-1.6875	-2.2479	-1.9854	-2.3896	-2.1667	-1.8854	-2.5354	-1.9417	-2.1396	-2.425	-2.1	-2.3063	-2.2354	-1.9708	-2.3312	-2.0979	106.202	-153.371	-123.716	-163.314	72.182	119.945	132.947	118.221	77.845	-13.200	148.720	53.395	159.745	-78.077	113.399	-102.610	0.00036193	0.0002829	6.256e-05	1115.3	3.3419e-06	2.4608e-06	1185.6	231.74	4.0369e-06	2.8906e-06	294.81	82.511	64.064	18.798	3.0292e-06	26.487	0.00030675	0.00026766	7.6483e-05	1101.4	3.3017e-06	3.0861e-06	1173.5	230.43	3.1193e-06	3.0507e-06	292.34	82.513	64.482	18.947	2.8044e-06	26.945	152.425	-87.039	-72.259	-156.375	-49.537	0.674	-156.737	-149.349	-53.775	-10.974	-149.804	-143.745	-143.154	-135.748	-48.211	-136.084	-8191	255	
27095.037	1	1	0	0	0.064834	0.09761	0.13467	0.17093	0.1692	0.24109	0.16625	0.2013	0.12535	0.13209	0.13145	0.10758	0.19876	0.089446	0.10498	0.14751	-1.4875	-2.325	-1.9875	-2.4917	-2.3083	-1.8604	-2.6063	-2.2062	-2	-2.7062	-1.8542	-2.2021	-2.2687	-2.075	-2.2812	-2.2854	134.041	-24.695	-68.756	-97.811	-123.084	175.303	60.898	137.599	85.129	-91.796	-118.323	10.816	128.712	-154.905	15.183	158.187	0.00036742	0.00037039	9.8407e-05	1118.8	2.1348e-06	3.2054e-06	1192.6	234.38	3.1875e-06	2.9478e-06	293.45	82.643	64.127	18.883	1.8278e-06	26.711	0.00031605	0.00027204	7.238e-05	1102.6	3.111e-06	2.9804e-06	1176.2	231.44	3.1899e-06	2.6422e-06	292.7	82.683	64.254	18.954	2.8351e-06	26.921	157.197	-66.346	-61.131	-156.334	-75.467	-10.599	-156.691	-149.669	-53.293	-28.197	-149.764	-143.464	-143.339	-135.542	-5.652	-136.008	-8191	255	
27095.158	1	1	0	0	0.061399	0.1975	0.043756	0.42578	0.24682	0.16622	0.4008	0.17426	0.28051	0.052988	0.28112	0.23942	0.20231	0.13829	0.14544	0.20011	-1.6167	-2.3875	-2.1229	-2.5146	-2.4354	-1.8083	-2.5125	-2.4062	-1.8813	-2.5917	-2.2188	-2.225	-2.5021	-1.9438	-2.2708	-2.2021	105.739	184.064	-89.367	140.674	-52.999	-8.862	136.932	68.483	19.183	4.617	161.129	-13.483	63.325	121.158	-13.205	-139.492	0.00035839	0.00027309	0.00011196	1121.5	2.768e-06	3.6693e-06	1187	233.12	3.541e-06	2.4346e-06	293.37	82.105	64.426	18.77	2.9158e-06	26.655	0.00030231	0.00025063	7.6222e-05	1104.4	3.0742e-06	2.8536e-06	1174.5	231.14	3.1604e-06	2.8005e-06	292.56	82.544	64.405	18.933	2.9395e-06	27.019	157.043	-103.494	-68.914	-156.346	-48.130	-6.724	-156.486	-149.520	-50.482	-15.853	-149.806	-143.479	-143.445	-135.581	-22.079	-136.335	-8191	255	
27095.256	1	1	0	0	0.17167	0.061333	0.040651	0.29941	0.067968	0.24551	0.25101	0.11995	0.10254	0.20145	0.27784	0.041208	0.024265	0.24957	0.18426	0.15959	-1.5417	-2.4042	-2.0417	-2.1875	-2.4333	-2.1312	-2.4167	-2.3021	-1.8104	-2.5042	-2.0521	-2.1917	-2.3271	-2.0792	-2.0917	-2.4521	190.909	32.141	188.674	-157.911	-89.455	-129.115	129.012	161.590	10.144	32.748	168.947	-39.806	-167.156	142.616	-130.539	24.335	0.00035965	0.00022722	9.0682e-05	1122.5	2.4577e-06	2.029e-06	1187.5	233.21	3.841e-06	2.9223e-06	293.23	82.436	64.438	18.806	2.9222e-06	26.508	0.00031165	0.00024748	7.4897e-05	1104.7	3.2604e-06	3.0207e-06	1176.2	231.39	3.1939e-06	2.8044e-06	292.81	82.661	64.462	18.949	3.1759e-06	26.868	158.537	-88.306	-79.781	-156.402	-36.649	-3.492	-156.587	-149.429	-49.681	-5.372	-149.794	-143.858	-143.210	-135.893	-30.858	-136.370	-8191	255	
27095.326	1	1	0	0	0.25201	0.18332	0.059472	0.19036	0.12312	0.097622	0.1863	0.11635	0.25112	0.15079	0.21563	0.24377	0.060042	0.17876	0.083575	0.20991	-1.5063	-2.3104	-2.1792	-2.1042	-2.4062	-2.0979	-2.3333	-2.1312	-2.0563	-2.4375	-2.4167	-2.1208	-2.2354	-2.1458	-2.1833	-2.3688	60.646	101.128	-90.135	118.464	40.630	-153.951	159.278	141.251	167.993	145.864	190.064	187.151	97.655	-47.712	-166.838	18.512	0.00035614	0.00028786	0.00011508	1116.8	2.7522e-06	3.0328e-06	1197.5	233.98	2.9598e-06	2.4009e-06	292.87	83.006	64.52	18.804	2.6168e-06	26.55	0.00030925	0.00026685	7.5372e-05	1105.3	3.2047e-06	3.2208e-06	1178.2	231.62	3.1245e-06	2.9371e-06	292.59	82.786	64.551	18.929	2.9576e-06	26.907	160.288	-83.059	-76.480	-156.369	-55.503	-5.157	-156.534	-149.497	-48.987	-35.804	-149.791	-143.922	-142.965	-135.727	-42.121	-136.372	-8191	255	
27095.447	1	1	0	0	0.12766	0.16223	0.11201	0.21494	0.10617	0.19501	0.23477	0.27129	0.22243	0.25728	0.12745	0.04769	0.28115	0.19587	0.11269	0.1508	-1.4625	-2.1	-2.2	-1.9167	-2.3854	-2.25	-2.1271	-2.4875	-1.8646	-2.1292	-2.4188	-1.8646	-2.5021	-2.0667	-2.025	-2.1792	-9.906	133.644	94.915	-118.526	-114.683	-135.206	-160.867	123.290	-75.436	-97.664	-125.073	62.863	-82.659	117.586	128.946	-23.453	0.00037227	0.00037228	0.00010657	1119.8	2.3329e-06	3.485e-06	1189.1	233.07	2.9874e-06	3.2944e-06	295.32	82.571	64.748	18.72	3.0795e-06	26.532	0.00029697	0.0002518	7.4374e-05	1103.9	3.0385e-06	3.0603e-06	1178.4	231.56	3.1228e-06	2.8924e-06	293.31	82.801	64.614	18.938	2.9618e-06	26.953	160.897	-52.952	-87.801	-156.521	-78.579	-29.199	-156.485	-149.440	-51.646	-22.888	-149.724	-143.855	-143.463	-135.924	-25.845	-136.276	-8191	255	
27095.543	1	1	0	0	0.064367	0.35948	0.16667	0.24021	0.12638	0.41884	0.36611	0.13906	0.38498	0.081131	0.09079	0.094275	0.063974	0.095916	0.12549	0.050706	-1.5208	-2.0271	-2.1208	-2.1521	-2.2938	-1.9562	-2.1729	-2.6646	-1.8854	-2.0521	-2.4313	-2.0396	-2.3063	-2.1396	-1.9646	-2.5563	160.279	-141.675	102.439	148.388	183.781	-157.673	93.620	-147.622	71.171	113.145	-87.184	94.511	-54.121	73.829	121.233	154.883	0.00036345	0.00023746	9.6385e-05	1120.4	4.0096e-06	3.3223e-06	1192.2	233.32	2.8916e-06	2.6967e-06	293.84	82.964	64.882	18.94	2.5821e-06	26.683	0.00030137	0.00027653	7.5993e-05	1105.9	3.2827e-06	3.0379e-06	1179.9	231.92	3.2506e-06	3.0467e-06	293.24	82.882	64.727	18.991	2.9539e-06	27.031	158.212	-68.405	-71.231	-156.445	-69.820	-26.718	-156.600	-149.650	-34.467	-12.807	-149.306	-143.722	-143.334	-135.874	-45.510	-136.645	-8191	255	
27095.639	1	1	0	0	0.34937	0.053502	0.14644	0.098077	0.28383	0.14579	0.13555	0.33728	0.15056	0.069652	0.22102	0.14248	0.077502	0.073954	0.31991	0.095152	-1.5042	-2.1125	-2.3563	-2.3167	-2.2125	-2.1604	-2.1792	-2.5	-2.0667	-2.2188	-2.4417	-2.1167	-2.1333	-2.1583	-2.0417	-2.3708	-22.023	174.619	119.297	174.312	78.980	-86.678	191.827	159.970	-94.032	-141.683	-67.850	-132.913	-150.268	7.785	187.898	164.006	0.00036328	0.00036126	7.2023e-05	1120.1	2.5589e-06	3.2318e-06	1193	234.87	3.3476e-06	2.9394e-06	293.87	83.15	64.776	18.797	1.2227e-06	26.618	0.00029889	0.00027023	7.4162e-05	1106.5	3.2063e-06	3.0161e-06	1180.4	232.11	3.154e-06	3.0008e-06	293.2	83.016	64.791	18.949	2.9135e-06	27.029	159.010	-77.166	-70.132	-156.512	-71.701	-2.053	-156.594	-149.614	-75.101	-1.647	-149.737	-143.591	-143.511	-135.997	-26.753	-136.321	-8191	255	
27095.760	1	1	0	0	0.059342	0.14209	0.15146	0.53387	0.13948	0.17876	0.25672	0.12829	0.1645	0.027632	0.24437	0.1668	0.28282	0.19609	0.030892	0.18308	-1.8021	-2.1333	-2.3042	-1.9438	-2.2125	-2.2854	-2.0396	-2.3854	-2.0146	-2.0042	-2.4458	-2.0125	-2.1479	-2.325	-1.8646	-2.4229	-12.940	-61.738	-118.907	159.862	-68.606	-111.017	150.578	52.717	34.729	40.212	72.086	-135.119	103.054	-157.083	-52.497	55.275	0.00037185	0.00027216	8.1733e-05	1123.1	2.7284e-06	2.6092e-06	1194.1	235.91	4.0644e-06	3.86e-06	294.46	82.814	65.029	18.702	2.8758e-06	26.398	0.00030644	0.00026586	7.269e-05	1109.9	3.305e-06	2.9474e-06	1181.5	232.48	3.1592e-06	2.9266e-06	293.19	82.936	64.848	18.937	2.7694e-06	26.925	156.933	-58.327	-69.606	-156.186	-52.696	-31.732	-156.655	-149.934	-62.191	2.728	-149.959	-143.491	-143.334	-136.147	-39.049	-136.316	-8191	255	
27095.855	1	1	0	0	0.20491	0.47011	0.20983	0.23381	0.1711	0.22242	0.016311	0.3107	0.20644	0.13244	0.42043	0.13658	0.2432	0.082277	0.15531	0.18269	-1.7958	-1.8042	-2.3042	-2.2438	-2.1813	-2.2438	-2.1729	-2.4583	-2.25	-1.9792	-2.3208	-2.1646	-1.9646	-2.4979	-1.8208	-2.2333	111.871	-30.342	-53.584	-162.520	-103.643	180.113	41.183	109.863	-164.080	1.764	145.802	-131.464	165.881	120.233	-129.436	156.309	0.00033398	0.00027655	5.9151e-05	1117	2.1436e-06	2.2386e-06	1183.4	233.06	4.298e-06	3.3484e-06	291.71	82.166	64.266	18.58	1.7068e-06	26.585	0.00028065	0.00025798	6.6069e-05	1099.5	2.9733e-06	2.4572e-06	1171.4	230.45	2.9984e-06	2.6717e-06	290.86	82.413	64.303	18.856	2.6801e-06	26.843	159.756	-86.276	-70.163	-156.351	-53.102	-15.533	-156.625	-149.538	-51.142	-2.387	-149.687	-143.695	-143.670	-135.427	-39.536	-136.111	-8191	255	
27095.926	1	1	0	0	0.029611	0.051291	0.12252	0.32614	0.14023	0.20747	0.099135	0.22517	0.11478	0.028843	0.3556	0.10116	0.39876	0.2663	0.36908	0.3358	-1.7271	-1.9604	-2.2771	-2.2396	-2.2646	-2.4	-2.1542	-2.2729	-2.2875	-1.8312	-2.3208	-2.1104	-1.95	-2.2208	-2.0854	-2.2667	-104.866	-47.538	16.536	159.318	96.933	5.328	122.581	-154.849	119.539	87.900	-145.614	145.498	180.962	-105.820	60.448	-73.751	0.00036262	0.0002885	0.00010341	1109.5	2.1261e-06	2.5437e-06	1175.7	232.32	3.2134e-06	3.1713e-06	293.12	82.214	63.797	18.653	2.9587e-06	26.499	0.00028766	0.00025028	6.2374e-05	1093.2	3.1199e-06	2.5352e-06	1163	230.12	2.9875e-06	2.7459e-06	291.08	82.323	63.879	18.821	2.7844e-06	26.792	160.880	-74.777	-93.910	-156.307	-57.501	-11.458	-156.670	-149.446	-44.672	-9.213	-149.638	-143.696	-143.201	-135.603	-43.626	-136.586	-8191	255	
#DATA ENDS
