BOXY.EXE: ISS Imagent and Oximeter Data Acquisition Program Version 0.80
Ascii Record File

#ACQ INFORMATION
2  Detector Channels 
16  External MUX Channels 
1  Auxiliary Channels 
5000  Waveform (CCF) Frequency (Hz)
1  Waveforms Skipped 
30  Waveforms Averaged 
1  Cycles Averaged 
16  Acquisitions per Waveform 
10.0806  Updata Rate (Hz) 

#FILE INFORMATION
TRUE -- External MUX Channel results are PARSED.
FALSE -- AC DC and Phase are NOT grouped.
TRUE -- Companion Program Settings File CREATED.
FALSE -- AC data not excluded
FALSE -- DC data not excluded
FALSE -- Phase data not excluded
FALSE -- Auxillary Chn. data not excluded
Tab delimiters

#CALIBRATION STATE
TRUE -- Waveform Calibration Values APPLIED.


#AUX CALIBRATION VALUES
Val Type	aux-1	

Term	1.0000e+00	
Factor	0.0000e+00	


#WF CALIBRATION VALUES
A = Detector Channel
Val Type	A-AC1	A-AC2	A-AC3	A-AC4	A-AC5	A-AC6	A-AC7	A-AC8	A-AC9	A-AC10	A-AC11	A-AC12	A-AC13	A-AC14	A-AC15	A-AC16	A-DC1	A-DC2	A-DC3	A-DC4	A-DC5	A-DC6	A-DC7	A-DC8	A-DC9	A-DC10	A-DC11	A-DC12	A-DC13	A-DC14	A-DC15	A-DC16	A-Ph1	A-Ph2	A-Ph3	A-Ph4	A-Ph5	A-Ph6	A-Ph7	A-Ph8	A-Ph9	A-Ph10	A-Ph11	A-Ph12	A-Ph13	A-Ph14	A-Ph15	A-Ph16	

Term	0.00000e+00	0.00000e+00	0.00000e+00	0.00000e+00	0.00000e+00	0.00000e+00	0.00000e+00	0.00000e+00	0.00000e+00	0.00000e+00	0.00000e+00	0.00000e+00	0.00000e+00	0.00000e+00	0.00000e+00	0.00000e+00	0.00000e+00	0.00000e+00	0.00000e+00	0.00000e+00	0.00000e+00	0.00000e+00	0.00000e+00	0.00000e+00	0.00000e+00	0.00000e+00	0.00000e+00	0.00000e+00	0.00000e+00	0.00000e+00	0.00000e+00	0.00000e+00	0.00000e+00	0.00000e+00	0.00000e+00	0.00000e+00	0.00000e+00	0.00000e+00	0.00000e+00	0.00000e+00	0.00000e+00	0.00000e+00	0.00000e+00	0.00000e+00	0.00000e+00	0.00000e+00	0.00000e+00	0.00000e+00	
Factor	1.00000e+00	1.00000e+00	1.00000e+00	1.00000e+00	1.00000e+00	1.00000e+00	1.00000e+00	1.00000e+00	1.00000e+00	1.00000e+00	1.00000e+00	1.00000e+00	1.00000e+00	1.00000e+00	1.00000e+00	1.00000e+00	1.00000e+00	1.00000e+00	1.00000e+00	1.00000e+00	1.00000e+00	1.00000e+00	1.00000e+00	1.00000e+00	1.00000e+00	1.00000e+00	1.00000e+00	1.00000e+00	1.00000e+00	1.00000e+00	1.00000e+00	1.00000e+00	X	X	X	X	X	X	X	X	X	X	X	X	X	X	X	X	

B = Detector Channel
Val Type	B-AC1	B-AC2	B-AC3	B-AC4	B-AC5	B-AC6	B-AC7	B-AC8	B-AC9	B-AC10	B-AC11	B-AC12	B-AC13	B-AC14	B-AC15	B-AC16	B-DC1	B-DC2	B-DC3	B-DC4	B-DC5	B-DC6	B-DC7	B-DC8	B-DC9	B-DC10	B-DC11	B-DC12	B-DC13	B-DC14	B-DC15	B-DC16	B-Ph1	B-Ph2	B-Ph3	B-Ph4	B-Ph5	B-Ph6	B-Ph7	B-Ph8	B-Ph9	B-Ph10	B-Ph11	B-Ph12	B-Ph13	B-Ph14	B-Ph15	B-Ph16	

Term	0.00000e+00	0.00000e+00	0.00000e+00	0.00000e+00	0.00000e+00	0.00000e+00	0.00000e+00	0.00000e+00	0.00000e+00	0.00000e+00	0.00000e+00	0.00000e+00	0.00000e+00	0.00000e+00	0.00000e+00	0.00000e+00	0.00000e+00	0.00000e+00	0.00000e+00	0.00000e+00	0.00000e+00	0.00000e+00	0.00000e+00	0.00000e+00	0.00000e+00	0.00000e+00	0.00000e+00	0.00000e+00	0.00000e+00	0.00000e+00	0.00000e+00	0.00000e+00	-1.10335e+02	-1.62587e+02	-1.90705e+02	-1.85735e+02	-7.95890e+01	-9.80034e+01	-1.58876e+02	-1.62015e+02	-9.35963e+01	-1.16549e+02	-1.73504e+02	-1.69991e+02	-1.80150e+02	-1.77034e+02	-1.13923e+02	-1.49910e+02	
Factor	1.77319e-05	8.39323e-05	2.32807e-05	6.63806e-01	6.50858e-07	8.58057e-07	1.78611e-01	5.53004e-02	7.65979e-07	9.03384e-07	9.65138e-02	3.13854e-02	2.64622e-02	1.04344e-02	8.22500e-07	1.50170e-02	3.36373e-07	3.38385e-07	9.36488e-08	2.35456e-01	3.72523e-09	3.70374e-09	7.59690e-02	2.46404e-02	3.72491e-09	3.70198e-09	3.96877e-02	1.30564e-02	1.13969e-02	4.37442e-03	3.68760e-09	5.98844e-03	X	X	X	X	X	X	X	X	X	X	X	X	X	X	X	X	



#DISTANCE SETTINGS
A = Detector Channel
A-1	A-2	A-3	A-4	A-5	A-6	A-7	A-8	A-9	A-10	A-11	A-12	A-13	A-14	A-15	A-16	

2.5000e+00	3.0000e+00	2.5000e+00	3.0000e+00	2.0000e+00	3.0000e+00	1.5000e+00	3.0000e+00	3.0000e+00	3.0000e+00	3.0000e+00	3.0000e+00	3.0000e+00	3.0000e+00	1.5000e+00	3.0000e+00	

B = Detector Channel
B-1	B-2	B-3	B-4	B-5	B-6	B-7	B-8	B-9	B-10	B-11	B-12	B-13	B-14	B-15	B-16	

1.0000e+01	1.0000e+01	1.0000e+01	1.4400e+00	1.0000e+01	1.0000e+01	1.5100e+00	1.9400e+00	1.0000e+01	1.0000e+01	1.9900e+00	2.4900e+00	2.4100e+00	2.9000e+00	1.0000e+01	2.9800e+00	




#DATA BEGINS
time	group	step	mark	flag	A-AC1	A-AC2	A-AC3	A-AC4	A-AC5	A-AC6	A-AC7	A-AC8	A-AC9	A-AC10	A-AC11	A-AC12	A-AC13	A-AC14	A-AC15	A-AC16	A-DC1	A-DC2	A-DC3	A-DC4	A-DC5	A-DC6	A-DC7	A-DC8	A-DC9	A-DC10	A-DC11	A-DC12	A-DC13	A-DC14	A-DC15	A-DC16	A-Ph1	A-Ph2	A-Ph3	A-Ph4	A-Ph5	A-Ph6	A-Ph7	A-Ph8	A-Ph9	A-Ph10	A-Ph11	A-Ph12	A-Ph13	A-Ph14	A-Ph15	A-Ph16	B-AC1	B-AC2	B-AC3	B-AC4	B-AC5	B-AC6	B-AC7	B-AC8	B-AC9	B-AC10	B-AC11	B-AC12	B-AC13	B-AC14	B-AC15	B-AC16	B-DC1	B-DC2	B-DC3	B-DC4	B-DC5	B-DC6	B-DC7	B-DC8	B-DC9	B-DC10	B-DC11	B-DC12	B-DC13	B-DC14	B-DC15	B-DC16	B-Ph1	B-Ph2	B-Ph3	B-Ph4	B-Ph5	B-Ph6	B-Ph7	B-Ph8	B-Ph9	B-Ph10	B-Ph11	B-Ph12	B-Ph13	B-Ph14	B-Ph15	B-Ph16	aux-1	digaux	

6748.040	1	1	0	256	0.12957	0.19827	0.17333	0.12628	0.12149	0.08563	0.13451	0.13149	0.10643	0.14772	0.25926	0.11147	0.20524	0.18421	0.048485	0.35695	-2.3187	-2.4688	-2.7771	-2.6937	-2.5042	-2.9062	-2.75	-2.6854	-2.8	-2.5104	-2.7938	-2.6292	-2.5375	-2.7104	-2.6229	-2.5271	-74.372	182.474	-13.437	134.015	113.816	85.648	182.914	-43.120	-45.687	102.049	235.132	207.087	-2.264	235.815	-29.625	222.592	7.7961e-05	0.00019825	8.5889e-05	1258.5	1.7527e-06	2.0107e-06	1317.8	254.9	1.5674e-06	2.3899e-06	323.75	89.928	70.791	20.889	2.1597e-06	29.295	6.0775e-05	6.3721e-05	1.9545e-05	925.35	6.7698e-07	6.9255e-07	1186.2	228.9	6.7021e-07	7.578e-07	277.56	78.986	62.13	18.287	8.2856e-07	25.214	215.504	68.765	23.881	-82.955	14.288	80.472	-82.460	-75.601	6.607	31.290	-75.734	-69.505	-69.215	-62.373	-75.726	-62.575	-8191	255	
6748.136	1	1	0	0	0.073358	0.10665	0.44642	0.19538	0.19219	0.091843	0.18148	0.33584	0.20356	0.057954	0.15584	0.13898	0.10586	0.15669	0.1546	0.077936	-2.3312	-2.5396	-2.7979	-2.5292	-2.5312	-2.7812	-2.7271	-2.5375	-2.8937	-2.4396	-2.8042	-2.975	-2.4979	-2.7104	-2.625	-2.6354	111.525	5.228	247.089	154.998	132.003	206.791	165.209	-83.428	57.174	237.402	-49.632	-61.838	236.642	143.076	238.448	-48.810	0.00012253	7.23e-05	6.2429e-05	1273.9	2.3214e-06	1.5029e-06	1328.3	256.42	1.3634e-06	3.7353e-06	324.44	90.009	70.841	20.965	4.0772e-06	29.616	6.6721e-05	7.4056e-05	2.0763e-05	934.14	7.2516e-07	7.9338e-07	1194.5	230.2	6.6809e-07	7.7599e-07	278.14	78.958	62.003	18.277	6.8654e-07	25.088	205.818	21.883	257.885	-82.814	-6.088	141.468	-82.367	-75.748	-8.660	-5.788	-75.783	-69.311	-69.149	-62.364	-5.969	-62.350	-8191	255	
6748.233	1	1	0	0	0.19649	0.25267	0.1818	0.040512	0.13373	0.11992	0.27742	0.22339	0.14867	0.24726	0.15754	0.082233	0.094046	0.22812	0.21034	0.16765	-2.3438	-2.3063	-2.825	-2.7729	-2.35	-2.7542	-2.725	-2.575	-2.9646	-2.5729	-2.6562	-2.8167	-2.5062	-2.8729	-2.4854	-2.6271	134.945	17.825	150.897	129.659	0.761	33.953	192.365	221.674	125.156	-83.348	252.446	15.121	216.420	-69.656	59.526	58.606	3.5873e-05	0.00024881	2.7967e-05	1282.1	1.1594e-06	2.2265e-07	1332.6	257.07	3.4511e-06	8.0648e-07	326.18	90.63	70.562	20.875	3.5052e-06	29.544	5.7959e-05	6.537e-05	1.7353e-05	929.71	6.5015e-07	7.2887e-07	1193.7	230.02	6.5533e-07	7.5457e-07	278.06	79.058	62.239	18.3	7.0664e-07	25.148	231.593	54.596	-81.041	-83.019	6.918	170.610	-82.525	-75.667	237.263	134.278	-76.085	-69.413	-69.092	-62.303	-34.574	-62.720	-8191	255	
6748.329	1	1	0	0	0.24303	0.047896	0.19907	0.14652	0.052245	0.25469	0.45307	0.34286	0.19758	0.054749	0.10424	0.15931	0.14127	0.16357	0.14747	0.036405	-2.35	-2.4417	-2.6	-2.7417	-2.5687	-2.6937	-2.7604	-2.5583	-2.8771	-2.4188	-2.8458	-2.8667	-2.4771	-2.8896	-2.6708	-2.4396	32.474	0.691	61.520	8.265	222.519	254.833	199.165	235.184	103.895	-90.772	202.505	99.501	188.860	-44.208	102.337	244.141	0.00011611	0.00035591	4.9144e-05	1273.9	4.3489e-07	3.6447e-06	1336.1	258.05	1.6424e-06	4.2275e-06	326.8	90.517	71.657	21.24	1.6084e-06	29.9	6.6532e-05	7.3393e-05	1.9098e-05	934.24	8.1261e-07	8.7033e-07	1202.1	232.45	8.7454e-07	9.2362e-07	281.6	80.104	63.673	18.775	8.9388e-07	25.763	211.413	-66.644	-38.649	-82.695	28.785	36.893	-82.591	-75.818	-71.290	30.098	-75.692	-69.507	-69.201	-62.494	-74.106	-62.840	-8191	255	
6748.449	1	1	0	0	0.2514	0.24141	0.28221	0.09317	0.17944	0.15557	0.14393	0.13229	0.044432	0.16652	0.29236	0.16693	0.089555	0.0022464	0.040028	0.19113	-2.4437	-2.6604	-2.3458	-2.8375	-2.7104	-2.8	-2.9437	-2.4083	-2.9125	-2.5396	-2.575	-3.0979	-2.45	-2.7354	-2.5812	-2.5563	96.941	-59.292	40.113	259.056	228.224	107.008	-37.047	178.486	28.906	155.203	176.656	-83.284	85.139	251.090	57.027	237.635	0.00015495	0.000375	2.0825e-05	1278.9	2.0542e-06	1.5969e-06	1346.4	259.86	2.5347e-06	4.0196e-06	329.78	91.398	71.754	21.222	2.2787e-06	29.809	9.096e-05	8.9539e-05	2.3075e-05	951.53	9.8405e-07	9.4999e-07	1210	234.15	9.9572e-07	9.7414e-07	283.26	80.84	63.983	18.761	8.9742e-07	25.798	207.420	-70.886	48.896	-82.460	173.334	-25.035	-82.472	-75.561	-73.143	35.019	-75.678	-69.333	-69.254	-62.429	-67.570	-62.794	-8191	255	
6748.521	1	1	0	0	0.078146	0.21325	0.12235	0.26259	0.15701	0.089715	0.11204	0.11942	0.077921	0.084345	0.038946	0.19004	0.15979	0.33554	0.047524	0.14305	-2.45	-2.5604	-2.5687	-2.7458	-2.4792	-2.6771	-2.8312	-2.3937	-2.6646	-2.6208	-2.6542	-2.8521	-2.4813	-2.7646	-2.9938	-2.6583	51.462	207.207	239.041	-90.106	-33.948	-42.094	244.896	195.850	246.374	135.069	262.564	221.218	253.010	109.363	86.330	173.406	0.00013236	0.00019786	7.7906e-05	1281.5	1.2101e-06	2.1798e-06	1343	260.36	6.9488e-07	2.8404e-06	328.75	90.796	71.445	20.862	2.9014e-06	29.571	9.6995e-05	8.6868e-05	2.2862e-05	952.18	1.0262e-06	9.2965e-07	1207.4	233.83	9.7187e-07	8.5379e-07	281	80.112	63.223	18.337	7.2108e-07	25.344	174.847	61.085	-52.501	-82.727	95.103	-34.474	-82.499	-75.606	17.790	63.449	-75.787	-69.805	-69.257	-62.131	6.865	-62.496	-8191	255	
6748.640	1	1	0	0	0.072908	0.19994	0.21212	0.21573	0.17889	0.055743	0.32019	0.30322	0.16811	0.25755	0.075631	0.16929	0.34081	0.24395	0.25939	0.27555	-2.175	-2.6646	-2.3479	-2.6792	-2.5958	-2.3854	-2.9354	-2.1854	-2.8667	-2.6	-2.6458	-2.8208	-2.7271	-2.5375	-2.7687	-2.5417	240.538	27.435	-82.030	45.462	145.184	94.674	156.469	228.654	-14.159	89.048	111.998	-81.805	-78.288	-90.465	4.620	217.001	4.3812e-05	0.00035808	7.1402e-05	1271	5.1202e-07	1.4988e-06	1324.2	255.8	2.3633e-06	3.2702e-06	322.58	89.831	70.921	20.787	2.9875e-06	29.308	7.7655e-05	6.6895e-05	1.7771e-05	933.47	7.9251e-07	7.2968e-07	1190.6	229.84	8.1426e-07	7.2597e-07	277.08	79.292	62.455	18.162	7.2663e-07	25.289	227.882	-45.390	-44.249	-82.904	-42.691	169.019	-82.403	-75.931	6.351	-60.040	-75.473	-69.046	-69.292	-62.728	239.522	-62.531	-8191	255	
6748.736	1	1	0	0	0.070419	0.095739	0.15751	0.15222	0.16814	0.12728	0.30316	0.14178	0.076865	0.15319	0.079001	0.11692	0.30208	0.35306	0.096346	0.14688	-2.1833	-2.8167	-2.35	-2.9333	-2.5771	-2.5312	-3.2542	-2.525	-2.6937	-2.6271	-2.5625	-2.8854	-2.7062	-2.6688	-2.8063	-2.5396	81.688	130.168	-0.525	46.376	1.796	7.421	227.405	-24.926	254.737	150.505	199.168	38.169	-24.628	241.202	262.259	-86.045	6.6038e-05	0.00025761	8.0738e-05	1269.9	1.7703e-06	1.2941e-06	1329.3	256.47	1.8622e-06	3.4427e-06	324.9	89.599	71.262	20.799	9.9258e-07	29.327	8.0154e-05	7.1158e-05	1.9628e-05	941.86	8.7341e-07	8.2097e-07	1194.3	231.07	9.1637e-07	8.235e-07	279.02	79.894	62.843	18.272	8.5414e-07	25.561	200.544	-90.488	259.050	-82.814	67.901	-3.167	-82.498	-75.675	-86.127	27.737	-75.805	-69.429	-69.205	-62.510	-80.720	-62.211	-8191	255	
6748.832	1	1	0	0	0.20653	0.19027	0.088677	0.19235	0.17826	0.18884	0.1936	0.1766	0.15122	0.11545	0.1878	0.14876	0.16022	0.13385	0.1584	0.13746	-2.2562	-2.7771	-2.5521	-2.9125	-2.6729	-2.4417	-3.1396	-2.6104	-2.6229	-2.7646	-2.5417	-2.6354	-2.6583	-2.4167	-2.9271	-2.4667	-28.046	-17.748	4.703	-74.538	19.892	145.271	131.748	228.426	159.607	-36.969	-36.098	-27.226	210.111	41.840	152.011	-31.225	5.758e-05	0.00031174	4.4373e-05	1264.3	2.6129e-06	1.1706e-06	1331.6	255.33	2.3859e-06	1.794e-06	324.4	90.095	71.197	20.931	2.2113e-06	29.563	8.7809e-05	7.8427e-05	2.2624e-05	951.54	9.064e-07	8.6514e-07	1199.3	231.39	9.1576e-07	8.0905e-07	279.82	80.213	62.913	18.293	8.7146e-07	25.534	236.997	-28.399	90.217	-82.408	18.474	-23.233	-82.293	-75.750	-8.994	-9.406	-75.888	-69.518	-69.438	-62.593	27.865	-62.446	-8191	255	
6748.928	1	1	0	0	0.21519	0.040294	0.28511	0.12735	0.23161	0.039187	0.30869	0.14485	0.061298	0.14549	0.18183	0.11224	0.12554	0.20762	0.098142	0.24509	-2.3167	-2.6896	-2.3917	-2.8125	-2.6104	-2.3729	-2.925	-2.5729	-2.6167	-2.9167	-2.3292	-2.7958	-2.8958	-2.4188	-2.6792	-2.6667	46.396	-27.074	10.275	197.661	18.372	-77.733	188.027	96.582	-19.569	208.024	261.017	100.116	81.546	-91.917	32.043	132.932	5.7277e-05	0.000265	3.5188e-05	1276.8	1.2948e-06	9.0936e-07	1341.4	257.84	3.7641e-06	2.6047e-06	326.18	90.692	71.421	20.8	2.6503e-06	29.392	8.0208e-05	7.2129e-05	2.3115e-05	954.06	8.3673e-07	8.1634e-07	1206.3	232.37	8.2862e-07	7.353e-07	280.42	80.046	62.501	18.185	7.4964e-07	25.129	163.690	-28.460	225.930	-83.243	54.458	-7.765	-82.352	-75.798	57.107	17.736	-75.807	-69.584	-69.181	-62.575	120.296	-62.108	-8191	255	
6749.049	1	1	0	0	0.12709	0.050274	0.18076	0.32369	0.32529	0.35632	0.17219	0.13297	0.29256	0.14607	0.19799	0.046061	0.1248	0.065819	0.11665	0.058568	-1.9771	-2.9667	-2.4875	-2.6542	-2.775	-2.5896	-3.0417	-2.4521	-2.425	-2.7979	-2.5938	-2.6688	-2.6604	-2.4708	-2.8833	-2.6167	174.552	241.903	18.771	-73.019	-25.662	200.071	235.292	148.824	32.143	111.268	260.006	-47.862	-87.258	136.346	152.192	-51.695	7.7725e-05	0.00038062	1.1391e-05	1273.1	2.1758e-06	1.8461e-06	1331.5	256.1	4.4449e-07	1.652e-06	326.34	89.656	70.674	20.866	1.9545e-06	29.238	6.3218e-05	5.6474e-05	1.8187e-05	936.38	6.186e-07	6.0689e-07	1198.9	229.89	6.2425e-07	5.9233e-07	277.52	78.778	61.698	18.003	6.488e-07	24.824	204.557	-1.646	-84.973	-82.877	21.452	98.528	-82.781	-75.767	-13.236	89.980	-75.633	-69.660	-69.008	-62.122	-66.791	-62.429	-8191	255	
6749.121	1	1	0	0	0.17203	0.074306	0.076714	0.1194	0.06087	0.18616	0.14147	0.036078	0.1238	0.11331	0.19143	0.22435	0.26995	0.3202	0.08014	0.10477	-2.1229	-2.7771	-2.3979	-2.5917	-2.7229	-2.5104	-2.9562	-2.6937	-2.5271	-2.8063	-2.9062	-2.6312	-2.7792	-2.6063	-2.6	-2.7083	-11.168	68.293	-47.385	139.866	215.850	93.165	181.867	58.519	227.484	207.580	187.816	72.222	184.052	217.064	258.713	20.484	7.43e-05	0.00018447	2.2781e-05	1267.3	2.1767e-06	1.4672e-06	1317.6	254.98	1.2962e-06	1.3747e-06	319.67	89.677	70.384	20.764	4.4941e-07	29.147	5.2854e-05	5.0794e-05	1.5993e-05	920.36	5.26e-07	5.6336e-07	1185.2	227.07	5.3022e-07	5.6039e-07	273.86	78.174	60.923	17.851	6.0254e-07	24.577	172.095	-36.959	265.038	-82.829	5.237	60.412	-82.347	-75.819	103.456	214.252	-75.973	-69.386	-68.928	-62.296	56.367	-62.529	-8191	255	
6749.217	1	1	0	0	0.2205	0.41954	0.21728	0.47309	0.10738	0.1704	0.40351	0.25677	0.16571	0.22928	0.057929	0.17307	0.30093	0.24586	0.13765	0.023998	-2.0396	-2.8125	-2.3625	-2.5042	-2.7208	-2.5583	-3.0146	-2.7792	-2.4646	-2.7125	-2.5646	-2.5208	-2.8187	-2.6417	-2.6042	-2.65	-56.950	98.580	92.191	200.238	-47.751	92.601	217.072	227.968	30.817	163.573	196.011	185.441	195.615	-46.335	146.884	31.125	0.00010257	0.00011899	4.4043e-05	1253.6	6.5586e-07	4.6297e-07	1311.5	254.12	7.5311e-07	1.4351e-06	319.01	89.442	69.775	20.553	3.4809e-06	28.959	5.0527e-05	5.2561e-05	1.5139e-05	912.53	5.1502e-07	5.9467e-07	1177.6	225.82	5.3612e-07	5.8614e-07	272.69	77.748	60.688	17.786	5.8456e-07	24.489	181.519	-11.446	-74.406	-82.215	7.383	2.639	-82.426	-75.588	228.681	123.352	-75.811	-69.188	-69.163	-62.094	-14.168	-62.287	-8191	255	
6749.337	1	1	0	0	0.13625	0.17577	0.083045	0.14659	0.17313	0.15288	0.056965	0.3151	0.22203	0.056384	0.29773	0.088825	0.016454	0.11441	0.10464	0.22013	-1.9292	-2.675	-2.5729	-2.3833	-2.8875	-2.5438	-3.0479	-2.7687	-2.3688	-2.9042	-2.65	-2.4917	-2.8958	-2.3937	-2.6729	-2.6917	121.001	248.762	-53.004	-41.528	20.038	-50.089	79.498	232.167	258.353	-68.132	252.408	-24.571	100.546	-74.383	-0.276	244.038	0.00011445	5.2808e-05	7.8085e-05	1242.7	1.4522e-06	1.0632e-06	1301.3	250.22	1.9611e-06	2.3636e-06	318.87	88.034	69.005	20.446	3.6848e-07	28.927	5.0019e-05	5.4737e-05	1.4313e-05	903.38	5.147e-07	6.0061e-07	1167.3	223.31	5.4129e-07	5.8942e-07	270.65	76.896	60.311	17.655	5.186e-07	24.335	188.136	229.159	-56.579	-82.356	113.844	-53.921	-82.284	-75.509	28.546	44.014	-75.991	-69.325	-69.101	-62.064	-27.218	-62.314	-8191	255	
6749.432	1	1	0	0	0.071045	0.064603	0.14796	0.11087	0.15674	0.12114	0.19222	0.19778	0.083854	0.013725	0.048557	0.29986	0.16489	0.46015	0.14752	0.074055	-2.0792	-2.6354	-2.625	-2.55	-2.7687	-2.4688	-2.8125	-2.8063	-2.5438	-2.6521	-2.7667	-2.3208	-2.8167	-2.7167	-2.6104	-2.8312	-46.597	187.273	-57.205	-20.922	18.688	45.545	226.825	218.448	173.932	-89.673	-14.257	233.346	-40.513	-40.626	19.976	76.337	9.3003e-05	9.1984e-05	6.088e-05	1234.2	6.455e-07	2.8653e-06	1291.5	249.15	6.6152e-07	2.1128e-06	316.25	88.569	69.875	20.435	4.6378e-06	28.837	4.7919e-05	4.9817e-05	1.2041e-05	892.36	4.8429e-07	5.1568e-07	1157.7	221.68	4.9118e-07	5.0393e-07	267.98	76.774	60.281	17.612	4.9057e-07	24.282	197.911	221.587	227.327	-82.724	18.604	64.634	-82.253	-75.737	21.692	-11.242	-75.766	-69.315	-69.076	-62.115	-10.822	-62.362	-8191	255	
6749.528	1	1	0	0	0.072002	0.069461	0.17218	0.23202	0.26644	0.049841	0.18046	0.34465	0.095867	0.071269	0.29312	0.17127	0.19005	0.23575	0.23313	0.29115	-1.8438	-2.7313	-2.4854	-2.4375	-2.8417	-2.5292	-2.6979	-2.9688	-2.5625	-2.8063	-2.7021	-2.4313	-3.0083	-2.6271	-2.5896	-2.8688	114.715	40.610	-71.777	-71.715	-24.771	-33.124	212.838	216.023	47.041	-23.434	261.040	63.178	-76.926	231.822	26.705	258.504	6.0652e-05	0.00023343	6.9863e-05	1234.8	7.0824e-07	3.9562e-06	1315.2	251.38	1.624e-06	5.6221e-07	320.52	89.852	70.367	20.699	3.6343e-06	29.487	5.0202e-05	5.008e-05	1.2753e-05	902.45	5.6509e-07	5.6656e-07	1174.1	224.62	6.0599e-07	5.8649e-07	271.98	77.933	61.308	17.892	5.4069e-07	24.652	202.195	-35.486	-52.273	-82.957	7.209	-12.555	-82.264	-75.815	-83.199	231.655	-75.728	-68.940	-69.198	-62.461	9.489	-62.776	-8191	255	
6749.624	1	1	0	0	0.23128	0.041463	0.10883	0.12701	0.2622	0.28284	0.36532	0.10969	0.19354	0.11588	0.23458	0.1364	0.16164	0.40981	0.085132	0.11092	-2.0583	-2.5208	-2.6542	-2.4021	-2.9292	-2.4938	-2.7521	-2.9938	-2.4542	-2.7646	-2.9625	-2.5542	-2.8563	-2.6104	-2.3417	-2.8771	11.650	38.549	156.026	-74.300	-13.846	-33.227	183.071	-4.928	-9.459	-43.406	213.856	-30.849	-50.155	143.212	-82.339	-79.263	6.9965e-05	0.00020044	4.9291e-05	1247.9	1.5572e-06	2.0667e-06	1311.2	253.24	1.3646e-06	2.5265e-06	321.39	89.311	70.01	20.632	8.7258e-07	28.877	5.5364e-05	4.9023e-05	1.1851e-05	906.05	5.3607e-07	4.6899e-07	1173.6	225.02	4.7767e-07	4.2082e-07	270.58	77.346	60.538	17.54	3.482e-07	24.281	203.464	-40.412	-65.873	-83.147	66.143	37.961	-82.565	-75.406	20.856	-21.854	-75.854	-69.166	-69.221	-62.306	219.723	-62.538	-8191	255	
6749.720	1	1	0	0	0.15834	0.35207	0.22981	0.13769	0.022824	0.13896	0.14118	0.38705	0.24436	0.12244	0.16023	0.11245	0.092708	0.10662	0.089385	0.075627	-2.075	-2.6146	-2.8042	-2.35	-2.8875	-2.3875	-2.7188	-3.0354	-2.5354	-2.6375	-2.8708	-2.6979	-2.7708	-2.7958	-2.3583	-2.9604	260.626	244.792	79.121	-63.861	150.842	83.577	186.468	238.144	112.331	138.597	161.031	53.590	218.486	-20.509	40.041	-58.793	0.00010054	0.00017608	5.4958e-05	1245.4	2.6203e-06	2.6412e-06	1312.4	251.19	6.0949e-07	3.0535e-06	320.76	88.699	70.131	20.659	1.9233e-06	29.24	3.7009e-05	3.0907e-05	8.0811e-06	895.14	3.7591e-07	3.3841e-07	1170.3	223.52	3.8353e-07	3.5446e-07	269.61	77.104	60.537	17.586	3.4504e-07	24.406	212.788	1.961	-49.326	-82.801	78.228	78.888	-82.381	-75.581	65.001	-18.547	-75.829	-69.437	-69.008	-61.991	-28.012	-62.522	-8191	255	
6749.816	1	1	0	0	0.079149	0.090018	0.10824	0.35832	0.094028	0.17224	0.12982	0.19401	0.12869	0.093288	0.074542	0.2484	0.019683	0.27198	0.12989	0.13743	-2.0104	-2.5354	-2.8104	-2.6375	-2.9146	-2.7208	-2.6333	-2.9292	-2.4729	-2.5687	-2.8438	-2.4146	-2.7042	-2.8208	-2.4479	-2.9396	193.253	210.653	140.408	62.639	55.721	17.628	209.462	-82.897	171.246	197.388	57.572	261.990	95.363	194.597	90.961	102.225	9.7644e-05	0.00018594	0.00010293	1256.8	5.5835e-07	1.0728e-06	1312.3	252.53	1.5913e-06	2.8407e-06	320.98	89.197	69.941	20.862	3.0065e-06	29.144	3.818e-05	3.4194e-05	8.6223e-06	899.65	3.9967e-07	3.6204e-07	1171.2	224.54	3.9159e-07	3.5855e-07	270.07	77.161	60.503	17.671	3.5123e-07	24.439	182.239	-50.415	-72.461	-82.718	97.111	1.929	-82.368	-75.657	3.045	14.808	-75.773	-69.229	-68.918	-62.147	30.937	-62.222	-8191	255	
6749.913	1	1	0	0	0.15383	0.089044	0.17509	0.048367	0.14092	0.077197	0.11275	0.10206	0.12806	0.14999	0.1003	0.42595	0.20111	0.092289	0.084876	0.27408	-2.0792	-2.55	-2.7396	-2.6625	-2.6542	-2.7083	-2.5396	-2.9625	-2.5292	-2.5646	-2.7792	-2.4896	-2.7667	-2.7771	-2.3458	-2.7604	-74.038	202.213	-52.173	47.200	166.500	191.694	179.849	182.224	-59.168	10.275	145.597	174.330	19.421	236.101	204.317	-42.396	6.9522e-05	0.00019172	2.1943e-05	1254.4	1.4595e-06	2.964e-06	1314.6	253.42	1.9477e-07	3.6788e-06	322.3	89.407	70.422	20.759	1.046e-06	29.36	3.6092e-05	3.2398e-05	8.8461e-06	903.21	3.8238e-07	3.5131e-07	1171.8	224.71	3.9507e-07	3.7241e-07	270.32	77.38	60.578	17.628	3.9901e-07	24.523	223.513	235.573	-41.804	-82.903	-33.932	61.304	-82.455	-75.482	12.661	21.302	-75.902	-69.438	-69.233	-62.263	97.310	-62.238	-8191	255	
6750.009	1	1	0	0	0.12899	0.30663	0.16971	0.20817	0.1226	0.19214	0.14094	0.086054	0.12012	0.074337	0.015772	0.16447	0.26649	0.046327	0.23999	0.16694	-2.225	-2.4375	-2.9813	-2.4292	-2.625	-2.9479	-2.7021	-2.8667	-2.8167	-2.4354	-2.8458	-2.4854	-2.5687	-2.8667	-2.3771	-2.8729	228.146	7.954	-50.892	197.293	109.330	73.913	205.046	96.301	-91.062	-77.993	-44.598	181.457	161.774	3.297	-46.046	188.482	6.5606e-05	0.0002462	4.21e-05	1260.7	8.9414e-07	1.1279e-06	1306.5	253.29	1.4285e-06	9.2065e-07	319.65	89.237	69.971	20.76	1.5225e-06	29.293	3.7255e-05	3.3877e-05	1.025e-05	902.83	3.8554e-07	3.5277e-07	1170.8	224.8	3.8502e-07	3.6307e-07	270.99	77.105	60.418	17.647	4.2104e-07	24.497	208.241	-13.325	258.842	-82.835	78.032	18.855	-82.238	-75.569	-60.801	-32.482	-75.574	-69.193	-68.993	-62.135	38.848	-62.277	-8191	255	
6750.129	1	1	0	0	0.25914	0.13257	0.12946	0.13492	0.25004	0.16879	0.094075	0.26136	0.17466	0.32511	0.15777	0.23727	0.21825	0.17486	0.076584	0.072173	-2.2583	-2.5292	-2.7062	-2.4792	-2.3292	-2.7271	-2.5854	-2.7562	-2.9042	-2.3896	-2.8271	-2.8542	-2.5187	-3.0438	-2.4854	-2.7021	-90.131	233.380	163.338	141.964	85.251	-21.799	41.862	173.173	-0.613	67.582	145.346	147.127	196.131	150.377	188.913	115.318	4.4422e-05	0.0003123	6.4191e-05	1253.1	9.4146e-07	1.3855e-06	1311.8	251.7	5.0597e-07	2.2043e-06	320.01	88.915	69.83	20.629	2.1937e-06	29.009	3.6794e-05	3.5145e-05	1.0707e-05	903.44	3.9842e-07	3.7255e-07	1171.7	224.29	3.864e-07	3.8164e-07	270.3	77.03	60.294	17.649	4.2397e-07	24.381	194.456	-17.620	-18.059	-82.482	15.700	37.831	-82.479	-75.594	253.611	7.747	-75.846	-69.376	-69.054	-62.329	39.368	-62.478	-8191	255	
6750.225	1	1	0	0	0.11677	0.2159	0.2252	0.079565	0.072383	0.13973	0.029572	0.32621	0.19993	0.25306	0.13579	0.060053	0.24946	0.12406	0.13531	0.11932	-2.1813	-2.5604	-2.7458	-2.575	-2.4521	-2.6896	-2.7438	-2.8125	-2.8646	-2.2833	-2.8104	-2.775	-2.3104	-2.9313	-2.5896	-2.4729	-1.787	223.650	-68.687	-39.645	-72.124	-84.125	120.804	182.583	-32.343	74.739	223.602	174.069	171.528	205.055	-70.772	197.402	8.3471e-05	0.00021595	3.6365e-05	1256.1	8.8272e-07	1.4246e-06	1313.8	252.9	1.5361e-06	2.1085e-06	320.12	88.164	69.773	20.878	1.5059e-06	29.159	3.4658e-05	3.5181e-05	1.0579e-05	898.8	3.6676e-07	3.6288e-07	1173.2	224.02	3.4562e-07	3.7692e-07	270.66	76.723	60.225	17.663	4.1367e-07	24.411	208.020	-23.448	235.176	-82.839	35.703	48.004	-82.195	-75.642	24.784	-32.727	-75.640	-69.445	-69.117	-62.154	27.977	-62.411	-8191	255	
6750.322	1	1	0	0	0.2596	0.32112	0.27964	0.072085	0.075345	0.20552	0.17169	0.16466	0.14624	0.24797	0.26676	0.29258	0.25725	0.33931	0.10438	0.29554	-2.4354	-2.4854	-2.6875	-2.9083	-2.4667	-2.7604	-2.8521	-2.4188	-2.6708	-2.4188	-2.7229	-2.6167	-2.5958	-2.7417	-2.5354	-2.6083	-23.707	-62.666	-34.725	260.633	231.645	146.681	205.499	68.780	206.558	72.625	240.463	-11.575	-40.594	248.921	102.967	124.202	8.0599e-05	0.00021862	8.1472e-05	1251	9.9315e-07	7.1574e-07	1315.3	253.16	1.0387e-06	1.5305e-06	319.41	88.684	69.993	20.644	1.1105e-06	29.204	3.4901e-05	3.7198e-05	1.068e-05	899.79	3.814e-07	4.1466e-07	1173.7	224.65	3.8443e-07	4.2995e-07	270.95	76.872	60.402	17.675	4.1678e-07	24.383	204.461	-23.208	249.394	-82.891	64.049	-51.012	-82.428	-75.547	-22.928	-16.441	-75.807	-69.412	-69.052	-61.983	-26.180	-62.505	-8191	255	
6750.418	1	1	0	0	0.15721	0.058493	0.11797	0.060516	0.060807	0.078489	0.18577	0.13759	0.1438	0.20797	0.32771	0.13115	0.12084	0.105	0.15928	0.073447	-2.6167	-2.4313	-2.5896	-2.7375	-2.5438	-2.7625	-2.6625	-2.5896	-2.8021	-2.6188	-2.7562	-2.9458	-2.5604	-2.8667	-2.5771	-2.5563	225.774	184.807	253.740	242.857	55.931	153.699	150.277	253.135	47.296	110.011	201.592	235.174	29.442	-37.395	161.447	166.034	5.0337e-05	8.7143e-05	5.7211e-05	1253.3	1.0985e-06	2.276e-06	1312.7	253.83	2.2454e-06	1.2169e-06	318.75	88.844	69.566	20.779	2.1141e-06	29.114	3.5899e-05	3.974e-05	1.0489e-05	899.64	3.8877e-07	4.401e-07	1171.9	224.31	3.8882e-07	4.3635e-07	270.3	76.998	60.253	17.716	3.9809e-07	24.348	196.845	-21.989	-67.805	-82.636	98.427	3.621	-82.402	-75.684	248.959	-57.938	-75.821	-69.268	-68.898	-62.226	-2.292	-61.904	-8191	255	
6750.512	1	1	0	0	0.42364	0.21996	0.37411	0.033012	0.20033	0.069028	0.16991	0.34343	0.13767	0.15434	0.058977	0.26819	0.26491	0.16817	0.060546	0.2489	-2.25	-2.5208	-2.5271	-2.9646	-2.2521	-2.775	-2.6417	-2.5604	-2.7792	-2.55	-2.6312	-2.7333	-2.4271	-2.7646	-2.6208	-2.4188	21.334	90.451	-56.148	217.339	209.760	-5.171	124.661	194.189	-83.885	-43.728	101.980	217.478	174.896	242.692	171.045	197.086	7.538e-05	0.0001758	8.7614e-05	1248.3	7.4239e-07	1.4526e-06	1313.6	251.48	1.9453e-06	1.781e-06	318.36	88.628	69.818	20.7	2.7134e-06	29.015	3.8029e-05	4.0091e-05	1.0145e-05	897.12	4.0705e-07	4.3326e-07	1172.4	223.67	4.1118e-07	4.3088e-07	270.04	76.854	60.321	17.662	3.8467e-07	24.325	204.742	-11.301	-36.428	-82.571	-10.791	-32.012	-82.577	-75.602	46.052	34.383	-75.779	-69.442	-69.473	-62.098	-17.237	-62.147	-8191	255	
6750.608	1	1	0	0	0.13148	0.095573	0.13015	0.11708	0.065311	0.068083	0.34517	0.16728	0.078559	0.13389	0.38968	0.15986	0.022936	0.054458	0.23653	0.15949	-2.3	-2.4125	-2.3479	-2.8708	-2.5438	-2.7646	-2.8375	-2.6125	-2.7708	-2.4917	-2.7583	-2.8208	-2.5521	-2.5083	-2.7667	-2.3771	98.527	-20.574	120.116	-89.976	171.663	257.404	186.601	224.732	236.062	124.254	259.898	215.320	79.303	76.493	168.239	263.662	5.427e-05	0.00014441	9.0996e-05	1260.9	5.848e-07	3.1885e-06	1314.5	252.58	1.0948e-06	2.704e-06	318.97	88.653	70.045	20.833	8.8547e-07	29.154	3.8938e-05	3.8111e-05	9.9646e-06	899.71	4.2555e-07	4.1805e-07	1174.1	224.21	4.3203e-07	4.0592e-07	269.69	76.807	60.469	17.652	3.7458e-07	24.445	195.116	13.247	-69.058	-82.738	134.679	37.481	-82.378	-75.400	5.687	-15.159	-75.977	-69.192	-69.108	-62.183	65.435	-62.365	-8191	255	
6750.729	1	1	0	0	0.070909	0.17594	0.17275	0.18846	0.083729	0.089113	0.068871	0.33515	0.073386	0.08868	0.14608	0.13682	0.36129	0.031591	0.06556	0.2932	-2.3521	-2.4896	-2.4167	-2.6646	-2.3542	-2.6688	-2.9396	-2.7583	-2.7708	-2.7167	-2.4562	-2.9479	-2.6292	-2.8292	-2.8417	-2.5771	-34.567	172.438	-92.806	-20.997	79.532	-39.002	-88.883	211.339	150.352	232.374	217.081	39.809	198.835	175.108	160.530	122.070	8.0019e-05	9.3627e-05	6.7455e-05	1247.3	1.0628e-06	3.0017e-06	1316.2	252.71	4.3185e-07	1.787e-06	318.82	88.655	69.694	20.681	3.6158e-06	29.179	4.0976e-05	3.6378e-05	9.4669e-06	896.89	4.2978e-07	3.9173e-07	1173	223.74	4.2081e-07	3.7045e-07	269.84	76.578	60.243	17.57	3.4143e-07	24.316	205.562	25.918	-49.584	-82.902	14.719	54.343	-82.353	-75.346	114.233	10.265	-75.650	-69.466	-69.001	-62.340	-11.379	-62.647	-8191	255	
6750.825	1	1	0	0	0.10096	0.025201	0.14264	0.1162	0.14731	0.078301	0.20803	0.06191	0.13947	0.12722	0.27067	0.17376	0.2034	0.045089	0.27044	0.14433	-2.5521	-2.5438	-2.6792	-2.8021	-2.6188	-2.5708	-3.1292	-2.4313	-2.7979	-2.6854	-2.6479	-2.7979	-2.6625	-2.6771	-2.7542	-2.4813	13.070	49.790	252.727	43.854	252.882	167.847	216.699	141.779	-41.220	101.778	96.573	-84.529	264.327	264.947	17.540	-56.032	8.6016e-05	7.4074e-05	6.4083e-05	1240.5	1.324e-06	2.6149e-06	1309	251.6	1.0428e-06	3.5185e-06	320.17	88.764	69.683	20.767	9.1114e-07	29.1	3.8536e-05	3.3131e-05	8.7917e-06	896.46	4.0097e-07	3.6236e-07	1168.3	223.17	4.105e-07	3.6009e-07	269.17	76.876	60.123	17.554	3.3173e-07	24.283	169.368	-76.145	258.217	-82.723	58.364	22.667	-82.392	-75.740	-64.151	-1.391	-75.621	-69.289	-68.820	-62.254	-40.536	-62.427	-8191	255	
6750.921	1	1	0	0	0.083517	0.13992	0.16621	0.18327	0.20849	0.087855	0.395	0.21358	0.079142	0.12157	0.10085	0.22329	0.16491	0.1147	0.19876	0.26709	-2.3187	-2.8542	-2.3917	-2.8458	-2.5875	-2.475	-3.0021	-2.6021	-2.9188	-2.7458	-2.5687	-2.8646	-2.7438	-2.4667	-3.0354	-2.4396	240.875	85.415	116.588	257.022	62.707	43.455	185.794	121.298	50.166	65.800	-69.300	204.017	-42.358	-66.231	91.274	212.898	7.4555e-05	0.00011772	5.1512e-05	1252.7	9.145e-07	2.5217e-06	1303	252.08	1.3501e-06	1.2018e-06	319.81	87.981	69.203	20.684	2.0514e-06	28.992	3.741e-05	3.1423e-05	8.4247e-06	895.87	3.704e-07	3.4001e-07	1162.6	222.91	3.7533e-07	3.2715e-07	268.17	76.383	59.753	17.488	3.1398e-07	24.253	182.795	-65.331	228.216	-82.646	74.540	-21.333	-82.335	-75.454	-39.304	-27.535	-75.813	-69.262	-69.272	-61.894	22.160	-62.371	-8191	255	
6751.017	1	1	0	0	0.027808	0.19033	0.077274	0.25888	0.083833	0.054363	0.17703	0.39058	0.14338	0.13693	0.25927	0.141	0.28845	0.34417	0.24425	0.12455	-2.2313	-2.9542	-2.4417	-2.9125	-2.5375	-2.4708	-3.0792	-2.4479	-2.7542	-2.8146	-2.575	-2.9042	-2.8375	-2.5687	-2.8583	-2.5979	-62.521	175.876	216.451	202.115	252.788	246.310	257.195	-44.484	44.137	249.805	234.188	154.047	184.464	216.054	221.257	-23.713	5.1142e-05	0.00018677	2.6838e-05	1254.7	1.8431e-06	1.0132e-06	1302.6	250.34	4.9643e-07	2.5349e-06	317.69	88.344	68.946	20.62	3.7785e-07	28.785	3.3844e-05	2.8064e-05	7.996e-06	892.88	3.2779e-07	3.0527e-07	1159	221.77	3.283e-07	2.886e-07	267.22	76.348	59.506	17.435	3.0097e-07	24.134	208.319	-8.891	157.935	-82.899	85.241	-78.889	-82.238	-75.647	53.318	6.910	-75.818	-69.250	-68.729	-62.267	103.655	-62.029	-8191	255	
6751.114	1	1	0	0	0.059807	0.16116	0.14985	0.048334	0.21485	0.067067	0.058095	0.13727	0.18621	0.14654	0.18879	0.23587	0.11803	0.17991	0.095702	0.1032	-2.2333	-2.9333	-2.3292	-2.6937	-2.4771	-2.3792	-2.8563	-2.6229	-2.5396	-3.0458	-2.6188	-2.9146	-2.7667	-2.4854	-2.875	-2.6813	-56.017	44.969	4.829	104.816	91.095	240.986	190.331	259.112	63.964	139.165	226.820	224.554	254.074	-7.063	-66.832	257.735	6.9949e-05	0.00026438	7.4287e-05	1235.8	3.5442e-07	3.2558e-06	1291	248.8	1.913e-06	1.293e-06	316.9	87.761	69.133	20.623	8.673e-07	29.23	2.9281e-05	2.483e-05	7.6453e-06	884.37	2.8743e-07	2.7813e-07	1154.1	220.92	2.9045e-07	2.5301e-07	266.46	75.914	59.289	17.41	2.9382e-07	24.21	216.968	-37.455	-37.427	-82.590	48.032	0.337	-82.662	-75.463	24.094	-70.071	-75.899	-69.375	-69.076	-62.041	37.807	-62.456	-8191	255	
6751.210	1	1	0	0	0.096916	0.063952	0.12686	0.06966	0.054799	0.22618	0.15223	0.29695	0.13232	0.28265	0.058851	0.21988	0.097834	0.011802	0.20355	0.2745	-2.1458	-2.9125	-2.3542	-2.8229	-2.5938	-2.5708	-2.9542	-2.6771	-2.6937	-2.7396	-2.5542	-2.6312	-2.8625	-2.7687	-2.8708	-2.7896	263.076	63.913	263.581	178.322	98.333	80.731	148.390	213.535	-33.336	113.471	157.404	266.362	168.897	61.472	4.308	231.247	6.0087e-05	0.00012807	7.2735e-05	1224.5	1.8522e-06	1.5958e-06	1291.9	247.11	9.7803e-07	1.6989e-06	312.65	87.87	68.78	20.557	1.8236e-06	29.019	2.6496e-05	2.2553e-05	7.2919e-06	875.06	2.5175e-07	2.5293e-07	1149.1	218.98	2.6198e-07	2.3973e-07	264.31	75.602	58.902	17.341	2.73e-07	24.138	202.530	13.474	-61.846	-82.826	53.659	12.980	-82.340	-75.533	265.578	22.957	-75.686	-69.332	-68.817	-62.175	18.858	-62.337	-8191	255	
6751.306	1	1	0	0	0.088896	0.034002	0.16856	0.2364	0.26203	0.057268	0.13833	0.28898	0.13386	0.094543	0.29484	0.21005	0.07407	0.012122	0.092778	0.07706	-1.9396	-2.7729	-2.5083	-2.6229	-2.8979	-2.4833	-2.8667	-2.75	-2.3375	-2.9813	-2.5021	-2.8312	-2.7708	-2.4771	-2.775	-2.6667	-42.254	116.163	-11.329	229.013	115.773	102.813	256.275	206.264	-90.530	254.860	224.654	263.361	183.951	51.364	235.974	-82.969	6.8557e-05	0.00018269	5.7115e-05	1214.5	2.4609e-06	2.101e-06	1284.2	246.75	8.4581e-07	3.79e-06	317.5	87.135	68.004	20.537	1.8995e-06	28.993	2.4366e-05	2.1989e-05	6.9027e-06	868.65	2.3289e-07	2.4765e-07	1143.6	218.25	2.3894e-07	2.4357e-07	264.7	75.44	58.708	17.358	2.6645e-07	24.093	203.974	9.570	-82.138	-82.633	13.927	58.704	-82.322	-75.577	102.443	18.349	-75.402	-69.385	-69.255	-61.881	-9.611	-62.187	-8191	255	
6751.402	1	1	0	0	0.046578	0.11443	0.31688	0.26059	0.037226	0.13424	0.28868	0.13138	0.29384	0.12691	0.10492	0.081454	0.20897	0.31186	0.067334	0.19868	-1.9438	-2.8396	-2.3708	-2.5708	-2.7604	-2.475	-2.7354	-2.7604	-2.45	-2.8042	-2.6625	-2.5458	-2.7854	-2.4771	-2.6562	-2.6854	99.218	201.450	229.930	196.995	197.698	160.180	191.305	-29.965	-84.603	147.022	-86.530	202.196	-57.011	229.589	115.429	-47.985	7.8463e-05	0.00028614	7.3809e-05	1222.2	1.0348e-06	3.0638e-06	1285.8	247.01	1.3757e-06	1.6348e-06	312.68	87.06	68.627	20.476	1.75e-06	28.923	2.3508e-05	2.2929e-05	6.5224e-06	869.01	2.2354e-07	2.5052e-07	1142.3	218.43	2.3708e-07	2.5223e-07	263.52	75.239	58.658	17.309	2.4906e-07	24.015	202.598	-75.251	-42.160	-83.014	55.070	28.789	-82.377	-75.443	151.964	44.369	-75.560	-69.278	-68.873	-61.855	15.454	-62.606	-8191	255	
6751.521	1	1	0	0	0.20973	0.13693	0.077686	0.030696	0.3485	0.24197	0.32093	0.083815	0.12712	0.080392	0.090947	0.29306	0.13641	0.22166	0.21961	0.11564	-1.9813	-2.675	-2.5875	-2.3833	-2.9083	-2.5542	-2.7333	-2.7792	-2.3542	-2.8688	-2.5729	-2.4875	-3.1	-2.5729	-2.6646	-2.9042	88.616	112.500	28.892	262.672	-68.000	248.932	150.617	126.957	50.935	92.330	96.382	241.810	170.801	50.766	-47.732	-78.369	9.6258e-05	0.00020357	5.2349e-05	1219.1	8.8974e-07	2.2185e-06	1281.9	245.99	6.6627e-07	1.9104e-06	313.94	87.284	68.605	20.526	2.1298e-06	28.842	2.3026e-05	2.3033e-05	6.1986e-06	865.93	2.2181e-07	2.6141e-07	1140.4	217.77	2.4043e-07	2.6144e-07	263.53	75.247	58.827	17.32	2.4543e-07	24.037	207.111	-6.003	-47.150	-82.924	80.101	33.798	-82.292	-75.548	-92.591	28.466	-75.765	-69.029	-68.930	-61.799	17.141	-62.647	-8191	255	
6751.617	1	1	0	0	0.10765	0.16489	0.056266	0.076309	0.22727	0.21091	0.32438	0.10509	0.082837	0.16451	0.16282	0.20465	0.35851	0.13222	0.079829	0.094277	-1.9438	-2.7125	-2.5938	-2.4875	-2.75	-2.4542	-2.6667	-2.8917	-2.4938	-2.7979	-2.7771	-2.5333	-2.9125	-2.5208	-2.7146	-2.6667	153.464	-84.381	53.036	-11.236	150.403	-54.468	227.881	234.769	263.995	23.527	-9.622	-53.267	20.066	169.957	218.054	-90.321	0.00010543	0.00014617	7.9439e-05	1215.9	3.3974e-07	1.817e-06	1283.8	246.27	4.4025e-07	2.3779e-06	314.85	87.651	67.956	20.486	1.5852e-06	28.844	2.4028e-05	2.3717e-05	5.9643e-06	868.15	2.3876e-07	2.5887e-07	1141.3	217.86	2.5256e-07	2.5506e-07	263.37	75.329	58.469	17.313	2.3822e-07	23.971	196.346	-73.041	-66.211	-82.600	59.555	61.127	-82.202	-75.603	201.020	-3.764	-75.905	-69.335	-69.138	-61.973	41.066	-62.683	-8191	255	
6751.690	1	1	0	0	0.33967	0.1279	0.13303	0.21021	0.27473	0.082606	0.15733	0.31254	0.16692	0.10245	0.33676	0.1208	0.2138	0.045622	0.13264	0.082422	-1.9417	-2.6688	-2.6042	-2.5583	-2.5979	-2.5646	-2.6146	-3.0187	-2.5083	-2.7167	-2.8104	-2.375	-2.9083	-2.4583	-2.8146	-2.8896	193.081	-34.940	48.641	137.429	129.063	223.002	166.725	214.703	97.168	188.845	234.202	206.032	248.003	197.042	41.472	129.742	5.3445e-05	0.00022453	6.1768e-05	1217.4	1.5968e-06	2.49e-06	1278.3	246.34	1.3429e-06	2.6656e-06	314.57	87.196	68.291	20.577	2.5157e-06	28.857	2.4982e-05	2.3053e-05	5.7879e-06	867.86	2.5214e-07	2.4836e-07	1140.1	217.83	2.6336e-07	2.491e-07	263.45	75.099	58.691	17.298	2.3577e-07	24.012	210.800	-12.850	-92.978	-82.725	41.423	-1.873	-82.197	-75.521	-55.900	10.155	-75.503	-69.085	-69.015	-61.924	37.027	-62.273	-8191	255	
6751.809	1	1	0	0	0.050077	0.10761	0.28251	0.047169	0.053861	0.12182	0.15105	0.15154	0.14634	0.05162	0.18008	0.27891	0.015271	0.24193	0.15331	0.20216	-2.2458	-2.6688	-2.7938	-2.4104	-2.8458	-2.5042	-2.5438	-2.775	-2.3271	-2.7375	-2.8688	-2.5229	-2.6917	-2.6896	-2.5062	-2.7646	109.695	81.791	104.397	220.759	-42.615	27.859	154.630	-50.684	-85.090	-39.243	168.288	33.080	213.478	159.098	-1.453	263.828	6.7933e-05	0.0001596	4.8075e-05	1221.9	2.8819e-07	2.8054e-06	1279.7	246.49	8.5799e-07	2.2902e-06	314.28	87.513	68.294	20.507	1.0582e-06	28.947	2.5871e-05	2.2315e-05	5.5965e-06	866.58	2.5666e-07	2.3305e-07	1138	217.79	2.6935e-07	2.3511e-07	263.22	75.218	58.684	17.284	2.2339e-07	24.017	199.139	-29.575	261.121	-82.801	-32.653	23.823	-82.407	-75.345	-54.731	10.268	-75.552	-68.949	-68.993	-61.957	63.283	-62.085	-8191	255	
6751.905	1	1	0	0	0.26226	0.14569	0.010649	0.017039	0.12793	0.31946	0.1479	0.12984	0.18317	0.058676	0.10251	0.22867	0.32793	0.04823	0.2125	0.23784	-2.0083	-2.5875	-3.0187	-2.5125	-2.9208	-2.5917	-2.9292	-2.9854	-2.6063	-2.3896	-2.8229	-2.3646	-2.875	-2.7354	-2.3104	-2.8312	31.398	159.902	3.809	145.453	19.762	243.767	244.584	262.013	105.291	-91.522	-0.192	174.274	266.161	-5.030	-86.549	203.922	0.00011258	0.00015552	5.4952e-05	1220.1	8.8324e-07	2.2831e-06	1277	246.2	1.0049e-06	2.026e-06	315.44	87.476	68.666	20.422	1.6396e-06	28.952	2.5513e-05	2.1348e-05	5.4028e-06	867.62	2.5725e-07	2.2691e-07	1136	217.84	2.5539e-07	2.3441e-07	263.68	75.354	58.769	17.258	2.2312e-07	24.05	199.569	-30.630	-71.370	-83.018	78.951	36.088	-82.253	-75.536	36.059	-3.222	-75.529	-69.270	-68.667	-61.898	0.591	-62.258	-8191	255	
6752.002	1	1	0	0	0.28878	0.20686	0.17987	0.064623	0.1629	0.30463	0.29007	0.32964	0.29363	0.034684	0.14665	0.20428	0.1236	0.055642	0.43956	0.30179	-2.0583	-2.5083	-2.8312	-2.5854	-2.5	-2.9167	-2.5062	-2.8375	-2.5438	-2.5458	-2.7667	-2.4104	-2.5417	-2.7812	-2.275	-2.9542	2.374	251.808	261.477	226.602	-54.715	251.986	203.083	217.146	230.355	218.427	76.804	261.094	235.761	124.660	-51.758	214.903	4.9562e-05	6.053e-05	3.8331e-05	1215.9	1.7577e-06	1.5901e-06	1278.1	246.81	1.0557e-06	2.3115e-06	312.89	87.485	68.809	20.414	1.5551e-06	29.152	2.48e-05	2.0916e-05	5.4775e-06	867.57	2.4442e-07	2.2204e-07	1139	218.19	2.4868e-07	2.2618e-07	263.33	75.333	58.918	17.285	2.2494e-07	24.128	189.992	65.930	259.768	-82.146	66.647	-18.594	-82.116	-75.515	31.118	2.375	-75.794	-69.198	-69.220	-61.927	23.983	-62.265	-8191	255	
6752.122	1	1	0	0	0.14812	0.045494	0.25603	0.048607	0.16851	0.1474	0.12327	0.14373	0.11898	0.058392	0.086463	0.28606	0.11725	0.12069	0.13811	0.18533	-2.0604	-2.4083	-2.8771	-2.2083	-2.7271	-2.5625	-2.7042	-3.0271	-2.4979	-2.4604	-3.0229	-2.475	-2.5958	-2.8396	-2.4021	-2.7521	-87.069	68.591	-75.293	265.250	-36.715	-57.447	228.470	222.921	214.607	124.539	91.793	154.958	92.970	129.938	45.154	228.057	6.9143e-05	0.00020595	4.8618e-05	1220.1	1.8081e-06	7.5048e-07	1274	246.67	7.1614e-07	1.0474e-06	315.08	87.365	68.801	20.483	6.0335e-07	29.09	2.3178e-05	2.0404e-05	5.5157e-06	867.06	2.3608e-07	2.1192e-07	1137.5	217.94	2.3526e-07	2.1979e-07	263.7	75.338	58.704	17.257	2.3783e-07	24.108	202.944	-43.032	258.895	-82.538	75.981	17.120	-82.388	-75.465	29.304	35.693	-75.621	-69.441	-68.804	-62.302	-39.761	-61.903	-8191	255	
6752.218	1	1	0	0	0.17385	0.094298	0.050317	0.14807	0.18561	0.24646	0.10534	0.19263	0.040183	0.17079	0.18904	0.31907	0.089755	0.18572	0.15308	0.10285	-2.1646	-2.3667	-2.8729	-2.6208	-2.6354	-2.9396	-2.5167	-2.7021	-2.5167	-2.5646	-2.7104	-2.6021	-2.4771	-2.7792	-2.4333	-2.6896	50.737	-44.474	-30.077	-1.674	223.791	244.014	241.259	138.231	146.461	38.127	-10.902	257.596	181.842	76.369	171.620	3.467	8.5575e-05	7.5482e-05	2.283e-05	1218	1.0969e-06	2.4312e-06	1282.4	246.96	2.1394e-06	2.3011e-06	313.75	87.155	68.492	20.601	1.1121e-06	28.984	2.2208e-05	2.0563e-05	5.8837e-06	866	2.3253e-07	2.1064e-07	1140.9	218.39	2.3451e-07	2.2011e-07	263.7	75.369	58.742	17.298	2.5351e-07	24.057	196.749	-36.160	224.307	-82.824	51.566	37.162	-82.388	-75.452	27.984	21.147	-75.838	-69.336	-68.801	-61.736	-24.139	-62.237	-8191	255	
6752.290	1	1	0	0	0.13255	0.15761	0.21562	0.14598	0.078246	0.2564	0.23266	0.1799	0.16505	0.30019	0.17068	0.25371	0.24602	0.10974	0.22784	0.087013	-2.3438	-2.4333	-2.7938	-2.3229	-2.5583	-2.675	-2.5687	-2.8979	-2.7792	-2.175	-2.7167	-2.6271	-2.5458	-2.8312	-2.4875	-2.7646	40.054	155.133	104.863	-11.417	229.889	240.939	195.950	-82.829	96.811	185.223	-93.090	181.896	232.651	175.924	61.804	36.607	8.482e-05	0.00017619	1.9501e-05	1217.8	8.3317e-07	1.8212e-06	1279.6	246.01	8.2069e-07	1.6402e-06	313.3	87.341	68.321	20.455	9.6817e-07	29.134	2.2751e-05	2.0097e-05	6.2836e-06	866.49	2.3068e-07	2.1599e-07	1139.3	218.33	2.32e-07	2.257e-07	264.15	75.302	58.729	17.249	2.6432e-07	24.073	209.775	-57.819	257.521	-82.637	85.785	-18.201	-82.530	-75.456	79.153	22.951	-75.515	-69.028	-69.359	-61.976	63.557	-62.318	-8191	255	
6752.411	1	1	0	0	0.23588	0.17638	0.084026	0.098652	0.18851	0.062666	0.2187	0.22035	0.10928	0.21959	0.15831	0.19156	0.12719	0.14531	0.23018	0.20098	-2.1708	-2.3354	-2.7458	-2.6125	-2.6021	-2.8583	-2.7062	-2.6896	-2.6896	-2.2188	-2.5479	-2.6417	-2.4792	-2.975	-2.3479	-2.7917	96.096	185.215	157.746	248.462	238.964	-51.075	133.492	172.282	52.983	-20.565	265.706	193.555	108.579	153.204	-55.249	-83.952	5.8454e-05	4.0276e-05	5.2893e-05	1223.4	1.071e-06	1.221e-06	1278.6	247.76	1.7501e-06	3.3267e-06	314.54	87.683	68.493	20.608	5.0779e-07	29.082	2.1871e-05	2.1043e-05	6.419e-06	868.89	2.3055e-07	2.2498e-07	1140.5	218.92	2.229e-07	2.3491e-07	264.59	75.363	58.742	17.319	2.5432e-07	24.136	218.505	-36.068	-75.091	-82.643	29.832	26.384	-82.367	-75.358	21.308	-7.672	-75.730	-69.415	-68.842	-61.983	-20.019	-62.257	-8191	255	
6752.505	1	1	0	0	0.19619	0.13441	0.071681	0.099442	0.12285	0.042615	0.24398	0.28154	0.097891	0.21703	0.3067	0.11112	0.11182	0.18853	0.2544	0.094185	-2.3542	-2.2875	-2.7687	-2.6354	-2.3833	-2.9062	-2.6354	-2.6375	-2.7313	-2.3563	-2.7146	-2.7146	-2.5896	-2.7708	-2.7792	-2.6417	242.193	185.673	168.924	252.983	88.629	47.841	261.787	49.816	156.201	105.726	220.300	33.053	-89.127	49.315	220.318	89.702	3.5725e-05	5.2048e-05	3.7903e-05	1211.7	2.0069e-06	2.4565e-06	1281.8	245.64	7.6502e-07	1.4228e-06	314.05	88.008	68.568	20.42	1.2317e-06	29.26	2.1544e-05	2.2509e-05	6.3947e-06	865.24	2.2666e-07	2.4064e-07	1142.5	218.43	2.2477e-07	2.4519e-07	264.21	75.524	58.727	17.309	2.4551e-07	24.145	232.097	-77.706	-75.073	-82.799	84.513	16.757	-82.284	-75.312	236.803	-10.791	-75.527	-69.317	-68.808	-61.989	-51.183	-62.555	-8191	255	
6752.601	1	1	0	0	0.31952	0.051755	0.19973	0.13852	0.068676	0.073065	0.27365	0.20033	0.056927	0.19281	0.24191	0.25256	0.24378	0.26337	0.22704	0.37074	-2.3021	-2.5062	-2.5083	-2.85	-2.2062	-2.7229	-2.5875	-2.5854	-2.8667	-2.5167	-2.725	-2.8104	-2.4646	-2.725	-2.5271	-2.4604	46.125	23.919	65.180	141.935	63.649	136.896	254.996	183.908	185.607	6.625	258.387	258.849	144.369	72.610	58.775	227.481	5.6369e-05	0.00012984	1.3852e-05	1222.6	1.201e-06	1.5098e-06	1276.9	247.47	1.7733e-07	1.0237e-06	314.08	87.568	68.767	20.569	2.8695e-06	28.956	2.1847e-05	2.3117e-05	6.1837e-06	864.83	2.2348e-07	2.4746e-07	1138.4	218.93	2.2541e-07	2.5546e-07	263.75	75.377	58.818	17.331	2.3047e-07	24.034	195.441	-43.289	-78.507	-82.720	48.413	83.820	-82.197	-75.463	60.159	19.856	-75.706	-69.171	-68.948	-61.909	16.149	-62.133	-8191	255	
6752.697	1	1	0	0	0.084668	0.29815	0.10363	0.24979	0.14715	0.11516	0.24731	0.12764	0.20871	0.14584	0.32971	0.066044	0.13436	0.19389	0.11526	0.021644	-2.275	-2.5083	-2.5521	-2.8958	-2.4792	-2.8917	-2.8229	-2.4917	-2.7229	-2.5125	-2.6813	-2.8042	-2.4813	-2.8167	-2.6771	-2.6417	195.164	115.477	38.655	172.668	265.216	70.631	247.706	204.652	214.029	253.817	-64.611	102.909	-51.573	-56.853	46.806	-23.435	7.1917e-05	0.00018626	7.8286e-05	1215.7	1.067e-06	1.6443e-06	1284.5	246.27	1.2765e-06	2.25e-06	314.67	87.719	68.468	20.538	3.2851e-07	28.937	2.2339e-05	2.3141e-05	5.9178e-06	864.79	2.3571e-07	2.5169e-07	1141	218.12	2.3838e-07	2.5151e-07	264.38	75.347	58.931	17.341	2.2995e-07	24.027	218.392	-14.388	-69.618	-82.402	75.766	46.932	-82.542	-75.360	191.514	20.220	-75.774	-68.849	-68.981	-61.936	31.597	-62.181	-8191	255	
6752.818	1	1	0	0	0.23174	0.12003	0.38367	0.025426	0.023926	0.25662	0.13601	0.25806	0.30012	0.27083	0.1948	0.024601	0.20695	0.10284	0.18869	0.14941	-2.2792	-2.4958	-2.4771	-2.9479	-2.3063	-2.7979	-2.8187	-2.4229	-2.8563	-2.3917	-2.5875	-2.8917	-2.5979	-2.6	-2.8458	-2.4667	-80.070	-1.114	260.994	96.601	63.323	-38.495	149.414	224.038	-18.588	-74.446	262.004	163.081	40.871	210.033	-22.190	255.746	0.00011074	0.00019682	5.319e-05	1212.3	2.9423e-07	1.8695e-06	1281	248.24	5.465e-07	2.7288e-06	314.51	88.13	69.042	20.571	1.4361e-06	29.119	2.4032e-05	2.2395e-05	5.7731e-06	866.77	2.49e-07	2.4655e-07	1140.3	218.78	2.547e-07	2.4855e-07	263.99	75.484	59.042	17.347	2.2178e-07	24.091	207.722	-43.052	-62.719	-82.482	78.288	37.741	-82.357	-75.452	32.676	20.546	-75.618	-69.284	-69.197	-62.299	17.692	-62.523	-8191	255	
6752.890	1	1	0	0	0.029836	0.18674	0.20543	0.28614	0.044671	0.16753	0.039403	0.26901	0.12451	0.15999	0.22903	0.15608	0.23794	0.056829	0.048905	0.093364	-2.4417	-2.8312	-2.6396	-2.9333	-2.6021	-2.7167	-2.8063	-2.3646	-2.9354	-2.725	-2.5271	-2.8146	-2.5	-2.7354	-2.7125	-2.4437	-51.904	-9.904	93.535	-54.188	196.950	117.787	177.874	171.633	57.430	14.270	262.717	11.730	261.993	133.123	49.926	168.713	8.8647e-05	0.00022654	4.8379e-05	1210.5	4.3753e-07	2.23e-06	1277.4	245.91	7.64e-07	1.1791e-06	315.53	88.502	68.605	20.566	1.4421e-06	28.971	2.4479e-05	2.1752e-05	5.7161e-06	866.38	2.5457e-07	2.3574e-07	1139.6	218.5	2.6009e-07	2.3138e-07	263.95	75.434	58.866	17.338	2.1377e-07	24.072	196.688	-49.622	-75.742	-82.644	60.540	63.563	-82.405	-75.584	222.472	37.052	-75.543	-68.941	-68.907	-62.135	7.073	-62.610	-8191	255	
6752.986	1	1	0	0	0.28517	0.16159	0.091425	0.10844	0.10643	0.12493	0.17972	0.13919	0.25755	0.24258	0.27715	0.13577	0.16229	0.061603	0.12592	0.045902	-2.3937	-2.5417	-2.5187	-2.8979	-2.5396	-2.45	-3.0125	-2.475	-2.6417	-2.7021	-2.3458	-2.9833	-2.4271	-2.7313	-2.6583	-2.4979	25.847	60.467	-71.058	223.081	196.259	160.665	225.903	249.580	171.667	-83.231	221.287	182.791	-30.823	152.426	245.282	56.252	9.0653e-05	0.00020673	7.0467e-05	1219.6	1.1013e-06	1.5489e-06	1277.5	248.34	4.7648e-07	2.787e-06	314.49	87.596	68.749	20.606	1.1491e-06	28.989	2.515e-05	2.045e-05	5.4902e-06	867.18	2.4979e-07	2.244e-07	1139.6	219.13	2.5928e-07	2.2181e-07	264.54	75.422	58.962	17.364	2.1303e-07	24.116	183.172	-14.984	-68.795	-82.534	56.930	29.304	-82.441	-75.642	-91.104	30.304	-75.665	-69.222	-68.695	-62.153	16.547	-62.550	-8191	255	
6753.082	1	1	0	0	0.13696	0.27015	0.078885	0.11124	0.12503	0.05495	0.2737	0.21468	0.34769	0.23145	0.1835	0.16614	0.064382	0.14225	0.08549	0.12506	-2.3688	-2.5917	-2.6958	-2.7896	-2.5667	-2.5979	-3.0271	-2.6042	-2.8042	-2.65	-2.5229	-2.8187	-2.8667	-2.4375	-2.8708	-2.4792	133.412	-92.168	260.265	155.593	-30.464	184.810	220.970	-87.369	241.148	18.396	219.391	22.366	30.236	181.752	220.832	-40.572	9.1383e-05	0.00025194	7.315e-05	1218.9	1.8404e-06	2.1278e-06	1282.5	248.49	1.5487e-06	2.472e-06	314.46	88.245	68.685	20.524	5.9978e-07	29.026	2.4125e-05	2.0016e-05	5.441e-06	869.27	2.42e-07	2.2304e-07	1138.8	219.36	2.489e-07	2.1427e-07	264.34	75.678	58.832	17.394	2.1124e-07	24.141	197.332	-38.717	-51.847	-82.624	43.114	7.274	-82.320	-75.135	78.078	-24.555	-75.360	-69.252	-68.933	-62.486	-9.006	-62.565	-8191	255	
6753.203	1	1	0	0	0.060896	0.16958	0.056783	0.14676	0.10593	0.19431	0.16063	0.059955	0.07395	0.25846	0.29145	0.095422	0.061552	0.15918	0.07333	0.14117	-2.4229	-2.8979	-2.5625	-2.8458	-2.55	-2.5333	-2.8812	-2.7417	-2.55	-2.8083	-2.5604	-3.0229	-2.6354	-2.4208	-2.5792	-2.7354	135.832	46.262	-56.274	154.697	244.098	-7.627	-87.508	142.621	191.538	133.498	-49.128	149.560	136.019	127.942	256.639	64.742	7.268e-05	6.1756e-05	5.3409e-05	1217.2	1.6668e-06	2.4317e-06	1282.6	249.41	1.1443e-06	1.7101e-06	316.65	87.704	68.842	20.529	1.3089e-06	29.208	2.4045e-05	1.9971e-05	5.6135e-06	866.48	2.2997e-07	2.1672e-07	1140.9	219.45	2.4102e-07	2.0733e-07	264.95	75.619	59.06	17.36	2.2888e-07	24.171	173.641	-87.265	-65.950	-82.617	38.633	-0.082	-82.261	-75.714	-8.931	29.570	-75.729	-69.135	-69.065	-62.147	11.586	-62.835	-8191	255	
6753.299	1	1	0	0	0.011839	0.21007	0.22585	0.18887	0.072339	0.30421	0.24538	0.30891	0.15	0.28905	0.12237	0.13752	0.12432	0.28223	0.15565	0.21086	-2.2292	-2.6667	-2.4042	-2.6562	-2.5938	-2.4917	-2.7979	-2.5604	-2.3688	-2.9646	-2.4938	-2.7042	-2.6604	-2.3125	-2.8604	-2.6437	146.088	92.515	-11.327	-76.160	54.789	158.179	211.205	195.537	41.476	49.966	181.348	-1.232	-40.475	-66.710	122.356	96.495	8.3798e-05	0.00011095	3.8062e-05	1227.9	1.0701e-06	1.5048e-06	1283.2	248.5	1.1308e-06	1.5492e-06	316.05	87.91	69.032	20.557	1.9117e-06	29.18	2.3014e-05	1.9043e-05	5.8876e-06	870.17	2.2302e-07	2.0959e-07	1140.8	219.85	2.3277e-07	2.0564e-07	265.33	75.783	59.088	17.364	2.3786e-07	24.254	211.561	-42.291	-56.071	-82.130	76.663	74.673	-82.377	-75.266	-74.059	-2.207	-75.793	-69.319	-68.901	-62.379	-3.764	-62.524	-8191	255	
6753.395	1	1	0	0	0.41334	0.11568	0.23347	0.2683	0.16082	0.08198	0.060932	0.21096	0.024383	0.4708	0.34963	0.19791	0.25085	0.30432	0.097679	0.10634	-2.1813	-2.8667	-2.5396	-2.4583	-2.7188	-2.5125	-2.9313	-2.6271	-2.3917	-3.0167	-2.6167	-2.6771	-2.9042	-2.4667	-2.7333	-2.8292	216.996	202.667	218.714	152.941	229.604	123.484	211.685	223.228	17.563	209.288	245.606	0.112	241.501	257.868	183.997	-29.084	8.8046e-05	0.00019192	3.0021e-05	1216.4	1.307e-06	1.7287e-06	1278.9	250.07	8.602e-07	1.3718e-06	314.11	88.472	69.003	20.617	1.6206e-06	29.121	2.2115e-05	1.8785e-05	6.0497e-06	867.38	2.205e-07	2.2008e-07	1139.2	220.2	2.3183e-07	2.0723e-07	264.97	75.919	58.981	17.388	2.456e-07	24.176	192.452	-46.174	-79.305	-82.397	61.661	39.218	-82.428	-75.704	43.241	74.081	-75.653	-69.310	-68.941	-62.143	70.743	-62.572	-8191	255	
6753.491	1	1	0	0	0.075717	0.06268	0.20944	0.21257	0.26743	0.089962	0.2009	0.18125	0.16887	0.099102	0.048479	0.39002	0.028185	0.21764	0.10392	0.22273	-2.175	-2.8937	-2.7708	-2.7417	-2.8083	-2.5292	-2.9792	-2.5479	-2.3625	-2.7	-2.5604	-2.625	-3.0062	-2.3438	-2.8271	-2.8583	200.762	152.394	209.885	-53.481	249.180	55.288	235.021	172.277	-38.375	32.778	139.135	-69.666	7.662	-59.129	71.184	264.180	6.8259e-05	6.6713e-05	4.5391e-05	1222.2	6.4152e-07	6.9705e-07	1282	249.35	4.0095e-07	1.8684e-06	315.86	88.173	68.637	20.596	1.4557e-06	29.403	2.1904e-05	1.9738e-05	6.245e-06	868.05	2.133e-07	2.1875e-07	1142.6	219.95	2.2643e-07	2.1732e-07	265.26	75.878	59.033	17.423	2.4689e-07	24.198	206.638	-29.472	-88.123	-82.500	25.476	33.602	-82.222	-75.473	-8.164	27.511	-75.721	-69.485	-68.991	-61.994	65.040	-62.272	-8191	255	
6753.585	1	1	0	0	0.19797	0.27296	0.13672	0.16998	0.14215	0.083023	0.18457	0.1457	0.23728	0.069347	0.14936	0.09732	0.019142	0.14305	0.22152	0.22514	-2.1042	-2.7438	-2.5292	-2.5354	-2.9562	-2.4604	-2.9437	-2.6708	-2.4562	-2.9104	-2.6	-2.7583	-2.8229	-2.5375	-2.7396	-2.8	44.335	242.719	-54.932	225.733	61.993	225.432	191.980	161.805	210.157	94.945	-61.638	23.064	63.972	193.755	95.443	247.130	8.8815e-05	0.00011813	4.1177e-05	1218.5	2.0643e-06	2.1988e-06	1280.5	249.4	3.8244e-07	1.3883e-06	317.74	87.873	68.71	20.561	1.4909e-06	29.275	2.1305e-05	2.0726e-05	6.0907e-06	866.39	2.0229e-07	2.321e-07	1141.3	220.37	2.1847e-07	2.3456e-07	265.69	75.734	58.818	17.373	2.3485e-07	24.178	220.903	6.620	227.170	-82.624	64.357	48.252	-82.465	-75.553	-4.585	26.048	-75.718	-69.237	-68.995	-62.102	-32.920	-62.473	-8191	255	
6753.683	1	1	0	0	0.19758	0.13701	0.098054	0.27673	0.11937	0.10705	0.29992	0.28732	0.1119	0.027807	0.21914	0.043698	0.0077159	0.205	0.27903	0.19695	-1.8125	-2.8521	-2.55	-2.5708	-2.9917	-2.3625	-2.9313	-2.7229	-2.3292	-2.8833	-2.4562	-2.6583	-2.8083	-2.475	-2.6271	-3.0104	131.925	-0.167	184.928	-35.760	75.136	-41.662	181.609	228.085	-65.648	-54.082	204.424	68.081	184.802	233.104	25.103	181.643	5.2643e-05	0.0001765	2.9653e-05	1217.8	1.2933e-06	2.4161e-07	1278.6	249.05	9.7493e-07	9.6529e-07	314.91	87.793	68.906	20.701	5.9769e-07	29.301	2.1588e-05	2.1711e-05	5.9167e-06	866.38	2.0892e-07	2.3984e-07	1139.2	219.99	2.2569e-07	2.3965e-07	265.12	75.627	59.01	17.475	2.2937e-07	24.217	205.538	-10.750	233.971	-82.467	34.047	4.500	-82.363	-75.428	-45.662	-4.729	-75.832	-69.152	-69.256	-62.354	9.082	-62.265	-8191	255	
6753.802	1	1	0	0	0.0922	0.12378	0.13485	0.15452	0.10118	0.086172	0.077926	0.18413	0.13279	0.31241	0.23318	0.18149	0.096209	0.18641	0.080943	0.091427	-1.9813	-2.6188	-2.6562	-2.5771	-2.8312	-2.7583	-2.9	-2.9479	-2.2188	-2.7396	-2.6292	-2.4625	-3.025	-2.4896	-2.7458	-2.9021	202.408	259.060	38.377	154.397	-50.365	-2.655	135.910	115.088	-55.431	213.303	-16.057	-60.191	-83.488	240.895	44.416	115.340	7.2565e-05	0.00024955	4.0881e-05	1219.3	6.7506e-07	1.2032e-06	1279.4	249.25	1.4598e-06	5.1032e-07	317.23	88.224	68.797	20.644	2.1836e-06	29.207	2.2585e-05	2.2354e-05	5.6669e-06	865.3	2.2147e-07	2.4594e-07	1140.8	220.27	2.3981e-07	2.4765e-07	265.38	75.671	59.108	17.41	2.2621e-07	24.151	222.386	2.498	-45.514	-82.660	9.362	25.338	-82.254	-75.376	-93.090	-59.948	-75.679	-69.149	-69.147	-62.117	17.553	-62.178	-8191	255	
6753.898	1	1	0	0	0.033082	0.21881	0.15151	0.34415	0.21388	0.13505	0.12646	0.042093	0.17177	0.15119	0.10087	0.15157	0.10921	0.087473	0.26502	0.077315	-1.9146	-2.8396	-2.7625	-2.3979	-2.9583	-2.4417	-2.7583	-2.75	-2.4292	-2.7896	-2.6375	-2.6562	-2.9313	-2.4958	-2.4896	-2.8479	263.755	-77.205	94.985	-73.531	-29.166	181.735	168.663	8.291	207.262	193.343	214.571	123.107	-9.723	172.144	-75.017	80.571	8.2495e-05	9.1366e-05	5.6057e-05	1217.1	7.4301e-07	1.5211e-06	1282.3	248.02	2.6976e-06	3.1419e-06	316.68	87.961	68.617	20.597	1.8259e-06	29.122	2.3594e-05	2.2085e-05	5.5879e-06	866.7	2.4068e-07	2.4125e-07	1140.8	220.2	2.5156e-07	2.3912e-07	265.63	75.66	59.076	17.359	2.2368e-07	24.151	205.012	-31.467	-44.108	-82.470	58.521	5.596	-82.498	-75.688	-24.202	-8.279	-75.636	-69.382	-68.968	-62.013	32.535	-62.449	-8191	255	
6753.995	1	1	0	0	0.26058	0.19397	0.092992	0.062367	0.25994	0.1579	0.20635	0.14383	0.085522	0.25225	0.25615	0.21766	0.15876	0.20446	0.1075	0.15284	-2.1542	-2.5125	-2.775	-2.4354	-2.6708	-2.6167	-2.5854	-2.8292	-2.5625	-2.6667	-2.8583	-2.4875	-2.975	-2.6646	-2.5042	-2.8458	140.862	23.981	-56.195	242.210	-17.363	79.514	-73.276	226.510	90.234	195.264	213.126	163.354	-48.218	-70.245	71.448	199.054	6.6235e-05	0.00015219	5.9838e-05	1218	1.7496e-06	1.3385e-06	1280.5	249.49	6.4525e-07	2.0744e-06	315.71	88.135	69.072	20.429	2.157e-06	29.336	2.482e-05	2.1773e-05	5.4535e-06	865.05	2.4639e-07	2.3344e-07	1140.4	220.67	2.6485e-07	2.3737e-07	265.14	75.678	59.142	17.374	2.1673e-07	24.17	207.207	-55.064	-69.229	-82.931	-25.340	-6.494	-82.442	-75.470	238.432	5.415	-75.465	-69.037	-69.104	-61.880	3.381	-62.427	-8191	255	
6754.091	1	1	0	0	0.17753	0.069706	0.054472	0.048932	0.048013	0.090852	0.17126	0.076572	0.19301	0.22542	0.28355	0.16305	0.19987	0.19656	0.12167	0.23548	-2.1396	-2.4583	-2.9229	-2.5417	-2.7562	-2.5771	-2.6688	-3.0542	-2.4167	-2.5625	-2.9917	-2.5417	-2.7917	-2.6896	-2.5521	-2.7646	114.824	110.053	165.203	79.694	-6.608	84.964	224.837	201.503	-90.540	178.404	203.121	-84.252	-42.348	-55.652	-73.355	-44.887	6.3946e-05	0.00013252	5.6248e-05	1212.4	1.1872e-06	2.4039e-06	1278.8	248.49	4.9082e-07	2.7352e-06	315.52	87.972	69.02	20.527	1.6335e-06	29.228	2.53e-05	2.095e-05	5.3118e-06	867.03	2.4677e-07	2.2635e-07	1141.5	220.23	2.5787e-07	2.2863e-07	265.48	75.767	59.103	17.35	2.2054e-07	24.162	195.281	-6.062	-89.055	-82.647	37.152	6.913	-82.564	-75.667	-87.541	-2.004	-75.782	-69.210	-69.255	-62.159	17.345	-62.334	-8191	255	
6754.187	1	1	0	0	0.19957	0.13237	0.022948	0.1333	0.075813	0.16543	0.26572	0.16186	0.10798	0.04933	0.12573	0.12921	0.22509	0.11731	0.067155	0.091818	-2.3438	-2.5583	-2.8542	-2.4625	-2.8063	-2.575	-2.6562	-2.8729	-2.5125	-2.5062	-2.9708	-2.6542	-2.8417	-2.7938	-2.375	-2.9729	174.259	224.635	68.342	196.247	243.499	77.761	220.529	204.075	158.513	129.999	216.896	-79.291	261.180	208.656	69.258	236.086	4.8495e-05	0.00024772	4.19e-05	1220.8	1.859e-06	1.6359e-06	1284	249.25	9.7275e-07	1.9848e-06	314.38	87.259	69.174	20.565	1.069e-07	28.866	2.4692e-05	2.0558e-05	5.3292e-06	869.04	2.4775e-07	2.2712e-07	1141.5	220.66	2.5736e-07	2.2626e-07	265.31	75.697	59.014	17.339	2.3656e-07	24.089	239.011	-38.910	-91.258	-82.840	65.111	40.485	-82.305	-75.337	104.658	30.604	-75.503	-69.180	-68.897	-62.287	237.234	-61.962	-8191	255	
6754.283	1	1	0	0	0.10761	0.065729	0.14596	0.044398	0.12137	0.10486	0.095527	0.15427	0.14942	0.20658	0.15122	0.1765	0.21681	0.13166	0.070709	0.089052	-2.0229	-2.5458	-2.8625	-2.3771	-2.7	-2.675	-2.7687	-2.9562	-2.7854	-2.4167	-3.0187	-2.5062	-2.5938	-2.8729	-2.4104	-2.7562	-83.169	5.957	159.212	-41.443	-55.317	106.126	9.984	179.238	-89.708	207.182	-33.425	-80.442	255.431	133.655	-38.094	-27.557	9.4876e-05	0.00016836	4.1119e-05	1214.1	1.842e-06	1.882e-06	1284.5	250.26	4.9832e-08	2.6926e-06	314.43	87.579	69.081	20.657	1.1793e-06	28.839	2.5411e-05	2.1953e-05	5.8891e-06	869.44	2.6406e-07	2.3871e-07	1141.9	220.79	2.6934e-07	2.4947e-07	265.45	75.682	59.179	17.326	2.6777e-07	24.112	199.878	-2.303	-37.432	-82.470	20.600	27.013	-82.450	-75.634	-36.734	-16.545	-75.644	-69.115	-69.125	-62.346	-35.702	-61.869	-8191	255	
6754.379	1	1	0	0	0.19886	0.093308	0.15498	0.16546	0.2156	0.20456	0.17291	0.11782	0.11967	0.17308	0.14308	0.17671	0.09895	0.13919	0.11915	0.19684	-2.0062	-2.5229	-2.8333	-2.5187	-2.7396	-2.7917	-2.625	-2.9458	-2.7188	-2.5292	-2.7542	-2.6854	-2.4167	-2.8021	-2.5563	-2.9042	171.715	-75.153	-66.462	217.788	207.393	70.917	228.986	244.792	225.099	72.587	140.990	31.412	59.905	-52.553	-70.650	258.600	6.6027e-05	0.00020008	4.4205e-05	1219.9	1.3909e-06	1.4151e-06	1277.7	248.55	8.015e-07	3.5306e-06	316.64	87.413	68.592	20.678	1.7919e-06	29.06	2.6634e-05	2.375e-05	6.8978e-06	873.14	2.788e-07	2.5925e-07	1143.5	220.95	2.8857e-07	2.6812e-07	266.52	75.76	59.118	17.387	3.1684e-07	24.219	216.167	-40.620	266.511	-82.436	9.105	17.193	-82.518	-75.472	37.059	2.668	-75.643	-69.248	-68.831	-61.932	37.509	-62.463	-8191	255	
6754.500	1	1	0	0	0.17075	0.33508	0.083806	0.22852	0.14517	0.14913	0.10139	0.17396	0.16612	0.0332	0.53662	0.12057	0.18256	0.085258	0.040055	0.21793	-2.2729	-2.4062	-2.55	-2.7375	-2.5646	-2.9938	-2.5479	-2.7792	-2.7917	-2.4042	-2.8479	-2.55	-2.4688	-2.9229	-2.3438	-2.75	153.416	-18.667	11.786	264.724	129.009	-32.980	19.797	-86.831	39.524	121.370	-89.289	-87.077	190.802	171.213	236.021	129.953	6.6666e-05	7.9462e-05	3.4515e-05	1221.3	5.7846e-07	2.2383e-06	1290.2	250.98	2.2128e-06	1.9835e-06	315.89	88.216	69.208	20.635	1.9183e-06	29.265	2.8253e-05	2.6233e-05	8.2813e-06	878.61	3.1215e-07	3.0229e-07	1152.7	222.06	3.3747e-07	3.276e-07	268.42	76.491	59.908	17.526	3.9757e-07	24.387	195.193	-13.247	-68.617	-82.868	-37.651	147.454	-82.293	-75.448	4.220	7.212	-75.759	-69.348	-68.966	-62.268	32.914	-62.446	-8191	255	
6754.594	1	1	0	0	0.19311	0.19277	0.43887	0.2647	0.070465	0.11147	0.20855	0.029363	0.30298	0.16432	0.011406	0.07034	0.24099	0.40507	0.20383	0.24616	-2.3354	-2.4167	-2.8979	-2.6625	-2.5042	-2.7417	-2.6813	-2.7083	-2.8104	-2.4854	-2.8688	-2.6875	-2.4729	-3.0646	-2.475	-2.6521	154.207	234.522	-26.450	237.434	-50.997	36.324	-1.543	204.700	-70.352	147.527	187.289	156.899	-51.772	266.235	123.320	261.076	5.9664e-05	5.507e-05	8.0826e-05	1234.1	1.418e-06	8.7341e-07	1295.8	251.14	9.7156e-07	6.527e-07	318.1	88.091	69.217	20.718	2.2902e-07	29.062	3.3266e-05	3.1844e-05	9.8423e-06	886.59	3.4609e-07	3.4909e-07	1157.1	222.87	3.5203e-07	3.7247e-07	269.18	76.435	59.867	17.573	3.9573e-07	24.384	182.926	27.568	-21.056	-82.564	-35.152	16.482	-82.517	-75.559	229.915	64.434	-75.735	-69.217	-68.791	-62.069	70.631	-62.579	-8191	255	
6754.690	1	1	0	0	0.24068	0.16101	0.16712	0.093612	0.40755	0.035554	0.12233	0.13459	0.14335	0.077201	0.31194	0.19331	0.15954	0.25078	0.017838	0.12386	-2.3146	-2.2292	-2.9021	-2.8167	-2.5042	-2.7604	-2.5875	-2.6896	-2.7687	-2.6021	-2.9083	-2.7604	-2.6208	-2.8958	-2.6417	-2.6396	135.992	260.138	226.939	244.034	-69.162	228.133	20.700	-43.736	39.489	209.182	227.798	28.959	235.324	-72.357	21.861	-34.879	8.2647e-05	0.00023046	6.2427e-05	1233.1	7.0856e-07	1.3335e-06	1300.5	250.71	1.4045e-06	4.7505e-07	317.61	87.796	69.21	20.639	1.8749e-07	29.087	3.2932e-05	3.3748e-05	9.7166e-06	887.33	3.304e-07	3.527e-07	1158.7	222.66	3.1781e-07	3.6019e-07	268.1	76.167	59.618	17.561	3.4398e-07	24.268	223.754	242.466	252.617	-82.510	11.026	36.059	-82.272	-75.480	-88.074	8.977	-75.699	-69.344	-69.080	-62.198	16.996	-62.410	-8191	255	
6754.786	1	1	0	0	0.2565	0.20713	0.19943	0.14883	0.12211	0.22142	0.045879	0.21698	0.20418	0.11779	0.21037	0.19933	0.067287	0.17214	0.021828	0.037172	-2.5021	-2.3875	-2.8688	-2.7021	-2.6292	-2.7417	-2.9417	-2.6042	-2.9042	-2.6	-2.7562	-2.8771	-2.5458	-2.9542	-2.6437	-2.4813	4.482	85.317	-77.883	-48.255	-58.359	-0.732	190.591	221.248	109.204	119.243	259.755	246.377	72.769	-53.996	-59.003	263.684	0.00011411	0.00029822	6.9259e-05	1227.1	2.9297e-07	1.2872e-06	1297.4	249.33	3.0178e-06	1.3362e-06	316.3	87.748	69.437	20.643	4.1422e-07	29.086	2.8993e-05	3.1609e-05	8.4508e-06	881.05	3.0443e-07	3.3432e-07	1155.9	221.56	2.965e-07	3.3282e-07	267.23	76.003	59.512	17.472	3.1077e-07	24.188	201.208	-67.592	-43.571	-82.817	118.810	56.258	-82.498	-75.675	-32.296	2.705	-75.901	-69.294	-69.074	-62.118	-36.521	-62.330	-8191	255	
6754.883	1	1	0	0	0.1717	0.25596	0.17968	0.098591	0.1102	0.27647	0.22698	0.22802	0.063015	0.12567	0.12719	0.17446	0.12764	0.13832	0.11074	0.14692	-2.5271	-2.4667	-2.6729	-2.9167	-2.65	-2.8542	-2.9271	-2.475	-2.8354	-2.5833	-2.6437	-2.925	-2.3083	-2.8729	-2.6479	-2.3396	76.459	124.199	246.660	243.280	6.193	7.888	255.995	265.637	107.994	89.018	243.107	14.325	-82.333	-86.600	-39.857	225.943	0.00010256	0.00012415	3.6193e-05	1229.5	1.0192e-06	2.2909e-06	1285.2	250.24	4.4587e-07	1.1362e-06	316.99	88.028	69.041	20.437	1.6534e-06	28.896	2.8831e-05	3.0524e-05	7.7545e-06	877.24	2.9951e-07	3.2421e-07	1149.7	221.38	2.9698e-07	3.1363e-07	267.09	75.671	59.344	17.362	2.6786e-07	24.092	197.244	-0.890	-64.947	-82.713	31.585	80.294	-82.234	-75.486	-22.914	-15.945	-75.700	-69.450	-68.789	-62.157	-35.111	-62.562	-8191	255	
6754.977	1	1	0	0	0.20294	0.23862	0.15925	0.23168	0.19279	0.28688	0.39882	0.20482	0.28044	0.18085	0.084115	0.22589	0.13338	0.1594	0.20365	0.11514	-2.4396	-2.7313	-2.6437	-2.8146	-2.6417	-2.8333	-2.9562	-2.675	-2.8771	-2.6354	-2.8583	-2.9708	-2.6083	-2.7396	-2.6958	-2.4521	56.078	115.564	73.638	243.185	206.588	248.213	259.930	231.358	-67.725	136.401	20.508	224.493	-12.822	262.880	-82.696	0.688	0.00010185	0.00014958	4.8216e-05	1225.9	1.8916e-06	2.5586e-06	1290.3	249.47	4.3562e-07	1.7699e-06	316.48	87.545	68.445	20.725	2.3493e-06	28.922	2.7567e-05	2.7471e-05	7.0457e-06	870.4	2.9862e-07	2.9966e-07	1147.2	220.72	3.0118e-07	2.9595e-07	265.92	75.709	59.244	17.463	2.6041e-07	24.088	197.569	1.929	253.202	-82.905	67.895	0.845	-82.534	-75.517	-31.212	-34.918	-75.825	-69.295	-69.058	-62.035	-5.753	-62.542	-8191	255	
6755.073	1	1	0	0	0.023279	0.26382	0.15357	0.10542	0.29524	0.21097	0.33483	0.22896	0.22789	0.16291	0.31073	0.19125	0.090349	0.16619	0.14148	0.23277	-2.4167	-2.5687	-2.6708	-2.8583	-2.5292	-2.7458	-2.9479	-2.4333	-2.8229	-2.5833	-2.6688	-2.7917	-2.6583	-2.6083	-3.1437	-2.6167	48.911	171.179	195.599	30.413	16.714	68.739	201.071	204.897	104.902	172.515	-61.466	244.581	216.437	222.795	30.585	200.597	3.8408e-05	6.5182e-05	8.0159e-05	1222.7	3.3413e-07	2.0271e-06	1285.5	248.25	1.3708e-06	3.1334e-06	315.27	88.163	68.975	20.438	4.7285e-07	29.126	2.8463e-05	2.5445e-05	6.7724e-06	871.99	2.9741e-07	2.8131e-07	1145.4	220.37	3.0564e-07	2.7605e-07	265.86	75.797	59.427	17.376	2.5292e-07	24.174	183.579	-57.043	-76.574	-82.473	90.302	82.206	-82.225	-75.441	-2.668	-12.584	-75.786	-69.079	-68.996	-62.027	-16.279	-62.025	-8191	255	
6755.171	1	1	0	0	0.1642	0.15535	0.05204	0.070324	0.1667	0.31392	0.27298	0.28813	0.21528	0.064515	0.083636	0.088083	0.17719	0.22129	0.27134	0.16579	-2.575	-2.6458	-2.4313	-2.9042	-2.4583	-2.7229	-2.9521	-2.5042	-2.7833	-2.6354	-2.6521	-2.7167	-2.6167	-2.6229	-3	-2.4854	113.666	87.142	-37.941	9.065	-24.383	139.604	213.057	135.836	69.575	-31.687	215.125	144.073	187.173	256.248	71.006	58.177	0.00010001	0.00012633	4.9044e-05	1225.8	8.3987e-07	2.0342e-06	1284.7	249.11	1.1229e-07	2.0779e-06	317.13	87.796	68.963	20.579	1.1367e-06	29.201	2.9054e-05	2.4715e-05	6.4198e-06	872.7	2.8977e-07	2.6954e-07	1144.6	220.78	2.9491e-07	2.5572e-07	266.1	75.832	59.333	17.433	2.3597e-07	24.214	206.345	-47.927	-42.802	-82.834	35.122	27.337	-82.404	-75.687	107.041	41.316	-75.725	-69.499	-68.821	-61.811	62.419	-62.229	-8191	255	
6755.290	1	1	0	0	0.26908	0.10507	0.14874	0.16974	0.13155	0.04369	0.24299	0.12624	0.14917	0.10231	0.24758	0.046496	0.19069	0.17849	0.17329	0.07394	-2.3875	-2.5417	-2.4062	-2.8396	-2.6417	-2.6479	-3.0187	-2.4958	-2.6792	-2.8375	-2.375	-2.9458	-2.5062	-2.5146	-2.8187	-2.3812	166.206	8.975	13.033	229.503	84.012	160.964	191.959	225.881	230.339	-59.641	263.107	-10.241	165.594	238.319	97.093	205.659	7.238e-05	7.9753e-05	5.4962e-05	1224.1	7.647e-07	1.7201e-06	1283.1	248.26	9.1395e-07	2.1599e-06	316.55	88.42	68.831	20.671	5.9898e-07	29.283	2.7641e-05	2.3628e-05	6.2661e-06	873.25	2.8638e-07	2.5459e-07	1144.4	220.37	2.8046e-07	2.4432e-07	265.84	75.975	59.182	17.412	2.4102e-07	24.264	200.680	-32.193	-49.515	-82.729	-29.101	47.482	-82.320	-75.664	-33.202	27.962	-75.716	-69.171	-68.819	-62.045	50.728	-62.171	-8191	255	
6755.386	1	1	0	0	0.3286	0.31809	0.29425	0.17886	0.10859	0.15313	0.17151	0.072497	0.1436	0.093056	0.18546	0.20804	0.36014	0.052517	0.15597	0.33436	-2.3417	-2.7104	-2.2333	-2.8729	-2.4417	-2.5	-3.1646	-2.5208	-2.7583	-2.8104	-2.7167	-2.7687	-2.5563	-2.4562	-2.7458	-2.5563	153.791	67.346	62.193	20.673	212.688	78.040	202.368	251.484	-49.502	-89.621	251.173	-65.290	-40.445	-46.830	186.478	-87.445	8.5402e-05	0.00010666	5.7585e-05	1223.2	6.2002e-07	2.0925e-06	1280.4	248.42	2.6459e-06	2.0423e-06	315.3	88.344	69.084	20.668	1.9581e-06	29.269	2.6609e-05	2.2554e-05	6.1988e-06	872.96	2.6509e-07	2.4358e-07	1144.3	220.99	2.6631e-07	2.3572e-07	265.36	76.109	59.283	17.44	2.4639e-07	24.252	190.149	-22.820	-41.708	-82.663	20.313	15.115	-82.358	-75.381	1.922	-47.271	-75.836	-69.106	-69.162	-62.033	-82.776	-62.097	-8191	255	
6755.482	1	1	0	0	0.14772	0.092564	0.061787	0.15873	0.30388	0.21848	0.15657	0.55943	0.061144	0.20492	0.12981	0.13668	0.25948	0.12219	0.14254	0.037505	-2.0646	-2.9188	-2.5312	-2.7354	-2.75	-2.6208	-2.8542	-2.625	-2.5083	-2.9146	-2.5042	-2.7375	-2.6562	-2.5958	-2.8063	-2.6417	135.273	135.689	-12.497	4.722	149.534	132.131	219.327	166.434	164.389	104.016	172.441	-18.949	221.317	132.415	-88.377	-58.572	7.1047e-05	0.00017798	6.7498e-05	1219.9	6.4684e-07	1.5268e-06	1282.4	248.8	2.2018e-06	1.1355e-06	318.1	88.597	68.973	20.665	2.0471e-06	29.191	2.5067e-05	2.1635e-05	6.4173e-06	872.54	2.5276e-07	2.3488e-07	1144.3	220.7	2.5882e-07	2.2183e-07	266.2	76.239	59.239	17.451	2.5652e-07	24.283	201.329	-34.399	-34.776	-82.562	70.110	55.767	-82.496	-75.829	48.359	-53.941	-75.804	-68.979	-69.189	-62.263	2.628	-62.191	-8191	255	
6755.578	1	1	0	0	0.32413	0.0064336	0.1143	0.18893	0.24253	0.075689	0.10139	0.504	0.078785	0.18867	0.15308	0.19034	0.12364	0.28963	0.08667	0.1023	-2.1833	-2.875	-2.45	-2.9125	-2.7812	-2.5	-2.9854	-2.6167	-2.7646	-2.8292	-2.6604	-2.8104	-2.8146	-2.5271	-2.7188	-2.6208	-82.096	-63.588	187.848	216.462	215.775	62.358	-10.486	173.465	189.981	-60.660	139.823	12.687	261.189	206.968	-88.203	205.216	7.2984e-05	0.00010346	2.1812e-05	1217.7	1.9016e-06	1.2019e-06	1277.4	250.03	7.8385e-07	2.1833e-06	314.41	88.205	68.902	20.818	9.7391e-07	29.546	2.4833e-05	2.0969e-05	6.6469e-06	871.53	2.4082e-07	2.3609e-07	1144.1	220.89	2.4691e-07	2.2331e-07	266.27	76.097	59.237	17.425	2.7087e-07	24.297	194.737	-47.253	-61.232	-83.169	26.323	59.555	-82.200	-75.675	47.848	11.928	-75.670	-69.454	-68.995	-62.116	65.512	-62.342	-8191	255	
6755.675	1	1	0	0	0.13347	0.18823	0.10794	0.14177	0.12906	0.1527	0.27057	0.26961	0.16258	0.16962	0.38996	0.2156	0.17171	0.089169	0.26861	0.03194	-2.1667	-2.7521	-2.4562	-2.675	-2.6604	-2.6167	-3.0521	-2.6521	-2.5271	-2.7417	-2.6729	-2.7167	-2.875	-2.5292	-2.9354	-2.6333	-5.826	-69.131	64.685	183.550	154.364	-4.478	164.765	212.291	-32.832	255.670	200.652	262.620	-22.620	-52.745	-42.134	-90.020	4.9785e-05	6.0073e-05	1.7641e-05	1220.4	1.8084e-07	1.8423e-06	1287.9	250.1	1.8446e-06	2.9414e-06	316.21	88.342	68.966	20.625	8.4112e-07	29.388	2.361e-05	2.1635e-05	6.8797e-06	871.02	2.2791e-07	2.3709e-07	1146.2	221.04	2.4272e-07	2.4128e-07	266.1	75.974	59.242	17.477	2.6721e-07	24.305	244.254	18.923	-68.142	-82.924	-60.537	-28.221	-82.190	-75.549	-90.396	-0.479	-75.575	-69.370	-69.155	-62.285	65.545	-62.611	-8191	255	
6755.771	1	1	0	0	0.17759	0.087597	0.17115	0.21036	0.11341	0.091283	0.28451	0.047637	0.18777	0.12775	0.060368	0.35482	0.14184	0.077004	0.17588	0.093504	-1.9833	-2.9979	-2.5146	-2.5604	-2.7271	-2.7146	-2.9562	-2.7229	-2.4437	-2.8792	-2.6708	-2.55	-2.9667	-2.4	-2.7792	-2.7146	115.628	189.330	-46.966	203.102	-9.845	234.045	247.371	183.065	153.012	220.144	-29.019	186.719	190.495	3.766	-23.021	61.728	4.7452e-05	0.00026024	5.9946e-05	1226.6	2.3347e-06	3.0874e-06	1286.1	249.43	1.2763e-06	1.4568e-06	315.47	88.384	69.159	20.648	1.926e-06	29.172	2.4344e-05	2.2644e-05	6.795e-06	872.93	2.2996e-07	2.5817e-07	1145	221.18	2.3896e-07	2.5679e-07	266.51	76.191	59.27	17.482	2.6591e-07	24.239	193.934	-28.908	256.705	-82.864	30.966	54.884	-82.324	-75.516	-49.864	-53.958	-75.641	-69.258	-69.030	-62.047	26.951	-62.667	-8191	255	
6755.891	1	1	0	0	0.1864	0.077694	0.15825	0.24914	0.15195	0.074166	0.33218	0.17983	0.18798	0.44369	0.29589	0.085138	0.090124	0.18915	0.16487	0.15774	-1.8646	-2.6333	-2.4979	-2.5583	-2.9458	-2.3854	-3.0042	-2.7438	-2.3021	-2.8958	-2.5646	-2.5729	-2.7354	-2.8063	-2.5604	-2.8292	201.675	62.132	110.130	223.258	-72.036	84.684	231.862	97.435	239.471	84.227	261.711	205.855	2.140	39.206	222.051	206.053	6.0775e-05	0.00018488	9.5153e-06	1222.7	1.5758e-06	1.087e-06	1288	249.98	3.9448e-07	2.7937e-06	317.75	88.086	69.303	20.775	2.0992e-06	29.322	2.3854e-05	2.4568e-05	6.5384e-06	873.69	2.3208e-07	2.6817e-07	1147.2	221.59	2.4707e-07	2.7022e-07	267.09	76.149	59.41	17.571	2.5955e-07	24.333	231.692	-34.949	87.471	-82.590	18.879	25.446	-82.414	-75.727	5.382	-4.176	-75.758	-69.265	-68.988	-62.562	2.133	-62.625	-8191	255	
6755.986	1	1	0	0	0.053245	0.09565	0.23982	0.15777	0.32549	0.1729	0.21107	0.23947	0.1062	0.11357	0.18082	0.22388	0.25337	0.10216	0.13213	0.17254	-2.1167	-2.6917	-2.6125	-2.3604	-2.9917	-2.5833	-2.7229	-2.9792	-2.3417	-2.7021	-2.6979	-2.3292	-2.85	-2.4437	-2.6937	-2.7625	-55.175	158.756	214.834	180.803	114.419	121.077	248.576	151.900	204.756	-50.270	222.134	-78.910	203.016	172.479	-22.143	227.251	9.0749e-05	0.00014729	3.8574e-05	1228.2	9.9353e-07	2.3091e-06	1288.3	250.55	2.141e-06	1.9307e-06	317.69	88.083	69.197	20.787	8.3098e-07	29.247	2.4836e-05	2.4939e-05	6.316e-06	874.65	2.4262e-07	2.7597e-07	1149.6	221.92	2.6259e-07	2.7245e-07	267.12	76.119	59.49	17.523	2.493e-07	24.286	222.490	-2.038	-62.479	-82.739	36.095	29.475	-82.391	-75.446	-40.715	6.669	-75.741	-69.292	-69.351	-62.310	68.504	-62.355	-8191	255	
6756.059	1	1	0	0	0.087307	0.15762	0.25222	0.16286	0.17303	0.24737	0.13245	0.22565	0.198	0.28872	0.1757	0.059559	0.33958	0.056149	0.080615	0.21656	-1.9354	-2.7417	-2.6333	-2.6437	-2.6979	-2.5667	-2.7896	-2.6292	-2.4813	-2.8083	-2.7958	-2.5583	-2.7062	-2.5958	-2.3583	-2.8812	174.091	-31.691	126.149	250.130	-80.619	-25.119	161.785	206.846	92.990	-37.012	-91.780	253.766	-28.164	-2.754	249.369	124.986	9.5714e-05	0.00017987	7.5411e-05	1220.8	1.1659e-06	1.3432e-06	1288.5	250.58	7.3616e-07	4.2845e-07	317.82	88.284	68.89	20.797	1.5214e-06	29.25	2.612e-05	2.5165e-05	6.2152e-06	872	2.55e-07	2.6584e-07	1146.3	222.07	2.7363e-07	2.6576e-07	267.36	76.15	59.446	17.544	2.4881e-07	24.356	210.432	2.718	-25.398	-82.709	19.879	1.987	-82.390	-75.704	-81.282	-29.432	-75.769	-69.407	-68.973	-62.385	-21.231	-62.336	-8191	255	
6756.178	1	1	0	0	0.066071	0.16626	0.23634	0.39603	0.24458	0.21804	0.16615	0.13621	0.1295	0.15034	0.131	0.096803	0.14718	0.12603	0.1302	0.092845	-1.9354	-2.5687	-2.7917	-2.5104	-2.7	-2.6875	-2.6583	-2.9646	-2.5104	-2.6417	-2.8208	-2.6833	-2.8354	-2.3229	-2.7625	-2.9354	182.326	228.058	-80.768	-14.376	49.529	143.308	246.647	187.808	149.436	239.899	64.647	-80.516	-39.345	-11.265	154.748	255.649	6.3826e-05	5.8633e-05	5.4061e-05	1231.4	1.3203e-06	2.7906e-06	1289.3	251.05	1.2209e-06	2.5067e-06	318.7	88.467	69.091	20.78	1.2195e-06	29.203	2.7107e-05	2.3987e-05	6.0552e-06	874.47	2.6843e-07	2.5882e-07	1148.8	221.9	2.8202e-07	2.5793e-07	267.34	76.191	59.591	17.507	2.4225e-07	24.249	214.272	170.662	-80.768	-82.276	62.934	32.483	-82.379	-75.800	200.254	15.429	-75.186	-69.065	-69.053	-61.940	17.914	-62.651	-8191	255	
6756.274	1	1	0	0	0.028676	0.22385	0.090677	0.08664	0.22918	0.18587	0.21435	0.27465	0.091415	0.2636	0.098258	0.18444	0.0091766	0.24013	0.19316	0.16802	-2.0771	-2.5917	-2.9604	-2.4	-2.9833	-2.7375	-2.5167	-3.0896	-2.3771	-2.6937	-2.7958	-2.7271	-2.8417	-2.6458	-2.3875	-3.0187	54.235	-56.950	-65.564	89.002	-67.521	-4.331	239.791	224.427	2.813	-67.417	-75.991	27.723	-50.489	224.734	23.072	-77.952	8.8245e-05	9.4608e-05	4.4769e-05	1230.5	1.2218e-06	1.8122e-06	1286.6	250.86	2.2963e-06	1.6206e-06	319.12	88.754	69.43	20.933	2.5738e-06	29.423	2.7169e-05	2.333e-05	5.9071e-06	875.88	2.7649e-07	2.4813e-07	1146.8	221.92	2.7775e-07	2.4937e-07	267.49	76.15	59.659	17.568	2.3962e-07	24.354	181.415	-36.838	264.561	-82.506	86.870	23.579	-82.350	-75.541	3.855	2.851	-75.716	-69.261	-68.979	-61.941	42.536	-62.307	-8191	255	
6756.370	1	1	0	0	0.15373	0.18154	0.076647	0.10339	0.16487	0.033667	0.15688	0.14481	0.27695	0.08583	0.19565	0.13153	0.20647	0.12507	0.23652	0.25347	-2.2021	-2.5208	-2.7542	-2.4229	-2.6125	-2.8042	-2.6146	-2.8771	-2.675	-2.5875	-2.8708	-2.525	-2.7708	-2.8458	-2.4792	-2.7583	-66.366	206.813	37.395	216.808	185.451	149.149	215.577	-80.561	32.713	-7.684	181.075	236.565	-41.370	137.414	194.552	184.047	0.00010435	0.00016824	4.8101e-05	1233.7	1.1133e-06	1.6147e-06	1285.8	250.83	6.425e-07	1.9914e-06	318.53	88.223	69.268	20.79	8.7733e-07	29.298	2.6882e-05	2.3155e-05	5.8511e-06	877.23	2.7183e-07	2.4279e-07	1147.2	222.57	2.8108e-07	2.5401e-07	267.22	76.273	59.586	17.556	2.4402e-07	24.388	185.052	-37.970	16.451	-82.782	82.903	28.649	-82.336	-75.612	65.656	-22.504	-75.982	-69.248	-69.190	-61.906	106.824	-62.361	-8191	255	
6756.467	1	1	0	0	0.19177	0.087718	0.2477	0.44861	0.06945	0.041492	0.18885	0.20534	0.26795	0.099621	0.18035	0.15206	0.11494	0.1394	0.35082	0.0024655	-2.2313	-2.6292	-2.6958	-2.6042	-2.5708	-2.6396	-2.5375	-2.9604	-2.7042	-2.4021	-2.7	-2.4521	-2.5583	-2.7292	-2.5625	-2.9979	11.030	-30.000	-18.525	-77.314	212.156	3.860	237.978	-6.103	91.307	-1.615	242.563	21.190	167.837	87.856	158.162	73.224	5.6675e-05	0.00011853	5.1535e-05	1228.8	7.2495e-07	2.5092e-06	1287.1	250.85	4.1555e-07	1.1839e-06	319.89	88.323	69.31	20.808	7.2414e-07	29.475	2.6371e-05	2.2391e-05	5.9192e-06	878.1	2.6831e-07	2.3712e-07	1149.5	222.78	2.6801e-07	2.4217e-07	268.06	76.313	59.535	17.549	2.541e-07	24.488	208.320	-26.442	-72.002	-82.630	-13.925	39.404	-82.475	-75.557	16.859	-23.451	-75.712	-69.310	-68.857	-62.057	205.207	-62.506	-8191	255	
6756.563	1	1	0	0	0.097775	0.16149	0.077339	0.11941	0.0071678	0.046263	0.27448	0.3838	0.10108	0.16833	0.07273	0.20103	0.14045	0.11096	0.18726	0.27545	-2.1146	-2.5229	-2.8833	-2.6104	-2.7812	-2.9708	-2.6063	-2.8063	-2.6604	-2.2042	-2.8875	-2.3875	-2.7167	-2.7792	-2.5958	-2.7	-29.913	28.528	-16.632	8.636	-72.107	198.094	241.066	188.774	-14.763	156.444	251.369	227.507	-23.443	-23.304	180.598	32.066	7.9722e-05	0.00018515	7.6302e-05	1224.8	1.358e-06	1.6926e-06	1289	251.62	1.4154e-06	3.3947e-06	318.08	88.762	69.484	20.741	1.7065e-06	29.128	2.5429e-05	2.211e-05	6.3182e-06	875.86	2.5744e-07	2.3347e-07	1148.6	222.56	2.5689e-07	2.3723e-07	268.1	76.327	59.673	17.522	2.6966e-07	24.395	200.041	-1.940	-68.050	-82.810	98.562	58.364	-82.372	-75.475	-42.292	3.368	-75.620	-69.053	-69.268	-61.890	8.897	-62.260	-8191	255	
6756.683	1	1	0	0	0.35612	0.087269	0.20786	0.34409	0.03916	0.25792	0.27003	0.26676	0.17977	0.24377	0.33823	0.055458	0.20198	0.048952	0.091169	0.13117	-2.3542	-2.3688	-2.7313	-2.475	-2.5396	-2.8333	-2.6562	-2.6958	-2.6417	-2.4688	-2.85	-2.625	-2.6167	-2.8104	-2.5104	-2.6542	50.353	14.953	233.715	242.744	26.965	179.593	226.388	197.704	115.307	-15.836	195.211	213.288	-61.675	265.992	43.494	34.738	9.501e-05	0.00013326	2.4893e-05	1227.4	1.6073e-06	2.3381e-06	1285.5	251.6	1.212e-06	1.6879e-06	318.92	88.955	69.483	20.763	9.3156e-07	29.115	2.4949e-05	2.2239e-05	6.7138e-06	874.39	2.5158e-07	2.251e-07	1146.8	223.04	2.5054e-07	2.3127e-07	268.26	76.429	59.478	17.528	2.7079e-07	24.307	179.954	-9.094	-48.115	-82.392	26.497	31.750	-82.406	-75.858	226.736	-21.336	-75.844	-69.193	-69.051	-61.872	-32.618	-61.871	-8191	255	
6756.755	1	1	0	0	0.22131	0.032248	0.093101	0.30906	0.027754	0.088664	0.1398	0.18861	0.1013	0.080338	0.28048	0.084371	0.22839	0.079347	0.096886	0.10096	-2.3667	-2.4771	-2.8625	-2.5021	-2.6354	-2.5625	-2.825	-2.6375	-2.9875	-2.5271	-2.8563	-2.9646	-2.5896	-2.9771	-2.4396	-2.6479	154.083	159.353	92.344	243.370	36.348	203.944	191.504	199.863	144.901	179.624	220.418	30.328	-60.309	263.654	122.075	165.275	7.4891e-05	0.00018249	7.6521e-05	1222.8	4.1604e-07	1.2068e-06	1286.8	252.69	6.4149e-07	1.5039e-06	320.19	88.516	69.554	20.797	1.4845e-06	29.348	2.3603e-05	2.1897e-05	6.73e-06	873.66	2.4552e-07	2.4295e-07	1148.9	222.81	2.3785e-07	2.5208e-07	268.77	76.348	59.644	17.567	2.7676e-07	24.336	197.705	-67.321	-51.145	-82.737	110.587	34.311	-82.403	-75.521	7.393	4.718	-75.883	-69.425	-68.864	-62.276	29.225	-62.732	-8191	255	
6756.851	1	1	0	0	0.19124	0.2579	0.24173	0.15741	0.098704	0.049343	0.095087	0.36081	0.037667	0.13438	0.22864	0.16992	0.1043	0.11373	0.070689	0.10429	-2.3937	-2.2833	-2.7646	-2.7479	-2.5125	-3.1542	-2.4667	-2.7042	-2.8521	-2.4667	-2.85	-2.6125	-2.6	-2.6604	-2.5625	-2.5812	-9.944	133.561	18.278	-62.730	26.216	158.290	229.346	241.744	29.157	-86.374	-79.745	236.529	-11.089	-63.200	247.087	92.969	6.6827e-05	5.111e-05	2.4581e-05	1223.1	1.1288e-06	4.6852e-07	1292.9	250.56	1.3998e-06	1.456e-06	318.91	88.757	69.648	20.768	2.1463e-06	29.267	2.3319e-05	2.3499e-05	6.883e-06	876.21	2.4383e-07	2.5467e-07	1150.5	222.55	2.4091e-07	2.656e-07	267.88	76.379	59.618	17.535	2.7576e-07	24.343	197.876	-61.386	185.530	-82.809	15.536	158.674	-82.314	-75.590	14.864	-15.465	-75.389	-69.167	-69.226	-62.059	49.433	-62.464	-8191	255	
6756.972	1	1	0	0	0.18827	0.19195	0.13904	0.084109	0.23237	0.086853	0.14618	0.20652	0.30589	0.036294	0.039166	0.10662	0.13185	0.016591	0.13685	0.25572	-2.3937	-2.3312	-2.6458	-2.6021	-2.3271	-2.8729	-2.6604	-2.8021	-2.6729	-2.4479	-2.5917	-2.7833	-2.5354	-2.9458	-2.5812	-2.4938	144.099	-10.623	-87.001	154.187	157.911	242.112	188.603	190.880	184.183	170.705	91.821	163.043	119.310	-23.556	168.836	180.065	6.4748e-05	0.00013558	3.5804e-05	1230	1.5984e-06	9.0592e-07	1284.8	251.73	1.2932e-06	2.7693e-06	318.33	88.645	69.487	20.798	1.5997e-06	29.49	2.3493e-05	2.4457e-05	6.8686e-06	875.82	2.4524e-07	2.6994e-07	1148.8	222.43	2.4855e-07	2.7504e-07	268.26	76.268	59.485	17.581	2.6534e-07	24.39	229.118	-71.557	243.476	-82.437	85.408	35.467	-82.324	-75.685	-46.261	7.642	-75.591	-69.406	-69.037	-62.672	7.576	-62.415	-8191	255	
6757.066	1	1	0	0	0.185	0.16301	0.18978	0.23786	0.052541	0.28397	0.1216	0.035712	0.16516	0.32778	0.062634	0.053574	0.15227	0.20186	0.22501	0.30275	-2.4146	-2.4146	-2.6458	-2.6833	-2.6208	-2.7208	-2.6729	-2.5583	-2.8229	-2.4604	-2.7396	-2.8125	-2.4958	-2.8604	-2.7146	-2.5479	199.619	-9.814	104.219	188.800	95.235	-46.645	-12.590	53.735	173.472	149.382	2.944	-49.330	257.806	-17.974	137.742	30.247	7.3993e-05	0.00016116	3.1353e-05	1234.5	1.5264e-06	1.9277e-06	1287.5	250.86	8.9349e-07	1.3209e-06	316.94	88.968	69.698	20.746	1.7502e-06	29.111	2.5011e-05	2.6287e-05	6.7076e-06	875.42	2.5956e-07	2.8125e-07	1150.3	222.6	2.6479e-07	2.8587e-07	267.75	76.453	59.679	17.601	2.5799e-07	24.335	173.424	-1.891	-35.477	-82.838	41.255	65.488	-82.364	-75.449	-40.193	-90.268	-75.647	-69.473	-69.093	-61.990	-16.417	-62.310	-8191	255	
6757.162	1	1	0	0	0.042258	0.10134	0.18729	0.11576	0.28082	0.14018	0.34814	0.079768	0.084014	0.14205	0.18195	0.41851	0.16397	0.0909	0.15041	0.10075	-2.3729	-2.5187	-2.6688	-2.8521	-2.4833	-2.9292	-2.8312	-2.7125	-2.9833	-2.6271	-2.7646	-2.7979	-2.6188	-2.9958	-2.7604	-2.5646	235.662	-80.982	11.284	256.609	47.892	183.329	168.068	-23.097	-5.428	263.323	248.317	199.149	152.015	19.595	33.663	265.555	0.00010644	0.00027484	2.1628e-05	1227.1	2.0581e-06	2.2546e-06	1289	251.56	7.3177e-07	1.4038e-06	320.53	89.047	69.538	20.875	2.2722e-06	29.339	2.6817e-05	2.6214e-05	6.6034e-06	874.45	2.8191e-07	2.8721e-07	1151.2	222.88	2.786e-07	2.8049e-07	268.54	76.429	59.697	17.616	2.5697e-07	24.335	207.812	-34.865	-73.330	-82.664	42.291	5.637	-82.356	-75.429	79.519	23.070	-75.914	-69.249	-69.322	-62.055	5.276	-62.272	-8191	255	
6757.283	1	1	0	0	0.073192	0.073037	0.25556	0.088514	0.16664	0.21503	0.15753	0.13481	0.093079	0.1435	0.21436	0.089009	0.29531	0.36111	0.2084	0.20752	-2.2625	-2.6188	-2.5938	-2.9958	-2.4	-2.8438	-2.8854	-2.4021	-2.7646	-2.6208	-2.5042	-2.9979	-2.5708	-2.6042	-2.6542	-2.5042	-8.364	250.109	-25.935	227.675	64.610	193.721	182.930	200.493	171.321	56.679	188.993	-67.639	182.126	-32.465	220.389	-7.381	8.4555e-05	0.00023232	4.3285e-05	1226.8	9.6367e-07	2.255e-06	1294	251.15	3.4049e-07	2.8018e-06	319.29	88.338	69.406	20.648	8.3526e-07	29.276	2.7907e-05	2.5831e-05	6.7144e-06	874.24	2.9886e-07	2.7973e-07	1150.4	222.72	3.0432e-07	2.7188e-07	268.06	76.293	59.741	17.545	2.5633e-07	24.394	197.589	-90.256	-66.331	-82.834	47.443	96.188	-82.285	-75.678	165.383	27.547	-75.877	-69.169	-69.064	-61.981	26.134	-62.461	-8191	255	
6757.355	1	1	0	0	0.045058	0.26786	0.10517	0.11554	0.1825	0.12167	0.32824	0.19093	0.046794	0.1386	0.30103	0.062477	0.18199	0.083973	0.13684	0.1784	-2.2792	-2.5521	-2.2229	-3.0229	-2.5021	-2.7958	-2.9437	-2.6354	-2.5938	-2.7438	-2.6063	-2.8667	-2.5333	-2.7	-2.9083	-2.5062	46.379	32.725	-53.554	-47.743	224.319	60.275	201.066	84.111	254.941	207.207	-68.599	-15.606	164.113	240.320	-59.705	100.546	4.4386e-05	0.00013427	8.4737e-05	1225.7	1.4597e-06	2.6811e-06	1288.4	251.03	1.8134e-06	2.6206e-06	318.9	88.075	69.387	20.659	1.8435e-06	29.342	2.9048e-05	2.4524e-05	6.4994e-06	876.28	3.0543e-07	2.6863e-07	1150.4	222.58	2.9893e-07	2.6485e-07	267.46	76.178	59.695	17.492	2.4841e-07	24.345	197.611	-26.551	-50.270	-82.786	0.486	32.323	-82.436	-75.442	41.222	25.761	-75.226	-69.116	-69.088	-62.056	59.178	-62.079	-8191	255	
6757.451	1	1	0	0	0.066773	0.27135	0.21434	0.046172	0.096886	0.10069	0.43644	0.095409	0.15007	0.29687	0.12364	0.1989	0.23314	0.093016	0.05164	0.043736	-2.3729	-2.6542	-2.3521	-2.9604	-2.6333	-2.7062	-2.9229	-2.6063	-2.7604	-2.6479	-2.6125	-2.6625	-2.7083	-2.3542	-2.9313	-2.575	257.972	154.438	166.496	-31.592	-72.741	0.873	123.900	193.009	-57.695	208.155	104.023	150.069	241.882	134.644	196.474	81.605	7.9992e-05	0.00016011	1.5275e-05	1224.2	2.4927e-06	2.4749e-06	1286	251.2	6.1984e-07	2.3145e-06	317.77	88.011	69.51	20.7	9.7303e-07	29.346	2.8818e-05	2.426e-05	6.3968e-06	875.31	2.9433e-07	2.6607e-07	1147.4	222.44	2.9417e-07	2.6022e-07	267.81	76.232	59.622	17.493	2.4758e-07	24.359	192.538	-4.576	-15.745	-83.015	70.502	21.882	-82.340	-75.476	-17.798	7.791	-75.855	-69.228	-69.111	-62.116	-14.576	-62.369	-8191	255	
6757.571	1	1	0	0	0.088502	0.28233	0.067164	0.21938	0.1105	0.34715	0.18574	0.2553	0.14675	0.22976	0.30145	0.13506	0.079423	0.076603	0.17178	0.19568	-2.4042	-2.6042	-2.325	-2.8729	-2.3937	-2.6562	-3.0583	-2.4771	-2.7938	-2.8229	-2.5812	-2.9167	-2.6708	-2.3292	-3.0563	-2.4667	54.569	244.341	165.973	258.069	-38.343	-37.928	237.328	204.819	179.611	-49.402	222.633	8.685	134.580	144.714	113.993	-69.480	6.1557e-05	0.00014134	1.3314e-05	1216.3	7.9436e-07	2.2449e-06	1286.5	250.59	1.4352e-06	1.8095e-06	318	88.767	69.206	20.888	8.4679e-07	29.139	2.7657e-05	2.3409e-05	6.4272e-06	874.7	2.7956e-07	2.6614e-07	1147.7	222.43	2.9079e-07	2.5074e-07	267.89	76.402	59.569	17.532	2.6381e-07	24.348	231.500	-50.504	221.072	-82.376	72.200	-30.821	-82.394	-75.655	-1.910	0.925	-75.868	-69.383	-68.983	-61.976	-16.469	-62.654	-8191	255	
6757.668	1	1	0	0	0.11202	0.14741	0.097777	0.12607	0.050786	0.17728	0.11905	0.14899	0.1412	0.080003	0.095577	0.33253	0.11862	0.21103	0.090485	0.22818	-2.2875	-2.7458	-2.5229	-2.5896	-2.7396	-2.525	-2.9771	-2.7354	-2.5208	-3.0333	-2.4896	-2.9521	-2.7083	-2.5646	-2.7375	-2.6271	193.560	-71.243	68.557	249.873	49.527	-85.624	170.664	-54.077	14.046	33.893	-28.920	-81.104	-7.103	253.571	-75.432	120.932	5.9118e-05	0.00015181	4.2313e-05	1224.9	7.0938e-07	1.8562e-06	1288.6	250.14	6.5963e-07	6.197e-07	317.11	87.914	68.562	20.54	1.4488e-06	29.236	2.7268e-05	2.3067e-05	6.9222e-06	877.15	2.7275e-07	2.5401e-07	1148	222.03	2.8187e-07	2.516e-07	267.66	76.146	59.296	17.465	2.8325e-07	24.312	211.547	-46.609	-64.112	-82.553	88.694	4.442	-82.432	-75.338	-34.266	53.687	-75.514	-69.549	-68.995	-62.237	49.595	-62.314	-8191	255	
6757.764	1	1	0	0	0.20284	0.028677	0.10202	0.32655	0.15255	0.056056	0.071246	0.14828	0.14451	0.18136	0.011745	0.084623	0.20774	0.13275	0.088347	0.16884	-2.175	-2.8875	-2.2104	-2.6396	-2.7	-2.6104	-2.8937	-2.6688	-2.5042	-2.7896	-2.8479	-2.7792	-2.8083	-2.4521	-2.7687	-2.8896	22.808	89.050	-2.607	251.239	246.043	239.356	152.338	-71.764	215.009	35.566	230.800	101.606	-79.302	173.093	-43.635	199.476	4.3024e-05	0.00011167	4.7314e-05	1227.1	1.2236e-06	1.6511e-06	1287.2	249.94	1.6476e-06	1.5707e-06	316.48	88.224	69.157	20.489	8.8035e-07	29.01	2.6731e-05	2.2675e-05	7.2024e-06	875.28	2.6928e-07	2.5727e-07	1145.8	221.81	2.6918e-07	2.4783e-07	267.14	76.312	59.344	17.453	2.887e-07	24.182	178.607	23.043	-92.110	-82.741	64.837	36.900	-82.323	-75.668	235.894	56.285	-75.876	-68.851	-69.208	-62.368	32.762	-62.149	-8191	255	
6757.860	1	1	0	0	0.16302	0.22168	0.1058	0.39155	0.26826	0.25401	0.19486	0.112	0.17425	0.031248	0.33485	0.060693	0.050696	0.039176	0.21027	0.080695	-1.9688	-3.0125	-2.2771	-2.8021	-2.6833	-2.4229	-2.9542	-2.5896	-2.4667	-2.7313	-2.6208	-2.7958	-2.8104	-2.6479	-2.7354	-2.6813	-0.478	-50.176	238.392	193.015	88.794	21.160	180.407	235.997	69.421	63.295	248.060	-84.861	-76.189	82.517	28.522	-54.483	5.5106e-05	5.0409e-05	3.2076e-05	1230.3	7.6223e-07	4.01e-07	1279.7	250.2	1.2294e-06	1.2027e-06	317.27	88.391	69.164	20.541	1.502e-06	29.392	2.6554e-05	2.2711e-05	7.4486e-06	875.08	2.5323e-07	2.6151e-07	1144.5	221.84	2.6839e-07	2.5541e-07	267.51	76.115	59.375	17.434	2.928e-07	24.316	199.390	-17.791	-24.901	-82.634	48.801	36.040	-82.359	-75.958	-0.836	-7.883	-75.633	-69.277	-69.352	-62.091	32.974	-62.620	-8191	255	
#DATA ENDS
