BOXY.EXE: ISS Imagent and Oximeter Data Acquisition Program Version 0.80
Ascii Record File

#ACQ INFORMATION
2  Detector Channels 
16  External MUX Channels 
1  Auxiliary Channels 
5000  Waveform (CCF) Frequency (Hz)
1  Waveforms Skipped 
30  Waveforms Averaged 
1  Cycles Averaged 
16  Acquisitions per Waveform 
10.0806  Updata Rate (Hz) 

#FILE INFORMATION
TRUE -- External MUX Channel results are PARSED.
FALSE -- AC DC and Phase are NOT grouped.
TRUE -- Companion Program Settings File CREATED.
FALSE -- AC data not excluded
FALSE -- DC data not excluded
FALSE -- Phase data not excluded
FALSE -- Auxillary Chn. data not excluded
Tab delimiters

#CALIBRATION STATE
TRUE -- Waveform Calibration Values APPLIED.


#AUX CALIBRATION VALUES
Val Type	aux-1	

Term	1.0000e+00	
Factor	0.0000e+00	


#WF CALIBRATION VALUES
A = Detector Channel
Val Type	A-AC1	A-AC2	A-AC3	A-AC4	A-AC5	A-AC6	A-AC7	A-AC8	A-AC9	A-AC10	A-AC11	A-AC12	A-AC13	A-AC14	A-AC15	A-AC16	A-DC1	A-DC2	A-DC3	A-DC4	A-DC5	A-DC6	A-DC7	A-DC8	A-DC9	A-DC10	A-DC11	A-DC12	A-DC13	A-DC14	A-DC15	A-DC16	A-Ph1	A-Ph2	A-Ph3	A-Ph4	A-Ph5	A-Ph6	A-Ph7	A-Ph8	A-Ph9	A-Ph10	A-Ph11	A-Ph12	A-Ph13	A-Ph14	A-Ph15	A-Ph16	

Term	0.00000e+00	0.00000e+00	0.00000e+00	0.00000e+00	0.00000e+00	0.00000e+00	0.00000e+00	0.00000e+00	0.00000e+00	0.00000e+00	0.00000e+00	0.00000e+00	0.00000e+00	0.00000e+00	0.00000e+00	0.00000e+00	0.00000e+00	0.00000e+00	0.00000e+00	0.00000e+00	0.00000e+00	0.00000e+00	0.00000e+00	0.00000e+00	0.00000e+00	0.00000e+00	0.00000e+00	0.00000e+00	0.00000e+00	0.00000e+00	0.00000e+00	0.00000e+00	0.00000e+00	0.00000e+00	0.00000e+00	0.00000e+00	0.00000e+00	0.00000e+00	0.00000e+00	0.00000e+00	0.00000e+00	0.00000e+00	0.00000e+00	0.00000e+00	0.00000e+00	0.00000e+00	0.00000e+00	0.00000e+00	
Factor	1.00000e+00	1.00000e+00	1.00000e+00	1.00000e+00	1.00000e+00	1.00000e+00	1.00000e+00	1.00000e+00	1.00000e+00	1.00000e+00	1.00000e+00	1.00000e+00	1.00000e+00	1.00000e+00	1.00000e+00	1.00000e+00	1.00000e+00	1.00000e+00	1.00000e+00	1.00000e+00	1.00000e+00	1.00000e+00	1.00000e+00	1.00000e+00	1.00000e+00	1.00000e+00	1.00000e+00	1.00000e+00	1.00000e+00	1.00000e+00	1.00000e+00	1.00000e+00	X	X	X	X	X	X	X	X	X	X	X	X	X	X	X	X	

B = Detector Channel
Val Type	B-AC1	B-AC2	B-AC3	B-AC4	B-AC5	B-AC6	B-AC7	B-AC8	B-AC9	B-AC10	B-AC11	B-AC12	B-AC13	B-AC14	B-AC15	B-AC16	B-DC1	B-DC2	B-DC3	B-DC4	B-DC5	B-DC6	B-DC7	B-DC8	B-DC9	B-DC10	B-DC11	B-DC12	B-DC13	B-DC14	B-DC15	B-DC16	B-Ph1	B-Ph2	B-Ph3	B-Ph4	B-Ph5	B-Ph6	B-Ph7	B-Ph8	B-Ph9	B-Ph10	B-Ph11	B-Ph12	B-Ph13	B-Ph14	B-Ph15	B-Ph16	

Term	0.00000e+00	0.00000e+00	0.00000e+00	0.00000e+00	0.00000e+00	0.00000e+00	0.00000e+00	0.00000e+00	0.00000e+00	0.00000e+00	0.00000e+00	0.00000e+00	0.00000e+00	0.00000e+00	0.00000e+00	0.00000e+00	0.00000e+00	0.00000e+00	0.00000e+00	0.00000e+00	0.00000e+00	0.00000e+00	0.00000e+00	0.00000e+00	0.00000e+00	0.00000e+00	0.00000e+00	0.00000e+00	0.00000e+00	0.00000e+00	0.00000e+00	0.00000e+00	-5.38156e+01	-1.31042e+02	-1.24433e+02	-1.81592e+02	-5.12389e+01	-6.77519e+01	-1.57010e+02	-1.62015e+02	-4.49559e+01	-6.47779e+01	-1.71977e+02	-1.70149e+02	-1.79453e+02	-1.77250e+02	-5.57634e+01	-1.50141e+02	
Factor	2.03653e-05	1.65828e-04	4.62255e-05	1.62462e-01	1.69913e-06	1.87841e-06	1.83249e-01	6.39994e-02	1.44152e-06	1.88062e-06	8.71469e-02	2.95149e-02	3.17034e-02	9.42612e-03	1.54103e-06	1.33165e-02	8.12842e-06	1.10171e-05	3.07108e-06	8.26260e-02	1.14284e-07	1.22168e-07	8.76959e-02	3.26199e-02	1.15569e-07	1.22005e-07	4.32266e-02	1.46927e-02	1.64001e-02	4.85771e-03	1.18033e-07	6.63519e-03	X	X	X	X	X	X	X	X	X	X	X	X	X	X	X	X	



#DISTANCE SETTINGS
A = Detector Channel
A-1	A-2	A-3	A-4	A-5	A-6	A-7	A-8	A-9	A-10	A-11	A-12	A-13	A-14	A-15	A-16	

2.5000e+00	3.0000e+00	2.5000e+00	3.0000e+00	2.0000e+00	3.0000e+00	1.5000e+00	3.0000e+00	3.0000e+00	3.0000e+00	3.0000e+00	3.0000e+00	3.0000e+00	3.0000e+00	1.5000e+00	3.0000e+00	

B = Detector Channel
B-1	B-2	B-3	B-4	B-5	B-6	B-7	B-8	B-9	B-10	B-11	B-12	B-13	B-14	B-15	B-16	

1.0000e+01	1.0000e+01	1.0000e+01	1.4400e+00	1.0000e+01	1.0000e+01	1.5100e+00	1.9400e+00	1.0000e+01	1.0000e+01	1.9900e+00	2.4900e+00	2.4100e+00	2.9000e+00	1.0000e+01	2.9800e+00	




#DATA BEGINS
time	group	step	mark	flag	A-AC1	A-AC2	A-AC3	A-AC4	A-AC5	A-AC6	A-AC7	A-AC8	A-AC9	A-AC10	A-AC11	A-AC12	A-AC13	A-AC14	A-AC15	A-AC16	A-DC1	A-DC2	A-DC3	A-DC4	A-DC5	A-DC6	A-DC7	A-DC8	A-DC9	A-DC10	A-DC11	A-DC12	A-DC13	A-DC14	A-DC15	A-DC16	A-Ph1	A-Ph2	A-Ph3	A-Ph4	A-Ph5	A-Ph6	A-Ph7	A-Ph8	A-Ph9	A-Ph10	A-Ph11	A-Ph12	A-Ph13	A-Ph14	A-Ph15	A-Ph16	B-AC1	B-AC2	B-AC3	B-AC4	B-AC5	B-AC6	B-AC7	B-AC8	B-AC9	B-AC10	B-AC11	B-AC12	B-AC13	B-AC14	B-AC15	B-AC16	B-DC1	B-DC2	B-DC3	B-DC4	B-DC5	B-DC6	B-DC7	B-DC8	B-DC9	B-DC10	B-DC11	B-DC12	B-DC13	B-DC14	B-DC15	B-DC16	B-Ph1	B-Ph2	B-Ph3	B-Ph4	B-Ph5	B-Ph6	B-Ph7	B-Ph8	B-Ph9	B-Ph10	B-Ph11	B-Ph12	B-Ph13	B-Ph14	B-Ph15	B-Ph16	aux-1	digaux	

21705.609	1	1	0	768	0.10769	0.14126	0.19427	0.18554	0.25047	0.054306	0.21464	0.27154	0.15241	0.11375	0.10541	0.28883	0.10707	0.16693	0.2348	0.14844	-2.1312	-2.3396	-2.6813	-2.3229	-2.2292	-2.4125	-2.3417	-2.6167	-2.3563	-2.2333	-2.6292	-2.2979	-2.3292	-2.6229	-2.1312	-2.4625	31.839	88.038	-45.579	123.700	183.387	21.540	153.558	119.909	64.284	10.343	18.165	130.018	162.004	143.849	136.434	65.851	0.00040318	0.0006424	0.00011865	1355.4	3.4456e-06	8.118e-06	1356.7	365.96	5.4111e-06	2.9195e-06	419.51	139.55	121.92	41.749	4.5525e-06	51.703	0.00053764	0.00055772	0.00015561	1373.9	6.0409e-06	6.2772e-06	1374.9	373.68	6.1016e-06	6.099e-06	426.62	142.98	124.41	42.904	6.1431e-06	53.057	-79.162	-62.986	-49.137	-135.797	25.656	0.475	-135.772	-131.197	-17.641	-30.901	-131.573	-127.546	-126.640	-122.177	-11.040	-123.103	-8191	255	
21705.705	1	1	0	0	0.14722	0.11279	0.10873	0.34306	0.19611	0.19444	0.21474	0.21067	0.15441	0.16693	0.24353	0.024859	0.23206	0.29153	0.054885	0.18934	-1.9792	-2.1833	-2.4917	-2.4604	-2.3125	-2.6167	-2.2812	-2.4688	-2.4417	-2.2438	-2.4562	-2.6042	-2.3458	-2.6188	-2.1667	-2.5625	54.717	111.675	31.627	210.424	7.294	31.939	154.570	-81.673	-25.902	89.388	130.208	-24.751	196.382	166.773	-71.200	-121.763	0.00042366	0.00057197	0.00015103	1356.9	2.489e-06	7.0736e-06	1354.2	365.74	3.4478e-06	3.8493e-06	419.88	139.36	121.71	41.847	3.1071e-06	51.833	0.00056059	0.00057154	0.00015574	1373	6.1021e-06	6.2011e-06	1374.9	373.19	6.0941e-06	6.2919e-06	427.54	143.03	124.33	42.851	6.2275e-06	53.087	-78.532	-66.650	-63.561	-135.769	-1.597	-22.494	-135.775	-131.149	-32.688	-8.730	-131.687	-127.202	-126.711	-122.228	-15.011	-123.087	-8191	255	
21705.803	1	1	0	0	0.32577	0.1563	0.17373	0.22625	0.17054	0.083082	0.18374	0.26201	0.1286	0.14463	0.283	0.24844	0.32678	0.565	0.21831	0.1727	-1.9021	-2.15	-2.4708	-2.3125	-2.4083	-2.5312	-2.4604	-2.3458	-2.2896	-2.0917	-2.4917	-2.3396	-2.1583	-2.5479	-2.2292	-2.4437	-24.930	-96.502	-2.992	169.639	-114.561	-0.838	193.519	120.468	74.938	-35.167	192.608	204.454	160.523	-132.235	80.016	58.949	0.00044963	0.00032172	0.00018017	1353.5	4.2544e-06	4.477e-06	1351.5	366.08	5.747e-06	4.534e-06	418.8	139.13	120.73	41.456	3.4841e-06	51.648	0.00055263	0.00056784	0.00015889	1372.4	6.0666e-06	6.2481e-06	1372.1	373.18	6.1509e-06	6.2556e-06	425.84	142.63	123.7	42.723	6.3121e-06	52.965	-82.721	-81.396	-21.182	-135.777	41.921	-7.278	-135.967	-131.065	3.981	-3.425	-131.523	-127.190	-126.589	-122.425	-8.419	-123.107	-8191	255	
21705.898	1	1	0	0	0.095861	0.077699	0.060507	0.17209	0.13317	0.15974	0.338	0.12336	0.20483	0.05543	0.062374	0.099622	0.039462	0.1872	0.18073	0.15722	-2.1083	-1.9583	-2.5396	-2.4562	-2.0292	-2.6229	-2.3146	-2.5625	-2.4188	-2.2896	-2.6479	-2.3854	-2.0687	-2.7292	-2.1896	-2.4646	-89.172	158.430	-148.142	132.979	209.312	-113.853	157.083	57.555	188.099	87.185	189.788	-33.003	184.973	-131.425	-60.075	-74.790	0.00042116	0.00042589	0.00015145	1350.8	5.1785e-06	5.5684e-06	1351.4	365.31	3.4362e-06	4.2779e-06	417.27	139.32	120.96	41.675	4.2253e-06	51.581	0.00055363	0.00058604	0.00016036	1370.2	6.4087e-06	6.339e-06	1370.4	372.64	6.167e-06	6.2861e-06	426.01	142.52	123.95	42.778	6.2956e-06	52.967	-80.909	-54.266	-48.567	-135.762	5.557	23.567	-135.911	-131.125	-24.467	6.513	-131.507	-127.418	-126.738	-122.227	-1.830	-122.725	-8191	255	
21705.994	1	1	0	0	0.16028	0.31408	0.2299	0.19373	0.25312	0.43277	0.28072	0.22225	0.14752	0.13191	0.28709	0.18005	0.22301	0.28844	0.17093	0.22789	-2.1271	-1.9271	-2.2771	-2.5667	-2.2042	-2.4062	-2.4708	-2.1417	-2.5958	-2.1667	-2.5458	-2.3187	-2	-2.5583	-2.1917	-2.3937	202.025	182.556	-119.693	183.311	-125.144	38.227	146.115	178.885	-50.640	-78.396	154.094	88.467	176.213	166.458	-19.847	156.342	0.00039167	0.00068089	0.00016451	1351.7	7.3827e-06	6.4991e-06	1350.9	366.37	3.9516e-06	6.2069e-06	418.68	138.67	120.8	41.77	4.0293e-06	51.545	0.00055507	0.00057817	0.00015927	1372.3	6.2437e-06	6.2876e-06	1372.2	373.07	6.1731e-06	6.2797e-06	425.78	142.38	123.93	42.838	6.1652e-06	53.022	-81.155	-49.274	-37.928	-135.883	10.340	-25.018	-135.826	-130.982	-14.276	-1.247	-131.564	-127.555	-126.472	-122.206	13.489	-122.975	-8191	255	
21706.090	1	1	0	0	0.21274	0.21046	0.10493	0.33112	0.11883	0.15216	0.11015	0.26484	0.12211	0.25874	0.033634	0.36977	0.29306	0.032197	0.12881	0.048293	-2.2292	-2.0417	-2.4938	-2.6229	-2.0833	-2.5208	-2.5	-2.15	-2.5687	-2.2854	-2.4771	-2.5854	-2.1583	-2.5312	-2.3792	-2.2375	117.582	-73.482	-19.205	-135.635	-24.052	-27.616	-90.017	195.577	-23.447	208.443	140.818	190.279	150.798	125.016	18.505	134.433	0.00041985	0.00060561	0.00013558	1355.3	4.5779e-06	7.8581e-06	1353.6	366.83	3.1226e-06	7.5237e-06	418.11	139.59	121.11	41.739	2.361e-06	51.692	0.00055018	0.00055896	0.0001576	1373	6.0542e-06	6.2089e-06	1372.5	373.58	6.1102e-06	6.2088e-06	426.53	142.95	124.11	42.881	6.1965e-06	53.119	-79.994	-60.378	-53.382	-135.851	0.118	-21.998	-135.880	-130.941	6.536	13.339	-131.790	-127.320	-126.739	-122.067	0.229	-122.935	-8191	255	
21706.209	1	1	0	0	0.20128	0.20737	0.13247	0.20868	0.32551	0.03688	0.35328	0.23216	0.19313	0.21614	0.10348	0.19086	0.23898	0.1153	0.11381	0.25933	-2.0896	-2.0604	-2.1917	-2.6708	-1.8646	-2.4313	-2.5104	-2.1604	-2.6	-2.0479	-2.4458	-2.5229	-2.2313	-2.5854	-2.425	-2.1437	-107.509	56.719	32.042	202.467	49.832	-49.788	148.289	127.420	4.113	156.514	110.081	-100.729	-64.754	129.061	-22.215	208.339	0.00040721	0.00032412	0.00012865	1352.2	4.5902e-06	4.1744e-06	1358.9	366.28	4.7298e-06	4.9584e-06	417.28	139.11	121.26	41.686	4.5794e-06	51.54	0.00054791	0.00056187	0.00015489	1370.5	6.1342e-06	6.2207e-06	1373	373.27	6.1047e-06	6.1712e-06	426.27	142.86	124.31	42.813	6.2363e-06	52.971	-83.176	-62.451	-52.656	-135.730	-9.769	-16.011	-136.062	-131.125	6.490	14.608	-131.589	-127.411	-126.831	-122.202	-14.330	-123.341	-8191	255	
21706.305	1	1	0	0	0.17654	0.15569	0.19664	0.060687	0.18905	0.11201	0.2951	0.2443	0.14521	0.21452	0.087941	0.11552	0.25226	0.17367	0.04963	0.05263	-2.2062	-2.2417	-2.3438	-2.675	-2.2646	-2.3438	-2.5583	-2.3042	-2.6583	-2.3333	-2.3937	-2.6729	-2.3625	-2.5458	-2.5083	-2.3354	-59.332	199.579	-125.386	-116.804	-83.521	203.000	107.169	56.709	91.625	-84.196	161.406	201.271	209.326	162.729	158.231	-148.363	0.00041814	0.00053126	0.00013969	1356.3	4.3052e-06	4.7042e-06	1353.7	365.56	2.3734e-06	5.7088e-06	416.89	139.19	121.04	41.683	3.7224e-06	51.491	0.00055605	0.00057785	0.00016037	1374.8	6.2752e-06	6.2235e-06	1373	373.1	6.2205e-06	6.356e-06	425.58	142.73	123.98	42.747	6.5021e-06	52.967	-77.301	-58.428	-60.207	-135.865	-7.660	8.530	-135.921	-131.184	-18.383	-5.407	-131.709	-127.348	-126.785	-122.269	9.934	-123.005	-8191	255	
21706.400	1	1	0	0	0.19586	0.063348	0.26157	0.075433	0.19144	0.079663	0.25806	0.26083	0.18472	0.19089	0.23191	0.10151	0.13498	0.31332	0.15092	0.20388	-2.1479	-2.3396	-1.9833	-2.6479	-2.2438	-2.2458	-2.5563	-2.1229	-2.4521	-2.4021	-2.4	-2.6542	-2.2354	-2.5083	-2.5521	-2.1875	45.921	-102.211	99.695	145.720	159.739	159.696	197.567	152.458	200.517	49.928	158.714	155.156	142.469	-144.523	86.668	173.479	0.00040434	0.00063089	0.00012072	1357.2	4.8334e-06	4.3897e-06	1353.3	367.85	5.5178e-06	4.0272e-06	418.73	139.17	121.35	41.661	3.481e-06	51.767	0.00055885	0.0005829	0.00016332	1374.5	6.3759e-06	6.38e-06	1374.9	373.34	6.4695e-06	6.5502e-06	426.41	142.51	123.96	42.737	6.4318e-06	53.036	-82.227	-60.291	-65.912	-135.647	-9.624	25.400	-135.795	-131.012	-31.359	-30.720	-131.460	-127.265	-126.673	-122.203	16.110	-123.010	-8191	255	
21706.498	1	1	0	0	0.061135	0.13132	0.1216	0.22834	0.20186	0.34957	0.33007	0.15474	0.25276	0.11308	0.088797	0.15132	0.29904	0.21359	0.083836	0.37438	-2.0875	-2.2562	-2.4042	-2.6854	-2.2687	-2.2375	-2.7583	-2.3479	-2.3917	-2.4396	-2.175	-2.4708	-2.3958	-2.4333	-2.4583	-2.5062	128.752	23.942	74.107	89.098	-2.794	109.547	119.945	-100.302	-109.733	-136.277	-41.269	108.443	198.614	-76.598	28.511	101.160	0.00045137	0.00037905	0.00017152	1353.7	4.4691e-06	7.3238e-06	1349.9	366.26	4.4325e-06	3.2962e-06	417.16	138.75	121.15	41.462	2.2046e-06	51.435	0.00055527	0.000591	0.00016345	1373.4	6.2666e-06	6.4958e-06	1373.1	372.54	6.3235e-06	6.3405e-06	425.38	142.37	123.87	42.719	6.1854e-06	52.903	-82.958	-44.020	-44.695	-135.657	-7.918	0.023	-135.791	-131.255	9.890	-4.388	-131.654	-127.467	-126.579	-122.114	-11.196	-122.853	-8191	255	
21706.594	1	1	0	0	0.12002	0.10569	0.04854	0.19482	0.1128	0.060531	0.23912	0.27049	0.1734	0.10352	0.11392	0.15551	0.2948	0.34538	0.10183	0.067207	-1.9417	-2.4521	-2.1333	-2.5687	-2.4208	-2.1396	-2.7354	-2.3604	-2.3667	-2.4333	-2.2271	-2.6333	-2.4	-2.0271	-2.6562	-2.3771	-58.686	-38.069	2.110	165.346	59.472	-33.240	185.479	-129.773	78.877	76.641	114.373	-126.562	-135.887	160.853	136.602	-35.296	0.00040627	0.00062851	0.00012584	1357.7	6.0591e-06	6.7323e-06	1355.7	366.05	5.1585e-06	4.9648e-06	419.69	139.01	120.11	41.648	3.9708e-06	51.389	0.00054545	0.00057555	0.00016414	1373	6.3821e-06	6.2723e-06	1373.2	372.68	6.1386e-06	6.1905e-06	425.55	142.4	123.56	42.658	6.1783e-06	52.927	-79.374	-55.360	-30.085	-135.912	-31.681	4.529	-135.941	-131.115	-5.623	-24.309	-131.839	-127.335	-126.691	-122.201	7.027	-123.137	-8191	255	
21706.689	1	1	0	0	0.28116	0.062084	0.15091	0.075489	0.19166	0.27133	0.22157	0.10115	0.13467	0.29378	0.38583	0.23411	0.17264	0.18554	0.25909	0.26517	-1.8062	-2.3771	-1.9771	-2.7375	-2.2833	-1.9625	-2.625	-2.3229	-2.2792	-2.5521	-2.1396	-2.5458	-2.3958	-2.2417	-2.5479	-2.4229	-134.614	166.056	112.214	177.299	-48.884	-131.181	127.574	185.321	155.261	149.951	172.554	114.799	-147.908	12.064	185.130	144.326	0.00042205	0.00052188	6.0432e-05	1353.9	3.401e-06	5.3943e-06	1349.9	365.49	4.9954e-06	3.4324e-06	417.13	138.52	120.2	41.424	5.236e-06	51.219	0.00055471	0.00057443	0.00016012	1371.5	6.3571e-06	6.3459e-06	1370.7	372.52	6.3859e-06	6.3486e-06	424.23	141.87	123.34	42.525	6.287e-06	52.711	-81.458	-62.161	-48.724	-135.668	8.177	-0.804	-135.771	-131.121	6.855	-26.272	-131.664	-127.265	-126.710	-122.198	-26.087	-123.102	-8191	255	
21706.811	1	1	0	0	0.19606	0.26141	0.16271	0.13744	0.12326	0.19567	0.19697	0.23258	0.24737	0.13901	0.16646	0.078456	0.091735	0.15229	0.25201	0.082877	-1.8479	-2.4729	-2.2479	-2.5833	-2.2646	-2.0646	-2.7771	-2.3333	-2.2854	-2.4437	-2.1271	-2.3917	-2.5146	-2.2792	-2.4229	-2.4146	125.482	59.626	-117.074	131.999	56.315	-47.765	98.426	150.611	138.898	-136.922	66.063	-137.009	20.392	199.459	3.868	114.378	0.00040904	0.00062668	0.00014651	1350.6	2.7121e-06	8.2968e-06	1345.2	365.35	3.8353e-06	3.313e-06	418.44	137.89	120.58	41.504	4.1415e-06	51.363	0.00055632	0.00059212	0.00016318	1368.5	6.3135e-06	6.5419e-06	1368.2	371.93	6.3488e-06	6.2274e-06	424.7	141.8	123.6	42.637	6.3546e-06	52.749	-76.852	-67.205	-63.847	-135.775	-20.992	20.271	-135.948	-131.130	17.426	-3.808	-131.733	-127.108	-126.857	-122.227	3.117	-123.314	-8191	255	
21706.906	1	1	0	0	0.3267	0.13366	0.10429	0.2569	0.23892	0.17568	0.21008	0.24902	0.18909	0.083286	0.30611	0.14774	0.12556	0.44648	0.22112	0.084335	-1.675	-2.6708	-2.1708	-2.4938	-2.5438	-1.9646	-2.5896	-2.3146	-2.1813	-2.3854	-2.2729	-2.4437	-2.4979	-2.0187	-2.4562	-2.4896	57.265	29.740	160.879	161.519	-133.743	-23.311	202.666	181.705	51.973	-89.301	91.678	158.614	147.185	-127.269	-103.813	-71.031	0.0004	0.00059219	0.00010994	1355.6	4.1093e-06	5.4994e-06	1349.1	364.94	6.0185e-06	6.0162e-06	418.04	138.35	120.56	41.487	2.2322e-06	51.172	0.00056692	0.00058799	0.00016391	1371	6.3806e-06	6.3477e-06	1368.6	371.64	6.363e-06	6.4353e-06	424.1	141.86	123.38	42.584	6.3189e-06	52.679	-80.830	-70.335	-42.330	-135.580	12.018	-1.512	-136.005	-131.130	3.027	-19.911	-131.841	-127.206	-126.810	-122.138	43.752	-122.914	-8191	255	
21707.004	1	1	0	0	0.032974	0.35422	0.11619	0.26803	0.030532	0.1601	0.51618	0.18292	0.12662	0.1707	0.34879	0.29604	0.15681	0.31434	0.1596	0.25543	-1.7229	-2.5229	-2.0104	-2.4104	-2.3167	-2.1271	-2.5479	-2.3917	-1.9708	-2.3854	-2.3667	-2.4167	-2.5125	-2.1104	-2.4271	-2.3604	167.447	-103.165	-136.383	203.546	186.947	-18.284	173.552	200.776	125.724	-137.002	169.329	78.843	185.656	172.488	-62.686	151.252	0.00041729	0.0004395	0.00012059	1349	3.535e-06	7.4814e-06	1351.7	363.74	3.977e-06	5.4727e-06	417.02	137.98	120.52	41.356	2.8506e-06	51.331	0.00057183	0.00057899	0.00016211	1369.2	6.3011e-06	6.5739e-06	1370	371.59	6.4832e-06	6.3389e-06	424.69	141.68	123.26	42.498	6.4136e-06	52.746	-76.671	-64.881	-55.721	-135.713	-9.497	0.148	-135.659	-131.093	16.921	-6.923	-131.767	-127.425	-126.549	-122.345	-14.281	-123.032	-8191	255	
21707.098	1	1	0	0	0.31758	0.29526	0.28523	0.36728	0.29456	0.10238	0.056766	0.13026	0.19377	0.086559	0.012741	0.029758	0.20429	0.21825	0.27016	0.059318	-1.625	-2.3812	-2.2896	-2.4542	-2.6875	-2.1167	-2.5563	-2.5417	-1.8708	-2.45	-2.4708	-2.1354	-2.6188	-2.2667	-2.2208	-2.525	-5.476	73.983	104.736	-116.790	112.115	138.642	60.953	103.579	114.554	176.017	-144.231	-140.922	-98.616	184.817	-133.280	37.860	0.00039536	0.00029076	0.00012608	1352.2	3.5052e-06	5.4061e-06	1350.4	365.01	3.571e-06	2.8491e-06	416.6	139.23	120.11	41.503	5.5538e-06	51.461	0.00056623	0.00057369	0.00016542	1371.1	6.3468e-06	6.435e-06	1371.7	371.92	6.4567e-06	6.4088e-06	424.72	142.38	123.4	42.613	6.4591e-06	52.816	-79.640	-65.345	-58.302	-135.814	5.398	17.093	-135.702	-131.253	-8.478	11.413	-131.955	-127.230	-126.889	-122.385	26.586	-122.947	-8191	255	
21707.195	1	1	0	0	0.066089	0.1615	0.21167	0.20678	0.16253	0.1078	0.11638	0.1193	0.030031	0.14952	0.051556	0.17188	0.26846	0.31368	0.16252	0.16771	-1.6375	-2.3771	-2.2333	-2.2729	-2.5187	-2.0167	-2.2562	-2.4208	-2.1771	-2.4313	-2.3438	-2.0896	-2.5563	-2.5167	-2.2396	-2.6833	-64.308	53.699	-131.120	191.796	-58.881	176.596	148.682	104.722	-106.954	-13.688	164.775	208.723	200.205	-148.165	165.325	197.394	0.00044503	0.00039649	0.00012586	1355.3	4.2088e-06	5.3164e-06	1350.5	365.1	6.5751e-06	5.3374e-06	416.02	138.64	120.47	41.211	2.843e-06	51.152	0.00056552	0.00059364	0.00016604	1373.1	6.4399e-06	6.6304e-06	1369.8	372.43	6.6421e-06	6.5497e-06	424.16	141.95	123.32	42.47	6.5939e-06	52.619	-83.584	-103.500	-52.525	-135.851	-4.813	-1.120	-135.708	-131.436	-22.485	2.037	-131.704	-127.346	-126.821	-122.273	4.351	-122.963	-8191	255	
21707.289	1	1	0	0	0.24076	0.33121	0.12371	0.36819	0.10785	0.30872	0.059606	0.15621	0.17324	0.17867	0.24371	0.11442	0.19628	0.20565	0.081695	0.059868	-1.5063	-2.5208	-2.4562	-2.3708	-2.4854	-2.225	-2.2104	-2.5771	-2.2229	-2.2208	-2.5771	-2.2792	-2.4958	-2.1646	-2.0667	-2.6667	142.239	31.560	-39.269	199.350	90.948	-136.014	99.138	-147.177	-92.675	202.880	192.480	-48.990	190.105	200.447	20.015	178.348	0.00040332	0.00064064	0.00014207	1354.1	6.4205e-06	5.4104e-06	1349.4	365.48	3.2763e-06	4.1232e-06	415.6	138.35	120.42	41.501	4.524e-06	51.173	0.00056611	0.00058877	0.00016553	1372.6	6.4425e-06	6.3963e-06	1371.1	371.98	6.4788e-06	6.3112e-06	424.18	142	123.34	42.555	6.4702e-06	52.661	-80.962	-76.202	-66.042	-135.928	4.685	22.256	-135.835	-131.188	29.071	35.263	-131.647	-127.260	-126.665	-122.045	-2.484	-122.980	-8191	255	
21707.387	1	1	0	0	0.097615	0.15159	0.10505	0.12748	0.035837	0.30563	0.25411	0.084623	0.2032	0.18272	0.17412	0.25012	0.10055	0.20495	0.24807	0.14764	-1.6417	-2.3375	-2.3354	-2.225	-2.5104	-2.4375	-2.5833	-2.5687	-2.1792	-2.375	-2.6583	-2.1917	-2.5938	-2.3063	-2.1146	-2.6125	-60.400	6.865	-78.835	201.197	-60.503	139.046	174.908	-113.979	161.966	61.251	89.219	135.095	25.222	72.379	185.955	100.356	0.00041292	0.00061155	0.00011238	1353.3	3.8829e-06	3.6837e-06	1351	364.93	4.3024e-06	4.6987e-06	417.56	138.57	120.02	41.287	4.3389e-06	51.409	0.00055961	0.00057617	0.00016247	1372.5	6.1425e-06	6.2675e-06	1372.5	371.79	6.3137e-06	6.3514e-06	424.78	142.06	123.18	42.537	6.3804e-06	52.814	-83.056	-60.489	-22.449	-135.855	4.529	19.681	-135.735	-131.235	-2.635	-9.802	-131.510	-127.408	-126.696	-122.334	27.705	-123.020	-8191	255	
21707.482	1	1	0	0	0.10722	0.12591	0.11762	0.26915	0.19475	0.11117	0.13587	0.34494	0.093541	0.13431	0.10095	0.019182	0.1284	0.061132	0.12994	0.16284	-1.7104	-2.2458	-2.4667	-2.2021	-2.3542	-2.4646	-2.5271	-2.6667	-2.2313	-2.3125	-2.55	-2.0917	-2.55	-2.4583	-2.1937	-2.5521	-132.986	37.348	-88.319	100.517	-75.543	193.926	-35.556	-143.792	51.087	40.283	164.154	-56.960	184.052	-7.210	19.623	172.880	0.00037441	0.00065846	0.00014863	1355.6	5.7944e-06	5.3708e-06	1354.8	364.7	3.891e-06	4.7209e-06	417.7	138.32	120.69	41.395	3.2507e-06	51.362	0.00056255	0.00058857	0.00016358	1373.5	6.3249e-06	6.4159e-06	1370.7	371.78	6.3669e-06	6.3791e-06	425.33	141.87	123.46	42.503	6.2552e-06	52.698	-79.103	-76.744	-41.012	-135.759	4.907	18.213	-135.936	-131.183	20.535	4.616	-131.802	-127.244	-126.754	-122.151	-3.240	-123.211	-8191	255	
21707.578	1	1	0	0	0.23509	0.18668	0.17954	0.43312	0.1111	0.29415	0.12363	0.14467	0.14363	0.1169	0.37304	0.36251	0.19451	0.16029	0.26078	0.24255	-1.95	-2.1042	-2.3021	-2.225	-2.45	-2.425	-2.3146	-2.4771	-2.2208	-2.2375	-2.725	-2.2583	-2.5042	-2.3771	-2.0458	-2.5479	100.430	103.809	12.344	178.460	37.914	24.813	-141.433	138.708	-144.341	196.536	171.094	114.898	59.213	169.472	204.535	118.174	0.00043544	0.00041089	0.00015464	1352.5	4.5249e-06	3.9137e-06	1349	365.18	2.9391e-06	4.1471e-06	417.72	138.77	120.1	41.615	2.922e-06	51.418	0.00056675	0.00056965	0.00015877	1371.2	6.178e-06	6.3113e-06	1370	372.62	6.2366e-06	6.3809e-06	424.84	141.94	123.34	42.636	6.3084e-06	52.749	-79.329	-64.751	-44.773	-135.706	26.924	3.276	-135.821	-131.110	-2.107	17.335	-131.659	-127.484	-126.749	-122.194	-23.649	-123.038	-8191	255	
21707.699	1	1	0	0	0.27297	0.22169	0.046994	0.38013	0.26642	0.27048	0.07122	0.14166	0.13746	0.1658	0.15292	0.14024	0.12785	0.27018	0.2142	0.27723	-1.7938	-2.0812	-2.4875	-2.1229	-2.3354	-2.5146	-2.275	-2.6583	-2.4833	-2.1646	-2.5312	-2.2417	-2.3563	-2.525	-2.0583	-2.625	-79.397	-79.501	-109.745	150.022	-24.754	155.722	172.123	-80.165	-123.927	208.977	191.376	7.221	10.702	159.083	-124.328	70.344	0.00039026	0.00064494	0.00011302	1353.8	3.6614e-06	4.3687e-06	1354.5	364.31	5.1256e-06	4.7389e-06	416.7	138.64	119.73	41.224	4.2352e-06	51.151	0.00056371	0.00059759	0.0001601	1372.6	6.3511e-06	6.5286e-06	1371	371.64	6.5402e-06	6.3417e-06	424.77	141.91	123.06	42.416	6.4643e-06	52.643	-82.612	-53.395	-52.671	-135.784	-7.449	-23.676	-135.687	-131.158	-1.787	15.647	-131.535	-127.381	-126.226	-122.347	-17.126	-122.828	-8191	255	
21707.770	1	1	0	0	0.19485	0.22896	0.17872	0.18145	0.18661	0.083445	0.12881	0.3215	0.15493	0.29931	0.25205	0.18514	0.13426	0.070487	0.21149	0.079248	-1.9354	-2.2979	-2.5458	-2.1792	-2.2	-2.4437	-2.2896	-2.4583	-2.3917	-2.3	-2.7146	-2.2354	-2.3521	-2.7062	-2.1	-2.475	4.573	-26.392	-33.202	154.927	157.976	88.680	182.972	-109.830	151.829	36.864	173.838	123.977	-44.280	186.724	86.319	158.865	0.00041093	0.00046597	9.0778e-05	1353.2	2.3202e-06	4.2257e-06	1348.8	365.32	3.6341e-06	3.9849e-06	416.53	137.96	119.84	41.317	4.336e-06	51.185	0.00056335	0.00059444	0.00016439	1369.1	6.3518e-06	6.4421e-06	1367.8	371.67	6.299e-06	6.188e-06	424.11	141.67	122.9	42.518	6.1852e-06	52.619	-81.137	-75.219	-56.910	-135.804	9.544	-31.301	-135.867	-131.120	6.195	9.174	-131.547	-127.365	-126.944	-122.060	-10.706	-122.972	-8191	255	
21707.891	1	1	0	0	0.30211	0.14509	0.040261	0.21371	0.058952	0.069182	0.25121	0.099144	0.15091	0.22548	0.16865	0.13157	0.50171	0.14158	0.31345	0.048292	-2.0312	-2.1521	-2.45	-2.4458	-2.2417	-2.7812	-2.1813	-2.5229	-2.4646	-1.9979	-2.5333	-2.275	-2.1271	-2.4271	-2.0854	-2.5	-128.521	168.101	123.129	135.023	-70.860	97.238	135.788	153.839	72.473	-53.511	12.937	-108.898	-148.645	138.555	120.702	22.378	0.00042247	0.00078919	0.0001126	1351.9	3.8019e-06	4.1718e-06	1345.9	365.01	3.9531e-06	4.2026e-06	416.65	138.51	119.51	41.39	5.0284e-06	51.369	0.00055874	0.00057801	0.00015995	1369.5	6.2837e-06	6.4456e-06	1369.2	371.65	6.3341e-06	6.3288e-06	424.2	141.78	123.04	42.516	6.243e-06	52.631	-77.706	-80.276	-63.898	-135.851	-4.073	12.542	-135.705	-131.297	3.937	16.370	-131.608	-127.130	-126.730	-121.850	5.516	-122.839	-8191	255	
21707.986	1	1	0	0	0.33624	0.28766	0.24659	0.23688	0.07556	0.041761	0.35302	0.13589	0.15507	0.095027	0.082676	0.25411	0.086869	0.097465	0.2573	0.16074	-1.8917	-1.9875	-2.3375	-2.525	-2.0792	-2.6583	-2.5625	-2.5229	-2.5354	-2.2229	-2.3833	-2.4208	-2.2646	-2.7729	-2.3271	-2.4021	70.520	113.481	160.898	194.567	115.143	84.409	182.613	179.758	-66.750	55.917	-105.204	184.087	137.124	-135.418	173.999	124.271	0.00042999	0.00049531	0.00011358	1348.8	4.3912e-06	6.2248e-06	1341.8	364.49	6.3803e-06	3.8915e-06	414.83	137.99	119.78	41.221	3.7799e-06	51.211	0.00056027	0.00057805	0.00015657	1367.6	6.4104e-06	6.2336e-06	1366.8	371.62	6.3645e-06	6.1722e-06	423.77	141.92	123.03	42.497	6.2489e-06	52.684	-82.980	-96.492	-75.936	-135.874	-14.892	5.614	-135.861	-131.222	-17.015	38.418	-131.546	-127.173	-126.801	-121.974	22.885	-122.888	-8191	255	
21708.080	1	1	0	0	0.22506	0.20353	0.089093	0.1891	0.10917	0.27577	0.10286	0.1507	0.10668	0.024537	0.28164	0.056581	0.071269	0.027589	0.076628	0.18645	-2.1875	-2.1542	-2.4437	-2.5563	-2.1625	-2.675	-2.6396	-2.2562	-2.7104	-2.2771	-2.6896	-2.6354	-2.15	-2.5333	-2.2562	-2.2833	93.529	-52.952	123.754	178.520	134.018	198.780	175.568	-116.032	83.182	51.191	174.341	190.739	-99.208	145.045	126.308	44.058	0.00041655	0.00040309	0.00013776	1350.6	5.8314e-06	5.4643e-06	1352.2	366.56	5.7952e-06	3.7753e-06	417.6	138.17	120.08	41.278	4.7388e-06	51.291	0.00055498	0.00057298	0.00015899	1368.6	6.2282e-06	6.2682e-06	1370	371.91	6.2215e-06	6.1455e-06	424.74	141.73	123.18	42.568	6.0932e-06	52.77	-85.041	-64.315	-99.966	-135.651	-13.075	15.288	-135.834	-131.027	17.706	-28.402	-131.599	-127.199	-126.643	-122.034	-17.306	-123.040	-8191	255	
21708.180	1	1	0	0	0.24769	0.17579	0.048249	0.22471	0.22703	0.21939	0.082243	0.26613	0.25935	0.099771	0.07614	0.30845	0.29979	0.12616	0.16644	0.095479	-2.0729	-1.975	-2.225	-2.6562	-1.9688	-2.4042	-2.425	-2.1979	-2.5792	-2.2583	-2.3771	-2.6771	-2.2375	-2.5229	-2.4021	-2.3625	80.281	203.103	-110.876	-145.594	117.245	-55.981	-1.035	162.280	47.625	183.441	202.017	180.623	190.568	19.390	-8.314	13.698	0.00038825	0.00054827	0.00012185	1354.8	1.5651e-06	4.1882e-06	1355.8	365.11	4.6623e-06	3.2867e-06	416.83	138.32	120.5	41.506	3.4948e-06	51.417	0.00053918	0.00056352	0.00015542	1371	6.1437e-06	6.1547e-06	1370.5	371.76	6.071e-06	6.1379e-06	424.8	141.88	123.42	42.593	6.0711e-06	52.701	-82.254	-51.069	-67.738	-135.821	34.286	4.629	-135.910	-131.087	-22.702	-17.850	-131.566	-127.288	-126.614	-122.382	31.634	-123.001	-8191	255	
21708.299	1	1	0	0	0.14516	0.13408	0.10814	0.42271	0.11701	0.31353	0.43447	0.14807	0.36675	0.22118	0.17269	0.1592	0.18621	0.062394	0.2022	0.29966	-2.0854	-2.2208	-2.1937	-2.4729	-2.2375	-2.4771	-2.625	-2.1792	-2.4437	-2.1542	-2.275	-2.5667	-1.9771	-2.5833	-2.4062	-2.1104	85.826	111.086	19.808	145.596	-132.440	-26.700	177.161	-17.837	197.787	78.362	92.948	205.666	152.998	14.088	103.430	179.683	0.00040968	0.00079592	0.00016716	1351.1	5.0723e-06	4.1581e-06	1349.6	365.65	5.3014e-06	6.1437e-06	416.7	138.52	120.38	41.662	5.6456e-06	51.39	0.00053053	0.00055632	0.00015572	1369.5	6.1111e-06	6.1364e-06	1369	372.73	6.0679e-06	6.1821e-06	424.83	142.08	123.33	42.719	6.2041e-06	52.905	-82.168	-72.464	-50.508	-135.746	4.752	-13.972	-135.899	-131.133	-20.570	-6.780	-131.600	-127.346	-126.848	-122.262	-19.288	-123.132	-8191	255	
21708.395	1	1	0	0	0.10701	0.067268	0.38708	0.37583	0.12302	0.12491	0.15483	0.30892	0.15134	0.27783	0.12603	0.21057	0.039562	0.17614	0.13666	0.3793	-2.0042	-2.0667	-2.2188	-2.6333	-2.2562	-2.4396	-2.45	-2.1979	-2.4917	-2.2	-2.3438	-2.5812	-2.1188	-2.55	-2.4562	-2.1375	8.690	157.663	-132.026	203.753	8.372	-80.789	193.605	141.987	152.611	-70.310	-136.371	66.566	51.435	118.121	-127.297	171.444	0.00040109	0.00048602	0.00011694	1353.1	8.1837e-06	4.7571e-06	1348.1	364.15	4.7225e-06	3.4369e-06	418.14	137.46	120.76	41.534	2.8558e-06	51.263	0.00054059	0.00056212	0.00015713	1371.4	6.128e-06	6.0964e-06	1368.5	372.02	6.1488e-06	6.1175e-06	424.6	141.66	123.35	42.646	5.9761e-06	52.754	-81.051	-49.221	-39.111	-135.800	-14.833	-7.351	-135.705	-131.183	-1.608	-9.820	-131.668	-127.195	-126.594	-122.211	26.676	-122.908	-8191	255	
21708.467	1	1	0	0	0.045363	0.14716	0.26366	0.078295	0.23531	0.050921	0.20853	0.18366	0.11194	0.1991	0.28446	0.17836	0.054861	0.37036	0.10249	0.16888	-1.9792	-2.3812	-2.0771	-2.7812	-2.175	-2.2854	-2.7729	-1.9625	-2.2958	-2.4104	-2.3625	-2.6104	-2.2292	-2.3417	-2.4271	-2.0979	208.653	-138.474	-31.261	196.653	175.059	58.973	137.484	123.647	-127.417	-16.282	200.260	154.643	75.818	195.582	-32.959	136.082	0.00042306	0.00045853	0.00011692	1354.4	3.2287e-06	3.3178e-06	1348.5	365.09	3.3268e-06	6.432e-06	416.35	138.33	120.7	41.374	4.7862e-06	51.302	0.00054316	0.00056573	0.00015947	1371.4	6.1602e-06	6.3339e-06	1368.5	372.07	6.141e-06	6.2594e-06	424.86	141.96	123.47	42.554	6.1773e-06	52.809	-82.917	-58.476	-75.594	-136.028	26.274	-9.820	-135.857	-131.032	20.257	35.486	-131.615	-127.066	-126.908	-122.313	12.946	-123.045	-8191	255	
21708.588	1	1	0	0	0.19274	0.21176	0.15548	0.17512	0.12715	0.18748	0.10064	0.31161	0.12743	0.069402	0.22748	0.17264	0.038527	0.1435	0.30388	0.23605	-1.9417	-2.4333	-2.0312	-2.5917	-2.4083	-2.2167	-2.7125	-2.0583	-2.2479	-2.4729	-2.3187	-2.5354	-2.4125	-2.3396	-2.5271	-2.1646	2.828	-0.772	138.145	157.607	-39.341	11.996	85.609	205.495	154.565	-125.276	190.780	-107.253	87.018	148.430	-65.664	166.964	0.00039284	0.00024632	0.00015048	1353.8	4.2744e-06	6.9683e-06	1349.5	364.14	4.4874e-06	4.976e-06	416.49	138.48	120.58	41.538	5.0929e-06	51.386	0.00054377	0.00057176	0.00015744	1371.3	6.0423e-06	6.2171e-06	1368	371.7	6.0252e-06	6.1028e-06	424.59	142.12	123.27	42.629	6.1153e-06	52.761	-77.549	-90.214	-65.258	-135.673	2.602	1.368	-135.747	-131.215	-14.118	9.545	-131.758	-127.244	-126.753	-122.309	-8.139	-123.177	-8191	255	
21708.684	1	1	0	0	0.33113	0.18116	0.10544	0.2789	0.22609	0.29817	0.30055	0.16359	0.33235	0.18113	0.22511	0.31159	0.2999	0.078202	0.13282	0.14334	-2.0104	-2.3354	-2.1417	-2.7479	-2.2146	-2.0583	-2.5708	-2.2208	-2.3729	-2.5021	-2.0687	-2.4854	-2.2771	-2.175	-2.3229	-2.2875	-88.193	-144.914	177.830	157.033	3.319	195.235	151.161	157.707	-132.859	92.277	135.875	201.503	11.543	180.977	-48.073	165.676	0.00042014	0.00047475	0.00012811	1348.4	4.4626e-06	5.4871e-06	1345.2	364.49	5.8207e-06	4.4588e-06	414.73	138.17	119.92	41.346	2.9313e-06	51.251	0.00054687	0.00055021	0.00015748	1367	6.1033e-06	6.21e-06	1364.8	370.82	6.2424e-06	6.1059e-06	422.93	141.55	122.91	42.521	6.0979e-06	52.657	-83.702	-37.451	-24.348	-135.729	-62.245	-26.957	-135.713	-130.848	-17.665	-19.317	-131.544	-127.385	-126.928	-122.180	-13.253	-122.809	-8191	255	
21708.779	1	1	0	0	0.15955	0.13828	0.091937	0.15513	0.17969	0.23355	0.21087	0.075437	0.1324	0.11776	0.25182	0.36062	0.061689	0.22793	0.21192	0.14665	-2.0042	-2.4125	-1.9208	-2.5458	-2.3	-2.1937	-2.7313	-2.1875	-2.3792	-2.4688	-2.2042	-2.5479	-2.2396	-2.1854	-2.4208	-2.3333	-145.368	-87.998	32.474	161.495	195.319	88.368	132.970	164.150	-114.223	178.627	161.134	182.210	36.935	134.203	61.393	105.312	0.00043089	0.0005484	0.00015979	1345.2	3.7957e-06	5.5332e-06	1339.4	363.17	3.0051e-06	5.7306e-06	415.66	137.97	119.92	41.108	1.768e-06	51.305	0.00054113	0.00055558	0.00015458	1364.9	6.1875e-06	6.083e-06	1362.8	370.48	6.0751e-06	6.2167e-06	423.39	141.4	122.71	42.34	6.1928e-06	52.579	-79.829	-55.595	-59.272	-135.933	-32.351	13.612	-135.861	-131.159	25.253	-1.012	-131.708	-127.177	-126.928	-122.017	7.711	-122.653	-8191	255	
21708.900	1	1	0	0	0.2329	0.22889	0.041144	0.26211	0.093148	0.34484	0.26858	0.21132	0.12811	0.19288	0.22507	0.25941	0.26097	0.25595	0.095511	0.17703	-1.775	-2.5104	-2.0542	-2.6229	-2.3063	-2.0854	-2.6188	-2.0896	-2.1375	-2.6646	-2.3375	-2.6917	-2.5812	-2.1042	-2.4958	-2.5083	54.395	40.129	-117.498	-121.822	-17.276	-91.988	171.979	-129.193	71.862	-36.279	145.726	132.847	198.600	165.711	-77.470	185.766	0.00041535	0.00065674	0.00020605	1347.4	5.7418e-06	3.6776e-06	1344.9	362.95	4.2613e-06	5.8268e-06	415.7	138.21	120.14	41.222	3.4603e-06	51.231	0.00055204	0.00055999	0.00015903	1364.7	6.1378e-06	6.2873e-06	1365.4	370.96	6.2487e-06	6.132e-06	423.27	141.51	123.04	42.488	6.1643e-06	52.74	-79.317	-64.240	-53.026	-135.814	15.835	9.729	-135.866	-131.317	-4.445	6.263	-131.677	-127.202	-126.710	-122.070	-16.507	-123.027	-8191	255	
21708.994	1	1	0	0	0.24866	0.22296	0.094607	0.0784	0.29674	0.20636	0.14707	0.13036	0.074141	0.082442	0.42209	0.21337	0.2464	0.084588	0.11177	0.049389	-1.85	-2.5875	-2.1688	-2.4354	-2.4917	-2.0646	-2.6521	-2.4542	-2.1229	-2.6375	-2.075	-2.2542	-2.6833	-2.1833	-2.4396	-2.5833	83.609	-34.624	-8.228	-88.740	-60.290	-99.581	-117.175	91.168	-119.173	114.936	166.523	148.277	170.823	-1.105	199.867	192.251	0.00038932	0.00036113	0.00010061	1352.4	4.6077e-06	7.2073e-06	1354.5	364.37	2.5164e-06	4.962e-06	416.42	139.14	120.69	41.483	4.1578e-06	51.429	0.00054403	0.00054828	0.00015362	1370.6	6.0171e-06	6.0667e-06	1371.5	371.78	5.8856e-06	5.8822e-06	424.71	142.36	123.56	42.737	5.9479e-06	52.947	-83.302	-23.027	-58.722	-135.703	-10.841	-17.695	-135.724	-131.363	-25.140	17.148	-131.801	-126.953	-126.729	-122.177	-2.277	-123.272	-8191	255	
21709.066	1	1	0	0	0.10862	0.097017	0.19534	0.17467	0.20075	0.24671	0.21032	0.34202	0.28093	0.19702	0.39473	0.32207	0.14762	0.19839	0.15715	0.16864	-1.6437	-2.6208	-2.1396	-2.4771	-2.3	-2.1937	-2.7229	-2.4375	-2.0896	-2.5771	-2.4646	-2.2708	-2.6583	-2.2583	-2.4042	-2.2646	-28.786	158.629	175.779	-56.619	119.349	177.246	54.994	131.678	47.184	66.278	-106.107	184.051	158.398	-1.269	128.180	81.460	0.00039199	0.0004104	0.00010997	1351.8	4.5719e-06	4.4791e-06	1351.4	364.17	2.8633e-06	6.6101e-06	419.09	138.54	120.37	41.534	3.4775e-06	51.47	0.00053334	0.00053809	0.00015273	1371.1	6.0268e-06	5.9585e-06	1369.6	371.87	6.037e-06	6.097e-06	425.29	142.16	123.49	42.727	6.1266e-06	52.894	-80.861	-75.754	-87.735	-135.871	-7.948	-8.835	-135.929	-131.298	21.062	4.348	-131.748	-127.128	-126.711	-122.056	-1.326	-122.910	-8191	255	
21709.164	1	1	0	0	0.31471	0.049765	0.14632	0.32971	0.13586	0.14861	0.15148	0.20599	0.13341	0.080563	0.070424	0.1849	0.18913	0.29031	0.085716	0.25639	-1.6667	-2.3542	-2.1896	-2.1958	-2.575	-2.2646	-2.5229	-2.5833	-2.0729	-2.4479	-2.3063	-2.2521	-2.5125	-2.2042	-2.2042	-2.5729	45.445	112.749	173.127	183.387	19.230	169.762	179.891	144.271	24.689	-39.145	84.544	-59.734	-127.252	166.573	-105.304	118.407	0.00042341	0.00056524	0.00012839	1353.6	2.5726e-06	7.572e-06	1354.9	364.82	4.4693e-06	3.6319e-06	415.8	138.75	121.02	41.392	1.7253e-06	51.518	0.00054796	0.0005605	0.00015665	1371.9	6.1633e-06	6.1451e-06	1372.6	371.85	6.1695e-06	6.0431e-06	424.78	142.14	123.48	42.636	6.0568e-06	52.922	-80.857	-44.958	-65.487	-135.792	-18.503	-1.307	-135.665	-131.288	9.920	11.913	-131.570	-127.381	-126.906	-122.134	7.444	-122.911	-8191	255	
21709.260	1	1	0	0	0.14227	0.10278	0.10537	0.32408	0.086594	0.10094	0.14886	0.12006	0.29584	0.21577	0.098177	0.080693	0.20629	0.16687	0.12725	0.26708	-1.5208	-2.3792	-2.4188	-2.1854	-2.4083	-2.1958	-2.4062	-2.5938	-2.3229	-2.4896	-2.5187	-2.0771	-2.4875	-2.3021	-2.2042	-2.6667	9.857	18.354	-78.630	145.678	-11.151	-96.418	207.367	-145.749	105.665	65.645	-114.021	-49.403	185.360	45.376	-125.823	170.252	0.00039457	0.0003518	0.00011311	1354.1	4.1984e-06	5.5835e-06	1352.8	364.51	4.2472e-06	6.8341e-06	416.76	138.46	120.13	41.325	7.6012e-06	51.062	0.00054867	0.00056637	0.00015612	1371.7	6.1494e-06	6.1097e-06	1370.6	371.64	6.1502e-06	6.1511e-06	424.25	142.03	123.17	42.507	6.3888e-06	52.698	-87.762	-74.440	-43.870	-135.858	32.734	-21.786	-135.760	-131.141	-9.193	-1.667	-131.733	-127.536	-126.753	-122.290	2.944	-123.204	-8191	255	
21709.379	1	1	0	0	0.16927	0.11788	0.20724	0.28611	0.23572	0.38348	0.33068	0.041852	0.13018	0.17271	0.30482	0.10711	0.15702	0.20315	0.29923	0.065453	-1.6583	-2.1437	-2.2979	-2.3271	-2.4833	-2.2938	-2.3833	-2.6417	-2.1063	-2.5125	-2.7125	-2.1771	-2.5083	-2.3125	-2.2083	-2.5125	-13.336	169.272	-12.810	199.407	-89.639	102.608	147.756	124.901	-110.769	-28.356	2.858	145.771	71.984	-130.166	-128.069	94.884	0.000414	0.00052233	0.0001818	1351.6	4.897e-06	5.7689e-06	1347.7	363.4	4.6877e-06	6.9699e-06	414.57	138.29	119.91	41.176	2.6644e-06	51.096	0.00055825	0.00058937	0.00016043	1371.3	6.3754e-06	6.5419e-06	1370.1	370.72	6.3587e-06	6.4886e-06	422.68	141.55	122.92	42.352	6.557e-06	52.574	-82.130	-59.397	-55.846	-135.951	22.845	9.111	-135.633	-130.959	20.020	24.375	-131.782	-127.078	-126.862	-122.025	-0.179	-123.032	-8191	255	
21709.475	1	1	0	0	0.38679	0.070061	0.30731	0.24043	0.27752	0.22607	0.40122	0.11582	0.15315	0.086936	0.29496	0.11945	0.25292	0.083542	0.24568	0.069841	-1.5688	-2.3604	-2.5563	-2.1958	-2.6833	-2.2375	-2.3375	-2.6854	-2.2104	-2.4292	-2.6125	-2.3688	-2.5125	-2.4896	-2.1208	-2.5896	-106.639	96.692	-41.922	145.001	-82.922	-0.160	145.604	161.071	191.699	-91.860	-49.015	67.423	199.501	21.227	-8.574	-118.674	0.00042203	0.0004104	0.00015892	1349.1	2.9269e-06	5.9408e-06	1349.6	362.58	4.396e-06	5.5486e-06	414.24	137.17	119.27	41.042	2.5831e-06	51.011	0.00055824	0.00058166	0.00016917	1369.1	6.4647e-06	6.6617e-06	1367.1	370.76	6.5653e-06	6.5255e-06	423.36	141.19	122.6	42.257	6.5877e-06	52.437	-85.239	-95.345	-30.767	-135.791	32.356	13.790	-135.961	-131.046	-3.316	3.881	-131.636	-127.429	-126.626	-122.117	2.347	-123.246	-8191	255	
21709.570	1	1	0	0	0.32644	0.016898	0.60492	0.17411	0.35024	0.090953	0.11697	0.19766	0.18226	0.10568	0.1008	0.072495	0.21628	0.35588	0.29676	0.26137	-1.6583	-2.4229	-2.3854	-2.3896	-2.3708	-2.5396	-2.3208	-2.7062	-2.0687	-2.2062	-2.6271	-2.1979	-2.3646	-2.3042	-2.0917	-2.6771	-19.631	-60.472	77.904	208.294	126.086	37.490	-112.998	-139.508	-105.122	-51.344	61.536	57.525	143.848	172.504	-76.460	175.458	0.00039945	0.00049562	0.00013999	1348.3	6.1715e-06	6.4074e-06	1344.1	362.58	3.224e-06	4.2002e-06	414.57	137.49	119.43	41.101	4.749e-06	51.031	0.00057554	0.00060018	0.00016771	1367.7	6.4352e-06	6.7381e-06	1365.9	370.3	6.52e-06	6.5532e-06	422.64	141	122.42	42.26	6.6258e-06	52.402	-79.724	-49.436	-64.519	-135.745	-3.016	27.112	-135.730	-130.954	-32.056	47.334	-131.685	-127.304	-126.846	-122.276	10.244	-122.960	-8191	255	
21709.668	1	1	0	0	0.1585	0.14761	0.16788	0.24166	0.11732	0.073781	0.11554	0.10255	0.15778	0.14379	0.16615	0.15449	0.24246	0.21669	0.17816	0.26465	-1.9312	-2.1896	-2.475	-2.3146	-2.3042	-2.3396	-2.2333	-2.5604	-2.2313	-2.1271	-2.7	-2.375	-2.4479	-2.4417	-2.0979	-2.6542	-119.308	135.613	3.058	148.995	-125.887	-144.496	4.104	208.540	26.615	-75.805	92.162	99.937	106.941	193.923	106.001	-139.244	0.00040748	0.00042813	0.00012281	1346	1.1302e-06	6.1011e-06	1347.5	363.99	4.9429e-06	6.3494e-06	415.69	137.58	119.17	41.154	4.5265e-06	50.883	0.00057502	0.00060477	0.00016259	1367.3	6.3925e-06	6.5658e-06	1367.2	370.85	6.5429e-06	6.6785e-06	423.25	141.23	122.7	42.397	6.5661e-06	52.45	-78.457	-62.806	-56.485	-135.647	-50.921	13.446	-135.825	-131.053	17.950	-25.773	-131.740	-127.225	-126.703	-121.933	2.719	-123.104	-8191	255	
21709.764	1	1	0	0	0.10659	0.12657	0.17132	0.13226	0.20765	0.31114	0.20174	0.14834	0.16227	0.124	0.41101	0.13594	0.24789	0.016006	0.37877	0.10038	-1.8375	-1.975	-2.5625	-2.3292	-2.4208	-2.4667	-2.1813	-2.5292	-2.3604	-2.3187	-2.6958	-2.2812	-2.0896	-2.5958	-1.9875	-2.6396	149.482	-51.320	60.482	209.812	-137.126	-71.719	187.378	159.542	102.828	-49.236	159.012	143.026	116.485	204.676	54.949	184.482	0.00041198	0.00053803	0.00013004	1354.2	4.0722e-06	5.8002e-06	1354.8	362.92	3.7815e-06	5.5807e-06	415.96	137.97	119.86	41.159	3.1018e-06	51.364	0.00057861	0.00060548	0.00016696	1372.2	6.4899e-06	6.6174e-06	1371.8	370.88	6.5178e-06	6.6323e-06	423.99	141.66	123.19	42.461	6.6204e-06	52.735	-80.710	-71.380	-68.205	-135.629	-1.240	5.210	-135.848	-131.054	7.326	3.281	-131.716	-127.416	-126.737	-122.175	8.842	-122.952	-8191	255	
21709.859	1	1	0	0	0.20013	0.17706	0.077512	0.1508	0.23647	0.11679	0.56431	0.30704	0.11851	0.32319	0.14858	0.21182	0.045352	0.16475	0.10348	0.25015	-2.0917	-2.0333	-2.5333	-2.2188	-2.1146	-2.3625	-2.2146	-2.6167	-2.2875	-2.0875	-2.7729	-2.3625	-2.5125	-2.4833	-2.0938	-2.4958	13.104	65.875	118.674	170.468	45.646	113.632	164.253	125.894	-140.702	-128.782	173.049	128.782	156.256	194.273	-144.471	207.019	0.00042837	0.00050711	0.00015629	1350.3	5.8669e-06	5.3701e-06	1347.4	363.43	4.3828e-06	3.9171e-06	414.86	138.13	119.89	41.379	3.2571e-06	51.139	0.00057136	0.00059825	0.000164	1371.3	6.4018e-06	6.4658e-06	1370.7	371.31	6.5135e-06	6.4386e-06	423.55	141.96	123.19	42.529	6.5152e-06	52.71	-83.834	-58.186	-49.123	-135.804	3.500	21.979	-135.754	-131.160	-2.884	20.733	-131.751	-127.523	-126.674	-122.160	24.975	-122.866	-8191	255	
21709.980	1	1	0	0	0.35357	0.28517	0.12501	0.2433	0.24866	0.050608	0.38804	0.22001	0.16276	0.13141	0.29586	0.13741	0.31218	0.06635	0.29403	0.27599	-1.9854	-2.2125	-2.3771	-2.3937	-2.2396	-2.6521	-2.3083	-2.3812	-2.5708	-1.9896	-2.7625	-2.3292	-2.3708	-2.6333	-2.15	-2.4729	-74.324	14.707	7.494	178.985	131.950	21.830	117.543	-14.081	147.806	52.409	-135.678	44.473	119.865	-28.762	72.633	110.130	0.0004252	0.00025853	0.00012818	1349.9	7.7835e-06	6.2119e-06	1345.7	363.91	4.9167e-06	8.0177e-06	414.66	137.96	119.9	41.275	2.7888e-06	51.136	0.00058064	0.00058026	0.00016359	1370	6.5144e-06	6.4009e-06	1367.2	371.09	6.5776e-06	6.5804e-06	423.96	141.74	123.03	42.492	6.4933e-06	52.63	-77.854	-56.175	-85.202	-135.810	3.982	11.044	-135.826	-131.008	16.026	22.853	-131.481	-127.218	-126.757	-122.093	-0.650	-123.212	-8191	255	
21710.074	1	1	0	0	0.033517	0.26278	0.13229	0.22495	0.025783	0.15309	0.32532	0.26471	0.14483	0.21884	0.24589	0.11392	0.14685	0.28899	0.13222	0.44131	-2.1688	-2.2083	-2.5521	-2.3438	-2.0521	-2.6979	-2.2667	-2.3583	-2.4958	-2.1354	-2.4062	-2.4896	-2.2167	-2.6562	-2.2104	-2.5667	-59.147	109.957	117.101	151.605	-71.387	-107.337	186.340	178.921	-99.920	35.957	197.981	26.915	153.484	159.641	188.484	-90.961	0.00041007	0.00040685	0.000177	1352.4	5.1383e-06	4.88e-06	1349.6	364.49	2.5897e-06	5.9243e-06	415.98	137.48	119.8	41.354	3.7875e-06	51.154	0.00057444	0.00060615	0.00016492	1370.7	6.6301e-06	6.6785e-06	1369.4	371.48	6.6154e-06	6.7291e-06	423.89	141.39	122.93	42.481	6.6499e-06	52.659	-81.511	-49.428	-43.430	-135.662	1.981	-10.850	-135.927	-131.078	-22.740	15.870	-131.850	-127.409	-126.993	-122.219	-35.861	-123.175	-8191	255	
21710.172	1	1	0	0	0.12139	0.26039	0.18725	0.2123	0.20694	0.13521	0.1122	0.28136	0.051394	0.021961	0.10682	0.11323	0.15917	0.22271	0.14015	0.26251	-2.0083	-2.2354	-2.2229	-2.5687	-1.9667	-2.4583	-2.5042	-2.2271	-2.4042	-2.2188	-2.3979	-2.4542	-2.0729	-2.6437	-2.3458	-2.2979	-72.779	81.462	-107.921	153.555	138.736	175.135	199.422	133.737	-56.775	-76.942	150.932	199.004	-138.572	-138.357	175.804	152.027	0.00039965	0.00067134	0.00011504	1349.7	5.1221e-06	5.8418e-06	1345.7	363.08	4.254e-06	5.7481e-06	415.21	137.56	119.73	41.176	4.2681e-06	51.022	0.00057119	0.00061143	0.00016701	1370.6	6.6387e-06	6.6062e-06	1369	370.76	6.5826e-06	6.7126e-06	423.38	141.43	123.01	42.466	6.8639e-06	52.607	-81.123	-38.704	-63.035	-136.063	-9.613	-1.465	-135.796	-131.090	-3.560	37.736	-131.794	-127.245	-126.821	-122.135	14.059	-122.882	-8191	255	
21710.291	1	1	0	0	0.44514	0.11518	0.27302	0.081734	0.090169	0.13024	0.45624	0.14069	0.077625	0.24525	0.2469	0.34624	0.071795	0.30934	0.23492	0.19425	-2.1792	-2.1458	-2.3979	-2.6333	-2.1729	-2.4604	-2.3896	-2.2375	-2.5708	-2.3396	-2.3542	-2.4896	-2.2396	-2.5083	-2.2521	-2.2729	-33.317	-32.680	187.340	-117.385	-40.795	137.833	156.654	124.750	-73.622	-122.639	173.583	150.002	-86.350	-134.697	66.909	170.783	0.00044439	0.00059734	0.00011298	1354.6	5.4453e-06	5.8962e-06	1348.2	363.04	6.3121e-06	4.9069e-06	416.9	137.44	119.45	41.077	5.9678e-06	51.092	0.00057143	0.00060713	0.00016765	1372.9	6.6406e-06	6.6292e-06	1370.5	370.83	6.8275e-06	6.766e-06	423.95	141.47	122.78	42.398	6.69e-06	52.586	-85.058	-57.722	-38.046	-135.805	26.310	6.542	-135.884	-131.271	11.649	-17.837	-131.533	-127.401	-126.657	-122.011	11.984	-123.095	-8191	255	
21710.363	1	1	0	0	0.2569	0.14154	0.063232	0.43962	0.34345	0.1557	0.13166	0.33329	0.17276	0.043244	0.18617	0.13925	0.16587	0.11518	0.13461	0.20877	-1.925	-2.2	-2.3083	-2.5667	-2.1604	-2.5062	-2.5292	-2	-2.5229	-2.2812	-2.3458	-2.7208	-2.0812	-2.5333	-2.5417	-2.1583	-124.140	122.380	122.888	183.934	150.690	-40.824	178.157	143.635	46.581	70.938	183.046	-66.133	-130.991	-143.262	-124.136	159.630	0.00039376	0.00058079	0.00011442	1348.6	4.0354e-06	2.658e-06	1345.8	362.43	4.3842e-06	3.9088e-06	415.08	137.66	120.04	41.156	3.2731e-06	51.137	0.00059305	0.0006103	0.00017165	1369.5	6.6301e-06	6.7959e-06	1368.6	370.58	6.5491e-06	6.648e-06	423.72	141.31	122.77	42.369	6.7559e-06	52.667	-79.717	-33.822	-50.672	-135.778	4.946	-33.342	-135.781	-131.266	-1.075	-8.696	-131.715	-127.346	-127.004	-122.276	-11.602	-122.892	-8191	255	
21710.459	1	1	0	0	0.2521	0.10033	0.15547	0.10558	0.054232	0.25529	0.18409	0.13096	0.13903	0.10859	0.15685	0.19618	0.15966	0.036241	0.15716	0.17863	-1.9917	-2.2229	-2.1312	-2.6708	-1.9875	-2.3812	-2.4354	-2.1583	-2.3708	-2.4625	-2.2729	-2.6479	-2.3312	-2.325	-2.3917	-2.1208	131.752	-116.127	-117.093	150.843	-74.984	-138.903	149.518	131.500	-35.152	210.457	166.888	146.789	-76.000	-46.982	166.824	197.886	0.00045479	0.00016099	5.4168e-05	1349.7	4.229e-06	4.3446e-06	1350.5	364.54	4.8357e-06	5.9152e-06	415.45	137.24	119.66	41.36	5.4783e-06	51.322	0.0005835	0.00060089	0.00016723	1369.6	6.5018e-06	6.6124e-06	1370	372.08	6.7695e-06	6.7159e-06	423.53	141.33	123	42.493	6.7849e-06	52.595	-81.142	-35.947	-59.631	-135.870	24.808	19.613	-135.923	-131.023	1.487	2.693	-131.557	-127.488	-126.837	-122.065	6.080	-122.820	-8191	255	
21710.555	1	1	0	0	0.18901	0.091563	0.098378	0.1645	0.29092	0.17401	0.21743	0.43515	0.14818	0.060555	0.084041	0.13363	0.12171	0.32222	0.054715	0.22114	-1.9146	-2.3396	-2.05	-2.55	-2.1542	-2.4062	-2.5542	-2.1	-2.4458	-2.3604	-2.0812	-2.5312	-2.2083	-2.3958	-2.4271	-2.1562	53.919	69.978	-72.089	186.048	-23.761	106.181	-21.015	192.275	-47.310	122.480	191.457	159.158	-140.760	194.564	119.712	184.962	0.00039355	0.00031873	0.00017939	1350.2	4.4731e-06	3.9573e-06	1347.4	362.47	1.9574e-06	5.3816e-06	413.95	137.45	119.35	40.914	5.5393e-06	50.67	0.0005844	0.00061622	0.00017368	1369.8	6.8363e-06	7.0203e-06	1366.3	370.25	6.756e-06	6.9047e-06	422.67	140.93	122.42	42.185	7.0576e-06	52.274	-83.427	-45.442	-33.245	-135.775	17.455	-5.060	-135.867	-131.023	-17.007	0.726	-131.773	-127.327	-126.826	-122.266	15.639	-123.100	-8191	255	
21710.676	1	1	0	0	0.22023	0.09874	0.10645	0.17434	0.074206	0.012297	0.14809	0.15788	0.17918	0.21823	0.25825	0.25899	0.16635	0.12034	0.17088	0.049793	-2.0062	-2.3375	-2.3083	-2.4375	-2.2292	-2.4042	-2.6833	-2.4146	-2.4229	-2.5062	-2.1854	-2.4875	-2.2729	-2.2812	-2.5167	-2.3312	-113.574	-99.183	-110.948	144.015	-113.982	54.202	114.353	127.337	197.075	-92.252	19.892	-8.245	-47.170	-8.051	102.591	35.521	0.00040876	0.00062574	0.00015054	1346.2	5.6602e-06	5.9437e-06	1343.7	362.22	4.7368e-06	2.8049e-06	411.79	137.1	118.46	40.939	4.105e-06	50.914	0.00059807	0.00063364	0.00018402	1366.1	6.953e-06	7.172e-06	1364.1	369.47	6.9214e-06	6.9469e-06	421.89	140.62	121.88	42.167	7.0495e-06	52.318	-80.632	-61.960	-37.553	-135.892	-17.826	3.446	-135.830	-131.192	-5.328	-38.560	-131.628	-127.237	-126.901	-122.254	33.843	-123.027	-8191	255	
21710.771	1	1	0	0	0.33383	0.18211	0.11805	0.23332	0.1329	0.45205	0.32308	0.4756	0.30515	0.10737	0.20749	0.37938	0.11445	0.079048	0.1514	0.32202	-1.9688	-2.2792	-2.0333	-2.7208	-2.1396	-2.1271	-2.65	-2.1583	-2.5312	-2.4979	-2.2042	-2.7146	-2.3	-2.2021	-2.3646	-2.2208	-30.342	-4.197	-136.831	152.029	-109.595	-86.910	130.112	143.469	-42.470	160.318	197.357	-126.198	166.235	59.839	99.951	108.546	0.0004338	0.00034579	0.00013049	1346.3	6.005e-06	3.5321e-06	1348.8	362.95	5.3712e-06	2.7233e-06	414.69	137.68	119.34	41.14	5.9587e-06	51.071	0.00060001	0.00064152	0.00017872	1365.2	6.8573e-06	6.7424e-06	1365.2	369.97	6.6154e-06	6.7512e-06	422.33	140.96	122.42	42.275	6.6472e-06	52.473	-82.489	-75.154	-67.090	-135.902	-1.123	-20.252	-135.766	-131.221	-1.342	-27.250	-131.652	-127.287	-126.943	-122.371	6.735	-123.117	-8191	255	
21710.867	1	1	0	0	0.31489	0.09394	0.18486	0.17361	0.096708	0.17389	0.30461	0.20456	0.048914	0.055242	0.2463	0.31922	0.11103	0.10345	0.25756	0.18228	-1.7479	-2.3583	-2.0187	-2.5854	-2.375	-2.1792	-2.7167	-2.2667	-2.4083	-2.6521	-2.1562	-2.4104	-2.4146	-2.2583	-2.4813	-2.2896	103.306	81.386	86.736	138.307	7.007	209.958	159.419	189.533	-38.324	-48.093	-112.263	149.568	35.087	38.145	-10.333	14.808	0.00041925	0.00060102	0.00012313	1344.4	2.735e-06	4.5166e-06	1343.4	362.7	4.6831e-06	6.9924e-06	413.12	137.59	119.05	41.236	3.6549e-06	50.956	0.00057597	0.00061666	0.00016764	1365.9	6.6687e-06	6.7979e-06	1363.8	370.46	6.8544e-06	6.9612e-06	421.92	140.99	122.17	42.3	6.7001e-06	52.479	-87.337	-87.565	-37.039	-135.639	17.354	-3.699	-135.734	-131.088	-11.778	37.001	-131.331	-127.183	-127.009	-122.144	16.168	-123.050	-8191	255	
21710.939	1	1	0	0	0.16883	0.082201	0.11316	0.22844	0.23625	0.27671	0.23452	0.073992	0.085641	0.096266	0.28522	0.44546	0.13145	0.43315	0.14896	0.12957	-1.7062	-2.4938	-2.1271	-2.5	-2.3063	-2.0563	-2.7792	-2.4188	-2.2625	-2.9333	-2.1729	-2.5042	-2.4833	-2.2146	-2.4542	-2.3896	-91.235	193.040	125.021	208.171	-67.414	52.961	141.008	127.221	172.606	5.846	163.156	130.052	-70.375	-55.115	62.198	74.466	0.00042281	0.00034181	9.9418e-05	1344.1	4.8996e-06	3.8163e-06	1345.5	362.7	4.8468e-06	5.2718e-06	414.32	137.86	119.7	41.369	3.426e-06	51.236	0.00058326	0.00061269	0.00017073	1367	6.6868e-06	6.8559e-06	1369.2	370.6	6.7695e-06	6.8514e-06	423.45	141.48	122.93	42.481	6.7416e-06	52.715	-83.655	-37.621	-52.430	-135.874	4.491	12.228	-135.805	-131.110	17.740	-12.187	-131.749	-127.104	-126.696	-122.349	26.798	-123.192	-8191	255	
21711.061	1	1	0	0	0.11178	0.13147	0.36108	0.34498	0.0067187	0.4975	0.22182	0.092807	0.15788	0.21498	0.035759	0.12056	0.30036	0.10746	0.11219	0.2726	-1.6271	-2.6167	-2.1562	-2.5292	-2.6083	-2.1958	-2.725	-2.475	-2.2958	-2.6063	-2.5521	-2.3667	-2.6146	-2.2604	-2.5062	-2.5625	-130.414	62.106	-78.387	150.344	-76.610	124.706	147.502	-119.303	128.634	119.424	14.854	-95.650	-5.460	139.919	70.546	10.324	0.00041194	0.00037288	0.00018373	1347.7	5.147e-06	7.9656e-06	1351.6	363.53	4.6505e-06	3.3132e-06	416.33	138.32	120.68	41.376	2.9852e-06	51.371	0.00058645	0.00060771	0.00016874	1369.7	6.5556e-06	6.6129e-06	1370.4	371.53	6.5414e-06	6.6996e-06	424.57	142.03	123.55	42.64	6.4884e-06	52.817	-83.340	-68.307	-49.028	-135.965	-15.382	15.862	-135.735	-131.064	-7.098	-17.543	-131.618	-127.301	-126.739	-122.281	30.660	-123.149	-8191	255	
21711.154	1	1	0	0	0.19019	0.05219	0.10673	0.15576	0.10143	0.20883	0.14385	0.43662	0.37686	0.23959	0.40375	0.058102	0.24397	0.046314	0.17145	0.286	-1.8042	-2.5646	-2.2729	-2.5479	-2.5229	-1.9625	-2.4938	-2.3854	-1.9542	-2.5333	-2.45	-2.4083	-2.525	-2.0812	-2.4333	-2.3688	-143.333	133.615	-37.839	-121.465	-46.129	36.503	7.314	146.535	-137.163	164.724	165.640	-113.178	206.451	187.548	197.923	208.258	0.00039618	0.00061124	0.00011323	1350.4	3.296e-06	4.2729e-06	1351.9	364.83	3.2399e-06	6.1745e-06	417.02	138.93	120.62	41.563	4.6866e-06	51.301	0.00056821	0.00058577	0.00016902	1373.8	6.4537e-06	6.6113e-06	1373.5	372.47	6.6743e-06	6.5372e-06	425.64	142.26	123.72	42.667	6.5784e-06	52.864	-83.561	-66.235	-45.117	-135.723	16.587	10.866	-135.836	-131.184	-22.129	-8.399	-131.943	-127.355	-126.617	-122.151	-20.753	-123.018	-8191	255	
21711.254	1	1	0	0	0.27419	0.10948	0.074459	0.45633	0.23564	0.1606	0.09523	0.26134	0.17843	0.10861	0.12664	0.047145	0.1467	0.065387	0.20002	0.19246	-1.6292	-2.4646	-2.3292	-2.3417	-2.4875	-2.0167	-2.55	-2.5042	-2.2208	-2.4542	-2.5271	-2.4292	-2.6333	-2.2125	-2.3708	-2.5833	137.364	41.197	31.389	160.572	-72.018	-117.045	71.433	130.608	65.398	143.517	203.580	109.646	-33.157	75.823	44.299	87.515	0.00041565	0.00049387	0.00012152	1354.8	4.9496e-06	3.9151e-06	1357.8	364.31	4.4108e-06	5.3687e-06	417.41	138.89	120.54	41.595	4.6464e-06	51.501	0.00057404	0.00059919	0.00016478	1374.7	6.4771e-06	6.4836e-06	1376	371.98	6.5954e-06	6.4762e-06	425.43	142.41	123.82	42.828	6.5803e-06	53.041	-79.700	-76.565	-73.349	-135.850	31.736	5.474	-135.870	-131.105	-18.993	-18.024	-131.571	-127.211	-126.724	-122.087	-3.049	-122.829	-8191	255	
21711.371	1	1	0	0	0.18802	0.29529	0.08742	0.32167	0.15371	0.071283	0.065548	0.0080593	0.1915	0.1114	0.085943	0.13349	0.2424	0.31272	0.052166	0.14638	-1.7021	-2.4042	-2.325	-2.3979	-2.5938	-2.2042	-2.5479	-2.6625	-1.9896	-2.6188	-2.4771	-2.3771	-2.675	-2.2146	-2.1896	-2.5771	-81.158	-107.298	-90.560	97.155	177.582	190.707	-8.085	107.048	190.490	131.546	-50.362	123.058	196.429	-147.744	44.868	114.224	0.00043471	0.00068631	0.00013523	1357.3	2.0263e-06	4.6958e-06	1355.1	364.88	4.57e-06	6.7908e-06	418.9	139.26	121.01	41.58	4.9908e-06	51.534	0.00057177	0.00058381	0.00016773	1378	6.3635e-06	6.5487e-06	1378.6	373.18	6.3876e-06	6.4086e-06	426.38	142.9	124.19	42.844	6.4692e-06	53.163	-80.037	-69.404	-30.323	-135.832	31.559	-2.182	-135.830	-131.061	-19.877	7.336	-131.857	-127.412	-126.955	-122.128	26.402	-123.180	-8191	255	
21711.469	1	1	0	0	0.38764	0.14858	0.13277	0.29229	0.22773	0.051591	0.33351	0.28643	0.13185	0.27541	0.052034	0.19007	0.10223	0.21356	0.2957	0.11814	-1.6625	-2.4854	-2.5104	-2.1667	-2.6271	-2.2083	-2.2438	-2.7104	-2.2271	-2.3708	-2.7292	-2.3563	-2.7812	-2.3	-2.125	-2.7333	-102.609	-93.982	135.714	174.704	167.693	90.740	197.962	100.127	-136.691	171.712	87.091	209.596	121.851	168.691	124.226	137.563	0.00041467	0.00039952	0.00015424	1361.2	4.5493e-06	6.482e-06	1351.8	366.18	4.0552e-06	3.4667e-06	416.18	138.7	120.85	41.558	1.5684e-06	51.492	0.00057676	0.0005826	0.00016491	1378.4	6.304e-06	6.4505e-06	1377.2	373.3	6.5029e-06	6.3562e-06	425.91	142.88	123.86	42.837	6.5835e-06	53.103	-77.946	-81.402	-62.734	-135.646	13.852	13.102	-135.830	-131.236	4.852	-12.558	-131.695	-127.494	-126.595	-122.515	-49.877	-123.104	-8191	255	
21711.564	1	1	0	0	0.14049	0.063507	0.13072	0.28051	0.24922	0.2128	0.25502	0.12501	0.11168	0.081434	0.098429	0.23168	0.16067	0.32722	0.093087	0.16114	-1.6583	-2.3667	-2.5	-2.2042	-2.2792	-2.2896	-2.2542	-2.5687	-2.175	-2.3646	-2.7271	-2.1688	-2.3771	-2.4771	-2.1292	-2.6854	130.706	-1.638	34.412	150.415	128.059	-136.313	129.446	-32.784	193.372	-84.516	76.970	-106.900	-110.766	200.820	-91.444	-144.328	0.00040025	0.00035087	0.00012228	1360.3	4.8338e-06	3.3774e-06	1359.4	367.02	4.4138e-06	4.7606e-06	415.29	139.05	121.82	41.629	4.7989e-06	51.869	0.00056438	0.00059109	0.00016979	1379.9	6.4892e-06	6.6073e-06	1382.1	374	6.4013e-06	6.4843e-06	426.18	143.17	124.61	42.958	6.6998e-06	53.24	-82.887	-75.418	-50.768	-135.817	17.110	1.316	-135.758	-131.052	-8.269	-34.140	-131.663	-127.286	-126.749	-122.054	-20.279	-123.184	-8191	255	
21711.660	1	1	0	0	0.082398	0.15818	0.26965	0.2344	0.092896	0.18717	0.36313	0.28579	0.068782	0.15673	0.1984	0.055132	0.30287	0.20435	0.093258	0.12271	-1.6542	-2.3479	-2.5563	-2.3979	-2.6458	-2.5083	-2.2625	-2.6708	-2.2583	-2.4333	-2.6021	-2.2687	-2.4604	-2.5187	-2.2167	-2.7062	34.798	205.474	148.082	203.790	64.278	-30.916	196.668	191.883	137.638	-123.569	75.289	-64.809	-135.093	207.629	49.493	115.839	0.00042442	0.00059749	0.00014915	1358.5	3.8751e-06	3.2564e-06	1359.8	366.48	3.4227e-06	3.5906e-06	416.69	139.37	121.9	41.622	1.9077e-06	51.719	0.00055927	0.00059547	0.00015846	1380.4	6.279e-06	6.4645e-06	1382	374.33	6.3652e-06	6.3631e-06	426.88	143.07	124.54	42.883	6.6121e-06	53.245	-82.842	-78.151	-53.746	-135.784	5.330	-4.292	-135.804	-131.155	-11.144	-19.332	-131.699	-127.655	-126.845	-122.284	-24.466	-123.063	-8191	255	
21711.756	1	1	0	0	0.23963	0.22904	0.06374	0.33081	0.21522	0.197	0.352	0.42319	0.1567	0.15792	0.13314	0.29398	0.17491	0.06258	0.15434	0.38995	-1.7729	-2.1542	-2.5771	-2.3729	-2.3458	-2.4333	-2.3104	-2.5125	-2.2625	-2.3812	-2.6979	-1.9937	-2.4229	-2.4729	-2.2229	-2.775	-132.327	-28.813	-97.605	164.632	-25.403	-119.233	132.544	133.020	-0.490	-103.022	184.295	104.361	144.086	-78.585	-145.869	168.576	0.0003989	0.00046108	0.00015599	1358.9	4.3907e-06	3.4511e-06	1361.1	366.85	4.6902e-06	6.4818e-06	420.56	139.41	121.19	41.735	4.5774e-06	51.748	0.00056076	0.00060071	0.00016101	1380.8	6.2711e-06	6.4561e-06	1380.9	374.22	6.37e-06	6.465e-06	428.05	143.06	124.07	42.96	6.5572e-06	53.246	-82.273	-96.522	-55.684	-135.786	-6.661	3.653	-135.863	-131.165	6.887	-14.774	-131.791	-127.567	-126.686	-121.920	25.282	-122.985	-8191	255	
21711.852	1	1	0	0	0.24037	0.29288	0.13739	0.025223	0.12172	0.0765	0.21892	0.17932	0.20016	0.22917	0.2411	0.35167	0.29311	0.2833	0.072851	0.26606	-1.8708	-2.05	-2.4792	-2.5333	-2.525	-2.5771	-2.2146	-2.6958	-2.1729	-2.4562	-2.5146	-2.3	-2.5042	-2.4458	-2.1521	-2.5729	79.898	-127.949	41.833	-102.207	84.420	-49.540	173.444	208.238	84.865	-77.642	-84.392	113.677	194.162	210.225	138.940	88.445	0.00040941	0.00054092	0.00011762	1359.2	3.1985e-06	5.2701e-06	1364.3	365.96	5.5045e-06	7.7008e-06	419.21	139.22	121.46	41.775	4.71e-06	51.823	0.00056206	0.00058154	0.00016204	1380.6	6.4373e-06	6.5009e-06	1381.3	373.7	6.5443e-06	6.5944e-06	426.5	143.09	124.21	42.917	6.4827e-06	53.27	-83.291	-45.176	-35.032	-135.849	-7.120	8.925	-135.700	-131.225	-0.743	10.869	-131.762	-127.410	-126.766	-122.301	-13.332	-123.126	-8191	255	
21711.973	1	1	0	0	0.10531	0.10342	0.15489	0.37008	0.31068	0.26458	0.2692	0.0922	0.10188	0.1044	0.12347	0.047754	0.13809	0.25977	0.15921	0.10657	-1.9625	-1.9521	-2.3937	-2.5354	-2.2458	-2.6312	-2.4188	-2.5875	-2.5083	-2.1063	-2.6792	-2.3708	-2.3896	-2.6146	-2.3208	-2.4479	170.721	-136.575	-24.668	208.039	53.647	-73.954	155.858	26.438	7.627	88.550	186.153	-69.141	-130.385	125.452	175.593	126.898	0.00042275	0.00065291	0.00011744	1359.8	3.3776e-06	4.3285e-06	1359.1	368.04	3.3262e-06	3.0598e-06	419.39	139.87	121.02	41.918	4.5719e-06	51.756	0.00056958	0.00061223	0.0001622	1380.6	6.4561e-06	6.3975e-06	1380.4	374.5	6.4658e-06	6.4759e-06	427.52	143.26	124.38	43.049	6.3784e-06	53.23	-79.328	-43.296	-64.981	-135.855	15.875	28.904	-135.983	-130.978	-40.656	-8.792	-131.729	-127.124	-126.861	-122.208	2.148	-123.081	-8191	255	
21712.066	1	1	0	0	0.11172	0.22748	0.22695	0.2271	0.1322	0.36162	0.32151	0.38707	0.11328	0.16295	0.31061	0.21896	0.13794	0.4354	0.049357	0.11205	-2.1583	-2.1188	-2.3875	-2.5	-2.1042	-2.6792	-2.25	-2.5146	-2.4688	-2.2583	-2.5687	-2.3771	-2.3396	-2.7	-2.3104	-2.5563	106.195	193.494	145.109	154.629	165.226	-0.747	163.349	183.490	-125.209	83.948	126.410	173.977	123.535	177.280	59.838	205.564	0.00041006	0.00053263	0.00018774	1362.2	3.7327e-06	5.2904e-06	1358.4	366.47	4.1817e-06	4.4407e-06	418.57	139.41	121.08	41.749	4.1695e-06	51.503	0.00056305	0.00059322	0.00016258	1380.5	6.5309e-06	6.4283e-06	1378.8	373.52	6.4437e-06	6.3971e-06	426.47	143.18	124.28	42.92	6.4726e-06	53.089	-82.806	-60.314	-48.330	-135.828	-1.454	18.780	-135.831	-131.307	-0.301	4.160	-131.807	-127.378	-126.834	-122.051	2.429	-122.563	-8191	255	
21712.164	1	1	0	0	0.095888	0.26113	0.19771	0.12314	0.06465	0.12073	0.27432	0.16256	0.26878	0.096066	0.082394	0.20709	0.086279	0.39423	0.082313	0.13259	-2.0875	-2.0083	-2.4708	-2.525	-2.2104	-2.5542	-2.4292	-2.4333	-2.4562	-2.1542	-2.75	-2.4708	-2.2438	-2.6479	-2.3187	-2.35	154.035	125.906	-70.401	151.639	-134.500	-136.259	191.096	156.413	-90.771	145.356	200.255	128.684	-90.935	79.661	-85.920	55.406	0.00040821	0.00076003	9.8922e-05	1359.8	4.762e-06	3.9991e-06	1359.1	366.91	4.0847e-06	6.3481e-06	419.25	139.16	121.33	41.686	3.9065e-06	51.859	0.00056005	0.00059908	0.00016459	1378.5	6.4273e-06	6.4848e-06	1376.7	373.94	6.5908e-06	6.5705e-06	426.39	143.07	124.1	42.893	6.5872e-06	53.199	-85.691	-78.231	-53.488	-135.750	1.568	0.103	-135.706	-131.209	-29.873	18.333	-131.790	-127.191	-126.985	-122.122	-17.760	-123.115	-8191	255	
21712.236	1	1	0	0	0.21232	0.26146	0.20381	0.27464	0.35181	0.10334	0.26903	0.14774	0.31045	0.21968	0.19564	0.25321	0.19289	0.23757	0.080357	0.12901	-2.2625	-2.0771	-2.3396	-2.5271	-2.0771	-2.7042	-2.4938	-2.2021	-2.3958	-1.9646	-2.5125	-2.5396	-2.1917	-2.6479	-2.2354	-2.2917	-36.052	-92.840	-118.893	141.124	17.661	143.153	192.061	-117.466	-114.518	15.803	-102.093	51.463	116.886	-146.158	-126.004	85.020	0.00041408	0.00045824	0.00019956	1362.3	4.7674e-06	3.8428e-06	1356.2	367.31	3.8803e-06	5.6966e-06	419.03	139.86	121.85	41.887	4.4909e-06	51.958	0.00057514	0.0005971	0.00016695	1379.1	6.5559e-06	6.3744e-06	1378.9	373.74	6.4093e-06	6.3458e-06	426.79	143.22	124.54	42.992	6.4984e-06	53.353	-82.199	-47.290	-65.656	-135.760	-9.141	24.597	-135.788	-131.334	-1.345	17.233	-131.818	-127.282	-126.635	-122.321	3.294	-122.907	-8191	255	
21712.355	1	1	0	0	0.16164	0.056632	0.06565	0.095216	0.039516	0.11212	0.29272	0.090182	0.20918	0.1134	0.43597	0.26585	0.10003	0.14672	0.11003	0.29567	-2.1625	-1.9958	-2.4396	-2.5792	-2.0458	-2.5583	-2.5375	-2.2208	-2.4667	-2.1417	-2.5292	-2.6542	-2.3208	-2.5062	-2.6188	-2.1042	-85.163	-106.483	189.636	136.684	125.995	-71.455	157.576	142.019	95.101	-73.043	189.909	166.462	111.799	-126.592	-94.632	156.100	0.00040338	0.00059206	0.00011287	1366.4	5.1672e-06	5.0676e-06	1356.6	366.81	3.9312e-06	4.7447e-06	421.28	139.98	122.33	42.056	4.6019e-06	51.885	0.00056443	0.00059343	0.00015738	1382.8	6.3692e-06	6.5189e-06	1381.9	375.1	6.4134e-06	6.4452e-06	428.67	143.49	124.94	43.145	6.2415e-06	53.431	-81.811	-67.437	-75.175	-135.890	14.676	-1.698	-135.716	-130.990	-26.262	30.131	-131.514	-127.456	-126.844	-122.068	-21.269	-122.971	-8191	255	
21712.451	1	1	0	0	0.092228	0.15181	0.075873	0.36608	0.33889	0.050206	0.31516	0.31001	0.13698	0.16079	0.14687	0.16047	0.23971	0.20995	0.32105	0.23254	-2.2167	-2.1896	-2.325	-2.7125	-2.0521	-2.4208	-2.6396	-2.375	-2.5792	-2.2854	-2.4208	-2.8833	-2.2167	-2.4688	-2.3979	-2.2396	176.983	-82.458	-142.973	189.773	49.973	200.128	60.653	170.729	-46.744	181.300	68.682	179.147	125.137	-99.693	47.968	140.235	0.0003953	0.00044454	0.00015761	1360.9	3.4858e-06	2.7343e-06	1363.4	367.44	4.646e-06	5.14e-06	419.92	140.15	121.71	42.005	5.3325e-06	51.93	0.0005527	0.00057502	0.00015964	1381.9	6.3316e-06	6.3782e-06	1384.7	375.16	6.2927e-06	6.3893e-06	428.47	143.83	125	43.207	6.3578e-06	53.491	-82.243	-63.492	-59.949	-135.792	-15.397	-26.803	-135.903	-131.267	3.278	-19.169	-131.843	-127.362	-126.567	-122.192	38.112	-123.095	-8191	255	
21712.549	1	1	0	0	0.019033	0.12051	0.08308	0.27844	0.31457	0.23101	0.24726	0.20248	0.15641	0.10419	0.37007	0.21091	0.16093	0.17856	0.13926	0.059508	-2.1146	-2.2583	-2.2167	-2.8375	-2.0354	-2.4125	-2.7188	-2.3438	-2.5646	-2.1771	-2.375	-2.7313	-2.2708	-2.4354	-2.4625	-2.1708	73.320	-139.998	88.291	203.452	72.645	119.140	149.669	154.684	-44.843	66.353	180.486	174.571	117.868	208.430	136.660	103.285	0.0004347	0.00065504	0.0001537	1363.8	3.262e-06	4.6749e-06	1361.4	367.59	5.4493e-06	6.2917e-06	418.46	140.03	121.94	41.947	5.5136e-06	51.898	0.00055634	0.00057507	0.00016417	1383.6	6.3352e-06	6.2866e-06	1383	374.83	6.3544e-06	6.3522e-06	428.12	143.95	125.18	43.183	6.3219e-06	53.385	-81.321	-74.513	-37.852	-135.701	16.536	22.097	-135.840	-131.185	13.293	1.549	-131.706	-127.432	-126.828	-122.431	-4.048	-122.984	-8191	255	
21712.645	1	1	0	0	0.20648	0.083557	0.14544	0.12408	0.15805	0.076624	0.2696	0.18465	0.099108	0.1474	0.26636	0.10651	0.18686	0.37179	0.11972	0.20793	-2.1354	-2.1917	-1.9708	-2.6083	-2.2396	-2.5187	-2.7021	-2.2229	-2.5812	-2.4292	-2.275	-2.4813	-2.3771	-2.4042	-2.6813	-2.2583	128.235	100.872	82.423	-146.605	162.256	-96.816	138.132	106.974	-31.276	94.411	130.072	-143.126	174.744	161.457	-24.083	176.016	0.00042206	0.00037113	0.00012355	1365.5	5.2682e-06	3.5268e-06	1370	368.55	5.4157e-06	5.3537e-06	420.69	139.83	121.59	41.942	3.3216e-06	51.935	0.0005599	0.00058324	0.00016046	1383.9	6.2778e-06	6.38e-06	1384.5	374.81	6.2877e-06	6.4737e-06	427.96	143.83	124.81	43.134	6.3484e-06	53.419	-77.154	-45.251	-69.555	-135.696	-6.378	19.255	-135.816	-131.242	-15.452	32.050	-131.598	-127.355	-126.770	-122.363	-25.028	-122.948	-8191	255	
21712.740	1	1	0	0	0.28861	0.18439	0.2274	0.13918	0.24439	0.27586	0.13616	0.22343	0.14767	0.20205	0.26056	0.22857	0.047574	0.16607	0.078194	0.32257	-1.8979	-2.3333	-2.0604	-2.4958	-2.2625	-2.25	-2.8104	-2.1917	-2.3896	-2.475	-2.2313	-2.6792	-2.3563	-2.2812	-2.525	-2.3104	207.358	-21.622	-62.710	128.653	-96.349	188.336	-104.596	-144.227	76.106	73.659	193.541	50.809	119.102	-138.604	206.283	33.932	0.00043501	0.00065363	0.0001592	1363.6	3.3937e-06	3.9034e-06	1359.8	367.28	3.2703e-06	5.7936e-06	420.16	140.23	121.38	41.851	4.7263e-06	51.784	0.00056166	0.0005871	0.00016468	1383.4	6.2999e-06	6.4892e-06	1383	374.44	6.2752e-06	6.4355e-06	427.73	143.9	124.76	43.102	6.4384e-06	53.321	-82.068	-56.679	-61.453	-135.734	2.234	4.293	-135.719	-131.294	-20.073	1.907	-131.687	-127.154	-126.857	-122.161	-0.596	-122.784	-8191	255	
21712.838	1	1	0	0	0.21372	0.082117	0.21028	0.083124	0.07349	0.17028	0.20895	0.17474	0.18134	0.18099	0.062927	0.07993	0.24163	0.15864	0.14776	0.11891	-1.8875	-2.3333	-2.2833	-2.8125	-2.3187	-2.3438	-2.9542	-2.4146	-2.25	-2.4625	-2.4729	-2.6792	-2.3417	-2.2167	-2.6833	-2.175	107.590	-139.755	34.981	155.593	188.391	-115.581	114.671	-99.973	97.352	-48.078	155.545	151.619	-130.583	126.648	-9.963	189.668	0.00041136	0.00068201	0.00019529	1366.6	2.8644e-06	5.2275e-06	1359.5	366.89	3.6425e-06	7.1826e-06	419.2	139.46	121.95	41.821	4.5276e-06	52.011	0.00056071	0.00057645	0.00016402	1382.4	6.4494e-06	6.5195e-06	1381.8	374.07	6.3734e-06	6.4874e-06	427.34	143.38	124.63	43.033	6.4711e-06	53.305	-82.642	-70.235	-52.854	-135.807	-26.469	-1.940	-135.820	-131.198	0.649	5.064	-131.759	-127.493	-126.513	-122.037	-7.799	-123.104	-8191	255	
21712.934	1	1	0	0	0.1327	0.17556	0.025882	0.25985	0.21273	0.094505	0.26432	0.23732	0.092568	0.1958	0.17082	0.20448	0.10709	0.17573	0.10934	0.093236	-1.8604	-2.5333	-2.1396	-2.6396	-2.4125	-2.2354	-2.6312	-2.475	-2.3063	-2.5125	-2.2958	-2.4437	-2.3812	-2.0396	-2.6083	-2.375	-50.607	87.364	196.865	184.963	144.118	-44.868	137.999	-87.673	32.929	-123.032	202.736	187.783	195.470	-143.861	-39.257	-72.302	0.00040451	0.0004391	0.00010326	1363.3	4.4258e-06	4.9969e-06	1361.3	365.12	4.2774e-06	2.5017e-06	419.34	139.32	121.2	41.86	4.9526e-06	51.666	0.00057348	0.00058014	0.00016597	1381.7	6.4032e-06	6.452e-06	1380.3	373.78	6.4032e-06	6.51e-06	427.63	143.09	124.46	43.027	6.4471e-06	53.272	-80.269	-61.729	-58.723	-135.787	18.634	6.893	-135.990	-131.335	4.143	-25.104	-131.613	-127.677	-126.668	-122.217	19.354	-122.977	-8191	255	
21713.053	1	1	0	0	0.057009	0.1737	0.0605	0.17548	0.20977	0.072228	0.27566	0.2328	0.20151	0.18966	0.53115	0.0293	0.055241	0.47466	0.021609	0.2207	-1.8813	-2.3625	-2.2771	-2.4688	-2.4667	-2.2083	-2.8	-2.55	-2.1979	-2.5354	-2.1896	-2.5479	-2.5354	-2.3312	-2.4625	-2.3208	-29.408	171.991	56.246	121.246	-89.333	-112.276	121.023	112.287	8.475	-19.417	142.525	44.802	42.903	141.913	37.274	186.822	0.00039654	0.00043449	0.00018549	1361.5	4.4379e-06	4.8619e-06	1356.7	366.08	4.1143e-06	5.8449e-06	417.84	139.03	121.89	41.754	3.3923e-06	51.622	0.00057155	0.00058873	0.00016433	1380	6.3878e-06	6.4398e-06	1378.8	373.58	6.3113e-06	6.5443e-06	426.95	143.29	124.76	43.036	6.343e-06	53.305	-83.025	-84.123	-32.109	-135.768	-24.438	-21.597	-135.739	-131.146	-17.116	-4.029	-131.855	-127.169	-126.830	-122.166	2.043	-122.975	-8191	255	
21713.148	1	1	0	0	0.21408	0.082928	0.19913	0.32346	0.15331	0.13195	0.29898	0.2076	0.13908	0.23761	0.062919	0.28598	0.16384	0.035022	0.045318	0.17477	-1.675	-2.4396	-2.0563	-2.5438	-2.4062	-2.1625	-2.625	-2.3979	-2.1937	-2.6771	-2.2792	-2.3	-2.6396	-2.1771	-2.4083	-2.4083	-11.495	-41.266	122.981	187.883	33.433	179.669	197.499	112.361	-138.149	76.101	142.725	177.854	165.099	-123.880	204.013	-140.247	0.00040802	0.00046233	0.00017024	1362.8	4.8258e-06	4.7928e-06	1359.1	365.61	4.1062e-06	7.1559e-06	417.21	139.33	121.6	41.703	3.8375e-06	51.427	0.00057851	0.00058248	0.00016102	1381.6	6.4252e-06	6.5984e-06	1378.4	373.55	6.5884e-06	6.6249e-06	426.85	143.34	124.44	42.979	6.3268e-06	53.17	-82.793	-74.449	-46.946	-135.702	-31.068	21.006	-135.904	-131.083	2.808	-11.547	-131.749	-127.332	-126.913	-122.219	10.130	-123.040	-8191	255	
21713.244	1	1	0	0	0.11883	0.092231	0.073112	0.33061	0.2889	0.25252	0.073632	0.27229	0.34044	0.11841	0.27323	0.15384	0.3083	0.20271	0.19804	0.12473	-1.6917	-2.4458	-2.0833	-2.3667	-2.6667	-2.1375	-2.7438	-2.6458	-2.1479	-2.5542	-2.2083	-2.3646	-2.5104	-2.0646	-2.4313	-2.5604	114.934	145.423	58.401	179.068	-102.526	133.347	117.487	-112.246	-96.590	-7.706	166.224	126.306	-136.513	-84.685	31.287	102.388	0.00038721	0.0006122	0.00016601	1360.9	4.7652e-06	3.1423e-06	1359	364.17	6.6637e-06	6.5278e-06	418.15	139.9	121.57	41.617	4.7403e-06	51.536	0.00056542	0.00058613	0.0001629	1382.2	6.3849e-06	6.4841e-06	1380.8	373.23	6.6175e-06	6.5341e-06	427.31	143.39	124.62	42.94	6.3711e-06	53.127	-82.820	-66.411	-72.808	-135.738	16.251	1.502	-135.863	-131.289	-3.953	2.468	-131.632	-127.369	-126.851	-122.427	-27.516	-123.020	-8191	255	
21713.342	1	1	0	0	0.091085	0.16516	0.24065	0.30836	0.22366	0.071563	0.27845	0.39552	0.094826	0.15064	0.24922	0.28475	0.15213	0.10632	0.11173	0.19549	-1.7042	-2.5438	-2.3771	-2.2438	-2.4396	-2.1979	-2.4875	-2.4208	-2.2062	-2.475	-2.425	-2.3083	-2.6604	-2.1833	-2.2313	-2.4958	34.368	4.592	3.318	140.895	-77.667	2.002	122.350	180.461	5.171	-50.075	184.102	-131.686	-117.196	-125.277	-4.819	76.705	0.00043421	0.00061513	0.00016145	1361.3	4.5727e-06	4.5653e-06	1357.7	365.16	4.7753e-06	7.1212e-06	418.07	139.59	121.53	41.586	5.6097e-06	51.241	0.00057378	0.00059203	0.00016497	1380.8	6.379e-06	6.5182e-06	1379.8	373.85	6.5048e-06	6.543e-06	426.29	143.26	124.61	42.876	6.4522e-06	53.16	-80.335	-70.463	-47.915	-135.719	9.422	13.507	-135.917	-131.294	4.207	4.943	-131.637	-127.142	-126.774	-122.003	-2.980	-123.410	-8191	255	
21713.461	1	1	0	0	0.23582	0.11409	0.22977	0.24884	0.21266	0.18712	0.17249	0.21709	0.19173	0.15512	0.05396	0.25543	0.31121	0.28377	0.083632	0.10983	-1.6958	-2.5021	-2.3854	-2.3625	-2.7313	-2.3292	-2.55	-2.6437	-2.025	-2.5062	-2.6625	-2.2313	-2.5396	-2.2188	-2.3396	-2.7458	197.715	-36.364	24.007	186.323	-136.192	145.688	179.252	182.509	-20.560	122.642	87.537	206.619	151.530	-70.762	140.269	83.931	0.00040384	0.00027828	0.00020096	1358.3	5.3763e-06	6.5692e-06	1353.6	365.82	2.831e-06	4.1068e-06	418.76	139.32	121.01	41.668	4.5887e-06	51.562	0.00057829	0.00057854	0.00016394	1379.1	6.3411e-06	6.4782e-06	1380.1	373.6	6.5087e-06	6.3473e-06	427.01	143.1	124.36	42.944	6.5343e-06	53.186	-85.424	-73.354	-67.764	-135.775	16.698	7.205	-135.870	-131.173	-19.656	-7.943	-131.535	-127.242	-127.082	-122.226	18.027	-123.044	-8191	255	
21713.531	1	1	0	0	0.12026	0.15556	0.28368	0.41118	0.076719	0.12068	0.28021	0.13214	0.15432	0.12496	0.052247	0.14726	0.13227	0.13313	0.047243	0.37974	-1.6917	-2.3375	-2.5042	-2.1292	-2.725	-2.3896	-2.4583	-2.5354	-2.175	-2.4896	-2.5417	-2.2583	-2.5417	-2.2438	-2.2062	-2.4646	196.736	-47.567	-31.973	206.610	-16.510	-120.391	159.302	-145.156	-105.030	133.640	22.190	-18.898	178.928	96.841	-4.754	143.631	0.00040447	0.00036475	0.00018052	1357.8	4.2473e-06	4.5682e-06	1352.5	365.56	2.9626e-06	6.5629e-06	417.55	138.88	120.75	41.497	3.5576e-06	51.296	0.00056689	0.00058861	0.00016498	1377.8	6.4037e-06	6.4423e-06	1378.8	373.3	6.3984e-06	6.4856e-06	426.48	142.97	124.23	42.851	6.6361e-06	53.004	-81.250	-69.298	-68.522	-135.742	-24.736	-14.054	-135.834	-131.219	-20.277	36.685	-131.794	-127.470	-126.900	-122.267	-39.898	-123.132	-8191	255	
21713.652	1	1	0	0	0.24344	0.057359	0.11242	0.3013	0.10248	0.24946	0.31226	0.13788	0.097632	0.13693	0.10485	0.35063	0.16758	0.15557	0.14197	0.12522	-1.675	-2.3375	-2.4229	-2.2354	-2.4646	-2.3771	-2.4313	-2.6583	-2.1979	-2.3542	-2.65	-2.1688	-2.6375	-2.4562	-2.0729	-2.5938	5.598	-26.389	-32.141	177.204	-51.353	107.096	143.160	172.224	101.564	73.717	104.728	162.891	-37.252	109.393	193.521	164.355	0.00042055	0.00029285	0.00018014	1350.9	4.1295e-06	4.6779e-06	1354.4	363.8	4.8029e-06	4.463e-06	417.16	138.5	120.44	41.326	4.3642e-06	51.205	0.00056421	0.00059508	0.00016419	1377.8	6.5187e-06	6.4726e-06	1378.2	373.3	6.4781e-06	6.4215e-06	426.27	142.91	124.16	42.824	6.4281e-06	53.044	-77.825	-64.194	-45.594	-135.976	3.135	-4.207	-136.135	-131.024	-7.474	-5.618	-131.958	-127.426	-126.657	-122.383	8.632	-123.220	-8191	255	
21713.748	1	1	0	0	0.15258	0.189	0.34042	0.14832	0.14193	0.11129	0.2969	0.29068	0.18426	0.33715	0.11218	0.062313	0.28981	0.28871	0.11674	0.29379	-1.7833	-2.2125	-2.6104	-1.9875	-2.5083	-2.5417	-2.2396	-2.7167	-2.3021	-2.1625	-2.6146	-2.3479	-2.625	-2.3229	-2.225	-2.6521	71.705	-72.259	2.072	158.078	-124.954	188.258	180.249	133.048	89.460	-103.034	182.688	86.858	55.651	115.089	-48.529	128.514	0.00041354	0.00047856	0.00012729	1352.6	3.7168e-06	7.8787e-06	1350.4	364.27	4.2033e-06	5.5345e-06	414.68	138.14	120.4	41.386	2.2425e-06	51.454	0.00056985	0.00058838	0.00016283	1379.5	6.3723e-06	6.5413e-06	1377.8	373.01	6.3134e-06	6.5532e-06	425.97	142.97	124.15	42.823	6.5371e-06	53.111	-76.010	-70.240	-42.748	-135.869	-9.743	-4.566	-135.936	-131.230	10.423	8.286	-132.096	-127.289	-126.829	-122.425	-8.111	-123.158	-8191	255	
21713.846	1	1	0	0	0.18334	0.12213	0.15057	0.12794	0.11826	0.34977	0.14928	0.10377	0.12712	0.19131	0.32837	0.24938	0.10334	0.12451	0.10075	0.20515	-1.8813	-2.0479	-2.5271	-2.4396	-2.5125	-2.4813	-2.1896	-2.6896	-2.3	-2.4271	-2.8	-2.2229	-2.3396	-2.6646	-1.8958	-2.7208	117.556	9.384	163.606	70.981	5.191	165.696	166.218	-113.799	-35.347	156.898	-137.197	169.715	196.608	121.467	-131.387	138.050	0.00043033	0.0006176	0.00013458	1354.4	4.4016e-06	4.9534e-06	1342.5	362.14	5.8668e-06	6.8172e-06	414.17	138.14	120.41	41.279	5.8642e-06	51.148	0.00056836	0.00059502	0.00016524	1378.8	6.4937e-06	6.4907e-06	1376.7	372.52	6.462e-06	6.452e-06	425.62	142.73	123.96	42.811	6.5643e-06	53.094	-80.318	-45.700	-57.111	-135.826	-7.804	18.730	-136.006	-131.346	2.587	10.984	-131.743	-127.461	-126.649	-122.447	-28.079	-123.084	-8191	255	
21713.941	1	1	0	0	0.28339	0.26068	0.14755	0.11682	0.17191	0.0051126	0.10808	0.10434	0.32728	0.24897	0.031125	0.11912	0.16607	0.12197	0.25294	0.033333	-1.9688	-2.2646	-2.4167	-2.4479	-2.3458	-2.4646	-2.3875	-2.5854	-2.2542	-2.2062	-2.7292	-2.2313	-2.3729	-2.775	-2.1292	-2.4646	200.636	131.362	33.420	198.651	117.891	-125.758	94.585	152.200	27.821	12.672	-103.484	-49.038	146.458	87.907	159.070	91.284	0.00041407	0.00070009	0.00015459	1345.1	2.6271e-06	4.9833e-06	1349.9	363.43	5.1122e-06	2.6828e-06	414.41	138.37	120.07	41.363	4.4388e-06	51.283	0.00056472	0.00058836	0.00016432	1376.4	6.439e-06	6.592e-06	1376.9	372.97	6.4981e-06	6.4513e-06	425.79	142.64	124.03	42.73	6.5457e-06	52.99	-79.143	-54.711	-64.104	-135.826	30.988	-2.474	-135.836	-130.988	-8.471	-63.563	-131.757	-127.372	-126.802	-122.518	10.709	-122.947	-8191	255	
21714.062	1	1	0	0	0.10589	0.23149	0.10348	0.25263	0.10598	0.12987	0.27692	0.081663	0.19033	0.25174	0.15845	0.12166	0.15886	0.10307	0.064444	0.12316	-1.9521	-2.1208	-2.6208	-2.4875	-2.1521	-2.6667	-2.2396	-2.5583	-2.3563	-2.2771	-2.5875	-2.3438	-2.325	-2.3521	-2.25	-2.4292	2.219	37.475	152.192	198.666	-81.051	-68.980	125.241	-69.722	114.402	-147.599	154.679	118.393	-128.785	-145.623	126.796	-78.075	0.00041872	0.00049781	0.00011778	1351.4	4.9131e-06	5.5818e-06	1346.9	363.37	4.5763e-06	5.9906e-06	415.8	138.07	120.47	41.549	4.7071e-06	51.458	0.00056762	0.00059786	0.0001654	1377.6	6.5744e-06	6.411e-06	1376.1	372.65	6.4644e-06	6.5011e-06	425.74	142.67	124.04	42.841	6.4512e-06	53.067	-80.519	-57.104	-46.501	-135.918	24.190	2.897	-135.891	-131.155	25.387	-15.830	-131.910	-127.562	-126.702	-122.273	-13.638	-123.244	-8191	255	
21714.135	1	1	0	0	0.24412	0.067876	0.15312	0.17082	0.2257	0.060818	0.22697	0.13635	0.1537	0.28529	0.14322	0.18691	0.17605	0.21506	0.16146	0.15722	-1.9667	-2.0812	-2.4083	-2.4437	-2.1562	-2.6562	-2.5021	-2.2396	-2.4708	-2	-2.525	-2.4188	-2.1917	-2.7542	-2.3542	-2.275	57.635	35.854	181.100	167.049	131.808	158.425	149.590	184.579	-3.840	-100.610	-56.461	162.250	-25.484	129.970	-86.265	190.571	0.00040448	0.00037423	0.00014823	1356.8	2.7639e-06	3.404e-06	1347.7	364.02	4.0885e-06	5.8589e-06	413.25	137.94	120.07	41.309	3.0765e-06	51.205	0.00056469	0.00060321	0.00016564	1377.6	6.509e-06	6.4423e-06	1375.2	373.31	6.5142e-06	6.7194e-06	424.69	142.68	123.85	42.733	6.7003e-06	52.956	-78.678	-70.191	-49.873	-135.979	10.606	57.673	-135.822	-131.185	15.988	-24.478	-131.808	-127.355	-126.988	-122.229	-20.521	-123.344	-8191	255	
21714.229	1	1	0	0	0.21969	0.18196	0.061054	0.21931	0.096392	0.048046	0.16806	0.023139	0.26095	0.24511	0.12933	0.25385	0.21487	0.21488	0.21967	0.18968	-2.1458	-1.9958	-2.25	-2.5938	-2.1104	-2.5125	-2.375	-2.4917	-2.55	-2.1562	-2.4375	-2.5792	-2.1063	-2.5396	-2.4271	-2.2479	116.289	87.929	99.961	164.812	-121.310	85.413	156.239	-121.853	132.522	161.701	162.715	201.504	48.842	-120.487	183.048	121.017	0.00040646	0.00041623	0.00011322	1351.2	5.4951e-06	5.7972e-06	1351.2	363.78	3.3892e-06	4.1911e-06	417.44	138.07	119.86	41.202	2.8441e-06	51.26	0.0005707	0.00060013	0.00016023	1376.9	6.578e-06	6.5281e-06	1376.8	372.83	6.4728e-06	6.5822e-06	425.98	142.66	123.89	42.692	6.5884e-06	52.945	-84.444	-51.579	-23.923	-135.936	15.606	-10.616	-135.951	-131.380	-13.208	-0.301	-131.767	-127.558	-126.627	-122.343	4.866	-123.151	-8191	255	
21714.324	1	1	0	0	0.20283	0.20535	0.15251	0.21385	0.15537	0.084884	0.26236	0.09461	0.081353	0.25232	0.22456	0.24888	0.083836	0.14617	0.20807	0.42273	-2.0229	-2.0875	-2.2271	-2.3333	-2.1667	-2.3021	-2.2917	-2.2	-2.4729	-2.1979	-2.5271	-2.675	-2.2417	-2.6292	-2.2521	-2.3146	-128.690	-85.790	183.688	164.608	76.933	19.860	112.269	134.922	-124.119	-144.038	128.900	108.145	64.817	115.944	-12.458	112.318	0.00040942	0.00055598	0.00016451	1348	4.0145e-06	5.2575e-06	1351.3	363.64	4.6474e-06	4.8615e-06	416.12	138.89	120.46	41.39	5.3863e-06	51.169	0.00056963	0.00059844	0.00016963	1376.6	6.3768e-06	6.4584e-06	1376.1	373.03	6.423e-06	6.5258e-06	425.25	142.93	123.9	42.742	6.5739e-06	52.845	-81.915	-60.596	-60.951	-135.996	-4.455	9.695	-136.032	-131.188	-4.947	-6.942	-131.897	-127.290	-127.081	-122.304	-4.789	-123.103	-8191	255	
21714.422	1	1	0	0	0.031974	0.22762	0.069373	0.26416	0.17887	0.09852	0.089109	0.17023	0.12335	0.18136	0.20936	0.18219	0.13412	0.27406	0.094373	0.43378	-2.1875	-2.1083	-2.2354	-2.6667	-2.0438	-2.3792	-2.4479	-2.2979	-2.6437	-2.2021	-2.4521	-2.7146	-2.1083	-2.5542	-2.2979	-2.2729	200.858	-75.394	-113.634	179.423	48.133	71.577	182.779	192.459	-35.698	-29.021	197.720	124.972	-132.661	-88.528	86.088	154.237	0.00039343	0.00035633	0.00012924	1352.7	5.1609e-06	4.3616e-06	1354.7	364.3	2.8391e-06	6.1082e-06	416.09	138.76	119.77	41.259	3.0493e-06	51.19	0.0005666	0.00059956	0.00016943	1375.9	6.693e-06	6.5401e-06	1376.5	372.67	6.5034e-06	6.6389e-06	425.54	142.35	123.63	42.69	6.6543e-06	52.84	-84.457	-64.122	-74.397	-136.004	-11.554	-6.892	-135.833	-131.357	-20.382	19.441	-131.812	-127.614	-127.003	-122.394	11.450	-123.245	-8191	255	
21714.541	1	1	0	0	0.10731	0.1152	0.19276	0.17145	0.16233	0.3814	0.17072	0.096398	0.18838	0.19381	0.38277	0.07888	0.24211	0.21681	0.31694	0.12753	-2.0229	-2.2625	-2.0375	-2.6167	-2.1125	-2.4021	-2.6542	-2.1667	-2.3708	-2.2542	-2.3083	-2.5917	-2.2812	-2.4021	-2.3833	-2.1479	168.866	169.290	-48.434	143.726	103.313	115.088	174.102	-40.773	41.068	-79.288	113.980	-23.470	80.210	199.357	-126.257	126.970	0.00041742	0.00048863	0.00016731	1345.1	4.8979e-06	6.1411e-06	1346	362.63	3.8814e-06	4.9998e-06	416.23	137.96	120.05	41.43	4.7876e-06	51.26	0.00057207	0.00060126	0.00016582	1374.5	6.5823e-06	6.3512e-06	1373.8	372.31	6.5099e-06	6.528e-06	425.78	142.43	123.87	42.76	6.5454e-06	52.886	-83.768	-73.119	-55.242	-135.840	16.649	-18.817	-135.951	-131.150	36.793	23.288	-131.898	-127.483	-126.864	-122.409	10.803	-123.152	-8191	255	
21714.637	1	1	0	0	0.13957	0.20068	0.13294	0.045334	0.051232	0.27753	0.25706	0.12659	0.14338	0.034094	0.09904	0.28023	0.064485	0.23439	0.26188	0.22507	-1.9208	-2.2125	-2.1875	-2.8271	-2.1167	-2.3937	-2.5104	-2.3563	-2.4979	-2.2958	-2.4417	-2.6583	-2.3063	-2.3563	-2.3604	-2.2333	74.494	-57.449	105.516	-90.522	87.345	-110.265	166.477	203.315	179.286	99.868	122.029	165.780	-23.216	-105.485	-126.646	167.889	0.00041517	0.00028096	8.4978e-05	1352.1	5.3236e-06	4.9787e-06	1346.1	363.55	3.7932e-06	6.5775e-06	415.06	137.55	119.86	41.265	4.5721e-06	51.301	0.00057248	0.00060181	0.00017029	1376.7	6.5335e-06	6.6381e-06	1375.9	372.37	6.4839e-06	6.6025e-06	425.11	142.28	123.75	42.721	6.4906e-06	52.897	-82.763	-41.831	-62.949	-135.719	20.242	4.722	-135.759	-131.316	-2.792	-0.220	-131.689	-127.151	-126.895	-122.265	-24.613	-123.097	-8191	255	
21714.732	1	1	0	0	0.07399	0.06172	0.26388	0.089101	0.13818	0.19569	0.1231	0.28245	0.1514	0.14234	0.10494	0.21103	0.21924	0.25323	0.15517	0.072627	-2.0521	-2.2708	-2.1708	-2.6937	-2.3875	-2.2625	-2.675	-2.3375	-2.5021	-2.4896	-2.2812	-2.5625	-2.3771	-2.4396	-2.4938	-2.2542	-0.469	11.307	77.591	153.904	124.053	85.603	-123.083	98.026	-78.152	56.182	17.537	104.374	101.656	189.044	74.017	-117.013	0.00040973	0.00063775	0.00013429	1349.2	4.3028e-06	4.9465e-06	1347.2	363.73	4.5239e-06	5.1575e-06	416.1	137.88	119.89	41.435	3.0973e-06	51.025	0.00056642	0.00058886	0.00016878	1376.8	6.3752e-06	6.6401e-06	1376	372.87	6.363e-06	6.4587e-06	425.69	142.53	123.91	42.85	6.4033e-06	52.807	-84.390	-94.478	-53.262	-135.987	-7.455	11.556	-135.810	-131.333	-8.188	21.249	-131.762	-127.210	-126.866	-122.577	5.996	-123.116	-8191	255	
21714.828	1	1	0	0	0.059541	0.21348	0.26251	0.23033	0.2031	0.10002	0.20199	0.31829	0.17759	0.13262	0.23014	0.18401	0.3022	0.33394	0.18289	0.02942	-2.025	-2.4208	-1.9917	-2.6771	-2.3125	-2.1375	-2.6625	-2.2313	-2.4396	-2.4667	-2.2104	-2.7396	-2.4396	-2.4688	-2.6625	-2.2875	24.583	171.892	138.309	-128.962	134.727	-46.934	162.034	-72.472	88.907	-53.280	114.010	185.933	111.144	176.481	-119.023	10.192	0.00041798	0.00056765	0.00015861	1352.4	2.8274e-06	4.0656e-06	1352.9	364.39	5.4994e-06	5.3805e-06	415.17	138.4	120.86	41.315	4.301e-06	51.186	0.0005632	0.00060608	0.00016528	1377.3	6.4637e-06	6.6829e-06	1377.6	372.94	6.4069e-06	6.6986e-06	424.93	142.63	123.99	42.71	6.4429e-06	52.947	-80.844	-50.029	-58.018	-135.727	-20.741	-19.306	-135.811	-131.268	-7.614	-11.588	-131.863	-127.454	-126.938	-122.143	13.946	-122.978	-8191	255	
21714.926	1	1	0	0	0.034723	0.21828	0.19856	0.24881	0.042865	0.13816	0.043879	0.3303	0.37189	0.076673	0.13365	0.17318	0.45681	0.2294	0.22837	0.22694	-1.8625	-2.3312	-2.1312	-2.6813	-2.3375	-2.2271	-2.7958	-2.2458	-2.2917	-2.4083	-2.1375	-2.7708	-2.3896	-2.4229	-2.4979	-2.2562	41.560	54.942	8.274	193.925	65.241	-0.152	114.782	-129.567	-103.319	151.043	170.678	171.494	-127.717	-109.383	-29.992	146.412	0.00039184	0.00066627	0.00010178	1352.4	6.2839e-06	5.8698e-06	1347.2	362.65	2.3458e-06	4.2219e-06	414.74	138.4	120.85	41.326	4.8912e-06	51.1	0.00056008	0.00059426	0.00016441	1376.2	6.448e-06	6.5289e-06	1375.2	372.52	6.4646e-06	6.5362e-06	425.45	142.67	123.93	42.769	6.4773e-06	52.883	-77.956	-48.272	-74.144	-136.051	14.706	13.351	-135.973	-131.150	9.449	-20.988	-131.666	-127.435	-126.828	-122.269	2.742	-123.189	-8191	255	
21715.021	1	1	0	0	0.40346	0.12399	0.22669	0.11055	0.32832	0.24636	0.25221	0.24828	0.17277	0.13176	0.091106	0.30718	0.046494	0.16452	0.22532	0.31381	-1.9208	-2.5458	-1.9083	-2.5021	-2.2979	-2.1896	-2.6333	-2.25	-2.3542	-2.5542	-2.1375	-2.4396	-2.4542	-2.075	-2.6771	-2.4813	92.797	169.101	-124.279	188.161	41.807	190.186	67.870	183.839	6.428	105.116	204.800	-86.853	199.926	-104.949	36.712	140.903	0.0004447	0.00033364	9.7948e-05	1351.1	5.8494e-06	4.0252e-06	1351.4	363.77	2.9198e-06	8.0451e-06	415.34	137.85	119.45	41.247	2.5203e-06	51.168	0.00056293	0.00060045	0.00016579	1375.9	6.4954e-06	6.4006e-06	1376.1	372.81	6.4849e-06	6.5418e-06	424.88	142.42	123.64	42.726	6.4099e-06	52.979	-78.690	-46.905	-34.941	-135.983	-5.191	-19.061	-135.957	-131.333	0.331	-6.829	-131.764	-127.805	-126.908	-122.244	17.780	-123.358	-8191	255	
21715.143	1	1	0	0	0.20938	0.11594	0.17556	0.3289	0.054821	0.21015	0.15877	0.1274	0.026049	0.098974	0.26463	0.38282	0.24533	0.34638	0.18822	0.12735	-1.7437	-2.4854	-2.0438	-2.5042	-2.625	-2.2292	-2.7417	-2.3896	-2.3042	-2.4396	-2.4208	-2.3875	-2.5708	-2.0583	-2.5563	-2.4729	125.773	92.057	45.961	179.857	24.128	52.586	127.793	153.968	56.757	-58.194	-147.140	163.849	152.609	185.614	107.696	143.189	0.00040858	0.00057872	0.00013458	1352.9	9.771e-07	5.7015e-06	1348.7	362.85	5.0623e-06	3.9563e-06	416.27	138.23	120.15	41.424	5.0233e-06	51.313	0.00056916	0.00059224	0.00016511	1376.1	6.5504e-06	6.6864e-06	1375	372.62	6.5318e-06	6.5387e-06	426.21	142.42	123.6	42.837	6.4075e-06	52.954	-81.884	-53.192	-37.079	-135.875	24.088	3.321	-136.116	-131.197	-13.799	7.471	-131.733	-127.090	-126.818	-122.517	21.418	-123.128	-8191	255	
21715.236	1	1	0	0	0.37184	0.18325	0.1861	0.10922	0.12686	0.14907	0.1449	0.22169	0.11911	0.17952	0.096282	0.272	0.12684	0.29559	0.12568	0.13556	-1.7208	-2.5271	-2.1667	-2.7229	-2.3271	-2.2396	-2.5583	-2.6042	-2.1	-2.4958	-2.2188	-2.4375	-2.5958	-2.0729	-2.4229	-2.575	-0.497	-16.008	-19.454	156.072	-21.919	183.060	169.602	139.344	-36.774	96.464	-100.769	181.693	-57.606	206.541	16.045	147.261	0.00042274	0.00045121	0.00015381	1349.6	4.2692e-06	4.649e-06	1345.9	363.67	3.8954e-06	3.9316e-06	415.84	138.77	119.95	41.253	3.3958e-06	51.224	0.00056609	0.00060002	0.00016524	1376.7	6.4944e-06	6.4915e-06	1375.2	373.03	6.6409e-06	6.3926e-06	425.59	142.66	123.8	42.692	6.4495e-06	52.917	-81.576	-97.747	-55.843	-135.931	17.414	-0.056	-135.827	-131.512	29.475	2.036	-131.716	-127.479	-126.991	-122.298	-30.725	-123.291	-8191	255	
21715.332	1	1	0	0	0.31075	0.14907	0.19922	0.28226	0.14602	0.13269	0.17269	0.1247	0.26826	0.122	0.20492	0.22061	0.15597	0.3188	0.19173	0.13704	-1.8021	-2.5292	-2.3083	-2.4146	-2.5458	-2.3063	-2.7	-2.3771	-2.2646	-2.5104	-2.3521	-2.3375	-2.6063	-2.3104	-2.4	-2.6167	-26.816	-60.888	106.849	136.987	-97.066	69.513	185.115	144.557	-114.249	-1.298	180.185	-105.304	36.781	174.316	101.904	-135.213	0.00041086	0.00044777	0.00018072	1350.3	3.221e-06	5.3596e-06	1349.2	364.63	3.3306e-06	4.6198e-06	415.49	138.76	120.65	41.449	4.1394e-06	51.342	0.00056948	0.00059077	0.0001689	1378.2	6.4349e-06	6.6256e-06	1377.5	373.01	6.5631e-06	6.5001e-06	425.78	142.96	123.94	42.816	6.5166e-06	52.949	-79.791	-45.542	-52.592	-135.969	-27.452	28.980	-136.055	-131.193	-17.052	-15.448	-131.793	-127.261	-126.950	-122.370	2.991	-123.039	-8191	255	
21715.430	1	1	0	0	0.20432	0.12864	0.1826	0.38215	0.13742	0.043372	0.10401	0.33936	0.21314	0.20347	0.23429	0.034364	0.2563	0.13094	0.092547	0.10487	-1.7208	-2.3896	-2.0292	-2.3292	-2.7417	-2.2333	-2.5708	-2.5771	-2.0625	-2.4688	-2.425	-2.3458	-2.4667	-2.1979	-2.2854	-2.5187	150.747	167.143	19.154	192.801	-31.521	-75.847	162.178	150.048	122.132	44.756	-112.839	-62.071	210.367	50.226	-45.455	82.436	0.00041979	0.00070061	0.00011653	1352	4.1374e-06	6.2991e-06	1353.8	363.38	3.599e-06	5.6128e-06	416.01	138.32	120.24	41.426	4.4806e-06	51.171	0.00057702	0.00059685	0.00016611	1378	6.3811e-06	6.5469e-06	1376.8	372.78	6.45e-06	6.4673e-06	426.28	142.66	123.97	42.8	6.5314e-06	53.054	-78.651	-56.028	-61.298	-135.684	-28.486	-14.954	-136.063	-131.224	-9.927	-1.250	-131.701	-127.437	-126.652	-122.295	30.073	-122.843	-8191	255	
#DATA ENDS
