BOXY.EXE: ISS Imagent and Oximeter Data Acquisition Program Version 0.80
Ascii Record File

#ACQ INFORMATION
2  Detector Channels 
16  External MUX Channels 
1  Auxiliary Channels 
5000  Waveform (CCF) Frequency (Hz)
1  Waveforms Skipped 
30  Waveforms Averaged 
1  Cycles Averaged 
16  Acquisitions per Waveform 
10.0806  Updata Rate (Hz) 

#FILE INFORMATION
TRUE -- External MUX Channel results are PARSED.
FALSE -- AC DC and Phase are NOT grouped.
TRUE -- Companion Program Settings File CREATED.
FALSE -- AC data not excluded
FALSE -- DC data not excluded
FALSE -- Phase data not excluded
FALSE -- Auxillary Chn. data not excluded
Tab delimiters

#CALIBRATION STATE
TRUE -- Waveform Calibration Values APPLIED.


#AUX CALIBRATION VALUES
Val Type	aux-1	

Term	1.0000e+00	
Factor	0.0000e+00	


#WF CALIBRATION VALUES
A = Detector Channel
Val Type	A-AC1	A-AC2	A-AC3	A-AC4	A-AC5	A-AC6	A-AC7	A-AC8	A-AC9	A-AC10	A-AC11	A-AC12	A-AC13	A-AC14	A-AC15	A-AC16	A-DC1	A-DC2	A-DC3	A-DC4	A-DC5	A-DC6	A-DC7	A-DC8	A-DC9	A-DC10	A-DC11	A-DC12	A-DC13	A-DC14	A-DC15	A-DC16	A-Ph1	A-Ph2	A-Ph3	A-Ph4	A-Ph5	A-Ph6	A-Ph7	A-Ph8	A-Ph9	A-Ph10	A-Ph11	A-Ph12	A-Ph13	A-Ph14	A-Ph15	A-Ph16	

Term	0.00000e+00	0.00000e+00	0.00000e+00	0.00000e+00	0.00000e+00	0.00000e+00	0.00000e+00	0.00000e+00	0.00000e+00	0.00000e+00	0.00000e+00	0.00000e+00	0.00000e+00	0.00000e+00	0.00000e+00	0.00000e+00	0.00000e+00	0.00000e+00	0.00000e+00	0.00000e+00	0.00000e+00	0.00000e+00	0.00000e+00	0.00000e+00	0.00000e+00	0.00000e+00	0.00000e+00	0.00000e+00	0.00000e+00	0.00000e+00	0.00000e+00	0.00000e+00	0.00000e+00	0.00000e+00	0.00000e+00	0.00000e+00	0.00000e+00	0.00000e+00	0.00000e+00	0.00000e+00	0.00000e+00	0.00000e+00	0.00000e+00	0.00000e+00	0.00000e+00	0.00000e+00	0.00000e+00	0.00000e+00	
Factor	1.00000e+00	1.00000e+00	1.00000e+00	1.00000e+00	1.00000e+00	1.00000e+00	1.00000e+00	1.00000e+00	1.00000e+00	1.00000e+00	1.00000e+00	1.00000e+00	1.00000e+00	1.00000e+00	1.00000e+00	1.00000e+00	1.00000e+00	1.00000e+00	1.00000e+00	1.00000e+00	1.00000e+00	1.00000e+00	1.00000e+00	1.00000e+00	1.00000e+00	1.00000e+00	1.00000e+00	1.00000e+00	1.00000e+00	1.00000e+00	1.00000e+00	1.00000e+00	X	X	X	X	X	X	X	X	X	X	X	X	X	X	X	X	

B = Detector Channel
Val Type	B-AC1	B-AC2	B-AC3	B-AC4	B-AC5	B-AC6	B-AC7	B-AC8	B-AC9	B-AC10	B-AC11	B-AC12	B-AC13	B-AC14	B-AC15	B-AC16	B-DC1	B-DC2	B-DC3	B-DC4	B-DC5	B-DC6	B-DC7	B-DC8	B-DC9	B-DC10	B-DC11	B-DC12	B-DC13	B-DC14	B-DC15	B-DC16	B-Ph1	B-Ph2	B-Ph3	B-Ph4	B-Ph5	B-Ph6	B-Ph7	B-Ph8	B-Ph9	B-Ph10	B-Ph11	B-Ph12	B-Ph13	B-Ph14	B-Ph15	B-Ph16	

Term	0.00000e+00	0.00000e+00	0.00000e+00	0.00000e+00	0.00000e+00	0.00000e+00	0.00000e+00	0.00000e+00	0.00000e+00	0.00000e+00	0.00000e+00	0.00000e+00	0.00000e+00	0.00000e+00	0.00000e+00	0.00000e+00	0.00000e+00	0.00000e+00	0.00000e+00	0.00000e+00	0.00000e+00	0.00000e+00	0.00000e+00	0.00000e+00	0.00000e+00	0.00000e+00	0.00000e+00	0.00000e+00	0.00000e+00	0.00000e+00	0.00000e+00	0.00000e+00	2.53724e+01	-1.25825e+02	-1.32423e+02	-1.86157e+02	-5.31231e+01	-7.74207e+01	-1.59021e+02	-1.62015e+02	-9.81342e+01	-6.42266e+01	-1.73719e+02	-1.69925e+02	-1.79918e+02	-1.77120e+02	-6.73402e+01	-1.50188e+02	
Factor	4.43643e-05	1.31752e-04	3.84766e-05	6.00296e-01	1.09162e-06	1.23883e-06	1.58776e-01	4.81384e-02	1.60025e-06	1.38813e-06	8.39062e-02	2.75674e-02	2.39658e-02	9.07276e-03	1.49700e-06	1.30833e-02	1.61200e-06	1.67637e-06	4.65165e-07	2.83808e-01	1.83225e-08	1.83332e-08	7.47258e-02	2.41391e-02	1.82575e-08	1.83873e-08	4.04860e-02	1.32768e-02	1.20086e-02	4.53932e-03	1.82600e-08	6.30792e-03	X	X	X	X	X	X	X	X	X	X	X	X	X	X	X	X	



#DISTANCE SETTINGS
A = Detector Channel
A-1	A-2	A-3	A-4	A-5	A-6	A-7	A-8	A-9	A-10	A-11	A-12	A-13	A-14	A-15	A-16	

2.5000e+00	3.0000e+00	2.5000e+00	3.0000e+00	2.0000e+00	3.0000e+00	1.5000e+00	3.0000e+00	3.0000e+00	3.0000e+00	3.0000e+00	3.0000e+00	3.0000e+00	3.0000e+00	1.5000e+00	3.0000e+00	

B = Detector Channel
B-1	B-2	B-3	B-4	B-5	B-6	B-7	B-8	B-9	B-10	B-11	B-12	B-13	B-14	B-15	B-16	

1.0000e+01	1.0000e+01	1.0000e+01	1.4400e+00	1.0000e+01	1.0000e+01	1.5100e+00	1.9400e+00	1.0000e+01	1.0000e+01	1.9900e+00	2.4900e+00	2.4100e+00	2.9000e+00	1.0000e+01	2.9800e+00	




#DATA BEGINS
time	group	step	mark	flag	A-AC1	A-AC2	A-AC3	A-AC4	A-AC5	A-AC6	A-AC7	A-AC8	A-AC9	A-AC10	A-AC11	A-AC12	A-AC13	A-AC14	A-AC15	A-AC16	A-DC1	A-DC2	A-DC3	A-DC4	A-DC5	A-DC6	A-DC7	A-DC8	A-DC9	A-DC10	A-DC11	A-DC12	A-DC13	A-DC14	A-DC15	A-DC16	A-Ph1	A-Ph2	A-Ph3	A-Ph4	A-Ph5	A-Ph6	A-Ph7	A-Ph8	A-Ph9	A-Ph10	A-Ph11	A-Ph12	A-Ph13	A-Ph14	A-Ph15	A-Ph16	B-AC1	B-AC2	B-AC3	B-AC4	B-AC5	B-AC6	B-AC7	B-AC8	B-AC9	B-AC10	B-AC11	B-AC12	B-AC13	B-AC14	B-AC15	B-AC16	B-DC1	B-DC2	B-DC3	B-DC4	B-DC5	B-DC6	B-DC7	B-DC8	B-DC9	B-DC10	B-DC11	B-DC12	B-DC13	B-DC14	B-DC15	B-DC16	B-Ph1	B-Ph2	B-Ph3	B-Ph4	B-Ph5	B-Ph6	B-Ph7	B-Ph8	B-Ph9	B-Ph10	B-Ph11	B-Ph12	B-Ph13	B-Ph14	B-Ph15	B-Ph16	aux-1	digaux	

3260.802	1	1	0	512	0.086833	0.14567	0.23391	0.19141	0.13744	0.19347	0.23995	0.23982	0.055167	0.16185	0.25807	0.12344	0.16809	0.17903	0.18333	0.16699	-2.2167	-2.3229	-3.0667	-2.5625	-2.6583	-2.9104	-2.6104	-2.9458	-2.7042	-2.3625	-2.9813	-2.6813	-2.5438	-3.0083	-2.4833	-2.9375	-72.470	166.231	199.852	249.896	209.046	-56.471	200.623	213.976	-13.950	-51.961	182.740	-48.674	-69.983	180.214	-104.278	209.926	0.00035567	0.00029892	0.0001359	1107.8	6.7595e-06	4.0986e-06	1162.6	370.69	1.7989e-06	4.0867e-06	434.45	135.77	119.98	40.732	4.7758e-06	50.512	9.5289e-05	7.58e-05	2.3303e-05	883.12	9.2067e-07	7.9975e-07	970.13	309.63	9.5121e-07	8.0161e-07	360.16	112.4	99.433	34.224	1.0087e-06	42.063	-11.200	-11.014	-19.756	-94.195	52.397	11.921	-94.490	-88.332	-18.748	58.157	-90.448	-86.165	-83.873	-77.885	38.198	-81.111	-8191	255	
3260.923	1	1	0	0	0.23109	0.21498	0.1871	0.03222	0.045208	0.22198	0.030873	0.4956	0.18536	0.14003	0.10088	0.070452	0.13414	0.20297	0.066335	0.072196	-2.1771	-2.3208	-2.7854	-2.6521	-2.5729	-2.9521	-2.8125	-2.8958	-2.8146	-2.5292	-2.8875	-2.6937	-2.6708	-2.9521	-2.5583	-2.7792	242.927	163.098	-38.867	-5.451	55.046	-30.755	149.408	189.232	-70.239	181.559	-93.753	205.496	-61.097	47.555	77.900	239.264	0.0004151	0.00045478	0.00019092	1122.4	4.0284e-06	2.1653e-06	1185.5	372.25	5.0652e-06	2.9309e-06	442.19	137.23	120.92	41.623	6.1509e-06	51.516	9.1662e-05	7.536e-05	2.4385e-05	886.7	9.1559e-07	7.8309e-07	982.81	310.72	9.0907e-07	8.5489e-07	365.05	114.17	100.61	34.696	9.9775e-07	42.939	-8.997	0.277	-16.863	-94.261	53.569	39.284	-94.365	-88.312	-42.738	25.712	-90.553	-86.151	-83.229	-78.453	23.071	-80.381	-8191	255	
3261.019	1	1	0	0	0.17344	0.17715	0.11744	0.12705	0.069659	0.1074	0.097304	0.17229	0.28541	0.17733	0.16928	0.20261	0.21287	0.2764	0.20286	0.15676	-2.4396	-2.4062	-2.6937	-2.7167	-2.4583	-2.9938	-2.5292	-2.7833	-2.8396	-2.5771	-2.7938	-2.675	-2.6521	-2.8396	-2.5042	-2.6958	210.887	123.623	237.131	-93.831	81.544	-7.584	-105.403	101.102	-59.598	65.791	180.758	194.196	247.707	192.367	167.682	198.682	0.0003023	0.00027966	0.0001647	1116.2	2.9697e-06	3.3618e-06	1192.5	375.2	8.4287e-06	2.3456e-06	439.18	134.22	118.69	40.772	1.2713e-05	50.227	9.2771e-05	8.4783e-05	2.6231e-05	892.14	8.5761e-07	8.5818e-07	988.91	311.35	8.5658e-07	8.9975e-07	362.94	111.73	98.475	34.092	1.0027e-06	41.692	4.095	-49.748	-59.869	-94.670	61.705	-10.682	-94.490	-88.187	-44.583	85.101	-90.830	-86.039	-84.007	-78.079	47.304	-80.840	-8191	255	
3261.115	1	1	0	0	0.21536	0.084684	0.12282	0.34246	0.058842	0.10434	0.24718	0.053497	0.25326	0.2318	0.29038	0.036294	0.23537	0.19889	0.15036	0.14891	-2.4688	-2.5646	-2.5938	-2.6854	-2.3792	-2.9417	-2.7771	-2.6542	-2.9167	-2.5146	-2.8354	-2.9479	-2.4458	-2.9396	-2.6208	-2.7458	88.753	188.204	-57.327	-65.121	19.327	144.702	212.107	208.758	57.421	-81.556	149.235	208.651	-88.547	118.210	161.397	132.965	0.00031164	0.00060096	8.4333e-05	1110.4	2.3896e-06	4.3817e-06	1159.9	369.33	4.6833e-06	6.3476e-06	434.57	134.33	118.1	40.498	4.0331e-06	50.514	8.8247e-05	8.575e-05	2.343e-05	875.2	8.5925e-07	8.6918e-07	969.05	307.06	8.3832e-07	8.7765e-07	359.2	111.09	98.144	33.956	9.1045e-07	41.939	-11.604	38.720	0.377	-93.981	63.759	20.167	-94.727	-88.174	-33.895	89.835	-90.390	-85.921	-83.650	-78.221	69.766	-81.265	-8191	255	
3261.187	1	1	0	0	0.25658	0.10042	0.084678	0.25786	0.1262	0.050963	0.12451	0.038954	0.21938	0.30164	0.18656	0.01933	0.13285	0.15728	0.15014	0.19181	-2.3625	-2.3208	-2.5438	-2.7188	-2.3708	-2.9313	-2.9333	-2.6146	-2.7542	-2.6688	-2.875	-2.9646	-2.55	-2.7917	-2.5938	-2.6646	221.732	184.815	245.314	15.617	222.744	125.816	149.968	200.998	-87.509	3.802	192.413	-5.703	-42.489	-54.541	84.654	245.776	0.00042282	0.00076537	0.00019983	1104.6	3.449e-06	6.685e-07	1168.4	369.03	3.4928e-06	6.8052e-06	438.89	136.11	119.27	41.071	1.9582e-06	51.407	8.5443e-05	9.1275e-05	2.351e-05	878.78	8.3699e-07	9.2831e-07	974.15	307.48	8.5205e-07	9.4039e-07	361.86	112.44	98.692	34.253	8.974e-07	42.471	-3.817	-1.970	-19.928	-93.456	87.850	142.615	-94.446	-88.200	-37.398	37.114	-90.571	-86.079	-83.713	-78.161	61.241	-80.729	-8191	255	
3261.283	1	1	0	0	0.092566	0.2564	0.20763	0.18002	0.19623	0.19039	0.16541	0.27062	0.084027	0.074761	0.13878	0.14577	0.20103	0.12908	0.20646	0.092429	-2.4896	-2.6	-2.6417	-2.8021	-2.6771	-2.7146	-2.9958	-2.7354	-2.8979	-2.5667	-2.85	-3.0104	-2.6604	-2.8354	-2.7021	-2.6375	75.130	98.621	-50.119	77.702	23.442	190.444	-105.636	185.511	-28.230	250.951	218.895	172.766	-70.963	214.963	147.548	147.960	0.00033505	0.00036831	0.00014076	1096.3	3.0058e-06	4.3709e-06	1182	371.93	2.8182e-06	2.0454e-06	439.46	137.2	119.32	41.56	3.3519e-06	51.515	9.1787e-05	8.6728e-05	2.1932e-05	873.94	8.3852e-07	9.2338e-07	984.46	309.37	9.1208e-07	9.3691e-07	363.54	113.81	99.242	34.691	8.4722e-07	42.717	5.718	8.745	0.425	-93.862	54.254	58.248	-94.505	-88.836	44.886	52.968	-90.655	-85.722	-83.539	-78.125	23.856	-80.666	-8191	255	
3261.404	1	1	0	0	0.25477	0.11073	0.1151	0.13966	0.13518	0.22027	0.19106	0.38999	0.35208	0.24473	0.20716	0.27148	0.21998	0.25009	0.17482	0.082526	-2.4646	-2.7854	-2.6188	-3.0062	-2.6896	-2.7333	-2.9333	-2.375	-2.9479	-2.8125	-2.6667	-3.0125	-2.5104	-2.9188	-2.825	-2.5396	-99.826	-64.394	189.488	84.997	173.244	-20.494	222.466	224.873	80.920	-75.648	177.251	234.910	126.307	139.133	137.411	85.059	0.00037456	0.00049523	0.00025069	1083.8	4.7885e-06	3.4263e-06	1168.5	367.4	7.1664e-06	7.0341e-06	432.55	132.76	116.6	40.178	3.2893e-06	50.267	9.3153e-05	8.1018e-05	2.1866e-05	869.27	9.3193e-07	8.8885e-07	972.05	305.6	9.945e-07	8.4367e-07	357.27	110.23	97.054	33.732	7.843e-07	41.641	-2.446	-27.147	-29.538	-93.580	36.717	39.061	-94.439	-88.508	23.620	17.032	-90.950	-85.830	-83.757	-78.206	34.729	-81.394	-8191	255	
3261.500	1	1	0	0	0.13569	0.22533	0.099113	0.2124	0.074156	0.095223	0.13567	0.38526	0.11423	0.095818	0.38632	0.035864	0.19728	0.043854	0.037659	0.12545	-2.5625	-2.7458	-2.5833	-3.1896	-2.7104	-2.5646	-3.0333	-2.4458	-2.8417	-2.6854	-2.775	-2.8812	-2.7021	-2.6271	-2.9854	-2.6063	82.298	71.597	85.522	-3.428	-39.852	249.874	212.424	169.839	151.181	57.560	193.061	215.469	81.373	-75.015	38.422	-49.474	0.00039602	0.00014404	5.6929e-05	1087.7	2.3018e-06	4.1749e-06	1169.7	368.69	2.7548e-06	5.7616e-06	437.74	134.44	117.92	40.715	3.4346e-06	50.542	9.7123e-05	7.6764e-05	2.0112e-05	866.04	9.301e-07	8.0891e-07	971.72	306.52	9.4338e-07	7.9736e-07	360.35	111.47	97.781	33.981	8.01e-07	42.134	-8.975	-102.970	34.876	-94.339	2.097	28.004	-94.655	-88.286	241.493	40.434	-91.047	-86.117	-83.900	-78.153	33.835	-80.530	-8191	255	
3261.596	1	1	0	0	0.10225	0.11646	0.065301	0.47561	0.35014	0.31466	0.093302	0.18669	0.28323	0.29863	0.25094	0.1188	0.22887	0.18671	0.20843	0.31953	-2.3354	-2.6521	-2.7354	-2.8021	-2.5208	-2.6375	-3.0021	-2.4771	-2.7417	-2.8	-2.5896	-2.8771	-2.6375	-2.5687	-2.9688	-2.575	-45.085	225.478	94.189	241.732	106.172	102.411	114.864	116.771	239.033	22.862	240.024	151.473	200.681	-33.274	-82.432	244.634	0.0003173	0.00067636	0.00012005	1099.7	3.5334e-06	4.0191e-06	1173.3	371.23	1.1033e-06	6.0471e-06	440.08	136.11	119.73	41.174	1.5777e-06	51.745	9.6146e-05	7.3292e-05	1.8893e-05	874.21	9.4235e-07	8.1602e-07	980.07	309.26	9.4094e-07	7.8805e-07	364.22	113.25	99.25	34.443	7.7205e-07	42.975	13.822	-19.853	14.869	-93.535	-34.432	46.521	-94.447	-88.514	2.826	15.306	-90.510	-86.259	-83.546	-77.821	72.276	-81.276	-8191	255	
3261.692	1	1	0	0	0.15952	0.16061	0.1281	0.24835	0.11845	0.28244	0.25725	0.047608	0.13085	0.17804	0.24144	0.17045	0.071373	0.28085	0.19849	0.33858	-2.2708	-2.8229	-2.4125	-2.7104	-2.6542	-2.6229	-3.0896	-2.6375	-2.8	-3.0125	-2.4208	-3.0146	-2.7375	-2.6375	-2.9271	-2.4979	-89.785	-32.637	37.524	227.193	4.709	175.855	201.807	-56.721	114.094	-71.393	212.960	228.170	139.260	-67.173	146.985	241.363	0.00044706	0.00040509	0.00018785	1111.2	6.9096e-06	5.9131e-06	1177.3	371.48	4.4973e-06	3.6664e-06	442	136.36	118.71	40.748	4.146e-06	50.361	9.7751e-05	7.3114e-05	2.0108e-05	882.1	8.8895e-07	7.9833e-07	984.62	310.37	8.9888e-07	7.9054e-07	363.64	112.68	98.35	33.985	7.9606e-07	41.98	-6.969	-14.146	-15.464	-93.401	36.327	35.783	-94.758	-88.189	-17.582	94.730	-90.808	-85.710	-83.570	-78.695	15.392	-80.928	-8191	255	
3261.788	1	1	0	0	0.052185	0.14362	0.12218	0.32324	0.1888	0.22287	0.19623	0.23236	0.12619	0.22558	0.20358	0.13515	0.30289	0.17241	0.074671	0.29769	-2.2458	-2.7687	-2.5042	-2.7542	-2.5458	-2.3667	-3.0271	-2.8125	-2.4208	-2.7979	-2.4646	-2.8521	-2.8667	-2.475	-2.9146	-2.7417	40.834	149.238	166.622	166.934	-11.978	87.929	199.937	224.704	162.877	34.736	111.776	-62.877	233.636	151.846	169.810	168.434	0.00025354	0.0006129	8.6809e-05	1084.6	2.7575e-06	8.4977e-06	1158.5	367.23	4.2993e-06	4.8431e-06	429.97	133.65	116.73	40.444	4.1526e-06	50.025	9.177e-05	7.1469e-05	2.0958e-05	869.93	8.5184e-07	7.5525e-07	967.41	305.91	8.2003e-07	7.2565e-07	358.58	110.93	97.023	33.728	8.2748e-07	41.76	-3.081	-14.831	-6.227	-93.800	63.753	11.000	-94.641	-88.582	-6.277	66.035	-90.916	-85.870	-83.763	-77.844	82.631	-80.615	-8191	255	
3261.884	1	1	0	0	0.12158	0.12678	0.12836	0.1879	0.049441	0.1218	0.022632	0.10884	0.099204	0.075982	0.28319	0.021953	0.11919	0.27448	0.11404	0.13537	-1.9937	-2.8708	-2.4375	-2.8	-2.6042	-2.5062	-2.8521	-2.6833	-2.5167	-2.8354	-2.6229	-2.8688	-2.8042	-2.7438	-2.8208	-2.6583	180.321	116.202	35.518	-96.407	-62.132	168.919	73.686	-38.104	244.455	-49.728	65.900	-30.037	68.069	-104.439	-17.439	-72.142	0.00027601	0.00040567	0.00020918	1092.9	4.4497e-06	1.7998e-06	1174.9	369.18	3.1764e-06	4.4257e-06	438.78	135.35	118.21	40.874	1.7846e-06	51.229	8.8032e-05	6.9465e-05	2.2314e-05	871.4	8.0146e-07	7.2492e-07	976.16	308.63	8.3425e-07	7.6832e-07	362.83	112.31	98.126	33.964	8.8523e-07	42.323	10.050	16.419	-42.022	-93.276	28.427	56.454	-94.619	-88.373	49.311	39.702	-90.382	-85.630	-83.379	-78.162	0.285	-81.030	-8191	255	
3262.003	1	1	0	0	0.33387	0.28454	0.10042	0.055526	0.099214	0.31447	0.20533	0.22431	0.071035	0.05031	0.078729	0.18811	0.14953	0.091242	0.27863	0.049094	-2.1104	-2.9333	-2.2708	-2.6667	-2.7354	-2.4729	-3.0125	-2.7146	-2.5187	-2.8771	-2.4875	-2.6625	-3.0604	-2.4208	-2.9083	-2.7812	22.290	-34.976	128.296	22.143	-94.915	107.876	88.465	169.363	157.899	-5.536	110.987	218.334	-68.468	-101.089	42.518	-46.327	0.0003993	0.00065576	8.1875e-05	1094.6	2.3553e-06	4.5408e-06	1174.6	371.51	4.5557e-06	6.6701e-06	443.28	136.96	119.43	41.326	4.5152e-06	52.087	8.9332e-05	7.2493e-05	2.3414e-05	874.36	7.5859e-07	7.7385e-07	980.89	309.18	8.6753e-07	7.8345e-07	365.37	113.31	98.694	34.419	9.2167e-07	43.042	0.185	-4.393	36.421	-94.169	-0.377	67.295	-94.698	-88.141	-23.395	72.558	-90.638	-85.998	-83.732	-78.217	52.659	-80.832	-8191	255	
3262.100	1	1	0	0	0.17277	0.17491	0.21388	0.13685	0.17435	0.079982	0.25424	0.13424	0.1325	0.047717	0.13816	0.075014	0.10061	0.18665	0.18233	0.069568	-1.9562	-2.8896	-2.4667	-2.6937	-2.9729	-2.6396	-2.7167	-2.7604	-2.65	-3	-2.7396	-2.8312	-3.0354	-2.5667	-2.7021	-2.8958	203.751	24.021	-65.441	-92.722	-15.237	38.796	204.448	198.131	19.777	13.604	167.089	217.189	243.882	213.680	207.402	171.386	0.00029921	0.00040404	0.00012899	1104.8	4.0311e-06	1.5341e-06	1168.4	366.15	1.4254e-06	8.1333e-06	432.01	131.21	115.82	40.099	4.618e-06	50.498	8.6961e-05	7.5241e-05	2.2903e-05	873.97	7.384e-07	8.4993e-07	974.07	305.17	7.9724e-07	8.2229e-07	357.86	109.68	96.141	33.528	9.0562e-07	41.559	-12.016	4.684	-51.754	-93.759	43.184	45.980	-94.431	-88.672	23.821	48.095	-90.755	-85.767	-83.624	-78.124	64.579	-81.077	-8191	255	
3262.196	1	1	0	0	0.12691	0.11151	0.12404	0.11887	0.41189	0.13748	0.10402	0.23342	0.12294	0.11079	0.13906	0.2677	0.027595	0.16917	0.2333	0.06947	-1.9937	-2.8667	-2.6646	-2.3104	-2.9521	-2.6396	-2.6437	-2.8729	-2.3667	-2.8063	-2.7938	-2.5583	-3.0687	-2.6875	-2.6146	-2.9188	83.412	20.102	99.624	129.344	60.842	226.478	204.443	233.799	113.722	25.466	115.444	-11.086	106.715	110.221	148.078	-73.852	0.00041905	0.00045991	8.9981e-05	1085.2	6.1722e-06	4.007e-06	1164.1	367.92	4.9051e-06	4.5866e-06	435.06	133.07	115.71	40.353	1.6194e-06	50.299	8.2356e-05	7.778e-05	2.1468e-05	864.83	7.8008e-07	8.6769e-07	968.82	305.22	8.1527e-07	8.6458e-07	358.8	110.25	96.407	33.628	8.1671e-07	41.824	3.344	-29.783	-53.712	-94.335	54.653	29.101	-94.581	-88.474	6.375	59.253	-90.322	-85.926	-83.961	-77.882	29.640	-80.881	-8191	255	
3262.292	1	1	0	0	0.39604	0.16085	0.17838	0.082112	0.20122	0.093609	0.08089	0.39721	0.16326	0.04911	0.17596	0.079901	0.35481	0.13362	0.012113	0.15288	-1.9479	-2.7146	-2.5542	-2.4938	-2.9042	-2.9958	-2.7562	-2.9813	-2.3854	-2.7271	-3.0938	-2.6083	-2.8458	-2.5271	-2.6229	-2.9729	145.351	219.066	-52.438	239.144	-2.681	45.855	181.865	198.617	79.707	-94.489	-28.045	250.178	-70.070	-12.763	193.198	236.527	0.00051122	0.00013168	7.3966e-05	1086.5	1.6131e-06	4.8935e-06	1170.2	368.7	5.3251e-06	8.6332e-06	440.34	135.15	118.04	40.631	4.5506e-06	51.368	8.7911e-05	8.3868e-05	2.1749e-05	868.46	8.0241e-07	9.2938e-07	974.94	306.9	8.5087e-07	9.4036e-07	362.41	111.72	97.519	33.976	8.4213e-07	42.486	1.664	0.633	-27.882	-93.865	24.289	34.069	-94.237	-88.200	-19.746	39.170	-90.901	-85.794	-83.842	-77.816	71.425	-81.096	-8191	255	
3262.412	1	1	0	0	0.31352	0.22054	0.43621	0.27653	0.25055	0.10651	0.33903	0.15883	0.07494	0.13184	0.21538	0.20322	0.42034	0.032487	0.20474	0.19368	-1.8438	-2.6333	-2.8063	-2.4167	-2.7854	-2.4979	-2.7062	-3.0104	-2.4104	-2.6771	-2.9104	-2.725	-2.8333	-2.7375	-2.2917	-2.9292	-67.665	225.252	-72.015	209.773	73.561	128.388	179.647	223.766	59.684	224.850	248.950	150.232	236.055	-105.638	147.695	239.925	0.00040737	0.00069093	6.4806e-05	1108.4	2.5865e-06	4.4369e-06	1181.1	370.95	5.9997e-06	7.8453e-06	442.3	135.73	116.99	40.597	5.4209e-06	50.471	9.6055e-05	8.0958e-05	2.0529e-05	873.03	8.4058e-07	8.7128e-07	981.75	308.39	9.387e-07	8.1218e-07	365.14	112.36	97.39	33.874	8.3547e-07	42.206	10.837	-27.198	-14.354	-93.357	73.283	54.072	-94.659	-88.281	3.457	57.324	-90.221	-85.988	-83.604	-77.890	-11.659	-80.876	-8191	255	
3262.484	1	1	0	0	0.18078	0.21338	0.16779	0.13897	0.14054	0.25896	0.05642	0.24897	0.16257	0.023214	0.13987	0.1778	0.16991	0.089869	0.10835	0.16438	-2.1937	-2.6667	-2.575	-2.525	-2.6896	-2.5375	-2.7042	-3.2458	-2.375	-2.7667	-3.0417	-2.6063	-2.9396	-2.5479	-2.4792	-3.0438	232.352	188.784	87.414	244.843	-6.268	223.454	214.282	217.845	-23.016	-24.140	225.647	194.683	181.783	182.897	138.195	64.206	0.00046394	0.00013324	0.00010681	1094.5	5.3448e-06	5.7187e-06	1165.7	365.22	1.33e-06	3.1792e-06	434.71	133.59	115.59	40.008	8.1849e-06	49.756	9.6717e-05	7.7847e-05	1.8902e-05	865.72	9.1357e-07	8.3893e-07	967.16	304.92	9.5586e-07	8.5091e-07	358.54	109.77	95.973	33.48	7.6893e-07	41.518	-0.597	22.863	-66.888	-94.144	41.395	11.388	-94.305	-88.511	-8.272	81.732	-90.599	-85.786	-83.443	-78.096	63.556	-80.803	-8191	255	
3262.605	1	1	0	0	0.26856	0.057	0.12003	0.076505	0.19196	0.036573	0.14767	0.34991	0.16463	0.24093	0.272	0.20441	0.1735	0.28239	0.14193	0.24941	-2.2417	-2.7104	-2.9354	-2.6083	-2.9125	-2.7875	-2.6146	-2.9396	-2.7167	-2.5458	-2.9417	-2.7562	-2.75	-2.8333	-2.5625	-2.9104	34.456	114.096	-48.338	180.339	220.564	87.463	-66.037	207.039	225.008	-48.239	219.088	194.382	243.472	161.237	-42.156	205.839	0.00030033	0.00024837	0.00011255	1077.4	1.7479e-06	5.3618e-06	1167.1	368.38	3.6352e-06	3.2574e-06	435.85	134.3	116.89	40.577	9.9336e-07	50.497	9.5676e-05	7.6432e-05	1.9155e-05	861.41	9.1635e-07	7.8787e-07	974.41	307.08	9.1614e-07	7.9751e-07	360.64	111.7	97.374	33.841	7.7734e-07	42.149	7.210	-32.907	-43.466	-94.165	23.315	63.387	-94.311	-88.457	-44.587	98.286	-90.720	-85.773	-83.385	-78.141	72.110	-80.782	-8191	255	
3262.699	1	1	0	0	0.22652	0.28086	0.24969	0.15021	0.15938	0.14966	0.26678	0.14592	0.083746	0.14377	0.092254	0.20997	0.30554	0.35381	0.13323	0.15078	-2.0521	-2.6063	-2.9708	-2.475	-2.6646	-2.8146	-2.7	-3.0083	-2.725	-2.5187	-3.2021	-2.5917	-2.825	-2.8021	-2.6729	-2.8354	208.101	169.564	-65.100	83.207	-40.256	124.228	232.940	127.886	188.240	149.847	57.932	221.724	191.518	222.169	150.943	156.615	0.0003586	0.00028665	0.00018236	1094.4	4.9995e-06	2.7313e-06	1177.8	372.19	5.1917e-06	5.8598e-06	440.63	135.76	117.76	40.92	4.054e-06	51.72	9.4396e-05	7.3774e-05	1.8318e-05	870.81	8.6524e-07	8.3951e-07	979.43	309.01	9.3421e-07	7.8138e-07	363.99	112.85	97.739	34.113	7.7883e-07	42.929	5.613	-21.347	-47.302	-94.135	30.336	-16.538	-94.473	-88.326	-39.409	38.133	-90.990	-86.002	-83.838	-77.907	31.697	-80.601	-8191	255	
3262.795	1	1	0	0	0.042154	0.11329	0.048091	0.2946	0.2417	0.089394	0.14852	0.25569	0.15667	0.26265	0.22079	0.29033	0.19509	0.16774	0.15086	0.038562	-2.3417	-2.5729	-2.8021	-2.7479	-2.6312	-2.8354	-2.75	-3.0583	-2.8375	-2.5521	-3.0479	-2.725	-2.7208	-2.9562	-2.5854	-2.7438	75.495	-0.011	197.670	233.624	-93.815	109.748	204.507	213.194	-46.873	170.448	248.734	224.618	218.871	129.961	-75.924	81.780	0.0003518	0.00065558	9.0303e-05	1101.5	2.861e-06	3.3039e-06	1176.6	369.22	3.3009e-06	4.4175e-06	436.33	132.37	115.02	39.683	4.7582e-06	50.503	8.8233e-05	6.9755e-05	1.9304e-05	873.44	8.3402e-07	7.6297e-07	978.12	306.96	8.4038e-07	7.5484e-07	360.23	109.7	95.528	33.273	8.5023e-07	41.597	-9.748	-7.866	-17.697	-93.446	91.659	2.597	-94.795	-88.233	31.471	45.438	-90.764	-85.890	-83.555	-77.744	26.610	-81.017	-8191	255	
3262.891	1	1	0	0	0.25742	0.032531	0.1181	0.13722	0.31872	0.10251	0.28274	0.26325	0.022418	0.16659	0.29375	0.12228	0.11401	0.19871	0.21421	0.24704	-2.2188	-2.4625	-2.8292	-2.6125	-2.4458	-2.7687	-2.7625	-2.7604	-2.8229	-2.6083	-2.8625	-2.7521	-2.8021	-3.1583	-2.5875	-2.9021	77.280	81.497	-99.572	79.520	174.439	138.520	208.743	240.062	-68.974	-93.584	251.494	105.517	184.803	-97.231	224.506	189.970	0.00051833	0.00076217	0.00013762	1077.9	3.6438e-06	7.231e-06	1157.7	365.97	1.8057e-06	8.4017e-06	432.64	131.44	115.59	39.786	6.0024e-06	50.414	8.5671e-05	7.0327e-05	2.1614e-05	863.73	7.847e-07	7.4135e-07	964.04	304.29	8.3604e-07	7.32e-07	357.11	109.11	95.762	33.313	8.9059e-07	41.697	-10.237	43.471	-24.435	-93.399	18.130	1.100	-94.454	-88.202	-53.064	63.797	-90.255	-85.590	-83.717	-77.688	83.174	-80.452	-8191	255	
3262.988	1	1	0	0	0.18158	0.21854	0.20418	0.15755	0.15059	0.080067	0.12674	0.34778	0.12496	0.12085	0.18369	0.12633	0.13796	0.34306	0.33705	0.21763	-2.3833	-2.3167	-2.8187	-2.7042	-2.4396	-2.9021	-2.7042	-2.6813	-2.8542	-2.5354	-2.9146	-2.7562	-2.3979	-2.9917	-2.5521	-2.6688	240.585	202.566	-63.052	103.851	-31.834	192.223	220.054	218.965	-89.414	42.968	-78.698	130.118	215.719	-36.418	125.169	253.685	0.00032631	0.00070642	0.0001614	1085.9	5.3387e-06	2.4988e-06	1163.3	365.07	4.5839e-06	5.3008e-06	432.93	131.44	115.85	40.025	3.7685e-06	50.57	8.3297e-05	7.098e-05	2.2762e-05	862.93	7.4538e-07	7.5995e-07	966.78	304.12	7.8066e-07	7.4465e-07	357.56	109.33	95.833	33.466	8.8587e-07	41.994	3.376	-9.472	-40.499	-93.564	67.917	30.172	-94.707	-88.164	-63.336	44.736	-90.345	-85.739	-83.567	-78.152	-97.675	-80.994	-8191	255	
3263.084	1	1	0	0	0.14738	0.20831	0.090281	0.064511	0.10449	0.26478	0.32202	0.14317	0.22688	0.093728	0.18894	0.12648	0.35368	0.073349	0.37205	0.10646	-2.5396	-2.4229	-2.7292	-2.7583	-2.4813	-2.8792	-2.7958	-2.5979	-3.05	-2.6083	-2.8167	-2.7667	-2.4708	-2.9458	-2.6521	-2.675	1.268	117.215	-27.088	122.811	-64.407	126.029	156.070	-86.940	-105.334	176.620	148.761	128.446	202.702	176.059	-42.230	112.431	0.00028788	0.00053626	6.4132e-05	1085.5	2.5437e-06	5.4332e-06	1174.5	367.67	5.8037e-06	6.616e-06	434.2	133.78	116.29	40.603	4.8827e-06	51.044	7.9069e-05	7.3802e-05	2.1971e-05	863.21	7.6031e-07	7.8905e-07	973.53	304.67	7.2284e-07	8.2743e-07	359.65	110.81	96.412	33.851	8.9173e-07	42.303	3.614	-24.478	-30.850	-93.765	34.424	15.303	-94.582	-88.341	-18.620	53.623	-90.946	-86.209	-83.530	-78.080	59.489	-80.950	-8191	255	
3263.180	1	1	0	0	0.20624	0.018641	0.11149	0.12041	0.21208	0.11326	0.16788	0.15206	0.1533	0.13641	0.16733	0.2776	0.26072	0.13137	0.23293	0.17575	-2.5083	-2.4813	-2.7979	-2.8542	-2.3438	-2.9146	-2.7229	-2.7771	-2.7479	-2.5458	-2.8146	-2.8187	-2.475	-3.0312	-2.425	-2.4146	-97.486	-3.847	133.804	-95.185	-98.559	-67.399	-56.342	-40.057	229.821	160.005	181.025	189.089	-78.591	11.717	188.092	117.228	0.0004992	0.00012844	9.3626e-05	1083.3	3.8472e-07	5.8711e-06	1156.5	359.52	2.9163e-06	3.6935e-06	428.29	129.46	113.52	39.63	4.3167e-06	49.335	7.8729e-05	7.719e-05	2.12e-05	858.31	7.4363e-07	8.3042e-07	962.91	300.35	7.6236e-07	8.4769e-07	355.05	107.5	94.211	33.116	8.683e-07	41.053	12.001	-38.478	-62.144	-93.721	-22.705	51.399	-94.274	-88.467	-10.036	51.568	-90.715	-86.249	-83.799	-77.771	33.509	-80.546	-8191	255	
3263.276	1	1	0	0	0.095068	0.090163	0.34421	0.095581	0.18691	0.044506	0.18786	0.19188	0.088682	0.18026	0.26629	0.16715	0.04226	0.16785	0.027349	0.097328	-2.6	-2.5062	-2.6479	-2.8042	-2.5167	-2.9417	-2.8417	-2.5458	-2.8542	-2.6562	-2.8187	-3.0396	-2.4292	-2.9208	-2.7083	-2.5563	-24.607	-26.675	-88.218	246.272	-58.364	123.789	215.168	234.905	-38.191	-103.358	227.605	155.224	-37.024	200.353	-79.026	203.097	0.00039346	0.00053348	0.00017313	1058.3	4.46e-06	6.0521e-06	1163.6	361.24	4.437e-06	5.9651e-06	433.87	130.86	114.57	39.88	6.6336e-06	50.446	8.013e-05	8.0641e-05	1.9976e-05	847.86	7.9672e-07	8.3874e-07	962.64	301.12	7.9511e-07	9.3365e-07	356.41	108.56	95.109	33.219	7.8776e-07	41.667	-20.276	7.094	-15.758	-93.780	81.046	30.867	-94.444	-88.234	24.746	72.207	-90.590	-86.257	-84.198	-77.736	39.700	-80.575	-8191	255	
3263.372	1	1	0	0	0.11546	0.23608	0.12223	0.19009	0.24241	0.27937	0.20467	0.17009	0.15139	0.27546	0.2218	0.0034759	0.055917	0.24129	0.17292	0.11994	-2.3812	-2.5625	-2.6792	-2.9229	-2.6354	-2.8208	-2.925	-2.5917	-2.7562	-2.6417	-2.7646	-3.225	-2.6708	-2.8625	-2.8708	-2.4938	125.068	183.019	-58.239	170.721	-23.019	208.302	235.657	-73.714	-34.019	233.385	-42.650	-3.232	165.464	-92.997	-60.001	250.486	0.00042088	0.00080895	0.00015634	1058	3.2093e-06	6.9414e-06	1161.9	362.25	4.619e-06	2.4569e-06	435.71	132.54	115.51	39.988	4.6326e-06	51.012	8.5644e-05	7.5556e-05	2.0204e-05	851.01	7.7829e-07	8.379e-07	966.68	302.12	8.7491e-07	7.9295e-07	357.7	109.59	95.567	33.466	8.0214e-07	42.336	7.685	-14.403	-44.427	-94.390	76.304	25.162	-94.406	-88.065	-12.028	-2.974	-90.641	-85.825	-83.680	-77.402	23.973	-81.076	-8191	255	
3263.493	1	1	0	0	0.15274	0.14501	0.27941	0.11812	0.20788	0.07705	0.20968	0.20922	0.1169	0.37367	0.36192	0.10302	0.068325	0.16104	0.22061	0.23617	-2.3563	-2.7479	-2.5146	-2.675	-2.5062	-2.725	-2.9604	-2.6729	-2.7979	-2.6229	-2.625	-2.9896	-2.5062	-2.7958	-2.8583	-2.4729	232.849	-102.462	207.753	-96.479	-49.429	31.006	51.655	173.270	162.807	102.070	-100.778	185.895	232.378	249.053	169.994	197.923	0.00038985	0.00033069	0.00022679	1073.6	3.5299e-06	6.6973e-06	1171.4	361.03	4.7164e-06	5.6126e-06	432.18	130.14	114.23	39.401	6.1032e-06	50.034	9.2153e-05	7.3963e-05	1.9673e-05	861.45	8.4005e-07	8.1881e-07	973.09	301.95	8.8606e-07	7.6947e-07	356.97	108.3	94.615	33.116	7.3972e-07	41.39	-17.523	6.886	-23.695	-94.064	62.092	69.019	-94.887	-88.219	-29.348	21.417	-90.886	-85.742	-83.992	-77.920	58.213	-80.788	-8191	255	
3263.589	1	1	0	0	0.22396	0.13537	0.36685	0.19766	0.13612	0.10991	0.34881	0.1689	0.34672	0.2253	0.068045	0.20512	0.067573	0.11354	0.13852	0.085271	-2.4125	-2.5958	-2.5312	-2.9875	-2.5792	-2.6312	-2.8833	-2.5604	-2.9604	-2.6479	-2.7125	-2.8854	-2.675	-2.8688	-2.7438	-2.5771	-20.932	39.435	205.941	224.712	-53.219	173.896	222.355	249.972	133.821	-27.498	22.607	155.545	186.443	226.220	29.006	215.894	0.00039355	0.00031991	0.00016956	1068	4.3911e-06	4.1778e-06	1147.8	359.31	5.2701e-06	2.6412e-06	424.93	129.19	112.49	39.413	3.9005e-06	49.571	8.866e-05	7.3478e-05	1.8512e-05	846.37	8.562e-07	7.5601e-07	956.36	299.43	8.6727e-07	7.1707e-07	351.4	107.47	93.855	32.89	6.7931e-07	41.18	-10.760	43.532	-48.843	-93.455	22.622	1.135	-94.521	-88.323	27.111	126.229	-90.617	-85.998	-83.895	-77.516	63.683	-81.106	-8191	255	
3263.685	1	1	0	0	0.11097	0.18396	0.26882	0.23176	0.20174	0.080942	0.19094	0.40012	0.06028	0.041126	0.15326	0.26153	0.17007	0.12269	0.24309	0.02378	-2.5938	-2.8	-2.6542	-2.8958	-2.5729	-2.7396	-2.9146	-2.6375	-2.7271	-2.8312	-2.6875	-2.8438	-2.8333	-2.6917	-2.8521	-2.5729	84.849	-84.938	-56.654	-73.648	-28.354	91.307	245.170	193.880	156.810	143.694	195.728	171.838	178.389	250.035	148.260	226.771	0.00038384	0.00043778	0.00014156	1079.2	3.5817e-06	5.6317e-06	1163.9	358.02	1.4096e-06	6.241e-06	430.94	132.47	115.06	40.082	6.711e-06	50.88	8.7616e-05	7.1375e-05	1.8254e-05	852.52	8.1627e-07	7.2084e-07	961.99	299.2	8.7012e-07	7.2649e-07	356.55	109.46	95.256	33.353	7.3903e-07	42.052	3.854	-18.750	-2.024	-93.870	66.736	6.191	-94.717	-88.161	35.970	58.774	-90.799	-86.106	-83.882	-77.458	72.234	-80.605	-8191	255	
3263.780	1	1	0	0	0.21003	0.29494	0.13238	0.26053	0.25998	0.11425	0.21492	0.43129	0.31936	0.12822	0.39442	0.075595	0.16538	0.13817	0.13092	0.065236	-2.4104	-2.8604	-2.4833	-3.0229	-2.7479	-2.5	-2.9833	-2.5	-2.7375	-2.8917	-2.6708	-2.925	-2.7562	-2.6542	-2.7875	-2.5542	151.124	10.045	-90.129	224.082	240.316	182.260	227.880	190.383	170.189	251.288	152.345	180.099	237.118	-65.276	132.267	-39.404	0.00052188	0.00052191	0.00011704	1086.8	4.1715e-06	4.0619e-06	1164.6	365.88	7.1342e-06	4.7414e-06	438.32	134.63	116.41	40.335	4.1003e-06	51.4	8.7273e-05	6.7935e-05	1.8185e-05	858.48	7.7321e-07	7.1541e-07	970.44	302.78	8.171e-07	7.1373e-07	360.65	111.38	96.547	33.763	7.9762e-07	42.72	-10.992	-9.333	-28.599	-94.063	27.178	52.449	-94.767	-88.541	-21.563	84.861	-90.608	-85.707	-83.682	-77.726	10.615	-80.786	-8191	255	
3263.876	1	1	0	0	0.30117	0.13916	0.12827	0.15907	0.14762	0.070484	0.22251	0.19702	0.15401	0.22971	0.24328	0.40177	0.28488	0.27483	0.13817	0.19403	-2.1979	-2.8167	-2.6	-2.7917	-2.8292	-2.4021	-2.9625	-2.8729	-2.65	-3.0917	-2.5812	-2.8312	-2.9188	-2.3604	-2.8146	-2.7625	-25.698	238.141	107.243	184.587	195.444	154.957	203.015	223.307	-6.692	248.725	245.496	-90.148	224.569	-100.405	12.427	230.184	0.00038869	0.00025279	9.5775e-05	1078.7	3.3943e-06	4.4642e-06	1156.4	358.66	1.5913e-06	6.7174e-06	426.77	130.12	113.45	39.561	2.2256e-06	49.768	8.6101e-05	6.2613e-05	1.9539e-05	857.72	7.6924e-07	6.8597e-07	963.9	299.67	8.0717e-07	6.8964e-07	353.47	108.56	94.395	33.039	8.2021e-07	41.37	7.214	-13.887	-68.566	-94.586	101.499	12.758	-94.494	-88.342	-1.169	60.242	-90.557	-86.093	-84.031	-77.480	-5.929	-80.620	-8191	255	
3263.972	1	1	0	0	0.25415	0.085436	0.071288	0.26358	0.067251	0.1566	0.18366	0.41115	0.18033	0.16445	0.15489	0.16778	0.15756	0.032808	0.043967	0.035138	-2.0292	-2.875	-2.5604	-2.8104	-2.9708	-2.3958	-2.9854	-2.7021	-2.5563	-3.0521	-2.6333	-2.8854	-2.9188	-2.6375	-3.0563	-2.8	234.191	5.477	99.412	238.546	-53.363	139.586	237.576	211.467	89.224	111.732	180.179	-95.715	205.555	-37.199	-86.084	159.490	0.00041006	0.00067956	0.00014709	1075	6.5598e-07	4.759e-06	1159.3	359.19	2.7265e-06	3.0826e-06	431.89	131.31	114.02	40.267	8.0037e-06	50.06	8.5362e-05	6.4963e-05	2.0436e-05	854.17	7.8428e-07	7.1507e-07	963.32	299.54	8.1154e-07	7.2978e-07	356.03	109.33	94.588	33.412	8.8523e-07	41.704	-19.027	8.330	-9.441	-93.696	223.889	34.689	-94.762	-88.096	-20.119	82.097	-90.557	-85.967	-83.898	-77.513	52.668	-81.092	-8191	255	
3264.092	1	1	0	0	0.034005	0.060785	0.064654	0.15532	0.12961	0.1682	0.19281	0.28623	0.06339	0.20138	0.16415	0.25804	0.22791	0.16508	0.14384	0.031299	-1.975	-3.0583	-2.4	-2.6542	-2.975	-2.5854	-2.9083	-2.85	-2.5542	-3.1583	-2.6104	-2.8812	-3.0542	-2.7083	-2.9333	-2.8187	122.537	108.166	134.590	170.853	33.041	-74.415	207.478	188.065	139.420	177.686	110.694	239.557	145.226	11.428	-51.702	113.949	0.00042796	0.00040719	0.0001197	1058.3	3.0257e-06	5.3104e-06	1161.8	363.19	4.4341e-06	3.8701e-06	437.59	133.66	116	40.546	2.4844e-06	51.164	8.2131e-05	6.6109e-05	2.1299e-05	850.88	6.8786e-07	7.9016e-07	967.92	300.61	7.6027e-07	7.7073e-07	360.31	111.04	95.682	33.816	8.923e-07	42.549	-0.205	-31.330	5.862	-93.515	93.655	72.251	-94.816	-88.569	-78.202	61.059	-90.239	-85.865	-83.616	-78.116	88.583	-80.530	-8191	255	
3264.189	1	1	0	0	0.12791	0.045006	0.24297	0.080008	0.19543	0.18047	0.006502	0.28183	0.10072	0.10143	0.16632	0.030052	0.064946	0.064666	0.0659	0.18994	-2.1813	-2.9188	-2.5938	-2.8271	-2.9521	-2.5292	-2.9188	-2.9042	-2.5479	-2.9271	-2.8396	-2.6562	-2.8375	-2.5812	-2.5667	-2.8979	-30.919	55.567	-35.782	167.148	113.008	41.829	192.200	242.175	110.339	133.539	-16.817	117.928	230.672	34.222	239.102	106.418	0.00032757	0.00054354	0.00028008	1074.3	1.6319e-06	2.5623e-06	1175.1	363.67	5.5187e-06	5.1417e-06	437.78	133.63	114.65	40.493	3.9829e-06	50.415	8.1094e-05	7.6785e-05	2.0821e-05	858.93	7.0461e-07	8.5799e-07	978.87	303.04	7.9907e-07	8.2601e-07	361.3	111.21	95.59	33.663	8.2702e-07	41.991	-8.222	-7.164	3.529	-94.066	69.831	-26.248	-94.317	-88.515	-54.301	21.174	-90.690	-85.465	-83.272	-77.695	44.607	-80.540	-8191	255	
3264.285	1	1	0	0	0.21173	0.10799	0.18192	0.075688	0.080662	0.11115	0.26535	0.23401	0.050471	0.2203	0.16595	0.12911	0.15161	0.25139	0.103	0.31713	-2.1708	-2.7271	-2.5396	-2.5438	-2.7604	-2.6167	-2.5687	-2.8771	-2.3229	-2.8625	-2.7604	-2.4854	-3.0271	-2.5792	-2.6417	-2.7667	231.107	18.192	233.785	165.991	-34.010	177.585	203.611	183.071	84.112	1.691	215.132	148.220	82.738	146.760	-74.985	-44.148	0.00035215	0.0006157	0.00022475	1068.1	4.8123e-06	2.9744e-06	1155.1	357.7	3.0514e-06	2.7373e-06	433.39	130.73	114.24	39.739	6.5761e-06	50.054	8.3455e-05	7.69e-05	2.0992e-05	852.84	7.0809e-07	8.5387e-07	963.63	298.72	7.9466e-07	8.7225e-07	355.92	108.68	94.376	33.158	8.1139e-07	41.539	-2.729	-36.215	-24.227	-94.248	55.995	13.042	-94.514	-88.405	-42.740	36.724	-91.140	-85.843	-83.473	-77.659	82.706	-80.871	-8191	255	
3264.381	1	1	0	0	0.09999	0.10769	0.20966	0.14634	0.10261	0.050577	0.19652	0.090157	0.086534	0.21019	0.19028	0.24047	0.22789	0.1172	0.1763	0.09112	-2.1417	-2.8083	-2.6604	-2.6312	-2.8312	-2.6458	-2.8875	-3.1063	-2.6271	-2.6458	-2.9083	-2.6521	-3.0792	-2.7854	-2.5229	-3.0896	173.790	164.424	60.197	200.715	210.514	38.775	201.507	206.251	-60.654	-23.058	-94.765	130.425	213.031	-76.852	252.547	36.942	0.00029716	0.00051158	0.00019941	1066.6	2.299e-06	6.3181e-06	1159.5	360.59	4.1515e-06	5.7067e-06	432.99	133.39	115.81	39.969	6.1588e-06	50.709	8.3908e-05	7.9568e-05	2.0475e-05	852.92	7.2469e-07	8.6632e-07	964.55	300.21	8.3349e-07	8.3969e-07	356.88	110.21	95.383	33.417	7.9039e-07	42.048	-8.252	15.762	-16.451	-94.058	27.731	81.651	-94.435	-88.292	-6.436	20.817	-90.607	-85.714	-83.800	-77.892	15.393	-80.946	-8191	255	
3264.477	1	1	0	0	0.074029	0.17376	0.056344	0.28665	0.29878	0.20603	0.098115	0.056538	0.30731	0.21778	0.22469	0.13955	0.19657	0.23749	0.027431	0.19012	-2.15	-2.75	-2.9	-2.5187	-2.8271	-2.4771	-2.8479	-3.0292	-2.4167	-2.8708	-2.8354	-2.6542	-2.7917	-2.6354	-2.5833	-3.0271	163.055	123.726	103.601	-33.503	-63.581	-14.377	250.930	215.095	123.799	204.043	198.289	225.766	222.387	-68.178	28.948	74.778	0.00030512	0.0005825	0.00025065	1087.4	6.2532e-06	2.6945e-06	1171.1	359.44	4.6729e-06	7.1052e-07	431.62	132.3	114.79	40.033	5.7742e-06	50.988	8.997e-05	7.6816e-05	1.9696e-05	859.87	7.9569e-07	8.3099e-07	971.16	299.39	8.9602e-07	8.1731e-07	357.75	110.18	94.699	33.472	7.2089e-07	42.592	-12.078	-19.851	-25.234	-94.497	58.809	26.681	-94.627	-88.447	-38.806	-85.407	-90.492	-85.685	-83.426	-77.972	24.603	-80.386	-8191	255	
3264.573	1	1	0	0	0.26103	0.13957	0.026018	0.4567	0.14622	0.17103	0.11309	0.27974	0.029538	0.22007	0.082732	0.19178	0.24539	0.16737	0.082164	0.22682	-2.0417	-2.5854	-2.8854	-2.4688	-2.8167	-2.7417	-2.675	-3.0771	-2.5312	-2.75	-2.9167	-2.3583	-2.8312	-2.7062	-2.2771	-3.0104	195.846	229.555	160.941	-53.755	-11.596	238.649	40.514	145.682	19.371	235.918	99.396	245.462	167.619	233.944	129.031	-33.511	0.00038002	0.00040291	0.00015997	1077.4	5.4452e-06	3.9802e-06	1163.3	353.96	1.6665e-06	4.349e-06	426.56	127.59	110.32	38.989	3.6335e-06	49.747	9.1414e-05	7.0795e-05	1.701e-05	854.69	8.2283e-07	7.4918e-07	966.11	295.22	9.1614e-07	7.4905e-07	350.27	106.04	91.937	32.516	7.2686e-07	41.188	13.863	-36.001	-11.040	-93.655	29.454	-2.673	-94.772	-88.314	81.868	36.488	-90.417	-86.301	-83.420	-77.697	88.301	-80.930	-8191	255	
3264.669	1	1	0	0	0.37845	0.16094	0.19031	0.12903	0.11486	0.12687	0.21371	0.27579	0.1467	0.18153	0.11673	0.10456	0.061342	0.20687	0.22895	0.3595	-2.2208	-2.4417	-2.8146	-2.3854	-2.6833	-2.8312	-2.3958	-3.1063	-2.6542	-2.6	-2.9854	-2.4125	-2.8083	-2.7333	-2.6583	-2.8583	-46.559	112.245	96.203	-94.730	222.394	-21.222	146.422	226.011	115.185	124.467	-101.916	24.892	247.379	227.474	186.883	212.246	0.0005049	0.00036928	0.00018902	1055.1	5.2411e-06	3.9425e-06	1148	348.3	8.6059e-06	4.5152e-06	417.43	126.1	109.46	39.332	6.9516e-06	49.889	9.0621e-05	6.7855e-05	1.6648e-05	836.88	7.8294e-07	6.9781e-07	953.14	290.55	8.384e-07	7.2469e-07	344.47	104.75	90.836	32.541	7.2405e-07	41.426	11.864	20.880	-34.659	-94.153	44.003	44.320	-94.543	-88.278	-11.386	6.654	-90.790	-85.804	-83.735	-77.924	42.385	-80.624	-8191	255	
3264.788	1	1	0	0	0.073107	0.014579	0.28584	0.13684	0.21101	0.10482	0.26637	0.52471	0.10774	0.13453	0.2312	0.20506	0.18049	0.20106	0.042563	0.34315	-2.3021	-2.3771	-2.9	-2.5917	-2.7438	-2.8812	-2.6	-2.9792	-2.6437	-2.625	-2.6625	-2.6188	-2.8833	-2.8333	-2.4708	-3.0646	210.697	-55.479	175.583	177.677	119.021	217.345	125.558	199.318	-0.536	57.906	-49.011	-30.332	130.763	249.042	-75.918	198.311	0.0002976	0.00044784	0.00011715	1058.6	3.1843e-06	2.9232e-06	1154.9	349.2	5.4078e-06	1.2795e-06	424.73	127.13	110.12	39.27	4.4535e-06	50.693	8.2168e-05	6.5941e-05	1.6079e-05	841.4	7.7569e-07	6.8635e-07	957.37	290.59	7.7583e-07	6.837e-07	348.06	105.73	91.263	32.712	7.0263e-07	42.027	4.618	-9.866	1.167	-93.735	88.123	17.369	-94.705	-88.287	18.059	64.852	-90.466	-85.509	-83.488	-77.789	71.269	-80.776	-8191	255	
3264.884	1	1	0	0	0.14687	0.1953	0.069934	0.10711	0.17939	0.058092	0.34492	0.17866	0.14535	0.12435	0.19997	0.11949	0.055126	0.21363	0.19399	0.1867	-2.4479	-2.4354	-2.8625	-2.6958	-2.5917	-3.0667	-2.4646	-2.8458	-2.7083	-2.6083	-2.8771	-2.7917	-2.8688	-3.1625	-2.4188	-2.8208	75.314	245.658	76.114	-89.649	69.437	-2.022	147.656	191.200	-98.235	222.956	-14.941	79.919	-82.884	227.150	36.849	71.959	0.00041674	0.00062785	0.00012958	1058.4	4.7835e-06	4.1977e-06	1159.2	350.4	3.8232e-06	2.9131e-06	425.09	128.75	110.5	39.57	3.8915e-06	50.407	8.0113e-05	6.0597e-05	1.7796e-05	841.22	6.9797e-07	6.4502e-07	963.39	291.48	7.656e-07	7.1193e-07	350.92	106.9	91.775	32.949	7.5642e-07	42.016	-6.697	-3.444	-7.417	-93.599	41.539	18.865	-94.601	-88.481	-1.671	-0.601	-90.293	-85.745	-83.365	-77.933	51.893	-80.444	-8191	255	
3264.956	1	1	0	0	0.19601	0.15648	0.13068	0.1891	0.15433	0.11828	0.15974	0.15712	0.18222	0.19825	0.11141	0.21879	0.041011	0.12336	0.049202	0.26103	-2.3375	-2.3292	-2.6917	-2.5979	-2.5312	-3.0021	-2.6271	-2.9	-2.8021	-2.4062	-2.9813	-2.7812	-2.6229	-3.0083	-2.3792	-2.9667	144.454	-50.246	156.917	241.699	169.964	-3.496	187.165	228.391	150.958	-42.272	226.936	243.196	-101.435	224.039	59.999	104.935	0.00033104	0.00034887	0.00013623	1050.7	2.9354e-06	3.7296e-06	1151.8	348.37	5.1199e-06	3.8637e-06	420.25	124.26	108.51	38.713	2.486e-06	49.438	8.015e-05	6.0681e-05	1.8896e-05	839.4	6.8339e-07	6.2318e-07	952.8	289.66	7.1185e-07	6.637e-07	345.33	103.48	90.186	32.143	7.6722e-07	41.025	0.097	-20.189	-25.431	-94.376	50.269	26.655	-94.703	-88.530	-68.467	71.501	-90.750	-85.975	-83.376	-77.628	91.689	-81.017	-8191	255	
3265.054	1	1	0	0	0.22774	0.18539	0.22819	0.19646	0.17979	0.15515	0.22419	0.10301	0.27601	0.26561	0.11919	0.058932	0.0913	0.22102	0.073259	0.1991	-2.3688	-2.3792	-2.8688	-2.7104	-2.5292	-2.8438	-2.7812	-2.6979	-2.925	-2.5687	-2.8896	-2.7917	-2.4375	-2.8833	-2.5187	-2.8229	65.318	91.542	87.251	210.640	-32.283	54.438	218.395	-3.402	33.996	-97.055	205.896	-40.723	-71.651	-38.234	77.922	15.957	0.00038998	0.00030015	0.00017569	1036.7	1.617e-06	6.5667e-06	1146.9	348.17	1.9836e-06	2.0999e-06	418.34	125.71	108.51	38.913	5.591e-06	50.287	7.4659e-05	6.2036e-05	1.947e-05	830.45	6.8732e-07	6.6989e-07	951.01	289.37	6.7929e-07	6.8634e-07	344.71	104.4	89.927	32.34	7.716e-07	41.649	6.654	10.836	2.020	-94.036	73.480	63.612	-94.853	-88.619	-78.262	104.968	-90.580	-86.015	-83.646	-77.232	-7.582	-80.551	-8191	255	
3265.173	1	1	0	0	0.29147	0.058367	0.057558	0.18095	0.031852	0.14809	0.32658	0.15891	0.24076	0.094022	0.050972	0.011251	0.24136	0.033002	0.12628	0.038193	-2.4375	-2.5229	-2.9083	-2.6583	-2.4688	-2.9437	-2.9042	-2.6688	-2.8521	-2.3479	-2.8708	-2.7438	-2.5604	-2.9167	-2.7729	-2.6042	77.848	26.924	236.499	135.220	60.750	-105.739	216.277	182.893	99.427	49.292	198.657	144.802	-75.908	251.078	-93.123	212.873	0.00030196	0.0007492	4.8115e-05	1049.8	2.0551e-06	6.1683e-06	1154.4	346.36	1.7255e-06	5.955e-06	418.39	126	107.51	39.285	6.1454e-06	51.336	7.3977e-05	6.5365e-05	1.9415e-05	834.02	6.6251e-07	6.9911e-07	956.83	287.11	6.6929e-07	7.0998e-07	344.82	104.15	89.377	32.636	7.3862e-07	42.39	-15.902	-22.054	-61.673	-93.909	49.638	62.605	-94.538	-87.924	-10.216	54.529	-90.191	-85.779	-83.732	-77.493	42.932	-80.744	-8191	255	
3265.269	1	1	0	0	0.1468	0.14734	0.19273	0.22854	0.27308	0.097651	0.1631	0.55	0.13943	0.077414	0.21243	0.093958	0.068933	0.18792	0.15272	0.21489	-2.4813	-2.4042	-2.6813	-2.7771	-2.3063	-2.9104	-2.8354	-2.7042	-2.95	-2.4396	-2.8604	-2.9208	-2.6625	-2.8563	-2.8833	-2.5083	-69.296	-27.795	235.858	192.056	108.744	144.585	144.693	-86.482	120.794	47.590	-69.145	47.131	156.228	-65.361	245.831	-9.466	0.00039488	0.00034821	0.00017708	1044.4	3.1083e-06	3.269e-06	1148.8	341.35	6.5499e-06	4.2568e-06	410.4	121.49	106.07	38.23	3.6711e-06	49.413	7.3081e-05	6.8679e-05	1.7757e-05	831.42	6.4423e-07	7.4433e-07	956.93	285.02	6.8382e-07	7.5694e-07	339.26	100.85	87.525	31.97	6.9605e-07	40.878	-14.119	-17.449	-9.334	-93.702	69.974	39.722	-94.477	-88.293	-12.906	56.838	-90.483	-85.645	-83.232	-77.861	20.749	-80.612	-8191	255	
3265.365	1	1	0	0	0.24673	0.18499	0.070779	0.30541	0.08829	0.03027	0.25431	0.11217	0.26914	0.082312	0.16994	0.069601	0.1615	0.11826	0.16279	0.049364	-2.5417	-2.5125	-2.4146	-2.9229	-2.4083	-2.8187	-3.0021	-2.6375	-2.8979	-2.6312	-2.7625	-2.8667	-2.5604	-2.7521	-2.7833	-2.5646	237.986	52.254	16.648	-91.219	90.898	-25.345	195.473	201.988	30.168	-98.631	-27.683	188.224	-28.812	207.067	199.863	177.849	0.00040333	0.00034321	8.7801e-05	1022.2	1.5832e-06	1.6611e-06	1116.2	332.84	3.2145e-06	4.988e-06	396.35	117.72	103.34	37.612	1.9426e-06	48.985	7.3359e-05	6.9611e-05	1.7102e-05	814.58	6.8167e-07	7.5911e-07	924.82	277.21	7.1044e-07	7.8134e-07	327.44	97.774	85.636	31.55	7.0898e-07	40.623	-0.391	23.121	49.351	-94.271	74.508	29.637	-94.581	-88.040	-7.908	65.508	-90.576	-85.385	-83.591	-77.602	85.579	-81.124	-8191	255	
3265.486	1	1	0	0	0.23618	0.26498	0.22966	0.10015	0.29584	0.10723	0.18995	0.15725	0.10017	0.08847	0.075095	0.15464	0.26815	0.079514	0.22117	0.005839	-2.5958	-2.5521	-2.3417	-3.0729	-2.3667	-2.8583	-2.7583	-2.4229	-2.7938	-2.6896	-2.6729	-2.9375	-2.5792	-2.6625	-2.9271	-2.3333	159.495	46.122	-36.965	155.448	122.487	-1.087	229.659	244.681	249.192	227.544	101.791	87.138	137.418	197.694	-9.061	-40.216	0.00028036	0.00052613	0.00011756	1027.1	2.8356e-06	2.4259e-06	1119.9	334.8	2.6552e-06	7.6374e-06	401.94	120.33	104.65	38.397	5.6431e-06	49.968	8.0912e-05	6.8864e-05	1.8146e-05	815.82	7.5149e-07	7.2168e-07	931.28	279.08	7.4555e-07	7.5828e-07	333.32	99.87	86.837	31.986	6.3529e-07	41.468	-10.129	-18.460	-25.887	-94.165	115.450	2.031	-94.799	-88.139	-56.900	59.197	-90.443	-85.484	-83.315	-77.842	-7.668	-80.548	-8191	255	
3265.582	1	1	0	0	0.28214	0.24336	0.19563	0.16992	0.27663	0.29105	0.37841	0.20234	0.04244	0.12625	0.080117	0.22026	0.053757	0.22283	0.060263	0.080978	-2.2708	-2.6792	-2.5167	-2.9354	-2.6312	-2.8354	-3.0542	-2.3667	-2.9188	-2.5292	-2.575	-2.9417	-2.5396	-2.6375	-2.9938	-2.4146	-95.630	170.167	-34.959	50.391	68.003	-60.907	209.485	150.429	-78.732	40.115	67.633	187.458	-79.722	187.044	178.970	-70.875	0.00036254	0.00034789	0.00010452	1034	2.578e-06	2.7412e-06	1137	335.9	2.407e-06	5.5571e-06	412.13	123.37	105.57	38.921	1.2866e-06	50.812	8.0862e-05	6.5263e-05	1.6317e-05	823.21	7.4435e-07	6.8677e-07	943.95	280.3	7.6883e-07	6.5842e-07	338.66	101.95	87.483	32.533	6.5123e-07	42.355	-1.343	0.260	-11.989	-94.306	55.263	66.261	-94.564	-88.273	-17.031	27.940	-90.731	-84.939	-83.296	-77.526	74.992	-80.665	-8191	255	
3265.654	1	1	0	0	0.18999	0.36413	0.12915	0.32935	0.23026	0.31746	0.23155	0.37557	0.29464	0.10592	0.1092	0.1304	0.14542	0.20202	0.26695	0.073964	-2.4958	-2.6354	-2.5458	-2.9417	-2.8229	-2.675	-3.1063	-2.65	-2.6333	-2.8688	-2.4562	-3.1292	-2.7292	-2.8479	-2.7583	-2.5938	158.162	35.727	81.560	224.447	-27.300	167.276	-75.311	218.108	154.427	-45.294	187.981	108.370	186.594	-29.255	220.558	240.545	0.00033063	0.00049274	0.00013238	1033.2	2.4567e-06	5.4754e-06	1127.5	333.36	3.993e-06	1.0361e-06	394.45	115.8	101.38	37.771	4.7397e-06	49.099	8.061e-05	6.1596e-05	1.5654e-05	821.33	7.2049e-07	6.8811e-07	933.18	277.26	7.4696e-07	6.3379e-07	325.96	96.34	83.861	31.538	6.0501e-07	40.734	-7.460	-45.157	2.430	-93.900	10.063	54.769	-94.499	-88.139	-2.335	98.983	-90.527	-85.515	-83.474	-77.882	54.089	-80.961	-8191	255	
3265.774	1	1	0	0	0.047556	0.16991	0.14319	0.14995	0.11135	0.11155	0.12469	0.070625	0.16189	0.11633	0.25956	0.29741	0.32091	0.09026	0.13668	0.20035	-2.2208	-2.6792	-2.525	-2.75	-2.7438	-2.4667	-2.9313	-2.5625	-2.7708	-2.6854	-2.6896	-2.8833	-2.6625	-2.625	-2.7792	-2.7646	204.383	21.314	170.122	-92.035	126.775	-25.851	234.846	148.418	-90.377	185.650	-105.859	185.464	222.051	163.014	186.597	59.707	0.00036459	0.00025104	0.00019636	1011.8	3.342e-06	4.678e-06	1095.7	324.4	4.8072e-06	3.2852e-06	386.97	114.32	98.635	37.893	1.0138e-06	49.584	7.9361e-05	5.8607e-05	1.5378e-05	803.46	6.9145e-07	6.4907e-07	909.92	270.1	7.1139e-07	5.9326e-07	319.15	94.566	81.982	31.6	6.1308e-07	41.055	-9.678	-1.624	-7.098	-94.369	72.196	38.311	-94.347	-88.154	-56.601	48.586	-90.483	-84.983	-82.914	-77.570	30.230	-80.671	-8191	255	
3265.869	1	1	0	0	0.10129	0.088121	0.10908	0.14486	0.19776	0.27257	0.40133	0.1372	0.055792	0.10587	0.23497	0.13896	0.14491	0.094887	0.062553	0.13058	-2.3354	-2.8875	-2.4042	-2.8812	-2.7958	-2.4854	-3.0583	-2.575	-2.7521	-2.8083	-2.6188	-2.7958	-2.7771	-2.5458	-2.9062	-2.6792	33.054	-74.141	117.148	206.664	-9.475	233.482	145.263	187.258	97.442	154.882	162.333	49.861	-102.731	110.483	-24.869	181.297	0.00037436	0.00056006	0.00013065	1019.3	3.2561e-06	3.2744e-06	1107.3	321.15	6.2553e-06	3.9278e-06	384.86	113.87	98.008	38.4	7.6098e-06	50.593	7.5495e-05	5.5823e-05	1.6206e-05	806.89	6.3884e-07	6.0194e-07	917.28	268.34	6.5735e-07	5.9199e-07	317.66	94.698	81.338	32.069	6.6109e-07	42.043	-5.828	-17.399	-32.749	-94.559	14.687	57.479	-94.763	-88.149	6.278	50.245	-90.325	-85.374	-83.231	-77.245	28.895	-80.402	-8191	255	
3265.965	1	1	0	0	0.11544	0.046422	0.14551	0.28588	0.09714	0.06483	0.20934	0.42766	0.072302	0.10372	0.072791	0.089417	0.25566	0.093669	0.19335	0.35199	-2.3021	-2.8208	-2.5667	-2.8042	-2.7062	-2.4146	-3.0146	-2.8021	-2.575	-3.0521	-2.4521	-2.8312	-2.9271	-2.3646	-2.6813	-2.6813	-8.348	44.900	-31.162	193.732	186.457	172.232	220.768	206.278	236.923	75.352	-42.125	-81.361	200.703	26.124	155.937	197.637	0.00030372	0.00047238	6.3052e-05	1005.9	3.3418e-06	4.0392e-06	1095.3	314.51	6.478e-06	2.9224e-06	373.04	110.59	93.994	37.919	2.124e-06	49.354	7.5536e-05	5.2823e-05	1.6507e-05	799.71	6.1293e-07	5.4942e-07	914.36	262.14	6.578e-07	5.304e-07	308.54	91.722	77.568	31.517	6.7821e-07	40.94	-3.783	-26.345	-50.833	-93.572	90.065	44.069	-94.373	-88.053	-9.466	40.037	-90.520	-85.057	-82.788	-77.368	75.434	-80.253	-8191	255	
3266.085	1	1	0	0	0.073191	0.1934	0.2326	0.14539	0.048114	0.2093	0.1233	0.21164	0.25497	0.28675	0.1271	0.10742	0.016919	0.18192	0.057218	0.25184	-2.2583	-2.8771	-2.4375	-2.8688	-2.8417	-2.7229	-3.0167	-2.9042	-2.5542	-3.1021	-2.6437	-2.7354	-2.8917	-2.5667	-2.8854	-2.675	-68.985	75.407	213.360	-49.922	176.881	-50.271	175.300	215.747	-11.887	141.747	219.135	182.527	186.356	-30.748	-39.880	178.385	0.00042103	0.00056133	0.00011204	967.84	3.762e-06	4.2327e-06	1043.6	302.72	4.9754e-07	2.1471e-06	358.28	105.68	91.616	37.108	4.4432e-06	48.632	6.8671e-05	5.1224e-05	1.6179e-05	773	5.6704e-07	5.4598e-07	870.89	251.95	6.2288e-07	5.3695e-07	295.77	87.823	76.025	30.95	7.1693e-07	40.2	-7.782	-37.516	-51.587	-93.691	7.472	3.536	-94.326	-88.022	-63.566	33.525	-90.209	-85.132	-83.341	-77.649	54.990	-80.887	-8191	255	
3266.182	1	1	0	0	0.22031	0.060663	0.1056	0.17808	0.17427	0.021941	0.16495	0.24792	0.057585	0.2285	0.29727	0.28494	0.11617	0.24698	0.13221	0.2023	-1.8062	-2.8937	-2.6312	-2.6375	-2.8937	-2.4875	-2.9042	-2.8229	-2.5479	-2.8104	-2.6562	-2.525	-2.8021	-2.6	-2.7021	-2.9021	28.865	117.462	22.116	180.676	-81.032	17.935	157.582	197.473	234.206	165.498	-92.286	-55.408	-30.480	-96.860	-33.901	195.125	0.00032027	0.0002724	9.7479e-05	977.4	1.3743e-06	4.7845e-06	1061.6	305.72	6.4753e-06	5.8729e-06	363.07	107.32	92.844	37.566	4.7952e-06	49.52	6.5954e-05	5.4838e-05	1.6706e-05	776.7	5.5319e-07	6.0614e-07	879.08	254.91	6.2395e-07	5.882e-07	300.16	89.139	76.771	31.347	6.9087e-07	40.925	-14.899	-4.493	-41.875	-93.435	23.922	47.221	-94.271	-88.148	-19.592	45.737	-89.848	-85.397	-82.618	-77.556	110.635	-80.579	-8191	255	
3266.253	1	1	0	0	0.11726	0.26417	0.1955	0.16959	0.11734	0.14989	0.12709	0.23453	0.077815	0.10391	0.21106	0.1525	0.17997	0.037231	0.051269	0.15618	-2.0125	-2.7875	-2.5583	-2.5125	-2.7875	-2.2792	-3.0521	-2.8312	-2.4729	-2.9521	-2.7042	-2.6521	-2.8708	-2.6896	-2.7521	-2.8729	147.051	219.604	185.108	-83.493	248.453	-19.219	172.170	238.146	8.004	208.413	194.966	217.425	199.959	230.498	-46.629	143.597	0.00041648	0.00042222	0.00010777	988.73	2.5471e-06	6.0262e-06	1078	308.98	6.0696e-06	3.9488e-06	370.59	110.63	94.588	38.534	4.9432e-06	50.719	6.6297e-05	5.7231e-05	1.8191e-05	783.62	5.7781e-07	6.1699e-07	893.97	257.51	5.7975e-07	6.4543e-07	305.93	91.582	78.247	32.025	6.2282e-07	42.159	-6.287	-24.099	-46.654	-93.932	85.732	47.261	-94.429	-88.248	17.515	-6.921	-90.623	-85.359	-83.001	-77.146	25.952	-80.719	-8191	255	
3266.349	1	1	0	0	0.15639	0.25008	0.15999	0.16862	0.15797	0.044468	0.27432	0.31677	0.10683	0.16014	0.18961	0.11989	0.37346	0.071048	0.14269	0.33644	-2.2125	-2.8563	-2.6979	-2.6146	-2.8146	-2.7812	-2.825	-2.9854	-2.5125	-2.7042	-2.8271	-2.4813	-3.0625	-2.4646	-2.725	-2.8354	-76.119	-30.567	116.481	-75.556	47.526	149.745	164.023	233.126	171.188	-68.281	86.884	10.374	250.084	-69.371	-17.277	213.177	0.0003062	0.00030185	0.00012212	1004.3	4.3684e-06	5.2402e-06	1074.2	309.63	6.1379e-06	2.5037e-06	363.99	107.48	91.846	36.964	2.2639e-06	48.634	6.6831e-05	5.7576e-05	1.5578e-05	790.87	5.6254e-07	6.621e-07	891.51	257.14	6.2585e-07	6.5669e-07	301.16	88.971	76.555	30.951	5.912e-07	40.077	2.719	-36.461	-13.983	-93.894	43.232	24.502	-94.520	-88.064	-27.487	59.921	-90.790	-85.383	-82.896	-77.699	40.780	-80.443	-8191	255	
3266.470	1	1	0	0	0.18038	0.013491	0.14611	0.14849	0.11264	0.33553	0.0061554	0.084057	0.088196	0.1262	0.13523	0.16299	0.14329	0.10491	0.16085	0.22858	-2.1854	-2.8542	-2.8167	-2.3875	-2.925	-2.4833	-2.6833	-3.1521	-2.6125	-2.9229	-2.8	-2.575	-3.0167	-2.6437	-2.6354	-3.0292	239.916	224.614	124.302	185.647	72.009	-83.419	-71.235	181.253	220.687	225.413	199.326	248.246	-57.719	-33.799	-68.874	199.827	0.00039656	0.00039794	9.0589e-05	975.05	9.6791e-07	1.309e-06	1051.5	304.69	2.9958e-06	4.2668e-06	363.27	108.74	93.576	37.393	3.1789e-06	49.358	7.1808e-05	6.1464e-05	1.4224e-05	773.55	5.8487e-07	6.4899e-07	875.04	254.61	6.5525e-07	6.3007e-07	301.29	89.989	77.617	31.097	6.1897e-07	40.565	-11.075	-45.133	-33.246	-93.609	-63.256	3.225	-94.674	-88.394	-27.919	34.593	-90.255	-85.627	-82.900	-77.348	25.661	-80.757	-8191	255	
3266.566	1	1	0	0	0.018561	0.18251	0.086276	0.19477	0.10124	0.11732	0.14441	0.29163	0.16985	0.26755	0.1164	0.18139	0.10643	0.18627	0.1331	0.1817	-2.0062	-2.6917	-2.6792	-2.3125	-2.9479	-2.5687	-2.7917	-3	-2.5396	-2.7229	-2.8917	-2.7521	-2.9583	-2.7146	-2.3646	-3.0583	76.217	79.610	-92.619	-26.615	18.319	-102.730	173.543	217.572	28.219	244.198	72.644	-45.893	235.052	210.393	51.341	167.080	0.00033536	0.00028616	0.00015475	978	4.529e-06	1.9357e-06	1072.2	309.5	2.2995e-06	6.2329e-06	372.91	111.9	95.448	38.018	2.0409e-06	49.87	7.3594e-05	5.5268e-05	1.4624e-05	776.98	6.5743e-07	6.116e-07	892.86	258.68	6.8024e-07	6.5087e-07	308.5	92.445	79.114	31.602	5.9132e-07	41.378	2.683	-9.618	26.705	-93.627	59.124	33.351	-94.580	-87.761	-10.721	28.184	-90.237	-85.694	-82.997	-77.346	20.147	-80.864	-8191	255	
3266.662	1	1	0	0	0.18807	0.22784	0.12561	0.11875	0.063367	0.11305	0.15153	0.24975	0.24428	0.17791	0.37495	0.40404	0.18864	0.23037	0.16875	0.14667	-2.0687	-2.7979	-2.6625	-2.6896	-2.8729	-2.7958	-2.5875	-2.9437	-2.5833	-2.4854	-3.0771	-2.5521	-2.8229	-2.8625	-2.3146	-3.0854	186.921	-86.823	-21.028	175.597	1.492	194.318	98.524	193.127	121.762	19.591	229.277	-104.862	235.269	211.946	158.659	227.609	0.00043781	0.00032261	0.00017369	1002.6	1.7947e-06	4.7919e-06	1094.3	315.13	5.9289e-06	4.5208e-06	378.91	113.77	96.578	37.9	4.158e-06	49.846	7.6214e-05	5.5156e-05	1.3699e-05	792.24	6.6408e-07	6.1718e-07	909.68	262.15	7.209e-07	6.1073e-07	313.56	94.436	80.039	31.558	5.7397e-07	41.263	-9.930	-45.544	-37.066	-93.675	34.182	22.810	-94.720	-88.015	-8.029	60.623	-90.264	-85.335	-83.219	-77.507	70.375	-80.576	-8191	255	
3266.758	1	1	0	0	0.18254	0.09172	0.13053	0.24293	0.26492	0.16398	0.23727	0.15163	0.13112	0.28898	0.26294	0.46319	0.30617	0.10654	0.11365	0.11132	-2.1917	-2.5667	-3.0375	-2.4437	-2.8979	-2.8771	-2.4625	-3.0229	-2.6437	-2.7333	-2.9646	-2.7125	-2.7042	-2.9354	-2.4292	-2.9771	122.615	247.564	-58.880	155.935	-44.201	214.339	225.978	155.994	-5.819	30.845	-105.579	217.172	189.825	76.234	26.088	185.044	0.00048097	0.00028962	0.00010094	984.15	4.6253e-06	4.3342e-06	1064.8	309.93	3.1152e-06	3.9902e-06	372.27	109.51	94.895	37.119	4.9024e-06	48.494	7.5089e-05	5.4622e-05	1.3514e-05	784.18	6.5846e-07	5.8307e-07	885.18	258.91	6.3319e-07	5.7158e-07	306.8	90.952	78.663	30.857	5.939e-07	40.267	-8.274	-24.250	10.467	-93.610	14.441	32.730	-94.557	-88.287	-54.761	24.942	-90.729	-85.111	-83.091	-77.817	46.334	-80.904	-8191	255	
3266.877	1	1	0	0	0.35167	0.22945	0.096832	0.19229	0.27472	0.061075	0.29239	0.21737	0.048378	0.23351	0.10054	0.13954	0.20646	0.052272	0.098146	0.066504	-2.2208	-2.5604	-3.0021	-2.4708	-2.6688	-2.8875	-2.4771	-2.9458	-2.4542	-2.7729	-2.8625	-2.8104	-2.6604	-2.9375	-2.5479	-2.7938	39.039	60.573	-34.548	35.278	165.553	167.587	205.563	146.594	26.824	63.067	221.705	-91.377	-79.197	212.907	-58.486	-42.502	0.00033866	0.00063312	0.00020792	976.62	2.9906e-06	2.5867e-06	1078.6	315.33	5.7717e-06	4.5628e-06	379.38	113.27	98.013	37.453	2.1945e-06	49.808	7.0434e-05	5.5128e-05	1.3651e-05	782.86	6.1266e-07	5.5695e-07	897.15	262.61	6.4814e-07	5.6863e-07	313.09	93.763	80.995	31.193	6.375e-07	41.188	5.953	-41.280	-8.620	-94.501	14.382	35.703	-94.589	-88.053	-19.487	21.074	-90.362	-85.505	-83.155	-78.167	12.282	-80.598	-8191	255	
3266.949	1	1	0	0	0.28814	0.1845	0.16712	0.10244	0.19751	0.20364	0.28905	0.07248	0.099128	0.20364	0.27488	0.139	0.29745	0.35957	0.17258	0.17084	-2.4417	-2.4688	-2.8187	-2.5167	-2.5938	-2.9396	-2.5896	-2.7667	-2.8708	-2.5354	-3.0062	-2.6375	-2.6104	-2.8563	-2.5583	-2.9062	139.751	76.349	24.131	105.953	-49.009	159.496	172.042	-93.798	136.685	102.847	234.111	157.166	142.495	-98.022	158.378	162.812	0.00045261	0.00038745	6.3927e-05	1019.8	5.7518e-06	4.159e-06	1106.2	321	8.3275e-06	4.9605e-06	391.58	117.94	99.855	37.912	4.2354e-06	50.446	7.3299e-05	5.1088e-05	1.5747e-05	800.4	6.4877e-07	5.4018e-07	917.56	266.96	6.2555e-07	5.5648e-07	322.64	97.105	82.791	31.732	6.8597e-07	41.984	-7.671	-27.312	253.017	-94.727	41.708	-7.830	-94.853	-87.995	-3.397	13.138	-90.776	-85.370	-83.044	-77.807	-30.755	-80.362	-8191	255	
3267.045	1	1	0	0	0.22169	0.094764	0.43347	0.26342	0.11033	0.22626	0.15876	0.21644	0.25922	0.047965	0.057422	0.27752	0.17573	0.22496	0.13813	0.24768	-2.1458	-2.2938	-2.7917	-2.6125	-2.675	-2.825	-2.5563	-2.8854	-2.9333	-2.3979	-2.9688	-2.8208	-2.5854	-3.1104	-2.5875	-2.7479	-71.216	187.406	-61.657	208.613	89.338	110.912	190.246	204.619	20.584	166.361	242.008	167.410	199.499	-104.042	230.180	111.579	0.00042778	0.00045509	8.0369e-05	1018.4	2.3706e-06	3.8915e-06	1112.5	319.71	7.4093e-06	2.9595e-06	390.16	115.12	98.25	37.559	7.3403e-06	48.985	7.1438e-05	5.1384e-05	1.6718e-05	805.95	6.1159e-07	5.3002e-07	926.8	267.2	6.195e-07	5.769e-07	321.63	95.165	81.264	31.258	6.741e-07	40.645	-2.273	9.395	3.283	-93.987	46.806	50.915	-94.566	-88.202	19.559	54.177	-90.519	-85.955	-83.466	-77.653	50.716	-80.808	-8191	255	
3267.166	1	1	0	0	0.12429	0.19614	0.22769	0.20144	0.20603	0.05086	0.18903	0.13654	0.19143	0.14545	0.05135	0.23879	0.37763	0.17508	0.45273	0.035517	-2.6167	-2.7271	-2.9542	-2.8104	-2.5854	-2.9208	-2.825	-2.5833	-2.8438	-2.4833	-2.7604	-2.8417	-2.3167	-3.0125	-2.5938	-2.525	-35.831	221.304	4.282	-37.781	-2.993	113.901	174.866	103.426	-43.425	244.379	-32.553	163.139	-17.142	183.096	88.858	43.186	0.00036493	0.00019834	0.00011262	1008.6	2.9705e-06	1.5432e-06	1088.5	318.96	3.2355e-06	4.3999e-06	388.8	115.02	98.131	37.332	4.6864e-06	49.303	6.5575e-05	5.662e-05	1.7161e-05	798.67	5.7136e-07	5.7998e-07	905.82	265.32	6.3837e-07	6.0375e-07	320.13	95.209	81.813	31.163	6.8197e-07	40.757	-13.161	-100.145	-39.955	-93.942	66.158	45.213	-94.591	-88.245	-10.447	56.909	-90.316	-85.894	-83.426	-78.261	-2.011	-80.848	-8191	255	
3267.262	1	1	0	0	0.038105	0.19713	0.044589	0.083019	0.13825	0.1452	0.20437	0.4496	0.2281	0.19622	0.032904	0.091801	0.24754	0.10924	0.14912	0.34242	-2.3688	-2.3396	-2.8333	-2.7042	-2.3417	-2.9042	-2.7438	-2.7083	-2.7833	-2.7229	-3.0125	-2.7292	-2.6417	-3.0375	-2.5938	-2.6417	122.907	-99.965	-16.429	-13.783	63.884	206.725	170.156	225.124	170.595	120.259	-59.587	-101.424	162.045	191.310	118.047	109.547	0.00041057	0.0005869	2.9526e-05	1012.9	1.6706e-06	1.2901e-06	1111.4	324.88	2.3306e-06	4.3963e-06	394.9	118.46	101.91	37.792	8.6315e-06	49.932	6.5105e-05	5.7297e-05	1.5802e-05	803.33	5.5991e-07	5.9892e-07	923.25	269.98	5.8823e-07	6.4869e-07	327.66	98.254	84.349	31.589	7.0814e-07	41.57	-6.663	30.699	50.992	-93.973	14.272	-16.167	-94.698	-88.381	-71.347	35.568	-90.670	-85.699	-82.933	-77.777	48.777	-80.650	-8191	255	
3267.358	1	1	0	0	0.15064	0.31012	0.13811	0.16337	0.06491	0.046697	0.233	0.24442	0.091048	0.03397	0.066966	0.15373	0.052517	0.076443	0.19745	0.25492	-2.5833	-2.5563	-2.8417	-2.7792	-2.4396	-2.9917	-2.7854	-2.7083	-2.7792	-2.675	-2.8875	-2.9062	-2.4458	-2.8354	-2.8875	-2.7292	153.815	-12.563	-98.237	128.194	-36.841	-83.749	204.988	213.955	2.866	78.556	137.111	217.821	-52.914	-86.768	-15.872	179.439	0.0004625	0.00054277	8.0943e-05	1017.8	2.3231e-06	5.5064e-06	1118.3	328.51	1.9764e-06	2.9262e-06	402.72	122.27	103.04	38.511	6.0265e-06	50.168	6.7607e-05	6.3021e-05	1.7086e-05	808.33	5.8861e-07	6.6546e-07	935.24	273.54	6.1695e-07	6.9458e-07	333.48	101.12	85.815	32.038	6.4363e-07	41.829	-9.444	-5.623	15.912	-94.308	68.558	-6.039	-94.710	-88.063	-17.703	4.847	-90.382	-85.561	-83.452	-77.710	42.778	-80.622	-8191	255	
3267.454	1	1	0	0	0.039039	0.23075	0.10092	0.20415	0.050682	0.23726	0.27129	0.10336	0.11324	0.10987	0.13705	0.36051	0.22017	0.10573	0.33968	0.20346	-2.5479	-2.5646	-2.6646	-3.0146	-2.5042	-3.0771	-2.875	-2.6354	-2.8812	-2.7021	-2.7146	-3.2021	-2.4604	-2.7542	-2.9104	-2.6021	44.232	75.864	-29.224	5.484	150.380	-35.924	197.391	197.024	177.089	211.061	213.174	224.077	224.114	249.226	140.227	180.984	0.00035539	0.00068916	0.00010021	1014.2	2.9578e-06	2.9882e-06	1113.6	327.85	5.3115e-06	8.8313e-06	399.44	119.36	103	37.285	4.9187e-06	49.685	7.3537e-05	6.4285e-05	1.6216e-05	807.31	6.2411e-07	6.6164e-07	930.55	273.11	6.3684e-07	6.8588e-07	331.01	98.849	85.122	31.137	6.5321e-07	40.916	-17.913	-5.633	-10.870	-94.194	52.554	30.799	-95.076	-88.381	-44.104	81.979	-89.937	-85.595	-83.370	-77.756	47.057	-80.347	-8191	255	
3267.550	1	1	0	0	0.11435	0.22964	0.3443	0.17186	0.014151	0.33951	0.061508	0.08096	0.035694	0.2391	0.28039	0.098669	0.036913	0.073971	0.16496	0.23182	-2.3438	-2.5375	-2.6396	-2.9042	-2.55	-2.8625	-3.0042	-2.5438	-2.7896	-2.775	-2.8208	-2.8979	-2.6688	-2.6479	-3.0646	-2.4854	10.685	13.333	219.104	126.812	-22.069	118.984	89.787	149.215	179.345	108.231	238.838	206.501	36.722	-70.022	136.055	203.332	0.00046133	0.00047048	0.00011161	1028.1	3.6391e-06	6.2738e-06	1124.9	329.96	3.1659e-06	5.9602e-06	407.5	120.81	103.47	37.751	4.0474e-06	49.24	7.5176e-05	6.2305e-05	1.578e-05	812.42	6.8893e-07	6.7665e-07	934.99	274.13	7.3764e-07	6.6271e-07	333.77	100.16	85.684	31.445	5.9779e-07	41.144	-14.929	-53.491	-43.396	-93.803	78.386	38.134	-94.870	-88.153	-41.926	114.063	-90.341	-85.294	-83.552	-78.073	38.654	-80.755	-8191	255	
3267.646	1	1	0	0	0.33203	0.022213	0.10413	0.09719	0.14206	0.095312	0.1439	0.1842	0.065695	0.096236	0.31469	0.22476	0.13687	0.088798	0.25872	0.12216	-2.5438	-2.7021	-2.5167	-2.9313	-2.7083	-2.8646	-3.1083	-2.6937	-2.825	-2.8187	-2.5521	-2.9208	-2.6562	-2.5771	-2.9208	-2.4833	28.899	154.994	68.821	165.954	187.541	64.219	213.328	179.790	-75.978	122.911	230.122	225.892	9.114	11.305	-43.946	27.542	0.00035003	0.00085046	0.00016333	1022.7	3.458e-06	4.3066e-06	1121	331.92	3.7665e-06	3.3876e-06	411.97	123.52	105.08	37.931	5.4264e-06	50.507	7.8924e-05	5.904e-05	1.6194e-05	812.34	7.3645e-07	6.4101e-07	937.3	276.41	7.759e-07	6.7707e-07	337.58	102.19	87.022	31.771	6.1901e-07	41.968	0.261	-23.365	-4.124	-93.976	66.584	69.992	-94.587	-88.194	-64.179	11.240	-90.341	-85.709	-83.830	-77.386	40.317	-80.347	-8191	255	
3267.767	1	1	0	0	0.12778	0.12134	0.063177	0.17488	0.15877	0.058737	0.20351	0.21057	0.12365	0.088701	0.18092	0.078501	0.16358	0.098346	0.070246	0.11034	-2.4792	-2.6417	-2.5458	-2.9375	-2.6312	-2.4062	-3.1562	-2.3312	-2.8771	-2.8708	-2.5854	-2.8583	-2.7125	-2.6083	-3.0104	-2.5604	124.816	117.664	-75.665	233.638	125.245	63.462	168.756	196.054	16.834	75.157	-61.944	-0.831	19.311	249.360	55.176	215.819	0.00032379	0.00054553	9.3921e-05	1029.3	9.9888e-07	3.4972e-06	1137.8	331.74	4.5009e-06	2.3371e-06	406.2	122.1	105.03	37.521	2.0785e-06	49.444	8.0781e-05	6.0363e-05	1.5286e-05	821.02	7.1568e-07	6.286e-07	944.61	276.88	7.3947e-07	6.3631e-07	336.38	101.85	86.895	31.368	6.0437e-07	40.964	-5.803	-4.532	-43.323	-93.930	42.414	5.909	-94.312	-88.153	17.502	20.133	-90.573	-85.441	-83.328	-77.503	66.796	-80.890	-8191	255	
3267.862	1	1	0	0	0.19247	0.18556	0.24214	0.19934	0.049103	0.18834	0.16729	0.10642	0.29616	0.057059	0.19	0.26039	0.18879	0.11167	0.25974	0.2673	-2.2042	-2.8792	-2.4688	-2.9792	-2.6292	-2.5687	-3.0542	-2.6188	-2.725	-2.8167	-2.5875	-3.0833	-2.7812	-2.2562	-2.9708	-2.6354	9.659	219.999	167.874	187.365	25.617	232.137	71.218	173.035	-100.431	231.723	246.985	172.993	211.876	-93.501	-65.636	201.985	0.00035093	0.00036243	0.00014611	1018.4	4.1045e-06	4.7831e-06	1121.3	329.22	4.8222e-06	4.4867e-06	404.03	122.18	103.09	36.995	5.4549e-06	49.071	7.9179e-05	5.838e-05	1.5269e-05	807.1	6.706e-07	6.2623e-07	929.53	273.85	6.8865e-07	6.0835e-07	332.78	100.86	86.024	30.938	6.057e-07	40.723	-5.609	-4.406	-27.907	-94.040	68.029	42.383	-94.685	-88.025	-23.916	-0.034	-90.446	-85.339	-83.918	-77.702	2.094	-80.395	-8191	255	
3267.958	1	1	0	0	0.11648	0.019283	0.097431	0.16944	0.38185	0.26712	0.25815	0.076261	0.098362	0.26234	0.48396	0.17009	0.26917	0.083866	0.32071	0.12622	-2.175	-2.8042	-2.4437	-2.7229	-2.6729	-2.5792	-3.0646	-2.7042	-2.7521	-2.8792	-2.6188	-2.8708	-2.7021	-2.7042	-2.9208	-2.8563	-37.245	179.163	113.726	100.384	232.252	24.944	160.419	74.163	145.024	-29.520	229.156	190.828	160.027	204.423	-97.546	161.206	0.00044936	0.00033585	0.0001091	1028.8	3.9654e-06	2.018e-06	1117.8	331.08	4.9451e-06	3.0945e-06	410.87	123.64	105.29	37.802	2.594e-06	49.828	7.4323e-05	5.589e-05	1.6583e-05	816.23	6.6541e-07	6.0736e-07	933.14	275.77	6.7587e-07	5.7583e-07	337.73	102.79	87.189	31.578	6.6881e-07	41.405	-1.433	14.991	-16.934	-93.822	96.671	8.249	-94.415	-88.536	-46.270	50.180	-90.295	-85.345	-83.136	-77.804	8.043	-80.537	-8191	255	
3268.054	1	1	0	0	0.18917	0.18526	0.028263	0.035243	0.053076	0.27197	0.3021	0.3352	0.10503	0.43256	0.080308	0.13311	0.088467	0.19288	0.11669	0.19921	-2.2	-2.7833	-2.3917	-2.8396	-2.8063	-2.5021	-3.1354	-2.6854	-2.7313	-2.8875	-2.4896	-2.8438	-2.7333	-2.5646	-2.9354	-2.7542	18.863	-8.468	-1.782	44.698	-30.719	122.395	192.958	207.732	-52.019	105.602	109.557	230.184	5.520	209.657	87.814	-86.414	0.00042056	0.00054154	0.00017816	1023.4	3.5996e-06	5.0009e-06	1128.9	332.02	5.3797e-06	3.3566e-06	413.26	126.78	106.08	38.331	3.5049e-06	50.048	7.6546e-05	5.3738e-05	1.6631e-05	813.78	6.3701e-07	6.1905e-07	939.13	277.09	6.737e-07	5.7836e-07	339.68	105.09	88.084	31.916	7.3066e-07	41.824	-4.197	-12.160	-26.388	-93.880	45.477	17.335	-94.534	-88.338	-16.309	17.194	-90.266	-85.582	-83.835	-77.916	73.331	-80.711	-8191	255	
3268.127	1	1	0	0	0.095439	0.12897	0.20121	0.17528	0.13312	0.046684	0.090015	0.20606	0.14546	0.096219	0.12714	0.13237	0.25422	0.14586	0.081849	0.018828	-1.9479	-2.6771	-2.5646	-2.7125	-2.8854	-2.5271	-2.9229	-2.8	-2.3417	-2.8729	-2.5021	-2.7667	-2.8312	-2.65	-2.8167	-2.7292	16.043	144.799	201.169	191.858	-17.098	37.175	235.030	162.302	197.639	31.966	195.923	138.285	205.647	229.418	87.168	53.727	0.00042809	0.00043	0.00014602	1037.3	3.7033e-06	5.6081e-06	1133.2	333.26	3.9026e-06	1.9321e-06	408.76	123.44	105.01	37.542	8.2336e-06	48.964	7.4139e-05	5.5687e-05	1.7944e-05	819.92	6.3457e-07	6.2856e-07	940.61	276.32	7.1238e-07	6.0981e-07	336.52	102.21	86.711	31.209	7.5547e-07	40.685	11.635	6.606	-18.545	-94.115	100.572	26.277	-94.875	-88.403	-21.784	78.229	-90.433	-85.675	-83.421	-77.814	12.922	-80.912	-8191	255	
3268.246	1	1	0	0	0.10727	0.28935	0.029106	0.010796	0.12945	0.046148	0.10036	0.20719	0.074837	0.13887	0.19084	0.34435	0.23531	0.17405	0.090707	0.035163	-2.0583	-2.8521	-2.5	-2.5896	-2.8417	-2.4375	-2.9854	-2.7417	-2.5292	-2.8979	-2.6813	-2.6208	-2.9271	-2.6729	-2.8375	-2.8563	124.442	226.429	229.179	25.856	138.592	-26.743	243.929	231.503	-71.581	4.757	-3.920	195.437	-89.755	171.217	83.294	-85.329	0.00036639	0.00045967	0.00021828	1027.9	4.2932e-06	5.4696e-06	1128.3	334.38	4.3684e-06	3.1883e-06	412.03	125.47	107.06	37.614	7.3891e-06	49.601	6.8023e-05	6.2281e-05	1.8757e-05	813.25	6.2617e-07	7.1144e-07	935.55	277.8	6.7465e-07	6.9102e-07	338.68	103.66	88.372	31.439	7.2747e-07	41.148	-23.658	55.959	-14.691	-94.442	53.567	25.518	-94.579	-88.124	-18.981	50.957	-90.278	-86.032	-83.425	-77.749	32.871	-80.678	-8191	255	
3268.342	1	1	0	0	0.24402	0.15461	0.18683	0.16779	0.18493	0.092413	0.28813	0.1578	0.17341	0.17624	0.075441	0.23876	0.050609	0.14194	0.20547	0.22164	-1.9396	-2.8833	-2.5104	-2.7021	-2.8875	-2.675	-3.0292	-3.0083	-2.4208	-2.8333	-2.8146	-2.5312	-2.8604	-2.3792	-2.6854	-2.8729	-72.856	122.950	-94.547	13.965	152.840	148.395	167.259	245.578	114.432	-102.406	229.870	-88.366	13.951	250.683	-68.642	225.540	0.00028245	0.00075721	0.00018181	1021.6	2.4979e-06	4.286e-06	1133.1	336.29	3.6376e-06	5.6285e-06	417.27	126.78	107.75	38.028	3.4058e-06	50.536	7.073e-05	6.7373e-05	1.9549e-05	820.76	6.3071e-07	7.5388e-07	944.38	280.11	7.0968e-07	7.2982e-07	344.15	105.59	89.356	31.835	7.5178e-07	41.917	-12.463	-40.415	-47.206	-93.867	44.140	0.461	-94.866	-88.109	-6.403	23.074	-90.454	-85.673	-83.898	-77.235	69.374	-80.929	-8191	255	
3268.438	1	1	0	0	0.32436	0.2007	0.23206	0.13167	0.023806	0.16126	0.28701	0.10354	0.27349	0.14486	0.23924	0.11234	0.13656	0.34681	0.25403	0.39105	-1.9146	-2.9313	-2.4917	-2.5583	-2.6146	-2.5521	-2.7188	-3.0542	-2.3312	-2.8937	-2.6146	-2.3854	-2.8521	-2.3292	-2.7125	-2.8312	134.154	165.800	44.496	-97.383	104.659	156.241	199.582	220.343	46.077	-67.789	204.695	223.006	-21.115	-58.905	169.800	221.527	0.00044751	0.00057879	0.00011608	1046.8	2.3731e-06	7.0365e-06	1145.5	338.82	4.142e-06	3.9675e-06	419.16	129.21	107.64	38.394	2.6554e-06	50.284	7.7601e-05	6.9563e-05	1.8135e-05	827.36	6.7457e-07	7.9081e-07	950.42	282.84	7.3886e-07	7.6909e-07	345.27	107.09	89.855	31.916	7.0959e-07	41.414	-5.702	9.908	3.709	-94.259	2.464	50.066	-94.605	-88.547	2.532	16.696	-90.543	-85.838	-83.604	-77.673	137.772	-81.019	-8191	255	
3268.535	1	1	0	0	0.066168	0.097411	0.11637	0.019753	0.073745	0.10181	0.15415	0.29429	0.086636	0.28252	0.091052	0.12103	0.19041	0.17262	0.1282	0.13164	-1.975	-2.7396	-2.8604	-2.3688	-2.8146	-2.4833	-2.8958	-2.8833	-2.5312	-2.8625	-2.9333	-2.5979	-2.7917	-2.6479	-2.4542	-2.9188	205.463	38.525	17.958	-39.436	49.938	81.971	202.072	174.805	-59.372	31.041	217.290	40.769	208.358	27.946	206.850	-54.967	0.00042784	0.00041034	5.0597e-05	1027.9	3.5289e-06	6.8986e-06	1126	334.93	1.2278e-06	2.0074e-06	415.24	126.79	107.41	37.694	5.5588e-06	49.632	7.9562e-05	6.6168e-05	1.6817e-05	815.39	7.0252e-07	7.1144e-07	935.84	279.53	7.5601e-07	7.325e-07	342.65	105.05	89.025	31.397	6.744e-07	40.97	0.431	8.680	-90.559	-93.330	98.652	21.432	-94.571	-88.422	-8.345	68.507	-90.357	-85.704	-84.059	-77.730	57.641	-80.880	-8191	255	
3268.655	1	1	0	0	0.10669	0.16892	0.234	0.15124	0.10116	0.077286	0.20778	0.29222	0.19552	0.03856	0.30791	0.32409	0.15571	0.17225	0.15576	0.13279	-1.8625	-2.6729	-2.7438	-2.3771	-2.7479	-2.4813	-2.5833	-2.9625	-2.5312	-2.6417	-2.8917	-2.5062	-3.0354	-2.5708	-2.5125	-2.8521	-21.487	-27.013	-77.298	49.450	70.500	-59.585	173.877	211.043	-59.357	175.536	-29.248	206.313	184.509	101.436	181.584	236.278	0.00031935	0.00050006	9.8296e-05	1028.1	4.1802e-06	3.6089e-06	1131.5	336.57	5.3909e-07	5.6884e-06	418.5	127.79	107.68	38.1	5.0953e-06	49.831	8.5161e-05	6.3971e-05	1.6381e-05	819.65	7.5672e-07	7.0541e-07	938.73	280.1	7.9333e-07	6.9626e-07	343.29	105.52	89.279	31.657	6.6698e-07	41.406	3.653	-33.496	-19.380	-93.966	11.090	32.850	-94.740	-88.521	-16.305	47.803	-90.508	-86.138	-83.875	-78.136	24.232	-80.407	-8191	255	
3268.750	1	1	0	0	0.22046	0.18215	0.11672	0.24115	0.13083	0.097685	0.13493	0.25192	0.21544	0.13776	0.13971	0.26031	0.26807	0.1973	0.20405	0.30902	-2.3979	-2.6917	-2.8937	-2.6063	-2.8104	-2.6063	-2.5542	-3.0625	-2.3812	-2.5854	-3.0271	-2.4583	-2.7521	-2.7729	-2.6188	-2.8208	73.977	152.438	165.560	-11.607	243.154	249.740	228.425	173.899	131.420	156.368	161.008	230.015	228.196	218.420	3.705	218.176	0.00028111	0.00031026	0.00018729	1030.3	2.4093e-06	3.512e-06	1138.7	339.4	5.9743e-06	3.2322e-06	418.58	128.66	107.86	38.652	2.0671e-06	50.927	8.1325e-05	6.4408e-05	1.5906e-05	816.79	7.8405e-07	6.5961e-07	947.56	281.76	8.0481e-07	6.8887e-07	345.41	106.84	89.947	32.07	6.7394e-07	42.083	-0.582	-21.797	-38.428	-94.074	30.985	47.959	-94.468	-88.296	-28.742	36.422	-90.474	-85.639	-83.127	-77.930	67.210	-81.362	-8191	255	
3268.848	1	1	0	0	0.10579	0.2571	0.17019	0.16461	0.15978	0.2336	0.17806	0.26598	0.22221	0.11376	0.033939	0.059956	0.23786	0.090391	0.17199	0.19872	-2.2125	-2.4979	-2.9688	-2.6729	-2.8563	-2.8854	-2.6542	-2.9333	-2.8042	-2.6312	-3.0125	-2.4417	-2.975	-3.0187	-2.4521	-2.7917	37.690	-55.354	-87.566	162.080	-17.435	-98.053	224.836	-105.867	-92.790	192.210	245.601	-80.403	199.237	243.843	152.864	188.324	0.00040206	0.00053587	0.00015497	1042.9	3.8553e-06	2.8318e-06	1136.8	338.52	2.8992e-06	5.528e-06	414.58	126.39	106.58	37.535	4.5e-06	48.649	8.2588e-05	6.5155e-05	1.6457e-05	828.97	7.3805e-07	6.6653e-07	946.52	282.53	7.9698e-07	6.5689e-07	341.12	104.94	88.576	31.308	6.6634e-07	40.574	-15.733	-21.990	-20.578	-93.858	75.986	50.417	-94.758	-88.156	28.644	49.406	-90.451	-85.727	-83.802	-77.805	33.443	-81.094	-8191	255	
3268.942	1	1	0	0	0.15136	0.071781	0.12606	0.30774	0.061411	0.16596	0.14803	0.18009	0.17579	0.35043	0.087341	0.079227	0.17842	0.052122	0.097735	0.10067	-2.3354	-2.6167	-2.9813	-2.6312	-2.7583	-3.0646	-2.7125	-3.0542	-2.8479	-2.5229	-2.9208	-2.75	-2.6688	-2.9437	-2.4479	-2.9208	15.844	4.320	94.687	-97.532	-5.023	73.043	241.065	200.751	163.181	38.481	-87.399	69.547	-75.244	149.930	202.894	141.205	0.00035008	0.00042672	9.4416e-05	1036.8	1.6456e-06	2.7766e-06	1125	333.75	3.5479e-06	6.6432e-06	413.96	126.05	106.92	37.781	5.583e-06	49.045	7.9428e-05	6.1879e-05	1.6428e-05	818.06	7.0954e-07	6.5003e-07	935.5	279.67	7.3384e-07	6.5076e-07	340.98	104.34	88.936	31.368	7.2507e-07	40.833	-8.208	-3.082	-39.308	-94.135	20.105	2.774	-94.660	-88.057	-48.913	44.508	-90.601	-85.918	-83.854	-78.053	20.042	-80.329	-8191	255	
3269.038	1	1	0	0	0.041036	0.21351	0.051531	0.043375	0.094294	0.040976	0.27578	0.062082	0.15293	0.17713	0.14735	0.29753	0.024734	0.10882	0.10479	0.17828	-2.125	-2.3458	-2.8354	-2.5542	-2.7146	-2.8271	-2.5396	-2.9104	-2.7208	-2.5604	-2.8604	-2.8042	-2.6833	-3.1375	-2.5375	-2.6937	-100.206	15.301	-18.878	200.850	-39.031	48.467	-105.774	168.596	99.581	-9.939	160.892	202.235	32.030	253.270	65.859	113.844	0.00031811	0.0002348	8.9999e-05	1025.2	5.6072e-06	3.1717e-06	1132.5	338.48	7.1224e-06	2.5833e-06	411.44	125.38	106.6	37.736	2.1508e-06	49.788	7.835e-05	6.2857e-05	1.8107e-05	818.97	6.9041e-07	6.1118e-07	939.22	280.13	7.1527e-07	6.2808e-07	340.27	104.35	88.513	31.559	7.9781e-07	41.265	-7.607	-38.023	-41.785	-94.138	58.227	46.431	-95.003	-87.887	-22.216	75.984	-90.736	-85.579	-83.450	-77.997	36.049	-80.582	-8191	255	
3269.134	1	1	0	0	0.095021	0.18456	0.16406	0.14939	0.067557	0.061053	0.18893	0.34831	0.079367	0.044245	0.028155	0.25339	0.097549	0.099679	0.17252	0.079033	-2.4646	-2.4292	-2.8625	-2.6917	-2.6167	-2.8521	-2.5708	-2.7625	-2.9771	-2.5438	-2.8854	-2.9104	-2.5646	-2.8875	-2.3583	-2.7104	74.002	1.619	-19.733	-48.421	108.949	45.950	140.601	230.004	-53.252	207.186	231.223	247.573	-6.300	249.026	236.348	181.122	0.00044986	0.00045359	0.00016972	1024.1	2.1079e-06	3.945e-06	1127.9	338.67	4.2826e-06	3.9499e-06	415.03	126.28	106.31	38.016	1.8618e-06	49.255	7.7285e-05	5.8306e-05	1.8636e-05	816.78	6.8748e-07	6.1672e-07	941.6	280.76	7.3349e-07	6.6922e-07	342.15	105.23	88.514	31.682	7.6559e-07	41.173	0.173	-22.290	-47.752	-94.219	24.641	19.501	-94.309	-88.085	-24.705	94.035	-90.634	-85.391	-83.855	-78.036	77.216	-80.582	-8191	255	
3269.255	1	1	0	0	0.21098	0.17017	0.19996	0.38854	0.2365	0.30168	0.23222	0.076598	0.11175	0.34318	0.28342	0.14505	0.2719	0.12724	0.33172	0.31642	-2.4854	-2.4646	-2.8146	-2.6417	-2.2542	-3.1312	-2.5896	-2.7812	-2.8979	-2.7104	-2.9146	-2.7438	-2.6604	-2.875	-2.5354	-2.7542	239.637	-57.997	197.645	189.273	174.298	241.698	190.411	-93.974	108.357	-100.064	90.801	165.962	-67.820	217.396	-40.263	201.312	0.00039824	9.747e-05	0.00015524	1024.5	3.1269e-06	3.1731e-06	1122.1	332.12	1.9607e-06	2.1416e-06	404.99	123.08	104.72	37.286	6.2022e-06	48.357	7.4384e-05	5.823e-05	1.8718e-05	815.66	6.5385e-07	6.8536e-07	930.64	275.94	6.9489e-07	6.7497e-07	334.58	101.99	86.699	31.092	7.9343e-07	40.054	9.931	-18.901	10.879	-94.180	59.909	3.817	-94.666	-88.308	-28.923	49.016	-90.342	-85.844	-83.693	-77.942	45.509	-80.472	-8191	255	
3269.351	1	1	0	0	0.11714	0.20509	0.21366	0.11403	0.1654	0.29828	0.10959	0.21852	0.16233	0.10134	0.048018	0.29596	0.27599	0.053613	0.15102	0.17601	-2.5312	-2.3896	-2.7729	-2.7792	-2.3625	-3.0104	-2.95	-2.7229	-3.0229	-2.55	-2.9604	-2.725	-2.3563	-3.1271	-2.6146	-2.7	-71.387	113.158	10.715	58.204	-78.132	132.427	97.118	202.938	-87.470	171.909	-75.392	208.762	-73.960	208.482	-5.732	96.786	0.00036577	0.00045349	0.00014309	1019.6	3.8138e-06	2.7625e-06	1117.1	330.48	5.618e-06	3.5746e-06	403.96	123.15	105.07	37.386	5.982e-06	48.951	6.8886e-05	6.5882e-05	1.8763e-05	808.25	6.4785e-07	6.5843e-07	927.55	275.75	6.632e-07	7.4262e-07	335.37	102.34	87.01	31.132	7.2382e-07	40.562	-1.503	-19.951	-3.678	-93.500	48.878	32.584	-94.333	-88.167	-5.195	25.572	-90.666	-85.825	-83.433	-77.523	24.314	-80.637	-8191	255	
3269.447	1	1	0	0	0.36763	0.074622	0.20976	0.060468	0.09712	0.15274	0.18559	0.23984	0.24937	0.17538	0.032303	0.32027	0.12219	0.23679	0.013098	0.22553	-2.4458	-2.3854	-2.7542	-2.925	-2.5312	-3.0771	-2.8042	-2.8479	-2.8812	-2.4792	-2.7396	-2.8479	-2.5729	-2.8937	-2.8771	-2.5208	-39.675	-98.961	161.878	156.024	182.705	-105.569	240.925	-102.753	243.754	-71.063	251.175	145.720	186.552	211.614	-7.853	164.464	0.00034179	0.00017351	0.00014959	1009.3	3.4336e-06	2.1048e-06	1123.6	330.16	5.3329e-06	3.1095e-06	408.63	124.43	105.57	37.3	4.1462e-06	49.677	7.3739e-05	6.6332e-05	1.869e-05	808.85	6.4102e-07	7.0415e-07	932.16	274.52	6.694e-07	7.7947e-07	337.29	103.29	87.534	31.185	6.9061e-07	41.053	-0.363	30.471	-39.108	-93.650	59.433	34.336	-94.531	-88.228	-24.305	-4.893	-90.549	-85.867	-83.631	-77.559	48.493	-80.564	-8191	255	
3269.543	1	1	0	0	0.24305	0.072358	0.12804	0.086117	0.031112	0.22626	0.25436	0.38203	0.17578	0.10007	0.25922	0.023163	0.11553	0.11644	0.14816	0.12362	-2.5167	-2.6896	-2.4833	-3.0375	-2.6583	-2.8187	-3.1542	-2.6354	-2.8625	-2.5625	-2.8063	-3.1312	-2.3667	-2.6833	-2.7396	-2.6063	-24.554	-99.279	165.277	252.887	-52.404	-80.504	229.867	236.688	232.127	13.793	-37.125	197.526	-65.948	-57.574	-77.878	125.324	0.00033706	0.00056581	9.9565e-05	1033.4	2.7483e-06	5.4483e-06	1119.4	330.82	2.7824e-06	3.2382e-06	406.17	122.29	103.53	36.751	4.412e-06	48.394	7.5683e-05	6.9657e-05	1.8012e-05	815.97	6.7557e-07	7.2382e-07	932.8	275.62	7.3646e-07	7.1756e-07	335.16	101.09	85.854	30.757	6.4503e-07	39.923	-21.069	6.126	-18.213	-94.180	97.417	49.261	-94.375	-88.671	-20.645	43.696	-90.404	-85.397	-83.499	-78.251	38.432	-80.844	-8191	255	
3269.639	1	1	0	0	0.069731	0.21648	0.032663	0.20993	0.12765	0.1045	0.33103	0.23064	0.093603	0.072564	0.071746	0.28189	0.086957	0.1306	0.061254	0.14517	-2.4125	-2.4708	-2.5875	-2.8521	-2.5771	-2.7938	-2.8771	-2.4896	-2.85	-2.5125	-2.5396	-2.8854	-2.7146	-2.7917	-2.8396	-2.425	90.052	203.038	-2.747	-18.678	-30.608	-67.885	209.249	174.919	109.904	208.449	-15.423	253.051	24.511	-59.443	90.813	185.886	0.00030996	0.00082828	0.00013338	1010.6	1.5931e-06	5.8216e-06	1097	324.91	5.7608e-06	5.2289e-06	400.94	120.61	102.26	36.576	2.2579e-06	47.981	7.7477e-05	6.6252e-05	1.6469e-05	799.22	7.0664e-07	6.8669e-07	911.19	270.39	7.3817e-07	6.9205e-07	328.9	99.616	84.679	30.553	6.456e-07	39.833	-15.219	-8.383	-18.987	-93.963	31.967	26.100	-94.717	-88.348	-54.484	41.247	-90.607	-85.928	-83.662	-78.008	19.764	-80.660	-8191	255	
3269.736	1	1	0	0	0.023533	0.051431	0.19008	0.07878	0.10132	0.11728	0.14567	0.38941	0.2935	0.19824	0.16712	0.12676	0.30073	0.30389	0.27595	0.20065	-2.4	-2.6083	-2.5979	-2.8729	-2.4604	-2.6625	-3.0521	-2.6875	-2.7646	-2.7167	-2.425	-2.8708	-2.6688	-2.4604	-2.8812	-2.4729	223.510	27.645	83.492	-13.281	31.570	194.234	129.545	204.930	-11.617	-8.426	184.517	133.207	-60.354	-42.864	-82.481	-84.518	0.00032176	0.00017368	0.0002278	997.1	2.4598e-06	3.6432e-06	1103.4	326.01	5.6119e-06	2.3439e-06	401.77	121.12	103.23	37.015	4.2443e-06	49.247	7.7745e-05	6.1739e-05	1.57e-05	794.5	7.3053e-07	6.5079e-07	915.97	271.06	7.7446e-07	6.8554e-07	330.39	100.39	85.46	30.755	6.014e-07	40.475	-13.481	249.241	-33.069	-93.398	100.477	7.508	-94.712	-88.072	8.289	15.816	-90.303	-85.310	-83.385	-77.620	43.751	-81.025	-8191	255	
3269.830	1	1	0	0	0.18019	0.16589	0.17938	0.1411	0.065235	0.1294	0.049543	0.22357	0.11246	0.20355	0.1446	0.14499	0.19914	0.078725	0.15439	0.24836	-2.3521	-2.7146	-2.2646	-2.8396	-2.7167	-2.5417	-3.0521	-2.5833	-2.8812	-2.6229	-2.5625	-2.9062	-2.7104	-2.8438	-2.6833	-2.4396	249.918	250.536	247.507	204.572	-93.007	170.785	108.393	-97.445	25.834	-76.161	185.733	-91.068	145.840	130.598	59.009	-104.132	0.00039062	0.00026594	0.00021743	1018.1	3.8417e-06	3.2617e-06	1111.6	325.96	6.749e-06	4.8002e-06	401.61	122.3	102.56	37.105	3.142e-06	49.035	7.9022e-05	5.8034e-05	1.5935e-05	802.06	7.0267e-07	6.5709e-07	920.57	271.41	7.7005e-07	6.5183e-07	332.47	101.76	85.136	30.957	6.2445e-07	40.78	0.091	-31.242	-19.752	-93.497	95.116	41.245	-94.656	-88.167	40.422	34.755	-90.317	-85.218	-83.377	-77.776	31.036	-81.182	-8191	255	
3269.951	1	1	0	0	0.15551	0.10968	0.051177	0.18426	0.054583	0.11761	0.15941	0.16481	0.09782	0.1529	0.088601	0.14379	0.19464	0.25922	0.17954	0.19226	-2.4229	-2.7542	-2.5521	-2.8125	-2.8542	-2.5021	-3.1813	-2.4521	-2.9604	-2.9271	-2.5646	-2.9875	-2.9104	-2.4729	-2.7938	-2.5896	-14.245	52.223	142.643	-73.369	-89.280	-48.747	-66.997	125.694	-34.162	173.904	159.361	154.572	186.391	12.338	47.464	237.610	0.00047185	0.00038666	0.00017159	1008.4	4.9592e-06	4.8768e-06	1093.2	319.79	2.5264e-06	2.5875e-06	391.38	118.2	100.85	36.116	2.8599e-06	47.64	7.4337e-05	5.7353e-05	1.572e-05	798.24	6.9568e-07	6.061e-07	909.84	267.34	7.0154e-07	6.1586e-07	323.03	97.964	83.089	30.154	5.8698e-07	39.422	-4.588	30.482	-20.400	-94.222	63.020	59.627	-94.683	-87.802	-55.255	47.309	-90.535	-85.747	-83.817	-78.109	34.257	-81.069	-8191	255	
3270.047	1	1	0	0	0.07914	0.17252	0.060075	0.20302	0.32752	0.10175	0.25731	0.12942	0.027358	0.14474	0.17836	0.31767	0.17619	0.015778	0.036607	0.40267	-2.1042	-2.8375	-2.275	-2.8104	-2.6354	-2.275	-3.0687	-2.6417	-2.6625	-2.8854	-2.4479	-2.65	-2.8125	-2.5438	-3.0021	-2.6646	-57.362	206.711	198.272	251.377	85.834	-59.135	164.488	236.071	104.907	25.684	220.135	146.108	218.710	230.243	-87.186	205.646	0.00024081	0.00059008	1.8228e-05	995.08	2.971e-06	4.6416e-06	1093	322.15	7.6679e-07	5.3461e-06	393.04	118.89	101.53	36.376	1.6082e-06	48.525	7.697e-05	5.289e-05	1.5788e-05	789.03	6.6053e-07	6.2619e-07	904.8	267.06	7.0234e-07	5.7751e-07	325.15	98.766	83.802	30.286	7.0061e-07	40.196	16.528	-0.330	45.147	-94.674	-1.936	-2.229	-94.600	-88.416	8.777	70.819	-90.695	-85.198	-83.301	-77.710	65.273	-80.610	-8191	255	
3270.118	1	1	0	0	0.091288	0.084017	0.21202	0.1373	0.036618	0.05934	0.36733	0.31125	0.0062663	0.17212	0.15263	0.21355	0.24831	0.22506	0.18833	0.44385	-2.0938	-2.6854	-2.4292	-2.6458	-2.8187	-2.475	-2.9146	-2.6271	-2.5438	-2.8667	-2.6021	-2.8937	-2.9708	-2.375	-2.8792	-2.6479	114.318	219.068	100.707	229.035	251.138	104.274	201.601	181.728	56.808	174.165	229.041	211.698	175.938	209.162	67.056	223.647	0.00039527	0.00049658	0.00013896	977.01	4.004e-06	5.3249e-06	1105.7	323.02	4.2373e-06	5.5752e-06	397.37	121.48	102.14	37.045	6.1164e-06	49.582	7.3944e-05	5.4269e-05	1.7984e-05	789.47	6.2274e-07	5.5935e-07	915.79	268.52	6.7108e-07	5.9088e-07	330.21	100.26	84.622	30.817	7.0883e-07	41.089	-9.881	4.293	-32.719	-93.777	46.373	37.088	-94.359	-88.145	-31.242	57.917	-90.538	-85.691	-83.716	-77.713	29.695	-80.490	-8191	255	
3270.215	1	1	0	0	0.35287	0.26075	0.16641	0.11943	0.096305	0.2212	0.14841	0.43896	0.02947	0.14294	0.17102	0.13379	0.22044	0.2128	0.13263	0.069936	-1.9292	-2.9313	-2.5542	-2.7938	-2.9771	-2.3875	-3.0187	-2.5938	-2.425	-2.775	-2.6583	-2.7292	-2.9896	-2.425	-2.9479	-2.7458	21.874	164.558	24.830	8.561	-76.502	-52.397	-104.526	204.773	114.511	145.955	173.308	148.952	-105.429	-102.700	65.199	212.852	0.00038492	0.00033329	0.0002268	999.76	2.1505e-06	3.7489e-06	1106.6	323.58	2.9496e-06	5.46e-06	398.31	119.96	101.23	36.445	5.4414e-06	48.252	7.1291e-05	5.3019e-05	1.814e-05	791.73	6.314e-07	6.3754e-07	922.34	269.19	6.9439e-07	6.3528e-07	328.75	99.264	83.937	30.388	7.3298e-07	40.087	0.378	1.532	-17.399	-94.319	59.580	32.979	-94.425	-87.826	37.748	52.051	-90.475	-85.637	-83.505	-77.718	71.127	-80.725	-8191	255	
3270.335	1	1	0	0	0.15451	0.059114	0.053921	0.087705	0.21505	0.24375	0.4013	0.44757	0.15921	0.16361	0.22996	0.16124	0.14857	0.1805	0.13444	0.12867	-2.0187	-2.9333	-2.575	-2.7104	-2.8875	-2.5083	-2.8042	-2.9625	-2.5271	-2.7729	-2.7313	-2.65	-2.8438	-2.3354	-2.85	-2.8	4.429	100.296	-12.229	-30.208	107.217	-42.192	164.278	235.996	78.962	183.344	227.165	-20.539	112.923	170.050	137.520	90.441	0.0003296	0.00026206	0.00019524	991.4	7.0653e-06	4.214e-06	1080.2	320.68	6.3745e-06	3.1224e-06	394.23	116.69	100.05	36.195	2.6122e-06	48.121	6.8983e-05	6.0227e-05	1.7652e-05	791.09	5.9453e-07	6.7669e-07	901.47	265.74	6.3643e-07	6.6884e-07	324.23	97.266	83.012	30.167	6.9601e-07	39.851	0.984	-12.888	-19.237	-94.443	86.269	13.448	-95.103	-88.042	-11.458	10.507	-90.563	-85.801	-83.456	-77.807	64.715	-80.499	-8191	255	
3270.431	1	1	0	0	0.1565	0.03166	0.21421	0.095598	0.067997	0.11663	0.11335	0.24756	0.24577	0.054002	0.063583	0.068938	0.11246	0.27529	0.044661	0.048106	-2.0458	-2.9813	-2.6937	-2.5208	-2.9604	-2.7833	-2.8771	-2.8667	-2.4646	-2.8833	-2.7417	-2.4708	-2.9688	-2.5583	-2.6708	-2.9979	145.820	91.917	53.321	-91.299	95.318	-3.831	54.338	189.535	102.400	77.169	128.878	52.918	13.587	239.567	193.692	-41.555	0.00028537	0.00037317	9.7725e-05	997.05	3.5516e-06	3.8485e-06	1091.3	321.03	3.4014e-06	6.4863e-06	394.04	119.25	100.17	36.473	4.0641e-06	48.516	6.6559e-05	6.1628e-05	1.8672e-05	785.85	5.7491e-07	7.1293e-07	906.59	266.69	6.4224e-07	7.0576e-07	324.96	98.773	83.313	30.478	6.7383e-07	40.246	8.315	-39.595	-39.490	-93.714	51.474	10.206	-94.313	-88.147	-62.492	36.693	-90.414	-85.530	-83.005	-77.773	54.070	-80.770	-8191	255	
3270.528	1	1	0	0	0.12586	0.21221	0.081747	0.066435	0.19375	0.16237	0.33046	0.14515	0.24344	0.15118	0.14937	0.053538	0.3295	0.12335	0.1005	0.17289	-1.8396	-2.6292	-2.7646	-2.5375	-3.1188	-2.6167	-3.05	-2.9042	-2.5854	-2.9062	-2.7042	-2.4562	-2.9042	-2.6083	-2.7458	-2.9313	115.306	94.290	34.471	169.377	223.166	151.595	-104.913	163.977	186.550	68.279	140.591	173.123	201.025	114.346	196.023	201.170	0.00025604	0.00052332	0.00011701	993.62	1.4317e-06	2.2619e-06	1101.5	320.89	1.4843e-06	1.618e-06	396.68	119.96	101.11	37.074	2.7985e-06	49.432	7.0438e-05	6.5854e-05	1.6604e-05	785.03	6.077e-07	7.0411e-07	913.86	267.13	6.823e-07	7.0818e-07	328.77	99.936	83.921	30.855	6.6234e-07	41.101	12.949	-32.521	-36.256	-94.434	-26.993	-31.926	-94.291	-88.464	61.841	62.790	-90.390	-85.381	-83.522	-77.527	41.645	-80.882	-8191	255	
3270.648	1	1	0	0	0.15972	0.15561	0.13803	0.079793	0.20521	0.091538	0.072036	0.20158	0.22997	0.17181	0.11087	0.15044	0.015182	0.17325	0.14885	0.12046	-2.05	-2.8063	-2.7687	-2.5646	-2.8021	-2.6896	-2.7313	-3.05	-2.7646	-2.8354	-2.7896	-2.3958	-2.8146	-2.7104	-2.4021	-3.0146	-30.834	201.405	134.413	-68.482	5.157	36.353	-69.325	246.486	-82.218	-99.346	106.181	249.594	247.470	159.291	21.751	212.364	0.00034232	0.00032177	0.00018706	990.85	5.1775e-06	6.7398e-06	1086.5	316.85	5.7371e-06	4.0949e-06	386.36	115.36	97.971	35.788	3.9347e-06	47.911	7.572e-05	6.5599e-05	1.6477e-05	787.3	6.8385e-07	6.7688e-07	903.93	263.26	7.3638e-07	6.7052e-07	319.37	95.651	81.264	29.859	6.5462e-07	39.495	-4.616	-6.268	8.238	-93.581	77.246	30.453	-94.232	-88.326	22.684	78.300	-90.363	-85.145	-83.190	-78.003	32.097	-80.551	-8191	255	
#DATA ENDS
