BOXY.EXE: ISS Imagent and Oximeter Data Acquisition Program Version 0.80
Ascii Record File

#ACQ INFORMATION
2  Detector Channels 
16  External MUX Channels 
1  Auxiliary Channels 
5000  Waveform (CCF) Frequency (Hz)
1  Waveforms Skipped 
30  Waveforms Averaged 
1  Cycles Averaged 
16  Acquisitions per Waveform 
10.0806  Updata Rate (Hz) 

#FILE INFORMATION
TRUE -- External MUX Channel results are PARSED.
FALSE -- AC DC and Phase are NOT grouped.
TRUE -- Companion Program Settings File CREATED.
FALSE -- AC data not excluded
FALSE -- DC data not excluded
FALSE -- Phase data not excluded
FALSE -- Auxillary Chn. data not excluded
Tab delimiters

#CALIBRATION STATE
TRUE -- Waveform Calibration Values APPLIED.


#AUX CALIBRATION VALUES
Val Type	aux-1	

Term	1.0000e+00	
Factor	0.0000e+00	


#WF CALIBRATION VALUES
A = Detector Channel
Val Type	A-AC1	A-AC2	A-AC3	A-AC4	A-AC5	A-AC6	A-AC7	A-AC8	A-AC9	A-AC10	A-AC11	A-AC12	A-AC13	A-AC14	A-AC15	A-AC16	A-DC1	A-DC2	A-DC3	A-DC4	A-DC5	A-DC6	A-DC7	A-DC8	A-DC9	A-DC10	A-DC11	A-DC12	A-DC13	A-DC14	A-DC15	A-DC16	A-Ph1	A-Ph2	A-Ph3	A-Ph4	A-Ph5	A-Ph6	A-Ph7	A-Ph8	A-Ph9	A-Ph10	A-Ph11	A-Ph12	A-Ph13	A-Ph14	A-Ph15	A-Ph16	

Term	0.00000e+00	0.00000e+00	0.00000e+00	0.00000e+00	0.00000e+00	0.00000e+00	0.00000e+00	0.00000e+00	0.00000e+00	0.00000e+00	0.00000e+00	0.00000e+00	0.00000e+00	0.00000e+00	0.00000e+00	0.00000e+00	0.00000e+00	0.00000e+00	0.00000e+00	0.00000e+00	0.00000e+00	0.00000e+00	0.00000e+00	0.00000e+00	0.00000e+00	0.00000e+00	0.00000e+00	0.00000e+00	0.00000e+00	0.00000e+00	0.00000e+00	0.00000e+00	0.00000e+00	0.00000e+00	0.00000e+00	0.00000e+00	0.00000e+00	0.00000e+00	0.00000e+00	0.00000e+00	0.00000e+00	0.00000e+00	0.00000e+00	0.00000e+00	0.00000e+00	0.00000e+00	0.00000e+00	0.00000e+00	
Factor	1.00000e+00	1.00000e+00	1.00000e+00	1.00000e+00	1.00000e+00	1.00000e+00	1.00000e+00	1.00000e+00	1.00000e+00	1.00000e+00	1.00000e+00	1.00000e+00	1.00000e+00	1.00000e+00	1.00000e+00	1.00000e+00	1.00000e+00	1.00000e+00	1.00000e+00	1.00000e+00	1.00000e+00	1.00000e+00	1.00000e+00	1.00000e+00	1.00000e+00	1.00000e+00	1.00000e+00	1.00000e+00	1.00000e+00	1.00000e+00	1.00000e+00	1.00000e+00	X	X	X	X	X	X	X	X	X	X	X	X	X	X	X	X	

B = Detector Channel
Val Type	B-AC1	B-AC2	B-AC3	B-AC4	B-AC5	B-AC6	B-AC7	B-AC8	B-AC9	B-AC10	B-AC11	B-AC12	B-AC13	B-AC14	B-AC15	B-AC16	B-DC1	B-DC2	B-DC3	B-DC4	B-DC5	B-DC6	B-DC7	B-DC8	B-DC9	B-DC10	B-DC11	B-DC12	B-DC13	B-DC14	B-DC15	B-DC16	B-Ph1	B-Ph2	B-Ph3	B-Ph4	B-Ph5	B-Ph6	B-Ph7	B-Ph8	B-Ph9	B-Ph10	B-Ph11	B-Ph12	B-Ph13	B-Ph14	B-Ph15	B-Ph16	

Term	0.00000e+00	0.00000e+00	0.00000e+00	0.00000e+00	0.00000e+00	0.00000e+00	0.00000e+00	0.00000e+00	0.00000e+00	0.00000e+00	0.00000e+00	0.00000e+00	0.00000e+00	0.00000e+00	0.00000e+00	0.00000e+00	0.00000e+00	0.00000e+00	0.00000e+00	0.00000e+00	0.00000e+00	0.00000e+00	0.00000e+00	0.00000e+00	0.00000e+00	0.00000e+00	0.00000e+00	0.00000e+00	0.00000e+00	0.00000e+00	0.00000e+00	0.00000e+00	-5.64756e+01	-1.47905e+02	-1.44937e+02	-1.86522e+02	-8.92632e+01	-5.44903e+01	-1.58969e+02	-1.62015e+02	-6.59647e+01	-7.38087e+01	-1.73753e+02	-1.69919e+02	-1.80448e+02	-1.77370e+02	-4.09621e+01	-1.50374e+02	
Factor	2.12419e-05	8.28046e-05	2.41116e-05	6.97792e-01	9.07386e-07	9.69914e-07	1.84788e-01	5.57895e-02	9.81085e-07	9.63530e-07	9.73165e-02	3.11963e-02	2.75452e-02	1.04083e-02	8.82609e-07	1.50879e-02	5.16863e-07	5.25153e-07	1.46014e-07	2.71606e-01	5.76128e-09	5.76601e-09	8.04995e-02	2.57462e-02	5.77309e-09	5.77174e-09	4.20780e-02	1.35895e-02	1.24038e-02	4.63209e-03	5.77017e-09	6.39012e-03	X	X	X	X	X	X	X	X	X	X	X	X	X	X	X	X	



#DISTANCE SETTINGS
A = Detector Channel
A-1	A-2	A-3	A-4	A-5	A-6	A-7	A-8	A-9	A-10	A-11	A-12	A-13	A-14	A-15	A-16	

2.5000e+00	3.0000e+00	2.5000e+00	3.0000e+00	2.0000e+00	3.0000e+00	1.5000e+00	3.0000e+00	3.0000e+00	3.0000e+00	3.0000e+00	3.0000e+00	3.0000e+00	3.0000e+00	1.5000e+00	3.0000e+00	

B = Detector Channel
B-1	B-2	B-3	B-4	B-5	B-6	B-7	B-8	B-9	B-10	B-11	B-12	B-13	B-14	B-15	B-16	

1.0000e+01	1.0000e+01	1.0000e+01	1.4400e+00	1.0000e+01	1.0000e+01	1.5100e+00	1.9400e+00	1.0000e+01	1.0000e+01	1.9900e+00	2.4900e+00	2.4100e+00	2.9000e+00	1.0000e+01	2.9800e+00	




#DATA BEGINS
time	group	step	mark	flag	A-AC1	A-AC2	A-AC3	A-AC4	A-AC5	A-AC6	A-AC7	A-AC8	A-AC9	A-AC10	A-AC11	A-AC12	A-AC13	A-AC14	A-AC15	A-AC16	A-DC1	A-DC2	A-DC3	A-DC4	A-DC5	A-DC6	A-DC7	A-DC8	A-DC9	A-DC10	A-DC11	A-DC12	A-DC13	A-DC14	A-DC15	A-DC16	A-Ph1	A-Ph2	A-Ph3	A-Ph4	A-Ph5	A-Ph6	A-Ph7	A-Ph8	A-Ph9	A-Ph10	A-Ph11	A-Ph12	A-Ph13	A-Ph14	A-Ph15	A-Ph16	B-AC1	B-AC2	B-AC3	B-AC4	B-AC5	B-AC6	B-AC7	B-AC8	B-AC9	B-AC10	B-AC11	B-AC12	B-AC13	B-AC14	B-AC15	B-AC16	B-DC1	B-DC2	B-DC3	B-DC4	B-DC5	B-DC6	B-DC7	B-DC8	B-DC9	B-DC10	B-DC11	B-DC12	B-DC13	B-DC14	B-DC15	B-DC16	B-Ph1	B-Ph2	B-Ph3	B-Ph4	B-Ph5	B-Ph6	B-Ph7	B-Ph8	B-Ph9	B-Ph10	B-Ph11	B-Ph12	B-Ph13	B-Ph14	B-Ph15	B-Ph16	aux-1	digaux	

786.595	1	1	0	768	0.20428	0.21106	0.053162	0.23531	0.162	0.044206	0.19776	0.26218	0.28395	0.22922	0.246	0.19664	0.081628	0.093984	0.15553	0.12328	-2.6125	-2.6792	-3.1625	-2.8458	-2.7646	-3.2479	-2.7854	-3.0187	-3.0646	-2.7708	-3.1792	-2.9562	-2.7417	-3.1292	-2.7875	-2.9042	136.941	118.249	-23.647	112.770	213.863	187.299	216.447	208.996	193.689	-49.065	170.040	173.939	138.747	135.338	63.293	-84.650	5.2704e-05	8.8651e-05	3.5282e-05	1180	3.5765e-06	2.4207e-06	1229.3	239.83	4.8236e-07	1.5835e-06	299.12	83.516	65.677	19.088	2.1176e-06	26.986	0.00013287	0.00013088	4.1466e-05	976.34	1.4816e-06	1.3812e-06	1147.8	225.93	1.4362e-06	1.4612e-06	276.36	78.557	61.526	17.983	1.6704e-06	25.24	-31.792	29.810	116.399	-89.885	-91.662	218.456	-89.339	-82.098	201.720	235.345	-82.680	-75.992	-75.913	-68.872	26.766	-69.255	-8191	255	
786.691	1	1	0	0	0.25531	0.23531	0.024155	0.14237	0.19987	0.11699	0.14515	0.19151	0.071875	0.080375	0.098519	0.12253	0.077091	0.19353	0.087387	0.4906	-2.8542	-2.6146	-2.9604	-3.0292	-2.8021	-3.0771	-3.0938	-3.0146	-3.0667	-2.9	-3.1646	-2.9792	-2.8833	-3.225	-2.9188	-2.8729	85.413	58.004	-54.875	190.527	93.013	-40.277	244.606	4.217	135.463	218.254	209.485	247.124	256.506	250.516	126.881	-74.631	9.2719e-05	0.00039097	5.537e-05	1168.6	3.178e-06	5.8546e-06	1219	238.73	1.7268e-06	2.0552e-06	299.88	83.4	65.36	18.969	1.1558e-06	27.132	0.00012905	0.00013523	4.2553e-05	967.62	1.4568e-06	1.4847e-06	1143	224.59	1.3915e-06	1.5286e-06	276.1	78.082	61.28	17.96	1.6477e-06	25.233	250.154	192.925	-0.267	-89.422	47.332	149.097	-89.144	-82.321	-39.109	187.821	-82.681	-75.828	-75.527	-68.755	-14.114	-69.404	-8191	255	
786.787	1	1	0	0	0.12417	0.17163	0.17866	0.13384	0.30263	0.21013	0.26297	0.16443	0.25758	0.11666	0.18625	0.23267	0.29217	0.17469	0.094501	0.1761	-2.9437	-2.8417	-3.0812	-2.95	-2.725	-3.2417	-3.1229	-2.8167	-3.15	-2.5667	-2.9958	-3.0958	-2.6042	-3.1042	-2.8583	-2.7333	-48.981	119.211	246.066	155.453	195.267	139.475	253.035	242.392	8.547	221.935	254.795	-59.728	-66.366	-35.625	127.264	78.894	0.0001162	0.00026406	0.00014422	1160.7	4.4906e-06	1.9603e-07	1215.7	238.8	6.3142e-06	2.793e-06	298.81	83.026	65.142	18.871	4.0501e-06	26.667	0.00012347	0.00014383	4.1313e-05	958.15	1.4151e-06	1.5647e-06	1138.3	224.3	1.3527e-06	1.5994e-06	274.53	77.74	61.011	18.039	1.5502e-06	25.021	258.200	75.777	-57.337	-89.742	17.265	28.734	-89.058	-82.115	-9.278	72.036	-82.430	-76.124	-75.478	-68.831	93.087	-69.180	-8191	255	
786.883	1	1	0	0	0.038393	0.083722	0.14229	0.34044	0.17201	0.24236	0.24676	0.2846	0.16335	0.029416	0.2609	0.39581	0.15668	0.1092	0.27173	0.28114	-2.9292	-2.7479	-2.8417	-3.0792	-2.625	-3.2313	-3.0333	-2.6312	-2.9813	-2.8208	-2.8604	-3.2375	-2.6604	-3.0542	-3.1396	-2.7854	82.796	179.395	194.447	-81.364	11.926	-83.731	177.311	-33.825	-77.556	46.504	191.994	218.276	188.393	18.085	-90.809	249.422	0.0001431	0.00019494	0.00015363	1151.9	1.6736e-06	7.7771e-07	1221.6	239.04	1.2186e-06	6.3902e-06	299.92	82.844	64.944	19.003	3.0147e-06	26.864	0.00012606	0.00014721	3.903e-05	956.69	1.4089e-06	1.6221e-06	1136.3	223.77	1.3983e-06	1.6373e-06	274.95	77.765	60.988	18.039	1.4383e-06	24.919	255.946	80.920	17.171	-89.665	-79.313	92.240	-89.165	-82.184	-87.265	32.007	-82.763	-76.009	-75.464	-68.647	75.832	-69.648	-8191	255	
786.979	1	1	0	0	0.085348	0.34516	0.15399	0.10392	0.099426	0.036941	0.2303	0.14882	0.3388	0.09107	0.26505	0.15361	0.27319	0.16655	0.033914	0.20412	-2.8458	-2.8979	-2.8146	-3.2229	-2.7354	-2.9417	-3.0479	-2.8771	-3.2417	-3.0062	-2.6667	-3.2125	-2.9875	-3.0146	-3.1542	-2.7354	-29.859	104.973	66.934	128.021	-96.310	198.329	173.967	248.707	217.320	-32.415	178.595	-2.668	201.588	28.759	-72.956	211.611	0.00019851	5.7142e-05	6.2424e-05	1153.7	3.6798e-06	2.0932e-06	1217.9	238.74	2.9447e-06	1.8223e-06	299.38	83.177	65.02	19.036	3.6051e-06	27.127	0.00013101	0.00014615	3.6849e-05	952.65	1.5009e-06	1.606e-06	1132.2	223.1	1.4861e-06	1.5504e-06	273.52	77.358	61.27	17.972	1.3753e-06	24.942	254.985	230.683	18.144	-90.133	92.171	25.705	-89.228	-82.319	174.486	-3.953	-82.539	-75.809	-75.670	-68.659	121.206	-69.265	-8191	255	
787.075	1	1	0	0	0.16598	0.1595	0.15928	0.22915	0.12867	0.14576	0.16068	0.047152	0.12943	0.057182	0.1184	0.13338	0.2301	0.13712	0.17191	0.07561	-2.8146	-2.9813	-2.7687	-3.2042	-2.9021	-3.0979	-3.3667	-2.6208	-3.1625	-2.9125	-2.8937	-3.1937	-2.9	-2.8688	-3.2104	-2.85	177.763	-24.527	228.223	164.215	238.752	74.785	186.448	213.717	176.017	163.146	-31.115	117.561	80.100	22.789	-44.824	16.235	0.00012285	6.7379e-05	8.2701e-05	1152.9	2.5058e-06	8.8414e-07	1217.2	238.46	3.906e-06	3.9108e-06	297.71	82.872	64.71	18.892	1.1019e-06	26.854	0.00014044	0.00014007	3.5949e-05	950.62	1.5758e-06	1.5317e-06	1132.5	223.21	1.5885e-06	1.4809e-06	272.2	77.345	61.053	17.927	1.3405e-06	24.987	243.813	259.572	85.926	-89.512	-5.659	-21.753	-89.137	-82.022	-90.674	98.097	-82.494	-75.945	-75.755	-68.669	51.158	-69.539	-8191	255	
787.196	1	1	0	0	0.33544	0.071574	0.15143	0.15059	0.28267	0.10389	0.24039	0.25266	0.10089	0.11553	0.25018	0.073732	0.09096	0.07568	0.11288	0.015431	-2.8229	-3.0958	-2.6625	-3.3083	-2.9125	-3.1042	-3.2625	-2.8458	-2.8937	-3.0938	-2.7208	-3.1875	-3	-2.9021	-3.1833	-2.8333	237.101	200.583	-76.498	254.964	29.262	126.301	236.081	173.059	211.319	31.090	236.378	96.966	259.540	215.140	-18.446	195.430	9.4665e-05	0.00022922	4.3101e-05	1154	2.9998e-06	3.5814e-06	1214.5	237.42	3.0893e-06	2.7826e-07	298.63	82.612	65.04	18.96	4.1032e-06	26.732	0.0001442	0.00013145	3.4818e-05	953.57	1.5731e-06	1.4489e-06	1129	222.76	1.5891e-06	1.3883e-06	272.02	77.402	61.118	17.849	1.2925e-06	25.006	215.723	-63.231	-31.687	-89.776	-0.381	36.701	-89.140	-82.289	114.559	35.314	-82.634	-75.692	-75.692	-68.969	107.661	-69.104	-8191	255	
787.292	1	1	0	0	0.045749	0.088269	0.20036	0.13084	0.34306	0.1712	0.16511	0.077115	0.11225	0.063905	0.17449	0.074701	0.17232	0.17389	0.11257	0.14176	-2.5812	-3.1396	-2.5062	-3.1646	-2.925	-2.6437	-3.3208	-2.8396	-2.9125	-3.0375	-2.7083	-3.1104	-3.1312	-2.7562	-3.2313	-2.7292	59.766	88.180	-95.181	171.573	-6.772	104.983	232.818	172.566	-94.520	95.902	200.357	-85.750	-78.119	29.741	39.576	212.911	9.999e-05	0.0002899	4.5832e-05	1153.3	2.8786e-06	1.8482e-06	1213.5	237.65	3.2864e-06	7.9187e-07	296.79	82.864	64.903	18.928	1.9081e-06	26.705	0.00014304	0.00012429	3.4048e-05	956.67	1.5205e-06	1.4102e-06	1127.2	223.21	1.5308e-06	1.3423e-06	271.09	77.751	60.771	17.814	1.3052e-06	25.076	-99.461	-14.804	58.178	-89.588	11.111	49.704	-89.147	-82.170	-40.990	67.708	-82.587	-75.757	-76.137	-68.980	178.307	-69.279	-8191	255	
787.388	1	1	0	0	0.19851	0.08019	0.16375	0.28536	0.11236	0.15031	0.19804	0.20356	0.13383	0.20414	0.081847	0.18686	0.12493	0.20976	0.046633	0.043552	-2.6271	-3.0979	-2.6188	-3.0542	-2.75	-2.8875	-3.2687	-2.9792	-2.6521	-3.0646	-2.8104	-3.0208	-2.9437	-2.7812	-3.1354	-2.8375	101.328	-29.013	-11.987	68.560	205.184	-90.783	142.900	200.933	100.305	43.553	-82.620	-70.009	165.841	-69.103	149.525	18.153	6.6106e-05	0.00044487	4.6083e-05	1154.3	5.4509e-06	3.7662e-06	1213.8	237.37	4.9624e-06	2.2043e-06	296.75	82.556	64.576	18.933	1.9741e-06	26.694	0.00013712	0.0001201	3.4323e-05	960.81	1.4449e-06	1.3777e-06	1125.9	223.16	1.4845e-06	1.3217e-06	271.93	77.992	60.673	17.807	1.3894e-06	25.1	-95.161	-24.095	239.847	-89.247	46.391	61.415	-89.172	-82.110	67.371	30.702	-82.605	-75.830	-75.873	-68.676	-43.570	-69.171	-8191	255	
787.484	1	1	0	0	0.096389	0.19255	0.18065	0.2084	0.2754	0.19662	0.11406	0.17036	0.058084	0.13412	0.12026	0.25192	0.2426	0.12402	0.19892	0.29152	-2.4417	-3.2125	-2.8021	-3.0438	-3.1375	-2.8271	-3.1437	-2.9771	-2.7917	-3.2812	-2.9188	-2.8542	-2.85	-2.7333	-3.0896	-2.8667	108.800	224.642	220.038	230.171	-58.551	195.960	236.296	175.171	230.989	57.367	110.658	240.588	200.604	-27.882	96.361	203.209	8.649e-05	0.00029743	4.5053e-05	1151.1	3.2487e-06	1.648e-06	1207.9	237.7	1.2992e-06	7.7097e-07	294.89	82.652	64.83	18.831	5.117e-06	26.752	0.0001314	0.00011959	3.6569e-05	962.03	1.406e-06	1.368e-06	1128	223.36	1.441e-06	1.3031e-06	272.33	77.83	60.623	17.713	1.5006e-06	25.083	248.179	43.649	-37.841	-89.789	24.907	244.167	-89.039	-82.328	29.542	239.652	-82.823	-75.860	-75.603	-68.758	204.778	-69.526	-8191	255	
787.579	1	1	0	0	0.089643	0.27814	0.25236	0.19788	0.18509	0.19683	0.04831	0.17219	0.18372	0.20058	0.43486	0.18803	0.29086	0.046842	0.13597	0.26865	-2.3583	-3.2062	-2.5396	-3.0208	-3.0542	-2.6688	-3.4396	-3.0479	-2.75	-3.2792	-3.0625	-3.1375	-3.1688	-2.6083	-3.0167	-3.0375	105.772	254.943	180.761	214.824	218.597	33.325	-43.202	109.999	-64.322	82.450	-84.257	196.068	240.197	234.330	-68.805	241.934	9.0067e-05	0.00033217	7.0542e-06	1156.4	3.3047e-06	1.7375e-06	1213.9	236.87	2.3085e-06	2.9876e-07	297.71	82.573	64.908	18.857	1.5271e-06	26.564	0.00013074	0.00011846	3.9265e-05	959.46	1.3551e-06	1.3811e-06	1129.9	222.72	1.4357e-06	1.3583e-06	273.07	77.72	60.451	17.845	1.6059e-06	24.893	-81.814	12.316	169.529	-89.895	51.189	132.295	-89.174	-82.418	143.444	-60.197	-82.606	-75.910	-75.803	-68.841	-28.227	-69.895	-8191	255	
787.675	1	1	0	0	0.14695	0.13611	0.12327	0.12331	0.085766	0.090627	0.29243	0.36532	0.24031	0.16965	0.11202	0.14303	0.13063	0.13	0.22909	0.085118	-2.3104	-3.1	-2.8688	-3.0021	-3.1937	-2.7833	-3.4833	-3.1458	-2.7896	-3.05	-3.0083	-2.9979	-3.2604	-2.6937	-2.9167	-3.0312	-57.772	112.789	-83.862	84.396	-41.648	204.664	152.433	252.690	113.406	-97.957	133.005	222.936	-5.957	85.448	116.238	235.715	6.0244e-05	5.3137e-05	3.9377e-05	1158.3	1.4172e-06	3.3818e-06	1215.1	237.91	2.9947e-06	2.5584e-06	298.54	82.979	64.718	19.065	1.0935e-06	26.906	0.00013127	0.00012552	4.1068e-05	958.5	1.3511e-06	1.454e-06	1132.3	223.11	1.3921e-06	1.4439e-06	273.83	77.689	60.492	17.898	1.5915e-06	24.936	-61.980	13.051	-17.359	-89.650	123.761	180.418	-89.139	-82.135	-17.310	2.497	-82.518	-76.265	-75.873	-69.255	-16.541	-69.347	-8191	255	
787.796	1	1	0	0	0.059006	0.068456	0.19807	0.16565	0.20204	0.16878	0.12548	0.095777	0.16017	0.1435	0.0874	0.1634	0.068145	0.20686	0.14125	0.1355	-2.3812	-3.1229	-2.9646	-2.8917	-3.2979	-2.6542	-3.0333	-3.1542	-2.7292	-3.0854	-2.8667	-2.825	-3.2896	-2.6396	-2.85	-3.0875	43.011	242.884	200.805	56.270	-18.034	14.624	186.547	164.459	-47.258	-77.987	206.967	-85.255	-33.311	176.361	211.696	-15.002	7.3031e-05	2.8201e-05	0.00017274	1145.8	2.735e-06	2.4595e-06	1214.5	237.54	1.5523e-06	2.4568e-06	297.54	82.692	64.607	18.871	1.428e-06	26.86	0.00012729	0.00013492	4.0095e-05	954.43	1.3345e-06	1.5277e-06	1133.4	222.77	1.3987e-06	1.5409e-06	273.29	77.569	60.438	17.968	1.5561e-06	24.901	-70.197	-77.337	-73.818	-89.805	-8.142	74.987	-89.204	-82.137	81.074	106.914	-82.713	-75.767	-75.723	-68.641	132.375	-69.320	-8191	255	
787.892	1	1	0	0	0.13929	0.11552	0.11396	0.21583	0.11173	0.14028	0.25739	0.16156	0.067585	0.1054	0.18079	0.091509	0.18738	0.18138	0.18577	0.089394	-2.2479	-3.1167	-2.8	-2.9062	-3.075	-2.9458	-3.1437	-3.2583	-2.6521	-3.2083	-3.1292	-2.9208	-3.2812	-2.8208	-3.075	-3.2062	-81.417	63.091	-88.015	238.011	-79.760	201.575	153.953	126.641	95.275	53.172	123.138	129.042	214.378	29.929	254.835	151.024	9.6415e-05	0.00015738	4.4617e-05	1152.8	2.9667e-06	2.2674e-06	1219.7	237.88	2.8858e-06	1.6303e-06	298.73	82.807	64.888	19.049	2.1933e-06	26.889	0.00012755	0.00014198	3.8226e-05	955.19	1.3401e-06	1.589e-06	1132	222.63	1.4237e-06	1.5693e-06	273.29	77.609	60.616	17.999	1.4745e-06	24.871	212.573	151.427	85.119	-89.563	140.341	-38.453	-88.928	-82.298	-82.493	21.690	-82.505	-75.671	-75.907	-69.020	132.491	-69.327	-8191	255	
787.988	1	1	0	0	0.098533	0.14479	0.19897	0.18667	0.023219	0.16955	0.20074	0.051078	0.086088	0.062401	0.23283	0.12526	0.21971	0.099335	0.05735	0.1395	-2.3563	-3.0521	-2.9896	-2.6771	-3.2875	-2.8417	-3	-3.4167	-2.7229	-3.1875	-3.2458	-2.5667	-3.2083	-2.9604	-2.8417	-3.2479	193.534	164.440	-0.398	228.944	-42.422	152.070	221.879	35.369	32.774	-81.607	210.798	173.290	225.348	-36.559	-82.324	82.389	0.00010445	0.00025919	9.1313e-05	1156.3	1.945e-06	2.4884e-06	1213.7	238.55	2.4031e-06	3.4752e-06	296.34	82.778	64.63	18.991	3.4987e-06	26.663	0.00013404	0.00014577	3.6031e-05	952.77	1.4446e-06	1.585e-06	1129.2	222.61	1.494e-06	1.5471e-06	272.02	77.522	60.914	17.901	1.4034e-06	24.779	240.638	99.277	13.167	-89.496	152.001	47.917	-89.300	-82.208	156.806	67.453	-82.471	-75.813	-75.660	-68.754	108.724	-69.676	-8191	255	
788.084	1	1	0	0	0.13208	0.017846	0.028704	0.10488	0.044046	0.019582	0.19046	0.097544	0.12945	0.097367	0.30895	0.12797	0.2279	0.064554	0.30105	0.20172	-2.2875	-2.9917	-3.0792	-2.7042	-3.1125	-3.125	-2.9167	-3.1937	-2.9292	-3.0167	-3.1771	-2.8354	-3.1375	-2.9583	-2.6458	-3.1292	102.075	32.305	-4.010	-72.894	-51.855	106.057	244.548	124.234	67.709	101.930	-58.986	138.082	246.680	239.791	10.384	-39.364	0.00010089	8.6999e-05	0.00015366	1145.7	7.5223e-07	2.2953e-06	1209.9	237.05	2.0835e-06	1.7378e-06	298.34	82.753	65.073	18.967	3.8198e-06	26.804	0.00013888	0.00014067	3.4647e-05	947.62	1.5085e-06	1.482e-06	1128	222.17	1.5519e-06	1.4804e-06	272.49	77.552	61.084	17.868	1.3573e-06	24.868	-39.750	-84.743	-29.053	-89.715	210.273	72.323	-89.277	-82.411	87.287	118.542	-82.924	-75.998	-75.802	-68.583	95.910	-68.838	-8191	255	
788.156	1	1	0	0	0.25087	0.22109	0.28402	0.14599	0.13197	0.16163	0.2081	0.10058	0.028899	0.16259	0.099621	0.19538	0.21809	0.13901	0.075633	0.22194	-2.3708	-2.9958	-3.0208	-2.7375	-2.9771	-2.9146	-2.9896	-3.2396	-2.8042	-2.9229	-3.2479	-2.8104	-2.7687	-2.7812	-2.5208	-3.2646	15.218	245.966	241.406	-3.724	7.589	249.477	156.233	133.040	-2.756	244.337	239.288	165.899	103.714	147.155	-80.379	145.056	0.00010294	0.00051967	0.00011099	1150.5	1.3359e-06	3.1529e-06	1215.3	237.78	1.516e-06	1.6444e-06	298.09	83.066	64.875	18.978	1.4364e-06	26.925	0.00014171	0.00012985	3.297e-05	953.7	1.5405e-06	1.3906e-06	1127.1	222.87	1.5626e-06	1.4144e-06	271.69	77.817	61.008	17.844	1.3387e-06	25.075	-60.674	-34.721	-53.802	-89.420	0.570	70.127	-89.201	-82.280	207.389	63.483	-82.574	-76.325	-75.553	-69.289	24.122	-69.163	-8191	255	
788.276	1	1	0	0	0.13995	0.21185	0.11636	0.023868	0.22673	0.24706	0.21315	0.28061	0.19441	0.23719	0.20684	0.28378	0.23165	0.16911	0.23739	0.16741	-2.4521	-2.9292	-3.1688	-2.8854	-3.0771	-2.8125	-2.9833	-3.1958	-2.8417	-2.7854	-3.0729	-2.8042	-3.1896	-3.0438	-2.7417	-3.3063	94.359	71.073	47.542	-33.253	-76.630	-95.306	-96.029	186.243	-95.622	-14.129	245.049	241.689	156.216	128.844	147.927	198.827	5.7824e-05	9.8064e-05	0.00010268	1161.7	3.9892e-06	1.7141e-06	1219.1	236.38	4.0799e-06	2.3314e-06	298.13	83.16	65.302	19.077	2.7267e-06	26.973	0.00014122	0.00012737	3.2422e-05	957.39	1.5339e-06	1.3535e-06	1128.7	222.84	1.503e-06	1.3743e-06	271.88	78.039	61.032	17.842	1.3328e-06	25.134	-97.088	-88.319	69.834	-88.966	29.013	143.950	-89.176	-82.269	70.721	76.368	-82.889	-75.839	-75.867	-69.010	112.875	-69.363	-8191	255	
788.372	1	1	0	0	0.11203	0.049471	0.1203	0.12891	0.14565	0.19805	0.093322	0.21691	0.21081	0.05756	0.085149	0.10038	0.15602	0.10063	0.23082	0.33271	-2.4437	-2.9104	-3.1479	-2.7667	-2.7896	-3.1958	-2.75	-3.2333	-2.9833	-2.8271	-3.3333	-2.9854	-3.0646	-3.1271	-2.8708	-3.125	258.774	103.290	-35.547	-86.088	164.666	103.345	-27.158	162.851	217.302	130.722	-96.274	213.862	180.796	139.126	-48.256	67.936	3.3728e-05	0.00028951	6.4157e-05	1153.8	3.5105e-06	2.3005e-06	1214.8	238.57	6.7485e-07	3.7456e-06	299.56	82.98	65.06	19.009	1.5809e-06	27.06	0.000133	0.00012178	3.2431e-05	958.1	1.4513e-06	1.2976e-06	1126.9	223.85	1.4278e-06	1.3433e-06	272.25	78.052	60.751	17.847	1.3808e-06	25.283	12.198	-21.498	223.018	-89.388	-32.791	-14.383	-89.353	-82.305	123.547	-35.699	-82.527	-75.982	-75.337	-68.782	120.879	-68.981	-8191	255	
788.469	1	1	0	0	0.22744	0.092833	0.088439	0.2068	0.12309	0.040539	0.35719	0.34502	0.17639	0.14299	0.05665	0.054798	0.074341	0.25863	0.17075	0.21622	-2.5521	-2.7438	-3.1437	-2.9813	-2.7208	-3.2896	-2.8688	-3.0375	-3.0687	-2.7708	-3.175	-2.9875	-3.0042	-3.0125	-2.7792	-2.9958	86.901	68.508	108.828	91.403	184.385	1.339	228.545	212.680	20.117	207.507	165.585	15.089	227.831	256.003	163.423	117.852	9.5504e-05	0.0002211	6.1524e-05	1147.8	3.6731e-06	3.5553e-06	1210.4	238.51	2.1232e-06	3.9843e-06	298.32	82.502	65.199	18.992	1.1823e-06	26.985	0.00012766	0.00012112	3.4732e-05	957.69	1.4053e-06	1.2741e-06	1128.4	223.57	1.3566e-06	1.3266e-06	273.22	77.861	60.945	17.802	1.4948e-06	25.2	247.886	21.460	72.304	-89.524	58.041	-27.326	-89.109	-82.145	-81.928	34.278	-82.347	-75.695	-76.038	-68.847	174.917	-69.099	-8191	255	
788.565	1	1	0	0	0.15612	0.19963	0.30919	0.10048	0.079979	0.21111	0.26643	0.060379	0.24257	0.082945	0.13949	0.19455	0.059984	0.11381	0.11291	0.092627	-2.675	-2.7687	-3.0896	-2.9458	-2.8979	-3.1354	-3.0208	-3.0896	-2.9188	-2.6375	-3.2083	-3.0104	-2.7062	-3.3042	-2.8083	-3.1271	29.164	-20.250	-57.183	243.429	-66.163	163.707	152.560	-43.871	-6.207	231.975	209.417	253.368	1.339	192.982	46.512	148.625	6.5183e-05	0.00022764	3.532e-05	1162.3	5.739e-07	3.2477e-07	1215.7	237.05	5.9593e-07	9.6274e-07	299.23	83.152	65.55	19.094	2.1549e-06	26.939	0.00012491	0.00011955	3.761e-05	960.97	1.3761e-06	1.2868e-06	1131.6	223.29	1.3395e-06	1.3312e-06	274.04	77.846	60.958	17.862	1.5406e-06	25.184	255.729	-2.547	110.608	-89.277	205.839	18.236	-89.161	-82.161	108.135	-36.872	-82.571	-75.403	-76.026	-68.776	113.077	-69.330	-8191	255	
788.684	1	1	0	0	0.24553	0.082524	0.19119	0.26981	0.26271	0.12062	0.30684	0.13342	0.046486	0.10682	0.17201	0.11762	0.066347	0.23114	0.16579	0.24778	-2.6437	-2.7104	-3.2292	-2.9583	-2.7708	-2.975	-3.1729	-2.9521	-3.175	-2.6917	-3.1771	-3.1375	-2.8792	-3.1646	-3.025	-2.9521	-44.555	-68.799	162.259	111.065	31.592	248.862	166.514	233.471	-85.400	148.778	221.862	109.492	-57.969	-98.889	196.378	-81.699	7.4822e-05	9.1186e-05	6.6493e-05	1146.7	1.6027e-06	2.5687e-06	1220.2	238.74	3.8024e-06	3.6949e-06	300.62	83.462	65.263	18.987	5.7603e-06	26.924	0.00011965	0.00012268	3.901e-05	953.53	1.3501e-06	1.3332e-06	1134.6	223.57	1.2793e-06	1.3909e-06	274.81	77.778	60.833	17.936	1.5369e-06	25.15	-98.061	185.737	64.065	-89.404	214.178	-16.241	-89.344	-82.013	-12.041	67.311	-82.469	-75.499	-75.370	-68.838	96.483	-69.246	-8191	255	
788.757	1	1	0	0	0.18226	0.14154	0.047927	0.23455	0.22886	0.20589	0.35791	0.023941	0.23957	0.15308	0.077468	0.0504	0.15148	0.096517	0.16653	0.19991	-2.7125	-2.725	-2.9896	-2.9104	-2.6646	-3.1479	-3.2	-2.85	-3.2375	-3.1083	-3.1208	-3.1146	-2.8542	-3.1792	-2.9313	-2.9542	117.153	136.215	119.273	250.028	-56.842	201.598	207.957	222.786	234.409	134.464	19.519	170.523	189.638	-13.480	9.305	-59.538	0.00012729	5.9929e-05	0.00010467	1156	4.8866e-06	1.2734e-06	1217	238.41	1.0229e-06	1.552e-06	298.16	82.87	65.375	19.136	1.5716e-07	27.01	0.00011841	0.0001319	3.8936e-05	952.21	1.3202e-06	1.4492e-06	1132.3	223.19	1.2838e-06	1.4856e-06	274.05	77.734	60.746	18.076	1.4562e-06	25.095	224.391	51.067	-41.809	-90.047	94.515	223.797	-89.298	-82.195	203.275	37.570	-82.540	-75.889	-75.751	-68.520	221.851	-69.508	-8191	255	
788.876	1	1	0	0	0.070975	0.028844	0.069854	0.18302	0.16929	0.095672	0.17487	0.21491	0.33073	0.27029	0.28533	0.25952	0.19597	0.11068	0.15055	0.21231	-2.725	-2.8458	-3.0104	-3.1	-2.8063	-3.2042	-3.1229	-2.7562	-3.1562	-2.8208	-2.9146	-3.1688	-2.8458	-3.0583	-2.925	-2.8708	236.215	49.604	187.546	255.964	90.707	-89.221	172.481	159.695	252.875	-21.954	239.508	-76.939	-99.769	205.338	242.433	257.731	0.00010136	0.00012118	1.9195e-05	1155.6	5.6157e-06	2.86e-06	1216.5	239.06	2.4468e-06	2.0656e-06	298.72	82.862	65.29	19.026	2.6349e-06	27.246	0.00011709	0.0001385	3.6966e-05	949.51	1.3228e-06	1.5166e-06	1129.4	222.99	1.3129e-06	1.518e-06	273.46	77.337	60.843	18.072	1.3783e-06	25.108	-94.124	-65.792	129.679	-89.361	47.454	73.280	-89.299	-82.068	111.768	200.616	-82.651	-75.722	-75.935	-68.565	138.040	-69.083	-8191	255	
788.972	1	1	0	0	0.054191	0.14407	0.17637	0.30544	0.20956	0.26277	0.13481	0.14493	0.2657	0.33699	0.040853	0.21845	0.14786	0.098392	0.17273	0.29613	-2.6437	-2.8625	-2.9062	-3.0958	-2.9604	-3.2687	-3.2375	-2.7229	-3.175	-2.9521	-2.9	-3.1813	-2.925	-3.1208	-3.05	-2.8125	-50.921	209.720	185.776	182.200	35.485	-86.402	133.287	78.907	63.113	212.240	-40.005	225.015	-24.114	220.415	-31.370	223.430	0.00013342	0.00030196	2.5008e-05	1146	1.3908e-06	2.8845e-06	1211.3	238.35	6.3935e-07	2.3077e-06	298.25	83.469	65.402	19.229	4.5682e-06	27.165	0.00012221	0.00013816	3.4485e-05	946.1	1.3837e-06	1.5069e-06	1127.7	222.67	1.3976e-06	1.5074e-06	272.85	77.515	61.127	18.109	1.3271e-06	25.079	250.401	-21.282	-17.560	-89.678	28.191	127.694	-89.313	-82.426	69.356	158.345	-82.546	-75.993	-75.408	-68.867	2.677	-69.120	-8191	255	
789.068	1	1	0	0	0.19994	0.059081	0.13787	0.14899	0.099181	0.15102	0.25248	0.10634	0.15315	0.16743	0.20612	0.20214	0.062033	0.029992	0.1511	0.091531	-2.8542	-3.0146	-2.675	-3.275	-2.7812	-3.0271	-3.3229	-2.8104	-3.1208	-3.0292	-2.8042	-3.1583	-2.7771	-2.8646	-3.0042	-2.7854	-19.279	-91.724	43.274	-65.773	145.526	-91.010	181.046	100.334	236.974	235.630	241.179	-98.713	240.127	256.929	-8.730	14.480	0.00015897	0.00019053	4.6743e-05	1147.5	1.268e-06	1.4509e-06	1219.6	237.44	7.5216e-07	3.3176e-06	299.63	83.619	65.329	19.1	1.6597e-06	27.139	0.00013146	0.00013392	3.431e-05	946.59	1.4732e-06	1.4582e-06	1130.8	222.8	1.4811e-06	1.428e-06	273.09	77.757	61.303	18.04	1.2905e-06	25.146	232.181	75.456	8.191	-89.622	-0.049	-13.445	-89.039	-82.179	-13.827	-4.654	-82.814	-75.748	-75.822	-68.848	78.625	-69.324	-8191	255	
789.164	1	1	0	0	0.16412	0.098366	0.10102	0.23641	0.10295	0.23809	0.40503	0.351	0.25947	0.24285	0.21762	0.22547	0.34947	0.16686	0.078344	0.27976	-2.6896	-2.925	-2.5229	-3.3896	-2.8812	-2.9042	-3.225	-2.9021	-3.2854	-2.9854	-2.9437	-3.3271	-2.7917	-2.8958	-3.3354	-2.6333	-78.729	172.781	162.342	167.694	171.631	17.620	204.778	255.105	-44.941	57.911	196.798	-80.656	247.897	100.805	131.972	170.005	0.00012213	0.0003066	4.1251e-05	1154.1	2.8797e-06	2.0826e-06	1218.5	238.89	6.0743e-07	3.7039e-06	299.42	83.875	65.164	19.252	1.7118e-06	26.956	0.00013807	0.00012726	3.3589e-05	949.75	1.5265e-06	1.4051e-06	1130.2	223.26	1.5175e-06	1.3496e-06	273.16	77.998	61.25	17.963	1.2559e-06	25.205	234.057	-42.393	-13.639	-89.655	89.323	137.107	-89.203	-82.175	212.930	34.966	-82.695	-76.037	-75.604	-68.623	117.121	-69.046	-8191	255	
789.285	1	1	0	0	0.054538	0.17955	0.21693	0.15729	0.15677	0.18687	0.23769	0.19977	0.24138	0.31037	0.13094	0.13376	0.116	0.19489	0.1776	0.1959	-2.5958	-3.0583	-2.9417	-3.2604	-2.875	-2.8292	-3.4333	-2.8583	-3.1396	-3.3375	-2.7938	-3.1146	-2.8187	-2.8937	-3.1458	-2.9167	91.584	23.624	149.887	-31.037	-13.718	50.378	145.790	229.189	209.467	206.342	-70.208	183.979	154.356	87.117	81.028	-45.889	3.4688e-05	0.00030203	4.705e-05	1149	2.2163e-06	1.9949e-06	1219.2	238	1.0647e-06	2.2149e-06	299.49	83.677	64.806	19.043	1.604e-06	27.198	0.00014033	0.00012202	3.2606e-05	953.48	1.5083e-06	1.3702e-06	1130.7	223.51	1.5208e-06	1.3147e-06	272.98	78.239	61.085	17.966	1.2753e-06	25.324	215.524	50.718	-42.681	-89.344	-22.424	29.831	-89.004	-82.378	-12.970	-53.834	-82.620	-75.878	-75.838	-68.490	4.602	-68.701	-8191	255	
789.381	1	1	0	0	0.1826	0.36943	0.18708	0.14256	0.2397	0.15843	0.22804	0.21562	0.20057	0.15523	0.12455	0.13064	0.21132	0.069099	0.12119	0.11387	-2.5771	-3.0875	-2.4646	-3.0875	-2.9458	-2.6771	-3.475	-2.7979	-2.9729	-3.1937	-2.8438	-3.2208	-3.0646	-2.7708	-3.1854	-2.8729	50.517	-29.466	66.356	161.926	134.812	6.865	147.846	-73.138	20.053	230.855	211.390	-65.203	242.404	41.008	9.844	-87.696	7.9955e-05	0.00034092	5.4808e-05	1152	3.7708e-07	2.6081e-06	1217.4	238.32	3.412e-06	4.7281e-06	298.06	83.474	65.269	19.126	1.6794e-06	27.195	0.00013628	0.00012019	3.3345e-05	958.81	1.4459e-06	1.3386e-06	1130.9	224.43	1.4564e-06	1.2909e-06	273.5	78.262	61.063	17.973	1.3219e-06	25.353	-90.351	-38.810	-77.109	-89.240	-68.625	121.356	-89.387	-82.097	69.089	42.905	-82.263	-76.009	-75.693	-68.805	-8.204	-69.301	-8191	255	
789.477	1	1	0	0	0.046583	0.14996	0.22195	0.215	0.23328	0.087999	0.20014	0.039077	0.26402	0.038588	0.13131	0.17243	0.017325	0.090228	0.10298	0.22241	-2.4313	-3.1375	-2.6	-3.0854	-2.8833	-2.6833	-3.3625	-2.9771	-2.8563	-3.3688	-2.8375	-3.2667	-3.1125	-2.6188	-3.3271	-2.9729	-48.099	257.704	229.370	7.933	-70.287	108.450	214.771	-96.953	235.696	228.854	-31.206	204.817	259.608	176.480	71.010	166.482	4.4701e-05	0.00025817	5.3603e-05	1150.6	3.1594e-06	2.7032e-06	1214.5	238.83	3.7609e-07	1.8128e-06	298.52	83.34	65.56	19.271	1.6062e-07	26.993	0.00012891	0.00011566	3.5118e-05	960.05	1.3791e-06	1.3011e-06	1132.1	223.95	1.3807e-06	1.2595e-06	273.74	78.128	60.966	17.97	1.4222e-06	25.267	-51.322	-42.437	-20.644	-89.330	41.681	83.097	-89.053	-82.278	105.329	50.634	-82.365	-75.672	-75.986	-69.158	151.122	-69.205	-8191	255	
789.572	1	1	0	0	0.21217	0.04782	0.057249	0.17044	0.21953	0.23279	0.33719	0.15221	0.27011	0.27324	0.16588	0.12088	0.10505	0.054593	0.34058	0.16326	-2.35	-3.2708	-2.725	-3.0354	-2.9813	-2.7042	-3.3438	-3.1229	-2.7333	-3.1896	-2.8083	-3.0021	-3.1083	-2.9146	-3.2167	-2.9292	70.682	191.409	27.190	250.927	252.323	212.285	141.817	259.540	8.760	113.382	146.261	83.421	-61.725	-23.431	-92.759	164.982	0.00010773	6.6713e-05	2.4758e-05	1153.2	1.386e-06	5.9588e-07	1216.4	238.75	4.0597e-08	1.7991e-06	299.09	82.848	65.452	19.229	3.4563e-06	27.141	0.00012703	0.00011344	3.7127e-05	960.07	1.3191e-06	1.3006e-06	1132.9	223.7	1.3561e-06	1.2609e-06	274.79	78	60.77	17.962	1.489e-06	25.202	-73.934	11.573	-13.348	-89.501	-24.606	65.659	-89.246	-82.262	-98.696	11.914	-82.742	-75.874	-75.871	-68.951	111.932	-68.943	-8191	255	
789.668	1	1	0	0	0.052655	0.17339	0.14184	0.15829	0.26567	0.18546	0.26625	0.1542	0.22391	0.069738	0.12017	0.23375	0.38866	0.10788	0.068048	0.15078	-2.5083	-3.1354	-2.8729	-3.0146	-2.9542	-2.8438	-3.3354	-3.1063	-2.8479	-3.2667	-2.8917	-2.9208	-3.0604	-2.8354	-2.9938	-3.0958	-17.686	119.956	-37.698	-73.251	225.543	60.076	100.544	145.178	146.400	167.682	-39.695	236.388	67.491	205.812	45.870	114.370	6.5513e-05	0.00016328	9.5754e-05	1160.6	1.1037e-06	3.2655e-06	1214.9	237.71	4.6934e-06	4.37e-07	299.36	82.944	65.456	18.989	2.1053e-06	27.428	0.00012172	0.00011729	3.7992e-05	955.23	1.2398e-06	1.328e-06	1131	223.05	1.3106e-06	1.3019e-06	274.22	77.829	60.688	17.961	1.497e-06	25.152	235.134	67.198	-9.045	-90.105	-21.039	163.443	-89.261	-82.307	42.200	219.348	-82.605	-75.949	-75.599	-68.636	2.269	-69.475	-8191	255	
789.764	1	1	0	0	0.33693	0.28812	0.16863	0.14411	0.10346	0.21485	0.11292	0.14665	0.26513	0.20547	0.15027	0.3759	0.22134	0.10548	0.11358	0.042227	-2.2833	-3.3417	-2.7104	-2.8937	-3.1708	-2.6854	-3.1208	-3.3458	-2.7396	-3.1917	-2.9646	-2.8625	-3.2042	-2.8083	-3.0354	-3.1708	113.643	181.492	64.138	198.335	53.734	29.563	245.616	255.336	50.742	-80.892	152.718	250.601	205.070	101.047	29.964	171.268	8.1566e-05	0.00023086	0.00011009	1156.9	3.2169e-06	2.1311e-06	1217.5	237.3	2.2585e-06	3.7507e-06	300.83	83.081	65.168	19.234	2.3068e-06	27.046	0.00011667	0.00012275	3.7358e-05	952.18	1.2227e-06	1.3967e-06	1129.7	222.38	1.2847e-06	1.4057e-06	274.03	77.681	60.423	18.053	1.4555e-06	25.078	241.261	-86.858	-23.607	-89.484	4.476	6.425	-89.159	-82.036	-88.192	131.281	-82.506	-75.911	-75.931	-68.878	62.583	-69.129	-8191	255	
789.860	1	1	0	0	0.10392	0.064484	0.34418	0.08819	0.085767	0.32925	0.33278	0.044049	0.1544	0.095176	0.34332	0.15097	0.19433	0.21226	0.13579	0.25624	-2.0604	-3.05	-2.9396	-2.7479	-3.1167	-2.8917	-3.0417	-3.2729	-2.8563	-3.0708	-2.9979	-2.8396	-3.1667	-2.8917	-2.9396	-3.1562	73.530	75.842	110.740	188.326	174.063	235.528	201.556	-86.300	78.422	-98.188	209.402	241.890	241.899	-93.916	51.629	47.572	0.00012019	0.00049871	0.00012518	1157.4	3.274e-06	2.1115e-06	1217.6	237.63	7.4237e-07	1.576e-06	299.47	83.443	65.266	19.056	2.229e-06	27.058	0.00011829	0.00013189	3.5711e-05	950.83	1.2458e-06	1.4596e-06	1129.7	222.65	1.2964e-06	1.4635e-06	273.31	77.578	60.667	18.078	1.3793e-06	24.981	227.334	-48.558	-30.463	-89.500	43.157	17.808	-88.996	-82.296	58.325	95.299	-82.410	-75.488	-75.663	-69.069	103.621	-68.904	-8191	255	
789.981	1	1	0	0	0.11932	0.19879	0.16379	0.28257	0.17724	0.088409	0.12666	0.19015	0.12664	0.14697	0.10015	0.036419	0.10147	0.34037	0.035267	0.2938	-2.4896	-2.9437	-3.05	-2.5521	-3.2375	-2.8688	-3.0292	-3.3042	-2.8958	-3.0146	-2.9042	-2.6917	-3.1354	-2.8187	-2.6979	-3.1958	-21.292	179.600	56.929	191.562	135.985	-80.896	258.084	232.119	42.774	36.974	-83.383	73.224	-17.268	-37.954	104.591	-22.949	0.00014673	0.00023327	0.00010733	1156.3	4.6447e-07	3.348e-06	1216.3	238.57	2.0128e-06	1.2497e-06	298.46	83.229	65.293	19.193	1.7012e-06	27.376	0.00012166	0.00013632	3.3785e-05	948.52	1.3097e-06	1.4859e-06	1129.8	222.42	1.3934e-06	1.4826e-06	272.28	77.611	60.973	18.079	1.3349e-06	25.043	255.953	-7.488	49.469	-89.349	-24.564	56.479	-89.074	-82.263	-81.359	82.373	-82.642	-75.827	-75.601	-68.942	110.160	-69.640	-8191	255	
790.052	1	1	0	0	0.16115	0.17	0.13161	0.1336	0.062767	0.24507	0.19573	0.099303	0.091707	0.068057	0.23271	0.1676	0.11155	0.059824	0.36911	0.12556	-2.1875	-2.9167	-3.0542	-2.7458	-3.1458	-2.8312	-2.9875	-3.1417	-2.7938	-2.9708	-3.1417	-2.6896	-3.25	-3.0125	-2.8	-3.3854	203.440	176.864	253.471	-95.602	27.711	-22.107	160.872	88.848	9.899	142.177	258.264	91.645	-32.759	153.103	35.660	50.658	0.00014993	0.00011482	1.3855e-05	1147.2	2.784e-07	5.7915e-06	1215.8	238.11	1.1881e-06	2.1463e-06	300.06	82.694	64.995	19.222	1.644e-06	27.085	0.00012997	0.00013276	3.2546e-05	946.73	1.4128e-06	1.4392e-06	1127.8	222.27	1.4452e-06	1.4363e-06	272.71	77.475	61.033	18.022	1.2954e-06	24.99	255.055	-1.380	-49.450	-89.404	231.367	54.222	-89.018	-82.200	101.334	16.821	-82.509	-76.034	-75.829	-69.024	-36.958	-69.120	-8191	255	
790.149	1	1	0	0	0.23131	0.17798	0.11553	0.1377	0.045054	0.03606	0.23143	0.068435	0.19547	0.22157	0.11331	0.23934	0.12207	0.19898	0.10405	0.11695	-2.3583	-2.7521	-3.0229	-2.6583	-3.1833	-2.9938	-2.825	-3.3688	-2.9813	-2.8542	-3.1208	-2.7479	-3.0292	-3.0833	-2.75	-3.2458	165.394	211.424	8.704	181.299	158.900	-77.434	176.844	225.023	110.828	183.325	114.859	179.883	138.844	226.206	173.982	-83.766	0.00010096	0.0004237	4.8296e-05	1152.4	2.9413e-06	1.3315e-06	1212.4	238.46	3.0105e-06	1.4194e-06	300.17	83.098	65.346	19.008	1.8167e-06	27.322	0.00013476	0.00012625	3.137e-05	947.09	1.456e-06	1.3367e-06	1128.5	222.51	1.472e-06	1.3548e-06	272.69	77.757	61.13	17.914	1.2698e-06	25.061	-71.247	32.768	-20.674	-89.299	66.445	-16.694	-89.133	-82.239	74.826	47.269	-82.514	-75.910	-75.830	-68.466	148.313	-69.400	-8191	255	
790.245	1	1	0	0	0.039573	0.068144	0.23646	0.35378	0.076211	0.16414	0.27387	0.21853	0.21378	0.10111	0.15377	0.31525	0.062266	0.17873	0.19363	0.20559	-2.5187	-3.0479	-3.1771	-2.7354	-3.1104	-3.1896	-2.8812	-3.1937	-2.5667	-2.7854	-3.25	-2.825	-3.0292	-3.1917	-2.7229	-3.2	19.518	-55.509	76.236	205.741	-76.902	176.861	183.365	102.320	257.147	214.234	217.399	-69.987	-17.244	149.654	-80.094	229.835	0.00012216	0.00034411	5.764e-05	1154	2.2483e-06	2.7257e-06	1215.1	238.35	1.3336e-06	1.1749e-06	297.84	82.79	65.101	19.169	6.5811e-07	27.125	0.00013439	0.00012234	3.0492e-05	951.79	1.4471e-06	1.2836e-06	1128	223.33	1.4635e-06	1.3264e-06	272.09	77.871	60.988	17.903	1.2516e-06	25.184	256.223	-15.557	-22.535	-89.686	-7.005	35.074	-89.194	-82.161	-96.877	28.303	-82.750	-75.735	-75.895	-68.857	54.403	-69.267	-8191	255	
790.365	1	1	0	0	0.21485	0.089547	0.11061	0.10513	0.13695	0.092896	0.12149	0.19851	0.19055	0.085258	0.046669	0.097247	0.15317	0.34304	0.11524	0.24907	-2.6958	-2.7479	-3.1312	-2.9083	-2.9354	-3.2417	-3.0187	-3.2938	-2.8292	-2.8208	-3.2	-2.7062	-2.7521	-3.0271	-2.8375	-3.1583	176.368	185.690	-38.260	-89.565	0.651	-48.554	71.619	-62.413	61.117	181.267	255.659	42.015	-52.196	170.365	7.409	183.430	0.00010452	0.00043373	0.00011195	1153.5	5.3845e-06	1.9993e-06	1212.1	237.92	2.4819e-06	1.7797e-06	297.04	82.9	65.257	19.195	2.2962e-06	27.131	0.00013176	0.00011928	3.103e-05	953.43	1.4125e-06	1.2511e-06	1126.1	223.2	1.3834e-06	1.2879e-06	271.27	77.818	60.958	17.856	1.2961e-06	25.24	-76.211	22.705	-44.332	-89.615	-9.081	8.407	-89.084	-82.480	-93.425	59.460	-82.786	-75.648	-75.823	-68.703	161.591	-69.192	-8191	255	
790.462	1	1	0	0	0.19647	0.28839	0.11641	0.10031	0.2126	0.067043	0.33109	0.25807	0.11343	0.08496	0.19117	0.23535	0.12608	0.30525	0.023662	0.091929	-2.5604	-2.6958	-3.0687	-2.8854	-2.8312	-3.1479	-2.8896	-3.3125	-2.9667	-2.7771	-3.125	-2.825	-2.9896	-3.1729	-2.6688	-3.1396	164.988	155.435	94.352	-53.886	-81.756	-99.787	218.864	172.435	12.786	184.093	-67.075	224.136	219.774	-99.569	-33.991	192.533	0.00010836	0.0005447	7.2625e-05	1147.3	5.1438e-06	6.0928e-06	1213.2	238.41	3.3334e-06	1.734e-06	296.63	83.265	65.383	19.124	1.5308e-06	27.05	0.00012272	0.00011682	3.2524e-05	956.04	1.3499e-06	1.2155e-06	1127.2	223.29	1.3067e-06	1.2676e-06	271.94	77.967	60.686	17.779	1.4078e-06	25.201	-75.107	0.692	41.749	-89.164	16.456	71.167	-89.278	-82.290	29.832	69.890	-82.611	-75.542	-75.737	-68.750	255.275	-69.254	-8191	255	
790.558	1	1	0	0	0.20509	0.24168	0.21498	0.086082	0.17465	0.10423	0.32804	0.081186	0.2404	0.22385	0.26193	0.077183	0.10265	0.25312	0.04167	0.1335	-2.5	-2.6396	-3.2083	-3.15	-2.8333	-3.2229	-2.8875	-3.1292	-2.9708	-2.7583	-3.15	-2.925	-2.9188	-3.2458	-2.7833	-3.0563	-35.019	160.157	53.750	255.374	194.482	17.769	223.182	-50.334	22.146	252.730	-91.051	67.169	-30.736	20.483	-9.016	211.498	0.00011017	0.00023884	4.3459e-05	1141.6	1.419e-06	3.6251e-06	1214.1	236.57	4.9474e-07	3.095e-06	298.44	83.378	65.355	19.089	2.0037e-06	26.949	0.0001185	0.00011426	3.4912e-05	950.37	1.3285e-06	1.2135e-06	1127.5	222.79	1.2905e-06	1.2775e-06	273.25	77.846	60.721	17.805	1.459e-06	25.101	233.920	240.699	68.060	-89.331	38.643	-4.089	-89.038	-82.197	37.625	87.644	-82.846	-75.971	-75.626	-69.182	68.248	-69.187	-8191	255	
790.652	1	1	0	0	0.11803	0.11368	0.23688	0.30286	0.16076	0.10916	0.38508	0.16437	0.11681	0.05771	0.15606	0.29522	0.22008	0.17549	0.14441	0.10033	-2.9062	-2.6042	-3.1458	-2.9313	-2.7854	-3.2542	-2.9437	-3.0333	-3.0958	-2.7396	-3.025	-3.0104	-2.5312	-3.2917	-2.7604	-2.7708	223.912	-86.228	241.880	-97.750	37.092	-71.254	254.637	209.707	86.687	204.319	241.860	99.925	192.775	216.790	71.656	222.982	7.3407e-05	6.0392e-05	1.3516e-05	1148.8	1.1538e-06	1.183e-06	1206	237.94	2.3878e-06	1.2137e-06	299	82.847	65.032	18.911	2.5149e-06	26.851	0.00011657	0.0001176	3.6676e-05	947.93	1.3275e-06	1.2549e-06	1126.4	222.74	1.27e-06	1.3158e-06	274.18	77.632	60.699	17.863	1.4721e-06	25.005	228.991	203.582	179.960	-89.681	-36.608	-20.068	-89.344	-82.226	94.856	226.822	-82.609	-75.606	-75.995	-68.822	29.492	-69.520	-8191	255	
790.748	1	1	0	0	0.24884	0.1	0.12064	0.14219	0.25445	0.041293	0.11185	0.10212	0.13978	0.23555	0.12534	0.26308	0.222	0.33792	0.16464	0.19246	-2.6771	-2.5938	-2.9562	-3.0542	-2.7208	-3.0854	-3.0312	-2.8583	-3.2292	-2.7167	-3.1479	-2.9917	-2.7833	-3.1604	-2.8917	-2.7729	207.719	58.367	61.516	73.871	150.111	-27.219	108.612	220.907	200.021	-0.836	240.494	-56.573	-79.354	219.550	253.631	97.454	0.00011806	0.00010493	1.1857e-05	1140.1	3.8425e-07	5.7291e-07	1213.2	237.43	3.0999e-06	2.3424e-06	297.98	83.028	64.64	19.084	1.4431e-06	26.951	0.00011299	0.00012427	3.7698e-05	945.45	1.2586e-06	1.3351e-06	1128	222.3	1.2263e-06	1.4069e-06	273.6	77.601	60.486	17.951	1.441e-06	25.023	258.544	-27.544	102.191	-89.833	-43.097	-23.506	-89.119	-82.611	-23.831	172.843	-82.371	-75.835	-75.441	-69.093	16.193	-69.010	-8191	255	
790.844	1	1	0	0	0.17415	0.30851	0.074458	0.10016	0.1297	0.205	0.22656	0.18661	0.14903	0.14723	0.099385	0.099665	0.10587	0.054442	0.15429	0.16463	-2.8958	-2.625	-2.9354	-3.05	-2.8229	-2.9021	-2.9833	-2.7625	-3.2104	-2.7958	-2.9979	-3.2062	-2.6125	-3.2167	-3.0021	-2.7812	2.984	157.649	-43.677	175.270	91.334	36.619	134.770	166.760	-50.544	145.168	233.880	-77.528	-4.895	-85.869	-62.450	134.217	3.5457e-05	0.00010876	5.4995e-05	1147.5	2.8686e-06	2.31e-06	1210.6	238.05	1.8264e-06	2.228e-06	296.94	83.178	65.348	19.13	2.5918e-06	27.233	0.0001109	0.00012962	3.5968e-05	942.82	1.2569e-06	1.4211e-06	1127.1	222.21	1.2066e-06	1.4364e-06	272.65	77.41	60.713	18.046	1.3449e-06	25.03	243.005	52.015	44.943	-89.846	75.237	217.334	-89.107	-82.237	145.242	122.430	-82.559	-75.514	-75.632	-68.922	7.419	-69.174	-8191	255	
790.965	1	1	0	0	0.21273	0.26097	0.16955	0.15533	0.044067	0.05434	0.21528	0.074678	0.099822	0.19673	0.25757	0.16398	0.33182	0.078319	0.4267	0.29891	-2.8438	-2.8167	-2.8958	-3.0667	-2.6729	-2.9271	-3.1583	-2.7917	-3.1625	-2.9146	-2.9479	-3.1417	-3.0417	-2.9521	-2.9521	-2.8625	225.269	-86.186	113.470	78.639	141.150	27.814	-90.472	253.575	-82.241	-31.977	237.960	212.242	232.341	148.710	-40.755	-90.076	0.00013301	0.00013918	4.5043e-05	1151.6	1.9729e-06	1.9625e-06	1209.9	238.08	1.4962e-06	1.1941e-06	298.32	82.816	65.504	19.15	2.9811e-06	27.069	0.00011446	0.00013321	3.4235e-05	943.41	1.2963e-06	1.4478e-06	1124.5	222.34	1.2862e-06	1.4505e-06	272.32	77.139	60.857	18.011	1.2675e-06	25.008	259.276	-56.886	0.046	-89.761	-54.295	118.133	-89.123	-82.153	206.763	32.484	-82.554	-75.918	-75.959	-68.930	23.469	-69.190	-8191	255	
791.061	1	1	0	0	0.24456	0.093652	0.084534	0.0358	0.23541	0.13276	0.2258	0.17677	0.051891	0.16583	0.25608	0.26248	0.15008	0.22908	0.11999	0.23746	-2.7042	-2.8708	-2.7458	-3.2729	-2.825	-3.05	-3.2208	-2.7479	-3.0083	-2.8354	-3.0479	-3.2479	-2.9604	-2.9375	-3.0667	-2.8021	69.552	33.151	215.593	30.317	144.997	198.982	212.519	181.919	-36.949	26.742	174.658	-47.447	185.887	239.829	-15.380	-1.949	0.00016016	0.00027375	7.1474e-05	1142	2.2826e-06	3.273e-06	1208.9	239.41	2.2851e-06	3.9614e-06	299.97	82.908	65.306	18.965	1.9965e-06	27.038	0.00012263	0.00013043	3.3116e-05	938.77	1.363e-06	1.4152e-06	1125	222.28	1.3777e-06	1.3722e-06	272.8	77.348	60.96	17.972	1.2315e-06	24.934	257.246	-4.562	-30.365	-89.708	136.559	58.303	-89.101	-82.225	-67.467	88.080	-82.371	-75.647	-75.503	-69.232	85.477	-68.903	-8191	255	
791.157	1	1	0	0	0.18469	0.31547	0.064087	0.062474	0.39491	0.14409	0.26218	0.073024	0.151	0.061294	0.20742	0.093363	0.27495	0.17843	0.070341	0.18163	-2.6188	-2.9271	-2.7125	-3.0812	-2.8438	-2.9833	-3.175	-2.9167	-3.0792	-2.9333	-2.9896	-2.9146	-2.8312	-2.8292	-3.2083	-2.8104	223.247	32.980	195.170	221.067	114.972	8.100	-49.937	148.705	203.592	138.449	115.828	76.629	130.481	158.053	253.436	135.527	5.3502e-05	8.4049e-05	5.7512e-05	1160.1	3.2464e-06	2.6597e-06	1211.1	236.87	6.7615e-07	3.1994e-06	298.04	82.919	65.198	19.026	3.6183e-06	26.95	0.00013139	0.00012205	3.2421e-05	943.23	1.4348e-06	1.367e-06	1123.5	222.21	1.4708e-06	1.3357e-06	272.15	77.501	61.106	17.964	1.221e-06	25.062	-93.728	165.500	254.552	-89.480	234.177	61.819	-89.077	-81.860	-33.793	44.978	-82.416	-75.639	-76.071	-68.909	70.994	-69.343	-8191	255	
791.278	1	1	0	0	0.13541	0.20637	0.24455	0.13108	0.18284	0.2832	0.032863	0.15626	0.19339	0.10498	0.14246	0.32985	0.15062	0.066461	0.12273	0.25092	-2.6583	-2.8833	-2.8125	-3.3146	-2.9979	-2.9354	-3.3875	-2.6792	-2.9292	-3.1333	-2.6958	-3.1271	-2.9833	-2.9271	-3.2396	-2.7687	-85.520	92.423	114.997	107.510	109.927	136.962	208.064	-98.933	236.882	250.510	198.412	169.197	251.997	146.785	-30.838	196.905	0.00017073	0.00042688	0.00011637	1161.9	1.4018e-06	4.6414e-06	1210.1	237.42	3.7144e-06	4.8842e-06	298.8	83.217	65.064	19.177	1.9916e-07	27.032	0.00013441	0.00011681	3.137e-05	951.13	1.4509e-06	1.3137e-06	1124.7	222.43	1.4758e-06	1.2792e-06	272.29	77.783	61.01	17.945	1.2107e-06	25.188	253.113	-42.980	22.190	-89.199	162.170	37.943	-89.200	-82.391	52.672	99.425	-82.566	-76.090	-75.864	-69.160	195.937	-68.962	-8191	255	
791.350	1	1	0	0	0.069571	0.21022	0.038753	0.19611	0.34679	0.045273	0.30386	0.064141	0.054304	0.18841	0.059995	0.055834	0.22821	0.28771	0.03062	0.24186	-2.5896	-2.9604	-2.7667	-3.1312	-3.0229	-2.8979	-3.2687	-2.7271	-2.9146	-3.0708	-2.7687	-3.1396	-2.8292	-2.8479	-3.1354	-2.7979	117.455	-46.335	10.239	136.108	35.507	-9.850	149.322	195.150	37.046	97.951	227.864	258.999	205.167	-91.887	-28.694	146.914	7.8206e-05	0.00029954	7.4439e-05	1155.7	3.1619e-06	8.3259e-07	1212.2	237.96	4.0252e-06	4.7129e-06	298.45	82.893	64.992	19.173	1.9843e-06	27.093	0.00013197	0.00011734	3.2289e-05	954.22	1.4116e-06	1.3028e-06	1125.9	223.3	1.4209e-06	1.2532e-06	272	77.978	60.852	17.931	1.2484e-06	25.259	-98.229	-45.642	-29.580	-89.515	16.951	12.705	-89.085	-82.110	-20.671	59.188	-82.530	-75.844	-75.903	-68.509	33.667	-69.188	-8191	255	
791.446	1	1	0	0	0.17625	0.097921	0.27948	0.21651	0.1784	0.16757	0.097637	0.19882	0.13341	0.14512	0.1493	0.17762	0.033034	0.017429	0.11396	0.13811	-2.4646	-3.1188	-2.7271	-3.1125	-3.0792	-2.8292	-3.3104	-2.875	-2.8937	-3.4708	-2.7417	-3.1833	-3.1146	-2.6583	-3.2771	-2.6667	-19.745	173.960	117.415	-85.223	106.398	188.916	238.612	236.857	12.347	211.459	246.206	-61.694	-34.477	70.420	242.262	240.924	3.6035e-05	0.00045626	8.0364e-05	1153.5	4.3543e-06	4.2434e-07	1212.4	237.56	3.8222e-06	1.5579e-06	298.28	82.877	65.413	19.214	3.571e-07	27.206	0.00012762	0.00011438	3.3016e-05	956.14	1.353e-06	1.2915e-06	1127	223.26	1.3766e-06	1.2289e-06	272.84	77.999	60.646	17.946	1.3321e-06	25.268	148.511	-19.254	53.246	-89.689	0.937	214.621	-88.926	-82.225	22.685	249.803	-82.580	-76.250	-75.735	-68.981	88.108	-68.813	-8191	255	
791.542	1	1	0	0	0.16342	0.35255	0.10147	0.032633	0.14859	0.099752	0.17373	0.27379	0.086011	0.18343	0.17635	0.17293	0.09334	0.24595	0.21734	0.22199	-2.3958	-3.0458	-2.6458	-2.9188	-2.9708	-2.6917	-3.1604	-3.0521	-2.8396	-3.2062	-2.9458	-2.8979	-3.0375	-2.5563	-3.1688	-2.9813	235.002	-54.191	176.905	223.931	254.749	-30.811	-91.646	226.066	-95.719	80.586	184.481	74.637	4.398	226.394	-25.034	244.458	0.00011409	7.0992e-05	8.1284e-05	1144	1.371e-06	2.4078e-06	1215.7	238.48	5.3024e-07	1.8945e-06	299.21	83.237	65.579	19.096	1.3912e-06	27.273	0.00012235	0.00011015	3.5215e-05	952.77	1.2817e-06	1.2622e-06	1127.3	223.28	1.3289e-06	1.2161e-06	273.64	77.928	60.725	17.91	1.4138e-06	25.194	252.542	34.941	-50.898	-89.211	-23.460	67.643	-89.015	-82.259	91.967	-8.869	-82.677	-75.733	-75.851	-68.886	174.661	-69.478	-8191	255	
791.661	1	1	0	0	0.23235	0.025882	0.26582	0.15103	0.10179	0.1462	0.09561	0.11513	0.23957	0.13262	0.010076	0.14999	0.15614	0.34228	0.11482	0.24468	-2.2979	-3.1625	-2.7646	-2.8896	-3.0208	-2.7896	-3.0792	-3.0062	-2.6396	-3.1292	-2.9437	-2.8458	-3.2104	-2.6792	-3.1021	-3.0354	-89.908	122.241	-44.432	-80.690	15.683	117.064	89.374	229.881	-68.876	244.632	51.184	239.600	-93.233	187.390	258.396	255.466	8.6906e-05	7.9315e-05	8.6737e-05	1153.9	3.2524e-06	2.4967e-06	1212.9	238.15	5.9431e-07	1.8447e-06	298.97	83.334	65.485	19.077	2.7596e-06	27.152	0.0001199	0.00011091	3.7082e-05	952.21	1.2211e-06	1.2589e-06	1128.2	222.84	1.2825e-06	1.2325e-06	273.63	77.87	60.54	17.924	1.4304e-06	25.109	248.263	-64.933	58.438	-89.784	27.793	-27.667	-89.067	-82.078	-97.135	52.938	-82.479	-75.837	-76.226	-68.456	72.064	-69.021	-8191	255	
791.757	1	1	0	0	0.1798	0.028935	0.10728	0.091328	0.1657	0.10029	0.033564	0.21093	0.15919	0.28345	0.030268	0.19855	0.16394	0.16002	0.16218	0.34434	-2.3896	-3.1208	-2.9417	-2.7875	-2.9208	-2.7146	-3.1354	-3.1479	-2.6	-3.0125	-3.0458	-2.8	-3.1604	-2.7229	-2.8625	-3.0854	259.247	-19.447	-50.425	87.485	-21.043	-99.264	-89.604	208.477	150.141	-66.561	1.830	115.049	-60.304	115.171	23.745	-58.714	0.00011132	0.00011766	6.092e-05	1157.1	1.6918e-06	2.1626e-06	1209.7	238.44	5.9641e-06	1.7412e-06	300.38	83.405	65.28	19.274	8.6373e-07	27.201	0.00011535	0.00011531	3.6098e-05	948.43	1.1662e-06	1.3187e-06	1128.4	222.79	1.229e-06	1.2954e-06	274.23	77.731	60.519	18.046	1.4034e-06	25.102	-92.235	68.478	-52.628	-89.339	11.486	253.539	-89.047	-82.094	-39.619	-49.451	-82.938	-75.650	-75.638	-68.671	-14.167	-69.812	-8191	255	
791.853	1	1	0	0	0.22337	0.13515	0.1476	0.14064	0.2047	0.097843	0.28315	0.2001	0.10623	0.23879	0.20379	0.1003	0.27262	0.13665	0.087085	0.11741	-2.0563	-3.0708	-2.7896	-2.8292	-3.2708	-2.7854	-3.0125	-3.2542	-2.7458	-3.1583	-3.0167	-2.6229	-3.0792	-2.8979	-2.7979	-3.2979	-80.291	104.127	251.764	161.203	106.354	72.258	107.247	150.821	16.402	32.927	229.789	8.846	53.651	-79.763	43.600	14.984	0.00010688	0.00013607	5.7746e-05	1146.2	2.6088e-07	2.7525e-06	1218	238.03	2.3806e-06	1.2825e-06	301.07	83.287	64.793	19.291	1.024e-06	27.369	0.00011272	0.00012089	3.4323e-05	943.54	1.161e-06	1.3606e-06	1128.5	222.26	1.2108e-06	1.3486e-06	273.83	77.737	60.48	18.098	1.331e-06	25.109	-59.789	109.503	-25.443	-89.305	209.677	128.940	-89.061	-82.098	-6.805	34.328	-82.631	-75.726	-75.628	-68.870	117.710	-69.214	-8191	255	
791.927	1	1	0	0	0.058645	0.19528	0.042599	0.048177	0.11566	0.21901	0.16599	0.2449	0.072002	0.085231	0.19658	0.20507	0.14471	0.057859	0.05061	0.2464	-2.2854	-3.075	-3.2167	-2.7	-3.0479	-2.9229	-2.8896	-3.2104	-2.6375	-3.0896	-3.0083	-2.7917	-3.1729	-3.0396	-2.8187	-3.2875	-17.733	80.365	-89.203	-2.560	-89.793	165.251	194.159	169.173	-44.873	156.170	192.656	-58.178	231.491	148.330	173.615	200.685	6.5311e-05	9.0545e-05	9.7117e-05	1151.5	7.9368e-07	4.6895e-06	1209.7	238.47	7.4474e-08	4.69e-06	300	83.656	64.607	19.247	2.8282e-06	27.351	0.00011311	0.00012709	3.2475e-05	943.43	1.2087e-06	1.4011e-06	1125.8	222.54	1.2579e-06	1.3898e-06	272.9	77.712	60.533	18.074	1.2693e-06	25.001	251.033	-64.007	-34.302	-89.488	165.133	60.518	-89.127	-81.879	-72.491	-39.517	-82.688	-75.766	-75.490	-68.452	89.012	-69.177	-8191	255	
792.045	1	1	0	0	0.19989	0.079434	0.27108	0.11172	0.078366	0.12422	0.073955	0.30331	0.27198	0.28909	0.1954	0.099034	0.11596	0.1708	0.066678	0.11016	-2.5354	-2.9146	-2.9417	-2.7875	-3.1604	-2.9625	-3.0708	-3.2833	-2.8208	-2.975	-3.1271	-2.7042	-3.2083	-2.9458	-2.8063	-3.1125	-65.789	-14.595	105.829	223.927	101.868	179.370	148.432	238.178	253.752	23.794	-94.936	204.421	259.071	255.291	-5.633	68.877	9.0371e-05	0.0002445	3.8226e-05	1157.5	1.9259e-06	3.7876e-06	1215.5	237.5	3.4759e-06	1.2154e-06	299.67	83.296	65.654	19.178	1.9182e-06	27.276	0.00012004	0.00012483	3.0824e-05	944.96	1.2877e-06	1.3616e-06	1126.3	221.79	1.3533e-06	1.3537e-06	273.01	77.499	60.857	18.041	1.257e-06	25.069	-83.458	225.697	9.206	-89.531	65.779	64.176	-88.956	-82.111	-52.134	99.065	-82.555	-76.083	-75.690	-68.981	53.940	-69.234	-8191	255	
792.142	1	1	0	0	0.089603	0.090799	0.22911	0.21138	0.19135	0.085223	0.26969	0.032612	0.20454	0.22116	0.23722	0.17907	0.33414	0.33534	0.068088	0.31672	-2.3729	-2.8854	-2.9333	-2.7438	-2.9958	-3.0604	-2.9229	-3.2458	-2.9104	-2.9042	-3.2271	-2.625	-3.0417	-3.0125	-2.825	-3.0958	160.864	125.249	169.927	-0.794	206.284	219.722	201.458	-36.898	-68.915	109.497	236.872	-83.036	-80.856	-44.329	48.546	145.986	7.5094e-05	0.00024729	2.7499e-05	1149.5	2.6689e-07	2.403e-06	1215.2	237.74	1.8847e-06	8.3835e-08	300.93	83.555	65.147	19.265	2.3045e-06	27.324	0.00012589	0.00012065	3.0199e-05	941.54	1.346e-06	1.2996e-06	1126.3	222.15	1.4131e-06	1.3135e-06	272.49	77.791	61.048	17.985	1.2093e-06	25.17	-95.074	-47.385	-25.016	-89.219	162.000	34.570	-89.107	-82.092	-4.608	162.716	-82.520	-75.848	-75.891	-68.865	131.748	-69.523	-8191	255	
792.238	1	1	0	0	0.15475	0.14281	0.28371	0.021549	0.058026	0.052028	0.12438	0.30341	0.1344	0.28979	0.12033	0.28346	0.19784	0.2251	0.25165	0.10841	-2.4229	-2.7375	-3.1979	-2.8125	-3.0396	-3.0729	-2.6896	-3.1604	-2.7208	-2.8792	-3.2479	-2.7062	-3.0396	-3.0583	-2.5917	-3.1937	106.787	242.855	65.846	-49.295	-30.908	47.628	-82.413	160.407	180.216	-0.199	92.700	123.106	-5.684	86.186	129.420	70.319	9.6745e-05	0.00011409	2.8465e-05	1143.7	1.2751e-06	9.1648e-07	1216.2	237.42	1.2133e-07	2.4793e-06	300.6	83.154	65.56	19.287	7.5741e-07	27.142	0.00012827	0.00011591	2.9264e-05	946.27	1.3838e-06	1.2528e-06	1125.7	222.71	1.385e-06	1.2603e-06	272.24	77.884	60.984	17.951	1.1975e-06	25.194	-85.482	-93.621	11.067	-89.444	23.753	45.596	-89.051	-81.944	-69.780	49.858	-82.768	-75.870	-75.888	-68.991	-91.917	-69.330	-8191	255	
792.358	1	1	0	0	0.16232	0.024657	0.15665	0.23202	0.14807	0.28113	0.2337	0.054113	0.13725	0.16213	0.12596	0.34163	0.18456	0.22961	0.16375	0.23194	-2.5312	-2.7604	-3.1479	-2.6896	-3.0771	-3.1083	-2.8417	-3.2687	-2.7896	-2.8312	-3.275	-2.8021	-3.0521	-3.2021	-2.8104	-3.1646	62.135	200.860	54.112	105.720	-46.169	249.666	249.455	98.808	-83.110	-14.109	-90.367	-47.998	146.315	123.705	-40.675	48.433	2.2172e-05	0.0002187	6.6372e-05	1151	3.318e-06	4.3599e-06	1215.6	238.16	1.8227e-06	3.8808e-06	299.98	83.176	65.379	19.234	1.598e-06	27.433	0.0001248	0.00011157	2.8707e-05	948.83	1.3498e-06	1.1795e-06	1125.1	222.73	1.3129e-06	1.2121e-06	272.27	77.844	60.862	17.881	1.1976e-06	25.314	253.197	-24.836	-11.471	-89.360	23.306	93.767	-89.052	-82.282	-43.123	-12.347	-82.652	-75.551	-75.820	-69.246	3.664	-69.167	-8191	255	
792.455	1	1	0	0	0.29318	0.19726	0.062004	0.20481	0.13275	0.15889	0.28359	0.36102	0.15636	0.15486	0.19809	0.3063	0.066194	0.074779	0.038978	0.2562	-2.6521	-2.8896	-3.2854	-2.7438	-2.9604	-3.1875	-2.8667	-3.1875	-2.9917	-2.825	-3.3396	-2.7646	-2.8312	-2.9917	-2.7021	-3.0563	141.869	-68.394	39.161	171.227	49.650	-7.720	216.194	188.122	259.496	122.721	141.861	-79.496	100.679	17.994	219.770	33.581	0.00011246	0.00037215	3.0192e-05	1147.8	1.5562e-06	4.161e-06	1211.5	236.56	9.6175e-07	1.7121e-06	300.71	83.368	65.448	19.34	1.8228e-06	27.452	0.00011707	0.00011034	2.958e-05	948.89	1.2896e-06	1.1492e-06	1124.4	222.83	1.2566e-06	1.195e-06	273.13	78.047	60.613	17.889	1.2447e-06	25.238	-62.947	-16.890	90.252	-89.347	65.546	82.256	-89.087	-82.044	5.598	70.067	-82.524	-76.049	-75.749	-69.113	202.467	-69.557	-8191	255	
792.549	1	1	0	0	0.18982	0.1801	0.070329	0.050734	0.19481	0.16154	0.40428	0.18797	0.06241	0.023177	0.17937	0.27903	0.030075	0.10757	0.063251	0.35698	-2.6667	-2.7646	-3.0458	-2.9604	-2.6562	-3.1292	-2.9875	-2.9188	-2.9854	-2.7625	-3.1792	-3.0021	-2.7938	-3.1542	-2.7	-3.0938	-22.733	45.947	-6.871	-54.616	-86.495	96.021	207.607	-34.766	214.397	109.941	-21.163	206.730	-74.412	150.999	217.700	211.857	0.00013827	0.00019559	7.9685e-05	1143.7	3.6061e-06	2.051e-06	1207.2	237.17	5.2504e-07	2.4762e-06	300.69	83.743	65.174	19.268	2.2537e-06	27.166	0.00011159	0.00010689	3.1416e-05	945.75	1.2349e-06	1.1275e-06	1125	222.77	1.1976e-06	1.177e-06	273.53	77.931	60.616	17.852	1.3194e-06	25.176	248.307	31.477	182.244	-89.768	60.867	236.310	-89.131	-81.921	-73.716	218.736	-82.531	-76.053	-75.731	-68.871	77.917	-69.085	-8191	255	
792.647	1	1	0	0	0.045326	0.16772	0.13836	0.094832	0.11261	0.20065	0.15522	0.066214	0.13247	0.068002	0.24316	0.1989	0.19901	0.2588	0.24663	0.12429	-2.6479	-2.6937	-3.0792	-2.8146	-2.7375	-3.1875	-2.8125	-2.9167	-3.0375	-2.5958	-3.1542	-3.0458	-2.7396	-3.2604	-2.8729	-3.0458	-96.748	52.560	-75.265	-78.720	-35.477	-39.160	256.133	131.024	60.780	146.369	-57.378	154.375	94.366	212.978	-57.925	186.613	9.8488e-05	8.6751e-05	3.8798e-05	1148.8	2.4989e-06	1.9917e-06	1208.8	237.8	2.1934e-06	4.5491e-07	300.65	83.139	65.453	19.148	2.8547e-06	27.232	0.00010761	0.00010594	3.3407e-05	944.1	1.1977e-06	1.1289e-06	1123	222.58	1.1493e-06	1.1689e-06	273.29	77.524	60.569	17.876	1.3398e-06	25.133	256.165	35.464	-21.552	-89.483	25.027	149.260	-88.944	-82.099	21.636	28.553	-82.819	-75.906	-75.475	-68.877	92.741	-69.305	-8191	255	
792.741	1	1	0	0	0.20409	0.14258	0.092582	0.12986	0.14981	0.14362	0.082654	0.05406	0.20498	0.24969	0.33632	0.053073	0.10086	0.17695	0.18387	0.30496	-2.6521	-2.6771	-2.975	-3.1937	-2.8812	-3.3396	-3.0687	-3.0083	-3.2062	-2.7521	-3.1542	-3.0458	-2.8	-3.1021	-2.9667	-2.8521	-20.659	-58.675	127.428	187.655	29.399	15.176	12.341	14.805	253.834	177.045	46.091	242.054	240.987	257.521	222.283	98.455	0.00011864	9.2939e-05	3.636e-05	1141.4	3.1047e-06	7.0884e-07	1206.7	236.37	2.5125e-06	3.0581e-06	297.8	82.613	65.175	19.299	3.1129e-06	27.184	0.00010349	0.00011095	3.3996e-05	935.96	1.158e-06	1.2072e-06	1121.4	221.91	1.1257e-06	1.2666e-06	273.09	77.191	60.378	17.987	1.3598e-06	24.999	223.852	32.169	73.484	-89.240	-37.538	228.866	-89.105	-81.972	-7.598	-23.689	-82.645	-75.531	-75.723	-68.466	41.327	-69.139	-8191	255	
792.837	1	1	0	0	0.060892	0.22346	0.089401	0.10022	0.11324	0.15686	0.20991	0.13669	0.1573	0.0051517	0.062857	0.040407	0.12796	0.19738	0.12151	0.13075	-2.7375	-2.5687	-2.9271	-3.0854	-2.7542	-3.1979	-3.0104	-2.7771	-3.2354	-2.7479	-3.0146	-3.0646	-2.7125	-3.0167	-3.0875	-2.9021	112.415	180.905	193.803	61.818	84.296	54.774	169.739	225.139	-43.678	259.730	-40.010	-55.477	-1.347	81.686	238.957	138.631	9.4201e-05	0.00015429	8.7892e-06	1139.2	2.584e-06	9.0453e-07	1210.8	237.87	2.458e-06	2.2236e-06	300.67	83.068	64.921	19.232	3.7353e-06	27.306	0.0001033	0.00011875	3.3903e-05	935.17	1.1611e-06	1.2998e-06	1121.9	222.13	1.122e-06	1.3221e-06	273.43	77.404	60.361	18.009	1.293e-06	25.085	-78.554	69.495	144.846	-89.304	33.742	38.696	-89.159	-82.186	6.541	50.189	-82.461	-76.074	-75.628	-68.810	130.331	-69.349	-8191	255	
792.958	1	1	0	0	0.039234	0.085973	0.21532	0.2594	0.040792	0.064602	0.26734	0.21497	0.15834	0.21097	0.12931	0.25725	0.23768	0.12484	0.028096	0.35938	-2.7729	-2.75	-3.1042	-2.9625	-2.7208	-3.0917	-3.1458	-2.8542	-3.0854	-2.8958	-2.9167	-3.1458	-2.525	-3.0708	-2.9458	-2.7375	33.623	-43.006	192.843	-42.178	-18.073	45.031	222.459	29.762	253.631	198.216	148.955	-86.936	202.538	-40.381	59.876	177.279	1.4386e-05	8.5513e-05	0.00010044	1147.6	1.6833e-06	1.5542e-06	1209	237.75	1.8803e-06	2.2194e-06	299.13	83.591	65.06	19.206	3.6325e-06	27.162	0.00010717	0.0001226	3.2742e-05	934.11	1.1877e-06	1.3514e-06	1121.4	221.81	1.1747e-06	1.3581e-06	272.79	77.332	60.64	18.043	1.2033e-06	25.017	229.646	197.798	-41.647	-89.370	85.776	114.501	-89.236	-82.519	15.109	36.643	-82.452	-75.749	-75.625	-68.758	25.200	-69.217	-8191	255	
793.054	1	1	0	0	0.16303	0.34807	0.18069	0.32282	0.054842	0.19722	0.23436	0.25112	0.15872	0.17712	0.14626	0.086074	0.27548	0.1085	0.15573	0.18899	-2.7687	-2.7	-2.7271	-3.1562	-2.7896	-3.0563	-3.2646	-2.7729	-3.0229	-2.8542	-2.8937	-3.0896	-2.7729	-3.0083	-2.9771	-2.6896	164.087	30.411	-1.138	206.109	150.641	232.803	-61.356	-94.326	122.277	24.480	204.198	81.732	-40.633	10.378	166.801	228.828	0.00013857	0.00025893	5.8938e-05	1144.9	5.3259e-07	2.6341e-06	1205.9	237.97	2.8408e-06	6.5919e-06	299.07	83.348	65.415	19.141	1.9705e-06	27.257	0.00011187	0.00012471	3.1257e-05	935.53	1.2685e-06	1.3339e-06	1118.9	221.94	1.278e-06	1.3558e-06	272.58	77.311	60.786	17.995	1.1643e-06	25.014	-80.526	3.439	252.241	-89.218	-75.589	166.203	-88.987	-82.257	21.423	38.265	-82.146	-75.383	-75.894	-68.062	73.297	-69.314	-8191	255	
793.150	1	1	0	0	0.20029	0.16868	0.17355	0.093555	0.35259	0.28012	0.24108	0.050238	0.10434	0.20683	0.17335	0.030945	0.12113	0.15906	0.11371	0.24379	-2.7417	-2.8625	-2.6646	-3.1042	-2.7646	-3.1	-3.1958	-2.8729	-3.0167	-2.9042	-2.85	-3.1104	-2.7896	-2.7313	-3.0583	-2.7979	8.763	60.961	177.192	-28.427	-66.979	227.832	168.136	151.991	66.958	-87.196	-47.549	243.519	-48.499	220.278	68.628	60.029	0.0001402	0.00021699	7.4377e-05	1146.5	3.0104e-06	1.8554e-06	1209	238.18	2.027e-06	4.4914e-06	296.79	83.438	65.055	19.265	1.2957e-06	27.029	0.0001204	0.00011786	3.0234e-05	935.88	1.3344e-06	1.3098e-06	1119.7	221.84	1.3449e-06	1.2571e-06	271.49	77.471	60.705	17.996	1.1482e-06	24.974	-75.537	-47.435	-35.991	-89.434	4.643	-2.861	-89.173	-82.309	240.296	13.507	-82.529	-76.123	-75.552	-68.398	26.651	-69.568	-8191	255	
793.222	1	1	0	0	0.13271	0.15754	0.091381	0.24015	0.029914	0.19993	0.059099	0.17391	0.11325	0.13754	0.11948	0.071247	0.23262	0.032511	0.064017	0.038256	-2.5521	-2.8646	-2.6583	-3.1188	-2.8708	-2.8958	-3.2271	-2.6104	-3.0687	-3.0187	-2.8229	-3.1896	-2.8375	-2.725	-3.3625	-2.7792	-45.845	-1.409	-58.706	-78.383	210.789	193.696	137.184	189.168	171.033	-53.281	95.442	-47.531	-96.073	-65.691	155.263	245.772	6.9808e-05	0.00032322	8.6914e-05	1138.1	7.7382e-07	7.2477e-07	1207.8	237.25	9.2559e-07	3.3095e-06	300.35	83.026	65.254	19.16	1.718e-06	27.352	0.00012472	0.00011258	3.0204e-05	935.4	1.3687e-06	1.2508e-06	1117	221.68	1.3747e-06	1.206e-06	272.23	77.54	60.832	17.923	1.1098e-06	25.161	255.183	2.612	58.997	-89.038	7.341	200.667	-89.236	-82.173	-37.954	10.223	-82.325	-75.566	-75.505	-68.908	99.993	-69.052	-8191	255	
793.343	1	1	0	0	0.22896	0.22399	0.12764	0.2136	0.041668	0.12626	0.10444	0.33696	0.10094	0.2616	0.21012	0.24652	0.02413	0.092743	0.076451	0.092682	-2.6208	-2.8167	-2.625	-3.1646	-2.8708	-2.7958	-3.1813	-2.8187	-2.9521	-3.0792	-2.6146	-3.1083	-2.8063	-2.8667	-3.1417	-2.9062	-71.643	258.049	138.544	-8.415	-22.516	259.684	-91.110	224.144	100.151	-35.295	50.898	212.963	117.146	69.839	-57.723	5.025	9.4189e-05	0.00032404	6.7639e-05	1147.4	6.9849e-07	3.4601e-06	1206.3	237.09	2.5285e-06	8.3753e-07	297.94	83.139	65.287	19.334	2.1738e-06	27.237	0.00012294	0.00010762	2.9299e-05	941.09	1.3321e-06	1.1877e-06	1118.8	222.38	1.3188e-06	1.1561e-06	271.31	77.645	60.715	17.935	1.1099e-06	25.178	-55.684	-77.527	-58.852	-89.815	126.192	38.000	-88.995	-82.186	-38.416	28.387	-82.640	-75.674	-75.590	-68.511	-57.273	-68.873	-8191	255	
793.439	1	1	0	0	0.11926	0.17203	0.10853	0.30385	0.009297	0.21389	0.28282	0.055637	0.0080038	0.26161	0.14202	0.01667	0.15688	0.057745	0.21568	0.085536	-2.5812	-3.0563	-2.5729	-2.9833	-3.1021	-2.8875	-3.4604	-2.8833	-2.9771	-3.1771	-2.6833	-3.0146	-3.1167	-2.8417	-3.1979	-3.0167	221.993	180.518	208.575	-85.957	-69.818	211.628	204.810	-0.008	153.881	203.426	-53.364	186.989	218.173	196.784	143.089	33.390	0.00012962	0.00045893	4.8288e-05	1150.7	2.4918e-06	2.8036e-06	1208.9	237.72	1.6821e-06	3.6246e-06	297.63	83.545	65.19	19.353	4.3485e-07	27.054	0.00011628	0.0001022	2.9317e-05	943.62	1.2361e-06	1.1564e-06	1118	222.18	1.2454e-06	1.0979e-06	271.92	78.008	60.424	17.897	1.1648e-06	25.194	-95.115	-5.247	1.605	-89.769	24.100	9.924	-89.174	-82.371	-19.215	22.751	-82.551	-75.809	-75.777	-69.308	-28.369	-69.255	-8191	255	
793.535	1	1	0	0	0.030254	0.21235	0.14363	0.050862	0.21281	0.15018	0.098888	0.11688	0.24062	0.076655	0.13863	0.16272	0.082921	0.29309	0.17085	0.094006	-2.4125	-3.2396	-2.5229	-3.1063	-3.1562	-2.85	-3.3542	-3.025	-2.75	-3.075	-2.9333	-2.9208	-3.0854	-2.8104	-3.0667	-2.9	203.132	58.688	167.381	-58.347	229.112	-42.741	224.852	200.361	-32.152	174.312	166.566	-87.663	236.222	190.016	-56.578	219.261	0.0001089	0.00025546	8.9079e-05	1132.2	1.8418e-06	9.3896e-07	1203.8	237.84	1.7118e-06	1.8696e-06	297.91	83.349	65.13	19.181	3.9228e-07	27.133	0.00011188	0.00010044	3.0914e-05	942.2	1.1871e-06	1.1529e-06	1117.8	222.46	1.2187e-06	1.1018e-06	272.43	77.819	60.334	17.856	1.2687e-06	25.103	252.392	-12.716	-53.679	-89.581	-25.320	-81.164	-89.120	-82.170	70.140	237.040	-82.432	-75.544	-75.727	-68.866	115.122	-69.053	-8191	255	
793.631	1	1	0	0	0.0089991	0.14797	0.12905	0.18062	0.018444	0.16615	0.27826	0.2148	0.08997	0.099638	0.13847	0.23008	0.070838	0.071951	0.17719	0.30859	-2.3167	-3.2396	-2.8438	-3	-3.0896	-2.6875	-3.2875	-3.0062	-2.75	-2.9958	-2.8021	-3.0354	-3.0563	-2.6292	-3.0771	-3.0042	-56.716	245.866	-41.542	208.553	178.595	190.898	89.720	234.969	248.770	227.037	223.649	208.981	33.952	84.329	-1.869	206.934	4.5622e-05	0.0001562	5.9403e-05	1143.6	3.2992e-06	4.774e-07	1204	237.65	3.776e-06	3.2657e-06	299.67	83.376	65.217	19.215	1.4155e-06	27.295	0.00010992	9.9911e-05	3.2899e-05	941.46	1.1319e-06	1.1594e-06	1118.9	222.02	1.2103e-06	1.1064e-06	273.53	77.709	60.325	17.857	1.3355e-06	25.128	242.890	12.527	4.255	-89.366	-4.402	58.592	-89.195	-82.148	97.065	255.653	-82.574	-75.811	-75.578	-69.292	163.608	-69.062	-8191	255	
793.750	1	1	0	0	0.17277	0.18956	0.023216	0.19636	0.1349	0.21713	0.31182	0.20548	0.21067	0.16861	0.063883	0.18109	0.16105	0.093667	0.21776	0.13127	-2.2583	-3.1521	-2.6521	-2.7313	-2.9875	-2.7625	-3.2646	-3.0604	-2.6583	-3.2125	-2.8688	-2.9667	-3.1792	-2.75	-2.8625	-2.9646	97.959	250.190	-22.991	-74.901	109.832	71.536	240.024	-56.477	176.202	144.409	-88.989	248.039	-96.525	207.904	10.008	57.057	0.00014043	0.00019441	2.6164e-05	1136.8	5.4273e-06	1.2909e-06	1203.3	238.3	1.1005e-06	9.9304e-07	299.04	83.153	64.97	19.203	1.5799e-06	27.227	0.00010795	0.00010492	3.3989e-05	936.7	1.1118e-06	1.2008e-06	1120	221.95	1.1627e-06	1.1978e-06	272.89	77.559	60.195	17.929	1.3298e-06	24.997	-98.573	-85.943	-10.434	-89.111	5.361	134.404	-89.149	-82.109	3.126	219.456	-82.732	-75.800	-75.739	-68.586	212.919	-69.053	-8191	255	
793.822	1	1	0	0	0.18154	0.043472	0.076748	0.27213	0.25364	0.16168	0.27259	0.14476	0.040827	0.19257	0.018805	0.10691	0.16608	0.062904	0.22791	0.27042	-2.0667	-3.1688	-2.8958	-2.675	-3.2812	-2.7313	-3.1021	-2.9542	-2.5146	-3.1271	-2.9188	-2.8458	-3.1979	-2.7812	-3.0438	-3.0979	137.859	140.916	28.589	108.437	230.597	-53.789	-98.935	213.172	211.312	82.743	38.722	217.749	-29.845	-88.764	204.361	199.692	0.00012451	0.00012457	6.706e-06	1138.1	1.0444e-06	1.6349e-06	1199.5	238.3	2.9628e-06	2.2975e-07	299.25	83.103	65.061	19.286	2.2016e-06	27.244	0.00010638	0.00011311	3.3452e-05	934.63	1.0918e-06	1.2884e-06	1116.4	221.84	1.1563e-06	1.2898e-06	273.03	77.581	60.265	18.054	1.2824e-06	24.992	252.068	116.154	58.405	-89.550	218.678	154.999	-89.128	-82.287	-11.022	231.869	-82.596	-75.760	-75.605	-69.185	134.691	-69.395	-8191	255	
793.918	1	1	0	0	0.17321	0.13407	0.11743	0.15051	0.15149	0.052728	0.18495	0.1543	0.20641	0.097293	0.1774	0.094588	0.18984	0.22904	0.085136	0.10061	-2.3521	-2.9875	-2.8271	-2.7938	-3.2313	-2.9229	-3.1458	-3.2333	-2.5521	-2.9083	-3.1417	-2.8042	-3.1396	-2.8	-2.825	-3.1688	-13.808	203.487	233.893	174.110	43.101	252.586	-65.669	-88.893	219.923	174.238	-26.620	-98.039	160.385	-10.178	201.907	114.598	0.00014228	0.00011723	7.9126e-05	1141.1	1.9365e-06	7.0055e-06	1202.8	237.02	1.1563e-06	3.1796e-06	298.41	83.368	64.735	19.132	4.1237e-06	27.279	0.00010659	0.00011909	3.153e-05	933.31	1.1051e-06	1.327e-06	1116.3	221.05	1.1941e-06	1.3298e-06	271.79	77.577	60.323	18.008	1.2357e-06	25.038	-96.912	84.584	-64.049	-89.340	8.315	35.949	-89.011	-82.186	99.393	118.837	-82.343	-75.645	-75.410	-68.664	83.628	-69.199	-8191	255	
794.038	1	1	0	0	0.029261	0.193	0.056709	0.11312	0.083099	0.23799	0.233	0.10407	0.13819	0.29898	0.2131	0.21837	0.15708	0.20999	0.21572	0.14479	-2.1437	-2.9583	-2.9979	-2.7792	-3.2479	-2.9646	-3.0104	-3.1292	-2.6854	-2.9458	-2.9083	-2.7917	-3.0604	-2.8375	-2.6333	-3.2938	102.153	158.523	185.984	-72.791	179.612	119.648	-99.220	100.453	154.218	118.588	80.148	-95.240	-64.147	-16.801	-18.136	192.834	7.4042e-05	0.00063234	6.1439e-05	1141.8	3.9847e-07	2.6275e-06	1203.3	237.34	2.8037e-06	2.1809e-06	299.51	83.966	65.103	19.308	2.7861e-06	27.175	0.00011129	0.00012196	3.0106e-05	933.87	1.1994e-06	1.325e-06	1115.5	221.57	1.2571e-06	1.3162e-06	271.83	77.479	60.708	18.033	1.2034e-06	24.97	-82.386	-15.808	11.390	-89.420	-89.507	115.813	-89.082	-82.174	256.612	-9.969	-82.805	-75.622	-75.719	-68.678	93.084	-69.142	-8191	255	
794.135	1	1	0	0	0.20821	0.23305	0.17115	0.11353	0.144	0.2051	0.18436	0.14991	0.017808	0.0374	0.31289	0.2669	0.17632	0.22368	0.052581	0.23004	-2.2646	-2.9833	-2.9333	-2.5729	-3.1958	-2.9375	-3.0083	-3.2292	-2.8375	-2.9562	-3.0167	-2.7208	-3.1146	-2.8083	-2.8083	-3.0833	-96.274	98.025	12.311	26.491	-87.968	70.180	158.121	-54.711	104.394	12.843	222.031	126.655	213.994	249.312	133.390	236.855	9.1465e-05	0.00031241	3.572e-05	1140	2.2084e-06	3.1758e-06	1197.6	236.97	1.0858e-07	1.1564e-06	298.25	83.196	65.356	19.191	4.9271e-06	27.181	0.00011965	0.00011722	2.8767e-05	930.24	1.2855e-06	1.2739e-06	1114.6	220.93	1.335e-06	1.2658e-06	271.71	77.404	60.783	17.99	1.1814e-06	25.042	-93.738	7.160	-94.304	-89.311	107.820	92.484	-89.186	-82.186	-22.121	29.691	-82.453	-75.814	-75.366	-69.158	125.771	-69.234	-8191	255	
794.231	1	1	0	0	0.26668	0.23208	0.053571	0.26044	0.37975	0.17003	0.29745	0.17945	0.18204	0.31429	0.34173	0.099992	0.052763	0.37781	0.21309	0.18567	-2.3792	-2.8417	-3.1292	-2.9271	-3.0521	-3.2083	-2.8812	-3.1042	-2.9375	-2.9104	-3.1333	-2.7271	-3.0833	-3.0563	-2.6083	-3.0917	9.876	-15.580	-97.634	257.693	116.828	125.019	184.132	-60.554	217.748	122.643	191.128	175.250	141.304	224.312	34.077	256.625	0.00010069	0.00029809	7.712e-05	1139.2	2.5616e-06	2.7718e-06	1206	238.73	4.4134e-06	2.4045e-06	300.66	83.61	65.648	19.214	1.6438e-06	27.135	0.00012266	0.00011203	2.8249e-05	934	1.3409e-06	1.1964e-06	1117.2	222.3	1.3395e-06	1.226e-06	271.66	77.87	61.052	18.01	1.1578e-06	25.092	242.225	-17.642	-4.542	-89.308	40.594	49.387	-88.963	-82.054	-28.925	-79.131	-82.574	-75.655	-75.780	-68.675	-57.679	-69.140	-8191	255	
794.327	1	1	0	0	0.17311	0.23257	0.071706	0.30194	0.073874	0.14413	0.35118	0.25	0.17211	0.039951	0.16867	0.25044	0.12467	0.044622	0.11425	0.097639	-2.5667	-2.8604	-3.1542	-2.7438	-3.2792	-2.9396	-2.9188	-3.1917	-2.8708	-2.8604	-3.1979	-2.7771	-3.1375	-3.0104	-2.8333	-3.1333	-88.239	26.358	-21.774	259.075	-65.346	230.504	206.408	54.470	-89.621	206.735	38.019	-36.319	-85.988	207.549	50.020	173.742	0.00016479	0.00011692	4.6267e-05	1136.4	2.6481e-06	1.8408e-06	1206.7	238.85	2.6121e-06	2.4267e-06	299.96	83.331	65.562	19.292	8.7866e-07	27.347	0.00012168	0.00010868	2.7748e-05	938.26	1.3139e-06	1.1763e-06	1117.5	222.73	1.2925e-06	1.198e-06	272.15	78.064	60.953	17.935	1.1503e-06	25.246	256.056	-18.186	11.940	-89.125	45.369	28.121	-89.163	-82.007	68.298	62.554	-82.353	-75.698	-75.757	-68.741	34.165	-69.276	-8191	255	
794.447	1	1	0	0	0.18699	0.20267	0.22515	0.25028	0.083638	0.16878	0.1924	0.069855	0.099121	0.19926	0.10246	0.19815	0.17533	0.16844	0.20529	0.12124	-2.5875	-2.7458	-3.1521	-2.7417	-2.9271	-3.1896	-2.9354	-3.0563	-3.0646	-2.6271	-3.1333	-2.9146	-2.8833	-3.0687	-2.7396	-3.2229	16.131	235.155	-57.546	228.416	-89.463	154.592	136.453	-82.921	-19.351	-91.968	-78.890	240.782	193.906	5.584	-9.179	90.966	0.00010293	9.2657e-05	1.4952e-05	1145.4	1.5105e-06	1.7711e-06	1201.1	237.59	1.7627e-06	1.708e-06	300.21	83.102	65.575	19.349	1.4212e-06	27.201	0.00011562	0.00010728	2.8122e-05	941.45	1.266e-06	1.1311e-06	1115	223.15	1.2525e-06	1.1764e-06	272.05	77.896	60.744	17.899	1.1995e-06	25.204	-85.441	4.918	208.867	-89.686	-4.531	34.727	-88.861	-82.083	54.028	34.339	-82.475	-76.009	-75.694	-68.754	68.534	-69.147	-8191	255	
794.519	1	1	0	0	0.2242	0.06542	0.022093	0.032111	0.046325	0.17855	0.28442	0.11374	0.14949	0.048325	0.10812	0.1304	0.030906	0.2322	0.1482	0.14847	-2.5208	-2.5229	-3.1583	-2.9437	-2.7458	-3.125	-2.8937	-3.0875	-2.9771	-2.4875	-3.2417	-2.9167	-3.0396	-3.1104	-2.5708	-2.9062	-29.657	99.809	-6.199	-68.504	-17.174	-66.265	254.864	154.688	-13.128	132.633	141.478	114.867	-73.072	229.821	59.582	183.845	8.6061e-05	0.00011244	9.8348e-05	1138.4	2.1777e-06	4.9769e-06	1201.1	237.03	2.4553e-06	2.3236e-06	298.18	83.38	65.338	19.218	3.3956e-06	27.459	0.00011118	0.00010541	2.9845e-05	942.1	1.2218e-06	1.1018e-06	1115.4	222.52	1.1925e-06	1.1472e-06	272.32	77.919	60.543	17.876	1.2807e-06	25.223	219.206	57.198	-9.902	-89.413	40.701	30.223	-89.161	-81.862	31.807	7.707	-82.697	-75.883	-75.663	-69.050	-48.422	-69.215	-8191	255	
794.638	1	1	0	0	0.15904	0.22837	0.29392	0.47223	0.023629	0.16412	0.20026	0.37324	0.21096	0.1834	0.25302	0.16114	0.27259	0.24271	0.07345	0.10953	-2.5896	-2.4062	-3.0729	-2.8333	-2.7792	-3.0521	-2.825	-3.0521	-3.0083	-2.7667	-3.1104	-2.8479	-2.7083	-3.1688	-2.7938	-2.9938	85.320	253.036	-77.111	189.921	-59.811	206.890	-78.225	201.886	9.129	169.055	251.945	-76.156	213.787	-32.386	-73.541	216.392	7.4115e-05	0.00034889	4.7156e-05	1147	3.9391e-06	1.5401e-06	1201.5	238.68	4.7043e-06	1.5311e-06	302.78	83.652	65.488	19.356	2.2937e-06	27.333	0.000108	0.00010514	3.2185e-05	939.94	1.1941e-06	1.1046e-06	1117.1	222.89	1.1687e-06	1.1623e-06	274.17	77.796	60.558	17.934	1.343e-06	25.219	-76.602	-82.683	212.036	-89.549	67.660	37.959	-89.204	-81.944	3.305	-13.234	-82.561	-75.838	-75.547	-68.634	168.773	-69.137	-8191	255	
794.734	1	1	0	0	0.16235	0.022367	0.2686	0.33644	0.2693	0.28285	0.059757	0.27626	0.067941	0.1881	0.20913	0.3034	0.15233	0.066359	0.093215	0.12267	-2.7583	-2.8708	-3.1625	-2.9917	-2.9333	-3.3583	-3.0417	-2.9	-3.0083	-2.7458	-2.9333	-2.9583	-2.6312	-3.1396	-2.7458	-2.8125	-62.711	173.659	-32.296	215.651	162.676	132.524	152.581	95.599	22.169	110.000	248.798	224.194	102.189	226.798	221.657	154.192	8.7421e-05	0.000178	3.2063e-05	1141.1	2.3818e-06	1.5399e-06	1203.6	237.83	1.3752e-06	2.2286e-06	301.73	83.487	65.154	19.288	1.7098e-06	27.352	0.00010474	0.00010865	3.3937e-05	935.94	1.1606e-06	1.15e-06	1119.2	222.27	1.1258e-06	1.2142e-06	274.19	77.575	60.579	17.991	1.3317e-06	25.123	-50.905	41.013	-33.885	-89.427	3.757	166.158	-89.203	-82.069	78.897	16.740	-82.342	-75.810	-75.492	-68.687	6.887	-69.016	-8191	255	
794.830	1	1	0	0	0.19004	0.2874	0.06727	0.23094	0.11148	0.098009	0.20282	0.22658	0.11454	0.35231	0.045676	0.17452	0.059829	0.1731	0.16717	0.30283	-2.7625	-2.7062	-3.1188	-2.8479	-2.5792	-2.9979	-2.8854	-2.8125	-3.2417	-2.6583	-2.9729	-3.125	-2.6417	-3.0104	-2.8354	-2.6854	129.194	37.231	135.592	46.081	140.556	193.108	203.321	193.261	226.553	258.130	73.977	129.893	249.145	130.197	-9.216	251.145	0.00013109	0.00021307	0.00010126	1145	1.4079e-06	1.2469e-06	1205	237.57	4.1495e-06	2.0156e-06	299.68	83.303	65.449	19.375	3.3887e-06	27.434	0.00010155	0.00011338	3.3323e-05	935.6	1.1381e-06	1.2248e-06	1119.7	222.09	1.0897e-06	1.2754e-06	273.7	77.396	60.495	18.078	1.2561e-06	25.147	253.341	-73.304	9.231	-89.437	122.734	-81.910	-89.153	-82.236	-14.298	19.914	-82.325	-75.749	-75.687	-68.790	79.537	-69.229	-8191	255	
794.926	1	1	0	0	0.064034	0.12969	0.060554	0.0608	0.069973	0.041935	0.094294	0.1828	0.084556	0.15415	0.18299	0.12754	0.075284	0.073899	0.17042	0.21802	-2.75	-2.9208	-3.125	-3.2646	-2.6792	-3.0938	-3.1792	-2.8688	-3.2146	-2.7771	-2.9062	-3.25	-2.6146	-3.0292	-2.9	-2.7292	-44.832	-93.920	147.363	128.689	187.692	186.658	227.680	166.780	62.068	219.535	154.115	-26.405	48.585	-39.733	-87.808	161.642	9.7091e-05	0.00019717	0.00012868	1145	3.7501e-06	7.03e-07	1203.3	238.03	9.8908e-07	2.281e-06	300.06	83.552	65.427	19.246	4.3413e-06	27.451	0.00010136	0.00011616	3.2268e-05	931.17	1.1308e-06	1.2883e-06	1116.6	221.9	1.1176e-06	1.3336e-06	273.24	77.555	60.54	18.067	1.1863e-06	25.118	245.041	-47.027	-42.934	-89.431	53.626	140.223	-89.266	-81.955	58.313	-27.291	-82.500	-75.917	-75.650	-68.809	72.202	-69.071	-8191	255	
795.023	1	1	0	0	0.15682	0.10205	0.10706	0.31063	0.018467	0.044503	0.2853	0.043369	0.13043	0.17554	0.080799	0.13329	0.14669	0.099029	0.16524	0.16521	-2.6958	-2.6875	-2.8187	-3.1625	-2.6521	-3.1188	-3.2125	-2.85	-3.0229	-2.8208	-2.8625	-3.1813	-2.7812	-3.0354	-3.1104	-2.7542	52.764	202.855	57.812	241.529	103.206	30.985	213.853	-18.247	208.843	95.545	-92.353	206.895	29.205	209.256	107.902	143.620	0.00018131	0.0004703	3.9608e-05	1142.7	9.1742e-07	8.3551e-07	1203.6	237.54	2.6974e-06	1.1174e-06	298.94	84.123	65.229	19.4	4.3961e-06	27.293	0.00010532	0.00011979	3.0664e-05	929.41	1.2069e-06	1.3091e-06	1115.9	221.79	1.1824e-06	1.3096e-06	272.47	77.555	60.658	18.091	1.1422e-06	25.012	248.686	-31.683	244.256	-89.905	-1.683	62.940	-89.122	-82.178	-15.244	-15.996	-82.750	-75.959	-75.992	-68.858	88.754	-69.280	-8191	255	
795.119	1	1	0	0	0.13095	0.22696	0.082215	0.20162	0.075357	0.08148	0.090197	0.05806	0.18988	0.13071	0.29447	0.10702	0.25541	0.10431	0.2402	0.26635	-2.6312	-2.9271	-2.7208	-3.3125	-2.7542	-3.0187	-3.1	-2.7375	-3.1479	-2.9333	-2.6583	-3.2771	-2.7104	-2.9167	-3.1229	-2.6604	-7.514	27.688	-43.449	92.001	135.610	-54.454	198.022	-16.272	-99.574	243.252	174.263	-27.313	-99.855	-18.485	-42.880	167.559	0.00012767	0.00015682	9.6215e-06	1142.4	1.3281e-06	3.0844e-06	1205	237.19	1.4128e-06	3.9669e-06	299.86	83	65.415	19.231	2.7571e-06	27.25	0.00011281	0.00011533	2.9684e-05	929.2	1.2644e-06	1.2622e-06	1115.4	221.76	1.2598e-06	1.2266e-06	272.39	77.216	60.681	17.95	1.0997e-06	24.988	-80.197	13.747	-49.906	-89.485	-35.596	43.454	-89.223	-82.167	246.412	37.843	-82.831	-76.028	-75.290	-68.987	54.277	-69.095	-8191	255	
795.215	1	1	0	0	0.094963	0.19596	0.24214	0.014056	0.14013	0.058946	0.22204	0.094918	0.054067	0.12868	0.17566	0.093337	0.073991	0.13508	0.33067	0.22643	-2.6937	-3.0042	-2.6896	-3.05	-2.8208	-2.925	-3.1792	-2.8625	-3.0146	-2.9625	-2.8958	-3.1562	-2.7042	-2.8729	-3.1271	-2.7687	250.821	84.741	13.180	74.976	78.681	111.495	192.684	-54.498	-5.229	196.877	127.352	-58.400	255.768	-65.213	234.683	-60.897	6.2843e-05	0.00026269	7.8744e-05	1140.2	4.3573e-06	1.2159e-06	1199.9	237.27	1.4656e-06	2.1122e-06	299.06	83.242	65.169	19.289	3.1306e-06	27.2	0.00011707	0.00010842	2.8698e-05	926.81	1.3135e-06	1.2058e-06	1112.1	221.46	1.3107e-06	1.1831e-06	271.37	77.394	60.626	17.912	1.0684e-06	25.028	207.578	-7.861	-6.488	-89.407	18.490	48.604	-89.264	-82.081	52.948	74.087	-82.519	-75.964	-75.536	-68.944	-13.485	-68.968	-8191	255	
795.311	1	1	0	0	0.13342	0.15228	0.14837	0.21183	0.23907	0.10228	0.25899	0.15436	0.19473	0.17341	0.27997	0.13982	0.22692	0.11639	0.14279	0.12479	-2.5229	-2.9333	-2.675	-3.1542	-2.9375	-2.8479	-3.2625	-2.8125	-2.9167	-2.9583	-2.6979	-3.2062	-2.9167	-2.6021	-3.1979	-2.4833	150.436	67.711	-65.879	-62.293	169.531	30.505	190.214	23.185	206.122	70.549	118.922	213.383	-97.374	34.092	255.067	-89.888	9.1422e-05	0.00020649	1.2151e-05	1135	2.3338e-06	5.5425e-06	1199.4	236.82	2.2835e-07	2.881e-06	299.24	82.815	65.066	19.158	3.7007e-06	27.141	0.0001204	0.00010459	2.8132e-05	930.03	1.2747e-06	1.1778e-06	1109.7	222.17	1.2928e-06	1.1293e-06	271.3	77.461	60.513	17.885	1.0789e-06	25.133	217.556	-56.297	-58.497	-89.029	51.451	53.131	-89.208	-81.920	205.747	-9.381	-82.488	-75.565	-75.527	-68.978	77.559	-69.247	-8191	255	
795.407	1	1	0	0	0.24691	0.16926	0.12278	0.13207	0.20461	0.15203	0.24825	0.20066	0.16605	0.050699	0.17394	0.17138	0.11377	0.18894	0.15259	0.16577	-2.525	-2.9292	-2.6979	-3.1271	-3.0187	-2.8042	-3.3229	-2.9771	-2.9688	-2.9917	-2.7542	-3.0833	-3.0021	-2.725	-3.1271	-2.8104	219.382	-71.595	-46.165	240.958	-55.514	-0.919	241.747	144.911	43.852	148.005	140.374	111.937	207.287	170.230	174.313	127.850	4.5336e-05	0.00017842	2.8625e-05	1119.8	4.1759e-06	2.2671e-06	1196.3	236.79	1.8984e-06	2.9207e-06	297.91	83.021	65.363	19.218	2.3893e-06	27.236	0.00011756	0.00010247	2.8713e-05	931.88	1.249e-06	1.159e-06	1108.6	221.99	1.2704e-06	1.1118e-06	271	77.663	60.522	17.866	1.1302e-06	25.174	181.626	-31.710	-75.333	-89.266	9.313	92.339	-88.952	-82.113	219.218	102.912	-82.541	-75.574	-75.594	-68.459	82.090	-69.278	-8191	255	
795.528	1	1	0	0	0.12701	0.074909	0.026509	0.13608	0.070021	0.012296	0.38202	0.16636	0.057872	0.10575	0.13104	0.13433	0.087761	0.21682	0.032795	0.28099	-2.3438	-3.1604	-2.6396	-2.9437	-2.95	-2.7167	-3.3812	-3.0062	-2.8875	-3.0896	-2.8479	-3.0812	-3.1042	-2.7188	-3.1063	-2.7375	71.590	194.287	225.739	202.022	-14.857	-6.180	227.270	245.779	66.266	224.685	105.383	125.786	228.327	-44.347	-12.626	187.295	8.1938e-05	0.00028915	7.677e-05	1134.6	1.2722e-06	1.9152e-06	1194.6	237.86	1.8257e-06	1.1508e-06	298.47	83.04	64.83	19.073	2.1097e-06	27.211	0.00011308	9.9978e-05	2.9684e-05	938.03	1.1728e-06	1.1227e-06	1111.2	222.18	1.2093e-06	1.089e-06	272.01	77.512	60.248	17.815	1.214e-06	25.138	-25.810	3.484	76.119	-89.262	-23.020	68.841	-89.088	-82.121	35.040	-50.566	-82.649	-75.688	-75.828	-68.493	45.957	-68.847	-8191	255	
795.622	1	1	0	0	0.074727	0.11919	0.24939	0.2706	0.11224	0.076712	0.088107	0.19165	0.2035	0.42625	0.16039	0.19465	0.22141	0.059046	0.26177	0.12659	-2.5729	-3.3333	-2.6375	-3.0167	-2.9375	-2.6958	-3.3667	-2.825	-2.7521	-3.0083	-2.9271	-2.8896	-2.9646	-2.5125	-3.1917	-2.9437	75.475	15.034	219.525	-21.928	210.473	-39.323	-67.979	77.928	87.376	64.593	13.958	-46.762	116.807	144.201	134.493	206.463	9.4999e-05	0.00026604	8.0431e-05	1135.7	1.1515e-06	4.0008e-06	1194.5	237.9	6.6082e-07	3.291e-06	298.24	82.898	64.955	19.132	8.7825e-07	27.293	0.00010974	9.8323e-05	3.2142e-05	934.18	1.1481e-06	1.1336e-06	1110.4	221.44	1.1961e-06	1.0947e-06	272.19	77.561	60.128	17.821	1.3104e-06	25.08	-94.199	-15.277	131.229	-89.069	139.019	32.364	-88.867	-82.331	-38.301	96.358	-82.776	-75.437	-75.814	-69.021	160.009	-69.460	-8191	255	
795.720	1	1	0	0	0.27699	0.15191	0.020253	0.25413	0.099084	0.33763	0.3281	0.091952	0.27292	0.19768	0.13636	0.0891	0.10485	0.20421	0.31197	0.34371	-2.4458	-3.0458	-2.6229	-2.9417	-2.9854	-2.7875	-3.2708	-3.1354	-2.6542	-3.1792	-2.8833	-2.7896	-3.125	-2.6021	-2.8833	-2.9646	179.925	-6.767	-18.344	224.921	19.532	91.549	-92.075	47.426	234.609	128.032	-43.650	227.848	218.889	190.255	249.885	233.164	7.9556e-05	0.00011521	0.00011374	1137.5	2.5569e-06	1.3246e-06	1193.4	236.74	1.3172e-06	5.0018e-06	298.96	82.986	65.107	19.127	2.0768e-06	26.963	0.00010901	0.00010222	3.3888e-05	934.82	1.1175e-06	1.1733e-06	1112.1	221.01	1.1799e-06	1.1562e-06	273.17	77.361	60.163	17.842	1.3349e-06	24.956	-79.320	-13.335	-1.154	-89.486	40.230	17.365	-89.073	-82.058	-85.992	105.862	-82.510	-75.444	-75.825	-68.946	34.198	-68.820	-8191	255	
795.815	1	1	0	0	0.13963	0.25816	0.12848	0.1191	0.099762	0.19077	0.20604	0.26286	0.045131	0.13503	0.11758	0.25371	0.21495	0.12313	0.24332	0.18494	-2.1479	-3.1479	-2.7771	-2.9646	-3.0812	-2.8292	-2.9396	-3.1708	-2.6729	-3.0771	-2.9896	-2.9146	-3.0604	-2.6792	-2.9271	-2.7771	207.857	124.602	246.635	-72.557	-17.466	121.454	-97.948	252.252	207.963	132.605	109.843	-32.017	250.551	9.282	7.662	124.662	4.5168e-05	0.00027319	0.00010229	1129.4	2.4181e-06	2.5147e-06	1196.2	236.43	9.2407e-07	1.5801e-06	299.64	82.335	65.01	19.216	2.7712e-06	27.247	0.0001077	0.00011014	3.3824e-05	928.96	1.0977e-06	1.2389e-06	1110.6	220.67	1.1517e-06	1.238e-06	272	77.095	60.017	17.937	1.3051e-06	24.916	-5.649	83.856	58.508	-88.934	-31.738	144.759	-89.107	-82.204	217.032	144.197	-82.204	-75.647	-75.472	-69.128	133.410	-69.529	-8191	255	
795.911	1	1	0	0	0.091312	0.0294	0.11791	0.069035	0.20586	0.11546	0.25029	0.063035	0.038275	0.17751	0.059657	0.25463	0.20972	0.11497	0.16727	0.10181	-2.3042	-3.1167	-2.8542	-2.725	-3.2208	-2.5583	-3.0854	-3.3937	-2.5938	-3.0792	-2.7708	-2.8604	-3.0667	-2.7333	-2.9667	-3.25	81.189	195.322	-13.621	85.215	208.870	29.028	198.160	106.797	220.926	207.805	104.247	228.061	222.667	212.162	222.154	169.271	0.00014033	0.0001736	0.00011593	1136.9	2.116e-06	2.3226e-06	1200.7	236.8	2.4765e-06	8.4959e-07	299.32	82.807	64.778	19.154	2.5235e-06	27.202	0.00010469	0.00011511	3.2031e-05	926.69	1.1019e-06	1.3156e-06	1111.5	220.6	1.1647e-06	1.308e-06	271.62	76.996	59.997	17.925	1.258e-06	24.864	230.324	-3.749	-23.531	-89.579	-35.117	186.318	-88.984	-82.047	148.351	94.326	-82.429	-75.627	-75.883	-68.844	121.110	-69.365	-8191	255	
796.007	1	1	0	0	0.18514	0.14736	0.27124	0.11989	0.14508	0.19746	0.30426	0.17551	0.045647	0.34103	0.16864	0.12043	0.094896	0.25259	0.13047	0.25467	-2.3333	-3.0729	-2.7208	-2.7396	-3.1458	-2.9667	-3.0042	-3.1312	-2.7062	-3.0792	-2.9896	-2.6604	-3.1042	-2.7833	-2.75	-3.2042	187.243	145.929	158.855	-55.514	182.210	-84.499	179.638	197.922	230.571	248.702	227.226	35.530	4.540	116.901	5.995	-80.618	0.00017333	0.00015498	0.0001056	1131.8	1.6523e-06	2.7237e-06	1193.5	236.9	2.0994e-06	3.9772e-06	299.39	82.875	64.991	19.007	3.712e-06	27.214	0.0001091	0.0001216	3.0303e-05	924.09	1.1544e-06	1.316e-06	1107.7	220.16	1.2095e-06	1.3237e-06	270.72	76.923	60.152	17.899	1.2058e-06	24.786	-80.073	173.923	-27.157	-89.322	-2.705	102.231	-89.079	-81.907	0.321	-0.961	-82.621	-75.793	-75.920	-68.617	65.031	-69.099	-8191	255	
796.127	1	1	0	0	0.10044	0.23161	0.20158	0.10273	0.12021	0.083756	0.2821	0.11029	0.1227	0.057893	0.17518	0.30357	0.20705	0.41814	0.096761	0.22651	-2.1146	-2.8812	-2.9604	-2.7479	-3.25	-2.8333	-2.9792	-3.2125	-2.6958	-3.1813	-3.0917	-2.7208	-3.2271	-2.9521	-2.7458	-3.2292	230.042	-68.415	199.432	247.738	23.874	211.775	194.813	58.966	103.471	-57.617	178.058	-90.245	-51.787	191.972	-92.157	-99.278	0.00010945	0.00012451	5.2268e-05	1127.5	5.27e-07	4.4027e-06	1188.5	236.28	2.8072e-06	5.3001e-06	298.36	83.293	64.682	19.152	3.9131e-06	27.211	0.00011342	0.00011826	2.8658e-05	921.2	1.2266e-06	1.2781e-06	1105.7	220.08	1.2841e-06	1.2843e-06	270.75	76.98	60.3	17.857	1.161e-06	24.88	-99.025	50.650	10.605	-89.295	106.971	107.145	-89.071	-82.108	-69.307	61.887	-82.798	-76.192	-75.695	-68.600	49.854	-69.267	-8191	255	
796.224	1	1	0	0	0.093935	0.09448	0.21874	0.11771	0.067818	0.11319	0.21888	0.2139	0.13428	0.17559	0.051235	0.18468	0.085113	0.11211	0.1866	0.11588	-2.4542	-3.0187	-3.0312	-2.6271	-2.9979	-2.8625	-2.8854	-3.2271	-2.8104	-2.9417	-3.25	-2.6604	-2.975	-3.0229	-2.7875	-3.0771	-2.151	245.137	-51.412	129.156	136.808	-98.314	167.023	250.420	118.091	-19.918	152.701	227.288	-96.132	24.770	-95.910	168.517	5.5861e-05	0.00010373	5.9684e-05	1128.4	1.9849e-06	1.9974e-06	1197.2	236.11	2.2671e-07	3.3719e-06	298.28	83.103	65.016	19.139	3.8615e-06	27.031	0.00011867	0.00011297	2.7799e-05	922.58	1.2931e-06	1.1861e-06	1106.2	220.63	1.3056e-06	1.1982e-06	270.54	77.142	60.49	17.801	1.1365e-06	24.833	-88.777	226.550	-33.854	-89.195	12.574	63.249	-89.048	-82.173	-40.135	91.569	-82.426	-76.070	-75.858	-68.800	93.267	-69.069	-8191	255	
796.320	1	1	0	0	0.30359	0.10914	0.056225	0.23753	0.1535	0.12809	0.077175	0.1318	0.033899	0.17375	0.30429	0.056816	0.26335	0.10554	0.039449	0.14102	-2.3083	-2.8104	-3.0354	-2.7188	-3.1167	-2.8458	-2.7333	-3.1917	-2.8396	-2.7313	-3.3167	-2.4896	-2.9	-2.9854	-2.6292	-3.0146	235.314	-8.921	33.324	189.964	-94.403	-15.335	169.558	197.495	109.976	166.815	195.113	-6.826	226.211	150.083	-36.820	189.574	5.3637e-05	0.00014348	5.4626e-05	1128.5	1.9607e-06	4.1034e-06	1196.9	235.84	1.9347e-06	4.9938e-06	298.55	83.289	64.615	19.002	2.979e-06	27.124	0.00011838	0.00010653	2.6757e-05	923.73	1.2926e-06	1.1353e-06	1106.4	220.49	1.2842e-06	1.1746e-06	270.11	77.522	60.253	17.776	1.1254e-06	25.013	-51.193	-28.383	-55.771	-89.278	13.816	69.851	-89.070	-82.099	38.087	73.441	-82.380	-75.760	-75.340	-68.679	111.817	-69.043	-8191	255	
796.416	1	1	0	0	0.11435	0.12466	0.11799	0.13378	0.13797	0.058536	0.058918	0.20722	0.21257	0.13266	0.33607	0.12999	0.012147	0.071425	0.29579	0.37889	-2.5458	-2.6875	-3.1896	-2.5958	-2.8812	-3.0083	-2.8688	-3.0062	-2.9646	-2.7021	-3.2479	-2.7792	-2.7375	-3.0146	-2.6167	-3.0438	72.607	247.217	187.667	149.858	234.688	166.226	201.614	179.148	117.464	162.553	-70.275	214.028	-75.523	142.383	-18.163	6.463	4.9777e-05	9.0848e-05	5.5825e-05	1130.4	2.3504e-06	4.8741e-06	1192.5	236.26	2.602e-06	7.6109e-07	298.26	83.053	64.991	19.127	9.0407e-07	27.184	0.00011698	0.00010447	2.6894e-05	929.45	1.256e-06	1.1102e-06	1105.1	221.18	1.2411e-06	1.1546e-06	270.32	77.411	60.418	17.762	1.15e-06	25.148	-62.964	88.649	0.110	-89.360	25.238	34.636	-89.048	-82.362	64.153	76.724	-82.393	-75.658	-75.877	-69.050	203.662	-69.084	-8191	255	
#DATA ENDS
