BOXY.EXE: ISS Imagent and Oximeter Data Acquisition Program Version 0.80
Ascii Record File

#ACQ INFORMATION
2  Detector Channels 
16  External MUX Channels 
1  Auxiliary Channels 
5000  Waveform (CCF) Frequency (Hz)
1  Waveforms Skipped 
30  Waveforms Averaged 
1  Cycles Averaged 
16  Acquisitions per Waveform 
10.0806  Updata Rate (Hz) 

#FILE INFORMATION
TRUE -- External MUX Channel results are PARSED.
FALSE -- AC DC and Phase are NOT grouped.
TRUE -- Companion Program Settings File CREATED.
FALSE -- AC data not excluded
FALSE -- DC data not excluded
FALSE -- Phase data not excluded
FALSE -- Auxillary Chn. data not excluded
Tab delimiters

#CALIBRATION STATE
TRUE -- Waveform Calibration Values APPLIED.


#AUX CALIBRATION VALUES
Val Type	aux-1	

Term	1.0000e+00	
Factor	0.0000e+00	


#WF CALIBRATION VALUES
A = Detector Channel
Val Type	A-AC1	A-AC2	A-AC3	A-AC4	A-AC5	A-AC6	A-AC7	A-AC8	A-AC9	A-AC10	A-AC11	A-AC12	A-AC13	A-AC14	A-AC15	A-AC16	A-DC1	A-DC2	A-DC3	A-DC4	A-DC5	A-DC6	A-DC7	A-DC8	A-DC9	A-DC10	A-DC11	A-DC12	A-DC13	A-DC14	A-DC15	A-DC16	A-Ph1	A-Ph2	A-Ph3	A-Ph4	A-Ph5	A-Ph6	A-Ph7	A-Ph8	A-Ph9	A-Ph10	A-Ph11	A-Ph12	A-Ph13	A-Ph14	A-Ph15	A-Ph16	

Term	0.00000e+00	0.00000e+00	0.00000e+00	0.00000e+00	0.00000e+00	0.00000e+00	0.00000e+00	0.00000e+00	0.00000e+00	0.00000e+00	0.00000e+00	0.00000e+00	0.00000e+00	0.00000e+00	0.00000e+00	0.00000e+00	0.00000e+00	0.00000e+00	0.00000e+00	0.00000e+00	0.00000e+00	0.00000e+00	0.00000e+00	0.00000e+00	0.00000e+00	0.00000e+00	0.00000e+00	0.00000e+00	0.00000e+00	0.00000e+00	0.00000e+00	0.00000e+00	0.00000e+00	0.00000e+00	0.00000e+00	0.00000e+00	0.00000e+00	0.00000e+00	0.00000e+00	0.00000e+00	0.00000e+00	0.00000e+00	0.00000e+00	0.00000e+00	0.00000e+00	0.00000e+00	0.00000e+00	0.00000e+00	
Factor	1.00000e+00	1.00000e+00	1.00000e+00	1.00000e+00	1.00000e+00	1.00000e+00	1.00000e+00	1.00000e+00	1.00000e+00	1.00000e+00	1.00000e+00	1.00000e+00	1.00000e+00	1.00000e+00	1.00000e+00	1.00000e+00	1.00000e+00	1.00000e+00	1.00000e+00	1.00000e+00	1.00000e+00	1.00000e+00	1.00000e+00	1.00000e+00	1.00000e+00	1.00000e+00	1.00000e+00	1.00000e+00	1.00000e+00	1.00000e+00	1.00000e+00	1.00000e+00	X	X	X	X	X	X	X	X	X	X	X	X	X	X	X	X	

B = Detector Channel
Val Type	B-AC1	B-AC2	B-AC3	B-AC4	B-AC5	B-AC6	B-AC7	B-AC8	B-AC9	B-AC10	B-AC11	B-AC12	B-AC13	B-AC14	B-AC15	B-AC16	B-DC1	B-DC2	B-DC3	B-DC4	B-DC5	B-DC6	B-DC7	B-DC8	B-DC9	B-DC10	B-DC11	B-DC12	B-DC13	B-DC14	B-DC15	B-DC16	B-Ph1	B-Ph2	B-Ph3	B-Ph4	B-Ph5	B-Ph6	B-Ph7	B-Ph8	B-Ph9	B-Ph10	B-Ph11	B-Ph12	B-Ph13	B-Ph14	B-Ph15	B-Ph16	

Term	0.00000e+00	0.00000e+00	0.00000e+00	0.00000e+00	0.00000e+00	0.00000e+00	0.00000e+00	0.00000e+00	0.00000e+00	0.00000e+00	0.00000e+00	0.00000e+00	0.00000e+00	0.00000e+00	0.00000e+00	0.00000e+00	0.00000e+00	0.00000e+00	0.00000e+00	0.00000e+00	0.00000e+00	0.00000e+00	0.00000e+00	0.00000e+00	0.00000e+00	0.00000e+00	0.00000e+00	0.00000e+00	0.00000e+00	0.00000e+00	0.00000e+00	0.00000e+00	-8.78341e+01	-1.29763e+02	-1.22348e+02	-1.81483e+02	-4.98279e+01	-6.89854e+01	-1.57126e+02	-1.62015e+02	-5.76591e+01	-6.88165e+01	-1.72009e+02	-1.70235e+02	-1.79413e+02	-1.76982e+02	-6.01312e+01	-1.49920e+02	
Factor	1.77355e-05	1.76987e-04	5.28443e-05	1.54970e-01	1.38419e-06	1.88219e-06	1.81523e-01	6.50010e-02	1.26713e-06	1.82042e-06	8.98908e-02	3.02853e-02	2.99964e-02	9.87595e-03	1.55353e-06	1.42067e-02	1.35357e-05	2.64044e-05	7.43121e-06	7.68445e-02	2.53274e-07	2.97136e-07	8.49333e-02	3.23673e-02	2.62873e-07	2.97535e-07	4.35786e-02	1.47918e-02	1.52274e-02	4.96744e-03	2.72784e-07	6.91996e-03	X	X	X	X	X	X	X	X	X	X	X	X	X	X	X	X	



#DISTANCE SETTINGS
A = Detector Channel
A-1	A-2	A-3	A-4	A-5	A-6	A-7	A-8	A-9	A-10	A-11	A-12	A-13	A-14	A-15	A-16	

2.5000e+00	3.0000e+00	2.5000e+00	3.0000e+00	2.0000e+00	3.0000e+00	1.5000e+00	3.0000e+00	3.0000e+00	3.0000e+00	3.0000e+00	3.0000e+00	3.0000e+00	3.0000e+00	1.5000e+00	3.0000e+00	

B = Detector Channel
B-1	B-2	B-3	B-4	B-5	B-6	B-7	B-8	B-9	B-10	B-11	B-12	B-13	B-14	B-15	B-16	

1.0000e+01	1.0000e+01	1.0000e+01	1.4400e+00	1.0000e+01	1.0000e+01	1.5100e+00	1.9400e+00	1.0000e+01	1.0000e+01	1.9900e+00	2.4900e+00	2.4100e+00	2.9000e+00	1.0000e+01	2.9800e+00	




#DATA BEGINS
time	group	step	mark	flag	A-AC1	A-AC2	A-AC3	A-AC4	A-AC5	A-AC6	A-AC7	A-AC8	A-AC9	A-AC10	A-AC11	A-AC12	A-AC13	A-AC14	A-AC15	A-AC16	A-DC1	A-DC2	A-DC3	A-DC4	A-DC5	A-DC6	A-DC7	A-DC8	A-DC9	A-DC10	A-DC11	A-DC12	A-DC13	A-DC14	A-DC15	A-DC16	A-Ph1	A-Ph2	A-Ph3	A-Ph4	A-Ph5	A-Ph6	A-Ph7	A-Ph8	A-Ph9	A-Ph10	A-Ph11	A-Ph12	A-Ph13	A-Ph14	A-Ph15	A-Ph16	B-AC1	B-AC2	B-AC3	B-AC4	B-AC5	B-AC6	B-AC7	B-AC8	B-AC9	B-AC10	B-AC11	B-AC12	B-AC13	B-AC14	B-AC15	B-AC16	B-DC1	B-DC2	B-DC3	B-DC4	B-DC5	B-DC6	B-DC7	B-DC8	B-DC9	B-DC10	B-DC11	B-DC12	B-DC13	B-DC14	B-DC15	B-DC16	B-Ph1	B-Ph2	B-Ph3	B-Ph4	B-Ph5	B-Ph6	B-Ph7	B-Ph8	B-Ph9	B-Ph10	B-Ph11	B-Ph12	B-Ph13	B-Ph14	B-Ph15	B-Ph16	aux-1	digaux	

34462.141	1	1	0	768	0.28202	0.141	0.16819	0.23237	0.34985	0.11089	0.10403	0.44843	0.12265	0.043554	0.17684	0.37108	0.33918	0.16852	0.043993	0.052843	-1.9625	-2.6813	-2.0208	-2.7479	-2.2833	-2.3854	-2.8167	-2.2417	-2.5375	-2.4875	-2.275	-2.7521	-2.4292	-2.4271	-2.6188	-2.2604	203.864	16.313	201.889	231.623	240.322	9.374	166.605	203.797	170.505	59.348	199.919	190.207	186.663	247.837	273.438	173.223	0.00015301	0.00047206	0.00012859	1388.2	2.2186e-06	3.333e-06	1383.5	373.14	2.4116e-06	2.7052e-06	426.51	140.4	122.93	42.568	3.0387e-06	52.386	0.00047505	0.00063409	0.00017377	1392.7	6.8342e-06	6.9555e-06	1390.3	377.54	6.5943e-06	6.7739e-06	430.88	143.96	125.44	43.333	6.4292e-06	53.498	224.125	0.465	-4.173	-71.730	82.838	71.235	-71.675	-67.245	55.842	61.719	-67.822	-63.175	-62.776	-58.545	92.983	-59.159	-8191	255	
34462.234	1	1	0	0	0.2005	0.15084	0.039908	0.1899	0.28064	0.11674	0.13933	0.22079	0.16226	0.11017	0.31084	0.30826	0.20294	0.32562	0.20842	0.18501	-2.0312	-2.3917	-1.9896	-2.8479	-2.3792	-2.3333	-2.7333	-2.3021	-2.3812	-2.5271	-2.2958	-2.6063	-2.5104	-2.0563	-2.5354	-2.3292	187.033	237.158	-58.400	-66.898	58.452	11.213	253.261	244.925	-52.702	141.496	215.674	164.004	-52.517	-81.762	-74.934	253.001	0.00015347	0.00052764	0.00018243	1383.3	2.729e-06	5.9079e-06	1375.1	371.71	2.6441e-06	5.2484e-06	426.36	141.07	122.59	42.548	3.1067e-06	52.731	0.00046081	0.00062012	0.0001657	1390.5	6.4099e-06	6.3872e-06	1389.5	376.99	6.2169e-06	6.3363e-06	430.55	144.07	125.17	43.29	5.9711e-06	53.546	226.879	3.423	1.433	-71.755	62.906	62.678	-71.641	-67.178	60.347	54.750	-67.720	-63.383	-62.798	-58.500	87.783	-59.030	-8191	255	
34462.332	1	1	0	0	0.10133	0.016856	0.060038	0.23541	0.17938	0.31022	0.29252	0.35081	0.2363	0.14729	0.080343	0.21359	0.039375	0.41074	0.083808	0.040628	-1.8896	-2.5938	-2.1688	-2.6813	-2.4396	-2.2188	-2.9083	-2.3417	-2.2	-2.6167	-2.1562	-2.7354	-2.4271	-2.2125	-2.7229	-2.2062	213.099	18.354	-75.973	-42.534	252.431	105.995	202.785	244.800	230.167	22.413	254.076	58.691	255.848	-56.329	72.946	138.956	0.00014926	0.00054412	9.5468e-05	1384.3	3.3704e-06	5.6051e-06	1376.4	373.53	2.5386e-06	5.7539e-06	425.2	140.48	122.83	42.512	4.1503e-06	52.647	0.00044657	0.00055928	0.00015319	1388.7	6.3155e-06	6.2083e-06	1384.1	377.25	6.0641e-06	6.0635e-06	429.78	144.1	125.41	43.299	5.9342e-06	53.476	220.322	-3.858	2.195	-71.715	82.291	69.158	-71.679	-67.183	92.499	59.128	-67.480	-63.233	-62.891	-58.356	72.561	-59.016	-8191	255	
34462.430	1	1	0	0	0.14405	0.19918	0.10306	0.23304	0.26255	0.45712	0.26475	0.092148	0.17303	0.094571	0.25963	0.24303	0.038669	0.091433	0.11253	0.12146	-1.7479	-2.5896	-2.1354	-2.6333	-2.3646	-2.2562	-2.775	-2.4604	-2.1542	-2.6625	-2.3292	-2.4625	-2.5479	-2.2625	-2.5438	-2.5	105.102	-25.964	46.268	253.777	146.152	86.886	203.567	218.124	205.241	46.932	207.733	150.936	22.688	251.783	49.054	161.785	0.00014355	0.00068111	0.00013399	1383.2	2.1532e-06	3.8135e-06	1376.9	372.61	2.1831e-06	5.541e-06	425.11	140.71	123.02	42.42	2.02e-06	52.477	0.00044338	0.00054371	0.0001539	1388.5	5.9767e-06	6.1006e-06	1386.1	376.86	5.8752e-06	6.0505e-06	429.48	143.88	125.31	43.252	5.741e-06	53.456	225.662	-0.984	29.674	-71.781	110.567	78.810	-71.698	-67.422	52.406	61.708	-67.507	-63.006	-62.639	-58.398	66.305	-58.768	-8191	255	
34462.523	1	1	0	0	0.21027	0.27762	0.046302	0.04931	0.053806	0.16937	0.27056	0.21109	0.067693	0.04774	0.32522	0.2176	0.090847	0.32533	0.1691	0.20125	-1.6292	-2.6396	-2.0854	-2.5438	-2.575	-2.2979	-2.6417	-2.5729	-2.2708	-2.6667	-2.5042	-2.5167	-2.5687	-2.1937	-2.5896	-2.3812	255.879	31.308	200.102	236.578	140.647	2.681	209.299	221.070	217.723	54.197	-59.505	-77.542	115.303	217.935	253.415	243.371	0.000143	0.00032764	0.00016316	1380.7	2.712e-06	5.4962e-06	1374.2	372.53	2.7589e-06	5.7439e-06	426.44	140.94	122.52	42.491	3.325e-06	52.634	0.0004416	0.0005414	0.00015553	1387.4	6.1377e-06	5.8821e-06	1384.7	376.9	6.0636e-06	6.0412e-06	430.33	144.08	125.4	43.24	5.937e-06	53.52	223.606	14.791	12.439	-71.629	67.181	39.494	-71.630	-67.134	59.277	59.815	-67.435	-63.212	-62.758	-58.243	63.848	-58.917	-8191	255	
34462.621	1	1	0	0	0.053125	0.14958	0.25497	0.10747	0.074087	0.24437	0.20607	0.31792	0.16523	0.060984	0.27547	0.090667	0.13945	0.13512	0.11814	0.13989	-1.7313	-2.5187	-2.2375	-2.5833	-2.4396	-2.2083	-2.5312	-2.475	-2.0833	-2.6729	-2.5083	-2.1854	-2.6562	-2.4042	-2.3292	-2.5438	128.080	128.128	186.374	60.685	84.417	33.747	215.215	202.558	187.772	-63.201	236.639	174.075	-56.880	-31.836	199.093	231.880	0.00016518	0.00059537	0.00012016	1386.6	2.4713e-06	2.4382e-06	1382.2	371.83	2.1132e-06	4.4479e-06	427.99	140.63	122.67	42.487	2.9314e-06	52.455	0.00044172	0.00052	0.00015462	1391.9	6.011e-06	5.965e-06	1390.4	376.97	6.0866e-06	5.8298e-06	431.09	143.99	125.42	43.322	5.8308e-06	53.602	225.326	8.861	23.362	-71.730	113.398	34.981	-71.638	-67.077	62.199	74.027	-67.662	-63.138	-62.779	-58.370	72.775	-59.038	-8191	255	
34462.738	1	1	0	0	0.21216	0.26333	0.1847	0.39016	0.1559	0.14723	0.18035	0.26217	0.18606	0.15848	0.12592	0.044135	0.16595	0.23292	0.28277	0.16105	-1.8188	-2.5938	-2.2208	-2.1646	-2.5292	-2.3396	-2.6125	-2.5958	-1.9917	-2.5	-2.2979	-2.3396	-2.7729	-2.1833	-2.5417	-2.4688	266.887	92.216	263.324	223.219	160.417	246.355	219.099	272.276	272.436	188.204	246.520	112.860	205.587	179.737	169.879	-31.892	0.00015362	0.00051312	0.00017489	1385.1	1.9108e-06	3.8747e-06	1377.8	373.83	2.12e-06	5.2067e-06	427.2	140.63	123.01	42.632	3.5686e-06	52.528	0.0004405	0.00053353	0.00015513	1390.9	5.8264e-06	5.8177e-06	1389	377.72	5.7662e-06	5.58e-06	430.75	144.27	125.53	43.392	5.4517e-06	53.539	221.661	4.529	7.921	-71.757	100.172	61.390	-71.780	-67.132	67.416	55.200	-67.581	-63.096	-62.737	-58.204	73.151	-58.813	-8191	255	
34462.836	1	1	0	0	0.38658	0.17491	0.15978	0.23813	0.21609	0.12704	0.13215	0.084328	0.24681	0.049222	0.12209	0.10555	0.22079	0.069186	0.21211	0.072563	-1.8042	-2.425	-2.3083	-2.2167	-2.7021	-2.2083	-2.3958	-2.7104	-2.1375	-2.6542	-2.4917	-2.2646	-2.6354	-2.4062	-2.2458	-2.6708	232.166	219.042	-79.418	222.375	162.275	80.170	131.839	249.959	34.250	55.546	7.212	149.876	242.017	-55.228	216.774	151.347	0.00014114	0.00039514	0.00021745	1383.5	2.7587e-06	5.5495e-06	1379.5	372.25	2.2807e-06	5.6083e-06	427.65	140.97	122.56	42.636	3.148e-06	52.665	0.00041659	0.00048997	0.0001453	1391.1	5.505e-06	5.8753e-06	1388	376.76	5.608e-06	5.668e-06	431.01	143.88	125.28	43.383	5.8194e-06	53.551	225.524	13.928	-10.436	-71.816	96.646	69.254	-71.645	-67.229	89.452	70.962	-67.842	-63.073	-62.942	-58.469	58.568	-59.114	-8191	255	
34462.930	1	1	0	0	0.31229	0.30568	0.13064	0.5453	0.029108	0.12364	0.32225	0.2147	0.26044	0.054756	0.43042	0.183	0.22917	0.30746	0.050694	0.14437	-1.725	-2.4979	-2.3875	-2.3667	-2.5187	-2.3479	-2.4896	-2.6167	-2.3021	-2.4021	-2.6917	-2.1229	-2.4417	-2.4042	-1.975	-2.9	0.419	166.095	73.475	215.381	231.231	39.009	201.213	193.702	161.572	170.541	-73.920	229.994	220.593	-66.233	167.274	-44.797	0.00015505	0.00052914	0.00012272	1385.1	2.5009e-06	5.7275e-06	1381.4	371.45	2.2491e-06	5.1126e-06	426.29	139.86	122.45	42.379	2.2634e-06	52.702	0.00043568	0.00052528	0.00015472	1389.2	5.7155e-06	6.0845e-06	1388	376.48	5.8927e-06	5.9154e-06	430.39	143.76	125.1	43.258	5.9876e-06	53.483	224.079	11.400	4.608	-71.678	79.302	75.101	-71.835	-67.076	63.982	75.929	-67.650	-63.187	-63.040	-58.273	69.238	-58.974	-8191	255	
34463.027	1	1	0	0	0.14339	0.083353	0.13549	0.39719	0.084599	0.17236	0.26233	0.21365	0.27138	0.13875	0.09306	0.13699	0.11342	0.10307	0.24091	0.22517	-1.7604	-2.4396	-2.4	-2.3958	-2.3375	-2.3771	-2.5125	-2.5333	-2.3563	-2.2896	-2.6771	-2.4062	-2.5625	-2.4813	-2.1937	-2.7354	-83.695	-84.462	175.864	268.001	164.737	101.917	158.720	168.051	215.212	-20.825	229.126	234.862	24.252	148.965	71.000	198.374	0.00013949	0.000562	0.00011087	1386.8	1.8593e-06	4.4632e-06	1379.3	371.31	1.3945e-06	5.4396e-06	425.27	140.04	122.04	42.356	5.0968e-06	52.548	0.00044267	0.000537	0.00015567	1389.6	5.9161e-06	6.2324e-06	1387.3	376.21	6.1928e-06	6.0772e-06	429.49	143.75	125.01	43.216	6.0382e-06	53.448	224.905	-9.948	-6.372	-71.700	109.581	54.274	-71.710	-67.209	58.604	59.248	-67.676	-63.137	-62.755	-58.136	52.602	-58.905	-8191	255	
34463.121	1	1	0	0	0.37426	0.19022	0.18424	0.37462	0.28449	0.192	0.2762	0.13108	0.1328	0.097138	0.11835	0.10041	0.20525	0.058335	0.17847	0.052785	-1.7583	-2.2083	-2.4875	-2.125	-2.5687	-2.3125	-2.4688	-2.7625	-2.2354	-2.2833	-2.5729	-2.3146	-2.5042	-2.5417	-2.225	-2.6958	3.989	88.530	121.667	250.230	-42.584	95.446	225.247	166.119	269.152	231.737	207.685	228.162	12.840	6.173	-39.796	270.001	0.00013235	0.000678	0.00014966	1380.8	2.0109e-06	5.2997e-06	1371.2	372.07	2.1719e-06	5.4084e-06	423.81	140	122.08	42.301	4.1965e-06	52.679	0.0004482	0.00054234	0.00015172	1386	5.905e-06	6.264e-06	1383.9	376.14	5.9683e-06	6.0276e-06	429.02	143.59	124.92	43.216	5.8069e-06	53.465	227.499	4.286	23.715	-71.726	96.982	64.349	-71.723	-67.028	29.380	68.855	-67.561	-63.222	-62.773	-58.070	56.735	-58.746	-8191	255	
34463.219	1	1	0	0	0.20582	0.14716	0.10851	0.40598	0.14427	0.15733	0.085378	0.10272	0.25396	0.048119	0.083915	0.19406	0.061885	0.23999	0.061697	0.21988	-1.8208	-2.3438	-2.5583	-2.4188	-2.5458	-2.3688	-2.2708	-2.7792	-2.4542	-2.1896	-2.575	-2.3271	-2.4729	-2.4333	-2.0938	-2.5292	129.368	-58.589	131.926	253.286	-32.123	-84.116	118.899	196.293	101.665	-59.394	25.148	207.915	12.841	15.272	120.491	-14.310	0.00015278	0.00059821	0.00015668	1384.9	2.0252e-06	3.2721e-06	1370.7	369.73	1.1229e-06	6.1719e-06	423.94	140.82	122.29	42.367	3.0529e-06	52.61	0.00044597	0.00053645	0.00014296	1387.8	5.9303e-06	5.9681e-06	1384	375.67	5.8905e-06	6.0362e-06	428.87	143.73	124.99	43.135	5.7546e-06	53.499	227.046	-3.770	13.479	-71.802	92.581	78.139	-71.726	-67.060	116.633	60.745	-67.701	-63.168	-62.507	-58.407	68.710	-58.741	-8191	255	
34463.316	1	1	0	0	0.063731	0.074099	0.13577	0.20953	0.25067	0.071802	0.23746	0.11398	0.19683	0.19387	0.043928	0.29267	0.13703	0.40779	0.27956	0.15986	-2.0729	-2.3583	-2.6417	-2.5229	-2.4479	-2.6083	-2.3208	-2.5479	-2.3271	-2.2417	-2.5521	-2.3104	-2.3917	-2.475	-2.1479	-2.625	106.543	231.209	153.154	248.422	-45.412	54.116	241.984	272.109	78.617	267.261	212.155	-28.329	-51.677	271.192	127.913	261.598	0.00015913	0.00048126	0.00016841	1382.5	2.7771e-06	2.6876e-06	1373.9	371.28	2.0588e-06	4.5687e-06	424.15	139.95	121.85	42.361	2.8872e-06	52.742	0.00044098	0.00053524	0.00014585	1389.5	5.7884e-06	5.7162e-06	1385.8	375.61	5.8484e-06	5.8763e-06	428.39	143.46	124.92	43.149	5.7648e-06	53.507	229.413	-8.175	14.454	-71.822	82.182	30.717	-71.827	-67.067	61.732	73.179	-67.728	-63.125	-62.592	-58.531	84.137	-58.777	-8191	255	
34463.438	1	1	0	0	0.37484	0.22475	0.13802	0.3831	0.13564	0.056952	0.36393	0.20845	0.25461	0.1387	0.15984	0.12993	0.19495	0.090541	0.19099	0.34784	-1.9229	-2.1458	-2.5312	-2.2708	-2.3833	-2.7958	-2.1646	-2.5854	-2.4354	-2.1729	-2.6646	-2.4604	-2.4521	-2.6792	-2.1354	-2.6729	50.296	175.156	160.578	229.350	138.081	45.262	205.427	212.703	-50.297	-80.859	226.085	31.813	-74.078	94.419	48.057	268.326	0.00014821	0.00045401	0.00014347	1385.7	1.7254e-06	5.9803e-06	1375.1	369.59	1.831e-06	3.3171e-06	425.07	140.18	121.66	42.12	2.9006e-06	52.558	0.00044437	0.00051714	0.0001417	1388.8	5.7171e-06	5.6821e-06	1385	374.81	5.8024e-06	5.8639e-06	428.75	143.47	124.51	43.142	5.8194e-06	53.412	227.473	8.885	7.940	-71.748	97.367	76.596	-71.719	-67.029	76.346	62.371	-67.755	-63.032	-62.791	-58.204	95.887	-58.925	-8191	255	
34463.531	1	1	0	0	0.15594	0.087341	0.14632	0.33121	0.16444	0.11047	0.41563	0.080924	0.32797	0.11964	0.11632	0.20829	0.10899	0.27468	0.131	0.10371	-2.0333	-2.3125	-2.3875	-2.6583	-2.3333	-2.6312	-2.3083	-2.6271	-2.4396	-2.1542	-2.7062	-2.1771	-2.2771	-2.7771	-2	-2.5083	173.349	211.117	217.916	-62.222	50.186	-3.630	199.450	260.418	-9.829	-32.492	211.277	204.987	27.639	253.426	193.368	189.307	0.00015001	0.00043482	0.00013118	1381.4	2.339e-06	4.6732e-06	1372.4	370.68	1.5154e-06	4.6911e-06	425.03	139.96	121.93	42.418	3.5231e-06	52.658	0.00044251	0.00052864	0.00014353	1387.9	5.7752e-06	5.7075e-06	1384	375.02	5.7147e-06	5.7288e-06	428.67	143.47	124.77	43.205	5.9598e-06	53.509	226.091	-10.087	12.756	-71.797	81.492	47.265	-71.810	-67.124	78.169	64.199	-67.629	-63.230	-62.500	-58.426	83.226	-58.944	-8191	255	
34463.629	1	1	0	0	0.10971	0.091436	0.096541	0.22795	0.089485	0.071552	0.17373	0.25622	0.30112	0.20121	0.13588	0.14612	0.20926	0.077202	0.19043	0.084293	-2.0833	-2.025	-2.4604	-2.4562	-2.1458	-2.6813	-2.5208	-2.4188	-2.4938	-1.9646	-2.6083	-2.5708	-2.3	-2.6208	-2.1458	-2.3875	-37.209	250.605	229.342	239.687	-80.559	152.840	205.635	238.396	-36.373	-28.938	242.697	240.927	245.217	-69.078	95.620	185.373	0.00013445	0.00048811	0.00014914	1380.9	3.105e-06	5.8583e-06	1375.1	370.54	2.1915e-06	3.4782e-06	423.82	139.9	121.73	42.379	3.9169e-06	52.592	0.0004308	0.00053144	0.00014903	1388.1	5.9467e-06	5.7069e-06	1386.1	375.21	5.8336e-06	5.8937e-06	428.2	143.46	124.47	43.23	5.8995e-06	53.461	224.625	2.551	3.070	-71.684	74.958	65.431	-71.719	-67.206	80.753	63.264	-67.641	-63.267	-62.549	-58.347	70.681	-58.825	-8191	255	
34463.699	1	1	0	0	0.22845	0.097898	0.10894	0.50891	0.13449	0.029064	0.085839	0.2825	0.091867	0.24073	0.39407	0.15544	0.084513	0.19525	0.12191	0.16037	-2.1063	-2.1521	-2.4458	-2.5729	-2.1521	-2.5458	-2.5271	-2.4708	-2.5792	-2.2354	-2.5542	-2.4813	-2.2438	-2.575	-2.4	-2.4167	-23.486	-8.905	-52.955	226.498	-17.757	20.307	-14.422	191.703	214.049	224.336	251.597	175.808	-42.591	153.541	-22.662	93.861	0.00014668	0.00042006	0.00019535	1381	3.8548e-06	6.5017e-06	1374.3	370.11	2.0079e-06	4.0457e-06	423.04	140.57	122.52	42.308	3.4376e-06	52.663	0.00043024	0.00055785	0.00014814	1387.6	5.8517e-06	5.8034e-06	1385.5	375.63	5.8166e-06	5.8937e-06	428.17	143.49	124.87	43.208	5.874e-06	53.478	226.728	-1.482	20.595	-71.566	87.046	67.493	-71.687	-67.127	66.501	45.740	-67.560	-63.300	-62.696	-58.250	64.606	-59.003	-8191	255	
34463.820	1	1	0	0	0.10327	0.17676	0.19756	0.37497	0.1458	0.25046	0.52796	0.065681	0.095837	0.33325	0.067109	0.088484	0.21275	0.15274	0.30442	0.41762	-2.2229	-2.1792	-2.4896	-2.6	-2.2146	-2.7083	-2.5271	-2.3021	-2.5271	-2.2708	-2.7417	-2.6083	-2.2583	-2.6104	-2.3292	-2.2042	-18.266	122.927	178.278	216.772	-59.021	197.543	211.729	222.436	228.990	12.881	202.261	240.358	-53.456	-35.660	10.254	242.407	0.00014779	0.00046471	7.7606e-05	1385.6	2.5051e-06	4.7671e-06	1380.2	371.24	2.1511e-06	5.3475e-06	425.35	140.62	122.62	42.477	3.261e-06	52.694	0.00043376	0.00052336	0.0001491	1389.9	5.8527e-06	5.7589e-06	1387.7	375.59	5.8276e-06	5.8819e-06	429.46	143.78	124.98	43.358	6.0569e-06	53.516	228.998	14.218	-11.903	-71.836	84.378	62.594	-71.792	-67.078	77.464	55.448	-67.623	-63.243	-62.810	-58.421	67.865	-58.882	-8191	255	
34463.914	1	1	0	0	0.044461	0.14989	0.17397	0.23906	0.20912	0.072333	0.2733	0.12765	0.15326	0.30947	0.071218	0.080863	0.28895	0.2596	0.23815	0.22881	-2.1979	-2.2438	-2.2479	-2.4771	-2.0646	-2.4021	-2.4396	-2.2583	-2.6208	-2.3063	-2.2875	-2.5979	-2.1437	-2.4333	-2.3875	-2.1917	91.537	19.606	96.474	-73.377	40.803	232.731	196.418	220.899	8.696	82.617	207.379	-41.337	-5.633	266.091	236.750	16.918	0.00015094	0.00034388	0.00016898	1383.4	2.6836e-06	6.1568e-06	1380	372.71	1.8475e-06	5.9096e-06	426.21	139.94	122.31	42.372	2.9902e-06	52.59	0.00043658	0.00054668	0.00014773	1389.7	5.8264e-06	5.9724e-06	1387	376.55	5.7032e-06	6.0077e-06	429.61	143.53	125.08	43.28	5.7296e-06	53.556	223.302	6.533	17.447	-71.719	104.573	71.007	-71.770	-67.138	69.690	84.238	-67.608	-63.123	-63.067	-58.373	53.546	-58.714	-8191	255	
34464.012	1	1	0	0	0.19176	0.22901	0.21941	0.3498	0.073995	0.18655	0.19607	0.20501	0.068039	0.2259	0.11829	0.26047	0.088497	0.15903	0.2535	0.25331	-2.0479	-2.2229	-2.2208	-2.7812	-2.0417	-2.4521	-2.6021	-2.2354	-2.5375	-2.4333	-2.4583	-2.55	-2.4229	-2.4979	-2.4792	-2.0938	70.130	210.171	110.716	235.396	269.663	1.235	239.931	239.245	255.323	85.812	-69.938	209.413	42.529	235.672	-36.621	168.230	0.00014752	0.00067747	0.00015611	1385.4	2.4435e-06	4.4652e-06	1379	372.79	2.1585e-06	3.7432e-06	426.63	140.42	122.47	42.716	3.5024e-06	52.763	0.0004286	0.00055064	0.00014929	1390.9	5.7979e-06	5.7805e-06	1387.3	376.36	5.7054e-06	6.0015e-06	429.66	143.94	125.09	43.396	5.8711e-06	53.604	228.975	6.000	13.801	-71.796	107.573	72.831	-71.790	-67.072	109.409	74.647	-67.810	-63.005	-62.608	-58.259	84.756	-59.128	-8191	255	
34464.133	1	1	0	0	0.16232	0.11358	0.16053	0.29348	0.17652	0.17504	0.14156	0.19316	0.056053	0.16184	0.18483	0.093635	0.13798	0.12761	0.037367	0.075333	-1.9896	-2.325	-2.0563	-2.7604	-2.1354	-2.4667	-2.7042	-2.3292	-2.5792	-2.1521	-2.3208	-2.9458	-2.3646	-2.4771	-2.6	-2.2583	210.454	-40.675	70.469	-77.868	106.794	251.990	270.174	228.268	209.516	12.696	223.793	96.332	62.208	242.115	94.157	80.575	0.0001429	0.00054798	0.00016774	1384.6	3.369e-06	3.8153e-06	1377.3	372.07	2.5085e-06	5.2306e-06	425.9	140.79	122.91	42.925	2.433e-06	52.801	0.00043478	0.00053678	0.00015037	1389.2	5.9482e-06	5.8158e-06	1388.2	376.96	6.0181e-06	6.0164e-06	429.98	144.25	125.49	43.497	5.8694e-06	53.693	228.542	-6.572	18.769	-71.818	90.249	81.169	-71.834	-67.187	25.198	75.206	-67.781	-63.192	-62.819	-58.374	80.651	-58.859	-8191	255	
34464.227	1	1	0	0	0.13228	0.09258	0.26112	0.11004	0.024266	0.18374	0.24764	0.22672	0.11899	0.32495	0.19376	0.17792	0.13767	0.092916	0.19045	0.16325	-2.1063	-2.4333	-2.1417	-2.8521	-2.3417	-2.3833	-2.825	-2.2854	-2.2083	-2.3458	-2.2271	-2.5333	-2.3937	-2.2938	-2.5104	-2.2625	-54.513	131.481	160.456	229.187	156.108	-42.178	172.075	266.050	-1.449	-39.757	188.738	196.967	111.207	153.147	76.961	-60.612	0.00015039	0.00047235	0.00010697	1386.5	1.7089e-06	5.5806e-06	1378	371.81	1.8928e-06	3.5763e-06	424.18	141.04	123.07	42.573	3.9764e-06	52.776	0.00043351	0.00055801	0.00014666	1390.5	6.0722e-06	6.0455e-06	1388.1	377.07	6.0466e-06	6.1181e-06	429.33	144.21	125.57	43.439	5.9649e-06	53.753	223.431	1.293	21.384	-71.808	99.528	62.481	-71.554	-67.107	72.824	48.971	-67.683	-63.033	-62.869	-58.097	70.369	-59.020	-8191	255	
34464.301	1	1	0	0	0.10484	0.24532	0.12923	0.3573	0.066953	0.2201	0.12701	0.25218	0.28685	0.063107	0.082608	0.1254	0.097145	0.24104	0.10559	0.28181	-2.1188	-2.4771	-2.0062	-2.7333	-2.4125	-2.3125	-2.8854	-2.35	-2.4396	-2.3125	-2.2313	-2.5292	-2.3729	-2.2521	-2.5208	-2.1604	-34.142	252.718	175.818	206.651	121.077	-46.582	149.461	270.301	120.980	111.805	-50.323	92.679	42.904	-84.097	181.034	232.162	0.00015117	0.0004843	0.00018597	1381.3	2.645e-06	5.5844e-06	1375.2	372.5	2.9738e-06	5.9382e-06	426.43	140.21	122.48	42.556	3.0147e-06	52.795	0.00044191	0.00055658	0.00015686	1389.3	6.2311e-06	6.321e-06	1388.2	377.27	6.131e-06	6.2234e-06	430.24	144.11	125.49	43.43	6.041e-06	53.799	226.451	-4.114	15.576	-71.756	90.822	57.900	-71.797	-67.197	27.758	60.108	-67.832	-63.157	-62.973	-58.367	75.081	-58.894	-8191	255	
34464.422	1	1	0	0	0.081501	0.17452	0.22163	0.055341	0.39462	0.13834	0.1494	0.35152	0.27656	0.12601	0.028521	0.13643	0.25449	0.08197	0.046727	0.21951	-1.9583	-2.4396	-2.2021	-2.4875	-2.4125	-2.2604	-2.7375	-2.4167	-2.3396	-2.4062	-2.3021	-2.5667	-2.4042	-2.3417	-2.4854	-2.3187	157.365	-39.866	81.103	233.409	257.606	96.690	80.421	233.421	70.489	163.984	234.530	240.403	211.282	-56.429	10.643	73.000	0.0001414	0.00043058	0.00013611	1384.9	2.829e-06	5.4544e-06	1373.7	372.68	1.8791e-06	4.4532e-06	425.01	140.54	122.32	42.733	2.0786e-06	52.686	0.00043467	0.00054195	0.00016225	1391.2	6.1836e-06	6.139e-06	1387.3	377.48	6.0976e-06	6.0053e-06	430.58	144.1	125.3	43.524	6.1297e-06	53.829	221.758	15.529	12.554	-71.781	96.153	48.639	-71.665	-67.064	44.131	66.801	-67.509	-62.991	-62.853	-58.285	88.276	-58.945	-8191	255	
34464.516	1	1	0	0	0.1868	0.27631	0.18067	0.12152	0.26107	0.16137	0.11942	0.19351	0.10264	0.062087	0.10549	0.30049	0.49161	0.32705	0.099706	0.18926	-1.7271	-2.4917	-2	-2.6562	-2.5396	-2.1437	-2.7521	-2.3833	-2.2729	-2.4542	-2.4708	-2.5667	-2.5875	-2.2042	-2.4021	-2.2562	245.976	-80.875	4.919	212.737	78.112	230.307	263.168	213.494	60.611	215.072	62.606	199.275	268.674	186.133	100.948	-79.061	0.00014463	0.00043284	0.00012312	1385.9	2.6404e-06	6.0029e-06	1378.6	371.94	2.1664e-06	4.1722e-06	425.66	140.73	122.76	42.637	2.196e-06	52.866	0.00044146	0.00055345	0.00015855	1391.6	6.1139e-06	6.3148e-06	1388.4	377.46	6.0943e-06	6.0747e-06	430.79	144.12	125.43	43.511	6.0166e-06	53.726	224.675	16.710	13.934	-71.749	80.434	56.651	-71.740	-67.169	90.847	63.549	-67.805	-63.087	-62.750	-58.347	54.587	-59.123	-8191	255	
34464.609	1	1	0	0	0.080027	0.049795	0.05338	0.24645	0.13014	0.20493	0.08873	0.3585	0.032742	0.1024	0.14924	0.10471	0.23853	0.056984	0.23323	0.17187	-1.8208	-2.6208	-2.1813	-2.6021	-2.3563	-2.2188	-2.7062	-2.4437	-2.1167	-2.4458	-2.3812	-2.4792	-2.5792	-2.2792	-2.5521	-2.4479	61.427	2.447	183.374	274.978	59.678	27.386	34.140	267.796	-1.772	-62.847	245.750	-50.560	273.271	212.300	68.214	44.901	0.00015765	0.00050579	0.00016851	1384.3	2.9208e-06	3.5987e-06	1376	372.54	2.7116e-06	6.9236e-06	427.64	140.46	122.85	42.817	4.3613e-06	52.697	0.00044101	0.00056814	0.00016776	1389.8	6.1672e-06	6.3154e-06	1387.4	378.03	6.4376e-06	6.2972e-06	431	143.97	125.62	43.532	6.4434e-06	53.84	231.620	10.339	15.718	-71.848	94.396	62.305	-71.780	-67.025	74.986	58.673	-67.437	-63.394	-62.685	-58.287	79.571	-59.104	-8191	255	
34464.730	1	1	0	0	0.19624	0.23713	0.25834	0.32728	0.31878	0.18359	0.08563	0.076225	0.13275	0.12809	0.20175	0.18083	0.14553	0.1693	0.035275	0.23039	-1.6792	-2.4792	-2.1792	-2.4167	-2.4062	-2.2792	-2.7479	-2.4042	-2.1958	-2.6625	-2.2812	-2.4104	-2.7021	-2.2833	-2.4292	-2.3896	-38.987	81.180	237.648	252.815	229.103	86.844	208.602	178.880	274.282	-84.310	-74.483	245.361	-12.754	228.133	216.964	-57.370	0.00014735	0.00053796	0.00017395	1384	4.1787e-06	4.0616e-06	1375	373.46	1.9933e-06	3.4633e-06	427.4	141.01	122.54	42.649	3.1755e-06	52.855	0.00045587	0.00059305	0.00016657	1390.2	6.2886e-06	6.4949e-06	1388.1	378.49	6.6173e-06	6.5737e-06	430.62	144.39	125.62	43.619	6.3331e-06	53.905	226.551	7.265	29.100	-71.841	103.367	63.897	-71.651	-67.335	60.499	68.233	-67.641	-63.274	-62.723	-58.315	78.715	-58.931	-8191	255	
34464.828	1	1	0	0	0.14961	0.28184	0.194	0.2775	0.33787	0.058508	0.25067	0.25713	0.088462	0.064173	0.2206	0.097801	0.13689	0.32529	0.41842	0.15451	-1.6604	-2.5125	-2.1167	-2.5542	-2.4125	-2.2	-2.7021	-2.5104	-2.1083	-2.6792	-2.4833	-2.3125	-2.5979	-2.2687	-2.4479	-2.55	30.849	-51.592	244.015	224.278	260.197	128.347	153.915	257.783	224.675	151.350	225.379	169.308	239.493	210.919	-79.591	123.184	0.00015634	0.00058008	0.00014386	1385	1.5847e-06	4.2036e-06	1382.1	374.02	2.5182e-06	4.4631e-06	428.42	140.89	123.32	42.766	2.2563e-06	53.127	0.00047065	0.00058678	0.0001688	1391.4	6.3962e-06	6.628e-06	1389.7	378.65	6.3785e-06	6.6388e-06	431.57	144.35	125.92	43.614	6.4133e-06	53.901	221.317	11.608	20.219	-71.697	80.273	57.652	-71.697	-67.236	44.254	80.358	-67.742	-63.039	-62.664	-58.415	83.622	-58.993	-8191	255	
34464.926	1	1	0	0	0.16768	0.149	0.25001	0.42797	0.20862	0.1779	0.29039	0.25513	0.2364	0.1387	0.11919	0.24962	0.096384	0.23201	0.13049	0.16146	-1.5958	-2.475	-2.2812	-2.4	-2.3937	-2.1188	-2.575	-2.8104	-2.0938	-2.575	-2.4958	-2.3896	-2.7	-2.2625	-2.2396	-2.4896	261.395	160.485	241.137	-76.002	268.291	45.916	173.545	250.684	235.481	-55.455	227.089	200.937	-48.245	264.250	204.303	113.256	0.00015956	0.00042781	0.00016712	1385.6	3.083e-06	3.7359e-06	1380.1	373.06	2.6422e-06	6.619e-06	427.98	141.06	122.92	42.655	3.2022e-06	52.638	0.00047451	0.00059129	0.0001737	1393	6.44e-06	6.8156e-06	1389.4	378.56	6.7701e-06	6.6443e-06	431.5	144.4	125.69	43.537	6.428e-06	53.831	224.870	-4.463	8.355	-71.805	100.772	80.489	-71.867	-67.324	57.825	58.305	-67.787	-63.309	-62.901	-58.223	82.333	-58.952	-8191	255	
34464.996	1	1	0	0	0.12474	0.062186	0.29609	0.15274	0.16607	0.27585	0.16301	0.090283	0.14604	0.252	0.067305	0.33037	0.12196	0.33422	0.29765	0.05026	-1.8083	-2.4562	-2.3167	-2.5167	-2.4708	-2.3812	-2.4125	-2.6604	-2.2062	-2.4521	-2.5187	-2.2792	-2.6521	-2.475	-2.1854	-2.5604	120.812	-47.391	-53.931	226.796	-76.415	134.782	194.541	-8.576	161.516	115.700	253.153	247.777	272.292	-67.059	264.976	162.092	0.00015064	0.00058508	0.00017523	1388.7	2.9142e-06	4.6114e-06	1379.2	373.43	1.8917e-06	5.484e-06	427.18	141.25	123.02	42.998	2.0707e-06	52.874	0.00047465	0.0005859	0.00016666	1393.1	6.4136e-06	6.615e-06	1389.4	378.16	6.6364e-06	6.2278e-06	431.25	144.47	125.89	43.663	6.3007e-06	53.902	226.740	0.908	9.366	-71.916	59.526	61.985	-71.855	-67.069	75.687	68.508	-67.746	-63.214	-62.773	-58.484	100.273	-58.989	-8191	255	
34465.117	1	1	0	0	0.23733	0.099709	0.13376	0.20443	0.077455	0.1628	0.1982	0.098601	0.31971	0.11634	0.3339	0.24607	0.1066	0.10316	0.35723	0.18777	-1.7313	-2.3646	-2.25	-2.2417	-2.7188	-2.4208	-2.3417	-2.6583	-2.1667	-2.3312	-2.5667	-2.3083	-2.5458	-2.3417	-2.2229	-2.6188	-71.552	265.951	263.567	240.945	116.049	-3.598	248.547	-71.604	161.043	159.387	253.247	242.127	258.667	16.866	47.087	204.711	0.00014823	0.00041156	0.00016893	1385.7	2.7432e-06	6.4053e-06	1382.3	374.02	3.0262e-06	5.5046e-06	426.86	141.05	123	42.786	4.3373e-06	52.829	0.00047434	0.00059756	0.00016389	1391.3	6.2859e-06	6.4955e-06	1389.3	378.52	6.6364e-06	6.3741e-06	430.95	144.23	125.59	43.556	6.2092e-06	53.825	230.277	-3.209	15.578	-71.801	86.494	59.353	-71.809	-67.267	58.096	60.269	-67.788	-63.121	-62.834	-58.331	61.089	-58.932	-8191	255	
34465.211	1	1	0	0	0.21487	0.16806	0.36163	0.22041	0.29772	0.098218	0.36883	0.29237	0.20823	0.19778	0.11885	0.30818	0.23472	0.2336	0.11102	0.057935	-1.6938	-2.3125	-2.5375	-2.175	-2.3937	-2.4125	-2.3063	-2.7396	-2.2375	-2.2458	-2.6417	-2.2583	-2.4167	-2.5292	-2.0479	-2.5104	104.166	141.708	78.530	202.829	125.480	24.889	191.461	192.698	152.262	-26.971	265.859	254.207	271.645	28.458	179.850	172.574	0.00016651	0.0004427	0.00016541	1380.8	2.2483e-06	4.7413e-06	1374.7	372.29	2.1959e-06	4.4754e-06	427.69	140.97	123.14	42.702	2.4927e-06	53.038	0.00045302	0.00057897	0.00016007	1388.9	6.1677e-06	6.1947e-06	1387.1	378.22	6.6047e-06	6.3685e-06	430.89	144.39	125.71	43.595	6.3956e-06	53.911	227.227	6.670	-6.727	-71.744	76.533	62.796	-71.799	-67.203	66.312	72.554	-67.976	-63.155	-62.793	-58.086	67.394	-59.014	-8191	255	
34465.309	1	1	0	0	0.16918	0.18568	0.069163	0.3416	0.12506	0.044765	0.12846	0.22808	0.13481	0.13452	0.35866	0.34229	0.18988	0.15266	0.14526	0.23053	-1.8104	-2.2646	-2.5854	-2.3583	-2.3688	-2.5208	-2.325	-2.7271	-2.1354	-2.5	-2.6437	-2.0646	-2.5479	-2.6063	-2.1833	-2.7083	147.889	161.589	271.080	225.746	137.821	112.839	196.634	225.453	-36.700	227.274	247.389	230.986	203.665	97.039	172.241	183.203	0.00014576	0.00051841	0.00012919	1382.6	3.3985e-06	5.6716e-06	1381	372.36	9.3695e-07	5.3988e-06	425.4	140.53	123.59	42.889	3.5977e-06	52.709	0.00047178	0.00057848	0.00016617	1388.3	6.2379e-06	6.4064e-06	1388.2	377.92	6.4355e-06	6.2557e-06	431.39	144.27	125.97	43.577	6.3951e-06	53.863	227.785	9.049	7.085	-71.668	68.671	41.748	-71.749	-67.293	96.536	65.508	-67.753	-63.016	-62.677	-58.217	102.791	-58.942	-8191	255	
34465.406	1	1	0	0	0.10302	0.36067	0.090429	0.14804	0.21847	0.10803	0.1925	0.26454	0.16894	0.15394	0.21382	0.28961	0.30548	0.25116	0.20194	0.19264	-1.8042	-2.375	-2.2958	-2.4104	-2.5104	-2.3417	-2.4875	-2.625	-2.3729	-2.2146	-2.9	-2.2729	-2.3104	-2.6729	-2.0958	-2.6312	-54.295	127.043	4.953	263.236	-71.484	213.793	-85.089	-24.018	165.618	1.291	253.537	213.140	-65.313	68.929	10.276	-46.195	0.00015768	0.00068625	0.0001529	1381.9	2.7854e-06	5.1981e-06	1375.5	372.03	1.1058e-06	4.5853e-06	427.17	140.47	123.04	42.739	3.9172e-06	53.028	0.00045446	0.0005837	0.00016228	1387.8	6.0833e-06	6.2485e-06	1385.9	377.79	6.384e-06	6.3158e-06	430.91	144.4	125.83	43.593	6.1877e-06	53.958	228.613	5.030	17.996	-71.797	70.891	58.396	-71.730	-67.357	34.000	61.766	-67.662	-63.073	-62.966	-58.619	71.256	-58.960	-8191	255	
34465.523	1	1	0	0	0.061932	0.18023	0.25657	0.24861	0.39432	0.1753	0.26078	0.36252	0.054903	0.14992	0.15756	0.2181	0.10111	0.25021	0.20398	0.10317	-1.9146	-1.9896	-2.4938	-2.425	-2.2521	-2.5833	-2.4188	-2.5104	-2.3271	-2.2188	-2.4854	-2.4125	-2.2812	-2.6854	-2.25	-2.5583	-13.980	224.248	200.725	244.369	72.458	176.846	-14.606	196.336	-64.463	219.746	95.055	220.584	238.691	119.819	-74.040	-31.298	0.00017675	0.0005176	0.00013077	1383.1	1.9135e-06	5.7195e-06	1379.5	373.5	2.4941e-06	4.6762e-06	426.85	141.42	122.76	42.826	3.9245e-06	52.897	0.00045198	0.00057771	0.00015669	1389.1	6.0886e-06	6.3531e-06	1388.5	378.28	6.2339e-06	6.4751e-06	430.73	144.61	125.65	43.607	6.2291e-06	53.887	223.849	21.802	30.841	-71.970	109.125	69.847	-71.706	-67.188	50.402	65.556	-67.917	-63.421	-62.643	-58.331	79.076	-58.938	-8191	255	
34465.598	1	1	0	0	0.17152	0.22112	0.22094	0.078049	0.24739	0.031436	0.20535	0.062038	0.3478	0.20144	0.12027	0.11914	0.15507	0.1367	0.15452	0.37243	-1.9292	-2.075	-2.5083	-2.5792	-2.1854	-2.7167	-2.1875	-2.4313	-2.2479	-2.1042	-2.8104	-2.3729	-2.4062	-2.5708	-2.1146	-2.3729	145.285	173.423	133.349	210.741	135.437	134.731	182.333	218.646	227.908	150.359	133.362	-76.553	201.398	199.291	-44.681	88.062	0.00015921	0.00047264	0.00012319	1383.4	3.5228e-06	4.3007e-06	1376.3	372.67	2.9398e-06	4.904e-06	425.49	140.85	122.96	42.726	3.1455e-06	52.86	0.00044578	0.00056098	0.00015146	1388.6	5.9894e-06	5.8301e-06	1386.1	377.58	6.0515e-06	6.0834e-06	429.71	144.19	125.62	43.477	6.0865e-06	53.732	221.509	2.802	6.970	-71.840	94.578	57.547	-71.654	-67.172	58.825	64.994	-67.596	-63.130	-62.743	-58.325	71.383	-59.011	-8191	255	
34465.691	1	1	0	0	0.16235	0.14624	0.075753	0.33702	0.10132	0.18034	0.48926	0.26177	0.074343	0.10236	0.27701	0.21777	0.20649	0.2428	0.18294	0.01175	-2.0479	-2.2375	-2.4229	-2.5062	-2.1188	-2.6125	-2.2896	-2.4375	-2.3937	-2.0792	-2.5479	-2.4208	-2.3667	-2.5458	-2.0521	-2.5312	232.704	38.969	251.750	208.032	180.041	243.217	210.078	220.492	70.808	166.743	-24.567	268.770	248.374	-71.314	53.523	27.952	0.00016	0.0004131	0.00013525	1378.5	2.7413e-06	4.7636e-06	1369.3	372.6	2.0344e-06	4.5424e-06	425.25	141.1	122.48	42.592	3.7931e-06	52.748	0.00044352	0.00055526	0.00015192	1386.9	5.6744e-06	6.0907e-06	1382	377.21	5.7668e-06	5.8119e-06	429.12	144.13	125.18	43.421	5.8808e-06	53.683	223.646	5.093	11.083	-71.877	106.386	63.312	-71.732	-67.201	69.824	48.122	-67.854	-63.073	-62.568	-58.102	85.982	-58.748	-8191	255	
34465.812	1	1	0	0	0.089407	0.11776	0.065342	0.17241	0.20448	0.19712	0.24642	0.15034	0.030259	0.067831	0.066764	0.24847	0.11148	0.16723	0.17885	0.3351	-2.15	-2.2521	-2.4583	-2.5458	-2.2042	-2.525	-2.5125	-2.4188	-2.7333	-2.3312	-2.5396	-2.675	-2.1896	-2.6146	-2.3417	-2.4313	214.016	102.219	106.218	-68.814	-23.331	258.427	182.646	236.649	118.511	130.337	-65.445	264.577	153.007	252.513	38.792	184.740	0.00016195	0.00045188	0.0001495	1379	3.0156e-06	4.2234e-06	1372.5	373.11	1.2162e-06	5.3316e-06	425.69	140.37	122.28	42.607	4.0967e-06	52.754	0.00044028	0.00054239	0.00014663	1385.2	5.9672e-06	5.7205e-06	1382.9	376.74	5.8577e-06	5.9823e-06	429.15	144.01	125.18	43.46	6.0069e-06	53.741	221.184	4.340	17.346	-71.859	83.298	80.108	-71.878	-67.115	57.891	65.161	-67.817	-63.194	-62.756	-58.281	61.243	-58.900	-8191	255	
34465.906	1	1	0	0	0.064056	0.05536	0.19979	0.40205	0.1342	0.13834	0.41085	0.23756	0.18768	0.093677	0.23383	0.19913	0.15857	0.027957	0.18646	0.1937	-2.0312	-2.2354	-2.4625	-2.5438	-2.0854	-2.5167	-2.4313	-2.3063	-2.6562	-2.0125	-2.2958	-2.5625	-2.225	-2.7417	-2.4229	-2.3417	267.216	59.093	181.925	233.053	134.925	97.688	212.571	-80.270	-80.902	176.682	239.115	203.227	261.836	89.300	168.607	255.097	0.00015959	0.00034102	0.00014159	1382.4	2.7179e-06	6.903e-06	1376.8	372.39	2.717e-06	6.1267e-06	426.61	139.95	122.28	42.609	2.6704e-06	52.648	0.00043481	0.00054019	0.00014743	1386	5.9092e-06	5.8616e-06	1383.6	377.27	5.9354e-06	5.978e-06	429.69	143.86	125.1	43.436	5.8131e-06	53.722	225.278	-10.852	21.494	-71.802	106.769	77.206	-71.787	-67.107	77.458	53.606	-67.699	-63.281	-62.869	-58.086	60.541	-59.014	-8191	255	
34466.004	1	1	0	0	0.10253	0.16361	0.086008	0.40267	0.2623	0.068495	0.29398	0.39018	0.04672	0.25358	0.10454	0.2195	0.14991	0.24815	0.19418	0.17645	-1.9396	-2.3042	-2.5271	-2.6896	-2.0792	-2.625	-2.4083	-2.3937	-2.3979	-2.2938	-2.55	-2.5708	-2.2125	-2.5563	-2.2625	-2.3187	19.483	104.219	179.755	250.116	-6.063	191.974	-43.205	160.171	204.398	-46.663	175.667	219.323	236.610	236.794	-71.878	156.642	0.00015479	0.00042572	0.00018859	1377.9	1.6884e-06	5.6296e-06	1376.9	371.83	2.5074e-06	4.5892e-06	425.37	140.63	122.6	42.488	4.9385e-06	52.817	0.00043898	0.00054811	0.00014858	1385.3	6.144e-06	5.8016e-06	1382.9	376.54	6.1206e-06	5.9705e-06	429.67	144.03	125.37	43.45	6.1308e-06	53.766	221.842	41.857	1.827	-71.745	82.151	65.001	-71.736	-67.062	68.444	60.325	-67.670	-63.079	-62.713	-58.208	64.477	-58.576	-8191	255	
34466.102	1	1	0	0	0.18239	0.13782	0.055175	0.22743	0.46781	0.19643	0.23029	0.20993	0.30806	0.29578	0.41663	0.31803	0.41324	0.1234	0.11451	0.16892	-2.1875	-2.3583	-2.2687	-2.5833	-2.0229	-2.5	-2.625	-2.2104	-2.5708	-2.1854	-2.35	-2.6292	-2.2458	-2.4583	-2.5792	-2.25	-6.510	57.624	-13.483	197.742	-66.225	-68.877	228.997	59.805	75.381	55.773	224.969	-65.383	242.327	-60.680	237.393	215.154	0.00014411	0.00045713	0.00013545	1382.2	2.105e-06	4.6574e-06	1375.9	372.64	2.0867e-06	5.1012e-06	425.36	140.25	122.55	42.568	3.5017e-06	53.182	0.0004442	0.00053854	0.00015559	1386.1	5.962e-06	5.8561e-06	1383.2	377.08	6.0992e-06	5.8323e-06	429.39	143.84	125.57	43.444	6.1263e-06	53.845	222.407	-0.509	8.382	-71.710	73.623	86.300	-71.770	-67.300	40.619	62.951	-67.704	-63.470	-62.751	-58.181	81.040	-58.893	-8191	255	
34466.195	1	1	0	0	0.21384	0.1207	0.15709	0.065519	0.1225	0.075085	0.11901	0.29656	0.095934	0.23231	0.10827	0.29193	0.21982	0.077957	0.27846	0.18596	-2	-2.3083	-2.3417	-2.6958	-2.0479	-2.3458	-2.7854	-2.1958	-2.5812	-2.3875	-2.4104	-2.675	-2.2271	-2.4208	-2.4833	-2.3542	230.009	107.500	95.594	-11.140	83.585	-74.474	137.670	-56.144	61.434	11.143	204.511	261.251	-31.692	144.782	-41.408	271.176	0.00015283	0.00056279	0.00015869	1377.5	2.8834e-06	4.4376e-06	1375.8	371.3	2.6078e-06	5.2696e-06	426.05	140.15	123.21	42.707	2.6189e-06	52.834	0.00044372	0.00055548	0.00015183	1384.1	6.2749e-06	5.9935e-06	1384	376.93	6.1277e-06	6.4026e-06	430.18	143.78	125.53	43.537	6.2036e-06	53.774	218.052	4.760	4.830	-71.720	106.803	54.740	-71.642	-67.175	93.239	63.546	-67.721	-63.199	-62.652	-58.362	53.486	-59.047	-8191	255	
34466.293	1	1	0	0	0.12371	0.11983	0.22709	0.08907	0.17947	0.15361	0.0698	0.10247	0.26719	0.13577	0.40059	0.14978	0.10988	0.37671	0.17263	0.06321	-2.0438	-2.1917	-2.3417	-2.7958	-2.1542	-2.2958	-2.7958	-2.3688	-2.3292	-2.2646	-2.2708	-2.7	-2.1417	-2.3604	-2.4396	-2.2917	-49.655	117.412	117.821	267.575	-20.152	136.383	196.659	251.555	-9.020	224.080	207.639	-68.757	4.463	251.953	237.328	-7.973	0.0001458	0.00052466	0.00019034	1379.5	2.5382e-06	7.7416e-06	1375.7	372.3	1.7653e-06	4.6503e-06	424.83	140.64	122.44	42.495	3.7801e-06	52.99	0.00045534	0.00057364	0.00016677	1386.6	6.1582e-06	6.4819e-06	1384.4	377.46	6.2482e-06	6.211e-06	429.39	144.1	125.22	43.419	6.4474e-06	53.819	220.769	11.400	7.554	-71.749	88.603	47.455	-71.752	-67.168	97.503	47.203	-67.702	-63.149	-62.819	-58.300	90.322	-58.904	-8191	255	
34466.391	1	1	0	0	0.10256	0.33287	0.11638	0.16992	0.35904	0.10511	0.2678	0.21977	0.024096	0.10947	0.092631	0.28002	0.23629	0.11634	0.18713	0.26351	-2.0062	-2.4646	-2.0271	-2.8396	-2.2521	-2.2458	-2.7479	-2.2646	-2.5021	-2.5833	-2.0667	-2.6625	-2.4813	-2.2708	-2.5938	-2.1375	186.679	187.809	-16.538	-67.413	-61.658	130.176	-80.973	209.203	6.983	83.007	268.011	254.713	266.421	249.064	244.968	272.148	0.00013941	0.00041517	0.00018914	1380.4	2.1683e-06	5.3906e-06	1374.4	372.34	1.6068e-06	3.1201e-06	425.75	140.76	122.96	42.564	2.9169e-06	52.939	0.00045345	0.00057314	0.00016302	1385.2	6.373e-06	6.4479e-06	1385.3	377.14	6.1299e-06	6.4918e-06	430.13	144.06	125.48	43.447	6.1274e-06	53.777	221.384	22.261	29.973	-71.849	76.902	51.122	-71.559	-67.123	87.624	53.332	-67.640	-63.288	-62.785	-58.171	75.315	-58.927	-8191	255	
34466.512	1	1	0	0	0.089137	0.14547	0.31152	0.23424	0.14642	0.11136	0.28154	0.056696	0.098104	0.212	0.39003	0.018925	0.30361	0.24678	0.21497	0.15	-1.9667	-2.4292	-1.9167	-2.6729	-2.2167	-2.1542	-2.8771	-2.2667	-2.4062	-2.5312	-2.0563	-2.4437	-2.4917	-2.0479	-2.7333	-2.4562	42.726	109.811	151.408	230.562	105.822	224.713	258.917	264.607	104.723	3.285	-76.359	33.073	239.656	39.276	158.719	248.778	0.00014629	0.00042696	0.0001445	1381.2	3.328e-06	5.4545e-06	1373.8	372.05	2.3405e-06	4.9949e-06	425.92	140.35	122.78	42.65	2.9409e-06	52.817	0.00043247	0.00056219	0.00016539	1386.2	6.3503e-06	6.2201e-06	1383.7	377.02	6.1112e-06	6.3164e-06	430.28	143.97	125.48	43.492	6.332e-06	53.805	222.135	-1.352	17.398	-71.768	75.062	64.074	-71.751	-67.203	108.675	59.355	-67.875	-63.178	-62.847	-58.179	68.603	-58.677	-8191	255	
34466.605	1	1	0	0	0.15943	0.22754	0.12203	0.32829	0.15583	0.39538	0.14919	0.15866	0.24701	0.071557	0.34413	0.33824	0.23787	0.25353	0.18201	0.099426	-1.8729	-2.3396	-2.1375	-2.5854	-2.2687	-2.1583	-2.7875	-2.2896	-2.1354	-2.5833	-2.2562	-2.2938	-2.6146	-2.2687	-2.5458	-2.2479	244.605	73.957	-14.143	272.407	257.772	263.580	209.928	28.734	-1.308	62.557	263.764	251.955	-63.926	263.517	271.296	112.159	0.00015264	0.0004624	0.00014555	1378.7	2.1784e-06	4.9269e-06	1375.6	372.48	2.6828e-06	4.7861e-06	425.59	140.79	122.75	42.733	3.4612e-06	52.865	0.00045221	0.00058739	0.00016234	1386.6	6.2047e-06	6.4367e-06	1384.2	377.21	6.1173e-06	6.2234e-06	429.88	144.16	125.38	43.502	6.3462e-06	53.771	226.355	20.904	9.995	-71.855	90.345	46.210	-71.623	-67.198	96.828	80.722	-67.539	-63.236	-62.775	-58.375	71.610	-59.105	-8191	255	
34466.699	1	1	0	0	0.06596	0.056251	0.023402	0.2217	0.14887	0.29298	0.2317	0.32953	0.19657	0.16091	0.25101	0.16823	0.12308	0.1291	0.098809	0.11241	-1.8375	-2.5021	-2.0333	-2.6833	-2.6188	-2.2354	-2.6042	-2.5708	-2.2	-2.5458	-2.1854	-2.5042	-2.4854	-2.125	-2.4396	-2.3688	242.644	153.545	126.677	253.808	58.888	157.405	224.644	258.645	143.693	205.737	74.403	248.992	270.838	-25.250	41.653	167.215	0.00015047	0.00058403	0.00016171	1379.1	2.0348e-06	4.441e-06	1373.3	373.08	3.0574e-06	5.0268e-06	425.88	140.79	122.63	42.741	3.6079e-06	52.741	0.00044631	0.00057182	0.00015476	1386.1	6.334e-06	6.4175e-06	1386.1	377.4	6.1907e-06	6.0505e-06	430.07	144.16	125.41	43.519	5.887e-06	53.664	226.539	-0.611	28.276	-71.796	87.992	71.856	-71.633	-67.282	69.910	60.796	-67.728	-63.018	-62.735	-58.387	70.475	-58.977	-8191	255	
34466.797	1	1	0	0	0.080621	0.2263	0.17385	0.1691	0.1318	0.26377	0.28506	0.31319	0.21741	0.065648	0.19754	0.38373	0.069563	0.22643	0.22922	0.078183	-1.75	-2.5479	-2.2792	-2.4562	-2.5583	-2.1083	-2.8312	-2.5271	-2.2938	-2.5938	-2.2104	-2.2333	-2.5187	-2.2375	-2.3104	-2.3729	-52.558	19.816	-13.011	-58.917	166.947	27.973	188.289	183.430	17.939	-48.849	210.393	232.119	193.881	224.672	270.216	-79.794	0.0001243	0.00052216	0.00019001	1381.8	3.8839e-06	6.8905e-06	1373.8	371.89	3.6595e-06	4.7306e-06	425.95	140.56	122.56	42.665	4.0537e-06	53.037	0.00045187	0.00056698	0.00015815	1387.4	5.9878e-06	6.4807e-06	1385.8	377.12	6.1485e-06	5.9284e-06	429.91	143.93	125.32	43.468	5.8757e-06	53.828	226.617	6.071	11.013	-71.717	71.379	57.663	-71.593	-67.124	74.679	62.661	-67.670	-63.155	-62.733	-58.495	88.271	-59.001	-8191	255	
34466.891	1	1	0	0	0.26	0.066781	0.032408	0.33459	0.11367	0.1394	0.099749	0.29999	0.20477	0.074954	0.36152	0.15769	0.067028	0.24461	0.35533	0.13963	-1.5521	-2.45	-2.1625	-2.4417	-2.4875	-2.0563	-2.4167	-2.3896	-2.1042	-2.6333	-2.4021	-2.2604	-2.6646	-2.2417	-2.3063	-2.4896	138.668	-49.894	157.030	272.827	18.410	-3.021	145.404	-75.531	7.953	-29.947	255.718	242.469	181.003	-79.127	206.316	183.873	0.00014254	0.00039513	0.00016641	1381.5	2.6404e-06	4.8806e-06	1371.9	371.41	1.8455e-06	4.4882e-06	426.57	141.19	122.95	42.601	3.1337e-06	52.822	0.00045119	0.00056582	0.0001529	1386	6.2474e-06	6.3333e-06	1383.8	376.87	6.3905e-06	6.0976e-06	430.81	144.12	125.59	43.491	6.0774e-06	53.757	220.103	-4.363	-8.306	-71.708	107.279	72.210	-71.714	-67.270	75.359	70.437	-68.024	-63.182	-62.824	-58.225	64.689	-58.850	-8191	255	
34466.988	1	1	0	0	0.094753	0.40462	0.22239	0.26804	0.16323	0.10275	0.14685	0.18405	0.28046	0.15692	0.17786	0.43014	0.1773	0.14614	0.16471	0.021756	-1.7292	-2.5646	-2.4021	-2.4854	-2.4625	-2.0479	-2.7729	-2.5833	-2.1604	-2.4604	-2.4604	-2.4354	-2.7104	-2.3042	-2.1729	-2.4896	190.714	-12.080	-2.291	261.236	205.771	187.676	250.431	253.013	97.148	-0.930	176.922	259.664	12.552	147.591	101.869	197.034	0.00015813	0.00046626	0.00014592	1377.4	3.2584e-06	4.3511e-06	1370.3	373.37	2.442e-06	3.6951e-06	426.17	140.81	122.66	42.718	3.6262e-06	52.773	0.00046089	0.000565	0.00016047	1384.6	6.3055e-06	6.2591e-06	1382.4	377.22	6.3155e-06	6.3239e-06	430.94	144.19	125.44	43.567	6.1996e-06	53.785	219.194	-8.232	18.913	-71.785	80.596	70.858	-71.574	-67.319	69.331	73.828	-67.670	-63.124	-62.930	-58.354	87.858	-58.975	-8191	255	
34467.086	1	1	0	0	0.2385	0.050491	0.088978	0.31286	0.25345	0.13871	0.14431	0.15295	0.019574	0.053061	0.31786	0.24927	0.21346	0.26322	0.37173	0.28053	-1.6583	-2.5354	-2.2708	-2.3688	-2.4188	-2.2042	-2.4667	-2.5646	-2.1458	-2.5	-2.5	-2.2521	-2.5021	-2.3354	-2.2854	-2.5687	271.129	57.729	-29.212	225.600	59.287	265.274	144.206	183.655	96.008	160.881	242.871	250.160	225.813	230.856	-26.853	240.965	0.00013531	0.00053339	0.00016845	1383.5	3.319e-06	4.7219e-06	1379.2	373.26	3.2499e-06	6.1157e-06	428.41	140.17	122.61	42.674	3.2147e-06	52.764	0.0004546	0.00056274	0.00016586	1387.9	6.3545e-06	6.438e-06	1385.4	378.13	6.3544e-06	6.4875e-06	431.57	144.18	125.51	43.578	6.6179e-06	53.83	226.277	16.078	30.776	-71.631	64.816	55.932	-71.788	-67.071	65.516	57.896	-67.450	-63.310	-62.839	-58.373	82.523	-58.916	-8191	255	
34467.180	1	1	0	0	0.11108	0.11451	0.14484	0.30265	0.19722	0.31304	0.27659	0.12083	0.060851	0.21138	0.12928	0.24313	0.21356	0.10641	0.045193	0.27572	-1.8062	-2.2917	-2.2771	-2.3125	-2.6063	-2.5833	-2.4729	-2.7438	-2.2854	-2.5583	-2.7562	-2.2875	-2.7062	-2.275	-2.3708	-2.5938	-10.412	168.190	150.058	-50.343	245.015	189.155	263.206	-1.534	-32.099	-41.161	230.822	-84.916	-64.120	178.533	-75.307	-37.905	0.00014635	0.00062957	0.00017659	1383.2	3.112e-06	4.6778e-06	1377.3	373.54	2.3657e-06	3.8605e-06	427.59	141.19	123.15	42.777	3.1638e-06	53.101	0.00046019	0.00058728	0.00017045	1388.2	6.3566e-06	6.433e-06	1387.7	378.4	6.6381e-06	6.3933e-06	431.05	144.55	126.01	43.65	6.8565e-06	53.994	219.479	-10.924	8.174	-71.839	76.166	76.569	-71.782	-67.260	59.201	68.370	-67.761	-63.176	-62.866	-58.310	80.725	-58.886	-8191	255	
34467.301	1	1	0	0	0.2461	0.29746	0.17198	0.044016	0.14671	0.17791	0.01858	0.14436	0.15821	0.029752	0.077074	0.22963	0.24043	0.043852	0.098445	0.18079	-1.6292	-2.4125	-2.4313	-2.3458	-2.5146	-2.3583	-2.3937	-2.8042	-2.2583	-2.3208	-2.4792	-2.2687	-2.575	-2.5146	-2.1562	-2.7875	170.041	-27.172	197.587	19.170	169.108	66.967	158.191	221.313	254.206	116.597	256.079	235.060	32.327	60.209	-82.892	12.814	0.00015172	0.0005482	0.00015364	1383.3	2.5237e-06	5.1524e-06	1376.7	374.93	6.8343e-07	5.1742e-06	427.17	141.27	123.43	42.788	3.9698e-06	53.108	0.00048368	0.00060703	0.0001755	1391.1	6.3139e-06	6.7995e-06	1390.2	378.9	6.4782e-06	6.5055e-06	431.83	144.52	125.96	43.665	6.4212e-06	53.959	221.664	-4.151	7.513	-71.775	80.717	65.520	-71.792	-67.072	65.964	45.995	-67.716	-63.107	-62.850	-58.489	83.870	-58.898	-8191	255	
34467.398	1	1	0	0	0.14263	0.036787	0.064976	0.14954	0.32528	0.19445	0.16748	0.029425	0.30099	0.21353	0.10781	0.20055	0.15761	0.046965	0.29628	0.28276	-1.9292	-2.4208	-2.4313	-2.2875	-2.4313	-2.5771	-2.4292	-2.7792	-2.3292	-2.4875	-2.575	-2.3063	-2.4729	-2.4917	-2.3167	-2.5229	92.095	211.193	251.618	267.633	237.221	191.684	197.901	54.454	73.467	23.140	255.252	271.250	210.811	238.174	170.947	201.806	0.00013602	0.00047342	0.00017726	1387.9	2.2163e-06	4.8086e-06	1373.1	374.78	2.4814e-06	4.6797e-06	427.21	141.25	123.47	42.872	3.7356e-06	53.114	0.00046196	0.00059652	0.00016694	1392.4	6.2363e-06	6.4992e-06	1387.5	379.03	6.5105e-06	6.252e-06	431.77	144.67	125.93	43.685	6.5144e-06	53.981	225.278	-7.059	13.251	-71.850	66.430	72.192	-71.593	-67.280	51.143	87.214	-67.607	-62.959	-62.863	-58.542	62.741	-59.029	-8191	255	
34467.492	1	1	0	0	0.15082	0.21073	0.090668	0.38729	0.1473	0.027655	0.079313	0.25627	0.18733	0.073199	0.10962	0.13548	0.077307	0.15917	0.18277	0.22925	-1.9333	-2.2604	-2.4542	-2.3708	-2.4417	-2.5229	-2.3125	-2.8187	-2.3833	-2.2271	-2.7333	-2.3333	-2.5479	-2.4521	-2.1292	-2.8583	-64.671	38.259	50.454	-79.140	241.728	163.234	-3.986	177.969	19.505	110.806	122.986	-73.156	168.660	22.934	186.730	274.847	0.00013843	0.00055626	0.00017606	1386.5	2.0666e-06	4.1236e-06	1385.4	375.3	1.7226e-06	6.0445e-06	426.87	140.74	123.32	42.756	2.1225e-06	53.124	0.00046126	0.00060015	0.00016658	1391.6	6.2944e-06	6.5704e-06	1391.6	379.09	6.5209e-06	6.6809e-06	431.85	144.54	125.96	43.658	6.6781e-06	54.005	222.492	6.792	1.160	-71.886	110.138	60.459	-71.749	-67.151	52.677	68.439	-67.498	-63.303	-62.753	-58.371	79.714	-58.923	-8191	255	
34467.590	1	1	0	0	0.35898	0.023512	0.05063	0.22662	0.29083	0.13403	0.094102	0.17604	0.078251	0.30817	0.23513	0.25621	0.12719	0.29174	0.31991	0.26665	-1.9479	-2.1417	-2.475	-2.5604	-2.4125	-2.6354	-2.2104	-2.6813	-2.3083	-2.2229	-2.8333	-2.2708	-2.2167	-2.7146	-2.2917	-2.5438	-69.294	172.182	100.071	-83.742	120.971	36.213	128.864	224.681	106.908	99.355	-32.465	165.806	258.035	-74.058	68.186	-9.861	0.00017578	0.00046183	0.00013563	1386.1	2.2523e-06	5.0605e-06	1376.8	375.46	2.3685e-06	3.6267e-06	428.08	140.84	123.38	42.786	4.282e-06	53.052	0.00046016	0.00060549	0.00015914	1391.9	6.287e-06	6.6032e-06	1388.3	379.08	6.3889e-06	6.7069e-06	431.94	144.67	125.97	43.651	6.403e-06	53.93	225.283	5.003	0.897	-71.835	60.956	72.811	-71.764	-67.092	60.243	79.901	-67.729	-63.318	-62.881	-58.584	58.177	-58.906	-8191	255	
34467.684	1	1	0	0	0.15928	0.45107	0.23278	0.117	0.32312	0.057427	0.15794	0.32343	0.11572	0.095746	0.11702	0.18646	0.21442	0.32726	0.047778	0.036993	-1.9438	-2.1708	-2.4854	-2.4396	-2.3729	-2.65	-2.4437	-2.6167	-2.4271	-2.1229	-2.6146	-2.4208	-2.375	-2.5167	-2.1312	-2.2938	-25.339	35.178	111.602	162.995	130.683	179.105	216.754	203.955	86.285	174.257	166.563	261.812	260.141	-81.205	51.090	105.987	0.00014179	0.00063942	0.00014815	1387.8	3.094e-06	5.6945e-06	1383.3	375.22	2.383e-06	4.1493e-06	426.79	140.89	123.03	42.669	3.1243e-06	53.37	0.00047234	0.00059872	0.00016503	1390.5	6.5492e-06	6.4584e-06	1390.1	379.41	6.6134e-06	6.503e-06	431.98	144.54	125.98	43.597	6.3956e-06	54.039	223.532	7.335	-10.815	-71.866	78.115	76.192	-71.685	-67.137	86.942	71.121	-67.644	-63.226	-62.482	-58.439	75.964	-58.919	-8191	255	
34467.781	1	1	0	0	0.2261	0.052957	0.30124	0.26896	0.1934	0.089583	0.27126	0.32036	0.26251	0.18801	0.16158	0.18733	0.2765	0.11456	0.26751	0.26715	-1.9188	-2.2812	-2.5604	-2.7938	-2.375	-2.7313	-2.3854	-2.5062	-2.4833	-2.2229	-2.8375	-2.3917	-2.2583	-2.5062	-2.2062	-2.3625	-4.986	72.635	215.899	267.023	118.252	54.221	250.815	211.133	182.224	-30.951	242.995	209.977	232.346	175.864	231.963	193.372	0.00015806	0.00053259	0.00019856	1385.5	2.1733e-06	4.8616e-06	1379	374.97	1.897e-06	5.7589e-06	427.68	141.5	123.51	42.843	3.4024e-06	53.007	0.00048134	0.00059586	0.00016092	1391.3	6.4595e-06	6.584e-06	1388	379.28	6.5642e-06	6.5582e-06	432.19	144.9	126.12	43.633	6.5104e-06	54.013	226.069	-13.766	3.889	-71.844	100.512	68.230	-71.596	-67.055	55.735	72.604	-67.694	-63.082	-62.742	-58.557	55.472	-58.823	-8191	255	
34467.902	1	1	0	0	0.083529	0.26476	0.33003	0.091351	0.10649	0.34039	0.022257	0.35775	0.29559	0.15891	0.23582	0.26194	0.15328	0.27108	0.084387	0.26018	-2.1896	-2.0438	-2.45	-2.4167	-2.1521	-2.5167	-2.3625	-2.5875	-2.4854	-2.0604	-2.7271	-2.4375	-2.1667	-2.7479	-2.2812	-2.4083	81.797	124.782	236.425	183.650	133.439	161.021	84.128	211.127	26.871	83.398	254.378	179.756	236.709	229.963	179.141	134.959	0.00014969	0.00048405	0.00014187	1383.4	2.4691e-06	5.0107e-06	1378.8	373.79	1.464e-06	4.9338e-06	427.73	141.16	123.62	42.962	3.2239e-06	53.233	0.00046862	0.00059338	0.00016025	1390	6.3408e-06	6.2708e-06	1387.8	379.23	6.3478e-06	6.4534e-06	431.83	144.78	126.21	43.693	6.4923e-06	53.983	220.774	-17.046	9.719	-71.883	87.027	64.190	-71.822	-67.258	64.575	69.214	-67.534	-63.214	-62.626	-58.584	99.430	-59.006	-8191	255	
34467.996	1	1	0	0	0.12361	0.2262	0.15993	0.22831	0.08988	0.22163	0.12957	0.049951	0.24436	0.395	0.18156	0.11794	0.2745	0.2025	0.29093	0.11224	-2.0438	-2.1583	-2.4167	-2.8167	-2.0229	-2.5771	-2.5875	-2.3125	-2.5854	-2.1521	-2.3958	-2.5271	-2.0333	-2.3854	-2.2854	-2.1417	-7.763	23.783	-32.196	249.359	212.186	90.902	223.635	89.848	58.489	184.372	189.919	236.595	271.789	266.367	60.874	242.801	0.00014765	0.00040096	0.0001916	1381.6	2.9184e-06	4.121e-06	1374.6	374.08	1.8976e-06	5.2028e-06	428.33	141.32	123.49	42.813	3.2087e-06	53.044	0.00046797	0.0005892	0.00016496	1389.4	6.4068e-06	6.2139e-06	1387.1	378.96	6.5401e-06	6.4119e-06	432.31	144.77	126.21	43.64	6.4854e-06	54.042	221.422	10.007	0.028	-71.906	80.383	67.425	-71.726	-67.362	63.597	78.617	-67.739	-63.186	-62.617	-58.289	80.923	-59.015	-8191	255	
34468.094	1	1	0	0	0.10999	0.16718	0.14882	0.13368	0.23182	0.1596	0.41808	0.10447	0.23269	0.22085	0.18447	0.20653	0.28839	0.2512	0.13389	0.32033	-2.1167	-2.0708	-2.4875	-2.8063	-2.175	-2.4667	-2.4021	-2.2375	-2.5833	-2.0896	-2.5021	-2.5167	-2.0542	-2.4854	-2.5583	-2.2812	79.213	246.034	18.509	257.177	171.682	-20.282	236.327	223.992	115.670	146.817	-62.877	244.065	198.215	-52.621	136.115	239.892	0.00014805	0.00050928	0.000137	1382.9	3.9996e-06	5.2572e-06	1373.7	375.34	2.499e-06	6.3231e-06	428.53	141.14	123.07	42.805	3.7252e-06	52.855	0.0004625	0.00058975	0.00016717	1390.1	6.3814e-06	6.4262e-06	1388.5	379.23	6.4497e-06	6.5129e-06	432.55	144.7	126.1	43.719	6.6304e-06	53.934	227.375	10.784	22.087	-71.850	80.255	84.127	-71.629	-67.451	61.675	75.076	-67.590	-63.337	-62.763	-58.387	85.919	-59.002	-8191	255	
34468.191	1	1	0	0	0.089888	0.16123	0.045221	0.40301	0.1852	0.040644	0.075227	0.31499	0.11307	0.055407	0.28373	0.047362	0.16989	0.26054	0.13183	0.091039	-2.0062	-2.1667	-2.2146	-2.7479	-2.0687	-2.5646	-2.4354	-2.2958	-2.4229	-2.3021	-2.3729	-2.5604	-2.3125	-2.5458	-2.4229	-2.175	39.000	18.125	166.510	179.016	17.415	-11.566	184.449	162.907	147.081	242.662	234.130	268.048	242.288	211.995	222.521	-51.145	0.00016102	0.00055944	0.0001766	1381.6	2.3837e-06	5.4881e-06	1377.4	374.03	2.0178e-06	5.061e-06	427.42	141.32	123.49	42.887	4.4947e-06	53.156	0.00045596	0.00060813	0.00016559	1390.8	6.4759e-06	6.4999e-06	1387.8	379.3	6.2591e-06	6.5805e-06	432.12	144.69	126.2	43.702	6.7048e-06	54.008	224.398	16.422	21.735	-71.815	57.635	59.127	-71.721	-67.025	36.558	50.098	-67.638	-63.135	-62.715	-58.480	63.716	-58.711	-8191	255	
34468.285	1	1	0	0	0.082688	0.2388	0.13439	0.19554	0.079891	0.018591	0.19741	0.12765	0.15131	0.21357	0.35039	0.042844	0.0094346	0.18094	0.1969	0.13922	-2.0271	-2.3187	-2.1562	-2.7354	-2.1854	-2.4625	-2.5062	-2.2333	-2.5146	-2.1813	-2.4042	-2.6854	-2.3312	-2.6604	-2.3292	-2.0729	232.468	126.004	116.933	212.128	-61.662	223.530	125.784	-68.643	36.103	121.171	183.530	6.447	36.731	-75.932	233.038	236.340	0.00015802	0.00054753	0.00017545	1382.4	2.9957e-06	6.0459e-06	1375.2	374.12	2.8507e-06	5.1904e-06	427.51	141.05	123.29	42.826	4.2915e-06	53.081	0.0004541	0.00061104	0.00016841	1389	6.1925e-06	6.5704e-06	1387.4	379.12	6.1211e-06	6.8098e-06	432.59	144.56	126.29	43.671	6.6099e-06	54.056	223.264	17.982	6.914	-71.806	106.103	56.733	-71.689	-67.402	47.845	60.484	-67.698	-63.134	-62.839	-58.511	69.035	-59.145	-8191	255	
34468.383	1	1	0	0	0.12623	0.051725	0.14679	0.23411	0.086815	0.3009	0.28503	0.26286	0.20909	0.1622	0.23688	0.13162	0.066249	0.044678	0.31415	0.16599	-2.0771	-2.2167	-2.1708	-2.9958	-2.1667	-2.4667	-2.65	-2.1917	-2.4604	-2.25	-2.325	-2.6521	-2.1437	-2.3438	-2.4667	-2.3375	265.672	160.309	-53.719	233.240	-53.789	241.325	173.842	-72.966	43.480	226.145	267.221	-29.038	-79.813	113.513	217.874	253.303	0.00013606	0.00055877	0.00017389	1382.8	2.2366e-06	4.4023e-06	1379.6	373.75	3.4832e-06	6.2808e-06	427.78	141.71	123.06	42.902	2.8445e-06	53.132	0.00045971	0.00058992	0.00017186	1389.8	6.3667e-06	6.5568e-06	1387.6	379.13	6.1529e-06	6.5253e-06	432.18	144.61	125.97	43.656	6.432e-06	54.012	221.254	19.588	14.379	-71.945	88.008	61.601	-71.699	-67.136	88.686	56.100	-67.531	-63.288	-62.958	-58.299	59.959	-58.963	-8191	255	
34468.477	1	1	0	0	0.13682	0.17862	0.25798	0.22449	0.16376	0.21721	0.045768	0.21064	0.099982	0.11013	0.22259	0.1458	0.17502	0.32625	0.14682	0.17493	-2.0438	-2.3375	-2.2646	-2.6937	-2.2125	-2.1875	-2.6688	-2.1833	-2.4188	-2.4979	-2.175	-2.575	-2.3042	-2.3708	-2.4604	-2.2	-39.046	64.158	248.489	227.931	105.056	30.774	238.443	182.469	-36.565	-29.730	268.620	212.542	-42.849	230.948	-17.731	156.870	0.00014849	0.00044842	0.00015204	1383.6	2.461e-06	5.1656e-06	1380.9	374.53	2.2914e-06	6.9995e-06	429.23	141.47	123.12	42.895	2.815e-06	53.035	0.00045489	0.00060994	0.00016366	1390.4	6.4289e-06	6.6261e-06	1389.1	379.18	6.2087e-06	6.3536e-06	432.65	144.95	126.11	43.697	6.5292e-06	54.072	224.433	-1.659	17.985	-71.715	61.923	66.762	-71.810	-67.251	60.804	50.219	-67.677	-63.236	-62.611	-58.318	64.300	-58.815	-8191	255	
34468.598	1	1	0	0	0.16362	0.12338	0.045505	0.35273	0.073484	0.14139	0.12091	0.18114	0.16454	0.097958	0.12536	0.15856	0.05699	0.31247	0.16765	0.11144	-1.9188	-2.4062	-1.9125	-2.6458	-2.1333	-2.25	-2.8771	-2.0958	-2.4208	-2.5333	-2.4396	-2.6542	-2.3937	-2.2167	-2.5812	-2.4833	249.408	150.876	253.963	257.658	15.971	-63.906	150.162	164.540	259.449	-18.537	-58.198	-46.462	233.873	240.978	-84.426	203.420	0.00016142	0.00062883	0.00018383	1387.4	2.6238e-06	6.0702e-06	1375.9	374.81	2.3114e-06	3.433e-06	430.36	141.53	123.26	42.91	3.0946e-06	53.203	0.00046405	0.00058469	0.00016731	1391.9	6.4527e-06	6.4999e-06	1389.5	379.44	6.4672e-06	6.7169e-06	433.14	144.93	126.01	43.695	6.3212e-06	54.085	223.075	10.569	20.688	-71.861	65.981	68.196	-71.634	-67.140	56.637	43.036	-67.662	-63.209	-62.654	-58.149	67.261	-58.937	-8191	255	
34468.691	1	1	0	0	0.037203	0.046856	0.19403	0.2277	0.25187	0.066857	0.20924	0.44212	0.14816	0.18883	0.074293	0.14948	0.19096	0.30897	0.17099	0.31517	-2.0729	-2.6271	-2.1063	-2.6667	-2.3604	-2.4125	-2.7083	-2.4875	-2.1958	-2.5312	-2.1708	-2.6188	-2.5125	-2.4042	-2.5417	-2.4521	62.512	41.294	141.075	258.110	261.754	150.942	175.729	262.541	-12.655	137.631	94.182	196.846	265.274	266.487	51.887	-61.038	0.00017125	0.00067145	0.00018356	1385.7	3.5808e-06	4.4217e-06	1383	374.8	1.3995e-06	5.0975e-06	429.76	141.44	123.46	42.8	2.4944e-06	52.999	0.00046946	0.00059982	0.00016398	1390	6.5572e-06	6.615e-06	1389	379.83	6.6375e-06	6.64e-06	432.31	144.72	126.21	43.744	6.1183e-06	53.969	224.920	2.431	-7.048	-71.848	84.583	69.423	-71.622	-67.250	100.228	58.619	-67.695	-63.182	-62.794	-58.396	28.190	-59.107	-8191	255	
34468.766	1	1	0	0	0.095533	0.16178	0.095106	0.50928	0.08448	0.17609	0.18871	0.068286	0.09609	0.063448	0.20888	0.14922	0.15271	0.062119	0.1357	0.10097	-1.8563	-2.4562	-1.8896	-2.6458	-2.3812	-2.1396	-2.7104	-2.5521	-2.2417	-2.5187	-2.325	-2.6417	-2.5104	-2.1292	-2.6312	-2.5	96.208	100.016	-74.952	244.146	224.830	-29.187	223.228	97.693	-33.930	-69.097	203.886	229.116	-46.916	-65.586	120.769	178.855	0.0001607	0.00048467	0.00011715	1386.7	3.1322e-06	5.083e-06	1381.2	376.08	2.8537e-06	5.8656e-06	428.49	141.21	123.23	43.016	2.9778e-06	53.007	0.00047341	0.00058689	0.00016378	1391.8	6.6131e-06	6.6069e-06	1390.2	380.26	6.6671e-06	6.5594e-06	432.69	144.82	126.31	43.753	6.2354e-06	53.963	220.337	-0.149	-1.539	-71.814	84.269	57.456	-71.666	-67.198	55.648	60.759	-67.506	-63.093	-62.869	-58.186	77.399	-59.233	-8191	255	
34468.863	1	1	0	0	0.14215	0.066354	0.19379	0.28666	0.08823	0.032646	0.28721	0.21038	0.041127	0.31704	0.29489	0.085932	0.2973	0.20723	0.10406	0.13122	-1.7917	-2.4625	-2.2396	-2.6729	-2.4479	-2.2333	-2.8417	-2.5312	-2.2104	-2.6833	-2.3375	-2.4646	-2.4417	-2.1729	-2.5292	-2.25	-56.798	150.115	212.816	241.091	60.826	-68.562	176.152	131.212	-79.666	253.294	228.389	4.503	-62.814	269.735	117.576	-77.384	0.00016191	0.00039309	0.00015307	1385.2	2.752e-06	4.4849e-06	1380.5	374.59	1.4942e-06	6.17e-06	427.82	141.77	122.98	42.991	2.1207e-06	53.037	0.00047925	0.0005749	0.00017332	1391.1	6.5862e-06	6.81e-06	1388.2	379.22	6.551e-06	6.3493e-06	432.51	145.05	126.1	43.763	6.3797e-06	54.006	220.404	-1.876	10.499	-71.937	100.148	51.497	-71.543	-67.360	60.446	61.624	-67.623	-63.244	-62.926	-58.354	81.586	-58.762	-8191	255	
34468.980	1	1	0	0	0.4491	0.12431	0.12605	0.29475	0.11109	0.19955	0.1939	0.0079994	0.24672	0.085267	0.15938	0.086665	0.14478	0.40254	0.14622	0.16029	-1.7729	-2.4688	-2.3604	-2.5146	-2.5396	-2.1188	-2.6958	-2.4813	-2.1688	-2.5667	-2.2729	-2.4396	-2.7167	-2.2604	-2.6958	-2.6604	213.228	187.944	36.510	237.074	216.023	180.391	208.770	207.188	246.174	109.584	154.971	173.065	142.247	255.376	261.748	202.962	0.00016072	0.00045105	0.00015005	1387.4	3.1126e-06	4.6418e-06	1377	375.63	2.9993e-06	4.8916e-06	427.4	141.25	123.49	42.979	4.6818e-06	53.198	0.00048339	0.0006067	0.00017541	1392.2	6.5366e-06	6.6986e-06	1390.3	380.13	6.683e-06	6.4485e-06	432.02	144.91	126.35	43.793	6.6934e-06	54.086	221.731	6.501	5.138	-71.865	87.087	74.111	-71.709	-67.248	62.478	50.317	-68.002	-63.251	-62.930	-58.201	88.362	-58.997	-8191	255	
34469.078	1	1	0	0	0.20065	0.043389	0.19404	0.49564	0.073915	0.17357	0.52523	0.42593	0.18622	0.05631	0.20476	0.32899	0.13308	0.19537	0.12626	0.21837	-1.5583	-2.6375	-2.2271	-2.2708	-2.4313	-2.3771	-2.6792	-2.575	-2.0563	-2.5792	-2.3417	-2.15	-2.4646	-2.1833	-2.4604	-2.5646	26.929	180.194	260.315	252.561	-22.374	190.729	172.650	150.006	192.999	46.731	231.214	216.204	269.751	216.949	254.505	160.712	0.00015452	0.000582	0.00016159	1386.9	2.2159e-06	3.444e-06	1378.4	375.35	2.4014e-06	4.5949e-06	428.28	141.86	124.08	42.794	2.6462e-06	53.037	0.00046408	0.00058486	0.0001683	1391	6.3672e-06	6.4602e-06	1388.6	379.58	6.5647e-06	6.6697e-06	432.88	145.11	126.38	43.668	6.3991e-06	54.069	221.979	15.411	13.342	-71.860	67.529	58.749	-71.827	-67.375	50.121	82.246	-67.813	-63.234	-62.744	-58.401	71.591	-58.881	-8191	255	
34469.176	1	1	0	0	0.12434	0.29645	0.34562	0.14364	0.24571	0.23551	0.30023	0.25887	0.1668	0.11953	0.16419	0.33208	0.14359	0.081077	0.062117	0.10284	-1.8208	-2.4625	-2.3333	-2.4917	-2.5938	-2.0438	-2.4875	-2.5729	-2.2146	-2.5104	-2.4437	-2.1562	-2.6458	-2.2875	-2.175	-2.5563	220.538	68.158	193.445	182.531	184.958	213.714	188.133	228.957	250.988	8.024	234.948	-82.483	238.374	77.599	136.756	177.014	0.00015525	0.00046691	0.00017982	1387.8	1.4402e-06	5.6198e-06	1381	375.37	2.6138e-06	3.9318e-06	428.2	141.37	123.3	43.037	4.2743e-06	53.243	0.00047838	0.00060037	0.0001679	1392.7	6.363e-06	6.5803e-06	1390.4	379.72	6.5412e-06	6.4441e-06	432.61	144.87	126.44	43.765	6.6815e-06	54.104	225.300	-8.297	4.232	-71.744	66.410	44.239	-71.811	-67.305	108.857	44.630	-67.661	-63.263	-62.600	-58.451	86.009	-58.878	-8191	255	
34469.293	1	1	0	0	0.16336	0.11156	0.074883	0.017185	0.23194	0.087396	0.23727	0.26132	0.048666	0.11949	0.052485	0.29626	0.38553	0.18924	0.10741	0.16098	-1.8333	-2.2521	-2.4021	-2.4042	-2.6437	-2.1875	-2.4958	-2.6542	-2.1646	-2.7021	-2.5542	-2.2604	-2.5	-2.325	-2.2667	-2.5208	157.215	258.454	49.736	-49.650	264.681	-25.549	-73.790	274.066	248.768	60.543	235.835	154.469	249.015	268.298	166.023	273.752	0.00014562	0.00047746	0.00016954	1385.4	2.2189e-06	3.7824e-06	1378.5	375.43	2.7244e-06	5.0811e-06	428.7	141.71	123.34	42.94	1.9886e-06	52.977	0.00047702	0.00060021	0.00017188	1392.8	6.202e-06	6.5587e-06	1388.6	379.89	6.3467e-06	6.5104e-06	432.85	145.03	126.21	43.804	6.4735e-06	54.062	223.724	10.463	21.136	-71.838	97.407	73.362	-71.690	-67.416	90.431	63.540	-67.680	-63.154	-62.731	-58.603	60.379	-58.934	-8191	255	
34469.367	1	1	0	0	0.19448	0.40334	0.14122	0.22827	0.079383	0.19285	0.27718	0.02643	0.026751	0.084087	0.16425	0.16189	0.24625	0.045182	0.21604	0.051117	-1.6458	-2.2417	-2.3458	-2.3063	-2.6667	-2.4604	-2.4521	-2.6625	-2.2062	-2.625	-2.6229	-2.1042	-2.525	-2.4021	-2.1875	-2.8292	161.617	-37.126	-71.148	253.533	195.894	235.715	206.209	170.258	57.159	142.140	268.925	-84.064	209.593	225.529	204.552	107.929	0.00015345	0.00041275	0.00013051	1381	2.5609e-06	5.6959e-06	1382.5	375.16	2.2217e-06	5.095e-06	429.28	141.3	123.75	42.993	4.1576e-06	53.134	0.00046921	0.0005979	0.00016668	1390.8	6.3028e-06	6.7097e-06	1390.6	379.5	6.4765e-06	6.4212e-06	433.3	144.9	126.36	43.728	6.5497e-06	54.067	224.067	-1.512	-11.558	-71.738	82.331	57.676	-71.645	-67.440	74.270	58.636	-67.607	-63.259	-62.897	-58.103	83.364	-59.001	-8191	255	
34469.461	1	1	0	0	0.27387	0.08528	0.45523	0.093213	0.10644	0.10049	0.37844	0.015092	0.091309	0.29268	0.16484	0.094268	0.086213	0.24163	0.17943	0.18865	-1.8146	-2.2104	-2.4354	-2.2042	-2.4854	-2.6083	-2.3146	-2.7438	-2.0812	-2.2917	-2.6188	-2.4229	-2.6708	-2.4792	-2.2	-2.7875	95.697	93.333	-44.747	146.295	187.844	9.372	208.035	-56.987	220.513	239.519	115.045	256.901	158.622	254.055	272.902	236.913	0.00015885	0.00068134	0.00012076	1389.5	1.6747e-06	4.2185e-06	1379.5	375.26	2.1209e-06	5.0911e-06	427.75	142.1	123.24	43.04	3.1211e-06	52.965	0.00046554	0.00059443	0.00016689	1393.5	6.2833e-06	6.3661e-06	1390.3	380.06	6.3692e-06	6.3152e-06	432.45	145.21	126.25	43.775	6.2882e-06	54.022	219.722	-5.251	27.389	-71.761	88.216	66.601	-71.678	-67.276	71.614	43.898	-67.748	-62.978	-62.866	-58.362	73.844	-58.840	-8191	255	
34469.582	1	1	0	0	0.29376	0.19486	0.10271	0.11302	0.39347	0.11613	0.063957	0.22932	0.23518	0.11696	0.21272	0.31341	0.22306	0.15286	0.083901	0.21028	-1.8917	-2.175	-2.5333	-2.4292	-2.6063	-2.5062	-2.3563	-2.475	-2.3667	-2.4125	-2.7125	-2.3563	-2.5354	-2.3563	-2.1437	-2.5646	158.977	-34.338	87.183	-81.137	167.567	178.074	-75.789	252.958	90.952	-1.590	226.210	248.527	265.975	102.627	-50.482	150.051	0.00016571	0.00061304	0.00012675	1383.1	3.3126e-06	5.9499e-06	1380.3	374.5	1.9432e-06	4.9891e-06	426.6	141.65	123.53	43.003	3.6466e-06	53.273	0.00047381	0.00059179	0.00015801	1391.5	6.345e-06	6.563e-06	1389.9	379.58	6.6529e-06	6.6102e-06	431.55	144.97	126.28	43.827	6.5752e-06	54.141	220.540	12.978	12.052	-71.766	88.562	72.444	-71.812	-67.031	74.262	61.173	-67.697	-63.193	-62.896	-58.387	101.311	-59.070	-8191	255	
34469.676	1	1	0	0	0.11425	0.17311	0.108	0.27137	0.10354	0.12884	0.13156	0.24064	0.22793	0.17232	0.24873	0.17169	0.25683	0.034937	0.083207	0.29206	-1.8979	-2.0646	-2.4958	-2.2479	-2.2521	-2.4688	-2.2875	-2.4292	-2.3479	-2.35	-2.7521	-2.3708	-2.4313	-2.5292	-2.0438	-2.6125	-20.311	167.773	-31.503	178.275	122.608	92.464	221.437	-42.590	182.752	257.289	205.917	237.655	214.872	170.894	216.363	-24.980	0.0001476	0.00057144	0.00016896	1383.7	8.3553e-07	5.0352e-06	1379.2	373.41	1.5866e-06	4.1755e-06	426.86	141.98	123.52	43.089	3.3657e-06	53.173	0.00047998	0.0005985	0.00016548	1390.1	6.3392e-06	6.5073e-06	1388.7	379.24	6.5773e-06	6.4398e-06	432.12	144.99	126.28	43.867	6.5116e-06	54.069	230.609	-10.851	15.392	-71.739	94.805	79.606	-71.985	-67.069	55.334	56.585	-67.646	-63.288	-62.808	-58.432	85.687	-58.960	-8191	255	
34469.773	1	1	0	0	0.2259	0.20098	0.11911	0.42717	0.17386	0.037327	0.43999	0.26908	0.16514	0.16083	0.23236	0.1948	0.11329	0.21438	0.072629	0.10659	-1.8208	-2.3187	-2.65	-2.5	-2.3646	-2.6167	-2.3083	-2.5417	-2.4146	-2.3625	-2.5854	-2.3104	-2.2479	-2.6729	-2.2062	-2.4562	57.388	-69.507	218.571	217.051	177.531	-85.024	203.652	220.806	158.946	-47.432	244.161	245.243	-28.240	266.733	86.616	158.967	0.00015412	0.00051824	0.00017115	1384.5	3.5802e-06	5.1438e-06	1382.3	375.64	1.7821e-06	4.3016e-06	428.88	141.45	123.88	42.981	1.8384e-06	53.204	0.00046698	0.00060087	0.00016257	1389.2	6.3187e-06	6.3123e-06	1390	379.61	6.2963e-06	6.1274e-06	431.93	144.86	126.4	43.75	6.3229e-06	54.05	220.066	1.270	6.963	-71.805	82.749	62.073	-71.660	-67.126	61.857	79.275	-67.761	-63.347	-62.751	-58.313	82.453	-59.232	-8191	255	
34469.895	1	1	0	0	0.12642	0.11167	0.31475	0.35974	0.049664	0.17869	0.13215	0.2647	0.20019	0.084656	0.078646	0.13406	0.068182	0.27503	0.10442	0.22491	-1.9646	-2.0708	-2.4938	-2.3396	-2.1625	-2.6021	-2.2625	-2.5708	-2.2479	-2.2792	-2.7042	-2.2354	-2.4708	-2.6375	-2.2646	-2.4688	156.150	-15.646	84.629	-76.042	253.219	4.731	19.880	-72.080	86.359	35.830	38.655	-64.918	99.654	241.181	154.274	-41.210	0.00013889	0.00071216	0.00016666	1382.8	2.969e-06	5.7199e-06	1379.2	374.82	1.5101e-06	3.81e-06	426.99	141.57	123.59	43.109	2.5254e-06	52.733	0.00046292	0.00059465	0.00015929	1389.4	6.2522e-06	6.2801e-06	1390	379.61	6.2345e-06	6.4838e-06	432.02	144.87	126.35	43.773	6.3496e-06	54.01	228.324	-0.183	4.187	-71.851	75.937	75.915	-71.706	-67.113	50.446	61.847	-67.687	-63.246	-63.042	-58.314	51.157	-58.780	-8191	255	
34469.988	1	1	0	0	0.1128	0.11933	0.22583	0.3255	0.1174	0.056656	0.16594	0.10717	0.17115	0.24733	0.21953	0.31333	0.076348	0.17211	0.14422	0.1107	-2.025	-1.9896	-2.425	-2.6021	-2.3021	-2.4354	-2.2729	-2.4896	-2.5	-2.0708	-2.5604	-2.4083	-2.375	-2.7167	-2.2333	-2.3958	271.388	223.563	-16.761	166.037	91.738	39.122	253.934	138.353	-16.193	159.371	204.168	195.990	102.164	174.943	19.554	-77.034	0.0001182	0.00049044	0.00017987	1388.3	1.9409e-06	7.4074e-06	1379.1	373.07	2.7981e-06	5.2183e-06	428.14	141.56	123.45	42.916	4.5439e-06	53.283	0.0004524	0.00057265	0.00016044	1389.7	6.3814e-06	6.321e-06	1387.3	378.38	6.1605e-06	6.3387e-06	431.81	144.9	126.03	43.688	6.307e-06	54.111	220.417	-0.519	12.471	-71.946	68.451	55.516	-71.524	-67.047	39.200	57.020	-67.665	-62.956	-62.613	-58.482	85.261	-59.045	-8191	255	
34470.062	1	1	0	0	0.42348	0.19114	0.32408	0.15141	0.066697	0.051096	0.16888	0.32991	0.20255	0.19369	0.14732	0.11345	0.2337	0.046738	0.26065	0.32173	-2.0646	-2.1292	-2.3979	-2.7104	-2.2896	-2.6292	-2.3583	-2.4167	-2.5333	-2.1229	-2.5125	-2.3167	-2.2208	-2.625	-2.4188	-2.4	33.900	141.922	103.631	198.282	167.272	119.817	207.579	209.854	-50.302	269.405	255.573	123.797	274.122	243.680	160.095	218.717	0.00014934	0.00048279	0.00013159	1387.3	3.1267e-06	4.5846e-06	1379	374.83	2.9846e-06	3.8416e-06	428.22	141.31	123.45	42.923	3.7914e-06	53.065	0.00044953	0.00058662	0.00016101	1391.7	6.2775e-06	6.2721e-06	1388.7	379.18	6.2115e-06	6.4106e-06	431.98	144.77	126.12	43.683	6.3189e-06	54.091	220.919	6.856	11.761	-71.761	80.129	52.232	-71.623	-67.138	70.520	68.208	-67.552	-63.398	-62.824	-58.450	49.504	-58.974	-8191	255	
34470.156	1	1	0	0	0.31462	0.076217	0.24716	0.15299	0.17353	0.14255	0.13878	0.29361	0.10072	0.20804	0.05098	0.053906	0.1188	0.20007	0.054544	0.11281	-2.2521	-2.0979	-2.475	-2.5354	-2.1104	-2.6979	-2.6521	-2.2208	-2.6583	-2.2958	-2.5229	-2.7729	-2.1104	-2.55	-2.4583	-2.3021	7.382	238.465	273.124	273.116	0.132	211.453	174.488	182.124	56.624	-24.768	224.098	244.344	-56.511	235.849	-34.513	-80.546	0.00016565	0.00033053	0.0001371	1387.8	2.611e-06	5.5357e-06	1371	375.01	2.2835e-06	5.4491e-06	427.74	141.82	123.54	42.95	3.2486e-06	53.074	0.00045105	0.00058673	0.0001624	1391.2	6.3925e-06	6.3897e-06	1387.5	379.29	6.2728e-06	6.5377e-06	431.69	144.99	126.13	43.765	6.7929e-06	54.094	223.392	2.532	25.407	-71.772	93.745	64.836	-71.810	-67.364	50.103	72.616	-67.639	-63.115	-62.943	-58.431	47.988	-58.927	-8191	255	
34470.277	1	1	0	0	0.25722	0.068678	0.099718	0.3775	0.17603	0.11078	0.1069	0.18231	0.12294	0.2847	0.072663	0.23598	0.13691	0.2582	0.12522	0.31335	-2.2167	-2.1792	-2.4167	-2.5938	-2.3083	-2.4333	-2.6479	-2.2271	-2.4958	-2.4104	-2.3958	-2.7792	-2.1479	-2.5083	-2.4854	-2.3083	92.160	208.625	107.208	224.526	272.794	66.126	146.153	262.517	-65.172	94.061	123.848	186.412	-65.041	242.546	222.697	215.290	0.00014716	0.00053461	0.00020243	1383.7	2.4104e-06	5.9075e-06	1376.3	374.02	2.873e-06	6.008e-06	427.62	142.02	123.34	42.908	4.5517e-06	53.24	0.00045917	0.00059988	0.00016257	1390.3	6.2849e-06	6.7462e-06	1388.1	378.91	6.4705e-06	6.7113e-06	431.81	145.09	126.02	43.734	6.7628e-06	54.163	225.800	3.211	12.520	-71.813	103.716	72.420	-71.819	-67.132	91.404	71.229	-67.564	-63.184	-62.954	-58.369	65.629	-58.820	-8191	255	
34470.375	1	1	0	0	0.15495	0.081098	0.22761	0.21482	0.020959	0.076689	0.43526	0.30513	0.27821	0.45037	0.15828	0.25521	0.13732	0.24695	0.25081	0.096022	-1.875	-2.2771	-2.3187	-2.7958	-2.0771	-2.4229	-2.6917	-2.3521	-2.5104	-2.1937	-2.4167	-2.7375	-2.1333	-2.5104	-2.3438	-2.1937	273.840	83.378	-30.581	218.410	26.282	257.547	-66.891	209.564	150.668	150.597	-47.391	192.532	252.991	-83.250	24.297	-33.566	0.00016549	0.0004677	0.00010975	1383.2	3.2646e-06	5.5437e-06	1377.7	375.66	2.8937e-06	4.7735e-06	428.54	141.95	123.03	42.849	4.7653e-06	52.931	0.00047671	0.00062677	0.00017019	1388.9	6.5899e-06	6.7859e-06	1387.2	379.51	6.5784e-06	6.7231e-06	432.54	145.19	126.38	43.708	6.4292e-06	53.968	222.638	11.280	19.246	-71.856	95.990	60.998	-71.642	-67.265	66.468	58.887	-67.761	-63.201	-62.925	-58.377	84.165	-58.980	-8191	255	
34470.473	1	1	0	0	0.27122	0.12378	0.27168	0.37355	0.033112	0.24333	0.12173	0.087736	0.12859	0.22448	0.19467	0.089716	0.051721	0.010765	0.2205	0.054299	-2.0625	-2.1646	-2.2229	-2.7792	-2.225	-2.1937	-2.6063	-2.2188	-2.5146	-2.1188	-2.3875	-2.5312	-2.3021	-2.5104	-2.65	-2.3042	176.235	24.123	174.072	261.584	3.625	173.569	197.319	205.019	177.146	207.273	235.143	-82.156	261.827	170.972	194.411	-62.714	0.00014424	0.00038588	0.00016409	1387.2	1.2934e-06	3.4349e-06	1381.1	374.79	1.8676e-06	5.1143e-06	425.7	141.64	123.72	43.167	2.9045e-06	53.072	0.00046752	0.0006144	0.00016805	1391.6	6.4764e-06	6.6515e-06	1388.6	379.62	6.4579e-06	6.6251e-06	431.3	144.96	126.32	43.807	6.2809e-06	54.012	223.404	8.253	12.311	-71.984	72.290	63.201	-71.676	-67.106	61.399	93.713	-67.516	-63.046	-62.918	-58.524	82.657	-58.990	-8191	255	
34470.566	1	1	0	0	0.28231	0.059733	0.10645	0.14718	0.10457	0.036003	0.18284	0.26706	0.085755	0.18656	0.13205	0.10723	0.057717	0.090296	0.074956	0.15412	-1.8708	-2.15	-2.1646	-2.7292	-2.2438	-2.3375	-2.6625	-2.2208	-2.475	-2.3333	-2.3333	-2.6083	-2.3896	-2.3854	-2.5896	-2.2833	-69.082	272.003	255.956	227.081	117.000	-69.073	201.684	228.915	151.332	240.860	-58.565	234.156	85.364	-71.176	148.025	263.957	0.00015895	0.00042078	0.00017899	1383.9	1.9332e-06	5.3474e-06	1376.9	374.94	2.5752e-06	5.9281e-06	426.83	141.83	123.35	42.921	4.1368e-06	53.095	0.00046196	0.00061924	0.00016539	1391.5	6.4194e-06	6.4262e-06	1387.2	379.15	6.4272e-06	6.4305e-06	432.01	144.79	126.15	43.77	6.261e-06	54.145	218.647	8.935	11.551	-71.900	74.572	68.209	-71.940	-67.234	47.372	46.083	-67.610	-63.334	-62.802	-58.349	65.521	-59.099	-8191	255	
34470.664	1	1	0	0	0.15658	0.13324	0.056294	0.12287	0.09763	0.22446	0.30234	0.47467	0.14353	0.21106	0.061616	0.19424	0.058009	0.030988	0.12858	0.18737	-1.8687	-2.2708	-1.9188	-2.6229	-2.3167	-2.1917	-2.7521	-2.5292	-2.2917	-2.475	-2.0125	-2.6125	-2.4	-2.2625	-2.5417	-2.25	61.381	1.576	77.695	177.292	242.539	96.836	208.192	209.747	169.517	70.397	31.409	233.225	273.869	206.719	268.928	246.110	0.00015457	0.00056969	0.00015977	1382	1.7455e-06	5.1477e-06	1376.1	373.74	1.7851e-06	5.4424e-06	426.54	141.15	123.23	42.892	2.748e-06	53.225	0.00046075	0.00058381	0.00016544	1390.1	6.2448e-06	6.1167e-06	1388.1	378.91	6.2909e-06	6.3859e-06	432.27	144.87	126.05	43.694	6.0683e-06	54.073	227.851	-4.677	19.623	-71.848	49.235	43.250	-71.699	-67.224	53.370	50.879	-67.746	-63.199	-62.636	-58.424	91.776	-59.073	-8191	255	
34470.758	1	1	0	0	0.026189	0.0525	0.17422	0.4299	0.23312	0.12208	0.36984	0.19743	0.24179	0.043502	0.13291	0.29944	0.21536	0.16432	0.20826	0.2386	-1.9896	-2.475	-1.9792	-2.6271	-2.2417	-2.0812	-2.6604	-2.0854	-2.425	-2.4583	-2.1271	-2.6896	-2.6063	-2.2479	-2.6146	-2.2854	254.674	63.097	109.404	265.616	112.243	60.590	219.335	129.514	212.822	-84.420	-57.963	-84.489	-33.069	163.193	65.289	265.880	0.00015921	0.00053515	0.00016086	1383.8	2.9738e-06	6.6739e-06	1374	374.49	2.349e-06	4.9873e-06	428.08	141.66	123.54	42.896	4.0729e-06	52.929	0.00045387	0.00057342	0.00016101	1389.4	6.2226e-06	6.1216e-06	1386.6	379.03	6.1781e-06	6.2526e-06	431.29	144.82	125.97	43.662	6.1655e-06	53.961	228.271	-6.835	14.946	-71.874	101.608	65.623	-71.494	-67.249	68.872	71.380	-67.641	-63.268	-63.061	-58.474	93.704	-58.863	-8191	255	
34470.855	1	1	0	0	0.1488	0.17792	0.19595	0.27146	0.11297	0.22283	0.12748	0.11298	0.083352	0.17485	0.28965	0.12349	0.33566	0.14892	0.34735	0.073551	-1.9042	-2.6333	-2.1271	-2.7229	-2.5083	-2.3187	-2.8354	-2.3958	-2.2604	-2.6083	-2.4125	-2.5042	-2.4792	-2.0292	-2.6312	-2.2521	59.644	265.224	-43.601	270.362	216.842	177.454	242.192	240.415	206.442	-66.178	258.610	-76.224	10.625	229.184	188.882	-75.656	0.00014924	0.00054747	0.00015686	1383.2	4.1187e-06	4.9659e-06	1374.9	374.27	2.0726e-06	4.7605e-06	428.17	141	123.14	42.816	4.044e-06	52.75	0.00045621	0.00055075	0.00016036	1389.2	6.1213e-06	6.2095e-06	1386.2	378.83	6.2684e-06	6.1391e-06	431.85	144.66	125.81	43.617	6.1121e-06	53.891	221.836	-7.254	2.256	-71.813	88.723	84.275	-71.637	-67.246	71.596	63.891	-67.382	-63.050	-62.858	-58.341	78.514	-58.917	-8191	255	
34470.973	1	1	0	0	0.054358	0.059553	0.054209	0.014498	0.19346	0.079841	0.35324	0.22337	0.17573	0.01275	0.29104	0.18598	0.13844	0.09036	0.071632	0.15755	-1.8417	-2.4813	-2.1104	-2.6	-2.2229	-1.9937	-2.4146	-2.45	-1.9979	-2.7792	-2.375	-2.5125	-2.5521	-2.2438	-2.4896	-2.55	-78.703	32.063	-29.255	185.009	43.244	37.029	233.266	-41.399	33.591	108.521	239.991	-75.426	264.788	-46.553	13.160	163.044	0.00014267	0.00057257	0.00015254	1386.4	2.3273e-06	4.0293e-06	1378.2	374.35	2.3942e-06	6.0526e-06	426.37	141.79	123.17	42.833	4.553e-06	52.884	0.00044956	0.000565	0.00016151	1390.4	6.0364e-06	6.4782e-06	1387.4	378.82	6.1112e-06	6.0741e-06	431.69	144.8	126.12	43.652	6.2337e-06	53.978	224.110	6.243	16.444	-71.929	83.346	67.684	-71.614	-67.202	54.921	77.793	-67.730	-63.054	-62.871	-58.332	64.753	-59.060	-8191	255	
34471.070	1	1	0	0	0.13936	0.22199	0.04769	0.16067	0.039239	0.065844	0.22145	0.19329	0.26946	0.13359	0.23576	0.34061	0.040925	0.15785	0.15879	0.12484	-1.5458	-2.4979	-2.0729	-2.6792	-2.6375	-2.075	-2.4708	-2.3167	-2.1312	-2.3958	-2.3708	-2.4042	-2.5771	-2.075	-2.4979	-2.4562	-51.882	49.291	-40.469	228.830	224.345	12.347	197.827	183.635	63.321	5.842	270.013	245.902	236.826	249.391	-74.565	54.079	0.00014361	0.00057571	0.00018214	1382.7	2.4063e-06	3.7194e-06	1382.4	373.95	2.0948e-06	4.0314e-06	424.74	141.43	122.73	42.756	3.7796e-06	52.98	0.00044761	0.00055449	0.00015976	1388.8	5.9509e-06	6.2968e-06	1387	378.57	6.1359e-06	6.2148e-06	430.61	144.73	125.73	43.649	6.0956e-06	53.892	220.545	-4.169	27.642	-71.806	78.368	80.629	-71.764	-67.065	65.587	70.556	-67.804	-63.277	-62.989	-58.493	67.718	-59.041	-8191	255	
34471.168	1	1	0	0	0.13089	0.20872	0.064308	0.25396	0.23032	0.27253	0.24972	0.3031	0.060096	0.22523	0.17796	0.098071	0.14263	0.12429	0.040951	0.23043	-1.7875	-2.6354	-2.3083	-2.4833	-2.5146	-2.275	-2.5938	-2.525	-2.2313	-2.7292	-2.3375	-2.2313	-2.6896	-2.1458	-2.1521	-2.625	100.384	99.608	267.947	252.098	13.993	-24.428	177.643	222.513	188.606	245.584	210.085	16.315	-73.424	188.468	93.179	96.942	0.00013659	0.00051168	0.00017319	1382.7	2.7623e-06	6.2495e-06	1379.9	373.29	1.9756e-06	4.2568e-06	426.2	140.91	123.17	42.657	4.0369e-06	53.045	0.00044795	0.00054927	0.00015242	1388.3	6.0142e-06	6.2145e-06	1386.9	378.48	6.2202e-06	6.0505e-06	431.34	144.52	126.03	43.607	6.1121e-06	53.947	223.510	9.039	7.388	-71.829	84.875	75.808	-71.682	-67.117	75.357	51.877	-67.804	-63.369	-62.558	-58.341	74.678	-58.979	-8191	255	
34471.262	1	1	0	0	0.13244	0.079745	0.17836	0.082575	0.039775	0.066851	0.29287	0.25686	0.14089	0.16281	0.1099	0.13888	0.14164	0.27103	0.17637	0.12156	-1.5438	-2.4792	-2.2917	-2.3937	-2.6229	-2.2604	-2.7833	-2.7875	-2.2021	-2.4521	-2.4688	-2.2208	-2.7271	-2.2479	-2.3854	-2.6375	-30.608	242.857	121.264	215.576	249.336	271.036	244.686	232.383	52.315	64.287	185.867	245.308	-75.736	193.869	54.663	273.530	0.00015759	0.00041864	0.00013274	1381.5	1.6209e-06	3.9385e-06	1378.7	373.22	2.6429e-06	4.6736e-06	424.79	140.53	122.96	42.926	3.054e-06	52.878	0.00045672	0.0005573	0.00016106	1388	6.0448e-06	6.2101e-06	1386.8	378.34	6.2169e-06	6.154e-06	430.59	144.55	126.01	43.675	6.0177e-06	53.9	222.531	-6.827	11.922	-71.873	84.088	68.810	-71.919	-67.240	70.726	66.997	-67.786	-63.201	-62.805	-58.268	92.073	-58.864	-8191	255	
34471.359	1	1	0	0	0.20798	0.13891	0.092772	0.26916	0.1725	0.22296	0.040392	0.026011	0.063978	0.072312	0.16004	0.34735	0.37674	0.11797	0.20506	0.23535	-1.7333	-2.35	-2.3583	-2.3979	-2.5417	-2.2271	-2.4917	-2.7042	-1.8813	-2.3229	-2.4542	-2.2625	-2.4979	-2.2938	-2.2042	-2.5646	208.031	175.108	269.564	217.904	157.645	-8.791	111.059	78.695	204.333	0.438	212.764	267.144	183.169	146.759	93.957	245.158	0.00013909	0.00059444	0.00019574	1378.1	2.12e-06	5.6266e-06	1376.3	374.39	2.6422e-06	5.5397e-06	428.06	141.31	122.82	42.864	3.6906e-06	53.218	0.00045748	0.0005496	0.00015932	1387	5.8918e-06	6.0306e-06	1386.6	378.7	6.1441e-06	5.955e-06	431.61	144.7	125.8	43.664	5.7921e-06	53.926	226.642	22.881	4.868	-71.851	109.222	70.475	-71.795	-67.107	46.880	57.710	-67.762	-63.102	-62.699	-58.317	64.168	-58.964	-8191	255	
34471.453	1	1	0	0	0.13137	0.18107	0.21872	0.21547	0.2369	0.16462	0.24234	0.16011	0.10652	0.053112	0.10304	0.21209	0.2163	0.17463	0.096749	0.02149	-1.5792	-2.4167	-2.3729	-2.5333	-2.5292	-2.25	-2.5625	-2.6979	-2.1125	-2.525	-2.5875	-2.2438	-2.5833	-2.1937	-2.1562	-2.8333	104.833	47.469	9.953	236.807	-81.868	113.924	213.369	109.711	101.457	264.083	201.614	215.121	257.501	-15.403	90.384	225.022	0.0001467	0.00046919	0.00013343	1384.1	2.3079e-06	5.7469e-06	1378.4	373.34	2.698e-06	4.7747e-06	426.25	140.76	122.7	42.831	3.96e-06	53.184	0.00045404	0.00054888	0.0001511	1389	6.1134e-06	6.1099e-06	1386.2	378.39	6.1638e-06	5.797e-06	431.3	144.49	125.8	43.632	6.0655e-06	54.021	221.293	5.383	8.040	-71.821	61.790	66.935	-71.822	-67.263	79.318	54.503	-67.739	-63.173	-62.784	-58.559	77.351	-59.100	-8191	255	
34471.574	1	1	0	0	0.027128	0.32751	0.1458	0.29681	0.31572	0.22989	0.22386	0.25388	0.21206	0.065127	0.026668	0.22069	0.086861	0.43232	0.062159	0.16606	-1.7208	-2.0146	-2.3792	-2.3896	-2.4292	-2.5	-2.3354	-2.6771	-2.3958	-2.5438	-2.6375	-2.125	-2.5333	-2.4813	-2.1813	-2.5938	166.562	233.184	270.917	221.138	210.527	88.627	171.945	70.877	94.315	227.122	-70.870	-25.205	-26.923	-70.815	-32.794	237.964	0.00014909	0.0005865	0.00018964	1382.3	3.4329e-06	4.5439e-06	1375.5	374.55	1.0713e-06	3.6666e-06	427.59	140.61	122.81	42.954	3.683e-06	52.922	0.00044462	0.00054058	0.00015527	1388.5	5.9071e-06	5.9879e-06	1386.6	378.48	6.1474e-06	5.7492e-06	431.36	144.47	125.79	43.67	6.0626e-06	53.941	220.295	1.293	8.375	-71.910	93.532	72.420	-71.627	-67.253	92.649	50.630	-67.836	-63.165	-62.820	-58.230	83.599	-59.126	-8191	255	
34471.672	1	1	0	0	0.15879	0.23399	0.36572	0.46971	0.10124	0.2569	0.086567	0.14017	0.087754	0.16402	0.083057	0.16102	0.13158	0.081679	0.16662	0.14779	-1.7062	-2.2729	-2.5021	-2.2417	-2.5687	-2.3583	-2.5479	-2.6521	-2.1583	-2.2979	-2.8458	-2.2354	-2.5042	-2.4396	-1.9479	-2.5917	33.573	205.813	19.367	226.026	175.095	112.660	249.881	229.925	69.824	128.773	164.343	259.092	203.818	-66.065	-83.793	164.433	0.00015201	0.00050563	0.00014294	1380.7	2.3546e-06	4.7143e-06	1375.4	373.42	3.3107e-06	4.3674e-06	427.26	141.69	122.9	42.936	3.9319e-06	53.15	0.00045435	0.000531	0.00015192	1388.5	5.9266e-06	5.9464e-06	1386.2	378.43	6.0641e-06	5.7871e-06	431.07	144.7	125.82	43.668	6.1229e-06	53.932	225.068	15.124	-7.263	-71.737	81.241	55.408	-71.749	-67.081	61.797	73.144	-67.707	-63.166	-62.670	-58.507	53.649	-58.941	-8191	255	
34471.766	1	1	0	0	0.25726	0.21798	0.19698	0.35325	0.24723	0.14469	0.26624	0.14232	0.12374	0.24206	0.24071	0.15818	0.099488	0.18952	0.38342	0.34733	-1.8208	-2.3104	-2.4	-2.4396	-2.4542	-2.3875	-2.2896	-2.6479	-2.3438	-2.2521	-2.5875	-2.2	-2.4771	-2.6854	-2.1979	-2.6771	-53.288	-26.818	86.052	213.586	13.317	272.581	224.893	45.068	266.662	57.986	-22.710	244.329	23.703	-1.571	240.183	124.984	0.00014545	0.00048444	0.00021888	1382	2.7441e-06	6.0827e-06	1377.4	373.96	2.0799e-06	4.8408e-06	427.34	141.39	123.06	42.579	4.0763e-06	52.987	0.00043517	0.0005354	0.00015822	1389.6	5.7029e-06	6.0603e-06	1385.9	378.45	6.0587e-06	5.8813e-06	430.94	144.7	125.79	43.55	6.153e-06	53.87	225.348	-2.225	8.342	-71.807	98.098	77.923	-71.620	-67.168	82.089	54.018	-67.620	-63.144	-62.792	-58.445	83.520	-59.044	-8191	255	
34471.863	1	1	0	0	0.19365	0.098224	0.17369	0.1513	0.24039	0.19947	0.07319	0.20029	0.193	0.23104	0.15864	0.22904	0.19406	0.24073	0.22952	0.20644	-1.9333	-2.2104	-2.5458	-2.4708	-2.4729	-2.6417	-2.3146	-2.5604	-2.4708	-2.3042	-2.7042	-2.3479	-2.3708	-2.675	-2.0104	-2.7542	-12.278	49.928	81.016	229.023	228.466	75.984	212.969	256.489	168.490	58.793	273.770	264.537	-73.643	71.240	7.355	189.437	0.0001413	0.00048489	7.8343e-05	1385.4	1.7541e-06	6.3754e-06	1378.6	372.5	2.2785e-06	3.7928e-06	427.06	141.08	123.36	42.82	4.8801e-06	53.118	0.00044403	0.00055471	0.00015177	1388.8	5.9852e-06	5.9279e-06	1387.5	377.93	6.0302e-06	6.0561e-06	430.96	144.54	125.94	43.649	6.1598e-06	53.975	220.284	-1.346	5.078	-71.882	89.896	62.869	-71.618	-67.130	69.577	61.892	-67.692	-63.207	-62.955	-58.407	58.524	-58.789	-8191	255	
34471.961	1	1	0	0	0.23359	0.1989	0.14757	0.10862	0.16895	0.16141	0.16492	0.30672	0.31125	0.059109	0.14029	0.22621	0.33675	0.35663	0.2621	0.11452	-2.1479	-2.2042	-2.5917	-2.4771	-2.2604	-2.6937	-2.5375	-2.6729	-2.6354	-2.25	-2.7938	-2.3812	-2.3688	-2.6937	-2.1479	-2.5229	140.114	-45.748	141.631	-4.730	-21.377	96.630	126.423	257.420	248.889	175.053	185.434	232.937	250.141	-23.457	-45.573	54.381	0.00014939	0.00065693	0.00013154	1380.3	2.0323e-06	5.4388e-06	1378.5	373.47	2.1657e-06	3.9365e-06	426.83	140.99	122.15	42.831	1.7742e-06	53.103	0.00043692	0.0005628	0.00014889	1389.1	5.9208e-06	5.9557e-06	1387.7	378.24	6.1381e-06	5.8875e-06	431.24	144.57	125.6	43.592	5.8501e-06	53.948	225.022	4.783	7.219	-71.804	62.029	71.337	-71.767	-67.141	71.639	47.523	-67.678	-63.185	-62.896	-58.383	44.912	-59.043	-8191	255	
#DATA ENDS
