BOXY.EXE: ISS Imagent and Oximeter Data Acquisition Program Version 0.80
Ascii Record File

#ACQ INFORMATION
2  Detector Channels 
16  External MUX Channels 
1  Auxiliary Channels 
5000  Waveform (CCF) Frequency (Hz)
1  Waveforms Skipped 
30  Waveforms Averaged 
1  Cycles Averaged 
16  Acquisitions per Waveform 
10.0806  Updata Rate (Hz) 

#FILE INFORMATION
TRUE -- External MUX Channel results are PARSED.
FALSE -- AC DC and Phase are NOT grouped.
TRUE -- Companion Program Settings File CREATED.
FALSE -- AC data not excluded
FALSE -- DC data not excluded
FALSE -- Phase data not excluded
FALSE -- Auxillary Chn. data not excluded
Tab delimiters

#CALIBRATION STATE
TRUE -- Waveform Calibration Values APPLIED.


#AUX CALIBRATION VALUES
Val Type	aux-1	

Term	1.0000e+00	
Factor	0.0000e+00	


#WF CALIBRATION VALUES
A = Detector Channel
Val Type	A-AC1	A-AC2	A-AC3	A-AC4	A-AC5	A-AC6	A-AC7	A-AC8	A-AC9	A-AC10	A-AC11	A-AC12	A-AC13	A-AC14	A-AC15	A-AC16	A-DC1	A-DC2	A-DC3	A-DC4	A-DC5	A-DC6	A-DC7	A-DC8	A-DC9	A-DC10	A-DC11	A-DC12	A-DC13	A-DC14	A-DC15	A-DC16	A-Ph1	A-Ph2	A-Ph3	A-Ph4	A-Ph5	A-Ph6	A-Ph7	A-Ph8	A-Ph9	A-Ph10	A-Ph11	A-Ph12	A-Ph13	A-Ph14	A-Ph15	A-Ph16	

Term	0.00000e+00	0.00000e+00	0.00000e+00	0.00000e+00	0.00000e+00	0.00000e+00	0.00000e+00	0.00000e+00	0.00000e+00	0.00000e+00	0.00000e+00	0.00000e+00	0.00000e+00	0.00000e+00	0.00000e+00	0.00000e+00	0.00000e+00	0.00000e+00	0.00000e+00	0.00000e+00	0.00000e+00	0.00000e+00	0.00000e+00	0.00000e+00	0.00000e+00	0.00000e+00	0.00000e+00	0.00000e+00	0.00000e+00	0.00000e+00	0.00000e+00	0.00000e+00	0.00000e+00	0.00000e+00	0.00000e+00	0.00000e+00	0.00000e+00	0.00000e+00	0.00000e+00	0.00000e+00	0.00000e+00	0.00000e+00	0.00000e+00	0.00000e+00	0.00000e+00	0.00000e+00	0.00000e+00	0.00000e+00	
Factor	1.00000e+00	1.00000e+00	1.00000e+00	1.00000e+00	1.00000e+00	1.00000e+00	1.00000e+00	1.00000e+00	1.00000e+00	1.00000e+00	1.00000e+00	1.00000e+00	1.00000e+00	1.00000e+00	1.00000e+00	1.00000e+00	1.00000e+00	1.00000e+00	1.00000e+00	1.00000e+00	1.00000e+00	1.00000e+00	1.00000e+00	1.00000e+00	1.00000e+00	1.00000e+00	1.00000e+00	1.00000e+00	1.00000e+00	1.00000e+00	1.00000e+00	1.00000e+00	X	X	X	X	X	X	X	X	X	X	X	X	X	X	X	X	

B = Detector Channel
Val Type	B-AC1	B-AC2	B-AC3	B-AC4	B-AC5	B-AC6	B-AC7	B-AC8	B-AC9	B-AC10	B-AC11	B-AC12	B-AC13	B-AC14	B-AC15	B-AC16	B-DC1	B-DC2	B-DC3	B-DC4	B-DC5	B-DC6	B-DC7	B-DC8	B-DC9	B-DC10	B-DC11	B-DC12	B-DC13	B-DC14	B-DC15	B-DC16	B-Ph1	B-Ph2	B-Ph3	B-Ph4	B-Ph5	B-Ph6	B-Ph7	B-Ph8	B-Ph9	B-Ph10	B-Ph11	B-Ph12	B-Ph13	B-Ph14	B-Ph15	B-Ph16	

Term	0.00000e+00	0.00000e+00	0.00000e+00	0.00000e+00	0.00000e+00	0.00000e+00	0.00000e+00	0.00000e+00	0.00000e+00	0.00000e+00	0.00000e+00	0.00000e+00	0.00000e+00	0.00000e+00	0.00000e+00	0.00000e+00	0.00000e+00	0.00000e+00	0.00000e+00	0.00000e+00	0.00000e+00	0.00000e+00	0.00000e+00	0.00000e+00	0.00000e+00	0.00000e+00	0.00000e+00	0.00000e+00	0.00000e+00	0.00000e+00	0.00000e+00	0.00000e+00	2.53724e+01	-1.25825e+02	-1.32423e+02	-1.86157e+02	-5.31231e+01	-7.74207e+01	-1.59021e+02	-1.62015e+02	-9.81342e+01	-6.42266e+01	-1.73719e+02	-1.69925e+02	-1.79918e+02	-1.77120e+02	-6.73402e+01	-1.50188e+02	
Factor	4.43643e-05	1.31752e-04	3.84766e-05	6.00296e-01	1.09162e-06	1.23883e-06	1.58776e-01	4.81384e-02	1.60025e-06	1.38813e-06	8.39062e-02	2.75674e-02	2.39658e-02	9.07276e-03	1.49700e-06	1.30833e-02	1.61200e-06	1.67637e-06	4.65165e-07	2.83808e-01	1.83225e-08	1.83332e-08	7.47258e-02	2.41391e-02	1.82575e-08	1.83873e-08	4.04860e-02	1.32768e-02	1.20086e-02	4.53932e-03	1.82600e-08	6.30792e-03	X	X	X	X	X	X	X	X	X	X	X	X	X	X	X	X	



#DISTANCE SETTINGS
A = Detector Channel
A-1	A-2	A-3	A-4	A-5	A-6	A-7	A-8	A-9	A-10	A-11	A-12	A-13	A-14	A-15	A-16	

2.5000e+00	3.0000e+00	2.5000e+00	3.0000e+00	2.0000e+00	3.0000e+00	1.5000e+00	3.0000e+00	3.0000e+00	3.0000e+00	3.0000e+00	3.0000e+00	3.0000e+00	3.0000e+00	1.5000e+00	3.0000e+00	

B = Detector Channel
B-1	B-2	B-3	B-4	B-5	B-6	B-7	B-8	B-9	B-10	B-11	B-12	B-13	B-14	B-15	B-16	

1.0000e+01	1.0000e+01	1.0000e+01	1.4400e+00	1.0000e+01	1.0000e+01	1.5100e+00	1.9400e+00	1.0000e+01	1.0000e+01	1.9900e+00	2.4900e+00	2.4100e+00	2.9000e+00	1.0000e+01	2.9800e+00	




#DATA BEGINS
time	group	step	mark	flag	A-AC1	A-AC2	A-AC3	A-AC4	A-AC5	A-AC6	A-AC7	A-AC8	A-AC9	A-AC10	A-AC11	A-AC12	A-AC13	A-AC14	A-AC15	A-AC16	A-DC1	A-DC2	A-DC3	A-DC4	A-DC5	A-DC6	A-DC7	A-DC8	A-DC9	A-DC10	A-DC11	A-DC12	A-DC13	A-DC14	A-DC15	A-DC16	A-Ph1	A-Ph2	A-Ph3	A-Ph4	A-Ph5	A-Ph6	A-Ph7	A-Ph8	A-Ph9	A-Ph10	A-Ph11	A-Ph12	A-Ph13	A-Ph14	A-Ph15	A-Ph16	B-AC1	B-AC2	B-AC3	B-AC4	B-AC5	B-AC6	B-AC7	B-AC8	B-AC9	B-AC10	B-AC11	B-AC12	B-AC13	B-AC14	B-AC15	B-AC16	B-DC1	B-DC2	B-DC3	B-DC4	B-DC5	B-DC6	B-DC7	B-DC8	B-DC9	B-DC10	B-DC11	B-DC12	B-DC13	B-DC14	B-DC15	B-DC16	B-Ph1	B-Ph2	B-Ph3	B-Ph4	B-Ph5	B-Ph6	B-Ph7	B-Ph8	B-Ph9	B-Ph10	B-Ph11	B-Ph12	B-Ph13	B-Ph14	B-Ph15	B-Ph16	aux-1	digaux	

3230.081	1	1	0	256	0.14598	0.12726	0.12121	0.065157	0.10018	0.068171	0.20326	0.45751	0.038019	0.1467	0.32553	0.39507	0.40899	0.24653	0.15215	0.095041	-2.2292	-2.625	-2.8271	-2.6104	-2.7875	-2.875	-2.8312	-3.2125	-2.875	-2.625	-3.1083	-2.725	-2.8375	-3.2667	-2.8229	-2.9208	191.851	177.308	270.969	171.539	337.050	438.340	426.405	414.341	427.630	372.085	469.827	442.568	142.055	453.938	316.159	478.256	0.0024408	0.0019162	0.00026739	1087.5	2.8834e-06	7.1823e-06	1173.7	378.76	2.3842e-05	1.8603e-05	481.8	217.75	178.95	73.877	3.1223e-05	92.538	0.0032346	0.0032223	0.00081339	1421.4	3.6556e-05	3.5181e-05	1117.7	364.28	3.6398e-05	3.5291e-05	470.2	207.51	172.54	70.45	3.3226e-05	89.773	338.800	237.385	235.187	134.179	262.049	382.529	133.021	139.590	396.653	371.533	137.490	142.382	144.410	150.149	269.573	146.913	-8191	255	
3230.176	1	1	0	0	0.15309	0.14926	0.15374	0.14239	0.13978	0.23818	0.053836	0.12965	0.18802	0.21864	0.17565	0.07961	0.35795	0.13936	0.24513	0.071192	-2.5021	-2.6979	-2.9938	-2.5021	-2.7854	-2.8667	-2.6479	-3.0521	-2.9083	-2.6063	-3.2292	-2.8646	-2.7	-3.1167	-2.7479	-3.0979	327.334	151.813	211.934	212.535	477.948	475.676	217.009	443.506	410.137	434.717	121.972	178.052	459.122	450.260	194.174	422.830	0.0019637	0.0020731	0.00096979	1073.2	1.7983e-05	2.102e-05	1172.4	379.87	9.4946e-06	8.6132e-06	471.7	216.04	177.64	73.398	1.388e-05	91.103	0.0032182	0.0031147	0.00082802	1430.4	3.5784e-05	3.3109e-05	1114.3	363.2	3.5413e-05	3.3298e-05	465.32	205.19	170.81	69.537	3.4488e-05	88.705	342.113	313.635	210.374	134.844	419.827	288.491	133.380	139.927	210.028	349.629	137.843	142.946	144.588	149.887	182.139	146.488	-8191	255	
3230.272	1	1	0	0	0.1659	0.19734	0.044268	0.149	0.21802	0.38945	0.18779	0.20853	0.020531	0.2541	0.010823	0.17172	0.2691	0.14498	0.29629	0.25238	-2.6854	-2.8312	-2.9292	-2.925	-2.5896	-3.2479	-2.7687	-3.0396	-2.8292	-2.4771	-3.3083	-2.7687	-2.8812	-3.0167	-2.7146	-2.8354	290.117	331.827	339.228	449.785	451.301	407.039	355.398	431.230	301.670	475.637	306.125	437.121	461.036	481.145	191.809	401.061	0.0015895	0.0007471	0.00098947	1061.6	1.2787e-05	4.844e-06	1167.3	375.26	1.8832e-05	1.1059e-05	472.47	215.7	178.16	74.043	5.0054e-05	91.729	0.0031829	0.0030417	0.00088012	1435.3	3.597e-05	3.2488e-05	1121.7	363.01	3.5672e-05	3.3034e-05	470.26	205.43	170.98	69.752	3.6309e-05	88.827	341.531	244.271	141.976	134.154	467.870	444.976	133.189	139.727	405.433	159.663	137.727	142.299	144.103	150.208	233.356	146.749	-8191	255	
3230.368	1	1	0	0	0.2076	0.20101	0.075711	0.2211	0.1353	0.14709	0.24952	0.125	0.35679	0.20479	0.14512	0.19269	0.18094	0.17078	0.16521	0.28553	-2.7333	-2.4938	-3.1146	-3.0021	-2.9042	-3.1333	-2.8771	-3.0792	-3.0979	-2.5917	-3.3333	-2.8333	-2.9104	-3.1688	-2.7667	-3.1125	287.509	204.096	244.319	158.387	263.380	210.541	428.527	127.992	451.421	459.048	164.280	425.256	139.744	440.505	200.648	156.266	0.0021923	0.0026594	0.00083317	1077.7	2.1461e-06	4.1466e-06	1178.1	378.26	3.3829e-05	1.5669e-05	479.17	216.71	180.32	73.768	1.5261e-05	92.188	0.0031321	0.0030105	0.00091558	1418.2	3.4848e-05	3.2592e-05	1128.2	363.25	3.3679e-05	3.3176e-05	477.13	205.45	170.42	69.937	3.666e-05	89.019	369.573	255.482	190.224	134.704	384.237	260.586	132.919	139.902	169.513	282.519	137.493	142.425	144.521	150.005	169.431	147.014	-8191	255	
3230.464	1	1	0	0	0.04889	0.2009	0.089647	0.16822	0.15984	0.14881	0.32882	0.28798	0.21667	0.18849	0.037476	0.23497	0.088701	0.24166	0.10056	0.25301	-2.5042	-2.5479	-2.85	-3.0625	-2.4729	-3.0292	-2.9	-3.0708	-3.1375	-2.9437	-3.2104	-3.0062	-2.8021	-3.0417	-2.9188	-3.025	457.576	435.859	381.512	403.476	474.886	470.266	403.057	409.057	432.148	265.223	123.696	129.339	446.331	429.684	190.653	373.048	0.0026311	0.0025347	0.00058243	1088.6	3.9393e-06	1.7066e-05	1178.2	379.13	2.2443e-05	1.4059e-05	481.59	217.64	179.87	73.648	1.0064e-05	91.93	0.0030041	0.0031303	0.00093308	1415.4	3.3711e-05	3.3734e-05	1136.5	363.83	3.263e-05	3.5133e-05	480.12	206.28	170.13	70.269	3.6502e-05	88.536	334.587	172.518	258.556	134.409	334.963	253.500	133.427	139.738	292.879	284.518	138.012	142.595	144.689	149.898	276.113	146.764	-8191	255	
3230.585	1	1	0	0	0.075821	0.16615	0.17011	0.1348	0.10249	0.067784	0.040791	0.21619	0.36335	0.29591	0.14434	0.28166	0.20732	0.014019	0.097494	0.16101	-2.4917	-2.6292	-2.9958	-3.0354	-2.675	-2.9604	-2.8187	-2.7604	-3.0083	-2.8667	-3.1	-2.9208	-2.7646	-2.9208	-2.6979	-2.7229	325.302	299.678	319.565	478.386	235.133	292.614	384.472	357.163	179.048	185.130	130.843	476.305	418.331	321.730	260.396	247.392	0.0027808	0.0019841	0.00029278	1067.8	1.3511e-05	1.9112e-05	1161.9	372.82	1.8843e-05	8.1344e-06	471.05	213.84	178.61	73.184	4.0324e-05	90.629	0.0028893	0.0032673	0.00092832	1390.5	3.2641e-05	3.5283e-05	1119.8	357.8	3.2057e-05	3.7181e-05	469.69	203.23	169.58	70.257	3.632e-05	87.634	340.396	192.153	306.433	134.172	270.258	249.452	133.375	139.976	225.211	276.473	138.071	142.715	144.602	150.051	379.690	146.906	-8191	255	
3230.681	1	1	0	0	0.26087	0.10169	0.23607	0.26924	0.25511	0.26601	0.2987	0.36552	0.15335	0.035566	0.28346	0.13561	0.34108	0.079634	0.26419	0.486	-2.5854	-2.6229	-2.6833	-2.8646	-2.5083	-3.0021	-3.0458	-2.9688	-2.9146	-2.5854	-2.9813	-2.9	-2.6521	-3.1583	-2.8542	-2.8542	471.625	417.991	423.594	462.841	421.864	349.778	388.733	399.299	198.096	128.382	132.027	167.187	146.779	203.729	438.580	406.271	0.0021941	0.0020826	0.00019443	1054.6	1.9308e-05	2.2309e-05	1168.8	374.63	1.1762e-05	2.5273e-05	469.26	214.2	179.22	73.459	2.4032e-05	91.182	0.0029135	0.003421	0.00092023	1373.7	3.3833e-05	3.6423e-05	1122.2	358.23	3.2582e-05	3.7183e-05	470.97	202.97	171.61	70.835	3.646e-05	88.106	329.145	371.320	134.942	134.302	253.631	216.653	133.057	139.841	134.119	358.602	137.854	142.666	144.302	150.133	263.470	146.571	-8191	255	
3230.753	1	1	0	0	0.3444	0.11879	0.14771	0.091017	0.082834	0.25098	0.28148	0.42485	0.22743	0.14126	0.17297	0.3654	0.33642	0.16455	0.14653	0.24321	-2.7958	-2.8771	-2.8458	-3.1479	-2.6417	-2.8521	-2.9854	-2.8229	-2.975	-2.7562	-2.9021	-3.1917	-2.9437	-3.0625	-2.9854	-2.8812	396.446	209.095	384.071	162.252	133.748	182.389	413.828	438.541	194.926	264.497	161.532	394.618	463.601	400.273	156.096	376.166	0.0021338	0.0011303	0.00050309	1066.2	3.4195e-05	2.5062e-05	1173.8	376.05	4.192e-05	7.0969e-06	475.5	217.87	179.57	73.892	1.9253e-05	92.414	0.0031014	0.0034755	0.00092266	1370.5	3.6101e-05	3.701e-05	1125.3	358.95	3.5082e-05	3.7552e-05	474.17	203.41	172.75	70.737	3.5209e-05	88.182	326.998	320.584	351.117	133.754	216.456	330.356	133.569	139.982	272.812	162.686	138.063	142.395	144.445	150.296	389.799	146.971	-8191	255	
3230.873	1	1	0	0	0.17449	0.07221	0.10015	0.07872	0.16432	0.11266	0.28459	0.22403	0.1363	0.099945	0.14449	0.26126	0.022828	0.19949	0.13945	0.21883	-2.5625	-2.8917	-2.6937	-3.1396	-2.6792	-2.9688	-3.0583	-2.75	-2.9708	-3	-2.8167	-3.2833	-2.8063	-2.825	-3.0792	-2.6917	143.002	185.153	374.388	354.103	326.370	359.836	384.460	389.072	468.025	455.450	434.178	381.897	308.961	476.281	467.920	141.609	0.0032645	0.00058995	0.00065082	1097.1	8.4408e-06	1.6768e-05	1181.2	377.12	2.3692e-05	2.2374e-05	476.13	216.45	180.72	73.479	9.443e-06	91.958	0.003206	0.0033635	0.00090355	1368.3	3.7223e-05	3.6549e-05	1128.4	360.11	3.6408e-05	3.6651e-05	469.77	202.86	173.16	70.347	3.2932e-05	87.965	332.665	142.299	358.806	133.975	276.912	265.729	132.917	139.694	187.446	297.523	137.795	142.396	144.337	150.235	261.443	146.595	-8191	255	
3230.970	1	1	0	0	0.07986	0.085668	0.1416	0.17446	0.14015	0.072239	0.20263	0.32857	0.15376	0.26371	0.47532	0.26387	0.16193	0.31408	0.26041	0.26466	-2.5875	-2.6667	-2.6479	-3.0208	-2.65	-2.8875	-3.1771	-2.8542	-2.9396	-3.05	-2.75	-3.2146	-2.9521	-2.9604	-3.0542	-2.8563	416.723	460.143	417.457	460.960	124.986	154.615	447.773	426.327	194.541	356.275	420.605	425.579	130.402	125.420	421.709	433.596	0.0017741	0.00048983	0.00013504	1075.4	8.6612e-06	1.1348e-05	1172.3	375.76	2.446e-05	1.8249e-05	473.69	218.16	179.92	74.034	2.3205e-05	92.381	0.0031874	0.0032218	0.00084416	1355.5	3.6388e-05	3.4638e-05	1105.9	358.79	3.5225e-05	3.48e-05	462.8	203.8	172.42	70.433	3.1144e-05	88.56	343.025	221.346	329.831	134.295	468.881	269.311	133.056	139.892	288.169	400.270	137.877	142.359	144.680	150.033	297.961	146.584	-8191	255	
3231.064	1	1	0	0	0.15165	0.067681	0.30687	0.23968	0.097479	0.049371	0.21573	0.18652	0.10888	0.35842	0.18292	0.18306	0.39614	0.26571	0.1088	0.17573	-2.45	-2.8521	-2.4729	-2.9875	-2.7521	-2.7604	-3.3521	-2.7771	-2.8604	-2.9604	-2.6937	-3.2083	-2.875	-2.8771	-3.0292	-2.9333	351.247	234.130	362.794	159.135	276.777	320.999	382.916	475.822	320.093	424.284	428.772	454.287	436.347	155.876	263.384	414.190	0.0017855	0.0010645	7.9111e-05	1096.1	8.2075e-06	9.07e-06	1188.6	378.68	2.6051e-05	1.4593e-05	480.12	219.43	179.88	73.787	6.1392e-05	92.676	0.00316	0.0031682	0.00081638	1394.7	3.5575e-05	3.4535e-05	1111.6	362.98	3.5486e-05	3.4343e-05	469.47	207.43	173.52	70.763	3.1354e-05	89.889	350.548	134.814	265.383	134.025	264.701	430.131	133.346	139.801	217.521	313.493	137.561	142.541	144.470	150.265	287.132	146.555	-8191	255	
3231.162	1	1	0	0	0.13548	0.032406	0.17365	0.065183	0.17718	0.23881	0.18891	0.1269	0.065899	0.16615	0.32749	0.52595	0.23735	0.15342	0.27084	0.386	-2.4646	-2.8542	-2.4292	-2.9813	-2.8875	-2.7271	-3.0771	-2.7833	-2.9562	-2.9833	-2.75	-2.9625	-3.0271	-2.8896	-3.0021	-2.7687	254.151	466.566	473.573	354.320	199.513	481.263	391.361	135.831	276.597	273.259	390.246	430.169	450.848	396.386	461.446	435.718	0.0025096	0.0018727	0.0011694	1106.7	2.426e-05	3.3899e-05	1192.2	381.17	2.7715e-05	2.0792e-05	486.17	220.68	183.3	74.238	4.5037e-05	93.463	0.0031741	0.0031126	0.00084162	1426.6	3.6334e-05	3.4572e-05	1125.3	368.72	3.6168e-05	3.4304e-05	479.16	210.02	175.42	71.123	3.5103e-05	91.367	335.016	233.974	145.111	134.397	478.392	287.057	133.306	139.778	160.102	399.939	137.743	142.557	144.539	150.110	183.714	147.008	-8191	255	
3231.281	1	1	0	0	0.14851	0.089927	0.26715	0.05529	0.20683	0.10908	0.29736	0.34883	0.11228	0.15054	0.17951	0.057845	0.26434	0.27588	0.099007	0.33447	-2.4146	-2.9604	-2.6562	-2.875	-2.8646	-2.6417	-3.1688	-2.8604	-2.6583	-3.025	-2.7667	-2.9437	-2.975	-2.7188	-3.125	-2.7188	166.922	421.278	181.168	156.008	340.644	224.367	390.358	411.250	310.174	357.805	443.982	176.611	141.132	126.028	392.704	438.872	0.0028653	0.0019854	0.00057672	1090.8	1.5195e-05	9.1971e-06	1174.2	376.08	1.1372e-05	5.0246e-06	468.36	215.05	178.44	73.581	1.709e-05	90.202	0.0033989	0.0032538	0.00097035	1486.5	3.9214e-05	3.6483e-05	1131.1	367.75	3.8443e-05	3.5231e-05	475.63	206.54	173.18	70.226	3.8425e-05	89.718	331.101	461.729	129.765	134.903	314.579	312.565	133.250	139.958	323.854	293.661	137.606	142.738	144.344	150.165	250.667	146.647	-8191	255	
3231.377	1	1	0	0	0.15769	0.152	0.15787	0.091532	0.10283	0.20191	0.048792	0.21164	0.19778	0.22461	0.28393	0.30382	0.045464	0.044618	0.21557	0.16219	-2.3083	-3.1042	-2.6271	-2.9417	-2.9292	-2.7	-3.2417	-3.0646	-2.7167	-3.0854	-2.9521	-2.8937	-3.1312	-2.5458	-3.0354	-2.8583	454.320	479.060	234.386	268.918	406.938	136.572	410.372	147.591	411.567	151.780	474.869	411.194	233.550	184.999	453.211	220.665	0.0022763	0.0017346	0.00068864	1093.1	2.2957e-05	1.146e-05	1164.2	374.89	3.6134e-06	3.083e-05	468.96	214.64	177.03	72.881	1.8605e-05	90.504	0.0034659	0.0032554	0.0010315	1492	3.9151e-05	3.7305e-05	1137.1	367.77	3.9584e-05	3.7292e-05	483.32	207.55	173.06	70.455	4.1441e-05	89.915	350.902	244.302	172.218	133.759	423.687	223.983	133.397	140.193	251.261	247.768	137.627	142.344	144.684	150.067	199.008	146.709	-8191	255	
3231.473	1	1	0	0	0.10472	0.11081	0.084134	0.1149	0.042789	0.15954	0.11807	0.16942	0.032586	0.22109	0.14517	0.24176	0.17067	0.24617	0.18306	0.27637	-2.3771	-3.0146	-2.9	-2.7812	-3.0812	-2.5958	-3.0875	-3.0771	-2.7271	-3.0104	-2.8875	-2.7229	-3.0333	-2.7667	-2.7542	-2.9292	181.104	185.289	288.211	331.279	378.253	340.346	476.340	409.318	442.333	191.058	411.840	411.327	451.628	444.133	455.901	369.038	0.0014905	0.0012005	0.0005388	1095.5	3.7472e-05	1.3822e-05	1172.9	377	1.6604e-05	2.8481e-05	475.26	217.13	178.44	73.483	4.2742e-05	92.092	0.0034788	0.0034143	0.0010596	1481.4	3.7311e-05	3.8108e-05	1148.5	367.49	3.6632e-05	3.6929e-05	484.55	207.15	171.31	70.937	3.9078e-05	89.809	350.342	357.005	234.564	135.085	397.114	433.463	133.413	139.964	340.347	252.886	137.739	142.671	144.203	150.065	303.013	147.114	-8191	255	
3231.569	1	1	0	0	0.078113	0.25854	0.085756	0.25817	0.23036	0.24168	0.38924	0.25137	0.037032	0.067279	0.17029	0.29531	0.27755	0.38126	0.31686	0.14099	-2.1375	-3.0625	-2.4729	-2.6729	-3.1396	-2.7	-3.0292	-3.0354	-2.5187	-3.1104	-2.9604	-2.7771	-3.225	-2.9938	-2.6708	-3.1271	168.218	389.878	392.726	325.916	132.161	468.368	412.976	458.658	340.496	405.522	476.799	150.967	425.196	436.212	380.847	476.633	0.003133	0.0022787	0.00041526	1105.9	1.7536e-05	1.0267e-05	1201.7	383.01	2.2206e-05	1.3402e-06	478.68	218.1	179.76	73.764	1.3741e-05	91.923	0.0031661	0.0034302	0.0010112	1464.1	3.4301e-05	3.8093e-05	1154.4	368.52	3.4605e-05	3.7293e-05	482.61	207.46	170.25	70.948	3.7155e-05	89.038	344.215	223.153	126.087	134.143	372.957	213.002	133.015	140.020	345.692	445.225	137.874	142.517	144.185	149.952	395.331	146.312	-8191	255	
3231.665	1	1	0	0	0.34995	0.19326	0.10463	0.14769	0.26568	0.045	0.34555	0.37366	0.15956	0.072028	0.37033	0.29402	0.1872	0.25193	0.18042	0.19871	-2.1292	-2.8812	-2.7562	-2.7313	-3.1354	-2.7	-2.8667	-3.0354	-2.7354	-2.8708	-2.9167	-2.7562	-3.2458	-2.8438	-2.7729	-3.1125	405.983	353.968	253.064	478.970	461.101	207.715	369.120	425.053	167.459	398.618	465.071	452.514	429.334	219.332	174.416	408.736	0.0023584	0.0019674	0.00106	1095	2.2218e-05	2.322e-05	1179.3	376.92	2.2946e-05	1.0584e-05	475.88	214.86	178.37	73.416	5.5474e-06	91.71	0.0030285	0.0033976	0.00095627	1424.3	3.3629e-05	3.8374e-05	1133.7	362.02	3.4233e-05	3.7626e-05	474.62	203.8	169.77	70.869	3.6233e-05	88.383	336.635	152.289	133.566	133.850	279.917	234.317	133.215	139.755	175.210	342.596	137.829	142.336	144.477	149.859	481.127	146.921	-8191	255	
3231.761	1	1	0	0	0.15222	0.26471	0.22101	0.084732	0.1192	0.11687	0.11698	0.2228	0.079731	0.12783	0.117	0.24138	0.25676	0.35104	0.18876	0.16814	-2.3021	-2.9437	-2.6937	-2.6042	-3.1083	-2.7771	-2.5125	-3.2042	-2.6229	-2.8688	-3.1646	-2.775	-3.0854	-2.9	-2.7562	-3.1042	395.041	283.563	316.595	402.521	351.736	134.333	415.624	428.362	393.313	195.089	436.365	438.254	175.403	447.744	334.655	428.029	0.0020273	0.0021329	0.00066558	1087.4	2.1531e-05	3.189e-05	1183.4	375.78	5.555e-06	1.3164e-05	477.13	218.94	180.12	74.008	2.7548e-06	92.838	0.0031178	0.0034174	0.00092442	1386	3.4444e-05	3.7014e-05	1131.1	358.69	3.5007e-05	3.6079e-05	474.53	204.69	172.09	71.251	3.4839e-05	88.463	338.950	147.675	219.445	133.722	308.133	268.785	132.996	139.565	425.658	354.043	137.622	142.283	144.195	149.965	150.457	146.758	-8191	255	
3231.882	1	1	0	0	0.1514	0.10682	0.12768	0.11408	0.1248	0.17004	0.24384	0.10503	0.1125	0.14027	0.18198	0.36165	0.24099	0.33801	0.30792	0.32191	-2.1333	-2.9333	-2.9042	-2.5042	-2.9313	-2.8708	-2.9396	-3.1875	-2.6292	-3.0312	-3.0958	-2.6833	-2.9958	-3.05	-2.5104	-3.2417	295.059	186.072	428.798	121.994	353.592	417.849	473.620	403.819	448.639	458.772	152.044	450.159	424.628	478.945	177.202	397.844	0.0024734	0.0011006	0.00055946	1094.6	2.4528e-05	8.149e-06	1191.7	383.37	2.7835e-05	2.1085e-05	483.99	221.45	180.64	74.455	1.8683e-05	94.857	0.0031503	0.0033173	0.00089356	1381.3	3.5829e-05	3.693e-05	1140.1	362.33	3.6709e-05	3.6513e-05	479.34	206.77	173.82	71.528	3.4324e-05	89.694	323.291	287.621	245.957	133.871	287.949	328.942	133.244	139.484	220.861	288.724	137.515	142.457	144.397	149.952	303.591	146.738	-8191	255	
3231.977	1	1	0	0	0.23324	0.072681	0.057861	0.27948	0.10274	0.13568	0.31107	0.38178	0.19695	0.25113	0.16255	0.18007	0.16954	0.24198	0.075094	0.24812	-2.1562	-2.8229	-3.1146	-2.5542	-2.9437	-2.7729	-2.8792	-3.1354	-2.8229	-2.6625	-3.0479	-2.6083	-3.1604	-2.8375	-2.7146	-3.1625	444.460	308.898	442.731	127.582	450.329	390.359	427.016	398.063	168.043	211.777	420.951	438.514	446.511	424.135	451.122	425.630	0.0019296	0.0023398	0.00065395	1099.8	8.7618e-06	2.1331e-05	1195	383.4	2.8991e-05	2.5258e-05	479.72	219.47	180.21	73.819	1.3348e-05	93.254	0.0032876	0.0032628	0.00085202	1392.4	3.6132e-05	3.556e-05	1131.6	362.46	3.6165e-05	3.5092e-05	467.82	205.26	172.34	70.672	3.203e-05	88.976	338.163	200.943	313.302	134.630	236.806	478.419	132.917	139.796	272.396	325.090	138.098	142.396	144.452	149.980	357.601	146.852	-8191	255	
3232.050	1	1	0	0	0.31232	0.11926	0.21878	0.21138	0.1328	0.22032	0.064619	0.17811	0.075663	0.11739	0.15973	0.2862	0.36546	0.058439	0.055594	0.09636	-2.375	-2.6771	-2.9292	-2.6646	-2.7792	-2.9313	-2.8167	-3.0833	-2.8229	-2.6562	-3.1063	-2.7625	-3.0479	-2.8292	-2.675	-3.0354	343.314	349.882	146.628	367.717	219.231	470.336	137.824	392.055	459.879	276.787	449.257	395.360	433.321	207.409	478.579	460.817	0.002074	0.0022523	0.00037786	1094.6	2.4236e-05	4.7083e-06	1185.8	380.87	2.2073e-05	2.5463e-05	479.17	219.19	181.02	74.829	2.6244e-05	93.92	0.0031849	0.0031007	0.00078536	1388.7	3.4814e-05	3.3749e-05	1118	362.33	3.4676e-05	3.3572e-05	465.07	206.43	172.63	70.685	3.0817e-05	89.624	344.251	463.803	185.450	133.849	349.279	412.482	133.254	139.883	166.502	193.613	137.645	142.012	144.675	150.268	128.682	146.387	-8191	255	
3232.146	1	1	0	0	0.13805	0.22836	0.11062	0.14179	0.11938	0.18348	0.29467	0.29608	0.24658	0.072054	0.12323	0.026249	0.40082	0.41084	0.155	0.13611	-2.3167	-2.6104	-2.9042	-2.6063	-2.7417	-3.1167	-2.7271	-3.1708	-2.7604	-2.8292	-3.1458	-2.6875	-2.8937	-3.1708	-2.6458	-3.1583	132.952	248.654	206.242	200.800	395.982	171.248	463.483	415.331	470.960	359.491	451.869	341.511	425.346	420.778	206.985	237.361	0.0027115	0.0024149	0.00099692	1084	6.5581e-06	1.5472e-05	1202.4	383.99	2.2764e-05	6.4267e-06	488.32	223.32	182.55	75.049	2.4679e-05	95.207	0.0030725	0.0030056	0.00077051	1399.1	3.3545e-05	3.2284e-05	1128	365.88	3.3225e-05	3.1888e-05	470.32	209	172.63	70.437	3.011e-05	90.762	344.665	439.341	211.272	134.034	200.454	359.133	133.324	139.752	310.339	357.015	137.746	142.222	144.571	149.831	297.833	146.843	-8191	255	
3232.265	1	1	0	0	0.15658	0.11531	0.088335	0.13959	0.19502	0.26625	0.15167	0.33199	0.029401	0.029917	0.16171	0.11901	0.063879	0.36436	0.18391	0.20952	-2.4729	-2.6188	-3.0396	-2.7875	-2.7833	-3.1229	-2.9375	-3.0458	-2.8563	-2.425	-3.3146	-2.7458	-2.8896	-3.1271	-2.6604	-3.0729	244.353	258.817	360.873	154.782	317.072	351.744	461.188	442.309	147.596	222.940	403.843	126.951	419.789	458.682	157.564	365.461	0.0021988	0.00075877	0.00038563	1110.2	1.8365e-05	9.5116e-06	1218	391.02	1.3937e-05	9.2846e-06	496.78	227.47	183.92	75.767	1.8927e-05	96.154	0.0028622	0.0027921	0.00076918	1393	3.2026e-05	2.9672e-05	1143.1	369.93	3.2087e-05	3.0173e-05	481.36	211.89	173.33	70.642	3.1621e-05	91.517	343.413	268.990	281.216	134.944	323.339	330.069	133.353	139.872	156.762	228.277	137.672	142.663	144.339	150.118	294.120	146.616	-8191	255	
3232.361	1	1	0	0	0.16535	0.053109	0.14773	0.1117	0.048599	0.27577	0.067365	0.16315	0.11404	0.18331	0.047159	0.36611	0.12581	0.21096	0.13506	0.087285	-2.4938	-2.8542	-3.0042	-2.7146	-2.7521	-3.15	-2.7667	-3.0021	-2.9896	-2.6146	-3.1437	-2.9417	-2.875	-3.0875	-2.7062	-2.9854	439.574	427.510	320.419	294.902	334.251	451.052	378.406	393.134	318.402	333.483	251.992	409.935	448.379	441.360	193.744	407.886	0.0026775	0.0013756	0.00070721	1111.1	9.7391e-06	1.287e-05	1210.4	388.39	9.991e-06	1.7813e-05	491.16	222.68	183.25	75.506	2.7874e-05	95.465	0.0028306	0.0026891	0.00079753	1385.1	3.1444e-05	2.8743e-05	1138.5	366.2	3.0497e-05	2.8879e-05	476.55	208.09	171.23	70.325	3.1881e-05	90.326	328.534	207.936	210.496	134.716	345.194	178.896	132.898	139.803	338.656	293.048	137.594	142.606	144.397	149.790	268.759	146.852	-8191	255	
3232.457	1	1	0	0	0.045194	0.05435	0.19065	0.17049	0.23337	0.30858	0.22174	0.23215	0.21389	0.17859	0.046925	0.42295	0.2958	0.35738	0.06956	0.38864	-2.5333	-2.9146	-2.9062	-2.9188	-2.6188	-2.9875	-2.7938	-2.9813	-2.9458	-2.5	-3.2667	-2.9646	-2.7979	-3.2562	-2.8458	-2.975	363.450	238.644	453.404	173.749	159.744	400.702	473.528	380.931	286.605	215.289	398.765	443.448	452.748	450.166	389.735	409.895	0.0016976	0.0014403	0.0004924	1103.3	1.8172e-05	1.1302e-05	1217.4	389.26	2.1406e-05	7.5727e-06	494.9	224.91	184.74	75.39	1.8073e-05	96.318	0.00268	0.0026801	0.00081028	1363	3.0052e-05	2.8767e-05	1147.9	366.69	2.8955e-05	2.9772e-05	479.4	208.66	171.33	70.665	3.2301e-05	90.945	333.199	193.453	336.129	134.403	254.639	252.514	133.491	139.906	320.094	355.872	137.598	142.558	144.366	149.854	400.632	146.757	-8191	255	
3232.553	1	1	0	0	0.1026	0.072337	0.31548	0.07734	0.34685	0.14383	0.38219	0.24233	0.07843	0.14559	0.095073	0.19005	0.27877	0.49146	0.15195	0.26064	-2.5167	-2.425	-2.9229	-2.7896	-2.6146	-3.025	-2.9146	-2.8667	-3.1396	-2.5396	-2.9208	-2.9646	-2.7125	-3.1417	-2.5833	-2.9625	183.868	128.280	231.990	207.281	168.784	144.795	376.309	416.599	325.783	244.605	457.881	167.002	434.609	454.019	463.788	389.241	0.0024085	0.0024788	0.00054776	1112.3	1.6173e-05	1.6439e-05	1233.3	391.55	1.0651e-05	9.8955e-06	503.35	225.37	182.57	76.127	2.7637e-06	97.152	0.0025818	0.0028031	0.00081406	1360.2	2.8759e-05	3.0005e-05	1156.5	369.36	2.8459e-05	3.1477e-05	486.82	209.43	171.04	71.564	3.2271e-05	91.664	353.483	154.422	177.658	134.366	450.094	135.882	133.252	139.683	199.027	192.603	137.790	142.476	144.166	149.793	213.724	146.962	-8191	255	
3232.650	1	1	0	0	0.090073	0.30876	0.15155	0.083518	0.036472	0.34308	0.2236	0.38929	0.078557	0.037407	0.14144	0.047704	0.31456	0.2004	0.16253	0.31096	-2.5521	-2.6979	-2.9375	-2.8625	-2.3812	-2.9167	-2.9854	-2.5708	-3.1813	-2.7812	-2.9542	-3.1021	-2.7583	-3.0708	-2.7812	-2.7979	155.491	465.901	465.192	450.106	350.197	402.515	406.847	438.247	242.080	432.730	470.585	331.809	465.130	466.995	284.348	458.535	0.0023102	0.0027866	0.00010171	1112.1	1.0846e-05	2.1819e-05	1239.4	391.11	7.3634e-06	2.4739e-05	496.82	224.73	184.15	76.061	1.8568e-05	95.655	0.0026111	0.0029573	0.00081164	1363.7	2.9508e-05	3.2367e-05	1165.4	370.38	2.9233e-05	3.351e-05	485.24	208.57	171.65	71.62	3.2067e-05	90.509	343.632	196.426	458.504	134.661	377.862	336.296	133.422	139.765	369.392	474.685	137.430	142.335	144.493	149.659	313.987	146.918	-8191	255	
3232.746	1	1	0	0	0.36428	0.022979	0.17013	0.11084	0.19403	0.19033	0.032994	0.25024	0.10811	0.047222	0.13088	0.11763	0.022335	0.42791	0.12784	0.020622	-2.4208	-2.6312	-2.6625	-3.0958	-2.5979	-2.8271	-3.0438	-2.6813	-3.2396	-2.8521	-2.8958	-3.2521	-2.5417	-3.0625	-2.8	-2.6604	365.272	398.573	300.151	464.179	338.552	220.022	465.515	433.730	252.452	291.160	449.173	462.309	419.557	452.751	231.169	177.950	0.0022	0.0013404	0.0007895	1109.1	1.2571e-05	1.5885e-05	1221.2	388.76	2.6858e-05	9.2655e-06	492.66	222.3	182.92	75.188	1.0185e-05	95.461	0.002657	0.0030407	0.00080871	1340.2	3.0457e-05	3.2736e-05	1145.4	363.95	2.9979e-05	3.3209e-05	479.2	205.36	171.56	71.258	3.1677e-05	89.791	334.109	272.540	479.511	134.553	253.382	284.137	132.860	139.967	142.798	366.544	137.937	142.396	144.677	150.053	238.722	146.868	-8191	255	
3232.842	1	1	0	0	0.10596	0.20397	0.10606	0.11046	0.10074	0.059464	0.35327	0.33667	0.43334	0.028166	0.15376	0.15083	0.28551	0.27083	0.13515	0.3582	-2.6896	-2.6312	-2.8104	-2.9333	-2.7229	-2.9146	-2.9646	-2.8854	-2.9208	-2.9896	-2.8625	-3.2812	-2.9167	-2.9917	-3.1292	-2.7875	127.339	327.039	429.901	314.717	385.676	194.533	412.404	428.391	441.343	281.494	448.299	473.677	464.024	127.483	255.486	433.874	0.0030375	0.00065711	0.00047831	1107.4	1.353e-05	9.8439e-06	1215.9	391.03	3.0085e-05	1.7552e-05	496.97	224.95	182.65	76.451	2.1711e-05	96.844	0.0027879	0.0029974	0.0008097	1323	3.1866e-05	3.2341e-05	1146.5	364.93	3.1266e-05	3.246e-05	481.72	206.9	172.79	71.545	3.0325e-05	90.548	332.358	479.752	481.132	134.384	283.710	176.591	133.581	140.185	248.153	213.038	137.791	142.214	144.258	149.913	218.240	146.846	-8191	255	
3232.962	1	1	0	0	0.072478	0.14245	0.11585	0.23681	0.18483	0.17338	0.25834	0.15546	0.16873	0.31062	0.14455	0.29189	0.13323	0.252	0.12327	0.15016	-2.5875	-2.8479	-2.6333	-3.0521	-2.6479	-2.8958	-3.2958	-2.7708	-2.9104	-2.8875	-2.8937	-3.1771	-2.9875	-3.1	-3.1021	-2.8229	276.972	345.851	367.571	325.862	386.067	390.167	397.501	439.990	338.828	354.043	332.386	446.351	160.066	453.019	159.884	181.916	0.002614	0.00094197	0.0002875	1109.8	2.851e-06	2.0068e-05	1235.6	392.74	1.1455e-05	1.6355e-05	502.85	227.63	184.43	76.058	2.1274e-05	98.008	0.0028457	0.0029588	0.00078498	1332.6	3.3066e-05	3.2295e-05	1156.3	369.42	3.2966e-05	3.2877e-05	486.68	210.28	175.01	71.889	2.9735e-05	91.986	329.765	236.773	163.836	134.041	219.010	137.352	133.975	139.697	157.796	463.720	137.704	142.367	144.450	149.967	192.212	146.760	-8191	255	
3233.057	1	1	0	0	0.17549	0.10044	0.078979	0.16601	0.22866	0.22538	0.15525	0.037257	0.065187	0.21368	0.18158	0.18464	0.25849	0.18434	0.32423	0.25795	-2.6437	-2.9625	-2.6729	-3.1042	-2.8187	-2.8854	-3.2167	-2.7958	-2.8438	-2.7583	-2.6417	-3.1458	-2.9167	-2.8104	-2.925	-2.8438	369.705	431.959	374.760	222.422	398.716	337.610	130.966	191.334	344.940	398.160	416.808	353.434	424.340	240.536	224.293	395.009	0.0025952	0.0028084	0.00060075	1117.1	1.2213e-05	7.0114e-06	1230.1	391.6	1.0639e-05	1.3058e-05	493.43	222.83	181.59	75.638	2.6178e-05	95.823	0.0029493	0.0029361	0.00075906	1355.1	3.2917e-05	3.1687e-05	1144	368.02	3.2184e-05	3.1642e-05	475.71	207.58	172.63	71.371	2.9088e-05	91.043	365.947	199.201	223.158	135.258	199.962	137.544	132.924	139.879	245.535	345.941	137.624	142.190	144.630	150.018	313.969	146.491	-8191	255	
3233.155	1	1	0	0	0.16255	0.23356	0.19462	0.041288	0.24425	0.19959	0.26311	0.14687	0.076359	0.097873	0.1925	0.22383	0.27549	0.48176	0.23979	0.005873	-2.5542	-3.0417	-2.6583	-3.0229	-2.7729	-2.8187	-3.2604	-2.825	-2.8583	-3.0333	-3.0187	-3	-2.9875	-2.8729	-3.1312	-2.9521	460.501	377.497	396.676	205.572	183.372	287.072	359.795	402.253	279.831	233.836	416.783	455.242	465.323	441.210	222.534	208.149	0.0025966	0.0027344	0.00032889	1087.5	2.5754e-06	1.9005e-05	1219.7	390.71	1.7578e-05	1.1146e-05	494.42	224.92	182.72	75.799	1.9432e-05	95.495	0.0029416	0.0028802	0.00075188	1366.4	3.2581e-05	3.1212e-05	1137	368.39	3.1799e-05	3.0941e-05	476.09	209.16	172.36	71.086	2.9668e-05	91.226	346.377	256.702	214.242	134.049	347.108	275.996	133.487	139.911	142.952	177.032	137.771	142.462	144.569	150.030	236.960	146.849	-8191	255	
3233.274	1	1	0	0	0.085278	0.17611	0.1164	0.17235	0.11919	0.091118	0.16696	0.27059	0.13795	0.12807	0.20994	0.25701	0.20815	0.19143	0.059025	0.28365	-2.3292	-2.9437	-2.6396	-3.1146	-2.9333	-2.6667	-3.1646	-2.8937	-2.8646	-3.0146	-2.8479	-3.175	-2.8729	-2.8229	-3.0563	-3.0042	166.077	224.475	444.689	392.743	179.270	477.290	391.653	446.145	417.122	131.185	132.744	167.386	455.884	429.174	331.320	394.310	0.0023967	0.0019994	0.00043856	1116.8	7.8753e-06	1.8583e-05	1223.6	388.64	1.1322e-05	1.32e-05	497.56	225.41	181.48	75.196	3.13e-05	96.039	0.0029253	0.0028049	0.00077741	1395.3	3.2488e-05	3.077e-05	1148.8	371.23	3.2174e-05	2.9858e-05	482.7	210.31	172.51	70.836	3.133e-05	91.987	346.494	214.933	179.247	134.332	341.824	176.411	133.508	139.872	306.909	303.265	137.699	142.500	144.286	150.203	200.667	146.730	-8191	255	
3233.345	1	1	0	0	0.17494	0.24335	0.17807	0.10122	0.056292	0.17649	0.1054	0.045584	0.14986	0.12369	0.30819	0.21645	0.21812	0.29179	0.16628	0.29836	-2.3812	-3.0021	-2.6063	-3.125	-3.0208	-2.6375	-3.2333	-2.9917	-2.8937	-2.9833	-2.7104	-3.0792	-3.2375	-2.7604	-3.0917	-2.8854	304.990	302.603	427.811	170.685	383.160	300.065	336.034	168.891	362.862	280.757	403.282	470.848	409.509	425.552	259.778	438.600	0.0023852	0.0016732	0.0003969	1128.8	1.6652e-05	2.0123e-05	1240.7	395.65	1.0317e-05	3.1073e-05	502.39	226.43	182.99	75.951	2.2539e-05	96.787	0.0029239	0.0027305	0.00081966	1402.1	3.2588e-05	3.0434e-05	1166.5	374.53	3.2673e-05	3.0005e-05	491.56	211.38	172.19	70.93	3.2423e-05	91.738	336.763	281.946	293.359	134.933	224.626	254.891	133.058	139.908	374.610	267.270	137.681	142.501	144.388	149.744	347.435	146.474	-8191	255	
3233.441	1	1	0	0	0.2129	0.22447	0.12968	0.075056	0.066828	0.20919	0.2573	0.34835	0.074462	0.090664	0.067574	0.15848	0.16826	0.2733	0.34995	0.20694	-2.4437	-3.0625	-2.7812	-2.8896	-2.9833	-2.6188	-3.2021	-3.2	-2.8625	-3.1646	-2.9688	-2.9979	-3.0833	-3.0062	-2.9979	-3.1917	236.221	128.972	337.634	143.631	374.926	476.566	464.159	385.958	212.242	128.573	199.750	270.721	465.125	136.270	333.267	453.245	0.0017819	0.0016318	0.00026603	1097.1	5.5001e-06	1.3707e-05	1225.6	391.14	1.4181e-05	3.9976e-06	497.79	222.29	181.16	75.235	6.918e-06	95.803	0.0028312	0.002683	0.00082883	1374.8	3.058e-05	2.9375e-05	1154.7	368.34	3.0515e-05	2.9154e-05	484.02	207.62	169.66	70.456	3.1967e-05	90.865	352.218	199.070	193.944	134.448	250.892	253.868	133.075	139.646	373.171	289.457	138.010	142.035	144.519	149.870	179.392	146.486	-8191	255	
3233.562	1	1	0	0	0.15631	0.11671	0.2575	0.2266	0.052333	0.16584	0.19227	0.29494	0.31392	0.1733	0.33744	0.13561	0.3002	0.29317	0.037779	0.3371	-2.1875	-3.1667	-2.7708	-2.9437	-3.0438	-2.5604	-3.4188	-2.9958	-2.9354	-3.3333	-2.9021	-2.9854	-3.3729	-2.6625	-3.1	-2.9167	434.844	438.489	203.104	466.126	460.387	450.006	361.007	405.023	394.989	406.014	125.607	143.958	341.386	407.173	190.552	425.875	0.0016346	0.0014582	0.00018764	1109.9	1.0026e-05	3.0511e-05	1231	390.78	2.4862e-05	1.699e-05	495.65	224.51	182.98	75.576	1.1012e-05	96.121	0.0026615	0.0027384	0.00083314	1368.6	2.9063e-05	3.0745e-05	1158.3	368.25	2.884e-05	3.0059e-05	483.65	208.58	169.53	71.073	3.113e-05	90.846	346.514	450.132	129.990	134.686	479.229	238.619	133.134	140.290	286.749	230.960	137.653	142.323	144.143	150.049	255.796	147.001	-8191	255	
3233.658	1	1	0	0	0.086384	0.062394	0.18117	0.21014	0.17327	0.14327	0.18831	0.25947	0.085959	0.051167	0.15693	0.0048604	0.061917	0.19582	0.076063	0.12275	-2.3375	-3.15	-2.8917	-2.8146	-3.2208	-2.8146	-3.1292	-2.9667	-2.6354	-3.1375	-3.0604	-2.8187	-3.3438	-2.8479	-2.9979	-3.0563	330.307	228.216	230.080	464.329	233.755	467.156	390.562	436.704	187.898	434.970	455.647	144.417	182.460	439.225	444.345	390.971	0.0024743	0.0015693	0.00039642	1113.5	1.6088e-05	2.0499e-05	1235.7	392.17	1.4911e-05	2.6412e-05	507.4	226.76	181.69	75.756	1.7274e-05	97.146	0.0025698	0.0027927	0.00081858	1360.5	2.8315e-05	3.2175e-05	1160.4	369.03	2.9119e-05	3.1542e-05	490.5	210.3	170.12	71.679	3.17e-05	91.285	341.742	476.522	366.870	134.154	327.269	164.186	132.995	139.891	266.438	184.062	137.616	142.310	144.711	150.158	231.119	146.892	-8191	255	
3233.754	1	1	0	0	0.1018	0.055821	0.019838	0.2983	0.23739	0.059442	0.19594	0.017926	0.17935	0.13399	0.12372	0.043641	0.29816	0.41288	0.025066	0.20636	-2.3563	-3.0125	-2.925	-2.6688	-3.0812	-2.7854	-3.1542	-3.3104	-2.8021	-3.0167	-3.0062	-2.7021	-3.4083	-2.9375	-2.9	-3.3104	336.796	473.672	394.887	455.619	371.474	260.104	328.665	285.300	125.169	280.498	429.683	456.347	454.307	444.586	167.602	447.291	0.002623	0.0020069	0.00016258	1114.6	1.8445e-05	2.4188e-05	1247.8	394.33	2.1347e-05	3.9086e-06	499.87	223.45	181.23	75.709	2.1745e-05	96.05	0.0026417	0.0029126	0.00080474	1354.7	2.8945e-05	3.2621e-05	1168.1	367.98	2.9856e-05	3.1871e-05	483.91	207.17	170.07	71.455	3.1143e-05	90.176	322.480	180.921	416.532	134.896	249.843	269.861	133.289	140.029	204.086	397.231	137.814	142.302	144.069	149.763	244.817	146.621	-8191	255	
3233.851	1	1	0	0	0.23905	0.12202	0.20041	0.33298	0.091374	0.13483	0.21263	0.097496	0.29963	0.11778	0.37236	0.29524	0.19538	0.21107	0.1343	0.14228	-2.3063	-2.8146	-2.9646	-2.475	-3.1208	-2.6708	-2.9	-3.2583	-2.6792	-2.9271	-2.9875	-2.8167	-3.1875	-2.8688	-2.7958	-2.9979	335.049	397.073	307.498	369.655	364.652	178.255	441.332	153.547	390.688	406.030	389.605	469.285	420.453	466.635	342.037	379.488	0.0021187	0.0013714	0.0005018	1104.3	1.106e-05	8.4719e-06	1223.2	390.09	2.2565e-05	7.8713e-06	495.82	222.96	181.91	75.3	1.7943e-05	96.006	0.0027772	0.0028949	0.00079028	1330.8	3.0263e-05	3.205e-05	1149.9	363.23	3.1399e-05	3.1533e-05	479.45	206.15	170.96	71.18	3.0812e-05	89.768	351.924	193.487	259.595	134.666	268.107	347.264	133.181	139.860	213.998	324.682	137.463	142.493	144.222	149.896	304.275	146.881	-8191	255	
3233.947	1	1	0	0	0.22704	0.32651	0.14917	0.047206	0.039926	0.31507	0.13542	0.11285	0.14614	0.21493	0.39997	0.072612	0.34596	0.057598	0.21688	0.067438	-2.3229	-2.8854	-2.9229	-2.5458	-3.0271	-2.9521	-2.7	-3.1646	-2.7542	-2.7521	-3.0208	-2.6083	-3.0292	-2.8458	-2.5062	-3.0229	162.515	216.774	367.788	302.288	342.366	415.601	443.653	450.762	390.547	246.661	472.873	158.184	448.443	418.328	240.639	373.531	0.0024271	0.00085563	0.00097395	1111.5	8.4555e-06	9.1719e-06	1239.3	392.49	3.9427e-05	6.7659e-06	504.26	228.15	183.14	75.982	2.3693e-05	97.535	0.0028771	0.0029132	0.00077345	1333.6	3.1295e-05	3.1881e-05	1157.9	366	3.1861e-05	3.1416e-05	482.28	209.27	171.98	71.247	2.9149e-05	90.933	338.180	227.490	282.290	134.003	238.640	384.879	133.151	139.972	303.497	337.767	137.630	142.488	144.241	149.959	319.566	146.690	-8191	255	
3234.043	1	1	0	0	0.11321	0.13011	0.24697	0.1762	0.1787	0.21078	0.27365	0.010941	0.098872	0.049347	0.098374	0.11904	0.1274	0.26145	0.084407	0.10026	-2.3458	-2.7979	-3.0292	-2.6146	-2.9771	-2.6396	-2.8042	-3.0729	-2.7417	-2.8167	-3.1312	-2.9313	-3.1104	-3.0083	-2.7479	-3.275	132.648	325.908	187.760	190.179	464.398	211.351	422.826	383.018	477.897	293.326	435.389	321.010	479.424	465.903	133.198	403.338	0.0025002	0.0022745	0.00038867	1126.4	1.1124e-05	9.2539e-06	1244.7	394.63	2.6985e-05	1.4922e-05	506.17	228.12	183.98	76.274	1.1526e-05	98.397	0.0028524	0.0028298	0.00072432	1345.9	3.129e-05	3.0884e-05	1157.4	368.64	3.1648e-05	3.1086e-05	483.86	211.91	173.1	71.698	2.8413e-05	92.407	345.051	427.695	323.422	134.594	241.960	184.164	133.042	140.215	225.563	247.250	137.937	142.181	144.480	149.885	341.935	146.885	-8191	255	
3234.137	1	1	0	0	0.28321	0.068234	0.13051	0.18925	0.11652	0.13922	0.084921	0.10391	0.27424	0.26547	0.3028	0.12406	0.13452	0.18629	0.12858	0.14144	-2.4583	-2.7438	-3.0875	-2.7583	-3.0375	-2.9625	-2.6604	-3.0375	-2.6271	-2.5417	-3.1729	-2.8271	-2.9167	-3.125	-2.7042	-3.0271	228.485	186.285	177.182	258.504	316.627	361.468	294.912	434.038	130.070	472.259	411.477	404.668	469.275	476.672	431.682	393.422	0.0023623	0.00172	0.00046367	1113	1.4508e-05	1.5139e-05	1238.8	391.64	1.4137e-05	1.3486e-05	502.6	226.1	182.19	76.12	3.2562e-05	97.1	0.0028412	0.002829	0.00071687	1375.5	3.1501e-05	3.0453e-05	1149.3	368.68	3.1422e-05	3.0491e-05	475.94	209.83	171.51	70.893	2.8277e-05	91.357	337.790	231.610	236.884	132.973	272.373	312.342	132.900	139.869	247.381	476.954	138.001	142.395	144.413	149.946	244.151	146.875	-8191	255	
3234.235	1	1	0	0	0.14319	0.246	0.035014	0.087819	0.19574	0.060537	0.37174	0.19652	0.1157	0.15832	0.18284	0.1239	0.15093	0.16223	0.24985	0.22631	-2.3854	-2.8312	-3.0333	-2.6896	-2.725	-3.0146	-2.8771	-3.1813	-2.9271	-2.7521	-3.2042	-2.5917	-2.8625	-3.0812	-2.6354	-3.0896	178.369	207.423	430.254	423.174	145.055	238.620	470.811	457.558	453.821	228.044	418.664	452.698	408.138	135.372	441.907	436.830	0.0016744	0.0010527	0.00050499	1108.4	7.9175e-06	2.1023e-05	1234.4	391.51	2.8997e-06	1.656e-05	504.98	227.66	183.98	75.813	7.0106e-06	98.047	0.0027679	0.0026946	0.00069816	1373.2	3.0613e-05	2.8861e-05	1150.5	368.49	3.0211e-05	2.9176e-05	481.13	211.25	172.37	70.675	2.9312e-05	92.18	342.719	403.740	278.069	134.475	294.182	306.316	133.271	139.688	236.426	327.437	137.331	142.455	144.525	149.811	182.453	146.642	-8191	255	
3234.354	1	1	0	0	0.22435	0.0604	0.24629	0.20236	0.21237	0.11374	0.074671	0.31617	0.18784	0.10409	0.16286	0.25932	0.41985	0.087533	0.078358	0.31196	-2.4125	-2.5021	-2.9208	-2.7625	-2.6958	-2.9771	-2.7083	-3.0708	-2.9542	-2.5729	-3.1708	-2.8292	-2.7354	-3.0354	-2.4583	-3.0479	164.357	339.273	436.632	123.824	428.361	451.507	364.081	427.499	428.078	336.872	367.917	427.243	437.736	181.836	388.068	432.029	0.0024774	0.00095499	0.00036276	1115.1	1.4754e-05	1.356e-05	1251.5	393.26	2.1678e-05	1.3077e-05	506.3	229.16	184.08	76.598	1.1633e-05	98.913	0.0027086	0.0025576	0.00072874	1364.9	3.0055e-05	2.7204e-05	1161.2	369.6	2.9093e-05	2.7942e-05	484.78	211.83	172	70.802	3.0064e-05	92.767	315.458	132.426	148.716	134.775	218.617	286.896	133.388	140.186	168.723	166.100	137.684	142.421	144.573	149.792	445.836	146.826	-8191	255	
3234.450	1	1	0	0	0.078076	0.11362	0.15888	0.17678	0.0069451	0.082603	0.11099	0.06847	0.055482	0.12577	0.31876	0.35532	0.13402	0.28701	0.0079068	0.068175	-2.5042	-2.4792	-3.0458	-2.7375	-2.7188	-3.1146	-2.9583	-3.0021	-2.9896	-2.4854	-2.9979	-2.7021	-2.8396	-3.1875	-2.6854	-2.8563	298.390	251.301	262.713	409.204	202.432	302.376	416.150	384.764	199.004	293.913	439.102	423.261	245.516	455.179	403.767	335.443	0.0019002	0.0010452	0.00074073	1117.3	1.0596e-05	1.5387e-05	1259.6	399.71	1.7175e-05	1.0878e-05	510.32	230.78	185.06	76.664	1.0777e-05	98.782	0.0025719	0.0024828	0.00074897	1351.3	2.8932e-05	2.682e-05	1172.1	372.67	2.7985e-05	2.7866e-05	489.87	212.64	172.03	71.023	3.0011e-05	92.373	333.680	227.164	149.867	134.372	223.960	390.056	133.328	140.048	333.637	271.670	138.017	142.276	144.671	149.844	285.046	146.927	-8191	255	
3234.546	1	1	0	0	0.15083	0.1252	0.11527	0.23203	0.077064	0.19462	0.1127	0.041052	0.16379	0.1587	0.12893	0.11759	0.35185	0.19683	0.14062	0.19691	-2.6646	-2.5667	-2.6813	-2.6396	-2.8604	-2.9792	-2.7875	-2.8708	-3.0479	-2.7604	-2.9792	-2.8521	-2.675	-3.2396	-2.5646	-2.7958	346.323	149.780	326.480	169.845	344.367	476.189	417.620	288.211	259.885	142.521	420.492	178.472	151.778	418.328	418.441	463.287	0.0023983	0.0026648	0.00064376	1111	5.2884e-06	2.0205e-05	1244.6	394.94	1.2745e-05	2.011e-05	506.11	228.17	183.83	76.441	2.8821e-05	97.665	0.0024195	0.0025015	0.00074216	1330.4	2.7036e-05	2.6886e-05	1157.3	368.03	2.6175e-05	2.8398e-05	484.01	209.77	170.22	70.717	2.9602e-05	91.629	334.319	168.531	185.119	133.465	315.759	275.399	133.388	140.007	258.084	282.121	137.546	142.328	144.299	149.713	157.603	146.965	-8191	255	
3234.642	1	1	0	0	0.34403	0.072166	0.18725	0.14788	0.11509	0.21439	0.27952	0.33217	0.17225	0.13804	0.1605	0.41012	0.27306	0.46067	0.1562	0.16033	-2.5104	-2.3979	-3.0042	-2.9625	-2.4625	-3.0062	-2.8917	-2.8063	-3.0646	-2.6042	-2.8812	-2.9313	-2.7854	-3.1	-2.6542	-2.9042	429.269	140.718	339.409	212.728	391.267	466.079	425.060	472.896	271.454	147.112	380.782	442.304	445.205	155.952	154.723	458.489	0.0027123	0.0023676	0.00077843	1107.4	7.2086e-06	2.1681e-05	1238.6	395.58	1.319e-05	3.5547e-05	506.32	229.67	184.57	76.658	3.8486e-05	99.588	0.0023267	0.0026149	0.00073538	1325.7	2.6523e-05	2.8287e-05	1158.4	368.15	2.558e-05	2.933e-05	486.32	210.79	170.92	71.487	2.8738e-05	92.261	354.415	122.793	222.682	134.594	238.509	179.226	133.202	139.606	383.218	263.342	138.007	142.622	144.716	149.887	306.756	146.931	-8191	255	
3234.739	1	1	0	0	0.14821	0.12714	0.24248	0.16186	0.13203	0.18117	0.34429	0.32085	0.030644	0.13319	0.34531	0.1223	0.09142	0.25929	0.062402	0.27975	-2.6583	-2.5687	-3.0021	-2.8729	-2.4125	-2.9667	-2.6	-2.8271	-3.075	-2.6479	-2.9188	-3.0687	-2.8708	-3.0312	-2.7729	-2.7062	173.637	399.078	376.698	477.644	395.096	400.702	431.504	441.741	326.650	142.783	451.393	230.183	433.459	149.347	467.643	472.492	0.0028881	0.0016775	0.00041894	1110.4	8.8929e-06	8.0299e-06	1250.7	395.56	2.7055e-05	4.8038e-06	514.11	231.79	186.6	77.162	1.1154e-05	98.83	0.0023245	0.0027483	0.00073459	1311.1	2.7201e-05	2.9266e-05	1165.4	369.28	2.6501e-05	3.0293e-05	490.23	211.47	172.15	72.049	2.8846e-05	92.086	329.617	256.058	204.866	134.014	205.448	198.004	133.262	139.799	200.428	432.816	137.885	142.704	144.342	150.025	302.059	146.969	-8191	255	
3234.835	1	1	0	0	0.15672	0.070299	0.14456	0.10809	0.36032	0.24281	0.16666	0.30099	0.093898	0.23482	0.05071	0.23121	0.2609	0.17374	0.11538	0.2763	-2.8104	-2.6167	-2.8312	-3.0271	-2.5875	-3.0458	-3.0292	-2.5979	-3.3688	-2.9437	-2.8292	-3.2292	-2.8292	-2.9646	-2.8979	-2.7146	182.996	194.794	334.106	432.775	231.945	281.351	400.465	457.338	453.184	214.262	394.706	443.071	481.995	218.185	283.041	432.077	0.0029969	0.0032899	5.1076e-05	1134.1	1.0914e-05	3.1647e-05	1251.2	395.45	3.4481e-05	6.3709e-06	506.75	228.37	185.39	76.615	1.3257e-05	97.92	0.0024829	0.0027772	0.0007463	1309.2	2.8719e-05	3e-05	1162	367.4	2.8291e-05	3.056e-05	484.15	208.32	172.37	71.619	2.8516e-05	90.797	335.343	240.595	257.449	134.229	198.352	286.243	133.166	140.008	169.667	302.126	138.022	142.195	144.256	150.025	344.089	146.680	-8191	255	
3234.955	1	1	0	0	0.19665	0.094246	0.148	0.21971	0.097964	0.22965	0.48549	0.37784	0.092874	0.1362	0.16679	0.24838	0.1482	0.14604	0.047815	0.26445	-2.4792	-2.65	-2.6375	-3.1771	-2.6125	-2.9229	-2.9667	-2.7562	-2.9	-2.7583	-2.725	-3.15	-2.4833	-2.8708	-2.7125	-2.7812	384.980	420.289	230.462	477.729	154.836	438.709	443.678	426.986	296.721	150.841	395.500	461.273	137.518	406.668	410.750	466.411	0.0031174	0.00096486	0.00055398	1114.9	1.4909e-05	1.6608e-05	1229.7	391.46	4.0186e-05	5.7049e-06	499.85	226.13	184.38	76.424	1.7005e-05	97.999	0.0025666	0.0026798	0.00072687	1285.8	2.9708e-05	2.9386e-05	1142.5	363.61	2.8962e-05	2.9528e-05	478.34	206.82	172.47	71.381	2.751e-05	91.214	337.869	377.338	228.795	134.483	291.663	181.260	133.352	140.021	179.060	267.321	137.282	142.603	144.292	150.061	239.770	146.852	-8191	255	
3235.052	1	1	0	0	0.25534	0.18574	0.12578	0.14475	0.11972	0.1316	0.14501	0.3207	0.13259	0.045347	0.13174	0.33116	0.15741	0.28052	0.10153	0.24233	-2.1667	-2.7458	-2.5979	-2.9458	-2.6542	-3.0563	-3.1521	-2.6312	-3.0396	-2.9062	-2.6417	-3.2021	-2.7479	-2.875	-3.05	-2.7687	348.776	210.351	315.507	474.604	212.294	181.053	449.615	424.379	445.749	443.032	430.621	443.115	453.154	447.489	263.553	373.862	0.0023063	0.0022025	0.00052386	1129.6	2.1595e-05	2.9891e-05	1245.6	394.13	8.4942e-06	2.3328e-05	502.19	231.39	184.21	76.658	9.866e-06	98.817	0.0026766	0.0026734	0.00071086	1312.9	3.0792e-05	2.9743e-05	1149.7	366.98	3.007e-05	2.9757e-05	479.95	210.76	172.89	71.437	2.6543e-05	92.271	335.832	151.481	400.303	134.260	323.178	329.523	133.173	139.697	274.976	199.542	137.386	142.507	144.521	150.068	374.982	147.039	-8191	255	
3235.146	1	1	0	0	0.12167	0.10963	0.39715	0.15017	0.1152	0.19411	0.40676	0.21998	0.1667	0.19201	0.42862	0.21617	0.10656	0.11004	0.056136	0.076282	-2.525	-2.8187	-2.4625	-3.0958	-2.5396	-2.6917	-3.1021	-2.6542	-2.9188	-2.7938	-2.7583	-3.1667	-2.6958	-2.75	-2.9833	-2.5771	317.643	463.316	286.677	163.353	443.119	240.768	416.783	371.066	481.205	141.820	398.960	450.755	128.984	479.443	469.687	138.579	0.0017165	0.0010762	0.00063529	1118	1.5152e-05	1.4491e-05	1254.8	397.31	7.9292e-06	1.0628e-05	509.18	231.82	185.94	77.599	2.5231e-05	99.827	0.0026757	0.0026682	0.00068526	1328.9	2.9894e-05	2.9423e-05	1151.5	371.22	2.9841e-05	2.9291e-05	482.8	213.07	173.91	72.04	2.6461e-05	93.444	347.909	266.711	190.621	134.080	356.251	349.897	133.170	140.157	296.771	311.935	137.506	142.112	144.518	150.056	296.595	146.924	-8191	255	
3235.242	1	1	0	0	0.34257	0.13116	0.12151	0.098371	0.093098	0.03368	0.16329	0.48006	0.15344	0.1337	0.16168	0.16199	0.37687	0.27863	0.13382	0.094596	-2.4583	-2.7146	-2.4833	-2.9688	-2.7562	-2.6437	-3.2375	-2.7833	-3.0229	-3.05	-2.6521	-2.8354	-2.9125	-2.6521	-3.0312	-2.8542	124.986	360.845	363.984	426.704	247.682	242.376	438.287	131.902	175.341	425.717	432.606	224.877	448.448	473.943	307.030	393.160	0.0020944	0.0017019	0.00018796	1114.1	1.2352e-05	4.5782e-06	1237.1	392.89	2.6864e-05	9.266e-06	499.31	227.81	184.09	76.684	2.9041e-05	98.127	0.0026957	0.0026119	0.00070146	1348.6	2.982e-05	2.8584e-05	1140.2	368.4	2.9389e-05	2.7749e-05	477.37	210.41	172.22	71.048	2.7054e-05	92.144	350.789	353.820	142.362	133.641	295.167	463.391	133.304	139.853	265.988	405.797	137.690	142.091	144.465	149.835	247.415	146.800	-8191	255	
3235.338	1	1	0	0	0.24519	0.22296	0.096779	0.22561	0.25897	0.21505	0.21538	0.40543	0.024673	0.046076	0.35243	0.16011	0.36711	0.23927	0.21452	0.3823	-2.175	-3.0521	-2.3875	-2.8917	-2.825	-2.3583	-3.1125	-2.7812	-2.6063	-3.0167	-2.6646	-2.9104	-3.0542	-2.7062	-3.0521	-2.8688	128.928	407.400	156.856	418.593	313.100	184.666	391.619	406.536	429.119	283.436	448.068	422.432	482.001	460.916	400.090	404.883	0.0024787	0.0020442	0.00016266	1107.1	1.6301e-05	3.6419e-06	1237.3	392.72	8.4216e-06	1.2748e-05	501.85	228.6	185.83	76.774	1.17e-05	98.458	0.0026696	0.0024765	0.00072611	1343.2	2.9212e-05	2.7308e-05	1144.3	367.74	2.9021e-05	2.6527e-05	482.04	211.28	172.66	71.064	2.8995e-05	92.597	324.895	266.828	339.580	135.120	333.707	267.005	133.640	140.021	388.684	307.159	138.262	142.615	144.192	149.991	281.024	146.847	-8191	255	
3235.434	1	1	0	0	0.22322	0.13424	0.1745	0.17951	0.17807	0.031186	0.31507	0.23475	0.029122	0.13923	0.25294	0.23926	0.29812	0.27934	0.16672	0.12824	-2.2333	-2.95	-2.4854	-2.9125	-2.8458	-2.5875	-3.0583	-2.8271	-2.6042	-3.075	-2.7583	-2.8979	-3.1854	-2.5438	-3.0333	-2.8563	229.819	273.805	345.498	269.816	437.836	174.974	437.042	151.191	285.286	322.349	456.417	475.765	434.531	446.334	421.279	368.303	0.0032073	0.0017666	0.00013865	1115.7	4.467e-06	2.1163e-05	1246.2	392.77	1.6498e-05	1.4717e-05	505.14	229.79	186.37	76.964	1.5842e-05	99.277	0.0026677	0.0024823	0.00077768	1356.6	2.9631e-05	2.7987e-05	1163.6	370.08	2.9368e-05	2.7298e-05	488.79	212.91	173.18	71.758	3.0738e-05	93.411	321.252	234.235	265.647	134.238	267.797	283.899	133.362	139.383	199.352	204.197	137.713	142.464	144.270	149.924	214.963	146.742	-8191	255	
3235.531	1	1	0	0	0.15219	0.21356	0.14266	0.11469	0.091445	0.10443	0.21468	0.33608	0.1718	0.19712	0.098393	0.14627	0.26778	0.20181	0.061064	0.24342	-2.3458	-2.9562	-2.8021	-2.7417	-2.8792	-2.525	-3.3375	-3.0271	-2.8875	-3.0271	-2.8458	-2.8625	-3.2354	-2.8187	-2.95	-3.0521	291.029	232.466	424.321	333.932	169.611	384.796	404.222	415.005	368.456	456.159	419.852	448.862	449.172	426.548	172.072	132.791	0.0023884	0.001497	0.00063673	1128.4	2.6266e-05	1.1317e-05	1256.6	396.06	1.7972e-05	2.3142e-05	514.11	232.08	186.32	76.792	8.3349e-06	98.701	0.0026304	0.0025395	0.00080315	1368.7	2.8483e-05	2.9166e-05	1170.7	371.56	2.8316e-05	2.821e-05	492.46	213.74	172.32	71.828	3.0312e-05	92.868	339.286	268.372	220.805	134.543	341.350	302.168	133.370	139.744	452.489	280.436	137.666	142.152	144.581	150.031	205.880	146.531	-8191	255	
3235.651	1	1	0	0	0.088567	0.15618	0.13673	0.094168	0.033222	0.23232	0.30501	0.1581	0.1184	0.19657	0.23538	0.25879	0.2837	0.11537	0.16191	0.1303	-2.0479	-2.9375	-2.4604	-2.7917	-2.9646	-2.8896	-3.0729	-3.0479	-2.5104	-2.9646	-2.6479	-2.7979	-3.3521	-2.6146	-2.8708	-2.9229	145.605	421.407	416.485	396.913	132.142	369.221	435.859	427.018	236.997	288.241	480.719	447.515	434.978	472.500	355.320	131.723	0.0022732	0.0022989	0.00017547	1106.4	1.3661e-05	2.6556e-05	1237.7	391.92	1.7406e-05	1.049e-06	499.59	227.91	185.41	77.041	1.4827e-05	99.334	0.0025257	0.0026227	0.00077889	1345.3	2.6927e-05	2.9787e-05	1151.4	366.46	2.7256e-05	2.9196e-05	482.01	210.73	170.81	72.016	2.9625e-05	92.317	344.546	151.261	206.481	134.411	348.356	171.054	133.287	139.671	260.011	371.473	137.931	142.286	144.561	149.933	318.872	146.237	-8191	255	
3235.747	1	1	0	0	0.36127	0.17512	0.18664	0.14624	0.072506	0.079266	0.26841	0.19165	0.24397	0.21463	0.36698	0.52807	0.30028	0.22833	0.046588	0.25717	-1.925	-2.9958	-2.5646	-2.6833	-2.9479	-2.7708	-2.9188	-2.9792	-2.5938	-3.0708	-2.875	-2.6854	-3.1437	-2.6917	-2.7542	-3.1958	276.866	198.571	247.721	163.474	464.355	402.721	403.796	383.275	270.296	263.912	443.897	458.122	437.651	451.366	368.563	422.918	0.002624	0.0040928	0.00055292	1132.3	7.3745e-06	5.4286e-06	1244.4	393.77	2.0149e-06	1.6472e-05	508.95	232.24	185.52	76.881	9.3616e-06	99.625	0.0024642	0.002708	0.00075521	1336.5	2.6795e-05	3.0513e-05	1158.3	367.1	2.7744e-05	3.0015e-05	487.52	211.78	171.38	72.234	2.9525e-05	92.405	349.579	218.600	147.652	134.602	355.648	400.820	133.146	139.453	175.813	245.906	137.462	142.190	144.564	149.790	326.094	146.671	-8191	255	
3235.819	1	1	0	0	0.10133	0.2978	0.13156	0.28828	0.15815	0.20452	0.26846	0.1107	0.25531	0.32284	0.17744	0.25841	0.2644	0.28508	0.30958	0.27911	-2.2542	-2.7479	-2.8292	-2.5187	-3.1083	-2.7083	-3.0062	-2.9917	-2.5667	-3.1042	-3.0125	-2.525	-3.1	-2.6854	-2.6875	-3.1333	346.910	374.975	474.392	167.525	168.291	298.179	424.600	297.063	447.760	128.604	199.917	416.173	476.944	122.935	251.234	435.479	0.0034418	0.0015473	0.00026726	1112.3	2.8069e-05	2.2167e-05	1247.2	398.79	5.6168e-06	4.2053e-06	510.6	231.26	188.16	77.314	1.9371e-05	100.08	0.0025531	0.0027442	0.00075412	1318.3	2.7882e-05	3.0473e-05	1159.1	368.16	2.9355e-05	3.0389e-05	489.79	212.52	173.81	72.499	2.9518e-05	92.625	330.896	430.325	289.396	134.678	250.146	239.554	133.452	140.145	373.649	136.416	138.065	142.514	144.282	149.828	122.980	146.846	-8191	255	
3235.915	1	1	0	0	0.085525	0.20859	0.038762	0.15085	0.12232	0.19036	0.20813	0.2543	0.41467	0.20132	0.13475	0.15084	0.30248	0.19985	0.052454	0.24462	-2.2958	-2.8521	-2.7042	-2.3729	-2.9146	-2.8187	-2.7521	-3.1271	-2.6479	-2.8	-2.9521	-2.9292	-3.0354	-2.9896	-2.6042	-3.1521	299.942	182.252	124.897	184.102	436.551	382.150	436.111	135.385	315.274	205.469	414.933	439.261	461.340	384.054	221.718	162.935	0.0025816	0.00087035	0.00010053	1109.3	1.3361e-05	1.5722e-05	1245.5	393.26	1.0543e-05	1.7616e-05	497.94	228.5	185.06	76.995	1.0394e-05	98.275	0.0026968	0.0027896	0.00075377	1317.8	2.9752e-05	3.0804e-05	1158.7	365.16	3.0676e-05	3.0377e-05	480.76	209.39	172.82	72.203	2.9277e-05	91.278	351.480	292.826	235.343	134.540	203.517	367.547	133.372	139.843	314.840	140.959	138.174	142.707	144.178	149.949	250.903	146.710	-8191	255	
3236.036	1	1	0	0	0.18904	0.071965	0.15458	0.14989	0.040447	0.16175	0.14503	0.1717	0.15659	0.18118	0.36143	0.35082	0.21578	0.20804	0.23082	0.14004	-2.275	-2.6896	-2.9417	-2.3708	-2.9542	-2.8167	-2.8979	-3.1333	-2.575	-2.6458	-3.0542	-2.7292	-3.0771	-3.0083	-2.5833	-3.3	472.768	439.398	467.480	480.425	159.066	266.978	368.946	446.617	405.683	410.513	462.394	462.395	133.574	428.031	332.006	418.840	0.0019101	0.0020068	0.00034394	1123.2	2.5099e-05	1.0331e-05	1220.6	390.28	1.0257e-05	3.181e-05	498.64	228.5	183.96	76.52	1.2581e-05	98.91	0.0028013	0.0028242	0.00073397	1337.2	3.1602e-05	3.1547e-05	1143.6	364.99	3.2957e-05	3.2032e-05	478.72	210.88	174.03	72.063	2.9927e-05	92.185	334.348	306.608	319.311	134.914	293.358	281.406	133.421	139.778	131.066	310.601	137.692	142.107	143.938	150.243	350.343	146.585	-8191	255	
3236.130	1	1	0	0	0.24792	0.04172	0.056254	0.12191	0.035855	0.17095	0.30075	0.036285	0.19216	0.2319	0.28412	0.35713	0.4563	0.033552	0.21112	0.19909	-2.2042	-2.7812	-3.2271	-2.4938	-2.8271	-2.8479	-2.7208	-3.1417	-2.7833	-2.6708	-3.1625	-2.6646	-2.9646	-2.9729	-2.475	-3.1104	137.093	428.075	302.672	206.989	445.482	419.632	472.004	443.215	168.304	236.527	472.865	423.349	477.552	356.599	314.124	127.176	0.0020838	0.0024018	0.00029208	1098.5	1.6536e-06	8.7178e-06	1232	391	1.4478e-05	2.2144e-05	501.24	228.17	184.15	76.646	1.3127e-05	98.969	0.0029227	0.0028863	0.00073042	1365.3	3.1949e-05	3.1283e-05	1147.8	367.77	3.2019e-05	3.148e-05	479.33	212.65	174.16	72.063	2.9561e-05	93.175	322.051	220.678	239.160	133.483	182.788	247.128	133.461	140.233	123.989	413.765	137.541	142.474	144.080	149.937	420.804	146.656	-8191	255	
3236.226	1	1	0	0	0.058059	0.34514	0.28406	0.19427	0.2617	0.13021	0.17092	0.1839	0.13937	0.16588	0.11306	0.097558	0.25264	0.35843	0.067119	0.42621	-2.2958	-2.5521	-3.0646	-2.6333	-2.8917	-2.9146	-2.8854	-2.9354	-2.8354	-2.7208	-3.1417	-2.9042	-2.9542	-3.1312	-2.8208	-3.0458	250.588	465.868	472.774	479.719	267.869	377.815	415.757	446.985	201.434	366.572	416.557	152.234	415.595	140.561	402.478	446.675	0.0023802	0.0014099	0.00020937	1121.6	1.9356e-05	1.1876e-05	1236.4	394.06	7.656e-06	8.9458e-06	507.81	230.36	184.49	76.49	1.3232e-05	98.937	0.0029588	0.0029489	0.00074079	1405.8	3.2826e-05	3.1706e-05	1155.2	373.71	3.31e-05	3.1995e-05	486.48	214.83	175.21	71.893	3.08e-05	93.682	346.727	317.037	146.627	134.595	294.793	330.199	133.319	139.868	240.338	452.968	137.835	142.383	144.655	150.113	184.047	146.864	-8191	255	
3236.322	1	1	0	0	0.27599	0.096684	0.3878	0.11638	0.16057	0.061314	0.46191	0.21825	0.14885	0.14948	0.12069	0.11327	0.18644	0.60366	0.14616	0.35429	-2.3479	-2.5979	-2.9167	-2.7375	-2.6792	-3.0417	-2.8125	-3.1437	-2.8187	-2.6708	-3.2417	-2.6021	-2.9104	-2.8917	-2.525	-3.0354	213.991	229.631	357.581	132.025	426.239	290.443	474.161	445.434	132.551	439.640	399.199	473.954	218.189	438.743	365.229	481.582	0.00269	0.0004253	0.0007121	1111.9	8.4656e-06	1.2179e-05	1226.2	389.57	2.9658e-05	1.6129e-05	498.68	225.99	183	76.064	2.0746e-05	97.662	0.0029325	0.0028425	0.00076602	1397	3.2595e-05	3.012e-05	1149.8	370.15	3.1957e-05	3.0169e-05	481.47	211.29	172.56	70.856	3.1699e-05	92.524	337.625	225.854	164.387	134.442	467.504	326.677	133.228	139.885	465.309	298.751	137.843	142.584	144.158	149.829	167.816	146.782	-8191	255	
3236.443	1	1	0	0	0.048098	0.1881	0.14379	0.19416	0.17513	0.043109	0.29856	0.22274	0.32189	0.057866	0.15671	0.31193	0.10391	0.14491	0.083458	0.26354	-2.2938	-2.4604	-2.8917	-2.4854	-2.8021	-3.0292	-2.5417	-2.7625	-2.8417	-2.575	-3.0458	-2.8708	-2.7104	-3.2188	-2.7208	-3.1021	193.732	126.771	154.260	321.789	306.249	377.285	434.308	428.901	160.447	188.159	443.504	455.191	409.786	435.486	350.162	414.026	0.0027737	0.0032766	0.00037586	1121.4	1.2968e-05	9.4565e-06	1227.5	390.7	1.4652e-05	2.1448e-05	500.64	225.98	183.43	76.114	6.7756e-06	98.448	0.0028448	0.0027275	0.00079703	1392.5	3.1865e-05	2.8734e-05	1156.3	370.38	3.1269e-05	2.9704e-05	485.25	211.87	173	70.965	3.2398e-05	93.057	325.158	179.982	125.460	134.454	414.591	308.731	133.053	139.651	222.580	260.048	137.580	142.097	144.440	150.285	248.874	146.504	-8191	255	
3236.515	1	1	0	0	0.2034	0.13683	0.19517	0.02177	0.20655	0.31792	0.15902	0.20142	0.42607	0.097391	0.10866	0.41104	0.29342	0.44718	0.075059	0.025376	-2.3771	-2.575	-2.8729	-2.6104	-2.7938	-2.775	-2.7521	-2.8812	-3.0375	-2.5458	-2.9792	-2.8146	-2.7396	-3.15	-2.6792	-2.9354	427.569	381.448	385.381	314.686	366.367	437.793	420.084	164.067	324.463	408.949	450.171	460.546	332.174	404.660	377.245	133.620	0.0019445	0.001344	0.00015256	1127.1	2.2144e-05	2.0772e-05	1230.9	393.99	1.7629e-05	1.6736e-05	504.23	229.38	184.63	76.985	1.5939e-05	99.074	0.0027369	0.0027325	0.00081893	1388.7	3.0937e-05	2.929e-05	1165.4	371.45	2.9996e-05	3.0451e-05	490.51	213.15	172.51	71.662	3.2459e-05	93.426	334.339	194.639	159.676	134.073	354.110	183.615	133.559	139.631	171.477	195.734	138.203	142.358	143.993	150.059	280.855	146.730	-8191	255	
3236.635	1	1	0	0	0.044446	0.13668	0.27579	0.24625	0.22618	0.079368	0.29259	0.18443	0.010305	0.055452	0.19489	0.37873	0.27639	0.22415	0.12387	0.34238	-2.4604	-2.4688	-2.7292	-2.6958	-2.6625	-2.9417	-2.8771	-2.9979	-3.0125	-2.5917	-2.9271	-2.8604	-2.5958	-3.0833	-2.7521	-2.8521	383.353	256.641	340.032	402.060	182.544	206.311	397.887	387.737	419.713	150.523	327.391	438.434	465.209	165.475	232.704	432.781	0.0023663	0.0025395	0.00074137	1128.3	3.3548e-06	2.1416e-05	1249	394.6	2.9463e-06	1.03e-05	508.16	229.27	184.15	76.952	2.1223e-05	98.148	0.002603	0.0028316	0.00081948	1377.7	2.9579e-05	3.0316e-05	1172	372.17	2.7922e-05	3.151e-05	490.68	212.67	171.65	71.809	3.1545e-05	92.61	351.133	164.162	204.376	133.620	148.031	256.945	133.348	139.769	376.930	200.005	137.698	142.643	144.373	149.795	254.191	146.719	-8191	255	
3236.732	1	1	0	0	0.08331	0.10076	0.2071	0.050908	0.19025	0.08	0.24148	0.13793	0.024936	0.18587	0.12124	0.28425	0.20951	0.19392	0.17419	0.088445	-2.5854	-2.6833	-2.675	-2.8812	-2.7375	-2.8854	-2.9062	-2.8583	-3.025	-2.6562	-2.8875	-3.1042	-2.7917	-2.9437	-2.8146	-2.9625	189.606	334.428	277.355	454.225	307.549	472.457	398.526	469.749	214.395	397.441	368.846	478.211	438.591	441.123	423.711	147.326	0.0020699	0.0020741	0.0003791	1108.8	1.759e-05	1.5783e-05	1230.1	388.57	1.3191e-05	5.1971e-06	502.71	227.97	184.02	75.798	6.5048e-06	98.544	0.0025126	0.0028634	0.00079418	1345.2	2.8432e-05	3.0902e-05	1150.9	366.62	2.7496e-05	3.163e-05	485.98	210.43	171.37	71.565	3.0892e-05	92.411	328.126	188.064	253.204	133.538	231.641	363.160	132.941	139.886	360.178	176.009	137.939	142.040	144.548	150.254	163.627	146.602	-8191	255	
3236.828	1	1	0	0	0.23847	0.12613	0.18605	0.14448	0.12968	0.18139	0.30117	0.09626	0.20539	0.10289	0.12178	0.1468	0.14947	0.13084	0.1007	0.28038	-2.4854	-2.5292	-2.7646	-2.9854	-2.6333	-2.9729	-3.0958	-2.6188	-3.0354	-2.7646	-3.05	-3.0417	-2.8937	-3.0604	-3.05	-2.5375	393.132	198.042	410.917	185.356	392.608	355.821	390.595	366.685	390.633	408.902	346.028	408.681	458.153	458.681	240.716	455.488	0.0032792	0.0008594	0.00034551	1090.7	3.1416e-05	6.7685e-06	1235.6	394.33	2.9797e-05	3.6518e-05	508.11	229.23	184.85	76.7	1.4959e-05	98.378	0.0025494	0.0029075	0.00078468	1324.5	2.9758e-05	3.1418e-05	1160.9	367.99	2.8796e-05	3.1834e-05	489.19	211.04	173.04	72.159	3.0333e-05	92.364	344.989	222.284	227.054	134.380	311.956	234.756	133.268	139.862	184.581	257.646	138.018	142.573	144.278	150.009	354.932	146.561	-8191	255	
3236.924	1	1	0	0	0.30995	0.17318	0.055471	0.26654	0.1627	0.16227	0.29909	0.083939	0.00934	0.13425	0.070048	0.20076	0.35544	0.27489	0.19448	0.21433	-2.5125	-2.7938	-2.5854	-3.0187	-2.7479	-2.6604	-3.05	-2.7562	-3.0417	-2.7354	-2.7438	-3.1354	-2.7167	-2.8833	-2.8771	-2.75	330.785	473.419	298.398	466.918	122.275	375.906	370.556	460.150	442.826	375.788	464.298	353.638	415.491	463.112	372.902	432.004	0.0031538	0.0026069	0.00058988	1116.7	1.4227e-05	7.2883e-06	1242.3	397.69	1.6084e-05	2.1038e-05	513.28	233.23	185.47	77.014	5.9452e-06	99.635	0.0026661	0.0028603	0.00077055	1306.6	3.0471e-05	3.0912e-05	1163	368.13	2.995e-05	3.1175e-05	492.17	212.25	174.01	72.267	2.9539e-05	92.797	341.633	139.523	306.717	134.183	264.268	324.154	133.129	139.713	155.930	274.130	138.030	142.544	144.506	150.169	410.130	146.934	-8191	255	
3237.044	1	1	0	0	0.11445	0.18367	0.16774	0.31449	0.053568	0.23471	0.23895	0.49324	0.054222	0.094845	0.22034	0.22908	0.26652	0.29317	0.37082	0.3615	-2.6375	-2.85	-2.7125	-2.9604	-2.5312	-2.6688	-3.1125	-2.65	-3.0104	-2.775	-2.725	-3.1	-2.6896	-2.7958	-3.0021	-2.8042	345.685	144.735	363.878	418.814	452.488	260.085	426.420	432.234	264.460	415.923	467.281	396.864	135.322	458.526	476.918	409.814	0.0024445	0.0018241	0.00068739	1112.3	1.3609e-05	1.8696e-05	1234.1	393.63	1.2414e-05	1.143e-05	502.45	228.26	183.33	76.157	2.4422e-05	98.702	0.0027328	0.0027946	0.0007541	1305.4	3.0878e-05	3.0144e-05	1145.9	366.39	3.0186e-05	2.9958e-05	480.36	209.08	172.27	71.336	2.7107e-05	91.889	344.546	214.754	306.295	134.225	360.694	255.262	133.017	139.885	217.027	313.090	137.842	142.297	144.592	150.200	403.546	146.928	-8191	255	
3237.114	1	1	0	0	0.12912	0.20217	0.11369	0.024793	0.070026	0.20011	0.26364	0.28213	0.19771	0.18069	0.13699	0.0023047	0.13657	0.16554	0.16315	0.23934	-2.4333	-2.8542	-2.4583	-3.0083	-2.6667	-2.7188	-3.1688	-2.8937	-2.7708	-3	-2.6521	-3.1688	-2.7583	-3	-2.9458	-2.8937	451.997	371.352	383.873	132.170	152.282	149.945	452.270	380.384	464.555	176.472	463.156	180.000	422.000	448.159	287.702	377.817	0.0024696	0.0012779	0.00055366	1111.9	6.2264e-06	2.0169e-05	1232.5	392.77	4.697e-06	1.2785e-05	504.23	230.64	183.6	76.911	3.314e-05	98.817	0.0026751	0.0026644	0.00070668	1310.5	3.0183e-05	2.919e-05	1135.3	365.22	2.9437e-05	2.9084e-05	477.46	210.88	172.18	71.603	2.6252e-05	92.434	345.058	267.628	252.691	134.261	337.052	321.691	133.157	139.737	314.430	433.307	137.784	142.584	144.689	150.195	297.204	146.710	-8191	255	
3237.211	1	1	0	0	0.086686	0.039419	0.063262	0.092557	0.066721	0.11401	0.18553	0.25036	0.1224	0.12848	0.24296	0.11897	0.20821	0.1409	0.13916	0.095938	-2.4729	-2.9458	-2.4938	-3.0458	-2.5125	-2.7146	-3.0438	-2.8104	-2.7542	-3.0354	-2.7792	-3.2188	-2.9167	-2.7979	-2.9375	-2.6875	137.554	193.354	210.605	143.531	478.574	311.849	452.875	410.833	298.928	153.515	426.766	376.492	424.154	220.699	130.635	422.441	0.0019824	0.0012601	0.0008271	1111.3	1.5297e-05	1.7894e-05	1243.9	394.68	1.6494e-05	8.6771e-06	512.25	230.33	186.21	76.88	2.8487e-06	99.59	0.0026725	0.0026149	0.00068176	1323.9	2.9344e-05	2.8584e-05	1142.7	368.34	2.8758e-05	2.7888e-05	482.01	212.21	173.06	71.531	2.6491e-05	93.381	343.162	170.286	239.040	134.320	376.146	363.664	133.197	139.742	250.109	399.547	137.707	142.093	144.524	149.948	261.109	146.799	-8191	255	
3237.331	1	1	0	0	0.21008	0.1677	0.25857	0.22761	0.21334	0.13917	0.19734	0.23427	0.062048	0.0090039	0.26273	0.25437	0.16136	0.3071	0.10922	0.10466	-2.3	-2.9729	-2.7375	-3.025	-2.7292	-2.6354	-3.2542	-2.7812	-2.7104	-2.8438	-2.6917	-2.9604	-2.825	-2.7646	-2.9	-2.8958	238.786	253.417	412.542	388.630	316.658	196.029	411.046	405.311	161.664	152.512	329.720	420.841	432.123	447.045	417.130	465.259	0.0029526	0.0021149	0.00011192	1111.4	1.1228e-05	3.2608e-06	1251.5	396.11	2.0239e-05	9.574e-06	514.12	232.88	186.12	76.993	2.0516e-05	99.895	0.0026386	0.00253	0.00070322	1344.1	2.9365e-05	2.7956e-05	1154.7	371.1	2.9018e-05	2.6801e-05	487.93	214.07	172.92	71.332	2.7304e-05	93.305	317.817	330.465	412.264	134.846	195.091	375.360	133.536	139.730	213.184	215.477	137.470	142.193	144.352	150.026	402.835	146.693	-8191	255	
3237.427	1	1	0	0	0.074166	0.19024	0.061801	0.26902	0.16248	0.21344	0.17845	0.32888	0.10149	0.10364	0.22842	0.37049	0.36616	0.22134	0.066579	0.33781	-2.4208	-2.9542	-2.6104	-2.8563	-2.9896	-2.4292	-3.1792	-2.6937	-2.8583	-2.9104	-2.7313	-2.7542	-2.8354	-2.6312	-2.9958	-2.7792	365.506	270.324	230.534	161.822	148.313	378.745	399.453	421.358	423.827	244.036	430.610	130.899	457.232	407.926	457.484	395.145	0.0020446	0.0016631	0.00016584	1109.2	2.1648e-05	2.6638e-05	1234.3	393.17	8.814e-06	3.2059e-05	503.56	227.77	183.73	76.443	6.2745e-06	98.949	0.0025726	0.0023839	0.00071877	1339	2.86e-05	2.6518e-05	1142.2	368.07	2.8606e-05	2.5868e-05	482.64	210.53	170.81	70.802	2.83e-05	92.648	346.925	254.691	233.928	134.626	305.774	253.665	133.189	139.752	200.774	302.867	137.413	142.521	144.551	150.223	296.445	146.585	-8191	255	
3237.524	1	1	0	0	0.33409	0.071674	0.20137	0.099269	0.023109	0.032479	0.10812	0.064246	0.10618	0.2324	0.07562	0.3711	0.15566	0.1012	0.075168	0.2115	-2.1437	-3.0021	-2.6646	-2.825	-2.7062	-2.7604	-3.1542	-3.0917	-2.5833	-2.9667	-2.6667	-2.8125	-3.2438	-2.6375	-2.7	-2.8583	175.654	401.736	431.372	401.096	304.863	288.691	242.963	428.390	151.690	312.120	403.172	415.557	450.604	163.373	217.797	127.024	0.0019068	0.0016267	0.00020382	1110.4	2.6287e-05	5.6837e-06	1231.2	393.92	8.5506e-06	1.7192e-05	510	230.02	184.94	77.084	1.0085e-06	99.274	0.0025285	0.0023578	0.0007392	1325	2.719e-05	2.6364e-05	1149.4	367.93	2.7504e-05	2.6447e-05	487.16	212.19	170.94	71.302	2.9117e-05	92.758	331.599	199.381	173.317	135.007	364.824	278.424	133.181	139.583	184.370	415.698	137.663	142.838	144.286	150.112	133.055	147.019	-8191	255	
3237.620	1	1	0	0	0.15878	0.26684	0.13058	0.10757	0.088547	0.068187	0.26416	0.3286	0.063884	0.18435	0.34287	0.046274	0.12353	0.36062	0.10704	0.045488	-2.2188	-3.0042	-2.7729	-2.6979	-3.1375	-2.5271	-3.2729	-2.8333	-2.6125	-2.8583	-2.6333	-2.8563	-3.0312	-2.75	-2.7125	-3.0687	258.676	413.374	214.128	332.087	306.353	180.868	396.322	414.018	201.794	206.983	446.515	314.590	445.380	404.570	381.604	323.432	0.0025045	0.0015348	0.00020565	1127.5	2.2819e-06	1.4707e-05	1249.3	396.37	2.3593e-05	1.5675e-05	510.61	232.98	184.74	77.177	6.49e-06	100.7	0.0024751	0.0024882	0.00075199	1328.1	2.6401e-05	2.8248e-05	1164.6	370.89	2.7254e-05	2.8609e-05	491.81	214.3	171.01	71.896	2.9846e-05	93.859	338.380	444.149	159.577	134.226	284.286	209.998	133.444	139.883	479.086	248.000	137.738	142.547	144.257	149.822	361.729	146.940	-8191	255	
3237.716	1	1	0	0	0.076945	0.17356	0.14333	0.1528	0.18341	0.071912	0.29125	0.37867	0.19388	0.17735	0.19172	0.30025	0.41669	0.41267	0.099245	0.20935	-2.1208	-2.9979	-2.7625	-2.8354	-2.6979	-2.5333	-2.8	-3.1	-2.5062	-2.8479	-2.7917	-2.7792	-3.0229	-2.5625	-2.7917	-3.1688	424.623	271.854	332.079	199.040	124.958	437.722	356.910	394.617	471.367	422.660	421.337	459.312	424.897	154.997	134.625	448.916	0.0024329	0.00037756	0.00032285	1117.3	3.0234e-05	1.6434e-05	1258.9	395.77	2.7528e-05	1.2485e-05	508.44	229.15	183.64	76.776	1.7834e-05	98.61	0.0024673	0.0026847	0.00077113	1349.9	2.6925e-05	2.9903e-05	1167.2	369.25	2.7438e-05	3.0018e-05	488.92	211.59	170.22	72.082	3.0276e-05	92.275	322.242	465.452	281.843	134.973	281.880	194.291	133.454	139.634	474.806	263.465	137.813	142.336	144.100	149.925	345.977	146.730	-8191	255	
3237.810	1	1	0	0	0.0017754	0.02935	0.27849	0.072605	0.15709	0.23146	0.35548	0.11501	0.14474	0.21591	0.236	0.11558	0.097296	0.23897	0.098116	0.25179	-2.1208	-3.0125	-2.7625	-2.5062	-2.9604	-2.5312	-2.6958	-3.0062	-2.4688	-3.1063	-2.8104	-2.8937	-2.9479	-2.8125	-2.7354	-3.1437	180.000	150.049	138.718	127.397	375.201	335.649	373.046	424.237	446.011	471.703	420.649	426.337	388.362	424.262	436.160	445.216	0.0026866	0.001412	0.00030731	1112.5	1.7284e-05	1.2191e-05	1242.7	393.84	1.8098e-05	1.2985e-05	504.17	228.29	184.07	76.176	2.8659e-05	98.931	0.0025165	0.0027844	0.00076716	1330.2	2.7326e-05	3.0881e-05	1152.3	365.28	2.816e-05	3.049e-05	485.22	209.93	170.6	71.843	3.0108e-05	91.869	345.136	227.294	211.683	134.294	262.064	276.247	133.684	139.615	232.767	413.763	137.966	142.173	144.291	149.900	235.855	146.921	-8191	255	
3237.906	1	1	0	0	0.043592	0.17775	0.15766	0.032752	0.045999	0.096857	0.36138	0.097578	0.10685	0.12067	0.17921	0.21853	0.27183	0.46429	0.13849	0.25127	-2.2188	-2.9333	-2.7313	-2.4271	-3.0292	-2.7292	-2.5792	-3.0979	-2.8083	-2.8063	-3.1375	-2.4771	-3.1312	-2.7896	-2.6333	-3.1625	193.807	182.903	377.484	447.241	389.033	426.284	421.989	426.043	168.084	251.652	455.097	468.326	386.577	441.381	236.859	403.224	0.0027925	0.0020636	0.00014016	1119.8	7.0788e-06	1.4626e-05	1241.3	392.06	2.994e-06	1.2677e-05	507.56	229.46	185.89	76.652	2.9115e-05	99.163	0.0026398	0.0028026	0.00076793	1323.3	2.9173e-05	3.115e-05	1159.9	365.65	2.9815e-05	3.0883e-05	487.86	211.2	173.06	71.99	3.0069e-05	92.442	338.896	175.001	185.657	134.757	389.690	299.129	133.249	139.943	224.927	388.160	138.021	142.552	144.350	150.030	339.463	146.827	-8191	255	
3238.003	1	1	0	0	0.21781	0.12738	0.10271	0.18166	0.096576	0.094324	0.31746	0.10382	0.28965	0.089902	0.26042	0.53292	0.12993	0.108	0.2449	0.47825	-2.2188	-2.8812	-2.8542	-2.5458	-2.9	-2.9354	-2.6937	-3.3021	-2.5521	-2.7438	-2.8937	-2.6833	-3.0792	-3.0333	-2.6188	-3.1	178.029	370.497	461.457	397.554	322.505	295.722	404.224	389.696	305.137	404.422	436.419	465.563	432.280	481.154	137.096	374.472	0.0030619	0.00025416	0.00051957	1131.1	7.2085e-06	2.6588e-05	1243.5	398.93	2.0953e-05	3.5913e-06	508.76	233.22	186.13	77.092	1.25e-05	100.39	0.0027479	0.0028151	0.00075563	1326	3.0926e-05	3.1034e-05	1165.5	369.92	3.1076e-05	3.0547e-05	488.25	213.58	174.1	72.287	2.8548e-05	93.225	338.906	409.258	258.803	134.241	175.505	231.346	133.393	139.678	226.283	127.494	137.658	142.598	144.327	149.939	300.150	146.862	-8191	255	
3238.123	1	1	0	0	0.11474	0.12039	0.28244	0.15874	0.033181	0.13455	0.076436	0.38915	0.076333	0.18696	0.33699	0.28439	0.22438	0.081592	0.071244	0.2418	-2.15	-2.6562	-2.8875	-2.5792	-2.8812	-2.6458	-2.7167	-2.9792	-2.6646	-2.8792	-3.1437	-2.9417	-2.9521	-3.0312	-2.5479	-3.2208	129.641	292.783	176.676	465.836	220.423	328.145	134.886	421.432	252.437	211.458	408.968	465.411	439.636	442.430	256.062	470.491	0.0019829	0.00044626	0.00021624	1097.9	1.2406e-05	1.2561e-05	1238.9	393.44	2.115e-06	8.5385e-06	502.12	229.86	183.73	76.633	1.5814e-05	99.263	0.0027693	0.0027553	0.00070347	1322.3	3.0335e-05	2.9876e-05	1150.8	367.83	3.0657e-05	3.0321e-05	478.65	211.3	172.51	71.683	2.7595e-05	92.588	337.626	174.168	337.447	134.576	326.432	203.680	133.355	140.098	397.031	342.540	137.622	142.305	144.238	149.972	336.510	146.811	-8191	255	
3238.219	1	1	0	0	0.22152	0.22138	0.31372	0.088612	0.15798	0.11	0.13366	0.16655	0.31046	0.17038	0.27857	0.15799	0.2023	0.30736	0.29049	0.14287	-2.3125	-2.8417	-3.1292	-2.4458	-2.9375	-2.8812	-2.75	-3.1167	-2.8937	-2.7562	-3.0333	-2.8542	-2.7875	-3.1208	-2.4833	-3.075	167.403	282.544	435.555	228.767	443.970	128.262	471.134	425.502	416.208	238.815	150.162	375.481	149.967	140.431	240.730	150.252	0.0022221	0.0003026	0.00028724	1108	1.2654e-05	1.9849e-05	1241	396.81	6.9103e-06	2.1278e-05	506.73	230.38	184.25	76.849	2.6188e-05	99.453	0.002746	0.0027396	0.00068838	1344.5	3.0515e-05	2.9484e-05	1146.2	370.18	3.0505e-05	2.9844e-05	480.42	213.18	173.29	71.735	2.895e-05	94.098	339.683	266.788	423.576	133.765	300.475	258.115	133.740	139.917	142.242	405.356	137.903	142.154	144.709	149.799	266.435	146.814	-8191	255	
3238.315	1	1	0	0	0.099142	0.16253	0.20819	0.15777	0.28266	0.044024	0.1764	0.19351	0.20728	0.056832	0.18725	0.065752	0.40981	0.37753	0.11296	0.27464	-2.5125	-2.5917	-2.8937	-2.5958	-2.6396	-2.9854	-2.5896	-3.1583	-2.6146	-2.6604	-3.0146	-2.875	-2.9146	-3.0896	-2.2917	-3.15	411.050	281.487	126.105	426.199	403.390	375.924	400.344	419.840	203.043	127.806	434.334	158.109	436.841	479.354	301.514	427.478	0.002581	0.0013575	0.00047567	1119.4	9.0047e-06	2.0398e-05	1253.7	397.06	4.8122e-06	8.7508e-06	511	229.62	184.76	76.707	2.285e-05	100.18	0.002875	0.002833	0.00075199	1405	3.2878e-05	3.0811e-05	1165.1	375.37	3.2894e-05	3.1574e-05	491.32	215.67	174.73	71.987	3.1303e-05	94.891	338.553	351.208	122.847	133.427	241.440	439.871	133.434	140.072	258.431	221.449	137.753	142.376	144.489	149.816	253.992	146.862	-8191	255	
3238.412	1	1	0	0	0.16118	0.16207	0.097436	0.18315	0.20575	0.27654	0.38448	0.25307	0.098991	0.2292	0.053213	0.25463	0.36109	0.13311	0.18941	0.05647	-2.3083	-2.5583	-2.9562	-2.6625	-2.5854	-3.1646	-2.675	-3.1375	-2.6521	-2.6354	-2.9854	-2.9146	-2.7	-3.0292	-2.6396	-2.8729	437.497	251.313	161.463	464.994	167.713	462.020	401.242	458.580	475.914	414.413	332.612	426.247	441.376	426.028	187.984	356.085	0.0030436	0.0011083	0.00025533	1128.1	3.7956e-06	1.9867e-05	1253.9	398.97	6.472e-06	1.9347e-05	510.75	231.98	186.51	76.868	2.1379e-05	99.918	0.0029246	0.0027982	0.00079147	1408.5	3.3105e-05	2.9893e-05	1180	376.85	3.2512e-05	3.0562e-05	496.06	216.06	175.06	71.741	3.2216e-05	94.535	342.754	290.245	239.657	133.887	386.481	303.534	133.357	139.762	197.025	239.324	137.639	142.110	144.708	150.047	249.063	146.725	-8191	255	
3238.506	1	1	0	0	0.28958	0.18103	0.15667	0.27826	0.12257	0.12343	0.32468	0.18764	0.20554	0.14123	0.3402	0.27643	0.30479	0.27903	0.070454	0.32001	-2.4417	-2.5563	-3.05	-2.7292	-2.7833	-2.8917	-2.8708	-2.7104	-3.0667	-2.5375	-3.1729	-3.0125	-2.8688	-2.9562	-2.5646	-2.7625	339.102	428.428	290.557	377.852	159.227	455.475	447.802	469.249	169.259	479.715	387.833	469.935	476.321	458.357	301.634	426.897	0.0024966	0.0013047	0.00033589	1108.2	1.7558e-06	2.7964e-05	1236.1	392.86	1.3446e-05	1.0175e-05	501.01	227.9	183.67	76.223	2.3606e-05	98.623	0.0028089	0.0027108	0.00081333	1385.8	3.1538e-05	2.8861e-05	1160.8	370.73	3.0486e-05	2.9653e-05	487.32	212.51	172.26	71.281	3.2529e-05	93.398	337.410	281.851	173.952	134.277	308.408	237.453	133.336	140.062	427.109	379.455	137.602	142.535	144.246	150.074	169.730	147.381	-8191	255	
3238.602	1	1	0	0	0.25373	0.13336	0.068573	0.13995	0.029634	0.10823	0.4003	0.11483	0.089583	0.04008	0.28917	0.41859	0.11722	0.42341	0.11338	0.079918	-2.5604	-2.4708	-2.8354	-2.8167	-2.7021	-3.0354	-2.8563	-2.8917	-2.9313	-2.6417	-3.15	-3.0021	-2.7396	-3.1708	-2.7438	-2.7646	265.179	138.215	281.866	448.693	368.950	180.523	441.664	126.913	472.457	389.596	411.104	454.845	448.667	396.511	215.278	133.267	0.0024672	0.001936	0.00031845	1124.9	1.7231e-05	2.7255e-05	1242	392.85	2.1949e-06	2.2813e-05	501.22	230.04	184.77	76.91	3.5971e-06	99.417	0.0026815	0.0027459	0.0008292	1382.3	3.0737e-05	3.0042e-05	1168.3	371.75	2.9456e-05	3.0938e-05	489.89	213.79	173.31	72.017	3.211e-05	93.979	339.765	166.123	407.737	134.374	297.888	286.496	133.225	139.693	301.619	479.798	137.933	142.497	144.418	149.692	479.937	146.872	-8191	255	
3238.723	1	1	0	0	0.026827	0.044461	0.053302	0.12797	0.075945	0.17539	0.27207	0.2857	0.26897	0.10157	0.1848	0.17228	0.16532	0.14215	0.22802	0.24543	-2.5125	-2.5771	-2.7833	-2.8125	-2.6708	-2.8417	-2.8458	-2.6896	-3.0354	-2.7188	-2.9396	-2.9437	-2.6271	-3.1396	-2.7125	-2.5729	207.363	257.560	339.457	253.739	468.146	383.000	425.156	466.164	316.113	211.949	169.379	474.326	445.656	441.501	156.696	448.164	0.0021769	0.00061694	0.00047016	1101.5	1.0983e-05	4.3082e-05	1242.6	395.87	3.4201e-05	1.0585e-05	512.62	231.18	187.18	77.436	3.047e-05	100.97	0.0025866	0.0028925	0.00082383	1366.8	2.9393e-05	3.1536e-05	1169.5	372.84	2.8675e-05	3.2688e-05	495.91	215.2	173.77	72.809	3.2479e-05	94.992	330.812	241.467	287.422	134.906	454.385	193.954	133.449	140.024	240.527	211.900	137.758	142.529	144.523	150.218	155.486	146.872	-8191	255	
3238.819	1	1	0	0	0.064075	0.12862	0.21954	0.0097465	0.10195	0.21992	0.18475	0.1341	0.17035	0.2138	0.031145	0.38752	0.27585	0.32772	0.18128	0.11459	-2.5333	-2.4542	-2.7729	-2.8833	-2.5812	-2.8167	-2.9292	-2.6729	-3.0375	-2.6896	-2.9271	-3.1292	-2.5708	-3.05	-2.6958	-2.5896	417.528	383.086	271.716	190.123	332.674	167.407	399.449	430.944	186.168	152.743	467.901	433.556	399.594	458.242	194.992	377.723	0.003143	0.0023123	0.00070549	1138.5	1.0254e-05	2.9026e-05	1240.8	393.95	2.7282e-05	1.2349e-05	506.06	229.46	185.7	76.815	1.3914e-05	99.812	0.0026175	0.0030021	0.00082805	1364.9	2.965e-05	3.206e-05	1166.6	370.11	2.9045e-05	3.2717e-05	489.4	212.08	173	72.368	3.1142e-05	93.458	340.442	202.112	271.151	134.805	237.499	228.959	133.426	139.624	233.772	313.576	138.130	142.670	144.814	149.956	273.700	146.965	-8191	255	
3238.915	1	1	0	0	0.29965	0.13534	0.11913	0.30376	0.031209	0.062135	0.068296	0.2516	0.13421	0.16706	0.22753	0.36016	0.37195	0.14944	0.15913	0.19501	-2.5625	-2.7271	-2.7208	-2.9896	-2.55	-2.7438	-2.9375	-2.4188	-3.0875	-2.6604	-2.7021	-3.0438	-2.6792	-2.8312	-2.8479	-2.7208	457.089	442.771	156.012	392.209	146.051	343.158	404.811	471.992	278.568	248.116	455.140	453.102	467.593	194.280	162.263	126.116	0.001969	0.0031096	9.7948e-05	1122.3	2.3771e-05	2.3304e-05	1231.3	390.96	2.519e-05	1.4425e-05	502.43	230.61	185.2	76.304	3.0087e-05	100.19	0.0026491	0.0029832	0.00081101	1329.1	3.0767e-05	3.2225e-05	1158	365.39	3.0434e-05	3.2522e-05	487.27	211.4	173.95	72.281	3.0994e-05	93.354	327.630	241.363	456.389	134.031	250.468	435.431	133.168	139.740	177.812	222.204	137.927	142.419	144.335	149.814	274.616	146.645	-8191	255	
3238.987	1	1	0	0	0.14585	0.21832	0.15682	0.21701	0.022866	0.19845	0.32735	0.18506	0.19166	0.19564	0.13943	0.17786	0.21791	0.23824	0.087776	0.21514	-2.4208	-2.6083	-2.5708	-3.0812	-2.5583	-2.7542	-3.1625	-2.7146	-2.8083	-2.7646	-2.6771	-3.1125	-2.8896	-2.9229	-2.8896	-2.5333	436.004	145.953	306.951	166.445	398.943	443.449	406.271	416.167	298.997	140.936	140.492	375.757	435.602	457.189	284.828	422.897	0.0031352	0.0014344	0.00044501	1111.6	7.7986e-06	1.2614e-05	1239.2	394.23	3.1651e-05	2.7884e-05	506.85	230.77	185.38	77.243	1.535e-05	101.16	0.0027721	0.0029365	0.00080165	1320.6	3.1945e-05	3.2331e-05	1160.3	368.03	3.1442e-05	3.2185e-05	491.09	212.68	175.28	72.813	3.0744e-05	94.35	330.397	154.498	429.179	133.862	174.379	289.204	133.428	140.059	265.244	295.380	137.776	142.274	143.977	149.746	332.124	146.604	-8191	255	
3239.107	1	1	0	0	0.1079	0.041757	0.22414	0.18591	0.086796	0.40331	0.097748	0.20915	0.10376	0.16959	0.31271	0.25724	0.33288	0.31909	0.071136	0.18538	-2.5854	-2.7083	-2.4625	-2.7875	-2.7792	-2.7438	-2.9437	-2.7229	-2.8479	-2.8521	-2.6208	-3.2042	-2.7792	-2.6021	-3.1021	-2.5771	337.220	253.329	241.092	192.475	273.615	479.190	358.787	170.754	475.558	133.533	371.738	435.858	451.962	464.203	206.130	454.378	0.0029726	0.0032462	0.00011851	1112.2	1.1612e-05	6.2156e-06	1245.9	398.81	2.592e-05	1.0187e-05	511.03	232.03	185.84	77.018	1.4994e-05	100.83	0.0029406	0.0029799	0.00079434	1341.8	3.3622e-05	3.3053e-05	1165.7	373.39	3.3071e-05	3.2955e-05	493.96	215.23	176.04	72.741	2.9751e-05	94.934	337.647	236.832	349.436	134.154	294.949	466.069	133.230	139.750	135.194	295.437	137.634	142.308	144.324	150.031	337.797	146.448	-8191	255	
3239.204	1	1	0	0	0.080533	0.28695	0.27942	0.1184	0.047273	0.16894	0.059963	0.097431	0.10737	0.21192	0.14544	0.16946	0.20805	0.43147	0.13854	0.21904	-2.5771	-2.6854	-2.425	-3.0375	-2.7417	-2.7354	-2.8521	-2.7646	-2.7792	-2.8542	-2.6937	-3.1146	-2.8563	-2.8125	-3.0521	-2.7	146.891	163.930	255.720	398.066	154.965	255.261	124.820	404.625	401.163	343.821	448.213	421.694	465.808	465.190	127.107	466.283	0.0019092	0.0017533	0.00057519	1124.2	8.4209e-06	1.7279e-05	1229.7	390.17	7.32e-06	1.9579e-05	496.78	227.33	183.93	76.187	2.2923e-05	98.409	0.003001	0.0029948	0.00077905	1375.8	3.3884e-05	3.3454e-05	1151	371.3	3.4197e-05	3.374e-05	483.44	213.06	174.46	72.271	3.0688e-05	93.988	338.564	250.866	345.400	133.741	278.979	380.035	133.099	139.824	408.479	276.725	137.935	142.598	144.395	149.780	250.415	146.839	-8191	255	
3239.300	1	1	0	0	0.089629	0.20316	0.14389	0.11887	0.20482	0.13036	0.2115	0.21996	0.20416	0.029579	0.10098	0.48161	0.27862	0.16804	0.20003	0.16004	-2.5417	-2.8396	-2.5625	-2.9771	-2.6854	-2.6063	-3.2208	-2.5792	-2.8521	-2.975	-2.6083	-3.2458	-2.9354	-2.8458	-2.9521	-2.9104	402.568	148.175	229.193	447.033	282.368	182.218	398.922	450.184	426.547	450.512	387.624	420.808	464.358	476.878	360.383	363.638	0.0031101	0.0020118	0.00096297	1085.1	2.6133e-05	2.6338e-05	1226.6	389.65	1.1543e-05	1.5653e-05	501.14	228.22	183.41	76.103	1.7431e-05	98.944	0.0031184	0.0030819	0.00080938	1413.6	3.5536e-05	3.4181e-05	1153.3	373.99	3.4842e-05	3.3247e-05	488.5	213.86	174.65	72.182	3.24e-05	94.868	354.052	449.615	176.903	134.185	316.103	288.426	133.111	139.712	219.962	368.427	137.983	142.060	144.530	149.727	164.155	146.257	-8191	255	
3239.396	1	1	0	0	0.089573	0.072137	0.14847	0.12477	0.049424	0.13157	0.31618	0.15332	0.20282	0.24101	0.19425	0.27162	0.20142	0.49402	0.14971	0.31348	-2.3563	-2.9396	-2.6063	-2.9354	-2.8792	-2.8104	-3.1542	-2.875	-2.6104	-3.1458	-2.7021	-2.8917	-2.9042	-2.4917	-3.0833	-2.7938	474.311	431.454	138.727	403.078	417.546	466.614	424.257	443.461	143.684	215.827	368.928	462.787	134.115	124.916	304.990	474.252	0.0024349	0.00064876	0.0001439	1117	6.2963e-06	6.0469e-06	1232.6	394.04	1.1153e-05	1.0779e-05	509.61	230.6	182.38	75.996	2.7745e-05	99.376	0.0031551	0.0029824	0.00084817	1420.4	3.4623e-05	3.2249e-05	1163.8	375.21	3.4824e-05	3.217e-05	496.63	216.17	174.69	72.166	3.4158e-05	95.288	342.492	375.106	175.719	134.337	271.535	391.088	133.146	139.822	271.352	359.257	138.097	142.388	144.293	149.948	276.968	146.736	-8191	255	
3239.515	1	1	0	0	0.078964	0.18694	0.0084564	0.21341	0.23995	0.027635	0.20191	0.13934	0.086434	0.25549	0.28739	0.090642	0.39725	0.23218	0.041248	0.084898	-2.3208	-2.9104	-2.5771	-2.9854	-2.8396	-2.5833	-3.2729	-2.8896	-2.6437	-2.9333	-2.7188	-2.9792	-2.9208	-2.7917	-2.9854	-2.8104	375.818	345.346	352.342	278.312	444.843	400.184	419.321	294.138	373.534	382.141	443.494	141.268	129.362	460.156	136.185	146.475	0.002316	0.001887	0.00030848	1104.3	6.3686e-06	1.2152e-05	1247.1	394.49	7.508e-06	2.296e-05	510.56	228.48	181.9	76.483	9.7435e-06	98.199	0.0031476	0.0028821	0.00088715	1421.7	3.4299e-05	3.1985e-05	1180.4	377.8	3.442e-05	3.1707e-05	500.45	215.08	173.38	71.796	3.4193e-05	93.922	344.256	300.990	158.678	134.947	336.290	301.562	133.372	139.806	337.944	229.279	137.863	142.608	144.287	149.910	207.086	146.961	-8191	255	
3239.611	1	1	0	0	0.05923	0.18383	0.1213	0.12651	0.2047	0.11924	0.41638	0.28432	0.0769	0.081361	0.28138	0.32578	0.047411	0.3668	0.22145	0.017497	-2.1167	-3.1104	-2.5625	-2.7333	-2.8563	-2.6542	-2.9646	-2.8896	-2.4708	-3.1312	-2.8542	-2.8688	-3.1604	-2.7938	-3	-3.0167	461.616	246.674	175.913	195.592	215.907	217.865	406.339	410.588	474.804	207.900	453.925	480.754	416.419	123.154	290.746	384.258	0.0024382	0.001104	0.00058762	1110.1	1.9965e-05	1.5827e-05	1216.2	389.04	1.5051e-05	9.1903e-06	498.45	226.05	181.77	75.964	1.2757e-05	97.919	0.0029809	0.0028139	0.00089591	1401.4	3.2102e-05	3.2625e-05	1161.8	369.78	3.2294e-05	3.1827e-05	490.96	212.24	170.99	71.731	3.3876e-05	93.495	345.484	301.782	180.327	134.527	280.311	210.086	133.295	139.595	307.948	348.515	137.680	142.188	144.575	149.829	138.062	146.740	-8191	255	
3239.684	1	1	0	0	0.176	0.20985	0.14402	0.18416	0.20081	0.13333	0.10618	0.38271	0.055733	0.090643	0.16347	0.18067	0.26557	0.15851	0.2902	0.31783	-2.025	-2.9854	-2.4625	-2.65	-3.0396	-2.625	-2.9333	-2.9354	-2.5333	-2.9479	-2.8042	-2.6896	-3.2812	-2.8063	-2.8333	-3.0208	373.591	358.248	300.567	424.497	201.496	460.572	433.736	446.263	383.128	226.628	306.990	371.123	361.572	164.001	163.661	430.739	0.0015373	0.0018182	0.00019701	1092.6	1.2454e-05	1.9229e-05	1232.4	388.41	3.601e-06	2.7013e-06	506.81	227.6	181.93	75.746	3.439e-05	98.746	0.0028058	0.0029101	0.00088224	1392	3.0799e-05	3.364e-05	1169.3	370.09	3.1119e-05	3.3e-05	494.64	212.93	170.74	71.931	3.3435e-05	93.713	321.849	252.314	481.082	134.794	226.698	305.257	133.469	139.627	255.133	243.266	137.839	142.398	144.386	149.766	293.228	146.964	-8191	255	
3239.803	1	1	0	0	0.14244	0.16488	0.23929	0.21993	0.33715	0.087415	0.23198	0.16165	0.35908	0.15311	0.18903	0.26948	0.061436	0.1819	0.2331	0.12662	-2.2333	-2.9625	-2.5104	-2.5521	-2.8542	-2.7271	-2.9167	-3.1021	-2.2708	-2.9021	-2.8896	-2.7083	-2.8646	-2.8875	-2.8167	-3.1229	183.964	201.361	289.716	441.399	461.609	136.674	452.117	421.383	262.351	130.930	434.657	442.023	478.347	406.069	209.629	401.986	0.0028328	0.00067618	8.4465e-05	1105.5	2.0722e-05	8.2048e-06	1243.3	394.03	1.3055e-05	1.2699e-05	507.98	230.35	183.94	76.487	1.1899e-05	100.12	0.0027502	0.0030022	0.00085692	1384	3.0149e-05	3.3904e-05	1172.5	371.16	3.0955e-05	3.3459e-05	497.05	214.15	172.35	72.716	3.3454e-05	94.099	336.836	445.825	231.985	134.483	255.849	151.418	133.668	140.366	268.498	229.374	137.689	142.399	144.387	150.152	197.245	146.918	-8191	255	
3239.899	1	1	0	0	0.21176	0.14051	0.10989	0.083505	0.21572	0.072397	0.22868	0.42061	0.12829	0.12394	0.22857	0.35994	0.33751	0.3027	0.19181	0.12476	-2.1104	-2.8708	-2.85	-2.6917	-3.1104	-2.5875	-2.9583	-3.1083	-2.4229	-2.9875	-3.0062	-2.8	-2.9104	-2.9333	-2.5208	-3.1792	258.134	234.070	252.596	153.821	175.808	339.781	431.553	443.000	413.077	255.720	445.820	396.459	459.905	458.254	402.297	434.805	0.0030812	0.0005983	0.00032673	1096.7	7.6962e-06	9.9671e-06	1240	391.25	1.5669e-05	3.6393e-05	505.98	226.53	183.18	75.688	1.3315e-05	98.348	0.002864	0.0030628	0.00083874	1354.5	3.0757e-05	3.3888e-05	1168.3	366.94	3.1663e-05	3.3455e-05	490.43	210.67	172.22	72.103	3.2496e-05	92.418	345.341	277.775	444.586	134.247	192.999	170.985	133.343	139.867	373.942	231.432	137.302	142.479	144.410	150.021	392.475	146.723	-8191	255	
#DATA ENDS
