BOXY.EXE: ISS Imagent and Oximeter Data Acquisition Program Version 0.80
Ascii Record File

#ACQ INFORMATION
2  Detector Channels 
16  External MUX Channels 
1  Auxiliary Channels 
5000  Waveform (CCF) Frequency (Hz)
1  Waveforms Skipped 
30  Waveforms Averaged 
1  Cycles Averaged 
16  Acquisitions per Waveform 
10.0806  Updata Rate (Hz) 

#FILE INFORMATION
TRUE -- External MUX Channel results are PARSED.
FALSE -- AC DC and Phase are NOT grouped.
TRUE -- Companion Program Settings File CREATED.
FALSE -- AC data not excluded
FALSE -- DC data not excluded
FALSE -- Phase data not excluded
FALSE -- Auxillary Chn. data not excluded
Tab delimiters

#CALIBRATION STATE
TRUE -- Waveform Calibration Values APPLIED.


#AUX CALIBRATION VALUES
Val Type	aux-1	

Term	1.0000e+00	
Factor	0.0000e+00	


#WF CALIBRATION VALUES
A = Detector Channel
Val Type	A-AC1	A-AC2	A-AC3	A-AC4	A-AC5	A-AC6	A-AC7	A-AC8	A-AC9	A-AC10	A-AC11	A-AC12	A-AC13	A-AC14	A-AC15	A-AC16	A-DC1	A-DC2	A-DC3	A-DC4	A-DC5	A-DC6	A-DC7	A-DC8	A-DC9	A-DC10	A-DC11	A-DC12	A-DC13	A-DC14	A-DC15	A-DC16	A-Ph1	A-Ph2	A-Ph3	A-Ph4	A-Ph5	A-Ph6	A-Ph7	A-Ph8	A-Ph9	A-Ph10	A-Ph11	A-Ph12	A-Ph13	A-Ph14	A-Ph15	A-Ph16	

Term	0.00000e+00	0.00000e+00	0.00000e+00	0.00000e+00	0.00000e+00	0.00000e+00	0.00000e+00	0.00000e+00	0.00000e+00	0.00000e+00	0.00000e+00	0.00000e+00	0.00000e+00	0.00000e+00	0.00000e+00	0.00000e+00	0.00000e+00	0.00000e+00	0.00000e+00	0.00000e+00	0.00000e+00	0.00000e+00	0.00000e+00	0.00000e+00	0.00000e+00	0.00000e+00	0.00000e+00	0.00000e+00	0.00000e+00	0.00000e+00	0.00000e+00	0.00000e+00	0.00000e+00	0.00000e+00	0.00000e+00	0.00000e+00	0.00000e+00	0.00000e+00	0.00000e+00	0.00000e+00	0.00000e+00	0.00000e+00	0.00000e+00	0.00000e+00	0.00000e+00	0.00000e+00	0.00000e+00	0.00000e+00	
Factor	1.00000e+00	1.00000e+00	1.00000e+00	1.00000e+00	1.00000e+00	1.00000e+00	1.00000e+00	1.00000e+00	1.00000e+00	1.00000e+00	1.00000e+00	1.00000e+00	1.00000e+00	1.00000e+00	1.00000e+00	1.00000e+00	1.00000e+00	1.00000e+00	1.00000e+00	1.00000e+00	1.00000e+00	1.00000e+00	1.00000e+00	1.00000e+00	1.00000e+00	1.00000e+00	1.00000e+00	1.00000e+00	1.00000e+00	1.00000e+00	1.00000e+00	1.00000e+00	X	X	X	X	X	X	X	X	X	X	X	X	X	X	X	X	

B = Detector Channel
Val Type	B-AC1	B-AC2	B-AC3	B-AC4	B-AC5	B-AC6	B-AC7	B-AC8	B-AC9	B-AC10	B-AC11	B-AC12	B-AC13	B-AC14	B-AC15	B-AC16	B-DC1	B-DC2	B-DC3	B-DC4	B-DC5	B-DC6	B-DC7	B-DC8	B-DC9	B-DC10	B-DC11	B-DC12	B-DC13	B-DC14	B-DC15	B-DC16	B-Ph1	B-Ph2	B-Ph3	B-Ph4	B-Ph5	B-Ph6	B-Ph7	B-Ph8	B-Ph9	B-Ph10	B-Ph11	B-Ph12	B-Ph13	B-Ph14	B-Ph15	B-Ph16	

Term	0.00000e+00	0.00000e+00	0.00000e+00	0.00000e+00	0.00000e+00	0.00000e+00	0.00000e+00	0.00000e+00	0.00000e+00	0.00000e+00	0.00000e+00	0.00000e+00	0.00000e+00	0.00000e+00	0.00000e+00	0.00000e+00	0.00000e+00	0.00000e+00	0.00000e+00	0.00000e+00	0.00000e+00	0.00000e+00	0.00000e+00	0.00000e+00	0.00000e+00	0.00000e+00	0.00000e+00	0.00000e+00	0.00000e+00	0.00000e+00	0.00000e+00	0.00000e+00	2.53724e+01	-1.25825e+02	-1.32423e+02	-1.86157e+02	-5.31231e+01	-7.74207e+01	-1.59021e+02	-1.62015e+02	-9.81342e+01	-6.42266e+01	-1.73719e+02	-1.69925e+02	-1.79918e+02	-1.77120e+02	-6.73402e+01	-1.50188e+02	
Factor	4.43643e-05	1.31752e-04	3.84766e-05	6.00296e-01	1.09162e-06	1.23883e-06	1.58776e-01	4.81384e-02	1.60025e-06	1.38813e-06	8.39062e-02	2.75674e-02	2.39658e-02	9.07276e-03	1.49700e-06	1.30833e-02	1.61200e-06	1.67637e-06	4.65165e-07	2.83808e-01	1.83225e-08	1.83332e-08	7.47258e-02	2.41391e-02	1.82575e-08	1.83873e-08	4.04860e-02	1.32768e-02	1.20086e-02	4.53932e-03	1.82600e-08	6.30792e-03	X	X	X	X	X	X	X	X	X	X	X	X	X	X	X	X	



#DISTANCE SETTINGS
A = Detector Channel
A-1	A-2	A-3	A-4	A-5	A-6	A-7	A-8	A-9	A-10	A-11	A-12	A-13	A-14	A-15	A-16	

2.5000e+00	3.0000e+00	2.5000e+00	3.0000e+00	2.0000e+00	3.0000e+00	1.5000e+00	3.0000e+00	3.0000e+00	3.0000e+00	3.0000e+00	3.0000e+00	3.0000e+00	3.0000e+00	1.5000e+00	3.0000e+00	

B = Detector Channel
B-1	B-2	B-3	B-4	B-5	B-6	B-7	B-8	B-9	B-10	B-11	B-12	B-13	B-14	B-15	B-16	

1.0000e+01	1.0000e+01	1.0000e+01	1.4400e+00	1.0000e+01	1.0000e+01	1.5100e+00	1.9400e+00	1.0000e+01	1.0000e+01	1.9900e+00	2.4900e+00	2.4100e+00	2.9000e+00	1.0000e+01	2.9800e+00	




#DATA BEGINS
time	group	step	mark	flag	A-AC1	A-AC2	A-AC3	A-AC4	A-AC5	A-AC6	A-AC7	A-AC8	A-AC9	A-AC10	A-AC11	A-AC12	A-AC13	A-AC14	A-AC15	A-AC16	A-DC1	A-DC2	A-DC3	A-DC4	A-DC5	A-DC6	A-DC7	A-DC8	A-DC9	A-DC10	A-DC11	A-DC12	A-DC13	A-DC14	A-DC15	A-DC16	A-Ph1	A-Ph2	A-Ph3	A-Ph4	A-Ph5	A-Ph6	A-Ph7	A-Ph8	A-Ph9	A-Ph10	A-Ph11	A-Ph12	A-Ph13	A-Ph14	A-Ph15	A-Ph16	B-AC1	B-AC2	B-AC3	B-AC4	B-AC5	B-AC6	B-AC7	B-AC8	B-AC9	B-AC10	B-AC11	B-AC12	B-AC13	B-AC14	B-AC15	B-AC16	B-DC1	B-DC2	B-DC3	B-DC4	B-DC5	B-DC6	B-DC7	B-DC8	B-DC9	B-DC10	B-DC11	B-DC12	B-DC13	B-DC14	B-DC15	B-DC16	B-Ph1	B-Ph2	B-Ph3	B-Ph4	B-Ph5	B-Ph6	B-Ph7	B-Ph8	B-Ph9	B-Ph10	B-Ph11	B-Ph12	B-Ph13	B-Ph14	B-Ph15	B-Ph16	aux-1	digaux	

1943.558	1	1	0	512	0.20858	0.30756	0.015196	0.066494	0.18598	0.063211	0.19748	0.31202	0.27066	0.10575	0.24617	0.2938	0.18568	0.12815	0.14225	0.10907	-2.2938	-3.0167	-2.9229	-2.7625	-3.0458	-3.025	-2.8917	-3.0146	-2.6188	-2.7771	-3.1813	-2.5896	-3.0396	-3.1188	-2.6937	-3.0354	221.120	-55.982	106.934	207.084	80.271	197.062	173.883	183.869	-1.813	204.442	-104.442	-105.122	222.950	65.518	-133.542	95.170	0.0027149	0.0029587	0.0025364	660.29	6.5001e-05	5.251e-05	669.07	217.53	4.6494e-05	7.4603e-05	265.71	105.08	86.657	40.53	3.9457e-05	48.833	0.015338	0.016396	0.0039565	2931.5	0.0001738	0.00017469	1264.4	397.04	0.00017682	0.0001744	579.09	207.34	197.98	78.88	0.00015327	96.617	-70.169	-35.227	-3.608	-123.530	-119.249	17.463	-123.565	-117.240	220.965	55.438	-119.264	-115.415	-112.431	-107.669	28.834	-112.244	-8191	255	
1943.654	1	1	0	0	0.19299	0.14647	0.13515	0.18133	0.098369	0.21972	0.28232	0.089699	0.095422	0.14009	0.10884	0.11481	0.13554	0.29392	0.065041	0.020261	-2.2812	-3.0062	-3.1333	-2.5833	-3.0625	-3.0938	-2.8688	-3.1208	-2.8917	-3.0333	-3.0021	-2.6708	-3.0021	-3.1958	-2.4979	-3.2458	-53.539	126.180	196.277	187.313	59.236	150.295	112.637	-104.236	-33.773	-87.761	142.832	182.660	-2.831	-61.342	-98.678	-5.722	0.0031099	0.0064242	0.0014787	655.52	1.1299e-05	5.9855e-05	672.22	220.63	4.388e-05	3.783e-05	268.14	104.86	87.468	40.761	3.7525e-05	49.474	0.015797	0.015282	0.0037565	2999	0.00018117	0.00016268	1247.6	410.04	0.00018078	0.0001635	568.93	214.79	199.91	76.388	0.00014804	100.95	-43.483	-17.162	-38.198	-123.128	67.085	33.934	-122.944	-117.396	180.332	57.782	-118.852	-116.112	-111.903	-108.074	83.443	-112.583	-8191	255	
1943.750	1	1	0	0	0.34257	0.15355	0.095186	0.13748	0.21904	0.15073	0.30781	0.19943	0.19884	0.10972	0.091014	0.27554	0.24681	0.24364	0.22352	0.069027	-2.3417	-2.9375	-3.0375	-2.8292	-3.0625	-3.0167	-2.6396	-3.1542	-3.0438	-2.7896	-3.1021	-2.7104	-2.9292	-3.0812	-2.7229	-3.2229	9.088	-91.325	-63.588	161.502	1.767	132.731	124.392	141.658	157.694	81.463	-116.053	190.132	201.866	-117.193	85.226	-130.881	0.0010003	0.0023082	0.00049904	641.81	4.4684e-05	1.8527e-05	676.07	220.52	7.9512e-05	5.4146e-05	265.61	105.21	89.195	40.903	3.3407e-05	49.494	0.015586	0.014348	0.0036153	3157.1	0.00017595	0.00015279	1228.7	426.77	0.00017352	0.00015795	565.28	225.1	196.9	75.474	0.00015109	107.28	99.596	45.980	-134.979	-126.218	78.525	3.305	-123.833	-117.253	12.828	57.671	-119.277	-115.662	-112.237	-107.996	-117.373	-112.125	-8191	255	
1943.871	1	1	0	0	0.18603	0.070722	0.31788	0.1569	0.20829	0.24332	0.1401	0.049925	0.039886	0.17407	0.048824	0.13977	0.11873	0.15366	0.15679	0.13359	-2.5375	-2.85	-3.0625	-2.6375	-2.9417	-3.1625	-2.7125	-2.9646	-3.0604	-2.6437	-3.0708	-2.9875	-2.8146	-3.2125	-2.8167	-3.0146	-119.512	-63.750	-121.681	-107.554	-105.667	-25.850	-97.481	-96.190	177.952	-131.181	39.343	175.664	6.388	-99.974	96.864	58.175	0.001509	0.006423	0.001552	671.62	8.4914e-05	1.8278e-05	673.44	219.67	7.5965e-05	3.2731e-05	262.65	105.08	88.703	39.942	0.00010746	49.387	0.015366	0.014628	0.0038529	3465.6	0.00017707	0.00015655	1277.9	455.42	0.00017373	0.00016274	600.47	237.6	196.9	76.596	0.00016976	113.58	149.413	-66.488	172.889	-123.239	40.646	28.727	-124.364	-116.651	-6.177	-22.219	-119.341	-116.079	-111.769	-108.006	194.493	-111.937	-8191	255	
1943.967	1	1	0	0	0.13752	0.15259	0.15556	0.19229	0.22235	0.25471	0.12018	0.15184	0.11165	0.23671	0.079884	0.18458	0.20779	0.19101	0.075223	0.050723	-2.7208	-2.4604	-2.9792	-2.6729	-2.8458	-3.0458	-2.75	-3.1354	-2.9042	-2.7417	-3.2667	-2.95	-2.9583	-3.1396	-2.6292	-3.0729	120.497	-31.043	-89.509	-132.766	122.873	92.973	66.941	104.271	-91.296	167.625	-14.351	-111.848	189.636	141.541	114.585	-77.947	0.0033736	0.0021649	0.0027742	661.99	4.6434e-05	2.1276e-05	673.24	222.67	5.6636e-05	2.6742e-05	265.81	107.18	88.611	39.936	9.3832e-05	49.387	0.015346	0.01512	0.0043994	3671.6	0.00017712	0.0001606	1364.9	468.83	0.00017022	0.00016403	645.01	238.07	193.59	75.977	0.00018241	111.14	72.048	5.047	152.009	-122.904	50.797	51.800	-124.284	-116.739	27.843	46.568	-120.276	-114.609	-112.418	-108.777	188.016	-111.568	-8191	255	
1944.063	1	1	0	0	0.13644	0.1806	0.15927	0.1665	0.11711	0.096575	0.25631	0.063592	0.1137	0.1573	0.14688	0.040015	0.091369	0.12991	0.083836	0.071761	-2.3667	-2.4	-3.0687	-2.8688	-2.475	-3.2333	-2.8271	-2.7812	-2.9062	-2.775	-3.2292	-2.9083	-2.7687	-3.1063	-2.6708	-3.0271	98.641	51.201	31.998	-69.872	-32.140	2.628	134.894	183.975	92.180	47.588	180.115	-68.816	10.872	104.735	-37.154	33.000	0.00092125	0.001558	0.0019679	703.41	2.0272e-05	3.0723e-05	677.04	224.4	6.1967e-05	4.7015e-05	267.44	107.2	88.776	40.226	2.1966e-05	50.648	0.014406	0.01454	0.004634	3437.6	0.00016581	0.00015409	1393.4	446.48	0.00015656	0.00015692	650.94	221.63	183.04	74.393	0.00017653	102.67	66.444	-108.720	184.875	-121.846	-22.202	131.871	-123.657	-116.341	-33.863	207.181	-119.625	-114.359	-112.259	-107.987	-99.287	-111.923	-8191	255	
1944.184	1	1	0	0	0.18792	0.096218	0.063585	0.24843	0.20402	0.14028	0.050934	0.11215	0.20774	0.27516	0.075553	0.30882	0.1122	0.40896	0.10216	0.24814	-2.6271	-2.7313	-3	-3.0667	-2.6125	-3.0875	-2.7208	-2.7958	-3.0583	-2.8521	-3.0104	-2.8792	-2.7062	-3.0458	-2.8396	-2.7812	-49.006	-0.106	-81.781	-68.049	171.483	99.466	207.178	-29.140	-76.934	-100.036	-133.054	205.711	128.660	177.273	85.569	160.202	0.00048988	0.0032984	0.00088541	682.98	3.0049e-05	6.7684e-05	685.66	224.56	3.2332e-05	7.7674e-05	271.68	107.57	89.45	40.544	3.2638e-05	50.281	0.012731	0.013778	0.0044456	3036.3	0.00014721	0.00014998	1356.8	415.75	0.00013961	0.0001551	632.7	207.57	174.63	75.328	0.00016528	96.83	9.939	179.114	-72.662	-120.605	70.634	200.725	-123.579	-116.003	21.763	196.049	-119.082	-114.997	-112.128	-108.670	13.821	-111.444	-8191	255	
1944.254	1	1	0	0	0.10793	0.080276	0.13257	0.087111	0.030564	0.12972	0.18227	0.040612	0.11087	0.17864	0.2347	0.28414	0.26231	0.18399	0.21643	0.13459	-2.6292	-2.5479	-2.8708	-3.0333	-2.5729	-3.1	-3.1271	-2.7375	-3.0979	-2.8771	-2.8833	-3.0812	-2.6354	-2.9854	-2.7625	-2.975	11.309	222.617	193.154	220.234	131.027	166.142	136.363	106.155	88.649	88.332	220.103	206.361	93.546	195.625	134.498	190.034	0.00073044	0.0075512	0.00079323	681.27	2.4511e-05	6.8987e-05	685.32	224.58	1.7792e-05	8.1827e-05	271.29	106.93	88.507	40.533	3.4398e-05	50.042	0.011663	0.013924	0.0041149	2772.5	0.00013507	0.00015285	1288.9	399.39	0.00013366	0.00016475	619.86	205.41	177.98	80.544	0.00016717	98.735	61.246	162.677	-38.028	-120.952	-123.802	186.564	-122.828	-116.282	-10.666	215.023	-119.239	-114.766	-112.200	-108.336	44.213	-111.625	-8191	255	
1944.350	1	1	0	0	0.23646	0.13324	0.08497	0.085675	0.14502	0.23668	0.18886	0.041301	0.11011	0.11854	0.20295	0.36047	0.21379	0.23818	0.14179	0.33126	-2.5563	-2.7792	-2.9417	-3.0271	-2.4813	-3.1542	-3.1688	-2.7104	-2.9792	-2.8646	-2.9583	-3.0354	-2.7479	-3.1771	-2.8458	-2.7729	125.680	215.900	-78.283	196.418	188.021	-80.308	-118.694	223.976	189.680	25.120	147.151	58.547	174.803	-94.577	142.930	196.614	0.0020296	0.0040751	0.0015491	686.64	1.9792e-05	5.7427e-05	685.34	222.91	6.1137e-05	4.8597e-05	271.74	106.43	87.016	40.557	3.2236e-05	50.238	0.012681	0.015952	0.0041645	2803.5	0.00014442	0.00016779	1257.5	393.5	0.0001389	0.00016819	587.65	197.86	178.61	80.519	0.00015087	95.705	-58.944	156.088	-16.902	-122.421	-108.179	142.934	-123.083	-116.624	184.814	192.296	-118.792	-115.508	-113.365	-108.410	6.141	-111.550	-8191	255	
1944.446	1	1	0	0	0.15308	0.15383	0.14641	0.10238	0.089442	0.14698	0.22517	0.27086	0.099192	0.2874	0.038873	0.17231	0.161	0.13256	0.083884	0.08495	-2.6646	-2.7958	-2.8312	-3.1708	-2.6375	-3.075	-2.9333	-2.6813	-3.1146	-2.9313	-2.7021	-3.1958	-2.9688	-3.0792	-2.9875	-2.825	-25.092	-9.366	-116.383	-84.658	-123.873	73.860	118.073	132.600	-57.815	-1.734	-132.583	79.106	-129.845	16.927	52.566	124.643	0.0032535	0.0018354	0.00099175	672.98	4.9402e-05	2.9356e-05	682.62	223.81	7.8072e-05	6.0709e-05	270.47	107.62	87.544	41.365	1.5355e-05	50.586	0.013265	0.015859	0.0039283	2766.3	0.00015813	0.00017338	1246.1	396.27	0.00015477	0.00016698	574.29	194.91	184.96	77.974	0.00013922	93.127	-42.080	22.979	-71.955	-122.223	-124.496	52.438	-123.013	-116.544	177.959	23.947	-119.174	-115.437	-112.593	-108.569	30.279	-112.307	-8191	255	
1944.567	1	1	0	0	0.21714	0.090421	0.16061	0.16051	0.21229	0.16236	0.084742	0.10146	0.14201	0.13424	0.16602	0.22889	0.061107	0.13339	0.058027	0.26585	-2.5729	-2.9167	-2.8458	-3.0375	-2.7771	-3.0792	-2.8438	-2.7188	-3.1208	-2.9021	-2.7188	-3.3312	-3.0312	-2.8688	-3.0479	-2.725	77.046	-127.005	-66.325	134.606	-115.835	-38.006	79.649	1.871	-14.762	106.758	-120.121	151.405	193.531	-130.736	-86.871	-4.311	0.0031354	0.0065482	0.0012437	685.75	5.0941e-05	7.663e-05	689.86	225.76	8.0599e-05	0.00010399	278	108.29	89.902	41.595	4.2282e-05	51.384	0.013765	0.014441	0.0036335	2674.4	0.00016352	0.00016192	1221.1	398.68	0.00016816	0.00016095	580.3	203.84	197.65	78.797	0.00014313	98.983	-53.338	-30.748	-27.642	-122.460	-103.853	23.123	-123.561	-116.754	191.577	21.119	-118.861	-115.641	-113.116	-108.379	-2.205	-112.148	-8191	255	
1944.663	1	1	0	0	0.032148	0.10709	0.1161	0.086268	0.018978	0.20876	0.092939	0.34658	0.060491	0.11189	0.068136	0.18468	0.096628	0.26515	0.10757	0.070874	-2.6688	-2.8417	-2.525	-3.2021	-2.8521	-2.9771	-3.3333	-2.6208	-3.1063	-2.9938	-2.7583	-3.1479	-2.8937	-2.9083	-2.9896	-2.7812	218.589	206.341	175.570	-69.109	-44.624	119.575	-89.524	149.521	-110.856	-120.623	-93.098	168.830	197.390	-128.688	-126.870	157.106	0.0010016	0.0071771	0.00071224	663.75	1.9504e-05	3.4026e-05	698.26	225.93	3.7456e-05	3.5434e-05	276.84	108.07	90.247	41.688	2.4439e-05	50.966	0.015421	0.014452	0.003746	2922	0.00017507	0.00015716	1222.5	416.25	0.00017462	0.00015436	579.11	215.75	200.41	78.202	0.0001448	105.99	-31.424	-38.107	-57.101	-122.968	-96.595	3.624	-123.438	-117.314	24.258	53.384	-118.794	-115.654	-112.289	-108.638	-44.932	-113.148	-8191	255	
1944.759	1	1	0	0	0.079861	0.034345	0.17289	0.11592	0.23225	0.10975	0.073914	0.17068	0.279	0.19688	0.16915	0.16194	0.069655	0.1788	0.21326	0.12607	-2.6271	-2.6562	-2.5729	-3.2938	-2.7729	-2.8167	-3.2458	-2.7292	-3.0146	-3	-2.6396	-3.2583	-2.9479	-2.8438	-3.1417	-2.7542	214.992	205.791	84.675	165.539	74.898	-99.279	-5.723	34.694	-104.724	-42.968	144.908	82.321	29.650	154.265	89.169	-106.517	0.0017124	0.0057352	0.00095966	664.29	5.9747e-05	2.8228e-05	699.65	225.41	3.258e-05	6.6047e-05	271.31	107.03	90.279	41.34	1.9827e-05	50.42	0.015989	0.014429	0.0038664	3274.2	0.00017801	0.00015945	1236	440.83	0.00017441	0.00015261	583.11	226.46	193.86	76.399	0.00014469	107.24	51.000	-25.737	-122.921	-124.956	44.759	58.635	-123.624	-116.955	-1.155	-11.230	-119.150	-115.502	-112.251	-108.381	-85.463	-112.521	-8191	255	
1944.831	1	1	0	0	0.088193	0.20609	0.12348	0.11774	0.13285	0.12661	0.33794	0.09889	0.28411	0.12132	0.17997	0.12579	0.14065	0.19077	0.16517	0.18325	-2.3583	-3.1625	-2.5542	-3.1167	-2.9375	-2.5896	-3.2479	-2.775	-2.8875	-3.1625	-2.6813	-3.0563	-2.8563	-2.6292	-3.1875	-2.7271	197.560	-54.757	63.544	183.820	186.430	133.599	186.321	193.703	-51.110	-80.417	48.176	33.448	82.475	159.157	-81.954	178.520	0.0016148	0.0019233	0.00073501	664.35	4.3509e-05	2.1491e-05	694.14	224.53	6.1542e-05	1.4023e-05	268.62	107.19	90.217	41.188	9.2786e-05	50.662	0.014623	0.013283	0.0037514	3290.7	0.00015927	0.00014818	1239.7	442.77	0.0001611	0.00014648	600.45	232.33	188.7	76.312	0.00016023	110.7	86.424	27.939	120.795	-123.235	18.968	126.770	-123.991	-117.127	-21.001	-2.339	-120.423	-115.340	-111.890	-108.587	-123.215	-111.423	-8191	255	
1944.951	1	1	0	0	0.10036	0.11965	0.053465	0.16805	0.047114	0.14422	0.095927	0.1776	0.23835	0.17044	0.043024	0.23403	0.40835	0.18317	0.17621	0.45776	-2.4208	-3.025	-2.7083	-2.8563	-2.7562	-2.6896	-3.2208	-2.7521	-2.8167	-3.1375	-2.6437	-3.0146	-2.95	-2.7229	-2.9333	-2.8458	182.919	124.957	45.385	116.987	169.531	194.266	103.290	129.858	220.019	25.148	136.420	215.142	143.707	101.230	57.942	86.074	0.0017183	0.001731	0.0019604	705.79	3.367e-05	3.9028e-05	685.45	228.53	4.1861e-05	1.7659e-05	274.06	109.48	89.135	40.991	0.00012774	50.518	0.014489	0.013537	0.004215	3401.9	0.00015433	0.00014644	1294.1	436.8	0.0001516	0.00013923	616.55	224.4	179.86	74.24	0.0001668	105.21	96.718	-77.340	139.135	-123.330	77.462	-24.481	-124.151	-116.123	4.498	-13.981	-119.843	-114.609	-112.709	-108.234	-133.339	-110.999	-8191	255	
1945.048	1	1	0	0	0.081886	0.26834	0.065281	0.11934	0.021087	0.077693	0.12603	0.28904	0.14287	0.11686	0.10388	0.3022	0.36113	0.068172	0.17143	0.23518	-2.0375	-2.9729	-2.6896	-2.9396	-3.1458	-2.5375	-3.15	-2.9896	-2.625	-3.1208	-2.8625	-2.75	-3.2271	-2.7979	-2.9708	-3.125	-117.965	-116.058	-51.672	-82.786	-65.369	28.434	2.252	172.140	132.937	-68.419	59.229	-119.750	197.611	209.253	-7.918	162.088	0.00073564	0.0038831	0.00059745	700.57	2.4511e-05	2.492e-05	700.94	227.28	1.0934e-05	5.8765e-05	276.26	109.11	90.008	41.003	2.8072e-05	51.474	0.013443	0.012939	0.0043345	3193.5	0.00014426	0.00014428	1335.1	419.52	0.00014455	0.0001395	627.07	214.05	173.37	74.056	0.00016661	99.108	43.637	174.643	139.534	-121.697	114.480	158.067	-124.111	-116.109	-64.194	197.195	-120.191	-114.723	-112.296	-108.804	138.335	-111.262	-8191	255	
1945.144	1	1	0	0	0.08421	0.13961	0.25034	0.14357	0.16577	0.21969	0.38084	0.24253	0.066992	0.043325	0.49819	0.3185	0.24657	0.22295	0.20236	0.17709	-2.3	-3.225	-2.6104	-2.5542	-3.1646	-2.3521	-2.9958	-3.1375	-2.4417	-3	-2.7979	-2.7667	-3.0812	-2.8146	-2.975	-2.9792	198.305	193.517	-24.135	-31.584	-90.829	-84.992	206.781	-128.691	-22.276	-39.759	196.155	173.818	-105.839	184.402	108.638	219.564	0.00041412	0.0050371	0.0010146	716.93	2.3733e-05	5.6207e-05	698.3	228.31	3.1596e-05	8.3819e-05	277.37	110.35	89.396	40.77	5.5389e-05	50.959	0.012492	0.013077	0.0042836	2968.3	0.00013633	0.00015041	1345.1	407.16	0.00014147	0.00015276	631.72	210.3	172.05	77.454	0.00016793	97.145	140.563	140.368	124.675	-122.590	-24.872	224.836	-123.248	-116.335	100.962	-122.962	-119.184	-115.059	-112.869	-108.530	18.495	-111.860	-8191	255	
1945.264	1	1	0	0	0.0647	0.23844	0.15438	0.12868	0.31401	0.099187	0.1109	0.046858	0.16081	0.16484	0.18562	0.21899	0.28647	0.27173	0.10142	0.20369	-2.2562	-2.9979	-2.5563	-2.7229	-3.1167	-2.6396	-3.0146	-3.0229	-2.6625	-3.1167	-2.7667	-2.8042	-3.2354	-2.6458	-2.5979	-3.275	145.264	52.648	213.005	12.509	131.557	56.315	163.755	33.100	149.565	166.608	212.988	197.123	205.620	151.697	199.490	-6.846	0.00033338	0.01167	0.00092039	697.18	3.4385e-05	2.6752e-05	691.01	226.56	1.1895e-05	2.2021e-05	275.62	109.44	88.073	40.998	7.8142e-05	50.421	0.012338	0.014418	0.0041851	2894.9	0.00013576	0.00016386	1321.9	401.33	0.00014393	0.00017031	622.65	211.73	177.77	82.564	0.00017102	98.352	-24.333	182.965	-16.034	-121.239	154.963	211.153	-123.095	-116.442	-118.516	147.788	-118.478	-114.978	-112.799	-108.712	35.476	-112.072	-8191	255	
1945.359	1	1	0	0	0.23023	0.16835	0.15344	0.24274	0.12566	0.055882	0.16363	0.13024	0.13263	0.23426	0.1253	0.29402	0.13267	0.063093	0.25486	0.17103	-2.4562	-2.9292	-3.0583	-2.7396	-3.0083	-2.7708	-2.9875	-3.1562	-2.8125	-2.9437	-3.025	-2.6771	-3.2062	-2.9271	-2.9417	-3.3792	-78.835	7.372	85.096	170.126	-116.154	-127.070	167.919	209.500	-74.647	163.070	88.439	164.281	99.614	223.632	91.643	183.417	0.0018595	0.0038796	0.0016355	678.47	4.5944e-05	4.027e-05	691.41	225.7	8.2061e-05	2.4949e-05	277.89	108.27	87.136	40.947	8.6514e-05	50.575	0.013553	0.016516	0.0042159	2984.1	0.00015012	0.00017945	1304.8	399.26	0.000154	0.00017852	598.96	207.68	184.32	82.878	0.00016096	96.749	-35.933	101.911	-20.157	-123.188	-79.020	140.674	-122.959	-116.701	188.402	130.939	-118.979	-115.705	-113.386	-108.187	37.890	-112.371	-8191	255	
1945.455	1	1	0	0	0.12052	0.027667	0.24048	0.24174	0.086257	0.28644	0.033873	0.21196	0.19893	0.057182	0.15165	0.057235	0.22562	0.38806	0.2901	0.14614	-2.3208	-2.975	-2.9979	-2.4229	-3.25	-2.9437	-2.9104	-3.0958	-2.8229	-2.9458	-2.975	-2.6708	-3.0604	-2.7042	-2.65	-3.1937	-109.640	-48.777	56.810	-34.311	224.225	90.633	188.363	141.986	128.482	100.204	125.073	-69.237	159.257	-128.208	6.139	185.466	0.0016122	0.0033229	0.0015882	674.27	6.8656e-05	4.2711e-05	691.71	222.91	7.3439e-05	2.3831e-05	272.4	108.26	87.774	41.239	3.0411e-05	50.645	0.014491	0.01661	0.0039791	2905.8	0.00016223	0.00017315	1260.8	387.39	0.00015771	0.00016323	558.84	197.29	183.4	76.529	0.00013891	91.333	-8.403	-62.731	-32.797	-121.000	-121.525	-25.859	-123.439	-116.857	183.119	66.541	-118.216	-114.920	-112.677	-108.119	108.048	-112.315	-8191	255	
1945.551	1	1	0	0	0.26803	0.095078	0.22516	0.14727	0.18334	0.026976	0.26171	0.18201	0.17026	0.15658	0.060677	0.0834	0.1145	0.16291	0.32484	0.15089	-2.3812	-2.8833	-2.9417	-2.6937	-3.0312	-2.8187	-2.525	-3.3396	-2.5917	-2.7917	-2.9271	-2.6813	-3.0979	-2.9167	-2.6063	-3.1625	87.454	192.865	-46.020	36.833	26.791	-62.033	149.177	145.771	24.674	181.167	144.226	-104.175	-129.261	-101.876	163.175	208.962	0.0023556	0.0025674	0.0010373	667.81	4.2404e-05	4.8075e-05	692.62	224.87	1.0535e-05	4.9635e-05	276.55	109.27	90.177	41.529	1.98e-05	51.295	0.013812	0.014101	0.0034288	2685.1	0.00015811	0.00014956	1204	383.15	0.00015922	0.00014987	544.31	199.88	187.23	73.517	0.00013129	93.004	-26.615	-35.268	-31.670	-122.785	200.350	18.650	-123.552	-116.896	137.834	28.328	-118.980	-115.589	-112.660	-107.741	-4.203	-112.229	-8191	255	
1945.647	1	1	0	0	0.17938	0.13145	0.19027	0.089891	0.18162	0.12896	0.14387	0.17529	0.28753	0.10774	0.10344	0.19269	0.12665	0.19158	0.067387	0.32569	-2.3479	-2.6854	-3.2417	-2.6125	-3.025	-3.0083	-2.6437	-3.375	-2.675	-2.8479	-3.075	-2.8229	-3.0729	-2.9771	-2.8208	-3.125	-43.499	61.456	-83.542	176.924	-87.614	65.360	209.467	-89.052	-27.449	75.704	162.303	149.043	-10.178	218.866	134.837	196.213	0.00068237	0.0022852	0.00088639	677.31	1.81e-05	2.8483e-05	693.99	224.71	7.8596e-05	1.2042e-05	277.43	108.13	89.658	41.412	1.9931e-05	50.246	0.01365	0.012688	0.0031151	2685.6	0.00015138	0.00013173	1154.1	386.2	0.00015018	0.0001362	523.02	203.74	182.73	70.53	0.00012558	95.513	-30.425	20.794	213.704	-123.936	139.355	8.263	-123.310	-116.733	24.318	56.643	-119.348	-115.668	-111.937	-108.256	178.832	-112.187	-8191	255	
1945.743	1	1	0	0	0.07584	0.04849	0.13355	0.17986	0.035552	0.28788	0.21445	0.28607	0.025109	0.098517	0.12766	0.15456	0.28151	0.25255	0.031236	0.065747	-2.3521	-2.7625	-3	-2.6625	-2.9896	-2.9792	-2.7604	-2.9688	-2.7792	-2.8187	-3.0917	-2.9583	-2.7958	-3.1771	-2.8646	-2.9792	32.653	-21.892	-94.452	-97.945	130.736	129.173	-112.153	136.895	-54.954	-105.146	151.738	150.951	107.353	-112.965	-54.292	-115.541	0.00083085	0.0048447	0.00035975	666.83	3.3005e-05	6.734e-05	685.64	224.28	7.5684e-05	9.6386e-06	270.1	108.38	90.071	41.094	2.3796e-05	50.221	0.012966	0.012028	0.0030322	2823	0.00014496	0.00012596	1147.1	401.97	0.00014336	0.00013366	528.83	213.01	181.07	70.748	0.00013503	101.89	87.523	-77.557	155.847	-123.094	56.798	3.237	-123.487	-117.469	28.936	26.325	-119.424	-115.608	-112.452	-107.941	-107.580	-112.581	-8191	255	
1945.864	1	1	0	0	0.012875	0.1177	0.064834	0.061643	0.13263	0.16867	0.15187	0.24102	0.07756	0.35368	0.19013	0.21288	0.30149	0.38049	0.14285	0.16269	-2.6208	-2.7125	-3.0812	-2.9104	-2.6833	-3.175	-2.6729	-3.1	-2.9979	-2.7667	-3.1375	-2.7583	-2.9813	-3.1354	-2.5563	-3.0312	156.250	113.106	72.653	142.722	-32.627	-103.737	191.578	115.322	127.093	-52.352	224.871	176.142	-114.345	-101.724	31.785	191.572	0.001399	0.0030119	0.0011618	658.32	4.6167e-05	1.0285e-05	687.08	225.28	4.9549e-05	1.0608e-05	272.26	109.83	89.719	41.327	3.482e-05	51.479	0.012853	0.01234	0.0033431	3038.4	0.00014299	0.00012662	1194.8	417.93	0.0001379	0.00013327	557.81	218.07	178.27	70.926	0.00014955	105.06	123.275	-60.240	133.913	-121.374	52.261	-24.330	-124.242	-116.508	-35.787	35.193	-119.319	-115.508	-112.535	-107.821	-96.419	-111.490	-8191	255	
1945.960	1	1	0	0	0.20423	0.080882	0.051479	0.2035	0.31744	0.26587	0.25634	0.17288	0.26517	0.22934	0.093813	0.070884	0.062454	0.12557	0.2978	0.14534	-2.475	-2.5167	-2.9625	-2.8521	-2.6167	-3.2146	-2.8979	-3.0208	-3.0521	-2.325	-3.1271	-2.9729	-2.6854	-2.9167	-2.7583	-2.8479	225.415	20.654	-105.046	66.688	167.399	70.872	199.334	35.410	-94.096	-47.103	2.566	184.960	168.965	146.473	138.105	178.379	0.00074043	0.0024366	0.0029811	706.73	2.3882e-05	1.4167e-05	697.78	227.37	4.4439e-05	2.1686e-05	272.75	110.66	89.659	41.588	8.2109e-05	51.839	0.012749	0.012766	0.0038686	3159.7	0.00014567	0.00013086	1272.4	420.32	0.00013458	0.00013157	585.47	210.69	171.65	69.326	0.00015019	98.886	83.739	-90.922	141.519	-120.464	8.320	-58.059	-123.978	-116.383	21.666	-46.178	-120.069	-114.716	-112.477	-108.435	-123.116	-111.283	-8191	255	
1946.056	1	1	0	0	0.15468	0.098106	0.18962	0.13805	0.18469	0.16994	0.34758	0.13861	0.18571	0.20482	0.081529	0.12449	0.05453	0.10945	0.058809	0.12066	-2.4875	-2.6063	-2.7271	-2.9042	-2.6354	-3.0146	-2.6229	-2.9104	-3.0042	-2.6396	-2.95	-2.9896	-2.6333	-3.1562	-2.6208	-2.8958	66.479	24.695	114.523	201.432	150.039	180.678	180.783	130.593	49.196	-0.709	91.527	-132.261	60.543	207.822	-90.200	224.752	0.0007455	0.0040246	0.0014823	718.05	7.1608e-06	2.9032e-05	703.53	230.29	3.8712e-05	6.9127e-05	280.81	111.12	90.904	41.434	1.7471e-05	52.326	0.011346	0.011729	0.0038094	2818.8	0.00013073	0.00012533	1277	398.99	0.00012337	0.00012917	589.26	199	165.43	69.79	0.00014786	94.554	-9.575	159.607	153.567	-121.991	135.085	205.992	-123.646	-116.325	29.978	205.315	-119.269	-114.437	-112.203	-108.563	9.653	-111.800	-8191	255	
1946.128	1	1	0	0	0.16753	0.15424	0.14344	0.23817	0.20378	0.18918	0.22967	0.32458	0.25499	0.25312	0.16852	0.12397	0.088222	0.47905	0.39826	0.11769	-2.7188	-2.4562	-2.9125	-2.9333	-2.5646	-3.1188	-2.7104	-2.7833	-3.0583	-2.7646	-3.175	-3.0208	-2.5687	-3.05	-2.675	-2.6437	-111.446	-31.487	18.511	5.972	188.094	75.209	113.986	189.435	17.041	-79.854	165.886	-71.709	124.773	120.328	100.720	-113.456	8.4182e-05	0.0052377	0.000231	694.42	1.4481e-05	9.2949e-05	706.55	231.97	6.2437e-05	4.7769e-05	282.42	111.2	89.083	41.04	4.3759e-05	51.947	0.010695	0.012284	0.0039103	2717.4	0.00013178	0.00014214	1317.9	406.72	0.0001331	0.00015736	635.23	209.61	177.99	79.358	0.00017131	101	119.749	148.388	-27.158	-122.426	7.979	213.756	-122.897	-116.453	5.993	221.613	-119.463	-114.800	-112.403	-108.581	24.570	-111.463	-8191	255	
1946.247	1	1	0	0	0.25812	0.047002	0.17653	0.14922	0.094317	0.17778	0.35489	0.30109	0.20839	0.15701	0.26815	0.12706	0.13928	0.065182	0.22634	0.22664	-2.6771	-2.7208	-2.9167	-2.9396	-2.5417	-3.075	-2.975	-2.6333	-3.0896	-2.6813	-2.75	-2.8625	-2.6375	-3.0104	-2.9688	-2.6854	165.625	196.022	47.015	-97.874	218.373	-83.972	176.617	171.646	-47.224	166.000	-87.788	20.452	172.739	136.886	217.273	47.366	0.00090988	0.0057838	0.00087125	685.97	6.7931e-06	7.5801e-05	700.27	226.68	3.8955e-05	1.9979e-05	276.88	108.36	88.381	41.361	8.5263e-05	51.164	0.012495	0.015632	0.0043741	2921.3	0.00014641	0.0001705	1331.3	412.93	0.00014409	0.00017873	636.64	210.63	185.69	84.901	0.00017365	103.64	11.098	171.928	-38.483	-122.657	86.794	190.697	-122.622	-116.482	132.726	223.232	-118.588	-115.043	-112.749	-108.586	28.608	-111.543	-8191	255	
1946.343	1	1	0	0	0.08022	0.10195	0.20257	0.085019	0.17996	0.20257	0.16483	0.068855	0.15722	0.13323	0.029646	0.079141	0.16133	0.18083	0.11729	0.31543	-2.6	-2.9167	-2.7667	-3.1083	-2.8563	-3.1167	-2.975	-2.8271	-3.2833	-2.925	-2.9146	-3.325	-2.5354	-3.1146	-3.0729	-2.6937	175.832	13.609	73.306	29.037	-54.251	188.668	45.252	20.068	-107.121	-100.389	76.560	-120.852	110.948	110.646	-130.095	198.975	0.0017357	0.00088051	0.0024835	690.45	6.6995e-05	2.3219e-05	700.45	226.74	0.00010391	1.9961e-05	275.5	109.27	87.74	41.681	8.6624e-05	51.306	0.014195	0.017885	0.0045941	3105.9	0.00017264	0.00020054	1369.4	431.74	0.00017082	0.00019788	642.23	213.32	198.04	86.588	0.0001663	103.07	-43.841	73.152	-34.083	-121.236	221.822	166.015	-123.397	-117.221	175.760	18.370	-118.838	-115.291	-112.703	-107.644	38.598	-111.661	-8191	255	
1946.439	1	1	0	0	0.20749	0.16448	0.0088789	0.11172	0.13207	0.11944	0.25871	0.13626	0.0066494	0.12095	0.22071	0.10213	0.063383	0.22366	0.18608	0.37755	-2.6979	-2.8396	-2.8563	-3.0438	-2.5938	-2.9854	-3.1562	-2.8583	-3.1271	-2.6958	-2.7729	-3.2917	-2.8708	-2.7854	-3.0208	-2.7708	104.127	87.029	-101.559	157.061	72.677	-35.708	109.553	138.195	-12.172	-70.372	78.362	-102.866	219.920	187.212	139.055	160.137	0.0035243	0.0064422	0.00077093	705.43	7.1399e-05	3.8105e-05	698.36	226.17	8.2511e-05	5.0386e-05	275.89	109.52	89.386	42.132	3.8881e-05	51.805	0.015565	0.017719	0.0044298	3069.4	0.0001886	0.000198	1349	431.64	0.00018951	0.00019343	640.71	217.08	210.59	86.103	0.0001656	105.5	-40.612	-16.873	-10.481	-121.410	-124.905	43.069	-122.841	-116.525	176.033	51.996	-119.249	-115.025	-112.776	-107.716	27.275	-112.362	-8191	255	
1946.535	1	1	0	0	0.12561	0.11941	0.18123	0.045049	0.088588	0.060433	0.070461	0.21898	0.15106	0.099179	0.19052	0.033605	0.26928	0.34558	0.067865	0.19503	-2.6833	-2.8229	-2.6896	-3.0312	-2.7896	-3.0042	-3.2458	-2.7958	-3.175	-2.9562	-2.8875	-3.05	-2.8563	-2.7687	-3.1937	-2.7708	-41.571	68.467	6.471	33.592	-62.631	31.060	152.349	175.741	53.704	53.248	-101.337	111.801	-4.938	-98.372	224.182	180.523	0.0040638	0.0060511	0.00030179	687.38	4.8421e-05	6.8813e-05	704.97	225.97	4.6254e-05	7.2745e-05	277.44	109.16	90.38	41.891	3.3868e-05	52.068	0.017343	0.017199	0.0044089	3192	0.00020334	0.0001907	1340.7	444.26	0.0002047	0.00018687	643.3	228.95	220.51	85.503	0.00016733	112.36	-53.415	-43.535	-80.469	-123.772	209.154	44.898	-123.663	-117.302	96.073	33.092	-119.185	-116.189	-112.450	-107.981	36.500	-113.122	-8191	255	
1946.656	1	1	0	0	0.0067016	0.1281	0.09683	0.12054	0.2648	0.223	0.14826	0.090913	0.23171	0.21506	0.17018	0.10376	0.032943	0.44936	0.033985	0.16059	-2.5625	-2.9833	-2.775	-3.1625	-3.0187	-2.9646	-3.0042	-2.7562	-3.0125	-2.8604	-2.7625	-3.3688	-2.9417	-2.6854	-3.2812	-2.975	40.714	137.136	-6.176	-60.081	50.256	-71.616	174.810	215.087	-127.555	59.054	107.165	103.631	94.227	180.352	210.116	60.690	0.0010254	0.0047339	0.00029884	676.61	6.657e-05	3.9727e-05	700.54	226.24	9.9222e-05	2.2508e-05	276.02	107.59	90.544	41.346	5.4609e-05	51.155	0.018628	0.017012	0.0045082	3558.1	0.00021422	0.00019296	1362.4	479.07	0.0002173	0.00018872	658.32	249.88	225.11	86.881	0.00017971	123.04	78.175	-17.213	-12.737	-126.219	30.166	23.290	-123.699	-117.931	14.738	48.060	-119.204	-116.254	-112.384	-108.125	21.386	-112.880	-8191	255	
1946.728	1	1	0	0	0.21321	0.19097	0.2108	0.14994	0.050315	0.020277	0.087411	0.11031	0.14693	0.054063	0.1723	0.12073	0.1099	0.20194	0.059484	0.048474	-2.4125	-2.9625	-2.9875	-2.9083	-2.9625	-2.9313	-3.0729	-2.9479	-2.8646	-2.8229	-2.8083	-3.0667	-3.0479	-2.7833	-3.0375	-2.8958	223.202	111.846	204.892	-71.065	158.871	-60.594	1.417	219.817	55.977	-30.416	133.834	157.099	-127.001	-112.403	-26.806	162.896	0.0014655	0.0031303	0.00049343	659.69	4.6546e-05	4.0756e-05	693.62	224.29	8.1643e-05	1.0872e-05	273.14	107.73	89.064	41.325	9.3182e-05	50.977	0.019713	0.017881	0.0049112	4119.1	0.00022142	0.00020222	1418.2	515.06	0.00021933	0.00019332	689.19	268.45	222.71	87.328	0.00019424	128.77	133.808	-57.309	211.054	-123.884	63.561	41.522	-124.179	-116.909	26.607	84.816	-120.550	-115.640	-112.261	-108.555	-113.696	-112.602	-8191	255	
1946.824	1	1	0	0	0.078236	0.17329	0.11728	0.073947	0.17804	0.11751	0.21941	0.099489	0.059406	0.15224	0.17344	0.21247	0.17467	0.1894	0.10898	0.2658	-2.5375	-3.2313	-2.5042	-3.0854	-3.0458	-2.7146	-3.1729	-2.9646	-2.9875	-2.9125	-2.9333	-3.2687	-3.0687	-2.7417	-3.1771	-2.9292	105.657	170.073	93.293	-77.494	169.232	69.342	224.996	176.636	90.128	-25.438	118.032	-117.702	-114.678	208.940	-114.718	128.182	0.0017687	0.0042908	0.0023533	662.51	5.3052e-05	7.6917e-05	690.83	226.38	6.1147e-05	4.0492e-05	270.06	109.56	89.358	40.887	0.00011562	51.842	0.019092	0.01771	0.0052788	4375.3	0.00021593	0.00020525	1513.4	535.32	0.00021768	0.00019609	735.89	273.83	215.29	86.077	0.00020814	124.86	82.811	-55.194	133.635	-122.847	42.566	43.882	-124.392	-116.589	-17.093	88.741	-120.463	-114.469	-112.423	-108.834	-127.712	-111.115	-8191	255	
1946.944	1	1	0	0	0.072757	0.18005	0.046157	0.11958	0.091435	0.21194	0.13558	0.11297	0.18284	0.0029844	0.16107	0.1236	0.17443	0.12683	0.071592	0.3096	-2.4083	-3.0208	-2.6896	-2.8875	-2.9583	-2.7313	-3.1417	-2.9354	-2.6667	-3.175	-2.7542	-3.0167	-3.0833	-2.6896	-3.2271	-3.0667	-57.439	21.079	-7.419	-108.984	38.693	163.594	56.572	184.684	102.975	42.162	-40.767	216.143	173.503	0.334	176.470	189.283	0.0016817	0.0018787	0.0025885	714.81	3.2955e-05	2.9129e-05	692.5	229.07	4.8301e-05	2.0077e-05	273.73	109.49	88.968	40.947	4.7015e-05	52.259	0.01743	0.01628	0.0052962	3964	0.00018589	0.00018051	1489.4	486.53	0.00018686	0.00017315	719.43	250.59	199.23	82.683	0.00020877	116.57	104.905	82.840	140.200	-121.854	17.930	33.113	-124.479	-116.086	-11.188	-95.917	-119.922	-114.337	-112.373	-108.459	-115.267	-111.361	-8191	255	
1947.041	1	1	0	0	0.34588	0.088015	0.073933	0.056293	0.12577	0.18067	0.18518	0.25641	0.097983	0.13585	0.085682	0.11696	0.32296	0.19229	0.16364	0.10443	-2.0938	-3.2562	-2.7854	-2.9646	-3.0021	-2.5729	-3.275	-3.1396	-2.6562	-2.9583	-2.9083	-2.9792	-3.1729	-2.9	-3.125	-3.0271	-35.283	-118.627	27.929	64.164	-75.944	-39.942	192.245	-93.200	-21.630	170.900	-106.205	-55.369	217.811	-44.875	92.148	175.680	0.00067801	0.0019086	0.00099802	712.84	1.522e-05	8.7448e-05	697.63	228.03	2.5014e-05	8.0862e-05	275.41	109.93	89.696	40.612	4.8059e-05	51.14	0.016149	0.015997	0.0054032	3693.7	0.00017475	0.00018216	1524.2	464.74	0.00018004	0.00018286	737.58	243.89	197.8	86.648	0.00022152	114.82	95.302	132.332	138.495	-121.146	106.221	222.172	-124.150	-116.143	-89.635	210.828	-119.209	-114.801	-113.023	-109.314	22.561	-112.263	-8191	255	
1947.137	1	1	0	0	0.17634	0.28663	0.060738	0.20099	0.22458	0.08813	0.096794	0.085592	0.21276	0.14593	0.039933	0.25195	0.20162	0.33228	0.12705	0.133	-2.1188	-2.9667	-2.7917	-2.8688	-3.1729	-2.9417	-3.0667	-3.1625	-2.8187	-3.0042	-2.9208	-2.8917	-2.9813	-2.6396	-2.8312	-3.0271	-9.200	-133.927	192.359	142.005	133.704	99.637	-78.258	79.253	140.083	-54.541	-112.380	139.052	140.559	169.728	66.865	201.586	0.00085699	0.0077447	0.00095237	707.79	2.138e-06	3.5274e-05	694.91	224.38	5.0883e-05	0.00011854	280.39	108.63	88.114	40.813	8.7814e-05	51.048	0.016507	0.018287	0.0057525	3750	0.00018364	0.00021348	1592.4	473.07	0.00019318	0.00021829	763.38	250.48	205.65	94.78	0.00022966	115.59	40.751	129.661	-10.676	-121.578	-81.107	-123.842	-122.754	-116.528	33.262	220.382	-118.900	-114.943	-112.571	-108.786	54.427	-112.505	-8191	255	
1947.233	1	1	0	0	0.013055	0.054802	0.1037	0.07592	0.203	0.1633	0.075337	0.20329	0.22021	0.067825	0.27443	0.22562	0.058826	0.17367	0.094344	0.29576	-2.3042	-3.2	-3.0438	-2.7896	-2.9625	-2.8042	-3.1396	-3.1917	-2.7729	-3.1729	-2.9146	-2.6063	-3.1021	-2.9729	-2.9208	-3.0229	45.870	66.078	-82.207	-82.636	138.556	149.278	-38.101	191.197	-70.471	16.419	89.635	114.495	68.921	130.274	-112.930	161.735	0.0013089	0.0065404	0.0025247	714.12	3.5141e-05	6.2386e-05	695.68	225.18	4.9871e-05	2.8451e-05	276.03	108.17	86.953	41.005	5.1617e-05	51.51	0.017267	0.020794	0.005642	3749.9	0.00019017	0.00023259	1558.8	467.96	0.00019974	0.00023669	737.15	248.25	213.24	98.355	0.00022071	115.17	-49.247	158.267	-10.719	-123.059	-110.877	-127.655	-123.415	-116.649	177.416	216.365	-118.642	-114.933	-113.174	-108.651	29.163	-111.229	-8191	255	
1947.352	1	1	0	0	0.15649	0.038948	0.19402	0.19303	0.016111	0.083881	0.21253	0.07662	0.081918	0.16892	0.1319	0.37282	0.20536	0.053662	0.082232	0.15799	-2.2167	-2.9354	-2.8833	-2.7	-3.2438	-2.8979	-2.9021	-3.2396	-2.8646	-2.8646	-2.925	-2.7771	-3.275	-2.9542	-2.5479	-3.0083	192.431	69.721	80.894	176.424	-43.241	-59.795	195.449	93.846	-126.193	25.305	156.127	123.493	178.558	-95.929	133.925	136.408	0.0022103	0.0024686	0.002681	695.7	8.1766e-05	3.1825e-05	690.98	225.31	0.00014181	8.0102e-05	275.8	108.1	86.824	41.557	7.1214e-05	51.59	0.018469	0.022129	0.0054021	3731	0.00020734	0.00023986	1520.5	461.5	0.00021139	0.00023426	693.63	236.69	215.65	92.586	0.00019167	107.24	-25.351	-96.313	-22.495	-122.770	224.539	37.355	-123.430	-116.360	185.350	32.623	-118.621	-115.307	-113.398	-107.938	8.736	-111.674	-8191	255	
1947.423	1	1	0	0	0.085927	0.22207	0.12763	0.11036	0.16055	0.096593	0.15866	0.086755	0.2327	0.10109	0.11225	0.1236	0.06222	0.083531	0.22938	0.32901	-2.0896	-2.9688	-2.85	-2.6896	-2.9625	-2.8563	-2.8292	-3.2729	-2.75	-2.8375	-3.0187	-2.6167	-3.2062	-3.1437	-2.7104	-3.0687	95.805	-21.494	75.711	27.960	94.504	115.642	132.645	217.793	-98.522	-103.634	-125.667	131.215	195.959	-97.749	-108.993	214.997	0.0035028	0.0065935	0.00025903	701.65	6.8642e-05	9.6272e-05	693.6	225.94	3.0257e-05	9.2213e-05	279.14	108.39	87.036	41.701	1.5468e-05	51.516	0.017805	0.019206	0.0045674	3323.5	0.00019992	0.00020226	1395.7	432.23	0.00020274	0.00020125	637.78	226.29	214.96	85.724	0.00017368	104.86	-56.635	-17.880	-48.640	-123.286	198.379	26.051	-123.535	-117.260	117.008	44.140	-119.156	-115.528	-113.161	-108.045	36.120	-112.638	-8191	255	
1947.544	1	1	0	0	0.11713	0.040762	0.2087	0.062855	0.12293	0.1221	0.35362	0.055745	0.10607	0.2405	0.18535	0.23274	0.14884	0.28717	0.1244	0.20455	-2.1271	-2.6729	-2.8604	-2.7708	-3.0979	-2.8625	-2.625	-3.125	-2.7812	-2.8042	-3.075	-2.7438	-2.9792	-2.8479	-2.7417	-2.9167	-55.399	61.380	-64.591	-70.995	212.838	209.468	128.350	-109.303	208.686	220.301	-97.547	-83.535	-34.696	55.045	-42.104	159.613	0.0018007	0.0028118	0.0011565	659.29	2.9778e-05	4.7213e-05	700.1	226.18	3.0393e-05	4.4225e-05	278.33	107.9	89.555	41.297	8.2131e-05	51.133	0.017578	0.016962	0.0041119	3203.4	0.00019446	0.00017529	1317.5	428.03	0.00019382	0.00017786	605.15	228.2	214.31	82.079	0.00016895	109.8	-34.714	14.360	-20.652	-123.484	-85.771	61.203	-123.433	-117.234	151.008	25.478	-118.532	-115.713	-112.050	-108.380	23.803	-112.687	-8191	255	
1947.640	1	1	0	0	0.074617	0.2384	0.18607	0.12969	0.36373	0.077868	0.20679	0.23419	0.18047	0.10232	0.025436	0.175	0.042901	0.16695	0.28457	0.059892	-2.2271	-2.6312	-2.9396	-2.6854	-3.1562	-3.1479	-2.7354	-3.1417	-2.6333	-2.6417	-3.1146	-2.8063	-2.8667	-3.05	-2.6312	-3.2875	-0.805	-36.230	168.015	213.748	56.602	11.183	180.281	146.514	193.379	12.094	96.572	206.312	114.655	217.671	199.632	-94.840	0.0012597	0.0031095	0.0010947	658.55	2.9749e-05	6.1393e-05	691.96	224.52	0.0001084	3.9942e-05	273.25	107.47	88.599	40.936	3.0724e-05	50.488	0.017983	0.016704	0.0041869	3565.2	0.0002051	0.00017655	1337	461.61	0.0001975	0.00017884	610.38	241.04	210.99	80.152	0.00016668	114.27	145.766	-4.892	-1.630	-124.231	30.122	18.028	-123.839	-117.543	44.428	21.944	-119.414	-115.764	-112.378	-108.146	-130.869	-112.965	-8191	255	
1947.736	1	1	0	0	0.17432	0.094819	0.16084	0.16127	0.20196	0.15144	0.21944	0.1475	0.10907	0.16716	0.1653	0.25915	0.16955	0.11549	0.18523	0.11021	-2.4646	-2.7417	-3.0625	-2.6437	-2.85	-3.2	-2.6167	-2.8375	-2.7271	-2.7021	-3.2854	-2.9375	-3	-2.9896	-2.5417	-3.1813	195.327	196.966	215.462	154.700	14.497	-0.287	161.122	109.827	-32.680	-106.726	170.658	16.027	196.284	198.564	-68.856	-125.437	0.0017507	0.0074942	0.00055103	690.55	3.6881e-05	2.4964e-05	694.02	225.75	0.00011205	4.0899e-05	270.94	108.76	89.787	41.118	4.4129e-05	51.662	0.016692	0.015883	0.0041311	3697	0.00019234	0.00016933	1352.1	480.24	0.00018781	0.00017669	634.32	251.31	206.67	79.869	0.00017903	119.28	85.708	-27.168	199.443	-123.623	31.656	-9.802	-123.804	-116.914	6.094	-1.119	-120.103	-115.477	-112.155	-108.503	164.797	-112.429	-8191	255	
1947.832	1	1	0	0	0.292	0.10418	0.23251	0.20524	0.059781	0.29344	0.17232	0.42243	0.14497	0.25643	0.074578	0.073508	0.18438	0.28699	0.23708	0.15734	-2.3958	-2.5479	-3.0896	-2.7479	-2.9646	-3.0042	-2.6375	-3.0083	-3.0687	-2.6271	-3.0938	-2.8688	-2.8479	-3.0938	-2.9042	-3.0021	119.395	74.947	-106.480	192.244	31.406	-98.496	203.207	185.325	37.826	-94.707	-127.090	-96.479	214.751	153.019	223.468	180.146	0.0016619	0.0041086	0.0021967	715.25	7.279e-05	5.1792e-05	696.97	228.46	1.9336e-05	2.836e-05	270.64	109.82	89.335	41.395	8.8714e-05	52.02	0.016079	0.015875	0.0045312	3821.1	0.00018544	0.0001661	1415	484.38	0.00017592	0.00016995	662.02	246.22	198.77	78.006	0.00018834	116.29	112.464	7.668	153.456	-121.861	51.620	50.714	-124.597	-116.103	29.506	-27.685	-120.841	-114.759	-112.475	-108.483	214.523	-111.228	-8191	255	
1947.953	1	1	0	0	0.26636	0.12549	0.11147	0.19018	0.31893	0.083845	0.17924	0.20922	0.061334	0.28768	0.19106	0.10816	0.13283	0.21716	0.23276	0.22578	-2.4938	-2.5729	-3.0646	-2.8187	-2.6083	-3.2479	-2.8583	-2.9979	-2.9354	-2.5271	-3.1708	-2.9042	-2.5458	-3.25	-2.8729	-2.9917	3.098	59.203	152.095	193.425	156.306	152.465	-98.173	55.816	175.997	153.092	-1.335	143.434	130.229	206.722	-102.323	127.431	0.0009539	0.0019045	0.0014271	707.7	3.2082e-05	1.8919e-05	702.48	230.33	5.8986e-05	5.6002e-05	276.14	110.66	89.753	40.931	8.7164e-05	52.143	0.015071	0.015322	0.0048755	3647.4	0.00017692	0.00016341	1469.6	471.98	0.00016886	0.00017094	698.7	238.21	196.41	79.404	0.00019997	112.59	209.343	91.985	155.472	-122.629	-48.554	182.225	-124.223	-116.255	-20.844	162.499	-119.876	-114.870	-112.171	-109.054	-107.845	-111.491	-8191	255	
1948.025	1	1	0	0	0.44163	0.15168	0.07873	0.092387	0.27346	0.14719	0.25069	0.13104	0.33263	0.33492	0.033653	0.078918	0.10784	0.36242	0.12687	0.23921	-2.4896	-2.6562	-3.0521	-2.9917	-2.4688	-3.1813	-2.8646	-2.8396	-3.0708	-2.5208	-3.2021	-2.9021	-2.7146	-3.1604	-2.8708	-2.9458	42.437	-10.805	50.427	-5.354	170.820	133.537	206.524	189.888	212.561	44.299	157.632	164.024	78.752	171.146	91.112	-119.017	0.001302	0.0046247	0.0014462	724.84	3.3347e-05	6.319e-05	696.59	228.28	5.138e-05	6.8385e-05	276.16	108.99	88.302	40.631	3.6953e-05	51.522	0.014465	0.01555	0.0050028	3344.1	0.0001644	0.00016404	1448.1	443.18	0.00015581	0.00017423	694.7	226.66	192.14	82.697	0.00020366	110.81	55.318	182.861	116.013	-121.349	54.795	207.219	-123.254	-116.305	-39.042	-121.851	-119.792	-114.780	-112.044	-108.768	67.869	-111.970	-8191	255	
1948.121	1	1	0	0	0.22323	0.21918	0.25606	0.0366	0.19476	0.14834	0.24354	0.28681	0.26849	0.19876	0.22177	0.30365	0.18698	0.16659	0.32555	0.19073	-2.7271	-2.5292	-2.8958	-3.0146	-2.8187	-3.1292	-3.0146	-2.5604	-3.0354	-2.7271	-2.9792	-3.15	-2.85	-3.2062	-2.7021	-2.7354	210.058	-32.786	122.969	-89.677	94.991	63.488	158.300	137.611	208.909	45.726	-77.065	104.884	198.331	-95.800	-29.984	104.693	0.0014338	0.0097949	0.0011634	708.4	3.0034e-05	6.8443e-05	707.84	226.95	8.9262e-06	6.1888e-05	279.2	108.31	87.956	40.651	9.7475e-05	50.961	0.01472	0.017689	0.0053134	3407.9	0.0001732	0.00019382	1479.1	449.21	0.00016227	0.00019576	691.62	222.54	191	86.329	0.00018977	107.09	104.385	166.954	-21.619	-123.040	-27.481	218.037	-123.147	-116.984	66.337	211.387	-118.524	-115.262	-112.942	-108.763	42.405	-111.733	-8191	255	
1948.217	1	1	0	0	0.2062	0.18285	0.10535	0.066689	0.12609	0.22217	0.12886	0.3416	0.17418	0.208	0.13262	0.063957	0.12913	0.046479	0.081435	0.13676	-2.7833	-2.7771	-2.7021	-3.0875	-2.7188	-3.3792	-2.8833	-2.4958	-3.0771	-2.8208	-2.9229	-3.0896	-2.7062	-3.0521	-2.8958	-2.7562	-16.938	81.365	147.488	200.353	116.594	162.411	130.768	172.505	-99.236	-56.767	17.924	-101.701	-101.367	61.515	-46.500	201.247	0.0011813	0.0064649	0.0021483	692.71	1.0662e-05	1.5433e-05	701.7	227.61	4.6363e-05	2.2187e-05	280.24	108.82	88.111	41.068	3.7823e-05	50.947	0.014367	0.018223	0.0048743	3219	0.0001708	0.00020033	1405.2	435.84	0.00016413	0.00019813	652.2	214.01	191.56	85.861	0.00016833	102.54	-90.664	146.887	-20.285	-122.762	34.555	138.297	-123.017	-116.624	163.067	-118.009	-119.205	-115.204	-113.270	-108.797	35.333	-111.457	-8191	255	
1948.313	1	1	0	0	0.30603	0.098257	0.2096	0.095301	0.1842	0.26274	0.18328	0.1134	0.12811	0.29005	0.087136	0.22911	0.2808	0.20997	0.2241	0.095805	-2.7354	-2.8125	-2.4667	-3.1021	-2.6875	-3.0229	-3.0917	-2.7271	-3.25	-2.7562	-2.6396	-3.0875	-2.7271	-3.025	-2.9042	-2.725	30.562	133.942	-4.884	-132.632	-2.804	-3.212	-119.014	187.893	12.550	-73.615	98.351	165.402	210.355	166.911	-42.786	184.294	0.0035955	0.0024181	0.00057436	710.05	7.3618e-05	2.7109e-05	707.88	229.01	8.326e-05	5.4218e-05	277.87	109.58	89.011	41.568	3.4115e-05	51.571	0.014539	0.017589	0.0043954	3029.9	0.00017579	0.00019592	1349.4	426.28	0.00017629	0.00019388	637.96	213.2	202.11	85.619	0.00016253	102.2	-25.777	3.174	-26.005	-122.355	-124.885	43.666	-123.375	-116.818	161.467	63.073	-119.209	-115.137	-113.178	-108.112	29.053	-111.925	-8191	255	
1948.432	1	1	0	0	0.055447	0.24503	0.23752	0.026673	0.13202	0.19286	0.15422	0.19266	0.22661	0.030557	0.19716	0.066819	0.098216	0.19291	0.2825	0.042183	-2.6125	-2.7167	-2.6063	-2.9396	-2.7771	-2.7521	-3.0958	-2.5396	-3.0687	-3.0521	-2.8812	-3.2479	-2.7812	-2.6417	-3.1729	-2.675	-66.678	44.270	-97.381	163.886	143.271	159.480	99.100	191.582	-38.202	-21.428	-75.627	204.370	171.718	107.523	96.983	206.922	0.003453	0.0087266	0.00056265	684.97	6.9611e-05	8.299e-05	707.51	228.16	1.1723e-05	7.3531e-05	279.83	107.04	88.882	41.594	6.6804e-05	51.436	0.015805	0.01661	0.0041572	2949.8	0.00018225	0.00017967	1294.5	418.62	0.00018273	0.00017733	617.14	213.96	208.77	83.055	0.00015878	104.84	-39.351	-27.847	-51.731	-123.533	221.227	18.001	-123.761	-117.589	195.140	57.128	-119.399	-115.495	-112.723	-108.555	33.944	-112.628	-8191	255	
1948.528	1	1	0	0	0.14362	0.10429	0.040896	0.17918	0.10717	0.2422	0.12566	0.15412	0.054065	0.19613	0.21374	0.17624	0.085814	0.10845	0.034382	0.16511	-2.6104	-2.9521	-2.6	-2.8396	-2.9458	-2.7687	-3.1312	-2.8417	-2.875	-2.8688	-2.6625	-3.1125	-2.875	-3.0125	-3.1354	-2.5938	21.635	-99.084	196.655	91.574	-102.589	216.671	160.308	187.291	-5.937	-127.219	-68.588	-48.022	109.122	196.110	16.823	161.950	0.0020632	0.0083645	0.00090305	671.25	2.4866e-05	6.0633e-05	703.27	226.25	2.9109e-05	6.9726e-05	276.66	106.93	88.401	41.174	3.6136e-05	50.567	0.017163	0.016151	0.004216	3189.6	0.00019767	0.00017845	1304.5	442.42	0.0001978	0.00017555	626.07	229.9	215.62	83.757	0.00016539	113.95	-49.859	-32.003	-96.760	-124.899	34.568	17.559	-123.285	-117.296	189.044	47.143	-119.062	-116.122	-112.838	-107.880	43.209	-112.712	-8191	255	
1948.624	1	1	0	0	0.23703	0.18169	0.13069	0.24145	0.14936	0.13541	0.29504	0.074978	0.12313	0.19954	0.070907	0.084252	0.17542	0.14351	0.31842	0.18	-2.5042	-3.0396	-2.6542	-2.9771	-2.7896	-2.9229	-3.3208	-2.7562	-2.9021	-2.7917	-2.7062	-3.1063	-2.9375	-2.7708	-2.95	-2.7104	-106.832	-83.597	-77.238	148.683	169.813	44.538	203.749	-124.567	0.429	62.882	30.056	199.334	-113.638	30.028	179.214	116.612	0.00043179	0.0021645	0.0006615	667	4.2144e-05	1.8393e-05	704.02	225.15	8.9718e-05	5.8656e-05	276.2	107.42	88.986	41.128	1.5252e-05	50.963	0.01853	0.016741	0.004526	3725.8	0.000213	0.00019135	1371.1	489.04	0.00020956	0.00018095	646.64	247.58	211.68	82.504	0.0001653	117.13	65.276	-26.895	-118.219	-125.133	78.442	99.935	-123.525	-117.493	-17.681	13.193	-119.510	-115.968	-112.337	-108.167	-79.541	-112.518	-8191	255	
1948.721	1	1	0	0	0.063358	0.098056	0.13931	0.094951	0.079379	0.13241	0.15462	0.15839	0.017127	0.14947	0.44479	0.078752	0.17578	0.24143	0.12515	0.25947	-2.4688	-3.0479	-2.6542	-3.0292	-3.0083	-2.6958	-3.0104	-2.7479	-2.775	-3.1458	-2.6167	-3.0167	-3.0125	-2.8688	-3.0542	-2.8438	204.043	180.256	-17.667	-20.556	220.909	68.276	-115.151	211.649	-23.371	173.829	178.547	182.226	181.083	164.951	83.816	-23.089	0.0020043	0.0033507	0.0012102	681.89	5.7197e-05	2.6008e-05	704.65	229.28	0.00011276	4.3517e-05	274.17	108.84	88.726	41.505	9.0793e-05	51.773	0.016986	0.015421	0.0043714	3768.8	0.00018957	0.00017849	1375	496.13	0.00019623	0.00017511	666.76	255.54	204.48	81.689	0.00017725	118.59	87.388	-38.464	156.017	-122.790	53.585	-14.729	-124.420	-117.085	-2.059	44.463	-120.037	-115.612	-112.321	-108.503	211.455	-112.219	-8191	255	
1948.817	1	1	0	0	0.17552	0.16021	0.20184	0.21025	0.25063	0.16248	0.25142	0.087357	0.099483	0.11525	0.11637	0.067067	0.11215	0.1752	0.095685	0.074932	-2.1646	-3.1562	-2.625	-3.0104	-3.0104	-2.7708	-3.1208	-2.9813	-2.7417	-3.1021	-2.9667	-2.8542	-2.9396	-2.6375	-3.1875	-2.8646	155.535	-130.204	54.650	65.564	34.849	207.470	193.904	208.015	135.045	-69.051	-106.367	97.233	-132.125	112.306	-56.311	-64.277	0.0011568	0.0058905	0.0021393	704.62	2.4071e-05	3.3383e-05	706.2	230.38	1.9955e-05	1.1871e-05	278.42	110.8	88.898	41.07	5.563e-05	52.087	0.015881	0.014642	0.0045121	3659.4	0.00016719	0.0001602	1375.3	465	0.00016801	0.00015363	658.23	239.47	189.99	78.252	0.00018337	112.65	90.615	-39.471	149.123	-120.820	43.153	88.603	-124.465	-116.543	56.100	2.218	-120.616	-114.691	-112.644	-108.756	-122.681	-111.652	-8191	255	
1948.913	1	1	0	0	0.18837	0.14775	0.17278	0.10412	0.21886	0.16163	0.20351	0.28993	0.14826	0.23932	0.11542	0.22819	0.2072	0.022364	0.10872	0.19114	-2.3812	-2.8979	-2.5979	-3.0771	-3.0812	-2.4917	-3.0208	-2.8896	-2.8333	-3.2562	-2.9	-2.8812	-3.075	-2.7333	-3.0104	-3.0896	-74.536	-33.167	70.557	-108.537	81.189	10.402	-120.298	133.371	-122.948	-37.317	-78.987	-114.256	141.230	122.409	-68.288	169.812	0.0022601	0.0048576	0.0015117	702.9	2.7779e-05	4.4245e-05	706.61	230.11	4.9492e-05	4.2764e-05	274.28	108.86	88.646	40.414	3.6164e-05	51.28	0.015014	0.014386	0.0048402	3542.7	0.00016324	0.00016273	1431.3	450.88	0.00016452	0.00015732	680.24	231.47	186.65	79.561	0.00019752	109.82	116.362	115.510	171.876	-120.841	123.563	218.209	-124.131	-116.585	-13.102	-117.748	-119.526	-115.042	-112.851	-109.401	-133.320	-111.502	-8191	255	
1949.033	1	1	0	0	0.33656	0.078716	0.22919	0.029297	0.2101	0.16713	0.066886	0.13228	0.19411	0.032358	0.083625	0.12813	0.02272	0.1801	0.1696	0.2187	-2.3021	-3.2542	-2.7146	-2.6937	-3.0229	-2.6063	-3.1396	-3.1	-2.6771	-3.0417	-2.9458	-2.9479	-3.1146	-2.8771	-2.7875	-3.0625	-99.513	186.704	220.305	129.508	156.180	-8.438	60.213	176.788	-26.216	212.045	-85.038	163.725	-23.470	-90.438	-119.966	201.190	0.0007132	0.0070902	0.0012493	719.25	2.7755e-05	4.8736e-05	706.97	229.41	2.5747e-05	9.8446e-05	279.01	107.43	87.964	40.875	6.4773e-05	51.32	0.015111	0.015741	0.0052257	3524.2	0.00016713	0.00018268	1510.1	452.06	0.00017194	0.00018175	711.52	232.24	188.45	85.049	0.00020319	108.39	-77.744	134.061	113.980	-121.805	55.034	162.582	-123.506	-116.977	1.832	-133.141	-119.620	-114.740	-112.505	-108.938	49.799	-111.808	-8191	255	
1949.130	1	1	0	0	0.15593	0.11443	0.051612	0.28551	0.078401	0.22825	0.10281	0.38471	0.17707	0.097702	0.20543	0.24623	0.17107	0.088251	0.13707	0.15397	-2.1167	-2.9146	-2.7812	-2.7583	-3.1937	-3.0438	-2.9667	-3.05	-2.7	-3.1229	-2.7833	-2.9354	-3.3521	-2.7708	-3.0125	-3.0312	12.074	219.022	19.390	104.800	114.805	167.644	97.006	126.534	-21.676	9.663	174.999	168.192	191.099	-68.570	-31.443	119.246	0.0015251	0.0085724	0.0010591	702.84	1.7773e-05	6.5824e-05	710.55	230.87	1.9766e-05	8.8125e-05	280.05	108.79	87.945	41.416	4.7601e-05	51.6	0.015157	0.017564	0.0051933	3485	0.00016819	0.00020161	1498.1	446.58	0.00017226	0.00019954	687.89	227.61	187.79	86.908	0.00018604	103.57	44.251	162.418	-44.832	-122.551	202.129	192.036	-123.434	-116.965	210.114	-122.792	-119.092	-115.332	-113.044	-108.738	61.919	-112.061	-8191	255	
1949.226	1	1	0	0	0.35134	0.067198	0.04706	0.20008	0.27008	0.20839	0.08203	0.15894	0.32057	0.14692	0.044321	0.13067	0.14745	0.17595	0.17728	0.1821	-2.2729	-3.0604	-2.7896	-2.5646	-2.9167	-2.6896	-2.8021	-3.1729	-2.6562	-3.05	-2.8083	-2.6125	-3.1208	-2.8708	-2.6437	-3.2792	54.068	207.260	15.299	-6.870	107.705	-36.873	69.280	188.598	169.866	87.092	183.901	-114.039	-75.513	-93.089	123.974	181.018	0.00046735	0.002885	0.0018412	704.66	4.6066e-05	6.8064e-06	717.28	231.26	3.8754e-05	1.7025e-05	281.29	108.26	87.094	41.498	5.3818e-05	51.979	0.014425	0.017498	0.0045159	3179.9	0.00016029	0.00019382	1397.1	424.37	0.00016899	0.00019727	641.97	218.88	190.29	85.974	0.00016907	99.583	-14.770	150.834	-36.805	-122.127	-120.088	197.444	-122.786	-116.725	160.109	185.297	-118.780	-115.084	-113.338	-108.334	11.045	-112.155	-8191	255	
1949.320	1	1	0	0	0.081676	0.13716	0.18021	0.049171	0.15711	0.23665	0.28265	0.28663	0.056572	0.23675	0.13946	0.16707	0.051151	0.29441	0.17674	0.10107	-2.0979	-2.7562	-2.7625	-2.5354	-3.0438	-2.7646	-3.0271	-3.1875	-2.8583	-3.0146	-3.1396	-2.7229	-3.1667	-2.8583	-2.7229	-3.1604	-99.461	-39.911	-93.758	-108.196	-130.146	185.993	186.596	207.516	113.553	-114.699	-80.374	-112.267	19.752	161.356	187.251	-35.479	0.0026719	0.00072888	0.00035491	698.94	6.7883e-05	3.2533e-05	711.23	229.64	5.3352e-05	4.575e-05	280.11	108.37	87.731	41.737	3.1432e-05	50.755	0.014717	0.016875	0.0040123	2967.4	0.00016315	0.00017909	1312.5	405.56	0.00017232	0.00018636	615.2	215.41	202.09	85.586	0.00017315	102.31	-47.830	-30.512	-70.060	-121.795	-130.073	-29.456	-123.643	-117.214	174.167	5.100	-119.486	-115.772	-113.210	-108.191	46.258	-112.137	-8191	255	
1949.416	1	1	0	0	0.023523	0.22646	0.15513	0.28519	0.21292	0.06379	0.35993	0.25591	0.11905	0.070278	0.10985	0.21421	0.044228	0.25486	0.17462	0.071216	-2.3979	-2.5896	-2.9292	-2.5646	-2.9104	-2.8229	-2.7188	-3.0646	-2.6562	-2.7833	-3.0646	-2.8208	-3.0271	-2.8688	-2.725	-3.2938	208.833	45.808	56.156	123.480	-131.605	167.090	181.441	142.058	168.015	195.585	-101.083	199.269	190.754	214.544	-100.475	131.789	0.0029401	0.0057015	0.00060811	708.47	3.1878e-05	7.4921e-05	696.42	227.78	4.5474e-05	6.4344e-05	278.81	106.5	86.852	41.168	3.0995e-05	50.976	0.017114	0.017671	0.0042436	3172	0.00019025	0.0001807	1326.7	416.49	0.00018614	0.00017753	598.19	216.55	206.1	81.25	0.00016369	104.02	-68.390	-44.125	-74.224	-123.256	-103.658	19.332	-123.699	-117.366	160.309	24.590	-119.456	-115.865	-112.950	-108.550	47.501	-112.488	-8191	255	
1949.512	1	1	0	0	0.19186	0.12335	0.058089	0.093844	0.063172	0.24551	0.14161	0.2221	0.085171	0.12846	0.15029	0.32106	0.14914	0.12867	0.075741	0.047814	-2.6188	-2.7917	-2.9708	-2.6458	-2.8771	-2.6729	-2.7292	-3.0646	-2.8063	-2.9146	-3.1917	-2.8104	-3.2375	-3.0146	-2.4104	-3.1	-14.621	-22.223	102.160	12.845	50.723	189.499	54.806	148.613	194.848	-87.059	97.323	112.902	-86.545	223.367	83.310	-82.291	0.0016885	0.0070113	0.00026589	658.86	1.3494e-05	3.2033e-05	704.93	228.07	6.8242e-05	6.2816e-05	278.76	107.68	89.712	41.212	2.3162e-05	51.593	0.017356	0.016474	0.0040805	3329.2	0.00020002	0.00017505	1333.4	443.21	0.00019432	0.00017267	595.11	225.66	203.59	77.225	0.00014924	104.37	-23.790	-23.964	51.838	-124.906	172.923	36.101	-123.376	-118.320	3.785	9.010	-120.150	-116.317	-112.395	-108.438	85.229	-113.286	-8191	255	
1949.609	1	1	0	0	0.34581	0.21174	0.035673	0.20709	0.21591	0.25061	0.12978	0.066121	0.19894	0.14219	0.14604	0.078762	0.19966	0.16706	0.11271	0.16249	-2.4458	-2.475	-3.3292	-2.8625	-2.9771	-3.0687	-2.7542	-3.0646	-2.8563	-2.5687	-3.1646	-2.8312	-2.9292	-3.2042	-2.5542	-3.0687	-74.682	-24.735	95.704	102.956	-75.874	212.120	163.802	-72.789	20.568	92.346	115.769	91.307	10.000	-5.664	-133.619	-81.589	0.0014333	0.0018029	0.0010977	683.18	4.9241e-05	3.09e-05	710.39	230.03	3.212e-05	5.6346e-05	282.08	108.4	90.012	41.634	3.5503e-05	51.541	0.015149	0.01387	0.0034932	3155.3	0.00016812	0.0001455	1245.8	434.77	0.00016465	0.00015162	569.79	225.38	191.7	74.63	0.00014816	108.32	89.835	-14.843	158.873	-123.958	70.966	4.819	-123.497	-117.506	42.890	50.980	-119.974	-116.119	-112.242	-108.641	-116.050	-112.540	-8191	255	
1949.729	1	1	0	0	0.10359	0.23413	0.084609	0.25264	0.070575	0.073207	0.31431	0.28693	0.093586	0.22449	0.14543	0.10771	0.13531	0.027391	0.14841	0.22793	-2.45	-2.7375	-2.9667	-2.7792	-2.9042	-3.1229	-2.6271	-2.8333	-2.825	-2.9417	-3.1063	-2.8187	-2.925	-3.2479	-2.9229	-3.0208	156.803	86.179	-71.345	54.268	-9.084	182.372	131.570	207.066	-88.623	-94.645	215.450	176.959	177.496	205.948	-21.892	76.730	0.0012536	0.0020068	0.0015924	682.54	6.7086e-05	5.7575e-05	706.15	232.28	9.8703e-05	1.3443e-05	277.37	108.42	87.928	40.781	8.725e-05	51.237	0.014361	0.013874	0.0037159	3359.1	0.00016295	0.00014405	1279.4	447.45	0.00015538	0.00014817	588.65	227.51	185.07	73.013	0.00015836	108.79	123.602	-25.395	136.323	-122.601	56.658	43.777	-124.261	-117.250	3.455	57.620	-120.286	-114.947	-112.605	-108.977	211.588	-111.815	-8191	255	
1949.825	1	1	0	0	0.063526	0.066694	0.01567	0.11148	0.24387	0.061267	0.38192	0.13483	0.29855	0.22181	0.18477	0.081544	0.056545	0.21389	0.10379	0.15533	-2.4292	-2.7396	-3.15	-2.7604	-2.6271	-2.85	-2.7208	-3.0563	-3.075	-2.6458	-2.9521	-2.8521	-2.8083	-3.1792	-2.9146	-2.925	-107.696	62.669	-85.259	-106.009	177.459	17.485	160.644	-124.892	-127.309	41.337	164.506	120.558	53.876	-129.978	159.702	114.049	0.0011883	0.002285	0.002998	717.16	2.2479e-05	1.8778e-05	699.72	230.63	0.00010261	2.0302e-05	272.88	108.32	87.79	40.558	7.1197e-05	51.051	0.013642	0.013569	0.004092	3368.5	0.00015827	0.00014281	1337.1	447.2	0.00015135	0.00014869	628.97	225.89	185.19	73.972	0.00017632	108.06	120.597	1.474	148.552	-122.036	73.572	32.740	-124.113	-117.037	-8.524	119.508	-121.005	-114.865	-112.448	-109.124	206.379	-111.243	-8191	255	
1949.897	1	1	0	0	0.17136	0.033924	0.12014	0.17372	0.30889	0.22205	0.055169	0.072606	0.08091	0.1826	0.11534	0.36202	0.24427	0.14305	0.19152	0.11316	-2.5417	-2.725	-2.9958	-2.8312	-2.7146	-3.1458	-2.9417	-3.1604	-3.1437	-2.8042	-3.1646	-2.9062	-2.6229	-3.1708	-2.9125	-3.0354	84.466	51.718	58.370	-101.938	67.455	212.640	156.355	-100.412	-13.985	-11.676	86.834	121.602	-118.649	-6.563	78.712	139.620	0.0012278	0.0040502	0.0020603	720.45	4.9816e-05	3.7596e-05	706.04	231.16	4.5948e-05	3.579e-05	274.35	108.98	87.455	40.24	1.6399e-05	51.667	0.013583	0.014146	0.0045913	3337.7	0.00016133	0.00015367	1429.1	450.34	0.00015658	0.00016516	683.12	227.78	190.72	79.31	0.00019975	111.06	96.234	181.214	100.412	-122.327	57.990	224.645	-123.190	-116.423	-2.784	214.414	-119.985	-114.424	-112.941	-108.941	93.490	-111.942	-8191	255	
1949.993	1	1	0	0	0.1344	0.2016	0.21594	0.072437	0.30427	0.47056	0.15167	0.06555	0.084681	0.053536	0.27521	0.090435	0.17865	0.12405	0.030129	0.12567	-2.8812	-2.8708	-2.9896	-2.9	-2.5271	-2.9375	-2.8146	-2.7875	-3.0458	-2.7313	-2.9375	-3.0229	-2.5604	-3.075	-2.9813	-2.9458	134.833	61.942	96.433	79.191	34.598	-112.024	186.520	-120.118	-65.625	-54.509	182.150	123.472	217.848	131.970	174.316	144.509	0.001274	0.0067415	0.00092179	721.6	5.0268e-05	9.9081e-05	706.58	231.19	2.3165e-05	5.514e-05	277.25	107.14	86.873	40.181	7.2313e-05	50.886	0.014639	0.016673	0.0053453	3493.6	0.00017709	0.00018568	1516.5	458.71	0.00016459	0.00018828	702.88	223.25	188.27	82.542	0.00018983	105.64	164.158	140.435	145.925	-121.205	47.336	200.281	-123.692	-116.869	19.133	-132.560	-118.713	-114.844	-112.397	-109.160	36.600	-111.788	-8191	255	
1950.114	1	1	0	0	0.16475	0.022294	0.1103	0.26211	0.28704	0.27894	0.27774	0.11606	0.13315	0.083163	0.14489	0.15158	0.33247	0.1675	0.071801	0.30864	-2.7521	-2.6667	-2.7354	-2.9667	-2.8354	-2.9583	-3.0125	-2.6708	-3.125	-2.5542	-2.9021	-3.2396	-2.6292	-3.1833	-2.875	-2.5521	195.068	-8.119	-106.133	78.788	200.393	-44.578	191.741	-100.910	-31.758	81.521	-122.908	-121.895	120.627	172.520	187.367	168.854	0.0008169	0.0076842	0.0014961	717.31	3.6851e-05	6.3921e-05	709.83	228.03	3.6087e-05	4.8239e-05	278.15	106.41	86.553	40.358	7.968e-05	50.703	0.01364	0.016938	0.0048432	3182.8	0.00016296	0.00018808	1417.5	434.79	0.00015545	0.0001897	657.93	212.51	184.48	83.471	0.00016985	100.62	-4.767	153.903	-68.601	-121.743	199.675	181.845	-123.759	-116.950	-108.152	199.698	-119.469	-115.703	-113.118	-109.118	35.281	-112.131	-8191	255	
1950.210	1	1	0	0	0.053771	0.15766	0.17944	0.119	0.17628	0.13422	0.13848	0.15364	0.24533	0.25298	0.12721	0.27981	0.013923	0.16655	0.10539	0.2723	-2.675	-3.0229	-2.8125	-2.9917	-2.5125	-2.9479	-3.1125	-2.7521	-3.0625	-2.8417	-3.0667	-3.2229	-2.5938	-3.0667	-2.9083	-2.9396	40.850	112.575	125.774	223.585	183.364	20.876	218.636	14.279	-91.278	125.667	-120.096	169.776	208.843	-124.661	-59.672	199.184	0.0020915	0.0056858	0.0015949	715.52	4.6718e-05	2.7936e-05	707.76	228.93	0.00010876	2.008e-05	279.63	105.73	85.986	41.026	3.7055e-05	51.1	0.013314	0.016731	0.0043033	2933.9	0.00015901	0.00018558	1330.9	419.18	0.00015864	0.00018748	626.99	206.67	190.02	83.721	0.00015844	99.098	-25.285	124.419	-26.382	-121.354	-114.824	-77.780	-123.355	-117.150	203.428	-50.634	-118.572	-115.389	-113.656	-107.772	85.021	-111.386	-8191	255	
1950.306	1	1	0	0	0.078506	0.26221	0.29685	0.030594	0.18592	0.16428	0.23686	0.25201	0.24561	0.1089	0.23246	0.10138	0.22783	0.10831	0.16321	0.17323	-2.8312	-2.6708	-2.7583	-3.25	-2.7917	-2.9979	-2.7979	-2.7604	-3.1542	-2.9375	-2.9042	-3.3958	-2.7188	-2.925	-3.1146	-2.7438	57.140	1.804	-2.759	171.664	136.940	-47.271	211.267	-60.072	-13.616	-50.815	27.901	40.097	168.571	200.756	214.877	223.680	0.0035716	0.005115	0.0016183	692.21	7.2114e-05	1.426e-05	711.24	230.35	9.4963e-05	7.4235e-05	277.24	107.36	87.025	41.389	4.2177e-05	50.89	0.014284	0.01634	0.0040496	2844.3	0.0001678	0.00017844	1289	412.78	0.00016955	0.00017771	613.05	206.36	198.98	82.578	0.00015534	100.37	-47.414	-37.471	-67.062	-121.452	204.465	-16.459	-123.455	-117.201	173.012	46.703	-119.071	-115.624	-113.067	-108.234	13.791	-112.338	-8191	255	
1950.425	1	1	0	0	0.16696	0.16132	0.22682	0.082816	0.26886	0.093445	0.019746	0.096413	0.049588	0.1053	0.14319	0.095887	0.15512	0.17236	0.2526	0.27174	-2.6167	-2.9167	-2.4667	-3.1396	-2.6958	-2.9979	-3.0563	-2.6833	-3.1229	-2.9271	-2.9292	-3.1479	-2.7188	-3.0646	-3.0375	-2.7062	-57.332	90.141	-24.664	102.377	-130.358	188.866	194.698	15.961	124.020	-82.152	27.643	110.412	-125.771	-124.440	-46.052	74.500	0.0024129	0.0076966	0.0015171	689.23	2.0947e-05	6.885e-05	715.55	230.88	6.3657e-06	5.661e-05	282.86	107.56	88.301	41.861	2.4469e-05	52.002	0.015735	0.015678	0.0039747	2902.9	0.00017842	0.00016891	1265.8	416.82	0.00017756	0.00016368	599.07	210.67	201.51	79.487	0.00014702	103.36	-44.401	-18.815	-61.079	-124.603	-98.544	5.536	-123.315	-117.248	87.801	40.470	-118.934	-115.860	-112.724	-108.230	64.475	-112.681	-8191	255	
1950.521	1	1	0	0	0.20457	0.076174	0.2701	0.26417	0.31229	0.096368	0.040075	0.2477	0.10868	0.16004	0.2985	0.14311	0.19931	0.27864	0.10139	0.22799	-2.3625	-3.0333	-2.5979	-3.0854	-2.7104	-2.9083	-3.1292	-2.7687	-3.0729	-2.975	-2.8333	-3.25	-2.8396	-2.625	-2.95	-2.8042	211.114	200.116	173.140	180.964	44.281	120.826	143.568	-113.380	-40.535	216.349	-99.191	162.932	137.047	215.715	-105.001	-78.613	0.0018561	0.0067452	0.00078187	685.49	1.4221e-05	2.4019e-05	716.91	232.41	2.2266e-05	4.8063e-05	282.03	107.86	89.248	41.426	1.4095e-05	51.903	0.015983	0.014476	0.0037959	3033.4	0.00017599	0.00015664	1238.9	428.78	0.00017448	0.0001535	586.61	219.67	197.62	77.612	0.00014508	107.75	-31.821	-21.851	-42.842	-125.611	-58.557	34.803	-123.419	-117.815	41.610	42.967	-119.063	-115.523	-112.753	-108.265	-113.713	-113.151	-8191	255	
1950.595	1	1	0	0	0.075435	0.16554	0.14094	0.29802	0.20634	0.25301	0.26491	0.068298	0.081962	0.2713	0.16477	0.11608	0.27251	0.18794	0.14934	0.23976	-2.6937	-2.9146	-2.7938	-3.2104	-2.9667	-2.8083	-3.1542	-2.7771	-2.825	-3.1542	-2.8375	-3.175	-2.7417	-2.7313	-3.1104	-2.8042	121.386	-55.543	12.189	220.171	-55.003	-72.203	131.323	185.609	169.884	79.068	146.396	112.893	169.751	-100.801	51.602	124.096	0.0010781	0.0047126	0.00059082	672.84	3.6536e-05	4.4659e-05	712.8	232.6	5.819e-05	5.6861e-05	276.95	106.73	89.098	41.229	6.3206e-05	51.182	0.015801	0.014178	0.0038629	3324.7	0.00017265	0.00015589	1243.1	443.23	0.00016479	0.00014395	575.36	221.16	183.74	73.744	0.00013924	106.22	132.253	-16.437	121.808	-123.588	43.349	36.016	-123.918	-117.633	-8.903	31.577	-120.406	-115.612	-112.754	-108.253	213.026	-112.777	-8191	255	
1950.713	1	1	0	0	0.14899	0.10486	0.43876	0.086154	0.33029	0.26489	0.18064	0.15081	0.064206	0.18208	0.37942	0.091108	0.20097	0.080433	0.21279	0.22584	-2.4125	-2.9604	-2.5771	-3.025	-2.825	-2.7708	-3.1271	-2.975	-2.7938	-2.8729	-2.6833	-3.1729	-2.9521	-2.5729	-3.0812	-2.7938	109.166	-75.689	204.416	135.177	148.559	-14.853	104.919	29.188	84.627	156.661	141.209	207.339	-82.955	-107.897	-112.086	-125.851	0.0017047	0.0021594	0.0021178	697.8	6.4029e-05	2.5953e-05	714.03	233.59	3.5426e-05	5.698e-05	276.17	108.05	88.031	41.156	3.5172e-05	52.208	0.013993	0.012976	0.0038226	3341.7	0.00015717	0.00014896	1276	448.92	0.00015613	0.00013954	596.35	222.14	176.1	71.865	0.00014451	102.64	114.539	64.703	161.891	-123.468	44.621	79.569	-124.453	-116.640	-23.797	28.461	-120.359	-115.212	-112.118	-108.661	-125.148	-111.546	-8191	255	
1950.810	1	1	0	0	0.39973	0.15527	0.079977	0.10973	0.12094	0.24602	0.096152	0.20992	0.1258	0.21192	0.21183	0.024754	0.13984	0.15205	0.16807	0.20851	-2.1479	-3.1146	-2.5563	-2.7542	-2.8646	-2.4917	-3.1354	-3.1125	-2.825	-3.0917	-2.9	-2.7938	-3.0604	-2.8125	-2.9	-2.9292	44.955	-17.326	83.072	222.848	14.233	194.995	41.902	203.989	-35.927	125.147	159.763	92.511	204.792	-118.783	0.798	128.710	0.0013561	0.001122	0.0015289	727.49	4.3775e-05	9.3298e-06	707.23	234	4.2082e-05	3.2172e-05	278.22	108.43	88.042	40.937	6.358e-05	51.921	0.012525	0.011765	0.0038128	3113.9	0.00013875	0.00013595	1295.9	430.44	0.00014721	0.00013814	628.09	221.7	177.41	74.295	0.00016815	104.12	83.688	-74.002	164.818	-122.828	-0.852	-42.313	-124.479	-116.457	-62.349	-72.874	-120.354	-115.225	-112.364	-109.007	213.945	-111.680	-8191	255	
1950.906	1	1	0	0	0.12506	0.3547	0.066979	0.12997	0.28242	0.15928	0.29782	0.24212	0.27861	0.16705	0.11919	0.051723	0.1722	0.16042	0.21811	0.27967	-2.2313	-2.9958	-2.6562	-2.825	-2.9021	-2.7062	-3.2583	-3.0021	-2.6042	-3.1083	-2.675	-2.8937	-2.9708	-2.5625	-2.9146	-3.1104	37.528	197.441	90.805	145.008	74.707	173.477	73.843	-75.269	42.756	5.717	73.583	143.713	212.711	-103.867	55.262	177.661	4.2824e-05	0.0042311	0.00048358	716.44	4.22e-05	4.5982e-05	720.67	235.88	3.1907e-05	6.9551e-05	282.65	109.23	88.636	40.941	2.7266e-05	52.029	0.013096	0.012723	0.0042637	3091.9	0.0001391	0.00014333	1353.2	420.77	0.00014383	0.00014382	641.66	215.06	173.63	76.339	0.00017425	100.8	-53.740	123.282	179.405	-121.072	17.405	191.227	-123.878	-116.409	1.362	-129.310	-119.351	-114.609	-112.582	-108.947	98.841	-111.648	-8191	255	
1951.026	1	1	0	0	0.13899	0.19904	0.10586	0.069607	0.1533	0.14701	0.16381	0.074343	0.16832	0.036852	0.13191	0.10699	0.12423	0.10161	0.13411	0.23007	-2.0479	-3.0625	-2.8167	-2.9104	-2.8688	-2.7313	-3.1	-3.0792	-2.5833	-2.9313	-2.8667	-2.8312	-3.2583	-2.6167	-2.8187	-3.0167	217.479	151.933	60.253	-36.844	-104.098	-78.564	124.764	115.767	-130.088	206.653	197.438	149.741	-82.073	110.968	56.280	138.395	0.00078712	0.010841	0.00068922	724.72	3.2956e-05	5.1845e-05	709.27	233.51	1.6656e-05	8.6962e-05	283.01	106.8	87.548	40.719	5.232e-05	51.095	0.012998	0.014153	0.0044948	3081.7	0.00014277	0.00016239	1383.6	416.95	0.00014575	0.00016186	639.09	211.06	173.13	79.787	0.00017403	99.651	50.344	144.321	-38.430	-121.211	109.609	210.995	-123.209	-117.041	70.850	-133.896	-119.073	-115.110	-112.616	-108.972	20.649	-111.498	-8191	255	
1951.123	1	1	0	0	0.25228	0.15285	0.18738	0.19522	0.21851	0.14634	0.12611	0.23364	0.06562	0.059662	0.16238	0.084626	0.34491	0.11321	0.11794	0.089748	-2.1354	-3.1042	-2.9271	-2.5042	-3.1667	-2.7458	-2.9292	-3.1854	-2.3667	-3.0896	-3.0229	-2.7542	-3.0125	-2.7667	-2.9292	-3.2458	-18.634	26.975	100.284	211.130	126.699	75.709	200.300	162.842	130.029	198.267	13.788	158.918	223.952	150.777	58.511	133.974	0.0011761	0.0026905	0.0010509	729.42	2.5041e-05	3.9716e-05	708.57	230.99	6.9472e-05	4.2517e-05	281.96	107.2	86.39	40.656	4.4841e-05	51.287	0.013257	0.015944	0.0044442	3096	0.00014846	0.00018086	1376.6	417.13	0.00015374	0.00018136	631.96	212.31	179.6	83.359	0.00016942	99.093	-70.953	157.459	-5.405	-122.703	-119.942	220.496	-123.593	-117.106	206.258	161.763	-119.006	-115.299	-113.277	-108.346	18.079	-111.655	-8191	255	
1951.194	1	1	0	0	0.18029	0.082976	0.16604	0.2291	0.10407	0.2195	0.084419	0.13298	0.13098	0.042682	0.39583	0.11193	0.15183	0.084625	0.26443	0.02196	-2.0854	-2.8354	-2.8417	-2.7146	-3.0771	-2.9833	-2.8167	-3.1521	-2.5521	-3.0396	-2.925	-2.8375	-3.2771	-3.0083	-2.8063	-3.3688	221.790	148.408	131.491	222.910	93.381	-43.663	-123.523	174.595	77.802	-73.984	133.875	-34.621	-120.389	-103.380	201.516	66.185	0.0023103	0.0014615	0.0023679	707.28	4.4098e-05	1.3342e-05	706.12	232.75	9.0852e-05	1.1383e-05	282.03	106.37	85.551	41.297	1.464e-05	51.177	0.014043	0.01709	0.0042778	3094	0.00016239	0.00019113	1360.9	418.55	0.00016946	0.0001915	618.83	211.43	189.34	83.034	0.0001586	96.474	-15.204	47.576	-11.364	-122.664	-96.492	-82.804	-123.397	-116.561	205.892	104.963	-119.011	-115.330	-113.192	-107.862	76.244	-112.409	-8191	255	
1951.290	1	1	0	0	0.1568	0.29337	0.18047	0.24079	0.25792	0.20105	0.14851	0.093788	0.14235	0.17235	0.35368	0.21077	0.10995	0.21997	0.30303	0.16516	-2.5792	-2.9167	-2.8604	-2.5979	-3.0771	-3.0396	-2.7354	-3.1396	-2.8417	-2.925	-2.9083	-2.5312	-3.3438	-2.925	-2.6437	-3.2875	-133.318	-72.384	-72.275	152.793	197.368	-122.847	86.358	152.930	-6.122	-33.630	181.032	178.817	222.024	148.923	99.469	99.586	0.0039953	0.0041911	0.0016872	713.23	7.2602e-05	8.7645e-05	712.59	231.67	6.7868e-05	7.2677e-05	282.16	107.34	86.792	41.426	2.5093e-05	51.453	0.014541	0.01599	0.0038204	2887.8	0.00016557	0.00017254	1304.4	407.01	0.00017512	0.00017763	599.9	209.66	196.96	80.212	0.00015415	97.419	-39.830	1.616	17.344	-123.297	209.085	26.953	-123.349	-116.885	208.531	64.991	-119.028	-115.551	-113.506	-107.572	108.021	-112.287	-8191	255	
1951.409	1	1	0	0	0.31123	0.24211	0.21666	0.085369	0.12301	0.2548	0.22292	0.20386	0.20377	0.17772	0.27335	0.20552	0.28657	0.40013	0.26524	0.21521	-2.4875	-2.9396	-3	-2.5292	-3.2125	-3.0542	-2.7062	-3.0042	-2.9229	-2.8771	-2.925	-2.7396	-3.0812	-2.9688	-2.5396	-3.3042	-69.043	-27.529	-93.923	147.907	29.956	-46.069	-30.117	195.849	44.741	206.841	155.502	-133.242	180.090	-111.473	167.000	159.930	0.0019498	0.0049861	0.00064109	687.12	2.1796e-05	5.7987e-05	711.84	233.15	4.3275e-05	3.1828e-05	280.44	105.05	87.441	41.112	4.5878e-05	50.467	0.015461	0.015201	0.0036897	2950.2	0.00017641	0.00016172	1282.5	415.76	0.00018067	0.00016706	585.25	214.51	201.54	77.662	0.00015327	101.98	-20.858	-28.550	3.320	-124.308	188.655	37.588	-123.383	-117.427	200.601	15.998	-120.208	-116.192	-112.561	-108.238	35.121	-112.994	-8191	255	
1951.505	1	1	0	0	0.14755	0.12068	0.26598	0.42169	0.19102	0.30069	0.34001	0.21538	0.046515	0.10064	0.27521	0.16462	0.27691	0.31687	0.12355	0.18203	-2.3542	-2.55	-2.9854	-2.8563	-2.9479	-2.9521	-2.8521	-3.175	-2.7979	-2.8208	-3.3604	-2.8625	-3.1229	-3.0396	-2.4188	-3.1729	-117.587	20.217	136.770	109.586	159.511	62.780	2.245	158.789	-76.689	-82.430	173.379	223.292	-129.295	-116.634	-95.491	79.305	0.00072626	0.0073317	0.00069583	685.82	2.997e-05	2.44e-05	710.84	231.2	8.7206e-05	2.3613e-05	277.69	105.12	88.538	40.509	1.3532e-05	50.352	0.015966	0.014775	0.0036711	3152.7	0.00017721	0.00015267	1251.1	426.69	0.0001704	0.00015352	562.52	217.12	191.47	73.614	0.00014098	102.97	108.467	-26.499	-33.705	-123.396	70.029	48.186	-123.676	-117.647	17.526	8.012	-119.913	-115.997	-112.389	-108.272	-112.110	-112.802	-8191	255	
1951.602	1	1	0	0	0.26067	0.067884	0.063	0.13287	0.12056	0.21184	0.21401	0.27548	0.089113	0.072734	0.27159	0.20671	0.25119	0.41023	0.10301	0.13475	-2.5271	-2.7771	-3.1292	-2.8167	-2.925	-3.0333	-2.9021	-3.1333	-2.9	-2.75	-3.1083	-2.9125	-2.9646	-3.2604	-2.4958	-3.1104	-72.560	133.027	16.143	-50.560	136.761	44.196	-48.995	183.556	55.902	-23.214	135.026	-118.247	-119.379	203.863	-111.473	51.324	0.0021787	0.0044964	0.0016599	699.27	2.5687e-05	3.7221e-05	700.18	230.67	9.3001e-05	2.6143e-05	277.35	105.97	87.986	40.648	6.6614e-05	51.169	0.014372	0.013538	0.0034933	3219.9	0.00016342	0.00014282	1247.3	438.06	0.00015747	0.00014685	568.84	221.82	184.09	72.213	0.00014678	106.17	100.605	-46.884	215.187	-123.050	61.138	-12.807	-123.837	-117.241	0.328	71.629	-119.869	-116.048	-112.230	-108.407	-132.696	-112.270	-8191	255	
1951.698	1	1	0	0	0.072156	0.10267	0.42038	0.11958	0.058867	0.28126	0.06309	0.19167	0.10675	0.20819	0.27149	0.17765	0.30848	0.14885	0.12455	0.28136	-2.6479	-2.6667	-3.2375	-2.9688	-2.8146	-3.0208	-2.7875	-3.2313	-3.0187	-2.5396	-3.0354	-2.9021	-2.6667	-3.2292	-2.7625	-2.9458	108.875	211.422	3.301	180.364	114.730	134.520	-56.907	172.734	11.800	-106.944	-105.377	-98.330	164.853	-117.026	9.389	176.941	0.0017764	0.0038088	0.0025543	690.87	2.0546e-05	2.8164e-05	713.57	234.23	8.1817e-05	3.7456e-05	279.32	108.12	86.78	40.655	8.6922e-05	51.525	0.013536	0.013379	0.0037833	3361.5	0.00015965	0.00014353	1315.6	452.89	0.00015405	0.00014844	608.11	224.95	181.59	71.905	0.00015849	105.71	95.103	-12.907	133.875	-122.320	75.681	-24.810	-124.063	-116.894	9.677	124.979	-120.442	-114.744	-112.549	-108.436	213.299	-111.705	-8191	255	
1951.818	1	1	0	0	0.2833	0.16635	0.11892	0.15319	0.14332	0.087076	0.046783	0.077569	0.16576	0.17725	0.1667	0.16159	0.1003	0.39467	0.13381	0.1762	-2.625	-2.5062	-2.9938	-2.6021	-2.6083	-2.9083	-2.9229	-3.1625	-2.9708	-2.5708	-3.1917	-2.8042	-2.6625	-3.1667	-2.6521	-2.9188	195.163	207.027	210.726	97.476	155.410	-71.054	94.078	202.234	-51.715	-31.975	-28.929	119.981	-129.740	215.547	-33.095	193.666	0.00064322	0.0032221	0.0020813	724.07	4.7153e-06	1.0234e-05	713.78	232.63	5.3486e-05	3.3368e-05	277.13	106.08	87.029	40.01	1.669e-05	50.558	0.012928	0.013055	0.0041264	3259.5	0.00015465	0.00014338	1374.5	447.01	0.00015264	0.0001526	651.43	223.04	183.93	74.135	0.00017821	105.3	-1.248	-25.912	143.224	-120.889	-26.966	-23.578	-123.980	-116.728	-47.920	-41.103	-120.365	-114.919	-112.862	-108.557	-85.406	-111.458	-8191	255	
1951.890	1	1	0	0	0.21263	0.17034	0.26523	0.18724	0.0913	0.13591	0.20828	0.30347	0.26693	0.11443	0.21354	0.17865	0.12781	0.057106	0.19266	0.28218	-2.4813	-2.4875	-3.0292	-2.8396	-2.6437	-3.1063	-2.8312	-2.7854	-3.1375	-2.6771	-3.0875	-2.8812	-2.6771	-3.1688	-2.6833	-2.8604	127.964	-61.521	-132.715	-109.101	-114.473	147.860	207.156	-84.421	163.515	148.767	205.746	160.802	-134.388	188.116	66.662	216.242	0.0013406	0.0011191	0.0015299	733.64	7.7977e-06	7.8438e-05	715.35	231.73	1.8312e-06	4.4501e-05	277.67	105.4	85.807	39.381	2.9604e-05	50.299	0.013074	0.013929	0.0045155	3156	0.00015248	0.00015105	1400.9	433.03	0.00014692	0.00016041	661.64	213.88	180.47	76.854	0.0001823	102.24	110.062	165.552	139.862	-123.015	-0.032	220.904	-123.743	-117.092	150.616	202.152	-119.798	-115.042	-112.757	-108.599	40.309	-112.026	-8191	255	
1951.986	1	1	0	0	0.22498	0.092773	0.14353	0.091835	0.19927	0.27183	0.10039	0.14242	0.010499	0.14246	0.21512	0.068807	0.15795	0.082045	0.18543	0.17957	-2.9021	-2.8146	-2.8937	-2.875	-2.6417	-3.1792	-2.9375	-2.7583	-3.1396	-2.8396	-2.7021	-3.0417	-2.7896	-2.9562	-2.7021	-2.7313	-49.633	-75.399	170.779	209.897	30.561	-112.428	122.991	-111.154	194.846	-0.261	-95.863	82.865	-90.272	-105.816	72.441	196.249	0.0020536	0.0083691	0.00057184	707.64	1.3428e-05	6.0648e-05	712.45	229.48	5.0013e-05	5.0131e-05	276.56	104.92	85.933	39.738	5.6036e-05	49.649	0.012893	0.015065	0.0045637	3028.6	0.00014963	0.0001647	1383.7	422.84	0.00014442	0.00017276	650.33	209.14	179.16	80.474	0.00017488	100.92	80.644	173.354	-25.962	-122.480	25.453	-123.574	-123.464	-117.004	-25.196	-105.455	-118.885	-115.527	-112.335	-108.674	28.729	-111.830	-8191	255	
1952.107	1	1	0	0	0.18157	0.16654	0.17536	0.10921	0.17059	0.089765	0.17361	0.13746	0.21439	0.18681	0.19051	0.27216	0.098897	0.10259	0.2519	0.13442	-2.6333	-2.7396	-2.8292	-3.1188	-2.7875	-2.9521	-2.9708	-2.7375	-3.0396	-2.7375	-2.9562	-3.1083	-2.6917	-3.2188	-2.8854	-2.5625	-125.132	-49.482	-128.618	64.360	105.888	160.559	-88.946	104.227	-2.798	-71.861	-26.948	225.159	52.633	-44.985	60.201	58.021	0.00034102	0.0054294	0.0024331	723.74	1.1214e-05	3.1013e-05	710.94	231.51	5.9867e-05	2.8149e-05	278.54	105.49	85.574	39.78	7.5111e-05	50.836	0.013083	0.016483	0.004452	2995.7	0.00015365	0.00018001	1352.7	421.01	0.00015025	0.0001834	631.77	206.59	184.44	83.228	0.00016695	100.77	149.961	154.101	-20.058	-122.077	-82.303	152.760	-123.278	-116.561	182.114	111.129	-118.927	-115.145	-112.907	-108.273	27.237	-111.848	-8191	255	
1952.203	1	1	0	0	0.36285	0.27831	0.10872	0.13062	0.20266	0.19656	0.25832	0.15571	0.21068	0.020785	0.17424	0.17281	0.33537	0.25298	0.050707	0.24829	-2.6229	-2.9583	-2.9104	-3.0521	-2.4938	-2.9875	-2.9833	-2.4958	-3.075	-2.9792	-2.8271	-3.1	-2.5708	-3.2146	-3.1417	-2.5292	42.420	46.754	32.549	68.701	-100.644	187.223	131.313	-92.318	-86.537	58.633	130.034	-131.160	217.267	124.510	224.239	209.055	0.0038131	0.001467	0.0012277	725.31	6.0706e-05	6.5054e-05	717.64	228.6	9.5952e-05	0.00010821	280.45	104.77	84.242	40.095	4.0244e-05	49.329	0.014142	0.01735	0.0043587	3005.5	0.00017037	0.00019216	1344.4	423.76	0.00016995	0.00019087	629.56	206.9	194.34	83.01	0.00015859	98.336	-31.256	-61.070	-18.783	-122.254	-127.359	44.949	-123.803	-116.944	162.685	46.321	-118.727	-115.296	-112.664	-108.583	44.985	-112.176	-8191	255	
1952.297	1	1	0	0	0.098253	0.49531	0.19705	0.057276	0.063756	0.077154	0.36758	0.26801	0.11754	0.099763	0.16983	0.1276	0.048904	0.21559	0.29117	0.18621	-2.4271	-2.6208	-2.625	-3.1479	-2.7812	-2.8833	-3.0521	-2.7375	-3.0833	-2.6792	-2.6146	-3.2812	-2.7687	-2.7687	-2.9688	-2.55	3.406	-44.593	222.605	144.493	-119.153	-86.895	207.520	-134.095	-81.169	-1.861	13.388	-18.174	149.470	-110.249	-65.494	175.537	0.0039062	0.0030634	0.0005745	693.09	6.7839e-05	4.524e-05	704.58	226.78	5.5034e-05	0.00010434	274.04	102.62	84.491	39.368	6.1957e-05	48.721	0.015068	0.016064	0.0039895	2839.8	0.00017169	0.00017275	1271.7	409.61	0.00017474	0.00017229	600.39	202.94	196.56	78.462	0.00014663	96.428	-31.788	-0.281	13.681	-123.295	220.730	19.484	-123.653	-116.972	181.622	61.652	-119.312	-115.608	-112.917	-107.870	38.676	-112.710	-8191	255	
1952.395	1	1	0	0	0.25036	0.16393	0.12416	0.082849	0.20872	0.37074	0.18611	0.28647	0.16116	0.17559	0.07319	0.20669	0.025174	0.28899	0.11529	0.26115	-2.6437	-2.9	-2.6437	-3.0375	-2.9792	-2.7292	-3.05	-2.55	-3.0167	-3.0771	-2.6083	-3.1125	-2.6958	-2.9729	-3.2	-2.5771	153.189	-6.209	-124.688	-35.930	186.053	-60.758	193.109	123.770	142.091	-122.553	173.404	197.114	26.989	202.538	-117.120	149.126	0.0012464	0.0046914	0.0013824	672.63	9.8983e-06	3.7757e-05	700.94	226.01	5.3939e-05	2.7601e-05	274.33	102.37	85.565	39.569	1.4e-05	48.454	0.015151	0.014141	0.0036057	2746.6	0.00016155	0.0001457	1176.2	392.21	0.00015545	0.00013839	540.73	194.79	181.67	71.449	0.00012687	95.219	-11.964	-2.742	-56.571	-124.207	-80.071	9.770	-123.910	-117.294	12.323	-9.338	-119.557	-115.861	-112.618	-107.865	19.301	-112.968	-8191	255	
1952.490	1	1	0	0	0.098312	0.0090925	0.31891	0.071173	0.13478	0.33398	0.061617	0.21119	0.035252	0.082251	0.055711	0.23626	0.16236	0.2711	0.46892	0.22038	-2.475	-2.8625	-2.5521	-3.1083	-2.8229	-2.7729	-3.2375	-2.8667	-3.0625	-2.9458	-2.5687	-3.2042	-3.0479	-2.775	-3.1813	-2.9437	-97.318	194.502	-29.125	194.764	-48.973	-114.845	209.182	217.895	-113.395	-35.925	-90.988	215.185	129.889	106.558	-49.602	-45.912	0.00062196	0.0011382	0.00088883	697.08	2.8625e-05	3.0321e-05	712.13	227.9	4.6403e-05	2.4991e-05	274.55	103.06	86.407	39.639	3.3417e-05	49.321	0.014002	0.012606	0.0033591	2869.8	0.000155	0.0001377	1163.4	404.94	0.00014954	0.00012928	527.02	198.34	170.64	68.007	0.00011625	94.291	-0.277	19.159	-66.793	-123.307	6.774	27.819	-123.581	-117.658	-19.257	17.734	-119.691	-116.326	-112.234	-108.320	-66.086	-112.307	-8191	255	
1952.586	1	1	0	0	0.18084	0.058549	0.047052	0.27873	0.091786	0.17783	0.087847	0.39381	0.089365	0.10065	0.14173	0.33875	0.25342	0.11929	0.090608	0.18958	-2.425	-2.8937	-2.6083	-2.9646	-2.8417	-2.7687	-3.3958	-2.7479	-2.9333	-3.1188	-2.8083	-3.0354	-2.9271	-2.5708	-3.1896	-2.7417	208.280	-129.008	-96.548	91.165	-43.328	28.490	134.789	-102.831	189.578	48.852	139.130	190.665	201.538	-122.982	112.007	212.434	0.00076211	0.0037872	0.00074077	687.55	3.0603e-05	5.0005e-05	705.87	228.74	4.4842e-05	5.8303e-05	274.31	104.29	85.03	39.463	6.7365e-05	49.18	0.012115	0.01094	0.0030511	2795.6	0.00013156	0.00012121	1131.6	396.22	0.00012792	0.0001135	513.39	194.8	158.29	64.622	0.00011398	91.497	185.195	-17.103	200.918	-123.747	36.160	29.007	-124.212	-117.547	14.061	71.014	-120.038	-115.229	-112.160	-108.081	210.384	-111.754	-8191	255	
1952.706	1	1	0	0	0.12572	0.1019	0.042367	0.16849	0.14965	0.17807	0.15236	0.12221	0.15123	0.22575	0.17186	0.10427	0.17346	0.1281	0.17942	0.095296	-2.3708	-3.1646	-2.6937	-3.0438	-2.8604	-2.6312	-3.0833	-2.9188	-2.5646	-3.0062	-2.6854	-2.9854	-2.9271	-2.8146	-3.1792	-2.8417	134.817	98.378	-78.235	120.261	-64.102	-63.599	188.175	171.700	194.755	-30.692	45.369	210.929	219.925	212.744	122.501	-70.080	0.0011003	0.00074183	0.0014139	710.2	3.0644e-05	1.9921e-05	705.65	227.89	2.5219e-05	2.0691e-05	271.29	103.82	83.897	38.97	8.7542e-05	48.731	0.01061	0.009848	0.0030146	2686.2	0.00011563	0.00011123	1143.6	386.52	0.00011752	0.00010712	523.27	190.7	152.58	63.405	0.00012329	89.257	94.376	-30.394	131.585	-121.946	5.572	-46.832	-124.536	-117.059	-67.703	113.584	-119.843	-115.369	-112.466	-108.685	212.781	-111.153	-8191	255	
1952.803	1	1	0	0	0.0088726	0.30704	0.044237	0.093113	0.18473	0.14086	0.22542	0.24978	0.16285	0.12145	0.08682	0.21358	0.16156	0.20504	0.17954	0.1628	-2.15	-3.1146	-2.4958	-2.9104	-2.75	-2.7354	-3.1083	-2.7521	-2.75	-3.1333	-2.6354	-2.8417	-3.0854	-2.6688	-2.8812	-3.0271	125.997	199.771	-2.786	193.014	139.688	-30.305	152.297	171.336	-64.855	18.226	-102.498	-113.397	-126.655	183.936	168.685	161.221	0.00092338	0.0049052	0.0015931	716.63	4.8359e-05	1.0299e-05	705.27	227.69	1.2942e-05	1.3732e-05	271.92	102.31	84.692	38.596	3.4606e-05	48.205	0.010287	0.009799	0.0032685	2629.8	0.00011335	0.00011149	1184.1	377.15	0.00011495	0.00010993	544.8	186.52	151.14	64.203	0.000133	86.856	74.924	218.802	142.052	-122.047	27.146	100.454	-124.223	-117.212	-8.631	-101.298	-119.450	-114.841	-112.662	-108.291	195.973	-111.915	-8191	255	
1952.899	1	1	0	0	0.20882	0.19323	0.26314	0.21763	0.18976	0.11896	0.20782	0.33922	0.30574	0.10164	0.1922	0.078427	0.1463	0.071717	0.14995	0.092137	-2.1792	-2.8812	-2.7333	-2.9604	-2.9292	-2.6937	-3.1146	-2.7583	-2.4854	-3.0542	-2.9417	-2.6896	-3.0938	-2.7271	-2.95	-2.8854	52.937	-58.345	69.152	164.437	-3.027	217.103	182.052	89.976	41.192	94.468	-125.991	-123.141	183.438	130.779	-94.484	191.518	0.0014866	0.0043498	0.00066804	730.76	2.5799e-05	2.9286e-05	710.36	228.07	2.2466e-05	7.5781e-05	275.55	103.22	84.383	38.608	1.2394e-05	48.478	0.010084	0.010334	0.0034347	2544.3	0.00011044	0.00011887	1217.4	369.04	0.00011262	0.00011798	550.19	182.54	149.67	66.843	0.00013771	86.171	78.405	142.031	-130.187	-123.034	67.209	219.681	-123.769	-117.138	-4.203	208.973	-119.287	-115.060	-112.870	-108.592	98.999	-111.877	-8191	255	
1952.995	1	1	0	0	0.13906	0.20224	0.14691	0.084894	0.096636	0.11309	0.13034	0.23725	0.037399	0.085147	0.16075	0.044772	0.24392	0.11016	0.26054	0.055488	-2.3167	-3.1646	-2.7333	-2.6833	-3.1937	-2.7167	-3.0354	-3.25	-2.5146	-3.05	-2.9146	-2.8292	-3.1896	-2.9854	-2.9104	-3.1125	178.926	-41.090	191.443	77.031	117.473	-26.828	180.464	168.387	116.944	-84.917	-108.540	45.437	221.857	-2.774	-12.934	176.794	0.00068238	0.0047169	0.0010169	709.21	7.7395e-06	3.6793e-05	714.03	227.45	2.4184e-05	6.5889e-05	275.89	102.72	83.111	38.867	2.9527e-05	47.605	0.010319	0.011892	0.0035959	2597.8	0.00011674	0.00013909	1249.1	375.17	0.00012255	0.00014165	566.91	188.77	157.35	72.683	0.00014647	88.733	51.107	161.357	-66.696	-123.509	121.255	201.179	-123.316	-116.743	199.961	212.180	-119.112	-115.405	-112.806	-109.053	60.348	-112.164	-8191	255	
1953.091	1	1	0	0	0.337	0.12508	0.091792	0.13391	0.19539	0.14904	0.055051	0.15605	0.015613	0.22874	0.1151	0.21272	0.15949	0.32534	0.057337	0.10515	-2.1604	-2.9292	-2.9125	-2.6833	-2.8563	-2.7146	-3.0521	-3.3937	-2.7188	-2.9958	-3.0604	-2.7208	-3.0062	-2.7271	-2.7146	-3.1937	-75.307	118.406	-58.659	118.019	190.696	208.894	57.510	208.948	-99.433	129.815	211.293	189.476	208.471	220.484	-9.376	70.774	0.0022024	0.0049294	0.0022471	700.82	2.8011e-05	2.0131e-05	701.8	225.48	5.0605e-05	4.8108e-05	271.11	102.31	83.222	39.036	3.5654e-05	48.407	0.011596	0.014258	0.0037911	2775.8	0.00013387	0.0001631	1274.2	386.38	0.00013911	0.00016213	569.67	191.65	166.83	75.802	0.00014329	88.671	-46.998	141.071	-41.539	-122.271	-99.186	156.096	-123.367	-117.204	195.785	204.224	-119.767	-115.177	-113.391	-108.479	36.998	-111.701	-8191	255	
1953.187	1	1	0	0	0.18763	0.38669	0.21369	0.079631	0.15536	0.32845	0.1239	0.26687	0.10204	0.088574	0.16949	0.17317	0.052661	0.19216	0.031033	0.1394	-2.2062	-2.75	-2.975	-2.6688	-3.0333	-2.7542	-2.8417	-3.2604	-2.7667	-3.1875	-3.0917	-2.7396	-3.1354	-2.9854	-2.6937	-3.0542	-26.559	-24.297	143.273	32.492	179.461	167.591	215.418	-107.420	182.382	-100.630	-24.037	122.381	208.863	171.603	127.117	80.936	0.0030106	0.0014472	0.0018556	713.29	3.6199e-05	3.8885e-05	704.48	225.78	8.5867e-05	3.5521e-05	273.63	102.46	83.94	39.582	2.8327e-05	48.204	0.012456	0.014681	0.0035667	2718.3	0.00014492	0.00016265	1250.2	384.58	0.00015256	0.00016547	566.57	193.98	179.87	76.566	0.00014497	90.184	-42.337	12.028	-15.227	-122.951	203.436	29.482	-123.301	-117.189	187.207	60.306	-119.859	-115.208	-113.351	-107.906	25.290	-112.209	-8191	255	
1953.283	1	1	0	0	0.17781	0.11331	0.023234	0.18425	0.15474	0.14336	0.049195	0.17953	0.11117	0.24642	0.27134	0.29138	0.259	0.10013	0.12315	0.24265	-2.2958	-3.0479	-2.9729	-2.5521	-3.0854	-2.8396	-2.7104	-3.1937	-2.5646	-2.8271	-3.3104	-2.6312	-3.2083	-2.8417	-2.6063	-3.0646	-69.709	160.975	-103.836	-24.467	120.744	-129.330	199.334	165.146	41.685	221.538	180.396	185.411	-93.226	208.401	-102.026	220.484	0.0011037	0.0049284	0.00079927	694.38	4.5735e-05	3.9086e-05	710.51	226.86	4.5348e-05	3.2667e-05	276.29	102.86	84.967	39.43	4.0605e-05	49.031	0.014012	0.014723	0.0035418	2755.3	0.00015967	0.00015672	1245	390.58	0.00016395	0.0001587	557.7	197.66	186.87	73.928	0.00013891	92.249	-11.194	-39.116	-77.510	-124.430	-130.156	29.609	-123.466	-117.855	146.072	58.709	-119.786	-116.199	-112.808	-108.210	12.947	-112.222	-8191	255	
1953.379	1	1	0	0	0.22511	0.21242	0.11501	0.1467	0.15203	0.20117	0.13836	0.14361	0.18565	0.33793	0.15482	0.078728	0.15754	0.1237	0.32847	0.053553	-2.35	-2.8833	-2.9437	-2.4375	-2.9208	-2.9	-2.6688	-3.1125	-2.6979	-2.8833	-3.0979	-2.7646	-2.9854	-3.075	-2.8021	-3.1042	-118.934	209.588	-83.962	-120.511	71.866	29.720	156.262	189.245	157.172	-62.822	220.679	202.607	31.123	-97.063	187.445	-104.842	0.0017551	0.0063828	0.0014934	703.14	2.9029e-05	7.5236e-05	716.43	228.85	1.6027e-05	4.4404e-05	275.93	104.27	86.269	39.821	4.0142e-05	48.953	0.014364	0.013673	0.0033709	2827.4	0.00016408	0.00014573	1230.5	404.85	0.00016559	0.00014969	550.54	205.76	187.94	72.092	0.00013473	96.267	-3.783	-28.100	-49.548	-124.044	40.923	2.942	-123.836	-117.700	31.085	69.448	-119.664	-115.826	-112.428	-107.889	-18.175	-112.785	-8191	255	
#DATA ENDS
