BOXY.EXE: ISS Imagent and Oximeter Data Acquisition Program Version 0.80
Ascii Record File

#ACQ INFORMATION
2  Detector Channels 
16  External MUX Channels 
1  Auxiliary Channels 
5000  Waveform (CCF) Frequency (Hz)
1  Waveforms Skipped 
30  Waveforms Averaged 
1  Cycles Averaged 
16  Acquisitions per Waveform 
10.0806  Updata Rate (Hz) 

#FILE INFORMATION
TRUE -- External MUX Channel results are PARSED.
FALSE -- AC DC and Phase are NOT grouped.
TRUE -- Companion Program Settings File CREATED.
FALSE -- AC data not excluded
FALSE -- DC data not excluded
FALSE -- Phase data not excluded
FALSE -- Auxillary Chn. data not excluded
Tab delimiters

#CALIBRATION STATE
TRUE -- Waveform Calibration Values APPLIED.


#AUX CALIBRATION VALUES
Val Type	aux-1	

Term	1.0000e+00	
Factor	0.0000e+00	


#WF CALIBRATION VALUES
A = Detector Channel
Val Type	A-AC1	A-AC2	A-AC3	A-AC4	A-AC5	A-AC6	A-AC7	A-AC8	A-AC9	A-AC10	A-AC11	A-AC12	A-AC13	A-AC14	A-AC15	A-AC16	A-DC1	A-DC2	A-DC3	A-DC4	A-DC5	A-DC6	A-DC7	A-DC8	A-DC9	A-DC10	A-DC11	A-DC12	A-DC13	A-DC14	A-DC15	A-DC16	A-Ph1	A-Ph2	A-Ph3	A-Ph4	A-Ph5	A-Ph6	A-Ph7	A-Ph8	A-Ph9	A-Ph10	A-Ph11	A-Ph12	A-Ph13	A-Ph14	A-Ph15	A-Ph16	

Term	0.00000e+00	0.00000e+00	0.00000e+00	0.00000e+00	0.00000e+00	0.00000e+00	0.00000e+00	0.00000e+00	0.00000e+00	0.00000e+00	0.00000e+00	0.00000e+00	0.00000e+00	0.00000e+00	0.00000e+00	0.00000e+00	0.00000e+00	0.00000e+00	0.00000e+00	0.00000e+00	0.00000e+00	0.00000e+00	0.00000e+00	0.00000e+00	0.00000e+00	0.00000e+00	0.00000e+00	0.00000e+00	0.00000e+00	0.00000e+00	0.00000e+00	0.00000e+00	0.00000e+00	0.00000e+00	0.00000e+00	0.00000e+00	0.00000e+00	0.00000e+00	0.00000e+00	0.00000e+00	0.00000e+00	0.00000e+00	0.00000e+00	0.00000e+00	0.00000e+00	0.00000e+00	0.00000e+00	0.00000e+00	
Factor	1.00000e+00	1.00000e+00	1.00000e+00	1.00000e+00	1.00000e+00	1.00000e+00	1.00000e+00	1.00000e+00	1.00000e+00	1.00000e+00	1.00000e+00	1.00000e+00	1.00000e+00	1.00000e+00	1.00000e+00	1.00000e+00	1.00000e+00	1.00000e+00	1.00000e+00	1.00000e+00	1.00000e+00	1.00000e+00	1.00000e+00	1.00000e+00	1.00000e+00	1.00000e+00	1.00000e+00	1.00000e+00	1.00000e+00	1.00000e+00	1.00000e+00	1.00000e+00	X	X	X	X	X	X	X	X	X	X	X	X	X	X	X	X	

B = Detector Channel
Val Type	B-AC1	B-AC2	B-AC3	B-AC4	B-AC5	B-AC6	B-AC7	B-AC8	B-AC9	B-AC10	B-AC11	B-AC12	B-AC13	B-AC14	B-AC15	B-AC16	B-DC1	B-DC2	B-DC3	B-DC4	B-DC5	B-DC6	B-DC7	B-DC8	B-DC9	B-DC10	B-DC11	B-DC12	B-DC13	B-DC14	B-DC15	B-DC16	B-Ph1	B-Ph2	B-Ph3	B-Ph4	B-Ph5	B-Ph6	B-Ph7	B-Ph8	B-Ph9	B-Ph10	B-Ph11	B-Ph12	B-Ph13	B-Ph14	B-Ph15	B-Ph16	

Term	0.00000e+00	0.00000e+00	0.00000e+00	0.00000e+00	0.00000e+00	0.00000e+00	0.00000e+00	0.00000e+00	0.00000e+00	0.00000e+00	0.00000e+00	0.00000e+00	0.00000e+00	0.00000e+00	0.00000e+00	0.00000e+00	0.00000e+00	0.00000e+00	0.00000e+00	0.00000e+00	0.00000e+00	0.00000e+00	0.00000e+00	0.00000e+00	0.00000e+00	0.00000e+00	0.00000e+00	0.00000e+00	0.00000e+00	0.00000e+00	0.00000e+00	0.00000e+00	2.53724e+01	-1.25825e+02	-1.32423e+02	-1.86157e+02	-5.31231e+01	-7.74207e+01	-1.59021e+02	-1.62015e+02	-9.81342e+01	-6.42266e+01	-1.73719e+02	-1.69925e+02	-1.79918e+02	-1.77120e+02	-6.73402e+01	-1.50188e+02	
Factor	4.43643e-05	1.31752e-04	3.84766e-05	6.00296e-01	1.09162e-06	1.23883e-06	1.58776e-01	4.81384e-02	1.60025e-06	1.38813e-06	8.39062e-02	2.75674e-02	2.39658e-02	9.07276e-03	1.49700e-06	1.30833e-02	1.61200e-06	1.67637e-06	4.65165e-07	2.83808e-01	1.83225e-08	1.83332e-08	7.47258e-02	2.41391e-02	1.82575e-08	1.83873e-08	4.04860e-02	1.32768e-02	1.20086e-02	4.53932e-03	1.82600e-08	6.30792e-03	X	X	X	X	X	X	X	X	X	X	X	X	X	X	X	X	



#DISTANCE SETTINGS
A = Detector Channel
A-1	A-2	A-3	A-4	A-5	A-6	A-7	A-8	A-9	A-10	A-11	A-12	A-13	A-14	A-15	A-16	

2.5000e+00	3.0000e+00	2.5000e+00	3.0000e+00	2.0000e+00	3.0000e+00	1.5000e+00	3.0000e+00	3.0000e+00	3.0000e+00	3.0000e+00	3.0000e+00	3.0000e+00	3.0000e+00	1.5000e+00	3.0000e+00	

B = Detector Channel
B-1	B-2	B-3	B-4	B-5	B-6	B-7	B-8	B-9	B-10	B-11	B-12	B-13	B-14	B-15	B-16	

1.0000e+01	1.0000e+01	1.0000e+01	1.4400e+00	1.0000e+01	1.0000e+01	1.5100e+00	1.9400e+00	1.0000e+01	1.0000e+01	1.9900e+00	2.4900e+00	2.4100e+00	2.9000e+00	1.0000e+01	2.9800e+00	




#DATA BEGINS
time	group	step	mark	flag	A-AC1	A-AC2	A-AC3	A-AC4	A-AC5	A-AC6	A-AC7	A-AC8	A-AC9	A-AC10	A-AC11	A-AC12	A-AC13	A-AC14	A-AC15	A-AC16	A-DC1	A-DC2	A-DC3	A-DC4	A-DC5	A-DC6	A-DC7	A-DC8	A-DC9	A-DC10	A-DC11	A-DC12	A-DC13	A-DC14	A-DC15	A-DC16	A-Ph1	A-Ph2	A-Ph3	A-Ph4	A-Ph5	A-Ph6	A-Ph7	A-Ph8	A-Ph9	A-Ph10	A-Ph11	A-Ph12	A-Ph13	A-Ph14	A-Ph15	A-Ph16	B-AC1	B-AC2	B-AC3	B-AC4	B-AC5	B-AC6	B-AC7	B-AC8	B-AC9	B-AC10	B-AC11	B-AC12	B-AC13	B-AC14	B-AC15	B-AC16	B-DC1	B-DC2	B-DC3	B-DC4	B-DC5	B-DC6	B-DC7	B-DC8	B-DC9	B-DC10	B-DC11	B-DC12	B-DC13	B-DC14	B-DC15	B-DC16	B-Ph1	B-Ph2	B-Ph3	B-Ph4	B-Ph5	B-Ph6	B-Ph7	B-Ph8	B-Ph9	B-Ph10	B-Ph11	B-Ph12	B-Ph13	B-Ph14	B-Ph15	B-Ph16	aux-1	digaux	

1390.219	1	1	0	256	0.089622	0.17055	0.18266	0.24649	0.29912	0.4047	0.18707	0.25112	0.37844	0.16682	0.1974	0.2908	0.13845	0.18019	0.073299	0.081849	-2.2125	-2.9437	-2.8167	-2.5542	-2.9938	-2.5917	-2.8083	-3.1354	-2.5438	-2.7313	-2.9562	-2.6646	-2.8292	-2.85	-2.7375	-2.9854	-19.367	-28.433	205.767	232.916	53.150	184.030	-71.599	203.293	179.563	2.001	178.974	150.216	-97.747	68.752	15.539	117.165	0.00054388	0.00051578	0.00035204	1368.8	2.8544e-06	7.4755e-06	1362.9	366.73	7.5059e-06	8.8465e-06	418.75	140.59	122.05	41.883	1.4372e-06	51.71	0.00054624	0.00059602	0.00015131	1373.2	5.9321e-06	6.4459e-06	1378.9	373.34	6.0327e-06	6.4107e-06	426.56	142.9	124.55	43.06	5.846e-06	52.969	-18.922	-90.538	-22.645	-89.178	118.342	-5.249	-89.012	-84.423	-25.104	79.268	-84.812	-80.572	-80.385	-75.547	93.815	-76.191	-8191	255	
1390.315	1	1	0	0	0.24304	0.13905	0.077603	0.087923	0.088107	0.07233	0.1353	0.15369	0.091913	0.25412	0.10135	0.17318	0.15219	0.19077	0.13944	0.35481	-2.0542	-2.8125	-2.8208	-2.5146	-2.8083	-2.6	-2.8958	-3.1917	-2.5583	-2.6333	-2.9396	-2.5375	-3.0375	-2.9813	-2.625	-2.9833	87.635	-47.312	-56.485	-82.858	165.979	220.050	221.276	245.913	-89.056	-96.497	160.578	216.290	133.077	152.241	240.634	200.690	0.00046405	0.00071954	7.1223e-05	1367	1.7148e-06	5.9328e-06	1360.9	367.58	3.3062e-06	5.0966e-06	420.17	140.63	121.23	41.788	4.7393e-06	51.6	0.00056177	0.00057452	0.00014381	1373.6	6.2395e-06	6.2315e-06	1379.4	373.65	6.4248e-06	6.3343e-06	426.67	143.5	124.81	43.068	6.0143e-06	53.111	-27.451	-15.057	76.277	-89.018	216.714	25.996	-88.929	-84.504	34.045	18.838	-84.939	-80.538	-79.899	-75.675	44.463	-76.369	-8191	255	
1390.434	1	1	0	0	0.22851	0.18982	0.013077	0.29007	0.061026	0.11006	0.14123	0.2712	0.19643	0.23749	0.12216	0.15027	0.13435	0.10019	0.13485	0.26952	-2.275	-2.4104	-2.9437	-2.6667	-2.7104	-2.9729	-2.8312	-3.0104	-2.625	-2.8417	-2.9188	-2.6792	-3.0438	-3.0333	-2.4375	-3.1479	71.813	-36.272	247.974	208.239	29.599	12.619	-74.695	163.183	26.421	-33.168	203.239	240.086	-78.558	160.641	22.520	211.395	0.00042175	0.00088741	0.0002755	1363.6	1.8782e-06	5.5218e-06	1364.4	367.18	6.5327e-06	6.8228e-06	417.72	140.24	121.75	41.992	8.0046e-06	51.742	0.00060812	0.00058109	0.00014812	1379.6	6.6495e-06	6.1497e-06	1380.3	374.43	6.5778e-06	6.1281e-06	426.5	143.33	125.08	43.015	5.7478e-06	53.161	-26.692	-11.970	-2.097	-88.767	6.249	66.837	-89.129	-84.621	-52.413	57.807	-84.904	-80.610	-79.971	-75.402	38.379	-76.461	-8191	255	
1390.530	1	1	0	0	0.19853	0.1403	0.11849	0.093864	0.05487	0.36325	0.24886	0.38563	0.3458	0.08884	0.081796	0.30404	0.35083	0.19816	0.16826	0.12453	-2.3917	-2.5375	-2.9271	-2.5042	-2.8688	-2.7812	-2.825	-3.0667	-2.7521	-2.7229	-2.9417	-2.6396	-2.9688	-2.9479	-2.3812	-3.1396	-7.172	-101.834	79.640	-10.097	166.672	179.387	231.771	183.834	-86.209	5.948	182.813	153.992	-95.329	-25.008	-45.871	110.832	0.00050141	0.00067227	0.00013693	1364.9	3.8486e-06	2.5958e-06	1361.3	367.99	4.8683e-06	5.5484e-06	419.16	140.73	121.94	41.875	5.6803e-06	51.776	0.00059559	0.00055267	0.00013964	1382.7	6.4212e-06	5.8684e-06	1376.9	374.9	6.385e-06	5.9067e-06	426.16	143.78	125	42.938	5.6704e-06	53.313	-2.186	7.112	-4.392	-88.913	82.949	49.513	-89.128	-84.373	-47.253	46.384	-84.909	-80.517	-79.966	-75.503	-5.549	-76.134	-8191	255	
1390.626	1	1	0	0	0.31317	0.10273	0.055847	0.10303	0.1223	0.068552	0.043277	0.2399	0.075323	0.17437	0.16069	0.13149	0.099107	0.20224	0.31538	0.076126	-2.3104	-2.5146	-2.8396	-2.6792	-2.8438	-3.1583	-2.7854	-3.0396	-2.9104	-2.6063	-3.1417	-2.8292	-2.7938	-2.9958	-2.7104	-3.0521	158.079	15.807	199.623	35.382	82.595	204.296	231.793	179.644	64.310	149.827	87.123	198.131	246.721	-45.771	162.535	239.025	0.00053468	0.0006736	6.2259e-05	1369.1	3.1339e-06	4.1933e-06	1358.6	367.52	8.8652e-06	1.0211e-05	421.84	140.32	122.26	41.663	7.5465e-06	51.671	0.00056853	0.00054216	0.00014069	1388.3	6.2486e-06	5.7491e-06	1378	375.54	6.2564e-06	5.9633e-06	428.1	144.01	125.02	42.905	6.0171e-06	53.346	-27.756	-28.252	16.970	-88.735	123.142	81.821	-89.249	-84.430	-21.507	48.716	-84.898	-80.486	-79.773	-75.727	81.415	-76.327	-8191	255	
1390.722	1	1	0	0	0.15804	0.2135	0.091277	0.061423	0.20175	0.062437	0.33308	0.18943	0.048148	0.10999	0.21427	0.044573	0.12729	0.16186	0.22475	0.2715	-2.2979	-2.5667	-2.8958	-2.75	-2.6167	-2.9542	-2.6604	-2.9437	-2.8083	-2.5687	-3.1583	-2.6375	-2.6896	-3.0312	-2.4917	-2.9646	149.631	39.151	158.392	-21.548	111.196	-85.903	212.889	227.092	-36.321	228.064	100.886	-15.003	44.626	-73.892	134.959	240.127	0.00050568	0.00033102	0.00013757	1368.3	4.2694e-06	5.2415e-06	1362.1	368.84	3.192e-06	8.0434e-06	420.07	140.73	122.26	41.948	9.7244e-07	51.883	0.00057237	0.00055018	0.00015441	1395.5	6.245e-06	5.7765e-06	1382	376.1	6.1322e-06	5.8964e-06	429.13	144.15	125.01	42.963	6.437e-06	53.502	1.547	-37.728	6.555	-88.943	43.696	80.593	-89.284	-84.506	97.677	97.946	-85.055	-80.554	-80.072	-75.483	16.290	-76.334	-8191	255	
1390.818	1	1	0	0	0.16549	0.18816	0.20137	0.17627	0.26618	0.24915	0.19803	0.13438	0.20177	0.16021	0.063016	0.23902	0.12822	0.20119	0.28982	0.077192	-2.4708	-2.3729	-2.95	-2.6208	-2.4021	-2.9729	-2.9333	-2.975	-2.8937	-2.4562	-3.05	-2.8354	-2.5646	-3.0354	-2.7042	-2.8479	102.233	-27.264	-66.365	-61.163	88.465	205.041	191.868	-36.430	196.224	118.945	180.203	199.227	243.821	-93.608	191.221	77.433	0.00056888	0.00062657	0.00016699	1372.4	3.356e-06	4.9463e-06	1366.2	368.58	3.5326e-06	4.2915e-06	420.61	140.82	122.75	42.086	4.965e-06	51.69	0.00056031	0.00053722	0.0001642	1395	6.1866e-06	5.7812e-06	1385	376.13	6.0179e-06	5.9053e-06	429.73	144.13	125.07	43.059	6.7099e-06	53.436	-9.250	13.108	248.868	-88.970	28.647	54.953	-89.177	-84.354	13.018	51.711	-85.072	-80.728	-80.175	-75.565	56.216	-76.271	-8191	255	
1390.915	1	1	0	0	0.21906	0.1006	0.16844	0.097814	0.14232	0.14385	0.11979	0.22897	0.48983	0.28761	0.26712	0.26641	0.095734	0.12471	0.10321	0.073474	-2.5563	-2.4854	-3.0187	-2.7458	-2.4771	-2.8896	-2.725	-2.9854	-2.9833	-2.4458	-2.95	-2.7167	-2.5917	-2.9771	-2.8187	-2.6562	3.045	98.047	43.168	147.962	227.271	-37.014	-39.386	-56.526	96.678	94.287	195.677	164.942	-15.162	241.490	129.962	215.982	0.00052988	0.00067418	7.8826e-05	1372.4	3.4695e-07	2.4204e-06	1358.2	368.35	4.339e-06	7.7725e-06	421.12	140.67	122	41.915	4.9449e-06	52.062	0.00054236	0.00055162	0.00017095	1391.5	6.107e-06	5.9735e-06	1385.1	375.91	5.8527e-06	6.0889e-06	429.99	143.87	124.85	43.069	6.7008e-06	53.441	2.080	-36.514	-90.097	-89.143	58.092	-29.749	-88.850	-84.424	-54.444	51.216	-84.964	-80.458	-80.168	-75.613	28.265	-76.223	-8191	255	
1391.035	1	1	0	0	0.18875	0.23187	0.092828	0.33522	0.056183	0.056114	0.12278	0.25926	0.28119	0.13809	0.14794	0.1848	0.45036	0.25809	0.13181	0.087488	-2.4583	-2.3333	-2.6937	-2.6417	-2.5292	-3.2042	-2.8771	-2.5292	-2.9396	-2.4854	-3.0125	-2.9583	-2.6729	-3	-2.7083	-2.575	205.635	125.637	227.998	189.092	189.909	169.001	162.872	-90.298	-98.577	155.042	204.479	246.487	211.854	217.664	225.031	-72.354	0.00038064	0.00024714	0.0001552	1365.2	2.4874e-06	3.1945e-06	1363.5	367.74	3.2893e-06	3.945e-06	420.53	140.55	122.08	41.668	5.1302e-07	51.893	0.00053019	0.0005711	0.00016943	1383.8	5.9181e-06	6.2741e-06	1385.2	375.15	5.7822e-06	6.5087e-06	429.14	143.58	124.68	43.103	6.6714e-06	53.326	-8.741	78.039	-54.055	-89.348	65.767	-44.249	-89.077	-84.492	64.717	99.348	-84.903	-80.641	-80.043	-75.445	110.702	-76.192	-8191	255	
1391.131	1	1	0	0	0.41839	0.033219	0.1377	0.18493	0.21016	0.15983	0.29092	0.33844	0.18748	0.15268	0.11451	0.27171	0.13927	0.29861	0.16913	0.091172	-2.6729	-2.5979	-2.6771	-2.8271	-2.5896	-2.9979	-3.0792	-2.7042	-3.0438	-2.6854	-2.8354	-3.1167	-2.575	-2.9604	-2.8167	-2.6729	224.839	202.751	-35.145	-46.018	188.959	-15.778	229.872	250.247	176.228	-55.013	-62.312	-92.096	223.385	-93.701	-78.101	235.522	0.00039227	0.00080355	0.0002276	1367.8	4.0023e-06	7.7821e-06	1360.1	368.06	3.243e-06	3.9334e-06	420.54	140.69	122.17	41.781	6.8341e-06	51.771	0.00054847	0.00062763	0.00017151	1384.8	6.2317e-06	7.0349e-06	1384.8	375.79	6.1853e-06	7.2724e-06	430.02	143.96	125.22	43.286	6.8218e-06	53.411	2.124	-51.390	-41.383	-88.893	46.653	28.989	-88.969	-84.451	-15.153	-87.330	-85.054	-80.606	-80.195	-75.460	45.663	-76.354	-8191	255	
1391.227	1	1	0	0	0.069261	0.21472	0.28256	0.28923	0.14053	0.15924	0.32483	0.57336	0.17159	0.13082	0.082468	0.16933	0.21897	0.13774	0.12435	0.13777	-2.5083	-2.6167	-2.7354	-2.8708	-2.4021	-2.8271	-3.1063	-2.8042	-2.9375	-2.6542	-2.7479	-3.0187	-2.6667	-3.0271	-2.9917	-2.5729	99.252	-11.975	6.913	174.208	171.756	45.155	217.775	250.193	196.395	146.317	191.119	250.277	229.201	177.109	97.332	106.809	0.00053115	0.00060071	0.00019296	1360.9	3.4085e-06	8.4256e-06	1373.2	370.05	5.1067e-06	4.6678e-06	422.35	140.48	121.93	41.673	5.0813e-06	51.837	0.00060541	0.0006836	0.00017824	1391.8	6.9181e-06	7.5803e-06	1391.8	377.02	7.0861e-06	7.6486e-06	431.68	143.93	125.75	43.398	6.8894e-06	53.471	-17.907	19.478	-2.624	-88.994	44.667	50.386	-89.198	-84.517	132.981	70.553	-85.005	-80.629	-79.997	-75.443	0.946	-76.290	-8191	255	
1391.324	1	1	0	0	0.029594	0.17147	0.061684	0.22253	0.22241	0.19823	0.43125	0.13524	0.27759	0.18663	0.095536	0.10716	0.12974	0.16393	0.090194	0.29169	-2.6	-2.6208	-2.6271	-3.1	-2.6833	-2.7208	-3.0708	-2.6813	-2.8875	-2.6312	-2.5146	-3.1167	-2.6833	-2.7958	-2.8792	-2.35	155.491	220.382	240.436	-48.972	245.647	93.556	184.511	119.646	188.691	-39.885	137.230	112.089	238.378	54.071	228.676	112.756	0.0005307	0.00040328	0.00020882	1374.5	2.7476e-06	7.174e-06	1372.4	370.56	6.2323e-06	7.1273e-06	420.01	140.43	122.47	41.789	5.5626e-06	51.622	0.00065584	0.00067912	0.00017781	1394.9	7.2841e-06	7.3508e-06	1391.7	377.47	7.2405e-06	7.1866e-06	430.26	143.81	125.92	43.257	6.5785e-06	53.394	-30.654	22.097	8.552	-89.188	-42.322	36.579	-89.096	-84.588	160.003	-29.092	-84.907	-80.725	-80.024	-75.444	57.041	-76.440	-8191	255	
1391.442	1	1	0	0	0.23279	0.11941	0.20139	0.38083	0.22659	0.16126	0.33055	0.32318	0.19285	0.10521	0.10883	0.16093	0.32827	0.064087	0.12465	0.1022	-2.5125	-2.75	-2.4875	-3.0229	-2.5625	-2.8583	-3.1813	-2.7729	-2.925	-2.7604	-2.7271	-3.0771	-2.7	-2.9417	-3.0062	-2.5958	138.414	106.759	239.609	109.559	-92.973	61.997	203.221	230.432	11.862	97.751	167.394	201.650	179.610	-94.851	143.341	126.628	0.00036936	0.00065672	0.000134	1366.1	3.7856e-06	5.4193e-06	1367.3	369.15	1.5814e-06	4.6541e-06	421.12	140.28	121.73	41.926	6.7884e-06	51.683	0.00067553	0.00064891	0.00017091	1394.2	7.4912e-06	7.1003e-06	1389.1	376.66	7.459e-06	6.8709e-06	429.77	144.02	125.77	43.209	6.2292e-06	53.421	-23.600	-39.048	-36.539	-89.047	71.455	38.838	-89.295	-84.623	127.794	63.556	-84.987	-80.763	-80.072	-75.424	59.373	-76.491	-8191	255	
1391.514	1	1	0	0	0.17556	0.21925	0.16111	0.3279	0.1063	0.17954	0.33446	0.19529	0.17471	0.24584	0.23498	0.096893	0.14255	0.43011	0.028831	0.19539	-2.3438	-2.5917	-2.4958	-2.9688	-2.6688	-2.45	-3.15	-2.6354	-2.925	-2.7875	-2.5833	-2.9979	-2.8396	-2.6833	-2.9292	-2.5104	194.253	242.433	46.023	-20.097	187.692	-37.786	206.622	230.130	121.417	93.725	192.921	118.541	174.964	-66.877	157.242	183.749	0.00051588	0.00049108	0.00019214	1360.6	3.9613e-06	4.7345e-06	1365.6	367.79	9.0015e-06	4.8359e-06	421.36	140.28	121.82	41.804	4.6328e-06	51.302	0.00067044	0.00061254	0.00016262	1394.5	7.2064e-06	6.6933e-06	1386.4	376.67	7.1406e-06	6.5083e-06	428.88	144.2	125.42	43.033	6.1299e-06	53.378	-10.151	-9.989	-39.890	-88.734	60.923	61.111	-89.401	-84.500	25.082	108.564	-85.095	-80.629	-79.912	-75.606	99.525	-76.365	-8191	255	
1391.610	1	1	0	0	0.19398	0.1032	0.097908	0.20822	0.25475	0.2623	0.038773	0.19129	0.15345	0.079454	0.083818	0.087003	0.22549	0.18925	0.19166	0.14835	-2.2521	-2.9625	-2.5208	-2.8833	-2.7062	-2.425	-3.1625	-2.675	-2.7292	-2.8625	-2.6063	-2.9062	-2.8354	-2.7542	-2.925	-2.7062	113.803	55.334	-65.339	146.869	49.896	153.452	168.197	226.176	221.912	135.372	255.996	230.470	215.612	149.187	67.912	-84.081	0.00037144	0.00097609	0.00017261	1364	2.2967e-06	1.0041e-05	1363.1	368.1	7.3509e-06	9.8188e-06	420.69	140.24	122.05	41.79	4.7142e-06	51.66	0.0006398	0.0005857	0.00016046	1399.5	6.8323e-06	6.4555e-06	1383.2	377.01	6.7277e-06	6.2025e-06	429.09	144.13	125.12	42.895	6.1678e-06	53.347	-19.671	-47.645	-93.402	-89.218	44.430	12.428	-89.200	-84.432	-48.052	45.846	-84.862	-80.630	-80.007	-75.477	122.276	-76.267	-8191	255	
1391.731	1	1	0	0	0.092989	0.13713	0.069897	0.065739	0.067846	0.50649	0.24431	0.23379	0.10842	0.14622	0.43276	0.25172	0.16031	0.13419	0.22002	0.11723	-2.0333	-2.8417	-2.425	-2.8771	-2.7917	-2.5646	-3.0229	-2.8937	-2.4333	-2.8479	-2.5729	-3.1146	-2.8917	-2.5187	-2.7938	-2.7854	-6.842	16.768	177.744	175.543	86.991	-16.416	114.611	202.879	-98.641	189.249	201.225	25.091	145.916	190.476	230.001	-80.672	0.00049096	0.00048206	7.3041e-05	1363.2	2.4451e-06	4.0637e-06	1363.4	368.66	5.11e-06	3.6947e-06	418.25	140.05	121.56	41.796	1.0893e-05	51.619	0.00059239	0.00055166	0.00016122	1396.1	6.3247e-06	6.0728e-06	1381.9	376.61	6.3746e-06	5.8575e-06	428.27	143.81	124.69	42.882	6.3592e-06	53.322	13.259	-10.922	-45.502	-89.353	-55.375	31.020	-89.148	-84.441	-88.298	31.223	-84.932	-80.697	-80.120	-75.678	-54.123	-76.123	-8191	255	
1391.827	1	1	0	0	0.17935	0.032562	0.065659	0.028319	0.24609	0.055544	0.34017	0.33549	0.27737	0.15101	0.24169	0.097298	0.12921	0.14076	0.027366	0.13337	-2.175	-2.9458	-2.3708	-2.8333	-2.6833	-2.4104	-2.9938	-2.85	-2.4146	-2.8854	-2.6646	-2.7771	-2.925	-2.6146	-3.0187	-2.8146	-57.834	130.679	-101.264	-39.299	15.486	-23.414	227.965	190.741	108.955	7.006	240.498	-48.699	16.469	237.196	32.755	-58.775	0.0004582	0.00055625	4.8376e-05	1359.2	4.8199e-06	3.388e-06	1360.3	368.44	4.8038e-06	5.1922e-06	420.41	140.36	122.19	41.697	9.8267e-06	51.704	0.0005685	0.00052574	0.00016665	1390.4	6.1028e-06	5.9375e-06	1382.8	376.28	6.2256e-06	5.8134e-06	429.42	143.76	124.72	42.788	6.6834e-06	53.181	-11.025	-17.970	-31.365	-88.903	96.436	112.886	-89.169	-84.360	54.313	52.499	-84.957	-80.550	-80.035	-75.649	9.902	-76.046	-8191	255	
1391.923	1	1	0	0	0.17622	0.16143	0.058127	0.085551	0.15398	0.065696	0.03146	0.14607	0.1955	0.13822	0.37844	0.049475	0.1311	0.28054	0.11941	0.23614	-2.1813	-2.9125	-2.8021	-2.5646	-2.8604	-2.5604	-3.0333	-2.8625	-2.6688	-3.0125	-2.7125	-2.7542	-3.0146	-2.5771	-2.8667	-2.85	37.589	167.731	-93.125	209.643	-78.240	-39.898	-71.075	222.735	23.660	104.442	217.833	-100.175	172.760	3.374	158.361	203.151	0.00043237	0.0006235	5.8297e-05	1366.3	5.0936e-06	2.587e-06	1361.3	368.63	7.4991e-06	1.0538e-06	420.43	140.58	122.06	41.658	5.7725e-06	51.654	0.00055913	0.00053863	0.00017139	1385.7	5.9411e-06	6.1336e-06	1383.3	376.03	6.1408e-06	6.1025e-06	430.39	143.99	124.57	42.971	6.9658e-06	53.183	-16.929	132.095	-22.897	-88.941	79.730	184.698	-89.177	-84.609	-80.829	55.956	-85.180	-80.677	-79.994	-75.534	71.462	-76.481	-8191	255	
1392.019	1	1	0	0	0.067187	0.14191	0.14049	0.18321	0.054897	0.062002	0.15503	0.30434	0.16373	0.1675	0.17142	0.064743	0.27392	0.13577	0.079611	0.13688	-2.1167	-2.9125	-2.5604	-2.6604	-3.125	-2.4896	-2.9375	-2.8417	-2.3917	-2.8646	-2.7625	-2.6625	-3.2188	-2.6396	-2.8542	-3.0646	242.150	128.032	110.875	185.838	-13.345	125.758	179.539	253.512	193.757	-2.116	257.181	221.212	250.167	159.944	-72.110	88.324	0.00051205	8.3066e-05	0.00030119	1366.4	2.0619e-06	2.6316e-06	1365.1	368.94	3.052e-06	6.5139e-06	420.53	140.99	122.1	41.532	9.3982e-06	51.664	0.00056314	0.00058558	0.00017788	1390.8	6.0072e-06	6.657e-06	1387.5	376.04	6.1609e-06	6.7083e-06	430.48	144.13	124.87	43.107	6.8945e-06	53.253	1.951	-7.884	-43.657	-89.062	63.589	83.221	-89.162	-84.625	-57.123	-65.900	-85.141	-80.758	-79.995	-75.451	27.029	-76.353	-8191	255	
1392.116	1	1	0	0	0.066257	0.31092	0.10162	0.27454	0.12058	0.093961	0.08756	0.14299	0.34345	0.018522	0.18304	0.28114	0.26573	0.18936	0.11033	0.10056	-2.0042	-2.7917	-2.8167	-2.5479	-2.8417	-2.5146	-3.0375	-3.1979	-2.3563	-2.7958	-2.8438	-2.7333	-3.1833	-2.6667	-2.6854	-3.0021	249.461	-62.324	-36.758	68.579	-102.006	-86.329	238.030	253.477	141.476	138.139	146.607	246.429	122.421	181.246	40.346	255.696	0.00039862	8.3175e-05	0.00022105	1364.4	2.2502e-06	1.0163e-05	1371.2	369.71	8.6269e-07	6.195e-06	421.17	140.46	122.34	41.77	5.3339e-06	51.581	0.00056827	0.00062669	0.00017401	1389.8	6.074e-06	7.0839e-06	1391.5	376.18	6.2655e-06	7.0535e-06	430.34	143.91	125.19	43.247	6.7806e-06	53.245	-5.733	230.920	-21.528	-88.896	86.908	45.172	-89.116	-84.655	-55.645	24.190	-85.189	-80.549	-79.957	-75.638	47.481	-76.373	-8191	255	
1392.212	1	1	0	0	0.14981	0.30384	0.14516	0.24139	0.11695	0.1693	0.20946	0.1104	0.13114	0.1132	0.20707	0.27649	0.22276	0.16292	0.30677	0.20968	-2.1146	-2.6271	-2.8708	-2.3937	-2.8667	-2.6312	-2.8917	-2.9854	-2.4146	-2.7625	-2.825	-2.6167	-3.0896	-2.6937	-2.4771	-2.9188	56.184	48.101	-24.649	231.089	-34.016	70.569	163.164	-78.897	-1.452	17.064	254.899	241.298	168.217	208.354	-51.009	247.626	0.00051197	0.00044514	0.00019702	1367	3.105e-06	1.139e-06	1370.4	368.99	1.7558e-06	6.2751e-06	422.19	140.44	122	41.741	4.92e-06	51.452	0.00058406	0.00065341	0.00016928	1390.9	6.395e-06	7.0849e-06	1387.8	375.84	6.5299e-06	7.0227e-06	429.99	143.78	125.11	43.161	6.4907e-06	53.108	-4.324	-36.958	43.999	-88.813	25.039	159.167	-89.137	-84.536	207.140	74.412	-84.950	-80.542	-80.155	-75.669	167.359	-76.020	-8191	255	
1392.308	1	1	0	0	0.22611	0.14228	0.11741	0.12957	0.17657	0.17732	0.17536	0.16437	0.090632	0.25102	0.25793	0.14766	0.1331	0.27758	0.14403	0.17413	-2.0417	-2.8542	-2.8125	-2.4479	-2.9417	-2.7729	-2.7479	-3.1937	-2.5062	-2.8375	-2.8708	-2.5938	-3.0021	-2.9042	-2.4125	-2.9896	106.747	182.107	190.961	174.470	-40.990	244.222	193.765	-72.426	121.941	-41.237	-61.126	111.877	195.950	-83.913	149.751	-72.123	0.00047783	0.00070514	0.00026821	1368.7	3.6676e-07	1.1193e-05	1368.7	368.25	3.732e-06	6.7448e-06	423.13	140.75	122.13	41.88	9.8079e-06	51.685	0.00061291	0.00063273	0.00016029	1386.6	6.7099e-06	6.8626e-06	1386.9	375.27	6.8264e-06	6.8402e-06	429.76	143.8	125.33	43.074	6.2689e-06	53.121	-1.956	-56.249	-0.610	-88.985	-27.347	38.743	-89.254	-84.512	59.420	35.874	-85.008	-80.751	-79.770	-75.383	2.160	-76.412	-8191	255	
1392.404	1	1	0	0	0.24599	0.035694	0.22888	0.12123	0.22363	0.054209	0.14753	0.30219	0.034791	0.17065	0.21102	0.25857	0.29808	0.13595	0.22361	0.12372	-1.9771	-2.6958	-2.8896	-2.5729	-2.8021	-2.7604	-2.8667	-3.2313	-2.3604	-2.7479	-3.1146	-2.4667	-3.0125	-3.0208	-2.5417	-3.1063	-15.952	139.641	-71.518	240.946	-37.046	-35.049	176.665	216.243	202.173	66.614	205.983	-86.595	191.188	162.869	108.225	-29.086	0.00046526	0.00074182	0.00011406	1368.6	1.9284e-06	5.7277e-06	1367	368.54	1.9364e-06	4.1109e-06	421.64	140.22	122.3	41.835	2.8121e-06	51.523	0.00061367	0.00059862	0.00015076	1386.6	6.7419e-06	6.3608e-06	1386	375.2	6.7524e-06	6.3083e-06	428.65	143.83	125.28	42.949	5.8742e-06	53.079	-2.244	-46.811	-9.579	-89.055	138.293	75.590	-89.098	-84.343	256.205	112.586	-85.027	-80.505	-80.031	-75.476	8.441	-76.292	-8191	255	
1392.523	1	1	0	0	0.24138	0.12529	0.020066	0.18858	0.084721	0.35974	0.30429	0.31544	0.30843	0.16486	0.23804	0.34562	0.33391	0.073891	0.21273	0.16818	-2.2062	-2.5875	-2.9104	-2.4833	-2.8396	-2.8229	-2.5438	-3.1312	-2.6896	-2.4437	-3.1667	-2.575	-2.6875	-2.9521	-2.4125	-2.8604	-27.415	-18.271	-25.745	166.513	29.803	87.808	106.839	157.621	185.311	-30.750	3.647	240.776	-92.939	169.566	-20.414	124.578	0.00044829	0.0004348	0.00013131	1367.2	3.9496e-06	3.4343e-06	1368.3	369.92	2.5035e-06	8.515e-06	422.01	140.32	122.28	41.569	7.3434e-06	51.715	0.00060192	0.00056214	0.00014255	1389.2	6.4608e-06	5.8784e-06	1385.5	376.35	6.3694e-06	5.9101e-06	427.44	143.64	125.13	42.744	5.5274e-06	53.201	-17.237	-1.896	-19.198	-89.288	60.460	-18.676	-89.108	-84.476	118.718	78.699	-84.981	-80.452	-79.995	-75.587	-97.108	-76.347	-8191	255	
1392.619	1	1	0	0	0.16475	0.253	0.16125	0.034533	0.057882	0.243	0.13083	0.24328	0.2525	0.23604	0.11011	0.19708	0.29929	0.19388	0.15948	0.089953	-2.1625	-2.4271	-2.8333	-2.6021	-2.7729	-2.7417	-2.5375	-2.9833	-2.675	-2.55	-3.1833	-2.6292	-2.7875	-2.9917	-2.5062	-2.95	137.286	227.969	179.729	124.517	208.747	73.145	-82.164	222.632	232.241	91.028	256.996	-81.125	-47.994	257.512	183.165	51.860	0.0004754	0.00078352	9.7486e-05	1358.5	5.6358e-06	2.9696e-06	1369.5	367.66	5.482e-06	7.9833e-06	421.37	140.45	122.45	41.707	6.9355e-06	51.713	0.00055505	0.0005247	0.0001352	1387	6.0847e-06	5.4951e-06	1384.9	375.24	5.955e-06	5.6337e-06	426.78	143.69	125.13	42.746	5.6004e-06	53.298	-5.700	-1.363	11.877	-88.969	5.621	93.952	-89.204	-84.418	23.874	69.445	-85.015	-80.566	-80.051	-75.703	31.098	-76.320	-8191	255	
1392.715	1	1	0	0	0.20312	0.19294	0.1064	0.093772	0.085363	0.23908	0.42905	0.17602	0.10201	0.097389	0.12028	0.2406	0.16361	0.25548	0.083824	0.10685	-2.3625	-2.3583	-2.7958	-2.5354	-2.7417	-2.95	-2.6708	-2.8229	-2.8729	-2.5271	-3.0708	-2.6688	-2.625	-2.9562	-2.5667	-2.7854	-40.501	74.567	135.447	156.300	208.499	245.793	168.108	167.358	55.242	-33.604	204.645	206.029	172.386	249.645	76.984	-56.620	0.00046906	0.00061538	8.1284e-05	1364.7	3.4828e-06	7.3322e-06	1365.7	369.49	7.2874e-06	7.2906e-06	421.11	139.92	122.57	41.793	1.9431e-06	51.832	0.00054193	0.00051731	0.00014391	1393.2	6.0786e-06	5.6588e-06	1385.4	376.55	6.0255e-06	5.8059e-06	429.21	144.04	125.15	42.771	6.2995e-06	53.338	-18.897	39.654	77.814	-89.049	50.100	83.069	-89.111	-84.464	-8.502	26.870	-84.990	-80.618	-79.961	-75.633	82.064	-76.613	-8191	255	
1392.811	1	1	0	0	0.097052	0.067417	0.2553	0.070516	0.17106	0.13994	0.36871	0.21908	0.057932	0.13621	0.33001	0.09802	0.21882	0.19729	0.12621	0.13943	-2.5438	-2.4375	-2.7875	-2.7625	-2.5438	-3.0021	-2.7479	-2.9875	-2.8583	-2.4792	-3.2333	-2.8438	-2.6667	-2.9833	-2.5542	-2.5917	-30.403	-88.776	237.189	127.446	101.045	25.363	176.742	185.250	174.018	149.083	250.953	-98.250	-51.017	230.987	-30.267	208.495	0.00060956	0.0005263	0.00012797	1376.6	3.5248e-06	3.5054e-06	1371.3	369.72	4.2831e-06	5.8325e-06	422.04	141.27	122.65	41.802	1.1691e-06	52.014	0.00055066	0.00052908	0.00015897	1395.7	6.1017e-06	5.6134e-06	1390.8	376.69	6.0316e-06	5.8033e-06	429.39	144.11	125.25	42.858	6.6105e-06	53.381	-2.160	-27.022	-38.395	-89.254	19.409	50.237	-89.155	-84.518	42.209	1.455	-85.035	-80.516	-80.242	-75.669	-76.961	-76.650	-8191	255	
1392.907	1	1	0	0	0.22154	0.14724	0.077405	0.18597	0.15323	0.17254	0.29556	0.03156	0.15398	0.028891	0.18048	0.35135	0.12995	0.20619	0.090468	0.31246	-2.5646	-2.3229	-2.8083	-2.9583	-2.575	-2.9479	-2.8896	-2.7812	-2.7646	-2.4313	-3.1104	-2.8563	-2.5938	-2.8875	-2.5979	-2.7708	17.728	-90.408	-26.881	56.859	248.489	210.967	237.550	223.320	-87.350	250.261	256.383	197.393	-78.816	164.515	151.962	183.246	0.00042817	0.00049304	0.00024072	1373.4	8.4048e-06	3.9659e-06	1370.9	370.27	3.9016e-06	6.4083e-06	420.36	140.81	122.75	41.864	4.1277e-06	51.949	0.00054543	0.00054006	0.00016951	1393	6.0861e-06	5.9051e-06	1392	377	5.997e-06	6.1335e-06	430.73	144.06	125.42	43.006	6.8969e-06	53.426	-18.163	29.812	15.879	-88.758	76.112	28.298	-89.101	-84.584	34.136	109.054	-84.967	-80.560	-80.024	-75.714	179.546	-76.176	-8191	255	
1393.004	1	1	0	0	0.16196	0.027713	0.38313	0.16031	0.28647	0.14512	0.21791	0.14377	0.385	0.15499	0.15589	0.046427	0.19232	0.24065	0.25538	0.44021	-2.4625	-2.5583	-2.9604	-2.825	-2.4208	-2.8458	-2.7687	-2.9083	-2.9813	-2.4396	-2.75	-2.9083	-2.3896	-2.9208	-2.5729	-2.6646	-34.519	-32.605	157.098	88.720	247.790	-25.680	-98.314	-30.871	-29.042	150.694	-91.454	179.988	-82.250	185.736	199.050	172.515	0.00043406	0.0004931	4.3276e-05	1375	4.407e-06	1.6037e-06	1373.9	370.72	1.3881e-06	9.5345e-06	423.06	140.37	122.13	41.82	4.6522e-06	51.806	0.00055087	0.00059819	0.0001785	1396.5	6.2753e-06	6.5987e-06	1397.9	378.01	6.188e-06	6.9327e-06	432.76	144.21	125.51	43.182	7.1756e-06	53.52	-2.648	-0.105	0.945	-88.865	92.667	-91.419	-89.102	-84.393	47.673	35.670	-84.876	-80.738	-80.053	-75.546	92.167	-76.487	-8191	255	
1393.124	1	1	0	0	0.26168	0.28692	0.090324	0.13647	0.12039	0.18739	0.14478	0.16222	0.054192	0.17832	0.19061	0.28428	0.2422	0.2643	0.19491	0.093426	-2.5917	-2.5	-2.7208	-2.8479	-2.5	-2.9542	-2.8708	-2.8708	-2.9813	-2.6208	-2.8812	-3.0542	-2.6063	-3.1146	-2.8063	-2.6562	177.712	61.154	117.951	64.064	-87.498	142.242	166.818	210.506	155.177	238.708	157.862	224.207	-40.617	-57.844	55.627	231.209	0.00059677	0.00024195	0.00015266	1379.3	5.4171e-06	5.5003e-06	1374.2	370.79	3.9635e-06	5.5457e-06	421.51	140.85	122.67	42.04	9.9251e-06	51.717	0.00057595	0.00066052	0.00018325	1403.7	6.4821e-06	7.1943e-06	1398	378.69	6.3655e-06	7.3348e-06	432.47	144.55	125.82	43.351	6.8697e-06	53.373	-19.795	-47.803	-20.324	-89.394	64.403	41.365	-89.066	-84.349	-26.983	78.672	-85.078	-80.732	-80.235	-75.393	16.259	-75.881	-8191	255	
1393.219	1	1	0	0	0.2001	0.064732	0.096253	0.035806	0.058305	0.22164	0.013796	0.2694	0.36918	0.10097	0.21761	0.15349	0.072857	0.17576	0.018236	0.15119	-2.5062	-2.6271	-2.5979	-2.9188	-2.5896	-2.7604	-2.9771	-2.6583	-2.8937	-2.7458	-2.7271	-3.0792	-2.4583	-2.9875	-2.9354	-2.5938	197.943	-13.216	129.141	61.653	140.032	240.899	224.463	238.419	-21.062	-67.208	252.822	175.567	119.030	-82.969	39.856	199.376	0.00066969	0.00021637	0.00028168	1380.5	5.2506e-06	3.3297e-06	1376.6	372.04	4.6053e-06	5.7566e-06	421.6	141.43	122.54	41.935	1.072e-05	51.979	0.00059338	0.00067099	0.00017641	1399.8	6.6246e-06	7.2398e-06	1396.7	378.09	6.5299e-06	7.2538e-06	431.21	144.32	125.84	43.316	6.5599e-06	53.401	-31.078	-17.117	-35.794	-88.958	147.424	-14.577	-89.225	-84.451	-85.671	5.561	-84.955	-80.502	-80.081	-75.432	17.939	-76.212	-8191	255	
1393.315	1	1	0	0	0.14664	0.16607	0.19671	0.11696	0.067023	0.19702	0.21206	0.14539	0.13134	0.2269	0.00562	0.16141	0.15952	0.081558	0.27703	0.29529	-2.5167	-2.6646	-2.5375	-3.0958	-2.7292	-2.9021	-3.1833	-2.6375	-3.0438	-2.7875	-2.5917	-3.1312	-2.6167	-2.9146	-2.6208	-2.8167	206.741	57.776	252.753	142.672	49.162	94.906	184.873	127.773	195.412	16.670	255.493	-90.943	-18.434	-77.901	180.363	167.427	0.00053619	0.00059018	0.00018254	1373.9	3.4249e-06	3.8938e-06	1372.3	370.75	4.3603e-06	7.6911e-06	421.66	140.92	122.11	41.927	2.9304e-06	51.858	0.00061128	0.00065167	0.00016842	1392.5	6.905e-06	7.1089e-06	1394.4	377.4	6.9868e-06	7.0056e-06	431.18	144.09	126.13	43.276	6.4017e-06	53.419	4.032	-53.181	-23.865	-89.150	14.531	85.765	-89.229	-84.394	-45.209	10.540	-85.093	-80.686	-79.960	-75.345	123.768	-76.131	-8191	255	
1393.388	1	1	0	0	0.16142	0.27678	0.1539	0.20926	0.27947	0.17234	0.21536	0.36313	0.059324	0.2137	0.3217	0.41487	0.16386	0.4375	0.30653	0.06387	-2.3104	-2.7812	-2.5375	-3.0333	-2.7146	-2.6708	-3.2354	-2.6958	-2.8312	-2.7896	-2.7104	-3.0083	-2.8438	-2.5396	-2.9729	-2.6042	-1.438	59.266	63.549	-51.238	230.873	18.362	227.039	190.247	-7.513	197.638	198.295	247.547	-90.990	-99.399	-26.748	129.695	0.00058175	0.0007798	0.00023084	1372.7	1.5175e-06	4.0279e-06	1376.9	370.72	2.3433e-06	4.0911e-06	421.67	140.71	122.7	41.949	4.6826e-06	51.842	0.00065436	0.00063107	0.00016708	1396.3	7.3231e-06	6.9761e-06	1395.4	378.12	7.3348e-06	6.8841e-06	431.13	144.5	126.41	43.347	6.3839e-06	53.566	-20.866	9.978	-50.399	-89.050	111.969	40.258	-89.039	-84.332	65.747	58.147	-84.954	-80.662	-79.841	-75.589	29.705	-76.034	-8191	255	
1393.507	1	1	0	0	0.19573	0.21106	0.037378	0.20215	0.12153	0.30007	0.19318	0.40811	0.12494	0.024607	0.0078195	0.14969	0.1561	0.2006	0.071677	0.3007	-2.3271	-2.7583	-2.4854	-2.8937	-2.6167	-2.7687	-3.1625	-2.7333	-2.8396	-2.9	-2.6104	-2.9813	-2.8187	-2.8604	-2.9917	-2.6958	157.922	132.412	32.446	152.529	-67.862	242.571	230.298	234.147	-6.924	163.517	91.689	166.142	156.781	-59.805	142.687	232.856	0.00041015	0.00066265	0.00021167	1377.5	8.6337e-07	3.5078e-06	1375.2	370.9	2.6099e-06	3.0315e-06	421.58	140.74	122.72	41.959	5.1053e-06	51.664	0.00067453	0.00062387	0.00016561	1404.6	7.3975e-06	6.8822e-06	1395.2	378.97	7.3542e-06	6.7702e-06	431.01	144.92	126.12	43.255	6.3476e-06	53.709	-3.440	11.114	-37.689	-88.983	196.779	3.258	-89.242	-84.340	231.193	111.296	-84.941	-80.760	-80.179	-75.492	32.759	-76.340	-8191	255	
1393.603	1	1	0	0	0.092145	0.02521	0.051292	0.28265	0.14407	0.17845	0.10603	0.18778	0.086787	0.017712	0.18795	0.095788	0.21699	0.28701	0.29503	0.08939	-2.4813	-2.9229	-2.4229	-2.9521	-2.5458	-2.5167	-3.2687	-2.8292	-2.6271	-2.9021	-2.4833	-3.0438	-3.0104	-2.7687	-3.0271	-2.7313	39.580	-41.156	248.938	232.032	209.701	-64.799	223.352	186.520	48.093	208.456	-4.174	42.295	-89.445	-17.153	43.825	179.495	0.00062877	0.00097894	0.00016631	1393	5.9134e-06	4.7479e-06	1378.4	371.54	9.0599e-06	6.1443e-06	422.51	140.85	123.27	41.935	2.8436e-06	51.79	0.00067361	0.00062205	0.0001673	1417.6	7.3375e-06	6.9369e-06	1398.4	380.09	7.326e-06	6.7127e-06	431.68	145.23	126.35	43.207	6.5663e-06	53.787	-4.087	-29.451	-17.018	-89.221	-16.981	93.090	-89.141	-84.477	-33.758	10.829	-85.098	-80.794	-80.150	-75.524	61.249	-76.409	-8191	255	
1393.699	1	1	0	0	0.19498	0.069098	0.25775	0.036204	0.020265	0.24476	0.078683	0.26068	0.14108	0.18143	0.20024	0.19512	0.11067	0.1182	0.069257	0.1661	-2.3292	-2.7771	-2.5396	-3.0042	-2.7771	-2.6312	-3.1979	-2.8542	-2.6875	-3.1479	-2.4104	-2.8542	-2.8458	-2.6125	-3.0417	-2.6667	237.810	-56.362	-59.110	-61.534	159.192	110.399	215.606	-59.717	35.560	219.459	8.489	234.691	-30.189	-22.805	-41.098	104.481	0.00035531	0.00078352	5.5912e-05	1375.1	7.3275e-06	2.8952e-06	1381.8	371.84	5.9819e-06	4.4594e-06	421.26	140.84	122.72	41.758	3.7318e-06	51.997	0.00065672	0.00060523	0.00017358	1420.4	7.0829e-06	6.7885e-06	1401.3	379.72	7.1461e-06	6.5882e-06	432.69	145.2	125.98	43.186	7.0897e-06	53.919	-1.235	-9.704	-20.661	-89.150	63.775	26.799	-89.180	-84.421	-16.067	71.983	-85.045	-80.801	-79.924	-75.471	123.810	-76.495	-8191	255	
1393.796	1	1	0	0	0.02362	0.27233	0.32558	0.18235	0.1246	0.22504	0.23221	0.21513	0.04973	0.088774	0.1769	0.12426	0.32868	0.057549	0.22712	0.074651	-2.2292	-2.8625	-2.5604	-2.7521	-2.8312	-2.4	-3.0417	-2.7542	-2.7271	-3.0792	-2.7333	-2.7188	-2.9479	-2.4583	-2.8458	-2.6146	88.574	244.210	232.697	-82.669	191.908	124.945	159.265	131.873	40.607	17.161	179.395	120.807	223.220	92.934	-61.100	216.205	0.00045538	0.00047461	8.5095e-05	1383.2	8.2287e-06	1.9157e-06	1375.6	370.8	1.7357e-06	5.8224e-07	422.78	140.78	122.84	42.002	3.2931e-06	51.818	0.00064852	0.00059449	0.00018581	1419.6	6.9495e-06	6.737e-06	1401.4	379.84	7.0631e-06	6.5099e-06	433.75	145.3	125.95	43.231	7.4557e-06	53.709	-2.233	20.013	74.956	-89.071	26.350	-23.441	-89.276	-84.340	135.886	1.738	-85.128	-80.574	-80.176	-75.615	121.974	-76.362	-8191	255	
1393.916	1	1	0	0	0.16862	0.18103	0.094879	0.22242	0.27142	0.061294	0.18982	0.16286	0.010283	0.043417	0.061139	0.050862	0.068684	0.18674	0.16696	0.17253	-2.0708	-2.9167	-2.5625	-2.6875	-2.75	-2.5021	-3.2792	-2.9875	-2.5812	-2.9792	-2.9062	-2.9271	-3.0938	-2.6271	-2.725	-2.9292	190.882	31.646	69.274	191.538	149.476	234.299	176.929	129.365	22.731	-96.924	-1.470	0.407	164.539	180.767	253.409	188.212	0.00049873	0.00037828	5.9421e-05	1381.4	4.0665e-06	6.678e-06	1379.1	370.55	7.3021e-06	1.7178e-06	422.89	140.92	122.22	41.976	5.914e-06	51.876	0.00063748	0.00059956	0.00019328	1417.2	6.6946e-06	6.7508e-06	1403.4	379.18	6.6817e-06	6.5371e-06	433.58	144.93	125.54	43.207	7.3306e-06	53.52	0.764	-18.611	-52.881	-88.602	79.232	149.332	-89.220	-84.475	13.567	-59.241	-84.849	-80.711	-80.007	-75.552	83.136	-76.244	-8191	255	
1393.988	1	1	0	0	0.097257	0.13572	0.051025	0.073264	0.046821	0.11244	0.27114	0.12702	0.27451	0.16706	0.19493	0.3267	0.043214	0.22969	0.17539	0.27457	-2.0583	-3.0812	-2.5854	-2.7896	-3.0896	-2.4604	-2.9833	-2.8396	-2.4562	-2.9583	-2.9083	-2.7125	-3.2354	-2.6417	-2.6771	-2.9708	153.352	210.662	158.779	-33.800	-23.893	215.230	248.841	-84.949	-67.823	61.033	241.212	226.139	-89.731	174.525	245.761	238.876	0.00046566	0.00026726	0.00015554	1380.4	4.0658e-06	1.461e-06	1371.9	370.75	4.7536e-06	2.9731e-06	423.88	140.91	122.58	41.879	4.1497e-07	51.739	0.0005886	0.00060399	0.00018326	1404.1	6.1057e-06	6.6798e-06	1397.7	378.19	6.2135e-06	6.5265e-06	432.99	144.34	125.37	43.182	6.8357e-06	53.286	-5.291	-30.922	-4.837	-89.117	66.958	7.547	-89.119	-84.442	-15.012	102.032	-84.960	-80.707	-80.192	-75.694	-26.271	-76.295	-8191	255	
1394.084	1	1	0	0	0.20887	0.13335	0.038914	0.11728	0.14475	0.30611	0.37104	0.28856	0.17166	0.038767	0.27533	0.094789	0.24973	0.18156	0.16568	0.21238	-2.0292	-2.7562	-2.5396	-2.575	-3.0729	-2.4917	-3.0979	-3.1437	-2.4542	-2.8271	-2.8083	-2.6417	-3.0479	-2.4813	-2.7479	-2.9021	-60.527	150.541	232.507	-91.502	-53.485	-50.820	174.585	-82.121	72.488	36.669	-36.428	211.078	188.898	-93.129	111.339	-11.691	0.00056893	0.00018195	0.00012512	1375.3	5.5734e-06	6.6267e-06	1374.1	369.58	7.4641e-06	1.7564e-06	423.43	141.38	122.69	41.986	4.9853e-06	51.48	0.00055734	0.0006092	0.00017112	1394.7	5.8195e-06	6.7562e-06	1396.9	377.33	6.1392e-06	6.8326e-06	431.74	144.49	125.4	43.272	6.676e-06	53.206	2.665	-50.206	6.052	-88.859	39.764	29.063	-89.112	-84.323	-19.730	89.023	-85.016	-80.584	-80.091	-75.371	-12.698	-76.193	-8191	255	
1394.205	1	1	0	0	0.17775	0.066965	0.10598	0.27936	0.082889	0.10334	0.19255	0.24937	0.18158	0.20783	0.2068	0.20051	0.12768	0.11447	0.047871	0.19601	-2.0229	-2.8979	-2.7542	-2.6104	-2.9938	-2.5687	-2.9167	-3.1854	-2.5583	-2.8958	-3.0042	-2.6167	-3.1292	-2.7021	-2.7	-3.1312	-7.028	186.211	79.956	179.669	141.387	139.223	197.569	210.151	244.378	97.926	183.699	163.651	-87.067	-26.849	95.806	185.650	0.0006719	0.00052058	0.00025185	1376.9	2.1352e-06	2.7319e-06	1378.3	371.33	2.1862e-06	4.2238e-06	423.11	141.94	122.2	41.885	1.7974e-06	51.748	0.00057317	0.00064755	0.00016727	1397	6.213e-06	7.1216e-06	1399	377.85	6.4976e-06	7.1398e-06	432.2	144.64	125.64	43.278	6.7409e-06	53.256	-9.170	-27.806	23.300	-88.885	34.899	55.695	-89.237	-84.509	-102.139	89.813	-84.883	-80.636	-80.051	-75.647	160.999	-76.362	-8191	255	
1394.299	1	1	0	0	0.14785	0.1078	0.033016	0.080843	0.14734	0.18625	0.2528	0.27794	0.17628	0.33131	0.17854	0.10424	0.17757	0.10527	0.18399	0.17416	-2.1917	-2.8625	-2.8104	-2.5229	-2.8937	-2.6042	-2.7708	-3.2	-2.4396	-2.6813	-2.9854	-2.55	-3.1583	-2.775	-2.4854	-3.2208	232.916	-52.709	160.378	0.421	26.678	-3.777	236.689	-96.584	27.084	-74.863	-21.659	164.104	216.113	230.623	-1.620	176.058	0.0005306	0.00020684	8.4852e-05	1373.4	3.7631e-06	4.0692e-06	1376.8	371.33	9.8132e-07	3.4818e-06	424.79	140.9	122.7	41.789	5.6171e-06	51.903	0.00062183	0.00066171	0.00017044	1399.1	6.9263e-06	7.2229e-06	1399	378.22	7.2302e-06	7.2578e-06	432.69	144.59	126.36	43.325	6.6804e-06	53.414	-13.557	21.512	-55.063	-88.966	-25.466	24.964	-89.207	-84.525	-82.822	18.232	-85.271	-80.590	-80.019	-75.435	130.218	-76.300	-8191	255	
1394.397	1	1	0	0	0.18559	0.1286	0.17852	0.19792	0.086664	0.091907	0.13061	0.20521	0.22991	0.19819	0.045929	0.21445	0.21226	0.27711	0.087147	0.15138	-2.1146	-2.6646	-2.8937	-2.6333	-2.9396	-3.0167	-2.9458	-3.1688	-2.6479	-2.7042	-3.1333	-2.7479	-3.2104	-2.7604	-2.3187	-2.9708	-63.187	26.844	248.218	116.370	-65.652	104.203	203.169	198.250	235.194	40.046	36.815	212.012	220.659	221.846	250.561	-88.706	0.00066531	0.00032539	0.00021124	1372.8	4.5153e-06	3.5788e-06	1380	370.51	5.9411e-06	9.1856e-06	421.14	141.43	123.06	42.01	8.9077e-06	51.924	0.00065285	0.00064234	0.00016279	1400.5	7.1076e-06	6.8185e-06	1398.8	377.91	7.2215e-06	6.8941e-06	431.05	144.6	126.43	43.254	6.4646e-06	53.52	-23.545	-50.271	-34.579	-88.853	29.201	70.497	-89.166	-84.441	23.161	94.206	-84.864	-80.785	-79.975	-75.690	41.214	-76.315	-8191	255	
1394.516	1	1	0	0	0.13844	0.12729	0.11877	0.11141	0.13239	0.19318	0.18999	0.20693	0.15956	0.030337	0.13091	0.17922	0.22254	0.33869	0.19909	0.34138	-2.1604	-2.5708	-2.775	-2.3854	-2.9562	-2.8958	-2.7562	-3.0333	-2.7167	-2.5563	-3.1417	-2.5729	-2.9146	-3.0458	-2.4917	-2.8792	-30.515	11.353	-26.889	-0.384	238.168	27.442	209.197	195.604	143.357	64.840	233.528	142.648	249.803	-94.964	240.609	134.120	0.00046757	0.00088526	0.00014417	1380.5	4.1672e-06	7.3103e-06	1381.1	372.04	6.6242e-06	8.1942e-06	422.15	141.31	122.52	41.897	8.4767e-06	52.071	0.00066794	0.00062324	0.00015925	1409.8	7.3873e-06	6.7111e-06	1401.5	379.04	7.3613e-06	6.8745e-06	431.04	145.17	126.45	43.195	6.4029e-06	53.685	-5.744	-17.910	-22.551	-88.678	20.446	41.410	-89.260	-84.389	170.706	56.748	-84.898	-80.594	-80.009	-75.488	2.109	-76.209	-8191	255	
1394.612	1	1	0	0	0.10974	0.098886	0.32583	0.17033	0.15231	0.19356	0.21254	0.38307	0.10203	0.16045	0.14577	0.12008	0.15052	0.079047	0.11569	0.088756	-2.1708	-2.6063	-2.9437	-2.6521	-2.7667	-2.9896	-2.8542	-2.9	-2.6646	-2.3646	-2.9813	-2.6729	-2.825	-2.9875	-2.5958	-2.9146	10.124	250.196	212.538	81.294	232.269	153.122	188.060	214.505	19.286	-95.467	181.419	45.581	72.930	107.632	76.044	73.129	0.00053895	0.0005079	0.00017067	1387.3	1.9806e-06	3.3016e-06	1381	371.52	9.5084e-06	1.0902e-05	425.01	141.18	123.47	41.813	9.6551e-06	51.848	0.00065638	0.00061336	0.00015598	1415.8	7.1e-06	6.537e-06	1400.6	379.54	7.0484e-06	6.6502e-06	431.93	145.32	126.47	43.119	6.5571e-06	53.693	5.441	-10.759	-8.845	-89.026	-17.744	74.750	-89.293	-84.580	-9.720	24.340	-84.919	-80.543	-79.805	-75.363	70.402	-76.360	-8191	255	
1394.684	1	1	0	0	0.22851	0.052462	0.12742	0.1331	0.20216	0.17464	0.17357	0.40112	0.32455	0.068736	0.25266	0.16893	0.31524	0.1543	0.14045	0.31002	-2.3312	-2.6521	-3.0417	-2.5417	-2.8042	-2.9917	-2.7292	-3.0583	-2.7646	-2.4792	-3.0292	-2.675	-2.9958	-3.0062	-2.4708	-2.8771	167.457	202.278	241.846	98.164	240.643	247.084	187.386	201.136	-102.423	200.527	245.404	119.572	165.561	254.457	12.676	233.878	0.00038232	0.00069835	0.00014769	1385.5	4.1636e-06	4.7598e-06	1383.3	370.93	7.4773e-06	6.9412e-06	422.61	141.13	123.17	41.81	3.3584e-06	51.956	0.00063651	0.00060541	0.00016591	1417.6	7.0265e-06	6.5169e-06	1402	379.75	6.862e-06	6.618e-06	432.8	145.39	126.19	43.103	6.8737e-06	53.914	-1.713	-40.220	38.844	-88.669	81.792	50.870	-89.080	-84.569	-78.950	52.812	-85.073	-80.519	-80.066	-75.493	-49.392	-76.303	-8191	255	
1394.804	1	1	0	0	0.10812	0.1678	0.24238	0.11512	0.36305	0.25783	0.38313	0.25492	0.18895	0.14165	0.3865	0.29142	0.24679	0.20795	0.15846	0.21132	-2.4854	-2.3833	-2.975	-2.6854	-2.8208	-3.2354	-2.6458	-2.9667	-2.7854	-2.4646	-2.9917	-2.6771	-2.5896	-3.0104	-2.5187	-2.8187	-58.982	78.381	-64.137	-47.499	113.882	208.479	226.096	157.074	116.409	218.129	193.040	-83.011	227.824	235.712	240.848	215.335	0.00043307	0.00027482	0.00026365	1381.9	3.1203e-06	1.5059e-06	1382.8	371.28	1.1642e-06	5.3561e-06	423.25	141.38	123.09	41.967	3.1889e-06	51.789	0.00061747	0.00059389	0.00017606	1417.1	6.8825e-06	6.4093e-06	1403.6	379.92	6.7138e-06	6.5955e-06	433.85	145.24	126.26	43.189	7.2504e-06	53.69	-16.098	-7.394	27.061	-89.065	87.006	62.074	-89.212	-84.466	238.279	51.025	-85.140	-80.609	-80.010	-75.590	84.148	-76.318	-8191	255	
1394.900	1	1	0	0	0.25274	0.080691	0.057583	0.18181	0.1542	0.19163	0.089285	0.40403	0.17112	0.067128	0.19669	0.17812	0.23358	0.13366	0.076648	0.1334	-2.3979	-2.5021	-2.8542	-2.8458	-2.6292	-2.9125	-2.8	-2.9167	-2.9354	-2.3833	-2.9604	-2.7625	-2.5125	-2.925	-2.5938	-2.55	-89.965	95.496	108.798	143.965	103.328	225.263	233.240	201.210	-98.004	-97.279	142.700	247.082	135.264	191.841	223.497	230.255	0.00040175	0.00053076	0.00013437	1386.6	4.5067e-06	6.5196e-06	1384.2	371.53	2.7128e-06	4.0092e-06	425.9	141.17	122.94	41.861	6.7331e-06	51.944	0.0006006	0.00059041	0.00018186	1413.7	6.6549e-06	6.2639e-06	1405.7	379.5	6.3541e-06	6.485e-06	434.97	145	125.93	43.124	7.3964e-06	53.623	-18.057	-61.793	15.727	-89.059	15.378	42.976	-89.206	-84.413	32.515	-38.586	-84.980	-80.846	-80.184	-75.456	-11.533	-76.262	-8191	255	
1394.997	1	1	0	0	0.22786	0.09934	0.19603	0.19338	0.065589	0.11606	0.3313	0.19359	0.1206	0.058948	0.43462	0.27927	0.21606	0.22627	0.24047	0.11072	-2.4083	-2.5146	-2.6937	-2.7313	-2.4208	-2.9625	-2.7979	-2.925	-2.9021	-2.5042	-3.0083	-2.8542	-2.5521	-3.0583	-2.7146	-2.6729	-68.742	-23.876	25.762	-92.325	-12.010	15.104	146.000	203.287	-12.852	-22.822	-64.514	247.701	214.306	144.314	-65.924	-73.623	0.00035426	0.00032968	2.715e-05	1384.5	4.1789e-06	1.9672e-06	1384.4	372.12	4.052e-06	4.7622e-06	424.2	140.98	122.59	41.936	1.0207e-05	51.826	0.00058654	0.00061496	0.00018982	1412.4	6.614e-06	6.8113e-06	1407.7	379.73	6.4321e-06	7.0468e-06	434.62	144.8	125.97	43.329	7.303e-06	53.649	-6.466	-55.603	-72.967	-89.310	62.858	128.665	-89.130	-84.420	-96.502	24.291	-84.911	-80.915	-80.107	-75.628	21.627	-76.320	-8191	255	
1395.093	1	1	0	0	0.20472	0.050091	0.28491	0.22577	0.20294	0.15108	0.45775	0.20042	0.257	0.42505	0.1497	0.16833	0.091457	0.028934	0.18565	0.078883	-2.4208	-2.3458	-2.6833	-2.8667	-2.4417	-3.0187	-2.7583	-2.9333	-2.95	-2.6292	-2.8958	-3.0563	-2.6437	-2.8667	-2.475	-2.6021	230.376	118.120	3.884	245.776	203.912	-12.696	229.174	166.460	26.077	46.886	217.838	244.641	206.661	23.869	-39.570	55.469	0.00038452	0.00048018	8.4374e-05	1386.8	3.1722e-06	1.4785e-06	1382.8	371.33	6.3402e-06	3.1982e-06	423.71	141.66	123.26	41.791	5.3056e-06	51.841	0.00057409	0.0006532	0.0001827	1409.7	6.3821e-06	7.0302e-06	1404.5	378.67	6.0687e-06	7.0732e-06	433.05	144.63	125.78	43.296	6.7171e-06	53.336	-24.909	156.670	-80.471	-89.219	2.689	54.735	-89.181	-84.426	257.445	62.761	-84.908	-80.613	-79.983	-75.532	91.821	-76.197	-8191	255	
1395.212	1	1	0	0	0.15448	0.10047	0.18465	0.14047	0.17897	0.094618	0.199	0.12126	0.093648	0.099141	0.20724	0.18947	0.13587	0.10139	0.013673	0.17425	-2.6271	-2.4333	-2.5979	-3.0146	-2.3521	-2.8979	-2.9979	-2.6854	-3.125	-2.7062	-2.8688	-3.1188	-2.5958	-2.75	-2.7313	-2.6229	169.221	193.965	-29.912	223.730	152.371	172.154	156.041	169.509	67.490	-52.286	124.039	-96.995	170.151	236.188	-39.633	238.048	0.0006125	0.00034133	0.00020088	1380.9	1.8156e-06	2.4906e-06	1375.9	372.5	6.178e-06	3.8833e-06	423.82	140.82	122.75	41.98	2.9461e-06	51.861	0.00056289	0.00065429	0.0001716	1400.1	6.3505e-06	7.0981e-06	1399.6	378.7	6.315e-06	7.0796e-06	432.71	144.17	126.01	43.281	6.3706e-06	53.418	-14.943	77.974	-43.091	-88.872	91.912	20.616	-89.211	-84.615	173.625	78.367	-84.771	-80.705	-80.103	-75.643	-1.773	-75.951	-8191	255	
1395.285	1	1	0	0	0.088826	0.10856	0.15289	0.20371	0.27949	0.19317	0.29111	0.1822	0.078593	0.1342	0.23905	0.38369	0.2577	0.17895	0.26316	0.26702	-2.5271	-2.7208	-2.6854	-2.9604	-2.6542	-2.8063	-2.9354	-2.6521	-2.9896	-2.6854	-2.7438	-3.1604	-2.6542	-3.0729	-2.825	-2.5958	-96.529	109.936	-85.879	243.204	124.175	177.735	-101.690	167.779	135.285	113.953	182.263	133.871	171.459	-35.778	235.919	153.560	0.00057522	0.00032968	0.00016123	1381.7	3.3983e-06	5.1146e-06	1374.3	372.2	4.6962e-06	5.7619e-06	422.09	141.14	122.57	42.065	7.7941e-06	51.745	0.00057935	0.00062498	0.00016031	1391.9	6.4356e-06	6.6257e-06	1394.8	377.75	6.3708e-06	6.527e-06	430.47	143.87	125.84	43.25	6.0825e-06	53.218	-14.309	-21.648	-6.924	-89.142	39.135	65.214	-89.318	-84.575	170.047	26.130	-84.973	-80.501	-79.986	-75.568	42.121	-76.172	-8191	255	
1395.381	1	1	0	0	0.12775	0.18137	0.11318	0.14732	0.09317	0.12766	0.19495	0.16769	0.14538	0.042465	0.21711	0.21484	0.14697	0.12894	0.23719	0.27893	-2.4771	-2.6646	-2.6271	-3.1229	-2.7708	-2.8521	-3.2292	-2.8083	-2.8292	-2.8063	-2.6688	-3.2438	-2.8187	-2.8167	-2.7292	-2.5354	190.709	35.951	150.600	140.919	218.117	221.223	224.901	235.863	28.554	101.717	-102.347	124.498	160.837	184.804	195.218	111.957	0.00064879	0.00038483	0.00023779	1378.3	2.7971e-06	3.865e-06	1379	371.82	4.4234e-06	6.1385e-06	423.12	141.11	122.49	42.016	6.2476e-06	51.913	0.00060499	0.00060481	0.00015856	1393.5	6.9101e-06	6.7363e-06	1395.5	378.16	6.9707e-06	6.6717e-06	431.44	144.26	126	43.227	6.2045e-06	53.4	-26.436	44.858	-41.500	-88.931	129.371	76.747	-89.336	-84.607	235.974	28.077	-84.987	-80.602	-80.023	-75.548	37.898	-76.217	-8191	255	
1395.477	1	1	0	0	0.060695	0.13354	0.16196	0.07835	0.20643	0.09755	0.24723	0.11691	0.18716	0.16082	0.15589	0.16452	0.1588	0.096977	0.17129	0.37339	-2.3	-2.8479	-2.4562	-2.8688	-2.675	-2.7104	-3.0479	-2.8771	-2.6771	-2.9604	-2.4479	-3.0896	-2.6708	-2.7583	-2.9896	-2.7375	-50.701	-56.366	137.860	148.208	239.244	212.384	226.857	246.022	-56.797	30.372	-84.095	197.574	-27.057	85.311	39.458	183.689	0.00048361	0.00087328	0.00019184	1379.4	4.0051e-06	4.206e-06	1383.6	371.32	5.0134e-06	6.1863e-06	424.2	140.99	122.62	41.961	4.0294e-06	51.566	0.00064596	0.00060709	0.00016137	1403.9	7.2106e-06	6.7701e-06	1398.5	378.91	7.2919e-06	6.6278e-06	432.19	144.72	126.41	43.271	6.1786e-06	53.546	-6.047	-9.533	-13.249	-88.918	81.882	60.779	-89.210	-84.536	-6.090	81.250	-84.873	-80.614	-80.050	-75.491	-50.714	-76.335	-8191	255	
1395.596	1	1	0	0	0.32354	0.25128	0.16354	0.062834	0.33113	0.29454	0.1305	0.19123	0.17189	0.10787	0.27828	0.13364	0.13785	0.26879	0.11154	0.14733	-2.3187	-2.8104	-2.5396	-2.9938	-2.7313	-2.5792	-3.2417	-2.8812	-2.7229	-3.0438	-2.6292	-3.0938	-2.8792	-2.5875	-2.875	-2.7125	248.019	221.007	82.636	254.137	62.544	-59.593	189.866	155.965	-14.410	255.929	231.554	257.203	-84.218	214.902	66.942	190.450	0.00051724	0.0004637	0.00019174	1375.8	4.1471e-06	5.7235e-06	1377.7	372.73	5.8388e-06	9.5295e-06	422.42	141.48	122.64	41.867	7.8608e-06	51.886	0.00066365	0.00061409	0.00016428	1413.8	7.2288e-06	6.8531e-06	1398.1	380.61	7.4072e-06	6.7306e-06	432.19	145.36	126.3	43.278	6.514e-06	53.848	-9.812	34.049	-55.972	-88.925	78.035	41.466	-89.328	-84.577	-29.470	53.039	-84.845	-80.744	-80.060	-75.710	157.405	-76.212	-8191	255	
1395.692	1	1	0	0	0.1343	0.08882	0.30222	0.25964	0.16543	0.31594	0.40316	0.39931	0.036932	0.11668	0.034309	0.24207	0.19423	0.050273	0.1659	0.27854	-2.2854	-2.7292	-2.4188	-2.9479	-2.7979	-2.4938	-3.0875	-2.7521	-2.6833	-2.7812	-2.6292	-3.0729	-2.9271	-2.5042	-2.9583	-2.7333	220.945	-82.456	-36.231	-25.938	-88.001	-38.384	203.939	181.507	25.707	5.143	212.177	-57.244	215.560	72.997	-72.657	127.677	0.00054621	0.00081656	0.00021221	1386	3.4711e-06	6.8832e-06	1379.6	371.54	5.6819e-06	4.0229e-06	424.28	141.3	123.01	42.026	7.2768e-06	51.889	0.00066134	0.00060953	0.00017248	1422	7.1609e-06	6.8323e-06	1400.9	380.68	7.1804e-06	6.6395e-06	434.03	145.57	126.29	43.277	6.9278e-06	53.948	-5.589	-12.841	-24.033	-88.894	29.777	-32.292	-89.252	-84.672	-21.039	2.339	-85.039	-80.832	-80.224	-75.563	248.183	-76.052	-8191	255	
1395.788	1	1	0	0	0.065362	0.13659	0.14657	0.32642	0.069569	0.28872	0.31318	0.31441	0.1822	0.026188	0.15846	0.25068	0.27526	0.074947	0.21088	0.22066	-2.1063	-3.0021	-2.5458	-2.5896	-2.7375	-2.6042	-3.1188	-2.9146	-2.6729	-2.9667	-2.6229	-3.0104	-2.9604	-2.7167	-2.9375	-2.6854	-95.819	-27.259	44.363	-93.318	-1.063	235.639	211.810	198.054	185.004	207.449	-98.059	227.924	186.352	-88.411	-14.950	236.168	0.00041205	0.00054285	8.5217e-05	1385.8	2.5324e-06	1.4959e-06	1380.1	373.87	7.0523e-06	4.8235e-06	423.86	140.98	122.94	42.046	2.7345e-06	52.067	0.00064999	0.00059975	0.0001825	1424.2	7.0556e-06	6.7414e-06	1403.2	381.32	7.1196e-06	6.5871e-06	434.63	145.5	126.31	43.333	7.3757e-06	53.897	-22.449	-18.344	-40.624	-89.281	48.009	35.802	-89.257	-84.606	17.015	93.853	-84.861	-80.570	-80.020	-75.442	-22.775	-76.223	-8191	255	
1395.885	1	1	0	0	0.18526	0.0292	0.02306	0.049505	0.36132	0.15051	0.27183	0.3302	0.29406	0.20271	0.13473	0.47767	0.20236	0.20492	0.2356	0.18976	-2.1	-3.0042	-2.5396	-2.7938	-2.9104	-2.4375	-2.9875	-2.9062	-2.675	-2.7917	-2.8167	-2.9521	-3.1229	-2.5833	-2.8604	-2.8917	-25.385	-14.118	-56.348	211.233	64.809	163.298	202.429	-84.764	-95.008	75.706	-82.289	230.112	226.357	24.592	170.126	226.858	0.00054861	0.00067454	0.00017752	1387.7	8.6281e-06	4.1027e-06	1379.4	374.12	5.1705e-06	7.7159e-06	424.79	141.3	123.26	42.085	4.4673e-06	51.824	0.00064065	0.00059817	0.00019052	1422.8	6.8517e-06	6.698e-06	1406.3	381.19	6.9063e-06	6.6145e-06	435.25	145.4	126.14	43.3	7.5604e-06	53.672	-7.400	-12.349	248.598	-88.652	56.369	45.832	-89.121	-84.475	53.331	71.679	-84.966	-80.664	-80.001	-75.378	162.003	-76.116	-8191	255	
1395.981	1	1	0	0	0.15512	0.10249	0.14064	0.30561	0.089829	0.092442	0.070673	0.46168	0.075277	0.30977	0.309	0.23939	0.19109	0.30251	0.13668	0.13897	-2.0833	-2.9833	-2.4958	-2.7979	-3.0312	-2.5375	-3.1896	-2.925	-2.5187	-2.8667	-2.9083	-2.7229	-3.0542	-2.6208	-3.0062	-2.9354	-71.425	-18.211	85.601	199.756	-3.267	21.051	164.453	213.033	25.431	55.456	192.647	-91.540	94.787	225.931	245.482	218.871	0.00040278	0.00031802	0.00022513	1378.2	4.7765e-06	3.3517e-06	1374.2	372.74	5.8885e-06	5.1036e-07	425.79	140.96	122.78	41.901	4.2609e-06	52.124	0.00062052	0.00061945	0.00019455	1415	6.5542e-06	6.9173e-06	1404	380.1	6.7811e-06	6.9382e-06	435.52	145.16	125.9	43.431	7.6644e-06	53.716	-5.834	7.254	-21.719	-89.076	76.672	23.609	-89.227	-84.399	43.129	-44.117	-85.085	-80.537	-79.997	-75.388	105.267	-76.378	-8191	255	
1396.077	1	1	0	0	0.1413	0.2569	0.47981	0.21929	0.14997	0.086494	0.19993	0.18306	0.36608	0.22311	0.16647	0.082874	0.15558	0.17557	0.17091	0.13288	-1.9271	-2.5521	-2.6167	-2.6021	-3.0687	-2.5896	-2.8292	-3.125	-2.4562	-2.8125	-2.8083	-2.6063	-2.8438	-2.6854	-2.7125	-3.0563	126.820	-6.222	-40.932	-69.817	116.004	251.260	217.889	251.894	17.503	96.649	213.623	207.761	245.171	220.380	-39.192	81.844	0.0004529	0.00053204	5.3795e-05	1371.5	2.7535e-06	3.858e-06	1388.5	372.82	2.6597e-06	9.6647e-06	425.94	141.59	123.44	42.008	6.7117e-06	51.906	0.00061286	0.00066779	0.00019342	1417.8	6.6249e-06	7.6036e-06	1411.1	380.44	6.9639e-06	7.6944e-06	436.27	145.47	126.47	43.679	7.9731e-06	53.791	10.383	26.992	-69.624	-89.017	147.583	92.454	-89.108	-84.673	-63.153	41.399	-85.097	-80.615	-79.971	-75.705	62.158	-76.349	-8191	255	
1396.198	1	1	0	0	0.19432	0.22119	0.20748	0.18046	0.11527	0.19923	0.31247	0.28462	0.22773	0.057288	0.16047	0.19487	0.20842	0.13861	0.29616	0.32812	-2.0667	-2.9229	-2.5458	-2.4021	-2.9813	-2.5187	-2.6208	-3.0792	-2.5312	-2.8521	-2.8438	-2.5312	-2.9729	-2.6917	-2.5229	-2.9437	199.844	-48.619	241.011	206.030	202.736	222.864	204.286	139.792	223.357	63.617	12.438	233.517	157.821	-73.106	49.304	175.564	0.00045185	0.00040557	0.00030075	1390.2	1.9752e-06	3.89e-06	1387.9	372.77	4.1161e-06	1.9684e-06	426.35	142.48	123.56	42.165	4.8958e-06	52.189	0.0006781	0.00076566	0.00020603	1428.3	7.5358e-06	8.8012e-06	1414.9	381.99	8.011e-06	8.9758e-06	438.71	146.56	127.67	43.989	8.3311e-06	54.144	-5.152	-20.853	18.538	-89.150	150.862	167.592	-89.274	-84.382	8.984	208.486	-84.922	-80.634	-80.083	-75.644	88.056	-76.366	-8191	255	
1396.294	1	1	0	0	0.24945	0.15891	0.076941	0.37724	0.17236	0.16971	0.080245	0.36264	0.11026	0.24815	0.20919	0.16934	0.26177	0.29222	0.34856	0.4709	-1.9562	-2.7146	-2.7417	-2.4625	-2.9896	-2.6	-2.8167	-3.1167	-2.4833	-2.8896	-2.9604	-2.5312	-3.0021	-2.8083	-2.7062	-3.0417	92.542	117.105	122.581	211.658	11.034	189.794	74.791	186.346	39.954	143.568	208.999	249.008	184.344	256.145	167.566	227.493	0.00044358	0.0011167	0.00014045	1391.6	1.5115e-06	7.6847e-06	1390.8	373.91	3.8351e-06	4.2806e-06	427.19	142.34	124.2	42.111	1.5768e-06	52.02	0.00073495	0.00080424	0.00020416	1428.1	7.9616e-06	8.5161e-06	1416.2	382.68	7.9465e-06	8.2258e-06	437.51	146.14	127.55	43.834	7.5471e-06	53.889	-17.938	-43.675	-47.928	-88.938	-87.067	73.940	-89.162	-84.631	20.714	31.217	-84.827	-80.650	-80.208	-75.438	-46.791	-76.137	-8191	255	
1396.388	1	1	0	0	0.46406	0.24611	0.039718	0.45311	0.22419	0.096534	0.13094	0.37479	0.13411	0.043585	0.44177	0.11796	0.030591	0.28296	0.13329	0.37299	-2.1292	-2.6958	-2.9	-2.3688	-2.9521	-2.8229	-2.8063	-3.0792	-2.4625	-2.7646	-2.9813	-2.5438	-2.9021	-2.8187	-2.5542	-3.1917	118.919	177.880	92.981	175.065	24.746	38.998	189.840	238.733	132.407	130.557	199.327	218.977	-23.160	178.820	-53.905	230.946	0.000564	0.00038092	0.00020132	1394.5	4.9729e-06	6.6794e-06	1386.8	374.73	5.5951e-06	4.0067e-06	427.65	141.58	123.35	42.29	4.2115e-06	52.294	0.00072854	0.00073494	0.00018899	1426.1	8.0915e-06	7.9805e-06	1413.5	382.5	8.3641e-06	8.1109e-06	437.05	146.14	127.85	43.795	7.6036e-06	54.063	-9.701	-36.779	-27.074	-89.214	46.676	45.179	-89.398	-84.526	171.907	47.876	-84.973	-80.802	-80.010	-75.671	-24.924	-76.336	-8191	255	
1396.486	1	1	0	0	0.091476	0.17094	0.1476	0.053568	0.22637	0.038357	0.24514	0.16477	0.21733	0.14177	0.23794	0.36335	0.27726	0.29468	0.13888	0.13051	-2.1021	-2.7333	-2.9458	-2.5479	-2.8667	-2.7896	-2.6333	-3.1083	-2.5729	-2.6	-3.1437	-2.6604	-2.8417	-2.7333	-2.4938	-3.0958	249.996	128.214	196.648	65.677	162.072	257.045	196.962	-84.862	102.710	135.418	241.229	223.220	-88.290	110.989	-87.450	-7.217	0.00037414	0.00059137	0.00026034	1392.2	5.7624e-06	5.551e-06	1393.1	373.28	4.7928e-06	8.3708e-06	426.8	141.45	123.87	42.183	4.7466e-06	51.988	0.000774	0.00074548	0.00018992	1436.5	8.5854e-06	7.9179e-06	1416.7	383.01	8.6011e-06	7.966e-06	436.54	146.29	127.86	43.722	7.2984e-06	54.127	-2.056	-57.953	-14.666	-89.120	32.773	-15.446	-89.188	-84.633	32.582	54.202	-85.125	-80.767	-80.211	-75.670	39.435	-76.169	-8191	255	
1396.580	1	1	0	0	0.12071	0.12073	0.20742	0.20013	0.18669	0.021446	0.0866	0.11319	0.16278	0.14753	0.010932	0.21481	0.22135	0.35772	0.11239	0.069637	-2.0792	-2.5104	-2.9167	-2.4854	-2.8167	-2.9938	-2.6521	-3.1042	-2.6667	-2.625	-2.9021	-2.7917	-2.9458	-2.9417	-2.6396	-2.9938	196.730	27.144	52.009	191.619	143.027	-83.338	208.213	146.821	-25.595	8.991	-56.431	240.386	235.995	225.643	-19.352	164.194	0.00058732	0.00017577	0.00020735	1389.5	6.9475e-06	7.6797e-06	1385.1	374.24	4.5078e-06	7.5418e-06	425.02	141.7	123.8	42.048	5.9427e-06	52.1	0.00074347	0.00070268	0.00017747	1436.5	8.0454e-06	7.2583e-06	1411.2	382.68	7.6562e-06	7.1601e-06	433.95	145.98	127.19	43.326	6.6207e-06	53.896	-13.908	252.596	5.408	-89.043	54.059	57.489	-88.994	-84.420	-36.415	23.847	-85.139	-80.771	-80.043	-75.552	42.914	-76.423	-8191	255	
1396.677	1	1	0	0	0.081384	0.090114	0.12718	0.18109	0.075125	0.099733	0.14856	0.41395	0.2382	0.12223	0.16963	0.15566	0.20648	0.055025	0.061441	0.27361	-2.1854	-2.4792	-2.9729	-2.675	-2.6813	-3.0208	-2.6979	-3.0687	-2.6667	-2.3792	-3.1542	-2.75	-2.9021	-3.0667	-2.5458	-2.9042	131.396	104.349	31.955	196.291	205.331	18.721	197.587	208.064	34.624	142.641	158.658	200.587	-76.336	49.460	190.403	-67.169	0.00065115	0.00053282	8.589e-05	1382.7	8.5072e-06	3.3353e-06	1374.4	374.28	8.4017e-06	6.7444e-06	424.91	141.04	123.12	42.01	4.4844e-06	51.926	0.00064679	0.00061354	0.000161	1419.2	6.9291e-06	6.3005e-06	1402.3	381.12	6.6766e-06	6.408e-06	432.18	145.35	126.24	43.103	6.4635e-06	53.733	-2.100	-31.892	-6.985	-89.055	61.164	49.920	-89.187	-84.406	-14.285	26.989	-84.918	-80.752	-80.003	-75.416	13.808	-76.122	-8191	255	
1396.773	1	1	0	0	0.11058	0.10574	0.051302	0.19638	0.20845	0.15319	0.40515	0.10948	0.093376	0.18333	0.088352	0.3134	0.058195	0.17233	0.18259	0.35573	-2.4	-2.5812	-2.9354	-2.7354	-2.8542	-3.0771	-2.8708	-3.0438	-2.9188	-2.5312	-2.95	-2.7062	-2.8104	-3.0417	-2.5438	-2.8083	36.479	-50.800	-68.114	50.075	102.818	165.127	200.902	253.503	170.105	-11.410	-39.374	217.877	222.913	74.076	107.854	115.860	0.00044652	0.00089533	6.9571e-05	1376.2	2.2562e-06	4.2902e-06	1376.5	371.62	2.8318e-06	9.1456e-06	423.83	141.58	123.56	41.981	7.1729e-06	51.871	0.00059222	0.00057324	0.00016339	1410.2	6.5554e-06	6.0745e-06	1401	380.08	6.5091e-06	6.2287e-06	432.77	145.58	126.28	43.127	6.9205e-06	53.708	-9.953	-10.908	99.547	-88.822	26.025	56.997	-89.399	-84.555	-5.618	27.967	-85.073	-80.726	-80.039	-75.595	37.360	-76.379	-8191	255	
1396.893	1	1	0	0	0.25887	0.21892	0.14297	0.1004	0.18107	0.13855	0.51123	0.31178	0.27228	0.062588	0.19284	0.14664	0.15501	0.35822	0.27944	0.15036	-2.4229	-2.3583	-2.8438	-2.5229	-2.5333	-3.0146	-2.7625	-2.8875	-2.9896	-2.5229	-2.9083	-2.9917	-2.5667	-3.0729	-2.7646	-2.6937	232.740	242.452	-18.007	108.089	171.298	-5.454	154.059	237.814	211.480	248.856	-51.899	163.589	257.188	237.982	76.337	89.621	0.00058013	0.00022975	3.1629e-05	1382.5	5.5555e-06	5.3614e-06	1386.6	374.54	3.6041e-06	6.1906e-06	425.08	141.05	123.21	42.069	1.4481e-06	51.974	0.00059006	0.0005773	0.00017695	1411.2	6.5685e-06	6.1487e-06	1403.9	380.98	6.39e-06	6.3667e-06	434.36	144.93	126.17	43.186	7.1803e-06	53.656	-15.680	-72.859	22.741	-89.151	-57.621	52.981	-89.006	-84.556	135.580	6.582	-85.206	-80.711	-80.061	-75.567	170.789	-76.091	-8191	255	
1396.989	1	1	0	0	0.24786	0.14563	0.28776	0.090125	0.14212	0.16359	0.01796	0.042919	0.15791	0.37801	0.12284	0.29984	0.31026	0.26821	0.23566	0.23873	-2.5917	-2.4292	-2.9458	-2.8688	-2.4729	-2.9208	-2.6562	-2.6917	-3.1063	-2.5396	-3.0854	-2.8958	-2.7292	-3.0958	-2.7062	-2.6625	96.476	111.409	232.770	243.062	7.746	-34.175	187.816	159.352	151.543	-10.273	251.941	201.898	-70.301	197.289	44.906	150.268	0.00046087	0.0005291	7.2555e-05	1385.5	7.0807e-06	2.6753e-06	1381.2	372.45	4.9691e-06	3.1224e-06	423.06	141.25	123.04	42.187	4.0423e-06	51.869	0.00057715	0.00058828	0.0001845	1411	6.4494e-06	6.4088e-06	1404	379.72	6.3204e-06	6.7404e-06	434.83	144.76	126.07	43.34	7.2725e-06	53.637	-9.189	10.161	3.569	-88.821	60.381	160.574	-89.077	-84.467	-45.021	134.369	-85.003	-80.664	-80.299	-75.540	70.523	-76.231	-8191	255	
1397.086	1	1	0	0	0.09479	0.051197	0.042358	0.072301	0.052887	0.074852	0.27749	0.11494	0.18351	0.24462	0.16128	0.25329	0.065065	0.15706	0.10013	0.069263	-2.5375	-2.5187	-2.8646	-2.9292	-2.4667	-2.875	-3.0521	-2.8063	-3.0375	-2.6917	-2.9333	-3.0229	-2.7062	-2.9083	-2.725	-2.6125	208.796	99.319	11.642	192.526	172.490	139.614	238.635	96.720	-50.813	244.397	-100.078	219.665	247.440	208.329	-87.771	249.988	0.00037426	0.00027139	0.00021565	1390.9	5.8032e-06	3.0697e-06	1387.1	372.74	2.7974e-06	3.7102e-06	425.24	141.57	122.72	41.972	2.1466e-06	51.756	0.00057424	0.00064364	0.00018828	1414.1	6.5203e-06	7.1072e-06	1406.6	380.09	6.4511e-06	7.3438e-06	435.67	145.06	125.99	43.439	7.2767e-06	53.57	0.489	39.449	-29.562	-89.024	37.324	130.562	-89.266	-84.436	-66.540	79.609	-85.258	-80.484	-80.318	-75.569	120.441	-76.268	-8191	255	
1397.157	1	1	0	0	0.1297	0.1252	0.11253	0.068424	0.12599	0.14785	0.2079	0.27633	0.1053	0.26884	0.1189	0.28066	0.33901	0.12399	0.18797	0.13084	-2.3667	-2.3646	-2.6625	-2.8833	-2.4771	-2.9875	-2.9083	-2.6771	-3.1333	-2.575	-2.6708	-3.0062	-2.5021	-3.0312	-2.8208	-2.7562	17.513	-72.194	81.002	111.224	118.651	242.841	234.913	174.645	109.335	-48.949	210.035	163.276	233.549	235.314	103.807	234.683	0.00061029	0.00056451	0.00019034	1380.9	4.2518e-06	3.8446e-06	1381.2	373.9	6.499e-06	1.57e-06	424.79	141.01	122.57	42.022	8.781e-06	51.948	0.00058621	0.00068267	0.00018516	1410.5	6.7031e-06	7.4849e-06	1405	380.61	6.6097e-06	7.549e-06	434.46	144.69	126.25	43.482	7.0068e-06	53.534	-1.611	-53.057	-32.380	-89.218	31.848	11.871	-89.195	-84.309	-57.639	69.531	-84.969	-80.644	-79.897	-75.526	31.804	-76.557	-8191	255	
1397.278	1	1	0	0	0.37842	0.1988	0.13617	0.12737	0.15586	0.33649	0.3987	0.26612	0.18458	0.20627	0.16484	0.34732	0.21263	0.13949	0.20202	0.18937	-2.475	-2.6437	-2.5938	-3.0146	-2.5521	-2.8312	-3.0771	-2.6813	-3.0271	-2.7125	-2.6854	-3.0938	-2.7438	-2.8979	-2.8479	-2.4437	-55.131	-79.576	-102.275	132.695	21.955	-16.909	182.066	201.858	89.681	-28.712	-82.446	209.914	240.486	-46.253	198.189	138.280	0.00052353	0.00025909	6.1275e-05	1382.1	4.9788e-06	3.7173e-06	1379.4	373.63	6.2064e-06	4.4432e-06	423.59	141.63	122.96	42.08	5.79e-06	52.048	0.00061921	0.00069368	0.00017962	1406.5	7.0335e-06	7.508e-06	1403	380.38	6.9787e-06	7.4432e-06	434.19	144.79	126.45	43.446	6.7375e-06	53.497	-21.541	47.502	26.513	-88.877	146.243	16.468	-89.185	-84.545	-56.518	-22.534	-84.857	-80.662	-80.055	-75.551	29.022	-76.192	-8191	255	
1397.374	1	1	0	0	0.18397	0.24927	0.097528	0.15728	0.35887	0.029263	0.088889	0.1844	0.24073	0.10932	0.29452	0.14964	0.12008	0.073993	0.056083	0.13132	-2.5187	-2.6104	-2.5771	-3.0938	-2.6167	-2.5729	-3.2104	-2.6625	-2.8187	-2.7917	-2.7	-3.05	-2.6292	-2.8958	-2.8708	-2.7896	39.112	197.061	235.464	79.348	40.957	105.939	137.837	173.318	-47.096	-0.265	220.301	161.927	242.797	-73.913	172.352	85.194	0.00063632	0.00059716	5.6663e-05	1386.8	2.0582e-06	5.7449e-06	1377.7	373.26	2.8385e-06	5.5315e-06	425.73	141.3	122.8	41.977	7.4259e-06	51.878	0.00065133	0.0006704	0.00017533	1405.7	7.3385e-06	7.3333e-06	1402.3	380.02	7.3867e-06	7.2244e-06	434.45	144.79	126.64	43.386	6.5454e-06	53.512	-13.930	-12.473	-50.335	-88.929	169.494	59.364	-89.231	-84.539	-101.484	118.085	-85.048	-80.567	-79.841	-75.283	64.071	-76.369	-8191	255	
1397.468	1	1	0	0	0.14593	0.089219	0.091538	0.094702	0.24576	0.081077	0.2885	0.25347	0.058509	0.050529	0.14547	0.34519	0.21186	0.11363	0.26697	0.12381	-2.3604	-2.7	-2.4417	-2.9958	-2.6854	-2.6458	-3.1917	-2.6167	-2.8937	-2.7396	-2.6292	-3.1167	-2.6979	-2.5604	-2.8583	-2.6729	202.614	-86.175	74.909	64.106	-82.305	-54.162	218.972	-86.793	125.573	65.559	181.072	197.201	198.490	245.040	43.161	110.146	0.00042413	0.00041441	0.00025755	1378.7	2.0959e-06	6.4813e-06	1379.8	372.21	2.1486e-06	9.0368e-06	424.06	141.49	123.09	41.92	2.796e-06	51.467	0.00066983	0.0006409	0.00016708	1405.8	7.3964e-06	6.9466e-06	1400.6	380	7.3846e-06	6.7715e-06	432.93	145	126.44	43.222	6.2168e-06	53.498	-1.575	9.388	-39.071	-88.987	19.715	7.352	-89.299	-84.609	-69.333	46.134	-85.021	-80.619	-80.173	-75.566	15.106	-76.491	-8191	255	
1397.566	1	1	0	0	0.27574	0.1144	0.11828	0.094575	0.15963	0.083822	0.15417	0.2277	0.38395	0.31388	0.46394	0.19342	0.37385	0.10064	0.19849	0.10531	-2.3812	-2.9125	-2.4479	-2.9875	-2.7396	-2.6396	-3.2083	-2.6917	-2.6021	-2.8542	-2.5521	-3.0521	-2.8125	-2.7313	-2.9479	-2.7583	170.962	208.282	14.589	-85.329	189.741	-24.842	206.304	160.657	121.153	31.633	182.301	110.256	224.591	-73.347	25.855	19.335	0.00036802	0.00033825	0.00013522	1382.1	5.1197e-06	5.9333e-06	1382.4	371.97	7.0921e-06	1.1798e-05	426.48	141.31	122.78	41.94	5.9175e-06	51.973	0.00066157	0.00060495	0.00016152	1411.2	7.1644e-06	6.6529e-06	1400.6	380.14	7.1564e-06	6.5671e-06	433.25	145.11	126.16	43.178	6.1556e-06	53.655	3.764	-50.191	-12.472	-89.008	73.982	44.529	-89.142	-84.549	-11.701	56.504	-85.037	-80.605	-80.033	-75.490	10.976	-76.306	-8191	255	
1397.685	1	1	0	0	0.054108	0.26989	0.23221	0.15925	0.1422	0.16908	0.47461	0.39284	0.06614	0.21677	0.077449	0.37535	0.12259	0.22277	0.14008	0.03687	-2.5458	-2.9229	-2.4896	-2.9646	-2.7979	-2.55	-3.0708	-2.8333	-2.8208	-2.8854	-2.6562	-2.7917	-2.9146	-2.5417	-2.9813	-2.6917	94.292	26.611	192.911	-85.008	155.363	-83.776	223.620	218.032	182.759	70.539	215.328	247.273	-64.027	-86.365	240.001	-98.396	0.00032118	0.00043694	0.00021289	1384	3.0052e-06	4.3713e-06	1378.3	372.56	7.5639e-06	3.8239e-06	424.79	141.6	123.03	41.626	1.1735e-06	51.809	0.00064275	0.00059449	0.0001627	1414.7	6.922e-06	6.5794e-06	1398.9	380.57	6.9036e-06	6.3691e-06	433.14	145.47	126.05	43.076	6.3686e-06	53.675	-30.082	15.898	47.136	-89.162	58.075	4.620	-89.146	-84.574	-24.885	69.016	-85.057	-80.489	-80.169	-75.401	235.239	-76.358	-8191	255	
1397.781	1	1	0	0	0.34914	0.12213	0.26655	0.133	0.18961	0.31911	0.22622	0.20523	0.24971	0.11815	0.27852	0.13708	0.073083	0.17328	0.020122	0.18445	-2.3271	-2.7354	-2.3563	-2.8875	-2.6417	-2.4771	-3.0354	-2.8104	-2.5667	-2.9375	-2.7792	-2.7313	-2.8187	-2.6042	-3.0583	-2.7562	139.732	15.965	-53.885	191.672	148.494	-95.979	197.446	122.772	237.204	-77.380	233.957	-97.748	176.750	180.719	136.067	92.986	0.00032827	0.00094907	0.00016449	1376.2	4.1912e-06	4.9727e-06	1383.1	370.89	4.487e-06	5.1813e-06	424.7	141.09	123.26	41.877	2.007e-06	51.872	0.00062678	0.00057545	0.00016799	1417	6.6736e-06	6.4238e-06	1401.4	380.36	6.8072e-06	6.2824e-06	433.79	145.21	126.21	43.144	6.818e-06	53.673	-1.165	3.817	-52.454	-89.026	39.982	32.899	-89.166	-84.436	-49.385	18.794	-85.027	-80.717	-79.781	-75.369	-18.632	-76.314	-8191	255	
1397.878	1	1	0	0	0.23132	0.024769	0.080934	0.10852	0.085099	0.087681	0.12356	0.15111	0.045514	0.17688	0.047645	0.086581	0.1558	0.2635	0.33286	0.26341	-2.1604	-2.8729	-2.4771	-2.7687	-3.0146	-2.4896	-3.1458	-2.9458	-2.5521	-2.8937	-2.7458	-2.9292	-3.0333	-2.6188	-3.0125	-2.8167	223.127	31.793	-67.097	132.053	-61.239	24.956	161.627	199.911	220.532	131.785	-14.565	242.801	240.996	141.130	215.668	182.927	0.00058629	0.00086814	0.00012233	1384.5	4.2792e-06	3.5606e-06	1380.5	372.91	8.4827e-06	4.163e-06	423	141.23	122.57	42.043	1.7384e-06	51.968	0.00060991	0.00056228	0.00017839	1418.4	6.4776e-06	6.3455e-06	1402.3	380.14	6.5963e-06	6.1979e-06	434.41	144.97	125.79	43.194	7.1556e-06	53.598	-13.927	-34.139	-5.185	-88.944	81.294	29.707	-89.164	-84.566	4.550	-6.749	-85.172	-80.535	-80.004	-75.373	47.205	-76.356	-8191	255	
1397.974	1	1	0	0	0.087418	0.16743	0.18001	0.18411	0.10355	0.18402	0.18817	0.25789	0.12265	0.19327	0.19617	0.031876	0.089999	0.32285	0.11304	0.10567	-2.075	-2.8333	-2.6208	-2.9	-2.8083	-2.75	-2.9271	-2.825	-2.3396	-3.0354	-2.8667	-2.7542	-2.9562	-2.5312	-2.9813	-2.9938	220.465	17.548	-4.520	-69.413	229.922	122.790	174.261	190.569	-3.180	122.443	185.768	253.536	32.175	-70.331	-72.774	194.328	0.00039489	0.00012266	3.4038e-05	1381.8	7.5604e-06	3.6479e-06	1379.8	371.95	1.0212e-05	4.0638e-06	423.59	141.39	122.92	41.799	4.3942e-06	51.992	0.00060144	0.00057986	0.00018521	1410.1	6.3914e-06	6.5065e-06	1403.9	379.46	6.4876e-06	6.5156e-06	434.12	144.83	125.79	43.25	7.28e-06	53.582	-35.148	-101.925	-39.661	-89.221	59.940	58.800	-89.243	-84.484	-32.440	123.102	-84.826	-80.655	-80.097	-75.611	32.642	-76.382	-8191	255	
1398.070	1	1	0	0	0.11521	0.13691	0.14772	0.2204	0.12448	0.23504	0.1184	0.2048	0.19881	0.109	0.13235	0.22716	0.1932	0.27651	0.051293	0.22833	-2.1042	-2.9667	-2.5312	-2.6333	-2.9667	-2.5708	-2.9417	-2.8896	-2.4813	-3.0042	-2.85	-2.6958	-2.9875	-2.5542	-2.7438	-2.9188	246.993	-9.345	18.244	198.441	141.974	76.277	249.392	233.162	224.055	127.383	-54.120	-57.668	-76.346	-65.945	134.686	143.774	0.00044256	9.2733e-05	0.00023545	1378.6	6.3785e-06	5.2787e-06	1379.1	371.72	6.1193e-07	1.7321e-06	424.52	141.52	122.86	42.076	2.7896e-06	51.867	0.000582	0.00061008	0.00018315	1407.7	6.1957e-06	6.941e-06	1402.2	379.16	6.437e-06	6.9716e-06	434.79	144.99	125.61	43.355	7.0466e-06	53.437	-28.536	188.138	-37.727	-88.904	67.992	77.168	-89.272	-84.518	106.914	58.605	-85.154	-80.736	-80.055	-75.605	-1.336	-76.371	-8191	255	
1398.166	1	1	0	0	0.35185	0.041168	0.070232	0.15787	0.16967	0.074302	0.0724	0.04273	0.073326	0.087867	0.11886	0.30504	0.26939	0.055101	0.097016	0.13287	-2.1646	-2.8354	-2.6646	-2.6125	-2.9458	-2.6479	-2.9688	-2.9979	-2.3187	-2.9437	-2.7167	-2.7625	-3.2167	-2.8292	-2.8583	-3.0542	-14.006	101.378	175.864	232.715	-35.077	33.313	198.475	-26.079	-47.284	77.998	0.942	227.466	210.626	121.597	-99.636	177.692	0.0004287	0.00036912	0.0001236	1380.5	2.254e-06	4.2437e-06	1378.2	373.45	3.2459e-06	5.1054e-06	425.32	141.35	123.08	42.008	5.4034e-06	51.745	0.00058311	0.00065226	0.00017682	1407.9	6.186e-06	7.2366e-06	1400.8	379.35	6.4336e-06	7.203e-06	433.66	144.8	125.95	43.461	6.8709e-06	53.348	-19.306	-18.359	-23.532	-88.825	151.346	27.807	-89.020	-84.536	165.268	23.681	-85.048	-80.729	-80.077	-75.450	34.531	-76.440	-8191	255	
1398.287	1	1	0	0	0.050097	0.097013	0.14886	0.10286	0.21821	0.26659	0.18224	0.25718	0.049535	0.26605	0.076447	0.25249	0.13466	0.15382	0.11378	0.19459	-2.0167	-2.8021	-2.6688	-2.55	-2.9521	-2.5979	-2.7313	-3.1208	-2.4417	-2.7771	-2.9854	-2.4188	-2.9833	-2.8208	-2.5083	-3.1167	-79.778	-23.178	250.782	17.202	-4.407	69.934	219.093	237.195	-1.216	167.943	64.782	-93.642	221.729	244.887	162.315	139.825	0.00057322	0.00047962	0.00010707	1372.6	2.6743e-06	1.009e-05	1381.1	370.86	3.3052e-06	5.6927e-06	424.96	141.43	122.52	41.791	6.1905e-06	51.834	0.00060003	0.00066603	0.00017023	1400.5	6.5377e-06	7.2603e-06	1401	378.69	6.8171e-06	7.3236e-06	433.25	144.42	125.87	43.363	6.6958e-06	53.383	-15.684	-19.884	-47.573	-89.042	3.882	7.461	-89.144	-84.415	-3.978	69.200	-85.081	-80.689	-79.859	-75.716	23.609	-76.543	-8191	255	
1398.381	1	1	0	0	0.26709	0.29199	0.17708	0.17959	0.24735	0.078425	0.056635	0.26806	0.12419	0.19522	0.20466	0.16307	0.17642	0.20056	0.22023	0.048659	-2.0042	-2.7687	-2.725	-2.5021	-2.8667	-2.6375	-2.7521	-3.0583	-2.5271	-2.7396	-3.0354	-2.7333	-3.0521	-2.7583	-2.5333	-3.1479	-44.252	-30.664	182.008	128.666	18.206	207.829	15.803	161.954	202.997	-0.041	237.947	252.415	222.094	245.258	199.364	230.748	0.00041761	0.00094991	0.00020285	1378.1	1.5505e-06	2.4239e-06	1378.7	373.04	1.9506e-06	8.3736e-06	424.35	141.85	122.92	42.125	5.4927e-06	51.823	0.00063778	0.00065657	0.00016604	1399.7	6.9897e-06	7.1387e-06	1399.2	379.68	7.2007e-06	7.0825e-06	433.07	144.79	126.49	43.414	6.6589e-06	53.401	-0.072	-4.605	-20.711	-88.573	161.772	36.185	-89.120	-84.651	-40.998	40.762	-85.195	-80.587	-80.041	-75.558	26.183	-76.062	-8191	255	
1398.453	1	1	0	0	0.26477	0.34866	0.10521	0.056295	0.19697	0.27945	0.38106	0.36947	0.15214	0.11121	0.068951	0.13215	0.23047	0.1505	0.21053	0.11212	-2.2042	-2.7542	-2.8438	-2.5479	-2.8208	-2.5521	-2.7167	-2.9146	-2.5896	-2.5563	-2.9729	-2.5875	-2.9167	-2.8625	-2.4938	-2.9562	-5.775	-55.975	-58.263	145.025	204.935	75.821	233.598	-99.855	-44.050	106.307	-96.407	255.232	252.988	139.597	254.792	172.951	0.00056629	0.00059064	6.3221e-05	1376.8	1.8773e-06	5.7859e-06	1379.4	371.83	7.2113e-06	7.1842e-06	423.05	141.23	122.57	41.951	6.0002e-06	51.924	0.0006617	0.00064373	0.00016351	1406.4	7.3316e-06	6.8914e-06	1399.2	379.6	7.3699e-06	6.9165e-06	432.14	144.93	126.64	43.298	6.5068e-06	53.531	-14.828	11.301	-43.096	-89.080	-63.672	49.470	-89.119	-84.578	-41.018	51.529	-84.834	-80.748	-80.104	-75.385	10.153	-76.163	-8191	255	
1398.573	1	1	0	0	0.083845	0.11218	0.072622	0.18781	0.046697	0.26282	0.35775	0.25214	0.29707	0.44908	0.33679	0.058687	0.089011	0.17717	0.12463	0.23812	-2.2417	-2.4042	-2.8917	-2.4958	-2.9417	-2.8354	-2.7062	-2.9729	-2.7229	-2.4437	-2.9917	-2.4917	-2.8229	-2.8063	-2.2313	-3.0187	109.008	-36.948	170.067	226.221	76.997	-61.387	191.185	215.502	127.642	-84.932	157.981	134.318	215.284	218.972	165.465	223.822	0.00028234	0.00055663	0.00015091	1371.5	3.9447e-06	6.2707e-06	1381.1	371.95	8.6708e-06	3.544e-06	424.8	140.87	123.57	42.015	3.8927e-06	51.782	0.00066508	0.00062443	0.00016014	1408.1	7.2787e-06	6.6893e-06	1398.6	380.18	7.2034e-06	6.7167e-06	432.09	144.99	126.52	43.216	6.3248e-06	53.658	-17.501	-2.940	-11.824	-88.960	33.581	11.263	-89.144	-84.476	-17.752	98.344	-85.067	-80.627	-80.059	-75.599	25.694	-76.273	-8191	255	
1398.668	1	1	0	0	0.015693	0.24775	0.03985	0.12201	0.14926	0.12906	0.095806	0.18911	0.26005	0.24989	0.17055	0.247	0.2711	0.21955	0.070466	0.097711	-2.1875	-2.525	-2.7375	-2.5604	-2.7792	-3.0187	-2.7208	-3.1375	-2.7313	-2.6979	-3.2229	-2.6521	-2.7729	-2.9646	-2.7146	-2.9208	138.569	-2.726	198.752	226.275	40.786	221.188	-74.138	167.726	-0.187	220.338	240.787	-47.794	200.644	177.587	215.586	-1.822	0.00061859	0.00056481	7.2046e-06	1383	5.6798e-06	6.9196e-06	1379.4	372.48	2.7355e-06	7.0125e-06	424	141.21	122.81	41.915	2.4941e-06	51.836	0.00063732	0.00060342	0.00015646	1414.5	6.9743e-06	6.4083e-06	1398.7	380.84	6.7929e-06	6.4693e-06	431.96	145.18	126.19	43.06	6.4032e-06	53.561	-25.574	-47.449	-88.450	-89.031	95.695	40.847	-89.241	-84.459	-7.019	47.877	-84.973	-80.782	-80.006	-75.556	27.252	-76.372	-8191	255	
1398.766	1	1	0	0	0.29109	0.3106	0.12566	0.21154	0.069755	0.15922	0.27667	0.20328	0.1527	0.14358	0.28858	0.37393	0.11964	0.089934	0.10571	0.02896	-2.4083	-2.425	-2.9021	-2.8375	-2.7812	-2.9479	-2.6979	-3.0792	-2.6958	-2.6354	-3.0646	-2.8604	-2.9062	-3.0125	-2.6042	-3.0687	113.451	137.373	152.905	249.740	139.615	-90.362	232.639	167.726	-93.958	248.471	212.555	238.755	168.826	215.010	177.939	232.304	0.00065435	0.00047235	5.8987e-06	1387.8	5.2429e-06	5.3462e-06	1376.6	372.9	5.1795e-06	5.645e-06	424.13	141.16	122.97	41.894	9.6655e-07	52.127	0.00060814	0.00058291	0.00016117	1415	6.6807e-06	6.0808e-06	1398.5	379.97	6.5521e-06	6.1885e-06	432.44	145.12	126.05	43.001	6.705e-06	53.641	-6.814	-29.310	28.435	-89.251	-21.775	47.492	-89.303	-84.419	-31.385	15.972	-85.081	-80.647	-80.031	-75.456	9.022	-76.462	-8191	255	
1398.860	1	1	0	0	0.18864	0.13434	0.30041	0.22239	0.13003	0.11426	0.30837	0.22825	0.12952	0.32849	0.095935	0.37844	0.18929	0.16674	0.16314	0.14671	-2.3875	-2.3521	-2.8688	-2.6958	-2.6437	-3.0417	-2.8708	-3.0104	-2.9396	-2.6271	-2.9021	-2.8667	-2.5958	-3.0896	-2.6417	-2.9188	-52.405	-98.130	174.386	-91.764	198.892	242.728	211.683	218.825	197.567	96.416	-97.930	240.986	208.085	228.808	98.811	153.799	0.00053617	0.00067079	8.1566e-05	1379	2.3857e-06	2.0145e-06	1375.2	372.19	7.5131e-06	2.0565e-06	423.15	141.17	123.02	42.048	4.3854e-06	51.87	0.00058879	0.00056529	0.0001687	1409.6	6.487e-06	5.9628e-06	1399.2	379.61	6.3347e-06	6.0929e-06	432.39	144.73	125.83	43.068	6.8811e-06	53.543	-5.798	16.646	227.316	-89.030	33.449	12.445	-89.100	-84.499	-83.749	33.633	-85.159	-80.700	-80.266	-75.680	74.955	-76.341	-8191	255	
1398.981	1	1	0	0	0.12631	0.11695	0.12	0.070251	0.11498	0.12128	0.23061	0.22567	0.24474	0.13177	0.14647	0.0534	0.24546	0.14465	0.12657	0.02545	-2.4271	-2.6083	-2.9604	-2.7479	-2.5646	-2.8146	-2.8792	-2.7417	-2.9979	-2.5958	-2.9688	-2.8958	-2.7229	-3.1042	-2.5229	-2.7229	89.046	77.875	41.803	-2.311	64.842	4.573	200.714	220.534	47.361	253.892	202.843	183.748	252.895	-75.826	148.379	99.738	0.00038704	0.00016174	7.9869e-05	1378.9	8.2752e-06	6.3827e-06	1371	371.36	7.1521e-06	3.1527e-06	424.06	141.15	122.27	41.781	9.1587e-06	51.648	0.00056593	0.00056457	0.00017449	1402.5	6.2546e-06	6.1347e-06	1396.9	379.24	6.0716e-06	6.2969e-06	433.5	144.56	125.43	43.04	6.962e-06	53.298	-6.833	-14.089	73.218	-89.095	46.075	122.611	-89.109	-84.478	-56.268	67.030	-85.035	-80.658	-80.098	-75.618	27.217	-76.441	-8191	255	
1399.077	1	1	0	0	0.19475	0.22967	0.11069	0.091286	0.19464	0.11923	0.22402	0.20316	0.1726	0.2304	0.3035	0.23089	0.040312	0.11356	0.089618	0.36465	-2.2375	-2.4417	-2.7521	-2.6813	-2.4521	-3.1688	-2.8833	-2.6958	-2.9354	-2.6792	-2.7354	-2.7979	-2.4771	-3.1229	-2.5292	-2.6042	70.784	-25.390	216.960	244.097	63.555	-21.871	231.614	188.841	-100.704	34.635	238.040	220.422	226.663	251.440	-61.226	193.582	0.00051049	0.0002254	0.00025415	1382.5	5.1546e-06	2.0975e-06	1375.9	371.99	6.2346e-06	4.5326e-06	424.95	140.95	122.74	42.028	9.4637e-07	51.884	0.0005475	0.00059498	0.00017622	1400.4	6.1098e-06	6.4319e-06	1398.5	379.18	5.9563e-06	6.6532e-06	433.16	144.17	125.52	43.216	6.7847e-06	53.36	-19.544	50.969	31.127	-88.940	45.686	25.894	-89.009	-84.367	-14.924	134.019	-85.082	-80.786	-80.247	-75.428	51.448	-76.104	-8191	255	
1399.148	1	1	0	0	0.053471	0.080149	0.10839	0.19019	0.20257	0.23029	0.23608	0.35115	0.048719	0.18225	0.20588	0.17775	0.1516	0.19621	0.093535	0.21337	-2.6167	-2.5292	-2.7875	-3.0667	-2.4854	-3.0521	-3.0292	-2.8104	-3.0146	-2.4583	-2.8271	-2.9708	-2.6625	-2.9771	-2.6875	-2.4771	5.212	-98.859	-85.435	-56.189	-23.265	228.083	220.560	185.613	87.657	132.370	98.844	200.403	103.458	-93.037	61.492	119.469	0.00067509	0.00055395	0.00019088	1378.4	2.7897e-06	7.6364e-06	1375.1	371.53	5.3109e-06	5.6968e-06	423.49	141.21	122.74	41.765	5.336e-06	51.796	0.00054518	0.00062976	0.00017371	1396.7	6.0916e-06	6.8225e-06	1397	378.7	6.032e-06	6.9258e-06	432.62	144.18	125.51	43.241	6.594e-06	53.29	-24.941	75.834	1.724	-88.928	118.162	61.560	-89.172	-84.340	74.189	78.224	-84.999	-80.803	-79.982	-75.669	25.706	-76.321	-8191	255	
1399.269	1	1	0	0	0.28008	0.14926	0.29681	0.1907	0.081608	0.015171	0.067073	0.074708	0.010608	0.23213	0.38247	0.18659	0.26797	0.026072	0.14744	0.18082	-2.4813	-2.5958	-2.5417	-3.025	-2.6063	-3.0042	-2.8729	-2.5417	-2.9792	-2.65	-2.6813	-3.225	-2.5208	-3.1437	-2.7708	-2.5542	241.875	-10.848	-60.698	238.611	226.635	-91.595	213.887	-35.682	-36.556	199.360	235.701	193.341	173.375	165.145	31.782	160.911	0.00061485	0.00059818	0.00020331	1381.7	3.9016e-06	5.9372e-06	1374.3	370.84	2.3276e-06	5.6947e-06	424.16	140.96	122.69	41.976	3.4949e-06	51.502	0.00056437	0.00063883	0.0001673	1395	6.3252e-06	6.9804e-06	1395.1	378.33	6.3514e-06	7.0355e-06	432.13	144.16	125.82	43.284	6.333e-06	53.179	-18.874	59.952	-12.639	-89.090	139.017	56.269	-89.081	-84.440	107.787	39.706	-84.866	-80.643	-80.009	-75.686	-49.977	-76.221	-8191	255	
1399.365	1	1	0	0	0.15451	0.083522	0.22179	0.17436	0.2585	0.14263	0.30952	0.33639	0.26661	0.17936	0.24193	0.19234	0.10629	0.048641	0.27794	0.045403	-2.6	-2.6208	-2.6063	-2.9375	-2.5042	-2.9583	-3.1937	-2.6458	-2.9458	-2.7458	-2.5354	-3.025	-2.5375	-2.7917	-2.9521	-2.575	182.137	196.918	-36.380	20.045	94.864	245.806	207.006	245.034	-6.930	58.442	244.292	-101.880	160.604	-22.049	-4.567	-77.438	0.00049003	0.00052485	0.00015285	1378.3	3.5264e-06	7.1273e-06	1385	372.04	7.9708e-06	6.3115e-06	423.31	140.97	122.73	42.021	6.492e-06	51.999	0.00059278	0.00063345	0.00016521	1394	6.7393e-06	6.9084e-06	1397.9	378.55	6.7055e-06	6.8668e-06	431.61	144.05	126.19	43.257	6.2728e-06	53.342	-19.216	8.071	11.840	-89.006	63.529	69.404	-89.037	-84.567	231.976	40.291	-85.101	-80.445	-80.156	-75.581	83.165	-76.339	-8191	255	
1399.461	1	1	0	0	0.23537	0.11947	0.18886	0.058626	0.065066	0.16286	0.072648	0.35248	0.10044	0.14937	0.0479	0.095095	0.037484	0.18933	0.062386	0.29591	-2.4	-2.8438	-2.5729	-3.1042	-2.5208	-2.7083	-3.0958	-2.6396	-2.6833	-2.7167	-2.6688	-3.1229	-2.8521	-2.6562	-2.9188	-2.6042	-56.280	168.719	-14.945	255.870	7.459	156.461	235.033	199.698	220.071	-23.662	152.310	110.962	146.629	195.648	28.046	233.756	0.00058669	0.00070825	9.5125e-05	1378.4	1.1483e-06	8.2814e-06	1379.1	371.21	4.4692e-06	7.8416e-06	423.31	141.44	123.09	41.974	7.092e-06	51.785	0.00063052	0.00061402	0.00016152	1396.7	6.9991e-06	6.7308e-06	1397.4	378.72	7.072e-06	6.7277e-06	431.61	144.55	126.29	43.177	6.0763e-06	53.331	-19.764	-15.229	32.663	-89.109	76.150	54.014	-89.187	-84.560	-22.708	42.679	-84.795	-80.856	-79.953	-75.681	46.682	-76.253	-8191	255	
1399.558	1	1	0	0	0.074325	0.094813	0.13599	0.11555	0.18576	0.27308	0.22536	0.38015	0.19424	0.10529	0.21512	0.10793	0.024431	0.37955	0.095464	0.047158	-2.5708	-2.6896	-2.4354	-3.0417	-2.6479	-2.5542	-3.3167	-2.7062	-3.0187	-2.8792	-2.4771	-2.8083	-2.8042	-2.7146	-2.8771	-2.8125	160.029	105.268	37.089	-44.111	136.664	-74.293	193.087	219.129	-35.049	-12.726	188.650	178.107	252.813	161.855	-21.762	200.010	0.00067058	0.00095782	0.00012167	1380.4	4.2884e-06	5.2371e-06	1377.3	371	8.6948e-06	7.0584e-06	422.26	141.32	123.21	41.874	1.0155e-05	51.695	0.00065518	0.00059819	0.00015923	1402.8	7.1202e-06	6.597e-06	1396.7	379.05	7.1585e-06	6.5151e-06	431.49	144.47	126.13	43.135	6.0581e-06	53.502	-10.737	-24.736	14.160	-88.947	30.726	40.080	-89.293	-84.720	-36.303	105.053	-84.844	-80.545	-80.000	-75.483	50.100	-76.318	-8191	255	
1399.678	1	1	0	0	0.073845	0.24666	0.091763	0.16244	0.23136	0.23171	0.13591	0.066975	0.10024	0.13371	0.22262	0.15185	0.28021	0.29661	0.26362	0.17066	-2.3354	-2.8083	-2.3104	-2.8729	-2.5938	-2.5729	-3.1979	-2.8708	-2.8917	-2.8667	-2.6292	-3.2167	-3.0104	-2.6813	-2.8708	-2.7417	232.370	139.438	-67.395	229.623	69.651	168.770	177.824	220.130	-62.745	-60.160	143.556	227.044	-101.838	-58.743	66.387	-85.005	0.00049628	0.00027335	7.3269e-05	1379.2	4.6353e-06	7.466e-06	1376.8	370.47	8.6132e-06	4.526e-06	423.62	140.75	122.75	42.076	6.1627e-06	51.907	0.00064351	0.00059057	0.00015733	1411.3	6.9527e-06	6.515e-06	1397.1	379.93	6.9213e-06	6.3746e-06	432	144.86	125.89	43.162	6.2321e-06	53.688	-15.196	-13.588	45.319	-88.972	76.252	67.319	-89.182	-84.423	12.521	-6.334	-84.934	-80.506	-80.080	-75.612	161.455	-76.059	-8191	255	
1399.750	1	1	0	0	0.04149	0.2688	0.052208	0.14602	0.28905	0.28039	0.21789	0.30035	0.048299	0.2037	0.16076	0.14692	0.15721	0.21572	0.11334	0.20867	-2.2875	-2.8063	-2.5917	-3	-2.7417	-2.6333	-3.1333	-2.7292	-2.6896	-3.0583	-2.5646	-2.9354	-2.8333	-2.5896	-2.9437	-2.8167	-91.055	169.579	9.171	-41.239	72.278	29.376	136.529	113.279	155.240	-19.268	102.344	175.982	219.457	168.017	139.201	101.049	0.00054074	0.00055109	0.00021309	1374.5	8.2269e-06	6.9555e-06	1378.3	371.32	5.2721e-06	4.3575e-06	423.11	141.05	123.25	41.916	2.6466e-06	51.898	0.00062192	0.00057586	0.00016372	1412.8	6.7358e-06	6.3101e-06	1399.8	380.11	6.7067e-06	6.1539e-06	432.38	144.99	126.13	43.122	6.5605e-06	53.599	-17.021	37.881	-15.133	-88.710	57.158	32.050	-89.171	-84.332	10.337	100.884	-84.803	-80.725	-80.149	-75.479	235.555	-76.106	-8191	255	
1399.846	1	1	0	0	0.092164	0.027497	0.027788	0.44621	0.11685	0.35626	0.15442	0.20462	0.13851	0.30318	0.25096	0.2323	0.20263	0.2505	0.12975	0.091509	-2.1625	-2.9979	-2.5563	-2.8312	-2.7333	-2.6688	-3.1437	-2.6188	-2.7229	-2.9979	-2.6958	-2.9708	-3.0104	-2.5792	-2.925	-2.7792	232.318	210.605	-84.068	208.410	179.283	19.856	180.808	-90.752	237.594	178.896	164.185	172.778	213.933	-91.248	48.656	127.200	0.00046803	0.00072989	8.1917e-05	1383.3	6.2808e-06	3.5623e-06	1376.2	371.92	2.9481e-06	5.251e-06	425.46	141.17	122.62	41.811	3.5341e-06	51.809	0.00060541	0.00056251	0.00017345	1417.1	6.5119e-06	6.2543e-06	1399.4	379.59	6.5391e-06	6.0624e-06	433.92	144.69	125.7	43.079	6.9305e-06	53.423	-24.213	-1.502	8.545	-88.995	28.402	-24.057	-89.135	-84.378	33.725	75.536	-85.040	-80.547	-80.140	-75.337	-51.688	-76.429	-8191	255	
1399.965	1	1	0	0	0.18449	0.23591	0.16099	0.10382	0.10402	0.1361	0.1669	0.18172	0.295	0.060051	0.13515	0.20948	0.10764	0.043779	0.034284	0.22599	-2.2854	-2.9292	-2.6854	-2.5146	-3.0187	-2.5146	-2.9583	-2.9417	-2.5104	-2.975	-2.5896	-2.7438	-3.1042	-2.7562	-2.8104	-2.9813	-80.006	-21.497	192.029	-72.658	-62.567	-39.935	237.830	207.140	141.625	-82.529	199.897	85.470	225.500	27.559	116.593	-96.071	0.00042736	0.00053552	0.00017679	1377.3	8.0855e-06	2.0116e-06	1376.9	371.22	3.0801e-06	4.094e-06	424.68	140.87	122.48	41.859	2.3637e-06	51.726	0.00058854	0.00055918	0.00017991	1406.6	6.275e-06	6.3212e-06	1401.9	379.14	6.3956e-06	6.2559e-06	434.01	144.73	125.62	43.112	7.1485e-06	53.432	-3.901	86.900	-33.990	-88.986	76.812	-54.032	-89.231	-84.352	5.675	-8.036	-85.140	-80.632	-79.891	-75.541	-41.615	-76.276	-8191	255	
1400.061	1	1	0	0	0.37851	0.16763	0.13372	0.11047	0.1114	0.047494	0.40877	0.1455	0.059393	0.049896	0.17221	0.082312	0.37305	0.1955	0.12268	0.11932	-2.4021	-2.9688	-2.5208	-2.6521	-2.9146	-2.4979	-2.9958	-2.8833	-2.5917	-2.8125	-2.9833	-2.6479	-3.1583	-2.5354	-2.7188	-3.025	74.731	153.652	70.723	229.263	2.867	48.412	220.068	205.390	68.113	134.323	-70.767	223.395	219.450	219.619	-41.150	-24.215	0.00049321	0.00052196	0.00012898	1381.1	7.4685e-06	4.815e-06	1380.2	373.09	4.5065e-06	8.5995e-06	422.78	140.86	122.54	41.994	6.2037e-06	51.948	0.00058028	0.00058454	0.00018138	1404.9	6.1285e-06	6.6347e-06	1401.8	379.41	6.2466e-06	6.6151e-06	433.89	144.52	125.49	43.267	6.9208e-06	53.45	-3.686	-18.865	7.153	-89.115	67.079	110.569	-89.200	-84.402	12.051	156.156	-84.918	-80.709	-80.088	-75.491	8.804	-76.405	-8191	255	
#DATA ENDS
