BOXY.EXE: ISS Imagent and Oximeter Data Acquisition Program Version 0.80
Ascii Record File

#ACQ INFORMATION
2  Detector Channels 
16  External MUX Channels 
1  Auxiliary Channels 
5000  Waveform (CCF) Frequency (Hz)
1  Waveforms Skipped 
30  Waveforms Averaged 
1  Cycles Averaged 
16  Acquisitions per Waveform 
10.0806  Updata Rate (Hz) 

#FILE INFORMATION
TRUE -- External MUX Channel results are PARSED.
FALSE -- AC DC and Phase are NOT grouped.
TRUE -- Companion Program Settings File CREATED.
FALSE -- AC data not excluded
FALSE -- DC data not excluded
FALSE -- Phase data not excluded
FALSE -- Auxillary Chn. data not excluded
Tab delimiters

#CALIBRATION STATE
TRUE -- Waveform Calibration Values APPLIED.


#AUX CALIBRATION VALUES
Val Type	aux-1	

Term	1.0000e+00	
Factor	0.0000e+00	


#WF CALIBRATION VALUES
A = Detector Channel
Val Type	A-AC1	A-AC2	A-AC3	A-AC4	A-AC5	A-AC6	A-AC7	A-AC8	A-AC9	A-AC10	A-AC11	A-AC12	A-AC13	A-AC14	A-AC15	A-AC16	A-DC1	A-DC2	A-DC3	A-DC4	A-DC5	A-DC6	A-DC7	A-DC8	A-DC9	A-DC10	A-DC11	A-DC12	A-DC13	A-DC14	A-DC15	A-DC16	A-Ph1	A-Ph2	A-Ph3	A-Ph4	A-Ph5	A-Ph6	A-Ph7	A-Ph8	A-Ph9	A-Ph10	A-Ph11	A-Ph12	A-Ph13	A-Ph14	A-Ph15	A-Ph16	

Term	0.00000e+00	0.00000e+00	0.00000e+00	0.00000e+00	0.00000e+00	0.00000e+00	0.00000e+00	0.00000e+00	0.00000e+00	0.00000e+00	0.00000e+00	0.00000e+00	0.00000e+00	0.00000e+00	0.00000e+00	0.00000e+00	0.00000e+00	0.00000e+00	0.00000e+00	0.00000e+00	0.00000e+00	0.00000e+00	0.00000e+00	0.00000e+00	0.00000e+00	0.00000e+00	0.00000e+00	0.00000e+00	0.00000e+00	0.00000e+00	0.00000e+00	0.00000e+00	0.00000e+00	0.00000e+00	0.00000e+00	0.00000e+00	0.00000e+00	0.00000e+00	0.00000e+00	0.00000e+00	0.00000e+00	0.00000e+00	0.00000e+00	0.00000e+00	0.00000e+00	0.00000e+00	0.00000e+00	0.00000e+00	
Factor	1.00000e+00	1.00000e+00	1.00000e+00	1.00000e+00	1.00000e+00	1.00000e+00	1.00000e+00	1.00000e+00	1.00000e+00	1.00000e+00	1.00000e+00	1.00000e+00	1.00000e+00	1.00000e+00	1.00000e+00	1.00000e+00	1.00000e+00	1.00000e+00	1.00000e+00	1.00000e+00	1.00000e+00	1.00000e+00	1.00000e+00	1.00000e+00	1.00000e+00	1.00000e+00	1.00000e+00	1.00000e+00	1.00000e+00	1.00000e+00	1.00000e+00	1.00000e+00	X	X	X	X	X	X	X	X	X	X	X	X	X	X	X	X	

B = Detector Channel
Val Type	B-AC1	B-AC2	B-AC3	B-AC4	B-AC5	B-AC6	B-AC7	B-AC8	B-AC9	B-AC10	B-AC11	B-AC12	B-AC13	B-AC14	B-AC15	B-AC16	B-DC1	B-DC2	B-DC3	B-DC4	B-DC5	B-DC6	B-DC7	B-DC8	B-DC9	B-DC10	B-DC11	B-DC12	B-DC13	B-DC14	B-DC15	B-DC16	B-Ph1	B-Ph2	B-Ph3	B-Ph4	B-Ph5	B-Ph6	B-Ph7	B-Ph8	B-Ph9	B-Ph10	B-Ph11	B-Ph12	B-Ph13	B-Ph14	B-Ph15	B-Ph16	

Term	0.00000e+00	0.00000e+00	0.00000e+00	0.00000e+00	0.00000e+00	0.00000e+00	0.00000e+00	0.00000e+00	0.00000e+00	0.00000e+00	0.00000e+00	0.00000e+00	0.00000e+00	0.00000e+00	0.00000e+00	0.00000e+00	0.00000e+00	0.00000e+00	0.00000e+00	0.00000e+00	0.00000e+00	0.00000e+00	0.00000e+00	0.00000e+00	0.00000e+00	0.00000e+00	0.00000e+00	0.00000e+00	0.00000e+00	0.00000e+00	0.00000e+00	0.00000e+00	2.53724e+01	-1.25825e+02	-1.32423e+02	-1.86157e+02	-5.31231e+01	-7.74207e+01	-1.59021e+02	-1.62015e+02	-9.81342e+01	-6.42266e+01	-1.73719e+02	-1.69925e+02	-1.79918e+02	-1.77120e+02	-6.73402e+01	-1.50188e+02	
Factor	4.43643e-05	1.31752e-04	3.84766e-05	6.00296e-01	1.09162e-06	1.23883e-06	1.58776e-01	4.81384e-02	1.60025e-06	1.38813e-06	8.39062e-02	2.75674e-02	2.39658e-02	9.07276e-03	1.49700e-06	1.30833e-02	1.61200e-06	1.67637e-06	4.65165e-07	2.83808e-01	1.83225e-08	1.83332e-08	7.47258e-02	2.41391e-02	1.82575e-08	1.83873e-08	4.04860e-02	1.32768e-02	1.20086e-02	4.53932e-03	1.82600e-08	6.30792e-03	X	X	X	X	X	X	X	X	X	X	X	X	X	X	X	X	



#DISTANCE SETTINGS
A = Detector Channel
A-1	A-2	A-3	A-4	A-5	A-6	A-7	A-8	A-9	A-10	A-11	A-12	A-13	A-14	A-15	A-16	

2.5000e+00	3.0000e+00	2.5000e+00	3.0000e+00	2.0000e+00	3.0000e+00	1.5000e+00	3.0000e+00	3.0000e+00	3.0000e+00	3.0000e+00	3.0000e+00	3.0000e+00	3.0000e+00	1.5000e+00	3.0000e+00	

B = Detector Channel
B-1	B-2	B-3	B-4	B-5	B-6	B-7	B-8	B-9	B-10	B-11	B-12	B-13	B-14	B-15	B-16	

1.0000e+01	1.0000e+01	1.0000e+01	1.4400e+00	1.0000e+01	1.0000e+01	1.5100e+00	1.9400e+00	1.0000e+01	1.0000e+01	1.9900e+00	2.4900e+00	2.4100e+00	2.9000e+00	1.0000e+01	2.9800e+00	




#DATA BEGINS
time	group	step	mark	flag	A-AC1	A-AC2	A-AC3	A-AC4	A-AC5	A-AC6	A-AC7	A-AC8	A-AC9	A-AC10	A-AC11	A-AC12	A-AC13	A-AC14	A-AC15	A-AC16	A-DC1	A-DC2	A-DC3	A-DC4	A-DC5	A-DC6	A-DC7	A-DC8	A-DC9	A-DC10	A-DC11	A-DC12	A-DC13	A-DC14	A-DC15	A-DC16	A-Ph1	A-Ph2	A-Ph3	A-Ph4	A-Ph5	A-Ph6	A-Ph7	A-Ph8	A-Ph9	A-Ph10	A-Ph11	A-Ph12	A-Ph13	A-Ph14	A-Ph15	A-Ph16	B-AC1	B-AC2	B-AC3	B-AC4	B-AC5	B-AC6	B-AC7	B-AC8	B-AC9	B-AC10	B-AC11	B-AC12	B-AC13	B-AC14	B-AC15	B-AC16	B-DC1	B-DC2	B-DC3	B-DC4	B-DC5	B-DC6	B-DC7	B-DC8	B-DC9	B-DC10	B-DC11	B-DC12	B-DC13	B-DC14	B-DC15	B-DC16	B-Ph1	B-Ph2	B-Ph3	B-Ph4	B-Ph5	B-Ph6	B-Ph7	B-Ph8	B-Ph9	B-Ph10	B-Ph11	B-Ph12	B-Ph13	B-Ph14	B-Ph15	B-Ph16	aux-1	digaux	

3214.594	1	1	0	512	0.048206	0.21468	0.2706	0.086615	0.21591	0.13731	0.082403	0.083564	0.15881	0.28458	0.34476	0.19869	0.33818	0.27419	0.092901	0.05156	-2.7458	-2.8458	-2.5771	-3.1875	-2.6896	-2.9708	-2.9896	-2.8458	-2.9771	-2.8271	-2.8958	-3.0375	-2.8937	-3.0938	-2.9729	-2.6604	192.737	377.402	457.576	159.202	430.483	145.919	264.094	306.038	237.678	410.961	471.011	426.024	480.829	397.997	146.109	327.141	0.0027414	0.0012282	0.00038008	1147	1.6522e-05	1.1811e-05	1282.3	409.55	4.564e-05	2.0007e-05	495.46	213.48	175.05	79.769	1.9274e-05	92.637	0.0031621	0.0032488	0.00084988	1395.1	3.6114e-05	3.5827e-05	1210.1	385.15	3.6374e-05	3.6211e-05	482.83	200.18	169.34	75.649	3.2404e-05	88.21	337.068	200.283	428.518	134.320	324.840	308.271	133.186	140.163	198.198	228.343	137.856	142.483	145.188	149.999	313.234	147.238	-8191	255	
3214.715	1	1	0	0	0.10864	0.12165	0.11865	0.20624	0.10877	0.11755	0.16382	0.30476	0.10056	0.40351	0.17789	0.11448	0.34653	0.19083	0.11054	0.40809	-2.55	-2.8229	-2.6167	-3.1229	-2.7958	-2.9333	-3.1542	-2.6813	-2.9854	-2.7875	-2.8896	-3.2229	-2.9479	-2.8854	-3.0833	-2.7771	195.031	247.367	288.277	393.808	279.392	325.863	458.047	434.187	193.426	144.650	456.252	407.554	407.690	457.311	388.760	472.255	0.0017504	0.0016667	0.00036765	1164.8	2.4404e-05	9.2206e-06	1274.8	406.69	2.0283e-05	4.6664e-06	487.65	212.06	173.29	78.753	2.8708e-05	91.327	0.0032844	0.0031667	0.00081278	1409.3	3.6226e-05	3.4287e-05	1198.8	383.75	3.6356e-05	3.4623e-05	473.82	198.84	167.48	74.419	3.0997e-05	87.741	323.974	316.989	256.443	134.049	274.961	134.002	132.865	140.077	401.547	302.074	138.276	142.629	144.795	150.123	196.453	146.968	-8191	255	
3214.811	1	1	0	0	0.17066	0.069879	0.36203	0.12875	0.18374	0.23078	0.12533	0.3721	0.15011	0.14767	0.1183	0.11381	0.099427	0.1669	0.1079	0.24803	-2.625	-2.8104	-2.4479	-3.1792	-2.7812	-2.7146	-3.1875	-2.7979	-2.8917	-3.0458	-2.6562	-3.1542	-2.9458	-2.7354	-3.1125	-2.7458	323.610	283.443	234.126	374.198	404.254	124.040	370.942	437.363	312.359	270.589	355.727	376.509	456.182	465.759	124.728	449.211	0.001851	0.00080034	0.00078997	1146.8	2.1845e-05	3.2048e-05	1270.8	406.24	2.2517e-05	1.8737e-05	486.27	211.72	174.12	78.5	2.9514e-05	91.752	0.0031671	0.0030668	0.00078499	1426.6	3.5412e-05	3.2932e-05	1190.3	384.8	3.4899e-05	3.2859e-05	472.21	200.55	167.2	74.319	3.0365e-05	88.594	342.195	345.824	437.914	134.023	325.442	340.468	133.045	139.998	379.706	128.390	138.150	142.481	144.849	150.235	273.029	146.547	-8191	255	
3214.883	1	1	0	0	0.17124	0.44361	0.09283	0.15977	0.034147	0.18334	0.25551	0.44095	0.19525	0.22827	0.29204	0.17597	0.24405	0.20112	0.16312	0.14567	-2.6292	-2.8125	-2.775	-2.9125	-2.8292	-2.6917	-3.1937	-2.9354	-2.675	-3.0687	-2.5563	-3.2521	-2.9042	-2.6813	-3.0104	-2.6667	242.136	136.634	363.256	445.160	122.702	159.354	472.769	459.877	205.029	334.812	399.268	133.381	122.119	181.514	469.912	426.342	0.0017186	0.00091064	0.0005187	1143.5	1.5402e-05	1.599e-05	1286.1	408.3	2.8035e-05	1.774e-05	493.21	212.88	175.02	79.78	1.3974e-05	92.81	0.0030683	0.0029619	0.00078789	1451.1	3.3999e-05	3.1634e-05	1195.3	388.08	3.3223e-05	3.1115e-05	479.53	202.6	166.99	74.481	3.0975e-05	89.523	325.890	209.632	208.057	134.136	338.999	228.251	133.352	140.102	314.031	133.102	137.613	143.141	144.915	149.977	236.623	147.048	-8191	255	
3214.979	1	1	0	0	0.096862	0.24255	0.065971	0.16001	0.2551	0.19288	0.29861	0.37775	0.13256	0.19885	0.072606	0.2483	0.10905	0.22627	0.086394	0.414	-2.3354	-2.9333	-2.7438	-2.7771	-2.9729	-2.6958	-3.275	-2.5917	-2.6771	-3.1208	-2.6958	-2.9896	-3.0083	-2.775	-2.9625	-3.0542	215.650	250.928	400.654	212.341	282.501	383.497	419.388	379.019	331.016	336.105	315.697	349.367	313.259	425.005	262.813	421.532	0.0024586	0.00094048	0.0005115	1136.9	1.3273e-05	1.1575e-05	1303.3	411.99	2.2581e-05	2.0259e-05	504.1	217.16	176.13	80.149	3.4393e-05	92.145	0.0029416	0.0028301	0.0008276	1458	3.301e-05	3.0265e-05	1216	390.74	3.205e-05	2.9514e-05	488.99	204.18	166.53	74.392	3.2453e-05	88.603	347.698	222.711	137.249	133.832	365.433	163.665	133.027	140.330	374.029	187.128	138.003	142.725	144.984	149.871	237.243	146.722	-8191	255	
3215.100	1	1	0	0	0.16374	0.18646	0.12487	0.14425	0.084477	0.10289	0.14968	0.27854	0.15325	0.16734	0.17685	0.13984	0.24072	0.29735	0.16988	0.23945	-2.2083	-2.9625	-2.5646	-2.8667	-2.9437	-2.4542	-3.2396	-2.8604	-2.7188	-2.8583	-2.7417	-2.7292	-3.0312	-2.6479	-3.2208	-3.0021	476.499	221.350	274.391	280.874	236.307	315.810	149.902	429.910	282.165	356.592	445.114	444.702	438.471	422.546	151.801	357.183	0.0028271	0.002105	0.0010322	1138	2.2515e-05	1.0922e-06	1280.7	407.39	1.4868e-05	4.4e-06	496.68	215.09	174.09	79.705	9.4999e-06	92.678	0.0028116	0.0026321	0.00084628	1410.1	3.0787e-05	2.9208e-05	1204.4	384.37	3.0106e-05	2.8865e-05	482.18	200.04	164.04	74.012	3.2457e-05	87.795	344.174	214.161	180.348	134.201	374.238	257.931	133.032	140.179	282.627	289.453	137.722	142.682	144.566	150.089	276.618	146.763	-8191	255	
3215.196	1	1	0	0	0.19596	0.22968	0.19579	0.036796	0.068014	0.056832	0.15397	0.25106	0.24125	0.16227	0.27089	0.06558	0.095573	0.24336	0.10593	0.29763	-2.3146	-3.1271	-2.7458	-2.7833	-2.9458	-2.5146	-3.075	-3.0563	-2.6208	-3.0812	-2.8542	-2.9437	-3.1917	-2.7333	-3.0646	-3.1458	321.262	481.688	254.561	211.579	295.948	295.294	471.157	124.764	328.329	241.383	393.632	379.468	337.736	437.241	219.679	412.085	0.0026206	0.001106	0.00069723	1131.7	8.8702e-06	4.346e-05	1293.7	409.15	1.4621e-05	2.0411e-05	496.66	216.04	176.06	80.536	1.0618e-05	93.205	0.0026167	0.0026013	0.00082761	1381.7	2.8765e-05	2.9438e-05	1211.6	383.89	2.8496e-05	2.9379e-05	484.45	200.41	164.06	74.722	3.1658e-05	87.833	335.147	226.501	220.881	134.820	420.017	230.715	133.428	139.897	304.921	210.043	137.875	142.681	144.661	149.551	124.773	146.741	-8191	255	
3215.292	1	1	0	0	0.20243	0.08874	0.030861	0.094995	0.13603	0.1402	0.16608	0.31241	0.050556	0.11369	0.071496	0.29633	0.13869	0.42527	0.19692	0.55336	-2.0771	-2.9	-2.7188	-2.5625	-3.0875	-2.6271	-3.1312	-2.7667	-2.6083	-2.8333	-2.9562	-2.8187	-3.1104	-2.7104	-2.9188	-3.1333	340.040	281.606	454.038	239.397	201.449	123.782	423.407	446.393	218.729	163.936	428.048	464.259	130.292	416.073	159.172	422.744	0.0022538	0.00017116	0.00022228	1122.2	1.6272e-05	1.0104e-05	1290.4	414.63	1.7562e-05	4.0284e-05	502.89	218.03	176.86	80.396	1.1907e-05	93.478	0.0024945	0.0027116	0.00080727	1353.2	2.6935e-05	3.0362e-05	1211.4	384.95	2.7002e-05	3.0477e-05	487.22	201.29	163.58	75.015	3.079e-05	87.734	334.070	134.095	475.687	133.733	426.786	249.758	133.225	140.267	156.809	193.360	138.005	142.820	144.821	149.758	321.208	146.810	-8191	255	
3215.388	1	1	0	0	0.12273	0.1521	0.15759	0.055822	0.033684	0.11662	0.45837	0.18996	0.061691	0.10033	0.45744	0.18219	0.28374	0.28822	0.075873	0.30533	-2.15	-2.8563	-2.5458	-2.7167	-2.9229	-2.8417	-3.0708	-3.2562	-2.5625	-3.0792	-2.8729	-2.8042	-3.1146	-3.0042	-2.8542	-3.1688	163.571	300.235	435.261	126.024	346.656	406.926	404.049	417.966	411.597	456.230	436.892	389.202	464.299	356.246	124.563	480.326	0.0021671	0.0013359	0.00076093	1152.7	2.214e-05	1.391e-05	1305.9	415.72	3.3802e-05	2.2134e-05	501.84	216.66	176.28	79.904	2.4734e-05	92.512	0.0024826	0.0028809	0.00077974	1354.2	2.7153e-05	3.1539e-05	1213.4	383.89	2.7232e-05	3.1043e-05	481.08	198.29	163.54	74.614	2.8229e-05	86.306	328.984	199.481	221.332	135.948	227.485	180.290	133.084	139.763	262.751	257.710	137.667	142.569	144.605	149.978	302.372	146.954	-8191	255	
3215.507	1	1	0	0	0.1878	0.27325	0.15146	0.13215	0.064231	0.11487	0.071566	0.33647	0.19677	0.07887	0.24837	0.12803	0.15396	0.17895	0.22538	0.13689	-2.2021	-2.9521	-2.8604	-2.6	-3.2229	-2.6979	-3.0854	-3.1333	-2.7625	-2.8604	-2.8542	-2.7062	-3	-2.8438	-2.6729	-3.0021	480.438	364.946	281.165	378.044	191.437	276.716	370.213	423.786	451.831	218.455	440.666	165.785	455.902	418.096	418.249	407.653	0.0030788	0.0008242	0.00057723	1130.7	8.5505e-06	1.0928e-05	1280.9	412.57	2.7895e-05	2.2807e-05	497.88	214.65	176.51	79.821	1.6821e-05	93.09	0.0024754	0.0028106	0.00073172	1314.1	2.7882e-05	3.0713e-05	1190.7	378.05	2.8237e-05	3.0699e-05	475.83	197.06	164.19	74.506	2.7454e-05	86.226	335.940	128.311	172.241	133.867	200.003	256.389	133.195	140.087	175.582	401.498	137.765	142.497	144.662	150.084	340.627	146.913	-8191	255	
3215.580	1	1	0	0	0.19281	0.13303	0.29751	0.11515	0.10327	0.079711	0.16573	0.21675	0.20353	0.20219	0.37372	0.17962	0.32314	0.46819	0.049651	0.22614	-2.3187	-2.8812	-2.7188	-2.6063	-3.0042	-2.8312	-2.8042	-3.3292	-2.5479	-2.8875	-3.0792	-2.7125	-3.1917	-2.9417	-2.6937	-3.35	218.690	172.612	229.569	232.090	184.057	265.704	470.585	444.482	133.791	248.648	480.513	403.404	122.158	447.549	313.060	462.294	0.0024231	0.0012207	0.00064452	1139	1.5229e-05	1.6476e-05	1298.3	416.54	1.2768e-05	1.6318e-05	507.72	218.22	177.4	80.612	2.5678e-05	94.249	0.0025964	0.0027056	0.00069484	1293.5	2.8926e-05	2.9153e-05	1195.1	379.57	2.8884e-05	2.8711e-05	480.7	199.45	165.95	74.677	2.6443e-05	86.982	329.143	284.842	206.870	134.148	298.744	350.915	133.288	140.096	349.723	330.107	138.033	142.799	144.794	149.525	304.434	147.151	-8191	255	
3215.676	1	1	0	0	0.21798	0.094864	0.065955	0.061913	0.024743	0.16204	0.15904	0.18436	0.22711	0.038541	0.12675	0.38306	0.17496	0.26459	0.11159	0.39444	-2.2333	-2.9292	-2.8083	-2.7792	-2.8771	-2.8792	-2.8354	-3.4188	-2.7188	-2.7729	-3.0125	-2.6854	-3.1188	-2.9021	-2.4604	-3.1333	327.387	393.864	283.473	279.872	399.314	396.268	360.143	479.728	221.553	462.531	449.101	421.066	443.373	143.313	433.115	443.941	0.0027204	0.0020549	0.00029043	1134.2	8.9864e-06	1.8631e-05	1304	419.05	6.4522e-06	3.1557e-06	517.02	222.3	178.85	81.14	6.6557e-06	95.76	0.0026299	0.002558	0.00065806	1301.4	2.9097e-05	2.7791e-05	1194.9	383.08	2.8929e-05	2.7039e-05	482.42	203.13	167.03	74.805	2.4713e-05	88.409	341.512	202.256	319.340	134.787	265.145	308.208	132.975	139.930	364.307	328.795	137.804	142.515	144.612	150.066	283.046	146.837	-8191	255	
3215.795	1	1	0	0	0.22859	0.18039	0.14801	0.27879	0.21103	0.28107	0.12082	0.078245	0.23073	0.089609	0.10447	0.25912	0.26774	0.32041	0.44084	0.26668	-2.1083	-2.6708	-2.9417	-2.5563	-2.8875	-2.7417	-2.8021	-3.0812	-2.7979	-2.7125	-3.25	-2.6708	-2.8854	-2.9667	-2.6937	-3.0604	148.371	230.565	452.253	170.464	238.694	256.823	129.207	186.949	161.202	165.071	444.947	421.069	425.419	440.885	354.891	367.861	0.0017749	0.0015646	0.00056268	1146.3	2.268e-06	1.9057e-05	1306.1	414.1	1.0078e-05	2.5139e-05	507.86	219.38	177.11	80.648	1.8998e-05	94.127	0.0026083	0.0024599	0.00062425	1320.7	2.8499e-05	2.6533e-05	1187	381.83	2.8122e-05	2.6315e-05	473.09	201.23	164.85	74.069	2.4309e-05	87.983	343.287	243.832	245.697	134.426	144.089	274.926	133.005	139.889	234.599	263.734	137.857	142.530	144.812	150.009	261.331	146.924	-8191	255	
3215.891	1	1	0	0	0.17476	0.048887	0.29327	0.22044	0.14848	0.23188	0.3664	0.12653	0.14277	0.16792	0.068575	0.23413	0.22403	0.17939	0.24195	0.19832	-2.4562	-2.5917	-3.0271	-2.7	-2.9313	-2.9042	-2.9729	-3.0438	-2.9146	-2.5979	-3.0583	-2.725	-2.8708	-3.2271	-2.5958	-3.1833	221.711	279.089	360.267	331.145	410.167	164.114	433.060	456.056	137.114	258.064	382.291	436.751	464.193	461.944	286.175	433.067	0.0020996	0.0010354	0.00067329	1141.3	9.2304e-06	1.2853e-05	1301.4	414.76	1.4669e-05	1.2529e-05	507.61	220.39	177.66	80.901	1.297e-05	94.631	0.0024924	0.0023807	0.00062496	1339	2.7345e-05	2.5944e-05	1187.3	383.66	2.7171e-05	2.5431e-05	476.86	203.13	164.88	73.96	2.5064e-05	88.639	332.821	372.589	275.998	133.585	272.554	260.772	133.185	139.869	344.361	269.620	137.735	142.933	144.868	149.750	260.323	146.635	-8191	255	
3215.988	1	1	0	0	0.29108	0.36977	0.10039	0.067302	0.14067	0.38244	0.083045	0.13407	0.13983	0.17907	0.27849	0.25916	0.081316	0.16974	0.17088	0.21565	-2.3438	-2.5583	-3.0625	-2.5667	-2.6833	-2.8646	-2.8208	-2.9938	-2.8792	-2.6146	-3.1104	-3.0271	-2.6458	-3.1958	-2.7708	-2.9333	397.593	415.298	122.936	216.671	172.981	471.763	459.935	127.314	442.553	454.334	186.126	447.029	476.092	413.635	126.874	405.008	0.0027793	0.002096	0.0012064	1147	1.3257e-05	1.0476e-05	1313	417.05	1.5936e-05	8.0851e-06	517.26	221.9	178.83	81.31	2.7126e-05	95.135	0.0024125	0.0022817	0.00065492	1353.9	2.6725e-05	2.4813e-05	1202.6	386.97	2.6525e-05	2.4938e-05	486.12	205.03	165.75	74.181	2.7036e-05	89.303	361.686	229.928	203.418	134.466	415.451	350.773	133.011	140.213	308.980	280.910	137.665	142.722	145.208	149.908	202.623	146.767	-8191	255	
3216.084	1	1	0	0	0.18937	0.16037	0.04719	0.13565	0.33321	0.26411	0.28888	0.10771	0.050151	0.02424	0.24102	0.21484	0.029908	0.15375	0.09582	0.22208	-2.4979	-2.5167	-2.6771	-2.8792	-2.8708	-3.0333	-2.8729	-3.0563	-2.8958	-2.6146	-3.0812	-2.8937	-2.7854	-3.1979	-2.6292	-2.9333	226.578	373.088	191.853	462.483	470.043	144.967	347.173	338.887	132.797	275.511	465.699	442.741	142.931	464.413	187.924	444.118	0.0019479	0.00049998	0.00083039	1158	6.3288e-06	1.752e-05	1325.9	423.14	1.4882e-05	1.3813e-05	521.47	222.78	178.88	81.117	1.9287e-05	94.265	0.0023893	0.0022821	0.00069946	1356	2.6587e-05	2.456e-05	1222.7	389.83	2.6453e-05	2.5135e-05	494.47	205.22	165.3	74.202	2.883e-05	88.831	344.691	372.076	170.591	133.839	400.675	231.075	133.312	140.145	238.661	262.475	137.793	142.557	144.680	150.025	231.334	146.913	-8191	255	
3216.180	1	1	0	0	0.27808	0.273	0.31267	0.34106	0.085955	0.10896	0.47882	0.33333	0.11258	0.24449	0.042792	0.10543	0.21694	0.28415	0.17463	0.091639	-2.6333	-2.6562	-2.8854	-2.8833	-2.7083	-3.1771	-2.7354	-2.9833	-3.2542	-2.5646	-3.175	-3.0104	-2.8875	-3.1417	-2.7208	-2.9208	135.099	421.835	351.544	129.002	364.138	265.981	436.493	383.376	396.405	367.015	284.449	451.080	448.845	410.246	301.673	303.349	0.0027151	0.0026704	0.00076953	1142.7	2.5848e-05	9.3625e-06	1307.7	415.65	1.745e-05	2.4409e-05	508.77	218.77	175.9	80.694	1.1086e-05	94.908	0.0023444	0.0023773	0.00075891	1342.1	2.6462e-05	2.6331e-05	1213	383.69	2.5668e-05	2.7059e-05	487.6	201.39	163.57	74.317	3.0197e-05	88.399	351.528	221.370	168.485	135.250	360.423	207.855	133.521	140.224	280.709	231.429	137.232	142.820	144.583	149.753	361.839	146.663	-8191	255	
3216.276	1	1	0	0	0.14988	0.02298	0.22477	0.22243	0.07735	0.071687	0.2905	0.31747	0.1443	0.052519	0.25935	0.16016	0.097617	0.10847	0.074999	0.08944	-2.4458	-2.6	-2.8833	-3.0104	-2.6063	-3.0417	-2.7646	-2.9542	-3.1042	-2.7604	-3.0458	-3.1312	-2.8312	-3.1771	-2.7896	-2.8667	259.473	427.831	212.498	335.720	243.846	294.345	443.112	451.465	153.804	363.387	449.853	384.061	437.701	149.264	222.459	454.177	0.0022496	0.0018022	2.1174e-05	1142.9	1.7291e-05	1.3612e-05	1316.4	414.46	1.7556e-05	1.096e-05	509.55	219.91	177.43	81.236	8.9834e-06	94.809	0.0023131	0.0025638	0.00076	1341.4	2.6197e-05	2.8457e-05	1219.7	386.1	2.5708e-05	2.9286e-05	491.18	202.73	164.43	75.297	3.0153e-05	88.776	342.478	224.310	347.224	134.634	315.968	206.540	133.256	139.893	215.897	289.218	137.945	142.285	144.952	149.709	393.198	147.206	-8191	255	
3216.397	1	1	0	0	0.097159	0.076244	0.063994	0.18284	0.024383	0.12873	0.15957	0.23341	0.062323	0.13187	0.18563	0.069382	0.19854	0.18672	0.25227	0.17523	-2.775	-2.7104	-3.0208	-2.7521	-2.8167	-3.0625	-3.0375	-2.825	-3.0312	-2.8375	-3.1063	-3.2292	-2.7917	-3.2188	-2.9146	-2.6646	209.221	220.094	294.480	394.627	427.155	311.626	440.359	423.646	315.851	455.346	427.078	467.890	447.490	154.684	197.690	433.120	0.0027865	0.0015596	0.00020485	1151.7	1.2007e-05	1.0306e-05	1320.6	416.54	5.0276e-05	2.7112e-05	516.32	221.85	178.44	81.723	2.1242e-05	95.688	0.0023734	0.002782	0.00076643	1348.4	2.7219e-05	3.1197e-05	1223.6	387.43	2.7578e-05	3.2192e-05	497.26	204.82	166.86	76.235	3.0345e-05	89.739	341.508	190.451	356.939	133.890	344.253	441.163	132.886	139.765	175.715	208.179	137.671	142.731	144.802	149.992	351.190	146.961	-8191	255	
3216.491	1	1	0	0	0.16955	0.16331	0.2867	0.12227	0.25142	0.10251	0.29407	0.40036	0.11489	0.09833	0.021317	0.2047	0.11375	0.056174	0.098541	0.15073	-2.7042	-2.7083	-2.7604	-3.075	-2.7333	-2.9292	-3.1208	-2.7021	-2.9479	-2.5896	-2.9958	-3.0771	-2.6083	-2.8812	-2.8063	-2.7354	336.233	461.588	456.149	269.511	315.096	217.162	399.082	424.280	379.968	301.018	452.336	129.640	122.590	129.081	135.086	426.016	0.0025733	0.0010129	0.00047877	1151.7	2.3561e-05	1.6231e-06	1322.3	417.62	1.6915e-05	1.8016e-05	510.69	220.9	177.33	80.547	2.2407e-05	94.848	0.0025546	0.0029637	0.00076699	1338.9	2.929e-05	3.2581e-05	1226	386.07	2.9444e-05	3.2598e-05	490.65	202.85	167.02	76.015	2.9667e-05	88.687	337.385	214.984	325.973	134.713	263.994	267.950	133.110	140.021	208.252	339.272	138.157	142.356	144.500	149.796	321.403	146.658	-8191	255	
3216.587	1	1	0	0	0.1287	0.16613	0.07383	0.31584	0.31983	0.048464	0.25577	0.31899	0.095893	0.1509	0.019479	0.08188	0.3534	0.2937	0.14324	0.24991	-2.675	-2.7396	-2.5604	-3.0833	-2.5687	-3.0292	-3.0875	-2.7896	-2.8458	-2.5354	-2.6625	-3.1708	-2.8354	-3.2292	-2.7958	-2.8479	335.459	156.093	288.548	419.216	379.618	170.399	434.449	330.364	156.277	276.003	165.383	338.855	447.212	130.450	130.398	459.803	0.0033572	0.0022398	0.0005162	1131.1	2.9012e-05	1.4408e-05	1301.2	414.68	3.7433e-05	7.815e-06	510.11	219.93	177.6	81.187	1.5359e-05	94.993	0.0027248	0.0029438	0.00075163	1320.1	3.0899e-05	3.1573e-05	1208.2	383.43	3.1359e-05	3.2102e-05	488.13	202.36	167.94	75.869	2.8795e-05	88.848	338.741	400.828	341.268	134.855	255.467	339.903	133.428	139.901	206.742	410.926	137.760	142.673	144.591	150.058	195.405	146.782	-8191	255	
3216.683	1	1	0	0	0.21103	0.17904	0.13554	0.1222	0.22202	0.19326	0.20803	0.41027	0.29319	0.039778	0.22925	0.23818	0.21978	0.29224	0.13916	0.17827	-2.525	-2.8021	-2.7604	-3.0604	-2.6479	-2.9646	-3.2188	-2.95	-3.0229	-2.7562	-2.8708	-3.0312	-3.0062	-2.8	-3.0771	-2.7417	281.497	196.676	209.134	252.130	372.401	232.543	345.911	430.916	156.389	416.007	161.829	475.103	447.445	448.426	165.820	143.606	0.0022903	0.0016923	6.5201e-05	1138.8	3.6028e-05	1.8508e-05	1304	419.14	3.1871e-05	3.7203e-05	515.6	223.75	178.57	81.325	3.5151e-05	95.853	0.0028765	0.002839	0.00073406	1335.2	3.2389e-05	3.0493e-05	1211.2	387.38	3.2398e-05	3.0955e-05	490.54	205.84	169.96	75.964	2.8326e-05	90.28	335.517	133.224	322.288	134.783	187.225	307.456	133.210	139.642	223.686	199.510	138.130	142.887	144.550	150.100	325.419	146.909	-8191	255	
3216.757	1	1	0	0	0.2359	0.1572	0.14675	0.17759	0.27498	0.18792	0.096055	0.086783	0.26231	0.14552	0.48304	0.24545	0.031702	0.34241	0.20664	0.11366	-2.6021	-3.0333	-2.6667	-2.9729	-2.7979	-2.6146	-3.2458	-3.0146	-2.95	-2.9208	-2.7313	-2.9854	-2.7458	-2.9958	-3.1479	-2.8292	474.958	430.031	275.479	265.833	377.473	241.994	340.580	388.199	317.687	199.416	476.763	431.998	411.775	426.504	287.639	479.418	0.0026328	0.00048988	0.00059434	1145	2.3137e-05	5.1637e-06	1324.6	420.97	1.9794e-05	4.6436e-06	519.61	225.94	179.51	82.386	2.2002e-05	95.487	0.0029374	0.0028257	0.00073046	1383.7	3.3059e-05	3.1138e-05	1219.7	393.39	3.2492e-05	3.0837e-05	495.66	209.29	170.52	76.433	2.8102e-05	91.144	333.565	247.375	330.978	134.382	342.348	135.160	133.396	139.971	361.665	264.617	137.890	142.932	144.636	150.061	310.521	147.318	-8191	255	
3216.876	1	1	0	0	0.079677	0.073966	0.29598	0.30139	0.13393	0.19389	0.2245	0.28319	0.35566	0.19555	0.12318	0.17111	0.13427	0.19239	0.1097	0.179	-2.55	-2.7354	-2.5167	-3.0896	-2.6292	-2.6146	-3.2604	-2.7396	-2.8646	-2.9542	-2.9604	-3.0062	-2.8896	-2.7146	-3.0708	-2.8979	296.082	336.092	251.587	478.994	322.926	141.127	347.488	457.443	217.432	294.649	186.585	145.774	386.839	395.232	161.109	442.101	0.0020905	0.0015142	0.00040225	1132.7	9.8755e-06	3.2544e-05	1309.7	417	1.7877e-05	2.2813e-05	509.86	219.89	177.34	80.871	3.2139e-05	95.027	0.0028933	0.0027498	0.00072751	1403.1	3.1968e-05	3.0005e-05	1207	391.45	3.0948e-05	2.9117e-05	484.39	205.32	167.03	75.027	2.7703e-05	90.314	346.441	161.383	144.443	134.149	430.556	335.918	133.330	139.733	223.279	238.534	137.943	142.869	144.795	149.945	233.734	147.018	-8191	255	
3216.972	1	1	0	0	0.10464	0.15883	0.29265	0.052605	0.055175	0.050874	0.24057	0.22866	0.30531	0.17576	0.32882	0.098985	0.30782	0.16876	0.13945	0.09997	-2.4042	-2.8479	-2.7313	-2.9167	-2.875	-2.6875	-3.1229	-2.8583	-2.775	-3.025	-2.7604	-3.0833	-2.975	-2.8667	-3.1312	-2.8167	142.986	478.204	400.157	296.593	386.994	143.167	386.017	473.982	223.310	227.350	448.967	134.997	479.156	468.115	135.978	413.965	0.0021006	0.00091122	0.0004944	1126.1	1.6243e-05	8.9402e-06	1311.6	416.04	8.8401e-06	1.6433e-05	510.75	221.79	178.68	80.94	2.9594e-05	95.371	0.0026978	0.0025575	0.00071745	1391.2	2.9956e-05	2.7972e-05	1210.3	391.08	2.981e-05	2.7665e-05	488.14	206.09	166.91	74.891	2.9437e-05	90.766	337.620	142.405	178.995	134.477	433.209	300.564	133.211	139.963	339.224	250.556	137.806	142.548	144.525	149.567	271.506	146.674	-8191	255	
3217.068	1	1	0	0	0.11181	0.21747	0.17908	0.10485	0.30396	0.12525	0.16849	0.11917	0.20912	0.31943	0.15735	0.30728	0.0019842	0.34424	0.078036	0.27739	-2.4188	-3.0375	-2.6479	-2.7667	-2.9396	-2.5771	-3.2938	-2.9437	-2.7542	-2.8563	-2.8479	-2.8979	-3.1688	-2.8125	-3.1542	-3.0354	450.874	194.799	358.476	138.393	167.593	398.803	376.930	141.707	298.965	262.664	178.791	444.534	180.000	437.456	284.609	436.526	0.0029779	0.00091844	0.00072236	1145.9	1.7636e-05	4.603e-06	1323.3	420.78	8.6503e-06	5.0809e-06	520.35	224.24	179.43	81.912	1.0587e-05	96.5	0.0026326	0.0024754	0.00076839	1396.5	2.9351e-05	2.7634e-05	1225.9	393.04	2.9664e-05	2.7412e-05	501.49	208.54	167.85	75.291	3.125e-05	91.258	342.023	229.128	192.622	133.568	392.298	284.406	133.491	140.004	140.971	323.170	137.686	142.520	144.726	149.908	228.491	146.746	-8191	255	
3217.164	1	1	0	0	0.19401	0.25071	0.20871	0.069803	0.20888	0.2167	0.084391	0.18094	0.10284	0.14006	0.12865	0.13153	0.22346	0.1128	0.17265	0.26458	-2.3854	-3.0646	-2.7354	-2.8854	-3.0583	-2.7854	-3.1917	-2.9479	-2.5708	-3.1583	-2.6875	-3.0563	-3.0646	-2.625	-3.0104	-3.1583	447.704	177.497	412.319	162.337	325.358	445.466	453.212	450.576	323.457	460.210	418.563	428.516	452.313	129.884	129.972	426.669	0.0025207	0.0018729	0.00092351	1132.7	4.3703e-06	8.9503e-06	1328	424.76	2.0003e-06	3.3767e-05	523.03	223.16	179.84	81.502	1.6601e-05	96.439	0.0025721	0.0024965	0.00080864	1370.2	2.8123e-05	2.8176e-05	1241.1	394.89	2.8378e-05	2.8576e-05	504.54	207.26	166.9	75.491	3.1625e-05	90.339	318.712	329.157	160.710	133.934	207.492	270.897	133.297	139.473	305.265	240.454	137.806	142.651	144.290	149.767	437.443	147.086	-8191	255	
3217.285	1	1	0	0	0.057926	0.061785	0.051994	0.058774	0.14491	0.14628	0.24305	0.25578	0.20525	0.11114	0.068092	0.20335	0.21042	0.48306	0.31176	0.050045	-2.2167	-2.9708	-2.6625	-2.7479	-3.0687	-2.6917	-3.0062	-3.025	-2.7646	-3.1063	-2.8187	-2.8083	-3.2125	-2.8854	-2.9104	-3.1854	207.193	193.163	219.368	151.027	162.809	376.164	388.009	412.684	470.627	309.806	385.152	451.060	479.665	448.837	425.967	167.713	0.0019174	0.0010838	0.00020241	1124.7	1.9322e-05	1.9319e-05	1305	417.44	5.4773e-06	1.6808e-05	510.81	220.33	176.91	81.63	3.3362e-05	95.178	0.002461	0.0026013	0.00079946	1343.9	2.6718e-05	2.9022e-05	1216.9	385.78	2.6565e-05	2.9138e-05	492.31	203.59	164.1	75.532	3.0252e-05	89.227	352.081	142.208	408.354	134.196	339.468	284.088	133.071	140.135	300.782	261.839	138.017	142.645	144.900	149.945	393.942	146.546	-8191	255	
3217.381	1	1	0	0	0.18047	0.086657	0.096027	0.13051	0.19053	0.11251	0.19043	0.29448	0.072258	0.16376	0.40419	0.15437	0.14138	0.19051	0.22781	0.38977	-2.1896	-3.0917	-2.7938	-2.7208	-3.1708	-2.8021	-3.1729	-3.2	-2.6854	-2.9167	-2.8917	-2.8875	-3.2854	-2.725	-2.7583	-3.1479	479.091	301.774	388.992	386.426	380.550	309.045	461.700	430.803	233.400	305.931	396.822	422.609	470.395	136.739	132.608	403.067	0.0024083	0.001131	0.0007137	1129.8	1.1481e-05	2.2054e-05	1317.3	419.38	7.1233e-06	5.1431e-06	515.49	221.94	177.44	81.751	2.8863e-05	95.769	0.0023795	0.0027581	0.00077809	1336.1	2.6478e-05	3.049e-05	1217.7	385.95	2.6469e-05	3.0435e-05	493.72	204.31	164.98	75.903	2.9165e-05	89.346	335.938	165.418	268.353	133.919	239.363	220.993	133.286	139.900	333.341	473.422	137.699	142.895	144.567	149.805	252.989	147.060	-8191	255	
3217.477	1	1	0	0	0.10503	0.047924	0.21428	0.031654	0.30376	0.037993	0.16131	0.10436	0.077898	0.12668	0.27081	0.41604	0.20293	0.36705	0.19044	0.15545	-2.1167	-3.0521	-2.6917	-2.7771	-2.9458	-2.8583	-2.8875	-3.2625	-2.65	-2.9771	-3.0521	-2.8333	-3.2354	-2.8042	-2.7438	-3.1979	401.947	158.231	307.682	436.636	382.742	169.906	369.990	379.026	264.728	123.930	395.492	444.864	429.955	125.338	179.936	456.477	0.0026106	0.0013707	0.00052786	1115.6	4.2478e-05	9.7905e-06	1325.9	422.58	1.5298e-05	8.4026e-06	524.46	223.35	181.37	82.008	7.3334e-06	97.163	0.0024167	0.0028087	0.00074332	1321.8	2.7489e-05	3.1446e-05	1222.7	388.39	2.8404e-05	3.1433e-05	499.71	205.79	168.09	76.415	2.847e-05	89.806	342.586	223.168	381.634	133.749	259.967	215.513	133.056	139.763	211.708	190.263	137.874	142.648	144.872	149.817	183.698	146.694	-8191	255	
3217.573	1	1	0	0	0.17809	0.21169	0.14892	0.063935	0.017594	0.16759	0.30749	0.25661	0.056543	0.29839	0.17901	0.14229	0.14476	0.27519	0.15106	0.2394	-2.1979	-2.8563	-2.8833	-2.6729	-3.0542	-2.8312	-2.9042	-3.0875	-2.6688	-3.0083	-2.9313	-2.6375	-3.1167	-2.8063	-2.6562	-3.2458	390.711	345.064	218.373	457.691	452.540	393.751	435.782	448.687	436.399	276.232	134.835	332.331	186.331	431.711	259.176	460.525	0.0022373	0.001252	0.00044775	1128.4	2.304e-05	2.6016e-05	1317.7	417.45	3.6237e-05	2.1839e-05	515.81	221.59	177.39	81.897	3.2456e-05	96.657	0.002587	0.0027982	0.000723	1308.5	2.9069e-05	3.0467e-05	1213.9	383.71	2.9674e-05	3.0362e-05	488.68	202.62	166.93	75.833	2.7786e-05	89.171	350.985	220.682	478.607	134.745	250.805	375.930	133.375	139.984	269.002	368.117	137.672	142.426	144.783	149.623	380.759	146.806	-8191	255	
3217.668	1	1	0	0	0.049444	0.05787	0.15708	0.1433	0.1135	0.14375	0.30455	0.24804	0.29308	0.12226	0.044506	0.35126	0.14939	0.32339	0.09026	0.33932	-2.3208	-2.9979	-2.8563	-2.6688	-3.0187	-2.7083	-2.8104	-3.0771	-2.7292	-3.0083	-3.3812	-2.75	-3.0792	-3.0375	-2.6375	-3.1375	343.695	138.204	345.677	281.051	356.276	380.126	415.360	437.604	342.068	158.965	182.704	414.393	480.207	466.876	222.264	436.458	0.0026899	0.0021393	0.00048878	1131.6	1.9843e-05	1.9289e-05	1310.8	417.12	2.5055e-06	9.9581e-06	513.76	222.28	178.86	81.495	1.7871e-05	96.508	0.0027007	0.0026798	0.00068327	1301.5	2.974e-05	2.8722e-05	1202	382.54	2.9839e-05	2.8538e-05	486.23	203.38	167.23	75.326	2.6252e-05	89.695	339.207	241.305	288.639	133.875	248.204	427.647	133.351	139.990	151.964	398.575	137.567	142.702	144.643	149.890	273.407	147.256	-8191	255	
3217.764	1	1	0	0	0.17624	0.20457	0.026584	0.38188	0.043929	0.17503	0.27207	0.25654	0.10618	0.31856	0.28942	0.43823	0.33679	0.5266	0.096409	0.20142	-2.2812	-2.7438	-3.0062	-2.6104	-2.9958	-3.0062	-2.925	-3.2062	-2.7313	-2.6875	-3.2687	-2.65	-3.1208	-2.9396	-2.6167	-3.2646	258.609	173.963	173.205	444.055	439.350	127.542	396.805	153.221	463.681	321.284	127.348	467.775	457.504	463.348	321.739	399.904	0.0028053	0.0017151	0.0005245	1142.5	1.5895e-05	1.0636e-05	1313.2	420.49	1.5422e-05	1.9664e-05	522.79	225.53	179.32	81.682	3.7593e-05	96.81	0.0027354	0.0025838	0.00066095	1328	3.0152e-05	2.8375e-05	1203.6	387.44	3.0284e-05	2.81e-05	491.49	207.11	168.32	75.482	2.5775e-05	90.551	320.710	152.653	282.130	134.874	284.801	345.583	133.321	139.997	235.225	363.459	137.760	142.620	144.651	149.484	290.065	146.975	-8191	255	
3217.884	1	1	0	0	0.18389	0.23188	0.27258	0.11679	0.19647	0.1168	0.17861	0.32585	0.13089	0.11196	0.15149	0.16812	0.10374	0.36403	0.28928	0.35714	-2.3979	-2.7771	-3.1792	-2.5292	-2.8563	-2.9667	-2.6875	-3.1	-2.6688	-2.7854	-3.1167	-2.9229	-3.1708	-3.2625	-2.5083	-3.1854	446.038	222.621	409.105	156.355	254.457	444.343	436.849	459.410	155.765	444.317	364.755	136.862	419.965	437.575	297.524	387.000	0.0021764	0.002698	0.00042894	1150.3	1.2641e-05	1.5165e-05	1336.4	425.09	1.5219e-05	1.1069e-05	529.58	228.15	179.55	82.065	1.2273e-05	97.078	0.0026769	0.0025339	0.00065137	1368.6	2.9588e-05	2.7335e-05	1215.8	393.99	2.9611e-05	2.8008e-05	497.09	210.94	168.69	75.72	2.686e-05	91.44	333.604	247.993	275.665	133.923	333.686	364.556	133.300	139.827	239.633	224.208	137.924	142.333	144.759	149.841	211.816	146.572	-8191	255	
3217.981	1	1	0	0	0.08634	0.14848	0.18714	0.15271	0.22894	0.15522	0.11113	0.38001	0.30429	0.17097	0.28689	0.33666	0.15712	0.30116	0.29558	0.35673	-2.4938	-2.6708	-2.9625	-2.7667	-2.8792	-2.9667	-2.825	-3.3083	-2.9917	-2.6875	-3.3063	-3.0021	-2.7875	-3.2917	-2.5958	-3.1667	217.112	276.178	136.664	301.074	163.962	276.878	343.404	397.731	194.050	339.481	387.255	451.535	462.234	452.305	148.242	458.108	0.002079	0.0010816	0.0010528	1119	2.3212e-05	1.1502e-05	1311.4	416.16	2.0878e-05	1.2429e-05	512.51	221.88	177.31	81.482	2.0244e-05	95.704	0.0026389	0.0025325	0.00069349	1382.7	2.9795e-05	2.7479e-05	1207.7	388.97	2.8799e-05	2.7308e-05	487.83	206.79	166.05	74.85	2.8758e-05	90.353	331.024	222.502	204.950	134.773	208.917	333.903	133.152	140.278	279.845	130.671	137.739	142.664	144.392	149.850	186.056	146.576	-8191	255	
3218.077	1	1	0	0	0.22937	0.02002	0.17415	0.26008	0.29116	0.033787	0.15107	0.44019	0.023479	0.14285	0.42216	0.10578	0.4568	0.19396	0.066569	0.16741	-2.5896	-2.6583	-3.1833	-2.6708	-2.7792	-3.0271	-2.6896	-3.0771	-3.0729	-2.6708	-3.2396	-2.8312	-2.8375	-3.2583	-2.45	-3.0229	172.160	458.156	472.797	411.542	482.121	259.062	434.468	428.515	397.983	385.027	480.234	129.980	462.525	428.321	142.158	437.537	0.0024462	0.00092824	0.00057068	1143.2	4.5008e-06	4.5075e-06	1311.7	418.46	1.8465e-05	1.7602e-05	518.61	222.87	177.87	81.16	3.619e-05	96.014	0.0026014	0.0024774	0.00074749	1394.2	2.9447e-05	2.7039e-05	1220.2	391.27	2.902e-05	2.7293e-05	496.4	207.21	166.51	74.635	3.0991e-05	90.551	338.021	196.833	154.525	134.733	391.065	198.822	133.449	140.142	207.011	302.011	137.634	142.486	144.864	150.185	242.054	146.882	-8191	255	
3218.173	1	1	0	0	0.13044	0.028682	0.068256	0.14698	0.31907	0.27646	0.078384	0.046653	0.036271	0.11532	0.12954	0.11155	0.1874	0.10625	0.10404	0.2379	-2.5146	-2.6875	-2.8333	-2.9792	-2.8042	-3.1521	-2.7146	-3.0333	-3.0938	-2.5792	-3.0875	-2.8292	-2.6854	-3.1479	-2.6792	-2.9062	472.061	312.503	364.673	466.005	179.815	462.803	346.386	176.500	318.369	219.060	369.436	443.601	149.787	189.161	398.882	364.837	0.002889	0.002659	0.0004973	1131.7	1.3279e-05	2.7274e-05	1316	417.75	1.0598e-05	1.5636e-05	522.75	223.64	178.01	81.893	2.429e-05	95.697	0.0025975	0.0025398	0.00080452	1386.4	2.9251e-05	2.8089e-05	1228.2	391.48	2.9014e-05	2.9083e-05	504.43	208.13	167.04	75.58	3.3224e-05	90.685	333.410	205.664	240.805	134.186	264.342	234.651	132.936	140.350	254.858	270.615	137.456	142.610	144.751	150.009	217.571	146.816	-8191	255	
3218.269	1	1	0	0	0.18054	0.077553	0.14005	0.15401	0.14159	0.062086	0.20946	0.10512	0.132	0.034517	0.082969	0.49324	0.25864	0.25233	0.27159	0.26645	-2.7521	-2.4667	-3.0021	-2.6833	-2.6458	-3.0479	-2.8583	-2.7896	-2.8812	-2.5208	-2.9146	-2.9729	-2.6208	-3.2771	-2.725	-3.0563	394.721	190.271	430.567	302.385	250.086	327.515	462.625	476.649	236.370	416.569	250.079	444.268	123.214	471.573	446.210	456.018	0.0018314	0.0016153	0.00044656	1165.5	7.2974e-06	1.6066e-05	1324.4	418.65	1.4259e-05	9.2901e-06	517.44	221.8	177.38	81.163	9.0358e-06	95.618	0.0025992	0.0027676	0.00084251	1384.6	2.9021e-05	3.0321e-05	1238.3	390.97	2.8102e-05	3.075e-05	500.3	205.64	165.09	75.586	3.2361e-05	89.887	347.618	123.155	250.519	134.624	309.905	212.270	133.207	139.833	178.853	373.070	137.778	142.451	144.628	149.936	350.930	146.901	-8191	255	
3218.365	1	1	0	0	0.064886	0.20818	0.18963	0.23669	0.12942	0.26575	0.27214	0.22176	0.22537	0.049026	0.29988	0.37136	0.042927	0.22325	0.066928	0.28337	-2.5667	-2.4	-2.9917	-3.0917	-2.8042	-3.0729	-2.9458	-2.8438	-2.8771	-2.8125	-2.9688	-3.2417	-2.7438	-3.0083	-3.0042	-2.7646	357.436	134.509	136.584	458.324	266.677	199.871	369.874	445.085	455.165	391.874	454.543	433.265	420.362	459.740	254.245	456.600	0.0023319	0.0027857	0.00038122	1124.7	1.9258e-05	8.2741e-06	1305.6	411.76	2.5025e-05	4.6581e-06	506.38	220.5	176.62	80.648	1.8201e-05	94.658	0.0025148	0.002914	0.00081803	1355.8	2.8078e-05	3.1705e-05	1215.9	384.13	2.7568e-05	3.2082e-05	491.46	203.36	164.13	75.468	3.0847e-05	88.911	348.309	201.339	260.760	134.110	264.605	149.161	133.188	140.120	218.647	263.897	137.624	142.713	144.353	149.836	431.391	147.439	-8191	255	
3218.461	1	1	0	0	0.39658	0.38636	0.2147	0.17656	0.11586	0.29866	0.21184	0.56305	0.1288	0.054136	0.51197	0.12801	0.501	0.13572	0.15328	0.29396	-2.6729	-2.6708	-2.6646	-2.9938	-2.4625	-3.0125	-2.9688	-2.4688	-3.1	-2.6583	-2.9	-3.2583	-2.625	-3.3271	-2.75	-2.8125	445.072	441.295	164.244	441.935	171.747	136.390	352.438	427.592	442.833	228.712	454.694	407.035	445.393	453.953	165.495	367.338	0.0028324	0.0021475	0.00015806	1123.6	1.2731e-05	3.0612e-05	1313	414.98	2.3621e-05	3.5924e-05	515.07	221.75	177.33	80.43	2.5946e-05	94.281	0.0025257	0.0029872	0.00077832	1337.2	2.8783e-05	3.2638e-05	1215.4	384.76	2.8525e-05	3.2755e-05	492.68	204.1	165.81	75.666	2.9458e-05	88.387	347.671	190.502	252.224	133.552	311.469	270.083	133.498	139.926	190.517	249.136	137.699	142.473	144.780	149.967	314.582	146.754	-8191	255	
3218.580	1	1	0	0	0.18122	0.31285	0.089898	0.26216	0.25963	0.10067	0.3919	0.46042	0.10814	0.07403	0.32809	0.35742	0.20683	0.19974	0.31204	0.2531	-2.6479	-2.6479	-2.5729	-2.9333	-2.6229	-2.9729	-3.1125	-2.7604	-2.8187	-2.7625	-2.9583	-3.15	-2.7417	-3.0104	-2.8688	-2.8063	405.580	443.428	385.276	460.947	442.541	419.239	440.885	402.353	238.339	299.104	469.830	381.039	197.457	430.346	436.538	436.232	0.0027871	0.00097455	0.00054731	1128.6	1.6346e-05	7.4696e-06	1306.3	417.81	1.56e-05	1.1438e-05	520	222.14	177.64	80.773	1.057e-05	95.598	0.0026349	0.0029632	0.00074825	1318	3.0228e-05	3.1864e-05	1212.4	385.22	3.0546e-05	3.2367e-05	496.79	204.49	167.76	75.536	2.9227e-05	89.243	347.387	126.028	294.954	134.548	212.823	436.678	133.019	139.772	173.222	299.818	137.874	142.551	145.004	149.726	334.177	146.733	-8191	255	
3218.676	1	1	0	0	0.12258	0.042603	0.074515	0.01662	0.11999	0.19566	0.31728	0.35173	0.14206	0.24199	0.22103	0.24221	0.3208	0.11937	0.20242	0.30464	-2.4896	-2.825	-2.5604	-3.0438	-2.5354	-2.8896	-3.0979	-2.6688	-2.9167	-2.9417	-2.6479	-3.1708	-2.8063	-2.8875	-2.9625	-3.0396	435.017	141.834	137.549	455.849	227.018	400.766	403.541	421.301	455.351	444.564	143.617	447.685	452.217	424.731	296.857	348.959	0.0021346	0.0020983	0.00074563	1128.2	1.4344e-05	1.6795e-05	1307.6	411.42	2.7776e-05	8.0012e-06	505.58	219.57	174.53	80.165	5.0444e-06	93.934	0.0028374	0.0028753	0.0007468	1317.2	3.1723e-05	3.0601e-05	1202.5	380.6	3.0864e-05	2.9976e-05	482.04	201.49	165.75	74.444	2.7141e-05	88.027	355.249	268.491	344.490	134.281	251.894	353.059	133.209	139.995	194.107	224.315	138.014	142.915	144.738	149.871	404.237	146.864	-8191	255	
3218.748	1	1	0	0	0.21772	0.22716	0.14976	0.10354	0.16992	0.11854	0.12786	0.16023	0.10646	0.13357	0.25411	0.26975	0.26944	0.29169	0.36155	0.13375	-2.4938	-3.0062	-2.6333	-3.1104	-2.625	-2.6562	-3.2458	-2.8646	-2.7604	-2.8146	-2.7812	-3.1646	-2.7562	-2.7938	-2.9875	-2.7583	283.420	304.089	474.297	125.964	335.870	342.261	474.805	425.067	461.451	302.938	438.157	418.010	448.329	124.606	344.064	415.007	0.0018035	0.0022842	0.00037638	1149.9	1.0851e-05	4.6812e-06	1294.8	412.48	1.7009e-05	1.3767e-05	508.81	219.01	176.17	80.353	1.9019e-05	94.623	0.0027958	0.0026773	0.00068684	1319.1	3.1335e-05	2.8799e-05	1189.2	380.99	3.0728e-05	2.8836e-05	482.16	202.61	166.06	74.377	2.6072e-05	88.96	333.485	279.761	421.858	133.681	451.085	158.243	133.346	139.985	242.025	421.825	137.997	142.722	144.777	149.920	319.058	146.838	-8191	255	
3218.846	1	1	0	0	0.15267	0.13975	0.25227	0.17194	0.17267	0.082753	0.25076	0.14698	0.05376	0.2027	0.16335	0.077416	0.034403	0.25703	0.084787	0.40386	-2.6063	-2.9271	-2.3542	-3	-2.7604	-2.6583	-3.2458	-2.5958	-2.9333	-2.9771	-2.5708	-3.0833	-2.8771	-2.8229	-3.0438	-2.9021	357.238	277.185	418.688	419.713	338.251	387.212	440.581	174.303	413.280	479.061	450.128	448.120	326.408	436.438	433.498	416.359	0.0029503	0.0011006	0.00067291	1134.5	2.2114e-05	2.1016e-05	1308.1	413.86	1.5435e-05	1.2252e-05	513.79	222.18	176.4	80.49	1.6119e-05	95.88	0.0027116	0.0025887	0.00066316	1348.6	3.0153e-05	2.8043e-05	1196.2	386.38	2.9639e-05	2.7931e-05	488.2	205.94	165.74	74.52	2.6277e-05	90.084	331.683	180.148	266.630	134.767	378.887	270.656	132.961	140.183	231.135	354.206	137.836	142.598	144.786	149.862	303.393	146.827	-8191	255	
3218.965	1	1	0	0	0.093433	0.29314	0.054714	0.22777	0.16643	0.12325	0.086037	0.4043	0.048792	0.21001	0.20139	0.36275	0.2634	0.1756	0.14871	0.036425	-2.2917	-2.9	-2.5042	-3.2208	-2.8312	-2.6833	-3.1292	-2.8937	-2.75	-3.1146	-2.6083	-3.1333	-3.1333	-2.7146	-3.1521	-2.8	198.225	148.092	414.138	141.783	434.635	249.067	430.384	403.154	414.163	345.408	472.556	375.674	401.112	466.943	456.437	234.614	0.0015692	0.001233	0.00068237	1118.2	6.0653e-06	1.6069e-05	1324.1	419.34	1.5637e-05	1.5082e-05	515.29	222.98	176.42	80.676	1.2381e-05	95.057	0.002616	0.0024953	0.00067555	1364.3	2.8738e-05	2.6776e-05	1208.6	389.66	2.8609e-05	2.6418e-05	491.79	207.08	165.27	74.251	2.7421e-05	89.844	350.014	331.860	322.159	134.951	394.388	470.613	133.068	139.966	365.912	289.705	137.685	142.848	144.859	149.714	311.839	146.923	-8191	255	
3219.061	1	1	0	0	0.31029	0.17921	0.22243	0.21029	0.23457	0.046358	0.18906	0.16422	0.25217	0.2307	0.16911	0.15332	0.087245	0.074126	0.12786	0.053051	-2.3229	-2.925	-2.5896	-2.8792	-2.8917	-2.7625	-3.2396	-3.0438	-2.7917	-3.0208	-2.8688	-2.8792	-3.0938	-2.5396	-3.0875	-3.0375	139.044	360.934	447.224	178.488	156.000	410.026	464.369	391.212	332.975	447.330	376.662	468.598	432.157	439.559	174.221	401.299	0.0019863	0.00084859	0.00057669	1107.1	1.7956e-05	8.6933e-06	1305.9	411.03	2.323e-05	2.3089e-05	509.2	219.33	175.59	80.341	1.6462e-05	94.559	0.0025245	0.0023637	0.00072093	1353.8	2.766e-05	2.5821e-05	1200.1	382.46	2.7506e-05	2.5307e-05	484.12	202.63	163.33	73.582	2.8663e-05	88.789	333.273	390.116	158.809	134.592	316.404	428.400	133.242	140.231	236.590	285.385	137.800	142.637	144.727	149.624	249.470	146.883	-8191	255	
3219.157	1	1	0	0	0.1435	0.13358	0.22599	0.21709	0.17981	0.11771	0.067511	0.21433	0.081522	0.19017	0.33718	0.30437	0.055217	0.20447	0.21936	0.33297	-2.3125	-3.0708	-2.6292	-2.9125	-2.7896	-2.8125	-3.1562	-2.8438	-2.7729	-3	-2.7562	-3.0438	-3.1646	-2.8396	-2.9562	-3.075	405.829	258.673	157.265	433.890	213.541	413.939	355.039	447.619	312.500	276.116	127.619	123.741	407.827	441.502	267.112	124.760	0.0021548	0.0013767	0.00030724	1124.2	3.9066e-06	2.009e-05	1311.3	413.61	2.9651e-06	1.6438e-05	514.27	221.79	175.74	80.28	3.6025e-05	95.618	0.0024559	0.0023295	0.00074842	1336.5	2.6785e-05	2.5612e-05	1208.9	382.63	2.6458e-05	2.5334e-05	492.6	204.65	163.16	74.004	2.9369e-05	89.063	346.626	217.900	155.836	134.026	307.740	211.608	133.359	139.931	229.705	234.666	137.823	142.548	144.519	149.808	276.763	147.095	-8191	255	
3219.278	1	1	0	0	0.16614	0.23614	0.10769	0.24477	0.064901	0.088138	0.11086	0.34603	0.19802	0.10336	0.12231	0.12599	0.082675	0.2211	0.1837	0.17417	-2.1312	-3.1125	-2.5979	-2.7104	-3.0271	-2.7354	-3.2188	-2.9917	-2.7167	-2.9521	-2.8812	-2.9458	-3.2667	-2.8771	-2.9375	-2.9875	289.502	236.040	133.488	174.638	261.030	193.870	458.198	472.277	269.587	363.219	407.991	466.421	383.410	420.364	375.835	408.268	0.0024617	0.0012967	0.00046398	1109.5	1.06e-06	2.2305e-05	1321.5	418.14	1.5608e-05	2.6195e-05	522.05	222.12	177.03	81.155	3.4091e-05	96.171	0.0023242	0.0023747	0.00074883	1320.6	2.5519e-05	2.6866e-05	1223.2	385.54	2.5694e-05	2.7e-05	499.75	204.76	163.85	74.938	2.8791e-05	89.473	342.157	243.443	316.411	133.972	400.920	199.718	133.272	140.058	338.634	213.234	138.198	142.273	144.626	149.661	245.765	146.841	-8191	255	
3219.349	1	1	0	0	0.15626	0.17369	0.092345	0.10113	0.037152	0.067572	0.066762	0.1296	0.088369	0.15847	0.20861	0.36953	0.27107	0.52399	0.034648	0.16109	-2.05	-2.9833	-2.8771	-2.7854	-3.1583	-2.6958	-3.0042	-3.2125	-2.5583	-3.075	-2.7958	-2.8729	-3.1292	-2.85	-2.8083	-3.0833	207.098	160.085	436.107	265.192	421.529	140.854	464.025	304.537	140.375	174.145	453.076	433.480	437.041	410.092	399.639	434.705	0.0025206	0.0015267	0.00053634	1122.5	1.346e-05	1.409e-05	1320.6	418.61	6.3925e-06	1.3229e-05	514.73	222.88	176.88	80.877	1.4023e-05	95.722	0.0022527	0.0025199	0.00073281	1305.2	2.4329e-05	2.778e-05	1217	383.38	2.4141e-05	2.7788e-05	490.49	203.14	162.31	74.757	2.7415e-05	88.149	339.740	188.182	231.407	134.444	326.352	222.609	133.329	139.881	420.197	246.600	137.825	142.416	144.561	149.810	343.117	147.125	-8191	255	
3219.446	1	1	0	0	0.19223	0.20239	0.32437	0.19005	0.25694	0.20182	0.16985	0.20331	0.081086	0.28794	0.044067	0.22697	0.063049	0.2248	0.25487	0.17671	-2.2062	-2.8583	-2.9021	-2.6479	-3.2167	-2.7562	-2.9479	-3.1	-2.6292	-3.2062	-3.1063	-2.8187	-3.2188	-2.9	-2.7062	-3.2583	417.967	246.811	441.866	144.723	377.975	266.514	146.000	460.557	311.423	239.123	174.596	149.190	397.889	125.744	135.923	433.369	0.0023276	0.0020286	0.00021227	1120.1	1.5695e-05	1.3272e-05	1306.8	418.02	2.2755e-05	3.6501e-05	519.27	222.15	177.12	80.759	2.7962e-05	95.561	0.002211	0.002541	0.00068534	1274.6	2.4336e-05	2.8077e-05	1197.3	380.15	2.4858e-05	2.8073e-05	487.95	201.33	162.45	74.757	2.5903e-05	88.076	330.278	149.165	233.936	134.350	266.948	207.605	133.238	139.929	300.729	318.795	137.842	142.658	144.784	149.694	261.138	146.950	-8191	255	
3219.566	1	1	0	0	0.11164	0.21538	0.18306	0.12666	0.10111	0.10215	0.43219	0.23311	0.092165	0.15064	0.060752	0.061288	0.10065	0.37361	0.18017	0.069036	-2.2396	-2.8542	-2.8458	-2.7625	-3.0708	-2.6917	-2.9062	-3.2521	-2.6271	-2.9313	-3.0125	-2.8312	-3.1458	-3.0854	-2.75	-3.3812	464.682	282.566	449.061	319.005	169.592	461.921	418.110	124.545	136.024	281.714	129.284	392.424	357.803	400.137	399.175	480.069	0.0028745	0.00086854	0.00045214	1112.8	6.4346e-06	9.2908e-06	1312.2	417.67	3.3256e-05	9.6838e-06	523.68	225.58	179.88	81.321	1.7731e-05	96.736	0.0022887	0.0025529	0.0006586	1262.9	2.5744e-05	2.8101e-05	1205.2	381.37	2.6396e-05	2.7685e-05	493.46	204.39	165.62	75.162	2.5656e-05	88.868	341.926	320.326	204.292	134.668	239.762	201.955	133.002	140.268	215.547	387.554	137.947	142.788	144.535	150.001	346.392	146.670	-8191	255	
3219.661	1	1	0	0	0.26886	0.26389	0.27427	0.12433	0.11304	0.24659	0.38387	0.26235	0.094545	0.14958	0.22896	0.048673	0.12016	0.20616	0.22701	0.1496	-2.275	-2.7729	-2.9271	-2.6104	-3.0125	-2.9042	-2.7021	-3.1875	-2.6583	-2.9833	-3.1083	-2.8021	-3.0104	-2.9375	-2.75	-3.3083	265.680	475.478	434.097	418.016	203.323	395.286	426.825	400.009	309.991	172.296	395.221	277.529	131.688	456.114	231.477	364.457	0.0023016	0.0020606	0.00018248	1111.6	1.0558e-05	1.1878e-05	1335	423.93	7.9107e-06	1.3233e-05	538.51	229.01	180.1	82.157	1.9303e-05	98.465	0.0024413	0.002483	0.00064628	1263.7	2.7351e-05	2.7212e-05	1214.9	385.42	2.7797e-05	2.7087e-05	500.01	207.15	167.6	75.458	2.4894e-05	90.203	341.632	205.907	422.785	134.511	200.023	364.496	133.484	140.027	155.395	396.108	138.258	142.519	144.531	149.926	323.178	147.003	-8191	255	
3219.757	1	1	0	0	0.25367	0.16973	0.078321	0.0216	0.17272	0.08698	0.19083	0.1772	0.15633	0.17942	0.25289	0.27241	0.042926	0.52107	0.024966	0.22824	-2.25	-2.8146	-3.0708	-2.65	-3.05	-2.9125	-2.9062	-3.2313	-2.4896	-2.8979	-3.2896	-2.8083	-3.0812	-3.15	-2.5625	-3.4208	262.603	203.800	216.714	316.777	209.160	236.187	394.974	403.342	204.444	136.953	452.241	447.735	479.860	431.996	394.643	444.597	0.0023743	0.00075219	0.0004596	1121.4	1.0324e-05	1.2572e-05	1321.3	420.66	6.5701e-07	2.2525e-05	522.32	225.96	179.13	80.879	2.2338e-05	97.344	0.0025137	0.0023907	0.0006152	1269.1	2.762e-05	2.5815e-05	1200.4	384.38	2.7826e-05	2.6152e-05	486.4	205.74	166.99	74.854	2.3877e-05	89.931	340.525	218.622	253.690	134.262	318.638	280.072	133.443	139.987	435.652	279.839	137.838	142.402	144.448	149.781	284.631	146.669	-8191	255	
3219.877	1	1	0	0	0.12687	0.078893	0.13806	0.15369	0.23871	0.19829	0.29687	0.23178	0.12177	0.10889	0.27484	0.18539	0.23912	0.1838	0.20377	0.11903	-2.1958	-2.7313	-3.0708	-2.7917	-2.8083	-2.9292	-2.5271	-3.1271	-2.7875	-2.8104	-3.1854	-2.75	-3.1542	-3.1667	-2.675	-3.2458	311.936	398.587	228.235	230.545	479.437	452.701	437.218	415.015	197.053	411.108	147.107	451.517	157.548	430.492	121.676	364.132	0.0023675	0.0024906	0.00051994	1120.8	2.8417e-06	2.0799e-05	1331.1	420.46	6.5531e-06	9.4477e-06	524.23	227.78	179.45	81.914	2.8418e-05	98.075	0.0024763	0.0023449	0.00060101	1303.3	2.751e-05	2.5462e-05	1203.4	387.17	2.7318e-05	2.5701e-05	490.45	208.67	167.21	75.297	2.4681e-05	91.353	341.738	234.554	253.586	133.438	408.156	323.285	133.317	139.655	283.785	397.621	137.541	142.500	144.432	149.586	279.355	147.105	-8191	255	
3219.949	1	1	0	0	0.19865	0.23217	0.10501	0.11091	0.051924	0.1629	0.13961	0.324	0.22677	0.17405	0.35876	0.29052	0.1301	0.22149	0.21816	0.16365	-2.4833	-2.6854	-2.9458	-2.7083	-2.6875	-3.0625	-2.8042	-3.0312	-2.75	-2.7667	-3.1646	-2.8312	-2.8521	-3.2979	-2.5146	-3.2979	463.787	443.840	447.238	185.701	249.353	476.817	443.114	418.086	377.316	297.416	423.671	478.074	453.753	447.487	469.102	477.418	0.0017653	0.0026993	0.00054749	1137.8	1.7359e-06	2.1392e-05	1337.1	425.3	8.884e-06	2.2639e-05	536.08	230.25	180.28	82.153	2.0548e-05	98.73	0.0025283	0.002421	0.00064656	1354.3	2.8803e-05	2.6949e-05	1224.4	395.49	2.9222e-05	2.7647e-05	504.19	212.96	169.79	75.958	2.8711e-05	93.212	349.736	229.708	186.400	134.312	150.059	263.827	133.146	139.632	171.260	234.401	137.966	142.303	144.433	149.643	147.181	146.778	-8191	255	
3220.045	1	1	0	0	0.12307	0.19898	0.15298	0.077436	0.24915	0.22495	0.14227	0.30907	0.11107	0.18239	0.086661	0.22648	0.24889	0.36108	0.021533	0.17332	-2.3521	-2.7062	-2.8604	-2.6146	-2.7854	-3.0229	-2.8333	-3.0125	-2.95	-2.7125	-2.9333	-2.9729	-2.775	-3.2583	-2.4813	-3.1188	439.560	411.059	219.154	301.202	290.877	161.577	435.017	438.998	248.795	356.406	367.462	394.986	474.325	475.664	405.843	463.212	0.0021661	0.00048242	0.00069731	1138.4	2.0439e-05	3.4469e-05	1349.7	427.24	1.3203e-05	1.4482e-05	533.22	230.39	180.45	82.04	3.5349e-05	97.945	0.0026678	0.0025604	0.00073508	1392	3.0086e-05	2.7475e-05	1245.5	399.74	2.9546e-05	2.771e-05	509.25	212.99	169.12	75.682	3.089e-05	92.431	348.014	130.188	201.058	134.606	262.340	347.876	133.206	140.252	265.155	259.551	137.829	142.393	144.804	149.808	260.976	146.753	-8191	255	
3220.141	1	1	0	0	0.27863	0.27649	0.1058	0.14337	0.13355	0.2005	0.10567	0.32493	0.050659	0.2711	0.30814	0.18952	0.29761	0.29806	0.27964	0.31299	-2.4188	-2.4479	-2.8979	-2.6854	-2.7854	-2.9792	-2.8312	-2.9625	-3.0208	-2.525	-3.0792	-2.9562	-2.8771	-3.3	-2.7188	-3.0042	187.748	378.952	327.245	399.409	396.052	281.955	294.155	409.607	382.548	322.565	422.032	389.050	411.422	474.819	154.223	401.908	0.0024451	0.0017583	0.00077736	1119.9	1.3575e-05	2.2342e-05	1328.4	421.65	9.1821e-06	2.5882e-05	522.19	225.91	177.8	81.705	1.8774e-05	97.123	0.0026338	0.0025087	0.00078425	1377.9	2.9212e-05	2.7309e-05	1236.5	392.75	2.8676e-05	2.7499e-05	502.65	209.06	166.35	75.303	3.1038e-05	91.429	334.362	163.410	469.625	133.498	266.453	235.603	132.814	139.947	182.473	191.687	137.636	142.512	144.354	149.840	253.609	146.741	-8191	255	
3220.260	1	1	0	0	0.22932	0.014616	0.055164	0.31045	0.19385	0.12401	0.47284	0.10089	0.23236	0.048007	0.24018	0.077718	0.25413	0.32834	0.16998	0.1643	-2.575	-2.5333	-2.8479	-2.8646	-2.4542	-3.0604	-2.8917	-2.8771	-2.9854	-2.6042	-3.0167	-3.1542	-2.7333	-3.2562	-2.6937	-3.0146	481.870	396.875	177.696	429.798	375.560	239.786	452.602	358.694	449.423	290.850	445.775	377.026	139.356	133.047	370.530	129.464	0.002224	0.0008927	0.00029907	1120.6	8.8713e-06	9.8358e-06	1330.7	421.46	2.4067e-05	2.8852e-05	528.6	227.11	180.49	81.812	1.3984e-05	97.987	0.0024782	0.0024987	0.0007915	1347.3	2.7284e-05	2.7628e-05	1235.5	391.27	2.6933e-05	2.8338e-05	507.94	209.56	166.92	75.713	3.0449e-05	91.607	331.103	445.111	160.763	134.447	404.288	251.643	133.169	139.895	448.103	195.040	137.805	142.422	144.713	149.813	304.834	146.645	-8191	255	
3220.356	1	1	0	0	0.20373	0.21739	0.080185	0.10014	0.090783	0.21965	0.41559	0.11713	0.18258	0.20484	0.17791	0.38894	0.37997	0.13853	0.14758	0.32106	-2.4646	-2.6896	-2.8729	-2.9562	-2.6958	-2.9583	-3.0771	-2.7875	-2.95	-2.725	-2.8354	-3	-2.65	-3.2771	-2.5312	-2.8458	391.628	455.397	440.165	193.998	478.807	320.425	384.491	424.994	393.771	453.418	159.381	442.259	127.905	468.248	459.367	353.889	0.0026726	0.0033771	0.00041928	1125.4	5.2181e-06	2.0825e-05	1333	422.21	2.0795e-05	1.8463e-06	534.98	229.41	181.47	82.628	1.7174e-05	99.739	0.0023898	0.0026508	0.00077903	1341.3	2.6779e-05	2.9473e-05	1238.4	392.13	2.644e-05	3.0212e-05	512.47	211.08	167.82	76.828	2.9958e-05	92.487	334.647	169.796	260.345	135.280	291.813	225.284	132.894	139.821	271.063	339.252	137.938	142.707	144.616	149.914	411.494	146.683	-8191	255	
3220.452	1	1	0	0	0.2411	0.073403	0.38035	0.26669	0.1227	0.31755	0.28481	0.2356	0.087646	0.096189	0.024421	0.23807	0.29672	0.45742	0.17634	0.35188	-2.5042	-2.5979	-2.7583	-2.9437	-2.6625	-3.0208	-2.9854	-2.9396	-3.1458	-2.6708	-3.0458	-3.025	-2.6625	-3.0979	-2.7958	-2.6188	402.829	146.352	391.870	208.739	378.553	463.712	389.263	440.938	409.398	188.068	216.537	429.922	445.873	137.423	273.771	388.685	0.0024917	0.0018473	0.00090576	1140.8	1.3817e-06	1.0106e-05	1332.5	421.09	1.9169e-05	1.011e-05	527.12	226.14	180.45	82.614	8.1241e-06	98.189	0.0023669	0.0027976	0.00075109	1320.1	2.663e-05	3.0101e-05	1227.8	387.58	2.613e-05	3.0235e-05	499.82	207.78	166.85	76.552	2.8069e-05	90.931	341.600	201.433	254.227	134.565	207.962	271.011	133.410	140.060	259.160	176.571	137.345	142.379	144.607	149.607	220.144	146.979	-8191	255	
3220.549	1	1	0	0	0.15802	0.11444	0.15666	0.16256	0.20103	0.17257	0.1716	0.20734	0.12132	0.038561	0.051287	0.23877	0.2087	0.18404	0.10507	0.38924	-2.7333	-2.4333	-2.6229	-3.0208	-2.5563	-2.9875	-2.7958	-2.6854	-2.9375	-2.8292	-2.7562	-3.1354	-2.7604	-2.9354	-2.8958	-2.5312	260.369	178.681	473.881	306.464	245.387	211.948	422.241	382.312	405.277	415.999	311.290	415.980	460.835	479.134	266.593	407.290	0.0027711	0.0020918	0.0009118	1118.9	2.603e-05	2.6935e-05	1327.8	418.11	3.0282e-05	1.6445e-05	531.12	228.54	180.52	82.582	3.354e-05	99.117	0.0024412	0.0027788	0.00071776	1293.8	2.8207e-05	3.0471e-05	1217.7	385.34	2.7445e-05	2.9809e-05	499.22	207.45	167.68	76.342	2.6937e-05	91.101	339.705	237.246	190.900	134.526	275.136	174.825	133.182	139.993	185.241	216.874	138.187	142.853	144.589	149.674	143.768	146.815	-8191	255	
3220.645	1	1	0	0	0.24631	0.19545	0.099079	0.12934	0.12408	0.055393	0.11841	0.27844	0.061063	0.20834	0.098649	0.31679	0.23195	0.42672	0.071529	0.35763	-2.6271	-2.9417	-2.6208	-3.0854	-2.5417	-3.1	-3.1229	-2.8042	-2.8875	-2.7417	-2.7771	-3.1146	-2.8271	-3.0646	-3.0271	-2.8979	204.825	195.658	444.812	228.355	134.581	257.290	385.834	436.844	282.886	436.268	143.088	463.537	429.176	460.003	230.474	376.957	0.002509	0.00096426	0.00035132	1111.7	8.5129e-06	2.2294e-05	1338.3	424.8	1.7294e-05	1.7615e-05	540.92	230.43	182.15	82.846	1.1603e-05	99.905	0.0025351	0.0026757	0.00069206	1275.5	2.8836e-05	2.8982e-05	1223.3	388.03	2.884e-05	2.9e-05	504.5	209.7	169.8	76.787	2.6478e-05	92.168	345.955	154.843	226.229	134.774	360.205	315.981	133.262	139.854	225.060	271.107	137.710	142.575	144.405	149.501	262.630	146.506	-8191	255	
3220.741	1	1	0	0	0.0078257	0.22656	0.13058	0.040431	0.13753	0.13463	0.32655	0.11554	0.13095	0.10784	0.1402	0.31367	0.34162	0.21223	0.084577	0.30714	-2.5854	-2.7979	-2.4292	-2.9813	-2.8229	-2.8292	-3.2333	-2.7896	-3.0187	-2.6125	-2.7271	-3.0563	-3.0396	-2.8833	-3.1021	-2.6333	191.563	227.510	255.288	169.138	123.925	481.425	412.345	435.746	352.638	218.151	126.844	405.464	439.186	143.341	377.779	394.260	0.0018877	0.0010053	0.00076265	1130.1	2.9398e-05	1.4496e-06	1354.2	426.88	2.0453e-05	9.521e-06	548.83	235.17	184.01	83.625	7.0936e-06	100.77	0.0026583	0.0025867	0.0006679	1300.5	2.9536e-05	2.8151e-05	1233.3	393.47	2.92e-05	2.7569e-05	510.54	213.86	171.52	76.984	2.4692e-05	93.003	354.809	213.352	235.245	133.782	238.478	469.215	133.175	139.905	255.652	398.853	137.473	142.352	144.651	149.603	217.771	146.820	-8191	255	
3220.837	1	1	0	0	0.15065	0.14411	0.098833	0.1867	0.14032	0.25074	0.47275	0.2937	0.039858	0.19189	0.2857	0.092506	0.079477	0.2131	0.065855	0.29102	-2.6792	-2.825	-2.6063	-2.9708	-2.5833	-2.8563	-3.075	-2.7146	-3.0979	-2.7958	-2.9708	-3.2083	-2.9542	-2.7583	-2.9646	-2.8021	341.227	316.512	356.571	312.976	186.441	243.403	414.785	451.041	187.342	240.823	463.048	402.546	192.603	407.899	179.255	399.918	0.0024372	0.0015996	0.00011627	1132.5	7.6857e-06	1.5425e-05	1343.6	423.62	8.1705e-06	1.3917e-05	532.02	232.61	182.7	83.581	1.1315e-05	99.856	0.0025692	0.0024377	0.00062378	1309.5	2.841e-05	2.6668e-05	1216.6	390.33	2.7625e-05	2.5714e-05	495.06	211.63	169.37	76.469	2.36e-05	92.667	311.772	260.820	413.330	134.353	406.821	332.781	133.329	140.024	313.578	248.073	137.867	142.429	144.505	149.499	300.624	146.979	-8191	255	
3220.958	1	1	0	0	0.30177	0.027103	0.23691	0.30487	0.17923	0.31979	0.19496	0.13964	0.22018	0.15577	0.23321	0.26938	0.35143	0.20674	0.17886	0.20806	-2.4562	-3.0708	-2.3479	-3.0458	-2.6917	-2.8458	-3.1896	-2.8667	-2.7167	-3.2042	-2.7917	-3.1292	-2.8854	-2.9354	-2.9208	-2.9167	472.889	135.057	216.452	463.350	165.710	402.820	123.776	413.868	296.870	192.284	396.126	434.059	122.899	162.041	175.102	416.067	0.0016583	0.0013968	0.00047051	1121.2	4.3607e-06	7.4142e-06	1329.5	427.31	1.5457e-05	1.7327e-05	539.9	233.04	183.75	84.023	2.8165e-05	100.84	0.002435	0.0023107	0.00060612	1310.9	2.6922e-05	2.5173e-05	1210	392.92	2.6723e-05	2.4808e-05	500.6	213.56	169.69	76.434	2.4592e-05	93.27	339.698	458.237	215.779	133.971	332.911	323.628	133.593	140.082	273.996	242.285	137.821	142.513	144.188	149.641	283.084	146.403	-8191	255	
3221.052	1	1	0	0	0.17206	0.1193	0.099221	0.48237	0.13415	0.22706	0.43323	0.12814	0.11748	0.26019	0.24883	0.11497	0.43393	0.21736	0.053576	0.075126	-2.2125	-2.8646	-2.6	-2.8833	-2.8771	-2.5583	-3.0917	-2.8937	-2.8333	-3.2021	-2.475	-3.2458	-3.1	-2.7417	-3.0458	-2.9375	206.746	199.786	279.468	470.087	323.939	177.336	461.075	412.451	140.136	468.740	419.605	467.172	440.811	447.772	246.362	450.410	0.0022263	0.0011966	0.0001258	1129	9.4383e-06	1.5898e-05	1353	430.2	4.2977e-05	2.1241e-05	547.16	237.4	185.54	84.35	7.0728e-06	101.59	0.0023531	0.0022392	0.00064496	1320.2	2.6664e-05	2.4533e-05	1233.7	395.71	2.6214e-05	2.4542e-05	511.82	216.62	170.26	76.598	2.6487e-05	93.955	333.673	209.005	196.664	133.289	346.301	223.490	133.527	139.835	243.047	355.906	137.961	142.560	144.584	149.481	342.937	146.528	-8191	255	
3221.148	1	1	0	0	0.061652	0.13331	0.21007	0.20687	0.055268	0.35104	0.2477	0.28344	0.097565	0.16955	0.1728	0.44297	0.23669	0.092984	0.22877	0.30427	-2.3021	-2.9792	-2.6521	-2.8167	-2.9562	-2.4708	-3.1937	-3.0396	-2.6125	-3.0958	-2.6729	-3.0417	-3.1729	-2.6875	-3.1188	-3.1646	210.263	136.996	456.416	237.126	147.395	436.362	386.779	408.215	273.277	208.639	465.764	472.796	125.720	329.164	183.341	457.702	0.0021104	0.001485	0.00032909	1113.2	2.5099e-05	1.3494e-05	1357.1	431.03	3.4259e-05	1.7272e-05	547.77	235.29	183.94	83.525	2.6852e-05	101.11	0.0023363	0.0021783	0.00068007	1307.8	2.5289e-05	2.3835e-05	1243.8	395.77	2.5192e-05	2.3638e-05	511.72	214.3	168.87	76.207	2.7086e-05	92.853	342.955	174.903	203.475	135.224	344.746	261.408	133.329	140.045	297.795	150.628	137.495	142.178	144.312	149.540	214.955	146.652	-8191	255	
3221.244	1	1	0	0	0.2088	0.26945	0.14958	0.1828	0.11271	0.035583	0.25277	0.30309	0.17329	0.27543	0.3327	0.33806	0.36283	0.37412	0.063946	0.43748	-2.3	-3.0438	-2.6583	-2.9396	-3.0333	-2.6063	-3.2417	-3.0875	-2.6937	-3.0687	-2.6875	-3.1188	-3.0979	-2.8812	-2.8833	-3.0687	239.844	281.666	413.095	136.330	371.080	333.245	356.049	468.149	458.925	198.884	422.058	460.574	426.677	447.663	292.170	453.647	0.0022511	0.0030243	0.00053747	1126.7	8.7895e-06	5.4455e-06	1345.7	426.87	9.7137e-06	1.8527e-05	537.25	236.35	183.95	83.522	4.6441e-06	100.49	0.0022344	0.0021897	0.00069331	1291.7	2.4452e-05	2.4377e-05	1229.4	390.22	2.3945e-05	2.4365e-05	508.03	212.67	167.75	76.216	2.7068e-05	92.395	354.239	178.126	260.431	134.832	371.313	379.849	133.211	140.168	432.289	219.276	137.643	142.729	144.486	149.205	333.907	146.676	-8191	255	
3221.341	1	1	0	0	0.065803	0.1549	0.1107	0.10789	0.27308	0.039515	0.16509	0.20883	0.034614	0.13884	0.1718	0.23087	0.17964	0.28821	0.21086	0.20632	-2.1625	-2.9625	-2.5667	-2.8333	-3.0146	-2.6479	-2.9792	-3.1708	-2.5458	-2.8625	-3.0646	-2.7708	-3.1604	-2.7396	-2.7125	-3.0979	481.340	305.625	439.919	143.553	272.355	129.340	379.175	124.132	196.873	368.376	361.548	445.815	422.070	429.580	388.136	436.226	0.0026641	0.003134	0.00082012	1108.9	1.3204e-05	1.4213e-05	1347.3	427.06	2.1206e-05	2.7011e-05	546.46	234.41	185.07	83.806	1.4031e-05	100.26	0.0021473	0.0023139	0.00069879	1280.3	2.36e-05	2.6018e-05	1233.9	391.76	2.3528e-05	2.6059e-05	513.08	213.46	168.42	76.922	2.6759e-05	92.583	327.873	127.956	293.376	134.871	396.483	245.616	133.215	139.848	294.286	271.460	137.646	142.783	144.456	149.574	275.061	146.657	-8191	255	
3221.437	1	1	0	0	0.10934	0.038145	0.32654	0.11173	0.17845	0.15182	0.15359	0.092277	0.058833	0.27744	0.15262	0.01084	0.23988	0.33976	0.2138	0.089134	-2.2604	-2.9771	-2.7208	-2.5646	-2.9708	-2.7771	-2.9271	-3.1312	-2.4708	-2.9729	-2.9583	-2.7667	-3.0292	-2.9458	-2.6188	-3.2542	236.723	300.786	467.545	175.471	208.996	173.614	437.010	392.204	451.840	443.070	162.062	266.620	458.440	438.166	329.648	434.116	0.0025781	0.0024358	0.00016812	1116.2	6.5412e-06	9.3162e-06	1351.5	425.25	1.3931e-05	7.1208e-06	549.89	236.34	185.2	83.969	1.1855e-05	101.26	0.0021724	0.0024974	0.00069537	1288.9	2.4267e-05	2.7907e-05	1241.1	392.5	2.4332e-05	2.7969e-05	516.14	214.95	169.99	77.362	2.695e-05	92.811	339.875	232.212	243.451	135.277	151.090	248.163	133.389	140.076	244.183	199.209	137.818	142.664	144.373	149.508	463.040	146.925	-8191	255	
3221.557	1	1	0	0	0.1947	0.25845	0.1546	0.28045	0.086843	0.10032	0.52434	0.22718	0.14645	0.12695	0.11146	0.15073	0.25697	0.19077	0.0079769	0.2895	-2.1917	-2.9479	-2.7083	-2.6458	-3.0042	-2.7604	-3.1125	-3.1979	-2.6167	-3.0229	-2.8063	-2.7375	-3.0021	-2.9125	-2.55	-3.3187	371.963	339.716	260.440	416.096	410.536	146.259	403.139	368.711	130.527	163.395	464.745	445.814	130.497	425.426	475.903	414.710	0.0018538	0.0012683	0.00069387	1126.3	2.5747e-05	8.0011e-06	1338.9	423.89	2.4003e-05	3.0735e-05	536.77	232.02	182.8	83.59	9.183e-06	98.895	0.0022901	0.0026138	0.00069052	1283.5	2.6095e-05	2.8897e-05	1229.1	387.42	2.6168e-05	2.8884e-05	505.88	210.77	168.97	76.934	2.6764e-05	90.909	342.818	238.319	231.058	134.386	258.941	410.951	133.174	139.984	198.450	282.589	137.745	142.578	144.607	149.622	308.006	146.687	-8191	255	
3221.653	1	1	0	0	0.36053	0.11422	0.12133	0.10375	0.18221	0.20235	0.22655	0.3522	0.13432	0.14784	0.34484	0.040419	0.33503	0.15462	0.16828	0.13367	-2.35	-2.8937	-2.8917	-2.6417	-3.0583	-2.5792	-2.9042	-2.9625	-2.5729	-2.8521	-2.9333	-2.6646	-3.1083	-2.9646	-2.7438	-3.2521	391.805	319.212	340.905	140.178	323.653	445.431	448.104	435.868	379.047	474.734	391.659	434.611	141.920	348.491	384.646	455.519	0.0029371	0.0013023	0.00017647	1130.5	9.5892e-06	1.3295e-05	1331.3	423.14	3.0836e-05	8.24e-06	538.89	232.96	183.07	82.982	1.4665e-05	99.834	0.0024507	0.0025968	0.0006789	1276.2	2.7548e-05	2.8424e-05	1222.8	386.8	2.8031e-05	2.8297e-05	505.52	211.53	170.64	76.843	2.6451e-05	91.813	345.840	188.326	128.195	134.815	344.468	350.064	132.951	139.748	188.953	387.523	138.033	142.537	144.363	149.447	239.914	146.294	-8191	255	
3221.750	1	1	0	0	0.36713	0.18009	0.18919	0.075022	0.15175	0.074421	0.20907	0.31535	0.039152	0.052214	0.37804	0.20876	0.079975	0.34573	0.046723	0.17557	-2.2167	-2.6917	-2.9354	-2.7792	-2.8479	-3.0187	-2.7354	-3.1167	-2.6354	-2.75	-3.1771	-2.7	-3.0542	-2.8646	-2.6771	-3.1917	400.086	200.579	167.429	348.264	301.456	367.832	402.296	452.866	318.020	145.819	393.795	406.695	245.404	431.338	429.487	362.899	0.0022404	0.00094273	0.00033313	1121.5	1.1721e-05	2.1066e-05	1351.1	427.83	1.3369e-05	3.6599e-06	545.37	236.19	184.57	83.194	9.3631e-06	100.23	0.0026134	0.002547	0.00066662	1294	2.9439e-05	2.8334e-05	1234.2	392.8	2.9776e-05	2.8499e-05	508.35	214.25	172.61	77.068	2.6274e-05	92.991	340.027	409.890	284.455	134.960	276.796	306.924	133.439	139.752	142.160	237.537	137.398	142.522	144.193	149.899	257.370	146.994	-8191	255	
3221.846	1	1	0	0	0.19962	0.23175	0.19927	0.094201	0.14671	0.17022	0.14293	0.30721	0.26064	0.095892	0.12594	0.33972	0.23906	0.28561	0.15369	0.043235	-2.2792	-2.7104	-2.9521	-2.7292	-2.8125	-2.7396	-2.7583	-3.2958	-2.7104	-2.7687	-3.1937	-2.7229	-2.8312	-3.2938	-2.325	-3.2458	200.155	272.176	262.765	376.553	123.023	203.608	405.324	422.459	201.535	479.767	369.360	417.861	435.013	124.463	174.292	374.230	0.0021227	0.0023104	0.00070965	1145.4	9.2277e-06	1.4684e-05	1364.6	432.62	1.4174e-05	1.566e-05	545.92	236.35	185.75	83.546	2.2375e-05	100.23	0.0027159	0.0026036	0.00066256	1340.6	3.0518e-05	2.8548e-05	1243.5	398.78	3.0451e-05	2.8734e-05	513.69	216.62	172.34	76.926	2.6218e-05	93.462	323.791	211.114	250.051	134.219	332.650	267.566	133.367	140.039	296.523	270.016	137.827	142.590	144.635	149.717	266.488	146.473	-8191	255	
3221.940	1	1	0	0	0.062642	0.3214	0.14185	0.15206	0.066834	0.14364	0.1777	0.2757	0.098614	0.18373	0.26957	0.17979	0.037015	0.3018	0.32659	0.25904	-2.3312	-2.55	-2.9146	-2.6312	-2.8167	-2.9708	-2.7896	-3.0187	-2.7562	-2.5812	-3.3438	-2.7687	-2.9646	-2.9583	-2.5312	-3.0792	325.775	431.175	198.519	205.480	398.842	282.025	455.523	376.454	405.591	193.773	435.594	390.030	253.515	157.303	305.591	438.190	0.0017815	0.002287	0.00102	1139.5	3.4749e-06	2.0104e-05	1337	423.65	1.4441e-05	1.338e-05	533.23	232.47	182.45	82.954	2.9568e-05	99.892	0.0026805	0.0025266	0.00065677	1350.3	2.9106e-05	2.75e-05	1223.2	393.93	2.9325e-05	2.8219e-05	502.68	214.77	170.51	76.463	2.7248e-05	93.76	341.519	301.126	239.162	134.163	355.518	454.014	133.348	139.882	245.085	391.923	137.824	142.487	144.428	149.575	342.949	146.626	-8191	255	
3222.036	1	1	0	0	0.21827	0.082205	0.21812	0.17577	0.025403	0.22593	0.26422	0.21641	0.095155	0.36504	0.18843	0.20418	0.18106	0.21345	0.26127	0.086985	-2.3917	-2.4688	-2.9854	-2.5521	-2.7542	-2.8958	-2.7917	-3.1167	-2.9646	-2.6333	-3.1771	-2.8854	-2.95	-3.1479	-2.7021	-2.9188	188.996	387.275	284.117	153.278	424.680	466.177	130.779	409.665	422.780	425.497	175.342	341.466	333.525	438.717	248.206	455.945	0.0021656	0.0016565	0.0003362	1139.8	9.4059e-06	2.1273e-05	1346.5	424.57	2.2951e-05	1.7635e-05	544.53	234.23	183.83	83.979	3.3098e-05	100.33	0.0026626	0.0025271	0.00070216	1377.3	2.9587e-05	2.7095e-05	1237.3	397.43	2.9272e-05	2.7262e-05	513.63	217.11	171.74	76.936	2.9038e-05	94.52	342.151	242.428	478.227	134.313	356.572	249.246	133.343	139.614	363.269	337.382	137.900	142.463	144.811	149.610	241.892	146.588	-8191	255	
3222.132	1	1	0	0	0.12017	0.19502	0.13794	0.11511	0.34628	0.22661	0.42808	0.21043	0.17122	0.22856	0.16545	0.27515	0.22656	0.14576	0.19541	0.16603	-2.2083	-2.4125	-3.1646	-2.6208	-2.8146	-3.1083	-2.7125	-3.2062	-2.7938	-2.5583	-2.9646	-2.9021	-2.8417	-3.3021	-2.7708	-2.9771	403.637	266.610	413.415	362.340	127.781	251.026	435.237	455.408	222.143	167.573	417.346	468.190	419.519	425.365	391.595	361.639	0.0026278	0.00030203	0.00046235	1119.4	2.0326e-05	8.3252e-06	1356.6	431.87	2.1949e-05	1.8924e-05	551.59	238.48	184.56	84.167	2.8376e-05	101.65	0.0026084	0.0025037	0.0007448	1371.8	2.8999e-05	2.6559e-05	1253.6	399.31	2.816e-05	2.6922e-05	522.91	218.74	171.52	77.037	3.0155e-05	94.996	345.151	298.773	177.820	133.935	195.020	377.740	132.873	139.818	327.040	272.534	137.718	142.363	144.649	149.449	340.738	146.743	-8191	255	
3222.229	1	1	0	0	0.1218	0.10411	0.15895	0.13983	0.15299	0.13092	0.14991	0.3217	0.24375	0.058375	0.031386	0.24802	0.12158	0.27401	0.13982	0.13686	-2.4854	-2.6854	-3.0271	-2.8771	-2.5542	-3.1167	-3.0479	-3.0083	-2.8125	-2.6667	-3.1542	-2.9333	-2.7833	-3.2458	-2.7104	-3.1375	290.273	207.236	153.171	475.687	232.424	142.612	382.072	441.225	238.651	263.355	461.456	419.100	411.957	420.585	454.056	433.422	0.0027075	0.0022035	0.00075302	1153.3	4.8089e-06	1.4889e-05	1359.8	429.15	5.6681e-06	1.1258e-05	540.94	234.83	184.28	83.527	1.0633e-05	100.4	0.0025226	0.0024941	0.00078449	1362.6	2.8536e-05	2.7359e-05	1265	397.76	2.7038e-05	2.7277e-05	519.14	215.71	170.18	76.841	3.0467e-05	93.666	351.689	153.202	211.518	134.726	290.632	208.208	133.106	139.829	274.455	161.512	137.924	142.344	144.340	149.396	260.275	146.425	-8191	255	
3222.349	1	1	0	0	0.14636	0.29259	0.20459	0.14579	0.055577	0.16158	0.034093	0.16307	0.17484	0.032158	0.3986	0.33722	0.46191	0.11764	0.10663	0.10048	-2.55	-2.5292	-2.6333	-2.8125	-2.5938	-3.0917	-3.0062	-2.7833	-3.0563	-2.4437	-2.9625	-3.1354	-2.7792	-3.1354	-2.6604	-2.9896	434.303	241.027	230.073	140.609	203.233	334.383	439.993	435.535	225.544	134.895	420.866	128.731	473.982	151.936	213.725	376.882	0.002034	0.00427	0.00074039	1123.6	1.9666e-05	1.0117e-05	1342.9	427.31	7.4409e-06	3.2641e-05	541.85	235.39	183.9	84.186	2.0384e-05	101.12	0.002397	0.0025612	0.00077027	1334	2.6544e-05	2.7893e-05	1244.1	393.85	2.6078e-05	2.8376e-05	515.36	214.7	169.59	77.494	2.984e-05	93.839	338.362	202.366	474.604	133.880	437.488	261.951	133.321	139.834	470.170	234.165	137.656	142.624	144.823	149.837	273.805	146.719	-8191	255	
3222.445	1	1	0	0	0.065645	0.22495	0.2467	0.18338	0.23581	0.15363	0.14734	0.18062	0.25972	0.027248	0.14898	0.31276	0.1453	0.34252	0.19362	0.42285	-2.6688	-2.4583	-3.0729	-2.8458	-2.7167	-2.9354	-3.0083	-2.8604	-2.9792	-2.6271	-2.8708	-3.2458	-2.7188	-3.1208	-2.9146	-2.5271	358.641	263.222	440.022	438.800	124.905	159.832	369.242	444.874	262.955	255.388	351.677	425.787	167.061	444.131	320.141	432.625	0.0026433	0.0035454	0.00062417	1127.5	1.0008e-05	8.571e-06	1361	428.88	2.279e-05	1.3526e-05	550.11	238.25	183.55	84.212	2.5246e-05	101.85	0.0023684	0.0026955	0.00074466	1314.4	2.6112e-05	2.93e-05	1252	394.63	2.5602e-05	2.9695e-05	520.63	216.49	170	77.922	2.848e-05	94.308	335.964	150.777	216.409	135.075	247.038	345.269	133.514	140.141	223.555	321.022	138.048	142.572	144.082	149.405	380.825	147.167	-8191	255	
3222.517	1	1	0	0	0.022681	0.10015	0.19107	0.078177	0.0054334	0.11042	0.16975	0.1995	0.1671	0.11388	0.20391	0.18006	0.34086	0.16098	0.25891	0.37451	-2.6875	-2.3417	-2.8521	-3.1917	-2.5958	-2.9938	-2.9604	-2.7687	-3.1708	-2.8667	-2.9688	-3.1333	-2.7604	-3.0875	-3.0042	-2.8104	446.097	145.992	463.781	464.368	401.307	176.740	425.019	122.481	431.513	306.770	396.236	421.043	462.966	429.208	196.881	454.187	0.0032533	0.0033672	0.00050083	1114.1	1.8665e-05	1.3613e-05	1362.7	432.16	3.3325e-05	1.7993e-05	558.87	241.37	187.95	84.79	9.6679e-06	102.46	0.0023873	0.0027474	0.00072405	1301.6	2.6721e-05	2.991e-05	1255.3	397.48	2.6902e-05	2.983e-05	527.21	218.49	173.19	78.29	2.7763e-05	94.322	327.190	241.528	134.095	133.928	247.663	232.332	133.382	140.030	216.325	233.781	137.451	142.580	144.371	149.989	176.211	146.554	-8191	255	
3222.638	1	1	0	0	0.17705	0.089883	0.13995	0.1974	0.075323	0.10982	0.21892	0.2423	0.31808	0.10923	0.17898	0.31474	0.38926	0.15717	0.1282	0.27294	-2.5125	-2.8021	-2.8646	-3.0583	-2.575	-2.8604	-3.1292	-2.7583	-3.0896	-2.6521	-3.0208	-3.1646	-2.7562	-3.0604	-2.8312	-2.8375	162.949	265.439	261.082	462.588	216.950	474.365	412.175	441.979	320.359	468.956	454.261	453.414	431.969	432.059	362.679	399.508	0.0025051	0.0020227	0.0003188	1132.8	1.6875e-05	2.1458e-05	1346.7	426.61	3.8356e-05	1.6429e-05	544.98	238.28	184.28	84.377	2.1544e-05	101.47	0.0024861	0.002717	0.00069968	1285.9	2.8141e-05	2.8783e-05	1237.9	390.72	2.7946e-05	2.8698e-05	511.55	214.85	171.38	77.48	2.6228e-05	92.835	330.159	178.085	185.704	134.375	189.308	360.229	133.533	140.317	261.659	233.382	137.966	142.514	144.114	149.758	266.940	146.523	-8191	255	
3222.734	1	1	0	0	0.20656	0.18641	0.0073387	0.23342	0.11997	0.10384	0.38824	0.24266	0.1015	0.10816	0.11512	0.1988	0.14809	0.18424	0.34536	0.16859	-2.6125	-2.8521	-2.7438	-2.9833	-2.5917	-2.7625	-3.0938	-2.7979	-2.9	-2.6958	-2.8042	-3.1896	-2.8583	-2.9	-3.1417	-2.7	130.342	377.343	479.288	202.435	393.673	146.618	428.408	349.298	295.056	303.049	332.380	341.023	350.196	451.766	373.147	378.824	0.002792	0.0011184	0.00037272	1128.3	4.5455e-06	5.3042e-07	1352.1	427.07	1.5213e-05	1.8855e-05	547.51	238.39	185.03	85.099	4.8097e-06	102.19	0.0025542	0.0025541	0.00066519	1278.1	2.8662e-05	2.7652e-05	1232.2	391.41	2.8499e-05	2.7628e-05	512.5	215.88	172.98	77.736	2.5116e-05	94.113	322.185	466.132	140.320	133.784	184.272	335.484	133.473	139.965	195.325	360.845	138.219	142.357	144.268	149.495	311.591	146.783	-8191	255	
3222.830	1	1	0	0	0.16625	0.14004	0.14543	0.20282	0.22567	0.34908	0.16143	0.20473	0.18739	0.016464	0.17533	0.39031	0.25109	0.15903	0.15569	0.11537	-2.5667	-2.8542	-2.7896	-3.1208	-2.8063	-2.6646	-3.3063	-2.6583	-3.0625	-2.7479	-2.7667	-3.1104	-2.85	-2.8042	-2.8875	-2.7188	161.214	355.349	233.396	406.029	195.018	149.736	393.991	477.785	262.631	183.229	408.854	436.662	184.256	413.685	386.806	363.312	0.0021456	0.0010597	0.00018113	1130.8	1.1859e-05	2.8498e-05	1365.1	434.25	1.7911e-05	2.2296e-05	554.52	242.22	186.54	84.825	3.142e-05	103.37	0.002551	0.002491	0.00063993	1299.7	2.8727e-05	2.691e-05	1240.3	397.14	2.8539e-05	2.6853e-05	516.66	219.61	173.7	77.929	2.474e-05	95.734	332.972	298.793	292.095	134.655	244.747	382.076	133.214	139.900	209.353	326.728	137.506	142.274	144.337	149.738	288.139	146.661	-8191	255	
3222.951	1	1	0	0	0.11706	0.18624	0.12625	0.14918	0.057631	0.28759	0.41519	0.40798	0.12437	0.2309	0.093996	0.25268	0.20569	0.30539	0.24862	0.2941	-2.5604	-2.8854	-2.5292	-3.0875	-2.875	-2.8417	-3.3146	-2.725	-2.8458	-3.0792	-2.7292	-3.0208	-2.7229	-2.8854	-2.9667	-2.775	282.488	471.288	477.646	240.136	140.143	277.890	422.533	476.996	398.428	466.584	429.867	421.298	423.632	436.793	434.616	454.407	0.0023958	0.0025913	0.00019413	1148.8	1.9759e-05	8.2376e-06	1385.3	437.26	5.3283e-06	9.3575e-06	560.13	240.59	186.33	85.157	7.4553e-06	102.99	0.0025524	0.0024572	0.00064124	1339.9	2.8554e-05	2.6945e-05	1254.6	402.96	2.7957e-05	2.6284e-05	517.66	220.27	172.61	77.649	2.4683e-05	95.531	332.715	176.957	414.357	134.964	317.865	180.980	133.106	140.050	399.106	340.937	137.768	142.584	144.270	149.805	358.845	146.543	-8191	255	
3223.047	1	1	0	0	0.1275	0.13381	0.2373	0.1378	0.15575	0.31326	0.22145	0.42658	0.17184	0.11459	0.27802	0.13773	0.26311	0.12166	0.081442	0.45539	-2.4333	-2.8833	-2.5458	-2.9396	-2.9354	-2.5229	-3.3333	-2.7792	-2.8688	-2.9271	-2.7708	-2.9417	-3.0229	-2.7708	-3.0771	-3.0146	249.319	445.155	430.092	341.861	437.439	398.802	331.885	398.713	373.622	210.575	392.334	169.049	421.312	413.900	440.195	439.360	0.002476	0.0013868	0.0006775	1131.9	2.7989e-06	8.0569e-06	1347.5	426.86	1.5028e-05	2.5155e-05	544.53	239.89	185.52	84.79	2.4089e-05	102.34	0.0024913	0.002354	0.00064566	1333.9	2.7517e-05	2.5664e-05	1234.7	396.58	2.7103e-05	2.553e-05	511.19	218.27	171.8	77.352	2.6394e-05	95.551	331.284	237.032	190.559	134.385	129.002	252.459	133.039	140.117	122.733	294.704	137.586	142.331	144.228	149.755	183.281	146.577	-8191	255	
3223.117	1	1	0	0	0.17531	0.015342	0.13861	0.18389	0.092091	0.021685	0.28549	0.23775	0.17207	0.14939	0.072924	0.12794	0.21359	0.133	0.07774	0.27313	-2.2042	-2.8333	-2.4875	-2.8833	-2.7854	-2.7667	-3.3438	-3.0104	-2.6292	-3.2042	-2.7771	-2.8833	-3.0833	-2.7438	-2.9021	-2.9062	475.762	309.032	338.897	234.956	168.160	216.446	431.094	127.697	381.031	399.877	187.134	403.582	418.290	399.925	207.399	464.036	0.0027714	0.00086993	0.00035117	1126	2.2518e-05	5.8834e-06	1359.5	434.94	1.8817e-05	1.4401e-05	553.42	241.9	187.98	84.942	1.3558e-05	103.77	0.00245	0.0023012	0.00069314	1332	2.6888e-05	2.5053e-05	1247.3	400.2	2.7025e-05	2.4938e-05	523.12	220.89	172.83	77.808	2.8445e-05	96.38	330.839	232.132	410.701	134.205	412.587	462.291	133.141	139.682	200.616	249.299	137.286	142.377	144.154	149.667	163.188	146.596	-8191	255	
3223.237	1	1	0	0	0.08918	0.13894	0.12962	0.069061	0.34797	0.29334	0.45229	0.21698	0.095941	0.07245	0.38507	0.1416	0.26407	0.44613	0.080379	0.27026	-2.2604	-3.1229	-2.4958	-2.7583	-2.8604	-2.4917	-3.2021	-2.925	-2.7812	-3.025	-2.9083	-2.7354	-3.1	-2.7167	-3.0667	-2.7875	215.801	139.051	129.076	432.366	172.200	276.284	402.685	457.708	167.720	465.785	124.185	456.851	461.531	417.580	296.975	402.926	0.0020996	0.0024167	0.00069203	1138.6	2.5516e-05	2.0697e-05	1371	438.59	2.4129e-05	5.7606e-06	564.74	247.12	188.81	85.806	1.0515e-05	105.48	0.002431	0.0023394	0.00074294	1335.7	2.6502e-05	2.5658e-05	1261.4	402.68	2.6485e-05	2.5892e-05	533.39	223.85	173.72	78.409	2.9084e-05	97.075	338.100	175.321	155.524	134.110	389.191	218.626	132.946	139.723	228.625	330.435	137.483	142.412	144.202	149.264	266.368	146.674	-8191	255	
3223.333	1	1	0	0	0.16367	0.05368	0.24008	0.13915	0.14894	0.17308	0.24088	0.21685	0.0215	0.33487	0.14313	0.52711	0.091881	0.1012	0.20711	0.25279	-2.1375	-2.8667	-2.7896	-2.9042	-3.1354	-2.7188	-3.1104	-2.825	-2.625	-3.0146	-2.7875	-2.7229	-3.1312	-2.6917	-3.0604	-3.0708	141.460	197.286	121.993	206.924	371.260	479.551	442.811	421.672	158.133	306.006	423.600	400.482	313.050	147.459	222.775	457.395	0.0025016	0.0026917	0.00030096	1126.9	8.661e-06	2.0619e-05	1379.1	434.24	2.6996e-05	3.0367e-05	550.72	243.07	187.35	85.436	8.5143e-06	103.53	0.0023915	0.0024426	0.00075817	1336.8	2.6087e-05	2.7421e-05	1266.8	400	2.5907e-05	2.7626e-05	524.06	220.69	172.19	78.495	2.8827e-05	95.503	346.717	473.012	334.039	134.776	347.949	296.248	133.330	139.686	245.746	241.584	137.598	142.279	144.177	149.490	233.924	146.650	-8191	255	
3223.430	1	1	0	0	0.096198	0.22795	0.088818	0.27596	0.23165	0.085784	0.44591	0.32282	0.10441	0.050767	0.4186	0.41903	0.23063	0.226	0.18921	0.29771	-2.175	-3.0917	-2.8042	-2.6792	-3.0104	-2.5458	-3.0417	-2.9646	-2.4792	-2.9562	-2.7812	-2.9188	-3.0625	-2.8604	-2.9271	-3.2125	312.307	215.812	414.376	478.649	447.080	207.857	448.187	448.071	131.458	271.625	414.551	442.248	205.839	429.086	189.899	435.305	0.0022064	0.0016852	0.00037966	1111	1.9496e-05	1.7175e-05	1372.4	429.4	3.451e-05	7.7334e-06	551.94	241.12	187.17	85.864	1.4118e-05	103.73	0.0022861	0.0025472	0.00073619	1314.4	2.5262e-05	2.8476e-05	1255.5	395.62	2.5179e-05	2.8173e-05	522.06	219.25	171.76	78.902	2.7789e-05	95.525	339.620	183.464	179.526	134.745	338.889	200.200	133.208	139.761	195.507	348.154	137.551	142.341	144.266	149.477	234.718	146.344	-8191	255	
3223.526	1	1	0	0	0.16762	0.1695	0.053146	0.18298	0.24492	0.22113	0.15127	0.24813	0.12589	0.24177	0.25346	0.20972	0.27157	0.39731	0.15333	0.078973	-2.1583	-3.0917	-2.6854	-2.8271	-2.8292	-2.5229	-2.9521	-3.0604	-2.5292	-3.0125	-2.9604	-2.7375	-3.2042	-2.8104	-2.8458	-3.1583	352.960	453.235	361.943	467.508	162.506	415.670	180.430	431.625	412.428	144.156	478.616	449.087	172.798	472.531	175.929	417.315	0.0023169	0.00096737	0.000281	1129	6.8654e-06	1.5367e-06	1370.8	431.01	2.8405e-05	1.6248e-05	561.66	244.54	189.71	85.547	1.6133e-05	105.54	0.0022923	0.0026093	0.00070953	1302.5	2.5947e-05	2.9267e-05	1259.5	397.3	2.5988e-05	2.8831e-05	527.07	221.28	174.22	79.174	2.7458e-05	96.292	323.661	324.886	227.330	134.554	240.950	275.328	133.291	139.761	212.191	414.125	137.413	142.300	144.407	149.509	205.358	146.430	-8191	255	
3223.646	1	1	0	0	0.18778	0.2761	0.0061772	0.16439	0.19685	0.11916	0.2055	0.33644	0.13484	0.080525	0.15205	0.21508	0.1801	0.22037	0.21647	0.37439	-2.0354	-2.9646	-2.7083	-2.9271	-2.9354	-2.7917	-2.6688	-3.0729	-2.4854	-2.7854	-2.975	-3.0083	-2.975	-3.0396	-2.6146	-3.2354	396.568	214.804	360.776	181.607	306.029	255.899	463.555	455.653	329.132	234.712	443.360	465.217	394.256	401.489	357.758	410.135	0.002862	0.0017673	0.0007772	1124.2	2.6655e-05	1.9115e-05	1382	438.76	1.3624e-05	1.3333e-05	571.25	247.22	190.67	85.619	7.7521e-06	104.18	0.002456	0.0026542	0.00069528	1288.3	2.7458e-05	2.9601e-05	1266.2	400.65	2.8542e-05	2.9565e-05	534.1	223.08	176.48	79.165	2.7264e-05	95.691	329.573	259.567	139.653	134.858	238.949	293.664	133.711	140.130	190.949	324.407	137.900	142.380	144.461	149.868	156.911	146.516	-8191	255	
3223.743	1	1	0	0	0.11974	0.25003	0.14493	0.21604	0.14939	0.12985	0.27213	0.23175	0.11626	0.18702	0.24583	0.10055	0.079882	0.29313	0.18452	0.33396	-2.1625	-2.8979	-2.7979	-2.8271	-2.8812	-2.8146	-2.7687	-3.1792	-2.6396	-2.9042	-3.0563	-2.8125	-3.0812	-3.0208	-2.7417	-3.2021	349.046	422.911	426.814	151.006	316.953	353.380	462.489	130.355	293.465	392.800	469.779	426.684	475.560	447.686	352.603	466.013	0.0024368	0.00022709	0.00071385	1119.2	1.4168e-05	2.2374e-05	1355.3	429.26	2.8603e-05	1.7337e-05	549.16	241.16	186.07	84.029	1.2894e-05	102.65	0.0026027	0.0026405	0.00069564	1282.9	2.9132e-05	2.9638e-05	1249	395.22	3.1354e-05	3.1745e-05	522.16	221.17	176.07	78.853	3.1732e-05	96.314	347.650	258.560	205.365	134.475	234.835	398.798	133.476	139.971	464.528	339.260	137.802	142.508	144.423	149.653	288.320	146.086	-8191	255	
3223.814	1	1	0	0	0.17455	0.1662	0.29956	0.15349	0.25847	0.11607	0.083891	0.37094	0.20401	0.27701	0.23362	0.21045	0.15435	0.2679	0.29707	0.23538	-2.2917	-2.7396	-3.0062	-2.6375	-2.9479	-2.7729	-2.9813	-2.9604	-2.7542	-2.8333	-3.0104	-2.8167	-3.0187	-2.9042	-2.6208	-3.1813	462.332	166.568	169.267	314.750	455.944	392.556	331.651	395.922	126.608	249.843	160.883	389.089	131.507	472.502	469.253	428.622	0.0027679	0.0014517	0.00071747	1133.7	4.2887e-05	2.508e-05	1359	429.75	2.0479e-05	5.5349e-06	554.88	242.95	186.6	83.92	7.3209e-06	102.36	0.0031655	0.0030747	0.00078777	1382.2	3.474e-05	3.2893e-05	1261.4	402.78	3.5386e-05	3.3373e-05	527.92	223.88	177.77	78.725	3.0416e-05	96.979	320.097	189.775	280.900	134.579	291.808	269.975	133.345	139.528	229.218	147.633	137.992	142.461	144.279	149.673	472.560	146.485	-8191	255	
3223.910	1	1	0	0	0.050696	0.078977	0.13685	0.21569	0.042818	0.05235	0.36224	0.27106	0.049867	0.090955	0.24147	0.30435	0.34303	0.41801	0.31557	0.1748	-2.2792	-2.6562	-3.025	-2.6542	-3.0875	-2.9708	-2.7979	-3.2542	-2.7938	-2.8312	-3.1917	-2.8187	-3.0438	-3.0438	-2.7812	-3.1208	381.500	322.977	431.774	351.485	227.164	388.732	422.898	385.499	449.452	376.193	477.781	457.740	460.395	449.914	360.558	370.285	0.0018432	0.0016891	0.00091153	1123	3.3426e-05	1.5899e-05	1370.9	435.17	1.347e-05	2.8141e-05	559.08	244.49	187.98	84.883	2.7609e-05	104.27	0.0031175	0.0030135	0.00076483	1411.4	3.4333e-05	3.2213e-05	1265	406.99	3.3843e-05	3.2334e-05	531.93	227.11	178.45	79.261	3.0481e-05	98.631	346.863	438.272	137.145	134.269	309.360	247.949	132.948	139.745	399.133	335.299	137.507	142.077	144.408	149.608	264.599	146.615	-8191	255	
3224.029	1	1	0	0	0.3708	0.083853	0.23908	0.35657	0.2799	0.15279	0.56511	0.16951	0.14465	0.19195	0.13494	0.085725	0.062801	0.44224	0.13578	0.21801	-2.4188	-2.6	-2.8937	-2.8167	-2.8229	-3.025	-2.7417	-3.1729	-2.9	-2.5708	-3.1312	-2.7938	-3.1646	-2.9604	-2.6854	-3.0625	452.099	462.545	412.342	463.434	318.784	138.388	417.823	446.993	142.115	238.244	478.295	394.763	448.555	461.941	285.805	134.252	0.002483	0.0014266	0.00066791	1136.8	2.0398e-05	1.0045e-05	1381.3	434.73	7.8715e-06	2.228e-05	560.72	242.92	187.37	84.554	1.186e-05	103.78	0.003023	0.0029567	0.00078362	1440	3.4087e-05	3.1811e-05	1281.6	410.49	3.3109e-05	3.1261e-05	533.95	227.24	177.23	78.386	3.1331e-05	98.097	347.428	418.387	187.559	134.147	286.441	272.273	133.309	139.902	288.504	344.395	137.871	142.377	144.482	149.094	185.493	146.342	-8191	255	
3224.125	1	1	0	0	0.20934	0.1266	0.098317	0.39169	0.1131	0.085582	0.16666	0.23872	0.2566	0.032567	0.34668	0.27075	0.34323	0.074422	0.15167	0.30451	-2.3958	-2.5729	-3.1542	-2.8229	-2.8292	-3.1625	-2.9188	-3.075	-2.9188	-2.7167	-3.0375	-3.0521	-2.7687	-3.4146	-2.4396	-3.1896	375.701	133.581	473.987	467.292	456.609	440.698	416.806	399.527	453.947	399.043	460.951	444.416	432.848	126.826	208.411	437.448	0.0018364	0.00050779	0.00083818	1110	1.5009e-05	1.9723e-05	1356.3	429.2	1.392e-05	1.2014e-05	551.65	241.25	186.7	83.818	3.1855e-05	103.68	0.0029051	0.0027688	0.00080894	1432.1	3.2975e-05	3.0106e-05	1267.5	405.33	3.2541e-05	3.0675e-05	531.19	225.84	176.71	78.079	3.4027e-05	98.108	356.201	360.307	126.046	133.657	289.442	357.610	133.269	140.020	247.045	469.163	137.424	142.056	144.194	149.504	281.576	146.516	-8191	255	
3224.222	1	1	0	0	0.33348	0.20115	0.10906	0.15475	0.12653	0.15782	0.22889	0.1629	0.16778	0.28063	0.16256	0.29002	0.35724	0.14879	0.21071	0.20784	-2.3729	-2.6646	-2.7479	-2.8896	-2.7208	-3.0875	-2.7021	-2.975	-2.6875	-2.7521	-2.9875	-2.9062	-2.7354	-3.0021	-2.6375	-2.9437	436.811	428.348	311.751	253.145	181.334	413.059	383.788	402.488	378.889	406.310	376.889	407.103	126.917	330.548	130.707	399.740	0.002594	0.0014687	7.0023e-05	1128.8	4.0544e-06	1.5327e-05	1370.1	431.6	2.269e-05	1.6721e-05	556.54	244.06	187.21	84.504	1.2876e-05	102.89	0.0029926	0.0028652	0.00088387	1437.7	3.3947e-05	3.1613e-05	1287.9	407.9	3.3674e-05	3.2521e-05	543.97	227.89	177.88	79.166	3.8306e-05	98.768	339.476	253.925	200.220	134.561	232.000	248.932	133.126	140.062	216.470	288.339	137.886	142.323	144.413	149.540	453.753	146.290	-8191	255	
3224.318	1	1	0	0	0.16763	0.21086	0.16091	0.16672	0.22283	0.12598	0.28599	0.094229	0.24905	0.099559	0.24238	0.31762	0.089732	0.31241	0.042338	0.28534	-2.5125	-2.6562	-3.0042	-2.7458	-2.7375	-3.0583	-2.8792	-2.7438	-3.2354	-2.5167	-3.2562	-3.1104	-2.7667	-3.1125	-2.7833	-2.7333	150.078	320.972	210.371	384.968	464.611	451.434	379.120	368.696	463.203	329.804	469.976	437.217	451.535	452.397	299.783	443.957	0.0027903	0.0030497	0.0010787	1115.5	1.1462e-05	1.6228e-05	1376.5	433.21	3.4847e-05	1.0904e-05	567.83	246.3	189.12	85.172	1.6099e-05	104.33	0.0031011	0.0031576	0.00097729	1458.4	3.5009e-05	3.5412e-05	1310.1	412.64	3.4559e-05	3.6707e-05	557.48	230.41	179.26	80.194	3.9367e-05	99.828	323.677	126.073	153.939	133.797	188.092	186.932	133.251	139.803	424.635	222.289	137.698	142.251	144.503	148.981	259.965	146.601	-8191	255	
3224.414	1	1	0	0	0.1237	0.26771	0.12172	0.21468	0.29594	0.18155	0.40657	0.5288	0.16278	0.17137	0.079067	0.35725	0.091809	0.30932	0.068076	0.33821	-2.6479	-2.4854	-2.6396	-2.7958	-2.6958	-2.9208	-2.7812	-2.7333	-3.025	-2.6958	-2.8875	-3.1125	-2.7938	-3.1792	-2.9313	-2.8583	394.055	398.510	135.513	161.148	127.436	199.311	406.265	411.612	460.890	318.460	128.866	464.334	450.151	444.516	461.982	410.651	0.0022554	0.0041722	0.001435	1122	2.9803e-05	1.1487e-05	1365	430.84	1.6783e-06	7.1739e-06	547.3	241.39	185.43	83.704	8.4387e-06	102.65	0.0030904	0.0034452	0.00099168	1465.5	3.4314e-05	3.7196e-05	1296.1	407.34	3.3706e-05	3.8164e-05	541.42	225.83	176.25	79.496	3.7226e-05	97.399	332.374	229.487	222.325	134.766	385.929	197.022	133.049	139.961	450.523	258.012	137.707	142.100	144.418	149.153	176.841	146.580	-8191	255	
#DATA ENDS
