BOXY.EXE: ISS Imagent and Oximeter Data Acquisition Program Version 0.80
Ascii Record File

#ACQ INFORMATION
2  Detector Channels 
16  External MUX Channels 
1  Auxiliary Channels 
5000  Waveform (CCF) Frequency (Hz)
1  Waveforms Skipped 
30  Waveforms Averaged 
1  Cycles Averaged 
16  Acquisitions per Waveform 
10.0806  Updata Rate (Hz) 

#FILE INFORMATION
TRUE -- External MUX Channel results are PARSED.
FALSE -- AC DC and Phase are NOT grouped.
TRUE -- Companion Program Settings File CREATED.
FALSE -- AC data not excluded
FALSE -- DC data not excluded
FALSE -- Phase data not excluded
FALSE -- Auxillary Chn. data not excluded
Tab delimiters

#CALIBRATION STATE
TRUE -- Waveform Calibration Values APPLIED.


#AUX CALIBRATION VALUES
Val Type	aux-1	

Term	1.0000e+00	
Factor	0.0000e+00	


#WF CALIBRATION VALUES
A = Detector Channel
Val Type	A-AC1	A-AC2	A-AC3	A-AC4	A-AC5	A-AC6	A-AC7	A-AC8	A-AC9	A-AC10	A-AC11	A-AC12	A-AC13	A-AC14	A-AC15	A-AC16	A-DC1	A-DC2	A-DC3	A-DC4	A-DC5	A-DC6	A-DC7	A-DC8	A-DC9	A-DC10	A-DC11	A-DC12	A-DC13	A-DC14	A-DC15	A-DC16	A-Ph1	A-Ph2	A-Ph3	A-Ph4	A-Ph5	A-Ph6	A-Ph7	A-Ph8	A-Ph9	A-Ph10	A-Ph11	A-Ph12	A-Ph13	A-Ph14	A-Ph15	A-Ph16	

Term	0.00000e+00	0.00000e+00	0.00000e+00	0.00000e+00	0.00000e+00	0.00000e+00	0.00000e+00	0.00000e+00	0.00000e+00	0.00000e+00	0.00000e+00	0.00000e+00	0.00000e+00	0.00000e+00	0.00000e+00	0.00000e+00	0.00000e+00	0.00000e+00	0.00000e+00	0.00000e+00	0.00000e+00	0.00000e+00	0.00000e+00	0.00000e+00	0.00000e+00	0.00000e+00	0.00000e+00	0.00000e+00	0.00000e+00	0.00000e+00	0.00000e+00	0.00000e+00	0.00000e+00	0.00000e+00	0.00000e+00	0.00000e+00	0.00000e+00	0.00000e+00	0.00000e+00	0.00000e+00	0.00000e+00	0.00000e+00	0.00000e+00	0.00000e+00	0.00000e+00	0.00000e+00	0.00000e+00	0.00000e+00	
Factor	1.00000e+00	1.00000e+00	1.00000e+00	1.00000e+00	1.00000e+00	1.00000e+00	1.00000e+00	1.00000e+00	1.00000e+00	1.00000e+00	1.00000e+00	1.00000e+00	1.00000e+00	1.00000e+00	1.00000e+00	1.00000e+00	1.00000e+00	1.00000e+00	1.00000e+00	1.00000e+00	1.00000e+00	1.00000e+00	1.00000e+00	1.00000e+00	1.00000e+00	1.00000e+00	1.00000e+00	1.00000e+00	1.00000e+00	1.00000e+00	1.00000e+00	1.00000e+00	X	X	X	X	X	X	X	X	X	X	X	X	X	X	X	X	

B = Detector Channel
Val Type	B-AC1	B-AC2	B-AC3	B-AC4	B-AC5	B-AC6	B-AC7	B-AC8	B-AC9	B-AC10	B-AC11	B-AC12	B-AC13	B-AC14	B-AC15	B-AC16	B-DC1	B-DC2	B-DC3	B-DC4	B-DC5	B-DC6	B-DC7	B-DC8	B-DC9	B-DC10	B-DC11	B-DC12	B-DC13	B-DC14	B-DC15	B-DC16	B-Ph1	B-Ph2	B-Ph3	B-Ph4	B-Ph5	B-Ph6	B-Ph7	B-Ph8	B-Ph9	B-Ph10	B-Ph11	B-Ph12	B-Ph13	B-Ph14	B-Ph15	B-Ph16	

Term	0.00000e+00	0.00000e+00	0.00000e+00	0.00000e+00	0.00000e+00	0.00000e+00	0.00000e+00	0.00000e+00	0.00000e+00	0.00000e+00	0.00000e+00	0.00000e+00	0.00000e+00	0.00000e+00	0.00000e+00	0.00000e+00	0.00000e+00	0.00000e+00	0.00000e+00	0.00000e+00	0.00000e+00	0.00000e+00	0.00000e+00	0.00000e+00	0.00000e+00	0.00000e+00	0.00000e+00	0.00000e+00	0.00000e+00	0.00000e+00	0.00000e+00	0.00000e+00	-8.78341e+01	-1.29763e+02	-1.22348e+02	-1.81483e+02	-4.98279e+01	-6.89854e+01	-1.57126e+02	-1.62015e+02	-5.76591e+01	-6.88165e+01	-1.72009e+02	-1.70235e+02	-1.79413e+02	-1.76982e+02	-6.01312e+01	-1.49920e+02	
Factor	1.77355e-05	1.76987e-04	5.28443e-05	1.54970e-01	1.38419e-06	1.88219e-06	1.81523e-01	6.50010e-02	1.26713e-06	1.82042e-06	8.98908e-02	3.02853e-02	2.99964e-02	9.87595e-03	1.55353e-06	1.42067e-02	1.35357e-05	2.64044e-05	7.43121e-06	7.68445e-02	2.53274e-07	2.97136e-07	8.49333e-02	3.23673e-02	2.62873e-07	2.97535e-07	4.35786e-02	1.47918e-02	1.52274e-02	4.96744e-03	2.72784e-07	6.91996e-03	X	X	X	X	X	X	X	X	X	X	X	X	X	X	X	X	



#DISTANCE SETTINGS
A = Detector Channel
A-1	A-2	A-3	A-4	A-5	A-6	A-7	A-8	A-9	A-10	A-11	A-12	A-13	A-14	A-15	A-16	

2.5000e+00	3.0000e+00	2.5000e+00	3.0000e+00	2.0000e+00	3.0000e+00	1.5000e+00	3.0000e+00	3.0000e+00	3.0000e+00	3.0000e+00	3.0000e+00	3.0000e+00	3.0000e+00	1.5000e+00	3.0000e+00	

B = Detector Channel
B-1	B-2	B-3	B-4	B-5	B-6	B-7	B-8	B-9	B-10	B-11	B-12	B-13	B-14	B-15	B-16	

1.0000e+01	1.0000e+01	1.0000e+01	1.4400e+00	1.0000e+01	1.0000e+01	1.5100e+00	1.9400e+00	1.0000e+01	1.0000e+01	1.9900e+00	2.4900e+00	2.4100e+00	2.9000e+00	1.0000e+01	2.9800e+00	




#DATA BEGINS
time	group	step	mark	flag	A-AC1	A-AC2	A-AC3	A-AC4	A-AC5	A-AC6	A-AC7	A-AC8	A-AC9	A-AC10	A-AC11	A-AC12	A-AC13	A-AC14	A-AC15	A-AC16	A-DC1	A-DC2	A-DC3	A-DC4	A-DC5	A-DC6	A-DC7	A-DC8	A-DC9	A-DC10	A-DC11	A-DC12	A-DC13	A-DC14	A-DC15	A-DC16	A-Ph1	A-Ph2	A-Ph3	A-Ph4	A-Ph5	A-Ph6	A-Ph7	A-Ph8	A-Ph9	A-Ph10	A-Ph11	A-Ph12	A-Ph13	A-Ph14	A-Ph15	A-Ph16	B-AC1	B-AC2	B-AC3	B-AC4	B-AC5	B-AC6	B-AC7	B-AC8	B-AC9	B-AC10	B-AC11	B-AC12	B-AC13	B-AC14	B-AC15	B-AC16	B-DC1	B-DC2	B-DC3	B-DC4	B-DC5	B-DC6	B-DC7	B-DC8	B-DC9	B-DC10	B-DC11	B-DC12	B-DC13	B-DC14	B-DC15	B-DC16	B-Ph1	B-Ph2	B-Ph3	B-Ph4	B-Ph5	B-Ph6	B-Ph7	B-Ph8	B-Ph9	B-Ph10	B-Ph11	B-Ph12	B-Ph13	B-Ph14	B-Ph15	B-Ph16	aux-1	digaux	

35215.000	1	1	0	512	0.21669	0.11671	0.19698	0.31162	0.095641	0.29732	0.14153	0.12961	0.1147	0.31998	0.059524	0.22193	0.28861	0.25471	0.10066	0.19624	-2.2208	-2.1271	-1.9854	-2.5292	-2.0958	-2.4542	-2.5021	-2.15	-2.3604	-2.0917	-2.325	-2.6354	-2.3063	-2.5042	-2.5312	-2.2042	455.648	158.314	397.121	203.085	342.016	275.271	105.471	211.103	319.087	450.857	245.361	413.890	408.183	357.488	111.508	319.908	0.00058667	0.0006634	0.0001672	773.66	4.7687e-06	5.702e-06	620.05	354.92	5.1519e-06	5.2802e-06	289.75	130.42	170.16	88.676	7.0725e-06	63.649	0.00046786	0.00032532	7.8817e-05	799.63	3.1285e-06	2.9039e-06	638.28	368.45	3.2821e-06	3.0411e-06	299.32	135.33	177.33	92.855	3.8741e-06	66.237	216.730	185.559	199.280	116.745	268.127	246.833	115.623	120.601	256.666	252.656	118.164	121.683	123.867	127.021	256.449	123.894	-8191	255	
35215.094	1	1	0	0	0.13516	0.15855	0.18117	0.051577	0.060083	0.17165	0.083777	0.2648	0.26261	0.12757	0.095604	0.14778	0.14087	0.36462	0.044704	0.10939	-1.8271	-2.15	-2.0062	-2.5917	-2.1083	-2.325	-2.4771	-2.1688	-2.3583	-2.3292	-2.1813	-2.5438	-2.4604	-2.3937	-2.5042	-2.1646	281.360	454.582	251.416	428.349	153.868	298.001	105.128	452.267	175.685	416.890	110.201	457.162	443.726	402.703	241.524	265.845	0.00061424	0.0005491	0.00018765	775.7	4.9206e-06	6.1897e-06	620.9	356.57	4.6005e-06	6.2074e-06	289.84	130.92	170.29	89.012	7.4442e-06	63.781	0.00047919	0.00029023	8.6465e-05	801.34	3.0456e-06	2.8767e-06	639.74	369.82	3.2646e-06	3.09e-06	300.56	135.81	177.51	93.122	3.6638e-06	66.282	217.035	192.709	196.454	116.899	268.275	260.711	115.764	120.736	256.053	253.914	118.238	121.516	123.766	126.906	246.632	123.992	-8191	255	
35215.191	1	1	0	0	0.16848	0.23026	0.13026	0.25012	0.33274	0.17733	0.39262	0.33539	0.081447	0.038252	0.043556	0.22563	0.2607	0.15866	0.077111	0.16638	-2.0917	-2.2625	-1.9604	-2.475	-2.0604	-2.1958	-2.5542	-2.1937	-2.3604	-2.5646	-1.8375	-2.55	-2.3229	-2.3312	-2.575	-2.1125	138.363	460.034	126.445	361.788	179.158	455.438	328.819	120.676	460.809	368.723	125.087	443.569	262.629	449.061	410.007	424.344	0.00059817	0.00052591	0.00019316	774.01	5.5128e-06	6.6246e-06	612.68	353.94	5.0981e-06	4.6783e-06	289.18	129.77	170.63	89.098	7.5505e-06	63.494	0.0004812	0.00027923	8.6605e-05	800.22	3.0815e-06	3.0438e-06	634.29	368.39	3.2465e-06	2.8935e-06	299.21	135.21	177.5	93.055	3.7201e-06	66.05	216.893	184.988	200.300	116.935	256.082	251.147	115.667	120.694	261.353	238.608	117.741	121.600	123.995	126.851	251.305	124.034	-8191	255	
35215.285	1	1	0	0	0.28695	0.28755	0.14997	0.16989	0.12006	0.28287	0.17005	0.20511	0.13593	0.31093	0.29069	0.15768	0.24564	0.36469	0.094836	0.21917	-1.9125	-2.1917	-1.9667	-2.325	-2.3396	-2.2521	-2.5583	-2.2646	-2.2229	-2.3979	-2.1167	-2.2875	-2.3729	-2.1333	-2.4104	-2.2854	318.296	156.086	416.477	352.062	115.212	354.675	431.957	104.188	236.030	349.676	438.157	105.939	454.558	442.861	346.642	413.853	0.00060058	0.0004946	0.00019337	773.43	5.4242e-06	5.7732e-06	617.37	355.57	4.7526e-06	5.4044e-06	289.33	130.43	170.77	89.292	7.4568e-06	63.904	0.00047682	0.00027813	8.9562e-05	799.53	3.1332e-06	2.8407e-06	637.3	369.33	3.1775e-06	2.7435e-06	299.61	135.44	177.72	93.228	3.807e-06	66.435	217.131	185.773	198.321	116.834	272.946	238.962	115.388	120.487	252.831	255.063	118.055	121.440	123.721	126.871	260.848	124.194	-8191	255	
35215.406	1	1	0	0	0.089743	0.13656	0.058328	0.41134	0.19301	0.060906	0.11794	0.40402	0.073097	0.045951	0.1126	0.26348	0.23563	0.15085	0.10136	0.14459	-1.8208	-2.2583	-1.7521	-2.2729	-2.3771	-2.1813	-2.6146	-2.1396	-2.2208	-2.5875	-1.9813	-2.4833	-2.2562	-2.2583	-2.3688	-2.2479	398.872	345.691	441.120	421.349	457.550	193.155	371.660	425.633	304.664	404.671	130.407	152.405	417.844	438.801	438.669	383.379	0.00059857	0.00051838	0.00021634	776.92	4.824e-06	5.9737e-06	620.5	356.5	5.1751e-06	4.7654e-06	290.31	130.92	171.57	89.496	6.2827e-06	64.128	0.00047172	0.00025849	8.7518e-05	802.28	3.0773e-06	3.1274e-06	638.99	369.62	3.3308e-06	2.8142e-06	300.53	136.25	178.38	93.676	3.686e-06	66.8	217.447	196.052	187.642	116.803	275.680	248.273	115.464	120.836	259.374	261.434	117.854	121.568	123.747	126.876	254.968	123.788	-8191	255	
35215.504	1	1	0	0	0.049137	0.099321	0.23681	0.050888	0.13182	0.24431	0.084961	0.29667	0.34329	0.071418	0.22323	0.12817	0.27781	0.028505	0.044575	0.08716	-1.6604	-2.4292	-1.9479	-2.475	-2.15	-1.9521	-2.5042	-2.3229	-2.1667	-2.4021	-2.1458	-2.2875	-2.3229	-2.1188	-2.2833	-2.2396	134.216	393.521	224.784	141.179	174.568	389.844	397.713	428.610	105.648	357.324	349.400	146.396	375.524	406.520	253.009	134.503	0.00062296	0.00057509	0.00018105	776.26	5.4129e-06	3.7599e-06	620.62	357.15	5.9861e-06	4.7448e-06	292.67	131.5	171.21	90.223	7.3988e-06	64.878	0.00048427	0.00027125	9.0676e-05	803.67	3.0493e-06	2.8952e-06	639.56	370.49	3.3133e-06	2.7789e-06	302.05	136.92	178.82	94.072	3.7769e-06	67.291	218.769	191.103	191.162	116.711	263.645	251.588	115.785	120.548	259.443	244.475	118.083	121.431	123.788	126.834	253.806	123.637	-8191	255	
35215.574	1	1	0	0	0.065698	0.090143	0.064542	0.34839	0.12569	0.16316	0.075463	0.2511	0.18334	0.046056	0.37891	0.27945	0.23926	0.43983	0.068821	0.17609	-1.6104	-2.4333	-1.925	-2.3563	-2.4375	-2.0667	-2.5146	-2.5771	-2.125	-2.4333	-2.2167	-2.4771	-2.3104	-2.2562	-2.3438	-2.3667	120.731	273.471	281.498	380.584	318.342	275.343	428.395	400.614	454.886	212.750	337.295	426.731	438.995	430.926	414.803	409.784	0.00061909	0.00066229	0.00017341	776.32	5.0102e-06	5.5134e-06	621.25	356.71	4.9276e-06	5.2737e-06	290.58	130.62	171.31	89.843	6.4803e-06	64.419	0.00048571	0.00027312	8.7673e-05	804.11	2.872e-06	3.0178e-06	639.47	370.22	3.4502e-06	2.9041e-06	300.57	136.15	178.69	93.957	3.7542e-06	66.847	217.551	185.727	198.784	116.866	271.339	259.297	115.590	120.587	254.805	251.363	117.881	121.476	123.761	126.821	253.682	123.944	-8191	255	
35215.695	1	1	0	0	0.18691	0.38364	0.11345	0.17367	0.099711	0.30391	0.21486	0.23479	0.13775	0.13848	0.19579	0.074278	0.26551	0.25085	0.2319	0.080775	-1.5521	-2.4313	-2.1729	-2.3208	-2.4938	-1.8229	-2.475	-2.5583	-1.9	-2.3792	-2.3104	-2.1875	-2.4583	-2.25	-2.2604	-2.4229	149.523	412.682	295.541	438.454	146.642	213.087	185.505	433.861	252.523	306.960	437.705	439.779	426.685	415.510	411.914	352.881	0.00059812	0.00070638	0.00016662	776.26	4.4535e-06	5.897e-06	618.6	355.96	5.0992e-06	5.3254e-06	287.87	131.01	171.08	89.486	7.1197e-06	64.042	0.0004751	0.00028049	8.6218e-05	801.51	2.891e-06	3.0345e-06	637.68	369.67	3.5192e-06	2.7869e-06	299.47	135.97	178.03	93.669	3.7917e-06	66.692	216.808	191.312	188.537	116.973	261.099	257.119	115.193	120.652	253.646	250.400	118.229	121.561	123.751	126.866	247.622	123.907	-8191	255	
35215.793	1	1	0	0	0.075614	0.18808	0.14804	0.4336	0.20052	0.039783	0.076658	0.23503	0.087502	0.17312	0.26578	0.18967	0.13209	0.29928	0.085359	0.18109	-1.3479	-2.2771	-2.1208	-2.2229	-2.275	-1.8625	-2.2354	-2.4542	-2.0792	-2.3479	-2.275	-2.2333	-2.5646	-2.1833	-2.1813	-2.5042	323.438	133.214	293.310	431.578	397.019	339.644	343.258	411.093	215.837	249.611	406.726	133.316	122.802	405.270	225.672	343.497	0.00061759	0.00062534	0.00015226	775.24	5.5661e-06	6.1333e-06	616.92	357.59	5.4052e-06	5.5712e-06	291.19	130.98	171.57	89.74	6.2859e-06	64.035	0.00048382	0.00027219	8.1093e-05	801.86	2.9142e-06	3.0574e-06	638.15	370.1	3.5137e-06	2.8892e-06	300.5	136.17	178.56	93.745	3.6536e-06	66.787	216.619	193.458	193.235	116.597	267.779	255.896	115.495	120.642	259.002	239.236	118.044	121.451	123.828	126.829	258.542	123.774	-8191	255	
35215.891	1	1	0	0	0.18146	0.066743	0.088015	0.15421	0.025554	0.14753	0.22435	0.19731	0.13885	0.19558	0.22984	0.15377	0.091888	0.13694	0.14599	0.038618	-1.5083	-2.4375	-2.0229	-2.1167	-2.4333	-2.0458	-2.3812	-2.3438	-2.0146	-2.2729	-2.4667	-2.0917	-2.3958	-2.25	-2.3063	-2.4479	303.682	446.215	266.211	325.014	263.271	280.722	210.505	352.825	402.470	233.569	434.580	140.733	461.598	399.417	176.164	388.892	0.00061283	0.00057306	0.00015796	776.59	4.9863e-06	6.3378e-06	620.53	356.08	4.8076e-06	5.3155e-06	290.74	131.86	171.71	89.944	6.3601e-06	64.683	0.00048779	0.00028313	7.7981e-05	802.04	3.0192e-06	3.0747e-06	639.81	370.06	3.6649e-06	2.9289e-06	301	136.83	178.85	94.148	3.7604e-06	67.226	216.794	187.127	203.933	116.897	263.412	256.520	115.326	120.618	258.468	259.002	118.261	121.550	123.934	126.896	260.093	123.847	-8191	255	
35216.008	1	1	0	0	0.1658	0.059548	0.17682	0.30747	0.16178	0.2506	0.15746	0.11872	0.39953	0.084699	0.098436	0.026545	0.49785	0.41756	0.26483	0.15833	-1.6646	-2.3271	-2.1729	-2.0292	-2.4021	-2.0771	-2.3187	-2.4979	-2.0208	-2.4604	-2.3937	-1.9833	-2.4833	-2.3646	-1.9833	-2.4813	389.181	131.001	163.488	397.122	221.203	214.797	426.589	406.119	451.344	208.214	327.195	421.595	420.385	108.732	258.042	415.522	0.0006066	0.00052737	0.00018297	777.18	3.8491e-06	5.685e-06	620.73	354.97	4.7648e-06	6.1232e-06	288.7	131.75	171.69	90.09	6.5498e-06	64.584	0.00048201	0.00027389	7.9653e-05	801.67	2.9533e-06	3.0289e-06	639.16	370.1	3.5833e-06	2.8607e-06	299.56	136.7	178.8	94.106	3.6496e-06	67.11	217.551	189.189	187.045	116.969	267.639	243.143	115.466	120.537	255.078	251.001	118.118	121.390	123.947	126.818	258.061	123.786	-8191	255	
35216.105	1	1	0	0	0.2474	0.20293	0.19239	0.19538	0.17082	0.098322	0.086848	0.21429	0.26965	0.13918	0.069858	0.14179	0.083445	0.15646	0.2159	0.29865	-1.4	-2.0771	-2.0458	-1.9188	-2.2562	-2.2771	-2.1271	-2.3937	-1.9813	-2.0625	-2.3375	-2.0167	-2.5604	-2.4583	-2.0604	-2.4854	272.734	329.664	304.815	412.276	129.067	130.359	341.202	415.843	308.914	402.634	320.396	443.254	433.711	342.433	186.446	349.188	0.00060999	0.00059537	0.00017838	775.21	4.6344e-06	4.5959e-06	616.45	355.07	4.863e-06	5.5823e-06	289.53	130.73	171.22	89.511	6.1641e-06	64.307	0.0004848	0.00027109	7.4823e-05	799.19	2.9849e-06	2.9256e-06	634.93	368.67	3.6523e-06	2.9884e-06	299.09	135.72	178.14	93.577	3.9258e-06	66.657	217.717	192.043	199.007	117.007	273.201	249.065	115.402	120.577	260.431	253.380	117.943	121.395	123.933	126.851	253.674	123.795	-8191	255	
35216.176	1	1	0	0	0.27593	0.26575	0.27251	0.21854	0.24409	0.25332	0.17466	0.19737	0.24338	0.16714	0.12309	0.12839	0.11638	0.27413	0.077491	0.10199	-1.5125	-2.0854	-2.4333	-1.9062	-2.2021	-2.2292	-2.0396	-2.4458	-2.025	-2.0812	-2.4104	-2.2188	-2.5312	-2.4375	-1.9583	-2.4229	410.082	111.229	232.747	412.501	202.326	151.498	122.708	420.036	334.446	183.828	332.084	328.066	162.955	133.369	171.736	380.568	0.00060501	0.00051198	0.00021281	773.85	4.7896e-06	5.4738e-06	617.35	355.46	5.3957e-06	5.3177e-06	290.46	130.75	170.72	89.462	6.4181e-06	64.114	0.00047637	0.00026905	7.5504e-05	798.34	2.9744e-06	2.8779e-06	635.79	369.02	3.6452e-06	2.8632e-06	299.44	135.91	178.06	93.595	4.0895e-06	66.858	219.185	191.382	196.980	116.921	268.999	252.309	115.685	120.716	261.381	256.244	117.855	121.482	123.755	126.681	254.752	123.936	-8191	255	
35216.297	1	1	0	0	0.1723	0.20024	0.20955	0.3008	0.1979	0.079444	0.26998	0.28141	0.20786	0.20347	0.39714	0.30384	0.1703	0.059296	0.066198	0.064578	-1.7375	-1.9583	-2.3479	-1.9708	-2.1771	-2.2292	-2.0687	-2.3604	-1.9542	-2.0708	-2.3375	-2.2396	-2.1958	-2.5646	-1.8312	-2.6375	313.023	116.685	118.357	407.079	414.006	387.099	376.169	420.815	300.733	332.645	412.675	454.944	331.967	261.016	306.201	240.005	0.00060818	0.0005533	0.0001595	775.26	5.523e-06	5.5228e-06	615.88	355.38	3.8729e-06	5.4296e-06	289.92	131.28	171.26	89.893	7.7174e-06	64.636	0.00048266	0.00027433	7.648e-05	800.83	2.9332e-06	2.8079e-06	636.53	369.43	3.4748e-06	2.9524e-06	300.12	136.56	178.54	93.999	4.2174e-06	67.26	216.466	187.260	198.324	116.848	267.738	256.667	115.504	120.668	261.256	251.330	118.173	121.433	123.930	126.751	251.274	123.896	-8191	255	
35216.391	1	1	0	0	0.039611	0.10332	0.26432	0.24083	0.19974	0.16973	0.10541	0.19728	0.12436	0.28841	0.21967	0.22766	0.094158	0.038308	0.28461	0.22553	-1.7563	-2.1271	-2.4813	-2.3646	-2.2333	-2.2729	-1.8792	-2.5625	-2.3375	-1.9417	-2.4854	-2.1375	-2.3729	-2.3208	-2.0396	-2.5229	270.865	287.668	461.684	284.105	310.131	150.124	202.544	441.028	458.178	207.646	373.900	392.762	254.279	394.246	447.899	376.709	0.00062046	0.00048003	0.00018579	772.35	4.3769e-06	6.2206e-06	619.2	355.7	5.5329e-06	5.402e-06	291.32	132.24	171.87	90.185	7.2164e-06	64.87	0.00048531	0.00027098	7.5829e-05	800.42	2.8762e-06	2.9194e-06	638.76	370.16	3.2268e-06	3.2084e-06	301.78	137.17	179.03	94.274	4.0361e-06	67.436	217.828	194.506	205.189	116.840	268.679	251.906	115.685	120.505	258.656	240.764	118.061	121.629	123.891	126.798	255.434	124.091	-8191	255	
35216.488	1	1	0	0	0.2806	0.2258	0.25616	0.4602	0.12797	0.21472	0.28428	0.10471	0.10533	0.173	0.32282	0.1299	0.30163	0.080506	0.15777	0.058208	-1.8708	-1.9625	-2.3917	-2.1333	-2.0208	-2.3792	-2.0958	-2.3375	-2.4833	-1.8062	-2.3688	-2.1792	-2.2958	-2.5479	-2.0167	-2.2625	373.481	332.875	432.184	428.478	149.831	200.334	358.617	350.021	131.456	325.587	106.090	389.940	449.935	412.503	197.888	176.161	0.00061267	0.0005377	0.00017103	774.25	4.8131e-06	6.3915e-06	617.67	355.84	5.6931e-06	5.7252e-06	290.23	131.13	170.79	89.763	6.5593e-06	64.224	0.00048354	0.00027373	7.4777e-05	802.11	2.9554e-06	2.8042e-06	636.83	369.71	3.2585e-06	3.3752e-06	299.94	136.17	178.25	93.943	4.1594e-06	66.798	217.150	193.667	201.082	116.940	268.916	248.513	115.515	120.642	262.928	242.523	118.126	121.509	123.759	126.806	255.408	123.816	-8191	255	
35216.586	1	1	0	0	0.035454	0.10617	0.22325	0.43861	0.11761	0.21061	0.16016	0.41294	0.37895	0.19836	0.20163	0.26223	0.37704	0.35142	0.11018	0.30647	-1.8125	-2.0729	-2.375	-2.2729	-2.025	-2.4708	-2.0771	-2.4042	-2.4958	-1.9667	-2.5208	-2.2479	-2.0417	-2.375	-1.9188	-2.2833	220.124	238.642	153.104	429.292	352.910	286.577	145.614	415.930	138.166	228.410	405.812	439.207	439.657	370.830	305.125	116.748	0.0005935	0.00052583	0.00013644	777.21	4.9802e-06	5.7814e-06	616.32	357.07	5.1146e-06	5.017e-06	290.5	130.88	170.7	89.667	7.4434e-06	64.43	0.00047068	0.00027219	7.3259e-05	801.62	3.072e-06	2.8599e-06	635.94	370.07	3.3084e-06	3.4291e-06	300.13	136.06	178.16	93.793	4.0861e-06	66.935	218.799	176.419	188.763	116.677	272.533	240.084	115.361	120.659	256.284	247.692	118.236	121.443	123.927	126.920	255.741	123.847	-8191	255	
35216.703	1	1	0	0	0.064431	0.078047	0.23392	0.19198	0.30685	0.3752	0.19114	0.19426	0.18463	0.10282	0.20338	0.25062	0.28705	0.31258	0.3102	0.18076	-1.6646	-1.725	-2.2896	-2.2062	-1.8229	-2.1979	-2.0583	-2.2542	-2.1813	-2.0604	-2.3771	-2.3104	-2.0229	-2.4604	-2.0583	-2.1625	156.314	216.717	121.416	158.789	424.184	452.280	392.738	311.110	433.379	255.395	290.711	460.546	180.530	103.762	114.898	439.845	0.00060375	0.00055592	0.00018764	774.31	5.3932e-06	5.1989e-06	619.14	356.91	4.6944e-06	4.7059e-06	289.98	131.3	171.66	89.7	6.7854e-06	64.333	0.00046938	0.00028181	7.4653e-05	800.38	3.2224e-06	2.6965e-06	637.98	369.67	3.247e-06	3.3789e-06	300.52	136.44	178.66	93.884	3.9349e-06	67.122	217.267	187.569	189.365	116.947	263.796	240.169	115.418	120.865	264.062	255.540	118.246	121.439	123.943	126.875	256.800	123.894	-8191	255	
35216.801	1	1	0	0	0.11628	0.24308	0.078757	0.31123	0.25602	0.065822	0.15104	0.12413	0.14578	0.25423	0.17782	0.070563	0.078935	0.47283	0.13691	0.22714	-2.0479	-1.8479	-2.1208	-2.3875	-1.8354	-2.4437	-2.2083	-2.1583	-2.2854	-2.0833	-2.3229	-2.2667	-1.9562	-2.475	-2.1	-2.1333	284.560	361.313	109.062	364.011	185.558	212.162	409.575	323.265	110.267	216.724	324.660	111.958	457.896	433.026	187.458	427.133	0.0005994	0.00054178	0.00018846	776.85	4.4804e-06	5.5473e-06	621.57	357.81	5.2609e-06	5.5924e-06	291.89	131.62	171.02	90.112	7.5404e-06	64.665	0.00047161	0.00027362	7.5798e-05	802.04	3.3453e-06	2.7052e-06	639.07	370.22	3.3188e-06	3.3299e-06	301.67	136.77	178.58	94.01	3.8008e-06	67.146	219.412	192.030	202.281	116.801	274.374	248.673	115.736	120.811	254.415	249.643	117.864	121.532	123.738	126.833	251.621	123.724	-8191	255	
35216.871	1	1	0	0	0.23776	0.33253	0.11907	0.17143	0.18395	0.14304	0.24851	0.19547	0.24606	0.28069	0.2326	0.1254	0.256	0.053446	0.080664	0.18876	-1.8854	-1.8229	-2.2646	-2.4104	-1.9062	-2.4771	-2.1479	-2.0479	-2.4354	-1.9208	-2.2104	-2.5604	-1.825	-2.4125	-2.2313	-1.95	202.822	368.033	358.148	263.991	304.442	455.460	139.986	103.489	424.658	143.929	336.858	372.651	129.572	140.020	227.294	407.142	0.00060475	0.00063135	0.00018732	776.49	5.5798e-06	5.7288e-06	619.22	356.15	5.1508e-06	5.4682e-06	289.81	130.24	170.35	89.496	5.5412e-06	63.76	0.00047736	0.00027527	7.3352e-05	802.67	3.3775e-06	2.7708e-06	636.81	370.09	3.2344e-06	3.1725e-06	299.71	135.81	177.73	93.535	3.5922e-06	66.361	217.064	188.377	190.712	116.955	271.808	241.888	115.609	120.661	258.788	247.482	118.031	121.429	123.762	126.849	258.627	123.818	-8191	255	
35216.969	1	1	0	0	0.11989	0.016642	0.078553	0.14909	0.14925	0.33576	0.13019	0.42879	0.15251	0.066501	0.12385	0.12316	0.27523	0.33134	0.19831	0.11422	-1.9479	-1.9292	-2.1688	-2.3771	-2.0167	-2.4479	-2.4833	-2.1979	-2.3021	-2.1167	-2.3292	-2.6833	-2.0521	-2.6625	-2.2562	-2.0708	239.309	307.111	262.533	150.212	277.840	128.253	376.873	421.585	412.774	232.004	387.922	108.837	206.406	439.943	322.286	361.800	0.00060533	0.00055086	0.00013781	775.36	5.2289e-06	5.7722e-06	614.08	353.89	4.8983e-06	4.7147e-06	288.7	130.26	170.54	89.285	6.6163e-06	63.622	0.00047197	0.00026245	7.0395e-05	800.33	3.2883e-06	2.6959e-06	632.32	368.52	3.0636e-06	2.989e-06	298.49	135.27	177.44	93.199	3.478e-06	66.231	216.376	185.738	197.818	116.642	265.991	255.378	115.472	120.709	255.418	251.457	118.335	121.695	123.786	126.757	253.114	123.961	-8191	255	
35217.090	1	1	0	0	0.061905	0.053601	0.051345	0.085367	0.095508	0.14137	0.38963	0.12505	0.12706	0.33122	0.21705	0.084633	0.2514	0.23909	0.096904	0.26213	-1.8021	-2.1021	-2.1458	-2.5354	-2.0563	-2.125	-2.4188	-2.2708	-2.4417	-2.0375	-2.2208	-2.5521	-2.0917	-2.3792	-2.5146	-2.0458	384.871	222.413	379.473	203.368	281.909	395.831	429.443	145.672	397.455	422.378	323.953	188.967	448.963	432.780	403.353	435.118	0.0005961	0.00058836	0.00017202	772.74	5.0144e-06	5.1949e-06	612.33	354.89	5.1255e-06	4.0538e-06	288.52	130.11	169.65	88.978	7.0574e-06	63.539	0.00046264	0.00026003	7.199e-05	798.11	3.2314e-06	2.7281e-06	633.14	368.56	3.1254e-06	2.8346e-06	297.96	135.02	176.99	92.938	3.5854e-06	66.025	217.788	176.817	194.735	116.907	260.024	251.104	115.581	120.590	263.020	252.821	118.026	121.748	123.762	126.832	251.945	123.802	-8191	255	
35217.184	1	1	0	0	0.12171	0.18226	0.2296	0.12073	0.2308	0.19643	0.21563	0.18471	0.37376	0.067771	0.082264	0.0821	0.15007	0.41021	0.12659	0.4211	-1.9271	-2.3208	-2.0708	-2.5604	-2.0417	-2.1312	-2.4	-2.1937	-2.2875	-2.2604	-2.0646	-2.6312	-2.0979	-2.3708	-2.375	-2.2229	324.842	157.134	314.532	355.340	276.906	416.742	142.288	317.073	262.881	333.346	355.301	347.753	431.455	451.922	243.051	405.981	0.00058473	0.00057923	0.00017576	774.37	5.2253e-06	5.8146e-06	612.22	353.94	5.647e-06	5.1294e-06	287.4	130.1	169.92	88.956	6.9478e-06	63.696	0.00045551	0.00025255	7.3461e-05	797.63	3.1232e-06	2.6061e-06	631.07	367.33	3.0154e-06	2.6784e-06	297.64	134.86	176.91	92.807	3.5559e-06	66.116	216.942	187.226	187.719	116.768	258.627	253.596	115.680	120.662	266.220	251.024	118.033	121.441	123.810	126.779	261.414	123.738	-8191	255	
35217.281	1	1	0	0	0.23735	0.14288	0.077003	0.4277	0.16308	0.012031	0.2571	0.27378	0.28642	0.15584	0.31268	0.050496	0.37905	0.1514	0.15191	0.22593	-1.8625	-2.2479	-1.9083	-2.5375	-2.1312	-2.1625	-2.5729	-2.1875	-2.2062	-2.3979	-2.2	-2.5271	-2.3083	-2.4708	-2.4604	-2.1292	455.583	321.467	327.788	390.635	414.293	410.914	385.321	387.115	423.054	332.778	397.547	259.740	462.006	389.241	188.572	356.133	0.00059816	0.00056303	0.0001638	768.68	3.9181e-06	5.5913e-06	613.69	353.32	4.7412e-06	5.5793e-06	287.84	129.6	169.6	88.887	6.5389e-06	63.266	0.00045855	0.00025942	7.6696e-05	795.62	3.139e-06	2.6569e-06	631.84	367	3.1265e-06	2.7776e-06	297.15	134.76	176.66	92.893	3.6633e-06	65.793	217.987	200.976	197.781	116.826	266.289	249.552	115.380	120.639	258.905	240.110	117.970	121.700	123.714	126.752	254.592	123.849	-8191	255	
35217.379	1	1	0	0	0.13976	0.012281	0.27105	0.21492	0.37709	0.069966	0.14792	0.066408	0.052912	0.081629	0.11927	0.36199	0.26837	0.28833	0.24009	0.16124	-1.8667	-2.3125	-1.9375	-2.2896	-2.1083	-1.9813	-2.5083	-2.2375	-2.2667	-2.5708	-1.9604	-2.3167	-2.3542	-2.2375	-2.3312	-2.1979	394.922	360.621	188.602	408.718	306.734	258.718	212.998	374.414	327.855	323.223	440.394	453.914	372.335	435.311	267.801	423.447	0.00059736	0.00055348	0.00015426	765.64	5.0974e-06	6.1418e-06	608.04	352.09	5.0894e-06	5.5119e-06	286.41	127.95	168.42	88.481	6.4727e-06	62.931	0.00046069	0.00026179	7.6542e-05	792.35	2.958e-06	2.9757e-06	626.89	366.01	3.0302e-06	2.7404e-06	295.64	133.61	175.8	92.331	3.495e-06	65.363	215.684	187.837	187.799	116.926	263.440	243.482	115.495	120.593	259.951	250.050	117.747	121.522	123.827	127.004	256.655	123.737	-8191	255	
35217.473	1	1	0	0	0.13553	0.095371	0.27909	0.11451	0.21679	0.27249	0.22334	0.092413	0.089328	0.11209	0.16728	0.18326	0.27483	0.32352	0.12762	0.10602	-1.6917	-2.2375	-1.9083	-2.3417	-2.4188	-1.9688	-2.5042	-2.3667	-2.1208	-2.3271	-1.9667	-2.3563	-2.2229	-2.2458	-2.4417	-2.2083	392.392	412.906	375.433	440.187	348.114	372.968	131.023	350.800	459.347	354.502	343.415	373.446	344.199	452.279	268.667	109.659	0.00058861	0.00064594	0.00017081	768.75	4.2976e-06	4.753e-06	610.23	352.55	5.2859e-06	4.7699e-06	284.73	128.95	168.56	88.685	7.4541e-06	63.031	0.00045872	0.0002608	7.7501e-05	792.29	2.7644e-06	3.1521e-06	627.47	365.77	3.0367e-06	2.7826e-06	295.11	133.99	176.15	92.69	3.5519e-06	65.664	216.139	183.772	194.217	116.823	266.227	246.684	115.313	120.590	267.368	259.684	118.202	121.545	123.687	126.768	256.653	123.879	-8191	255	
35217.570	1	1	0	0	0.020155	0.11466	0.12919	0.15898	0.27267	0.10655	0.22399	0.17156	0.11084	0.16685	0.29048	0.31614	0.042076	0.32324	0.30167	0.21929	-1.4396	-2.35	-1.9062	-2.3937	-2.1479	-1.8438	-2.4562	-2.2854	-2.2083	-2.325	-2.0583	-2.4208	-2.3979	-2.1542	-2.4354	-2.2875	200.798	194.761	301.472	165.288	177.873	238.504	367.223	457.836	197.641	125.479	109.943	387.444	102.930	385.470	426.490	393.469	0.00059973	0.00058655	0.00016913	768.08	6.0638e-06	5.5578e-06	605.67	352.01	4.1888e-06	6.0635e-06	287.27	129.41	168.88	88.767	7.1883e-06	63.484	0.00046757	0.00026525	7.843e-05	793.86	2.9907e-06	3.2505e-06	626.2	365.7	3.212e-06	2.94e-06	296.7	134.5	176.1	92.826	3.6218e-06	65.982	218.398	178.720	203.905	116.859	267.240	252.065	115.667	120.644	259.170	248.935	118.063	121.667	123.906	127.011	257.325	123.811	-8191	255	
35217.688	1	1	0	0	0.2399	0.34942	0.064764	0.27428	0.11479	0.04703	0.17443	0.17234	0.098622	0.1055	0.19772	0.25359	0.049177	0.24563	0.15058	0.2356	-1.5771	-2.4042	-2.0208	-2.2	-2.3104	-2.1063	-2.4354	-2.4292	-2.0167	-2.3292	-2.0583	-2.3271	-2.4521	-2.2562	-2.2208	-2.4854	445.901	418.226	410.655	369.943	305.302	231.570	342.175	420.692	269.424	388.805	333.312	396.894	209.128	414.071	309.587	110.846	0.00059531	0.00063534	0.00018307	768.7	5.1179e-06	7.0567e-06	611.04	353.23	5.3102e-06	5.8735e-06	287.79	130.23	169.35	89.106	7.1931e-06	63.954	0.00047775	0.00025948	7.4204e-05	793.94	2.9681e-06	3.4462e-06	628.94	366.4	3.3177e-06	2.8892e-06	297.06	135	176.89	93.126	3.6979e-06	66.25	217.786	192.037	191.524	117.070	274.996	242.274	115.479	120.621	263.870	245.959	117.791	121.677	123.679	126.935	252.403	123.941	-8191	255	
35217.785	1	1	0	0	0.41125	0.17477	0.20596	0.21579	0.11695	0.16054	0.10851	0.11445	0.24631	0.18835	0.22154	0.32641	0.26716	0.18082	0.018872	0.19615	-1.5833	-2.3604	-2.0021	-2.2729	-2.3187	-2.025	-2.4104	-2.2771	-2.0438	-2.5687	-2.175	-2.3229	-2.7125	-2.2417	-2.2271	-2.4625	330.035	403.449	172.054	149.311	226.862	454.480	346.534	148.692	301.417	199.126	298.882	415.660	423.044	130.292	405.867	451.730	0.00059066	0.00069271	0.00020005	769.57	4.7127e-06	5.5035e-06	608.8	353.45	5.0345e-06	5.3782e-06	286.44	129.42	169.66	88.965	7.1064e-06	63.54	0.00049028	0.00027406	7.5195e-05	794.23	2.9121e-06	3.2215e-06	626.58	366.41	3.2169e-06	2.7156e-06	295.67	134.51	176.84	92.981	3.5252e-06	65.94	218.336	180.089	198.086	116.925	258.485	251.881	115.361	120.573	259.431	244.044	118.021	121.450	123.663	126.918	256.295	123.820	-8191	255	
35217.879	1	1	0	0	0.09759	0.17111	0.292	0.18185	0.10663	0.050852	0.12609	0.20583	0.047036	0.14993	0.14329	0.16507	0.066811	0.11437	0.28695	0.034935	-1.6437	-2.2875	-2.1083	-2.0667	-2.4625	-1.9292	-2.1667	-2.4458	-2.0958	-2.4021	-2.2854	-2.1188	-2.4771	-2.1125	-2.1646	-2.4229	284.026	174.310	435.388	105.345	288.606	109.480	408.900	417.646	395.836	419.996	371.621	333.959	285.513	283.637	132.676	295.173	0.00058498	0.00051508	0.00017091	765.32	5.3097e-06	4.8916e-06	607.81	353.11	5.3673e-06	5.2453e-06	286.08	129.27	169.51	88.9	6.1902e-06	63.533	0.00048105	0.00026261	7.5055e-05	791.95	2.9633e-06	3.1998e-06	625.87	365.93	3.2876e-06	2.6766e-06	295.9	134.38	176.57	92.896	3.5434e-06	65.985	217.265	193.088	196.841	116.847	273.197	263.629	115.569	120.745	253.243	245.134	117.838	121.556	123.855	126.951	257.460	123.733	-8191	255	
35217.977	1	1	0	0	0.095747	0.22864	0.14842	0.11815	0.16706	0.23675	0.19079	0.36945	0.11496	0.20105	0.097753	0.23498	0.36064	0.21408	0.21154	0.13423	-1.5562	-2.3042	-2.125	-2.1979	-2.3312	-1.9896	-2.1521	-2.475	-1.9917	-2.35	-2.0812	-2.1542	-2.4542	-2.2792	-2.1646	-2.4208	367.130	454.318	330.759	103.721	412.670	373.881	389.489	359.645	283.277	398.383	310.857	118.283	449.381	405.631	301.073	412.982	0.00060455	0.00045119	0.00016661	765.58	4.7868e-06	4.6093e-06	607.81	352.77	5.2343e-06	4.6727e-06	285.86	129.77	168.64	88.785	6.5531e-06	63.345	0.00049445	0.00025948	7.3507e-05	792.33	2.8314e-06	3.0698e-06	625.66	365.77	3.2865e-06	2.8241e-06	295.46	134.69	176.26	92.938	3.6064e-06	66.068	216.675	177.839	195.520	116.769	269.556	260.707	115.312	120.638	251.158	253.689	118.080	121.587	124.019	126.735	258.804	123.864	-8191	255	
35218.098	1	1	0	0	0.18325	0.19706	0.22472	0.28183	0.21988	0.10819	0.33085	0.13851	0.15211	0.25676	0.11093	0.23432	0.3098	0.34117	0.2289	0.28784	-1.5292	-2.2417	-2.0854	-2.0625	-2.3979	-2.2062	-2.3208	-2.5812	-1.9646	-2.2146	-2.2167	-1.9979	-2.6562	-2.2938	-2.0729	-2.5542	147.382	288.660	445.940	404.521	140.589	184.270	251.706	366.969	428.411	356.921	123.232	365.002	146.550	461.939	373.885	421.212	0.00059209	0.0007123	0.00016703	767.29	5.1737e-06	5.996e-06	608.57	353.93	5.3978e-06	5.1936e-06	287.99	130.19	170.43	89.264	6.7791e-06	63.694	0.00047744	0.00026498	7.6108e-05	793.59	2.8578e-06	3.2041e-06	627.68	366.61	3.2876e-06	2.7906e-06	296.82	135.57	177.46	93.422	3.7627e-06	66.665	219.153	193.278	192.286	116.646	264.828	256.547	115.356	120.669	257.754	246.524	117.908	121.702	123.795	126.853	257.437	123.930	-8191	255	
35218.168	1	1	0	0	0.20505	0.069888	0.07484	0.40535	0.10792	0.19651	0.28239	0.22337	0.12197	0.22848	0.22624	0.17056	0.20406	0.26473	0.13874	0.2932	-1.5646	-2.2104	-2.2333	-2.0771	-2.1792	-2.1188	-2.0875	-2.6271	-1.9583	-2.0771	-2.3187	-1.8854	-2.4562	-2.3458	-2.0312	-2.6292	234.302	198.324	431.028	424.961	383.013	212.342	392.660	341.015	121.680	128.863	353.984	410.320	409.687	439.258	138.070	431.441	0.00061028	0.00069584	0.00017899	767.47	4.9938e-06	4.9393e-06	606	353.54	5.6997e-06	6.9473e-06	286.88	129.84	169.27	88.969	6.6726e-06	63.563	0.00050322	0.00026811	7.9251e-05	792.51	2.8187e-06	3.0673e-06	627.73	366.16	3.2629e-06	2.8594e-06	296.28	134.85	176.75	93.173	3.7616e-06	66.094	217.966	194.727	204.331	116.858	265.084	247.466	115.357	120.617	262.224	246.790	117.890	121.708	123.751	126.748	252.884	123.894	-8191	255	
35218.266	1	1	0	0	0.14436	0.074244	0.16765	0.090939	0.035236	0.079139	0.08526	0.22128	0.27165	0.26364	0.022926	0.32144	0.17688	0.29977	0.23679	0.17173	-1.6521	-2.2958	-2.2917	-2.1229	-2.3396	-2.175	-2.0021	-2.4792	-2.2125	-2.1833	-2.2208	-1.9937	-2.4146	-2.4125	-2.0729	-2.3979	114.510	254.429	301.687	338.274	258.273	419.381	239.735	351.412	197.145	369.132	175.011	284.463	437.333	428.370	408.890	435.765	0.00060689	0.00059435	0.00017176	766.47	4.9166e-06	5.4212e-06	609.13	352.32	4.7803e-06	5.0967e-06	284.97	128.85	170.3	88.982	6.8733e-06	63.566	0.00048825	0.0002636	7.7161e-05	792.74	2.8995e-06	2.915e-06	626.89	365.34	3.2185e-06	2.8458e-06	295.48	134.52	176.97	92.901	3.7866e-06	66.006	218.308	189.656	192.747	117.005	260.196	252.337	115.544	120.394	260.060	253.160	117.897	121.518	123.832	126.853	260.005	123.939	-8191	255	
35218.359	1	1	0	0	0.17748	0.083672	0.22521	0.08018	0.1185	0.12874	0.041268	0.17426	0.069973	0.086019	0.15679	0.34547	0.05031	0.048524	0.31546	0.10447	-1.6771	-1.9125	-2.4562	-2.0792	-2.35	-2.4208	-1.9979	-2.5375	-2.1063	-2.0604	-2.3958	-2.1146	-2.2062	-2.4583	-1.9708	-2.5604	437.425	436.370	376.435	149.694	452.448	242.217	187.759	336.912	389.139	439.486	435.116	399.532	423.634	317.326	119.347	458.609	0.00060111	0.00065502	0.00016511	764.76	5.2118e-06	6.3553e-06	608.47	353.28	6.1084e-06	5.7612e-06	285.92	129.77	170.1	88.933	6.9694e-06	63.774	0.00048667	0.00027268	7.6619e-05	791.59	2.8878e-06	2.933e-06	625.65	365.68	3.2651e-06	3.0082e-06	295.83	134.87	177.18	93.148	3.8031e-06	66.249	217.263	190.265	195.427	116.830	270.299	251.328	115.407	120.665	259.568	251.759	117.856	121.749	123.655	126.954	255.796	123.816	-8191	255	
35218.480	1	1	0	0	0.31094	0.098153	0.075531	0.23195	0.17455	0.045161	0.21014	0.04201	0.11929	0.19025	0.049952	0.28956	0.12385	0.23138	0.083097	0.15821	-1.6979	-1.9979	-2.4188	-2.1063	-2.3708	-2.175	-1.9771	-2.4646	-2.2979	-1.9896	-2.4271	-2.1917	-2.1833	-2.4313	-2.025	-2.5021	243.254	459.803	349.626	130.141	205.422	415.888	393.821	290.437	430.671	300.169	180.839	386.541	379.005	439.583	232.044	389.834	0.00061114	0.00063013	0.00017511	763.12	5.0584e-06	4.6651e-06	606.95	351.48	5.5711e-06	4.8944e-06	286.96	129.71	170.14	89.105	6.7081e-06	63.91	0.00048162	0.00029534	7.7826e-05	790.1	2.8277e-06	2.9714e-06	625.23	364.68	3.3275e-06	3.0268e-06	296.04	135.14	177.08	93.203	3.7553e-06	66.512	217.695	197.129	196.162	116.893	272.354	257.368	115.491	120.614	256.722	243.362	117.963	121.286	123.824	126.840	254.170	123.627	-8191	255	
35218.578	1	1	0	0	0.076142	0.018865	0.24844	0.21538	0.10508	0.10251	0.14789	0.27897	0.17193	0.037044	0.16163	0.061182	0.24307	0.34296	0.21183	0.31684	-1.65	-1.8125	-2.4833	-2.4125	-2.1354	-2.2979	-1.9688	-2.5021	-2.2208	-1.9292	-2.5312	-2.2021	-2.3	-2.4688	-1.9438	-2.3292	223.418	349.415	238.123	108.702	236.253	404.900	410.757	396.927	145.969	267.897	358.479	389.547	356.732	103.611	208.244	383.848	0.00061236	0.00055598	0.00016468	764.17	5.745e-06	5.1603e-06	609.13	352.83	5.2955e-06	5.6651e-06	287.22	130.64	170.63	89.7	6.2989e-06	64.153	0.00047257	0.0003207	7.4606e-05	791.11	2.9802e-06	2.7751e-06	627.77	365.72	3.2799e-06	3.0504e-06	296.62	135.66	177.54	93.637	3.7735e-06	66.68	218.592	194.726	196.196	116.941	267.233	242.001	115.648	120.532	258.395	255.043	118.048	121.638	123.872	126.949	259.113	123.740	-8191	255	
35218.676	1	1	0	0	0.1389	0.2135	0.033042	0.17933	0.054793	0.065363	0.23095	0.038672	0.11867	0.18733	0.11772	0.18575	0.13687	0.21569	0.21953	0.10626	-1.8771	-2.0687	-2.2854	-2.1896	-2.0917	-2.4062	-2.0625	-2.4938	-2.3563	-2.0646	-2.5896	-2.2812	-2.2313	-2.5417	-2	-2.3146	220.312	231.329	128.514	434.304	294.254	271.291	391.946	187.258	335.039	457.917	171.007	380.766	449.712	138.906	438.594	156.704	0.00059252	0.00061348	0.00015477	763.66	5.0554e-06	5.3563e-06	606.91	351.03	6.0005e-06	5.0746e-06	286.1	129.14	169.6	88.85	7.5012e-06	63.656	0.00047279	0.00029413	7.3182e-05	789.67	2.9797e-06	2.733e-06	624.27	364.71	3.2602e-06	2.9871e-06	295.22	134.51	176.77	92.975	3.7235e-06	66.129	217.349	192.496	204.663	116.820	268.489	251.151	115.515	120.574	259.005	242.367	118.064	121.475	123.825	126.788	259.309	123.962	-8191	255	
35218.770	1	1	0	0	0.28203	0.15693	0.044104	0.30592	0.33922	0.17536	0.058353	0.14608	0.30599	0.21208	0.13126	0.1425	0.39039	0.19396	0.071823	0.18747	-1.8875	-1.7771	-2.1833	-2.2062	-2.1312	-2.4417	-2.1604	-2.3729	-2.3125	-1.9167	-2.275	-2.2854	-1.9896	-2.5271	-1.9833	-2.2458	153.320	180.265	305.570	458.057	307.172	397.954	384.558	438.924	117.596	134.045	423.403	166.421	448.181	335.107	396.218	400.741	0.00058808	0.00055163	0.00013817	768.67	4.4383e-06	7.0513e-06	604.58	352.47	5.0871e-06	4.8347e-06	286.53	129.55	169.31	88.876	6.4983e-06	63.79	0.00046741	0.00031564	6.9884e-05	792.48	2.996e-06	2.8092e-06	624.53	365.26	3.2191e-06	2.8644e-06	296.22	134.66	176.92	93.059	3.6258e-06	66.35	220.042	192.858	196.532	116.848	262.012	250.858	115.400	120.656	256.029	247.835	118.188	121.291	123.864	126.957	261.108	123.915	-8191	255	
35218.867	1	1	0	0	0.25029	0.1701	0.16604	0.31373	0.086215	0.076378	0.12779	0.091261	0.20331	0.18122	0.11919	0.18201	0.2974	0.26281	0.21243	0.56462	-1.7792	-2.0187	-2.1521	-2.3354	-1.9958	-2.4083	-2.2458	-2.1729	-2.4021	-1.9688	-2.4146	-2.4917	-2.1417	-2.5021	-1.9896	-2.0958	269.251	204.953	371.526	131.874	446.045	400.317	311.605	179.408	371.277	395.432	132.925	113.962	179.992	379.265	289.396	456.313	0.00060993	0.0005962	0.00019136	768.4	4.4088e-06	6.6021e-06	604.7	350.96	5.9472e-06	6.093e-06	287.3	129.77	170.07	89.291	6.4612e-06	64.059	0.00047299	0.00030178	7.2315e-05	793.07	3.0572e-06	2.8042e-06	624.24	365.06	3.172e-06	2.9878e-06	296.67	135.17	177.3	93.466	3.6962e-06	66.617	218.160	185.212	196.274	116.811	252.444	249.965	115.690	120.679	260.938	251.942	117.905	121.677	123.710	126.794	250.782	123.887	-8191	255	
35218.961	1	1	0	0	0.16828	0.059796	0.23875	0.06846	0.16877	0.11201	0.18027	0.073104	0.16225	0.050935	0.16678	0.14797	0.3316	0.13256	0.25588	0.091392	-1.9937	-2.0604	-2.1771	-2.4104	-2.0062	-2.2125	-2.0792	-1.8479	-2.4667	-2.1063	-2.2125	-2.5375	-2.1667	-2.5938	-2.2562	-2.0958	243.512	219.257	394.170	412.591	376.732	444.266	358.820	184.481	360.818	158.262	423.308	355.130	111.221	435.329	328.272	296.019	0.00061349	0.00055986	0.00016689	768.26	5.3315e-06	5.698e-06	607.42	352.39	5.6911e-06	5.2808e-06	287.77	129.83	170.99	89.449	7.7873e-06	64.271	0.00047164	0.00030371	7.1974e-05	792.82	3.0878e-06	2.7887e-06	625.87	366.13	3.2021e-06	2.8768e-06	297.32	135.35	177.76	93.574	3.7457e-06	66.883	216.627	180.753	195.476	116.884	267.442	254.272	115.341	120.663	258.023	248.046	118.242	121.578	123.774	126.760	250.118	123.821	-8191	255	
35219.059	1	1	0	0	0.20488	0.32862	0.072984	0.25279	0.26754	0.06004	0.089346	0.18503	0.18366	0.15403	0.37064	0.06757	0.17297	0.27688	0.23941	0.11804	-1.8167	-1.8271	-2.1396	-2.5	-1.9625	-2.3229	-2.2854	-2.0458	-2.1708	-2.1521	-2.1646	-2.6479	-2.0708	-2.6542	-2.2687	-2.2313	202.432	155.514	353.413	453.426	386.919	235.885	395.355	429.336	183.924	135.463	394.640	314.041	142.276	428.573	309.688	304.303	0.00061421	0.00053847	0.00017451	766.86	4.7323e-06	6.3381e-06	608.82	352.15	4.8407e-06	5.7137e-06	286.69	130.07	170.54	89.412	6.1815e-06	63.908	0.00046904	0.00029303	7.5117e-05	794.07	3.1253e-06	2.8141e-06	628.03	366.37	3.0477e-06	2.7621e-06	297.02	135.19	177.44	93.343	3.5644e-06	66.445	216.512	187.229	199.578	116.925	266.321	252.765	115.803	120.522	263.615	239.629	117.814	121.733	123.997	126.753	259.286	124.185	-8191	255	
35219.176	1	1	0	0	0.22756	0.26971	0.27697	0.34569	0.11403	0.11402	0.10984	0.29175	0.3035	0.20047	0.19387	0.22046	0.21483	0.17186	0.070517	0.26495	-1.9125	-2.0667	-2.1	-2.4688	-1.95	-2.2229	-2.3167	-2.0333	-2.4792	-2.1479	-2.0729	-2.5667	-2.0438	-2.4375	-2.3771	-2.1146	378.425	433.702	282.901	417.249	407.680	404.119	109.578	376.996	326.134	108.378	428.732	450.108	459.505	410.852	453.360	357.083	0.00062854	0.00051055	0.00017568	768.18	5.5981e-06	5.3888e-06	607.36	350.82	4.2619e-06	5.6396e-06	286.82	129.37	170.22	89.32	7.0052e-06	63.674	0.00047305	0.00029633	7.5953e-05	794.06	3.0039e-06	2.7696e-06	625.25	365.51	3.0603e-06	2.9369e-06	296.54	134.92	177.45	93.31	3.8519e-06	66.334	217.857	199.253	191.758	116.946	269.222	256.363	115.564	120.771	256.484	251.888	117.809	121.500	123.856	126.798	250.917	123.904	-8191	255	
35219.273	1	1	0	0	0.25055	0.22478	0.12874	0.18874	0.20227	0.18626	0.039768	0.20746	0.11873	0.057895	0.29892	0.11798	0.26771	0.40487	0.15267	0.10202	-1.8312	-2.1833	-1.9375	-2.4437	-2.0354	-2.0708	-2.375	-2.0396	-2.3438	-2.2979	-2.1917	-2.5583	-2.1854	-2.2271	-2.4604	-1.9271	238.005	189.707	161.192	324.055	151.377	342.580	106.153	332.307	402.152	384.404	434.096	147.138	449.719	421.234	361.321	268.939	0.00060105	0.00049656	0.00014988	767.06	5.0555e-06	5.7854e-06	605.11	351.66	4.4168e-06	5.9869e-06	286.34	130.05	170.11	89.3	7.2324e-06	63.904	0.00047352	0.00027703	8.131e-05	791.9	2.9612e-06	2.8061e-06	625.5	365.71	3.132e-06	2.9549e-06	296.84	135.25	177.4	93.34	3.5638e-06	66.548	217.965	186.676	197.565	116.972	262.387	241.018	115.713	120.640	261.163	248.005	118.304	121.390	123.665	126.930	250.669	123.906	-8191	255	
35219.367	1	1	0	0	0.25754	0.048187	0.2061	0.18792	0.040538	0.17586	0.14567	0.28847	0.17182	0.32523	0.25086	0.051594	0.14272	0.21842	0.11939	0.27494	-1.7687	-2.1271	-1.9271	-2.5083	-1.95	-2.2333	-2.5958	-2.1167	-2.3292	-2.1875	-2.1146	-2.5417	-2.3625	-2.3563	-2.45	-2.2	312.439	276.378	271.080	460.682	360.526	228.445	413.317	365.261	248.730	236.176	325.389	211.472	451.919	388.664	256.300	323.583	0.0005965	0.0006312	0.00016628	767.9	5.3181e-06	6.5942e-06	609.66	352.31	5.3277e-06	6.5219e-06	286.79	130.33	170.2	89.603	7.0804e-06	64.289	0.00046436	0.00028214	8.8896e-05	793.1	3.0477e-06	2.9806e-06	627.15	365.72	3.1501e-06	3.0144e-06	296.77	135.43	177.49	93.469	3.6758e-06	66.778	217.856	186.238	187.979	116.906	258.750	246.291	115.329	120.483	261.551	250.755	118.029	121.459	123.913	126.782	255.110	123.786	-8191	255	
35219.465	1	1	0	0	0.10343	0.22154	0.082318	0.19919	0.26395	0.22384	0.12009	0.22827	0.31555	0.13913	0.37667	0.29523	0.041357	0.36711	0.09068	0.26063	-1.8271	-2.25	-1.8646	-2.5917	-2.15	-2.3146	-2.4771	-2.1417	-2.3042	-2.5	-1.9646	-2.3896	-2.2833	-2.3187	-2.3854	-2.1458	274.585	171.244	392.583	405.272	167.927	252.160	421.093	451.063	132.237	370.467	399.097	436.501	362.165	396.932	147.433	425.951	0.00062234	0.00064871	0.00017867	769.22	5.169e-06	7.007e-06	610.54	354.7	4.9062e-06	5.3255e-06	288.53	130.81	170.45	89.462	7.262e-06	64.029	0.00047804	0.00026971	8.244e-05	795.56	2.9865e-06	2.9175e-06	629.86	367.39	3.2169e-06	2.9456e-06	298.07	135.61	177.42	93.516	3.7121e-06	66.584	217.692	195.681	196.341	116.981	262.907	246.656	115.615	120.519	264.234	251.897	117.774	121.680	123.702	126.741	260.157	123.831	-8191	255	
35219.562	1	1	0	0	0.15954	0.12411	0.18459	0.12721	0.070043	0.23343	0.16113	0.11629	0.079177	0.019412	0.20487	0.28675	0.22221	0.31165	0.22738	0.18045	-1.6146	-2.2521	-2.0958	-2.3729	-2.0729	-1.85	-2.2438	-2.0896	-2.1458	-2.4021	-2.0896	-2.3854	-2.3396	-2.1625	-2.3104	-2.2042	303.868	334.592	224.477	335.735	350.970	260.623	108.461	257.568	280.599	161.266	187.967	119.182	421.220	394.957	449.446	337.181	0.0006184	0.00055745	0.0001706	770.32	5.2722e-06	5.0716e-06	609.96	353.43	5.5663e-06	6.4138e-06	287.26	129.77	170.68	89.113	6.9562e-06	63.76	0.00047981	0.00026371	8.3369e-05	796.09	3.0847e-06	2.8247e-06	626.99	366.8	3.3368e-06	2.8105e-06	296.94	134.91	177.32	93.311	3.5774e-06	66.375	216.501	183.167	210.921	116.960	265.440	243.537	115.189	120.502	260.715	249.936	118.118	121.546	123.878	126.831	252.259	123.586	-8191	255	
35219.656	1	1	0	0	0.21359	0.16563	0.12168	0.23446	0.12216	0.089437	0.11223	0.10453	0.046401	0.23283	0.34095	0.10374	0.14114	0.45524	0.27992	0.39349	-1.6063	-2.3375	-1.9625	-2.2125	-2.2208	-2.0146	-2.3146	-2.1	-2.2313	-2.2417	-2.0542	-2.2896	-2.2938	-2.2708	-2.3708	-2.4104	279.785	352.595	421.012	437.589	461.126	202.318	387.885	147.742	428.061	333.309	424.877	281.765	238.204	438.962	383.655	362.591	0.00061052	0.00049754	0.00017651	770.88	5.1905e-06	5.2999e-06	606.3	353.61	5.0418e-06	5.5845e-06	287.1	130.29	170.31	89.525	7.4073e-06	64.282	0.0004819	0.00026531	8.614e-05	796.05	2.9348e-06	2.985e-06	626.96	366.89	3.2344e-06	2.8353e-06	297.27	135.48	177.61	93.548	3.5547e-06	66.737	216.952	179.595	189.420	117.069	268.165	258.059	115.489	120.575	261.541	253.749	117.913	121.609	123.825	126.866	260.659	123.815	-8191	255	
35219.777	1	1	0	0	0.14394	0.11411	0.26887	0.38791	0.30553	0.25081	0.093931	0.1872	0.11062	0.14915	0.16745	0.16933	0.271	0.43547	0.18305	0.26529	-1.4271	-2.4375	-1.8792	-2.4146	-2.4	-2.0687	-2.4646	-2.3667	-2.0542	-2.5812	-2.0625	-2.0583	-2.4542	-2.0896	-2.2333	-2.4479	132.393	348.563	295.035	151.912	116.872	288.977	408.426	124.831	341.781	401.037	331.762	287.278	125.475	433.632	277.469	372.203	0.00061244	0.00056959	0.00012725	768.72	4.5719e-06	6.075e-06	610.27	355.75	5.3768e-06	4.5552e-06	287.48	130.79	170.49	89.505	6.3937e-06	64.198	0.00048489	0.00027032	8.4081e-05	794.85	2.9047e-06	2.9249e-06	628.07	367.64	3.6851e-06	2.7683e-06	297.47	135.94	177.74	93.651	3.6672e-06	66.835	218.462	172.130	193.919	116.734	262.140	249.286	115.195	120.648	254.139	251.736	117.861	121.638	124.062	126.820	263.019	123.789	-8191	255	
35219.871	1	1	0	0	0.37591	0.065084	0.19853	0.029209	0.089748	0.15627	0.10226	0.47116	0.28039	0.33405	0.18637	0.17591	0.4211	0.47316	0.19695	0.27813	-1.5771	-2.2917	-2.0979	-2.4125	-2.4479	-2.1146	-2.3396	-2.3354	-2.0167	-2.4375	-2.1167	-2.1688	-2.4271	-2.1937	-2.4	-2.4083	409.138	385.646	364.857	458.585	349.541	336.381	105.312	437.091	253.469	431.015	373.134	397.556	350.954	414.979	279.627	379.260	0.00061744	0.00062725	0.00015913	771.65	4.4962e-06	5.3048e-06	610.61	353.94	5.2273e-06	5.1842e-06	288.76	130.95	170.56	89.425	6.8104e-06	64.432	0.0004863	0.00025975	8.1743e-05	795.85	2.9717e-06	2.9553e-06	629.24	367.76	3.5209e-06	2.7032e-06	298.62	135.94	177.71	93.613	3.6604e-06	66.991	217.480	188.599	186.629	116.919	269.877	251.563	115.384	120.496	262.153	243.665	117.997	121.592	123.811	126.915	261.193	123.831	-8191	255	
35219.969	1	1	0	0	0.15495	0.25986	0.19868	0.3088	0.21121	0.10383	0.10739	0.23188	0.20371	0.16213	0.16023	0.21283	0.17662	0.080366	0.092258	0.018934	-1.5125	-2.3312	-1.9458	-2.1188	-2.2938	-1.8917	-2.1333	-2.3896	-1.8771	-2.4813	-2.1354	-2.2104	-2.4792	-2.0604	-2.1958	-2.5104	314.549	189.363	325.729	104.595	335.160	112.089	139.211	138.511	439.959	220.004	277.153	341.009	388.941	426.192	218.420	315.417	0.00061738	0.00053104	0.00016367	773.58	4.1984e-06	5.6154e-06	608.49	354.77	4.6103e-06	6.3261e-06	287.89	130.11	170.8	89.208	5.9266e-06	63.826	0.00048153	0.00026514	8.2332e-05	797.9	2.7828e-06	2.9633e-06	627.68	367.88	3.5877e-06	2.8284e-06	297.13	135.08	177.64	93.334	3.6832e-06	66.345	218.006	191.495	199.558	116.782	270.231	252.963	115.334	120.619	252.905	242.605	118.180	121.569	123.717	126.757	258.643	123.890	-8191	255	
35220.043	1	1	0	0	0.20764	0.11575	0.11257	0.31242	0.099057	0.10047	0.20811	0.21234	0.26191	0.11933	0.47562	0.18679	0.29812	0.1482	0.33927	0.1984	-1.3958	-2.3521	-2.1875	-1.95	-2.4062	-1.9625	-2.3229	-2.5187	-1.8917	-2.2896	-2.2646	-2.2188	-2.5479	-2.2687	-2.3	-2.3583	318.085	182.964	109.121	117.585	300.703	344.873	331.020	293.379	457.920	150.218	424.818	407.882	401.056	134.491	120.106	401.110	0.0006108	0.00054974	0.00017496	770.57	4.9733e-06	6.112e-06	607.77	353.99	4.7883e-06	5.7459e-06	286.28	129.86	170.09	89.068	6.7647e-06	64.038	0.00047733	0.00026129	7.696e-05	795.67	2.8842e-06	2.9899e-06	624.98	367	3.5548e-06	2.9338e-06	296.56	135.05	177.22	93.164	3.7235e-06	66.466	217.388	188.988	190.247	116.966	270.676	244.744	115.462	120.674	257.963	252.875	117.845	121.487	123.823	126.772	261.118	123.943	-8191	255	
35220.160	1	1	0	0	0.085949	0.05627	0.10568	0.12121	0.22175	0.2126	0.090697	0.15601	0.14476	0.232	0.12286	0.078737	0.33719	0.53	0.3801	0.29332	-1.5688	-2.2854	-2.1521	-2.0604	-2.4354	-2.075	-2.2167	-2.4708	-2.0354	-2.3937	-2.3063	-2.0771	-2.4271	-2.4	-2.05	-2.5396	211.439	309.364	116.007	414.119	420.854	129.961	196.028	388.753	185.380	323.918	434.846	419.343	461.943	454.502	333.308	424.930	0.00060641	0.00061068	0.00017148	772.09	4.591e-06	5.6088e-06	606.39	353.95	5.428e-06	5.2809e-06	286.85	129.7	169.84	89.129	6.9088e-06	64.172	0.0004775	0.00028264	7.7161e-05	794.28	2.7945e-06	2.8915e-06	624.82	367.3	3.5066e-06	2.8855e-06	296.29	135.1	177.3	93.291	3.7997e-06	66.638	216.910	186.104	205.318	116.595	263.452	249.241	115.419	120.575	265.785	254.716	117.918	121.630	123.728	126.934	257.907	123.931	-8191	255	
35220.258	1	1	0	0	0.43122	0.13843	0.25593	0.28209	0.10544	0.20626	0.069694	0.50139	0.01958	0.1132	0.087771	0.10315	0.23015	0.31047	0.2975	0.14975	-1.5667	-2.1667	-2.3708	-2.0875	-2.3563	-2.0438	-2.3458	-2.525	-2.1208	-2.3146	-2.2104	-1.9979	-2.5062	-2.4396	-1.8875	-2.5583	221.736	328.809	399.156	448.824	331.209	442.467	400.806	197.113	170.311	222.628	337.180	385.396	354.371	443.576	151.451	372.206	0.00060323	0.00063657	0.00016538	773.58	5.2952e-06	6.4541e-06	606.85	354.41	6.7247e-06	5.9852e-06	287.4	130.85	170.45	89.283	7.2778e-06	63.947	0.00047773	0.00027169	7.6309e-05	796.61	2.7427e-06	2.9627e-06	627.03	367.63	3.5247e-06	2.8545e-06	297.24	135.46	177.56	93.244	3.9395e-06	66.659	216.476	193.723	196.579	116.910	267.836	246.883	115.502	120.730	253.267	248.712	118.024	121.608	123.793	126.764	253.172	123.658	-8191	255	
35220.355	1	1	0	0	0.33309	0.10549	0.084996	0.19409	0.22454	0.10328	0.088393	0.077183	0.10886	0.069328	0.04892	0.25793	0.15639	0.13161	0.043338	0.23788	-1.475	-2.2729	-2.4625	-1.9146	-2.3292	-2.2521	-1.9167	-2.6958	-1.9146	-2.15	-2.3583	-2.1958	-2.2792	-2.3937	-2.0646	-2.5208	270.989	175.081	279.858	383.873	258.380	383.753	351.852	216.889	148.036	120.913	246.431	404.720	420.251	353.818	443.323	454.178	0.00059714	0.00057398	0.00019172	769.29	4.7389e-06	4.8036e-06	610.26	353.63	5.3857e-06	5.3184e-06	286.91	129.47	170.2	89.003	7.5073e-06	63.658	0.00048018	0.00027703	7.4111e-05	795.43	2.8324e-06	2.8736e-06	626.68	367.21	3.4518e-06	2.8669e-06	296.29	134.79	177.03	92.995	4.0747e-06	66.137	216.811	191.388	198.416	116.926	269.052	255.532	115.615	120.618	263.168	248.670	117.976	121.635	123.907	126.915	258.609	123.930	-8191	255	
35220.449	1	1	0	0	0.12165	0.14013	0.084475	0.087756	0.14591	0.086494	0.41425	0.33224	0.18838	0.21899	0.29479	0.1939	0.31119	0.46706	0.20421	0.08133	-1.6625	-2.2	-2.4375	-2.1208	-2.2062	-2.2104	-2.1229	-2.3937	-2.1271	-2.1375	-2.575	-2	-2.3688	-2.5479	-2.075	-2.3875	225.711	371.544	403.661	107.414	290.451	177.706	333.044	104.434	188.227	355.487	269.670	402.681	451.576	459.845	368.905	411.754	0.00059221	0.0005645	0.00016603	770.25	4.14e-06	4.5731e-06	602.84	353.94	4.9616e-06	5.5795e-06	284.68	129.03	169.7	88.712	6.8252e-06	63.301	0.00047415	0.00027538	7.1371e-05	795.39	2.8514e-06	2.8079e-06	623.15	367	3.2755e-06	3.0373e-06	294.35	134.21	176.84	92.711	3.9491e-06	65.752	217.312	188.499	193.270	116.904	262.958	246.220	115.518	120.587	254.463	252.064	118.045	121.446	123.864	126.704	253.697	123.900	-8191	255	
35220.570	1	1	0	0	0.087358	0.14548	0.29518	0.16951	0.14591	0.1857	0.20813	0.16139	0.21418	0.16697	0.16261	0.33714	0.26106	0.13081	0.16827	0.3025	-1.6208	-2.0875	-2.2833	-2.0104	-2.3333	-2.2313	-2.0125	-2.3625	-2.2604	-2.0938	-2.6458	-2.1	-2.3375	-2.6021	-2.0229	-2.4625	309.262	454.755	367.262	455.821	275.937	386.713	205.021	397.930	275.643	246.111	451.859	452.534	445.098	432.247	221.161	402.720	0.00060622	0.00064179	0.00017056	765.28	5.2862e-06	5.9882e-06	604.75	353.43	4.7687e-06	5.1991e-06	284.68	128.99	169.12	88.528	6.5963e-06	63.409	0.0004773	0.0002751	6.9977e-05	791.52	2.8799e-06	2.7813e-06	622.15	365.61	3.2925e-06	3.1316e-06	293.98	134.17	176.46	92.655	3.8696e-06	65.968	217.645	194.006	198.272	116.761	267.979	244.896	115.753	120.555	256.788	245.963	118.063	121.464	123.717	126.773	257.353	123.772	-8191	255	
35220.641	1	1	0	0	0.12666	0.18158	0.28319	0.15042	0.12363	0.15942	0.15294	0.11999	0.22728	0.097031	0.10825	0.31588	0.158	0.38263	0.12539	0.41534	-1.6771	-1.8375	-2.2438	-2.1208	-2.0771	-2.4396	-2.0312	-2.4083	-2.1937	-1.9438	-2.3583	-2.2438	-2.1458	-2.4	-1.9729	-2.3792	299.810	122.642	347.785	153.474	169.668	272.492	282.332	384.963	401.597	230.541	277.594	157.165	116.731	450.275	211.521	391.090	0.00058853	0.00056626	0.00018114	767.89	5.2046e-06	5.5656e-06	604.58	351.71	5.2772e-06	5.8213e-06	284.88	129	169.89	88.982	7.0152e-06	63.701	0.00046594	0.00027719	7.0999e-05	791.72	2.9702e-06	2.8055e-06	622.95	366.19	3.1972e-06	3.1917e-06	294.73	134.12	176.82	92.855	3.9446e-06	66.236	216.221	185.798	194.243	116.902	262.658	241.620	115.491	120.555	253.792	249.461	117.839	121.647	123.774	126.661	261.981	123.911	-8191	255	
35220.738	1	1	0	0	0.12241	0.082739	0.11086	0.36631	0.10981	0.31274	0.07267	0.10632	0.23828	0.27106	0.064967	0.33717	0.26217	0.20545	0.28889	0.30934	-1.6896	-1.7938	-2.3375	-2.2021	-1.9292	-2.2938	-2.0125	-2.4708	-2.3917	-2.0771	-2.4625	-2.1667	-2.3271	-2.7229	-2.0021	-2.3104	334.404	291.015	304.220	420.977	117.238	393.928	209.161	391.401	249.309	410.056	449.420	386.739	459.857	389.061	211.869	343.963	0.00058966	0.00055883	0.00015641	770.05	4.911e-06	5.6609e-06	606.23	353.04	5.1888e-06	6.0156e-06	286.33	129.93	170.49	89.15	5.8828e-06	64.066	0.00046777	0.00026993	7.2284e-05	795.52	3.0192e-06	2.8432e-06	625.63	367.69	3.2169e-06	3.3634e-06	296.26	135.06	177.86	93.241	3.9054e-06	66.482	215.972	187.125	192.149	116.792	264.608	259.480	115.504	120.618	259.656	256.653	117.596	121.387	123.831	126.729	250.390	123.818	-8191	255	
35220.859	1	1	0	0	0.28033	0.25579	0.11607	0.21194	0.12845	0.12372	0.11572	0.086924	0.13495	0.38351	0.080632	0.24045	0.22208	0.26028	0.18615	0.39346	-1.8604	-1.8521	-2.3667	-2.1125	-1.9458	-2.4125	-2.1708	-2.4146	-2.2583	-1.8458	-2.2583	-2.1688	-2.025	-2.4875	-1.9937	-2.2812	408.250	129.210	237.369	437.179	325.811	260.685	215.746	170.670	369.785	314.932	447.012	413.378	387.589	375.912	300.439	387.742	0.00059048	0.00053134	0.00019866	768.98	5.53e-06	5.1531e-06	604.92	353.79	5.29e-06	5.0673e-06	285.21	128.76	170	89.172	7.4444e-06	63.536	0.00046507	0.00027769	7.4374e-05	794.47	3.3538e-06	2.6792e-06	622.79	367.1	3.1682e-06	3.2927e-06	295.26	134.18	177.01	93.076	4.0503e-06	66.085	218.603	186.957	198.788	116.700	269.407	253.964	115.300	120.580	259.052	245.719	118.011	121.325	123.814	126.737	253.739	123.685	-8191	255	
35220.953	1	1	0	0	0.13123	0.23	0.12863	0.25287	0.13829	0.12788	0.32269	0.26049	0.12782	0.1983	0.13241	0.092819	0.17828	0.38892	0.071	0.21484	-1.9521	-2.0104	-2.2125	-2.2729	-1.95	-2.3937	-1.9937	-2.3271	-2.2938	-1.8333	-2.4208	-2.4125	-2.0438	-2.5062	-2.1937	-2.05	331.196	362.390	228.821	431.192	391.160	242.828	370.749	436.979	369.996	283.143	337.021	335.936	459.268	459.048	441.128	420.031	0.0006009	0.00058351	0.00019085	768.55	5.1568e-06	5.3391e-06	604.17	354.68	4.7982e-06	5.4958e-06	285.24	128.71	169.99	89.058	7.3588e-06	63.611	0.00047305	0.00027285	7.8523e-05	794.98	3.1992e-06	2.7801e-06	623.57	367.35	3.1682e-06	3.09e-06	295.69	134.22	177.27	92.98	3.8485e-06	66.192	216.893	187.385	192.719	117.007	269.557	251.575	115.236	120.832	257.674	245.594	117.915	121.426	123.801	126.791	254.130	123.826	-8191	255	
35221.051	1	1	0	0	0.22268	0.16949	0.18725	0.1615	0.1072	0.17315	0.073522	0.25479	0.17285	0.14	0.22523	0.2824	0.25036	0.070336	0.093045	0.18751	-1.8667	-1.9625	-2.1625	-2.4062	-1.9208	-2.4396	-2.2625	-2.0625	-2.6083	-1.9271	-2.2458	-2.3667	-1.9438	-2.8792	-2.2875	-2.1167	343.646	120.407	234.290	409.258	145.241	222.153	443.880	368.613	414.603	366.891	334.879	387.880	461.831	453.016	135.221	418.236	0.00059552	0.00058312	0.0001878	769.3	4.6564e-06	6.1869e-06	610.14	354.25	5.1985e-06	5.9416e-06	286.93	129.78	170.14	89.115	8.2135e-06	64.083	0.00046839	0.00027461	7.6077e-05	795.16	3.1311e-06	2.8414e-06	627.5	367.83	3.1391e-06	3.338e-06	296.53	135	177.38	93.24	3.8553e-06	66.447	216.959	198.660	193.945	116.838	264.775	253.879	115.470	120.687	262.808	246.510	118.015	121.662	123.870	126.656	252.645	123.883	-8191	255	
35221.172	1	1	0	0	0.21623	0.23009	0.14856	0.24219	0.34153	0.27739	0.24645	0.035975	0.21039	0.06917	0.14434	0.089164	0.24228	0.2915	0.083199	0.16914	-1.8833	-2.0771	-2.15	-2.5938	-2.1521	-2.3292	-2.125	-2.2375	-2.4708	-2.0375	-2.1625	-2.5833	-2.0375	-2.4729	-2.4083	-2.1542	287.665	440.865	229.807	185.536	335.170	332.477	418.862	310.724	456.015	236.890	323.857	229.176	390.100	421.712	174.477	396.661	0.00058736	0.00058341	0.00014575	773.29	4.2915e-06	5.6587e-06	612.6	355.61	5.4233e-06	4.6042e-06	287.78	130.18	171.07	89.382	6.6077e-06	63.926	0.00046394	0.00028632	7.6743e-05	797.29	3.1823e-06	2.967e-06	629.32	369.25	3.2103e-06	3.382e-06	297.4	135.48	178.29	93.6	3.7718e-06	66.571	217.109	190.119	193.259	116.685	269.143	249.752	115.345	120.671	254.774	258.165	118.181	121.434	123.866	126.726	261.714	124.030	-8191	255	
35221.266	1	1	0	0	0.1411	0.18845	0.1023	0.13504	0.15281	0.35108	0.14785	0.15771	0.10705	0.1486	0.05538	0.16574	0.18854	0.2581	0.1813	0.053506	-1.9542	-2.2333	-2.1667	-2.5812	-2.1375	-2.3792	-2.4208	-2.0729	-2.3167	-1.9604	-2.0646	-2.3667	-2.1833	-2.2708	-2.2875	-2	226.236	198.811	162.984	402.656	344.083	423.605	110.348	317.726	199.276	148.006	455.526	154.678	301.844	417.567	434.681	311.729	0.00060321	0.00070508	0.00015642	772.64	5.2924e-06	6.1059e-06	607.21	355.49	4.7887e-06	5.1845e-06	287.3	129.94	170.49	89.212	6.1552e-06	64.011	0.00046817	0.00029578	7.4606e-05	796.09	3.2783e-06	2.8042e-06	625.67	368.01	3.207e-06	3.0659e-06	296.27	135	177.91	93.403	3.7298e-06	66.566	217.182	182.466	193.085	116.880	264.585	256.576	115.166	120.660	254.073	248.757	118.009	121.695	123.917	126.758	253.665	123.834	-8191	255	
35221.340	1	1	0	0	0.24502	0.29658	0.14351	0.33497	0.050815	0.13411	0.17746	0.26667	0.090258	0.11551	0.071934	0.2931	0.22279	0.52022	0.21362	0.16501	-1.9896	-2.1167	-1.8167	-2.4833	-2.0687	-2.1688	-2.3187	-2.1708	-2.3187	-2.1	-2.1	-2.5208	-2.2167	-2.3646	-2.4313	-2.1063	148.980	160.187	411.470	454.789	114.809	313.029	368.550	399.303	273.381	453.532	208.752	460.423	142.104	416.637	291.634	376.926	0.00059894	0.00061697	0.0001881	771.84	5.2238e-06	5.5176e-06	607.27	354.73	5.5177e-06	5.2324e-06	284.55	130.15	169.92	89.12	7.3578e-06	64.141	0.00047183	0.00028209	7.8275e-05	796.72	3.3738e-06	2.946e-06	626.12	368.15	3.2569e-06	3.0621e-06	295.95	135.22	177.44	93.354	3.6621e-06	66.626	217.090	194.971	191.582	116.914	264.203	255.063	115.482	120.693	258.929	252.065	118.093	121.480	123.843	126.851	254.323	123.729	-8191	255	
35221.461	1	1	0	0	0.22903	0.029485	0.16822	0.42874	0.19486	0.16315	0.16098	0.32391	0.16411	0.23379	0.42004	0.22408	0.32554	0.30714	0.028951	0.24965	-1.8708	-2.0646	-2.0938	-2.3	-2.1229	-2.1917	-2.4771	-2.0521	-2.1792	-2.1604	-2.0833	-2.5	-2.2083	-2.3563	-2.3854	-2.0271	134.974	430.065	210.587	444.491	270.298	377.254	405.866	425.544	172.072	129.828	106.702	376.562	419.874	462.156	160.813	402.118	0.00060149	0.00058625	0.00018997	770.71	4.5161e-06	5.5697e-06	609.25	356.34	5.3303e-06	5.5987e-06	286.49	130.52	171.08	89.316	7.103e-06	64.448	0.00047124	0.00028423	7.7842e-05	795.69	3.329e-06	2.8247e-06	627.72	369.06	3.2257e-06	3.0491e-06	297.18	135.62	178.07	93.508	3.5621e-06	67.033	216.598	191.248	200.531	116.890	264.821	242.594	115.569	120.623	256.768	257.826	118.126	121.468	123.661	126.846	261.703	123.822	-8191	255	
35221.555	1	1	0	0	0.083459	0.046635	0.12306	0.30025	0.19144	0.057885	0.15099	0.24412	0.13204	0.05813	0.075447	0.38587	0.43701	0.27767	0.31285	0.26862	-1.8542	-2.4062	-1.9312	-2.5042	-2.1271	-2.1396	-2.475	-2.1583	-2.3021	-2.3187	-2.0062	-2.5312	-2.3417	-2.1	-2.3792	-2.0896	233.914	114.495	414.257	131.744	248.889	427.399	371.995	160.306	295.083	399.168	176.238	408.390	414.711	425.766	183.994	457.774	0.00062863	0.00055887	0.00018895	774.7	5.2849e-06	5.3643e-06	611.81	355.71	5.404e-06	5.2116e-06	288.43	131.07	171.32	89.791	7.3776e-06	64.844	0.00048918	0.00027488	8.2471e-05	799.87	3.1828e-06	3.0277e-06	630.64	369.44	3.178e-06	2.8929e-06	298.75	136.35	178.74	93.858	3.7195e-06	67.39	215.459	185.961	196.309	116.887	278.046	236.594	115.456	120.647	263.899	247.348	118.299	121.825	123.721	126.849	256.269	123.865	-8191	255	
35221.652	1	1	0	0	0.04934	0.2567	0.17115	0.25513	0.16383	0.1225	0.1796	0.50862	0.083402	0.21373	0.11855	0.1669	0.55713	0.59607	0.15953	0.40121	-1.7	-2.2938	-1.9521	-2.4313	-2.2771	-2.1458	-2.4167	-2.0375	-2.2396	-2.2521	-1.8813	-2.3937	-2.3417	-2.1042	-2.3521	-2.1417	388.141	430.434	109.709	152.679	102.925	241.015	405.735	410.767	427.919	132.052	363.423	367.737	430.490	446.899	236.144	288.917	0.00059006	0.00058988	0.00017348	773.38	5.5111e-06	5.5703e-06	610.65	358.87	4.9965e-06	5.6019e-06	288.74	130.09	171.09	89.55	6.7921e-06	64.434	0.0004724	0.00028396	8.0273e-05	800.74	3.0308e-06	3.3186e-06	631.82	370.63	3.3281e-06	2.8613e-06	298.65	135.76	178.41	93.6	3.5507e-06	66.828	218.466	185.347	198.936	116.873	261.109	259.226	115.420	120.687	262.994	257.998	117.971	121.504	123.733	126.790	259.004	123.921	-8191	255	
35221.746	1	1	0	0	0.17172	0.24797	0.32163	0.14477	0.087618	0.10658	0.070248	0.12611	0.26381	0.21569	0.19281	0.047846	0.26032	0.2979	0.13456	0.24264	-1.5958	-2.3708	-2.0729	-2.2271	-2.05	-1.9312	-2.4458	-2.2938	-2.1542	-2.4479	-2.0646	-2.2687	-2.5021	-2.1562	-2.4271	-2.3104	151.408	170.414	322.781	374.182	396.405	327.579	355.378	137.202	155.373	168.319	427.000	235.545	459.847	428.380	191.882	400.781	0.00060359	0.00058561	0.00015572	775.26	6.0755e-06	6.5083e-06	610.01	355.93	5.1346e-06	5.3362e-06	287.33	130.09	170.6	89.133	5.3479e-06	63.843	0.00047316	0.00026212	8.0598e-05	798.87	3.0715e-06	3.3843e-06	628.94	369.06	3.2399e-06	2.808e-06	297.71	135.32	177.99	93.181	3.6496e-06	66.621	217.603	174.917	188.031	116.891	272.472	249.955	115.626	120.545	253.803	242.530	117.998	121.576	123.693	126.748	263.214	123.642	-8191	255	
35221.867	1	1	0	0	0.033788	0.037055	0.10016	0.11194	0.33742	0.23838	0.20863	0.15721	0.2724	0.23955	0.19297	0.26561	0.22736	0.25645	0.12826	0.25893	-1.6208	-2.4917	-1.9375	-2.3812	-2.3125	-1.8979	-2.4188	-2.1604	-2.0604	-2.3063	-2.0042	-2.5354	-2.3937	-2.2083	-2.2771	-2.3229	169.592	202.361	135.412	367.138	461.000	325.116	442.339	453.856	374.620	257.171	172.463	440.170	149.047	462.356	290.426	410.981	0.0006083	0.00056161	0.00017288	773.79	6.1305e-06	5.462e-06	608.62	355.42	5.2525e-06	5.3141e-06	287.34	130.41	170.5	89.343	6.6626e-06	64.497	0.00048472	0.00027175	7.9622e-05	797.43	3.0002e-06	3.4096e-06	627.97	368.8	3.31e-06	2.8291e-06	297.77	135.53	177.86	93.333	3.6718e-06	67.058	216.866	188.547	194.582	116.967	263.546	254.834	115.455	120.711	257.612	249.568	117.923	121.792	123.778	126.702	260.350	123.819	-8191	255	
35221.938	1	1	0	0	0.12839	0.21856	0.25247	0.12397	0.20889	0.14088	0.21908	0.089004	0.10774	0.056975	0.14068	0.34921	0.28792	0.097291	0.17302	0.31774	-1.5292	-2.1708	-1.9562	-2.2313	-2.3271	-1.9438	-2.3792	-2.3917	-1.8958	-2.4125	-2.1167	-2.1083	-2.4229	-2.1854	-2.1625	-2.2562	372.601	454.831	401.890	216.211	413.615	383.150	416.346	425.002	418.515	460.676	449.966	366.430	428.368	369.889	370.666	457.275	0.00059121	0.00062016	0.00015804	770.63	5.3282e-06	5.8543e-06	610.36	356.65	5.1787e-06	5.8786e-06	288.27	130.78	171.49	89.778	7.2587e-06	64.947	0.00048619	0.0002718	7.8879e-05	797.5	2.9475e-06	3.3675e-06	629.45	369.65	3.3681e-06	3.1669e-06	298.26	136.3	178.54	93.917	3.6837e-06	67.515	216.521	196.233	196.453	116.771	261.985	240.925	115.521	120.604	263.220	252.829	117.977	121.512	123.627	126.793	257.276	123.999	-8191	255	
35222.035	1	1	0	0	0.043244	0.041826	0.10484	0.064606	0.11027	0.32942	0.019328	0.096962	0.31777	0.20997	0.18208	0.32177	0.30433	0.15257	0.21663	0.12712	-1.4354	-2.4667	-2.0625	-2.3521	-2.3604	-1.9833	-2.2708	-2.2833	-2.0167	-2.4083	-2.2271	-2.1854	-2.5812	-2.3	-2.0396	-2.3146	356.421	295.542	368.474	412.480	251.469	451.652	331.054	266.506	293.657	134.317	159.496	425.560	113.881	320.001	321.500	360.118	0.0006288	0.00063195	0.00017622	770.49	5.5443e-06	5.4164e-06	609.5	355.79	5.8591e-06	4.9205e-06	288.78	131.33	171.13	90.038	7.1917e-06	64.812	0.00050418	0.00028528	7.6572e-05	796.14	2.8425e-06	3.3607e-06	629.69	369.32	3.3357e-06	2.9227e-06	298.78	136.52	178.69	93.996	3.8605e-06	67.382	218.035	191.150	202.607	116.875	262.078	254.165	115.330	120.573	259.778	240.868	117.838	121.549	123.863	126.858	256.144	124.008	-8191	255	
35222.133	1	1	0	0	0.46534	0.078981	0.12484	0.093706	0.17641	0.11391	0.16926	0.13467	0.1081	0.18188	0.24355	0.048341	0.022509	0.34227	0.093899	0.12314	-1.6167	-2.5312	-2.2792	-2.2292	-2.3625	-2.0687	-2.2354	-2.4146	-2.1833	-2.3083	-2.3333	-2.2042	-2.3187	-2.4458	-2.1	-2.5771	243.568	219.207	231.079	388.080	382.179	261.808	436.046	444.190	147.704	128.579	114.295	343.376	437.967	107.471	200.261	357.966	0.00061127	0.0005152	0.00017125	769.85	5.1436e-06	6.1911e-06	606.15	354.83	4.8335e-06	5.3798e-06	285.94	130.09	171.03	89.486	6.5444e-06	64.337	0.0005022	0.00026454	7.9483e-05	794.27	2.987e-06	3.4202e-06	625.6	368.22	3.2476e-06	3.0584e-06	296.68	135.26	178.19	93.522	3.8048e-06	66.868	217.790	185.402	198.328	116.816	273.874	252.429	115.429	120.677	254.690	249.094	118.107	121.547	123.799	126.880	257.740	123.967	-8191	255	
35222.250	1	1	0	0	0.2879	0.3859	0.1589	0.20678	0.33915	0.25943	0.075132	0.31268	0.074583	0.065657	0.086014	0.066778	0.021337	0.2332	0.25999	0.095909	-1.4688	-2.2708	-2.3187	-2.1896	-2.4167	-2.3167	-2.1417	-2.425	-2.1188	-2.2917	-2.2625	-2.2	-2.5375	-2.2062	-1.9688	-2.3875	106.764	252.371	208.130	406.261	112.636	348.205	107.843	420.270	371.407	367.416	196.961	375.645	391.732	115.362	181.573	439.765	0.00060307	0.00051363	0.00016847	771.58	5.2268e-06	5.2452e-06	605.11	354.92	5.2486e-06	5.5478e-06	287.62	130.01	170.34	89.173	6.0883e-06	64.426	0.00050875	0.0002647	7.6077e-05	794.84	2.9475e-06	3.1695e-06	625	367.78	3.2465e-06	2.9499e-06	296.83	135.29	177.55	93.197	3.6439e-06	66.929	214.914	192.936	192.606	116.916	270.688	238.158	115.383	120.648	261.238	239.476	117.977	121.576	123.697	126.879	253.540	123.763	-8191	255	
35222.348	1	1	0	0	0.11195	0.2368	0.20153	0.10509	0.25116	0.14021	0.21276	0.22132	0.066678	0.079268	0.15182	0.28438	0.18337	0.24492	0.27163	0.059677	-1.675	-2.2708	-2.2625	-2.1021	-2.1604	-2.1167	-2.2625	-2.3625	-2.0604	-2.3354	-2.475	-2.0563	-2.4604	-2.2479	-2.0042	-2.6625	359.616	444.603	127.382	283.234	395.042	271.569	162.492	370.951	223.185	344.445	439.069	444.083	456.731	420.917	434.049	311.504	0.00061895	0.00053575	0.00019737	769.56	4.6972e-06	5.0634e-06	611.65	354.54	5.215e-06	5.5516e-06	287.37	130.73	170.59	89.195	7.2931e-06	64.485	0.0005017	0.000263	7.826e-05	794.15	3.062e-06	3.0531e-06	627.07	368.61	3.4069e-06	2.9084e-06	296.98	135.86	177.59	93.352	3.798e-06	67.019	218.689	186.492	199.853	116.893	276.513	245.537	115.850	120.763	260.572	252.180	118.222	121.488	123.889	126.842	267.920	123.841	-8191	255	
35222.441	1	1	0	0	0.2985	0.12783	0.072043	0.21807	0.068089	0.15497	0.24407	0.26824	0.19806	0.10976	0.21114	0.33143	0.25484	0.42749	0.18823	0.30056	-1.4208	-2.025	-2.2646	-2.1354	-2.3542	-2.2021	-2.1125	-2.6125	-2.2208	-2.1562	-2.525	-2.025	-2.6833	-2.4917	-1.9646	-2.6292	150.073	207.251	391.009	355.543	363.160	132.328	402.716	423.260	115.780	249.684	378.224	395.584	395.659	402.975	176.379	429.874	0.00060628	0.00063686	0.00016249	766.45	5.4623e-06	5.7474e-06	609.18	355.08	5.1107e-06	5.9061e-06	288.46	130.85	171.49	89.557	6.5399e-06	65.022	0.00050082	0.00027032	7.6232e-05	794.34	3.0704e-06	2.824e-06	629.43	368.65	3.3018e-06	3.0609e-06	298.27	136.33	178.51	93.659	3.7178e-06	67.5	216.422	184.748	194.732	116.816	266.861	250.817	115.436	120.465	260.273	254.342	117.998	121.622	123.787	126.692	259.001	123.868	-8191	255	
35222.539	1	1	0	0	0.18707	0.18143	0.35016	0.09504	0.13753	0.15897	0.24572	0.33466	0.27233	0.11211	0.16213	0.22285	0.28175	0.44166	0.27453	0.10036	-1.7417	-2.1792	-2.2292	-2.0542	-2.1417	-2.3625	-2.0271	-2.7042	-2.1458	-2.1208	-2.6333	-2.1542	-2.3812	-2.4833	-2.1104	-2.3792	367.994	416.864	443.702	311.888	296.536	462.464	271.967	461.817	186.739	152.716	147.576	130.151	110.956	440.492	366.871	133.700	0.00061657	0.00055176	0.00018208	771.76	5.1468e-06	6.0591e-06	609.75	355.58	5.0103e-06	4.6264e-06	286.66	130.34	170.66	89.523	6.8867e-06	64.523	0.00050172	0.0002844	7.5071e-05	796.67	2.9749e-06	2.8296e-06	628.03	368.61	3.2897e-06	2.7404e-06	297.27	135.57	177.75	93.495	3.7525e-06	66.966	218.202	188.056	193.795	117.052	258.969	240.801	115.783	120.689	264.923	249.692	118.078	121.554	123.842	126.878	252.031	123.813	-8191	255	
35222.637	1	1	0	0	0.10144	0.28579	0.09749	0.072615	0.087096	0.25319	0.1379	0.17402	0.1684	0.20154	0.23616	0.25431	0.067954	0.24531	0.20208	0.11564	-1.6771	-2.1937	-2.2875	-2.0854	-2.1917	-2.2979	-2.2333	-2.3479	-2.2104	-2.2083	-2.5396	-2.1813	-2.4	-2.5542	-2.0187	-2.4542	176.489	461.491	242.869	414.534	279.842	365.841	391.567	390.336	363.606	162.450	389.042	381.629	155.664	422.389	409.023	302.997	0.00060139	0.00065064	0.00016134	766.8	4.8365e-06	6.0507e-06	605.3	352.22	4.2106e-06	4.8147e-06	285.53	129.62	170.35	88.936	6.5008e-06	64.299	0.00048396	0.0003025	7.4746e-05	793.09	2.9369e-06	2.7194e-06	624.01	366.62	3.3538e-06	2.8749e-06	295.82	135.05	177.43	93.017	3.952e-06	66.792	217.893	194.873	198.361	116.952	260.886	250.553	115.706	120.840	253.284	250.638	118.077	121.409	123.703	126.773	258.648	123.856	-8191	255	
35222.730	1	1	0	0	0.12529	0.23566	0.14241	0.034486	0.1439	0.018537	0.26964	0.0923	0.2789	0.14642	0.32918	0.29494	0.21001	0.14686	0.060132	0.31874	-1.7771	-2.0271	-2.5208	-2.2021	-2.2083	-2.3604	-1.9688	-2.3625	-2.3688	-2.1771	-2.4938	-2.3708	-2.3229	-2.8438	-2.2396	-2.2833	161.598	206.837	389.618	322.196	307.406	429.648	456.519	420.809	371.729	198.060	360.765	113.837	430.089	117.982	125.460	438.361	0.0006159	0.00057711	0.00019893	768.1	5.1466e-06	5.2275e-06	608.96	355.8	5.3672e-06	5.5704e-06	287.89	129.8	170.53	89.037	6.6845e-06	64.653	0.00048269	0.00030761	7.5736e-05	793.27	2.9301e-06	2.7566e-06	626.14	367.82	3.2963e-06	3.0342e-06	297.1	135.44	177.85	93.289	3.8423e-06	67.14	217.773	190.571	198.631	116.789	268.685	254.124	115.305	120.717	255.903	254.305	117.850	121.648	123.808	126.866	258.317	123.815	-8191	255	
35222.852	1	1	0	0	0.16888	0.16974	0.1062	0.20146	0.19752	0.11585	0.35575	0.29293	0.12624	0.088416	0.20029	0.1486	0.34209	0.17291	0.16384	0.2081	-1.8833	-2.025	-2.3979	-2.2708	-2.0396	-2.3958	-2.4229	-2.5708	-2.3521	-1.9854	-2.6083	-2.5146	-2.1417	-2.7979	-2.0708	-2.3292	360.595	379.204	400.419	135.760	108.455	115.111	308.748	331.418	128.862	289.920	411.942	170.846	133.541	402.926	430.112	450.884	0.00061252	0.00057224	0.0001713	767.27	4.5341e-06	6.2245e-06	609.25	353.59	5.0826e-06	5.9377e-06	287.48	130.88	170.8	89.228	6.2405e-06	64.967	0.0004746	0.00032142	7.7765e-05	793.66	2.8878e-06	2.9262e-06	627.13	367.58	3.1419e-06	3.1105e-06	297.47	135.96	177.83	93.399	3.8036e-06	67.379	216.982	194.884	193.762	116.798	261.310	250.917	115.746	120.506	259.833	240.435	117.831	121.403	123.668	126.950	255.979	123.914	-8191	255	
35222.949	1	1	0	0	0.22042	0.24463	0.29577	0.22048	0.19119	0.034116	0.10583	0.053252	0.25194	0.13598	0.072562	0.1278	0.33238	0.18307	0.12965	0.037377	-1.8833	-2.0833	-2.4417	-2.3542	-1.9229	-2.4146	-2.1188	-2.3625	-2.3146	-2.1	-2.5083	-2.4229	-2.2167	-2.6958	-2.1708	-2.3021	265.188	370.430	109.650	103.243	373.229	363.011	397.693	284.438	432.205	330.967	178.924	388.359	410.404	396.220	131.510	393.624	0.00061868	0.0005512	0.00017245	770.69	4.9399e-06	6.6015e-06	611.47	355.36	5.416e-06	6.0442e-06	287.75	131.16	170.5	89.799	6.1244e-06	64.567	0.00047959	0.00030822	7.5241e-05	796.6	2.9543e-06	2.9528e-06	629.95	369.09	3.2109e-06	3.0287e-06	297.75	136.09	177.79	93.768	3.6468e-06	67.341	217.509	187.748	196.694	116.728	262.344	248.453	115.351	120.597	266.276	241.001	118.264	121.555	123.789	126.819	257.010	123.968	-8191	255	
35223.043	1	1	0	0	0.16831	0.20119	0.037608	0.26718	0.10698	0.24402	0.31177	0.095373	0.09902	0.1106	0.16313	0.16741	0.30417	0.31114	0.3137	0.29398	-1.7542	-1.9271	-2.2125	-2.3208	-2	-2.3417	-2.2687	-2.3292	-2.3563	-2.0875	-2.4	-2.4458	-1.9771	-2.6813	-2.1458	-2.1979	154.364	354.699	223.163	384.640	365.167	456.571	422.946	400.557	203.054	117.698	394.354	177.602	118.967	114.571	428.434	215.820	0.00062913	0.00048018	0.00016721	769.59	4.6621e-06	4.4336e-06	607.09	354.02	5.1101e-06	5.0518e-06	286.67	130.46	171.09	89.659	7.2033e-06	64.628	0.00048469	0.00031938	7.3259e-05	795.04	3.0588e-06	2.8129e-06	626.03	368.45	3.2279e-06	3.0045e-06	296.92	135.56	178.21	93.541	3.6559e-06	67.227	217.130	190.186	193.169	116.895	266.651	254.734	115.505	120.407	254.827	244.646	117.980	121.476	123.689	126.912	255.079	123.926	-8191	255	
35223.141	1	1	0	0	0.30329	0.12199	0.1367	0.41486	0.11227	0.23415	0.058647	0.22357	0.13985	0.21935	0.22483	0.15536	0.29843	0.31863	0.086148	0.14252	-1.95	-1.85	-2.3646	-2.5396	-2.1292	-2.5	-2.4	-2.2083	-2.5604	-2.0896	-2.4542	-2.4458	-2.1146	-2.6875	-2.1937	-2.2646	369.433	325.868	208.807	125.993	117.200	373.239	367.893	393.494	196.033	168.026	438.402	410.712	378.959	443.356	157.482	121.122	0.00061847	0.00057242	0.00017639	765.92	4.4364e-06	5.0244e-06	606.74	354.56	4.8428e-06	5.5288e-06	288.32	130.73	170.75	89.62	5.7125e-06	64.634	0.00047914	0.00032004	7.5458e-05	792.44	2.9797e-06	2.8977e-06	626.16	367.87	3.2355e-06	2.8898e-06	297.42	135.65	177.67	93.561	3.7354e-06	67.255	216.938	188.705	195.000	116.809	275.652	248.681	115.567	120.564	262.267	254.800	117.885	121.515	123.683	126.641	259.596	123.688	-8191	255	
35223.234	1	1	0	0	0.15157	0.029771	0.21188	0.25159	0.15822	0.086698	0.054838	0.38088	0.04711	0.19859	0.10251	0.13047	0.12982	0.1609	0.10988	0.13302	-2.2229	-2.15	-2.3875	-2.5208	-1.9375	-2.4125	-2.3833	-2.1375	-2.6542	-2.0542	-2.3125	-2.5146	-2.1896	-2.6479	-2.4604	-2.4083	199.917	438.732	455.148	112.908	130.739	374.146	200.568	382.540	141.829	366.704	343.763	366.106	159.202	407.834	346.746	444.813	0.00061614	0.00067815	0.00016544	768.33	4.6839e-06	5.4052e-06	607.03	355.97	5.0808e-06	5.1722e-06	285.44	131.34	170.89	89.598	6.3821e-06	64.97	0.0004828	0.00031124	7.6789e-05	794.97	3.1638e-06	2.7516e-06	626.49	368.85	3.2224e-06	2.9363e-06	296.74	136.04	177.73	93.652	3.6866e-06	67.48	218.680	186.169	190.651	116.944	259.966	248.364	115.420	120.609	257.110	250.639	118.004	121.722	123.696	126.860	262.192	123.772	-8191	255	
35223.332	1	1	0	0	0.33388	0.014614	0.31358	0.27689	0.15835	0.046119	0.11417	0.31255	0.21896	0.26866	0.14798	0.3054	0.16828	0.45516	0.20449	0.13528	-1.9562	-2.1521	-1.9708	-2.5479	-2.0187	-2.1437	-2.4021	-2.2771	-2.5208	-2.125	-2.3417	-2.6083	-2.275	-2.5438	-2.4042	-2.1979	346.244	431.738	401.086	336.586	320.135	347.834	444.866	403.020	405.224	167.542	320.675	414.633	431.721	425.744	457.631	152.268	0.00060149	0.00054476	0.00016464	769.78	5.9447e-06	4.356e-06	609.98	355.64	5.216e-06	4.4109e-06	289.33	131.56	170.95	89.596	7.2591e-06	64.658	0.0004744	0.00029292	7.617e-05	794.38	3.1775e-06	2.8067e-06	627.91	368.75	3.2646e-06	2.8501e-06	299.08	136.59	178.26	93.861	3.6098e-06	67.493	218.149	182.105	186.246	116.845	268.339	248.228	115.662	120.684	258.861	247.667	118.174	121.619	123.950	126.874	254.196	123.932	-8191	255	
35223.426	1	1	0	0	0.105	0.19446	0.21658	0.081658	0.17407	0.086496	0.13944	0.17757	0.20965	0.16959	0.12495	0.42053	0.17378	0.19243	0.16362	0.14704	-1.9875	-1.9646	-1.9937	-2.5083	-1.9854	-2.1708	-2.5271	-2.1604	-2.3208	-2.2771	-2.175	-2.5187	-2.2833	-2.3896	-2.3646	-2.0125	188.189	375.607	164.928	166.361	322.867	140.419	334.980	395.443	196.131	188.305	460.728	381.481	421.413	460.575	311.631	416.850	0.00062707	0.0005842	0.00016858	768.45	4.5462e-06	6.0459e-06	607.78	355.2	5.1545e-06	5.3792e-06	286.46	130.34	170.31	89.395	7.1148e-06	64.351	0.00048548	0.00026866	7.9653e-05	794.06	2.9955e-06	2.6866e-06	625.32	368.36	3.1331e-06	2.8365e-06	296.78	135.48	177.49	93.489	3.6417e-06	66.919	218.018	196.863	200.479	116.777	275.999	246.935	115.421	120.755	255.688	243.972	118.041	121.399	123.609	126.809	255.518	123.778	-8191	255	
35223.547	1	1	0	0	0.047785	0.31526	0.11274	0.22455	0.19208	0.22143	0.040286	0.052536	0.21093	0.14225	0.06452	0.11362	0.22957	0.17642	0.40653	0.066358	-1.7812	-2.2375	-1.9146	-2.525	-2.0708	-2.1958	-2.5854	-2.1229	-2.3854	-2.3708	-2.0875	-2.4458	-2.325	-2.3771	-2.3792	-2.2271	324.755	225.485	400.124	398.634	179.524	442.185	114.177	380.145	451.355	204.019	120.938	431.401	433.308	372.868	441.325	163.999	0.00060713	0.00059817	0.00017422	767.19	5.207e-06	6.3743e-06	605.35	354.31	4.7454e-06	5.9702e-06	287.07	130.58	170.77	89.22	7.2031e-06	64.526	0.00046794	0.00027125	8.3477e-05	793.66	3.0614e-06	2.8333e-06	625	367.92	3.1178e-06	2.821e-06	296.61	135.43	177.54	93.417	3.7218e-06	66.983	217.792	200.356	191.218	116.896	269.628	254.723	115.686	120.739	260.082	242.416	117.771	121.465	123.794	126.792	254.392	123.888	-8191	255	
35223.645	1	1	0	0	0.40639	0.14787	0.23988	0.037717	0.11222	0.16136	0.013227	0.12019	0.19161	0.13176	0.24084	0.36759	0.3032	0.14535	0.26654	0.050802	-1.8708	-2.2062	-1.9729	-2.55	-2.1958	-2.0604	-2.5438	-2.075	-2.0708	-2.3479	-1.9417	-2.6146	-2.3521	-2.2771	-2.4188	-2.2292	312.362	295.819	226.902	391.908	150.284	275.802	375.930	390.748	220.062	308.882	243.899	461.151	152.680	435.260	150.064	302.624	0.00060801	0.00057092	0.00017724	767.9	4.6607e-06	4.024e-06	605.82	353.77	4.9791e-06	5.619e-06	286.12	130.84	170.46	89.438	7.0571e-06	64.401	0.00046475	0.00026877	8.1542e-05	793.11	2.9269e-06	2.6748e-06	624.22	367.56	3.1265e-06	2.8514e-06	296.31	135.85	177.39	93.402	3.628e-06	67.043	219.202	191.383	194.094	116.820	268.621	242.522	115.603	120.604	263.823	247.058	118.143	121.695	123.676	126.734	256.785	123.677	-8191	255	
35223.738	1	1	0	0	0.04493	0.13036	0.097494	0.14789	0.24618	0.26202	0.17276	0.36453	0.19907	0.094539	0.17282	0.2831	0.20521	0.087339	0.19968	0.27419	-1.6854	-2.1875	-1.95	-2.2604	-2.1583	-2.0854	-2.4313	-2.0438	-1.8937	-2.3854	-2.05	-2.3021	-2.4021	-2.2562	-2.3917	-2.2875	192.231	340.913	422.191	409.549	102.960	137.455	263.394	392.326	429.592	277.752	362.294	156.952	145.004	148.100	128.179	392.928	0.00059716	0.0006459	0.00018432	769.22	4.5722e-06	5.4354e-06	604.91	354.72	5.1982e-06	4.7848e-06	286.91	131.01	170.26	89.257	7.8675e-06	64.546	0.00047166	0.0002707	8.5118e-05	793.52	3.0319e-06	2.9379e-06	625.92	368.34	3.1271e-06	2.7324e-06	296.79	136.03	177.49	93.423	3.7309e-06	67.182	218.166	183.814	191.770	116.840	268.975	254.487	115.427	120.635	265.175	254.190	118.181	121.695	123.907	126.776	254.977	123.699	-8191	255	
35223.812	1	1	0	0	0.14229	0.074568	0.25091	0.1387	0.049924	0.014062	0.19563	0.10375	0.12292	0.087339	0.34592	0.21175	0.13864	0.068185	0.28414	0.24316	-1.7375	-2.3125	-1.9188	-2.475	-2.2792	-2.1542	-2.4667	-2.2167	-2.1729	-2.3417	-2.1375	-2.3604	-2.4313	-1.9792	-2.3292	-2.3083	123.655	307.437	408.301	431.986	103.214	147.869	162.614	402.485	425.705	181.236	440.582	115.792	145.854	456.172	194.596	344.033	0.00060949	0.00068541	0.00017677	767.4	4.8797e-06	6.415e-06	609.11	354.71	5.1712e-06	5.8793e-06	285.7	129.53	170.09	89.07	6.0914e-06	63.72	0.0004645	0.00027147	8.518e-05	793.07	2.8245e-06	2.9144e-06	624.15	367.68	3.1961e-06	2.8911e-06	295.49	134.74	177.05	93.157	3.5854e-06	66.448	217.475	193.864	201.970	116.890	264.778	245.376	115.552	120.418	258.693	250.267	118.027	121.590	123.745	126.730	256.516	123.739	-8191	255	
35223.930	1	1	0	0	0.26107	0.1904	0.10969	0.237	0.13043	0.14923	0.15571	0.30793	0.12289	0.10413	0.11643	0.19868	0.060155	0.14563	0.26111	0.11212	-1.5729	-2.3958	-2.0042	-2.2708	-2.3104	-2.1021	-2.5146	-2.3979	-2.1292	-2.6104	-2.0854	-2.2333	-2.5625	-2.0646	-2.3292	-2.3187	456.530	459.092	330.058	377.504	373.537	431.023	344.590	357.846	171.192	308.449	319.000	373.137	261.879	137.202	258.020	456.053	0.0006101	0.00058521	0.00017471	762.9	4.3362e-06	5.1743e-06	602.64	352.45	5.4403e-06	5.3973e-06	284.16	129.4	169.18	88.841	6.881e-06	63.75	0.00048145	0.00026789	8.0892e-05	788.77	2.8768e-06	2.8927e-06	619.77	366.16	3.4573e-06	2.8018e-06	294.38	134.44	176.42	92.826	3.6258e-06	66.163	216.676	189.392	195.538	116.771	262.779	257.877	115.492	120.616	256.954	255.213	117.943	121.591	123.617	126.592	255.078	123.716	-8191	255	
35224.027	1	1	0	0	0.085246	0.10542	0.14391	0.0077906	0.076772	0.095479	0.15317	0.36103	0.31376	0.18298	0.15486	0.17048	0.16101	0.39469	0.089686	0.097035	-1.7771	-2.4167	-2.0458	-2.3333	-2.2708	-2.1146	-2.3792	-2.3083	-2.0042	-2.2812	-2.1229	-2.1354	-2.2833	-2.2896	-2.3708	-2.4021	226.659	239.374	262.725	247.938	290.864	108.107	462.258	360.029	246.624	338.003	360.808	131.451	441.438	346.755	313.198	383.759	0.00060995	0.00068806	0.00015676	762.61	5.6652e-06	5.4193e-06	601.1	353.06	4.7353e-06	5.5097e-06	284.2	129.56	169.79	88.511	7.2358e-06	63.664	0.00047592	0.00026624	8.0582e-05	787.79	2.8805e-06	2.9565e-06	618.67	365.66	3.62e-06	2.7925e-06	294.17	134.37	176.51	92.655	3.607e-06	66.294	217.453	193.713	200.569	116.930	259.863	248.245	115.537	120.586	258.731	250.194	118.224	121.304	123.897	126.822	259.501	123.834	-8191	255	
35224.121	1	1	0	0	0.092959	0.30349	0.28521	0.20621	0.1391	0.12815	0.17086	0.092929	0.2093	0.098005	0.19183	0.29958	0.05421	0.21478	0.17286	0.13678	-1.3521	-2.2354	-2.0687	-2.0687	-2.5146	-2.0792	-2.3896	-2.4208	-2.1542	-2.4604	-2.3354	-2.2646	-2.6188	-2.4083	-2.0646	-2.5583	460.762	258.336	185.803	434.852	239.654	380.061	362.077	285.793	105.701	430.636	452.906	150.800	156.778	140.938	187.558	395.647	0.00059373	0.00063653	0.00020086	762.74	4.7041e-06	5.908e-06	600.73	353.54	5.0332e-06	5.6113e-06	285.8	129.65	169.36	89.057	6.3494e-06	64.181	0.00047028	0.00027186	8.2843e-05	788.56	2.8667e-06	2.9881e-06	620.39	366.42	3.3494e-06	2.7311e-06	294.95	134.77	176.57	93	3.6525e-06	66.71	218.125	188.134	202.345	116.709	258.212	249.062	115.373	120.581	258.582	249.012	118.201	121.517	123.813	126.756	255.688	123.847	-8191	255	
35224.219	1	1	0	0	0.16855	0.24107	0.23724	0.14419	0.041945	0.19274	0.25531	0.30499	0.16287	0.15896	0.27405	0.38712	0.20392	0.21411	0.12805	0.34052	-1.6667	-2.1979	-2.1437	-2.1625	-2.3833	-1.9979	-2.4479	-2.4208	-1.9813	-2.4437	-2.3375	-2.2646	-2.6125	-2.2875	-2.1521	-2.3979	285.183	405.452	107.796	169.213	366.072	429.688	309.161	406.725	437.331	160.722	380.054	166.727	398.408	448.102	146.444	377.077	0.00062328	0.00064335	0.00017613	763.44	5.6884e-06	6.9305e-06	604.93	353.85	5.3224e-06	5.064e-06	285.1	130.38	169.36	89.141	6.9216e-06	64.141	0.00048139	0.00026778	7.5257e-05	789.64	2.8409e-06	2.9441e-06	622.64	367.16	3.4973e-06	2.8991e-06	295.75	135.36	176.73	93.24	3.5706e-06	66.637	217.833	187.264	192.934	116.959	264.953	254.224	115.316	120.607	259.110	259.331	117.847	121.477	123.723	126.664	251.499	123.917	-8191	255	
35224.340	1	1	0	0	0.1831	0.15133	0.034025	0.32887	0.43585	0.054591	0.17869	0.26865	0.25887	0.16991	0.032429	0.17835	0.18532	0.46009	0.068298	0.089131	-1.6458	-2.3542	-2.2896	-2.1167	-2.2896	-2.0625	-2.2271	-2.5	-1.9625	-2.3271	-2.4271	-2.1875	-2.6063	-2.1979	-2.2125	-2.5125	297.359	349.517	117.298	351.638	395.318	252.422	250.345	348.228	423.568	119.242	205.089	117.022	440.733	418.050	161.408	206.795	0.00059749	0.00055886	0.00015658	762.17	5.3554e-06	5.8913e-06	600.3	351.83	4.1335e-06	5.9413e-06	283.91	129.39	169.49	88.937	6.5932e-06	63.736	0.00047578	0.00026454	7.3306e-05	788.97	2.8689e-06	2.9732e-06	618.01	365.71	3.5148e-06	2.8247e-06	293.43	134.23	176.47	92.821	3.8036e-06	66.295	217.955	177.782	193.643	116.839	267.250	250.708	115.397	120.508	256.022	246.173	117.929	121.436	123.793	126.759	257.984	123.916	-8191	255	
35224.438	1	1	0	0	0.22405	0.2194	0.2553	0.055503	0.17206	0.10139	0.1371	0.2294	0.080015	0.1669	0.077656	0.14867	0.34809	0.23822	0.095893	0.11716	-1.6896	-2.1333	-2.275	-1.8937	-2.2917	-2.2562	-2.0833	-2.5333	-2.0771	-2.3083	-2.5479	-1.9562	-2.4667	-2.3354	-1.9354	-2.5625	183.599	167.010	412.976	417.476	147.300	285.628	446.928	443.039	124.195	283.399	369.586	414.591	424.949	448.819	291.529	311.108	0.00061675	0.00057549	0.00017479	763.08	4.3264e-06	4.1338e-06	601.47	351.82	5.3823e-06	5.558e-06	285.12	129.78	169.48	88.825	6.8301e-06	64.021	0.00048466	0.00027367	7.6031e-05	788.76	2.9005e-06	2.8092e-06	619.66	365.56	3.5137e-06	2.7919e-06	294.57	134.59	176.42	92.871	4.0588e-06	66.446	217.779	193.664	202.802	116.860	272.668	248.982	115.676	120.695	263.951	241.930	118.001	121.372	123.668	126.727	249.062	123.916	-8191	255	
35224.531	1	1	0	0	0.2849	0.079005	0.12789	0.22647	0.086911	0.064189	0.37341	0.16827	0.086694	0.13951	0.096514	0.14078	0.23249	0.29817	0.10449	0.052025	-1.4875	-2.2521	-2.2125	-2.1396	-2.3417	-2.2771	-2.075	-2.6	-2.1521	-2.0458	-2.4542	-2.1104	-2.4562	-2.5646	-2.0563	-2.6188	162.929	309.463	166.814	365.879	417.524	236.680	136.858	438.482	116.994	377.285	421.461	419.880	283.574	429.920	135.054	257.655	0.0006017	0.00058728	0.00015514	764.39	4.0092e-06	5.4262e-06	604.44	352.05	5.6261e-06	5.2598e-06	284.64	129.32	169.69	88.808	7.7667e-06	64.092	0.00047544	0.00026696	7.4188e-05	788.3	2.8061e-06	2.9596e-06	619.6	365.53	3.5219e-06	2.8904e-06	294.51	134.76	176.4	92.877	4.0804e-06	66.622	217.950	194.803	202.306	116.902	268.466	251.800	115.761	120.576	252.296	248.340	117.978	121.462	123.699	126.702	250.357	123.769	-8191	255	
35224.629	1	1	0	0	0.1365	0.19888	0.22322	0.17661	0.076447	0.13672	0.060629	0.10011	0.033172	0.078476	0.27521	0.26514	0.082753	0.35367	0.076984	0.072243	-1.6979	-2.1625	-2.2313	-2.0771	-2.3187	-2.3187	-2.1354	-2.5708	-1.9562	-1.9896	-2.525	-2.1937	-2.5646	-2.4688	-2.0167	-2.5229	187.371	111.462	452.625	445.901	294.943	239.332	185.638	455.359	245.757	214.267	393.114	111.301	172.533	446.289	205.871	330.827	0.00062402	0.00059882	0.0001876	765.69	5.1084e-06	5.2919e-06	602.46	353.36	4.6227e-06	5.5973e-06	285.03	130.31	170.29	89.182	6.7712e-06	64.472	0.00048263	0.00028489	7.5226e-05	789.53	2.92e-06	2.8996e-06	621.3	366.3	3.2908e-06	3.1068e-06	295.25	135.51	177.19	93.262	4.1031e-06	67.036	217.862	184.934	199.452	117.095	262.541	245.782	115.697	120.661	267.876	248.573	117.684	121.596	123.806	126.631	252.462	123.586	-8191	255	
35224.723	1	1	0	0	0.10665	0.096615	0.11529	0.27311	0.21216	0.21603	0.23516	0.27394	0.24107	0.21871	0.15988	0.16268	0.24711	0.48257	0.052304	0.19631	-1.6021	-2.0938	-2.2812	-2.025	-2.1625	-2.3063	-2.0521	-2.5542	-2.1	-2.0292	-2.3937	-2.1229	-2.2146	-2.4604	-2.2188	-2.475	435.539	290.047	116.107	106.468	401.480	131.843	448.107	359.368	121.595	444.220	367.084	311.942	172.146	420.944	303.897	380.490	0.00062353	0.00054512	0.00017394	760.3	4.4946e-06	5.5917e-06	603.22	353.41	4.4876e-06	6.0292e-06	285.11	129.74	169.92	88.853	6.6988e-06	64.232	0.00048949	0.00028225	7.4003e-05	787.86	2.8794e-06	2.8822e-06	620.63	366.17	3.2788e-06	3.3417e-06	294.17	134.78	176.73	92.946	4.0196e-06	66.674	216.272	191.234	210.548	116.871	269.740	255.920	115.450	120.642	256.747	244.410	117.913	121.426	123.676	126.640	247.777	123.934	-8191	255	
35224.820	1	1	0	0	0.22681	0.11844	0.205	0.21137	0.25223	0.1305	0.41272	0.2368	0.035904	0.095502	0.03848	0.13565	0.24725	0.15368	0.098123	0.51999	-1.9104	-1.8833	-2.3646	-2.0771	-2.0958	-2.2375	-2.1521	-2.3937	-2.1896	-2.0646	-2.4292	-2.2062	-2.3146	-2.3604	-1.8167	-2.6667	386.299	341.644	317.237	412.829	186.546	111.089	358.967	339.271	151.199	384.653	175.368	458.194	390.695	458.533	191.155	386.482	0.00058413	0.00051626	0.0001632	762.27	4.8548e-06	6.1874e-06	601.82	352.84	5.4713e-06	5.1944e-06	283.75	129.65	169.32	88.933	6.5833e-06	64.084	0.00047403	0.00028159	7.5303e-05	787.49	2.8536e-06	2.9516e-06	618.97	365.48	3.224e-06	3.2636e-06	294	134.84	176.53	92.888	4.0611e-06	66.623	217.017	192.654	196.752	116.804	262.292	244.944	115.412	120.565	264.306	244.391	118.079	121.242	123.633	126.754	252.253	123.729	-8191	255	
#DATA ENDS
