BOXY.EXE: ISS Imagent and Oximeter Data Acquisition Program Version 0.80
Ascii Record File

#ACQ INFORMATION
2  Detector Channels 
16  External MUX Channels 
1  Auxiliary Channels 
5000  Waveform (CCF) Frequency (Hz)
1  Waveforms Skipped 
30  Waveforms Averaged 
1  Cycles Averaged 
16  Acquisitions per Waveform 
10.0806  Updata Rate (Hz) 

#FILE INFORMATION
TRUE -- External MUX Channel results are PARSED.
FALSE -- AC DC and Phase are NOT grouped.
TRUE -- Companion Program Settings File CREATED.
FALSE -- AC data not excluded
FALSE -- DC data not excluded
FALSE -- Phase data not excluded
FALSE -- Auxillary Chn. data not excluded
Tab delimiters

#CALIBRATION STATE
TRUE -- Waveform Calibration Values APPLIED.


#AUX CALIBRATION VALUES
Val Type	aux-1	

Term	1.0000e+00	
Factor	0.0000e+00	


#WF CALIBRATION VALUES
A = Detector Channel
Val Type	A-AC1	A-AC2	A-AC3	A-AC4	A-AC5	A-AC6	A-AC7	A-AC8	A-AC9	A-AC10	A-AC11	A-AC12	A-AC13	A-AC14	A-AC15	A-AC16	A-DC1	A-DC2	A-DC3	A-DC4	A-DC5	A-DC6	A-DC7	A-DC8	A-DC9	A-DC10	A-DC11	A-DC12	A-DC13	A-DC14	A-DC15	A-DC16	A-Ph1	A-Ph2	A-Ph3	A-Ph4	A-Ph5	A-Ph6	A-Ph7	A-Ph8	A-Ph9	A-Ph10	A-Ph11	A-Ph12	A-Ph13	A-Ph14	A-Ph15	A-Ph16	

Term	0.00000e+00	0.00000e+00	0.00000e+00	0.00000e+00	0.00000e+00	0.00000e+00	0.00000e+00	0.00000e+00	0.00000e+00	0.00000e+00	0.00000e+00	0.00000e+00	0.00000e+00	0.00000e+00	0.00000e+00	0.00000e+00	0.00000e+00	0.00000e+00	0.00000e+00	0.00000e+00	0.00000e+00	0.00000e+00	0.00000e+00	0.00000e+00	0.00000e+00	0.00000e+00	0.00000e+00	0.00000e+00	0.00000e+00	0.00000e+00	0.00000e+00	0.00000e+00	0.00000e+00	0.00000e+00	0.00000e+00	0.00000e+00	0.00000e+00	0.00000e+00	0.00000e+00	0.00000e+00	0.00000e+00	0.00000e+00	0.00000e+00	0.00000e+00	0.00000e+00	0.00000e+00	0.00000e+00	0.00000e+00	
Factor	1.00000e+00	1.00000e+00	1.00000e+00	1.00000e+00	1.00000e+00	1.00000e+00	1.00000e+00	1.00000e+00	1.00000e+00	1.00000e+00	1.00000e+00	1.00000e+00	1.00000e+00	1.00000e+00	1.00000e+00	1.00000e+00	1.00000e+00	1.00000e+00	1.00000e+00	1.00000e+00	1.00000e+00	1.00000e+00	1.00000e+00	1.00000e+00	1.00000e+00	1.00000e+00	1.00000e+00	1.00000e+00	1.00000e+00	1.00000e+00	1.00000e+00	1.00000e+00	X	X	X	X	X	X	X	X	X	X	X	X	X	X	X	X	

B = Detector Channel
Val Type	B-AC1	B-AC2	B-AC3	B-AC4	B-AC5	B-AC6	B-AC7	B-AC8	B-AC9	B-AC10	B-AC11	B-AC12	B-AC13	B-AC14	B-AC15	B-AC16	B-DC1	B-DC2	B-DC3	B-DC4	B-DC5	B-DC6	B-DC7	B-DC8	B-DC9	B-DC10	B-DC11	B-DC12	B-DC13	B-DC14	B-DC15	B-DC16	B-Ph1	B-Ph2	B-Ph3	B-Ph4	B-Ph5	B-Ph6	B-Ph7	B-Ph8	B-Ph9	B-Ph10	B-Ph11	B-Ph12	B-Ph13	B-Ph14	B-Ph15	B-Ph16	

Term	0.00000e+00	0.00000e+00	0.00000e+00	0.00000e+00	0.00000e+00	0.00000e+00	0.00000e+00	0.00000e+00	0.00000e+00	0.00000e+00	0.00000e+00	0.00000e+00	0.00000e+00	0.00000e+00	0.00000e+00	0.00000e+00	0.00000e+00	0.00000e+00	0.00000e+00	0.00000e+00	0.00000e+00	0.00000e+00	0.00000e+00	0.00000e+00	0.00000e+00	0.00000e+00	0.00000e+00	0.00000e+00	0.00000e+00	0.00000e+00	0.00000e+00	0.00000e+00	2.53724e+01	-1.25825e+02	-1.32423e+02	-1.86157e+02	-5.31231e+01	-7.74207e+01	-1.59021e+02	-1.62015e+02	-9.81342e+01	-6.42266e+01	-1.73719e+02	-1.69925e+02	-1.79918e+02	-1.77120e+02	-6.73402e+01	-1.50188e+02	
Factor	4.43643e-05	1.31752e-04	3.84766e-05	6.00296e-01	1.09162e-06	1.23883e-06	1.58776e-01	4.81384e-02	1.60025e-06	1.38813e-06	8.39062e-02	2.75674e-02	2.39658e-02	9.07276e-03	1.49700e-06	1.30833e-02	1.61200e-06	1.67637e-06	4.65165e-07	2.83808e-01	1.83225e-08	1.83332e-08	7.47258e-02	2.41391e-02	1.82575e-08	1.83873e-08	4.04860e-02	1.32768e-02	1.20086e-02	4.53932e-03	1.82600e-08	6.30792e-03	X	X	X	X	X	X	X	X	X	X	X	X	X	X	X	X	



#DISTANCE SETTINGS
A = Detector Channel
A-1	A-2	A-3	A-4	A-5	A-6	A-7	A-8	A-9	A-10	A-11	A-12	A-13	A-14	A-15	A-16	

2.5000e+00	3.0000e+00	2.5000e+00	3.0000e+00	2.0000e+00	3.0000e+00	1.5000e+00	3.0000e+00	3.0000e+00	3.0000e+00	3.0000e+00	3.0000e+00	3.0000e+00	3.0000e+00	1.5000e+00	3.0000e+00	

B = Detector Channel
B-1	B-2	B-3	B-4	B-5	B-6	B-7	B-8	B-9	B-10	B-11	B-12	B-13	B-14	B-15	B-16	

1.0000e+01	1.0000e+01	1.0000e+01	1.4400e+00	1.0000e+01	1.0000e+01	1.5100e+00	1.9400e+00	1.0000e+01	1.0000e+01	1.9900e+00	2.4900e+00	2.4100e+00	2.9000e+00	1.0000e+01	2.9800e+00	




#DATA BEGINS
time	group	step	mark	flag	A-AC1	A-AC2	A-AC3	A-AC4	A-AC5	A-AC6	A-AC7	A-AC8	A-AC9	A-AC10	A-AC11	A-AC12	A-AC13	A-AC14	A-AC15	A-AC16	A-DC1	A-DC2	A-DC3	A-DC4	A-DC5	A-DC6	A-DC7	A-DC8	A-DC9	A-DC10	A-DC11	A-DC12	A-DC13	A-DC14	A-DC15	A-DC16	A-Ph1	A-Ph2	A-Ph3	A-Ph4	A-Ph5	A-Ph6	A-Ph7	A-Ph8	A-Ph9	A-Ph10	A-Ph11	A-Ph12	A-Ph13	A-Ph14	A-Ph15	A-Ph16	B-AC1	B-AC2	B-AC3	B-AC4	B-AC5	B-AC6	B-AC7	B-AC8	B-AC9	B-AC10	B-AC11	B-AC12	B-AC13	B-AC14	B-AC15	B-AC16	B-DC1	B-DC2	B-DC3	B-DC4	B-DC5	B-DC6	B-DC7	B-DC8	B-DC9	B-DC10	B-DC11	B-DC12	B-DC13	B-DC14	B-DC15	B-DC16	B-Ph1	B-Ph2	B-Ph3	B-Ph4	B-Ph5	B-Ph6	B-Ph7	B-Ph8	B-Ph9	B-Ph10	B-Ph11	B-Ph12	B-Ph13	B-Ph14	B-Ph15	B-Ph16	aux-1	digaux	

1410.073	1	1	0	256	0.24783	0.1511	0.018609	0.033513	0.16508	0.15784	0.063671	0.17845	0.13417	0.12752	0.27228	0.25209	0.1691	0.25285	0.18028	0.20256	-2.1646	-3.0312	-2.3812	-2.7188	-2.9521	-2.4625	-3.1833	-2.8375	-2.4875	-2.9188	-2.6021	-2.8875	-2.9896	-2.5729	-2.8979	-2.7396	173.519	9.745	-64.391	4.472	143.783	-86.326	138.251	175.950	74.605	177.337	217.784	204.985	102.123	232.232	191.437	207.153	0.00035684	0.00036047	0.00019073	1207.7	2.2527e-06	7.4948e-07	1271.7	248.19	1.5823e-05	5.9402e-06	308.73	87.224	69.371	19.853	1.8477e-06	27.909	0.0011409	0.0011001	0.00035482	1331.1	1.2624e-05	1.2554e-05	1294	259.32	1.2943e-05	1.2523e-05	331.39	95.503	75.514	22.687	1.4897e-05	32.017	26.277	16.624	100.888	-86.771	29.407	8.855	-87.228	-80.258	4.788	233.832	-80.480	-73.994	-73.563	-66.765	13.926	-66.916	-8191	255	
1410.194	1	1	0	0	0.1354	0.074405	0.080893	0.10511	0.3545	0.17831	0.25154	0.12961	0.050774	0.19497	0.13343	0.27652	0.011961	0.054971	0.16744	0.18545	-1.9	-2.8812	-2.5583	-2.5687	-2.8271	-2.6875	-3.1958	-3.0812	-2.3937	-3.0125	-2.7313	-2.7313	-3.1458	-2.3729	-2.8292	-2.7771	210.461	162.821	-87.174	112.371	-78.125	79.787	145.963	173.099	184.559	159.943	114.523	235.766	-96.049	-86.478	-35.411	-42.115	8.7208e-05	0.00028308	7.0488e-05	1215.1	1.867e-06	1.7329e-06	1276.9	246.63	9.2167e-06	7.2308e-06	311.19	88.054	68.856	19.955	3.6538e-06	27.759	0.0011806	0.0012035	0.00038247	1329.4	1.2688e-05	1.3545e-05	1297.8	258.68	1.2842e-05	1.3521e-05	332.5	95.636	75.337	22.91	1.4805e-05	31.881	-52.320	47.202	115.720	-87.354	-31.899	-91.663	-86.977	-79.897	-61.748	236.054	-80.315	-73.982	-73.206	-66.702	260.514	-67.148	-8191	255	
1410.290	1	1	0	0	0.18256	0.25439	0.17616	0.13615	0.053512	0.18743	0.32029	0.25006	0.030221	0.15577	0.0093036	0.14145	0.020249	0.14349	0.062832	0.19658	-1.9062	-2.825	-2.7458	-2.5208	-2.9458	-2.4729	-2.8896	-2.8312	-2.5229	-2.9271	-2.8208	-2.7062	-3.0792	-2.7104	-2.8146	-3.0875	37.963	162.321	101.080	13.944	73.599	216.395	166.413	218.141	-54.421	47.136	-24.440	-31.229	-16.167	170.703	-76.213	230.352	0.00025339	0.00060483	0.00023266	1210.3	8.2424e-06	5.6843e-06	1278	247.72	4.8626e-06	7.2106e-06	312.72	87.143	69.299	19.768	1.076e-05	28.034	0.0011555	0.0012908	0.0003741	1327.2	1.2796e-05	1.4502e-05	1297.9	258.64	1.2919e-05	1.4486e-05	331.78	95.015	75.404	23.034	1.427e-05	31.722	1.061	102.770	-41.898	-87.444	57.521	90.088	-87.164	-80.208	93.526	-0.051	-80.208	-73.558	-73.375	-66.928	11.829	-67.374	-8191	255	
1410.386	1	1	0	0	0.027661	0.092596	0.2412	0.12426	0.27004	0.073317	0.26959	0.25132	0.36496	0.19342	0.18374	0.17386	0.21181	0.079993	0.14624	0.27924	-2.0146	-2.9229	-2.6875	-2.6792	-2.9271	-2.7417	-2.7313	-2.9729	-2.5979	-2.9354	-2.8292	-2.5062	-3.0979	-2.7583	-2.6979	-2.9542	67.147	83.293	193.146	31.769	152.179	81.538	208.857	218.081	218.116	55.508	229.909	-92.692	256.101	234.098	-80.111	215.414	0.00017458	0.00092172	0.00029996	1211.8	4.4326e-06	3.0079e-06	1276.4	247.31	1.338e-05	7.888e-06	311.7	88.016	69.312	19.838	5.684e-06	28.07	0.0011587	0.0013431	0.00035712	1323.4	1.2945e-05	1.5032e-05	1295.7	257.74	1.3458e-05	1.5188e-05	330.8	95.139	75.93	23.176	1.3972e-05	31.763	32.452	137.672	-17.821	-86.778	189.482	-82.140	-87.127	-80.163	102.037	100.342	-80.730	-73.728	-73.566	-66.885	11.945	-66.530	-8191	255	
1410.482	1	1	0	0	0.14642	0.19631	0.13336	0.05871	0.12885	0.42312	0.21907	0.14593	0.083472	0.23087	0.17737	0.2282	0.2562	0.28882	0.14921	0.15186	-2.1604	-2.8375	-2.8292	-2.3896	-2.9292	-2.7562	-2.7979	-3.0979	-2.6896	-2.7542	-2.8771	-2.4854	-2.875	-2.7417	-2.4958	-2.925	38.969	110.163	-89.500	-64.442	67.548	219.755	173.271	245.028	-54.250	208.606	238.817	184.532	231.461	223.879	195.483	241.011	0.00032398	0.00017343	0.00029463	1205.9	2.28e-06	8.8048e-07	1274.9	246.47	9.0165e-06	1.1451e-05	311.89	87.623	69.162	19.788	1.2766e-05	27.872	0.0012414	0.0013915	0.00034871	1315.6	1.3932e-05	1.4892e-05	1292.8	257.18	1.4048e-05	1.4649e-05	329.44	94.763	76.148	22.857	1.3255e-05	31.449	-20.402	174.878	-62.443	-87.026	218.991	-1.277	-87.048	-80.107	152.682	101.632	-80.384	-73.823	-73.623	-66.475	29.820	-67.119	-8191	255	
1410.578	1	1	0	0	0.12804	0.059248	0.14256	0.25712	0.17367	0.026364	0.42651	0.098817	0.21753	0.20908	0.020539	0.19609	0.093636	0.08525	0.31017	0.30637	-2.2583	-2.7646	-2.8458	-2.4396	-2.8583	-2.7333	-2.7208	-2.9333	-2.6	-2.7812	-3.0896	-2.5312	-2.9458	-2.8354	-2.325	-3.0062	-24.493	237.220	99.479	-65.216	96.556	134.686	174.620	10.814	89.773	179.058	-21.955	172.160	89.682	-19.290	49.748	163.347	0.0003364	0.00154	9.2925e-05	1202.9	3.4339e-06	1.0891e-05	1270.7	246.67	2.5843e-06	7.8301e-06	310.4	87.085	68.513	19.806	7.195e-06	27.726	0.0012562	0.0013002	0.00032467	1304.3	1.4101e-05	1.3944e-05	1286.2	256.86	1.4393e-05	1.397e-05	326.92	94.403	76.058	22.682	1.2633e-05	31.36	-0.526	-2.938	-57.964	-87.610	199.427	48.468	-86.880	-79.907	218.283	103.092	-80.185	-73.464	-73.561	-66.659	79.344	-67.046	-8191	255	
1410.674	1	1	0	0	0.097465	0.16862	0.26035	0.095493	0.12304	0.080475	0.15938	0.096729	0.49631	0.13218	0.13328	0.20154	0.15008	0.17927	0.2464	0.15925	-2.0292	-2.7708	-2.8771	-2.5083	-2.8688	-2.8792	-2.5958	-2.9708	-2.75	-2.5833	-3.0333	-2.6271	-2.875	-2.9	-2.6542	-2.9604	160.806	223.867	-12.173	213.591	92.938	-32.233	151.860	82.107	75.109	168.169	218.266	223.480	38.684	108.840	-9.794	19.648	0.00040125	0.00071246	9.8428e-05	1204	6.3192e-06	5.4366e-06	1278.2	246.54	7.6831e-06	1.3908e-05	310.23	87.423	68.541	19.599	4.8652e-06	27.688	0.0012551	0.0012196	0.00030801	1305	1.4058e-05	1.2789e-05	1285.4	256.5	1.3866e-05	1.2778e-05	324.51	94.363	75.632	22.314	1.1831e-05	31.451	-57.392	9.200	104.736	-87.295	25.807	119.275	-86.983	-80.221	42.493	37.415	-80.308	-73.691	-73.361	-66.386	183.909	-67.122	-8191	255	
1410.770	1	1	0	0	0.13503	0.05867	0.066917	0.14487	0.14758	0.10797	0.10401	0.19813	0.016192	0.069071	0.15245	0.28394	0.24219	0.071406	0.15549	0.2616	-2.4	-2.5604	-3.0583	-2.7021	-2.6875	-2.9062	-2.6292	-3.0208	-2.7417	-2.6437	-3.0771	-2.5729	-2.8792	-2.8708	-2.7167	-3.0417	104.488	167.972	177.458	132.560	-47.505	-11.109	160.074	246.906	153.829	253.937	-27.258	261.738	211.699	30.019	167.847	244.737	0.00031777	0.00038352	0.00012909	1207.1	3.4459e-06	7.627e-06	1265.8	244.54	1.1632e-05	5.0521e-06	306.97	86.797	68.337	19.738	1.1148e-05	27.696	0.0011995	0.001146	0.00029247	1310.8	1.3503e-05	1.2098e-05	1272.6	255.78	1.2997e-05	1.2043e-05	321.76	94.204	74.665	22.061	1.1342e-05	31.492	-9.996	-87.591	-34.718	-87.069	-58.861	16.143	-87.100	-80.213	-29.644	-12.536	-80.220	-73.788	-73.380	-66.453	70.690	-66.893	-8191	255	
1410.867	1	1	0	0	0.0512	0.10401	0.030448	0.05824	0.12612	0.32531	0.15124	0.11843	0.12498	0.14904	0.17742	0.18467	0.14078	0.24934	0.10397	0.13071	-2.2604	-2.6437	-2.9958	-2.7062	-2.575	-3.0687	-2.6646	-2.9917	-2.6104	-2.6688	-3.1813	-2.775	-2.7	-3.0354	-2.7313	-2.8312	-60.811	-4.185	4.343	27.694	162.746	154.744	193.858	-16.571	219.398	65.782	172.610	61.471	-65.515	239.432	-43.089	-95.667	0.00035803	0.0012752	4.624e-05	1190.5	5.6152e-06	3.9969e-06	1252.7	243.85	7.4136e-06	2.0469e-06	305.99	86.017	68.206	19.642	9.1024e-06	27.76	0.0010948	0.0010474	0.0002797	1290.8	1.2097e-05	1.0885e-05	1260.5	253.81	1.1524e-05	1.113e-05	319.98	93.341	73.696	21.731	1.1175e-05	31.237	4.460	18.087	103.730	-87.523	50.480	49.384	-86.961	-80.216	36.967	133.766	-80.145	-73.692	-72.939	-66.336	213.946	-66.973	-8191	255	
1410.985	1	1	0	0	0.35673	0.070961	0.16412	0.13862	0.23279	0.26843	0.15905	0.085581	0.11043	0.43803	0.30936	0.092254	0.23221	0.18232	0.1385	0.18236	-2.3354	-2.4417	-2.9313	-2.5687	-2.6042	-3.1604	-2.6813	-2.9125	-2.7792	-2.6104	-2.9813	-2.7125	-2.7896	-2.7812	-2.45	-2.7792	-49.686	209.121	236.622	219.423	135.387	-61.154	177.830	161.145	208.736	-80.599	243.329	-74.043	103.717	69.260	-5.094	-71.176	0.00027827	0.0011587	0.00019011	1196.6	5.1671e-06	5.2879e-06	1247	244.24	1.0294e-05	4.2745e-06	304.98	86.841	67.535	19.492	2.0546e-06	27.695	0.0010024	0.00098552	0.00028269	1283.8	1.1315e-05	1.0425e-05	1256.2	253.56	1.095e-05	1.052e-05	320.25	92.827	72.947	21.551	1.1345e-05	30.919	-15.377	-25.517	145.449	-86.917	5.665	12.041	-86.816	-79.875	15.904	42.197	-80.184	-73.826	-72.739	-66.679	66.017	-66.993	-8191	255	
1411.082	1	1	0	0	0.19924	0.14735	0.073155	0.10358	0.27771	0.026535	0.10744	0.16556	0.19942	0.27576	0.20608	0.13583	0.18993	0.11011	0.17222	0.11085	-2.2292	-2.5167	-2.9708	-2.5687	-2.6708	-3.0708	-2.9417	-2.8479	-2.7917	-2.6125	-2.9958	-2.875	-2.5167	-2.9313	-2.5625	-2.7958	48.336	114.059	93.500	-71.435	236.901	182.917	201.323	190.384	-81.480	147.110	154.839	-53.001	23.210	221.656	-37.692	207.780	0.00020091	0.00045533	2.831e-05	1186.3	6.7149e-06	1.2125e-06	1244.9	243.44	1.4919e-05	9.9063e-06	306.92	86.603	68.338	19.478	3.5731e-06	27.595	0.00092736	0.00092602	0.00028641	1261	1.0551e-05	9.8169e-06	1255.1	251.57	1.0096e-05	1.0152e-05	320.69	92.236	72.831	21.563	1.1622e-05	30.751	40.954	-34.984	-93.556	-86.931	80.684	249.355	-86.995	-79.972	18.351	12.168	-80.424	-73.934	-73.232	-66.449	59.177	-67.085	-8191	255	
1411.155	1	1	0	0	0.066339	0.14661	0.15773	0.15294	0.18473	0.25784	0.3347	0.18825	0.18332	0.23303	0.193	0.2125	0.12101	0.15838	0.080598	0.47329	-2.3583	-2.4396	-2.7354	-2.7625	-2.4479	-2.9271	-2.6229	-2.8354	-2.7896	-2.725	-3.0542	-2.9083	-2.4688	-3.05	-2.5604	-2.6437	-81.626	-77.212	-22.582	74.161	-58.498	-64.312	235.021	126.626	150.709	-80.509	35.107	52.031	216.942	-75.044	177.776	170.362	0.00021811	0.00057077	0.00026295	1193	2.2198e-06	4.3475e-06	1252.9	243.99	6.1616e-06	4.3869e-06	306.41	86.788	68.415	19.612	1.284e-05	27.59	0.00090348	0.00096331	0.00030198	1260.7	1.0505e-05	1.0534e-05	1264.5	252.03	1.0272e-05	1.11e-05	322.52	92.308	72.996	21.883	1.1826e-05	30.65	258.227	120.610	60.044	-86.763	215.320	-10.175	-87.064	-80.092	-73.430	-63.085	-80.042	-73.498	-73.553	-66.516	-26.626	-66.910	-8191	255	
1411.274	1	1	0	0	0.13503	0.15131	0.2512	0.07658	0.1241	0.20051	0.22421	0.017941	0.21115	0.038518	0.23008	0.071539	0.094715	0.18428	0.19066	0.025479	-2.65	-2.5854	-2.6604	-2.7708	-2.5375	-2.9479	-2.9896	-2.6958	-3.0687	-2.4333	-2.6958	-3.0458	-2.5458	-2.8646	-2.5792	-2.6458	-54.975	109.264	-34.650	112.204	176.043	-47.301	260.254	196.241	134.726	209.583	246.050	250.400	159.898	-40.961	-21.419	102.555	0.00012189	0.00040315	0.00029154	1203	2.1947e-06	5.1115e-06	1258.1	243.17	4.3723e-06	4.1977e-06	305.17	86.127	67.355	19.464	6.1112e-06	27.574	0.00089246	0.0010194	0.00029356	1257.5	9.8331e-06	1.0753e-05	1260	249.76	9.161e-06	1.0503e-05	317.52	90.533	71.394	21.42	9.6986e-06	29.745	125.877	173.666	-75.592	-86.816	79.455	-42.082	-86.999	-80.248	160.039	-29.268	-80.347	-73.893	-73.675	-66.766	38.560	-67.010	-8191	255	
1411.370	1	1	0	0	0.195	0.23656	0.24991	0.17794	0.11719	0.12601	0.24925	0.27749	0.13495	0.27316	0.19988	0.12318	0.27165	0.35323	0.082379	0.087636	-2.5438	-2.3563	-2.6562	-2.8312	-2.3583	-2.8292	-2.9938	-2.6146	-2.9604	-2.525	-2.6833	-2.8542	-2.5896	-2.6917	-2.725	-2.5083	1.089	214.981	119.409	187.723	259.608	151.213	237.225	128.573	248.551	172.007	38.103	142.342	236.528	-97.397	127.680	138.389	0.00047802	0.00046985	0.00018743	1167.2	2.2447e-06	2.9109e-06	1227.9	239.78	7.2803e-06	4.2454e-06	301.28	84.814	66.849	19.371	1.4743e-06	27.16	0.00075407	0.00089488	0.00023653	1202.6	8.4063e-06	9.4355e-06	1225.8	244.25	7.987e-06	9.1897e-06	309.88	88.516	70.149	21.09	8.2111e-06	29.173	-19.362	1.586	-12.389	-87.231	199.543	214.137	-86.904	-80.051	211.873	80.839	-80.079	-73.563	-73.303	-66.393	28.950	-66.626	-8191	255	
1411.466	1	1	0	0	0.14817	0.21564	0.20059	0.084183	0.13497	0.21295	0.26696	0.099937	0.27906	0.16386	0.065851	0.093477	0.25305	0.085392	0.20655	0.16906	-2.5021	-2.4896	-2.4896	-2.9604	-2.5625	-2.7396	-3.0042	-2.7125	-2.9292	-2.7396	-2.6937	-3.0563	-2.6875	-2.8292	-2.7	-2.3917	200.011	-61.615	-88.350	94.171	197.553	106.382	208.561	131.611	-53.987	108.630	220.268	-77.743	-86.528	254.291	132.473	-88.190	0.0002819	0.00019205	7.0412e-05	1156	3.0395e-06	2.8862e-06	1222	239.29	9.9084e-06	5.935e-06	299.35	84.957	66.801	19.374	9.5701e-06	27.115	0.00071493	0.00081606	0.00020691	1177.5	8.1747e-06	8.8105e-06	1214.5	242.76	8.062e-06	8.6886e-06	307.81	88.2	70.358	20.982	7.7812e-06	29.227	-15.955	148.173	-63.405	-87.072	179.717	73.812	-87.070	-79.990	99.919	58.224	-80.455	-73.661	-73.164	-66.513	10.838	-67.191	-8191	255	
1411.562	1	1	0	0	0.042244	0.057106	0.31042	0.10737	0.04528	0.10486	0.17127	0.073513	0.088312	0.16829	0.12723	0.11432	0.22939	0.22096	0.099554	0.037273	-2.5771	-2.5563	-2.6292	-3.0312	-2.5542	-2.7021	-3.1021	-2.5979	-2.9646	-2.6646	-2.4271	-3.0187	-2.7812	-2.6562	-3.0854	-2.8229	-47.628	107.832	247.121	-24.458	159.650	-16.493	203.824	-29.260	204.058	140.641	40.777	234.699	-12.598	177.334	53.745	159.696	0.00043196	0.0010405	4.6549e-05	1160.8	2.0634e-06	4.7641e-06	1227.4	240.59	4.025e-06	1.1695e-05	302.12	85.281	67.265	19.516	5.7824e-06	27.534	0.00076916	0.00080105	0.00020772	1187.4	8.9534e-06	8.999e-06	1222.5	244.29	9.0969e-06	8.9439e-06	310.52	89.197	71.343	21.247	8.203e-06	29.67	-36.484	-15.637	-50.599	-86.776	215.937	57.887	-86.946	-80.203	132.398	70.112	-80.078	-74.017	-73.328	-66.307	127.484	-66.527	-8191	255	
1411.683	1	1	0	0	0.17524	0.14286	0.19767	0.16858	0.1567	0.30906	0.32693	0.0077997	0.18882	0.15423	0.076019	0.2009	0.34135	0.061529	0.27219	0.13186	-2.5708	-2.6229	-2.375	-2.975	-2.5354	-2.6771	-3.1417	-2.6562	-2.7875	-2.7875	-2.6854	-2.7875	-2.6208	-2.6708	-3	-2.4562	76.373	142.525	-82.128	-96.799	38.427	176.094	231.846	-71.654	232.365	214.368	171.485	54.581	220.744	211.053	22.805	237.540	0.00016546	0.0005238	0.00023137	1165	2.6853e-06	2.3527e-06	1231.9	239.94	7.7992e-06	6.4035e-06	303.44	84.881	67.326	19.578	3.6302e-06	27.446	0.00083976	0.00080183	0.00021314	1201	9.5136e-06	9.0054e-06	1226.6	245.4	9.6321e-06	8.8771e-06	310.92	89.621	71.694	21.271	8.3019e-06	29.89	89.238	-48.058	64.436	-86.973	152.624	150.517	-86.963	-80.140	56.243	93.649	-80.352	-73.627	-73.192	-66.615	-62.234	-66.618	-8191	255	
1411.777	1	1	0	0	0.26421	0.053937	0.068664	0.14782	0.095058	0.11296	0.17719	0.2002	0.099404	0.12283	0.024573	0.34773	0.17594	0.178	0.23786	0.19981	-2.4083	-2.5979	-2.4833	-2.9771	-2.6104	-2.3792	-2.9333	-2.475	-2.7792	-2.8458	-2.6604	-3.0812	-2.6854	-2.6146	-2.9562	-2.7083	252.100	190.828	45.929	-61.506	102.280	135.763	246.293	174.177	-22.706	-83.657	-32.082	238.401	57.970	10.704	84.728	205.803	0.00015452	0.00077533	0.00018593	1171.9	6.6118e-06	2.9076e-06	1236.3	240.46	1.1712e-05	1.0177e-05	301.75	85.612	67.265	19.484	3.2561e-06	27.489	0.00087146	0.00080884	0.00021539	1217.7	9.6121e-06	8.7992e-06	1231.4	246.66	9.505e-06	8.5806e-06	311.28	90.5	71.628	21.292	8.3947e-06	30.203	67.061	71.230	-11.188	-87.170	75.982	257.234	-86.932	-79.749	71.903	83.115	-80.084	-73.482	-73.258	-66.688	79.092	-67.081	-8191	255	
1411.875	1	1	0	0	0.28197	0.21187	0.073663	0.18677	0.10241	0.04039	0.18618	0.092661	0.087584	0.053499	0.06395	0.41139	0.24044	0.34444	0.39801	0.030591	-2.3563	-2.9917	-2.5604	-2.8854	-2.8479	-2.5354	-3.0917	-2.6854	-2.6208	-2.9042	-2.4354	-2.8292	-2.7583	-2.6646	-2.8375	-2.5542	169.173	60.562	163.429	240.584	164.901	32.335	190.432	212.791	183.561	6.602	258.872	204.083	-89.063	-87.605	88.465	81.344	0.00038625	0.00058095	0.00013145	1166	1.3812e-06	7.8584e-06	1235.8	240.74	3.511e-06	2.6232e-06	302.45	86.097	67.633	19.637	5.6823e-06	27.636	0.00086805	0.00081386	0.00022542	1230	9.7954e-06	9.0972e-06	1235.9	248.05	9.7363e-06	9.0063e-06	312.95	91.193	71.829	21.419	9.2705e-06	30.528	-25.622	-9.091	216.643	-86.972	74.418	2.968	-87.102	-79.948	210.694	33.504	-80.045	-73.575	-73.435	-66.240	149.075	-67.204	-8191	255	
1411.971	1	1	0	0	0.13328	0.18835	0.05602	0.20487	0.29529	0.10949	0.35795	0.30807	0.092239	0.10313	0.23328	0.15936	0.22394	0.067534	0.072487	0.080889	-1.975	-2.9229	-2.4771	-2.7708	-2.8438	-2.5708	-3.0917	-2.7229	-2.65	-2.9646	-2.5896	-2.8792	-2.6792	-2.4313	-3.1792	-2.875	9.299	37.624	-83.911	129.804	179.011	224.667	199.272	141.190	139.622	57.762	253.931	-76.580	175.123	30.133	219.830	133.510	0.00019822	0.0001552	0.00026004	1176.4	4.7273e-06	7.9941e-06	1237	241.07	6.8507e-06	1.2503e-05	300.85	85.316	67.456	19.614	4.1946e-06	27.65	0.00088011	0.00082605	0.00024511	1244.5	9.7001e-06	9.3005e-06	1239	248.44	9.9136e-06	9.1295e-06	314.46	91.423	71.74	21.432	1.0055e-05	30.575	57.680	32.133	54.234	-86.600	73.714	23.321	-86.790	-80.011	-14.253	32.526	-80.199	-73.313	-73.188	-66.375	229.250	-67.002	-8191	255	
1412.066	1	1	0	0	0.31956	0.16034	0.25949	0.05656	0.17917	0.19925	0.12494	0.13381	0.21693	0.19496	0.10248	0.090446	0.12403	0.18443	0.21251	0.29487	-2.0812	-2.9313	-2.525	-2.8	-3.0833	-2.3208	-3.0208	-2.6729	-2.5979	-2.9938	-2.6396	-2.8167	-2.8708	-2.4771	-2.9208	-2.8063	102.414	61.018	23.380	71.620	-22.658	251.370	229.906	197.051	97.427	-93.867	186.479	185.960	-91.617	226.485	261.722	250.305	0.00017418	0.0001898	0.00021902	1177.3	3.2915e-06	1.9613e-06	1236.6	240.36	9.4352e-06	3.9412e-06	304.38	85.622	67.334	19.621	9.1508e-06	27.754	0.00086928	0.00082478	0.0002621	1240.7	9.4426e-06	9.1806e-06	1241.5	247.93	9.4065e-06	8.953e-06	315.89	91.194	71.4	21.428	1.0443e-05	30.35	69.339	17.500	12.278	-87.161	88.345	186.818	-86.819	-80.197	220.752	-63.703	-80.110	-73.928	-73.118	-66.207	-97.356	-67.022	-8191	255	
1412.162	1	1	0	0	0.15584	0.10951	0.057415	0.047823	0.23835	0.1524	0.22078	0.23549	0.29527	0.096558	0.20153	0.15666	0.088225	0.12765	0.10361	0.064184	-2.1396	-2.925	-2.5333	-2.7333	-3.0333	-2.3812	-3.0917	-2.95	-2.4938	-3.0687	-2.6979	-2.7271	-2.9875	-2.5333	-2.7604	-2.8917	-55.923	93.062	123.631	148.484	133.891	-7.605	167.555	244.272	62.898	-88.829	227.587	231.693	107.010	44.052	214.956	81.625	0.00010254	0.00066543	7.8683e-05	1174.1	2.2933e-06	6.344e-06	1233.2	242.46	3.9137e-06	1.1898e-06	304.26	85.629	67.418	19.635	1.0056e-05	27.734	0.0008398	0.00082924	0.00026707	1229.9	9.086e-06	9.3142e-06	1238.1	247.69	9.2013e-06	9.3302e-06	316.43	90.776	71.408	21.545	1.065e-05	30.25	46.331	11.391	168.250	-86.870	125.119	108.340	-86.948	-79.986	93.083	-39.643	-80.168	-73.706	-73.177	-66.318	12.389	-67.222	-8191	255	
1412.283	1	1	0	0	0.14019	0.38132	0.21456	0.14456	0.2843	0.1206	0.22984	0.11973	0.3472	0.13731	0.32105	0.31438	0.15122	0.39573	0.10137	0.36686	-2.2146	-2.9979	-2.575	-2.65	-3.0062	-2.4875	-2.9625	-2.9125	-2.4917	-2.9313	-2.8812	-2.675	-3.1708	-2.6188	-2.6917	-2.8833	-94.820	-40.581	-22.960	181.384	257.966	142.399	205.574	239.294	157.012	117.763	-68.092	206.111	176.958	-94.069	110.801	93.262	0.00013684	0.00072141	0.00018998	1172.5	5.6461e-06	2.224e-06	1234.2	241.48	7.7406e-06	1.3825e-06	303.19	85.661	67.268	19.573	9.1403e-06	27.629	0.00083513	0.00090632	0.00027176	1232.5	9.2812e-06	1.0298e-05	1241.7	247.62	9.4724e-06	1.0433e-05	315.83	90.919	71.478	21.747	1.0925e-05	30.327	30.567	59.675	-17.260	-86.740	37.653	122.742	-87.126	-80.288	-26.912	-15.804	-80.123	-73.962	-73.050	-66.698	15.087	-66.839	-8191	255	
1412.379	1	1	0	0	0.17989	0.18765	0.15098	0.13555	0.053499	0.18297	0.17827	0.29819	0.23382	0.20941	0.082201	0.18541	0.20587	0.13069	0.041405	0.19829	-2.1542	-3.0354	-2.5875	-2.5604	-3.025	-2.575	-2.6667	-3.0875	-2.4313	-2.9542	-2.8104	-2.5854	-2.9542	-2.7104	-2.6917	-2.9479	38.318	-78.159	-52.125	-59.447	-68.788	-90.597	-8.273	228.462	120.038	30.557	190.101	36.464	228.502	249.504	21.987	46.369	0.00010203	0.00097165	0.00029919	1177.3	4.5196e-07	9.8068e-06	1234.9	241.01	8.2673e-07	4.5912e-06	304.09	85.843	67.43	19.576	8.3506e-06	27.567	0.0008615	0.00098764	0.00027116	1232.4	9.4337e-06	1.1026e-05	1240.8	247.32	9.7394e-06	1.0974e-05	315.48	90.616	71.699	21.859	1.0261e-05	30.152	38.638	139.514	-28.797	-86.919	157.413	87.187	-86.827	-80.180	178.178	104.846	-80.566	-73.960	-73.447	-66.094	3.195	-67.080	-8191	255	
1412.450	1	1	0	0	0.21007	0.04545	0.12741	0.31808	0.12144	0.16478	0.070168	0.16632	0.36633	0.14767	0.45395	0.22871	0.16849	0.15664	0.17467	0.0789	-2.1979	-2.8375	-2.7771	-2.5229	-2.9062	-2.6375	-2.7792	-2.9313	-2.3792	-2.8083	-2.7938	-2.6167	-2.9667	-2.6292	-2.5708	-2.7938	123.540	23.249	55.341	254.687	237.858	21.960	40.788	189.312	180.510	30.139	169.847	252.381	-95.029	-62.060	124.492	-84.727	0.00020064	0.00048118	0.00023607	1182.6	2.1642e-06	7.0102e-06	1236.6	240.87	3.1776e-06	6.3774e-06	303.19	86.053	67.027	19.479	3.8917e-06	27.737	0.00087832	0.00099916	0.00025614	1224.4	9.8059e-06	1.0943e-05	1239.2	246.43	1.0067e-05	1.0852e-05	313.65	90.59	71.863	21.784	9.9395e-06	30.056	-32.846	-45.805	-66.974	-86.858	-13.540	-53.371	-87.057	-80.275	154.701	5.769	-80.440	-73.752	-73.009	-66.434	40.869	-67.268	-8191	255	
1412.547	1	1	0	0	0.083595	0.22887	0.177	0.16766	0.28245	0.26336	0.25943	0.12876	0.17639	0.2266	0.1409	0.11805	0.18445	0.19646	0.011637	0.24488	-2.0833	-2.8458	-2.8479	-2.4167	-3.0208	-2.7917	-2.6292	-2.9813	-2.6688	-2.8479	-2.9021	-2.725	-2.8292	-2.6125	-2.5312	-2.9667	138.738	80.578	167.049	20.428	131.035	1.258	222.554	250.268	44.020	33.899	198.453	61.800	217.594	235.864	39.979	-68.842	0.00043228	0.00070282	0.00020479	1164.9	4.2276e-06	9.3035e-06	1232.2	241.28	4.1345e-06	8.3785e-06	301.79	85.592	67.246	19.543	6.444e-06	27.339	0.00092372	0.00098968	0.00024993	1223.2	1.038e-05	1.0717e-05	1236.3	246.35	1.0811e-05	1.0848e-05	314.03	90.448	72.491	21.716	9.9683e-06	30.089	-9.686	50.700	-61.811	-86.894	52.569	63.760	-86.984	-79.911	256.931	60.947	-80.319	-73.957	-73.183	-66.696	2.154	-66.704	-8191	255	
1412.643	1	1	0	0	0.16138	0.19618	0.22295	0.22982	0.10572	0.23046	0.53476	0.21542	0.25887	0.17833	0.11566	0.22599	0.12511	0.22538	0.11105	0.19416	-2.0646	-2.6396	-2.9688	-2.6583	-2.9938	-2.7771	-2.6958	-2.9854	-2.5917	-2.7646	-3.025	-2.4729	-3	-2.7438	-2.7042	-2.9542	181.277	104.607	-11.794	-56.134	29.404	3.642	224.536	201.998	13.096	-80.061	-98.047	-54.334	-93.763	226.300	29.745	193.061	0.00021941	0.00040357	0.00013809	1169.5	3.5676e-06	6.8139e-06	1232.4	240.84	8.84e-06	5.7982e-06	303.65	86.31	67.143	19.58	6.5317e-07	27.268	0.00099342	0.00097133	0.00024789	1228.8	1.1101e-05	1.0414e-05	1236.4	247.52	1.1267e-05	1.0564e-05	313.97	91.102	72.764	21.674	9.7299e-06	30.325	-8.918	-61.731	20.285	-86.640	44.742	30.017	-86.968	-80.118	242.336	58.907	-80.370	-73.819	-73.224	-66.410	-51.282	-66.914	-8191	255	
1412.763	1	1	0	0	0.1231	0.085562	0.21963	0.081974	0.26256	0.067491	0.10921	0.34578	0.15377	0.028367	0.33	0.23325	0.10089	0.32143	0.23544	0.15285	-2.2083	-2.5708	-2.85	-2.5833	-2.6854	-2.6	-2.8479	-2.9313	-2.5583	-2.5208	-3.0625	-2.6083	-2.8333	-2.9083	-2.5062	-2.9396	3.994	9.260	131.453	25.621	60.217	173.314	244.444	213.268	-57.093	174.266	226.002	-96.839	114.661	-62.565	208.690	237.981	0.00026763	0.00076643	4.7157e-05	1172.1	4.0352e-06	6.3109e-06	1238.7	240.76	3.63e-06	9.1675e-06	302.62	85.446	67.681	19.51	4.1461e-06	27.621	0.0010042	0.00094596	0.000241	1239.8	1.1103e-05	1.0075e-05	1238.3	248.74	1.089e-05	1.0007e-05	313.33	91.216	72.542	21.462	9.432e-06	30.446	-0.805	24.013	-58.437	-86.836	28.029	61.998	-86.807	-80.065	30.496	88.650	-80.512	-73.561	-73.236	-66.152	2.380	-67.167	-8191	255	
1412.858	1	1	0	0	0.15535	0.15471	0.07338	0.2476	0.052258	0.078077	0.093079	0.018255	0.14351	0.25331	0.17899	0.057005	0.34178	0.092491	0.11279	0.06827	-2.2083	-2.4375	-2.9104	-2.4271	-2.8042	-2.9292	-2.7375	-2.9833	-2.7313	-2.5938	-3.0354	-2.6229	-2.7354	-2.9521	-2.5167	-3.2208	118.483	261.845	140.755	-60.149	36.956	205.046	228.347	-14.816	195.878	176.442	261.302	-78.744	-63.248	129.853	-80.480	-37.468	0.00024304	0.00082155	0.00014222	1174.3	1.3349e-06	1.9937e-06	1231.2	241.32	8.7255e-06	7.0557e-06	303.9	85.809	67.617	19.525	7.1089e-06	27.631	0.00093774	0.00090083	0.00023315	1243.6	1.0654e-05	9.7832e-06	1235.5	249.17	1.0583e-05	1.0076e-05	314.34	91.626	72.384	21.475	9.8347e-06	30.736	226.540	-34.619	6.584	-86.791	81.932	84.221	-87.062	-79.927	54.242	-46.195	-80.236	-73.883	-73.292	-66.603	124.652	-67.052	-8191	255	
1412.956	1	1	0	0	0.066334	0.38101	0.12724	0.1995	0.18412	0.12797	0.15757	0.13981	0.21167	0.15247	0.37004	0.22584	0.25892	0.054778	0.077434	0.21759	-2.2938	-2.4208	-2.7854	-2.5687	-2.7292	-2.7792	-2.5771	-2.9167	-2.675	-2.4896	-2.9521	-2.675	-2.6979	-3.0271	-2.5833	-2.7104	230.146	230.385	62.765	259.589	182.611	-30.590	-45.967	242.954	92.361	209.573	87.932	-80.422	181.523	241.063	-67.616	115.174	0.0001772	0.00018809	8.7012e-05	1168.3	6.0828e-06	3.8422e-06	1235.6	241.45	5.4305e-06	8.386e-07	303.92	85.641	67.333	19.547	9.7537e-06	27.581	0.00091969	0.00089588	0.00024988	1250.3	1.0314e-05	9.4012e-06	1237.8	249.23	9.9307e-06	9.5239e-06	315.26	91.203	71.872	21.329	1.019e-05	30.565	10.944	49.300	154.357	-87.150	140.829	99.504	-87.072	-80.107	100.843	165.258	-80.466	-73.481	-73.289	-66.481	76.077	-67.066	-8191	255	
1413.052	1	1	0	0	0.16593	0.10518	0.10449	0.22424	0.17633	0.21516	0.1546	0.28701	0.2707	0.10866	0.31103	0.082176	0.038051	0.1197	0.17815	0.12485	-2.4583	-2.4	-2.95	-2.7125	-2.5917	-2.875	-2.7938	-2.7854	-2.6167	-2.5104	-2.9229	-2.5687	-2.6667	-2.8875	-2.625	-2.5896	212.047	12.616	92.069	121.027	240.485	128.766	160.903	-35.951	82.529	96.307	-95.172	105.059	-57.034	252.712	-95.760	-24.873	0.00032104	0.00043686	0.00011606	1170.3	4.3992e-06	3.5498e-06	1232.6	241.14	5.4105e-06	2.3691e-06	304.38	85.679	67.121	19.482	2.881e-06	27.469	0.00086856	0.00085931	0.00026139	1243	9.9096e-06	9.2283e-06	1241	248.97	9.6743e-06	9.483e-06	317	91.205	71.724	21.396	1.077e-05	30.519	25.555	22.221	4.575	-86.908	30.946	120.144	-87.101	-80.075	100.687	-14.256	-80.572	-73.613	-73.451	-66.293	18.832	-67.304	-8191	255	
1413.146	1	1	0	0	0.25891	0.20748	0.20291	0.16303	0.38263	0.304	0.21749	0.37826	0.18715	0.23254	0.20479	0.042386	0.079072	0.10692	0.042615	0.064645	-2.2646	-2.4917	-2.8583	-2.8917	-2.4292	-2.9521	-2.6583	-2.6688	-3.0042	-2.5396	-2.8833	-2.6396	-2.5625	-3.0333	-2.5292	-2.65	160.977	104.129	261.441	30.075	117.146	-17.235	234.329	223.868	-89.655	168.606	-67.940	91.379	-19.257	171.979	21.738	35.277	0.00028943	0.00083753	0.00011667	1173.4	3.7852e-06	8.9998e-06	1242.1	241.67	9.8958e-06	1.1939e-06	304.48	85.591	67.509	19.607	4.2235e-06	27.72	0.0008662	0.00087845	0.000278	1237.3	9.7573e-06	9.5494e-06	1246.3	248.73	9.5736e-06	9.8454e-06	317.91	91.047	71.85	21.562	1.1238e-05	30.506	17.051	85.280	91.747	-86.993	-34.591	94.234	-86.916	-80.278	-69.458	-68.156	-80.463	-73.740	-73.052	-66.464	27.333	-66.731	-8191	255	
1413.242	1	1	0	0	0.17773	0.051274	0.17802	0.069189	0.17061	0.29403	0.23852	0.14235	0.06557	0.22689	0.16813	0.23609	0.25387	0.33616	0.18752	0.23838	-2.4792	-2.4813	-2.9042	-2.8146	-2.4	-2.9229	-2.9	-2.6396	-2.9875	-2.3917	-2.8771	-2.9042	-2.2917	-2.8208	-2.8396	-2.7083	136.660	177.310	34.517	105.639	256.972	67.589	190.062	237.925	123.923	61.575	216.981	-79.719	123.692	238.588	-29.164	109.478	0.00033135	0.00078498	8.5975e-05	1165.8	2.0155e-06	1.9377e-06	1237.8	241.78	9.54e-06	7.4371e-06	304.82	85.437	67.346	19.595	7.5606e-06	27.622	0.00085708	0.00095025	0.00028749	1235.2	9.9331e-06	1.0463e-05	1246.7	249.15	9.6722e-06	1.0853e-05	318.8	91.134	71.864	21.81	1.1173e-05	30.491	-6.076	40.818	2.175	-87.212	47.022	191.765	-86.907	-80.144	71.868	260.036	-80.543	-73.586	-73.385	-66.344	51.035	-67.505	-8191	255	
1413.363	1	1	0	0	0.26243	0.044187	0.18506	0.35016	0.12752	0.13178	0.25829	0.41446	0.22976	0.15012	0.2047	0.15625	0.24322	0.015847	0.035076	0.16295	-2.7271	-2.4396	-2.7229	-3.0146	-2.4917	-2.9437	-2.9271	-2.6375	-3.0604	-2.5875	-2.8021	-2.8625	-2.525	-2.8979	-2.6688	-2.4646	-37.018	111.602	149.102	34.632	30.791	246.693	236.796	229.229	33.596	201.205	225.523	188.911	195.545	9.452	256.808	170.155	0.00010966	0.00058855	0.0001736	1164	2.5717e-06	6.1255e-06	1237.9	242.23	3.9216e-06	8.2294e-06	304.54	86.3	67.599	19.603	1.283e-05	27.673	0.0008627	0.0010126	0.0002824	1231	9.8256e-06	1.1053e-05	1245.1	249.01	9.5905e-06	1.1215e-05	317.3	90.973	71.97	21.883	1.051e-05	30.326	-23.337	178.389	46.912	-87.206	113.140	168.406	-87.009	-80.050	98.677	175.572	-80.382	-73.590	-73.217	-66.624	105.593	-66.529	-8191	255	
1413.459	1	1	0	0	0.028021	0.14868	0.17464	0.26948	0.071063	0.12436	0.36551	0.24009	0.22295	0.061766	0.41725	0.20038	0.23929	0.087006	0.25904	0.08936	-2.625	-2.475	-2.7083	-2.8854	-2.5354	-2.8979	-2.8479	-2.6917	-3.0042	-2.6896	-2.8229	-2.9688	-2.5042	-2.8312	-2.8688	-2.5271	-71.324	88.964	14.420	213.129	28.272	131.851	213.643	133.684	-92.557	14.989	-46.431	252.009	-41.289	189.109	143.484	34.112	0.00039794	0.0004602	7.7562e-05	1173.5	2.6932e-06	5.2828e-06	1235	241.89	8.6146e-06	6.5061e-06	303.08	85.965	67.91	19.665	1.7309e-06	27.678	0.0008639	0.0010234	0.0002639	1226.3	9.9619e-06	1.1011e-05	1240.6	248.44	9.8739e-06	1.1043e-05	315.94	90.614	72.39	21.836	9.8239e-06	30.172	-24.117	245.579	-50.892	-87.261	79.830	5.523	-87.145	-79.821	235.236	89.643	-80.487	-73.843	-73.404	-66.201	-34.751	-67.334	-8191	255	
1413.555	1	1	0	0	0.31709	0.05023	0.09971	0.07893	0.075668	0.039524	0.14262	0.20306	0.10877	0.24018	0.16834	0.24458	0.060406	0.30024	0.098095	0.22085	-2.3083	-2.6417	-2.4417	-2.9583	-2.4604	-2.9125	-2.8042	-2.5458	-2.9542	-2.6875	-2.6896	-2.9396	-2.625	-2.6708	-2.9646	-2.5812	61.451	127.099	-41.043	236.431	187.007	91.563	99.799	37.670	-62.132	162.723	180.444	253.957	-15.805	47.536	17.088	-24.850	0.00058736	0.00036628	0.00031016	1175.3	4.9289e-06	6.3612e-06	1237.8	242.7	9.2762e-06	1.0045e-05	305.02	86.524	67.706	19.664	9.2315e-07	27.849	0.00089464	0.00097547	0.00025053	1220.4	1.018e-05	1.066e-05	1239.7	248.44	1.0256e-05	1.0452e-05	315.4	90.589	72.515	21.721	9.4648e-06	30.208	-34.392	112.504	-42.635	-87.231	175.204	-40.167	-86.881	-79.823	160.373	53.503	-80.425	-74.092	-73.371	-66.742	69.670	-66.783	-8191	255	
1413.676	1	1	0	0	0.043179	0.065922	0.39265	0.091597	0.21201	0.10126	0.077737	0.072194	0.070012	0.02822	0.18956	0.11678	0.2981	0.23933	0.14093	0.39184	-2.6333	-2.8312	-2.5083	-2.9479	-2.7458	-2.8104	-3.175	-2.7292	-2.7125	-2.7208	-2.6417	-3.0938	-2.7771	-2.5938	-2.9979	-2.5792	-30.862	83.694	-48.547	217.114	259.742	237.086	156.628	149.795	-13.585	-12.345	170.697	75.168	208.901	225.920	124.764	243.986	0.00034728	0.00060082	0.00016759	1177.4	4.327e-06	5.6938e-06	1239.6	242.84	2.2864e-06	6.4975e-06	306.46	86.311	68.179	19.694	3.3874e-06	27.544	0.00093272	0.0009243	0.00024307	1223.8	1.0561e-05	9.9885e-06	1240.2	248.65	1.0546e-05	9.839e-06	314.56	90.552	72.837	21.63	8.966e-06	30.279	-50.475	-27.145	37.494	-87.186	141.133	16.736	-87.086	-79.911	139.014	105.089	-80.248	-74.007	-73.588	-66.897	11.074	-67.355	-8191	255	
1413.748	1	1	0	0	0.29533	0.15728	0.042263	0.28667	0.093623	0.065485	0.33041	0.16927	0.21593	0.095449	0.1547	0.040533	0.073237	0.23611	0.14396	0.032656	-2.3104	-2.7667	-2.55	-3.0917	-2.5312	-2.6521	-3.0312	-2.5187	-2.9771	-2.8979	-2.4813	-2.9667	-2.7188	-2.6167	-2.9042	-2.6042	-53.748	-14.319	-51.874	-49.461	-61.559	-65.740	223.955	166.041	-96.472	138.501	-71.998	205.271	255.840	241.490	135.398	206.279	0.00015326	0.0013094	0.00023815	1184.5	5.281e-06	9.9592e-07	1243.7	241.28	1.6241e-06	8.775e-07	305.86	86.062	68.106	19.687	4.307e-06	27.609	0.00092685	0.00087266	0.00023313	1228.7	1.0508e-05	9.6524e-06	1240.5	248.89	1.0472e-05	9.5064e-06	314.57	91.054	72.54	21.52	8.7518e-06	30.424	-16.668	1.189	-38.342	-86.905	5.518	-54.425	-86.974	-79.971	121.346	205.229	-80.327	-73.583	-73.300	-66.242	57.615	-66.760	-8191	255	
1413.844	1	1	0	0	0.12264	0.17162	0.068738	0.23979	0.13994	0.18998	0.072611	0.090307	0.25905	0.025641	0.16081	0.15841	0.11777	0.10423	0.22801	0.2594	-2.3583	-2.8458	-2.2562	-2.9667	-2.725	-2.5417	-3.25	-2.7083	-2.5479	-2.8354	-2.4229	-3.0312	-2.7729	-2.6167	-2.9479	-2.5625	-66.927	54.385	-7.630	196.666	180.081	-19.415	170.735	223.291	198.919	142.471	208.290	90.524	206.806	3.979	201.331	256.606	0.00038129	0.00022887	0.0001125	1171.6	4.0316e-06	2.6342e-06	1242.5	242.39	6.3547e-06	9.8323e-06	304.77	86.417	67.568	19.891	1.9178e-06	27.933	0.00089556	0.00083711	0.00022433	1234.2	9.7851e-06	9.1606e-06	1239.6	249.31	9.7931e-06	8.973e-06	313.69	91.382	72.048	21.514	8.6339e-06	30.549	-43.741	-22.192	-4.111	-87.380	3.267	150.414	-87.005	-80.040	-25.950	116.273	-80.511	-73.626	-73.458	-66.622	92.225	-66.834	-8191	255	
1413.940	1	1	0	0	0.26026	0.065272	0.17243	0.19818	0.094923	0.25584	0.20131	0.17096	0.073503	0.096975	0.067858	0.24053	0.084849	0.22819	0.15946	0.16785	-2.2125	-2.6083	-2.3375	-2.9146	-2.7521	-2.6521	-2.9792	-2.7583	-2.6917	-2.8896	-2.7833	-2.7917	-2.8396	-2.4083	-2.9875	-2.7667	78.078	209.349	-3.612	207.391	250.602	14.778	195.921	134.566	178.362	-64.396	-87.105	99.281	-64.196	-95.209	209.135	235.777	0.00029423	0.00055744	5.0367e-05	1174.7	2.2943e-06	5.7398e-06	1240.4	242.94	9.1265e-06	7.3169e-06	305.4	86.56	67.348	19.659	5.4078e-06	27.792	0.00084205	0.00079296	0.0002226	1234.1	9.194e-06	8.693e-06	1238.3	249.33	9.0788e-06	8.4417e-06	314.04	91.257	71.5	21.28	8.9459e-06	30.4	69.904	-29.413	34.973	-87.167	-35.367	-10.118	-87.074	-80.103	50.220	27.410	-80.255	-73.719	-73.579	-66.497	141.488	-66.875	-8191	255	
1414.059	1	1	0	0	0.11936	0.14489	0.16846	0.2685	0.02967	0.10753	0.083425	0.30636	0.24057	0.21966	0.31327	0.1058	0.17399	0.12699	0.18946	0.19608	-2.2438	-2.9813	-2.4583	-2.8292	-2.6792	-2.5146	-3.0021	-3.0625	-2.5146	-2.9	-2.5958	-2.75	-2.9708	-2.4604	-2.7833	-2.6354	-70.700	97.684	-31.619	157.516	175.265	117.837	152.074	229.691	51.885	-0.138	223.559	63.566	219.217	-86.950	105.366	216.271	0.00024654	0.00025431	0.00023302	1183.2	5.1582e-06	1.0124e-05	1240.4	242.55	2.566e-06	4.3157e-06	304.82	86.841	67.777	19.806	6.0886e-06	27.842	0.00080445	0.00076351	0.00023497	1229.7	8.9076e-06	8.4645e-06	1240.3	248.88	8.877e-06	8.2904e-06	315.18	91.058	71.478	21.351	9.4817e-06	30.334	6.138	-18.155	144.294	-87.018	112.764	30.097	-87.074	-79.827	21.264	206.896	-80.459	-73.985	-73.812	-66.737	229.234	-66.986	-8191	255	
1414.155	1	1	0	0	0.25019	0.044331	0.21604	0.075108	0.25079	0.066161	0.11392	0.076772	0.054456	0.084614	0.26102	0.1352	0.33613	0.15741	0.098524	0.12167	-2.1208	-3.0625	-2.6937	-2.8563	-2.875	-2.5792	-3.0542	-2.9167	-2.525	-2.8438	-2.7104	-2.7646	-2.9979	-2.5938	-2.8104	-2.8667	102.117	98.971	89.135	43.473	89.491	52.862	182.341	17.641	256.959	194.536	204.418	258.582	-58.112	81.630	128.145	-37.020	0.00023596	0.00019304	0.00016753	1182.8	8.1656e-06	9.388e-06	1245.2	242.83	3.5155e-06	6.0986e-06	306.46	86.704	68.062	19.81	6.252e-06	27.955	0.00078136	0.00076216	0.00024517	1232.6	8.5715e-06	8.6455e-06	1243.8	248.74	8.7337e-06	8.6092e-06	316.45	91.128	71.287	21.442	9.69e-06	30.225	-13.141	-9.442	79.769	-86.576	111.928	119.676	-87.105	-80.135	-5.264	131.281	-80.276	-73.962	-73.303	-66.569	29.337	-66.953	-8191	255	
1414.251	1	1	0	0	0.11473	0.057153	0.35984	0.066847	0.12659	0.17172	0.33882	0.14392	0.27966	0.22153	0.28051	0.17765	0.08141	0.14337	0.2293	0.026288	-2.1083	-2.9437	-2.5479	-2.7708	-2.8812	-2.6167	-2.9917	-3.0896	-2.5458	-2.9813	-2.8708	-2.7438	-2.8979	-2.5062	-2.75	-2.9938	147.297	156.780	-8.127	115.242	-39.799	197.212	216.676	232.452	186.189	152.398	179.208	-66.494	-94.969	-52.257	244.327	202.494	0.0001574	0.00030262	0.00011267	1186.7	3.1592e-06	2.6226e-06	1238.5	242.18	9.8991e-06	6.3814e-06	306.58	86.671	67.618	19.794	3.6519e-06	27.978	0.00075588	0.00078731	0.00024662	1220.1	8.1865e-06	8.8301e-06	1243	247.69	8.2971e-06	8.8991e-06	315.74	90.63	70.991	21.541	9.3885e-06	30.142	10.844	141.353	24.337	-86.816	110.187	135.559	-87.112	-79.739	-34.255	-30.445	-80.324	-73.898	-73.103	-66.494	151.393	-66.897	-8191	255	
1414.323	1	1	0	0	0.11708	0.089284	0.046182	0.1249	0.36438	0.10634	0.092977	0.11034	0.10658	0.17669	0.11264	0.24113	0.096449	0.14662	0.30204	0.28465	-2.1979	-2.7729	-2.5104	-2.6562	-2.9417	-2.5	-2.9042	-2.9833	-2.3896	-2.9958	-2.7208	-2.7062	-3.0062	-2.6354	-2.7292	-3.0062	-83.023	106.777	69.932	256.291	130.040	-12.026	136.595	-93.506	-36.336	-71.986	-82.554	229.527	-76.291	141.045	52.494	206.833	3.5817e-05	0.0006363	0.00015235	1179	2.5304e-06	7.7785e-06	1238.2	243	6.5389e-06	3.5004e-06	305.87	86.604	68.121	19.796	7.9511e-06	27.858	0.00072986	0.00082613	0.00023579	1216.6	8.0097e-06	9.2238e-06	1240.8	247.62	8.2336e-06	9.289e-06	314.51	90.556	71.371	21.653	8.9944e-06	30.033	8.410	31.487	260.461	-87.018	68.128	193.052	-86.903	-79.971	-10.622	160.953	-80.514	-73.983	-73.192	-66.742	68.690	-67.008	-8191	255	
1414.443	1	1	0	0	0.10588	0.065223	0.21784	0.15679	0.22117	0.10703	0.25178	0.28152	0.077325	0.088628	0.17543	0.2799	0.095828	0.11249	0.20685	0.28427	-2.0375	-2.8875	-2.5979	-2.3896	-2.9958	-2.5208	-2.775	-2.8229	-2.475	-2.8479	-2.9896	-2.5042	-2.8875	-2.6292	-2.7604	-2.9792	-74.341	-59.192	150.041	211.353	194.592	-68.167	181.072	215.022	-98.116	240.054	159.068	214.181	-84.946	-38.876	-79.507	47.311	0.00027965	0.0002982	0.00018995	1174.7	7.9304e-06	1.0855e-06	1240.4	244.9	6.137e-06	4.938e-06	306.6	86.649	67.863	19.727	6.0187e-06	28.001	0.00073902	0.00085218	0.00022261	1210.9	8.1228e-06	9.3827e-06	1238.9	247.7	8.4327e-06	9.4208e-06	313.91	90.412	71.602	21.644	8.4955e-06	29.954	-8.093	-81.864	-17.457	-87.097	-25.257	-60.109	-87.269	-80.447	199.859	191.285	-80.409	-73.935	-73.475	-66.597	82.962	-66.912	-8191	255	
1414.540	1	1	0	0	0.29911	0.073515	0.12372	0.35396	0.091309	0.022132	0.15797	0.2741	0.29222	0.071025	0.1049	0.10029	0.14449	0.50342	0.22067	0.16326	-2.1562	-2.8021	-2.775	-2.6125	-2.8917	-2.8187	-2.675	-3.0167	-2.5083	-2.9104	-3.0521	-2.525	-3.0354	-2.6708	-2.5354	-3.0896	-39.004	221.402	70.019	204.303	-88.483	94.895	193.414	115.738	94.114	240.718	102.068	-96.448	-57.174	177.753	234.478	118.727	0.00017408	0.00086336	6.4791e-05	1183.1	3.3438e-06	7.4567e-06	1241.6	242.95	4.365e-06	5.3358e-06	304.99	87.301	68.095	19.935	4.0292e-06	27.934	0.000774	0.00085179	0.00021265	1209.2	8.656e-06	9.1992e-06	1238.9	246.61	8.7747e-06	9.1681e-06	312.55	90.412	71.899	21.662	8.2525e-06	29.937	-49.173	-33.517	-85.376	-86.991	178.608	50.340	-87.059	-80.133	147.225	39.796	-80.320	-73.796	-73.166	-66.593	-20.256	-67.106	-8191	255	
1414.636	1	1	0	0	0.024694	0.14587	0.19354	0.10387	0.14157	0.08329	0.10875	0.091726	0.22269	0.099491	0.20361	0.08818	0.11345	0.13937	0.10223	0.04293	-2.1104	-2.7375	-2.8812	-2.525	-2.7583	-2.675	-2.6292	-3.1354	-2.6542	-2.6792	-3.0896	-2.5354	-2.9083	-2.7146	-2.3979	-2.9333	78.568	-82.370	166.742	66.429	215.153	-95.319	205.170	98.315	188.256	22.031	-48.707	166.417	205.462	-57.168	49.941	-43.002	0.00018888	0.00015727	0.00014837	1179.6	4.5291e-06	6.7567e-06	1245.9	244.63	1.0584e-06	7.18e-06	305.87	86.642	67.918	20.022	2.6664e-06	28.1	0.00080124	0.00081167	0.00020596	1209.6	9.0318e-06	8.8376e-06	1239.3	247.84	9.1843e-06	8.796e-06	312.85	90.592	72.154	21.583	8.0801e-06	30.068	-47.741	89.251	-19.394	-86.590	221.271	50.495	-87.085	-80.052	-54.394	76.806	-80.543	-73.589	-73.552	-66.663	90.525	-67.110	-8191	255	
1414.756	1	1	0	0	0.15066	0.16291	0.089742	0.048092	0.22279	0.15339	0.25084	0.36863	0.14657	0.085244	0.24891	0.21483	0.16404	0.28305	0.20085	0.15355	-2.0812	-2.6146	-2.9292	-2.5583	-2.9813	-2.85	-2.5812	-3.0833	-2.6479	-2.5979	-3.0208	-2.5667	-2.7479	-2.8292	-2.4125	-2.9437	131.419	53.449	-80.612	176.103	5.649	151.065	-88.297	211.046	-54.191	98.770	242.985	-63.674	-49.412	-31.206	135.003	223.294	0.0001143	0.00058892	0.00030122	1186.7	2.174e-06	2.4391e-06	1243.8	244.23	4.2315e-06	6.2467e-06	305.73	87.432	68.554	19.967	9.1662e-06	28.04	0.00081361	0.00077919	0.00019818	1214.5	9.1326e-06	8.3485e-06	1238.2	248.3	9.0085e-06	8.2524e-06	312.46	90.768	72.022	21.431	7.8123e-06	30.289	-25.614	-39.154	-51.025	-87.124	104.277	-13.328	-86.988	-80.329	26.175	58.173	-80.631	-73.606	-73.442	-66.394	55.856	-67.131	-8191	255	
1414.851	1	1	0	0	0.23549	0.3878	0.048275	0.029126	0.18085	0.088891	0.1525	0.26985	0.12179	0.023825	0.15364	0.12863	0.13609	0.25686	0.20068	0.086256	-2.1479	-2.5771	-2.9417	-2.6	-2.8917	-2.9521	-2.65	-2.6792	-2.6542	-2.4625	-3.0812	-2.6792	-2.8083	-2.9771	-2.5458	-2.8312	14.337	133.998	184.242	213.091	-47.832	-96.276	213.418	251.844	78.480	-79.062	-65.616	154.022	105.278	194.675	96.362	-63.003	0.00028113	0.0004556	0.00015128	1190	2.4113e-06	5.6626e-06	1245	244.51	9.9997e-06	7.3239e-06	307.25	87.084	68.068	20.054	1.6501e-06	28.081	0.00079094	0.00075083	0.00019337	1219.6	8.8951e-06	7.9893e-06	1236.6	248.74	8.6324e-06	8.0854e-06	312	90.972	71.853	21.435	7.7527e-06	30.344	32.058	-32.448	-23.213	-86.861	2.983	2.622	-87.132	-80.292	-51.676	156.250	-80.459	-73.392	-73.632	-66.695	52.195	-67.029	-8191	255	
1414.947	1	1	0	0	0.10024	0.22206	0.18108	0.37814	0.10291	0.066393	0.2225	0.23672	0.12394	0.26459	0.28822	0.12507	0.16286	0.06261	0.28865	0.093942	-2.2958	-2.6021	-3.1229	-2.75	-2.8167	-3.0583	-2.7229	-2.9271	-2.8229	-2.4292	-3.0375	-2.6396	-2.5229	-2.9542	-2.5125	-2.7229	88.656	175.950	191.030	-41.800	253.218	261.421	222.056	245.408	46.277	-95.087	256.259	162.293	124.603	-2.750	231.806	250.912	0.00013903	0.00026537	7.4951e-05	1183.1	4.2269e-06	4.9149e-06	1245.1	243.59	1.1156e-05	7.927e-06	306.91	87.434	68.447	19.962	5.8815e-06	28.27	0.00075218	0.00072486	0.00019475	1226.2	8.3435e-06	7.6571e-06	1238.9	249.09	8.1724e-06	7.7225e-06	312.9	91.174	71.798	21.286	8.1037e-06	30.396	-10.027	-11.054	-64.051	-86.947	59.747	59.691	-87.122	-79.859	36.242	86.069	-80.553	-73.760	-73.116	-66.551	235.862	-66.866	-8191	255	
1415.045	1	1	0	0	0.24947	0.31757	0.099883	0.30818	0.087534	0.26782	0.36884	0.17866	0.2019	0.13663	0.14823	0.18301	0.28366	0.11761	0.34488	0.16175	-2.3208	-2.4458	-3	-2.7438	-2.675	-3	-2.6437	-2.7104	-2.7333	-2.4813	-2.8083	-2.7604	-2.7104	-3.1104	-2.3375	-2.7854	141.562	-25.526	242.800	176.848	63.940	44.720	-94.771	260.793	-61.513	77.882	260.195	142.706	206.602	-87.790	251.630	40.426	0.00024538	0.00010323	0.00022413	1189.6	1.9955e-06	6.3295e-06	1240	244.28	2.961e-06	1.1864e-05	306.62	86.792	68.43	20.037	2.5504e-06	28.212	0.00072312	0.00069682	0.00020327	1221.9	7.9927e-06	7.3455e-06	1236.6	248.86	7.7572e-06	7.5224e-06	313.59	90.889	71.444	21.281	8.3101e-06	30.213	-8.774	75.613	42.264	-87.428	-56.730	59.736	-87.089	-80.117	82.786	142.061	-80.273	-74.143	-73.559	-66.582	236.140	-67.156	-8191	255	
1415.139	1	1	0	0	0.17674	0.11412	0.14956	0.17313	0.12347	0.19318	0.074693	0.092671	0.26561	0.07546	0.17175	0.11601	0.19698	0.19686	0.11606	0.30583	-2.45	-2.5417	-2.8354	-2.7458	-2.6521	-2.9333	-2.6396	-2.6375	-2.9583	-2.55	-3	-2.8354	-2.4521	-3.0771	-2.6396	-2.8042	201.991	230.301	-82.458	-79.111	193.430	154.212	153.308	-78.246	55.329	-71.682	230.936	-73.532	189.388	-47.822	233.982	238.827	0.00023468	0.00045871	6.1325e-05	1185.1	2.475e-06	3.4193e-06	1237.7	244.38	4.3681e-06	8.0953e-06	307.29	87.316	68.272	19.85	6.3439e-06	28.38	0.00067442	0.00068067	0.00021071	1212.3	7.6695e-06	7.2576e-06	1235.4	248.5	7.4428e-06	7.486e-06	313.94	90.579	71.236	21.269	8.6057e-06	30.285	-36.736	-57.282	-8.509	-87.147	47.567	158.806	-87.257	-80.536	32.768	75.362	-80.160	-73.642	-73.398	-66.496	86.508	-66.996	-8191	255	
1415.235	1	1	0	0	0.18237	0.19956	0.25167	0.1397	0.40275	0.17338	0.20101	0.12527	0.10751	0.12182	0.043645	0.15119	0.21276	0.066989	0.24588	0.14418	-2.55	-2.4042	-2.8292	-2.6479	-2.5854	-2.9646	-2.8667	-2.7979	-3.1083	-2.7062	-2.9542	-2.9104	-2.5	-3.1083	-2.7188	-2.775	-50.540	143.014	35.666	221.981	252.553	3.170	185.189	226.141	247.772	-66.818	249.808	-91.105	67.031	14.263	160.512	222.061	0.00027734	0.00054943	0.0001322	1188.7	9.9044e-07	2.2687e-06	1242.2	244.6	7.1654e-06	2.4608e-06	307.24	87.707	68.644	20.026	5.8394e-06	28.231	0.00066518	0.00070743	0.00021815	1206.3	7.5542e-06	7.7578e-06	1239	248.18	7.3455e-06	8.0658e-06	315.53	90.678	71.438	21.508	8.4612e-06	30.134	33.207	156.434	56.981	-86.946	90.684	76.199	-87.241	-79.857	-45.522	110.528	-80.344	-74.041	-73.522	-66.405	119.992	-67.134	-8191	255	
1415.356	1	1	0	0	0.04747	0.27111	0.19858	0.087661	0.14717	0.19198	0.4831	0.28089	0.16848	0.3059	0.27904	0.026539	0.16269	0.25166	0.42183	0.12435	-2.6542	-2.575	-2.7979	-3.0458	-2.4021	-2.9562	-2.8	-2.5729	-3.0458	-2.6833	-2.9271	-2.8708	-2.3521	-3.0729	-2.6979	-2.6937	-10.651	111.863	169.351	144.683	52.414	-63.927	236.210	204.404	255.553	180.869	52.842	138.346	-72.024	194.744	-16.009	96.353	0.00049029	0.00042867	0.00016205	1181.9	2.2055e-06	4.3556e-06	1241.2	244.09	5.6999e-06	2.3205e-06	306.77	86.443	68.072	19.885	2.166e-06	28.015	0.00064584	0.00074572	0.00021464	1205.6	7.4039e-06	8.1323e-06	1240.7	247.79	7.3494e-06	8.4246e-06	314.81	90.303	71.357	21.622	8.4405e-06	30.104	15.046	72.388	-32.693	-86.966	-19.561	-65.187	-87.058	-79.964	113.705	218.329	-80.285	-74.142	-73.353	-66.740	85.092	-67.560	-8191	255	
1415.452	1	1	0	0	0.12268	0.19041	0.27244	0.12039	0.41598	0.065467	0.12787	0.1875	0.32163	0.16543	0.25884	0.12854	0.22559	0.14915	0.18728	0.26104	-2.5687	-2.5854	-2.7833	-2.9292	-2.4562	-2.8958	-2.8417	-2.6625	-2.9167	-2.5208	-2.6063	-2.9688	-2.5542	-2.7687	-2.9188	-2.6979	-13.599	102.864	176.947	98.014	9.823	-66.974	163.229	140.924	10.034	-16.761	250.307	212.231	236.210	-95.441	155.636	-18.412	0.0002676	0.00013822	0.00015896	1181	3.8099e-06	5.2419e-06	1240	244.61	4.3703e-06	2.4751e-06	306.72	87.381	67.651	19.906	6.82e-06	28.278	0.00067936	0.00081349	0.00021587	1203.9	7.8853e-06	8.8687e-06	1238.9	248.42	7.8669e-06	9.096e-06	314.72	90.493	71.487	21.768	8.3642e-06	30.153	-8.863	111.030	-9.480	-87.036	-49.942	26.824	-86.966	-80.016	194.258	129.298	-80.369	-73.927	-73.461	-66.260	48.682	-67.420	-8191	255	
1415.548	1	1	0	0	0.11046	0.030016	0.20202	0.1247	0.16751	0.16867	0.2514	0.10009	0.14858	0.1432	0.12438	0.1478	0.29062	0.29286	0.16311	0.073608	-2.5333	-2.6521	-2.4562	-2.8125	-2.5312	-2.8896	-3.0875	-2.6708	-3.0042	-2.8625	-2.7313	-2.8438	-2.625	-2.7708	-2.75	-2.5042	-97.801	261.436	15.242	211.927	-18.273	66.771	232.489	99.489	120.609	88.917	260.428	248.238	-88.453	198.553	18.557	243.697	0.00031101	0.00080101	0.00013525	1182.4	4.2073e-06	3.1716e-06	1245.3	244.92	3.184e-06	1.1666e-05	307.66	86.51	68.043	19.946	5.8776e-06	27.986	0.00073971	0.0008387	0.00021404	1207.4	8.5231e-06	9.196e-06	1240.8	248.02	8.4724e-06	9.0242e-06	314.41	90.256	72.076	21.693	8.1229e-06	29.967	9.369	13.306	144.745	-86.961	252.728	30.766	-86.936	-80.378	116.463	49.070	-80.183	-73.889	-73.262	-66.766	85.020	-67.366	-8191	255	
1415.620	1	1	0	0	0.20623	0.13877	0.20522	0.073882	0.12899	0.23074	0.20802	0.18226	0.17727	0.18254	0.022344	0.38568	0.10701	0.15274	0.11494	0.037519	-2.4854	-2.6167	-2.6312	-3.1083	-2.5542	-2.7625	-3.0771	-2.5396	-2.8708	-2.7542	-2.6229	-3.1063	-2.6146	-2.7	-2.6917	-2.5604	207.689	253.746	224.923	233.727	181.308	242.643	188.213	-83.348	-11.730	153.644	-10.350	220.309	-94.132	252.433	-64.134	139.177	0.00056818	0.0011964	0.00021612	1187.3	5.0022e-06	9.2048e-06	1240	244.33	3.1891e-06	5.2585e-06	306.4	86.861	68.286	20.046	3.1057e-06	27.873	0.0007907	0.000829	0.00021478	1209.6	9.3261e-06	9.151e-06	1238.9	248.75	9.4331e-06	9.1301e-06	315.21	90.777	72.525	21.779	8.6089e-06	30.252	-32.197	16.835	230.594	-87.132	-39.862	36.244	-87.225	-80.006	116.479	152.735	-80.587	-73.868	-73.027	-66.088	45.381	-66.868	-8191	255	
1415.741	1	1	0	0	0.11067	0.15711	0.032872	0.20947	0.21584	0.18298	0.042236	0.15571	0.22345	0.17635	0.1516	0.11667	0.094473	0.1018	0.19754	0.29588	-2.4583	-2.7667	-2.4646	-3.05	-2.6542	-2.6312	-3.0833	-2.6167	-2.8604	-2.7354	-2.6354	-3.1354	-2.6896	-2.6437	-2.9813	-2.6583	-7.089	-91.359	-28.551	240.954	246.839	204.397	142.113	207.448	42.807	-54.355	147.346	159.485	223.558	251.335	196.286	209.504	0.00035287	4.6782e-05	6.6276e-05	1181.9	8.6706e-07	5.8295e-06	1249.2	244.87	8.0445e-06	5.4082e-06	305.87	86.813	68.423	19.994	1.1135e-05	27.926	0.0008856	0.00085046	0.0002282	1229.1	1.0276e-05	9.6593e-06	1247.4	250.51	1.0628e-05	9.6866e-06	316.56	91.799	73.376	21.917	9.2516e-06	30.765	-40.067	182.437	41.757	-86.870	103.512	17.860	-87.170	-80.139	72.743	149.020	-80.439	-73.846	-73.341	-66.621	-7.043	-67.253	-8191	255	
1415.835	1	1	0	0	0.23318	0.040214	0.1983	0.11974	0.35481	0.42276	0.18216	0.24852	0.15918	0.081049	0.44918	0.15697	0.20485	0.17104	0.12167	0.099654	-2.4208	-2.8292	-2.425	-2.8125	-2.6479	-2.5583	-3.0083	-2.4938	-2.6562	-2.7229	-2.6208	-3.0333	-2.6521	-2.625	-3.1229	-2.5979	244.342	-42.512	134.310	-62.720	241.751	137.634	227.461	225.216	-50.306	236.135	163.636	166.769	144.653	97.713	-54.727	-84.869	8.733e-05	0.00035345	5.513e-05	1189.5	1.4547e-06	2.2022e-06	1253.6	244.78	5.8058e-06	6.3393e-06	308.87	86.899	67.993	19.917	5.3204e-06	27.952	0.00097244	0.00091893	0.00024561	1254.8	1.1141e-05	1.0392e-05	1251.9	252.8	1.1288e-05	1.0477e-05	319.69	92.945	73.656	22.072	1.0154e-05	31.284	-54.569	71.497	59.048	-87.470	214.540	-12.841	-87.072	-80.092	-3.954	58.567	-80.327	-74.020	-73.334	-66.488	-1.245	-67.268	-8191	255	
1415.931	1	1	0	0	0.13389	0.077882	0.23446	0.23665	0.17568	0.22697	0.051762	0.092051	0.10664	0.13771	0.047874	0.083901	0.25398	0.077045	0.087614	0.096674	-2.4313	-2.7979	-2.4583	-2.8312	-2.7458	-2.5021	-3.1792	-2.5542	-2.7854	-3.0854	-2.4875	-2.9479	-2.8312	-2.5417	-2.9	-2.8583	120.056	134.009	178.188	141.867	123.738	88.446	158.089	245.161	146.227	222.882	140.273	-75.260	-19.213	-7.010	96.542	-97.446	7.3978e-05	0.00044337	6.732e-05	1195.8	5.7154e-06	8.2315e-06	1248	245.39	5.4009e-06	1.1204e-05	307.38	86.493	68.407	19.866	6.1005e-06	27.975	0.0010357	0.00097117	0.00026993	1279.2	1.1444e-05	1.0814e-05	1254.5	253.98	1.1453e-05	1.0538e-05	321.13	93.278	73.701	22	1.0853e-05	31.328	12.199	25.435	215.840	-86.981	49.651	47.802	-87.087	-80.188	98.797	-12.826	-80.482	-74.232	-73.433	-66.466	258.756	-67.260	-8191	255	
1416.027	1	1	0	0	0.094716	0.26171	0.14923	0.17093	0.059178	0.13402	0.33169	0.088366	0.095135	0.047885	0.13636	0.16705	0.064518	0.12143	0.068977	0.14165	-2.2229	-2.9333	-2.4917	-2.8417	-2.7979	-2.5583	-3.2417	-2.6958	-2.6458	-3.0604	-2.6188	-2.9938	-2.9646	-2.5917	-2.9229	-2.7354	250.071	250.809	-34.479	238.273	195.265	116.932	256.393	160.024	87.660	140.618	52.282	183.116	-64.193	43.034	-53.621	134.620	0.00030325	0.00034566	0.00019853	1189.7	2.2878e-06	5.6186e-06	1246.5	242.12	1.5506e-05	9.9667e-07	303.65	86.014	67.803	19.621	5.5886e-06	27.812	0.0010101	0.00095657	0.00028316	1279.9	1.0875e-05	1.0471e-05	1252.1	251.25	1.0601e-05	9.7779e-06	317.82	92.107	72.484	21.581	1.062e-05	30.746	166.434	7.612	65.318	-86.504	148.223	62.000	-87.141	-80.151	-13.653	-86.641	-80.450	-73.891	-73.236	-66.586	214.618	-67.186	-8191	255	
1416.146	1	1	0	0	0.21432	0.033471	0.17668	0.074297	0.1603	0.11299	0.17992	0.10023	0.21758	0.14603	0.13962	0.17994	0.090084	0.19066	0.36634	0.17961	-2.4021	-3.1229	-2.6042	-3.0062	-2.7812	-2.6396	-3.225	-2.7875	-2.6688	-2.9104	-2.7542	-2.8396	-3.0146	-2.6458	-3.0604	-2.7917	204.529	-41.186	7.207	222.050	-87.042	227.745	-18.642	-60.566	-94.798	-89.190	244.996	227.775	-83.345	-55.899	249.704	70.128	0.00018999	0.00022131	6.9555e-05	1182.5	5.6292e-06	4.0541e-06	1243.6	242.17	5.3855e-06	1.0839e-05	305.28	86.244	67.715	19.583	3.638e-06	27.737	0.00089544	0.00085303	0.00027059	1247.2	9.7017e-06	9.55e-06	1246.1	249.27	9.8885e-06	9.3623e-06	318.22	91.399	71.974	21.515	1.0835e-05	30.506	-21.470	-7.919	235.152	-87.010	120.176	34.242	-87.037	-79.952	259.316	51.528	-80.457	-73.875	-73.177	-66.256	58.686	-67.068	-8191	255	
1416.220	1	1	0	0	0.11215	0.065536	0.15873	0.12853	0.12272	0.12847	0.02535	0.30923	0.23636	0.12325	0.1853	0.209	0.18657	0.1227	0.54386	0.083184	-2.2542	-2.9521	-2.4688	-2.7833	-2.975	-2.4813	-3.0687	-2.8875	-2.5146	-3.0521	-2.8292	-2.5208	-3.0687	-2.5896	-2.7042	-2.9188	47.164	77.369	130.313	-32.987	123.129	224.004	252.745	219.471	145.148	219.048	205.209	-19.118	-33.376	177.784	63.701	207.555	7.8209e-05	0.00062287	7.9152e-05	1170.3	9.0335e-06	3.5045e-06	1234.8	241.57	4.3755e-06	3.322e-06	305.47	86.052	67.744	19.507	8.1502e-06	27.686	0.00085532	0.00085594	0.0002767	1236.6	9.2369e-06	9.5558e-06	1241.7	247.67	9.3196e-06	9.3572e-06	316.51	90.781	71.342	21.46	1.0198e-05	30.125	85.267	170.735	56.152	-86.889	11.696	92.743	-86.741	-80.053	232.844	-16.862	-80.073	-73.825	-73.332	-66.398	53.151	-67.065	-8191	255	
1416.316	1	1	0	0	0.20737	0.059889	0.20511	0.13487	0.12798	0.105	0.15054	0.19013	0.15386	0.19974	0.096947	0.2783	0.085704	0.097421	0.2365	0.13813	-2.0667	-2.7854	-2.7521	-2.7292	-2.8583	-2.5104	-3.0104	-2.8417	-2.4104	-2.9521	-2.7292	-2.6104	-2.9167	-2.8833	-2.7812	-2.9104	-42.536	-66.075	75.368	215.634	226.955	244.954	154.224	179.000	97.700	-86.972	32.164	182.257	219.922	51.692	-23.041	-44.542	0.00016051	0.0007445	0.00025506	1171.5	7.1336e-06	2.7713e-07	1233	241.82	2.8591e-06	2.1518e-06	303.88	85.404	67.377	19.715	1.2637e-05	27.754	0.00079639	0.00086426	0.00025782	1221.9	8.6275e-06	9.7712e-06	1236.4	247.22	8.8346e-06	9.7616e-06	314.49	90.133	71.064	21.527	9.6446e-06	29.953	-38.032	141.788	-52.730	-86.806	103.252	66.764	-87.065	-80.041	43.557	165.798	-80.428	-73.866	-73.197	-66.159	55.311	-66.800	-8191	255	
1416.435	1	1	0	0	0.040826	0.18453	0.11204	0.23679	0.082338	0.18151	0.33855	0.19948	0.17063	0.14159	0.2662	0.068838	0.054694	0.12927	0.22854	0.14237	-1.9625	-2.9542	-2.6833	-2.5333	-2.9792	-2.5687	-2.8917	-3.0583	-2.5146	-2.775	-2.8479	-2.5875	-3.1083	-2.7708	-2.4979	-2.9	233.758	164.455	-56.816	203.062	-80.938	53.888	214.269	250.107	43.749	9.243	207.050	-59.062	120.321	-13.378	254.398	182.892	0.00030969	0.00032508	0.00010131	1165.6	3.1027e-06	7.0716e-06	1237.3	241.28	3.1824e-06	4.5939e-06	304.04	86.228	67.387	19.595	8.4569e-06	27.557	0.0007693	0.00088751	0.00024075	1212.1	8.368e-06	9.854e-06	1233.7	245.77	8.7001e-06	9.7442e-06	312.65	90.012	71.007	21.523	9.1689e-06	29.753	3.917	159.859	-34.279	-86.980	97.225	113.337	-87.188	-79.923	231.397	82.404	-80.425	-73.567	-72.983	-66.755	49.899	-66.590	-8191	255	
1416.531	1	1	0	0	0.15136	0.057801	0.061425	0.13451	0.28617	0.3025	0.38819	0.060705	0.25303	0.27027	0.28563	0.26866	0.29274	0.15566	0.25249	0.25785	-2.0438	-2.7229	-2.7646	-2.4646	-2.9688	-2.7333	-3.0125	-2.9896	-2.5854	-2.8021	-2.9208	-2.6771	-3.0708	-2.6688	-2.7125	-3.0958	-79.591	224.016	26.430	-36.188	148.662	249.568	237.880	52.876	184.342	95.014	160.688	256.609	250.455	129.659	63.068	190.779	0.00032309	0.00065444	0.00026189	1172.4	4.0345e-06	5.2142e-06	1229.5	240.7	1.0903e-05	4.5765e-06	304.08	85.903	67.443	19.679	2.236e-06	27.685	0.00080509	0.00091309	0.0002332	1211.5	9.1769e-06	1.024e-05	1232.5	246.1	9.6453e-06	1.0482e-05	313.35	90.371	72.024	21.759	9.7967e-06	30.047	-25.828	93.250	-84.040	-87.011	227.118	64.285	-86.971	-79.992	-23.124	64.648	-80.117	-73.715	-73.255	-66.687	81.333	-67.081	-8191	255	
1416.627	1	1	0	0	0.1022	0.20785	0.094378	0.067772	0.073097	0.26697	0.14576	0.081839	0.0079064	0.1185	0.16038	0.090977	0.12034	0.11988	0.1523	0.095135	-2.1125	-2.6979	-2.8896	-2.4542	-2.7854	-2.7062	-2.7417	-3.2042	-2.5542	-2.8625	-3.0646	-2.7	-3	-2.6813	-2.4979	-3.1458	-45.215	252.155	113.817	-61.249	28.258	181.887	147.857	-43.553	88.162	166.077	123.444	140.986	-24.695	220.037	-5.821	245.701	0.00034643	0.00073394	0.00011076	1179.4	3.0392e-06	6.9694e-06	1235.8	240.87	2.8514e-06	1.1585e-05	302.48	86.061	67.237	19.667	3.0301e-06	27.37	0.00093488	0.00098045	0.00024562	1224.2	1.0594e-05	1.0642e-05	1238.9	247.18	1.0748e-05	1.0666e-05	313.89	90.625	72.531	21.702	9.8033e-06	30.124	18.540	18.462	-36.325	-87.016	148.944	3.302	-87.029	-79.677	-35.221	101.133	-80.330	-73.725	-73.184	-66.677	-8.092	-66.921	-8191	255	
1416.723	1	1	0	0	0.21038	0.2265	0.075812	0.1278	0.24011	0.25945	0.13789	0.24436	0.098752	0.076977	0.22037	0.18855	0.14448	0.10701	0.22021	0.086612	-2.125	-2.6375	-2.9	-2.5563	-2.8812	-2.9333	-2.8292	-3.0833	-2.5958	-2.7521	-2.9542	-2.6146	-2.95	-2.9479	-2.6312	-2.9938	-29.770	145.358	185.397	236.815	238.325	-75.800	204.135	206.409	164.268	-35.066	132.283	237.743	-45.445	-87.637	176.413	-59.412	0.0004105	0.0012044	0.0001888	1178.2	4.1127e-06	8.7666e-06	1235.7	241.97	4.6988e-06	5.108e-06	303.58	85.938	67.504	19.7	4.1155e-06	27.462	0.00096533	0.00093973	0.00023737	1227.9	1.0666e-05	9.8369e-06	1236.6	247.23	1.039e-05	9.6256e-06	312.49	90.412	72.182	21.411	8.7583e-06	30.029	-27.882	8.326	-47.607	-86.735	152.552	83.055	-87.014	-80.176	-93.890	83.987	-80.373	-73.720	-73.350	-66.046	79.725	-66.821	-8191	255	
1416.844	1	1	0	0	0.23961	0.16708	0.1344	0.081438	0.2036	0.25025	0.04034	0.29229	0.20291	0.10314	0.12782	0.075929	0.15227	0.14168	0.049565	0.20715	-2.1583	-2.6729	-3.0104	-2.6354	-2.7458	-2.7396	-2.6896	-2.9917	-2.8104	-2.5938	-3.1396	-2.7042	-2.7333	-3.0333	-2.6125	-2.9938	104.920	-50.600	151.680	42.988	-93.276	178.988	254.095	243.303	-1.971	242.261	137.571	227.507	-71.991	-46.341	29.377	155.547	0.00033604	0.00051251	7.8527e-05	1166.3	7.1114e-06	2.0975e-06	1227.6	239.71	3.6287e-06	6.3128e-06	302.22	85.615	67.628	19.54	5.7346e-06	27.574	0.00089258	0.0008436	0.00021378	1220.5	9.8138e-06	8.7791e-06	1225.5	245.75	9.5199e-06	8.8567e-06	309.65	90.202	71.446	21.12	8.2646e-06	30.018	-20.191	56.609	125.157	-86.873	69.264	-49.237	-86.841	-79.750	151.151	135.248	-80.156	-73.440	-73.233	-66.271	37.006	-67.024	-8191	255	
1416.915	1	1	0	0	0.13591	0.08544	0.04414	0.059496	0.2086	0.18499	0.15639	0.33769	0.2318	0.17425	0.35049	0.12852	0.19948	0.24941	0.1063	0.17251	-2.3708	-2.6937	-2.9667	-2.5479	-2.7604	-3.0417	-2.8125	-3.0438	-2.775	-2.725	-3.1437	-2.8333	-2.6604	-2.8875	-2.5604	-2.8688	-94.262	159.715	82.923	-15.019	16.185	38.330	-7.189	172.514	-56.036	134.637	-91.330	-24.947	157.621	259.024	210.003	87.302	0.00013535	0.0010079	2.7409e-05	1157.8	6.6045e-06	6.8914e-06	1220.9	239.42	8.4241e-06	4.3348e-06	301.99	85.817	67.583	19.462	5.6856e-06	27.478	0.00081827	0.00078894	0.00020671	1215.3	9.2192e-06	8.4365e-06	1219.8	245.36	8.9625e-06	8.5753e-06	308.67	90.169	70.973	20.988	8.4749e-06	30.069	-37.648	10.192	85.347	-86.885	91.160	56.764	-87.188	-80.031	-38.634	157.459	-80.475	-73.469	-73.495	-66.267	238.085	-67.216	-8191	255	
1417.036	1	1	0	0	0.022191	0.12117	0.19674	0.10642	0.32541	0.1084	0.05518	0.20604	0.15513	0.24337	0.44698	0.14803	0.17854	0.34988	0.025399	0.033564	-2.3292	-2.3833	-2.8854	-2.6312	-2.7417	-3.0708	-2.75	-2.9562	-2.8312	-2.5583	-3.1229	-2.8646	-2.6125	-3.2167	-2.525	-2.8542	-45.154	258.904	-19.052	7.630	104.975	-71.604	-84.192	192.581	188.964	141.094	224.143	244.324	88.138	127.589	34.602	-67.298	0.00018911	0.00048985	0.00014093	1162.3	8.4261e-06	8.3912e-06	1212.5	239.76	4.7949e-06	1.0299e-05	301.25	84.969	67.329	19.381	8.0143e-06	27.469	0.00078963	0.00077238	0.00021592	1215	8.8457e-06	8.1417e-06	1217.8	245.58	8.6392e-06	8.3418e-06	310.14	89.849	70.644	20.965	9.0056e-06	29.994	119.036	40.431	-41.260	-86.984	55.370	68.724	-86.873	-79.957	25.273	70.207	-79.928	-73.691	-73.138	-66.346	65.767	-66.669	-8191	255	
1417.132	1	1	0	0	0.26777	0.36325	0.10089	0.15541	0.16863	0.18094	0.30577	0.15779	0.20312	0.21879	0.073088	0.14674	0.2425	0.14443	0.059536	0.082666	-2.3937	-2.5542	-2.9458	-2.9271	-2.4021	-3.0333	-2.9521	-2.8354	-2.9875	-2.7042	-2.8896	-2.9146	-2.6104	-2.9375	-2.5167	-2.8021	-84.879	126.056	42.709	183.436	98.542	37.010	156.972	148.368	84.139	135.073	142.589	-48.627	27.426	219.323	-74.100	-6.295	9.7168e-05	0.00020806	1.102e-05	1168.7	3.2697e-06	4.5856e-06	1218.2	238.65	5.6885e-06	1.842e-06	300.51	85.442	66.731	19.375	8.1507e-06	27.475	0.00076853	0.00076542	0.00023384	1212.7	8.8086e-06	8.2735e-06	1219.9	244.46	8.6561e-06	8.5705e-06	310.96	89.853	70.454	20.995	9.8831e-06	29.976	-81.184	85.953	250.411	-87.639	40.202	162.594	-87.152	-79.724	35.927	121.895	-80.290	-73.864	-73.220	-66.389	131.627	-66.703	-8191	255	
1417.228	1	1	0	0	0.094884	0.19897	0.12084	0.084792	0.13832	0.14622	0.18068	0.2805	0.13744	0.18609	0.11005	0.1922	0.27697	0.087899	0.062786	0.17686	-2.2979	-2.2271	-2.9792	-2.8083	-2.5021	-3.0333	-2.7292	-2.7958	-2.9604	-2.6188	-3.0417	-2.8917	-2.5875	-3.125	-2.7958	-2.8771	249.178	158.110	43.688	142.085	203.072	-18.749	188.918	-90.654	-81.234	-35.558	235.339	18.173	1.612	143.445	-9.336	-20.368	0.00013524	0.00029272	4.7258e-05	1155.8	5.2688e-07	3.6825e-06	1210.5	237.32	6.6645e-06	3.6091e-06	299.49	84.66	66.544	19.322	8.9793e-06	27.352	0.00078037	0.00081635	0.0002565	1208.8	9.2511e-06	8.9969e-06	1219.4	244.28	9.1267e-06	9.5605e-06	312.81	89.519	70.57	21.181	1.0807e-05	29.984	25.430	28.254	183.626	-87.140	32.752	188.273	-86.990	-79.874	-80.269	118.083	-80.158	-74.059	-73.403	-66.035	123.159	-66.618	-8191	255	
1417.323	1	1	0	0	0.28345	0.1799	0.12749	0.30849	0.18288	0.22654	0.092834	0.17488	0.072925	0.052568	0.15745	0.20865	0.20226	0.13347	0.17629	0.32005	-2.5833	-2.3396	-2.675	-2.7083	-2.4313	-2.9167	-2.8229	-2.725	-2.9625	-2.5396	-2.9271	-2.8708	-2.5104	-2.9875	-2.7625	-2.6375	6.607	204.844	227.296	172.478	-85.334	250.568	224.554	230.205	-5.432	220.439	247.406	-75.797	177.701	235.873	190.525	-50.539	0.00017329	0.00050377	0.00016893	1155.4	2.2416e-06	2.8743e-06	1217.8	239.03	6.3587e-06	6.8498e-06	300.76	85.372	67.023	19.295	7.268e-06	27.462	0.00081747	0.00091359	0.00027243	1209.3	9.289e-06	9.856e-06	1221.7	244.75	8.6995e-06	9.9054e-06	311.79	89.198	70.286	21.237	9.4825e-06	29.69	36.848	137.318	24.621	-86.544	194.774	124.158	-87.032	-79.859	240.564	196.130	-80.264	-73.656	-73.066	-66.366	113.337	-66.955	-8191	255	
1417.443	1	1	0	0	0.11932	0.21798	0.15381	0.1421	0.20498	0.22858	0.2475	0.22436	0.26726	0.062167	0.039007	0.20531	0.074364	0.18098	0.048824	0.23521	-2.425	-2.6167	-2.9292	-3.075	-2.5771	-2.9875	-2.8792	-2.5187	-2.9625	-2.5542	-2.7479	-3.0271	-2.6229	-3.0104	-2.8125	-2.5229	111.447	-97.666	25.271	-67.966	-18.406	210.156	235.108	182.136	137.112	-81.088	224.912	255.256	194.298	-82.067	8.039	231.295	1.2831e-05	0.00014596	2.3201e-05	1161.1	3.3573e-06	4.5424e-06	1221	238.83	8.6699e-06	9.6666e-06	300.75	84.806	66.484	19.474	1.9576e-06	27.341	0.00073769	0.00087844	0.00024007	1196.5	8.4861e-06	9.5159e-06	1220.8	243.69	8.1729e-06	9.5875e-06	309.6	88.608	70.193	21.215	8.6676e-06	29.494	22.687	255.511	-60.712	-86.467	64.546	108.288	-86.938	-80.094	-61.787	58.813	-80.345	-73.579	-73.047	-66.576	157.017	-67.092	-8191	255	
1417.515	1	1	0	0	0.16819	0.10036	0.066566	0.26564	0.32857	0.1647	0.26181	0.14479	0.12101	0.19633	0.097616	0.06332	0.066639	0.18404	0.11825	0.043556	-2.575	-2.5667	-2.6646	-2.9333	-2.3833	-2.9896	-3.0917	-2.7812	-2.9146	-2.8125	-2.7438	-3.1125	-2.5438	-2.9375	-2.7875	-2.45	68.618	-32.090	-25.010	126.329	214.663	125.947	223.210	224.333	156.607	-2.814	-21.467	91.067	172.709	-97.236	-88.383	169.099	5.3808e-05	0.0003122	0.00028781	1165	6.8301e-06	6.3737e-06	1219.7	239.37	6.5631e-06	4.3296e-06	300.71	85.165	66.553	19.359	3.0272e-06	27.484	0.00071769	0.00084129	0.00021602	1185.5	8.1892e-06	8.9796e-06	1217.1	242.46	7.9787e-06	8.8249e-06	307.57	88.304	69.946	21.06	7.5827e-06	29.143	130.426	-16.374	-19.976	-87.546	186.011	-11.445	-86.911	-79.926	120.260	61.889	-80.266	-73.687	-73.173	-66.442	31.725	-66.817	-8191	255	
1417.611	1	1	0	0	0.1463	0.077226	0.12676	0.13064	0.26321	0.047491	0.32897	0.25863	0.11572	0.14602	0.23007	0.080073	0.23803	0.11973	0.29629	0.031223	-2.6292	-2.5875	-2.5042	-3.0438	-2.5438	-2.7375	-2.9896	-2.725	-2.9229	-2.7771	-2.4625	-3.2292	-2.6292	-2.8979	-2.8958	-2.7708	260.601	72.226	34.857	13.766	65.330	198.433	196.027	158.187	-48.516	85.304	159.716	136.958	191.700	-84.823	241.458	9.057	0.00012993	0.0001206	5.506e-05	1161.1	6.0956e-06	6.6709e-06	1212.1	237.43	5.3978e-06	7.203e-06	300.18	84.89	66.655	19.485	8.5652e-06	27.373	0.00069736	0.00074492	0.00018795	1167	7.6963e-06	7.7795e-06	1206.9	239.83	7.6386e-06	7.6355e-06	304.84	87.393	69.792	20.811	6.9091e-06	28.978	7.390	223.602	-11.419	-87.120	132.667	98.084	-87.019	-79.972	163.435	28.908	-80.265	-73.618	-73.065	-66.839	259.044	-66.962	-8191	255	
1417.707	1	1	0	0	0.049309	0.16344	0.24465	0.25659	0.19304	0.033163	0.3228	0.048912	0.17278	0.05823	0.038565	0.10475	0.3023	0.097357	0.17009	0.31596	-2.4313	-2.6937	-2.5375	-2.9813	-2.6271	-2.7708	-3.1667	-2.6146	-2.9146	-2.8771	-2.6458	-2.9833	-2.6958	-2.65	-2.8354	-2.5333	192.449	44.233	-15.846	-96.355	-37.421	73.642	170.901	10.497	229.171	217.684	48.458	20.970	-77.705	-16.636	142.704	118.200	0.00020892	0.00046797	0.00012265	1146.9	2.1923e-06	1.0565e-06	1213.6	236.23	3.8101e-06	4.8529e-06	298.43	85.004	66.246	19.268	1.0463e-05	27.337	0.00068032	0.00065963	0.00017078	1156.5	7.485e-06	6.9765e-06	1199.9	239.18	7.3226e-06	6.7935e-06	302.67	87.227	69.284	20.55	6.296e-06	28.939	-2.633	29.337	-25.891	-87.487	-74.555	182.634	-86.921	-79.984	160.067	127.655	-80.306	-73.773	-73.060	-66.312	23.912	-66.651	-8191	255	
1417.803	1	1	0	0	0.13268	0.32037	0.13048	0.085656	0.37046	0.12445	0.25424	0.36007	0.11519	0.15524	0.24884	0.19947	0.26978	0.27872	0.18221	0.16854	-2.2729	-2.9458	-2.4688	-2.8333	-2.5667	-2.5792	-3.0396	-2.5021	-2.825	-2.8458	-2.5812	-3.0479	-2.7333	-2.7208	-2.825	-2.5729	-18.885	45.380	-57.066	238.699	-5.375	218.537	230.637	202.157	208.647	235.343	48.338	-66.846	167.717	-44.083	-33.139	64.492	0.00011426	0.00038533	0.00017348	1148.9	2.0617e-06	4.5587e-06	1209.2	237.6	7.7609e-06	4.9839e-06	297.28	84.604	66.975	19.454	6.5458e-06	27.27	0.00065288	0.0006103	0.00016198	1155.2	7.2959e-06	6.7018e-06	1197.3	240.01	7.277e-06	6.584e-06	301.9	87.69	69.302	20.55	6.2027e-06	29.104	14.690	54.443	13.922	-87.089	27.175	29.495	-86.917	-80.056	36.307	83.438	-80.344	-73.727	-73.203	-66.225	75.551	-66.934	-8191	255	
1417.924	1	1	0	0	0.056288	0.11985	0.18324	0.053652	0.011433	0.051951	0.40306	0.10515	0.10339	0.17669	0.0972	0.20192	0.076146	0.10717	0.031998	0.20854	-2.3688	-2.7646	-2.4562	-3.0417	-2.6437	-2.5	-3.2521	-2.7104	-2.9646	-2.9542	-2.7104	-3.0833	-2.7917	-2.5833	-2.7687	-2.7292	104.373	165.426	36.202	173.856	149.435	116.316	162.429	212.398	182.803	-33.497	133.483	183.139	120.672	-93.402	187.806	167.740	0.00012781	0.00029664	0.00030147	1147.6	2.4506e-06	1.268e-06	1215.9	237.43	7.1327e-06	6.0908e-06	300	84.233	66.896	19.537	1.8399e-06	27.628	0.00064694	0.00060121	0.00016272	1166.1	7.1252e-06	6.6466e-06	1201.5	240.93	7.079e-06	6.4354e-06	303.47	88.034	69.382	20.627	6.2839e-06	29.392	-0.719	35.282	26.451	-86.841	-49.967	237.696	-86.767	-79.879	12.870	71.086	-80.138	-74.132	-73.388	-66.583	234.949	-67.324	-8191	255	
1418.020	1	1	0	0	0.16319	0.15823	0.13506	0.025495	0.061367	0.1371	0.5222	0.14573	0.073349	0.11732	0.3041	0.07391	0.21223	0.19352	0.1699	0.1417	-2.2271	-2.8458	-2.5646	-2.8625	-2.8708	-2.6396	-3.0417	-2.7167	-2.6708	-2.9813	-2.6396	-2.8312	-2.9521	-2.5021	-3.0458	-2.6708	12.727	126.025	214.616	-77.406	124.634	223.801	245.200	-74.534	6.965	147.460	187.132	4.719	-39.729	42.441	54.747	-25.760	0.0001876	0.00041998	5.6406e-05	1151.9	4.2485e-06	5.5715e-06	1213	238.13	1.3327e-05	1.0939e-06	299.84	85.683	66.895	19.547	6.5011e-06	27.603	0.00061929	0.00058065	0.00016928	1179.7	7.1044e-06	6.8332e-06	1209.2	242.17	7.4966e-06	7.0398e-06	306.59	89.424	69.935	20.9	7.8964e-06	29.79	-79.511	-8.524	207.406	-87.213	58.425	41.012	-86.952	-80.109	18.251	48.121	-80.071	-73.821	-73.456	-66.211	89.045	-67.061	-8191	255	
1418.116	1	1	0	0	0.21869	0.046313	0.11079	0.045182	0.12173	0.14488	0.2579	0.17794	0.11916	0.13755	0.17047	0.1166	0.10912	0.15799	0.11441	0.10982	-2	-2.9313	-2.5125	-2.7208	-2.7729	-2.425	-3.0792	-2.7188	-2.375	-3.1708	-2.5583	-2.8312	-2.7479	-2.4667	-2.9021	-2.5792	172.802	238.823	222.030	130.834	50.716	196.006	205.384	117.217	-15.579	226.495	245.727	219.946	34.685	-90.944	-25.455	248.076	0.00016448	0.00027642	0.00016061	1165.1	3.3153e-06	1.1379e-05	1216.3	238.99	2.2419e-06	7.3077e-06	298.89	85.527	66.851	19.472	5.938e-06	27.319	0.00069756	0.00066384	0.00020907	1196.5	7.7772e-06	7.5823e-06	1214.4	243.47	8.0013e-06	7.4929e-06	308.87	89.483	70.051	20.97	8.6522e-06	29.718	-47.275	10.759	209.990	-86.665	122.346	51.066	-86.811	-80.097	-46.532	41.518	-80.455	-73.448	-73.480	-65.794	-82.632	-66.663	-8191	255	
1418.212	1	1	0	0	0.18733	0.19806	0.21627	0.28279	0.11938	0.11827	0.18015	0.22421	0.24844	0.14419	0.039501	0.29985	0.17705	0.10703	0.018393	0.2426	-2.0667	-3.025	-2.7438	-2.8583	-3.0333	-2.7208	-3.025	-2.6458	-2.6271	-3.0729	-2.725	-2.7792	-3.1521	-2.7917	-2.9375	-2.8125	88.288	84.911	24.260	213.227	257.292	169.688	171.073	191.067	63.549	-40.608	-16.703	-97.329	-51.888	-47.738	-38.871	-89.246	0.00020791	0.00026232	0.00011483	1155.6	3.6008e-06	3.9257e-06	1213.9	238.97	4.1511e-06	1.527e-06	300.11	85.544	67.015	19.493	2.3922e-06	27.663	0.00071407	0.00069362	0.00022472	1192.3	7.7683e-06	7.7912e-06	1214.4	243.39	7.883e-06	7.7761e-06	309.2	89.29	69.981	21.003	8.6305e-06	29.541	59.483	-26.385	139.974	-86.500	104.658	-56.925	-86.941	-80.047	-51.902	93.037	-79.983	-73.690	-73.111	-66.322	-16.946	-67.107	-8191	255	
1418.309	1	1	0	0	0.082452	0.038127	0.30945	0.025753	0.35013	0.14195	0.27114	0.20977	0.20489	0.14869	0.42756	0.20381	0.10642	0.29504	0.093756	0.17683	-2.0333	-2.8458	-2.5708	-2.8	-3	-2.5792	-3.0979	-2.85	-2.55	-3.0042	-2.9292	-2.7167	-3.0417	-2.5438	-2.8312	-2.8354	106.947	28.238	112.874	222.665	109.738	39.809	197.008	94.452	119.730	-74.935	-95.012	11.233	250.893	-35.978	191.610	-86.178	0.00032106	0.00025679	3.8686e-05	1159.1	3.0246e-06	2.4125e-06	1217.2	238.66	2.2599e-06	1.7769e-06	299.55	85.367	67.246	19.562	4.6601e-06	27.646	0.00064201	0.00065799	0.00019718	1166.3	6.1738e-06	6.5168e-06	1208.3	240.39	5.7818e-06	6.1862e-06	304.2	87.488	68.483	20.591	5.9796e-06	28.79	-40.903	110.908	111.132	-86.649	36.539	202.475	-87.081	-79.873	175.498	34.822	-80.213	-73.588	-73.064	-66.462	28.491	-66.525	-8191	255	
1418.405	1	1	0	0	0.17804	0.12994	0.071227	0.1062	0.22175	0.067069	0.25445	0.042563	0.11617	0.15549	0.1795	0.17664	0.16681	0.06676	0.24956	0.073585	-2.1542	-2.9313	-2.5854	-2.5708	-2.8958	-2.5375	-2.8812	-2.9875	-2.5354	-2.9104	-2.8812	-2.6208	-2.9813	-2.6354	-2.8229	-3.1292	141.640	65.364	38.247	165.958	100.124	119.219	216.251	92.757	194.071	64.961	233.712	-37.974	235.398	165.329	-55.911	206.955	0.00021931	0.0007502	0.00013675	1162	1.6976e-06	2.643e-06	1222.3	239.21	6.2602e-06	2.7601e-06	301.54	85.932	67.089	19.653	2.435e-06	27.737	0.00046314	0.00051699	0.00014597	1151	4.9766e-06	5.7521e-06	1207.3	239.55	5.0072e-06	5.5899e-06	302.51	87.185	68.442	20.566	5.3633e-06	28.733	-26.064	66.032	25.779	-86.829	183.439	189.934	-86.915	-79.943	-31.860	73.235	-80.461	-73.577	-73.419	-66.258	-39.858	-67.205	-8191	255	
1418.524	1	1	0	0	0.23624	0.058368	0.18779	0.045728	0.1746	0.11957	0.1665	0.4348	0.16156	0.33114	0.043153	0.13698	0.1643	0.2086	0.18282	0.06757	-1.8833	-2.9313	-2.6458	-2.3542	-3.0917	-2.7562	-2.7583	-3.1625	-2.4729	-2.9042	-2.8979	-2.5146	-3.0333	-2.6188	-2.4042	-3.0458	22.823	0.773	164.967	-88.217	-71.398	8.313	88.861	219.052	216.117	139.364	31.712	146.035	-94.822	238.499	71.565	-75.205	0.00021043	0.00021979	7.4131e-05	1160.3	2.2657e-06	2.2329e-06	1217.8	239.93	7.9261e-06	7.953e-06	300.66	85.733	67.317	19.65	6.6942e-06	27.618	0.00044863	0.00051976	0.00013345	1141.4	4.9895e-06	5.5946e-06	1202.5	239.28	5.0596e-06	5.6382e-06	301.57	86.99	68.569	20.529	5.0822e-06	28.523	-3.284	5.292	22.989	-86.894	60.807	-8.228	-86.867	-79.659	158.437	107.720	-80.345	-73.787	-73.063	-66.322	43.612	-66.963	-8191	255	
1418.620	1	1	0	0	0.12665	0.080909	0.056018	0.34678	0.1217	0.17399	0.21605	0.26593	0.12312	0.10487	0.07832	0.10259	0.16141	0.30952	0.076441	0.30737	-1.9583	-2.75	-2.7833	-2.5312	-2.9271	-2.6312	-2.7021	-3.0771	-2.6604	-2.8958	-3.0125	-2.5292	-2.9417	-2.7438	-2.4792	-3.0708	-5.289	31.831	211.772	252.198	-51.820	219.031	-73.727	148.959	137.095	187.830	239.014	190.045	-79.611	235.778	70.392	210.918	0.00046081	0.0002853	0.00018702	1151.4	4.7725e-07	1.0539e-05	1211.3	239	2.3401e-06	2.4746e-06	300.13	85.606	66.689	19.663	5.5835e-06	27.586	0.00046759	0.00049171	0.00012148	1133.6	4.9854e-06	5.1951e-06	1198.3	238.23	5.0219e-06	5.1206e-06	300.54	86.648	68.301	20.399	4.8468e-06	28.558	-56.306	-71.546	-84.638	-86.886	-16.900	49.954	-86.785	-79.662	5.878	112.241	-80.405	-73.991	-73.156	-66.323	148.182	-66.999	-8191	255	
1418.716	1	1	0	0	0.13189	0.23557	0.17704	0.29067	0.17614	0.19844	0.079489	0.27042	0.22376	0.16638	0.11447	0.14334	0.15495	0.17334	0.20602	0.079042	-2.1979	-2.6146	-2.9104	-2.6292	-2.9521	-2.8	-2.7417	-3.1813	-2.4313	-2.6583	-3.0854	-2.5812	-2.9354	-2.8646	-2.6937	-3.0187	3.592	22.953	-36.178	189.313	8.687	143.416	-41.117	224.854	185.890	118.524	-9.342	-71.169	254.422	251.733	211.559	252.403	0.00018865	0.00038186	0.0001326	1157	1.0378e-06	8.6131e-06	1216.9	238.94	1.6788e-06	1.75e-06	300.46	86.046	67.15	19.684	1.8737e-06	27.48	0.0004865	0.00048647	0.00012232	1134.3	5.4424e-06	5.2063e-06	1199.1	238.79	5.5243e-06	5.2776e-06	301.04	87.022	68.711	20.388	4.8839e-06	28.522	-11.596	-62.311	79.018	-87.182	198.277	67.685	-86.990	-79.858	47.776	26.758	-80.693	-73.525	-73.266	-66.622	167.344	-67.011	-8191	255	
1418.812	1	1	0	0	0.20348	0.10976	0.10833	0.28439	0.060656	0.37018	0.33976	0.27871	0.23979	0.12295	0.071334	0.19103	0.39689	0.16033	0.04372	0.11396	-2.2313	-2.5583	-2.9479	-2.5646	-2.9167	-2.7271	-2.5646	-3.0625	-2.7083	-2.7604	-3.1937	-2.6854	-2.6646	-2.8688	-2.525	-2.9896	169.198	-4.693	166.287	-87.265	49.047	199.958	219.008	-74.369	99.859	-36.506	-16.608	199.688	199.757	-94.407	42.435	104.431	0.00027013	0.00070466	0.00019397	1161.3	3.3843e-06	6.5032e-07	1224	239.1	3.1313e-06	1.0211e-06	302.56	86.113	67.276	19.624	1.3795e-06	27.595	0.00050146	0.00046347	0.00011814	1141.8	5.5685e-06	5.0105e-06	1202.7	239.33	5.4989e-06	5.0734e-06	301.34	87.347	68.884	20.366	4.8188e-06	28.711	22.292	69.824	-35.566	-87.078	-10.142	-55.994	-86.892	-79.945	13.460	6.035	-80.429	-73.878	-73.014	-66.571	42.783	-67.308	-8191	255	
1418.908	1	1	0	0	0.18663	0.028722	0.15238	0.14503	0.16931	0.090493	0.22466	0.050248	0.20569	0.2228	0.35127	0.11632	0.28542	0.22067	0.17581	0.23505	-2.3667	-2.5042	-2.8792	-2.4813	-2.7833	-2.8104	-2.6208	-3.0375	-2.6083	-2.5938	-3.0062	-2.5771	-2.7167	-2.9667	-2.6292	-3.0792	32.208	151.790	202.744	253.049	200.861	-14.525	159.715	97.325	30.181	153.895	243.508	79.163	-23.431	20.771	-50.182	-27.163	0.00024948	0.000102	0.00012802	1158.9	5.495e-06	4.1727e-06	1218.2	239.99	7.8206e-06	4.5188e-06	300.85	86.006	67.148	19.609	3.6045e-06	27.693	0.00049065	0.00045952	0.00011875	1148.3	5.4737e-06	4.8713e-06	1202.8	239.97	5.325e-06	4.9522e-06	300.9	87.491	68.673	20.358	4.7517e-06	28.855	-17.728	77.080	-31.265	-86.833	-13.253	-54.363	-86.796	-79.942	-50.506	101.749	-80.074	-73.794	-73.044	-66.462	37.296	-66.859	-8191	255	
1419.004	1	1	0	0	0.24577	0.42909	0.40949	0.12576	0.028914	0.34699	0.18965	0.10042	0.015822	0.2014	0.17375	0.30692	0.34655	0.11195	0.082241	0.05922	-2.0271	-2.5583	-2.8833	-2.6729	-2.5958	-2.9437	-2.8333	-2.8729	-2.5979	-2.4917	-3.0604	-2.6292	-2.6896	-3.0625	-2.5104	-2.8396	-13.143	198.026	-17.161	196.120	150.895	-74.382	152.870	261.367	207.643	102.511	-38.951	203.230	216.523	27.381	142.877	113.046	0.00016667	0.00054322	0.00012719	1159.1	5.1664e-06	7.3674e-06	1217.2	239.3	1.704e-06	2.6513e-06	302.23	85.453	67.175	19.7	7.3121e-06	27.676	0.00045714	0.00044472	0.00011927	1148.5	5.0743e-06	4.6667e-06	1202.8	240.31	4.9934e-06	4.7898e-06	301.78	87.321	68.463	20.302	4.9898e-06	28.839	32.763	-19.561	13.817	-86.792	78.796	12.921	-86.904	-79.999	26.734	-43.883	-80.084	-73.474	-73.225	-66.625	191.659	-66.748	-8191	255	
1419.101	1	1	0	0	0.16342	0.10039	0.077826	0.18176	0.15384	0.12011	0.27533	0.18831	0.14677	0.19424	0.15185	0.14418	0.032277	0.30369	0.1721	0.124	-2.4458	-2.3563	-2.9958	-2.7458	-2.4333	-2.9333	-2.7042	-2.925	-2.8458	-2.4458	-3.0125	-2.8458	-2.5229	-3.0917	-2.675	-2.8917	170.422	252.102	259.119	189.233	216.807	227.371	191.898	238.865	166.836	4.605	230.673	-82.414	-69.165	190.063	97.404	97.804	0.00011123	0.0005406	5.7525e-05	1152.6	5.2758e-06	6.4672e-06	1219.2	239.96	5.211e-06	3.2245e-06	303.32	85.834	67.017	19.661	6.9501e-07	27.777	0.00044266	0.00043269	0.00012796	1149.8	5.0327e-06	4.6815e-06	1206.8	240.47	4.9676e-06	4.857e-06	303.65	87.69	68.629	20.385	5.5419e-06	28.898	-21.291	-26.555	236.201	-87.085	75.299	88.633	-87.006	-80.258	10.885	41.726	-80.176	-73.483	-73.478	-66.450	81.843	-67.194	-8191	255	
1419.219	1	1	0	0	0.17676	0.31056	0.14594	0.12193	0.1056	0.0065794	0.12613	0.14889	0.052525	0.15723	0.22356	0.24897	0.35606	0.11196	0.21787	0.10933	-2.4646	-2.6083	-2.9625	-2.7812	-2.6479	-2.9813	-2.6396	-2.85	-2.8771	-2.5208	-3	-2.8167	-2.6208	-2.8146	-2.5	-2.8292	221.897	0.233	-9.037	244.560	28.339	11.867	186.666	256.433	29.875	-49.206	-52.852	245.346	-94.397	111.048	12.889	70.007	0.0001633	0.00065512	8.4766e-05	1151.3	4.7185e-06	3.528e-06	1223.7	240.58	7.3883e-06	2.7758e-06	302.74	86.143	67.829	19.744	1.5487e-06	27.991	0.00045357	0.00045539	0.00014182	1151.1	5.1681e-06	4.9092e-06	1212.2	241.41	4.9876e-06	5.1504e-06	304.98	87.816	69.081	20.488	5.8252e-06	29.051	-22.765	-15.676	73.505	-86.978	15.558	126.756	-86.981	-79.989	-95.253	47.548	-80.231	-73.734	-73.209	-66.483	-6.537	-67.127	-8191	255	
1419.316	1	1	0	0	0.2553	0.08044	0.22713	0.15592	0.15244	0.18362	0.40365	0.32669	0.13279	0.36613	0.13444	0.15303	0.030294	0.3091	0.24355	0.11096	-2.6521	-2.6063	-2.7708	-2.8375	-2.6854	-2.9667	-2.9125	-2.8146	-3.0563	-2.3646	-2.8271	-2.9458	-2.6125	-2.8792	-2.5646	-2.7354	63.024	192.045	226.189	129.013	-68.380	218.935	145.180	202.751	-34.036	158.937	-87.258	-89.384	-16.473	-11.981	2.086	191.646	0.00023391	0.0004056	0.00018538	1173.1	4.8225e-06	1.3138e-06	1226.6	242.33	8.4301e-06	1.5635e-06	304.3	86.389	67.684	19.776	7.5188e-06	27.893	0.00045733	0.00049184	0.00015135	1157.1	5.1947e-06	5.2886e-06	1216.4	241.85	4.9908e-06	5.5445e-06	305.55	87.774	68.933	20.55	5.8241e-06	28.968	-49.981	255.248	-69.666	-86.779	-6.096	219.726	-86.949	-80.075	-38.211	-67.139	-80.649	-73.523	-73.429	-66.333	-53.540	-67.213	-8191	255	
1419.389	1	1	0	0	0.34665	0.16822	0.23272	0.14775	0.25761	0.058468	0.25032	0.35611	0.092539	0.38762	0.19344	0.27253	0.47758	0.13742	0.23075	0.20868	-2.4708	-2.4917	-2.8521	-2.9062	-2.5438	-2.9938	-2.7958	-2.7521	-3.0792	-2.6125	-2.9188	-3.0417	-2.8042	-2.925	-2.725	-2.6979	0.328	83.160	257.378	233.822	80.512	254.592	-85.794	248.184	-67.673	72.992	248.952	196.192	-96.773	214.694	177.851	-72.449	0.00014687	0.00023017	9.6403e-05	1165.2	6.2812e-06	2.2177e-06	1230.2	239.75	5.1434e-06	4.3172e-06	304.4	86.524	67.765	19.802	2.2185e-06	27.799	0.00045463	0.00052406	0.0001485	1153.3	5.1502e-06	5.7453e-06	1214.5	240.83	5.0221e-06	5.8654e-06	305.58	87.874	69.034	20.697	5.6229e-06	28.902	-44.359	183.902	72.612	-86.800	18.775	118.507	-87.059	-79.990	44.251	-44.851	-80.298	-73.851	-73.185	-66.293	132.088	-67.085	-8191	255	
1419.485	1	1	0	0	0.11014	0.27857	0.27453	0.14322	0.10478	0.28791	0.24986	0.23299	0.077782	0.19625	0.1525	0.15154	0.097691	0.010142	0.06131	0.10826	-2.7208	-2.7542	-2.6437	-2.8646	-2.4875	-2.8292	-3.0417	-2.7104	-3.1562	-2.7687	-2.6958	-2.9417	-2.5958	-2.9146	-2.7896	-2.5438	185.555	212.761	-58.206	126.891	91.731	71.756	235.976	176.703	5.804	-9.208	-52.236	259.604	33.658	-33.030	217.441	-19.302	0.00028288	0.00038877	9.418e-05	1172.8	2.572e-06	3.2636e-06	1233	241.25	1.9811e-06	5.7102e-06	306.82	86.931	67.306	19.923	7.0289e-06	27.976	0.0004621	0.00055037	0.0001456	1157.4	5.3992e-06	6.0255e-06	1216.8	241.99	5.3373e-06	6.1197e-06	306.81	87.963	69.396	20.809	5.5572e-06	29.043	-9.233	41.800	6.893	-86.612	148.927	119.191	-86.962	-79.993	173.134	151.138	-80.228	-74.075	-73.136	-66.350	-11.706	-66.971	-8191	255	
1419.604	1	1	0	0	0.18639	0.22464	0.11383	0.13927	0.069857	0.035133	0.35117	0.21019	0.18123	0.19055	0.14466	0.076488	0.1693	0.27449	0.16388	0.19891	-2.375	-2.6312	-2.6729	-3.1458	-2.5958	-2.7375	-2.925	-2.6104	-2.9875	-2.7792	-2.7167	-3.0354	-2.6854	-2.825	-2.7812	-2.4625	71.616	-11.546	1.342	-63.886	48.961	89.082	205.118	-89.335	204.197	141.794	-73.562	195.880	-75.345	-88.224	-8.035	76.009	0.000303	0.00044126	0.00015958	1177.8	2.704e-06	3.2237e-06	1234.3	241.53	5.093e-06	5.8316e-06	305.27	87.038	67.954	19.815	5.974e-06	27.78	0.00049214	0.00055039	0.00014132	1158.7	5.6371e-06	5.9571e-06	1218.4	242.31	5.6084e-06	5.9187e-06	305.71	87.937	69.651	20.736	5.2545e-06	28.957	-33.649	-46.999	76.100	-87.011	148.529	36.417	-87.082	-80.074	-88.310	32.684	-80.387	-73.603	-73.442	-66.263	85.786	-66.682	-8191	255	
1419.700	1	1	0	0	0.18339	0.1929	0.14985	0.10298	0.032338	0.068238	0.21157	0.11132	0.044485	0.075705	0.15319	0.17485	0.13947	0.19349	0.15931	0.20097	-2.4813	-2.7271	-2.6042	-2.9688	-2.6167	-2.7313	-2.9354	-2.4583	-2.9979	-2.6917	-2.5792	-3.0854	-2.4917	-2.5896	-2.875	-2.4667	252.301	128.963	-92.352	-91.798	-93.786	15.336	107.913	247.159	261.834	218.654	235.822	-72.505	-9.965	-63.254	144.665	49.641	0.00030384	0.00069697	0.00016538	1171.9	3.835e-06	6.2374e-06	1230.4	242.47	2.5342e-06	6.6565e-06	304.33	86.701	67.987	19.886	9.3005e-06	27.666	0.00050989	0.00051735	0.00013421	1153.6	5.6968e-06	5.6043e-06	1214.6	241.98	5.6777e-06	5.4201e-06	305.02	87.742	69.445	20.622	4.9814e-06	28.812	-37.167	-8.510	-84.754	-87.226	69.187	91.561	-87.123	-80.096	43.541	49.208	-80.064	-73.963	-73.034	-66.324	8.455	-66.965	-8191	255	
1419.796	1	1	0	0	0.13664	0.08666	0.15822	0.27882	0.14625	0.31717	0.13345	0.18862	0.17914	0.12364	0.26064	0.22482	0.047459	0.079882	0.088057	0.080132	-2.3229	-2.7667	-2.4188	-3.1188	-2.5062	-2.6333	-3.1292	-2.6792	-2.8563	-2.8396	-2.6208	-2.9646	-2.5917	-2.6521	-2.8958	-2.6521	236.171	-39.130	-78.799	54.615	75.386	249.444	196.045	201.105	237.215	-23.962	186.328	202.496	104.672	233.237	165.283	84.591	0.00029076	0.00046669	0.00018803	1164.1	3.344e-06	4.1497e-06	1228.7	241.08	4.3918e-06	4.6751e-06	303.81	86.519	67.875	19.793	6.0045e-06	27.932	0.00052613	0.0004946	0.00013221	1153.1	5.9154e-06	5.4521e-06	1213.6	241.66	5.9013e-06	5.2929e-06	304.7	88.029	69.504	20.549	5.0334e-06	29.063	-51.899	49.220	20.580	-87.303	55.826	36.239	-86.808	-79.998	-53.295	15.106	-80.421	-73.509	-73.489	-66.404	29.329	-67.111	-8191	255	
1419.917	1	1	0	0	0.39878	0.16863	0.11799	0.041481	0.16499	0.30672	0.25931	0.18843	0.17489	0.14712	0.37646	0.24461	0.18604	0.23553	0.36003	0.21832	-2.3792	-2.7958	-2.5062	-3.1042	-2.6896	-2.7021	-3.0792	-2.7458	-2.8187	-2.8812	-2.5896	-3.0187	-2.6333	-2.5958	-3.0354	-2.6042	173.420	-4.543	213.461	102.926	156.087	261.052	-96.400	253.520	203.187	-85.460	126.028	239.470	23.866	211.383	-72.935	233.988	0.00022058	0.00031491	0.00017526	1170.5	3.202e-06	6.7157e-06	1227.4	242.28	8.5994e-06	3.6124e-06	303.79	86.31	67.89	19.888	3.3791e-06	27.827	0.00053438	0.00048769	0.00013139	1162.7	5.9314e-06	5.4564e-06	1215.9	243.11	5.9436e-06	5.4244e-06	305.51	88.484	69.693	20.736	5.4046e-06	29.25	247.322	154.948	-36.291	-87.070	132.220	80.140	-86.882	-79.725	44.346	81.381	-80.337	-73.604	-73.155	-66.464	37.107	-66.967	-8191	255	
#DATA ENDS
