BOXY.EXE: ISS Imagent and Oximeter Data Acquisition Program Version 0.80
Ascii Record File

#ACQ INFORMATION
2  Detector Channels 
16  External MUX Channels 
1  Auxiliary Channels 
5000  Waveform (CCF) Frequency (Hz)
1  Waveforms Skipped 
30  Waveforms Averaged 
1  Cycles Averaged 
16  Acquisitions per Waveform 
10.0806  Updata Rate (Hz) 

#FILE INFORMATION
TRUE -- External MUX Channel results are PARSED.
FALSE -- AC DC and Phase are NOT grouped.
TRUE -- Companion Program Settings File CREATED.
FALSE -- AC data not excluded
FALSE -- DC data not excluded
FALSE -- Phase data not excluded
FALSE -- Auxillary Chn. data not excluded
Tab delimiters

#CALIBRATION STATE
TRUE -- Waveform Calibration Values APPLIED.


#AUX CALIBRATION VALUES
Val Type	aux-1	

Term	1.0000e+00	
Factor	0.0000e+00	


#WF CALIBRATION VALUES
A = Detector Channel
Val Type	A-AC1	A-AC2	A-AC3	A-AC4	A-AC5	A-AC6	A-AC7	A-AC8	A-AC9	A-AC10	A-AC11	A-AC12	A-AC13	A-AC14	A-AC15	A-AC16	A-DC1	A-DC2	A-DC3	A-DC4	A-DC5	A-DC6	A-DC7	A-DC8	A-DC9	A-DC10	A-DC11	A-DC12	A-DC13	A-DC14	A-DC15	A-DC16	A-Ph1	A-Ph2	A-Ph3	A-Ph4	A-Ph5	A-Ph6	A-Ph7	A-Ph8	A-Ph9	A-Ph10	A-Ph11	A-Ph12	A-Ph13	A-Ph14	A-Ph15	A-Ph16	

Term	0.00000e+00	0.00000e+00	0.00000e+00	0.00000e+00	0.00000e+00	0.00000e+00	0.00000e+00	0.00000e+00	0.00000e+00	0.00000e+00	0.00000e+00	0.00000e+00	0.00000e+00	0.00000e+00	0.00000e+00	0.00000e+00	0.00000e+00	0.00000e+00	0.00000e+00	0.00000e+00	0.00000e+00	0.00000e+00	0.00000e+00	0.00000e+00	0.00000e+00	0.00000e+00	0.00000e+00	0.00000e+00	0.00000e+00	0.00000e+00	0.00000e+00	0.00000e+00	0.00000e+00	0.00000e+00	0.00000e+00	0.00000e+00	0.00000e+00	0.00000e+00	0.00000e+00	0.00000e+00	0.00000e+00	0.00000e+00	0.00000e+00	0.00000e+00	0.00000e+00	0.00000e+00	0.00000e+00	0.00000e+00	
Factor	1.00000e+00	1.00000e+00	1.00000e+00	1.00000e+00	1.00000e+00	1.00000e+00	1.00000e+00	1.00000e+00	1.00000e+00	1.00000e+00	1.00000e+00	1.00000e+00	1.00000e+00	1.00000e+00	1.00000e+00	1.00000e+00	1.00000e+00	1.00000e+00	1.00000e+00	1.00000e+00	1.00000e+00	1.00000e+00	1.00000e+00	1.00000e+00	1.00000e+00	1.00000e+00	1.00000e+00	1.00000e+00	1.00000e+00	1.00000e+00	1.00000e+00	1.00000e+00	X	X	X	X	X	X	X	X	X	X	X	X	X	X	X	X	

B = Detector Channel
Val Type	B-AC1	B-AC2	B-AC3	B-AC4	B-AC5	B-AC6	B-AC7	B-AC8	B-AC9	B-AC10	B-AC11	B-AC12	B-AC13	B-AC14	B-AC15	B-AC16	B-DC1	B-DC2	B-DC3	B-DC4	B-DC5	B-DC6	B-DC7	B-DC8	B-DC9	B-DC10	B-DC11	B-DC12	B-DC13	B-DC14	B-DC15	B-DC16	B-Ph1	B-Ph2	B-Ph3	B-Ph4	B-Ph5	B-Ph6	B-Ph7	B-Ph8	B-Ph9	B-Ph10	B-Ph11	B-Ph12	B-Ph13	B-Ph14	B-Ph15	B-Ph16	

Term	0.00000e+00	0.00000e+00	0.00000e+00	0.00000e+00	0.00000e+00	0.00000e+00	0.00000e+00	0.00000e+00	0.00000e+00	0.00000e+00	0.00000e+00	0.00000e+00	0.00000e+00	0.00000e+00	0.00000e+00	0.00000e+00	0.00000e+00	0.00000e+00	0.00000e+00	0.00000e+00	0.00000e+00	0.00000e+00	0.00000e+00	0.00000e+00	0.00000e+00	0.00000e+00	0.00000e+00	0.00000e+00	0.00000e+00	0.00000e+00	0.00000e+00	0.00000e+00	2.53724e+01	-1.25825e+02	-1.32423e+02	-1.86157e+02	-5.31231e+01	-7.74207e+01	-1.59021e+02	-1.62015e+02	-9.81342e+01	-6.42266e+01	-1.73719e+02	-1.69925e+02	-1.79918e+02	-1.77120e+02	-6.73402e+01	-1.50188e+02	
Factor	4.43643e-05	1.31752e-04	3.84766e-05	6.00296e-01	1.09162e-06	1.23883e-06	1.58776e-01	4.81384e-02	1.60025e-06	1.38813e-06	8.39062e-02	2.75674e-02	2.39658e-02	9.07276e-03	1.49700e-06	1.30833e-02	1.61200e-06	1.67637e-06	4.65165e-07	2.83808e-01	1.83225e-08	1.83332e-08	7.47258e-02	2.41391e-02	1.82575e-08	1.83873e-08	4.04860e-02	1.32768e-02	1.20086e-02	4.53932e-03	1.82600e-08	6.30792e-03	X	X	X	X	X	X	X	X	X	X	X	X	X	X	X	X	



#DISTANCE SETTINGS
A = Detector Channel
A-1	A-2	A-3	A-4	A-5	A-6	A-7	A-8	A-9	A-10	A-11	A-12	A-13	A-14	A-15	A-16	

2.5000e+00	3.0000e+00	2.5000e+00	3.0000e+00	2.0000e+00	3.0000e+00	1.5000e+00	3.0000e+00	3.0000e+00	3.0000e+00	3.0000e+00	3.0000e+00	3.0000e+00	3.0000e+00	1.5000e+00	3.0000e+00	

B = Detector Channel
B-1	B-2	B-3	B-4	B-5	B-6	B-7	B-8	B-9	B-10	B-11	B-12	B-13	B-14	B-15	B-16	

1.0000e+01	1.0000e+01	1.0000e+01	1.4400e+00	1.0000e+01	1.0000e+01	1.5100e+00	1.9400e+00	1.0000e+01	1.0000e+01	1.9900e+00	2.4900e+00	2.4100e+00	2.9000e+00	1.0000e+01	2.9800e+00	




#DATA BEGINS
time	group	step	mark	flag	A-AC1	A-AC2	A-AC3	A-AC4	A-AC5	A-AC6	A-AC7	A-AC8	A-AC9	A-AC10	A-AC11	A-AC12	A-AC13	A-AC14	A-AC15	A-AC16	A-DC1	A-DC2	A-DC3	A-DC4	A-DC5	A-DC6	A-DC7	A-DC8	A-DC9	A-DC10	A-DC11	A-DC12	A-DC13	A-DC14	A-DC15	A-DC16	A-Ph1	A-Ph2	A-Ph3	A-Ph4	A-Ph5	A-Ph6	A-Ph7	A-Ph8	A-Ph9	A-Ph10	A-Ph11	A-Ph12	A-Ph13	A-Ph14	A-Ph15	A-Ph16	B-AC1	B-AC2	B-AC3	B-AC4	B-AC5	B-AC6	B-AC7	B-AC8	B-AC9	B-AC10	B-AC11	B-AC12	B-AC13	B-AC14	B-AC15	B-AC16	B-DC1	B-DC2	B-DC3	B-DC4	B-DC5	B-DC6	B-DC7	B-DC8	B-DC9	B-DC10	B-DC11	B-DC12	B-DC13	B-DC14	B-DC15	B-DC16	B-Ph1	B-Ph2	B-Ph3	B-Ph4	B-Ph5	B-Ph6	B-Ph7	B-Ph8	B-Ph9	B-Ph10	B-Ph11	B-Ph12	B-Ph13	B-Ph14	B-Ph15	B-Ph16	aux-1	digaux	

1919.891	1	1	0	256	0.12109	0.26943	0.2284	0.076546	0.20104	0.1498	0.19275	0.19944	0.15021	0.20244	0.16162	0.1	0.13226	0.28157	0.33317	0.17057	-2.1083	-2.8896	-2.6292	-2.6562	-2.8854	-2.6813	-2.9375	-2.9333	-2.3563	-2.8438	-2.8333	-2.5708	-3.0396	-2.7083	-2.7771	-2.6542	124.822	-59.648	178.845	146.595	258.403	218.379	143.176	222.095	236.763	256.098	-51.344	-48.264	228.497	178.587	241.626	-95.609	0.001039	0.0010959	0.00072041	1173.1	1.031e-05	8.2148e-06	1129.4	344.72	8.6493e-06	1.0882e-05	385.9	113.36	108.07	27.162	1.6979e-05	29.395	0.0034248	0.0039697	0.0010057	1533.2	3.2337e-05	3.9202e-05	1152.6	348.19	3.1902e-05	3.8137e-05	413.31	123.01	115.9	33.061	3.1731e-05	35.198	-34.358	229.421	-33.182	-88.571	151.134	-37.255	-89.139	-83.473	194.145	244.142	-85.498	-81.286	-79.319	-75.656	62.300	-78.142	-8191	255	
1919.963	1	1	0	0	0.041878	0.29026	0.10571	0.15634	0.086984	0.2709	0.1247	0.25815	0.22483	0.066745	0.17283	0.17593	0.091788	0.21201	0.050024	0.19126	-1.9813	-2.9021	-2.4708	-2.5396	-2.9146	-2.825	-2.65	-3.0167	-2.6125	-2.7125	-2.8417	-2.6042	-3.1333	-2.5792	-2.3729	-3.0104	27.301	71.652	169.279	105.660	233.966	236.853	92.105	155.021	16.898	20.948	217.556	212.887	229.049	39.917	41.625	-46.675	0.0002543	0.0011046	0.00068981	1195.6	2.2462e-05	1.9426e-05	1132.8	344.81	1.0467e-05	2.6798e-05	384.39	116.99	110.72	28.658	2.3358e-05	30.419	0.0025987	0.0030181	0.00070502	1398.3	2.6454e-05	2.966e-05	1112	337.7	2.6007e-05	2.8386e-05	391.92	119.38	114.89	32.057	2.4012e-05	34.416	236.051	112.686	48.849	-89.079	212.321	144.055	-89.092	-83.338	212.483	41.867	-85.739	-81.236	-79.288	-75.437	46.313	-78.005	-8191	255	
1920.059	1	1	0	0	0.088432	0.055856	0.070102	0.32322	0.25089	0.11351	0.23257	0.36008	0.052039	0.1701	0.19637	0.077556	0.17861	0.29739	0.26223	0.2412	-2.0958	-2.6979	-2.9583	-2.6063	-2.7938	-2.6813	-2.7021	-3.075	-2.675	-2.8458	-2.7354	-2.4771	-3.0167	-2.7792	-2.5458	-2.7146	199.493	50.301	116.746	182.078	32.658	173.122	-99.602	179.218	149.041	63.906	203.064	47.173	-68.562	200.828	-69.272	247.454	0.00061369	0.00063763	0.00053807	1187.8	3.8246e-06	1.2306e-05	1141.3	350.23	6.9592e-06	2.1053e-05	388.75	118.17	109.81	28.576	2.6941e-05	30.955	0.0023669	0.0025287	0.00061457	1371.3	2.853e-05	2.8876e-05	1116.6	343.71	3.1442e-05	3.097e-05	402.84	123.69	119.05	32.943	2.7697e-05	36.637	-39.478	-22.953	-18.660	-88.304	77.222	62.456	-89.245	-83.564	89.563	48.376	-85.346	-81.712	-79.059	-75.183	41.832	-77.930	-8191	255	
1920.180	1	1	0	0	0.15877	0.11706	0.20092	0.16567	0.27935	0.052953	0.035282	0.19276	0.13351	0.27881	0.12195	0.23708	0.097463	0.014204	0.14348	0.072451	-2.0917	-2.6604	-2.9583	-2.5479	-2.8604	-2.5563	-2.5125	-3.0708	-2.5438	-2.6813	-2.9979	-2.4417	-3.0354	-2.8042	-2.3646	-2.9	52.509	-84.316	52.589	89.584	-22.490	88.239	-77.338	194.139	-80.197	-30.601	16.505	191.849	255.733	194.389	92.086	239.045	0.00014085	0.0019525	0.00070081	1188.6	1.886e-05	2.281e-05	1132.5	350.71	1.4855e-05	8.3179e-06	385.51	117.9	111.48	29.704	1.5944e-05	31.452	0.0029141	0.0027532	0.00066944	1433.7	3.2616e-05	2.8578e-05	1117.2	347.12	3.1947e-05	2.8564e-05	395.2	124.4	119.02	32.832	2.48e-05	37.224	10.940	-50.528	-48.392	-88.479	120.938	58.605	-89.394	-83.541	45.054	52.724	-85.274	-81.232	-78.961	-75.403	141.739	-77.760	-8191	255	
1920.276	1	1	0	0	0.08205	0.16429	0.29808	0.24552	0.25292	0.23879	0.35651	0.079517	0.052151	0.078736	0.30914	0.080892	0.22697	0.25374	0.28645	0.22281	-2.0917	-2.6375	-3.125	-2.6021	-2.7646	-2.9396	-2.7042	-2.9792	-2.6437	-2.55	-3.1562	-2.5646	-2.8167	-3.025	-2.6667	-2.7458	-97.361	45.756	174.476	77.982	-25.392	132.748	188.910	53.326	157.874	6.483	218.778	121.533	-78.201	241.120	241.404	227.658	0.00070552	0.0018233	0.00029988	1197.2	8.4264e-06	1.2593e-05	1133.5	348.1	2.278e-05	1.2284e-05	382.58	118.79	113.59	30.692	2.7001e-05	32.377	0.0026427	0.0023672	0.00058578	1431.1	2.8402e-05	2.4227e-05	1101.2	344.08	2.6694e-05	2.3192e-05	383.94	123.3	115.96	32.277	2.0557e-05	36.835	102.175	-5.678	47.068	-88.543	154.179	63.119	-89.444	-83.213	-15.032	18.070	-85.315	-81.398	-79.013	-75.294	-2.829	-78.137	-8191	255	
1920.372	1	1	0	0	0.066032	0.069996	0.24947	0.076672	0.13416	0.1233	0.089145	0.41035	0.13457	0.1252	0.097268	0.14355	0.074527	0.16122	0.17085	0.35829	-2.3354	-2.6583	-2.7625	-2.4708	-2.6833	-2.9021	-2.7438	-2.8417	-2.7313	-2.3583	-2.8875	-2.5354	-2.6437	-2.9562	-2.4208	-2.7458	89.380	-72.579	228.457	-91.400	245.377	201.081	-33.188	252.866	171.024	109.901	210.387	59.055	184.858	220.280	235.796	-87.041	5.8422e-05	0.0023193	0.00011285	1207.8	1.234e-05	8.5e-06	1139.9	351.37	3.1361e-05	6.3498e-06	383.98	120.4	114.61	31.732	9.6176e-06	33.98	0.0020588	0.0019112	0.00049777	1394.7	2.2537e-05	1.963e-05	1095.4	343.35	2.1529e-05	1.9924e-05	383.12	123.73	115.01	32.754	2.0741e-05	38.084	-24.033	-42.485	136.718	-88.710	80.145	43.744	-89.068	-83.458	-8.420	85.333	-85.431	-81.103	-78.915	-75.675	193.754	-77.689	-8191	255	
1920.491	1	1	0	0	0.19041	0.27523	0.18551	0.061329	0.30334	0.2386	0.51316	0.10633	0.11099	0.2486	0.17138	0.10006	0.16312	0.21745	0.14023	0.16444	-2.1333	-2.3917	-2.7458	-2.575	-2.5417	-2.8854	-2.5875	-2.8417	-2.6937	-2.3125	-2.7062	-2.7938	-2.7125	-3.0083	-2.3937	-2.7062	206.297	131.002	-10.530	253.022	211.331	163.431	159.273	228.832	153.836	223.488	229.832	27.876	219.362	222.911	-36.962	219.255	0.00056408	0.00055406	0.00033088	1205.4	4.2769e-06	9.1375e-06	1139.2	355.36	5.1467e-06	1.4505e-05	391.78	124.35	116.87	33.182	1.4144e-05	35.794	0.0018912	0.0018359	0.00054207	1402.2	2.1883e-05	1.9807e-05	1104.2	347.91	2.1638e-05	2.0786e-05	396.57	127.7	117.35	34.213	2.4401e-05	39.837	87.153	-9.493	87.644	-88.201	-26.380	45.242	-89.224	-83.266	255.742	-46.293	-85.657	-81.477	-79.058	-74.857	-89.037	-78.254	-8191	255	
1920.587	1	1	0	0	0.095189	0.033275	0.081537	0.082573	0.24625	0.1167	0.42494	0.25961	0.13331	0.2116	0.09446	0.16997	0.068726	0.020458	0.052755	0.20721	-2.3104	-2.5687	-2.6667	-2.8354	-2.5083	-3	-2.4583	-2.95	-2.9813	-2.4729	-2.9646	-2.6937	-2.6437	-2.8667	-2.3771	-2.6188	199.402	247.828	136.052	-33.064	223.908	-18.468	182.471	210.615	51.982	157.775	16.220	151.866	-29.164	67.890	240.280	-24.584	0.00061155	0.00019397	0.0006733	1218.3	9.2189e-06	8.7347e-06	1130.3	356.65	3.0497e-05	5.6352e-06	393.72	125.48	116.9	33.724	1.3735e-06	35.62	0.001929	0.0019179	0.0006291	1402.5	2.2111e-05	2.0666e-05	1112.4	349.8	2.1857e-05	2.1903e-05	404.19	128.72	118.15	35.229	2.7203e-05	40.154	23.867	-82.144	130.490	-88.527	70.378	25.074	-89.227	-83.188	14.739	188.424	-84.787	-81.031	-78.743	-75.198	-55.202	-77.985	-8191	255	
1920.659	1	1	0	0	0.15294	0.33159	0.42564	0.089675	0.1286	0.1229	0.19241	0.24803	0.11948	0.060847	0.45634	0.11326	0.15958	0.24172	0.11241	0.27606	-2.4313	-2.3521	-2.825	-2.5875	-2.4	-2.9	-2.7771	-2.8333	-2.7854	-2.4042	-2.9313	-2.8271	-2.2438	-3.0292	-2.7562	-2.5583	243.760	237.346	-44.502	61.259	-99.272	-37.268	204.465	182.236	156.019	165.441	256.960	221.762	-91.336	242.131	209.191	193.016	0.00029825	0.0010019	0.00031191	1177.4	1.8086e-05	1.101e-05	1117.3	352.49	1.1514e-05	1.3227e-05	393.48	125.83	117.22	33.985	2.2057e-05	36.442	0.0019823	0.002127	0.00070294	1374.2	2.2513e-05	2.2947e-05	1103.8	344.99	2.1164e-05	2.3477e-05	403.46	127.54	117.86	35.956	2.6126e-05	39.777	40.288	141.424	133.272	-88.415	184.844	235.655	-89.171	-83.238	18.532	-97.402	-85.381	-81.065	-79.280	-75.213	82.270	-77.909	-8191	255	
1920.779	1	1	0	0	0.14874	0.0071482	0.20385	0.11276	0.29259	0.021171	0.20485	0.075391	0.022845	0.26796	0.30167	0.25711	0.1972	0.3279	0.28418	0.12986	-2.4667	-2.3833	-2.8	-2.6646	-2.3	-3.0312	-2.9729	-2.5896	-2.95	-2.6417	-2.7062	-2.8688	-2.6104	-2.8937	-2.6604	-2.6354	212.488	18.769	254.710	228.055	27.504	127.925	203.958	-77.018	249.070	207.650	225.749	194.323	189.517	223.224	205.309	142.630	0.00026371	0.0012244	0.00020224	1188.2	7.0435e-06	2.2054e-06	1116.1	354.21	1.7038e-05	6.5453e-06	394.47	127.47	119.17	35.222	9.5765e-06	37.833	0.0018206	0.0021778	0.00064079	1332.8	2.0073e-05	2.3027e-05	1088.9	341.43	1.8717e-05	2.2536e-05	395.54	126.57	117.49	36.698	2.1763e-05	39.981	-39.267	117.956	-70.363	-88.783	84.155	255.112	-89.058	-83.190	-70.667	-4.819	-84.924	-81.125	-78.968	-74.997	44.689	-77.995	-8191	255	
1920.875	1	1	0	0	0.16602	0.21964	0.16844	0.2215	0.33412	0.12754	0.096697	0.29679	0.082265	0.23246	0.36135	0.32187	0.14137	0.092062	0.10308	0.041864	-2.3937	-2.7583	-2.6125	-2.9062	-2.5417	-2.9375	-2.8104	-2.6833	-2.9583	-2.5417	-2.5896	-3.1625	-2.5042	-2.8292	-2.5625	-2.6521	119.945	-8.469	124.110	31.853	8.887	16.101	138.217	225.340	32.301	128.338	185.302	119.968	53.884	220.287	121.897	198.389	0.00037588	0.000916	0.00062115	1194.9	3.3411e-06	1.3029e-05	1125.2	357.68	1.886e-05	1.156e-05	395.97	129.28	120.6	36.261	9.4708e-06	38.271	0.0016495	0.0021092	0.00055326	1296.2	1.9201e-05	2.2757e-05	1083.2	342.07	1.8551e-05	2.2534e-05	392.17	127.02	118.89	37.349	1.887e-05	39.846	-58.383	96.151	-43.665	-88.422	-5.775	174.556	-88.759	-83.316	229.829	-8.234	-85.165	-81.264	-78.844	-75.110	24.298	-77.520	-8191	255	
1920.972	1	1	0	0	0.21222	0.062918	0.12291	0.13926	0.027482	0.24722	0.24838	0.31224	0.2315	0.054466	0.065325	0.23223	0.3811	0.03284	0.086542	0.068535	-2.4188	-2.525	-2.6417	-2.8958	-2.5479	-3.075	-2.7833	-2.5563	-2.9	-2.4771	-2.6104	-3.0792	-2.6229	-2.8646	-2.8479	-2.6396	106.200	242.948	-63.886	120.935	151.609	-82.504	228.540	202.014	-15.012	-54.002	-1.115	197.175	199.544	49.717	32.737	33.372	0.00021342	0.00051262	0.00018413	1212.7	1.2651e-05	1.6794e-05	1141.4	358.38	9.0413e-06	3.1699e-05	398.83	130.44	120.59	36.568	1.8928e-05	38.749	0.0016409	0.0019574	0.00047759	1275	1.8846e-05	2.0972e-05	1085.3	340.94	1.8537e-05	2.0194e-05	387.8	125.82	119.18	37.087	1.6769e-05	39.392	-83.977	22.941	241.816	-88.204	251.813	-12.574	-89.321	-83.230	219.694	52.259	-84.963	-81.218	-78.830	-74.819	27.622	-77.866	-8191	255	
1921.092	1	1	0	0	0.099307	0.06808	0.066129	0.10396	0.28268	0.15345	0.16093	0.22197	0.068288	0.13595	0.18526	0.22136	0.032785	0.35035	0.25728	0.12659	-2.2458	-2.6167	-2.5687	-2.925	-2.6271	-2.7333	-3.1021	-2.8	-2.6188	-2.7979	-2.8271	-2.9792	-2.6292	-2.7542	-2.8958	-2.5979	-88.576	23.055	-59.555	182.730	-87.342	6.349	209.285	191.486	227.656	-42.983	-36.291	-85.928	164.481	176.422	10.849	239.785	0.00081551	0.0011899	0.00026333	1201.4	9.9662e-06	6.5806e-06	1118.4	356.62	4.6963e-06	3.4664e-06	393.63	128.85	120.51	36.942	7.5157e-06	38.515	0.0016635	0.0017472	0.00042826	1256.6	1.9266e-05	1.8722e-05	1063.9	338.3	1.9134e-05	1.8263e-05	381.27	124.88	119.33	36.949	1.5606e-05	39.645	-27.073	25.515	-17.860	-88.234	112.685	-25.462	-89.083	-83.231	108.381	-20.125	-85.059	-81.122	-78.674	-75.115	-22.548	-77.829	-8191	255	
1921.188	1	1	0	0	0.1084	0.27663	0.11289	0.073427	0.055454	0.20745	0.14578	0.48192	0.11743	0.28063	0.1883	0.26016	0.029304	0.033849	0.13567	0.19105	-2.475	-2.5792	-2.4458	-2.8833	-2.6833	-2.6083	-2.9375	-2.6167	-2.9437	-2.7417	-2.3583	-3.1375	-2.6667	-2.675	-3.1021	-2.6437	0.577	191.165	104.933	25.290	-91.603	127.454	-90.209	211.218	-97.602	174.603	-84.928	-83.876	3.534	154.931	39.522	113.655	0.00040426	0.00043898	0.00025969	1197.6	7.1312e-06	5.3489e-06	1129.7	355.76	1.5341e-05	6.3222e-06	394	128.37	120.96	37.26	1.3245e-05	39.329	0.0017222	0.0015966	0.00040561	1264.5	1.9365e-05	1.701e-05	1061.6	338.53	1.8902e-05	1.6434e-05	380.5	125.35	118.72	36.903	1.4558e-05	40.317	56.640	14.444	-20.209	-88.469	59.984	34.765	-89.154	-83.119	-41.926	0.159	-85.012	-81.072	-78.872	-75.048	26.531	-77.750	-8191	255	
1921.260	1	1	0	0	0.12165	0.090701	0.1389	0.18769	0.28511	0.15269	0.17116	0.29136	0.18742	0.12981	0.29823	0.081725	0.18643	0.3011	0.029663	0.052903	-2.4417	-2.6104	-2.4958	-2.9229	-2.5896	-2.7	-3.1542	-2.8146	-2.5979	-2.7625	-2.6521	-3.0417	-2.7625	-2.7125	-2.9125	-2.6729	240.194	39.391	214.608	133.963	-52.535	47.825	208.447	147.379	205.686	42.290	-100.326	201.454	-74.269	-93.345	79.583	-12.536	0.00050175	0.0010721	0.00012849	1208.1	1.414e-05	1.2799e-05	1136.3	357.5	1.4744e-05	2.8051e-06	398.09	130.47	122.21	37.985	4.5131e-06	39.982	0.0016417	0.0014401	0.00038117	1285.8	1.8173e-05	1.5909e-05	1067.2	341.46	1.7886e-05	1.5691e-05	381.32	128.35	119	37.189	1.4836e-05	41.32	169.593	-60.872	-76.838	-88.515	36.147	69.871	-89.156	-83.259	-21.947	122.499	-85.132	-81.101	-78.652	-74.973	121.750	-77.812	-8191	255	
1921.356	1	1	0	0	0.22517	0.25168	0.043169	0.23584	0.22137	0.28385	0.30385	0.12977	0.26325	0.14598	0.11816	0.309	0.20714	0.17974	0.10644	0.23869	-2.3312	-2.8104	-2.5333	-2.7854	-2.5521	-2.7542	-2.9979	-2.5667	-2.875	-3.0229	-2.6729	-2.9604	-2.925	-2.5687	-2.8917	-2.475	-45.852	189.629	212.953	238.583	85.772	170.232	204.282	-89.260	-63.716	-66.823	48.020	207.563	221.124	220.732	82.928	86.713	0.00042032	0.00096928	0.00027231	1217.4	1.2025e-05	1.3582e-05	1142.4	359.05	1.4429e-05	8.0601e-06	396.25	130.28	120.64	37.209	3.7513e-06	39.474	0.0015492	0.0013972	0.00038926	1309.4	1.6914e-05	1.5508e-05	1081.2	343.67	1.6792e-05	1.5072e-05	385.1	128.57	118.39	36.868	1.6342e-05	41.01	-20.739	21.039	136.357	-88.771	57.035	124.858	-88.985	-82.956	-9.159	51.290	-84.888	-80.641	-78.694	-74.852	216.325	-77.739	-8191	255	
1921.475	1	1	0	0	0.16005	0.052297	0.010089	0.023932	0.19888	0.12829	0.17449	0.10478	0.040784	0.27678	0.06852	0.33564	0.14761	0.031043	0.20596	0.10897	-2.2271	-3.0896	-2.5604	-2.8229	-2.7292	-2.5604	-3.0563	-2.7292	-2.3833	-2.9354	-2.6167	-3.0583	-3.0875	-2.3312	-2.9375	-2.7604	24.721	86.223	224.381	-32.999	-94.170	61.912	228.001	-31.771	-0.883	-41.205	-87.823	250.782	223.007	176.477	-12.886	-48.935	0.00048923	0.0015061	0.00025273	1219.6	1.1307e-05	4.008e-06	1135.9	352.24	1.064e-05	3.2263e-06	388.07	128.57	120.66	36.845	1.194e-05	37.919	0.0015085	0.0013903	0.00043836	1323.5	1.6486e-05	1.5603e-05	1081	338.02	1.6696e-05	1.5307e-05	382.59	127.2	117.64	36.4	1.8656e-05	39.972	-20.729	-13.869	95.147	-88.547	139.638	136.151	-89.516	-83.324	0.663	101.997	-85.377	-80.790	-78.650	-74.886	178.692	-77.716	-8191	255	
1921.571	1	1	0	0	0.12354	0.15674	0.047008	0.023973	0.14204	0.048671	0.48313	0.20732	0.2472	0.28302	0.08083	0.026137	0.11299	0.055315	0.10588	0.2141	-2.2875	-2.7833	-2.6646	-2.6271	-2.95	-2.4833	-3.025	-2.9146	-2.6479	-2.9437	-2.8563	-2.625	-2.7104	-2.5521	-3.0187	-2.8604	165.015	231.159	190.825	103.072	253.349	176.243	153.245	239.760	-68.255	54.157	-82.538	-67.109	155.296	183.223	41.339	238.721	0.00020647	0.0020286	0.00029208	1204.9	4.8522e-06	8.9457e-06	1131.1	349.6	4.3051e-06	1.0226e-05	385.52	127.03	120.09	36.023	1.7309e-05	37.417	0.0015434	0.001467	0.00050854	1314.7	1.7058e-05	1.6858e-05	1085.1	335.58	1.7237e-05	1.6811e-05	384.89	126.12	117.43	36.147	2.0625e-05	39.159	66.280	3.724	70.055	-88.522	124.129	29.792	-89.235	-83.028	-90.609	222.563	-85.449	-80.504	-78.687	-74.935	122.898	-78.193	-8191	255	
1921.667	1	1	0	0	0.17357	0.097362	0.20299	0.38541	0.1378	0.20965	0.18532	0.14482	0.18889	0.11504	0.24573	0.12529	0.25193	0.18692	0.16385	0.14776	-2.0979	-3.1396	-2.5417	-2.6146	-3.0042	-2.5042	-2.9896	-2.9021	-2.4479	-2.9062	-2.7625	-2.9125	-3.1437	-2.4917	-2.6917	-2.8396	-11.520	204.285	-10.494	-78.507	137.668	96.882	185.797	228.731	92.285	20.929	255.596	53.873	35.094	128.017	-18.535	28.994	0.00015449	0.00083052	0.00031062	1219.2	1.7128e-06	4.1498e-06	1135	347.88	1.3956e-05	1.5575e-05	390.88	126.99	120.99	35.257	1.4646e-05	36.56	0.0015402	0.0016236	0.0005395	1315.5	1.6944e-05	1.8447e-05	1094	334.53	1.7101e-05	1.8724e-05	388.16	125.25	117.28	35.981	2.082e-05	38.307	225.743	148.134	40.886	-88.261	70.204	-60.212	-89.113	-82.760	39.954	193.490	-85.340	-80.824	-78.712	-75.126	121.296	-77.859	-8191	255	
1921.763	1	1	0	0	0.12643	0.13496	0.16667	0.057652	0.22221	0.064881	0.036227	0.11571	0.23494	0.052092	0.13764	0.034898	0.16328	0.25605	0.067558	0.066772	-2.1521	-3.0792	-2.7021	-2.5563	-2.8	-2.5938	-3.0229	-2.9479	-2.1375	-2.7229	-2.8271	-2.775	-2.95	-2.6	-2.8083	-3.0708	184.967	212.141	154.783	-27.429	115.576	49.211	162.658	160.228	25.343	257.718	173.765	249.308	126.648	252.995	61.143	-55.841	0.00059241	0.001585	0.00039447	1217.5	4.5624e-06	1.9371e-05	1143.9	349.43	4.142e-06	7.1971e-06	389.1	126.06	120.14	35.273	1.4621e-05	36.583	0.0015148	0.0017546	0.00052036	1308	1.6567e-05	2.0036e-05	1096.7	334	1.7062e-05	2.0226e-05	385.69	124.32	117.07	36.106	1.9466e-05	37.807	-20.524	187.565	4.268	-88.573	102.388	177.555	-89.098	-83.049	2.672	-72.003	-84.833	-81.109	-78.777	-75.016	61.758	-77.944	-8191	255	
1921.860	1	1	0	0	0.16873	0.14771	0.10883	0.2213	0.18716	0.054346	0.27056	0.22025	0.242	0.13982	0.27905	0.33217	0.25353	0.10235	0.12233	0.058644	-1.9646	-2.7667	-2.5458	-2.4188	-3.0062	-2.8542	-2.8083	-3.0542	-2.5729	-2.8583	-2.7958	-2.6458	-3.1104	-2.6937	-2.6292	-2.625	-60.461	184.659	144.939	242.665	40.474	254.663	156.644	227.247	-1.236	64.351	210.922	215.040	240.329	47.088	48.181	230.795	0.00068971	0.0002898	0.00082997	1220.5	8.8652e-07	3.2939e-06	1135.3	347.44	2.7191e-06	2.1751e-05	384.59	124.8	119.97	35.197	6.2621e-06	35.942	0.0014987	0.0018604	0.00047981	1295.1	1.6853e-05	2.0657e-05	1082.3	330.72	1.7484e-05	2.0945e-05	378.95	122.26	116.93	35.983	1.8208e-05	37.041	-33.462	-38.916	-26.031	-88.023	-62.885	13.838	-89.099	-83.159	80.722	5.296	-84.977	-81.150	-78.767	-74.637	-12.026	-77.914	-8191	255	
1921.956	1	1	0	0	0.073013	0.10857	0.22035	0.13371	0.28208	0.21453	0.30814	0.29076	0.21488	0.19749	0.10679	0.20141	0.031265	0.10869	0.13357	0.1603	-1.9729	-2.7021	-2.7604	-2.6063	-2.8542	-2.6562	-2.5833	-3.1104	-2.6771	-2.8688	-2.9125	-2.4313	-2.8438	-2.5896	-2.4188	-2.9229	174.448	23.899	169.123	-2.198	242.453	170.137	170.550	225.300	225.517	-73.344	250.183	28.255	221.403	31.555	-71.959	254.897	0.00045548	0.00098643	0.00045753	1203.3	7.0857e-06	4.3807e-06	1119.9	344.04	9.8765e-06	2.0962e-05	382.24	124.13	117.91	34.546	3.8218e-06	34.849	0.0016447	0.0018933	0.0004513	1273.6	1.8518e-05	2.0553e-05	1066.9	328.62	1.9115e-05	2.0259e-05	374.31	121.15	117.3	35.225	1.7173e-05	36.18	12.354	237.979	-22.439	-88.081	95.525	-1.282	-89.055	-83.259	223.003	85.840	-84.863	-80.970	-78.827	-75.167	123.349	-78.047	-8191	255	
1922.052	1	1	0	0	0.20167	0.28937	0.099112	0.23336	0.30727	0.17159	0.13481	0.1635	0.29162	0.21725	0.11527	0.15174	0.28083	0.085198	0.26799	0.10241	-2.1854	-2.6542	-3.0229	-2.5583	-2.8937	-2.6208	-2.6708	-3.0479	-2.7542	-2.9688	-3.0563	-2.5125	-2.9958	-2.6813	-2.6042	-3.0292	-52.555	189.637	17.804	227.493	222.587	154.979	-93.505	168.975	-47.825	167.896	7.359	205.626	163.084	-35.868	-34.954	152.054	0.00071491	0.0032907	0.00030445	1220	2.2958e-05	1.8331e-05	1127.9	346.67	1.2802e-05	8.7038e-06	382.21	123.03	118.54	33.59	1.3283e-05	34.791	0.0017276	0.0017628	0.00043273	1277.8	1.9813e-05	1.8994e-05	1070.5	329.04	2.0266e-05	1.885e-05	372.39	120.62	117.88	34.112	1.6525e-05	36.089	-36.444	-39.190	29.687	-88.167	218.843	-26.532	-89.159	-83.167	250.025	156.170	-85.256	-80.920	-78.260	-75.132	131.941	-77.938	-8191	255	
1922.173	1	1	0	0	0.099884	0.13463	0.06393	0.35191	0.2113	0.28413	0.16486	0.22759	0.23965	0.0766	0.078261	0.35189	0.30564	0.23416	0.33366	0.17549	-2.2021	-2.7021	-2.7958	-2.5729	-2.8604	-2.975	-2.6979	-2.8354	-2.4979	-2.6792	-2.8625	-2.7021	-2.9146	-2.7229	-2.5958	-2.9229	193.700	21.568	-93.883	191.986	115.092	-39.309	-71.178	200.008	60.502	76.076	245.177	175.217	253.883	202.468	-25.748	8.370	0.00047127	0.001345	0.00038785	1225.6	4.1514e-06	1.7298e-05	1137.8	347.35	1.2566e-05	1.2436e-05	383.2	122.74	118.42	33.052	4.1162e-06	34.328	0.0017823	0.0016332	0.00040496	1300.1	1.9898e-05	1.7353e-05	1076.9	331.98	1.9773e-05	1.7614e-05	371.25	121.26	117.48	33.415	1.6018e-05	36.221	-46.067	-0.947	-20.823	-88.631	114.639	32.710	-89.226	-83.124	-38.726	110.383	-84.773	-81.153	-78.963	-74.889	217.999	-77.780	-8191	255	
1922.267	1	1	0	0	0.30827	0.26998	0.22275	0.30734	0.20105	0.11883	0.25875	0.27315	0.24332	0.17849	0.076073	0.35201	0.2635	0.29092	0.12724	0.097465	-2.1896	-2.4979	-2.8479	-2.3646	-2.6604	-2.5917	-2.4854	-2.9292	-2.6333	-2.6875	-2.9833	-2.6083	-2.6729	-2.8375	-2.3708	-2.8187	173.307	44.385	-30.117	-94.334	15.081	0.233	122.423	208.563	242.461	-20.286	49.050	-49.906	184.981	148.142	224.319	-26.399	0.00038669	0.0013822	0.00011607	1233.1	1.0199e-05	1.2342e-05	1136	347.68	1.4146e-05	1.2731e-05	380.47	118.88	116.8	32.106	4.9552e-06	32.695	0.0017164	0.0015556	0.00039177	1321.2	1.8838e-05	1.6298e-05	1072.6	332.52	1.8125e-05	1.6128e-05	366.81	119.14	115.11	32.353	1.5527e-05	35.271	38.999	-17.807	115.952	-88.375	135.328	11.725	-89.052	-83.137	-37.572	-23.820	-85.168	-81.302	-78.804	-75.267	-11.765	-77.967	-8191	255	
1922.363	1	1	0	0	0.050161	0.17346	0.37681	0.066059	0.1046	0.19535	0.34297	0.20119	0.15511	0.1155	0.37932	0.10966	0.10287	0.090998	0.17953	0.14447	-2.2354	-2.4646	-2.7583	-2.7667	-2.6896	-2.9375	-2.5521	-2.8812	-2.6583	-2.6583	-3.0354	-2.5833	-2.85	-3.0542	-2.2875	-2.9396	-25.963	-35.112	115.571	23.960	-79.755	110.255	193.841	149.164	-25.775	74.238	232.280	164.158	231.217	217.812	96.393	149.488	0.00032142	0.0010998	0.00019099	1227.7	1.3147e-05	2.9877e-06	1140.3	344.96	1.309e-05	1.0144e-05	374.51	118.84	116.76	31.83	1.3218e-05	32.444	0.0015514	0.0014298	0.00038757	1327.6	1.7046e-05	1.502e-05	1071.2	331.62	1.6418e-05	1.5177e-05	365.77	118.4	113.35	31.594	1.6148e-05	34.801	-43.890	9.820	12.516	-88.376	81.877	2.758	-89.102	-83.453	11.210	61.994	-85.155	-80.804	-78.904	-74.911	-83.635	-77.844	-8191	255	
1922.459	1	1	0	0	0.12306	0.37671	0.077071	0.11343	0.29235	0.14328	0.20831	0.14767	0.14314	0.16697	0.28038	0.090456	0.21184	0.12425	0.020962	0.28336	-2.6	-2.4146	-2.8625	-2.5292	-2.5042	-3.1792	-2.6854	-3.0229	-2.7292	-2.4313	-3.0896	-2.8208	-2.7687	-2.9062	-2.2313	-2.8167	15.918	3.665	126.138	236.047	-33.220	211.425	232.063	186.480	228.440	129.671	215.445	173.728	252.169	-54.162	107.108	93.878	0.00027768	0.0012467	0.0005898	1252.1	1.4974e-05	9.6993e-06	1134.4	347.62	7.8995e-06	5.4299e-06	378.43	119.12	116.38	31.965	3.9527e-06	32.695	0.0014199	0.0013627	0.00041585	1332.2	1.5874e-05	1.4408e-05	1079.4	331.83	1.5173e-05	1.4498e-05	369.53	117.59	112.85	31.659	1.7155e-05	34.734	11.568	24.257	98.878	-88.622	66.551	97.807	-89.225	-83.295	-12.865	67.445	-85.399	-80.801	-78.689	-75.233	-64.423	-78.284	-8191	255	
1922.555	1	1	0	0	0.30725	0.062909	0.1799	0.24836	0.20154	0.046893	0.5092	0.19199	0.17317	0.074599	0.2065	0.25833	0.25133	0.1141	0.23025	0.010414	-2.45	-2.5208	-2.7812	-2.5375	-2.4667	-2.8792	-2.9	-2.7854	-2.9125	-2.4771	-3.2083	-2.8833	-2.7229	-3.025	-2.5604	-2.6375	-74.048	-59.722	160.663	188.846	-79.741	191.777	226.438	235.323	-93.904	110.947	239.516	224.283	-81.203	143.088	252.577	132.156	0.00012935	0.00095021	0.00012919	1241.2	8.5546e-06	8.9149e-06	1140.8	348.62	1.4253e-05	1.3069e-05	382.94	121.32	118.12	32.356	8.3902e-06	33.404	0.0013486	0.0013514	0.00045377	1315.6	1.561e-05	1.4869e-05	1091.1	331.72	1.5265e-05	1.5471e-05	377.57	119.29	114.57	32.468	1.8811e-05	35.197	102.891	-44.177	65.427	-88.602	125.711	-20.951	-88.960	-83.485	-58.474	214.716	-84.821	-81.073	-78.716	-75.128	86.827	-78.515	-8191	255	
1922.652	1	1	0	0	0.29827	0.10956	0.18914	0.20622	0.095732	0.18364	0.16833	0.19519	0.21699	0.24838	0.091189	0.030088	0.18208	0.16597	0.10287	0.022616	-2.4333	-2.5208	-2.7375	-2.675	-2.5104	-3.0521	-2.6646	-2.7458	-3.0542	-2.4188	-3.0229	-2.9167	-2.8063	-2.9021	-2.7417	-2.575	0.809	148.863	104.712	232.454	167.647	59.666	170.349	215.771	92.555	-26.661	234.214	-84.370	-72.781	-60.714	98.392	161.569	0.00042112	0.00061001	0.00023048	1239.7	6.1855e-06	1.1843e-05	1136.4	345.32	1.3624e-05	8.4402e-06	378.87	120.87	117.74	32.025	8.5563e-06	33.4	0.0013531	0.0014918	0.00048767	1297.9	1.5736e-05	1.6614e-05	1088	329.63	1.5205e-05	1.7189e-05	375.96	118.64	114.03	32.768	1.8673e-05	34.707	54.556	-35.023	-2.615	-88.001	74.932	-61.674	-88.840	-83.364	-64.535	100.558	-85.053	-80.773	-78.931	-74.834	28.222	-77.238	-8191	255	
1922.772	1	1	0	0	0.19881	0.070104	0.10489	0.050624	0.1631	0.058776	0.17482	0.16235	0.14344	0.033839	0.2	0.2053	0.1539	0.14562	0.18328	0.18238	-2.6188	-2.6208	-2.7083	-2.7104	-2.5229	-2.7729	-2.8083	-2.6188	-2.9125	-2.6	-3.1125	-2.9875	-2.5875	-2.8917	-2.5792	-2.5417	-94.828	-47.020	-82.694	-35.525	30.709	-91.938	137.243	219.415	214.504	-42.305	215.412	160.887	-67.555	177.165	86.285	178.416	0.00045717	0.00050317	0.00044361	1229.9	1.0929e-05	1.2211e-05	1129.8	344.7	2.2316e-05	7.73e-06	375.36	119.92	116.45	31.862	2.3268e-05	32.818	0.001336	0.0016537	0.00047603	1280.4	1.5283e-05	1.8038e-05	1077.2	327.64	1.4937e-05	1.8616e-05	370.39	117.03	113.2	32.794	1.7476e-05	34.116	-22.392	141.221	-56.579	-87.788	7.915	248.992	-88.897	-83.246	148.579	85.794	-85.078	-81.324	-78.910	-75.013	27.597	-77.915	-8191	255	
1922.867	1	1	0	0	0.14225	0.088167	0.18485	0.23553	0.28168	0.085218	0.2966	0.25229	0.22649	0.10736	0.040623	0.15854	0.1559	0.10684	0.13811	0.12242	-2.5396	-2.9188	-2.9062	-2.7271	-2.6646	-3.0187	-3.0583	-2.8104	-2.9354	-2.5375	-2.775	-3.1458	-2.7313	-2.9125	-2.7583	-2.4625	214.609	-48.685	122.691	11.584	111.828	-20.723	96.886	214.334	184.454	-75.869	136.223	201.753	34.348	226.228	107.102	80.212	0.00041582	0.00014602	0.00039775	1221.2	3.3043e-06	9.1362e-06	1130.8	343.24	1.2542e-05	1.0161e-05	379.86	119.57	116.54	31.742	2.1559e-05	32.092	0.0013689	0.0017381	0.00044333	1269.5	1.6024e-05	1.9164e-05	1071.8	326.33	1.5762e-05	1.8915e-05	369.73	116.04	113.6	32.39	1.5988e-05	33.322	-58.839	154.340	-15.503	-88.325	-90.612	-52.475	-89.060	-83.309	227.777	92.555	-85.164	-80.971	-78.869	-75.067	-21.082	-77.787	-8191	255	
1922.963	1	1	0	0	0.1409	0.066993	0.21535	0.18728	0.083524	0.10659	0.12678	0.20053	0.017637	0.10506	0.2011	0.13859	0.034928	0.25157	0.25513	0.32587	-2.5875	-2.5812	-2.8396	-2.9354	-2.4417	-2.8	-3.025	-2.7417	-3.1	-2.8812	-2.7646	-3.0604	-2.8042	-2.9042	-2.9771	-2.5271	-10.643	128.080	56.814	-68.883	250.299	-95.730	251.444	149.245	-59.935	14.386	212.671	-68.126	15.692	70.513	212.932	-76.993	0.00062145	0.00086876	0.00043597	1248.6	1.2097e-05	1.5322e-05	1140.8	345.96	5.9073e-06	2.183e-05	378.55	118.68	117.12	31.415	1.127e-05	32.372	0.0014512	0.0016833	0.00040716	1269.2	1.7029e-05	1.8462e-05	1072.8	327.24	1.737e-05	1.8329e-05	368.11	115.77	114.8	32.098	1.5488e-05	33.444	-20.712	-49.821	16.862	-88.716	179.259	46.782	-89.274	-83.234	94.405	61.522	-85.159	-80.892	-78.774	-74.737	59.146	-78.201	-8191	255	
1923.059	1	1	0	0	0.15317	0.11501	0.027363	0.15577	0.3041	0.1112	0.2182	0.19061	0.091885	0.33245	0.22198	0.29804	0.17046	0.12882	0.13538	0.067739	-2.5458	-2.725	-2.5604	-3.0667	-2.8	-2.7604	-2.9375	-2.5792	-2.8812	-2.8937	-2.8792	-3.1312	-2.4521	-2.6208	-2.8375	-2.7708	87.191	22.134	236.574	206.445	39.805	213.833	257.541	196.254	43.490	196.858	243.596	208.198	-72.376	223.723	128.481	-57.362	0.00020355	0.0027135	0.00037879	1236.2	2.8452e-06	8.1561e-06	1145.1	345.74	4.5528e-06	7.45e-06	377.43	118.81	116.46	31.41	1.6059e-05	31.71	0.0015721	0.0016004	0.00040023	1276.8	1.8103e-05	1.7355e-05	1072.7	327.09	1.8386e-05	1.6885e-05	365.12	115.65	114.67	31.988	1.4862e-05	33.519	-38.941	-22.737	-40.712	-88.386	93.338	-19.434	-89.076	-83.387	212.298	98.890	-84.812	-80.990	-78.942	-74.788	2.426	-78.172	-8191	255	
1923.132	1	1	0	0	0.072814	0.10717	0.085644	0.15014	0.20476	0.19099	0.11293	0.18169	0.10252	0.094018	0.11067	0.24355	0.19533	0.23489	0.0024628	0.44814	-2.6542	-2.7542	-2.3771	-3.1208	-2.825	-2.6208	-3.025	-2.7979	-2.6729	-2.7875	-2.5396	-3.0667	-2.9396	-2.5646	-2.875	-2.6854	204.775	-84.144	185.049	121.430	117.306	-30.257	225.582	226.716	204.898	249.293	166.756	-84.197	57.939	202.654	153.250	192.640	0.00017426	0.00054353	0.00025217	1227	6.4491e-06	4.0672e-06	1126.8	342.81	8.6801e-06	1.4031e-05	373.16	118.69	116.08	31.656	1.386e-05	32.374	0.0016426	0.0015013	0.0003853	1285.5	1.8593e-05	1.6472e-05	1056	326.44	1.8365e-05	1.596e-05	361.18	116.48	114.37	32.047	1.4696e-05	34.46	88.588	39.240	-48.682	-88.432	166.171	-63.111	-89.034	-83.327	14.213	-13.752	-85.106	-80.901	-78.809	-75.225	141.179	-77.463	-8191	255	
1923.251	1	1	0	0	0.17706	0.080733	0.1884	0.048783	0.19312	0.099746	0.35427	0.41746	0.15216	0.032097	0.1416	0.19582	0.26236	0.13025	0.1525	0.24176	-2.5187	-2.9542	-2.3625	-2.8104	-2.8187	-2.675	-3.0292	-2.5708	-2.7708	-2.7812	-2.6083	-3.1333	-2.825	-2.6729	-3.0021	-2.7583	42.914	59.218	258.192	33.517	20.764	-66.529	241.316	214.028	-23.917	-92.670	-68.736	212.622	229.902	123.292	2.358	120.084	0.00036152	0.00028575	0.00018263	1228.8	1.5433e-05	1.6698e-05	1122	342.73	1.851e-05	1.9126e-05	375.4	119.34	116.4	32.517	1.1761e-05	33.273	0.0016065	0.0014514	0.00038145	1300	1.7688e-05	1.5819e-05	1054.1	327.95	1.7508e-05	1.5268e-05	362.46	118.32	114.03	32.438	1.4976e-05	35.583	56.358	69.857	-1.788	-88.769	3.270	28.408	-89.169	-82.975	-74.278	97.723	-85.276	-81.238	-78.524	-74.826	69.059	-77.753	-8191	255	
1923.347	1	1	0	0	0.14399	0.16291	0.071616	0.32015	0.10957	0.19254	0.34198	0.28259	0.23304	0.11639	0.27622	0.084839	0.13952	0.18303	0.13102	0.2414	-2.3854	-2.8125	-2.4813	-2.7958	-2.9333	-2.6896	-3.2896	-2.9292	-2.6771	-3.1125	-2.6688	-2.8875	-2.9917	-2.5771	-3.1083	-2.5021	145.864	-30.115	98.345	-54.745	129.058	37.662	213.242	189.579	39.161	-97.878	-88.053	65.989	-83.540	36.505	45.259	223.848	0.00034072	0.0014825	0.00019442	1221.9	5.3733e-06	1.5865e-06	1124.6	344.62	2.084e-05	1.7347e-05	376.55	121.1	118.19	33.237	4.895e-06	33.992	0.0015327	0.0013865	0.00039747	1316.7	1.6785e-05	1.5276e-05	1062	329.9	1.6503e-05	1.4764e-05	368.22	120.47	114.56	33.007	1.6105e-05	36.276	18.112	246.189	157.788	-88.257	12.824	244.316	-89.141	-82.952	-16.286	83.886	-85.039	-80.803	-78.739	-74.746	68.328	-78.207	-8191	255	
1923.443	1	1	0	0	0.12798	0.23021	0.095064	0.14382	0.088859	0.22962	0.1194	0.33653	0.073018	0.070289	0.085814	0.31171	0.17052	0.1377	0.096865	0.12673	-2.2104	-2.7958	-2.625	-2.8292	-2.9375	-2.7396	-3.0875	-2.8667	-2.6396	-3.25	-2.7854	-2.7167	-3.0604	-2.55	-2.7646	-2.625	-88.473	248.951	-15.147	122.196	-33.443	81.033	174.576	194.301	70.123	251.654	-48.233	247.266	-80.816	-33.263	163.451	-72.799	0.00023129	0.00073213	0.00016062	1232.6	2.4595e-06	1.5672e-05	1128	344.57	2.0257e-05	4.5596e-06	374.23	120.45	116.97	32.713	1.3025e-05	33.585	0.0014267	0.0013365	0.00042714	1315	1.5653e-05	1.4721e-05	1071.3	329.66	1.5746e-05	1.4522e-05	369.36	118.83	113.34	32.53	1.7467e-05	35.202	73.509	-0.384	126.913	-87.889	75.150	79.583	-89.288	-83.205	9.490	16.829	-85.059	-81.015	-78.949	-75.223	218.622	-77.576	-8191	255	
1923.540	1	1	0	0	0.14206	0.10472	0.16584	0.19806	0.15459	0.12571	0.24681	0.2887	0.25354	0.34842	0.11977	0.11647	0.14102	0.082886	0.065578	0.077186	-2.0271	-2.8812	-2.5229	-2.6771	-2.9646	-2.5229	-3.1417	-2.8708	-2.35	-2.9771	-2.4771	-2.8479	-3.0229	-2.4583	-2.7604	-2.7125	94.618	79.161	25.276	246.083	-12.204	206.415	199.083	116.764	-93.938	20.926	187.902	196.910	19.157	-13.657	95.622	151.869	0.00016937	0.00059846	0.00037471	1220.3	2.3344e-06	5.607e-06	1119.3	342.75	1.6117e-05	1.5269e-05	373.9	118.76	115.9	32.323	4.7394e-06	33.144	0.0013617	0.0013071	0.00044736	1284.1	1.4674e-05	1.4589e-05	1065.5	325.46	1.467e-05	1.4484e-05	366.68	115.97	111.54	32.301	1.7723e-05	34.283	-69.019	126.336	-74.093	-88.758	130.975	-48.760	-89.048	-83.248	20.316	152.160	-85.466	-80.949	-78.621	-74.884	76.387	-77.500	-8191	255	
1923.660	1	1	0	0	0.057122	0.10463	0.036702	0.15281	0.44591	0.031981	0.26888	0.13719	0.16803	0.22119	0.067719	0.17232	0.077126	0.2778	0.077043	0.21869	-2.1688	-2.9958	-2.6083	-2.525	-3.0563	-2.5583	-2.8958	-3.0604	-2.5958	-2.9792	-2.6063	-2.5917	-2.9521	-2.5354	-2.6604	-2.7438	72.552	87.977	15.831	146.574	174.891	132.819	189.095	160.372	0.004	141.632	104.769	153.707	239.227	93.656	28.457	206.178	0.00015031	0.0010347	0.00015284	1223.3	3.9849e-06	6.1336e-06	1120.4	341.31	1.5852e-05	5.124e-06	375.02	119.35	115.85	32.502	5.4844e-06	33.157	0.0012839	0.0013837	0.00044899	1265.8	1.3871e-05	1.5592e-05	1065.4	323.23	1.3993e-05	1.5567e-05	365.92	115.4	111.07	32.713	1.6931e-05	34.159	14.048	164.564	-45.969	-88.070	181.211	-77.760	-89.212	-83.183	10.836	-42.550	-85.007	-81.082	-78.969	-75.080	-35.521	-77.609	-8191	255	
1923.755	1	1	0	0	0.13539	0.13125	0.076488	0.1102	0.31528	0.078292	0.17089	0.36762	0.21141	0.028836	0.48309	0.32925	0.12026	0.228	0.12927	0.027467	-2.2146	-2.9583	-2.6667	-2.4958	-2.9958	-2.6625	-2.7354	-2.9583	-2.6646	-3.0062	-2.8458	-2.7667	-3.225	-2.3958	-2.675	-2.975	237.564	0.461	232.657	154.822	-24.778	73.956	178.651	204.202	182.479	-71.330	190.242	258.804	222.276	207.564	-37.586	-58.268	0.00032351	0.00085758	0.00053328	1212.1	5.2178e-06	9.851e-06	1125.2	341.37	2.8695e-06	1.937e-05	378.22	119.36	117.33	32.834	9.8842e-06	33.694	0.0012448	0.001508	0.00042712	1259.6	1.3755e-05	1.6968e-05	1066	323.47	1.4256e-05	1.7121e-05	367.1	116.26	112.37	33.227	1.5883e-05	34.363	-54.754	131.111	-34.221	-88.494	218.404	235.556	-89.141	-83.125	207.030	194.386	-85.371	-80.703	-78.825	-74.518	34.767	-77.911	-8191	255	
1923.853	1	1	0	0	0.081723	0.13665	0.077217	0.042451	0.067289	0.34567	0.1145	0.34711	0.26027	0.22954	0.082412	0.24649	0.085105	0.003479	0.25192	0.10698	-2.3042	-2.9104	-2.6937	-2.5167	-2.8458	-2.5146	-2.7875	-3.0375	-2.3688	-2.7396	-2.9188	-2.7146	-3.1917	-2.6354	-2.5083	-2.9854	160.794	-69.860	142.283	94.486	191.683	254.215	167.854	220.482	133.066	-25.227	135.713	152.375	243.266	40.003	147.981	193.140	0.000579	0.00041105	0.0004432	1235.4	1.0223e-05	9.3921e-06	1132.1	343.76	2.3467e-06	4.7185e-06	376.32	119.93	116.19	33.227	2.0066e-05	34.41	0.0012772	0.001547	0.00039022	1251.2	1.4089e-05	1.6994e-05	1067.4	323.45	1.4652e-05	1.7086e-05	362.57	115.73	112.78	33.698	1.4872e-05	34.658	-40.505	-46.177	-26.725	-88.064	-71.567	108.791	-89.153	-83.391	39.034	200.867	-84.863	-80.502	-78.825	-74.879	26.197	-78.105	-8191	255	
1923.947	1	1	0	0	0.208	0.0072733	0.14611	0.043792	0.25408	0.22923	0.12243	0.11213	0.073957	0.2678	0.16095	0.18844	0.17467	0.26102	0.077952	0.14149	-2.0729	-2.8792	-2.8229	-2.3708	-2.9729	-2.8604	-2.7208	-2.8917	-2.4146	-2.8937	-2.9021	-2.4875	-2.9292	-2.7438	-2.7625	-2.9771	98.271	10.284	138.988	102.808	214.536	242.797	-92.143	206.738	237.144	-36.995	-38.487	111.719	125.915	168.187	30.468	191.204	0.00043156	0.00030217	0.00012792	1223.7	3.6054e-06	9.8704e-06	1130.5	343.15	6.4865e-06	1.3356e-05	371.87	119.31	116.45	33.438	1.3469e-05	34.422	0.0013639	0.0015332	0.00036563	1240.7	1.5344e-05	1.6234e-05	1057.9	321.76	1.581e-05	1.6165e-05	357.88	114.67	113.34	33.552	1.4347e-05	34.717	-15.360	-22.751	2.987	-87.860	184.298	7.828	-89.023	-83.163	246.806	40.857	-84.910	-80.722	-78.712	-74.767	19.131	-77.677	-8191	255	
1924.043	1	1	0	0	0.079817	0.19196	0.030634	0.097269	0.058264	0.1357	0.2924	0.19812	0.40962	0.12322	0.34019	0.037746	0.20399	0.31911	0.10545	0.26911	-2.1417	-2.8042	-2.9583	-2.7625	-2.8479	-2.8771	-2.7271	-3.0833	-2.7771	-2.7458	-2.9354	-2.4062	-3.1167	-3.1271	-2.4542	-2.8792	49.874	73.940	-56.608	119.113	100.608	132.547	217.110	243.670	12.846	4.222	258.232	-65.041	206.091	-55.506	170.212	132.768	0.00021417	0.0013512	0.00013987	1221.2	5.5688e-06	6.5033e-06	1124.2	343.82	4.7947e-06	1.2055e-05	374.65	119.72	116.71	33.991	8.1797e-06	34.678	0.0014755	0.0014684	0.00035178	1248.1	1.6704e-05	1.559e-05	1055.8	323.3	1.6595e-05	1.5354e-05	358.67	115.61	114.05	33.546	1.3675e-05	35.325	-98.005	8.106	80.595	-88.339	156.287	-47.919	-89.443	-83.364	-94.621	173.990	-85.555	-80.705	-78.900	-74.728	51.163	-77.793	-8191	255	
1924.139	1	1	0	0	0.16369	0.1188	0.13807	0.084528	0.089055	0.10722	0.19637	0.13203	0.091744	0.15145	0.21666	0.1372	0.2043	0.41166	0.22213	0.095897	-2.1958	-2.7875	-3.0979	-2.4354	-2.7542	-3.05	-2.9708	-3.2354	-2.5896	-2.7667	-3.1083	-2.7562	-3.0083	-2.9208	-2.5417	-2.9521	163.443	7.552	57.352	70.772	127.359	94.840	144.137	177.174	119.508	-20.604	201.772	78.692	-74.774	165.401	-54.867	61.941	0.00053757	0.002236	0.00018804	1228.5	7.3845e-06	3.7563e-06	1133.8	348.57	3.3883e-06	8.6179e-06	378	121.14	118.24	34.405	5.6819e-06	35.424	0.001492	0.0013599	0.00033885	1264.1	1.6635e-05	1.4382e-05	1060.4	327.48	1.624e-05	1.4302e-05	360.87	117.79	114.63	33.702	1.3108e-05	36.324	-12.742	-18.281	83.942	-88.364	120.126	26.859	-89.390	-82.928	44.636	23.962	-85.084	-81.150	-78.969	-74.778	124.802	-77.975	-8191	255	
1924.260	1	1	0	0	0.049671	0.060899	0.24134	0.2863	0.092788	0.2475	0.12477	0.12712	0.16735	0.32907	0.43635	0.11819	0.20263	0.31937	0.23765	0.16287	-2.1396	-2.4583	-2.8979	-2.75	-2.8604	-2.875	-2.5	-3.0917	-2.8333	-2.5979	-3.1937	-2.8354	-2.7313	-2.95	-2.5729	-3.0271	149.609	106.812	-76.969	101.493	22.137	-27.139	245.393	202.525	-53.185	-69.267	-50.957	-72.483	219.794	-58.839	228.898	-80.277	0.00029506	0.00052713	0.00023849	1238.8	9.8533e-06	7.4171e-06	1137.9	347.57	1.4131e-05	1.3318e-05	382.7	120.82	116.92	34.115	6.0774e-06	34.894	0.001421	0.0012876	0.00033153	1292.5	1.5773e-05	1.3736e-05	1064	329.24	1.5418e-05	1.3885e-05	361.2	118.22	113.48	33.448	1.3527e-05	36.129	91.478	5.025	70.623	-88.126	38.969	14.445	-89.219	-83.231	-9.167	69.581	-85.190	-80.853	-78.509	-75.269	-12.631	-78.029	-8191	255	
1924.356	1	1	0	0	0.21813	0.051139	0.11986	0.19162	0.10112	0.26253	0.40854	0.11691	0.16968	0.080335	0.29981	0.15192	0.076268	0.20592	0.28501	0.16014	-2.3438	-2.425	-3.0792	-2.5792	-3.0083	-2.9854	-2.6667	-3.2396	-2.7896	-2.55	-3.2396	-2.6417	-2.5771	-3.0938	-2.5604	-2.8271	-39.118	93.486	34.175	-60.738	-43.751	176.450	220.370	-80.736	258.163	-74.328	62.198	64.815	-79.160	-5.554	-8.115	-5.512	0.00042589	0.00079845	0.00028829	1246.4	4.2917e-06	6.7353e-06	1127.9	344.65	1.0988e-05	1.3214e-05	374.17	119.09	116.58	34.278	1.0143e-05	34.869	0.0012995	0.0012294	0.00034201	1299.2	1.4547e-05	1.3034e-05	1057.6	327.99	1.4261e-05	1.3357e-05	359.18	116.75	112.21	33.326	1.456e-05	36.011	4.584	-38.627	170.678	-88.977	-6.256	-60.559	-89.282	-83.454	61.865	47.764	-85.153	-80.954	-79.000	-74.875	235.553	-77.990	-8191	255	
1924.428	1	1	0	0	0.098764	0.12754	0.029835	0.12947	0.11619	0.042597	0.10151	0.21722	0.087665	0.12132	0.25635	0.17389	0.34246	0.2461	0.15908	0.18682	-2.6521	-2.5938	-2.85	-2.6146	-2.6875	-3.0438	-2.8854	-3.1104	-2.8167	-2.4854	-3.0563	-2.6792	-2.8021	-3.175	-2.5208	-2.9333	248.909	203.237	165.623	-37.194	-33.326	97.600	160.543	228.895	242.626	117.308	239.396	42.280	-76.849	162.422	242.100	-98.709	0.00040413	0.00079306	0.00022344	1240.5	5.2301e-06	8.346e-06	1131.3	345.94	7.6257e-06	3.5699e-06	376.4	119.5	118.18	34.503	5.0836e-06	35.356	0.0012426	0.0011993	0.00037622	1287.7	1.3935e-05	1.2793e-05	1062.6	327.93	1.3529e-05	1.3145e-05	363.53	116.67	112.52	33.658	1.5678e-05	36.262	162.445	-3.595	203.101	-87.903	64.663	13.744	-89.433	-82.898	152.354	15.533	-85.417	-80.907	-78.719	-74.851	226.901	-77.577	-8191	255	
1924.548	1	1	0	0	0.074011	0.29645	0.055483	0.036203	0.16665	0.1726	0.23253	0.32439	0.056267	0.065139	0.16579	0.38371	0.076226	0.10613	0.22219	0.16535	-2.3083	-2.6063	-2.8937	-2.7042	-2.5625	-2.9854	-2.6958	-2.9104	-2.9917	-2.5104	-2.9146	-2.9167	-2.6312	-2.9417	-2.5062	-2.8208	-27.998	-58.382	195.049	169.139	171.195	227.916	178.037	237.542	86.062	18.305	195.502	193.542	-89.107	199.370	36.852	154.023	9.7098e-05	0.00082833	0.00024812	1243.3	1.0188e-05	8.3225e-06	1134.6	347.64	1.1152e-05	1.5095e-05	379.71	120.2	117.39	34.776	1.3997e-05	35.486	0.0011741	0.0011913	0.00039923	1277.8	1.3337e-05	1.2928e-05	1073.7	328.02	1.298e-05	1.3554e-05	368.18	116.54	112.22	34.029	1.6131e-05	36.074	89.219	-93.602	143.290	-88.099	8.605	119.306	-89.166	-83.169	23.243	207.929	-85.156	-80.622	-79.004	-75.004	78.362	-77.671	-8191	255	
1924.644	1	1	0	0	0.11564	0.14594	0.23071	0.17759	0.30704	0.15369	0.075371	0.25711	0.14754	0.040898	0.32005	0.076162	0.060674	0.061076	0.11127	0.11141	-2.6188	-2.5687	-2.8854	-2.8292	-2.3917	-3.1396	-2.8958	-2.875	-3.1625	-2.725	-2.7646	-2.8104	-2.7958	-3.0354	-2.7083	-2.7812	102.805	237.580	32.628	99.077	123.844	-18.346	242.426	175.429	240.220	116.780	-88.700	14.547	-86.125	-2.074	80.815	98.970	7.9073e-05	0.00068641	0.00012751	1249.5	3.6057e-06	5.0138e-06	1147.7	347.9	7.2359e-06	9.5102e-06	377.54	119.42	116.77	34.511	1.5244e-05	34.856	0.0011382	0.0013015	0.00040936	1265.9	1.3079e-05	1.4058e-05	1078.7	327.23	1.2565e-05	1.4688e-05	366.66	115.41	111.62	33.982	1.5626e-05	35.353	-50.103	118.300	257.122	-88.539	54.396	222.866	-89.297	-83.251	18.753	-64.826	-85.267	-81.088	-78.801	-75.051	13.971	-77.018	-8191	255	
1924.741	1	1	0	0	0.038144	0.1381	0.076754	0.12211	0.24091	0.12021	0.25354	0.20681	0.090747	0.27516	0.19202	0.12069	0.072134	0.19911	0.18605	0.070408	-2.4875	-2.2708	-2.9437	-3.0208	-2.4042	-2.9542	-3.0708	-2.825	-3.1188	-2.7833	-2.85	-3.0604	-2.7979	-2.9917	-2.7313	-2.6792	91.790	18.805	68.048	81.588	105.669	170.175	213.699	187.534	-80.034	166.892	255.671	210.063	-1.901	204.289	-48.661	-65.915	0.0002148	0.00061556	0.0002978	1242.3	5.0407e-06	1.2156e-05	1130.4	345.09	1.3176e-05	8.3143e-06	373.95	118.73	116.53	33.888	2.0368e-05	34.257	0.0011295	0.0014125	0.00039316	1253.3	1.2906e-05	1.549e-05	1061.7	323.84	1.283e-05	1.6049e-05	360.08	113.72	111.37	33.788	1.4585e-05	34.524	10.186	64.718	42.542	-88.400	-36.826	241.925	-89.245	-83.385	97.239	178.310	-85.292	-81.072	-79.035	-75.090	5.789	-77.680	-8191	255	
1924.835	1	1	0	0	0.24804	0.082615	0.19922	0.14484	0.26124	0.1571	0.20222	0.40439	0.2371	0.032763	0.10044	0.026022	0.1983	0.33369	0.23123	0.27661	-2.5354	-2.6813	-2.7062	-3.0563	-2.6458	-3.0187	-3.0854	-2.8312	-3.0187	-2.825	-2.8146	-3.0083	-2.4688	-2.9979	-2.775	-2.6875	83.837	164.282	228.462	204.344	11.102	182.879	224.931	191.535	106.450	145.565	-40.399	72.766	223.623	232.992	201.646	142.786	9.0831e-05	0.00090405	0.00068237	1239.3	4.701e-06	1.5106e-05	1126.3	344.4	1.6055e-05	8.2817e-06	372.32	118.5	116.4	33.71	8.0247e-06	34.033	0.0011903	0.0014893	0.00037777	1247.2	1.4169e-05	1.657e-05	1057.5	323.28	1.4039e-05	1.6672e-05	359.54	113.54	112.06	33.623	1.411e-05	34.586	197.678	-2.636	-71.837	-88.127	73.982	74.845	-89.059	-83.525	139.706	92.948	-84.884	-81.239	-78.633	-74.800	-81.610	-77.879	-8191	255	
1924.956	1	1	0	0	0.37826	0.14668	0.048547	0.042172	0.14811	0.21575	0.13191	0.3093	0.055601	0.134	0.11089	0.22407	0.091556	0.15295	0.18055	0.23373	-2.5542	-2.5312	-2.7313	-3.2479	-2.6521	-2.8229	-3.075	-2.8187	-3.1542	-2.7542	-2.6562	-3.0312	-2.6229	-2.8521	-2.9479	-2.6104	18.842	-5.753	207.775	-37.542	-70.833	52.678	177.287	223.943	32.611	-20.903	-77.735	173.828	76.553	252.638	62.608	-16.404	0.00017503	0.00083087	0.0004186	1237	8.5081e-06	1.2202e-05	1130	345.48	1.6374e-05	1.7132e-05	375.79	117.99	116.54	33.541	5.2807e-06	34.529	0.0013209	0.0014709	0.00036114	1239.7	1.5427e-05	1.6096e-05	1059.1	324.14	1.5494e-05	1.5862e-05	359.45	114.15	113.49	33.556	1.3908e-05	34.644	-34.780	49.983	39.025	-88.373	131.038	5.228	-89.144	-83.229	177.170	38.024	-85.395	-81.077	-79.014	-75.012	-77.887	-78.332	-8191	255	
1925.027	1	1	0	0	0.26615	0.209	0.083409	0.06356	0.23786	0.085413	0.16362	0.33827	0.13479	0.1593	0.40217	0.20238	0.080394	0.32503	0.26653	0.14851	-2.4479	-2.6979	-2.65	-2.9396	-2.7188	-2.7542	-3.0125	-2.5583	-2.9583	-2.6208	-2.6375	-3.1333	-2.55	-2.6854	-3.0292	-2.4167	179.082	-1.308	179.448	-47.348	123.468	212.424	126.821	167.655	100.953	253.933	257.155	166.095	-75.773	186.349	-47.158	-2.171	0.00043427	0.00076239	0.00042584	1240.8	6.8677e-06	1.0103e-05	1127.3	347.05	6.3421e-06	2.1033e-06	374.17	118.07	116.17	32.847	6.4215e-06	33.686	0.0014618	0.0014184	0.00035772	1256.4	1.6638e-05	1.5379e-05	1056.4	325.32	1.656e-05	1.4911e-05	358.59	114.72	113.9	32.749	1.3212e-05	34.27	-27.062	48.337	-20.239	-88.187	-29.278	33.562	-88.772	-83.110	125.903	48.166	-85.236	-81.155	-78.587	-74.774	90.094	-77.844	-8191	255	
1925.123	1	1	0	0	0.1267	0.24567	0.044564	0.1245	0.074394	0.14674	0.073163	0.13753	0.18165	0.13823	0.17994	0.048685	0.17589	0.1165	0.12132	0.039248	-2.3917	-2.6437	-2.4042	-2.8667	-2.6625	-2.4729	-3.1	-2.775	-2.875	-2.6979	-2.6458	-3.1542	-2.5354	-2.8271	-2.8688	-2.5417	177.687	153.246	238.447	203.094	28.786	62.176	140.431	245.394	-0.660	4.444	195.346	77.583	235.992	-92.825	37.732	86.461	0.0003426	0.0012849	0.00017783	1231.7	4.5639e-06	7.4983e-06	1121.4	343.72	1.7477e-06	4.5021e-06	369.09	116.42	115.22	32.529	6.5812e-06	32.83	0.0014871	0.0013226	0.00034162	1264.2	1.65e-05	1.4415e-05	1045.8	323.84	1.6211e-05	1.4031e-05	353.43	113.47	111.98	32.068	1.2505e-05	33.976	27.192	-88.540	65.114	-88.764	246.111	4.669	-89.107	-83.110	34.617	213.646	-85.139	-80.737	-78.897	-74.840	-14.191	-77.832	-8191	255	
1925.220	1	1	0	0	0.20079	0.089888	0.16423	0.15689	0.11786	0.16557	0.1487	0.20061	0.1893	0.10265	0.17459	0.18621	0.22517	0.13988	0.15912	0.27798	-2.5646	-2.7854	-2.4708	-3.0312	-2.6	-2.5687	-3.1688	-2.5875	-2.7521	-3.2521	-2.6729	-2.8063	-2.8896	-2.6229	-2.7125	-2.4958	168.435	32.863	130.678	-86.768	48.024	171.245	145.636	201.163	-51.931	85.392	-75.591	-43.514	203.602	-99.944	168.089	236.734	0.00061768	0.00024971	0.00013399	1240.2	1.9054e-06	3.5771e-06	1122.2	343.73	3.5079e-06	9.4334e-06	369.47	115.55	114.52	31.55	7.875e-06	31.496	0.0013706	0.0012099	0.00032326	1281.5	1.4863e-05	1.3227e-05	1048.6	325.06	1.4637e-05	1.2865e-05	352.31	113.07	110.49	31.109	1.278e-05	33.229	-17.945	113.715	21.846	-89.112	47.398	8.615	-89.191	-83.313	14.470	5.703	-85.297	-81.162	-79.190	-75.295	-75.477	-77.738	-8191	255	
1925.340	1	1	0	0	0.4709	0.10665	0.20237	0.20228	0.20797	0.14409	0.2652	0.23585	0.090505	0.14303	0.19153	0.029228	0.26546	0.46952	0.20929	0.12785	-2.5083	-2.7271	-2.4	-3.0167	-2.8333	-2.5229	-2.975	-2.7854	-2.5812	-3.0583	-2.4813	-3.0854	-2.9875	-2.7583	-3.0396	-2.8979	-68.955	-28.519	-9.171	-99.410	-59.765	198.579	187.250	209.870	42.138	203.555	228.534	223.898	240.592	-97.407	181.517	26.102	0.00011464	0.0021161	0.0002195	1247.4	7.639e-06	3.8477e-07	1130.1	344.68	1.3357e-05	7.7559e-06	373.26	116.08	114.36	30.897	7.4687e-06	31.252	0.0012736	0.0011613	0.00034194	1299.2	1.406e-05	1.3153e-05	1060.1	326.76	1.4071e-05	1.2645e-05	358.12	113.28	109.79	30.452	1.4167e-05	32.69	235.250	-58.932	-14.901	-89.082	48.297	199.912	-89.181	-83.284	29.647	136.747	-85.120	-81.103	-78.801	-75.062	212.637	-77.223	-8191	255	
1925.436	1	1	0	0	0.2697	0.28443	0.10165	0.14433	0.16819	0.078019	0.30072	0.12075	0.13896	0.077785	0.222	0.13038	0.2045	0.11461	0.094932	0.21211	-2.2917	-2.8771	-2.5646	-2.8542	-2.8	-2.45	-3.1979	-2.8292	-2.4479	-3.1813	-2.8146	-2.7396	-2.8833	-2.6833	-2.9333	-2.7375	41.198	-64.840	131.374	244.822	213.228	6.137	-73.801	241.055	147.974	182.704	136.945	-89.940	216.354	147.801	-0.416	178.226	0.00053853	0.0005702	0.00032456	1263.2	1.052e-05	9.4985e-06	1137.9	345.8	2.5565e-05	6.3362e-06	374.76	116.41	114.78	30.95	3.3427e-06	31.521	0.0012289	0.0011448	0.0003767	1303.8	1.3514e-05	1.292e-05	1072.9	327.37	1.3696e-05	1.2796e-05	362.34	113.34	110.02	30.438	1.5613e-05	32.562	56.096	107.057	253.427	-88.502	106.143	66.099	-89.265	-83.404	64.876	120.870	-85.384	-81.193	-78.999	-74.769	150.494	-78.069	-8191	255	
1925.533	1	1	0	0	0.043966	0.043304	0.17595	0.18692	0.12314	0.20963	0.18975	0.2188	0.052479	0.11764	0.19515	0.16089	0.034763	0.18106	0.16977	0.062996	-2.175	-2.8833	-2.4313	-2.7313	-2.9667	-2.5875	-3.0812	-2.7646	-2.6063	-3.1813	-2.7625	-2.7229	-3.1125	-2.4521	-2.6771	-2.9417	25.551	-23.327	212.733	-91.221	124.202	-1.332	204.882	149.399	36.301	205.664	-90.908	-0.395	58.260	137.382	-61.477	149.689	0.0005788	0.00040275	2.6557e-05	1256.5	9.2941e-06	1.3057e-06	1127.1	344.47	1.3305e-05	1.1067e-05	366.61	115.13	114.24	30.883	2.1436e-06	31.069	0.0012038	0.0011903	0.00041031	1285.9	1.3441e-05	1.3792e-05	1066.7	324.1	1.3725e-05	1.4082e-05	360.38	112.33	109.23	30.71	1.6624e-05	32.123	8.696	-94.726	257.531	-88.261	74.587	248.896	-89.167	-83.353	-55.451	181.065	-85.240	-80.983	-78.998	-75.089	212.604	-78.227	-8191	255	
1925.653	1	1	0	0	0.30368	0.13241	0.1992	0.32407	0.1495	0.2564	0.16404	0.20607	0.18369	0.23032	0.22341	0.0601	0.011032	0.078432	0.3052	0.053923	-2.1542	-3.0979	-2.4708	-2.8229	-2.9417	-2.3937	-3.1167	-3.0563	-2.3896	-2.9813	-2.6729	-2.6771	-3.1021	-2.5521	-2.9062	-2.8104	87.177	-97.513	134.961	168.871	153.327	124.113	128.496	216.972	86.206	235.673	-55.062	-81.669	109.452	45.318	208.991	-28.481	0.00026775	0.00086281	0.00029457	1245	1.2214e-05	1.5969e-05	1125.9	342.62	1.7118e-05	5.127e-06	368.7	114.96	113.46	30.253	2.3522e-05	30.758	0.0011927	0.0013093	0.00041523	1267.3	1.2971e-05	1.5046e-05	1062.9	321.98	1.3463e-05	1.5414e-05	359.77	111.7	109.11	30.735	1.6493e-05	31.678	-58.600	212.471	5.209	-88.416	107.338	61.255	-89.259	-83.446	14.967	109.286	-85.616	-80.640	-78.722	-74.878	12.805	-77.440	-8191	255	
1925.725	1	1	0	0	0.31285	0.23117	0.1733	0.12644	0.25487	0.13109	0.32095	0.20919	0.13867	0.094558	0.26778	0.24838	0.14148	0.20213	0.27679	0.28432	-2.0563	-2.7229	-2.5646	-2.6521	-2.7771	-2.7125	-2.875	-2.9729	-2.7188	-2.9229	-2.9604	-2.7125	-2.8271	-2.7958	-2.7792	-2.95	36.923	3.794	180.813	-73.692	84.356	172.586	109.875	189.392	53.131	70.983	240.111	214.538	156.135	170.987	175.858	35.242	0.00026664	0.0022143	0.00019083	1232.3	6.6745e-06	1.2526e-05	1126.8	340.99	5.8716e-06	1.3112e-05	371.43	114.86	114.88	30.451	1.5616e-05	30.33	0.001227	0.0014817	0.00040556	1259.9	1.3275e-05	1.647e-05	1062.8	321.1	1.3776e-05	1.6698e-05	359.39	111.82	110.32	31	1.5677e-05	31.625	148.590	95.144	218.660	-88.045	202.259	120.440	-89.131	-83.409	160.806	158.049	-85.156	-81.225	-78.885	-74.691	3.319	-77.678	-8191	255	
1925.821	1	1	0	0	0.21674	0.23949	0.10246	0.16973	0.072198	0.054264	0.21266	0.43211	0.25724	0.22064	0.086829	0.16847	0.077654	0.41789	0.18025	0.052595	-2.0958	-2.9542	-2.8042	-2.7562	-2.8583	-2.7646	-2.8479	-3.0021	-2.6042	-2.8229	-2.8771	-2.7083	-3.0187	-2.6833	-2.5875	-2.8917	242.364	-87.748	225.049	224.548	94.422	173.159	200.978	195.183	1.179	0.580	163.783	226.032	239.990	182.233	66.863	181.768	0.00064624	0.00076637	0.00047793	1249.2	3.9463e-06	7.747e-06	1134.3	343.08	1.0113e-05	3.7105e-06	373.1	115.57	114.01	30.506	1.3171e-05	30.449	0.001301	0.0015914	0.00039219	1270.2	1.4745e-05	1.7534e-05	1069.4	322.87	1.5179e-05	1.7456e-05	360.36	112.27	111.35	31.187	1.5365e-05	31.585	-70.884	4.668	-36.284	-88.225	156.995	-83.712	-89.090	-83.151	130.254	52.967	-84.977	-80.699	-78.975	-75.119	32.410	-78.007	-8191	255	
1925.940	1	1	0	0	0.25122	0.13419	0.18648	0.13813	0.15434	0.1196	0.18894	0.22005	0.010414	0.20829	0.20875	0.081528	0.11303	0.11094	0.19121	0.075704	-2.2938	-2.7188	-2.7042	-2.5729	-3.0312	-2.7083	-2.6271	-3.175	-2.4188	-2.875	-2.9271	-2.7333	-3.2104	-2.775	-2.6667	-2.9354	165.817	79.756	-27.585	251.878	72.445	1.272	228.668	214.156	228.471	253.494	10.050	195.200	-12.917	188.049	143.921	-12.894	0.00028773	0.0019263	0.00038877	1244.3	9.105e-06	7.839e-06	1127	342.4	3.081e-06	7.0065e-06	368.29	114.27	113.75	30.546	1.6424e-05	30.584	0.0014716	0.0016367	0.00038859	1278.1	1.7067e-05	1.7867e-05	1061.7	322.04	1.7345e-05	1.7341e-05	355.57	111.02	112.07	30.895	1.495e-05	31.567	84.284	56.168	73.606	-87.853	-85.340	7.789	-89.171	-83.467	-96.731	65.319	-85.500	-80.851	-78.586	-74.721	71.095	-77.927	-8191	255	
1926.036	1	1	0	0	0.1011	0.076951	0.23024	0.27363	0.20158	0.093041	0.016179	0.1181	0.25378	0.045828	0.069046	0.15548	0.17827	0.15968	0.24575	0.24704	-2.1771	-2.5979	-2.7458	-2.7667	-2.95	-3.05	-2.6521	-3.1208	-2.6021	-2.9313	-2.8083	-2.6292	-3.0083	-2.8104	-2.6292	-2.9833	225.373	-25.931	-49.627	-15.735	52.543	243.828	-17.499	155.259	10.874	201.219	-57.620	253.533	231.279	135.671	152.736	190.589	0.00016695	0.0012271	0.0001783	1240.2	3.4338e-06	9.7887e-06	1128.7	339.99	2.2315e-05	9.5246e-06	367	113.08	114.22	30.037	1.6677e-05	29.962	0.0015615	0.0015371	0.00037114	1283.7	1.7885e-05	1.6508e-05	1059.2	322.59	1.8394e-05	1.6647e-05	354.02	111.36	112.07	30.375	1.5101e-05	31.732	50.962	-13.348	234.202	-88.260	43.824	-12.442	-89.162	-83.748	65.625	73.906	-84.957	-81.487	-79.181	-75.110	88.881	-77.982	-8191	255	
1926.132	1	1	0	0	0.23666	0.072276	0.23701	0.053603	0.18209	0.18208	0.0878	0.16328	0.26176	0.21359	0.16975	0.01883	0.3252	0.35423	0.26141	0.21149	-2.4021	-2.4542	-3.0271	-2.7271	-2.8042	-2.9125	-2.5375	-3.0438	-2.6833	-2.5542	-3.0521	-2.6083	-2.7646	-2.9917	-2.4562	-2.9979	72.247	63.924	35.328	8.981	1.042	130.287	-51.457	-79.952	-71.113	122.255	222.964	-12.477	204.320	110.176	207.945	193.604	0.00020861	0.00071073	0.00049843	1249.3	9.0133e-06	1.5306e-05	1131.6	341.3	2.3158e-05	6.1908e-06	366.08	113.37	113.96	29.747	6.7965e-06	30.144	0.0016272	0.0014777	0.000369	1310.9	1.827e-05	1.5686e-05	1061.6	326.21	1.7807e-05	1.5974e-05	354.65	112.5	111.91	30.109	1.4831e-05	32.434	21.567	-61.374	50.879	-88.408	88.449	14.719	-88.957	-83.237	34.233	119.779	-85.121	-81.140	-79.198	-75.011	223.880	-77.933	-8191	255	
1926.253	1	1	0	0	0.12711	0.16221	0.37807	0.14298	0.1144	0.25966	0.093826	0.20503	0.02434	0.17673	0.18324	0.33025	0.046755	0.16845	0.094929	0.1493	-2.5458	-2.8104	-2.9146	-2.6792	-2.7125	-2.9479	-2.8854	-2.8521	-2.8667	-2.5917	-3.1875	-2.5542	-2.8208	-2.8521	-2.5479	-2.8104	11.392	-75.189	133.638	220.360	45.764	-38.380	187.743	195.744	180.647	93.564	-34.225	208.755	135.288	123.203	11.972	115.985	0.00027596	0.00082262	8.993e-05	1259	9.8333e-06	4.4786e-06	1140.2	343.65	1.9978e-05	1.6345e-05	367.74	113.22	113.9	29.674	9.4043e-06	29.764	0.0015415	0.0014195	0.00036881	1335	1.7317e-05	1.5093e-05	1065.9	328.4	1.6523e-05	1.5029e-05	356.84	113.11	110.82	29.716	1.4886e-05	32.346	54.960	3.006	-56.795	-88.249	107.274	107.446	-89.335	-83.435	52.517	116.800	-85.182	-81.039	-79.134	-75.231	142.509	-78.370	-8191	255	
1926.324	1	1	0	0	0.11701	0.40023	0.089494	0.13479	0.074725	0.22196	0.15613	0.29334	0.21088	0.11108	0.026778	0.15528	0.1233	0.23785	0.16764	0.28353	-2.2417	-2.4479	-2.825	-2.5292	-2.6417	-3.0521	-2.7104	-3.0021	-2.5563	-2.4083	-3.2833	-2.5812	-2.7729	-2.9458	-2.4938	-2.6354	-53.008	-87.250	-32.150	92.280	152.069	119.736	75.576	257.377	-5.288	-28.989	104.421	205.725	207.824	207.468	32.319	215.589	0.00021988	0.00071943	0.00039649	1261	1.5027e-06	7.9271e-06	1129.9	342.32	9.4551e-06	1.452e-05	365.61	112.99	112.87	29.718	1.6137e-05	29.637	0.0014222	0.0013551	0.0003834	1336.7	1.58e-05	1.4129e-05	1067.2	327.12	1.5351e-05	1.4335e-05	355.75	111.95	109.48	29.554	1.584e-05	31.84	22.330	-28.182	138.698	-87.534	43.521	-24.015	-89.190	-83.256	-28.595	71.748	-85.880	-80.946	-78.924	-75.037	233.787	-78.710	-8191	255	
1926.421	1	1	0	0	0.23925	0.074396	0.17777	0.089705	0.25822	0.30323	0.21781	0.17298	0.036059	0.10123	0.13034	0.01543	0.36823	0.17718	0.16624	0.27421	-2.4583	-2.3896	-2.9333	-2.6896	-2.4833	-3.0208	-2.8042	-2.7979	-3.1771	-2.5292	-2.8208	-2.8646	-2.3958	-2.9708	-2.6083	-2.6604	-50.632	40.083	160.258	148.302	15.876	224.706	195.851	253.163	104.847	177.228	177.082	255.586	193.690	-76.466	17.391	204.349	0.00033162	0.00079119	0.00011008	1241.6	1.687e-05	1.2793e-06	1118	339.73	6.3464e-06	3.1714e-06	362.53	113.71	113.36	30.116	8.3911e-06	30.194	0.0013074	0.0012782	0.00040842	1307.2	1.4809e-05	1.3602e-05	1060.8	323.67	1.4194e-05	1.3889e-05	355.96	111.22	108.9	29.815	1.6516e-05	31.715	33.629	-8.776	30.030	-88.112	30.952	42.873	-89.220	-83.200	-57.531	112.505	-85.089	-81.201	-78.907	-75.404	138.412	-78.135	-8191	255	
1926.517	1	1	0	0	0.11992	0.31755	0.077942	0.056125	0.020476	0.22249	0.21667	0.15369	0.2869	0.097705	0.27823	0.060748	0.19015	0.097436	0.11074	0.16552	-2.4562	-2.7188	-2.7375	-2.6229	-2.4562	-2.9313	-2.8083	-3.025	-2.9146	-2.4167	-3.1958	-2.6833	-2.6792	-3.1104	-2.6292	-2.7062	-13.743	244.034	-6.066	-75.356	230.636	56.581	188.922	155.333	77.916	210.780	236.537	256.670	232.371	-99.934	40.588	167.440	0.00044	0.00077491	0.00011979	1254.2	1.3124e-05	4.2429e-06	1124	342.04	1.1154e-05	1.0198e-05	366.72	114.45	113.68	30.298	9.2906e-06	30.552	0.0012248	0.0012754	0.00042097	1287.6	1.4003e-05	1.3951e-05	1067.9	322.47	1.3485e-05	1.4607e-05	359.49	111.21	109.07	30.292	1.6728e-05	31.812	16.983	214.378	-32.919	-87.669	61.577	116.519	-89.106	-83.045	-71.931	-46.921	-85.157	-81.199	-78.956	-74.823	149.468	-77.414	-8191	255	
1926.637	1	1	0	0	0.12163	0.052889	0.075573	0.22393	0.18887	0.078204	0.1946	0.197	0.082254	0.20369	0.035351	0.12569	0.15741	0.071128	0.098135	0.082035	-2.5792	-2.5042	-2.8729	-2.8021	-2.4938	-3.1437	-2.6646	-2.8229	-2.8292	-2.5938	-3.0271	-3.2687	-2.6	-2.8187	-2.7979	-2.7958	243.324	253.108	38.997	77.060	237.546	-35.401	175.869	-71.705	51.957	-63.016	73.021	77.175	120.775	188.107	126.027	207.149	0.0005355	0.0012197	0.00020812	1255.6	3.3738e-06	4.0051e-06	1127.6	343.54	1.0657e-05	1.5287e-05	371.02	115.05	114.47	30.8	6.9227e-06	31.096	0.001165	0.001367	0.0004215	1270.3	1.3421e-05	1.4966e-05	1069.6	323.12	1.2876e-05	1.5424e-05	361.05	111.35	109.42	30.926	1.5409e-05	31.68	14.440	50.600	-6.405	-88.077	101.057	64.789	-89.175	-83.297	84.135	-93.426	-85.148	-81.131	-78.887	-74.790	39.332	-78.431	-8191	255	
1926.732	1	1	0	0	0.15914	0.13858	0.23892	0.13396	0.1938	0.060726	0.25349	0.14226	0.11364	0.10537	0.17435	0.27942	0.11671	0.19211	0.29582	0.107	-2.4021	-2.7896	-2.8708	-2.7604	-2.3854	-3.1583	-2.9208	-2.7708	-2.8021	-2.6771	-2.8396	-2.7771	-2.5646	-2.9521	-2.8833	-2.7042	-78.712	121.463	26.621	-95.275	-79.109	-60.669	151.694	-70.742	137.588	190.832	-58.591	184.919	162.593	-66.840	-87.144	148.323	0.00060273	0.00082999	0.00037763	1252.4	8.0928e-06	4.8794e-06	1135.1	342.74	1.3313e-05	5.6934e-06	369.34	113.56	114.37	30.21	9.8481e-06	30.24	0.0011275	0.0014104	0.00038526	1259.8	1.2993e-05	1.5594e-05	1063.7	321.79	1.2759e-05	1.5901e-05	355.55	109.18	109.06	30.621	1.4349e-05	31.108	-20.623	234.586	-11.082	-88.079	30.617	227.382	-89.272	-83.400	108.732	26.126	-85.291	-81.204	-78.733	-75.480	-74.164	-77.507	-8191	255	
1926.828	1	1	0	0	0.14403	0.24568	0.026305	0.092669	0.14676	0.037651	0.12343	0.25739	0.068971	0.075121	0.27547	0.17931	0.34321	0.057565	0.18168	0.1263	-2.6521	-2.6688	-2.5708	-2.9229	-2.5354	-2.9625	-2.9771	-2.6708	-3.1333	-2.6917	-2.8146	-3.0333	-2.6333	-2.8375	-2.7792	-2.7062	179.911	165.251	-52.482	190.613	104.048	-80.646	181.470	145.730	160.421	171.529	203.813	255.927	-57.338	8.237	20.378	-96.816	0.00040068	0.0023317	0.00015352	1251.4	8.1565e-06	5.4844e-06	1120.2	339.61	6.3495e-06	1.0401e-06	367.08	113.47	113.96	30.106	9.436e-06	30.537	0.0012066	0.0014916	0.00037027	1243.6	1.4256e-05	1.6277e-05	1051.1	318.39	1.4388e-05	1.651e-05	351.86	109.45	109.76	30.463	1.3882e-05	31.117	-16.499	61.381	-28.595	-88.181	-98.686	-11.043	-89.096	-83.452	109.715	-48.782	-85.393	-81.121	-78.493	-74.747	0.269	-77.881	-8191	255	
1926.924	1	1	0	0	0.45215	0.056464	0.088305	0.059016	0.25249	0.091445	0.21424	0.14878	0.19023	0.075286	0.13241	0.097323	0.23343	0.14268	0.2583	0.1059	-2.525	-2.4979	-2.6521	-3.2104	-2.475	-2.8688	-3.0833	-2.6188	-2.8479	-2.6896	-2.8604	-3.0542	-2.4708	-2.7792	-2.8312	-2.6646	216.325	231.635	-53.937	14.115	-53.159	173.666	221.692	-51.206	-36.291	-40.427	60.695	-65.789	24.168	42.792	238.760	181.139	0.00048202	0.00097591	0.00023272	1238.4	9.176e-06	1.0695e-05	1127.4	340.94	1.0302e-05	1.9294e-05	368.08	114.99	113.71	30.678	1.3332e-05	30.738	0.0013525	0.0014796	0.00036267	1243.9	1.5922e-05	1.6261e-05	1053.6	319.71	1.6189e-05	1.6174e-05	353.68	110.89	111.43	30.821	1.3684e-05	31.712	-12.918	45.355	72.160	-88.100	192.648	-96.537	-89.049	-83.336	-9.382	45.675	-85.023	-81.340	-78.853	-75.275	-12.601	-78.102	-8191	255	
1927.020	1	1	0	0	0.30031	0.089596	0.060493	0.15581	0.24765	0.063507	0.084229	0.18698	0.082899	0.25233	0.10984	0.16202	0.10587	0.1758	0.14851	0.075806	-2.3917	-2.8146	-2.6229	-2.9208	-2.5542	-2.7875	-3.0646	-2.6042	-2.975	-3.1021	-2.5708	-3.1625	-2.7646	-2.7542	-3.0875	-2.7208	77.062	82.317	258.560	115.984	140.263	-94.584	194.907	210.895	173.610	109.619	-72.611	248.201	-85.191	228.038	143.054	209.500	9.7029e-06	0.0012256	0.00012272	1235.2	4.7435e-06	1.6349e-05	1129.8	343.54	1.003e-05	1.2379e-05	372.37	117.39	115.6	31.261	1.2235e-05	31.76	0.0014635	0.0013959	0.00034963	1256.4	1.6592e-05	1.4943e-05	1057.6	323.05	1.6649e-05	1.499e-05	357.22	113.55	112.94	31.191	1.3266e-05	32.827	64.035	-75.957	9.705	-88.370	133.225	2.299	-88.851	-83.239	20.546	5.991	-85.069	-80.665	-79.047	-75.167	74.187	-77.477	-8191	255	
1927.116	1	1	0	0	0.042451	0.062892	0.40645	0.087779	0.45751	0.10282	0.25542	0.16544	0.14463	0.034962	0.18517	0.16747	0.17309	0.1464	0.20739	0.427	-2.4271	-2.8125	-2.5938	-2.8979	-2.7292	-2.7062	-3.1625	-2.7438	-2.9271	-2.7687	-2.3292	-2.9667	-2.9125	-2.6979	-3.1333	-2.8208	-58.678	246.265	-51.132	69.566	87.296	36.429	238.858	187.355	-19.189	33.203	122.520	176.974	244.286	-22.257	145.235	-91.833	0.00045374	0.00054349	0.00050497	1243.8	1.4608e-05	7.2307e-06	1130.4	343.31	1.5291e-05	1.1961e-05	370.28	115.31	114.15	30.998	1.2164e-05	31.072	0.0014876	0.0013196	0.00034152	1278.7	1.6444e-05	1.4274e-05	1053.9	324.44	1.5995e-05	1.4027e-05	353.74	113.08	111.11	30.68	1.2682e-05	32.49	-69.398	255.434	24.506	-88.068	84.544	-3.275	-89.313	-83.094	-0.731	113.906	-84.927	-81.189	-78.608	-75.302	104.998	-77.834	-8191	255	
1927.213	1	1	0	0	0.30832	0.20335	0.30122	0.25274	0.12941	0.088799	0.027044	0.17633	0.21512	0.026115	0.074984	0.076981	0.12548	0.02464	0.07436	0.14513	-2.3417	-2.8417	-2.6104	-2.8958	-2.7229	-2.8187	-2.9479	-2.8438	-2.7833	-3.0292	-2.6396	-2.9688	-2.8229	-2.4729	-3.0333	-2.5917	87.542	13.924	143.879	-60.357	-85.932	-101.179	221.115	208.944	145.538	-57.878	-96.618	-97.923	254.350	27.333	242.265	208.307	0.00031874	0.00083462	0.00022862	1248	1.8553e-05	7.7205e-06	1124.3	341.2	2.369e-05	8.2605e-06	366.56	113.38	113.08	30.083	5.6347e-06	29.809	0.0013758	0.0012274	0.00033184	1294.1	1.5187e-05	1.371e-05	1050.2	323.81	1.5009e-05	1.315e-05	352.24	111.97	109.37	29.825	1.3428e-05	31.903	52.366	49.487	177.933	-88.384	37.416	37.108	-89.224	-83.377	-24.186	5.924	-85.044	-81.094	-79.028	-75.014	132.440	-78.071	-8191	255	
1927.333	1	1	0	0	0.14479	0.097476	0.14679	0.11043	0.050933	0.06972	0.18251	0.099927	0.18014	0.16775	0.088688	0.15676	0.079854	0.41687	0.065674	0.099511	-2.3563	-3.1396	-2.4542	-2.8354	-2.8208	-2.7354	-3.0542	-2.7229	-2.7708	-3.0687	-2.5667	-2.9313	-2.9833	-2.4896	-3.1729	-2.9104	171.911	255.115	-85.180	187.730	125.992	152.470	152.305	189.945	236.637	247.707	126.010	3.068	75.471	231.391	44.965	71.036	5.0898e-05	0.00097331	0.000138	1264.1	1.2603e-05	1.1902e-05	1134.8	343.26	2.5635e-05	3.1543e-06	368.18	114.43	113.77	29.655	1.6654e-05	29.995	0.0012872	0.0011737	0.00035577	1304.7	1.3969e-05	1.3103e-05	1063.2	324.78	1.3782e-05	1.2438e-05	354.69	111.69	108.59	29.198	1.4497e-05	31.486	120.504	45.137	117.473	-88.479	20.288	-95.150	-89.243	-83.133	36.621	36.279	-85.405	-81.076	-78.691	-74.986	204.599	-77.787	-8191	255	
1927.429	1	1	0	0	0.22521	0.13512	0.1664	0.18517	0.053936	0.1155	0.11705	0.41387	0.18743	0.32516	0.21609	0.21644	0.10135	0.13678	0.33441	0.12369	-2.3312	-3.1063	-2.4437	-2.7542	-2.8542	-2.4979	-3.2021	-2.9437	-2.6063	-2.9625	-2.7625	-2.8375	-2.95	-2.6646	-2.8792	-2.8021	122.958	-35.647	-56.677	254.161	-88.197	185.718	239.377	239.413	183.724	-26.039	-79.394	234.270	-83.216	-8.811	-93.402	209.866	0.00044319	0.00095573	0.00034922	1275	8.7753e-06	8.6406e-06	1140.3	343.8	8.8143e-06	3.9241e-06	369.27	115.07	113.71	29.495	4.4832e-06	29.999	0.0012189	0.0011426	0.00038561	1302.3	1.3434e-05	1.2935e-05	1073.9	325.29	1.3582e-05	1.2725e-05	359.62	111.66	108.77	29.25	1.5505e-05	31.14	-46.743	87.902	-32.424	-88.256	52.006	-68.723	-89.174	-83.297	108.271	65.176	-85.520	-81.176	-79.056	-75.366	9.830	-77.951	-8191	255	
1927.526	1	1	0	0	0.27405	0.12275	0.2303	0.17286	0.20301	0.080618	0.26387	0.22129	0.066582	0.04356	0.084123	0.20648	0.092182	0.1902	0.10006	0.33292	-2.2125	-2.8792	-2.6604	-2.7375	-2.8	-2.5187	-3.1021	-2.8146	-2.5542	-3	-2.7896	-2.6917	-3.0104	-2.7125	-2.7562	-2.7625	42.254	-63.046	-68.725	-9.625	63.526	-99.537	220.141	219.647	225.357	55.050	45.374	-83.054	177.846	249.209	-53.057	254.214	0.00011667	0.0014031	0.00040342	1263.1	1.4983e-05	1.125e-05	1132.5	344.56	1.0401e-05	4.7377e-06	369.01	112.99	112.71	29.098	2.3808e-06	29.14	0.0011775	0.0011871	0.00040375	1282.4	1.2795e-05	1.356e-05	1072.7	323.13	1.3077e-05	1.3559e-05	358.09	109.65	107.16	29.047	1.5557e-05	30.091	116.596	-12.912	72.227	-88.235	65.338	-66.308	-89.402	-83.454	35.390	187.849	-85.455	-81.029	-78.830	-75.401	229.782	-77.548	-8191	255	
1927.622	1	1	0	0	0.16778	0.3522	0.098233	0.2527	0.14447	0.16785	0.093802	0.23701	0.24278	0.097653	0.10172	0.24771	0.085073	0.048062	0.32343	0.23928	-2.1354	-2.925	-2.6542	-2.5417	-3.1354	-2.6729	-2.8583	-3.025	-2.4604	-3.0438	-2.6104	-2.6729	-3.0083	-2.4938	-2.5625	-3	56.925	120.893	174.851	-79.271	-88.323	-83.773	-63.406	152.706	204.039	12.329	-90.474	-63.007	-0.785	216.424	-35.323	74.961	0.0006087	0.00059812	0.00018323	1264.8	5.0351e-06	6.8351e-06	1131.1	341.69	1.1025e-05	3.8402e-06	364.73	111.73	112.06	28.946	1.6017e-05	29.412	0.0011199	0.001265	0.00038741	1263.3	1.2092e-05	1.4297e-05	1064.8	320.05	1.2352e-05	1.4349e-05	354.75	108.63	106.79	29.309	1.4401e-05	29.844	23.439	195.760	-96.622	-87.847	78.825	52.637	-89.106	-83.311	204.629	228.486	-85.294	-81.159	-79.160	-75.157	3.202	-77.396	-8191	255	
1927.718	1	1	0	0	0.059473	0.2109	0.1676	0.12309	0.082986	0.2193	0.12385	0.039336	0.13185	0.18468	0.11343	0.10174	0.13175	0.25331	0.17368	0.07761	-1.9958	-2.9979	-2.7167	-2.6437	-3	-2.5729	-2.9375	-2.8646	-2.45	-2.9271	-3.0167	-2.6792	-3.1125	-2.5208	-2.7271	-3.1104	-13.106	247.314	112.252	255.716	47.979	228.064	20.085	121.863	71.936	70.576	165.129	-52.293	-100.107	163.663	210.949	34.803	0.00038118	0.00025854	0.00016868	1265.1	4.081e-06	1.0376e-05	1144.4	343.72	3.9324e-06	7.9417e-06	369.32	112.51	112.32	28.935	9.745e-06	29.011	0.0010933	0.0013342	0.00036439	1267	1.2157e-05	1.5114e-05	1070.2	320.58	1.2527e-05	1.5122e-05	353.36	108.09	107.16	29.221	1.326e-05	29.552	-13.868	-19.606	79.988	-88.380	42.269	211.588	-89.245	-83.343	-98.894	53.428	-85.381	-81.446	-79.019	-74.770	55.304	-78.408	-8191	255	
1927.812	1	1	0	0	0.22651	0.14156	0.10612	0.13849	0.16358	0.11887	0.13628	0.15331	0.1653	0.086949	0.10355	0.095423	0.29538	0.11934	0.12901	0.12695	-2.2292	-2.875	-2.6979	-2.5792	-2.9229	-2.6917	-2.9542	-3.1604	-2.4896	-2.9167	-3.0708	-2.6167	-3.0229	-2.7062	-2.8229	-2.9646	103.493	198.152	-25.486	-49.963	109.174	250.171	227.986	225.755	164.789	-25.418	-30.392	174.674	200.346	-53.234	247.678	-92.793	0.00088485	0.0014474	0.0002017	1281.4	4.5395e-06	5.2706e-06	1151.6	345.46	1.6103e-05	1.7016e-05	374.23	114.58	112.87	28.828	1.0709e-05	29.229	0.0011401	0.0013618	0.00032673	1261.8	1.2856e-05	1.483e-05	1076.3	321.46	1.3334e-05	1.4932e-05	354.62	109	108.3	29.202	1.2568e-05	29.548	-32.909	-86.486	219.645	-88.576	155.776	7.885	-89.254	-83.431	159.264	102.456	-85.489	-80.946	-79.253	-75.135	52.619	-77.617	-8191	255	
1927.933	1	1	0	0	0.19818	0.25996	0.37303	0.041901	0.032694	0.14808	0.15814	0.12195	0.24667	0.058927	0.15582	0.094902	0.053834	0.18433	0.14057	0.0086846	-2.2188	-2.8312	-2.7792	-2.6104	-3.0958	-2.7021	-2.8583	-3.1521	-2.5146	-2.8271	-2.6562	-2.7	-2.8771	-2.7771	-2.775	-2.7146	-97.184	-80.105	-2.994	213.344	242.615	150.424	-93.793	225.919	-87.478	121.662	-51.804	-29.378	105.038	-99.392	-59.212	212.644	6.687e-05	0.00038994	5.5934e-05	1273.8	3.3865e-06	1.3733e-05	1154.6	347.16	1.888e-05	1.2399e-05	370.3	113.15	112.6	29.542	6.8902e-06	29.122	0.0012298	0.0013115	0.00031349	1261	1.3947e-05	1.3857e-05	1073.9	322.15	1.4117e-05	1.3713e-05	351.59	108.09	108.55	29.225	1.22e-05	29.726	196.182	-93.438	201.909	-88.187	-85.251	-11.544	-89.292	-83.720	185.911	63.041	-85.512	-81.169	-78.928	-75.284	158.907	-78.690	-8191	255	
1928.029	1	1	0	0	0.18229	0.5891	0.25842	0.19924	0.46681	0.27246	0.12254	0.16821	0.095425	0.27516	0.18416	0.35152	0.17878	0.14707	0.18818	0.10651	-2.4062	-2.5583	-2.9729	-2.5646	-2.6917	-2.9375	-2.6083	-3.0292	-2.8187	-2.6063	-3.0396	-2.5333	-2.9708	-2.9646	-2.475	-3.1521	-66.114	-36.301	66.615	209.628	55.710	-27.188	-88.001	145.162	-72.734	178.065	191.064	24.372	-43.491	-61.749	184.283	69.495	0.00015471	0.00021472	0.0001594	1283.5	3.3287e-06	7.1017e-06	1153.1	345.28	9.0496e-06	1.3971e-05	368.19	112.65	112.62	29.176	7.6067e-06	29.219	0.0012928	0.0012276	0.00030083	1269	1.4709e-05	1.3197e-05	1067.7	322	1.4747e-05	1.3348e-05	349.21	108.39	108.96	28.943	1.1913e-05	30.134	-7.188	-91.890	93.531	-88.087	18.081	25.271	-89.127	-83.552	-54.521	24.972	-85.131	-81.478	-79.337	-75.457	159.429	-77.890	-8191	255	
1928.125	1	1	0	0	0.19771	0.079299	0.068526	0.097893	0.33259	0.13081	0.20192	0.34686	0.18091	0.32301	0.067571	0.31058	0.16866	0.12425	0.25054	0.20299	-2.1979	-2.7167	-2.9604	-2.3542	-2.8542	-2.7958	-2.6333	-3.1875	-2.6104	-2.7917	-2.9958	-2.3	-3.0792	-2.8229	-2.4917	-3.0125	185.244	101.243	136.351	149.611	33.304	19.670	213.703	197.185	-35.327	62.346	82.803	-69.063	188.027	113.835	136.015	-30.645	0.00016969	0.00075803	0.00042992	1270.3	1.7211e-05	7.7005e-06	1150.3	344.9	7.076e-06	4.3697e-06	369.47	113.56	112.97	29.55	5.8253e-06	29.797	0.0012937	0.0011609	0.00028906	1280.7	1.4376e-05	1.2459e-05	1068.3	323.57	1.4404e-05	1.2794e-05	350.11	110.24	108.94	29.193	1.2103e-05	31.121	-13.298	49.529	-56.285	-88.239	40.001	57.887	-89.274	-83.439	19.793	19.689	-85.344	-81.433	-79.044	-75.175	-50.562	-77.701	-8191	255	
1928.197	1	1	0	0	0.2265	0.13702	0.17936	0.14135	0.12995	0.20869	0.11424	0.20923	0.4165	0.13225	0.22585	0.21589	0.31014	0.27548	0.2131	0.1581	-2.2562	-2.3146	-2.8187	-2.5604	-2.8854	-2.6958	-2.65	-2.9854	-2.6083	-2.7625	-3.1729	-2.4875	-2.9042	-3.0042	-2.5042	-3.0604	-55.352	-70.133	115.434	-83.365	101.448	160.478	-31.107	172.139	182.739	179.836	119.856	200.466	-92.939	204.177	89.198	19.460	0.00019848	0.0014896	6.7987e-05	1266.9	7.7361e-06	2.2015e-06	1155.9	346.27	2.8245e-05	7.5085e-06	372.46	113.9	114.48	29.73	2.0877e-06	29.961	0.0012496	0.0011636	0.00030253	1299.1	1.3986e-05	1.2203e-05	1076.4	326.2	1.3417e-05	1.2502e-05	354.36	111.63	109.21	29.24	1.2808e-05	31.542	-6.278	-25.079	65.227	-88.217	124.118	25.190	-89.387	-83.394	-0.088	79.587	-85.568	-80.647	-79.121	-74.627	148.849	-77.639	-8191	255	
1928.317	1	1	0	0	0.10831	0.099021	0.043323	0.2684	0.11237	0.18583	0.31978	0.16205	0.071816	0.058709	0.097782	0.21786	0.23829	0.25801	0.075408	0.24224	-2.4854	-2.3812	-2.8438	-2.7229	-2.5292	-3.1792	-2.6688	-2.9875	-2.7271	-2.5521	-3.0229	-2.8229	-2.7958	-2.9208	-2.6292	-3.0271	192.232	192.733	249.307	217.123	208.858	22.175	171.985	220.992	70.491	174.026	-61.307	151.742	186.103	-65.366	165.461	114.383	3.3532e-05	0.0012466	9.9196e-05	1281.3	3.5527e-06	6.3526e-06	1156.6	346.91	1.5837e-05	2.8395e-06	371.39	113.16	113.67	29.23	1.1221e-05	29.454	0.0011618	0.0011145	0.00032951	1306.9	1.3096e-05	1.1708e-05	1079.5	326.33	1.2503e-05	1.1909e-05	354.52	110.07	108.01	28.69	1.3654e-05	30.654	153.878	6.655	-6.981	-88.290	-8.062	7.870	-89.356	-83.530	20.675	-4.597	-85.309	-80.971	-79.530	-74.893	73.161	-77.612	-8191	255	
1928.414	1	1	0	0	0.071314	0.081915	0.1082	0.30162	0.1895	0.1242	0.27606	0.245	0.11494	0.15789	0.011194	0.26185	0.24179	0.20079	0.24937	0.0434	-2.3625	-2.5646	-2.8521	-2.7708	-2.7479	-3.0708	-2.575	-2.9021	-3.0021	-2.6542	-2.8104	-2.9729	-2.8271	-2.8396	-2.6833	-2.85	53.570	160.085	117.393	-19.286	-75.665	115.781	171.116	229.624	-58.509	203.764	-36.019	227.957	-58.578	242.362	153.499	152.576	0.00013307	0.00036778	0.00033399	1281.8	8.7938e-06	9.7183e-06	1143.5	345.88	4.6966e-06	1.4671e-05	372.28	112.8	111.82	28.731	1.0778e-05	29.078	0.0010964	0.0010661	0.00035085	1290.7	1.2315e-05	1.1575e-05	1075.5	323.4	1.1907e-05	1.2031e-05	356	108.48	106.89	28.304	1.4487e-05	29.896	-72.923	17.429	116.545	-88.469	-29.650	64.592	-89.326	-83.434	0.946	102.968	-85.530	-81.553	-78.953	-74.810	257.574	-78.307	-8191	255	
1928.510	1	1	0	0	0.10962	0.20955	0.2344	0.13979	0.11538	0.15288	0.20149	0.19569	0.097732	0.12174	0.42307	0.23562	0.025596	0.090717	0.14371	0.22338	-2.4208	-2.5687	-2.9188	-2.6604	-2.4938	-3.1021	-2.8563	-2.8417	-3.0604	-2.8	-3.1125	-2.8271	-2.6375	-3.1437	-2.55	-2.6583	92.098	184.857	-83.987	129.000	108.080	120.676	212.175	-2.250	207.425	-79.546	194.372	220.110	110.691	225.736	-75.001	173.237	0.00048687	0.0010189	0.00032125	1287.2	8.68e-06	1.085e-05	1155.1	346.5	3.6737e-06	1.3221e-05	370.46	113.36	113.08	28.948	6.7752e-06	29.204	0.0010465	0.0011096	0.000366	1273.9	1.1822e-05	1.2059e-05	1082.4	322.94	1.1185e-05	1.235e-05	356.07	108.09	106.91	28.588	1.4028e-05	29.742	46.719	254.065	21.294	-88.396	15.747	34.096	-89.263	-83.484	75.693	60.311	-85.402	-81.129	-79.103	-75.233	193.964	-77.887	-8191	255	
1928.606	1	1	0	0	0.1163	0.077939	0.12418	0.049893	0.018342	0.13363	0.34314	0.20302	0.050492	0.23341	0.13446	0.14048	0.07783	0.17125	0.16259	0.14336	-2.6042	-2.5625	-2.7125	-2.6646	-2.3792	-3.0292	-2.7625	-2.7396	-3.0583	-2.5979	-2.9813	-2.9437	-2.6208	-3.0479	-2.7938	-2.5667	124.639	-51.472	92.221	160.411	163.764	-4.212	203.851	166.721	145.973	61.339	-88.426	-11.327	167.462	-101.195	224.676	67.600	0.00028885	0.0010533	0.00055701	1283.7	6.7778e-06	1.7579e-06	1167.3	346.65	4.648e-06	9.4654e-06	372.65	113.73	113.62	29.336	1.3376e-05	29.525	0.0009983	0.0011899	0.00035594	1269.5	1.1488e-05	1.3071e-05	1089.7	323.34	1.1007e-05	1.3578e-05	357.22	108.68	107.46	29.16	1.3216e-05	29.9	16.287	218.610	-59.991	-88.811	-76.335	-36.760	-89.221	-83.573	-6.266	64.995	-85.192	-81.236	-78.968	-75.275	43.867	-77.912	-8191	255	
1928.725	1	1	0	0	0.1798	0.13525	0.1436	0.054634	0.29375	0.12038	0.34337	0.42277	0.19778	0.16859	0.24095	0.19683	0.17169	0.22403	0.092261	0.075405	-2.5667	-2.6396	-2.8729	-2.8396	-2.6354	-3.0646	-2.8354	-2.4521	-2.8521	-2.6083	-2.8354	-3.1417	-2.7125	-2.9854	-2.8	-2.6979	-75.572	252.567	20.584	201.370	123.361	-84.470	186.607	191.084	41.043	33.634	225.989	209.038	8.365	-50.229	227.907	201.350	0.0001041	0.00070634	0.00054299	1287.7	3.4659e-06	1.444e-05	1168.2	348.14	1.1592e-05	8.3988e-06	373.17	114.04	113.01	29.032	1.1024e-05	29.035	0.00099028	0.0012569	0.00033557	1258.6	1.168e-05	1.4035e-05	1087.1	323.81	1.1757e-05	1.4597e-05	355.87	108.55	108.09	29.238	1.2953e-05	29.517	122.560	77.904	-39.012	-88.280	-52.442	122.261	-89.206	-83.377	115.730	173.593	-85.257	-81.291	-78.673	-74.994	-2.443	-78.388	-8191	255	
1928.821	1	1	0	0	0.3572	0.24048	0.053075	0.16342	0.22456	0.11727	0.24659	0.35926	0.24068	0.18724	0.19008	0.12682	0.093048	0.14886	0.1237	0.04446	-2.5792	-2.5146	-2.7229	-3.0792	-2.6063	-2.9188	-2.9667	-2.7604	-3.0896	-2.6542	-2.7979	-3.2604	-2.8312	-2.8396	-2.7062	-2.6312	-59.589	-84.662	191.320	207.290	76.284	-18.179	212.995	242.551	-40.267	127.875	246.002	206.883	109.747	255.264	51.735	-93.909	0.00025868	0.00094532	0.00010551	1282.1	1.2632e-05	9.9461e-06	1156.3	343.48	1.4737e-05	8.7533e-06	370.57	111.41	112.25	28.547	2.1682e-06	28.307	0.0011211	0.0013474	0.00032661	1253.8	1.302e-05	1.4485e-05	1071.7	320.12	1.2928e-05	1.422e-05	352.69	106.76	108.09	28.593	1.2386e-05	28.821	11.711	38.818	-60.514	-87.921	-48.119	71.445	-89.151	-83.620	-95.600	-14.553	-85.400	-81.240	-79.231	-75.382	35.472	-78.327	-8191	255	
1928.894	1	1	0	0	0.18454	0.1731	0.24959	0.17804	0.072035	0.15484	0.14741	0.13354	0.12333	0.21692	0.35393	0.17021	0.2987	0.20276	0.17934	0.14296	-2.5375	-2.5042	-2.6479	-3.2208	-2.9	-2.8229	-2.9583	-2.5354	-3	-2.775	-2.6146	-3.1479	-2.8729	-2.8375	-2.9333	-2.4813	-39.125	130.401	192.151	212.520	170.805	46.238	160.070	255.500	129.889	213.431	244.500	222.225	-99.239	27.384	-1.932	228.635	0.00025366	0.00051131	7.0634e-05	1280.7	3.9804e-06	8.7003e-06	1156.7	343.73	6.2872e-06	1.4663e-05	374.32	111.97	113.01	28.19	2.3696e-06	27.723	0.0012485	0.0013263	0.00032496	1257.1	1.4648e-05	1.428e-05	1072.3	320.31	1.4384e-05	1.3702e-05	353.42	107.59	108.93	28.268	1.1981e-05	28.887	-26.168	76.154	-82.586	-88.140	220.520	-25.669	-89.052	-83.465	195.645	65.893	-85.142	-81.316	-79.071	-75.294	257.690	-78.214	-8191	255	
1929.013	1	1	0	0	0.17059	0.17282	0.11987	0.20204	0.09465	0.23983	0.081386	0.21548	0.042995	0.12001	0.17245	0.11967	0.11803	0.17972	0.2022	0.18557	-2.6688	-2.6417	-2.5167	-2.8729	-2.7083	-2.8417	-3.0167	-2.6437	-2.9021	-2.8396	-2.5563	-3.1312	-3.0292	-2.7062	-2.9313	-2.5292	163.486	209.947	49.496	-84.233	191.898	-95.490	233.078	246.967	92.448	108.245	152.776	226.234	138.483	229.465	173.078	178.624	0.00049869	0.0017366	0.00020087	1290.8	1.9232e-05	9.1408e-06	1160.8	345.76	7.9093e-06	2.0002e-05	370.66	113.07	113.33	28.031	1.3177e-05	28.169	0.0013185	0.0012274	0.00031662	1284.2	1.526e-05	1.3589e-05	1079.9	324.99	1.5007e-05	1.3142e-05	354.22	108.96	109.32	28.019	1.1727e-05	29.435	176.854	-40.874	-96.337	-88.247	72.623	32.054	-89.312	-83.596	-15.550	13.691	-85.818	-81.510	-79.346	-75.060	66.689	-77.953	-8191	255	
1929.109	1	1	0	0	0.097373	0.10682	0.16581	0.188	0.20544	0.14089	0.06408	0.34441	0.27061	0.055316	0.3722	0.08818	0.098696	0.19204	0.13637	0.072114	-2.4417	-2.9875	-2.4083	-2.8187	-2.7333	-2.7604	-3.1625	-2.7021	-2.8792	-2.8354	-2.5083	-3.025	-2.7396	-2.4729	-2.7292	-2.4479	26.263	29.217	156.226	-15.391	-26.977	-30.733	91.002	228.482	249.193	-81.831	252.061	178.849	143.938	228.128	237.040	218.723	0.00015733	0.00092553	0.00025749	1284.3	2.9244e-06	1.0904e-05	1177	347.63	5.2122e-06	7.3188e-06	376.02	112.98	114.24	27.995	8.9934e-06	27.494	0.0013042	0.0011513	0.00030354	1300.5	1.4629e-05	1.2809e-05	1087	327.91	1.4447e-05	1.2524e-05	355.35	109.92	109.29	27.857	1.1967e-05	29.266	-2.757	-91.483	-68.724	-88.378	85.530	-21.302	-89.009	-83.327	-38.599	79.101	-85.403	-81.302	-79.376	-75.270	43.301	-77.626	-8191	255	
1929.206	1	1	0	0	0.20564	0.14937	0.23724	0.33485	0.19191	0.24027	0.1888	0.24619	0.096417	0.19045	0.30918	0.20773	0.15186	0.31518	0.29576	0.20566	-2.375	-2.9188	-2.4917	-2.8917	-2.8146	-2.6625	-3.3167	-2.7458	-2.5458	-2.9229	-2.5563	-3.0292	-2.7875	-2.5896	-3.0438	-2.8583	134.062	200.473	48.071	-92.290	-96.921	56.763	200.279	153.284	13.657	66.355	164.941	-46.868	239.355	-88.050	219.045	183.911	0.00018965	0.0012269	0.00020875	1291.1	1.4594e-05	7.7423e-06	1162.7	348.64	6.2587e-06	9.4645e-06	374.42	111.96	113.05	27.813	7.9685e-06	27.529	0.0012462	0.0011136	0.00031013	1313	1.345e-05	1.2188e-05	1079.9	328.08	1.3177e-05	1.167e-05	354.4	108.93	107.81	27.418	1.2427e-05	29.089	-83.433	-4.625	174.649	-88.495	44.047	47.181	-89.474	-83.743	-33.588	85.667	-85.324	-81.387	-79.506	-75.209	198.394	-78.032	-8191	255	
1929.302	1	1	0	0	0.16367	0.084486	0.32954	0.14535	0.048821	0.077707	0.27079	0.092817	0.042373	0.13108	0.12801	0.20045	0.21291	0.21638	0.058807	0.058625	-2.25	-2.7833	-2.6813	-3.0667	-2.825	-2.625	-3.1063	-2.6042	-2.6979	-2.9833	-2.7271	-2.9729	-2.8917	-2.4271	-2.8354	-2.9271	104.224	48.736	49.747	256.303	182.107	-90.912	215.959	133.751	249.662	-73.123	188.108	168.032	215.015	182.496	213.336	180.482	0.00037972	0.00079389	0.0001698	1305.7	9.1568e-06	1.0434e-05	1166.4	349.11	8.3548e-06	9.1238e-06	374.03	112.01	113.47	27.704	3.9081e-06	27.378	0.0011392	0.0010593	0.00032859	1317.3	1.2448e-05	1.1732e-05	1088.7	328.41	1.2427e-05	1.1311e-05	358.79	108.7	107.81	27.279	1.3632e-05	28.704	5.801	5.622	-56.912	-88.190	72.423	23.751	-89.387	-83.488	46.878	16.621	-85.589	-81.524	-79.326	-75.504	230.121	-77.822	-8191	255	
1929.422	1	1	0	0	0.15021	0.26349	0.083603	0.13413	0.14257	0.11504	0.28116	0.29769	0.18449	0.28857	0.25331	0.1983	0.2935	0.14579	0.15416	0.061731	-2.15	-2.9021	-2.5187	-3.0583	-2.9583	-2.5062	-3.1083	-2.5708	-2.5667	-3.1479	-2.8125	-2.7938	-2.9958	-2.5896	-2.9313	-2.8396	-87.626	215.670	180.053	227.863	-73.931	91.498	200.933	203.643	-86.548	-40.851	196.526	226.611	-60.247	-7.189	123.494	-38.378	0.00010473	0.00057657	0.00046726	1314.7	1.2318e-05	1.0944e-05	1176.6	353.45	2.8235e-06	6.2599e-06	375.35	112.87	113.14	27.691	4.2498e-06	27.709	0.0011094	0.0010456	0.00035598	1319.8	1.1954e-05	1.1541e-05	1104.6	330.23	1.2028e-05	1.1393e-05	360.9	108.79	107.75	27.499	1.4139e-05	28.569	9.013	-29.898	-34.420	-88.320	47.368	-88.994	-89.541	-83.445	172.095	69.284	-85.302	-81.372	-79.104	-75.198	132.469	-78.774	-8191	255	
1929.494	1	1	0	0	0.39122	0.12172	0.10924	0.17415	0.083066	0.039684	0.15721	0.32695	0.26489	0.11178	0.25201	0.096264	0.19136	0.16057	0.13956	0.31105	-2.1646	-2.8354	-2.4667	-2.7958	-2.8979	-2.5687	-3.1833	-2.9958	-2.4417	-2.9688	-2.8875	-2.7354	-2.9479	-2.4208	-2.9479	-2.975	-2.217	-43.357	136.597	58.763	189.495	219.000	-68.178	214.663	-12.451	147.016	213.479	240.200	192.479	88.047	-8.265	194.724	7.3801e-05	0.00077697	0.00042573	1321	4.9218e-06	4.032e-06	1175.5	351.88	7.7424e-06	5.1801e-06	373.2	112.06	112.91	27.631	4.3224e-06	27.19	0.0010654	0.001105	0.0003704	1310	1.1373e-05	1.2504e-05	1102.7	327.7	1.1678e-05	1.2651e-05	359.52	107.34	106.74	27.572	1.4528e-05	28.067	238.039	132.663	-24.884	-88.494	28.520	-31.384	-89.414	-83.654	0.928	144.704	-85.543	-81.699	-79.459	-75.299	41.303	-78.548	-8191	255	
1929.615	1	1	0	0	0.32237	0.14289	0.12434	0.226	0.0605	0.32514	0.20844	0.23293	0.15681	0.22703	0.13618	0.24182	0.026504	0.11502	0.010233	0.25354	-2.0583	-3.0979	-2.8646	-2.6458	-2.8812	-2.6104	-3.1146	-2.7812	-2.5604	-3.0521	-2.8958	-2.6	-2.9688	-2.6958	-2.9854	-2.7896	-72.234	225.170	35.585	17.457	211.032	-46.621	-95.491	-57.407	235.179	-67.661	-93.514	221.963	255.245	-34.258	216.054	240.346	0.00016737	0.00044663	0.00036086	1311.7	7.9984e-06	8.333e-06	1168	347.49	1.3105e-05	1.2786e-05	370.49	110.57	112.37	27.46	8.54e-06	27.366	0.0010573	0.0012388	0.00036058	1302.7	1.1486e-05	1.3967e-05	1091.5	324.56	1.1803e-05	1.4074e-05	354.84	106.59	106.56	27.851	1.3901e-05	27.978	-56.134	131.129	38.381	-88.795	68.151	-71.694	-89.063	-83.622	234.304	-81.554	-85.515	-81.459	-78.842	-75.093	-12.504	-78.657	-8191	255	
1929.711	1	1	0	0	0.41156	0.12822	0.11026	0.26428	0.21754	0.1397	0.34807	0.061818	0.082009	0.19143	0.3143	0.074044	0.068309	0.11255	0.055911	0.2251	-1.9729	-2.8979	-2.9708	-2.5708	-2.9688	-2.5312	-2.9083	-3.1188	-2.4208	-3	-2.8479	-2.5083	-2.8917	-2.8625	-2.6417	-3.0396	-2.028	165.770	124.219	180.433	27.101	107.682	154.440	173.414	-94.027	171.451	257.207	7.332	153.172	231.851	100.121	149.720	0.00043475	0.00083843	0.00023578	1310.9	5.6696e-06	7.6013e-06	1167.1	346.62	2.3879e-06	5.2771e-06	369.33	110.76	112.75	27.291	7.954e-06	26.885	0.0010782	0.001341	0.00034296	1287.5	1.2215e-05	1.4961e-05	1089.6	323.38	1.2566e-05	1.4936e-05	354.39	106.61	106.99	27.75	1.3212e-05	27.722	-48.564	232.042	14.247	-88.084	84.986	124.281	-89.201	-83.390	121.907	-4.877	-85.269	-81.595	-78.983	-74.879	-54.065	-78.373	-8191	255	
#DATA ENDS
