BOXY.EXE: ISS Imagent and Oximeter Data Acquisition Program Version 0.80
Ascii Record File

#ACQ INFORMATION
2  Detector Channels 
16  External MUX Channels 
1  Auxiliary Channels 
5000  Waveform (CCF) Frequency (Hz)
1  Waveforms Skipped 
30  Waveforms Averaged 
1  Cycles Averaged 
16  Acquisitions per Waveform 
10.0806  Updata Rate (Hz) 

#FILE INFORMATION
TRUE -- External MUX Channel results are PARSED.
FALSE -- AC DC and Phase are NOT grouped.
TRUE -- Companion Program Settings File CREATED.
FALSE -- AC data not excluded
FALSE -- DC data not excluded
FALSE -- Phase data not excluded
FALSE -- Auxillary Chn. data not excluded
Tab delimiters

#CALIBRATION STATE
TRUE -- Waveform Calibration Values APPLIED.


#AUX CALIBRATION VALUES
Val Type	aux-1	

Term	1.0000e+00	
Factor	0.0000e+00	


#WF CALIBRATION VALUES
A = Detector Channel
Val Type	A-AC1	A-AC2	A-AC3	A-AC4	A-AC5	A-AC6	A-AC7	A-AC8	A-AC9	A-AC10	A-AC11	A-AC12	A-AC13	A-AC14	A-AC15	A-AC16	A-DC1	A-DC2	A-DC3	A-DC4	A-DC5	A-DC6	A-DC7	A-DC8	A-DC9	A-DC10	A-DC11	A-DC12	A-DC13	A-DC14	A-DC15	A-DC16	A-Ph1	A-Ph2	A-Ph3	A-Ph4	A-Ph5	A-Ph6	A-Ph7	A-Ph8	A-Ph9	A-Ph10	A-Ph11	A-Ph12	A-Ph13	A-Ph14	A-Ph15	A-Ph16	

Term	0.00000e+00	0.00000e+00	0.00000e+00	0.00000e+00	0.00000e+00	0.00000e+00	0.00000e+00	0.00000e+00	0.00000e+00	0.00000e+00	0.00000e+00	0.00000e+00	0.00000e+00	0.00000e+00	0.00000e+00	0.00000e+00	0.00000e+00	0.00000e+00	0.00000e+00	0.00000e+00	0.00000e+00	0.00000e+00	0.00000e+00	0.00000e+00	0.00000e+00	0.00000e+00	0.00000e+00	0.00000e+00	0.00000e+00	0.00000e+00	0.00000e+00	0.00000e+00	0.00000e+00	0.00000e+00	0.00000e+00	0.00000e+00	0.00000e+00	0.00000e+00	0.00000e+00	0.00000e+00	0.00000e+00	0.00000e+00	0.00000e+00	0.00000e+00	0.00000e+00	0.00000e+00	0.00000e+00	0.00000e+00	
Factor	1.00000e+00	1.00000e+00	1.00000e+00	1.00000e+00	1.00000e+00	1.00000e+00	1.00000e+00	1.00000e+00	1.00000e+00	1.00000e+00	1.00000e+00	1.00000e+00	1.00000e+00	1.00000e+00	1.00000e+00	1.00000e+00	1.00000e+00	1.00000e+00	1.00000e+00	1.00000e+00	1.00000e+00	1.00000e+00	1.00000e+00	1.00000e+00	1.00000e+00	1.00000e+00	1.00000e+00	1.00000e+00	1.00000e+00	1.00000e+00	1.00000e+00	1.00000e+00	X	X	X	X	X	X	X	X	X	X	X	X	X	X	X	X	

B = Detector Channel
Val Type	B-AC1	B-AC2	B-AC3	B-AC4	B-AC5	B-AC6	B-AC7	B-AC8	B-AC9	B-AC10	B-AC11	B-AC12	B-AC13	B-AC14	B-AC15	B-AC16	B-DC1	B-DC2	B-DC3	B-DC4	B-DC5	B-DC6	B-DC7	B-DC8	B-DC9	B-DC10	B-DC11	B-DC12	B-DC13	B-DC14	B-DC15	B-DC16	B-Ph1	B-Ph2	B-Ph3	B-Ph4	B-Ph5	B-Ph6	B-Ph7	B-Ph8	B-Ph9	B-Ph10	B-Ph11	B-Ph12	B-Ph13	B-Ph14	B-Ph15	B-Ph16	

Term	0.00000e+00	0.00000e+00	0.00000e+00	0.00000e+00	0.00000e+00	0.00000e+00	0.00000e+00	0.00000e+00	0.00000e+00	0.00000e+00	0.00000e+00	0.00000e+00	0.00000e+00	0.00000e+00	0.00000e+00	0.00000e+00	0.00000e+00	0.00000e+00	0.00000e+00	0.00000e+00	0.00000e+00	0.00000e+00	0.00000e+00	0.00000e+00	0.00000e+00	0.00000e+00	0.00000e+00	0.00000e+00	0.00000e+00	0.00000e+00	0.00000e+00	0.00000e+00	-8.78341e+01	-1.29763e+02	-1.22348e+02	-1.81483e+02	-4.98279e+01	-6.89854e+01	-1.57126e+02	-1.62015e+02	-5.76591e+01	-6.88165e+01	-1.72009e+02	-1.70235e+02	-1.79413e+02	-1.76982e+02	-6.01312e+01	-1.49920e+02	
Factor	1.77355e-05	1.76987e-04	5.28443e-05	1.54970e-01	1.38419e-06	1.88219e-06	1.81523e-01	6.50010e-02	1.26713e-06	1.82042e-06	8.98908e-02	3.02853e-02	2.99964e-02	9.87595e-03	1.55353e-06	1.42067e-02	1.35357e-05	2.64044e-05	7.43121e-06	7.68445e-02	2.53274e-07	2.97136e-07	8.49333e-02	3.23673e-02	2.62873e-07	2.97535e-07	4.35786e-02	1.47918e-02	1.52274e-02	4.96744e-03	2.72784e-07	6.91996e-03	X	X	X	X	X	X	X	X	X	X	X	X	X	X	X	X	



#DISTANCE SETTINGS
A = Detector Channel
A-1	A-2	A-3	A-4	A-5	A-6	A-7	A-8	A-9	A-10	A-11	A-12	A-13	A-14	A-15	A-16	

2.5000e+00	3.0000e+00	2.5000e+00	3.0000e+00	2.0000e+00	3.0000e+00	1.5000e+00	3.0000e+00	3.0000e+00	3.0000e+00	3.0000e+00	3.0000e+00	3.0000e+00	3.0000e+00	1.5000e+00	3.0000e+00	

B = Detector Channel
B-1	B-2	B-3	B-4	B-5	B-6	B-7	B-8	B-9	B-10	B-11	B-12	B-13	B-14	B-15	B-16	

1.0000e+01	1.0000e+01	1.0000e+01	1.4400e+00	1.0000e+01	1.0000e+01	1.5100e+00	1.9400e+00	1.0000e+01	1.0000e+01	1.9900e+00	2.4900e+00	2.4100e+00	2.9000e+00	1.0000e+01	2.9800e+00	




#DATA BEGINS
time	group	step	mark	flag	A-AC1	A-AC2	A-AC3	A-AC4	A-AC5	A-AC6	A-AC7	A-AC8	A-AC9	A-AC10	A-AC11	A-AC12	A-AC13	A-AC14	A-AC15	A-AC16	A-DC1	A-DC2	A-DC3	A-DC4	A-DC5	A-DC6	A-DC7	A-DC8	A-DC9	A-DC10	A-DC11	A-DC12	A-DC13	A-DC14	A-DC15	A-DC16	A-Ph1	A-Ph2	A-Ph3	A-Ph4	A-Ph5	A-Ph6	A-Ph7	A-Ph8	A-Ph9	A-Ph10	A-Ph11	A-Ph12	A-Ph13	A-Ph14	A-Ph15	A-Ph16	B-AC1	B-AC2	B-AC3	B-AC4	B-AC5	B-AC6	B-AC7	B-AC8	B-AC9	B-AC10	B-AC11	B-AC12	B-AC13	B-AC14	B-AC15	B-AC16	B-DC1	B-DC2	B-DC3	B-DC4	B-DC5	B-DC6	B-DC7	B-DC8	B-DC9	B-DC10	B-DC11	B-DC12	B-DC13	B-DC14	B-DC15	B-DC16	B-Ph1	B-Ph2	B-Ph3	B-Ph4	B-Ph5	B-Ph6	B-Ph7	B-Ph8	B-Ph9	B-Ph10	B-Ph11	B-Ph12	B-Ph13	B-Ph14	B-Ph15	B-Ph16	aux-1	digaux	

34539.641	1	1	0	256	0.15244	0.085008	0.55258	0.1986	0.092335	0.16097	0.10717	0.23426	0.2267	0.17308	0.28628	0.06356	0.12407	0.10844	0.085554	0.27297	-2.1208	-2.0875	-2.1688	-2.625	-2.0125	-2.5812	-2.6	-2.2958	-2.5458	-2.4229	-2.5271	-2.6271	-2.1542	-2.5104	-2.2479	-2.2708	-48.203	242.595	-69.058	271.037	-0.795	43.918	197.179	268.323	61.177	35.354	185.402	162.744	232.964	-35.393	175.690	241.412	4.8227e-05	0.00034835	7.7315e-05	1237	2.4112e-06	3.209e-06	1296.7	258.45	1.0663e-06	2.7722e-06	324.54	89.774	70.487	20.61	2.6834e-06	29.095	0.00022878	0.00030888	7.3894e-05	1204.4	3.2852e-06	2.8822e-06	1275.2	254.38	2.8177e-06	2.9103e-06	319.46	89.879	70.454	20.594	2.733e-06	29.129	228.328	-20.632	9.581	-69.723	69.321	76.493	-69.386	-62.669	104.878	82.548	-63.091	-55.981	-55.995	-49.548	76.467	-49.261	-8191	255	
34539.734	1	1	0	0	0.074639	0.10443	0.22779	0.2813	0.19206	0.10779	0.23801	0.49007	0.14751	0.088141	0.24198	0.090018	0.19276	0.21902	0.12565	0.17332	-2.1104	-2.2938	-2.1229	-2.9833	-2.0792	-2.5833	-2.5417	-2.15	-2.3563	-2.3958	-2.3229	-2.5583	-2.3333	-2.4792	-2.4062	-2.3292	68.422	41.827	-0.312	-72.547	181.358	215.859	235.035	211.600	199.827	-45.442	-51.105	185.536	229.396	224.841	-22.405	-18.809	7.0134e-05	0.00034649	0.000108	1217.1	1.2985e-06	3.6059e-06	1287.1	256.59	2.2206e-06	4.0231e-06	321.83	89.046	69.942	20.524	2.1561e-06	29.1	0.00021386	0.00025354	6.8058e-05	1189.8	3.1169e-06	2.6705e-06	1264.7	253.02	3.0165e-06	2.6846e-06	317.99	89.64	70.04	20.502	2.6937e-06	29.035	204.379	11.814	0.549	-69.828	92.782	73.083	-69.596	-62.810	61.353	92.744	-62.861	-56.191	-56.537	-49.544	80.751	-49.576	-8191	255	
34539.832	1	1	0	0	0.19961	0.24777	0.27206	0.2098	0.37175	0.082531	0.097176	0.25021	0.19903	0.18164	0.11867	0.050626	0.099609	0.089833	0.18357	0.25152	-1.9479	-2.3688	-2.2042	-2.7396	-2.2396	-2.4396	-2.5458	-2.1354	-2.5563	-2.5312	-2.4333	-2.5438	-2.2396	-2.5021	-2.4792	-2.2667	57.129	-9.712	227.129	277.587	9.707	0.960	188.402	218.104	-29.533	-33.910	-50.381	196.141	104.974	180.545	218.105	206.038	7.5994e-05	0.00028815	9.3482e-05	1214.2	1.8092e-06	1.8512e-06	1286.2	256.94	2.095e-06	3.1825e-06	321.5	89.387	69.912	20.401	2.0864e-06	28.921	0.00021116	0.00024952	7.1417e-05	1184.8	3.32e-06	2.7795e-06	1261.9	252.62	2.908e-06	2.8663e-06	317.2	89.439	70.085	20.475	2.6466e-06	29.032	204.903	6.004	11.407	-69.593	110.030	52.823	-69.554	-62.697	74.038	68.132	-63.044	-56.095	-55.792	-49.256	86.282	-49.837	-8191	255	
34539.926	1	1	0	0	0.045216	0.122	0.25127	0.13508	0.10014	0.11166	0.13333	0.1787	0.11263	0.21927	0.085167	0.076012	0.23866	0.20657	0.13677	0.24355	-2.1125	-2.3271	-2.2021	-2.7708	-2.2062	-2.2521	-2.7354	-2.0646	-2.4917	-2.1146	-2.1042	-2.5021	-2.2	-2.2188	-2.5021	-2.2833	161.957	7.140	-1.873	-37.377	164.167	3.917	249.089	121.291	110.253	56.645	139.900	252.534	226.791	-66.855	16.818	-80.409	7.5523e-05	0.00030162	0.00012433	1212.1	1.8149e-06	2.7637e-06	1284.9	254.5	1.5633e-06	2.4807e-06	322.19	89.115	69.976	20.406	2.34e-06	28.987	0.0002126	0.00024083	7.0689e-05	1182.8	3.0192e-06	2.5975e-06	1256.2	251.84	2.8626e-06	2.4943e-06	317.71	89.52	70.006	20.422	2.629e-06	29.081	215.111	23.651	10.695	-69.600	84.659	62.390	-69.434	-62.649	77.830	53.937	-62.647	-56.435	-55.505	-49.566	72.980	-49.484	-8191	255	
34540.023	1	1	0	0	0.28197	0.017449	0.24721	0.22496	0.13805	0.22739	0.21261	0.072417	0.18964	0.10188	0.25452	0.27737	0.36647	0.066482	0.13104	0.20518	-2.1312	-2.4271	-2.0604	-2.9292	-2.3417	-2.1625	-2.6979	-2.1813	-2.3438	-2.3604	-2.0604	-2.3583	-2.5083	-2.0812	-2.5646	-2.1437	221.311	-54.175	76.905	224.246	37.546	-70.634	209.815	194.911	219.481	126.967	-52.631	178.714	279.289	153.272	144.741	278.769	8.1573e-05	0.00036755	9.4345e-05	1210.7	7.977e-07	2.4549e-06	1285.5	254.63	1.8084e-06	3.3851e-06	321.84	89.452	70.237	20.505	1.3696e-06	29.2	0.00021104	0.00024419	7.1309e-05	1184.3	3.0715e-06	2.6934e-06	1259.2	252.33	2.9529e-06	2.7113e-06	318.63	89.901	70.321	20.58	2.6608e-06	29.32	217.043	1.899	-9.210	-69.800	71.935	75.338	-69.591	-62.423	91.901	74.469	-62.868	-56.266	-56.131	-49.061	47.024	-49.274	-8191	255	
34540.145	1	1	0	0	0.24477	0.13334	0.27889	0.2978	0.17749	0.10682	0.25127	0.32572	0.23744	0.31959	0.16186	0.072909	0.23056	0.16073	0.16506	0.16091	-1.9583	-2.3833	-2.1083	-2.6729	-2.2708	-1.9479	-2.5917	-2.3333	-2.3896	-2.5271	-2.2687	-2.5812	-2.2958	-2.2604	-2.7083	-2.1729	-62.700	248.427	99.821	229.960	200.088	254.782	255.660	213.147	249.826	178.785	223.837	68.897	183.292	229.590	-8.942	-75.916	7.6685e-05	0.00026858	7.9861e-05	1227.1	1.7012e-06	3.8239e-06	1300.8	259.06	8.5793e-07	3.2785e-06	325.23	90.127	71.334	20.83	1.6346e-06	29.398	0.00022044	0.00025343	7.6418e-05	1197.9	3.2467e-06	2.7547e-06	1274.1	255.05	3.0247e-06	2.7299e-06	320.84	90.537	71.234	20.827	2.8557e-06	29.534	202.981	35.974	6.077	-69.809	90.459	72.016	-69.530	-62.739	77.056	77.699	-62.659	-56.277	-56.143	-49.189	77.548	-49.447	-8191	255	
34540.238	1	1	0	0	0.14616	0.15742	0.13617	0.21509	0.31531	0.17252	0.022941	0.18403	0.12706	0.17032	0.22511	0.047101	0.23084	0.12461	0.15719	0.19947	-1.8604	-2.5583	-2.0875	-2.6604	-2.4958	-2.075	-2.8479	-2.5812	-2.3083	-2.5771	-2.2792	-2.5938	-2.3937	-2.125	-2.55	-2.275	10.373	94.844	41.539	224.584	43.084	81.198	-77.661	237.417	109.267	180.411	172.691	-49.464	97.701	138.417	193.589	146.715	8.2212e-05	0.00036867	0.00013814	1234.4	1.7383e-06	2.7678e-06	1305.8	259.7	1.3402e-06	1.9431e-06	326.78	90.927	71.46	20.797	2.5463e-06	29.612	0.0002217	0.0002773	7.7888e-05	1204.8	3.1453e-06	2.7887e-06	1278.4	256.52	3.1057e-06	2.6567e-06	322.5	90.859	71.272	20.896	2.6534e-06	29.643	216.576	9.718	32.439	-69.902	111.284	78.196	-69.650	-62.726	83.308	63.079	-62.985	-56.441	-55.911	-49.122	93.083	-49.690	-8191	255	
34540.336	1	1	0	0	0.13196	0.08957	0.12792	0.30317	0.086177	0.15945	0.39514	0.15559	0.18394	0.15684	0.25121	0.26553	0.11943	0.16269	0.09616	0.13903	-1.9042	-2.6708	-2.0438	-2.525	-2.4646	-2.1875	-2.6771	-2.4729	-2.2875	-2.6042	-2.375	-2.5104	-2.4896	-2.25	-2.5875	-2.5563	215.665	123.759	95.874	239.001	88.761	-48.410	204.844	190.549	-80.260	201.151	-2.445	193.721	249.108	214.653	-37.643	-17.471	6.6566e-05	0.00046113	0.00010764	1235.3	4.7844e-07	2.6046e-06	1303	259.6	1.8374e-06	2.4393e-06	323.93	90.117	71.108	20.724	2.1186e-06	29.681	0.00021482	0.00024672	6.8878e-05	1203.9	2.9322e-06	2.6575e-06	1276.8	256.5	2.9376e-06	2.5055e-06	321.42	90.335	70.982	20.744	2.5926e-06	29.585	217.808	1.553	20.150	-69.842	169.197	58.670	-69.621	-62.689	87.560	63.430	-62.914	-55.988	-56.158	-49.340	108.817	-49.292	-8191	255	
34540.434	1	1	0	0	0.15274	0.11308	0.16259	0.21155	0.27826	0.18054	0.24781	0.25875	0.32058	0.12058	0.31963	0.10804	0.15576	0.14159	0.14721	0.27597	-1.9271	-2.7083	-2.1312	-2.5792	-2.6167	-2.1417	-2.6104	-2.4542	-2.4229	-2.6146	-2.2729	-2.4271	-2.6813	-2.1437	-2.4042	-2.5062	43.204	12.082	158.523	275.396	96.880	28.592	205.116	239.468	5.237	84.117	223.008	-11.919	-61.710	226.460	239.469	230.963	6.8686e-05	0.00037185	8.4894e-05	1220.8	1.3547e-06	2.7832e-06	1298	258.27	1.522e-06	3.3838e-06	323.54	89.388	70.319	20.729	2.4662e-06	29.45	0.00020969	0.00023571	6.4652e-05	1194.5	2.7728e-06	2.6061e-06	1268.7	254.7	2.7645e-06	2.5638e-06	319.05	90.047	70.285	20.699	2.5664e-06	29.387	215.912	11.256	37.812	-69.608	99.890	84.601	-69.565	-62.606	61.503	68.891	-63.040	-56.473	-55.932	-49.040	89.724	-49.176	-8191	255	
34540.527	1	1	0	0	0.21696	0.22576	0.06079	0.023123	0.28157	0.15378	0.22863	0.2391	0.15273	0.22455	0.20362	0.17868	0.24213	0.25875	0.14139	0.11461	-1.6417	-2.6208	-2.3729	-2.4813	-2.6896	-2.1542	-2.6917	-2.5292	-2.3792	-2.5438	-2.5729	-2.3333	-2.5521	-2.4354	-2.5146	-2.5458	217.393	270.751	47.546	-3.205	229.506	18.786	209.495	-8.985	144.452	-24.671	269.330	95.373	-51.599	-21.873	18.214	45.449	6.0235e-05	0.00024671	0.00010339	1218.7	1.5403e-06	2.6905e-06	1284.1	255.4	4.4631e-07	4.3105e-06	322.22	89.028	70.17	20.545	2.1173e-06	28.876	0.00020997	0.00023021	6.5921e-05	1187.6	2.6974e-06	2.5727e-06	1259.1	252.98	2.6857e-06	2.5241e-06	317.61	89.424	70.031	20.548	2.4664e-06	29.226	199.720	-11.220	19.977	-69.655	96.594	60.809	-69.599	-62.654	6.480	75.627	-63.050	-56.229	-55.948	-49.112	85.961	-49.463	-8191	255	
34540.625	1	1	0	0	0.2151	0.094175	0.13429	0.51219	0.064754	0.20285	0.15507	0.11283	0.37757	0.18897	0.07395	0.21954	0.082196	0.15106	0.15162	0.31749	-1.7313	-2.4833	-2.3729	-2.4625	-2.8333	-2.2708	-2.5687	-2.6333	-2.1813	-2.6875	-2.5083	-2.2313	-2.475	-2.1396	-2.3688	-2.5625	73.099	184.119	265.180	257.727	157.951	182.006	238.696	191.532	-22.616	15.418	242.120	191.474	108.064	227.215	-64.745	27.214	9.097e-05	0.00040369	6.258e-05	1211.1	7.007e-07	3.212e-06	1270.4	253.77	4.963e-07	2.9449e-06	318.23	87.884	69.219	20.365	2.3606e-06	28.862	0.00020385	0.00020892	6.1277e-05	1177.1	2.6071e-06	2.369e-06	1246.5	250.89	2.5827e-06	2.208e-06	314.43	88.6	69.511	20.467	2.3249e-06	29.026	217.490	18.785	45.683	-69.690	97.640	67.187	-69.604	-62.512	50.026	50.300	-62.870	-56.096	-55.670	-49.434	91.930	-49.315	-8191	255	
34540.719	1	1	0	0	0.49772	0.021834	0.11404	0.28717	0.30826	0.32636	0.20865	0.10469	0.19877	0.19454	0.38681	0.13117	0.16535	0.36792	0.18612	0.24007	-1.6562	-2.4292	-2.4208	-2.4333	-2.6562	-2.475	-2.4458	-2.7188	-2.1188	-2.6312	-2.5187	-2.0438	-2.5771	-2.3042	-2.2333	-2.6875	150.229	225.679	181.101	174.065	253.237	48.471	210.771	20.299	-35.514	-71.914	244.147	231.215	-65.424	248.824	97.278	106.117	6.1628e-05	0.00022486	9.2677e-05	1202.2	1.2432e-06	3.0872e-06	1270.9	253.24	2.0215e-06	3.1183e-06	319.29	88.903	69.086	20.54	2.4956e-06	28.956	0.00020041	0.00019666	6.041e-05	1174.4	2.6567e-06	2.4334e-06	1247.7	250.33	2.6714e-06	2.3022e-06	314.43	88.973	69.421	20.496	2.1595e-06	29.183	198.077	10.430	9.724	-69.741	133.571	63.532	-69.548	-62.714	104.056	80.307	-62.632	-56.175	-56.007	-48.821	106.036	-49.055	-8191	255	
34540.816	1	1	0	0	0.052687	0.073826	0.20736	0.11371	0.21725	0.094717	0.12608	0.12427	0.23786	0.1878	0.19196	0.3024	0.22921	0.35814	0.10672	0.19135	-1.775	-2.3417	-2.5125	-2.3646	-2.6917	-2.2354	-2.5771	-2.7479	-2.1875	-2.4271	-2.5125	-2.2792	-2.4437	-2.3979	-2.0833	-2.7333	193.910	215.167	241.146	212.358	215.036	53.429	68.372	116.132	155.508	256.487	247.222	-24.280	0.704	-67.850	34.128	211.450	7.5282e-05	0.0002694	9.0127e-05	1199.2	1.9963e-06	2.8318e-06	1267.1	252.6	1.0824e-06	1.6307e-06	319.53	88.076	69.639	20.376	1.9206e-06	29.048	0.0001983	0.00020914	5.8459e-05	1172.6	2.5998e-06	2.166e-06	1245.7	249.7	2.5e-06	2.0958e-06	314.32	88.676	69.399	20.446	2.2817e-06	29.215	221.401	17.310	24.879	-69.610	134.672	68.357	-69.364	-62.599	78.917	86.725	-62.654	-55.962	-55.828	-49.076	93.018	-49.341	-8191	255	
34540.934	1	1	0	0	0.22844	0.21254	0.13861	0.17238	0.15441	0.24611	0.059168	0.10129	0.15471	0.044273	0.3114	0.17304	0.17709	0.16926	0.037952	0.16798	-1.7292	-2.3333	-2.5208	-2.2729	-2.6667	-2.4062	-2.2188	-2.6063	-2.0375	-2.3729	-2.6896	-2.2604	-2.4792	-2.2854	-2.1833	-2.6604	54.635	75.908	-1.799	-75.491	180.268	24.020	157.404	-21.571	-46.318	30.090	233.473	-35.199	214.582	174.080	-13.019	160.550	6.8672e-05	0.00021771	0.00011765	1195	1.1762e-06	3.3e-06	1270.3	252.64	1.3165e-06	2.7365e-06	317.67	88.01	69.414	20.438	1.8646e-06	28.916	0.00018524	0.0001894	5.4139e-05	1168.7	2.3961e-06	2.2291e-06	1244.2	248.97	2.4639e-06	2.0927e-06	312.96	88.631	69.307	20.418	2.3448e-06	29.123	211.774	-1.496	22.370	-69.561	97.967	81.367	-69.538	-62.371	98.889	73.564	-62.952	-56.201	-55.931	-49.151	97.445	-49.508	-8191	255	
34541.031	1	1	0	0	0.084649	0.20744	0.10268	0.12508	0.16795	0.046689	0.067062	0.17546	0.12024	0.15932	0.17111	0.39302	0.12094	0.20689	0.10118	0.047281	-1.7938	-2.1979	-2.4437	-2.1875	-2.4062	-2.4938	-2.2771	-2.4875	-2.1229	-2.3292	-2.6813	-2.2104	-2.3854	-2.5	-2.0375	-2.6063	-80.268	78.650	-17.150	141.282	28.367	103.819	148.732	147.929	-66.730	-28.266	151.554	234.913	-10.234	-66.226	54.639	21.483	5.6731e-05	0.0003609	7.9301e-05	1193.5	9.689e-07	3.3349e-06	1267.3	252.78	1.2627e-06	3.92e-06	316.48	88.054	69.033	20.397	2.1999e-06	28.97	0.00019497	0.00019759	5.3489e-05	1166	2.4884e-06	2.2483e-06	1241	248.95	2.4486e-06	2.1057e-06	312.11	88.408	69.023	20.391	2.2658e-06	29.087	204.592	12.107	-1.262	-69.549	95.059	95.246	-69.612	-62.589	109.686	62.418	-62.681	-55.708	-56.022	-49.209	89.348	-49.207	-8191	255	
34541.129	1	1	0	0	0.097334	0.083892	0.14246	0.062692	0.12821	0.31746	0.078206	0.26288	0.12293	0.18925	0.15883	0.1603	0.28779	0.15228	0.28701	0.020223	-1.7625	-2.1729	-2.5917	-2.2125	-2.4396	-2.5021	-2.2583	-2.6583	-2.3125	-2.1896	-2.5938	-2.3646	-2.5208	-2.6375	-2.1417	-2.6146	6.954	18.097	20.159	-76.208	-9.277	14.153	177.028	-22.795	19.796	125.523	147.223	226.283	-57.357	-6.913	75.850	86.375	6.2601e-05	0.00026798	8.7873e-05	1190	1.4545e-06	3.2001e-06	1262	250.5	1.3681e-06	2.1612e-06	315.9	87.77	68.687	20.359	2.7223e-06	29.113	0.00018927	0.00019297	5.4279e-05	1164.5	2.4531e-06	2.0143e-06	1237.9	248.14	2.3971e-06	2.1119e-06	311.82	88.299	68.801	20.411	2.2692e-06	29.058	224.632	5.371	45.602	-69.654	125.887	79.443	-69.513	-62.443	56.532	106.212	-62.600	-56.168	-55.996	-49.081	75.962	-49.460	-8191	255	
34541.223	1	1	0	0	0.034239	0.040009	0.060738	0.071321	0.37125	0.065125	0.076443	0.16612	0.10453	0.23834	0.3811	0.25536	0.11689	0.22095	0.27074	0.24289	-1.9083	-2.2812	-2.5187	-2.4167	-2.3708	-2.4021	-2.3833	-2.6188	-2.4417	-2.2292	-2.3042	-2.1583	-2.3229	-2.6937	-1.9396	-2.5563	15.634	126.337	-12.020	236.043	2.013	109.478	181.639	205.992	-2.718	223.040	201.033	238.853	217.310	177.952	91.739	73.144	6.8026e-05	0.00030288	6.7732e-05	1188.5	1.6728e-06	3.3064e-06	1256.8	249.52	1.6668e-06	2.2851e-06	315.88	87.547	69.053	20.152	2.2681e-06	28.756	0.0001875	0.00020469	5.3954e-05	1160.2	2.556e-06	1.9914e-06	1233.1	247.02	2.2333e-06	2.2073e-06	311.66	87.955	68.846	20.283	2.1169e-06	28.924	216.119	21.582	30.240	-69.563	79.686	75.104	-69.524	-62.574	88.597	57.203	-62.841	-56.304	-55.904	-49.282	111.500	-49.463	-8191	255	
34541.320	1	1	0	0	0.274	0.12756	0.21401	0.13539	0.061266	0.085457	0.24712	0.091624	0.10586	0.086892	0.14243	0.16943	0.089692	0.14527	0.26557	0.16654	-1.8146	-2.1583	-2.5563	-2.4771	-2.2854	-2.5979	-2.4542	-2.4479	-2.3708	-2.1875	-2.6104	-2.3396	-2.1437	-2.4167	-2.0521	-2.4583	-12.470	132.758	-19.017	222.791	12.547	-12.915	156.612	274.447	-1.015	-42.209	-61.877	27.193	-54.171	236.188	164.148	137.591	8.2442e-05	0.00035088	0.00010801	1178.4	1.5961e-06	2.9117e-06	1251.8	248.2	1.0746e-06	3.1209e-06	314.76	86.921	68.625	20.202	1.9656e-06	28.91	0.00017952	0.00019759	5.143e-05	1153.3	2.4399e-06	1.807e-06	1225	246.01	2.1769e-06	2.0468e-06	309.99	87.665	68.363	20.206	1.9908e-06	28.903	218.028	21.745	17.115	-69.735	93.823	77.315	-69.408	-62.499	73.376	55.421	-62.784	-56.189	-55.788	-49.355	97.356	-49.042	-8191	255	
34541.414	1	1	0	0	0.26128	0.088398	0.06578	0.3208	0.11213	0.13407	0.1427	0.11219	0.36853	0.040885	0.082278	0.10115	0.19364	0.24404	0.14956	0.28736	-2.1167	-2.1375	-2.5604	-2.4854	-2.2646	-2.5729	-2.4479	-2.5792	-2.6146	-2.1813	-2.7333	-2.3937	-2.4042	-2.5625	-2.2062	-2.4292	247.191	111.228	156.196	242.094	2.341	181.645	215.369	200.667	270.077	147.913	260.580	95.106	50.683	99.015	257.041	237.114	7.8228e-05	0.00029603	7.5078e-05	1179.2	1.6523e-06	2.8258e-06	1246.6	249.04	1.4864e-06	2.7662e-06	313.16	87.564	68.654	20.148	2.1572e-06	28.749	0.00017777	0.00018197	4.821e-05	1148.1	2.4304e-06	1.9041e-06	1221.4	245.99	2.0772e-06	2.0363e-06	309.76	87.614	68.407	20.183	1.972e-06	28.853	212.778	13.441	16.264	-69.263	87.026	50.694	-69.501	-62.711	90.825	67.713	-62.729	-55.832	-55.673	-49.032	77.160	-49.462	-8191	255	
34541.512	1	1	0	0	0.28598	0.1857	0.16463	0.12676	0.27532	0.27854	0.20013	0.09857	0.15789	0.11002	0.21017	0.10192	0.15009	0.09639	0.079776	0.11996	-1.9604	-2.0083	-2.5083	-2.65	-2.1583	-2.6583	-2.4417	-2.4313	-2.5917	-2.3417	-2.6167	-2.5229	-2.0854	-2.5042	-2.2812	-2.4437	47.188	78.644	55.786	210.232	-39.837	33.682	211.325	202.194	213.817	251.720	268.216	106.101	132.425	217.001	208.590	190.606	7.047e-05	0.00033001	9.7932e-05	1177.7	1.2523e-06	2.6099e-06	1246	248.23	1.5145e-06	3.2309e-06	313.71	87.043	68.36	20.114	2.5134e-06	28.823	0.00016951	0.00018769	4.9154e-05	1147.1	2.4583e-06	1.742e-06	1222.4	245.26	2.0866e-06	2.0858e-06	309.15	87.626	68.331	20.122	2.093e-06	28.833	209.614	9.874	12.383	-69.609	84.840	65.338	-69.456	-62.361	97.378	47.508	-62.722	-56.131	-55.723	-49.024	87.476	-49.252	-8191	255	
34541.633	1	1	0	0	0.12226	0.21424	0.080771	0.16362	0.18437	0.23871	0.17402	0.17864	0.11385	0.11748	0.22539	0.18231	0.10913	0.13126	0.11307	0.10667	-2.15	-2.1896	-2.2625	-2.5958	-2.225	-2.5292	-2.5187	-2.3021	-2.5396	-2.0875	-2.6271	-2.3708	-1.9813	-2.4833	-2.4396	-2.1937	148.974	198.004	52.024	-63.943	59.357	216.340	199.457	138.833	-65.582	173.655	-29.486	193.895	208.561	170.777	-39.574	195.523	6.6181e-05	0.00026508	0.00010808	1179	1.6896e-06	3.2048e-06	1247.1	248.47	1.3628e-06	2.8044e-06	313.32	87.058	67.947	20.203	1.5576e-06	28.662	0.00018431	0.00018351	4.9836e-05	1147.8	2.461e-06	1.9178e-06	1221.7	245.54	2.1227e-06	2.066e-06	309.07	87.463	68.151	20.175	1.9822e-06	28.727	209.957	1.950	27.274	-69.726	94.767	76.674	-69.527	-62.617	78.627	50.678	-62.529	-56.120	-55.885	-48.812	110.184	-49.166	-8191	255	
34541.727	1	1	0	0	0.23762	0.20436	0.22393	0.081582	0.10717	0.20201	0.18938	0.19214	0.27767	0.17024	0.08251	0.16552	0.07499	0.15443	0.18404	0.13667	-2.2875	-2.1	-2.3479	-2.7083	-2.1917	-2.5625	-2.4708	-2.2354	-2.6229	-2.3125	-2.3875	-2.4437	-1.9708	-2.3896	-2.3667	-2.1729	226.107	249.145	84.846	242.970	13.021	142.147	172.787	54.307	132.567	267.656	174.806	-11.806	-76.574	-18.154	63.024	187.020	7.1284e-05	0.00029072	8.0226e-05	1173.2	2.621e-06	3.772e-06	1244.3	249.6	1.1854e-06	3.0226e-06	311.44	86.376	68.298	20.134	1.9461e-06	28.743	0.00018098	0.00017696	4.8318e-05	1146.4	2.48e-06	1.919e-06	1219.8	245.96	2.0898e-06	1.9327e-06	308.39	87.227	68.09	20.143	2.0357e-06	28.727	203.639	5.874	38.009	-69.714	98.608	52.371	-69.354	-62.311	37.231	70.837	-62.841	-55.903	-55.656	-49.037	82.692	-49.262	-8191	255	
34541.824	1	1	0	0	0.19578	0.015103	0.29763	0.38126	0.11124	0.18323	0.3573	0.093862	0.065617	0.11586	0.1351	0.20409	0.21246	0.10417	0.12384	0.27441	-2.2542	-2.2479	-2.2958	-2.6146	-2.1125	-2.4042	-2.5875	-2.1042	-2.5271	-2.3187	-2.3729	-2.5625	-2.1583	-2.3625	-2.3354	-2.1667	174.060	222.249	144.911	247.539	51.500	95.552	229.398	195.813	276.147	-67.983	-79.509	-47.476	63.783	57.552	40.596	202.134	6.348e-05	0.00026664	9.2583e-05	1168.2	1.608e-06	3.3092e-06	1246.2	248.53	8.5559e-07	3.9212e-06	313.33	87.113	68.303	20.156	2.505e-06	28.681	0.00017692	0.0001894	4.9309e-05	1140.5	2.4451e-06	1.9215e-06	1218.5	245.15	2.1906e-06	1.9234e-06	308.44	87.263	68.141	20.166	1.9152e-06	28.692	208.280	-4.497	30.368	-69.638	107.534	68.441	-69.461	-62.529	67.832	61.281	-62.548	-56.110	-55.555	-49.022	125.320	-49.346	-8191	255	
34541.918	1	1	0	0	0.22105	0.13476	0.071584	0.1139	0.24978	0.22436	0.20575	0.10369	0.23544	0.15213	0.24128	0.1869	0.13585	0.11072	0.33131	0.31669	-2.15	-2.2021	-2.1396	-2.5625	-2.225	-2.5042	-2.5875	-2.0771	-2.6	-2.3417	-2.1688	-2.5563	-2.3146	-2.5563	-2.2521	-2.1521	45.808	271.361	-16.059	142.525	221.070	209.625	244.148	209.923	122.272	243.235	192.587	195.514	217.939	235.398	185.561	-69.772	8.1067e-05	0.00038819	0.00010482	1172.3	7.9833e-07	2.9911e-06	1239.3	249.31	1.671e-06	2.6026e-06	312.56	86.327	68.64	20.029	1.9687e-06	28.679	0.00017405	0.00016651	4.8845e-05	1143.7	2.3829e-06	1.8441e-06	1216.4	245.05	2.1791e-06	1.8838e-06	308.28	87.229	68.313	20.079	1.7992e-06	28.75	210.740	-5.798	17.742	-69.715	146.939	72.633	-69.189	-62.619	87.771	50.840	-62.784	-56.087	-55.666	-48.999	107.675	-49.026	-8191	255	
34542.016	1	1	0	0	0.13368	0.34214	0.1342	0.19709	0.22314	0.17692	0.31315	0.17555	0.13453	0.16401	0.11679	0.0029496	0.18082	0.045159	0.29412	0.24271	-1.9646	-2.2667	-2.2	-2.8833	-2.2104	-2.5208	-2.7104	-2.2896	-2.5812	-2.4708	-2.35	-2.5833	-2.4458	-2.25	-2.5979	-2.1688	21.861	168.050	228.233	218.450	194.252	26.402	162.935	216.247	109.728	148.101	182.931	238.316	117.548	23.273	79.804	268.458	6.9234e-05	0.00023156	9.5915e-05	1169.9	2.3771e-06	3.0342e-06	1241.3	247.66	1.6672e-06	2.7227e-06	313.77	87.174	68.257	20.142	2.4948e-06	28.463	0.00016531	0.00017267	4.7699e-05	1141.8	2.338e-06	1.8113e-06	1217.7	244.93	2.1101e-06	1.8336e-06	308.85	87.433	68.174	20.144	1.7703e-06	28.734	217.520	0.561	23.508	-69.437	96.793	91.878	-69.406	-62.597	67.187	73.238	-62.452	-56.079	-56.003	-49.344	69.455	-49.305	-8191	255	
34542.113	1	1	0	0	0.14178	0.20131	0.16595	0.24837	0.058185	0.088171	0.26469	0.099972	0.26094	0.16172	0.30503	0.24088	0.25055	0.14728	0.22955	0.14534	-2.0125	-2.3896	-2.2021	-2.5958	-2.2646	-2.1813	-2.7021	-2.1167	-2.3125	-2.5792	-2.0771	-2.5187	-2.3208	-2.3563	-2.4625	-2.0604	216.378	199.294	261.170	202.136	265.407	165.353	233.288	181.274	239.894	106.119	21.967	216.464	172.958	-73.688	209.479	-79.008	8.1977e-05	0.00044059	9.5433e-05	1168.1	9.7086e-07	3.9675e-06	1236.2	247.67	6.0661e-07	3.5254e-06	311.68	86.866	67.98	20.134	1.7808e-06	28.399	0.00016965	0.00018637	4.79e-05	1143.1	2.2151e-06	1.8973e-06	1214.7	244.74	2.0663e-06	1.9036e-06	307.38	87.365	68.099	20.129	1.8123e-06	28.672	210.273	11.801	28.355	-69.521	108.507	62.461	-69.347	-62.782	99.013	58.813	-63.078	-56.172	-55.919	-48.772	73.094	-49.040	-8191	255	
34542.230	1	1	0	0	0.24478	0.21968	0.12827	0.31985	0.3541	0.056661	0.38036	0.34722	0.17806	0.018348	0.10502	0.050512	0.010235	0.19084	0.14943	0.12654	-1.6583	-2.5875	-2.1708	-2.6229	-2.4521	-2.1229	-2.6312	-2.1354	-2.2896	-2.5812	-2.4396	-2.4938	-2.4271	-2.1562	-2.6271	-2.4854	216.361	35.619	257.144	255.134	81.393	108.830	171.552	222.516	235.204	136.504	210.180	-75.684	-50.115	277.959	56.317	-59.222	6.4696e-05	0.00037595	8.6935e-05	1173.4	1.2026e-06	3.3763e-06	1240.2	247.55	9.0883e-07	3.3044e-06	312.03	86.994	68.03	20.06	1.8337e-06	28.647	0.0001758	0.00017108	4.852e-05	1143	2.2763e-06	2.054e-06	1214.2	244.68	2.0066e-06	1.8075e-06	307.97	87.435	68.158	20.151	1.7816e-06	28.725	219.125	11.675	4.051	-69.632	92.613	83.304	-69.258	-62.386	56.418	63.116	-63.078	-55.598	-55.939	-48.869	90.586	-48.975	-8191	255	
34542.328	1	1	0	0	0.11567	0.1169	0.26378	0.39948	0.15729	0.13287	0.11405	0.24533	0.23328	0.067103	0.24579	0.1604	0.2583	0.215	0.27966	0.19914	-1.7604	-2.5312	-2.1312	-2.5792	-2.5292	-2.1125	-2.625	-2.1937	-2.1417	-2.7583	-2.1813	-2.7271	-2.4208	-2.275	-2.4875	-2.2333	96.623	202.680	158.947	252.282	47.299	102.879	224.431	217.642	103.751	46.399	275.496	196.843	139.487	-53.670	-6.523	203.480	7.2435e-05	0.00021073	9.1287e-05	1169.4	2.1032e-06	3.6335e-06	1243.6	248.9	1.4779e-06	2.441e-06	311.65	86.683	67.659	20.301	1.6399e-06	28.628	0.00017095	0.00017086	5.0703e-05	1143.2	2.2399e-06	2.0273e-06	1218.6	244.86	2.0077e-06	1.8633e-06	308.02	87.315	67.956	20.187	1.839e-06	28.74	208.253	13.176	15.485	-69.762	109.407	70.655	-69.251	-62.464	75.062	62.724	-62.835	-55.792	-55.858	-49.195	72.083	-49.127	-8191	255	
34542.398	1	1	0	0	0.062548	0.17987	0.13978	0.28779	0.095493	0.08724	0.38883	0.19595	0.052168	0.14257	0.10008	0.2362	0.34575	0.13535	0.097583	0.21846	-1.7625	-2.5	-2.1688	-2.6104	-2.5083	-2.1958	-2.5938	-2.4375	-2.3521	-2.4292	-2.2271	-2.4167	-2.6854	-2.2542	-2.5083	-2.4271	263.993	131.400	186.983	260.979	-17.961	125.810	226.197	245.525	32.238	145.105	246.916	215.748	-33.748	181.030	259.274	140.994	6.8241e-05	0.00038261	0.00010495	1167.7	2.4104e-06	4.094e-06	1238.1	248.14	7.2328e-07	3.2687e-06	311.22	86.858	68.42	20.096	2.4212e-06	28.579	0.00017704	0.00017894	5.0408e-05	1142.2	2.3512e-06	1.9939e-06	1214.3	244.47	2.0362e-06	1.8125e-06	307.59	87.272	68.171	20.123	1.8356e-06	28.704	209.556	10.303	39.790	-69.693	91.485	68.816	-69.282	-62.484	125.223	77.724	-62.919	-56.172	-55.709	-49.211	87.497	-49.480	-8191	255	
34542.496	1	1	0	0	0.085255	0.062101	0.07029	0.18919	0.43022	0.22327	0.06653	0.24406	0.10394	0.25477	0.098965	0.13953	0.23583	0.2839	0.15093	0.12768	-1.8042	-2.5854	-2.1813	-2.4625	-2.4646	-2.0521	-2.6875	-2.425	-2.1396	-2.5708	-2.4354	-2.5104	-2.5792	-2.3479	-2.3896	-2.4562	-78.636	106.550	78.687	178.202	175.181	20.133	123.846	252.130	214.807	179.215	-72.915	192.185	-54.117	215.705	133.880	-47.743	6.291e-05	0.00027011	8.5627e-05	1168.2	1.2107e-06	2.6832e-06	1237.1	248.73	1.5462e-06	3.4834e-06	312.72	87.149	68.266	20.089	2.4823e-06	28.692	0.00018008	0.0001642	4.999e-05	1139.4	2.2198e-06	1.8119e-06	1213.3	245.25	2.1523e-06	1.8602e-06	307.82	87.463	68.165	20.176	1.8606e-06	28.717	209.588	11.624	9.254	-69.558	112.448	84.900	-69.488	-62.663	61.898	72.049	-62.579	-56.014	-55.727	-49.367	67.143	-49.460	-8191	255	
34542.617	1	1	0	0	0.12974	0.14587	0.21732	0.25422	0.28636	0.047916	0.13405	0.0072993	0.20764	0.096647	0.049577	0.27225	0.1336	0.053527	0.03912	0.18985	-1.5146	-2.3354	-2.1729	-2.4688	-2.4562	-2.0938	-2.7042	-2.3646	-2.1833	-2.6958	-2.3438	-2.3333	-2.7083	-2.1688	-2.4271	-2.4938	50.712	81.054	-38.698	240.099	227.697	194.806	229.425	-43.051	-14.633	45.733	128.895	-9.023	83.141	45.321	-34.671	160.353	7.4061e-05	0.00031414	9.842e-05	1168.1	1.8456e-06	3.502e-06	1235.1	248.08	1.3595e-06	3.6131e-06	312.65	87.512	68.312	19.912	2.7649e-06	28.746	0.00017486	0.00015491	4.7838e-05	1140.1	2.2536e-06	1.9134e-06	1214.5	244.49	2.0887e-06	1.7691e-06	308.1	87.459	68.214	20.069	1.9174e-06	28.712	215.166	8.284	38.406	-69.469	105.167	71.178	-69.455	-62.520	61.696	86.783	-62.823	-56.137	-55.750	-48.801	101.645	-49.349	-8191	255	
34542.715	1	1	0	0	0.31935	0.087444	0.22622	0.24088	0.12943	0.15473	0.17237	0.14884	0.12542	0.018576	0.053421	0.1219	0.048723	0.34242	0.22409	0.26387	-1.5479	-2.5438	-2.225	-2.2562	-2.7313	-2.2146	-2.6083	-2.6479	-2.2229	-2.4708	-2.5938	-2.0125	-2.55	-2.2583	-2.3979	-2.5021	169.350	-67.591	198.316	-46.107	100.778	86.418	193.052	273.506	-70.157	204.000	116.080	-21.006	-45.377	261.121	-56.459	249.149	7.2441e-05	0.00025696	7.7923e-05	1164.7	1.136e-06	2.6383e-06	1241.2	247.43	1.7176e-06	3.9229e-06	311.71	87.101	67.929	20.358	1.5364e-06	28.766	0.0001798	0.00015524	5.0517e-05	1140.7	2.1945e-06	1.7896e-06	1215.2	244.32	2.207e-06	1.8856e-06	308.08	87.436	68.121	20.196	1.9021e-06	28.768	218.662	3.044	3.390	-69.712	88.620	74.932	-69.578	-62.575	63.062	61.819	-62.551	-56.018	-55.602	-48.811	95.777	-49.468	-8191	255	
34542.809	1	1	0	0	0.062985	0.053092	0.22116	0.58253	0.030836	0.033534	0.1633	0.10718	0.30478	0.12617	0.094404	0.14478	0.1987	0.041674	0.098238	0.24355	-1.5333	-2.5687	-2.3396	-2.3021	-2.5417	-2.3354	-2.4625	-2.625	-2.3833	-2.325	-2.4688	-2.2833	-2.5771	-2.2458	-2.4021	-2.5125	46.750	184.565	168.065	241.387	105.959	-19.552	270.808	119.339	163.962	213.261	54.180	216.243	117.570	-3.800	174.094	184.281	6.613e-05	0.00025523	9.9089e-05	1163.8	1.276e-06	2.5345e-06	1239.4	247.47	9.6105e-07	2.3905e-06	313.21	86.864	68.249	20.085	2.6181e-06	28.567	0.00017455	0.00017097	4.6755e-05	1139	2.2541e-06	1.7593e-06	1214.6	244.54	2.2027e-06	1.805e-06	308.34	87.491	68.168	20.121	2.0004e-06	28.801	220.362	15.639	6.069	-69.442	92.872	68.217	-69.450	-62.569	108.390	92.971	-62.921	-56.242	-55.922	-49.119	96.212	-49.558	-8191	255	
34542.906	1	1	0	0	0.317	0.47558	0.18717	0.15349	0.23384	0.25411	0.3282	0.13143	0.2047	0.054232	0.29325	0.064776	0.056778	0.14942	0.091968	0.13871	-1.8083	-2.4688	-2.3208	-2.3583	-2.7062	-2.225	-2.1292	-2.6604	-2.2104	-2.375	-2.6688	-2.2083	-2.7792	-2.1708	-2.175	-2.6354	-0.578	168.016	223.658	229.522	241.861	268.044	241.316	259.186	-15.504	277.362	165.659	126.653	88.849	158.874	65.858	111.117	6.6307e-05	0.00030727	7.1789e-05	1165.4	2.3521e-06	3.2752e-06	1240.5	247.88	9.4893e-07	3.4941e-06	311.12	87.015	68.562	20.267	1.9257e-06	28.8	0.00017718	0.00015419	4.8164e-05	1139.9	2.1512e-06	1.8156e-06	1217.2	244.63	2.0274e-06	1.784e-06	308.4	87.471	68.227	20.182	1.9947e-06	28.827	214.609	7.731	28.479	-69.498	101.348	60.661	-69.372	-62.721	119.902	78.964	-62.992	-55.949	-55.564	-48.928	82.898	-49.360	-8191	255	
34543.023	1	1	0	0	0.16468	0.18889	0.12894	0.18458	0.21519	0.16513	0.1379	0.093018	0.09961	0.20576	0.23014	0.027182	0.21844	0.21163	0.2591	0.18395	-1.6042	-2.4604	-2.4042	-2.4208	-2.575	-2.3312	-2.4958	-2.8125	-2.1229	-2.3688	-2.4813	-2.1458	-2.5167	-2.2875	-2.1167	-2.5542	40.386	129.897	3.309	205.895	-49.632	-23.449	37.054	134.308	163.935	77.895	-23.865	225.051	207.703	250.649	151.170	-59.873	8.1895e-05	0.00038681	5.9827e-05	1159.7	2.0368e-06	4.1149e-06	1222.1	246.07	7.9039e-07	2.8864e-06	308.2	86.276	67.51	19.908	2.9509e-06	28.534	0.00017007	0.0001609	4.0779e-05	1131.1	2.0668e-06	1.6045e-06	1201.2	242.02	1.988e-06	1.5788e-06	304.52	86.644	67.323	19.95	1.7129e-06	28.561	216.543	14.376	18.281	-69.543	103.734	62.064	-69.368	-62.423	77.342	87.984	-62.677	-56.032	-55.528	-48.786	87.992	-49.465	-8191	255	
34543.098	1	1	0	0	0.22136	0.099833	0.26852	0.2021	0.16264	0.083122	0.15677	0.19063	0.34817	0.077979	0.10631	0.02374	0.23735	0.28252	0.14935	0.115	-1.8542	-2.2875	-2.4458	-2.3104	-2.3792	-2.4771	-2.2438	-2.6417	-2.3979	-2.3229	-2.6958	-2.3	-2.6	-2.2958	-2.0167	-2.5563	203.612	253.304	195.946	-73.268	108.462	106.878	212.357	210.761	263.835	30.595	274.794	236.236	75.363	219.777	172.298	14.031	6.5113e-05	0.0002981	0.00010352	1139.9	1.9025e-06	2.9963e-06	1208.2	243.28	1.3043e-06	1.3139e-06	307.56	85.596	67.012	19.726	2.5895e-06	28.386	0.00016452	0.00014918	3.8782e-05	1111.8	1.9544e-06	1.6027e-06	1184.1	240.4	1.8034e-06	1.6011e-06	302.84	86.116	66.983	19.834	1.7134e-06	28.363	220.994	6.005	27.637	-69.582	101.020	70.545	-69.326	-62.363	65.083	59.414	-63.015	-55.809	-55.767	-48.852	64.813	-49.143	-8191	255	
34543.191	1	1	0	0	0.21475	0.23172	0.083524	0.10085	0.22822	0.048635	0.25636	0.1731	0.18965	0.31406	0.054556	0.21251	0.11186	0.2274	0.067469	0.13973	-1.8479	-2.2458	-2.6021	-2.1708	-2.4104	-2.3625	-2.2229	-2.5708	-2.3854	-2.2812	-2.7167	-2.3	-2.4542	-2.6146	-2.2958	-2.5271	0.349	190.345	173.870	173.000	4.558	-29.732	214.241	79.826	201.030	81.230	277.610	122.687	58.334	267.919	266.659	9.088	5.6214e-05	0.00024034	6.1977e-05	1140.4	1.2877e-06	2.1294e-06	1213.3	243.73	1.8358e-06	2.3698e-06	308.77	86.092	67.203	19.873	2.2009e-06	28.325	0.0001679	0.00015601	4.1212e-05	1111.3	2.0642e-06	1.6237e-06	1187.7	240.48	1.9759e-06	1.7908e-06	303.76	86.482	67.175	19.923	1.8953e-06	28.463	212.369	19.914	17.489	-69.690	121.701	60.935	-69.422	-62.305	76.799	72.745	-62.513	-55.712	-55.637	-49.011	87.715	-49.140	-8191	255	
34543.312	1	1	0	0	0.097508	0.24199	0.17162	0.18104	0.51506	0.14153	0.21057	0.22382	0.16923	0.28383	0.11998	0.14376	0.24477	0.061934	0.15789	0.24406	-1.7812	-2.2667	-2.65	-2.4437	-2.35	-2.4083	-2.0667	-2.5979	-2.2521	-2.0979	-2.5062	-2.0958	-2.1979	-2.4521	-2.1312	-2.5417	7.764	124.600	203.897	227.762	2.063	220.162	134.644	219.436	81.575	136.320	240.539	59.618	35.032	7.130	195.273	-64.348	7.3402e-05	0.00038162	0.00010652	1144.8	1.6784e-06	1.869e-06	1219.2	243.22	1.1557e-06	3.994e-06	308.14	85.855	67.263	19.929	2.247e-06	28.617	0.00016578	0.00016514	4.1878e-05	1117.6	2.0742e-06	1.75e-06	1193.4	240.81	2.0181e-06	1.8819e-06	303.63	86.381	67.213	19.976	1.8811e-06	28.574	209.466	22.572	18.483	-69.449	99.067	91.438	-69.367	-62.431	62.022	62.811	-62.942	-56.019	-55.862	-49.061	82.467	-49.383	-8191	255	
34543.410	1	1	0	0	0.13177	0.11169	0.22427	0.2784	0.24386	0.14786	0.18442	0.21378	0.21516	0.21156	0.25807	0.1926	0.086812	0.31389	0.12219	0.34644	-1.8854	-1.9167	-2.4708	-2.4188	-2.0938	-2.4188	-2.225	-2.5083	-2.4104	-2.0792	-2.7646	-2.1312	-2.2417	-2.6479	-2.0979	-2.4062	79.932	165.065	234.436	210.878	17.208	121.684	238.228	223.427	100.456	0.996	261.300	19.041	237.918	-30.084	264.231	177.491	7.444e-05	0.00031521	8.6261e-05	1150.8	1.1302e-06	2.2926e-06	1223.3	244.74	3.9458e-07	2.8626e-06	309.98	86.353	67.116	19.935	2.3097e-06	28.536	0.00017018	0.00017845	4.1646e-05	1122.9	2.1676e-06	1.6219e-06	1198.3	241.7	1.9874e-06	1.8813e-06	305.12	86.672	67.354	19.979	2.03e-06	28.605	209.647	6.874	19.280	-69.652	112.472	69.969	-69.436	-62.310	74.969	64.026	-62.754	-56.216	-55.562	-49.046	59.055	-49.394	-8191	255	
34543.504	1	1	0	0	0.25941	0.20834	0.07951	0.27884	0.089703	0.28773	0.31654	0.20929	0.3856	0.26859	0.097129	0.077256	0.46907	0.21742	0.061988	0.24636	-1.8146	-2	-2.4375	-2.4333	-2.1729	-2.5917	-2.4625	-2.4208	-2.2208	-2.0708	-2.5792	-2.4083	-2.2208	-2.5271	-2.0792	-2.3917	263.317	24.084	162.059	-78.846	153.048	257.947	195.987	205.898	118.183	73.483	-59.292	117.113	268.620	178.692	56.521	75.516	6.88e-05	0.00032957	8.3164e-05	1159.8	1.9843e-06	3.9175e-06	1236.4	246.63	1.2439e-06	3.6243e-06	309.03	86.518	67.936	20.137	2.7168e-06	28.83	0.00017935	0.00018934	4.9263e-05	1133.3	2.3824e-06	2.0936e-06	1210	243.5	2.1506e-06	2.2024e-06	306.35	87.039	68.012	20.085	2.2834e-06	28.805	206.019	10.125	22.545	-69.614	93.599	68.920	-69.568	-62.617	82.956	70.570	-62.958	-55.962	-55.769	-49.083	66.250	-49.558	-8191	255	
34543.625	1	1	0	0	0.20769	0.16468	0.065683	0.10562	0.081659	0.04914	0.31964	0.15082	0.19863	0.16531	0.2292	0.20531	0.092315	0.11531	0.17383	0.10054	-2.0542	-2.0958	-2.3625	-2.6229	-2.2479	-2.5938	-2.3042	-2.2708	-2.4188	-2.3354	-2.5146	-2.4333	-2.1479	-2.6625	-2.2333	-2.3187	-7.409	136.930	233.683	226.717	56.801	37.764	195.237	183.212	4.238	-68.554	277.036	227.688	258.860	49.713	141.980	-36.415	6.6314e-05	0.0002668	9.0147e-05	1176.6	1.5943e-06	2.0819e-06	1245.3	247.98	1.317e-06	3.0181e-06	314.15	87.506	68.358	20.394	2.3664e-06	28.823	0.00017833	0.00021157	5.3876e-05	1146.8	2.6325e-06	2.0385e-06	1221.7	245.64	2.3199e-06	2.1336e-06	309.91	87.933	68.495	20.329	2.309e-06	28.883	216.513	12.515	24.060	-69.661	133.335	67.610	-69.554	-62.649	55.595	71.696	-62.739	-55.850	-56.005	-49.028	63.220	-49.527	-8191	255	
34543.695	1	1	0	0	0.046145	0.12715	0.12285	0.16588	0.074719	0.15626	0.32463	0.38191	0.16703	0.059909	0.13213	0.29763	0.32093	0.27463	0.25392	0.27516	-2.1458	-1.9042	-2.3979	-2.3208	-2.0542	-2.5896	-2.4437	-2.2938	-2.5542	-2.2958	-2.4146	-2.4562	-2.0292	-2.4333	-2.1708	-2.2125	41.134	185.636	107.324	165.458	268.600	91.543	191.193	264.646	155.024	-41.037	273.206	194.977	10.678	188.476	38.868	251.852	7.9574e-05	0.00043087	0.00012391	1184.6	1.368e-06	2.817e-06	1260.5	250.13	1.6616e-06	3.4632e-06	315.55	87.721	69.309	20.423	1.7196e-06	29.131	0.00019449	0.00021894	5.6911e-05	1160	2.7596e-06	2.1456e-06	1236.6	247.46	2.4891e-06	2.327e-06	312.25	88.549	69.188	20.482	2.4318e-06	29.169	211.679	14.714	19.626	-69.802	93.446	70.937	-69.509	-62.682	75.265	66.664	-62.747	-56.244	-55.753	-49.268	65.175	-49.708	-8191	255	
34543.793	1	1	0	0	0.10303	0.056929	0.29516	0.2814	0.34277	0.057151	0.27885	0.11256	0.089336	0.10514	0.054746	0.32022	0.092751	0.18796	0.14943	0.16373	-2.2333	-2.2292	-2.325	-2.5438	-2.0792	-2.6292	-2.5083	-2.2729	-2.4667	-2.4938	-2.2792	-2.5021	-2.3438	-2.3917	-2.4292	-2.375	258.192	84.712	174.989	238.059	182.601	220.323	270.515	210.479	263.734	217.681	52.833	128.256	222.601	243.829	206.425	243.162	7.1504e-05	0.00041114	8.2656e-05	1201.1	7.6305e-07	4.022e-06	1277.1	252.85	2.0752e-06	3.8958e-06	320.26	88.557	69.564	20.649	3.7254e-06	29.299	0.00020117	0.00022966	5.7236e-05	1173.5	2.8778e-06	2.4761e-06	1249.5	250.3	2.764e-06	2.8384e-06	315.53	89.301	69.997	20.716	2.7767e-06	29.466	216.766	18.426	32.186	-69.777	27.544	27.570	-69.736	-62.745	52.617	67.734	-62.939	-56.257	-56.194	-49.257	74.292	-49.614	-8191	255	
34543.910	1	1	0	0	0.11372	0.16866	0.09224	0.22653	0.11148	0.096419	0.04462	0.14472	0.043769	0.066986	0.32208	0.10753	0.23157	0.06334	0.32786	0.089419	-1.9896	-2.2917	-2.3625	-2.7229	-1.9438	-2.4062	-2.4062	-2.1417	-2.5708	-2.1771	-2.2292	-2.5583	-2.1854	-2.5208	-2.6375	-2.1375	273.152	155.724	113.122	271.218	241.184	139.232	194.582	233.778	8.729	222.520	-62.450	205.668	-32.646	-65.066	197.087	14.598	7.6518e-05	0.00028459	0.00011892	1222.5	1.6066e-06	3.9203e-06	1294.8	256.84	1.2737e-06	2.7701e-06	323.52	89.658	70.502	20.799	1.6988e-06	29.488	0.00022481	0.00027037	7.1742e-05	1191	3.1775e-06	2.9286e-06	1268.2	254.05	3.0302e-06	2.8539e-06	319.55	90.172	70.769	20.876	2.7796e-06	29.567	215.018	5.625	28.977	-69.833	110.248	75.984	-69.576	-62.830	75.063	63.164	-62.913	-56.336	-56.345	-49.256	90.458	-49.619	-8191	255	
34544.008	1	1	0	0	0.022907	0.14281	0.27865	0.36799	0.04742	0.18896	0.1226	0.13265	0.137	0.12922	0.15277	0.042578	0.4706	0.1067	0.13228	0.25034	-2.15	-2.1021	-2.2958	-2.6167	-2.1479	-2.6813	-2.5771	-2.2792	-2.5812	-2.4479	-2.3771	-2.6667	-1.9854	-2.425	-2.4167	-2.3458	149.227	52.680	-70.551	229.336	77.231	-2.934	-64.342	237.719	86.173	-29.931	218.339	-18.941	-78.722	93.447	195.643	197.207	7.2192e-05	0.00036851	8.3724e-05	1228.6	1.4625e-06	3.941e-06	1301.5	258.07	1.5342e-06	3.2018e-06	324.73	89.995	70.82	20.74	2.2442e-06	29.498	0.00021553	0.00025645	7.1804e-05	1198.3	3.177e-06	2.8364e-06	1272.3	255.16	2.8752e-06	2.8452e-06	320.28	90.413	70.732	20.846	2.7864e-06	29.556	210.834	-5.116	-10.317	-69.839	113.943	79.302	-69.544	-62.798	88.333	81.315	-62.869	-56.245	-55.959	-49.171	106.854	-49.556	-8191	255	
34544.105	1	1	0	0	0.076751	0.29037	0.18396	0.14663	0.31378	0.11891	0.42849	0.33997	0.068961	0.16911	0.21356	0.092519	0.13231	0.3063	0.1224	0.084447	-2.1562	-2.1667	-2.2604	-2.7646	-2.2687	-2.2896	-2.5396	-2.2125	-2.4896	-2.3229	-2.2417	-2.6479	-2.3583	-2.1646	-2.3875	-2.1688	6.036	98.587	216.667	148.962	118.982	251.921	225.321	253.464	30.446	148.938	-77.381	194.108	200.537	154.979	39.075	168.165	7.3259e-05	0.00036935	0.00012503	1230.9	1.2834e-06	2.5204e-06	1305	258.5	1.5995e-06	3.7933e-06	325.31	89.375	70.607	20.856	2.8592e-06	29.349	0.00021573	0.00025623	7.4436e-05	1199.9	3.1754e-06	2.8445e-06	1274.8	255.06	2.7016e-06	2.8346e-06	320.12	90.177	70.719	20.777	2.7511e-06	29.445	226.326	-11.231	20.580	-69.862	89.304	67.789	-69.509	-62.843	80.560	57.877	-62.926	-56.161	-56.248	-49.266	99.053	-49.485	-8191	255	
34544.199	1	1	0	0	0.064827	0.1376	0.14772	0.30161	0.17993	0.1993	0.17131	0.20191	0.071103	0.28894	0.17667	0.23285	0.24647	0.040617	0.37842	0.15317	-2.0812	-2.4125	-2.1188	-2.6854	-2.2104	-2.4521	-2.5938	-2.2833	-2.4104	-2.3896	-2.2229	-2.6583	-2.2625	-2.4	-2.4792	-2.2396	94.481	62.822	162.146	253.235	179.806	59.951	117.564	240.799	2.681	59.330	187.291	267.742	233.995	165.502	-32.846	266.556	6.9971e-05	0.00024452	0.00014409	1221.4	1.2302e-06	3.0745e-06	1299.2	258.07	6.5819e-07	2.4724e-06	324.58	89.329	70.859	20.831	3.5435e-06	29.345	0.00021119	0.00025557	7.151e-05	1197	3.1786e-06	2.7894e-06	1272.8	255.32	2.8713e-06	2.9059e-06	320.52	90.159	70.877	20.808	2.8819e-06	29.466	216.812	-0.979	10.604	-69.984	79.963	83.962	-69.693	-62.747	113.275	89.982	-62.837	-56.237	-56.253	-49.348	76.341	-49.881	-8191	255	
34544.320	1	1	0	0	0.10725	0.15092	0.053394	0.23099	0.096518	0.080976	0.35731	0.34395	0.056094	0.13797	0.18368	0.21581	0.22736	0.031352	0.093112	0.16414	-1.85	-2.4604	-2.1229	-2.7833	-2.425	-2.2896	-2.7167	-2.3104	-2.5563	-2.5292	-2.2125	-2.6229	-2.3396	-2.1521	-2.5021	-2.2021	174.023	-6.435	48.485	207.056	99.138	213.659	234.223	266.027	241.582	102.691	249.829	-56.396	220.095	94.020	251.100	208.689	7.2519e-05	0.00034437	0.00010837	1231.6	2.3077e-06	3.1895e-06	1304.6	259.1	1.0346e-06	3.0451e-06	324.62	89.649	70.792	20.675	3.4289e-06	29.401	0.00022734	0.00027455	7.1897e-05	1203.6	3.2007e-06	3.0995e-06	1277.2	256.1	3.1747e-06	3.188e-06	321.09	90.21	71.02	20.775	3.1166e-06	29.512	226.937	0.702	22.733	-69.935	85.342	84.822	-69.688	-62.730	52.149	59.689	-62.943	-56.088	-56.082	-49.624	76.075	-49.523	-8191	255	
34544.395	1	1	0	0	0.17407	0.19248	0.091932	0.074266	0.15568	0.18609	0.055149	0.22911	0.033202	0.097732	0.20676	0.10683	0.07521	0.23552	0.091207	0.23851	-1.8583	-2.3333	-2.1312	-2.6896	-2.1854	-2.0458	-2.7354	-2.2562	-2.25	-2.475	-2.2313	-2.5771	-2.2292	-1.9562	-2.4625	-2.2521	138.782	-27.901	155.846	70.032	132.715	266.511	-55.526	55.476	55.910	210.359	254.410	87.245	71.394	189.159	52.854	201.469	6.3355e-05	0.00031444	7.5033e-05	1239.2	1.8735e-06	3.0554e-06	1309.3	260.14	1.1702e-06	3.2314e-06	327.37	90.603	71.247	20.836	1.3934e-06	29.616	0.00023157	0.00027681	7.9653e-05	1212	3.4846e-06	3.2456e-06	1285.3	257.48	3.3883e-06	3.09e-06	322.88	90.746	71.211	20.81	3.0779e-06	29.599	211.229	21.085	18.852	-69.694	85.164	71.828	-69.619	-62.799	112.664	73.978	-62.927	-56.298	-55.851	-49.239	74.861	-49.339	-8191	255	
34544.488	1	1	0	0	0.36127	0.19444	0.038733	0.22504	0.019425	0.090093	0.35271	0.16933	0.094121	0.10961	0.043442	0.37797	0.099394	0.11164	0.067885	0.18786	-1.8083	-2.6646	-2.1458	-2.4958	-2.5229	-2.2604	-2.8417	-2.5396	-2.2354	-2.5729	-2.4083	-2.5208	-2.4958	-2.1063	-2.4542	-2.2771	269.067	120.222	-23.817	165.067	277.673	245.015	162.916	254.165	83.036	63.728	82.208	207.163	198.809	-42.527	203.327	214.943	8.0647e-05	0.00028043	8.0121e-05	1248.9	1.2583e-06	2.8601e-06	1321.6	260.99	1.8716e-06	2.1284e-06	328.05	90.322	71.462	20.789	2.0196e-06	29.833	0.00023603	0.00029875	8.0799e-05	1217.6	3.5516e-06	3.2283e-06	1291.8	257.78	3.4064e-06	3.1328e-06	324.02	90.823	71.516	20.832	3.1876e-06	29.758	223.403	8.700	21.312	-69.851	25.027	91.894	-69.757	-62.725	75.087	54.515	-62.815	-56.325	-56.071	-49.675	69.866	-49.586	-8191	255	
34544.586	1	1	0	0	0.16222	0.33517	0.14248	0.33799	0.17331	0.40223	0.078011	0.23672	0.23945	0.19633	0.14552	0.25083	0.07152	0.38196	0.17736	0.22355	-1.7167	-2.5896	-2.1875	-2.5479	-2.6375	-2.2458	-2.7667	-2.5042	-2.2188	-2.5729	-2.2792	-2.4562	-2.4146	-2.1937	-2.4146	-2.5479	141.099	25.143	199.784	231.965	265.785	216.303	199.153	236.738	-56.381	-42.791	146.452	-54.553	72.939	253.233	148.417	249.785	7.1646e-05	0.00013638	8.2751e-05	1253.2	1.5135e-06	4.0439e-06	1323.5	260.43	1.2737e-06	3.4028e-06	328.84	90.918	71.613	20.714	3.7454e-06	29.886	0.00025473	0.00029226	8.6961e-05	1224.9	3.6883e-06	3.414e-06	1298.4	259.57	3.6233e-06	3.4644e-06	325.07	91.335	71.75	20.899	3.3837e-06	29.92	234.303	30.725	30.859	-69.795	115.121	67.244	-69.763	-62.662	95.851	87.873	-63.085	-56.310	-56.146	-49.188	101.520	-49.269	-8191	255	
34544.707	1	1	0	0	0.17679	0.25979	0.028393	0.23849	0.095023	0.22511	0.20289	0.16385	0.21833	0.23248	0.11359	0.054331	0.09114	0.070852	0.099898	0.30362	-1.5896	-2.5146	-2.2458	-2.4542	-2.6958	-2.2771	-2.8333	-2.4854	-2.1	-2.5708	-2.4417	-2.4292	-2.4896	-2.1521	-2.4833	-2.6208	21.508	-74.180	-11.581	230.035	211.487	113.171	242.567	113.679	109.335	5.793	47.441	20.478	117.694	3.363	-7.816	198.768	7.815e-05	0.0003469	0.00011729	1262.5	2.5453e-06	3.1459e-06	1332.9	263.54	1.6021e-06	2.4225e-06	330.64	91.015	72.053	20.881	2.5905e-06	29.673	0.00026141	0.0003273	9.1435e-05	1231.1	3.6746e-06	3.7055e-06	1305.7	260.31	3.6495e-06	3.3969e-06	326.16	91.618	72.006	20.947	3.3513e-06	29.893	225.369	6.363	12.021	-69.997	81.041	83.472	-69.493	-62.831	79.602	69.578	-63.087	-56.285	-56.258	-49.098	78.949	-49.411	-8191	255	
34544.801	1	1	0	0	0.23346	0.055527	0.25986	0.17756	0.25699	0.15694	0.31707	0.10076	0.082085	0.24575	0.03836	0.26023	0.067885	0.23731	0.065413	0.32203	-1.8062	-2.5521	-2.1833	-2.5083	-2.5625	-2.1292	-2.5854	-2.3292	-2.0833	-2.5	-2.5	-2.1646	-2.475	-2.2583	-2.4979	-2.6188	208.309	62.821	249.852	276.663	-41.217	77.783	117.684	228.586	117.469	172.155	157.934	-64.300	81.131	174.629	200.584	192.059	5.5216e-05	0.00038913	0.00010255	1264.7	1.3155e-06	4.835e-06	1334.6	265.92	1.1489e-06	3.2733e-06	332.33	90.88	71.971	20.954	2.6221e-06	29.884	0.00026713	0.00031641	8.9639e-05	1234	3.7706e-06	3.9129e-06	1308.2	261.94	3.7624e-06	3.6213e-06	327.51	91.731	72.086	20.995	3.6638e-06	29.977	219.494	25.929	28.369	-69.929	101.713	81.484	-69.615	-62.932	46.623	62.450	-63.007	-56.285	-56.089	-49.311	62.560	-49.761	-8191	255	
34544.898	1	1	0	0	0.16466	0.17783	0.13685	0.15265	0.22189	0.27544	0.13826	0.14324	0.36624	0.088744	0.098257	0.41123	0.012891	0.20292	0.072234	0.044209	-1.6833	-2.3833	-2.3771	-2.2167	-2.6854	-2.2729	-2.5375	-2.6979	-2.0896	-2.5083	-2.3771	-2.2417	-2.7646	-2.1208	-2.2729	-2.6729	88.044	271.235	126.284	157.452	236.419	275.656	193.253	195.821	191.326	-61.359	213.730	267.658	64.258	264.635	157.557	32.771	4.5238e-05	0.00027101	6.213e-05	1268.5	1.2651e-06	4.0287e-06	1335.7	265.4	6.4218e-07	3.7349e-06	331.27	91.257	71.689	20.672	2.2269e-06	29.89	0.00026885	0.00032956	9.2317e-05	1236.2	3.8962e-06	3.6164e-06	1308.7	261.53	3.7996e-06	3.7322e-06	327.32	91.737	72.029	20.858	3.6792e-06	29.96	201.861	11.935	-11.003	-69.981	87.821	68.128	-69.517	-62.824	82.683	75.127	-63.221	-56.446	-56.007	-49.351	76.912	-49.582	-8191	255	
34544.992	1	1	0	0	0.0395	0.24007	0.011986	0.30793	0.1712	0.036655	0.25718	0.25329	0.27614	0.23252	0.064154	0.11752	0.23603	0.089644	0.1519	0.34814	-1.625	-2.3625	-2.4188	-2.4062	-2.575	-2.3833	-2.4417	-2.6333	-2.1396	-2.4062	-2.5875	-2.1958	-2.4292	-2.4	-2.1917	-2.6063	141.829	192.647	66.339	210.956	270.918	248.389	231.068	78.943	-63.067	119.038	202.843	57.146	100.550	-75.568	267.441	224.476	8.9556e-05	0.0003604	0.00012029	1266.1	3.0089e-06	5.0115e-06	1336.9	264.46	1.5455e-06	3.8969e-06	331.52	90.569	72.065	20.824	2.2871e-06	29.917	0.00026815	0.00033523	9.2147e-05	1235.2	3.6355e-06	3.8807e-06	1307.6	261.65	3.7761e-06	3.7328e-06	327	91.303	72.085	20.857	3.7292e-06	29.919	212.300	-6.176	-0.710	-69.741	81.942	62.089	-69.614	-62.775	66.227	76.359	-63.199	-56.420	-56.000	-49.484	95.453	-49.736	-8191	255	
34545.090	1	1	0	0	0.17355	0.24255	0.32358	0.089579	0.11346	0.24445	0.091668	0.14457	0.37705	0.11666	0.47625	0.18416	0.26048	0.12009	0.030156	0.26862	-1.8292	-2.3458	-2.5208	-2.4	-2.5729	-2.4396	-2.2958	-2.65	-2.2417	-2.3021	-2.7083	-2.1271	-2.4396	-2.3417	-2.1583	-2.6833	265.383	226.737	203.071	78.563	214.064	132.932	192.458	-66.053	195.517	-80.626	177.974	276.825	199.673	263.334	98.369	273.626	7.4193e-05	0.00027266	0.00011164	1261.4	2.1746e-06	3.2948e-06	1327.4	265.02	1.0218e-06	3.1251e-06	331.69	91.617	71.535	20.768	3.2337e-06	29.738	0.00025704	0.00032037	9.3881e-05	1235.7	3.6667e-06	3.4722e-06	1305.6	261.51	3.6041e-06	3.3423e-06	326.61	91.618	71.744	20.822	3.4473e-06	29.795	214.864	3.524	6.375	-69.877	96.321	71.958	-69.544	-62.903	66.928	63.681	-62.933	-56.245	-56.061	-49.389	95.115	-49.627	-8191	255	
34545.184	1	1	0	0	0.1008	0.31502	0.11026	0.22829	0.2854	0.12947	0.18328	0.18412	0.14412	0.22584	0.14956	0.19832	0.11413	0.27523	0.068317	0.21272	-1.9375	-2.5979	-2.4604	-2.2042	-2.5625	-2.3563	-2.3208	-2.6083	-2.2354	-2.2583	-2.6417	-2.2	-2.4292	-2.6	-2.2	-2.425	-63.626	-34.270	43.313	215.239	248.327	242.231	101.919	248.484	136.265	170.724	-55.638	271.379	110.104	-11.398	94.499	219.590	6.2516e-05	0.00035901	9.3032e-05	1256.2	2.316e-06	4.5145e-06	1328.9	262.37	2.3109e-06	3.5805e-06	330.93	90.718	71.998	20.612	2.4555e-06	29.704	0.00024652	0.00031416	8.6558e-05	1228.5	3.6672e-06	3.5663e-06	1302.4	260.27	3.5482e-06	3.6429e-06	326.22	91.365	71.846	20.815	3.5553e-06	29.855	216.260	4.619	20.356	-69.973	79.528	79.082	-69.570	-62.784	78.967	69.103	-63.056	-56.447	-56.504	-49.362	69.196	-49.543	-8191	255	
34545.305	1	1	0	0	0.11563	0.16945	0.037446	0.13212	0.10838	0.18382	0.21365	0.20319	0.20062	0.19705	0.15327	0.16299	0.24522	0.099969	0.2363	0.30401	-1.8229	-2.0583	-2.4	-2.3354	-2.45	-2.3333	-2.2167	-2.6583	-2.3792	-2.4417	-2.7167	-2.3042	-2.4333	-2.3875	-2.1042	-2.7208	-50.464	147.395	264.964	-49.337	244.931	-72.292	174.577	222.565	-74.867	-75.345	-50.006	-38.592	193.612	259.186	214.066	-71.338	5.5034e-05	0.00013604	5.8515e-05	1266.7	1.5219e-06	3.7813e-06	1333	264.95	1.0418e-06	5.2925e-06	330.86	91.355	71.041	20.785	1.7336e-06	29.772	0.00025952	0.00032065	8.6496e-05	1234.8	3.682e-06	3.5656e-06	1307.3	261.26	3.8303e-06	3.7762e-06	326.8	91.505	71.787	20.859	3.719e-06	29.976	209.247	23.704	12.124	-69.938	95.553	97.098	-69.913	-62.894	37.794	71.262	-62.994	-56.250	-56.295	-49.578	76.458	-49.712	-8191	255	
34545.402	1	1	0	0	0.28131	0.037158	0.3102	0.32439	0.27258	0.16596	0.29707	0.16869	0.11024	0.20861	0.081549	0.16913	0.31358	0.071563	0.39766	0.11936	-1.8833	-2.2521	-2.5396	-2.5	-2.3042	-2.4625	-2.3396	-2.6208	-2.3875	-2.1312	-2.7729	-2.3563	-2.4562	-2.6229	-2.3063	-2.4479	122.987	132.833	148.840	260.841	232.594	-2.492	276.070	-72.678	44.005	5.623	-74.051	-75.769	226.418	-6.616	82.012	-75.329	8.4154e-05	0.00043164	0.00010825	1268.7	1.3556e-06	3.0214e-06	1338	266.32	1.4517e-06	2.9361e-06	329.77	90.716	71.868	20.937	1.605e-06	29.744	0.00025602	0.00033704	8.8555e-05	1237.5	4.1041e-06	3.6325e-06	1310.5	262.1	3.7772e-06	3.7006e-06	326.91	91.416	72.098	20.843	3.4689e-06	29.839	207.376	24.997	-14.547	-70.043	78.263	89.284	-69.583	-63.019	69.537	45.770	-63.338	-56.494	-56.110	-49.685	78.980	-49.722	-8191	255	
34545.496	1	1	0	0	0.027015	0.17003	0.20212	0.24708	0.027064	0.12847	0.28445	0.27803	0.16413	0.27479	0.079348	0.31002	0.049261	0.27218	0.16596	0.24508	-1.9896	-2.1937	-2.6542	-2.5646	-2.2958	-2.5563	-2.2875	-2.7083	-2.5708	-2.2667	-2.6104	-2.2417	-2.4	-2.6688	-2.2521	-2.55	89.393	217.050	274.618	-66.044	93.939	66.856	210.768	208.655	195.926	138.983	121.870	-80.643	-60.693	260.424	130.235	177.633	7.6817e-05	0.00041006	9.3517e-05	1264.9	1.981e-06	3.5152e-06	1334.5	264.65	2.0567e-06	2.8596e-06	331.63	91.068	72.025	20.786	2.859e-06	29.982	0.00026922	0.00032164	8.8246e-05	1234.8	3.9284e-06	3.5495e-06	1307.3	261.77	3.8692e-06	3.4756e-06	326.55	91.587	72.154	20.86	3.6974e-06	29.968	215.503	29.092	37.824	-69.862	88.208	68.927	-69.549	-62.979	63.052	69.763	-62.663	-56.279	-56.074	-49.705	92.983	-49.654	-8191	255	
34545.570	1	1	0	0	0.052598	0.074359	0.07415	0.17716	0.054781	0.22442	0.44834	0.24949	0.30199	0.033585	0.19094	0.35294	0.1691	0.33965	0.20092	0.11725	-2.1042	-2.1312	-2.4813	-2.4417	-2.1875	-2.5521	-2.2896	-2.3979	-2.5021	-2.1771	-2.6521	-2.2438	-2.2917	-2.7	-2.1625	-2.3708	120.343	-72.149	121.638	251.993	125.869	162.460	186.755	270.564	257.082	70.524	269.699	178.456	58.152	220.733	120.712	-58.913	7.1612e-05	0.000262	0.00012682	1262.6	1.7462e-06	2.2493e-06	1334.7	263.44	4.2141e-07	3.0543e-06	330.23	91.04	71.248	20.655	2.2972e-06	29.894	0.00025312	0.00033853	8.9887e-05	1234.5	3.8693e-06	3.4524e-06	1303.9	260.75	3.6172e-06	3.6429e-06	326.07	91.44	71.91	20.769	3.5377e-06	29.889	206.551	11.694	18.566	-69.849	108.329	45.063	-69.747	-62.959	129.330	81.951	-63.139	-56.463	-56.310	-49.232	56.973	-49.780	-8191	255	
34545.691	1	1	0	0	0.059736	0.30222	0.038587	0.13651	0.11716	0.11234	0.32403	0.12178	0.21651	0.13	0.25254	0.51742	0.24611	0.032627	0.15399	0.10094	-2.0917	-2.2104	-2.5521	-2.4625	-2.2833	-2.4875	-2.4229	-2.3042	-2.5354	-2.2854	-2.5187	-2.4542	-2.3333	-2.7083	-2.2792	-2.5979	9.256	140.823	237.723	232.053	-69.243	261.187	201.260	76.409	16.690	204.997	271.380	233.851	-63.949	224.212	-40.153	135.689	7.1535e-05	0.00036645	0.00010992	1258.1	1.4136e-06	3.6767e-06	1329.2	263.97	1.7708e-06	2.6328e-06	330.85	90.895	71.777	20.631	2.0802e-06	29.58	0.00025363	0.00031696	9.1497e-05	1229.3	3.8155e-06	3.297e-06	1302.5	260.56	3.6988e-06	3.6584e-06	325.93	91.359	71.956	20.79	3.6553e-06	29.813	219.274	-1.237	27.045	-69.929	123.084	61.497	-69.554	-63.050	69.065	84.157	-63.019	-56.098	-56.461	-49.534	19.414	-49.612	-8191	255	
34545.785	1	1	0	0	0.13811	0.014845	0.081855	0.087343	0.1761	0.051087	0.2669	0.11706	0.085253	0.17458	0.17061	0.42359	0.10939	0.17446	0.034189	0.2265	-1.9917	-1.9354	-2.2708	-2.5125	-1.8917	-2.5646	-2.2583	-2.3479	-2.6437	-2.3875	-2.5208	-2.4042	-2.1146	-2.6479	-2.5312	-2.4146	-7.340	67.741	225.308	129.856	11.567	226.280	209.368	65.590	21.064	14.790	236.894	237.033	127.097	90.994	-29.215	218.947	8.1775e-05	0.00025857	8.5099e-05	1259.4	2.2967e-06	3.2949e-06	1328.3	264.44	1.5919e-06	2.881e-06	330.66	90.772	71.865	20.831	2.7805e-06	29.796	0.00025834	0.00033875	9.2317e-05	1232.3	3.835e-06	3.7495e-06	1305.2	261.31	3.6561e-06	3.6268e-06	326.87	91.362	72.073	20.815	3.7241e-06	29.88	216.691	7.106	16.748	-69.852	126.748	72.824	-69.618	-62.685	74.882	76.541	-63.101	-56.136	-56.131	-49.304	56.607	-49.711	-8191	255	
34545.883	1	1	0	0	0.3863	0.27994	0.12222	0.21912	0.22809	0.10916	0.231	0.33321	0.099762	0.16623	0.13227	0.090133	0.17046	0.18825	0.17074	0.051745	-2.0479	-2.1833	-2.2438	-2.7896	-2.0229	-2.4083	-2.2958	-2.1771	-2.5896	-2.1667	-2.3708	-2.3417	-2.0021	-2.5125	-2.3542	-2.1271	244.307	171.821	66.933	266.519	164.401	263.324	182.028	229.993	96.759	-80.698	-14.072	97.909	258.560	255.975	54.808	239.268	6.8904e-05	0.00032689	7.6439e-05	1261.5	1.6213e-06	2.587e-06	1336	263.79	1.5651e-06	3.84e-06	330.51	90.487	71.771	20.651	1.0828e-06	29.744	0.00025007	0.00034898	9.4253e-05	1231.2	3.9363e-06	3.6065e-06	1305.9	260.7	3.5762e-06	3.8642e-06	326.54	91.31	71.974	20.82	3.6002e-06	29.818	213.809	5.764	-17.198	-69.951	88.128	53.942	-69.752	-62.855	66.046	71.397	-62.651	-56.318	-56.049	-49.361	83.422	-49.523	-8191	255	
34546.000	1	1	0	0	0.13399	0.23233	0.17724	0.23463	0.038392	0.11208	0.29271	0.21928	0.41197	0.11182	0.1455	0.085641	0.34467	0.15049	0.25203	0.1992	-2.1958	-2.3292	-2.1688	-2.6042	-2.0187	-2.4917	-2.4625	-2.0271	-2.6271	-2.2667	-2.2313	-2.4979	-2.2229	-2.2979	-2.4521	-2.175	-66.662	85.309	-78.161	185.686	175.588	-45.975	238.915	169.161	-24.415	139.149	246.929	22.168	198.956	106.281	229.992	187.150	7.9967e-05	0.00049019	8.1592e-05	1261.2	2.3391e-06	2.5362e-06	1331.9	264.34	1.2345e-06	3.1898e-06	329.11	90.711	72.008	20.696	2.3387e-06	29.963	0.00024993	0.00034436	9.3711e-05	1232.7	4.0809e-06	3.7142e-06	1304.4	261.42	3.5904e-06	3.6584e-06	325.94	91.311	71.908	20.794	3.8087e-06	29.873	228.883	-3.848	4.396	-69.872	113.971	65.789	-69.789	-62.799	85.564	94.472	-62.970	-56.120	-56.081	-49.600	74.708	-49.755	-8191	255	
34546.098	1	1	0	0	0.32776	0.27288	0.31971	0.40788	0.32639	0.15478	0.22535	0.055767	0.15874	0.21269	0.25474	0.032207	0.26165	0.24874	0.25194	0.22088	-2.0542	-2.2188	-2.3875	-2.7167	-2.1583	-2.3333	-2.6333	-2.1979	-2.4708	-2.25	-2.2417	-2.5667	-2.1896	-2.2854	-2.5333	-2.1437	163.963	109.909	-80.151	232.477	40.200	-17.234	211.717	10.342	126.874	-62.932	-35.262	229.970	17.222	-27.113	-38.584	221.857	7.0525e-05	0.00029315	0.00012679	1261.1	3.1849e-06	2.8074e-06	1325.9	262.56	1.8471e-06	4.0703e-06	331.14	90.462	72.048	20.798	2.2066e-06	29.774	0.00026302	0.00036455	9.433e-05	1233.2	3.968e-06	3.622e-06	1302.8	260.74	3.5685e-06	3.6324e-06	326.32	91.158	71.934	20.751	3.4888e-06	29.881	211.760	14.110	10.176	-69.723	71.417	73.750	-69.778	-62.673	53.380	61.093	-62.736	-56.410	-55.800	-49.334	91.213	-49.381	-8191	255	
34546.195	1	1	0	0	0.13102	0.12622	0.26752	0.21449	0.199	0.15962	0.035711	0.095769	0.053609	0.26971	0.27301	0.24781	0.14831	0.092801	0.047082	0.054573	-2.0312	-2.1792	-2.1333	-3.0042	-2.1458	-2.4208	-2.7521	-2.0875	-2.5521	-2.4854	-2.3917	-2.6979	-2.3083	-2.3875	-2.5729	-2.0438	133.783	126.033	73.463	-60.163	147.437	183.642	179.695	188.226	43.721	123.917	5.285	-79.421	62.064	81.319	11.100	227.775	8.7284e-05	0.00039389	7.4632e-05	1257.6	8.065e-07	2.7875e-06	1322.5	263.14	1.1474e-06	2.8114e-06	330.45	90.866	71.868	20.761	2.4673e-06	29.604	0.00026053	0.00035481	8.6744e-05	1229	3.8767e-06	3.4734e-06	1299.5	260.54	3.5619e-06	3.501e-06	325.78	91.117	71.786	20.794	3.2615e-06	29.769	208.695	-22.211	24.955	-69.788	100.908	77.736	-69.660	-62.856	83.942	78.827	-63.031	-56.202	-55.951	-49.451	93.945	-49.454	-8191	255	
34546.266	1	1	0	0	0.13524	0.23974	0.10726	0.13939	0.2329	0.16723	0.22178	0.19657	0.065085	0.13432	0.10519	0.14788	0.16184	0.052951	0.11573	0.015792	-2.1583	-2.3104	-2.1104	-2.7833	-2.2229	-2.2604	-2.8063	-2.0229	-2.5021	-2.5229	-2.1625	-2.8146	-2.2229	-2.3208	-2.5208	-2.1771	80.599	221.661	124.197	63.842	137.002	60.873	202.176	195.396	270.920	-28.776	37.471	-45.977	-22.982	178.502	23.855	127.981	7.5319e-05	0.00033964	3.9556e-05	1255.2	1.236e-06	2.3876e-06	1325	262.89	1.8175e-06	3.7692e-06	329.66	90.39	71.591	20.743	1.5115e-06	29.772	0.00025501	0.00031135	8.5908e-05	1226.9	3.7416e-06	3.2772e-06	1299.4	260.16	3.6265e-06	3.5326e-06	324.89	90.969	71.764	20.742	3.3797e-06	29.807	216.465	8.943	33.918	-69.810	100.116	59.571	-69.568	-62.657	73.289	66.173	-63.139	-56.350	-56.013	-49.304	84.092	-49.561	-8191	255	
34546.387	1	1	0	0	0.20092	0.14027	0.17978	0.20466	0.17384	0.12184	0.13057	0.42772	0.16231	0.063205	0.16933	0.27809	0.1273	0.19442	0.24346	0.093988	-2.0625	-2.4958	-2.0708	-2.7667	-2.375	-2.3021	-2.8146	-2.2125	-2.3438	-2.65	-2.1188	-2.5938	-2.4188	-2.2188	-2.6188	-2.3542	264.909	-42.968	57.618	257.709	228.150	200.972	177.546	179.350	-35.021	108.768	34.969	264.607	-33.076	143.040	134.664	187.545	7.291e-05	0.00033148	7.3401e-05	1255	1.4677e-06	2.9626e-06	1327	263.6	1.2495e-06	3.115e-06	328.39	90.937	71.5	20.674	2.7951e-06	29.666	0.00024889	0.00030096	9.2023e-05	1226.2	3.6503e-06	3.4053e-06	1300.1	260.08	3.3516e-06	3.276e-06	324.5	91.043	71.689	20.737	3.3211e-06	29.759	216.461	-20.134	33.558	-69.853	117.083	88.426	-69.668	-62.783	47.976	82.216	-63.013	-56.704	-55.764	-49.016	90.311	-49.699	-8191	255	
34546.480	1	1	0	0	0.45509	0.31181	0.14103	0.14593	0.14999	0.27646	0.19941	0.1052	0.090432	0.23341	0.07966	0.075067	0.23725	0.11662	0.17534	0.013372	-1.8813	-2.4979	-2.0479	-2.6854	-2.3958	-2.2188	-2.6646	-2.2313	-2.4896	-2.5583	-2.2854	-2.5083	-2.4	-2.2021	-2.6229	-2.4688	133.715	178.207	-12.217	248.759	-19.123	229.256	188.515	-22.151	10.845	-15.410	-1.898	-49.229	255.313	123.429	171.367	37.523	7.1131e-05	0.00045704	0.00014158	1252.7	2.3873e-06	3.9622e-06	1321.6	263.75	1.4358e-06	2.0713e-06	328.87	90.727	71.502	20.916	2.7465e-06	29.711	0.00025489	0.00032543	9.241e-05	1225.6	3.6493e-06	3.4474e-06	1299.1	260.25	3.4666e-06	3.3237e-06	324.32	91.027	71.655	20.807	3.4098e-06	29.846	215.928	4.854	14.649	-69.714	85.134	72.857	-69.569	-62.716	70.216	74.683	-62.912	-56.273	-56.107	-49.317	61.918	-50.142	-8191	255	
34546.578	1	1	0	0	0.063289	0.20576	0.26699	0.19618	0.091903	0.26114	0.18077	0.17981	0.17789	0.30424	0.047537	0.24348	0.09351	0.21259	0.048259	0.035133	-1.8875	-2.7083	-2.1167	-2.6063	-2.2792	-2.1417	-2.725	-2.4125	-2.1667	-2.5708	-2.2687	-2.6375	-2.6271	-2.225	-2.4688	-2.4771	91.392	-28.241	57.018	261.811	-74.665	226.979	152.936	231.910	120.498	133.554	214.315	222.010	129.717	78.018	198.508	190.309	7.7053e-05	0.00014463	0.00010187	1257	2.0467e-06	3.4757e-06	1323.2	264.72	1.5694e-06	1.6674e-06	330.36	90.51	71.786	20.601	2.4263e-06	29.668	0.0002534	0.00030283	9.1977e-05	1227.7	3.7041e-06	3.6046e-06	1298.7	260.3	3.4108e-06	3.3993e-06	325.31	91.102	71.804	20.741	3.2774e-06	29.746	209.707	2.565	19.689	-69.724	104.050	64.445	-69.742	-63.097	35.816	99.081	-63.158	-56.372	-56.265	-49.733	92.832	-49.276	-8191	255	
34546.676	1	1	0	0	0.28611	0.2624	0.069455	0.21396	0.10632	0.16585	0.21586	0.19181	0.16484	0.22778	0.093871	0.015191	0.045175	0.10084	0.16535	0.079457	-2.0104	-2.6562	-2.2021	-2.5333	-2.6646	-2	-2.675	-2.3812	-2.2667	-2.6833	-2.325	-2.4396	-2.6688	-2.3063	-2.5	-2.3146	-47.896	77.165	195.661	195.230	29.921	172.178	229.926	203.453	77.268	162.415	207.494	-19.649	247.751	239.027	244.824	5.507	8.047e-05	0.00025169	0.00012966	1258	1.2511e-06	3.4982e-06	1325.1	263.84	1.1961e-06	3.2724e-06	329.7	90.489	71.438	20.705	1.9142e-06	29.405	0.00025506	0.00030321	9.4547e-05	1229.8	3.3437e-06	3.4431e-06	1299	260.06	3.6906e-06	3.2624e-06	324.53	91.084	71.516	20.733	3.2547e-06	29.654	211.887	2.438	13.361	-69.884	79.210	75.372	-69.526	-62.850	101.245	68.217	-62.916	-56.388	-55.975	-49.434	50.900	-49.909	-8191	255	
34546.793	1	1	0	0	0.088271	0.12795	0.12802	0.13713	0.1208	0.073911	0.14997	0.1954	0.073139	0.079574	0.0026097	0.37564	0.21568	0.13353	0.034153	0.37601	-1.9625	-2.45	-2.3083	-2.6479	-2.5167	-2.2271	-2.825	-2.3812	-2.2979	-2.5854	-2.4479	-2.2354	-2.5833	-2.35	-2.3063	-2.5438	278.245	159.961	-66.516	239.832	-16.917	126.962	-80.265	167.614	228.703	228.311	113.280	144.562	158.307	-34.061	156.441	202.302	7.2157e-05	0.0003195	0.00010532	1254.1	2.3965e-06	4.4306e-06	1324.2	263.75	1.0239e-06	4.1716e-06	328.82	90.166	71.524	20.676	2.2322e-06	29.36	0.00024596	0.00029386	9.0305e-05	1224.9	3.4123e-06	3.3267e-06	1296.6	259.89	3.2142e-06	3.1359e-06	324.24	90.743	71.455	20.601	3.1325e-06	29.564	215.192	9.252	39.480	-69.921	77.960	85.164	-69.653	-62.811	100.383	88.425	-62.724	-56.242	-55.887	-49.740	41.818	-49.776	-8191	255	
34546.867	1	1	0	0	0.10171	0.21171	0.056074	0.1936	0.19167	0.18906	0.53171	0.089243	0.20672	0.11503	0.10736	0.21823	0.020035	0.20886	0.13398	0.10755	-1.95	-2.5292	-2.3187	-2.3312	-2.5833	-2.1042	-2.6312	-2.8417	-2.0438	-2.6958	-2.5146	-2.325	-2.6333	-2.3958	-2.2792	-2.6312	12.018	225.907	-25.437	274.534	224.789	186.184	222.406	206.884	273.736	115.879	236.856	247.995	48.611	-36.636	133.575	-32.208	7.654e-05	0.00025418	7.9663e-05	1250	1.9046e-06	4.3573e-06	1314.6	261.42	2.8265e-06	3.98e-06	326.88	90.56	70.947	20.565	2.5172e-06	29.457	0.00022785	0.00027505	7.9514e-05	1221.1	3.2857e-06	3.2586e-06	1290.2	258.51	3.2651e-06	2.9908e-06	322.13	90.605	71.035	20.609	3.091e-06	29.484	212.097	6.108	-7.618	-69.677	89.469	73.288	-69.573	-62.825	51.232	62.545	-62.810	-56.272	-55.968	-49.313	108.276	-49.427	-8191	255	
34546.984	1	1	0	0	0.032725	0.21366	0.081997	0.15047	0.2633	0.08245	0.54017	0.060809	0.18455	0.057707	0.077977	0.25791	0.01453	0.19241	0.2129	0.084684	-1.7563	-2.4583	-2.3958	-2.2812	-2.725	-2.1708	-2.6729	-2.7521	-2.25	-2.3646	-2.5563	-2.0896	-2.85	-2.35	-2.4437	-2.6479	251.961	-19.329	185.801	220.190	-24.909	37.344	234.873	159.327	151.110	-10.926	-7.759	194.407	212.126	-10.401	-57.048	1.392	7.1499e-05	0.00025584	0.00012445	1244.8	8.9234e-07	4.3702e-06	1312.1	260.16	1.7882e-06	3.1004e-06	326.9	89.626	70.705	20.487	2.3358e-06	29.233	0.00023541	0.00026602	7.6139e-05	1216.8	3.1686e-06	3.1453e-06	1286	257.39	3.3067e-06	2.8991e-06	321.87	90.021	70.822	20.486	3.0063e-06	29.399	216.427	1.243	31.254	-69.851	92.128	69.611	-69.669	-62.837	70.049	100.787	-63.112	-56.138	-55.927	-49.340	69.308	-49.436	-8191	255	
34547.082	1	1	0	0	0.0249	0.22445	0.16275	0.32605	0.052195	0.24586	0.31544	0.069273	0.17978	0.18614	0.093187	0.22507	0.16151	0.36848	0.082203	0.16579	-1.7042	-2.4771	-2.3729	-2.3937	-2.5333	-2.2521	-2.3708	-2.7271	-2.2521	-2.475	-2.4875	-2.2792	-2.5479	-2.3604	-2.2417	-2.8563	184.108	209.155	65.778	227.679	-78.874	15.513	227.836	39.371	97.679	-26.265	271.979	249.713	1.578	249.571	71.885	-77.178	6.7517e-05	0.00037807	9.6833e-05	1243.9	8.223e-07	2.9391e-06	1310.6	259.58	1.7923e-06	2.9966e-06	325.52	89.378	70.793	20.472	1.8405e-06	29.378	0.00024051	0.00026327	6.9575e-05	1211	3.2567e-06	2.9627e-06	1282.2	256.92	3.0466e-06	2.7733e-06	320.57	89.988	70.799	20.475	2.862e-06	29.352	198.557	7.976	6.993	-69.679	55.703	71.970	-69.613	-62.511	86.989	87.994	-62.926	-56.192	-55.829	-49.201	67.128	-49.541	-8191	255	
34547.180	1	1	0	0	0.08145	0.2778	0.12953	0.13737	0.11772	0.18977	0.17681	0.11974	0.29353	0.048107	0.25263	0.32619	0.10658	0.21002	0.25521	0.18596	-1.9292	-2.425	-2.3979	-2.35	-2.5083	-2.2979	-2.2646	-2.5687	-2.1458	-2.4833	-2.6813	-2.2271	-2.5708	-2.3958	-2.2188	-2.6708	183.439	87.129	170.960	219.154	153.815	76.281	205.164	48.757	69.541	59.721	185.494	120.641	178.552	211.889	7.121	201.729	7.0493e-05	0.00023241	7.9532e-05	1236.4	2.0571e-06	3.1716e-06	1308	258.94	1.6265e-06	3.8704e-06	325.52	89.252	70.658	20.494	3.3892e-06	29.456	0.00022681	0.00026668	7.0751e-05	1208.3	3.1153e-06	2.9751e-06	1283.1	256.35	3.2016e-06	3.0194e-06	321.17	89.891	70.739	20.506	2.8966e-06	29.427	218.786	-5.308	9.983	-69.833	105.990	66.566	-69.631	-62.901	91.235	50.356	-62.694	-56.153	-55.873	-49.293	66.563	-49.611	-8191	255	
34547.273	1	1	0	0	0.087691	0.18124	0.14954	0.37943	0.1645	0.18082	0.13285	0.049372	0.12425	0.07772	0.183	0.305	0.1458	0.1434	0.074145	0.070435	-1.7917	-2.1958	-2.375	-2.2479	-2.3854	-2.325	-2.35	-2.5667	-2.1083	-2.3	-2.4833	-1.9375	-2.5312	-2.4396	-2.1396	-2.575	264.242	135.925	260.371	269.085	136.660	-66.675	180.755	10.642	102.225	130.221	163.129	202.361	-14.128	22.354	-65.103	209.414	7.6054e-05	0.00033657	0.00011285	1237.2	2.116e-06	3.3476e-06	1306.4	259.83	1.7446e-06	2.2333e-06	323.82	89.023	70.453	20.342	2.921e-06	29.208	0.00023126	0.00026366	7.4405e-05	1207.8	3.1084e-06	2.7343e-06	1279.8	256.64	3.1172e-06	2.8991e-06	319.86	89.762	70.638	20.408	2.9495e-06	29.316	211.952	30.726	4.407	-69.937	71.193	81.873	-69.594	-62.972	82.964	56.748	-62.934	-56.413	-56.075	-49.195	64.717	-49.405	-8191	255	
34547.395	1	1	0	0	0.11572	0.1099	0.081548	0.26546	0.26396	0.17766	0.3454	0.083292	0.30635	0.11497	0.1936	0.20064	0.034626	0.092667	0.17263	0.13176	-1.6354	-2.1542	-2.4354	-2.0729	-2.3292	-2.4479	-2.3896	-2.6396	-2.1542	-2.2375	-2.6083	-2.0854	-2.3771	-2.4167	-2.1396	-2.5958	93.693	-74.054	5.353	237.766	49.345	183.044	207.804	142.088	102.774	-28.544	-62.730	23.469	204.888	-8.786	-18.685	70.126	7.4051e-05	0.00034655	0.00012537	1237.2	1.5866e-06	2.9696e-06	1304.7	259.71	2.0028e-06	2.5247e-06	323.75	89.705	70.767	20.556	2.2844e-06	29.389	0.00022751	0.00024248	7.1773e-05	1202.7	3.0799e-06	2.8494e-06	1277.1	256.19	3.1178e-06	2.7497e-06	319.87	89.943	70.646	20.478	2.9103e-06	29.381	213.959	16.977	18.098	-69.758	93.444	49.817	-69.416	-62.665	97.978	71.127	-62.805	-56.298	-56.153	-49.269	116.903	-49.668	-8191	255	
34547.492	1	1	0	0	0.23394	0.1137	0.091273	0.074891	0.067891	0.21141	0.31472	0.21874	0.22058	0.15171	0.075261	0.17469	0.069064	0.22016	0.10779	0.13785	-1.8625	-2.2375	-2.5521	-2.3708	-2.5396	-2.3937	-2.1896	-2.4146	-2.3812	-2.1104	-2.4771	-2.2229	-2.1167	-2.4688	-2.0875	-2.5292	208.472	-30.652	245.137	160.444	218.787	-67.449	237.580	-41.640	150.159	99.278	45.186	-72.328	78.098	199.291	-40.216	172.442	7.8702e-05	0.00027062	7.5826e-05	1230.8	1.3927e-06	3.2649e-06	1299.4	258.54	7.8571e-07	4.345e-06	325.52	89.34	70.18	20.553	3.2092e-06	29.116	0.00022091	0.00025304	6.8305e-05	1203.8	3.2023e-06	2.7627e-06	1276.9	255.61	2.9201e-06	2.9413e-06	320.21	89.881	70.606	20.492	2.8807e-06	29.261	215.870	-14.645	-13.561	-69.783	103.642	114.785	-69.398	-62.623	43.520	71.534	-62.863	-56.332	-56.318	-49.434	61.275	-49.442	-8191	255	
34547.562	1	1	0	0	0.08482	0.13143	0.016927	0.16789	0.11599	0.25128	0.26022	0.272	0.12215	0.32919	0.10511	0.050159	0.073026	0.30682	0.18506	0.11105	-1.8792	-2.1167	-2.5354	-2.3542	-2.3333	-2.5917	-2.2667	-2.4854	-2.3083	-2.0125	-2.5438	-2.1229	-2.2188	-2.5396	-1.9104	-2.3375	191.818	-46.037	50.358	236.133	-38.244	136.170	224.245	148.534	218.640	15.376	259.881	-48.757	57.966	-39.584	108.518	242.938	6.6319e-05	0.00036443	7.2288e-05	1230.4	2.125e-06	3.7693e-06	1299	259.16	8.4946e-07	3.8981e-06	323.8	89.394	70.657	20.497	2.3253e-06	29.092	0.0002263	0.00025596	7.4033e-05	1204.4	3.0778e-06	2.6854e-06	1276.2	255.56	2.8741e-06	2.6518e-06	320.17	89.841	70.712	20.535	2.9313e-06	29.258	207.081	21.559	36.025	-69.877	67.792	63.371	-69.315	-62.727	57.934	70.210	-62.976	-56.065	-56.218	-49.509	91.576	-49.842	-8191	255	
34547.660	1	1	0	0	0.16706	0.26306	0.042544	0.34351	0.14201	0.13139	0.29567	0.32593	0.20822	0.039538	0.2217	0.15736	0.16193	0.29241	0.17561	0.056631	-1.9354	-1.9979	-2.4083	-2.5563	-2.2854	-2.5312	-2.3479	-2.4229	-2.1542	-2.0271	-2.6229	-2.2979	-2.3063	-2.5896	-2.1937	-2.2396	35.720	244.414	110.579	270.428	117.229	121.929	158.279	208.078	-48.392	270.159	-48.289	236.576	230.447	-73.127	121.466	90.696	7.3919e-05	0.00024757	3.9964e-05	1232.9	1.8246e-06	4.6278e-06	1303	259.11	1.1993e-06	3.006e-06	324.74	90.126	70.469	20.367	1.8345e-06	28.973	0.00022306	0.00024413	7.2671e-05	1203.3	3.0688e-06	2.6959e-06	1276.4	255.52	2.8571e-06	3.046e-06	319.7	90.096	70.727	20.464	2.9705e-06	29.197	204.306	11.439	28.212	-69.856	120.737	62.421	-69.755	-62.585	72.986	81.306	-62.590	-56.030	-55.853	-49.185	107.058	-49.818	-8191	255	
34547.777	1	1	0	0	0.21632	0.14256	0.18806	0.27826	0.28219	0.088031	0.18581	0.18014	0.13083	0.1722	0.081651	0.013935	0.26255	0.21794	0.2406	0.13656	-2.0687	-2.1104	-2.2438	-2.6396	-2.1042	-2.6021	-2.2562	-2.5146	-2.3083	-2.2188	-2.425	-2.3271	-2.0979	-2.4521	-2.225	-2.3646	138.066	186.496	275.832	-63.248	27.240	-4.567	182.010	275.840	-63.556	270.636	200.132	-1.351	2.104	30.077	204.116	-74.671	7.1417e-05	0.00033483	9.771e-05	1233.3	1.316e-06	3.2911e-06	1302.9	259.62	1.5294e-06	4.3653e-06	324.96	89.235	70.446	20.478	2.0478e-06	29.253	0.00021271	0.00026432	6.7918e-05	1203	3.0414e-06	2.6643e-06	1275.5	255.87	2.8954e-06	2.8346e-06	319.88	89.899	70.421	20.543	2.6983e-06	29.255	214.880	6.774	12.523	-69.772	92.804	55.241	-69.581	-62.915	74.888	53.613	-63.102	-56.053	-56.029	-49.205	95.901	-49.392	-8191	255	
34547.875	1	1	0	0	0.34945	0.15739	0.068346	0.15232	0.10395	0.20263	0.20968	0.10814	0.16489	0.1722	0.11912	0.37123	0.031259	0.19067	0.31374	0.41885	-2.0187	-2.0375	-2.2292	-2.5625	-2.1771	-2.4875	-2.2562	-2.2458	-2.6813	-2.3542	-2.5271	-2.425	-1.9062	-2.6	-2.2396	-2.3375	220.881	40.007	-24.023	233.983	132.668	29.637	211.302	189.194	178.909	218.102	190.706	224.615	214.955	130.735	-28.274	244.286	8.2596e-05	0.00023627	7.3309e-05	1230.9	8.9824e-07	4.0821e-06	1298.5	258.23	1.4926e-06	1.5564e-06	324.29	89.528	70.421	20.447	2.0722e-06	29.239	0.00021121	0.00024886	6.9234e-05	1202.9	3.1306e-06	2.8525e-06	1277	255.48	3.0154e-06	2.6605e-06	319.76	89.903	70.6	20.524	2.808e-06	29.247	209.962	-14.454	20.875	-69.774	116.304	71.850	-69.450	-62.649	84.499	100.636	-62.993	-55.882	-56.043	-49.447	65.870	-49.599	-8191	255	
34547.969	1	1	0	0	0.22613	0.26526	0.028167	0.2245	0.062468	0.14095	0.049986	0.22195	0.17017	0.27444	0.45236	0.039843	0.24303	0.077743	0.20499	0.066098	-2.1104	-2.0875	-2.225	-2.6396	-1.8625	-2.5708	-2.45	-2.2646	-2.5833	-2.1146	-2.4896	-2.5729	-1.9458	-2.3729	-2.1583	-2.1188	127.679	269.636	-80.129	234.774	143.287	200.706	186.034	238.635	38.654	206.038	244.365	84.086	144.911	-71.599	53.856	131.308	6.3021e-05	0.00038482	0.00013642	1238.8	9.0867e-07	3.4163e-06	1300.9	257.85	1.7724e-06	2.1187e-06	323.75	89.495	70.271	20.474	2.1931e-06	29.093	0.00021073	0.00026828	6.9373e-05	1204.1	3.2013e-06	2.7343e-06	1275.4	255.01	2.9026e-06	2.7937e-06	319.91	89.779	70.51	20.535	2.7182e-06	29.265	217.349	16.594	35.496	-69.889	115.561	65.176	-69.576	-62.811	55.685	53.337	-62.999	-56.326	-55.888	-49.366	68.313	-49.335	-8191	255	
34548.066	1	1	0	0	0.15614	0.27767	0.3016	0.16875	0.25544	0.069049	0.38485	0.34215	0.056241	0.22113	0.20068	0.076484	0.17621	0.16631	0.16494	0.16631	-2.075	-2.125	-2.425	-2.7104	-2.1333	-2.5042	-2.4667	-2.1458	-2.5812	-2.2646	-2.375	-2.5625	-2.1917	-2.4813	-2.5229	-2.375	-70.294	94.286	-43.395	266.682	53.131	274.321	220.385	-75.585	59.021	90.251	-29.971	-24.743	112.022	29.452	29.663	228.550	6.1202e-05	0.00026278	0.00010778	1224.5	1.1578e-06	2.7463e-06	1297.9	258.5	2.0313e-06	5.3687e-06	324.05	88.966	70.496	20.547	2.9213e-06	29.119	0.00021017	0.00025365	6.7098e-05	1198.9	3.1422e-06	2.7027e-06	1273	255.5	2.8785e-06	2.826e-06	319.62	89.945	70.509	20.566	2.7563e-06	29.207	210.748	-1.212	25.622	-69.749	128.954	83.097	-69.732	-62.719	88.583	58.151	-62.729	-56.306	-55.683	-49.668	82.812	-49.509	-8191	255	
34548.160	1	1	0	0	0.077775	0.16387	0.14625	0.36916	0.26706	0.13913	0.09404	0.27417	0.048174	0.022217	0.15894	0.15845	0.27676	0.097765	0.13043	0.44999	-1.9917	-2.2375	-2.225	-2.6562	-2.0958	-2.3479	-2.6229	-2.2229	-2.4042	-2.2979	-2.5083	-2.725	-2.1437	-2.3833	-2.5042	-2.1917	106.650	-60.823	-12.080	276.604	254.082	4.035	196.383	240.581	10.784	-32.812	247.079	273.459	144.803	115.835	-65.815	243.076	6.4354e-05	0.0003758	7.5825e-05	1226.6	8.6884e-07	3.8597e-06	1301.9	257.89	8.679e-07	2.7964e-06	323.84	89.753	70.739	20.475	2.6804e-06	29.186	0.00020856	0.00024391	6.9466e-05	1198.2	3.0826e-06	2.6513e-06	1273.3	255.06	2.821e-06	2.6022e-06	319.28	90.032	70.767	20.51	2.6659e-06	29.194	206.361	-2.353	28.948	-69.858	77.802	72.677	-69.620	-62.536	99.486	65.533	-62.753	-56.182	-55.896	-49.447	92.009	-49.466	-8191	255	
34548.258	1	1	0	0	0.17892	0.12826	0.02665	0.13944	0.19818	0.21254	0.24228	0.10208	0.10156	0.24428	0.23289	0.045021	0.22358	0.17762	0.28351	0.17999	-2.2146	-2.2979	-2.2062	-2.5146	-2.1979	-2.3792	-2.4979	-2.0521	-2.2896	-2.3625	-2.3042	-2.4958	-2.2042	-2.2667	-2.4792	-2.1167	148.080	61.121	18.999	233.649	109.100	207.351	195.124	225.127	187.734	-12.439	276.819	203.732	-74.644	-38.506	-73.679	8.496	7.2826e-05	0.00028703	0.00011033	1228.2	1.9962e-06	2.5155e-06	1296.7	259.51	5.3488e-07	3.0137e-06	326.18	89.415	70.332	20.395	1.7671e-06	29.222	0.00021668	0.0002553	6.9776e-05	1199.8	3.1084e-06	2.712e-06	1271.6	255.51	2.9256e-06	2.6518e-06	320.01	89.917	70.356	20.485	2.7085e-06	29.258	212.197	16.054	12.937	-69.769	122.425	75.876	-69.612	-62.804	100.154	75.688	-62.879	-56.106	-56.122	-49.169	98.449	-49.730	-8191	255	
34548.355	1	1	0	0	0.29256	0.28778	0.1609	0.25143	0.21764	0.13135	0.23971	0.20752	0.099679	0.25933	0.053834	0.083714	0.050071	0.19686	0.068188	0.12841	-2.2396	-2.3479	-2.2062	-2.7021	-2.1646	-2.2375	-2.5104	-2.3375	-2.4646	-2.45	-2.1854	-2.6833	-2.1792	-2.2708	-2.5062	-2.0563	273.789	49.389	73.812	-71.230	170.867	2.764	-58.896	260.293	204.252	278.867	55.551	170.957	-51.577	276.943	118.087	203.906	5.962e-05	0.00023198	8.7623e-05	1229.4	2.2448e-06	1.9594e-06	1297.4	257.81	2.0222e-06	2.9897e-06	324.32	89.55	70.783	20.309	2.7515e-06	29.308	0.00021141	0.00026459	7.0798e-05	1199.4	3.2087e-06	2.8649e-06	1271.6	255	2.959e-06	2.7975e-06	319.53	89.991	70.556	20.528	2.7699e-06	29.272	216.505	3.326	25.179	-69.800	104.020	41.460	-69.407	-62.856	107.167	82.850	-62.927	-56.154	-56.295	-49.514	75.058	-49.724	-8191	255	
34548.477	1	1	0	0	0.21107	0.20386	0.27279	0.072363	0.17624	0.22482	0.23306	0.26418	0.48691	0.091574	0.19712	0.063806	0.068812	0.29633	0.10526	0.25989	-1.9417	-2.3375	-2.1542	-2.4479	-2.3438	-2.2833	-2.5896	-2.1208	-2.4104	-2.4062	-1.9042	-2.5146	-2.1333	-2.25	-2.5896	-2.2208	1.784	36.499	53.751	256.620	-45.790	205.872	230.553	200.008	109.330	-15.735	250.697	40.502	271.749	205.328	173.876	169.068	7.3768e-05	0.00034564	6.3779e-05	1232.7	2.0692e-06	2.325e-06	1305.4	259.6	9.3812e-07	4.3882e-06	324.69	89.5	70.23	20.499	2.8314e-06	29.03	0.0002153	0.00027197	8.0288e-05	1203.9	3.2836e-06	2.8965e-06	1276.5	255.52	3.0126e-06	3.1384e-06	320.6	89.991	70.505	20.562	2.9552e-06	29.249	207.106	6.653	13.452	-69.668	77.777	82.446	-69.785	-62.598	84.503	47.502	-62.582	-56.228	-56.229	-49.507	73.702	-49.455	-8191	255	
34548.570	1	1	0	0	0.17768	0.053534	0.11846	0.13016	0.13175	0.093264	0.25514	0.15014	0.11651	0.16047	0.076308	0.20612	0.32812	0.20463	0.28924	0.095062	-2.0271	-2.2875	-1.9417	-2.6562	-2.2313	-2.3312	-2.7604	-2.2875	-2.3312	-2.5354	-2.1604	-2.6271	-2.5104	-2.1583	-2.6208	-2.3104	-38.894	-61.137	132.904	272.002	224.385	110.954	250.938	266.854	131.775	5.584	222.883	-79.410	176.579	248.278	114.262	-51.624	7.6856e-05	0.00032281	9.4048e-05	1230.9	1.4287e-06	3.0907e-06	1303.5	259.74	1.0656e-06	3.994e-06	324.55	89.67	70.326	20.528	2.1915e-06	29.284	0.00022661	0.00026388	7.7254e-05	1202.2	3.1501e-06	2.8921e-06	1277.5	255.88	3.0181e-06	2.8663e-06	320.14	90.119	70.364	20.586	2.8273e-06	29.356	219.118	6.793	18.023	-69.771	114.595	77.900	-69.555	-62.483	90.070	63.557	-62.823	-56.389	-56.079	-49.162	59.080	-49.815	-8191	255	
34548.668	1	1	0	0	0.20474	0.11116	0.074886	0.20155	0.26647	0.088765	0.16877	0.10639	0.21779	0.07458	0.24958	0.068214	0.14048	0.23583	0.12313	0.043615	-1.875	-2.5042	-2.0187	-2.6125	-2.4375	-2.1562	-2.6083	-2.3104	-2.4083	-2.5979	-2.2812	-2.2729	-2.425	-2.2771	-2.5333	-2.3333	5.339	107.857	-40.352	232.395	-36.937	-68.040	-47.485	-29.631	118.382	40.534	177.481	-44.923	24.183	-76.518	120.718	62.782	7.6913e-05	0.00027762	0.00010871	1232.3	1.6039e-06	4.111e-06	1298.8	258.42	1.5294e-06	3.7277e-06	324.86	89.396	70.766	20.746	1.9255e-06	29.343	0.00023781	0.00026795	7.7672e-05	1204.1	3.157e-06	3.0141e-06	1276.9	255.75	3.2558e-06	3.1247e-06	320.67	89.902	70.743	20.663	3.1171e-06	29.385	211.892	-8.658	38.361	-69.751	84.283	67.765	-69.526	-62.996	80.765	67.054	-62.931	-56.283	-56.153	-49.309	70.620	-49.420	-8191	255	
34548.766	1	1	0	0	0.035599	0.11915	0.18852	0.3623	0.18448	0.18545	0.24563	0.12452	0.15066	0.19739	0.13372	0.20011	0.060218	0.37975	0.16734	0.15443	-1.7833	-2.4646	-2.0167	-2.5104	-2.4729	-2.1333	-2.975	-2.4313	-2.1479	-2.4708	-2.2542	-2.5979	-2.6458	-2.0792	-2.5062	-2.4417	271.497	8.646	140.335	208.697	-52.562	168.794	270.368	194.151	90.830	6.596	139.958	256.420	171.416	276.887	145.061	-62.002	7.9759e-05	0.00040273	9.5966e-05	1231.5	7.7433e-07	1.4566e-06	1307.1	259.99	6.5314e-07	2.6586e-06	323.71	89.708	70.89	20.655	2.0977e-06	29.315	0.00023707	0.00026261	7.6464e-05	1205.9	3.3648e-06	3.1137e-06	1280.1	256.43	3.2279e-06	3.0355e-06	320.69	90.138	70.892	20.625	2.9296e-06	29.317	209.674	12.201	36.424	-69.858	65.747	62.746	-69.461	-62.681	152.952	98.429	-62.877	-56.328	-55.902	-49.052	102.023	-49.983	-8191	255	
34548.859	1	1	0	0	0.14423	0.14655	0.11439	0.29961	0.11704	0.16949	0.2281	0.23092	0.23812	0.055195	0.46042	0.15908	0.31864	0.22551	0.073104	0.18732	-1.9396	-2.6771	-2.0917	-2.3125	-2.4771	-2.0167	-2.7708	-2.4917	-2.1333	-2.5354	-2.2646	-2.2687	-2.5125	-2.0187	-2.4542	-2.4542	123.906	207.658	-76.461	256.757	224.076	23.347	173.031	124.939	3.786	1.882	259.825	176.255	223.858	-75.388	50.277	114.296	6.6674e-05	0.00033091	9.5462e-05	1232.5	1.7818e-06	3.6867e-06	1306	259.21	1.0719e-06	3.4017e-06	326.07	89.997	70.806	20.599	2.5445e-06	29.462	0.00023109	0.00027862	8.0009e-05	1205	3.3944e-06	3.1397e-06	1280.5	256.18	3.3708e-06	2.9357e-06	321.49	90.24	70.831	20.624	2.9444e-06	29.389	209.720	11.031	17.099	-69.830	83.829	64.385	-69.584	-62.760	99.374	62.302	-62.824	-56.349	-56.115	-49.384	64.127	-49.637	-8191	255	
34548.953	1	1	0	0	0.080694	0.22372	0.2842	0.18232	0.084114	0.23023	0.27603	0.18094	0.28183	0.26756	0.10952	0.1511	0.21129	0.042879	0.28098	0.17007	-1.6938	-2.4833	-2.1646	-2.4167	-2.5604	-2	-2.3542	-2.3563	-2.3	-2.6333	-2.5333	-2.475	-2.7646	-2.1479	-2.4021	-2.4021	106.467	75.929	271.499	262.840	85.397	120.747	208.886	-1.874	129.585	33.936	171.089	113.708	249.998	38.594	37.887	70.917	6.4675e-05	0.00042003	0.00010052	1236.4	1.776e-06	3.2755e-06	1307.4	260.63	1.1846e-06	2.8514e-06	325.22	90.119	71.166	20.657	2.0844e-06	29.371	0.0002404	0.0002778	7.7083e-05	1207.4	3.5263e-06	3.149e-06	1281.6	256.8	3.3817e-06	3.0113e-06	321.7	90.352	71.033	20.668	3.0802e-06	29.424	211.743	-7.936	26.143	-69.803	96.915	79.178	-69.619	-62.698	85.339	66.672	-62.860	-56.365	-55.988	-49.487	70.218	-49.437	-8191	255	
34549.074	1	1	0	0	0.093127	0.21782	0.045954	0.37846	0.26331	0.28646	0.18957	0.24798	0.13735	0.12848	0.28717	0.11906	0.19265	0.23818	0.016209	0.16649	-1.7917	-2.5083	-2.2375	-2.5042	-2.55	-2.1292	-2.4729	-2.4479	-2.1292	-2.4521	-2.4188	-2.1063	-2.6854	-2.2354	-2.3354	-2.5417	150.313	76.513	-4.626	261.095	-21.254	-76.313	206.010	190.586	112.305	198.641	228.395	253.717	235.601	262.666	106.339	13.341	6.8341e-05	0.00030606	0.00010494	1238.6	1.7439e-06	4.2676e-06	1305.4	259.15	4.7809e-07	2.9022e-06	326.47	89.722	70.922	20.633	3.6517e-06	29.116	0.00023375	0.00026371	7.8415e-05	1208.7	3.2767e-06	3.0382e-06	1282.4	256.61	3.2903e-06	2.9034e-06	321.19	90.339	70.859	20.676	2.9927e-06	29.404	220.284	0.708	22.074	-69.892	100.479	60.451	-69.722	-62.442	101.431	72.844	-62.886	-56.155	-55.896	-49.348	79.164	-49.834	-8191	255	
34549.168	1	1	0	0	0.090596	0.025495	0.12474	0.2517	0.38602	0.1776	0.051543	0.22459	0.30999	0.11917	0.2672	0.13007	0.05908	0.18753	0.058353	0.29214	-1.7167	-2.4688	-2.075	-2.35	-2.45	-2.3271	-2.3417	-2.4958	-2.1396	-2.4021	-2.7	-2.2229	-2.5104	-2.1833	-2.1813	-2.5438	10.813	272.236	185.153	260.302	110.001	-69.346	247.230	220.352	113.905	99.428	7.974	271.917	-21.729	152.087	-78.406	-36.800	6.3581e-05	0.0003191	7.5147e-05	1237.7	1.696e-06	2.6563e-06	1311.2	259.59	1.0017e-06	2.9707e-06	325.65	90.082	71.143	20.577	3.5477e-06	29.243	0.00023242	0.00027092	7.6371e-05	1208.9	3.2482e-06	3.0017e-06	1282.9	256.58	3.3445e-06	2.9828e-06	321.12	90.351	71.104	20.652	2.9938e-06	29.388	214.577	1.521	12.251	-69.832	95.627	54.760	-69.585	-62.919	97.749	79.482	-62.635	-56.009	-56.210	-49.396	79.398	-49.581	-8191	255	
34549.266	1	1	0	0	0.1554	0.14928	0.14466	0.1823	0.26622	0.1496	0.15317	0.16053	0.11862	0.14973	0.44687	0.12356	0.086348	0.13204	0.13455	0.026784	-1.4708	-2.3812	-2.4521	-2.3146	-2.5396	-2.4	-2.3958	-2.6542	-2.2875	-2.4583	-2.5125	-2.1562	-2.4292	-2.1521	-2.1667	-2.5271	42.058	-48.556	223.006	234.661	255.301	78.421	224.049	110.096	26.484	180.570	268.158	206.971	213.902	41.779	-77.825	27.066	6.2345e-05	0.00035509	0.00010133	1230.6	1.7416e-06	4.1074e-06	1302.7	259.96	1.4679e-06	3.214e-06	324.67	89.917	70.859	20.478	2.4431e-06	29.193	0.0002278	0.00026789	7.6603e-05	1206.1	3.206e-06	3.0196e-06	1280.9	256.68	3.1846e-06	3.0299e-06	320.8	90.264	70.919	20.632	3.0773e-06	29.379	195.856	-12.604	27.989	-69.874	107.064	70.661	-69.571	-62.745	74.734	69.261	-62.863	-56.173	-55.868	-49.383	93.434	-49.536	-8191	255	
34549.359	1	1	0	0	0.048256	0.36328	0.069988	0.16395	0.31966	0.098226	0.39104	0.1486	0.080945	0.045839	0.16448	0.37856	0.097674	0.077803	0.27263	0.18677	-1.7229	-2.2667	-2.4354	-2.3479	-2.4437	-2.3021	-2.0729	-2.7292	-2.3646	-2.2667	-2.7062	-2.2292	-2.4708	-2.4792	-2.1917	-2.4646	-6.695	232.630	-70.798	197.756	268.649	237.341	230.774	226.947	137.421	-33.518	197.484	251.600	-17.352	135.890	97.928	17.888	8.38e-05	0.00046509	8.5613e-05	1232.2	1.2711e-06	2.5599e-06	1306.9	259.17	7.0005e-07	4.0594e-06	325.79	89.628	71.24	20.636	1.7321e-06	29.285	0.00023019	0.00027235	7.8214e-05	1205.5	3.2936e-06	3.0432e-06	1279.4	256.74	3.1824e-06	2.9468e-06	321.05	90.124	70.889	20.636	3.0665e-06	29.374	214.821	4.690	2.580	-69.632	104.592	75.280	-69.702	-62.567	114.285	53.138	-62.763	-56.264	-55.821	-49.430	92.647	-49.284	-8191	255	
34549.457	1	1	0	0	0.13266	0.24766	0.23581	0.29835	0.065204	0.20482	0.27593	0.1933	0.17046	0.01659	0.19465	0.084113	0.14546	0.078103	0.14879	0.25617	-1.7833	-2.2313	-2.4938	-2.3396	-2.4625	-2.4479	-2.3917	-2.6396	-2.1813	-2.4125	-2.5896	-2.1271	-2.5312	-2.425	-2.0896	-2.5104	-14.617	137.072	228.729	245.555	20.816	-21.841	131.732	127.228	-15.559	2.595	202.072	23.501	240.629	218.634	-33.091	183.373	6.1822e-05	0.00019202	8.865e-05	1235.9	1.7616e-06	2.3047e-06	1306.5	259.41	1.5445e-06	2.8146e-06	324.81	89.976	71.056	20.638	2.629e-06	29.246	0.000219	0.00028363	7.3708e-05	1206.1	3.1469e-06	2.9113e-06	1279.9	256.64	3.0778e-06	3.0349e-06	321.3	90.378	70.882	20.64	3.0711e-06	29.374	210.489	25.964	21.631	-69.838	62.236	85.693	-69.376	-62.602	72.195	81.035	-63.091	-56.237	-56.049	-49.572	90.045	-49.585	-8191	255	
#DATA ENDS
