BOXY.EXE: ISS Imagent and Oximeter Data Acquisition Program Version 0.80
Ascii Record File

#ACQ INFORMATION
2  Detector Channels 
16  External MUX Channels 
1  Auxiliary Channels 
5000  Waveform (CCF) Frequency (Hz)
1  Waveforms Skipped 
30  Waveforms Averaged 
1  Cycles Averaged 
16  Acquisitions per Waveform 
10.0806  Updata Rate (Hz) 

#FILE INFORMATION
TRUE -- External MUX Channel results are PARSED.
FALSE -- AC DC and Phase are NOT grouped.
TRUE -- Companion Program Settings File CREATED.
FALSE -- AC data not excluded
FALSE -- DC data not excluded
FALSE -- Phase data not excluded
FALSE -- Auxillary Chn. data not excluded
Tab delimiters

#CALIBRATION STATE
TRUE -- Waveform Calibration Values APPLIED.


#AUX CALIBRATION VALUES
Val Type	aux-1	

Term	1.0000e+00	
Factor	0.0000e+00	


#WF CALIBRATION VALUES
A = Detector Channel
Val Type	A-AC1	A-AC2	A-AC3	A-AC4	A-AC5	A-AC6	A-AC7	A-AC8	A-AC9	A-AC10	A-AC11	A-AC12	A-AC13	A-AC14	A-AC15	A-AC16	A-DC1	A-DC2	A-DC3	A-DC4	A-DC5	A-DC6	A-DC7	A-DC8	A-DC9	A-DC10	A-DC11	A-DC12	A-DC13	A-DC14	A-DC15	A-DC16	A-Ph1	A-Ph2	A-Ph3	A-Ph4	A-Ph5	A-Ph6	A-Ph7	A-Ph8	A-Ph9	A-Ph10	A-Ph11	A-Ph12	A-Ph13	A-Ph14	A-Ph15	A-Ph16	

Term	0.00000e+00	0.00000e+00	0.00000e+00	0.00000e+00	0.00000e+00	0.00000e+00	0.00000e+00	0.00000e+00	0.00000e+00	0.00000e+00	0.00000e+00	0.00000e+00	0.00000e+00	0.00000e+00	0.00000e+00	0.00000e+00	0.00000e+00	0.00000e+00	0.00000e+00	0.00000e+00	0.00000e+00	0.00000e+00	0.00000e+00	0.00000e+00	0.00000e+00	0.00000e+00	0.00000e+00	0.00000e+00	0.00000e+00	0.00000e+00	0.00000e+00	0.00000e+00	0.00000e+00	0.00000e+00	0.00000e+00	0.00000e+00	0.00000e+00	0.00000e+00	0.00000e+00	0.00000e+00	0.00000e+00	0.00000e+00	0.00000e+00	0.00000e+00	0.00000e+00	0.00000e+00	0.00000e+00	0.00000e+00	
Factor	1.00000e+00	1.00000e+00	1.00000e+00	1.00000e+00	1.00000e+00	1.00000e+00	1.00000e+00	1.00000e+00	1.00000e+00	1.00000e+00	1.00000e+00	1.00000e+00	1.00000e+00	1.00000e+00	1.00000e+00	1.00000e+00	1.00000e+00	1.00000e+00	1.00000e+00	1.00000e+00	1.00000e+00	1.00000e+00	1.00000e+00	1.00000e+00	1.00000e+00	1.00000e+00	1.00000e+00	1.00000e+00	1.00000e+00	1.00000e+00	1.00000e+00	1.00000e+00	X	X	X	X	X	X	X	X	X	X	X	X	X	X	X	X	

B = Detector Channel
Val Type	B-AC1	B-AC2	B-AC3	B-AC4	B-AC5	B-AC6	B-AC7	B-AC8	B-AC9	B-AC10	B-AC11	B-AC12	B-AC13	B-AC14	B-AC15	B-AC16	B-DC1	B-DC2	B-DC3	B-DC4	B-DC5	B-DC6	B-DC7	B-DC8	B-DC9	B-DC10	B-DC11	B-DC12	B-DC13	B-DC14	B-DC15	B-DC16	B-Ph1	B-Ph2	B-Ph3	B-Ph4	B-Ph5	B-Ph6	B-Ph7	B-Ph8	B-Ph9	B-Ph10	B-Ph11	B-Ph12	B-Ph13	B-Ph14	B-Ph15	B-Ph16	

Term	0.00000e+00	0.00000e+00	0.00000e+00	0.00000e+00	0.00000e+00	0.00000e+00	0.00000e+00	0.00000e+00	0.00000e+00	0.00000e+00	0.00000e+00	0.00000e+00	0.00000e+00	0.00000e+00	0.00000e+00	0.00000e+00	0.00000e+00	0.00000e+00	0.00000e+00	0.00000e+00	0.00000e+00	0.00000e+00	0.00000e+00	0.00000e+00	0.00000e+00	0.00000e+00	0.00000e+00	0.00000e+00	0.00000e+00	0.00000e+00	0.00000e+00	0.00000e+00	2.53724e+01	-1.25825e+02	-1.32423e+02	-1.86157e+02	-5.31231e+01	-7.74207e+01	-1.59021e+02	-1.62015e+02	-9.81342e+01	-6.42266e+01	-1.73719e+02	-1.69925e+02	-1.79918e+02	-1.77120e+02	-6.73402e+01	-1.50188e+02	
Factor	4.43643e-05	1.31752e-04	3.84766e-05	6.00296e-01	1.09162e-06	1.23883e-06	1.58776e-01	4.81384e-02	1.60025e-06	1.38813e-06	8.39062e-02	2.75674e-02	2.39658e-02	9.07276e-03	1.49700e-06	1.30833e-02	1.61200e-06	1.67637e-06	4.65165e-07	2.83808e-01	1.83225e-08	1.83332e-08	7.47258e-02	2.41391e-02	1.82575e-08	1.83873e-08	4.04860e-02	1.32768e-02	1.20086e-02	4.53932e-03	1.82600e-08	6.30792e-03	X	X	X	X	X	X	X	X	X	X	X	X	X	X	X	X	



#DISTANCE SETTINGS
A = Detector Channel
A-1	A-2	A-3	A-4	A-5	A-6	A-7	A-8	A-9	A-10	A-11	A-12	A-13	A-14	A-15	A-16	

2.5000e+00	3.0000e+00	2.5000e+00	3.0000e+00	2.0000e+00	3.0000e+00	1.5000e+00	3.0000e+00	3.0000e+00	3.0000e+00	3.0000e+00	3.0000e+00	3.0000e+00	3.0000e+00	1.5000e+00	3.0000e+00	

B = Detector Channel
B-1	B-2	B-3	B-4	B-5	B-6	B-7	B-8	B-9	B-10	B-11	B-12	B-13	B-14	B-15	B-16	

1.0000e+01	1.0000e+01	1.0000e+01	1.4400e+00	1.0000e+01	1.0000e+01	1.5100e+00	1.9400e+00	1.0000e+01	1.0000e+01	1.9900e+00	2.4900e+00	2.4100e+00	2.9000e+00	1.0000e+01	2.9800e+00	




#DATA BEGINS
time	group	step	mark	flag	A-AC1	A-AC2	A-AC3	A-AC4	A-AC5	A-AC6	A-AC7	A-AC8	A-AC9	A-AC10	A-AC11	A-AC12	A-AC13	A-AC14	A-AC15	A-AC16	A-DC1	A-DC2	A-DC3	A-DC4	A-DC5	A-DC6	A-DC7	A-DC8	A-DC9	A-DC10	A-DC11	A-DC12	A-DC13	A-DC14	A-DC15	A-DC16	A-Ph1	A-Ph2	A-Ph3	A-Ph4	A-Ph5	A-Ph6	A-Ph7	A-Ph8	A-Ph9	A-Ph10	A-Ph11	A-Ph12	A-Ph13	A-Ph14	A-Ph15	A-Ph16	B-AC1	B-AC2	B-AC3	B-AC4	B-AC5	B-AC6	B-AC7	B-AC8	B-AC9	B-AC10	B-AC11	B-AC12	B-AC13	B-AC14	B-AC15	B-AC16	B-DC1	B-DC2	B-DC3	B-DC4	B-DC5	B-DC6	B-DC7	B-DC8	B-DC9	B-DC10	B-DC11	B-DC12	B-DC13	B-DC14	B-DC15	B-DC16	B-Ph1	B-Ph2	B-Ph3	B-Ph4	B-Ph5	B-Ph6	B-Ph7	B-Ph8	B-Ph9	B-Ph10	B-Ph11	B-Ph12	B-Ph13	B-Ph14	B-Ph15	B-Ph16	aux-1	digaux	

1826.202	1	1	0	512	0.23899	0.14321	0.19009	0.072883	0.31138	0.078991	0.1166	0.16676	0.14279	0.12866	0.39866	0.17349	0.23551	0.11349	0.30978	0.23909	-2.7146	-2.7854	-3.2146	-2.9979	-2.8688	-3.2	-2.7729	-3.0583	-3.0417	-2.8104	-3.2146	-3.1167	-2.9958	-3.3563	-2.7208	-3.1917	217.075	-53.049	-96.546	-9.695	-80.077	-73.979	186.262	234.052	106.612	-95.509	183.397	119.107	217.249	213.211	165.761	-85.502	0.00071684	0.00080282	0.00010183	1051.3	7.9677e-06	5.9079e-06	1360.2	285.67	6.6838e-06	7.2006e-06	465.22	182.11	107.64	51.396	6.0886e-06	94.193	0.00052836	0.00046736	0.00012604	899.41	5.6212e-06	5.0504e-06	1117.4	239.02	5.4529e-06	5.1303e-06	382.13	150.69	89.528	42.623	5.4865e-06	77.295	-2.170	3.337	101.729	-97.233	68.701	28.647	-97.385	-93.197	58.540	-50.400	-93.988	-89.137	-87.585	-82.914	-47.336	-85.775	-8191	255	
1826.299	1	1	0	0	0.1355	0.24667	0.25181	0.12179	0.13394	0.10398	0.16887	0.17941	0.2837	0.097776	0.16606	0.20344	0.16004	0.21054	0.24714	0.033397	-2.4729	-2.7646	-3.0062	-2.8854	-2.9042	-3.2542	-2.85	-3.0104	-3.1104	-2.6875	-3.2438	-2.9562	-2.6958	-3.2875	-2.7396	-2.9833	116.295	-3.369	-36.808	192.730	-91.386	-74.888	214.030	-62.720	94.529	53.154	159.631	182.234	202.318	-56.964	-94.021	29.788	0.0008676	0.00044413	0.0001965	1061.2	1.2795e-05	4.7015e-06	1357.1	286.26	9.0534e-06	2.0565e-06	463.3	183.34	106.37	51.81	7.1444e-06	96.011	0.00050854	0.0004565	0.00013862	899.01	5.4375e-06	4.8644e-06	1119.7	239.15	5.3826e-06	5.1178e-06	382.4	151.79	89.192	42.936	5.8345e-06	79.165	-4.354	96.237	104.691	-97.401	60.355	84.887	-98.098	-92.878	-10.496	123.965	-94.135	-89.830	-87.848	-83.275	21.547	-85.557	-8191	255	
1826.395	1	1	0	0	0.25754	0.18778	0.15825	0.25407	0.077885	0.18879	0.22345	0.26688	0.099832	0.23903	0.19401	0.45427	0.13734	0.060508	0.11845	0.17264	-2.4458	-2.6083	-2.8854	-2.925	-2.6875	-3.1063	-3.0875	-3.1396	-3.2833	-2.6833	-3.2	-2.9313	-2.8563	-3.1792	-2.8104	-3.0187	187.702	-37.079	225.431	99.347	-94.376	41.984	225.865	214.435	59.431	57.055	178.683	189.613	192.811	195.822	146.018	184.926	0.00084874	0.001339	0.00020723	1053.4	1.0444e-05	1.561e-06	1363.9	286.86	8.5902e-06	5.9369e-06	463.98	184.43	107.77	51.734	1.2318e-05	94.919	0.00049403	0.00046788	0.00015251	894.75	5.3895e-06	5.0153e-06	1124.6	239.63	5.1542e-06	5.2138e-06	385.18	152.21	89.291	42.952	6.1625e-06	78.159	12.583	-87.002	-32.678	-97.895	124.652	83.056	-97.980	-92.662	73.686	74.327	-93.878	-89.544	-87.839	-82.699	9.183	-85.541	-8191	255	
1826.515	1	1	0	0	0.20254	0.34268	0.17122	0.3151	0.18817	0.25823	0.414	0.23028	0.11326	0.22716	0.079044	0.057787	0.37709	0.036894	0.21394	0.24963	-2.7062	-2.4583	-3.0125	-2.8167	-2.5771	-3.0896	-2.9771	-3.1813	-3.3104	-2.5125	-3.2146	-3.1083	-2.8104	-3.2604	-2.6104	-3.025	45.698	-63.716	193.461	-51.634	-60.981	-32.096	213.718	-104.399	135.785	-111.045	241.003	-108.347	-110.745	233.522	-86.269	181.307	0.00097351	0.00037552	0.00010199	1062.5	4.4091e-06	1.1844e-05	1354	288.81	2.246e-05	8.5906e-06	458.56	182.37	106	50.615	1.3732e-05	92.6	0.00047135	0.0004764	0.00015901	894.79	5.0509e-06	5.2808e-06	1122.1	238.58	4.808e-06	5.4213e-06	380.83	149.88	88.138	42.187	6.0245e-06	76.182	-3.461	5.182	-94.332	-97.697	92.806	38.108	-97.843	-93.125	-27.213	112.834	-94.129	-89.239	-87.600	-83.154	32.747	-85.720	-8191	255	
1826.611	1	1	0	0	0.21272	0.14958	0.2187	0.075979	0.10223	0.16275	0.25017	0.0071561	0.10568	0.055947	0.25363	0.14874	0.073947	0.22532	0.24383	0.44625	-2.7125	-2.5312	-3.0229	-3.0146	-2.675	-3.3396	-2.9854	-2.7625	-3.2417	-2.65	-2.8917	-3.2896	-2.6208	-3.1646	-2.9188	-2.8458	213.656	146.076	22.845	-106.062	182.750	-39.275	168.021	-64.328	56.776	-100.957	-99.720	201.313	157.117	174.872	36.295	166.603	0.0011342	0.00065366	0.00027866	1056.1	9.6811e-06	8.6074e-06	1351.3	282.79	1.0799e-05	5.949e-08	457.91	182.8	105.48	50.591	4.3828e-06	94.523	0.0004633	0.00052791	0.00015242	884.75	4.9691e-06	5.9092e-06	1114.6	235.64	4.9209e-06	5.9325e-06	378.69	149.62	87.869	42.493	5.694e-06	77.295	37.951	3.704	-6.881	-98.126	-10.734	240.977	-97.972	-93.107	-9.471	158.168	-94.524	-89.680	-87.953	-82.775	104.319	-86.008	-8191	255	
1826.708	1	1	0	0	0.043528	0.099372	0.17355	0.17365	0.23885	0.36281	0.26186	0.29721	0.065056	0.18543	0.079502	0.18753	0.28863	0.23904	0.22389	0.14527	-2.6896	-2.8312	-2.7458	-3.1229	-2.7292	-3.2792	-3.1125	-2.7604	-3.1229	-2.625	-3.0271	-3.3833	-2.7854	-3.0292	-3.0271	-2.8083	-18.428	57.582	75.096	66.396	158.096	-4.710	212.269	189.455	178.038	141.280	67.770	-24.864	186.905	-95.814	160.058	193.294	0.00074698	0.001067	0.000328	1067.4	3.4692e-06	9.6691e-06	1352.2	283.76	8.0011e-06	7.9355e-06	462.37	183.21	106.37	51.896	5.5601e-06	96.382	0.00047902	0.00057596	0.00014374	884.33	5.2266e-06	6.2458e-06	1116.7	236.01	5.1173e-06	6.2349e-06	380.03	150.63	88.612	43.281	5.3173e-06	79.105	11.978	-2.250	8.498	-97.571	60.372	-0.019	-98.268	-92.950	75.697	125.504	-94.039	-89.579	-88.040	-83.265	72.872	-85.619	-8191	255	
1826.804	1	1	0	0	0.36125	0.18189	0.30689	0.1296	0.068182	0.17567	0.18825	0.32657	0.20807	0.16949	0.0423	0.10774	0.0429	0.24648	0.35288	0.15375	-2.8042	-2.7792	-3.1312	-3.0021	-2.7917	-3.0917	-3.2271	-2.6562	-3.1667	-2.9229	-2.8479	-3.4125	-2.7021	-2.9521	-3	-2.6042	186.460	-59.185	-49.180	166.829	-20.112	134.329	175.624	219.700	-49.722	13.720	195.385	178.506	31.872	240.676	114.827	-101.793	0.00085055	0.0015739	0.00032067	1051	2.606e-06	5.5277e-06	1354.9	285.72	9.5705e-06	1.0191e-05	463.09	184.43	105.99	51.817	1.0815e-05	95.851	0.0005213	0.00055874	0.00014173	876.92	5.7594e-06	6.0312e-06	1119.6	237.26	5.8175e-06	6.0533e-06	380.61	151.7	88.975	43.356	5.2017e-06	78.852	-19.460	-3.524	-64.530	-97.778	87.094	-66.277	-98.006	-92.970	-108.130	6.693	-94.008	-89.343	-87.964	-82.754	-57.449	-85.682	-8191	255	
1826.900	1	1	0	0	0.24064	0.16255	0.069535	0.10539	0.10602	0.11499	0.080036	0.38295	0.25596	0.031771	0.054527	0.21509	0.1824	0.15618	0.10835	0.41977	-2.7687	-2.7083	-2.5854	-3.2146	-2.8271	-2.9958	-3.0563	-2.7854	-2.9042	-2.8688	-2.9792	-3.1604	-2.7521	-3.0792	-3.0812	-3.0104	-52.062	109.192	42.405	165.504	68.984	94.161	-77.823	197.874	-82.904	-52.081	193.311	202.836	209.497	220.938	-27.930	177.005	0.0006971	0.00065602	0.00036659	1054.7	5.443e-07	6.5889e-06	1365.6	284.91	4.4398e-06	1.5561e-05	456.19	183.19	105.65	51.155	6.1337e-06	93.982	0.0005522	0.00052647	0.00013512	880.23	6.0212e-06	5.8892e-06	1118.9	235.84	6.0723e-06	5.6229e-06	377.86	149.93	88.593	42.625	4.9244e-06	76.998	-10.196	6.791	-17.787	-97.970	127.498	-94.098	-98.122	-92.768	127.049	17.709	-93.895	-89.355	-87.589	-83.159	-12.666	-85.703	-8191	255	
1826.996	1	1	0	0	0.15452	0.053748	0.14569	0.27469	0.17797	0.38194	0.23193	0.28245	0.19058	0.098666	0.091584	0.27432	0.22883	0.32259	0.15792	0.070713	-2.5438	-2.9688	-2.7083	-3.2167	-2.8729	-2.8688	-3.2604	-2.8542	-3.3167	-3.0062	-2.9479	-3.2208	-2.9125	-2.8187	-3.2938	-2.8104	2.151	133.241	35.188	195.900	-81.863	207.359	-108.525	168.052	-53.255	87.132	-103.936	245.903	196.290	246.170	-13.146	130.257	0.0010618	0.00089045	0.00012887	1047.9	6.9899e-06	1.1563e-05	1359.3	282.96	1.3625e-05	1.0849e-05	458.71	181.86	104.88	51.7	3.4346e-06	94.787	0.00057888	0.00050431	0.00013054	885.14	6.1648e-06	5.4956e-06	1114	235.04	6.0296e-06	5.4816e-06	377.37	150.52	88.413	42.756	4.7712e-06	78.379	-12.547	-49.588	-27.029	-98.347	132.688	47.882	-98.093	-92.753	12.636	-32.759	-94.351	-89.399	-87.749	-83.027	239.384	-85.701	-8191	255	
1827.092	1	1	0	0	0.15599	0.17274	0.13538	0.035805	0.31406	0.26202	0.42566	0.23702	0.1439	0.081783	0.17764	0.081257	0.38961	0.037619	0.15909	0.20503	-2.4625	-2.8354	-2.6063	-3.0458	-2.8812	-2.6396	-3.1792	-2.7896	-2.9104	-3.1	-2.8271	-3.3125	-2.9979	-2.7646	-3.2521	-2.8688	-64.813	132.201	228.819	-72.622	83.588	19.270	165.155	-74.352	58.760	177.385	221.215	121.359	245.090	243.002	-70.947	187.285	0.00077866	0.0016752	0.00028938	1052.6	7.9965e-06	5.5123e-06	1352.4	286.05	1.3984e-05	6.721e-06	462.79	184.49	106.57	52.214	5.6382e-06	97.315	0.00055873	0.00048567	0.00012665	896.4	5.9552e-06	5.2998e-06	1115.4	237.37	6.0178e-06	5.2234e-06	379.7	152.42	89.18	43.303	4.9848e-06	80.017	3.283	-12.917	-87.377	-98.205	76.618	-77.476	-98.070	-93.035	-97.557	45.212	-94.272	-89.458	-87.513	-83.234	142.031	-85.729	-8191	255	
1827.211	1	1	0	0	0.086432	0.092802	0.22273	0.21265	0.22068	0.123	0.28019	0.14473	0.11536	0.19423	0.2998	0.14736	0.11971	0.22435	0.11034	0.46951	-2.3958	-3.1292	-2.7313	-3.0604	-3.0146	-2.6917	-3.3021	-2.7021	-2.8729	-3.0833	-2.5125	-3.125	-3.0563	-2.6604	-3.1833	-2.9208	176.736	135.297	-20.188	236.698	-107.032	121.101	206.544	18.430	90.984	-98.313	217.751	195.836	201.846	215.115	93.404	215.830	0.0006803	0.0012176	3.9092e-05	1059	3.2305e-06	1.1896e-05	1358.1	285.12	8.866e-06	1.306e-05	456.42	183.99	106.5	52.449	9.3269e-06	97.813	0.00053979	0.00046566	0.00013354	900.03	5.6308e-06	5.203e-06	1120.4	238.11	5.6486e-06	5.0525e-06	379.92	153.17	88.78	43.492	5.431e-06	80.228	15.876	22.390	32.114	-98.296	27.747	-6.133	-97.927	-92.689	29.809	2.302	-93.928	-89.433	-87.998	-82.947	235.444	-85.759	-8191	255	
1827.307	1	1	0	0	0.13083	0.19691	0.17615	0.12239	0.27005	0.12487	0.076891	0.10118	0.087782	0.19174	0.18476	0.16486	0.15489	0.087998	0.2189	0.13276	-2.4437	-3.0833	-2.6208	-3.0125	-2.9958	-2.7417	-3.1167	-2.9021	-2.6	-3.1688	-2.6188	-3.1	-3.0729	-2.8375	-3.1625	-2.975	150.980	43.367	168.760	141.417	-85.576	120.647	179.149	243.619	34.833	-46.802	244.549	206.847	-88.269	-94.719	30.252	94.949	0.00062901	0.0011955	0.0003147	1074.2	3.0463e-06	9.4785e-06	1354.6	283.47	1.1274e-05	9.9714e-06	454.17	181.59	105.22	51.45	1.1523e-05	94.101	0.00051963	0.00045045	0.00014455	904.58	5.3459e-06	4.96e-06	1118.6	235.83	5.3588e-06	4.9009e-06	377.58	150.69	87.835	42.509	6.0611e-06	77.491	-6.440	32.899	-18.375	-98.385	186.397	34.657	-98.090	-92.762	-17.883	19.633	-94.279	-89.836	-87.980	-82.718	72.874	-85.719	-8191	255	
1827.403	1	1	0	0	0.086188	0.27637	0.18823	0.18778	0.32432	0.10512	0.13841	0.31479	0.26866	0.26491	0.1048	0.093789	0.058971	0.087952	0.19347	0.19589	-2.2521	-3.1375	-2.7958	-2.8458	-3.1792	-2.7292	-3.1771	-3.0229	-2.6479	-3.0979	-2.8	-2.8708	-3.1604	-2.7583	-3.075	-2.9188	46.948	22.800	-53.488	-52.446	199.624	-65.818	133.062	245.128	14.735	-87.118	-3.659	232.139	1.577	-68.800	92.088	125.094	0.00075924	0.00050527	9.7486e-05	1035.2	1.1288e-05	6.6571e-06	1357.3	281.48	1.3451e-05	8.3835e-06	457.25	181.4	104.6	51.361	5.1254e-06	95.3	0.00049669	0.00045079	0.00015655	890.02	5.0733e-06	5.1891e-06	1119.8	234.62	5.276e-06	5.1089e-06	379.04	150.12	87.476	42.607	6.2225e-06	77.969	-31.543	-69.972	4.852	-97.761	119.528	-36.828	-98.091	-92.823	-23.739	48.107	-93.713	-89.501	-87.776	-82.785	-0.760	-85.568	-8191	255	
1827.500	1	1	0	0	0.033051	0.13983	0.16513	0.26015	0.10195	0.23435	0.27091	0.1976	0.11312	0.22713	0.24141	0.20052	0.081147	0.08522	0.19073	0.30713	-2.275	-3.0125	-2.6833	-2.7542	-3.1792	-2.6896	-3.2771	-2.9375	-2.7146	-2.9583	-2.9	-2.9208	-3.0833	-2.8729	-2.9583	-3.0812	-110.101	-16.902	42.557	-79.582	159.058	72.387	109.829	-60.423	142.283	187.928	156.631	187.366	189.348	37.168	81.318	198.886	0.00066461	0.00038531	0.00032791	1044.2	6.2365e-06	3.8223e-06	1345.4	279.35	5.7929e-06	9.18e-06	458.21	183.28	106.15	51.715	7.7558e-06	96.083	0.00049087	0.00050362	0.00015892	883.02	5.0077e-06	5.6144e-06	1116.3	233.45	5.1324e-06	5.6862e-06	379.41	150.85	87.835	43.065	6.221e-06	79.335	-5.789	84.837	-8.469	-97.614	49.320	-84.484	-98.243	-93.049	170.244	30.090	-94.332	-89.295	-88.202	-83.110	18.838	-85.600	-8191	255	
1827.596	1	1	0	0	0.12831	0.16854	0.13758	0.085591	0.24078	0.16668	0.072234	0.12087	0.2512	0.079034	0.29904	0.056859	0.2656	0.11033	0.17732	0.2219	-2.1354	-2.8896	-2.8354	-2.6979	-2.9604	-2.5458	-2.9938	-2.9667	-2.4646	-3.1083	-2.8958	-2.8167	-3.2083	-2.7375	-2.8479	-3.1708	70.928	162.602	135.467	22.401	-27.856	-86.030	246.958	6.386	197.010	56.733	154.005	230.330	32.872	224.946	-33.554	-89.747	0.00080593	0.00035971	8.9644e-05	1054.3	1.6968e-05	3.0342e-06	1362.7	280.97	1.3695e-05	7.5069e-06	455.65	183.42	104.51	51.698	1.5652e-05	95.439	0.00049443	0.00054719	0.00015707	885.16	5.0367e-06	6.2688e-06	1123	232.5	5.2915e-06	6.3052e-06	378.15	151.66	87.652	43.254	5.9448e-06	78.619	18.344	-24.645	46.882	-97.600	-1.298	-4.300	-98.011	-93.389	7.869	234.477	-94.453	-89.363	-87.957	-82.993	60.023	-85.416	-8191	255	
1827.692	1	1	0	0	0.12675	0.069472	0.096967	0.14335	0.041278	0.10383	0.24674	0.15038	0.041143	0.20772	0.45203	0.22495	0.11547	0.05577	0.052732	0.2945	-2.1312	-2.9292	-2.9625	-2.4104	-3.1646	-2.6542	-3.0354	-3.2917	-2.4938	-3.0146	-3.0083	-2.95	-3.0708	-2.8	-2.8021	-3.2021	-34.006	110.213	170.365	142.775	-2.510	237.276	-102.998	111.751	105.644	149.638	-69.239	-75.166	-75.604	153.153	-67.653	133.041	0.0011498	0.00096599	0.00034805	1051	8.0234e-06	8.6237e-06	1351.4	278.47	6.2909e-06	6.7798e-07	452.34	179.79	104.34	50.181	8.0589e-06	91.784	0.00050774	0.00058721	0.00014372	881.47	5.5044e-06	6.4116e-06	1112.5	231.11	5.555e-06	6.3625e-06	374.26	148.31	87.067	41.82	5.6013e-06	75.325	9.530	38.391	-7.049	-97.362	66.916	19.171	-97.948	-92.973	170.355	112.154	-94.523	-89.610	-87.920	-82.977	52.890	-85.554	-8191	255	
1827.812	1	1	0	0	0.1939	0.18451	0.20642	0.043383	0.13394	0.1355	0.23935	0.27658	0.14303	0.11515	0.12933	0.20389	0.13808	0.084737	0.14711	0.17665	-2.3771	-3.0833	-2.725	-2.7438	-3.1021	-2.8083	-3.0625	-3.1333	-2.7354	-2.825	-3.0958	-2.575	-3.1729	-2.8979	-2.5938	-3.4688	-34.235	130.992	25.626	126.786	243.648	6.123	135.461	187.918	-106.650	-57.215	94.492	186.786	-68.949	162.610	186.168	-95.045	0.00080377	0.00082869	0.00013721	1035.6	4.5741e-06	4.9309e-06	1341.6	279.94	6.8465e-06	1.6616e-05	457.21	180.34	105.33	50.094	1.3783e-05	92.359	0.00054613	0.00057966	0.00013776	879.4	5.8569e-06	6.2175e-06	1107.5	232.05	6.0988e-06	6.2363e-06	375.05	148.44	87.997	41.847	5.417e-06	75.866	-8.525	-105.541	51.257	-97.818	4.000	-3.436	-98.154	-92.538	186.336	12.364	-94.473	-89.182	-87.834	-82.545	41.169	-85.932	-8191	255	
1827.909	1	1	0	0	0.11234	0.21949	0.18045	0.12409	0.15092	0.16233	0.27059	0.085572	0.25223	0.16712	0.21205	0.051252	0.17226	0.34122	0.18723	0.1271	-2.1167	-2.975	-3.1813	-2.8583	-3.0854	-2.9313	-2.9667	-3.2354	-2.6646	-2.8063	-3.1896	-2.7562	-3.1063	-2.8812	-2.875	-3.1708	116.205	52.857	179.743	-51.519	84.346	223.290	158.461	48.672	14.996	245.997	177.091	21.277	-67.716	228.930	200.230	-91.353	0.00061535	0.0014307	0.00027602	1054.9	5.0403e-06	8.5362e-06	1354.8	281.79	5.9158e-06	1.2455e-05	460.11	182.11	103.89	49.942	1.5389e-05	92.793	0.00058916	0.00055244	0.00013602	885.5	6.4185e-06	5.9649e-06	1117.8	233.86	6.4387e-06	5.9808e-06	377.37	149.73	88.328	41.634	5.4262e-06	76.69	-10.062	51.885	-79.920	-98.357	125.270	92.674	-98.004	-92.679	-85.755	157.457	-93.927	-89.567	-87.314	-82.741	14.150	-85.584	-8191	255	
1828.005	1	1	0	0	0.085393	0.052966	0.084393	0.25002	0.11	0.25614	0.27427	0.12925	0.085475	0.074458	0.32873	0.2545	0.098808	0.18339	0.11797	0.30692	-2.4667	-2.9375	-2.9562	-2.7083	-3.0771	-3.2521	-2.7083	-3.2167	-2.9604	-2.7917	-3.1604	-2.8021	-3.0271	-3.0687	-2.7375	-3.1042	205.613	248.944	-62.287	129.393	78.216	226.130	194.723	118.284	210.753	-6.813	221.493	130.118	127.274	198.648	-70.712	179.905	0.00082102	0.00088989	0.00017801	1043.8	6.7281e-06	1.2552e-05	1358	280.28	2.6821e-05	1.3688e-05	457.73	180.78	102.03	49.941	1.6794e-06	93.872	0.00061386	0.00053769	0.00013277	887.59	6.6073e-06	5.7482e-06	1112.4	233.88	6.5057e-06	5.805e-06	376.67	149.95	87.13	41.671	5.3952e-06	77.295	1.834	-98.291	-4.786	-98.358	80.085	60.635	-97.977	-92.815	34.055	29.237	-93.950	-89.617	-87.739	-82.788	-97.152	-85.618	-8191	255	
1828.076	1	1	0	0	0.1271	0.15492	0.12472	0.070908	0.17164	0.017889	0.099448	0.17076	0.069391	0.053771	0.055293	0.17939	0.073067	0.40484	0.12391	0.26474	-2.5917	-2.6583	-3.1562	-2.6854	-2.8979	-3.1562	-2.7375	-3.2167	-2.8646	-2.825	-3.1396	-2.7208	-2.8646	-3.0479	-2.7479	-3.0729	118.098	92.076	214.000	-30.112	-25.258	63.424	199.837	186.086	103.049	-103.772	-108.375	236.871	105.560	237.363	-78.669	160.201	0.00041828	0.00048515	0.00012422	1049.8	1.1299e-06	1.0921e-05	1358.7	279.68	9.9245e-06	1.7144e-05	455.52	180.72	104.85	49.53	8.5011e-06	91.868	0.00058765	0.00052401	0.00013109	896.02	6.1823e-06	5.4076e-06	1115.3	233.63	6.101e-06	5.4796e-06	375.41	149.58	87.886	41.137	5.4211e-06	75.629	-6.717	-67.180	-64.464	-97.463	21.365	-34.748	-97.941	-92.887	-23.057	50.863	-93.917	-89.400	-87.684	-82.801	40.257	-85.567	-8191	255	
1828.173	1	1	0	0	0.27807	0.13488	0.22524	0.15427	0.04641	0.22575	0.46743	0.073354	0.17128	0.15037	0.18512	0.077635	0.34713	0.23165	0.12308	0.059982	-2.4125	-2.6813	-2.9792	-2.7854	-2.575	-3.0125	-2.7188	-3.2021	-2.7125	-2.5375	-3.2042	-2.9646	-2.7979	-3.0771	-2.6562	-2.9833	66.566	-90.302	-67.631	-90.661	96.854	228.832	174.176	179.464	193.896	119.267	181.743	-76.522	188.335	223.945	148.728	130.267	0.00065996	0.00083128	0.00039762	1033.6	3.5918e-06	9.5294e-06	1346.3	281.4	2.9323e-06	6.5136e-06	454.06	179.55	103.84	49.204	7.6075e-06	92.078	0.00054103	0.00049944	0.00013925	896.4	5.7984e-06	5.3099e-06	1109.7	234.76	5.8422e-06	5.405e-06	376.32	149.11	87.16	41.038	5.9472e-06	76.246	7.290	7.177	-41.999	-97.900	231.008	48.902	-97.961	-93.241	55.210	9.924	-94.124	-89.639	-87.619	-82.772	197.299	-86.149	-8191	255	
1828.291	1	1	0	0	0.24716	0.14873	0.27327	0.22609	0.24301	0.11756	0.29278	0.13862	0.037629	0.088904	0.16871	0.20146	0.2179	0.18377	0.097049	0.1324	-2.375	-2.4979	-3.0208	-2.6521	-2.7083	-2.9854	-2.9208	-2.7958	-3.0167	-2.5667	-3.0542	-2.7771	-2.9729	-2.9833	-2.5104	-2.8937	206.988	90.814	-2.120	191.514	52.102	93.202	119.168	200.340	-50.272	70.090	174.194	235.960	238.133	-52.113	121.378	211.628	0.00064456	0.0015084	0.00013787	1048.8	8.5891e-06	8.4789e-06	1339.8	279.62	1.2293e-05	5.3652e-06	456.27	180.57	102.57	50.018	2.6211e-06	94.166	0.0005225	0.00049175	0.00015375	897.52	5.819e-06	5.1844e-06	1107.5	233	5.6638e-06	5.3318e-06	378.25	149.59	86.901	41.58	6.6495e-06	78.006	-1.497	-47.989	9.905	-97.753	119.217	19.246	-98.331	-92.731	4.025	-107.281	-93.890	-89.792	-88.021	-82.448	242.534	-85.412	-8191	255	
1828.388	1	1	0	0	0.1279	0.090533	0.35513	0.11987	0.079127	0.27705	0.268	0.12408	0.03686	0.10618	0.26061	0.12982	0.23159	0.10561	0.16721	0.1403	-2.5042	-2.5625	-2.9271	-2.6104	-2.7938	-3.0646	-2.8958	-2.9479	-2.9417	-2.7438	-2.9646	-2.9354	-2.6188	-3.1979	-2.6229	-2.8083	23.452	-45.037	-53.288	169.913	-107.451	227.059	200.934	167.336	96.324	64.959	-102.454	-107.115	116.425	-104.243	-71.575	213.468	0.00059833	0.0011498	0.00014132	1055.6	4.4688e-06	7.7122e-06	1346.7	277.9	8.3847e-07	3.5426e-06	456.18	182.44	103.98	50.333	6.4997e-06	94.985	0.00051651	0.00050739	0.00016836	892.18	5.6624e-06	5.4759e-06	1116.2	232.91	5.3832e-06	5.7081e-06	380.57	150.45	87.312	41.955	6.5311e-06	78.077	13.128	-16.032	-61.660	-98.218	94.668	48.790	-98.203	-93.003	24.571	71.965	-94.247	-89.460	-88.078	-83.061	-12.777	-85.580	-8191	255	
1828.484	1	1	0	0	0.10945	0.15301	0.18739	0.36304	0.33941	0.185	0.19711	0.27129	0.059095	0.065029	0.14794	0.14045	0.1835	0.27161	0.21136	0.36705	-2.6229	-2.6979	-2.7771	-2.9125	-2.6792	-3.1042	-2.8292	-2.6458	-3.175	-2.5396	-3.1646	-2.8771	-2.5896	-3.05	-2.7917	-2.8563	39.847	-34.049	101.763	56.185	-100.755	155.389	-73.136	221.179	-30.891	-32.392	170.431	228.672	237.863	-74.431	189.082	175.570	0.00075875	0.0011194	0.00049004	1049.1	9.9617e-06	1.2966e-05	1334.1	280.78	4.441e-06	8.4702e-07	454.24	178.45	102.72	49.127	4.9865e-06	91.52	0.00050368	0.00054618	0.0001704	884.34	5.4892e-06	6.0372e-06	1108.4	231.92	5.2069e-06	6.3009e-06	376.59	147.61	86.334	40.985	6.4899e-06	75.559	-20.367	214.435	87.818	-97.948	32.912	-30.987	-98.086	-92.542	-6.122	108.877	-94.197	-90.129	-88.112	-83.017	11.571	-85.309	-8191	255	
1828.604	1	1	0	0	0.20385	0.15246	0.21606	0.18972	0.13539	0.045245	0.11654	0.10183	0.091621	0.12352	0.1488	0.3017	0.019243	0.1398	0.15171	0.22586	-2.6979	-2.4813	-3.0042	-2.875	-2.6625	-2.9458	-3.025	-2.8625	-3.1104	-2.6667	-3.0771	-2.9042	-2.6604	-2.9229	-2.9188	-2.6146	-5.185	85.281	176.107	92.657	-86.466	104.616	120.659	130.023	-58.579	231.613	246.441	162.044	185.083	132.398	-72.267	149.592	0.0010993	0.0003609	0.00043959	1026.3	8.4099e-06	7.3721e-06	1338.7	276.12	1.4821e-06	5.8789e-06	451.1	179.5	102.44	49.302	1.4329e-05	92.671	0.00049019	0.00059862	0.00016307	873.65	5.4805e-06	6.6219e-06	1102.8	229.76	5.3947e-06	6.7125e-06	374.98	147.96	85.958	41.359	6.0552e-06	76.424	-17.307	146.146	4.352	-98.652	120.996	-0.291	-98.295	-92.543	-6.588	-21.873	-94.179	-89.508	-87.507	-82.323	39.124	-85.715	-8191	255	
1828.676	1	1	0	0	0.18826	0.15185	0.22548	0.26627	0.14335	0.10806	0.15735	0.22009	0.2699	0.11762	0.10615	0.17754	0.040611	0.23316	0.3565	0.13458	-2.5354	-2.8937	-2.8042	-3.2396	-2.6271	-3.075	-2.9688	-2.8187	-2.8917	-2.7646	-2.8604	-3.3187	-2.6229	-3.0333	-3.1458	-2.7833	-107.891	232.729	183.569	32.289	199.120	-38.226	160.667	167.155	178.352	5.179	95.166	-110.357	22.388	-73.651	7.683	212.108	0.0007878	0.00080665	0.00039351	1033.9	2.2258e-06	7.1468e-06	1329.9	277.5	9.871e-06	6.7356e-06	454.71	179.99	103.19	50.238	2.0175e-05	94.295	0.00053297	0.0006137	0.00015566	873.23	5.9622e-06	6.8309e-06	1100.9	230.42	6.038e-06	6.8456e-06	375.94	148.6	86.904	41.979	5.9084e-06	77.599	-0.548	-60.120	-64.137	-97.570	82.948	22.836	-98.102	-92.544	37.216	6.819	-94.165	-89.529	-88.138	-82.826	39.339	-85.487	-8191	255	
1828.772	1	1	0	0	0.063853	0.16418	0.1507	0.058308	0.21427	0.093936	0.27548	0.060929	0.31407	0.11923	0.2006	0.24356	0.2554	0.20785	0.046809	0.32621	-2.5021	-2.8937	-2.7229	-3.0458	-2.6396	-2.9271	-3.15	-2.7062	-3.1729	-2.9562	-2.6146	-3.4313	-2.6708	-2.9833	-3.0021	-2.6875	140.624	114.681	31.429	22.276	72.912	61.588	197.603	137.013	-13.531	-37.206	-69.258	-64.776	242.494	-61.050	228.111	230.703	0.00054898	0.0011314	0.00047302	1042.5	3.8813e-06	9.5043e-06	1347.2	276.26	3.1755e-06	6.6748e-06	455.39	182.05	103.84	50.136	4.2596e-06	94.476	0.00058867	0.00061727	0.00015189	875.47	6.5978e-06	6.6173e-06	1106.3	230.37	6.5622e-06	6.6301e-06	377.84	149.87	87.645	42.003	5.5627e-06	77.88	-6.679	2.089	30.419	-97.702	73.496	49.727	-97.955	-92.855	-92.185	14.897	-94.177	-89.621	-87.442	-82.543	71.308	-85.384	-8191	255	
1828.893	1	1	0	0	0.33718	0.2154	0.21747	0.066234	0.029291	0.10943	0.24409	0.22573	0.15828	0.26056	0.19919	0.16567	0.27612	0.19911	0.37091	0.22449	-2.6708	-2.9313	-2.5208	-3.3708	-2.6896	-3.0521	-3.0667	-2.8688	-3.0729	-2.9437	-2.8667	-3.1979	-2.75	-2.8812	-2.9938	-2.7521	-88.373	-89.601	5.682	15.049	201.410	-102.295	217.246	224.891	239.569	77.489	215.725	172.833	225.591	237.302	-60.150	226.532	0.0008715	0.0016772	0.00021604	1049.2	1.0601e-05	1.3479e-05	1339	277.62	5.2788e-06	5.6251e-06	455.08	179	103.07	48.83	5.1318e-06	90.955	0.00061515	0.0005633	0.00014567	879.45	6.7502e-06	6.149e-06	1104.5	230.86	6.7083e-06	5.9111e-06	373.63	147.99	87.001	40.822	5.3864e-06	75.185	-39.740	-46.570	-48.269	-98.041	39.277	35.350	-98.050	-92.863	-16.084	87.837	-93.874	-89.092	-88.174	-82.925	56.639	-85.678	-8191	255	
1828.989	1	1	0	0	0.052506	0.12269	0.21077	0.15785	0.073475	0.11372	0.18901	0.10595	0.16278	0.14177	0.043927	0.33016	0.16094	0.20952	0.22831	0.0038915	-2.3708	-2.8875	-2.5229	-3.0625	-2.5271	-2.7938	-3.2125	-2.9917	-2.8417	-3.0021	-2.6229	-3.1208	-3.0333	-2.8792	-2.9875	-2.6896	109.879	149.449	37.716	157.248	95.925	-72.700	168.545	-101.047	63.955	139.873	232.836	235.299	143.703	-102.562	126.608	202.151	0.00058314	0.00093621	0.0002735	1040.2	5.862e-06	6.0702e-06	1334.6	276.07	4.8121e-06	1.9032e-06	446.42	177.13	101.63	48.476	9.6625e-06	91.951	0.00062616	0.00053148	0.00014021	879.39	6.6397e-06	5.8686e-06	1098.8	230.39	6.7197e-06	5.8436e-06	370.99	147.3	86.074	40.668	5.2993e-06	75.837	-6.489	3.235	-19.981	-98.223	-31.075	137.936	-97.699	-93.014	5.744	48.322	-94.264	-89.680	-87.769	-82.827	-9.222	-85.713	-8191	255	
1829.085	1	1	0	0	0.1537	0.033502	0.08645	0.027055	0.10482	0.21678	0.15957	0.17104	0.23389	0.23469	0.34949	0.20048	0.15342	0.29875	0.22579	0.10162	-2.5771	-2.8667	-2.7333	-2.8563	-2.9542	-2.7083	-3.3688	-2.7542	-3.0125	-2.9333	-2.9125	-3.025	-2.9396	-2.6146	-3.0438	-2.9	167.381	-55.281	55.444	-95.836	208.849	173.491	182.047	186.593	141.222	-35.526	212.026	207.902	246.546	-20.781	246.296	177.646	0.00098106	0.00097935	0.00023832	1042.1	6.7556e-06	3.8745e-06	1340.4	276.8	4.8493e-06	9.0712e-06	450.78	180.02	103.37	49.797	6.7523e-06	93.888	0.00060303	0.00051513	0.00014064	891.01	6.3148e-06	5.7053e-06	1098.9	231.84	6.4236e-06	5.5585e-06	374.82	149.56	86.711	41.316	5.6196e-06	77.393	2.938	24.433	82.450	-98.144	107.003	205.707	-98.089	-92.947	-54.754	11.124	-94.128	-89.390	-87.968	-82.980	37.755	-86.030	-8191	255	
1829.204	1	1	0	0	0.0893	0.084236	0.31532	0.30046	0.03456	0.12315	0.15208	0.12468	0.14336	0.11256	0.061236	0.22686	0.054876	0.3346	0.20653	0.15721	-2.2104	-3.1437	-2.5396	-2.7479	-2.95	-2.3646	-3.5687	-2.8979	-2.575	-3.0375	-2.4854	-3.0604	-2.9167	-2.6708	-3.0187	-2.9354	-84.584	147.018	-62.233	25.730	61.037	84.528	210.705	181.088	-66.605	20.796	-86.559	174.025	129.966	-48.437	213.147	-15.832	0.00060153	0.0010025	0.00051662	1037.4	1.0897e-05	3.0654e-06	1340.1	279.75	1.9421e-05	2.1178e-05	456.87	181.71	104.41	49.723	4.6929e-06	92.581	0.00058238	0.00049922	0.00015094	900.56	5.9757e-06	5.5883e-06	1110	234.29	6.0341e-06	5.4055e-06	378.94	150.94	87.333	41.514	6.1685e-06	76.892	-1.330	-28.726	-59.702	-98.168	-7.646	13.455	-97.710	-92.850	-23.754	6.809	-94.261	-89.526	-88.528	-82.113	217.020	-85.889	-8191	255	
1829.300	1	1	0	0	0.30039	0.12656	0.13049	0.11653	0.02256	0.19775	0.16335	0.16191	0.16516	0.26315	0.20934	0.24749	0.19066	0.22236	0.18626	0.07475	-2.1646	-3.0958	-2.3896	-2.9167	-2.9125	-2.6021	-3.1583	-2.6771	-2.8271	-2.9813	-2.6146	-3.0021	-2.975	-2.7333	-3	-2.9167	-17.225	172.872	-97.389	-39.854	-108.291	-91.138	133.604	57.349	229.883	73.820	-87.551	-104.688	-88.979	97.969	-72.057	221.392	0.00074337	0.0005278	0.00010077	1045.6	2.0339e-06	9.7575e-06	1348.5	278.05	9.8664e-06	8.7224e-06	455.34	180.83	103.53	48.92	8.2676e-06	90.38	0.00054973	0.00048751	0.00016336	895.69	5.6981e-06	5.5099e-06	1112.8	233.04	5.7211e-06	5.2486e-06	378.94	149.46	86.866	40.763	6.5328e-06	74.808	7.977	235.878	-20.965	-98.205	-7.732	34.826	-98.399	-92.836	10.419	42.399	-94.275	-89.822	-87.493	-83.106	136.990	-85.644	-8191	255	
1829.372	1	1	0	0	0.11903	0.2144	0.072029	0.22519	0.13196	0.13481	0.23746	0.43647	0.092685	0.27001	0.21936	0.29919	0.20041	0.35386	0.20066	0.42091	-2.475	-2.8312	-2.775	-2.8438	-2.9188	-2.6271	-3.3438	-2.9083	-2.6312	-3.1521	-2.85	-2.8521	-3.2667	-2.6854	-2.9375	-3.1042	64.155	75.279	175.102	233.288	37.259	189.085	139.709	182.231	187.709	184.226	218.217	212.576	-58.872	213.435	-62.731	212.992	0.00095296	0.00014892	0.00033291	1034.4	2.0258e-06	3.4802e-06	1343.1	278.99	1.2285e-05	1.0954e-05	453.03	178.78	103.25	48.685	5.847e-06	91.632	0.0005154	0.00050477	0.00017027	885.84	5.4447e-06	5.6713e-06	1111.3	232.57	5.4962e-06	5.7376e-06	376.38	147.84	86.419	40.775	6.7196e-06	75.216	-16.204	215.813	-25.781	-97.190	94.929	168.945	-97.990	-92.851	-34.679	86.052	-94.751	-89.332	-87.951	-82.970	98.461	-85.566	-8191	255	
1829.492	1	1	0	0	0.082269	0.10174	0.14685	0.11336	0.046681	0.038191	0.16537	0.26091	0.32012	0.18169	0.26599	0.48026	0.14475	0.29414	0.3857	0.32478	-2.075	-3.0875	-2.6833	-2.9062	-3.0312	-2.6125	-3.2417	-2.8229	-2.7396	-2.9979	-2.775	-2.7729	-3.1917	-2.625	-2.7521	-3.1188	-94.449	34.675	0.330	-57.240	-64.056	160.808	143.824	-110.621	-108.002	-5.423	215.455	222.373	206.848	191.468	-60.040	242.408	0.00095132	0.00047666	0.00015537	1032.3	1.1709e-05	6.1911e-06	1344.3	275.77	3.4656e-06	4.2254e-06	448.16	179.18	102.69	48.246	1.3311e-05	92.05	0.00051101	0.00055849	0.00016878	882.85	5.3293e-06	6.3705e-06	1109.8	230.05	5.5376e-06	6.4136e-06	374.21	147.85	85.73	40.653	6.6697e-06	75.947	-6.953	136.196	-78.348	-97.491	9.501	13.111	-97.866	-92.659	17.107	144.542	-94.025	-89.585	-87.892	-82.618	29.181	-85.505	-8191	255	
1829.589	1	1	0	0	0.27245	0.11627	0.12507	0.22603	0.12073	0.17371	0.36346	0.32706	0.15009	0.059464	0.12223	0.19008	0.08241	0.1228	0.11321	0.19115	-2.25	-2.9583	-2.7354	-2.5125	-2.9958	-2.7562	-2.8917	-3.2021	-2.6479	-2.9979	-2.9896	-2.6208	-2.9146	-2.9125	-2.7188	-3.1958	21.618	173.981	161.774	193.557	99.868	225.340	174.220	140.414	202.122	190.834	176.085	228.966	-102.785	187.289	80.419	118.220	0.00084947	0.00070888	0.00028537	1046.2	6.092e-06	5.8621e-06	1329	277.01	3.4444e-06	7.3798e-06	454.08	180.88	103.79	49.513	6.13e-06	93.862	0.00053658	0.000621	0.00016516	887.03	5.6402e-06	6.8515e-06	1103.6	230.16	5.8643e-06	7.0278e-06	376.56	149.54	86.748	41.663	6.3038e-06	77.081	1.293	-10.160	42.370	-98.118	64.388	22.903	-97.734	-93.059	-74.816	42.962	-94.130	-89.450	-87.791	-83.138	46.253	-85.729	-8191	255	
1829.685	1	1	0	0	0.04292	0.26376	0.088566	0.11521	0.16568	0.23284	0.088728	0.32954	0.15179	0.14752	0.16306	0.15543	0.23622	0.12593	0.11485	0.27805	-2.1729	-2.8937	-2.6854	-2.8375	-3.0833	-2.5708	-2.8688	-3.1937	-2.6979	-2.9688	-3.0083	-2.6583	-3.0479	-2.7104	-2.7375	-3.1771	216.808	226.788	86.647	-81.387	132.897	53.249	247.624	-96.422	241.707	84.366	3.948	-97.997	211.489	75.725	3.935	-108.833	0.0010291	0.0001609	0.00025215	1050.1	7.3345e-06	3.1186e-06	1344.3	278.53	1.4673e-05	7.7054e-06	459.36	180.45	103.4	48.909	7.3426e-06	90.844	0.00056381	0.00064613	0.0001554	877.33	6.0088e-06	7.0101e-06	1109.2	231.56	6.2288e-06	6.9847e-06	378.31	148.73	87.266	40.897	6.0463e-06	74.5	-15.994	-53.705	-80.218	-97.702	32.028	-83.761	-97.622	-92.559	47.641	30.783	-93.816	-89.315	-87.661	-82.661	-35.058	-85.713	-8191	255	
1829.781	1	1	0	0	0.21261	0.17588	0.051526	0.046955	0.070536	0.24534	0.41199	0.24311	0.066151	0.22813	0.16076	0.18801	0.1632	0.12411	0.028917	0.063443	-1.9417	-2.6667	-3.0667	-2.6167	-2.8438	-2.8812	-2.8563	-2.8729	-2.8354	-2.6292	-2.9313	-2.7938	-2.9271	-3.0771	-2.6771	-2.9542	170.826	116.322	91.227	-44.828	205.593	-3.127	203.473	216.607	100.524	9.193	199.047	-68.485	-86.234	-82.692	-79.519	-52.973	0.00085442	0.00057113	0.00013826	1039.9	1.6364e-06	1.0768e-05	1338.1	278.97	7.7277e-06	1.5095e-05	456.93	179.62	102.69	48.602	1.1261e-05	90.709	0.00060135	0.00061335	0.00014676	882.8	6.6589e-06	6.616e-06	1101.9	231.23	6.9159e-06	6.6473e-06	376.88	148.12	87.43	40.703	5.8751e-06	74.918	10.953	-48.246	-18.203	-97.691	130.291	21.617	-98.232	-92.680	-68.448	73.441	-94.173	-89.532	-87.566	-82.600	17.360	-85.449	-8191	255	
1829.902	1	1	0	0	0.095896	0.33454	0.22265	0.092295	0.10887	0.22082	0.17842	0.085481	0.10284	0.21386	0.18051	0.1414	0.10235	0.17074	0.21591	0.14851	-2.4354	-2.8563	-3.1167	-2.7062	-2.75	-2.9875	-2.5375	-3.2896	-2.8375	-2.6792	-3.2313	-2.725	-2.9479	-3.1021	-2.5083	-3.1	-9.698	-85.784	111.176	117.627	226.544	134.312	225.476	-88.609	-16.123	-38.834	165.452	172.559	58.352	138.180	-49.898	-5.812	0.00079346	0.0011861	0.0003155	1033.1	5.7149e-06	1.1056e-05	1335.1	276.43	8.7025e-06	1.6956e-05	455.79	179.78	103.45	48.666	8.2054e-06	92.393	0.00065104	0.0005968	0.00014504	884.43	7.1247e-06	6.3156e-06	1100.1	231.74	7.2629e-06	6.3862e-06	376.51	149.55	87.816	40.849	5.9181e-06	76.472	10.062	-37.789	-28.870	-97.854	38.659	-5.155	-98.161	-92.624	130.184	-6.317	-94.129	-89.736	-88.165	-82.740	104.243	-85.863	-8191	255	
1829.973	1	1	0	0	0.13714	0.14839	0.10159	0.15428	0.27925	0.13059	0.28266	0.28018	0.10144	0.0028239	0.046162	0.036299	0.25683	0.050582	0.029301	0.15726	-2.1167	-2.675	-3.2479	-2.5271	-2.9229	-3.1208	-2.7583	-3.2375	-2.8208	-2.7729	-3.1708	-2.8208	-3.0167	-2.9104	-2.3833	-3.1646	-96.092	-81.904	-88.209	-23.921	-5.392	204.477	193.875	194.833	-31.950	176.117	191.350	131.541	143.746	-107.702	173.372	165.606	0.00088543	0.0011408	0.00011072	1039.3	9.9859e-06	4.9554e-06	1325.4	275.26	1.5836e-05	8.6358e-06	453.26	178.8	102.03	48.846	1.8127e-05	92.763	0.00067285	0.000591	0.00014462	896.91	7.2979e-06	6.2537e-06	1096.8	230.81	7.2794e-06	6.4537e-06	374.27	149.12	86.909	40.878	6.1014e-06	77.076	6.617	24.314	-19.754	-97.952	121.411	-38.816	-98.054	-92.834	17.765	70.913	-94.036	-89.327	-87.942	-82.810	29.995	-85.587	-8191	255	
1830.069	1	1	0	0	0.27417	0.10948	0.1425	0.23811	0.055988	0.17066	0.24328	0.15611	0.21628	0.10509	0.095476	0.15152	0.21302	0.060337	0.25482	0.3042	-2.3396	-2.5979	-2.8604	-2.7229	-2.8833	-2.9688	-2.6417	-3.0521	-2.6937	-2.5021	-3.2708	-2.9458	-2.9542	-3.1021	-2.4792	-3.0479	22.078	-10.034	37.389	184.660	161.138	60.221	145.869	171.116	42.076	126.564	149.140	230.287	-65.052	232.998	-28.064	195.290	0.00060108	0.0013736	0.00017953	1014.8	1.7974e-05	1.1933e-05	1313.4	276.54	5.5661e-06	1.366e-05	451.95	176.56	101.17	47.453	5.6515e-06	89.486	0.0006455	0.0005768	0.00015065	893.99	6.8308e-06	6.0422e-06	1089.3	230.2	6.7994e-06	6.1544e-06	374.17	147.34	85.568	39.836	6.4261e-06	74.49	-10.907	23.462	-38.302	-98.438	81.198	33.561	-97.922	-92.899	-12.806	-35.232	-94.187	-89.773	-88.029	-82.704	154.831	-85.370	-8191	255	
1830.166	1	1	0	0	0.079431	0.30339	0.18413	0.33894	0.17534	0.093547	0.059778	0.46387	0.31764	0.27457	0.22592	0.37841	0.25114	0.23479	0.20247	0.084958	-2.4667	-2.4958	-3.1312	-2.6188	-2.7667	-3.2438	-2.6833	-3.1	-2.825	-2.6396	-3.0542	-2.8583	-2.7708	-3.2	-2.5333	-2.9437	57.200	-21.473	83.573	239.118	-49.111	24.880	223.521	191.502	166.032	163.041	169.165	239.341	217.767	199.884	93.171	-95.331	0.00067326	0.00069073	6.2787e-05	1013.8	6.4845e-06	4.4645e-06	1312.3	272.53	5.5334e-06	1.8671e-05	450.62	175.49	101.82	47.58	1.1446e-05	90.173	0.00059541	0.00056562	0.00016315	890.83	6.5167e-06	5.7837e-06	1084.2	229.15	6.3172e-06	6.0116e-06	374.22	146.5	85.615	39.809	7.1062e-06	74.945	15.324	-18.753	151.357	-98.076	61.356	114.870	-97.909	-93.096	150.700	14.124	-94.498	-89.539	-87.890	-82.445	-94.240	-85.476	-8191	255	
1830.284	1	1	0	0	0.043115	0.074069	0.20723	0.29024	0.30921	0.083303	0.40268	0.12348	0.2481	0.12393	0.23366	0.19372	0.16547	0.1677	0.17047	0.44131	-2.3396	-2.6729	-2.9125	-2.9479	-2.5854	-3.1188	-2.7729	-2.975	-3.0812	-2.6354	-2.9688	-3.0646	-2.8812	-3.1083	-2.5938	-2.9229	187.730	235.547	172.935	234.198	-35.735	113.205	191.635	166.069	-19.465	39.413	190.179	-77.444	170.666	-104.485	10.067	230.666	0.00083202	0.0013348	0.00016575	1021.4	1.0224e-05	5.017e-06	1318.7	276.2	2.0025e-05	2.547e-06	450.12	179.42	102.33	48.247	1.0522e-05	92.735	0.00058897	0.00055034	0.00018116	884.52	6.3518e-06	5.9167e-06	1093.3	230.69	6.1058e-06	6.117e-06	377.44	147.94	85.922	40.375	7.4473e-06	76.617	8.176	-95.530	-73.281	-98.206	23.153	-51.728	-97.992	-92.812	-21.202	113.272	-94.295	-89.649	-87.926	-82.839	29.632	-85.408	-8191	255	
1830.381	1	1	0	0	0.18717	0.10141	0.19026	0.020426	0.063037	0.18843	0.19025	0.32792	0.11825	0.11725	0.32294	0.074288	0.12738	0.21647	0.11238	0.31529	-2.5625	-2.4938	-2.7521	-2.9313	-2.3979	-2.9271	-2.8146	-2.6979	-3.0979	-2.6813	-3.0979	-3.0187	-2.6875	-3.1937	-2.7167	-2.875	122.550	233.628	-91.059	153.791	162.365	209.094	229.637	212.705	57.990	-82.821	218.650	194.129	103.971	172.246	-96.028	211.908	0.0010131	0.00093175	2.4095e-05	1012.4	2.2232e-06	9.8964e-06	1322.9	280.17	7.8751e-06	8.5383e-06	454.9	180.59	103.66	49.261	1.5025e-05	94.287	0.00057017	0.00058083	0.00019004	883.88	6.2399e-06	6.3636e-06	1098.3	233.29	5.8502e-06	6.7188e-06	381.17	149.4	86.588	41.252	7.2755e-06	77.731	-12.114	-47.842	147.163	-97.889	33.510	241.051	-97.815	-92.647	3.390	235.005	-94.015	-89.396	-88.000	-83.086	71.029	-84.977	-8191	255	
1830.477	1	1	0	0	0.13463	0.049751	0.18129	0.053238	0.084328	0.048595	0.17806	0.40798	0.032491	0.11728	0.20099	0.11037	0.2915	0.29247	0.18733	0.24388	-2.7188	-2.4083	-2.6271	-2.9437	-2.4521	-2.9646	-2.7875	-2.5187	-3.1542	-2.5062	-2.8333	-3.1	-2.5625	-3.2104	-2.6771	-2.7313	208.563	4.970	235.715	178.865	-14.278	111.960	132.080	182.750	226.734	136.756	-69.236	49.713	241.660	177.677	9.252	-89.274	0.0008717	0.00033657	0.00065989	1031.5	8.3398e-06	4.9652e-06	1334.9	278.94	1.0865e-05	2.3315e-06	455.92	178.47	102.57	48.889	1.0672e-05	92.837	0.00054853	0.00064073	0.00018641	885.33	5.9169e-06	6.7898e-06	1099.5	232.29	5.7913e-06	7.211e-06	379.52	148.24	86.092	41.16	6.979e-06	76.64	-9.813	12.313	-9.738	-97.920	125.321	200.020	-97.965	-92.470	-29.643	-86.770	-94.182	-89.804	-87.613	-82.388	28.734	-85.127	-8191	255	
1830.573	1	1	0	0	0.22944	0.19237	0.076326	0.047564	0.36676	0.064604	0.44902	0.032047	0.37399	0.11569	0.0041678	0.23903	0.19704	0.33747	0.10469	0.10785	-2.5	-2.6792	-2.6667	-2.9688	-2.4437	-2.9938	-3.0146	-2.5271	-2.9688	-2.7208	-2.6625	-3.2583	-2.6979	-3.175	-2.8729	-2.7333	101.618	-57.004	-16.727	141.471	229.735	197.931	175.995	-91.511	28.159	72.570	109.775	191.419	245.476	203.088	79.866	221.050	0.00062019	0.0015008	3.1145e-05	1031.1	6.0757e-06	9.6795e-06	1321.5	278.42	9.2632e-06	4.6349e-06	452.29	179.29	102.27	48.856	1.4516e-05	93.579	0.00055697	0.00067712	0.00017425	874.16	6.2367e-06	7.2993e-06	1095.1	232.07	6.1415e-06	7.5067e-06	379.18	148.09	86.495	41.223	6.3293e-06	76.815	-18.822	23.592	-43.643	-97.913	7.736	-51.052	-97.964	-92.890	-60.838	53.624	-93.918	-89.589	-87.758	-82.220	106.339	-85.686	-8191	255	
1830.669	1	1	0	0	0.11961	0.14805	0.2595	0.06505	0.12111	0.027374	0.15617	0.1383	0.27605	0.2513	0.19072	0.093266	0.19799	0.22189	0.15862	0.20164	-2.5583	-2.75	-2.5938	-3.0167	-2.7146	-2.8646	-3.25	-2.6646	-3.2083	-2.7062	-2.7146	-3.1667	-2.6792	-3.0104	-2.7167	-2.7292	-81.299	65.768	-40.853	48.008	214.202	92.889	-42.106	222.838	244.296	-67.621	205.048	-62.307	195.139	-52.161	-3.349	205.979	0.00084056	0.00064679	0.00030289	1027.8	7.1246e-06	1.1196e-05	1332.3	281.35	2.2001e-06	1.0426e-05	463.1	183.17	105.58	49.902	1.5717e-05	95.101	0.00058215	0.00067539	0.00016538	876.1	6.6361e-06	7.304e-06	1103	235.39	6.6706e-06	7.118e-06	384.42	150.58	88.783	41.87	6.2313e-06	78.184	17.492	1.524	-21.901	-97.474	-42.457	-10.667	-98.576	-92.822	-105.799	32.390	-94.214	-89.423	-87.946	-82.784	54.686	-85.381	-8191	255	
1830.765	1	1	0	0	0.10519	0.29749	0.048763	0.13191	0.15455	0.40586	0.33289	0.079468	0.21395	0.078825	0.28555	0.199	0.15389	0.21428	0.054844	0.31202	-2.6562	-2.5896	-2.6042	-2.9188	-2.7687	-2.7417	-3.1312	-2.6917	-2.9021	-2.6542	-2.7188	-3.2	-2.5208	-2.8479	-2.9854	-2.6521	221.735	-38.279	203.518	-99.194	56.602	65.152	129.761	40.980	112.133	-64.569	241.398	151.278	243.940	167.226	199.782	192.132	0.00084832	0.0014375	0.00020567	1024.3	8.0718e-06	5.9979e-06	1349.8	283.69	1.2954e-05	1.4587e-05	464.49	183.87	105.32	50.178	7.8996e-06	96.068	0.00064784	0.00063794	0.00016069	876.27	7.1103e-06	6.8643e-06	1115.3	237.09	7.1788e-06	6.8706e-06	388.11	151.84	89.407	42.232	5.944e-06	79.153	-1.834	11.794	-20.311	-98.329	71.098	-67.601	-97.900	-92.889	81.343	78.963	-94.305	-89.570	-87.961	-82.486	-62.395	-85.160	-8191	255	
1830.886	1	1	0	0	0.22135	0.20575	0.11596	0.1973	0.14655	0.14089	0.39705	0.13201	0.094845	0.10348	0.34677	0.2993	0.034717	0.082989	0.14039	0.35496	-2.625	-2.6958	-2.4875	-3.1146	-2.7708	-2.7042	-3.2	-2.5479	-2.925	-2.9813	-2.6458	-3.1292	-2.6479	-2.7604	-3.2	-2.5792	-74.647	-42.272	-90.612	122.644	99.995	49.799	172.644	-37.378	-40.535	74.980	170.200	214.235	-49.243	-23.393	47.432	160.083	0.001123	0.0016185	0.00035207	1032.5	5.4659e-06	9.9085e-06	1350.4	285.29	7.9593e-06	2.8844e-06	469.71	184.07	105.12	50.112	1.0669e-05	95.747	0.00068254	0.00059939	0.00015459	893.41	7.461e-06	6.556e-06	1113.7	238.83	7.1898e-06	6.27e-06	386.73	152.71	89.459	41.925	5.5858e-06	79	-6.270	-30.330	33.360	-98.425	132.074	29.552	-97.797	-93.249	-102.293	30.838	-94.167	-89.855	-87.922	-83.001	8.033	-85.521	-8191	255	
1830.982	1	1	0	0	0.34062	0.20144	0.17345	0.17125	0.25543	0.24696	0.13323	0.32879	0.22236	0.098506	0.15468	0.17006	0.27618	0.44015	0.221	0.51356	-2.4354	-2.9417	-2.5292	-2.8292	-2.8458	-2.6646	-3.2479	-2.6021	-2.8521	-3.0146	-2.8021	-3.1146	-2.8771	-2.8271	-3.1771	-2.8792	-66.441	181.404	3.548	107.699	-33.635	-105.242	-98.293	215.020	239.267	-99.580	59.934	214.007	-108.429	235.431	4.117	189.756	0.00098455	0.00089107	8.3961e-05	1041.4	1.1895e-05	5.5766e-06	1363.8	286.54	2.2893e-06	6.3027e-06	465.88	184.4	106.09	50.103	9.5158e-06	95.85	0.00064846	0.00053902	0.00014661	895.51	6.6603e-06	6.1668e-06	1116.3	239.22	6.8055e-06	5.908e-06	386.37	153.02	88.995	41.93	5.5407e-06	78.835	-6.579	17.052	-40.780	-97.404	28.550	16.347	-97.878	-92.658	190.204	-15.104	-94.230	-89.786	-88.091	-82.793	90.772	-85.265	-8191	255	
1831.076	1	1	0	0	0.24471	0.038509	0.26303	0.11631	0.11218	0.21664	0.24678	0.14248	0.26653	0.093286	0.34249	0.065491	0.20458	0.21217	0.33737	0.19725	-2.4583	-2.8396	-2.6104	-3.0792	-2.7625	-2.6937	-3.0875	-2.8312	-2.7521	-3.0938	-2.6729	-3.0354	-2.95	-2.6729	-3.0896	-2.8417	-88.097	47.250	47.818	111.313	-46.203	24.094	157.642	137.690	-45.582	8.025	207.546	188.124	201.425	-99.359	-75.243	201.619	0.00088467	0.00082763	0.00026477	1051.3	8.9696e-06	1.1909e-05	1353.6	285.9	1.5803e-05	1.9848e-05	468.89	184.34	106.15	50.229	1.4227e-05	95.928	0.00061129	0.00052714	0.00014736	909.5	6.324e-06	5.8201e-06	1118	239.15	6.4051e-06	5.7484e-06	388.39	153.17	88.734	41.816	6.2105e-06	79.342	-10.311	-33.722	171.359	-98.686	44.472	38.224	-97.902	-92.392	45.647	52.008	-94.320	-89.571	-87.825	-82.520	-17.285	-85.594	-8191	255	
1831.172	1	1	0	0	0.15287	0.23908	0.084692	0.05163	0.13568	0.039307	0.23432	0.39007	0.16922	0.12836	0.28917	0.20435	0.16818	0.33755	0.24778	0.39985	-2.3458	-2.9042	-2.5917	-2.8979	-2.8625	-2.6917	-3.1604	-2.7708	-2.6688	-2.9562	-2.7271	-3.0708	-3.0271	-2.9875	-2.9667	-2.8458	227.118	100.646	-30.894	20.179	139.003	195.543	193.565	182.952	235.568	-49.630	180.768	233.681	230.072	226.469	-3.212	217.931	0.00088089	0.001155	0.00021346	1047.4	2.0698e-06	1.0003e-05	1363.5	285.66	7.1186e-06	1.3714e-05	469.08	185.13	105.95	50.667	1.4185e-05	96.822	0.00057981	0.00051503	0.00016578	905.61	6.1262e-06	5.8025e-06	1122.3	238.8	6.1795e-06	5.7055e-06	389.95	153.34	88.845	41.997	6.7453e-06	79.554	-1.533	-33.016	-58.439	-98.178	37.447	68.673	-98.214	-92.728	-13.459	17.791	-94.050	-89.702	-88.251	-82.894	214.025	-85.553	-8191	255	
1831.269	1	1	0	0	0.13676	0.2208	0.18046	0.02824	0.34579	0.11601	0.14504	0.1085	0.12254	0.099401	0.1542	0.41542	0.23122	0.20471	0.040934	0.23384	-2.1667	-3.0083	-2.6083	-2.8167	-3.0062	-2.3729	-3.2354	-2.8604	-2.6833	-3.0333	-2.8896	-2.8604	-3.1833	-2.5812	-2.9333	-2.9542	-15.906	-15.268	-106.241	153.566	-68.387	-34.156	198.411	216.386	71.894	21.949	224.458	191.519	-78.899	200.054	-91.925	186.254	0.00088249	0.00086741	0.00030675	1056.7	8.7912e-06	5.0715e-06	1358	283.37	6.1684e-06	4.1286e-06	464.11	183.59	104.19	49.329	8.3307e-06	93.363	0.00056546	0.00051745	0.00017385	904.79	5.9684e-06	5.8346e-06	1126.1	237.24	5.9269e-06	5.8264e-06	387.75	151.35	87.542	41.281	6.9776e-06	77.018	10.096	-66.927	7.535	-97.748	73.208	14.078	-97.954	-92.872	65.918	-90.443	-94.176	-89.316	-88.041	-82.485	45.520	-85.316	-8191	255	
1831.365	1	1	0	0	0.22848	0.14106	0.059419	0.22378	0.10617	0.45236	0.055046	0.50147	0.17481	0.21305	0.12851	0.24817	0.16631	0.17999	0.10288	0.24651	-2.3167	-2.925	-2.9479	-2.7104	-2.9604	-2.6188	-3.2396	-2.8021	-2.5417	-2.8604	-2.9167	-2.7417	-3.1063	-2.5854	-2.8083	-2.9125	67.365	173.696	128.218	-85.532	136.174	26.792	72.380	-101.485	109.900	132.194	113.435	-104.206	-86.801	-99.216	36.588	-101.890	0.00066596	0.00042514	0.00022238	1040.8	1.3648e-05	7.4665e-07	1351.1	281.67	4.497e-06	6.7051e-06	463.56	183.28	104.01	49.273	8.11e-06	93.361	0.00055251	0.00055473	0.00018238	885.94	5.5817e-06	6.4589e-06	1117.7	234.97	5.7471e-06	6.3086e-06	385.82	150.72	86.869	41.189	6.9305e-06	76.959	-9.937	126.393	-29.726	-97.893	42.876	-58.817	-98.329	-92.504	-67.616	-44.567	-93.846	-89.296	-88.220	-82.940	-48.901	-85.641	-8191	255	
1831.461	1	1	0	0	0.064625	0.019796	0.16715	0.13524	0.12976	0.090641	0.14657	0.18296	0.16038	0.15789	0.28162	0.31541	0.23389	0.25032	0.12211	0.27686	-2.1958	-2.9	-2.6312	-2.5396	-3.0958	-2.4917	-3.0521	-2.8958	-2.6292	-2.9667	-2.7854	-2.6312	-3.2083	-2.675	-2.8187	-3.1896	-49.418	68.839	-83.183	-4.390	96.228	237.181	205.840	109.664	143.029	-65.085	204.997	237.184	191.241	210.955	20.030	138.970	0.00056394	0.00095341	0.00027705	1047	4.9247e-06	1.1725e-05	1350.1	284.33	2.2652e-06	5.3426e-06	462.97	183.04	104.03	49.737	1.536e-05	95.005	0.00053018	0.00060346	0.0001749	887.77	5.5453e-06	6.9419e-06	1120	235.59	5.7479e-06	6.7719e-06	384.63	151.07	87.568	41.834	6.4808e-06	78.191	1.472	129.874	-6.914	-98.369	2.826	79.329	-97.677	-92.830	85.719	67.595	-93.973	-89.973	-87.991	-82.736	8.740	-85.812	-8191	255	
1831.557	1	1	0	0	0.26096	0.21894	0.079093	0.071124	0.1248	0.24486	0.19999	0.12816	0.076646	0.12567	0.0068339	0.16541	0.19014	0.090071	0.16389	0.15358	-2.0062	-2.7604	-2.7792	-2.5958	-3.0292	-2.7	-2.875	-2.9938	-2.4958	-2.9458	-2.8875	-2.7521	-2.9521	-2.8479	-2.7062	-3.1479	163.653	2.014	90.624	81.961	204.404	111.672	191.182	168.014	214.845	11.365	153.172	165.447	155.115	158.624	-1.158	173.399	0.00071228	0.0011696	0.00026773	1047.9	3.3073e-06	5.1527e-06	1355	285.05	1.4244e-05	9.1028e-06	472.3	185.36	105.59	50.539	5.5879e-06	95.999	0.00053965	0.00064334	0.00015987	891.84	5.8707e-06	6.9836e-06	1124.6	237.5	6.1357e-06	7.0409e-06	389.93	152.95	89.132	42.313	6.1774e-06	78.966	-0.449	42.245	-23.005	-98.333	56.885	41.303	-97.957	-93.015	-27.123	-46.217	-94.198	-89.596	-88.041	-82.688	12.521	-85.519	-8191	255	
1831.678	1	1	0	0	0.1594	0.1474	0.11228	0.1822	0.11526	0.28183	0.21685	0.19045	0.091412	0.29983	0.32035	0.24966	0.1815	0.20974	0.060985	0.14577	-2.1292	-2.7917	-2.7125	-2.6479	-2.8583	-2.9396	-2.7958	-3.2104	-2.7438	-2.7833	-3.2354	-2.6604	-2.9146	-2.8271	-2.8104	-3.1312	247.221	46.586	-101.214	-7.898	-107.936	221.690	162.454	111.615	134.044	47.663	-84.512	192.683	247.311	224.493	-93.587	191.724	0.001175	0.00041657	0.00030257	1049	6.8858e-06	1.1438e-05	1370.5	288.34	1.8648e-06	8.4502e-06	471.29	184.42	106.42	49.161	2.1986e-06	91.87	0.00059412	0.00064076	0.00015446	890.24	6.4252e-06	6.8778e-06	1130.7	239.37	6.7111e-06	6.8771e-06	389.89	151.93	89.65	41.373	5.8754e-06	75.561	-33.516	11.870	48.742	-97.771	154.308	61.267	-98.200	-92.700	170.659	60.229	-93.979	-89.456	-87.735	-83.022	86.543	-85.603	-8191	255	
1831.774	1	1	0	0	0.13193	0.11259	0.049122	0.16766	0.053143	0.24929	0.17205	0.26479	0.16897	0.23916	0.33998	0.1916	0.050871	0.030552	0.29207	0.17265	-2.2875	-2.6604	-3.0312	-2.6375	-2.9396	-2.7188	-2.8417	-3.0646	-2.6937	-2.8021	-3.0917	-2.7271	-3.1	-3.0542	-2.4375	-3.2667	201.474	-19.920	140.213	-85.557	81.011	-104.899	244.494	230.321	25.381	-101.230	192.030	241.779	-100.884	-22.099	148.739	221.395	0.00070352	0.00090613	0.00034292	1058.1	6.816e-06	2.0876e-05	1359.7	289.74	5.6383e-06	1.3623e-05	466.53	183.29	106.24	48.847	1.5914e-05	90.843	0.00063105	0.00060663	0.00014399	894.12	6.7735e-06	6.398e-06	1121.8	239.74	6.9141e-06	6.3676e-06	385.39	151.33	89.684	40.914	5.6341e-06	74.806	-29.238	-23.169	14.940	-98.289	144.619	70.642	-98.144	-93.136	230.863	53.837	-94.228	-89.575	-87.570	-82.653	39.325	-85.417	-8191	255	
1831.846	1	1	0	0	0.24245	0.26342	0.14255	0.2262	0.30076	0.42511	0.15797	0.18438	0.16414	0.24124	0.22486	0.18294	0.15141	0.29947	0.26953	0.30052	-2.1437	-2.6771	-3.0938	-2.55	-2.8812	-3.0708	-2.6667	-3.0938	-2.5979	-2.7	-3.2333	-2.7896	-2.9458	-3.0979	-2.5333	-3.2188	232.928	156.073	175.531	157.197	-44.115	241.623	202.549	-102.301	196.764	108.618	-102.913	198.235	158.299	192.801	-52.529	146.428	0.00051284	0.00057078	0.00039205	1051.4	5.3276e-06	4.1344e-06	1366.7	288.88	1.1561e-05	1.7352e-06	469.66	183.62	106.74	49.231	1.354e-05	91.985	0.0006567	0.00057653	0.00014257	895.26	7.0095e-06	6.1155e-06	1122.8	240.41	7.02e-06	6.188e-06	387.95	152.19	89.949	41.27	5.5579e-06	76.132	-10.334	-49.329	-55.183	-97.547	114.648	-54.416	-98.103	-92.968	136.228	29.647	-94.658	-89.488	-88.013	-82.752	-3.932	-85.662	-8191	255	
1831.966	1	1	0	0	0.11304	0.43741	0.10847	0.20881	0.11012	0.23481	0.33473	0.46247	0.16881	0.012046	0.0092302	0.31293	0.39013	0.0067876	0.049862	0.20154	-2.275	-2.6417	-3.0812	-2.6625	-2.8708	-2.8958	-2.7042	-2.8625	-2.7604	-2.6542	-3.2479	-2.8896	-2.9542	-3.1792	-2.5479	-2.975	59.604	-35.109	169.385	218.795	-72.445	-34.789	197.254	-75.658	167.379	182.568	212.834	236.650	237.119	-98.192	-44.091	246.211	0.00077322	0.0010222	0.00027105	1039.1	5.5615e-06	3.9316e-06	1364	290.16	7.2644e-06	9.4884e-06	470.06	183.41	106.82	50.081	1.1278e-05	93.858	0.00062404	0.00054686	0.0001433	902.84	6.773e-06	5.8741e-06	1123.4	241.74	6.6808e-06	5.8853e-06	388.44	152.92	90.03	41.66	5.8584e-06	77.804	15.505	-23.040	8.413	-97.583	-68.025	16.343	-97.794	-92.945	-11.016	71.573	-94.136	-89.537	-88.003	-82.935	-92.473	-85.513	-8191	255	
1832.062	1	1	0	0	0.20837	0.075742	0.024793	0.19211	0.19377	0.05993	0.28215	0.1826	0.30641	0.21713	0.24983	0.21505	0.34878	0.053751	0.13318	0.29316	-2.5187	-2.6708	-2.8521	-2.7667	-2.9	-3.0458	-2.775	-3.0083	-2.9938	-2.7542	-3.1375	-2.6917	-3.0354	-2.9875	-2.7188	-2.9813	114.500	174.334	-77.647	104.315	-81.510	209.567	188.807	-80.140	0.497	212.808	136.841	214.198	-107.186	201.833	187.642	170.129	0.00088047	0.00011403	0.00015977	1060.5	5.0348e-06	1.239e-05	1364.5	290.21	1.1701e-05	9.8525e-06	473.56	183.81	106.03	49.053	2.2477e-06	91.564	0.00059421	0.00054157	0.0001502	914.79	6.3908e-06	5.6545e-06	1125.9	242.49	6.2241e-06	5.6912e-06	390.95	152.74	89.264	40.877	6.4434e-06	75.603	-7.126	117.613	15.124	-97.259	35.252	-5.171	-98.112	-92.962	-19.220	24.840	-94.222	-90.120	-88.315	-83.078	-92.635	-85.788	-8191	255	
1832.158	1	1	0	0	0.073278	0.090732	0.19533	0.24311	0.29518	0.28895	0.24863	0.30429	0.096377	0.1407	0.1673	0.23412	0.25323	0.12834	0.15924	0.052572	-2.6208	-2.5583	-3.1	-2.5854	-2.8312	-3.2646	-2.7396	-2.9792	-2.9771	-2.6063	-2.9688	-2.8646	-2.8271	-3.0167	-2.6437	-3.0021	37.140	-62.090	15.502	201.193	245.271	-29.498	125.654	216.481	-110.781	10.329	211.375	195.792	158.882	197.550	-31.490	0.602	0.00096122	0.0011262	0.00011252	1050.9	1.5765e-05	9.9575e-06	1358.8	290.07	1.8873e-05	1.6333e-05	471.26	183.44	107.22	48.98	4.7586e-06	90.154	0.00055686	0.00050506	0.00016248	902.94	5.9602e-06	5.4188e-06	1123.5	241.78	5.7778e-06	5.5809e-06	390.8	151.67	89.37	40.769	6.6417e-06	74.956	9.773	-29.541	-86.349	-97.548	52.132	-2.316	-97.850	-92.868	12.481	79.724	-93.853	-89.729	-87.942	-82.643	-84.332	-85.630	-8191	255	
1832.255	1	1	0	0	0.21053	0.27651	0.095763	0.20386	0.11621	0.12063	0.20993	0.34313	0.22673	0.05525	0.10953	0.24252	0.10032	0.21183	0.22504	0.17919	-2.6937	-2.5229	-2.9583	-2.8292	-2.7604	-3.0021	-3.0771	-2.7604	-3.0333	-2.6188	-2.9833	-3	-2.7708	-3.1	-2.8958	-3.0062	-96.015	201.917	224.054	80.101	-38.905	-3.881	213.363	217.633	-41.847	-86.693	175.707	-67.048	-109.721	232.521	35.583	238.967	0.00087576	0.00085495	0.00033872	1054.1	5.0848e-06	7.2974e-06	1361.9	288.44	1.7228e-05	6.5498e-06	466.97	184.27	105.66	49.327	1.1447e-05	92.085	0.00052878	0.00051331	0.00017321	897.33	5.7407e-06	5.6187e-06	1124.5	239.94	5.6057e-06	5.8534e-06	388.44	151.69	88.863	41.21	6.891e-06	75.648	-0.973	59.061	-40.513	-98.186	24.590	68.297	-97.835	-92.724	-47.846	-30.835	-94.180	-89.644	-88.024	-82.710	-27.874	-85.873	-8191	255	
1832.373	1	1	0	0	0.14543	0.13484	0.15765	0.28635	0.31094	0.19094	0.17186	0.13609	0.059975	0.19204	0.18091	0.46643	0.24301	0.22934	0.1495	0.32023	-2.5708	-2.5292	-2.975	-2.8604	-2.6625	-3.0604	-2.9729	-2.7313	-2.9583	-2.5667	-2.9625	-3.0292	-2.7333	-3.2229	-2.8792	-2.6854	221.920	-29.300	-93.061	227.588	46.723	189.584	223.547	176.933	-53.249	119.246	62.689	211.815	199.206	169.672	-61.687	222.113	0.0010074	0.00050543	0.00035123	1054	6.2511e-06	1.364e-05	1370.6	288.26	9.3179e-06	5.7969e-06	470.66	183.8	107.04	50.014	1.1648e-05	94.165	0.00051469	0.00055827	0.00017396	891.95	5.5612e-06	6.053e-06	1129	239.35	5.4515e-06	6.3957e-06	390.92	151.69	89.123	41.909	6.6375e-06	77.566	-7.612	208.226	1.458	-97.380	44.741	115.507	-98.078	-92.995	0.283	204.963	-94.055	-89.644	-87.798	-83.043	51.214	-85.572	-8191	255	
1832.470	1	1	0	0	0.17271	0.39914	0.23403	0.11086	0.18085	0.080326	0.17702	0.18215	0.089593	0.10452	0.11083	0.25842	0.12036	0.39872	0.097383	0.23232	-2.7979	-2.6104	-2.9208	-2.9875	-2.6542	-3.1875	-2.9917	-2.7521	-3.0938	-2.5667	-3.0771	-3.2896	-2.3979	-3.1521	-2.8729	-2.7417	-10.534	-38.706	202.847	-69.384	117.912	-12.656	189.208	139.213	56.751	125.379	119.792	163.046	180.480	236.707	146.377	199.130	0.00099698	0.00046348	0.00016868	1059.6	1.8088e-06	1.6093e-05	1365.1	288.14	1.0035e-05	2.5761e-06	469.9	184.23	105.94	49.184	8.3744e-06	91.45	0.00051893	0.00061375	0.00017027	895.9	5.609e-06	6.6279e-06	1125.7	239.2	5.4942e-06	6.8095e-06	389.17	151.88	88.62	41.182	6.0413e-06	75.387	-7.690	31.494	8.587	-98.219	95.438	-15.508	-98.194	-92.856	18.778	19.468	-94.290	-89.541	-87.936	-82.760	78.378	-85.672	-8191	255	
1832.566	1	1	0	0	0.41179	0.16954	0.13223	0.31601	0.17203	0.040454	0.22259	0.079929	0.20256	0.15027	0.35532	0.16925	0.24533	0.277	0.17361	0.19864	-2.7479	-2.725	-2.7708	-3.0354	-2.8021	-2.9375	-3	-2.625	-3.2021	-2.8187	-3.0354	-3.375	-2.625	-2.8771	-3.1562	-2.8083	60.240	40.366	238.459	158.619	-52.636	42.591	157.075	25.234	78.982	245.943	237.731	189.101	-94.293	113.950	-87.766	-83.747	0.00073551	0.00046915	0.00017384	1044.4	5.22e-06	2.3264e-05	1365.7	285.9	1.6293e-05	8.2005e-06	462.02	180.9	104.82	48.666	1.51e-06	91.001	0.00053767	0.000634	0.00015655	884.78	5.9924e-06	6.9072e-06	1121.2	237.34	6.0533e-06	6.9207e-06	384.89	149.24	88.115	40.9	5.9805e-06	75.061	6.020	-91.641	-5.926	-97.875	-84.842	33.392	-98.158	-92.951	-8.547	30.151	-93.800	-89.316	-87.984	-82.881	8.832	-85.689	-8191	255	
1832.662	1	1	0	0	0.30705	0.17046	0.075738	0.15351	0.11703	0.22299	0.23475	0.31834	0.062794	0.061452	0.12807	0.34253	0.075487	0.22111	0.033786	0.12154	-2.5354	-2.7229	-2.8688	-2.9188	-2.6813	-3.0771	-3.0896	-2.7188	-3.1	-2.8021	-2.5167	-3.25	-2.6583	-2.8688	-2.9729	-2.5583	175.996	-96.339	100.924	-32.803	197.358	205.421	193.516	197.297	232.375	109.641	-61.023	203.242	84.751	70.771	139.416	176.670	0.00088654	0.0011858	0.00023129	1039.1	7.5226e-06	7.614e-06	1357.3	285.91	1.0667e-05	1.4506e-05	465.09	181.9	104.79	49.208	1.1807e-05	93.021	0.00059256	0.00062076	0.00015343	876.67	6.65e-06	6.733e-06	1115.7	236.57	6.6375e-06	6.5123e-06	384.42	150.27	88.627	41.229	5.6802e-06	76.245	-17.157	-9.049	59.639	-98.324	125.130	245.130	-98.325	-92.749	-34.191	12.917	-94.635	-89.531	-87.927	-82.547	45.240	-85.599	-8191	255	
1832.758	1	1	0	0	0.12092	0.010158	0.067429	0.30172	0.08148	0.067502	0.26763	0.26224	0.13394	0.083423	0.11737	0.1397	0.17026	0.022803	0.22098	0.18307	-2.6854	-2.8479	-2.4542	-3.0875	-2.7313	-2.7729	-3.25	-2.8063	-2.9021	-2.8042	-2.5417	-3.2021	-2.6729	-2.5896	-3.1333	-2.9521	125.695	-68.915	192.731	212.905	186.130	-64.063	226.536	-95.547	-107.466	115.677	-41.997	91.073	-75.705	-39.808	167.284	174.776	0.00057049	0.0017461	9.4142e-05	1047.3	9.1128e-07	9.4021e-06	1352.2	284.46	1.1003e-05	7.1229e-06	470.31	184.51	105.45	49.607	3.5162e-06	94.376	0.00063061	0.00059079	0.00014475	886.5	7.0061e-06	6.3138e-06	1118.8	238.42	6.916e-06	6.0667e-06	386.74	151.54	89.049	41.624	5.5558e-06	78.065	-7.947	-24.637	-50.229	-98.192	-110.404	2.651	-98.206	-92.914	-42.287	32.555	-94.032	-89.598	-88.363	-82.671	-60.354	-85.815	-8191	255	
1832.854	1	1	0	0	0.17637	0.096282	0.054848	0.11528	0.13094	0.10451	0.27374	0.052739	0.19185	0.16822	0.11933	0.21456	0.32696	0.096169	0.079583	0.3334	-2.2729	-2.7687	-2.5458	-2.9188	-2.8667	-2.7062	-3.275	-2.7354	-2.7917	-2.7188	-2.8146	-3.2438	-2.6854	-2.8042	-3.05	-2.8271	-36.303	52.138	158.371	128.305	-95.068	83.971	195.662	-53.434	-108.726	-1.210	22.617	183.386	199.266	178.504	50.372	165.599	0.00086488	0.0015814	6.838e-05	1045.7	6.5044e-06	1.0528e-05	1358.9	288.02	1.4813e-05	4.1372e-06	467.1	184.92	104.84	48.792	3.4824e-06	91.942	0.00064692	0.00055172	0.00014253	894.36	6.9095e-06	6.0332e-06	1121.4	239.42	6.7921e-06	5.8375e-06	385.47	152.51	88.674	40.979	5.5085e-06	76.202	16.830	-39.097	-53.672	-98.278	-53.270	51.340	-97.892	-93.048	97.624	50.644	-94.116	-89.883	-88.049	-82.516	-31.746	-85.734	-8191	255	
1832.975	1	1	0	0	0.15245	0.1124	0.12803	0.027575	0.17829	0.18805	0.3159	0.069682	0.10117	0.056942	0.19972	0.37288	0.19525	0.22946	0.2472	0.21981	-2.525	-3.0896	-2.5146	-2.975	-2.775	-2.7458	-3.2021	-2.8479	-2.95	-3.0792	-2.6104	-3.0958	-2.8625	-2.6125	-3.2396	-2.8354	240.280	-2.423	-46.968	221.301	238.625	2.566	225.216	-68.022	-76.948	61.762	219.324	182.077	133.909	221.413	223.817	3.586	0.00098342	0.0012162	0.00031009	1052.5	8.94e-06	5.458e-06	1359.3	285.71	5.538e-06	1.2367e-05	462.38	182.09	104.36	48.592	3.049e-06	91.455	0.00061947	0.00053103	0.00014504	907.49	6.4683e-06	5.8751e-06	1118.5	238.55	6.4828e-06	5.6303e-06	382.98	150.16	87.587	40.604	5.8971e-06	75.653	-7.791	-73.144	-36.346	-97.844	43.425	22.553	-98.000	-92.365	23.949	24.934	-94.258	-89.901	-87.954	-82.761	-50.402	-85.834	-8191	255	
1833.069	1	1	0	0	0.10344	0.12117	0.18793	0.31744	0.12487	0.16014	0.068731	0.21684	0.090206	0.089713	0.37538	0.24752	0.26974	0.13683	0.10615	0.088859	-2.3	-3.0021	-2.6875	-2.9229	-3.0812	-2.6333	-3.2208	-2.9521	-2.9375	-3.0563	-2.8208	-3.0125	-2.9958	-2.7875	-2.9146	-2.9042	206.369	175.697	-47.445	206.216	12.142	196.856	129.675	129.342	241.958	-52.580	215.803	206.542	-30.248	-65.936	110.964	210.589	0.0010155	0.00063458	0.00015195	1049.5	8.8807e-06	3.9878e-06	1353.8	281.95	1.2316e-05	3.4969e-06	464.66	181.79	104.7	48.588	1.8228e-06	92.403	0.00058179	0.0005103	0.00015457	903.09	6.109e-06	5.5342e-06	1115.4	236.79	6.1441e-06	5.4683e-06	383.53	150.4	87.569	40.632	6.3481e-06	76.246	-18.607	47.500	139.980	-97.047	-29.707	135.373	-98.251	-92.749	215.695	91.809	-94.095	-89.629	-88.123	-82.743	125.100	-85.854	-8191	255	
1833.143	1	1	0	0	0.073992	0.11511	0.043855	0.12589	0.20555	0.25495	0.22909	0.20665	0.047893	0.088711	0.085143	0.27097	0.40587	0.044259	0.057455	0.275	-2.3333	-2.9979	-2.6063	-2.8729	-2.8917	-2.7896	-3.5	-2.7771	-2.725	-3.1125	-2.8	-2.9229	-3.0125	-2.8167	-2.95	-2.9562	-7.029	23.749	-92.176	-84.117	89.637	-83.792	232.844	112.095	-76.960	190.611	-80.213	237.771	236.407	-80.559	-77.086	-107.094	0.00043977	0.00059041	0.00014743	1054.1	1.1961e-05	9.8789e-06	1353.2	283.16	1.0194e-05	7.3018e-06	462.23	181.63	104.41	48.813	2.3557e-06	93.794	0.00054503	0.00051047	0.0001671	898.58	5.9034e-06	5.5207e-06	1120.1	236.22	5.9235e-06	5.5197e-06	384.69	150.81	87.648	40.975	6.9639e-06	77.457	-5.260	-53.628	-80.146	-98.090	59.665	17.671	-98.172	-92.650	-31.835	78.391	-94.079	-89.453	-87.747	-82.945	134.719	-85.537	-8191	255	
1833.239	1	1	0	0	0.050344	0.25506	0.12025	0.22154	0.21412	0.058607	0.097818	0.10942	0.19292	0.51804	0.32533	0.20942	0.058038	0.12583	0.24712	0.27407	-2.1417	-3.1437	-2.7521	-2.7021	-2.8812	-2.6854	-3.0708	-2.9375	-2.7979	-3.0021	-2.9646	-3.0062	-3.1333	-2.6354	-3.0458	-3.1104	-85.834	226.894	-66.366	-19.525	-85.702	-56.026	-84.574	181.507	32.490	225.474	164.702	181.656	-93.770	201.821	37.185	190.892	0.00085583	7.8672e-05	0.00029838	1036.7	1.5487e-05	1.1722e-05	1361.5	280.48	6.1527e-06	7.2642e-06	463.99	181.64	103.58	48.588	1.3727e-05	92.255	0.00053947	0.00052185	0.00017791	891.63	5.6771e-06	5.8925e-06	1122.1	234.92	5.6936e-06	5.9656e-06	385.2	150.42	86.564	40.81	6.7828e-06	75.911	10.382	-24.539	-64.623	-97.930	82.160	184.681	-98.088	-92.251	-0.459	91.060	-94.068	-89.614	-88.131	-82.847	48.668	-86.086	-8191	255	
1833.358	1	1	0	0	0.20666	0.079138	0.13408	0.15548	0.13155	0.12632	0.2218	0.15063	0.19691	0.17959	0.18297	0.18179	0.044971	0.14586	0.13639	0.086563	-2.2979	-3.0062	-2.6417	-2.7562	-3.1375	-2.5312	-3.3042	-3.1458	-2.5458	-3.1542	-3.0083	-2.8688	-3.0438	-2.6667	-3.0229	-3.1708	51.607	-54.612	12.172	229.699	190.627	194.042	183.720	155.414	242.168	231.937	223.619	234.263	48.714	78.054	207.894	166.270	0.00071396	6.6328e-05	0.00032069	1035.3	1.2174e-05	5.7039e-06	1347.4	278.55	5.2181e-06	8.7818e-06	456.81	179.52	102.4	48.315	9.9281e-06	91.125	0.00051434	0.00057123	0.00017475	888.59	5.3793e-06	6.4631e-06	1113.9	233.03	5.5779e-06	6.5045e-06	379.71	148.21	85.718	40.566	6.705e-06	75.103	-21.994	-91.788	-58.640	-97.680	66.943	48.704	-97.899	-93.027	196.980	163.353	-93.943	-89.557	-88.136	-83.097	102.024	-85.872	-8191	255	
1833.454	1	1	0	0	0.129	0.16806	0.062723	0.05398	0.26166	0.14899	0.27006	0.22041	0.065422	0.13484	0.1986	0.3487	0.17273	0.29349	0.17471	0.12324	-2.2583	-2.7479	-2.625	-2.8563	-3.1583	-2.7625	-3.0292	-3.025	-2.7021	-3.025	-2.8438	-2.7396	-3.2687	-2.8646	-2.9625	-3.2146	-1.318	53.387	6.471	-104.472	199.252	-46.904	213.491	209.442	13.827	-1.996	161.897	195.414	185.548	214.678	88.963	166.217	0.00096177	0.00078914	0.00010019	1026.8	5.8366e-06	6.3147e-06	1340.4	276.17	1.3056e-05	9.4121e-06	457.56	178.97	102.4	48.27	9.5814e-06	92.504	0.0005402	0.00062175	0.00016751	879.83	5.7746e-06	7.1319e-06	1107.2	230.22	5.9521e-06	7.0727e-06	378.77	147.9	85.959	40.685	6.444e-06	76.321	-4.901	181.800	-50.440	-98.173	87.739	172.425	-97.985	-92.576	-81.718	-4.316	-94.318	-89.614	-87.499	-83.045	57.754	-85.369	-8191	255	
1833.550	1	1	0	0	0.24787	0.11898	0.17728	0.052635	0.12111	0.14858	0.039306	0.13154	0.23015	0.10822	0.13336	0.33034	0.27798	0.040356	0.19684	0.17399	-2.2208	-2.9146	-3.0062	-2.4188	-3.1458	-2.9354	-2.9562	-3.2667	-2.7479	-2.8312	-3.2083	-2.5062	-3.2125	-2.8396	-2.8812	-3.0833	-93.293	5.562	196.404	244.178	-70.715	-12.294	-105.385	121.075	-78.306	238.861	-107.230	227.230	228.109	-46.042	125.604	108.647	0.000725	0.00079754	0.00025279	1030.2	9.439e-06	7.9629e-06	1353.6	279.56	4.4546e-06	5.4132e-06	459.36	180.21	103.02	48.988	3.0208e-06	93.831	0.00055688	0.00064739	0.00015516	874.13	6.1911e-06	6.9386e-06	1113.1	232.36	6.3642e-06	7.0118e-06	379.78	149.14	86.912	41.113	6.0738e-06	77.202	8.198	28.349	-55.068	-97.809	49.407	-50.758	-98.184	-92.694	203.240	-12.315	-94.033	-89.722	-87.958	-82.586	2.512	-85.862	-8191	255	
1833.646	1	1	0	0	0.22793	0.064452	0.24515	0.14431	0.27655	0.087879	0.1606	0.18429	0.21734	0.11662	0.37283	0.11433	0.22986	0.25548	0.059463	0.25096	-2.4021	-2.8208	-2.8812	-2.6188	-3.1854	-2.7083	-2.8438	-3.4979	-2.5812	-2.8458	-3.0958	-2.7313	-3.0417	-3.0042	-2.7188	-3.1375	190.556	-35.836	105.640	226.588	95.392	-33.228	36.570	142.297	-39.011	214.073	160.655	176.513	173.213	210.952	88.619	164.590	0.00049889	0.00071827	0.00011938	1034.8	7.3864e-06	1.4448e-05	1353.9	281.59	7.0209e-06	1.5421e-05	456.38	181.71	101.81	48.677	5.6791e-06	93.294	0.00062471	0.00062738	0.0001538	880.12	6.7953e-06	6.7816e-06	1114	232.89	7.109e-06	6.704e-06	380.01	149.21	86.333	40.729	5.9516e-06	76.757	-28.689	-57.138	-4.591	-98.478	43.377	26.576	-98.186	-93.158	-74.449	-3.757	-94.415	-89.448	-88.108	-82.310	-45.451	-85.551	-8191	255	
1833.742	1	1	0	0	0.15386	0.2004	0.28049	0.17854	0.10599	0.048264	0.17923	0.064169	0.2342	0.11398	0.34414	0.27917	0.24878	0.13629	0.042371	0.15559	-2.5	-2.5458	-2.9917	-2.775	-2.9479	-2.9333	-2.9271	-3.0625	-2.7979	-2.7313	-3.3187	-2.7313	-3.0438	-2.9646	-2.5833	-3.2687	94.625	23.831	126.602	-92.606	38.021	62.434	212.530	-48.281	166.408	215.978	156.116	174.944	225.527	225.103	90.504	247.353	0.00065047	0.0006471	0.00032204	1031.7	9.486e-06	9.321e-07	1343.3	276.6	5.8954e-06	1.124e-05	456.22	179.32	101.06	47.77	7.9512e-06	91.783	0.00065055	0.00060052	0.00014726	874.88	7.0182e-06	6.312e-06	1104.2	230.71	7.0654e-06	6.4065e-06	376.66	148.01	85.771	39.953	5.7123e-06	75.707	10.183	-14.267	248.554	-97.658	105.012	-81.527	-97.842	-92.962	94.613	96.620	-94.003	-89.708	-87.655	-82.813	23.891	-85.832	-8191	255	
1833.838	1	1	0	0	0.093796	0.19092	0.13473	0.2493	0.069588	0.20479	0.15744	0.076382	0.31735	0.15325	0.18573	0.37035	0.33471	0.11371	0.070707	0.24266	-2.2708	-2.6833	-2.9333	-2.7188	-2.775	-3.1583	-2.7458	-3.1292	-3.0563	-2.6167	-3.1458	-2.6917	-2.9354	-2.9542	-2.7625	-2.9958	182.520	35.709	52.265	-41.791	-34.181	244.171	-58.005	85.572	154.638	193.686	134.654	246.040	245.782	-43.377	58.670	168.233	0.00076294	0.0010605	0.00017175	1031.8	1.2087e-05	3.986e-06	1345.4	275.66	8.6696e-06	4.435e-06	457.73	180.84	102.03	48.439	1.6625e-05	92.123	0.00065821	0.00055757	0.00013932	884.86	7.0025e-06	5.8389e-06	1103.7	231.52	6.745e-06	5.9552e-06	377.14	149.06	86.147	40.358	5.6914e-06	76.514	-11.898	10.298	105.959	-98.079	-30.785	50.064	-97.999	-92.861	36.468	39.799	-94.119	-89.583	-87.959	-82.731	70.744	-85.406	-8191	255	
1833.935	1	1	0	0	0.2494	0.085757	0.24183	0.13987	0.11945	0.15684	0.30603	0.20052	0.19264	0.23412	0.18464	0.21374	0.12522	0.21953	0.18723	0.17095	-2.3292	-2.8208	-2.9292	-2.7583	-2.8125	-3.0479	-2.6813	-3.2188	-2.7083	-2.5729	-3.1729	-2.6312	-2.8937	-3.0896	-2.5312	-3.3104	-102.270	133.763	106.407	221.985	192.646	20.343	154.134	166.915	-73.681	-26.096	248.732	208.816	239.961	181.823	148.781	-57.004	0.00092816	0.0015974	0.00016054	1023.4	3.5265e-06	9.2518e-06	1342.1	279.21	1.6492e-05	8.8282e-06	461.8	180.36	101.66	48.78	1.1274e-05	94.277	0.00059113	0.00054343	0.00014389	896.61	6.5731e-06	5.7449e-06	1109.2	233.87	6.3248e-06	5.7427e-06	380.21	149.61	85.792	40.419	6.175e-06	77.464	5.829	-31.682	37.860	-97.762	99.212	36.671	-97.822	-92.690	-48.944	35.350	-94.542	-89.688	-87.875	-82.743	245.950	-85.738	-8191	255	
1834.055	1	1	0	0	0.12777	0.098512	0.21682	0.11971	0.066493	0.041555	0.22246	0.48588	0.17321	0.25978	0.17843	0.28604	0.22477	0.033172	0.15326	0.079238	-2.5667	-2.6437	-2.9021	-2.75	-2.7188	-3.1063	-2.8625	-2.9	-3.1125	-2.4771	-3.3187	-2.8958	-2.975	-3.1375	-2.5708	-3.0979	-48.366	-79.014	41.763	-106.606	-29.077	-37.360	241.867	213.425	8.677	177.306	-86.536	192.948	-26.581	-62.446	12.986	223.623	0.0006536	0.00068385	0.0003456	1035.8	7.9178e-06	4.6236e-06	1349.8	277.33	8.7799e-07	8.8873e-06	458.37	180.69	101.83	48.117	7.7507e-06	92.865	0.00057957	0.00052322	0.00015659	891.73	6.109e-06	5.6225e-06	1116.2	232.44	6.0545e-06	5.7696e-06	380	149.3	85.737	40.248	6.7321e-06	76.74	21.173	-37.661	-23.410	-98.677	27.897	50.532	-97.878	-93.107	167.151	80.000	-93.974	-89.464	-87.832	-82.598	97.182	-85.515	-8191	255	
1834.150	1	1	0	0	0.049224	0.068577	0.26499	0.041586	0.21532	0.13925	0.1331	0.26671	0.081885	0.12302	0.12357	0.17251	0.20441	0.21067	0.13026	0.15584	-2.6333	-2.7979	-2.9583	-2.8083	-2.6667	-3.2333	-2.8167	-2.9771	-3.0646	-2.6354	-3.1458	-3.0708	-2.8208	-2.9979	-2.7062	-2.9833	-41.995	143.231	-2.958	150.435	218.869	146.773	182.230	144.270	141.517	-23.552	182.527	141.337	68.338	-95.115	-63.751	-66.999	0.00083094	0.00092268	0.00030984	1041.3	1.3014e-05	5.8628e-06	1349.6	275.39	1.8473e-05	2.7682e-06	454.54	179.28	101.76	47.688	9.143e-06	92.167	0.00055864	0.0005239	0.0001685	890.58	5.9798e-06	5.646e-06	1111.8	231.09	5.7382e-06	5.8326e-06	378.24	148.4	85.511	39.963	6.9745e-06	75.895	-0.082	0.865	-28.475	-98.101	11.503	18.032	-97.957	-92.741	-22.014	199.768	-94.054	-90.068	-88.018	-82.907	23.646	-85.324	-8191	255	
1834.248	1	1	0	0	0.15158	0.26999	0.41018	0.26245	0.077046	0.34004	0.3387	0.44287	0.12829	0.19226	0.2105	0.15618	0.13096	0.23498	0.22488	0.4029	-2.6188	-2.7583	-3.0438	-2.8771	-2.7687	-3.0333	-3.0771	-2.9021	-2.8979	-2.6896	-3.0042	-3.1583	-2.7979	-3.1562	-2.8187	-2.7583	-13.098	65.920	112.961	77.065	-60.350	-110.471	163.459	206.480	210.898	-27.889	213.928	156.725	152.187	191.509	78.813	163.912	0.0010111	0.000508	0.00021397	1026.7	8.4337e-06	2.7844e-06	1341	273.36	3.7009e-06	1.2573e-05	453.42	178.37	101.42	47.793	1.5969e-05	91.75	0.00053061	0.00053955	0.0001784	879.79	5.7575e-06	5.9764e-06	1110.2	228.7	5.4955e-06	6.2639e-06	378.68	147.56	84.923	39.968	6.9017e-06	75.937	-11.200	-31.308	-5.053	-97.882	-1.509	17.443	-97.666	-92.670	106.942	128.147	-93.980	-90.087	-87.942	-82.938	0.255	-85.619	-8191	255	
1834.366	1	1	0	0	0.065245	0.12275	0.25488	0.037201	0.21206	0.26219	0.21308	0.050031	0.20966	0.15938	0.19338	0.20752	0.25044	0.077049	0.025921	0.29248	-2.6583	-2.6292	-2.7917	-3.1271	-2.6458	-3.1417	-2.9562	-2.9542	-3.1312	-2.8896	-2.8167	-2.9104	-2.5604	-3.2417	-2.8354	-2.9271	-64.537	87.653	-7.502	-0.742	173.079	-65.314	147.040	126.698	117.775	-53.424	144.378	-107.747	245.174	153.539	165.663	229.306	0.0010124	0.00037816	2.3188e-05	1031	7.2881e-06	1.4406e-05	1348.7	275.27	4.6036e-06	6.9237e-06	456.14	179.67	101.04	48.031	1.2064e-05	92.968	0.00051575	0.0006038	0.00017199	876.85	5.7188e-06	6.4965e-06	1113.9	230.31	5.6063e-06	6.7244e-06	378.5	148.39	84.816	40.354	6.5714e-06	76.64	-1.581	56.523	198.306	-98.187	79.225	81.248	-97.954	-92.926	143.002	66.702	-94.338	-89.543	-87.983	-82.487	146.872	-85.354	-8191	255	
1834.438	1	1	0	0	0.12996	0.032635	0.13253	0.072658	0.3	0.097791	0.20942	0.031846	0.13152	0.33382	0.37791	0.19982	0.19094	0.11172	0.073118	0.31746	-2.6375	-2.6354	-2.8667	-2.8104	-2.5854	-3.05	-2.8896	-2.6875	-3.0604	-2.6875	-2.8896	-3.0229	-2.7958	-3.0625	-2.9083	-2.9833	84.290	169.109	134.708	59.000	235.283	-110.817	196.647	-58.114	-46.563	108.061	141.557	237.304	-48.029	90.090	114.220	212.123	0.00076086	0.00043839	0.00040344	1044.3	5.4139e-06	4.5758e-06	1345.4	278.12	9.4785e-06	8.3659e-06	459.86	179.81	100.67	47.678	1.1969e-05	91.85	0.00053762	0.00064164	0.00016888	879.46	5.9698e-06	7.2002e-06	1109.2	230.27	5.9351e-06	7.2787e-06	378.71	148.42	85.133	40.346	6.1621e-06	75.97	-33.800	90.001	-10.886	-98.344	42.640	-89.104	-97.902	-93.071	174.765	24.317	-94.049	-89.702	-88.149	-82.803	-23.083	-85.801	-8191	255	
1834.534	1	1	0	0	0.15414	0.2878	0.19383	0.17613	0.081459	0.069778	0.13808	0.059329	0.097091	0.06329	0.27967	0.251	0.13374	0.28985	0.1673	0.059961	-2.7208	-2.8812	-3.0479	-3.0187	-2.5854	-3.1729	-2.9688	-2.6542	-3.1458	-2.775	-2.8229	-3.1562	-2.5417	-3.0208	-2.9792	-2.7771	-49.229	87.158	-23.285	-68.088	-15.313	92.306	124.702	-51.037	-8.142	-50.477	202.004	227.373	185.782	244.585	-29.107	215.048	0.0011078	0.00068221	0.00027155	1034.7	3.0991e-06	1.2319e-05	1343	275.54	4.2416e-06	1.5575e-05	450.69	177.55	100.5	47.042	9.397e-06	90.278	0.00057292	0.00063146	0.00015569	871.76	6.3407e-06	6.9904e-06	1104.5	228.8	6.4154e-06	6.9526e-06	376.24	146.34	84.768	39.474	5.9825e-06	74.167	-6.241	-15.355	-45.484	-98.158	21.133	37.586	-98.030	-92.850	19.647	3.703	-94.011	-89.734	-87.663	-82.579	60.267	-85.572	-8191	255	
1834.655	1	1	0	0	0.13841	0.24266	0.44265	0.15471	0.086376	0.1331	0.058912	0.033357	0.31747	0.073154	0.21965	0.26393	0.21944	0.41555	0.077847	0.33	-2.6063	-2.9292	-2.7438	-3.0458	-2.8146	-2.8792	-3.0271	-2.75	-2.7875	-2.8167	-2.8667	-3.2812	-2.7667	-3.0667	-2.9854	-2.6542	-18.376	182.438	-63.083	160.020	74.778	151.827	142.560	-107.474	147.347	61.668	-69.970	144.622	-98.075	236.117	-87.556	182.132	0.00080356	0.00058968	0.00027553	1031.2	6.3432e-06	1.229e-06	1331.6	273.46	1.744e-05	1.52e-05	452.27	176.66	99.775	47.124	3.9563e-06	90.134	0.00062528	0.00060521	0.00014889	867.48	6.872e-06	6.5572e-06	1100.3	227.58	6.9567e-06	6.6083e-06	374.72	146.24	84.834	39.368	5.754e-06	74.646	-25.493	-11.270	-21.301	-97.260	34.446	108.583	-98.155	-92.766	44.656	41.154	-94.279	-89.397	-87.915	-82.735	241.979	-85.721	-8191	255	
1834.751	1	1	0	0	0.15779	0.080887	0.22196	0.12169	0.04398	0.077727	0.25137	0.10538	0.037477	0.16025	0.25818	0.20797	0.22739	0.27667	0.14234	0.19259	-2.5521	-2.7	-2.7104	-2.9896	-2.8396	-2.6958	-3.1583	-2.7417	-2.9125	-2.8688	-2.6063	-3.1125	-2.8187	-2.7812	-2.8375	-2.7562	66.825	-17.390	132.653	144.740	202.290	130.222	201.471	-16.939	152.992	211.161	242.341	-108.232	-97.690	218.968	215.261	-6.419	0.00092193	0.00089354	0.00019232	1017.8	1.0576e-05	1.3182e-05	1338.2	274.73	5.5734e-06	4.8073e-06	448.03	176.82	99.35	47.1	1.2535e-05	91.822	0.00064128	0.00059168	0.00014736	874.98	7.0804e-06	6.397e-06	1101.6	228.57	7.1471e-06	6.0854e-06	373.33	146.73	84.5	39.465	5.6999e-06	75.824	-7.661	-61.021	223.955	-98.166	95.465	65.193	-98.017	-92.824	2.597	117.618	-93.989	-89.553	-87.984	-82.806	27.720	-85.081	-8191	255	
1834.847	1	1	0	0	0.27684	0.16108	0.26303	0.1104	0.18178	0.17584	0.17672	0.299	0.077861	0.24934	0.074776	0.19925	0.22651	0.16803	0.056554	0.476	-2.3771	-2.8688	-2.5896	-2.9188	-2.7188	-2.8292	-3.0146	-2.9271	-2.8604	-3.0646	-2.8271	-3.0812	-2.7812	-2.6583	-3.0938	-2.8417	85.317	130.315	77.629	167.039	102.392	-89.998	-54.279	10.570	2.067	101.787	-12.416	-104.653	227.401	126.938	164.774	149.917	0.00055066	0.0014445	0.0001753	1023.6	3.6116e-06	8.3315e-06	1336.1	274.21	1.7126e-05	1.2602e-05	453.07	178.44	99.962	47.376	1.9173e-06	91.686	0.00065335	0.00055511	0.00014765	881.76	6.9254e-06	6.1027e-06	1103.1	229.06	6.9074e-06	6.0602e-06	376.41	148.19	84.674	39.68	5.7949e-06	75.763	-17.605	-26.472	241.783	-97.261	-11.926	-2.182	-97.826	-92.744	7.957	-0.453	-93.935	-89.660	-88.035	-82.629	-44.521	-85.460	-8191	255	
1834.943	1	1	0	0	0.20567	0.1833	0.1125	0.18624	0.14747	0.15433	0.28931	0.30321	0.11759	0.14245	0.27311	0.042498	0.25283	0.18517	0.13999	0.29472	-2.475	-3.0021	-2.5125	-3.0958	-2.7146	-2.7542	-3.2812	-2.6958	-2.9042	-3.0312	-2.5833	-3.1562	-2.85	-2.5479	-2.9771	-2.7854	183.158	152.661	-83.582	-19.592	214.534	-33.933	196.797	165.281	45.516	15.858	234.175	95.107	17.817	167.750	16.659	-43.555	0.0011286	0.00095284	0.00033456	1031.2	1.0962e-05	6.5818e-06	1340.5	273.98	6.6491e-06	1.0026e-05	450.12	177.81	99.95	46.674	3.3578e-06	89.158	0.00061115	0.00053078	0.00015223	894.98	6.3955e-06	5.8062e-06	1103	229.89	6.427e-06	5.7151e-06	374.32	147.56	84.319	38.969	6.1794e-06	74.036	-7.962	-64.570	-65.155	-97.781	41.837	18.994	-98.117	-92.698	60.091	91.990	-94.126	-89.403	-88.464	-82.625	32.972	-85.385	-8191	255	
1835.015	1	1	0	0	0.19116	0.096638	0.16587	0.064776	0.23942	0.19263	0.24962	0.44716	0.064756	0.15063	0.095116	0.39611	0.038402	0.21564	0.037829	0.31941	-2.5333	-2.9292	-2.7792	-2.9562	-2.85	-2.7146	-3.2104	-2.8187	-2.8271	-3.0208	-2.925	-2.9854	-2.8833	-2.7646	-3.0333	-2.8937	13.761	-110.432	-3.157	146.362	241.371	-89.036	175.100	240.352	223.835	66.090	53.940	242.703	-46.468	146.744	52.509	148.872	0.00063234	0.0013051	0.00029783	1023.2	1.2039e-06	6.3844e-06	1339.1	274.7	7.0594e-06	8.1724e-06	453.71	176.02	99.952	46.774	8.5722e-06	90.316	0.0005803	0.00052169	0.0001636	884.58	6.0129e-06	5.7422e-06	1107	229.61	6.1424e-06	5.5713e-06	376.99	146.76	84.09	39.242	6.7952e-06	74.912	-5.829	46.387	8.145	-99.062	131.989	16.374	-97.925	-93.053	-28.024	45.780	-94.391	-89.526	-88.388	-82.661	-68.113	-85.793	-8191	255	
1835.136	1	1	0	0	0.099099	0.044249	0.25755	0.19442	0.30259	0.19378	0.27401	0.22406	0.21215	0.11433	0.16422	0.32904	0.17305	0.16176	0.14519	0.16776	-2.3083	-3.1771	-2.7479	-2.9854	-2.825	-2.5708	-2.9688	-2.9146	-2.6208	-2.9417	-2.7271	-3.0125	-3.1792	-2.5083	-3.0812	-2.9083	205.216	5.795	121.853	-98.952	-85.621	-102.290	221.957	-74.557	142.365	-12.953	-46.352	230.920	123.344	219.569	165.206	76.868	0.0012527	0.00025605	0.00030222	1031.6	4.6864e-06	5.0004e-06	1344.2	275.34	1.2879e-05	9.4477e-06	455.48	178.84	100.89	47.03	1.1813e-05	92.13	0.00055805	0.00050841	0.00017299	887.9	5.9729e-06	5.8312e-06	1110.6	229.74	5.8435e-06	5.7216e-06	379.22	147.77	84.376	39.526	7.03e-06	75.855	-4.315	-61.329	-17.285	-98.040	2.384	246.900	-97.903	-92.912	-20.156	27.216	-94.010	-90.013	-88.313	-82.513	26.344	-85.793	-8191	255	
1835.230	1	1	0	0	0.15607	0.061326	0.17738	0.096105	0.23326	0.22771	0.22362	0.10336	0.21438	0.061734	0.16929	0.14643	0.24238	0.13501	0.26918	0.055285	-2.3333	-3.1417	-2.8104	-2.8229	-3.0646	-2.5833	-3.1625	-3.1125	-2.6	-3.0479	-2.7979	-2.7938	-3.1479	-2.475	-2.825	-3.1583	-80.765	1.516	172.272	-38.822	-41.183	177.017	172.569	145.362	-29.578	7.527	-77.438	235.088	244.502	204.484	-20.948	169.232	0.0010627	0.00039755	0.00032758	1023.4	8.0669e-06	1.1601e-05	1347.9	274.43	4.3047e-06	1.3649e-05	456.97	177.15	100.73	47.544	5.5222e-06	91.07	0.00053991	0.00055488	0.00018479	874.17	5.8075e-06	6.3816e-06	1117.5	228.81	5.8017e-06	6.3342e-06	379.33	148.09	84.181	39.793	7.026e-06	75.124	7.382	25.172	7.407	-98.197	74.895	74.156	-97.662	-92.682	-17.107	144.584	-94.192	-89.208	-87.464	-82.183	-34.479	-85.512	-8191	255	
1835.328	1	1	0	0	0.13688	0.18198	0.1519	0.14432	0.22865	0.075789	0.10255	0.11954	0.24944	0.21819	0.1422	0.061279	0.13058	0.20165	0.1054	0.10976	-2.1625	-3.1667	-2.9104	-2.6333	-3.2208	-2.8333	-2.8563	-3.1792	-2.6229	-2.9229	-2.8042	-2.9125	-3.0792	-2.8688	-2.9083	-3.0938	-51.405	-23.057	149.473	-14.779	186.522	-63.427	142.026	150.258	-25.789	240.635	190.647	239.073	-104.525	215.718	-46.589	107.434	0.00094346	0.0015723	0.00013921	1027.4	1.233e-05	4.6923e-06	1344.1	271.22	8.1285e-06	1.0145e-05	452.2	176.41	99.347	46.423	2.3683e-05	88.591	0.00053798	0.00060777	0.00017332	876.71	5.4691e-06	6.8024e-06	1108.5	226.74	5.775e-06	7.0289e-06	374.56	145.66	83.284	38.878	6.6177e-06	72.93	-12.493	59.111	34.108	-97.788	6.556	124.141	-98.253	-92.884	243.734	66.472	-94.055	-89.685	-88.704	-82.543	33.210	-85.778	-8191	255	
1835.447	1	1	0	0	0.21007	0.012846	0.21851	0.10746	0.21808	0.13884	0.28563	0.19739	0.21882	0.072532	0.041289	0.36767	0.25024	0.071754	0.14108	0.40541	-2.3792	-3.0917	-2.8333	-2.8625	-3.0875	-2.6292	-2.9021	-3.2542	-2.4979	-2.9271	-3.0687	-2.825	-3.1521	-2.9333	-2.8521	-3.2521	-60.958	112.009	-90.536	181.363	-69.595	1.467	185.107	153.236	-70.166	126.124	247.091	204.910	-55.108	55.890	176.651	219.314	0.00069665	0.0017856	0.00048962	1027.7	5.4356e-06	1.198e-05	1341.4	270.07	2.6211e-06	5.4107e-06	449.35	174.8	99.59	46.304	1.4137e-05	89.491	0.00055063	0.00065509	0.00016307	865.37	6.0186e-06	7.1963e-06	1102	225.3	6.208e-06	7.0544e-06	371.04	144.68	83.443	39.063	6.1399e-06	73.625	-9.023	-27.709	-30.222	-97.901	30.996	-68.017	-98.096	-92.828	29.529	53.026	-94.330	-89.313	-88.151	-82.675	-11.555	-85.810	-8191	255	
1835.543	1	1	0	0	0.1281	0.073081	0.17748	0.34899	0.24727	0.13947	0.17742	0.096026	0.22709	0.21363	0.23161	0.18702	0.051136	0.27343	0.23745	0.15639	-2.4229	-3.0521	-2.8187	-2.6021	-2.9188	-2.6958	-2.8542	-3.1167	-2.7438	-3.0375	-2.9021	-2.8	-3.1604	-2.7229	-2.5167	-3.3292	-63.188	-97.077	52.576	235.848	-97.446	-2.810	180.896	174.409	77.488	222.169	-94.034	-27.493	175.956	-11.391	93.124	235.649	0.00083434	0.00095854	5.8911e-05	1025.6	7.8908e-06	7.6501e-06	1331.5	272.83	9.3887e-06	7.759e-06	447.07	176.05	99.208	46.441	1.0074e-05	90.829	0.00060042	0.00064083	0.00015323	864.33	6.4059e-06	6.9363e-06	1101.6	226.14	6.633e-06	6.7437e-06	371.1	145.71	83.811	39.184	6.026e-06	74.59	17.525	-85.866	0.742	-97.579	-59.323	-40.705	-97.965	-92.864	103.330	100.368	-94.240	-89.508	-87.654	-82.345	79.359	-85.461	-8191	255	
1835.639	1	1	0	0	0.27582	0.055011	0.016924	0.15936	0.19391	0.22892	0.29438	0.15862	0.098462	0.23578	0.2046	0.2725	0.22996	0.2553	0.19554	0.25255	-2.2771	-2.8583	-3.05	-2.5687	-3.1063	-2.8208	-2.9938	-3.2562	-2.7354	-2.9104	-3.2708	-2.7458	-3.0375	-2.8479	-2.7313	-3.4417	-87.855	-76.625	-92.874	149.867	-19.871	124.762	196.206	173.876	-67.771	37.884	-97.885	-68.766	168.670	188.079	196.154	124.561	0.000888	0.0011539	0.00040829	1023.7	2.0627e-06	5.251e-06	1338.2	271.45	9.4185e-06	1.3087e-05	450.35	176.52	98.924	47.185	5.2589e-06	89.811	0.00064939	0.00061461	0.00014998	868.49	6.9927e-06	6.5549e-06	1102.4	226.11	7.1123e-06	6.5089e-06	371.99	145.92	83.966	39.197	5.836e-06	74.401	-3.190	21.001	-73.922	-98.013	99.868	31.914	-98.199	-92.557	43.789	9.035	-93.915	-89.573	-87.724	-82.822	-84.127	-85.748	-8191	255	
1835.735	1	1	0	0	0.16764	0.065901	0.27472	0.16434	0.016273	0.15326	0.25882	0.40505	0.10913	0.068824	0.33631	0.21276	0.15068	0.21729	0.10274	0.0083056	-2.2271	-2.7271	-3.0333	-2.7458	-2.8396	-3.1417	-3.0375	-3.2812	-2.7583	-2.875	-3.1604	-2.8958	-3.2271	-3.0292	-2.6896	-3.1562	71.815	60.986	-49.756	-76.462	-101.996	87.966	139.826	245.424	110.470	175.939	-86.971	174.966	201.211	166.679	174.033	110.659	0.0010494	0.001304	0.00033564	1027.5	7.2816e-07	8.1625e-06	1327.3	270.91	1.7073e-05	6.8859e-06	444.85	174.72	97.432	45.468	4.2088e-06	86.884	0.00065772	0.00056834	0.00014336	874.79	7.0451e-06	6.0907e-06	1095.9	224.99	7.0844e-06	6.2145e-06	367.23	144.68	82.741	37.97	5.6883e-06	72.237	28.649	-27.325	-31.114	-98.091	-40.781	127.778	-98.196	-93.147	59.357	26.262	-94.099	-89.879	-88.099	-82.553	-8.938	-85.951	-8191	255	
1835.831	1	1	0	0	0.13187	0.28011	0.098763	0.13388	0.16901	0.04491	0.088784	0.15499	0.14247	0.1392	0.29885	0.071648	0.060773	0.11103	0.26088	0.27043	-2.3854	-2.7458	-3.0917	-2.6833	-2.9062	-2.9792	-2.9396	-3.0979	-2.9771	-2.6937	-3.2812	-2.8563	-2.9729	-3.25	-2.6208	-3.2417	1.393	162.171	-7.231	188.845	18.542	67.300	152.443	215.025	66.949	23.477	120.047	-79.036	50.080	248.309	-45.240	206.215	0.00040932	0.00083064	0.00012927	1007.8	6.9747e-06	3.3463e-06	1321.7	265.85	6.0707e-06	4.7778e-06	443.56	173.57	96.656	45.631	1.8083e-05	88.09	0.00063002	0.00054319	0.00014334	876.85	6.7793e-06	5.9988e-06	1090.6	223.74	6.6691e-06	5.9611e-06	366.8	143.83	82.331	38.072	5.9159e-06	73.198	4.046	-1.546	-0.666	-99.226	-25.867	93.533	-97.863	-93.219	45.457	9.510	-94.274	-89.772	-88.211	-83.004	64.426	-85.542	-8191	255	
1835.928	1	1	0	0	0.11374	0.33531	0.2844	0.15881	0.2709	0.05124	0.35108	0.28728	0.079362	0.11311	0.049593	0.18065	0.23539	0.0699	0.2255	0.13413	-2.5479	-2.6896	-2.975	-2.9188	-2.5417	-3.1042	-2.8438	-3.0687	-2.8312	-2.6979	-3.2396	-2.7917	-2.9375	-3.2292	-2.7333	-3.1333	116.309	130.521	-11.136	-80.962	-46.564	-70.336	189.110	-104.893	44.890	9.457	116.002	155.920	204.366	40.353	-104.208	187.299	0.00074091	0.0014346	0.00016863	1006.9	4.6894e-06	3.7055e-06	1323.3	268.38	1.1009e-05	1.1477e-05	442.77	174.62	98.755	46.073	6.7607e-06	89.973	0.00059907	0.00054287	0.00015173	880.07	6.3329e-06	5.7228e-06	1093.2	225.66	6.1663e-06	5.9302e-06	368.27	145.1	82.944	38.504	6.4165e-06	74.468	12.414	-30.594	70.558	-98.500	-82.105	37.713	-97.850	-92.658	51.235	114.815	-93.968	-89.598	-87.744	-82.899	79.915	-85.387	-8191	255	
1836.048	1	1	0	0	0.13495	0.28096	0.16401	0.18704	0.27569	0.13712	0.15785	0.12327	0.12801	0.12972	0.26562	0.2356	0.19146	0.15991	0.11602	0.2381	-2.4667	-2.4771	-3.1417	-2.8146	-2.8083	-3.0458	-2.8312	-3.1354	-2.9083	-2.7792	-3.1375	-2.7729	-2.7521	-2.9792	-2.6979	-3.2229	3.833	100.568	142.284	-69.284	-82.978	11.729	85.791	217.022	-82.563	46.896	-93.039	197.398	200.960	125.263	225.281	201.845	0.00091799	0.00093136	0.0002167	1020.6	1.1972e-05	3.4644e-06	1327.7	266.88	1.6529e-05	8.4333e-06	445.75	174.83	98.024	45.652	1.8033e-06	89.05	0.00056516	0.00052826	0.00016444	881.49	6.2643e-06	5.675e-06	1098.5	224.68	6.1323e-06	5.7538e-06	371.51	144.38	81.904	38.233	6.9445e-06	73.783	11.736	-48.546	20.106	-98.510	29.387	135.117	-98.116	-92.873	-64.677	134.805	-94.184	-89.208	-87.856	-83.023	97.311	-85.586	-8191	255	
#DATA ENDS
