BOXY.EXE: ISS Imagent and Oximeter Data Acquisition Program Version 0.80
Ascii Record File

#ACQ INFORMATION
2  Detector Channels 
16  External MUX Channels 
1  Auxiliary Channels 
5000  Waveform (CCF) Frequency (Hz)
1  Waveforms Skipped 
30  Waveforms Averaged 
1  Cycles Averaged 
16  Acquisitions per Waveform 
10.0806  Updata Rate (Hz) 

#FILE INFORMATION
TRUE -- External MUX Channel results are PARSED.
FALSE -- AC DC and Phase are NOT grouped.
TRUE -- Companion Program Settings File CREATED.
FALSE -- AC data not excluded
FALSE -- DC data not excluded
FALSE -- Phase data not excluded
FALSE -- Auxillary Chn. data not excluded
Tab delimiters

#CALIBRATION STATE
TRUE -- Waveform Calibration Values APPLIED.


#AUX CALIBRATION VALUES
Val Type	aux-1	

Term	1.0000e+00	
Factor	0.0000e+00	


#WF CALIBRATION VALUES
A = Detector Channel
Val Type	A-AC1	A-AC2	A-AC3	A-AC4	A-AC5	A-AC6	A-AC7	A-AC8	A-AC9	A-AC10	A-AC11	A-AC12	A-AC13	A-AC14	A-AC15	A-AC16	A-DC1	A-DC2	A-DC3	A-DC4	A-DC5	A-DC6	A-DC7	A-DC8	A-DC9	A-DC10	A-DC11	A-DC12	A-DC13	A-DC14	A-DC15	A-DC16	A-Ph1	A-Ph2	A-Ph3	A-Ph4	A-Ph5	A-Ph6	A-Ph7	A-Ph8	A-Ph9	A-Ph10	A-Ph11	A-Ph12	A-Ph13	A-Ph14	A-Ph15	A-Ph16	

Term	0.00000e+00	0.00000e+00	0.00000e+00	0.00000e+00	0.00000e+00	0.00000e+00	0.00000e+00	0.00000e+00	0.00000e+00	0.00000e+00	0.00000e+00	0.00000e+00	0.00000e+00	0.00000e+00	0.00000e+00	0.00000e+00	0.00000e+00	0.00000e+00	0.00000e+00	0.00000e+00	0.00000e+00	0.00000e+00	0.00000e+00	0.00000e+00	0.00000e+00	0.00000e+00	0.00000e+00	0.00000e+00	0.00000e+00	0.00000e+00	0.00000e+00	0.00000e+00	0.00000e+00	0.00000e+00	0.00000e+00	0.00000e+00	0.00000e+00	0.00000e+00	0.00000e+00	0.00000e+00	0.00000e+00	0.00000e+00	0.00000e+00	0.00000e+00	0.00000e+00	0.00000e+00	0.00000e+00	0.00000e+00	
Factor	1.00000e+00	1.00000e+00	1.00000e+00	1.00000e+00	1.00000e+00	1.00000e+00	1.00000e+00	1.00000e+00	1.00000e+00	1.00000e+00	1.00000e+00	1.00000e+00	1.00000e+00	1.00000e+00	1.00000e+00	1.00000e+00	1.00000e+00	1.00000e+00	1.00000e+00	1.00000e+00	1.00000e+00	1.00000e+00	1.00000e+00	1.00000e+00	1.00000e+00	1.00000e+00	1.00000e+00	1.00000e+00	1.00000e+00	1.00000e+00	1.00000e+00	1.00000e+00	X	X	X	X	X	X	X	X	X	X	X	X	X	X	X	X	

B = Detector Channel
Val Type	B-AC1	B-AC2	B-AC3	B-AC4	B-AC5	B-AC6	B-AC7	B-AC8	B-AC9	B-AC10	B-AC11	B-AC12	B-AC13	B-AC14	B-AC15	B-AC16	B-DC1	B-DC2	B-DC3	B-DC4	B-DC5	B-DC6	B-DC7	B-DC8	B-DC9	B-DC10	B-DC11	B-DC12	B-DC13	B-DC14	B-DC15	B-DC16	B-Ph1	B-Ph2	B-Ph3	B-Ph4	B-Ph5	B-Ph6	B-Ph7	B-Ph8	B-Ph9	B-Ph10	B-Ph11	B-Ph12	B-Ph13	B-Ph14	B-Ph15	B-Ph16	

Term	0.00000e+00	0.00000e+00	0.00000e+00	0.00000e+00	0.00000e+00	0.00000e+00	0.00000e+00	0.00000e+00	0.00000e+00	0.00000e+00	0.00000e+00	0.00000e+00	0.00000e+00	0.00000e+00	0.00000e+00	0.00000e+00	0.00000e+00	0.00000e+00	0.00000e+00	0.00000e+00	0.00000e+00	0.00000e+00	0.00000e+00	0.00000e+00	0.00000e+00	0.00000e+00	0.00000e+00	0.00000e+00	0.00000e+00	0.00000e+00	0.00000e+00	0.00000e+00	-6.55746e+01	-1.32460e+02	-1.24044e+02	-1.81644e+02	-4.96078e+01	-6.09442e+01	-1.57078e+02	-1.62015e+02	-5.27148e+01	-6.58019e+01	-1.71967e+02	-1.70181e+02	-1.79589e+02	-1.77401e+02	-5.55509e+01	-1.50229e+02	
Factor	1.83242e-05	1.60084e-04	4.40432e-05	1.55119e-01	1.49884e-06	1.72698e-06	1.71925e-01	5.85861e-02	1.36267e-06	1.76728e-06	8.00050e-02	2.74382e-02	3.05121e-02	9.14989e-03	1.57629e-06	1.28563e-02	1.07384e-05	1.73561e-05	4.82899e-06	8.05253e-02	1.73972e-07	1.92695e-07	8.40553e-02	3.05412e-02	1.75866e-07	1.93004e-07	4.05408e-02	1.39842e-02	1.61609e-02	4.81515e-03	1.80523e-07	6.55076e-03	X	X	X	X	X	X	X	X	X	X	X	X	X	X	X	X	



#DISTANCE SETTINGS
A = Detector Channel
A-1	A-2	A-3	A-4	A-5	A-6	A-7	A-8	A-9	A-10	A-11	A-12	A-13	A-14	A-15	A-16	

2.5000e+00	3.0000e+00	2.5000e+00	3.0000e+00	2.0000e+00	3.0000e+00	1.5000e+00	3.0000e+00	3.0000e+00	3.0000e+00	3.0000e+00	3.0000e+00	3.0000e+00	3.0000e+00	1.5000e+00	3.0000e+00	

B = Detector Channel
B-1	B-2	B-3	B-4	B-5	B-6	B-7	B-8	B-9	B-10	B-11	B-12	B-13	B-14	B-15	B-16	

1.0000e+01	1.0000e+01	1.0000e+01	1.4400e+00	1.0000e+01	1.0000e+01	1.5100e+00	1.9400e+00	1.0000e+01	1.0000e+01	1.9900e+00	2.4900e+00	2.4100e+00	2.9000e+00	1.0000e+01	2.9800e+00	




#DATA BEGINS
time	group	step	mark	flag	A-AC1	A-AC2	A-AC3	A-AC4	A-AC5	A-AC6	A-AC7	A-AC8	A-AC9	A-AC10	A-AC11	A-AC12	A-AC13	A-AC14	A-AC15	A-AC16	A-DC1	A-DC2	A-DC3	A-DC4	A-DC5	A-DC6	A-DC7	A-DC8	A-DC9	A-DC10	A-DC11	A-DC12	A-DC13	A-DC14	A-DC15	A-DC16	A-Ph1	A-Ph2	A-Ph3	A-Ph4	A-Ph5	A-Ph6	A-Ph7	A-Ph8	A-Ph9	A-Ph10	A-Ph11	A-Ph12	A-Ph13	A-Ph14	A-Ph15	A-Ph16	B-AC1	B-AC2	B-AC3	B-AC4	B-AC5	B-AC6	B-AC7	B-AC8	B-AC9	B-AC10	B-AC11	B-AC12	B-AC13	B-AC14	B-AC15	B-AC16	B-DC1	B-DC2	B-DC3	B-DC4	B-DC5	B-DC6	B-DC7	B-DC8	B-DC9	B-DC10	B-DC11	B-DC12	B-DC13	B-DC14	B-DC15	B-DC16	B-Ph1	B-Ph2	B-Ph3	B-Ph4	B-Ph5	B-Ph6	B-Ph7	B-Ph8	B-Ph9	B-Ph10	B-Ph11	B-Ph12	B-Ph13	B-Ph14	B-Ph15	B-Ph16	aux-1	digaux	

16671.729	1	1	0	256	0.15128	0.11779	0.19307	0.066658	0.033457	0.17314	0.14529	0.10309	0.22476	0.043072	0.15628	0.07559	0.032114	0.10192	0.1693	0.13937	-2.0625	-2.7521	-2.4188	-2.5	-2.6688	-2.175	-2.7021	-2.5708	-2.475	-2.5312	-2.5354	-2.4542	-2.6083	-2.15	-2.5917	-2.6625	478.968	346.935	444.336	442.044	331.019	318.226	280.309	173.464	173.760	350.719	426.857	365.513	245.839	311.365	428.292	269.177	0.00026117	0.0003192	0.00017854	439.35	1.3757e-06	3.2665e-06	517.7	96.264	3.0162e-06	4.9618e-06	148.43	52.396	28.872	11.588	5.6036e-06	25.189	0.0019704	0.0029975	0.00084482	441.58	3.0493e-05	3.4066e-05	520.62	99.744	3.0731e-05	3.3581e-05	152.71	54.117	31.233	12.339	3.1852e-05	26.191	253.795	262.151	305.886	180.537	260.480	335.139	180.216	186.671	327.496	345.875	185.862	190.582	191.583	195.925	317.102	193.618	-8191	255	
16671.824	1	1	0	0	0.077498	0.089603	0.07372	0.24345	0.13394	0.10643	0.26279	0.23843	0.17125	0.18705	0.22067	0.085191	0.26403	0.21822	0.13074	0.036785	-1.8542	-2.5708	-2.4479	-2.4437	-2.5583	-2.2646	-2.3917	-2.6	-2.2542	-2.6625	-2.5438	-2.325	-2.6375	-2.3354	-2.4917	-2.7271	281.098	237.898	258.690	247.044	262.485	389.740	225.601	508.879	193.445	424.140	455.526	429.246	432.097	509.833	444.666	488.559	0.00023623	0.0005148	8.9682e-05	442.03	1.653e-06	4.5561e-06	518.39	96.729	5.3975e-06	6.9921e-06	149.28	52.491	29.627	11.893	5.5248e-06	25.817	0.0020286	0.0030648	0.00085898	444.04	3.0982e-05	3.445e-05	523.34	100.85	3.1406e-05	3.429e-05	153.72	54.812	31.771	12.593	3.1979e-05	26.624	255.775	269.637	265.323	180.577	486.433	455.749	180.520	186.165	321.249	322.095	185.224	190.717	191.877	195.772	348.996	193.441	-8191	255	
16671.922	1	1	0	0	0.15933	0.024602	0.1701	0.21104	0.18804	0.085103	0.13893	0.093077	0.093519	0.15169	0.071119	0.30768	0.1241	0.032658	0.40891	0.13789	-1.9021	-2.4375	-2.4688	-2.3458	-2.6458	-2.4896	-2.6021	-2.6083	-2.2708	-2.8521	-2.6833	-2.4417	-2.5479	-2.4437	-2.4521	-2.5229	447.800	276.538	478.676	515.864	231.242	409.763	424.224	228.488	365.838	340.296	386.636	448.379	485.918	177.899	173.144	403.986	0.0002652	0.00085332	6.6782e-05	442.78	5.3006e-06	3.0373e-06	519.67	98.427	5.7628e-06	3.7018e-06	149.73	52.937	29.733	11.891	3.6535e-06	25.678	0.0020346	0.003109	0.00086916	445.27	3.1036e-05	3.4558e-05	523.11	101.49	3.1534e-05	3.3843e-05	153.6	54.688	31.819	12.665	3.2258e-05	26.457	239.315	269.672	444.454	180.604	182.429	262.698	180.295	185.765	330.543	293.394	185.303	190.825	190.880	195.904	199.462	193.179	-8191	255	
16672.043	1	1	0	0	0.19849	0.054691	0.14642	0.16443	0.088849	0.077093	0.21288	0.34768	0.27992	0.098587	0.0984	0.17599	0.12968	0.12605	0.10383	0.34896	-1.8979	-2.7021	-2.5042	-2.3667	-2.6562	-2.3292	-2.5667	-2.6458	-2.3833	-2.7604	-2.5563	-2.4188	-2.7687	-2.3146	-2.1375	-2.6833	355.535	516.934	197.066	303.585	407.620	293.974	454.942	432.044	508.448	224.749	224.275	413.378	478.174	394.771	488.619	358.692	0.00027192	0.00023232	5.3043e-05	440.86	4.5076e-07	4.7851e-06	519.5	97.129	2.9225e-06	2.4741e-06	148.8	52.123	28.903	11.796	4.4631e-06	24.995	0.00204	0.0030796	0.00085781	444	3.1343e-05	3.448e-05	521.5	100.83	3.1959e-05	3.4501e-05	152.74	54.065	31.285	12.4	3.3117e-05	25.957	266.740	360.688	257.311	180.587	280.092	299.275	180.540	186.211	300.539	325.760	185.760	190.689	190.900	196.531	176.390	193.589	-8191	255	
16672.139	1	1	0	0	0.19488	0.25599	0.16801	0.11087	0.34356	0.26924	0.17937	0.12697	0.085988	0.26883	0.046852	0.23127	0.077801	0.26839	0.094016	0.1577	-1.8188	-2.4396	-2.4813	-2.0917	-2.7375	-2.4479	-2.2396	-2.8187	-2.2833	-2.3854	-2.4375	-2.4167	-2.6271	-2.4062	-2.3771	-2.8396	437.931	243.460	208.112	179.355	226.968	373.077	461.499	394.715	434.920	220.344	301.196	498.420	236.613	182.516	514.959	397.852	0.00025513	0.0008761	0.00013987	435.23	3.8734e-06	2.7068e-06	518.38	96.688	4.2627e-06	1.0064e-05	147.97	51.964	28.827	11.507	4.7329e-06	25.144	0.0020558	0.0031231	0.00088218	441.18	3.1254e-05	3.4866e-05	519.76	100.1	3.1456e-05	3.4536e-05	152.56	53.932	31.278	12.297	3.2236e-05	25.978	256.583	317.266	361.317	180.620	456.822	364.321	180.324	186.305	292.753	520.144	185.480	190.492	191.115	195.843	307.324	193.534	-8191	255	
16672.234	1	1	0	0	0.22065	0.13525	0.15914	0.17332	0.19462	0.13641	0.30912	0.13607	0.068856	0.076662	0.17233	0.017172	0.11237	0.12441	0.22916	0.2159	-1.9833	-2.4521	-2.6208	-2.2917	-2.6312	-2.4042	-2.2917	-2.6771	-2.2313	-2.5333	-2.6208	-2.4188	-2.4125	-2.3479	-2.4188	-2.6042	356.357	437.688	462.944	399.441	322.669	296.900	455.225	348.017	378.257	370.005	497.913	457.550	243.233	169.090	195.598	516.833	0.00027197	0.00025964	5.7706e-05	440.08	2.0855e-06	3.1318e-06	518.81	97.171	2.5537e-06	6.7763e-06	148.65	52.247	28.943	11.463	7.9013e-07	24.859	0.0020477	0.0031025	0.00085273	444.05	3.132e-05	3.4503e-05	521.86	100.46	3.1291e-05	3.4685e-05	152.66	54.056	31.124	12.263	3.2618e-05	25.759	260.346	338.120	362.587	180.456	464.766	369.377	179.937	185.920	262.480	411.206	185.313	190.576	191.569	195.596	185.310	193.560	-8191	255	
16672.355	1	1	0	0	0.13843	0.041262	0.037991	0.21938	0.23695	0.27965	0.10695	0.15235	0.24667	0.11291	0.085933	0.15048	0.2429	0.098882	0.14739	0.058751	-1.9167	-2.5417	-2.8021	-2.2146	-2.4771	-2.6458	-2.5021	-2.6188	-2.3354	-2.2167	-2.6521	-2.3708	-2.4958	-2.4437	-2.0917	-2.4958	209.119	490.025	451.295	168.415	188.053	506.405	396.720	209.967	406.038	506.643	467.366	298.989	381.845	386.008	335.173	524.204	0.00024515	0.00058001	0.00013919	437.23	5.3371e-06	1.061e-06	517.32	96.292	2.0925e-06	7.7444e-06	147.86	51.67	28.422	11.424	5.5234e-06	24.445	0.0020024	0.0030642	0.00085734	441.86	3.0298e-05	3.3545e-05	520.89	99.74	3.0541e-05	3.3423e-05	151.79	53.284	30.762	12.125	3.1533e-05	25.395	257.015	262.557	257.646	180.568	304.632	476.445	180.234	186.034	329.824	363.967	185.181	190.875	191.393	196.157	348.124	193.711	-8191	255	
16672.426	1	1	0	0	0.11245	0.17316	0.14632	0.16267	0.0061661	0.2808	0.12351	0.11642	0.12235	0.022429	0.32271	0.047079	0.33592	0.051969	0.1315	0.07228	-1.9958	-2.4833	-2.6	-2.2833	-2.2708	-2.5396	-2.1937	-2.7167	-2.5021	-2.4229	-2.7583	-2.2583	-2.5312	-2.4458	-2.2146	-2.6583	197.252	493.430	486.903	493.574	442.934	187.448	307.208	207.932	190.490	237.759	380.084	271.036	366.090	410.719	500.709	495.209	0.00025272	0.00026529	7.0142e-05	439.89	4.2453e-06	3.1576e-06	512.71	95.418	2.9008e-06	2.6274e-06	146.72	51.456	28.352	11.233	3.8112e-06	24.46	0.0019927	0.0030498	0.00083555	441.61	3.0444e-05	3.3562e-05	517.59	99.452	3.1093e-05	3.3367e-05	150.48	53.024	30.65	12.021	3.1471e-05	25.398	263.822	335.911	304.935	180.459	354.110	357.503	180.464	185.820	303.716	263.895	185.121	190.500	190.761	196.551	371.293	193.143	-8191	255	
16672.521	1	1	0	0	0.12588	0.2513	0.16914	0.11262	0.22601	0.098274	0.10648	0.14478	0.33021	0.1498	0.42249	0.10184	0.15312	0.11526	0.098008	0.16059	-2.0583	-2.3417	-2.6542	-2.2208	-2.4354	-2.5583	-2.2854	-2.5208	-2.2792	-2.1542	-2.5292	-2.3625	-2.4125	-2.575	-2.3083	-2.4521	268.920	386.252	320.669	481.035	213.675	186.744	462.840	314.199	489.208	181.054	510.363	214.891	517.468	301.971	404.411	223.368	0.00025697	0.00072044	0.00019375	436.39	4.8648e-06	4.7019e-06	515.35	95.566	2.2314e-06	6.6356e-06	146.24	51.092	28.378	11.382	7.9568e-07	24.873	0.0019527	0.0030291	0.00083289	440.3	3.0253e-05	3.299e-05	517.77	99.062	3.0473e-05	3.3571e-05	150.7	52.898	30.631	12.039	3.1203e-05	25.627	258.999	205.083	229.406	180.293	359.267	364.027	180.019	186.404	264.479	354.737	185.216	190.744	191.463	196.141	405.428	193.718	-8191	255	
16672.617	1	1	0	0	0.19287	0.022803	0.33632	0.29811	0.3615	0.20474	0.12164	0.025538	0.27501	0.10723	0.29336	0.060668	0.068138	0.15584	0.21722	0.16252	-2.1625	-2.2062	-2.6208	-2.325	-2.4625	-2.5354	-2.2313	-2.5979	-2.5583	-2.1937	-2.6729	-2.2667	-2.2208	-2.7417	-2.1979	-2.4313	449.991	498.058	497.448	467.359	181.182	399.440	442.304	386.540	356.669	403.686	357.512	315.247	211.745	478.674	436.998	201.862	0.00029041	0.00062758	9.818e-05	438.8	6.7856e-06	1.0941e-06	518.04	96.389	8.1051e-07	3.5719e-06	147.36	52.14	28.77	11.582	6.8451e-06	25.07	0.001969	0.0030336	0.00083795	442.28	3.0369e-05	3.3897e-05	520.17	99.835	3.0619e-05	3.356e-05	151.95	53.778	31.047	12.289	3.2027e-05	26.068	265.918	279.757	191.385	180.872	326.910	510.551	180.244	186.087	512.658	454.829	185.608	190.580	191.662	195.483	290.441	193.647	-8191	255	
16672.736	1	1	0	0	0.40849	0.12729	0.47055	0.052125	0.096338	0.30962	0.3139	0.11607	0.13569	0.22638	0.35391	0.11392	0.12376	0.2512	0.32803	0.32134	-2.0917	-2.3125	-2.4813	-2.5146	-2.4167	-2.6042	-2.2479	-2.4313	-2.5646	-2.3479	-2.6479	-2.2458	-2.1188	-2.7208	-2.4562	-2.4146	462.679	357.694	270.837	214.760	186.249	457.474	401.021	295.890	280.658	462.625	486.003	523.120	195.071	313.741	375.572	169.791	0.00024099	0.00050593	9.475e-05	439.3	3.8041e-06	5.3846e-06	515.69	97.511	5.2256e-07	4.1224e-06	148.79	52.555	29.458	11.928	7.4449e-06	25.356	0.0019947	0.0030649	0.00085449	443.34	3.0964e-05	3.4315e-05	519.47	101.04	3.1263e-05	3.3774e-05	153.1	54.251	31.687	12.542	3.1595e-05	26.236	273.914	186.434	325.194	180.666	207.323	345.117	179.949	186.034	329.540	405.903	185.530	190.242	191.268	196.447	243.591	193.588	-8191	255	
16672.834	1	1	0	0	0.18416	0.25498	0.20313	0.18836	0.20606	0.07338	0.3066	0.30662	0.12777	0.28807	0.15524	0.090268	0.20866	0.20774	0.13866	0.058327	-2.1833	-2.1896	-2.7125	-2.5625	-2.3312	-2.8208	-2.3625	-2.3542	-2.5938	-2.5167	-2.5583	-2.5396	-2.3833	-2.6771	-2.3583	-2.2479	316.226	524.541	260.200	441.577	388.290	252.471	483.679	195.110	213.163	211.766	170.704	459.796	479.673	448.965	502.046	210.198	0.00030474	0.00017343	0.00010342	438.57	1.7182e-06	3.5736e-06	517.18	97.725	2.5759e-06	4.2486e-06	147.85	52.236	29.006	11.764	2.1064e-07	25.313	0.0019794	0.0030558	0.00083126	444.14	3.0967e-05	3.3439e-05	518.13	100.99	3.0404e-05	3.4303e-05	152.28	54.131	31.521	12.52	3.1577e-05	26.239	250.785	295.551	383.646	180.940	375.956	403.959	180.445	186.038	317.166	477.260	185.551	190.476	191.622	196.003	237.889	193.330	-8191	255	
16672.930	1	1	0	0	0.08174	0.17243	0.40309	0.22333	0.095274	0.21858	0.068045	0.057451	0.1678	0.21074	0.20574	0.17235	0.03667	0.20251	0.1601	0.14485	-2.3563	-2.3292	-2.3708	-2.4229	-2.175	-2.6875	-2.4042	-2.575	-2.6146	-2.075	-2.3479	-2.6167	-2.0687	-2.5938	-2.4292	-2.3083	286.756	497.897	314.939	314.575	416.718	174.962	494.697	258.229	297.558	396.820	475.431	282.000	169.811	519.675	307.377	476.198	0.00027148	0.0005369	4.6675e-05	442.06	2.3331e-06	6.4272e-06	513.7	97.407	1.8265e-06	3.9947e-06	147.26	52.48	29.497	11.906	2.0784e-06	25.255	0.0019899	0.003069	0.00085421	444.47	3.095e-05	3.4223e-05	517.84	100.91	3.1586e-05	3.4917e-05	152.7	54.225	31.706	12.594	3.2763e-05	26.333	261.442	224.392	200.925	180.356	403.732	293.722	180.527	186.419	404.954	378.513	185.406	190.171	191.286	195.458	320.346	193.513	-8191	255	
16673.002	1	1	0	0	0.31025	0.16848	0.1651	0.048533	0.12909	0.22847	0.05092	0.18641	0.15249	0.23481	0.097902	0.083987	0.17836	0.46057	0.17846	0.15051	-2.1583	-2.4417	-2.4313	-2.45	-2.3479	-2.6875	-2.65	-2.3229	-2.7146	-2.3083	-2.4562	-2.5979	-2.2062	-2.6083	-2.4521	-2.3	479.620	441.304	240.512	227.394	213.799	457.066	197.446	206.595	282.929	414.477	481.838	239.168	258.264	203.474	281.317	199.807	0.00022738	0.00028098	4.8538e-05	439.89	2.3267e-06	3.3868e-06	512.74	97.384	4.5524e-06	9.3166e-06	146.76	52.079	28.877	11.702	4.9682e-06	25.389	0.0020242	0.003156	0.0008609	443.01	3.1982e-05	3.5328e-05	517.2	100.94	3.175e-05	3.5671e-05	151.92	54.153	31.464	12.505	3.2936e-05	26.346	266.244	475.653	321.119	180.685	315.716	315.322	180.166	186.128	358.468	297.561	185.653	190.939	190.598	196.554	233.218	193.583	-8191	255	
16673.121	1	1	0	0	0.17633	0.13014	0.2192	0.16261	0.13531	0.30949	0.36485	0.10111	0.19387	0.10885	0.048646	0.14079	0.17146	0.24027	0.28888	0.17318	-2.2687	-2.2333	-2.425	-2.55	-2.2417	-2.4333	-2.7	-1.9729	-2.6167	-2.4875	-2.3875	-2.6458	-2.1813	-2.5229	-2.7208	-2.3417	398.635	371.676	314.972	246.780	395.448	291.306	454.682	287.200	508.515	368.161	493.979	520.963	491.107	506.890	323.798	466.404	0.00023702	0.00093024	0.0001164	438.94	2.2403e-06	8.3036e-06	514.63	96.159	6.0819e-06	6.104e-06	146.45	51.409	28.82	11.548	5.4076e-06	24.979	0.0020651	0.0031757	0.00087871	442.76	3.1735e-05	3.5e-05	517.37	100.52	3.2479e-05	3.5447e-05	151.17	53.616	31.12	12.277	3.2267e-05	25.799	259.758	217.711	211.105	180.977	419.719	313.221	180.391	186.411	323.745	285.032	185.653	190.662	191.609	195.958	330.923	193.811	-8191	255	
16673.219	1	1	0	0	0.21109	0.21661	0.19108	0.063746	0.17867	0.18109	0.065354	0.10487	0.10359	0.20243	0.23955	0.13375	0.3447	0.16063	0.20806	0.3118	-2.1479	-2.175	-2.0583	-2.6417	-2.1063	-2.4229	-2.7687	-2.2438	-2.6375	-2.3812	-2.3375	-2.65	-2.4396	-2.5687	-2.5021	-2.2438	404.296	311.778	200.016	356.100	336.545	257.906	398.766	198.119	294.285	205.223	188.608	199.258	452.366	457.024	315.841	326.582	0.00026701	0.00086797	1.7234e-05	437.01	6.0212e-06	7.5913e-06	510.12	94.662	5.9297e-07	4.2439e-06	143.48	50.506	27.837	11.193	6.3462e-06	23.885	0.0020508	0.0032032	0.00088332	439.96	3.2153e-05	3.4766e-05	511.43	98.64	3.2144e-05	3.5101e-05	148.17	52.143	30.513	11.939	3.3451e-05	24.924	253.550	226.338	461.259	180.407	334.466	366.497	180.445	186.322	204.591	298.895	185.088	190.285	192.143	196.396	513.797	193.698	-8191	255	
16673.314	1	1	0	0	0.14204	0.14078	0.2258	0.12054	0.021857	0.22749	0.072066	0.25255	0.29579	0.29651	0.035902	0.2558	0.11694	0.18521	0.095775	0.10746	-2.3563	-2.5208	-2.3292	-2.8937	-2.1958	-2.3083	-2.4604	-2.2875	-2.5187	-2.4417	-2.1604	-2.6937	-2.2271	-2.4708	-2.5979	-2.0604	488.821	478.500	238.453	406.521	431.257	416.717	483.675	445.663	229.512	261.677	503.945	521.576	337.875	322.200	318.941	401.383	0.00023996	0.00021554	0.00013896	431.45	2.1252e-07	3.7502e-06	501.38	93.778	1.5057e-06	4.709e-06	141.53	49.604	27.663	11.182	5.3949e-06	24.009	0.0021014	0.0031917	0.00091119	435.8	3.2064e-05	3.6552e-05	505.33	97.973	3.2982e-05	3.6097e-05	147.14	51.779	30.396	11.884	3.3904e-05	25.008	270.647	221.751	266.705	180.787	408.858	310.121	180.415	185.906	289.758	288.065	185.349	190.578	191.563	196.160	220.107	192.700	-8191	255	
16673.436	1	1	0	0	0.27136	0.30028	0.021029	0.23895	0.195	0.04295	0.30041	0.24385	0.10212	0.36994	0.066582	0.25427	0.2972	0.099122	0.26651	0.056761	-2.2646	-2.5479	-2.1854	-2.6458	-2.2917	-2.3542	-2.7479	-2.3292	-2.3729	-2.6125	-2.1479	-2.6771	-2.3229	-2.2979	-2.7271	-2.2479	379.733	501.950	435.194	186.624	463.674	330.672	417.257	417.712	178.276	269.052	231.110	417.002	198.219	191.837	198.737	175.585	0.00026804	0.00032766	0.00018826	432.4	3.3617e-06	5.8166e-06	502.35	94.925	6.377e-06	3.956e-06	144.13	50.066	28.035	11.159	1.7508e-06	24.252	0.0020958	0.003167	0.00089749	437.02	3.2204e-05	3.4814e-05	507.15	98.512	3.1873e-05	3.4866e-05	147.61	51.826	30.439	11.932	3.2446e-05	25.128	284.727	170.233	222.355	180.557	233.274	380.003	180.269	186.293	340.011	377.258	185.509	190.791	191.336	195.795	397.549	193.436	-8191	255	
16673.529	1	1	0	0	0.27227	0.20341	0.053493	0.17883	0.079826	0.039939	0.090289	0.20465	0.18274	0.36049	0.27602	0.15356	0.1228	0.11169	0.051702	0.27381	-2.1229	-2.6125	-2.2417	-2.5646	-2.3708	-2.2438	-2.625	-2.7	-2.5312	-2.6042	-2.3875	-2.5375	-2.5104	-2.3021	-2.7125	-2.1458	472.226	197.877	433.242	526.155	521.412	338.122	469.582	466.012	307.289	194.231	347.746	313.242	485.963	420.884	483.408	362.503	0.00029375	0.00023247	5.025e-05	431.09	2.8158e-06	2.3317e-06	505.62	93.865	2.9243e-06	9.5651e-07	142.1	50.201	27.9	10.937	6.0664e-06	24.107	0.0020502	0.0031341	0.00089259	434.72	3.183e-05	3.5579e-05	506.69	97.445	3.1903e-05	3.4588e-05	147.04	51.995	30.279	11.838	3.248e-05	25.118	261.053	218.756	282.934	180.221	232.206	491.106	180.347	185.929	294.187	172.382	185.636	190.816	191.373	196.263	260.791	193.393	-8191	255	
16673.625	1	1	0	0	0.14397	0.1829	0.037113	0.43279	0.056097	0.054395	0.045499	0.15649	0.14331	0.16558	0.23387	0.227	0.10631	0.046508	0.10133	0.081441	-2.0271	-2.5229	-2.0208	-2.5125	-2.4354	-2.4604	-2.6333	-2.4646	-2.2646	-2.6813	-2.2687	-2.6271	-2.3812	-2.1896	-2.6417	-2.3937	192.160	373.437	300.754	211.678	389.749	240.130	379.770	206.526	235.489	198.203	178.030	259.407	515.752	273.435	507.645	439.475	0.00024586	1.3931e-05	8.3888e-05	430.03	1.5947e-06	2.594e-06	499.8	93.659	2.6911e-06	1.5383e-06	142.34	49.681	27.748	11.224	2.196e-06	24.07	0.0020336	0.0031614	0.00087053	433.64	3.2017e-05	3.4974e-05	502.79	97.544	3.2026e-05	3.5037e-05	146.77	51.611	30.336	11.94	3.2434e-05	25.104	257.793	322.592	382.619	180.637	361.803	203.903	180.356	186.379	337.067	437.564	185.127	191.002	190.959	195.468	195.315	193.183	-8191	255	
16673.723	1	1	0	0	0.26253	0.17352	0.26313	0.12137	0.11672	0.21519	0.1679	0.19037	0.16356	0.08908	0.091908	0.21813	0.22264	0.055413	0.10051	0.10271	-1.9708	-2.6688	-2.0021	-2.5354	-2.475	-2.3146	-2.6875	-2.4938	-2.3563	-2.6771	-2.1917	-2.475	-2.65	-2.1625	-2.5833	-2.2938	435.253	378.876	407.458	441.933	475.004	310.930	388.465	355.388	257.417	176.502	246.904	499.950	169.353	281.204	168.175	415.362	0.00029546	0.00047309	0.00018246	427.59	4.1229e-06	2.4093e-06	495.43	93.628	7.1617e-06	3.3724e-07	142.36	50.258	28.108	11.284	3.2285e-06	24.354	0.0020332	0.0030903	0.00087275	432.99	3.1263e-05	3.4035e-05	499.71	97.125	3.1484e-05	3.4816e-05	146.44	51.861	30.577	12.038	3.2008e-05	25.279	251.911	265.096	343.474	180.448	493.868	345.016	180.149	185.997	350.246	482.233	185.351	190.740	191.033	195.960	461.539	193.124	-8191	255	
16673.818	1	1	0	0	0.090467	0.21557	0.20483	0.09289	0.28666	0.10207	0.2323	0.17583	0.088864	0.18749	0.10476	0.16414	0.18829	0.25943	0.045209	0.27095	-1.9562	-2.6042	-2.325	-2.3708	-2.575	-2.1417	-2.7875	-2.4208	-2.1125	-2.5812	-2.3312	-2.5125	-2.6688	-2.2604	-2.5542	-2.5938	515.388	308.614	392.783	507.510	357.417	387.265	503.344	506.125	173.287	222.544	520.564	460.254	455.707	389.143	393.212	466.225	0.00025193	0.00058537	5.5747e-05	430.09	5.6505e-06	1.7048e-06	503.28	95.135	2.1106e-06	2.8056e-06	142.83	50.414	27.955	11.255	3.0939e-06	24.484	0.0020414	0.0030862	0.00089306	433.39	3.1456e-05	3.4799e-05	504.04	98.463	3.1702e-05	3.4394e-05	147.33	52.311	30.396	12.028	3.2556e-05	25.369	262.089	172.584	301.007	180.481	414.075	262.589	180.453	185.788	209.531	303.893	184.907	190.432	191.132	195.826	293.240	193.514	-8191	255	
16673.914	1	1	0	0	0.32613	0.25931	0.31992	0.2287	0.24976	0.32008	0.34352	0.10468	0.10869	0.12618	0.23751	0.1988	0.04229	0.010425	0.33008	0.24135	-1.8125	-2.5604	-2.3458	-2.5958	-2.7375	-2.4958	-2.5542	-2.5958	-2.2729	-2.7021	-2.6333	-2.4417	-2.6813	-2.1937	-2.5521	-2.7229	367.920	220.925	219.801	476.257	281.242	387.120	419.890	183.425	300.881	453.793	434.865	471.619	211.132	326.053	317.357	446.546	0.00024896	0.00046434	2.8261e-05	431.74	3.2996e-06	1.8085e-06	505.56	95.633	3.3403e-06	6.1569e-06	143.81	50.764	28.296	11.432	4.6084e-06	24.592	0.0020339	0.0030591	0.00086068	436.74	3.1096e-05	3.4262e-05	510.62	98.932	3.1646e-05	3.4008e-05	148.9	52.705	30.598	12.159	3.239e-05	25.521	253.852	302.269	216.154	180.424	412.851	389.848	180.467	186.332	471.625	322.038	185.146	190.399	191.368	195.646	227.485	193.762	-8191	255	
16674.035	1	1	0	0	0.14334	0.18441	0.14824	0.090522	0.093183	0.23285	0.22648	0.21561	0.26511	0.08333	0.20124	0.09164	0.13148	0.12209	0.01742	0.084203	-1.7833	-2.7375	-2.4729	-2.3917	-2.6375	-2.2729	-2.4125	-2.5542	-2.4146	-2.6562	-2.5312	-2.4	-2.6646	-2.3042	-2.5833	-2.775	434.287	488.788	327.322	172.449	399.430	443.739	510.113	190.537	479.441	230.054	419.109	455.941	281.833	316.717	240.111	458.627	0.00017512	4.3737e-05	6.0997e-05	433.44	2.6419e-06	2.1383e-06	509.36	95.197	6.153e-06	5.0103e-06	145.77	51.172	28.659	11.489	2.9828e-06	24.539	0.0020181	0.0031433	0.00088811	438.86	3.1856e-05	3.5207e-05	512.61	99.568	3.2599e-05	3.5587e-05	149.89	53.069	31.018	12.187	3.4014e-05	25.518	257.465	336.449	282.271	180.620	316.397	310.110	180.812	186.788	289.692	288.586	185.421	190.739	191.001	196.166	500.793	193.170	-8191	255	
16674.131	1	1	0	0	0.37289	0.23533	0.27499	0.052065	0.39138	0.12515	0.27896	0.069974	0.011486	0.18196	0.065504	0.19081	0.058432	0.025141	0.25227	0.2307	-1.9625	-2.4521	-2.5979	-2.2854	-2.7229	-2.3667	-2.3958	-2.6083	-2.2854	-2.6208	-2.5479	-2.2417	-2.7083	-2.4604	-2.2167	-2.7271	257.188	468.840	341.494	421.957	399.297	462.240	512.709	474.985	269.556	355.653	243.555	419.343	482.125	295.841	330.829	474.859	0.00023498	0.00020087	0.00022884	433.89	2.1396e-06	4.6753e-06	501.78	95.617	3.2457e-06	8.6169e-06	143.48	51.161	28.499	11.491	3.1197e-06	24.444	0.0021269	0.0032721	0.00092274	438.55	3.3196e-05	3.6766e-05	509.32	99.714	3.3803e-05	3.6405e-05	149.59	53.071	31.162	12.22	3.49e-05	25.428	256.186	232.440	275.645	180.608	272.025	257.042	180.423	186.039	268.527	425.248	185.615	190.748	190.793	195.452	317.609	193.220	-8191	255	
16674.227	1	1	0	0	0.26524	0.34402	0.10438	0.15069	0.12056	0.085174	0.21187	0.13599	0.12523	0.18903	0.063635	0.20006	0.16226	0.2434	0.23679	0.22623	-1.8833	-2.4021	-2.6229	-2.2687	-2.8292	-2.3917	-2.4833	-2.5396	-2.2458	-2.6354	-2.4271	-2.2812	-2.6083	-2.0104	-2.3458	-2.6604	356.347	198.715	221.024	361.561	512.210	206.646	223.411	517.895	283.720	514.925	400.730	422.604	423.460	481.815	374.013	447.099	0.00021232	8.7404e-05	6.5174e-05	432.22	2.3354e-06	3.0022e-06	502.95	95.089	2.4865e-06	1.0286e-05	145.43	50.881	28.565	11.348	6.5586e-06	24.32	0.0021505	0.0032939	0.00092562	437.77	3.3378e-05	3.689e-05	509.79	99.356	3.3971e-05	3.6557e-05	149.53	52.73	30.861	12.107	3.4725e-05	25.302	254.870	446.965	253.488	180.528	377.073	277.105	180.564	186.064	401.625	372.309	185.254	190.740	190.866	196.071	384.176	193.410	-8191	255	
16674.299	1	1	0	0	0.1073	0.14928	0.073418	0.069647	0.19623	0.22595	0.36351	0.046594	0.064343	0.21605	0.045169	0.23573	0.078695	0.09724	0.047748	0.12759	-1.8354	-2.5438	-2.4813	-2.2562	-2.5	-2.4062	-2.2354	-2.6104	-2.2229	-2.3917	-2.6688	-2.2708	-2.4958	-2.3667	-2.1771	-2.6375	351.932	301.928	238.157	258.840	365.507	353.183	527.552	390.041	296.628	466.469	270.775	170.556	175.675	479.775	321.112	461.103	0.00022166	0.00035784	7.7899e-05	431.32	6.6305e-06	2.481e-06	508.18	96.032	4.8706e-06	1.9223e-06	144.52	50.412	27.806	11.376	8.3339e-06	24.373	0.0021475	0.0032988	0.00090795	437.92	3.3217e-05	3.6684e-05	510.07	99.438	3.3931e-05	3.6513e-05	149.57	52.64	30.742	12.135	3.4445e-05	25.425	285.030	492.772	304.149	180.808	359.050	243.757	180.283	186.252	244.705	310.023	184.995	190.790	191.560	195.516	271.865	193.458	-8191	255	
16674.420	1	1	0	0	0.15287	0.051771	0.12284	0.012895	0.14312	0.1071	0.18004	0.13417	0.14309	0.17358	0.17326	0.14118	0.11484	0.1707	0.26894	0.036111	-1.8208	-2.4125	-2.725	-2.0771	-2.3542	-2.4083	-2.0417	-2.6229	-2.5396	-2.2708	-2.5938	-2.1854	-2.4437	-2.4896	-2.0792	-2.5938	425.272	241.411	214.091	474.962	424.619	180.099	504.940	233.781	506.072	431.172	482.154	439.445	497.278	173.343	424.483	497.803	0.00019487	0.00037423	8.3664e-05	433.09	3.6635e-06	6.0264e-06	508.02	95.857	1.8511e-06	2.3436e-06	144.62	50.814	27.836	11.252	8.952e-07	24.383	0.0021258	0.0032578	0.00091287	438.53	3.2803e-05	3.6029e-05	512.79	99.527	3.2727e-05	3.4959e-05	150.08	52.682	30.522	11.977	3.2138e-05	25.21	267.321	239.029	527.254	180.306	272.952	260.744	180.440	185.925	471.189	486.046	184.907	190.195	191.595	195.818	358.273	193.293	-8191	255	
16674.516	1	1	0	0	0.25276	0.071384	0.10433	0.15912	0.15093	0.18112	0.17718	0.23423	0.025848	0.36237	0.09921	0.19365	0.16882	0.061549	0.19966	0.17959	-2.0458	-2.3708	-2.4896	-2.0396	-2.5521	-2.4313	-2.2521	-2.6208	-2.3729	-2.3063	-2.8208	-2.3667	-2.7167	-2.6021	-2.2188	-2.6479	216.299	372.394	198.538	445.185	310.867	288.649	471.894	337.774	402.499	422.572	455.708	249.416	438.965	487.628	462.550	406.612	0.00023961	0.00068111	8.2917e-05	435.95	1.3769e-06	3.6817e-06	508.66	95.896	2.8059e-06	1.3803e-06	144.79	49.574	27.958	11.18	3.5345e-06	23.879	0.0019929	0.0030146	0.00083952	438.48	3.0218e-05	3.2991e-05	512.26	99.148	3.078e-05	3.3763e-05	148.41	51.578	30.155	11.777	3.0933e-05	24.795	265.509	188.690	314.036	180.449	182.756	425.178	180.632	186.237	396.331	213.627	185.502	190.543	191.319	196.245	353.658	193.697	-8191	255	
16674.609	1	1	0	0	0.18743	0.16935	0.12919	0.060871	0.14133	0.27847	0.11115	0.086727	0.16744	0.079895	0.26264	0.32363	0.027122	0.2431	0.076946	0.13305	-1.9917	-2.2292	-2.6229	-2.2625	-2.6542	-2.6979	-2.3688	-2.65	-2.3708	-2.1396	-2.6146	-2.3521	-2.3292	-2.6333	-2.1792	-2.3979	441.974	256.703	297.157	300.873	467.442	279.898	419.028	359.474	447.067	263.023	472.154	451.547	515.849	338.188	274.465	507.892	0.00026783	0.00073376	9.7398e-05	436.31	2.119e-06	4.2083e-06	509.28	94.402	2.375e-06	3.4576e-07	142.42	49.673	27.82	10.916	2.9821e-06	23.71	0.0019459	0.0029602	0.00081765	437.69	2.9713e-05	3.2857e-05	511.92	98.233	2.9601e-05	3.292e-05	147.5	51.333	30.057	11.683	3.1018e-05	24.554	259.452	206.070	226.181	180.860	372.146	505.919	180.207	186.082	311.766	459.426	185.478	190.001	191.432	196.271	213.690	193.496	-8191	255	
16674.705	1	1	0	0	0.16453	0.21138	0.1421	0.19222	0.26885	0.24343	0.18071	0.26547	0.10409	0.11306	0.23893	0.33001	0.18751	0.097551	0.22669	0.075114	-1.9813	-2.1917	-2.6063	-2.2583	-2.5146	-2.6042	-2.4	-2.4896	-2.3958	-2.2062	-2.5312	-2.3875	-2.3688	-2.6542	-2.2083	-2.375	228.195	208.156	433.755	421.159	309.509	505.263	411.608	510.289	481.776	409.622	471.749	453.171	168.335	200.377	231.031	442.431	0.000202	0.00048347	0.00010915	433.52	5.8359e-06	5.8778e-06	506.43	95.464	5.1621e-06	3.7791e-06	144.43	49.573	28.043	10.938	3.083e-06	24.156	0.0019066	0.0029368	0.00080645	436.89	2.9126e-05	3.2052e-05	511	98.333	2.9616e-05	3.2874e-05	148.12	51.441	30.07	11.72	3.0619e-05	24.941	261.895	457.802	328.696	180.525	242.995	361.571	180.595	186.143	304.592	419.996	185.325	190.389	191.440	195.900	384.927	193.448	-8191	255	
16674.826	1	1	0	0	0.13728	0.14442	0.20699	0.21272	0.2456	0.16225	0.20088	0.04676	0.078642	0.092996	0.15252	0.11302	0.14386	0.17743	0.081395	0.12591	-2.1125	-2.1771	-2.4833	-2.4979	-2.2521	-2.5604	-2.3	-2.4792	-2.5417	-2.0625	-2.7	-2.4188	-2.1604	-2.7458	-2.3688	-2.25	196.545	283.835	447.857	528.226	519.591	169.495	515.581	462.014	191.154	518.731	231.529	478.168	498.001	371.416	317.055	471.199	0.000195	9.2654e-05	8.768e-05	434.14	5.7204e-06	2.2812e-06	509.59	95.061	5.4511e-06	6.764e-06	146.55	50.193	28.12	11.302	7.0331e-06	24.466	0.0019231	0.0029926	0.00082203	438.07	2.9843e-05	3.2656e-05	512.96	98.825	3.0241e-05	3.3014e-05	149.45	51.891	30.401	11.897	3.0986e-05	25.267	270.348	455.024	303.811	180.596	359.928	516.203	180.531	186.481	330.430	343.347	185.437	190.878	191.725	195.830	419.469	193.528	-8191	255	
16674.898	1	1	0	0	0.29602	0.093462	0.080375	0.0079655	0.34553	0.33521	0.20582	0.03214	0.12623	0.071778	0.23354	0.088212	0.16088	0.043222	0.14719	0.11822	-2.125	-2.0604	-2.5771	-2.4562	-2.2313	-2.6917	-2.3167	-2.5583	-2.775	-2.1417	-2.3688	-2.45	-2.2604	-2.725	-2.3271	-2.0938	324.984	339.973	357.651	398.400	513.122	398.888	427.027	366.430	461.457	345.603	486.290	475.208	372.870	389.727	487.261	361.583	0.00024129	0.00074326	0.00013914	437.27	4.5917e-06	4.8733e-06	514.42	95.469	3.7909e-06	4.549e-06	144.65	49.857	27.872	11.16	7.0838e-06	24.247	0.0019301	0.0029426	0.00082144	439.94	2.9576e-05	3.2643e-05	515.97	99.294	2.9596e-05	3.2851e-05	149.21	51.758	30.186	11.838	3.0939e-05	25.015	267.676	298.555	280.157	180.477	255.878	301.149	180.408	186.289	369.182	282.202	185.787	190.481	191.516	196.052	293.951	193.322	-8191	255	
16674.994	1	1	0	0	0.12523	0.046423	0.24535	0.021675	0.17926	0.10959	0.28944	0.20487	0.054245	0.076463	0.1758	0.12764	0.24839	0.35605	0.27941	0.053811	-2.2625	-2.1896	-2.3187	-2.4917	-2.125	-2.7792	-2.4333	-2.3354	-2.6792	-2.1625	-2.5062	-2.6271	-2.0458	-2.6104	-2.3375	-2.2479	209.566	325.643	235.478	460.207	172.471	516.807	460.304	506.807	479.949	338.061	452.042	381.592	258.635	411.441	400.836	369.270	0.00021388	0.00036553	0.00014669	437.84	3.466e-06	4.5703e-06	508.82	96.096	2.6926e-06	1.8929e-06	144.9	49.745	27.906	11.042	2.6782e-06	24.061	0.0019298	0.0029348	0.00081669	440.03	2.9772e-05	3.2376e-05	512.24	99.271	2.9606e-05	3.2029e-05	148.7	51.524	30.01	11.77	2.9723e-05	24.862	264.183	402.572	283.578	180.405	269.832	413.475	180.267	185.951	362.783	217.915	185.183	190.791	191.080	195.905	431.186	193.639	-8191	255	
16675.115	1	1	0	0	0.19787	0.20723	0.060447	0.063188	0.19092	0.25535	0.081427	0.15114	0.14982	0.034292	0.22732	0.15701	0.17173	0.1564	0.28211	0.21247	-2.2562	-2.2542	-2.5	-2.6042	-2.2917	-2.6188	-2.6292	-2.2125	-2.6083	-2.3208	-2.5104	-2.6479	-2.225	-2.55	-2.3958	-2.4313	286.143	361.453	292.998	285.676	519.874	319.108	315.113	411.986	425.176	353.409	214.649	343.496	433.191	506.709	432.693	482.869	0.00023604	0.00045353	0.00019238	434.42	1.8312e-06	2.2955e-06	512.53	95.467	1.5946e-06	5.3891e-06	144.47	49.404	27.571	10.858	2.683e-06	23.858	0.0018492	0.0028549	0.00079371	438.51	2.8887e-05	3.1463e-05	513.74	98.511	2.9188e-05	3.2435e-05	147.88	51.176	29.67	11.572	2.9673e-05	24.621	258.912	294.904	279.905	180.514	194.130	334.353	180.476	185.694	509.892	331.535	185.339	190.714	191.552	196.059	221.610	193.681	-8191	255	
16675.211	1	1	0	0	0.084619	0.10982	0.23374	0.36246	0.10867	0.15864	0.24569	0.1614	0.16416	0.11038	0.18219	0.17058	0.17543	0.21616	0.099927	0.060353	-2.3333	-2.3292	-2.3063	-2.6833	-2.4875	-2.5625	-2.4854	-2.0604	-2.7104	-2.5375	-2.4521	-2.65	-2.1417	-2.6521	-2.5375	-2.3167	519.493	203.426	408.368	472.699	366.411	179.716	435.846	381.434	177.828	354.856	500.843	333.378	448.625	444.279	168.501	238.450	0.00020311	0.00027185	6.0479e-05	435.12	4.1839e-07	3.3475e-06	517.73	95.51	2.0552e-06	1.695e-06	145.17	49.955	27.857	11.15	3.1137e-06	24.12	0.0018516	0.0027931	0.00079032	438.49	2.8939e-05	3.1235e-05	515.67	98.84	2.843e-05	3.1466e-05	148.97	51.694	29.926	11.748	2.9651e-05	24.92	262.907	270.123	213.331	180.526	343.794	218.018	180.423	186.338	363.897	371.576	185.501	190.358	191.763	196.401	347.876	194.208	-8191	255	
16675.307	1	1	0	0	0.41619	0.024213	0.16579	0.18877	0.20443	0.35724	0.050924	0.10913	0.17875	0.35812	0.18425	0.15333	0.12806	0.21558	0.068169	0.18855	-2.2396	-2.2479	-2.3542	-2.4938	-2.1562	-2.4458	-2.4729	-1.9875	-2.5938	-2.3542	-2.2896	-2.7021	-2.4292	-2.3208	-2.6646	-2.3167	358.642	271.656	239.049	265.431	171.459	252.158	169.729	526.645	467.011	483.313	358.448	319.078	342.929	518.780	361.649	198.477	0.00020569	0.00022562	0.00012502	436.32	2.9018e-06	1.4122e-06	514.24	96.731	4.0386e-06	3.0777e-06	146.04	50.394	27.909	11.09	2.8525e-06	24.066	0.0018512	0.0028814	0.00080462	440.9	2.9206e-05	3.1797e-05	517.24	99.622	2.956e-05	3.2736e-05	149.87	51.967	30.144	11.798	3.0729e-05	25.006	259.499	213.130	191.154	180.689	478.770	285.903	180.278	186.107	301.280	279.828	185.288	191.014	191.302	196.168	446.214	193.555	-8191	255	
16675.402	1	1	0	0	0.24766	0.050074	0.30513	0.20303	0.034448	0.20112	0.24098	0.12384	0.12417	0.052576	0.19435	0.039689	0.12075	0.054874	0.16385	0.066107	-2.0708	-2.275	-2.3312	-2.6583	-2.3625	-2.4458	-2.8625	-2.2021	-2.4667	-2.5625	-2.1833	-2.8708	-2.3271	-2.2583	-2.575	-2.3042	425.177	236.907	401.697	467.825	389.906	201.123	441.505	468.790	473.866	355.210	405.069	508.999	304.322	392.540	499.476	322.366	0.00018706	0.00043927	4.7983e-05	437.8	2.3921e-06	4.462e-06	513.5	97.088	5.3221e-06	1.1328e-06	144.71	49.711	27.316	10.981	2.8341e-06	23.719	0.00192	0.002937	0.00082036	441.7	3.0012e-05	3.2292e-05	515.55	99.602	2.9516e-05	3.2436e-05	149.28	51.458	29.901	11.667	3.0651e-05	24.622	252.209	347.191	412.040	180.957	227.658	285.869	180.610	186.223	387.214	381.379	185.635	190.395	191.188	196.256	406.744	194.081	-8191	255	
16675.523	1	1	0	0	0.068186	0.015826	0.043839	0.15359	0.22549	0.2267	0.14182	0.10991	0.26963	0.22427	0.20565	0.14639	0.094203	0.19653	0.13277	0.11918	-1.9854	-2.4667	-2.2854	-2.5625	-2.4833	-2.4354	-2.6792	-2.3229	-2.5146	-2.5854	-2.1771	-2.5521	-2.3021	-2.4562	-2.6396	-2.15	302.042	495.395	503.058	412.843	197.453	240.211	469.999	355.913	210.467	313.390	184.008	488.169	317.981	307.677	478.257	313.560	0.00025696	0.0003158	9.8984e-05	437.9	1.7962e-06	1.209e-06	511.58	95.905	1.2851e-06	4.1362e-06	143.71	49.012	27.828	10.761	5.4546e-06	23.513	0.0018905	0.0028654	0.00080521	442.97	2.8789e-05	3.2099e-05	513.53	99.216	2.9615e-05	3.2727e-05	148.03	50.914	29.767	11.453	3.0522e-05	24.354	264.748	495.047	424.585	180.515	390.396	407.715	180.278	186.075	467.043	254.842	185.363	190.538	191.863	196.434	270.049	193.335	-8191	255	
16675.596	1	1	0	0	0.10946	0.10129	0.25401	0.2861	0.34371	0.045533	0.11664	0.15781	0.28422	0.17447	0.16435	0.22552	0.11682	0.14369	0.13697	0.14549	-2.1625	-2.3792	-2.1583	-2.4813	-2.4813	-2.3896	-2.8812	-2.3083	-2.2417	-2.6042	-2.2875	-2.6562	-2.5354	-2.3479	-2.6688	-2.5479	169.159	528.004	463.321	242.894	359.727	470.190	171.288	174.946	476.026	226.975	174.009	292.883	481.821	518.974	413.007	385.732	0.0002255	0.00049399	5.5937e-05	438.19	7.3054e-06	1.2232e-06	510.57	95.84	1.9536e-06	7.7054e-06	144.38	49.304	27.717	10.815	5.1699e-06	23.641	0.0019197	0.0028855	0.00081306	440.45	2.9485e-05	3.338e-05	514.32	98.913	2.9224e-05	3.2164e-05	148.63	51.091	29.743	11.558	3.0175e-05	24.587	259.897	267.913	373.280	180.406	288.069	331.329	180.302	186.133	215.674	396.350	185.276	190.077	191.258	196.545	321.874	193.583	-8191	255	
16675.715	1	1	0	0	0.087769	0.32661	0.26677	0.21349	0.30192	0.033028	0.1915	0.046882	0.19867	0.090841	0.2007	0.12374	0.13693	0.21395	0.099768	0.061886	-1.9542	-2.7729	-2.0042	-2.7479	-2.3563	-2.3333	-2.7333	-2.2125	-2.3625	-2.4917	-2.2542	-2.5146	-2.6104	-2.2667	-2.6854	-2.4354	405.931	488.552	481.670	290.094	477.555	187.061	314.656	476.939	261.109	417.988	511.471	445.592	486.515	297.712	525.487	507.003	0.0002316	0.00034491	2.796e-05	440.93	2.2136e-06	2.3381e-06	515.23	96.286	2.9316e-06	2.2343e-06	145.69	49.651	27.668	10.813	7.0972e-07	23.734	0.0018787	0.0029021	0.00079699	443.01	2.8746e-05	3.239e-05	517.23	99.275	2.9259e-05	3.1938e-05	149.7	51.308	29.759	11.537	2.9714e-05	24.603	264.338	250.031	333.716	180.522	352.874	178.862	179.970	185.973	293.331	349.973	185.521	190.755	191.142	196.158	262.680	193.661	-8191	255	
16675.811	1	1	0	0	0.31022	0.12816	0.11802	0.26175	0.02889	0.24231	0.36111	0.23213	0.22191	0.16017	0.18258	0.1307	0.091308	0.15578	0.12597	0.038726	-1.9188	-2.8021	-2.0771	-2.3333	-2.4875	-1.9688	-2.5896	-2.2708	-2.1229	-2.5167	-2.2917	-2.4479	-2.6937	-2.2958	-2.6625	-2.4167	454.273	512.108	282.078	490.116	473.838	423.972	432.182	419.624	297.514	193.806	432.486	454.559	473.827	356.922	294.778	503.824	0.00016858	0.00025566	2.0608e-05	441.67	2.5191e-06	7.0309e-06	513.11	96.177	1.4656e-06	1.8882e-06	144.57	49.18	27.797	10.868	5.7087e-06	23.576	0.0018728	0.0028148	0.00079731	442.4	2.8893e-05	3.2264e-05	516.91	99.622	2.9378e-05	3.1596e-05	148.89	51.007	29.805	11.546	2.9866e-05	24.57	248.859	306.437	301.166	180.852	329.334	311.738	180.568	186.247	366.839	460.498	185.133	190.656	191.802	195.954	282.590	193.493	-8191	255	
16675.906	1	1	0	0	0.087333	0.35743	0.30118	0.074888	0.1598	0.059132	0.26906	0.14432	0.19246	0.061003	0.30416	0.17293	0.20096	0.26251	0.19407	0.244	-1.8125	-2.6292	-2.125	-2.425	-2.5938	-2.1604	-2.4958	-2.45	-2.4188	-2.4896	-2.45	-2.2646	-2.5417	-2.1896	-2.6042	-2.3521	174.488	518.815	521.003	473.763	222.208	438.100	484.165	192.416	187.511	519.536	476.861	198.033	185.468	440.664	348.835	305.438	0.00022615	0.00022502	0.0001122	439.89	7.8663e-06	5.6155e-07	513.38	95.558	3.9287e-06	1.3781e-06	144.09	48.812	27.433	10.842	2.7422e-06	23.708	0.0018727	0.0027897	0.00078532	441.23	2.8636e-05	3.1676e-05	514.77	98.76	2.9093e-05	3.1776e-05	148.41	50.563	29.6	11.485	2.9479e-05	24.358	263.554	256.678	217.165	180.741	324.574	367.160	180.332	186.039	304.489	369.813	185.241	190.085	191.645	196.236	324.361	193.438	-8191	255	
16676.004	1	1	0	0	0.1244	0.093686	0.068491	0.14994	0.13213	0.03744	0.21763	0.093096	0.20952	0.19583	0.089647	0.23611	0.083629	0.32547	0.14821	0.22804	-1.9771	-2.4875	-2.3937	-2.5104	-2.7292	-2.1792	-2.4708	-2.5333	-2.1979	-2.7083	-2.3125	-2.2521	-2.6208	-2.1896	-2.6271	-2.4896	296.523	340.170	417.670	198.304	342.194	407.850	175.125	237.634	354.352	408.558	479.809	491.896	490.404	483.354	298.218	525.550	0.00027785	0.00041933	5.8606e-05	435.6	1.9079e-06	1.5832e-06	509.96	95.552	2.9904e-06	4.0186e-06	142.71	48.778	27.063	10.532	1.2999e-06	23.362	0.0018743	0.0028118	0.00079225	437.52	2.8526e-05	3.2226e-05	512.73	98.331	2.9302e-05	3.1954e-05	147.77	50.59	29.273	11.322	2.9126e-05	24.238	262.691	494.645	197.887	180.441	318.795	400.787	180.432	186.145	359.418	379.474	185.320	190.526	191.016	196.417	370.701	193.210	-8191	255	
16676.123	1	1	0	0	0.15862	0.099529	0.15379	0.06899	0.17009	0.13438	0.30344	0.11856	0.12279	0.1706	0.21888	0.11796	0.084726	0.22627	0.20111	0.34686	-1.7563	-2.6542	-2.3583	-2.3354	-2.7021	-2.1396	-2.5104	-2.5958	-2.1583	-2.55	-2.5083	-2.2646	-2.7292	-2.3021	-2.7104	-2.5563	409.661	235.749	265.103	482.872	426.773	473.693	196.790	500.457	237.666	258.533	179.059	455.188	454.488	401.906	177.727	447.739	0.00019995	0.00022991	0.00019344	439.94	3.0708e-06	4.1363e-06	514.52	95.189	3.2356e-06	4.4824e-06	145.6	49.167	27.265	10.786	8.4222e-06	23.608	0.0019089	0.002834	0.00079131	439.82	2.9159e-05	3.1654e-05	517.17	98.837	2.8791e-05	3.1227e-05	149.33	50.915	29.471	11.412	2.9881e-05	24.432	270.814	375.828	264.358	180.734	276.305	306.608	180.461	186.155	273.391	242.455	185.492	190.489	190.981	195.777	356.757	193.676	-8191	255	
16676.195	1	1	0	0	0.25548	0.062372	0.13468	0.26213	0.036059	0.091106	0.20822	0.20003	0.09587	0.094903	0.086944	0.28851	0.30223	0.18732	0.050515	0.055674	-1.6521	-2.6312	-2.4792	-2.2396	-2.4667	-2.4458	-2.6708	-2.5792	-2.3125	-2.6813	-2.3625	-2.1542	-2.5875	-2.3583	-2.2979	-2.6792	250.794	235.988	470.012	220.224	189.466	346.370	497.412	230.679	423.058	414.604	218.894	408.769	270.827	216.732	493.207	268.060	0.00028956	0.00045034	0.00013503	442.02	3.2645e-06	4.3161e-06	514.26	96.916	3.8262e-06	6.6437e-06	145.11	49.272	27.56	11.003	1.3418e-06	23.771	0.0018863	0.0028156	0.00079979	442.98	2.8419e-05	3.1622e-05	517.15	99.769	2.855e-05	3.139e-05	149.62	51.123	29.831	11.617	2.9489e-05	24.674	251.107	303.587	246.407	180.645	273.662	193.969	180.523	186.388	331.411	301.293	185.495	190.664	191.280	195.942	317.989	193.716	-8191	255	
16676.291	1	1	0	0	0.28531	0.1306	0.12447	0.25692	0.29623	0.062034	0.18524	0.27637	0.14704	0.064305	0.175	0.02896	0.10995	0.23521	0.17381	0.10665	-1.7375	-2.5833	-2.6312	-2.2313	-2.6063	-2.3333	-2.3583	-2.5146	-2.2375	-2.4146	-2.525	-2.3667	-2.5	-2.3438	-2.4083	-2.8083	409.187	275.476	524.331	415.140	207.150	447.823	232.910	200.062	371.410	339.930	359.965	483.291	514.069	226.515	495.074	311.927	0.00023582	0.00033641	4.6469e-05	439.25	6.3441e-06	2.6885e-06	515.06	96.163	1.6808e-06	6.6355e-06	144.69	49.315	27.371	10.923	4.8664e-06	23.576	0.0018934	0.0028304	0.00078699	442.18	2.8928e-05	3.1431e-05	515.19	99.556	2.8969e-05	3.1172e-05	148.33	51.078	29.681	11.585	2.9816e-05	24.453	265.195	459.036	466.927	180.580	325.859	514.350	180.434	186.231	403.999	341.651	185.209	190.844	192.024	196.136	303.118	193.506	-8191	255	
16676.389	1	1	0	0	0.17754	0.094677	0.032223	0.17018	0.089941	0.22159	0.031543	0.085737	0.17736	0.017004	0.19657	0.19227	0.21371	0.1568	0.1619	0.090572	-1.9604	-2.4979	-2.5229	-2.2896	-2.5667	-2.4083	-2.3979	-2.6042	-2.3271	-2.4333	-2.6562	-2.2417	-2.4708	-2.3125	-2.1896	-2.7104	202.145	249.647	273.195	513.797	239.103	289.705	341.697	339.097	302.260	389.510	501.408	475.478	358.422	255.717	168.631	169.998	0.00027312	0.00031391	9.496e-05	435.67	2.8022e-06	6.3512e-06	510.18	95.732	7.3844e-07	2.6127e-06	141.9	47.875	27.069	10.598	2.4652e-06	23.327	0.0018532	0.0028178	0.00077715	439.27	2.8015e-05	3.1238e-05	511.53	98.243	2.8594e-05	3.0454e-05	146.48	49.853	29.1	11.23	2.8874e-05	23.977	259.072	215.896	457.211	180.358	318.604	391.727	180.367	186.117	289.545	312.292	185.013	190.567	191.495	196.258	394.260	193.465	-8191	255	
16676.484	1	1	0	0	0.19919	0.1415	0.10369	0.32339	0.10124	0.26029	0.38716	0.086062	0.21246	0.14731	0.31931	0.094267	0.11673	0.23361	0.12845	0.18499	-1.8687	-2.3083	-2.5521	-2.4396	-2.6333	-2.5271	-2.3937	-2.6937	-2.3125	-2.3042	-2.8125	-2.2313	-2.475	-2.5542	-2.2104	-2.6	453.775	424.721	188.130	444.302	392.115	498.940	455.593	440.603	340.906	311.722	172.418	247.866	483.497	495.070	456.791	451.488	0.00020203	0.00024734	5.3525e-05	435.91	2.4352e-06	2.647e-06	509.77	95.844	7.3083e-06	4.8021e-06	143.06	48.088	26.72	10.444	7.7084e-07	23.035	0.0017885	0.0027214	0.00074623	440.66	2.6624e-05	2.9103e-05	513.51	98.574	2.6838e-05	2.9233e-05	146.77	49.446	28.692	11.099	2.7142e-05	23.803	259.464	301.806	238.101	180.581	317.162	351.295	180.436	186.084	345.740	372.165	185.587	190.415	191.154	196.249	298.186	193.696	-8191	255	
16676.604	1	1	0	0	0.23412	0.25789	0.022838	0.19714	0.15995	0.14085	0.08149	0.094503	0.070153	0.097937	0.2527	0.097075	0.1252	0.25584	0.12253	0.070832	-1.8354	-1.9896	-2.5625	-2.1958	-2.4917	-2.4792	-2.2812	-2.5167	-2.3	-2.3333	-2.6771	-2.1875	-2.4792	-2.475	-2.2438	-2.6458	250.163	333.474	270.855	465.055	284.715	422.940	182.672	391.864	323.729	172.093	495.838	168.571	220.767	388.684	231.761	387.371	0.00018691	0.00076593	5.9049e-05	440.72	2.7784e-06	4.2562e-06	509.99	96.127	3.7691e-06	4.2889e-06	142.52	47.48	26.829	10.297	3.7641e-06	22.62	0.0017185	0.0026408	0.00072416	441.89	2.6269e-05	2.8714e-05	512.03	98.442	2.6913e-05	2.9233e-05	145.5	49.075	28.777	10.967	2.7426e-05	23.444	248.793	203.599	209.412	180.704	499.315	328.782	180.057	186.447	269.994	219.844	185.224	190.771	190.414	196.343	208.892	194.266	-8191	255	
16676.699	1	1	0	0	0.16419	0.24012	0.24569	0.17426	0.2395	0.17736	0.048449	0.058484	0.22612	0.090693	0.12858	0.101	0.15168	0.091623	0.096223	0.19384	-1.8729	-2.1417	-2.7271	-2.2396	-2.45	-2.6604	-2.0187	-2.5292	-2.5312	-2.5396	-2.6958	-2.3833	-2.3792	-2.4125	-2.25	-2.5542	507.570	360.924	450.177	452.379	366.996	402.290	275.770	487.826	454.965	391.627	310.008	504.175	225.179	194.117	415.830	400.072	0.00027086	0.00045824	8.2199e-05	439.25	6.1625e-06	3.9008e-06	506.33	95.16	2.5965e-06	4.9816e-06	139.28	46.342	26.222	10.182	1.6188e-06	22.374	0.0017486	0.002633	0.0007274	440.19	2.6178e-05	2.9139e-05	506.09	97.513	2.6658e-05	2.8664e-05	142.52	48.05	28.211	10.878	2.7149e-05	23.133	262.882	236.084	371.808	180.905	360.184	216.644	180.355	186.267	271.095	329.352	185.513	190.450	191.721	195.648	303.034	193.451	-8191	255	
16676.795	1	1	0	0	0.32138	0.11455	0.21738	0.1417	0.14254	0.075417	0.20909	0.18428	0.16787	0.052851	0.29403	0.24542	0.15778	0.14208	0.12236	0.30106	-1.8958	-2.1875	-2.4917	-2.4813	-2.2271	-2.7542	-2.2646	-2.6	-2.4896	-2.0625	-2.5979	-2.4437	-2.4229	-2.7542	-2.125	-2.6583	286.386	488.464	179.388	398.639	215.124	340.473	456.192	208.243	209.097	220.777	246.814	504.544	318.228	360.103	195.953	450.452	0.00020494	0.00031929	0.00013646	435.88	3.6987e-06	8.3073e-07	497.72	93.251	5.7008e-06	4.8072e-06	138.47	46.127	26.268	10.018	4.5263e-06	21.993	0.0017113	0.0026282	0.00073984	436.8	2.6326e-05	2.9585e-05	500.96	96.438	2.6977e-05	2.9457e-05	142.17	47.886	28.236	10.703	2.8171e-05	22.937	259.044	484.550	287.532	180.557	330.653	363.412	180.649	186.085	335.217	286.815	185.142	190.404	191.409	195.648	357.127	193.984	-8191	255	
16676.891	1	1	0	0	0.10684	0.19288	0.156	0.42138	0.2528	0.18177	0.16656	0.21221	0.16966	0.17694	0.12508	0.1259	0.27603	0.15799	0.12867	0.12738	-2.1083	-2.1417	-2.6333	-2.4292	-2.4125	-2.6188	-2.3208	-2.4979	-2.5458	-2.2979	-2.7208	-2.5833	-2.2083	-2.7062	-2.2562	-2.6333	367.983	347.148	520.255	484.882	210.395	251.348	326.825	257.614	440.615	339.883	213.415	226.619	169.426	357.028	213.099	264.860	0.00015038	0.00044406	8.3752e-05	435.77	3.0255e-06	9.3057e-07	497.09	94.33	3.3057e-06	6.4568e-06	138.26	46.287	26.474	10.205	5.7798e-06	22.337	0.0017534	0.0026699	0.00074478	437.81	2.7005e-05	2.9484e-05	499.82	96.515	2.7183e-05	2.9356e-05	142.08	47.998	28.34	10.782	2.7328e-05	23.081	263.356	299.711	307.019	180.611	262.868	321.816	180.109	185.814	329.291	233.837	185.042	190.225	191.200	196.020	267.126	193.694	-8191	255	
16676.986	1	1	0	0	0.11244	0.2319	0.10376	0.17159	0.21626	0.044192	0.28493	0.09476	0.093958	0.12938	0.25619	0.15438	0.19712	0.18075	0.28987	0.212	-2.0146	-2.0125	-2.4521	-2.3375	-2.1792	-2.6854	-2.4208	-2.2812	-2.5	-2.1625	-2.5875	-2.3542	-2.2687	-2.5792	-2.325	-2.4354	251.923	370.656	398.263	182.634	196.036	456.858	456.082	461.738	499.336	219.921	444.948	348.946	408.397	504.976	342.647	294.887	0.00020317	0.00012993	0.00011135	438.97	3.4898e-06	4.8337e-06	500.25	94.662	1.2233e-06	1.4464e-06	139.74	46.184	26.328	10.028	5.0498e-06	21.898	0.0017222	0.0026548	0.00072174	440	2.6406e-05	2.8739e-05	501.93	97.053	2.6433e-05	2.8658e-05	142.68	47.758	28.186	10.672	2.702e-05	22.721	254.762	468.198	205.291	180.800	214.298	271.221	180.578	185.832	207.621	391.739	185.290	190.362	191.090	195.486	335.023	193.434	-8191	255	
16677.082	1	1	0	0	0.071828	0.21102	0.13015	0.24523	0.018868	0.17892	0.033646	0.13239	0.086311	0.15686	0.035661	0.14936	0.24429	0.087398	0.17208	0.03403	-2.2229	-2.2333	-2.4146	-2.6083	-2.2396	-2.7	-2.4437	-2.3083	-2.6917	-2.2812	-2.5896	-2.4854	-2.2229	-2.5563	-2.5	-2.2333	245.661	398.990	252.486	409.707	206.049	321.827	309.265	418.778	281.646	278.777	229.565	441.380	450.590	428.338	489.315	272.477	0.00021559	0.00031809	0.00016025	437.76	4.1114e-07	5.7306e-06	499.7	93.448	2.8952e-06	4.7118e-06	136.99	46.059	26.279	10.083	4.1611e-06	21.923	0.0016968	0.0026428	0.00072842	437.79	2.6596e-05	2.8569e-05	498.99	96.775	2.6065e-05	2.8929e-05	141.55	47.74	28.279	10.716	2.7128e-05	22.749	261.443	251.508	196.023	180.448	286.466	271.217	180.363	186.091	289.372	228.878	185.299	190.044	190.966	195.634	443.658	193.980	-8191	255	
16677.203	1	1	0	0	0.23996	0.14227	0.37407	0.1519	0.42587	0.15677	0.15684	0.20331	0.22782	0.11552	0.15607	0.10023	0.082178	0.1998	0.38503	0.19972	-2.3042	-2.2833	-2.45	-2.4708	-2.175	-2.6292	-2.4625	-2.0625	-2.55	-2.375	-2.4229	-2.4083	-2.2104	-2.6458	-2.4688	-2.2438	287.863	205.076	443.487	469.890	318.740	221.632	526.044	170.354	306.340	412.244	346.209	260.743	487.303	467.075	296.661	182.794	0.00021691	5.0649e-05	9.5319e-05	435.72	2.8002e-06	2.7573e-06	496.51	94.836	2.7252e-06	1.9504e-06	139.19	46.614	26.457	10.207	4.5839e-06	21.983	0.0016853	0.0026224	0.00072114	438.96	2.6394e-05	2.8789e-05	500.08	97.326	2.6489e-05	2.8809e-05	142.56	47.796	28.363	10.751	2.6848e-05	22.758	261.728	436.369	497.204	180.311	332.629	213.041	180.306	186.097	492.536	261.541	184.962	190.727	191.273	196.065	288.847	193.531	-8191	255	
16677.301	1	1	0	0	0.23595	0.13966	0.26038	0.085374	0.12436	0.17628	0.29358	0.28597	0.037423	0.046051	0.12943	0.051655	0.11172	0.40552	0.10672	0.086458	-2.2333	-2.1479	-2.2292	-2.6604	-2.1	-2.6167	-2.6	-2.2021	-2.6083	-2.3458	-2.3958	-2.6125	-2.1729	-2.5042	-2.425	-2.2583	436.787	244.895	483.856	523.164	476.597	271.942	453.267	324.569	500.680	339.482	279.067	489.415	264.541	524.637	380.507	456.800	0.0001861	0.0004439	2.8043e-05	442.61	2.926e-06	2.1677e-06	507.54	96.551	2.3425e-06	5.918e-06	142.52	46.803	26.666	10.261	1.2819e-06	22.142	0.0016489	0.002552	0.00069988	443.35	2.5441e-05	2.8296e-05	506.63	98.842	2.529e-05	2.7906e-05	144.78	48.17	28.498	10.809	2.5738e-05	22.822	271.329	394.203	183.452	180.434	347.184	424.645	180.372	185.720	192.498	379.273	185.041	189.880	191.818	196.246	386.393	193.667	-8191	255	
16677.396	1	1	0	0	0.11739	0.18873	0.17267	0.14574	0.046227	0.16127	0.37262	0.14988	0.24717	0.167	0.029785	0.15549	0.27754	0.23348	0.11607	0.20161	-2.1625	-2.2917	-2.3021	-2.7521	-2.1958	-2.3625	-2.675	-2.1854	-2.5146	-2.3583	-2.2292	-2.4479	-2.325	-2.3375	-2.5062	-2.1333	363.121	350.261	264.244	201.431	443.042	230.389	435.566	340.837	216.782	237.770	398.359	442.769	452.714	190.005	227.310	441.877	0.00021445	0.0006473	4.8795e-05	445.59	3.8298e-06	4.4123e-06	508.69	97.812	5.1464e-07	6.1673e-06	142.64	47.628	26.978	10.259	4.8888e-06	22.107	0.001624	0.0024954	0.00069484	447.46	2.5413e-05	2.7563e-05	510.01	99.857	2.5117e-05	2.7511e-05	145.95	48.51	28.683	10.759	2.5648e-05	22.904	267.525	284.702	218.845	180.687	256.101	353.887	180.053	186.286	392.659	320.014	184.794	190.184	190.643	196.211	261.019	193.377	-8191	255	
16677.492	1	1	0	0	0.15244	0.24107	0.15958	0.19619	0.28495	0.30674	0.06386	0.13616	0.085698	0.053466	0.33977	0.24375	0.16895	0.13183	0.04193	0.17815	-1.9792	-2.35	-2.2354	-2.4854	-2.2292	-2.3812	-2.5958	-2.0563	-2.5396	-2.3958	-2.2021	-2.6271	-2.25	-2.1625	-2.6417	-2.1958	470.103	270.052	228.391	469.346	495.602	283.779	311.778	352.335	409.751	413.680	290.455	476.111	395.060	218.326	194.129	365.111	0.00017574	0.00041988	0.00015601	451.18	1.3778e-06	1.8172e-06	514	98.223	6.2961e-06	3.3555e-06	143.8	46.92	27.138	10.197	1.4898e-06	22.036	0.0016162	0.0024891	0.00069707	450.81	2.5002e-05	2.7709e-05	514.52	101	2.5304e-05	2.7238e-05	147.24	48.472	28.796	10.777	2.5186e-05	22.705	260.829	423.565	296.685	180.679	228.174	252.733	180.440	185.805	502.332	383.188	185.000	190.388	191.208	196.442	442.820	193.901	-8191	255	
16677.590	1	1	0	0	0.10824	0.26195	0.068711	0.08903	0.3211	0.18353	0.20523	0.15918	0.096314	0.1815	0.16899	0.23303	0.23167	0.2941	0.31737	0.070458	-1.975	-2.3875	-2.2229	-2.5687	-2.2292	-2.2417	-2.5292	-2.2958	-2.5604	-2.6583	-2.0458	-2.5979	-2.3812	-2.4333	-2.7062	-2.1813	425.813	251.615	388.617	512.199	219.114	353.819	448.650	418.728	279.352	172.962	443.179	433.844	479.797	460.967	458.581	235.939	0.0001021	0.00042618	0.00021438	452.77	1.0468e-06	3.838e-06	513.81	100.17	5.0532e-07	1.8663e-06	144.25	46.702	27.254	9.9362	5.2726e-06	21.648	0.0016118	0.0024888	0.00069816	452.7	2.489e-05	2.716e-05	514.7	101.83	2.4821e-05	2.7308e-05	146.9	48.128	28.85	10.593	2.5789e-05	22.278	264.629	197.215	310.288	180.263	361.496	350.853	180.567	186.196	479.154	313.689	184.814	190.274	191.279	195.682	274.929	193.369	-8191	255	
16677.684	1	1	0	0	0.044229	0.34137	0.15318	0.22062	0.21501	0.22607	0.19936	0.093931	0.1759	0.073596	0.13797	0.32731	0.088627	0.31307	0.10824	0.3212	-2.0438	-2.5042	-2.1125	-2.6167	-2.4313	-2.2729	-2.6458	-2.0604	-2.5312	-2.4875	-2.2562	-2.5021	-2.4583	-2.2292	-2.6188	-2.3146	201.611	498.405	500.249	173.052	264.871	254.157	180.009	487.742	191.685	385.361	418.436	248.569	376.257	188.530	460.112	409.854	0.00025898	0.00031222	0.00013283	450.92	4.5246e-06	1.3272e-06	515.64	99.422	1.8131e-06	2.3362e-06	144.04	46.466	26.549	9.9273	5.4008e-06	21.522	0.0015938	0.0024788	0.00070182	451.83	2.5079e-05	2.7705e-05	515.21	101.17	2.5409e-05	2.7832e-05	146.48	47.997	28.578	10.542	2.6448e-05	22.268	258.882	202.422	300.757	180.394	338.793	432.860	180.276	186.107	212.115	434.399	184.827	189.868	191.319	196.809	345.885	193.512	-8191	255	
16677.805	1	1	0	0	0.24525	0.3012	0.072541	0.27696	0.13141	0.056239	0.28074	0.33389	0.2185	0.056183	0.18224	0.14321	0.24225	0.21792	0.21529	0.18972	-2.025	-2.5375	-2.125	-2.5812	-2.475	-2.3125	-2.7333	-2.3104	-2.45	-2.6833	-2.2854	-2.3833	-2.4833	-2.1917	-2.7062	-2.3896	202.951	507.598	286.659	208.841	325.787	202.374	422.230	482.041	168.876	506.408	389.090	461.739	405.508	464.810	298.530	403.311	0.00021587	0.0004082	8.0399e-05	449.35	1.8905e-06	3.6427e-06	516.96	98.397	7.7187e-06	3.0463e-06	144.2	46.765	27.128	9.953	3.3621e-06	21.761	0.0016588	0.002523	0.00070769	450.12	2.591e-05	2.84e-05	516.63	101.17	2.571e-05	2.8251e-05	146.83	48.207	28.73	10.598	2.6579e-05	22.399	262.055	205.951	370.865	180.452	429.513	271.766	180.356	185.775	306.563	445.257	184.976	190.042	191.200	195.872	281.157	193.201	-8191	255	
16677.900	1	1	0	0	0.11223	0.028558	0.086229	0.31504	0.17486	0.12348	0.16001	0.21195	0.28923	0.18132	0.21656	0.078685	0.1177	0.34598	0.14238	0.0086189	-1.7854	-2.6937	-2.1333	-2.4813	-2.6229	-2.2896	-2.7062	-2.4354	-2.2875	-2.7979	-2.3458	-2.3688	-2.3833	-2.1417	-2.6458	-2.4375	421.381	174.745	525.391	462.650	194.515	269.715	456.437	242.004	345.574	486.824	476.989	447.550	455.938	238.182	442.589	266.539	0.00018637	0.00073022	9.9756e-05	455.36	1.1978e-06	2.9549e-06	521.68	99.964	6.6548e-07	3.2869e-06	144.85	46.818	27.111	10.092	9.4247e-07	21.593	0.0016593	0.0024935	0.00070419	455.42	2.5031e-05	2.8213e-05	520.49	102.22	2.5414e-05	2.8176e-05	147.96	48.361	28.922	10.673	2.5856e-05	22.439	252.306	273.189	181.020	180.729	398.598	324.176	180.084	185.651	259.900	172.983	185.120	190.528	191.767	196.215	418.574	193.297	-8191	255	
16677.996	1	1	0	0	0.25272	0.29786	0.12317	0.1998	0.25277	0.40586	0.20019	0.20216	0.054836	0.27569	0.1021	0.30432	0.17927	0.19704	0.051294	0.077148	-1.7792	-2.6208	-2.1104	-2.5729	-2.4917	-2.2146	-2.6562	-2.5292	-2.325	-2.7625	-2.35	-2.4104	-2.4042	-2.1896	-2.5875	-2.6646	448.437	289.682	494.809	189.847	252.162	298.438	447.803	468.755	239.162	470.005	501.484	477.333	481.798	443.471	361.852	339.036	0.00026541	0.00050212	0.00010509	454.86	2.3303e-06	2.2432e-06	514.78	98.892	3.3094e-06	1.8591e-06	143.7	47.11	26.945	10.002	5.2824e-06	21.871	0.0016499	0.0025286	0.00070287	454.82	2.6418e-05	2.8716e-05	517.29	101.52	2.6548e-05	2.8822e-05	146.42	48.294	28.893	10.694	2.7235e-05	22.569	269.043	274.614	259.280	180.632	253.565	327.733	180.273	185.974	452.109	347.500	185.192	190.719	191.107	195.851	303.115	193.777	-8191	255	
16678.068	1	1	0	0	0.23068	0.071232	0.14088	0.031972	0.15084	0.23805	0.29018	0.24738	0.45774	0.22388	0.29044	0.2162	0.27246	0.042802	0.21967	0.12391	-1.8125	-2.5417	-2.2729	-2.3708	-2.7396	-2.0812	-2.7417	-2.4083	-2.1813	-2.6937	-2.3521	-2.3438	-2.475	-2.3312	-2.5938	-2.7417	325.568	204.653	399.544	367.066	381.290	438.184	193.960	357.642	176.362	292.668	271.794	342.172	480.093	368.692	207.676	386.224	0.00024429	0.00079917	0.00017535	450.55	1.9721e-06	4.5742e-06	513.41	98.08	1.0977e-06	6.5987e-06	142.52	46.442	26.89	9.9521	5.019e-06	21.314	0.0016972	0.002611	0.00073274	450.69	2.5893e-05	2.8318e-05	514.93	100.75	2.671e-05	2.8893e-05	145.83	48.036	28.612	10.577	2.714e-05	22.109	263.607	229.802	305.117	180.543	168.029	478.740	180.099	185.873	355.277	327.653	184.919	189.904	190.894	196.227	318.869	193.242	-8191	255	
16678.164	1	1	0	0	0.12166	0.11593	0.2808	0.31063	0.071942	0.26697	0.14655	0.10096	0.19839	0.11356	0.1947	0.050847	0.064486	0.068018	0.20942	0.068967	-1.8542	-2.5021	-2.4062	-2.5875	-2.6021	-2.3042	-2.5125	-2.4229	-2.1646	-2.5563	-2.4667	-2.275	-2.6417	-1.9542	-2.5625	-2.6667	265.678	396.779	442.427	193.407	512.132	463.828	427.278	465.337	420.227	429.388	288.421	335.985	199.644	296.666	489.547	365.700	0.00019063	0.00038522	0.0001036	448.01	2.2289e-06	4.2078e-06	515.18	98.015	5.9224e-06	4.6526e-06	142.72	46.69	26.526	9.9686	5.1143e-07	21.503	0.0017082	0.0025973	0.00072383	450.76	2.5945e-05	2.8752e-05	515.31	100.65	2.6856e-05	2.8905e-05	145.9	48.215	28.649	10.609	2.764e-05	22.292	265.245	244.049	233.065	180.802	286.396	418.432	180.459	186.088	322.324	249.598	184.874	190.161	191.404	196.477	360.642	193.904	-8191	255	
16678.283	1	1	0	0	0.16406	0.067514	0.24314	0.11995	0.12197	0.029874	0.14357	0.11023	0.20342	0.082887	0.18532	0.093653	0.027825	0.083579	0.10352	0.3799	-1.8292	-2.7625	-2.3812	-2.2042	-2.6104	-2.2917	-2.5854	-2.5125	-2.3083	-2.6208	-2.5146	-2.1188	-2.7229	-2.3792	-2.3812	-2.7229	260.712	487.817	355.736	520.342	443.210	413.614	413.872	396.821	354.276	394.119	482.938	353.815	353.022	429.051	257.054	445.173	0.00018971	0.00020213	0.00010035	449.73	3.8474e-06	1.2531e-06	519.38	98.181	1.6698e-06	4.2622e-06	143.8	46.748	26.601	10.22	6.1207e-06	21.758	0.0016946	0.0025939	0.00073265	450.99	2.6682e-05	2.8832e-05	519.59	100.9	2.6787e-05	2.8976e-05	147.53	48.573	28.687	10.734	2.7454e-05	22.585	262.596	207.739	265.501	180.739	249.533	476.941	180.331	185.585	509.031	344.435	185.211	190.408	191.156	196.521	255.626	193.487	-8191	255	
16678.381	1	1	0	0	0.20732	0.061988	0.051242	0.28815	0.06679	0.18977	0.33649	0.050823	0.24779	0.19591	0.19378	0.16704	0.20679	0.12301	0.20995	0.11525	-1.6625	-2.3854	-2.6021	-2.2708	-2.6646	-2.2979	-2.4167	-2.7	-2.1354	-2.5896	-2.5896	-2.2938	-2.6937	-2.2917	-2.2979	-2.6729	435.225	392.431	482.808	505.918	273.262	282.287	495.257	200.570	502.504	394.186	462.269	287.395	512.061	296.099	247.457	410.229	0.00023225	0.00068145	0.0001706	450.87	2.1772e-06	3.513e-06	517.4	98.621	3.8082e-06	3.4613e-06	144.56	47.343	26.983	10.03	3.8606e-06	21.767	0.0017343	0.0026883	0.00074445	452.5	2.6406e-05	2.9442e-05	519.96	101.32	2.7347e-05	3.0058e-05	148.01	48.876	28.908	10.685	2.8678e-05	22.598	262.853	344.592	296.832	180.916	283.927	418.356	180.187	186.088	305.045	293.105	184.861	190.388	190.722	195.662	302.644	193.671	-8191	255	
16678.477	1	1	0	0	0.08918	0.061937	0.15606	0.16568	0.062726	0.14488	0.22906	0.14187	0.22698	0.10995	0.42764	0.19684	0.049708	0.16038	0.13689	0.34022	-1.9188	-2.2375	-2.5125	-2.2146	-2.6083	-2.4188	-2.2396	-2.7583	-2.2833	-2.375	-2.4667	-2.0312	-2.7521	-2.4854	-2.1854	-2.6562	265.194	500.220	291.518	316.962	491.809	439.370	438.314	396.384	198.785	177.584	424.900	405.246	341.916	370.113	228.627	418.457	0.00023522	0.00038037	3.2525e-05	446.12	1.9952e-06	2.1206e-06	519.43	98.27	2.3699e-06	6.2412e-06	142.01	46.6	26.705	9.946	5.369e-06	21.518	0.0017786	0.0027068	0.00074656	449.22	2.7285e-05	3.0241e-05	517.96	100.68	2.784e-05	3.0482e-05	146.3	48.437	28.689	10.618	2.8426e-05	22.335	274.699	270.095	315.968	180.695	478.344	303.513	180.321	185.923	348.880	367.622	185.272	190.100	191.360	195.830	326.218	193.428	-8191	255	
16678.598	1	1	0	0	0.24124	0.11848	0.16859	0.067023	0.34338	0.08683	0.3736	0.18219	0.17896	0.10388	0.19889	0.22732	0.043666	0.15798	0.29501	0.10781	-1.85	-2.4167	-2.4604	-2.1375	-2.5812	-2.4646	-2.1833	-2.6771	-2.3083	-2.3604	-2.5229	-2.1396	-2.4625	-2.5083	-2.1312	-2.7188	292.383	460.612	178.923	493.611	303.687	214.147	448.163	441.856	282.944	383.366	274.822	243.506	470.494	247.285	487.012	463.421	0.00022149	0.00013915	8.6016e-05	448.27	2.4172e-06	6.3031e-06	518.75	97.685	4.4404e-06	4.3535e-06	143.84	46.741	26.758	9.8497	1.2615e-06	21.627	0.0017832	0.0026656	0.00076669	449.87	2.6887e-05	3.0318e-05	519.78	100.4	2.7999e-05	2.9838e-05	146.81	48.344	28.577	10.522	2.8386e-05	22.366	257.278	379.299	298.309	180.672	307.234	325.272	180.245	186.110	327.112	354.229	185.167	189.853	191.121	195.218	216.198	193.250	-8191	255	
16678.691	1	1	0	0	0.20436	0.24447	0.13596	0.074533	0.12543	0.18558	0.18669	0.18865	0.236	0.092918	0.12548	0.2232	0.075974	0.10837	0.26375	0.14553	-1.7563	-2.1708	-2.6125	-2.0333	-2.3979	-2.4333	-2.2333	-2.6417	-2.3604	-2.35	-2.6583	-2.4062	-2.5312	-2.6333	-2.15	-2.5854	409.583	180.943	458.893	291.588	264.907	178.779	354.136	199.397	485.693	264.563	240.996	510.743	498.404	226.047	328.854	414.226	0.00023923	0.00032074	3.0638e-05	445.68	2.6331e-06	1.3477e-06	515.57	97.406	2.688e-06	6.007e-06	144.07	47.644	26.788	9.8397	1.1342e-06	21.829	0.0017729	0.0027365	0.00076513	447.84	2.7356e-05	3.0167e-05	520.34	100.34	2.7488e-05	3.0626e-05	147.88	49.136	28.838	10.597	2.9539e-05	22.59	262.049	247.558	193.379	180.650	281.544	524.124	180.484	186.146	371.327	345.213	184.756	190.345	190.748	196.158	287.833	193.590	-8191	255	
16678.766	1	1	0	0	0.093673	0.1481	0.27322	0.15485	0.13229	0.20145	0.32512	0.37477	0.25199	0.27193	0.29102	0.072918	0.42828	0.13597	0.10974	0.10281	-1.9688	-2.1792	-2.7604	-2.2479	-2.4271	-2.6063	-2.3438	-2.4437	-2.4625	-2.3063	-2.6125	-2.3146	-2.3396	-2.5875	-2.2229	-2.7	242.277	206.960	250.961	452.928	261.403	440.840	410.523	172.183	296.797	178.812	190.512	216.995	381.563	457.483	411.648	524.559	0.00022347	0.00070405	5.6957e-05	448.42	4.0828e-06	4.4114e-06	521.47	97.843	7.2395e-06	4.2695e-06	146.55	47.325	26.97	10.026	6.6508e-06	21.807	0.0018121	0.002754	0.00076341	449.95	2.7965e-05	3.1202e-05	523.01	101.22	2.8737e-05	3.1338e-05	149.42	49.18	29.167	10.685	2.9739e-05	22.561	253.779	264.437	229.097	180.755	267.162	395.913	180.459	186.087	292.074	295.753	185.133	190.369	190.889	196.329	308.720	193.425	-8191	255	
16678.885	1	1	0	0	0.23525	0.26963	0.17925	0.17223	0.1026	0.092547	0.20611	0.051079	0.19525	0.29161	0.097654	0.156	0.19977	0.32996	0.02194	0.10176	-1.9667	-2.2146	-2.4917	-2.3729	-2.4375	-2.5125	-2.2562	-2.6104	-2.4854	-2.35	-2.7562	-2.3771	-2.3417	-2.6063	-2.1521	-2.5604	438.416	200.318	197.917	513.625	287.987	359.209	456.903	506.718	214.672	314.921	514.285	425.760	496.444	335.693	305.320	357.497	0.00021527	0.00029642	4.4389e-05	452.39	4.6598e-06	5.0977e-06	524.51	98.988	2.8726e-06	4.065e-06	144.79	47.168	26.783	9.8134	1.5819e-06	21.289	0.00182	0.002826	0.00077679	454.21	2.8223e-05	3.1215e-05	524.14	101.84	2.8462e-05	3.1089e-05	148.63	48.745	29.043	10.517	2.9989e-05	22.056	256.008	288.948	511.536	180.582	319.622	285.628	180.188	185.970	364.848	259.859	184.847	190.161	190.905	196.605	333.320	192.734	-8191	255	
16678.980	1	1	0	0	0.098864	0.1534	0.073144	0.028081	0.1819	0.28763	0.23334	0.15092	0.036976	0.17214	0.33886	0.18	0.14696	0.16871	0.18836	0.2329	-1.975	-2.0104	-2.6396	-2.35	-2.2562	-2.6375	-2.3021	-2.2917	-2.3917	-2.3312	-2.725	-2.3021	-2.1979	-2.6958	-2.2854	-2.3354	381.538	430.542	418.842	244.445	185.478	195.837	266.875	319.253	350.543	317.457	425.284	487.248	362.521	483.497	423.827	179.112	0.0001879	0.00047381	4.4842e-05	453.85	8.0777e-07	2.2302e-06	524.61	99.573	7.1253e-07	6.5839e-06	144.71	46.828	26.683	9.6398	4.4849e-06	20.915	0.0018317	0.0027847	0.00078723	455.76	2.8487e-05	3.1204e-05	525.16	101.99	2.9001e-05	3.1594e-05	148.54	48.429	28.741	10.343	3.0192e-05	21.748	269.071	230.734	342.095	180.671	487.710	408.972	180.127	186.061	194.087	404.324	184.730	189.988	191.115	195.856	254.577	193.217	-8191	255	
16679.076	1	1	0	0	0.17463	0.17736	0.060059	0.15641	0.17736	0.022143	0.1312	0.090773	0.18413	0.16359	0.27737	0.21685	0.10122	0.30505	0.059217	0.1155	-2.0083	-2.1188	-2.5917	-2.5125	-2.0938	-2.4396	-2.4208	-2.375	-2.5938	-2.1792	-2.6688	-2.4208	-2.3083	-2.3812	-2.3167	-2.4	420.245	496.251	363.771	456.167	256.024	349.149	194.082	513.964	495.115	175.032	186.291	193.942	293.219	429.831	185.040	239.768	0.0002287	0.00044828	0.00010325	452.77	4.1829e-06	1.6609e-06	528.22	99.191	2.8817e-06	1.1942e-06	145.71	47.153	26.605	9.7031	4.8357e-06	21.158	0.0018687	0.0028869	0.00079654	456.76	2.9754e-05	3.1931e-05	528.9	102.33	2.9548e-05	3.2436e-05	149.16	48.8	29.006	10.431	3.092e-05	22.025	272.469	518.827	339.845	180.686	170.521	374.724	180.049	185.965	266.145	293.556	184.700	190.215	191.634	195.637	316.096	193.108	-8191	255	
16679.197	1	1	0	0	0.2858	0.16285	0.18062	0.12125	0.099123	0.067277	0.086996	0.077257	0.18787	0.28453	0.22253	0.34111	0.26544	0.24641	0.10795	0.12869	-2.2229	-2.0917	-2.4542	-2.6854	-2.0812	-2.6917	-2.3438	-2.3229	-2.625	-2.0875	-2.3646	-2.5104	-2.1646	-2.6688	-2.5604	-2.3125	234.271	358.741	311.137	410.718	519.311	322.520	484.254	316.353	464.889	320.530	519.107	256.701	447.792	447.781	264.027	273.616	0.00023251	0.00052182	0.00013566	456.17	1.0581e-05	2.5887e-06	528.64	98.689	3.0844e-06	4.43e-06	147.09	47.379	26.753	9.7901	4.3145e-06	21.099	0.0019278	0.0030063	0.00081797	456.93	2.991e-05	3.2443e-05	531.73	102.36	2.9706e-05	3.2375e-05	150.96	49.02	29.108	10.484	3.0483e-05	21.964	261.358	223.853	225.729	180.556	296.043	374.701	179.959	185.883	179.560	299.720	184.746	189.705	190.927	195.726	346.322	193.138	-8191	255	
16679.293	1	1	0	0	0.29614	0.20159	0.15682	0.090322	0.050446	0.18775	0.16187	0.29338	0.19329	0.18356	0.057828	0.11536	0.18397	0.20361	0.15229	0.17801	-2.4104	-2.1708	-2.4958	-2.6125	-2.3458	-2.65	-2.4417	-2.4313	-2.5625	-2.2896	-2.5083	-2.5854	-2.2146	-2.6667	-2.4583	-2.2771	462.071	408.276	268.836	207.074	362.359	302.388	449.427	423.846	511.006	416.425	477.566	326.472	399.412	240.565	469.491	217.727	0.0001664	0.00042499	3.5499e-05	458.13	3.3553e-06	7.8574e-06	536.71	100.6	9.7196e-07	2.4397e-06	146.01	47.401	27.102	9.912	5.2557e-06	21.166	0.0018996	0.0029199	0.0008164	459.59	2.951e-05	3.2462e-05	532.87	102.8	3.001e-05	3.284e-05	150.04	48.984	29.143	10.554	3.0832e-05	22.013	240.215	390.232	473.685	180.434	368.024	337.742	180.486	185.698	275.087	350.487	184.956	189.938	190.422	195.903	332.992	193.134	-8191	255	
16679.365	1	1	0	0	0.13836	0.19183	0.14038	0.16702	0.0053433	0.082796	0.27392	0.28797	0.10695	0.20715	0.018766	0.16194	0.41616	0.029651	0.13662	0.17265	-2.2042	-2.2417	-2.4396	-2.6479	-2.2729	-2.6792	-2.4979	-2.2938	-2.6458	-2.5	-2.3583	-2.4375	-2.2938	-2.6521	-2.6479	-2.2521	431.734	437.920	409.610	454.675	444.577	516.477	427.965	481.265	179.495	511.177	239.458	515.671	445.165	221.435	217.502	392.849	0.00019258	0.00021515	0.00011125	446.06	3.7443e-06	4.0999e-06	515.79	96.824	2.7019e-06	2.3808e-06	142.58	46.379	26.494	9.7658	2.1935e-06	20.89	0.0019478	0.0029565	0.0008346	449.85	2.9871e-05	3.2509e-05	520.46	100.14	2.9631e-05	3.2844e-05	146.97	48.478	28.774	10.4	3.0303e-05	21.689	251.514	348.768	198.612	180.791	453.804	384.865	180.128	185.985	350.575	290.687	184.745	190.021	191.350	195.765	168.072	193.048	-8191	255	
16679.461	1	1	0	0	0.18181	0.10593	0.057658	0.043793	0.2813	0.31952	0.072198	0.10051	0.19345	0.01977	0.15672	0.2131	0.17601	0.23442	0.12892	0.11419	-2.1083	-2.3625	-2.2979	-2.6688	-2.1021	-2.5729	-2.6437	-2.2792	-2.5896	-2.4792	-2.2812	-2.6688	-2.2313	-2.5	-2.7583	-2.2771	218.334	397.071	509.320	515.332	286.192	282.581	476.008	429.570	525.559	362.868	246.633	430.123	398.732	261.706	182.460	289.724	0.00019888	0.00058215	8.8444e-05	446.92	2.3961e-06	4.3785e-06	521.21	95.966	3.454e-06	3.9771e-06	143.5	46.813	26.447	9.7231	1.4295e-06	20.964	0.00189	0.0029351	0.00080563	450.26	2.9814e-05	3.2245e-05	522.6	99.712	2.982e-05	3.2539e-05	147.74	48.482	28.757	10.415	3.0326e-05	21.798	257.653	441.016	195.950	180.731	309.786	197.096	180.076	185.729	391.952	204.428	184.699	190.002	191.390	196.156	249.325	192.896	-8191	255	
16679.580	1	1	0	0	0.084937	0.18899	0.11874	0.22943	0.15187	0.071785	0.29814	0.21065	0.10676	0.22731	0.25411	0.16861	0.063774	0.022108	0.20837	0.24235	-2.1583	-2.3771	-2.1042	-2.6042	-2.2354	-2.3646	-2.775	-2.3333	-2.6083	-2.3833	-2.3688	-2.7438	-2.3688	-2.2313	-2.6688	-2.2729	176.682	204.776	237.563	486.172	501.052	211.698	457.615	342.505	466.093	175.535	377.164	484.292	488.635	302.313	193.122	332.676	0.00020701	0.00075917	0.00013638	448.67	2.0683e-06	1.7054e-06	521.71	98.192	2.571e-06	1.1613e-06	145.63	47.369	26.647	9.7873	1.8148e-06	21.003	0.001892	0.0029744	0.00083221	452.75	3.0069e-05	3.3001e-05	525.26	101.27	3.0474e-05	3.3011e-05	149.41	49.054	28.924	10.441	3.1282e-05	22.022	264.275	261.160	300.596	180.321	319.591	253.541	180.224	186.172	315.900	274.847	185.030	190.153	191.383	195.700	453.054	193.069	-8191	255	
16679.676	1	1	0	0	0.20331	0.20085	0.32121	0.050094	0.37731	0.11591	0.11738	0.11944	0.30697	0.067127	0.17632	0.13099	0.080635	0.050707	0.13479	0.13172	-2.0979	-2.5083	-2.2896	-2.5896	-2.3896	-2.1896	-2.7917	-2.3688	-2.6333	-2.5396	-2.2938	-2.5042	-2.2146	-2.4062	-2.5708	-2.4	357.485	171.210	246.461	240.893	347.850	521.981	297.363	264.482	244.914	194.959	341.328	201.434	358.668	426.977	212.600	169.527	0.00024433	0.00048981	4.7988e-05	451.15	1.0843e-06	2.3754e-06	530.68	98.977	1.7658e-06	2.5205e-06	144.77	47.158	26.957	9.7796	1.8626e-06	20.835	0.0019269	0.0030116	0.00082116	454.92	3.0397e-05	3.3239e-05	530.2	102.39	2.9998e-05	3.3544e-05	149.58	49.157	29.283	10.536	3.1927e-05	21.811	251.447	219.669	305.171	180.830	415.089	502.034	180.393	186.160	270.474	407.364	184.805	190.188	190.675	195.784	258.726	193.207	-8191	255	
16679.771	1	1	0	0	0.23293	0.27797	0.069276	0.26916	0.12886	0.10761	0.14439	0.2447	0.12973	0.172	0.18543	0.15137	0.13165	0.13289	0.17553	0.22977	-2.0854	-2.4708	-2.1375	-2.7	-2.2979	-2.4917	-2.7792	-2.3187	-2.4375	-2.725	-2.1646	-2.6167	-2.4188	-2.3521	-2.5438	-2.3521	369.417	524.780	347.503	262.851	422.994	405.835	450.942	509.688	426.312	444.227	497.523	442.726	202.018	260.626	170.488	446.161	0.00022172	0.00056601	0.00013944	451.6	7.3266e-07	5.6444e-06	516.98	96.9	2.7855e-06	3.8555e-06	143.8	46.834	26.446	9.5865	3.9143e-06	20.629	0.0019682	0.0030416	0.00086532	453.24	3.1181e-05	3.4261e-05	521.47	100.45	3.1008e-05	3.3855e-05	147.23	48.408	28.798	10.286	3.1667e-05	21.554	259.414	252.649	260.101	180.381	376.786	327.094	180.595	185.887	278.861	347.397	184.638	190.232	191.189	196.185	344.028	193.183	-8191	255	
16679.867	1	1	0	0	0.14139	0.14372	0.41281	0.13175	0.20471	0.21178	0.11495	0.2081	0.28621	0.18958	0.20955	0.091899	0.064548	0.1264	0.068441	0.077413	-1.9917	-2.5146	-2.1229	-2.65	-2.2646	-2.3417	-2.6646	-2.1312	-2.2292	-2.4875	-2.3271	-2.5146	-2.4625	-2.4292	-2.7479	-2.4708	474.514	324.746	405.792	438.544	429.286	330.551	436.463	214.209	301.311	302.445	173.904	450.491	459.619	308.277	227.916	477.720	0.00021771	0.00070201	9.5477e-05	446.8	2.2915e-06	5.3603e-06	517.25	96.128	2.6466e-06	2.2916e-06	139.88	46.416	26.573	9.5914	3.2032e-06	20.561	0.0019435	0.0030328	0.00083675	449.59	3.0741e-05	3.3637e-05	519.99	99.56	3.0681e-05	3.331e-05	145.39	47.941	28.592	10.273	3.1591e-05	21.444	277.337	453.098	319.780	180.738	336.297	328.138	180.063	185.936	417.054	319.370	184.917	190.467	190.431	196.119	277.120	193.488	-8191	255	
16679.988	1	1	0	0	0.14057	0.17621	0.15473	0.26161	0.31192	0.12417	0.13224	0.048759	0.02591	0.29414	0.079545	0.25061	0.30065	0.084365	0.16758	0.032542	-1.9729	-2.3771	-2.0146	-2.4083	-2.3771	-2.2042	-2.475	-2.3375	-2.2792	-2.5771	-2.2	-2.5542	-2.7646	-2.2562	-2.5271	-2.4708	243.585	182.759	474.214	509.512	394.149	327.629	199.739	255.173	307.478	176.118	277.172	394.472	352.781	479.478	526.022	188.158	0.00019893	0.00021649	0.00010097	444.99	6.7791e-06	6.8459e-06	517.81	96.009	4.5279e-06	7.5402e-06	142.27	45.971	26.056	9.5651	5.2207e-06	20.556	0.0019428	0.0030083	0.0008349	449.22	3.0072e-05	3.3571e-05	520.5	99.565	3.0337e-05	3.2931e-05	146.23	47.921	28.578	10.237	3.0631e-05	21.433	250.643	492.008	241.296	180.360	496.911	261.980	179.979	186.033	417.260	343.316	185.185	189.862	190.744	195.840	257.307	193.330	-8191	255	
16680.061	1	1	0	0	0.22261	0.07369	0.10189	0.1353	0.17835	0.14232	0.12342	0.27685	0.08382	0.17291	0.23147	0.34712	0.052492	0.14326	0.096488	0.22649	-1.775	-2.4625	-2.2833	-2.5646	-2.7042	-2.1583	-2.5958	-2.4271	-2.2604	-2.7792	-2.2687	-2.4688	-2.5354	-2.2417	-2.5667	-2.3771	338.653	502.988	338.080	420.271	346.748	299.686	484.485	484.659	524.170	428.573	187.305	313.471	235.647	338.989	221.560	258.336	0.00021212	0.00063234	0.00013131	448.16	2.7649e-06	1.0266e-06	518.34	97.006	6.0242e-06	2.2603e-06	140.11	46.017	26.202	9.4801	3.5009e-06	20.286	0.0019032	0.0029184	0.00080117	450.15	2.9238e-05	3.276e-05	518.41	99.482	2.9229e-05	3.2249e-05	144.79	47.629	28.303	10.145	3.032e-05	21.196	268.789	429.325	506.142	180.497	256.259	243.385	180.107	186.276	356.611	364.568	184.655	190.212	191.232	195.137	435.728	193.531	-8191	255	
16680.156	1	1	0	0	0.24571	0.17895	0.073607	0.24106	0.075432	0.11427	0.11796	0.19321	0.11663	0.075496	0.095916	0.40282	0.23667	0.011057	0.14471	0.21276	-1.7333	-2.3667	-2.3792	-2.3292	-2.5792	-2.3021	-2.6	-2.4833	-2.2917	-2.6958	-2.1937	-2.4146	-2.65	-2.2	-2.4792	-2.5729	512.284	406.303	350.797	385.840	196.635	386.374	271.009	453.115	232.914	192.425	263.636	435.123	415.486	246.939	408.652	362.026	0.00017918	0.00010391	0.00014698	439.82	2.3081e-06	4.1081e-06	508.02	94.407	3.5549e-06	7.532e-07	137.93	45.443	25.789	9.4137	1.9345e-06	20.065	0.0019133	0.0028874	0.00081246	444.38	2.9177e-05	3.1885e-05	510.08	97.707	2.9313e-05	3.1914e-05	142.41	47.058	28.016	10.105	3.0856e-05	21.078	272.012	461.664	181.177	180.664	253.570	250.043	180.526	186.118	216.136	382.847	185.003	190.053	191.556	196.077	517.819	193.296	-8191	255	
16680.277	1	1	0	0	0.20418	0.25094	0.32355	0.19137	0.23909	0.1642	0.032232	0.22178	0.096345	0.1863	0.15793	0.12522	0.06046	0.33269	0.21468	0.16312	-1.8146	-2.5146	-2.2396	-2.3604	-2.7583	-2.3438	-2.5792	-2.6479	-2.1604	-2.7271	-2.4396	-2.2646	-2.7292	-2.2062	-2.4688	-2.6708	216.532	329.243	516.517	174.837	470.955	444.703	277.929	218.998	345.523	437.079	330.349	417.135	314.429	197.862	321.830	272.742	0.00022289	7.1234e-05	9.5793e-05	440.65	3.0926e-06	2.4711e-06	510.46	95.678	2.3043e-06	2.7084e-06	137.76	45.309	25.529	9.4397	3.9837e-06	20.304	0.0019338	0.0029624	0.00082225	444.95	2.9535e-05	3.2956e-05	511.71	98.734	3.0145e-05	3.2741e-05	143.06	47.066	27.958	10.118	3.116e-05	21.167	261.630	250.462	312.993	180.728	330.313	170.492	180.396	186.109	289.825	329.508	185.016	190.300	191.004	195.314	248.429	193.005	-8191	255	
16680.373	1	1	0	0	0.29483	0.22343	0.17711	0.30045	0.036742	0.17865	0.15822	0.32251	0.057712	0.12852	0.16963	0.11854	0.35342	0.065337	0.12671	0.087861	-1.9375	-2.8042	-2.3625	-2.4208	-2.6271	-2.2542	-2.5271	-2.7604	-2.325	-2.6854	-2.5062	-2.2458	-2.5833	-2.1917	-2.4813	-2.7875	366.632	519.843	171.608	519.007	273.169	525.138	489.062	523.821	435.377	183.014	204.868	411.780	504.805	453.180	334.287	491.146	0.00021277	0.00049002	9.362e-06	442.98	2.5842e-06	7.1785e-07	513.09	95.779	2.6043e-06	2.2744e-06	141.29	45.977	26.216	9.3801	5.2208e-06	20.331	0.00195	0.002948	0.00081591	445.4	2.9322e-05	3.2448e-05	514.03	98.894	3.0003e-05	3.2215e-05	144.98	47.434	28.26	10.127	3.0094e-05	21.342	260.301	253.368	373.422	181.022	419.240	431.176	179.881	185.622	229.405	446.636	184.853	189.949	191.417	196.355	246.515	193.047	-8191	255	
16680.471	1	1	0	0	0.15594	0.14998	0.090385	0.12256	0.3996	0.071404	0.28	0.16706	0.071695	0.067632	0.21035	0.12563	0.034633	0.20396	0.14249	0.056444	-1.7667	-2.4708	-2.4771	-2.1542	-2.4354	-2.2146	-2.3417	-2.7313	-2.1479	-2.7083	-2.65	-2.1875	-2.6813	-2.4021	-2.4562	-2.7458	395.291	515.870	496.307	236.177	514.141	464.101	447.619	438.741	378.619	220.729	188.264	411.490	313.708	303.825	505.966	454.459	0.00019657	0.00043304	0.00013413	441.83	3.32e-06	1.4298e-06	513.93	94.778	1.1108e-06	2.5246e-06	142.51	46.668	26.753	9.5649	2.9819e-06	20.765	0.0019188	0.0029933	0.00082219	443.92	2.9988e-05	3.3276e-05	514.23	98.374	3.0485e-05	3.2871e-05	146.14	48.507	28.939	10.37	3.1178e-05	21.721	258.281	264.266	354.893	180.322	311.200	507.565	180.455	186.002	357.700	308.530	184.444	190.117	191.096	195.655	304.386	192.728	-8191	255	
16680.566	1	1	0	0	0.20972	0.208	0.089759	0.10359	0.15413	0.25582	0.22147	0.28167	0.1003	0.097365	0.14734	0.11137	0.24876	0.092267	0.30207	0.13905	-1.9062	-2.4313	-2.6	-2.1167	-2.6188	-2.5458	-2.2521	-2.7333	-2.1271	-2.3917	-2.4813	-2.2479	-2.75	-2.3771	-2.3646	-2.6562	315.964	448.649	461.709	366.386	479.655	214.472	513.257	421.905	442.099	450.329	194.331	377.792	359.734	480.829	497.713	225.771	0.00016463	0.00016946	2.3689e-05	454.99	4.5339e-06	3.7992e-06	520.82	99.091	4.756e-06	2.8439e-06	143.76	46.886	26.645	9.6227	5.1398e-06	20.999	0.001934	0.0029794	0.00082019	457.3	3.0279e-05	3.3211e-05	524.52	102.17	3.0275e-05	3.2892e-05	148.34	48.541	28.97	10.391	3.1352e-05	21.802	254.068	184.401	204.898	180.794	341.140	341.712	180.323	185.420	269.365	318.103	184.915	189.928	190.719	195.449	325.125	192.963	-8191	255	
16680.662	1	1	0	0	0.14599	0.2067	0.093131	0.24757	0.2719	0.29719	0.26447	0.3003	0.090255	0.14408	0.10517	0.13854	0.15319	0.18836	0.12695	0.050704	-1.7771	-2.325	-2.5771	-2.1979	-2.5125	-2.5021	-2.2479	-2.6688	-2.3708	-2.3438	-2.8042	-2.2875	-2.4479	-2.5042	-2.0438	-2.7354	230.102	171.885	345.763	452.845	431.614	340.439	373.998	451.110	293.172	279.789	452.870	410.102	418.401	460.196	239.436	479.028	0.00021946	0.00055945	8.3356e-05	451.68	6.4791e-06	8.3701e-06	517.86	98.34	3.0267e-06	5.112e-06	144.43	46.687	26.977	9.658	2.5302e-06	20.898	0.0019759	0.0030548	0.00083347	453.43	3.0695e-05	3.3767e-05	521.71	101.48	3.1014e-05	3.4276e-05	148.05	48.912	29.125	10.502	3.2645e-05	21.862	261.802	251.698	222.835	180.625	271.126	245.312	180.387	185.829	237.551	178.943	184.594	189.975	191.206	195.540	384.311	193.105	-8191	255	
16680.756	1	1	0	0	0.2018	0.066457	0.13513	0.014447	0.13321	0.29982	0.08702	0.19867	0.083053	0.14278	0.10572	0.21375	0.042578	0.088484	0.073923	0.18385	-1.7437	-2.4958	-2.5812	-2.4417	-2.3438	-2.5625	-2.4167	-2.5979	-2.4771	-2.3812	-2.55	-2.2708	-2.3708	-2.6479	-2.3063	-2.8438	457.378	277.622	412.787	203.489	307.102	493.949	402.065	251.378	334.673	306.291	480.898	430.944	223.914	404.106	178.604	505.376	0.00020689	0.00030455	8.4503e-05	450.87	2.8647e-06	2.3943e-06	522.27	97.637	3.1204e-06	5.2213e-06	143.33	47.315	27.047	9.8573	7.2397e-06	20.893	0.0020229	0.0031198	0.00085859	452.91	3.0835e-05	3.4268e-05	523.96	101.1	3.1452e-05	3.411e-05	148.36	49.065	29.279	10.561	3.1444e-05	21.945	234.924	273.881	496.707	180.753	338.616	241.672	180.821	186.183	315.349	360.935	184.530	189.912	190.893	195.530	361.443	193.425	-8191	255	
16680.877	1	1	0	0	0.051081	0.029546	0.15806	0.10998	0.030402	0.071988	0.31028	0.23446	0.22436	0.10157	0.13795	0.1064	0.33496	0.16711	0.15324	0.10786	-1.8229	-2.1354	-2.5271	-2.4333	-2.3646	-2.65	-2.1854	-2.5979	-2.475	-2.3708	-2.8146	-2.3271	-2.4375	-2.6562	-2.4542	-2.6771	430.670	175.439	339.895	361.623	276.035	516.652	491.326	513.216	235.735	499.012	398.562	179.244	497.789	501.309	262.607	467.663	0.0002719	0.00021666	0.00016028	447.09	4.0176e-06	4.0361e-06	521.54	98.035	2.9034e-06	2.5078e-06	144.55	47.677	27.083	9.7818	2.3187e-06	21.041	0.0019632	0.0030005	0.00084217	450.89	3.0129e-05	3.3402e-05	524.6	101.33	3.0381e-05	3.3242e-05	149.09	49.312	29.244	10.581	3.0835e-05	22.037	267.626	331.041	258.130	180.347	344.842	417.221	180.247	185.737	276.714	386.674	185.345	190.018	191.261	195.326	447.551	192.945	-8191	255	
16680.973	1	1	0	0	0.16695	0.090908	0.22317	0.21147	0.33264	0.31404	0.10606	0.28587	0.15293	0.14983	0.21679	0.35515	0.19559	0.21903	0.18424	0.058661	-2.2438	-2.1729	-2.9083	-2.4729	-2.3604	-2.6562	-2.2458	-2.3708	-2.4271	-2.3375	-2.7313	-2.2479	-2.5104	-2.7188	-2.1229	-2.5646	190.847	502.961	487.166	523.523	353.089	396.681	229.586	429.914	245.944	255.963	431.422	409.871	515.906	452.672	299.968	344.290	0.00024447	0.00013848	3.3944e-05	456.35	4.8734e-06	2.8728e-06	527.45	100.01	2.3047e-06	3.5909e-06	147.01	47.532	27.115	9.7928	2.8957e-06	20.937	0.0019145	0.0029869	0.00082252	457.14	2.9757e-05	3.2619e-05	530.63	103.02	2.9681e-05	3.2872e-05	150.73	49.42	29.514	10.565	3.0858e-05	21.915	260.161	211.136	287.687	180.824	370.485	346.571	180.431	186.009	371.522	187.567	184.727	190.277	191.618	195.292	282.573	193.131	-8191	255	
16681.068	1	1	0	0	0.40211	0.16007	0.2315	0.19807	0.085702	0.074011	0.11918	0.23095	0.13377	0.15455	0.2077	0.37772	0.10736	0.14283	0.14658	0.12876	-2.1562	-2.1521	-2.5938	-2.4271	-2.3625	-2.6396	-2.4688	-2.6167	-2.5604	-2.2292	-2.6937	-2.3917	-2.4646	-2.6146	-2.2833	-2.5812	470.557	410.258	237.259	220.740	315.873	317.327	366.109	225.701	486.558	348.167	443.237	512.948	177.177	493.327	260.932	467.906	0.00026758	0.00019739	0.00015925	455.53	1.8118e-06	4.9309e-06	526.15	98.449	7.4126e-06	1.8198e-06	145.01	47.317	27.255	9.9587	3.7781e-06	21.003	0.0019119	0.0030576	0.00081665	456.94	2.998e-05	3.2816e-05	526.05	101.54	2.9639e-05	3.318e-05	148.47	49.138	29.361	10.578	3.1113e-05	21.919	256.786	367.519	325.198	180.674	339.303	349.715	180.152	185.768	353.732	317.472	185.303	190.485	190.408	195.937	299.171	192.879	-8191	255	
16681.164	1	1	0	0	0.075373	0.23677	0.1091	0.060423	0.31426	0.10745	0.077778	0.24388	0.11073	0.14391	0.3345	0.17821	0.030924	0.17468	0.22747	0.033565	-2.3521	-2.0583	-2.6646	-2.3542	-2.3125	-2.525	-2.3563	-2.4104	-2.7438	-2.2542	-2.5979	-2.6333	-2.1583	-2.5958	-2.35	-2.6229	428.548	215.291	495.018	184.308	353.213	411.106	294.670	293.132	412.199	341.926	428.309	288.228	274.669	466.550	508.181	457.761	0.0001778	0.00052541	8.9758e-05	446.71	3.4366e-06	9.7375e-06	520.24	97.579	6.13e-06	3.333e-06	143.94	46.853	26.779	9.7532	5.6545e-06	20.88	0.0019177	0.002967	0.00081172	450.95	2.9866e-05	3.2889e-05	522.5	100.86	3.005e-05	3.3206e-05	147.87	48.714	29.043	10.435	3.0931e-05	21.806	249.936	256.856	195.899	180.735	305.624	276.853	180.252	186.008	316.634	436.655	184.449	189.357	191.065	195.487	350.508	192.819	-8191	255	
16681.262	1	1	0	0	0.25313	0.056748	0.080282	0.084991	0.23832	0.11954	0.18404	0.05661	0.37447	0.022765	0.39607	0.2146	0.31202	0.25077	0.17194	0.14849	-2.0229	-2.2542	-2.4854	-2.5479	-2.3604	-2.5	-2.3438	-2.1833	-2.5854	-2.3833	-2.5396	-2.3438	-2.2458	-2.6625	-2.3438	-2.4083	226.021	527.286	300.488	480.995	187.251	269.576	524.631	509.565	372.380	470.849	471.520	402.393	359.603	393.888	277.888	412.503	0.00022411	0.00021652	4.4898e-05	446.59	6.4983e-07	3.634e-06	523.13	97.291	2.2956e-06	5.8349e-06	143.07	47.27	26.839	9.7395	1.8593e-06	21.209	0.0019198	0.0029612	0.00082573	449.65	2.99e-05	3.319e-05	523.1	100.97	3.0181e-05	3.2904e-05	148.11	49.089	29.101	10.569	3.1124e-05	22.055	271.266	414.709	380.297	180.634	306.908	420.967	180.345	186.432	228.180	356.412	184.454	190.340	190.802	195.886	169.500	193.028	-8191	255	
16681.357	1	1	0	0	0.11712	0.16914	0.35582	0.16393	0.026888	0.11533	0.12987	0.39992	0.034865	0.161	0.24349	0.19191	0.1321	0.18013	0.14746	0.3035	-2.2167	-2.2083	-2.4	-2.7167	-2.1833	-2.8458	-2.6229	-2.4417	-2.8583	-2.2333	-2.5771	-2.6146	-2.225	-2.5917	-2.5229	-2.3021	233.129	328.537	380.370	427.812	421.707	178.500	408.557	488.219	310.780	239.163	296.135	202.724	483.650	501.225	258.568	426.602	0.00023138	0.00049598	0.00020987	449.24	4.8252e-06	5.439e-06	521.14	98.23	1.9082e-06	3.0703e-06	144.84	47.857	26.872	9.9418	6.3002e-06	21.113	0.001937	0.0030095	0.00083039	451.99	3.039e-05	3.344e-05	523.96	101.23	3.0543e-05	3.417e-05	148.77	49.302	29.325	10.659	3.2028e-05	22.205	251.643	513.439	320.257	180.539	350.645	296.399	180.244	185.801	430.883	235.920	185.061	190.429	191.285	195.792	289.720	193.116	-8191	255	
16681.453	1	1	0	0	0.16593	0.12316	0.29613	0.2437	0.092174	0.15544	0.29104	0.1641	0.17436	0.16012	0.13434	0.024292	0.28064	0.21993	0.15346	0.12437	-2.15	-2.4104	-2.5104	-2.6417	-2.2417	-2.6813	-2.5271	-2.4167	-2.6063	-2.3812	-2.3667	-2.7042	-2.2271	-2.5042	-2.4208	-2.2604	463.751	262.160	488.023	439.913	440.143	351.847	454.993	220.151	369.817	298.745	518.439	194.253	500.794	485.889	446.968	492.050	0.00018445	0.00054926	7.679e-05	448.98	5.0547e-06	6.108e-06	520.92	97.458	2.9916e-06	1.7653e-06	144.58	47.823	27.113	9.842	3.1976e-07	21.137	0.0020237	0.0031599	0.00086898	452.63	3.2022e-05	3.4957e-05	525.77	101.33	3.2761e-05	3.5994e-05	149.61	49.715	29.668	10.6	3.42e-05	21.993	249.123	279.980	410.505	180.781	349.718	381.284	180.026	186.077	183.421	327.652	184.686	189.748	190.272	195.881	386.393	193.105	-8191	255	
16681.551	1	1	0	0	0.063387	0.21925	0.20257	0.34261	0.14651	0.048957	0.49005	0.1661	0.12421	0.072007	0.26143	0.084015	0.26477	0.12693	0.06027	0.080585	-2.2646	-2.3375	-2.3063	-2.75	-2.3167	-2.5938	-2.6958	-2.2625	-2.5958	-2.4125	-2.2104	-2.7438	-2.1958	-2.4208	-2.4979	-2.3563	413.906	411.241	498.055	477.766	275.597	264.047	431.586	485.680	214.632	291.917	427.322	282.901	524.567	188.562	188.621	423.997	0.00021649	0.00022849	0.0001155	451.14	4.1787e-06	2.3245e-06	517.89	97.2	4.5706e-06	6.0607e-06	142.99	46.547	26.365	9.755	3.301e-06	20.754	0.0021578	0.0033735	0.00092838	454.28	3.3533e-05	3.6933e-05	522.26	101.28	3.3967e-05	3.6343e-05	148.47	48.918	29.205	10.505	3.3417e-05	21.765	273.184	322.184	267.426	180.663	240.464	270.853	180.075	185.962	495.290	347.478	185.148	190.442	191.131	195.261	357.379	192.924	-8191	255	
#DATA ENDS
