BOXY.EXE: ISS Imagent and Oximeter Data Acquisition Program Version 0.80
Ascii Record File

#ACQ INFORMATION
2  Detector Channels 
16  External MUX Channels 
1  Auxiliary Channels 
5000  Waveform (CCF) Frequency (Hz)
1  Waveforms Skipped 
30  Waveforms Averaged 
1  Cycles Averaged 
16  Acquisitions per Waveform 
10.0806  Updata Rate (Hz) 

#FILE INFORMATION
TRUE -- External MUX Channel results are PARSED.
FALSE -- AC DC and Phase are NOT grouped.
TRUE -- Companion Program Settings File CREATED.
FALSE -- AC data not excluded
FALSE -- DC data not excluded
FALSE -- Phase data not excluded
FALSE -- Auxillary Chn. data not excluded
Tab delimiters

#CALIBRATION STATE
TRUE -- Waveform Calibration Values APPLIED.


#AUX CALIBRATION VALUES
Val Type	aux-1	

Term	1.0000e+00	
Factor	0.0000e+00	


#WF CALIBRATION VALUES
A = Detector Channel
Val Type	A-AC1	A-AC2	A-AC3	A-AC4	A-AC5	A-AC6	A-AC7	A-AC8	A-AC9	A-AC10	A-AC11	A-AC12	A-AC13	A-AC14	A-AC15	A-AC16	A-DC1	A-DC2	A-DC3	A-DC4	A-DC5	A-DC6	A-DC7	A-DC8	A-DC9	A-DC10	A-DC11	A-DC12	A-DC13	A-DC14	A-DC15	A-DC16	A-Ph1	A-Ph2	A-Ph3	A-Ph4	A-Ph5	A-Ph6	A-Ph7	A-Ph8	A-Ph9	A-Ph10	A-Ph11	A-Ph12	A-Ph13	A-Ph14	A-Ph15	A-Ph16	

Term	0.00000e+00	0.00000e+00	0.00000e+00	0.00000e+00	0.00000e+00	0.00000e+00	0.00000e+00	0.00000e+00	0.00000e+00	0.00000e+00	0.00000e+00	0.00000e+00	0.00000e+00	0.00000e+00	0.00000e+00	0.00000e+00	0.00000e+00	0.00000e+00	0.00000e+00	0.00000e+00	0.00000e+00	0.00000e+00	0.00000e+00	0.00000e+00	0.00000e+00	0.00000e+00	0.00000e+00	0.00000e+00	0.00000e+00	0.00000e+00	0.00000e+00	0.00000e+00	0.00000e+00	0.00000e+00	0.00000e+00	0.00000e+00	0.00000e+00	0.00000e+00	0.00000e+00	0.00000e+00	0.00000e+00	0.00000e+00	0.00000e+00	0.00000e+00	0.00000e+00	0.00000e+00	0.00000e+00	0.00000e+00	
Factor	1.00000e+00	1.00000e+00	1.00000e+00	1.00000e+00	1.00000e+00	1.00000e+00	1.00000e+00	1.00000e+00	1.00000e+00	1.00000e+00	1.00000e+00	1.00000e+00	1.00000e+00	1.00000e+00	1.00000e+00	1.00000e+00	1.00000e+00	1.00000e+00	1.00000e+00	1.00000e+00	1.00000e+00	1.00000e+00	1.00000e+00	1.00000e+00	1.00000e+00	1.00000e+00	1.00000e+00	1.00000e+00	1.00000e+00	1.00000e+00	1.00000e+00	1.00000e+00	X	X	X	X	X	X	X	X	X	X	X	X	X	X	X	X	

B = Detector Channel
Val Type	B-AC1	B-AC2	B-AC3	B-AC4	B-AC5	B-AC6	B-AC7	B-AC8	B-AC9	B-AC10	B-AC11	B-AC12	B-AC13	B-AC14	B-AC15	B-AC16	B-DC1	B-DC2	B-DC3	B-DC4	B-DC5	B-DC6	B-DC7	B-DC8	B-DC9	B-DC10	B-DC11	B-DC12	B-DC13	B-DC14	B-DC15	B-DC16	B-Ph1	B-Ph2	B-Ph3	B-Ph4	B-Ph5	B-Ph6	B-Ph7	B-Ph8	B-Ph9	B-Ph10	B-Ph11	B-Ph12	B-Ph13	B-Ph14	B-Ph15	B-Ph16	

Term	0.00000e+00	0.00000e+00	0.00000e+00	0.00000e+00	0.00000e+00	0.00000e+00	0.00000e+00	0.00000e+00	0.00000e+00	0.00000e+00	0.00000e+00	0.00000e+00	0.00000e+00	0.00000e+00	0.00000e+00	0.00000e+00	0.00000e+00	0.00000e+00	0.00000e+00	0.00000e+00	0.00000e+00	0.00000e+00	0.00000e+00	0.00000e+00	0.00000e+00	0.00000e+00	0.00000e+00	0.00000e+00	0.00000e+00	0.00000e+00	0.00000e+00	0.00000e+00	-6.55746e+01	-1.32460e+02	-1.24044e+02	-1.81644e+02	-4.96078e+01	-6.09442e+01	-1.57078e+02	-1.62015e+02	-5.27148e+01	-6.58019e+01	-1.71967e+02	-1.70181e+02	-1.79589e+02	-1.77401e+02	-5.55509e+01	-1.50229e+02	
Factor	1.83242e-05	1.60084e-04	4.40432e-05	1.55119e-01	1.49884e-06	1.72698e-06	1.71925e-01	5.85861e-02	1.36267e-06	1.76728e-06	8.00050e-02	2.74382e-02	3.05121e-02	9.14989e-03	1.57629e-06	1.28563e-02	1.07384e-05	1.73561e-05	4.82899e-06	8.05253e-02	1.73972e-07	1.92695e-07	8.40553e-02	3.05412e-02	1.75866e-07	1.93004e-07	4.05408e-02	1.39842e-02	1.61609e-02	4.81515e-03	1.80523e-07	6.55076e-03	X	X	X	X	X	X	X	X	X	X	X	X	X	X	X	X	



#DISTANCE SETTINGS
A = Detector Channel
A-1	A-2	A-3	A-4	A-5	A-6	A-7	A-8	A-9	A-10	A-11	A-12	A-13	A-14	A-15	A-16	

2.5000e+00	3.0000e+00	2.5000e+00	3.0000e+00	2.0000e+00	3.0000e+00	1.5000e+00	3.0000e+00	3.0000e+00	3.0000e+00	3.0000e+00	3.0000e+00	3.0000e+00	3.0000e+00	1.5000e+00	3.0000e+00	

B = Detector Channel
B-1	B-2	B-3	B-4	B-5	B-6	B-7	B-8	B-9	B-10	B-11	B-12	B-13	B-14	B-15	B-16	

1.0000e+01	1.0000e+01	1.0000e+01	1.4400e+00	1.0000e+01	1.0000e+01	1.5100e+00	1.9400e+00	1.0000e+01	1.0000e+01	1.9900e+00	2.4900e+00	2.4100e+00	2.9000e+00	1.0000e+01	2.9800e+00	




#DATA BEGINS
time	group	step	mark	flag	A-AC1	A-AC2	A-AC3	A-AC4	A-AC5	A-AC6	A-AC7	A-AC8	A-AC9	A-AC10	A-AC11	A-AC12	A-AC13	A-AC14	A-AC15	A-AC16	A-DC1	A-DC2	A-DC3	A-DC4	A-DC5	A-DC6	A-DC7	A-DC8	A-DC9	A-DC10	A-DC11	A-DC12	A-DC13	A-DC14	A-DC15	A-DC16	A-Ph1	A-Ph2	A-Ph3	A-Ph4	A-Ph5	A-Ph6	A-Ph7	A-Ph8	A-Ph9	A-Ph10	A-Ph11	A-Ph12	A-Ph13	A-Ph14	A-Ph15	A-Ph16	B-AC1	B-AC2	B-AC3	B-AC4	B-AC5	B-AC6	B-AC7	B-AC8	B-AC9	B-AC10	B-AC11	B-AC12	B-AC13	B-AC14	B-AC15	B-AC16	B-DC1	B-DC2	B-DC3	B-DC4	B-DC5	B-DC6	B-DC7	B-DC8	B-DC9	B-DC10	B-DC11	B-DC12	B-DC13	B-DC14	B-DC15	B-DC16	B-Ph1	B-Ph2	B-Ph3	B-Ph4	B-Ph5	B-Ph6	B-Ph7	B-Ph8	B-Ph9	B-Ph10	B-Ph11	B-Ph12	B-Ph13	B-Ph14	B-Ph15	B-Ph16	aux-1	digaux	

16356.473	1	1	0	768	0.34827	0.21237	0.047743	0.10446	0.044286	0.094123	0.090344	0.20211	0.30208	0.11973	0.023392	0.13769	0.15706	0.3013	0.040574	0.083787	-2.25	-2.35	-2.8208	-2.8771	-2.2938	-2.8292	-2.5542	-2.5167	-2.7542	-2.2479	-2.7438	-2.5833	-2.2708	-2.7896	-2.4188	-2.4854	199.510	326.089	229.254	475.505	459.720	179.088	454.292	396.162	309.285	335.149	373.800	476.797	386.238	518.665	176.710	463.624	0.00023376	9.878e-05	0.00011003	1008	3.5875e-06	1.92e-06	1075.6	212.85	3.1404e-06	2.2368e-06	263.71	76.268	60.17	17.184	1.8838e-06	24.289	0.00036707	0.00042352	0.00011919	998.54	4.9187e-06	4.6612e-06	1064.9	210.9	4.8162e-06	4.8967e-06	264.43	76.698	60.483	17.444	4.6872e-06	24.745	264.411	312.944	277.085	184.462	306.882	365.534	184.547	191.773	322.629	268.698	191.151	197.729	198.400	205.276	333.820	204.736	-8191	255	
16356.569	1	1	0	0	0.22321	0.065637	0.11764	0.023295	0.23101	0.22131	0.21008	0.07504	0.16586	0.17261	0.1209	0.25213	0.33558	0.28147	0.18798	0.12771	-2.4125	-2.2625	-2.5146	-2.7562	-2.3396	-2.7188	-2.6583	-2.3312	-2.7271	-2.3563	-2.5896	-2.5687	-2.1688	-2.6896	-2.5792	-2.4562	442.025	308.966	407.754	197.112	252.506	271.326	485.990	289.820	286.601	510.194	385.702	210.058	487.240	198.532	232.839	211.101	0.0002601	0.00022995	8.2773e-05	1011.8	4.566e-06	4.8845e-06	1072.4	212	2.4482e-06	2.7605e-06	264.84	75.654	59.822	17.284	4.2878e-06	24.336	0.00037439	0.00044526	0.0001215	999.2	4.9531e-06	4.7929e-06	1061.6	210.51	4.6854e-06	4.8782e-06	264.08	76.315	60.309	17.447	4.8824e-06	24.737	263.372	228.341	239.387	184.324	327.443	322.918	184.595	191.799	322.465	317.298	191.319	198.010	198.312	205.270	324.931	205.070	-8191	255	
16356.665	1	1	0	0	0.21487	0.15701	0.30278	0.25975	0.080131	0.05232	0.23639	0.0623	0.23216	0.25189	0.077456	0.21964	0.19064	0.28425	0.14065	0.18421	-2.4208	-2.225	-2.6271	-2.6708	-2.35	-2.8187	-2.5771	-2.5458	-2.7958	-2.3187	-2.6146	-2.5604	-2.2979	-2.5896	-2.5438	-2.2354	450.646	269.787	218.945	462.551	513.578	465.356	432.793	451.865	408.734	323.670	395.209	323.628	419.613	434.602	392.822	500.408	0.00023903	0.00046989	4.5255e-05	1018.3	3.0346e-06	1.6774e-06	1075.3	209.95	3.1939e-06	2.7575e-06	264.55	76.542	59.967	17.163	2.6166e-06	24.329	0.00036893	0.00044377	0.00012233	999.61	4.7574e-06	4.7869e-06	1060.8	209.76	4.6619e-06	4.618e-06	263.95	76.438	60.228	17.459	4.6274e-06	24.721	267.222	288.450	264.355	184.543	330.850	286.906	184.362	191.568	305.084	326.645	191.088	198.342	197.940	205.360	383.038	205.334	-8191	255	
16356.762	1	1	0	0	0.046622	0.17827	0.081122	0.20347	0.051117	0.30246	0.34088	0.12961	0.23093	0.18527	0.082664	0.14787	0.28563	0.22309	0.26716	0.3555	-2.5104	-2.325	-2.5563	-2.7708	-2.3792	-2.5875	-2.6604	-2.2167	-2.75	-2.3854	-2.5396	-2.7021	-2.2896	-2.5021	-2.3792	-2.325	495.301	336.338	367.697	525.003	305.693	483.878	181.143	208.674	363.939	410.187	315.410	398.762	370.472	431.458	532.996	478.424	0.00020916	0.00039864	3.9668e-06	1013	3.7453e-06	2.7238e-06	1075.4	210.75	2.8708e-06	2.4962e-06	263.73	75.502	60.033	17.274	2.3471e-06	24.361	0.00037141	0.00045505	0.00012406	1001.2	4.7966e-06	4.7327e-06	1062	209.67	4.4773e-06	4.955e-06	264.01	76.224	60.176	17.443	4.4597e-06	24.709	259.291	261.903	499.609	184.466	341.649	266.487	184.532	191.528	323.369	288.593	191.428	197.597	198.065	205.417	316.351	204.842	-8191	255	
16356.858	1	1	0	0	0.2526	0.10613	0.10807	0.21608	0.19433	0.18173	0.27202	0.39159	0.15458	0.06012	0.24731	0.080738	0.21893	0.17037	0.062513	0.13597	-2.2208	-2.4458	-2.4479	-2.8625	-2.4604	-2.5479	-2.7667	-2.2229	-2.6583	-2.6167	-2.4688	-2.7188	-2.4188	-2.5438	-2.6521	-2.3125	372.391	224.107	505.522	426.080	490.935	525.430	448.357	495.724	410.985	441.240	515.481	372.651	405.688	292.137	318.945	533.107	0.00024126	0.00030789	9.3185e-05	1013.4	3.2751e-06	2.4568e-06	1072.6	210.43	2.6575e-06	5.3306e-06	263.56	75.569	60.358	17.106	1.917e-06	24.273	0.00036157	0.00044479	0.00012091	996.46	4.8176e-06	4.6773e-06	1061.5	209.56	4.6777e-06	4.77e-06	263.93	76.197	60.276	17.372	4.3765e-06	24.683	264.417	258.908	232.712	184.418	308.082	393.562	184.467	191.870	346.593	329.959	191.442	197.865	198.657	205.575	353.304	205.265	-8191	255	
16356.954	1	1	0	0	0.091879	0.20111	0.081975	0.31966	0.15028	0.11309	0.10904	0.15592	0.30971	0.17559	0.30118	0.049299	0.10662	0.27805	0.27105	0.095661	-2.3646	-2.5771	-2.3729	-2.8417	-2.3042	-2.5938	-2.8229	-2.3542	-2.6125	-2.6875	-2.5812	-2.7167	-2.4146	-2.4917	-2.6167	-2.1604	446.703	326.988	530.793	480.343	493.996	373.474	195.842	477.477	421.315	480.103	263.938	502.904	202.236	455.390	357.426	205.010	0.00024412	0.0002485	0.00012887	1011.3	3.5989e-06	1.8309e-06	1071.2	211.38	2.482e-06	3.1591e-06	264.51	75.924	59.871	17.126	3.6207e-06	24.47	0.00036589	0.00042826	0.00012286	997.52	4.9963e-06	4.7865e-06	1059.4	209.83	4.5117e-06	4.8745e-06	263.8	76.088	60.115	17.414	4.574e-06	24.749	266.418	263.688	282.734	184.557	344.624	337.741	184.641	191.744	285.585	346.617	191.117	198.128	198.184	205.680	358.065	204.888	-8191	255	
16357.074	1	1	0	0	0.13914	0.148	0.17677	0.15772	0.21459	0.29924	0.35084	0.17743	0.15636	0.053592	0.18361	0.25672	0.06989	0.17946	0.066026	0.25526	-2.175	-2.4458	-2.4396	-2.8458	-2.475	-2.3375	-3.0187	-2.5062	-2.5042	-2.65	-2.4958	-2.8146	-2.3042	-2.3375	-2.8208	-2.3521	369.743	395.896	319.911	458.038	505.120	463.718	459.157	505.979	175.367	306.770	512.782	522.901	179.281	229.313	270.162	492.765	0.00024964	0.00024226	2.993e-05	1014.5	2.775e-06	3.7416e-06	1072.7	209.99	2.4286e-06	1.1443e-06	263.58	75.585	60.074	17.05	3.7458e-06	24.299	0.00036233	0.00043213	0.00012542	999.4	4.6893e-06	4.7547e-06	1060.1	209.11	4.5813e-06	4.7141e-06	263.16	76.017	60.176	17.35	4.4025e-06	24.662	260.553	260.076	312.201	184.440	347.522	345.734	184.521	191.764	314.949	347.271	191.353	197.779	197.956	205.137	353.849	205.143	-8191	255	
16357.169	1	1	0	0	0.2344	0.24096	0.080445	0.34518	0.22555	0.03801	0.11676	0.2311	0.15389	0.18668	0.17719	0.22343	0.30326	0.12365	0.093734	0.10324	-2.175	-2.6521	-2.1292	-2.7562	-2.5146	-2.2604	-2.8812	-2.4333	-2.4917	-2.6917	-2.3542	-2.6625	-2.55	-2.3979	-2.7687	-2.5208	237.918	521.065	518.171	185.078	395.239	325.703	474.086	472.653	203.671	328.860	296.882	174.583	441.250	251.557	367.606	354.709	0.00020521	0.00029799	9.4082e-05	1015.6	2.1976e-06	2.342e-06	1072.6	210.78	2.3182e-06	3.2485e-06	263.83	75.939	60.424	17.291	3.9771e-06	24.318	0.00036743	0.00043622	0.00012082	1000	4.7694e-06	4.7584e-06	1057.5	209.8	4.6326e-06	4.8979e-06	262.76	76.092	60.399	17.453	4.5383e-06	24.663	269.101	250.261	285.307	184.453	337.524	330.567	184.294	191.567	300.714	318.019	191.414	197.873	198.048	205.065	317.213	204.755	-8191	255	
16357.265	1	1	0	0	0.1137	0.21921	0.17072	0.1921	0.15303	0.11765	0.21563	0.22148	0.30244	0.064571	0.14411	0.20496	0.16562	0.21552	0.095178	0.14465	-1.9333	-2.6063	-2.3688	-2.8646	-2.5146	-2.4271	-2.8896	-2.4188	-2.5375	-2.6875	-2.3167	-2.6292	-2.6667	-2.2771	-2.5042	-2.3875	176.623	499.392	529.666	528.375	177.970	309.878	467.877	180.235	250.423	458.791	443.707	402.666	282.347	394.978	418.074	240.277	0.00022916	0.00025441	0.0001111	1009.8	2.4294e-06	3.8482e-06	1073	210.2	2.8771e-06	2.3711e-06	264.21	75.568	59.859	17.244	2.6447e-06	24.356	0.00035781	0.00043321	0.00012204	997.23	4.8857e-06	4.7158e-06	1059	209.13	4.5689e-06	4.6325e-06	263.78	75.879	60.127	17.444	4.5074e-06	24.674	266.029	276.030	262.031	184.596	348.370	330.710	184.555	191.611	322.203	340.884	191.309	198.161	198.334	205.359	362.921	205.315	-8191	255	
16357.361	1	1	0	0	0.17728	0.10159	0.12462	0.11352	0.2771	0.1933	0.17997	0.2787	0.057727	0.25659	0.1312	0.086277	0.12956	0.074151	0.26504	0.2974	-1.7792	-2.7354	-2.2188	-2.6979	-2.5438	-2.1042	-2.8917	-2.5271	-2.1542	-2.8146	-2.5583	-2.8042	-2.5542	-2.4333	-2.5208	-2.4146	238.278	310.913	191.977	496.767	465.808	269.650	480.281	532.095	184.103	469.387	407.667	383.897	420.563	312.510	316.519	529.018	0.00023811	8.9207e-05	4.5471e-05	1012.2	3.027e-06	2.879e-06	1074.2	210.37	2.3344e-06	3.2157e-06	264.61	75.205	59.706	17.219	2.6373e-06	24.117	0.00035833	0.00041832	0.00012198	997.36	4.7052e-06	4.933e-06	1059.1	209.13	4.7887e-06	4.7917e-06	263.33	76.069	60.087	17.426	4.5116e-06	24.614	264.850	223.561	308.909	184.513	322.427	315.601	184.604	191.712	283.560	330.207	191.153	198.512	198.084	205.382	344.737	204.756	-8191	255	
16357.457	1	1	0	0	0.26327	0.10386	0.10348	0.24598	0.17229	0.31646	0.4868	0.18666	0.22397	0.035823	0.27514	0.11821	0.21621	0.14125	0.058782	0.03975	-2.025	-2.6312	-2.2917	-2.725	-2.675	-2.2104	-2.6292	-2.5521	-2.35	-2.6646	-2.3563	-2.5687	-2.7562	-2.3167	-2.4167	-2.5542	347.383	250.100	523.192	503.705	466.236	381.812	446.410	221.087	365.486	365.555	447.043	207.191	276.722	187.428	275.726	523.216	0.00021519	0.00036589	6.96e-05	1009.2	3.8065e-06	1.6407e-06	1077.5	209.73	2.9792e-06	3.4065e-06	263.87	75.572	60.208	17.394	2.1268e-06	24.284	0.00036768	0.00045317	0.00011966	995.82	4.644e-06	4.9017e-06	1061.8	209.37	4.6363e-06	4.8613e-06	263.44	76.091	60.036	17.438	4.6879e-06	24.668	265.623	281.712	287.595	184.481	312.507	353.412	184.496	191.500	315.434	327.494	191.074	197.850	198.702	205.505	334.968	204.755	-8191	255	
16357.553	1	1	0	0	0.24141	0.13691	0.080799	0.10078	0.04021	0.060906	0.10184	0.12623	0.25469	0.46426	0.28328	0.24499	0.28785	0.082834	0.15376	0.22521	-1.9958	-2.7583	-2.5687	-2.6104	-2.7833	-2.3187	-2.8625	-2.7729	-2.325	-2.8021	-2.4333	-2.45	-2.7292	-2.3333	-2.4333	-2.6979	239.411	300.821	429.231	523.898	178.394	284.342	375.390	455.418	299.332	478.099	523.627	444.331	487.992	361.496	502.484	274.764	0.00021766	0.00018732	7.8082e-05	1012.4	2.3746e-06	4.1507e-06	1073.9	209.89	2.7413e-06	2.2624e-06	264.01	75.896	60.13	17.101	3.5634e-06	24.186	0.00037271	0.00043101	0.00012549	997.06	4.7023e-06	4.7985e-06	1058.7	208.84	4.7374e-06	4.6799e-06	262.66	76.039	60.137	17.401	4.7056e-06	24.687	264.419	240.577	273.294	184.341	303.866	341.986	184.604	191.350	356.556	367.284	191.164	198.299	198.410	205.290	349.790	204.365	-8191	255	
16357.674	1	1	0	0	0.13797	0.14577	0.13921	0.15571	0.061804	0.18396	0.33422	0.23021	0.25175	0.11879	0.21611	0.12115	0.11918	0.11951	0.050743	0.25927	-1.6875	-2.5646	-2.3812	-2.4667	-2.6042	-2.2125	-2.8104	-2.6688	-2.2729	-2.7229	-2.5771	-2.4521	-2.6146	-2.3875	-2.4667	-2.7646	412.428	305.033	522.225	461.661	272.730	266.364	478.036	471.285	196.387	325.157	418.576	175.531	473.518	520.465	269.508	180.246	0.00023098	0.00030402	4.3894e-05	1005.9	3.839e-06	3.2834e-06	1076.1	209.93	2.6917e-06	4.3953e-06	263.98	76.043	59.661	17.189	5.1436e-06	24.205	0.00038115	0.00042938	0.00011781	994.77	4.7603e-06	4.8904e-06	1059.2	208.85	4.8088e-06	4.7921e-06	263.27	76.203	60.11	17.427	4.6315e-06	24.597	267.369	228.354	241.992	184.604	344.486	320.244	184.647	192.061	309.768	312.593	191.203	197.692	198.106	205.278	327.820	205.005	-8191	255	
16357.770	1	1	0	0	0.14402	0.31693	0.2093	0.24927	0.19091	0.36521	0.2881	0.042596	0.40034	0.14699	0.25776	0.099109	0.12824	0.05798	0.22665	0.085029	-2.1521	-2.5458	-2.4833	-2.3	-2.6979	-2.375	-2.4458	-2.6917	-2.2708	-2.6208	-2.6854	-2.1458	-2.7604	-2.4083	-2.4167	-2.7687	435.441	300.149	183.270	469.300	263.008	395.731	496.986	214.281	274.535	322.956	453.100	351.340	417.805	364.046	492.748	416.778	0.00025342	0.00042185	0.00010105	1012.6	2.6807e-06	3.5978e-06	1073.5	209.42	2.6513e-06	4.3489e-06	264.83	75.567	59.658	17.126	1.9576e-06	24.201	0.00036289	0.00042786	0.00011878	996.95	4.7665e-06	4.6576e-06	1060.2	208.62	4.7374e-06	4.7394e-06	263.28	76.071	59.952	17.337	4.7587e-06	24.619	269.105	266.120	249.934	184.548	293.879	310.843	184.550	191.618	286.412	331.324	190.988	197.525	198.398	205.312	323.755	204.807	-8191	255	
16357.866	1	1	0	0	0.10661	0.041697	0.19542	0.37432	0.23652	0.27455	0.15706	0.23714	0.1455	0.077441	0.073034	0.1123	0.16734	0.16365	0.053456	0.05504	-2.0354	-2.6458	-2.6021	-2.6667	-2.7396	-2.4062	-2.6625	-2.8729	-2.275	-2.6083	-2.6396	-2.3708	-2.7167	-2.35	-2.4458	-2.6958	319.332	511.820	256.400	468.209	281.396	314.027	430.700	433.880	231.765	469.705	448.233	516.287	174.751	507.997	274.630	456.429	0.00023298	0.00047813	0.00010243	1008.7	3.7339e-06	2.0325e-06	1072.2	209.51	4.2363e-06	5.1519e-06	263.5	76.053	60.481	17.157	4.9373e-06	24.138	0.00036537	0.00043918	0.0001204	997.25	4.6857e-06	4.8146e-06	1061.6	208.66	4.7645e-06	4.7797e-06	263.03	76.09	60.247	17.375	4.6699e-06	24.606	261.415	221.264	279.776	184.047	335.749	390.714	184.327	191.393	334.175	304.048	191.486	198.102	198.589	205.387	319.171	204.667	-8191	255	
16357.963	1	1	0	0	0.20545	0.09523	0.1221	0.1853	0.030484	0.19703	0.079122	0.20744	0.078781	0.19103	0.23094	0.32162	0.1838	0.15526	0.10013	0.22812	-1.8729	-2.4833	-2.6542	-2.3583	-2.675	-2.5979	-2.4688	-2.8187	-2.4938	-2.6188	-2.8083	-2.4583	-2.7062	-2.5333	-2.3292	-2.8187	455.803	346.164	333.894	445.562	354.661	525.644	207.825	452.676	435.623	335.871	240.967	390.532	254.119	176.265	415.037	523.487	0.0002166	0.00040763	8.6645e-05	1012.9	4.0475e-06	5.3024e-07	1069.6	209.57	2.5192e-06	2.217e-06	263.39	75.797	60.294	17.058	2.6131e-06	24.237	0.00036374	0.00042327	0.00012317	998.05	4.4066e-06	4.7222e-06	1058.7	208.72	4.655e-06	4.5541e-06	262.9	76.028	60.1	17.324	4.3457e-06	24.619	262.125	217.853	219.382	184.445	329.332	413.828	184.620	191.642	340.046	356.062	191.481	198.213	198.318	205.593	349.489	204.828	-8191	255	
16358.059	1	1	0	0	0.15171	0.17227	0.18783	0.20644	0.30082	0.18819	0.3255	0.043845	0.042559	0.18603	0.11939	0.10752	0.18878	0.15981	0.19485	0.13395	-2.0167	-2.6354	-2.5292	-2.4	-2.3979	-2.7375	-2.4479	-2.7479	-2.375	-2.3812	-2.8458	-2.3563	-2.6396	-2.6146	-2.2917	-2.8125	414.404	415.515	267.960	483.462	434.283	531.456	484.337	403.178	532.224	290.008	485.136	409.059	488.789	501.234	220.556	277.944	0.00021418	0.0003282	5.2311e-05	1016.5	3.4871e-06	2.0323e-06	1068.7	209.51	3.741e-06	2.5675e-06	264.16	75.57	60.023	17.157	4.9675e-06	24.304	0.00034598	0.00039485	0.00011201	998.85	4.524e-06	4.4597e-06	1058.3	208.42	4.3413e-06	4.4121e-06	262.92	75.877	59.947	17.373	4.2404e-06	24.649	262.573	253.483	264.243	184.534	319.220	346.207	184.435	191.738	312.838	321.610	191.308	197.899	198.541	205.966	348.470	205.230	-8191	255	
16358.155	1	1	0	0	0.15892	0.038265	0.12298	0.073147	0.22288	0.13614	0.17135	0.14302	0.031531	0.13841	0.092878	0.040087	0.098793	0.11298	0.050254	0.11333	-2.1375	-2.3396	-2.7021	-2.3063	-2.525	-2.6083	-2.3479	-2.7021	-2.4271	-2.2583	-2.7271	-2.3021	-2.4208	-2.7479	-2.325	-2.5958	347.220	390.432	269.942	298.681	267.709	487.246	444.930	454.235	393.752	494.995	242.452	429.500	445.302	521.946	438.620	277.029	0.00023701	0.00023314	8.6628e-05	1006.7	3.2218e-06	3.7434e-06	1070.1	209.93	3.2688e-06	3.03e-06	264.55	75.7	59.533	17.292	2.7736e-06	24.486	0.00034437	0.00040986	0.00011422	995.5	4.5747e-06	4.6303e-06	1057.9	208.83	4.5861e-06	4.7214e-06	263.17	76.187	59.968	17.426	4.785e-06	24.638	263.492	260.121	270.708	184.376	329.076	308.592	184.469	191.564	297.313	346.368	191.240	197.498	198.204	205.631	337.416	204.945	-8191	255	
16358.249	1	1	0	0	0.14202	0.27794	0.18451	0.32452	0.21203	0.12738	0.38217	0.22989	0.20156	0.27045	0.21928	0.19606	0.22026	0.074663	0.24144	0.16448	-2.0083	-2.2896	-2.5125	-2.6437	-2.5229	-2.8125	-2.4625	-2.7958	-2.4313	-2.1604	-2.6437	-2.4396	-2.5187	-2.8292	-2.2542	-2.7771	452.262	438.694	252.055	496.499	521.008	515.850	502.972	467.991	234.670	261.467	451.743	467.268	244.233	259.269	257.133	376.179	0.00025712	0.00023289	8.2463e-05	1013.3	2.7632e-06	3.5706e-06	1078.8	210.66	1.8903e-06	4.3492e-06	264.1	75.94	60.041	17.26	2.687e-06	24.153	0.00038488	0.00044927	0.00012381	998.06	4.9321e-06	4.7303e-06	1062.2	208.84	4.9649e-06	5.0881e-06	263.31	76.075	60.252	17.436	4.9798e-06	24.666	265.842	237.346	274.183	184.598	291.132	337.649	184.418	191.744	374.556	325.223	191.118	197.696	197.939	205.379	339.976	204.730	-8191	255	
16358.345	1	1	0	0	0.07286	0.12976	0.22928	0.23316	0.064936	0.10006	0.22998	0.2584	0.30651	0.11496	0.081426	0.10754	0.13646	0.12422	0.18973	0.33131	-1.9271	-2.2604	-2.7396	-2.5729	-2.1458	-2.6917	-2.4729	-2.6042	-2.5312	-2.4417	-2.6979	-2.5333	-2.35	-2.7792	-2.5042	-2.5438	428.058	429.443	288.583	183.783	425.160	410.153	528.071	199.839	355.834	482.511	467.355	452.483	499.723	411.293	204.166	501.571	0.00023828	0.00031198	8.7812e-05	1006.1	3.597e-06	1.8351e-06	1077.3	209.47	3.512e-06	2.8838e-06	265.65	76.562	60.107	17.153	1.1341e-06	24.173	0.00039788	0.00047321	0.00012717	997.52	5.1688e-06	5.0867e-06	1062.9	209.18	5.0386e-06	5.4025e-06	264.12	76.253	60.244	17.419	5.1208e-06	24.581	257.226	308.664	253.906	184.568	326.075	339.419	184.382	191.627	293.341	319.754	191.189	197.667	198.030	205.458	317.600	204.961	-8191	255	
16358.443	1	1	0	0	0.086869	0.27982	0.20781	0.34265	0.22665	0.052093	0.35509	0.12239	0.23987	0.095392	0.052023	0.2087	0.068518	0.11444	0.093677	0.15127	-2.3229	-2.1625	-2.6146	-2.6021	-2.0979	-2.6521	-2.6458	-2.6688	-2.6229	-2.3333	-2.6437	-2.6542	-2.3604	-2.7104	-2.2396	-2.5354	485.771	399.711	232.099	189.392	494.377	440.570	528.681	487.261	222.382	332.734	205.174	508.745	506.226	489.076	249.743	331.822	0.00021545	0.00030982	8.3665e-05	1011.9	1.3554e-06	4.6626e-06	1081.2	211.36	3.0057e-06	2.626e-06	264.27	76.019	59.564	17.193	2.1136e-06	24.203	0.00038942	0.00047335	0.00012693	999.61	5.2141e-06	5.1313e-06	1063.8	209.31	5.0877e-06	5.236e-06	263.62	76.316	60.183	17.428	4.9396e-06	24.703	269.317	260.195	292.941	184.416	239.422	290.647	184.365	191.586	318.452	349.581	191.322	197.839	198.852	205.306	344.471	204.967	-8191	255	
16358.562	1	1	0	0	0.099012	0.10611	0.15828	0.16855	0.20792	0.11159	0.23986	0.084723	0.062614	0.063386	0.17612	0.18512	0.26777	0.19135	0.2161	0.10282	-2.2083	-2.2313	-2.5604	-2.7062	-2.1104	-2.8458	-2.5563	-2.4688	-2.6104	-2.4354	-2.7167	-2.5812	-2.3688	-2.7958	-2.5292	-2.4313	185.010	434.536	255.470	532.792	267.274	455.611	474.077	337.825	514.091	283.063	444.120	312.380	524.319	384.896	474.205	453.020	0.00023586	0.00052435	4.7055e-05	1016.2	3.021e-06	3.1873e-06	1077.4	211.18	1.982e-06	4.5907e-06	263.76	76.084	59.874	17.175	2.5924e-06	24.176	0.00038741	0.0004804	0.00012911	1001.4	5.2188e-06	5.0374e-06	1063.6	210.23	4.9887e-06	5.419e-06	263.85	76.194	60.232	17.406	5.0189e-06	24.662	263.251	263.938	343.793	184.409	311.812	330.078	184.443	191.821	316.245	335.262	191.118	197.981	198.273	205.195	319.908	204.647	-8191	255	
16358.634	1	1	0	0	0.12351	0.12218	0.029258	0.17117	0.12751	0.31332	0.4608	0.16861	0.22872	0.15023	0.11831	0.10479	0.058191	0.088733	0.20794	0.13062	-2.3292	-2.3875	-2.4333	-2.7479	-2.2667	-2.7208	-2.55	-2.3354	-2.7313	-2.4375	-2.6021	-2.7146	-2.2729	-2.6979	-2.5833	-2.3958	439.610	278.296	281.771	477.017	321.594	482.107	493.320	179.264	276.059	184.737	519.633	435.430	268.350	207.753	351.134	513.873	0.00022996	0.00034073	8.6451e-05	1021.7	3.5015e-06	1.2783e-06	1080.4	210.83	2.7926e-06	3.3485e-06	262.48	75.698	60.038	17.161	4.3067e-06	24.235	0.0003954	0.00047223	0.00013192	1003.7	5.3275e-06	5.0309e-06	1066	209.59	5.0463e-06	5.267e-06	263.95	76.248	60.313	17.456	4.9538e-06	24.604	271.730	220.098	249.218	184.352	343.757	323.837	184.357	191.637	302.050	296.607	191.634	198.264	197.827	205.260	379.252	204.445	-8191	255	
16358.754	1	1	0	0	0.2314	0.24134	0.25768	0.26429	0.0819	0.078916	0.25771	0.3092	0.20216	0.24892	0.030771	0.3057	0.18714	0.039512	0.2079	0.17223	-2.3208	-2.4188	-2.5187	-2.6125	-2.2854	-2.5646	-2.4979	-2.2396	-2.7271	-2.3312	-2.4958	-2.7208	-2.3229	-2.6833	-2.5354	-2.1312	180.266	377.688	398.382	173.778	415.599	461.929	438.489	390.934	233.688	260.733	488.069	409.310	198.283	357.888	482.375	183.167	0.00024926	7.3774e-05	0.00011248	1020.3	2.661e-06	3.7495e-06	1075.4	210.97	4.526e-06	3.6095e-06	265.33	75.767	59.765	17.343	1.9914e-06	24.205	0.00038289	0.00046511	0.00012703	1003.1	5.0202e-06	5.2112e-06	1064.1	209.75	4.8891e-06	5.2203e-06	263.89	76.149	60.262	17.399	4.8365e-06	24.688	270.197	213.230	288.962	184.333	319.232	315.671	184.305	191.594	327.857	343.210	191.175	197.992	198.105	205.530	344.824	204.338	-8191	255	
16358.851	1	1	0	0	0.075613	0.22597	0.48645	0.39041	0.074456	0.13291	0.24394	0.11859	0.10122	0.14166	0.12024	0.17112	0.078643	0.12385	0.11799	0.24233	-2.2979	-2.2667	-2.3271	-2.85	-2.4771	-2.3854	-2.725	-2.2583	-2.5896	-2.5458	-2.4479	-2.7667	-2.3292	-2.4958	-2.4437	-2.2354	423.116	410.965	332.129	474.407	205.137	486.497	396.429	234.400	302.434	297.402	405.793	419.212	459.503	398.605	385.924	514.136	0.00021528	0.00019089	8.4542e-05	1012.7	1.814e-06	2.3204e-06	1080.1	211.41	4.363e-06	3.1432e-06	265.46	75.756	59.838	17.227	3.3534e-06	24.314	0.00037669	0.00045726	0.00012759	998.81	4.9415e-06	5.1578e-06	1063.9	209.91	4.7184e-06	5.0318e-06	263.8	76.032	60.245	17.416	4.9813e-06	24.681	265.846	287.339	257.288	184.322	295.346	289.910	184.558	191.614	293.919	280.963	191.293	198.070	198.239	205.380	294.668	204.543	-8191	255	
16358.947	1	1	0	0	0.029422	0.11996	0.077183	0.33563	0.18581	0.41748	0.26764	0.28336	0.04416	0.3379	0.26753	0.10681	0.28565	0.16032	0.045676	0.15388	-2.4083	-2.5167	-2.3438	-2.8729	-2.5104	-2.65	-2.6542	-2.2458	-2.6771	-2.5333	-2.3563	-2.6729	-2.3833	-2.2792	-2.8063	-2.2521	510.810	212.759	367.512	448.234	382.680	280.777	438.746	524.382	400.664	432.701	257.227	453.898	205.370	509.159	494.422	286.571	0.00021786	0.00017501	0.00010095	1015.4	1.319e-06	3.6638e-06	1076.9	210.91	2.1923e-06	4.5647e-06	264.23	75.799	60.043	17.171	3.497e-06	24.161	0.00038372	0.00045368	0.00012495	1002.2	4.8937e-06	4.9506e-06	1063.3	209.37	4.7521e-06	4.9027e-06	263.78	76.257	60.093	17.403	4.938e-06	24.662	261.421	241.728	243.841	184.309	284.941	341.078	184.429	191.507	325.025	345.718	191.442	198.052	197.895	205.025	330.170	204.421	-8191	255	
16359.043	1	1	0	0	0.0776	0.24478	0.08772	0.19781	0.31242	0.19297	0.31279	0.20915	0.17116	0.1083	0.038145	0.29777	0.21484	0.25901	0.073895	0.32802	-2.3417	-2.6	-2.2604	-2.725	-2.425	-2.3937	-2.8667	-2.2521	-2.3875	-2.5833	-2.2646	-2.7208	-2.5	-2.4458	-2.75	-2.2333	461.362	448.059	410.076	465.048	514.503	458.764	391.020	469.251	479.039	438.269	448.657	409.239	408.629	436.370	304.990	358.994	0.00023143	0.0002191	0.00010567	1019.4	3.3669e-06	4.1364e-06	1080.6	211.58	3.071e-06	4.0096e-06	264.7	76.195	59.487	17.186	3.223e-06	24.22	0.00036806	0.00044978	0.00012922	1002.8	5.0586e-06	4.9579e-06	1064.9	210.17	4.9316e-06	5.0864e-06	263.54	76.306	60.147	17.391	4.7579e-06	24.613	264.952	217.700	251.240	184.479	335.932	336.416	184.257	191.417	298.144	354.130	191.522	198.189	198.195	205.282	334.211	204.688	-8191	255	
16359.164	1	1	0	0	0.28462	0.10799	0.21949	0.092315	0.17873	0.097966	0.10819	0.11038	0.094691	0.33167	0.35259	0.016643	0.25589	0.20193	0.21787	0.21503	-2.1146	-2.6521	-2.1562	-2.7833	-2.5396	-2.2271	-2.7354	-2.1542	-2.4062	-2.5729	-2.3083	-2.5458	-2.4854	-2.2729	-2.6229	-2.4437	457.048	280.117	265.825	474.613	508.211	478.925	478.604	233.395	225.573	251.000	494.210	478.786	179.336	222.837	206.384	458.357	0.00023523	0.00016979	0.00010889	1016.6	2.5827e-06	1.1053e-06	1075.6	211.57	2.6355e-06	9.6276e-07	264.79	76.17	60.176	17.285	2.7698e-06	24.319	0.00038079	0.00045111	0.00012645	1003.6	5.0611e-06	5.0655e-06	1063.4	209.89	4.8869e-06	5.037e-06	263.78	76.278	60.245	17.417	4.6537e-06	24.67	263.415	308.883	287.625	184.518	331.529	369.916	184.434	191.736	303.694	359.592	191.437	197.759	197.672	205.577	329.651	204.695	-8191	255	
16359.258	1	1	0	0	0.04074	0.29125	0.19971	0.26442	0.37025	0.15982	0.56214	0.1178	0.15521	0.21719	0.21815	0.2406	0.12349	0.14129	0.22407	0.095906	-2.1125	-2.5563	-2.3958	-2.4896	-2.425	-2.2479	-2.7646	-2.3354	-2.4875	-2.5396	-2.2083	-2.7438	-2.6354	-2.2667	-2.5875	-2.4979	429.718	267.503	503.717	493.249	400.758	363.476	484.589	298.823	494.403	182.379	508.312	480.512	448.393	225.540	397.712	461.210	0.00023326	0.0001029	6.6419e-05	1018.2	2.7235e-06	1.183e-06	1076.3	210.81	4.6742e-06	2.3696e-06	264.88	75.58	59.801	17.245	2.5436e-06	24.51	0.0003786	0.00044981	0.000126	1002.4	4.9513e-06	4.9691e-06	1062.6	209.53	4.8034e-06	4.8388e-06	263.69	76.059	60.191	17.394	4.5951e-06	24.764	262.362	524.773	280.562	184.531	295.475	343.490	184.181	191.747	302.588	331.204	191.395	197.895	198.493	205.064	389.384	204.929	-8191	255	
16359.331	1	1	0	0	0.26843	0.1209	0.13071	0.24156	0.11626	0.33199	0.04379	0.094793	0.15543	0.29021	0.25964	0.27439	0.14868	0.29742	0.099472	0.20845	-1.9625	-2.5958	-2.3563	-2.5021	-2.5354	-2.0354	-2.6833	-2.5021	-2.3875	-2.7896	-2.2104	-2.5958	-2.5229	-2.3208	-2.7104	-2.8271	319.774	472.491	275.861	506.088	181.262	490.367	501.040	461.036	379.019	463.429	433.614	308.754	447.050	200.282	451.408	260.638	0.00022068	0.00032721	3.8089e-05	1014.2	3.8716e-06	3.1295e-06	1079.9	209.88	1.6433e-06	5.981e-06	265.52	76.169	60.471	17.098	1.7654e-06	24.27	0.00038441	0.00045437	0.00013021	1001	4.8582e-06	5.0502e-06	1065.8	209.27	4.8953e-06	5.0338e-06	264.13	76.219	60.428	17.406	4.7391e-06	24.67	258.775	266.224	315.624	184.514	314.304	390.972	184.270	191.521	386.620	332.025	191.319	198.065	198.122	204.745	340.653	204.384	-8191	255	
16359.450	1	1	0	0	0.20385	0.1587	0.16031	0.15903	0.28931	0.20799	0.23421	0.1254	0.074486	0.2512	0.26631	0.079371	0.030995	0.14981	0.10074	0.20697	-1.8479	-2.6667	-2.2458	-2.55	-2.6604	-2.1833	-2.6646	-2.6063	-2.1958	-2.5687	-2.3271	-2.5438	-2.6125	-2.2958	-2.4958	-2.5771	517.646	331.306	440.290	214.345	201.644	423.207	514.199	477.821	201.956	385.931	469.195	337.373	525.612	308.504	275.206	418.384	0.00023233	0.00038106	9.6265e-05	1015.4	4.5932e-06	2.9812e-06	1078.2	211.44	3.3153e-06	3.1416e-06	264.31	75.966	59.941	17.218	3.7492e-06	24.273	0.00037945	0.00046359	0.00012834	1001.4	4.9118e-06	5.2212e-06	1065	209.58	4.8554e-06	4.9887e-06	264.09	76.316	60.413	17.416	4.7613e-06	24.683	267.935	264.934	273.671	184.549	313.289	303.343	184.396	191.466	291.356	319.110	191.287	197.944	198.260	205.355	313.353	204.757	-8191	255	
16359.546	1	1	0	0	0.080457	0.13059	0.17375	0.14748	0.14655	0.11023	0.18857	0.20871	0.21587	0.15193	0.094505	0.30307	0.20756	0.53455	0.0054896	0.12148	-1.9333	-2.675	-2.45	-2.5083	-2.7208	-2.4125	-2.75	-2.575	-2.2438	-2.9146	-2.5229	-2.475	-2.8312	-2.4	-2.6688	-2.5958	255.833	396.912	421.366	430.306	300.168	325.992	386.166	488.490	300.317	293.613	275.296	467.496	447.687	204.203	175.100	224.686	0.00022301	0.00022246	0.0001206	1015.7	3.1002e-06	2.288e-06	1083.2	210.3	2.7747e-06	3.3942e-06	264.34	75.695	60.458	17.325	2.7901e-06	24.23	0.00038857	0.00044967	0.00013095	1002.7	4.8759e-06	4.9009e-06	1065.9	209.45	4.781e-06	4.8862e-06	263.67	76.137	60.338	17.452	4.7643e-06	24.638	270.362	251.947	284.252	184.405	299.804	305.406	184.509	191.408	336.784	323.269	191.192	197.984	198.458	205.496	344.600	204.967	-8191	255	
16359.643	1	1	0	0	0.30001	0.13191	0.035736	0.18926	0.1494	0.095246	0.35247	0.061837	0.091397	0.13825	0.069294	0.17814	0.11047	0.13612	0.19047	0.17996	-1.7313	-2.6333	-2.425	-2.3688	-2.5229	-2.3771	-2.65	-2.5792	-2.2375	-2.5896	-2.4833	-2.2396	-2.7833	-2.4208	-2.3104	-2.5875	335.100	359.453	286.710	476.831	464.709	306.237	428.510	438.839	486.854	524.334	183.929	438.274	366.857	407.556	189.803	531.692	0.00021718	0.00026295	9.0343e-05	1017.9	2.9415e-06	2.2456e-06	1078	211.69	2.0644e-06	4.2821e-06	264.68	75.54	59.681	17.203	2.3693e-06	24.193	0.00038139	0.00044008	0.00012037	1003.6	4.9394e-06	4.9852e-06	1063.2	209.76	4.892e-06	4.8898e-06	263.24	76.161	60.076	17.443	4.6868e-06	24.592	264.887	253.826	259.767	184.739	322.839	341.556	184.368	191.850	342.883	334.221	191.458	197.856	198.614	205.270	317.800	204.910	-8191	255	
16359.739	1	1	0	0	0.14635	0.16524	0.12021	0.13735	0.16603	0.22246	0.25018	0.28369	0.11281	0.16447	0.19461	0.14197	0.23578	0.20982	0.1714	0.21661	-1.9104	-2.6146	-2.5125	-2.5271	-2.7375	-2.3458	-2.5625	-2.7833	-2.1667	-2.6542	-2.5729	-2.3354	-2.7208	-2.4625	-2.4562	-2.6375	495.756	420.485	349.932	516.823	265.932	418.242	448.510	183.956	447.202	220.590	210.126	179.199	174.777	363.516	294.294	501.163	0.00020845	0.00015772	0.00010365	1014.2	1.0889e-06	3.0557e-06	1071.4	210.36	2.281e-06	4.7275e-06	265.4	75.665	60.268	17.176	1.8164e-06	24.495	0.00037188	0.00044902	0.00012281	1002.7	4.9035e-06	4.9278e-06	1061.9	209.7	4.8008e-06	5.0032e-06	263.89	76.245	60.28	17.415	4.7414e-06	24.713	263.473	252.930	269.622	184.508	317.886	307.412	184.383	191.986	331.904	312.160	191.196	197.719	198.230	205.383	297.054	204.930	-8191	255	
16359.859	1	1	0	0	0.066439	0.3473	0.11733	0.37025	0.15596	0.10552	0.34217	0.29383	0.16174	0.098533	0.20393	0.10612	0.1178	0.34993	0.13814	0.20168	-2.0542	-2.6333	-2.5146	-2.3042	-2.7167	-2.6417	-2.5167	-2.8312	-2.4021	-2.5792	-2.7104	-2.4062	-2.7021	-2.5083	-2.3354	-2.7271	232.858	241.274	531.434	516.002	479.902	526.379	469.165	464.934	515.344	468.893	207.169	437.385	433.437	483.644	476.538	311.752	0.00024982	0.00029431	8.3278e-05	1013.4	1.9429e-06	2.6114e-06	1074.6	210.91	2.9171e-06	2.9402e-06	264.47	75.973	60.217	17.135	1.984e-06	24.319	0.00036837	0.00045549	0.00012444	1001.5	4.7904e-06	4.7423e-06	1062.3	209.36	4.9092e-06	4.9131e-06	263.78	76.188	60.256	17.401	4.6962e-06	24.68	261.842	258.499	243.794	184.520	309.740	345.633	184.566	192.049	302.418	356.871	190.905	198.078	198.329	205.152	331.246	204.807	-8191	255	
16359.931	1	1	0	0	0.2992	0.27027	0.14675	0.077771	0.093447	0.081658	0.37176	0.27333	0.17044	0.14517	0.13217	0.23538	0.099635	0.14035	0.065852	0.21632	-1.8708	-2.5563	-2.6604	-2.5104	-2.6771	-2.5271	-2.4083	-2.6813	-2.4292	-2.5396	-2.6979	-2.5125	-2.5271	-2.5375	-2.2104	-2.7604	418.024	239.135	239.509	446.605	518.869	441.682	196.462	474.123	308.187	300.596	484.978	373.687	524.269	290.030	430.050	417.460	0.00020443	0.00043996	6.0628e-05	1012.9	4.7299e-06	2.8188e-06	1078.5	209.93	1.3864e-06	1.6531e-06	265.87	75.975	59.819	17.104	3.6769e-06	24.136	0.00036719	0.00045325	0.00012278	1000.6	4.5124e-06	4.9607e-06	1062.3	209.14	4.6154e-06	4.8094e-06	263.79	76.188	60.145	17.383	4.7052e-06	24.613	266.457	276.630	295.166	184.364	335.879	354.650	184.419	191.583	268.563	307.849	191.639	198.187	198.089	205.180	338.475	204.556	-8191	255	
16360.027	1	1	0	0	0.19916	0.31471	0.22555	0.2459	0.09627	0.14357	0.28805	0.15578	0.12871	0.14413	0.1911	0.18619	0.26612	0.33818	0.12179	0.11196	-1.9021	-2.2896	-2.6437	-2.3833	-2.5771	-2.7833	-2.3187	-2.8208	-2.5875	-2.3667	-2.7	-2.3333	-2.6875	-2.6896	-2.3854	-2.7625	190.118	266.137	400.530	487.010	340.682	391.808	471.275	502.380	220.763	502.499	243.083	495.498	437.830	196.251	507.839	245.655	0.00025357	0.00029863	5.9204e-05	1014.3	2.7541e-06	3.0333e-06	1076.8	210.54	3.4748e-06	2.5278e-06	263.91	76.057	60.221	17.117	3.3497e-06	24.398	0.00036799	0.00044435	0.00012406	1002	4.752e-06	4.7262e-06	1063.7	209.24	4.8004e-06	4.9803e-06	263.36	76.177	60.349	17.362	4.6699e-06	24.691	259.995	254.676	233.842	184.395	344.922	309.343	184.417	191.726	320.401	291.039	191.389	197.995	198.435	204.939	347.273	204.734	-8191	255	
16360.123	1	1	0	0	0.23511	0.16623	0.38065	0.16924	0.086872	0.025256	0.31611	0.17378	0.090342	0.10959	0.1183	0.07884	0.19272	0.0271	0.36303	0.29041	-1.9354	-2.4125	-2.7167	-2.6083	-2.4333	-2.5083	-2.4146	-2.4437	-2.5438	-2.2938	-2.9583	-2.4604	-2.5646	-2.6312	-2.425	-2.6104	332.684	322.018	370.302	531.232	482.201	323.914	493.504	336.819	206.245	497.610	182.725	210.784	194.526	265.657	319.571	471.654	0.00023572	0.00044233	7.6917e-05	1016	3.563e-06	3.7298e-06	1076.4	211	4.2123e-06	2.9636e-06	264.75	75.323	59.88	17.235	2.382e-06	24.306	0.00038101	0.00044876	0.00011864	1001.6	4.7339e-06	4.7861e-06	1064.4	209.11	4.6066e-06	5.0925e-06	263.61	76.065	60.207	17.38	4.6248e-06	24.622	265.844	288.287	252.958	184.575	304.468	317.552	184.542	191.343	329.686	326.522	191.310	197.881	197.842	205.305	334.712	204.505	-8191	255	
16360.242	1	1	0	0	0.04809	0.10605	0.079459	0.25812	0.2024	0.30524	0.0059545	0.22525	0.21495	0.17632	0.097915	0.31997	0.11371	0.24949	0.17823	0.2831	-2.275	-2.3604	-2.6188	-2.3979	-2.3708	-2.5438	-2.3958	-2.6	-2.5042	-2.2833	-2.8625	-2.6271	-2.5563	-2.6417	-2.2812	-2.6979	437.962	532.049	188.937	518.709	298.356	449.203	408.384	447.610	467.721	218.238	245.832	532.101	303.478	266.748	312.287	447.669	0.00021959	0.00022411	0.00013064	1012.5	5.4682e-06	2.5386e-06	1074.6	210.6	1.3929e-06	2.176e-06	264.66	75.312	60.313	17.226	2.782e-06	24.297	0.00037341	0.00043679	0.00012306	1000.8	4.8669e-06	4.8659e-06	1061.6	209.2	4.796e-06	4.8408e-06	263.31	75.876	60.143	17.402	4.8508e-06	24.631	257.473	223.777	290.822	184.284	321.379	331.084	184.174	191.649	385.947	279.779	191.222	197.939	198.038	205.434	306.810	204.517	-8191	255	
16360.338	1	1	0	0	0.29774	0.30433	0.23456	0.45355	0.22256	0.10871	0.23665	0.074154	0.11182	0.22894	0.097081	0.34216	0.20001	0.088038	0.18343	0.2438	-2.4021	-2.3396	-2.6875	-2.5875	-2.3167	-2.9396	-2.5021	-2.4313	-2.7083	-2.2687	-2.6667	-2.4792	-2.3937	-2.7583	-2.2313	-2.5292	221.036	277.091	451.638	476.773	239.264	283.108	497.249	520.087	446.191	277.430	367.354	379.837	294.174	379.772	336.771	516.754	0.0002307	0.00027278	7.5527e-05	1013.6	3.9895e-06	2.645e-06	1076.6	209.82	2.412e-06	3.833e-06	263.64	75.379	60.168	17.147	2.5516e-06	24.308	0.00037177	0.00042978	0.00012027	1000.5	4.6929e-06	4.6472e-06	1063.9	209.2	4.7634e-06	4.7467e-06	263.37	75.957	60.32	17.4	4.6409e-06	24.641	267.580	230.415	255.704	184.708	307.621	348.744	184.410	191.675	346.080	367.497	190.929	198.079	198.309	205.587	355.250	205.410	-8191	255	
16360.436	1	1	0	0	0.086348	0.10646	0.10052	0.23238	0.13243	0.457	0.11467	0.12111	0.16261	0.12133	0.044548	0.21409	0.30043	0.13398	0.14469	0.19226	-2.3063	-2.2417	-2.6271	-2.8187	-2.3479	-2.85	-2.5354	-2.6875	-2.7854	-2.4521	-2.7458	-2.6354	-2.3979	-2.6688	-2.4604	-2.3438	263.702	451.447	323.507	518.613	379.186	527.241	252.009	287.439	409.732	243.769	347.845	479.349	483.483	321.925	333.384	434.579	0.00021978	0.00030408	0.00010774	1017.5	3.0001e-06	3.5505e-06	1078.6	209.25	3.1795e-06	2.0349e-06	265.19	75.722	59.983	17.172	3.6784e-06	24.334	0.00036783	0.000439	0.00011418	1000.2	4.7262e-06	4.7808e-06	1062	208.8	4.9195e-06	4.9244e-06	263.69	76.148	60.237	17.393	4.6943e-06	24.599	261.552	296.855	275.040	184.566	315.258	370.326	184.501	191.862	291.951	320.803	191.169	197.641	198.476	205.373	328.504	204.862	-8191	255	
16360.531	1	1	0	0	0.069339	0.20385	0.11121	0.17877	0.17933	0.13546	0.32828	0.15148	0.10638	0.11471	0.18186	0.078764	0.14062	0.049192	0.11211	0.070627	-2.325	-2.3521	-2.4542	-2.7562	-2.2021	-2.5792	-2.6417	-2.4104	-2.8229	-2.3646	-2.6292	-2.5521	-2.2042	-2.7104	-2.5042	-2.3208	356.631	470.348	430.747	408.841	410.405	186.806	398.256	520.487	424.626	505.821	186.311	216.824	439.689	216.393	346.082	192.248	0.00024505	0.00035313	9.1807e-05	1012.9	2.4304e-06	5.2633e-06	1077.8	210.87	2.638e-06	3.8264e-06	264.49	75.513	59.732	17.046	4.2987e-06	24.195	0.00037258	0.0004399	0.0001209	999.14	4.7915e-06	4.7941e-06	1064	209.14	4.6077e-06	5.0044e-06	263.14	76.096	60.003	17.342	4.7624e-06	24.6	264.208	279.224	286.673	184.475	305.516	318.603	184.600	191.529	372.285	336.906	191.610	198.209	198.160	205.399	339.578	204.751	-8191	255	
16360.627	1	1	0	0	0.17983	0.12299	0.10188	0.24998	0.064074	0.15472	0.21006	0.14154	0.17102	0.15702	0.12936	0.12062	0.20241	0.22248	0.49544	0.113	-2.2542	-2.375	-2.3208	-2.7354	-2.2375	-2.6042	-2.5667	-2.4354	-2.5083	-2.3125	-2.35	-2.7479	-2.2979	-2.4625	-2.5292	-2.4375	394.308	356.881	314.051	497.913	483.650	478.913	387.852	278.079	499.082	355.310	317.546	497.153	242.624	444.140	483.878	289.018	0.00021112	0.0002022	6.2017e-05	1012.5	3.2905e-06	2.1036e-06	1073.1	210.51	1.8005e-06	4.8395e-06	265.14	76.106	60.273	17.301	2.038e-06	24.167	0.00036341	0.000445	0.00012503	999.5	4.9296e-06	4.9346e-06	1061.4	209.14	4.6689e-06	5.2035e-06	264.08	76.083	60.353	17.423	4.8982e-06	24.67	266.219	298.188	263.280	184.643	326.858	376.621	184.401	191.823	322.898	314.496	191.420	198.237	197.979	205.585	348.837	205.007	-8191	255	
16360.723	1	1	0	0	0.067948	0.089058	0.26555	0.18542	0.018867	0.36392	0.28353	0.24742	0.042797	0.2793	0.047367	0.13769	0.063137	0.099687	0.22435	0.044547	-2.4667	-2.3583	-2.2646	-2.7729	-2.2104	-2.7146	-2.775	-2.2833	-2.7208	-2.4417	-2.6333	-2.7521	-2.2208	-2.675	-2.575	-2.3354	273.388	209.344	479.762	507.411	407.246	295.767	519.908	202.923	270.538	295.709	230.349	498.743	416.585	284.875	334.689	353.542	0.00021557	0.0002147	0.00011146	1018.1	3.09e-06	2.0039e-06	1078	210.45	3.0103e-06	2.9977e-06	266.02	75.278	60.151	17.28	3.4512e-06	23.966	0.00038652	0.00046984	0.00012868	1002.7	5.1264e-06	5.2003e-06	1063.1	209.18	5.1192e-06	5.0619e-06	263.81	76.093	60.283	17.445	5.2671e-06	24.538	262.627	273.140	252.586	184.477	341.936	305.917	184.531	191.671	303.683	318.502	190.939	197.860	198.389	205.360	383.006	204.603	-8191	255	
16360.844	1	1	0	0	0.15114	0.095013	0.1475	0.09964	0.24217	0.094935	0.294	0.36427	0.19026	0.1514	0.098835	0.08929	0.27906	0.042646	0.087344	0.013184	-2.2458	-2.5229	-2.3375	-2.7438	-2.3458	-2.3937	-2.75	-2.2896	-2.8646	-2.4771	-2.4417	-2.8021	-2.5021	-2.5312	-2.6208	-2.4708	278.476	185.414	415.617	369.037	263.822	324.144	510.028	482.325	234.331	256.586	394.559	530.804	529.356	236.326	351.227	260.139	0.00022266	0.00042017	7.977e-05	1015.4	3.3061e-06	3.3452e-06	1072.6	211.35	1.7379e-06	5.1004e-06	263.73	75.456	59.321	17.063	3.9201e-06	24.256	0.00040209	0.00048622	0.0001344	1001.1	5.1902e-06	5.212e-06	1062.1	209.51	5.0144e-06	5.4552e-06	263.19	76.162	60.017	17.402	5.0772e-06	24.672	262.145	264.767	272.944	184.424	334.155	359.804	184.481	191.936	317.185	341.004	191.161	197.947	198.329	205.123	294.842	204.447	-8191	255	
16360.940	1	1	0	0	0.17529	0.16089	0.16971	0.112	0.25571	0.15172	0.1276	0.070404	0.10831	0.239	0.091361	0.072486	0.047291	0.17189	0.16563	0.15996	-2.2229	-2.6667	-2.2396	-2.9833	-2.4562	-2.6125	-2.7729	-2.375	-2.4375	-2.6583	-2.3479	-2.7021	-2.5792	-2.3667	-2.6354	-2.45	406.994	188.205	215.096	494.321	293.795	438.694	210.515	381.855	397.979	231.953	524.998	490.689	297.914	507.858	182.647	350.725	0.00023348	0.00047114	5.8608e-05	1013.8	3.0298e-06	2.4791e-06	1071.5	210.08	1.8359e-06	2.0804e-06	264.43	75.2	59.635	17.078	2.7637e-06	24.362	0.0003932	0.00047809	0.00013794	1001	5.0021e-06	5.09e-06	1061.4	209.13	5.0573e-06	5.3394e-06	263.36	76.129	60.175	17.378	4.9982e-06	24.671	259.575	248.312	284.945	184.654	306.821	308.991	184.514	191.588	292.682	312.219	191.235	197.949	198.323	205.411	340.815	205.160	-8191	255	
16361.036	1	1	0	0	0.176	0.19218	0.1433	0.25473	0.028874	0.12957	0.096388	0.11334	0.091679	0.17621	0.29776	0.17275	0.14085	0.05396	0.14282	0.11913	-2.0812	-2.6021	-2.0625	-2.9792	-2.3333	-2.3167	-2.7771	-2.5271	-2.6146	-2.6833	-2.2708	-2.7521	-2.3896	-2.2271	-2.8063	-2.375	404.001	370.798	452.243	509.126	524.372	323.726	469.614	248.131	243.539	190.897	504.082	217.954	329.291	198.479	212.845	184.886	0.00026141	0.00024652	6.3158e-05	1019.8	1.6017e-06	2.2928e-06	1073.4	210.18	1.8184e-06	2.3182e-06	263.98	75.591	60.054	17.098	2.7448e-06	24.344	0.00040202	0.0004834	0.0001399	1003.2	5.0379e-06	5.2525e-06	1062.4	209.11	5.0382e-06	5.2549e-06	263.31	76.193	60.173	17.411	5.0437e-06	24.732	261.514	282.328	286.471	184.553	265.838	344.806	184.185	191.719	288.436	298.288	191.310	197.942	198.325	205.642	345.584	204.822	-8191	255	
16361.155	1	1	0	0	0.29932	0.062401	0.1082	0.04191	0.14412	0.25252	0.39782	0.30167	0.12345	0.22005	0.10962	0.10318	0.1436	0.15312	0.080522	0.10314	-2.1396	-2.7208	-2.3396	-2.5458	-2.4375	-2.2042	-2.9083	-2.4458	-2.4708	-2.5833	-2.0521	-2.6042	-2.5187	-2.3542	-2.5896	-2.4333	284.260	421.693	347.001	512.262	245.740	350.931	426.410	179.503	213.319	341.500	238.065	505.256	318.538	286.912	310.432	441.165	0.00023895	3.9585e-05	0.00012615	1011.8	2.1323e-06	1.7748e-06	1080.5	209.9	1.29e-06	3.0095e-06	263.85	75.544	60.158	17.283	2.7378e-06	24.4	0.00039967	0.00048969	0.00013163	1000.2	5.1952e-06	5.1735e-06	1063.4	209.15	4.9851e-06	5.3406e-06	263.07	76.157	60.236	17.456	4.9805e-06	24.594	268.807	373.086	269.505	184.544	340.007	328.772	184.506	191.642	290.437	366.888	191.273	197.980	198.402	205.230	360.174	204.574	-8191	255	
16361.226	1	1	0	0	0.062922	0.16047	0.1249	0.060667	0.20506	0.13036	0.20686	0.17232	0.1437	0.12141	0.2476	0.10877	0.0397	0.29575	0.26612	0.36893	-2.1104	-2.7062	-2.3146	-2.6125	-2.3729	-2.2417	-2.8896	-2.4813	-2.5	-2.5979	-2.4146	-2.5583	-2.6125	-2.3542	-2.975	-2.6458	179.213	349.774	350.849	483.168	526.114	452.235	447.578	485.017	372.079	258.632	442.437	432.805	197.994	495.746	497.531	415.057	0.00021043	0.00016903	0.00012169	1018.5	3.2675e-06	3.1834e-06	1075.4	209.98	3.5687e-06	1.7049e-06	264.31	75.718	60.291	17.102	1.7357e-06	24.309	0.00037672	0.00047002	0.00012919	1002.5	5.1909e-06	5.2176e-06	1061.6	209.13	5.0309e-06	5.117e-06	263.32	76.306	60.278	17.422	5.0114e-06	24.695	268.691	231.061	247.335	184.585	320.853	329.477	184.345	191.573	320.309	261.164	191.281	197.656	198.469	205.182	289.391	204.712	-8191	255	
16361.323	1	1	0	0	0.2261	0.1128	0.11487	0.10491	0.093553	0.17588	0.13831	0.36617	0.25919	0.31625	0.1453	0.074082	0.3754	0.24591	0.25988	0.27861	-2.0708	-2.6271	-2.1771	-2.725	-2.55	-2.1917	-2.8792	-2.5833	-2.3333	-2.7104	-2.55	-2.6479	-2.7875	-2.3417	-2.6917	-2.4958	416.532	451.276	256.168	233.218	435.388	466.981	309.843	395.106	201.124	312.605	499.636	334.635	488.755	456.772	497.483	181.547	0.00021088	0.00043094	9.4358e-05	1016.7	3.766e-06	3.0384e-06	1070.1	208.87	2.7598e-06	4.2056e-06	263.99	75.266	60.135	17.188	3.8834e-06	24.275	0.00039135	0.00045408	0.00013228	999.89	5.146e-06	5.2513e-06	1060.5	208.95	5.1412e-06	5.3538e-06	263.23	76.01	60.178	17.408	5.0452e-06	24.638	258.306	324.930	219.503	184.539	312.640	359.922	184.590	191.690	275.309	323.112	191.043	197.842	198.164	205.551	341.767	205.148	-8191	255	
16361.419	1	1	0	0	0.067339	0.27586	0.3129	0.20155	0.16765	0.38114	0.2033	0.30957	0.28721	0.090456	0.24978	0.05479	0.048623	0.27624	0.08157	0.22111	-2.1437	-2.7479	-2.3375	-2.5417	-2.6083	-2.4437	-2.7333	-2.6396	-2.45	-2.8208	-2.6021	-2.4792	-2.8312	-2.3104	-2.7313	-2.5396	350.977	416.919	187.653	399.865	361.203	509.535	384.633	483.634	317.718	476.429	483.037	484.479	477.451	176.848	178.885	202.141	0.00022996	0.0002816	6.4265e-05	1019.4	2.6238e-06	4.1133e-06	1076.3	211.06	2.1077e-06	4.3115e-06	264.22	75.491	60.551	17.039	3.2397e-06	24.099	0.00039933	0.00045885	0.00013343	1001.8	4.9738e-06	5.2654e-06	1061.5	208.75	5.0683e-06	5.0056e-06	263	76.016	60.274	17.319	4.9038e-06	24.629	261.940	280.290	254.715	184.267	296.511	328.714	184.386	191.532	321.280	309.719	191.296	198.249	198.266	205.512	325.294	204.798	-8191	255	
16361.539	1	1	0	0	0.30181	0.098071	0.12143	0.34766	0.081237	0.16739	0.10544	0.12148	0.21206	0.22403	0.12115	0.24406	0.066201	0.11764	0.10798	0.11575	-1.9521	-2.6271	-2.4458	-2.4271	-2.6875	-2.2958	-2.8125	-2.7083	-2.2729	-2.7542	-2.5729	-2.3563	-2.8208	-2.425	-2.4417	-2.6417	245.989	320.072	338.823	188.182	368.981	408.854	474.292	522.593	375.597	327.132	174.922	192.577	491.642	506.612	257.167	309.734	0.00023876	0.0003603	0.00010589	1015.9	1.6513e-06	5.5179e-06	1076.5	209.55	4.7809e-06	2.6291e-06	263.18	75.665	59.817	17.21	4.9185e-06	24.337	0.00038435	0.00046532	0.00012916	1002.9	5.0332e-06	5.2618e-06	1062.8	209.07	5.1386e-06	5.2332e-06	263.01	75.998	60.029	17.369	4.7801e-06	24.644	267.778	262.077	263.231	184.691	358.176	338.654	184.693	191.648	340.250	330.021	191.389	198.222	197.783	205.135	319.367	204.412	-8191	255	
16361.635	1	1	0	0	0.27265	0.037858	0.39609	0.28564	0.23394	0.2738	0.061764	0.1007	0.17549	0.10804	0.44825	0.1219	0.14335	0.32258	0.26991	0.20111	-1.5979	-2.575	-2.6708	-2.3125	-2.8833	-2.3812	-2.5417	-2.6625	-2.2979	-2.6104	-2.5542	-2.325	-2.6521	-2.5792	-2.3958	-2.8729	414.055	182.606	370.819	530.281	507.309	465.385	230.604	465.005	482.820	233.549	493.441	266.970	494.481	458.359	407.240	358.932	0.00024541	0.00037542	0.00012019	1012.6	4.3472e-06	1.6219e-06	1074.7	209.84	2.8674e-06	2.3173e-06	263.77	75.813	59.932	17.164	2.3378e-06	24.113	0.00040139	0.0004829	0.00012951	999.93	5.0688e-06	5.1787e-06	1062.6	208.68	5.0902e-06	5.0913e-06	262.52	76.229	60.132	17.389	5.1031e-06	24.584	265.909	248.936	247.265	184.677	329.318	289.484	184.505	191.820	373.533	342.752	191.272	198.152	198.063	204.984	349.745	204.841	-8191	255	
16361.732	1	1	0	0	0.10395	0.051381	0.11552	0.27001	0.036489	0.19654	0.20967	0.23455	0.21745	0.15292	0.18357	0.22674	0.22579	0.17664	0.24758	0.063108	-2.0292	-2.5187	-2.5896	-2.3	-2.6646	-2.4729	-2.425	-2.875	-2.2458	-2.4771	-2.7708	-2.1688	-2.5604	-2.3396	-2.2583	-2.7083	509.881	218.257	418.521	461.561	230.712	505.933	385.464	454.299	473.585	351.448	507.564	300.441	316.217	507.338	497.698	419.545	0.00022075	0.00021571	2.8275e-05	1011.5	4.8908e-06	5.5348e-07	1074.3	209.5	4.3597e-06	5.3853e-06	265.25	75.762	60.077	17.144	2.1911e-06	24.13	0.00039723	0.00047903	0.0001359	998.83	5.0144e-06	5.4689e-06	1062.3	208.7	5.2547e-06	5.3993e-06	263.19	76.105	60.222	17.377	5.0749e-06	24.618	260.539	253.667	252.451	184.565	328.633	322.396	184.560	191.614	340.659	296.417	191.310	197.919	198.596	205.283	412.806	205.051	-8191	255	
16361.803	1	1	0	0	0.2264	0.31273	0.12736	0.35606	0.11143	0.19613	0.096214	0.031292	0.18346	0.094209	0.20363	0.11939	0.15453	0.37489	0.20691	0.1381	-1.9062	-2.5333	-2.7542	-2.4958	-2.675	-2.4437	-2.5167	-2.7708	-2.2208	-2.625	-2.7354	-2.1604	-2.65	-2.4521	-2.3604	-2.8583	525.629	517.131	386.677	503.208	435.722	519.094	517.471	259.849	360.679	428.262	176.982	403.926	449.132	401.846	412.676	436.027	0.00021607	0.00019962	0.00010186	1011.9	3.0569e-06	1.4662e-06	1069.9	209.92	2.57e-06	2.3491e-06	264.34	75.139	59.86	17.128	1.8948e-06	24.172	0.00039909	0.0004919	0.00013269	999.43	5.2159e-06	5.4525e-06	1060.7	208.65	5.1258e-06	5.382e-06	263.75	75.846	60.179	17.38	5.1483e-06	24.591	266.719	249.923	255.847	184.356	245.623	298.050	184.498	191.573	355.431	275.186	191.465	198.346	198.435	205.223	336.837	205.204	-8191	255	
16361.924	1	1	0	0	0.023983	0.1541	0.12806	0.22059	0.18982	0.12744	0.18748	0.17955	0.080024	0.09148	0.18099	0.29319	0.21557	0.093223	0.29952	0.22586	-1.8396	-2.4417	-2.7792	-2.4104	-2.6542	-2.6146	-2.4625	-2.7313	-2.4208	-2.5333	-2.9833	-2.3146	-2.4646	-2.5958	-2.4458	-2.8563	242.829	506.872	180.963	209.178	255.466	341.734	519.305	415.359	311.672	420.207	413.995	452.514	197.780	473.614	490.573	456.447	0.00022803	0.00014596	5.4763e-05	1013.7	4.07e-06	2.6e-06	1073.3	211.31	3.768e-06	3.2841e-06	264.76	75.827	59.72	17.186	2.0096e-06	24.215	0.00039784	0.00048908	0.00013057	999.26	5.1025e-06	5.4741e-06	1062.7	209.32	5.3694e-06	5.5577e-06	263.15	76.192	60.201	17.364	5.1893e-06	24.65	263.218	216.696	275.417	184.522	317.286	344.763	184.608	191.743	295.461	378.609	191.650	197.982	198.255	205.516	373.632	204.884	-8191	255	
16362.020	1	1	0	0	0.075419	0.11362	0.1819	0.2791	0.25564	0.16651	0.39191	0.18334	0.13068	0.057982	0.12492	0.095738	0.27103	0.16555	0.10131	0.50658	-2.05	-2.3417	-2.6937	-2.4042	-2.5958	-2.7875	-2.3229	-2.6875	-2.4646	-2.4896	-3.0083	-2.4	-2.4979	-2.6375	-2.3083	-2.7	532.613	405.482	298.123	514.259	489.981	444.917	506.539	466.346	424.108	192.471	377.960	414.735	191.696	483.676	391.758	472.549	0.00022428	0.00016405	9.7298e-05	1014.1	1.8471e-06	3.2456e-06	1073.3	210.71	2.5366e-06	2.1267e-06	265.42	75.832	60.182	17.144	2.3137e-06	24.194	0.00040388	0.00049971	0.00013737	1000.3	5.1746e-06	5.3975e-06	1060.8	209.51	5.154e-06	5.4942e-06	263.51	76.132	60.193	17.404	5.5308e-06	24.671	263.563	230.234	296.259	184.536	341.427	302.204	184.384	191.839	352.635	344.508	191.326	198.033	197.595	205.094	354.753	204.920	-8191	255	
16362.116	1	1	0	0	0.18237	0.19274	0.06732	0.10906	0.092613	0.20363	0.24733	0.13996	0.17267	0.31933	0.25628	0.12591	0.098889	0.25829	0.022429	0.0091691	-2.1688	-2.25	-2.6292	-2.5292	-2.4167	-2.7375	-2.5687	-2.9167	-2.6833	-2.3396	-2.8063	-2.4875	-2.3979	-2.7208	-2.4625	-2.7562	212.585	517.807	462.771	313.416	431.904	336.973	528.993	392.033	213.031	528.316	471.222	317.989	243.187	462.558	448.655	324.353	0.0002134	0.00049446	0.0001076	1007.8	2.1841e-06	2.597e-06	1071.9	210.2	1.5705e-06	2.7619e-06	264.3	75.075	59.531	17.307	4.9613e-06	24.37	0.00040303	0.00051269	0.00013988	998.77	5.2695e-06	5.5745e-06	1062.8	209.36	5.2287e-06	5.5862e-06	263.6	75.928	60.031	17.438	5.3013e-06	24.605	264.273	232.534	292.074	184.470	323.065	307.827	184.404	191.808	291.608	307.896	191.385	197.897	198.256	205.066	337.844	204.612	-8191	255	
16362.235	1	1	0	0	0.12182	0.11326	0.23304	0.24518	0.097267	0.21454	0.2594	0.10892	0.21912	0.19245	0.15944	0.10983	0.15484	0.12308	0.05596	0.17546	-2.2896	-2.2229	-2.8229	-2.4125	-2.4479	-2.7313	-2.3958	-2.5083	-2.7062	-2.2229	-2.5687	-2.5021	-2.3125	-2.7042	-2.425	-2.5021	398.004	250.990	483.635	456.132	456.002	243.256	435.456	299.399	423.897	175.221	531.918	435.067	186.971	487.628	399.171	210.807	0.00023612	0.00032531	0.00011909	1014.6	3.4032e-06	2.7156e-06	1075.6	211.95	2.206e-06	1.8677e-06	264.61	75.76	60.304	17.148	3.1975e-06	24.205	0.00041153	0.00050785	0.00014047	1001.5	5.4236e-06	5.7415e-06	1062.1	209.74	5.4361e-06	5.423e-06	263.66	76.058	60.378	17.384	5.3217e-06	24.573	258.514	252.047	272.960	184.321	299.092	310.561	184.603	191.951	329.923	285.398	191.599	197.748	198.308	205.201	354.665	205.044	-8191	255	
16362.331	1	1	0	0	0.17664	0.082949	0.092443	0.3177	0.082893	0.045255	0.24499	0.15858	0.038714	0.19472	0.1976	0.19246	0.13946	0.079018	0.088708	0.29734	-2.3187	-2.2896	-2.5729	-2.6625	-2.3979	-2.6917	-2.3271	-2.4562	-2.6937	-2.5104	-2.7354	-2.6104	-2.3375	-2.7333	-2.5229	-2.4896	391.840	239.846	499.177	214.545	256.877	467.832	458.461	520.866	416.065	423.342	218.537	381.344	477.138	500.034	416.100	404.947	0.00023026	0.00047942	6.2706e-05	1016.5	2.6691e-06	3.4241e-06	1080	210.56	4.4455e-06	5.7593e-06	265.41	76.073	60.05	17.159	3.5501e-06	24.223	0.00040871	0.00051566	0.00013569	1001.5	5.3594e-06	5.3308e-06	1063	209.2	5.4108e-06	5.7222e-06	263.99	76.187	60.261	17.375	5.3487e-06	24.681	260.932	249.106	259.883	184.582	321.980	310.285	184.560	191.962	322.367	311.919	191.379	197.882	198.436	205.107	344.847	204.876	-8191	255	
16362.427	1	1	0	0	0.18776	0.42156	0.16729	0.28807	0.16013	0.22672	0.05705	0.31653	0.078053	0.26159	0.087953	0.3897	0.14464	0.20899	0.064463	0.21235	-2.1667	-2.1542	-2.5854	-2.6604	-2.3292	-2.85	-2.6083	-2.5583	-2.7479	-2.3604	-2.7792	-2.7583	-2.3208	-2.8646	-2.3292	-2.5	507.172	314.687	513.455	463.081	469.061	336.781	241.698	503.908	530.495	486.307	334.014	518.626	452.213	464.018	439.593	195.910	0.00024679	0.00024604	0.0001415	1011	1.5379e-06	4.1099e-06	1074	209.64	4.9076e-06	1.8386e-06	263.71	75.814	59.923	17.177	3.3082e-06	24.316	0.00041186	0.00050683	0.00013771	998.88	5.3457e-06	5.5067e-06	1061.6	208.96	5.5152e-06	5.4331e-06	263.37	76.026	60.233	17.407	5.3924e-06	24.641	266.105	220.670	264.612	184.447	353.248	341.925	184.446	191.613	307.635	328.202	191.125	197.944	198.141	205.168	347.622	204.877	-8191	255	
16362.524	1	1	0	0	0.28956	0.14777	0.20924	0.18325	0.28265	0.15065	0.31828	0.38876	0.19391	0.174	0.11006	0.12226	0.15799	0.1047	0.069151	0.14682	-2.2812	-2.4562	-2.5708	-2.7521	-2.0833	-2.5521	-2.3583	-2.3167	-2.8771	-2.3458	-2.5896	-2.8208	-2.3333	-2.5167	-2.4104	-2.2979	279.327	272.243	318.130	505.849	184.655	222.279	415.712	513.581	509.054	185.796	207.362	311.799	496.820	365.442	266.824	512.950	0.00023766	0.0001701	9.0292e-05	1014.8	3.6446e-06	3.65e-06	1078.2	210.57	2.64e-06	3.775e-06	263.28	75.554	60.408	17.156	2.6815e-06	24.047	0.00041061	0.00050452	0.00014007	1001.4	5.3569e-06	5.542e-06	1063.2	209.79	5.4683e-06	5.6333e-06	263.12	76.081	60.378	17.41	5.5484e-06	24.582	265.139	253.663	267.436	184.483	287.053	330.826	184.289	191.740	295.034	331.577	190.914	198.198	198.211	205.486	309.460	205.179	-8191	255	
16362.620	1	1	0	0	0.13792	0.16468	0.25497	0.42224	0.15066	0.13311	0.18696	0.22546	0.35499	0.10522	0.10973	0.18093	0.12418	0.23873	0.17451	0.44244	-2.2854	-2.4437	-2.4667	-2.8896	-2.2146	-2.5354	-2.6312	-2.4708	-2.6625	-2.5958	-2.4313	-2.7062	-2.3021	-2.7708	-2.7458	-2.4146	199.436	359.285	482.765	432.357	247.158	185.677	368.911	458.052	422.705	482.615	237.885	465.800	510.480	228.163	402.803	398.934	0.00022042	0.00048679	4.018e-05	1013.4	3.4118e-06	4.8015e-06	1078.5	209.67	2.5819e-06	3.4604e-06	265.3	75.803	60.187	17.189	3.2327e-06	24.2	0.00042052	0.00051247	0.00014712	1002.3	5.4464e-06	5.6022e-06	1063.9	209.11	5.4878e-06	5.7527e-06	264.09	76.149	60.43	17.429	5.539e-06	24.604	261.082	244.421	284.395	184.629	337.343	344.359	184.156	191.439	347.839	311.359	191.175	197.914	198.210	205.079	356.697	205.016	-8191	255	
16362.716	1	1	0	0	0.084087	0.050109	0.19078	0.010244	0.16452	0.063849	0.2454	0.22515	0.092722	0.19254	0.1058	0.14383	0.066272	0.12285	0.22103	0.10055	-2.2771	-2.4833	-2.5042	-2.8958	-2.1521	-2.5146	-2.6646	-2.4875	-2.7042	-2.6042	-2.3896	-2.8312	-2.3104	-2.4021	-2.5521	-2.4125	379.159	500.386	235.475	218.218	515.511	232.765	466.253	428.270	382.959	300.022	204.733	372.045	478.925	504.903	352.180	499.437	0.00024053	0.00045213	8.0018e-05	1016	2.412e-06	3.6831e-06	1078.9	211.01	3.2552e-06	4.7875e-06	264.06	75.38	60.228	17.301	4.1551e-06	24.05	0.00041983	0.00052867	0.00014769	1002.9	5.9513e-06	5.7046e-06	1065	209.25	5.4482e-06	5.8955e-06	263.99	76.088	60.333	17.419	5.5353e-06	24.611	261.532	267.497	272.543	184.535	289.659	351.543	184.339	191.469	331.633	300.607	191.052	198.110	198.373	205.624	314.251	204.993	-8191	255	
16362.836	1	1	0	0	0.20986	0.040597	0.24901	0.24947	0.068987	0.24552	0.25084	0.25812	0.12047	0.16417	0.088254	0.065789	0.27769	0.12744	0.034781	0.024609	-2.1813	-2.4542	-2.2146	-2.8125	-2.4021	-2.4313	-2.875	-2.1833	-2.5521	-2.4146	-2.2625	-2.7083	-2.2521	-2.3854	-2.5354	-2.1708	451.235	314.723	497.932	326.391	437.882	406.257	531.821	486.501	340.653	289.913	443.853	513.976	239.606	458.381	281.153	379.834	0.00025088	0.00030434	8.5183e-05	1017.9	8.2834e-07	3.5409e-06	1078.6	210.55	2.4571e-06	3.8323e-06	264.78	75.926	60.067	17.19	3.6498e-06	24.101	0.00042781	0.00051511	0.00014846	1004.2	5.6588e-06	6.0093e-06	1065.6	209.46	5.4442e-06	5.7089e-06	264.24	76.168	60.403	17.461	5.5883e-06	24.636	266.791	263.975	277.247	184.514	295.335	390.816	184.557	191.383	323.644	352.692	191.244	197.687	198.133	205.109	326.079	204.759	-8191	255	
16362.933	1	1	0	0	0.14315	0.14396	0.067713	0.11603	0.17694	0.033403	0.26496	0.12755	0.12562	0.12171	0.11801	0.18255	0.17544	0.18914	0.12513	0.21608	-2.1583	-2.5	-2.1813	-2.6208	-2.4646	-2.5292	-2.7208	-2.2271	-2.5396	-2.6208	-2.3833	-2.8417	-2.4375	-2.3979	-2.8333	-2.325	252.116	212.811	484.928	528.207	186.993	254.979	442.516	258.522	301.878	241.946	183.001	357.735	209.061	339.039	437.039	418.839	0.00022363	0.00041397	7.021e-05	1016.3	2.1356e-06	2.5252e-06	1078.8	211.44	3.017e-06	1.5654e-06	265.48	75.918	60.178	17.224	2.6393e-06	24.299	0.00041558	0.00051501	0.00014662	1002.9	5.5316e-06	5.8864e-06	1065	209.68	5.4295e-06	5.5891e-06	264.31	76.205	60.286	17.447	5.4774e-06	24.659	262.387	235.485	252.907	184.452	314.618	348.692	184.417	191.562	324.904	353.912	191.072	197.484	197.963	205.383	314.468	204.644	-8191	255	
16363.029	1	1	0	0	0.13999	0.072219	0.17568	0.11873	0.12155	0.26728	0.13255	0.23826	0.052053	0.10798	0.23214	0.21767	0.29107	0.11682	0.081193	0.22128	-2.1292	-2.4604	-2.275	-2.6917	-2.5271	-2.3688	-2.6979	-2.4458	-2.5146	-2.5479	-2.2625	-2.6146	-2.3854	-2.4708	-2.6771	-2.3958	510.862	422.100	450.394	182.161	241.178	340.312	516.057	183.258	474.080	187.496	402.584	436.521	501.127	380.362	494.067	459.922	0.00023047	0.00036954	8.4868e-05	1014.5	2.3501e-06	1.8583e-06	1079.9	210.75	2.6177e-06	4.5415e-06	264.92	75.52	60.549	17.139	3.2091e-06	24.186	0.00042889	0.00051475	0.00014726	1002	5.541e-06	5.7704e-06	1064.4	209.56	5.524e-06	5.922e-06	263.66	76.069	60.427	17.448	5.5567e-06	24.657	265.814	264.707	291.238	184.599	245.256	344.758	184.548	191.684	283.034	326.389	191.389	197.680	197.723	205.080	346.528	204.661	-8191	255	
16363.100	1	1	0	0	0.14642	0.17863	0.28061	0.14463	0.027134	0.15912	0.27896	0.26354	0.28353	0.21177	0.15599	0.07082	0.17455	0.20542	0.19149	0.3018	-1.975	-2.6521	-2.4542	-2.6979	-2.4167	-2.1146	-2.6917	-2.35	-2.3208	-2.8688	-2.2812	-2.7333	-2.5958	-2.2354	-2.6188	-2.3542	527.378	213.952	451.793	443.311	195.447	492.048	464.959	459.080	322.518	468.250	177.154	448.549	194.293	498.801	348.832	380.467	0.00021677	0.00026563	3.4817e-05	1016.9	3.9901e-06	4.1074e-06	1071.8	211.02	8.8401e-07	3.2922e-06	263.27	75.766	59.895	17.061	3.2737e-06	24.256	0.00042173	0.00052441	0.00014769	1004.5	5.7121e-06	6.0707e-06	1063.7	209.8	5.5369e-06	5.9264e-06	263.52	76.294	60.382	17.416	5.4221e-06	24.646	267.262	208.935	268.116	184.542	324.666	352.677	184.529	191.431	347.331	323.505	191.348	197.595	198.579	205.400	362.499	204.890	-8191	255	
16363.219	1	1	0	0	0.12406	0.050504	0.15421	0.091663	0.11761	0.23512	0.096675	0.069685	0.072341	0.041922	0.15453	0.070612	0.17844	0.075242	0.22405	0.069849	-1.8896	-2.6958	-2.4292	-2.4833	-2.6229	-2.2583	-2.7146	-2.6042	-2.2417	-2.7146	-2.2458	-2.2854	-2.5833	-2.2479	-2.6958	-2.5396	443.137	285.962	437.872	428.392	320.309	264.843	436.753	254.363	337.600	394.495	527.072	410.529	446.944	359.892	269.526	441.758	0.0002378	0.00027911	3.3052e-05	1017	4.3379e-06	3.6306e-06	1077.4	211.03	2.548e-06	4.4269e-06	263.5	75.324	59.889	17.126	6.6727e-06	24.187	0.00042822	0.00052339	0.00014662	1001.3	5.6262e-06	5.6231e-06	1065.1	209.5	5.4955e-06	5.6357e-06	263.44	76.124	60.247	17.458	5.4924e-06	24.609	261.280	270.993	220.764	184.432	293.442	386.311	184.594	191.569	290.186	333.714	190.921	197.672	197.940	205.321	319.637	204.582	-8191	255	
16363.315	1	1	0	0	0.35647	0.28465	0.20109	0.31688	0.18141	0.057799	0.069929	0.10263	0.26114	0.17075	0.11287	0.032226	0.12777	0.20097	0.23985	0.12624	-1.8396	-2.6688	-2.2979	-2.625	-2.9333	-2.3042	-2.8688	-2.5125	-2.2417	-2.8021	-2.4458	-2.5438	-2.6479	-2.2104	-2.7313	-2.5208	325.887	456.205	184.350	192.251	353.265	487.662	409.043	252.972	184.377	199.524	313.460	235.260	366.894	389.351	448.207	473.909	0.00024111	0.00015696	5.4617e-05	1015.7	3.6269e-06	2.9491e-06	1081.2	210.3	3.1909e-06	1.6925e-06	264.39	75.681	59.564	17.161	3.8833e-06	24.261	0.00042392	0.00052097	0.00013804	1003.6	5.5649e-06	5.9049e-06	1064.2	209.84	5.5955e-06	5.5625e-06	263.7	76.088	60.304	17.398	5.6605e-06	24.689	258.886	289.697	282.744	184.320	321.473	288.451	184.508	191.901	281.001	294.400	191.228	197.874	198.310	205.374	308.370	204.742	-8191	255	
16363.412	1	1	0	0	0.1981	0.15424	0.15125	0.13796	0.076065	0.23303	0.054773	0.026713	0.18263	0.17465	0.30963	0.21596	0.10669	0.15002	0.18219	0.13186	-1.7271	-2.6	-2.3729	-2.4833	-2.7146	-2.4146	-2.7062	-2.6917	-2.1688	-2.7917	-2.4833	-2.4688	-2.6042	-2.4896	-2.3875	-2.5812	224.447	451.044	417.892	510.388	261.896	252.912	525.296	356.577	293.009	448.412	371.243	447.385	508.776	225.569	453.159	338.272	0.00025058	0.00041721	0.00012496	1015.7	3.2537e-06	3.718e-06	1076.8	211.04	2.2417e-06	3.8437e-06	265.13	75.753	59.331	17.183	2.6209e-06	24.377	0.00042593	0.00053218	0.00014472	1004.6	5.5765e-06	5.9788e-06	1066.1	209.7	5.7124e-06	5.7624e-06	263.85	76.276	60.189	17.427	5.8768e-06	24.712	260.124	290.802	300.073	184.458	333.463	376.611	184.508	191.386	270.467	344.703	191.281	198.166	198.455	204.937	330.708	204.524	-8191	255	
16363.508	1	1	0	0	0.18535	0.17458	0.060208	0.16369	0.33459	0.17323	0.15356	0.32802	0.076733	0.17189	0.12604	0.019798	0.28628	0.14088	0.51789	0.3671	-1.7875	-2.7042	-2.3438	-2.3625	-2.5792	-2.5125	-2.6042	-2.7042	-2.1708	-2.6104	-2.5375	-2.2771	-2.6229	-2.4125	-2.6167	-2.7104	416.730	280.142	356.323	174.308	342.943	383.007	451.164	493.282	463.245	503.076	200.916	254.785	226.989	219.878	341.370	485.032	0.00025703	0.0002551	1.7854e-05	1016.6	3.5457e-06	1.1299e-06	1076.1	210.14	3.9459e-06	2.6697e-06	265.99	75.84	60.19	17.163	2.6504e-06	24.277	0.00044992	0.00052799	0.00015	1004.9	5.6316e-06	5.8957e-06	1065.2	209.36	5.9087e-06	6.0016e-06	264.87	76.206	60.55	17.434	5.7218e-06	24.709	260.054	254.498	308.301	184.508	300.169	305.954	184.478	192.021	338.854	324.787	191.273	197.903	197.712	205.503	342.561	205.086	-8191	255	
16363.604	1	1	0	0	0.18023	0.087278	0.21808	0.24829	0.21872	0.32539	0.25762	0.21021	0.20119	0.040106	0.23534	0.17523	0.26142	0.23035	0.19029	0.24659	-1.7896	-2.4458	-2.5458	-2.4646	-2.6896	-2.4	-2.5521	-2.775	-2.1625	-2.5542	-2.6875	-2.2583	-2.6333	-2.3479	-2.3375	-2.7521	452.696	465.274	349.117	486.742	262.039	200.975	519.937	384.598	182.431	476.806	501.496	413.685	488.869	251.500	182.614	399.595	0.00023955	0.00042658	5.4691e-05	1015.1	5.0603e-06	1.3129e-06	1078.4	210.92	1.9302e-06	2.7105e-06	264.78	75.911	60.317	17.348	8.5559e-07	24.004	0.00044117	0.00052907	0.00015345	1004.2	5.852e-06	6.3613e-06	1066.1	209.85	5.9003e-06	6.0008e-06	264.34	76.254	60.325	17.439	5.7621e-06	24.652	264.259	278.080	287.197	184.226	315.464	377.664	184.345	191.681	312.898	344.361	191.223	197.912	198.156	205.738	295.149	204.780	-8191	255	
16363.700	1	1	0	0	0.064667	0.16486	0.20984	0.39085	0.044445	0.1127	0.40692	0.12024	0.16574	0.11052	0.19784	0.3812	0.014054	0.10724	0.33727	0.1171	-1.8583	-2.6646	-2.4354	-2.1375	-2.6583	-2.4479	-2.3208	-2.7833	-2.325	-2.5896	-2.7938	-2.5	-2.4625	-2.4958	-2.5438	-2.7562	320.342	201.819	401.165	475.251	499.377	446.357	449.644	432.110	321.510	329.422	190.771	416.823	394.749	460.316	351.357	518.533	0.00022773	0.00044119	8.7286e-05	1017.9	5.1184e-06	3.9056e-06	1078.3	210.91	3.574e-06	1.519e-06	265.52	75.936	60.103	17.204	2.8518e-06	24.096	0.00044468	0.00056017	0.00015651	1004.3	5.8103e-06	6.2281e-06	1066.9	209.63	5.7325e-06	6.1846e-06	263.97	76.236	60.462	17.464	5.9753e-06	24.623	266.138	271.108	277.236	184.515	343.583	321.301	184.456	191.534	316.797	318.685	191.313	197.999	198.088	205.522	321.342	204.736	-8191	255	
16363.796	1	1	0	0	0.23838	0.20313	0.16698	0.2392	0.22529	0.24285	0.050945	0.14634	0.20885	0.1594	0.20861	0.18699	0.27353	0.076976	0.28465	0.15799	-1.7917	-2.3896	-2.6333	-2.3125	-2.4208	-2.4417	-2.4854	-2.8125	-2.4583	-2.5	-2.6729	-2.4188	-2.6021	-2.4062	-2.2833	-2.7167	282.324	341.165	194.259	504.501	269.284	425.239	250.995	422.488	249.542	311.428	380.586	185.028	411.528	494.746	207.847	322.753	0.00023218	0.00046251	0.00010208	1016.4	1.6663e-06	4.4299e-06	1084.2	209.88	2.8234e-06	3.5099e-06	265.75	75.555	59.93	17.114	2.9348e-06	24.179	0.00042842	0.00056642	0.0001553	1005.2	5.8853e-06	6.0883e-06	1068	209.67	5.8032e-06	6.1094e-06	264.11	76.374	60.356	17.427	5.9839e-06	24.653	259.450	255.553	276.312	184.164	293.594	325.964	184.325	191.559	395.520	337.291	191.109	198.058	198.003	205.605	358.738	205.220	-8191	255	
16363.917	1	1	0	0	0.13424	0.16938	0.19723	0.19295	0.021363	0.23371	0.020435	0.19587	0.16383	0.035579	0.21832	0.11573	0.32236	0.055553	0.039007	0.20101	-1.8979	-2.35	-2.6562	-2.45	-2.3979	-2.5667	-2.3646	-2.7646	-2.6792	-2.3729	-2.6979	-2.1958	-2.5062	-2.6813	-2.2167	-2.7125	505.188	491.224	512.724	471.517	482.369	531.390	411.580	320.878	463.067	527.036	295.601	468.298	454.883	422.208	378.809	274.295	0.00021923	0.00029764	7.4319e-05	1017.9	3.8203e-06	3.1765e-06	1077.5	211.65	4.299e-06	4.7755e-06	263.76	75.8	59.737	17.247	4.3202e-06	24.043	0.00044397	0.00054372	0.00015713	1004.4	5.9339e-06	5.9446e-06	1066	210.22	6.1421e-06	6.2622e-06	263.47	76.303	60.417	17.467	5.9809e-06	24.672	254.125	213.124	277.070	184.491	305.318	268.472	184.577	191.716	306.804	348.602	191.173	197.936	197.988	205.240	317.337	205.018	-8191	255	
16364.013	1	1	0	0	0.083664	0.17096	0.12981	0.30683	0.20335	0.25662	0.36049	0.10383	0.20543	0.072482	0.17461	0.12402	0.16975	0.21812	0.25356	0.10929	-1.975	-2.2146	-2.6417	-2.3937	-2.4375	-2.6125	-2.4479	-2.6979	-2.55	-2.2583	-2.7021	-2.5625	-2.4688	-2.7188	-2.3042	-2.6021	319.112	254.022	188.042	415.772	367.797	332.764	482.332	461.024	273.591	410.151	513.959	191.738	390.949	451.495	438.453	284.848	0.00020614	0.00023331	7.3968e-05	1020.4	2.1944e-06	2.4436e-06	1081	210.46	2.9584e-06	2.985e-06	264.06	75.73	59.989	17.222	3.3509e-06	24.247	0.00043987	0.0005427	0.0001544	1006.8	5.8263e-06	6.0839e-06	1065.6	210.01	5.7431e-06	6.0036e-06	264.16	76.343	60.458	17.488	5.8358e-06	24.668	266.044	209.429	320.679	184.320	303.115	341.002	184.492	191.676	335.261	308.546	191.112	197.940	198.183	205.368	319.414	204.631	-8191	255	
16364.109	1	1	0	0	0.012444	0.17207	0.16379	0.2382	0.076247	0.14133	0.046611	0.04207	0.13845	0.21423	0.098255	0.21334	0.14693	0.23544	0.25642	0.10718	-2.1729	-2.125	-2.7208	-2.5062	-2.5708	-2.8854	-2.4604	-2.3937	-2.6125	-2.3604	-2.8896	-2.4313	-2.4958	-2.8438	-2.3771	-2.7375	277.321	390.643	494.683	439.624	423.374	444.624	424.565	269.314	224.145	384.967	450.563	486.379	459.793	297.527	490.021	244.148	0.00023239	0.00036487	4.5183e-05	1018.5	2.0635e-06	2.2257e-06	1080.3	211.42	3.3996e-06	3.5225e-06	264.25	75.944	60.252	17.163	1.1301e-06	24.026	0.00044853	0.00055319	0.00015464	1004	6.039e-06	6.1939e-06	1066.2	210.4	5.9813e-06	6.2171e-06	264.32	76.187	60.521	17.443	5.9576e-06	24.58	253.811	246.907	313.412	184.481	395.085	357.176	184.546	191.609	339.190	287.002	191.285	197.768	198.050	205.263	374.145	204.674	-8191	255	
16364.205	1	1	0	0	0.29383	0.19185	0.17381	0.31843	0.22967	0.11427	0.039676	0.1088	0.21311	0.26496	0.21912	0.1146	0.086813	0.29919	0.16386	0.26742	-2.1792	-2.2354	-2.675	-2.6104	-2.3104	-2.8104	-2.2542	-2.4604	-2.6833	-2.3312	-2.7188	-2.6167	-2.5563	-2.7042	-2.3833	-2.4	247.367	373.851	483.050	435.925	203.223	229.465	259.562	189.032	216.396	182.494	398.238	189.274	295.112	215.467	466.123	528.755	0.0002646	0.00035327	7.0441e-05	1018.9	2.5616e-06	2.2007e-06	1079.6	211.35	1.0727e-06	3.9647e-06	263.39	75.94	60.093	17.175	1.6837e-06	24.251	0.00044741	0.00055279	0.00015686	1004.3	6.1365e-06	6.3348e-06	1067.4	209.96	6.0982e-06	6.0728e-06	264.01	76.492	60.503	17.501	6.0878e-06	24.697	262.290	259.623	261.367	184.542	326.014	299.872	184.297	191.546	281.928	334.866	191.417	197.716	198.529	205.546	374.334	204.451	-8191	255	
16364.324	1	1	0	0	0.25106	0.13159	0.17347	0.36504	0.10148	0.28842	0.24962	0.10064	0.057576	0.1761	0.23002	0.15121	0.28307	0.10583	0.085238	0.092098	-2.2667	-2.2771	-2.4813	-2.5896	-2.2438	-2.6146	-2.6312	-2.5958	-2.7646	-2.6	-2.6896	-2.6688	-2.3063	-2.7854	-2.4646	-2.5563	532.110	289.997	441.879	503.382	507.510	529.859	423.820	207.380	531.375	222.498	447.211	446.983	367.515	180.881	191.197	531.280	0.00023384	0.000153	2.781e-05	1020.2	3.2222e-06	3.937e-06	1079.8	211.63	3.3564e-06	3.5882e-06	263.75	75.659	60.114	17.083	2.8838e-06	24.314	0.00044701	0.00057167	0.00014826	1008.2	5.9085e-06	6.0113e-06	1066.6	210.25	5.8706e-06	6.2758e-06	264.13	76.235	60.494	17.424	6.0941e-06	24.72	264.173	275.531	254.595	184.345	352.206	319.613	184.451	191.531	320.787	347.469	191.368	198.065	198.399	205.032	347.817	204.818	-8191	255	
16364.396	1	1	0	0	0.11295	0.11441	0.084368	0.21673	0.18266	0.063208	0.0065359	0.14091	0.19374	0.26156	0.084942	0.044771	0.097318	0.26033	0.043025	0.14596	-2.3521	-2.2333	-2.3979	-2.6792	-2.3354	-2.7438	-2.4854	-2.3167	-2.5896	-2.4	-2.6	-2.7208	-2.3708	-2.5687	-2.5146	-2.2875	407.997	422.340	203.571	385.170	382.866	488.100	496.559	227.755	495.502	350.416	329.683	266.177	506.680	533.815	187.663	514.423	0.00022409	0.00028001	0.00010711	1020.5	1.8988e-06	3.5203e-06	1080.8	210.51	4.0254e-06	2.4928e-06	264.16	76.047	60.233	17.224	3.3631e-06	24.176	0.00044947	0.00057101	0.00015843	1006.4	5.9995e-06	6.039e-06	1068.2	209.71	5.7703e-06	6.1886e-06	264.16	76.25	60.599	17.404	6.2002e-06	24.65	269.226	262.789	268.132	184.300	313.348	318.517	184.613	191.851	332.022	354.369	191.286	198.023	198.200	205.641	349.839	204.425	-8191	255	
16364.516	1	1	0	0	0.31875	0.25282	0.059655	0.31078	0.2004	0.27266	0.025712	0.060807	0.16609	0.078459	0.1803	0.1258	0.090666	0.068351	0.10276	0.045943	-2.2146	-2.2625	-2.5229	-2.7583	-2.3833	-2.4667	-2.625	-2.5083	-2.7229	-2.4896	-2.6583	-2.5042	-2.3729	-2.5458	-2.5438	-2.3833	495.197	417.346	321.277	496.575	529.908	350.818	313.422	310.529	273.590	480.088	177.805	399.877	434.834	233.899	379.695	306.750	0.00023484	0.00019366	7.8935e-05	1021.7	3.8153e-06	1.5253e-06	1080.7	211.51	3.7519e-06	5.1657e-06	266.29	76.304	60.241	17.241	9.0908e-07	24.236	0.00044249	0.00057217	0.0001562	1007.3	6.0785e-06	6.1779e-06	1067.1	210.46	6.0095e-06	6.3643e-06	264.56	76.387	60.482	17.513	6.3687e-06	24.675	265.465	262.233	256.436	184.311	316.126	402.308	184.523	191.554	327.593	342.371	191.262	197.937	198.329	205.663	322.389	204.624	-8191	255	
16364.613	1	1	0	0	0.14839	0.16688	0.16407	0.25045	0.27515	0.22474	0.30071	0.23952	0.089323	0.22296	0.2471	0.13458	0.12704	0.093841	0.23536	0.1314	-2.2062	-2.4229	-2.3896	-2.8583	-2.4	-2.4292	-2.6083	-2.2646	-2.6479	-2.3542	-2.2708	-2.6875	-2.2687	-2.4396	-2.7646	-2.3333	418.959	484.973	369.509	528.669	214.938	508.723	192.141	491.773	463.848	462.752	476.333	471.944	516.775	475.558	376.390	479.297	0.00025238	0.00047584	0.00011563	1019.9	1.2255e-06	1.8112e-06	1084	210.85	2.9155e-06	9.03e-07	265.51	75.966	60.036	17.094	2.1143e-06	24.3	0.00044206	0.00054809	0.00015756	1006.7	6.238e-06	6.0707e-06	1067.3	210.01	5.7996e-06	6.38e-06	264.47	76.352	60.466	17.407	6.2378e-06	24.689	257.084	271.876	298.467	184.533	334.643	355.376	184.314	191.434	316.066	353.556	191.273	197.744	197.839	205.116	306.999	204.396	-8191	255	
16364.709	1	1	0	0	0.17611	0.045939	0.091541	0.10043	0.18843	0.13907	0.38286	0.057635	0.092142	0.10584	0.19222	0.12045	0.31788	0.083351	0.23467	0.18495	-2.2396	-2.4771	-2.3479	-2.95	-2.4146	-2.6479	-2.7729	-2.4833	-2.5438	-2.4667	-2.4792	-2.8688	-2.3438	-2.2104	-2.6792	-2.25	506.520	396.736	483.239	519.167	190.232	203.688	484.830	515.149	369.860	287.466	523.239	520.669	500.273	468.345	174.217	326.558	0.00023478	0.00025848	3.6807e-05	1017.2	4.9218e-06	1.9057e-06	1076.3	211.04	3.7335e-06	1.636e-06	264.84	75.764	60.183	17.312	2.7467e-06	24.136	0.00045077	0.00057369	0.00015396	1006.6	6.0571e-06	6.2104e-06	1067.4	209.99	6.1436e-06	6.2895e-06	264.31	76.186	60.502	17.481	6.1453e-06	24.654	265.668	248.240	293.086	184.438	325.153	398.888	184.525	191.718	323.753	266.149	191.337	197.763	198.228	205.563	369.985	204.914	-8191	255	
16364.805	1	1	0	0	0.1552	0.22116	0.23977	0.041874	0.075482	0.20971	0.14322	0.28136	0.42944	0.20505	0.02655	0.17896	0.0065946	0.31928	0.18073	0.15715	-2.2417	-2.4375	-2.4042	-2.7313	-2.3312	-2.5208	-2.8812	-2.3021	-2.5146	-2.6625	-2.3812	-2.6125	-2.4271	-2.5292	-2.9146	-2.1875	371.048	299.128	212.795	461.140	346.539	365.278	428.681	403.795	245.477	501.401	240.870	388.341	190.993	234.397	350.878	489.915	0.00022021	0.00023108	7.3402e-05	1017.8	1.5812e-06	4.5337e-06	1078.5	211.64	4.6935e-06	4.1855e-06	262.95	76.331	60.22	17.384	1.9547e-06	24.37	0.0004577	0.00056819	0.00015662	1006	6.0039e-06	6.2124e-06	1068.2	210.47	5.8322e-06	6.4447e-06	264.17	76.408	60.444	17.504	5.7399e-06	24.735	267.907	229.409	281.668	184.355	342.087	328.793	184.628	191.478	286.589	353.496	191.559	197.695	198.259	205.385	341.443	204.840	-8191	255	
16364.901	1	1	0	0	0.18023	0.23579	0.11974	0.38363	0.076608	0.044352	0.232	0.21585	0.26257	0.09888	0.12186	0.25102	0.16235	0.076904	0.22131	0.11503	-2.1292	-2.5542	-2.2812	-2.6937	-2.4833	-2.4375	-2.7021	-2.4479	-2.5625	-2.5521	-2.3354	-2.6312	-2.3917	-2.4125	-2.3875	-2.3417	405.772	261.635	476.547	487.826	375.872	242.181	380.407	482.331	238.412	379.504	409.247	355.069	440.505	243.960	472.439	396.719	0.00022889	0.00020312	7.2389e-05	1022.8	2.3177e-06	2.8308e-06	1082.6	211.5	2.6652e-06	2.0983e-06	266.73	75.564	59.656	17.307	1.3428e-06	24.165	0.00043077	0.00058768	0.00016337	1007.1	6.0086e-06	6.2429e-06	1068.5	210.27	5.9553e-06	6.2614e-06	265.08	76.269	60.502	17.487	5.9268e-06	24.654	264.382	277.482	241.577	184.579	349.865	350.024	184.381	191.693	278.116	250.452	191.109	197.928	198.341	205.653	303.980	204.585	-8191	255	
16364.997	1	1	0	0	0.11087	0.1066	0.19165	0.18928	0.067591	0.13932	0.18247	0.069559	0.22422	0.15835	0.21501	0.24873	0.033785	0.23476	0.23757	0.24058	-2.3167	-2.6854	-2.2375	-2.8563	-2.5667	-2.3854	-2.6521	-2.4708	-2.4729	-2.5417	-2.2833	-2.6688	-2.3896	-2.3104	-2.6167	-2.4833	212.528	219.680	464.293	521.730	518.891	514.648	496.401	521.579	229.936	219.319	518.207	479.361	310.334	472.275	269.262	452.206	0.00026912	0.0001512	9.9451e-05	1020.8	4.2149e-06	2.0391e-06	1078.1	211.88	2.6865e-06	2.2719e-06	266.38	75.732	60.199	17.42	3.5995e-06	24.096	0.00045184	0.00056129	0.00016135	1007.3	6.1891e-06	6.3862e-06	1067	210.55	5.963e-06	6.1994e-06	264.66	76.43	60.578	17.533	6.0535e-06	24.656	266.821	239.737	279.151	184.259	321.941	295.421	184.599	191.579	292.614	320.212	191.558	198.045	198.248	205.711	330.765	204.576	-8191	255	
16365.093	1	1	0	0	0.11654	0.1455	0.18872	0.084481	0.034107	0.28723	0.051261	0.19862	0.35503	0.074888	0.078979	0.13561	0.17099	0.162	0.02658	0.044589	-2.0062	-2.6229	-2.4792	-2.7458	-2.5729	-2.3208	-2.8187	-2.5167	-2.4104	-2.525	-2.1667	-2.6354	-2.575	-2.1292	-2.6875	-2.375	319.828	203.949	306.789	174.139	229.692	438.274	445.202	505.685	386.513	213.895	287.799	209.713	450.293	325.411	444.992	191.842	0.00020927	0.00028082	4.9957e-05	1020.2	2.5399e-06	2.431e-06	1080.6	210.92	2.0149e-06	3.3932e-06	264.4	75.997	60.281	17.253	3.7392e-06	24.174	0.00045457	0.00057506	0.00015902	1007.9	6.2358e-06	6.2574e-06	1067.9	210.23	6.17e-06	6.2409e-06	264.56	76.391	60.595	17.432	6.0791e-06	24.69	264.525	249.741	272.833	184.546	340.580	397.571	184.650	191.620	340.815	343.334	191.018	197.503	197.964	205.262	367.197	204.965	-8191	255	
16365.190	1	1	0	0	0.23612	0.088664	0.11881	0.26299	0.13161	0.16997	0.061253	0.35367	0.14939	0.051683	0.14917	0.30614	0.10351	0.037739	0.31139	0.15501	-1.8625	-2.5417	-2.3333	-2.5062	-2.6437	-2.2146	-2.8	-2.6625	-2.2521	-2.6292	-2.3438	-2.5396	-2.6021	-2.3729	-2.5125	-2.525	326.769	197.877	277.024	447.580	463.410	224.282	386.037	516.493	262.183	471.998	437.111	457.279	320.631	244.940	224.706	452.370	0.00021604	0.00024419	6.9936e-05	1024.3	4.6565e-06	3.8132e-06	1078.5	211.37	1.6576e-06	1.2007e-06	265.65	76.063	60.074	17.143	2.298e-06	24.4	0.00044907	0.00055221	0.00015886	1009.1	6.1278e-06	6.1606e-06	1067.2	210.5	6.022e-06	6.3374e-06	264.83	76.187	60.513	17.508	5.9219e-06	24.698	256.263	290.901	247.637	184.419	308.612	362.173	184.677	191.893	275.072	307.728	191.099	197.993	197.976	205.346	291.815	204.963	-8191	255	
16365.286	1	1	0	0	0.31889	0.22331	0.22446	0.35845	0.25929	0.047063	0.41814	0.38071	0.14844	0.10313	0.076651	0.17535	0.12729	0.17476	0.16892	0.25905	-1.825	-2.5563	-2.3833	-2.6667	-2.5896	-2.3958	-2.8396	-2.5812	-2.2271	-2.6667	-2.4604	-2.425	-2.625	-2.3167	-2.5583	-2.5812	399.221	444.547	367.451	212.665	458.954	317.377	437.900	507.440	186.008	382.191	193.661	182.785	407.276	206.382	318.213	287.796	0.00021686	0.00036523	8.4074e-05	1021.6	2.0424e-06	4.044e-06	1081.3	210.28	2.0673e-06	1.2129e-06	265.26	75.683	59.832	17.184	3.5784e-06	24.26	0.00045504	0.00055051	0.00016386	1007.7	6.1394e-06	6.2831e-06	1068	209.95	6.0297e-06	6.0579e-06	264.29	76.308	60.392	17.459	6.125e-06	24.688	260.370	259.476	311.008	184.635	317.218	371.642	184.355	191.755	369.103	352.247	191.334	198.137	198.048	204.858	347.108	204.899	-8191	255	
16365.405	1	1	0	0	0.31216	0.16552	0.18338	0.22491	0.07532	0.26568	0.14393	0.39236	0.25674	0.15029	0.084477	0.40476	0.13963	0.1277	0.2207	0.10612	-1.7583	-2.7229	-2.4646	-2.3937	-2.7833	-2.4479	-2.8	-2.6583	-2.2521	-2.6833	-2.4854	-2.4562	-2.6437	-2.2917	-2.4604	-2.5292	293.724	442.775	190.295	413.811	381.901	420.760	513.032	496.237	407.542	440.295	194.228	431.559	418.570	452.822	386.466	282.883	0.00022332	0.00027953	0.00011086	1020.2	3.3697e-06	1.8954e-06	1081.4	210.28	2.1271e-06	3.1165e-06	266.36	75.991	60.078	17.148	3.0417e-06	24.383	0.00044725	0.00056827	0.00015998	1007.6	6.0328e-06	6.1971e-06	1067.3	210.12	6.1799e-06	6.3965e-06	264.82	76.59	60.464	17.446	5.8501e-06	24.699	266.287	239.261	248.613	184.347	305.753	329.885	184.438	191.721	345.568	328.597	191.615	197.607	198.400	205.261	312.526	204.650	-8191	255	
16365.501	1	1	0	0	0.14666	0.15016	0.06388	0.057266	0.14021	0.17103	0.2478	0.33923	0.15594	0.10324	0.27497	0.052356	0.24397	0.13399	0.05495	0.19996	-1.7583	-2.7562	-2.3625	-2.4125	-2.7562	-2.4167	-2.5812	-2.8917	-2.2917	-2.7354	-2.5563	-2.4271	-2.6708	-2.2958	-2.3708	-2.7229	300.524	467.890	476.957	424.643	265.597	242.747	410.976	430.303	370.926	482.525	184.446	371.762	435.948	396.201	507.519	502.549	0.00023146	0.00023469	7.2121e-05	1016.8	1.788e-06	2.1251e-06	1078.9	211.76	3.525e-06	2.6502e-06	264.91	75.72	60.225	17.249	2.2084e-06	24.254	0.0004349	0.00055178	0.00015302	1006.1	5.9792e-06	6.3095e-06	1068.8	210.43	5.9095e-06	6.1866e-06	264.55	76.271	60.482	17.53	5.9155e-06	24.677	263.253	219.175	281.113	184.542	263.157	399.286	184.344	191.841	366.138	335.191	191.297	198.077	198.624	205.655	385.448	205.233	-8191	255	
16365.597	1	1	0	0	0.16283	0.27104	0.3066	0.18312	0.17156	0.26861	0.22306	0.11969	0.11454	0.15465	0.25515	0.15626	0.03584	0.36254	0.27165	0.1858	-1.8479	-2.6188	-2.6875	-2.3312	-2.6521	-2.3583	-2.5042	-2.7208	-2.3208	-2.4938	-2.4708	-2.2625	-2.6083	-2.4854	-2.4271	-2.9479	484.535	430.682	208.704	249.257	298.291	531.050	498.617	299.723	447.901	352.458	467.317	509.833	396.236	184.985	516.480	181.080	0.00022625	0.00022444	3.7498e-05	1024.8	3.0717e-06	4.3216e-06	1077.6	211.26	2.7241e-06	4.3874e-06	265.04	75.934	59.99	17.288	3.6707e-06	24.189	0.00043971	0.00055402	0.00015479	1007.6	5.9437e-06	6.2859e-06	1067.2	210.23	5.9861e-06	6.2413e-06	264.8	76.457	60.547	17.487	5.973e-06	24.685	267.295	242.951	308.726	184.506	289.062	327.470	184.425	191.660	307.827	368.960	190.735	197.636	198.086	205.455	339.452	204.535	-8191	255	
16365.693	1	1	0	0	0.15776	0.044039	0.1867	0.075135	0.15702	0.094624	0.26145	0.28334	0.13937	0.10048	0.18524	0.034792	0.14891	0.055094	0.12394	0.081027	-2.0021	-2.5375	-2.5687	-2.4604	-2.5979	-2.5979	-2.3667	-2.6771	-2.3167	-2.5354	-2.7104	-2.2354	-2.4833	-2.5708	-2.2	-2.6417	488.946	432.689	508.859	457.716	306.182	307.922	179.688	494.080	526.991	511.115	520.264	473.116	191.149	440.214	198.438	406.235	0.0002339	0.00019277	6.3043e-05	1022.3	8.8619e-07	2.227e-06	1081.7	211.7	2.7349e-06	4.5992e-06	264.46	75.44	60.395	17.145	3.2593e-06	24.198	0.00044817	0.00054328	0.00015882	1006.8	6.0905e-06	6.4356e-06	1068.6	210.44	5.9853e-06	6.2646e-06	263.86	76.268	60.692	17.464	6.0201e-06	24.672	266.161	259.791	279.139	184.473	370.539	321.762	184.287	191.838	350.066	385.844	191.380	198.107	198.215	205.396	358.260	204.794	-8191	255	
16365.789	1	1	0	0	0.14122	0.084067	0.22855	0.36017	0.078832	0.17458	0.26208	0.13722	0.27229	0.058078	0.1914	0.37182	0.091857	0.1426	0.13592	0.078443	-1.8687	-2.4813	-2.525	-2.3229	-2.6396	-2.5563	-2.4708	-2.675	-2.3917	-2.4104	-2.8292	-2.5292	-2.6792	-2.6667	-2.2938	-2.5375	270.760	373.274	520.385	508.006	527.268	499.879	333.074	196.428	340.577	518.309	486.241	437.687	389.405	361.199	344.680	387.837	0.00023025	0.00040817	8.8635e-05	1018.2	3.4184e-06	5.6593e-06	1079.5	210.83	3.5033e-06	9.2497e-07	265.57	75.93	60.382	17.058	4.1842e-06	24.247	0.00044875	0.00057326	0.00015677	1005.1	6.014e-06	6.2513e-06	1067.8	210.41	6.0799e-06	6.2207e-06	264.52	76.29	60.594	17.496	6.0926e-06	24.721	258.094	282.177	264.688	184.363	312.463	339.572	184.577	191.868	321.521	211.987	191.424	197.396	198.266	205.490	341.577	204.516	-8191	255	
16365.885	1	1	0	0	0.12269	0.12985	0.21746	0.30837	0.12059	0.20267	0.1042	0.11017	0.13852	0.076581	0.13547	0.16217	0.12283	0.037017	0.15202	0.20655	-1.8833	-2.45	-2.4688	-2.3688	-2.3937	-2.5979	-2.5938	-2.5729	-2.4188	-2.3354	-2.7625	-2.3979	-2.575	-2.6813	-2.3812	-2.7896	248.120	508.678	496.885	194.820	459.427	448.103	434.401	365.508	481.982	301.951	430.559	508.512	254.205	490.435	311.339	481.536	0.00020178	0.00039885	0.00010513	1015.9	4.9068e-06	3.3316e-06	1084.5	211.09	1.7651e-06	1.0709e-06	265.65	76.043	59.948	17.165	5.1247e-06	24.418	0.00045274	0.00055605	0.00015625	1006	6.1155e-06	6.432e-06	1069	209.97	6.093e-06	6.3816e-06	264.79	76.538	60.147	17.451	6.0483e-06	24.687	272.494	289.759	282.103	184.508	326.315	351.380	184.666	191.896	346.310	341.035	191.202	198.166	198.484	205.264	349.493	204.900	-8191	255	
16366.006	1	1	0	0	0.14428	0.072304	0.059394	0.17162	0.2064	0.12341	0.13698	0.2248	0.19085	0.23511	0.12847	0.21504	0.042534	0.0962	0.12829	0.19907	-2.2917	-2.2313	-2.7188	-2.5979	-2.4083	-2.675	-2.3917	-2.75	-2.55	-2.475	-2.8083	-2.6417	-2.5312	-2.7646	-2.3875	-2.6583	247.175	315.460	263.863	485.853	463.620	457.645	500.744	178.165	426.256	271.194	351.119	526.782	458.816	393.659	255.328	376.077	0.00020704	0.00026142	0.00010581	1016.4	4.3677e-06	3.4017e-06	1082.7	211.13	2.8835e-06	7.0435e-06	263.32	75.767	60.311	17.129	1.3466e-06	24.065	0.00045108	0.00054643	0.00015636	1005.9	5.9875e-06	6.2586e-06	1068.4	210.02	5.6376e-06	6.1677e-06	264.08	76.311	60.54	17.43	6.0516e-06	24.675	261.549	233.288	276.985	184.360	318.519	378.547	184.340	191.582	307.910	345.634	191.447	198.070	198.573	205.605	325.405	204.803	-8191	255	
16366.102	1	1	0	0	0.17187	0.29686	0.22321	0.22279	0.19287	0.17158	0.29631	0.010811	0.25286	0.21582	0.13388	0.22113	0.22154	0.25838	0.24377	0.093556	-2.3208	-2.3521	-2.7	-2.6271	-2.4375	-2.7417	-2.4292	-2.575	-2.5438	-2.2958	-2.9396	-2.5812	-2.4771	-2.8021	-2.3208	-2.6688	315.368	209.507	354.121	456.333	409.210	347.765	509.600	371.439	242.968	252.703	510.714	470.396	301.149	179.453	290.295	372.777	0.00022953	0.00024876	4.5279e-05	1021.4	4.0224e-06	3.0333e-06	1080.1	210.65	2.6217e-06	3.7967e-06	265.16	75.901	59.917	17.17	2.5162e-06	24.443	0.0004347	0.00056259	0.00015352	1006.3	6.0281e-06	6.1466e-06	1068.2	210.13	6.0659e-06	6.1568e-06	264.07	76.05	60.463	17.393	5.87e-06	24.762	266.422	248.869	290.161	184.488	318.501	351.405	184.450	191.270	297.137	329.076	191.761	197.739	197.906	205.611	325.238	204.760	-8191	255	
16366.196	1	1	0	0	0.086184	0.24496	0.073751	0.01276	0.26924	0.21652	0.13565	0.040017	0.14368	0.25261	0.1757	0.11199	0.080995	0.22659	0.010065	0.1684	-2.1604	-2.1854	-2.7042	-2.5375	-2.2646	-2.8854	-2.6354	-2.525	-2.6125	-2.2896	-2.6958	-2.4813	-2.1583	-2.7417	-2.5875	-2.3646	189.734	228.051	284.785	506.601	309.007	310.919	450.583	413.675	178.584	402.186	368.049	308.434	466.080	391.343	520.117	441.778	0.00024544	0.00018341	0.00015899	1017.1	5.1072e-06	5.2111e-06	1075.6	211.18	2.6544e-06	2.5191e-06	265.33	75.739	60.255	17.326	9.3901e-07	24.124	0.00045307	0.00056263	0.00015013	1004.6	5.8045e-06	6.1462e-06	1067.3	210.42	5.9146e-06	6.232e-06	264.39	76.27	60.518	17.488	5.8147e-06	24.674	263.036	499.215	261.377	184.360	295.467	380.645	184.533	191.605	315.467	354.503	191.443	198.037	198.344	205.065	304.046	204.395	-8191	255	
16366.293	1	1	0	0	0.1601	0.25274	0.3101	0.008151	0.077106	0.33608	0.29032	0.074531	0.3632	0.10152	0.26332	0.17624	0.11506	0.020761	0.30679	0.24085	-2.2938	-2.2542	-2.6562	-2.7146	-2.1813	-2.6271	-2.3229	-2.425	-2.6437	-2.3333	-2.5625	-2.5083	-2.3563	-2.6063	-2.3438	-2.5062	215.131	444.751	333.837	309.040	450.478	531.996	436.525	264.004	417.022	302.583	235.797	483.124	507.149	232.509	322.028	394.799	0.00022763	0.00038778	3.6815e-05	1018.2	2.655e-06	3.3202e-06	1081.1	210.51	3.3322e-06	3.1188e-06	264.87	75.468	60.258	17.15	3.6169e-06	24.292	0.00043712	0.00053663	0.0001507	1004.4	5.8516e-06	5.8896e-06	1066.8	210.04	5.6493e-06	5.9662e-06	264.26	76.202	60.533	17.375	5.5744e-06	24.633	267.576	247.770	228.483	184.391	345.126	299.501	184.398	191.420	295.040	327.446	191.216	198.013	198.626	204.798	339.869	204.915	-8191	255	
#DATA ENDS
