BOXY.EXE: ISS Imagent and Oximeter Data Acquisition Program Version 0.80
Ascii Record File

#ACQ INFORMATION
2  Detector Channels 
16  External MUX Channels 
1  Auxiliary Channels 
5000  Waveform (CCF) Frequency (Hz)
1  Waveforms Skipped 
30  Waveforms Averaged 
1  Cycles Averaged 
16  Acquisitions per Waveform 
10.0806  Updata Rate (Hz) 

#FILE INFORMATION
TRUE -- External MUX Channel results are PARSED.
FALSE -- AC DC and Phase are NOT grouped.
TRUE -- Companion Program Settings File CREATED.
FALSE -- AC data not excluded
FALSE -- DC data not excluded
FALSE -- Phase data not excluded
FALSE -- Auxillary Chn. data not excluded
Tab delimiters

#CALIBRATION STATE
TRUE -- Waveform Calibration Values APPLIED.


#AUX CALIBRATION VALUES
Val Type	aux-1	

Term	1.0000e+00	
Factor	0.0000e+00	


#WF CALIBRATION VALUES
A = Detector Channel
Val Type	A-AC1	A-AC2	A-AC3	A-AC4	A-AC5	A-AC6	A-AC7	A-AC8	A-AC9	A-AC10	A-AC11	A-AC12	A-AC13	A-AC14	A-AC15	A-AC16	A-DC1	A-DC2	A-DC3	A-DC4	A-DC5	A-DC6	A-DC7	A-DC8	A-DC9	A-DC10	A-DC11	A-DC12	A-DC13	A-DC14	A-DC15	A-DC16	A-Ph1	A-Ph2	A-Ph3	A-Ph4	A-Ph5	A-Ph6	A-Ph7	A-Ph8	A-Ph9	A-Ph10	A-Ph11	A-Ph12	A-Ph13	A-Ph14	A-Ph15	A-Ph16	

Term	0.00000e+00	0.00000e+00	0.00000e+00	0.00000e+00	0.00000e+00	0.00000e+00	0.00000e+00	0.00000e+00	0.00000e+00	0.00000e+00	0.00000e+00	0.00000e+00	0.00000e+00	0.00000e+00	0.00000e+00	0.00000e+00	0.00000e+00	0.00000e+00	0.00000e+00	0.00000e+00	0.00000e+00	0.00000e+00	0.00000e+00	0.00000e+00	0.00000e+00	0.00000e+00	0.00000e+00	0.00000e+00	0.00000e+00	0.00000e+00	0.00000e+00	0.00000e+00	0.00000e+00	0.00000e+00	0.00000e+00	0.00000e+00	0.00000e+00	0.00000e+00	0.00000e+00	0.00000e+00	0.00000e+00	0.00000e+00	0.00000e+00	0.00000e+00	0.00000e+00	0.00000e+00	0.00000e+00	0.00000e+00	
Factor	1.00000e+00	1.00000e+00	1.00000e+00	1.00000e+00	1.00000e+00	1.00000e+00	1.00000e+00	1.00000e+00	1.00000e+00	1.00000e+00	1.00000e+00	1.00000e+00	1.00000e+00	1.00000e+00	1.00000e+00	1.00000e+00	1.00000e+00	1.00000e+00	1.00000e+00	1.00000e+00	1.00000e+00	1.00000e+00	1.00000e+00	1.00000e+00	1.00000e+00	1.00000e+00	1.00000e+00	1.00000e+00	1.00000e+00	1.00000e+00	1.00000e+00	1.00000e+00	X	X	X	X	X	X	X	X	X	X	X	X	X	X	X	X	

B = Detector Channel
Val Type	B-AC1	B-AC2	B-AC3	B-AC4	B-AC5	B-AC6	B-AC7	B-AC8	B-AC9	B-AC10	B-AC11	B-AC12	B-AC13	B-AC14	B-AC15	B-AC16	B-DC1	B-DC2	B-DC3	B-DC4	B-DC5	B-DC6	B-DC7	B-DC8	B-DC9	B-DC10	B-DC11	B-DC12	B-DC13	B-DC14	B-DC15	B-DC16	B-Ph1	B-Ph2	B-Ph3	B-Ph4	B-Ph5	B-Ph6	B-Ph7	B-Ph8	B-Ph9	B-Ph10	B-Ph11	B-Ph12	B-Ph13	B-Ph14	B-Ph15	B-Ph16	

Term	0.00000e+00	0.00000e+00	0.00000e+00	0.00000e+00	0.00000e+00	0.00000e+00	0.00000e+00	0.00000e+00	0.00000e+00	0.00000e+00	0.00000e+00	0.00000e+00	0.00000e+00	0.00000e+00	0.00000e+00	0.00000e+00	0.00000e+00	0.00000e+00	0.00000e+00	0.00000e+00	0.00000e+00	0.00000e+00	0.00000e+00	0.00000e+00	0.00000e+00	0.00000e+00	0.00000e+00	0.00000e+00	0.00000e+00	0.00000e+00	0.00000e+00	0.00000e+00	-1.10335e+02	-1.62587e+02	-1.90705e+02	-1.85735e+02	-7.95890e+01	-9.80034e+01	-1.58876e+02	-1.62015e+02	-9.35963e+01	-1.16549e+02	-1.73504e+02	-1.69991e+02	-1.80150e+02	-1.77034e+02	-1.13923e+02	-1.49910e+02	
Factor	1.77319e-05	8.39323e-05	2.32807e-05	6.63806e-01	6.50858e-07	8.58057e-07	1.78611e-01	5.53004e-02	7.65979e-07	9.03384e-07	9.65138e-02	3.13854e-02	2.64622e-02	1.04344e-02	8.22500e-07	1.50170e-02	3.36373e-07	3.38385e-07	9.36488e-08	2.35456e-01	3.72523e-09	3.70374e-09	7.59690e-02	2.46404e-02	3.72491e-09	3.70198e-09	3.96877e-02	1.30564e-02	1.13969e-02	4.37442e-03	3.68760e-09	5.98844e-03	X	X	X	X	X	X	X	X	X	X	X	X	X	X	X	X	



#DISTANCE SETTINGS
A = Detector Channel
A-1	A-2	A-3	A-4	A-5	A-6	A-7	A-8	A-9	A-10	A-11	A-12	A-13	A-14	A-15	A-16	

2.5000e+00	3.0000e+00	2.5000e+00	3.0000e+00	2.0000e+00	3.0000e+00	1.5000e+00	3.0000e+00	3.0000e+00	3.0000e+00	3.0000e+00	3.0000e+00	3.0000e+00	3.0000e+00	1.5000e+00	3.0000e+00	

B = Detector Channel
B-1	B-2	B-3	B-4	B-5	B-6	B-7	B-8	B-9	B-10	B-11	B-12	B-13	B-14	B-15	B-16	

1.0000e+01	1.0000e+01	1.0000e+01	1.4400e+00	1.0000e+01	1.0000e+01	1.5100e+00	1.9400e+00	1.0000e+01	1.0000e+01	1.9900e+00	2.4900e+00	2.4100e+00	2.9000e+00	1.0000e+01	2.9800e+00	




#DATA BEGINS
time	group	step	mark	flag	A-AC1	A-AC2	A-AC3	A-AC4	A-AC5	A-AC6	A-AC7	A-AC8	A-AC9	A-AC10	A-AC11	A-AC12	A-AC13	A-AC14	A-AC15	A-AC16	A-DC1	A-DC2	A-DC3	A-DC4	A-DC5	A-DC6	A-DC7	A-DC8	A-DC9	A-DC10	A-DC11	A-DC12	A-DC13	A-DC14	A-DC15	A-DC16	A-Ph1	A-Ph2	A-Ph3	A-Ph4	A-Ph5	A-Ph6	A-Ph7	A-Ph8	A-Ph9	A-Ph10	A-Ph11	A-Ph12	A-Ph13	A-Ph14	A-Ph15	A-Ph16	B-AC1	B-AC2	B-AC3	B-AC4	B-AC5	B-AC6	B-AC7	B-AC8	B-AC9	B-AC10	B-AC11	B-AC12	B-AC13	B-AC14	B-AC15	B-AC16	B-DC1	B-DC2	B-DC3	B-DC4	B-DC5	B-DC6	B-DC7	B-DC8	B-DC9	B-DC10	B-DC11	B-DC12	B-DC13	B-DC14	B-DC15	B-DC16	B-Ph1	B-Ph2	B-Ph3	B-Ph4	B-Ph5	B-Ph6	B-Ph7	B-Ph8	B-Ph9	B-Ph10	B-Ph11	B-Ph12	B-Ph13	B-Ph14	B-Ph15	B-Ph16	aux-1	digaux	

6700.000	1	1	0	256	0.16063	0.057116	0.091713	0.069939	0.082908	0.067694	0.16948	0.25069	0.19488	0.17307	0.34738	0.043948	0.23141	0.075416	0.31539	0.26225	-2.2292	-2.4625	-2.8896	-2.5958	-2.475	-2.6437	-2.6	-2.8417	-2.5458	-2.4021	-2.7708	-2.4938	-2.4417	-2.8187	-2.475	-2.6771	-53.155	74.255	37.012	38.135	-72.198	220.011	158.442	242.757	151.130	208.512	194.007	140.862	-44.223	174.556	204.758	64.747	4.8208e-05	0.00021237	5.1524e-05	1248.9	9.004e-07	5.9777e-07	1324.7	257.95	1.6987e-06	1.5109e-06	328.32	90.652	71.492	20.898	1.1286e-06	29.386	3.8883e-05	3.607e-05	1.151e-05	906.95	3.9575e-07	3.8618e-07	1186.6	230.32	3.8928e-07	3.8625e-07	277.29	78.653	61.534	17.816	4.3047e-07	24.655	173.361	241.158	-79.774	-82.488	105.006	-3.370	-82.287	-75.865	-25.168	-8.188	-75.733	-69.284	-69.411	-62.363	34.013	-62.418	-8191	255	
6700.119	1	1	0	0	0.21296	0.35839	0.11747	0.24083	0.13323	0.16818	0.12995	0.11068	0.11019	0.11457	0.095934	0.13955	0.28757	0.23499	0.20038	0.11698	-2.3271	-2.4562	-2.5458	-2.6813	-2.4188	-2.8375	-2.6937	-2.5542	-2.6604	-2.5458	-2.8604	-2.7146	-2.3958	-2.8104	-2.5563	-2.5396	-31.922	191.270	-63.069	185.805	90.505	65.130	-11.382	237.102	-29.394	130.042	131.506	-12.244	190.821	-48.961	175.075	187.473	6.2309e-05	8.8474e-05	4.5222e-05	1253.7	1.43e-06	2.3952e-06	1327.7	260.11	1.3144e-06	1.4694e-06	326.69	91.333	71.284	20.863	1.9801e-06	29.506	3.4726e-05	3.4634e-05	1.0381e-05	906.62	3.5453e-07	3.7301e-07	1189.8	231.74	3.523e-07	3.932e-07	278.12	78.885	61.789	17.928	4.2383e-07	24.768	201.277	206.227	-63.504	-82.850	14.152	51.915	-82.172	-75.789	8.192	54.205	-75.912	-69.826	-69.271	-62.003	28.631	-62.814	-8191	255	
6700.191	1	1	0	0	0.18566	0.033858	0.2119	0.18295	0.12758	0.038288	0.3883	0.1945	0.030079	0.073428	0.13282	0.059055	0.097307	0.26567	0.19622	0.1851	-2.4208	-2.4021	-2.7417	-2.7292	-2.4062	-2.9062	-2.6417	-2.5521	-2.6208	-2.3063	-2.8229	-2.6271	-2.4292	-2.7687	-2.7167	-2.4396	203.569	102.717	103.827	88.589	-34.707	214.190	157.446	124.934	169.859	220.627	200.182	203.179	10.000	-77.351	-22.018	24.139	9.1797e-05	8.6557e-05	7.9439e-05	1264.3	4.7878e-07	5.5537e-07	1330.8	260.51	8.1875e-07	1.0518e-06	329.55	91.131	71.702	21.005	2.9761e-06	29.842	3.6379e-05	4.0508e-05	1.1094e-05	912.23	4.017e-07	4.5422e-07	1192.8	232.76	4.1863e-07	4.7381e-07	279.64	79.298	62.273	18.078	4.5236e-07	24.991	188.212	-77.857	-79.742	-82.803	235.054	212.382	-82.535	-75.584	197.750	15.080	-75.698	-69.675	-69.263	-62.393	11.447	-62.666	-8191	255	
6700.289	1	1	0	0	0.22666	0.21098	0.18799	0.11036	0.12463	0.17035	0.16481	0.106	0.13325	0.11576	0.03054	0.19059	0.18678	0.15011	0.20965	0.22302	-2.3604	-2.2917	-2.6667	-2.7417	-2.475	-2.8167	-2.5542	-2.5125	-2.7958	-2.45	-2.6208	-2.7354	-2.4979	-2.6167	-2.5542	-2.4562	160.593	56.443	176.411	15.595	119.266	-77.313	238.927	219.069	200.635	258.684	248.636	87.210	222.912	217.868	155.491	196.042	7.1964e-05	0.00035939	9.5742e-05	1273.8	4.1395e-07	1.2083e-06	1331.7	262.91	1.3556e-06	2.3301e-06	330.72	91.533	72.077	21.141	1.9189e-06	29.874	4.0237e-05	4.4654e-05	1.1543e-05	919.31	4.4017e-07	4.9327e-07	1195.3	233.88	4.6287e-07	5.237e-07	280.95	79.856	62.761	18.276	5.2139e-07	25.189	200.992	-63.370	-87.912	-82.410	-10.084	-15.838	-82.375	-75.712	-51.646	44.290	-75.935	-69.668	-69.186	-62.505	34.192	-62.781	-8191	255	
6700.407	1	1	0	0	0.056133	0.15706	0.35371	0.29888	0.053506	0.27482	0.17409	0.34889	0.044645	0.17092	0.31337	0.098689	0.12008	0.17601	0.23368	0.11377	-2.3812	-2.8167	-2.2417	-2.85	-2.4958	-2.7333	-2.7708	-2.5229	-2.8333	-2.4188	-2.7896	-2.75	-2.3312	-2.9437	-2.6063	-2.4292	256.468	61.884	138.500	219.905	92.051	28.217	166.766	218.534	-83.614	219.247	-71.230	-64.011	66.781	-93.287	41.571	240.069	0.00010021	0.00015409	7.7967e-05	1270.4	1.4582e-06	3.7742e-06	1339.2	264.17	2.5308e-06	1.2848e-06	331.62	91.742	72.67	21.367	1.9849e-06	30.189	5.2429e-05	5.4814e-05	1.4077e-05	924.36	5.9767e-07	6.2855e-07	1202.6	236.87	6.3775e-07	6.5577e-07	283.58	80.689	63.675	18.574	6.2542e-07	25.586	195.052	2.904	-76.051	-82.830	113.887	17.984	-82.383	-75.592	-54.483	-28.083	-75.690	-69.471	-69.285	-62.308	47.551	-62.963	-8191	255	
6700.504	1	1	0	0	0.11898	0.15558	0.11689	0.3451	0.28855	0.027155	0.23287	0.17087	0.09066	0.11842	0.15852	0.22134	0.08495	0.19075	0.098065	0.3332	-2.4125	-2.6417	-2.6813	-2.7375	-2.5917	-2.6979	-2.8771	-2.65	-2.9625	-2.7458	-2.3792	-2.9917	-2.4813	-2.7417	-2.7812	-2.5646	209.387	201.944	231.330	241.500	124.932	44.270	103.483	199.882	32.932	229.899	169.612	255.258	253.856	184.481	193.186	264.412	9.2489e-05	0.00033889	6.5601e-05	1282.7	4.3366e-06	3.2143e-06	1350.4	266.72	2.3274e-06	1.7086e-06	335.64	92.148	73.029	21.276	2.5802e-06	30.006	6.5152e-05	6.1819e-05	1.5937e-05	937.86	7.1192e-07	6.6846e-07	1212.9	239.04	7.1385e-07	6.7023e-07	286.19	81.012	64.178	18.598	5.9272e-07	25.524	188.115	-87.072	263.100	-82.849	42.029	48.558	-82.420	-75.800	44.796	-36.546	-76.068	-69.584	-68.923	-62.196	22.079	-62.918	-8191	255	
6700.600	1	1	0	0	0.17022	0.096628	0.075632	0.16963	0.088542	0.12269	0.13256	0.38024	0.23881	0.018348	0.04302	0.08593	0.17114	0.22106	0.28937	0.29505	-2.475	-2.4854	-2.3063	-2.7583	-2.6292	-2.6146	-2.775	-2.5312	-2.8583	-2.7042	-2.4188	-2.9417	-2.6354	-2.7125	-2.8271	-2.5625	-29.394	230.493	-13.077	193.586	240.506	-91.138	218.728	183.602	184.007	-20.617	128.955	-64.766	258.099	69.644	103.797	-53.187	9.642e-05	0.00024032	6.8495e-05	1285.2	1.9401e-06	2.7555e-06	1353.4	268.41	3.0369e-06	1.6494e-06	338.04	92.717	73.689	21.415	2.1946e-06	29.987	6.315e-05	5.5214e-05	1.4825e-05	939.95	6.6754e-07	5.8108e-07	1216	239.71	6.3354e-07	5.695e-07	286.43	81.103	64.113	18.403	4.8341e-07	25.412	171.543	-60.253	264.100	-82.520	12.957	36.832	-82.562	-76.170	-15.547	68.568	-75.805	-69.680	-69.323	-62.371	27.088	-62.521	-8191	255	
6700.720	1	1	0	0	0.32199	0.20778	0.12253	0.064846	0.20407	0.15464	0.08409	0.10964	0.26496	0.044645	0.17564	0.3053	0.1541	0.16364	0.18541	0.037755	-2.275	-2.5708	-2.5438	-2.7208	-2.7292	-2.6396	-2.9813	-2.6958	-2.7104	-2.7396	-2.2562	-2.8396	-2.8771	-2.5646	-2.9688	-2.4313	234.998	258.466	145.324	223.842	-54.894	37.311	205.723	138.743	22.149	-14.472	134.041	212.497	34.213	-86.468	93.588	230.700	0.00012264	0.00016898	5.7345e-06	1290.1	1.812e-06	3.2448e-06	1355.8	267	1.5844e-06	3.2708e-06	334.94	92.845	72.56	21.408	5.7611e-07	29.913	5.2273e-05	4.5164e-05	1.1722e-05	935.18	5.2815e-07	4.6806e-07	1212.7	238.89	5.079e-07	4.5609e-07	283.78	80.794	63.452	18.294	4.2721e-07	25.236	190.681	-89.503	28.030	-82.601	79.097	7.649	-82.269	-75.726	72.853	30.246	-75.994	-69.424	-69.224	-62.171	56.668	-62.803	-8191	255	
6700.815	1	1	0	0	0.12727	0.077735	0.2279	0.22077	0.33564	0.080554	0.23583	0.17656	0.23553	0.26753	0.14203	0.14588	0.14446	0.26251	0.11406	0.18424	-2.3229	-2.6708	-2.325	-2.9917	-2.475	-2.5271	-2.8375	-2.4271	-2.5833	-2.8104	-2.55	-3.0167	-2.7208	-2.6437	-2.8542	-2.5312	36.320	6.917	6.022	138.110	-47.410	-48.323	239.790	160.384	58.721	-46.967	250.023	232.058	-85.117	50.836	153.211	198.869	4.0123e-05	0.00041465	4.1832e-05	1291.1	9.2284e-07	8.4085e-07	1354.5	267.24	1.8271e-06	1.7086e-06	337	92.605	72.834	21.493	1.3512e-06	29.89	4.4223e-05	3.8393e-05	1.0494e-05	933.83	4.4528e-07	4.0935e-07	1213.8	238.63	4.3429e-07	3.9651e-07	284.62	80.752	63.239	18.347	4.0968e-07	25.342	213.569	-21.948	-79.786	-82.961	150.549	97.202	-82.481	-75.668	34.379	33.999	-75.895	-69.352	-69.478	-62.463	72.354	-62.341	-8191	255	
6700.888	1	1	0	0	0.13083	0.071413	0.068689	0.38194	0.05094	0.16069	0.075275	0.1628	0.13842	0.10945	0.2027	0.29531	0.086367	0.01653	0.076651	0.3079	-2.2021	-2.7521	-2.4917	-2.6188	-2.7562	-2.5542	-3.1188	-2.5229	-2.6854	-2.8667	-2.5417	-2.7542	-2.6562	-2.5208	-2.6896	-2.5563	-32.063	169.904	152.407	56.401	146.394	98.546	113.045	221.407	-48.053	191.507	-73.548	200.573	219.548	178.680	25.778	216.129	4.1707e-05	0.00023986	7.0042e-05	1278.1	1.0414e-06	1.9183e-06	1348.2	266.93	1.7237e-06	2.1523e-06	335.32	92.675	72.855	21.358	1.3338e-06	29.89	4.1703e-05	3.6902e-05	1.1005e-05	929.92	4.4777e-07	4.2083e-07	1210.9	238.25	4.5949e-07	4.1211e-07	284.62	80.831	63.268	18.272	4.6171e-07	25.282	203.381	6.047	15.446	-82.499	46.064	-2.138	-82.339	-75.938	30.448	-34.161	-75.983	-69.586	-69.451	-62.267	-73.357	-62.390	-8191	255	
6701.007	1	1	0	0	0.036494	0.18837	0.22629	0.4438	0.042166	0.17492	0.22159	0.088049	0.18655	0.037556	0.21252	0.18307	0.29557	0.23581	0.11151	0.16427	-2.2625	-2.7146	-2.3833	-2.5875	-2.5583	-2.5479	-3.1167	-2.5875	-2.4396	-2.9146	-2.6688	-2.6896	-2.7125	-2.5667	-2.7	-2.5542	263.511	-33.974	189.174	243.695	56.829	43.255	218.706	209.603	188.456	-78.364	24.640	245.100	218.238	-25.463	187.698	18.360	5.1669e-05	0.00013317	3.1489e-05	1281.3	2.1595e-06	6.8215e-07	1341.6	266.01	1.7526e-06	1.8075e-06	335.25	92.661	72.673	21.387	1.1569e-06	30.049	4.1844e-05	3.743e-05	1.1668e-05	926.65	4.298e-07	3.9987e-07	1206	237.5	4.3052e-07	3.9561e-07	284.13	80.441	62.954	18.253	4.706e-07	25.257	192.115	-89.911	41.514	-82.652	100.163	148.586	-82.343	-75.802	27.623	-1.231	-75.738	-69.472	-69.390	-62.372	-34.972	-62.762	-8191	255	
6701.103	1	1	0	0	0.081608	0.25345	0.1287	0.37327	0.042022	0.18021	0.1151	0.053425	0.2076	0.026607	0.11722	0.09053	0.090478	0.08065	0.05126	0.16737	-2.1396	-2.6771	-2.6208	-2.5917	-2.6646	-2.325	-2.9292	-2.7708	-2.4729	-2.5854	-2.4958	-2.7938	-2.8208	-2.4479	-2.8063	-2.8292	0.235	240.977	216.206	166.619	4.436	133.284	219.181	244.353	103.620	144.366	27.271	71.299	265.172	37.662	-80.213	190.311	0.00010006	0.00016397	7.2732e-05	1275.9	1.6399e-06	1.6265e-06	1343.2	266.02	1.9513e-06	1.1846e-06	333.11	92.59	72.719	21.415	1.7367e-06	30.018	4.0717e-05	3.8799e-05	1.2371e-05	924.61	4.3019e-07	4.3798e-07	1205.9	237.75	4.3901e-07	4.3827e-07	283.76	80.463	63.011	18.401	5.1306e-07	25.286	223.652	32.066	236.499	-82.425	78.580	37.880	-82.555	-75.513	58.772	104.683	-75.882	-69.586	-69.168	-62.611	-30.688	-62.785	-8191	255	
6701.199	1	1	0	0	0.15386	0.23361	0.22607	0.16919	0.18813	0.21297	0.3652	0.17634	0.23813	0.077117	0.165	0.15531	0.13195	0.045019	0.10527	0.16653	-2.0396	-2.7896	-2.4042	-2.5042	-2.6792	-2.5958	-3.0167	-2.6792	-2.4313	-2.6917	-2.7313	-2.6354	-2.8208	-2.5021	-2.9125	-2.7229	121.177	240.066	90.778	37.218	202.026	115.011	186.848	186.311	-90.213	-52.292	251.669	166.107	-5.200	-63.738	177.180	126.302	6.5242e-05	0.00032192	8.3227e-05	1279.2	1.801e-06	5.7844e-07	1347.7	265.19	7.1204e-07	1.335e-06	334.89	92.446	72.231	21.291	2.0288e-06	30.013	4.2471e-05	4.2537e-05	1.2902e-05	925.34	4.328e-07	4.741e-07	1206.5	237.5	4.3896e-07	4.7007e-07	284.49	80.429	62.852	18.389	4.9353e-07	25.212	207.742	-34.186	-43.322	-82.765	7.233	63.144	-82.442	-75.691	90.383	105.088	-75.759	-69.382	-69.501	-62.200	74.366	-62.493	-8191	255	
6701.296	1	1	0	0	0.24519	0.23705	0.19339	0.026281	0.091491	0.039818	0.059508	0.20653	0.21355	0.26033	0.17792	0.2174	0.089586	0.11938	0.16712	0.15009	-2.0104	-2.7417	-2.6042	-2.4229	-2.9646	-2.4083	-2.9833	-2.85	-2.7042	-2.7521	-2.5354	-2.5187	-2.9333	-2.3521	-2.7938	-2.7542	31.943	12.177	104.028	232.847	-23.826	158.320	-72.800	191.308	-58.918	107.414	-93.513	-93.513	52.638	172.571	136.651	84.843	9.1478e-05	6.0386e-05	0.00010001	1278.2	1.3903e-06	1.14e-06	1344.8	265.71	1.5075e-06	2.2892e-06	335.9	92.111	72.791	21.323	1.9112e-06	29.732	4.2841e-05	4.5593e-05	1.2735e-05	925.52	4.5079e-07	5.0918e-07	1207.9	237.66	4.7815e-07	5.2388e-07	284.85	80.524	63.149	18.398	5.0792e-07	25.248	214.513	-40.550	266.185	-82.649	69.984	16.921	-82.347	-75.677	63.915	57.421	-76.041	-69.443	-69.053	-62.424	-70.629	-62.726	-8191	255	
6701.416	1	1	0	0	0.11849	0.26066	0.14688	0.17828	0.091602	0.081582	0.21904	0.1318	0.14655	0.13604	0.20404	0.16466	0.32027	0.14849	0.090647	0.28927	-1.9875	-2.6708	-2.6625	-2.3958	-2.8688	-2.4562	-2.9458	-2.8271	-2.4542	-2.7479	-2.7271	-2.5521	-2.8646	-2.6021	-2.5938	-2.8167	78.788	202.271	205.517	183.348	175.154	148.830	245.028	238.423	245.243	45.125	-88.881	253.772	150.321	228.508	241.758	190.893	0.00011289	0.0001248	0.00010532	1286.2	1.6001e-06	1.9952e-06	1350.9	266.42	2.7512e-06	1.593e-06	335.23	92.253	72.635	21.407	7.3488e-07	30.12	4.5955e-05	4.9919e-05	1.2979e-05	928.59	4.9127e-07	5.6313e-07	1211	237.86	5.1275e-07	5.5388e-07	284.31	80.578	63.264	18.46	5.1486e-07	25.274	186.610	10.366	-76.888	-82.887	85.829	17.172	-82.405	-75.562	-74.535	-10.254	-75.970	-69.684	-69.399	-62.211	92.884	-63.132	-8191	255	
6701.488	1	1	0	0	0.11629	0.31711	0.12355	0.088889	0.25551	0.052426	0.33027	0.18805	0.1729	0.19326	0.09541	0.10583	0.023428	0.072663	0.10929	0.10986	-1.8542	-2.5917	-2.5125	-2.6625	-2.775	-2.4625	-2.5792	-2.925	-2.3896	-2.7104	-2.6646	-2.4083	-2.8375	-2.475	-2.6667	-2.8875	235.976	118.915	35.477	259.316	134.435	-22.519	265.997	199.409	60.826	21.244	218.199	75.899	122.568	263.072	73.906	-77.216	7.136e-05	0.00018383	2.7697e-05	1281.9	1.171e-06	3.5465e-06	1353.5	266.06	1.7762e-06	2.4344e-06	333.07	92.336	72.874	21.237	3.2734e-06	29.934	5.0431e-05	5.067e-05	1.2868e-05	929.63	5.3165e-07	5.4176e-07	1209.8	237.97	5.4477e-07	5.3497e-07	283.81	80.391	63.363	18.313	4.9466e-07	25.222	202.922	-57.244	-75.030	-82.500	230.975	34.344	-82.212	-75.454	-80.470	-2.029	-76.016	-69.545	-69.464	-62.515	-21.908	-63.177	-8191	255	
6701.584	1	1	0	0	0.1018	0.15134	0.17654	0.12641	0.083849	0.35327	0.2333	0.21591	0.098978	0.22148	0.088605	0.10864	0.10018	0.25762	0.1945	0.24579	-1.9583	-2.4875	-2.6229	-2.6083	-2.7896	-2.4229	-2.8688	-2.8146	-2.7271	-2.5354	-2.8563	-2.5271	-2.8833	-2.6646	-2.4625	-3.0875	248.011	259.869	136.549	1.356	21.149	-44.157	207.350	151.619	22.169	114.638	216.152	229.252	-43.125	-8.514	134.304	119.423	7.1959e-05	0.00016514	6.6632e-05	1274.9	1.7528e-06	1.6192e-06	1347.2	266.76	1.1451e-06	3.0127e-06	332.7	92.345	72.43	21.369	1.459e-06	29.823	5.194e-05	4.8818e-05	1.2451e-05	925.61	5.5726e-07	5.2708e-07	1206.9	237.69	5.5801e-07	5.1451e-07	282.96	80.313	63.207	18.304	4.621e-07	25.117	231.147	239.748	-55.456	-82.744	17.248	26.291	-82.388	-75.859	26.731	18.861	-75.761	-69.259	-68.898	-62.396	59.219	-62.177	-8191	255	
6701.680	1	1	0	0	0.22062	0.098042	0.10599	0.1798	0.20287	0.25387	0.15406	0.27087	0.20062	0.16121	0.10214	0.16719	0.20766	0.18044	0.13633	0.086002	-2.0354	-2.6729	-2.7188	-2.375	-2.6875	-2.6396	-2.7125	-3.0021	-2.5396	-2.5375	-2.7354	-2.4896	-2.8646	-2.7042	-2.3312	-2.8083	-87.682	200.371	-2.781	143.009	-89.683	-55.499	240.847	127.128	46.081	-80.455	144.735	-12.337	188.313	87.390	221.500	161.791	0.00010073	0.00029812	5.7628e-05	1277.4	2.0763e-06	2.6516e-06	1342.2	266.46	1.167e-06	2.1045e-07	333.77	91.739	72.144	21.31	1.0096e-06	29.633	5.0668e-05	4.4477e-05	1.1292e-05	924.98	5.125e-07	4.697e-07	1202.1	236.6	5.1436e-07	4.5341e-07	282.14	79.944	62.868	18.155	4.1986e-07	25.02	222.113	-44.967	-73.545	-82.493	34.074	-57.404	-82.461	-75.612	-1.146	45.423	-75.700	-69.373	-69.315	-62.323	-67.828	-62.540	-8191	255	
6701.801	1	1	0	0	0.074392	0.039792	0.20356	0.18034	0.23054	0.085748	0.16522	0.17135	0.1679	0.20708	0.26106	0.068321	0.148	0.091968	0.28653	0.084407	-1.9542	-2.4354	-2.6625	-2.4396	-2.4062	-2.6792	-2.725	-2.8146	-2.5208	-2.4354	-3.0292	-2.3396	-2.7917	-2.7396	-2.5417	-2.7625	213.922	-48.061	212.192	-55.497	122.194	-62.636	217.968	85.952	251.684	125.708	196.212	-74.690	-27.880	167.616	156.749	69.889	7.7507e-05	0.00011436	4.9728e-05	1275.8	2.0333e-07	1.5985e-06	1338.4	264.24	1.8408e-06	2.4713e-07	331.75	90.747	72.163	20.961	1.0304e-06	29.855	4.5239e-05	3.9931e-05	1.0229e-05	921.9	4.7402e-07	4.2683e-07	1199.6	235.83	4.758e-07	4.3017e-07	281.61	79.682	62.638	18.029	4.2182e-07	25.093	203.409	232.923	-77.562	-82.526	95.170	-92.487	-82.418	-75.908	7.631	66.955	-75.756	-69.711	-69.100	-62.482	67.830	-62.745	-8191	255	
6701.895	1	1	0	0	0.0928	0.10973	0.17255	0.16708	0.26735	0.28352	0.23296	0.138	0.079672	0.091269	0.41009	0.10327	0.15908	0.10833	0.14685	0.12403	-2.125	-2.3104	-2.6896	-2.4396	-2.5958	-2.6875	-2.4562	-2.9938	-2.4896	-2.6063	-2.8375	-2.3917	-2.5583	-2.7271	-2.5438	-2.7917	159.483	104.114	-42.615	234.396	255.480	211.213	103.089	41.600	-51.072	15.824	207.249	133.502	-29.742	91.037	3.461	211.185	9.4868e-05	0.00019655	6.1615e-05	1273.8	2.0425e-06	6.2153e-07	1338.7	263.38	6.093e-07	2.2342e-06	331.37	91.49	72.145	21.025	2.6921e-06	29.491	4.4696e-05	3.98e-05	1.0589e-05	923.57	4.7145e-07	4.2934e-07	1200.4	235.78	4.7011e-07	4.2717e-07	280.91	79.684	62.576	18.017	4.4558e-07	24.986	202.289	-63.037	-33.881	-82.534	60.409	-69.298	-82.365	-75.771	-62.340	4.016	-75.815	-69.072	-68.987	-62.528	62.075	-62.632	-8191	255	
6701.991	1	1	0	0	0.29997	0.153	0.13389	0.20248	0.27265	0.083345	0.14604	0.20472	0.15024	0.15325	0.16652	0.028185	0.11128	0.2799	0.19661	0.26151	-2.1479	-2.3604	-2.85	-2.4417	-2.7146	-2.8354	-2.6521	-2.6854	-2.7167	-2.3438	-2.8833	-2.6604	-2.5625	-2.9104	-2.4833	-2.6458	198.544	213.866	4.598	-67.216	203.110	-5.058	234.480	241.863	140.930	-74.579	89.869	-86.952	115.316	-89.416	42.903	226.622	7.5437e-05	0.00012561	2.2975e-05	1274.3	1.233e-06	3.4155e-06	1336.3	263.73	2.587e-06	9.8861e-07	331.2	91.926	71.938	21.114	1.5284e-06	29.569	4.3526e-05	4.0027e-05	1.1408e-05	923.87	4.7223e-07	4.3376e-07	1198	235.07	4.8296e-07	4.3759e-07	281.35	79.88	62.497	18.028	4.8528e-07	24.941	246.464	9.509	218.082	-82.756	56.769	7.206	-82.422	-75.597	-46.400	-26.231	-75.858	-69.822	-69.030	-62.217	80.844	-62.321	-8191	255	
6702.089	1	1	0	0	0.19583	0.10007	0.027239	0.26756	0.13579	0.15522	0.21604	0.20999	0.1407	0.22772	0.052364	0.16646	0.050527	0.088899	0.1435	0.3131	-2.1396	-2.6312	-2.6396	-2.5729	-2.7438	-2.7646	-2.65	-2.7562	-2.6646	-2.4813	-2.9375	-2.5771	-2.5938	-2.775	-2.5229	-2.5604	-52.469	224.837	-5.759	-65.243	129.392	178.453	234.700	256.926	158.284	253.587	-75.095	242.730	117.654	251.175	253.883	-26.791	9.0457e-05	7.2929e-05	3.0184e-05	1261.5	1.8944e-06	2.2901e-06	1339.9	261.53	1.1627e-06	1.7126e-06	330.2	91.343	71.539	20.956	1.7153e-06	29.652	4.3188e-05	3.8419e-05	1.1985e-05	919.28	4.2947e-07	3.9706e-07	1196.7	234.18	4.1267e-07	3.9837e-07	280.52	79.291	62.124	17.954	4.5175e-07	24.833	218.350	230.208	-5.853	-82.753	69.267	-0.854	-82.494	-75.680	-17.989	226.160	-75.857	-69.476	-69.024	-62.142	-31.881	-62.506	-8191	255	
6702.184	1	1	0	0	0.10533	0.11682	0.113	0.16374	0.14516	0.072082	0.28082	0.13102	0.047642	0.21484	0.04166	0.14111	0.03711	0.10488	0.1974	0.2159	-2.3625	-2.5292	-2.7167	-2.7125	-2.575	-2.8396	-2.6854	-2.8625	-2.6875	-2.3958	-2.9062	-2.525	-2.4917	-2.85	-2.2812	-2.7562	111.871	108.633	35.847	13.477	5.024	21.163	171.558	166.773	-4.110	86.424	1.408	212.892	-84.388	186.236	220.252	243.392	5.9237e-05	5.624e-05	4.5286e-05	1259	9.1394e-07	2.4502e-06	1335.2	262.81	1.515e-06	2.1371e-06	331.03	90.389	71.826	20.881	2.8451e-06	29.501	3.8064e-05	3.6231e-05	1.1341e-05	912.12	4.033e-07	3.8976e-07	1193.2	233.8	3.889e-07	4.0481e-07	280.05	79.029	62.11	17.936	4.5013e-07	24.797	213.710	-19.646	-69.501	-82.814	-18.506	39.207	-82.551	-75.638	-17.755	9.423	-75.877	-69.669	-69.086	-62.201	-53.248	-62.732	-8191	255	
6702.280	1	1	0	0	0.074401	0.22307	0.21142	0.18552	0.1926	0.29292	0.33223	0.32818	0.098185	0.13769	0.086815	0.33667	0.14071	0.15381	0.13231	0.12112	-2.2354	-2.5229	-2.7854	-2.7833	-2.3833	-2.6396	-2.6	-2.8458	-2.8187	-2.4625	-2.9188	-2.7646	-2.3542	-2.9896	-2.6813	-2.5771	-19.229	101.101	-31.565	30.579	34.894	-13.340	159.901	212.252	-48.110	232.664	15.207	260.509	178.681	-4.586	116.056	49.322	6.9954e-05	0.00019721	4.8315e-05	1258.8	1.3187e-06	1.1468e-06	1333	261.87	1.8181e-06	1.0171e-06	329.52	90.908	71.494	20.996	6.4297e-07	29.574	3.7665e-05	3.7937e-05	1.1362e-05	911.24	3.9986e-07	4.2108e-07	1193.1	233.46	3.8865e-07	4.2351e-07	279.51	79.085	61.82	17.956	4.3687e-07	24.753	177.728	-51.476	255.389	-82.721	8.708	59.809	-82.282	-75.678	-25.356	-1.515	-75.584	-69.264	-68.899	-62.350	114.322	-62.397	-8191	255	
6702.400	1	1	0	0	0.069439	0.043503	0.15804	0.11328	0.34225	0.10436	0.31409	0.19064	0.11515	0.082292	0.069804	0.11432	0.14936	0.18828	0.26329	0.13359	-2.5104	-2.2562	-2.7271	-2.8375	-2.375	-3	-2.7083	-2.8229	-2.7583	-2.4229	-2.8	-2.8979	-2.5687	-2.7625	-2.775	-2.4437	103.000	152.689	247.406	82.544	-73.293	183.283	165.350	-90.885	209.361	17.554	-85.348	82.150	249.609	227.581	-49.784	-35.103	4.2452e-05	7.2487e-05	5.4434e-05	1263	1.0171e-06	2.8118e-06	1330.8	262.46	1.3884e-06	2.0975e-06	327.27	90.039	71.238	20.867	1.0656e-06	29.371	3.6731e-05	4.0128e-05	1.0975e-05	909.7	3.8535e-07	4.3938e-07	1191.6	233.28	3.9339e-07	4.4364e-07	278.63	78.892	61.849	17.94	4.266e-07	24.697	227.472	-44.127	-65.292	-82.203	-49.573	-12.160	-82.425	-75.748	-4.455	28.150	-76.029	-69.261	-69.365	-62.250	35.680	-62.389	-8191	255	
6702.495	1	1	0	0	0.19116	0.12358	0.14413	0.12451	0.33084	0.35809	0.14836	0.20439	0.25991	0.048477	0.090561	0.24349	0.29049	0.08477	0.074009	0.14769	-2.4417	-2.4917	-2.6042	-2.7917	-2.4625	-2.9979	-2.8	-2.6688	-2.7792	-2.6333	-2.6771	-2.6604	-2.525	-2.7354	-2.7417	-2.3021	167.901	160.375	258.320	40.768	218.148	31.426	-89.395	94.502	46.669	37.521	44.473	-41.048	63.038	68.227	75.255	127.001	0.00010801	0.00012283	6.1743e-05	1268.7	2.7622e-06	2.1208e-06	1328.1	261.3	6.5679e-07	3.953e-06	330.76	90.4	71.392	20.819	2.2725e-06	29.453	3.8179e-05	4.168e-05	1.0802e-05	912.15	4.1708e-07	4.5492e-07	1190.4	232.63	4.1178e-07	4.5499e-07	279.17	78.677	62.04	17.883	4.0791e-07	24.645	199.107	-51.578	246.735	-82.261	33.391	16.815	-82.472	-75.513	-60.569	21.017	-75.844	-69.634	-69.013	-62.092	53.080	-62.382	-8191	255	
6702.591	1	1	0	0	0.040381	0.19454	0.146	0.02157	0.20749	0.024696	0.054155	0.25159	0.26765	0.13734	0.18205	0.060342	0.31448	0.10837	0.33049	0.15061	-2.6188	-2.5312	-2.525	-3.0583	-2.225	-2.9333	-2.7583	-2.4479	-2.8937	-2.3396	-2.6354	-2.8792	-2.3625	-2.7271	-2.65	-2.4583	148.496	109.381	131.898	-56.045	-42.709	46.023	148.611	243.874	-82.111	36.441	-64.498	252.463	253.569	-86.798	261.931	87.622	5.0854e-05	0.00023475	6.5109e-05	1259.2	1.1825e-06	3.0159e-06	1332.4	260.39	6.5762e-07	3.0799e-06	331.68	91.085	71.339	20.934	6.5325e-07	29.56	3.9358e-05	4.0288e-05	1.025e-05	908.38	4.3142e-07	4.4133e-07	1191.7	232.81	4.3763e-07	4.3842e-07	279.49	79.025	62.009	17.896	3.9763e-07	24.711	203.901	-38.082	-47.000	-82.933	81.415	69.244	-82.482	-75.450	-34.803	-2.165	-75.841	-69.027	-69.165	-62.355	-23.204	-62.536	-8191	255	
6702.712	1	1	0	0	0.11778	0.24818	0.25673	0.15935	0.17993	0.17003	0.41918	0.06168	0.069224	0.17641	0.086441	0.068029	0.005215	0.20558	0.1208	0.13786	-2.3708	-2.5417	-2.5542	-3.0812	-2.6042	-2.9042	-3.0604	-2.3187	-2.9292	-2.5771	-2.7417	-3.0042	-2.4979	-2.5812	-2.9313	-2.4833	163.324	53.379	16.434	128.760	61.828	113.021	201.551	-17.264	251.422	39.380	261.951	-31.573	263.360	208.881	-9.260	179.118	7.1161e-05	0.00034775	7.1143e-05	1263.6	1.0985e-06	3.1316e-06	1333.9	262.19	1.3331e-06	2.4364e-06	328.61	91.452	71.438	20.975	5.8844e-07	29.239	4.2335e-05	3.9109e-05	9.9473e-06	909.2	4.4228e-07	4.261e-07	1191.8	232.79	4.4225e-07	4.0849e-07	278.63	79.006	62.013	17.838	3.6703e-07	24.642	190.420	3.067	-49.733	-82.418	92.594	-3.189	-82.449	-75.531	-26.359	79.001	-75.755	-69.344	-69.280	-62.442	8.302	-62.177	-8191	255	
6702.783	1	1	0	0	0.085322	0.16877	0.15271	0.19902	0.23445	0.15228	0.39318	0.20264	0.13267	0.077937	0.17849	0.072155	0.10775	0.093968	0.18227	0.021189	-2.4375	-2.5625	-2.4354	-2.8563	-2.6146	-2.4875	-3.1583	-2.5146	-2.9083	-2.8063	-2.4	-3.0062	-2.5125	-2.7833	-2.5292	-2.5208	-69.808	116.832	-15.343	220.641	197.582	-93.361	228.753	133.923	-1.850	157.525	225.561	177.038	224.559	256.720	77.034	237.421	0.00010529	0.00029117	6.0918e-05	1271.2	1.7102e-06	1.3649e-06	1327.3	260.39	1.0023e-06	1.4578e-06	328.6	90.595	71.546	20.778	1.3224e-06	29.219	4.0778e-05	3.5326e-05	9.0748e-06	910.51	4.1345e-07	3.7353e-07	1187.6	232.23	4.1613e-07	3.6825e-07	277.39	78.646	61.782	17.732	3.4307e-07	24.614	216.768	-30.006	-45.500	-82.691	18.811	-26.084	-82.445	-75.615	-77.590	51.881	-75.711	-69.422	-69.142	-62.042	-60.078	-62.207	-8191	255	
6702.879	1	1	0	0	0.074279	0.1774	0.1904	0.33097	0.06758	0.30253	0.28889	0.17105	0.14041	0.12843	0.2654	0.1352	0.054283	0.15958	0.22803	0.20753	-2.2938	-2.7083	-2.2167	-3.0958	-2.625	-2.4417	-3.1229	-2.2313	-2.7562	-2.7021	-2.6271	-2.9313	-2.6479	-2.6229	-2.8271	-2.35	-47.956	132.410	-26.797	264.890	194.530	41.249	228.893	124.401	227.254	-71.056	245.366	25.019	189.964	-62.996	46.585	210.084	6.2969e-05	0.00025127	4.2148e-05	1268	1.6958e-06	1.8826e-06	1323.8	260.08	5.5612e-07	5.9861e-07	325.5	90.362	71.263	20.661	4.4136e-07	29.302	3.8666e-05	3.32e-05	8.4959e-06	908.46	3.9304e-07	3.5188e-07	1185	231.19	3.8519e-07	3.4678e-07	276.07	78.462	61.585	17.681	3.4053e-07	24.612	244.923	-13.129	239.990	-82.904	42.000	27.182	-82.442	-75.765	-23.215	98.427	-75.769	-69.609	-69.377	-62.368	-8.322	-62.326	-8191	255	
6702.976	1	1	0	0	0.062749	0.19551	0.087407	0.12852	0.19501	0.024176	0.12004	0.1534	0.35768	0.25214	0.14854	0.20526	0.30617	0.025072	0.19322	0.10283	-2.4458	-2.4979	-2.4792	-2.8104	-2.575	-2.4229	-3	-2.6813	-2.4813	-2.7542	-2.2188	-2.7708	-2.5708	-2.4458	-2.7354	-2.5125	243.484	38.593	259.188	76.449	89.517	166.969	213.048	184.679	237.733	197.113	116.416	261.927	189.458	78.137	56.947	90.067	4.8115e-05	0.00022742	0.0001353	1246.4	2.4356e-06	3.3466e-06	1320.3	258.49	6.4035e-07	3.5841e-06	326.78	90.17	71.268	20.851	7.6712e-07	29.068	3.6188e-05	3.1631e-05	8.6372e-06	904.08	3.6969e-07	3.4763e-07	1183.3	231.16	3.7454e-07	3.446e-07	276	78.435	61.292	17.671	3.378e-07	24.47	204.252	-0.651	-44.032	-82.735	67.153	33.827	-82.391	-75.596	-18.560	-5.929	-75.642	-69.294	-69.024	-61.995	-13.853	-62.512	-8191	255	
6703.096	1	1	0	0	0.17315	0.1208	0.10272	0.10234	0.12847	0.25415	0.25491	0.014947	0.19895	0.16783	0.11752	0.055227	0.1754	0.053664	0.16438	0.13956	-2.4521	-2.7333	-2.3979	-2.8375	-2.5687	-2.4146	-3.0354	-2.75	-2.7812	-2.8438	-2.4813	-2.6833	-2.8937	-2.5667	-2.8333	-2.525	228.717	196.319	-90.803	220.524	-59.946	35.690	211.489	-22.935	53.519	61.450	235.249	9.043	187.095	-44.925	203.993	175.230	5.6096e-05	0.00034909	1.0889e-05	1258.1	1.2599e-06	8.1605e-07	1321.1	258.45	1.5179e-06	6.9251e-07	328.2	90.062	70.746	20.658	1.5718e-06	29.165	3.3817e-05	2.9748e-05	8.8527e-06	903.48	3.3903e-07	3.1985e-07	1180.5	230.36	3.3981e-07	3.0571e-07	275.85	78.181	61.091	17.589	3.4142e-07	24.416	205.442	-54.277	-60.358	-82.577	95.905	112.319	-82.337	-75.918	-27.145	66.409	-75.817	-69.172	-69.186	-62.160	-66.946	-62.598	-8191	255	
6703.192	1	1	0	0	0.1767	0.16172	0.14733	0.27589	0.18459	0.26598	0.29953	0.22241	0.17574	0.17193	0.15389	0.076332	0.10741	0.16779	0.28113	0.096168	-2.0354	-2.6396	-2.4625	-2.7583	-2.7625	-2.6542	-3.1396	-2.5667	-2.5667	-2.9208	-2.5583	-2.65	-2.7438	-2.6375	-2.7687	-2.5062	-72.023	201.184	75.834	159.201	239.372	160.720	193.394	197.191	236.470	45.389	179.646	157.447	122.271	-41.288	45.596	223.499	5.8623e-05	8.0778e-05	5.3535e-05	1247.7	1.7961e-06	2.517e-06	1317.4	257.1	5.5941e-07	1.3517e-06	325.37	89.944	70.255	20.679	1.182e-06	29.041	3.219e-05	2.7447e-05	8.8018e-06	897.82	3.2181e-07	3.0842e-07	1179.6	229.39	3.196e-07	2.9187e-07	274.7	77.876	60.751	17.58	3.397e-07	24.296	195.858	-33.889	-27.342	-82.572	47.656	29.575	-82.546	-75.554	39.505	37.550	-75.427	-69.240	-69.184	-62.251	-29.655	-61.902	-8191	255	
6703.287	1	1	0	0	0.12688	0.039659	0.08841	0.16276	0.095832	0.054837	0.26847	0.16054	0.045326	0.11965	0.087774	0.15834	0.21229	0.31713	0.16902	0.12324	-2.1583	-2.7146	-2.6688	-2.6354	-2.8854	-2.5021	-2.9208	-2.7188	-2.6583	-2.7333	-2.4042	-2.7792	-2.7729	-2.4479	-2.7771	-2.5729	18.960	66.019	44.956	150.832	237.775	133.828	175.048	-62.411	167.203	135.284	177.981	155.942	101.104	214.921	20.307	239.896	9.1051e-05	1.4958e-05	2.9443e-05	1255.2	1.1387e-06	2.5805e-07	1309.1	257.65	1.9465e-06	1.7893e-06	325.12	90.057	70.416	20.442	1.7935e-06	29.108	2.9688e-05	2.6768e-05	8.4419e-06	895.72	2.931e-07	2.9004e-07	1174.3	228.67	2.9443e-07	2.9259e-07	274.76	77.842	60.749	17.457	3.2378e-07	24.242	229.695	-28.334	-93.138	-82.725	77.858	-44.334	-82.410	-75.594	-61.306	-67.631	-75.740	-69.424	-68.793	-62.237	27.307	-62.261	-8191	255	
6703.360	1	1	0	0	0.20596	0.14716	0.090029	0.10418	0.05967	0.16955	0.44346	0.084825	0.13347	0.072099	0.23486	0.094726	0.25131	0.18468	0.2342	0.10755	-2.0729	-2.8312	-2.475	-2.7292	-2.7417	-2.3833	-2.9396	-2.6333	-2.3146	-2.7	-2.5292	-2.6125	-2.9313	-2.4271	-2.7542	-2.6208	140.869	121.533	-73.027	230.233	180.292	-64.958	-92.333	190.914	181.966	195.658	137.839	175.458	66.844	-70.872	8.856	221.996	4.6959e-05	0.0002771	6.3722e-05	1241.4	1.6973e-06	4.7433e-07	1309.6	256.71	8.3213e-07	2.2905e-06	322.84	89.498	70.25	20.676	1.5842e-06	29.232	2.8128e-05	2.7192e-05	8.1695e-06	891.75	2.7488e-07	2.999e-07	1171.4	227.77	2.8206e-07	2.9253e-07	273.35	77.467	60.539	17.503	3.0304e-07	24.218	192.848	-23.056	-27.235	-82.882	84.024	131.202	-82.335	-75.366	192.725	-14.035	-75.848	-69.269	-69.218	-61.832	-2.336	-62.617	-8191	255	
6703.481	1	1	0	0	0.21557	0.21621	0.050059	0.22558	0.1521	0.17589	0.38092	0.16805	0.19489	0.20685	0.14358	0.11598	0.071684	0.15894	0.13333	0.11838	-2.1312	-2.7917	-2.6833	-2.6396	-2.8292	-2.5875	-2.9688	-2.825	-2.5062	-2.9	-2.7146	-2.5229	-2.7104	-2.4354	-2.5875	-2.9354	47.601	123.127	-28.324	-78.481	110.017	49.948	197.525	138.969	14.543	-69.336	102.045	214.734	77.985	262.006	27.828	-72.087	5.2719e-05	0.0001363	8.8616e-05	1241.8	5.242e-07	1.2962e-06	1299.7	255.43	3.1432e-07	2.0648e-06	323.26	89.521	70.095	20.324	4.1629e-06	28.961	2.6648e-05	2.7631e-05	7.4373e-06	887.8	2.6123e-07	2.9341e-07	1167.1	227.12	2.6587e-07	2.9335e-07	272.51	77.346	60.216	17.377	2.7782e-07	24.058	201.969	-22.419	259.820	-82.471	20.682	38.508	-82.351	-75.486	103.868	-41.587	-75.761	-69.240	-69.004	-61.843	-4.105	-62.385	-8191	255	
6703.575	1	1	0	0	0.042132	0.19007	0.41875	0.27113	0.12272	0.15297	0.054179	0.31631	0.19042	0.21132	0.083842	0.16535	0.11768	0.2467	0.12373	0.11904	-2.0833	-2.8771	-2.5771	-2.6188	-2.9979	-2.4333	-2.8125	-3.0312	-2.2812	-2.6083	-2.7854	-2.4104	-2.8	-2.5854	-2.6479	-2.8937	-71.017	-51.738	168.208	208.554	124.082	-42.035	-6.243	-51.315	18.933	243.979	39.346	219.251	10.294	70.439	159.615	215.057	7.4242e-05	1.4229e-05	6.9194e-05	1243	7.6231e-07	1.977e-06	1302.9	255.89	2.0538e-06	2.6759e-06	322.36	89.221	69.894	20.503	1.1067e-06	28.838	2.6171e-05	2.6584e-05	6.8336e-06	885.94	2.6417e-07	2.9414e-07	1165.1	226.33	2.8047e-07	2.9229e-07	272.15	77.161	60.278	17.404	2.7463e-07	24.065	191.464	-73.059	-54.292	-82.731	158.994	11.730	-82.342	-75.614	17.149	8.059	-75.790	-69.310	-68.980	-62.460	-25.991	-62.156	-8191	255	
6703.671	1	1	0	0	0.10698	0.17379	0.14922	0.19005	0.21353	0.14265	0.086223	0.12265	0.12112	0.25276	0.092169	0.077228	0.20371	0.14774	0.11065	0.34215	-2.1813	-2.6646	-2.6771	-2.4542	-2.8229	-2.65	-2.7812	-3.0583	-2.4604	-2.6688	-2.5375	-2.6688	-2.9771	-2.6396	-2.4417	-2.8812	-29.722	96.658	206.274	-45.546	16.539	79.456	-49.980	162.571	-77.065	-22.686	24.390	-81.651	-46.583	160.157	54.928	43.703	7.1495e-05	0.00016299	3.209e-05	1232	7.4256e-07	2.6406e-06	1306.6	254.25	9.066e-07	1.5435e-06	321.92	89.227	69.962	20.648	1.3354e-06	28.737	2.8144e-05	2.7001e-05	6.9006e-06	882.68	2.8468e-07	2.9753e-07	1163.5	225.96	2.9871e-07	2.9423e-07	271.69	77.22	60.28	17.437	2.7201e-07	24.025	211.876	-5.448	-14.631	-82.649	125.749	32.679	-82.368	-75.439	-60.854	-56.566	-75.826	-69.161	-69.166	-62.073	31.717	-62.453	-8191	255	
6703.792	1	1	0	0	0.16765	0.16133	0.071937	0.10386	0.17324	0.24922	0.15743	0.21265	0.1814	0.18502	0.007409	0.066744	0.17468	0.12185	0.11425	0.17803	-2.0604	-2.5104	-2.6542	-2.4646	-2.6937	-2.7958	-2.6125	-2.9833	-2.2354	-2.6437	-2.7458	-2.6	-2.7896	-2.5687	-2.2417	-2.7854	96.548	158.467	176.648	165.882	169.274	34.799	262.634	-23.299	43.587	-0.936	-72.923	242.578	171.567	149.998	243.413	-66.448	9.7732e-05	9.0071e-05	4.9182e-05	1236	1.0806e-06	1.2146e-06	1300.2	254.61	8.5761e-07	2.3279e-06	322.86	88.719	69.73	20.421	1.5008e-06	28.78	2.9826e-05	2.6869e-05	6.8574e-06	882.46	3.0489e-07	2.8786e-07	1162.3	225.82	3.1888e-07	2.8533e-07	270.93	76.947	60.252	17.377	2.7147e-07	24.052	211.514	-35.234	-66.556	-82.524	105.092	193.747	-82.289	-75.528	239.145	17.604	-75.515	-69.424	-68.756	-62.089	0.014	-62.313	-8191	255	
6703.888	1	1	0	0	0.01651	0.044569	0.27693	0.12513	0.27851	0.15374	0.10691	0.17265	0.16969	0.081376	0.41489	0.24552	0.22859	0.27236	0.065526	0.20628	-1.925	-2.4375	-2.8042	-2.4542	-2.7396	-2.5958	-2.6083	-2.9458	-2.4104	-2.5979	-2.7687	-2.4375	-2.9688	-2.4458	-2.4146	-2.7521	232.803	19.846	-74.618	95.078	229.512	25.900	231.066	197.811	231.926	216.163	199.058	16.881	-14.394	-50.971	-65.072	18.070	9.3173e-05	0.00020307	7.474e-05	1233.7	1.5848e-06	3.4366e-06	1298.1	253.26	1.2985e-06	2.4334e-06	321.52	89.001	69.651	20.344	1.1189e-06	28.829	3.0272e-05	2.6285e-05	6.5777e-06	883.37	3.1182e-07	2.8035e-07	1161.2	225.28	3.078e-07	2.8163e-07	271.08	76.947	60.211	17.273	2.5871e-07	24.013	204.280	-69.822	250.784	-82.618	49.548	0.934	-82.643	-75.738	56.745	-32.920	-75.835	-69.198	-68.790	-61.928	10.245	-61.952	-8191	255	
6703.984	1	1	0	0	0.12387	0.20527	0.075702	0.29741	0.095329	0.08917	0.28876	0.30744	0.10066	0.19017	0.10104	0.087592	0.12807	0.07253	0.18106	0.273	-2.0896	-2.5229	-2.5312	-2.5083	-2.5479	-2.7188	-2.6875	-2.7417	-2.3729	-2.6583	-2.8917	-2.5375	-2.8083	-2.5771	-2.5646	-2.7167	46.842	0.644	122.581	-67.433	-19.828	-72.019	102.693	201.592	225.283	72.579	112.558	150.419	242.502	-29.223	139.574	85.517	6.1224e-05	0.00021804	6.331e-05	1237.1	5.6581e-07	2.3892e-06	1300.1	254.41	8.5062e-07	1.0136e-06	318.44	89.04	69.783	20.396	1.7038e-06	28.962	2.8318e-05	2.4535e-05	6.3119e-06	883.92	2.9269e-07	2.607e-07	1160.3	225.71	2.967e-07	2.6598e-07	270	76.841	60.244	17.336	2.5992e-07	24.145	218.315	-50.267	-88.474	-82.653	78.933	51.583	-82.193	-75.330	88.977	7.135	-75.722	-68.999	-69.117	-61.926	-10.579	-62.467	-8191	255	
6704.080	1	1	0	0	0.13793	0.10765	0.078651	0.15832	0.14382	0.20871	0.3318	0.16962	0.19772	0.094986	0.049851	0.34833	0.14408	0.11003	0.12762	0.029593	-2.3125	-2.5438	-2.7	-2.3438	-2.5375	-2.85	-2.3729	-2.8229	-2.6646	-2.5104	-2.8375	-2.5917	-2.6333	-2.8187	-2.4042	-2.8	-31.593	36.339	195.689	171.605	-28.239	108.698	175.459	221.313	60.530	247.594	-10.041	242.591	16.405	263.910	255.919	131.845	6.4795e-05	0.00030155	5.3704e-05	1234.6	1.6748e-06	1.3887e-06	1298	254.04	1.3706e-06	1.6203e-06	321.05	88.933	69.733	20.379	2.1549e-06	28.908	2.8278e-05	2.4307e-05	6.4864e-06	882.58	2.8681e-07	2.5302e-07	1159.3	225.9	2.8588e-07	2.6502e-07	270.86	77.199	60.215	17.309	2.8363e-07	24.151	205.193	-38.343	-81.996	-82.664	43.266	41.744	-82.375	-75.577	90.553	-47.370	-75.415	-69.139	-68.919	-61.834	25.503	-62.141	-8191	255	
6704.177	1	1	0	0	0.30309	0.15231	0.22079	0.37261	0.13415	0.073875	0.14789	0.22487	0.29069	0.07699	0.20688	0.22797	0.10073	0.19875	0.23639	0.44788	-2.1646	-2.4292	-2.7708	-2.4562	-2.6562	-2.8021	-2.5854	-2.8417	-2.6833	-2.3833	-2.9458	-2.2438	-2.6104	-2.7458	-2.6688	-2.5792	226.149	88.735	138.898	110.682	59.928	223.465	244.043	179.830	-91.425	172.428	-19.454	184.978	242.813	-15.338	-39.895	216.002	7.6955e-05	0.00013932	8.127e-05	1227.4	1.4067e-06	7.817e-07	1295	253.29	6.9858e-07	1.5799e-06	321.11	89.164	70.098	20.343	1.3797e-06	29.024	2.7321e-05	2.4726e-05	6.9503e-06	882.35	2.7893e-07	2.5616e-07	1160.1	225.83	2.8546e-07	2.6583e-07	271.56	77.13	60.278	17.337	3.0402e-07	24.2	212.052	28.523	-62.063	-82.753	7.149	31.740	-82.393	-75.459	119.228	-24.229	-75.679	-69.285	-69.129	-61.971	4.974	-62.305	-8191	255	
6704.273	1	1	0	0	0.17204	0.097341	0.12907	0.27363	0.11002	0.18857	0.077928	0.22549	0.057289	0.037347	0.15999	0.10688	0.044946	0.055323	0.22834	0.10882	-2.4125	-2.5229	-2.7458	-2.4771	-2.6937	-2.7083	-2.7458	-2.6771	-2.7562	-2.4	-2.9833	-2.4062	-2.6813	-3.0021	-2.5583	-2.6208	31.026	-1.209	234.651	253.574	38.988	28.310	115.848	261.456	119.615	-82.774	209.570	149.592	118.765	-3.043	132.333	-68.853	8.8039e-05	8.9719e-05	5.8843e-05	1244.8	7.1695e-07	3.2822e-06	1303.9	255	1.0632e-06	2.7284e-06	320.98	89.014	70.107	20.541	6.3387e-07	28.852	2.7561e-05	2.4746e-05	7.4833e-06	887.18	2.7992e-07	2.5622e-07	1163.7	226.09	2.8549e-07	2.6524e-07	271.19	77.072	60.225	17.383	3.0685e-07	24.113	213.243	-63.123	-83.004	-82.613	173.817	36.336	-82.254	-75.598	35.334	-2.016	-75.853	-69.410	-69.066	-62.223	-65.881	-62.329	-8191	255	
6704.369	1	1	0	0	0.1544	0.26279	0.062795	0.066105	0.31536	0.29435	0.35463	0.31379	0.054629	0.17611	0.022334	0.3898	0.029338	0.22001	0.1167	0.043077	-2.4625	-2.35	-2.7646	-2.6604	-2.3167	-2.9813	-2.5687	-2.575	-2.6375	-2.4771	-2.7854	-2.5833	-2.275	-2.8708	-2.4958	-2.7938	-36.454	108.110	-52.208	198.806	-84.665	-21.248	220.393	203.966	-82.227	-91.762	-74.480	218.651	96.428	54.165	-74.361	214.440	7.98e-05	0.00011119	3.3809e-05	1229.8	8.5137e-07	1.9096e-06	1298.4	255.17	1.4646e-06	2.2262e-06	322.45	88.94	70.101	20.663	1.6504e-06	28.975	2.6348e-05	2.4981e-05	7.7926e-06	882.63	2.7798e-07	2.6888e-07	1162.3	226.12	2.7962e-07	2.8299e-07	272.14	77.223	60.217	17.427	3.1267e-07	24.184	181.951	0.640	-77.901	-82.340	39.479	78.967	-82.373	-75.459	90.968	-6.663	-75.733	-69.360	-68.895	-61.626	-39.371	-62.435	-8191	255	
6704.488	1	1	0	0	0.092396	0.17493	0.21856	0.16957	0.12148	0.14623	0.23879	0.17451	0.087526	0.12793	0.26313	0.1298	0.17055	0.17529	0.10763	0.055141	-2.4083	-2.4521	-2.6312	-2.4646	-2.4167	-2.6792	-2.7125	-2.6188	-2.7875	-2.4792	-2.7062	-2.625	-2.5458	-2.9146	-2.6437	-2.475	24.484	265.246	-26.308	211.703	102.249	175.839	125.842	197.694	59.416	112.162	158.655	-48.465	-81.224	43.998	-72.442	-59.555	5.9533e-05	0.0003154	4.8897e-05	1226.4	1.4052e-06	9.954e-07	1303.8	253.61	1.0933e-06	1.6565e-06	323.15	88.695	69.561	20.49	1.1988e-06	29.146	2.6562e-05	2.7059e-05	7.9676e-06	883.34	2.7522e-07	2.9259e-07	1163.9	225.82	2.7144e-07	2.9881e-07	272.41	77.191	60.102	17.454	3.0462e-07	24.192	201.654	-44.080	-74.344	-82.488	-46.857	44.117	-82.469	-75.382	-40.168	59.828	-75.884	-69.383	-69.499	-62.313	-45.673	-62.323	-8191	255	
6704.584	1	1	0	0	0.1842	0.16343	0.19508	0.16141	0.077789	0.2313	0.33967	0.064743	0.027756	0.11373	0.23066	0.12423	0.12068	0.09401	0.048293	0.1004	-2.4917	-2.3312	-2.6521	-2.7792	-2.1583	-2.8375	-2.4188	-2.6854	-2.8125	-2.3396	-2.7271	-2.7021	-2.575	-2.7917	-2.5229	-2.35	86.424	-45.051	192.844	248.919	78.454	67.140	227.450	261.208	-32.815	60.670	129.631	205.200	141.671	35.075	33.174	-71.756	0.00012516	0.00018443	4.0055e-05	1237.7	1.3063e-06	2.4518e-06	1302	254.22	2.8645e-07	2.0269e-06	320.63	89.203	70.229	20.491	2.1998e-06	28.985	2.6331e-05	2.8098e-05	7.5658e-06	883.2	2.7569e-07	3.0371e-07	1163.5	225.97	2.7477e-07	3.1536e-07	271.51	77.175	60.273	17.421	2.9452e-07	24.159	194.568	-11.042	-32.700	-82.280	91.417	22.676	-82.445	-75.689	-29.894	47.464	-75.724	-69.217	-68.650	-61.978	-12.109	-62.295	-8191	255	
6704.656	1	1	0	0	0.19839	0.14855	0.37701	0.02378	0.19955	0.0632	0.1173	0.22478	0.096433	0.10279	0.12787	0.093234	0.061781	0.082671	0.066975	0.26829	-2.3167	-2.5312	-2.4062	-2.7729	-2.4167	-2.8063	-2.8688	-2.6292	-2.8021	-2.7375	-2.7604	-2.6854	-2.4604	-2.6333	-2.6854	-2.4104	-57.595	13.824	211.881	17.927	119.687	58.100	241.757	259.990	-58.015	-53.291	198.973	-70.796	-88.612	82.665	154.657	258.380	0.00010772	0.00012958	5.0559e-05	1233.9	8.1928e-07	1.2238e-06	1296.4	254.94	6.3863e-07	1.9227e-06	321.63	89.891	69.5	20.468	8.2171e-07	29.116	2.6863e-05	2.7798e-05	7.3165e-06	881.76	2.7727e-07	2.9913e-07	1160.4	226.03	2.8089e-07	3.0664e-07	271.12	77.142	60.144	17.438	2.7788e-07	24.159	169.726	32.943	-72.292	-82.552	194.362	41.447	-82.332	-75.600	-48.138	-14.905	-75.806	-69.167	-68.901	-62.123	-29.129	-62.187	-8191	255	
6704.752	1	1	0	0	0.38335	0.43404	0.13893	0.072913	0.38236	0.29164	0.072586	0.039989	0.22292	0.021341	0.18914	0.043115	0.041054	0.066124	0.20199	0.15996	-2.3021	-2.4729	-2.5854	-2.8104	-2.5229	-2.7125	-2.6583	-2.6604	-2.925	-2.5875	-2.5438	-3.0667	-2.5125	-2.6125	-2.6333	-2.4604	164.947	121.494	-48.690	217.969	-44.244	106.963	232.401	79.933	56.135	17.816	170.405	115.225	263.134	230.075	-2.313	245.857	6.9165e-05	0.00025084	1.3181e-05	1226	1.7286e-06	3.1818e-06	1293.8	254.19	7.561e-07	2.6759e-06	321.49	88.96	69.436	20.475	1.664e-06	29.111	2.8202e-05	2.7721e-05	6.9723e-06	878.76	2.9228e-07	2.9892e-07	1159.2	225.81	2.9878e-07	3.0099e-07	271.26	76.886	60.228	17.412	2.7467e-07	24.199	235.082	-42.981	248.897	-82.473	25.697	45.755	-82.367	-75.183	-41.460	21.077	-75.203	-69.105	-68.768	-61.897	-44.225	-62.094	-8191	255	
6704.872	1	1	0	0	0.15847	0.22841	0.26107	0.16067	0.1435	0.16606	0.15153	0.108	0.080724	0.028858	0.1088	0.26597	0.12442	0.19478	0.22933	0.058908	-2.5458	-2.375	-2.5458	-2.6562	-2.4479	-2.8229	-2.7854	-2.6125	-2.7562	-2.5667	-2.6521	-2.9646	-2.4479	-2.4958	-2.925	-2.375	234.287	98.574	63.106	222.500	145.368	250.509	199.665	-86.746	149.494	230.009	19.570	-90.991	129.682	174.477	49.014	41.207	5.7927e-05	9.3899e-05	8.1361e-05	1227.8	1.2515e-06	6.0406e-07	1299.2	254.36	1.2536e-06	2.9565e-06	320.4	88.731	70.238	20.527	1.9855e-06	29.117	2.961e-05	2.7062e-05	7.0763e-06	880.78	3.1829e-07	3.0314e-07	1158.5	225.89	3.2234e-07	2.8943e-07	271.17	76.974	60.471	17.443	2.6488e-07	24.219	183.331	-55.739	-49.304	-82.855	24.347	-20.296	-82.396	-75.443	0.369	25.264	-75.660	-69.394	-69.225	-62.245	-8.004	-62.186	-8191	255	
6704.968	1	1	0	0	0.087403	0.087634	0.16749	0.15763	0.15538	0.15242	0.075385	0.37155	0.069876	0.20879	0.12698	0.15713	0.25516	0.29172	0.17287	0.067205	-2.5875	-2.3646	-2.475	-2.7333	-2.5979	-2.6396	-2.9271	-2.3937	-2.7167	-2.6312	-2.5687	-2.8812	-2.6229	-2.5021	-2.8771	-2.4979	102.427	96.128	56.774	163.357	123.562	95.636	154.256	189.361	223.990	68.671	-51.325	242.117	220.236	222.347	227.959	-73.526	5.255e-05	0.0002195	7.7496e-05	1227.9	1.7245e-06	3.1567e-06	1300.9	252.92	1.1235e-06	1.9057e-06	320.42	88.946	69.66	20.691	1.1502e-06	29.052	3.0247e-05	2.587e-05	6.7525e-06	881.5	3.1242e-07	2.8356e-07	1160.9	225.7	3.1274e-07	2.7596e-07	270.77	76.995	60.282	17.452	2.5822e-07	24.2	189.605	-34.220	-42.641	-82.491	-13.365	16.142	-82.311	-75.587	101.927	-7.762	-75.370	-69.449	-69.120	-61.842	5.313	-62.109	-8191	255	
6705.065	1	1	0	0	0.12598	0.26585	0.079755	0.23083	0.088614	0.096918	0.10291	0.28038	0.16476	0.097438	0.19087	0.05384	0.11942	0.39819	0.22326	0.063156	-2.5563	-2.625	-2.45	-3.0229	-2.4625	-2.4208	-2.8458	-2.5479	-2.6229	-2.7604	-2.5833	-2.8854	-2.525	-2.5208	-2.8146	-2.5583	90.012	35.665	111.629	86.742	215.902	-65.208	243.523	266.469	234.062	122.050	-20.967	1.426	262.314	-22.338	74.711	200.319	7.4314e-05	0.00014171	6.6207e-05	1227.5	1.7439e-06	2.1306e-06	1295.6	252.96	2.005e-06	1.9388e-06	320.26	89.178	69.795	20.555	1.0154e-06	28.938	2.9922e-05	2.4815e-05	6.7876e-06	881.94	3.0465e-07	2.7463e-07	1159.3	225.5	2.9988e-07	2.613e-07	270.99	77.166	60.245	17.396	2.5281e-07	24.202	219.244	-19.649	-45.293	-82.307	24.663	39.887	-82.281	-75.528	8.831	43.115	-75.436	-69.155	-68.788	-61.992	-56.754	-62.506	-8191	255	
6705.161	1	1	0	0	0.28034	0.11028	0.052191	0.15471	0.35259	0.21179	0.25039	0.08139	0.30303	0.053734	0.15921	0.05499	0.093997	0.21232	0.11009	0.075195	-2.2104	-2.5979	-2.3292	-2.8833	-2.5062	-2.4979	-3.025	-2.3396	-2.8438	-2.6604	-2.575	-3.0542	-2.6646	-2.3958	-2.95	-2.6625	-34.886	43.305	84.476	130.569	170.294	262.072	175.912	146.810	180.247	248.169	57.896	158.556	142.901	80.686	210.919	196.520	9.5665e-05	4.167e-05	3.4502e-05	1231.9	2.4854e-07	1.9367e-06	1294.1	253.83	5.4676e-07	1.6421e-06	321.16	88.83	69.573	20.551	1.0232e-06	28.778	2.8113e-05	2.3629e-05	6.5658e-06	882.07	2.8e-07	2.6405e-07	1158.7	225.61	2.8534e-07	2.5048e-07	271.04	76.946	60.094	17.385	2.569e-07	24.116	194.066	-67.027	-60.166	-82.653	118.308	-57.684	-82.305	-75.659	-18.000	-18.367	-75.624	-69.195	-68.975	-62.087	36.817	-62.033	-8191	255	
6705.257	1	1	0	0	0.18731	0.052933	0.13252	0.24262	0.10832	0.2345	0.16506	0.20926	0.15844	0.040783	0.15548	0.31677	0.15628	0.25622	0.31659	0.29826	-2.0458	-2.7979	-2.4917	-2.7208	-2.7083	-2.3917	-3.0396	-2.4583	-2.4604	-2.8187	-2.5167	-2.725	-2.6958	-2.4146	-2.8417	-2.7917	153.328	264.172	246.958	248.645	155.231	-30.500	-93.545	239.501	25.108	244.024	194.064	-87.389	263.389	-33.590	254.828	135.648	7.2815e-05	0.00025967	6.241e-05	1225.1	1.2806e-06	2.0085e-06	1293.6	254.93	2.1138e-06	3.9362e-07	321.46	88.908	69.467	20.641	4.8029e-07	28.925	2.642e-05	2.2102e-05	6.8229e-06	881.07	2.577e-07	2.4874e-07	1158.5	225.98	2.7867e-07	2.3444e-07	270.75	77.041	59.982	17.364	2.6535e-07	24.13	204.710	-44.751	-93.282	-82.398	24.837	38.487	-82.262	-75.687	14.691	-14.558	-75.839	-69.468	-69.263	-62.157	78.170	-62.730	-8191	255	
6705.353	1	1	0	0	0.12571	0.18221	0.14991	0.11331	0.11464	0.26778	0.21998	0.20351	0.13654	0.081612	0.20882	0.16462	0.2058	0.083188	0.22379	0.21573	-2.0271	-2.7021	-2.2875	-2.8042	-2.6021	-2.4083	-2.7979	-2.6688	-2.6562	-2.9125	-2.4125	-2.8042	-2.7333	-2.325	-2.6604	-2.6396	168.897	105.398	-9.545	199.484	260.302	27.770	130.551	191.768	111.100	96.935	175.427	132.845	193.379	201.557	-65.323	252.753	8.77e-05	6.9796e-05	2.7286e-05	1237.7	1.4601e-06	2.6611e-06	1290.1	254.46	5.98e-07	1.2212e-06	319.42	89.387	69.923	20.509	7.4714e-07	29.068	2.5878e-05	2.1678e-05	6.7901e-06	879.23	2.4782e-07	2.4324e-07	1157.3	225.32	2.6831e-07	2.393e-07	270.36	76.995	60.047	17.334	2.8308e-07	24.221	208.189	-1.086	-80.314	-82.536	31.342	79.485	-82.424	-75.404	247.842	-6.599	-75.870	-69.221	-69.258	-61.997	12.711	-61.969	-8191	255	
6705.472	1	1	0	0	0.17659	0.16759	0.089614	0.19039	0.34091	0.13351	0.17371	0.18907	0.17528	0.1302	0.15182	0.10776	0.2746	0.1626	0.13914	0.10447	-1.9271	-2.825	-2.3167	-2.6937	-2.85	-2.2167	-2.9	-2.7729	-2.3667	-2.7271	-2.4375	-2.7792	-2.75	-2.575	-2.725	-2.7542	239.903	251.301	162.262	198.349	118.503	33.596	200.626	190.557	-90.288	48.042	-72.341	233.394	266.080	255.571	-82.144	135.010	9.7311e-05	0.00019224	8.2347e-05	1240.7	5.4174e-07	3.2669e-06	1300.2	253.4	2.4133e-06	9.3075e-07	320.75	88.983	69.643	20.548	1.6792e-06	29.06	2.5934e-05	2.2791e-05	7.2904e-06	882.3	2.5239e-07	2.5116e-07	1159.2	224.67	2.5675e-07	2.5206e-07	270.64	76.815	59.874	17.367	2.8993e-07	24.131	197.195	-48.693	-60.577	-82.319	120.438	44.142	-82.203	-75.831	14.158	-47.328	-75.663	-69.103	-69.155	-62.167	-4.133	-62.097	-8191	255	
6705.568	1	1	0	0	0.25716	0.3192	0.058265	0.083261	0.088597	0.161	0.16568	0.13468	0.14803	0.039726	0.41158	0.12612	0.38726	0.13617	0.15521	0.26926	-1.9625	-2.6771	-2.3583	-2.5563	-2.6708	-2.4354	-2.9521	-2.6417	-2.5208	-2.7646	-2.6083	-2.4667	-2.8312	-2.4708	-2.6896	-2.6896	194.728	-28.291	207.894	119.647	-49.174	78.709	217.207	167.549	-58.962	-72.624	-92.979	138.948	231.729	-24.610	-53.095	214.582	8.373e-05	0.00024151	2.7675e-05	1223.2	1.1075e-06	1.501e-06	1299	253.91	1.1696e-07	5.3012e-07	320.98	88.753	69.675	20.491	3.4394e-07	28.892	2.5044e-05	2.3421e-05	7.0449e-06	877.91	2.4538e-07	2.6585e-07	1159.3	225.11	2.524e-07	2.6175e-07	270.36	76.777	59.877	17.359	2.7269e-07	24.041	221.110	9.515	257.283	-82.497	72.594	19.045	-82.246	-75.388	-23.909	-11.360	-75.782	-69.186	-69.205	-62.157	32.731	-62.730	-8191	255	
6705.664	1	1	0	0	0.1328	0.29128	0.088663	0.092236	0.094617	0.094202	0.077957	0.15746	0.14479	0.06116	0.19834	0.30143	0.085452	0.15151	0.20391	0.17948	-2.0312	-2.8104	-2.5187	-2.5458	-2.7417	-2.4104	-2.9021	-2.8729	-2.4313	-2.825	-2.6312	-2.6042	-2.8396	-2.4021	-2.4479	-2.9458	188.126	176.911	219.556	-87.458	38.271	169.541	182.587	259.021	-91.103	6.512	218.035	88.792	175.782	149.237	207.447	-0.149	7.9585e-05	0.00029346	4.4871e-05	1224.2	8.8875e-07	1.6953e-06	1295.8	252	1.6028e-06	1.6202e-06	319.18	88.863	68.838	20.376	4.1871e-07	28.795	2.402e-05	2.4144e-05	6.7283e-06	875.57	2.3432e-07	2.7432e-07	1155.4	224.26	2.4475e-07	2.6023e-07	269.52	76.562	59.702	17.335	2.5895e-07	24.005	199.152	-34.040	-47.347	-82.671	122.216	6.801	-82.284	-75.642	-27.577	34.151	-75.702	-69.491	-68.679	-61.851	15.949	-62.280	-8191	255	
6705.760	1	1	0	0	0.040108	0.081803	0.23699	0.30996	0.26907	0.17197	0.027036	0.096466	0.2839	0.28049	0.17847	0.050228	0.2496	0.24784	0.056743	0.041625	-2.0062	-2.7854	-2.4417	-2.5667	-2.9396	-2.5771	-2.8187	-2.8208	-2.2875	-2.6937	-2.6833	-2.3833	-2.65	-2.4896	-2.7396	-2.7646	235.805	245.330	-69.985	-68.055	133.791	61.079	-9.925	166.814	-66.699	-29.377	94.627	114.099	249.444	-45.304	79.276	-26.255	9.6354e-05	0.0001542	1.9464e-05	1224.8	3.7935e-07	2.2114e-06	1290.2	252.49	7.8045e-07	2.0829e-06	318.43	88.705	69.375	20.253	1.2036e-06	28.982	2.4388e-05	2.4346e-05	6.4042e-06	873.98	2.3974e-07	2.7246e-07	1154.5	224.06	2.5348e-07	2.6549e-07	268.64	76.587	59.803	17.277	2.4742e-07	24.007	192.926	-63.227	-12.916	-82.446	155.640	12.604	-82.298	-75.776	6.909	-41.411	-75.520	-69.135	-69.138	-62.008	1.069	-62.491	-8191	255	
6705.881	1	1	0	0	0.028823	0.15144	0.12383	0.13874	0.14261	0.10422	0.32217	0.23751	0.1081	0.13721	0.18476	0.10368	0.19958	0.14608	0.092726	0.16458	-1.7896	-3.0146	-2.5333	-2.4938	-2.9062	-2.65	-2.6354	-2.8542	-2.5729	-2.6146	-2.7	-2.3354	-2.8333	-2.5708	-2.6292	-2.8708	211.381	-37.144	201.324	-21.566	165.756	190.756	46.543	233.356	108.228	68.458	231.138	-35.700	263.311	114.809	235.416	188.332	7.8431e-05	0.00020158	3.389e-05	1232.4	4.9537e-07	2.4721e-06	1290.7	253.02	1.0676e-06	1.7371e-06	317.62	88.22	69.321	20.313	2.6273e-06	28.647	2.5746e-05	2.5013e-05	6.3018e-06	874.1	2.6017e-07	2.6864e-07	1153.7	223.99	2.7359e-07	2.6493e-07	268.81	76.39	59.763	17.295	2.5342e-07	23.949	193.197	-62.087	-42.089	-82.456	86.195	77.816	-82.358	-75.562	37.107	11.834	-75.553	-69.012	-68.813	-61.989	12.532	-62.230	-8191	255	
6705.953	1	1	0	0	0.16825	0.21342	0.18551	0.17035	0.15346	0.058456	0.20908	0.32689	0.17312	0.07989	0.182	0.1038	0.2228	0.096015	0.12189	0.1774	-1.9042	-2.5208	-2.7375	-2.2188	-2.5958	-2.475	-2.8396	-2.7979	-2.6688	-2.4375	-2.6354	-2.2833	-2.9292	-2.4813	-2.3583	-2.7979	-93.358	253.055	18.497	134.731	259.630	78.253	122.782	224.672	151.602	-80.881	257.076	176.898	-90.718	-38.282	-84.898	144.889	5.1032e-05	0.00013788	3.6499e-05	1226.9	1.275e-06	2.1148e-06	1292.4	252.07	1.075e-06	9.4594e-07	317.78	88.422	69.37	20.232	1.4583e-06	28.836	2.7165e-05	2.4001e-05	5.9806e-06	875.39	2.7235e-07	2.616e-07	1152.4	223.49	2.7582e-07	2.5744e-07	268.44	76.312	59.723	17.23	2.4091e-07	23.988	204.784	-45.079	-50.977	-82.136	57.597	73.162	-82.387	-75.654	13.502	5.020	-75.981	-69.308	-69.079	-62.149	-48.547	-62.616	-8191	255	
6706.049	1	1	0	0	0.14071	0.16187	0.12292	0.24473	0.032282	0.025133	0.322	0.32225	0.14527	0.18651	0.18072	0.18412	0.409	0.23798	0.1373	0.20971	-1.9583	-2.5646	-2.6354	-2.6	-2.6729	-2.8208	-2.5625	-2.9417	-2.4125	-2.6583	-2.8771	-2.3625	-2.8167	-2.5646	-2.2875	-3.0208	-14.211	216.427	27.913	240.289	129.963	253.696	-84.839	131.705	99.524	171.123	-91.761	-14.187	247.686	161.967	13.164	-60.193	8.1985e-05	0.00018992	7.3125e-05	1218.7	1.1937e-06	1.0277e-06	1292	251.85	7.6032e-07	1.3004e-06	316.51	88.285	69.376	20.413	2.375e-06	28.728	2.6808e-05	2.2989e-05	5.878e-06	872.09	2.7239e-07	2.4184e-07	1149.7	223.42	2.6993e-07	2.4617e-07	267.72	76.416	59.687	17.236	2.372e-07	23.957	212.830	-34.201	262.062	-82.434	27.447	26.916	-82.299	-75.743	-92.475	44.435	-75.704	-69.370	-68.773	-62.089	31.780	-62.188	-8191	255	
6706.169	1	1	0	0	0.12639	0.12553	0.11076	0.11068	0.081918	0.1132	0.086383	0.27658	0.20675	0.11621	0.22808	0.057539	0.48484	0.083089	0.1327	0.3604	-2.0917	-2.5417	-2.6896	-2.3917	-2.675	-2.6354	-2.6708	-2.8812	-2.7583	-2.5729	-2.9375	-2.4604	-2.6042	-2.8229	-2.3688	-3.0104	66.158	56.631	-14.802	129.758	89.184	17.219	-32.942	169.265	80.812	-10.935	130.122	248.017	46.958	140.314	48.367	207.160	6.6733e-05	0.00028674	6.1414e-05	1213.9	1.8769e-06	1.3722e-06	1284.9	252.45	2.1692e-06	7.7598e-07	318.51	88.261	69.424	20.515	1.6353e-06	29.033	2.5702e-05	2.2125e-05	5.6187e-06	869.8	2.6125e-07	2.3213e-07	1148.2	223.92	2.602e-07	2.3317e-07	268.53	76.403	59.573	17.239	2.284e-07	24.046	215.519	-60.059	-32.166	-82.665	75.986	38.089	-82.269	-75.197	9.912	20.352	-75.669	-69.064	-69.084	-62.144	13.786	-62.394	-8191	255	
6706.266	1	1	0	0	0.13116	0.006862	0.26564	0.1468	0.071109	0.12694	0.17267	0.20914	0.11795	0.25376	0.22722	0.11612	0.086402	0.11698	0.18843	0.15793	-2.1437	-2.5875	-2.5917	-2.5042	-2.725	-2.7979	-2.6	-3.0104	-2.6229	-2.4583	-2.8333	-2.5729	-2.6125	-2.8271	-2.2687	-2.8563	107.433	60.311	133.191	-47.120	184.830	187.969	102.919	70.750	125.270	-10.936	-82.120	207.116	-52.647	9.888	133.111	154.704	5.5628e-05	0.00017538	1.7377e-05	1216.6	1.204e-06	3.563e-06	1288.7	252.11	1.9581e-06	1.0977e-06	318.76	88.451	69.216	20.356	1.0844e-06	28.844	2.4919e-05	2.1289e-05	5.5744e-06	872.86	2.4825e-07	2.302e-07	1150.8	224.04	2.5493e-07	2.2955e-07	268.79	76.604	59.654	17.216	2.4016e-07	23.997	189.216	-47.227	25.970	-83.022	27.162	16.850	-82.543	-75.251	-21.198	7.979	-75.683	-69.554	-69.139	-61.763	63.131	-62.345	-8191	255	
6706.360	1	1	0	0	0.10942	0.11142	0.26618	0.34791	0.19139	0.062281	0.33388	0.073001	0.01124	0.13147	0.25858	0.11784	0.10119	0.068837	0.21491	0.16157	-2.1312	-2.4396	-2.825	-2.3521	-2.5604	-2.4833	-2.6021	-2.6146	-2.6854	-2.4146	-3.0021	-2.6063	-2.6708	-2.8896	-2.25	-2.8229	183.784	-88.097	211.483	214.614	-12.235	11.497	203.251	-27.534	115.144	147.084	242.351	234.424	197.202	177.278	249.801	-49.780	0.00010725	0.00025861	7.4199e-05	1218.9	2.1515e-06	2.1363e-06	1291.5	252.07	1.4929e-06	1.8775e-06	319.29	88.192	69.251	20.341	2.4615e-06	28.85	2.3733e-05	2.089e-05	5.8802e-06	873.78	2.4454e-07	2.1895e-07	1151.9	223.81	2.5197e-07	2.2857e-07	268.86	76.43	59.629	17.196	2.5574e-07	24.002	189.744	-5.190	-61.824	-82.812	27.673	16.219	-82.283	-75.475	26.623	5.520	-75.689	-69.303	-68.806	-62.187	13.039	-62.256	-8191	255	
6706.456	1	1	0	0	0.18013	0.14732	0.46285	0.073671	0.11137	0.091758	0.30572	0.15065	0.24366	0.072708	0.34626	0.04959	0.19941	0.18617	0.13641	0.1028	-2.35	-2.4417	-2.8583	-2.4292	-2.525	-2.8854	-2.4458	-2.8937	-2.5062	-2.4771	-2.8479	-2.7083	-2.3479	-2.8021	-2.3458	-2.7042	213.590	87.866	148.090	163.947	14.497	-66.194	207.915	-6.531	139.873	-15.399	199.073	157.740	257.632	216.035	231.298	33.335	6.3205e-05	0.00017661	4.7492e-05	1224.2	1.0953e-06	1.8942e-06	1289.5	252.97	1.0913e-06	1.4003e-06	319.8	88.402	69.343	20.318	1.0359e-06	28.723	2.4028e-05	2.1213e-05	6.4272e-06	872.71	2.4549e-07	2.2472e-07	1150.2	224.02	2.4302e-07	2.2805e-07	269.38	76.507	59.552	17.212	2.7137e-07	23.961	216.049	-50.694	264.176	-82.551	24.726	32.619	-82.502	-75.351	18.511	-12.680	-75.662	-69.279	-69.149	-62.106	14.802	-62.428	-8191	255	
6706.552	1	1	0	0	0.32054	0.11568	0.064447	0.078402	0.11795	0.20232	0.32992	0.21815	0.15943	0.14046	0.24272	0.034848	0.10059	0.073392	0.18569	0.24758	-2.3625	-2.4104	-2.6083	-2.5146	-2.6104	-2.7521	-2.6125	-2.6562	-2.7792	-2.2938	-2.8417	-2.6021	-2.3917	-2.8625	-2.4333	-2.525	196.885	55.106	255.985	263.925	236.560	60.186	213.629	208.799	62.177	225.578	-75.259	-69.101	240.013	-18.455	84.574	254.814	6.2496e-05	0.00011478	3.5023e-05	1225.5	5.0883e-07	2.1012e-06	1288.6	253.17	1.6709e-07	1.2785e-06	317.67	88.163	68.808	20.274	3.2586e-07	29.009	2.3908e-05	2.2099e-05	6.8576e-06	874.56	2.3824e-07	2.354e-07	1149.9	224.19	2.2809e-07	2.3543e-07	268.45	76.323	59.478	17.188	2.5882e-07	23.939	198.583	243.134	-3.993	-82.194	76.162	14.928	-82.251	-75.643	-61.288	104.971	-75.820	-69.330	-68.482	-62.382	-47.493	-62.387	-8191	255	
6706.648	1	1	0	0	0.36098	0.078931	0.061883	0.3952	0.019824	0.067687	0.28467	0.10849	0.28472	0.049692	0.26472	0.24112	0.13841	0.26772	0.037224	0.16426	-2.2833	-2.4562	-2.5771	-2.6771	-2.4542	-2.8125	-2.5917	-2.7917	-2.8833	-2.4042	-2.75	-2.875	-2.4917	-2.8854	-2.3354	-2.6146	224.503	-40.136	112.776	243.069	24.170	247.448	211.709	29.957	258.351	138.469	190.193	-84.831	-0.543	211.707	28.536	141.240	7.4979e-05	0.00020111	4.9599e-05	1220.1	8.7976e-07	1.323e-06	1288.7	251.91	7.0199e-07	1.1997e-06	318.24	88.006	69.561	20.414	2.0234e-06	28.721	2.2106e-05	2.2028e-05	6.3937e-06	871.02	2.2332e-07	2.2906e-07	1150.6	223.65	2.1727e-07	2.3307e-07	269.19	76.254	59.646	17.221	2.3537e-07	23.888	237.580	-35.959	-89.803	-82.298	27.562	33.766	-82.325	-75.725	140.676	-5.942	-75.755	-69.036	-69.232	-62.103	57.697	-62.328	-8191	255	
6706.745	1	1	0	0	0.16892	0.10528	0.22889	0.16827	0.08865	0.21739	0.23887	0.19678	0.16992	0.15329	0.20065	0.37992	0.046988	0.2785	0.21265	0.25161	-2.3854	-2.3708	-2.5083	-2.5104	-2.425	-2.8396	-2.5833	-2.6021	-2.6896	-2.55	-2.5667	-2.8458	-2.4771	-3.0979	-2.7458	-2.4896	201.749	-19.422	97.521	178.818	-56.293	49.823	-50.812	138.491	197.312	15.413	261.420	203.098	24.038	-50.046	186.305	261.450	8.8737e-05	0.00019047	4.194e-05	1217.4	1.0275e-06	8.2813e-07	1286.6	252.17	1.0548e-06	8.9753e-07	318.88	88.316	69.157	20.347	2.4409e-06	28.656	2.0333e-05	2.0997e-05	5.7336e-06	868.23	2.0913e-07	2.2588e-07	1147.9	223.18	2.1026e-07	2.2419e-07	268.3	76.242	59.375	17.211	2.1373e-07	23.838	202.692	-93.163	-90.614	-82.488	14.177	26.309	-82.256	-75.600	22.400	7.654	-75.575	-69.266	-69.261	-62.334	11.716	-62.408	-8191	255	
6706.841	1	1	0	0	0.040852	0.12114	0.3154	0.13654	0.15108	0.020875	0.073202	0.13944	0.32098	0.10392	0.22351	0.13855	0.032066	0.096123	0.13505	0.062452	-2.425	-2.3042	-2.5062	-2.6292	-2.3146	-2.7042	-2.7167	-2.3333	-2.6771	-2.4625	-2.5771	-2.6167	-2.5729	-2.6792	-2.6562	-2.6437	63.808	-0.855	24.467	202.854	72.188	15.492	122.141	193.837	86.512	94.695	-73.187	256.101	129.552	62.947	91.940	229.353	8.0587e-05	6.4685e-05	5.9566e-05	1223.4	9.7621e-07	2.2464e-06	1279.3	251.72	3.3903e-07	1.6047e-06	320.46	88.56	68.968	20.323	1.0845e-06	28.636	2.0212e-05	2.1019e-05	5.5469e-06	868.13	2.0985e-07	2.3104e-07	1145.6	222.97	2.1576e-07	2.2336e-07	268.26	76.287	59.386	17.189	2.0721e-07	23.833	210.039	10.995	-46.839	-82.577	37.317	34.079	-82.221	-75.685	-93.052	20.370	-75.579	-69.299	-69.163	-61.653	49.714	-62.541	-8191	255	
6706.961	1	1	0	0	0.062716	0.2134	0.050195	0.17177	0.10182	0.066318	0.23035	0.11009	0.028101	0.25921	0.12493	0.17916	0.11403	0.21067	0.18904	0.08773	-2.3479	-2.3438	-2.4583	-2.9396	-2.4896	-2.8146	-2.7229	-2.4521	-2.7083	-2.5458	-2.5625	-2.9125	-2.4562	-2.7229	-2.5375	-2.4646	-86.827	242.879	-79.588	231.576	177.329	199.982	-92.531	202.607	142.830	-36.376	242.604	227.046	55.181	-8.121	166.637	254.180	4.1516e-05	0.00015845	6.9564e-05	1210.2	1.4915e-06	2.5337e-06	1284.4	251.98	5.7063e-07	1.2383e-06	317.51	88.098	69.263	20.264	8.0567e-07	28.898	2.1632e-05	2.0885e-05	5.2771e-06	864.85	2.1851e-07	2.2953e-07	1146.1	222.97	2.3386e-07	2.2714e-07	267.98	76.133	59.463	17.216	2.0824e-07	23.894	197.332	-33.892	-71.929	-82.443	56.066	18.101	-82.283	-75.549	73.937	35.605	-75.510	-69.410	-68.753	-62.065	-17.760	-62.493	-8191	255	
6707.058	1	1	0	0	0.12568	0.21373	0.093112	0.17021	0.19174	0.1333	0.36017	0.21567	0.11679	0.29537	0.20729	0.12813	0.25937	0.20601	0.055445	0.14759	-2.2583	-2.5417	-2.5354	-2.7792	-2.4062	-2.6583	-2.8521	-2.6188	-2.6063	-2.575	-2.4417	-2.8167	-2.5396	-2.7104	-2.8146	-2.4333	198.461	220.605	76.684	245.046	158.666	176.645	181.493	-72.672	155.006	88.773	13.755	161.496	218.766	251.710	-14.055	232.875	6.1829e-05	0.00024669	4.0438e-05	1229.6	8.7615e-07	1.5913e-06	1286.5	251.61	5.37e-07	2.052e-06	319.25	88.377	69.2	20.284	1.2728e-06	28.886	2.3144e-05	2.0645e-05	5.3011e-06	868.36	2.3439e-07	2.23e-07	1147.5	223.2	2.4328e-07	2.2309e-07	268.63	76.263	59.609	17.198	2.07e-07	23.944	200.246	-17.552	-82.529	-83.131	123.796	9.514	-82.126	-75.685	-17.083	-3.675	-75.703	-69.369	-68.888	-61.557	33.924	-62.671	-8191	255	
6707.154	1	1	0	0	0.21602	0.14531	0.090098	0.25034	0.20168	0.047635	0.41394	0.22876	0.24791	0.11301	0.324	0.11587	0.2153	0.097714	0.16401	0.19851	-2.25	-2.4833	-2.4813	-2.9021	-2.4333	-2.6729	-2.8563	-2.5271	-2.6979	-2.6521	-2.5958	-2.7646	-2.5792	-2.4833	-3.0062	-2.4104	224.401	-74.650	92.984	-93.490	261.097	224.260	233.450	213.244	144.540	185.146	197.950	186.311	236.649	247.519	80.825	226.786	4.2081e-05	0.00030895	4.7794e-05	1218.8	5.6064e-07	1.7506e-06	1284.2	252.01	1.1739e-06	7.6636e-07	319.1	88.448	69.453	20.443	5.3065e-07	28.876	2.404e-05	1.9939e-05	5.3534e-06	867.89	2.4918e-07	2.2067e-07	1147.8	223.64	2.4975e-07	2.2264e-07	268.83	76.455	59.828	17.245	2.0579e-07	23.99	201.660	-55.755	-93.546	-82.446	101.819	52.449	-82.463	-75.629	-19.705	-59.972	-75.519	-69.275	-69.256	-62.228	47.358	-62.268	-8191	255	
6707.250	1	1	0	0	0.20097	0.096543	0.12313	0.07971	0.09921	0.052181	0.25544	0.099257	0.242	0.23035	0.13662	0.22865	0.25349	0.0522	0.14132	0.22249	-2.3167	-2.6083	-2.4521	-2.8458	-2.4458	-2.5687	-2.9208	-2.4854	-2.925	-2.5542	-2.5	-2.8208	-2.8083	-2.6417	-2.8208	-2.5229	234.688	-78.725	260.049	200.487	86.836	167.777	182.313	-45.305	-17.658	-12.765	190.995	-32.305	-77.953	-64.482	167.422	75.231	6.8647e-05	0.00022804	7.1978e-05	1208.7	2.0159e-06	1.2856e-06	1284.7	252.18	1.2002e-06	2.8606e-06	319.49	88.61	69.227	20.47	7.8814e-07	28.715	2.3959e-05	1.9771e-05	5.3267e-06	868.43	2.3999e-07	2.1884e-07	1148.5	223.93	2.3893e-07	2.195e-07	268.75	76.45	59.593	17.224	2.0631e-07	23.967	194.219	-23.490	-69.923	-82.598	40.019	51.714	-82.276	-75.506	-24.106	63.428	-75.748	-69.146	-68.820	-62.126	-10.714	-62.120	-8191	255	
6707.346	1	1	0	0	0.11361	0.12409	0.066113	0.032906	0.34498	0.22032	0.22786	0.41155	0.10479	0.024943	0.13803	0.21691	0.055829	0.14378	0.093552	0.034431	-2.2188	-2.7292	-2.3396	-2.7021	-2.325	-2.5875	-2.8729	-2.5146	-2.4313	-2.6937	-2.4396	-2.775	-2.5292	-2.3104	-2.8167	-2.4583	-6.056	80.770	192.599	211.595	150.508	189.045	223.330	107.647	201.017	174.502	216.451	-18.429	262.302	181.613	90.019	-51.865	9.1994e-05	0.00019796	5.4966e-05	1221.6	1.3584e-06	2.6551e-06	1285.2	251.73	1.3764e-06	2.8805e-07	319.75	89.075	69.736	20.384	1.1168e-06	29.081	2.3676e-05	1.9856e-05	5.4429e-06	873.7	2.3295e-07	2.2097e-07	1150.4	223.56	2.4149e-07	2.1362e-07	268.99	76.591	59.82	17.252	2.2249e-07	24.021	211.448	-38.015	-45.301	-82.887	68.417	28.826	-82.251	-75.261	35.373	25.191	-75.539	-69.175	-69.079	-62.055	13.151	-62.862	-8191	255	
6707.442	1	1	0	0	0.27054	0.056526	0.29014	0.11194	0.34445	0.097726	0.24237	0.067829	0.13543	0.11098	0.11381	0.16661	0.26054	0.16187	0.13108	0.22105	-2.1688	-2.7188	-2.4208	-2.6667	-2.6979	-2.35	-2.9042	-2.3708	-2.4792	-2.6917	-2.4958	-2.6542	-2.7083	-2.4479	-2.8229	-2.5021	-16.449	-70.321	109.662	-31.640	248.107	20.507	149.037	219.409	43.220	30.607	264.126	71.651	200.144	167.401	0.109	-69.168	3.2324e-05	0.00019033	3.5793e-05	1215.7	9.9312e-07	1.6702e-06	1291	252.35	7.0688e-07	1.8303e-06	319.03	88.711	69.504	20.388	1.7792e-06	28.842	2.3061e-05	1.9201e-05	5.8544e-06	872.39	2.3669e-07	2.1829e-07	1151.1	224.15	2.3953e-07	2.0804e-07	268.96	76.502	59.654	17.259	2.3465e-07	24.026	198.421	-40.344	4.907	-83.004	61.374	23.174	-82.213	-75.501	67.571	5.103	-75.824	-69.454	-68.875	-62.208	6.116	-62.435	-8191	255	
6707.561	1	1	0	0	0.096089	0.10322	0.29195	0.30945	0.063715	0.091654	0.16472	0.12827	0.27208	0.10622	0.08654	0.15171	0.20503	0.14547	0.13345	0.11675	-1.9896	-2.7542	-2.2667	-2.6833	-2.5646	-2.3063	-2.8187	-2.6167	-2.3312	-2.8125	-2.5104	-2.7104	-2.525	-2.4458	-2.6083	-2.8312	-78.616	35.973	256.761	-77.968	187.081	182.909	176.729	156.118	65.577	42.273	-55.686	-28.924	221.958	-17.815	71.690	205.659	8.4955e-05	0.00028547	3.4104e-05	1218.5	1.139e-06	1.2837e-06	1294.8	254.1	1.4768e-06	1.2193e-06	319.56	88.593	69.646	20.512	1.1782e-06	28.75	2.3192e-05	1.9248e-05	6.2602e-06	871.14	2.2379e-07	2.172e-07	1153.4	224.83	2.3631e-07	2.1866e-07	269.55	76.511	59.796	17.264	2.4978e-07	23.968	185.162	-34.557	258.728	-82.503	51.781	41.436	-82.275	-75.479	9.676	19.616	-75.565	-69.361	-69.101	-62.170	23.409	-62.532	-8191	255	
6707.657	1	1	0	0	0.29024	0.13073	0.11084	0.17061	0.11548	0.21351	0.2159	0.21269	0.028874	0.11078	0.20879	0.11175	0.15397	0.1196	0.060249	0.27061	-2.0167	-2.9021	-2.5146	-2.8396	-2.6021	-2.55	-2.7833	-2.7229	-2.4833	-2.7687	-2.2833	-2.6813	-2.8771	-2.5521	-2.7021	-2.6458	-41.946	31.606	179.196	235.359	164.532	80.969	235.635	155.250	224.488	161.456	227.290	25.376	129.773	205.760	-27.326	-73.310	6.6477e-05	5.2279e-05	3.64e-05	1222.5	8.261e-07	2.0079e-06	1292	253.07	1.399e-06	2.1973e-06	320	88.612	69.45	20.355	1.0897e-06	28.959	2.2529e-05	1.9766e-05	6.4795e-06	871.65	2.135e-07	2.2161e-07	1151.4	224.15	2.2903e-07	2.1938e-07	269.31	76.488	59.677	17.235	2.4494e-07	24.001	205.904	-38.758	-63.649	-82.391	71.231	25.191	-82.304	-75.650	-7.372	17.421	-75.525	-69.488	-68.885	-62.128	149.031	-62.135	-8191	255	
6707.753	1	1	0	0	0.27025	0.22293	0.10915	0.25698	0.31348	0.089963	0.26284	0.29709	0.14528	0.083278	0.073942	0.05363	0.24794	0.036615	0.23758	0.2009	-1.9271	-2.8667	-2.3021	-2.6354	-2.7083	-2.2917	-2.8917	-2.6542	-2.3875	-2.7	-2.6771	-2.4562	-2.9042	-2.4583	-2.8354	-2.6396	177.506	39.661	124.636	225.982	-32.014	-59.667	210.544	144.185	81.890	-49.240	202.344	-57.036	220.332	148.441	225.893	-19.106	5.6545e-05	0.00017376	6.9114e-05	1226.5	1.5354e-06	1.7064e-06	1283.6	251.38	8.8381e-07	2.3441e-06	318.04	88.413	69.167	20.321	3.5043e-06	28.906	2.1563e-05	2.0431e-05	6.0493e-06	869.78	2.0623e-07	2.3045e-07	1148.1	223.47	2.1773e-07	2.2786e-07	268.68	76.385	59.533	17.202	2.3369e-07	23.902	184.303	-23.164	-24.585	-82.726	41.675	42.922	-82.275	-75.435	-69.351	-1.073	-75.609	-69.275	-68.839	-61.934	-6.894	-61.997	-8191	255	
6707.849	1	1	0	0	0.24483	0.21987	0.057503	0.11033	0.18868	0.19389	0.40155	0.043665	0.24496	0.17905	0.13328	0.15503	0.18749	0.098896	0.18533	0.15682	-2.0292	-2.6708	-2.6896	-2.4292	-2.8187	-2.4958	-2.8875	-2.7729	-2.2687	-2.6375	-2.5833	-2.4792	-2.8917	-2.4938	-2.6063	-2.7188	-66.708	177.513	155.654	-3.338	88.882	224.206	161.403	-46.545	-7.118	-71.518	-16.716	188.882	226.608	40.117	221.307	36.249	4.2594e-05	3.8321e-05	4.362e-05	1221.5	6.3367e-07	2.5895e-06	1285.9	253.19	6.9424e-07	8.1733e-07	320.28	88.445	69.433	20.4	9.4856e-07	28.801	2.102e-05	2.1583e-05	5.887e-06	869.73	2.054e-07	2.3828e-07	1148.6	223.68	2.1988e-07	2.3591e-07	269.14	76.332	59.589	17.232	2.2995e-07	23.886	224.243	39.501	266.494	-82.738	104.714	8.859	-82.296	-75.418	217.489	24.010	-75.672	-69.116	-68.866	-62.243	-17.339	-62.456	-8191	255	
6707.946	1	1	0	0	0.10527	0.32931	0.099166	0.13447	0.17275	0.14024	0.050416	0.39807	0.2631	0.27346	0.042322	0.23286	0.13345	0.10189	0.22289	0.15655	-1.9708	-2.7146	-2.4729	-2.5021	-2.6896	-2.5312	-2.8729	-2.8667	-2.5729	-3.0208	-2.7292	-2.5687	-2.9042	-2.7167	-2.3542	-2.8417	191.675	178.029	262.054	115.580	80.159	4.511	129.953	227.086	98.079	-19.477	-85.564	231.677	-53.022	0.315	134.348	181.311	8.1453e-05	0.00016086	5.3868e-05	1220.9	1.3531e-06	1.6081e-06	1288.5	253.52	9.6834e-07	1.9412e-06	320.38	88.692	69.201	20.4	1.3091e-06	28.892	2.2597e-05	2.2185e-05	5.6289e-06	868.95	2.1815e-07	2.4971e-07	1150.2	224.25	2.3189e-07	2.423e-07	269.17	76.51	59.697	17.247	2.2648e-07	23.966	188.237	-26.866	-89.102	-82.268	-3.708	21.964	-82.353	-75.323	-15.137	51.609	-75.634	-69.376	-68.773	-61.930	49.556	-62.065	-8191	255	
6708.042	1	1	0	0	0.2705	0.096907	0.13402	0.24206	0.19882	0.25024	0.16016	0.24914	0.094006	0.20518	0.080538	0.065692	0.23031	0.20085	0.16393	0.27096	-2.0583	-2.7646	-2.5625	-2.5104	-2.775	-2.4688	-2.4313	-2.9979	-2.3688	-2.6792	-2.8063	-2.4083	-2.8312	-2.475	-2.5667	-2.9	35.264	98.590	32.195	197.264	259.906	223.335	150.213	171.791	-70.127	255.664	184.538	64.916	-89.091	129.621	4.600	-87.240	5.4974e-05	0.00024109	2.2815e-05	1216.2	3.1586e-07	5.3312e-07	1284.1	252.89	1.3821e-06	2.0367e-06	319.48	88.341	69.574	20.449	2.0568e-06	28.925	2.3983e-05	2.2082e-05	5.6072e-06	870.82	2.3118e-07	2.3634e-07	1149.7	224	2.4616e-07	2.4006e-07	268.62	76.456	59.729	17.235	2.2299e-07	23.946	188.422	-32.860	-56.911	-82.534	-6.926	-1.263	-82.220	-75.419	-54.715	7.931	-75.605	-69.430	-68.804	-61.858	15.369	-62.536	-8191	255	
6708.138	1	1	0	0	0.20193	0.2205	0.16028	0.11079	0.41234	0.19358	0.53214	0.12165	0.14359	0.094838	0.083923	0.25005	0.1674	0.098162	0.21938	0.27405	-1.9896	-2.7354	-2.7479	-2.4146	-2.9229	-2.4833	-2.6271	-2.9375	-2.4479	-2.5417	-2.8	-2.4208	-2.8354	-2.7396	-2.3271	-2.9708	119.733	253.576	-29.050	123.447	219.743	127.499	201.124	127.168	-13.560	95.957	-80.486	196.775	245.561	-39.804	203.374	179.230	7.2236e-05	7.6736e-05	3.7192e-05	1216.9	4.5247e-07	1.368e-06	1288.8	251.97	9.3131e-07	2.063e-06	321.22	88.357	69.455	20.437	9.5085e-07	28.784	2.4603e-05	2.2265e-05	5.5268e-06	867.52	2.5186e-07	2.3312e-07	1150.3	223.3	2.6187e-07	2.3387e-07	269.26	76.391	59.745	17.277	2.2563e-07	23.915	186.248	-24.648	265.589	-82.176	-26.493	-20.476	-82.142	-75.543	-28.608	4.172	-75.862	-69.254	-69.101	-61.513	-55.095	-62.411	-8191	255	
6708.257	1	1	0	0	0.15618	0.045585	0.14273	0.090112	0.33671	0.0704	0.24003	0.25345	0.084993	0.14554	0.27163	0.082491	0.13149	0.26985	0.15124	0.17443	-2.0938	-2.6937	-2.7396	-2.6146	-2.6188	-2.5375	-2.6229	-2.9542	-2.5146	-2.65	-2.7938	-2.4313	-2.7854	-2.4813	-2.5104	-2.9479	-88.464	121.199	148.925	-56.712	225.652	148.792	158.059	198.498	170.597	5.362	198.854	-72.010	-45.779	215.361	97.746	-53.210	8.4054e-05	0.00023656	5.4897e-05	1219.7	2.4022e-06	2.7696e-06	1287.5	252.96	8.8723e-08	1.8353e-06	318.91	88.863	69.297	20.311	6.6047e-07	28.762	2.5451e-05	2.1564e-05	5.474e-06	870.17	2.5221e-07	2.2912e-07	1148.8	223.73	2.5858e-07	2.3324e-07	268.68	76.566	59.638	17.205	2.2361e-07	23.955	184.137	-36.135	-64.628	-82.504	75.397	27.681	-82.285	-75.439	204.863	-32.712	-75.750	-69.151	-68.816	-61.630	256.293	-62.303	-8191	255	
6708.353	1	1	0	0	0.38001	0.23677	0.14793	0.14148	0.11142	0.21434	0.14546	0.38484	0.082741	0.18485	0.070611	0.17908	0.088592	0.065863	0.15307	0.11537	-2.0729	-2.4042	-2.7021	-2.4708	-2.6958	-2.6312	-2.4938	-2.9542	-2.5062	-2.6188	-2.7125	-2.6375	-2.6292	-2.5667	-2.4938	-2.6813	40.485	224.027	32.022	41.021	8.024	134.811	179.911	217.268	259.616	-86.543	25.177	-11.367	56.689	-47.415	153.957	-26.373	5.7568e-05	0.00021339	4.9143e-05	1229.4	1.5958e-06	8.7713e-07	1284.8	251.86	4.5809e-07	2.0508e-06	320.32	88.184	69.156	20.399	2.3865e-06	29.121	2.4521e-05	2.1241e-05	5.3444e-06	872.08	2.5642e-07	2.3134e-07	1149.7	223.77	2.6163e-07	2.3364e-07	269.01	76.514	59.745	17.255	2.3621e-07	24.082	208.703	-10.493	-85.234	-82.586	3.981	64.115	-82.155	-75.486	-49.138	-61.492	-75.652	-69.314	-69.227	-62.074	64.863	-62.330	-8191	255	
6708.426	1	1	0	0	0.16514	0.20152	0.27842	0.027839	0.080034	0.27883	0.10404	0.075533	0.14524	0.13663	0.26811	0.27465	0.17246	0.20753	0.061269	0.064231	-2.2771	-2.4437	-2.7354	-2.275	-2.7396	-2.7313	-2.4813	-2.8208	-2.4125	-2.4854	-2.8021	-2.6042	-2.6292	-2.8646	-2.1875	-2.6375	17.946	50.541	217.420	84.627	190.407	57.602	26.639	-51.127	-32.703	214.468	-17.528	222.342	166.094	18.592	72.809	76.269	6.6073e-05	0.00012628	5.6868e-05	1227	1.1065e-06	3.3436e-06	1287	252.11	5.9746e-07	3.3085e-06	322	88.749	69.503	20.494	2.4346e-06	28.899	2.5567e-05	2.2089e-05	6.0343e-06	875.78	2.5768e-07	2.3797e-07	1150.4	223.94	2.6565e-07	2.473e-07	269.4	76.664	59.829	17.28	2.5385e-07	24.077	205.002	-38.860	-9.996	-82.615	47.758	19.567	-82.070	-75.435	-30.095	-11.542	-75.535	-69.101	-69.202	-62.255	-1.249	-62.497	-8191	255	
6708.523	1	1	0	0	0.088861	0.11091	0.10269	0.13538	0.15509	0.099245	0.20139	0.17843	0.15401	0.23275	0.06649	0.25972	0.2143	0.30623	0.079948	0.31145	-2.3125	-2.4188	-2.7542	-2.3979	-2.575	-2.8292	-2.6625	-2.7562	-2.5583	-2.4562	-3.0208	-2.3875	-2.6333	-2.7021	-2.525	-2.8021	216.705	212.911	-32.860	-79.907	154.824	219.334	204.030	-85.746	-91.047	143.268	29.884	260.257	200.535	180.557	193.788	183.208	7.7909e-05	0.00017272	3.4066e-05	1218.6	1.5976e-06	1.4136e-06	1292.2	253.28	1.7282e-06	1.562e-06	319.57	88.745	69.659	20.447	2.2451e-06	28.932	2.5316e-05	2.259e-05	6.4146e-06	875.2	2.6094e-07	2.4313e-07	1154.5	225.04	2.7771e-07	2.5631e-07	269.56	76.66	59.809	17.291	2.9081e-07	24.179	201.926	-76.051	-27.090	-82.277	47.471	58.896	-82.420	-75.499	53.735	-25.244	-75.699	-69.544	-69.124	-61.785	-24.560	-62.153	-8191	255	
6708.641	1	1	0	0	0.10634	0.096955	0.099668	0.18411	0.057164	0.059947	0.12904	0.29112	0.14	0.18667	0.081221	0.225	0.27942	0.24023	0.25014	0.17306	-2.1375	-2.3208	-2.9354	-2.3292	-2.65	-2.9083	-2.5687	-2.7771	-2.7938	-2.4354	-3.0042	-2.6	-2.5375	-2.9417	-2.3896	-2.7583	169.707	112.420	185.194	-47.717	19.793	-50.426	250.732	-69.048	265.146	6.244	-59.788	-47.252	208.549	252.475	-60.809	-34.197	5.7292e-05	0.00017985	5.883e-05	1224.6	7.2454e-07	2.2458e-06	1286.3	253.21	9.5e-07	1.1628e-06	319.61	88.826	69.351	20.392	3.064e-06	29.025	2.6494e-05	2.3443e-05	7.3064e-06	877.12	2.834e-07	2.5714e-07	1155.4	225.26	2.8688e-07	2.8191e-07	270.72	76.92	59.867	17.339	3.2131e-07	24.098	208.951	11.505	229.941	-82.618	39.162	-6.467	-82.250	-75.235	14.480	37.116	-75.785	-69.250	-68.926	-62.088	68.390	-62.106	-8191	255	
6708.738	1	1	0	0	0.14391	0.13612	0.37054	0.17332	0.047804	0.14832	0.15334	0.054142	0.055779	0.095893	0.34954	0.33619	0.26047	0.21347	0.069739	0.28322	-2.3708	-2.3208	-2.8563	-2.8354	-2.5354	-2.9646	-2.7625	-2.6875	-2.7687	-2.3917	-2.9354	-2.5125	-2.5312	-2.9083	-2.4542	-2.7917	69.813	29.259	261.326	260.845	52.864	121.043	116.495	204.310	126.039	201.047	247.387	122.319	244.823	194.362	-42.699	252.700	5.0579e-05	2.692e-05	7.6774e-05	1231	1.8655e-06	2.9637e-07	1296.3	253.6	1.2456e-06	2.6822e-06	320.43	88.703	69.974	20.23	8.4487e-07	28.791	2.7398e-05	2.6175e-05	8.0158e-06	880.06	2.8373e-07	2.7053e-07	1157.5	225.31	2.7823e-07	2.8353e-07	270.93	76.744	59.939	17.31	3.1584e-07	24.084	189.403	55.316	-54.300	-82.546	75.157	244.499	-82.351	-75.449	-21.790	-29.463	-75.626	-69.260	-68.873	-61.779	9.802	-62.500	-8191	255	
6708.834	1	1	0	0	0.24278	0.081545	0.058918	0.22979	0.071049	0.032445	0.18453	0.27375	0.16352	0.23262	0.085817	0.12104	0.18325	0.19555	0.20211	0.083641	-2.4417	-2.4146	-2.9062	-2.8583	-2.5146	-2.8292	-2.6625	-2.7708	-2.6021	-2.6271	-2.7833	-2.7292	-2.2125	-2.925	-2.3	-2.6125	21.542	44.398	191.304	236.898	-62.850	21.243	4.196	214.296	110.419	5.737	259.642	126.273	150.612	260.900	-82.140	81.479	9.0924e-05	1.1241e-05	5.5347e-05	1222.8	7.2491e-07	1.3661e-06	1289.5	252.28	1.316e-06	1.2372e-06	320.15	88.518	69.753	20.272	3.0446e-06	28.915	2.5637e-05	2.5655e-05	7.5454e-06	876.91	2.6278e-07	2.6998e-07	1154.6	224.46	2.6106e-07	2.7553e-07	269.79	76.628	59.879	17.268	2.7677e-07	24.021	229.956	-83.490	-57.113	-82.409	9.113	5.287	-82.211	-75.439	2.955	39.461	-75.597	-69.504	-69.188	-62.098	8.714	-62.268	-8191	255	
6708.954	1	1	0	0	0.17378	0.46881	0.17763	0.10365	0.39222	0.40024	0.15313	0.26717	0.092461	0.23006	0.18859	0.12126	0.14754	0.092878	0.17378	0.24017	-2.3604	-2.3479	-2.5604	-2.8937	-2.4021	-2.8083	-2.6625	-2.6771	-2.9979	-2.5979	-2.8667	-2.7917	-2.7333	-2.7479	-2.625	-2.3979	229.629	121.743	59.099	186.679	195.138	136.839	231.218	257.794	0.325	-74.537	-72.217	214.148	-41.683	147.969	177.750	254.394	9.8709e-05	7.4488e-05	6.1571e-05	1228.6	5.5493e-07	1.0473e-06	1286.6	252.55	1.1796e-06	3.1786e-07	319.5	88.08	69.209	20.372	1.0804e-06	28.707	2.392e-05	2.5208e-05	6.7788e-06	875.51	2.4473e-07	2.6584e-07	1152.6	223.93	2.4228e-07	2.6739e-07	268.93	76.252	59.632	17.229	2.557e-07	23.867	206.854	-44.440	-54.880	-82.486	-23.187	-35.049	-82.392	-75.665	31.810	128.327	-75.714	-69.239	-68.942	-62.329	-20.182	-62.538	-8191	255	
6709.050	1	1	0	0	0.16052	0.36859	0.069921	0.059045	0.20092	0.13072	0.14311	0.44836	0.09508	0.24335	0.36807	0.1029	0.17789	0.31153	0.416	0.23665	-2.4396	-2.5625	-2.5979	-2.5896	-2.4938	-2.9562	-2.8042	-2.7021	-2.75	-2.5417	-2.7896	-2.7979	-2.6354	-2.7875	-2.6146	-2.7438	-49.569	14.080	52.843	43.855	134.891	196.721	223.201	196.784	-24.091	3.785	-84.916	-41.244	197.715	195.902	128.507	175.770	8.2633e-05	0.000233	7.3987e-05	1221.7	6.8298e-07	1.5873e-06	1286.9	251.75	4.2375e-07	1.16e-06	318.16	88.685	69.291	20.357	1.0694e-06	28.646	2.3356e-05	2.4508e-05	6.2811e-06	869.78	2.4313e-07	2.6075e-07	1149.6	223.18	2.4075e-07	2.5839e-07	268	76.091	59.394	17.194	2.3264e-07	23.816	209.245	-17.174	-82.416	-82.474	38.562	63.497	-82.276	-75.467	38.205	-18.317	-75.805	-69.514	-68.389	-62.027	6.784	-62.373	-8191	255	
6709.122	1	1	0	0	0.26586	0.0402	0.20347	0.11477	0.071794	0.12361	0.12309	0.33081	0.33322	0.40372	0.057092	0.24605	0.058366	0.30513	0.18067	0.23103	-2.3417	-2.4333	-2.5062	-2.7708	-2.5167	-2.9021	-2.875	-2.4104	-2.8542	-2.5521	-2.7208	-3.0438	-2.3958	-2.9229	-2.7958	-2.4354	157.890	197.218	-35.310	216.496	-21.826	-9.972	201.406	244.830	174.790	35.260	-73.540	136.584	184.459	-91.310	-77.942	248.120	6.9856e-05	0.00028289	6.9427e-05	1217.4	8.8249e-07	1.3506e-06	1283.8	251.07	1.4814e-06	1.9186e-06	319.93	88.062	68.758	20.232	1.8753e-06	28.584	2.4053e-05	2.3215e-05	5.814e-06	866.08	2.4611e-07	2.4746e-07	1144.3	222.51	2.4881e-07	2.4633e-07	268.1	76.239	59.379	17.186	2.2723e-07	23.782	193.245	-36.659	-89.686	-82.677	117.880	24.026	-82.409	-75.431	4.423	-10.361	-75.694	-69.480	-69.038	-61.747	-4.740	-62.414	-8191	255	
6709.243	1	1	0	0	0.13802	0.12274	0.089594	0.098599	0.21312	0.22326	0.30478	0.35857	0.096554	0.31638	0.33493	0.29598	0.16366	0.16117	0.14252	0.18925	-2.3167	-2.8063	-2.4667	-2.7896	-2.5396	-2.7042	-2.7562	-2.4354	-2.75	-2.5375	-2.5979	-2.8833	-2.5	-2.6646	-2.7042	-2.5521	165.424	90.588	-42.905	-51.037	49.670	156.359	225.381	227.777	12.999	121.895	242.278	162.461	-28.752	163.669	-51.051	-40.498	8.4535e-05	0.00021127	5.5014e-05	1216.1	1.0356e-06	1.7345e-06	1279.7	250.02	2.8158e-07	7.1989e-07	317.69	87.959	69.361	20.246	9.8706e-07	28.843	2.4435e-05	2.1881e-05	5.6499e-06	864.05	2.5129e-07	2.3392e-07	1143.1	222.16	2.4643e-07	2.2817e-07	267.37	76.007	59.365	17.108	2.0902e-07	23.873	173.868	-84.664	-90.257	-82.459	-10.914	18.899	-82.258	-75.268	265.918	23.829	-75.498	-69.189	-68.879	-61.925	28.757	-62.358	-8191	255	
6709.337	1	1	0	0	0.087091	0.1809	0.21563	0.30259	0.15701	0.22335	0.20959	0.33987	0.25424	0.1582	0.26084	0.13741	0.19523	0.12539	0.22264	0.24426	-2.3187	-2.65	-2.4229	-2.7771	-2.7562	-2.525	-2.9771	-2.2708	-2.7687	-2.4729	-2.4188	-2.8042	-2.5479	-2.6792	-2.6979	-2.4479	230.542	-75.317	157.104	213.879	217.842	-22.073	227.406	120.292	185.726	253.317	198.088	226.875	-39.071	232.251	106.737	229.560	6.6573e-05	9.9517e-05	5.1221e-05	1210.8	1.7108e-06	2.6606e-06	1281	251.55	1.4853e-06	1.5058e-06	317.44	88.392	69.231	20.269	2.704e-06	28.636	2.4135e-05	2.0177e-05	5.4244e-06	864.2	2.4608e-07	2.2269e-07	1143.8	222.79	2.54e-07	2.2299e-07	267.54	76.293	59.46	17.142	2.099e-07	23.84	196.858	-5.137	-87.168	-82.556	76.900	34.354	-82.147	-75.599	-37.915	66.283	-75.439	-69.314	-68.755	-62.318	12.883	-62.521	-8191	255	
6709.433	1	1	0	0	0.16678	0.24217	0.072043	0.12168	0.16151	0.21135	0.22912	0.26831	0.16718	0.12074	0.16319	0.15902	0.25211	0.032049	0.12104	0.10432	-2.1146	-2.4354	-2.5062	-2.7062	-2.5104	-2.5208	-2.7042	-2.6604	-2.7521	-2.6667	-2.5563	-2.9229	-2.3854	-2.5667	-2.7062	-2.3896	185.140	149.262	166.601	-16.171	-86.799	213.126	172.871	181.193	200.899	-87.113	128.948	171.698	-88.942	139.583	141.386	88.193	2.7778e-05	0.00010329	4.4589e-05	1222.4	1.5808e-06	2.1581e-06	1280.1	251.48	1.6084e-06	1.413e-06	317.23	88.312	69.098	20.333	1.4162e-06	28.617	2.4091e-05	1.9797e-05	5.3793e-06	868.15	2.3675e-07	2.1682e-07	1143.9	222.55	2.4583e-07	2.1286e-07	267.21	76.166	59.29	17.139	2.0485e-07	23.852	181.378	238.250	-52.858	-82.501	7.764	27.160	-82.255	-75.363	-19.962	41.729	-75.971	-69.284	-69.082	-61.886	55.862	-62.167	-8191	255	
6709.554	1	1	0	0	0.031455	0.17765	0.075215	0.10594	0.17372	0.16839	0.48811	0.13664	0.11635	0.13436	0.1111	0.29924	0.089465	0.19517	0.27797	0.25266	-2.2917	-2.5438	-2.475	-2.8396	-2.3792	-2.3729	-3.0583	-2.3563	-2.5292	-2.6646	-2.5458	-2.8812	-2.5521	-2.4083	-2.8125	-2.4896	-51.680	154.930	97.618	26.468	177.531	29.421	157.750	23.778	177.542	230.096	237.756	220.081	-83.823	94.690	117.369	195.434	6.326e-05	0.00017985	2.9079e-05	1224.3	1.1297e-06	1.3864e-06	1279	249.83	1.4814e-06	2.1822e-06	318.81	88.323	68.931	20.21	1.6785e-06	28.552	2.2927e-05	1.876e-05	5.2761e-06	868.77	2.2598e-07	2.0695e-07	1144.2	222.31	2.2973e-07	2.0456e-07	267.69	76.147	59.294	17.142	2.1484e-07	23.843	181.474	-82.992	-60.168	-82.887	132.258	24.207	-82.104	-75.441	20.888	34.438	-75.537	-69.409	-68.981	-62.055	53.773	-61.936	-8191	255	
6709.650	1	1	0	0	0.10046	0.18766	0.20403	0.14472	0.28424	0.07953	0.10757	0.16316	0.16774	0.17618	0.25277	0.23748	0.19281	0.038026	0.25305	0.39605	-2.3083	-2.7792	-2.5417	-2.7146	-2.6021	-2.6083	-2.8375	-2.575	-2.3458	-2.8771	-2.5458	-2.6604	-2.7313	-2.5521	-2.8875	-2.4625	6.254	52.893	258.105	257.780	261.370	-82.085	133.578	260.017	163.130	88.780	207.876	264.240	205.028	141.699	35.264	-80.770	7.5312e-05	3.6875e-05	6.1492e-05	1216.9	1.5235e-06	7.8416e-07	1282	251.49	7.5027e-07	2.8642e-06	318.54	88.025	69.244	20.316	1.8809e-06	29.018	2.223e-05	1.8346e-05	5.4264e-06	867.32	2.2131e-07	2.0663e-07	1144	222.8	2.2635e-07	2.0436e-07	267.4	76.004	59.42	17.16	2.3008e-07	23.96	172.305	-45.635	-62.202	-82.512	62.978	40.341	-82.399	-75.588	39.587	-0.450	-75.433	-69.398	-68.792	-61.931	12.242	-62.030	-8191	255	
6709.722	1	1	0	0	0.28194	0.15365	0.20101	0.2705	0.18711	0.16349	0.3128	0.20695	0.20088	0.093397	0.075874	0.16209	0.10218	0.071391	0.082844	0.092191	-2.1229	-2.7792	-2.4813	-2.7771	-2.6937	-2.4833	-3	-2.5417	-2.5542	-2.9354	-2.4917	-2.8042	-2.6104	-2.7333	-2.8792	-2.5563	-82.522	220.487	250.826	231.202	233.123	56.395	164.927	209.444	143.310	116.846	152.661	265.181	245.216	-89.057	190.627	15.442	5.1338e-05	0.00012365	7.1656e-05	1219.8	1.227e-06	1.2031e-06	1277.8	250.51	1.0859e-06	1.2618e-06	319.07	88.615	69.137	20.28	1.4084e-06	28.673	2.1824e-05	1.8446e-05	5.7887e-06	867.22	2.1363e-07	2.0749e-07	1144.4	222.37	2.2822e-07	2.0158e-07	267.67	76.26	59.347	17.175	2.3504e-07	23.88	178.217	-46.336	-54.328	-82.497	91.789	1.084	-82.059	-75.159	43.310	55.316	-75.477	-69.060	-68.697	-61.841	33.060	-62.263	-8191	255	
6709.818	1	1	0	0	0.28128	0.32088	0.07862	0.35479	0.25615	0.091447	0.11755	0.073734	0.21888	0.099421	0.10134	0.098383	0.1928	0.081732	0.1042	0.13757	-2.1167	-2.7958	-2.3104	-2.9333	-2.7896	-2.4083	-2.8312	-2.6688	-2.5458	-2.8896	-2.575	-2.6042	-2.9792	-2.3438	-2.8312	-2.7	183.657	27.201	-73.458	162.511	40.845	176.247	242.445	-41.642	246.114	111.119	200.957	-40.890	-34.178	224.787	191.915	184.049	6.5991e-05	0.00018207	2.9767e-05	1214.3	1.0587e-06	1.9541e-06	1280.7	250.32	6.5074e-07	1.5341e-06	317.89	88.745	69.31	20.156	1.6425e-06	28.759	2.1435e-05	1.8841e-05	5.9752e-06	866.08	2.144e-07	2.1297e-07	1144.8	222.46	2.1527e-07	2.0841e-07	268.01	76.303	59.349	17.092	2.3688e-07	23.873	172.402	-49.284	-50.511	-82.720	54.294	17.461	-82.604	-75.371	28.023	-15.186	-75.358	-69.016	-68.724	-61.750	58.571	-62.461	-8191	255	
#DATA ENDS
