BOXY.EXE: ISS Imagent and Oximeter Data Acquisition Program Version 0.80
Ascii Record File

#ACQ INFORMATION
2  Detector Channels 
16  External MUX Channels 
1  Auxiliary Channels 
5000  Waveform (CCF) Frequency (Hz)
1  Waveforms Skipped 
30  Waveforms Averaged 
1  Cycles Averaged 
16  Acquisitions per Waveform 
10.0806  Updata Rate (Hz) 

#FILE INFORMATION
TRUE -- External MUX Channel results are PARSED.
FALSE -- AC DC and Phase are NOT grouped.
TRUE -- Companion Program Settings File CREATED.
FALSE -- AC data not excluded
FALSE -- DC data not excluded
FALSE -- Phase data not excluded
FALSE -- Auxillary Chn. data not excluded
Tab delimiters

#CALIBRATION STATE
TRUE -- Waveform Calibration Values APPLIED.


#AUX CALIBRATION VALUES
Val Type	aux-1	

Term	1.0000e+00	
Factor	0.0000e+00	


#WF CALIBRATION VALUES
A = Detector Channel
Val Type	A-AC1	A-AC2	A-AC3	A-AC4	A-AC5	A-AC6	A-AC7	A-AC8	A-AC9	A-AC10	A-AC11	A-AC12	A-AC13	A-AC14	A-AC15	A-AC16	A-DC1	A-DC2	A-DC3	A-DC4	A-DC5	A-DC6	A-DC7	A-DC8	A-DC9	A-DC10	A-DC11	A-DC12	A-DC13	A-DC14	A-DC15	A-DC16	A-Ph1	A-Ph2	A-Ph3	A-Ph4	A-Ph5	A-Ph6	A-Ph7	A-Ph8	A-Ph9	A-Ph10	A-Ph11	A-Ph12	A-Ph13	A-Ph14	A-Ph15	A-Ph16	

Term	0.00000e+00	0.00000e+00	0.00000e+00	0.00000e+00	0.00000e+00	0.00000e+00	0.00000e+00	0.00000e+00	0.00000e+00	0.00000e+00	0.00000e+00	0.00000e+00	0.00000e+00	0.00000e+00	0.00000e+00	0.00000e+00	0.00000e+00	0.00000e+00	0.00000e+00	0.00000e+00	0.00000e+00	0.00000e+00	0.00000e+00	0.00000e+00	0.00000e+00	0.00000e+00	0.00000e+00	0.00000e+00	0.00000e+00	0.00000e+00	0.00000e+00	0.00000e+00	0.00000e+00	0.00000e+00	0.00000e+00	0.00000e+00	0.00000e+00	0.00000e+00	0.00000e+00	0.00000e+00	0.00000e+00	0.00000e+00	0.00000e+00	0.00000e+00	0.00000e+00	0.00000e+00	0.00000e+00	0.00000e+00	
Factor	1.00000e+00	1.00000e+00	1.00000e+00	1.00000e+00	1.00000e+00	1.00000e+00	1.00000e+00	1.00000e+00	1.00000e+00	1.00000e+00	1.00000e+00	1.00000e+00	1.00000e+00	1.00000e+00	1.00000e+00	1.00000e+00	1.00000e+00	1.00000e+00	1.00000e+00	1.00000e+00	1.00000e+00	1.00000e+00	1.00000e+00	1.00000e+00	1.00000e+00	1.00000e+00	1.00000e+00	1.00000e+00	1.00000e+00	1.00000e+00	1.00000e+00	1.00000e+00	X	X	X	X	X	X	X	X	X	X	X	X	X	X	X	X	

B = Detector Channel
Val Type	B-AC1	B-AC2	B-AC3	B-AC4	B-AC5	B-AC6	B-AC7	B-AC8	B-AC9	B-AC10	B-AC11	B-AC12	B-AC13	B-AC14	B-AC15	B-AC16	B-DC1	B-DC2	B-DC3	B-DC4	B-DC5	B-DC6	B-DC7	B-DC8	B-DC9	B-DC10	B-DC11	B-DC12	B-DC13	B-DC14	B-DC15	B-DC16	B-Ph1	B-Ph2	B-Ph3	B-Ph4	B-Ph5	B-Ph6	B-Ph7	B-Ph8	B-Ph9	B-Ph10	B-Ph11	B-Ph12	B-Ph13	B-Ph14	B-Ph15	B-Ph16	

Term	0.00000e+00	0.00000e+00	0.00000e+00	0.00000e+00	0.00000e+00	0.00000e+00	0.00000e+00	0.00000e+00	0.00000e+00	0.00000e+00	0.00000e+00	0.00000e+00	0.00000e+00	0.00000e+00	0.00000e+00	0.00000e+00	0.00000e+00	0.00000e+00	0.00000e+00	0.00000e+00	0.00000e+00	0.00000e+00	0.00000e+00	0.00000e+00	0.00000e+00	0.00000e+00	0.00000e+00	0.00000e+00	0.00000e+00	0.00000e+00	0.00000e+00	0.00000e+00	-1.74148e+02	-1.27087e+02	-1.30125e+02	-1.81316e+02	-8.55190e+01	-6.66878e+01	-1.57075e+02	-1.62015e+02	-8.14386e+01	-6.69092e+01	-1.71893e+02	-1.70622e+02	-1.79843e+02	-1.76980e+02	-7.36244e+01	-1.49926e+02	
Factor	3.06324e-05	1.62235e-04	4.72445e-05	1.48920e-01	1.49831e-06	1.76165e-06	1.72106e-01	6.28372e-02	1.68338e-06	1.86821e-06	8.65051e-02	2.99025e-02	3.08083e-02	9.61349e-03	1.55958e-06	1.36815e-02	1.62461e-05	2.79970e-05	7.84780e-06	7.48325e-02	2.67660e-07	3.17064e-07	8.15900e-02	3.16269e-02	2.77634e-07	3.15248e-07	4.25007e-02	1.47081e-02	1.57617e-02	4.89367e-03	2.89544e-07	6.76532e-03	X	X	X	X	X	X	X	X	X	X	X	X	X	X	X	X	



#DISTANCE SETTINGS
A = Detector Channel
A-1	A-2	A-3	A-4	A-5	A-6	A-7	A-8	A-9	A-10	A-11	A-12	A-13	A-14	A-15	A-16	

2.5000e+00	3.0000e+00	2.5000e+00	3.0000e+00	2.0000e+00	3.0000e+00	1.5000e+00	3.0000e+00	3.0000e+00	3.0000e+00	3.0000e+00	3.0000e+00	3.0000e+00	3.0000e+00	1.5000e+00	3.0000e+00	

B = Detector Channel
B-1	B-2	B-3	B-4	B-5	B-6	B-7	B-8	B-9	B-10	B-11	B-12	B-13	B-14	B-15	B-16	

1.0000e+01	1.0000e+01	1.0000e+01	1.4400e+00	1.0000e+01	1.0000e+01	1.5100e+00	1.9400e+00	1.0000e+01	1.0000e+01	1.9900e+00	2.4900e+00	2.4100e+00	2.9000e+00	1.0000e+01	2.9800e+00	




#DATA BEGINS
time	group	step	mark	flag	A-AC1	A-AC2	A-AC3	A-AC4	A-AC5	A-AC6	A-AC7	A-AC8	A-AC9	A-AC10	A-AC11	A-AC12	A-AC13	A-AC14	A-AC15	A-AC16	A-DC1	A-DC2	A-DC3	A-DC4	A-DC5	A-DC6	A-DC7	A-DC8	A-DC9	A-DC10	A-DC11	A-DC12	A-DC13	A-DC14	A-DC15	A-DC16	A-Ph1	A-Ph2	A-Ph3	A-Ph4	A-Ph5	A-Ph6	A-Ph7	A-Ph8	A-Ph9	A-Ph10	A-Ph11	A-Ph12	A-Ph13	A-Ph14	A-Ph15	A-Ph16	B-AC1	B-AC2	B-AC3	B-AC4	B-AC5	B-AC6	B-AC7	B-AC8	B-AC9	B-AC10	B-AC11	B-AC12	B-AC13	B-AC14	B-AC15	B-AC16	B-DC1	B-DC2	B-DC3	B-DC4	B-DC5	B-DC6	B-DC7	B-DC8	B-DC9	B-DC10	B-DC11	B-DC12	B-DC13	B-DC14	B-DC15	B-DC16	B-Ph1	B-Ph2	B-Ph3	B-Ph4	B-Ph5	B-Ph6	B-Ph7	B-Ph8	B-Ph9	B-Ph10	B-Ph11	B-Ph12	B-Ph13	B-Ph14	B-Ph15	B-Ph16	aux-1	digaux	

27001.670	1	1	0	768	0.043246	0.21057	0.19336	0.31552	0.24549	0.18308	0.38235	0.22758	0.062589	0.2161	0.29221	0.14825	0.18686	0.23044	0.12501	0.33216	-2.0479	-2.5042	-2.2083	-2.6708	-2.7292	-2.4958	-3.0187	-2.7021	-2.2687	-2.6771	-2.3542	-2.6292	-2.8958	-2.3292	-2.6979	-2.6292	80.722	-117.117	71.655	186.322	-46.296	123.894	97.460	175.647	-106.981	-100.381	174.424	176.574	-169.883	-147.916	-54.270	148.682	0.00075813	0.00046627	0.00018196	1360.8	4.4585e-06	4.7237e-06	1351.5	367.38	5.4645e-06	4.7959e-06	418.64	140.02	122.06	41.671	2.8045e-06	51.604	0.00059579	0.00052728	0.00014901	1377.6	5.8171e-06	5.8994e-06	1376.2	373.76	5.7742e-06	5.7992e-06	426.93	143.26	124.6	42.893	5.9175e-06	53.108	155.595	-89.503	-94.440	-158.695	-76.987	-28.582	-159.053	-154.439	-46.798	-25.768	-154.846	-150.910	-150.361	-145.019	-21.869	-146.030	-8191	255	
27001.766	1	1	0	0	0.35716	0.13923	0.27567	0.16404	0.039481	0.11605	0.28756	0.20915	0.1704	0.2808	0.079863	0.23781	0.1804	0.31494	0.17471	0.14321	-1.8438	-2.7167	-2.1458	-2.6667	-2.6792	-2.1771	-2.8042	-2.6104	-2.2396	-2.7104	-2.3729	-2.4583	-2.7771	-2.5563	-2.775	-2.6354	-171.627	-160.211	-21.678	123.940	66.019	-87.954	167.337	146.523	179.889	-38.003	44.077	151.472	115.908	156.941	-137.776	26.125	0.00076576	0.00046929	0.00013192	1356	4.4438e-06	4.7293e-06	1348.9	367.4	6.1907e-06	4.1827e-06	418.76	140.15	121.94	41.823	4.3544e-06	51.676	0.00060469	0.00053212	0.00015279	1376.3	5.9532e-06	6.046e-06	1375.4	374.06	6.0287e-06	5.7355e-06	426.99	143.24	124.5	42.949	5.6817e-06	53.127	154.427	-82.381	-92.057	-158.672	-61.543	-10.906	-159.018	-154.523	-70.309	-14.354	-154.812	-150.731	-150.680	-145.254	-40.714	-145.962	-8191	255	
27001.859	1	1	0	0	0.020854	0.16441	0.099955	0.29887	0.17775	0.095228	0.2093	0.26153	0.18299	0.096126	0.27743	0.21673	0.069955	0.16882	0.087272	0.2261	-1.8583	-2.6188	-2.3792	-2.6583	-2.6458	-2.3729	-2.85	-2.5687	-2.375	-2.5958	-2.6521	-2.4417	-2.7854	-2.3958	-2.3583	-2.825	-45.845	-98.757	2.691	142.151	-54.674	170.498	134.808	126.078	-116.087	-163.375	147.110	154.833	-90.788	151.662	-71.586	155.451	0.0007652	0.00038171	0.00015998	1357.2	4.455e-06	5.0794e-06	1350.9	367.23	6.5607e-06	7.3408e-06	419.55	140.1	121.91	41.774	4.0444e-06	51.473	0.00060672	0.00052582	0.00014643	1376.8	5.7647e-06	5.9014e-06	1375.7	373.73	6.0148e-06	5.7309e-06	427.02	143.16	124.44	42.943	5.6461e-06	53.143	156.592	-79.025	-89.413	-158.758	-67.021	-25.077	-158.917	-154.505	-67.733	-23.000	-154.818	-150.824	-150.183	-145.461	-51.457	-146.037	-8191	255	
27001.955	1	1	0	0	0.1763	0.20143	0.079879	0.28857	0.29406	0.22286	0.037964	0.13049	0.32755	0.31532	0.40176	0.20425	0.18583	0.054323	0.19615	0.39907	-1.8896	-2.5687	-2.5833	-2.6312	-2.7729	-2.4979	-2.7792	-2.6667	-2.2812	-2.6292	-2.4958	-2.4979	-2.7146	-2.4396	-2.4792	-2.6521	177.461	58.518	30.622	173.947	-63.149	-75.851	115.108	160.969	-139.834	124.975	143.441	154.039	114.772	46.877	-50.705	108.282	0.00074006	0.00041592	9.7424e-05	1358.2	3.8719e-06	4.5148e-06	1352.4	367.39	6.5274e-06	4.5299e-06	418.54	140.45	122.34	41.862	3.8617e-06	51.574	0.00060358	0.00051427	0.00014692	1378.1	5.8222e-06	5.9159e-06	1376	373.96	6.1577e-06	5.7244e-06	426.97	143.37	124.71	42.931	5.8524e-06	53.103	153.104	-83.549	-77.247	-158.662	-56.484	-27.419	-159.191	-154.308	-70.960	-18.463	-154.810	-150.869	-150.445	-145.299	-38.125	-145.952	-8191	255	
27002.053	1	1	0	0	0.046364	0.12132	0.28558	0.33387	0.20538	0.068678	0.21038	0.142	0.21836	0.16107	0.18295	0.088191	0.24701	0.16666	0.26842	0.17731	-1.8104	-2.6375	-2.3604	-2.4271	-2.5312	-2.4417	-2.6208	-2.7104	-2.2583	-2.6792	-2.5042	-2.3458	-2.9062	-2.4875	-2.4979	-2.8187	-130.713	-165.703	23.052	134.440	112.872	-81.547	140.214	137.928	-148.445	75.820	138.233	-134.855	177.492	-89.041	-166.195	123.131	0.00074977	0.00053987	0.00015055	1359.9	5.2058e-06	5.2647e-06	1352.8	367.43	4.4355e-06	4.7629e-06	418.86	139.51	121.95	41.792	3.9564e-06	51.536	0.00062057	0.00050546	0.00014921	1378.8	5.8601e-06	5.9014e-06	1375.7	373.86	5.9645e-06	5.7014e-06	427.1	143.23	124.41	42.923	5.8615e-06	53.116	155.107	-87.670	-89.340	-158.694	-60.454	-18.813	-159.003	-154.407	-61.657	-24.474	-154.440	-151.101	-150.329	-145.249	-33.280	-146.081	-8191	255	
27002.148	1	1	0	0	0.3033	0.11296	0.25157	0.28543	0.2785	0.057314	0.18995	0.16992	0.097229	0.073856	0.15049	0.096307	0.08802	0.14289	0.17096	0.15053	-1.8167	-2.4667	-2.4771	-2.5646	-2.6958	-2.3417	-2.5417	-2.925	-1.9562	-2.3396	-2.8708	-2.2896	-2.8167	-2.525	-2.3625	-2.7958	125.034	157.509	-117.021	-171.983	34.464	41.913	113.143	163.290	39.251	103.984	174.289	133.422	137.719	-110.266	78.971	-118.736	0.00072592	0.00048659	0.00012539	1357.6	4.4972e-06	4.8359e-06	1353	366.97	5.6352e-06	5.4336e-06	418.07	139.72	121.7	41.803	3.3187e-06	51.283	0.00060012	0.00050809	0.00014353	1377.4	5.6727e-06	5.9159e-06	1376.4	373.9	6.0449e-06	5.7966e-06	426.39	143.17	124.47	42.961	5.847e-06	53.09	154.660	-76.378	-80.343	-158.768	-69.850	-21.977	-159.057	-154.365	-56.471	-13.578	-154.812	-150.789	-150.433	-145.212	-35.033	-146.095	-8191	255	
27002.270	1	1	0	0	0.16518	0.18077	0.20062	0.32338	0.11509	0.079397	0.13078	0.30113	0.27321	0.05382	0.087934	0.16678	0.13709	0.057088	0.43202	0.16807	-1.9354	-2.4625	-2.4875	-2.2979	-2.6042	-2.5792	-2.5375	-2.7729	-2.3083	-2.5333	-2.8417	-2.3208	-2.6729	-2.4229	-2.2188	-2.9417	-37.256	-137.997	-114.212	174.140	105.289	151.762	119.769	124.021	-80.718	124.639	69.831	-44.686	-14.117	-101.007	-59.387	101.457	0.00076274	0.0005086	0.00011643	1356.9	5.6488e-06	4.3701e-06	1353.7	366.22	5.2833e-06	4.681e-06	418.31	139.67	122.38	41.879	4.0976e-06	51.407	0.00060723	0.00052389	0.00015081	1377.7	5.8355e-06	5.7983e-06	1376.7	373.76	5.8853e-06	5.7126e-06	426.37	143.18	124.67	42.946	5.9019e-06	53.164	154.320	-80.099	-88.987	-158.678	-58.543	-25.776	-158.967	-154.293	-63.494	-48.975	-154.692	-151.010	-150.492	-145.338	-37.770	-146.241	-8191	255	
27002.365	1	1	0	0	0.438	0.28946	0.26872	0.31647	0.082132	0.15001	0.2112	0.083216	0.23925	0.16984	0.070906	0.25209	0.056108	0.33765	0.24777	0.12575	-1.8208	-2.2938	-2.675	-2.5146	-2.5521	-2.55	-2.7479	-2.8417	-2.45	-2.3521	-2.8688	-2.4333	-2.5125	-2.8208	-2.2938	-2.9167	25.015	-101.916	-24.301	150.447	180.078	42.512	164.813	-125.006	21.244	34.787	44.941	144.733	-166.467	153.524	59.079	155.281	0.00074497	0.0004986	0.00015158	1355.9	3.9562e-06	4.2379e-06	1349.6	367.87	5.8416e-06	4.4428e-06	419.54	140.26	122.59	41.65	5.1887e-06	51.687	0.00058652	0.00053328	0.00014684	1377.1	5.6677e-06	5.7871e-06	1374.9	374.12	5.8575e-06	5.8735e-06	427.02	143.29	124.78	42.891	6.0871e-06	53.232	156.375	-84.375	-78.491	-158.847	-60.337	-24.947	-158.995	-154.375	-52.649	-24.070	-154.426	-151.022	-150.003	-145.180	-45.213	-145.930	-8191	255	
27002.461	1	1	0	0	0.15221	0.14289	0.18169	0.019939	0.033067	0.12903	0.35677	0.23671	0.24451	0.17032	0.041378	0.25438	0.17937	0.13161	0.34255	0.16895	-1.8917	-2.3771	-2.6354	-2.5625	-2.5375	-2.6021	-2.6125	-2.8771	-2.475	-2.2833	-2.9167	-2.5	-2.65	-2.7812	-2.2521	-2.575	65.063	58.032	150.263	-61.439	137.800	44.706	127.251	70.678	-90.955	4.921	120.431	173.769	114.156	-24.971	-159.571	157.519	0.00075094	0.00059391	0.00016115	1356.8	3.244e-06	4.6345e-06	1352.9	366.19	6.8959e-06	4.0616e-06	417.4	140.57	121.54	41.921	3.6528e-06	51.66	0.00058997	0.00053848	0.00014461	1377.6	5.6933e-06	5.6854e-06	1374.3	373.68	5.7696e-06	5.75e-06	426.55	143.3	124.48	42.98	6.0153e-06	53.142	155.610	-82.922	-86.365	-158.676	-74.608	-3.216	-159.032	-154.249	-71.980	-29.957	-154.711	-150.919	-150.353	-145.068	-34.991	-146.052	-8191	255	
27002.557	1	1	0	0	0.28808	0.32937	0.099643	0.43742	0.22175	0.43336	0.37671	0.22627	0.10145	0.091795	0.32023	0.29983	0.073688	0.20953	0.24057	0.21044	-2.1583	-2.4083	-2.8646	-2.5354	-2.4104	-2.6458	-2.6917	-2.6312	-2.5521	-2.2771	-2.7375	-2.4583	-2.3542	-2.8104	-2.3	-2.7271	176.459	56.945	-130.029	96.506	-169.828	109.644	80.102	165.019	90.955	33.471	176.233	166.326	133.522	141.993	177.233	161.652	0.00072247	0.00044375	0.00014284	1355.9	4.9002e-06	6.1336e-06	1353.7	366.99	6.8501e-06	5.3804e-06	418.78	140.37	121.91	41.931	4.3414e-06	51.429	0.000605	0.00053661	0.00014881	1377.1	5.8383e-06	5.9139e-06	1378	374.03	6.0154e-06	5.8873e-06	427.36	143.44	124.68	42.967	6.1045e-06	53.121	155.924	-71.784	-86.258	-158.674	-63.720	-17.603	-159.124	-154.323	-54.997	-21.083	-154.683	-151.068	-150.295	-145.166	-39.833	-146.203	-8191	255	
27002.654	1	1	0	0	0.016427	0.17366	0.16119	0.28276	0.10365	0.13657	0.16603	0.43532	0.099431	0.20398	0.24983	0.34752	0.22251	0.079514	0.16735	0.16874	-2.0896	-2.2229	-2.7167	-2.6958	-2.2938	-2.6771	-2.6188	-2.5208	-2.5229	-2.4146	-2.7667	-2.4667	-2.4875	-2.7792	-2.2917	-2.6479	-31.763	-37.802	42.382	112.074	-123.987	-135.648	82.168	151.754	-46.923	11.609	138.310	95.169	166.362	-7.132	-168.078	86.136	0.00075461	0.00058072	0.0001636	1356.1	4.2863e-06	5.3172e-06	1352.4	366.77	6.583e-06	5.3723e-06	418.63	140.12	121.41	41.777	3.8868e-06	51.657	0.00059715	0.00054332	0.00014494	1377	5.8618e-06	5.7686e-06	1376.3	373.51	6.038e-06	5.9989e-06	426.83	143.46	124.32	42.9	5.7529e-06	53.127	156.106	-70.058	-85.349	-158.752	-56.663	-19.424	-158.933	-154.435	-51.208	-18.958	-154.527	-151.050	-150.444	-145.160	-52.001	-146.197	-8191	255	
27002.750	1	1	0	0	0.33229	0.10069	0.074962	0.15283	0.30168	0.0144	0.24075	0.12343	0.12885	0.17441	0.16779	0.06698	0.024146	0.14104	0.3464	0.049998	-2.1312	-2.1562	-2.5271	-2.6521	-2.25	-2.7917	-2.3187	-2.6542	-2.5875	-2.2625	-2.7875	-2.4917	-2.3208	-2.625	-2.3479	-2.5979	-154.984	-18.301	-128.760	-134.271	8.802	123.903	70.857	22.547	-70.966	103.062	-153.161	145.026	171.646	172.796	-72.841	139.076	0.00079138	0.00041742	0.00012351	1361.1	3.8196e-06	4.4074e-06	1349.2	366.54	4.9814e-06	5.1957e-06	418.01	140.41	121.72	41.692	4.5138e-06	51.499	0.00058872	0.00055568	0.00013936	1378.3	5.9844e-06	5.7891e-06	1375	373.79	5.9315e-06	5.727e-06	426.81	143.23	124.49	42.887	5.8337e-06	53.091	154.931	-77.441	-85.072	-158.530	-43.651	-32.289	-159.229	-154.480	-50.271	-10.739	-154.669	-151.002	-150.588	-145.226	-50.628	-145.818	-8191	255	
27002.869	1	1	0	0	0.12697	0.14472	0.14318	0.097618	0.078833	0.33897	0.12882	0.37461	0.28846	0.20631	0.10993	0.45875	0.20303	0.14448	0.19037	0.1299	-2.1708	-2.2188	-2.5604	-2.8083	-2.35	-2.6063	-2.5812	-2.4604	-2.725	-2.4771	-2.7125	-2.7208	-2.3187	-2.7771	-2.3333	-2.4458	-152.339	105.305	-134.415	144.858	3.285	-107.744	112.936	76.568	-51.141	167.626	-125.011	161.361	-86.005	125.552	-34.614	154.553	0.00073595	0.00047112	0.0001573	1359.3	5.2252e-06	3.5559e-06	1348.2	366.45	5.9015e-06	4.5968e-06	418.79	139.85	121.93	41.811	4.1634e-06	51.397	0.00059823	0.00052115	0.00014438	1376.8	6.0056e-06	5.7336e-06	1374.7	373.63	5.7453e-06	5.7204e-06	427.18	143.13	124.4	42.92	5.7275e-06	52.999	154.197	-76.560	-85.791	-158.683	-76.239	-21.929	-158.934	-154.410	-57.656	-20.059	-154.564	-150.815	-150.361	-145.270	-32.503	-146.172	-8191	255	
27002.965	1	1	0	0	0.015655	0.10566	0.077784	0.28867	0.074801	0.24827	0.12012	0.078162	0.10958	0.081377	0.20907	0.1218	0.076472	0.18544	0.35997	0.2721	-2.25	-2.4604	-2.2604	-3.0229	-2.3542	-2.5917	-2.7188	-2.4875	-2.7875	-2.2938	-2.7979	-2.6792	-2.2625	-2.7104	-2.3979	-2.4854	-35.662	-79.533	74.975	143.970	102.348	-75.918	40.496	181.859	152.669	-108.147	141.490	121.146	176.229	57.864	70.837	123.068	0.00075426	0.00048803	0.00011432	1357.9	4.4615e-06	4.14e-06	1351.8	367.36	5.3985e-06	3.8998e-06	417.04	140.34	122.41	41.766	4.3997e-06	51.609	0.00060188	0.00051351	0.00014532	1376.7	5.7932e-06	5.5182e-06	1375.8	373.77	5.983e-06	5.6804e-06	426.54	143.25	124.64	42.899	5.6757e-06	53.108	155.968	-81.454	-82.477	-158.838	-65.564	-17.773	-158.928	-154.413	-65.207	-17.060	-154.770	-151.044	-150.212	-145.020	-49.560	-146.011	-8191	255	
27003.061	1	1	0	0	0.21685	0.29618	0.087406	0.2213	0.040576	0.22136	0.37903	0.26095	0.25763	0.29428	0.12854	0.11919	0.32053	0.076085	0.17388	0.27597	-2.3771	-2.2208	-2.4021	-2.9062	-2.225	-2.5854	-2.8521	-2.4437	-2.6437	-2.3729	-2.5542	-2.9146	-2.2875	-2.9167	-2.7146	-2.4917	-111.674	73.752	-58.016	167.629	89.850	-40.524	99.462	-121.382	-165.268	45.331	165.787	78.709	-167.895	-84.981	61.529	88.804	0.00075362	0.00040697	0.0001311	1362.1	4.397e-06	5.1223e-06	1353.6	367.43	6.1623e-06	5.0838e-06	419.27	139.72	122.06	41.856	5.1465e-06	51.616	0.00059539	0.00052424	0.00014102	1378.3	5.8417e-06	5.5671e-06	1376	373.84	5.8563e-06	5.8853e-06	426.88	143.21	124.42	42.932	5.9236e-06	53.098	156.552	-80.646	-91.157	-158.720	-63.518	-16.537	-159.075	-154.400	-61.996	-20.019	-154.491	-151.073	-150.366	-145.211	-43.563	-145.948	-8191	255	
27003.156	1	1	0	0	0.25901	0.21367	0.22113	0.38524	0.13894	0.068903	0.12189	0.2881	0.086614	0.13549	0.18181	0.16958	0.1851	0.34204	0.14822	0.21849	-2.3229	-2.4083	-2.4375	-2.8937	-2.3583	-2.7583	-2.8229	-2.4042	-2.6854	-2.4771	-2.4542	-2.7917	-2.5625	-2.6604	-2.5	-2.4875	160.494	55.323	39.188	142.762	20.552	-103.777	80.411	125.944	-155.491	-150.847	165.827	122.971	45.623	128.835	115.271	114.684	0.0007354	0.00047905	0.00014132	1359.7	4.1082e-06	4.2233e-06	1348.3	367.35	5.6557e-06	3.995e-06	419.98	140.16	121.93	41.739	4.6487e-06	51.695	0.00057748	0.00050342	0.00014816	1376.7	5.8969e-06	5.6418e-06	1373.3	373.64	5.463e-06	5.8452e-06	426.97	143.02	124.46	42.893	5.9121e-06	53.085	155.491	-91.288	-94.581	-158.599	-53.755	-24.117	-159.016	-154.314	-63.887	-18.905	-154.832	-150.949	-150.523	-145.186	-41.651	-146.307	-8191	255	
27003.229	1	1	0	0	0.10958	0.25324	0.28883	0.18407	0.10316	0.14333	0.17726	0.20007	0.14621	0.11892	0.12495	0.11852	0.19113	0.23493	0.21747	0.10462	-2.2125	-2.5104	-2.4271	-2.9062	-2.2708	-2.7542	-3.0042	-2.3625	-2.7188	-2.5917	-2.3438	-2.9938	-2.5438	-2.5438	-2.7188	-2.5333	102.507	61.480	128.024	75.422	-155.113	35.533	99.767	136.176	185.492	-39.877	43.367	106.378	-169.601	152.917	162.753	48.731	0.00072662	0.00048897	0.00015791	1358.2	3.8308e-06	5.2988e-06	1347	367.14	6.2354e-06	4.1171e-06	417.96	139.71	122.19	41.731	3.4714e-06	51.351	0.00058239	0.00052699	0.00014939	1375.8	5.7932e-06	5.7607e-06	1371.8	373.51	5.6047e-06	5.7316e-06	426.42	142.93	124.52	42.895	5.6419e-06	53.028	156.390	-97.290	-95.250	-158.724	-62.296	-25.984	-159.171	-154.473	-67.520	-30.030	-154.574	-150.830	-150.443	-145.100	-34.970	-146.177	-8191	255	
27003.350	1	1	0	0	0.21021	0.19103	0.094466	0.051608	0.18481	0.13952	0.10977	0.36636	0.24991	0.10408	0.20644	0.14732	0.10252	0.079891	0.072177	0.12709	-2.1333	-2.5875	-2.2438	-2.8792	-2.35	-2.5563	-2.9375	-2.4604	-2.7021	-2.5854	-2.3375	-2.8146	-2.6042	-2.3896	-2.6813	-2.3146	63.025	-150.364	44.743	2.944	-55.318	-33.891	-170.290	141.925	6.539	-158.463	-147.667	102.028	-54.031	151.358	-125.079	176.861	0.00072498	0.00051663	0.00015773	1357.1	5.103e-06	3.939e-06	1350.7	366.64	4.8842e-06	5.2258e-06	417.41	140.58	122.04	41.671	3.6019e-06	51.578	0.00058053	0.00053404	0.00014646	1375.6	5.7603e-06	5.721e-06	1373.4	373.76	5.7702e-06	5.6974e-06	426.23	143.29	124.46	42.871	5.7667e-06	53.046	155.020	-76.288	-90.810	-158.810	-65.270	-7.349	-158.853	-154.268	-52.385	-19.812	-154.703	-150.951	-150.366	-145.093	-61.961	-146.016	-8191	255	
27003.445	1	1	0	0	0.088077	0.090963	0.21543	0.2599	0.23913	0.2225	0.2486	0.12062	0.12274	0.086536	0.17166	0.080288	0.10939	0.28796	0.11295	0.2119	-1.9813	-2.6271	-2.0979	-2.7771	-2.6354	-2.3083	-2.8688	-2.5146	-2.5979	-2.8	-2.3625	-2.8604	-2.3104	-2.2	-2.6667	-2.6646	-51.020	-77.206	53.511	137.639	117.796	141.106	133.943	74.084	156.247	-74.914	-160.823	147.941	45.330	122.330	-54.470	65.054	0.00074808	0.00059088	0.00015329	1355.9	5.0256e-06	4.6642e-06	1348.2	366.49	6.1983e-06	5.6773e-06	416.68	140.03	121.64	41.659	5.447e-06	51.26	0.00057924	0.00053492	0.00014685	1376.1	5.6788e-06	5.7831e-06	1372	373.26	5.7135e-06	6.0337e-06	425.97	143.09	124.34	42.854	5.5532e-06	53.066	155.130	-81.213	-87.532	-158.767	-51.843	-37.119	-158.960	-154.227	-62.943	-37.269	-154.538	-150.696	-150.442	-145.188	-37.006	-146.102	-8191	255	
27003.543	1	1	0	0	0.3252	0.21507	0.18672	0.34163	0.1252	0.17622	0.47817	0.2677	0.11651	0.28579	0.12309	0.13461	0.17376	0.09488	0.25806	0.31468	-2.1167	-2.6521	-2.1167	-2.8958	-2.6667	-2.25	-2.9125	-2.4562	-2.4021	-2.7771	-2.2604	-2.7729	-2.6542	-2.3646	-2.6708	-2.5854	116.867	96.242	180.271	151.466	89.897	123.357	126.942	59.787	-16.138	183.122	100.058	60.746	67.619	92.370	152.216	147.621	0.00076329	0.00054869	0.00013906	1355	5.225e-06	4.9239e-06	1342.6	366.82	6.6311e-06	4.829e-06	418.33	140.24	121.93	41.608	5.3338e-06	51.341	0.00057518	0.0005285	0.00014806	1373	5.8054e-06	5.9826e-06	1370.5	373.66	5.725e-06	5.7822e-06	426.45	143.21	124.57	42.883	5.5363e-06	52.975	156.057	-76.747	-90.079	-158.650	-58.571	-27.811	-158.916	-154.359	-59.790	-18.830	-154.819	-151.103	-150.263	-144.939	-26.117	-145.974	-8191	255	
27003.639	1	1	0	0	0.15353	0.16995	0.2605	0.16751	0.23879	0.045874	0.29283	0.082016	0.077077	0.26894	0.17079	0.18458	0.45241	0.20216	0.18983	0.22557	-2.0125	-2.7062	-2.2458	-2.7125	-2.6437	-2.1542	-2.7667	-2.5833	-2.4667	-2.7646	-2.4479	-2.7021	-2.7396	-2.4146	-2.6083	-2.4833	79.347	-1.330	-73.402	116.457	-152.074	119.764	24.532	186.935	-93.546	-152.523	127.160	179.495	168.658	-171.956	164.684	121.596	0.00070305	0.00048616	0.00015489	1355.4	4.2092e-06	5.05e-06	1347.6	366.71	5.357e-06	4.8923e-06	418.06	139.91	121.65	41.943	4.2359e-06	51.213	0.00057708	0.00050803	0.00014317	1373.5	5.7095e-06	5.7659e-06	1372.4	373.09	5.8066e-06	5.5615e-06	426.09	143.06	124.41	42.97	5.4108e-06	52.95	155.044	-73.056	-81.118	-158.686	-73.902	-22.981	-159.018	-154.435	-46.895	-23.128	-154.516	-150.757	-150.448	-145.204	-39.675	-146.032	-8191	255	
27003.758	1	1	0	0	0.15482	0.12018	0.38827	0.099035	0.13422	0.1096	0.29011	0.47446	0.333	0.040885	0.15338	0.41235	0.26054	0.20222	0.19367	0.50912	-1.9125	-2.6646	-2.3417	-2.5875	-2.7208	-2.3146	-2.9146	-2.3646	-2.3417	-2.7	-2.525	-2.3708	-2.7854	-2.4062	-2.4979	-2.5917	-98.960	-131.822	102.700	83.118	184.913	-34.455	146.829	110.424	84.441	21.323	-152.443	157.669	-105.510	85.182	-39.124	117.499	0.00075981	0.00050358	0.00013413	1353.7	3.8796e-06	5.0894e-06	1351.4	367.7	5.1238e-06	6.2902e-06	417.36	139.81	122.42	41.647	4.7343e-06	51.639	0.00059732	0.00048423	0.00014043	1373.1	5.5673e-06	5.5156e-06	1371	373.33	5.6377e-06	5.2101e-06	426.2	143.27	124.77	42.961	5.2148e-06	53.208	156.431	-95.180	-97.854	-158.460	-65.704	-25.300	-158.998	-154.383	-72.698	-12.407	-154.682	-150.978	-150.453	-145.211	-56.162	-145.758	-8191	255	
27003.830	1	1	0	0	0.036456	0.11443	0.092259	0.28701	0.22053	0.079181	0.12195	0.08405	0.042779	0.16962	0.055005	0.136	0.18553	0.25194	0.13847	0.10813	-1.9083	-2.8688	-2.3625	-2.5604	-2.7229	-2.425	-2.8396	-2.6917	-2.2479	-2.7458	-2.7313	-2.5333	-2.7979	-2.4021	-2.4437	-2.6479	113.246	28.421	94.654	119.304	153.216	-125.942	55.973	-71.839	148.135	13.710	63.585	158.599	39.317	98.108	166.015	-42.617	0.00072345	0.00043673	0.00015207	1354.2	4.4179e-06	5.3926e-06	1346.7	366.51	6.22e-06	5.3709e-06	417.2	139.89	122.03	41.826	4.2617e-06	51.661	0.00057948	0.00048167	0.00013622	1373.7	5.5188e-06	5.5348e-06	1371.5	373.14	5.7557e-06	5.1333e-06	426.18	143.27	124.48	42.95	5.3554e-06	53.195	155.109	-84.910	-88.647	-158.811	-60.616	-16.536	-159.268	-154.307	-66.345	-21.815	-154.796	-151.024	-150.533	-145.324	-39.304	-146.214	-8191	255	
27003.949	1	1	0	0	0.098734	0.055261	0.22842	0.44286	0.14799	0.2613	0.45152	0.31565	0.14149	0.055965	0.14805	0.15458	0.29354	0.25892	0.09261	0.31551	-1.7271	-2.7	-2.3042	-2.5292	-2.7083	-2.3146	-2.8375	-2.7583	-2.225	-2.7104	-2.8167	-2.3854	-2.7979	-2.3458	-2.5583	-2.7542	63.594	115.538	109.011	115.047	-51.310	-59.326	118.873	118.266	-1.287	165.640	104.087	168.331	117.724	108.627	-115.485	111.904	0.00077679	0.00045484	0.00015705	1353.2	4.701e-06	3.851e-06	1346.5	366.92	5.6316e-06	4.2575e-06	417.55	140.11	121.97	41.792	4.7094e-06	51.7	0.00058686	0.0004791	0.00013812	1371.9	5.3459e-06	5.5777e-06	1369.6	373.22	5.5614e-06	5.0906e-06	425.8	143.29	124.49	43.035	5.4338e-06	53.274	156.757	-74.789	-83.382	-158.664	-46.262	-17.078	-159.024	-154.500	-60.791	-1.071	-154.763	-150.981	-150.498	-145.237	-39.464	-145.936	-8191	255	
27004.045	1	1	0	0	0.10288	0.20722	0.26276	0.21404	0.099629	0.17688	0.19859	0.1108	0.24549	0.098542	0.028515	0.27254	0.20778	0.21494	0.17646	0.35954	-1.9354	-2.5521	-2.4396	-2.5687	-2.8438	-2.2458	-2.6875	-2.9646	-2.2938	-2.8021	-2.5771	-2.4042	-2.6375	-2.6271	-2.5438	-2.8937	186.351	110.608	93.130	145.228	-158.121	-138.776	62.197	173.901	123.457	91.103	56.863	129.194	83.755	155.641	52.683	143.697	0.00074944	0.00046327	0.00014349	1353.4	4.4978e-06	4.4052e-06	1346.3	366.13	5.9681e-06	5.7179e-06	417.53	140.23	122.17	41.827	4.4803e-06	51.535	0.00059122	0.00048826	0.0001394	1373.4	5.351e-06	5.2633e-06	1371.3	373	5.3248e-06	5.0407e-06	425.9	143.3	124.5	42.966	5.3421e-06	53.145	154.861	-84.539	-77.595	-158.619	-42.098	-27.114	-159.038	-154.266	-62.495	-12.556	-154.825	-151.133	-150.425	-145.147	-31.067	-145.985	-8191	255	
27004.141	1	1	0	0	0.20526	0.18826	0.14447	0.11054	0.13021	0.31279	0.28629	0.17911	0.26964	0.22382	0.10176	0.14723	0.25232	0.16253	0.11632	0.45666	-1.9146	-2.4229	-2.5542	-2.4396	-2.3771	-2.4979	-2.5583	-2.6958	-2.2938	-2.4583	-2.7646	-2.2687	-2.6208	-2.6042	-2.3563	-2.9167	-104.442	129.443	39.845	171.957	-106.923	149.207	117.712	-135.318	-67.562	1.645	110.560	121.568	162.940	-156.131	41.765	152.416	0.00076621	0.00049538	0.0001387	1355.6	4.7103e-06	5.3078e-06	1347.8	366.06	6.5916e-06	4.3215e-06	418.84	140.65	122.02	41.848	6.6221e-06	51.508	0.00057373	0.00048009	0.00013253	1372.7	5.2567e-06	5.3155e-06	1369.9	372.96	5.4567e-06	5.1399e-06	426.23	143.29	124.47	42.967	5.5761e-06	53.142	153.572	-85.412	-81.417	-158.599	-68.340	-4.944	-159.076	-154.315	-52.609	-31.435	-154.746	-151.106	-150.360	-145.129	-49.345	-146.018	-8191	255	
27004.236	1	1	0	0	0.14299	0.30388	0.17089	0.13744	0.30724	0.1646	0.1856	0.23994	0.062607	0.14418	0.28438	0.072076	0.37879	0.34307	0.14874	0.045869	-1.85	-2.3854	-2.6625	-2.3542	-2.5104	-2.5292	-2.4938	-2.9354	-2.4	-2.4062	-2.7438	-2.3375	-2.6021	-2.4958	-2.4333	-2.8083	126.309	98.359	-160.585	169.807	-129.583	-143.939	85.828	-121.570	131.486	-141.832	171.870	93.146	160.872	140.693	-37.584	-146.197	0.00073934	0.00044383	0.00012165	1354.4	4.2803e-06	5.2628e-06	1346.7	366.79	5.0909e-06	5.1892e-06	417.3	140.45	121.96	41.726	4.8662e-06	51.616	0.00057636	0.00047694	0.00013384	1370.8	5.2328e-06	5.5823e-06	1370.1	373.07	5.356e-06	5.3192e-06	426.4	143.36	124.58	42.932	5.3065e-06	53.209	155.199	-71.677	-89.432	-158.618	-63.837	-20.479	-158.922	-154.453	-46.792	-26.421	-154.762	-150.993	-150.496	-145.013	-43.797	-145.882	-8191	255	
27004.357	1	1	0	0	0.16563	0.16821	0.071032	0.15933	0.18226	0.080439	0.16219	0.18111	0.22009	0.22391	0.15397	0.2134	0.068076	0.30929	0.14577	0.2341	-1.8563	-2.4292	-2.6521	-2.425	-2.4625	-2.5229	-2.5375	-2.8563	-2.2646	-2.3604	-2.75	-2.2667	-2.6417	-2.6979	-2.2479	-2.7438	-11.920	-46.856	95.321	170.182	65.433	-76.217	124.205	-164.638	64.442	-135.420	-160.118	159.216	13.303	140.773	-85.997	169.280	0.00074693	0.00065725	0.00015056	1349.1	4.2206e-06	4.9917e-06	1341.3	366.67	5.8195e-06	4.1431e-06	417.06	139.71	122.1	41.717	3.4953e-06	51.692	0.00057396	0.00048289	0.00013462	1368.9	5.2534e-06	5.4568e-06	1366.6	372.64	5.5498e-06	5.4026e-06	425.4	143.05	124.48	42.955	5.4591e-06	53.157	154.538	-88.069	-72.047	-158.868	-48.249	-20.849	-159.070	-154.350	-53.696	-22.731	-154.678	-150.832	-150.572	-145.067	-26.816	-145.854	-8191	255	
27004.453	1	1	0	0	0.14863	0.21871	0.099947	0.35659	0.13992	0.20397	0.32974	0.11272	0.18993	0.27493	0.30879	0.15544	0.14927	0.29032	0.13801	0.23094	-1.9583	-2.325	-2.6458	-2.7208	-2.5333	-2.7562	-2.6375	-2.7583	-2.5271	-2.2979	-2.9479	-2.4667	-2.6021	-2.7896	-2.4333	-2.8187	-170.838	172.715	177.508	131.143	87.798	43.304	98.123	100.818	-35.614	-98.392	-80.223	-158.917	101.874	-152.177	66.346	166.720	0.00071117	0.00039899	0.0001662	1347.6	3.5555e-06	4.361e-06	1343.6	366.02	6.4739e-06	5.2564e-06	416.02	139.87	121.69	41.663	6.1997e-06	51.585	0.00057061	0.00049829	0.00013125	1368.2	5.3844e-06	5.4793e-06	1365.9	372.39	5.592e-06	5.505e-06	424.96	143.09	124.4	42.906	5.3541e-06	53.146	155.120	-80.925	-84.790	-158.739	-66.129	-8.220	-159.026	-154.321	-58.475	-30.087	-154.800	-150.992	-150.164	-145.103	-45.502	-146.103	-8191	255	
27004.551	1	1	0	0	0.046778	0.0038502	0.12464	0.29289	0.17264	0.15138	0.26135	0.17971	0.26348	0.22408	0.015254	0.080674	0.21274	0.152	0.30095	0.2386	-2.1063	-2.275	-2.7604	-2.6604	-2.4437	-2.7646	-2.6208	-2.925	-2.6167	-2.4833	-2.85	-2.6312	-2.2479	-2.7479	-2.3937	-2.7125	-92.404	136.000	85.251	175.154	149.461	-24.655	158.771	185.623	-110.883	168.261	144.607	-64.692	-142.027	187.545	-75.006	183.597	0.00074176	0.00048008	0.00016038	1347.6	5.0882e-06	5.0565e-06	1343	365.3	5.3224e-06	3.8195e-06	417.44	139.93	121.77	41.881	5.1e-06	51.457	0.00057461	0.00048371	0.00013274	1366.7	5.2907e-06	5.33e-06	1365.9	372.12	5.4277e-06	5.5168e-06	425.42	143.04	124.18	42.907	5.3704e-06	53.121	155.874	-90.683	-85.285	-158.839	-62.353	-16.928	-159.005	-154.341	-57.416	-16.511	-154.626	-150.914	-150.368	-145.389	-44.245	-146.066	-8191	255	
27004.646	1	1	0	0	0.15532	0.10736	0.17411	0.2671	0.26638	0.21377	0.22437	0.13059	0.16342	0.13818	0.29112	0.19373	0.10819	0.30126	0.038265	0.20278	-2.0687	-2.2625	-2.5854	-2.7	-2.4313	-2.6396	-2.5625	-2.6979	-2.5771	-2.2542	-2.6167	-2.4833	-2.4562	-2.7354	-2.4729	-2.5563	-13.318	-101.031	-94.229	167.555	58.485	40.225	96.171	137.001	14.907	-127.355	175.047	169.412	135.017	174.064	-91.188	158.252	0.00074291	0.00053915	0.00015374	1349.2	4.3118e-06	5.7641e-06	1340.7	364.41	5.6664e-06	3.2716e-06	417.05	139.46	121.72	41.838	4.6001e-06	51.559	0.00057088	0.00049543	0.0001283	1366.7	5.5874e-06	5.2329e-06	1365.1	371.99	5.4792e-06	5.327e-06	425.26	142.66	124.2	42.904	5.2902e-06	53.046	155.237	-87.771	-80.795	-158.624	-48.807	-16.603	-159.115	-154.414	-67.075	-31.880	-154.617	-151.004	-150.204	-145.236	-49.450	-146.073	-8191	255	
27004.742	1	1	0	0	0.2613	0.19108	0.073872	0.065761	0.086952	0.12588	0.083335	0.19074	0.055738	0.20239	0.18424	0.092394	0.22612	0.25475	0.26516	0.10523	-2.2917	-2.3438	-2.5667	-2.6708	-2.4104	-2.8667	-2.65	-2.7938	-2.7146	-2.3229	-2.7167	-2.6083	-2.525	-2.8312	-2.3812	-2.5833	-64.888	-120.409	2.317	-162.631	66.516	77.342	130.426	139.805	-103.860	45.287	16.907	-146.567	-93.974	149.815	59.458	83.809	0.00076319	0.00047995	0.00016506	1346.4	4.7877e-06	5.209e-06	1338.4	364.56	5.1508e-06	5.382e-06	415.32	139.92	121.51	41.78	5.1053e-06	51.536	0.00057457	0.00049082	0.00013157	1365.9	5.1714e-06	5.0618e-06	1363.4	371.44	5.393e-06	5.331e-06	425.01	142.95	124.27	42.859	5.2938e-06	53.103	155.547	-84.717	-91.774	-158.785	-59.121	-6.079	-158.954	-154.520	-53.811	-13.713	-154.714	-150.945	-150.160	-145.165	-49.126	-146.113	-8191	255	
27004.838	1	1	0	0	0.17188	0.19269	0.026989	0.25114	0.20854	0.21049	0.26812	0.10756	0.060667	0.09508	0.28732	0.29646	0.38815	0.28661	0.13529	0.09665	-2.2812	-2.2792	-2.6375	-2.8917	-2.3917	-2.8833	-2.5292	-2.6917	-2.7333	-2.3812	-2.6813	-2.6979	-2.375	-2.8729	-2.6667	-2.5312	96.091	-160.086	14.540	143.746	-42.888	50.099	81.613	69.115	-160.378	-26.452	111.774	-171.321	-160.447	158.183	-81.360	-100.990	0.00072853	0.00049579	0.00013797	1344.4	3.7472e-06	4.8912e-06	1342.8	364.96	6.4716e-06	5.2573e-06	416.32	139.96	121.66	41.752	5.9653e-06	51.481	0.00056868	0.00047962	0.00013093	1364.9	5.2768e-06	4.9621e-06	1363.6	371.81	5.4202e-06	5.2522e-06	424.54	142.85	124.25	42.777	5.4199e-06	53.071	156.951	-90.121	-80.798	-158.656	-63.689	-24.726	-158.988	-154.333	-64.502	-4.917	-154.639	-151.061	-150.346	-145.322	-34.840	-145.873	-8191	255	
27004.957	1	1	0	0	0.062977	0.16707	0.10274	0.35557	0.035591	0.085532	0.24869	0.24421	0.037792	0.12912	0.30455	0.34793	0.22156	0.15893	0.14809	0.21777	-2.325	-2.3167	-2.5083	-2.6437	-2.4458	-2.8417	-2.7687	-2.55	-2.7417	-2.3083	-2.8167	-2.7854	-2.5333	-2.6542	-2.4896	-2.5021	-124.237	-98.880	171.280	167.512	-162.469	82.223	-166.147	55.685	-35.575	-72.235	170.005	63.122	166.523	136.510	78.432	-135.259	0.00074277	0.00035132	0.00012126	1342.1	5.5454e-06	4.8153e-06	1337.4	364.4	7.2868e-06	4.7409e-06	418.31	140.2	121.22	41.656	4.2586e-06	51.484	0.00056056	0.00048196	0.00013121	1362.9	5.4173e-06	4.9858e-06	1361.6	371.44	5.2496e-06	5.0538e-06	425.37	142.93	124.21	42.792	5.3541e-06	53.002	155.940	-90.172	-70.430	-158.787	-52.040	-35.585	-158.992	-154.370	-65.499	-22.839	-154.790	-151.058	-150.307	-145.085	-53.120	-145.994	-8191	255	
27005.055	1	1	0	0	0.19338	0.12615	0.26122	0.22722	0.16965	0.014038	0.36902	0.16919	0.096953	0.26674	0.14175	0.24153	0.26041	0.19226	0.045928	0.1405	-2.3729	-2.3063	-2.5271	-3.0958	-2.4313	-2.6271	-2.55	-2.2958	-2.8583	-2.5604	-2.5208	-2.7458	-2.5354	-2.7	-2.6542	-2.4875	-39.765	-44.795	-8.098	178.183	40.057	-145.981	95.286	51.560	8.454	1.387	167.552	-32.121	175.228	-166.570	167.140	158.651	0.00074803	0.00056035	0.00014345	1344.4	3.7958e-06	3.7823e-06	1340.5	364.43	6.0493e-06	4.7612e-06	418.24	140.15	121.51	42.042	3.9415e-06	51.533	0.00056009	0.00047857	0.00012651	1365.3	5.3493e-06	4.8531e-06	1364.2	371.74	5.0743e-06	5.1431e-06	424.76	143.1	124.19	42.966	5.3288e-06	53.08	154.001	-78.895	-85.598	-158.711	-66.986	-8.511	-159.031	-154.393	-66.686	-35.681	-154.680	-150.955	-150.313	-145.472	-28.401	-145.949	-8191	255	
27005.127	1	1	0	0	0.35432	0.11336	0.12246	0.38717	0.23373	0.086178	0.19661	0.17602	0.10909	0.24798	0.22512	0.13264	0.2135	0.038704	0.35517	0.2091	-2.2292	-2.3708	-2.4354	-2.8583	-2.3354	-2.5771	-2.7313	-2.3854	-2.5458	-2.4417	-2.5708	-2.8375	-2.2479	-2.5833	-2.5708	-2.2729	-110.668	155.804	175.971	127.332	54.616	62.637	145.365	145.269	-49.916	-86.983	169.317	-120.779	178.286	-122.720	64.880	80.916	0.00077597	0.00045052	0.00012915	1345.1	4.2842e-06	3.6119e-06	1342.2	366.02	5.5197e-06	6.3698e-06	416.76	139.98	121.96	41.824	4.7411e-06	51.548	0.00055443	0.00048482	0.00013353	1364.3	5.3448e-06	4.9891e-06	1363.9	372	5.2803e-06	5.287e-06	425.09	142.92	124.25	42.859	5.3119e-06	53.015	155.691	-76.240	-86.812	-158.728	-55.458	-24.868	-159.053	-154.355	-70.025	-18.354	-154.555	-151.197	-150.361	-145.206	-31.729	-146.475	-8191	255	
27005.223	1	1	0	0	0.35208	0.011378	0.20261	0.44006	0.10336	0.096061	0.15324	0.29554	0.091156	0.066435	0.341	0.14232	0.17345	0.11228	0.18702	0.25631	-2.2875	-2.5083	-2.4146	-2.8063	-2.3229	-2.6729	-2.875	-2.3104	-2.5729	-2.5	-2.3917	-2.9375	-2.5375	-2.5042	-2.6229	-2.4125	-164.158	8.927	138.592	143.670	77.947	59.479	163.816	183.861	111.580	-152.928	118.485	-153.573	-119.176	-129.792	89.552	135.105	0.00073108	0.00027751	0.0001201	1346	4.2359e-06	5.2432e-06	1343	364.6	6.071e-06	5.391e-06	416.03	140.09	121.78	41.706	3.1492e-06	51.528	0.00054966	0.0004616	0.00013117	1364	5.3287e-06	5.0625e-06	1363.3	371.68	5.0032e-06	5.1116e-06	424.38	143.07	124.12	42.871	5.1291e-06	53.007	156.273	-92.181	-77.586	-158.758	-55.705	-30.867	-158.963	-154.128	-53.235	-24.871	-154.587	-150.859	-150.201	-145.021	-16.678	-146.045	-8191	255	
27005.318	1	1	0	0	0.0757	0.075016	0.18026	0.2798	0.2173	0.30796	0.29221	0.13033	0.12189	0.13651	0.15154	0.13783	0.2056	0.32478	0.33841	0.040501	-2.0938	-2.625	-2.2313	-2.8958	-2.5208	-2.4042	-2.8667	-2.4667	-2.5792	-2.6896	-2.4125	-2.7771	-2.4667	-2.3812	-2.8438	-2.525	-9.211	71.200	137.566	147.010	-24.739	126.055	94.036	180.121	149.044	8.167	176.974	170.554	-167.277	152.828	46.394	-57.427	0.00073234	0.00053398	0.00013761	1345.3	5.1783e-06	4.1906e-06	1337.3	365.14	6.0565e-06	3.4475e-06	416.82	139.84	121.69	41.764	5.5263e-06	51.407	0.00055985	0.00046965	0.0001369	1363.7	5.2986e-06	5.2401e-06	1361.8	371.79	5.2768e-06	5.2049e-06	424.23	142.94	123.95	42.811	5.0061e-06	53.042	155.498	-89.024	-90.002	-158.740	-61.645	-6.831	-159.127	-154.487	-50.218	-14.575	-154.775	-150.970	-150.510	-145.081	-35.587	-145.992	-8191	255	
27005.438	1	1	0	0	0.17975	0.12419	0.14474	0.11265	0.19762	0.084649	0.17648	0.18373	0.15277	0.1363	0.17913	0.17627	0.24783	0.28811	0.11395	0.29804	-2.0708	-2.4688	-2.4021	-3.0458	-2.4271	-2.4208	-2.9458	-2.4	-2.5271	-2.7229	-2.3542	-2.8937	-2.5208	-2.3583	-2.8187	-2.5187	111.048	-85.692	19.529	110.340	-167.854	139.567	162.411	-131.129	-131.375	3.762	71.424	-30.461	-137.208	131.250	-93.036	137.520	0.00072954	0.00044628	0.00011301	1346.6	4.5278e-06	5.6934e-06	1342.4	366.31	5.5228e-06	4.685e-06	416.11	139.76	121.27	41.63	4.7468e-06	51.242	0.00055569	0.00048342	0.00013297	1365.7	5.4101e-06	5.3333e-06	1362.9	371.84	5.2265e-06	4.9816e-06	425.07	143	124.07	42.846	5.2594e-06	52.974	155.209	-82.820	-88.093	-158.691	-63.535	-17.840	-158.943	-154.317	-62.022	-31.180	-154.786	-150.902	-150.460	-145.433	-39.750	-146.118	-8191	255	
27005.535	1	1	0	0	0.035583	0.036979	0.16327	0.30659	0.088823	0.32311	0.21691	0.23176	0.15957	0.13221	0.19911	0.44292	0.084414	0.24664	0.19029	0.27051	-1.9708	-2.6792	-2.1625	-2.7917	-2.425	-2.5062	-2.9458	-2.2687	-2.3271	-2.6146	-2.4	-2.7	-2.65	-2.4583	-2.5354	-2.4667	92.741	166.019	-60.471	111.761	20.340	-23.167	-157.185	-127.876	-75.482	-16.216	-137.381	-30.175	-143.929	152.272	-146.185	91.418	0.00078309	0.00052912	0.00011792	1346.9	4.5833e-06	6.2678e-06	1343.3	365.54	5.7084e-06	4.1459e-06	415.28	139.81	121.8	41.67	4.6536e-06	51.331	0.00056939	0.00048377	0.00013286	1365.7	5.4045e-06	5.2738e-06	1363.4	372.14	5.3392e-06	5.2489e-06	424.12	142.86	124.29	42.829	5.0574e-06	53.004	156.080	-101.380	-102.153	-158.740	-58.656	-15.146	-159.189	-154.330	-51.959	-11.198	-154.728	-150.879	-150.422	-145.089	-55.021	-145.873	-8191	255	
27005.631	1	1	0	0	0.36077	0.29532	0.12362	0.05021	0.04156	0.14622	0.40609	0.24456	0.14816	0.3334	0.18557	0.18963	0.16908	0.08009	0.22556	0.19155	-2.0125	-2.7708	-2.1854	-2.7083	-2.5812	-2.2417	-2.9458	-2.4583	-2.3917	-2.6708	-2.3937	-2.6292	-2.7479	-2.2125	-2.7708	-2.5292	-155.365	-159.412	123.863	-31.939	168.322	-130.290	156.162	97.058	144.740	177.815	169.867	-155.957	171.795	124.453	-55.165	-170.103	0.00076063	0.00044734	0.00017622	1343.6	4.1658e-06	6.172e-06	1345.5	364.82	4.9537e-06	5.0665e-06	416.17	139.59	121.1	41.665	4.7325e-06	51.445	0.00056983	0.00046638	0.00013521	1363.8	5.3359e-06	5.4126e-06	1364.6	371.84	5.1576e-06	5.0742e-06	424.53	142.94	124.18	42.807	5.0562e-06	52.974	152.511	-81.353	-92.851	-158.576	-59.745	-17.733	-158.903	-154.318	-64.120	-15.244	-154.661	-150.918	-150.404	-145.258	-43.503	-145.877	-8191	255	
27005.727	1	1	0	0	0.32014	0.12351	0.088038	0.25235	0.026568	0.043508	0.13624	0.21387	0.185	0.085674	0.35239	0.26222	0.11553	0.02321	0.25341	0.14328	-1.9062	-2.7479	-2.3812	-2.5625	-2.6958	-2.3958	-2.7896	-2.3771	-2.3125	-2.5771	-2.4771	-2.5687	-2.7771	-2.4458	-2.5625	-2.4229	-108.209	39.358	-54.343	173.061	-7.747	-154.735	141.211	138.388	-164.318	-23.944	26.091	-102.775	161.903	-84.015	54.362	-145.244	0.0007628	0.00056397	0.00016313	1343.9	2.9856e-06	5.1351e-06	1341.3	365.09	5.4017e-06	6.2944e-06	416.4	139.61	120.92	41.828	5.1371e-06	51.454	0.00056946	0.0004574	0.00013256	1364.8	5.4279e-06	5.1662e-06	1362.8	371.54	5.5e-06	5.1445e-06	424.73	142.87	123.92	42.825	5.1189e-06	53.053	154.557	-86.673	-83.601	-158.763	-67.416	-20.213	-159.080	-154.142	-68.767	-19.321	-154.538	-151.004	-150.568	-145.203	-39.453	-145.964	-8191	255	
27005.822	1	1	0	0	0.13723	0.17452	0.012927	0.097205	0.19549	0.10516	0.22	0.28295	0.43009	0.097473	0.22361	0.13178	0.15098	0.23268	0.077027	0.19837	-1.6271	-2.6312	-2.3	-2.5542	-2.7438	-2.4771	-2.9125	-2.55	-2.1813	-2.8312	-2.7042	-2.4396	-2.7542	-2.375	-2.5104	-2.6958	-62.031	59.326	-8.568	-131.557	-36.539	127.593	96.350	146.770	10.736	144.037	79.226	-127.659	184.994	-161.497	23.395	135.573	0.00074075	0.00055349	0.00014156	1340.9	4.0975e-06	5.0214e-06	1343.3	364.39	4.9258e-06	4.6923e-06	415.49	139.77	121.95	41.658	4.3314e-06	51.499	0.00056046	0.00045198	0.00013271	1364	5.3499e-06	5.326e-06	1364.5	371.51	5.3832e-06	5.1628e-06	424.57	143	124.14	42.797	5.131e-06	52.989	156.781	-77.930	-84.535	-158.577	-76.128	-21.869	-159.048	-154.531	-55.488	-28.853	-154.535	-150.955	-150.439	-144.954	-40.983	-145.732	-8191	255	
27005.920	1	1	0	0	0.047273	0.082408	0.11826	0.32571	0.19645	0.28731	0.1274	0.1979	0.1885	0.091126	0.34743	0.047695	0.2075	0.079808	0.18848	0.06991	-1.625	-2.6083	-2.425	-2.4833	-2.7229	-2.2958	-2.6729	-2.7458	-2.1958	-2.7375	-2.5958	-2.4	-2.9125	-2.3229	-2.6	-2.5271	71.828	160.736	169.535	156.125	26.198	-97.012	44.580	120.099	60.593	55.397	183.728	147.915	-11.645	10.393	-105.969	80.995	0.00079246	0.00049797	8.9227e-05	1345.6	4.8332e-06	4.6519e-06	1337.8	363.97	6.2773e-06	5.0973e-06	414.86	139.57	121.08	41.67	4.9418e-06	51.398	0.00057508	0.00045606	0.00013317	1364.4	5.2199e-06	5.1239e-06	1362.4	371.4	5.2681e-06	4.912e-06	424.46	142.71	123.99	42.775	5.1611e-06	52.971	154.418	-83.989	-94.195	-158.607	-70.512	-27.803	-159.062	-154.360	-57.337	-14.826	-154.649	-151.202	-150.293	-145.020	-38.280	-146.092	-8191	255	
27006.037	1	1	0	0	0.068083	0.0069741	0.062697	0.40616	0.18511	0.055579	0.28424	0.32727	0.13906	0.071795	0.13748	0.13499	0.28855	0.08017	0.22717	0.21613	-1.8792	-2.6375	-2.5208	-2.5687	-2.7146	-2.4771	-2.75	-2.7958	-2.4292	-2.5917	-2.7208	-2.3396	-2.775	-2.5542	-2.4458	-2.8917	-35.988	-120.026	44.832	168.800	126.281	26.067	90.465	182.865	3.338	-160.278	82.578	112.792	-156.520	-38.712	-28.447	142.481	0.00079732	0.00042425	0.0001428	1341.6	4.0658e-06	6.1909e-06	1336.7	364.56	6.11e-06	5.6265e-06	415.75	139.85	121.98	41.67	3.6431e-06	51.22	0.00057725	0.00045979	0.00013166	1362.7	5.1753e-06	5.3029e-06	1360.7	370.99	5.4862e-06	5.0801e-06	424.41	142.83	124.02	42.752	5.2902e-06	52.992	156.108	-85.339	-87.996	-158.617	-58.092	-22.558	-158.920	-154.323	-59.552	-45.886	-154.661	-151.020	-150.320	-145.256	-31.358	-145.994	-8191	255	
27006.135	1	1	0	0	0.042336	0.21163	0.10964	0.22433	0.19732	0.26153	0.1756	0.1273	0.063295	0.050645	0.26075	0.25708	0.11097	0.32548	0.16691	0.19849	-2.0187	-2.7021	-2.5417	-2.5542	-2.6854	-2.3542	-2.5208	-2.775	-2.3958	-2.4313	-2.5938	-2.4875	-2.7354	-2.6312	-2.2583	-2.8667	-64.459	103.218	115.694	142.603	-31.002	9.430	66.628	118.479	85.142	36.969	126.597	110.455	14.691	156.172	-12.084	159.210	0.00072752	0.00037953	0.0001325	1345.4	4.4228e-06	5.8864e-06	1337.1	366.07	5.8548e-06	5.5676e-06	415.77	139.6	121.61	41.714	4.1077e-06	51.545	0.00056107	0.00046557	0.00013284	1363.3	5.1725e-06	5.5869e-06	1362.8	371.83	5.2641e-06	5.0164e-06	424.15	142.47	124.11	42.801	5.2015e-06	53.019	154.054	-64.911	-80.076	-158.643	-64.722	-27.598	-159.102	-154.202	-62.388	-17.933	-154.567	-150.837	-150.581	-145.291	-30.291	-145.879	-8191	255	
27006.230	1	1	0	0	0.21883	0.12894	0.23592	0.17323	0.39408	0.024294	0.079721	0.086651	0.057359	0.23957	0.27245	0.27242	0.26668	0.33471	0.15245	0.056741	-1.9208	-2.3979	-2.5375	-2.5438	-2.7333	-2.5333	-2.4292	-2.6917	-2.4104	-2.5479	-2.4875	-2.2854	-2.7687	-2.6021	-2.3063	-2.7917	79.938	59.704	72.440	175.537	106.797	-75.572	-146.298	-153.981	-52.482	-133.115	74.303	128.683	186.631	133.345	-52.038	33.092	0.00073798	0.00052237	0.00011579	1343.3	4.7877e-06	6.7213e-06	1337.4	364.92	6.2617e-06	5.1435e-06	415.66	139.32	121.04	41.812	4.3812e-06	51.569	0.00056878	0.00048254	0.00013622	1363.4	5.3699e-06	5.4819e-06	1361.5	371.6	5.3155e-06	5.1983e-06	424.07	142.68	124.02	42.841	5.2383e-06	53.059	153.560	-82.293	-77.963	-158.760	-56.531	-22.295	-159.108	-154.332	-70.108	-23.085	-154.671	-150.943	-150.192	-145.026	-36.461	-146.026	-8191	255	
27006.352	1	1	0	0	0.051389	0.227	0.14498	0.4185	0.032444	0.24468	0.2308	0.088409	0.071106	0.27155	0.086594	0.44802	0.15393	0.21232	0.34602	0.052159	-1.8563	-2.3479	-2.4396	-2.5646	-2.5146	-2.55	-2.4813	-2.8208	-2.2292	-2.4104	-2.7458	-2.3708	-2.5792	-2.5854	-2.2708	-2.8563	83.268	36.898	20.265	129.921	-107.736	-133.921	152.616	104.302	163.339	33.852	-20.298	151.650	121.312	94.846	164.625	-142.131	0.00074427	0.00037414	0.0001633	1344.2	4.7848e-06	4.2808e-06	1340.2	365.31	5.7844e-06	5.3887e-06	415.67	139.51	121.37	41.661	5.2432e-06	51.377	0.00056685	0.00047012	0.00013215	1362.9	5.2852e-06	5.291e-06	1360.8	371.52	5.6082e-06	5.2279e-06	423.88	142.64	123.98	42.787	5.3071e-06	52.978	156.114	-92.239	-76.165	-158.755	-57.502	-25.879	-158.987	-154.395	-60.470	-26.848	-154.527	-151.058	-150.472	-145.191	-33.431	-145.997	-8191	255	
27006.424	1	1	0	0	0.18975	0.15792	0.12169	0.39123	0.094809	0.14456	0.24514	0.13165	0.24755	0.041145	0.084016	0.26336	0.28848	0.13794	0.010251	0.40976	-1.9646	-2.4083	-2.6312	-2.6333	-2.5083	-2.5896	-2.5208	-2.6771	-2.5062	-2.2667	-2.7125	-2.4667	-2.5771	-2.6437	-2.175	-2.5104	139.346	97.137	121.542	164.016	143.282	52.450	131.304	175.219	164.746	56.415	69.039	110.169	119.485	156.117	-25.157	141.926	0.00074965	0.00051791	0.0001047	1342.4	4.8667e-06	5.0289e-06	1340.5	365.6	4.8476e-06	5.9517e-06	416.3	139.83	120.97	41.498	5.957e-06	51.385	0.00055518	0.00047472	0.00012921	1362.5	5.3538e-06	5.1556e-06	1362.5	371.47	5.4463e-06	5.1399e-06	424.85	142.77	123.79	42.751	5.3095e-06	53.009	153.374	-87.768	-83.733	-158.591	-64.022	-14.766	-159.141	-154.648	-59.817	-23.543	-154.658	-151.051	-150.428	-145.205	-41.327	-145.963	-8191	255	
27006.520	1	1	0	0	0.094506	0.17708	0.26412	0.28678	0.29125	0.16913	0.41189	0.26683	0.09412	0.28616	0.10472	0.11543	0.22539	0.063949	0.14332	0.16166	-2.0062	-2.2083	-2.6937	-2.6021	-2.6396	-2.5896	-2.6104	-2.6146	-2.5208	-2.3896	-2.85	-2.6937	-2.375	-2.6396	-2.1979	-2.7875	107.365	159.590	2.244	147.423	171.043	45.512	148.091	183.353	126.754	-155.299	-111.546	153.593	128.071	158.406	-172.299	176.640	0.00076075	0.00032289	0.00012607	1341.5	4.3693e-06	5.2741e-06	1338.5	364.7	5.0024e-06	4.5362e-06	415.93	139.54	120.76	41.694	4.9523e-06	51.341	0.00057653	0.00047157	0.00012604	1362.3	5.3119e-06	5.1886e-06	1361.4	371.16	5.3994e-06	4.9645e-06	424.29	142.7	123.7	42.772	5.2251e-06	53.01	156.704	-67.543	-77.773	-158.738	-54.245	-21.367	-159.077	-154.421	-67.784	-13.051	-154.793	-150.923	-150.533	-144.857	-36.611	-146.015	-8191	255	
27006.615	1	1	0	0	0.25556	0.10769	0.12466	0.24497	0.12746	0.30154	0.20442	0.20255	0.079578	0.13034	0.14705	0.044573	0.23356	0.19765	0.18311	0.26092	-2.0542	-2.0667	-2.7125	-2.5625	-2.4146	-2.6042	-2.5625	-2.6562	-2.4896	-2.2958	-2.8521	-2.8063	-2.5438	-2.7292	-2.2812	-2.5542	-40.911	136.728	60.046	133.919	-141.015	-77.280	110.484	35.298	76.934	177.122	-145.327	-78.515	-56.948	-166.090	-50.142	-110.045	0.00073736	0.00033448	0.00010574	1343.7	3.1099e-06	5.1314e-06	1335.9	364.75	5.5421e-06	5.1911e-06	416.43	139.7	121.09	41.736	4.4011e-06	51.499	0.00055897	0.00046213	0.00012323	1363.3	5.2567e-06	5.2791e-06	1360.2	371.09	5.223e-06	4.9862e-06	424.32	142.69	123.87	42.765	5.3656e-06	52.94	155.078	-91.508	-82.413	-158.666	-62.480	-22.166	-159.114	-154.306	-68.377	-21.428	-154.538	-150.883	-150.159	-145.194	-36.044	-146.213	-8191	255	
27006.734	1	1	0	0	0.17401	0.13492	0.098069	0.26741	0.11141	0.18767	0.2103	0.2498	0.17242	0.17472	0.082225	0.25246	0.24673	0.12751	0.17803	0.040408	-2.1667	-2.0479	-2.7042	-2.6771	-2.3771	-2.6125	-2.5292	-2.8083	-2.6188	-2.3583	-2.7146	-2.5	-2.3688	-2.8458	-2.3125	-2.6958	-140.226	-104.720	27.410	166.357	-20.205	-142.702	172.793	-69.750	-133.137	-72.930	-57.233	145.465	4.822	-96.009	126.654	63.797	0.00073294	0.00047537	0.00016174	1342.2	4.3916e-06	5.3109e-06	1339.6	364.2	5.4048e-06	3.5782e-06	414.58	139.79	121.14	41.805	4.3029e-06	51.347	0.00054638	0.0004812	0.000134	1360.1	5.3058e-06	4.9502e-06	1360.8	371.3	5.1686e-06	4.9474e-06	423.72	142.66	123.81	42.816	5.3578e-06	52.989	153.635	-64.972	-85.584	-158.768	-65.982	-32.793	-159.031	-154.359	-54.752	-22.407	-154.723	-150.943	-150.323	-145.165	-45.992	-146.046	-8191	255	
27006.830	1	1	0	0	0.2123	0.019572	0.17149	0.18177	0.23319	0.036433	0.1982	0.3366	0.18535	0.13526	0.26134	0.0737	0.26765	0.31968	0.35034	0.058644	-2.2479	-2.3104	-2.6354	-2.6229	-2.0583	-2.6937	-2.6417	-2.6063	-2.7542	-2.425	-2.7667	-2.7313	-2.4396	-2.8479	-2.5167	-2.5125	-3.319	136.478	-167.683	144.767	-95.324	-91.783	90.781	162.982	-30.019	-0.005	95.985	-106.416	125.664	155.248	-8.124	-37.501	0.00077047	0.00049084	0.0001345	1344.2	5.4497e-06	5.3117e-06	1343.6	363.77	6.9422e-06	5.0778e-06	415.5	139.36	121.66	41.571	4.2739e-06	51.431	0.00056861	0.00045775	0.00012681	1361.4	5.3755e-06	5.0334e-06	1361.6	371	5.2218e-06	5.1366e-06	424.11	142.68	124	42.769	5.1557e-06	52.965	156.468	-77.144	-82.849	-158.645	-74.133	-29.628	-159.042	-154.415	-67.983	-14.427	-154.621	-150.959	-150.348	-145.412	-43.187	-146.069	-8191	255	
27006.926	1	1	0	0	0.17064	0.040054	0.1737	0.42672	0.14877	0.12995	0.39345	0.36199	0.17033	0.20298	0.19011	0.19121	0.15784	0.30311	0.1597	0.22227	-2.3021	-2.1271	-2.4313	-2.7896	-2.2417	-2.625	-2.8125	-2.5104	-2.8271	-2.4146	-2.6729	-2.8396	-2.2771	-2.6146	-2.4417	-2.5521	-36.787	25.517	-73.952	-149.777	4.674	-45.479	156.473	135.374	-157.350	40.012	185.898	-159.092	118.131	84.857	-36.974	123.941	0.00075113	0.00051909	0.00010286	1340	3.7573e-06	4.7736e-06	1338	364.03	6.7984e-06	6.2541e-06	416.21	139.9	121.7	41.714	4.1177e-06	51.507	0.00055345	0.00047776	0.00013269	1360.9	5.3164e-06	5.0156e-06	1360.1	371.01	5.0807e-06	5.2482e-06	424.55	142.8	124.12	42.766	5.1219e-06	53.052	155.396	-83.081	-94.299	-158.749	-57.055	-24.793	-159.050	-154.422	-59.153	-21.334	-154.851	-150.862	-150.416	-145.458	-35.346	-145.875	-8191	255	
27007.000	1	1	0	0	0.016359	0.13593	0.11915	0.33557	0.25457	0.024337	0.29212	0.36042	0.086653	0.12083	0.1415	0.21909	0.28705	0.18404	0.27452	0.10104	-2.1125	-2.3937	-2.2708	-2.8833	-2.2667	-2.6875	-2.6625	-2.3667	-2.6833	-2.3646	-2.5833	-2.7938	-2.5812	-2.7646	-2.5792	-2.3625	125.946	107.862	151.802	176.710	105.346	-69.851	130.058	169.291	-152.204	-128.107	-121.286	158.754	90.154	157.149	-18.550	-2.530	0.00073755	0.00045714	0.00013131	1342.2	4.3216e-06	3.9459e-06	1336.4	365.6	6.7761e-06	4.355e-06	416.01	139.76	121.42	41.668	4.3039e-06	51.402	0.0005389	0.0004917	0.00012692	1362	5.211e-06	4.9178e-06	1360	371.57	5.1229e-06	5.2574e-06	424.21	142.94	124.02	42.784	5.2444e-06	53.039	154.288	-76.444	-75.117	-158.496	-55.312	-15.887	-159.140	-154.262	-50.762	-20.569	-154.969	-150.979	-150.443	-145.254	-23.838	-146.110	-8191	255	
27007.117	1	1	0	0	0.15778	0.2947	0.20046	0.17829	0.32186	0.026868	0.2535	0.1432	0.18194	0.066462	0.25322	0.19617	0.076279	0.16201	0.23023	0.1499	-2.3729	-2.4437	-2.4062	-3.0729	-2.3458	-2.6375	-2.7833	-2.3875	-2.8187	-2.5792	-2.4562	-2.8229	-2.5458	-2.6854	-2.7896	-2.5312	-85.973	114.807	113.830	171.574	-155.565	157.727	142.487	-142.502	165.223	121.128	186.771	52.527	-11.656	-156.858	-66.471	-138.206	0.00076017	0.00055816	0.00013449	1342	5.3526e-06	4.4345e-06	1339.2	364.31	4.4036e-06	4.3559e-06	415.28	139.84	121.98	41.71	4.5769e-06	51.592	0.00056435	0.00047857	0.0001296	1363.4	5.2472e-06	5.108e-06	1362.3	371.03	5.0217e-06	5.0499e-06	424.13	142.96	124.28	42.785	5.2594e-06	52.972	155.745	-74.095	-88.335	-158.729	-61.762	-15.891	-158.991	-154.320	-64.391	-27.397	-154.577	-151.012	-150.569	-145.064	-35.227	-146.038	-8191	255	
27007.215	1	1	0	0	0.2634	0.15331	0.17954	0.31898	0.075046	0.2137	0.16534	0.11574	0.18477	0.057768	0.38468	0.23839	0.2237	0.3223	0.14302	0.19681	-2.2292	-2.5333	-2.325	-2.8438	-2.4521	-2.4896	-2.8312	-2.4	-2.5875	-2.4875	-2.4354	-2.7917	-2.5458	-2.5375	-2.7812	-2.4146	116.026	145.536	70.233	133.929	119.655	154.427	101.688	36.306	86.283	95.901	-144.699	125.796	25.994	146.816	-100.815	149.852	0.00073326	0.00039031	0.00014437	1344.2	4.6949e-06	3.1431e-06	1336.4	364.74	5.4671e-06	6.2121e-06	417.28	139.46	121.17	41.721	4.1757e-06	51.348	0.00056161	0.00046773	0.00013291	1362.4	5.4274e-06	5.1477e-06	1360.9	370.9	5.1148e-06	5.1976e-06	424.62	142.76	123.8	42.793	5.1889e-06	53.013	155.365	-78.308	-76.466	-158.739	-61.184	-9.076	-158.963	-154.255	-64.571	-11.925	-154.687	-150.897	-150.397	-145.376	-37.686	-146.062	-8191	255	
27007.311	1	1	0	0	0.10897	0.35018	0.21139	0.36659	0.15351	0.16447	0.42615	0.27064	0.19631	0.16955	0.059529	0.11372	0.18484	0.16767	0.25174	0.12435	-2.3583	-2.4813	-2.2396	-2.825	-2.2562	-2.4375	-2.95	-2.4917	-2.6396	-2.6208	-2.4625	-2.7062	-2.5604	-2.5167	-2.6583	-2.2729	107.735	180.386	-168.558	153.280	-147.595	-116.719	178.854	105.850	-28.767	37.741	-107.497	-72.183	149.768	179.975	-63.589	105.945	0.00071726	0.00050287	0.00010078	1340.5	5.4415e-06	5.1128e-06	1336.5	364.34	6.0897e-06	4.6619e-06	416.4	139.19	121.33	41.509	4.116e-06	51.405	0.00054793	0.00046388	0.00013107	1361.5	5.3571e-06	5.2613e-06	1359.9	371.08	5.2218e-06	5.2778e-06	424.92	142.63	124.02	42.79	4.9645e-06	52.977	155.571	-97.609	-73.513	-158.720	-68.806	-21.725	-158.982	-154.456	-63.739	-13.002	-154.677	-150.863	-150.450	-145.155	-39.452	-146.209	-8191	255	
27007.432	1	1	0	0	0.16682	0.16723	0.40404	0.26567	0.0446	0.087282	0.38723	0.15576	0.19712	0.32402	0.39613	0.23779	0.20591	0.20243	0.052171	0.084729	-2.2229	-2.3167	-2.2792	-2.8375	-2.4354	-2.4458	-2.7583	-2.6146	-2.6208	-2.6521	-2.3917	-2.6417	-2.5646	-2.3708	-2.8854	-2.5542	-86.033	100.530	181.907	125.522	11.217	176.171	142.335	168.482	61.841	-86.088	147.471	148.027	-78.570	173.842	-61.158	-159.734	0.00073403	0.00043332	0.00014003	1342.9	3.7029e-06	6.5868e-06	1336.5	365.57	7.3184e-06	5.5285e-06	416.65	139.56	121.18	41.662	4.6069e-06	51.443	0.0005656	0.00046382	0.00012931	1362.2	5.2762e-06	5.3293e-06	1359.3	371.38	5.1964e-06	5.331e-06	424.57	142.66	123.98	42.786	5.1991e-06	53.026	155.192	-80.772	-56.946	-158.671	-43.588	-18.801	-158.896	-154.572	-64.187	-18.257	-154.618	-151.003	-150.302	-144.859	-24.649	-146.260	-8191	255	
27007.527	1	1	0	0	0.10196	0.18853	0.20064	0.36013	0.14468	0.22733	0.35289	0.18472	0.17129	0.20002	0.048667	0.038691	0.17999	0.31518	0.046358	0.099823	-2.1042	-2.525	-2.1437	-2.7125	-2.4188	-2.3688	-2.95	-2.5438	-2.475	-2.5729	-2.5125	-2.8667	-2.6625	-2.3063	-2.6396	-2.6312	-154.530	153.256	63.378	100.659	49.516	-22.189	150.391	134.648	55.489	-15.552	39.578	37.076	-137.787	-171.165	138.191	131.628	0.00076021	0.00061711	9.6564e-05	1339.6	4.6087e-06	3.6706e-06	1339.4	364.81	4.5205e-06	4.9119e-06	417.31	140.18	121.5	41.647	5.4589e-06	51.265	0.000561	0.00048347	0.00013006	1361.9	5.2891e-06	5.1265e-06	1361.3	371.28	5.4058e-06	5.149e-06	424.44	142.7	124.05	42.765	5.1708e-06	52.951	154.634	-63.229	-94.323	-158.598	-63.090	-24.047	-158.991	-154.335	-70.950	-45.292	-154.747	-151.103	-150.397	-145.256	-59.206	-145.838	-8191	255	
27007.623	1	1	0	0	0.21372	0.05262	0.06047	0.041249	0.060423	0.12809	0.23867	0.20996	0.11583	0.16792	0.22134	0.22964	0.17422	0.13564	0.033662	0.082429	-1.9813	-2.6917	-2.4208	-2.9062	-2.6292	-2.3104	-2.8229	-2.6396	-2.3479	-2.5917	-2.45	-2.7438	-2.7667	-2.4833	-2.6521	-2.525	-42.953	79.140	-88.871	142.527	-39.939	-66.301	182.416	51.541	117.678	139.685	-129.424	-48.817	163.177	-132.333	-4.773	137.540	0.00073516	0.00038675	0.00015509	1343.7	4.3193e-06	4.7973e-06	1339.2	364.57	5.5594e-06	5.3874e-06	414.59	139.31	121.68	41.812	4.6213e-06	51.444	0.00056205	0.00046551	0.00012694	1362.5	5.3008e-06	4.9753e-06	1360.2	370.88	5.2051e-06	5.1149e-06	423.23	142.43	123.91	42.797	5.0592e-06	52.916	154.565	-80.760	-79.648	-158.599	-63.178	-30.614	-159.163	-154.281	-44.797	-15.600	-154.659	-150.811	-150.505	-145.096	-39.136	-145.795	-8191	255	
27007.721	1	1	0	0	0.064242	0.2449	0.27138	0.17301	0.12247	0.14034	0.2544	0.16286	0.19176	0.38871	0.26194	0.24352	0.31981	0.07527	0.12998	0.10737	-1.9604	-2.5646	-2.2458	-2.9062	-2.5375	-2.4271	-2.7875	-2.7396	-2.3875	-2.8021	-2.2438	-2.5917	-2.6958	-2.3729	-2.7188	-2.7667	-9.575	108.500	-24.376	154.881	122.811	124.864	124.275	-103.526	97.290	60.445	174.267	108.703	105.607	119.758	167.366	-97.291	0.00077881	0.00046631	0.00016806	1339.7	4.1605e-06	5.1065e-06	1339.1	365.58	5.3308e-06	4.5959e-06	415.04	139.64	121.48	41.718	2.8957e-06	51.522	0.00056432	0.0004763	0.00013658	1360.3	5.2657e-06	5.2818e-06	1359.3	371.29	5.2218e-06	5.0203e-06	422.94	142.52	123.88	42.729	4.9946e-06	53.042	154.511	-87.578	-95.072	-158.845	-61.681	-10.564	-159.039	-154.486	-59.080	-30.039	-154.798	-150.823	-150.552	-145.072	-47.035	-145.883	-8191	255	
27007.816	1	1	0	0	0.072325	0.2003	0.36271	0.46106	0.18819	0.10274	0.095251	0.15873	0.09875	0.17138	0.053561	0.28623	0.22526	0.257	0.24888	0.22562	-1.875	-2.6917	-2.3708	-2.5938	-2.6396	-2.4292	-2.8667	-2.6813	-2.3417	-2.725	-2.4792	-2.5021	-2.8417	-2.375	-2.6729	-2.675	13.903	27.172	43.722	120.501	-156.864	112.366	103.150	120.075	72.651	59.660	112.723	31.104	93.875	162.711	-78.844	89.722	0.00075464	0.00052911	0.00014208	1339.3	4.2756e-06	4.0241e-06	1336.6	364.09	6.5988e-06	6.1026e-06	413.96	139.76	121.49	41.457	4.6821e-06	51.087	0.00057244	0.00046364	0.0001322	1360.5	5.0454e-06	5.1741e-06	1360.1	370.46	5.2282e-06	5.0354e-06	423.16	142.67	123.94	42.658	5.2426e-06	52.838	156.212	-90.431	-84.578	-158.705	-57.306	-22.012	-159.077	-154.270	-57.509	-35.020	-154.726	-150.800	-150.519	-145.104	-30.706	-146.176	-8191	255	
27007.910	1	1	0	0	0.051463	0.18905	0.10372	0.34432	0.218	0.15902	0.24505	0.10222	0.18897	0.22877	0.13021	0.26957	0.12853	0.25737	0.14947	0.025443	-2.0042	-2.75	-2.4125	-2.6542	-2.6688	-2.3104	-2.6896	-2.7521	-2.1937	-2.6875	-2.8438	-2.6604	-2.8292	-2.4604	-2.7542	-2.5792	-122.330	60.798	2.087	177.952	35.323	64.786	170.881	39.743	33.617	182.986	-47.384	117.174	103.766	151.642	49.266	-125.545	0.00071114	0.00054689	0.00015866	1342	4.6699e-06	4.6266e-06	1337.3	365.68	5.1679e-06	5.9696e-06	416.02	139.13	121.14	41.766	3.9497e-06	51.286	0.00054729	0.0004623	0.0001326	1360.2	5.3248e-06	5.1166e-06	1359.3	371.2	5.1894e-06	5.0709e-06	423.82	142.51	123.84	42.795	5.0568e-06	52.9	156.212	-86.842	-95.327	-158.558	-74.793	-24.922	-158.893	-154.441	-57.672	-30.454	-154.707	-150.754	-150.329	-145.398	-38.630	-145.956	-8191	255	
27008.031	1	1	0	0	0.12765	0.21628	0.066111	0.21562	0.21586	0.087465	0.14208	0.31901	0.29631	0.085372	0.22764	0.29757	0.23004	0.32852	0.27907	0.22469	-1.8271	-2.5896	-2.4771	-2.6625	-2.6729	-2.4208	-2.9479	-2.8333	-2.3229	-2.7896	-2.7708	-2.3229	-2.7562	-2.5333	-2.5271	-2.7021	-70.842	-127.775	81.850	141.313	-9.263	109.217	174.215	144.970	-136.660	-71.695	-167.525	-65.596	-120.686	146.916	-7.256	100.241	0.0007452	0.00056348	0.00015494	1342.1	5.3065e-06	5.1218e-06	1336.1	363.26	6.297e-06	5.0164e-06	417.43	140.08	121.13	41.503	3.5687e-06	51.409	0.00057061	0.00045046	0.00013307	1360.6	5.1976e-06	5.2117e-06	1359.8	371.05	5.3849e-06	5.0144e-06	424.75	142.76	124.11	42.737	5.0905e-06	52.991	155.464	-61.533	-82.709	-158.600	-64.734	-7.236	-159.032	-154.324	-60.318	1.617	-154.675	-150.977	-150.618	-145.051	-35.394	-145.931	-8191	255	
27008.127	1	1	0	0	0.33239	0.10586	0.2601	0.13629	0.027987	0.12766	0.42129	0.10918	0.1859	0.13177	0.20305	0.15127	0.21782	0.12328	0.16661	0.1598	-1.8146	-2.6396	-2.5062	-2.6417	-2.8417	-2.5292	-2.7542	-2.8438	-2.4167	-2.5333	-2.6833	-2.5042	-2.8125	-2.5604	-2.3042	-2.8146	29.653	76.535	134.186	-162.258	172.044	-134.514	108.890	171.252	35.184	-30.098	162.977	142.572	-144.181	-100.987	-120.402	70.578	0.00073597	0.00046691	0.00011259	1342.3	5.105e-06	4.6629e-06	1339.7	364.67	5.7798e-06	4.6939e-06	417.06	140.02	121.4	41.603	3.737e-06	51.311	0.00056824	0.00046837	0.00012527	1361.9	5.1279e-06	5.3227e-06	1360.4	371.35	5.3682e-06	4.9993e-06	424.42	142.95	124.01	42.776	5.1762e-06	52.916	157.622	-78.321	-85.677	-158.752	-65.541	-23.835	-159.135	-154.515	-51.136	-13.325	-154.721	-150.939	-150.375	-145.316	-42.670	-145.770	-8191	255	
27008.223	1	1	0	0	0.28086	0.20603	0.091156	0.29405	0.092514	0.19394	0.30443	0.061065	0.063345	0.16503	0.18788	0.16069	0.24693	0.033957	0.14518	0.39609	-1.8729	-2.5625	-2.6208	-2.4104	-2.7354	-2.5021	-2.5771	-2.9729	-2.5312	-2.6813	-2.7125	-2.3667	-2.7896	-2.6562	-2.3292	-2.7542	53.650	164.443	-130.807	127.949	137.870	160.645	125.933	167.022	-103.596	154.012	146.540	97.940	174.933	-169.148	-42.858	125.039	0.0007509	0.0003715	0.00013381	1346.6	4.1875e-06	5.0245e-06	1339.3	364.85	6.8791e-06	6.4136e-06	416.86	139.96	121.57	41.49	4.1609e-06	51.437	0.00056777	0.00045956	0.00013093	1363	5.1586e-06	5.2302e-06	1362.1	371.08	5.4069e-06	5.2285e-06	424.63	142.8	123.99	42.757	5.1967e-06	52.929	154.309	-83.966	-74.941	-158.552	-71.623	-26.133	-158.982	-154.224	-59.109	-27.046	-154.708	-151.053	-150.396	-145.256	-39.156	-146.076	-8191	255	
27008.295	1	1	0	0	0.2108	0.084187	0.18531	0.25571	0.087121	0.098126	0.48923	0.15388	0.21013	0.37789	0.077855	0.14608	0.10724	0.38413	0.13934	0.16057	-1.7812	-2.5104	-2.625	-2.3812	-2.5146	-2.5167	-2.4229	-2.8271	-2.3375	-2.45	-2.7667	-2.4437	-2.5187	-2.6625	-2.4542	-2.7375	154.027	-43.381	-120.823	136.434	-115.230	43.373	110.374	134.759	-30.087	137.097	76.329	97.124	123.206	161.373	103.200	-113.736	0.0007445	0.00058538	0.00010813	1339	5.6836e-06	4.2769e-06	1339.4	363.98	3.9979e-06	6.4237e-06	415.96	139.68	121.58	41.671	3.9815e-06	51.369	0.0005698	0.00048038	0.00012771	1361.4	5.3493e-06	5.0572e-06	1361.2	370.8	5.2178e-06	5.0532e-06	424.16	142.69	123.97	42.795	5.2522e-06	52.95	154.851	-75.260	-88.411	-158.548	-64.115	-12.675	-158.990	-154.266	-50.265	-9.986	-154.690	-151.048	-150.370	-145.285	-46.995	-146.027	-8191	255	
27008.416	1	1	0	0	0.073269	0.12338	0.11757	0.18509	0.27217	0.077052	0.25623	0.33155	0.04386	0.15753	0.11639	0.096153	0.072984	0.26988	0.14901	0.38809	-2.1562	-2.2146	-2.7062	-2.5604	-2.5563	-2.6792	-2.4792	-2.7188	-2.2167	-2.2854	-2.8688	-2.3063	-2.5438	-2.5938	-2.2729	-2.8312	-121.923	21.415	112.349	144.359	-171.118	-45.086	67.480	110.811	-51.341	-171.892	146.646	148.584	-50.472	115.179	-120.505	157.796	0.0007439	0.0004528	0.00012477	1345.1	3.6292e-06	4.1251e-06	1336.7	365.03	5.5825e-06	4.0541e-06	415.7	139.37	121.25	41.8	5.0921e-06	51.351	0.00055866	0.00048248	0.00012751	1364.2	5.2004e-06	4.9706e-06	1363	371.54	5.3647e-06	5.0919e-06	424.57	142.71	123.96	42.793	5.3801e-06	52.969	155.750	-82.060	-103.170	-158.835	-61.952	-27.225	-158.951	-154.207	-60.680	-18.931	-154.518	-150.960	-150.451	-145.249	-34.968	-146.356	-8191	255	
27008.512	1	1	0	0	0.36359	0.044023	0.28202	0.17784	0.18116	0.23371	0.1514	0.25841	0.0553	0.20254	0.13682	0.13739	0.19623	0.15983	0.2916	0.26988	-2.0646	-2.0563	-2.6583	-2.4333	-2.5583	-2.5833	-2.5167	-2.7917	-2.7083	-2.3208	-2.8896	-2.3833	-2.6292	-2.7458	-2.2625	-2.7729	134.671	8.405	-76.884	83.325	149.206	61.519	106.863	90.230	-5.492	-87.330	149.226	-142.896	165.654	186.122	103.170	102.917	0.00075904	0.00051452	0.00014248	1343.7	4.1478e-06	4.5951e-06	1341.1	364.08	5.8719e-06	5.7309e-06	416.29	140.01	121.64	41.743	4.9506e-06	51.463	0.00056713	0.00046644	0.00012872	1363.4	5.1876e-06	5.0928e-06	1364.8	371.08	5.3103e-06	5.1202e-06	424.59	142.87	124.07	42.822	5.3017e-06	53.029	155.870	-91.930	-77.009	-158.638	-77.212	-28.080	-159.016	-154.392	-55.589	-7.908	-154.930	-151.019	-150.148	-145.243	-35.578	-146.102	-8191	255	
27008.607	1	1	0	0	0.1024	0.10336	0.03564	0.34378	0.03703	0.27584	0.39327	0.1755	0.19227	0.20059	0.31369	0.53623	0.25854	0.33966	0.095766	0.068522	-1.9625	-2.0604	-2.6229	-2.6	-2.4708	-2.7604	-2.4479	-2.5771	-2.5187	-2.2521	-2.8125	-2.5667	-2.4854	-2.7562	-2.225	-2.7313	106.909	20.086	-103.464	155.975	145.888	77.077	103.619	129.867	-65.336	-140.157	112.635	150.592	161.853	176.856	96.279	164.801	0.00074974	0.00039276	0.00011015	1344.3	5.3672e-06	3.3964e-06	1339.6	363.85	4.2349e-06	5.3146e-06	416.83	140.11	121.41	41.697	3.8292e-06	51.549	0.00056709	0.00047087	0.00013454	1364.2	5.3822e-06	4.9588e-06	1363.7	371.21	5.2525e-06	5.0361e-06	424.62	142.84	124.06	42.771	5.3011e-06	53.019	154.580	-72.931	-101.789	-158.622	-50.169	-34.647	-159.010	-154.320	-66.868	-20.912	-154.653	-151.089	-150.613	-145.185	-49.857	-146.099	-8191	255	
27008.703	1	1	0	0	0.29537	0.198	0.12148	0.26751	0.10019	0.12396	0.31232	0.34458	0.20028	0.098657	0.39046	0.5043	0.18272	0.27052	0.096029	0.21108	-1.9792	-2.1104	-2.5438	-2.7458	-2.3187	-2.725	-2.5896	-2.4604	-2.6896	-2.3646	-2.5896	-2.7542	-2.4229	-2.7	-2.3312	-2.4792	59.045	-14.332	-166.286	109.131	-109.105	-147.506	89.385	-160.460	181.285	31.286	123.629	152.129	120.838	122.204	-141.528	78.683	0.00071131	0.00053693	0.00011469	1346.7	4.7189e-06	4.6197e-06	1340.7	364.91	6.7907e-06	4.7778e-06	416.27	139.29	121.77	41.694	2.6376e-06	51.528	0.00056046	0.00047233	0.00012766	1364.4	5.1067e-06	5.1477e-06	1364.3	371.35	5.2664e-06	5.0834e-06	424.21	142.61	123.95	42.839	5.2818e-06	53.021	158.259	-71.949	-78.203	-158.686	-59.029	-6.904	-159.039	-154.263	-43.774	-15.643	-154.679	-151.148	-150.443	-145.022	-43.530	-146.248	-8191	255	
27008.801	1	1	0	0	0.1834	0.28103	0.17968	0.16154	0.22661	0.1352	0.28684	0.31285	0.3041	0.13495	0.28541	0.050251	0.27259	0.15283	0.12477	0.2517	-2.0187	-2.1688	-2.5938	-2.6	-2.2438	-2.4979	-2.5896	-2.4354	-2.6042	-2.5208	-2.7729	-2.7125	-2.4208	-2.8875	-2.5917	-2.4542	112.050	67.880	-66.925	143.504	172.148	123.905	102.108	79.217	-42.952	81.640	149.356	173.409	87.532	153.579	-157.973	113.603	0.00072207	0.000587	0.00012877	1343.4	4.6579e-06	3.7541e-06	1341.4	364.94	5.882e-06	4.8378e-06	416.4	139.83	121.51	41.63	4.0445e-06	51.342	0.00054895	0.00046988	0.00012903	1363.4	5.1463e-06	5.3082e-06	1363.5	371.55	5.0807e-06	5.1812e-06	424.66	142.79	124.12	42.745	5.1129e-06	52.977	152.950	-88.254	-81.224	-158.730	-66.906	-21.389	-158.923	-154.309	-65.193	-19.317	-154.858	-150.950	-150.364	-145.420	-36.965	-145.982	-8191	255	
27008.896	1	1	0	0	0.14438	0.094372	0.40454	0.34795	0.17982	0.066958	0.22482	0.25305	0.22033	0.16338	0.14434	0.33303	0.045018	0.1321	0.14722	0.2794	-2.3063	-2.25	-2.6875	-2.8604	-2.2521	-2.7833	-2.5667	-2.4229	-2.6896	-2.5167	-2.7146	-2.9104	-2.3271	-2.7604	-2.3979	-2.4688	-145.301	142.246	22.379	125.192	-109.018	145.082	139.631	74.094	88.955	-139.487	72.251	135.327	93.071	183.233	82.288	128.890	0.00072002	0.00041718	0.00014055	1346	3.5764e-06	5.7115e-06	1338.5	366.89	5.9585e-06	6.2559e-06	414.82	139.48	121.25	41.614	4.9019e-06	51.437	0.00054374	0.00046627	0.00013103	1364.5	5.2517e-06	5.0512e-06	1361.8	372.07	5.1599e-06	5.241e-06	424.03	142.65	124.01	42.809	5.1213e-06	53.067	153.714	-93.160	-86.540	-158.810	-48.349	-21.857	-159.048	-154.252	-43.695	-25.007	-154.779	-150.785	-150.642	-145.333	-47.088	-145.837	-8191	255	
27008.992	1	1	0	0	0.17778	0.16221	0.12214	0.35782	0.11493	0.013846	0.30994	0.35109	0.080959	0.24106	0.24132	0.07811	0.35875	0.24073	0.18697	0.27334	-2.3542	-2.3646	-2.5375	-2.8104	-2.4167	-2.5208	-2.5604	-2.4938	-2.7812	-2.4813	-2.6708	-2.85	-2.2917	-2.9167	-2.5583	-2.4271	-21.122	154.644	-27.724	165.214	79.110	179.242	150.184	174.234	-172.063	118.985	172.542	76.423	-128.239	119.087	70.821	142.607	0.00076887	0.00056256	0.00014887	1342.8	3.7525e-06	4.1264e-06	1342.4	365.66	7.1432e-06	5.8133e-06	416.52	139.13	121.32	41.8	4.2482e-06	51.359	0.00055707	0.00048791	0.00012772	1363.5	5.3415e-06	5.0506e-06	1363.3	371.85	5.2745e-06	5.1523e-06	424.63	142.63	124.07	42.847	5.2178e-06	53.03	152.816	-72.849	-89.899	-158.627	-58.526	-15.073	-158.929	-154.210	-72.142	-9.549	-154.680	-150.982	-150.486	-145.142	-45.723	-145.934	-8191	255	
27009.111	1	1	0	0	0.073472	0.069302	0.086165	0.075216	0.039661	0.2348	0.40193	0.21201	0.091946	0.21754	0.21309	0.076398	0.042757	0.27633	0.22834	0.13495	-2.3917	-2.4	-2.4562	-2.9688	-2.3083	-2.625	-2.7271	-2.5271	-2.625	-2.6188	-2.6104	-2.8125	-2.3979	-2.6375	-2.7167	-2.4958	119.490	152.973	-124.248	69.443	-44.888	-140.807	153.171	88.421	149.302	-154.925	105.171	-164.110	-138.230	-160.328	-15.879	14.771	0.00073454	0.0004804	0.00015307	1343.7	3.5765e-06	4.7626e-06	1339.5	365.35	6.2446e-06	5.4572e-06	414.82	138.83	121.27	41.761	5.6301e-06	51.441	0.00054289	0.00048505	0.00012215	1362.4	5.1106e-06	4.7593e-06	1360.3	371.72	5.142e-06	5.1832e-06	423.71	142.58	124.01	42.825	5.1454e-06	53.033	156.185	-82.293	-87.826	-158.764	-61.838	-22.107	-158.928	-154.546	-58.233	-24.422	-154.716	-150.940	-150.350	-144.945	-42.601	-146.160	-8191	255	
27009.207	1	1	0	0	0.08291	0.17092	0.22861	0.19991	0.083438	0.32266	0.48167	0.33782	0.099275	0.10592	0.28389	0.042261	0.14362	0.10934	0.28126	0.15039	-2.275	-2.5396	-2.3812	-2.8646	-2.3625	-2.4813	-2.7458	-2.5021	-2.6167	-2.6604	-2.5146	-2.7292	-2.3792	-2.6104	-2.6021	-2.3312	158.894	86.426	171.384	163.876	95.472	-7.779	100.209	119.764	63.482	54.611	180.858	160.891	-92.937	179.215	102.379	-141.627	0.00074678	0.00048783	0.00015698	1344.3	3.8664e-06	4.7978e-06	1336.5	363.78	4.8509e-06	6.639e-06	415.66	139.72	121.44	41.662	4.6044e-06	51.402	0.00055359	0.00046008	0.00012712	1362.7	5.2015e-06	4.9323e-06	1359.3	370.84	5.2641e-06	5.0289e-06	423.86	142.58	123.99	42.785	4.9578e-06	52.943	152.309	-83.406	-78.668	-158.820	-44.962	-16.251	-158.971	-154.424	-44.573	-20.939	-154.828	-150.926	-150.539	-145.093	-50.482	-145.907	-8191	255	
27009.305	1	1	0	0	0.075667	0.24863	0.19237	0.5016	0.087391	0.085457	0.25291	0.025027	0.2506	0.14916	0.26955	0.21587	0.11411	0.23429	0.17585	0.18743	-2.0896	-2.4854	-2.2021	-3.0083	-2.35	-2.5292	-2.8021	-2.7062	-2.5812	-2.4188	-2.3125	-2.75	-2.475	-2.5854	-2.6937	-2.2917	-154.333	143.751	178.416	154.698	128.463	-8.018	86.830	-66.584	-36.661	-59.794	186.621	124.361	-165.010	110.667	133.502	82.953	0.00073517	0.00048026	0.00011304	1343	4.6769e-06	2.8154e-06	1336.3	365.11	4.9846e-06	4.9998e-06	415.08	139.28	121.19	41.536	4.8682e-06	51.381	0.00055365	0.00045588	0.0001281	1361.4	5.3961e-06	5.1133e-06	1360.9	370.92	5.0003e-06	4.9317e-06	424	142.54	123.81	42.764	4.9633e-06	52.988	154.319	-98.241	-87.641	-158.640	-65.172	-16.345	-159.014	-154.462	-68.577	-22.987	-154.646	-151.063	-150.394	-145.128	-45.529	-145.881	-8191	255	
27009.400	1	1	0	0	0.15726	0.070425	0.16136	0.20865	0.34003	0.19765	0.42352	0.2028	0.17518	0.088447	0.041494	0.10231	0.034844	0.085605	0.26687	0.33976	-2.2354	-2.5396	-2.1813	-2.9396	-2.4021	-2.4646	-2.9021	-2.3125	-2.625	-2.5979	-2.3979	-2.9208	-2.7292	-2.4354	-2.6208	-2.5396	37.418	54.460	-91.735	-165.350	23.867	9.939	35.608	60.740	83.017	87.055	26.635	-100.402	-103.062	129.341	-17.728	106.824	0.00072975	0.0004933	0.00014033	1342.6	4.4613e-06	5.2313e-06	1336	364.7	6.1123e-06	4.4505e-06	415.68	139.67	120.91	41.713	5.094e-06	51.414	0.0005546	0.00046242	0.00013711	1359.9	5.2584e-06	4.8617e-06	1358.3	370.83	5.1785e-06	5.0046e-06	423.93	142.57	123.84	42.82	5.0688e-06	52.895	157.325	-81.380	-84.040	-158.791	-54.231	-19.548	-159.048	-154.293	-55.566	-26.972	-154.599	-150.931	-150.383	-145.387	-33.685	-146.062	-8191	255	
27009.520	1	1	0	0	0.012071	0.13264	0.24638	0.17961	0.2325	0.12628	0.37338	0.30133	0.081334	0.022566	0.30474	0.20075	0.094163	0.10915	0.13189	0.17951	-2.0979	-2.7417	-2.1875	-2.6667	-2.4333	-2.3417	-2.7521	-2.4292	-2.6625	-2.8063	-2.3833	-2.7979	-2.7896	-2.4833	-2.5375	-2.3979	168.000	4.896	35.524	93.369	15.549	96.341	86.772	162.358	74.899	135.036	138.720	81.402	-79.046	-163.315	-112.015	174.408	0.00075974	0.00041609	0.00016665	1343.8	4.1636e-06	4.8106e-06	1336.3	365.19	5.8261e-06	5.4462e-06	413.89	139.21	121.71	41.748	6.1366e-06	51.441	0.0005502	0.00044492	0.00012797	1363.3	5.1196e-06	4.7276e-06	1359	370.4	5.0581e-06	4.8463e-06	423.63	142.52	123.84	42.812	4.9524e-06	53.013	154.634	-72.631	-91.359	-158.746	-55.778	-27.737	-158.922	-154.379	-56.668	-22.487	-154.902	-150.983	-150.523	-145.007	-44.448	-145.903	-8191	255	
27009.592	1	1	0	0	0.24876	0.12093	0.059543	0.36863	0.069523	0.43103	0.24668	0.19445	0.18695	0.28645	0.095781	0.22871	0.2155	0.28722	0.22567	0.18532	-1.9979	-2.7083	-2.2979	-2.8646	-2.4521	-2.3208	-3.0812	-2.4021	-2.3438	-2.7208	-2.2354	-2.7542	-2.7313	-2.4375	-2.55	-2.6271	61.788	-64.991	125.678	-122.100	-166.434	-92.768	115.755	31.857	41.583	45.006	-54.727	78.517	89.252	-153.580	83.227	115.210	0.00070634	0.00047459	0.00013126	1340.2	5.2782e-06	4.6715e-06	1339.4	364.46	6.4598e-06	5.3321e-06	415.12	139.61	121.66	41.73	4.5998e-06	51.287	0.00054353	0.0004651	0.00013049	1359.3	4.9896e-06	5.1569e-06	1359.4	370.98	4.9413e-06	4.8423e-06	423.43	142.55	123.93	42.845	5.0163e-06	52.898	157.395	-84.243	-82.490	-158.629	-60.747	-30.470	-159.267	-154.477	-52.585	-35.184	-154.795	-150.907	-150.502	-145.229	-50.519	-146.112	-8191	255	
27009.713	1	1	0	0	0.093362	0.22127	0.41292	0.092719	0.021478	0.21356	0.2815	0.31481	0.06759	0.23026	0.31359	0.074114	0.055043	0.13168	0.20527	0.12765	-1.7104	-2.6688	-2.4292	-2.9313	-2.6167	-2.2875	-2.6854	-2.5104	-2.2812	-2.6813	-2.2208	-2.5458	-2.775	-2.3646	-2.7438	-2.4979	147.821	-60.449	-13.527	-79.039	-51.593	112.185	126.858	94.880	-52.120	-47.169	106.856	77.470	143.698	-97.694	7.295	85.648	0.00076041	0.00047781	0.00014977	1343.5	4.9743e-06	5.2903e-06	1337.3	365.65	5.8967e-06	4.7392e-06	415.41	139.98	121.22	41.874	5.2479e-06	51.33	0.00056025	0.00044795	0.00012908	1362	4.9852e-06	4.9178e-06	1361.1	371.34	5.1345e-06	4.9303e-06	423.9	142.67	123.9	42.858	4.8921e-06	52.998	154.168	-86.268	-87.276	-158.804	-71.112	-23.477	-159.044	-154.418	-54.573	-37.766	-154.727	-150.881	-150.585	-145.195	-48.074	-145.996	-8191	255	
27009.809	1	1	0	0	0.047753	0.12687	0.11475	0.28672	0.26718	0.1609	0.27873	0.1018	0.03993	0.15792	0.27127	0.084885	0.17088	0.26376	0.22427	0.19292	-1.7958	-2.8333	-2.3583	-2.7021	-2.5292	-2.3979	-2.8542	-2.6625	-2.2854	-2.5667	-2.6354	-2.3854	-2.8583	-2.5042	-2.4854	-2.6792	-1.760	-59.069	-104.691	172.602	-37.528	159.945	106.777	162.022	46.685	28.640	-146.060	28.265	128.927	106.991	175.537	-71.327	0.00073896	0.00061766	0.0001186	1342.5	5.0785e-06	5.4749e-06	1336.2	363.78	6.1933e-06	4.8167e-06	415.22	139.84	121.48	41.526	5.5332e-06	51.28	0.00054821	0.00046189	0.00013039	1360.9	5.1101e-06	5.0961e-06	1359	370.98	5.3167e-06	4.8614e-06	423.85	142.68	123.96	42.79	5.061e-06	53.017	153.858	-77.644	-71.470	-158.661	-55.655	-18.716	-159.090	-154.373	-60.546	-19.991	-154.550	-150.927	-150.532	-145.364	-40.548	-146.270	-8191	255	
27009.902	1	1	0	0	0.14667	0.036618	0.15301	0.31323	0.14532	0.083229	0.2565	0.52183	0.19388	0.36223	0.25509	0.38967	0.22784	0.2768	0.12943	0.21415	-1.7854	-2.7438	-2.2896	-2.4313	-2.7479	-2.3646	-2.5896	-2.7271	-2.175	-2.6229	-2.5021	-2.5396	-2.7125	-2.3875	-2.35	-2.6437	-15.260	10.294	94.187	152.483	104.957	-22.007	66.948	135.690	-67.616	-65.996	-137.605	163.985	173.823	-144.200	149.889	51.167	0.0007574	0.00053564	0.00017217	1340.8	4.7179e-06	4.0467e-06	1337	365.52	5.5157e-06	5.6594e-06	415.52	139.73	121.36	41.694	3.7418e-06	51.282	0.00056357	0.00044935	0.00013091	1361.1	5.2857e-06	5.0459e-06	1361.5	370.98	5.3225e-06	4.9001e-06	424.13	142.76	124	42.871	4.9657e-06	52.953	154.769	-85.232	-92.963	-158.575	-53.353	-11.191	-159.099	-154.218	-45.013	-23.759	-154.661	-150.994	-150.381	-145.252	-40.949	-145.854	-8191	255	
27009.998	1	1	0	0	0.15018	0.16575	0.30497	0.23322	0.13908	0.029691	0.18527	0.21865	0.22477	0.16071	0.2329	0.094733	0.14683	0.26231	0.1549	0.099405	-1.7542	-2.6521	-2.4042	-2.6021	-2.5792	-2.3104	-2.6125	-2.5854	-2.2062	-2.5938	-2.5042	-2.3479	-2.675	-2.5833	-2.3021	-2.8042	-91.694	-44.180	33.020	185.732	136.273	113.905	-134.228	80.223	-77.540	-40.763	154.031	57.077	140.724	100.432	113.948	-74.609	0.00076339	0.00053308	0.00018115	1344.2	3.8165e-06	4.5005e-06	1339.5	363.55	5.4707e-06	4.8269e-06	415	139.63	121.77	41.767	3.5676e-06	51.379	0.00056987	0.00044941	0.00013145	1361.8	5.3722e-06	5.1252e-06	1360.2	370.74	5.2722e-06	4.889e-06	423.7	142.51	124.12	42.8	5.0007e-06	53.019	156.296	-83.894	-85.545	-158.626	-63.628	-10.587	-159.044	-154.306	-59.887	-23.645	-154.716	-150.849	-150.523	-145.357	-37.980	-145.958	-8191	255	
27010.096	1	1	0	0	0.029777	0.084818	0.11105	0.18337	0.15589	0.26852	0.047431	0.13312	0.14278	0.27366	0.15569	0.057978	0.23901	0.17555	0.18092	0.25858	-1.6729	-2.6521	-2.4521	-2.5271	-2.7792	-2.6688	-2.6562	-2.7333	-2.2562	-2.6854	-2.6813	-2.3688	-2.7	-2.5667	-2.3458	-2.65	-160.538	-88.870	-49.010	-126.702	29.180	-116.053	27.670	89.812	171.378	-29.669	182.695	-45.462	-144.608	-97.836	-145.911	120.238	0.00075034	0.00053467	0.00014612	1340.2	3.7373e-06	3.3628e-06	1341.1	364.73	6.2597e-06	5.4758e-06	415.96	139.53	121.48	41.803	4.3503e-06	51.499	0.00057085	0.00047414	0.00012579	1360.3	5.2389e-06	5.2005e-06	1361.5	371.07	5.3098e-06	5.0479e-06	423.89	142.66	123.99	42.816	5.0948e-06	52.969	151.803	-78.999	-84.069	-158.698	-62.346	-25.642	-159.095	-154.295	-56.435	-16.310	-154.743	-150.982	-150.794	-145.308	-42.119	-146.218	-8191	255	
27010.191	1	1	0	0	0.15266	0.16557	0.21062	0.27109	0.088684	0.10986	0.063442	0.058426	0.16687	0.36345	0.24181	0.15702	0.23302	0.21343	0.042385	0.13715	-1.8042	-2.5792	-2.3396	-2.4813	-2.6146	-2.3479	-2.4188	-2.6667	-2.2687	-2.5208	-2.7729	-2.2562	-2.7229	-2.3854	-2.3167	-2.8417	-90.779	10.902	173.245	140.882	-148.654	7.928	104.844	136.577	-56.572	17.895	124.326	93.268	133.375	36.604	-80.690	-147.823	0.00074879	0.00041947	0.00016128	1343	4.2659e-06	5.2868e-06	1339.6	365.5	5.6719e-06	4.2487e-06	416.86	139.83	121.71	41.664	4.6404e-06	51.385	0.00056905	0.00045501	0.00012686	1362.7	4.9835e-06	5.0671e-06	1362.6	371.32	5.2224e-06	4.9901e-06	424.47	143.04	124.09	42.842	5.0827e-06	53.052	156.534	-73.671	-85.699	-158.695	-64.496	-34.743	-159.034	-154.398	-56.900	-9.057	-154.832	-151.023	-150.403	-145.197	-45.707	-146.234	-8191	255	
27010.287	1	1	0	0	0.22649	0.095841	0.12862	0.29586	0.33646	0.18285	0.079635	0.081157	0.076589	0.27198	0.17213	0.27202	0.14354	0.15222	0.059282	0.19228	-1.8917	-2.4542	-2.5708	-2.4021	-2.5979	-2.6688	-2.4271	-2.7458	-2.4083	-2.4021	-2.7146	-2.4979	-2.725	-2.6583	-2.2062	-2.7667	-115.309	-52.291	77.096	150.021	-80.601	-39.235	95.993	-30.895	13.961	38.583	-122.207	167.592	-167.756	107.875	-66.458	-86.042	0.00074129	0.00043965	0.00015225	1345.5	3.9458e-06	4.0118e-06	1334.9	364.61	5.4321e-06	4.0141e-06	416.54	139.5	121.49	41.866	3.5532e-06	51.429	0.00056208	0.00046796	0.00013062	1363.4	5.1965e-06	5.1199e-06	1360.8	371.17	5.3815e-06	4.9238e-06	424.15	142.71	123.86	42.903	5.0091e-06	53.017	154.693	-82.695	-81.491	-158.711	-50.311	-1.327	-159.005	-154.150	-56.440	-24.115	-154.835	-150.904	-150.318	-145.429	-63.595	-146.006	-8191	255	
27010.385	1	1	0	0	0.075784	0.19148	0.10145	0.07922	0.19318	0.23174	0.22754	0.38184	0.15556	0.13185	0.16432	0.10602	0.10426	0.099792	0.16075	0.30302	-1.8792	-2.3604	-2.6063	-2.4458	-2.5958	-2.775	-2.2104	-2.7271	-2.3833	-2.3583	-2.8458	-2.3667	-2.6167	-2.4854	-2.1917	-2.7	-132.208	57.944	-65.832	-158.394	-133.415	-119.459	117.808	132.810	-149.879	116.055	-160.302	-43.568	141.640	-100.000	66.520	76.070	0.0007275	0.00046109	0.00016225	1338.2	4.6849e-06	4.3751e-06	1340.7	366.33	5.5222e-06	6.6861e-06	415.78	139.9	121.78	41.808	4.5343e-06	51.475	0.00055325	0.00044714	0.00013008	1363.3	5.1976e-06	4.9449e-06	1363.2	371.46	5.2126e-06	5.0262e-06	424.06	143.03	124.21	42.935	5.3137e-06	53.045	154.595	-85.824	-86.710	-158.557	-54.213	-21.262	-159.107	-154.406	-58.412	-19.098	-154.712	-150.617	-150.313	-145.211	-46.007	-146.215	-8191	255	
27010.480	1	1	0	0	0.24047	0.064251	0.30189	0.068531	0.15488	0.016077	0.12153	0.15365	0.20527	0.28466	0.091948	0.10188	0.034692	0.25389	0.24145	0.11404	-1.9583	-2.4313	-2.825	-2.3979	-2.45	-2.6479	-2.4104	-2.6271	-2.5438	-2.4021	-2.9271	-2.5062	-2.4667	-2.6125	-2.1167	-2.8417	-131.974	-121.276	85.067	-151.838	-41.534	-131.154	95.344	71.078	164.213	-89.106	31.524	-166.951	-124.201	-134.490	-33.465	-148.450	0.00078195	0.00050894	0.00016367	1344.6	4.8986e-06	3.7475e-06	1340.6	365.72	5.3285e-06	5.103e-06	416.01	139.96	121.57	41.795	3.122e-06	51.31	0.00056675	0.00047916	0.00012705	1365.1	5.1184e-06	5.1146e-06	1362.4	371.91	5.2693e-06	5.1812e-06	424.53	142.8	124.01	42.928	5.2594e-06	53.013	156.957	-102.197	-81.405	-158.812	-64.567	-34.660	-159.217	-154.302	-59.882	-28.157	-154.921	-150.985	-150.409	-145.239	-35.724	-146.116	-8191	255	
27010.602	1	1	0	0	0.20032	0.15424	0.14625	0.45638	0.15839	0.015021	0.19208	0.32881	0.11854	0.18542	0.25382	0.13829	0.37233	0.14242	0.07057	0.34497	-2.1542	-2.2542	-2.5771	-2.3896	-2.3583	-2.7146	-2.4646	-2.6188	-2.4854	-2.2833	-2.7792	-2.5771	-2.5062	-2.825	-2.1354	-2.6396	-109.990	38.661	121.121	155.291	38.776	-26.857	127.211	177.576	-7.078	-32.516	169.678	134.939	-164.321	-125.375	47.540	61.050	0.00074128	0.00041511	0.0001458	1346.4	4.4148e-06	5.0958e-06	1337.4	365.47	5.3657e-06	4.8716e-06	417.81	139.87	121.44	41.951	4.436e-06	51.589	0.00055846	0.0004581	0.00012852	1364.8	5.1363e-06	5.0387e-06	1364	371.77	5.1929e-06	5.1142e-06	425.11	142.87	124.12	42.963	5.441e-06	53.079	153.382	-87.753	-84.768	-158.836	-55.163	-16.851	-159.074	-154.426	-59.480	-19.086	-154.691	-150.933	-150.460	-145.221	-37.561	-145.966	-8191	255	
27010.697	1	1	0	0	0.078751	0.26216	0.058494	0.39846	0.17367	0.13886	0.050441	0.13838	0.0424	0.15556	0.16803	0.11568	0.18024	0.18014	0.13439	0.078155	-2.1542	-2.3083	-2.6083	-2.5187	-2.2854	-2.6021	-2.5271	-2.6437	-2.4938	-2.3375	-2.8125	-2.4229	-2.3896	-2.7792	-2.3417	-2.5646	146.661	74.681	-161.548	-150.638	-117.597	69.567	77.398	-86.174	89.141	169.434	25.508	143.834	103.738	-166.821	-11.214	111.930	0.00073658	0.00060593	9.7668e-05	1348.1	4.1172e-06	3.9464e-06	1340.7	365.79	6.2155e-06	5.8074e-06	414.56	140.26	121.45	41.804	4.7031e-06	51.579	0.0005569	0.00047012	0.00012843	1365.5	5.2038e-06	5.1067e-06	1365.1	372	5.3202e-06	5.1799e-06	424.4	143.09	124.02	42.899	5.362e-06	53.151	154.477	-68.770	-82.965	-158.703	-44.933	-26.600	-159.027	-154.426	-57.146	-10.976	-154.842	-151.103	-150.530	-145.339	-25.315	-146.151	-8191	255	
27010.793	1	1	0	0	0.2647	0.26938	0.16879	0.26558	0.13341	0.029624	0.027277	0.097001	0.18921	0.15718	0.28604	0.16402	0.28836	0.17968	0.18832	0.14757	-2.2208	-2.2896	-2.5917	-2.7646	-2.2438	-2.6021	-2.6792	-2.5854	-2.5458	-2.4021	-2.6813	-2.6271	-2.275	-2.7625	-2.2479	-2.3563	163.337	-153.513	-80.656	114.651	-4.265	-93.252	86.103	150.520	178.738	-81.177	-172.057	65.720	-166.566	160.861	179.412	-130.716	0.00072815	0.00057156	0.00012624	1347	2.8153e-06	4.6457e-06	1339	365.48	6.1996e-06	5.0009e-06	416.8	140.05	121.47	41.767	4.1807e-06	51.481	0.00056997	0.00048225	0.00012704	1366.5	5.1491e-06	4.9297e-06	1362.3	371.59	5.3074e-06	5.2863e-06	424.67	142.84	124.1	42.888	5.2088e-06	53.081	154.598	-92.525	-72.947	-158.808	-55.324	-13.662	-158.893	-154.381	-42.134	-23.411	-154.681	-151.057	-150.526	-145.167	-46.197	-145.710	-8191	255	
27010.889	1	1	0	0	0.069955	0.087756	0.18515	0.27407	0.079848	0.041799	0.19565	0.058023	0.29648	0.22993	0.14787	0.46126	0.21358	0.3419	0.038952	0.17097	-2.3708	-2.3021	-2.6021	-2.8417	-2.2958	-2.6375	-2.5812	-2.4646	-2.7125	-2.3646	-2.6083	-2.7	-2.2438	-2.6042	-2.4833	-2.4562	11.295	-89.743	-50.118	156.134	52.504	177.492	138.054	-117.727	-96.944	-121.443	176.355	-150.177	66.290	107.449	135.150	99.213	0.00071922	0.00036695	0.00018449	1350.3	3.8854e-06	5.0392e-06	1342.2	366.37	6.1966e-06	5.2008e-06	415.13	139.71	121.78	41.991	4.2352e-06	51.491	0.00055037	0.00047706	0.00012689	1366.9	5.3354e-06	4.9951e-06	1364.5	371.82	5.2646e-06	4.9914e-06	424.44	142.71	124.32	42.952	5.3083e-06	53.089	157.417	-71.412	-82.111	-158.631	-56.216	-23.440	-158.890	-154.596	-58.600	-15.289	-154.737	-150.944	-150.440	-145.179	-50.668	-146.064	-8191	255	
27010.984	1	1	0	0	0.082069	0.2931	0.17071	0.33557	0.22834	0.047675	0.30607	0.18161	0.41692	0.05323	0.055744	0.42378	0.15964	0.18547	0.096029	0.20941	-2.2583	-2.2812	-2.3542	-2.7375	-2.2583	-2.5312	-2.4938	-2.3458	-2.8083	-2.4479	-2.325	-2.7625	-2.2292	-2.7708	-2.3937	-2.3271	-142.675	-137.758	-152.120	118.475	130.027	17.084	146.405	145.664	-70.416	-169.862	-168.392	113.685	-52.827	-126.344	10.976	17.916	0.00074447	0.00044729	0.00014991	1348.5	3.6171e-06	3.5821e-06	1342.5	365.26	6.1824e-06	4.1604e-06	417.4	140.14	121.57	41.896	4.4262e-06	51.702	0.00056137	0.00047169	0.00012913	1365.9	5.3025e-06	5.079e-06	1365.2	371.58	5.282e-06	5.0295e-06	424.46	142.87	124.21	42.918	5.2347e-06	53.156	155.279	-77.520	-77.904	-158.707	-48.070	-19.524	-159.065	-154.134	-57.934	-26.363	-154.645	-150.873	-150.404	-145.226	-41.258	-146.031	-8191	255	
27011.082	1	1	0	0	0.047751	0.055579	0.17445	0.25367	0.10865	0.22733	0.25231	0.16405	0.22818	0.20311	0.23649	0.28575	0.15572	0.25532	0.27368	0.11116	-2.1917	-2.425	-2.2729	-2.9021	-2.2167	-2.625	-2.6688	-2.5083	-2.6354	-2.3688	-2.3646	-2.7229	-2.4813	-2.7896	-2.6917	-2.275	44.235	74.057	4.360	127.339	-119.581	-35.611	-167.851	178.105	-2.519	-108.114	88.947	166.332	122.861	-144.314	45.070	76.604	0.00074269	0.0004692	0.00014731	1350	4.3989e-06	5.0682e-06	1340.2	365.68	5.9304e-06	4.6981e-06	416.7	140.16	122.42	41.717	4.5036e-06	51.661	0.0005502	0.00048884	0.00012849	1367.6	5.3443e-06	5.0578e-06	1364.9	371.53	5.2126e-06	5.1701e-06	424.67	142.89	124.37	42.876	5.3204e-06	53.129	152.804	-71.711	-68.326	-158.827	-40.028	-23.878	-159.085	-154.310	-72.853	-39.191	-154.819	-150.975	-150.545	-145.474	-32.929	-145.906	-8191	255	
27011.199	1	1	0	0	0.098992	0.13588	0.37426	0.29464	0.086089	0.033514	0.29482	0.10663	0.061381	0.083393	0.10477	0.21319	0.18058	0.12395	0.23863	0.056809	-2.3771	-2.5479	-2.1917	-2.7208	-2.3458	-2.5875	-2.7396	-2.3688	-2.6792	-2.5104	-2.5479	-2.7271	-2.3521	-2.4771	-2.5896	-2.2042	-35.307	26.443	8.800	164.338	153.856	52.008	113.573	-153.662	-67.113	-95.686	44.235	90.010	95.489	152.704	-117.231	32.048	0.00075664	0.00032032	0.00015879	1352.4	3.9242e-06	5.4247e-06	1342.4	365.99	6.8179e-06	5.7042e-06	415.63	139.95	121.21	41.644	4.7438e-06	51.409	0.00056157	0.00046423	0.00012767	1369.3	5.3275e-06	4.9449e-06	1366.1	372.04	5.1599e-06	5.1228e-06	424.3	142.92	124.05	42.868	5.2528e-06	53.074	154.673	-91.839	-81.039	-158.867	-65.791	-20.430	-159.055	-154.320	-64.872	-17.378	-154.627	-150.942	-150.348	-144.973	-50.897	-145.882	-8191	255	
27011.297	1	1	0	0	0.14162	0.18945	0.38863	0.20996	0.17166	0.074264	0.14638	0.12897	0.11013	0.11437	0.25459	0.11209	0.1839	0.060937	0.13141	0.1296	-2.1104	-2.4646	-2.1875	-3.0187	-2.4625	-2.2875	-2.9083	-2.2417	-2.5333	-2.5563	-2.2458	-2.7104	-2.5292	-2.2917	-2.7521	-2.2313	-149.633	-38.853	-34.238	-137.235	172.171	96.517	-169.246	45.897	-106.412	35.683	91.899	4.926	180.967	31.771	-112.439	128.231	0.00072908	0.00055162	0.00010588	1350.4	5.3158e-06	4.934e-06	1341.7	366.12	4.6019e-06	3.7397e-06	417.32	139.61	121.3	41.739	3.1426e-06	51.546	0.00056283	0.00045804	0.00013328	1367	5.3398e-06	5.0671e-06	1367	372.01	5.0055e-06	4.9461e-06	425.05	142.89	124.15	42.845	5.1322e-06	53.139	154.313	-72.443	-93.308	-158.637	-58.352	-30.130	-159.054	-154.403	-74.038	-38.484	-154.680	-150.949	-150.641	-145.148	-43.378	-146.205	-8191	255	
27011.393	1	1	0	0	0.18835	0.076144	0.118	0.24169	0.037353	0.34904	0.35045	0.16949	0.12822	0.2328	0.24526	0.11156	0.38007	0.25203	0.068966	0.11137	-2.4042	-2.4792	-2.0625	-2.8063	-2.3187	-2.3583	-2.8521	-2.525	-2.6479	-2.5	-2.4208	-2.7979	-2.4625	-2.4833	-2.6021	-2.2854	65.110	-127.014	29.441	155.079	-40.128	-25.141	151.773	120.655	71.284	-82.572	154.627	127.260	121.483	74.286	-61.584	95.370	0.00077485	0.00034468	0.00013579	1348.4	4.1052e-06	5.1034e-06	1339.7	364.65	5.2535e-06	5.3001e-06	416.94	139.84	121.13	41.809	4.533e-06	51.472	0.00055802	0.00045839	0.00013096	1367.2	5.1993e-06	5.2032e-06	1366	371.68	5.1484e-06	5.1484e-06	424.95	142.86	124.04	42.859	5.1798e-06	52.965	155.520	-66.548	-76.021	-158.843	-60.534	-25.082	-159.182	-154.229	-56.547	-18.195	-154.603	-150.909	-150.314	-145.294	-16.783	-146.076	-8191	255	
27011.488	1	1	0	0	0.16133	0.086799	0.16526	0.34981	0.28219	0.17934	0.32747	0.25191	0.11258	0.073984	0.23999	0.03385	0.29364	0.39333	0.12476	0.26274	-2.0563	-2.5792	-2.0479	-2.8937	-2.5292	-2.3271	-2.8	-2.5833	-2.4188	-2.7417	-2.3708	-2.5875	-2.4583	-2.3729	-2.7458	-2.3937	88.660	156.719	166.550	145.824	97.888	170.657	97.704	185.043	44.442	77.368	144.519	-135.918	60.061	140.263	128.495	99.680	0.00076974	0.00047868	0.00014805	1345.6	4.5241e-06	5.433e-06	1340.7	365.69	6.0806e-06	5.023e-06	417.34	139.78	121.38	41.829	4.289e-06	51.414	0.00056347	0.00047309	0.00013093	1366.9	5.317e-06	5.1952e-06	1365.6	371.81	5.2617e-06	5.0591e-06	425.11	142.86	124.18	42.939	5.0568e-06	53.039	156.671	-72.647	-100.462	-158.678	-58.397	-13.331	-159.084	-154.238	-60.505	-8.092	-154.752	-150.875	-150.437	-145.193	-46.300	-146.116	-8191	255	
#DATA ENDS
