BOXY.EXE: ISS Imagent and Oximeter Data Acquisition Program Version 0.80
Ascii Record File

#ACQ INFORMATION
2  Detector Channels 
16  External MUX Channels 
1  Auxiliary Channels 
5000  Waveform (CCF) Frequency (Hz)
1  Waveforms Skipped 
30  Waveforms Averaged 
1  Cycles Averaged 
16  Acquisitions per Waveform 
10.0806  Updata Rate (Hz) 

#FILE INFORMATION
TRUE -- External MUX Channel results are PARSED.
FALSE -- AC DC and Phase are NOT grouped.
TRUE -- Companion Program Settings File CREATED.
FALSE -- AC data not excluded
FALSE -- DC data not excluded
FALSE -- Phase data not excluded
FALSE -- Auxillary Chn. data not excluded
Tab delimiters

#CALIBRATION STATE
TRUE -- Waveform Calibration Values APPLIED.


#AUX CALIBRATION VALUES
Val Type	aux-1	

Term	1.0000e+00	
Factor	0.0000e+00	


#WF CALIBRATION VALUES
A = Detector Channel
Val Type	A-AC1	A-AC2	A-AC3	A-AC4	A-AC5	A-AC6	A-AC7	A-AC8	A-AC9	A-AC10	A-AC11	A-AC12	A-AC13	A-AC14	A-AC15	A-AC16	A-DC1	A-DC2	A-DC3	A-DC4	A-DC5	A-DC6	A-DC7	A-DC8	A-DC9	A-DC10	A-DC11	A-DC12	A-DC13	A-DC14	A-DC15	A-DC16	A-Ph1	A-Ph2	A-Ph3	A-Ph4	A-Ph5	A-Ph6	A-Ph7	A-Ph8	A-Ph9	A-Ph10	A-Ph11	A-Ph12	A-Ph13	A-Ph14	A-Ph15	A-Ph16	

Term	0.00000e+00	0.00000e+00	0.00000e+00	0.00000e+00	0.00000e+00	0.00000e+00	0.00000e+00	0.00000e+00	0.00000e+00	0.00000e+00	0.00000e+00	0.00000e+00	0.00000e+00	0.00000e+00	0.00000e+00	0.00000e+00	0.00000e+00	0.00000e+00	0.00000e+00	0.00000e+00	0.00000e+00	0.00000e+00	0.00000e+00	0.00000e+00	0.00000e+00	0.00000e+00	0.00000e+00	0.00000e+00	0.00000e+00	0.00000e+00	0.00000e+00	0.00000e+00	0.00000e+00	0.00000e+00	0.00000e+00	0.00000e+00	0.00000e+00	0.00000e+00	0.00000e+00	0.00000e+00	0.00000e+00	0.00000e+00	0.00000e+00	0.00000e+00	0.00000e+00	0.00000e+00	0.00000e+00	0.00000e+00	
Factor	1.00000e+00	1.00000e+00	1.00000e+00	1.00000e+00	1.00000e+00	1.00000e+00	1.00000e+00	1.00000e+00	1.00000e+00	1.00000e+00	1.00000e+00	1.00000e+00	1.00000e+00	1.00000e+00	1.00000e+00	1.00000e+00	1.00000e+00	1.00000e+00	1.00000e+00	1.00000e+00	1.00000e+00	1.00000e+00	1.00000e+00	1.00000e+00	1.00000e+00	1.00000e+00	1.00000e+00	1.00000e+00	1.00000e+00	1.00000e+00	1.00000e+00	1.00000e+00	X	X	X	X	X	X	X	X	X	X	X	X	X	X	X	X	

B = Detector Channel
Val Type	B-AC1	B-AC2	B-AC3	B-AC4	B-AC5	B-AC6	B-AC7	B-AC8	B-AC9	B-AC10	B-AC11	B-AC12	B-AC13	B-AC14	B-AC15	B-AC16	B-DC1	B-DC2	B-DC3	B-DC4	B-DC5	B-DC6	B-DC7	B-DC8	B-DC9	B-DC10	B-DC11	B-DC12	B-DC13	B-DC14	B-DC15	B-DC16	B-Ph1	B-Ph2	B-Ph3	B-Ph4	B-Ph5	B-Ph6	B-Ph7	B-Ph8	B-Ph9	B-Ph10	B-Ph11	B-Ph12	B-Ph13	B-Ph14	B-Ph15	B-Ph16	

Term	0.00000e+00	0.00000e+00	0.00000e+00	0.00000e+00	0.00000e+00	0.00000e+00	0.00000e+00	0.00000e+00	0.00000e+00	0.00000e+00	0.00000e+00	0.00000e+00	0.00000e+00	0.00000e+00	0.00000e+00	0.00000e+00	0.00000e+00	0.00000e+00	0.00000e+00	0.00000e+00	0.00000e+00	0.00000e+00	0.00000e+00	0.00000e+00	0.00000e+00	0.00000e+00	0.00000e+00	0.00000e+00	0.00000e+00	0.00000e+00	0.00000e+00	0.00000e+00	-5.38156e+01	-1.31042e+02	-1.24433e+02	-1.81592e+02	-5.12389e+01	-6.77519e+01	-1.57010e+02	-1.62015e+02	-4.49559e+01	-6.47779e+01	-1.71977e+02	-1.70149e+02	-1.79453e+02	-1.77250e+02	-5.57634e+01	-1.50141e+02	
Factor	2.03653e-05	1.65828e-04	4.62255e-05	1.62462e-01	1.69913e-06	1.87841e-06	1.83249e-01	6.39994e-02	1.44152e-06	1.88062e-06	8.71469e-02	2.95149e-02	3.17034e-02	9.42612e-03	1.54103e-06	1.33165e-02	8.12842e-06	1.10171e-05	3.07108e-06	8.26260e-02	1.14284e-07	1.22168e-07	8.76959e-02	3.26199e-02	1.15569e-07	1.22005e-07	4.32266e-02	1.46927e-02	1.64001e-02	4.85771e-03	1.18033e-07	6.63519e-03	X	X	X	X	X	X	X	X	X	X	X	X	X	X	X	X	



#DISTANCE SETTINGS
A = Detector Channel
A-1	A-2	A-3	A-4	A-5	A-6	A-7	A-8	A-9	A-10	A-11	A-12	A-13	A-14	A-15	A-16	

2.5000e+00	3.0000e+00	2.5000e+00	3.0000e+00	2.0000e+00	3.0000e+00	1.5000e+00	3.0000e+00	3.0000e+00	3.0000e+00	3.0000e+00	3.0000e+00	3.0000e+00	3.0000e+00	1.5000e+00	3.0000e+00	

B = Detector Channel
B-1	B-2	B-3	B-4	B-5	B-6	B-7	B-8	B-9	B-10	B-11	B-12	B-13	B-14	B-15	B-16	

1.0000e+01	1.0000e+01	1.0000e+01	1.4400e+00	1.0000e+01	1.0000e+01	1.5100e+00	1.9400e+00	1.0000e+01	1.0000e+01	1.9900e+00	2.4900e+00	2.4100e+00	2.9000e+00	1.0000e+01	2.9800e+00	




#DATA BEGINS
time	group	step	mark	flag	A-AC1	A-AC2	A-AC3	A-AC4	A-AC5	A-AC6	A-AC7	A-AC8	A-AC9	A-AC10	A-AC11	A-AC12	A-AC13	A-AC14	A-AC15	A-AC16	A-DC1	A-DC2	A-DC3	A-DC4	A-DC5	A-DC6	A-DC7	A-DC8	A-DC9	A-DC10	A-DC11	A-DC12	A-DC13	A-DC14	A-DC15	A-DC16	A-Ph1	A-Ph2	A-Ph3	A-Ph4	A-Ph5	A-Ph6	A-Ph7	A-Ph8	A-Ph9	A-Ph10	A-Ph11	A-Ph12	A-Ph13	A-Ph14	A-Ph15	A-Ph16	B-AC1	B-AC2	B-AC3	B-AC4	B-AC5	B-AC6	B-AC7	B-AC8	B-AC9	B-AC10	B-AC11	B-AC12	B-AC13	B-AC14	B-AC15	B-AC16	B-DC1	B-DC2	B-DC3	B-DC4	B-DC5	B-DC6	B-DC7	B-DC8	B-DC9	B-DC10	B-DC11	B-DC12	B-DC13	B-DC14	B-DC15	B-DC16	B-Ph1	B-Ph2	B-Ph3	B-Ph4	B-Ph5	B-Ph6	B-Ph7	B-Ph8	B-Ph9	B-Ph10	B-Ph11	B-Ph12	B-Ph13	B-Ph14	B-Ph15	B-Ph16	aux-1	digaux	

21839.072	1	1	0	256	0.049466	0.1576	0.1579	0.101	0.11436	0.27015	0.23171	0.15488	0.16956	0.22244	0.03229	0.18957	0.16284	0.12117	0.23897	0.17594	-2.0312	-2.0875	-2.3	-2.4688	-2.225	-2.4229	-2.4708	-2.3396	-2.5896	-2.2792	-2.6688	-2.4771	-2.1667	-2.5229	-2.2646	-2.2771	-38.591	192.876	96.817	204.319	44.394	-14.944	126.264	127.013	-137.720	-140.491	-59.308	94.065	-94.279	32.374	171.124	-130.125	0.00015423	0.00028131	9.6836e-05	1054.5	2.5657e-06	3.2337e-06	1124.7	222.52	2.8599e-06	1.8279e-06	277.88	78.5	60.29	17.551	1.8948e-06	24.97	0.00023081	0.0002317	6.6015e-05	1042.3	2.6916e-06	2.578e-06	1115.5	221.58	2.5476e-06	2.6208e-06	277.31	78.971	61.418	17.732	2.6098e-06	25.407	-76.304	-59.359	-17.210	-133.635	-1.172	-5.528	-133.711	-126.900	-9.494	-33.751	-127.285	-120.198	-119.656	-113.107	51.793	-113.722	-8191	255	
21839.193	1	1	0	0	0.23178	0.16034	0.1716	0.53015	0.34107	0.054502	0.17534	0.16113	0.12888	0.11385	0.13289	0.13229	0.082664	0.098119	0.26656	0.18648	-1.8583	-2.0979	-2.4146	-2.5792	-1.9896	-2.3563	-2.5812	-2.2417	-2.55	-2.2188	-2.6021	-2.4313	-2.1333	-2.4333	-2.2958	-2.1125	215.106	-25.401	70.439	191.336	-70.083	-137.854	198.736	141.219	-135.512	151.472	25.266	171.713	174.509	76.064	-1.632	168.231	0.00018302	0.00030355	6.1057e-05	1051.2	3.7281e-06	2.0228e-06	1127	221.75	2.266e-06	5.1479e-06	277.55	78.075	61.156	17.4	2.0974e-06	25.04	0.00024079	0.00024699	6.6738e-05	1039	2.71e-06	2.6001e-06	1115.1	220.83	2.6913e-06	2.633e-06	277.45	78.964	61.488	17.713	2.671e-06	25.523	-82.924	-36.926	-44.172	-133.827	6.822	17.350	-133.855	-126.626	-18.862	-16.775	-126.601	-119.868	-119.709	-113.082	63.179	-113.596	-8191	255	
21839.266	1	1	0	0	0.073975	0.20865	0.035872	0.20756	0.052966	0.037659	0.1299	0.16341	0.074665	0.2086	0.14007	0.089937	0.26825	0.25173	0.037152	0.10998	-2.0396	-2.2458	-2.3625	-2.3604	-1.9896	-2.5417	-2.5187	-2.1396	-2.5583	-2.0979	-2.3542	-2.7167	-2.1583	-2.5104	-2.3771	-2.2146	202.377	-103.108	-16.891	172.968	111.329	-30.307	142.388	205.581	-23.330	162.171	205.117	-92.730	143.560	-125.458	0.939	156.404	0.00016533	0.00032981	0.00012056	1054.8	4.7367e-06	2.9441e-06	1126.2	222.64	3.899e-06	4.23e-06	278.7	78.291	61.072	17.604	6.845e-07	24.875	0.00024555	0.00024609	6.7813e-05	1043	2.9435e-06	2.8007e-06	1118.1	221.46	2.7662e-06	2.7418e-06	277.84	79.111	61.574	17.801	2.7745e-06	25.35	-79.323	-62.707	-31.990	-133.685	10.801	-31.453	-133.823	-126.639	-11.293	7.648	-126.796	-120.677	-119.696	-113.061	-27.485	-113.418	-8191	255	
21839.361	1	1	0	0	0.082519	0.16387	0.073295	0.18383	0.25877	0.21906	0.14848	0.3854	0.11312	0.15791	0.16366	0.19976	0.053306	0.21081	0.058289	0.083028	-1.9688	-2.1562	-2.2792	-2.5708	-2.0708	-2.4375	-2.7417	-2.1188	-2.3521	-2.325	-2.3896	-2.6667	-2.2271	-2.3417	-2.4562	-2.1937	37.640	11.866	-81.357	-114.513	81.766	-22.550	148.819	151.242	108.753	-118.930	-143.429	1.538	-110.944	108.407	-104.606	-139.910	0.00018146	0.00024141	0.00011207	1059.2	3.5796e-06	3.3444e-06	1134.7	222.03	2.7329e-06	4.3478e-06	278.14	77.986	61.067	17.562	2.2699e-06	25.007	0.00024263	0.00024589	6.7365e-05	1047.7	2.775e-06	2.6559e-06	1119.4	221.78	2.7578e-06	2.5306e-06	278.24	79.202	61.629	17.783	2.6164e-06	25.424	-72.453	-66.961	-57.714	-133.860	-2.550	10.236	-133.699	-126.442	8.196	-11.538	-126.929	-120.241	-120.217	-112.934	-4.354	-113.312	-8191	255	
21839.457	1	1	0	0	0.17721	0.059239	0.15349	0.062262	0.22573	0.012068	0.13156	0.37796	0.10426	0.11688	0.16315	0.16375	0.05803	0.1931	0.11775	0.12791	-2.1688	-2.3083	-2.1333	-2.6562	-2.3042	-2.3917	-2.5896	-2.0854	-2.5021	-2.3375	-2.3104	-2.5125	-2.2458	-2.3625	-2.525	-2.0062	106.908	14.027	-60.290	164.904	149.814	-72.771	141.790	123.212	43.768	180.689	110.984	121.275	-51.663	148.555	60.794	-48.818	0.00016788	0.0004383	0.00011899	1056.2	2.7075e-06	1.5766e-06	1133.2	220.84	1.933e-06	3.5137e-06	278.79	78.75	60.839	17.596	2.6853e-06	25.172	0.00023601	0.00023382	6.6892e-05	1047.1	2.7178e-06	2.6307e-06	1121.2	221.23	2.6477e-06	2.6663e-06	278.48	79.171	61.543	17.756	2.6048e-06	25.545	-75.122	-66.836	-51.253	-134.040	18.461	-14.878	-133.809	-126.355	-11.100	-8.063	-127.213	-120.520	-119.874	-112.862	20.591	-113.267	-8191	255	
21839.578	1	1	0	0	0.37174	0.13745	0.086218	0.21054	0.39415	0.044044	0.17237	0.092029	0.13016	0.13252	0.26505	0.09523	0.24325	0.19077	0.30618	0.048733	-2.0875	-2.2354	-1.9125	-2.6437	-2.2542	-2.3917	-2.7146	-2.1521	-2.5521	-2.2979	-1.975	-2.5917	-2.3917	-2.3042	-2.6854	-2.1521	154.648	215.396	51.158	124.680	-63.735	121.540	82.283	130.015	43.864	57.558	45.720	6.973	-6.226	68.509	197.652	-86.253	0.00016362	0.00020283	7.7775e-05	1057.3	2.6056e-06	2.7058e-06	1129.2	220.76	3.5286e-06	3.7894e-06	278.27	77.738	61.035	17.716	2.2039e-06	24.954	0.00023176	0.00023251	6.5766e-05	1045.9	2.759e-06	2.6684e-06	1117.6	220.7	2.5059e-06	2.6348e-06	278.11	78.834	61.421	17.746	2.5426e-06	25.385	-68.406	-111.454	-63.089	-133.795	-49.315	23.754	-133.589	-126.536	-9.297	14.769	-126.926	-120.278	-119.854	-112.828	-24.361	-113.540	-8191	255	
21839.674	1	1	0	0	0.27971	0.2382	0.21502	0.19989	0.30212	0.32918	0.30705	0.29084	0.17103	0.19801	0.16114	0.18451	0.25685	0.073678	0.095544	0.18842	-1.7667	-2.3563	-2.0146	-2.8167	-2.1917	-2.0938	-2.6375	-2.2313	-2.2896	-2.5687	-2.0396	-2.3833	-2.2604	-2.3271	-2.6167	-2.2938	106.103	31.165	0.634	154.994	202.261	152.985	81.486	207.445	0.782	79.395	145.195	133.608	82.154	-68.289	113.226	209.917	0.00018432	0.00042389	8.8447e-05	1059.1	3.07e-06	3.7286e-06	1132.5	221.56	2.1897e-06	4.2932e-06	275.5	78.106	61.052	17.505	2.6479e-06	24.928	0.00022932	0.0002219	6.3156e-05	1043.7	2.6228e-06	2.4953e-06	1118	221.24	2.5273e-06	2.571e-06	276.4	78.927	61.387	17.744	2.55e-06	25.41	-82.044	-26.055	-22.217	-133.710	17.548	13.180	-133.681	-126.874	20.734	22.390	-127.041	-120.406	-119.989	-112.902	35.735	-113.431	-8191	255	
21839.770	1	1	0	0	0.075202	0.13993	0.054685	0.075293	0.11993	0.070577	0.47463	0.2314	0.10905	0.25007	0.095678	0.29909	0.14263	0.29725	0.30179	0.1553	-1.8	-2.175	-2.1292	-2.6688	-2.3333	-2.1458	-2.7021	-2.2438	-2.4396	-2.4417	-2.3063	-2.375	-2.2604	-2.1875	-2.5083	-2.2313	67.263	-21.889	181.647	186.716	-31.792	75.671	136.242	-88.958	1.692	-41.969	165.725	169.047	58.552	1.958	-70.292	27.046	0.0001816	0.00035086	6.0723e-05	1056.8	1.0139e-06	2.4871e-06	1126.6	223.04	1.2819e-06	4.7461e-06	277.24	78.084	61.211	17.459	2.9965e-06	25.086	0.00022558	0.00023425	6.5075e-05	1044	2.629e-06	2.5093e-06	1116.6	221.41	2.4575e-06	2.6658e-06	276.65	78.872	61.439	17.707	2.4034e-06	25.4	-71.832	-37.068	-42.348	-133.785	40.190	2.711	-133.655	-126.747	-29.417	-2.447	-126.797	-120.277	-120.152	-112.706	23.718	-112.924	-8191	255	
21839.865	1	1	0	0	0.037325	0.067375	0.16948	0.33015	0.13785	0.27935	0.072578	0.1519	0.12056	0.048479	0.26312	0.19362	0.21697	0.3482	0.25723	0.13265	-1.8271	-2.5354	-2.0417	-2.6312	-2.4396	-2.0917	-2.5125	-2.5187	-2.2646	-2.4167	-2.0938	-2.3646	-2.3104	-1.9771	-2.4708	-2.4646	-116.959	104.727	-69.500	-129.753	132.652	-137.759	112.467	177.524	37.957	-75.024	136.632	175.097	21.200	-119.423	75.191	207.952	0.00017229	0.00017968	6.7872e-05	1053.2	2.6652e-06	4.3893e-06	1126.6	221.19	1.5991e-06	4.4376e-06	277.86	78.218	61.215	17.569	1.6259e-06	24.893	0.00022541	0.00022782	6.2644e-05	1041.9	2.5009e-06	2.5314e-06	1115.2	220.81	2.5379e-06	2.3832e-06	276.95	78.72	61.383	17.746	2.3334e-06	25.382	-76.130	-58.651	-64.719	-133.876	-53.650	37.990	-133.885	-126.485	35.645	-20.578	-126.756	-120.355	-119.561	-112.881	4.036	-113.375	-8191	255	
21839.961	1	1	0	0	0.26566	0.35332	0.2609	0.16111	0.12991	0.10784	0.29517	0.068654	0.30737	0.19139	0.12758	0.16926	0.19606	0.28801	0.18838	0.37843	-1.8833	-2.6229	-2.1188	-2.3833	-2.45	-2.0042	-2.5583	-2.2458	-2.1167	-2.6729	-2.2479	-2.5687	-2.3917	-2.0083	-2.425	-2.4542	-137.971	104.350	-0.881	-63.079	-27.536	-43.273	152.001	206.364	-142.198	-40.481	27.124	-17.634	96.131	150.077	-108.174	109.950	0.00016731	0.00036937	8.6358e-05	1056.6	3.0281e-06	2.0198e-06	1126.2	220.86	2.2705e-06	6.1118e-06	277.46	77.853	60.81	17.473	3.5766e-06	24.956	0.00022348	0.00021835	6.3731e-05	1043.2	2.5085e-06	2.5826e-06	1114.4	220.79	2.4031e-06	2.4177e-06	276.55	78.686	61.202	17.699	2.293e-06	25.383	-77.331	-52.369	-42.952	-133.734	-13.452	-34.571	-133.690	-126.992	0.328	7.519	-126.875	-119.825	-120.236	-112.829	6.597	-113.608	-8191	255	
21840.057	1	1	0	0	0.080833	0.27696	0.0083901	0.28788	0.16376	0.1977	0.092961	0.20593	0.053983	0.15629	0.29721	0.17679	0.14058	0.30021	0.10564	0.50204	-1.9542	-2.7479	-2.1042	-2.5083	-2.4917	-2.1021	-2.6708	-2.1188	-2.1	-2.5625	-2.2958	-2.3146	-2.7542	-2.0396	-2.4396	-2.2354	-5.429	78.934	141.028	168.287	-47.344	-76.861	44.922	176.013	9.103	-2.076	89.683	151.634	75.252	-85.642	40.634	161.311	0.00016619	0.00033818	7.2239e-05	1056.4	3.0191e-06	3.5003e-06	1126.7	221.24	2.4388e-06	3.5413e-06	277.54	78.062	61.505	17.425	2.5971e-06	24.986	0.00021513	0.00022186	6.075e-05	1041.4	2.4702e-06	2.4843e-06	1114.8	220.24	2.5206e-06	2.4452e-06	276.94	78.676	61.396	17.706	2.414e-06	25.391	-75.149	-56.732	-40.589	-133.681	3.665	-21.345	-133.485	-126.697	5.647	-3.907	-126.819	-120.490	-119.717	-113.357	-9.915	-113.404	-8191	255	
21840.152	1	1	0	0	0.031928	0.054434	0.27663	0.23932	0.19203	0.029334	0.37516	0.21836	0.10515	0.028231	0.24843	0.15782	0.16545	0.039958	0.067061	0.17623	-1.6583	-2.45	-2.2438	-2.2938	-2.6229	-2.1479	-2.6604	-2.5896	-2.1437	-2.5687	-2.2333	-2.225	-2.5396	-2.2	-2.3104	-2.3625	138.660	72.424	28.814	204.351	138.299	-49.344	121.820	177.879	102.231	191.164	161.994	-144.031	117.856	112.461	139.178	36.364	0.00020266	0.00022924	4.2598e-05	1056.9	2.6537e-06	2.1052e-06	1130.5	222.47	2.8054e-06	1.2225e-06	279.04	77.792	60.81	17.497	1.0033e-06	24.995	0.00022761	0.00021153	6.1377e-05	1042.3	2.5214e-06	2.4703e-06	1114.7	220.46	2.5502e-06	2.3382e-06	276.93	78.614	61.352	17.668	2.307e-06	25.341	-78.259	-76.501	-42.637	-133.777	1.721	17.609	-133.549	-126.798	-11.357	21.186	-126.851	-119.932	-120.097	-112.711	25.415	-113.324	-8191	255	
21840.273	1	1	0	0	0.15953	0.081082	0.12747	0.073193	0.057695	0.21717	0.44305	0.13418	0.063381	0.17786	0.11718	0.26497	0.31607	0.26777	0.10571	0.055037	-1.9167	-2.2792	-2.2271	-2.4771	-2.4521	-2.0667	-2.35	-2.4729	-2.2354	-2.5833	-2.4167	-2.1333	-2.7229	-2.3708	-2.4562	-2.5792	-119.241	131.667	185.092	95.469	114.404	-75.822	137.133	71.213	-104.999	158.023	-106.747	82.217	45.549	145.311	-26.368	-16.517	0.00016069	0.0001278	9.9836e-05	1052.2	2.4685e-06	3.9382e-06	1123.8	221.65	1.5328e-06	4.7527e-06	279.53	78.428	60.923	17.577	3.3531e-06	24.953	0.00022678	0.00021309	5.9419e-05	1040.3	2.5416e-06	2.3945e-06	1112.9	220.53	2.5273e-06	2.5448e-06	277.58	78.747	61.249	17.72	2.3823e-06	25.387	-78.241	-88.951	-61.132	-133.717	40.821	14.458	-133.659	-126.759	-3.738	12.448	-126.985	-120.569	-119.851	-112.995	21.024	-113.390	-8191	255	
21840.369	1	1	0	0	0.37465	0.090771	0.065813	0.34036	0.16326	0.10601	0.13908	0.33241	0.33207	0.15132	0.22502	0.066245	0.14091	0.079263	0.14071	0.12424	-1.5938	-2.4771	-2.3812	-2.0875	-2.6708	-2.2625	-2.4229	-2.3542	-2.1688	-2.2646	-2.5125	-2.2333	-2.5729	-2.1979	-2.2333	-2.5729	-108.164	97.691	193.557	207.579	-56.567	204.184	97.673	137.152	39.123	-67.809	163.790	159.443	-82.427	105.641	87.018	113.464	0.00018062	0.00034013	9.9489e-05	1056.7	1.0096e-06	2.2825e-06	1127.5	221.56	2.485e-06	2.3104e-06	276.19	78.394	61.502	17.524	2.1389e-06	25.15	0.00022716	0.00022558	6.1447e-05	1043.7	2.5412e-06	2.5442e-06	1116.3	220.75	2.5989e-06	2.555e-06	276.5	78.833	61.568	17.71	2.5916e-06	25.436	-75.746	-73.581	-17.136	-133.914	10.577	34.756	-133.601	-126.515	4.148	21.151	-126.902	-120.485	-120.043	-113.511	-4.988	-113.099	-8191	255	
21840.467	1	1	0	0	0.27223	0.072767	0.20972	0.26122	0.053208	0.041609	0.31866	0.16476	0.062142	0.28074	0.2057	0.27005	0.11712	0.33197	0.034289	0.067475	-1.8896	-2.2771	-2.4917	-2.3354	-2.3542	-2.3417	-2.35	-2.4542	-2.2792	-2.3979	-2.5458	-2.2375	-2.4875	-2.525	-2.1646	-2.5354	35.374	146.809	181.096	171.717	-122.354	29.682	202.147	121.785	20.054	-128.981	164.068	-141.465	-30.605	67.141	94.013	-99.717	0.00017999	0.00019544	6.9056e-05	1051.8	2.5311e-06	3.3062e-06	1125.6	221.51	2.2822e-06	4.2418e-06	276.66	77.214	60.872	17.587	3.9171e-06	25.022	0.00023461	0.00023673	6.7762e-05	1040	2.7395e-06	2.6406e-06	1113.6	220.41	2.6066e-06	2.5695e-06	276.19	78.481	61.278	17.733	2.6793e-06	25.426	-88.250	-63.670	-71.758	-133.756	12.827	-7.927	-133.834	-126.812	-18.011	22.392	-126.872	-120.261	-120.049	-112.946	-8.089	-113.579	-8191	255	
21840.562	1	1	0	0	0.20272	0.21344	0.050835	0.26731	0.38406	0.25623	0.22468	0.19404	0.047593	0.21816	0.1447	0.12206	0.20392	0.21226	0.20772	0.29525	-1.5938	-2.3167	-2.5667	-2.0938	-2.375	-2.3063	-2.2917	-2.575	-2.1167	-2.3458	-2.5625	-2.1333	-2.4938	-2.5375	-2.1646	-2.5458	12.082	139.607	-38.927	114.839	166.766	-32.212	164.954	158.924	205.131	202.799	174.648	175.414	-38.048	-81.557	34.156	-28.319	0.00016984	0.00024555	0.00010251	1052.8	2.5516e-06	1.9773e-06	1128.1	220.76	2.292e-06	8.1837e-07	278.58	77.98	60.78	17.377	3.646e-06	24.963	0.00023721	0.0002371	6.4019e-05	1037.4	2.6362e-06	2.5681e-06	1111.1	220.08	2.7318e-06	2.3794e-06	276.88	78.52	61.198	17.637	2.6393e-06	25.307	-81.563	-54.822	-62.626	-133.677	-2.090	-0.526	-133.549	-126.609	5.946	-4.558	-126.684	-120.524	-120.159	-113.409	13.985	-113.587	-8191	255	
21840.658	1	1	0	0	0.13932	0.19316	0.082227	0.10545	0.19454	0.26709	0.46101	0.18873	0.078209	0.18378	0.26336	0.1808	0.13875	0.35161	0.14401	0.15167	-1.8813	-2.2542	-2.6312	-2.1667	-2.3688	-2.4042	-2.2854	-2.6729	-2.1771	-2.075	-2.6417	-2.3104	-2.4146	-2.4375	-2.0062	-2.4688	67.506	153.075	7.502	199.262	128.165	-88.852	173.068	-140.135	-51.268	-76.479	52.685	213.476	175.463	-78.553	-94.603	154.595	0.00016506	0.0003075	5.2279e-05	1050.9	1.7243e-06	1.6671e-06	1120.5	220.62	1.7595e-06	4.0329e-06	275.8	78.478	60.772	17.395	1.4579e-06	24.87	0.00023313	0.00022525	6.2375e-05	1036.7	2.554e-06	2.5182e-06	1109	219.96	2.5449e-06	2.5265e-06	275.61	78.574	61.007	17.608	2.6041e-06	25.279	-79.072	-64.078	-71.912	-133.839	-50.875	27.398	-133.455	-126.495	-8.671	11.436	-126.966	-120.103	-119.751	-112.501	5.245	-113.330	-8191	255	
21840.756	1	1	0	0	0.21618	0.15722	0.15878	0.2672	0.07871	0.041014	0.28878	0.096418	0.21675	0.29488	0.046597	0.23939	0.22998	0.17826	0.13349	0.031732	-1.6042	-2.1333	-2.5229	-2.2313	-2.3812	-2.55	-2.2042	-2.4104	-2.3771	-2.1854	-2.675	-2.0458	-2.3646	-2.4021	-1.9875	-2.2938	-95.507	74.005	199.321	208.748	-71.616	34.175	148.942	181.849	52.028	-72.200	132.848	204.251	-120.380	-20.377	-103.698	148.845	0.00019403	0.00033565	0.00010015	1043	2.3473e-06	1.481e-06	1115.5	220.85	2.5175e-06	2.9329e-06	276.63	77.618	61.156	17.433	2.8676e-06	24.938	0.00022995	0.0002301	6.2669e-05	1031.3	2.55e-06	2.4681e-06	1104	219.32	2.5772e-06	2.5453e-06	275.16	78.361	61.178	17.641	2.521e-06	25.261	-73.291	-62.315	-51.478	-133.674	67.347	35.242	-133.782	-126.537	2.829	-11.667	-126.690	-120.202	-119.704	-112.790	-23.006	-113.699	-8191	255	
21840.873	1	1	0	0	0.26849	0.23312	0.19204	0.20412	0.079015	0.19432	0.23988	0.052665	0.06319	0.26212	0.13331	0.052084	0.15867	0.05162	0.20571	0.13159	-1.9458	-2.0438	-2.6333	-2.1104	-2.2646	-2.5542	-2.2729	-2.5521	-2.2896	-2.0667	-2.4833	-2.2313	-2.3187	-2.4583	-2.225	-2.4688	200.274	129.802	-23.211	183.600	-32.774	-31.862	-137.953	34.065	151.731	0.063	138.055	0.699	200.650	153.000	-70.963	144.665	0.00019102	0.00027186	6.782e-05	1049.3	1.8405e-06	2.3589e-06	1115.2	219.69	1.5308e-06	5.4032e-06	275.03	77.802	60.965	17.488	3.4763e-06	24.89	0.00023667	0.00022059	6.4192e-05	1030.5	2.519e-06	2.4716e-06	1104.8	219.52	2.5131e-06	2.5453e-06	274.01	78.22	61.042	17.713	2.4462e-06	25.355	-79.532	-44.137	-48.458	-133.727	33.609	9.518	-133.531	-126.401	23.301	17.512	-127.044	-120.617	-119.731	-112.809	-3.606	-113.777	-8191	255	
21840.971	1	1	0	0	0.24726	0.18145	0.13828	0.28516	0.26233	0.14638	0.18737	0.14548	0.10891	0.3243	0.15106	0.066277	0.23169	0.30126	0.30685	0.25293	-1.9062	-2.1896	-2.4583	-2.1688	-2.3417	-2.6104	-2.0979	-2.5083	-2.3979	-2.175	-2.4646	-2.3792	-2.1813	-2.5563	-2.3312	-2.5667	144.717	-91.860	193.688	214.707	146.099	-89.322	194.435	76.769	98.770	190.775	126.473	210.029	181.973	51.331	-37.275	154.972	0.00020167	0.0003257	7.3565e-05	1046.4	1.3453e-06	4.0311e-06	1125.7	220.97	1.2739e-06	2.6521e-06	277.78	78.041	61.32	17.488	2.0352e-06	25.214	0.00023174	0.00023719	6.3367e-05	1031.9	2.6097e-06	2.5156e-06	1108.3	219.52	2.6473e-06	2.722e-06	275.75	78.685	61.41	17.703	2.5561e-06	25.413	-77.753	-63.405	-46.035	-133.631	-54.369	-10.250	-133.652	-126.482	67.517	44.930	-127.012	-120.216	-120.114	-113.299	-6.179	-113.555	-8191	255	
21841.066	1	1	0	0	0.10992	0.39013	0.28527	0.097993	0.20805	0.097935	0.18458	0.18928	0.078834	0.029482	0.26843	0.17863	0.1711	0.11864	0.062094	0.25787	-1.9458	-2.0958	-2.4833	-2.5021	-2.3063	-2.6208	-2.3167	-2.4062	-2.4979	-1.9479	-2.5375	-2.3333	-2.2687	-2.5938	-2.3	-2.1167	45.574	-126.642	183.201	-102.393	139.868	119.897	201.551	161.510	-61.103	120.541	208.758	86.913	-66.916	-29.760	-60.511	158.218	0.00018237	0.00020827	0.00010384	1052.5	2.0177e-06	3.3377e-06	1128.6	221.86	2.2615e-06	2.5044e-06	276.67	78.373	61.341	17.589	4.3268e-06	25.034	0.00023495	0.00023634	6.2285e-05	1037.7	2.6123e-06	2.5093e-06	1110.6	220.48	2.5004e-06	2.5014e-06	275.77	78.689	61.442	17.759	2.547e-06	25.344	-77.151	-23.814	-53.030	-133.669	22.060	14.223	-133.647	-126.365	28.017	47.683	-126.712	-120.301	-119.661	-113.371	9.364	-113.427	-8191	255	
21841.139	1	1	0	0	0.083278	0.04249	0.16704	0.074135	0.32096	0.1521	0.18046	0.21981	0.20296	0.088235	0.14109	0.097106	0.15355	0.11761	0.30783	0.18528	-2.0625	-2.1813	-2.4896	-2.4542	-2.2042	-2.7979	-2.4271	-2.3521	-2.6958	-2.1646	-2.3937	-2.4167	-2.1813	-2.6354	-2.2979	-2.3542	53.987	-33.209	-44.900	-58.248	-136.500	-71.789	102.214	165.136	-10.656	9.272	-130.153	-79.689	132.893	-98.552	-15.837	186.371	0.00018293	0.00019167	7.5628e-05	1055.1	2.8234e-06	3.0252e-06	1122.3	222.58	2.128e-06	4.5828e-06	277.59	78.302	61.344	17.57	2.7895e-06	25.052	0.00023075	0.00022817	6.3501e-05	1037.2	2.5545e-06	2.4574e-06	1111	220.58	2.5868e-06	2.558e-06	276.19	78.869	61.608	17.788	2.6646e-06	25.345	-76.115	-18.162	-38.892	-133.833	-37.601	19.988	-133.648	-126.396	1.084	21.105	-126.612	-120.338	-120.050	-112.816	8.100	-113.288	-8191	255	
21841.258	1	1	0	0	0.09307	0.10309	0.23308	0.10916	0.06553	0.23644	0.11744	0.41375	0.3096	0.23191	0.10662	0.12262	0.21286	0.18447	0.11776	0.068045	-2.2625	-2.125	-2.2708	-2.6479	-2.0042	-2.3958	-2.3583	-2.3792	-2.5792	-2.1208	-2.2542	-2.5938	-2.1937	-2.6396	-2.375	-2.1312	46.401	-18.950	-82.886	80.970	25.606	106.240	122.077	-141.389	39.785	10.464	201.586	-100.877	-118.154	202.371	-44.884	155.513	0.00017471	0.00034825	6.1981e-05	1053.6	3.4966e-06	3.365e-06	1129.5	221.6	1.7458e-06	2.3635e-06	279.07	78.385	61.329	17.555	2.2104e-06	25.115	0.00022848	0.00023388	6.3309e-05	1037.2	2.6283e-06	2.5317e-06	1113.3	220.44	2.6256e-06	2.6854e-06	276.54	78.749	61.52	17.823	2.5166e-06	25.425	-72.904	-40.814	-47.247	-133.623	38.665	11.227	-133.592	-126.532	-7.420	-21.272	-126.962	-120.065	-120.156	-112.467	48.516	-113.416	-8191	255	
21841.354	1	1	0	0	0.30576	0.21977	0.062252	0.29018	0.088222	0.011129	0.097061	0.17238	0.20832	0.26738	0.31914	0.14068	0.027211	0.10079	0.20547	0.37944	-2.0333	-2.2	-2.2292	-2.45	-2.2229	-2.4271	-2.4792	-2.0938	-2.4792	-2.2125	-2.2396	-2.4333	-2.2875	-2.4229	-2.3063	-2.2375	-17.780	212.033	77.748	194.810	168.962	-119.001	50.041	120.042	167.452	143.909	185.449	-106.564	-47.609	-53.676	108.849	-63.820	0.00019184	0.00032005	5.5846e-05	1058	3.3651e-06	2.6578e-06	1131.3	220.72	1.2825e-06	3.5817e-06	277.54	78.485	61.128	17.675	2.2723e-06	25.084	0.00023483	0.00023097	6.8504e-05	1039.9	2.6588e-06	2.4591e-06	1111.2	220.53	2.4029e-06	2.4739e-06	276.68	78.952	61.411	17.863	2.5308e-06	25.4	-72.662	-20.567	-47.194	-133.732	-44.786	27.297	-133.463	-126.683	-0.180	22.417	-127.065	-120.197	-119.592	-112.814	13.807	-113.317	-8191	255	
21841.451	1	1	0	0	0.34206	0.16813	0.10904	0.38015	0.12039	0.040122	0.25005	0.29403	0.34361	0.17208	0.12322	0.098818	0.094429	0.33274	0.31645	0.24249	-2.2938	-2.2104	-2.2687	-2.725	-2.0208	-2.5729	-2.4313	-2.1521	-2.4	-2.4208	-2.1542	-2.6708	-2.225	-2.4437	-2.3854	-2.2771	170.262	160.477	196.184	141.937	190.617	79.699	194.693	-117.280	87.046	72.874	115.843	182.668	106.996	119.100	78.222	20.772	0.00018406	0.00032535	4.1711e-05	1058.7	1.9865e-06	2.3156e-06	1131.2	222.83	3.6304e-06	2.27e-06	280.23	78.898	61.073	17.6	2.126e-06	25.018	0.00023066	0.00023019	6.2893e-05	1041.5	2.61e-06	2.535e-06	1114.4	220.91	2.634e-06	2.5804e-06	277.01	79.09	61.474	17.838	2.5866e-06	25.409	-80.563	-37.261	-24.536	-133.884	57.180	-7.957	-133.747	-126.270	-1.817	-7.468	-126.968	-120.279	-119.660	-112.909	18.396	-113.921	-8191	255	
21841.547	1	1	0	0	0.23391	0.14326	0.21776	0.17514	0.2146	0.18281	0.044237	0.17276	0.10836	0.10062	0.06378	0.17194	0.15873	0.13212	0.11229	0.27109	-2.1542	-2.2875	-2.2167	-2.5542	-2.1833	-2.6792	-2.5917	-2.125	-2.3688	-2.3125	-2.3521	-2.4625	-2.3292	-2.4729	-2.5583	-2.1729	-111.306	166.432	-117.726	183.190	126.442	-110.206	141.291	137.348	100.965	105.239	43.560	-78.379	112.918	99.046	-138.250	152.348	0.00017898	0.00024993	0.00011792	1053.5	2.8606e-06	3.4071e-06	1127.5	221.88	2.2066e-06	4.2493e-06	279.32	78.342	61.411	17.811	1.6956e-06	25.192	0.00023173	0.00022032	6.5465e-05	1039.1	2.5835e-06	2.5482e-06	1112.7	220.51	2.5984e-06	2.4945e-06	277.32	78.913	61.678	17.866	2.5552e-06	25.479	-77.489	-78.198	-16.355	-133.642	1.854	-0.122	-133.800	-126.546	0.936	26.534	-126.880	-120.716	-119.537	-113.128	3.702	-113.415	-8191	255	
21841.666	1	1	0	0	0.23293	0.18029	0.14277	0.11218	0.13274	0.19243	0.26397	0.28343	0.15011	0.18613	0.18639	0.41717	0.24289	0.29281	0.18892	0.2019	-2.2562	-2.2708	-2.2667	-2.6521	-2.3458	-2.3563	-2.7521	-1.9521	-2.5	-2.3708	-2.2938	-2.7167	-2.2396	-2.2313	-2.6854	-2.1333	-12.494	52.239	-38.681	186.884	-125.901	-24.323	185.775	160.339	-38.272	48.434	213.468	189.677	-129.918	147.340	157.980	4.844	0.00017578	0.00050582	9.9617e-05	1053.5	2.5386e-06	1.6113e-06	1124.9	222.91	3.5046e-06	3.9173e-06	276.73	78.641	61.375	17.792	2.5869e-06	24.978	0.0002322	0.00023363	6.7545e-05	1041.8	2.6245e-06	2.5375e-06	1112	221.37	2.6427e-06	2.5631e-06	276.93	78.844	61.602	17.887	2.6321e-06	25.379	-76.735	-61.915	-49.838	-133.576	-14.846	65.954	-133.853	-126.814	-12.161	64.669	-126.847	-120.133	-120.245	-112.834	14.503	-113.033	-8191	255	
21841.762	1	1	0	0	0.048708	0.26815	0.072612	0.11948	0.24831	0.078445	0.080302	0.078242	0.20607	0.11395	0.23173	0.11901	0.23327	0.13355	0.15436	0.1177	-1.8333	-2.4667	-1.9937	-2.5542	-2.3937	-2.2729	-2.8417	-2.1167	-2.5646	-2.2792	-2.1688	-2.4646	-2.3187	-2.0979	-2.6167	-2.2562	70.537	-13.293	37.201	142.974	-35.542	-97.385	-28.845	198.381	-26.936	112.858	-50.058	121.522	179.767	188.193	-7.528	-77.505	0.00020264	0.00034959	3.4407e-05	1054.7	2.7068e-06	1.3141e-06	1129.4	222.92	2.612e-06	3.5398e-06	277.93	78.535	61.69	17.572	1.1037e-06	25.203	0.00023886	0.00024231	6.7852e-05	1041.3	2.7383e-06	2.6096e-06	1115	220.71	2.7756e-06	2.6409e-06	277.34	78.991	61.729	17.82	2.6498e-06	25.427	-82.471	-75.926	-73.044	-133.792	-13.499	40.808	-133.717	-126.751	-32.772	-16.960	-126.831	-120.468	-119.639	-113.029	17.221	-113.458	-8191	255	
21841.836	1	1	0	0	0.13714	0.25412	0.080719	0.16679	0.18702	0.18438	0.20065	0.12978	0.11808	0.13229	0.23627	0.17836	0.23765	0.22543	0.11653	0.037895	-1.8813	-2.3667	-2.1688	-2.4313	-2.2521	-1.8937	-2.5062	-2.0625	-2.3354	-2.5479	-2.0375	-2.3854	-2.4437	-2.1417	-2.4708	-2.1729	127.598	-105.829	17.138	-139.035	19.448	-15.520	134.804	-40.932	-70.755	-63.043	58.181	109.570	-65.672	179.738	168.371	-94.285	0.0001919	0.00022645	4.2547e-05	1056.6	3.7429e-06	3.2806e-06	1128.4	221.37	1.4843e-06	3.611e-06	278.86	78.615	61.162	17.669	7.8661e-07	25.162	0.00023945	0.00023863	6.7269e-05	1042.6	2.7514e-06	2.7534e-06	1114.3	220.43	2.6689e-06	2.74e-06	276.94	79.176	61.549	17.879	2.6088e-06	25.421	-78.172	-44.991	-50.149	-133.815	-9.894	43.127	-133.818	-126.743	38.747	-49.328	-126.950	-120.065	-119.900	-113.004	-3.219	-113.632	-8191	255	
21841.955	1	1	0	0	0.18797	0.14692	0.061227	0.29797	0.044604	0.24786	0.23494	0.4195	0.23722	0.21351	0.027361	0.34289	0.23228	0.028367	0.12146	0.42532	-1.6375	-2.3646	-2.0167	-2.5333	-2.2687	-2.05	-2.6542	-2.2979	-2.1854	-2.4292	-2.3812	-2.4875	-2.3125	-2.0208	-2.4625	-2.3104	175.541	193.401	114.634	143.489	9.918	-37.006	-34.786	-93.105	67.192	-142.698	-92.095	184.462	121.678	-104.576	-54.724	-136.722	0.00018234	0.00039165	7.8978e-05	1060.7	3.705e-06	3.0061e-06	1126.9	222.45	4.4495e-06	4.9959e-06	278.96	78.551	61.665	17.754	2.1861e-06	25.107	0.00023694	0.00025704	6.8715e-05	1044	2.8457e-06	2.6261e-06	1114.5	221.26	2.8059e-06	2.6198e-06	277.07	79.013	61.838	17.891	2.6759e-06	25.444	-79.476	-57.576	-55.454	-133.766	0.081	33.270	-133.581	-126.705	16.898	37.870	-127.023	-120.255	-119.655	-112.362	17.271	-114.198	-8191	255	
21842.051	1	1	0	0	0.11129	0.083356	0.1522	0.082122	0.069664	0.20843	0.25894	0.29711	0.27516	0.23199	0.14132	0.081057	0.16848	0.12044	0.18134	0.30051	-1.725	-2.3854	-2.0854	-2.5917	-2.4375	-2.0917	-2.3812	-2.2896	-2.3354	-2.4979	-2.2188	-2.3063	-2.5208	-2.1979	-2.6188	-2.2812	48.936	26.593	-52.686	185.348	-6.634	72.420	119.172	143.748	170.936	-75.948	89.528	75.191	-142.123	-46.540	80.659	-83.807	0.00016929	0.00017289	9.4526e-05	1066	2.8206e-06	2.5462e-06	1127.5	221.51	2.6042e-06	4.6963e-06	279.14	79.221	61.801	17.696	5.8062e-07	25.302	0.00024279	0.00023473	6.6502e-05	1045.8	2.6521e-06	2.7126e-06	1114.9	220.9	2.6872e-06	2.6384e-06	277.68	79.277	61.93	17.853	2.6629e-06	25.527	-77.102	-11.374	-40.043	-133.642	12.208	-2.194	-133.935	-126.630	-9.867	5.274	-126.775	-120.340	-119.749	-112.877	60.965	-114.017	-8191	255	
21842.146	1	1	0	0	0.02598	0.32352	0.21106	0.10934	0.28801	0.13442	0.30691	0.37627	0.10948	0.20725	0.25118	0.16394	0.065859	0.29345	0.1019	0.28457	-1.9208	-2.3479	-2.1042	-2.2938	-2.5229	-2.0458	-2.65	-2.4375	-2.2896	-2.4146	-2.2729	-2.4104	-2.6167	-2.0208	-2.4271	-2.4062	-58.837	-42.900	95.107	-121.573	101.989	182.638	120.836	176.452	63.790	-50.385	-111.442	181.864	29.012	-116.742	-17.517	172.993	0.00019387	0.00028362	5.8623e-05	1062	3.1783e-06	4.0753e-06	1134.2	223.95	2.3667e-06	2.8697e-06	279.07	78.923	61.353	17.717	2.0102e-06	25.06	0.00025042	0.00023561	6.6169e-05	1043.7	2.8488e-06	2.6231e-06	1116.1	221.8	2.8401e-06	2.5392e-06	277.33	79.242	61.569	17.841	2.5692e-06	25.437	-76.449	-54.498	-68.197	-133.893	6.186	-51.833	-133.473	-126.543	2.778	28.442	-126.786	-120.384	-120.023	-113.005	5.430	-113.575	-8191	255	
21842.268	1	1	0	0	0.18012	0.13896	0.13991	0.072344	0.074253	0.095203	0.19764	0.16095	0.42907	0.045055	0.11184	0.12966	0.26353	0.26055	0.29608	0.07084	-1.3646	-2.4208	-2.1063	-2.3271	-2.4542	-2.125	-2.375	-2.3042	-2.1521	-2.4062	-2.5021	-2.0583	-2.5187	-2.0958	-2.3	-2.4375	92.894	2.955	72.353	-93.647	142.745	-20.258	99.282	196.757	32.265	-143.337	198.815	172.715	-100.281	74.997	-1.426	-120.472	0.00016619	0.00028334	0.00010486	1063.6	1.0292e-06	3.9745e-06	1130.5	223.42	2.1254e-06	2.7114e-06	279.78	79.544	61.785	17.885	1.3776e-06	25.32	0.0002387	0.00023613	6.5849e-05	1045.3	2.7531e-06	2.5686e-06	1116.3	221.26	2.6087e-06	2.525e-06	277.67	79.334	61.76	17.957	2.5613e-06	25.491	-82.710	-68.377	-54.183	-133.917	-3.381	43.090	-133.734	-126.515	6.033	27.692	-127.036	-120.080	-119.720	-113.057	32.469	-113.528	-8191	255	
21842.363	1	1	0	0	0.3669	0.27339	0.053582	0.11421	0.18615	0.21286	0.10124	0.33953	0.1747	0.10174	0.043202	0.10426	0.2454	0.081729	0.30979	0.14171	-1.5187	-2.2958	-2.1771	-2.4625	-2.4917	-2.0875	-2.5604	-2.5458	-2.1437	-2.6479	-2.2146	-2.2687	-2.5104	-1.9688	-2.1229	-2.2625	-60.350	133.396	56.758	82.706	122.217	-68.297	35.381	51.510	112.250	120.826	28.159	115.133	76.710	-78.136	-15.141	50.958	0.00015763	0.0003502	4.393e-05	1061.3	1.5746e-06	2.1621e-06	1130.9	222.6	3.4364e-06	2.0174e-06	280.48	78.629	61.165	17.796	3.0361e-06	25.096	0.00023518	0.00023253	6.4224e-05	1044.5	2.6973e-06	2.5767e-06	1115.1	221.34	2.5979e-06	2.4322e-06	277.78	79.211	61.541	17.871	2.5404e-06	25.418	-76.214	-60.637	-54.167	-133.778	-1.282	-26.953	-133.669	-126.568	0.024	-18.985	-126.737	-120.547	-119.776	-112.948	47.523	-113.216	-8191	255	
21842.436	1	1	0	0	0.16799	0.15772	0.25894	0.19212	0.21085	0.30983	0.19318	0.25645	0.10996	0.20774	0.054121	0.26851	0.088594	0.078251	0.049257	0.098865	-1.6187	-2.4458	-2.4562	-2.3438	-2.6917	-2.2917	-2.1854	-2.6146	-1.9771	-2.2854	-2.3125	-2.2646	-2.5812	-2.2792	-2.1708	-2.5229	35.219	122.605	-13.935	141.175	34.757	-19.083	135.842	46.123	50.063	140.383	11.481	-143.321	93.792	-142.984	121.998	200.856	0.0001887	0.00060298	0.00010513	1058.3	3.1173e-06	3.7617e-06	1134.6	222.35	3.2379e-06	4.2154e-06	279.13	78.936	61.842	17.702	2.6077e-06	25.033	0.00024297	0.00023421	6.6886e-05	1043.2	2.7142e-06	2.6197e-06	1118.3	220.84	2.6034e-06	2.661e-06	277.36	79.219	61.742	17.881	2.6053e-06	25.403	-75.471	-69.817	-50.227	-133.866	-10.759	53.868	-133.477	-126.581	-21.064	21.520	-127.050	-120.347	-119.980	-113.417	-5.794	-113.509	-8191	255	
21842.555	1	1	0	0	0.11772	0.063857	0.15211	0.11652	0.057183	0.17029	0.16583	0.14815	0.11026	0.21548	0.21784	0.17806	0.25966	0.16834	0.21632	0.32667	-1.6167	-2.2979	-2.2708	-2.1	-2.5062	-2.425	-2.2271	-2.6937	-2.0687	-2.2979	-2.4625	-2.2708	-2.4375	-2.3104	-2.1375	-2.5708	183.521	25.186	40.199	-144.012	1.678	151.556	151.857	120.090	79.049	171.995	132.785	-96.497	-137.406	158.709	164.623	188.674	0.00019148	0.00016569	0.00012709	1057.5	2.801e-06	3.7406e-06	1130.5	223.29	2.0023e-06	2.5654e-06	280.27	79.086	61.537	17.751	3.4211e-06	25.169	0.00024465	0.00023985	6.2183e-05	1042.4	2.6731e-06	2.5953e-06	1114.3	221.29	2.7277e-06	2.6928e-06	277.34	79.297	61.73	17.891	2.6673e-06	25.465	-78.252	-55.335	-34.579	-134.052	-37.781	-4.100	-133.669	-126.551	-12.705	-30.523	-127.180	-120.023	-120.020	-112.720	49.128	-113.372	-8191	255	
21842.652	1	1	0	0	0.15703	0.096853	0.13007	0.14576	0.14706	0.14646	0.16992	0.21307	0.17512	0.24629	0.21303	0.20467	0.2225	0.27699	0.17539	0.2511	-1.625	-2.2167	-2.4813	-2.1542	-2.4604	-2.3021	-2.2604	-2.5062	-2.2854	-2.4375	-2.5125	-1.9813	-2.1542	-2.45	-2.0521	-2.5667	183.774	-60.383	58.897	-75.827	186.655	100.640	125.601	142.639	194.667	-87.650	136.433	121.398	154.274	-104.301	6.311	171.806	0.00016979	0.00031934	8.4903e-05	1061.6	3.9841e-06	2.3647e-06	1130.7	222.52	1.5408e-06	2.8663e-06	280.43	78.504	61.467	17.718	1.4307e-06	25.197	0.00023965	0.0002452	6.693e-05	1043.7	2.7554e-06	2.636e-06	1115.5	221.53	2.609e-06	2.6246e-06	277.54	78.91	61.684	17.88	2.7322e-06	25.442	-81.168	-77.484	-60.138	-133.592	30.503	9.083	-134.065	-126.577	-40.894	-0.858	-126.815	-120.286	-120.191	-112.969	24.133	-113.828	-8191	255	
21842.748	1	1	0	0	0.099119	0.12509	0.18007	0.21821	0.29241	0.17477	0.11041	0.26884	0.06332	0.20472	0.17075	0.32784	0.070592	0.26833	0.10739	0.12086	-1.8229	-2.025	-2.4271	-2.15	-2.3833	-2.3604	-2.2146	-2.5771	-2.2292	-2.2729	-2.425	-2.1708	-2.5729	-2.3667	-2.2646	-2.35	180.740	95.796	-105.478	114.600	54.355	-20.532	89.403	129.972	59.698	143.204	176.710	132.642	192.136	115.620	-13.876	-19.057	0.00017804	0.00028154	7.0674e-05	1061.7	3.1996e-06	5.9959e-07	1132.5	222.33	2.2995e-06	4.4721e-06	280.91	78.417	61.789	17.781	1.8741e-06	25.147	0.00024196	0.00024359	6.2273e-05	1044.4	2.7031e-06	2.6284e-06	1116.1	220.91	2.6576e-06	2.63e-06	277.8	78.915	61.705	17.899	2.6452e-06	25.483	-79.583	-13.257	-24.332	-133.717	12.434	59.493	-133.666	-126.649	-53.564	-8.680	-127.071	-120.200	-120.044	-112.851	-17.743	-113.318	-8191	255	
21842.842	1	1	0	0	0.2229	0.14673	0.085585	0.14899	0.15426	0.23974	0.2189	0.16582	0.10375	0.14528	0.19366	0.17539	0.32307	0.16143	0.10718	0.10415	-1.7479	-2.0979	-2.4625	-2.2167	-2.2542	-2.5667	-2.5375	-2.3021	-2.2896	-2.1521	-2.5625	-2.0833	-2.2062	-2.4125	-2.2375	-2.3812	73.323	-90.408	9.014	114.932	-75.634	127.267	172.046	15.483	74.748	177.312	-44.538	78.418	-42.213	-137.529	-98.133	119.680	0.00016502	0.00048049	0.00011039	1061.5	1.4304e-06	2.6933e-06	1134.8	223.76	2.1991e-06	2.3872e-06	277.26	79.098	61.486	17.806	1.317e-06	25.043	0.000244	0.00024779	6.6003e-05	1044.9	2.735e-06	2.6101e-06	1115.3	221.24	2.7544e-06	2.6666e-06	276.87	79.106	61.628	17.921	2.639e-06	25.433	-87.063	-59.470	-35.850	-133.703	15.670	32.744	-133.923	-126.273	-36.346	23.087	-126.998	-120.240	-119.684	-112.565	-80.423	-113.226	-8191	255	
21842.963	1	1	0	0	0.16233	0.010984	0.25256	0.25464	0.33449	0.092214	0.15174	0.38051	0.098439	0.38226	0.2627	0.30493	0.19119	0.18883	0.055597	0.20359	-1.7667	-2.1708	-2.4896	-2.2979	-2.0292	-2.5021	-2.1979	-2.3563	-2.3333	-2.0229	-2.6333	-2.2	-2.2521	-2.5604	-2.2438	-2.2958	-23.993	-92.462	21.423	83.847	-18.059	-24.183	114.429	177.191	-7.852	142.975	134.290	148.939	-80.471	-95.722	36.549	112.992	0.00019759	0.00027636	8.1784e-05	1057.8	1.4543e-06	3.2253e-06	1126.4	222.61	2.2599e-06	1.2121e-06	278.35	79.547	61.278	17.578	2.4401e-06	25.009	0.00023987	0.0002418	6.4627e-05	1043.6	2.8142e-06	2.604e-06	1114.7	221.23	2.6473e-06	2.6221e-06	277.06	79.169	61.593	17.86	2.6693e-06	25.379	-83.681	-74.321	-52.408	-133.749	12.466	-6.407	-133.425	-126.505	-7.885	-30.160	-126.898	-120.575	-119.755	-113.009	-5.968	-113.444	-8191	255	
21843.033	1	1	0	0	0.20395	0.25624	0.15006	0.11651	0.31016	0.13072	0.11497	0.042216	0.044396	0.13422	0.1732	0.072961	0.23261	0.06576	0.10079	0.06507	-1.9917	-2.0146	-2.3542	-2.4771	-2.0854	-2.5229	-2.2292	-2.475	-2.3875	-1.9208	-2.4833	-2.1542	-2.2333	-2.6146	-2.2104	-2.2917	32.686	-87.803	-27.917	208.890	164.606	53.161	145.134	112.642	5.563	42.978	188.555	176.666	95.374	6.702	-133.469	190.525	0.00016044	0.00033846	9.9217e-05	1063.4	1.1094e-06	4.7819e-06	1131	223.58	3.7735e-06	2.3467e-06	280.65	78.826	61.381	17.716	3.8527e-06	25.316	0.00024106	0.0002427	6.4787e-05	1044.9	2.784e-06	2.6625e-06	1115.5	221.59	2.6196e-06	2.5471e-06	277.61	79.238	61.732	17.917	2.6948e-06	25.502	-73.700	-60.691	-32.159	-133.714	7.814	34.306	-133.549	-126.562	-11.047	3.607	-126.675	-120.634	-119.848	-112.796	0.042	-113.276	-8191	255	
21843.131	1	1	0	0	0.12348	0.15124	0.17022	0.24269	0.1281	0.067748	0.33518	0.25398	0.40542	0.2605	0.048941	0.13127	0.11347	0.19062	0.19401	0.14094	-1.8479	-2.0833	-2.5396	-2.4021	-2.0062	-2.5667	-2.3771	-2.3021	-2.6646	-1.9646	-2.5729	-2.3875	-2.1417	-2.45	-2.1	-2.2542	-37.926	-79.952	-28.086	111.827	-36.803	-140.491	151.289	23.852	103.154	-21.025	203.632	-99.100	-46.077	116.049	116.125	35.090	0.00016389	0.0002885	6.313e-05	1066.9	3.156e-06	3.483e-06	1128.9	223.38	4.0482e-06	3.6782e-06	279.17	78.929	61.314	17.722	1.8701e-06	25.106	0.00023865	0.00024802	6.6374e-05	1046.3	2.6947e-06	2.5928e-06	1114.1	221.45	2.6704e-06	2.8178e-06	277.47	79.153	61.618	17.933	2.6385e-06	25.441	-75.468	-62.086	-46.743	-133.613	-27.615	-0.307	-133.737	-126.446	31.001	-15.616	-126.685	-120.129	-119.876	-113.134	17.287	-113.463	-8191	255	
21843.227	1	1	0	0	0.086601	0.2359	0.13593	0.056357	0.17857	0.16779	0.097485	0.18788	0.28338	0.09152	0.19761	0.067627	0.34401	0.2242	0.01155	0.2387	-2.0958	-2.0729	-2.5292	-2.4771	-2.2521	-2.6271	-2.4354	-2.3187	-2.4583	-1.8312	-2.2313	-2.3625	-1.9854	-2.5583	-2.3125	-2.3104	-90.511	-116.781	194.644	-111.588	-38.290	99.077	139.680	-119.816	100.163	151.372	93.551	13.233	-32.325	52.007	140.452	39.519	0.00017351	0.00030996	7.1462e-05	1061.9	3.3284e-06	4.1654e-06	1127.3	222.8	2.081e-06	2.5187e-06	278.08	78.188	61.879	17.683	2.0094e-06	25.231	0.00024404	0.00024203	6.7884e-05	1046	2.7528e-06	2.5531e-06	1115.4	221.22	2.7481e-06	2.6498e-06	277.26	79.099	61.785	17.926	2.6228e-06	25.526	-76.391	-47.078	-37.514	-133.484	26.069	-31.671	-133.901	-126.634	-7.385	13.226	-126.916	-120.479	-120.059	-113.208	-24.298	-113.428	-8191	255	
21843.348	1	1	0	0	0.21582	0.11141	0.072452	0.32447	0.18324	0.10112	0.17744	0.14451	0.13381	0.12814	0.25629	0.12971	0.15067	0.30074	0.087475	0.20175	-2.1042	-2.1917	-2.3333	-2.5583	-2.05	-2.5229	-2.3583	-2.3958	-2.5875	-2.2229	-2.2646	-2.525	-2.0333	-2.5083	-2.3187	-2.0833	88.849	83.357	147.239	195.896	-65.574	124.809	125.275	-89.452	-49.301	54.712	56.096	70.516	169.663	198.315	122.927	105.939	0.00015392	0.00036524	8.9559e-05	1061.7	3.3133e-06	5.0199e-06	1131.1	224.63	1.0273e-06	2.7639e-06	279.03	78.781	61.782	17.801	3.8337e-06	25.141	0.00023308	0.00024336	6.5043e-05	1046.2	2.8476e-06	2.6475e-06	1116.6	221.51	2.7034e-06	2.5667e-06	277.86	79.003	61.851	17.922	2.5606e-06	25.502	-82.758	-36.433	-25.663	-133.849	-34.008	13.229	-133.867	-126.387	2.144	42.329	-126.784	-119.706	-119.493	-113.181	32.547	-113.006	-8191	255	
21843.443	1	1	0	0	0.16504	0.15523	0.10069	0.11865	0.067856	0.13667	0.24041	0.28357	0.18156	0.25172	0.043438	0.17927	0.14793	0.11923	0.11609	0.071919	-2.1854	-1.9521	-2.2833	-2.4938	-2.2167	-2.4021	-2.4708	-2.2167	-2.5229	-2.0812	-2.35	-2.5938	-2.1625	-2.3563	-2.3479	-2.2458	-99.829	-20.049	-22.236	-134.067	142.279	-124.482	121.350	148.981	101.443	55.891	112.034	-142.728	-92.556	150.831	-7.609	-137.718	0.00016248	0.00026171	5.0144e-05	1064.6	9.8267e-07	4.6251e-06	1133.5	223.93	3.7613e-06	3.562e-06	279.9	78.605	61.564	17.65	2.7767e-06	25.056	0.0002266	0.00024547	6.5632e-05	1046.2	2.8964e-06	2.62e-06	1116	221.38	2.6533e-06	2.6295e-06	277.69	79.091	61.833	17.887	2.667e-06	25.391	-72.876	-42.911	-10.835	-133.746	11.727	31.363	-133.495	-126.598	25.408	-15.088	-127.123	-119.964	-119.734	-113.148	19.589	-113.703	-8191	255	
21843.539	1	1	0	0	0.16309	0.27503	0.10077	0.10327	0.12863	0.23548	0.19596	0.17117	0.076694	0.15528	0.23732	0.24398	0.034679	0.12017	0.24522	0.19594	-2.0417	-2.1917	-2.1562	-2.5042	-1.9542	-2.3521	-2.6937	-2.1292	-2.4792	-2.3021	-2.2208	-2.4271	-2.2062	-2.4979	-2.5083	-2.0792	-53.261	112.380	149.535	164.586	119.742	88.769	141.157	80.286	130.911	9.320	112.600	174.775	32.337	69.686	8.464	-124.123	0.00015914	0.00027251	6.005e-05	1063.4	1.5498e-06	5.0593e-06	1133.2	223.22	2.3261e-06	1.3634e-06	278.87	79.03	61.916	17.644	1.2835e-06	25.246	0.00023882	0.00024265	6.8133e-05	1044.5	2.7176e-06	2.6236e-06	1115.5	221.12	2.6174e-06	2.647e-06	277.29	79.251	61.863	17.887	2.7243e-06	25.4	-75.250	-57.658	-24.678	-133.713	-21.099	25.250	-133.671	-126.564	10.981	102.556	-126.761	-120.056	-119.990	-112.588	73.584	-113.433	-8191	255	
21843.637	1	1	0	0	0.20794	0.076098	0.037684	0.093677	0.17522	0.21825	0.11633	0.16916	0.05992	0.12459	0.078005	0.12171	0.28238	0.071675	0.12639	0.27916	-1.9292	-2.4188	-2.1833	-2.4833	-2.2979	-2.4021	-2.6792	-2.2125	-2.4354	-2.2042	-2.3479	-2.6312	-2.0854	-2.2896	-2.4313	-2.0792	208.236	39.000	-43.350	175.811	146.822	69.393	-96.191	85.769	-12.527	118.917	204.384	-102.905	89.833	130.742	-25.152	-48.246	0.00017219	0.00041761	0.00010747	1064.6	1.5631e-06	3.0428e-06	1129	223.76	8.0338e-07	2.1012e-06	278.35	78.763	61.698	17.781	2.5347e-06	25.257	0.00023203	0.00024004	6.3795e-05	1044.5	2.8392e-06	2.7394e-06	1114.6	221.69	2.6952e-06	2.7357e-06	277.38	79.216	61.781	17.912	2.6292e-06	25.501	-80.590	-82.710	-86.282	-133.681	-51.872	-9.279	-133.603	-126.194	-11.235	5.862	-126.771	-120.497	-119.704	-112.913	26.034	-113.430	-8191	255	
21843.732	1	1	0	0	0.045169	0.38496	0.23621	0.17995	0.22169	0.14803	0.20509	0.11079	0.18859	0.15486	0.12865	0.0703	0.19758	0.33563	0.084294	0.24797	-1.8896	-2.4188	-2.0583	-2.4354	-2.1958	-2.2313	-2.6146	-2.1729	-2.4375	-2.4083	-2.3896	-2.4625	-2.1271	-2.3542	-2.5917	-2.2708	148.462	100.548	3.294	138.649	13.097	-14.211	136.689	-112.048	-110.422	181.869	135.813	126.203	-4.662	-141.426	-141.416	46.401	0.00018804	0.0003507	8.7233e-05	1066.8	2.7333e-06	1.4938e-06	1132.9	222.19	7.2091e-07	2.8311e-06	279.26	79.429	61.492	17.693	1.7015e-06	25.147	0.00023818	0.00022854	6.6284e-05	1045.8	2.7088e-06	2.6844e-06	1116.9	221.26	2.6538e-06	2.5306e-06	277.84	79.334	61.718	17.877	2.5854e-06	25.437	-80.058	-46.259	-61.745	-133.834	2.315	19.374	-133.515	-126.569	42.953	3.193	-126.558	-120.454	-120.051	-113.015	13.363	-113.237	-8191	255	
21843.828	1	1	0	0	0.15969	0.18992	0.073139	0.15057	0.2567	0.097286	0.26884	0.27695	0.17119	0.095138	0.15595	0.18846	0.055516	0.15447	0.18235	0.23993	-1.9042	-2.2833	-2.1208	-2.5979	-2.2854	-2.1146	-2.5854	-2.2875	-2.3104	-2.4958	-2.225	-2.4479	-2.2854	-2.3729	-2.4979	-2.2812	101.011	18.489	46.579	-127.013	116.769	126.250	191.500	112.816	28.645	94.759	187.017	156.926	-117.657	-4.174	-68.505	103.290	0.00018346	0.00041474	7.5956e-05	1061.9	4.1868e-06	1.27e-06	1129.9	222.69	2.466e-06	1.6468e-06	278.93	78.893	61.652	17.743	2.9502e-06	25.18	0.00022966	0.00023416	6.5548e-05	1046.1	2.6493e-06	2.6467e-06	1115.9	221.41	2.7395e-06	2.6968e-06	277.16	79.23	61.548	17.904	2.6034e-06	25.425	-77.417	-51.913	-25.551	-133.634	19.755	-12.078	-133.699	-126.475	4.053	51.203	-126.829	-120.217	-119.850	-113.033	-0.613	-113.345	-8191	255	
21843.947	1	1	0	0	0.20072	0.074255	0.069474	0.42053	0.095525	0.15861	0.24397	0.24684	0.10859	0.040962	0.30904	0.10265	0.41173	0.15369	0.084876	0.21973	-1.9104	-2.3563	-1.9146	-2.7938	-2.3917	-2.0604	-2.6375	-2.2604	-2.1312	-2.4833	-2.3042	-2.425	-2.3458	-2.2667	-2.55	-2.3979	178.590	4.103	-110.077	180.407	30.328	-132.975	201.849	-46.620	136.650	110.735	90.887	88.984	-93.860	-44.961	141.709	118.785	0.00017539	0.00018185	0.00010137	1061.8	2.6429e-06	1.8948e-06	1135.4	222.43	3.0677e-06	2.8669e-06	280.85	78.633	61.88	17.897	1.1692e-06	25.085	0.0002363	0.00023143	6.6674e-05	1045.3	2.5907e-06	2.5296e-06	1116.6	221.31	2.5731e-06	2.4856e-06	277.81	79.119	61.778	17.961	2.5183e-06	25.415	-79.544	-16.112	-37.290	-133.894	-4.939	26.805	-133.568	-126.459	1.110	44.833	-126.963	-120.347	-119.905	-112.711	19.322	-113.492	-8191	255	
21844.043	1	1	0	0	0.10854	0.043819	0.2766	0.25788	0.17171	0.071417	0.27042	0.26229	0.15408	0.15331	0.15213	0.13313	0.21634	0.10065	0.24378	0.15798	-1.8792	-2.4854	-2.0771	-2.4583	-2.3833	-2.1396	-2.5812	-2.3625	-2.4188	-2.7438	-2.2021	-2.3458	-2.5479	-2.1917	-2.5833	-2.475	18.243	-34.897	-86.976	177.638	117.844	-99.275	91.626	45.793	112.643	-107.118	-49.186	181.575	150.191	206.685	-135.326	123.514	0.00018822	0.00014782	4.0801e-05	1063.8	1.2823e-06	3.6615e-06	1132.9	222.57	2.4762e-06	3.3827e-06	279.88	79.132	61.927	17.689	1.4673e-06	25.241	0.00024114	0.00023345	6.7378e-05	1046.8	2.7214e-06	2.7014e-06	1115.7	221.47	2.5972e-06	2.5011e-06	277.85	79.327	61.899	17.916	2.6707e-06	25.453	-80.516	-53.285	-12.651	-133.715	19.007	0.505	-133.812	-126.645	-19.950	42.574	-126.795	-120.379	-119.645	-112.901	4.128	-113.405	-8191	255	
21844.139	1	1	0	0	0.10271	0.23195	0.29637	0.11363	0.22196	0.11455	0.066474	0.18399	0.18909	0.13123	0.31663	0.15102	0.051838	0.24614	0.17239	0.16978	-2.0271	-2.5229	-2.2104	-2.4375	-2.5292	-2.3083	-2.5646	-2.2562	-2.2375	-2.5771	-2.3042	-2.3542	-2.4896	-2.025	-2.3042	-2.2583	202.354	28.688	214.177	-134.364	103.101	-109.465	-119.155	205.670	-60.663	191.003	61.168	-58.031	-104.129	25.463	-112.051	144.891	0.00018162	0.00041456	8.42e-05	1062.8	2.5701e-06	1.0175e-06	1132.3	224.46	1.9592e-06	1.4685e-06	279.8	78.944	61.821	17.692	2.321e-06	25.18	0.00022948	0.0002374	6.6092e-05	1044.1	2.6588e-06	2.4821e-06	1116.4	221.44	2.7115e-06	2.5075e-06	277.72	79.294	61.711	17.928	2.5724e-06	25.44	-77.364	-32.885	-54.810	-133.507	-3.030	-5.879	-133.619	-126.270	2.310	-6.914	-127.143	-120.339	-120.152	-112.701	-15.381	-113.228	-8191	255	
21844.234	1	1	0	0	0.17485	0.29459	0.084492	0.18815	0.32559	0.26057	0.2222	0.32072	0.1771	0.069671	0.31272	0.18675	0.054133	0.14646	0.1363	0.12454	-1.8375	-2.4208	-2.0667	-2.3542	-2.6688	-2.1604	-2.6708	-2.5917	-2.2438	-2.4437	-2.3708	-2.3063	-2.5208	-2.1354	-2.3187	-2.3479	22.082	-140.015	201.035	209.270	170.874	45.573	106.258	101.054	-106.651	-11.813	136.075	167.011	204.686	20.933	92.451	98.338	0.0001903	0.00027441	2.3491e-05	1062.5	2.1762e-06	1.4312e-06	1132.8	223.22	1.7021e-06	2.6383e-06	278.21	79.104	61.749	17.738	3.1668e-06	25.191	0.00023872	0.00023632	6.7807e-05	1045.7	2.6852e-06	2.5961e-06	1116.9	221.33	2.7106e-06	2.5718e-06	277.51	79.35	61.753	17.923	2.5763e-06	25.496	-76.911	-39.939	-34.015	-133.896	-25.155	-21.648	-133.577	-126.693	-22.656	17.257	-127.048	-120.277	-119.931	-112.669	-45.727	-112.936	-8191	255	
21844.332	1	1	0	0	0.13007	0.22013	0.21301	0.19208	0.2884	0.11394	0.20507	0.25641	0.075867	0.1924	0.3384	0.064881	0.20791	0.30511	0.1368	0.13483	-1.4312	-2.5042	-2.2458	-2.2875	-2.4521	-2.1813	-2.3146	-2.3771	-2.1208	-2.5312	-2.1813	-2.1646	-2.5792	-2.0708	-2.2625	-2.375	35.469	-31.352	57.427	21.898	-108.838	182.326	105.449	152.862	149.477	31.656	-81.861	141.634	192.453	111.198	-63.141	-43.100	0.00017998	0.00033408	7.8576e-05	1063.4	6.0422e-07	2.1764e-06	1132.8	222.47	3.2653e-06	4.8801e-06	277.86	78.418	61.774	17.742	1.9524e-06	25.199	0.00023811	0.0002272	6.5382e-05	1044.9	2.6876e-06	2.6836e-06	1116.9	221.09	2.6285e-06	2.645e-06	277.13	78.88	61.791	17.87	2.6056e-06	25.462	-86.219	-18.071	-47.952	-133.691	199.878	54.914	-133.547	-126.394	-4.751	14.694	-126.910	-120.365	-119.609	-113.103	4.481	-113.190	-8191	255	
21844.428	1	1	0	0	0.16889	0.18569	0.13705	0.074142	0.16484	0.11414	0.039878	0.11719	0.10693	0.071805	0.082623	0.069752	0.34191	0.3208	0.23747	0.17647	-1.5833	-2.4354	-2.2896	-2.2104	-2.5875	-2.2875	-2.3792	-2.4729	-2.0875	-2.4667	-2.2958	-2.0812	-2.5125	-2.3187	-2.2375	-2.3333	-18.163	-111.890	76.723	180.089	43.601	23.794	-139.193	141.935	39.362	-12.027	68.819	136.990	-133.593	147.321	141.536	181.206	0.00017718	0.00031775	8.4908e-05	1064.2	4.3735e-06	2.9561e-06	1132.2	222.68	1.9719e-06	3.9178e-06	279.93	78.685	61.718	17.747	1.9144e-06	25.352	0.00023464	0.00023588	6.6962e-05	1045.2	2.6395e-06	2.6455e-06	1114.8	220.98	2.5849e-06	2.4871e-06	277.95	79.13	61.68	17.944	2.7091e-06	25.523	-78.991	-56.192	-35.259	-133.798	-18.816	-13.960	-133.798	-126.588	2.370	8.810	-126.423	-120.244	-120.193	-112.720	22.299	-113.600	-8191	255	
21844.523	1	1	0	0	0.1374	0.10078	0.2195	0.179	0.19074	0.10876	0.16009	0.02726	0.16251	0.17346	0.068094	0.30231	0.26217	0.17514	0.18597	0.036052	-1.7104	-2.3063	-2.4229	-2.0125	-2.3312	-2.2667	-2.3396	-2.5167	-2.1688	-2.3542	-2.3417	-1.9125	-2.4854	-2.1937	-2.2479	-2.5521	-132.486	186.444	39.649	-89.878	209.822	-110.559	133.190	193.712	205.001	-93.988	107.089	104.622	189.529	-125.505	-76.760	173.932	0.00018995	0.00020681	1.5474e-05	1058.9	1.6959e-06	5.3186e-06	1135	223.24	2.2672e-06	4.4146e-06	279.4	78.475	61.041	17.858	2.7072e-06	25.357	0.00023843	0.00023113	6.496e-05	1042.4	2.6419e-06	2.5034e-06	1117.2	221.41	2.594e-06	2.5029e-06	277.23	79.173	61.531	17.934	2.5842e-06	25.524	-79.300	-39.807	-132.822	-133.896	-3.090	16.503	-133.818	-126.370	32.451	13.117	-126.956	-120.270	-120.061	-112.796	32.721	-113.863	-8191	255	
21844.645	1	1	0	0	0.17087	0.24008	0.15518	0.17882	0.11804	0.14149	0.40133	0.14689	0.24018	0.16418	0.085143	0.42998	0.14261	0.06376	0.097901	0.068705	-1.7354	-2.4562	-2.2458	-2.0542	-2.4375	-2.25	-2.3812	-2.6063	-2.0708	-2.4896	-2.4896	-2.1937	-2.4021	-2.2354	-2.1208	-2.7333	62.568	-1.848	-11.649	171.913	213.829	157.060	163.214	173.114	166.668	-43.566	143.618	170.676	193.850	21.407	182.244	16.894	0.00017522	0.0004327	9.1456e-05	1060.6	2.4045e-06	1.6497e-06	1132.3	222.64	3.4142e-06	5.2585e-06	280.34	78.855	61.834	17.76	2.4294e-06	25.302	0.00023699	0.00022507	6.3866e-05	1044	2.5871e-06	2.5457e-06	1113.8	220.95	2.6273e-06	2.4948e-06	277.46	79.177	61.784	17.916	2.5365e-06	25.49	-84.644	-24.522	-54.943	-133.869	-10.084	-13.863	-133.686	-126.441	1.429	-4.057	-126.657	-120.374	-119.839	-112.723	10.433	-113.710	-8191	255	
21844.738	1	1	0	0	0.18081	0.31126	0.23448	0.39644	0.1766	0.12613	0.41088	0.2612	0.038787	0.28834	0.13504	0.30593	0.23928	0.18926	0.12844	0.31544	-1.6542	-2.2271	-2.6271	-2.2562	-2.3417	-2.3479	-2.2542	-2.7062	-2.0687	-2.0625	-2.4375	-2.1542	-2.4521	-2.3833	-2.0625	-2.6229	80.583	143.362	176.463	196.082	207.128	93.894	143.588	-83.247	171.494	32.551	199.125	141.867	199.960	80.045	-97.242	193.441	0.00016068	0.00030022	4.1328e-05	1064.6	3.1262e-06	2.2725e-06	1129.6	222.33	3.0594e-06	5.6703e-06	280.18	79.169	61.228	17.68	3.2703e-06	25.13	0.00024146	0.00023659	6.2714e-05	1043.8	2.6147e-06	2.6136e-06	1116.5	220.84	2.6846e-06	2.6112e-06	277.49	79.107	61.669	17.896	2.5889e-06	25.414	-78.659	-33.461	-41.808	-133.749	-1.003	-20.408	-133.764	-126.690	4.000	10.127	-127.002	-120.473	-119.575	-112.717	9.504	-113.631	-8191	255	
21844.836	1	1	0	0	0.23868	0.26526	0.10492	0.36253	0.067307	0.10556	0.15635	0.17125	0.048448	0.12424	0.27237	0.20866	0.27187	0.20392	0.30009	0.10445	-1.6479	-2.3104	-2.3312	-2.1396	-2.1958	-2.2979	-2.1125	-2.5417	-2.3229	-2.3958	-2.575	-2.2417	-2.3333	-2.4125	-2	-2.5667	208.541	-52.345	98.666	-102.153	109.530	-4.648	127.283	-135.219	-125.805	-111.252	147.463	143.947	-87.702	4.351	20.222	63.787	0.00019063	0.00032527	8.5289e-05	1062.7	2.3177e-06	1.4993e-06	1131.6	221.82	1.1801e-06	1.7838e-06	278.64	78.144	62.28	17.798	2.6535e-06	25.138	0.00023305	0.00023464	6.4416e-05	1045.4	2.5654e-06	2.51e-06	1114.4	221.21	2.7007e-06	2.6246e-06	277.57	79.128	61.834	17.949	2.6061e-06	25.474	-74.560	-72.887	-27.146	-133.795	-11.126	2.790	-133.346	-126.649	1.811	-34.122	-127.230	-120.467	-120.045	-112.882	-13.237	-113.673	-8191	255	
21844.932	1	1	0	0	0.043887	0.17	0.25282	0.044729	0.13469	0.119	0.07236	0.32875	0.14951	0.11418	0.12603	0.39757	0.10209	0.16883	0.15398	0.16834	-1.7125	-2.0333	-2.4	-2.225	-2.1458	-2.5208	-2.05	-2.5062	-2.2562	-2.225	-2.4208	-2.1104	-2.1396	-2.4396	-2.1271	-2.5271	-59.033	94.503	-95.647	122.504	42.452	-98.416	99.770	-115.201	76.037	70.287	215.343	96.355	188.103	138.632	78.137	-71.579	0.00017716	0.00030973	8.684e-05	1067.6	3.4082e-06	3.4485e-06	1129.9	224.58	3.5083e-06	2.2546e-06	280.91	78.745	61.742	17.772	2.1057e-06	25.055	0.00023188	0.00022932	6.3424e-05	1045.5	2.7392e-06	2.5276e-06	1116.1	221.89	2.6186e-06	2.5715e-06	277.8	79.175	61.612	17.972	2.4071e-06	25.528	-83.948	-40.155	-38.826	-133.780	23.099	18.095	-133.714	-126.423	7.183	-47.222	-126.908	-120.199	-120.086	-112.732	4.877	-114.009	-8191	255	
21845.029	1	1	0	0	0.14615	0.095728	0.24977	0.082625	0.12862	0.063299	0.10102	0.21273	0.23947	0.085808	0.18378	0.2526	0.17684	0.12257	0.27168	0.19932	-1.8792	-2.0542	-2.3583	-2.3167	-2.3583	-2.3333	-2.3	-2.4708	-2.3708	-2.0271	-2.55	-2.3479	-2.275	-2.4896	-2.1521	-2.3375	-85.647	12.058	-13.503	204.852	64.672	-112.893	132.380	156.303	105.416	160.427	137.829	126.315	64.774	-87.459	-12.982	133.166	0.00018068	0.00018909	4.9384e-05	1062.8	3.3579e-06	2.2172e-06	1131	223.03	2.5986e-06	3.5364e-06	278.62	78.899	61.782	17.848	1.774e-06	25.059	0.00022472	0.00022665	5.9425e-05	1045.6	2.5602e-06	2.5472e-06	1114.8	220.95	2.6593e-06	2.6419e-06	277.31	79.154	61.859	17.986	2.563e-06	25.432	-75.511	-74.323	-81.296	-133.821	-9.664	6.007	-133.588	-126.616	15.102	9.358	-126.858	-120.363	-119.669	-113.178	-1.527	-113.205	-8191	255	
21845.123	1	1	0	0	0.20665	0.19499	0.10951	0.32679	0.11956	0.23723	0.17582	0.039065	0.21381	0.31977	0.14587	0.19476	0.24562	0.022034	0.1324	0.02604	-2.0458	-2.0354	-2.4562	-2.0875	-2.1125	-2.6854	-2.2562	-2.4625	-2.35	-1.9562	-2.3625	-2.1208	-2.125	-2.4646	-2.0417	-2.225	188.227	124.960	-123.168	195.344	-121.283	141.581	-65.791	73.642	40.317	154.698	125.148	174.732	179.131	148.450	88.138	101.641	0.00017437	0.00028465	7.9982e-05	1062.2	1.3059e-06	3.1248e-06	1126.6	223.47	2.3488e-06	5.436e-07	279.5	78.465	61.756	17.767	1.1057e-06	25.145	0.00022782	0.0002337	6.2842e-05	1043.3	2.6009e-06	2.3978e-06	1113.2	221.01	2.4773e-06	2.391e-06	277.59	79.089	61.661	17.919	2.4543e-06	25.503	-81.597	-66.442	-72.061	-133.508	66.357	19.982	-133.650	-126.478	-31.095	16.949	-126.895	-119.948	-120.130	-112.437	8.649	-112.892	-8191	255	
21845.221	1	1	0	0	0.24536	0.2385	0.30034	0.01071	0.224	0.33395	0.20118	0.14343	0.28859	0.1792	0.070661	0.030306	0.14655	0.28858	0.049659	0.25152	-1.9208	-2.0208	-2.4625	-2.5146	-2.2	-2.5708	-2.2438	-2.2104	-2.4354	-2.1083	-2.4771	-2.4729	-2.0708	-2.4875	-2.4396	-2.0021	196.355	-122.427	-41.850	-77.692	-33.011	-139.207	-120.165	-74.956	90.464	205.464	-67.343	207.607	134.358	-129.091	53.426	22.830	0.00017603	0.00032128	0.0001146	1059.5	3.2444e-06	2.8155e-06	1131.1	222.18	3.7308e-06	1.0529e-06	279.94	79.038	61.331	17.713	2.3103e-06	25.188	0.00022473	0.00022094	6.0104e-05	1042.3	2.6243e-06	2.3655e-06	1113.9	220.79	2.5293e-06	2.4043e-06	277.29	79.206	61.713	17.924	2.3528e-06	25.442	-79.600	-66.098	-54.446	-133.701	44.830	2.863	-133.638	-126.403	9.560	-35.076	-126.928	-120.151	-120.109	-112.730	23.956	-113.269	-8191	255	
21845.316	1	1	0	0	0.076234	0.28541	0.034562	0.07479	0.088279	0.12753	0.071136	0.19873	0.059252	0.12761	0.10688	0.23908	0.1159	0.16183	0.16265	0.24493	-2.0417	-2.1646	-2.5062	-2.4938	-2.2417	-2.5125	-2.3792	-2.4542	-2.6167	-2.2188	-2.3917	-2.3958	-2.0854	-2.3458	-2.3604	-2.3396	79.862	80.836	47.833	-143.973	-33.538	78.238	-104.444	84.549	31.176	-14.599	-99.642	181.431	-70.207	182.161	79.171	150.295	0.00016423	0.00040235	5.9762e-05	1061.9	2.3761e-06	1.0988e-06	1131.6	222.76	2.7742e-06	2.3328e-06	279.24	78.949	61.747	17.73	2.7649e-06	25.025	0.00022155	0.00021061	6.169e-05	1041.8	2.4897e-06	2.3296e-06	1112.9	220.94	2.4515e-06	2.3687e-06	276.59	78.978	61.717	17.878	2.3693e-06	25.463	-84.038	-47.298	-22.035	-133.781	-35.116	-7.730	-133.762	-126.341	-9.799	18.914	-126.767	-120.480	-119.812	-112.496	18.007	-113.190	-8191	255	
21845.436	1	1	0	0	0.096529	0.23006	0.13388	0.14927	0.19794	0.082961	0.29684	0.29997	0.28798	0.16277	0.17998	0.33608	0.24832	0.29799	0.20698	0.14132	-2.2979	-1.975	-2.1813	-2.4562	-2.0646	-2.425	-2.4875	-2.1958	-2.6333	-2.2771	-2.475	-2.2521	-2.0917	-2.3875	-2.3771	-2.1979	88.572	-2.313	85.050	146.832	138.148	-131.025	161.039	22.871	69.890	45.008	106.008	125.498	32.732	184.406	-39.039	1.365	0.00017672	0.00039478	8.9322e-05	1055.6	3.3907e-06	3.7026e-06	1127.1	221.76	2.9298e-06	4.7495e-06	278.41	79.478	61.504	17.728	3.5652e-06	25.221	0.00021938	0.00021442	5.8677e-05	1040.2	2.5593e-06	2.3057e-06	1112.1	220.47	2.4785e-06	2.3194e-06	277	79.071	61.641	17.927	2.3464e-06	25.476	-72.610	-58.540	-75.213	-133.666	7.186	4.816	-133.606	-126.429	20.249	1.313	-126.804	-120.015	-119.257	-112.927	-6.168	-113.743	-8191	255	
21845.531	1	1	0	0	0.20952	0.13	0.083289	0.27508	0.0070901	0.15516	0.17009	0.1573	0.12277	0.041168	0.19838	0.19626	0.062658	0.16832	0.12476	0.087859	-2.0625	-2.0958	-2.0938	-2.6354	-2.2292	-2.5271	-2.6354	-2.1729	-2.4917	-2.2625	-2.15	-2.7104	-2.1708	-2.375	-2.3354	-2.2	154.305	50.699	-134.391	177.111	169.144	175.849	158.500	-127.310	50.737	46.115	32.929	192.336	178.160	-85.650	-58.105	-115.107	0.00017606	0.00023791	9.6693e-05	1059.4	3.51e-06	2.5552e-06	1126.8	222.57	3.0885e-06	1.8072e-06	278.09	78.364	61.799	17.858	2.3682e-06	25.206	0.00021408	0.00021073	6.0711e-05	1040.4	2.4288e-06	2.2739e-06	1110	220.54	2.4243e-06	2.2533e-06	276.63	78.882	61.673	17.941	2.2441e-06	25.426	-76.428	-37.767	-55.142	-133.661	-20.034	-24.526	-133.600	-126.394	7.616	1.253	-126.742	-120.527	-120.075	-113.170	5.907	-113.242	-8191	255	
21845.627	1	1	0	0	0.11259	0.31361	0.23982	0.14893	0.074469	0.088253	0.2336	0.20907	0.095294	0.34056	0.26045	0.10523	0.099553	0.22155	0.18424	0.048299	-2.0771	-2.1437	-2.2646	-2.6312	-1.9771	-2.3771	-2.5167	-2.15	-2.4042	-2.3021	-2.0438	-2.5458	-2.2583	-2.3958	-2.3333	-2.0729	215.737	117.703	7.370	84.222	37.761	94.106	201.692	-67.374	3.666	158.805	-113.237	56.283	166.373	174.330	193.470	-21.079	0.00020145	0.00031934	0.00010076	1055.4	9.1313e-07	3.8492e-06	1116.6	220.54	2.5383e-06	3.526e-06	277.72	78.954	61.656	17.866	1.7367e-06	25.195	0.00021169	0.00020283	5.7973e-05	1037.7	2.515e-06	2.2046e-06	1107.3	219.92	2.2825e-06	2.3087e-06	276.79	78.95	61.579	17.915	2.2338e-06	25.482	-81.080	-43.941	-25.459	-133.770	-66.576	-0.576	-133.607	-126.037	-13.195	-10.484	-126.764	-119.902	-119.753	-113.404	29.924	-113.618	-8191	255	
21845.723	1	1	0	0	0.26459	0.050341	0.19455	0.32475	0.18357	0.16416	0.36344	0.042181	0.070459	0.066099	0.24001	0.076081	0.16317	0.24239	0.29482	0.29141	-1.9917	-2.3583	-2.0438	-2.6104	-2.3063	-2.3688	-2.4938	-2.0458	-2.4542	-2.4	-1.9917	-2.5167	-2.2625	-2.2083	-2.5146	-2.1521	-11.187	115.035	150.711	-140.224	17.452	117.509	114.345	-93.218	89.023	-118.964	92.803	-128.075	137.455	-1.771	148.512	101.411	0.00018671	0.00028604	0.00010089	1055.5	3.1124e-06	4.8323e-06	1124.6	221.91	1.7094e-06	3.2741e-06	278.16	78.791	61.269	17.757	1.9199e-06	25.102	0.0002139	0.00019895	6.1569e-05	1037.9	2.4314e-06	2.3298e-06	1109.3	219.99	2.3213e-06	2.2945e-06	276.65	79.078	61.47	17.904	2.313e-06	25.449	-80.958	-79.457	-53.772	-133.539	-4.667	25.056	-133.733	-126.464	13.159	3.835	-126.867	-120.252	-119.551	-113.350	-11.601	-113.349	-8191	255	
21845.818	1	1	0	0	0.10123	0.26757	0.212	0.17765	0.20026	0.095289	0.33164	0.07589	0.25502	0.05546	0.090761	0.37644	0.34896	0.041413	0.074728	0.08746	-1.8646	-2.2438	-2.1188	-2.6771	-2.1042	-2.3083	-2.5875	-2.1167	-2.5375	-2.3625	-2.3479	-2.5167	-2.1917	-2.0812	-2.4208	-1.9771	123.948	73.644	-134.286	115.462	125.839	26.060	125.535	-10.903	-18.294	-90.662	-12.945	173.903	186.459	139.101	-34.148	12.031	0.00017115	0.00045228	7.132e-05	1057.6	2.9889e-06	1.6362e-06	1127.5	221.89	3.1775e-06	4.8482e-06	278.93	78.871	61.464	17.779	2.1362e-06	25.131	0.00021742	0.00022071	5.7807e-05	1038.4	2.4685e-06	2.3245e-06	1108.6	220.24	2.3648e-06	2.2701e-06	276.87	79.045	61.633	17.909	2.372e-06	25.366	-83.601	-42.289	-56.404	-133.577	-0.386	3.797	-133.125	-126.219	-0.830	12.702	-126.847	-120.372	-119.882	-112.522	27.847	-113.676	-8191	255	
21845.914	1	1	0	0	0.094199	0.21135	0.063505	0.27091	0.20529	0.16642	0.33433	0.33943	0.22927	0.10156	0.35356	0.14402	0.12761	0.073038	0.079286	0.03292	-1.9542	-2.2896	-1.9333	-2.6333	-2.1937	-1.9813	-2.5708	-2.1333	-2.3563	-2.4313	-2.225	-2.3063	-2.1271	-2.1104	-2.5021	-2.4354	-2.593	67.665	28.945	186.650	57.877	22.956	198.690	121.618	-25.850	-41.958	-132.906	-2.236	124.124	194.106	113.061	-88.309	0.00017627	0.00037994	5.9405e-05	1055.8	1.5776e-06	1.7778e-06	1126.5	222.78	1.512e-06	4.8648e-06	279.59	78.73	61.133	17.76	2.8218e-06	24.925	0.00021803	0.00020673	6.1326e-05	1036.3	2.3923e-06	2.4281e-06	1109.8	220.11	2.458e-06	2.4376e-06	276.83	78.87	61.461	17.93	2.3459e-06	25.372	-78.030	-60.281	-27.635	-133.710	44.130	-19.280	-133.649	-126.560	1.359	-1.988	-126.651	-120.041	-119.605	-112.751	20.502	-113.326	-8191	255	
21846.035	1	1	0	0	0.1858	0.087492	0.30359	0.10071	0.16262	0.079891	0.14193	0.143	0.22198	0.1423	0.12574	0.21392	0.093976	0.19362	0.14335	0.13415	-1.7229	-2.3146	-1.9937	-2.5875	-2.1021	-2.1083	-2.6729	-2.1417	-2.225	-2.4333	-2.1667	-2.2479	-2.4708	-2.1625	-2.5083	-2.1708	-97.077	202.918	114.864	63.677	167.006	208.406	-139.238	212.864	-121.671	-71.278	-55.457	87.068	-16.979	149.268	-83.281	121.140	0.00019651	0.0002689	7.5702e-05	1056.3	8.751e-07	3.2219e-06	1120.6	221.91	2.3165e-06	1.638e-06	279.55	78.4	61.71	17.573	7.2996e-07	25.255	0.0002207	0.00022071	6.1498e-05	1038.6	2.5697e-06	2.3981e-06	1106.8	220.48	2.5529e-06	2.3527e-06	277.8	78.912	61.629	17.853	2.3749e-06	25.463	-81.765	-20.980	-16.158	-133.677	30.798	33.345	-133.595	-126.568	-12.064	1.721	-126.837	-120.237	-119.973	-113.129	-32.313	-113.619	-8191	255	
21846.131	1	1	0	0	0.2048	0.34145	0.17442	0.11547	0.25979	0.17315	0.13731	0.25946	0.12121	0.10709	0.20151	0.032932	0.12796	0.26402	0.12585	0.094386	-1.8396	-2.5583	-2.0417	-2.4375	-2.2667	-2.1437	-2.5917	-2.2646	-2.3187	-2.4854	-2.2062	-2.4125	-2.4979	-2.2	-2.5	-2.2583	166.595	-19.649	21.961	197.064	196.184	73.271	-41.231	92.223	156.388	-25.455	87.922	-12.490	167.914	116.789	-46.061	160.435	0.00015941	0.00024834	9.2967e-05	1055.4	1.3269e-06	1.8967e-06	1125.8	220.51	3.1104e-06	5.5709e-06	278.18	78.579	61.666	17.69	1.7074e-06	25.204	0.00023347	0.00022282	6.4627e-05	1038.5	2.4969e-06	2.5538e-06	1110.5	219.72	2.4867e-06	2.4269e-06	276.42	78.987	61.711	17.887	2.4792e-06	25.421	-79.190	-30.049	-18.717	-133.545	36.752	-8.376	-133.526	-126.389	-10.389	-2.305	-126.957	-120.135	-119.819	-112.966	42.550	-113.418	-8191	255	
21846.203	1	1	0	0	0.11774	0.16557	0.18744	0.22661	0.16684	0.17904	0.19951	0.14032	0.10525	0.063232	0.12007	0.16989	0.24143	0.13485	0.29729	0.16066	-1.6646	-2.5917	-2.0854	-2.5417	-2.45	-2.0208	-2.4229	-2.3896	-2.0979	-2.6104	-2.1188	-2.3083	-2.4125	-2.1375	-2.3708	-2.2104	-91.672	38.598	-24.563	162.704	177.289	161.780	189.372	209.007	-52.120	-18.041	158.157	209.832	-140.102	-24.981	-14.787	-3.762	0.00017377	0.00023847	6.1442e-05	1061.3	2.3453e-06	1.7384e-06	1120.2	221.44	2.723e-06	1.6941e-06	279.14	78.856	61.792	17.726	2.4124e-06	25.159	0.00022787	0.0002289	6.3731e-05	1041.5	2.5495e-06	2.5075e-06	1109.6	220.42	2.531e-06	2.4027e-06	276.71	79.121	61.719	17.912	2.5357e-06	25.468	-84.716	-47.993	-7.351	-133.755	4.444	-13.984	-133.647	-126.367	37.076	17.372	-126.862	-120.475	-120.040	-112.892	14.114	-113.447	-8191	255	
21846.322	1	1	0	0	0.22374	0.35509	0.30884	0.41906	0.066906	0.18779	0.46455	0.082768	0.090762	0.097703	0.3342	0.045822	0.20778	0.2081	0.38886	0.41129	-1.7542	-2.4646	-1.8604	-2.2583	-2.4813	-2.1646	-2.4479	-2.4333	-1.9833	-2.3104	-2.3063	-2.2542	-2.6437	-2.125	-2.3729	-2.3083	106.051	28.741	12.853	211.660	-61.468	81.002	117.489	-96.766	15.285	-110.066	131.463	-107.996	-90.491	-62.498	-136.683	-130.094	0.00018422	0.00026901	5.1052e-05	1058.8	3.0917e-06	7.9783e-07	1127.1	223.04	2.2889e-06	2.3461e-06	278.77	78.628	61.714	17.791	9.4298e-07	25.218	0.00024338	0.00023618	6.441e-05	1041.6	2.7021e-06	2.6406e-06	1111.4	220.85	2.6085e-06	2.5672e-06	276.82	79.02	61.784	17.94	2.5593e-06	25.443	-71.519	-40.654	-57.093	-133.652	-25.713	-33.456	-133.608	-126.533	1.986	28.512	-126.860	-120.435	-119.718	-112.522	-9.316	-113.322	-8191	255	
21846.420	1	1	0	0	0.15777	0.16127	0.12392	0.12816	0.19123	0.097669	0.08342	0.10436	0.12884	0.23044	0.23861	0.12987	0.1284	0.069539	0.31956	0.25307	-1.5521	-2.3021	-2.3375	-2.3021	-2.45	-2.2354	-2.325	-2.4042	-2.0438	-2.4437	-2.5167	-2.2083	-2.4729	-2.0458	-2.3271	-2.3	160.874	189.294	41.580	-105.107	-36.152	130.484	72.992	169.265	69.279	99.921	164.730	-85.999	113.941	192.277	-119.313	63.571	0.00018419	0.00019142	0.00011919	1064.5	2.7085e-06	4.6122e-06	1125.7	223.24	2.6958e-06	3.4417e-06	280.04	79.17	61.843	17.752	2.6445e-06	25.23	0.00023867	0.00023664	6.8479e-05	1045.3	2.7102e-06	2.6093e-06	1114.9	221.39	2.6432e-06	2.5949e-06	277.75	79.321	61.84	17.996	2.6112e-06	25.482	-80.485	14.037	-21.500	-133.653	40.500	3.981	-133.712	-126.708	6.261	48.900	-126.805	-120.139	-119.779	-112.844	11.538	-113.740	-8191	255	
21846.516	1	1	0	0	0.24406	0.25775	0.20519	0.26926	0.076004	0.14112	0.3445	0.2158	0.10184	0.10931	0.17852	0.21792	0.1244	0.23091	0.34062	0.18013	-1.6125	-2.3375	-2.1312	-2.2104	-2.4354	-2.0917	-2.4354	-2.4646	-2.1833	-2.4771	-2.4688	-2.2313	-2.5542	-2.1667	-2.2021	-2.6	123.968	140.097	156.853	159.186	-112.991	76.080	113.561	179.725	-33.721	81.511	179.877	90.537	-78.827	52.460	-29.673	-32.712	0.00015855	0.00026948	2.3051e-05	1063.4	2.1547e-06	3.6864e-06	1133.8	224.28	4.2144e-06	5.4331e-07	281.36	79.247	61.872	17.817	1.9593e-06	25.247	0.00024174	0.00022959	6.8824e-05	1047.3	2.875e-06	2.8735e-06	1117.8	221.83	2.8868e-06	2.7604e-06	278.22	79.5	62.041	17.999	2.7848e-06	25.495	-80.986	-62.595	-88.949	-133.658	-16.616	-4.439	-133.918	-126.905	-32.742	80.625	-126.816	-120.486	-120.034	-112.491	19.094	-113.401	-8191	255	
21846.611	1	1	0	0	0.23973	0.25481	0.18749	0.099906	0.056227	0.16396	0.30299	0.15719	0.26808	0.32572	0.22995	0.094967	0.15281	0.42319	0.13599	0.091581	-1.8729	-2.3521	-2.4437	-2.2729	-2.3896	-2.325	-2.1979	-2.5667	-2.1875	-2.4	-2.4854	-2.1646	-2.5479	-2.3083	-2.1979	-2.7021	110.318	61.390	147.282	179.575	212.585	208.729	83.425	166.006	188.691	45.215	-130.710	-20.065	108.790	184.600	-67.283	173.473	0.00017813	0.00035561	6.0799e-05	1072.1	1.2262e-06	5.3624e-06	1136.7	223.9	1.7532e-06	2.6271e-06	281.9	79.228	62.333	17.958	1.2577e-06	25.342	0.00025218	0.00026677	7.4519e-05	1053.5	2.9362e-06	2.9921e-06	1120	222.33	2.9135e-06	2.9253e-06	279.23	79.682	62.292	18.06	2.7467e-06	25.596	-77.275	-23.253	-30.339	-133.843	0.114	3.107	-133.824	-126.514	17.434	-9.075	-127.112	-120.461	-119.918	-112.941	29.904	-113.593	-8191	255	
21846.707	1	1	0	0	0.055748	0.34061	0.13763	0.19246	0.10938	0.33368	0.19982	0.21024	0.31799	0.16881	0.28742	0.20846	0.071625	0.15669	0.11473	0.18774	-1.5458	-2.3292	-2.4542	-2.1792	-2.5708	-2.275	-2.3083	-2.5583	-2.0542	-2.2521	-2.5271	-2.0812	-2.4313	-2.3063	-2.0062	-2.4146	129.011	70.365	101.586	123.329	63.498	185.499	205.353	211.264	-126.643	-71.659	78.613	13.532	-54.639	208.626	67.218	173.319	0.0002016	0.00019243	5.6973e-05	1072.4	2.3998e-06	3.6939e-06	1140	224.77	8.4242e-07	4.2493e-06	281.51	79.162	62.081	17.925	1.1174e-06	25.391	0.00025179	0.00025424	7.004e-05	1054.2	2.8216e-06	2.7378e-06	1122.8	222.51	2.7876e-06	2.6966e-06	279.45	79.718	62.298	18.087	2.5891e-06	25.651	-83.001	-57.102	-70.989	-133.822	-27.809	10.482	-133.794	-126.747	-50.707	25.217	-126.749	-120.381	-120.193	-112.908	-54.768	-113.701	-8191	255	
21846.828	1	1	0	0	0.24681	0.14573	0.18808	0.31554	0.17876	0.039337	0.23483	0.32095	0.25065	0.12665	0.11995	0.071724	0.12813	0.18112	0.31825	0.09826	-1.6354	-2.125	-2.2333	-2.3604	-2.2938	-2.2062	-2.2583	-2.4458	-2.2167	-2.2833	-2.4542	-2.1542	-2.2521	-2.475	-2.025	-2.4792	72.286	186.866	107.113	144.800	-105.056	1.259	135.596	130.198	37.975	128.612	137.200	3.972	208.781	148.745	-106.721	-17.894	0.00017973	0.00042777	1.9649e-05	1071.4	1.8855e-06	3.6025e-06	1134.2	223.28	2.5938e-06	3.5109e-06	281.3	78.996	62.462	17.835	1.4795e-06	25.327	0.00023508	0.00023407	6.2708e-05	1052.1	2.6428e-06	2.5668e-06	1120.2	222.07	2.7684e-06	2.5819e-06	278.91	79.755	62.433	18.072	2.7241e-06	25.682	-82.831	-62.717	-38.103	-133.755	-25.957	-0.920	-133.590	-126.490	2.237	-10.042	-127.270	-120.122	-119.873	-113.004	-16.098	-113.680	-8191	255	
21846.900	1	1	0	0	0.092817	0.266	0.20889	0.23218	0.15755	0.022624	0.3249	0.074481	0.19298	0.2047	0.0081521	0.31917	0.17399	0.25457	0.075475	0.23131	-1.7583	-2.2375	-2.4271	-2.2104	-2.4958	-2.4021	-2.1542	-2.4125	-2.2333	-2.0542	-2.6042	-2.0146	-2.2458	-2.325	-2.0833	-2.4208	-136.523	159.863	174.078	173.728	-61.942	19.093	122.824	4.205	202.483	-28.573	165.118	205.816	196.282	-82.089	137.908	58.937	0.00014304	0.00043879	9.2578e-05	1071.9	2.3951e-06	1.2601e-06	1136.8	224.51	4.4056e-07	1.7236e-06	280.88	79.62	62.502	18.095	1.9785e-06	25.506	0.00023266	0.0002497	6.6374e-05	1053.6	2.745e-06	2.7228e-06	1121.1	222.88	2.7881e-06	2.6816e-06	278.96	80.113	62.474	18.153	2.7386e-06	25.764	-71.798	-76.617	-41.061	-133.523	16.362	-16.535	-133.850	-126.459	54.371	16.647	-126.894	-120.781	-119.951	-112.693	20.107	-113.388	-8191	255	
21846.996	1	1	0	0	0.063512	0.15962	0.074466	0.13385	0.16265	0.1689	0.21325	0.13109	0.091908	0.19301	0.054932	0.11946	0.088613	0.11499	0.10506	0.11476	-1.8833	-2.1292	-2.45	-2.3583	-2.3042	-2.5938	-2.1396	-2.3292	-2.1854	-2.1271	-2.6083	-2.1583	-2.3292	-2.4125	-1.8312	-2.3146	-8.975	198.248	-43.338	-130.924	163.378	-131.478	205.449	75.386	106.669	116.094	146.355	-69.923	72.538	-144.398	93.236	-100.469	0.00018061	0.00025563	5.2419e-05	1074.6	2.4807e-06	3.4955e-06	1137.7	225.16	3.0244e-06	1.8353e-06	281.09	79.704	61.966	18.045	1.678e-06	25.296	0.00023703	0.00024805	6.6105e-05	1056	2.7942e-06	2.6656e-06	1122.4	223.21	2.6855e-06	2.6081e-06	279.25	80.047	62.445	18.188	2.6198e-06	25.665	-72.951	-46.379	-26.337	-133.692	-26.295	-19.461	-133.624	-126.562	13.301	-57.175	-126.841	-120.452	-119.996	-112.778	43.364	-113.303	-8191	255	
21847.115	1	1	0	0	0.25985	0.21843	0.29794	0.12369	0.34892	0.22893	0.20371	0.13228	0.090883	0.27643	0.25294	0.18176	0.077618	0.49845	0.17736	0.19809	-1.9208	-2.15	-2.3958	-2.2938	-2.1292	-2.5771	-2.3271	-2.4021	-2.2854	-2.0708	-2.4104	-2.3937	-2.1146	-2.3854	-2.1312	-2.3063	2.978	194.239	148.675	177.679	214.640	-129.455	175.733	200.303	29.314	-142.831	126.577	-101.763	124.023	152.385	192.767	78.830	0.00016666	0.0002084	9.7045e-05	1072.8	1.1525e-06	3.5314e-06	1135.3	224.41	2.3251e-06	4.6521e-06	281.99	79.847	62.028	18.042	2.5773e-06	25.472	0.00023615	0.00024499	6.5376e-05	1054.1	2.6892e-06	2.6205e-06	1121.3	223	2.6711e-06	2.691e-06	279.46	80.158	62.454	18.167	2.6265e-06	25.7	-68.995	-27.938	-44.148	-133.543	-41.549	8.759	-133.819	-126.642	-14.567	6.936	-126.801	-120.441	-119.930	-112.649	6.122	-113.241	-8191	255	
21847.213	1	1	0	0	0.13578	0.1479	0.27176	0.15006	0.24523	0.10852	0.25805	0.26895	0.11613	0.037332	0.13398	0.22905	0.091625	0.08748	0.049288	0.025729	-1.8875	-1.9479	-2.4333	-2.3604	-2.0771	-2.5167	-2.3125	-2.2854	-2.3771	-2.0083	-2.5563	-2.2146	-2.2021	-2.4583	-2.1729	-2.3312	7.988	196.843	-133.298	105.577	-22.214	145.913	132.162	-138.692	135.362	74.640	104.421	194.201	-5.537	66.669	-49.660	-93.795	0.00018833	0.00023973	8.2827e-05	1078	2.8282e-06	3.5309e-06	1143.2	224.59	1.7412e-06	2.2507e-06	281.71	79.34	62.366	17.951	3.2561e-06	25.592	0.0002354	0.00025133	6.6591e-05	1056.7	2.6892e-06	2.5192e-06	1122.7	222.8	2.5774e-06	2.5735e-06	279.03	79.892	62.27	18.151	2.5468e-06	25.845	-79.826	-87.731	-58.507	-133.755	-2.091	51.580	-133.667	-126.353	23.445	52.305	-127.120	-120.407	-119.864	-112.616	20.917	-113.416	-8191	255	
21847.309	1	1	0	0	0.33771	0.14375	0.14197	0.18784	0.24675	0.21656	0.12743	0.23597	0.28597	0.16529	0.20585	0.060558	0.069223	0.1235	0.16393	0.067676	-2.1	-2.2062	-2.4562	-2.4354	-2.0417	-2.475	-2.5208	-2.2542	-2.5708	-2.0208	-2.6	-2.4167	-2.0021	-2.45	-2.1458	-2.2271	102.833	50.376	152.175	125.209	-65.188	-140.007	29.634	83.639	-64.186	91.431	91.298	-42.939	84.873	104.876	-93.586	161.143	0.00016198	0.00020779	0.00011379	1073.8	4.2029e-06	2.9769e-06	1140.6	224.3	1.3117e-06	3.2568e-06	281.27	79.077	62.427	18.07	3.9312e-06	25.52	0.00023401	0.00022718	6.6361e-05	1054	2.6095e-06	2.5464e-06	1121.3	222.81	2.5216e-06	2.692e-06	279.22	79.876	62.416	18.185	2.6356e-06	25.761	-67.299	-78.974	-37.526	-133.589	-31.146	-5.590	-133.548	-126.858	-7.769	55.229	-126.809	-120.363	-120.136	-112.854	13.030	-113.157	-8191	255	
21847.428	1	1	0	0	0.14029	0.29004	0.25161	0.08651	0.13523	0.11395	0.31296	0.19579	0.22626	0.12862	0.14643	0.30645	0.57952	0.25232	0.24677	0.080892	-1.8958	-2.1521	-2.1875	-2.4813	-2.0792	-2.4521	-2.4896	-2.1188	-2.6542	-2.1188	-2.5708	-2.5229	-2.0271	-2.3917	-2.2625	-2.1625	-47.434	91.001	5.459	-137.776	195.018	198.954	166.408	53.882	-136.524	190.565	-89.663	-105.557	177.734	107.898	-21.584	-134.234	0.00017233	0.00021101	7.6161e-05	1070	3.8322e-06	1.9217e-06	1134.5	223.88	2.2229e-06	3.9415e-06	280.79	79.644	62.314	17.961	1.5197e-06	25.503	0.00022912	0.00023198	6.3584e-05	1054.3	2.6359e-06	2.4202e-06	1120.7	222.64	2.5228e-06	2.538e-06	279.36	80.074	62.365	18.141	2.5289e-06	25.853	-82.475	-77.793	-77.189	-133.976	-1.079	25.467	-133.726	-126.674	4.720	-0.677	-126.736	-120.168	-119.672	-112.104	50.639	-113.520	-8191	255	
21847.498	1	1	0	0	0.18722	0.045604	0.17586	0.17902	0.15792	0.32878	0.2051	0.14628	0.089598	0.065919	0.3106	0.15926	0.29717	0.22282	0.079575	0.02469	-2.2479	-2.0292	-2.3063	-2.7458	-2.1917	-2.5	-2.3354	-2.1	-2.5083	-2.0479	-2.5521	-2.3854	-2.0229	-2.5083	-2.3521	-2.25	70.314	83.573	48.506	132.054	125.702	-130.822	128.829	-52.938	25.203	-55.532	203.902	202.974	129.482	-141.067	-61.697	96.826	0.00019626	0.00014676	5.7007e-05	1074.2	2.106e-06	3.5525e-06	1138.2	224.19	2.2316e-06	2.8668e-06	282.41	79.56	62.228	18.097	3.7513e-06	25.454	0.00023723	0.00023136	6.377e-05	1055.1	2.7292e-06	2.534e-06	1122.2	223.04	2.5379e-06	2.645e-06	279.74	80.137	62.493	18.169	2.503e-06	25.797	-81.554	-66.162	-45.604	-133.660	39.171	27.387	-133.579	-126.690	7.397	50.560	-126.800	-120.399	-119.932	-112.660	6.108	-113.516	-8191	255	
21847.596	1	1	0	0	0.098409	0.04448	0.12669	0.20824	0.14587	0.24902	0.15985	0.1447	0.23215	0.10048	0.15071	0.34543	0.17919	0.10185	0.22031	0.085935	-2.05	-2.1562	-2.0958	-2.6729	-2.1458	-2.25	-2.6146	-2.2604	-2.4688	-2.375	-2.1271	-2.3771	-2.1417	-2.3979	-2.3979	-2.2	20.227	154.145	114.550	131.094	-120.394	197.994	144.184	68.211	182.992	12.215	25.762	143.096	178.646	199.033	207.523	206.090	0.00018341	0.00037808	7.2875e-05	1071	2.7238e-06	3.1385e-06	1136.5	225.22	2.6388e-06	4.3255e-06	281.75	79.818	61.842	18.074	1.5961e-06	25.719	0.00022837	0.00023746	6.631e-05	1055.4	2.6407e-06	2.4999e-06	1123	223.14	2.6547e-06	2.5758e-06	279.66	79.828	62.266	18.224	2.5055e-06	25.859	-77.629	-51.446	-60.981	-133.737	-0.965	-12.322	-133.664	-126.559	5.510	17.970	-126.535	-120.383	-119.798	-113.018	-17.793	-113.780	-8191	255	
21847.717	1	1	0	0	0.11001	0.22019	0.15064	0.20478	0.14026	0.15621	0.22164	0.11413	0.094426	0.25679	0.13927	0.02185	0.15079	0.21976	0.13319	0.30994	-2.0896	-2.0062	-2.0167	-2.3833	-2.2021	-2.4104	-2.5958	-2.2479	-2.4875	-2.35	-2.4271	-2.4875	-2.1708	-2.2812	-2.3583	-2.0979	19.663	-33.902	25.449	196.431	-138.856	-71.547	210.376	166.934	-71.291	-7.998	-123.082	161.863	207.313	-63.669	117.287	209.058	0.0001686	0.00022708	7.8774e-05	1081.4	3.4591e-06	4.1635e-06	1135.8	224.88	2.4992e-06	5.6289e-06	280.24	79.652	62.18	18	3.1052e-06	25.621	0.00023041	0.00023792	6.4301e-05	1056.6	2.6957e-06	2.5744e-06	1123	222.88	2.6383e-06	2.6061e-06	279.42	80.109	62.493	18.26	2.658e-06	25.853	-76.102	-51.970	-20.889	-133.797	-6.632	-16.937	-133.484	-126.763	27.143	9.948	-127.035	-120.768	-119.840	-112.705	-4.538	-113.191	-8191	255	
21847.812	1	1	0	0	0.12431	0.066099	0.12831	0.15731	0.26614	0.10422	0.20746	0.24742	0.099809	0.13274	0.31688	0.22143	0.2775	0.13558	0.19825	0.10472	-1.9646	-2.2875	-2.0229	-2.7896	-2.0417	-2.1125	-2.4688	-2.225	-2.425	-2.3146	-2.35	-2.5458	-2.2479	-2.125	-2.5104	-2.0458	-53.470	-55.712	145.382	188.335	90.905	64.407	77.753	183.069	87.203	138.628	157.132	-89.867	138.900	173.382	-5.221	75.257	0.00017353	0.00023725	6.4437e-05	1078.9	4.2722e-06	4.236e-06	1137.5	225.78	2.0964e-06	3.3695e-06	282.92	79.443	62.597	18.078	2.4672e-06	25.718	0.00023864	0.00024731	7.1025e-05	1060.2	2.8135e-06	2.6218e-06	1121.8	223.91	2.7602e-06	2.7294e-06	280.47	80.15	62.793	18.248	2.5798e-06	25.9	-75.534	-46.173	2.642	-133.728	-3.758	-1.301	-133.748	-126.480	9.252	53.568	-126.763	-120.128	-119.360	-113.132	46.362	-113.463	-8191	255	
21847.908	1	1	0	0	0.12325	0.071774	0.1077	0.24417	0.24067	0.26117	0.3075	0.22382	0.21523	0.19229	0.085416	0.12419	0.065743	0.21723	0.029435	0.062344	-2.0979	-2.3792	-2.1396	-2.5708	-2.1729	-2.2146	-2.5896	-2.2396	-2.2646	-2.4979	-2.2375	-2.5438	-2.3438	-2.1667	-2.5375	-2.2438	138.033	-121.116	182.514	126.351	-47.489	-87.250	139.046	207.122	-10.179	51.578	171.600	178.868	-139.912	211.236	27.234	174.457	0.00017186	0.00022173	0.00010644	1072.9	1.4408e-06	3.5205e-06	1142.6	223.89	3.2438e-06	3.1152e-06	281.9	80.021	62.517	17.95	1.3589e-06	25.559	0.00024423	0.00023042	6.5484e-05	1057.1	2.5759e-06	2.5663e-06	1123.7	222.56	2.5488e-06	2.3898e-06	279.77	80.286	62.407	18.207	2.4064e-06	25.821	-78.343	-43.195	-68.336	-133.939	-1.601	7.763	-133.721	-126.650	1.973	-10.440	-126.695	-120.555	-120.148	-112.780	-6.739	-113.502	-8191	255	
21848.029	1	1	0	0	0.12347	0.20661	0.34844	0.1466	0.10871	0.042005	0.18782	0.31677	0.06194	0.035712	0.23882	0.11184	0.15029	0.13066	0.097591	0.32313	-1.7667	-2.4375	-2.1479	-2.775	-2.325	-2.0229	-2.7458	-2.2458	-2.2104	-2.4437	-2.1583	-2.4958	-2.3333	-2.1688	-2.5583	-2.1	94.400	13.517	197.113	187.238	-15.048	-117.442	147.803	-141.756	98.497	-73.189	192.854	102.832	24.490	185.309	16.142	70.393	0.00020259	0.00030631	0.00010801	1071.7	2.1762e-06	1.8857e-06	1137.3	224.85	2.9415e-06	1.8424e-06	281.66	79.623	62.667	18.007	2.9996e-06	25.613	0.00021881	0.00021605	6.4243e-05	1056.1	2.46e-06	2.5414e-06	1122.2	222.95	2.524e-06	2.4294e-06	279.81	80.28	62.648	18.265	2.4942e-06	25.952	-76.826	-61.704	-25.687	-133.647	0.062	-5.219	-133.567	-126.444	3.625	-12.650	-127.001	-120.393	-119.880	-112.701	-16.631	-113.322	-8191	255	
21848.123	1	1	0	0	0.22399	0.25689	0.13172	0.28781	0.10318	0.09115	0.20344	0.25293	0.034645	0.10606	0.15971	0.17826	0.051223	0.20209	0.26439	0.21682	-1.9771	-2.2375	-2.1625	-2.6	-2.3063	-2.2687	-2.5542	-2.3125	-2.2125	-2.4375	-2.2438	-2.2938	-2.4146	-1.9417	-2.45	-2.3354	191.206	93.331	126.063	183.193	-20.731	-65.657	134.383	164.908	-42.184	164.884	140.572	183.488	26.278	187.642	89.946	92.955	0.00018825	0.00034069	8.0264e-05	1077.6	2.4295e-06	3.5833e-06	1140	225.51	1.6053e-06	1.4568e-06	283.22	79.894	62.932	18.231	1.3671e-06	25.769	0.00022577	0.00021759	6.3648e-05	1059.9	2.5309e-06	2.4202e-06	1125.4	223.87	2.5208e-06	2.404e-06	280.25	80.364	62.797	18.343	2.3931e-06	25.996	-84.072	-49.185	-15.791	-133.583	-16.747	3.234	-133.763	-126.604	23.137	1.458	-127.040	-120.417	-119.995	-112.842	64.561	-113.714	-8191	255	
21848.197	1	1	0	0	0.17385	0.17315	0.25568	0.12763	0.14328	0.12091	0.37154	0.048153	0.08969	0.025969	0.27256	0.25269	0.26452	0.20022	0.054683	0.046559	-1.6562	-2.4188	-2.125	-2.4875	-2.2521	-1.9792	-2.5812	-2.4521	-2.0167	-2.3521	-2.0229	-2.3604	-2.2958	-2.0896	-2.3729	-2.3604	141.054	118.394	27.186	111.081	98.982	-52.670	117.672	196.120	-138.686	16.732	126.817	206.074	82.872	-59.748	203.042	161.820	0.0001588	0.00023321	6.1344e-05	1079.4	2.8619e-06	3.5498e-06	1143.7	226.51	2.3095e-06	3.9848e-06	283.13	80.167	62.631	18.207	2.0039e-06	25.774	0.00022553	0.00022447	6.3034e-05	1059.3	2.5685e-06	2.5156e-06	1125.7	223.59	2.6256e-06	2.4304e-06	280.46	80.692	62.815	18.362	2.4e-06	26.086	-81.057	-51.064	-16.562	-133.608	1.294	-21.401	-133.605	-126.610	27.265	-15.521	-126.990	-120.352	-120.114	-112.707	-15.012	-113.629	-8191	255	
21848.293	1	1	0	0	0.069547	0.083517	0.21215	0.28573	0.048326	0.14983	0.066616	0.099246	0.031569	0.17644	0.13614	0.068517	0.21752	0.2586	0.14073	0.17706	-1.6917	-2.475	-2.2271	-2.3292	-2.4146	-2.1542	-2.5875	-2.2562	-2.0396	-2.6354	-2.2083	-2.4208	-2.4479	-2.1646	-2.175	-2.1146	129.433	56.095	-98.676	130.452	168.842	-50.631	-22.022	211.449	-51.869	-68.083	-18.804	168.170	199.461	6.654	23.843	172.155	0.00017864	0.00017634	8.4234e-05	1079.2	3.0466e-06	3.3776e-06	1140.3	225.09	2.4484e-06	3.7361e-06	282.05	80.11	62.834	18.279	2.1056e-06	25.82	0.00022983	0.00021256	6.1703e-05	1060.4	2.5897e-06	2.5475e-06	1123.9	223.47	2.4426e-06	2.2558e-06	280.69	80.516	62.828	18.394	2.4499e-06	26.028	-85.912	-24.216	-77.948	-133.823	-34.872	14.419	-133.696	-126.223	-5.568	15.875	-127.126	-120.270	-120.050	-113.012	22.346	-113.187	-8191	255	
21848.389	1	1	0	0	0.038877	0.15658	0.19545	0.10609	0.083618	0.14151	0.2732	0.27729	0.14883	0.34302	0.15329	0.36971	0.24176	0.2793	0.17678	0.16181	-1.7125	-2.4854	-2.1104	-2.3292	-2.4354	-2.1729	-2.5708	-2.3042	-2.225	-2.5375	-2.3521	-2.2604	-2.5583	-2.0396	-2.0729	-2.3375	166.665	1.311	21.653	209.213	189.325	85.718	134.686	184.224	28.937	-115.707	119.693	160.608	210.935	156.200	53.440	140.848	0.00021	0.00041482	5.0081e-05	1077.8	1.8394e-06	3.3597e-06	1140.6	225.21	1.827e-06	2.881e-06	282.21	80.171	62.434	18.118	3.1474e-06	25.773	0.00023464	0.00020992	5.9956e-05	1059.7	2.5162e-06	2.4235e-06	1122.6	223.13	2.4859e-06	2.2208e-06	280.11	80.416	62.617	18.37	2.3793e-06	26.051	-73.906	-66.678	-55.679	-133.777	-10.143	-11.985	-133.518	-126.770	-15.098	13.091	-126.591	-119.799	-119.907	-112.812	0.302	-113.509	-8191	255	
21848.508	1	1	0	0	0.18127	0.085155	0.17209	0.28193	0.17148	0.33199	0.18108	0.17472	0.21632	0.13083	0.16543	0.22026	0.30102	0.17063	0.48204	0.28627	-1.6437	-2.4688	-2.0833	-2.2396	-2.5438	-2.0333	-2.3854	-2.3688	-2.1396	-2.4333	-2.4479	-2.1875	-2.3583	-2.3708	-2.2333	-2.5417	7.670	156.918	-91.813	191.140	110.097	-63.434	141.916	-77.812	100.671	158.650	-143.374	-121.897	82.926	-138.005	147.250	139.082	0.00018105	0.00038812	0.00010184	1075.1	1.5251e-06	2.0255e-06	1131	225.12	2.5539e-06	3.5475e-06	280.63	79.916	62.796	18.265	1.7609e-06	25.836	0.00022268	0.00021437	6.1876e-05	1056.5	2.4816e-06	2.3836e-06	1119.1	223.21	2.3711e-06	2.2937e-06	279.27	80.393	62.625	18.371	2.4243e-06	26.09	-76.667	-44.687	-61.060	-133.463	-27.083	33.735	-133.459	-126.663	-7.691	18.560	-126.687	-120.168	-119.952	-113.232	-5.078	-113.588	-8191	255	
21848.604	1	1	0	0	0.39034	0.18708	0.13205	0.12424	0.19758	0.09372	0.2044	0.088213	0.039433	0.16949	0.29646	0.11782	0.15374	0.26948	0.051632	0.045883	-1.6646	-2.3375	-2.1917	-2.3083	-2.5396	-2.1333	-2.4875	-2.5958	-2.0438	-2.2542	-2.2646	-2.1167	-2.4938	-2.2604	-2.2208	-2.5125	82.863	-120.158	-82.087	-68.198	29.704	-44.302	178.125	83.467	185.281	92.392	101.922	204.237	165.627	-23.104	-103.126	191.780	0.00019323	0.0003283	0.00010886	1078.6	2.4212e-06	3.9537e-06	1134.2	224.4	3.4843e-06	1.7877e-06	283.33	79.836	62.772	18.144	1.8896e-06	25.854	0.00022304	0.00021591	6.1115e-05	1056.7	2.5452e-06	2.3836e-06	1120.4	223.42	2.5283e-06	2.4109e-06	280.08	80.242	62.651	18.298	2.397e-06	26.041	-71.825	-46.573	-64.017	-133.496	18.041	25.069	-133.669	-126.336	34.988	9.617	-126.748	-120.157	-119.996	-113.005	41.226	-113.383	-8191	255	
21848.699	1	1	0	0	0.21377	0.31118	0.36014	0.328	0.20262	0.18182	0.20358	0.13855	0.11999	0.13654	0.19704	0.19573	0.11444	0.33533	0.17528	0.30363	-1.7042	-2.4437	-2.2896	-2.2396	-2.4062	-2.2188	-2.2896	-2.5792	-1.9604	-2.4625	-2.45	-1.925	-2.4896	-2.3063	-2.0542	-2.7542	132.375	-125.903	85.196	194.636	27.307	-20.693	-137.210	46.644	86.688	150.997	164.364	193.116	-44.645	50.440	39.030	-102.908	0.00019648	0.00034815	3.9436e-05	1073.3	2.8387e-06	3.3943e-06	1131.5	225.26	3.3543e-06	4.5659e-06	283.23	80.123	62.785	18.17	2.2779e-06	25.719	0.00021769	0.00020939	5.9042e-05	1053.3	2.3981e-06	2.266e-06	1117.1	223.25	2.4111e-06	2.3204e-06	279.84	80.295	62.589	18.293	2.4661e-06	25.962	-79.128	-74.424	-40.872	-133.737	-0.372	16.611	-133.531	-126.479	-4.985	34.727	-126.913	-120.236	-120.001	-112.882	29.313	-113.227	-8191	255	
21848.797	1	1	0	0	0.14751	0.12538	0.18895	0.18899	0.10212	0.094656	0.10306	0.18162	0.32263	0.10095	0.11479	0.1731	0.098658	0.2613	0.17841	0.32867	-1.6875	-2.2687	-2.3812	-2.0708	-2.4792	-2.3312	-2.3729	-2.7917	-2.1188	-2.3625	-2.5542	-2.1125	-2.2833	-2.3875	-2.1917	-2.4354	-97.918	173.026	-115.734	-114.735	-49.390	169.391	-140.048	197.283	80.704	-29.172	59.587	-129.675	86.916	-109.862	2.185	128.666	0.0001584	0.00017276	5.4537e-05	1073.4	2.4828e-06	1.8728e-06	1132.4	224.7	2.7e-06	2.9314e-06	282.82	80.182	62.216	17.983	3.7782e-06	25.699	0.00022204	0.00021408	6.1505e-05	1054.6	2.5321e-06	2.3815e-06	1119.1	222.55	2.3988e-06	2.2335e-06	279.71	80.346	62.548	18.228	2.3909e-06	25.936	-83.036	-13.168	-63.120	-133.679	58.677	0.739	-133.555	-126.426	-12.444	11.693	-126.890	-120.082	-119.975	-112.523	33.250	-113.702	-8191	255	
21848.893	1	1	0	0	0.15661	0.3208	0.19348	0.19599	0.05832	0.033882	0.083742	0.1571	0.18613	0.18173	0.093151	0.1457	0.045255	0.22807	0.2121	0.14902	-1.6792	-2.0521	-2.2562	-2.3333	-2.4062	-2.4833	-2.2354	-2.6458	-2.0917	-2.2792	-2.5167	-2.1542	-2.3229	-2.2417	-2.2458	-2.5271	152.349	0.974	94.904	173.186	-9.581	-21.628	146.954	146.642	132.820	-117.023	-142.013	177.260	-46.421	205.976	-123.801	29.440	0.00019583	8.7441e-05	0.00011133	1072.4	9.2918e-07	2.9427e-06	1132.4	224.08	1.9946e-06	4.2049e-06	279.96	79.828	62.449	18.16	2.5423e-06	25.613	0.00021273	0.0002048	5.9233e-05	1052.8	2.3973e-06	2.3584e-06	1117.7	222.87	2.3309e-06	2.2795e-06	279.2	80.255	62.517	18.248	2.3698e-06	25.947	-79.511	-74.657	-73.622	-133.593	74.948	-47.769	-133.728	-126.709	-22.033	2.425	-127.074	-120.187	-119.728	-112.865	-5.115	-113.201	-8191	255	
#DATA ENDS
