BOXY.EXE: ISS Imagent and Oximeter Data Acquisition Program Version 0.80
Ascii Record File

#ACQ INFORMATION
2  Detector Channels 
16  External MUX Channels 
1  Auxiliary Channels 
5000  Waveform (CCF) Frequency (Hz)
1  Waveforms Skipped 
30  Waveforms Averaged 
1  Cycles Averaged 
16  Acquisitions per Waveform 
10.0806  Updata Rate (Hz) 

#FILE INFORMATION
TRUE -- External MUX Channel results are PARSED.
FALSE -- AC DC and Phase are NOT grouped.
TRUE -- Companion Program Settings File CREATED.
FALSE -- AC data not excluded
FALSE -- DC data not excluded
FALSE -- Phase data not excluded
FALSE -- Auxillary Chn. data not excluded
Tab delimiters

#CALIBRATION STATE
TRUE -- Waveform Calibration Values APPLIED.


#AUX CALIBRATION VALUES
Val Type	aux-1	

Term	1.0000e+00	
Factor	0.0000e+00	


#WF CALIBRATION VALUES
A = Detector Channel
Val Type	A-AC1	A-AC2	A-AC3	A-AC4	A-AC5	A-AC6	A-AC7	A-AC8	A-AC9	A-AC10	A-AC11	A-AC12	A-AC13	A-AC14	A-AC15	A-AC16	A-DC1	A-DC2	A-DC3	A-DC4	A-DC5	A-DC6	A-DC7	A-DC8	A-DC9	A-DC10	A-DC11	A-DC12	A-DC13	A-DC14	A-DC15	A-DC16	A-Ph1	A-Ph2	A-Ph3	A-Ph4	A-Ph5	A-Ph6	A-Ph7	A-Ph8	A-Ph9	A-Ph10	A-Ph11	A-Ph12	A-Ph13	A-Ph14	A-Ph15	A-Ph16	

Term	0.00000e+00	0.00000e+00	0.00000e+00	0.00000e+00	0.00000e+00	0.00000e+00	0.00000e+00	0.00000e+00	0.00000e+00	0.00000e+00	0.00000e+00	0.00000e+00	0.00000e+00	0.00000e+00	0.00000e+00	0.00000e+00	0.00000e+00	0.00000e+00	0.00000e+00	0.00000e+00	0.00000e+00	0.00000e+00	0.00000e+00	0.00000e+00	0.00000e+00	0.00000e+00	0.00000e+00	0.00000e+00	0.00000e+00	0.00000e+00	0.00000e+00	0.00000e+00	0.00000e+00	0.00000e+00	0.00000e+00	0.00000e+00	0.00000e+00	0.00000e+00	0.00000e+00	0.00000e+00	0.00000e+00	0.00000e+00	0.00000e+00	0.00000e+00	0.00000e+00	0.00000e+00	0.00000e+00	0.00000e+00	
Factor	1.00000e+00	1.00000e+00	1.00000e+00	1.00000e+00	1.00000e+00	1.00000e+00	1.00000e+00	1.00000e+00	1.00000e+00	1.00000e+00	1.00000e+00	1.00000e+00	1.00000e+00	1.00000e+00	1.00000e+00	1.00000e+00	1.00000e+00	1.00000e+00	1.00000e+00	1.00000e+00	1.00000e+00	1.00000e+00	1.00000e+00	1.00000e+00	1.00000e+00	1.00000e+00	1.00000e+00	1.00000e+00	1.00000e+00	1.00000e+00	1.00000e+00	1.00000e+00	X	X	X	X	X	X	X	X	X	X	X	X	X	X	X	X	

B = Detector Channel
Val Type	B-AC1	B-AC2	B-AC3	B-AC4	B-AC5	B-AC6	B-AC7	B-AC8	B-AC9	B-AC10	B-AC11	B-AC12	B-AC13	B-AC14	B-AC15	B-AC16	B-DC1	B-DC2	B-DC3	B-DC4	B-DC5	B-DC6	B-DC7	B-DC8	B-DC9	B-DC10	B-DC11	B-DC12	B-DC13	B-DC14	B-DC15	B-DC16	B-Ph1	B-Ph2	B-Ph3	B-Ph4	B-Ph5	B-Ph6	B-Ph7	B-Ph8	B-Ph9	B-Ph10	B-Ph11	B-Ph12	B-Ph13	B-Ph14	B-Ph15	B-Ph16	

Term	0.00000e+00	0.00000e+00	0.00000e+00	0.00000e+00	0.00000e+00	0.00000e+00	0.00000e+00	0.00000e+00	0.00000e+00	0.00000e+00	0.00000e+00	0.00000e+00	0.00000e+00	0.00000e+00	0.00000e+00	0.00000e+00	0.00000e+00	0.00000e+00	0.00000e+00	0.00000e+00	0.00000e+00	0.00000e+00	0.00000e+00	0.00000e+00	0.00000e+00	0.00000e+00	0.00000e+00	0.00000e+00	0.00000e+00	0.00000e+00	0.00000e+00	0.00000e+00	-1.10335e+02	-1.62587e+02	-1.90705e+02	-1.85735e+02	-7.95890e+01	-9.80034e+01	-1.58876e+02	-1.62015e+02	-9.35963e+01	-1.16549e+02	-1.73504e+02	-1.69991e+02	-1.80150e+02	-1.77034e+02	-1.13923e+02	-1.49910e+02	
Factor	1.77319e-05	8.39323e-05	2.32807e-05	6.63806e-01	6.50858e-07	8.58057e-07	1.78611e-01	5.53004e-02	7.65979e-07	9.03384e-07	9.65138e-02	3.13854e-02	2.64622e-02	1.04344e-02	8.22500e-07	1.50170e-02	3.36373e-07	3.38385e-07	9.36488e-08	2.35456e-01	3.72523e-09	3.70374e-09	7.59690e-02	2.46404e-02	3.72491e-09	3.70198e-09	3.96877e-02	1.30564e-02	1.13969e-02	4.37442e-03	3.68760e-09	5.98844e-03	X	X	X	X	X	X	X	X	X	X	X	X	X	X	X	X	



#DISTANCE SETTINGS
A = Detector Channel
A-1	A-2	A-3	A-4	A-5	A-6	A-7	A-8	A-9	A-10	A-11	A-12	A-13	A-14	A-15	A-16	

2.5000e+00	3.0000e+00	2.5000e+00	3.0000e+00	2.0000e+00	3.0000e+00	1.5000e+00	3.0000e+00	3.0000e+00	3.0000e+00	3.0000e+00	3.0000e+00	3.0000e+00	3.0000e+00	1.5000e+00	3.0000e+00	

B = Detector Channel
B-1	B-2	B-3	B-4	B-5	B-6	B-7	B-8	B-9	B-10	B-11	B-12	B-13	B-14	B-15	B-16	

1.0000e+01	1.0000e+01	1.0000e+01	1.4400e+00	1.0000e+01	1.0000e+01	1.5100e+00	1.9400e+00	1.0000e+01	1.0000e+01	1.9900e+00	2.4900e+00	2.4100e+00	2.9000e+00	1.0000e+01	2.9800e+00	




#DATA BEGINS
time	group	step	mark	flag	A-AC1	A-AC2	A-AC3	A-AC4	A-AC5	A-AC6	A-AC7	A-AC8	A-AC9	A-AC10	A-AC11	A-AC12	A-AC13	A-AC14	A-AC15	A-AC16	A-DC1	A-DC2	A-DC3	A-DC4	A-DC5	A-DC6	A-DC7	A-DC8	A-DC9	A-DC10	A-DC11	A-DC12	A-DC13	A-DC14	A-DC15	A-DC16	A-Ph1	A-Ph2	A-Ph3	A-Ph4	A-Ph5	A-Ph6	A-Ph7	A-Ph8	A-Ph9	A-Ph10	A-Ph11	A-Ph12	A-Ph13	A-Ph14	A-Ph15	A-Ph16	B-AC1	B-AC2	B-AC3	B-AC4	B-AC5	B-AC6	B-AC7	B-AC8	B-AC9	B-AC10	B-AC11	B-AC12	B-AC13	B-AC14	B-AC15	B-AC16	B-DC1	B-DC2	B-DC3	B-DC4	B-DC5	B-DC6	B-DC7	B-DC8	B-DC9	B-DC10	B-DC11	B-DC12	B-DC13	B-DC14	B-DC15	B-DC16	B-Ph1	B-Ph2	B-Ph3	B-Ph4	B-Ph5	B-Ph6	B-Ph7	B-Ph8	B-Ph9	B-Ph10	B-Ph11	B-Ph12	B-Ph13	B-Ph14	B-Ph15	B-Ph16	aux-1	digaux	

6648.789	1	1	0	256	0.16311	0.10147	0.093762	0.013542	0.20166	0.19359	0.22233	0.32388	0.13948	0.11634	0.21008	0.09439	0.14205	0.059395	0.27633	0.24596	-2.2479	-2.9604	-2.7021	-2.8229	-2.7104	-2.7208	-2.9208	-2.8708	-2.5187	-2.7167	-2.8396	-2.75	-2.6312	-2.5438	-2.9604	-2.6854	40.664	66.620	141.377	195.062	-76.200	196.359	141.384	202.332	-45.524	44.860	113.455	133.429	-93.052	-77.989	-72.023	189.612	4.7997e-05	0.00028494	7.9383e-05	1254.5	2.2625e-06	3.4123e-06	1305.6	251.63	4.0482e-06	4.7785e-06	316.87	88.762	69.73	20.011	4.0859e-06	28.311	0.00015351	0.00014492	4.718e-05	991.77	1.6125e-06	1.6264e-06	1207	233.95	1.6343e-06	1.6118e-06	284.95	81.984	64.099	18.707	1.8383e-06	25.891	211.162	112.697	233.244	-82.585	44.211	50.620	-82.454	-75.348	265.715	82.420	-75.744	-69.070	-69.069	-61.818	75.086	-62.553	-8191	255	
6648.909	1	1	0	0	0.22708	0.20304	0.1362	0.27504	0.17182	0.066318	0.014423	0.094051	0.11128	0.22866	0.18744	0.07072	0.22526	0.1582	0.15777	0.084724	-2.1729	-2.7562	-2.425	-2.6437	-2.9542	-2.6167	-3.15	-2.6792	-2.5104	-3.0604	-2.875	-2.6583	-2.9792	-2.5625	-2.8021	-2.6167	245.462	101.367	224.435	-71.840	37.935	245.574	207.151	258.785	132.686	39.089	-15.776	194.439	-89.753	145.107	123.656	86.305	7.0192e-05	0.0001299	0.0001305	1246.2	2.1618e-06	2.3029e-06	1308.5	250.55	1.0077e-06	2.1472e-06	314.59	88.653	69.415	20.006	3.8436e-06	28.321	0.00014466	0.00014869	4.5539e-05	979.19	1.53e-06	1.6467e-06	1202.1	232.52	1.5182e-06	1.6087e-06	283.4	81.635	63.83	18.742	1.7085e-06	25.755	209.554	118.360	-67.927	-82.695	-26.846	174.856	-82.390	-75.789	4.658	-14.357	-75.726	-69.314	-69.140	-61.979	-42.868	-62.764	-8191	255	
6649.006	1	1	0	0	0.37201	0.022593	0.23399	0.17386	0.019064	0.17662	0.37476	0.20737	0.099619	0.062561	0.19987	0.24788	0.11263	0.081949	0.14413	0.19687	-2.1896	-2.7625	-2.4771	-2.7146	-2.8521	-2.525	-2.9958	-2.7708	-2.4104	-3.0458	-2.8937	-2.5125	-2.9562	-2.5271	-2.7583	-2.9917	165.072	243.024	169.264	-51.740	175.092	-75.031	215.518	238.065	85.489	164.087	190.890	223.299	185.655	-40.341	-91.973	250.257	8.2418e-05	0.00019313	0.00011022	1240.9	2.1103e-06	2.6004e-06	1306.7	251.43	2.1973e-06	2.6475e-06	315.1	88.473	69.869	20.109	2.7915e-06	28.268	0.00013683	0.00015059	4.2522e-05	974.7	1.4444e-06	1.6495e-06	1200.1	232.14	1.4419e-06	1.5861e-06	281.57	81.149	63.911	18.705	1.4903e-06	25.556	237.875	53.562	-71.179	-82.509	121.138	38.667	-82.264	-75.298	20.564	148.343	-75.561	-69.158	-68.951	-62.247	259.373	-62.375	-8191	255	
6649.102	1	1	0	0	0.1689	0.0053141	0.16249	0.075505	0.158	0.10809	0.23919	0.20194	0.097243	0.11587	0.16798	0.17535	0.10686	0.063322	0.093879	0.27927	-2.1208	-2.7271	-2.6917	-2.5021	-2.7958	-2.4542	-2.8208	-3.1479	-2.6083	-2.9479	-2.5687	-2.5833	-2.8021	-2.4292	-2.7083	-2.8604	102.912	263.414	61.380	195.211	-92.927	-64.238	221.737	213.838	-23.075	199.497	0.198	86.370	202.337	186.762	215.314	247.109	0.0001254	0.00021419	7.1012e-05	1237.9	6.9791e-07	1.5366e-06	1301.4	251.09	1.9002e-06	1.7968e-06	316.54	88.535	69.637	19.953	1.5784e-06	28.724	0.00012475	0.00013844	3.5101e-05	958.67	1.2607e-06	1.4073e-06	1191.2	229.82	1.2605e-06	1.4351e-06	279.78	80.674	64.107	18.791	1.5991e-06	26.04	187.772	19.031	244.400	-82.597	-69.189	63.154	-82.346	-75.299	156.749	84.977	-75.760	-69.077	-69.019	-62.390	185.292	-62.581	-8191	255	
6649.198	1	1	0	0	0.08568	0.045848	0.17597	0.27213	0.1374	0.10648	0.18514	0.11813	0.15685	0.10387	0.071277	0.18458	0.094304	0.096635	0.25347	0.13949	-2.2354	-2.6437	-2.7896	-2.5042	-2.8729	-2.8312	-2.6833	-3.1167	-2.5833	-2.6146	-2.8042	-2.5042	-3.0292	-2.4521	-2.7854	-2.9479	-65.047	157.676	-68.717	-11.495	-53.641	63.010	92.559	171.055	201.881	110.472	-56.196	-42.031	182.812	127.560	115.347	190.985	0.00013957	0.00025628	6.9937e-05	1247.2	6.8582e-07	3.9546e-06	1306.9	251.73	2.6693e-06	9.4591e-06	315.78	88.911	69.504	20.17	2.7892e-06	28.623	0.0001579	0.0001762	4.4168e-05	987.79	1.8596e-06	2.0081e-06	1208.1	234.39	1.9728e-06	2.039e-06	285.98	82.622	65.686	19.3	1.9144e-06	26.464	219.515	-71.719	-89.632	-82.504	61.659	-55.464	-82.503	-75.446	154.333	7.205	-75.906	-69.509	-69.115	-62.545	54.738	-62.577	-8191	255	
6649.318	1	1	0	0	0.19272	0.10787	0.2347	0.24819	0.047712	0.039784	0.16274	0.20442	0.18223	0.096225	0.30672	0.17928	0.12545	0.11885	0.22518	0.29078	-2.2062	-2.9	-2.8521	-2.5333	-2.7375	-2.7854	-2.6042	-3.0396	-2.5729	-2.6958	-2.7021	-2.5896	-2.9021	-2.6167	-2.5187	-3.0417	254.888	55.975	157.284	-1.875	-33.727	35.596	162.067	-74.593	145.418	-81.437	236.505	-49.381	-88.574	-72.875	-55.252	232.540	0.00017748	0.00026561	0.00012887	1240.3	4.0442e-06	4.8107e-06	1300.5	250.62	5.2723e-06	3.8668e-06	316.35	88.432	69.627	20.124	3.6108e-06	28.428	0.00019106	0.00018824	4.728e-05	988.69	2.0788e-06	2.0696e-06	1200.9	234.27	2.2983e-06	2.2289e-06	287.09	83.245	66.836	19.446	2.1099e-06	26.698	205.482	255.173	-55.432	-82.711	183.500	-27.875	-82.291	-75.258	70.873	218.052	-75.585	-69.412	-69.181	-61.837	48.351	-62.538	-8191	255	
6649.390	1	1	0	0	0.14985	0.11238	0.23932	0.089113	0.12885	0.13092	0.23253	0.27827	0.073514	0.072034	0.20069	0.066965	0.059638	0.35786	0.10082	0.12638	-2.0187	-2.6771	-2.7875	-2.3438	-2.9708	-2.8229	-2.7625	-2.9417	-2.6042	-2.7167	-2.9	-2.7313	-2.8104	-2.8479	-2.5167	-2.9083	-11.084	-87.080	144.970	-77.056	24.398	-6.790	194.715	149.544	230.475	201.460	234.893	252.168	21.089	-75.647	159.245	-75.608	9.5263e-05	9.3479e-05	0.00011269	1222.8	4.1969e-06	3.6716e-06	1293.7	246.84	5.1413e-06	1.1693e-06	311.19	87.251	68.482	19.885	3.2944e-06	28.359	0.00021148	0.00019032	4.7318e-05	983.37	2.0691e-06	1.8399e-06	1187.9	230.57	1.9273e-06	1.6559e-06	277.05	80.114	63.336	18.205	1.2812e-06	25.398	199.360	70.178	-83.062	-82.738	-80.634	20.772	-82.405	-75.625	244.053	-44.369	-75.450	-68.955	-68.891	-61.799	31.398	-61.934	-8191	255	
6649.485	1	1	0	0	0.17962	0.17499	0.26183	0.17937	0.16097	0.019349	0.18541	0.15189	0.23177	0.10919	0.040847	0.44874	0.15952	0.065098	0.089179	0.13151	-2.2792	-2.625	-2.6542	-2.6229	-2.8417	-2.5292	-2.8292	-2.9479	-2.6813	-2.7458	-2.9146	-2.6667	-2.5979	-2.7979	-2.5771	-2.9792	255.522	-47.799	140.551	144.408	205.443	-8.702	175.865	122.227	-52.526	70.212	-83.518	-59.758	203.766	191.381	160.471	-70.979	8.3099e-05	5.7097e-05	5.3517e-05	1212	3.0275e-06	2.9587e-06	1273.9	246.78	3.4431e-06	1.8839e-06	309.89	87.286	68.38	20.07	1.7066e-06	28.049	0.00013181	0.00011664	2.9415e-05	935.67	1.3391e-06	1.1713e-06	1160.6	224.8	1.2283e-06	1.1049e-06	270.45	78.903	61.785	17.915	1.0496e-06	25.008	254.586	13.218	263.419	-82.528	60.254	35.049	-82.012	-75.326	2.181	38.669	-75.354	-68.950	-68.923	-61.797	52.060	-62.380	-8191	255	
6649.581	1	1	0	0	0.20434	0.071411	0.10278	0.32461	0.14166	0.2236	0.25579	0.024387	0.17162	0.042223	0.12539	0.13903	0.01711	0.22216	0.047028	0.078992	-2.1729	-2.6146	-2.7354	-2.6	-2.8771	-2.775	-2.7042	-3.0271	-2.6771	-2.7854	-2.8292	-2.5646	-2.9021	-2.7812	-2.4125	-2.9562	258.914	-11.675	97.995	-33.532	-68.095	48.642	-73.422	187.426	-63.722	128.219	201.704	82.282	25.446	258.912	-65.083	182.343	7.8325e-05	0.00011155	1.6103e-05	1200.9	1.2298e-06	3.2943e-06	1264.2	243.6	1.0421e-06	1.4127e-06	309.53	87.076	68.013	19.877	1.0975e-06	28.106	0.00010645	9.4815e-05	2.4843e-05	918.55	1.0711e-06	9.5462e-07	1146.8	222.07	9.619e-07	8.7738e-07	267.63	77.89	60.646	17.535	8.2873e-07	24.548	201.778	-44.275	110.529	-82.029	99.477	61.504	-81.885	-75.252	32.485	-89.552	-75.657	-69.105	-69.043	-61.549	96.632	-62.190	-8191	255	
6649.701	1	1	0	0	0.04697	0.31616	0.048549	0.20108	0.24538	0.19479	0.10768	0.23532	0.11374	0.044162	0.21719	0.14166	0.13557	0.16604	0.20423	0.30373	-2.2604	-2.4938	-2.8	-2.6813	-2.8542	-2.8396	-2.7687	-2.7625	-2.7604	-2.6896	-2.9771	-2.6958	-2.6604	-2.9042	-2.4042	-2.8896	52.991	36.800	77.082	145.769	60.350	86.586	212.374	-61.705	248.462	-23.164	248.515	98.766	-40.220	-23.345	-31.944	216.315	2.4518e-05	8.5225e-05	4.9818e-05	1202.3	1.3612e-06	4.6841e-06	1280.5	245.85	2.028e-06	2.1743e-06	311.95	87.677	69.04	20.119	1.0748e-06	28.255	7.6107e-05	6.9626e-05	1.903e-05	902.14	7.6678e-07	6.9545e-07	1154.3	222.45	7.3289e-07	6.8542e-07	269.15	78.044	61.106	17.645	8.1592e-07	24.679	169.692	-23.959	169.912	-82.219	39.689	30.231	-82.499	-75.410	9.069	39.241	-75.618	-69.264	-68.946	-62.252	81.463	-62.431	-8191	255	
6649.797	1	1	0	0	0.077002	0.081344	0.20385	0.20856	0.16011	0.24423	0.036835	0.28548	0.20555	0.29892	0.13635	0.067631	0.17434	0.12653	0.28165	0.16905	-2.4	-2.4458	-2.8667	-2.7	-2.6	-2.8104	-2.7979	-2.7333	-2.875	-2.3667	-3.1125	-2.6021	-2.6708	-3.0563	-2.4792	-2.7146	160.009	147.641	79.706	265.301	257.981	181.284	247.508	254.947	-80.080	257.225	27.746	-32.311	206.244	-71.203	181.122	33.890	2.81e-05	0.00017433	0.00011329	1230.4	1.4773e-06	1.5308e-06	1294.2	247.79	2.1757e-06	2.6893e-06	315.48	88.5	69.188	20.106	3.6379e-06	28.536	7.5679e-05	7.1118e-05	2.203e-05	922.6	8.6871e-07	8.2477e-07	1173.4	225.99	9.2818e-07	8.907e-07	274.75	79.216	62.011	17.953	1.0574e-06	25.258	137.283	-60.897	-84.418	-82.429	132.355	159.986	-82.171	-75.387	60.722	-10.639	-75.666	-69.445	-69.145	-62.535	240.480	-62.154	-8191	255	
6649.894	1	1	0	0	0.072301	0.091737	0.22034	0.10512	0.11908	0.048596	0.11555	0.16775	0.3012	0.04191	0.10006	0.1944	0.22078	0.15956	0.17331	0.11778	-2.4542	-2.3438	-2.9688	-2.9417	-2.5125	-2.7542	-2.8563	-2.9646	-2.7292	-2.6917	-2.8792	-2.7292	-2.5167	-2.8521	-2.6646	-2.8771	59.791	-23.952	101.082	95.775	124.556	247.140	130.305	34.594	63.589	254.989	-16.890	81.938	188.527	70.249	-71.639	-40.084	5.2401e-05	0.00039316	1.23e-05	1243.4	9.7331e-07	1.3136e-06	1307.7	252.97	3.1101e-06	2.7591e-06	319.37	89.599	70.865	20.502	4.5023e-06	28.842	9.039e-05	8.7716e-05	2.8009e-05	945.07	1.0355e-06	9.9469e-07	1193.4	231.14	1.0272e-06	1.038e-06	280.51	80.632	63.402	18.329	1.1434e-06	25.53	-57.163	5.721	240.737	-82.299	5.403	-89.778	-82.249	-75.364	48.703	-30.089	-75.440	-69.042	-68.747	-62.287	-0.278	-62.281	-8191	255	
6649.990	1	1	0	0	0.17359	0.055923	0.055551	0.08242	0.12256	0.20691	0.033466	0.14565	0.1693	0.16284	0.11896	0.17651	0.14336	0.23693	0.18546	0.041411	-2.5458	-2.5583	-2.7167	-2.7021	-2.6521	-2.9	-2.8	-2.8104	-2.6688	-2.6625	-2.8771	-2.5771	-2.55	-2.975	-2.7708	-2.8271	36.641	114.667	89.824	140.921	-66.796	-53.857	95.985	202.125	90.446	144.439	257.711	-76.666	137.337	193.010	236.763	157.234	7.08e-05	0.00011726	2.9204e-05	1257.5	2.1794e-06	2.1115e-06	1324.9	256.37	1.181e-06	2.0148e-06	323.09	90.124	70.446	20.411	5.2718e-06	29.124	9.1745e-05	9.6015e-05	2.8661e-05	952.17	9.7776e-07	1.0051e-06	1203.8	232.79	9.4751e-07	1.0226e-06	281.6	80.518	63.21	18.307	1.0666e-06	25.518	145.114	73.444	-47.146	-82.347	-65.205	36.313	-82.231	-75.758	-47.770	-3.587	-75.758	-69.435	-68.999	-62.210	3.290	-62.517	-8191	255	
6650.084	1	1	0	0	0.071428	0.14506	0.080279	0.41214	0.1054	0.24685	0.25131	0.080317	0.33866	0.066339	0.047545	0.013683	0.22155	0.08377	0.23156	0.20192	-2.3771	-2.5687	-2.7354	-2.7438	-2.6396	-2.8104	-2.8625	-2.7583	-2.8292	-2.6542	-2.9479	-2.8542	-2.7708	-2.7854	-2.7396	-2.6646	66.182	146.638	97.317	-81.877	-50.148	0.660	202.176	159.677	-60.925	240.445	247.805	145.312	229.255	233.951	133.859	115.837	6.7529e-05	0.00036697	3.9869e-05	1259.9	1.31e-06	1.413e-06	1322	256.87	2.2686e-07	2.1769e-06	321.32	89.723	70.728	20.34	2.1496e-06	29.079	8.6241e-05	9.6148e-05	2.7191e-05	951.4	9.7294e-07	1.0773e-06	1203.7	233.23	9.8493e-07	1.1191e-06	281.62	80.53	63.527	18.461	1.1623e-06	25.648	203.356	172.131	-2.762	-82.199	72.045	5.922	-82.333	-75.574	36.043	67.770	-75.591	-69.107	-69.483	-62.510	33.950	-61.705	-8191	255	
6650.180	1	1	0	0	0.19266	0.10672	0.24734	0.053223	0.27698	0.20617	0.26227	0.087398	0.14851	0.11424	0.10659	0.33304	0.041496	0.12075	0.32612	0.1524	-2.4521	-2.7229	-2.6979	-2.6937	-2.5563	-2.8271	-2.7354	-2.7229	-2.9271	-2.7458	-2.825	-2.9125	-2.6521	-2.8833	-2.6771	-2.4146	91.376	264.217	-38.129	-50.128	-74.870	113.954	189.704	-5.805	-56.151	48.184	205.173	196.096	265.635	-70.719	55.623	214.785	0.00010108	0.00035173	2.6931e-05	1257.4	1.4778e-06	1.719e-06	1318.8	255.86	2.6961e-06	9.0712e-07	321.97	89.487	70.272	20.381	2.433e-06	28.993	0.00010116	0.00011498	3.0543e-05	957.71	1.1649e-06	1.2938e-06	1202.9	233.81	1.1632e-06	1.273e-06	282.99	80.709	63.736	18.56	1.1391e-06	25.559	229.768	-49.736	199.924	-82.865	-82.388	92.927	-82.466	-75.281	235.205	42.573	-75.519	-69.288	-69.135	-62.053	-15.918	-61.982	-8191	255	
6650.276	1	1	0	0	0.10088	0.063289	0.14575	0.27213	0.1914	0.17403	0.15348	0.27749	0.20221	0.051598	0.059953	0.10181	0.057141	0.26362	0.15813	0.24096	-2.5333	-2.4833	-2.7271	-2.8354	-2.6063	-3.075	-2.7438	-2.6521	-2.8229	-2.7542	-2.6542	-2.9896	-2.6146	-2.775	-2.7354	-2.5854	148.111	238.313	261.918	167.109	29.705	162.320	133.071	191.360	232.376	246.742	194.958	178.115	197.861	-39.516	-64.595	-12.141	7.3886e-05	0.00031056	9.5071e-05	1250.5	7.6333e-07	3.3727e-06	1309.5	254.27	2.1063e-06	5.2567e-06	317.97	89.692	70.215	20.408	2.4945e-06	28.882	0.00010471	0.00011163	2.877e-05	948.55	1.135e-06	1.2034e-06	1192.5	231.52	1.1648e-06	1.2197e-06	279.84	80.322	63.708	18.463	1.1643e-06	25.53	154.246	-5.860	-35.804	-82.452	58.065	-71.988	-82.305	-75.504	122.476	39.352	-75.750	-69.285	-68.821	-62.178	60.007	-62.596	-8191	255	
6650.397	1	1	0	0	0.13226	0.22194	0.087115	0.069487	0.10424	0.37456	0.045849	0.10225	0.24787	0.07127	0.012145	0.14163	0.31021	0.15361	0.23352	0.19755	-2.3312	-2.7812	-2.5979	-2.7604	-2.6521	-2.7687	-2.9125	-2.625	-2.8396	-2.55	-2.7333	-2.8292	-2.725	-3.0062	-2.7188	-2.5583	210.772	51.696	134.569	175.790	227.461	166.108	210.770	180.956	133.542	-64.832	190.311	225.217	-87.737	-53.246	-49.097	192.197	7.4234e-05	0.00047047	5.9902e-05	1253.9	1.9073e-06	2.8397e-06	1320.6	255.58	2.7151e-06	2.3437e-06	322.32	90.067	71.335	20.648	3.1512e-06	28.886	0.00011796	0.0001185	3.1311e-05	955.89	1.3839e-06	1.3653e-06	1203.2	234.83	1.4708e-06	1.4288e-06	285.06	81.843	65.344	18.893	1.3848e-06	26.044	174.408	-70.924	-76.683	-82.397	76.510	-67.787	-82.363	-75.595	23.733	7.785	-75.800	-69.369	-68.956	-62.212	-47.189	-62.844	-8191	255	
6650.493	1	1	0	0	0.1935	0.19194	0.21613	0.074979	0.075273	0.13354	0.14569	0.067733	0.12138	0.19549	0.13751	0.077321	0.13746	0.11028	0.023002	0.058416	-2.5917	-2.6333	-2.4354	-3.0312	-2.5062	-2.7792	-3.1208	-2.6125	-3.0938	-2.5458	-2.7292	-3.0521	-2.5333	-2.8958	-2.9542	-2.6208	59.442	-73.433	-7.593	-47.500	-11.247	118.881	193.762	128.295	242.475	-73.050	183.944	44.164	195.267	46.615	-77.609	107.713	7.663e-05	0.00031651	1.0367e-05	1266.7	4.9957e-06	2.513e-06	1343.1	261.45	3.2951e-06	6.0506e-06	330.06	90.495	72.002	20.607	3.9296e-06	29.235	0.00014915	0.00013918	3.6792e-05	988.08	1.7372e-06	1.6566e-06	1229.2	242.25	1.7308e-06	1.5999e-06	291.72	83.895	67.079	19.327	1.5591e-06	26.918	145.598	-25.230	0.050	-82.618	-0.689	66.237	-82.506	-75.783	66.998	28.337	-75.792	-69.162	-69.236	-62.397	29.961	-62.667	-8191	255	
6650.589	1	1	0	0	0.13509	0.16131	0.16472	0.17912	0.078115	0.11228	0.12429	0.21014	0.31559	0.19002	0.22164	0.2505	0.14299	0.090888	0.33538	0.25718	-2.4333	-2.7167	-2.6417	-2.8375	-2.6271	-2.8438	-2.9229	-2.6479	-2.9021	-2.5542	-2.5542	-2.9083	-2.5354	-2.7146	-2.9104	-2.675	87.061	-19.505	157.248	117.082	178.518	38.339	137.661	170.478	10.591	106.173	216.726	240.182	147.870	166.546	173.200	-80.893	8.1522e-05	0.00021762	8.324e-05	1290.1	3.2122e-06	7.769e-07	1345.5	264.22	3.2145e-06	5.2007e-06	329.32	91.888	72.376	20.761	2.0642e-06	29.352	0.00017243	0.00015649	4.1812e-05	1019.8	1.9256e-06	1.787e-06	1237.8	245.9	1.8548e-06	1.658e-06	293.27	84.489	66.65	19.161	1.3837e-06	26.544	213.762	168.024	-21.849	-82.730	6.853	5.229	-82.315	-75.712	43.083	-10.912	-75.869	-69.659	-69.303	-62.541	147.377	-62.546	-8191	255	
6650.686	1	1	0	0	0.084221	0.22755	0.1132	0.20023	0.042866	0.29605	0.41547	0.050136	0.055171	0.4583	0.20383	0.19176	0.026733	0.076533	0.12421	0.31318	-2.3979	-2.8812	-2.6146	-2.7313	-2.7	-2.5687	-2.9938	-2.4625	-2.6458	-2.6583	-2.5687	-2.8542	-2.7042	-2.7042	-2.9604	-2.6292	191.385	137.028	187.917	-33.921	5.720	-53.124	159.858	186.557	188.730	143.807	71.960	-84.443	74.212	171.797	245.118	-23.629	0.0001238	0.00045339	4.0452e-05	1280	3.5022e-06	2.5926e-06	1327.5	256.26	3.2996e-06	2.6146e-06	321.06	89.813	70.287	20.14	1.3306e-06	28.116	0.00013685	0.00012171	3.1563e-05	985.83	1.3008e-06	1.194e-06	1210.5	235.15	1.21e-06	1.1019e-06	280.85	80.789	63.286	18.146	1.125e-06	25.288	216.587	-29.323	243.797	-82.760	49.037	48.302	-82.311	-75.523	180.686	-25.519	-75.817	-69.421	-68.917	-62.242	-79.115	-62.400	-8191	255	
6650.782	1	1	0	0	0.21689	0.066666	0.28525	0.18552	0.11125	0.24417	0.17764	0.24907	0.26007	0.16662	0.12396	0.055811	0.12195	0.27678	0.13598	0.056623	-2.4125	-2.9854	-2.3292	-2.8812	-2.5917	-2.6396	-2.8958	-2.6625	-2.7687	-2.7771	-2.7125	-2.7396	-2.7875	-2.5771	-2.6917	-2.6708	222.935	226.141	242.198	178.213	76.908	-2.676	180.268	230.939	-18.295	-45.794	199.874	40.223	159.521	196.002	-76.568	-77.535	4.61e-05	0.00036989	9.7313e-05	1262.8	6.7025e-07	2.5794e-06	1320.2	253.15	1.6394e-06	2.7906e-06	318.41	88.775	69.982	19.997	1.145e-06	27.961	0.00011446	0.00010568	3.0703e-05	969.69	1.2757e-06	1.226e-06	1202.4	232.74	1.3346e-06	1.2212e-06	281.1	80.817	63.572	18.117	1.2727e-06	25.085	220.929	12.932	-66.243	-82.493	185.846	-33.694	-82.381	-75.591	53.789	163.820	-75.874	-69.380	-68.971	-62.251	138.490	-62.518	-8191	255	
6650.876	1	1	0	0	0.094519	0.13336	0.10934	0.16861	0.14806	0.19868	0.19321	0.1918	0.1536	0.24398	0.10811	0.18717	0.1363	0.076739	0.17276	0.2046	-2.1542	-2.8354	-2.6667	-2.7583	-2.9229	-2.4521	-3.0187	-2.7792	-2.5146	-3.1354	-2.5167	-2.8896	-3.0021	-2.5958	-2.6937	-2.775	-62.972	231.710	-74.315	229.276	84.393	224.262	235.249	238.247	233.367	-50.937	209.746	228.047	228.894	81.272	218.997	-75.598	3.404e-05	0.00054719	5.1234e-05	1257.6	8.0616e-07	3.3493e-06	1316.4	252.53	2.2547e-06	1.6748e-06	314.35	88.292	69.626	19.824	1.7309e-06	27.765	0.00011595	0.00010521	3.1823e-05	966.67	1.1945e-06	1.1327e-06	1203	231.66	1.1634e-06	1.0712e-06	278.31	79.834	62.575	17.838	1.1437e-06	24.55	125.336	-38.916	164.870	-82.806	16.620	29.939	-82.462	-75.143	-66.959	-64.294	-75.695	-69.397	-69.336	-62.252	35.344	-62.069	-8191	255	
6650.997	1	1	0	0	0.079301	0.18544	0.22819	0.041347	0.10185	0.20829	0.074884	0.058859	0.1761	0.066624	0.14936	0.36621	0.19494	0.12209	0.11779	0.088094	-2.2542	-2.8354	-2.7271	-2.8021	-2.7125	-2.5104	-3.0583	-2.5625	-2.7042	-2.9375	-2.5833	-2.8125	-3.1125	-2.5	-2.9167	-2.8646	229.787	263.991	242.711	116.042	-30.233	64.158	152.642	-11.793	-13.656	13.019	-24.556	152.158	-86.142	-14.918	-26.034	211.094	0.00011044	0.00018764	0.00013675	1243.1	2.6484e-06	3.9879e-07	1309.9	251.31	2.9813e-06	1.6898e-06	316.13	87.762	69.788	19.759	2.1404e-06	27.724	9.9294e-05	9.2245e-05	2.8737e-05	950.6	1.046e-06	1.0258e-06	1194.7	229.18	1.0632e-06	1.0342e-06	277.12	79.203	62.293	17.782	1.1576e-06	24.596	204.040	-62.225	-66.966	-82.485	0.611	-45.899	-82.239	-75.436	-41.900	23.664	-75.628	-69.453	-69.066	-62.093	-63.710	-62.297	-8191	255	
6651.093	1	1	0	0	0.14105	0.12214	0.12215	0.10341	0.012127	0.1053	0.2643	0.38666	0.13569	0.072266	0.24489	0.064091	0.1507	0.14209	0.16237	0.25768	-2.1	-2.8896	-2.7292	-2.7354	-2.8542	-2.6667	-3.0146	-2.9896	-2.6437	-2.85	-2.6188	-2.8542	-2.8438	-2.5354	-2.7771	-2.7354	254.641	23.930	-83.671	249.984	-6.219	104.807	144.892	227.964	9.699	229.270	120.717	114.501	224.356	249.038	180.836	210.234	5.6221e-05	0.00014318	6.4017e-05	1257.7	3.0124e-06	1.193e-06	1317.5	250.4	1.4229e-06	1.7169e-06	317.78	88.067	69.174	19.803	1.6838e-06	27.788	9.8249e-05	9.7147e-05	2.9524e-05	954.68	1.0442e-06	1.0999e-06	1198.5	229.37	1.0531e-06	1.102e-06	277.95	79.618	62.33	17.913	1.1646e-06	24.631	-92.587	-16.517	-93.603	-82.122	20.696	37.885	-82.264	-75.633	126.671	255.519	-75.353	-69.264	-68.860	-61.686	-55.746	-62.193	-8191	255	
6651.189	1	1	0	0	0.34379	0.21641	0.0038715	0.18118	0.11972	0.071203	0.21846	0.17867	0.18935	0.054705	0.11615	0.093637	0.23778	0.052082	0.10552	0.075913	-1.9729	-2.8667	-2.5917	-2.7125	-3.0208	-2.5812	-2.9938	-2.8271	-2.2521	-3.0167	-2.7958	-2.6083	-3.1146	-2.6188	-2.7938	-2.9208	159.695	99.676	246.235	216.995	234.794	211.198	259.375	248.340	45.687	212.051	-16.802	12.328	73.940	-60.031	252.259	195.311	4.5234e-05	5.5686e-05	7.9476e-05	1259.1	1.1235e-06	4.2647e-06	1319.8	251.97	4.4052e-06	1.9394e-06	318.69	87.647	69.363	19.923	3.2383e-06	27.792	9.8669e-05	0.00010418	2.9854e-05	958.15	1.0435e-06	1.1634e-06	1201.6	230.14	1.0723e-06	1.1734e-06	278.12	79.456	62.375	17.97	1.1382e-06	24.61	224.975	-62.825	-16.714	-82.195	-19.480	31.936	-82.429	-75.466	93.149	-31.258	-75.790	-69.345	-69.262	-61.821	-1.684	-61.993	-8191	255	
6651.261	1	1	0	0	0.14829	0.072038	0.071779	0.33262	0.044204	0.17997	0.24625	0.11506	0.21292	0.14488	0.2052	0.2621	0.11079	0.28205	0.14339	0.14956	-2.0229	-2.7729	-2.6875	-2.6771	-2.7208	-2.6521	-2.8396	-2.7188	-2.6063	-3.0938	-2.4667	-2.6437	-2.8937	-2.4938	-2.7208	-3.0542	130.367	245.931	136.831	196.373	105.520	-9.124	240.908	157.664	-66.170	22.569	-87.597	150.064	-22.857	108.585	65.200	-67.010	0.00011275	0.00019786	0.00010409	1258.4	2.1776e-06	2.2743e-06	1309.7	250.53	1.8995e-06	5.7298e-06	316.91	87.576	69.619	19.789	2.3505e-06	27.708	9.9338e-05	0.00010826	2.8751e-05	954.38	1.0813e-06	1.2122e-06	1199.2	229.28	1.1485e-06	1.233e-06	277.47	79.296	62.687	18.057	1.2101e-06	24.606	205.217	-28.141	-71.487	-82.527	199.124	104.651	-82.348	-75.277	188.710	56.162	-75.716	-69.289	-69.395	-62.106	191.890	-62.451	-8191	255	
6651.381	1	1	0	0	0.16396	0.23633	0.19848	0.19123	0.10273	0.20825	0.30523	0.036337	0.13196	0.041768	0.21289	0.15689	0.30726	0.098543	0.090921	0.042174	-2.1792	-3.1292	-2.6667	-2.3104	-2.9854	-2.6729	-2.9125	-2.9771	-2.6042	-3	-2.7542	-2.6896	-2.8604	-2.7313	-2.5458	-2.9042	-53.320	257.647	105.941	136.014	-53.653	260.648	221.120	197.700	22.738	-29.665	227.654	197.410	262.326	204.314	222.204	266.167	6.5524e-05	4.2651e-05	9.5866e-05	1255.9	9.4938e-07	8.5205e-07	1314.8	250.97	3.6192e-06	4.407e-06	316.72	87.571	69.206	19.672	1.3063e-06	27.725	0.00011128	0.0001183	3.0558e-05	958.63	1.216e-06	1.2967e-06	1199.4	229.54	1.2668e-06	1.2923e-06	277.75	79.444	62.947	18.08	1.2352e-06	24.599	206.735	-67.226	247.701	-82.671	101.262	107.638	-82.140	-75.592	253.732	-77.650	-75.642	-69.205	-69.234	-61.915	-3.332	-62.053	-8191	255	
6651.477	1	1	0	0	0.18635	0.3779	0.02394	0.12268	0.25113	0.28472	0.18379	0.089972	0.075835	0.4014	0.086367	0.18498	0.16709	0.085109	0.23048	0.09068	-2.2604	-2.7271	-2.7479	-2.6813	-2.8458	-2.5438	-2.8854	-3.1188	-2.4521	-2.6021	-2.9708	-2.7125	-2.9396	-2.5896	-2.6188	-2.8708	185.533	229.385	47.150	216.148	-91.919	177.406	191.133	-44.373	163.819	64.590	-45.619	240.829	262.412	94.859	184.753	175.006	8.3252e-05	0.00019799	0.00010581	1251.7	2.2914e-06	3.8279e-06	1307.3	248.39	2.3239e-06	4.1866e-06	314.57	86.658	68.84	19.724	9.0663e-07	27.608	0.00011942	0.00011854	3.0684e-05	954.72	1.2875e-06	1.2707e-06	1191.7	228.1	1.2809e-06	1.2207e-06	275.08	78.607	62.4	17.792	1.0923e-06	24.337	165.594	234.058	264.748	-82.975	212.503	-19.836	-82.367	-75.519	-53.972	53.744	-75.474	-68.957	-69.189	-61.677	73.358	-62.114	-8191	255	
6651.574	1	1	0	0	0.051519	0.3062	0.20852	0.2534	0.25306	0.10203	0.090469	0.30967	0.019693	0.1294	0.060848	0.30809	0.33652	0.18826	0.072178	0.20914	-1.8979	-2.6667	-2.9021	-2.4396	-2.7271	-2.8104	-2.8583	-2.7896	-2.4188	-2.575	-3.1333	-2.4042	-3.0771	-2.7	-2.4625	-2.8521	-0.276	-86.061	80.922	247.152	254.111	57.762	257.450	-59.933	88.176	-71.245	181.506	-67.477	247.030	259.658	-48.706	-62.344	2.7636e-05	0.00012005	1.8162e-05	1247.1	2.534e-06	5.923e-06	1300.8	246.86	1.2854e-06	1.685e-06	313.36	87.188	68.568	19.558	9.101e-07	27.615	0.00010961	0.00010208	2.6355e-05	941.22	1.1528e-06	1.0762e-06	1180.4	225.5	1.1289e-06	1.0463e-06	272.14	78.181	61.796	17.559	9.7041e-07	24.203	-80.145	44.366	226.792	-82.833	38.035	69.807	-82.203	-75.334	10.495	-88.420	-75.703	-69.334	-68.938	-62.017	13.408	-62.139	-8191	255	
6651.670	1	1	0	0	0.17083	0.022013	0.095845	0.079862	0.13213	0.27847	0.1627	0.052959	0.16441	0.16909	0.24571	0.19308	0.10241	0.14767	0.14518	0.18912	-2.3167	-2.6354	-2.8542	-2.6417	-2.8604	-2.775	-2.7146	-3.0938	-2.5167	-2.6792	-3.0229	-2.4396	-2.6813	-2.8583	-2.675	-3.0625	123.781	61.174	32.877	235.815	91.636	105.601	234.143	69.379	-44.283	31.852	172.451	111.129	171.370	-37.627	42.650	81.697	0.00012114	5.7171e-05	9.9194e-05	1237.5	2.4498e-06	1.7725e-06	1293.3	247.51	2.3808e-06	2.2343e-06	310.25	86.962	67.967	19.486	1.4638e-06	27.476	9.8723e-05	9.2168e-05	2.3327e-05	935.37	1.053e-06	9.7718e-07	1173.1	224.71	1.0423e-06	9.9342e-07	269.89	78.258	61.209	17.461	9.4328e-07	24.237	238.012	192.717	-51.304	-82.318	17.524	32.060	-82.331	-75.378	17.840	-42.224	-75.735	-69.122	-68.580	-62.138	-35.298	-61.895	-8191	255	
6651.789	1	1	0	0	0.15713	0.15214	0.14914	0.13214	0.266	0.17842	0.073848	0.40866	0.25749	0.19165	0.066052	0.10584	0.20425	0.098321	0.023716	0.2297	-1.9833	-2.7083	-2.9875	-2.5396	-2.7208	-2.7667	-2.7354	-2.8563	-2.6688	-2.6188	-3.0333	-2.5583	-2.9396	-2.7062	-2.4188	-2.9146	-89.658	-73.869	50.668	-43.142	3.315	225.199	221.217	227.439	1.864	3.486	105.391	162.515	253.645	-39.974	23.724	239.565	7.5281e-05	0.0001767	1.5988e-05	1228.2	9.3945e-07	1.1295e-06	1292.2	245.75	2.9865e-06	4.0814e-06	310.06	87.039	68.228	19.551	6.2723e-07	27.506	9.6384e-05	9.1788e-05	2.3629e-05	931.79	1.0371e-06	9.5928e-07	1171.7	224.81	1.0145e-06	9.5441e-07	269.72	77.947	61.138	17.417	9.3868e-07	24.217	199.245	-23.678	159.951	-82.698	12.898	8.124	-82.366	-75.573	1.372	-49.154	-75.585	-69.361	-69.085	-61.396	176.402	-62.099	-8191	255	
6651.885	1	1	0	0	0.073326	0.20367	0.18095	0.11027	0.1681	0.034706	0.26054	0.39661	0.17988	0.15815	0.1954	0.041454	0.098286	0.21641	0.27435	0.13357	-2.3187	-2.5167	-2.8896	-2.7333	-2.6437	-2.9479	-2.7438	-2.9188	-2.8292	-2.6417	-2.9562	-2.6	-2.7979	-2.9417	-2.4979	-2.7958	-82.095	14.012	44.367	222.650	-21.762	28.494	233.016	-63.531	40.521	35.384	93.840	219.972	-69.173	248.193	-57.357	-14.582	9.0278e-05	0.00013969	2.8759e-05	1239.4	3.8914e-06	3.1735e-06	1292.3	245.9	8.9258e-07	2.8254e-06	310.38	86.493	68.254	19.62	1.1245e-06	27.581	9.0934e-05	8.6774e-05	2.3935e-05	935.23	1.01e-06	9.382e-07	1171.4	224.98	1.0148e-06	9.7756e-07	270.82	78.102	61.368	17.48	1.0315e-06	24.412	200.358	91.064	-44.627	-82.952	98.910	49.910	-82.262	-75.231	91.481	-7.387	-75.639	-69.086	-68.744	-61.955	37.789	-62.248	-8191	255	
6651.958	1	1	0	0	0.11706	0.06816	0.11222	0.25503	0.20171	0.22506	0.024612	0.078546	0.27604	0.046198	0.090866	0.029001	0.14233	0.24797	0.17964	0.20831	-2.3333	-2.5542	-2.9042	-2.4	-2.65	-2.9417	-2.8375	-2.9167	-2.5542	-2.5771	-3.0229	-2.675	-2.6479	-2.9979	-2.4854	-2.75	141.087	34.184	65.668	-1.500	109.535	147.802	-73.235	-13.646	184.784	143.329	182.055	-62.427	37.097	197.356	-78.461	102.670	8.6867e-05	0.00058626	5.4433e-05	1234.1	1.7153e-06	3.3322e-07	1289.6	247.13	1.817e-06	3.3925e-06	310.83	86.997	68.431	19.643	1.5349e-06	27.824	9.5208e-05	8.9688e-05	2.6232e-05	939.19	1.0586e-06	9.6854e-07	1176.4	225.68	1.0565e-06	9.9712e-07	272.09	78.28	61.58	17.582	1.1172e-06	24.565	186.913	-64.409	176.836	-82.119	-58.892	235.746	-82.310	-75.443	261.813	33.346	-75.768	-69.124	-68.977	-61.550	91.142	-62.486	-8191	255	
6652.077	1	1	0	0	0.082539	0.21289	0.21718	0.064325	0.011594	0.17151	0.13793	0.27987	0.13646	0.22237	0.17391	0.18558	0.28412	0.085706	0.018861	0.26918	-2.3771	-2.3146	-2.7958	-2.7042	-2.5667	-2.9792	-2.6271	-2.6521	-2.7729	-2.4333	-2.8917	-2.7833	-2.5792	-3.1042	-2.6417	-2.925	45.589	41.305	-16.550	168.265	-4.901	93.445	199.332	-92.163	165.602	-29.509	-82.038	165.733	-41.418	163.783	78.302	202.099	4.9142e-05	0.00019002	6.0876e-05	1236.2	2.8201e-06	2.9279e-06	1295.8	248.25	1.3082e-06	8.7378e-07	312.19	87.115	68.329	19.71	1.8956e-06	27.506	9.7968e-05	9.5001e-05	2.9217e-05	943.08	1.0931e-06	1.0437e-06	1182.7	226.54	1.0945e-06	1.0887e-06	274.42	78.858	61.901	17.791	1.242e-06	24.689	220.541	-2.770	-81.746	-82.905	62.844	-86.643	-82.292	-75.331	-12.747	-51.675	-75.740	-69.316	-68.964	-61.837	256.391	-62.275	-8191	255	
6652.173	1	1	0	0	0.16535	0.089902	0.098084	0.1137	0.31624	0.26086	0.093098	0.26026	0.17227	0.18156	0.2471	0.3309	0.17215	0.12063	0.034559	0.13344	-2.4833	-2.4167	-2.8125	-2.8479	-2.7229	-2.8354	-2.7604	-2.6104	-2.8083	-2.7375	-3.0333	-2.7542	-2.4875	-3.0708	-2.7667	-2.7667	-39.077	70.865	146.510	107.851	-23.262	201.366	-80.574	189.242	56.233	174.426	246.909	-64.230	229.801	-42.369	237.556	59.921	2.1112e-05	0.00016354	0.00010096	1241.5	1.2096e-06	1.8607e-06	1295	248.41	2.5401e-06	3.3719e-06	312.11	87.627	68.332	19.704	4.3753e-06	27.767	0.00010387	0.00010632	3.2363e-05	948.71	1.161e-06	1.1842e-06	1185.8	227.6	1.1421e-06	1.2271e-06	275.56	79.249	62.095	17.976	1.293e-06	24.789	183.430	-39.999	265.182	-82.653	-1.297	-35.614	-82.378	-75.434	49.985	222.007	-75.373	-69.198	-68.725	-62.208	-21.561	-61.676	-8191	255	
6652.269	1	1	0	0	0.14285	0.066067	0.14297	0.18866	0.15729	0.070534	0.25139	0.092611	0.048405	0.070616	0.14982	0.1044	0.098224	0.13403	0.19547	0.16853	-2.4292	-2.6937	-2.875	-2.6104	-2.4708	-3.0167	-2.8063	-2.5104	-2.9417	-2.6167	-3.0125	-2.675	-2.7771	-2.9604	-2.5792	-2.6792	153.588	5.675	-80.101	210.218	128.728	156.296	-71.084	-23.696	86.711	-42.738	-29.159	155.562	48.950	180.790	224.821	89.399	6.0823e-05	9.1232e-05	4.2089e-05	1236.6	9.6947e-07	1.1293e-06	1295.9	247.97	2.4948e-06	1.5288e-06	312.91	87.932	68.543	19.754	4.7846e-06	27.771	0.00010621	0.00011641	3.3169e-05	951.47	1.1918e-06	1.2938e-06	1189.6	228	1.1559e-06	1.2997e-06	276.4	79.414	62.202	18.057	1.2524e-06	24.761	174.608	-49.892	-5.983	-82.781	-65.535	-30.745	-82.193	-75.393	29.902	-69.124	-75.671	-69.376	-68.662	-62.012	16.092	-61.960	-8191	255	
6652.390	1	1	0	0	0.26809	0.18407	0.18306	0.034869	0.039719	0.133	0.20658	0.057684	0.10314	0.15395	0.087368	0.21121	0.30039	0.14015	0.21893	0.30446	-2.375	-2.7062	-2.7229	-2.8	-2.4917	-2.9646	-2.8667	-2.4354	-2.8417	-2.5333	-2.8521	-2.9208	-2.5208	-2.7375	-2.75	-2.6063	209.198	135.987	-11.383	149.604	-50.435	142.452	180.239	-52.112	214.216	190.388	-77.211	20.462	183.963	58.747	-55.350	204.498	9.4422e-05	0.00021807	1.979e-05	1235.5	4.1549e-07	3.3621e-06	1302.7	248.26	6.3789e-07	3.9037e-06	313.61	86.899	68.665	19.821	1.394e-06	27.821	0.00010594	0.00011864	3.1458e-05	947.42	1.1603e-06	1.2685e-06	1184.7	227.37	1.1478e-06	1.2703e-06	274.89	78.586	62.047	17.936	1.1599e-06	24.527	193.776	-31.360	-73.787	-82.468	56.555	98.455	-82.420	-75.251	85.271	10.430	-75.521	-69.191	-69.137	-61.912	82.185	-62.177	-8191	255	
6652.486	1	1	0	0	0.16463	0.070082	0.049173	0.23921	0.15312	0.10349	0.1659	0.29336	0.11165	0.26369	0.34342	0.22599	0.10042	0.07336	0.17339	0.20184	-2.4938	-2.5417	-2.4958	-2.8958	-2.5438	-2.6896	-2.7812	-2.8	-2.7125	-2.5438	-2.8521	-2.9771	-2.5354	-2.725	-2.7583	-2.6063	32.793	61.082	209.605	251.430	211.298	109.846	263.990	210.370	45.325	49.735	228.014	238.564	98.858	93.191	-28.013	162.010	0.00011835	0.00021602	5.6403e-05	1234.8	2.2944e-06	1.6713e-06	1291.8	247.43	5.1466e-07	1.6405e-06	312.15	86.597	68.54	19.74	2.4532e-06	27.798	0.00010475	0.00011157	2.9226e-05	936.22	1.1493e-06	1.2049e-06	1177.2	226	1.1617e-06	1.216e-06	273.69	78.398	62.1	17.941	1.1302e-06	24.528	195.173	-33.358	-38.502	-82.716	10.579	-29.816	-82.540	-75.698	154.291	254.119	-75.811	-69.539	-68.697	-61.675	-49.960	-62.302	-8191	255	
6652.558	1	1	0	0	0.13105	0.4095	0.13471	0.11695	0.18303	0.074838	0.084076	0.31362	0.3047	0.48161	0.073578	0.22546	0.14687	0.19844	0.060739	0.29963	-2.5021	-2.675	-2.6312	-2.675	-2.5292	-2.8937	-2.7792	-2.5521	-2.9375	-2.6021	-2.6896	-2.9521	-2.575	-2.8604	-2.9458	-2.7542	206.198	-10.399	212.307	147.242	-31.791	-50.227	140.206	206.004	-33.020	112.256	-53.014	221.209	251.157	-12.880	214.714	258.271	7.9922e-05	2.7634e-05	9.8113e-05	1225.9	7.8575e-07	2.0219e-06	1296.4	248.26	2.8898e-06	5.7124e-06	312.65	86.531	68.216	19.748	5.9401e-06	27.527	0.00011089	0.00011052	2.9427e-05	937.01	1.2227e-06	1.2083e-06	1181.2	226.39	1.203e-06	1.1639e-06	273.44	78.34	62.056	17.796	1.0711e-06	24.418	144.917	88.587	-87.862	-82.894	200.970	113.736	-82.280	-75.460	183.179	23.077	-75.752	-69.200	-68.791	-61.629	30.125	-62.124	-8191	255	
6652.678	1	1	0	0	0.10842	0.26077	0.23748	0.099219	0.24139	0.087778	0.1525	0.29629	0.22972	0.18654	0.16275	0.15212	0.046343	0.21343	0.14771	0.24189	-2.3917	-2.5229	-2.375	-3.0792	-2.6042	-2.7229	-2.8458	-2.5917	-2.7729	-2.4688	-2.6271	-2.8021	-2.3583	-2.8375	-3.0625	-2.4479	202.206	101.190	-72.242	101.832	161.379	-52.249	-57.608	235.905	206.536	152.250	-36.373	118.406	203.649	116.739	-86.873	205.721	7.7652e-05	0.00018707	3.0136e-05	1234.6	2.4466e-06	3.5519e-06	1289	248.25	1.703e-06	2.3491e-06	311.99	86.858	68.466	19.747	2.0164e-06	27.478	0.00010918	0.0001031	2.7434e-05	936.34	1.1847e-06	1.1368e-06	1175.4	225.98	1.1867e-06	1.1068e-06	272.44	78.324	62.041	17.782	1.0057e-06	24.469	200.302	-4.057	229.508	-82.458	263.499	-4.173	-82.403	-75.355	234.490	8.942	-75.528	-69.035	-68.949	-62.001	-57.879	-62.297	-8191	255	
6652.773	1	1	0	0	0.14434	0.30166	0.13483	0.163	0.22852	0.21615	0.28683	0.19989	0.19865	0.024141	0.12367	0.28356	0.064506	0.14712	0.054256	0.22483	-2.3729	-2.6958	-2.3187	-2.8688	-2.6521	-2.7562	-2.9896	-2.5604	-2.7812	-2.5854	-2.5146	-3.0146	-2.6958	-2.6271	-2.8792	-2.6333	156.200	-88.951	-73.170	123.574	186.049	-63.795	159.341	112.511	-20.792	104.370	-54.659	-64.312	-28.787	145.892	102.050	-74.879	8.2967e-05	0.00042345	0.00013871	1229.9	9.0595e-07	2.5986e-06	1289	245.58	1.993e-06	1.589e-07	311.29	86.577	68.462	19.606	1.5431e-06	27.697	0.00010658	9.7085e-05	2.5863e-05	935.05	1.1266e-06	1.0531e-06	1173.9	225.36	1.1218e-06	1.0113e-06	271.51	78.275	61.727	17.67	9.7148e-07	24.539	225.202	-78.780	-46.477	-82.492	145.141	48.762	-82.234	-75.419	25.293	192.611	-75.468	-69.273	-68.842	-62.433	196.692	-61.913	-8191	255	
6652.869	1	1	0	0	0.13443	0.31726	0.17527	0.11343	0.12921	0.28957	0.43751	0.18686	0.024434	0.29547	0.11312	0.13697	0.12871	0.26472	0.12544	0.17169	-2.0958	-2.9188	-2.4458	-2.8854	-2.5917	-2.6167	-2.9375	-2.6875	-2.775	-2.7208	-2.6917	-2.7583	-2.7667	-2.6104	-2.8708	-2.7562	91.057	102.490	131.405	174.373	57.996	-28.393	191.661	82.172	124.245	103.239	-18.118	88.097	180.109	56.992	64.641	1.117	3.0676e-05	0.00024957	5.0319e-05	1226.4	2.8239e-06	3.5196e-06	1293.1	247.45	2.6178e-06	3.2422e-06	310.99	86.727	68.402	19.756	3.9614e-06	27.738	0.0001023	9.3345e-05	2.5479e-05	939.61	1.1081e-06	1.0669e-06	1176.1	226.34	1.1533e-06	1.0668e-06	272.64	78.75	62.048	17.771	1.0544e-06	24.751	236.026	-43.759	-57.605	-82.555	-88.757	0.890	-82.431	-75.511	67.663	-12.979	-75.568	-69.398	-68.840	-61.961	-23.838	-61.928	-8191	255	
6652.965	1	1	0	0	0.20105	0.27447	0.13411	0.33844	0.045496	0.077179	0.20576	0.28825	0.057204	0.11685	0.20935	0.10422	0.11316	0.24312	0.048791	0.18902	-2.325	-2.7458	-2.5521	-3.1125	-2.6458	-2.6146	-3.1042	-2.525	-2.8125	-2.7875	-2.5938	-2.8563	-2.6542	-2.5729	-3.0479	-2.6937	210.376	41.113	-21.965	-42.445	195.775	91.339	181.466	207.518	205.820	-36.611	121.681	256.389	142.899	-52.658	107.576	221.345	5.9666e-05	0.00048081	6.4345e-05	1232.3	2.5286e-06	3.9244e-06	1291.2	247.57	1.0789e-06	1.6844e-06	312.55	86.81	68.448	19.858	1.2894e-06	27.892	0.00010709	9.6939e-05	2.7755e-05	944.32	1.1377e-06	1.0852e-06	1176.3	227.25	1.1637e-06	1.0713e-06	274.11	78.886	61.966	17.77	1.1382e-06	24.818	255.463	-37.986	-46.893	-82.444	15.489	4.823	-82.411	-75.120	30.104	-21.363	-75.564	-69.028	-68.990	-61.805	-89.228	-62.204	-8191	255	
6653.086	1	1	0	0	0.023342	0.23873	0.031381	0.10329	0.26996	0.17075	0.11951	0.015845	0.19578	0.17533	0.2194	0.23614	0.14698	0.2094	0.11868	0.16027	-2.1458	-2.8542	-2.3229	-3.0479	-2.5812	-2.6979	-3.0583	-2.6167	-2.8042	-3.1583	-2.4771	-2.7938	-2.9271	-2.2521	-2.8979	-2.6708	80.344	-14.057	-78.089	97.226	261.065	235.166	-66.818	204.254	155.097	-46.768	56.172	189.326	-41.088	211.832	56.839	-18.353	9.8851e-05	0.00013327	6.4292e-06	1237.6	1.1963e-06	3.166e-06	1291.3	246.67	1.8119e-06	8.6359e-07	311.17	86.963	68.686	19.794	4.0731e-06	27.736	0.00010917	9.8244e-05	3.0606e-05	949.21	1.1682e-06	1.1244e-06	1181.1	227.27	1.1943e-06	1.0863e-06	275.09	78.889	62.007	17.825	1.2283e-06	24.802	205.355	29.691	-31.723	-82.601	36.160	43.926	-82.314	-75.749	72.628	85.773	-75.620	-69.263	-69.241	-62.255	242.809	-62.144	-8191	255	
6653.182	1	1	0	0	0.15901	0.22161	0.42362	0.036754	0.14225	0.065456	0.33848	0.24649	0.027933	0.13489	0.098092	0.22005	0.057973	0.21567	0.23783	0.099492	-2.3083	-2.5854	-2.6667	-2.6771	-2.7917	-2.6	-3.1042	-2.5375	-2.5833	-2.8812	-2.8083	-2.7125	-2.75	-2.4167	-2.8354	-2.8229	-77.709	145.127	128.510	243.078	84.257	-54.032	203.351	231.520	22.651	129.710	-32.237	171.651	52.150	154.393	-26.115	155.091	1.046e-05	5.2792e-05	8.3753e-05	1224.7	1.1747e-06	2.3735e-06	1292.7	247.71	6.118e-07	4.0402e-06	311.59	87.071	68.632	19.593	4.4892e-06	27.704	0.000107	9.8631e-05	3.1241e-05	943.29	1.1e-06	1.0659e-06	1180.6	226.64	1.0862e-06	1.0288e-06	274.2	78.742	61.721	17.711	1.1489e-06	24.599	13.080	-67.928	-34.091	-82.364	41.890	29.670	-82.171	-75.546	-91.994	52.942	-75.738	-69.109	-69.010	-61.989	-22.853	-62.099	-8191	255	
6653.254	1	1	0	0	0.14204	0.17439	0.16364	0.16541	0.16026	0.39409	0.17305	0.037803	0.15777	0.14185	0.13912	0.10142	0.16871	0.14922	0.19737	0.15997	-2.1625	-2.8958	-2.5229	-2.875	-2.7313	-2.4583	-2.9146	-2.775	-2.5417	-3.0042	-2.6063	-2.6896	-2.6354	-2.5708	-2.6354	-2.7125	64.189	242.346	252.170	5.434	216.161	195.325	262.602	-83.864	-36.555	-0.030	185.046	238.288	251.444	-76.473	186.938	210.502	9.8257e-05	8.4798e-05	8.3165e-05	1240.3	6.6333e-07	1.1887e-06	1291.6	247.63	2.605e-06	2.2984e-06	311.99	86.964	68.822	19.778	1.6223e-06	27.971	9.6315e-05	9.3584e-05	2.8956e-05	938.95	1.0194e-06	1.065e-06	1179.8	226.33	1.0562e-06	1.0898e-06	274.24	78.703	61.745	17.879	1.1781e-06	24.736	186.973	79.922	15.366	-82.245	14.545	112.406	-82.303	-75.379	143.974	195.772	-75.776	-69.557	-69.194	-62.191	118.048	-62.399	-8191	255	
6653.350	1	1	0	0	0.24489	0.10072	0.34913	0.17803	0.062052	0.13635	0.14265	0.20845	0.31266	0.23417	0.19836	0.16088	0.15572	0.21786	0.15476	0.28034	-2.0062	-2.95	-2.5021	-2.5625	-2.8937	-2.3917	-2.9646	-2.6688	-2.5542	-2.9146	-2.7188	-2.7188	-2.8375	-2.3312	-2.85	-2.7979	259.877	183.903	238.475	235.320	138.876	195.308	-91.888	183.230	134.260	190.038	-71.074	98.704	-91.531	117.786	72.075	240.579	2.9951e-05	0.00020838	8.8239e-05	1233.7	3.1164e-06	1.7675e-06	1296	247.87	2.666e-06	2.4952e-06	313.36	87.551	68.501	19.85	3.3532e-06	28.099	9.8934e-05	0.0001047	3.0347e-05	943.18	1.0482e-06	1.1892e-06	1184.3	227.39	1.0888e-06	1.1895e-06	275.74	78.95	61.987	17.995	1.1945e-06	24.767	-72.936	37.618	257.607	-82.478	243.861	-39.752	-82.374	-75.604	56.907	107.282	-75.630	-69.458	-69.013	-62.012	27.563	-62.225	-8191	255	
6653.470	1	1	0	0	0.090451	0.21601	0.2404	0.29391	0.14283	0.039382	0.36432	0.099651	0.21766	0.0041065	0.2446	0.27844	0.35914	0.18394	0.28696	0.24577	-2.0875	-2.7771	-2.5354	-2.5979	-2.8417	-2.5583	-2.675	-2.875	-2.7083	-2.8146	-2.6	-2.6354	-2.9292	-2.4958	-2.5396	-3.0062	-35.469	254.616	52.629	156.579	136.176	94.100	235.569	147.626	239.018	186.624	-60.734	196.920	-36.000	95.840	48.096	-67.776	8.3706e-05	0.00017521	3.3215e-05	1232.1	1.7886e-06	2.5703e-06	1299.5	247.99	1.635e-06	3.4915e-06	312.6	86.822	68.511	19.688	1.7344e-06	27.965	0.00010259	0.00011249	3.0075e-05	942.53	1.102e-06	1.2354e-06	1184	227.08	1.1307e-06	1.2396e-06	274.59	78.582	61.929	17.963	1.1412e-06	24.678	174.739	-60.110	237.956	-82.435	131.055	65.875	-82.119	-75.227	160.379	50.126	-75.828	-69.287	-69.073	-61.970	77.069	-62.180	-8191	255	
6653.567	1	1	0	0	0.21991	0.17636	0.12404	0.27491	0.033067	0.10106	0.20342	0.096382	0.11067	0.14678	0.25949	0.19486	0.236	0.25142	0.18686	0.018536	-2.1146	-2.8563	-2.6479	-2.7021	-2.8667	-2.6604	-2.8	-2.9271	-2.4979	-2.7771	-2.8604	-2.6583	-2.9083	-2.6667	-2.6271	-2.8333	165.871	263.935	6.288	225.342	204.344	-83.460	229.754	-54.260	179.066	-13.114	201.515	13.045	172.059	-75.582	149.136	-87.770	0.00011671	0.00025501	1.544e-05	1237.8	3.9315e-06	2.9864e-06	1297	248.32	4.1424e-06	2.4938e-06	312.85	87.272	69.234	19.716	7.3666e-07	27.944	0.00010439	0.00011077	2.857e-05	941.06	1.1399e-06	1.2158e-06	1182.4	227.18	1.1664e-06	1.2083e-06	274.84	78.734	62.498	17.965	1.1489e-06	24.751	200.995	-52.062	-89.895	-82.331	100.601	115.700	-82.276	-75.437	61.384	-22.684	-75.366	-69.349	-69.067	-62.094	188.774	-62.224	-8191	255	
6653.663	1	1	0	0	0.13163	0.14962	0.20423	0.13654	0.076877	0.39884	0.17306	0.12743	0.092785	0.079569	0.10767	0.1362	0.14407	0.14262	0.13797	0.17178	-2.1458	-2.6292	-2.7542	-2.4417	-2.9854	-2.2938	-2.7354	-2.8937	-2.4271	-2.775	-2.7125	-2.5729	-2.6958	-2.5625	-2.7687	-2.8229	73.183	-26.340	-73.118	157.759	231.565	43.484	246.569	-75.992	136.529	100.264	-93.500	169.627	-78.517	132.424	-3.249	201.454	6.4191e-05	0.00020777	6.5336e-05	1238.9	1.9004e-06	2.9963e-06	1302.2	250.03	1.8672e-06	2.6629e-06	313.71	87.668	68.854	19.919	1.7668e-06	27.975	0.00011161	0.00011194	2.8634e-05	943.64	1.1927e-06	1.1869e-06	1185.4	227.79	1.2132e-06	1.1796e-06	275.29	79.056	62.633	17.976	1.0969e-06	24.735	204.758	-17.178	-83.485	-82.794	-92.038	-21.027	-82.249	-75.565	266.216	73.436	-75.578	-69.165	-69.399	-62.303	-9.660	-62.098	-8191	255	
6653.759	1	1	0	0	0.1307	0.12299	0.23361	0.095478	0.10045	0.13339	0.28745	0.29452	0.12233	0.15454	0.47709	0.1743	0.15933	0.024723	0.14471	0.10583	-2.2812	-2.5438	-2.7812	-2.7146	-2.9354	-2.7417	-2.6146	-2.9146	-2.7583	-2.875	-2.7604	-2.6708	-2.8479	-2.7708	-2.4896	-2.9437	252.722	-26.089	172.493	89.779	178.865	157.713	232.434	226.105	167.839	-92.280	217.997	115.425	71.193	-74.623	184.201	20.959	9.2902e-05	0.00018426	0.00011006	1234.7	9.1013e-07	1.5965e-06	1299.4	248.88	1.2916e-06	4.8301e-06	313.55	87.789	68.794	19.849	1.6857e-06	28.014	0.00011139	0.00010425	2.6632e-05	943.99	1.1858e-06	1.0959e-06	1184.4	227.47	1.1836e-06	1.1157e-06	274.08	79.003	62.385	17.815	1.0199e-06	24.696	194.804	-32.783	-69.462	-82.462	-32.017	40.569	-82.244	-75.309	-71.768	34.539	-75.942	-69.438	-69.017	-61.741	53.901	-62.415	-8191	255	
6653.855	1	1	0	0	0.1421	0.30321	0.13583	0.12694	0.32272	0.10524	0.31537	0.43771	0.1623	0.10243	0.10333	0.17695	0.28698	0.19738	0.29946	0.092481	-2.0583	-2.7875	-2.8083	-2.5458	-3.0146	-2.6104	-2.7271	-2.8479	-2.6688	-2.6229	-2.9229	-2.5667	-2.8042	-2.5979	-2.7167	-2.8292	-50.794	124.884	151.624	-85.165	10.488	52.553	194.766	232.064	41.851	197.097	160.535	200.988	227.011	-4.176	89.883	105.735	7.0247e-05	0.00040092	0.00010675	1229.2	6.0304e-07	4.5283e-06	1287.8	247.63	1.665e-06	3.143e-06	311.56	87.024	68.441	19.661	1.318e-06	27.959	0.00010401	9.5471e-05	2.4147e-05	935.97	1.1013e-06	9.926e-07	1176.2	226.69	1.0572e-06	9.8951e-07	272.29	78.465	61.8	17.647	9.1776e-07	24.615	214.610	15.985	-25.635	-83.062	83.013	6.902	-82.228	-75.594	43.891	-20.944	-75.671	-69.153	-68.847	-62.568	224.080	-62.287	-8191	255	
6653.951	1	1	0	0	0.16965	0.1898	0.10414	0.092614	0.1191	0.18221	0.097538	0.15216	0.096769	0.10624	0.15603	0.12062	0.21992	0.11272	0.068927	0.22363	-2.3563	-2.5687	-2.8417	-2.4771	-2.7729	-2.8521	-2.6063	-2.9417	-2.4854	-2.5646	-3.0021	-2.6729	-2.7771	-2.8083	-2.525	-2.8792	155.442	3.295	155.396	-3.212	180.794	-15.363	262.934	11.260	34.632	121.813	-44.930	131.854	215.919	-17.820	207.955	186.609	9.2673e-05	0.00015376	5.2515e-05	1231.2	1.1183e-06	3.0037e-06	1279.4	247.42	2.6453e-06	3.1226e-06	313.87	87.191	68.685	19.62	1.29e-06	27.908	9.2466e-05	8.6709e-05	2.2227e-05	929.27	9.9581e-07	9.0529e-07	1169.5	225.54	9.4936e-07	8.9806e-07	271.27	78.227	61.392	17.481	8.7352e-07	24.533	197.367	2.750	27.093	-82.285	-93.637	82.605	-82.514	-75.776	18.235	34.915	-75.532	-69.249	-68.995	-62.204	42.722	-62.288	-8191	255	
6654.070	1	1	0	0	0.085551	0.13425	0.24797	0.011035	0.16561	0.18143	0.337	0.42132	0.17561	0.23611	0.052523	0.017694	0.12627	0.096938	0.12164	0.10935	-2.2687	-2.5375	-2.75	-2.7292	-2.6917	-2.7562	-2.6792	-2.8937	-2.7521	-2.3729	-2.9104	-2.6896	-2.7021	-2.9188	-2.4188	-2.9833	96.416	164.630	82.720	49.804	186.656	-31.047	214.434	265.692	41.850	90.327	199.552	186.101	254.352	217.620	125.553	20.452	9.8427e-05	0.00020575	4.5911e-05	1226.4	1.6232e-06	3.166e-06	1285.8	247.89	1.1759e-06	1.4024e-06	312.79	87.091	68.589	19.707	1.7831e-06	28.096	8.4924e-05	8.078e-05	2.185e-05	926.69	9.233e-07	8.4511e-07	1168.8	225.26	9.0006e-07	8.588e-07	271.15	78.13	61.167	17.402	8.6182e-07	24.557	208.390	27.154	74.408	-82.723	49.524	52.184	-82.361	-75.484	24.723	-69.585	-75.846	-69.307	-68.737	-62.138	61.418	-62.279	-8191	255	
6654.166	1	1	0	0	0.25603	0.19847	0.15714	0.1005	0.2814	0.23701	0.11068	0.12991	0.16966	0.12583	0.093398	0.099225	0.19521	0.080034	0.31973	0.23123	-2.1958	-2.275	-2.8688	-2.4667	-2.8104	-2.9125	-2.5187	-2.8458	-2.7667	-2.5208	-2.9938	-2.6271	-2.6312	-2.7854	-2.6625	-2.7708	179.236	6.034	-44.722	94.613	-50.799	142.961	3.244	142.382	-20.765	86.293	-21.276	-0.096	-11.512	88.571	-80.383	77.761	4.5922e-05	3.2372e-05	2.9766e-05	1222.1	2.3143e-06	3.6252e-07	1282.9	246.53	1.0217e-06	3.1493e-06	312.41	86.931	68.098	19.689	9.8629e-07	28.064	7.8794e-05	7.3949e-05	2.1646e-05	917.65	8.5186e-07	7.7114e-07	1163.7	223.97	8.0459e-07	7.734e-07	270.07	77.471	60.657	17.304	8.5012e-07	24.453	191.563	-25.483	0.992	-82.318	20.951	25.387	-82.350	-75.394	212.810	-74.626	-75.578	-69.223	-68.843	-61.858	34.210	-61.835	-8191	255	
6654.262	1	1	0	0	0.12573	0.18334	0.059455	0.1233	0.25712	0.079873	0.25753	0.26446	0.1311	0.16813	0.20927	0.062003	0.24308	0.16923	0.24649	0.28612	-2.7521	-2.4188	-2.7271	-2.6625	-2.4896	-2.8771	-2.7938	-2.825	-2.8729	-2.4854	-3.1167	-2.6542	-2.6979	-3.0354	-2.5354	-2.8542	248.341	25.056	5.672	237.046	-30.150	73.626	191.186	-93.541	34.291	117.993	231.967	57.950	243.685	143.564	185.330	52.983	7.1197e-05	0.00021306	0.00010476	1226	2.4946e-06	1.1545e-06	1277.8	245.93	1.2745e-06	1.2974e-06	312.17	87.271	68.386	19.762	4.3693e-06	28.058	7.0575e-05	6.9095e-05	2.077e-05	908.21	7.7417e-07	7.1768e-07	1159	222.96	7.3565e-07	7.4319e-07	269.25	77.086	60.426	17.294	8.1154e-07	24.242	192.180	-21.953	-55.727	-82.433	42.869	33.807	-82.212	-75.608	133.699	64.341	-75.419	-69.308	-68.857	-61.547	52.476	-62.398	-8191	255	
6654.358	1	1	0	0	0.10255	0.22694	0.10659	0.087401	0.031263	0.083883	0.20703	0.041382	0.16412	0.069464	0.25681	0.13106	0.18146	0.1917	0.18695	0.056709	-2.4667	-2.4646	-2.8979	-2.6417	-2.6917	-3.0646	-2.6354	-2.6958	-2.7333	-2.6042	-2.9437	-2.6396	-2.6521	-2.8583	-2.4417	-2.7313	-71.512	255.508	-22.966	239.655	-20.333	43.788	214.834	213.033	177.419	146.036	149.728	-76.647	-92.900	-40.961	-20.541	-3.305	3.4469e-05	8.4079e-05	6.0929e-05	1214.9	6.389e-07	7.0582e-07	1274.4	246.23	1.6549e-06	2.0297e-06	309.09	86.996	68.301	19.662	1.9592e-06	28.092	6.6066e-05	6.7496e-05	2.0342e-05	900.19	7.2119e-07	7.3623e-07	1154.9	222.31	7.1772e-07	7.6567e-07	268.33	77.137	60.272	17.328	8.145e-07	24.311	180.960	247.688	8.735	-82.492	-89.836	15.499	-82.192	-75.200	-31.042	-29.300	-75.654	-69.144	-68.873	-61.806	-31.016	-62.163	-8191	255	
6654.455	1	1	0	0	0.23285	0.046661	0.096968	0.16145	0.2392	0.052094	0.025867	0.16607	0.16103	0.20231	0.22913	0.14744	0.057381	0.19236	0.076492	0.083517	-2.3083	-2.6604	-2.9813	-2.8458	-2.5312	-2.8375	-2.8708	-2.9021	-2.925	-2.575	-2.8917	-2.6167	-2.6854	-2.7708	-2.6083	-2.5667	37.999	12.876	-33.251	220.801	-65.698	61.241	150.288	-66.423	75.708	62.772	-80.703	217.252	14.888	237.576	59.267	154.267	6.4816e-05	0.00014142	3.7889e-05	1222.1	9.9422e-07	1.4805e-06	1272.5	244.43	1.3672e-06	3.1797e-06	309.02	86.136	68.163	19.655	3.2457e-06	28.007	6.5353e-05	7.2232e-05	2.0259e-05	903.09	7.1468e-07	7.7053e-07	1152.9	221.24	6.8051e-07	7.6666e-07	267.31	76.616	60.062	17.272	7.5091e-07	24.152	154.429	105.613	-1.344	-82.418	84.303	87.185	-82.234	-75.279	-28.040	141.714	-75.445	-69.385	-68.834	-62.037	-11.920	-61.934	-8191	255	
6654.551	1	1	0	0	0.099954	0.073976	0.069063	0.21436	0.1196	0.1569	0.38929	0.13379	0.10193	0.1668	0.06692	0.18095	0.14978	0.13366	0.13946	0.32496	-2.6229	-2.5563	-2.7167	-2.7917	-2.6479	-2.9542	-2.7438	-2.5	-2.8479	-2.6354	-2.7042	-3.0083	-2.4792	-2.8875	-2.5812	-2.5729	56.686	144.083	-55.926	-75.632	142.383	9.066	154.140	176.020	-29.081	145.185	156.826	-78.664	152.773	92.712	-0.699	15.152	5.1903e-05	0.00028772	0.00015667	1215.8	1.7816e-07	2.1629e-06	1274.1	244.4	8.2355e-07	3.1597e-06	310.13	86.165	68.164	19.693	3.175e-06	27.986	6.2794e-05	7.1935e-05	1.9041e-05	897.37	7.0907e-07	7.8167e-07	1150.9	221.19	7.0824e-07	7.9838e-07	267.18	76.589	60.172	17.297	7.2125e-07	24.122	203.504	-52.666	-13.913	-82.581	-7.326	3.275	-82.341	-75.491	140.137	39.562	-75.523	-69.300	-68.716	-61.964	-60.102	-62.290	-8191	255	
6654.647	1	1	0	0	0.29036	0.27081	0.012935	0.068186	0.089274	0.1797	0.25289	0.27766	0.20664	0.11704	0.1589	0.117	0.10206	0.15583	0.2475	0.3466	-2.5125	-2.6937	-2.8792	-2.95	-2.5917	-3.0271	-2.9104	-2.5812	-2.6979	-2.6875	-2.7958	-2.8563	-2.6542	-2.8563	-2.4813	-2.5771	-3.470	23.645	46.372	243.169	245.901	54.107	188.822	226.347	-37.022	94.174	196.444	165.008	185.101	103.458	35.705	-28.000	9.1772e-05	0.00014158	6.1091e-05	1211.2	2.5514e-06	1.9317e-06	1268.8	244.24	1.6582e-06	2.304e-06	308.31	86.379	67.66	19.573	2.4696e-06	28.151	6.6019e-05	7.0923e-05	1.833e-05	893.12	7.1498e-07	7.6411e-07	1147.3	220.71	7.2037e-07	7.41e-07	266.17	76.373	59.932	17.25	6.9311e-07	24.065	216.227	-44.467	-10.880	-82.289	170.891	-35.527	-82.117	-75.164	-26.066	53.461	-75.769	-69.108	-68.781	-61.964	-42.502	-61.924	-8191	255	
6654.766	1	1	0	0	0.2462	0.21962	0.27719	0.1949	0.1572	0.28746	0.11553	0.10613	0.11229	0.13317	0.12383	0.26106	0.19758	0.16467	0.18402	0.18532	-2.6792	-2.4813	-2.7208	-2.8333	-2.4708	-2.7958	-2.8167	-2.6604	-2.7333	-2.675	-2.6104	-2.8312	-2.6083	-2.45	-2.8667	-2.4	-20.478	143.264	-48.756	106.485	-11.724	0.102	165.518	30.277	250.831	173.011	169.980	-47.754	216.802	128.807	139.370	252.540	5.6674e-05	0.00014163	2.7897e-05	1218	1.8388e-06	3.7595e-06	1271.7	244.78	2.3119e-06	8.7177e-07	311.07	86.97	67.841	19.7	1.2574e-06	27.944	6.927e-05	6.8887e-05	1.8113e-05	894.18	7.6328e-07	7.4947e-07	1146.9	221	7.7147e-07	7.4484e-07	266.87	76.751	60.231	17.305	6.8768e-07	24.103	184.263	-32.009	166.992	-82.061	125.814	-31.269	-82.045	-75.156	25.947	-61.809	-75.727	-69.381	-68.655	-62.199	115.449	-62.155	-8191	255	
6654.862	1	1	0	0	0.10657	0.088891	0.13697	0.18446	0.25333	0.12238	0.20081	0.16552	0.1783	0.021639	0.26338	0.17269	0.12024	0.07007	0.33119	0.16047	-2.4958	-2.7438	-2.4396	-3.0312	-2.6229	-2.775	-3.1729	-2.5187	-2.7625	-2.5625	-2.5854	-3.0958	-2.6042	-2.5771	-3.0083	-2.4021	57.825	104.503	102.942	49.590	80.607	183.688	213.751	-75.052	73.733	260.078	-25.048	14.544	235.690	140.219	50.064	-83.303	0.00011238	0.00011452	2.4513e-05	1204.3	1.5905e-06	1.2892e-06	1274.4	244.32	1.01e-06	9.0886e-07	308.88	86.805	68.051	19.697	1.7147e-06	27.87	7.2036e-05	6.6554e-05	1.7922e-05	894.81	7.8657e-07	7.2973e-07	1147.9	221.03	7.989e-07	7.2578e-07	266.39	76.561	60.494	17.258	6.8436e-07	24.141	182.354	153.007	171.458	-82.204	62.407	244.775	-82.304	-75.311	174.044	-8.349	-75.588	-68.871	-68.737	-61.834	20.734	-62.083	-8191	255	
6654.958	1	1	0	0	0.091717	0.14521	0.37598	0.056104	0.1633	0.19997	0.24157	0.1969	0.21218	0.13457	0.13326	0.29036	0.19431	0.048347	0.21014	0.092021	-2.4083	-2.7292	-2.3896	-3.0521	-2.6396	-2.5667	-3.0687	-2.6937	-2.6979	-2.8396	-2.5542	-3.0812	-2.4604	-2.7604	-2.8396	-2.6833	182.385	-50.057	-0.047	37.790	105.575	-9.309	202.981	135.998	-61.268	178.774	176.705	179.478	-57.515	118.374	16.115	89.812	5.866e-05	1.5386e-05	6.1069e-05	1206.8	7.6135e-07	1.7264e-06	1274.7	244.8	2.2472e-06	3.521e-06	309.47	86.537	67.842	19.847	1.7612e-06	27.997	7.4564e-05	6.6464e-05	1.7815e-05	899.85	7.9196e-07	7.4421e-07	1148.8	221.48	7.9447e-07	7.1741e-07	266.41	76.702	60.217	17.291	6.7137e-07	24.284	209.923	160.908	-31.674	-82.444	-20.504	-12.982	-82.272	-75.475	42.320	-24.642	-75.725	-69.053	-68.840	-62.000	-18.234	-62.465	-8191	255	
6655.054	1	1	0	0	0.13995	0.22208	0.086604	0.066488	0.15303	0.028535	0.16381	0.15779	0.0088904	0.047002	0.33129	0.24907	0.24128	0.19962	0.31816	0.28533	-2.4083	-2.6271	-2.4854	-3.0375	-2.6333	-2.8792	-3.1188	-2.8688	-2.7812	-2.8604	-2.5021	-3.1167	-2.6375	-2.7271	-2.7208	-2.6208	-71.243	90.787	20.008	259.128	14.117	22.479	200.534	64.595	136.371	237.182	171.192	-51.181	263.811	-47.686	-9.585	198.450	5.1724e-05	0.00018081	5.6316e-05	1210.6	1.5639e-06	2.7392e-06	1267.8	244.49	1.6524e-06	2.6194e-06	308.21	86.723	67.921	19.578	2.2756e-06	27.983	7.1684e-05	6.4366e-05	1.7603e-05	900.31	7.5692e-07	7.1829e-07	1146.8	221.42	7.6808e-07	6.9871e-07	266.15	76.817	60.211	17.211	6.9473e-07	24.26	196.562	-87.844	30.110	-82.729	95.950	82.349	-82.166	-75.167	-19.031	46.504	-75.756	-69.384	-68.914	-62.151	5.210	-62.372	-8191	255	
6655.150	1	1	0	0	0.19267	0.063242	0.079262	0.17688	0.38214	0.087909	0.20714	0.039042	0.12682	0.32195	0.071942	0.12315	0.14593	0.16966	0.12897	0.1199	-2.2188	-2.8083	-2.3521	-2.8167	-2.6833	-2.7438	-3.1813	-2.7438	-2.5583	-3.1896	-2.5125	-2.9958	-2.7667	-2.4938	-2.9688	-2.7479	43.231	-41.514	114.420	36.467	-85.729	20.865	234.360	-48.509	171.771	65.286	22.385	245.254	105.486	-28.506	229.471	-53.481	7.3131e-05	0.00041602	8.5225e-05	1210.7	1.4431e-06	2.7495e-07	1262.4	244.85	1.2652e-06	2.6243e-06	307.46	86.141	67.792	19.492	9.5896e-07	27.946	7.1047e-05	6.2326e-05	1.7978e-05	901.63	7.3492e-07	6.9785e-07	1145.9	221.23	7.4086e-07	6.62e-07	266.44	76.686	60.071	17.156	7.2414e-07	24.22	223.170	-34.479	-59.683	-82.589	38.155	4.834	-82.282	-75.386	98.357	5.090	-75.385	-69.124	-68.413	-61.899	-30.836	-61.771	-8191	255	
6655.247	1	1	0	0	0.13475	0.096579	0.26225	0.26647	0.31956	0.11748	0.14384	0.15348	0.048072	0.1948	0.058904	0.46092	0.13704	0.12325	0.29004	0.056885	-1.9375	-2.6646	-2.4229	-2.8812	-2.4708	-2.5729	-3.0125	-2.7104	-2.525	-2.925	-2.6583	-2.5375	-2.7521	-2.4958	-2.8521	-2.6125	123.445	119.810	196.259	-86.389	133.620	256.250	175.339	185.635	115.803	191.741	75.105	-84.615	-1.424	150.923	49.590	84.369	6.4251e-05	0.00035579	3.3539e-05	1207.3	1.0545e-06	2.673e-06	1267.8	244.17	2.4073e-06	9.4509e-07	307.54	86.681	68.092	19.614	1.6885e-06	27.977	6.8414e-05	6.2161e-05	1.9041e-05	901.29	7.2484e-07	6.8954e-07	1147.9	221.21	7.5042e-07	6.6565e-07	266.91	76.798	60.093	17.21	7.6419e-07	24.197	172.047	-64.194	-73.064	-82.246	180.410	36.801	-82.065	-75.106	111.120	-23.789	-75.640	-69.104	-68.693	-61.971	36.482	-62.114	-8191	255	
6655.343	1	1	0	0	0.12404	0.10732	0.23941	0.10498	0.18815	0.26286	0.18184	0.039967	0.15439	0.17228	0.19387	0.064019	0.23788	0.048553	0.077655	0.097941	-2.1229	-3.0875	-2.3375	-2.9479	-2.7917	-2.4667	-3.2104	-2.6708	-2.7208	-3.0708	-2.4771	-2.8542	-2.7417	-2.5708	-2.8958	-2.6958	9.960	84.104	73.143	233.971	-80.788	124.790	248.842	49.673	64.198	161.067	126.336	195.322	-0.467	200.546	184.739	261.196	0.00010609	0.00030348	3.4572e-05	1207.2	1.025e-06	1.8025e-06	1272.1	244.25	7.5959e-07	1.3478e-06	309.54	85.959	67.797	19.597	5.8325e-07	27.59	6.6816e-05	6.1451e-05	1.9415e-05	897.07	6.9441e-07	6.9997e-07	1146.9	220.39	7.1669e-07	6.8228e-07	266.89	76.507	59.838	17.181	7.7927e-07	24.09	222.761	61.810	249.148	-82.497	190.562	22.366	-82.107	-75.328	56.974	104.941	-75.576	-69.440	-69.007	-61.974	-4.671	-62.263	-8191	255	
6655.439	1	1	0	0	0.14983	0.22964	0.080856	0.14963	0.14104	0.036789	0.10871	0.3224	0.29603	0.16998	0.17824	0.11531	0.14337	0.25523	0.21282	0.077396	-2.225	-2.7333	-2.5646	-2.5396	-2.925	-2.5729	-2.9813	-2.8875	-2.3896	-3.1125	-2.5083	-2.7812	-2.9	-2.5729	-2.7729	-2.6646	258.761	-34.698	261.709	18.760	177.618	24.172	183.500	255.219	87.503	233.822	-33.445	75.366	230.592	210.880	228.535	96.915	6.6556e-05	0.00016374	8.2561e-05	1207.6	6.2056e-07	6.9243e-07	1268.2	244.08	1.0059e-06	1.981e-06	308.38	86.733	67.67	19.565	1.5014e-06	27.96	6.5631e-05	6.4393e-05	1.9836e-05	895.62	6.8482e-07	7.2656e-07	1145.7	220.69	6.9759e-07	7.132e-07	267.26	76.698	59.733	17.189	7.5994e-07	24.081	165.122	105.727	-85.942	-82.636	25.733	188.484	-82.165	-75.394	7.285	-11.458	-75.749	-69.173	-68.877	-61.865	-54.172	-62.497	-8191	255	
6655.559	1	1	0	0	0.12249	0.18525	0.12369	0.016363	0.24443	0.12919	0.26973	0.036065	0.23824	0.10379	0.078359	0.33106	0.25723	0.11409	0.32998	0.21402	-2.0938	-2.8479	-2.5146	-2.7062	-2.8187	-2.5167	-2.9521	-2.8104	-2.4562	-3.0375	-2.7521	-2.6729	-3.0417	-2.3563	-2.6937	-2.8542	-33.811	100.876	-25.094	84.168	-66.828	-19.493	165.474	196.170	27.044	173.121	-89.414	-26.712	108.758	-43.627	-29.498	94.967	0.00011484	0.00014674	8.4418e-05	1211	1.6769e-06	1.0223e-06	1263.6	242.44	2.2733e-06	3.1082e-06	308.48	85.855	68.33	19.552	3.2572e-06	28.178	6.3221e-05	6.6734e-05	1.8823e-05	897.02	6.6493e-07	7.6235e-07	1147.7	219.96	7.053e-07	7.7353e-07	266.97	76.614	60.083	17.358	7.8438e-07	24.201	225.597	-41.709	265.664	-82.485	74.485	104.362	-82.209	-75.640	-66.562	73.747	-75.743	-69.370	-69.023	-61.850	34.650	-62.204	-8191	255	
6655.656	1	1	0	0	0.11944	0.20285	0.040186	0.16591	0.084218	0.28259	0.14771	0.19736	0.18954	0.096135	0.030289	0.10963	0.26922	0.37131	0.13729	0.10887	-1.9312	-2.9833	-2.5604	-2.6417	-2.9458	-2.4354	-3.1417	-2.85	-2.6042	-2.7875	-2.6833	-2.7146	-2.8646	-2.6688	-2.5771	-2.9	-48.450	-13.805	111.421	237.478	123.805	15.046	152.195	266.605	87.142	-26.202	249.907	210.632	219.722	97.130	22.696	254.697	5.7337e-05	0.00018031	3.7221e-05	1218.7	7.9992e-07	2.9088e-06	1272.6	245.22	1.6549e-06	4.9357e-06	308.99	86.039	67.76	19.61	2.5022e-07	28.146	6.6455e-05	7.2189e-05	1.9169e-05	900.45	6.941e-07	7.8634e-07	1150.6	220.84	6.9701e-07	7.5933e-07	266.86	76.42	59.843	17.259	7.072e-07	24.053	192.417	-5.724	-55.557	-82.639	-15.327	-81.535	-82.368	-75.344	-62.137	9.167	-75.573	-69.423	-68.718	-62.070	6.902	-62.260	-8191	255	
6655.752	1	1	0	0	0.181	0.15619	0.27583	0.24685	0.059279	0.11278	0.41068	0.098324	0.13991	0.10063	0.17713	0.10402	0.26391	0.29972	0.12928	0.036543	-2.0125	-2.7667	-2.6833	-2.6271	-2.9792	-2.3479	-2.9938	-2.95	-2.5687	-2.8312	-2.7604	-2.5167	-3.0958	-2.5563	-2.5229	-3.0146	158.825	-70.201	70.475	-90.736	-49.016	-12.362	193.678	171.336	173.417	176.838	235.028	44.155	208.870	174.469	219.681	175.922	8.4418e-05	0.00014658	8.8282e-05	1204.8	8.9932e-07	2.0001e-06	1269.7	243.95	1.6407e-06	5.2262e-06	309.31	86.446	67.38	19.527	2.0924e-06	28.054	6.5454e-05	6.8343e-05	1.7352e-05	892.08	6.9279e-07	7.4336e-07	1147.8	220.4	7.2034e-07	7.4158e-07	266.4	76.384	59.87	17.217	6.8261e-07	23.98	183.139	34.487	-80.051	-82.572	40.585	95.832	-82.188	-75.465	-2.238	57.608	-75.580	-69.216	-68.883	-62.082	-5.243	-62.414	-8191	255	
6655.846	1	1	0	0	0.20433	0.025805	0.15174	0.17207	0.11281	0.20365	0.38621	0.18341	0.20032	0.17414	0.24848	0.24223	0.077904	0.18912	0.23094	0.042582	-2.0896	-2.8896	-2.625	-2.6063	-2.75	-2.7646	-2.8104	-2.9333	-2.4417	-2.8083	-2.9833	-2.5125	-2.9125	-2.5563	-2.6813	-3.0229	-22.869	1.343	31.660	-4.435	48.723	4.656	232.279	149.573	189.915	-52.451	-70.220	-75.427	101.505	169.562	237.278	140.882	5.8303e-05	3.141e-05	5.2146e-05	1203.7	1.5361e-06	2.9179e-06	1268.9	245.09	1.5793e-06	2.8353e-07	309.09	86.435	67.532	19.601	1.2242e-06	27.96	6.6837e-05	6.5754e-05	1.6607e-05	891.5	7.1225e-07	7.0782e-07	1144.5	220.07	7.3054e-07	7.0041e-07	266.07	76.291	59.885	17.169	6.5025e-07	23.953	205.732	247.717	-43.591	-82.249	61.981	26.584	-82.127	-75.302	227.509	54.653	-75.604	-69.229	-68.935	-61.653	70.220	-62.126	-8191	255	
6655.942	1	1	0	0	0.22113	0.24929	0.11023	0.17926	0.18094	0.19882	0.13029	0.2178	0.083061	0.055746	0.033426	0.22191	0.14158	0.089999	0.082166	0.12804	-1.9896	-2.9208	-2.5708	-2.5729	-2.8375	-2.7458	-2.8104	-2.8771	-2.5771	-2.6417	-2.7062	-2.7	-2.8875	-2.5292	-2.7062	-2.9979	101.741	-21.512	241.907	262.109	37.894	93.634	85.327	176.256	222.731	196.047	238.947	243.520	-89.069	-49.135	114.264	123.360	8.4094e-05	0.00013441	7.0898e-05	1210.1	1.9995e-06	1.6971e-06	1265.1	244.72	1.3778e-06	9.3534e-07	307.97	86.648	67.939	19.594	1.3589e-06	28.054	6.7348e-05	6.2992e-05	1.5923e-05	889.51	7.1427e-07	6.757e-07	1144.8	220.36	7.4912e-07	6.9159e-07	265.46	76.61	60.252	17.213	6.7343e-07	24.083	187.356	-25.145	-68.229	-82.589	57.791	14.087	-82.246	-75.358	-91.097	45.755	-75.586	-68.815	-68.769	-62.089	-10.890	-62.336	-8191	255	
6656.040	1	1	0	0	0.22366	0.091144	0.11553	0.25599	0.1388	0.096389	0.33789	0.19013	0.04066	0.12128	0.15864	0.087625	0.17771	0.29974	0.24653	0.1243	-2.0938	-2.7458	-2.8771	-2.3854	-2.7938	-2.8271	-2.6958	-2.8583	-2.6	-2.65	-2.8792	-2.6125	-2.8042	-2.6104	-2.6125	-2.9229	-58.576	22.762	98.435	16.397	131.123	30.592	223.073	217.593	263.573	58.178	-46.137	72.856	185.205	167.246	-67.219	96.027	9.8047e-05	8.9727e-05	3.5631e-05	1211.9	9.312e-07	9.0471e-07	1270.1	243.92	1.087e-06	4.3815e-06	311.08	86.48	68.457	19.513	1.4129e-06	27.985	7.0374e-05	6.5268e-05	1.6372e-05	896.83	7.6371e-07	6.772e-07	1145	220.77	7.5816e-07	6.994e-07	266.39	76.8	60.31	17.196	6.5925e-07	24.146	194.560	-57.270	-13.967	-82.398	4.953	8.428	-82.143	-75.581	-82.455	41.829	-75.412	-69.031	-68.833	-62.145	103.490	-62.404	-8191	255	
6656.159	1	1	0	0	0.19488	0.05814	0.26799	0.17609	0.21739	0.069484	0.09056	0.20463	0.15324	0.042725	0.20865	0.14291	0.23064	0.10572	0.21134	0.19469	-2.2333	-2.6354	-2.9458	-2.6875	-2.8688	-2.8604	-2.6979	-2.8021	-2.4313	-2.6167	-2.9688	-2.3625	-2.8792	-2.6958	-2.5917	-2.9104	60.972	139.016	24.155	-65.656	-49.397	-23.008	160.996	160.345	52.964	140.096	190.285	130.100	-80.791	39.598	180.703	255.857	5.6285e-05	0.00025415	6.1373e-05	1212.1	1.5843e-06	1.2693e-06	1265.6	244.54	4.0265e-07	2.7549e-06	307.79	86.247	67.897	19.551	3.385e-06	28.086	6.8262e-05	6.4115e-05	1.6296e-05	899.16	7.4289e-07	6.6879e-07	1146.5	220.98	7.1177e-07	6.5838e-07	265.76	76.868	60.122	17.124	6.3534e-07	24.165	245.252	-2.636	220.648	-82.457	249.813	67.115	-82.337	-75.378	-83.061	65.333	-75.805	-69.050	-68.839	-61.901	96.017	-62.573	-8191	255	
6656.255	1	1	0	0	0.27435	0.14479	0.077357	0.093027	0.095206	0.22742	0.19619	0.04794	0.23478	0.24352	0.16351	0.22329	0.18385	0.23676	0.030421	0.54911	-2.2875	-2.6583	-2.8146	-2.6	-2.825	-2.8688	-2.7208	-3.0729	-2.6937	-2.4604	-3.0667	-2.7042	-2.7979	-2.8521	-2.5417	-2.775	41.833	248.321	132.561	132.514	191.117	206.629	180.313	178.762	-30.130	198.947	-51.073	94.057	-91.433	218.941	26.611	257.934	7.7571e-05	0.00011861	3.2503e-05	1199.6	2.4075e-06	3.4786e-06	1261.6	244.02	6.9509e-07	3.2455e-06	308.5	86.494	67.576	19.715	1.3077e-06	28.021	6.208e-05	5.854e-05	1.5937e-05	894.04	6.7608e-07	6.0886e-07	1142.3	220.63	6.5203e-07	6.2022e-07	264.74	76.636	59.683	17.1	6.4523e-07	24.005	217.197	-49.482	-23.191	-82.672	46.296	78.050	-82.166	-75.212	60.462	32.629	-75.694	-69.134	-69.049	-62.004	-56.799	-61.998	-8191	255	
6656.351	1	1	0	0	0.11423	0.30998	0.24623	0.11303	0.11832	0.11602	0.24407	0.1924	0.24341	0.23443	0.17723	0.19068	0.20504	0.22861	0.057474	0.20477	-2.2625	-2.4021	-2.8583	-2.6042	-2.6458	-3.2625	-2.6146	-2.8854	-2.8167	-2.5	-3.0583	-2.5563	-2.4813	-2.8292	-2.5833	-2.85	-45.986	238.228	213.078	110.423	-13.657	-50.416	-65.402	208.428	230.200	-47.936	-87.091	166.461	53.466	-63.461	-19.867	-67.934	8.0083e-05	0.00029161	2.6137e-05	1191.5	1.7277e-06	3.5619e-06	1258.4	243.07	5.649e-07	2.3701e-06	308.29	85.937	67.898	19.585	1.0277e-06	27.876	5.9212e-05	5.4394e-05	1.6204e-05	888.5	6.3786e-07	5.7043e-07	1141	219.75	6.1575e-07	5.9083e-07	265.32	76.263	59.632	17.059	6.6361e-07	23.936	197.856	-83.544	-92.349	-82.385	69.536	43.808	-82.248	-75.425	258.783	-4.825	-75.432	-68.995	-68.910	-62.193	244.791	-62.169	-8191	255	
6656.448	1	1	0	0	0.1941	0.28481	0.16403	0.13718	0.13486	0.14378	0.21057	0.031456	0.13036	0.091735	0.16565	0.38562	0.13767	0.034871	0.19981	0.32936	-2.5208	-2.4104	-2.8375	-2.7438	-2.4333	-2.8396	-2.7208	-2.8083	-2.7188	-2.5042	-2.9771	-2.6667	-2.3229	-2.9208	-2.6167	-3.0625	189.121	234.898	-82.924	40.200	23.663	57.117	162.282	121.848	261.056	-25.717	144.939	212.374	243.440	194.710	-90.893	239.341	1.2798e-05	0.00016544	6.0583e-05	1204	1.4293e-06	1.253e-06	1259.8	243.08	8.1216e-07	3.2048e-06	305.92	86.229	67.375	19.405	6.2841e-07	27.727	5.6022e-05	5.4099e-05	1.6805e-05	886.73	6.1445e-07	5.7623e-07	1140.5	219.81	5.9467e-07	5.8885e-07	264.8	76.057	59.375	16.994	6.6258e-07	23.865	187.550	-86.104	153.273	-82.264	20.955	158.128	-82.219	-75.565	1.552	-11.577	-75.454	-69.417	-69.128	-61.423	124.542	-61.995	-8191	255	
6656.544	1	1	0	0	0.14342	0.014918	0.055234	0.27403	0.16428	0.10229	0.084557	0.10568	0.065437	0.14879	0.13701	0.1123	0.13183	0.18029	0.23043	0.16629	-2.2292	-2.5375	-2.5958	-2.7833	-2.6021	-3.1042	-2.7667	-2.5354	-3.0187	-2.7729	-2.875	-2.6917	-2.7062	-2.7417	-2.7271	-2.6917	137.073	191.233	-91.763	-18.990	-72.820	90.916	245.424	136.121	-48.397	-35.090	211.175	232.755	225.714	-8.395	258.927	236.003	5.9528e-05	0.0001122	4.5051e-05	1193.2	9.8601e-07	1.0949e-07	1260.2	243.18	9.8497e-07	1.4867e-06	307.8	85.982	67.566	19.699	2.0456e-06	27.872	5.4392e-05	5.6027e-05	1.7012e-05	882.51	5.9695e-07	6.1364e-07	1138	219.79	5.8756e-07	6.3432e-07	265.24	75.936	59.534	17.155	6.7272e-07	23.886	196.940	200.486	-40.163	-82.326	-79.198	225.767	-82.197	-75.404	9.538	-78.044	-75.592	-69.101	-68.961	-61.945	-60.765	-62.286	-8191	255	
6656.640	1	1	0	0	0.061913	0.14136	0.12579	0.045224	0.041233	0.19013	0.24927	0.095694	0.10403	0.036792	0.15787	0.1244	0.26269	0.21196	0.11631	0.2367	-2.3896	-2.6208	-2.6354	-2.7479	-2.7062	-2.8	-2.9938	-2.5687	-2.8958	-2.6271	-2.8146	-3.0042	-2.6208	-2.9792	-2.8625	-2.4979	129.719	12.664	134.026	14.956	-73.354	244.694	221.520	180.000	68.361	63.303	-56.855	196.094	159.955	160.759	-75.203	27.582	6.9187e-05	0.00023019	0.0001192	1200.4	1.0652e-06	2.4963e-06	1261.1	243.16	2.1994e-06	8.2545e-07	308.68	86.607	67.67	19.513	1.8428e-06	27.735	5.5211e-05	6.0273e-05	1.7042e-05	884.14	5.981e-07	6.5621e-07	1139.1	219.27	5.8201e-07	6.6781e-07	264.65	76.021	59.482	17.147	6.3109e-07	23.833	188.934	36.299	-10.067	-82.354	32.848	-1.151	-82.119	-75.302	19.228	40.661	-75.479	-68.811	-69.315	-61.595	68.280	-62.597	-8191	255	
6656.736	1	1	0	0	0.1057	0.26509	0.24814	0.25182	0.13614	0.11277	0.30591	0.20367	0.1239	0.18458	0.199	0.19656	0.19047	0.13119	0.17216	0.17522	-2.5271	-2.6271	-2.6458	-3	-2.4688	-3.0646	-2.8937	-2.5896	-2.875	-2.5458	-2.925	-3.0083	-2.4542	-2.875	-2.6958	-2.6396	124.562	189.062	-80.888	186.133	193.937	121.569	201.402	-63.769	148.450	45.758	172.291	224.773	-15.221	56.435	21.737	-36.735	8.1155e-05	5.5709e-05	5.8215e-05	1204.5	4.2008e-07	3.6188e-06	1258.8	242.24	6.8843e-07	1.4552e-06	307.82	85.827	67.608	19.689	1.5452e-06	27.511	5.4866e-05	6.0617e-05	1.6275e-05	883.35	5.9417e-07	6.6562e-07	1136.1	218.53	5.84e-07	6.4945e-07	264.42	75.744	59.431	17.103	5.9126e-07	23.774	204.055	-78.309	-22.806	-82.235	96.265	28.117	-82.294	-75.461	-88.191	-58.792	-75.567	-69.441	-68.836	-61.940	-82.516	-62.033	-8191	255	
6656.832	1	1	0	0	0.17925	0.11961	0.22758	0.30885	0.1293	0.086976	0.56855	0.25355	0.042594	0.27089	0.2175	0.33295	0.27461	0.097015	0.19293	0.24482	-2.6063	-2.6958	-2.6917	-2.9229	-2.3604	-3.0729	-2.9479	-2.6958	-2.9458	-2.6646	-2.5771	-3.0062	-2.5854	-2.7313	-2.8125	-2.5187	196.897	178.585	116.208	169.210	48.070	239.070	183.932	147.389	174.676	190.363	-12.890	262.036	157.674	58.446	57.246	135.231	8.8602e-05	0.0002169	2.2942e-05	1200	6.1753e-07	1.7653e-06	1262	243.06	1.5251e-07	1.0003e-06	307.1	86.157	67.781	19.555	1.0794e-06	27.728	5.5827e-05	6.0458e-05	1.5483e-05	882.14	6.2318e-07	6.5653e-07	1135.9	218.85	6.2751e-07	6.5011e-07	263.84	75.818	59.674	17.096	5.9008e-07	23.719	204.486	-36.386	48.325	-82.719	177.439	-49.897	-82.123	-75.464	193.081	-4.502	-75.607	-69.207	-68.671	-62.289	38.667	-62.034	-8191	255	
6656.951	1	1	0	0	0.28844	0.1668	0.23252	0.19192	0.17143	0.21334	0.30518	0.10206	0.15901	0.060764	0.38555	0.15065	0.26794	0.22297	0.17538	0.30662	-2.4729	-2.4833	-2.5104	-2.7896	-2.7104	-2.8438	-3.0667	-2.4875	-2.9813	-2.8021	-2.7542	-3.0479	-2.5896	-2.8729	-2.8979	-2.6354	184.640	92.038	229.707	-40.114	-56.650	-45.294	190.196	90.915	193.611	-69.032	239.140	54.910	4.606	250.906	-5.619	189.738	6.0666e-05	0.00041193	4.5898e-05	1192.9	3.0012e-07	3.4525e-06	1258.2	243.62	1.4342e-06	2.8448e-06	308.26	85.9	67.785	19.59	1.7634e-06	27.943	5.9087e-05	5.8746e-05	1.5276e-05	879.14	6.4981e-07	6.4486e-07	1135.6	219.39	6.51e-07	6.197e-07	264.23	75.746	59.685	17.092	5.7173e-07	23.78	202.085	-58.344	-62.194	-82.309	207.239	37.095	-82.195	-75.296	80.011	-39.992	-75.673	-69.070	-68.948	-61.714	20.614	-61.938	-8191	255	
6657.023	1	1	0	0	0.22302	0.23357	0.037176	0.17075	0.083618	0.085084	0.14482	0.32895	0.336	0.27318	0.15783	0.078849	0.033693	0.12061	0.13476	0.2758	-2.4646	-2.6229	-2.5938	-3.0396	-2.325	-2.7375	-2.95	-2.6646	-2.8229	-2.7271	-2.6437	-2.9292	-2.7313	-2.5604	-2.9917	-2.55	214.507	-25.276	126.491	-18.539	-25.415	167.503	167.986	199.805	215.773	-74.121	164.047	224.693	117.623	27.072	-1.404	221.264	8.6033e-05	0.0002409	6.0301e-05	1199.2	1.1802e-06	2.3661e-06	1254.9	243.2	8.8178e-07	2.8632e-06	306.65	86.244	67.66	19.741	1.8196e-06	27.803	6.0602e-05	5.5487e-05	1.4698e-05	879.05	6.4558e-07	6.1494e-07	1135.2	218.82	6.635e-07	5.9752e-07	263.67	75.877	59.593	17.138	5.6181e-07	23.877	146.377	-57.149	-74.465	-82.706	-48.378	262.974	-82.194	-75.231	210.638	32.708	-75.619	-68.729	-68.868	-62.093	10.213	-62.336	-8191	255	
6657.121	1	1	0	0	0.25315	0.36856	0.19784	0.14046	0.29936	0.18509	0.18392	0.29313	0.0086731	0.29026	0.30921	0.19816	0.27486	0.10005	0.043505	0.35861	-2.3771	-2.725	-2.5375	-2.9646	-2.7333	-2.7313	-3.2042	-2.7	-3.0125	-2.6833	-2.4583	-3.0833	-2.5687	-2.7583	-2.9437	-2.7125	77.770	224.253	-63.116	111.218	101.595	211.591	180.961	191.167	21.953	263.719	-73.184	-75.611	227.336	108.468	175.605	253.401	9.0301e-05	0.00043196	0.00010972	1206.2	2.5668e-06	1.0528e-06	1259.6	243.53	2.0506e-06	2.9821e-06	307.9	86.317	67.622	19.592	2.3502e-06	27.839	6.2018e-05	5.509e-05	1.4774e-05	884.92	6.6031e-07	6.121e-07	1135.8	219.76	6.7685e-07	6.0769e-07	264.1	76.213	59.692	17.093	5.6575e-07	23.926	186.047	1.634	-90.239	-82.171	38.913	37.922	-82.252	-75.176	-22.804	34.351	-75.873	-69.093	-68.953	-61.549	-78.037	-62.213	-8191	255	
6657.239	1	1	0	0	0.078052	0.16313	0.24116	0.11709	0.21432	0.23553	0.34079	0.40029	0.15111	0.39665	0.057314	0.26824	0.24966	0.17449	0.11628	0.22536	-2.3333	-2.6042	-2.6521	-2.85	-2.9208	-2.8896	-3.0458	-2.7375	-2.925	-2.7229	-2.7417	-3.075	-2.7583	-2.7771	-2.8937	-2.6375	83.662	-25.091	139.860	188.916	220.475	205.923	193.762	262.928	246.411	67.592	-66.713	167.168	-90.069	174.822	155.392	-12.706	8.2637e-05	0.00024509	7.8726e-05	1203.2	3.0265e-07	1.3544e-06	1263.3	244.12	1.7427e-06	3.0258e-06	307.79	86.282	67.758	19.633	3.746e-06	28.037	6.1029e-05	5.4738e-05	1.4735e-05	886.18	6.4787e-07	6.0924e-07	1138.3	220.44	6.5533e-07	5.9815e-07	264.18	76.252	59.705	17.182	6.058e-07	23.995	204.577	-25.850	-74.873	-82.425	110.572	40.871	-82.687	-75.341	54.034	62.071	-75.444	-69.251	-68.874	-61.967	65.848	-61.996	-8191	255	
6657.336	1	1	0	0	0.094446	0.076734	0.18317	0.080173	0.16768	0.20408	0.18267	0.12431	0.16355	0.1572	0.25513	0.22841	0.29656	0.10761	0.21189	0.2024	-2.3937	-2.8833	-2.3979	-3.0854	-2.7104	-2.6	-3.0792	-2.6562	-2.8937	-3.0187	-2.7354	-2.8021	-2.6813	-2.7229	-2.9083	-2.7521	-81.000	242.878	53.952	24.759	-33.993	-72.804	209.842	238.216	259.815	133.537	-86.501	183.944	75.128	-74.746	199.353	229.132	8.7545e-05	4.8317e-05	3.1743e-05	1208.3	1.5326e-07	3.7855e-06	1265.2	244.67	2.9837e-06	8.1837e-07	309.12	86.451	67.6	19.804	7.1882e-07	27.974	6.1414e-05	5.4985e-05	1.6012e-05	892.59	6.4672e-07	6.2076e-07	1141.9	220.61	6.527e-07	5.9889e-07	265.57	76.62	59.691	17.208	6.5565e-07	24.06	196.388	-30.339	-52.753	-82.396	46.041	57.568	-82.281	-75.352	37.333	-22.376	-75.526	-68.802	-69.008	-62.161	-63.429	-62.608	-8191	255	
6657.432	1	1	0	0	0.26486	0.16846	0.064176	0.25378	0.26754	0.2571	0.062616	0.22418	0.13115	0.12798	0.43503	0.33078	0.069599	0.050732	0.24074	0.14199	-2.2083	-3.0458	-2.5896	-2.8854	-2.8563	-2.4688	-3.1688	-2.5875	-2.775	-2.7958	-2.7521	-2.7062	-2.8354	-2.5375	-2.7354	-2.6771	146.150	88.744	-34.292	-62.763	-45.081	-84.629	193.449	166.623	-43.822	176.080	217.748	-80.724	247.614	4.919	201.161	252.573	0.00011162	0.00013505	6.0298e-05	1207.5	1.354e-06	2.3418e-06	1264.3	244.9	3.2633e-06	3.2244e-07	309.51	86.9	68.117	19.825	2.6326e-06	27.995	6.1783e-05	5.5447e-05	1.6985e-05	896.48	6.5325e-07	6.1849e-07	1144.9	221.08	6.5509e-07	5.9266e-07	266.55	76.595	59.899	17.188	6.7077e-07	24.037	227.308	-18.738	251.778	-82.426	81.460	141.849	-82.026	-75.275	19.789	215.137	-75.737	-69.285	-69.000	-62.147	-71.431	-62.650	-8191	255	
6657.552	1	1	0	0	0.29022	0.094407	0.089474	0.018899	0.066311	0.13914	0.20364	0.36955	0.11416	0.049384	0.076467	0.092925	0.046195	0.13956	0.0719	0.070555	-2.1917	-2.9354	-2.3417	-2.7958	-2.7458	-2.625	-2.8875	-2.7042	-2.4354	-3.0104	-2.6562	-2.8979	-2.7021	-2.7542	-2.7521	-2.6917	-53.310	108.982	259.510	162.192	139.329	217.560	230.350	170.322	-38.315	114.595	223.447	33.999	114.475	235.847	164.442	-37.116	7.9374e-05	0.0002022	7.1218e-05	1202.7	9.7807e-07	3.3455e-06	1266.1	245.49	2.3951e-06	2.8549e-06	308.83	86.557	68.223	19.762	1.8382e-06	27.978	5.8933e-05	5.3873e-05	1.7268e-05	889.65	6.0622e-07	6.0183e-07	1144	220.94	6.135e-07	5.714e-07	265.89	76.452	59.639	17.201	6.6012e-07	23.887	195.992	31.689	-74.969	-82.566	56.621	-9.255	-82.220	-75.438	63.082	33.376	-75.771	-69.076	-69.072	-61.751	-38.065	-62.208	-8191	255	
6657.624	1	1	0	0	0.24981	0.1494	0.048366	0.18033	0.25144	0.16506	0.18307	0.33135	0.23257	0.23112	0.080697	0.27464	0.11948	0.21876	0.18073	0.043026	-2.0271	-2.8563	-2.4896	-2.6521	-2.975	-2.5938	-3.1125	-2.7792	-2.7396	-2.7062	-2.7479	-2.8	-2.9854	-2.5167	-2.7313	-2.7771	102.821	-39.809	-89.516	-30.990	62.682	84.844	172.051	165.801	246.621	55.336	26.915	176.040	12.939	157.007	-71.050	16.259	8.1185e-05	0.00019131	4.3441e-06	1196	1.0415e-06	2.8873e-06	1267.7	244.56	1.848e-06	1.5948e-06	309.24	86.602	67.915	19.815	3.3882e-06	28.014	5.5303e-05	5.372e-05	1.6581e-05	884.84	5.5658e-07	5.9926e-07	1143.2	220.29	5.8344e-07	5.8815e-07	266.28	76.252	59.54	17.205	6.3848e-07	23.901	222.570	32.868	89.734	-82.607	-18.667	133.162	-82.300	-75.219	46.198	57.292	-75.427	-68.768	-68.884	-62.262	10.123	-62.366	-8191	255	
6657.720	1	1	0	0	0.19786	0.11551	0.080851	0.060263	0.16295	0.063178	0.22163	0.16746	0.12125	0.18509	0.40646	0.12364	0.21671	0.11641	0.096209	0.22353	-1.9208	-2.8167	-2.5292	-2.575	-2.8167	-2.5625	-3	-2.8187	-2.5563	-3.0021	-2.775	-2.7458	-2.8792	-2.5042	-2.8271	-2.7917	54.617	222.119	42.858	203.507	56.724	81.364	181.314	206.800	-10.679	258.448	125.538	-87.211	-86.608	195.894	217.438	260.417	9.2483e-05	0.00028056	3.1911e-05	1211.2	3.1033e-06	1.1131e-06	1264.5	245.22	5.0369e-07	1.4725e-06	310.37	86.375	68.027	19.766	1.648e-06	27.974	5.4743e-05	5.7161e-05	1.6062e-05	887.37	5.5914e-07	6.4393e-07	1143.9	220.47	5.9437e-07	6.4976e-07	266.6	76.505	59.742	17.343	6.5615e-07	23.931	184.701	31.860	-35.547	-82.602	41.555	130.998	-82.406	-75.322	106.790	81.306	-75.502	-68.857	-68.935	-61.911	-77.473	-61.944	-8191	255	
6657.841	1	1	0	0	0.070562	0.090016	0.22063	0.13374	0.04974	0.16759	0.20413	0.18682	0.27759	0.068171	0.062102	0.17946	0.26856	0.34276	0.23064	0.26364	-2.1458	-3.0083	-2.6188	-2.5062	-3.025	-2.525	-2.7771	-3.1146	-2.5167	-2.9688	-2.5812	-2.55	-3.1417	-2.5333	-2.7917	-2.8021	27.675	157.720	232.918	1.390	68.451	59.030	136.861	240.383	110.032	193.821	15.077	199.829	-53.566	-83.441	193.074	-24.342	7.4888e-05	0.00016735	2.4966e-05	1207.1	1.6306e-06	1.7739e-06	1264.3	244.53	7.4704e-07	5.3156e-07	309.19	86.617	68.224	19.713	4.4265e-06	28.089	5.708e-05	6.2201e-05	1.6326e-05	889.56	6.0588e-07	6.9343e-07	1145.6	220.27	6.4536e-07	7.078e-07	266.3	76.602	60.014	17.349	6.7238e-07	23.968	159.015	113.240	-68.311	-82.513	15.042	-6.525	-82.206	-75.742	26.931	243.220	-75.838	-69.158	-69.048	-61.985	2.796	-62.420	-8191	255	
6657.935	1	1	0	0	0.18541	0.15556	0.045737	0.20373	0.085373	0.16332	0.17722	0.30607	0.10218	0.091001	0.067065	0.1498	0.15635	0.15279	0.26732	0.12997	-2.2083	-2.9958	-2.6417	-2.4437	-2.8063	-2.5292	-2.7188	-3.0042	-2.3958	-2.8937	-2.7646	-2.5229	-3.0396	-2.5687	-2.6708	-2.9062	5.495	38.435	159.933	262.168	2.511	54.058	188.904	204.640	-7.828	-13.179	128.699	-73.464	34.083	154.362	7.676	17.961	4.9752e-05	0.0003427	5.796e-05	1212.5	3.7384e-07	4.2892e-06	1268.9	245.72	2.9394e-06	1.7041e-06	311.77	86.504	67.597	19.852	3.3376e-06	28.109	6.2979e-05	6.5654e-05	1.6804e-05	892.73	6.6876e-07	7.082e-07	1148.2	220.89	6.9362e-07	7.0284e-07	266.56	76.451	59.892	17.348	6.505e-07	23.972	190.939	-51.642	-52.636	-82.108	-43.169	-7.194	-82.369	-75.292	-30.346	-11.956	-75.554	-69.029	-68.633	-61.907	-45.079	-62.204	-8191	255	
6658.031	1	1	0	0	0.16229	0.17358	0.23032	0.15578	0.23879	0.11835	0.26112	0.24639	0.24667	0.30511	0.0387	0.30793	0.13065	0.097416	0.13357	0.32478	-2.1583	-2.7458	-2.7188	-2.4896	-3.025	-2.7083	-2.6125	-3.0979	-2.3708	-2.7979	-2.8896	-2.5458	-2.9146	-2.6937	-2.525	-2.8771	228.257	27.536	-86.129	263.930	26.972	22.656	227.056	243.693	-82.197	243.625	-75.623	195.445	42.795	134.754	-62.324	128.772	8.9509e-05	0.00021411	5.2214e-05	1217.8	1.2824e-06	3.3096e-06	1266.2	245.52	1.5655e-06	2.8302e-06	311.21	87.214	67.647	19.829	1.652e-06	27.892	6.261e-05	6.1771e-05	1.5728e-05	893.28	6.7532e-07	6.539e-07	1145.1	220.58	6.8475e-07	6.4979e-07	266.07	76.611	59.964	17.292	6.1752e-07	23.912	206.994	-33.297	222.282	-82.678	-50.989	2.395	-82.128	-75.282	113.009	16.450	-75.748	-69.070	-68.774	-61.735	-84.981	-62.301	-8191	255	
6658.152	1	1	0	0	0.17365	0.061919	0.081969	0.077295	0.33285	0.12695	0.20016	0.12139	0.13094	0.23291	0.15056	0.23891	0.18234	0.13726	0.20788	0.23323	-2.1667	-2.6208	-2.7458	-2.6854	-2.6833	-2.7625	-2.7729	-2.9292	-2.8146	-2.725	-2.9771	-2.4917	-3.025	-2.5854	-2.5396	-2.9292	122.801	235.968	152.222	217.440	23.252	260.032	159.199	15.920	144.484	166.198	173.705	226.286	-7.684	22.945	49.118	155.478	0.00010416	7.0343e-05	0.00013008	1212.6	8.8341e-07	1.3017e-06	1264.4	243.82	4.7821e-07	8.1215e-07	309.58	87.198	68.019	19.778	1.2397e-06	28.09	6.4281e-05	5.9347e-05	1.5122e-05	891.2	6.9751e-07	6.4285e-07	1143.9	220.28	6.9324e-07	6.4846e-07	265.55	76.609	60.129	17.257	6.0533e-07	23.944	193.620	-72.809	-68.229	-82.339	90.379	56.696	-82.262	-75.119	27.671	-51.080	-75.590	-68.814	-68.642	-62.418	-4.688	-62.218	-8191	255	
6658.248	1	1	0	0	0.22369	0.081225	0.057522	0.071839	0.12836	0.21626	0.068095	0.31417	0.14157	0.10924	0.12758	0.14784	0.16234	0.059399	0.32122	0.12373	-2.2021	-2.4542	-2.8875	-2.3563	-2.9229	-2.5896	-2.3917	-2.925	-2.4896	-2.7313	-3.1875	-2.4688	-2.9354	-2.8604	-2.4667	-2.8812	-23.309	14.851	-67.536	-55.818	6.619	263.960	4.698	252.187	-21.220	135.062	-57.820	228.916	251.410	69.741	234.960	262.028	8.568e-05	8.1378e-05	0.00010373	1205.7	8.8095e-07	3.4233e-06	1268.8	245.83	2.1743e-06	1.6175e-06	309.96	86.652	68.374	19.883	3.1616e-06	27.87	6.3448e-05	5.8853e-05	1.4644e-05	889.41	6.8651e-07	6.1315e-07	1144.5	221	6.8263e-07	6.3847e-07	265.83	76.791	60.125	17.308	6.1164e-07	24.072	177.909	-71.154	-71.065	-82.542	-16.402	-62.192	-82.286	-75.158	31.383	25.565	-75.527	-68.812	-69.168	-61.601	-86.664	-62.304	-8191	255	
6658.320	1	1	0	0	0.19064	0.174	0.23	0.11608	0.062422	0.39352	0.3123	0.22032	0.047207	0.35977	0.31091	0.20338	0.15705	0.35703	0.20796	0.10576	-2.5146	-2.5417	-2.9396	-2.5875	-2.7896	-2.9542	-2.7854	-2.8396	-2.6396	-2.5417	-3.0896	-2.7021	-2.775	-2.8396	-2.6042	-3.0563	216.649	-77.485	68.665	164.005	-2.923	68.963	161.496	-76.822	106.061	196.428	18.764	93.713	128.977	189.192	-3.218	183.533	4.5499e-05	0.0003187	5.7009e-06	1200.1	2.0695e-06	1.8612e-06	1266.8	245.29	2.9602e-07	5.3168e-07	310.68	86.634	67.954	19.783	1.5205e-06	28.135	6.4549e-05	5.8808e-05	1.5254e-05	892.71	6.8826e-07	6.2103e-07	1146.3	221.64	6.6902e-07	6.334e-07	266.88	76.748	60.042	17.256	6.339e-07	24.13	262.735	-23.582	167.691	-82.631	72.209	21.715	-82.164	-75.318	20.451	132.736	-75.486	-69.183	-68.872	-61.989	68.236	-62.345	-8191	255	
6658.416	1	1	0	0	0.0747	0.097917	0.19799	0.43045	0.15338	0.28225	0.14892	0.056197	0.28346	0.17726	0.21958	0.049396	0.098155	0.15032	0.095185	0.23122	-2.2792	-2.6708	-2.7208	-2.6229	-2.5271	-2.8042	-2.6396	-3.0104	-2.825	-2.6688	-2.8396	-2.8146	-2.5708	-3.0875	-2.5125	-2.8187	119.024	154.855	77.219	175.940	15.981	161.154	207.175	248.866	71.694	256.105	163.869	-17.824	-71.371	140.248	-54.201	-45.926	9.4088e-05	0.00022576	6.7768e-05	1205	1.0706e-06	2.4756e-06	1270.7	246.77	1.1027e-06	2.9666e-06	308.42	86.787	68.135	19.887	1.4837e-06	28.053	6.1457e-05	5.6653e-05	1.5916e-05	894.04	6.6043e-07	6.0758e-07	1146.8	221.86	6.6249e-07	6.2229e-07	266.46	76.861	60.015	17.27	6.6659e-07	24.114	187.753	-12.731	191.748	-82.777	140.500	1.863	-82.269	-75.570	-10.763	-9.409	-75.738	-69.150	-68.873	-62.583	-81.866	-62.539	-8191	255	
6658.512	1	1	0	0	0.062563	0.088155	0.06177	0.26709	0.21235	0.14549	0.32022	0.31074	0.13628	0.17279	0.19045	0.10126	0.050089	0.17062	0.10132	0.14078	-2.175	-2.4958	-2.8479	-2.5771	-2.6667	-2.9458	-2.6354	-2.8917	-2.8083	-2.5479	-2.9062	-2.7833	-2.6729	-3.1063	-2.5208	-2.8083	-62.589	244.481	145.534	-68.769	36.608	113.434	202.377	-85.865	88.236	94.435	189.752	-86.104	129.067	66.800	165.923	-40.622	0.00012049	0.00020975	2.5103e-05	1212.3	2.5193e-06	1.6571e-06	1269.1	245.64	9.6137e-07	5.9993e-07	309.46	86.654	67.848	19.814	6.5955e-07	27.917	5.99e-05	5.5901e-05	1.6526e-05	893.04	6.4232e-07	5.904e-07	1146.4	221.32	6.2032e-07	5.9537e-07	266.66	76.605	59.867	17.223	6.6871e-07	24.01	205.651	224.434	262.135	-82.659	60.726	48.036	-82.316	-75.434	24.960	144.780	-75.625	-68.976	-69.046	-61.901	253.934	-62.062	-8191	255	
6658.633	1	1	0	0	0.1169	0.086052	0.18235	0.13322	0.21534	0.25114	0.12421	0.1485	0.04716	0.069641	0.14158	0.14969	0.18618	0.23694	0.21325	0.09189	-2.3646	-2.5625	-2.8375	-2.7625	-2.4479	-2.9125	-2.7521	-2.9562	-2.8375	-2.4292	-3.0333	-2.6688	-2.6312	-2.9313	-2.525	-2.7833	4.206	207.309	-59.062	248.061	201.346	70.766	187.181	172.266	110.014	230.981	-60.205	166.602	-4.403	248.777	166.815	37.517	0.00013098	0.00024119	4.5153e-05	1209.1	1.7811e-06	3.4394e-06	1268.1	245.29	3.1783e-06	1.4163e-06	308.99	86.437	68.011	19.764	2.71e-06	28.136	5.6972e-05	5.4116e-05	1.6602e-05	891.3	6.1141e-07	5.8383e-07	1144.1	221.17	5.907e-07	5.9552e-07	266.44	76.396	59.798	17.189	6.6337e-07	24.004	197.380	-35.907	-62.783	-82.617	56.499	-11.986	-82.135	-75.406	-13.135	51.950	-75.770	-69.313	-68.747	-62.037	-65.575	-62.411	-8191	255	
#DATA ENDS
