BOXY.EXE: ISS Imagent and Oximeter Data Acquisition Program Version 0.80
Ascii Record File

#ACQ INFORMATION
2  Detector Channels 
16  External MUX Channels 
1  Auxiliary Channels 
5000  Waveform (CCF) Frequency (Hz)
1  Waveforms Skipped 
30  Waveforms Averaged 
1  Cycles Averaged 
16  Acquisitions per Waveform 
10.0806  Updata Rate (Hz) 

#FILE INFORMATION
TRUE -- External MUX Channel results are PARSED.
FALSE -- AC DC and Phase are NOT grouped.
TRUE -- Companion Program Settings File CREATED.
FALSE -- AC data not excluded
FALSE -- DC data not excluded
FALSE -- Phase data not excluded
FALSE -- Auxillary Chn. data not excluded
Tab delimiters

#CALIBRATION STATE
TRUE -- Waveform Calibration Values APPLIED.


#AUX CALIBRATION VALUES
Val Type	aux-1	

Term	1.0000e+00	
Factor	0.0000e+00	


#WF CALIBRATION VALUES
A = Detector Channel
Val Type	A-AC1	A-AC2	A-AC3	A-AC4	A-AC5	A-AC6	A-AC7	A-AC8	A-AC9	A-AC10	A-AC11	A-AC12	A-AC13	A-AC14	A-AC15	A-AC16	A-DC1	A-DC2	A-DC3	A-DC4	A-DC5	A-DC6	A-DC7	A-DC8	A-DC9	A-DC10	A-DC11	A-DC12	A-DC13	A-DC14	A-DC15	A-DC16	A-Ph1	A-Ph2	A-Ph3	A-Ph4	A-Ph5	A-Ph6	A-Ph7	A-Ph8	A-Ph9	A-Ph10	A-Ph11	A-Ph12	A-Ph13	A-Ph14	A-Ph15	A-Ph16	

Term	0.00000e+00	0.00000e+00	0.00000e+00	0.00000e+00	0.00000e+00	0.00000e+00	0.00000e+00	0.00000e+00	0.00000e+00	0.00000e+00	0.00000e+00	0.00000e+00	0.00000e+00	0.00000e+00	0.00000e+00	0.00000e+00	0.00000e+00	0.00000e+00	0.00000e+00	0.00000e+00	0.00000e+00	0.00000e+00	0.00000e+00	0.00000e+00	0.00000e+00	0.00000e+00	0.00000e+00	0.00000e+00	0.00000e+00	0.00000e+00	0.00000e+00	0.00000e+00	0.00000e+00	0.00000e+00	0.00000e+00	0.00000e+00	0.00000e+00	0.00000e+00	0.00000e+00	0.00000e+00	0.00000e+00	0.00000e+00	0.00000e+00	0.00000e+00	0.00000e+00	0.00000e+00	0.00000e+00	0.00000e+00	
Factor	1.00000e+00	1.00000e+00	1.00000e+00	1.00000e+00	1.00000e+00	1.00000e+00	1.00000e+00	1.00000e+00	1.00000e+00	1.00000e+00	1.00000e+00	1.00000e+00	1.00000e+00	1.00000e+00	1.00000e+00	1.00000e+00	1.00000e+00	1.00000e+00	1.00000e+00	1.00000e+00	1.00000e+00	1.00000e+00	1.00000e+00	1.00000e+00	1.00000e+00	1.00000e+00	1.00000e+00	1.00000e+00	1.00000e+00	1.00000e+00	1.00000e+00	1.00000e+00	X	X	X	X	X	X	X	X	X	X	X	X	X	X	X	X	

B = Detector Channel
Val Type	B-AC1	B-AC2	B-AC3	B-AC4	B-AC5	B-AC6	B-AC7	B-AC8	B-AC9	B-AC10	B-AC11	B-AC12	B-AC13	B-AC14	B-AC15	B-AC16	B-DC1	B-DC2	B-DC3	B-DC4	B-DC5	B-DC6	B-DC7	B-DC8	B-DC9	B-DC10	B-DC11	B-DC12	B-DC13	B-DC14	B-DC15	B-DC16	B-Ph1	B-Ph2	B-Ph3	B-Ph4	B-Ph5	B-Ph6	B-Ph7	B-Ph8	B-Ph9	B-Ph10	B-Ph11	B-Ph12	B-Ph13	B-Ph14	B-Ph15	B-Ph16	

Term	0.00000e+00	0.00000e+00	0.00000e+00	0.00000e+00	0.00000e+00	0.00000e+00	0.00000e+00	0.00000e+00	0.00000e+00	0.00000e+00	0.00000e+00	0.00000e+00	0.00000e+00	0.00000e+00	0.00000e+00	0.00000e+00	0.00000e+00	0.00000e+00	0.00000e+00	0.00000e+00	0.00000e+00	0.00000e+00	0.00000e+00	0.00000e+00	0.00000e+00	0.00000e+00	0.00000e+00	0.00000e+00	0.00000e+00	0.00000e+00	0.00000e+00	0.00000e+00	2.53724e+01	-1.25825e+02	-1.32423e+02	-1.86157e+02	-5.31231e+01	-7.74207e+01	-1.59021e+02	-1.62015e+02	-9.81342e+01	-6.42266e+01	-1.73719e+02	-1.69925e+02	-1.79918e+02	-1.77120e+02	-6.73402e+01	-1.50188e+02	
Factor	4.43643e-05	1.31752e-04	3.84766e-05	6.00296e-01	1.09162e-06	1.23883e-06	1.58776e-01	4.81384e-02	1.60025e-06	1.38813e-06	8.39062e-02	2.75674e-02	2.39658e-02	9.07276e-03	1.49700e-06	1.30833e-02	1.61200e-06	1.67637e-06	4.65165e-07	2.83808e-01	1.83225e-08	1.83332e-08	7.47258e-02	2.41391e-02	1.82575e-08	1.83873e-08	4.04860e-02	1.32768e-02	1.20086e-02	4.53932e-03	1.82600e-08	6.30792e-03	X	X	X	X	X	X	X	X	X	X	X	X	X	X	X	X	



#DISTANCE SETTINGS
A = Detector Channel
A-1	A-2	A-3	A-4	A-5	A-6	A-7	A-8	A-9	A-10	A-11	A-12	A-13	A-14	A-15	A-16	

2.5000e+00	3.0000e+00	2.5000e+00	3.0000e+00	2.0000e+00	3.0000e+00	1.5000e+00	3.0000e+00	3.0000e+00	3.0000e+00	3.0000e+00	3.0000e+00	3.0000e+00	3.0000e+00	1.5000e+00	3.0000e+00	

B = Detector Channel
B-1	B-2	B-3	B-4	B-5	B-6	B-7	B-8	B-9	B-10	B-11	B-12	B-13	B-14	B-15	B-16	

1.0000e+01	1.0000e+01	1.0000e+01	1.4400e+00	1.0000e+01	1.0000e+01	1.5100e+00	1.9400e+00	1.0000e+01	1.0000e+01	1.9900e+00	2.4900e+00	2.4100e+00	2.9000e+00	1.0000e+01	2.9800e+00	




#DATA BEGINS
time	group	step	mark	flag	A-AC1	A-AC2	A-AC3	A-AC4	A-AC5	A-AC6	A-AC7	A-AC8	A-AC9	A-AC10	A-AC11	A-AC12	A-AC13	A-AC14	A-AC15	A-AC16	A-DC1	A-DC2	A-DC3	A-DC4	A-DC5	A-DC6	A-DC7	A-DC8	A-DC9	A-DC10	A-DC11	A-DC12	A-DC13	A-DC14	A-DC15	A-DC16	A-Ph1	A-Ph2	A-Ph3	A-Ph4	A-Ph5	A-Ph6	A-Ph7	A-Ph8	A-Ph9	A-Ph10	A-Ph11	A-Ph12	A-Ph13	A-Ph14	A-Ph15	A-Ph16	B-AC1	B-AC2	B-AC3	B-AC4	B-AC5	B-AC6	B-AC7	B-AC8	B-AC9	B-AC10	B-AC11	B-AC12	B-AC13	B-AC14	B-AC15	B-AC16	B-DC1	B-DC2	B-DC3	B-DC4	B-DC5	B-DC6	B-DC7	B-DC8	B-DC9	B-DC10	B-DC11	B-DC12	B-DC13	B-DC14	B-DC15	B-DC16	B-Ph1	B-Ph2	B-Ph3	B-Ph4	B-Ph5	B-Ph6	B-Ph7	B-Ph8	B-Ph9	B-Ph10	B-Ph11	B-Ph12	B-Ph13	B-Ph14	B-Ph15	B-Ph16	aux-1	digaux	

1435.089	1	1	0	256	0.047858	0.16605	0.192	0.060097	0.3238	0.058274	0.13865	0.17021	0.15619	0.17926	0.081327	0.14671	0.089672	0.059533	0.013149	0.21692	-2.2604	-2.7917	-3.0187	-2.6583	-3.0271	-2.7104	-2.7708	-3.1458	-2.6729	-2.85	-3.1146	-2.5979	-2.9583	-3.0479	-2.6271	-2.9646	52.650	-67.748	225.815	-95.189	110.050	-68.408	183.696	216.989	-81.001	13.756	168.221	211.965	179.863	178.397	158.153	240.463	0.00065402	0.0011824	0.00040849	1337.3	7.9053e-07	1.0498e-05	1336.5	366.73	1.2502e-05	8.9344e-06	418.66	140.68	122.27	42.241	1.144e-05	51.931	0.0025007	0.0025025	0.00064873	1662.2	2.7985e-05	2.6794e-05	1439.3	397.99	2.7789e-05	2.6383e-05	467.68	158.43	139.46	48.316	2.4403e-05	60.25	10.246	-45.347	-28.833	-88.682	-27.688	48.132	-88.902	-84.049	-61.663	32.865	-84.524	-80.470	-79.902	-75.502	166.658	-76.121	-8191	255	
1435.186	1	1	0	0	0.13142	0.087552	0.072343	0.057952	0.15614	0.10776	0.45667	0.27725	0.18274	0.14346	0.083652	0.1243	0.29826	0.096687	0.21487	0.18141	-2.2812	-2.7812	-2.8	-2.7229	-2.8229	-2.7938	-2.7354	-2.8063	-2.6542	-2.6708	-3.1125	-2.7229	-3.0021	-3.0667	-2.4188	-3.0917	231.531	-60.838	-49.531	104.478	-60.877	-25.335	176.189	214.677	45.968	-47.832	253.319	233.278	132.415	217.965	224.557	221.508	0.00049423	0.00041002	0.00018477	1341.2	4.5814e-06	4.6433e-06	1339.4	364.63	1.0857e-05	2.152e-05	419.25	140.77	122.25	42.09	8.1991e-06	52.223	0.0024155	0.0023455	0.00060648	1662.1	2.7097e-05	2.5222e-05	1431.9	398.51	2.6657e-05	2.5424e-05	465.57	159.01	138.73	48.073	2.3868e-05	60.776	-47.445	147.713	-12.680	-88.905	241.741	22.685	-88.714	-84.200	-38.831	7.417	-84.700	-80.317	-79.608	-75.218	58.884	-75.994	-8191	255	
1435.282	1	1	0	0	0.19805	0.072063	0.19532	0.070232	0.13926	0.20543	0.14609	0.45125	0.38041	0.068559	0.38173	0.10913	0.27611	0.19595	0.22719	0.15056	-2.2542	-2.6479	-2.8917	-2.6479	-2.9313	-2.9188	-2.9708	-2.9896	-2.8792	-2.6104	-3.1792	-2.7396	-2.85	-3.0583	-2.5604	-2.9813	44.765	-28.771	241.535	-8.493	223.286	178.666	169.852	212.453	23.144	24.583	226.709	196.932	191.451	211.265	85.301	219.306	0.00038315	0.00022136	0.00010007	1334.9	7.4788e-06	4.9015e-06	1335.4	365.14	2.2457e-05	9.8325e-06	417.95	141.09	121.85	42.251	1.0248e-05	51.994	0.002369	0.0023274	0.00060572	1684.8	2.6854e-05	2.5192e-05	1432.1	400.64	2.6466e-05	2.5501e-05	466.76	159.92	138.69	47.961	2.4752e-05	61.168	-10.214	209.205	5.317	-88.368	64.714	15.406	-88.887	-84.230	-14.354	22.507	-84.573	-80.287	-79.720	-75.066	200.308	-75.742	-8191	255	
1435.378	1	1	0	0	0.14506	0.094033	0.088261	0.07128	0.13031	0.12553	0.1081	0.21932	0.10579	0.1925	0.051159	0.023503	0.12128	0.25886	0.21023	0.14498	-2.4062	-2.6125	-3.0167	-2.8104	-2.5146	-2.9	-2.8229	-3.0312	-2.8354	-2.5729	-3.0854	-2.6979	-2.4729	-3.0771	-2.5771	-3.0146	244.091	159.542	155.657	221.686	171.204	200.675	239.139	216.402	108.890	76.225	-18.964	251.953	155.190	-95.263	13.246	193.236	0.00040137	0.0017986	0.00020575	1346.6	7.4918e-06	6.9285e-06	1338.2	365.67	1.3779e-06	1.4024e-05	419.12	141.24	121.99	42.156	6.4928e-06	51.925	0.0023387	0.0022998	0.00062852	1697.1	2.6367e-05	2.4543e-05	1439	401.37	2.5687e-05	2.4526e-05	469.37	160.16	137.99	47.745	2.544e-05	60.916	52.574	-20.438	70.329	-88.440	108.444	-93.025	-88.917	-84.106	-52.529	2.741	-84.411	-79.959	-79.673	-75.371	119.647	-75.883	-8191	255	
1435.474	1	1	0	0	0.1216	0.02613	0.094965	0.16713	0.32573	0.17542	0.079394	0.29224	0.19432	0.21646	0.12961	0.19997	0.19022	0.24067	0.080273	0.086636	-2.5021	-2.4229	-2.9917	-2.8354	-2.6604	-3.0854	-2.7812	-3.0687	-2.6625	-2.65	-2.8937	-2.7833	-2.7271	-3.0375	-2.4562	-3.025	171.881	0.152	-100.964	214.504	147.350	-4.107	246.109	240.478	-73.364	-86.303	58.412	-79.253	251.831	-83.004	174.922	-43.512	0.00027217	0.00066394	7.0791e-05	1335.7	9.7006e-06	7.2607e-06	1340.7	365.87	1.065e-05	9.6071e-06	420.4	140.85	122.34	42.177	7.6384e-06	52.341	0.0022306	0.0021836	0.00064965	1682.9	2.5326e-05	2.3476e-05	1441.9	400.22	2.4774e-05	2.3927e-05	472.21	159.17	137.72	47.685	2.6302e-05	60.718	-23.667	-3.001	55.666	-89.002	41.697	76.736	-88.842	-84.245	-49.777	120.513	-84.559	-80.447	-79.553	-75.208	222.568	-76.181	-8191	255	
1435.595	1	1	0	0	0.14164	0.10248	0.18094	0.17174	0.074872	0.14354	0.28891	0.39093	0.22894	0.14004	0.3791	0.099795	0.25782	0.22943	0.14727	0.17798	-2.5583	-2.4604	-2.5979	-2.7958	-2.6063	-2.9813	-2.5833	-2.8958	-2.8771	-2.5438	-3.1125	-3.0479	-2.8104	-3.1479	-2.6146	-2.9875	154.292	-46.200	-53.227	-72.023	172.951	-22.251	184.547	247.283	78.517	-66.622	231.124	213.098	-65.970	213.279	197.537	104.942	0.00022254	0.00076711	0.00028593	1336.8	1.1874e-06	4.2133e-06	1336.2	365.33	1.5512e-05	1.2564e-05	418.96	140.98	122.18	42.202	1.2467e-05	52.453	0.0021611	0.002172	0.0006713	1663.6	2.4481e-05	2.3495e-05	1440.8	398.67	2.3769e-05	2.4001e-05	472.32	158.15	136.96	47.809	2.6374e-05	60.423	53.888	132.755	-75.747	-88.654	141.587	68.425	-88.906	-84.103	41.485	166.261	-84.505	-80.362	-79.879	-75.028	138.991	-76.193	-8191	255	
1435.691	1	1	0	0	0.26712	0.14724	0.11958	0.16011	0.21517	0.13245	0.22529	0.18602	0.1659	0.09272	0.058817	0.27234	0.24936	0.1557	0.26179	0.13853	-2.6333	-2.5146	-2.825	-2.8063	-2.4979	-3.0062	-2.9271	-2.875	-3.0625	-2.5417	-3.0729	-3.0187	-2.7167	-3.1042	-2.6854	-3.0354	207.728	182.334	78.171	-91.966	-6.302	-61.394	225.373	-93.237	84.909	37.340	-73.516	192.007	181.302	-68.869	63.692	-79.244	8.585e-05	0.00095624	0.00012071	1336.7	3.2657e-06	9.6375e-06	1338.3	365.92	4.2511e-06	7.4739e-06	419.38	141.49	122.51	42.125	8.1077e-06	52.195	0.0020685	0.0022103	0.0006682	1642.7	2.3288e-05	2.4019e-05	1439.5	396.68	2.2377e-05	2.4549e-05	470.61	157.55	136.21	47.934	2.536e-05	59.974	-49.350	174.472	-43.578	-88.680	113.057	155.656	-88.866	-84.058	68.571	1.592	-84.632	-80.462	-79.772	-75.144	37.141	-75.928	-8191	255	
1435.785	1	1	0	0	0.039601	0.25758	0.069708	0.16718	0.035356	0.16876	0.050959	0.21528	0.058003	0.22693	0.17245	0.25934	0.26881	0.33447	0.31032	0.13041	-2.5771	-2.4146	-2.7104	-2.7125	-2.5438	-2.9042	-2.8479	-2.7708	-3.0312	-2.5625	-2.8646	-3.0312	-2.7021	-2.9396	-2.7333	-2.7104	218.564	111.255	153.938	-49.205	-9.687	-99.471	30.875	165.799	-71.450	-35.360	-80.309	198.745	164.684	-74.359	229.309	12.932	0.00044807	0.00098015	0.00022511	1337.4	3.7673e-06	3.3248e-06	1333.4	365.61	2.152e-06	6.4211e-06	416.83	140.31	122.29	42.116	4.8704e-06	52.003	0.0019885	0.0022913	0.00064488	1631.2	2.2803e-05	2.5095e-05	1434.6	396.33	2.2193e-05	2.5334e-05	467.77	156.65	136.08	48.069	2.4131e-05	59.504	-31.901	91.619	-52.237	-88.178	-53.684	162.287	-88.764	-84.010	39.637	-50.710	-84.823	-80.628	-79.673	-75.240	136.785	-75.933	-8191	255	
1435.883	1	1	0	0	0.11618	0.13744	0.074826	0.21342	0.31387	0.14967	0.40634	0.093703	0.256	0.17557	0.28392	0.14193	0.25548	0.46225	0.25208	0.29289	-2.5687	-2.5792	-2.5854	-2.9125	-2.4167	-3.0333	-3.1708	-2.5563	-3.0458	-2.7958	-2.9417	-3.2125	-2.6417	-3.1208	-2.8354	-2.6333	-7.234	70.423	74.810	79.531	146.752	241.950	207.594	33.367	78.506	27.466	222.808	232.245	154.834	222.439	-70.917	233.704	0.00043144	0.00025239	0.00043968	1322.3	2.7801e-06	4.8989e-06	1331.2	364.33	9.8814e-06	9.3867e-06	416.86	140.87	121.54	42.118	1.9343e-05	52.312	0.0019682	0.0022939	0.00061168	1603.6	2.2587e-05	2.4945e-05	1424.4	393.49	2.2304e-05	2.491e-05	463.64	155.38	135.96	47.965	2.3073e-05	59.247	-41.917	129.141	-17.198	-88.715	236.312	87.930	-88.759	-84.190	62.838	19.536	-84.672	-80.363	-79.702	-75.104	-15.046	-76.259	-8191	255	
1435.978	1	1	0	0	0.15656	0.12816	0.30726	0.44181	0.084796	0.22847	0.20724	0.43613	0.17647	0.19221	0.2243	0.16718	0.19498	0.405	0.26513	0.30361	-2.7438	-2.6854	-2.7271	-2.8646	-2.5729	-2.9292	-3.0521	-2.725	-3.0958	-2.6688	-2.6125	-2.9625	-2.6937	-2.7875	-2.9021	-2.6104	-90.971	52.912	73.489	208.652	193.312	147.742	117.556	208.608	196.719	19.149	217.537	192.525	119.915	234.538	152.966	102.614	0.00067403	0.00057838	0.00016803	1322.3	2.9655e-06	4.9758e-06	1329.8	365.46	9.8034e-06	1.1342e-05	415.6	140	121.95	42.041	1.2612e-05	51.985	0.0020572	0.0022801	0.00059898	1597.2	2.3973e-05	2.5179e-05	1422.2	392.9	2.4266e-05	2.5365e-05	464.57	155.41	137.24	48.005	2.3634e-05	59.269	-2.621	-75.504	-20.383	-88.590	134.262	100.125	-88.911	-84.093	215.722	10.403	-84.591	-80.493	-79.497	-75.139	74.804	-76.068	-8191	255	
1436.074	1	1	0	0	0.12754	0.16068	0.24047	0.17969	0.075518	0.15653	0.27701	0.19634	0.035072	0.27472	0.21158	0.10159	0.15642	0.29114	0.16617	0.17858	-2.5104	-2.6125	-2.5375	-2.9188	-2.6937	-2.7604	-3.1354	-2.7125	-2.9146	-2.7625	-2.5563	-3.2375	-2.6792	-2.7646	-3.0292	-2.6396	-0.548	92.933	206.995	251.779	-47.865	-84.016	179.449	-73.319	60.627	65.984	233.189	129.761	-44.546	182.453	-84.623	209.620	0.00072473	0.0010313	0.00037206	1334.3	2.7677e-06	1.0684e-05	1330.9	364.9	5.3637e-06	2.602e-05	417.02	139.93	121.71	42.026	8.5826e-06	51.99	0.0022701	0.002332	0.00061964	1617.7	2.6437e-05	2.6081e-05	1426.2	395.46	2.6915e-05	2.6245e-05	467.19	157.1	138.86	48.285	2.4793e-05	60.163	-28.617	-49.597	-24.050	-88.645	-7.993	32.889	-89.071	-84.070	-32.465	24.559	-84.499	-80.368	-79.572	-75.119	16.223	-75.852	-8191	255	
1436.170	1	1	0	0	0.15098	0.18265	0.18272	0.15779	0.20864	0.092046	0.092662	0.29608	0.092051	0.2317	0.20496	0.1033	0.38768	0.2427	0.11032	0.077976	-2.4479	-2.7208	-2.5563	-2.9167	-2.5625	-2.7833	-3.1958	-2.7	-2.9396	-2.85	-2.6	-3.075	-2.8292	-2.7208	-2.9708	-2.6417	118.340	-41.138	-53.674	238.953	-37.810	138.969	152.821	203.594	247.837	145.349	167.331	225.992	226.138	113.447	5.423	-79.723	0.00056981	0.00036929	0.00036683	1331.5	9.3972e-06	9.8809e-06	1332.4	363.98	1.435e-05	1.5156e-05	419.76	140.22	121.69	42.013	1.1035e-05	52.154	0.0024994	0.0024235	0.00064519	1656.5	2.8336e-05	2.6871e-05	1432.1	398.61	2.829e-05	2.652e-05	469.01	158.95	139.53	48.46	2.4868e-05	60.998	-8.571	13.314	-24.046	-88.818	60.234	76.708	-88.784	-84.189	-38.526	20.741	-84.770	-80.274	-79.583	-75.233	-56.762	-75.991	-8191	255	
1436.290	1	1	0	0	0.29737	0.10711	0.10805	0.037261	0.1175	0.064715	0.22123	0.14007	0.068915	0.084119	0.37777	0.26735	0.43604	0.097584	0.27898	0.12275	-2.5083	-2.9688	-2.4521	-3.0479	-2.7438	-2.7083	-3.1917	-2.8021	-2.9	-2.7729	-2.6	-3.0521	-2.8292	-2.6937	-2.9271	-2.6667	126.004	93.217	134.578	2.302	18.339	-72.837	115.458	163.540	-38.758	-35.176	222.772	201.536	213.478	257.721	-67.980	113.313	0.00023303	0.00041605	0.0001442	1332.4	6.8137e-06	9.1062e-06	1335.3	363.8	1.1487e-05	1.0445e-05	419.37	140.59	122.14	42.065	1.2805e-05	51.911	0.0025114	0.0024102	0.00064313	1686.2	2.8194e-05	2.6824e-05	1433.5	401.84	2.864e-05	2.7074e-05	471.27	161.32	140.22	48.773	2.6767e-05	62.215	-14.507	158.507	-90.250	-88.853	17.210	7.939	-88.764	-84.188	36.904	28.780	-84.928	-80.224	-79.779	-75.251	182.274	-76.143	-8191	255	
1436.387	1	1	0	0	0.30288	0.24064	0.18231	0.13564	0.15284	0.041281	0.12278	0.23803	0.05485	0.17109	0.1027	0.025606	0.31887	0.32909	0.099233	0.10328	-2.3125	-2.8167	-2.5438	-3.0354	-2.9125	-2.6271	-3.0771	-2.7875	-2.8167	-3.1188	-2.6063	-3.0062	-2.8833	-2.7146	-3.0854	-2.8208	76.494	167.565	225.491	-74.480	17.456	-63.523	102.732	-76.494	22.322	-68.323	142.164	-78.966	215.470	198.451	-73.495	219.639	0.00021148	0.0014994	0.00014135	1332	1.2897e-05	1.2478e-05	1340.9	364.97	7.1046e-06	1.0256e-05	419.72	141.39	122.35	42.232	4.3698e-06	52.063	0.0026899	0.0026007	0.00071558	1758.7	3.0425e-05	2.9192e-05	1455.3	408.08	3.085e-05	2.9105e-05	481.01	164.06	141.27	49.112	2.9877e-05	63.025	18.334	-7.134	210.614	-88.605	73.767	18.587	-88.738	-84.088	147.929	10.478	-84.860	-80.232	-79.637	-75.186	176.468	-75.943	-8191	255	
1436.483	1	1	0	0	0.25373	0.17093	0.026303	0.21918	0.20253	0.19324	0.22375	0.34377	0.18268	0.064066	0.2667	0.18052	0.08449	0.24864	0.12483	0.1779	-2.3021	-2.9896	-2.4604	-2.8583	-2.8187	-2.5792	-3.1208	-2.7396	-2.6729	-3.0833	-2.6625	-2.8979	-2.9667	-2.5687	-2.9625	-2.7542	96.158	8.599	117.841	-78.803	228.669	210.057	214.096	224.561	-92.323	98.163	223.451	185.369	191.004	246.162	-14.336	230.595	0.00039861	0.0012614	0.00013253	1349.8	1.2963e-05	7.2251e-06	1345.5	367.56	8.5471e-06	9.4272e-06	419.94	141.12	122.12	42.039	1.1161e-05	52.304	0.0027677	0.0026515	0.00078702	1787.7	3.0562e-05	2.9256e-05	1469.3	409.36	3.0451e-05	2.8346e-05	484.5	163.82	140.7	48.915	3.1017e-05	62.551	3.578	4.330	45.327	-88.704	-10.220	-22.270	-88.894	-83.997	-97.776	27.583	-84.891	-80.382	-79.615	-75.295	12.732	-75.629	-8191	255	
1436.554	1	1	0	0	0.1289	0.12879	0.11611	0.027306	0.088402	0.073767	0.19483	0.16215	0.22157	0.11724	0.074969	0.065511	0.037287	0.14579	0.13073	0.23212	-2.425	-3.05	-2.475	-2.7792	-2.7542	-2.6396	-3.2021	-2.9292	-2.7042	-2.8354	-2.6542	-2.8417	-3.0521	-2.6167	-2.9729	-3.0062	230.362	194.775	87.191	230.885	-68.964	179.566	162.381	231.621	-19.732	109.601	98.224	154.933	147.523	-60.834	27.666	206.882	0.00025664	0.00022899	0.00037472	1339.4	8.392e-06	2.7559e-06	1340.3	366.98	1.1749e-05	4.9482e-06	420.6	141.1	122.53	42.294	1.3347e-06	52.241	0.0026541	0.0025402	0.00080118	1754	2.9003e-05	2.8218e-05	1468.4	406.56	2.9005e-05	2.7917e-05	485.02	162.31	139.83	48.889	3.1242e-05	61.899	36.637	97.634	131.047	-88.684	66.926	84.556	-89.025	-84.258	-100.778	212.130	-84.594	-80.199	-79.706	-75.313	131.876	-76.219	-8191	255	
1436.675	1	1	0	0	0.116	0.13201	0.25579	0.11186	0.21052	0.1345	0.17088	0.20797	0.093948	0.26728	0.011008	0.10493	0.10024	0.21289	0.17896	0.062904	-2.1312	-2.8917	-2.6125	-2.6813	-2.8812	-2.5521	-3.0083	-2.8354	-2.4146	-3.1625	-2.8104	-2.6479	-3.0938	-2.7438	-2.9979	-3.0604	25.270	143.911	-30.566	-13.902	218.031	207.110	207.880	154.970	22.930	-39.493	26.650	-90.659	-21.321	-26.760	68.191	-39.061	0.00048685	0.00098498	0.00030712	1349.5	1.0765e-05	1.3953e-05	1345.4	367.56	7.9761e-06	3.6427e-06	420.15	141.15	122.18	42.112	4.3938e-06	52.002	0.0025381	0.0025705	0.00080403	1737	2.7809e-05	2.8739e-05	1469.9	404.52	2.7864e-05	2.8696e-05	484.46	161.68	139.31	49.153	3.0909e-05	61.615	6.526	190.584	155.122	-88.476	32.758	139.482	-88.869	-84.055	14.363	242.204	-84.539	-80.454	-79.755	-75.222	4.019	-75.982	-8191	255	
1436.771	1	1	0	0	0.049154	0.23624	0.041263	0.21495	0.11531	0.055032	0.078041	0.38671	0.24421	0.18471	0.29146	0.19355	0.19449	0.1719	0.1919	0.31819	-2.1875	-2.9729	-2.5375	-2.6979	-2.9917	-2.725	-2.9896	-3.0812	-2.3104	-2.8542	-2.7396	-2.8271	-3.1396	-2.7812	-2.675	-3.0396	208.398	43.417	249.391	134.063	-29.921	139.058	218.902	195.024	108.784	207.160	213.795	211.096	-101.983	64.754	255.395	211.682	0.00082354	0.00038863	7.6009e-05	1343.7	3.2853e-06	7.9803e-06	1342	367.15	6.4112e-06	5.1148e-06	420.02	141.33	122.54	41.938	2.1655e-06	52.256	0.002448	0.0026897	0.00078466	1723.5	2.6941e-05	2.9927e-05	1469.8	403.81	2.718e-05	2.9998e-05	481.73	161.27	139.09	49.318	2.9859e-05	61.175	-31.651	141.466	66.647	-88.747	138.141	203.034	-88.974	-84.438	119.046	71.308	-84.623	-80.069	-79.969	-75.001	194.708	-75.928	-8191	255	
1436.867	1	1	0	0	0.24846	0.051587	0.15246	0.31053	0.13009	0.25136	0.25034	0.41309	0.22481	0.14461	0.38625	0.13566	0.15667	0.15334	0.25373	0.1789	-2.2229	-2.8812	-2.5979	-2.4521	-3.1771	-2.7208	-3.0792	-3.1042	-2.4062	-2.8521	-2.7979	-2.5917	-3.0167	-2.7625	-2.7375	-3.1271	24.779	196.407	11.630	231.433	171.312	241.343	193.263	228.945	58.902	38.845	251.187	181.762	164.436	249.098	102.738	205.550	0.00015909	0.001625	0.00026573	1347	5.1954e-06	4.5999e-06	1344.5	367.89	3.0722e-06	4.7246e-06	420.88	141.56	122.13	42.016	8.3646e-06	52.186	0.002424	0.0027739	0.00074983	1705.9	2.6766e-05	3.0204e-05	1459.5	401.98	2.6854e-05	3.0168e-05	477.93	159.94	138.78	49.246	2.8454e-05	60.705	34.526	153.428	-30.990	-88.917	-30.900	103.077	-88.878	-84.131	71.561	86.093	-84.551	-80.226	-79.864	-75.224	-12.572	-76.294	-8191	255	
1436.964	1	1	0	0	0.14907	0.064209	0.21793	0.10274	0.075824	0.28187	0.094551	0.15471	0.057922	0.14818	0.095966	0.25021	0.15132	0.1088	0.1387	0.11283	-2.1167	-2.9562	-2.8063	-2.7667	-2.9375	-2.7521	-2.9208	-3.275	-2.6583	-2.9854	-2.8875	-2.5812	-3.1229	-2.8812	-2.7208	-3.0354	10.470	-54.059	-11.768	2.747	-96.125	-56.935	125.092	84.220	-8.008	100.225	-69.266	-87.942	-59.129	30.782	-46.696	112.931	0.00053907	0.00076535	0.00033962	1339.2	1.993e-06	7.4095e-06	1339.8	366.72	9.4397e-06	8.4959e-06	420.13	140.86	122.34	42.076	1.0439e-05	52.117	0.0024619	0.0027676	0.00071718	1687.3	2.7789e-05	3.0298e-05	1454.6	400.36	2.8486e-05	3.0322e-05	477.4	159.66	140.01	49.201	2.8351e-05	60.636	-26.334	-0.611	56.808	-88.582	243.889	24.005	-88.919	-84.146	160.354	22.898	-84.789	-80.283	-79.826	-75.215	-17.042	-75.854	-8191	255	
1437.082	1	1	0	0	0.09582	0.13822	0.077155	0.11771	0.22613	0.11736	0.24544	0.23392	0.10289	0.08814	0.09675	0.38008	0.11773	0.10999	0.10907	0.089569	-2.1458	-2.7562	-2.7354	-2.3563	-2.9521	-2.7229	-2.7562	-3.1417	-2.7479	-2.7604	-3.0917	-2.6688	-3.0854	-2.7354	-2.5271	-3.0792	-76.367	234.074	-70.382	-53.338	-61.249	125.643	226.152	143.159	165.258	96.279	51.924	238.200	143.173	-20.497	-94.895	164.520	0.00070286	0.0016132	0.00048494	1342.1	7.9474e-06	2.1623e-05	1342.9	365.89	2.3881e-05	1.2359e-05	420.22	140.8	121.91	42.156	5.9476e-06	52.05	0.0026204	0.0027743	0.0007159	1688.8	3.009e-05	3.0133e-05	1455.4	400.78	3.042e-05	3.0412e-05	476.92	160.01	141.23	49.22	2.8496e-05	61.006	-40.084	-0.711	-14.200	-88.719	178.027	67.482	-88.726	-84.326	-87.241	-19.267	-84.754	-80.282	-79.933	-75.327	38.415	-76.207	-8191	255	
1437.179	1	1	0	0	0.207	0.22104	0.24353	0.14071	0.1449	0.16392	0.32938	0.22245	0.12143	0.30352	0.072141	0.16506	0.42171	0.25922	0.28365	0.40899	-2.0146	-2.6792	-2.9542	-2.4354	-2.9062	-2.8646	-2.6021	-3.1458	-2.6583	-2.6979	-3.0417	-2.55	-2.9417	-2.8792	-2.6958	-3.1271	-72.060	124.986	207.655	127.109	-83.550	209.992	211.621	182.234	52.124	70.245	-52.909	186.118	191.621	157.340	192.908	232.947	0.0006876	0.00014375	0.00024888	1332.7	4.013e-06	7.7948e-06	1336.7	366.82	5.3667e-06	1.9886e-05	419.02	140.92	122.02	42.14	1.9363e-05	52.034	0.002758	0.0027404	0.00070741	1702.9	3.1042e-05	2.9257e-05	1451.9	402.61	3.0797e-05	2.9384e-05	474.33	160.64	141.3	48.84	2.7101e-05	61.253	-21.562	-70.271	-61.575	-88.586	253.745	21.212	-88.713	-84.195	2.437	62.007	-84.640	-80.113	-79.860	-75.051	22.788	-76.340	-8191	255	
1437.275	1	1	0	0	0.12157	0.4794	0.17294	0.24871	0.14847	0.1078	0.16803	0.040554	0.18468	0.12093	0.27612	0.29407	0.038184	0.15549	0.21221	0.29583	-2.0833	-2.8063	-2.9042	-2.5563	-2.9021	-2.8187	-2.6667	-2.8125	-2.5729	-2.4583	-2.9979	-2.7646	-2.7771	-3.075	-2.5042	-3.0812	-86.460	-75.412	240.237	239.064	252.741	-80.340	174.340	-64.445	234.042	73.519	210.908	93.674	245.159	241.307	82.972	118.306	0.00046121	0.0015338	0.00027005	1337.1	4.1299e-06	7.8771e-06	1337.8	365.85	1.3558e-05	1.0249e-05	419.92	140.72	122.7	42.212	8.5207e-06	52.11	0.0026956	0.002623	0.00066861	1710.9	3.0065e-05	2.7868e-05	1444.4	402.99	2.9246e-05	2.7866e-05	471.41	161.01	140.46	48.441	2.5825e-05	61.425	9.950	-97.717	-44.607	-88.662	49.345	4.019	-88.842	-84.199	53.425	91.660	-84.419	-80.397	-79.541	-75.185	80.521	-75.954	-8191	255	
1437.371	1	1	0	0	0.22699	0.25364	0.29649	0.25631	0.13558	0.1758	0.042913	0.1943	0.18934	0.12279	0.13414	0.19843	0.17	0.15986	0.29567	0.16659	-2.5375	-2.4771	-2.925	-2.6562	-2.5854	-2.8479	-2.5292	-3.1167	-2.8104	-2.5375	-3.1292	-2.8042	-2.8604	-3.1229	-2.6208	-2.7667	55.481	158.947	59.448	66.779	-99.860	175.054	100.000	235.930	105.063	-34.536	157.911	-76.042	166.924	186.797	161.744	-81.600	0.00060076	0.0017043	0.0001861	1344.7	3.7878e-06	1.5275e-05	1336.4	365.76	1.9176e-05	1.0475e-05	420.21	141.06	122.28	42.128	6.7028e-06	52.028	0.0025327	0.0024859	0.00064972	1714.7	2.8365e-05	2.6434e-05	1440.8	403.5	2.7706e-05	2.6623e-05	470.68	160.97	139.19	48.192	2.6133e-05	61.505	-3.863	-44.345	-8.772	-88.359	178.911	76.505	-88.776	-84.069	-17.726	42.933	-84.622	-80.418	-79.703	-75.212	151.560	-75.916	-8191	255	
1437.467	1	1	0	0	0.21235	0.14089	0.18015	0.053947	0.29527	0.15829	0.46328	0.13047	0.13661	0.207	0.16939	0.1073	0.086691	0.085904	0.1739	0.17692	-2.4042	-2.4083	-2.8771	-2.5625	-2.6979	-2.925	-2.7	-2.8521	-2.8292	-2.5667	-3.0583	-2.6729	-2.9	-3.1396	-2.5438	-2.9146	253.955	-39.121	-9.715	-39.300	63.432	120.746	194.286	175.376	237.960	218.345	177.154	107.303	220.402	-99.053	229.631	235.527	0.00040246	0.0012408	0.00033002	1339.8	1.1957e-05	5.8033e-06	1338.5	366.71	1.5053e-05	1.0809e-05	419.83	140.91	122.66	42.189	1.0135e-05	52.502	0.0024323	0.0024021	0.00066797	1721.2	2.7669e-05	2.5674e-05	1446.9	404.59	2.713e-05	2.6e-05	474.34	161.05	139.08	48.076	2.7624e-05	61.623	5.803	8.561	180.488	-88.505	25.726	40.887	-88.863	-84.111	43.630	-16.399	-84.791	-80.477	-79.834	-75.282	129.693	-76.148	-8191	255	
1437.563	1	1	0	0	0.099674	0.14776	0.16732	0.087644	0.10419	0.19102	0.23948	0.37294	0.097358	0.13898	0.17333	0.1987	0.12375	0.22393	0.11877	0.20299	-2.2729	-2.5917	-2.9479	-2.75	-2.6979	-3.0062	-2.6813	-2.9021	-2.9375	-2.4542	-3.0708	-3.0146	-2.75	-3.0896	-2.5604	-2.6521	247.468	252.935	244.040	212.540	162.639	-61.566	-94.364	161.026	134.485	-49.983	175.605	251.133	27.425	248.203	131.464	-48.050	0.00036554	0.00072705	0.00019226	1340.7	2.9146e-06	6.0734e-06	1339.1	365.81	1.0926e-05	2.4879e-06	418.07	140.91	122.5	41.988	4.9212e-06	51.996	0.0023739	0.002341	0.00070001	1708.4	2.6861e-05	2.4977e-05	1450.7	402.58	2.6184e-05	2.5457e-05	476.29	160.3	138.49	47.969	2.8448e-05	61.132	7.692	-60.150	72.684	-88.513	119.125	-1.762	-88.728	-84.159	-67.509	227.895	-84.557	-80.307	-79.602	-75.273	-68.940	-76.211	-8191	255	
1437.684	1	1	0	0	0.077805	0.29341	0.11516	0.28608	0.17433	0.2028	0.14242	0.24026	0.014337	0.41783	0.057301	0.15823	0.1823	0.12244	0.069431	0.19491	-2.375	-2.5187	-2.8771	-2.7979	-2.5417	-2.9771	-2.8375	-2.6625	-2.9917	-2.5042	-2.8604	-2.8042	-2.6333	-3.125	-2.6417	-2.8979	233.617	-28.377	68.015	-76.037	155.761	132.725	196.609	239.058	-26.565	-13.293	161.394	207.541	165.446	-68.958	-79.854	34.340	0.00057468	0.00095432	0.00024245	1346.8	4.7793e-06	3.5261e-06	1335.2	366.3	1.3863e-05	6.1953e-06	418.81	140.33	122.2	42.196	6.7342e-06	52.019	0.0022985	0.0023442	0.00072417	1692.6	2.6115e-05	2.5225e-05	1454	401.27	2.511e-05	2.581e-05	476.34	158.93	137.64	48.166	2.7965e-05	60.547	-13.873	-3.152	96.697	-88.702	91.504	-56.058	-88.779	-84.284	5.701	157.514	-84.776	-80.499	-79.639	-75.088	-54.346	-76.140	-8191	255	
1437.778	1	1	0	0	0.028141	0.070464	0.073299	0.035699	0.05989	0.18092	0.33752	0.074378	0.22382	0.13859	0.24933	0.075558	0.55503	0.45533	0.22905	0.13791	-2.6125	-2.4313	-2.8771	-2.8875	-2.5292	-3.0458	-2.8646	-2.7208	-2.9854	-2.625	-2.8646	-3.0354	-2.4562	-3.0563	-2.7646	-2.6688	-83.045	237.758	136.184	190.947	132.114	-95.836	145.577	71.779	-45.086	124.559	236.600	1.128	194.830	-65.403	233.886	30.443	0.00029633	8.8365e-05	0.00014499	1340	2.5129e-06	1.4218e-05	1338.7	365.96	3.9942e-06	3.7877e-06	418.72	140.79	121.94	42.054	1.5741e-05	51.849	0.0021775	0.0023859	0.00071185	1667.9	2.468e-05	2.6047e-05	1446.7	399.49	2.4048e-05	2.6543e-05	474.36	158.35	136.9	48.337	2.6857e-05	60.229	-3.631	107.962	57.417	-88.328	128.460	86.818	-88.790	-84.055	33.973	-56.254	-84.597	-79.935	-79.849	-74.945	10.171	-75.817	-8191	255	
1437.852	1	1	0	0	0.17963	0.33663	0.15724	0.049227	0.20903	0.19675	0.31247	0.25436	0.17931	0.067101	0.069016	0.16151	0.0728	0.10057	0.18973	0.1893	-2.5271	-2.5833	-2.7083	-2.8063	-2.3521	-2.8958	-2.9167	-2.8583	-3.0042	-2.5854	-2.9562	-3.0354	-2.5563	-2.9521	-2.7313	-2.6958	132.240	195.166	248.432	50.901	175.447	-80.492	214.946	209.689	73.007	124.003	-58.016	99.220	252.823	154.789	217.808	249.052	0.00078687	0.00080355	0.00027551	1331.6	6.8109e-06	1.2808e-05	1336.1	365.32	8.2852e-06	1.1375e-05	420.05	140.53	121.95	42.105	1.7692e-05	51.895	0.0021007	0.0024391	0.00068024	1647.7	2.4003e-05	2.671e-05	1438.8	397.67	2.3737e-05	2.7336e-05	472.01	157.63	136.9	48.53	2.5955e-05	59.961	-23.940	180.365	1.975	-88.375	76.259	176.747	-88.924	-84.217	-93.250	179.579	-84.410	-80.318	-79.829	-75.277	-28.226	-75.589	-8191	255	
1437.970	1	1	0	0	0.17822	0.039561	0.21297	0.071212	0.13374	0.16838	0.028187	0.24937	0.054318	0.18896	0.22557	0.083442	0.13709	0.28803	0.22852	0.13849	-2.3187	-2.4396	-2.7562	-3.0292	-2.6229	-2.8812	-3.1312	-2.6833	-3.0167	-2.5875	-2.6479	-2.9208	-2.6979	-3.0208	-2.7104	-2.5917	222.588	-24.452	154.459	254.543	175.196	24.245	38.758	255.105	225.894	-61.846	135.912	-75.913	112.316	-31.662	-67.265	-83.214	0.00065479	0.0010873	0.000268	1337.3	2.1177e-06	7.498e-06	1331.2	365.1	6.3489e-06	1.5947e-05	418.26	140.68	122.35	42.104	6.0882e-06	51.918	0.0021691	0.0025205	0.00066393	1640.4	2.5114e-05	2.7438e-05	1436.5	397.29	2.4928e-05	2.7415e-05	470.01	157.04	137.54	48.56	2.5012e-05	59.727	-34.885	33.671	-56.275	-88.727	142.910	115.569	-88.942	-84.173	-99.863	36.585	-84.747	-80.277	-79.786	-75.291	-9.008	-75.858	-8191	255	
1438.067	1	1	0	0	0.091086	0.19503	0.2513	0.13809	0.15915	0.054897	0.072455	0.29128	0.18432	0.26958	0.25135	0.042569	0.28443	0.17475	0.21073	0.29479	-2.7375	-2.6354	-2.5854	-3.1437	-2.5583	-2.7917	-3.0062	-2.4833	-3.0021	-2.5667	-2.8354	-3.175	-2.6583	-2.7583	-2.9292	-2.7708	64.219	183.188	-99.526	-72.778	-3.272	168.865	142.112	191.768	256.390	-51.302	219.206	135.223	230.127	-32.866	81.826	220.487	0.0007992	0.0013962	0.00023594	1336.8	1.5702e-06	4.6303e-06	1333.2	365.13	6.1635e-06	1.1071e-05	416.48	140.75	122.18	41.964	1.2451e-05	52.184	0.0022555	0.0024554	0.00064221	1623.9	2.5917e-05	2.6625e-05	1432.8	395.61	2.5656e-05	2.6279e-05	467.75	156.51	137.88	48.141	2.4005e-05	59.583	-11.076	-28.733	-94.077	-88.769	24.683	-88.704	-88.914	-83.983	195.002	60.938	-84.628	-80.301	-79.953	-75.227	27.938	-75.694	-8191	255	
1438.163	1	1	0	0	0.18145	0.09855	0.44133	0.12245	0.20583	0.041165	0.18772	0.10976	0.041402	0.057843	0.19837	0.22906	0.16287	0.087678	0.28579	0.29583	-2.5021	-2.6729	-2.4896	-3.0583	-2.3667	-2.9083	-3.0479	-2.7438	-2.7458	-2.9708	-2.6229	-3.1792	-2.9083	-2.5271	-3.0646	-2.6396	-21.235	184.475	222.974	37.781	24.480	179.678	148.093	-72.063	120.254	191.417	214.380	-52.087	118.556	122.105	167.270	200.593	0.00048863	0.0011911	0.00010675	1331.9	1.1052e-05	3.016e-06	1333	365.73	3.4251e-06	1.7812e-05	416.17	139.79	121.69	42.071	9.3167e-06	51.875	0.0022982	0.0023203	0.00061262	1614.7	2.5862e-05	2.5038e-05	1425.6	395.25	2.5885e-05	2.4761e-05	464.36	156.32	137.87	47.825	2.2906e-05	59.615	2.943	7.133	-60.737	-88.675	198.830	-36.039	-88.806	-84.035	-50.665	26.672	-84.689	-80.102	-79.807	-75.019	78.571	-76.126	-8191	255	
1438.259	1	1	0	0	0.14973	0.18236	0.061485	0.11648	0.021769	0.17211	0.075544	0.48382	0.1474	0.058553	0.085749	0.20784	0.29889	0.15066	0.085122	0.14385	-2.4979	-2.7917	-2.525	-3.1854	-2.7042	-2.6854	-3.3229	-2.7104	-2.9208	-2.9875	-2.6646	-2.8479	-2.6625	-2.7583	-2.9958	-2.6104	162.293	229.642	-44.693	213.554	-63.916	-17.023	178.787	239.155	55.751	-56.604	240.286	-68.954	-42.495	192.540	25.959	216.300	0.00024546	0.00081591	0.00023874	1316.6	2.4363e-06	4.6949e-06	1335.5	364.89	1.9974e-05	1.1854e-05	417.53	140.46	121.93	41.976	9.2977e-06	51.954	0.0023302	0.0022453	0.00059702	1630.5	2.626e-05	2.4764e-05	1423.8	397.38	2.5991e-05	2.435e-05	464.23	157.34	137.81	47.771	2.2495e-05	60.203	-11.365	41.456	-6.114	-88.578	21.161	-17.636	-88.706	-84.176	-6.425	64.425	-84.491	-80.341	-79.563	-75.276	5.105	-76.007	-8191	255	
1438.380	1	1	0	0	0.051394	0.20129	0.27512	0.20081	0.034669	0.03009	0.17997	0.09076	0.25165	0.12203	0.24386	0.029122	0.24321	0.18	0.15917	0.2995	-2.5292	-2.7958	-2.6042	-3.025	-2.8333	-2.6437	-3.1292	-2.875	-2.9271	-2.6958	-2.5979	-2.9708	-2.8792	-2.8271	-3.1604	-2.9167	-44.409	-4.238	35.867	39.407	84.535	-39.979	238.990	147.107	149.739	81.425	-50.105	184.044	226.259	223.133	-45.869	255.531	0.0003675	0.00028327	0.00019687	1330.2	1.1414e-05	7.527e-06	1334.1	365.67	8.5588e-06	1.1075e-05	417.48	140.45	121.56	41.909	1.3666e-05	51.782	0.0022995	0.0021916	0.00058449	1654.7	2.5408e-05	2.4221e-05	1422.4	398.73	2.5115e-05	2.352e-05	462.64	158.04	136.74	47.449	2.2244e-05	60.137	35.845	-12.956	9.042	-88.549	95.601	68.830	-88.709	-84.199	188.317	73.736	-84.602	-80.045	-79.552	-75.147	179.580	-76.101	-8191	255	
1438.451	1	1	0	0	0.32546	0.14425	0.20885	0.19455	0.11134	0.22914	0.21836	0.12267	0.22234	0.036686	0.31959	0.1522	0.040185	0.41443	0.34626	0.048257	-2.3875	-2.7583	-2.4	-2.8229	-2.7604	-2.5292	-3.2417	-2.8	-2.8354	-3.0812	-2.5958	-2.9958	-2.9042	-2.6417	-2.9313	-2.8292	-81.493	129.532	94.069	224.471	80.488	95.590	174.624	180.025	-94.650	118.226	162.668	215.078	-54.182	231.881	19.256	243.650	0.00035253	0.0010978	0.00022352	1326.6	3.6677e-06	7.1489e-06	1330.4	365.73	1.8914e-05	8.5479e-06	418.32	140.55	121.72	41.957	1.8555e-06	52.116	0.0021448	0.0020617	0.00057517	1646.4	2.3654e-05	2.2645e-05	1418	397.3	2.3664e-05	2.2089e-05	463.73	157.6	136.04	47.213	2.3122e-05	60.096	57.613	11.127	244.014	-88.483	84.841	45.619	-88.689	-84.032	-2.762	37.071	-84.804	-80.282	-79.880	-75.193	-51.943	-76.020	-8191	255	
1438.547	1	1	0	0	0.22395	0.2245	0.27749	0.21781	0.1395	0.26372	0.22742	0.24177	0.11474	0.20002	0.031322	0.14848	0.26478	0.050019	0.16669	0.16737	-2.2521	-2.9604	-2.425	-2.9375	-2.8229	-2.5646	-3.0792	-2.8417	-2.6312	-2.9667	-2.5292	-2.9167	-2.9375	-2.4271	-2.8083	-2.6479	-76.949	200.727	4.729	154.172	-48.552	125.381	-92.350	246.689	57.985	2.570	17.468	116.705	241.792	56.090	-38.841	179.094	0.00079323	0.00043624	4.8629e-05	1336.5	6.3785e-06	6.7779e-06	1332.4	364.89	4.1771e-06	5.2927e-06	417.73	140.43	121.69	41.985	1.5275e-05	51.942	0.0021073	0.0020135	0.00060815	1653.4	2.3394e-05	2.2453e-05	1427.4	397.12	2.3717e-05	2.2078e-05	467.16	157.73	135.93	47.207	2.47e-05	60.007	-25.519	-96.618	247.293	-88.694	98.715	58.584	-88.770	-84.282	87.174	55.226	-84.783	-80.236	-79.623	-75.162	134.848	-76.054	-8191	255	
1438.644	1	1	0	0	0.17327	0.18411	0.10118	0.28552	0.14788	0.033088	0.32422	0.15601	0.20297	0.22035	0.19091	0.21804	0.3354	0.2698	0.12367	0.28217	-1.9813	-2.9667	-2.7146	-2.7583	-2.7146	-2.7146	-3.1312	-2.9375	-2.4729	-3.0208	-2.7792	-2.8771	-2.9938	-2.7938	-2.8771	-2.9833	-27.797	144.572	246.210	198.632	160.222	-45.173	247.361	173.560	187.943	21.022	13.421	205.150	188.648	230.949	-2.115	145.967	0.00029836	0.00043105	0.00016022	1328.5	1.1498e-05	8.9995e-06	1330.9	365.01	6.4596e-06	5.1675e-06	417.64	140.4	122.05	41.903	6.923e-06	52.006	0.0021092	0.002047	0.00064427	1643.7	2.3223e-05	2.2802e-05	1435	397.11	2.3352e-05	2.2754e-05	469.09	157.14	135.74	47.381	2.552e-05	59.725	-7.084	-37.936	171.729	-88.711	93.722	78.125	-88.766	-84.075	-16.615	-57.220	-84.610	-80.141	-79.768	-75.081	101.828	-76.044	-8191	255	
1438.764	1	1	0	0	0.10754	0.25966	0.096407	0.34131	0.21303	0.1381	0.22698	0.18184	0.11586	0.11132	0.1814	0.25907	0.12098	0.10383	0.10298	0.18045	-2.0687	-3	-2.7729	-2.7	-2.9604	-2.5292	-3.125	-2.9292	-2.4833	-3.1521	-2.8167	-2.6667	-3.0646	-2.4896	-2.7604	-3.0312	33.440	134.775	210.034	193.550	191.806	248.800	100.639	171.375	47.270	63.251	159.097	225.910	256.040	252.019	43.259	-86.847	0.00033854	0.00057682	0.00012607	1339.8	5.8876e-06	7.6866e-06	1331.5	365	1.9542e-05	6.2618e-06	417.6	140.18	121.81	42.077	1.5578e-05	52.081	0.0020564	0.0021146	0.00065173	1634.5	2.2574e-05	2.356e-05	1433.9	395.36	2.2629e-05	2.3782e-05	468.6	156.66	135.21	47.697	2.5174e-05	59.557	-2.220	191.905	211.237	-88.437	109.693	220.057	-88.802	-84.262	63.870	173.201	-84.608	-80.322	-79.785	-75.275	37.271	-75.775	-8191	255	
1438.859	1	1	0	0	0.30278	0.079683	0.12123	0.12178	0.17303	0.10554	0.33874	0.17988	0.20491	0.092714	0.16813	0.21362	0.11904	0.29831	0.1454	0.1072	-1.9646	-2.975	-2.5604	-2.5687	-2.9542	-2.5521	-2.9458	-2.9646	-2.5229	-2.8708	-2.8083	-2.7125	-3.0917	-2.6875	-2.775	-2.9333	63.748	66.614	167.722	248.765	-38.723	131.462	168.685	251.518	121.470	89.328	-26.500	185.012	186.857	-81.549	-96.986	254.400	0.00062405	0.00052326	0.00025355	1330.8	6.1799e-06	6.4916e-06	1332.8	365.97	1.245e-05	6.5463e-06	416.77	140.49	121.09	41.812	1.1957e-05	51.868	0.002004	0.0022113	0.00063947	1629.6	2.2084e-05	2.4807e-05	1429.5	394.76	2.2384e-05	2.5021e-05	466.42	156.73	135.18	47.906	2.4654e-05	59.287	-21.177	121.315	-27.128	-88.442	35.917	126.916	-88.740	-84.016	-82.501	-59.618	-84.374	-80.391	-79.789	-75.083	58.261	-76.125	-8191	255	
1438.956	1	1	0	0	0.078576	0.37643	0.15358	0.18905	0.19879	0.19774	0.072738	0.14101	0.27044	0.32538	0.33684	0.23713	0.04062	0.14344	0.038817	0.30283	-1.9312	-2.925	-2.7917	-2.5042	-3.0417	-2.5187	-2.8521	-3.05	-2.3167	-2.9062	-2.7979	-2.5708	-3.1437	-2.5021	-2.7271	-3.0229	-52.684	122.337	241.522	234.916	-45.871	-46.812	252.566	181.518	206.227	68.484	199.100	223.122	55.315	111.007	171.424	100.993	0.00052765	0.0008927	0.00036402	1329.1	3.8699e-06	6.9345e-06	1333.8	366.25	8.1583e-06	6.1593e-06	419.24	140.35	121.13	41.851	6.7132e-06	51.924	0.0020212	0.0023036	0.0006164	1617.1	2.2334e-05	2.5222e-05	1427.5	393.65	2.2747e-05	2.532e-05	464.74	155.79	135.48	47.845	2.3582e-05	58.861	-17.162	210.959	-20.826	-88.636	209.403	110.593	-88.805	-84.217	158.681	166.042	-84.489	-80.361	-79.600	-75.214	-32.287	-75.818	-8191	255	
1439.075	1	1	0	0	0.22397	0.12243	0.24279	0.24621	0.1243	0.18872	0.27754	0.12537	0.15703	0.092593	0.27862	0.073572	0.13972	0.13581	0.1172	0.11545	-2.0604	-2.7333	-2.8771	-2.4333	-2.8729	-2.7125	-2.6646	-3.175	-2.375	-2.8417	-3.0667	-2.5833	-2.9292	-2.8021	-2.5062	-2.9542	-73.292	102.278	-33.804	-16.013	-83.361	-99.723	198.312	-66.831	100.151	102.392	-99.197	241.288	50.518	241.943	93.524	63.692	0.0004355	0.000625	0.00015463	1333.2	4.5386e-06	8.102e-06	1334.5	364.98	1.0121e-05	3.5857e-06	417.73	140.5	121.48	41.766	1.1634e-05	51.965	0.0020539	0.0022732	0.00058819	1601.2	2.3113e-05	2.4781e-05	1423.1	392.44	2.3539e-05	2.4649e-05	462.68	155.1	136.21	47.615	2.2947e-05	58.703	-14.167	81.473	-89.978	-88.696	221.623	16.197	-88.549	-84.203	222.636	65.307	-84.718	-80.313	-79.851	-75.147	-3.911	-76.239	-8191	255	
1439.147	1	1	0	0	0.14296	0.15248	0.12626	0.15861	0.10352	0.1722	0.23106	0.12084	0.12564	0.17927	0.21121	0.18679	0.29395	0.19523	0.30721	0.39793	-2.1917	-2.7812	-2.9708	-2.4417	-2.9333	-2.7021	-2.9729	-3.1688	-2.5187	-2.7375	-2.9604	-2.6729	-2.9313	-2.7812	-2.3646	-2.9354	247.714	212.437	-57.973	-83.776	127.916	240.752	152.843	233.302	50.596	-56.563	-29.718	211.053	161.796	-44.695	-97.593	191.600	0.00067263	0.0011024	0.0002759	1336.3	2.3913e-06	1.0821e-05	1332.5	363.82	1.4942e-05	1.0981e-05	417.37	140.45	121.81	42.127	1.5487e-05	51.91	0.0021312	0.0022209	0.00057143	1599.2	2.4089e-05	2.3881e-05	1421	392.2	2.4424e-05	2.4073e-05	461.76	155.52	137.09	47.583	2.2733e-05	59.107	-39.926	-34.974	-74.200	-88.423	-31.794	58.536	-88.721	-84.150	134.167	35.056	-84.731	-80.332	-79.689	-74.956	118.227	-76.084	-8191	255	
1439.243	1	1	0	0	0.023026	0.26938	0.14739	0.18857	0.13859	0.23616	0.30024	0.12012	0.025651	0.1747	0.17431	0.18171	0.20982	0.1963	0.13704	0.030922	-2.0792	-2.3646	-2.7229	-2.4688	-2.8208	-2.8229	-2.6354	-3.1271	-2.6	-2.6417	-3.0271	-2.6896	-2.8854	-3.0625	-2.3563	-3.0979	57.462	234.663	-54.142	249.352	57.613	-17.480	231.557	150.260	-48.539	156.772	94.597	161.138	204.476	230.308	94.405	104.797	0.00086755	0.0011069	0.00015348	1321.9	1.1223e-05	6.6772e-06	1332.9	365.25	7.5628e-06	1.6829e-05	417.73	140.24	121.8	42.037	5.4541e-06	52.075	0.0022501	0.0022143	0.00057207	1615.7	2.5477e-05	2.4003e-05	1422.2	394.81	2.5484e-05	2.4275e-05	462.23	156.94	137.63	47.566	2.28e-05	59.857	-6.795	4.978	78.446	-88.503	117.181	37.622	-88.811	-84.185	81.180	19.088	-84.615	-80.192	-79.493	-75.114	12.988	-76.150	-8191	255	
1439.364	1	1	0	0	0.20246	0.24162	0.074154	0.23257	0.14715	0.034052	0.16166	0.25088	0.25117	0.16113	0.36158	0.20281	0.2986	0.17802	0.093227	0.16459	-2.2771	-2.6188	-2.9813	-2.5646	-2.825	-2.8	-2.6354	-3.2021	-2.7375	-2.5708	-3.1396	-2.7062	-2.8937	-3.1396	-2.3979	-2.9104	90.180	167.192	173.972	153.009	124.651	-65.473	182.843	210.750	144.143	138.986	234.988	157.182	202.828	217.897	38.025	205.483	0.00027122	0.00055908	0.0002033	1329.8	8.7232e-06	8.545e-06	1336.3	364.53	2.9226e-06	9.5423e-06	416.75	139.7	121.42	42.039	5.2022e-06	51.977	0.00227	0.0022121	0.00056846	1645.6	2.5601e-05	2.3792e-05	1423.1	397.28	2.506e-05	2.4052e-05	461.06	157.75	137.2	47.436	2.2748e-05	60.227	-23.493	-42.305	-13.987	-88.462	84.951	-9.668	-88.868	-84.171	162.726	127.382	-84.539	-80.289	-79.796	-75.290	196.209	-75.892	-8191	255	
1439.460	1	1	0	0	0.17345	0.22846	0.10119	0.24287	0.11271	0.089557	0.2326	0.40812	0.1311	0.09104	0.19858	0.1848	0.33099	0.14501	0.028547	0.20815	-2.3146	-2.7062	-2.8917	-2.6083	-2.7542	-2.9542	-2.7854	-2.95	-2.7833	-2.6083	-3.1875	-2.7083	-2.9333	-3.2021	-2.4813	-2.8646	-65.028	13.799	-43.188	200.133	5.969	-68.533	170.457	-74.443	173.965	180.361	247.460	-69.146	256.762	-28.357	17.291	154.211	0.0003867	0.00049276	5.7495e-05	1323.6	8.8079e-06	5.2481e-06	1329.2	364.48	1.2142e-05	2.8375e-06	417.45	140.32	121.68	41.974	1.1298e-05	52.132	0.0022283	0.0021843	0.00057743	1659.9	2.5407e-05	2.3476e-05	1424.3	398.52	2.4853e-05	2.4041e-05	464.64	158.53	137.27	47.378	2.4115e-05	60.6	-3.036	-17.291	-66.505	-88.765	-7.694	49.273	-88.721	-84.239	46.560	64.523	-84.729	-80.251	-79.762	-75.225	-101.008	-75.920	-8191	255	
1439.556	1	1	0	0	0.19631	0.15347	0.11453	0.035047	0.20531	0.098443	0.079796	0.16027	0.22137	0.10122	0.3111	0.16528	0.14062	0.27057	0.050021	0.051488	-2.4271	-2.6667	-2.8771	-2.7375	-2.6958	-2.9062	-2.8021	-3.0521	-2.7125	-2.4792	-3.225	-2.8833	-2.7208	-3.0875	-2.6333	-2.7417	32.829	219.081	208.782	-2.405	54.659	44.013	161.500	213.397	178.307	-7.431	-93.675	174.085	-71.923	251.781	153.678	223.153	0.0005134	0.00060192	0.00011243	1330.1	1.784e-05	4.6809e-06	1331.5	364.71	1.5349e-05	5.9679e-06	417.61	140.62	121.25	42.089	1.7955e-05	52.086	0.0022227	0.0022023	0.0006201	1677.9	2.5498e-05	2.3674e-05	1432.6	400.31	2.5283e-05	2.4468e-05	470.11	159.24	137.38	47.545	2.6227e-05	60.83	29.919	25.437	73.800	-88.727	52.912	-15.617	-88.803	-84.097	-53.498	34.896	-84.626	-80.050	-79.734	-75.152	236.094	-75.903	-8191	255	
1439.677	1	1	0	0	0.071005	0.10794	0.17381	0.31463	0.12193	0.25654	0.2107	0.14329	0.1767	0.19481	0.37233	0.13715	0.19697	0.32426	0.29813	0.21065	-2.5208	-2.4271	-2.7875	-2.7917	-2.5125	-2.95	-2.9604	-2.8958	-2.8979	-2.6104	-2.9542	-2.7313	-2.5542	-3.0438	-2.75	-2.7521	-75.371	35.983	49.047	249.908	87.117	186.898	123.480	-85.660	-45.490	164.476	240.133	-83.454	246.454	217.880	68.181	188.877	0.00041305	0.00041403	0.00025591	1338.8	1.1613e-05	8.4361e-06	1340.1	365.26	1.1568e-05	1.3164e-05	418.59	140.73	122.11	41.979	4.8618e-06	52.258	0.0022178	0.0022039	0.00066373	1676.1	2.5229e-05	2.3369e-05	1441.6	398.95	2.4299e-05	2.3814e-05	471.68	158.23	136.74	47.42	2.6286e-05	60.309	27.993	-21.929	119.703	-88.820	43.952	133.612	-88.856	-84.027	-49.965	69.637	-84.603	-80.347	-79.753	-75.360	7.147	-75.906	-8191	255	
1439.748	1	1	0	0	0.20679	0.086076	0.10101	0.036049	0.28005	0.18589	0.11536	0.28517	0.16254	0.11356	0.29612	0.077816	0.12857	0.1597	0.19555	0.17833	-2.6292	-2.4792	-2.85	-2.8438	-2.5354	-3.1375	-2.8063	-2.9146	-3.0479	-2.5167	-2.9875	-3.0083	-2.6667	-3.1083	-2.7521	-2.8146	-89.041	11.293	49.049	244.519	193.734	164.129	44.836	181.283	-61.539	2.036	-80.905	16.803	254.910	174.827	48.744	-82.479	0.00022588	0.00031553	0.00019016	1338.4	1.2647e-05	8.0956e-06	1339.9	365.4	5.1611e-06	7.4078e-06	416.98	140.48	121.42	41.869	8.9356e-06	51.821	0.0021229	0.002206	0.00067987	1660.3	2.4593e-05	2.4062e-05	1446	398.36	2.3916e-05	2.5043e-05	473.51	158.23	136.59	47.946	2.7522e-05	60.459	9.203	14.157	2.816	-88.476	25.530	-22.697	-88.771	-84.133	-93.870	215.376	-84.806	-80.035	-79.626	-75.278	27.657	-75.838	-8191	255	
1439.845	1	1	0	0	0.1483	0.24312	0.0097797	0.2108	0.18052	0.27124	0.041211	0.23634	0.22824	0.3304	0.61861	0.17943	0.27875	0.19384	0.061008	0.14885	-2.5354	-2.325	-2.6958	-2.975	-2.5	-3.0458	-2.9875	-2.8479	-3.1375	-2.5	-2.8146	-2.9583	-2.6896	-3.0583	-2.7562	-2.5062	-90.981	44.557	-90.235	192.363	115.028	49.461	105.084	179.213	153.447	-33.913	221.661	32.901	252.823	219.507	218.110	94.394	0.00064972	0.0013387	0.00022671	1333.4	5.6739e-06	7.0659e-06	1336.8	364.34	1.6079e-05	5.4816e-06	417.41	139.99	121.16	41.967	1.4181e-05	52.29	0.002155	0.0024006	0.00070422	1664.3	2.4786e-05	2.6225e-05	1446.3	398.23	2.3896e-05	2.6798e-05	472.67	157.78	136.3	48.322	2.6698e-05	60.303	-30.577	130.014	-54.160	-88.608	51.883	141.781	-88.765	-84.138	8.614	-78.958	-84.722	-80.287	-79.871	-75.278	54.601	-76.038	-8191	255	
1439.939	1	1	0	0	0.16686	0.1542	0.18598	0.17655	0.085097	0.33664	0.26165	0.038161	0.2511	0.19611	0.20554	0.11146	0.20564	0.079351	0.15153	0.11291	-2.6188	-2.5646	-2.7708	-2.9292	-2.4604	-2.9521	-2.8292	-2.6979	-2.8083	-2.4083	-2.7542	-2.9542	-2.6354	-2.9667	-2.6292	-2.6437	-54.059	-77.764	74.619	-42.361	254.945	30.698	221.359	49.082	196.073	163.663	-39.715	245.611	-67.505	-16.152	109.188	71.588	0.0005738	0.00026428	0.00013266	1335	1.1586e-05	1.8515e-06	1335.3	364.93	3.1615e-06	4.9169e-06	418.62	141.27	121.49	42.127	9.1659e-06	51.983	0.0021153	0.0024703	0.00067894	1646.2	2.4283e-05	2.6826e-05	1437.7	397.34	2.3748e-05	2.7244e-05	470.7	157.08	136.48	48.318	2.5422e-05	59.827	-24.947	-10.073	2.657	-88.293	184.642	-94.170	-88.918	-84.105	162.095	102.905	-84.361	-80.326	-79.742	-75.179	42.567	-75.730	-8191	255	
1440.060	1	1	0	0	0.32307	0.23739	0.13286	0.17379	0.31009	0.15255	0.24201	0.18725	0.21522	0.075434	0.31481	0.12062	0.2059	0.13662	0.19124	0.14253	-2.6292	-2.5	-2.525	-2.9688	-2.5375	-2.9854	-2.9688	-2.5479	-3.2	-2.6208	-2.6542	-3.0521	-2.5563	-2.8063	-2.9604	-2.6437	125.956	204.899	158.854	68.988	204.445	-5.264	167.909	149.057	-16.019	28.134	-96.765	167.881	-101.486	205.377	50.355	-45.476	0.00085862	0.0014053	0.00032212	1329.4	9.8437e-06	6.3659e-06	1330	365.2	7.9557e-06	9.2311e-06	416.69	140.67	121.36	41.975	1.1175e-05	52.084	0.0021387	0.0024663	0.00064584	1622.7	2.4742e-05	2.6844e-05	1429.6	395.6	2.4647e-05	2.6845e-05	467.75	156.33	137.22	48.314	2.4602e-05	59.535	-28.283	-46.758	18.401	-88.812	-100.740	68.844	-88.618	-84.253	173.621	59.400	-84.750	-80.262	-79.744	-75.156	62.939	-75.792	-8191	255	
1440.156	1	1	0	0	0.13908	0.2256	0.19523	0.37672	0.20976	0.083064	0.27097	0.0062174	0.17107	0.30597	0.17003	0.1401	0.15357	0.22931	0.14454	0.3709	-2.5146	-2.5167	-2.6583	-2.9521	-2.5833	-2.7542	-2.9313	-2.5417	-2.9396	-2.8208	-2.5875	-3.1771	-2.6958	-2.6979	-2.9021	-2.6604	201.671	106.743	-54.080	81.638	-74.182	-75.352	172.593	129.614	208.689	228.743	196.675	231.964	238.569	-84.869	74.801	243.350	0.00079401	0.0010321	0.00029186	1336.8	7.3587e-06	5.6603e-06	1333.1	365.41	1.0882e-05	1.7208e-05	416.52	140.11	121.57	42.058	9.0793e-06	52.015	0.002247	0.0023991	0.00063252	1617.1	2.5864e-05	2.6295e-05	1429	395.57	2.5671e-05	2.6036e-05	467.13	156.11	138.07	48.139	2.412e-05	59.707	-39.818	-39.464	-62.451	-88.404	134.022	75.939	-88.909	-84.291	-79.760	42.821	-84.628	-80.319	-79.714	-75.199	77.170	-75.942	-8191	255	
1440.252	1	1	0	0	0.18973	0.23553	0.1869	0.14957	0.22034	0.18372	0.31851	0.20088	0.17854	0.10892	0.17153	0.37438	0.051924	0.27824	0.248	0.28379	-2.5563	-2.6646	-2.6667	-2.7854	-2.6188	-2.7438	-3.1688	-2.6979	-2.8937	-2.9125	-2.5312	-3.1562	-2.8521	-2.8104	-2.9521	-2.7521	156.131	166.601	-63.768	-44.145	8.686	-74.666	232.531	-97.248	247.544	-10.254	150.442	-84.726	-24.916	-74.165	95.465	232.327	0.00064291	0.0013088	0.00010705	1331.7	1.264e-06	7.9768e-06	1338.9	366.32	1.9476e-05	4.9188e-06	419.18	139.88	121.85	41.916	5.0819e-06	52.243	0.0023583	0.0023558	0.00062418	1627.9	2.6845e-05	2.5769e-05	1427.2	397.03	2.6706e-05	2.5327e-05	466.34	157.06	138.24	47.931	2.3381e-05	60.011	-16.289	5.886	-60.549	-88.558	54.138	51.855	-88.734	-84.281	-3.826	24.231	-84.690	-80.284	-79.777	-75.089	46.961	-76.050	-8191	255	
1440.348	1	1	0	0	0.35313	0.15498	0.23378	0.058674	0.19844	0.05463	0.21481	0.11535	0.11969	0.23349	0.038755	0.33561	0.13712	0.25747	0.11551	0.096758	-2.2771	-2.6208	-2.4771	-2.9604	-2.75	-2.6667	-3.1146	-2.6417	-2.725	-2.8979	-2.6167	-2.9667	-2.7896	-2.7333	-2.85	-2.6375	-74.174	75.958	133.822	188.203	56.102	233.781	151.902	174.538	218.543	85.409	179.716	-100.647	-48.936	203.062	42.439	-44.491	0.00038803	0.00083494	0.00024924	1332.3	4.5653e-06	1.4144e-05	1330.5	365.07	1.06e-05	7.8727e-06	418.53	140.36	121.54	42.025	1.1911e-05	52	0.0023576	0.0022616	0.00060229	1640.1	2.6525e-05	2.5183e-05	1424.8	398.1	2.6341e-05	2.4683e-05	465.12	157.9	137.84	47.924	2.3054e-05	60.508	-23.499	6.246	-51.880	-88.645	205.785	52.861	-88.771	-84.098	228.659	45.285	-84.566	-80.297	-79.773	-75.073	143.825	-76.026	-8191	255	
1440.444	1	1	0	0	0.039384	0.27948	0.19539	0.20333	0.11963	0.26427	0.32996	0.43203	0.17094	0.21726	0.33279	0.25867	0.17537	0.32577	0.069955	0.21475	-2.3187	-2.8479	-2.6396	-2.6917	-2.8979	-2.6521	-3.2042	-2.7479	-2.7292	-3.0875	-2.5833	-2.7708	-2.825	-2.5667	-2.8354	-2.4417	47.522	193.969	48.550	205.026	-76.212	249.793	121.435	190.621	214.931	-66.423	206.254	238.953	161.542	-52.127	163.046	-93.922	0.0004094	0.00088146	5.9544e-05	1323.2	1.1188e-05	6.713e-06	1328.2	365.95	1.0363e-05	8.6074e-06	419.77	141.29	121.75	41.875	3.8851e-06	51.763	0.0023406	0.0022382	0.0006039	1665.3	2.6001e-05	2.4906e-05	1424.5	399.69	2.5854e-05	2.4248e-05	465.76	158.86	137.45	47.698	2.3508e-05	60.719	12.531	-36.495	-26.732	-88.766	72.589	33.925	-88.815	-84.329	-3.254	81.273	-84.786	-80.436	-79.555	-74.972	56.747	-76.080	-8191	255	
1440.540	1	1	0	0	0.19049	0.14558	0.2874	0.16301	0.12748	0.14435	0.18103	0.19693	0.32514	0.21254	0.03326	0.17725	0.19067	0.17256	0.1246	0.31464	-2.2875	-2.725	-2.5479	-2.9792	-2.7021	-2.4854	-3.1479	-2.9396	-2.425	-3.0333	-2.6167	-3.1312	-2.8417	-2.6063	-3.0021	-2.6604	164.855	61.129	220.205	-84.537	-23.613	248.338	215.038	231.805	128.807	-72.504	11.982	161.011	246.685	238.664	-42.410	224.376	0.00053407	0.0016784	0.00018658	1330.8	4.0145e-06	1.2632e-05	1333.5	364.9	1.5914e-05	7.123e-06	418.58	140.36	121.9	41.772	1.5709e-05	51.96	0.0022621	0.0021627	0.00061314	1676.6	2.489e-05	2.3945e-05	1429.1	399.68	2.5006e-05	2.3352e-05	467.43	158.61	136.99	47.472	2.4486e-05	60.51	-12.961	11.886	230.619	-88.373	72.718	44.841	-88.907	-84.143	-30.085	11.671	-84.663	-80.173	-79.651	-75.216	182.775	-75.423	-8191	255	
1440.636	1	1	0	0	0.069801	0.12414	0.11465	0.11049	0.2546	0.25749	0.32761	0.17956	0.10321	0.052063	0.083664	0.10323	0.22138	0.086779	0.18989	0.28488	-2.2354	-2.8937	-2.4646	-2.8625	-2.8688	-2.5375	-2.925	-2.6937	-2.5042	-2.9458	-2.6208	-2.8396	-2.9229	-2.3896	-2.7625	-2.7125	119.846	106.765	223.616	58.345	129.412	-17.197	207.335	240.612	6.401	-25.769	202.082	-29.852	235.542	141.441	-88.789	212.499	0.0005379	0.00073209	0.00028553	1337.8	7.9096e-06	1.1359e-05	1335.1	366.33	1.0292e-05	5.6366e-06	417.35	140.03	122.44	41.88	4.3025e-06	52.004	0.002211	0.0020992	0.0006456	1674.1	2.4483e-05	2.372e-05	1437.5	399.23	2.5056e-05	2.3341e-05	471.39	158.73	137.08	47.572	2.6292e-05	60.508	-17.491	-39.112	62.047	-88.655	140.900	44.705	-88.772	-83.984	-20.034	52.689	-84.860	-80.174	-79.645	-75.290	-89.774	-75.876	-8191	255	
1440.757	1	1	0	0	0.24035	0.17407	0.17398	0.093972	0.21256	0.10531	0.23448	0.19676	0.20969	0.36592	0.37259	0.16646	0.14523	0.20138	0.028261	0.21458	-2.3312	-2.9125	-2.6458	-2.75	-2.8625	-2.4417	-3.0083	-3.0292	-2.3292	-2.8208	-2.8146	-2.8312	-2.9833	-2.5625	-2.9146	-2.9458	139.862	56.831	-80.854	98.024	-32.436	161.451	-100.373	151.125	248.529	39.136	214.670	-85.589	166.373	204.108	251.697	176.964	0.00038134	0.00016158	0.00015662	1340.7	9.2334e-06	3.4864e-06	1335.6	365.36	7.408e-06	3.7214e-06	418.45	140.87	121.52	41.98	4.6571e-06	52.067	0.0022097	0.0021526	0.00067915	1668	2.4309e-05	2.4003e-05	1443.9	398.56	2.4439e-05	2.3892e-05	473.61	158.24	136.27	47.766	2.6668e-05	60.147	-51.086	1.404	68.423	-88.580	55.632	17.368	-88.894	-84.136	-30.274	110.005	-84.676	-80.432	-79.688	-75.012	232.010	-75.944	-8191	255	
1440.853	1	1	0	0	0.10828	0.072437	0.14968	0.1568	0.054202	0.16889	0.26402	0.21005	0.050197	0.11169	0.18996	0.20572	0.38065	0.099712	0.14789	0.20253	-1.925	-2.8667	-2.5687	-2.775	-3.0312	-2.4104	-2.9083	-2.9271	-2.6458	-2.8917	-2.7646	-2.85	-3.1521	-2.5917	-2.6625	-2.9083	53.022	-18.900	-27.513	223.126	251.135	170.883	181.703	-33.237	131.340	4.983	45.900	-71.097	158.852	97.179	-32.119	-16.535	0.00066423	0.00096263	7.9032e-05	1335.9	1.025e-05	4.3746e-06	1336.3	365.43	4.4681e-06	6.6095e-06	416.8	140.58	121.73	41.942	1.9852e-05	52.027	0.0021421	0.0022293	0.00067866	1651.4	2.3337e-05	2.4825e-05	1440.9	397.33	2.3349e-05	2.4778e-05	471.33	157.61	135.72	47.993	2.5925e-05	59.867	-12.487	123.589	-30.195	-88.804	118.915	128.940	-88.774	-84.202	-79.234	128.735	-84.802	-80.452	-79.791	-75.234	38.715	-75.896	-8191	255	
1440.948	1	1	0	0	0.27987	0.33353	0.15277	0.14546	0.28784	0.22434	0.3197	0.2532	0.25932	0.19181	0.29645	0.076979	0.34923	0.10795	0.19028	0.034526	-1.8875	-2.9333	-2.6833	-2.5687	-2.9813	-2.6312	-2.9688	-3.0375	-2.5854	-2.9167	-2.9104	-2.6896	-3.2625	-2.7542	-2.775	-2.925	253.571	-68.214	203.783	-88.554	13.445	39.580	184.524	-99.501	53.861	189.659	256.355	123.113	173.256	-98.731	-10.432	23.359	0.00046713	0.00042826	0.00037474	1346.4	1.1211e-05	5.2267e-06	1337.9	365.22	4.5283e-06	2.3407e-06	417.02	141.23	121.47	42.009	5.6583e-06	52.021	0.0020787	0.0023262	0.00065682	1649.6	2.3015e-05	2.6053e-05	1438.5	396.22	2.3281e-05	2.6091e-05	469.19	157.27	135.59	48.249	2.5469e-05	59.679	-17.324	124.886	-28.863	-88.404	178.062	70.836	-88.784	-84.139	0.471	9.756	-84.722	-80.166	-79.698	-74.932	-4.756	-75.759	-8191	255	
1441.044	1	1	0	0	0.197	0.16046	0.2206	0.24849	0.20191	0.12243	0.10585	0.32925	0.20979	0.16357	0.24519	0.41569	0.04948	0.22276	0.15004	0.18003	-2.0042	-2.7646	-2.6208	-2.5125	-2.9729	-2.65	-2.85	-2.8708	-2.5	-2.9479	-3.0187	-2.6083	-3.0604	-2.6771	-2.7083	-2.9354	205.055	-13.649	97.821	8.166	209.818	-37.197	-42.492	246.203	116.585	75.246	152.873	174.871	0.349	255.901	-33.619	69.813	0.00076881	0.00075589	0.00028607	1329.3	4.6729e-06	5.3702e-06	1332.5	365.13	9.0642e-06	7.6615e-06	418.96	141.11	121.36	41.982	9.331e-06	52.012	0.0021023	0.002417	0.00063934	1635.4	2.3629e-05	2.6699e-05	1434.1	394.9	2.4175e-05	2.6473e-05	467.98	156.72	136.44	48.295	2.4842e-05	59.332	-42.337	4.220	-18.037	-88.469	221.134	5.198	-88.805	-83.949	203.535	123.465	-84.602	-80.252	-79.619	-75.067	-15.497	-75.928	-8191	255	
1441.140	1	1	0	0	0.20369	0.15994	0.23103	0.28304	0.14527	0.18068	0.28098	0.30846	0.15575	0.057408	0.29461	0.12231	0.25577	0.55847	0.25461	0.1056	-1.9708	-2.8229	-2.7021	-2.4354	-2.7625	-2.6958	-2.7292	-3.1771	-2.4979	-2.9938	-2.7833	-2.4104	-2.9813	-2.9083	-2.6646	-3.1854	73.941	-83.086	191.315	234.709	189.744	83.859	112.855	197.849	64.385	241.037	127.478	26.999	158.240	198.452	-55.251	231.899	0.00044468	0.0011258	0.00019942	1346.2	1.124e-05	7.748e-06	1340.3	365.54	3.9288e-06	7.9594e-06	417.97	140.75	121.58	42.047	1.0703e-05	51.994	0.0022155	0.0024266	0.00062881	1629.4	2.5101e-05	2.6575e-05	1433.9	394.79	2.558e-05	2.6483e-05	467.27	156.54	137.57	48.091	2.4565e-05	59.388	-31.649	20.942	-93.261	-88.573	-75.967	71.342	-88.890	-84.236	26.081	51.130	-84.538	-80.168	-79.693	-75.107	-1.416	-76.142	-8191	255	
1441.236	1	1	0	0	0.11806	0.063893	0.055418	0.15048	0.10579	0.22665	0.43673	0.22193	0.14231	0.38711	0.14942	0.14413	0.10048	0.26272	0.12093	0.35385	-2.2896	-2.6979	-2.9521	-2.5729	-2.9521	-2.5062	-2.7875	-3.1771	-2.3771	-2.6875	-3.1458	-2.6542	-2.9958	-2.8604	-2.4271	-3.1646	119.840	175.602	148.072	-30.571	39.316	148.174	199.452	219.141	173.534	21.079	159.450	154.264	242.598	191.641	122.389	228.452	0.00078506	0.00080894	0.00031457	1344.6	8.9611e-06	2.962e-06	1337.1	365.05	9.5813e-06	7.5301e-06	417.43	140.4	121.42	41.963	1.0134e-05	51.914	0.0023102	0.0023524	0.00060721	1628.5	2.6026e-05	2.53e-05	1432.5	394.85	2.6132e-05	2.5321e-05	464.77	156.71	138.08	47.79	2.3586e-05	59.496	-38.758	-32.907	-0.361	-88.722	105.943	79.335	-88.868	-84.078	82.131	-9.088	-84.682	-80.375	-79.572	-75.494	65.209	-76.098	-8191	255	
1441.332	1	1	0	0	0.15502	0.11759	0.13299	0.095123	0.11433	0.27714	0.1478	0.26944	0.10512	0.0494	0.16017	0.14487	0.089874	0.11438	0.12151	0.059885	-2.2604	-2.7375	-2.9313	-2.4313	-2.7896	-2.8271	-2.5229	-3.0229	-2.7104	-2.5979	-2.9667	-2.5271	-2.8812	-2.8604	-2.4458	-3.0104	46.093	-47.619	23.017	149.654	215.168	102.821	158.725	180.392	27.699	13.718	-73.997	188.042	17.253	148.003	-65.590	-69.491	0.00035355	0.0010345	0.00011131	1331.8	6.0208e-06	4.8468e-06	1332.2	364.92	4.1012e-06	1.5457e-05	417.85	140.37	121.83	42.059	6.1162e-06	51.961	0.0023197	0.0022646	0.00058719	1631.3	2.5912e-05	2.4252e-05	1425.6	395.84	2.5808e-05	2.4528e-05	462.85	157.28	137.67	47.771	2.2977e-05	59.949	-43.032	-64.952	-23.974	-88.559	28.477	-11.806	-88.715	-83.980	82.145	23.565	-84.833	-80.369	-79.582	-75.068	54.455	-76.242	-8191	255	
1441.453	1	1	0	0	0.16678	0.057099	0.1103	0.044528	0.11469	0.13611	0.048367	0.13643	0.18619	0.35714	0.18246	0.36519	0.15066	0.12329	0.19001	0.40834	-2.3229	-2.7188	-3.15	-2.5958	-2.9125	-2.9354	-2.6063	-3.1562	-2.625	-2.6354	-3.1188	-2.7021	-3.0625	-3.1125	-2.6	-2.8771	176.793	257.876	183.104	228.252	-96.493	232.931	182.306	245.589	237.789	-93.644	196.533	186.172	206.315	6.753	11.515	103.012	0.00058297	0.0013733	0.00020752	1331.2	5.1837e-06	1.2697e-05	1333.4	363.98	9.1341e-06	8.6949e-06	418.12	140.31	121.71	42.123	9.9898e-06	52.124	0.0022875	0.0022468	0.00057458	1655.6	2.5786e-05	2.3864e-05	1425.4	397.95	2.5202e-05	2.4124e-05	462.43	157.99	137.4	47.525	2.2965e-05	60.375	33.448	-32.207	-21.557	-88.657	59.321	11.396	-88.876	-83.986	55.341	62.010	-84.696	-80.242	-79.713	-75.425	84.853	-75.820	-8191	255	
1441.549	1	1	0	0	0.16313	0.1647	0.13359	0.14675	0.14483	0.22427	0.087799	0.3009	0.10351	0.21932	0.1031	0.1093	0.48511	0.11531	0.27184	0.18801	-2.2396	-2.6312	-2.9083	-2.7292	-2.6	-2.875	-2.6583	-3.1146	-2.7938	-2.5438	-3.4062	-2.8021	-2.7625	-3.2021	-2.4667	-2.9292	23.522	11.740	63.309	222.960	-43.866	199.412	177.858	194.921	-101.156	30.599	256.264	231.648	214.083	-91.221	198.923	246.110	0.00053138	0.0011805	7.642e-05	1332	1.8332e-06	6.0683e-06	1335.6	365.68	3.5052e-06	1.3739e-06	417.02	139.87	121.79	42.01	1.3449e-05	52.041	0.0022016	0.002169	0.00057849	1661.9	2.4869e-05	2.2957e-05	1426.8	398.87	2.4228e-05	2.3275e-05	463.51	158.14	136.5	47.208	2.3339e-05	60.224	-11.943	25.236	-80.760	-88.809	-18.029	13.428	-88.659	-84.167	3.905	-29.478	-84.666	-80.226	-79.687	-75.236	237.293	-75.673	-8191	255	
1441.621	1	1	0	0	0.036707	0.041806	0.24481	0.1687	0.10808	0.22861	0.29568	0.22163	0.12476	0.28679	0.18856	0.24874	0.16811	0.16432	0.25706	0.28512	-2.4792	-2.5958	-2.8583	-2.7771	-2.5167	-2.9854	-2.6146	-3.0604	-2.9083	-2.6042	-3.0458	-2.8917	-2.5896	-3.1125	-2.6333	-2.925	-42.488	59.319	173.727	-98.825	149.781	-7.309	210.724	201.445	100.025	168.540	-81.324	182.927	253.989	-88.605	142.177	192.879	0.00055825	0.00050882	0.00027052	1331.4	1.0824e-05	8.0054e-06	1336.5	365.4	3.2777e-06	5.0049e-06	416.44	140.43	121.64	41.889	1.6157e-05	51.99	0.0020971	0.002067	0.00059081	1649.4	2.3706e-05	2.1796e-05	1427.7	397.38	2.3002e-05	2.2131e-05	464.72	157.19	135.97	46.959	2.4132e-05	59.877	-7.466	7.941	116.048	-88.444	47.701	69.756	-88.868	-84.190	228.407	187.288	-84.858	-80.286	-79.640	-74.973	136.011	-75.941	-8191	255	
1441.717	1	1	0	0	0.30529	0.32104	0.098549	0.1065	0.27666	0.12586	0.19165	0.44461	0.23453	0.027314	0.17939	0.11874	0.22557	0.12921	0.1434	0.13304	-2.4021	-2.3229	-2.9604	-2.825	-2.5479	-3.1271	-2.9354	-2.9062	-3.0208	-2.5542	-2.9958	-3.0042	-2.8417	-3.0083	-2.7313	-2.8	-48.703	124.251	158.688	97.872	17.069	-7.704	163.468	232.234	-78.359	82.656	-78.730	-12.971	-68.730	-99.465	185.889	178.898	0.00060466	0.00066476	0.0002053	1324	1.5076e-05	6.761e-06	1330.5	365.45	1.1804e-05	2.1326e-06	418.1	140.85	121.71	41.909	6.2229e-06	51.89	0.0020328	0.0020351	0.00062035	1633.5	2.3272e-05	2.1886e-05	1430.2	396.48	2.2722e-05	2.262e-05	468.03	156.92	135.78	47.221	2.5423e-05	59.863	-24.378	-22.771	148.351	-88.926	35.569	46.316	-88.874	-84.141	-15.908	-9.153	-84.868	-80.389	-79.733	-75.273	111.996	-75.683	-8191	255	
1441.836	1	1	0	0	0.26391	0.049094	0.022999	0.1681	0.10427	0.21143	0.45562	0.20024	0.080848	0.17678	0.16768	0.19118	0.093512	0.29228	0.1083	0.15529	-2.5479	-2.6979	-2.8438	-2.9125	-2.4583	-3.1667	-2.7708	-2.6125	-3.0646	-2.5021	-3.0021	-2.8333	-2.6083	-3.075	-2.7812	-2.8042	59.167	156.199	33.047	-12.059	89.679	178.394	232.598	247.498	173.639	117.409	-78.632	231.501	192.687	185.969	95.893	209.116	0.00051246	0.00082916	0.00020685	1332.9	1.0914e-05	8.1943e-06	1331.1	364.99	2.64e-06	8.2921e-06	419.02	140.55	121.45	41.895	6.1244e-06	52.055	0.0020229	0.0021221	0.00065084	1632.1	2.312e-05	2.323e-05	1433.8	396.35	2.2476e-05	2.3864e-05	470.13	156.67	135.38	47.529	2.5322e-05	59.732	-20.777	124.119	-40.147	-88.777	51.570	201.133	-88.889	-84.140	-98.052	226.682	-84.423	-80.185	-79.632	-75.125	-37.857	-75.817	-8191	255	
1441.932	1	1	0	0	0.10529	0.29977	0.10756	0.077685	0.27525	0.31734	0.30782	0.199	0.2327	0.17926	0.19747	0.23644	0.34555	0.064159	0.20763	0.18158	-2.7062	-2.3708	-2.8187	-2.9396	-2.4688	-2.8979	-2.9917	-2.5812	-2.8292	-2.4625	-2.8521	-2.7896	-2.6854	-3.0521	-2.7917	-2.7438	6.794	175.682	14.833	195.471	-37.110	-30.613	221.796	214.571	-98.131	77.125	184.343	247.609	208.908	-86.405	127.864	175.792	0.00069346	0.00081694	0.00033679	1333.9	5.1793e-06	4.2958e-06	1334	365.55	1.2162e-05	1.6956e-05	419.56	140.28	121.48	41.971	1.2055e-05	52.132	0.0019797	0.0022208	0.00064021	1624.9	2.2511e-05	2.4413e-05	1430.7	395.63	2.1897e-05	2.4844e-05	468.44	156.15	135.32	47.9	2.4534e-05	59.548	-27.214	210.269	-8.665	-88.423	52.715	83.055	-88.692	-84.033	-42.984	165.916	-84.669	-80.053	-79.528	-75.022	27.073	-76.209	-8191	255	
1442.028	1	1	0	0	0.34944	0.090734	0.22536	0.21863	0.038624	0.047176	0.11088	0.3612	0.028522	0.13064	0.29351	0.12958	0.24549	0.10969	0.16654	0.13044	-2.5583	-2.3979	-2.6937	-2.9292	-2.5167	-2.8063	-3.0438	-2.6833	-2.8688	-2.5271	-2.8438	-3.0187	-2.7062	-2.7208	-2.7438	-2.5667	-67.190	99.212	-29.314	76.294	6.102	-5.228	159.300	234.654	-75.147	87.107	64.515	191.052	245.205	97.666	-23.736	156.601	0.00061107	0.00045904	0.00036327	1327.8	3.7979e-06	5.5208e-06	1336.1	366.66	7.8142e-06	3.131e-06	417.83	140.98	121.78	41.963	3.6125e-06	52.136	0.0019659	0.0023066	0.00062027	1611.8	2.2439e-05	2.4826e-05	1427.6	394.47	2.1865e-05	2.4973e-05	465.38	155.55	135.38	47.799	2.3227e-05	59.174	-29.887	15.274	-2.587	-88.616	145.246	-28.846	-88.871	-84.203	214.161	124.209	-84.398	-80.539	-79.649	-75.253	-43.704	-75.777	-8191	255	
1442.124	1	1	0	0	0.29105	0.17078	0.16121	0.17679	0.13697	0.12864	0.21463	0.098135	0.37447	0.24282	0.33	0.2844	0.073604	0.18498	0.099557	0.26198	-2.625	-2.5792	-2.6562	-3.0292	-2.5125	-2.8854	-2.9021	-2.4646	-2.8729	-2.55	-2.8958	-2.9917	-2.6375	-2.9479	-2.925	-2.5417	163.715	-80.325	213.343	250.608	-28.811	18.107	167.456	-85.132	122.673	-52.520	190.469	163.770	196.167	208.761	135.606	200.188	0.00060096	0.0012344	0.00026948	1324.9	3.2119e-06	2.93e-06	1331.2	365.58	1.2993e-05	1.1019e-05	418.41	140.07	121.76	42.068	1.5475e-05	52.107	0.0020101	0.0022849	0.00059852	1594.5	2.3385e-05	2.5062e-05	1423.4	393.52	2.3322e-05	2.507e-05	464.69	155.13	136.42	47.885	2.3238e-05	59.108	-28.289	47.332	34.336	-88.931	-86.289	134.386	-88.938	-84.112	168.927	92.335	-84.518	-80.439	-79.468	-75.148	-55.824	-75.707	-8191	255	
1442.245	1	1	0	0	0.41787	0.13933	0.057897	0.1617	0.32836	0.15127	0.36724	0.066418	0.12727	0.24575	0.031558	0.34146	0.16869	0.21259	0.14468	0.1752	-2.5292	-2.6729	-2.6479	-3.0104	-2.6437	-2.7458	-3.1958	-2.775	-2.9333	-2.8292	-2.7062	-3.0958	-2.8208	-3	-2.9771	-2.7125	126.725	-25.547	146.062	-85.917	174.984	41.704	186.923	84.498	240.570	254.281	-93.471	175.607	159.974	202.652	-19.599	225.369	0.00066833	0.0010012	0.000343	1333.6	1.057e-05	1.3127e-05	1333	366.21	1.3101e-05	1.3812e-05	417.04	139.81	121.66	42.143	9.9864e-06	51.898	0.0021565	0.0022693	0.00059879	1600.1	2.4708e-05	2.4731e-05	1422.1	393.88	2.4627e-05	2.4397e-05	463.79	155.45	137.28	47.768	2.2483e-05	59.158	-40.100	-30.707	-47.193	-88.427	235.541	13.953	-88.798	-84.173	154.048	96.452	-84.640	-80.201	-79.721	-75.187	9.483	-75.885	-8191	255	
1442.316	1	1	0	0	0.15408	0.25691	0.12926	0.36855	0.19557	0.2252	0.20726	0.26089	0.15375	0.1746	0.13888	0.31197	0.13952	0.15529	0.23307	0.078276	-2.5375	-2.8583	-2.4688	-2.9333	-2.4042	-2.7542	-3.0833	-2.4375	-2.9583	-2.8354	-2.5312	-3.0021	-2.7458	-2.7958	-2.9354	-2.5812	80.870	134.456	48.961	138.218	232.695	89.969	187.366	195.976	-88.763	183.286	168.088	185.151	242.972	-44.522	243.115	194.935	0.00067871	0.0012395	0.00011702	1324.4	2.6345e-06	1.0127e-05	1339.8	365.34	3.1438e-06	1.588e-05	418.65	140.35	122.1	41.922	5.9997e-06	51.931	0.002215	0.0021858	0.00058019	1606.7	2.5157e-05	2.4092e-05	1424.1	394.73	2.5184e-05	2.3854e-05	463.52	156.41	137.38	47.63	2.2319e-05	59.78	-1.291	10.675	-85.055	-88.586	116.200	83.538	-88.844	-84.121	20.413	74.879	-84.428	-80.209	-79.476	-75.206	102.808	-75.908	-8191	255	
1442.437	1	1	0	0	0.11241	0.19896	0.12166	0.044707	0.16835	0.064834	0.029836	0.056133	0.15664	0.16536	0.30965	0.16687	0.34467	0.084123	0.079049	0.2059	-2.2729	-2.7562	-2.2333	-2.8667	-2.5375	-2.6958	-3.2417	-2.7229	-2.5687	-2.9333	-2.5542	-3.1667	-2.6854	-2.6312	-2.8021	-2.5208	79.329	130.328	187.537	184.965	60.646	110.217	203.595	158.403	190.848	52.757	212.003	-94.869	234.640	212.388	-92.449	255.091	0.00028888	0.0011211	0.00031635	1336.3	5.1617e-06	7.6283e-06	1336	365.79	6.3098e-06	1.7432e-05	419.65	140.21	121.64	41.821	3.2963e-06	51.937	0.0022722	0.002182	0.00058037	1637.3	2.5509e-05	2.4067e-05	1424.4	397.25	2.5424e-05	2.3681e-05	463.35	157.29	137.15	47.547	2.2021e-05	59.994	20.140	-17.218	-64.041	-88.800	88.363	20.730	-88.897	-84.189	129.596	37.092	-84.572	-80.265	-79.698	-74.880	-7.009	-76.123	-8191	255	
1442.533	1	1	0	0	0.15831	0.15477	0.22464	0.067405	0.13019	0.151	0.18968	0.30589	0.34516	0.1283	0.12356	0.086469	0.24181	0.30278	0.1305	0.27245	-2.3875	-2.8063	-2.4583	-2.8875	-2.6625	-2.5417	-3.0521	-2.875	-2.6688	-3.0083	-2.7458	-2.85	-2.825	-2.4271	-3.0542	-2.6375	165.865	42.695	-38.087	-23.668	-21.424	-33.010	-84.495	214.377	-51.444	188.014	247.467	-26.097	199.825	-38.378	-79.864	-55.442	0.00032455	0.00088543	0.00023346	1338.1	8.8576e-06	1.0652e-05	1333.7	365.16	1.8248e-05	2.0985e-06	419.36	140.88	121.68	41.907	6.3917e-06	52.028	0.00218	0.0020911	0.00056137	1640.9	2.3652e-05	2.24e-05	1415.6	396.36	2.3059e-05	2.1484e-05	459.99	156.42	135.24	46.956	2.1219e-05	59.586	17.128	-8.394	45.255	-88.591	8.458	45.530	-88.973	-84.087	-16.090	136.984	-84.521	-80.212	-79.884	-75.138	88.756	-76.067	-8191	255	
1442.629	1	1	0	0	0.075283	0.28876	0.18234	0.14109	0.090224	0.13983	0.34401	0.19227	0.15598	0.074573	0.29708	0.30588	0.1842	0.26569	0.058256	0.12964	-2.2417	-3.0021	-2.7083	-2.8521	-2.8646	-2.6021	-3.2021	-2.6729	-2.6937	-3.0042	-2.7125	-2.9813	-2.8042	-2.4854	-2.9479	-2.9042	139.782	213.936	145.604	255.404	-8.595	78.800	219.814	220.134	111.814	127.296	214.887	232.195	192.514	247.993	-37.242	-81.944	0.00042867	0.00082831	0.0001539	1334.5	5.6261e-06	8.8237e-06	1331.4	365.43	5.7991e-06	2.521e-06	416.65	140.62	121.63	41.675	8.2702e-06	52.054	0.0020093	0.0019275	0.00055871	1629.7	2.2498e-05	2.1561e-05	1416.9	396.01	2.2588e-05	2.1135e-05	462.52	156.92	135.45	46.923	2.2896e-05	59.739	-46.848	-2.045	25.050	-88.500	86.214	44.138	-88.857	-84.044	-7.292	6.845	-84.798	-80.336	-79.502	-75.221	184.886	-75.873	-8191	255	
1442.726	1	1	0	0	0.074267	0.21536	0.060584	0.13255	0.042697	0.12677	0.56311	0.085515	0.29676	0.081259	0.22684	0.22166	0.065511	0.12109	0.13656	0.34324	-2.1833	-2.8937	-2.5333	-2.8104	-2.8646	-2.325	-3.0438	-2.9062	-2.5042	-2.9771	-2.4604	-3.0104	-3.1083	-2.5708	-3.0292	-2.6229	115.287	-97.827	46.549	-34.781	-62.553	-39.278	185.355	220.525	110.714	232.305	128.780	233.476	-80.852	232.062	149.642	141.535	0.00024053	0.00093514	5.9224e-05	1331.2	7.5975e-06	8.2541e-06	1334	364.46	1.634e-05	7.0797e-06	415.07	139.99	121.6	41.985	1.0129e-05	52.223	0.0020419	0.0019533	0.00060592	1634.7	2.2769e-05	2.1976e-05	1427.3	395.99	2.3279e-05	2.196e-05	467.14	157.43	135.75	47.327	2.5209e-05	59.992	-27.210	123.803	72.000	-88.577	19.625	60.845	-88.914	-84.115	28.091	32.271	-84.644	-80.158	-79.858	-75.212	180.360	-75.892	-8191	255	
1442.846	1	1	0	0	0.18892	0.19003	0.019534	0.17132	0.16452	0.071238	0.08844	0.23091	0.054306	0.082596	0.12998	0.24371	0.26186	0.3455	0.086983	0.10358	-2.2313	-2.7542	-2.4604	-2.9354	-2.9542	-2.5438	-3.0417	-2.9208	-2.5146	-3.0417	-2.65	-2.8	-3.0104	-2.6146	-2.7896	-2.8167	-45.520	133.595	240.271	-71.950	-73.669	121.669	3.870	146.386	40.800	234.817	54.214	254.946	-93.517	-74.229	54.683	-96.064	0.00041976	0.00031885	0.00019575	1331.2	2.2902e-06	5.514e-06	1336.7	364.94	1.5336e-05	7.8722e-06	417.39	140.15	121.59	41.79	1.1704e-05	52.006	0.0020957	0.0020731	0.00065123	1643.2	2.2874e-05	2.3152e-05	1436.1	395.94	2.2927e-05	2.279e-05	468.52	156.31	134.86	47.28	2.4453e-05	59.268	4.033	-72.427	68.299	-88.531	84.906	166.925	-88.861	-84.192	-54.657	234.648	-84.618	-80.241	-79.620	-74.883	57.020	-75.862	-8191	255	
1442.918	1	1	0	0	0.09102	0.20975	0.14422	0.26391	0.2065	0.23896	0.080992	0.035901	0.14098	0.071035	0.20706	0.1136	0.091322	0.17577	0.18551	0.1819	-1.9208	-2.9229	-2.5979	-2.5792	-2.9979	-2.5396	-3.0187	-2.9792	-2.5521	-2.9688	-2.7687	-2.6562	-3.0833	-2.5417	-2.8646	-3	191.159	90.888	-49.440	132.924	116.489	226.873	142.852	182.899	-12.342	242.406	115.911	240.806	-19.696	238.875	-56.105	167.438	0.00056579	0.00056611	0.00025778	1327.5	1.1946e-05	2.2894e-06	1328.3	364.39	4.357e-06	2.4696e-06	416.15	139.1	120.64	41.828	3.1201e-06	51.727	0.0019337	0.0020389	0.00061133	1600.9	2.0789e-05	2.2442e-05	1419.2	391.29	2.08e-05	2.2375e-05	461.09	154.13	133.2	47.079	2.2794e-05	58.475	-18.828	183.304	-51.495	-89.064	35.202	-27.563	-88.709	-84.167	132.528	-21.002	-84.648	-80.156	-79.754	-75.198	116.178	-76.213	-8191	255	
1443.012	1	1	0	0	0.19532	0.26136	0.37418	0.19884	0.10745	0.21395	0.13271	0.089857	0.20831	0.078326	0.18712	0.27678	0.06266	0.24993	0.084386	0.21666	-2.0979	-2.9771	-2.4375	-2.6458	-3.0396	-2.5771	-2.9354	-3.1	-2.3583	-2.8042	-2.9333	-2.7625	-2.9667	-2.7417	-2.7146	-2.8958	174.440	247.142	185.366	-90.321	67.160	-81.146	234.162	198.441	131.155	161.482	243.112	-43.135	0.061	212.708	-93.222	211.549	0.00038939	0.00094028	4.7491e-05	1319.1	5.6983e-06	5.9563e-06	1316.2	362.52	7.5414e-06	9.2233e-06	412.92	138.76	120.32	41.651	2.3943e-06	51.831	0.0018137	0.0020487	0.00056521	1575.4	1.972e-05	2.2413e-05	1402	387.96	1.9819e-05	2.2018e-05	455.94	152.85	132.16	46.788	2.112e-05	57.898	-12.577	131.610	61.697	-88.881	90.663	194.943	-88.840	-84.030	194.066	41.993	-84.654	-80.136	-79.365	-75.301	163.965	-75.706	-8191	255	
1443.133	1	1	0	0	0.039646	0.24269	0.17685	0.23452	0.19713	0.070027	0.1829	0.28618	0.19683	0.10991	0.06167	0.041129	0.2552	0.25027	0.17241	0.18428	-2.2021	-2.85	-2.7104	-2.4458	-3.0625	-2.5729	-2.9188	-3.0125	-2.5771	-2.8333	-3.0271	-2.5167	-3.1708	-2.7042	-2.5479	-3.0021	-101.418	151.345	-91.728	56.602	-28.258	12.146	244.282	-71.130	-88.896	2.336	-68.352	218.447	-94.547	-60.456	-60.778	212.332	0.0008256	0.00084395	0.00023471	1320	7.4389e-06	4.935e-06	1319.3	362.39	8.5391e-06	4.6283e-06	414.54	139.55	120.67	41.735	5.2369e-06	51.582	0.0017723	0.0020204	0.00052955	1556.7	2.0014e-05	2.2263e-05	1398.8	386.97	2.0607e-05	2.2393e-05	455.24	152.71	133.5	46.956	2.1087e-05	57.752	-16.762	-12.167	-94.785	-88.451	5.054	-77.171	-88.766	-83.853	221.218	79.129	-84.548	-80.135	-79.565	-75.326	80.915	-75.592	-8191	255	
1443.229	1	1	0	0	0.082953	0.085826	0.2124	0.23931	0.32205	0.094971	0.42548	0.39754	0.16693	0.15551	0.28088	0.063468	0.019729	0.032145	0.11187	0.21243	-2.2396	-2.7313	-2.7479	-2.4458	-2.6854	-2.825	-2.6042	-3.0521	-2.5917	-2.7812	-2.8771	-2.7854	-2.9896	-2.7021	-2.4375	-3.1083	11.580	-39.035	-12.723	-25.448	188.615	92.129	220.598	-101.978	45.081	180.425	125.275	210.639	257.773	86.377	172.680	180.672	0.00054542	0.00048823	0.00043959	1324.4	4.5679e-06	2.1934e-05	1324.2	362.54	1.0639e-05	7.8555e-06	413.79	139.9	121.06	41.805	6.3645e-06	51.765	0.0019029	0.0020331	0.00052661	1554.8	2.124e-05	2.1988e-05	1401	386.33	2.1586e-05	2.1848e-05	453.85	152.81	133.88	46.721	2.0304e-05	57.71	-31.938	-20.428	-8.334	-88.630	-98.958	44.611	-88.765	-84.071	196.987	36.956	-84.528	-80.314	-79.734	-75.166	124.550	-75.743	-8191	255	
1443.325	1	1	0	0	0.14725	0.18587	0.18867	0.15291	0.068583	0.213	0.31473	0.085452	0.20823	0.23867	0.24038	0.13596	0.24759	0.084064	0.15556	0.16296	-2.1479	-2.8312	-2.7875	-2.5271	-2.8896	-2.8625	-2.8292	-3.1083	-2.7271	-2.7083	-2.9479	-2.8	-2.9021	-2.8333	-2.1979	-2.9875	-3.616	155.604	118.870	179.624	182.991	112.353	213.485	19.060	103.053	-92.268	-33.552	173.850	-27.485	8.877	-3.357	186.464	0.00047918	0.00091774	0.00054192	1313.2	2.1299e-06	1.2589e-05	1316.9	360.87	1.0004e-05	1.0309e-05	413.64	139.2	120.22	41.736	4.0571e-06	51.64	0.001931	0.001937	0.00050566	1552.4	2.1761e-05	2.1095e-05	1394.2	386.04	2.2041e-05	2.1303e-05	452.4	152.85	134	46.51	1.986e-05	57.855	-30.749	-32.135	-37.156	-88.550	256.198	51.445	-88.674	-84.041	195.231	-3.175	-84.324	-80.325	-79.664	-75.149	83.124	-75.919	-8191	255	
1443.421	1	1	0	0	0.19041	0.085446	0.21036	0.23524	0.23854	0.088949	0.14461	0.2914	0.098144	0.12132	0.18129	0.31206	0.046187	0.33512	0.23088	0.21495	-2.2875	-2.7292	-2.8333	-2.2687	-2.7104	-2.8688	-2.6292	-2.9021	-2.6667	-2.5896	-2.975	-2.6	-2.9396	-2.7417	-2.4042	-3.1312	171.708	33.816	28.517	-69.188	39.469	93.071	215.861	242.672	40.548	104.910	211.977	170.821	246.935	-59.891	29.187	216.476	0.00052126	0.00047052	0.00025024	1316.1	8.8176e-07	4.0612e-06	1316.7	361.24	8.2603e-06	9.1752e-06	413.69	139.03	120.47	41.907	8.8494e-06	51.469	0.0019658	0.0019102	0.00049386	1564.3	2.2131e-05	2.0509e-05	1392.3	387.91	2.1824e-05	2.0633e-05	450.47	153.34	133.67	46.405	1.9396e-05	58.263	-25.703	-82.995	-6.601	-88.781	22.391	19.625	-88.700	-84.051	-21.231	14.152	-84.569	-80.120	-79.293	-74.914	72.931	-75.792	-8191	255	
1443.542	1	1	0	0	0.01869	0.039064	0.04938	0.22225	0.22681	0.23922	0.18679	0.12497	0.20628	0.19071	0.14977	0.075263	0.074413	0.12998	0.15918	0.15392	-2.2875	-2.5271	-3.0229	-2.5479	-2.7438	-2.8667	-2.6833	-3.1146	-2.8	-2.6104	-3.2396	-2.8187	-2.6896	-2.9271	-2.4833	-3.0417	140.013	-23.783	25.479	154.433	111.089	107.844	144.403	181.705	251.503	157.470	219.985	226.251	-51.866	105.777	73.824	193.510	0.00022204	0.00083049	0.00018855	1313.6	8.2922e-06	5.3921e-06	1306.3	360.82	1.0337e-05	4.7495e-06	412.07	139.11	120.26	41.525	3.8168e-06	51.558	0.0019301	0.0018819	0.00048842	1577.5	2.1836e-05	2.0371e-05	1387	388.56	2.1538e-05	2.0861e-05	451.15	154.06	133.7	46.294	2.0194e-05	58.761	-81.613	-16.087	-97.584	-88.785	-2.627	33.159	-88.783	-84.082	-33.687	114.562	-84.523	-80.215	-79.344	-75.125	64.004	-75.748	-8191	255	
1443.614	1	1	0	0	0.15876	0.23559	0.1086	0.096986	0.052924	0.16989	0.28933	0.28195	0.086281	0.25061	0.17977	0.26899	0.23536	0.10857	0.0071336	0.15347	-2.3208	-2.4854	-2.8896	-2.7958	-2.575	-3.0521	-2.7271	-3.1375	-2.725	-2.4333	-3.1354	-2.6833	-2.7583	-3.0583	-2.4042	-2.8771	176.074	78.844	-40.389	140.779	232.759	60.873	179.975	-99.093	157.490	-70.014	247.336	-94.428	227.692	213.113	144.256	-17.218	0.00061318	0.0018125	0.00025689	1312	1.1279e-05	9.9793e-06	1310.7	361.07	3.4522e-06	1.5458e-05	413.42	139.1	120.42	41.5	1.0792e-05	51.386	0.0019274	0.0018986	0.00051226	1594.9	2.1708e-05	2.0151e-05	1393.6	389.86	2.1246e-05	2.0452e-05	454.15	154.53	133.44	46.147	2.0974e-05	58.74	5.419	-2.220	186.920	-88.190	20.209	26.466	-88.956	-84.218	74.401	59.616	-84.612	-80.145	-79.512	-75.357	235.716	-75.905	-8191	255	
1443.710	1	1	0	0	0.31	0.32108	0.22849	0.096841	0.30422	0.024111	0.20966	0.13945	0.088378	0.15193	0.25784	0.40781	0.23894	0.19624	0.052694	0.2291	-2.5896	-2.2396	-2.8229	-2.575	-2.6063	-2.9479	-2.6729	-2.8625	-2.8187	-2.5167	-3.275	-2.7	-2.7521	-3.1167	-2.6104	-2.8604	50.505	232.750	116.466	-70.358	-20.345	-6.835	168.444	124.987	95.972	79.953	-97.639	181.625	208.540	-79.562	150.141	76.008	0.00048024	0.0012404	0.00012206	1313.3	6.3256e-06	7.9927e-06	1312.7	360.69	7.9725e-06	4.3782e-06	412.48	138.73	120.26	41.421	6.7878e-06	51.49	0.0018727	0.0018458	0.00053745	1586.5	2.1162e-05	1.9604e-05	1395.1	389.09	2.0605e-05	1.9803e-05	454.65	153.6	132.62	45.9	2.1566e-05	58.403	6.947	-21.091	-3.188	-88.354	63.134	33.744	-88.754	-84.020	-88.560	27.594	-84.365	-80.209	-79.701	-75.124	150.005	-75.893	-8191	255	
1443.806	1	1	0	0	0.45177	0.10763	0.13102	0.13386	0.058011	0.058597	0.16905	0.2152	0.013671	0.093583	0.27378	0.093035	0.10045	0.30081	0.25582	0.15529	-2.3521	-2.2375	-2.8312	-2.5958	-2.55	-2.8625	-2.5958	-2.7917	-2.8771	-2.55	-3.0104	-2.8458	-2.7646	-3.0854	-2.6125	-2.7125	161.345	-83.254	10.433	220.480	-76.086	77.838	249.681	224.806	17.567	86.985	-89.175	186.609	72.710	-84.587	68.993	215.177	0.00034782	0.00071185	0.00023456	1308.8	1.1945e-05	8.5234e-06	1305.3	359.09	3.1647e-06	1.2718e-05	412.05	139.2	120.4	41.501	6.3413e-06	51.646	0.0017946	0.0017774	0.00055194	1566.2	2.0153e-05	1.9029e-05	1392.5	386.9	1.9508e-05	1.9523e-05	454.56	152.69	132.03	45.925	2.1369e-05	57.95	15.352	79.501	153.896	-88.385	59.413	120.930	-88.721	-83.974	25.655	-50.009	-84.308	-80.320	-79.767	-74.504	55.030	-75.692	-8191	255	
1443.925	1	1	0	0	0.060316	0.1694	0.17884	0.17358	0.15461	0.14809	0.3098	0.16445	0.27091	0.25075	0.35673	0.1912	0.14738	0.16924	0.20865	0.061114	-2.5854	-2.5979	-2.8625	-2.7583	-2.6271	-3.0417	-2.8688	-3.0583	-3.0312	-2.6667	-2.9792	-2.8729	-2.5938	-3.2104	-2.725	-2.5687	175.581	-18.735	109.709	234.699	-35.638	-49.661	232.071	196.033	70.701	184.110	193.128	237.578	147.826	147.697	29.291	145.718	0.00015081	0.00072847	0.00019664	1310.3	5.8902e-06	3.2121e-06	1307.1	360.1	1.2782e-05	1.0214e-05	411.92	138.62	119.66	41.472	1.0455e-05	51.439	0.0016952	0.0017922	0.00054454	1549.6	1.9228e-05	1.9586e-05	1389.6	385.64	1.8596e-05	2.0141e-05	453.7	151.95	131.13	46.127	2.1071e-05	57.777	56.504	129.671	35.995	-88.566	35.643	69.324	-88.747	-83.985	-26.688	73.775	-84.512	-79.925	-79.549	-74.941	-27.407	-75.982	-8191	255	
1444.021	1	1	0	0	0.11957	0.25195	0.081009	0.21293	0.02783	0.086559	0.31318	0.24289	0.24477	0.117	0.14234	0.036809	0.086474	0.15012	0.34233	0.098352	-2.6021	-2.6958	-2.6625	-2.8917	-2.4417	-3.0187	-3.1021	-2.6792	-2.9021	-2.6229	-2.8563	-2.9396	-2.7583	-3.0938	-2.8521	-2.6917	53.334	70.432	-67.857	-53.162	-78.375	120.343	187.745	247.375	-3.223	245.756	253.886	-61.803	-83.889	155.335	-58.790	132.544	0.00058264	0.00053981	0.00014003	1310.8	5.1049e-06	3.7037e-06	1310.1	360.27	1.0313e-05	5.5647e-06	410.59	137.92	119.76	41.318	4.6647e-06	51.383	0.0016492	0.0018791	0.00053751	1542.7	1.8803e-05	2.0625e-05	1389.6	385.26	1.8553e-05	2.1108e-05	452.66	151.4	131.33	46.383	2.0344e-05	57.51	14.420	126.572	-38.569	-88.542	77.072	-88.176	-88.589	-84.007	-17.073	-20.776	-84.456	-80.383	-79.543	-74.921	-17.295	-75.682	-8191	255	
1444.117	1	1	0	0	0.19607	0.023481	0.32888	0.28182	0.24051	0.083381	0.44642	0.054002	0.19338	0.095713	0.13525	0.25175	0.16106	0.15357	0.11678	0.17626	-2.6583	-2.5417	-2.5396	-3.0479	-2.5208	-2.8979	-3.0375	-2.8063	-2.8604	-2.7042	-2.7	-2.9771	-2.6521	-2.8812	-2.8708	-2.6042	94.462	131.638	-46.840	203.318	12.132	174.332	200.433	-21.208	-10.395	17.418	182.579	241.161	196.054	139.215	59.740	-38.630	0.00047443	0.00034693	0.00019656	1314.2	4.3926e-06	1.5754e-07	1307.5	359.57	1.9125e-06	1.0076e-05	411.41	138.74	119.97	41.432	6.9393e-06	51.499	0.0016633	0.001934	0.00051796	1533.4	1.9139e-05	2.1165e-05	1385.4	384.06	1.8994e-05	2.1404e-05	451.2	151.16	131.71	46.434	1.9621e-05	57.362	-26.617	100.857	-12.481	-88.504	-13.517	199.821	-88.705	-84.043	-17.704	62.330	-84.507	-80.175	-79.654	-74.809	-49.378	-75.903	-8191	255	
1444.213	1	1	0	0	0.1712	0.23889	0.078769	0.13393	0.29629	0.096887	0.30275	0.15074	0.071376	0.2013	0.16383	0.25443	0.22085	0.21268	0.14023	0.15209	-2.4792	-2.6083	-2.6125	-3.0667	-2.5417	-2.775	-3.0792	-2.7771	-2.9667	-2.7167	-2.725	-3.1167	-2.75	-3.0458	-2.8271	-2.5146	-94.895	251.195	-89.889	-74.741	37.868	56.402	182.253	238.479	83.222	-15.891	256.439	257.258	201.761	-85.249	116.372	-71.120	0.00066891	0.001036	9.0517e-05	1307.7	2.7117e-06	1.3705e-05	1304.1	358.9	8.825e-06	1.018e-05	411.82	138.25	119.58	41.449	1.3422e-05	51.367	0.0017282	0.0019201	0.0005023	1517.7	1.9742e-05	2.0867e-05	1384.5	382.96	1.9695e-05	2.0833e-05	450	150.68	132.2	46.273	1.9305e-05	57.197	-36.142	12.834	-76.581	-88.532	212.011	21.334	-88.702	-84.027	173.028	26.415	-84.528	-80.149	-79.604	-74.920	-25.453	-76.007	-8191	255	
1444.309	1	1	0	0	0.11637	0.19548	0.33481	0.093651	0.26611	0.096988	0.22272	0.23224	0.044904	0.024867	0.26827	0.17602	0.2484	0.24953	0.23011	0.18897	-2.5479	-2.9375	-2.6854	-3.1312	-2.4833	-2.8167	-3.175	-2.5854	-2.9708	-2.8271	-2.675	-3.1688	-2.6937	-2.775	-2.9583	-2.3187	59.667	159.061	71.257	-88.475	-45.382	156.196	198.875	126.075	-67.640	111.222	142.523	108.284	206.173	-94.674	-42.879	216.113	0.00048008	0.0011458	6.3028e-05	1313	1.1882e-05	6.6667e-06	1303.8	358.44	2.2137e-06	4.8264e-06	411.7	137.88	119.74	41.328	7.6336e-06	51.382	0.0018061	0.0018672	0.00049373	1520.3	2.0647e-05	2.0403e-05	1379.5	382.36	2.0557e-05	2.026e-05	449.15	150.53	132.5	46.111	1.8812e-05	57.408	-7.536	1.322	-72.690	-89.009	120.105	-43.055	-88.671	-84.008	248.413	75.044	-84.544	-79.869	-79.717	-75.050	24.559	-75.841	-8191	255	
1444.406	1	1	0	0	0.11563	0.22853	0.07811	0.3698	0.17935	0.22825	0.19712	0.1486	0.28176	0.071282	0.22118	0.13095	0.14112	0.38588	0.09109	0.23597	-2.3521	-2.7313	-2.3667	-3.0875	-2.725	-2.7604	-3.2958	-2.725	-2.7271	-2.7562	-2.6604	-2.9333	-2.8458	-2.7292	-3.0687	-2.6083	-92.176	141.386	94.770	-98.157	-70.492	131.205	255.058	127.668	-29.060	88.781	72.415	225.693	-54.255	247.900	-14.986	121.662	0.00058325	0.00069674	0.00030201	1304.4	7.0116e-06	1.159e-05	1305.3	357.66	1.2219e-05	4.9086e-06	411.07	138.55	119.7	41.437	2.9823e-06	51.617	0.001866	0.0018235	0.00048577	1526.7	2.1221e-05	2.0042e-05	1376.6	383.39	2.0996e-05	1.9757e-05	447.71	151.41	132.64	46.046	1.8241e-05	57.721	-20.997	9.437	1.026	-88.851	52.591	18.360	-88.760	-83.947	-14.766	42.138	-84.247	-80.088	-79.488	-75.060	176.536	-76.039	-8191	255	
1444.526	1	1	0	0	0.16963	0.15804	0.47058	0.22696	0.13048	0.23521	0.15775	0.31295	0.17553	0.18892	0.08627	0.10209	0.099758	0.37937	0.17413	0.1383	-2.2896	-2.7771	-2.6771	-2.8771	-2.6542	-2.4833	-3.1125	-2.9521	-2.6667	-2.8396	-2.5521	-3.0208	-2.7687	-2.5604	-2.9479	-2.675	-1.056	92.134	175.577	179.934	9.943	104.301	232.708	202.162	219.805	-30.786	200.719	200.692	240.697	231.259	237.187	145.537	0.00056957	0.00092497	0.00010294	1307.4	4.7116e-06	6.0157e-06	1310.3	359.56	1.5132e-06	7.3829e-06	412.45	138.58	119.7	41.34	5.4265e-06	51.171	0.0018535	0.0017852	0.00047194	1541.9	2.0523e-05	1.9541e-05	1375.7	385.1	2.0528e-05	1.9335e-05	447.47	152.16	132.11	45.914	1.8264e-05	58.009	17.007	-68.597	21.427	-88.409	87.958	47.314	-88.858	-83.942	35.047	68.989	-84.347	-79.953	-79.567	-75.124	44.903	-75.822	-8191	255	
1444.622	1	1	0	0	0.10438	0.17956	0.36474	0.2697	0.15401	0.14793	0.18598	0.1557	0.18425	0.05332	0.12292	0.25103	0.1954	0.15108	0.10035	0.25933	-2.3917	-2.8104	-2.4333	-2.8604	-2.625	-2.4375	-3.1042	-2.8667	-2.8104	-2.7958	-2.4958	-2.8375	-2.95	-2.5979	-2.9417	-2.6917	-0.533	-4.893	60.087	98.832	169.546	-85.165	223.173	105.995	194.031	85.233	241.352	223.852	218.093	236.978	118.900	187.702	0.00039142	0.00091524	0.00023884	1298.2	1.5743e-05	1.4313e-05	1301.3	358.81	4.2241e-06	9.2741e-06	410.81	138.5	119.87	41.448	9.895e-06	51.377	0.0018085	0.0017374	0.00047484	1555.7	2.0137e-05	1.9216e-05	1375.5	385.41	2.0018e-05	1.8777e-05	447.97	152.51	131.71	45.812	1.8842e-05	57.993	21.066	-76.689	257.731	-88.896	52.335	22.996	-88.769	-83.870	129.268	110.213	-84.598	-80.240	-79.565	-75.073	152.610	-75.778	-8191	255	
1444.718	1	1	0	0	0.30248	0.062439	0.18665	0.10599	0.18507	0.1138	0.17815	0.17757	0.18643	0.038417	0.22244	0.073146	0.28308	0.12839	0.10774	0.17993	-2.2792	-2.8271	-2.4729	-2.9646	-2.7979	-2.4104	-3.2083	-2.8	-2.6271	-3.0708	-2.7062	-2.8333	-2.9104	-2.5958	-2.6958	-2.8563	3.045	230.980	128.307	-86.745	-15.572	26.869	146.559	200.945	176.321	88.992	205.530	94.853	223.367	204.492	25.972	-75.398	0.00036255	0.0007287	0.00014134	1305.5	3.084e-06	1.1888e-05	1306.1	358.27	3.2595e-06	8.0138e-06	409.99	138.68	119.62	41.446	3.6094e-06	51.389	0.0017663	0.0016798	0.00049195	1554	1.9443e-05	1.8509e-05	1379.9	385.05	1.9397e-05	1.8058e-05	449.95	152.23	131.12	45.602	1.9585e-05	57.729	20.173	-4.278	136.988	-88.661	95.086	51.872	-88.620	-83.972	79.894	54.046	-84.419	-80.367	-79.448	-74.829	-14.236	-75.736	-8191	255	
1444.815	1	1	0	0	0.27844	0.074348	0.13032	0.10924	0.16082	0.15712	0.30585	0.20572	0.16322	0.05783	0.12987	0.22761	0.02061	0.34261	0.093067	0.1952	-2.175	-3.0062	-2.4562	-2.7854	-2.875	-2.5104	-3.0896	-2.9437	-2.6292	-2.9562	-2.6729	-2.725	-3.0292	-2.6729	-2.7479	-2.7542	-79.849	194.017	-25.259	67.429	-35.376	-88.242	171.446	220.409	107.079	162.617	-81.153	-51.461	181.770	249.791	123.200	209.234	0.00046489	0.00029874	0.00025678	1307.3	5.6701e-06	3.0603e-06	1302.8	359.38	4.3309e-06	4.7676e-06	409.86	138.37	120.12	41.383	9.6554e-06	51.084	0.0017011	0.0016209	0.00050741	1540.3	1.872e-05	1.8051e-05	1380.6	383.84	1.8738e-05	1.7797e-05	450.16	151.8	130.85	45.53	2.0045e-05	57.418	-46.651	-43.480	121.651	-88.518	20.965	108.659	-88.704	-83.992	197.289	96.385	-84.645	-80.211	-79.533	-75.042	-82.648	-75.541	-8191	255	
1444.909	1	1	0	0	0.10168	0.30009	0.18348	0.098122	0.18995	0.20532	0.26146	0.3131	0.090212	0.18203	0.20366	0.2254	0.26919	0.23468	0.38441	0.10554	-2.1375	-2.8542	-2.4437	-2.6958	-2.8937	-2.5646	-3.0583	-2.8667	-2.8104	-2.9979	-2.7875	-2.7771	-2.9938	-2.6375	-2.7625	-2.9958	149.611	-52.151	81.877	-40.530	-70.823	75.363	159.247	195.520	58.035	190.648	215.611	210.317	-25.621	246.580	134.020	-40.466	0.00054154	0.00064929	0.00015951	1312	1.7843e-06	9.9733e-06	1306.6	358.66	9.0974e-06	3.4574e-06	410.93	138	119.63	41.489	7.4482e-06	51.469	0.0016516	0.0016554	0.00051599	1532.5	1.8153e-05	1.8421e-05	1382.5	382.81	1.8188e-05	1.8454e-05	450.78	151.23	130.16	45.804	2.0291e-05	57.22	7.008	213.965	-29.952	-88.786	88.852	140.146	-88.562	-83.922	-39.449	-93.104	-84.521	-79.949	-79.811	-74.939	-5.055	-75.966	-8191	255	
#DATA ENDS
