BOXY.EXE: ISS Imagent and Oximeter Data Acquisition Program Version 0.80
Ascii Record File

#ACQ INFORMATION
2  Detector Channels 
16  External MUX Channels 
1  Auxiliary Channels 
5000  Waveform (CCF) Frequency (Hz)
1  Waveforms Skipped 
30  Waveforms Averaged 
1  Cycles Averaged 
16  Acquisitions per Waveform 
10.0806  Updata Rate (Hz) 

#FILE INFORMATION
TRUE -- External MUX Channel results are PARSED.
FALSE -- AC DC and Phase are NOT grouped.
TRUE -- Companion Program Settings File CREATED.
FALSE -- AC data not excluded
FALSE -- DC data not excluded
FALSE -- Phase data not excluded
FALSE -- Auxillary Chn. data not excluded
Tab delimiters

#CALIBRATION STATE
TRUE -- Waveform Calibration Values APPLIED.


#AUX CALIBRATION VALUES
Val Type	aux-1	

Term	1.0000e+00	
Factor	0.0000e+00	


#WF CALIBRATION VALUES
A = Detector Channel
Val Type	A-AC1	A-AC2	A-AC3	A-AC4	A-AC5	A-AC6	A-AC7	A-AC8	A-AC9	A-AC10	A-AC11	A-AC12	A-AC13	A-AC14	A-AC15	A-AC16	A-DC1	A-DC2	A-DC3	A-DC4	A-DC5	A-DC6	A-DC7	A-DC8	A-DC9	A-DC10	A-DC11	A-DC12	A-DC13	A-DC14	A-DC15	A-DC16	A-Ph1	A-Ph2	A-Ph3	A-Ph4	A-Ph5	A-Ph6	A-Ph7	A-Ph8	A-Ph9	A-Ph10	A-Ph11	A-Ph12	A-Ph13	A-Ph14	A-Ph15	A-Ph16	

Term	0.00000e+00	0.00000e+00	0.00000e+00	0.00000e+00	0.00000e+00	0.00000e+00	0.00000e+00	0.00000e+00	0.00000e+00	0.00000e+00	0.00000e+00	0.00000e+00	0.00000e+00	0.00000e+00	0.00000e+00	0.00000e+00	0.00000e+00	0.00000e+00	0.00000e+00	0.00000e+00	0.00000e+00	0.00000e+00	0.00000e+00	0.00000e+00	0.00000e+00	0.00000e+00	0.00000e+00	0.00000e+00	0.00000e+00	0.00000e+00	0.00000e+00	0.00000e+00	0.00000e+00	0.00000e+00	0.00000e+00	0.00000e+00	0.00000e+00	0.00000e+00	0.00000e+00	0.00000e+00	0.00000e+00	0.00000e+00	0.00000e+00	0.00000e+00	0.00000e+00	0.00000e+00	0.00000e+00	0.00000e+00	
Factor	1.00000e+00	1.00000e+00	1.00000e+00	1.00000e+00	1.00000e+00	1.00000e+00	1.00000e+00	1.00000e+00	1.00000e+00	1.00000e+00	1.00000e+00	1.00000e+00	1.00000e+00	1.00000e+00	1.00000e+00	1.00000e+00	1.00000e+00	1.00000e+00	1.00000e+00	1.00000e+00	1.00000e+00	1.00000e+00	1.00000e+00	1.00000e+00	1.00000e+00	1.00000e+00	1.00000e+00	1.00000e+00	1.00000e+00	1.00000e+00	1.00000e+00	1.00000e+00	X	X	X	X	X	X	X	X	X	X	X	X	X	X	X	X	

B = Detector Channel
Val Type	B-AC1	B-AC2	B-AC3	B-AC4	B-AC5	B-AC6	B-AC7	B-AC8	B-AC9	B-AC10	B-AC11	B-AC12	B-AC13	B-AC14	B-AC15	B-AC16	B-DC1	B-DC2	B-DC3	B-DC4	B-DC5	B-DC6	B-DC7	B-DC8	B-DC9	B-DC10	B-DC11	B-DC12	B-DC13	B-DC14	B-DC15	B-DC16	B-Ph1	B-Ph2	B-Ph3	B-Ph4	B-Ph5	B-Ph6	B-Ph7	B-Ph8	B-Ph9	B-Ph10	B-Ph11	B-Ph12	B-Ph13	B-Ph14	B-Ph15	B-Ph16	

Term	0.00000e+00	0.00000e+00	0.00000e+00	0.00000e+00	0.00000e+00	0.00000e+00	0.00000e+00	0.00000e+00	0.00000e+00	0.00000e+00	0.00000e+00	0.00000e+00	0.00000e+00	0.00000e+00	0.00000e+00	0.00000e+00	0.00000e+00	0.00000e+00	0.00000e+00	0.00000e+00	0.00000e+00	0.00000e+00	0.00000e+00	0.00000e+00	0.00000e+00	0.00000e+00	0.00000e+00	0.00000e+00	0.00000e+00	0.00000e+00	0.00000e+00	0.00000e+00	-8.78341e+01	-1.29763e+02	-1.22348e+02	-1.81483e+02	-4.98279e+01	-6.89854e+01	-1.57126e+02	-1.62015e+02	-5.76591e+01	-6.88165e+01	-1.72009e+02	-1.70235e+02	-1.79413e+02	-1.76982e+02	-6.01312e+01	-1.49920e+02	
Factor	1.77355e-05	1.76987e-04	5.28443e-05	1.54970e-01	1.38419e-06	1.88219e-06	1.81523e-01	6.50010e-02	1.26713e-06	1.82042e-06	8.98908e-02	3.02853e-02	2.99964e-02	9.87595e-03	1.55353e-06	1.42067e-02	1.35357e-05	2.64044e-05	7.43121e-06	7.68445e-02	2.53274e-07	2.97136e-07	8.49333e-02	3.23673e-02	2.62873e-07	2.97535e-07	4.35786e-02	1.47918e-02	1.52274e-02	4.96744e-03	2.72784e-07	6.91996e-03	X	X	X	X	X	X	X	X	X	X	X	X	X	X	X	X	



#DISTANCE SETTINGS
A = Detector Channel
A-1	A-2	A-3	A-4	A-5	A-6	A-7	A-8	A-9	A-10	A-11	A-12	A-13	A-14	A-15	A-16	

2.5000e+00	3.0000e+00	2.5000e+00	3.0000e+00	2.0000e+00	3.0000e+00	1.5000e+00	3.0000e+00	3.0000e+00	3.0000e+00	3.0000e+00	3.0000e+00	3.0000e+00	3.0000e+00	1.5000e+00	3.0000e+00	

B = Detector Channel
B-1	B-2	B-3	B-4	B-5	B-6	B-7	B-8	B-9	B-10	B-11	B-12	B-13	B-14	B-15	B-16	

1.0000e+01	1.0000e+01	1.0000e+01	1.4400e+00	1.0000e+01	1.0000e+01	1.5100e+00	1.9400e+00	1.0000e+01	1.0000e+01	1.9900e+00	2.4900e+00	2.4100e+00	2.9000e+00	1.0000e+01	2.9800e+00	




#DATA BEGINS
time	group	step	mark	flag	A-AC1	A-AC2	A-AC3	A-AC4	A-AC5	A-AC6	A-AC7	A-AC8	A-AC9	A-AC10	A-AC11	A-AC12	A-AC13	A-AC14	A-AC15	A-AC16	A-DC1	A-DC2	A-DC3	A-DC4	A-DC5	A-DC6	A-DC7	A-DC8	A-DC9	A-DC10	A-DC11	A-DC12	A-DC13	A-DC14	A-DC15	A-DC16	A-Ph1	A-Ph2	A-Ph3	A-Ph4	A-Ph5	A-Ph6	A-Ph7	A-Ph8	A-Ph9	A-Ph10	A-Ph11	A-Ph12	A-Ph13	A-Ph14	A-Ph15	A-Ph16	B-AC1	B-AC2	B-AC3	B-AC4	B-AC5	B-AC6	B-AC7	B-AC8	B-AC9	B-AC10	B-AC11	B-AC12	B-AC13	B-AC14	B-AC15	B-AC16	B-DC1	B-DC2	B-DC3	B-DC4	B-DC5	B-DC6	B-DC7	B-DC8	B-DC9	B-DC10	B-DC11	B-DC12	B-DC13	B-DC14	B-DC15	B-DC16	B-Ph1	B-Ph2	B-Ph3	B-Ph4	B-Ph5	B-Ph6	B-Ph7	B-Ph8	B-Ph9	B-Ph10	B-Ph11	B-Ph12	B-Ph13	B-Ph14	B-Ph15	B-Ph16	aux-1	digaux	

34488.020	1	1	0	256	0.081492	0.21543	0.072999	0.18455	0.13428	0.076221	0.24689	0.049955	0.27927	0.10664	0.29123	0.17344	0.14949	0.10388	0.093312	0.43432	-1.8104	-2.4896	-2.3312	-2.5812	-2.4771	-2.2146	-2.7354	-2.3896	-2.0687	-2.5896	-2.3083	-2.5208	-2.6396	-2.225	-2.5208	-2.5854	276.691	6.082	116.793	238.142	255.757	220.932	203.522	222.173	220.848	247.676	196.257	184.988	-41.682	30.024	-5.848	214.101	7.1324e-05	0.00032706	0.00011861	1235.2	1.9502e-06	2.4675e-06	1305.8	256.95	1.526e-06	3.0296e-06	322.12	88.82	70.238	20.765	9.3225e-07	29.35	0.00021674	0.00025128	7.3662e-05	1207.1	3.0456e-06	2.7497e-06	1280.9	253.68	3.0022e-06	2.9165e-06	318.7	89.756	70.366	20.727	2.8068e-06	29.395	215.479	21.208	14.188	-69.816	88.300	50.534	-69.830	-62.648	77.967	83.274	-63.215	-56.558	-56.154	-49.289	76.059	-49.802	-8191	255	
34488.141	1	1	0	0	0.12758	0.0754	0.21109	0.33009	0.19839	0.082631	0.34584	0.41531	0.26722	0.1697	0.082859	0.35295	0.21503	0.015807	0.092278	0.18787	-1.7146	-2.5187	-2.2438	-2.4729	-2.5187	-2.3083	-2.7417	-2.5396	-2.1458	-2.6625	-2.4854	-2.3479	-2.7854	-2.2146	-2.525	-2.5229	51.877	-8.004	226.440	-77.560	165.397	170.852	240.830	205.569	-4.894	230.088	188.346	235.382	191.506	123.438	189.778	-22.415	7.5526e-05	0.00034384	8.5348e-05	1243.4	1.6441e-06	3.6578e-06	1316.9	257.79	8.5781e-07	3.1261e-06	323	89.353	70.281	20.675	2.1856e-06	29.164	0.00021612	0.00026074	7.4529e-05	1214	2.9638e-06	2.9033e-06	1289	254.46	3.1484e-06	2.8526e-06	318.91	90.08	70.494	20.755	2.9057e-06	29.403	216.853	9.271	27.547	-69.853	104.162	57.626	-69.723	-62.962	63.482	55.496	-63.045	-56.211	-56.016	-49.609	107.399	-49.720	-8191	255	
34488.234	1	1	0	0	0.2215	0.041765	0.033738	0.27255	0.09076	0.25046	0.36488	0.18774	0.12478	0.040668	0.14314	0.15327	0.087678	0.12739	0.16896	0.19703	-1.6812	-2.725	-2.3458	-2.525	-2.6312	-2.2708	-2.5521	-2.6167	-2.0833	-2.7396	-2.275	-2.3146	-2.5563	-2.1833	-2.4958	-2.5417	-15.487	-8.833	39.125	253.453	-31.314	180.289	192.224	212.648	6.570	203.208	-11.067	193.044	262.337	-16.806	134.395	212.372	6.8157e-05	0.00038781	8.1698e-05	1243.4	1.4144e-06	1.7841e-06	1326.3	256.59	1.3088e-06	1.1811e-06	325.09	89.531	70.554	20.72	1.7699e-06	29.38	0.00022858	0.00025678	7.6139e-05	1214.8	3.1559e-06	3.0611e-06	1293.3	254.2	3.1791e-06	2.9735e-06	320.36	90.183	70.81	20.794	2.9637e-06	29.55	215.317	25.995	37.411	-69.794	82.492	70.803	-69.735	-62.893	89.630	43.265	-63.023	-56.140	-56.172	-49.343	55.375	-49.811	-8191	255	
34488.332	1	1	0	0	0.3161	0.23569	0.046158	0.2293	0.12058	0.067319	0.15191	0.35598	0.23799	0.15141	0.15299	0.11703	0.2122	0.030179	0.14197	0.22082	-1.7708	-2.3333	-2.4313	-2.3875	-2.6437	-2.3187	-2.5104	-2.6917	-2.1312	-2.5667	-2.3187	-2.4208	-2.6125	-2.2854	-2.5083	-2.6021	85.760	49.818	194.354	190.079	-33.852	116.239	247.108	223.518	267.257	274.237	213.065	178.085	71.457	235.068	261.526	95.555	6.1554e-05	0.00030117	0.00011811	1256	1.4712e-06	3.3095e-06	1326.6	258.55	6.1488e-07	4.5528e-06	325.88	89.771	70.588	20.834	2.2682e-06	29.364	0.00023552	0.00027191	8.196e-05	1222.5	3.3786e-06	3.1435e-06	1297.6	255.24	3.3144e-06	3.1117e-06	321.09	90.357	70.83	20.815	3.054e-06	29.526	206.897	10.629	-7.031	-69.961	105.216	61.988	-69.763	-62.634	74.174	66.423	-63.284	-56.644	-55.873	-49.177	79.111	-49.555	-8191	255	
34488.430	1	1	0	0	0.24174	0.28574	0.23606	0.048704	0.21952	0.20661	0.10398	0.065268	0.06388	0.18604	0.096538	0.14897	0.15348	0.041357	0.19744	0.15852	-1.7729	-2.5021	-2.4771	-2.4958	-2.6021	-2.3583	-2.5062	-2.7479	-2.3042	-2.375	-2.4354	-2.2292	-2.525	-2.4354	-2.3521	-2.5292	139.067	243.951	124.679	178.501	259.724	244.349	227.347	234.167	166.958	244.072	-45.825	159.000	-52.966	119.362	147.131	225.656	7.4422e-05	0.00036257	0.00010876	1243.3	1.4941e-06	2.8729e-06	1317.6	258.16	1.6472e-06	4.0592e-06	325.28	89.354	70.65	20.718	3.1542e-06	29.287	0.00023775	0.00027081	7.6588e-05	1216.7	3.3063e-06	3.0079e-06	1293	255.07	3.2771e-06	3.1055e-06	320.23	90.194	70.66	20.744	3.2171e-06	29.396	213.299	19.393	8.277	-69.906	144.336	81.068	-69.778	-62.876	58.414	58.866	-63.048	-56.657	-56.371	-49.242	79.086	-50.104	-8191	255	
34488.523	1	1	0	0	0.21127	0.20186	0.042589	0.10123	0.52433	0.25073	0.2813	0.15725	0.23343	0.39451	0.035892	0.099518	0.076744	0.060576	0.26917	0.1747	-1.8354	-2.2729	-2.4833	-2.3	-2.5438	-2.2625	-2.4646	-2.5563	-2.2271	-2.3896	-2.5583	-2.125	-2.7125	-2.2979	-2.3354	-2.6875	241.304	-62.598	107.951	165.317	-7.002	268.959	168.523	205.597	225.084	259.045	86.106	176.552	184.010	258.528	249.555	240.639	7.1791e-05	0.0003529	9.5301e-05	1244.4	2.1215e-06	2.4391e-06	1317	258.23	1.162e-06	2.3357e-06	326.55	89.222	70.848	20.794	2.3721e-06	29.344	0.00023781	0.00029787	8.0226e-05	1217.5	3.3833e-06	3.1144e-06	1293.7	255.36	3.396e-06	3.0875e-06	321.18	90.016	70.774	20.745	3.2154e-06	29.384	221.969	8.084	1.535	-70.046	112.442	74.864	-69.649	-62.774	78.826	77.591	-63.174	-56.166	-56.112	-49.555	89.808	-50.086	-8191	255	
34488.621	1	1	0	0	0.17918	0.15031	0.19281	0.12293	0.16772	0.28257	0.15056	0.17583	0.088754	0.16622	0.28514	0.27914	0.12189	0.12793	0.070058	0.28742	-1.7875	-2.3063	-2.5312	-2.3479	-2.4396	-2.4583	-2.3854	-2.6688	-2.3375	-2.3708	-2.4	-2.2792	-2.6229	-2.4833	-2.2354	-2.5667	-13.551	226.951	209.132	205.351	213.894	137.959	236.027	40.004	272.280	249.024	217.655	162.532	178.323	-51.037	86.430	262.277	6.5936e-05	0.00028843	5.8546e-05	1249.5	2.1132e-06	2.2193e-06	1317.2	260.09	3.5041e-07	2.953e-06	325.31	90.211	71.065	20.828	3.113e-06	29.241	0.00023876	0.00028951	7.9886e-05	1219.4	3.4619e-06	3.206e-06	1293.9	256.06	3.3385e-06	3.2735e-06	320.49	90.439	70.827	20.796	3.287e-06	29.415	215.646	39.511	-1.205	-69.952	111.268	74.561	-69.901	-62.807	-65.338	71.249	-63.010	-56.257	-56.239	-49.392	82.336	-49.540	-8191	255	
34488.742	1	1	0	0	0.12451	0.097647	0.23683	0.1445	0.26802	0.14922	0.18534	0.15879	0.15381	0.059993	0.2634	0.53761	0.19885	0.044157	0.19797	0.25283	-1.7604	-2.3021	-2.6562	-2.4562	-2.5521	-2.4646	-2.4125	-2.6375	-2.2583	-2.3438	-2.6875	-2.2604	-2.4125	-2.7167	-2.2417	-2.5854	-7.273	234.836	4.602	261.928	47.181	189.070	137.727	250.465	201.556	75.286	230.438	253.616	157.443	88.004	250.196	247.399	6.5939e-05	0.00039277	8.9894e-05	1243.4	1.4335e-06	1.8881e-06	1316.7	258.02	8.0441e-07	2.6684e-06	323.66	89.619	70.513	20.564	3.2573e-06	29.443	0.00023662	0.00030002	8.1062e-05	1214.8	3.3353e-06	3.0939e-06	1290.4	254.99	3.3368e-06	3.0032e-06	319.56	90.136	70.531	20.66	3.066e-06	29.388	219.100	7.343	40.635	-70.031	95.662	49.995	-69.583	-62.923	63.204	87.938	-63.253	-56.277	-56.004	-49.565	73.306	-49.973	-8191	255	
34488.836	1	1	0	0	0.25123	0.13209	0.30621	0.081912	0.10543	0.25474	0.16662	0.099634	0.15359	0.065509	0.15192	0.10599	0.17038	0.10822	0.19436	0.17239	-2.1229	-2.2646	-2.5604	-2.4521	-2.3771	-2.525	-2.1792	-2.5687	-2.35	-2.1646	-2.6771	-2.3229	-2.4562	-2.6729	-2.2375	-2.4813	118.401	21.194	114.822	135.743	194.842	221.155	270.758	217.338	-38.161	184.493	189.497	-13.684	-6.041	151.561	47.173	-58.658	8.0613e-05	0.00026676	7.7186e-05	1238.7	1.5804e-06	3.6899e-06	1307.1	257.24	1.4882e-06	2.4903e-06	321.89	88.821	70.962	20.572	2.24e-06	29.295	0.00023482	0.00027081	7.747e-05	1211.6	3.3585e-06	3.1496e-06	1285.3	254.47	3.2624e-06	3.0597e-06	319	89.897	70.597	20.659	3.2098e-06	29.337	222.491	31.940	28.936	-69.845	129.728	76.720	-69.834	-62.791	77.412	75.396	-62.916	-56.189	-56.340	-49.250	99.540	-49.493	-8191	255	
34488.934	1	1	0	0	0.12117	0.15556	0.25817	0.28588	0.17578	0.18329	0.33481	0.16499	0.17284	0.26766	0.27135	0.16744	0.1556	0.28103	0.21743	0.22081	-1.9458	-2.3417	-2.4625	-2.5521	-2.4271	-2.5687	-2.4146	-2.6625	-2.4167	-2.0875	-2.7562	-2.2979	-2.3979	-2.7271	-2.3167	-2.3625	-21.959	261.718	94.183	256.427	179.791	-8.201	168.237	78.919	103.260	-1.987	259.502	65.530	264.668	233.988	-24.669	-28.711	6.4188e-05	0.00026908	0.000101	1233.1	2.0702e-06	4.1613e-06	1310.4	256.1	1.6643e-06	2.0437e-06	323.96	89.017	70.653	20.619	2.0276e-06	29.461	0.0002274	0.00028764	8.066e-05	1208	3.5954e-06	3.1416e-06	1282.3	254.23	3.2563e-06	3.1105e-06	319.59	89.649	70.522	20.636	3.1654e-06	29.389	222.163	16.399	12.015	-69.891	100.786	74.233	-69.698	-62.895	45.704	66.891	-63.182	-56.329	-56.141	-49.610	64.085	-49.959	-8191	255	
34489.031	1	1	0	0	0.281	0.20793	0.20059	0.094091	0.06907	0.28637	0.33741	0.27848	0.19203	0.19199	0.14255	0.24512	0.22686	0.31399	0.083696	0.4311	-2.1958	-2.2604	-2.6125	-2.6583	-2.4188	-2.7771	-2.3958	-2.5271	-2.5896	-2.2438	-2.7104	-2.3833	-2.1896	-2.8375	-2.1958	-2.4625	-14.874	-0.060	33.077	252.219	-17.641	59.240	186.783	278.474	146.275	29.501	199.242	249.305	133.442	-17.303	48.921	-31.580	6.708e-05	0.00039119	8.4494e-05	1233.2	1.1425e-06	5.8482e-06	1307.8	257.59	1.0032e-06	4.1271e-06	323.54	89.711	70.051	20.679	2.7798e-06	29.275	0.00023817	0.00029215	7.8585e-05	1205.5	3.3918e-06	3.1063e-06	1280.5	254.61	3.2952e-06	3.3243e-06	319.66	90.102	70.397	20.655	3.1012e-06	29.355	216.953	-4.968	22.598	-69.890	159.440	71.334	-69.720	-62.763	59.033	58.875	-62.924	-56.281	-56.063	-49.173	106.571	-49.484	-8191	255	
34489.125	1	1	0	0	0.14731	0.11485	0.23926	0.34887	0.22166	0.17026	0.23419	0.45205	0.083963	0.21329	0.12353	0.28951	0.1916	0.20386	0.28141	0.28735	-2.0292	-2.2229	-2.5333	-2.4583	-2.2062	-2.7125	-2.2938	-2.6	-2.5146	-2.2771	-2.7042	-2.4417	-2.2458	-2.6604	-2.225	-2.4354	198.464	73.207	94.811	217.126	56.356	-5.514	244.924	253.152	27.191	56.643	178.580	205.440	206.947	164.597	17.942	210.828	7.8728e-05	0.0004345	6.8049e-05	1243.1	1.0548e-06	4.2084e-06	1320.8	258.38	9.9941e-07	3.238e-06	325.64	89.887	70.841	20.776	1.4343e-06	29.384	0.0002294	0.00028159	7.3105e-05	1212.5	3.4514e-06	3.0463e-06	1288.6	254.92	3.0614e-06	3.1632e-06	320.36	90.231	70.672	20.773	3.1382e-06	29.435	213.842	5.930	30.625	-69.897	106.653	79.685	-69.613	-63.036	60.050	88.372	-62.898	-56.398	-56.436	-49.323	35.234	-49.534	-8191	255	
34489.219	1	1	0	0	0.2181	0.089933	0.11548	0.23896	0.17457	0.19429	0.16041	0.3077	0.075213	0.012009	0.059148	0.15039	0.10528	0.046279	0.13607	0.1751	-2.3146	-2.1229	-2.4833	-2.7167	-2.3625	-2.5896	-2.5083	-2.4562	-2.6771	-2.1146	-2.6479	-2.4792	-2.2104	-2.6208	-2.3438	-2.6063	103.793	203.700	43.452	210.154	189.802	29.679	236.641	181.682	7.624	-49.527	122.302	-1.001	-35.795	47.823	231.683	132.982	7.1474e-05	0.00027824	9.6597e-05	1249.3	1.4063e-06	3.7132e-06	1319.7	258.92	1.484e-06	3.347e-06	324.95	90.275	71.087	20.795	2.2745e-06	29.533	0.00023239	0.00028847	7.9684e-05	1217.9	3.4857e-06	3.1342e-06	1294	256.08	3.235e-06	3.4874e-06	321.13	90.577	71.049	20.844	3.1399e-06	29.582	210.303	21.535	21.429	-69.853	78.817	77.225	-69.501	-63.009	119.037	69.996	-62.865	-56.629	-56.281	-49.478	71.156	-49.905	-8191	255	
34489.316	1	1	0	0	0.20738	0.38077	0.22206	0.20138	0.24399	0.22112	0.18994	0.1293	0.043505	0.083213	0.33898	0.1323	0.13606	0.20704	0.24331	0.10135	-2.1542	-2.1188	-2.5125	-2.3646	-2.2167	-2.5646	-2.5646	-2.3729	-2.5604	-2.3917	-2.4604	-2.6833	-1.9896	-2.4938	-2.3792	-2.2583	73.143	130.903	244.565	-76.974	91.764	-32.887	188.344	189.293	14.652	9.711	164.311	-67.718	11.725	33.077	185.360	-40.629	8.3323e-05	0.00041375	6.4234e-05	1251.9	6.3551e-07	2.6221e-06	1327	260.61	9.4458e-07	4.0976e-06	327.85	90.735	71.4	20.898	2.2349e-06	29.719	0.00023358	0.00029848	7.9266e-05	1221.3	3.6973e-06	3.2654e-06	1298	257.18	3.3051e-06	3.3039e-06	323.1	90.894	71.637	20.941	3.2956e-06	29.784	208.095	3.950	43.749	-69.851	69.318	77.742	-69.682	-62.872	81.995	62.985	-63.098	-56.362	-55.909	-49.608	70.123	-49.781	-8191	255	
34489.414	1	1	0	0	0.1746	0.13282	0.17756	0.19678	0.10086	0.046268	0.17581	0.045925	0.14753	0.27479	0.29	0.27003	0.01448	0.20422	0.23035	0.1298	-2.0667	-2.1708	-2.3125	-2.8396	-2.0708	-2.4854	-2.7562	-2.3292	-2.6792	-2.4833	-2.4979	-2.7042	-2.0917	-2.3937	-2.3812	-2.1042	181.602	193.094	269.235	-65.814	142.219	116.590	269.635	169.278	0.410	216.595	257.699	245.221	243.948	-77.564	48.109	223.185	6.5634e-05	0.00032873	9.3227e-05	1268.3	1.6063e-06	3.3948e-06	1333.4	262.35	2.4853e-06	3.545e-06	328.74	90.69	71.464	21.136	2.9464e-06	29.973	0.00024951	0.00030541	8.9422e-05	1235.2	3.7305e-06	3.5953e-06	1312	259.19	3.4595e-06	3.576e-06	325	91.343	71.766	21.163	3.4678e-06	29.914	209.630	5.976	-23.430	-69.860	74.743	76.584	-69.808	-63.071	84.686	68.332	-62.923	-56.569	-56.219	-49.470	77.823	-49.779	-8191	255	
34489.531	1	1	0	0	0.13828	0.21967	0.14857	0.17746	0.067321	0.082963	0.21515	0.074501	0.16272	0.14799	0.18087	0.17521	0.14365	0.15643	0.13277	0.11355	-2.325	-2.3229	-2.25	-2.6937	-2.2313	-2.4125	-2.8042	-2.325	-2.6292	-2.3688	-2.3604	-2.7271	-2.3167	-2.5563	-2.4896	-2.4	218.073	99.347	-77.511	257.363	-62.692	100.033	227.845	-58.221	115.736	157.118	20.323	210.972	107.654	242.741	165.250	26.723	5.6958e-05	0.00038996	8.3036e-05	1270.4	2.1054e-06	2.4031e-06	1345.6	263.82	1.6778e-06	3.2748e-06	330.65	91.047	72.1	21.264	1.812e-06	29.786	0.00026082	0.00032978	9.1203e-05	1240.8	3.8487e-06	3.5037e-06	1316.5	260.28	3.5241e-06	3.5413e-06	325.93	91.555	71.976	21.194	3.4035e-06	29.859	200.547	15.876	-3.339	-70.123	58.441	71.106	-69.646	-62.995	37.995	50.962	-63.441	-56.468	-56.421	-49.650	73.346	-49.542	-8191	255	
34489.629	1	1	0	0	0.20163	0.22495	0.085874	0.17755	0.09946	0.12725	0.1169	0.46296	0.36667	0.22805	0.060136	0.1289	0.25227	0.12314	0.31628	0.17929	-2.325	-2.4979	-2.3458	-2.7854	-2.4042	-2.525	-2.7542	-2.1688	-2.425	-2.4854	-2.4562	-2.7354	-2.5542	-2.4625	-2.6333	-2.3229	250.879	264.423	110.558	150.708	124.335	7.121	215.558	-71.255	-76.427	208.379	180.411	-32.566	-13.932	244.272	-43.836	226.878	8.4375e-05	0.00023059	7.8062e-05	1271.4	1.668e-06	4.2331e-06	1342.4	263.49	9.8912e-07	1.806e-06	329.66	90.348	71.819	21.171	1.9871e-06	29.897	0.00024649	0.00031559	8.5103e-05	1240.9	3.7875e-06	3.4127e-06	1314.8	260.19	3.4469e-06	3.3268e-06	325.56	91.384	71.955	21.144	3.3848e-06	29.863	216.617	-17.587	22.382	-70.075	95.578	62.149	-69.479	-62.856	29.893	58.331	-63.121	-56.399	-56.174	-49.541	82.297	-49.565	-8191	255	
34489.699	1	1	0	0	0.10878	0.13149	0.21009	0.31281	0.099426	0.34021	0.23925	0.18297	0.29735	0.24419	0.17301	0.17957	0.086301	0.034517	0.24071	0.09418	-2.0083	-2.3958	-2.0146	-2.8375	-2.3438	-2.3542	-2.7979	-2.2625	-2.5458	-2.5896	-2.3583	-2.5667	-2.3729	-2.4771	-2.6979	-2.2292	-77.982	59.360	132.595	216.802	228.263	-16.797	164.226	163.420	163.726	118.007	-64.156	-14.606	215.212	6.714	2.270	11.116	5.398e-05	0.00040054	8.9665e-05	1265.9	1.5773e-06	3.1482e-06	1341.6	262.48	2.0682e-06	3.7625e-06	328.85	90.848	71.832	21.039	2.8385e-06	29.838	0.00024347	0.00031245	8.5258e-05	1237.3	3.51e-06	3.2016e-06	1312.3	259.62	3.3807e-06	3.2964e-06	324.96	91.504	71.87	21.075	3.2228e-06	29.879	205.506	-3.775	8.851	-70.025	126.846	76.929	-69.880	-62.908	103.938	53.900	-63.045	-56.054	-56.084	-49.459	61.502	-50.068	-8191	255	
34489.820	1	1	0	0	0.11204	0.053239	0.12085	0.2131	0.11301	0.21258	0.1267	0.039408	0.14963	0.090842	0.15069	0.16487	0.069445	0.22881	0.088627	0.11142	-2.0417	-2.4813	-2.1083	-2.7875	-2.1667	-2.4	-2.7229	-2.4229	-2.3792	-2.3937	-2.1229	-2.475	-2.5312	-2.2729	-2.5583	-2.3	24.161	164.506	13.427	148.690	167.801	209.286	228.947	257.681	95.673	-36.131	86.141	-33.530	169.323	54.952	220.316	-69.103	7.5473e-05	0.00029524	0.00011159	1263.2	1.0257e-06	5.0158e-06	1337.1	263.56	1.0774e-06	3.1174e-06	330.39	90.988	71.672	21.148	2.3492e-06	29.867	0.00024378	0.00028511	8.3508e-05	1235.3	3.4187e-06	3.3973e-06	1310.9	260.47	3.4026e-06	3.2047e-06	326.08	91.473	71.859	21.154	3.1734e-06	29.807	212.284	18.285	15.943	-69.896	111.255	63.740	-69.783	-62.853	56.758	55.797	-63.220	-56.757	-56.344	-49.312	63.217	-49.908	-8191	255	
34489.918	1	1	0	0	0.24402	0.11598	0.14218	0.18988	0.096977	0.086295	0.37778	0.17383	0.058129	0.19636	0.28784	0.3384	0.29298	0.25042	0.22454	0.090412	-2.0208	-2.4771	-2.2292	-2.6458	-2.4188	-2.2958	-2.8917	-2.2625	-2.3875	-2.6625	-2.1333	-2.5042	-2.425	-2.5062	-2.6958	-2.3271	67.621	123.778	172.462	-75.575	19.191	124.239	189.637	263.969	144.537	90.085	208.078	158.118	-40.899	156.486	19.485	-21.188	6.1334e-05	0.00034949	8.2901e-05	1264.5	1.2186e-06	2.8182e-06	1343.7	263.91	1.686e-06	2.5186e-06	330.15	91.188	71.68	21.121	1.7376e-06	29.843	0.00024556	0.00030096	8.758e-05	1236	3.5844e-06	3.5551e-06	1313.7	259.95	3.3916e-06	3.382e-06	325.67	91.69	71.896	21.124	3.1291e-06	29.877	216.898	-7.507	4.735	-69.894	142.681	91.277	-69.621	-62.865	62.557	54.789	-63.025	-56.471	-56.035	-49.559	92.433	-49.670	-8191	255	
34490.016	1	1	0	0	0.12222	0.038218	0.12022	0.28579	0.09096	0.12116	0.20671	0.20345	0.037883	0.1253	0.18844	0.27226	0.31973	0.25712	0.2722	0.16394	-1.9625	-2.4792	-1.9979	-2.6542	-2.5292	-2.2667	-2.6458	-2.4188	-2.3542	-2.6833	-2.2812	-2.4771	-2.4938	-2.1125	-2.5292	-2.3312	-12.190	-39.461	-77.188	193.575	57.401	107.697	243.008	10.816	61.328	142.078	-14.070	37.198	247.766	137.850	-10.532	166.875	7.2147e-05	0.00030988	9.3251e-05	1270.2	2.5496e-06	2.0878e-06	1341.2	263.4	1.2215e-06	3.1631e-06	329.91	90.878	71.798	21.071	2.1488e-06	29.769	0.00024934	0.00030525	8.7642e-05	1239.3	3.587e-06	3.5074e-06	1314.8	260.32	3.3127e-06	3.3851e-06	325.53	91.553	71.932	21.205	3.3518e-06	29.94	216.026	-0.646	27.765	-69.849	118.828	66.227	-69.709	-62.966	35.919	62.802	-62.894	-56.215	-56.207	-49.605	54.600	-49.706	-8191	255	
34490.137	1	1	0	0	0.25187	0.15409	0.10402	0.27182	0.18991	0.16956	0.14074	0.37044	0.13907	0.20144	0.17496	0.17468	0.088515	0.2321	0.073158	0.31474	-1.6771	-2.7458	-2.0229	-2.7313	-2.5687	-2.0604	-2.8729	-2.4667	-2.1688	-2.6083	-2.1417	-2.6	-2.7333	-2.0229	-2.4958	-2.4833	28.638	238.281	54.382	236.398	218.262	174.334	236.891	170.299	184.906	121.325	91.183	208.462	174.783	158.704	106.446	-48.995	5.9121e-05	0.00037905	0.00010812	1270.9	1.6228e-06	3.8224e-06	1342.1	263.17	7.1318e-07	3.6305e-06	329.43	90.656	71.69	21.179	2.9015e-06	29.722	0.0002532	0.00030514	8.9871e-05	1240.9	3.6429e-06	3.5316e-06	1315	260.17	3.6364e-06	3.4179e-06	325.52	91.441	72.039	21.166	3.2001e-06	29.881	201.663	25.675	24.483	-69.894	98.294	52.210	-69.649	-62.943	115.257	51.485	-62.742	-56.403	-55.844	-49.588	81.281	-49.568	-8191	255	
34490.230	1	1	0	0	0.22247	0.22768	0.11304	0.15181	0.020137	0.054166	0.38412	0.11396	0.31397	0.16818	0.12714	0.23809	0.093713	0.2365	0.16132	0.27197	-1.7417	-2.6333	-2.225	-2.6229	-2.5833	-2.2375	-2.6125	-2.7833	-2.1125	-2.6083	-2.3458	-2.2896	-2.6229	-2.1208	-2.4354	-2.4333	227.416	-53.092	97.014	208.073	-58.261	-19.085	199.972	-59.839	20.865	-62.541	9.073	-19.799	240.349	-54.230	25.886	204.726	7.216e-05	0.00030647	0.0001394	1276.5	1.7919e-06	1.8518e-06	1343.8	263.49	1.4098e-06	3.0866e-06	331.57	90.516	71.839	21.085	2.4801e-06	29.946	0.0002536	0.0003152	8.8524e-05	1241.4	3.73e-06	3.4567e-06	1314.4	259.97	3.5504e-06	3.2624e-06	325.5	91.314	71.929	21.105	3.253e-06	29.936	216.659	9.279	31.226	-69.812	125.733	93.015	-69.799	-62.839	78.186	59.948	-62.799	-56.270	-56.300	-49.222	91.175	-49.991	-8191	255	
34490.324	1	1	0	0	0.052688	0.18795	0.30854	0.13677	0.14188	0.29919	0.1642	0.048862	0.17544	0.072279	0.13569	0.050194	0.034206	0.12202	0.093588	0.2011	-1.7333	-2.5229	-2.2521	-2.375	-2.3417	-2.2104	-2.6125	-2.525	-2.0792	-2.3688	-2.4188	-2.1063	-2.5625	-2.2	-2.4313	-2.7021	58.376	-22.435	-3.199	254.979	32.832	144.768	236.700	202.516	208.584	101.082	210.577	140.282	-59.634	64.996	1.873	122.225	7.248e-05	0.00035683	9.8431e-05	1267.4	1.1904e-06	3.8877e-06	1331.3	261.93	2.0993e-06	2.8506e-06	329.56	90.655	71.497	21.073	2.2549e-06	29.666	0.00024861	0.00030376	8.4762e-05	1236.5	3.5384e-06	3.4821e-06	1310.2	259.54	3.5296e-06	3.2382e-06	325.16	91.083	71.66	21.022	3.2791e-06	29.803	204.963	7.509	20.718	-69.934	174.207	75.430	-69.631	-62.534	91.908	79.477	-63.094	-56.433	-55.910	-49.742	62.468	-49.783	-8191	255	
34490.422	1	1	0	0	0.071442	0.27927	0.31862	0.24893	0.19442	0.21309	0.20021	0.44011	0.055236	0.29906	0.10285	0.085899	0.25315	0.47525	0.062344	0.15199	-1.7896	-2.5729	-2.4417	-2.4771	-2.5958	-2.1208	-2.7062	-2.4458	-2.0938	-2.3521	-2.5646	-2.1104	-2.6167	-2.2292	-2.5083	-2.4229	-55.292	204.135	112.263	277.091	41.197	-36.961	105.175	259.070	-42.748	-0.268	54.725	-39.371	215.310	-20.773	243.402	179.016	6.9303e-05	0.00037016	6.1939e-05	1261.5	2.7229e-06	4.069e-06	1331.4	262.49	2.2274e-06	4.0452e-06	330.07	90.959	71.529	21.009	2.1447e-06	29.707	0.00024215	0.00027725	8.3245e-05	1233.5	3.4709e-06	3.3224e-06	1306.9	259.36	3.5428e-06	3.1123e-06	324.58	91.244	71.538	21.052	3.3899e-06	29.783	217.181	-11.200	-3.955	-69.844	83.164	61.698	-69.935	-62.882	86.850	41.779	-63.326	-56.516	-56.469	-49.275	63.934	-49.430	-8191	255	
34490.516	1	1	0	0	0.063077	0.092164	0.12688	0.32213	0.043832	0.077219	0.32959	0.1831	0.26366	0.23216	0.14835	0.2246	0.019104	0.049649	0.18842	0.15373	-1.5833	-2.5792	-2.2479	-2.3625	-2.6896	-2.4271	-2.4437	-2.5229	-2.0208	-2.3292	-2.5187	-2.2771	-2.4688	-2.4	-2.1	-2.6479	141.805	91.177	-52.982	189.590	18.985	4.096	198.224	-75.932	65.616	42.402	248.989	228.674	180.208	89.787	216.324	-74.160	6.8657e-05	0.00016838	0.00010788	1258.6	1.298e-06	3.0405e-06	1328.2	261.54	2.4062e-06	2.1557e-06	328.23	90.182	71.335	20.867	1.9119e-06	29.623	0.00023958	0.0003003	8.6713e-05	1230	3.5289e-06	3.2115e-06	1306.1	258.67	3.4694e-06	3.2983e-06	324	90.863	71.43	20.958	3.4161e-06	29.683	207.446	18.390	14.133	-69.809	98.679	68.787	-69.775	-62.717	120.168	96.618	-63.225	-56.484	-55.748	-49.587	104.699	-49.212	-8191	255	
34490.613	1	1	0	0	0.10849	0.081828	0.20028	0.27937	0.10151	0.25085	0.31094	0.13237	0.1121	0.21167	0.061782	0.030247	0.31336	0.18457	0.063584	0.21738	-1.8542	-2.2875	-2.525	-2.2792	-2.3146	-2.3729	-2.3688	-2.7667	-2.3563	-2.3187	-2.5354	-2.2375	-2.5708	-2.2771	-2.425	-2.7938	190.677	92.938	69.139	231.346	-43.801	-68.480	182.109	228.154	78.478	7.945	213.284	213.160	-25.522	249.763	32.271	176.155	6.9066e-05	0.00041688	9.5171e-05	1260.3	1.7481e-06	3.0573e-06	1331.3	261.63	1.7799e-06	4.609e-06	328.52	90.414	71.787	20.963	2.3468e-06	29.594	0.00024034	0.00030151	8.8803e-05	1230.1	3.6039e-06	3.3545e-06	1305.4	258.56	3.4666e-06	3.3727e-06	323.67	90.817	71.522	21.021	3.4195e-06	29.744	211.200	13.088	15.413	-69.918	76.011	80.691	-69.533	-62.906	61.004	68.816	-63.094	-56.312	-56.203	-49.213	73.190	-49.618	-8191	255	
34490.711	1	1	0	0	0.17695	0.13299	0.097043	0.10383	0.32041	0.23076	0.22901	0.22486	0.079722	0.098424	0.32305	0.2607	0.14128	0.28944	0.14623	0.16887	-1.8333	-2.3896	-2.5833	-2.3708	-2.4917	-2.5312	-2.3458	-2.7083	-2.3792	-2.4062	-2.5729	-2.2667	-2.5375	-2.475	-2.3917	-2.5854	131.494	125.818	91.518	270.227	57.186	116.075	200.918	98.251	139.982	228.358	237.728	0.972	232.881	266.584	36.804	-62.818	5.9733e-05	0.00041401	0.00012428	1262.6	9.8783e-07	1.8884e-06	1333	261.21	1.8611e-06	2.739e-06	327.84	90.515	70.993	20.977	3.596e-06	29.72	0.00025577	0.00030228	8.5366e-05	1229.8	3.4857e-06	3.4047e-06	1304.4	258.57	3.5263e-06	3.4619e-06	324.02	90.975	71.255	21.021	3.4757e-06	29.689	199.207	1.897	15.741	-69.818	85.043	84.428	-69.815	-62.871	57.335	52.438	-63.080	-56.519	-56.001	-49.430	89.465	-49.701	-8191	255	
34490.828	1	1	0	0	0.048354	0.15468	0.17502	0.19023	0.019312	0.21922	0.35863	0.34589	0.092034	0.067001	0.22791	0.054685	0.31619	0.26844	0.14414	0.14709	-1.7396	-2.325	-2.4292	-2.4125	-2.4771	-2.525	-2.2417	-2.7042	-2.4875	-2.5146	-2.6458	-2.3229	-2.3875	-2.6063	-2.1708	-2.6208	42.870	28.690	119.008	207.038	90.500	261.195	249.699	231.803	173.820	-3.967	226.702	150.157	-47.970	254.949	138.796	190.623	7.1879e-05	0.000354	0.00010561	1258.1	1.9814e-06	2.6578e-06	1331.9	260.57	1.7572e-06	3.6809e-06	327.81	90.521	71.23	20.963	3.1316e-06	29.387	0.00024565	0.00030684	8.614e-05	1229	3.4788e-06	3.37e-06	1303.5	257.83	3.4409e-06	3.2791e-06	323.62	90.861	71.125	20.954	3.3695e-06	29.702	210.869	8.632	11.092	-69.842	55.153	59.647	-69.598	-62.955	77.265	78.403	-62.986	-56.073	-56.012	-49.328	85.156	-49.525	-8191	255	
34490.926	1	1	0	0	0.24315	0.082217	0.083271	0.17408	0.4247	0.12603	0.23774	0.11116	0.041231	0.026553	0.20937	0.11213	0.32189	0.14598	0.30899	0.13958	-1.9167	-2.2104	-2.65	-2.3417	-2.3563	-2.5875	-2.425	-2.6646	-2.3063	-2.3333	-2.8063	-2.3354	-2.3354	-2.5667	-2.1667	-2.6188	-28.020	171.811	-33.728	197.056	266.777	-9.529	230.845	98.022	156.153	190.841	249.178	-56.781	268.889	61.160	-43.515	-77.322	7.9116e-05	0.0002375	0.00011775	1258.4	2.0014e-06	3.5198e-06	1324.9	260.3	1.0288e-06	1.9627e-06	328.35	90.008	71.067	20.825	3.566e-06	29.495	0.00024663	0.00030118	7.9297e-05	1225.6	3.5437e-06	3.0983e-06	1297.1	257.36	3.3566e-06	3.2599e-06	323.03	90.428	71.055	20.87	3.3143e-06	29.573	206.674	-8.235	13.648	-69.828	93.589	65.091	-69.747	-62.809	53.146	85.919	-63.276	-56.504	-55.992	-49.582	78.595	-49.306	-8191	255	
34490.996	1	1	0	0	0.25977	0.40677	0.18222	0.26294	0.24219	0.27277	0.13376	0.26112	0.25572	0.19806	0.34157	0.019994	0.085323	0.19742	0.062746	0.19933	-2.1271	-2.2479	-2.5771	-2.5729	-2.2458	-2.5917	-2.3688	-2.4271	-2.4583	-2.1167	-2.5208	-2.3229	-2.1333	-2.5354	-2.1771	-2.5729	116.458	165.803	136.690	-75.580	240.241	46.479	-54.816	245.308	113.363	-33.422	176.804	225.128	-43.126	-74.142	57.678	91.823	7.1449e-05	0.00049757	0.00013031	1248.1	1.2644e-06	2.1996e-06	1323	260.67	1.3216e-06	2.3165e-06	325.85	89.817	70.364	20.755	2.5142e-06	29.493	0.00024139	0.00029534	7.9994e-05	1218.5	3.4857e-06	3.2382e-06	1293	256.63	3.1364e-06	3.0863e-06	321.03	90.112	70.785	20.793	3.2257e-06	29.464	213.476	4.693	1.444	-69.875	126.001	73.160	-69.742	-62.692	71.195	37.813	-62.837	-56.115	-56.219	-49.370	97.385	-49.510	-8191	255	
34491.094	1	1	0	0	0.05438	0.22521	0.080968	0.20649	0.14223	0.25873	0.14832	0.16836	0.19869	0.19632	0.18988	0.20503	0.29904	0.16143	0.2169	0.25043	-2.0896	-2.1458	-2.6333	-2.4167	-2.3271	-2.8146	-2.3	-2.5875	-2.4188	-1.9833	-2.7521	-2.6375	-2.2167	-2.6708	-2.2354	-2.5542	227.636	242.393	116.520	266.697	66.753	163.595	232.877	-62.369	127.568	167.482	264.128	104.140	-4.350	14.369	116.094	234.745	6.9137e-05	0.00037472	0.00010095	1243.4	1.0592e-06	3.1472e-06	1314.4	257.93	1.1719e-06	3.6254e-06	324.83	89.304	70.589	20.743	2.3458e-06	29.278	0.00023721	0.00029232	7.6449e-05	1213.7	3.2593e-06	2.9478e-06	1287.5	255.09	3.0307e-06	3.0373e-06	320.28	89.769	70.524	20.728	2.8983e-06	29.386	215.123	0.439	13.341	-69.744	85.488	51.217	-69.641	-62.904	44.634	70.007	-62.792	-56.299	-56.046	-49.417	65.703	-49.343	-8191	255	
34491.215	1	1	0	0	0.1752	0.22332	0.19227	0.3186	0.17259	0.12487	0.17265	0.19663	0.18256	0.17932	0.23094	0.046883	0.33521	0.093181	0.08232	0.2536	-2.1208	-1.9958	-2.3646	-2.5958	-2.3354	-2.6042	-2.4396	-2.3875	-2.5104	-2.0667	-2.6271	-2.4458	-2.2729	-2.6333	-2.3875	-2.4375	62.974	-74.669	-66.284	252.656	178.100	-12.645	-75.688	-79.727	157.604	26.037	218.569	-12.526	-54.828	-54.830	198.296	171.204	5.954e-05	0.00029064	8.9912e-05	1236.3	2.0385e-06	2.1827e-06	1304	257.43	1.1089e-06	2.5773e-06	322.47	89.132	69.881	20.539	2.931e-06	29.424	0.00023279	0.00028016	7.7408e-05	1205.8	3.2926e-06	2.8797e-06	1278.6	254.14	3.1769e-06	3.0659e-06	318.81	89.68	70.203	20.65	3.1421e-06	29.336	206.302	11.434	21.191	-69.841	92.544	53.426	-69.306	-62.988	84.677	78.178	-63.070	-56.089	-56.285	-49.582	88.280	-49.704	-8191	255	
34491.309	1	1	0	0	0.094236	0.16816	0.25665	0.18913	0.082967	0.13123	0.10711	0.31904	0.1902	0.26553	0.06917	0.22402	0.16985	0.062349	0.12182	0.1322	-2.1271	-2.0958	-2.475	-2.7167	-2.1646	-2.6396	-2.4229	-2.4375	-2.6417	-2.2104	-2.5771	-2.5375	-2.3354	-2.5458	-2.3771	-2.425	94.291	4.980	35.439	208.596	25.375	256.146	63.009	201.612	14.280	161.283	252.874	263.792	-53.892	-18.866	-55.835	207.503	6.8862e-05	0.00039102	0.00012386	1234	1.2088e-06	3.391e-06	1302	256.74	1.0256e-06	2.3777e-06	322.94	88.846	70.027	20.591	1.9798e-06	29.231	0.00023273	0.00027714	7.3012e-05	1204.5	3.2973e-06	2.9187e-06	1277.6	253.88	2.9119e-06	3.0442e-06	318.65	89.434	70.277	20.643	2.9978e-06	29.302	206.027	7.539	24.222	-69.910	123.684	62.731	-69.517	-62.876	86.976	44.803	-62.952	-56.476	-56.208	-49.241	78.942	-49.615	-8191	255	
34491.406	1	1	0	0	0.30768	0.17897	0.080131	0.16277	0.085485	0.32006	0.14789	0.015642	0.11328	0.30045	0.098941	0.18207	0.22915	0.25999	0.02171	0.059346	-2.1604	-2.1813	-2.3979	-2.6771	-2.15	-2.6458	-2.5479	-2.4479	-2.6688	-2.2438	-2.55	-2.4979	-1.9188	-2.6604	-2.2833	-2.1354	135.282	33.619	212.636	-73.433	193.168	78.811	162.466	171.606	-16.537	53.622	9.935	-19.633	143.009	-38.359	174.159	173.873	7.4456e-05	0.00037559	0.00010908	1228.7	2.1184e-06	2.0238e-06	1300.7	256.94	1.3343e-06	2.801e-06	322.03	88.867	70.051	20.474	2.4179e-06	29.202	0.00023039	0.00027499	7.7068e-05	1201.9	3.4213e-06	2.9943e-06	1276.4	253.84	2.9239e-06	3.1322e-06	318.67	89.514	70.106	20.566	3.066e-06	29.312	224.767	-6.107	29.538	-69.905	85.703	77.924	-69.559	-62.944	114.353	88.265	-62.854	-55.953	-56.022	-49.322	73.050	-49.251	-8191	255	
34491.504	1	1	0	0	0.19925	0.10641	0.062915	0.29081	0.10515	0.093102	0.36929	0.39429	0.12147	0.15841	0.22503	0.11344	0.12448	0.19818	0.23138	0.011855	-2.2292	-2.1979	-2.4479	-2.6979	-2.0687	-2.5479	-2.5167	-2.3833	-2.6063	-2.2208	-2.6125	-2.5833	-2.1542	-2.5563	-2.3563	-2.1688	23.295	-33.392	66.168	173.184	-70.737	80.103	261.825	230.250	177.764	83.604	210.147	233.105	36.587	65.924	231.218	206.672	6.75e-05	0.00035326	9.9038e-05	1228.6	2.6444e-06	4.3697e-06	1303.5	256.26	1.5383e-06	3.7481e-06	323.52	88.851	70.329	20.545	2.2806e-06	29.129	0.00023045	0.00028951	7.9127e-05	1201.4	3.3912e-06	3.024e-06	1276.6	253.28	3.2131e-06	3.1111e-06	319.05	89.363	70.203	20.62	3.0393e-06	29.232	206.230	-4.555	8.586	-70.052	59.829	69.965	-69.764	-62.773	94.898	72.337	-63.016	-56.504	-55.991	-49.119	74.758	-49.578	-8191	255	
34491.598	1	1	0	0	0.12655	0.027822	0.14526	0.15204	0.26538	0.26735	0.22374	0.36912	0.13933	0.13192	0.39702	0.11249	0.28738	0.24196	0.19368	0.18994	-2.1542	-2.2167	-2.0583	-2.7042	-2.2583	-2.4792	-2.625	-2.1792	-2.4958	-2.4729	-2.3187	-2.7313	-2.2812	-2.4062	-2.3688	-2.0979	80.365	58.707	-34.691	184.588	-7.535	176.369	186.369	231.834	140.225	157.421	244.391	245.326	36.119	56.142	51.054	130.799	8.2002e-05	0.00038933	9.575e-05	1231.4	1.1182e-06	1.5525e-06	1305.1	257.32	6.3231e-07	2.3228e-06	321.99	88.828	70.335	20.603	3.7186e-06	29.085	0.00023064	0.00027378	7.8709e-05	1203.3	3.4846e-06	2.9726e-06	1276.7	253.73	3.235e-06	3.0045e-06	318.15	89.307	70.23	20.615	3.1325e-06	29.183	217.758	5.884	42.190	-69.678	78.969	76.420	-69.689	-62.827	69.743	53.903	-63.062	-56.136	-56.137	-49.150	72.133	-49.433	-8191	255	
34491.695	1	1	0	0	0.25021	0.11551	0.20278	0.16365	0.058824	0.15973	0.088145	0.24674	0.18902	0.2728	0.11713	0.083508	0.2266	0.076303	0.20187	0.25124	-2.2375	-2.4313	-2.3667	-2.9854	-2.1396	-2.4562	-2.6937	-2.2979	-2.5062	-2.5563	-2.225	-2.6229	-2.4396	-2.45	-2.6458	-2.2417	149.225	195.127	41.033	-75.535	22.517	225.744	179.842	168.436	119.653	24.514	-53.798	128.736	244.068	-51.404	63.380	256.359	7.3983e-05	0.00044261	0.00010733	1228.7	6.3663e-07	3.6123e-06	1302.8	256.06	9.5425e-07	3.7348e-06	323.33	88.271	70.151	20.577	1.8979e-06	29.178	0.00022077	0.00029166	8.2254e-05	1200.4	3.3865e-06	2.9974e-06	1275.7	252.63	3.0537e-06	3.1291e-06	318.73	88.926	70.055	20.546	2.9165e-06	29.176	214.156	13.505	11.097	-69.629	56.502	59.502	-69.367	-62.570	66.614	64.384	-62.935	-56.436	-55.909	-49.565	86.085	-49.650	-8191	255	
34491.816	1	1	0	0	0.059682	0.32116	0.086051	0.11537	0.05478	0.25043	0.26738	0.32446	0.1942	0.050445	0.022793	0.13646	0.1011	0.28486	0.1769	0.10334	-1.9229	-2.3521	-2.3396	-2.6979	-2.3312	-2.3333	-2.5938	-2.2938	-2.6188	-2.4667	-2.4437	-2.6646	-2.275	-2.3271	-2.475	-2.2625	96.622	131.054	225.768	268.339	114.297	236.636	166.502	189.562	23.102	-18.842	-16.691	217.659	225.881	98.928	130.917	119.045	6.699e-05	0.00039828	0.00014325	1230.3	1.5976e-06	2.8168e-06	1299.2	255.68	1.314e-06	2.8713e-06	322.92	88.743	69.816	20.45	2.7428e-06	28.949	0.00021736	0.00026366	7.8167e-05	1199.4	3.4187e-06	3.0419e-06	1273.3	252.35	3.0433e-06	2.9803e-06	318.1	89.13	69.874	20.501	2.9591e-06	29.12	211.347	-12.302	12.632	-69.732	82.821	67.958	-69.689	-62.545	77.216	55.881	-62.859	-56.370	-55.847	-49.371	80.516	-49.550	-8191	255	
34491.910	1	1	0	0	0.13892	0.24992	0.015742	0.0086284	0.16979	0.13315	0.23203	0.036642	0.1738	0.068737	0.19265	0.035858	0.081538	0.27025	0.16796	0.17961	-1.9958	-2.4792	-2.05	-2.5042	-2.3479	-2.4167	-2.7208	-2.1479	-2.5333	-2.5604	-2.1437	-2.6312	-2.2521	-2.2667	-2.6292	-2.2417	-21.094	-67.133	5.734	230.833	-18.135	28.203	232.832	154.095	34.049	267.036	232.627	-64.345	97.010	238.300	21.401	232.911	5.613e-05	0.00027969	8.5154e-05	1226.7	2.1624e-06	3.2617e-06	1298.7	256.01	1.1872e-06	4.0149e-06	322.17	88.868	69.409	20.671	2.8649e-06	29.119	0.00022402	0.00025986	7.5458e-05	1196.5	3.3126e-06	3.0227e-06	1272.1	252.13	3.0866e-06	3.0287e-06	317.6	89.294	69.733	20.54	2.9955e-06	29.115	216.165	-16.159	16.796	-69.780	78.805	75.227	-69.544	-62.689	111.023	54.196	-62.728	-56.152	-55.999	-49.397	56.427	-49.503	-8191	255	
34492.008	1	1	0	0	0.20018	0.34328	0.19653	0.2359	0.24033	0.21303	0.22721	0.087355	0.15805	0.16213	0.025654	0.40522	0.12223	0.29267	0.29292	0.095226	-2.0583	-2.3771	-2.1562	-2.9062	-2.4542	-2.3875	-2.875	-2.5187	-2.4271	-2.6021	-2.2562	-2.7083	-2.4104	-2.3688	-2.5438	-2.3083	138.704	214.201	50.625	220.293	85.541	145.555	254.637	170.059	29.123	105.190	-40.252	266.182	257.354	209.531	144.117	122.976	7.8906e-05	0.00038646	8.1642e-05	1226.9	4.6586e-07	3.4172e-06	1296.5	255.14	1.6431e-06	2.6083e-06	322.1	88.585	69.67	20.512	2.6563e-06	29.037	0.0002349	0.00026795	7.9824e-05	1197	3.3052e-06	3.0289e-06	1271.7	252.07	3.1912e-06	2.909e-06	317.65	89.057	69.877	20.527	2.879e-06	29.201	216.739	8.476	15.689	-69.633	86.858	54.199	-69.567	-62.689	75.615	61.290	-63.047	-56.310	-56.029	-49.224	77.182	-49.755	-8191	255	
34492.102	1	1	0	0	0.021362	0.25085	0.18386	0.10846	0.037129	0.14047	0.35865	0.059308	0.23858	0.12083	0.046697	0.037199	0.12669	0.29168	0.26924	0.32664	-1.8125	-2.4479	-2.05	-2.5	-2.45	-2.1458	-2.7188	-2.2271	-2.2667	-2.5729	-2.4542	-2.4833	-2.4417	-2.3	-2.4917	-2.4667	-44.107	193.853	165.332	275.491	-63.822	30.605	242.596	67.183	177.398	237.588	-40.078	44.339	42.504	250.195	-62.518	134.164	6.2885e-05	0.00029481	0.00010955	1225.4	1.901e-06	2.4325e-06	1297	255.02	2.3624e-06	3.8699e-06	320.73	89.241	69.888	20.474	1.7778e-06	28.941	0.00022213	0.0002734	7.8771e-05	1198	3.2841e-06	3.0921e-06	1272.6	252.27	3.2279e-06	2.9785e-06	317.63	89.168	69.866	20.498	2.8137e-06	29.17	200.710	8.220	8.058	-69.904	76.127	50.290	-69.636	-62.862	64.612	68.962	-62.853	-56.255	-56.285	-49.304	111.194	-49.367	-8191	255	
34492.223	1	1	0	0	0.25576	0.15897	0.058662	0.2343	0.016625	0.028415	0.33263	0.33378	0.2401	0.10196	0.18003	0.1729	0.14454	0.26332	0.1123	0.33477	-1.8229	-2.4104	-2.1729	-2.6542	-2.3854	-2.2146	-2.8917	-2.5021	-2.2958	-2.6646	-2.2479	-2.4229	-2.7208	-2.2542	-2.6521	-2.5917	151.071	247.041	240.183	233.363	118.449	243.244	257.135	268.853	220.246	122.725	79.252	-66.723	-43.760	252.040	80.363	-37.482	7.9617e-05	0.00039974	8.6945e-05	1226.6	1.1791e-06	3.5654e-06	1300.9	254.49	8.7479e-07	2.1191e-06	322.29	88.344	69.566	20.481	3.2091e-06	29.195	0.00023913	0.00026949	7.4839e-05	1197.9	3.0662e-06	2.9825e-06	1273	252.19	3.2394e-06	2.8805e-06	317.42	89.13	69.832	20.576	2.9034e-06	29.187	198.664	-16.806	15.041	-69.763	86.725	75.756	-69.619	-62.834	58.037	49.317	-62.975	-56.267	-55.937	-49.716	60.416	-49.619	-8191	255	
34492.293	1	1	0	0	0.06371	0.009347	0.14488	0.38389	0.23393	0.20885	0.1112	0.19737	0.40496	0.35164	0.063188	0.010008	0.13683	0.22323	0.28658	0.12028	-1.7625	-2.4458	-2.3604	-2.5917	-2.4958	-2.1708	-2.5542	-2.4562	-2.1417	-2.4146	-2.3083	-2.5229	-2.5833	-2.0083	-2.4208	-2.4104	217.959	97.983	91.583	181.248	128.650	199.389	211.831	220.232	-68.600	-20.353	242.527	206.270	-43.847	233.521	42.234	191.128	8.0828e-05	0.00048624	9.8381e-05	1226.3	1.9812e-06	2.9022e-06	1294.3	255.19	1.3159e-06	2.6059e-06	322.17	88.835	69.976	20.521	8.7971e-07	29.12	0.00022325	0.00026283	7.5752e-05	1198	3.2957e-06	2.9027e-06	1270.1	251.72	3.0482e-06	2.8111e-06	317.61	89.147	69.892	20.53	2.8892e-06	29.166	198.128	27.006	29.340	-69.715	121.412	86.336	-69.558	-62.861	44.290	77.105	-62.819	-56.260	-55.814	-48.965	54.444	-49.810	-8191	255	
34492.391	1	1	0	0	0.17369	0.04635	0.11101	0.17068	0.14489	0.22257	0.13995	0.32168	0.10328	0.03748	0.35755	0.36268	0.24523	0.29951	0.011362	0.02979	-1.7896	-2.6042	-2.4104	-2.4813	-2.7	-2.1417	-2.7229	-2.5	-2.1479	-2.7583	-2.4625	-2.4479	-2.7313	-2.2	-2.5271	-2.6063	-24.826	114.011	15.253	-49.384	261.221	87.165	-61.874	-66.089	25.501	132.219	214.273	-47.771	48.421	186.328	-0.389	0.121	7.2804e-05	0.00016355	0.00013301	1222.4	8.2689e-07	3.9673e-06	1297.7	253.58	2.0276e-06	2.5674e-06	320.58	88.772	69.775	20.677	2.3128e-06	28.986	0.00022918	0.00026058	7.5969e-05	1195.3	3.1796e-06	2.855e-06	1270.6	251.71	3.0773e-06	2.888e-06	317.07	89.347	69.832	20.635	2.9199e-06	29.14	214.465	5.929	28.147	-69.674	112.913	69.962	-69.520	-62.750	80.154	80.753	-63.153	-56.042	-56.162	-49.397	78.724	-49.300	-8191	255	
34492.484	1	1	0	0	0.12876	0.099462	0.24099	0.35173	0.23326	0.18685	0.22555	0.10419	0.13773	0.090866	0.017685	0.14883	0.091565	0.049102	0.29651	0.16343	-1.6771	-2.3438	-2.2938	-2.5396	-2.7042	-2.1917	-2.5375	-2.5854	-2.0833	-2.5354	-2.3312	-2.3333	-2.8146	-2.2562	-2.3458	-2.6167	-8.187	185.480	-28.299	257.277	13.155	198.491	247.915	138.418	250.628	-74.619	98.853	-21.358	233.598	-35.323	176.553	247.493	7.2344e-05	0.0002852	9.4099e-05	1224.7	1.7731e-06	2.917e-06	1295.1	255.72	2.0497e-06	2.5865e-06	321.77	89.339	69.521	20.702	3.0633e-06	29.231	0.00022667	0.00025376	7.6867e-05	1196.9	3.2039e-06	2.8513e-06	1269.9	252	3.235e-06	2.684e-06	316.67	89.49	69.875	20.683	2.9637e-06	29.321	220.332	8.427	23.769	-69.844	104.630	78.410	-69.602	-62.911	99.104	51.581	-62.985	-56.406	-55.997	-49.319	65.803	-49.491	-8191	255	
34492.605	1	1	0	0	0.1604	0.1475	0.1875	0.34935	0.16176	0.16928	0.25714	0.1608	0.039576	0.20274	0.1724	0.14056	0.04318	0.09023	0.20297	0.12595	-1.7375	-2.3854	-2.3375	-2.2875	-2.6708	-2.2313	-2.4021	-2.4083	-2.2229	-2.5354	-2.3688	-2.2958	-2.4396	-2.1	-2.2854	-2.7458	54.070	247.140	-2.965	217.639	23.264	70.681	202.221	222.997	-15.135	204.509	240.560	220.587	-17.038	-54.717	181.964	-44.083	7.186e-05	0.0003497	0.00010208	1224.9	1.4065e-06	4.3006e-06	1298	255.18	7.6994e-07	3.0658e-06	322.76	88.621	69.837	20.599	2.3463e-06	29.23	0.00023704	0.00027026	7.5318e-05	1196	3.158e-06	3.0438e-06	1273	252.41	3.1276e-06	2.9382e-06	317.17	89.277	70.048	20.68	3.0643e-06	29.325	208.343	24.035	43.132	-69.742	102.489	67.175	-69.451	-62.848	57.467	76.457	-62.785	-55.993	-56.191	-49.338	105.989	-49.890	-8191	255	
34492.703	1	1	0	0	0.26631	0.14353	0.10432	0.21316	0.18016	0.10385	0.31771	0.056379	0.17351	0.34398	0.098875	0.30371	0.27158	0.057146	0.16524	0.082229	-1.7812	-2.3333	-2.4813	-2.1	-2.5625	-2.5604	-2.4396	-2.4104	-2.2542	-2.4271	-2.4	-2.1708	-2.5229	-2.4792	-2.1229	-2.7687	244.080	183.637	42.811	-35.544	232.382	161.905	227.137	-1.232	139.758	157.826	-44.716	-47.207	276.082	-49.695	97.478	-8.370	7.801e-05	0.00025672	0.00010361	1226.1	1.718e-06	3.8921e-06	1301.1	255.1	1.7451e-06	3.0174e-06	321.98	89.121	70.415	20.668	2.3306e-06	29.29	0.00023155	0.00027714	7.9607e-05	1196.3	3.3184e-06	3.1001e-06	1274.8	252.6	3.2985e-06	3.0163e-06	317.1	89.51	70.241	20.678	3.1677e-06	29.4	222.396	8.903	28.312	-69.875	88.195	73.087	-69.591	-62.941	104.174	93.066	-63.233	-56.217	-56.080	-49.465	76.146	-49.722	-8191	255	
34492.801	1	1	0	0	0.13049	0.30731	0.1437	0.07963	0.040844	0.10538	0.14765	0.16164	0.19704	0.17665	0.21731	0.266	0.25888	0.21004	0.057164	0.14042	-1.6771	-2.3646	-2.5104	-2.3792	-2.4833	-2.3229	-2.5625	-2.6396	-2.1625	-2.4062	-2.5646	-2.2625	-2.4271	-2.275	-2.1958	-2.7083	39.293	128.225	38.272	192.269	77.010	193.382	224.916	204.919	127.000	175.323	191.346	-62.360	-76.537	219.082	179.656	215.575	8.2517e-05	0.00018697	8.8245e-05	1228.5	1.4835e-06	2.3907e-06	1305	256.27	1.2393e-06	4.7839e-06	321.64	89	70.413	20.668	2.6473e-06	29.25	0.00023484	0.00028858	7.9669e-05	1199	3.4276e-06	3.2221e-06	1278.1	253.06	3.3111e-06	3.4886e-06	318.12	89.574	70.305	20.734	3.324e-06	29.453	208.052	28.623	60.064	-69.951	115.605	70.604	-69.647	-62.634	63.145	78.927	-63.055	-56.176	-56.567	-49.167	66.066	-49.605	-8191	255	
34492.895	1	1	0	0	0.19833	0.20823	0.32349	0.17558	0.16456	0.20502	0.10891	0.23814	0.016022	0.066737	0.17339	0.046437	0.11162	0.087206	0.056683	0.13118	-1.8417	-2.3438	-2.5646	-2.4271	-2.4042	-2.4188	-2.2396	-2.6396	-2.3	-2.3167	-2.8521	-2.2667	-2.5938	-2.5542	-2.4125	-2.6042	131.227	61.734	-43.999	242.967	28.260	74.169	-79.187	237.487	57.787	-24.060	84.724	94.207	153.546	203.727	184.185	190.215	7.8908e-05	0.00036216	0.0001238	1235.6	7.8467e-07	3.2778e-06	1305.2	256.29	1.3538e-06	2.4004e-06	323.32	89.849	70.105	20.688	1.911e-06	29.312	0.00024666	0.00032477	8.8075e-05	1206.2	3.54e-06	3.3688e-06	1281	254.03	3.5373e-06	3.5283e-06	319.52	89.949	70.446	20.751	3.6644e-06	29.418	212.952	12.312	13.439	-69.792	99.650	70.923	-69.538	-62.871	62.312	62.904	-62.905	-56.355	-55.808	-49.585	94.994	-49.362	-8191	255	
34492.992	1	1	0	0	0.37528	0.22357	0.11753	0.42542	0.17599	0.22922	0.29522	0.18539	0.25792	0.18571	0.12958	0.12773	0.081995	0.18325	0.17519	0.24397	-1.8604	-2.0583	-2.5708	-2.2104	-2.4708	-2.4417	-2.1667	-2.5208	-2.3	-2.3812	-2.7521	-2.3125	-2.375	-2.6667	-2.1771	-2.4625	228.561	177.343	124.811	-68.050	80.316	129.743	267.789	156.703	84.744	-41.108	238.358	229.511	27.042	176.016	240.094	205.709	6.8929e-05	0.00026189	7.3766e-05	1240.3	2.3296e-07	4.219e-06	1309	257.41	2.1755e-06	2.6194e-06	324.66	88.98	70.453	20.808	2.4672e-06	29.424	0.00025901	0.0003207	8.4731e-05	1212.2	3.7754e-06	3.6114e-06	1283.6	254.82	3.7739e-06	3.4638e-06	320.46	89.873	70.836	20.829	3.5826e-06	29.429	226.889	-19.174	-1.423	-69.824	118.096	53.131	-69.649	-63.078	89.243	104.116	-62.900	-56.240	-56.416	-48.947	70.088	-49.643	-8191	255	
34493.086	1	1	0	0	0.1551	0.19922	0.20112	0.48655	0.097646	0.17577	0.43845	0.095443	0.24343	0.18893	0.12398	0.23023	0.33006	0.11222	0.14076	0.072694	-1.8813	-2.2708	-2.5604	-2.575	-2.4292	-2.7687	-2.3646	-2.6708	-2.4833	-2.2188	-2.7042	-2.4292	-2.2979	-2.6104	-2.0979	-2.5125	137.765	-52.565	13.283	227.443	-60.500	81.060	175.501	142.741	-42.182	-70.402	-35.974	-76.414	186.470	18.032	160.682	143.018	7.6177e-05	0.00036525	0.0001019	1241.6	1.7181e-06	3.2362e-06	1319.5	259.23	1.1795e-06	3.6954e-06	325.56	89.814	70.752	20.727	2.2176e-06	29.625	0.00025831	0.00032637	8.8091e-05	1213.7	3.7912e-06	3.4883e-06	1290.3	255.88	3.7848e-06	3.6919e-06	321.58	90.23	70.96	20.798	3.6002e-06	29.486	206.390	21.078	12.407	-69.867	116.998	73.181	-69.722	-62.701	133.507	69.010	-63.069	-56.231	-55.959	-49.198	74.473	-49.515	-8191	255	
34493.184	1	1	0	0	0.10777	0.059435	0.10956	0.27025	0.12688	0.23875	0.18656	0.26098	0.28869	0.085126	0.11852	0.16919	0.17091	0.1478	0.12749	0.25265	-2.2271	-2.1063	-2.475	-2.4875	-2.3312	-2.6813	-2.3917	-2.6104	-2.3542	-2.2771	-2.6875	-2.3958	-2.3375	-2.575	-2.2792	-2.5062	142.584	-70.610	-71.265	248.019	35.169	233.249	198.884	-80.430	-50.599	244.549	172.596	171.590	251.653	-46.548	147.747	-49.181	6.8623e-05	0.00037149	0.00010905	1245.5	1.6152e-06	2.7256e-06	1317.3	260.03	1.4488e-06	3.8636e-06	326.82	90.209	71.129	20.992	2.8502e-06	29.443	0.00026217	0.00035079	9.5181e-05	1217.6	4.0492e-06	3.5997e-06	1292.9	256.54	3.6676e-06	3.7737e-06	321.92	90.277	71.126	20.912	3.6536e-06	29.443	217.424	5.272	6.655	-69.868	104.977	58.931	-69.845	-62.686	77.466	67.402	-63.026	-56.343	-56.402	-49.221	63.933	-49.936	-8191	255	
34493.301	1	1	0	0	0.11678	0.13326	0.061441	0.24171	0.069934	0.15569	0.17479	0.13137	0.25517	0.15833	0.13909	0.11944	0.2466	0.033675	0.2409	0.33615	-1.9646	-1.9979	-2.5083	-2.5812	-2.2542	-2.6708	-2.3708	-2.3312	-2.6063	-2.1771	-2.5625	-2.4833	-2.1854	-2.5271	-2.3021	-2.3458	122.176	112.107	214.451	244.034	95.795	63.945	224.562	232.095	59.483	-23.867	-40.448	272.137	2.942	123.438	93.613	207.235	7.4928e-05	0.00033056	8.1518e-05	1252.4	1.1735e-06	3.2514e-06	1322.5	259.42	9.0371e-07	3.2881e-06	325.67	90.195	70.991	20.68	2.8576e-06	29.498	0.000258	0.00033864	9.0429e-05	1221.6	3.9843e-06	3.6108e-06	1295.8	256.82	3.7098e-06	3.7545e-06	321.54	90.473	70.927	20.804	3.6155e-06	29.527	213.030	19.318	15.835	-69.868	125.707	62.519	-69.779	-63.014	105.066	79.534	-63.042	-56.429	-56.132	-49.543	78.328	-49.681	-8191	255	
34493.398	1	1	0	0	0.092858	0.11861	0.26981	0.19198	0.17742	0.22204	0.13185	0.33506	0.049484	0.17226	0.059629	0.10299	0.11075	0.10523	0.1603	0.093429	-2.0583	-2.0104	-2.3396	-2.6562	-2.1521	-2.7	-2.4458	-2.1937	-2.5583	-2.1229	-2.5771	-2.4875	-2.1937	-2.55	-2.325	-2.5521	-38.593	156.303	28.876	245.786	120.714	-68.825	130.410	192.398	136.594	12.559	173.530	160.200	-9.973	225.705	-30.333	81.272	7.1959e-05	0.00020136	0.00010622	1254.4	8.3512e-07	2.9716e-06	1324.1	260.09	1.1566e-06	3.3992e-06	326.43	89.629	70.589	20.87	2.2096e-06	29.422	0.00025394	0.00033116	9.2457e-05	1221	3.8614e-06	3.5186e-06	1296.6	256.85	3.7125e-06	3.7719e-06	321.72	90.281	70.931	20.877	3.7894e-06	29.495	214.983	-0.157	-6.219	-69.852	44.797	66.477	-69.616	-62.665	53.740	63.707	-63.150	-56.136	-56.118	-49.510	62.868	-49.694	-8191	255	
34493.496	1	1	0	0	0.15427	0.12825	0.080875	0.35978	0.098188	0.080641	0.13035	0.29643	0.053157	0.052835	0.22554	0.23803	0.084203	0.11496	0.04718	0.12593	-2.2229	-2.2875	-2.2979	-2.5729	-2.0542	-2.5896	-2.5062	-2.1646	-2.6729	-2.2375	-2.4021	-2.5479	-2.05	-2.5583	-2.4667	-2.4229	-33.734	75.419	207.298	266.874	218.449	270.794	230.933	237.987	119.336	49.272	277.069	-70.830	124.103	157.234	43.154	-36.972	7.7187e-05	0.0002318	9.0897e-05	1254.7	1.8495e-06	3.9385e-06	1324.2	260.13	1.0173e-06	2.4677e-06	326.56	89.983	71.009	20.782	2.2119e-06	29.413	0.00025687	0.00033446	9.4918e-05	1224.4	3.9553e-06	3.5755e-06	1298.5	257.1	3.7826e-06	3.8686e-06	322.76	90.43	71.257	20.907	3.886e-06	29.49	211.608	-18.808	17.931	-70.006	125.136	87.194	-69.680	-62.777	92.270	81.488	-63.196	-56.585	-55.830	-49.329	82.151	-49.700	-8191	255	
34493.590	1	1	0	0	0.041603	0.032789	0.13188	0.18552	0.15541	0.19907	0.080808	0.23216	0.19428	0.087875	0.18847	0.097319	0.23972	0.052521	0.19413	0.03997	-2.2583	-2.2687	-2.2771	-2.8208	-2.1625	-2.4354	-2.7833	-2.2292	-2.625	-2.2687	-2.4313	-2.5583	-2.1104	-2.6104	-2.3854	-2.2646	127.534	29.801	-56.822	216.892	190.182	116.975	247.637	278.246	73.327	-42.568	246.965	217.152	175.681	-38.275	69.375	94.404	8.0384e-05	0.00034062	0.00011582	1257.4	1.9276e-06	5.0089e-06	1330.1	261.05	1.8075e-06	3.8778e-06	329.01	90.531	71.231	20.903	3.3795e-06	29.504	0.00025983	0.00034293	9.9145e-05	1228.4	4.0434e-06	4.0621e-06	1302.9	258.03	4.0696e-06	4.0223e-06	324.55	90.909	71.455	20.987	4.2134e-06	29.631	219.555	8.498	21.856	-70.062	77.114	88.155	-69.445	-62.535	135.078	60.451	-63.089	-56.415	-55.879	-49.550	97.902	-49.731	-8191	255	
34493.688	1	1	0	0	0.12486	0.17077	0.3294	0.33791	0.24925	0.19906	0.12707	0.24585	0.13142	0.41325	0.15933	0.23953	0.16445	0.14033	0.016997	0.36019	-2.2083	-2.4292	-2.3312	-2.7458	-2.3021	-2.6125	-2.5542	-2.1104	-2.4854	-2.2562	-2.3708	-2.5354	-2.2583	-2.5917	-2.2208	-2.1521	136.357	-64.104	129.664	262.874	241.158	-59.330	186.629	273.860	-48.324	241.023	166.623	227.326	-78.874	235.962	32.291	133.473	8.0114e-05	0.00034968	0.00012731	1267.6	1.4634e-06	3.0294e-06	1332.5	262.07	1.0711e-06	2.9929e-06	328.49	90.566	71.446	20.945	1.767e-06	29.669	0.00028738	0.0003849	0.00010922	1234.8	4.2624e-06	4.3722e-06	1307.5	258.62	4.0471e-06	4.2926e-06	323.83	90.99	71.69	21.007	4.0889e-06	29.698	225.080	24.330	24.324	-69.985	98.339	73.647	-69.471	-63.096	105.561	69.109	-63.160	-56.251	-56.346	-49.734	53.748	-49.639	-8191	255	
34493.781	1	1	0	0	0.16449	0.28396	0.11935	0.3833	0.25551	0.078559	0.076579	0.070999	0.22739	0.23619	0.11066	0.30899	0.31805	0.29839	0.098076	0.16673	-1.9333	-2.2021	-2.3333	-2.8667	-2.5687	-2.5333	-2.5708	-2.2042	-2.6063	-2.4042	-2.4104	-2.7062	-2.3	-2.3688	-2.4854	-2.15	-66.264	157.374	93.981	-68.640	64.554	138.175	2.173	266.631	-52.042	84.356	219.835	242.962	176.066	223.867	88.533	-55.827	8.5546e-05	0.00029198	8.324e-05	1269.1	2.4177e-06	2.1492e-06	1335.2	262.51	1.6897e-06	3.161e-06	330.81	90.967	71.541	20.998	2.5445e-06	29.602	0.00028758	0.0003882	0.00010648	1238.3	4.294e-06	4.3134e-06	1312	259.28	4.3319e-06	4.2628e-06	326.02	91.201	71.637	21.002	4.2776e-06	29.679	206.776	10.360	46.670	-69.949	92.879	80.745	-69.518	-62.567	75.903	66.492	-63.083	-56.541	-56.819	-49.287	62.561	-49.794	-8191	255	
34493.902	1	1	0	0	0.23346	0.3322	0.17294	0.086085	0.26337	0.095507	0.26913	0.20722	0.08668	0.17141	0.1737	0.21155	0.20281	0.25956	0.12925	0.050294	-2.2458	-2.4979	-2.0812	-2.7146	-2.2333	-2.3312	-2.6917	-2.3125	-2.5521	-2.3417	-2.4146	-2.6437	-2.125	-2.4021	-2.575	-2.1854	-4.014	10.470	82.903	239.739	70.704	-74.238	201.552	265.711	272.871	144.431	-50.310	229.457	275.550	207.556	-4.552	-50.591	7.3453e-05	0.00037253	0.00010358	1273.9	2.3998e-06	2.4404e-06	1341.3	263.73	9.3651e-07	3.746e-06	330.66	90.267	71.571	20.925	1.2507e-06	29.452	0.00030027	0.00039128	0.00010766	1241.8	4.5093e-06	4.3444e-06	1314.1	260.07	4.212e-06	4.1692e-06	326.12	91.001	71.78	20.933	4.2009e-06	29.654	215.521	27.846	29.047	-70.052	117.816	90.918	-69.660	-62.879	56.305	73.888	-63.112	-56.338	-55.799	-49.269	56.530	-49.581	-8191	255	
34494.000	1	1	0	0	0.26418	0.093058	0.22749	0.13362	0.15747	0.10438	0.19637	0.10786	0.19586	0.19018	0.28752	0.20933	0.18418	0.1331	0.33232	0.1048	-2.0521	-2.4	-2.2313	-2.5896	-2.3542	-2.4083	-2.8292	-2.375	-2.4625	-2.5021	-2.2792	-2.7562	-2.5667	-2.3042	-2.8167	-2.1813	-50.616	188.918	-78.966	274.717	57.493	109.239	264.809	-52.040	206.966	127.352	206.956	-73.778	13.477	-16.814	-44.609	256.998	7.4115e-05	0.00046562	7.3566e-05	1273.6	2.3177e-07	3.1066e-06	1343.4	264.42	1.3387e-06	2.8921e-06	329.71	90.174	71.495	20.828	2.87e-06	29.521	0.00030295	0.00039568	0.00011026	1242.4	4.5959e-06	4.2949e-06	1316	260.09	4.1337e-06	4.0911e-06	325.39	91.05	71.558	20.89	4.0031e-06	29.665	223.442	4.624	26.793	-69.916	136.121	77.892	-69.758	-63.046	65.429	34.510	-62.996	-56.332	-56.533	-49.502	91.949	-49.808	-8191	255	
34494.094	1	1	0	0	0.1717	0.14053	0.14891	0.35071	0.25533	0.0787	0.26038	0.24917	0.082073	0.084276	0.10637	0.044457	0.15579	0.17858	0.27878	0.094135	-2.0229	-2.4896	-2.1729	-2.7208	-2.3438	-2.3	-2.7917	-2.2562	-2.5833	-2.5396	-2.2979	-2.6813	-2.3917	-2.3875	-2.6	-2.3917	255.857	-55.605	-7.533	228.260	226.412	205.301	187.578	270.135	21.042	205.776	61.389	120.789	203.214	-12.911	105.707	257.278	6.5108e-05	0.00033043	0.00012195	1266.2	1.0518e-06	3.1079e-06	1341.8	263.32	9.5406e-07	3.6429e-06	328.64	90.256	71.739	20.846	2.9757e-06	29.35	0.00027565	0.00036911	0.00010472	1238.8	4.2877e-06	4.1407e-06	1313.7	259.25	4.1895e-06	3.9554e-06	325.19	90.813	71.796	20.865	3.9576e-06	29.589	207.024	-0.174	19.532	-69.864	109.555	68.360	-69.753	-62.647	61.455	92.173	-62.961	-56.756	-56.274	-49.492	100.121	-49.643	-8191	255	
34494.191	1	1	0	0	0.08917	0.069499	0.10257	0.15157	0.17289	0.24773	0.20881	0.11634	0.035193	0.061797	0.31842	0.16773	0.027382	0.25661	0.12602	0.27756	-1.8813	-2.5729	-2.1271	-2.5521	-2.6375	-2.2396	-2.7562	-2.3937	-2.5625	-2.5125	-2.4167	-2.5458	-2.6521	-2.1562	-2.7792	-2.4729	206.185	107.873	117.599	217.918	147.925	-45.579	252.969	3.718	261.898	7.449	181.574	135.363	26.523	-79.062	47.519	16.554	7.1324e-05	0.00027616	7.503e-05	1269.6	2.3541e-06	1.8972e-06	1341.5	263.43	1.0179e-06	3.6604e-06	329.53	90.443	71.36	20.66	8.8598e-07	29.538	0.00027131	0.00035827	0.00010916	1239.5	4.2882e-06	4.0943e-06	1311.6	259.63	4.0586e-06	3.8481e-06	325.04	90.869	71.469	20.76	3.811e-06	29.595	216.633	-7.560	6.253	-70.067	94.552	89.036	-69.700	-62.890	100.366	90.545	-62.887	-56.647	-56.080	-49.135	59.015	-49.470	-8191	255	
34494.285	1	1	0	0	0.2185	0.23192	0.25076	0.13795	0.14415	0.1885	0.31054	0.16012	0.23092	0.096459	0.12865	0.22805	0.077898	0.24124	0.12797	0.24938	-1.8583	-2.7396	-2.2188	-2.5542	-2.4042	-2.1479	-2.6417	-2.3771	-2.1708	-2.5396	-2.3521	-2.4875	-2.7458	-2.1042	-2.6458	-2.5271	71.698	-6.572	248.846	211.612	34.491	71.362	240.851	46.862	62.836	82.346	-61.045	-31.920	148.296	268.779	66.094	145.208	8.2725e-05	0.0003775	5.7893e-05	1263	2.0733e-06	3.2917e-06	1327.6	259.85	1.775e-06	3.0809e-06	328.36	89.459	70.98	20.401	2.3829e-06	29.491	0.00026809	0.00033605	0.00010063	1232.9	3.9384e-06	3.7216e-06	1303.6	257.15	3.655e-06	3.3312e-06	322.6	89.808	70.786	20.519	3.0961e-06	29.302	214.008	1.615	14.661	-69.880	116.293	70.170	-69.621	-62.659	25.280	64.771	-62.977	-56.183	-56.161	-49.230	76.460	-49.652	-8191	255	
34494.383	1	1	0	0	0.12949	0.14863	0.17911	0.32275	0.11441	0.14733	0.04692	0.093038	0.18135	0.017329	0.2473	0.086182	0.18496	0.27589	0.047536	0.085947	-1.8875	-2.5062	-2.2167	-2.6104	-2.6708	-2.1792	-2.5604	-2.5771	-2.3354	-2.5583	-2.3354	-2.6042	-2.5687	-2.0292	-2.4792	-2.6792	-34.136	22.401	69.263	238.674	-49.537	233.780	215.261	179.927	88.778	81.126	258.016	260.659	9.974	251.455	104.760	-42.672	8.1069e-05	0.00027268	7.9035e-05	1249.8	1.4811e-06	3.3688e-06	1314.7	256.86	1.8365e-06	3.6126e-06	325.8	89.107	69.968	20.406	2.3898e-06	29.045	0.00024914	0.00030646	8.8478e-05	1219.5	3.454e-06	3.2623e-06	1290.7	254.75	3.5334e-06	3.0752e-06	320.82	89.533	70.174	20.368	3.0131e-06	29.18	221.587	22.299	20.503	-69.842	132.507	84.388	-69.554	-62.799	73.967	65.467	-63.123	-56.200	-55.829	-49.161	55.194	-49.639	-8191	255	
34494.480	1	1	0	0	0.16584	0.46944	0.23646	0.27737	0.10911	0.18816	0.10638	0.19756	0.16799	0.28933	0.18262	0.29899	0.18518	0.29584	0.23879	0.25189	-1.6417	-2.5792	-2.1979	-2.4938	-2.6042	-2.2125	-2.7375	-2.6937	-2.1583	-2.625	-2.3271	-2.3563	-2.6896	-2.275	-2.4583	-2.7646	117.375	-65.171	206.157	186.990	121.842	119.096	190.766	278.061	247.877	-15.991	150.210	-18.303	-31.038	273.396	24.924	-9.528	7.6571e-05	0.00047956	0.00015179	1243	2.5359e-06	3.2132e-06	1314.1	257.21	1.1912e-06	3.7594e-06	325.14	89.112	70.051	20.459	2.2857e-06	28.929	0.00023955	0.00030761	8.5118e-05	1212.4	3.5152e-06	3.2995e-06	1287.4	254.21	3.3385e-06	3.0993e-06	320.44	89.45	70.031	20.365	3.1296e-06	29.116	223.581	4.575	20.048	-69.967	130.148	78.346	-69.740	-62.745	55.084	77.259	-63.103	-56.129	-56.148	-49.466	83.163	-49.287	-8191	255	
34494.574	1	1	0	0	0.056859	0.1931	0.19707	0.38866	0.20869	0.058908	0.28204	0.15241	0.15172	0.24395	0.24756	0.16237	0.039524	0.15141	0.32412	0.27852	-1.6833	-2.5854	-2.1542	-2.4396	-2.5521	-2.3896	-2.6104	-2.5125	-2.2521	-2.5771	-2.475	-2.2792	-2.6896	-2.4125	-2.3021	-2.4396	-58.569	182.888	196.975	234.705	44.735	219.108	260.251	-21.925	96.336	14.857	-65.058	234.285	27.892	216.958	39.109	126.398	7.2484e-05	0.00025199	7.1344e-05	1244	1.4397e-06	3.3368e-06	1308.3	257.42	1.5599e-06	2.7172e-06	324.24	88.664	69.963	20.313	2.8398e-06	29.083	0.00024048	0.00029342	8.0907e-05	1212.2	3.511e-06	3.1893e-06	1284.3	254.32	3.4721e-06	3.0119e-06	319.91	89.264	70.068	20.322	3.3592e-06	29.115	201.281	27.506	22.881	-69.612	85.828	84.150	-69.766	-62.786	51.238	67.991	-62.966	-56.336	-56.277	-49.385	86.296	-49.532	-8191	255	
34494.695	1	1	0	0	0.12074	0.29685	0.22201	0.05547	0.18283	0.087393	0.42644	0.055853	0.14996	0.068203	0.20537	0.27119	0.13043	0.1558	0.24548	0.051469	-1.7333	-2.5521	-2.4437	-2.3458	-2.5187	-2.1125	-2.5062	-2.5667	-2.0208	-2.5396	-2.4708	-2.3063	-2.6562	-2.3521	-2.2583	-2.6437	10.947	150.170	174.514	-48.528	-28.932	-63.662	216.064	230.510	103.936	210.145	156.164	211.441	159.194	158.250	-76.942	144.286	6.4353e-05	0.00032505	8.3359e-05	1243	1.233e-06	2.6574e-06	1312	257.33	1.2825e-06	2.5087e-06	323.87	89.471	69.571	20.417	2.2798e-06	29.096	0.00024367	0.00029931	8.4004e-05	1210.7	3.4366e-06	3.3824e-06	1285.3	254.31	3.3681e-06	3.4024e-06	320.31	89.585	69.978	20.451	3.3336e-06	29.177	206.870	-14.931	4.699	-69.940	75.801	65.217	-69.689	-62.713	57.488	70.941	-62.857	-56.422	-56.070	-49.586	86.664	-49.713	-8191	255	
34494.766	1	1	0	0	0.21899	0.2155	0.074183	0.077274	0.071181	0.10019	0.26855	0.16012	0.20405	0.080827	0.34771	0.146	0.15695	0.27375	0.20736	0.3042	-1.8792	-2.4125	-2.4708	-2.4104	-2.4188	-2.3792	-2.5583	-2.7313	-2.375	-2.4625	-2.4396	-2.1979	-2.7271	-2.4417	-2.2708	-2.6937	-31.447	137.710	251.351	195.908	9.485	273.952	-61.070	-39.669	233.482	47.013	253.818	191.882	130.817	261.532	31.174	154.946	6.3702e-05	0.00025371	6.9038e-05	1239.6	1.8732e-06	2.8105e-06	1314.2	257.01	9.8945e-07	2.1981e-06	325.41	88.896	70.106	20.349	2.275e-06	29.217	0.00025038	0.00029842	8.7348e-05	1213.1	3.7448e-06	3.3886e-06	1289	254.7	3.6638e-06	3.5047e-06	320.92	89.604	70.29	20.425	3.6303e-06	29.229	208.665	24.270	19.699	-69.803	100.946	67.518	-69.668	-62.786	104.097	65.462	-63.266	-56.255	-56.126	-49.152	70.082	-49.443	-8191	255	
34494.863	1	1	0	0	0.28474	0.21766	0.14589	0.19483	0.16545	0.15989	0.17521	0.20786	0.11129	0.16019	0.10442	0.092106	0.22193	0.059594	0.2724	0.32419	-1.7458	-2.4875	-2.4896	-2.2188	-2.5417	-2.3896	-2.6125	-2.7313	-2.45	-2.5833	-2.7479	-2.1708	-2.6208	-2.5208	-2.3208	-2.5417	-55.737	108.150	-76.545	241.717	-55.497	141.721	260.652	5.832	55.167	104.473	-52.477	172.170	173.395	60.120	104.698	238.918	7.9506e-05	0.00033222	7.528e-05	1246.2	1.9928e-06	3.5164e-06	1321.9	258.82	1.381e-06	2.8493e-06	325.03	89.496	70.608	20.356	3.5225e-06	29.146	0.00025605	0.00034133	8.6264e-05	1217	3.8635e-06	3.825e-06	1294.2	255.19	4.0241e-06	3.708e-06	321.41	89.986	70.482	20.506	3.6252e-06	29.376	215.772	7.648	32.734	-69.974	90.910	61.783	-69.622	-62.891	63.930	100.305	-63.011	-56.592	-56.177	-49.232	73.550	-49.789	-8191	255	
34494.984	1	1	0	0	0.10062	0.11866	0.073642	0.21604	0.20849	0.10286	0.12071	0.16196	0.06972	0.074487	0.18366	0.090343	0.18556	0.17146	0.13161	0.07273	-1.8729	-2.3417	-2.4792	-2.4458	-2.4479	-2.6229	-2.2833	-2.7104	-2.3417	-2.3646	-2.7229	-2.3104	-2.4333	-2.5667	-2.1417	-2.6063	-73.417	39.352	82.160	243.950	-51.135	198.264	169.224	239.729	-21.177	239.880	63.800	136.102	239.227	-50.706	219.637	27.833	5.2955e-05	0.00039738	9.9957e-05	1251.1	1.3012e-06	3.0175e-06	1321.9	257.62	1.8149e-06	2.1675e-06	325.8	89.495	70.395	20.517	1.7581e-06	29.287	0.0002785	0.00033523	9.272e-05	1221.2	3.9437e-06	3.7291e-06	1295.3	255.38	3.8927e-06	3.8351e-06	321.96	89.821	70.489	20.551	3.8752e-06	29.375	206.465	25.799	22.096	-69.924	90.512	88.351	-69.766	-62.769	71.510	59.837	-63.032	-56.242	-56.490	-49.379	110.724	-49.358	-8191	255	
34495.078	1	1	0	0	0.16549	0.20362	0.27781	0.35189	0.27353	0.20258	0.16561	0.096605	0.062845	0.13867	0.29964	0.20524	0.065845	0.35416	0.094767	0.26642	-1.85	-2.1917	-2.5875	-2.4708	-2.4958	-2.7188	-2.2604	-2.6583	-2.4542	-2.1188	-2.6771	-2.2333	-2.3125	-2.6333	-2.0896	-2.5521	232.024	227.274	42.212	248.673	180.030	3.069	183.937	82.161	-33.429	-41.991	-67.359	-36.282	210.972	242.097	243.149	173.670	7.5948e-05	0.00041592	0.00011573	1254.5	9.5588e-07	3.5174e-06	1321.4	258.28	1.7026e-06	3.7618e-06	325.64	89.172	70.426	20.491	1.7492e-06	29.368	0.00026017	0.00034909	9.8541e-05	1223.6	3.8102e-06	3.5502e-06	1296.3	255.67	3.7585e-06	3.6981e-06	322.19	89.762	70.542	20.517	3.7343e-06	29.408	216.565	3.647	32.458	-70.047	107.781	43.705	-69.654	-62.739	75.941	66.496	-62.763	-56.224	-56.144	-49.457	72.975	-49.454	-8191	255	
34495.176	1	1	0	0	0.22745	0.039528	0.1596	0.22273	0.028602	0.12324	0.20001	0.13887	0.29672	0.049657	0.07487	0.28236	0.046895	0.12254	0.19164	0.17357	-2.0104	-2.2917	-2.7104	-2.3271	-2.4542	-2.5687	-2.4417	-2.7062	-2.4792	-2.2687	-2.65	-2.3125	-2.5229	-2.625	-2.2833	-2.7458	105.229	238.473	226.351	-65.495	260.752	33.069	225.132	241.066	169.235	-25.144	137.424	169.525	221.267	-6.213	13.979	207.660	6.4769e-05	0.00028053	8.9711e-05	1254.1	1.1852e-06	3.2605e-06	1322.3	257.69	8.6587e-07	4.2393e-06	326.81	89.16	70.252	20.518	2.7931e-06	29.423	0.00026141	0.00033985	9.3804e-05	1221.8	3.7263e-06	3.5248e-06	1295.3	255.4	3.8275e-06	3.7502e-06	322.55	89.837	70.571	20.535	3.661e-06	29.312	209.548	9.662	21.155	-69.705	76.044	77.518	-69.494	-62.898	80.577	64.396	-63.268	-56.489	-56.213	-49.256	102.443	-49.615	-8191	255	
34495.297	1	1	0	0	0.12121	0.11698	0.19103	0.23916	0.24954	0.16912	0.43477	0.11223	0.21637	0.19167	0.31537	0.17247	0.1245	0.075009	0.14557	0.13222	-2.3312	-2.0729	-2.5312	-2.5583	-2.2833	-2.5938	-2.5563	-2.3438	-2.4458	-2.2083	-2.5167	-2.3854	-2.1229	-2.4521	-2.3438	-2.3438	127.514	44.490	-51.672	176.927	-29.719	158.121	226.195	257.237	222.216	34.305	-67.982	-61.652	210.388	-48.302	175.336	278.988	7.3802e-05	0.00033985	6.7838e-05	1251.9	1.3174e-06	2.911e-06	1319.2	259.78	1.5601e-06	2.4156e-06	326.19	89.293	70.3	20.418	2.4964e-06	29.224	0.00026175	0.00034111	9.3943e-05	1222.8	3.8397e-06	3.6647e-06	1296.6	256.29	3.6035e-06	3.7266e-06	323.07	89.942	70.505	20.489	3.6769e-06	29.337	222.182	8.246	39.872	-69.783	118.039	66.094	-69.494	-62.770	61.264	50.286	-63.085	-56.425	-55.969	-49.349	88.803	-49.531	-8191	255	
34495.391	1	1	0	0	0.12913	0.27867	0.1574	0.09119	0.12679	0.30799	0.10695	0.077811	0.15383	0.083116	0.16567	0.1316	0.26351	0.036917	0.16298	0.16577	-2.1667	-1.9292	-2.5792	-2.5771	-2.2792	-2.7042	-2.5354	-2.5812	-2.5708	-2.1896	-2.575	-2.5979	-2.3771	-2.6854	-2.2667	-2.45	13.618	22.019	51.988	274.851	-45.177	-24.169	236.847	267.601	-31.010	-28.043	185.669	-32.910	230.427	-7.281	244.444	-76.516	7.7788e-05	0.00032255	8.5309e-05	1256.3	2.2551e-06	4.1716e-06	1324.2	259.45	1.6992e-06	3.5305e-06	327.78	89.455	70.547	20.529	3.5955e-06	29.439	0.00025219	0.00034447	8.8695e-05	1224.2	3.9717e-06	3.5712e-06	1298.3	256.28	3.8965e-06	3.832e-06	322.74	89.913	70.68	20.569	3.744e-06	29.371	214.136	-1.437	28.305	-69.700	94.275	58.820	-69.711	-62.705	99.490	75.160	-62.815	-56.253	-56.378	-49.436	69.623	-49.111	-8191	255	
34495.465	1	1	0	0	0.42826	0.12396	0.2517	0.34133	0.16302	0.24923	0.062583	0.23334	0.24358	0.2381	0.14211	0.1599	0.16516	0.26743	0.22028	0.11118	-2.1125	-2.2333	-2.4375	-2.55	-2.0062	-2.6271	-2.5438	-2.2812	-2.5583	-2.2687	-2.5	-2.5312	-2.1583	-2.5729	-2.3125	-2.3	-65.694	134.997	-36.096	217.512	239.338	250.936	55.614	185.517	177.735	-54.541	245.333	241.693	-13.090	212.324	165.201	-78.416	6.6139e-05	0.00028653	0.00012437	1253.2	1.3907e-06	2.6287e-06	1324.1	259.54	2.7629e-06	3.2221e-06	326.36	89.683	70.983	20.581	2.7602e-06	29.339	0.00026084	0.00035888	9.032e-05	1224.1	3.9168e-06	3.8108e-06	1300	256.4	3.701e-06	3.9299e-06	322.82	90.128	70.801	20.549	3.8247e-06	29.415	215.150	6.511	27.952	-69.903	138.455	52.284	-69.587	-62.781	64.242	65.156	-62.920	-56.843	-55.724	-49.382	50.603	-49.527	-8191	255	
34495.586	1	1	0	0	0.36079	0.081608	0.16492	0.21914	0.1489	0.36196	0.19561	0.096186	0.24199	0.024011	0.2849	0.1601	0.28502	0.20216	0.20062	0.19398	-2.1292	-2.1021	-2.4313	-2.7271	-2.1083	-2.5333	-2.4562	-2.4062	-2.7562	-2.0896	-2.5875	-2.5438	-2.1437	-2.4938	-2.3771	-2.3187	31.730	257.284	30.104	254.317	109.938	-76.838	149.869	254.017	117.444	-27.703	-69.382	-66.351	248.719	161.040	-45.824	277.857	6.9721e-05	0.00022376	8.7759e-05	1252.6	2.5429e-06	2.5141e-06	1324.1	259.88	9.727e-07	2.8459e-06	326.82	89.709	70.994	20.538	2.9543e-06	29.221	0.00025227	0.0003437	9.5553e-05	1225	4.1067e-06	3.8089e-06	1300.4	256.64	3.7897e-06	3.801e-06	322.73	89.987	70.807	20.569	3.5701e-06	29.41	217.311	7.181	9.187	-69.726	37.924	71.322	-69.718	-62.940	41.741	83.199	-63.012	-56.450	-55.975	-49.539	79.993	-49.551	-8191	255	
34495.680	1	1	0	0	0.15315	0.205	0.030613	0.12516	0.16955	0.40416	0.26332	0.18799	0.16895	0.24395	0.14614	0.22095	0.21615	0.12466	0.026948	0.21737	-2.0333	-2.2854	-2.3646	-2.7729	-2.3146	-2.6583	-2.6229	-2.4979	-2.7521	-2.3708	-2.475	-2.7083	-2.2104	-2.4167	-2.4	-2.2708	-3.031	218.972	186.627	244.148	232.140	33.748	182.405	-42.587	-31.272	-67.014	173.035	197.663	103.744	87.206	176.097	190.957	8.414e-05	0.00040328	6.32e-05	1255.1	2.0239e-06	3.9526e-06	1326.6	259.28	1.8954e-06	2.4243e-06	329.23	89.391	70.252	20.556	1.6702e-06	29.337	0.0002556	0.00034683	9.5491e-05	1225.6	3.9136e-06	3.6083e-06	1300.9	256.61	3.8029e-06	3.5834e-06	323.87	89.927	70.593	20.591	3.6371e-06	29.358	217.794	1.081	51.847	-69.934	94.483	86.482	-69.674	-62.892	66.555	75.293	-62.885	-56.319	-55.865	-49.680	78.664	-49.711	-8191	255	
34495.777	1	1	0	0	0.24781	0.26825	0.20951	0.22417	0.24665	0.39777	0.050203	0.16509	0.042133	0.28512	0.20989	0.18949	0.0044967	0.089348	0.31284	0.20188	-2.0729	-2.1792	-2.2604	-2.8292	-2.1583	-2.4292	-2.4979	-2.2771	-2.45	-2.3542	-2.175	-2.6479	-2.2979	-2.4667	-2.5062	-2.3	-50.879	216.533	-42.375	264.019	54.095	255.773	-45.564	152.412	104.023	103.067	238.634	228.155	115.618	5.632	247.847	231.566	8.3423e-05	0.00040507	9.4065e-05	1254.8	1.6125e-06	3.4015e-06	1323.5	259.74	1.3431e-06	4.15e-06	326.47	89.092	70.752	20.565	2.9291e-06	29.233	0.00025881	0.00035569	9.0073e-05	1227.3	4.054e-06	3.7241e-06	1298.7	256.17	3.7344e-06	3.8996e-06	323.36	89.836	70.613	20.589	3.6195e-06	29.385	211.184	10.985	11.558	-69.859	96.217	62.895	-69.747	-62.879	93.096	61.312	-62.963	-56.536	-56.041	-49.369	77.771	-49.548	-8191	255	
34495.871	1	1	0	0	0.15062	0.27453	0.1899	0.16262	0.086562	0.20081	0.24204	0.25181	0.057643	0.17172	0.17644	0.16372	0.08049	0.13367	0.095436	0.049681	-2.2958	-2.3125	-2.3187	-2.8896	-2.1604	-2.6458	-2.5479	-2.3854	-2.5458	-2.4542	-2.5458	-2.7104	-2.3625	-2.3333	-2.8042	-2.0958	105.615	-52.227	99.851	-50.794	191.578	-29.435	199.494	216.118	178.606	77.422	268.285	230.761	89.912	226.136	222.664	140.929	7.4962e-05	0.00024427	9.8528e-05	1256.9	1.309e-06	3.045e-06	1326.5	259.12	1.6869e-06	2.4152e-06	328.38	89.654	70.41	20.42	2.2358e-06	29.215	0.00025907	0.00032703	9.8495e-05	1228.6	3.8988e-06	3.609e-06	1301.9	256.7	3.6956e-06	3.5431e-06	322.77	90.089	70.677	20.573	3.4445e-06	29.386	221.072	14.171	28.093	-69.779	108.838	70.451	-69.771	-62.922	117.743	81.366	-62.816	-56.477	-56.171	-49.359	84.039	-49.745	-8191	255	
34495.992	1	1	0	0	0.045273	0.25108	0.12377	0.1844	0.19334	0.049743	0.54136	0.070963	0.25856	0.2391	0.22461	0.2138	0.18521	0.078525	0.24435	0.30386	-2.0625	-2.3458	-2.0521	-2.6833	-2.2958	-2.3396	-2.7104	-2.2333	-2.5062	-2.4062	-2.2521	-2.7292	-2.3667	-2.5333	-2.6875	-2.3604	38.749	122.194	163.236	221.396	222.508	192.707	205.014	216.487	248.462	66.389	196.602	206.933	158.719	101.330	-6.061	267.551	7.2015e-05	0.00037118	9.736e-05	1261.9	9.8499e-07	3.5303e-06	1329.6	259.13	1.5769e-06	2.4141e-06	329.23	89.933	70.489	20.698	2.1556e-06	29.12	0.00025848	0.00033649	9.3633e-05	1228.5	3.9632e-06	3.7402e-06	1300.1	256.25	3.7448e-06	3.7657e-06	323.73	89.907	70.673	20.595	3.5917e-06	29.264	216.807	23.480	32.930	-69.956	92.347	73.804	-69.719	-62.687	87.333	32.953	-62.894	-56.714	-55.725	-49.196	88.881	-49.742	-8191	255	
34496.062	1	1	0	0	0.005039	0.070249	0.13415	0.32525	0.25583	0.069091	0.16858	0.36409	0.1727	0.11644	0.049695	0.053793	0.052575	0.22932	0.17923	0.17489	-1.8542	-2.5312	-2.2229	-2.6542	-2.2438	-2.3729	-2.6688	-2.2021	-2.6042	-2.5563	-2.2625	-2.5375	-2.1417	-2.2083	-2.5917	-2.3063	252.544	56.583	49.837	-35.939	42.309	-16.845	235.690	263.011	-4.933	82.391	198.681	23.777	263.261	-43.972	63.510	187.894	6.9525e-05	0.00037988	7.4902e-05	1254.7	2.501e-06	3.8946e-06	1326	259.45	1.0354e-06	3.7778e-06	326.78	89.302	70.743	20.492	2.2642e-06	29.416	0.00025757	0.00033396	9.8247e-05	1225.5	3.8978e-06	3.6077e-06	1299.5	256.42	3.6463e-06	3.6628e-06	322.61	89.897	70.595	20.562	3.6246e-06	29.361	211.300	17.139	-14.932	-69.936	128.113	65.164	-69.605	-62.879	43.458	50.134	-62.926	-56.281	-56.257	-49.413	94.160	-49.457	-8191	255	
34496.160	1	1	0	0	0.029657	0.15018	0.13927	0.082686	0.015527	0.16667	0.25253	0.10301	0.26022	0.2533	0.33607	0.12208	0.19095	0.12378	0.10711	0.17944	-2.0146	-2.625	-2.1562	-2.7896	-2.4333	-2.3542	-2.8771	-2.3229	-2.35	-2.4896	-2.3104	-2.6354	-2.3917	-2.3521	-2.5104	-2.3646	7.149	140.514	-62.166	225.965	257.845	105.747	200.167	92.169	244.637	251.635	-79.435	167.952	-15.522	-4.980	180.446	159.106	7.111e-05	0.00037149	8.2031e-05	1253.4	1.5176e-06	2.5956e-06	1323.6	258.45	1.2857e-06	3.0505e-06	327.77	89.196	70.723	20.4	2.5261e-06	29.114	0.00025492	0.00033226	9.577e-05	1224.2	3.9637e-06	3.7353e-06	1298.9	256.32	3.5548e-06	3.6306e-06	322.77	89.739	70.717	20.518	3.5161e-06	29.296	217.549	3.450	11.486	-70.001	93.141	85.228	-69.484	-62.825	69.141	80.202	-63.080	-56.087	-56.005	-49.082	68.664	-49.556	-8191	255	
34496.258	1	1	0	0	0.13749	0.025588	0.083349	0.1953	0.083376	0.14865	0.27331	0.076562	0.050753	0.088882	0.21438	0.19035	0.23938	0.11966	0.20794	0.11843	-2.0375	-2.7271	-2.1229	-2.8292	-2.3937	-2.1562	-2.5958	-2.1437	-2.4333	-2.4938	-2.2542	-2.5958	-2.55	-2.2604	-2.6771	-2.3333	129.112	-3.152	210.677	253.897	99.876	188.872	183.905	-40.294	224.016	-19.161	-69.495	-73.743	226.161	260.234	133.742	134.860	8.3662e-05	0.00036772	3.9639e-05	1253.5	1.7838e-06	2.6266e-06	1322	258.88	1.3736e-06	3.7161e-06	326.55	90.118	70.331	20.506	2.6863e-06	29.156	0.0002631	0.0003229	9.0599e-05	1224.6	3.7674e-06	3.687e-06	1297.8	256.03	3.6375e-06	3.6225e-06	322.21	89.949	70.477	20.514	3.3547e-06	29.305	213.933	20.634	4.527	-69.903	78.355	90.025	-69.728	-62.761	103.742	67.439	-63.000	-56.492	-56.217	-49.581	58.250	-50.026	-8191	255	
34496.375	1	1	0	0	0.030315	0.10062	0.35121	0.090854	0.26673	0.1466	0.30787	0.21807	0.081716	0.1294	0.37188	0.12246	0.35801	0.054313	0.056838	0.084132	-2.0062	-2.5	-2.3271	-2.5917	-2.3854	-2.0938	-2.7583	-2.4667	-2.4292	-2.6063	-2.3333	-2.5187	-2.6292	-2.1708	-2.4667	-2.4604	161.361	206.209	-40.001	244.881	19.558	270.337	231.365	232.359	150.722	37.985	201.035	13.941	-66.661	-10.747	34.888	210.911	6.4513e-05	0.00025365	9.2382e-05	1249.9	1.8673e-06	3.1004e-06	1322.3	259.67	1.4685e-06	2.6606e-06	326.38	89.142	70.189	20.564	1.784e-06	29.247	0.00024889	0.0003146	8.7146e-05	1221.7	3.7849e-06	3.5724e-06	1295.4	255.67	3.477e-06	3.3566e-06	322.45	89.779	70.306	20.503	3.3649e-06	29.273	216.769	3.718	39.727	-69.748	127.231	85.048	-69.750	-62.616	80.438	76.996	-63.040	-56.236	-56.598	-49.660	71.920	-49.413	-8191	255	
34496.473	1	1	0	0	0.29657	0.16768	0.12272	0.28855	0.12384	0.15917	0.10828	0.11838	0.047302	0.060025	0.11084	0.31247	0.07784	0.17093	0.24304	0.081445	-1.7917	-2.5083	-2.2042	-2.5625	-2.5604	-1.9771	-2.5354	-2.5583	-2.3063	-2.7792	-2.3708	-2.4583	-2.5854	-2.1417	-2.4958	-2.4917	52.759	130.641	170.231	238.442	32.429	159.157	88.476	178.321	138.696	96.526	-71.538	-70.999	256.219	46.976	78.089	190.597	8.5981e-05	0.00026829	7.8647e-05	1251.7	2.1343e-06	1.9953e-06	1322	258.85	6.3039e-07	3.0872e-06	327.52	88.801	70.302	20.457	2.834e-06	29.273	0.00025399	0.00030596	9.32e-05	1220.7	3.6213e-06	3.6424e-06	1294.8	255.46	3.4261e-06	3.589e-06	321.98	89.553	70.379	20.559	3.3723e-06	29.274	214.141	-0.513	17.153	-69.817	77.399	92.262	-69.540	-62.770	92.134	62.893	-62.867	-56.368	-56.166	-49.647	79.251	-49.770	-8191	255	
34496.566	1	1	0	0	0.19801	0.075032	0.399	0.38577	0.24146	0.0095948	0.27362	0.1775	0.084601	0.067129	0.13667	0.062246	0.018434	0.17242	0.19888	0.21915	-1.7938	-2.6875	-2.3896	-2.5667	-2.6208	-2.3208	-2.6521	-2.6208	-2.2417	-2.6312	-2.4521	-2.3812	-2.7479	-2.3312	-2.4688	-2.5563	162.360	-76.973	245.962	241.302	186.645	170.516	259.166	268.830	-48.153	148.248	-16.258	262.938	144.175	242.262	260.479	273.723	7.1376e-05	0.00023707	0.00010077	1249.3	3.5112e-07	3.6971e-06	1318.3	257.52	2.2966e-07	3.7092e-06	324.8	88.903	70.295	20.47	3.5161e-06	29.19	0.0002547	0.00031641	9.0491e-05	1220.4	3.6007e-06	3.5613e-06	1295.7	255.2	3.6693e-06	3.3764e-06	321.34	89.447	70.441	20.496	3.3575e-06	29.236	223.311	-5.750	40.086	-69.807	137.798	79.635	-69.686	-62.795	79.578	62.759	-63.076	-56.229	-56.322	-49.406	81.317	-49.460	-8191	255	
34496.664	1	1	0	0	0.22642	0.24195	0.10968	0.5056	0.082197	0.16306	0.30921	0.17528	0.19852	0.064996	0.19089	0.38243	0.14072	0.26627	0.10834	0.31511	-1.7708	-2.5375	-2.425	-2.5104	-2.475	-2.2854	-2.5271	-2.4792	-2.2208	-2.575	-2.55	-2.4917	-2.7854	-2.15	-2.5812	-2.5833	189.884	227.604	245.457	214.981	-54.352	161.709	228.649	245.556	204.760	-38.353	-64.221	243.316	225.130	-73.342	26.764	233.223	8.0823e-05	0.00025464	0.00010736	1248.6	1.4837e-06	2.2947e-06	1323.7	257.71	1.6167e-06	2.4662e-06	323.77	89.07	70.292	20.401	2.5364e-06	29.062	0.00025351	0.000302	8.6016e-05	1217.6	3.7859e-06	3.4635e-06	1292.8	254.87	3.7629e-06	3.5041e-06	321.41	89.499	70.41	20.462	3.4092e-06	29.155	208.592	27.457	29.247	-69.905	132.575	89.660	-69.431	-62.646	142.072	63.380	-63.113	-56.312	-56.101	-49.301	103.036	-49.611	-8191	255	
34496.758	1	1	0	0	0.30978	0.073897	0.14967	0.21121	0.21536	0.18058	0.10849	0.4323	0.094135	0.20879	0.31818	0.293	0.13317	0.12037	0.10996	0.069493	-1.6896	-2.6354	-2.3583	-2.5187	-2.6688	-2.3479	-2.6104	-2.5812	-2.2167	-2.5167	-2.4792	-2.4146	-2.65	-2.1667	-2.2604	-2.8771	49.135	127.939	186.789	248.013	-24.832	-77.985	-63.579	190.851	-40.249	53.934	87.456	213.153	12.128	201.871	131.737	111.877	7.6888e-05	0.00034005	8.8438e-05	1248.8	2.0712e-06	3.4191e-06	1312.5	258.17	1.2815e-06	4.9481e-06	325.71	89.388	70.436	20.445	2.5795e-06	29.007	0.00025802	0.00030585	9.0939e-05	1217.1	3.683e-06	3.5297e-06	1289.9	255.39	3.8067e-06	3.6386e-06	321.2	89.77	70.311	20.448	3.4996e-06	29.206	220.702	13.587	-36.600	-69.816	69.487	75.683	-69.784	-62.809	79.006	69.973	-63.120	-56.330	-55.832	-49.854	77.002	-49.039	-8191	255	
34496.855	1	1	0	0	0.09301	0.28309	0.2162	0.52152	0.11682	0.12412	0.20274	0.18188	0.21107	0.24093	0.13723	0.19751	0.16017	0.22236	0.045016	0.23944	-1.8104	-2.5021	-2.575	-2.2417	-2.7062	-2.4208	-2.4583	-2.6146	-2.2729	-2.5417	-2.5396	-2.4125	-2.6875	-2.3583	-2.1396	-2.6521	241.849	100.400	182.259	258.818	15.856	-9.810	-54.355	231.429	222.061	246.587	231.327	275.761	129.683	-66.502	-55.899	269.642	6.607e-05	0.00031414	8.9028e-05	1247.8	2.3043e-06	3.3142e-06	1322.3	258.28	1.1755e-06	2.7912e-06	324.45	88.612	70.408	20.239	1.9521e-06	29.069	0.000264	0.00032455	8.9453e-05	1218.5	3.7986e-06	3.5786e-06	1291.3	255.42	3.7733e-06	3.3305e-06	320.8	89.514	70.347	20.424	3.6712e-06	29.232	202.222	-1.136	26.997	-69.995	88.802	31.640	-69.599	-62.983	2.945	78.485	-63.010	-56.359	-56.159	-49.515	87.182	-49.731	-8191	255	
34496.977	1	1	0	0	0.18678	0.25172	0.085934	0.35821	0.23661	0.026508	0.2842	0.18293	0.12644	0.026383	0.14105	0.33587	0.063489	0.1444	0.14742	0.12552	-1.9083	-2.375	-2.4417	-2.3042	-2.5062	-2.4583	-2.3771	-2.6542	-2.2021	-2.3229	-2.6375	-2.3667	-2.6583	-2.4729	-2.2667	-2.8396	92.311	-46.055	256.794	224.299	53.177	261.782	170.139	255.971	-35.233	-25.678	213.439	225.186	-55.396	-10.009	54.097	151.753	8.3085e-05	0.00026128	0.000112	1249.2	2.1782e-06	3.68e-06	1325	258.68	6.5885e-07	5.5355e-06	327.26	89.368	70.419	20.578	2.6161e-06	29.227	0.00025997	0.00033391	9.8108e-05	1220.2	3.949e-06	3.9346e-06	1296.7	255.88	4e-06	4.0031e-06	322.89	89.919	70.739	20.626	4.1685e-06	29.323	218.554	-17.813	13.871	-69.976	59.462	106.277	-69.534	-62.720	13.139	81.277	-63.096	-56.377	-56.521	-49.304	111.910	-49.691	-8191	255	
34497.070	1	1	0	0	0.051503	0.21892	0.049485	0.20822	0.15407	0.095874	0.38436	0.24012	0.08564	0.085701	0.34353	0.13848	0.097259	0.13562	0.10869	0.075844	-1.7812	-2.5438	-2.4646	-2.3896	-2.4229	-2.5	-2.3667	-2.7646	-2.3312	-2.2854	-2.5646	-2.2896	-2.5125	-2.5521	-2.2021	-2.6937	180.155	195.915	229.375	217.460	128.313	199.133	239.413	255.542	158.715	20.822	264.217	238.589	-58.407	244.533	216.034	235.845	5.5269e-05	0.000164	9.4101e-05	1259.1	1.7751e-06	3.0438e-06	1330.9	258.96	7.6154e-07	4.9778e-06	328.91	89.831	70.262	20.543	2.9916e-06	29.161	0.00028233	0.00037412	0.0001049	1228.2	4.265e-06	4.1036e-06	1304.1	256.62	4.1151e-06	4.1339e-06	323.97	90.138	70.652	20.612	3.9764e-06	29.383	207.812	5.325	12.036	-69.905	83.952	51.881	-69.464	-62.803	38.908	72.707	-63.032	-56.164	-55.749	-49.174	67.250	-49.763	-8191	255	
34497.168	1	1	0	0	0.25567	0.18057	0.18952	0.26242	0.013629	0.16256	0.18427	0.3235	0.17523	0.32655	0.13023	0.24887	0.17095	0.12339	0.24514	0.26733	-2.1	-2.3229	-2.8521	-2.3792	-2.5271	-2.7167	-2.4458	-2.4958	-2.1937	-2.3937	-2.6312	-2.3187	-2.5083	-2.7062	-1.9792	-2.4292	37.933	-56.652	258.057	155.154	259.482	1.788	182.039	203.515	116.546	67.144	-28.785	237.038	-75.487	228.185	241.914	274.816	6.95e-05	0.00031093	0.00011877	1259.6	2.8351e-06	4.3549e-06	1324.6	258.7	2.3161e-06	1.5168e-06	326.48	89.243	70.608	20.398	2.9673e-06	29.311	0.00026524	0.00035706	9.4872e-05	1228.7	4.0434e-06	3.9402e-06	1297.1	255.48	3.7311e-06	3.8444e-06	322.82	89.973	70.591	20.509	3.7667e-06	29.315	209.173	7.774	15.372	-70.059	78.525	104.395	-69.578	-62.569	45.857	68.539	-62.853	-56.191	-55.950	-49.382	85.303	-49.568	-8191	255	
34497.266	1	1	0	0	0.09908	0.27286	0.12188	0.1597	0.13746	0.14695	0.37281	0.18484	0.12995	0.19824	0.16909	0.25302	0.15344	0.043183	0.058128	0.1322	-1.9354	-2.3458	-2.6417	-2.4021	-2.3021	-2.4479	-2.2812	-2.6042	-2.4625	-2.3771	-2.4646	-2.3438	-2.3625	-2.6208	-2.3688	-2.4646	76.224	225.998	222.920	231.500	268.494	-65.570	193.759	247.280	207.066	49.605	172.168	237.217	159.246	258.760	-55.200	-22.288	6.0101e-05	0.00024967	0.00010647	1251.8	1.3016e-06	3.3602e-06	1324.7	260.2	1.4989e-06	3.6871e-06	327.8	89.322	70.631	20.338	2.9384e-06	29.236	0.00026874	0.00034095	9.4779e-05	1223.8	3.8719e-06	3.8609e-06	1298.8	256.43	3.8735e-06	3.9095e-06	322.18	89.872	70.644	20.551	3.9167e-06	29.291	209.131	23.599	-1.587	-69.762	133.201	99.856	-69.472	-62.693	95.372	82.397	-63.151	-56.427	-56.501	-49.289	67.549	-49.425	-8191	255	
34497.359	1	1	0	0	0.2934	0.079812	0.13558	0.22232	0.091812	0.19752	0.39054	0.096772	0.11501	0.20158	0.20341	0.21765	0.25092	0.17064	0.039015	0.24685	-2.2021	-2.5083	-2.6437	-2.4437	-2.2833	-2.7125	-2.4583	-2.6333	-2.4062	-2.1604	-2.8104	-2.4979	-2.375	-2.5146	-2.2313	-2.5146	-8.063	256.511	-71.500	191.802	42.514	220.144	272.597	-75.439	-22.403	-13.557	226.452	126.350	-64.614	-6.810	-30.871	169.793	7.2313e-05	0.00039502	0.00011272	1253.6	9.4312e-07	2.3217e-06	1325.7	258.12	2.164e-06	3.5579e-06	327.27	89.4	71.122	20.372	3.1299e-06	29.206	0.00027382	0.00036878	0.00010106	1225.3	4.1437e-06	3.9519e-06	1298.9	255.94	4.0734e-06	4.0111e-06	323.08	89.923	70.852	20.578	3.8684e-06	29.38	218.686	25.615	42.221	-69.787	119.285	52.697	-69.608	-62.734	68.889	101.667	-62.712	-56.352	-56.182	-49.181	83.924	-49.355	-8191	255	
34497.457	1	1	0	0	0.06555	0.2408	0.12344	0.44412	0.22121	0.073106	0.16018	0.1526	0.25695	0.13761	0.25611	0.13563	0.25852	0.2675	0.11167	0.35928	-2.1083	-2.0021	-2.55	-2.6875	-2.2604	-2.8458	-2.55	-2.5312	-2.6958	-2.2771	-2.6792	-2.5729	-2.4333	-2.7354	-2.3792	-2.5021	118.552	216.879	190.433	241.397	168.336	-25.334	207.648	235.790	64.627	193.857	-65.101	267.242	-53.566	225.148	176.658	-48.342	6.466e-05	0.00019849	0.00010699	1249.5	7.6771e-07	2.1604e-06	1323.3	260.04	7.7965e-07	3.0928e-06	326.54	89.233	70.197	20.69	2.329e-06	29.294	0.00027596	0.00037208	9.7674e-05	1222.4	4.2207e-06	3.9612e-06	1299.3	256.37	4.1216e-06	3.8618e-06	322.94	89.893	70.678	20.614	3.719e-06	29.372	198.372	40.205	6.605	-69.758	102.183	72.006	-69.591	-63.186	79.145	56.132	-62.826	-56.183	-56.096	-49.428	62.619	-50.142	-8191	255	
34497.551	1	1	0	0	0.24997	0.10027	0.1307	0.34719	0.36823	0.071555	0.40196	0.14177	0.064607	0.31093	0.31248	0.16522	0.30177	0.22384	0.12179	0.17669	-2.1354	-2.1292	-2.4813	-2.6771	-2.2396	-2.5604	-2.6562	-2.5062	-2.6833	-2.3271	-2.7417	-2.6188	-2.2062	-2.6625	-2.3375	-2.3125	-67.189	48.767	211.259	195.989	200.654	91.534	177.254	7.356	208.192	59.747	156.081	50.054	220.081	-7.529	223.477	-0.402	6.7496e-05	0.0003716	7.9538e-05	1257.8	1.1487e-06	4.2486e-06	1328.6	257.43	1.2425e-06	2.7467e-06	326.14	89.488	71.079	20.571	2.186e-06	29.11	0.00027757	0.00036163	9.9238e-05	1227.4	4.1547e-06	3.6882e-06	1301.9	256.08	3.8604e-06	3.8091e-06	322.63	89.876	70.643	20.613	3.7485e-06	29.324	205.105	26.458	17.268	-69.837	81.888	70.936	-69.545	-63.001	109.571	97.256	-63.120	-56.475	-55.855	-49.422	75.981	-49.829	-8191	255	
34497.672	1	1	0	0	0.22685	0.18712	0.11466	0.12656	0.17384	0.14862	0.28061	0.11736	0.25025	0.34065	0.044499	0.21728	0.26523	0.21307	0.18016	0.34167	-2.1312	-2.1188	-2.45	-2.6646	-2.2729	-2.6333	-2.4313	-2.2208	-2.5521	-2.1417	-2.2875	-2.4396	-2.1688	-2.5917	-2.4938	-2.1375	41.729	-5.841	62.710	-73.512	32.742	-45.978	205.730	253.398	29.125	102.016	247.196	217.200	246.224	215.141	211.309	70.712	6.1276e-05	0.00046131	0.00011837	1252.3	1.6978e-06	3.2983e-06	1330.3	259.59	7.1388e-07	3.4212e-06	326.75	89.497	70.811	20.538	2.5771e-06	29.275	0.00027097	0.0003514	9.5181e-05	1226.9	4.073e-06	3.7742e-06	1300.6	256.53	3.8106e-06	3.8915e-06	322.75	90.156	70.736	20.548	3.6559e-06	29.351	208.673	12.658	4.515	-69.936	67.780	98.039	-69.579	-62.895	83.328	90.211	-62.830	-56.292	-55.942	-49.400	91.793	-49.848	-8191	255	
34497.766	1	1	0	0	0.16663	0.097441	0.3326	0.30323	0.22413	0.11184	0.22183	0.2149	0.077705	0.044462	0.13596	0.17243	0.10542	0.22336	0.14438	0.18368	-2.1583	-2.3292	-2.4125	-2.7604	-2.1813	-2.5771	-2.6521	-2.2417	-2.4813	-2.3146	-2.5208	-2.7521	-2.0812	-2.5875	-2.4708	-2.225	132.932	64.795	122.255	213.790	183.798	-50.065	174.006	241.072	84.094	232.369	223.528	28.963	217.885	121.361	158.930	244.384	7.4453e-05	0.00040749	0.00010484	1255.5	1.8587e-06	3.2915e-06	1323.9	260.14	1.2768e-06	2.3873e-06	329.39	89.78	70.469	20.531	1.231e-06	29.252	0.00025808	0.00033523	9.5507e-05	1225.6	4.0619e-06	3.7353e-06	1299.7	257.02	3.8577e-06	3.6851e-06	323.55	89.983	70.822	20.56	3.6678e-06	29.384	217.692	-7.314	34.539	-69.885	72.968	40.922	-69.770	-62.606	57.022	59.681	-63.061	-56.466	-56.222	-49.294	139.143	-49.616	-8191	255	
34497.863	1	1	0	0	0.075185	0.25263	0.093832	0.372	0.27683	0.090051	0.15958	0.28475	0.10969	0.11854	0.25832	0.12538	0.16449	0.20458	0.23828	0.17084	-2.1521	-2.3208	-2.3792	-2.7562	-2.1396	-2.5062	-2.5458	-2.25	-2.5396	-2.3187	-2.2854	-2.6083	-2.2292	-2.4188	-2.3521	-2.3875	-54.498	242.981	23.175	255.645	232.136	113.677	212.326	245.461	83.011	243.771	207.503	272.726	-73.731	57.514	14.872	-67.617	8.1053e-05	0.00038196	0.00010783	1258.1	2.267e-06	3.4057e-06	1324.3	260.3	1.8081e-06	1.8061e-06	327.29	89.66	70.865	20.42	3.4312e-06	29.21	0.00025061	0.00033897	9.6946e-05	1226.3	4.046e-06	3.6374e-06	1301.1	256.95	3.8253e-06	3.7837e-06	322.38	90.029	70.677	20.499	3.8292e-06	29.338	211.307	18.082	8.119	-69.807	82.614	75.631	-69.564	-62.887	90.805	107.583	-62.854	-56.138	-55.957	-49.431	99.906	-50.036	-8191	255	
#DATA ENDS
