BOXY.EXE: ISS Imagent and Oximeter Data Acquisition Program Version 0.80
Ascii Record File

#ACQ INFORMATION
2  Detector Channels 
16  External MUX Channels 
1  Auxiliary Channels 
5000  Waveform (CCF) Frequency (Hz)
1  Waveforms Skipped 
30  Waveforms Averaged 
1  Cycles Averaged 
16  Acquisitions per Waveform 
10.0806  Updata Rate (Hz) 

#FILE INFORMATION
TRUE -- External MUX Channel results are PARSED.
FALSE -- AC DC and Phase are NOT grouped.
TRUE -- Companion Program Settings File CREATED.
FALSE -- AC data not excluded
FALSE -- DC data not excluded
FALSE -- Phase data not excluded
FALSE -- Auxillary Chn. data not excluded
Tab delimiters

#CALIBRATION STATE
TRUE -- Waveform Calibration Values APPLIED.


#AUX CALIBRATION VALUES
Val Type	aux-1	

Term	1.0000e+00	
Factor	0.0000e+00	


#WF CALIBRATION VALUES
A = Detector Channel
Val Type	A-AC1	A-AC2	A-AC3	A-AC4	A-AC5	A-AC6	A-AC7	A-AC8	A-AC9	A-AC10	A-AC11	A-AC12	A-AC13	A-AC14	A-AC15	A-AC16	A-DC1	A-DC2	A-DC3	A-DC4	A-DC5	A-DC6	A-DC7	A-DC8	A-DC9	A-DC10	A-DC11	A-DC12	A-DC13	A-DC14	A-DC15	A-DC16	A-Ph1	A-Ph2	A-Ph3	A-Ph4	A-Ph5	A-Ph6	A-Ph7	A-Ph8	A-Ph9	A-Ph10	A-Ph11	A-Ph12	A-Ph13	A-Ph14	A-Ph15	A-Ph16	

Term	0.00000e+00	0.00000e+00	0.00000e+00	0.00000e+00	0.00000e+00	0.00000e+00	0.00000e+00	0.00000e+00	0.00000e+00	0.00000e+00	0.00000e+00	0.00000e+00	0.00000e+00	0.00000e+00	0.00000e+00	0.00000e+00	0.00000e+00	0.00000e+00	0.00000e+00	0.00000e+00	0.00000e+00	0.00000e+00	0.00000e+00	0.00000e+00	0.00000e+00	0.00000e+00	0.00000e+00	0.00000e+00	0.00000e+00	0.00000e+00	0.00000e+00	0.00000e+00	0.00000e+00	0.00000e+00	0.00000e+00	0.00000e+00	0.00000e+00	0.00000e+00	0.00000e+00	0.00000e+00	0.00000e+00	0.00000e+00	0.00000e+00	0.00000e+00	0.00000e+00	0.00000e+00	0.00000e+00	0.00000e+00	
Factor	1.00000e+00	1.00000e+00	1.00000e+00	1.00000e+00	1.00000e+00	1.00000e+00	1.00000e+00	1.00000e+00	1.00000e+00	1.00000e+00	1.00000e+00	1.00000e+00	1.00000e+00	1.00000e+00	1.00000e+00	1.00000e+00	1.00000e+00	1.00000e+00	1.00000e+00	1.00000e+00	1.00000e+00	1.00000e+00	1.00000e+00	1.00000e+00	1.00000e+00	1.00000e+00	1.00000e+00	1.00000e+00	1.00000e+00	1.00000e+00	1.00000e+00	1.00000e+00	X	X	X	X	X	X	X	X	X	X	X	X	X	X	X	X	

B = Detector Channel
Val Type	B-AC1	B-AC2	B-AC3	B-AC4	B-AC5	B-AC6	B-AC7	B-AC8	B-AC9	B-AC10	B-AC11	B-AC12	B-AC13	B-AC14	B-AC15	B-AC16	B-DC1	B-DC2	B-DC3	B-DC4	B-DC5	B-DC6	B-DC7	B-DC8	B-DC9	B-DC10	B-DC11	B-DC12	B-DC13	B-DC14	B-DC15	B-DC16	B-Ph1	B-Ph2	B-Ph3	B-Ph4	B-Ph5	B-Ph6	B-Ph7	B-Ph8	B-Ph9	B-Ph10	B-Ph11	B-Ph12	B-Ph13	B-Ph14	B-Ph15	B-Ph16	

Term	0.00000e+00	0.00000e+00	0.00000e+00	0.00000e+00	0.00000e+00	0.00000e+00	0.00000e+00	0.00000e+00	0.00000e+00	0.00000e+00	0.00000e+00	0.00000e+00	0.00000e+00	0.00000e+00	0.00000e+00	0.00000e+00	0.00000e+00	0.00000e+00	0.00000e+00	0.00000e+00	0.00000e+00	0.00000e+00	0.00000e+00	0.00000e+00	0.00000e+00	0.00000e+00	0.00000e+00	0.00000e+00	0.00000e+00	0.00000e+00	0.00000e+00	0.00000e+00	-8.78341e+01	-1.29763e+02	-1.22348e+02	-1.81483e+02	-4.98279e+01	-6.89854e+01	-1.57126e+02	-1.62015e+02	-5.76591e+01	-6.88165e+01	-1.72009e+02	-1.70235e+02	-1.79413e+02	-1.76982e+02	-6.01312e+01	-1.49920e+02	
Factor	1.77355e-05	1.76987e-04	5.28443e-05	1.54970e-01	1.38419e-06	1.88219e-06	1.81523e-01	6.50010e-02	1.26713e-06	1.82042e-06	8.98908e-02	3.02853e-02	2.99964e-02	9.87595e-03	1.55353e-06	1.42067e-02	1.35357e-05	2.64044e-05	7.43121e-06	7.68445e-02	2.53274e-07	2.97136e-07	8.49333e-02	3.23673e-02	2.62873e-07	2.97535e-07	4.35786e-02	1.47918e-02	1.52274e-02	4.96744e-03	2.72784e-07	6.91996e-03	X	X	X	X	X	X	X	X	X	X	X	X	X	X	X	X	



#DISTANCE SETTINGS
A = Detector Channel
A-1	A-2	A-3	A-4	A-5	A-6	A-7	A-8	A-9	A-10	A-11	A-12	A-13	A-14	A-15	A-16	

2.5000e+00	3.0000e+00	2.5000e+00	3.0000e+00	2.0000e+00	3.0000e+00	1.5000e+00	3.0000e+00	3.0000e+00	3.0000e+00	3.0000e+00	3.0000e+00	3.0000e+00	3.0000e+00	1.5000e+00	3.0000e+00	

B = Detector Channel
B-1	B-2	B-3	B-4	B-5	B-6	B-7	B-8	B-9	B-10	B-11	B-12	B-13	B-14	B-15	B-16	

1.0000e+01	1.0000e+01	1.0000e+01	1.4400e+00	1.0000e+01	1.0000e+01	1.5100e+00	1.9400e+00	1.0000e+01	1.0000e+01	1.9900e+00	2.4900e+00	2.4100e+00	2.9000e+00	1.0000e+01	2.9800e+00	




#DATA BEGINS
time	group	step	mark	flag	A-AC1	A-AC2	A-AC3	A-AC4	A-AC5	A-AC6	A-AC7	A-AC8	A-AC9	A-AC10	A-AC11	A-AC12	A-AC13	A-AC14	A-AC15	A-AC16	A-DC1	A-DC2	A-DC3	A-DC4	A-DC5	A-DC6	A-DC7	A-DC8	A-DC9	A-DC10	A-DC11	A-DC12	A-DC13	A-DC14	A-DC15	A-DC16	A-Ph1	A-Ph2	A-Ph3	A-Ph4	A-Ph5	A-Ph6	A-Ph7	A-Ph8	A-Ph9	A-Ph10	A-Ph11	A-Ph12	A-Ph13	A-Ph14	A-Ph15	A-Ph16	B-AC1	B-AC2	B-AC3	B-AC4	B-AC5	B-AC6	B-AC7	B-AC8	B-AC9	B-AC10	B-AC11	B-AC12	B-AC13	B-AC14	B-AC15	B-AC16	B-DC1	B-DC2	B-DC3	B-DC4	B-DC5	B-DC6	B-DC7	B-DC8	B-DC9	B-DC10	B-DC11	B-DC12	B-DC13	B-DC14	B-DC15	B-DC16	B-Ph1	B-Ph2	B-Ph3	B-Ph4	B-Ph5	B-Ph6	B-Ph7	B-Ph8	B-Ph9	B-Ph10	B-Ph11	B-Ph12	B-Ph13	B-Ph14	B-Ph15	B-Ph16	aux-1	digaux	

34564.250	1	1	0	256	0.14279	0.20167	0.37376	0.29477	0.24512	0.13827	0.19473	0.32378	0.050039	0.18842	0.17501	0.17014	0.1444	0.42017	0.137	0.14068	-1.6833	-2.1729	-2.5438	-2.3063	-2.3375	-2.4938	-2.0625	-2.5812	-2.2646	-2.1271	-2.675	-2.0167	-2.3708	-2.5021	-2.2021	-2.5896	72.194	-19.770	28.836	195.677	132.212	156.782	241.364	222.244	243.750	-29.838	240.898	206.591	198.256	-55.572	266.676	-46.971	0.00014362	0.0005059	0.00018233	1254.2	3.9451e-06	5.2439e-06	1268.2	348.66	2.4263e-06	5.0514e-06	407.38	136.37	118.05	41.517	2.7409e-06	52.612	0.00033961	0.00034458	9.3927e-05	1261.1	3.9337e-06	3.6374e-06	1278.5	353.07	3.9026e-06	3.5524e-06	411.55	140.03	120.66	42.342	3.886e-06	53.381	222.978	5.494	7.271	-71.336	97.869	59.607	-71.267	-66.601	65.168	76.177	-67.230	-62.787	-62.411	-57.911	61.569	-58.358	-8191	255	
34564.344	1	1	0	0	0.060951	0.063163	0.13951	0.090791	0.10301	0.21456	0.089283	0.21114	0.13205	0.14293	0.33926	0.32604	0.26833	0.42937	0.047205	0.0653	-1.8604	-2.2271	-2.5604	-2.3229	-2.2167	-2.4458	-2.2021	-2.4208	-2.2333	-2.1667	-2.5521	-2.3646	-2.2667	-2.3604	-2.1063	-2.3292	133.040	-10.313	39.758	80.459	25.287	100.966	-0.654	202.014	230.092	27.051	217.698	186.394	200.705	245.380	137.564	215.120	0.00014634	0.0004413	0.00015493	1261.5	2.6218e-06	5.4059e-06	1273.4	349.01	2.6075e-06	4.4615e-06	408.03	137.08	118.39	41.655	3.5501e-06	52.436	0.00033743	0.00033418	9.0243e-05	1266.4	3.9368e-06	3.5514e-06	1281.7	353.82	3.9776e-06	3.6547e-06	411.92	140.12	120.9	42.33	3.8536e-06	53.395	218.335	1.417	24.061	-71.460	71.690	55.488	-71.512	-66.860	81.379	66.731	-67.075	-62.884	-62.622	-57.737	83.205	-58.260	-8191	255	
34564.465	1	1	0	0	0.057941	0.25376	0.33831	0.51838	0.26103	0.13589	0.081755	0.015801	0.11316	0.10923	0.26993	0.26734	0.23021	0.21613	0.04316	0.12075	-1.8521	-2.1667	-2.3417	-2.3688	-2.2979	-2.575	-2.3396	-2.45	-2.4479	-2.2958	-2.5708	-2.375	-2.2542	-2.6458	-2.2167	-2.4792	23.229	211.490	7.798	269.567	257.915	-69.810	61.373	133.257	139.985	95.301	148.188	198.177	215.230	73.271	235.160	250.687	0.00014178	0.00052369	0.00017767	1267.1	2.1078e-06	5.036e-06	1279	349.11	1.6881e-06	5.2335e-06	408.77	137	118.88	41.722	3.6959e-06	52.477	0.00034592	0.00036059	9.3989e-05	1271.6	3.9711e-06	3.5186e-06	1286.6	354.69	4.1222e-06	3.9293e-06	413.01	140.43	121.11	42.419	4.2583e-06	53.37	221.263	12.214	3.627	-71.441	67.873	58.712	-71.508	-66.916	84.231	55.148	-67.449	-62.680	-62.369	-57.964	67.962	-58.497	-8191	255	
34564.559	1	1	0	0	0.095753	0.20185	0.099015	0.39226	0.17287	0.33462	0.27232	0.29445	0.19519	0.19347	0.18527	0.41768	0.10465	0.24225	0.27029	0.22481	-2.1229	-1.9979	-2.6646	-2.3208	-2.2875	-2.6417	-2.2521	-2.4771	-2.6458	-2.1	-2.7562	-2.35	-2.1708	-2.6333	-2.1354	-2.2562	170.995	44.204	22.612	208.672	221.435	148.315	-69.249	203.864	243.882	122.830	-56.755	-77.398	-68.872	97.454	272.595	260.892	0.000143	0.0004366	0.00017122	1277.5	2.311e-06	4.5385e-06	1289.7	352.34	2.8295e-06	4.993e-06	410.84	137.59	118.97	41.9	3.6928e-06	52.825	0.00034361	0.00037137	9.7519e-05	1281.6	4.2028e-06	3.7569e-06	1299.4	357.15	4.2087e-06	4.0886e-06	414.89	141.05	121.77	42.636	4.3435e-06	53.734	223.818	4.125	12.664	-71.502	65.030	70.333	-71.572	-66.787	64.640	66.902	-67.182	-62.935	-62.323	-57.569	76.100	-58.812	-8191	255	
34564.633	1	1	0	0	0.15086	0.17655	0.079503	0.2913	0.21735	0.20363	0.20368	0.16031	0.12799	0.32854	0.32072	0.22217	0.038654	0.059584	0.18308	0.56965	-2.0104	-2.0792	-2.5792	-2.4021	-2.1437	-2.5729	-2.1375	-2.5583	-2.4354	-2.1375	-2.5938	-2.5458	-2.1896	-2.6229	-2.2042	-2.2438	-53.603	166.946	28.352	224.971	15.433	-28.855	154.675	175.908	-52.960	85.781	-78.704	247.779	44.058	45.541	266.699	-54.090	0.00013918	0.00052151	0.00012087	1280.9	3.6161e-06	5.0299e-06	1294.9	353.79	2.008e-06	4.6536e-06	412.98	138.01	119.4	41.848	3.8304e-06	52.459	0.00035373	0.00037791	0.00010032	1285.5	4.2529e-06	3.7941e-06	1301.2	358.25	4.2284e-06	4.1047e-06	416.48	141.43	122.04	42.706	4.1798e-06	53.607	221.804	-3.043	15.684	-71.556	89.251	70.616	-71.609	-66.757	54.400	72.083	-67.272	-62.789	-62.506	-57.859	80.938	-58.645	-8191	255	
34564.727	1	1	0	0	0.39638	0.14078	0.24809	0.2096	0.18906	0.084474	0.36754	0.34833	0.19499	0.1722	0.44068	0.069723	0.22373	0.45396	0.27115	0.051238	-2.1104	-2.1229	-2.7604	-2.5917	-2.15	-2.5333	-2.525	-2.2917	-2.7104	-2.2521	-2.475	-2.4938	-2.0187	-2.5125	-2.1417	-2.2271	86.081	141.092	218.111	244.969	5.191	-35.640	218.623	220.703	-73.984	63.972	-84.173	200.769	185.281	229.081	93.070	19.034	0.00015783	0.00067608	0.00015547	1287.9	2.8735e-06	5.0167e-06	1295.3	354.6	1.6469e-06	4.748e-06	413.87	138.66	119.76	42.074	3.6275e-06	52.907	0.00034276	0.00037038	9.8974e-05	1290.7	4.1511e-06	3.7291e-06	1307.3	359.8	3.8588e-06	3.925e-06	417.87	142.01	122.39	42.827	4.0844e-06	53.935	223.638	-5.577	23.901	-71.504	96.179	54.002	-71.494	-66.980	84.248	65.100	-67.414	-62.886	-62.696	-57.687	76.106	-58.502	-8191	255	
34564.848	1	1	0	0	0.16329	0.071052	0.10491	0.23321	0.24386	0.2889	0.090301	0.31235	0.15542	0.13535	0.078297	0.10513	0.14599	0.24378	0.14396	0.13945	-2.1562	-2.3083	-2.1833	-2.6604	-2.1729	-2.4917	-2.5021	-2.4479	-2.6354	-2.2771	-2.475	-2.475	-2.2188	-2.6125	-2.1958	-2.2146	78.709	259.084	149.842	193.738	162.251	246.591	152.813	253.696	116.999	53.932	258.652	131.363	226.771	-20.321	91.166	203.720	0.00013453	0.00047707	0.00015089	1287.6	2.7683e-06	5.1827e-06	1302.2	354.26	2.0216e-06	4.5041e-06	415.59	138.13	119.74	42.097	3.1441e-06	52.847	0.00034423	0.00035811	9.7411e-05	1292.9	4.0909e-06	3.8485e-06	1309.8	359.57	3.9617e-06	3.9281e-06	419.17	141.72	122.54	42.842	3.9866e-06	53.884	219.425	3.430	6.287	-71.500	88.201	64.042	-71.595	-66.854	69.586	76.553	-67.429	-62.956	-62.480	-57.854	70.883	-58.462	-8191	255	
34564.945	1	1	0	0	0.075843	0.18262	0.13109	0.23591	0.18491	0.17662	0.26499	0.024669	0.24965	0.32547	0.38467	0.13661	0.12981	0.27357	0.056664	0.12522	-2.2354	-2.3667	-2.1375	-2.5417	-2.125	-2.4562	-2.3458	-2.175	-2.3312	-2.2062	-2.3104	-2.8125	-2.3	-2.4479	-2.4354	-1.9813	166.366	263.876	-84.592	193.682	243.419	-58.525	179.875	56.868	176.331	24.724	213.999	255.839	182.876	253.496	-83.688	-25.815	0.00013629	0.00047743	0.00013483	1291	3.2267e-06	2.799e-06	1302.4	355.43	1.9736e-06	5.6321e-06	414.87	138.93	119.89	42.241	3.0109e-06	52.972	0.00034166	0.00035905	9.625e-05	1295.9	4.0471e-06	3.7897e-06	1308.4	360.21	3.9677e-06	3.9052e-06	418.53	142.17	122.58	42.919	3.8559e-06	53.954	224.078	10.704	1.872	-71.497	90.983	63.585	-71.331	-66.897	72.345	72.537	-67.375	-63.143	-62.175	-58.000	66.070	-58.517	-8191	255	
34565.039	1	1	0	0	0.16528	0.18137	0.18609	0.26095	0.2228	0.15348	0.14448	0.10762	0.17295	0.19682	0.15147	0.18668	0.22847	0.10355	0.18121	0.084779	-2.1063	-2.1583	-2.1021	-2.5667	-2.2708	-2.4313	-2.6167	-2.125	-2.3688	-2.2708	-2.3167	-2.6625	-2.2333	-2.3917	-2.4437	-2.1188	230.780	90.407	-36.614	246.750	221.776	126.378	192.421	255.771	132.029	152.492	242.739	19.148	233.336	29.093	110.073	-41.650	0.00015448	0.00050574	0.00016773	1290.5	2.3656e-06	4.3473e-06	1301.6	354.56	2.7924e-06	6.4377e-06	413.62	138.46	120.4	42.225	3.8019e-06	53.154	0.00034166	0.00036042	9.7953e-05	1295.2	4.0756e-06	3.8157e-06	1309.4	359.55	4.1244e-06	3.9851e-06	418.39	141.83	122.68	42.895	3.911e-06	53.888	221.528	14.040	12.475	-71.477	105.090	62.373	-71.415	-66.873	96.529	56.253	-67.327	-62.753	-62.341	-57.656	61.489	-58.484	-8191	255	
34565.137	1	1	0	0	0.30939	0.12079	0.32637	0.23535	0.37785	0.11667	0.36971	0.36271	0.076965	0.064365	0.18237	0.14471	0.067566	0.22767	0.23389	0.10497	-2.0521	-2.2562	-2.0958	-2.8833	-1.9958	-2.4021	-2.7062	-2.1917	-2.5521	-2.3417	-2.1125	-2.6792	-2.4354	-2.4208	-2.5083	-2.2438	40.746	115.563	35.286	202.946	40.883	242.911	261.216	225.974	257.143	183.645	171.787	251.304	-39.036	232.684	73.203	-24.464	0.00014239	0.00054926	0.00015455	1284	2.8441e-06	5.6366e-06	1298	354.19	1.9289e-06	4.9617e-06	413.12	138.3	118.83	42.165	3.3543e-06	52.762	0.00033523	0.00035371	9.6776e-05	1289.3	4.1679e-06	3.6777e-06	1306.2	358.77	4.0433e-06	3.7694e-06	416.65	141.46	121.68	42.75	3.8593e-06	53.729	221.872	6.468	11.236	-71.494	86.154	43.321	-71.351	-66.796	61.769	67.736	-67.486	-62.851	-62.290	-57.893	69.189	-58.458	-8191	255	
34565.234	1	1	0	0	0.11318	0.34639	0.18564	0.23589	0.10008	0.1685	0.23465	0.19249	0.064579	0.026931	0.20521	0.13095	0.20427	0.15171	0.10503	0.1922	-2.0604	-2.1542	-1.9396	-2.6625	-2.0917	-2.3292	-2.6542	-2.2542	-2.475	-2.3563	-2.2729	-2.6312	-2.2958	-2.3729	-2.4708	-2.1104	-45.568	212.355	-70.757	193.534	78.332	140.983	178.623	211.161	11.920	230.275	173.743	165.570	242.073	244.397	182.361	260.476	0.00016389	0.00042201	0.00017231	1280.5	2.4448e-06	6.1045e-06	1289.8	354.27	1.9524e-06	4.2818e-06	412.2	137.84	119.66	41.871	3.7536e-06	52.703	0.000336	0.00033286	9.2116e-05	1285.4	3.9965e-06	3.635e-06	1300.4	358.43	3.8905e-06	3.6702e-06	416.06	141.21	121.96	42.681	3.7212e-06	53.605	227.440	5.357	12.651	-71.632	85.749	58.070	-71.433	-66.789	46.855	69.697	-67.477	-62.763	-62.345	-57.860	73.916	-58.442	-8191	255	
34565.328	1	1	0	0	0.24465	0.15746	0.16499	0.069266	0.18184	0.27305	0.33713	0.038028	0.085	0.12235	0.22642	0.1129	0.32286	0.17636	0.14241	0.14749	-1.7708	-2.2938	-1.8146	-2.7583	-2.0333	-2.1833	-2.6729	-2.1667	-2.3438	-2.3708	-2.25	-2.6583	-2.3542	-2.1667	-2.6417	-2.1042	157.278	172.998	196.280	-4.335	197.923	100.196	254.922	75.118	-47.116	242.469	257.496	18.112	-84.164	128.364	159.404	221.251	0.0001503	0.00060258	0.00013898	1276.4	2.6513e-06	5.48e-06	1293.3	353.28	2.4841e-06	4.4981e-06	411.62	138.18	118.91	41.816	3.0989e-06	52.853	0.00033741	0.00035508	9.9114e-05	1284	4.0181e-06	3.9104e-06	1300.8	358.15	4.0953e-06	3.7539e-06	415.45	141.26	121.71	42.511	3.8883e-06	53.531	228.061	8.369	12.526	-71.694	85.993	72.068	-71.460	-66.708	70.195	62.860	-67.299	-62.981	-62.319	-57.958	78.909	-58.608	-8191	255	
34565.426	1	1	0	0	0.1998	0.13595	0.11775	0.11521	0.11119	0.10312	0.16984	0.12818	0.17623	0.058034	0.17825	0.41184	0.089217	0.30897	0.1143	0.24809	-1.95	-2.3563	-1.9875	-2.5458	-2.2542	-2.1708	-2.9146	-2.5438	-2.3042	-2.3979	-2.1646	-2.5625	-2.5833	-2.1312	-2.4688	-2.2438	-63.554	263.353	259.539	-22.156	224.933	6.375	-25.410	272.036	138.268	-62.886	190.177	213.522	182.413	253.672	60.031	75.214	0.00014695	0.00044075	0.00013815	1281.7	3.2982e-06	5.8234e-06	1294	353.88	2.1087e-06	4.2614e-06	412.35	138.23	119.35	41.832	4.0964e-06	52.833	0.00033834	0.00036746	0.00010274	1287.8	4.1152e-06	4.0089e-06	1304.3	358.22	4.091e-06	3.9206e-06	416.52	141.33	121.81	42.582	4.0946e-06	53.549	224.659	-20.419	0.708	-71.517	105.391	74.789	-71.549	-66.804	62.398	78.509	-67.497	-62.800	-62.360	-57.891	68.221	-58.594	-8191	255	
34565.543	1	1	0	0	0.32125	0.4283	0.34178	0.31834	0.14751	0.15071	0.46258	0.27711	0.077392	0.054976	0.25181	0.11015	0.17617	0.21753	0.10893	0.19196	-1.5896	-2.5646	-1.95	-2.4042	-2.4667	-2.0417	-2.7208	-2.1104	-2.25	-2.4958	-2.4167	-2.4437	-2.4958	-2.0729	-2.3292	-2.3063	269.050	-79.651	28.843	227.822	127.840	38.859	201.374	274.444	-32.850	37.596	221.982	-21.584	200.728	156.656	-79.366	255.149	0.00014876	0.00053348	0.00015488	1285.8	3.1242e-06	4.2536e-06	1296.2	355.49	1.7952e-06	4.6302e-06	413.65	137.43	119.18	41.864	3.4212e-06	52.639	0.00034649	0.00036796	0.00010868	1289.9	4.0756e-06	4.1085e-06	1304.3	358.84	4.3007e-06	3.956e-06	416.81	140.9	121.61	42.594	4.2969e-06	53.479	219.522	7.613	-1.903	-71.307	88.132	60.294	-71.446	-66.862	55.626	62.290	-67.460	-62.608	-62.700	-57.871	80.951	-58.526	-8191	255	
34565.641	1	1	0	0	0.41057	0.033532	0.062264	0.2625	0.13951	0.0223	0.24013	0.19945	0.053968	0.063574	0.17367	0.067367	0.21387	0.23239	0.089356	0.18035	-1.6063	-2.4167	-2.0812	-2.5646	-2.3042	-2.1708	-2.5312	-2.3854	-2.1229	-2.5146	-2.1688	-2.4583	-2.4646	-2.2979	-2.4167	-2.3729	6.563	180.141	118.054	269.341	107.016	104.831	174.819	-78.864	-4.545	121.459	228.605	-49.638	230.147	169.497	231.226	-47.575	0.00015293	0.00053083	0.00016576	1286.3	1.9125e-06	4.9097e-06	1302.6	354.17	2.3664e-06	5.2658e-06	411.6	137.66	119.25	41.847	3.6616e-06	52.62	0.00035531	0.00037786	0.00010628	1292.4	4.2824e-06	4.1283e-06	1307.4	358.51	4.3303e-06	4.2517e-06	416.05	140.86	121.72	42.544	4.4634e-06	53.472	226.933	2.934	30.321	-71.538	106.105	54.303	-71.387	-66.943	55.210	72.401	-67.450	-62.992	-62.681	-58.033	70.749	-58.604	-8191	255	
34565.738	1	1	0	0	0.15393	0.087709	0.21198	0.1706	0.1248	0.018787	0.15881	0.22524	0.22656	0.17965	0.12789	0.29153	0.036293	0.083381	0.15735	0.31495	-1.5604	-2.5125	-2.0979	-2.3833	-2.5062	-2.3688	-2.5125	-2.3542	-1.9479	-2.5396	-2.3104	-2.3458	-2.5958	-2.2	-2.0917	-2.3833	207.066	165.695	-69.061	224.625	-36.902	38.487	-82.449	233.692	-68.191	85.189	128.899	255.491	232.213	219.109	115.351	218.637	0.00016231	0.00045349	0.00014523	1292	3.2325e-06	5.4121e-06	1300.7	355.59	3.095e-06	4.4308e-06	414.53	138.19	119.59	41.698	3.0114e-06	52.68	0.00036304	0.00039205	0.00011429	1296	4.2793e-06	4.3766e-06	1310.3	359.79	4.408e-06	4.1407e-06	417.71	141.38	122.05	42.51	4.4907e-06	53.49	225.495	-9.532	7.967	-71.495	86.796	57.103	-71.431	-66.706	79.588	70.385	-67.539	-62.664	-62.182	-57.760	76.594	-58.443	-8191	255	
34565.832	1	1	0	0	0.31658	0.084724	0.27314	0.16915	0.18739	0.11191	0.17958	0.45156	0.085313	0.1366	0.10127	0.098543	0.11099	0.15951	0.2192	0.040135	-1.5167	-2.4792	-2.275	-2.3458	-2.5021	-2.05	-2.6625	-2.5042	-2.1271	-2.5604	-2.3625	-2.2812	-2.5875	-2.225	-2.3063	-2.4521	47.955	90.144	89.404	220.448	269.002	232.080	217.292	203.638	-54.048	174.697	195.271	-82.175	267.160	90.670	170.763	-67.016	0.00017412	0.00053733	0.00014429	1291.3	2.2585e-06	4.7217e-06	1303.3	355.17	2.2176e-06	4.0631e-06	413.92	137.77	119.47	41.783	3.5866e-06	52.516	0.00036422	0.0003887	0.00010695	1298.2	4.5146e-06	4.5604e-06	1310.9	359.93	4.4048e-06	4.1519e-06	417.77	141.41	121.99	42.587	4.352e-06	53.53	223.649	12.501	2.480	-71.559	79.916	71.965	-71.481	-66.735	64.171	40.616	-67.066	-62.798	-62.407	-57.931	75.014	-58.541	-8191	255	
34565.930	1	1	0	0	0.23023	0.18867	0.075328	0.14914	0.20334	0.38565	0.07635	0.16778	0.13307	0.15712	0.14285	0.21299	0.12741	0.22726	0.094293	0.074869	-1.7563	-2.5542	-2.3208	-2.2271	-2.6792	-2.0979	-2.4021	-2.6125	-2.0812	-2.5646	-2.475	-2.0875	-2.5021	-2.2583	-2.1562	-2.5833	1.070	188.741	-68.476	-60.023	22.450	124.072	-55.074	-46.076	-39.865	76.027	206.145	185.448	205.134	233.037	108.236	97.137	0.00015906	0.00048084	0.00016434	1289.6	3.4388e-06	5.5985e-06	1301.2	356.55	3.1005e-06	3.9488e-06	414.51	138.41	119.25	41.839	4.0176e-06	52.463	0.00036358	0.00038347	0.00011076	1298.3	4.3663e-06	4.535e-06	1312.3	359.99	4.5915e-06	4.2653e-06	417.73	141.29	121.78	42.575	4.4475e-06	53.454	229.367	-6.259	12.503	-71.678	80.326	52.235	-71.494	-66.931	48.577	64.667	-67.444	-62.892	-62.498	-57.696	85.659	-58.501	-8191	255	
34566.023	1	1	0	0	0.19976	0.063757	0.19227	0.35706	0.24601	0.072909	0.30887	0.072575	0.153	0.25183	0.073464	0.31018	0.16969	0.10898	0.13722	0.1442	-1.6958	-2.4292	-2.4542	-2.2958	-2.4979	-2.2083	-2.3792	-2.6146	-1.8604	-2.1792	-2.4708	-2.35	-2.6063	-2.2396	-2.2021	-2.6917	-59.262	55.219	204.134	220.468	187.074	-38.912	242.732	186.986	96.211	7.970	76.412	178.820	-40.082	103.369	249.866	257.975	0.00015247	0.00045044	0.0001631	1294.6	3.4821e-06	5.2163e-06	1304.7	355.11	3.0482e-06	3.9713e-06	413.58	137.48	118.93	41.679	2.8341e-06	52.489	0.0003614	0.0003789	0.00010896	1298.6	4.3959e-06	4.376e-06	1311.3	359.93	4.4798e-06	4.3e-06	417.6	141.06	121.9	42.505	4.3628e-06	53.403	224.066	-1.805	4.652	-71.773	88.616	60.488	-71.337	-66.676	73.864	69.662	-67.433	-62.898	-62.341	-57.743	66.948	-58.783	-8191	255	
34566.145	1	1	0	0	0.18537	0.11406	0.18575	0.35909	0.14082	0.080431	0.11123	0.17045	0.24736	0.17752	0.26539	0.1024	0.2017	0.3618	0.066603	0.25617	-1.6562	-2.5104	-2.3708	-2.2333	-2.6167	-2.1854	-2.3063	-2.5563	-2.1646	-2.3542	-2.4688	-2.1396	-2.5438	-2.2562	-2.0938	-2.5875	155.926	5.870	-1.035	228.776	268.085	257.401	123.064	156.576	-34.550	-45.865	243.031	153.546	224.620	212.207	110.624	207.875	0.00014555	0.00052154	0.00016775	1292.2	3.0633e-06	5.9146e-06	1300	353.7	1.9133e-06	3.2777e-06	412.01	137.03	119.04	41.71	4.0249e-06	52.553	0.0003671	0.00037329	0.00010591	1297	4.4798e-06	4.2484e-06	1309.8	359.05	4.5433e-06	4.1952e-06	417.14	140.94	121.62	42.45	4.3424e-06	53.348	225.856	1.801	21.489	-71.533	82.806	66.257	-71.528	-66.862	83.325	57.387	-67.290	-62.902	-62.473	-57.922	81.819	-58.543	-8191	255	
34566.242	1	1	0	0	0.17681	0.22299	0.14271	0.39591	0.3084	0.35476	0.41681	0.14184	0.25621	0.25075	0.26414	0.096399	0.19996	0.26491	0.036921	0.29611	-1.7167	-2.3688	-2.4292	-2.3937	-2.4917	-2.3021	-2.3271	-2.525	-2.2	-2.3542	-2.6875	-2.0771	-2.5125	-2.4917	-1.9625	-2.4313	19.992	273.858	62.157	249.107	32.911	58.569	197.529	4.992	168.218	133.434	216.668	53.906	259.903	-19.323	108.392	-38.200	0.00013865	0.0005286	0.00016351	1288.7	3.224e-06	4.0082e-06	1299.1	353.79	1.7653e-06	4.0115e-06	411.59	137.46	118.91	41.756	3.4187e-06	52.367	0.00035822	0.00037995	0.00010925	1296	4.4793e-06	4.2317e-06	1308.4	359.34	4.5033e-06	3.9975e-06	416.03	140.98	121.45	42.423	4.3884e-06	53.384	225.663	-2.338	13.013	-71.560	94.581	67.849	-71.619	-66.728	49.568	61.214	-67.370	-62.887	-62.386	-58.046	88.520	-58.534	-8191	255	
34566.336	1	1	0	0	0.07246	0.135	0.14076	0.324	0.090905	0.26953	0.18229	0.055591	0.061075	0.27009	0.12112	0.15121	0.027841	0.34216	0.39616	0.12773	-1.6417	-2.3479	-2.425	-2.3854	-2.2021	-2.4146	-2.1792	-2.6729	-2.3729	-2.1854	-2.725	-2.2625	-2.5479	-2.5062	-2.2625	-2.7438	110.959	263.402	117.650	215.813	139.008	175.383	206.847	249.617	157.162	135.382	-42.889	-25.883	75.975	226.178	156.668	222.879	0.00015035	0.00051674	0.00016614	1286.2	1.1294e-06	4.3604e-06	1296.7	355.56	1.9644e-06	5.046e-06	412.96	137.53	118.52	41.729	2.8665e-06	52.704	0.000364	0.00037786	0.00011021	1293.7	4.3204e-06	4.1333e-06	1307.1	359.51	4.442e-06	4.1178e-06	416.41	140.82	121.29	42.347	4.4197e-06	53.364	225.960	15.137	14.824	-71.604	93.212	62.863	-71.417	-66.877	56.686	74.666	-67.295	-62.748	-62.337	-57.976	67.372	-58.748	-8191	255	
34566.434	1	1	0	0	0.20643	0.29738	0.20596	0.16976	0.17141	0.063991	0.22151	0.18108	0.076335	0.24326	0.08355	0.15522	0.19905	0.12761	0.17413	0.19411	-1.7333	-2.0417	-2.6188	-2.3187	-2.4271	-2.5125	-2.25	-2.6458	-2.1854	-2.0979	-2.6688	-2.3292	-2.3563	-2.4958	-2.1542	-2.5062	67.914	124.917	70.514	230.031	99.018	-67.400	213.585	256.789	243.249	121.982	233.865	26.114	258.668	153.074	32.612	269.217	0.00015281	0.00050721	0.000134	1290.9	2.8287e-06	5.1391e-06	1300.7	355.17	1.6852e-06	4.1428e-06	413.35	137.65	118.7	41.531	3.08e-06	52.371	0.00036589	0.00038319	0.00010729	1294.9	4.2513e-06	4.1618e-06	1307.3	359.31	4.2668e-06	4.2913e-06	416.75	140.85	121.27	42.394	4.3276e-06	53.277	226.444	-7.906	19.837	-71.479	59.561	64.699	-71.363	-66.874	68.454	67.323	-67.241	-62.835	-62.370	-58.138	42.563	-58.565	-8191	255	
34566.555	1	1	0	0	0.11397	0.14643	0.13481	0.31372	0.23265	0.12303	0.34794	0.25433	0.17103	0.1374	0.2009	0.27246	0.18977	0.078871	0.19003	0.37538	-2.0854	-2.0479	-2.5875	-2.3854	-2.275	-2.5312	-2.2083	-2.4583	-2.3833	-2.0729	-2.675	-2.3458	-2.3958	-2.6292	-2.0271	-2.5083	126.338	43.216	242.952	246.858	70.972	-51.045	217.920	241.029	-69.641	-2.260	238.355	-59.138	167.041	219.609	150.144	-64.695	0.0001564	0.0004976	0.00011049	1285.7	2.4828e-06	5.305e-06	1295.3	355.85	2.2129e-06	4.5089e-06	412.01	137.61	118.79	41.635	4.0569e-06	52.583	0.00035433	0.00038451	0.00010346	1294	4.3199e-06	4.2076e-06	1307.9	359.84	4.3982e-06	4.2188e-06	416.4	140.85	121.44	42.382	4.5532e-06	53.322	226.984	16.244	8.464	-71.365	82.265	64.813	-71.397	-66.879	56.672	65.407	-67.385	-62.764	-62.590	-57.965	62.504	-58.507	-8191	255	
34566.625	1	1	0	0	0.21064	0.075305	0.093705	0.30686	0.10589	0.1463	0.086837	0.21794	0.31417	0.075561	0.22669	0.22484	0.19422	0.13989	0.090902	0.12226	-2.05	-2.1688	-2.6188	-2.3937	-2.0104	-2.7229	-2.1042	-2.4583	-2.3312	-2.2458	-2.2979	-2.3042	-2.1896	-2.7292	-2.1542	-2.5875	47.262	-70.676	255.942	235.515	253.596	-74.410	259.796	208.169	153.256	189.460	-65.567	260.829	-46.984	260.837	140.413	-63.161	0.00015328	0.00044684	0.00015327	1290.1	2.2916e-06	4.5829e-06	1300.5	354.71	2.2454e-06	4.1179e-06	411.91	137.22	118.82	41.629	5.0821e-06	52.432	0.00035286	0.00038908	0.00010641	1296.1	4.2286e-06	3.9692e-06	1308.7	358.62	4.1731e-06	3.9802e-06	415.19	140.48	121.32	42.305	4.3867e-06	53.279	222.452	6.697	8.216	-71.389	99.588	69.822	-71.438	-66.724	81.048	71.536	-67.352	-62.893	-62.607	-57.774	65.939	-58.570	-8191	255	
34566.723	1	1	0	0	0.16539	0.15268	0.14713	0.27416	0.008272	0.1918	0.26377	0.27673	0.22127	0.34633	0.44105	0.19149	0.4121	0.34524	0.061583	0.23025	-2.0958	-2.0938	-2.4062	-2.4458	-2.0646	-2.4833	-2.2667	-2.3625	-2.3854	-2.0417	-2.5125	-2.45	-2.3333	-2.6521	-2.3396	-2.4292	131.630	15.162	232.152	237.662	89.969	200.470	179.047	248.036	146.327	-40.135	268.096	244.649	191.252	258.222	38.389	223.242	0.00013881	0.00044922	0.00013712	1285.3	2.71e-06	4.5986e-06	1293.6	353.53	1.8736e-06	4.9249e-06	410.25	136.71	117.89	41.429	3.7983e-06	52.282	0.00034197	0.00036394	9.8108e-05	1288.8	4.0999e-06	3.7278e-06	1300.1	357.83	4.1337e-06	4.0149e-06	413.98	140.12	120.76	42.218	4.0281e-06	53.143	222.038	4.397	13.498	-71.539	71.815	63.142	-71.454	-66.581	59.433	62.910	-67.122	-62.782	-62.515	-57.841	65.888	-58.513	-8191	255	
34566.816	1	1	0	0	0.11475	0.13933	0.13277	0.26318	0.14373	0.16603	0.24353	0.37633	0.16756	0.18071	0.16719	0.018453	0.066207	0.17062	0.020652	0.14048	-2.0187	-2.0875	-2.4417	-2.5708	-2.1042	-2.7771	-2.4354	-2.5312	-2.3792	-2.4792	-2.3458	-2.4104	-2.2333	-2.6333	-2.2667	-2.1542	12.317	118.934	148.495	257.449	207.448	178.326	259.656	167.108	208.352	212.457	-56.016	252.377	-12.759	-75.455	54.579	245.442	0.00014473	0.000488	0.00016173	1279.4	2.942e-06	3.7701e-06	1285.5	352.68	2.5003e-06	5.6903e-06	410.52	136.87	118.26	41.42	2.8056e-06	52.478	0.00034496	0.00037269	9.8974e-05	1284.6	4.3194e-06	3.9544e-06	1297	357.37	4.2826e-06	4.1054e-06	414.24	140.35	121.1	42.246	4.2662e-06	53.206	220.891	0.393	12.596	-71.490	82.203	72.056	-71.371	-66.814	64.682	65.688	-67.284	-62.754	-62.270	-57.831	79.236	-58.353	-8191	255	
34566.914	1	1	0	0	0.23674	0.09424	0.20047	0.21196	0.067934	0.075461	0.16386	0.042096	0.11868	0.063909	0.29046	0.02806	0.29053	0.12914	0.1994	0.063739	-2.075	-2.1146	-2.1521	-2.6312	-2.05	-2.5021	-2.4542	-2.2875	-2.3479	-2.125	-2.5458	-2.4333	-2.1104	-2.6083	-2.1958	-2.1333	65.224	83.800	140.714	197.476	177.127	126.638	272.159	76.505	23.085	11.949	206.090	208.851	-19.294	-14.335	96.878	-39.195	0.0001479	0.00059628	0.00015599	1285.7	1.9987e-06	6.2719e-06	1295.3	353.95	2.5129e-06	3.2328e-06	410.42	137.26	118.52	41.441	4.7464e-06	52.269	0.00035244	0.00037852	0.00010319	1289.9	4.2772e-06	4.1296e-06	1304.3	358.48	4.2908e-06	4.1785e-06	415.85	140.63	121.27	42.298	4.3878e-06	53.25	224.060	14.686	9.810	-71.580	82.953	75.932	-71.314	-66.761	58.158	69.154	-67.263	-62.963	-62.191	-57.972	72.243	-58.694	-8191	255	
34567.031	1	1	0	0	0.20211	0.31194	0.22701	0.29652	0.1508	0.13232	0.23725	0.06154	0.088996	0.24211	0.16013	0.13878	0.20054	0.19402	0.26696	0.084835	-2.1063	-2.1375	-2.3042	-2.65	-2.0875	-2.6542	-2.6188	-2.3438	-2.8396	-2.2208	-2.3875	-2.5438	-2.1542	-2.5292	-2.2958	-2.2771	-32.826	253.232	-0.914	264.065	52.580	132.810	195.464	-5.520	85.702	230.475	195.134	-26.612	261.924	185.198	-57.660	199.159	0.0001481	0.00060997	0.00014685	1287	2.0484e-06	4.6363e-06	1297.1	353.65	2.5645e-06	5.9876e-06	412.95	137.27	119.02	41.676	2.9844e-06	52.302	0.00034612	0.0003887	0.00010137	1294.2	4.4434e-06	4.2299e-06	1307.7	358.89	4.2815e-06	4.1847e-06	416.7	140.65	121.48	42.375	4.1742e-06	53.239	222.089	4.618	11.778	-71.637	89.705	44.990	-71.344	-66.766	58.282	73.413	-67.514	-62.812	-62.498	-57.940	78.029	-58.552	-8191	255	
34567.129	1	1	0	0	0.36142	0.17284	0.04112	0.17973	0.10419	0.25158	0.21974	0.3106	0.1435	0.070506	0.23229	0.24402	0.18805	0.10087	0.07037	0.25789	-2.1521	-2.275	-2.3396	-2.6937	-2.0729	-2.475	-2.4083	-2.0687	-2.4354	-2.2083	-2.4521	-2.575	-2.3167	-2.4583	-2.575	-2.1396	167.590	-26.978	191.924	-50.728	255.539	-73.490	251.134	235.505	250.555	4.450	-82.066	170.493	261.537	-53.063	88.452	252.155	0.00014629	0.00051014	0.00015327	1289.8	3.2105e-06	3.7096e-06	1298	355.09	1.5416e-06	4.4583e-06	411.63	137.21	117.96	41.537	3.6854e-06	52.517	0.00035751	0.00037615	0.00010634	1294.4	4.4597e-06	4.0745e-06	1306.9	359.28	4.3221e-06	4.0905e-06	415.89	140.62	121.2	42.354	4.4214e-06	53.342	219.261	1.187	17.860	-71.532	103.007	77.440	-71.585	-66.851	57.967	72.025	-67.488	-62.903	-62.609	-57.781	83.046	-58.649	-8191	255	
34567.223	1	1	0	0	0.2067	0.21046	0.11023	0.38844	0.13284	0.27443	0.19973	0.13861	0.32863	0.11157	0.2259	0.20145	0.11196	0.11098	0.55423	0.31023	-1.9458	-2.1417	-2.1771	-2.8833	-2.0812	-2.3479	-2.7333	-2.0792	-2.4167	-2.4146	-2.1729	-2.5021	-2.4938	-2.3604	-2.4708	-2.3917	-47.556	239.620	-56.259	261.304	260.135	81.833	163.381	-23.593	246.837	76.735	256.438	168.044	239.746	-46.106	150.492	181.230	0.00015362	0.00058652	0.00017384	1291.5	3.6009e-06	4.7965e-06	1300.7	354.51	2.0391e-06	5.1376e-06	414.25	137.79	118.99	41.739	3.5974e-06	52.485	0.00035712	0.0003981	0.00011014	1296.5	4.3985e-06	4.1525e-06	1309.1	359.25	4.2689e-06	4.2541e-06	417.31	140.83	121.39	42.424	4.3128e-06	53.34	223.985	-6.867	14.023	-71.577	83.631	85.618	-71.663	-66.778	76.340	64.167	-67.609	-62.750	-62.456	-57.892	84.445	-58.518	-8191	255	
34567.320	1	1	0	0	0.14754	0.098415	0.045624	0.38103	0.24234	0.15557	0.077942	0.26073	0.076857	0.16147	0.18827	0.22824	0.33729	0.19606	0.20967	0.11383	-1.9979	-2.1937	-2.0812	-2.6021	-2.1188	-2.1708	-2.5625	-2.0812	-2.5125	-2.5958	-2.3	-2.6979	-2.3729	-2.3042	-2.4708	-2.2333	2.292	-28.598	-32.958	267.683	24.915	271.045	-68.384	98.450	204.376	-54.193	-75.788	-21.414	-59.476	193.807	-26.052	102.785	0.00015131	0.00031911	0.00014971	1295.2	2.7333e-06	4.701e-06	1304.2	354.76	2.2063e-06	4.5133e-06	412.81	137.41	118.72	41.633	3.3085e-06	52.477	0.00035554	0.00036185	0.00010859	1297.5	4.3051e-06	4.059e-06	1310.9	359.34	4.2585e-06	4.2771e-06	417.02	140.74	121.58	42.384	4.2787e-06	53.264	225.961	4.677	5.350	-71.535	101.070	58.180	-71.246	-66.924	69.284	59.389	-67.434	-62.855	-62.476	-57.943	83.965	-58.644	-8191	255	
34567.418	1	1	0	0	0.025273	0.12434	0.048375	0.19348	0.2795	0.051139	0.18862	0.14037	0.18952	0.15527	0.16066	0.2793	0.24979	0.20478	0.32593	0.2353	-1.9958	-2.3625	-2.1	-2.5812	-2.1896	-2.3354	-2.8438	-2.2313	-2.4646	-2.4542	-2.1979	-2.5667	-2.3208	-2.2604	-2.5375	-2.3	55.799	120.878	-55.229	123.456	74.395	172.827	218.081	222.884	180.871	-71.653	268.447	268.869	-52.594	264.587	141.541	273.352	0.00014932	0.00053243	0.00019679	1292.4	2.8738e-06	4.5507e-06	1305	355.39	2.7505e-06	5.9764e-06	413.76	137.65	119.48	41.761	3.0334e-06	52.571	0.00035334	0.00038578	0.00011404	1298.2	4.5188e-06	4.4818e-06	1312.5	359.75	4.563e-06	4.3453e-06	417.63	140.86	121.85	42.429	4.4708e-06	53.351	225.740	15.961	7.961	-71.550	92.486	68.058	-71.579	-66.981	76.397	66.153	-67.353	-62.770	-62.520	-57.925	86.032	-58.712	-8191	255	
34567.512	1	1	0	0	0.15247	0.32033	0.16913	0.30635	0.1102	0.16939	0.036992	0.246	0.29805	0.12862	0.15917	0.32165	0.13694	0.088593	0.069843	0.085315	-2.0021	-2.4688	-2.0271	-2.7	-2.3833	-2.1604	-2.7583	-2.175	-2.1937	-2.5021	-2.1813	-2.6771	-2.6688	-2.3854	-2.6167	-2.4	49.331	262.518	38.514	140.400	-40.783	111.811	159.484	245.562	42.435	92.016	238.927	175.266	15.795	8.528	194.518	-38.538	0.00014805	0.00044246	0.00012652	1297.4	2.1698e-06	5.5767e-06	1306.7	356.12	2.174e-06	4.5763e-06	412.49	137.05	118.85	41.731	4.6661e-06	52.433	0.00035464	0.00040421	0.00011398	1301.5	4.3721e-06	4.2868e-06	1313.8	360.45	4.5636e-06	4.2932e-06	417.03	140.85	121.69	42.423	4.5828e-06	53.308	218.298	-6.669	9.842	-71.617	86.896	45.936	-71.433	-66.671	56.330	60.203	-67.478	-63.115	-62.300	-58.014	63.318	-58.505	-8191	255	
34567.633	1	1	0	0	0.17525	0.11697	0.072346	0.29833	0.044703	0.1709	0.13386	0.33002	0.076413	0.081424	0.10686	0.096887	0.16234	0.066423	0.11115	0.15503	-1.8563	-2.55	-2.0146	-2.6917	-2.4042	-2.0687	-2.6458	-2.3646	-2.1792	-2.4938	-2.2562	-2.4083	-2.55	-2.2375	-2.4354	-2.3333	121.840	245.391	221.576	242.618	-44.730	173.179	214.635	240.838	-45.126	73.253	157.843	227.232	212.684	211.545	-20.823	232.667	0.00015593	0.00039532	0.00014502	1298.7	1.7875e-06	5.9511e-06	1303.8	356.04	2.2899e-06	4.5241e-06	414.17	138.51	118.99	41.543	4.6592e-06	52.438	0.00035667	0.00041438	0.00011497	1303	4.6375e-06	4.4335e-06	1315.1	360.61	4.6989e-06	4.4215e-06	417.65	141.09	121.73	42.351	4.4498e-06	53.344	222.021	7.893	13.468	-71.518	73.410	78.806	-71.602	-66.940	69.006	56.464	-67.519	-63.027	-62.545	-57.815	65.479	-58.604	-8191	255	
34567.727	1	1	0	0	0.050201	0.19798	0.20272	0.58229	0.069678	0.15438	0.23924	0.56713	0.10226	0.14948	0.18535	0.11117	0.19608	0.27908	0.15003	0.03904	-1.775	-2.5563	-2.1396	-2.5062	-2.3812	-1.9104	-2.7438	-2.425	-2.2958	-2.5	-2.2958	-2.3583	-2.4771	-2.2708	-2.4792	-2.4146	116.531	132.762	110.928	240.339	178.238	-50.059	224.963	208.412	17.930	-62.386	269.056	9.183	223.992	-71.061	1.412	260.802	0.00013891	0.00050458	0.0001663	1296.4	3.2561e-06	5.1312e-06	1304.5	356.74	2.8435e-06	5.4891e-06	412.92	138.07	118.53	41.711	2.7605e-06	52.703	0.00038269	0.00039123	0.00011012	1302.7	4.5336e-06	4.6644e-06	1316	360.95	4.5822e-06	4.4029e-06	417.73	141.21	121.7	42.437	4.4197e-06	53.47	223.838	0.140	8.290	-71.690	97.500	66.857	-71.500	-66.854	61.590	60.846	-67.425	-62.744	-62.346	-58.070	74.871	-58.529	-8191	255	
34567.801	1	1	0	0	0.12796	0.14886	0.073253	0.30329	0.075565	0.3733	0.16611	0.36705	0.15836	0.22521	0.19266	0.29695	0.31229	0.093853	0.20427	0.02821	-1.7208	-2.6542	-2.3312	-2.7229	-2.5896	-2.1229	-2.6083	-2.4938	-2.1063	-2.3896	-2.2354	-2.4667	-2.5979	-2.2958	-2.4917	-2.7021	99.705	247.146	-74.933	234.332	-20.410	131.932	252.439	193.673	89.564	-12.503	259.516	257.934	235.222	59.787	55.165	95.828	0.00014702	0.00041207	0.00017883	1297.1	2.7454e-06	4.2894e-06	1305.6	355.95	2.046e-06	4.2264e-06	412.4	137.13	119.45	41.721	3.5882e-06	52.482	0.00037522	0.00040773	0.00011393	1303.6	4.6824e-06	4.5666e-06	1314.2	360.5	4.7963e-06	4.2988e-06	417.36	141.03	121.86	42.447	4.4038e-06	53.379	224.375	13.307	12.484	-71.675	69.189	69.984	-71.499	-66.927	45.111	61.956	-67.450	-62.780	-62.329	-57.779	63.383	-58.837	-8191	255	
34567.922	1	1	0	0	0.10224	0.20658	0.14167	0.18727	0.25796	0.19446	0.11895	0.1834	0.18568	0.12646	0.11543	0.30882	0.12531	0.21173	0.10604	0.27907	-1.6562	-2.425	-2.4188	-2.5458	-2.5938	-2.1208	-2.5417	-2.5938	-2.375	-2.4771	-2.4708	-2.1063	-2.5354	-2.4021	-2.3375	-2.5771	-58.594	28.183	-8.827	-76.351	154.065	207.670	215.580	203.193	-38.946	51.271	-40.567	-41.707	-30.420	29.075	155.236	-62.138	0.00014349	0.00060126	0.0001498	1297.7	2.7574e-06	5.2513e-06	1308	357.84	2.4571e-06	5.094e-06	413.75	137.93	119.65	41.619	3.9132e-06	52.586	0.00037655	0.00040316	0.00011107	1302.2	4.6191e-06	4.6409e-06	1316.6	361.26	4.7766e-06	4.2653e-06	418.31	141.06	122.06	42.448	4.4901e-06	53.457	223.206	1.262	7.788	-71.591	76.763	65.863	-71.504	-66.830	68.207	56.008	-67.541	-63.041	-62.507	-57.622	83.399	-58.345	-8191	255	
34568.016	1	1	0	0	0.24768	0.12645	0.088295	0.31737	0.1144	0.059501	0.15883	0.29622	0.18798	0.26926	0.19976	0.31369	0.34814	0.22309	0.022195	0.096153	-1.6333	-2.325	-2.2792	-2.4458	-2.525	-2.2812	-2.5271	-2.6375	-2.1458	-2.5021	-2.5375	-2.2417	-2.6021	-2.3625	-2.3625	-2.6542	74.684	68.177	-60.771	206.272	181.596	59.776	-27.397	260.724	268.026	72.462	263.269	168.358	-63.704	118.243	90.999	213.360	0.00014494	0.00045777	0.00011295	1304.1	2.4544e-06	3.9404e-06	1305.8	357.18	2.0319e-06	5.5043e-06	413.91	138.09	119.42	41.712	3.6164e-06	52.575	0.00036744	0.00041691	0.00011591	1308.8	4.6908e-06	4.7078e-06	1319	361.57	4.8089e-06	4.274e-06	418.41	141.41	122.11	42.47	4.6356e-06	53.459	218.079	7.797	20.350	-71.544	88.660	63.838	-71.404	-66.908	60.309	67.110	-67.315	-62.811	-62.622	-57.847	65.535	-58.382	-8191	255	
34568.113	1	1	0	0	0.27433	0.24085	0.26839	0.072261	0.15075	0.19483	0.19549	0.20311	0.1576	0.2044	0.1864	0.17806	0.37421	0.27527	0.25597	0.16677	-1.7104	-2.5021	-2.3042	-2.2771	-2.5125	-2.2812	-2.4813	-2.5104	-2.0646	-2.3438	-2.4771	-2.3479	-2.6375	-2.2208	-2.2229	-2.6771	201.548	187.358	84.942	258.807	59.448	37.055	157.259	-43.505	-2.857	228.869	254.447	-38.431	214.420	198.631	-11.622	227.093	0.00014337	0.00045737	0.00010814	1301.3	2.8857e-06	5.4846e-06	1312.9	357	2.0223e-06	3.622e-06	415.64	138.67	119.22	41.82	3.4435e-06	52.578	0.00037894	0.00038715	0.0001132	1308.5	4.5062e-06	4.5499e-06	1321.4	360.93	4.827e-06	4.2926e-06	418.87	141.48	121.88	42.55	4.6453e-06	53.529	223.461	15.623	12.502	-71.628	86.816	52.797	-71.542	-66.802	49.394	52.508	-67.297	-62.760	-62.601	-57.957	60.872	-58.610	-8191	255	
34568.211	1	1	0	0	0.039707	0.071734	0.064072	0.1668	0.16232	0.11085	0.1246	0.10181	0.19237	0.21537	0.20097	0.044524	0.25364	0.043698	0.15261	0.05385	-1.7521	-2.25	-2.4583	-2.3208	-2.6125	-2.3292	-2.4062	-2.7458	-2.225	-2.3896	-2.7604	-2.1646	-2.6479	-2.3833	-2.1437	-2.6833	262.073	93.004	226.051	229.664	59.244	220.076	156.373	61.731	268.655	130.308	252.926	201.559	238.205	222.105	8.872	93.987	0.00015345	0.00044356	0.00016454	1299.1	2.9125e-06	4.9054e-06	1310.4	357.59	1.9552e-06	4.8338e-06	415.02	138.08	119	41.76	2.309e-06	52.527	0.00037711	0.00039398	0.00011732	1306.4	4.4824e-06	4.4855e-06	1317.6	361.31	4.5554e-06	4.4339e-06	418.21	141.37	121.99	42.483	4.6061e-06	53.42	226.663	5.680	15.987	-71.597	80.269	59.758	-71.324	-66.907	81.365	63.260	-67.445	-62.817	-62.407	-57.957	63.239	-58.551	-8191	255	
34568.328	1	1	0	0	0.11113	0.14495	0.31154	0.18281	0.17581	0.15937	0.17437	0.18132	0.2619	0.17288	0.38861	0.37657	0.19835	0.32056	0.29312	0.1104	-1.5604	-2.4562	-2.6625	-2.4229	-2.2938	-2.3917	-2.425	-2.6729	-2.2396	-2.3187	-2.6771	-2.1604	-2.5312	-2.5479	-2.0354	-2.7167	200.178	226.304	79.636	249.203	5.135	-36.599	273.275	249.296	-0.852	142.367	203.434	230.980	237.838	253.598	266.234	143.981	0.0001324	0.00036653	0.00015499	1300.9	2.5287e-06	3.6944e-06	1308.9	356.66	2.517e-06	4.4964e-06	414.24	137.67	119.05	41.682	3.1448e-06	52.329	0.00036307	0.00040883	0.00011861	1306.3	4.4318e-06	4.4088e-06	1318.3	361.93	4.5948e-06	4.556e-06	418.47	141.3	121.75	42.421	4.5538e-06	53.35	220.204	-13.158	-7.625	-71.612	64.477	72.332	-71.488	-66.773	57.547	59.668	-67.265	-62.799	-62.484	-58.044	75.492	-58.556	-8191	255	
34568.426	1	1	0	0	0.31021	0.15573	0.12724	0.34094	0.14816	0.15469	0.55956	0.026889	0.32322	0.066953	0.15528	0.095728	0.16991	0.16004	0.17105	0.14163	-1.8125	-2.1229	-2.6667	-2.2771	-2.3771	-2.4917	-2.4813	-2.6667	-2.2604	-2.125	-2.7542	-2.5042	-2.4792	-2.5875	-2.0396	-2.3458	171.126	54.279	273.926	170.377	187.987	198.506	196.900	59.795	-78.888	-69.488	-20.547	155.119	242.256	62.850	-76.832	188.422	0.00015228	0.00055434	0.00015612	1299.7	2.3834e-06	4.417e-06	1305.9	357.19	2.2856e-06	5.0593e-06	415.68	137.97	119.31	41.5	4.1291e-06	52.401	0.00036919	0.0004146	0.00010989	1305.9	4.4808e-06	4.4663e-06	1316.2	361.56	4.5647e-06	4.5672e-06	418.29	141.12	121.94	42.371	4.6447e-06	53.395	219.865	9.079	21.975	-71.658	92.719	55.185	-71.542	-66.751	59.296	49.606	-67.608	-62.825	-62.458	-57.943	84.055	-58.773	-8191	255	
34568.496	1	1	0	0	0.052211	0.069935	0.24567	0.31482	0.17297	0.20681	0.11767	0.10799	0.097079	0.21836	0.081343	0.018759	0.20159	0.13113	0.060422	0.081547	-1.9083	-2.1	-2.6646	-2.4292	-2.2062	-2.4771	-2.3396	-2.6542	-2.4771	-2.2792	-2.7229	-2.2417	-2.3563	-2.5271	-2.3021	-2.5563	-62.989	228.868	103.772	249.658	129.297	-82.256	264.228	130.932	212.238	247.594	99.329	10.928	-50.242	109.560	-70.000	114.079	0.00014186	0.00051612	0.00014066	1300.4	2.6462e-06	4.2635e-06	1304.1	356.5	1.4563e-06	3.346e-06	413.91	137.43	119.69	41.784	3.4305e-06	52.432	0.00036713	0.00041504	0.0001085	1305.7	4.3669e-06	4.358e-06	1315.6	360.9	4.5493e-06	4.4072e-06	417.64	141.08	121.91	42.426	4.626e-06	53.36	223.972	-1.029	1.853	-71.522	96.777	52.707	-71.547	-66.861	68.141	60.186	-67.324	-62.795	-62.596	-58.100	79.382	-58.503	-8191	255	
34568.594	1	1	0	0	0.078551	0.15291	0.22345	0.21465	0.24023	0.18478	0.093986	0.0279	0.42216	0.15033	0.20084	0.23565	0.22282	0.17943	0.14614	0.22708	-1.7583	-2.0021	-2.6167	-2.4521	-2.4208	-2.5687	-2.2896	-2.5271	-2.2917	-2.3104	-2.8375	-2.3937	-2.3312	-2.4854	-2.0896	-2.5083	260.143	148.005	192.889	247.987	246.114	-72.064	255.980	188.839	6.975	120.367	150.722	38.978	241.158	221.786	231.003	274.882	0.00014101	0.00052661	0.00014068	1297.8	2.4307e-06	5.5673e-06	1301.3	355.61	3.1086e-06	5.9003e-06	414.1	136.98	119.1	41.499	3.0637e-06	52.522	0.00036487	0.0004036	0.00011074	1303.8	4.3806e-06	4.3691e-06	1314.3	361.07	4.4962e-06	4.3198e-06	417.69	140.91	121.68	42.402	4.5538e-06	53.359	223.787	3.184	22.635	-71.503	106.679	61.510	-71.637	-66.605	59.232	65.287	-67.465	-63.070	-62.385	-58.016	76.040	-58.456	-8191	255	
34568.711	1	1	0	0	0.047246	0.15097	0.11871	0.26558	0.32691	0.12778	0.25016	0.069289	0.28706	0.21098	0.0461	0.12035	0.085405	0.057351	0.083195	0.17651	-1.9917	-2.1042	-2.4625	-2.3063	-2.375	-2.7854	-2.4604	-2.4604	-2.3771	-2.0583	-2.7687	-2.45	-2.3208	-2.7104	-2.225	-2.5083	148.899	192.978	21.708	219.048	-0.118	181.593	205.748	170.991	12.691	61.433	64.333	48.447	-11.634	274.461	245.805	17.484	0.00014625	0.00039668	0.00012712	1297.2	2.2588e-06	3.2905e-06	1302.8	355.75	3.1957e-06	5.0762e-06	414.67	137.64	118.86	41.574	3.4869e-06	52.749	0.00036735	0.00040443	0.00010504	1302.6	4.3584e-06	4.1587e-06	1314.1	360.53	4.6189e-06	4.4537e-06	417.52	140.99	121.87	42.419	4.3111e-06	53.408	225.586	6.303	4.162	-71.559	106.367	73.046	-71.528	-66.699	52.555	69.045	-67.251	-62.973	-62.525	-57.905	94.383	-58.653	-8191	255	
34568.809	1	1	0	0	0.19637	0.18833	0.33549	0.22008	0.24109	0.12384	0.19957	0.12208	0.1288	0.22403	0.27951	0.37054	0.34407	0.087541	0.21985	0.16861	-1.9604	-2.1729	-2.5833	-2.4958	-2.0771	-2.7125	-2.4542	-2.4792	-2.5333	-2.1396	-2.525	-2.4562	-2.1958	-2.7229	-2.2854	-2.2646	168.769	-64.721	96.370	251.750	23.460	101.464	264.804	-27.356	18.464	123.404	264.965	182.460	221.344	1.371	-36.095	124.827	0.0001624	0.00056711	0.00012676	1297.7	2.4725e-06	4.8431e-06	1303.8	355.8	2.1301e-06	5.0732e-06	413.66	137.55	119.28	41.532	3.8352e-06	52.45	0.00036642	0.00040811	0.00010977	1302.8	4.6734e-06	4.2899e-06	1313.6	360.74	4.6841e-06	4.4345e-06	417.14	140.9	121.85	42.395	4.4685e-06	53.35	220.189	16.462	-3.120	-71.486	85.402	69.325	-71.693	-66.920	62.681	47.046	-67.448	-62.935	-62.456	-57.844	67.365	-58.686	-8191	255	
34568.906	1	1	0	0	0.079982	0.0945	0.22049	0.18611	0.049902	0.18516	0.3421	0.14363	0.095294	0.12907	0.24358	0.32878	0.23907	0.12342	0.14243	0.11257	-2.0917	-1.9917	-2.3438	-2.5979	-2.05	-2.5417	-2.3396	-2.1833	-2.5167	-2.1312	-2.6312	-2.575	-2.1125	-2.6521	-2.3812	-2.1167	180.113	211.189	94.512	258.232	141.870	227.107	244.668	256.290	-9.198	163.658	-23.767	-54.892	156.615	193.005	59.319	192.047	0.00013527	0.00050662	0.00012673	1294.5	2.2201e-06	6.5101e-06	1305.6	355.85	1.9603e-06	4.3872e-06	413.55	137.96	118.84	41.676	2.9299e-06	52.597	0.00036716	0.0003887	0.00011048	1301.1	4.5774e-06	4.379e-06	1315.1	360.7	4.7142e-06	4.442e-06	417.3	140.85	121.61	42.345	4.5367e-06	53.397	225.514	3.166	11.197	-71.530	55.842	63.455	-71.585	-66.824	119.600	74.508	-67.578	-62.957	-62.541	-57.875	72.735	-58.716	-8191	255	
34569.023	1	1	0	0	0.060548	0.21159	0.14327	0.37233	0.076214	0.17737	0.15736	0.34722	0.26183	0.089461	0.039105	0.19646	0.024416	0.24707	0.014474	0.24563	-2.225	-2.1542	-2.2812	-2.6729	-2.2708	-2.6354	-2.5167	-2.3063	-2.6125	-2.1917	-2.6063	-2.5458	-2.1021	-2.6979	-2.3271	-2.0354	210.336	-18.523	210.673	245.788	-45.302	-56.320	254.653	224.872	121.850	30.062	234.126	-64.642	163.868	-52.985	-73.822	236.915	0.00014539	0.00054814	0.00016929	1292.6	2.9463e-06	3.5334e-06	1302	356.33	1.4896e-06	6.3399e-06	414.94	137.66	119.18	41.58	2.5105e-06	52.39	0.00037	0.00041009	0.00011249	1301.1	4.5431e-06	4.1562e-06	1312.6	360.83	4.4519e-06	4.3824e-06	418.24	140.89	121.77	42.405	4.4663e-06	53.278	222.767	-5.742	22.279	-71.742	89.968	71.226	-71.588	-66.748	70.181	52.920	-67.513	-62.720	-62.334	-57.879	62.651	-58.330	-8191	255	
34569.098	1	1	0	0	0.32246	0.20976	0.11652	0.026864	0.13956	0.085313	0.20079	0.1138	0.10872	0.17544	0.2788	0.095334	0.12887	0.1435	0.30863	0.13788	-2.0917	-2.2479	-2.1188	-2.7729	-2.1167	-2.5292	-2.6479	-2.175	-2.7167	-2.2062	-2.4229	-2.6104	-2.2479	-2.5687	-2.5521	-2.4104	-5.612	249.994	-75.835	-53.620	137.474	258.691	158.818	89.055	-75.520	35.365	185.225	203.084	272.231	250.996	197.479	177.249	0.00015449	0.00048961	0.00017008	1292	2.8641e-06	4.3157e-06	1303	355.18	2.5941e-06	4.8937e-06	414.88	137.76	119.21	41.664	2.5575e-06	52.454	0.00035808	0.00040019	0.00011286	1297.7	4.3458e-06	4.2138e-06	1310.8	360.11	4.3133e-06	4.3688e-06	417.48	140.96	121.73	42.42	4.4032e-06	53.315	220.581	-7.516	11.676	-71.667	87.500	69.973	-71.446	-66.812	78.659	61.261	-67.331	-62.687	-62.498	-57.685	73.623	-58.539	-8191	255	
34569.191	1	1	0	0	0.11353	0.054561	0.10977	0.085329	0.072793	0.19145	0.20577	0.10369	0.18388	0.011364	0.12863	0.30894	0.10754	0.2746	0.30176	0.30221	-1.9813	-2.2479	-2.3521	-2.6458	-2.2375	-2.4646	-2.7083	-2.1521	-2.65	-2.4375	-2.2625	-2.3625	-1.9729	-2.425	-2.7062	-2.3125	171.125	274.258	202.602	73.356	49.918	0.500	164.380	255.837	229.112	245.503	214.188	241.041	187.162	-25.245	21.419	240.921	0.00015418	0.00053346	9.8206e-05	1291.6	3.1683e-06	5.1939e-06	1304.1	357.71	2.474e-06	4.2411e-06	413.03	137.4	119.08	41.578	3.0669e-06	52.574	0.00035757	0.00040778	0.00010913	1298.9	4.3363e-06	4.2169e-06	1311.4	361.05	4.4278e-06	4.2895e-06	417.22	140.63	121.66	42.401	4.3731e-06	53.355	227.590	4.661	25.152	-71.486	94.554	54.569	-71.497	-66.770	42.400	76.638	-67.385	-63.037	-62.618	-57.943	64.343	-58.511	-8191	255	
34569.312	1	1	0	0	0.16544	0.093866	0.16708	0.52686	0.14815	0.29151	0.38559	0.34613	0.1755	0.29797	0.30872	0.18371	0.065005	0.15491	0.20834	0.1235	-2.0479	-2.2687	-2.1792	-2.7271	-2.2479	-2.3583	-2.5729	-2.2146	-2.5417	-2.475	-2.2792	-2.7458	-2.3229	-2.2521	-2.5146	-2.3667	97.506	20.811	141.752	-75.143	27.782	249.538	195.182	187.079	25.140	-56.918	-16.372	264.675	-34.194	46.085	136.568	258.814	0.00016473	0.00050498	0.00019196	1288.7	2.8139e-06	5.0771e-06	1299.6	355.65	1.2777e-06	4.4705e-06	412.08	137.41	118.86	41.471	3.338e-06	52.466	0.00034905	0.00039497	0.00011004	1298	4.2893e-06	4.2534e-06	1308.4	359.99	4.2465e-06	4.393e-06	416.36	141.06	121.51	42.352	4.1781e-06	53.266	225.326	12.908	12.489	-71.554	87.733	62.018	-71.516	-66.848	64.610	54.692	-67.263	-63.023	-62.400	-57.846	75.241	-58.556	-8191	255	
34569.410	1	1	0	0	0.15843	0.14448	0.10632	0.29764	0.2875	0.18477	0.34946	0.028958	0.22006	0.16931	0.2286	0.14662	0.063428	0.11283	0.10755	0.20628	-2.0083	-2.2333	-2.1667	-2.7104	-2.2667	-2.3604	-2.7708	-2.1604	-2.3292	-2.3271	-2.3333	-2.4688	-2.425	-2.3917	-2.4813	-2.3333	-31.804	10.571	29.660	219.964	252.521	153.598	220.395	170.821	105.974	67.647	-71.319	-75.315	-38.431	83.851	109.275	227.307	0.00016104	0.00061127	0.00011852	1290	2.2051e-06	4.8192e-06	1299.1	356.67	1.542e-06	3.6686e-06	412.23	136.87	119.03	41.493	2.6596e-06	52.301	0.0003574	0.00038215	0.00010752	1295.9	4.2582e-06	4.2528e-06	1308.3	360.31	4.3807e-06	4.1692e-06	416.83	140.59	121.59	42.349	4.2293e-06	53.197	221.823	1.431	3.767	-71.672	83.458	78.267	-71.567	-66.794	60.810	58.716	-67.325	-62.734	-62.324	-58.029	68.939	-58.427	-8191	255	
34569.508	1	1	0	0	0.23401	0.089294	0.25607	0.3119	0.40836	0.26923	0.19124	0.19893	0.20074	0.063619	0.25686	0.059161	0.049191	0.14212	0.16142	0.067718	-2.0458	-2.5438	-2.1063	-2.7375	-2.2458	-2.4458	-2.7271	-2.2125	-2.4375	-2.45	-2.2979	-2.7021	-2.3729	-2.2229	-2.6312	-2.4354	244.877	-52.381	-5.011	215.033	207.874	12.418	225.250	221.985	206.339	93.257	-79.233	41.177	-16.848	77.253	12.860	74.466	0.00015166	0.00042246	0.00016873	1286.2	3.6098e-06	3.8029e-06	1296.7	354.32	1.4773e-06	4.3383e-06	412.65	137.39	118.99	41.581	3.5084e-06	52.191	0.00034835	0.00036818	0.00010706	1295.8	4.4138e-06	4.1079e-06	1306.6	359.62	4.2257e-06	3.964e-06	416.67	140.7	121.31	42.331	4.1469e-06	53.12	224.821	4.840	20.761	-71.470	79.917	77.845	-71.543	-66.808	65.860	65.744	-67.307	-62.861	-62.483	-57.861	66.108	-58.481	-8191	255	
34569.625	1	1	0	0	0.30737	0.11458	0.17766	0.11428	0.1542	0.32162	0.18767	0.20391	0.098657	0.16823	0.19951	0.26558	0.18613	0.089456	0.10302	0.014376	-1.9917	-2.6625	-2.1792	-2.7167	-2.2354	-2.2479	-2.9458	-2.2354	-2.4771	-2.7104	-2.4333	-2.3875	-2.5208	-2.2542	-2.4021	-2.4354	105.787	-73.229	138.971	255.413	171.718	219.595	239.633	109.895	-6.239	193.479	-44.000	234.509	272.234	229.784	20.699	66.185	0.00016082	0.00057512	0.0001506	1286.9	3.3559e-06	4.0899e-06	1297.1	354.62	2.471e-06	6.0793e-06	413.71	137.05	118.39	41.595	3.0875e-06	52.257	0.00035365	0.00040107	0.00010916	1293.4	4.4513e-06	4.2032e-06	1306.6	359.28	4.3385e-06	4.15e-06	417.17	140.48	121.28	42.346	4.2725e-06	53.195	222.644	10.393	7.636	-71.364	76.206	78.463	-71.430	-66.738	69.396	53.799	-67.290	-62.873	-62.574	-57.769	77.550	-58.452	-8191	255	
34569.723	1	1	0	0	0.30213	0.051461	0.11505	0.067213	0.10801	0.32654	0.40986	0.13157	0.24836	0.099805	0.10868	0.2042	0.3367	0.10573	0.28162	0.022377	-2.0083	-2.6021	-2.2667	-2.4688	-2.575	-2.2958	-2.7146	-2.5896	-2.2083	-2.5042	-2.3854	-2.4104	-2.4479	-2.3208	-2.5625	-2.3583	217.066	96.905	219.268	249.083	148.626	267.677	189.664	200.581	-81.001	-72.961	215.372	196.143	-73.537	274.794	256.200	-73.762	0.00015657	0.00040462	0.00012712	1290.7	2.8055e-06	4.5392e-06	1299.7	356.66	2.0604e-06	4.6572e-06	414.01	136.97	118.25	41.437	2.8184e-06	52.412	0.00035199	0.00037874	0.00010709	1297.2	4.4486e-06	4.1816e-06	1308.2	360.26	4.442e-06	4.1543e-06	416.66	140.62	121.32	42.282	4.1031e-06	53.2	226.162	2.121	-2.155	-71.621	74.193	68.817	-71.555	-66.705	80.506	58.244	-67.175	-62.677	-62.445	-57.975	70.077	-58.428	-8191	255	
34569.793	1	1	0	0	0.32196	0.15803	0.3207	0.27872	0.25829	0.28444	0.14068	0.049163	0.10819	0.11095	0.21711	0.11229	0.29661	0.13425	0.12238	0.050363	-1.6083	-2.6479	-1.9937	-2.6437	-2.5771	-1.9958	-2.5021	-2.4104	-2.2333	-2.7062	-2.3771	-2.5333	-2.4125	-2.1937	-2.5271	-2.4437	199.046	131.273	143.024	224.137	256.208	30.171	210.793	-74.043	197.335	38.577	-66.773	212.197	241.179	-34.995	41.957	215.065	0.00015012	0.00044201	0.00012894	1294.2	2.6462e-06	5.534e-06	1299.5	355.44	3.2472e-06	5.4842e-06	411.96	137.23	118.83	41.762	3.6024e-06	52.405	0.00036735	0.00037181	0.00011062	1298	4.4101e-06	4.2286e-06	1307.9	359.84	4.4749e-06	4.1078e-06	416.32	140.64	121.45	42.341	4.1679e-06	53.172	224.604	8.362	14.332	-71.567	86.897	53.936	-71.434	-66.854	67.101	57.992	-67.384	-62.775	-62.556	-57.951	63.834	-58.406	-8191	255	
34569.891	1	1	0	0	0.16726	0.040505	0.26942	0.43695	0.072449	0.23351	0.12264	0.18014	0.24381	0.17488	0.15686	0.17102	0.048638	0.10114	0.15119	0.20227	-1.5875	-2.4729	-2.1208	-2.3896	-2.6417	-2.1083	-2.4562	-2.4229	-2.0375	-2.5833	-2.3729	-2.1792	-2.7562	-2.1729	-2.3333	-2.5062	-77.988	-22.976	70.333	257.931	-71.791	219.558	212.624	207.137	211.709	184.933	134.761	203.568	209.677	135.463	-73.639	242.242	0.00015926	0.00052811	0.00013067	1290.7	1.8829e-06	4.7766e-06	1297.7	354.1	2.423e-06	5.6435e-06	413.78	137.28	119.02	41.559	3.5578e-06	52.567	0.00036343	0.00037654	0.00011617	1298.2	4.3252e-06	4.1221e-06	1308.5	359.86	4.396e-06	3.899e-06	417.19	140.61	121.56	42.331	4.3623e-06	53.205	228.190	4.232	16.857	-71.418	73.681	65.241	-71.337	-66.821	49.354	55.376	-67.448	-62.802	-62.482	-58.072	75.635	-58.535	-8191	255	
34570.008	1	1	0	0	0.13863	0.066028	0.095586	0.11085	0.15504	0.14277	0.47675	0.23064	0.13338	0.13257	0.25353	0.32181	0.11345	0.19606	0.085852	0.363	-1.7646	-2.5021	-2.3354	-2.5479	-2.6771	-2.1625	-2.6125	-2.4771	-1.9562	-2.6604	-2.3708	-2.3937	-2.675	-2.2438	-2.4521	-2.5625	174.858	23.195	6.452	216.805	38.994	-62.573	224.102	172.250	165.259	-77.220	192.333	230.536	181.223	256.832	-26.759	-69.867	0.00015124	0.0005431	0.00014792	1292.1	2.6573e-06	3.8567e-06	1305.9	356.11	2.8121e-06	4.6123e-06	410.9	137.53	118.89	41.579	2.6996e-06	52.089	0.00035999	0.00035971	0.00010826	1297.9	4.0983e-06	3.9643e-06	1308.5	359.69	4.2903e-06	3.9789e-06	416.27	140.81	121.49	42.315	4.335e-06	53.134	223.578	-0.840	14.117	-71.597	85.229	54.491	-71.372	-66.790	63.139	60.378	-67.099	-62.990	-62.607	-57.867	68.224	-58.596	-8191	255	
34570.105	1	1	0	0	0.22725	0.14246	0.27929	0.13254	0.055831	0.20813	0.024682	0.16494	0.12334	0.099399	0.16168	0.18107	0.18493	0.12494	0.22633	0.037019	-1.9083	-2.3625	-2.3292	-2.35	-2.575	-2.3646	-2.4	-2.4292	-1.9375	-2.2875	-2.6396	-2.4583	-2.6146	-2.4375	-2.2833	-2.6958	117.940	129.775	155.535	-62.323	-80.447	4.113	-66.453	215.787	182.767	18.165	136.317	-66.852	-23.074	237.394	160.546	231.770	0.00013827	0.00057588	0.00010711	1292.2	2.8786e-06	3.1065e-06	1296.7	355.3	1.3319e-06	5.5239e-06	413.21	137.99	119.32	41.432	1.8798e-06	52.427	0.00036008	0.00037445	0.00010963	1297.2	4.4397e-06	4.1191e-06	1308.8	359.6	4.3171e-06	4.119e-06	416.74	140.82	121.48	42.299	4.285e-06	53.176	224.141	-2.078	4.488	-71.596	91.842	60.482	-71.382	-66.811	35.436	69.416	-67.258	-62.841	-62.390	-57.772	81.447	-58.688	-8191	255	
34570.203	1	1	0	0	0.16712	0.11619	0.10022	0.27554	0.15041	0.11109	0.28949	0.22005	0.2752	0.071045	0.36769	0.42795	0.20152	0.067436	0.17074	0.2863	-1.5792	-2.4417	-2.2896	-2.4688	-2.5667	-2.2667	-2.45	-2.6813	-2.2208	-2.4271	-2.6375	-2.3125	-2.5125	-2.4292	-2.25	-2.6021	-15.230	183.761	142.985	241.652	226.414	150.960	210.618	199.390	160.725	263.473	133.991	247.836	270.622	230.780	143.221	-51.268	0.00015411	0.00057801	0.00016501	1293	2.8576e-06	5.095e-06	1303.5	356.66	2.3302e-06	3.7807e-06	414.17	138.41	118.92	41.621	3.9317e-06	52.436	0.00036056	0.00038033	0.00011421	1298.6	4.2751e-06	4.3159e-06	1311.1	360.42	4.4332e-06	3.9814e-06	417.75	141	121.62	42.401	4.3225e-06	53.335	222.404	-0.918	7.888	-71.496	89.542	54.195	-71.542	-67.079	87.772	67.834	-67.422	-62.707	-62.453	-57.994	63.529	-58.424	-8191	255	
34570.297	1	1	0	0	0.2158	0.12592	0.13466	0.49445	0.068076	0.24634	0.12121	0.34065	0.19597	0.025662	0.12202	0.075873	0.16138	0.35757	0.29635	0.26116	-1.8	-2.2125	-2.5667	-2.1771	-2.475	-2.2583	-2.5042	-2.6396	-2.2583	-2.4042	-2.5563	-2.1417	-2.5417	-2.3833	-2.2229	-2.5438	83.236	63.925	135.868	233.709	4.282	233.894	172.121	216.100	-13.036	183.083	256.117	272.622	269.956	-67.142	-12.898	193.247	0.00014286	0.00057034	0.00014953	1298	2.5563e-06	5.1825e-06	1299.6	356.67	1.9125e-06	5.5847e-06	413.6	137.46	119.12	41.596	3.1572e-06	52.341	0.00035661	0.00038473	0.00011099	1299.5	4.1664e-06	4.2429e-06	1309.8	360.67	4.4124e-06	4.0707e-06	416.91	140.92	121.65	42.313	4.3248e-06	53.231	222.104	12.129	10.054	-71.491	89.321	63.256	-71.507	-66.754	59.692	60.868	-67.449	-62.863	-62.655	-58.137	75.525	-58.342	-8191	255	
34570.395	1	1	0	0	0.088326	0.11378	0.34973	0.35168	0.043918	0.079111	0.15693	0.27604	0.090666	0.19313	0.08919	0.27738	0.29741	0.073895	0.071129	0.20028	-1.7396	-2.3271	-2.5833	-2.2354	-2.6312	-2.2646	-2.4458	-2.6542	-2.2708	-2.3979	-2.7438	-2.1604	-2.4625	-2.5187	-2.2042	-2.8063	225.979	160.475	38.869	254.346	-8.060	263.018	270.810	264.929	-74.843	51.002	131.547	176.153	-79.936	32.415	234.464	169.795	0.00015118	0.00049526	0.00014167	1293.8	2.883e-06	4.8749e-06	1303.3	356.61	1.6858e-06	3.7433e-06	414.28	137.55	119.08	41.598	4.9319e-06	52.175	0.00035881	0.00037571	0.00010655	1299.2	4.294e-06	4.2794e-06	1311.1	360.49	4.4174e-06	4.2002e-06	417.46	140.84	121.71	42.349	4.4157e-06	53.215	220.990	4.570	11.446	-71.535	87.704	71.478	-71.307	-66.865	57.904	71.756	-67.791	-62.701	-62.407	-58.092	79.250	-58.546	-8191	255	
34570.488	1	1	0	0	0.21359	0.071757	0.015557	0.39356	0.061945	0.071178	0.43226	0.062455	0.11516	0.11074	0.37309	0.36483	0.23508	0.097743	0.21044	0.14701	-1.9792	-2.2083	-2.5667	-2.3812	-2.3896	-2.5833	-2.3958	-2.8042	-2.2938	-2.3708	-2.775	-2.2396	-2.5646	-2.5104	-1.9896	-2.625	-67.204	260.462	247.511	262.166	82.378	202.836	215.547	-71.414	149.500	103.452	222.472	272.935	175.196	233.983	36.931	48.364	0.00014576	0.0005788	0.00019831	1289.6	2.3573e-06	4.5381e-06	1299.2	355.09	2.5444e-06	5.4964e-06	413.19	137.18	118.64	41.492	4.0682e-06	52.363	0.00035543	0.00038892	0.00010902	1297.8	4.2882e-06	4.2577e-06	1309	360.25	4.4831e-06	4.3031e-06	417.13	140.61	121.51	42.366	4.3037e-06	53.226	221.360	20.034	-7.286	-71.446	91.428	68.744	-71.422	-66.813	65.792	56.578	-67.492	-62.899	-62.481	-58.004	68.652	-58.570	-8191	255	
34570.586	1	1	0	0	0.15073	0.11735	0.30005	0.29017	0.29653	0.26214	0.30422	0.22087	0.14854	0.099777	0.20421	0.13889	0.21439	0.13267	0.28449	0.089805	-1.8854	-2.0917	-2.6396	-2.3979	-2.3542	-2.3833	-2.175	-2.5125	-2.4021	-2.2333	-2.8583	-2.4167	-2.2771	-2.4271	-2.2083	-2.5563	45.641	-25.567	90.073	225.083	-23.419	69.083	225.678	-58.482	-67.329	67.582	229.536	168.210	-77.094	-0.457	127.484	166.458	0.00012928	0.00047334	0.00011	1297.4	3.3551e-06	4.0402e-06	1302.6	355.51	7.4451e-07	5.7417e-06	412.89	137.22	118.88	41.704	2.5675e-06	52.223	0.000362	0.00038033	0.00010506	1298.2	4.3436e-06	4.1042e-06	1310.3	360.14	4.5022e-06	4.3391e-06	417.12	140.53	121.65	42.424	4.4117e-06	53.199	218.499	-4.344	14.267	-71.526	77.729	41.531	-71.542	-67.040	72.269	70.490	-67.439	-62.979	-62.508	-58.099	62.207	-58.433	-8191	255	
34570.707	1	1	0	0	0.11713	0.18364	0.087077	0.46384	0.28036	0.10761	0.1281	0.10309	0.082185	0.046827	0.18488	0.20008	0.22234	0.17572	0.16338	0.13167	-1.9729	-2.0396	-2.4167	-2.3979	-2.4208	-2.5958	-2.1937	-2.6917	-2.2875	-2.0521	-2.7229	-2.2583	-2.3292	-2.6167	-2.1479	-2.6375	128.244	-5.671	241.772	219.992	60.166	49.515	127.958	-61.308	-55.622	117.331	225.411	212.718	179.268	-80.830	105.359	196.624	0.00014305	0.00050854	0.00016571	1289.7	2.8836e-06	4.8242e-06	1299.7	356.22	1.9545e-06	5.3577e-06	412.51	137.16	118.47	41.565	2.9468e-06	52.249	0.00036304	0.00038	0.00010113	1298.1	4.2914e-06	4.0237e-06	1310.8	360.3	4.4699e-06	4.1959e-06	416.72	140.67	121.45	42.354	4.2475e-06	53.155	222.076	0.192	10.188	-71.535	72.911	70.621	-71.584	-66.862	71.414	62.856	-67.400	-63.041	-62.589	-57.896	90.297	-58.266	-8191	255	
34570.801	1	1	0	0	0.17536	0.09405	0.074975	0.31011	0.098718	0.18696	0.079311	0.29438	0.21355	0.096219	0.076797	0.21814	0.2493	0.3254	0.07074	0.2394	-1.9813	-2.0646	-2.4458	-2.4542	-2.1063	-2.6708	-2.3417	-2.625	-2.6375	-2.3083	-2.6104	-2.2604	-2.2104	-2.7562	-2.175	-2.4229	188.486	250.400	1.391	263.912	-41.169	-55.143	207.561	225.161	210.291	136.540	239.882	-58.328	211.122	-52.450	44.680	244.140	0.00014107	0.00054894	0.00014982	1291.3	2.7804e-06	5.2496e-06	1298.7	354.25	2.0527e-06	4.119e-06	412.79	137.06	118.79	41.488	3.7859e-06	52.28	0.00035833	0.00039123	0.00010362	1296.4	4.4798e-06	4.0349e-06	1310.3	360.01	4.4152e-06	4.2758e-06	417.12	140.7	121.45	42.246	4.2668e-06	53.203	220.147	8.457	8.941	-71.622	85.321	55.500	-71.489	-66.811	47.859	72.780	-67.683	-63.013	-62.639	-58.117	69.788	-58.435	-8191	255	
34570.898	1	1	0	0	0.097166	0.14941	0.19827	0.29186	0.13646	0.16845	0.33615	0.098587	0.15429	0.28119	0.11518	0.27161	0.076371	0.2558	0.22223	0.11451	-2.2229	-1.9813	-2.4396	-2.5458	-2.2875	-2.5563	-2.4083	-2.5563	-2.4938	-2.1188	-2.4958	-2.3688	-2.3229	-2.5792	-2.2208	-2.375	119.682	162.696	247.282	242.788	259.105	232.056	238.578	126.135	203.611	230.150	217.309	242.875	-46.229	-21.262	138.306	41.457	0.00015632	0.0004306	0.00014241	1294.7	2.5679e-06	5.4221e-06	1299.5	355.38	2.4268e-06	5.0281e-06	411.86	137.07	118.94	41.58	2.7087e-06	52.42	0.00034513	0.00037467	0.00010588	1297.3	4.4059e-06	4.0101e-06	1308.6	359.84	4.3363e-06	4.2145e-06	416.49	140.59	121.55	42.346	4.2367e-06	53.193	218.712	-1.082	22.931	-71.551	84.798	59.476	-71.601	-66.882	72.679	68.831	-67.445	-63.031	-62.490	-57.927	85.348	-58.517	-8191	255	
34570.992	1	1	0	0	0.18364	0.18882	0.094035	0.44045	0.3462	0.25629	0.090238	0.039648	0.11453	0.16462	0.15567	0.28609	0.15539	0.20795	0.17055	0.35437	-2.1437	-2.1021	-2.5042	-2.5	-2.1146	-2.5667	-2.5687	-2.3125	-2.5021	-2.0917	-2.7646	-2.5792	-2.3729	-2.6667	-2.375	-2.2438	250.460	-31.881	226.764	229.379	-27.252	-2.811	182.443	216.583	242.282	-76.287	-27.599	226.898	240.608	-77.369	240.270	191.906	0.00014273	0.00059734	0.00014488	1291.7	1.0091e-06	4.8181e-06	1299.8	353.57	3.2145e-06	3.7062e-06	413.19	137.74	118.82	41.539	2.7422e-06	52.352	0.00034745	0.00037912	0.00010466	1296.2	4.3721e-06	3.9302e-06	1308.4	359.01	4.2377e-06	4.1134e-06	417.34	140.99	121.53	42.309	4.468e-06	53.193	222.667	4.045	-1.781	-71.495	70.597	63.973	-71.424	-66.869	48.158	60.787	-67.066	-62.903	-62.705	-58.062	92.390	-58.413	-8191	255	
34571.090	1	1	0	0	0.093314	0.0089162	0.11353	0.1839	0.33683	0.080928	0.26558	0.22942	0.17798	0.1364	0.34903	0.13712	0.32964	0.048826	0.18812	0.20799	-2.1958	-2.0625	-2.3521	-2.625	-1.9208	-2.7083	-2.5792	-2.225	-2.55	-2.1167	-2.35	-2.6	-2.1396	-2.7646	-2.375	-2.0938	107.792	127.823	212.500	177.158	210.090	241.215	240.586	262.415	229.712	146.193	224.154	273.506	268.304	238.373	30.751	210.890	0.00013733	0.00051122	0.00012029	1287.9	3.0177e-06	5.9e-06	1303.7	353.68	1.7617e-06	4.0165e-06	412	137.12	118.91	41.433	2.1121e-06	52.249	0.00035328	0.00038182	0.00010173	1295.2	4.2592e-06	3.9086e-06	1308.5	359.42	4.1172e-06	4.2517e-06	416.33	140.37	121.36	42.307	4.3822e-06	53.126	224.630	1.413	10.868	-71.588	88.833	75.092	-71.344	-66.819	71.328	59.233	-67.264	-63.029	-62.475	-57.812	68.771	-58.356	-8191	255	
34571.188	1	1	0	0	0.24655	0.1979	0.085519	0.3758	0.2563	0.25453	0.15429	0.16711	0.28246	0.12891	0.13178	0.15612	0.24475	0.22553	0.2779	0.25145	-2.0771	-2.2208	-2.2188	-2.6604	-2.1708	-2.3854	-2.5625	-2.2729	-2.4437	-2.1146	-2.4688	-2.5875	-2.2438	-2.4854	-2.4313	-2.1229	-27.368	-45.180	198.683	192.915	200.797	81.015	116.268	187.729	222.469	-10.901	58.622	238.877	-75.833	46.683	27.646	195.754	0.0001432	0.00043299	0.00014042	1289.8	2.5676e-06	5.0336e-06	1301.5	355.57	2.4051e-06	4.5879e-06	412.65	137.45	118.87	41.525	4.2667e-06	52.288	0.00034948	0.00037489	0.00010195	1295.6	4.3985e-06	4.1061e-06	1308.8	359.34	4.3577e-06	4.2293e-06	416.61	140.63	121.34	42.308	4.2856e-06	53.184	225.124	-1.506	16.095	-71.554	80.708	64.971	-71.319	-66.858	45.080	58.705	-67.489	-62.950	-62.410	-57.830	66.646	-58.594	-8191	255	
34571.305	1	1	0	0	0.1466	0.045536	0.18851	0.28142	0.021336	0.090331	0.11696	0.16664	0.31358	0.11113	0.13434	0.20112	0.091517	0.12133	0.17344	0.17107	-2.0312	-2.2771	-2.3563	-2.7896	-2.0458	-2.4333	-2.8187	-2.3417	-2.5354	-2.3083	-2.2208	-2.6542	-2.3146	-2.5854	-2.6229	-2.1396	165.830	7.095	178.696	-68.170	17.614	123.661	-69.111	223.433	24.726	88.361	164.291	259.320	56.070	209.949	8.497	143.072	0.00015091	0.00052753	0.00016129	1292.9	3.4134e-06	3.0675e-06	1300.2	354.58	2.4485e-06	4.221e-06	413.51	137.96	119	41.604	3.4292e-06	52.436	0.00034203	0.00038903	0.00010404	1297	4.3183e-06	4.1005e-06	1310	359.54	4.3648e-06	4.2665e-06	416.63	140.92	121.66	42.368	4.1531e-06	53.299	221.357	9.967	22.065	-71.413	85.801	63.369	-71.519	-66.834	42.161	66.192	-67.378	-62.708	-62.379	-58.100	58.261	-58.477	-8191	255	
34571.402	1	1	0	0	0.19611	0.10136	0.32797	0.24211	0.12909	0.097461	0.29482	0.2008	0.061791	0.12265	0.1498	0.065028	0.15955	0.17367	0.056369	0.095322	-2.1042	-2.3729	-2.0146	-2.8708	-2.1437	-2.4083	-2.7167	-2.1167	-2.4604	-2.3812	-2.3042	-2.8937	-2.4583	-2.4042	-2.4917	-2.2875	266.355	-12.385	181.325	220.415	-57.270	237.316	217.272	270.434	223.038	-71.745	248.625	66.286	187.432	178.992	232.031	207.062	0.00013984	0.00047533	0.00015567	1290.4	2.9681e-06	4.4919e-06	1300	355	2.7858e-06	5.9976e-06	411.27	136.79	118.11	41.553	3.6269e-06	52.498	0.00035258	0.00038781	0.00010449	1297.9	4.4112e-06	4.1221e-06	1309.3	359.64	4.0641e-06	3.956e-06	415.53	140.53	121.31	42.338	3.9764e-06	53.167	218.640	17.638	4.281	-71.743	83.869	64.218	-71.427	-66.795	50.080	61.143	-67.287	-62.784	-62.604	-58.070	79.755	-58.474	-8191	255	
34571.500	1	1	0	0	0.048549	0.21259	0.1221	0.19527	0.10934	0.066239	0.20394	0.42351	0.18761	0.1672	0.19808	0.13542	0.12967	0.14169	0.06632	0.37377	-2.2042	-2.3479	-2.1167	-2.7583	-2.3708	-2.325	-2.7396	-2.2229	-2.4958	-2.5646	-2.2917	-2.6646	-2.3167	-2.3125	-2.5146	-2.1625	-31.028	-37.737	-47.137	-59.685	39.011	77.016	199.883	251.116	148.746	120.441	127.920	198.986	-47.056	257.950	-28.547	223.309	0.00013626	0.00039167	0.00016281	1283.6	3.3785e-06	5.0845e-06	1291.2	353.54	1.9744e-06	4.6831e-06	409.67	136.83	118.48	41.506	3.4742e-06	51.916	0.00034714	0.00034837	9.6296e-05	1288.9	3.9864e-06	3.8256e-06	1298.9	357.75	4.0526e-06	3.7638e-06	414.35	140.19	121	42.206	3.8463e-06	52.887	227.315	-10.989	19.073	-71.448	73.863	50.379	-71.604	-66.946	74.050	75.734	-67.268	-62.881	-62.583	-57.759	58.295	-58.428	-8191	255	
34571.594	1	1	0	0	0.10064	0.16822	0.1194	0.2291	0.051644	0.27135	0.37756	0.18129	0.22817	0.28413	0.11605	0.12009	0.26336	0.089113	0.055733	0.28182	-2.0583	-2.5438	-2.2354	-2.85	-2.2167	-2.2625	-2.6333	-2.1688	-2.3875	-2.5021	-2.1917	-2.5167	-2.5354	-2.1979	-2.2812	-2.0729	61.165	215.875	160.146	240.363	153.727	-38.283	236.498	249.988	80.396	119.073	60.172	136.514	-50.326	269.824	75.289	166.079	0.00015062	0.00043943	0.00011199	1277	2.2219e-06	4.9431e-06	1287.5	352.99	1.9386e-06	5.2956e-06	410.71	137.15	118.23	41.341	3.1002e-06	52.296	0.0003424	0.00034546	9.3912e-05	1281.7	4.1336e-06	3.9494e-06	1296.2	356.84	4.2224e-06	3.8928e-06	413.73	140	120.81	42.144	4.1378e-06	53.047	222.376	8.451	26.978	-71.476	84.804	59.626	-71.439	-66.729	67.949	77.279	-67.203	-62.667	-62.279	-57.846	91.021	-58.609	-8191	255	
34571.691	1	1	0	0	0.11908	0.16516	0.38167	0.24435	0.13357	0.15764	0.27143	0.20172	0.16131	0.018058	0.1495	0.44107	0.15802	0.21701	0.20785	0.10188	-1.8125	-2.5187	-2.0479	-2.5042	-2.3187	-2.0563	-2.5583	-2.4729	-2.2292	-2.3333	-2.1958	-2.3854	-2.4313	-2.3187	-2.7313	-2.3771	95.344	118.268	160.399	182.517	-61.982	77.830	236.479	251.277	58.247	1.713	193.912	-1.109	254.103	229.931	-43.397	84.642	0.0001461	0.00047374	0.0001335	1282.3	2.4815e-06	4.2321e-06	1295.1	353.2	2.5793e-06	3.8735e-06	410.95	136.72	118.21	41.516	3.6808e-06	52.175	0.00035512	0.00036543	0.00010792	1288.6	4.5938e-06	4.142e-06	1303.7	357.71	4.4037e-06	4.1624e-06	414.84	140.09	120.97	42.175	4.223e-06	53.046	223.229	11.757	11.291	-71.521	80.615	70.147	-71.298	-67.020	56.021	61.070	-67.394	-62.859	-62.545	-57.888	65.863	-58.643	-8191	255	
34571.785	1	1	0	0	0.11742	0.26311	0.17672	0.28544	0.26613	0.26867	0.32661	0.14076	0.084275	0.30487	0.094867	0.29498	0.35304	0.16009	0.30929	0.098422	-1.6083	-2.4625	-1.9417	-2.3375	-2.3917	-1.9375	-2.7583	-2.2833	-2.1667	-2.6479	-2.1063	-2.5354	-2.5333	-2.3021	-2.4854	-2.4313	255.687	250.407	226.689	-73.344	53.464	-10.174	221.761	206.360	236.286	57.844	249.017	274.835	83.052	257.287	-47.305	-80.468	0.00013007	0.00044423	0.00014863	1288	1.747e-06	4.8729e-06	1298.1	352.94	3.3046e-06	4.9598e-06	409.98	137.28	118.4	41.596	3.6667e-06	52.298	0.00036518	0.00037687	0.00010986	1293.7	4.2719e-06	4.0968e-06	1305.5	358.14	4.4415e-06	4.2213e-06	415.28	140.25	121.12	42.252	4.3577e-06	53.079	223.365	-4.037	1.233	-71.486	95.429	60.240	-71.392	-66.829	54.091	70.198	-67.361	-62.674	-62.323	-57.921	72.030	-58.788	-8191	255	
34571.883	1	1	0	0	0.17239	0.1854	0.21905	0.32199	0.056272	0.28985	0.17239	0.15974	0.18892	0.11013	0.26117	0.13561	0.11986	0.31728	0.074553	0.34687	-1.6625	-2.4062	-2.0021	-2.4521	-2.3208	-2.0771	-2.5792	-2.3771	-2.3729	-2.6479	-2.1063	-2.4042	-2.5292	-2.0958	-2.4417	-2.2458	-34.832	245.734	44.031	173.480	2.969	172.293	203.223	212.467	245.499	248.624	258.450	-57.350	37.223	219.806	244.698	212.675	0.00014415	0.0005739	0.00014494	1286.1	2.28e-06	4.6717e-06	1292.6	353.83	2.5979e-06	4.6053e-06	411.19	136.82	118.33	41.379	3.1018e-06	52.138	0.00034871	0.00037395	0.00011297	1292.6	4.2914e-06	4.3215e-06	1303.7	358.13	4.408e-06	3.9752e-06	414.26	140.08	120.85	42.13	4.1975e-06	53.006	219.161	7.287	6.936	-71.662	92.585	54.026	-71.373	-66.694	68.044	58.429	-67.355	-62.802	-62.509	-58.055	64.069	-58.400	-8191	255	
34571.977	1	1	0	0	0.22634	0.12667	0.26422	0.32157	0.19194	0.20992	0.30545	0.086882	0.19052	0.37581	0.12266	0.093474	0.020544	0.31231	0.20217	0.098791	-1.6625	-2.4375	-2.2375	-2.5896	-2.6479	-2.1562	-2.8063	-2.4354	-2.15	-2.4979	-2.2104	-2.4583	-2.5375	-2.1667	-2.3563	-2.4729	75.404	180.948	196.636	-58.400	268.412	50.489	246.798	-77.671	30.910	194.311	179.753	-75.181	19.005	-77.140	97.347	200.335	0.00014593	0.00040728	0.00016554	1278.9	3.8929e-06	5.2511e-06	1285.4	353.36	1.0606e-06	4.8388e-06	408.99	136.63	118.25	41.354	2.0912e-06	52.131	0.00034759	0.0003553	0.00010537	1284.5	4.1864e-06	4.0968e-06	1296	356.76	4.0844e-06	3.8884e-06	412.74	139.87	120.66	42.078	3.9366e-06	52.907	223.511	-12.025	11.908	-71.547	87.330	63.271	-71.297	-66.821	35.855	73.499	-67.423	-62.636	-62.364	-57.962	74.458	-58.328	-8191	255	
34572.074	1	1	0	0	0.053761	0.10306	0.15132	0.35122	0.27986	0.25991	0.27755	0.10376	0.1266	0.069434	0.26282	0.21868	0.10083	0.19202	0.22498	0.20196	-1.7229	-2.3771	-2.1667	-2.3667	-2.5083	-2.1833	-2.5104	-2.55	-2.1937	-2.4854	-2.4521	-2.2188	-2.6583	-2.1562	-2.4813	-2.5271	-12.201	261.703	166.458	204.715	76.161	108.016	217.911	268.168	56.790	34.327	56.285	-79.457	147.953	229.183	125.633	245.905	0.00014124	0.0005012	0.00014114	1272.2	2.4129e-06	6.1561e-06	1281.5	352.28	2.5349e-06	4.4671e-06	408.75	136.38	117.66	41.235	3.6278e-06	51.858	0.0003466	0.0003618	0.00010303	1278.1	3.8983e-06	3.9705e-06	1290.9	355.85	4.1276e-06	3.7781e-06	413.09	139.65	120.36	42.036	3.9628e-06	52.808	223.741	4.847	8.581	-71.479	103.813	78.994	-71.518	-66.730	68.801	64.551	-67.275	-62.701	-62.428	-57.838	78.639	-58.333	-8191	255	
34572.195	1	1	0	0	0.33158	0.28155	0.14303	0.21348	0.14345	0.053091	0.11353	0.11259	0.11731	0.13499	0.22734	0.084053	0.10319	0.14243	0.14992	0.16295	-1.6396	-2.3917	-2.3792	-2.3688	-2.6146	-2.1354	-2.5771	-2.7542	-2.2083	-2.5229	-2.4917	-2.1583	-2.7438	-2.2521	-2.2104	-2.4708	-10.409	-3.959	79.416	161.353	202.330	266.004	124.866	193.348	95.131	66.272	-78.744	-39.182	243.732	256.302	144.697	9.730	0.00015895	0.00047501	0.00011809	1277.3	3.9745e-06	4.2754e-06	1282.5	351.24	2.22e-06	3.7961e-06	408.33	135.96	117.74	41.412	3.3951e-06	51.821	0.00034034	0.00035233	9.8402e-05	1277.7	4.0424e-06	3.8665e-06	1291.7	355.41	4.1704e-06	3.6746e-06	412.07	139.51	120.4	42.128	4.0315e-06	52.815	221.185	-8.805	11.857	-71.417	94.939	85.101	-71.475	-66.677	85.983	73.020	-67.386	-62.738	-62.309	-57.810	66.686	-58.414	-8191	255	
34572.266	1	1	0	0	0.11703	0.013439	0.33204	0.18084	0.082024	0.12708	0.15806	0.15679	0.18965	0.11309	0.17213	0.16821	0.43491	0.18694	0.23145	0.23195	-1.6917	-2.3333	-2.2896	-2.25	-2.4354	-2.2083	-2.2771	-2.5896	-2.0625	-2.4125	-2.5333	-2.0062	-2.5312	-2.2354	-2.3292	-2.5	94.086	163.327	87.702	-54.451	211.776	-81.290	-75.696	104.831	225.853	46.700	-64.939	170.252	216.493	237.582	142.264	254.590	0.0001433	0.00047619	0.00013298	1264	2.3408e-06	4.552e-06	1275	350.53	2.3274e-06	3.5321e-06	408.76	136.34	117.3	41.202	3.084e-06	51.977	0.00033227	0.00034458	9.8696e-05	1270.7	3.949e-06	3.8752e-06	1285.4	354.45	4.0696e-06	3.7508e-06	411.64	139.67	120.21	42.04	3.8076e-06	52.893	230.921	9.395	8.109	-71.378	76.244	60.815	-71.358	-66.611	81.194	63.076	-67.377	-62.553	-62.317	-57.942	77.438	-58.741	-8191	255	
34572.387	1	1	0	0	0.13739	0.10345	0.17975	0.38803	0.075842	0.091335	0.2921	0.28311	0.30473	0.12354	0.23229	0.12544	0.23426	0.16128	0.038309	0.24202	-1.4833	-2.4188	-2.3729	-2.1813	-2.5667	-2.3438	-2.4458	-2.6188	-2.3167	-2.4646	-2.6937	-2.2792	-2.6125	-2.45	-2.1625	-2.7229	135.577	85.074	55.432	209.961	-77.962	-76.682	251.432	229.349	177.702	32.100	-64.873	-67.217	230.678	257.228	-14.361	194.856	0.00015169	0.00049311	0.00011657	1261.2	2.7281e-06	4.1596e-06	1279.6	348.35	2.2362e-06	4.6584e-06	409.11	135.6	117.77	41.321	3.2946e-06	51.848	0.00034341	0.0003547	9.5181e-05	1268.6	3.9495e-06	3.7049e-06	1283.8	353.72	3.9836e-06	3.8171e-06	411.89	139.4	120.15	42.019	4.0042e-06	52.772	220.350	21.606	6.591	-71.504	81.922	67.815	-71.327	-66.551	70.653	61.455	-67.476	-62.927	-62.342	-57.862	70.620	-58.351	-8191	255	
34572.484	1	1	0	0	0.22792	0.014635	0.095552	0.57348	0.33206	0.14193	0.46731	0.25881	0.21122	0.28769	0.11773	0.15302	0.13266	0.43121	0.20456	0.13308	-1.7313	-2.2292	-2.4667	-2.3729	-2.3292	-2.2854	-2.4542	-2.6125	-2.2729	-2.1896	-2.8833	-2.1333	-2.4875	-2.6437	-2.1021	-2.6208	191.286	124.491	217.637	214.030	-50.226	145.126	224.918	128.778	242.413	205.153	269.824	160.868	-25.263	12.532	-80.285	159.752	0.00013976	0.00044378	0.00014543	1260.4	3.1945e-06	5.7699e-06	1273.4	349.71	2.3559e-06	3.635e-06	407.64	136.29	116.83	41.079	3.0453e-06	51.88	0.00034268	0.00035861	9.8974e-05	1267.1	4.1996e-06	3.8937e-06	1283.7	353.6	4.1501e-06	3.7384e-06	411.17	139.27	119.88	41.945	4.1628e-06	52.682	224.248	9.902	4.140	-71.599	101.893	69.407	-71.512	-66.740	71.781	60.982	-67.221	-62.645	-62.178	-58.112	74.158	-58.688	-8191	255	
34572.578	1	1	0	0	0.044819	0.12779	0.12934	0.20891	0.20057	0.13734	0.32262	0.2267	0.11477	0.20094	0.29048	0.23213	0.076866	0.12246	0.13031	0.27514	-1.8583	-2.1562	-2.525	-2.3021	-2.4104	-2.5771	-2.4458	-2.7208	-2.2938	-2.2375	-2.6833	-2.1167	-2.4333	-2.4375	-2.2896	-2.5687	258.403	-74.744	204.867	234.642	229.159	7.157	220.228	249.938	-28.430	-56.657	214.476	177.642	232.458	137.460	-65.040	-32.585	0.00014464	0.00049942	0.00015101	1259	2.4376e-06	5.6906e-06	1268.9	348.82	2.2511e-06	3.6544e-06	406.4	135.92	116.97	41.133	3.5914e-06	52.007	0.00033969	0.00034177	0.00010134	1268.2	4.0165e-06	3.8176e-06	1281.4	353.18	4.327e-06	3.9882e-06	410.33	138.97	119.69	41.901	4.256e-06	52.706	223.859	4.205	4.691	-71.312	98.010	74.142	-71.331	-66.684	58.524	58.466	-67.407	-62.631	-62.180	-57.898	70.503	-58.536	-8191	255	
34572.676	1	1	0	0	0.2036	0.17766	0.1176	0.16891	0.055538	0.041886	0.15019	0.26602	0.19638	0.087162	0.14935	0.20347	0.078779	0.21146	0.28226	0.1367	-1.8417	-2.0958	-2.4208	-2.4875	-2.4333	-2.5938	-2.3354	-2.6813	-2.4375	-1.9875	-2.7375	-2.5167	-2.4125	-2.5771	-1.9729	-2.6375	189.004	-20.819	-1.947	255.628	146.943	-69.407	235.015	247.750	118.456	220.966	-17.370	184.765	129.792	252.460	192.295	153.481	0.00014663	0.00036552	0.00013795	1263.6	3.3159e-06	2.8561e-06	1272	348.65	2.7541e-06	3.4881e-06	404.81	135.65	116.88	41.093	3.4455e-06	51.644	0.00035094	0.00036229	0.00010052	1267.1	4.0645e-06	3.9012e-06	1280.6	353.18	4.0723e-06	3.8425e-06	409.74	138.81	119.53	41.771	4.1134e-06	52.654	224.840	30.297	10.761	-71.472	106.660	74.927	-71.249	-66.684	60.763	63.108	-67.057	-62.793	-62.412	-58.042	79.357	-58.517	-8191	255	
34572.793	1	1	0	0	0.16612	0.32275	0.2203	0.37411	0.21562	0.23981	0.19843	0.11652	0.18077	0.24527	0.0095986	0.14731	0.12311	0.25064	0.21752	0.24869	-1.8813	-2.0667	-2.5667	-2.3104	-2.1417	-2.5208	-2.0917	-2.5292	-2.3771	-2.1375	-2.5896	-2.3458	-2.4146	-2.6396	-2.0583	-2.4938	19.377	39.277	264.659	199.975	3.527	250.712	141.502	252.101	-81.184	-50.581	219.200	227.541	-64.901	261.971	198.383	-80.343	0.00014346	0.00052273	0.00015181	1259.5	2.5508e-06	4.9053e-06	1271.3	349.16	1.5405e-06	4.5858e-06	407.3	135.75	117.1	41.027	3.62e-06	51.732	0.00033932	0.00035239	9.9439e-05	1265.8	4.0255e-06	3.8708e-06	1278.5	352.87	4.0236e-06	3.8208e-06	410.09	138.94	119.66	41.732	4.1327e-06	52.542	218.236	10.998	8.234	-71.505	106.595	57.748	-71.418	-66.592	60.811	58.300	-67.278	-63.035	-62.390	-57.870	102.554	-58.375	-8191	255	
34572.891	1	1	0	0	0.17645	0.49837	0.034492	0.31805	0.22129	0.17804	0.47727	0.23206	0.05716	0.27892	0.081991	0.12508	0.12018	0.42108	0.13042	0.17666	-1.9542	-1.9937	-2.5104	-2.4	-2.1104	-2.5833	-2.4042	-2.4771	-2.4	-1.8771	-2.6583	-2.2917	-2.2146	-2.7042	-2.2458	-2.6	183.037	89.486	-17.512	179.699	29.151	241.768	206.340	266.106	-10.786	164.982	239.487	215.140	213.747	248.399	215.770	-56.340	0.00014669	0.00053192	0.00014036	1259.9	3.255e-06	4.9621e-06	1267	347.84	1.9848e-06	5.6481e-06	405.85	135.51	116.53	41.123	3.6631e-06	51.687	0.00033349	0.00035916	9.6281e-05	1263.8	4.0788e-06	3.6913e-06	1276.4	352.62	3.9699e-06	3.8704e-06	409.46	138.73	119.36	41.798	3.9929e-06	52.558	223.512	-13.744	12.765	-71.391	84.028	57.084	-71.394	-66.799	58.107	62.580	-67.272	-62.843	-62.368	-57.947	72.698	-58.557	-8191	255	
34572.984	1	1	0	0	0.13313	0.16518	0.35134	0.23543	0.3367	0.17166	0.27832	0.23593	0.32344	0.19636	0.084318	0.32746	0.1789	0.15541	0.25846	0.035402	-2.0833	-2.1354	-2.5458	-2.4896	-2.1896	-2.6104	-2.3688	-2.2917	-2.5667	-2.1583	-2.4375	-2.4896	-2.2062	-2.4604	-2.3896	-2.5438	127.353	108.109	-29.862	238.710	24.124	221.468	210.121	218.112	250.462	-76.550	190.310	254.696	-71.371	269.825	75.943	211.533	0.00013999	0.00058265	0.00016061	1255.1	2.5802e-06	5.0473e-06	1261.1	346.79	2.6015e-06	5.2083e-06	403.72	135.9	116.64	41.025	1.9037e-06	51.775	0.00033966	0.00035305	9.4686e-05	1260.7	3.9294e-06	3.4982e-06	1272.9	351.69	3.9327e-06	3.8078e-06	408.04	138.46	119.32	41.677	3.8235e-06	52.499	224.453	-0.842	3.818	-71.404	84.141	66.375	-71.347	-66.894	66.668	66.057	-67.311	-62.586	-62.300	-57.765	59.530	-58.270	-8191	255	
34573.082	1	1	0	0	0.19499	0.024096	0.23108	0.15012	0.22619	0.41006	0.32111	0.21573	0.22125	0.040617	0.27834	0.2275	0.25099	0.31809	0.17628	0.089503	-2.0625	-1.9813	-2.1354	-2.4271	-2.0167	-2.7812	-2.4437	-2.4021	-2.6937	-2.3375	-2.5229	-2.6354	-1.9833	-2.6354	-2.2833	-2.2979	-25.492	70.159	-16.398	234.160	114.076	55.090	265.326	259.483	154.669	-21.031	257.264	255.785	227.634	259.694	67.792	200.861	0.00015283	0.0005181	0.00013255	1252.1	1.5293e-06	5.1457e-06	1259.8	346.46	1.3912e-06	4.5522e-06	404.54	134.74	116.71	40.779	3.7218e-06	51.462	0.00033676	0.00034716	9.6079e-05	1255.4	3.931e-06	3.656e-06	1269.5	351.12	3.8577e-06	3.7477e-06	408.39	138.24	119.26	41.622	3.8269e-06	52.388	222.642	10.695	12.689	-71.512	79.034	54.729	-71.256	-66.785	23.639	56.629	-67.377	-62.874	-62.314	-57.689	72.523	-58.372	-8191	255	
34573.180	1	1	0	0	0.041539	0.30092	0.15897	0.18524	0.12596	0.25309	0.29869	0.15335	0.15977	0.11038	0.047434	0.25667	0.1622	0.24719	0.24228	0.061122	-2.1021	-2.2917	-2.2729	-2.5854	-2.1229	-2.3958	-2.5438	-2.2125	-2.6229	-2.1562	-2.4167	-2.5333	-2.2917	-2.4979	-2.1792	-2.3146	91.864	251.640	149.013	-68.456	218.459	65.801	228.562	183.642	-64.279	5.349	220.851	270.747	193.767	242.487	91.682	224.945	0.00015787	0.00053372	0.00015925	1248.5	2.8511e-06	3.6789e-06	1263.2	347.99	2.2649e-06	3.9698e-06	404.42	135.62	117	41.042	2.3719e-06	51.727	0.00032568	0.00032538	9.2983e-05	1254.2	4.0271e-06	3.57e-06	1270.6	351.76	3.7273e-06	3.5834e-06	407.96	138.49	119.37	41.721	3.7849e-06	52.532	219.464	-1.329	-3.321	-71.487	72.067	72.883	-71.294	-66.603	64.595	60.632	-67.420	-62.790	-62.246	-57.705	90.846	-58.437	-8191	255	
34573.273	1	1	0	0	0.16841	0.30891	0.1468	0.33323	0.1281	0.1723	0.07975	0.35814	0.055159	0.30961	0.16962	0.043647	0.28159	0.16021	0.32308	0.18587	-2.2729	-2.2438	-2.2333	-2.5333	-1.9937	-2.4458	-2.5583	-2.3167	-2.5146	-2.2833	-2.4167	-2.8438	-2.2833	-2.5146	-2.2771	-2.1	262.768	-6.676	71.574	210.794	-48.378	133.205	268.524	-84.595	55.267	15.544	239.180	3.645	275.035	204.159	89.343	214.455	0.00015146	0.0004578	0.00012238	1245	1.8272e-06	4.8636e-06	1259.1	347.07	2.4062e-06	5.5374e-06	403.77	135.09	116.77	40.877	2.3565e-06	51.543	0.00032799	0.00034738	9.2766e-05	1254.6	4.0139e-06	3.5031e-06	1269.1	351.54	3.9508e-06	3.6231e-06	408.65	138.4	119.38	41.732	3.7917e-06	52.431	219.777	16.093	25.750	-71.453	76.933	60.321	-71.352	-66.738	47.458	64.689	-67.228	-62.667	-62.317	-57.761	56.177	-58.557	-8191	255	
34573.395	1	1	0	0	0.048047	0.50966	0.23324	0.33559	0.18587	0.099799	0.30688	0.08421	0.054954	0.11166	0.15404	0.25962	0.098069	0.19855	0.13484	0.25873	-2.0417	-2.1437	-2.0542	-2.7938	-2.125	-2.3958	-2.6646	-2.2188	-2.4708	-2.3896	-2.4479	-2.7292	-2.1937	-2.5021	-2.3896	-2.2042	240.604	-84.107	14.127	230.437	64.776	30.157	-80.325	-66.514	147.658	79.977	-24.141	249.568	-16.881	248.824	-30.456	-14.102	0.00014442	0.00056661	0.00012901	1253.2	1.6697e-06	5.0167e-06	1261.6	346.3	2.2833e-06	5.6378e-06	405.17	135.47	116.8	41.117	3.6194e-06	51.724	0.00032717	0.00034898	9.0181e-05	1257.7	3.8265e-06	3.4963e-06	1271.9	351.2	3.8204e-06	3.7465e-06	408.5	138.73	119.18	41.764	3.8213e-06	52.476	225.133	7.744	10.809	-71.312	86.888	78.547	-71.315	-66.700	76.432	66.021	-67.218	-62.938	-62.307	-57.750	55.836	-58.486	-8191	255	
34573.492	1	1	0	0	0.31074	0.22647	0.19992	0.34157	0.016593	0.17158	0.37511	0.30713	0.12304	0.23407	0.23563	0.05965	0.15828	0.18216	0.1275	0.28011	-2.0625	-2.3854	-2.2188	-2.8708	-2.1813	-2.1896	-2.6688	-2.1437	-2.2188	-2.1729	-2.1854	-2.6792	-2.0667	-2.5375	-2.2854	-2.2146	142.385	-54.851	163.954	242.808	172.247	159.089	195.621	253.592	270.944	186.312	-8.142	50.049	200.117	225.270	69.744	-66.901	0.00014902	0.00057823	0.00016586	1253.5	2.9673e-06	4.287e-06	1265.7	348.19	1.5341e-06	5.6031e-06	404.47	135.59	117.09	40.963	2.5748e-06	51.797	0.00032725	0.00033589	9.786e-05	1257.6	4.0487e-06	3.6381e-06	1274	352.46	3.8281e-06	3.7427e-06	408.9	138.77	119.44	41.807	3.8571e-06	52.576	226.354	-9.189	13.659	-71.409	82.859	57.447	-71.439	-66.642	54.463	52.566	-67.206	-63.049	-62.451	-57.803	81.556	-58.539	-8191	255	
34573.562	1	1	0	0	0.15811	0.12228	0.13813	0.15902	0.161	0.19968	0.024944	0.14546	0.13662	0.040208	0.039191	0.26811	0.23106	0.16587	0.43941	0.10149	-2.2625	-2.2625	-2.2104	-2.725	-2.3271	-2.2729	-2.7104	-2.2687	-2.3833	-2.4167	-2.3354	-2.7479	-2.5083	-2.3438	-2.5146	-2.1229	46.388	48.549	167.396	260.328	224.075	122.910	232.324	243.552	135.543	79.601	-2.158	-37.104	-53.455	210.095	191.592	188.811	0.00014622	0.00051503	0.00012616	1252.8	2.6961e-06	5.0531e-06	1266	346.9	1.9684e-06	3.7569e-06	404.96	135.64	117.28	40.879	3.3108e-06	51.571	0.00033194	0.00034953	9.8247e-05	1257.9	3.8888e-06	3.7284e-06	1275.6	352.12	3.9245e-06	3.656e-06	409.1	138.78	119.72	41.756	3.8247e-06	52.54	225.135	16.410	2.424	-71.409	78.902	63.903	-71.392	-66.757	73.125	76.646	-67.398	-62.545	-62.291	-58.114	75.953	-58.302	-8191	255	
34573.660	1	1	0	0	0.32168	0.1651	0.20197	0.26953	0.10015	0.10669	0.14166	0.2878	0.21778	0.031015	0.2033	0.50444	0.22587	0.27772	0.14107	0.14543	-1.9	-2.375	-2.1021	-2.6646	-2.2938	-2.1562	-2.8187	-2.2729	-2.425	-2.5229	-2.3146	-2.6937	-2.2875	-2.2687	-2.5062	-2.1479	265.269	77.818	227.344	268.005	187.647	177.052	135.217	221.373	-28.092	70.419	224.835	203.522	134.200	222.152	40.119	249.435	0.00014584	0.00040207	0.000159	1255.9	2.8204e-06	5.4564e-06	1266.2	346.97	2.0046e-06	5.387e-06	404.93	135.72	116.94	41.181	3.4332e-06	51.668	0.00032443	0.00035938	0.00010037	1260.9	3.8477e-06	3.7439e-06	1277	352.49	3.8232e-06	3.7886e-06	409.26	138.78	119.52	41.85	4.0099e-06	52.601	222.380	2.935	21.707	-71.475	92.169	54.157	-71.415	-66.873	65.576	67.330	-67.358	-62.861	-62.442	-57.842	95.054	-58.543	-8191	255	
34573.758	1	1	0	0	0.28208	0.074446	0.066939	0.20058	0.034345	0.15298	0.24926	0.14552	0.20533	0.25355	0.20325	0.25324	0.28587	0.29066	0.15559	0.17516	-1.9333	-2.3396	-1.9583	-2.6688	-2.3833	-2.0521	-2.6375	-2.2375	-2.3375	-2.6021	-2.2313	-2.5271	-2.3396	-2.1917	-2.5479	-2.4062	245.317	-43.017	129.163	233.895	65.679	-1.731	174.273	258.054	94.806	42.332	274.383	203.883	-10.345	251.167	116.283	180.351	0.00015123	0.00050597	0.00016028	1258.5	2.0706e-06	4.3101e-06	1271.6	348.01	2.0137e-06	4.6868e-06	405.74	135.59	117.21	41.099	4.0814e-06	51.827	0.00032982	0.00035574	0.00010029	1262.2	3.9062e-06	3.8974e-06	1278.7	353.16	3.9809e-06	3.9814e-06	410.04	139.03	119.63	41.853	3.9974e-06	52.675	220.923	6.164	-1.212	-71.408	86.281	67.900	-71.361	-66.735	86.146	59.330	-67.324	-62.548	-62.296	-57.786	60.712	-58.303	-8191	255	
34573.875	1	1	0	0	0.24954	0.016989	0.082349	0.32111	0.34635	0.077464	0.36697	0.13243	0.28121	0.18076	0.018113	0.20261	0.033024	0.25308	0.2507	0.15725	-1.9292	-2.575	-2.0354	-2.6021	-2.5187	-2.0125	-2.8979	-2.4917	-2.1396	-2.45	-2.4167	-2.625	-2.4625	-2.2333	-2.4042	-2.3146	-30.248	-28.052	7.054	273.243	14.920	266.490	174.770	265.096	189.907	179.550	133.089	195.320	-43.366	-30.311	-21.127	89.622	0.00014917	0.00049234	0.00018003	1257.7	2.582e-06	3.5187e-06	1268.8	348.65	1.9812e-06	4.8686e-06	406.54	135.11	116.64	40.856	3.2607e-06	51.917	0.00034369	0.00034821	9.9841e-05	1263.2	3.9463e-06	3.8665e-06	1277.5	353.04	3.9907e-06	3.7744e-06	409.88	138.7	119.43	41.802	4.0122e-06	52.642	224.101	3.608	11.126	-71.466	96.475	53.197	-71.529	-66.870	53.649	75.717	-67.176	-62.734	-62.349	-57.780	77.313	-58.445	-8191	255	
34573.973	1	1	0	0	0.035348	0.11253	0.069688	0.18374	0.096052	0.11038	0.21797	0.16858	0.090931	0.11354	0.2314	0.23503	0.068775	0.056821	0.10698	0.2389	-1.6396	-2.5625	-2.2271	-2.6333	-2.4292	-2.2396	-2.4	-2.5187	-2.1833	-2.6125	-2.2146	-2.4604	-2.6	-2.1562	-2.4458	-2.35	271.696	-5.397	250.091	211.194	253.062	125.257	168.523	14.801	128.279	77.410	231.424	256.077	-79.741	234.534	172.871	195.287	0.00015154	0.00041545	0.00014006	1257.2	1.7731e-06	3.3501e-06	1266	348.45	2.4441e-06	4.2929e-06	404.86	135.28	117.31	41.095	3.3346e-06	51.773	0.00034262	0.00034227	9.9021e-05	1260.8	4.0049e-06	3.7866e-06	1276.3	352.99	4.1304e-06	3.7806e-06	409.07	138.67	119.65	41.812	3.8713e-06	52.634	224.083	-4.501	24.749	-71.487	86.032	75.720	-71.321	-66.664	62.567	64.178	-67.235	-62.724	-62.484	-57.731	71.894	-58.530	-8191	255	
34574.066	1	1	0	0	0.24346	0.15403	0.26916	0.4286	0.19373	0.15339	0.14386	0.058997	0.16509	0.14013	0.11777	0.13934	0.32915	0.095615	0.037822	0.24235	-1.6354	-2.5792	-2.1875	-2.5333	-2.4729	-2.1437	-2.6312	-2.5104	-2.1104	-2.5187	-2.3083	-2.3396	-2.5938	-2.2896	-2.4646	-2.6396	98.009	156.411	209.538	223.891	130.024	-67.901	160.326	107.442	206.115	-81.996	145.852	179.594	211.643	271.770	193.473	186.559	0.00014395	0.00065646	0.00015917	1253	3.1901e-06	4.273e-06	1264.8	348.63	2.1055e-06	4.4545e-06	404.96	135.29	116.35	41.065	2.9635e-06	51.918	0.0003424	0.00035833	0.00010071	1257.3	3.9996e-06	3.8813e-06	1273.7	352.51	4.2021e-06	3.7093e-06	409.16	138.57	119.4	41.832	4.1242e-06	52.667	222.178	11.713	11.773	-71.309	103.501	68.914	-71.385	-66.714	64.197	63.354	-67.116	-62.749	-62.227	-58.032	73.069	-58.559	-8191	255	
#DATA ENDS
