BOXY.EXE: ISS Imagent and Oximeter Data Acquisition Program Version 0.80
Ascii Record File

#ACQ INFORMATION
2  Detector Channels 
16  External MUX Channels 
1  Auxiliary Channels 
5000  Waveform (CCF) Frequency (Hz)
1  Waveforms Skipped 
30  Waveforms Averaged 
1  Cycles Averaged 
16  Acquisitions per Waveform 
10.0806  Updata Rate (Hz) 

#FILE INFORMATION
TRUE -- External MUX Channel results are PARSED.
FALSE -- AC DC and Phase are NOT grouped.
TRUE -- Companion Program Settings File CREATED.
FALSE -- AC data not excluded
FALSE -- DC data not excluded
FALSE -- Phase data not excluded
FALSE -- Auxillary Chn. data not excluded
Tab delimiters

#CALIBRATION STATE
TRUE -- Waveform Calibration Values APPLIED.


#AUX CALIBRATION VALUES
Val Type	aux-1	

Term	1.0000e+00	
Factor	0.0000e+00	


#WF CALIBRATION VALUES
A = Detector Channel
Val Type	A-AC1	A-AC2	A-AC3	A-AC4	A-AC5	A-AC6	A-AC7	A-AC8	A-AC9	A-AC10	A-AC11	A-AC12	A-AC13	A-AC14	A-AC15	A-AC16	A-DC1	A-DC2	A-DC3	A-DC4	A-DC5	A-DC6	A-DC7	A-DC8	A-DC9	A-DC10	A-DC11	A-DC12	A-DC13	A-DC14	A-DC15	A-DC16	A-Ph1	A-Ph2	A-Ph3	A-Ph4	A-Ph5	A-Ph6	A-Ph7	A-Ph8	A-Ph9	A-Ph10	A-Ph11	A-Ph12	A-Ph13	A-Ph14	A-Ph15	A-Ph16	

Term	0.00000e+00	0.00000e+00	0.00000e+00	0.00000e+00	0.00000e+00	0.00000e+00	0.00000e+00	0.00000e+00	0.00000e+00	0.00000e+00	0.00000e+00	0.00000e+00	0.00000e+00	0.00000e+00	0.00000e+00	0.00000e+00	0.00000e+00	0.00000e+00	0.00000e+00	0.00000e+00	0.00000e+00	0.00000e+00	0.00000e+00	0.00000e+00	0.00000e+00	0.00000e+00	0.00000e+00	0.00000e+00	0.00000e+00	0.00000e+00	0.00000e+00	0.00000e+00	0.00000e+00	0.00000e+00	0.00000e+00	0.00000e+00	0.00000e+00	0.00000e+00	0.00000e+00	0.00000e+00	0.00000e+00	0.00000e+00	0.00000e+00	0.00000e+00	0.00000e+00	0.00000e+00	0.00000e+00	0.00000e+00	
Factor	1.00000e+00	1.00000e+00	1.00000e+00	1.00000e+00	1.00000e+00	1.00000e+00	1.00000e+00	1.00000e+00	1.00000e+00	1.00000e+00	1.00000e+00	1.00000e+00	1.00000e+00	1.00000e+00	1.00000e+00	1.00000e+00	1.00000e+00	1.00000e+00	1.00000e+00	1.00000e+00	1.00000e+00	1.00000e+00	1.00000e+00	1.00000e+00	1.00000e+00	1.00000e+00	1.00000e+00	1.00000e+00	1.00000e+00	1.00000e+00	1.00000e+00	1.00000e+00	X	X	X	X	X	X	X	X	X	X	X	X	X	X	X	X	

B = Detector Channel
Val Type	B-AC1	B-AC2	B-AC3	B-AC4	B-AC5	B-AC6	B-AC7	B-AC8	B-AC9	B-AC10	B-AC11	B-AC12	B-AC13	B-AC14	B-AC15	B-AC16	B-DC1	B-DC2	B-DC3	B-DC4	B-DC5	B-DC6	B-DC7	B-DC8	B-DC9	B-DC10	B-DC11	B-DC12	B-DC13	B-DC14	B-DC15	B-DC16	B-Ph1	B-Ph2	B-Ph3	B-Ph4	B-Ph5	B-Ph6	B-Ph7	B-Ph8	B-Ph9	B-Ph10	B-Ph11	B-Ph12	B-Ph13	B-Ph14	B-Ph15	B-Ph16	

Term	0.00000e+00	0.00000e+00	0.00000e+00	0.00000e+00	0.00000e+00	0.00000e+00	0.00000e+00	0.00000e+00	0.00000e+00	0.00000e+00	0.00000e+00	0.00000e+00	0.00000e+00	0.00000e+00	0.00000e+00	0.00000e+00	0.00000e+00	0.00000e+00	0.00000e+00	0.00000e+00	0.00000e+00	0.00000e+00	0.00000e+00	0.00000e+00	0.00000e+00	0.00000e+00	0.00000e+00	0.00000e+00	0.00000e+00	0.00000e+00	0.00000e+00	0.00000e+00	-5.38156e+01	-1.31042e+02	-1.24433e+02	-1.81592e+02	-5.12389e+01	-6.77519e+01	-1.57010e+02	-1.62015e+02	-4.49559e+01	-6.47779e+01	-1.71977e+02	-1.70149e+02	-1.79453e+02	-1.77250e+02	-5.57634e+01	-1.50141e+02	
Factor	2.03653e-05	1.65828e-04	4.62255e-05	1.62462e-01	1.69913e-06	1.87841e-06	1.83249e-01	6.39994e-02	1.44152e-06	1.88062e-06	8.71469e-02	2.95149e-02	3.17034e-02	9.42612e-03	1.54103e-06	1.33165e-02	8.12842e-06	1.10171e-05	3.07108e-06	8.26260e-02	1.14284e-07	1.22168e-07	8.76959e-02	3.26199e-02	1.15569e-07	1.22005e-07	4.32266e-02	1.46927e-02	1.64001e-02	4.85771e-03	1.18033e-07	6.63519e-03	X	X	X	X	X	X	X	X	X	X	X	X	X	X	X	X	



#DISTANCE SETTINGS
A = Detector Channel
A-1	A-2	A-3	A-4	A-5	A-6	A-7	A-8	A-9	A-10	A-11	A-12	A-13	A-14	A-15	A-16	

2.5000e+00	3.0000e+00	2.5000e+00	3.0000e+00	2.0000e+00	3.0000e+00	1.5000e+00	3.0000e+00	3.0000e+00	3.0000e+00	3.0000e+00	3.0000e+00	3.0000e+00	3.0000e+00	1.5000e+00	3.0000e+00	

B = Detector Channel
B-1	B-2	B-3	B-4	B-5	B-6	B-7	B-8	B-9	B-10	B-11	B-12	B-13	B-14	B-15	B-16	

1.0000e+01	1.0000e+01	1.0000e+01	1.4400e+00	1.0000e+01	1.0000e+01	1.5100e+00	1.9400e+00	1.0000e+01	1.0000e+01	1.9900e+00	2.4900e+00	2.4100e+00	2.9000e+00	1.0000e+01	2.9800e+00	




#DATA BEGINS
time	group	step	mark	flag	A-AC1	A-AC2	A-AC3	A-AC4	A-AC5	A-AC6	A-AC7	A-AC8	A-AC9	A-AC10	A-AC11	A-AC12	A-AC13	A-AC14	A-AC15	A-AC16	A-DC1	A-DC2	A-DC3	A-DC4	A-DC5	A-DC6	A-DC7	A-DC8	A-DC9	A-DC10	A-DC11	A-DC12	A-DC13	A-DC14	A-DC15	A-DC16	A-Ph1	A-Ph2	A-Ph3	A-Ph4	A-Ph5	A-Ph6	A-Ph7	A-Ph8	A-Ph9	A-Ph10	A-Ph11	A-Ph12	A-Ph13	A-Ph14	A-Ph15	A-Ph16	B-AC1	B-AC2	B-AC3	B-AC4	B-AC5	B-AC6	B-AC7	B-AC8	B-AC9	B-AC10	B-AC11	B-AC12	B-AC13	B-AC14	B-AC15	B-AC16	B-DC1	B-DC2	B-DC3	B-DC4	B-DC5	B-DC6	B-DC7	B-DC8	B-DC9	B-DC10	B-DC11	B-DC12	B-DC13	B-DC14	B-DC15	B-DC16	B-Ph1	B-Ph2	B-Ph3	B-Ph4	B-Ph5	B-Ph6	B-Ph7	B-Ph8	B-Ph9	B-Ph10	B-Ph11	B-Ph12	B-Ph13	B-Ph14	B-Ph15	B-Ph16	aux-1	digaux	

22104.240	1	1	0	256	0.17699	0.11414	0.12804	0.16143	0.33171	0.3299	0.082148	0.084122	0.092511	0.20654	0.1514	0.024632	0.35218	0.34469	0.14735	0.17332	-1.6063	-2.1771	-2.1583	-1.8917	-2.1854	-1.9813	-1.9604	-2.4562	-2.0125	-2.0646	-2.3479	-1.9604	-2.275	-2.1437	-1.9667	-2.5687	404.129	229.600	455.602	174.167	244.877	480.633	191.826	281.738	415.371	250.794	165.770	458.845	463.587	371.330	455.001	333.552	0.00029987	0.00021764	0.00012214	1068.6	3.6325e-06	4.242e-06	827.38	295.94	4.5697e-06	7.4035e-06	243.34	73.625	78.156	19.662	2.9502e-06	22.78	0.00042434	0.00049155	0.00013297	1054	5.1364e-06	5.3046e-06	817.31	293.19	5.2266e-06	5.1883e-06	242.27	73.552	77.304	19.8	5.189e-06	22.828	260.107	166.374	222.944	144.261	254.720	232.852	143.522	148.344	295.817	294.286	146.697	150.892	152.895	156.845	238.726	154.964	-8191	255	
22104.336	1	1	0	0	0.1263	0.09387	0.30895	0.22779	0.17033	0.20755	0.24834	0.12539	0.2802	0.2061	0.21096	0.092841	0.048665	0.24381	0.2081	0.18529	-1.3937	-1.8333	-2.1125	-2.1937	-2.1854	-2.2271	-2.0833	-2.5	-2.2229	-2.1229	-2.4667	-1.8083	-2.2521	-2.4583	-1.9	-2.3458	244.630	348.470	186.455	152.988	384.884	161.838	468.395	136.541	200.907	469.684	430.029	444.547	356.532	382.484	336.001	238.337	0.00027399	0.00038303	8.4873e-05	1067.6	5.4369e-06	3.1109e-06	831.51	297.5	4.2097e-06	6.9816e-06	245.59	74.43	77.527	19.85	3.2063e-06	23.012	0.00043531	0.00047764	0.00013657	1057.5	5.1287e-06	5.3581e-06	819.26	294.52	5.3169e-06	5.3586e-06	243.1	73.871	77.234	19.848	5.1932e-06	22.943	259.510	248.544	228.302	144.517	304.107	275.482	143.582	148.580	290.360	270.923	146.744	151.203	152.912	157.047	271.982	154.717	-8191	255	
22104.455	1	1	0	0	0.1728	0.12129	0.01866	0.13422	0.20283	0.29662	0.19841	0.36148	0.0846	0.27098	0.15893	0.22326	0.21221	0.124	0.17382	0.21168	-1.5917	-2.0271	-2.0958	-2.0854	-2.3208	-2.3083	-1.9271	-2.2979	-1.8813	-1.9271	-2.5417	-1.7771	-2.1063	-2.3021	-1.8792	-2.575	175.431	349.232	339.053	474.986	157.616	462.581	356.183	489.605	313.092	410.366	421.936	409.624	459.641	381.560	230.881	354.603	0.00025485	0.0001622	0.00010204	1074.1	4.0639e-06	4.875e-06	836.69	298.8	2.4747e-06	2.3473e-06	247.91	74.759	78.259	19.897	4.0921e-06	23.047	0.00041648	0.00047273	0.00013011	1059.9	5.2137e-06	5.141e-06	825.26	294.92	5.0631e-06	5.2821e-06	244.57	74.134	77.759	19.992	5.2866e-06	23.122	263.033	216.832	222.761	144.316	302.992	291.790	143.347	148.680	294.512	292.536	146.494	150.927	152.887	156.880	270.481	155.181	-8191	255	
22104.553	1	1	0	0	0.27332	0.050222	0.26832	0.45833	0.068355	0.19422	0.28329	0.25079	0.12435	0.029264	0.2136	0.10547	0.02539	0.28289	0.12794	0.070348	-1.7188	-1.8875	-2.3333	-2.1771	-2.0229	-2.1625	-2.0167	-2.3646	-2.1083	-1.9312	-2.2792	-2	-2.0687	-2.5146	-1.9875	-2.3271	369.653	305.441	217.610	450.919	154.368	392.024	413.317	158.987	289.203	290.745	373.943	246.019	191.610	339.308	209.647	428.342	0.00026604	0.00013277	0.00012105	1076.1	8.0409e-06	1.7344e-06	842.17	299.18	3.4483e-06	3.3935e-06	247.49	75.224	78.547	20.068	3.9873e-06	23.144	0.00042882	0.00048861	0.00013211	1063.7	5.2402e-06	5.3805e-06	829.89	295.98	5.1505e-06	5.4791e-06	245.25	74.497	77.853	20.082	5.1524e-06	23.183	264.980	253.239	237.961	144.574	269.127	309.459	143.246	148.805	334.304	246.164	146.602	150.967	152.635	156.740	268.407	154.764	-8191	255	
22104.648	1	1	0	0	0.18515	0.25284	0.11262	0.12331	0.10361	0.023952	0.14305	0.12504	0.43429	0.21972	0.37315	0.24203	0.29657	0.3752	0.18672	0.14372	-1.4979	-1.7437	-2.1125	-2.0563	-2.0771	-2.3083	-1.925	-2.3312	-2.1479	-2.0312	-2.3	-2.2354	-2.2438	-2.3771	-1.9312	-2.3187	451.174	468.226	418.288	191.661	445.459	437.115	207.687	417.589	486.377	446.299	423.294	420.052	368.906	419.225	392.989	455.814	0.00024971	0.00037674	7.7372e-05	1080.3	4.7337e-06	5.2383e-06	836.76	298.46	3.1193e-06	2.5223e-06	246.8	74.536	78.673	19.813	3.961e-06	23.043	0.00042776	0.00048794	0.00013173	1063.7	5.3885e-06	5.254e-06	823.81	295.53	5.139e-06	5.1786e-06	244.45	74.216	78.073	20.008	5.2011e-06	23.177	263.036	226.540	276.983	144.423	286.673	297.674	143.410	148.484	282.442	289.788	146.616	151.009	152.860	157.189	282.038	154.694	-8191	255	
22104.744	1	1	0	0	0.074185	0.17355	0.14063	0.16476	0.1043	0.14361	0.23561	0.25545	0.20908	0.14714	0.18153	0.10167	0.05262	0.10765	0.13825	0.026645	-2.0042	-1.9333	-2.1667	-2.125	-2.0854	-2.2646	-2.0854	-2.1562	-2.1875	-1.8979	-2.1937	-2.2646	-2.1312	-2.6063	-1.9833	-2.1896	279.284	341.429	312.681	131.768	413.812	383.571	433.147	487.127	262.608	279.258	412.378	131.113	153.665	195.198	439.405	319.357	0.00028298	0.00031717	0.00013531	1076.4	6.4429e-06	2.5024e-06	838.99	302.67	5.956e-06	4.3159e-06	250.84	75.393	79.259	20.063	6.5695e-06	23.042	0.00041013	0.00047794	0.0001304	1065.1	5.1764e-06	5.17e-06	829.22	299.42	5.2317e-06	5.0731e-06	246.94	74.957	78.848	20.154	5.1696e-06	23.113	262.551	258.820	213.941	144.479	293.989	291.748	143.308	148.602	277.802	279.379	146.735	151.053	152.506	157.161	304.261	154.484	-8191	255	
22104.840	1	1	0	0	0.17429	0.10448	0.27432	0.23394	0.093857	0.083973	0.32138	0.084607	0.14124	0.11311	0.25635	0.20816	0.11554	0.061513	0.32767	0.11373	-1.7271	-1.6917	-2.2667	-2.2583	-1.7583	-2.3479	-2.1813	-2.05	-1.9958	-1.9354	-2.3458	-2.1958	-1.8396	-2.1917	-2.1458	-1.9625	327.413	435.834	246.779	443.680	255.907	402.705	473.888	430.260	179.593	488.687	350.860	185.328	302.786	369.697	224.948	166.282	0.00029557	0.00021494	7.2e-05	1084.4	3.8038e-06	2.771e-06	846.69	303.28	1.5913e-06	5.754e-06	249.75	75.313	79.519	20.161	4.4904e-06	23.239	0.00042759	0.00047098	0.00013199	1070.5	5.0647e-06	4.8552e-06	834.04	299.58	5.1298e-06	5.1308e-06	247.36	74.818	79.192	20.252	5.0201e-06	23.24	260.847	156.614	263.439	144.414	279.816	208.593	143.543	148.677	320.985	261.554	146.324	151.133	152.792	157.254	267.858	154.504	-8191	255	
22104.936	1	1	0	0	0.16381	0.19321	0.19176	0.13719	0.16034	0.065174	0.087737	0.31343	0.050281	0.20847	0.1001	0.10455	0.11196	0.2676	0.26252	0.28569	-1.6646	-1.9917	-2.2271	-2.3583	-1.9271	-2.2146	-2.0563	-1.9438	-2.2125	-1.9625	-2.2687	-2.2375	-1.9646	-2.3021	-1.9646	-1.9708	171.920	457.338	219.190	469.855	474.564	352.617	466.079	464.501	233.744	474.151	244.298	417.456	291.979	463.806	191.112	150.308	0.000286	9.8664e-05	0.00017608	1096.6	3.4996e-06	4.836e-07	854.11	308.02	4.3712e-06	4.1373e-06	253.44	77.057	81.626	20.656	2.8395e-06	23.402	0.00041855	0.00045473	0.00013285	1085.6	5.1495e-06	5.1163e-06	843.49	305.57	5.1984e-06	5.307e-06	251.27	76.659	81.244	20.742	5.2461e-06	23.514	263.726	237.220	214.111	144.466	263.009	250.002	143.528	148.662	310.061	319.625	146.502	151.173	152.467	157.045	295.148	154.716	-8191	255	
22105.033	1	1	0	0	0.19874	0.30916	0.16357	0.38318	0.12841	0.11388	0.11765	0.1793	0.21165	0.088977	0.045839	0.43289	0.21733	0.2652	0.089012	0.19144	-1.8542	-1.9729	-2.1229	-2.5083	-1.6063	-2.2521	-2.1083	-1.9958	-2.3292	-2.0625	-2.1063	-2.3854	-1.9354	-2.1146	-2.1146	-1.9271	341.554	274.637	298.727	459.769	202.340	221.226	179.148	388.498	418.533	452.237	370.074	138.884	175.948	420.861	450.171	195.999	0.0002876	0.00035022	8.7531e-05	1095.5	5.3712e-06	4.7353e-06	849.22	307.84	3.5089e-06	3.1714e-06	250.19	75.927	80.731	20.353	3.3359e-06	23.476	0.00042799	0.00047491	0.00013421	1082.9	5.1761e-06	5.2568e-06	836.96	303.42	5.184e-06	5.2597e-06	248.6	75.325	79.852	20.424	5.3331e-06	23.48	263.115	211.136	242.033	144.621	291.884	266.597	143.369	148.565	288.241	314.991	146.783	151.041	152.993	157.133	327.594	154.511	-8191	255	
22105.152	1	1	0	0	0.028979	0.054429	0.15163	0.17659	0.11103	0.20519	0.10785	0.26368	0.29651	0.13016	0.19664	0.098462	0.072722	0.12181	0.24072	0.2678	-1.875	-2.05	-1.8875	-2.4437	-1.8438	-2.2229	-2.2375	-1.8979	-2.3146	-1.9729	-2.0875	-2.3208	-1.9583	-2.2854	-2.2438	-1.8708	190.487	194.427	207.406	481.876	329.006	483.238	335.927	469.890	393.028	325.936	364.469	455.044	434.456	232.118	333.878	471.320	0.00026481	0.0002533	7.4393e-05	1083.3	3.8069e-06	3.5057e-06	850.03	305.39	4.8778e-06	4.1145e-06	252.86	76.723	80.127	20.479	2.5867e-06	23.188	0.0004211	0.00048126	0.00013451	1073.5	5.2804e-06	5.2751e-06	834.34	302.39	5.1457e-06	5.1557e-06	249.27	75.518	79.879	20.457	5.1108e-06	23.264	265.301	253.093	243.701	144.478	268.699	267.370	143.409	148.550	290.717	301.460	146.753	150.925	152.581	156.776	244.485	154.446	-8191	255	
22105.248	1	1	0	0	0.25505	0.10078	0.11085	0.20579	0.19362	0.13313	0.23757	0.15316	0.054583	0.099416	0.27816	0.15165	0.12646	0.11222	0.13348	0.18886	-1.8625	-2.0417	-1.9875	-2.4938	-1.8813	-2.1792	-2.3604	-2.0938	-2.25	-1.9625	-1.9854	-2.3604	-1.8792	-2.1437	-2.2542	-1.7458	311.494	135.102	145.542	147.528	188.291	355.306	422.724	156.348	134.300	350.348	461.432	306.283	465.124	308.293	413.345	338.779	0.00031357	0.00053707	0.00011301	1096.6	4.7708e-06	5.7133e-06	852.18	306.73	4.036e-06	3.154e-06	251.38	76.46	80.98	20.564	4.486e-06	23.497	0.00042847	0.00047557	0.0001342	1080.9	5.1026e-06	5.2156e-06	839.89	303.61	5.2461e-06	5.1829e-06	250.04	75.931	80.389	20.557	5.0884e-06	23.521	267.969	238.298	222.274	144.594	282.562	288.595	143.584	148.309	275.740	208.332	146.288	151.184	153.146	156.807	255.741	154.750	-8191	255	
22105.346	1	1	0	0	0.048916	0.18717	0.13385	0.3469	0.33112	0.089808	0.099978	0.087861	0.09215	0.1231	0.24684	0.22307	0.34445	0.25759	0.10789	0.36672	-1.825	-2.1521	-1.7833	-2.4417	-2.0729	-2.2	-2.4854	-2.0146	-2.3729	-2.2104	-1.8354	-2.2479	-2.0187	-1.9604	-2.35	-1.8833	285.245	224.871	353.539	393.226	295.400	445.166	144.277	482.830	443.777	262.279	356.616	375.394	411.541	429.740	330.540	460.192	0.00031523	0.00033079	0.00010115	1097.5	2.3401e-06	4.0867e-06	857.61	310.49	2.9966e-06	3.2478e-06	257.57	78.327	82.289	20.902	3.7817e-06	23.962	0.00042232	0.00049389	0.00013344	1083.1	5.2021e-06	5.4675e-06	844.52	306.19	5.2512e-06	5.2503e-06	253.4	77.277	81.549	20.97	5.2884e-06	23.952	265.942	236.613	248.582	144.595	302.373	256.487	143.481	148.230	279.706	257.735	146.668	151.281	152.848	156.909	281.057	154.911	-8191	255	
22105.441	1	1	0	0	0.13968	0.19051	0.26646	0.41017	0.070197	0.15067	0.097728	0.18481	0.14631	0.14037	0.080874	0.29388	0.35817	0.17635	0.271	0.22345	-1.8312	-2.0083	-1.7812	-2.6417	-2.0521	-1.9375	-2.4458	-1.8188	-2.1646	-2.0479	-2.0271	-2.2229	-2.2125	-1.9875	-2.225	-1.8771	133.767	386.251	134.490	419.603	478.604	360.886	479.950	481.431	367.902	353.572	328.822	200.218	337.014	227.711	414.029	337.113	0.00030138	0.00031545	1.9455e-05	1099	3.4586e-06	4.8816e-06	856.68	311.69	4.7159e-06	2.7709e-06	254.97	78.022	82.889	20.959	2.7115e-06	23.804	0.0004261	0.00047787	0.00013402	1089.3	5.2433e-06	5.2593e-06	845.54	308.4	5.2288e-06	5.3306e-06	253.46	77.614	82.033	21.061	5.0791e-06	23.853	265.622	189.694	244.428	144.474	257.954	298.663	143.548	148.738	314.863	198.857	146.450	150.687	152.531	156.883	275.697	154.243	-8191	255	
22105.537	1	1	0	0	0.1748	0.058488	0.21521	0.32039	0.28018	0.20094	0.4243	0.40142	0.16798	0.11285	0.29615	0.27383	0.19946	0.02739	0.13871	0.092217	-1.6646	-2.2479	-1.8625	-2.5021	-2	-1.8271	-2.4	-2.0396	-2.1479	-2.3375	-2.0167	-2.2208	-2.2104	-1.9813	-2.4479	-2.0583	410.445	381.673	275.347	431.343	311.436	385.049	425.249	472.658	472.707	190.346	450.213	435.979	339.282	368.385	386.527	142.999	0.00028335	0.00042663	0.00010612	1100.5	5.006e-06	4.0463e-06	859.82	309.34	3.7506e-06	4.7848e-06	255.19	78.065	82.851	20.946	2.6401e-06	23.836	0.00043135	0.00048159	0.0001343	1085.6	5.2233e-06	5.4446e-06	843.98	306.93	5.2557e-06	5.231e-06	253.2	77.449	81.931	20.958	5.266e-06	23.872	259.859	204.026	209.836	144.293	269.553	266.289	143.467	148.253	302.992	263.922	146.797	150.998	152.528	156.914	319.027	155.115	-8191	255	
22105.633	1	1	0	0	0.22376	0.45145	0.34818	0.41592	0.39206	0.0051166	0.26796	0.35062	0.054655	0.16166	0.10136	0.15002	0.071544	0.088844	0.34911	0.073959	-1.7229	-2.3458	-1.9979	-2.3979	-2.0187	-2.0125	-2.5833	-2.2229	-1.9771	-2.3667	-2.0292	-2.1917	-2.1396	-1.9708	-2.35	-2.175	423.182	355.653	356.687	140.853	409.574	263.219	456.182	412.455	336.289	260.454	302.880	422.817	140.845	446.507	204.581	384.192	0.0003246	0.00024805	6.0406e-05	1095.3	6.9987e-06	3.186e-06	858.8	310.68	4.2414e-06	1.6283e-06	256.98	78.594	83.383	21.175	4.2185e-06	24.121	0.00044403	0.00047716	0.00013078	1083.9	5.2766e-06	5.421e-06	845.59	308.03	5.3205e-06	5.2734e-06	254.65	78.109	82.678	21.171	5.2052e-06	24.103	261.499	236.778	174.562	144.322	278.062	240.124	143.596	148.527	299.232	317.593	146.765	150.703	152.699	156.614	250.526	154.451	-8191	255	
22105.754	1	1	0	0	0.3691	0.15129	0.35762	0.22409	0.21273	0.21664	0.16044	0.22763	0.12595	0.16886	0.22203	0.25322	0.12508	0.12264	0.41009	0.10014	-1.7792	-2.3729	-2.1937	-2.3667	-2.2771	-1.8833	-2.3875	-2.0542	-1.9583	-2.2833	-2.0229	-2.0667	-2.2104	-1.8146	-2.2646	-2.2458	171.678	360.434	359.547	452.468	224.067	341.154	163.520	414.642	340.738	180.311	362.338	363.837	423.902	404.365	160.704	160.593	0.00028357	0.00013549	7.2369e-05	1113.9	8.0908e-06	4.4869e-06	867.99	315	4.9138e-06	5.1272e-06	260.53	80.624	85.408	21.304	4.0095e-06	24.315	0.00044183	0.00047126	0.00013554	1098.1	5.2823e-06	5.3825e-06	854.99	313.12	5.3954e-06	5.3138e-06	258.65	79.617	84.503	21.617	5.2827e-06	24.404	265.956	188.833	251.960	144.392	302.497	255.630	143.589	148.646	280.727	242.901	146.557	151.177	152.907	156.749	286.717	154.426	-8191	255	
22105.850	1	1	0	0	0.15054	0.15815	0.19453	0.13545	0.14054	0.10795	0.15618	0.12685	0.27143	0.25978	0.30758	0.33317	0.25739	0.12579	0.079398	0.12039	-1.5875	-2.5104	-2.1167	-2.2104	-2.4104	-1.8583	-2.4667	-2.3479	-2.1333	-2.3792	-2.0125	-2.1604	-2.2938	-2.1188	-2.3875	-2.1562	257.993	476.219	315.155	358.654	238.459	468.661	483.847	448.948	410.109	355.946	377.006	204.809	452.305	334.528	314.827	347.442	0.00029933	0.00053141	6.6125e-05	1121.6	3.6421e-06	3.0805e-06	873.84	320.26	4.5689e-06	2.9633e-06	263.19	80.805	86.2	21.812	3.0717e-06	24.489	0.00043919	0.00047243	0.00013454	1107.9	5.0514e-06	5.3329e-06	861.64	316.56	5.1281e-06	5.2223e-06	259.87	80.069	85.551	21.864	5.2451e-06	24.35	267.500	231.253	210.923	144.455	291.276	243.714	143.615	148.430	302.170	341.426	146.635	151.207	152.686	156.616	304.148	154.437	-8191	255	
22105.943	1	1	0	0	0.16443	0.16435	0.17246	0.37636	0.039502	0.13385	0.35085	0.11276	0.12975	0.13133	0.1679	0.064913	0.10049	0.19289	0.075048	0.17999	-1.5104	-2.2604	-2.1917	-2.3917	-2.3792	-1.8708	-2.3438	-2.1917	-2.2771	-2.3104	-2.1542	-1.9813	-2.3354	-2.0229	-2.2896	-2.2583	376.520	287.864	383.971	172.009	320.963	147.509	476.910	360.628	370.739	487.816	142.540	273.331	382.975	308.778	257.859	426.870	0.00031031	0.0002139	6.685e-05	1132	4.3147e-06	1.3782e-06	881.4	327.06	4.1152e-06	2.2163e-06	263.43	81.213	87.351	21.876	2.687e-06	24.526	0.00044002	0.00047851	0.00013332	1117.3	5.1199e-06	5.2471e-06	863.5	321.53	5.2374e-06	5.2861e-06	261.19	80.321	86.593	22.027	5.2092e-06	24.571	265.285	184.655	211.919	144.490	269.834	323.731	143.513	148.907	288.071	300.674	146.445	150.891	152.616	156.698	289.637	154.942	-8191	255	
22106.016	1	1	0	0	0.19	0.15488	0.016266	0.23378	0.21494	0.10227	0.13032	0.19055	0.24784	0.11184	0.22568	0.11636	0.14506	0.085947	0.076956	0.18635	-1.5979	-2.3292	-2.1312	-2.2021	-2.4188	-1.9542	-2.2687	-2.4604	-2.0583	-2.2917	-2.1417	-2.0917	-2.2542	-2.0938	-2.2021	-2.3104	425.519	381.879	203.517	462.388	218.244	152.646	380.879	191.030	434.024	289.116	402.771	364.343	405.939	154.104	383.983	482.816	0.00031411	0.0004751	8.7162e-05	1128.2	4.481e-06	4.6129e-06	875.85	324.62	4.3283e-06	5.9476e-06	262.66	81.856	87.191	22.012	4.0908e-06	24.815	0.00044115	0.00047234	0.00013142	1111.9	5.1256e-06	5.2451e-06	861.32	320.38	5.2772e-06	5.0894e-06	262.25	80.835	86.478	22.095	5.1885e-06	24.656	262.270	214.983	277.321	144.441	308.773	295.343	143.432	148.539	311.364	276.557	146.827	151.173	152.529	156.799	289.276	154.654	-8191	255	
22106.137	1	1	0	0	0.23217	0.041756	0.1221	0.14274	0.11207	0.068706	0.15393	0.08795	0.29703	0.11851	0.17162	0.044556	0.058606	0.16682	0.17669	0.22226	-1.5604	-2.1104	-2.0083	-2.1708	-2.3667	-1.9646	-2.1937	-2.4583	-2.0708	-2.2979	-2.2562	-2.0896	-2.4229	-2.1354	-2.1458	-2.3229	139.411	236.807	279.340	396.691	292.797	220.887	140.021	331.391	306.747	248.830	185.001	273.357	265.510	338.017	440.282	396.829	0.00032069	0.00039434	0.00011337	1125.8	6.4595e-06	3.1764e-06	876.48	323.55	5.7769e-06	3.6472e-06	266.21	82.595	88.023	22.104	8.0297e-07	25.114	0.000442	0.00047621	0.00013306	1114.6	5.2378e-06	5.2873e-06	864.4	321	5.2868e-06	5.2704e-06	263.45	81.562	86.932	22.236	4.993e-06	24.992	267.177	228.816	174.136	144.547	282.457	266.684	143.417	148.461	330.652	263.400	146.472	151.117	152.680	156.941	388.742	154.912	-8191	255	
22106.232	1	1	0	0	0.2139	0.056775	0.079654	0.11755	0.03946	0.37158	0.1693	0.34103	0.17031	0.16504	0.029121	0.12826	0.091877	0.18498	0.094694	0.17367	-1.5729	-2.3417	-2.2896	-2.0979	-2.4271	-1.8667	-2.0979	-2.5938	-1.9896	-2.1521	-2.4458	-2.1104	-2.5229	-2.1667	-2.1167	-2.575	329.221	402.095	438.650	393.702	366.195	367.795	179.645	372.389	268.176	411.258	437.196	422.387	433.644	209.031	397.429	179.523	0.0002886	0.00071197	0.00012954	1122.7	1.0139e-06	2.2712e-06	874.4	321.68	3.7266e-06	3.7965e-06	265.26	81.373	86.115	22.215	2.8893e-06	24.725	0.00043626	0.00047312	0.00013325	1111.5	5.123e-06	5.1802e-06	862.8	318.53	5.2213e-06	5.2368e-06	263.15	81.018	85.706	22.161	5.1669e-06	24.803	257.179	209.301	207.183	144.540	294.112	308.132	143.417	148.530	317.310	276.578	146.615	150.950	152.649	156.819	336.597	154.790	-8191	255	
22106.328	1	1	0	0	0.13377	0.31762	0.1822	0.23911	0.046462	0.11085	0.14897	0.10757	0.20209	0.062902	0.11481	0.20122	0.31349	0.1783	0.28285	0.13436	-1.6458	-2.1312	-2.2917	-1.9958	-2.2208	-2.025	-2.1354	-2.4604	-2.0875	-2.075	-2.3563	-2.0021	-2.3021	-2.2313	-2.0146	-2.3896	245.654	230.821	212.920	147.071	448.465	224.059	403.105	298.586	331.339	438.822	413.638	245.158	456.923	328.215	482.232	444.106	0.00029291	0.00023025	0.00013297	1120.2	4.456e-06	3.7901e-06	867.79	319.97	4.8342e-06	3.6411e-06	259.57	80.452	85.868	21.817	1.6406e-06	24.41	0.00041726	0.00046152	0.00013051	1104.4	5.1197e-06	5.1827e-06	853.49	316.47	5.1862e-06	5.124e-06	258.91	79.804	85.296	21.86	5.1571e-06	24.528	261.648	234.343	255.009	144.642	316.516	268.224	143.670	148.570	273.759	280.114	146.632	150.945	152.568	156.864	287.288	154.457	-8191	255	
22106.426	1	1	0	0	0.20503	0.030866	0.098874	0.23134	0.23018	0.44985	0.3998	0.16595	0.32167	0.22937	0.38011	0.16168	0.067668	0.21698	0.13066	0.18593	-1.5604	-2.0479	-2.1625	-1.8708	-2.2354	-2.3875	-2.0771	-2.3667	-2.1208	-2.0167	-2.3292	-2.0896	-2.2771	-2.3125	-1.9937	-2.2792	143.464	263.307	145.922	473.529	490.438	409.944	457.897	424.808	302.837	355.382	445.909	420.290	339.845	459.725	368.962	392.689	0.00029606	0.00026463	9.5309e-05	1116.4	3.6627e-06	9.7737e-07	866.69	319.03	3.874e-06	1.2962e-06	259.71	80.265	85.544	21.532	2.2756e-06	24.315	0.00041682	0.00045723	0.00013248	1101.6	4.9692e-06	5.0715e-06	850.7	315.73	4.8724e-06	4.9819e-06	257.45	79.469	84.909	21.599	4.9539e-06	24.24	262.319	210.812	225.440	144.653	308.663	214.681	143.603	148.866	293.413	334.695	146.554	150.892	152.800	156.989	299.518	154.578	-8191	255	
22106.547	1	1	0	0	0.059939	0.027841	0.27357	0.34988	0.23734	0.33791	0.095102	0.085817	0.077325	0.070793	0.26976	0.14094	0.09703	0.36176	0.23696	0.17625	-1.7583	-1.9708	-2.4833	-2.2521	-2.1854	-2.3146	-2.0354	-2.475	-2.2167	-2.0542	-2.475	-1.9104	-2.175	-2.3917	-1.8312	-2.4021	418.495	466.335	413.555	439.702	228.756	292.346	482.592	137.661	334.749	429.961	383.749	390.068	374.566	393.796	160.642	229.771	0.0003047	0.00039778	2.6094e-05	1116.1	4.5187e-06	4.7977e-06	861.69	317.79	6.9767e-06	4.1748e-06	259.14	79.98	84.458	21.168	3.3979e-06	23.899	0.00042275	0.00045551	0.00012406	1101.5	4.8806e-06	5.0242e-06	849.26	314.42	5.0598e-06	5.0894e-06	257.17	78.805	83.903	21.359	4.9227e-06	24.003	257.760	225.308	230.516	144.529	274.514	312.976	143.432	148.530	288.580	308.471	146.304	151.344	152.480	156.571	297.668	154.612	-8191	255	
22106.643	1	1	0	0	0.082951	0.13298	0.16668	0.27521	0.20621	0.2534	0.133	0.19468	0.055268	0.17691	0.25811	0.11338	0.30163	0.28762	0.195	0.045428	-1.7292	-1.9708	-2.2396	-2.1667	-2.2271	-2.3417	-2.1229	-2.2521	-2.1917	-1.9312	-2.4208	-2.2667	-2.0979	-2.1937	-2.1188	-2.4625	464.683	165.629	427.224	141.630	161.430	398.581	158.867	472.754	173.277	469.115	199.487	431.373	473.660	438.363	284.891	429.450	0.00026623	0.0002277	0.0001193	1109.8	3.5211e-06	4.6098e-06	859.23	314.42	6.3369e-06	4.2936e-06	259.26	79.321	83.584	21.193	2.1462e-06	24.097	0.00041423	0.00045969	0.00012561	1095.1	4.9283e-06	4.9738e-06	847.4	311.1	5.0181e-06	5.0378e-06	256.32	78.591	82.819	21.2	4.9178e-06	24.069	267.888	155.033	215.884	144.452	315.201	234.521	143.372	148.703	286.424	292.255	146.488	150.868	152.918	156.277	328.085	154.683	-8191	255	
22106.713	1	1	0	0	0.18093	0.1644	0.24721	0.16061	0.15469	0.11609	0.12629	0.14896	0.13657	0.091519	0.11721	0.24616	0.20147	0.30893	0.35617	0.061103	-1.8563	-1.9167	-2.2917	-2.4771	-2.0208	-2.1979	-2.1083	-2.2979	-2.2	-1.9688	-2.2896	-2.225	-2.1083	-2.4292	-1.9396	-2.3083	400.352	372.859	247.241	451.508	174.290	480.419	344.085	165.821	453.343	313.108	359.085	323.823	465.467	429.910	407.755	208.323	0.00029939	0.00030483	5.5952e-05	1095	4.3926e-06	3.4519e-06	853.45	312.98	4.8783e-06	6.0305e-06	256.38	78.547	83.57	21.189	3.8985e-06	23.808	0.00041389	0.00045723	0.00012538	1082	4.9004e-06	4.9511e-06	839.31	309.35	4.9504e-06	5.0703e-06	252.92	77.441	82.748	21.142	4.848e-06	23.75	271.159	198.013	229.787	144.437	314.904	348.040	143.565	148.332	281.241	284.726	146.201	151.381	152.876	157.378	282.740	154.440	-8191	255	
22106.834	1	1	0	0	0.18389	0.11183	0.094468	0.21154	0.20361	0.090617	0.17913	0.59204	0.032756	0.06181	0.054301	0.077269	0.10458	0.091172	0.074228	0.083339	-1.8375	-1.7542	-2.3729	-2.4104	-1.8875	-2.4604	-1.9438	-2.0333	-2.3333	-2.1083	-2.4333	-1.9708	-1.9125	-2.2667	-2.1333	-2.175	250.438	241.994	133.813	155.799	175.977	358.390	356.443	452.092	145.024	453.616	281.754	378.653	242.761	485.140	373.016	199.173	0.00027787	0.00039199	8.6913e-05	1107.3	6.5961e-06	4.1285e-06	851.83	315.71	2.568e-06	3.8253e-06	256.27	78.582	84.326	21.313	3.2788e-06	23.943	0.00041077	0.00044704	0.00012781	1090.7	5.0361e-06	4.8638e-06	841.26	311.79	4.8527e-06	5.0147e-06	254.6	77.834	83.571	21.338	4.8074e-06	23.941	268.865	227.101	198.684	144.683	276.075	265.924	143.702	148.599	311.097	337.733	146.416	151.095	152.664	156.943	283.243	154.615	-8191	255	
22106.928	1	1	0	0	0.18915	0.18052	0.3251	0.064299	0.1243	0.10415	0.094196	0.14921	0.075492	0.071897	0.2183	0.045769	0.11351	0.3648	0.051464	0.32471	-1.7083	-1.8375	-2.1917	-2.2583	-1.8563	-2.3104	-2.0917	-2.1625	-2.3812	-2.0687	-2.2896	-2.275	-1.7479	-2.4729	-2.0625	-2.1354	381.651	161.999	336.369	236.637	480.567	441.751	418.051	149.550	170.822	455.120	421.698	452.715	487.707	446.407	409.648	300.993	0.00029792	0.0002491	0.00010894	1111.3	5.2065e-06	4.5302e-06	858.23	317.02	3.9061e-06	4.7423e-06	259.89	79.798	85.051	21.586	4.8096e-06	24.468	0.00041099	0.00044075	0.00012362	1097.2	5.0342e-06	5.0542e-06	847.36	314.65	5.0176e-06	4.9704e-06	257.11	78.961	84.209	21.694	4.888e-06	24.439	262.041	174.726	237.069	144.655	307.896	275.122	143.491	148.546	315.438	320.944	146.920	151.045	152.629	156.863	268.843	154.875	-8191	255	
22107.025	1	1	0	0	0.1963	0.2268	0.14195	0.35857	0.15098	0.26405	0.40286	0.21112	0.028029	0.12036	0.2079	0.11024	0.10856	0.33046	0.24793	0.21587	-2.0062	-1.8896	-2.0875	-2.4167	-1.8062	-2.4021	-2.3146	-2.0438	-2.3771	-2.0729	-2.2958	-2.4167	-1.8875	-2.3375	-2.3125	-1.8771	280.970	258.135	276.118	450.966	386.616	231.048	453.375	480.711	257.870	155.519	455.670	337.090	406.249	162.178	365.852	355.307	0.00029122	0.00026667	0.00012436	1109.6	4.104e-06	4.5137e-06	862.89	316.37	4.1773e-06	4.7529e-06	260.19	80.739	84.797	21.806	2.9131e-06	24.656	0.00041868	0.00046501	0.00012909	1092.6	5.0418e-06	5.0804e-06	848.28	312.94	4.9875e-06	5.0312e-06	258.59	80.031	84.17	21.838	4.816e-06	24.815	267.058	236.756	214.646	144.420	292.396	278.270	143.450	148.608	302.710	293.512	146.527	150.772	152.580	157.032	268.403	154.976	-8191	255	
22107.121	1	1	0	0	0.22605	0.24006	0.11226	0.41678	0.14884	0.066381	0.2708	0.49148	0.15901	0.24214	0.15369	0.18661	0.031304	0.10192	0.10529	0.3285	-2.0167	-1.9792	-2.0354	-2.3021	-1.8042	-2.3854	-2.2729	-2.0792	-2.4875	-2.1125	-2.2062	-2.4188	-1.875	-2.3417	-2.2646	-1.9	349.486	489.188	186.913	439.579	161.562	345.418	161.983	458.966	334.290	433.978	163.725	378.834	441.647	414.991	154.788	416.475	0.00031832	0.00032819	0.00010293	1109.3	4.312e-06	2.8711e-06	863.24	318.56	3.5941e-06	2.0945e-06	261.45	79.562	85.472	21.595	3.5957e-06	24.675	0.00041336	0.00045051	0.00012564	1094.6	4.8533e-06	4.8587e-06	849.54	314.85	4.8895e-06	4.9783e-06	259.01	79.289	84.533	21.744	4.8357e-06	24.607	263.831	253.073	248.471	144.303	275.464	322.516	143.444	148.600	298.232	300.267	146.682	150.898	152.570	156.913	274.425	154.724	-8191	255	
22107.240	1	1	0	0	0.10031	0.04165	0.11354	0.20299	0.3575	0.18914	0.43416	0.2505	0.20867	0.041426	0.16414	0.38875	0.314	0.25059	0.3104	0.066041	-1.7396	-1.8708	-2.0021	-2.3812	-1.8958	-2.325	-2.2604	-1.9979	-2.2729	-2.0292	-1.8042	-2.2354	-2.0438	-2.3083	-2.3271	-2.1063	285.558	403.768	196.297	442.439	156.785	447.776	427.711	380.616	480.679	346.311	405.170	459.969	145.065	207.803	317.160	216.591	0.00030024	0.00033551	7.14e-05	1106.1	4.0707e-06	4.9202e-06	859.48	316.99	3.8928e-06	1.659e-06	261.49	80.66	85.34	21.652	4.0548e-06	24.456	0.00040894	0.00043472	0.00012814	1092.5	4.8423e-06	5.0076e-06	846.23	314.28	4.9692e-06	4.8924e-06	257.97	79.329	84.276	21.767	4.9011e-06	24.513	263.322	191.750	196.464	144.418	276.527	276.562	143.517	148.601	307.592	273.691	146.654	150.778	152.867	156.834	272.881	155.186	-8191	255	
22107.312	1	1	0	0	0.12221	0.19387	0.20474	0.12327	0.10712	0.099206	0.083308	0.37898	0.1663	0.31827	0.25327	0.22627	0.24768	0.16852	0.10505	0.097283	-1.7563	-2.0312	-1.9667	-2.5687	-1.8354	-2.1354	-2.3063	-2.0583	-2.3854	-2.0521	-1.9417	-2.3146	-1.9417	-2.1	-2.3438	-1.9792	245.208	299.317	418.101	454.224	196.461	395.392	484.111	418.325	412.189	326.891	432.189	483.046	390.413	203.921	407.350	179.255	0.00029902	0.00030785	8.7125e-05	1107.2	2.5109e-06	5.9944e-06	861.9	318.94	3.4956e-06	1.3624e-06	259.57	80.636	84.645	21.751	3.4934e-06	24.657	0.00040601	0.00043217	0.00012484	1094.6	4.923e-06	4.8305e-06	848.88	315.29	4.7797e-06	4.9435e-06	258.03	79.427	84.176	21.736	4.8634e-06	24.675	262.237	193.089	215.782	144.544	259.869	273.140	143.389	148.306	297.285	200.574	146.430	150.975	152.723	156.944	249.980	154.406	-8191	255	
22107.434	1	1	0	0	0.19462	0.076652	0.14935	0.3078	0.14769	0.1967	0.2009	0.079365	0.19396	0.16936	0.37148	0.18434	0.20933	0.18865	0.28984	0.14768	-1.8188	-2.2396	-1.9542	-2.5083	-2.0167	-2.0062	-2.5125	-2.0354	-2.0417	-2.2146	-2.0187	-2.2917	-2.0708	-2.1417	-2.3271	-2.1562	209.435	281.806	168.716	451.107	317.301	428.295	188.591	368.708	176.491	353.172	151.967	434.729	413.568	398.004	413.920	136.304	0.00028293	0.00026602	7.011e-05	1108.8	3.2417e-06	4.3149e-06	865.2	319.51	3.9584e-06	2.2555e-06	263.71	80.309	85.109	21.879	3.8682e-06	25.153	0.00039545	0.00043715	0.0001254	1096.5	4.7983e-06	4.8717e-06	853.2	315.07	4.9377e-06	4.8955e-06	260.96	80.026	84.441	21.948	4.7277e-06	25.04	256.516	244.164	231.486	144.405	266.270	279.023	143.428	148.440	289.367	235.811	146.546	151.169	152.880	156.441	309.885	154.618	-8191	255	
22107.529	1	1	0	0	0.17272	0.16352	0.13789	0.41564	0.11447	0.14405	0.11639	0.35953	0.16364	0.15877	0.081275	0.30592	0.13491	0.3144	0.31374	0.21873	-1.825	-2.2083	-2.0958	-2.1937	-2.2208	-1.9979	-2.5042	-1.9854	-2.0667	-2.225	-2.0521	-2.4104	-2.1604	-1.9167	-2.4792	-2.1813	281.775	200.496	392.217	417.861	238.353	342.770	413.957	395.733	160.833	489.592	375.914	343.085	433.716	434.599	392.555	404.941	0.00030806	0.0001841	0.00013157	1110.4	3.1973e-06	2.0936e-06	870.07	320.59	6.1294e-06	4.3406e-06	264.27	81.072	85.904	22.049	2.3508e-06	25.002	0.00040517	0.00045028	0.00012471	1100.8	5.1345e-06	4.9949e-06	858.93	317.24	4.9199e-06	4.9626e-06	261.76	80.585	85.137	22.085	4.8684e-06	25.07	264.313	154.841	224.156	144.575	273.367	296.500	143.607	148.437	296.563	300.728	146.623	150.979	152.567	156.672	244.187	154.681	-8191	255	
22107.627	1	1	0	0	0.12688	0.10833	0.1094	0.28975	0.089779	0.094883	0.28468	0.17881	0.13298	0.161	0.085316	0.31453	0.035077	0.15309	0.26643	0.21771	-1.6542	-2.2188	-1.7271	-2.4146	-2.1083	-1.9646	-2.5146	-1.9875	-2.0042	-2.3083	-2.0812	-2.2958	-2.3021	-1.8875	-2.3167	-2.1771	257.996	366.724	160.066	146.706	133.320	437.426	406.205	138.738	406.589	135.280	197.145	447.875	289.229	311.433	413.563	463.059	0.00029307	0.00028494	0.00010745	1109.7	3.7099e-06	3.9069e-06	862.44	319.8	3.3059e-06	3.4515e-06	262.58	80.357	84.613	21.926	2.4219e-06	24.944	0.00042222	0.00044082	0.0001228	1096.4	4.8337e-06	4.9099e-06	849.37	315.29	4.72e-06	4.8594e-06	259.61	80.198	84.593	21.988	4.8145e-06	24.972	266.882	258.505	230.717	144.626	271.896	327.691	143.314	148.770	276.447	321.071	146.517	151.029	152.937	156.808	293.830	154.926	-8191	255	
22107.723	1	1	0	0	0.11878	0.2851	0.0487	0.22262	0.16269	0.36963	0.05369	0.075299	0.2266	0.21188	0.18348	0.60679	0.24973	0.23391	0.14847	0.21763	-1.6167	-2.3625	-1.9042	-2.2438	-2.3729	-2.0667	-2.4229	-2.2	-2.1188	-2.4062	-2.0812	-2.1458	-2.0917	-1.9646	-2.3083	-2.1854	382.122	175.481	149.938	436.469	480.587	447.104	417.833	405.209	303.905	314.167	173.850	435.495	168.147	172.839	319.653	224.153	0.00029752	0.00043035	6.0027e-05	1113.8	1.8072e-06	5.1643e-06	862.37	320.39	3.9515e-06	4.1503e-06	263.72	80.831	85.073	21.74	3.7028e-06	25.123	0.00041692	0.00044578	0.00012286	1098	4.8842e-06	5.0374e-06	851.84	315.96	4.8414e-06	5.0106e-06	260.59	80.332	84.48	21.914	4.8684e-06	25.09	263.417	235.041	265.934	144.409	283.409	281.931	143.879	148.759	297.396	289.180	146.342	151.231	152.540	156.751	257.075	154.493	-8191	255	
22107.842	1	1	0	0	0.25595	0.068853	0.082435	0.16122	0.047496	0.18328	0.21928	0.26887	0.093079	0.15642	0.09654	0.13301	0.112	0.23174	0.076896	0.19055	-1.4354	-2.2271	-2.0792	-2.1354	-2.4437	-2.0021	-2.2938	-2.2	-1.9604	-2.4167	-1.8521	-2.2396	-2.1333	-2.0354	-2.2854	-2.2333	428.244	312.112	205.165	144.131	142.122	192.721	462.215	136.410	278.224	189.225	393.838	141.614	163.095	454.290	247.775	463.175	0.00029334	0.00064483	5.8432e-05	1108.8	4.5932e-06	2.7205e-06	866.2	318.58	3.1369e-06	2.2444e-06	264.97	82.031	85.375	21.921	2.5947e-06	25.502	0.00040452	0.00043504	0.00012498	1097.4	4.8356e-06	4.9542e-06	855.07	315.15	4.9984e-06	4.9394e-06	262.12	81.177	84.315	22.035	4.7459e-06	25.519	257.224	198.946	175.859	144.553	258.258	260.576	143.297	148.582	327.291	263.992	146.416	150.766	153.047	156.923	298.491	154.253	-8191	255	
22107.938	1	1	0	0	0.14294	0.20454	0.16927	0.25807	0.16685	0.089743	0.22872	0.096021	0.12593	0.092225	0.19284	0.11633	0.098511	0.25221	0.23545	0.10836	-1.425	-2.2417	-2.1292	-2.275	-2.4104	-1.8958	-2.4875	-2.2979	-1.8625	-2.4833	-2.1271	-2.2583	-2.5521	-2.1292	-2.1042	-2.2896	480.990	431.346	281.815	422.866	380.545	439.972	417.972	343.419	210.070	404.008	457.035	470.829	366.649	476.753	228.394	376.376	0.00030138	0.00036699	6.109e-05	1108.5	4.1663e-06	4.3989e-06	874.86	318.74	3.0545e-06	4.4699e-06	267.47	82.268	85.173	22.306	4.8401e-06	25.882	0.00041289	0.00043334	0.00012398	1094.5	4.9245e-06	4.9516e-06	859.21	315.58	4.9105e-06	4.8507e-06	263.78	81.867	84.382	22.302	4.7594e-06	25.873	261.937	224.354	216.024	144.438	301.604	287.149	143.047	148.463	289.068	308.298	146.742	150.705	152.926	156.697	281.392	154.640	-8191	255	
22108.010	1	1	0	0	0.037482	0.08598	0.083068	0.26278	0.18001	0.18093	0.052917	0.023913	0.19149	0.079996	0.018737	0.094695	0.20846	0.093668	0.23845	0.21341	-1.7375	-2.2333	-2.1604	-2.1708	-2.3375	-1.9021	-2.2354	-2.4833	-1.85	-2.3021	-2.2229	-1.975	-2.3667	-2.0375	-2.1583	-2.5375	458.156	239.220	354.044	430.396	285.367	400.864	279.477	149.868	157.777	211.678	335.314	468.435	368.612	456.080	410.139	461.981	0.00033331	0.00023514	0.00015673	1109.9	4.4749e-06	3.4097e-06	870.41	319.17	4.9076e-06	4.4094e-06	265.53	82.846	85.839	22.163	3.0216e-06	25.765	0.00041758	0.0004455	0.00012282	1094	4.9056e-06	4.8122e-06	855.39	315.98	4.9008e-06	4.8121e-06	262.39	81.807	84.743	22.292	4.5728e-06	25.737	263.760	251.569	202.924	144.583	277.595	257.818	143.502	148.652	291.902	216.094	146.566	151.090	152.557	156.964	282.233	154.776	-8191	255	
22108.105	1	1	0	0	0.13047	0.30126	0.10044	0.2009	0.13332	0.11992	0.1345	0.32024	0.18989	0.36512	0.14589	0.21172	0.15585	0.24502	0.1666	0.16945	-1.6229	-2.3958	-2.2646	-2.0792	-2.3396	-2.1708	-2.0229	-2.3333	-1.8958	-2.3292	-2.2354	-1.9167	-2.3667	-2.1833	-2.3333	-2.4062	465.110	279.644	451.671	420.987	372.945	402.428	427.179	138.312	184.636	442.694	187.360	204.467	178.373	382.064	452.117	459.383	0.00034542	0.00041737	0.00014506	1106.8	4.7681e-06	3.1214e-06	872.13	319.63	3.4563e-06	3.548e-06	266.35	83.542	86.404	22.422	5.3967e-06	25.9	0.00041104	0.00043042	0.00012302	1093	4.8176e-06	4.8455e-06	855.9	317.07	4.8722e-06	4.7244e-06	264.04	82.518	85.559	22.472	4.8184e-06	25.859	262.832	229.463	220.625	144.518	258.714	202.175	143.688	148.617	282.605	299.269	146.117	150.691	152.960	156.774	286.409	154.678	-8191	255	
22108.227	1	1	0	0	0.077855	0.079635	0.085157	0.22078	0.22873	0.26219	0.25442	0.15315	0.23134	0.21411	0.20565	0.20553	0.12486	0.22231	0.2276	0.17082	-1.425	-2.3646	-2.0854	-1.9104	-2.3833	-1.9229	-2.1271	-2.5563	-1.8917	-2.0708	-2.4229	-1.9062	-2.5479	-2.1521	-1.9979	-2.4437	488.584	380.617	382.627	395.078	238.293	192.452	377.220	408.975	403.785	147.965	326.724	145.390	459.961	456.979	363.250	434.319	0.00028399	0.00050589	9.2906e-05	1120.1	4.3269e-06	1.7932e-06	878.6	322.98	4.0932e-06	3.227e-06	266.98	83.856	87.352	22.51	2.6422e-06	25.946	0.00040666	0.00045117	0.00012164	1102.5	4.8621e-06	4.7852e-06	863.64	319.91	4.8956e-06	4.8271e-06	265.69	82.823	86.312	22.588	4.7272e-06	26.1	268.144	214.669	193.743	144.434	297.149	264.702	143.562	148.499	302.128	249.728	146.320	150.930	152.797	156.778	221.408	154.288	-8191	255	
22108.322	1	1	0	0	0.041773	0.11149	0.40171	0.28509	0.19137	0.081106	0.15615	0.28205	0.1814	0.21285	0.031118	0.28972	0.051938	0.1549	0.041806	0.15415	-1.7	-2.3458	-2.1437	-2.0708	-2.2104	-2.2354	-2.2562	-2.4771	-2.1688	-2.1333	-2.4833	-1.9104	-2.2562	-2.1521	-1.8396	-2.3625	266.644	254.900	405.658	450.040	196.618	225.067	460.641	447.554	135.668	303.179	276.022	480.186	313.461	490.108	346.256	426.078	0.00033035	0.00031733	7.4037e-05	1117.6	5.2173e-06	3.9852e-06	880.64	322.97	3.2827e-06	1.9115e-06	271.32	84.745	87.877	22.815	3.3827e-06	26.557	0.000417	0.00044553	0.00012243	1101.8	4.7264e-06	4.8982e-06	865.81	320.05	4.87e-06	4.838e-06	268.37	83.835	86.706	22.883	4.8563e-06	26.542	260.419	191.516	333.927	144.692	284.656	256.724	143.529	148.738	269.594	291.389	146.482	151.175	152.756	156.680	272.613	155.000	-8191	255	
22108.418	1	1	0	0	0.14105	0.1605	0.028737	0.10959	0.24503	0.078019	0.29237	0.19422	0.092699	0.12645	0.10893	0.069913	0.15504	0.11944	0.21585	0.14627	-1.8188	-2.075	-2.2292	-2.1	-2.1292	-2.0938	-1.9937	-2.5125	-2.0104	-2.1312	-2.4417	-2.0354	-2.4375	-2.2667	-1.7104	-2.3812	433.962	394.459	348.216	131.535	340.276	374.076	386.451	453.384	376.658	184.100	434.452	320.566	411.833	367.107	387.633	410.692	0.00032229	0.00054987	0.0001135	1126.1	3.4839e-06	5.0542e-06	884.53	328.45	2.7729e-06	3.5691e-06	272.02	85.263	89.695	23.243	4.489e-06	26.328	0.00040564	0.00043339	0.00011879	1110.4	4.7026e-06	4.7228e-06	871.33	324.57	4.7378e-06	4.7323e-06	269.14	84.157	88.628	23.183	4.7503e-06	26.22	263.021	234.704	211.688	144.450	274.636	276.342	143.419	148.689	287.305	278.168	146.688	151.189	152.740	156.897	271.558	154.367	-8191	255	
22108.514	1	1	0	0	0.2731	0.073694	0.11286	0.081504	0.099655	0.13796	0.25432	0.051218	0.19667	0.15525	0.27302	0.19992	0.21598	0.18412	0.32112	0.14689	-1.6146	-1.925	-2.3396	-2.1542	-2.2667	-2.1104	-1.9667	-2.4292	-2.1125	-2.0604	-2.2854	-2.0646	-2.2646	-2.1937	-1.8937	-2.3396	138.010	473.297	168.501	412.370	335.447	245.786	353.684	319.066	445.554	263.139	308.307	279.257	162.513	367.907	144.303	476.351	0.00028209	0.00036712	0.00010311	1130.2	4.6964e-06	2.3068e-06	885.18	329.36	5.2944e-06	6.247e-06	272.23	85.16	90.083	23.24	4.9953e-06	26.411	0.00039814	0.00043759	0.00011836	1117.5	4.6657e-06	4.632e-06	871.01	326.52	4.6851e-06	4.7798e-06	269.56	84.371	88.861	23.205	4.7444e-06	26.359	259.801	175.004	255.578	144.809	293.627	308.352	143.284	148.729	306.528	298.601	146.650	150.700	152.838	156.537	280.743	154.783	-8191	255	
22108.609	1	1	0	0	0.086558	0.15735	0.3095	0.26656	0.2746	0.11478	0.32596	0.1159	0.057636	0.1794	0.26	0.1564	0.25813	0.28147	0.19461	0.11131	-1.6479	-1.9396	-2.3604	-2.0417	-2.1	-2.1875	-1.8521	-2.3604	-2.1562	-1.975	-2.3771	-2.1063	-2.2042	-2.3542	-2.0146	-2.4354	240.399	388.960	329.675	443.695	414.438	388.739	415.154	360.389	244.450	330.305	455.886	419.554	134.703	144.066	438.024	292.560	0.00033643	0.00024076	0.00012731	1133	5.0129e-06	4.1748e-06	883.83	329.14	3.8326e-06	3.2103e-06	270.87	84.738	88.987	22.995	3.3906e-06	26.284	0.00041236	0.00043738	0.00011913	1115.4	4.6549e-06	4.4624e-06	869.23	325.12	4.7234e-06	4.6751e-06	268.94	83.998	88.164	23	4.6903e-06	26.304	265.718	194.223	214.345	144.610	295.774	283.545	143.247	148.581	286.289	293.484	146.407	150.932	152.783	157.075	278.151	154.766	-8191	255	
22108.705	1	1	0	0	0.092657	0.1119	0.35275	0.28842	0.19588	0.18953	0.1953	0.10305	0.1463	0.11781	0.1894	0.065903	0.15078	0.24815	0.18343	0.11249	-1.8646	-1.9208	-2.3104	-2.1813	-2.1667	-2.2333	-1.9771	-2.2396	-2.1771	-1.9604	-2.2667	-2.0833	-2	-2.4313	-2.0875	-2.4062	368.676	362.596	326.021	407.515	458.844	372.911	437.884	418.896	394.545	243.748	272.350	409.659	457.831	414.168	399.765	300.750	0.0003282	0.00029812	0.00014324	1125	4.3738e-06	6.0899e-06	885.76	328.62	4.584e-06	4.0507e-06	273.01	84.716	89.392	23.185	5.456e-06	26.504	0.00039425	0.0004312	0.00011751	1112.8	4.6442e-06	4.7266e-06	873.29	324.78	4.7058e-06	4.7712e-06	270.55	84.231	88.533	23.101	4.6611e-06	26.468	262.960	237.322	223.947	144.430	279.086	308.633	143.550	148.588	283.080	321.173	146.484	150.655	152.550	156.658	301.096	155.343	-8191	255	
22108.803	1	1	0	0	0.12163	0.10483	0.12382	0.37637	0.1149	0.22943	0.22278	0.18264	0.20851	0.067362	0.20585	0.26304	0.090754	0.02398	0.45941	0.057267	-1.8792	-1.8792	-2.3896	-2.2458	-2.1063	-2.4792	-2.3083	-2.0875	-2.1917	-1.9438	-2.3646	-2.2687	-2.0521	-2.3812	-1.7875	-2.1312	281.595	156.665	180.782	418.387	404.321	458.486	434.501	449.073	243.702	143.342	414.873	436.161	165.264	445.704	146.490	359.717	0.00031536	0.00022758	6.2147e-05	1130.8	7.4737e-06	4.0849e-06	895.06	332.44	5.3036e-06	2.556e-06	273.51	85.019	89.941	23.283	2.4402e-06	26.126	0.00041396	0.00044089	0.00011799	1122	4.7466e-06	4.6523e-06	878.82	328.04	4.8106e-06	4.7493e-06	270.74	84.574	88.998	23.287	4.7351e-06	26.193	262.992	171.319	242.283	144.467	304.751	265.708	143.473	148.619	279.861	228.454	146.577	151.207	152.540	157.020	307.323	154.188	-8191	255	
22108.922	1	1	0	0	0.13001	0.20424	0.35366	0.166	0.084469	0.25045	0.14879	0.27723	0.065387	0.2645	0.16709	0.083213	0.30312	0.51322	0.10799	0.10099	-1.8479	-1.9979	-2.3167	-2.2083	-1.8813	-2.3354	-2.1292	-2.3438	-2.3521	-1.8896	-2.225	-2.1042	-1.9833	-2.2417	-2.3646	-2.0104	201.541	376.980	406.029	464.784	299.673	346.162	485.171	408.206	302.811	334.342	299.516	147.499	314.735	480.768	152.763	468.605	0.00032768	0.0001905	0.00010993	1131.8	6.1316e-06	4.3721e-06	881.63	329.11	4.6638e-06	2.8428e-06	272.24	84.626	88.819	23.024	3.6608e-06	25.903	0.00040932	0.00043389	0.00012032	1119.6	4.8368e-06	4.6348e-06	869.57	325.39	4.7853e-06	4.8411e-06	268.36	83.286	88.188	22.984	4.6352e-06	25.945	256.995	240.003	219.336	144.713	321.501	303.481	143.615	148.800	310.195	264.569	146.527	151.181	152.715	156.690	276.786	154.464	-8191	255	
22109.018	1	1	0	0	0.061102	0.21146	0.10943	0.055031	0.19602	0.10178	0.22154	0.23964	0.1369	0.1421	0.078466	0.2386	0.18279	0.25076	0.20998	0.11507	-1.8896	-1.9396	-2.2188	-2.3333	-1.8646	-2.2208	-2.2021	-2.1188	-2.2729	-1.8229	-2.2438	-2.2771	-2.1354	-2.2833	-2.2708	-1.8583	265.279	187.365	206.538	375.705	176.475	163.253	426.198	424.066	276.553	290.356	396.632	179.893	426.345	424.233	457.979	280.158	0.00031576	0.00018927	7.9479e-05	1127.8	5.1223e-06	4.0321e-06	883.76	328.83	3.628e-06	3.9417e-06	271.92	83.633	89.357	22.756	2.2881e-06	25.852	0.00040544	0.00042944	0.00011993	1115.7	4.8223e-06	4.6948e-06	872.07	325.33	4.7523e-06	4.8136e-06	268.36	83.191	88.05	22.868	4.7235e-06	25.871	258.989	222.480	213.933	144.569	294.791	258.600	143.497	148.764	316.644	294.156	146.605	150.805	152.280	156.789	300.056	154.541	-8191	255	
22109.113	1	1	0	0	0.27035	0.20045	0.12636	0.22597	0.41888	0.28863	0.038939	0.089693	0.074344	0.10389	0.39845	0.15056	0.072205	0.29977	0.42653	0.16459	-1.8937	-1.9271	-2.0208	-2.3937	-1.725	-2.3521	-2.0896	-2.2062	-2.3937	-2.0583	-2.0687	-2.2083	-1.9813	-2.0833	-2.2042	-1.925	280.444	435.938	162.306	195.699	143.320	403.649	143.920	446.522	488.463	390.568	448.809	456.508	317.455	322.658	341.240	194.416	0.00031272	0.00051197	0.00011176	1133.7	6.0662e-06	6.3112e-06	885.24	329.04	5.3916e-06	3.0172e-06	273.05	85.347	88.98	23.126	3.1682e-06	26.183	0.00040151	0.00043655	0.00012065	1118.8	4.6983e-06	4.6228e-06	873.25	325.52	4.6189e-06	4.7948e-06	269.85	83.976	88.408	23.079	4.6852e-06	26.23	262.383	238.588	241.646	144.607	292.093	280.582	143.674	148.303	278.927	291.915	146.924	150.919	152.798	156.739	302.428	154.542	-8191	255	
22109.211	1	1	0	0	0.025198	0.19018	0.14916	0.23457	0.12186	0.22714	0.13342	0.14066	0.24354	0.13453	0.14073	0.017451	0.29571	0.02905	0.19591	0.12166	-1.9417	-1.9937	-1.9854	-2.4562	-1.9458	-2.1896	-2.4688	-1.95	-2.2083	-2.0667	-2.0687	-2.2479	-2.0375	-2.325	-2.1771	-1.8458	282.414	238.351	204.485	452.104	369.315	288.901	474.671	432.693	236.476	452.527	220.990	137.642	478.360	284.628	338.391	413.471	0.00029077	0.00053489	0.00013641	1139.3	5.5995e-06	4.2891e-06	888.69	333.19	4.3693e-06	5.3167e-06	274.99	85.466	90.448	23.141	1.5183e-06	26.014	0.00040493	0.0004324	0.00012433	1126.2	4.8087e-06	4.9445e-06	877.85	329.26	4.6885e-06	4.698e-06	271.87	84.562	89.405	23.166	4.6325e-06	26.042	263.272	240.417	213.826	144.478	308.266	298.781	143.702	148.481	295.854	290.967	146.604	150.906	152.578	157.088	291.125	154.359	-8191	255	
22109.307	1	1	0	0	0.1985	0.19925	0.088056	0.28912	0.12039	0.25481	0.2393	0.17226	0.16577	0.20986	0.26426	0.32642	0.23896	0.04202	0.029703	0.15593	-1.7938	-2.0042	-2.0104	-2.4979	-1.9583	-2.025	-2.3583	-2.0354	-2.2812	-2.1813	-2.2083	-2.3208	-1.8604	-2.1729	-2.2417	-1.8708	482.728	355.135	136.718	368.387	420.689	419.801	408.639	454.866	444.242	228.368	470.245	130.599	468.273	383.537	326.926	481.789	0.00030232	0.00044921	6.2324e-05	1133.2	3.5819e-06	3.3079e-06	880.72	327.99	5.4385e-06	4.0084e-06	267.83	83.459	87.2	22.45	3.1904e-06	25.708	0.00040122	0.00043949	0.00011852	1117.3	4.6107e-06	4.7974e-06	867.35	323.12	4.6468e-06	4.53e-06	265.21	82.327	86.837	22.508	4.6107e-06	25.587	257.283	229.691	249.455	144.579	257.359	285.582	143.473	148.422	299.240	262.704	146.462	151.104	152.699	157.125	297.653	154.728	-8191	255	
22109.402	1	1	0	0	0.27654	0.21604	0.0082109	0.12382	0.07516	0.12125	0.21691	0.1874	0.023213	0.017715	0.25552	0.060027	0.13476	0.30124	0.25681	0.16914	-1.8583	-2.0667	-1.9312	-2.4583	-1.9417	-2.1312	-2.3104	-1.9229	-2.3333	-2.0938	-1.8208	-2.4083	-1.95	-2.1792	-2.2854	-1.9333	392.350	231.845	426.984	414.176	399.546	172.970	478.389	437.486	381.645	309.381	241.550	397.416	154.619	479.354	319.575	437.012	0.00032019	0.00034365	0.00010606	1118.1	3.6376e-06	3.5892e-06	875.22	320.88	4.2717e-06	5.426e-06	265.97	82.704	86.139	22.282	5.2019e-06	25.389	0.00038879	0.00043577	0.00011858	1103.8	4.6835e-06	4.6368e-06	861.08	318.26	4.6543e-06	4.7056e-06	263.47	81.643	85.79	22.325	4.5816e-06	25.489	259.672	236.878	213.943	144.317	282.816	225.585	143.371	148.727	271.429	315.758	146.652	150.951	152.492	156.817	299.018	154.154	-8191	255	
22109.523	1	1	0	0	0.10735	0.21001	0.27641	0.12019	0.075093	0.20603	0.2459	0.22011	0.036032	0.14682	0.27182	0.23736	0.13971	0.19908	0.22887	0.18106	-1.95	-2.1583	-1.7687	-2.5208	-2.1521	-2.1042	-2.3167	-2.0667	-2.2729	-2.1729	-1.8729	-2.3333	-2.1813	-2.0083	-2.2792	-1.8604	233.779	438.951	240.447	208.952	256.357	219.694	415.488	441.721	334.380	133.993	225.296	473.418	418.398	286.579	342.553	272.565	0.00033205	0.00051181	0.00014113	1111.2	3.2223e-06	2.414e-06	873.6	321.36	6.5928e-06	1.5406e-06	266.65	82.819	86.628	22.235	2.4887e-06	25.296	0.00040131	0.0004217	0.00011749	1098.6	4.4807e-06	4.594e-06	858.27	317.79	4.6189e-06	4.606e-06	263.6	81.796	85.555	22.233	4.4363e-06	25.396	262.413	225.832	250.280	144.661	279.023	292.970	143.369	148.665	294.348	296.264	146.587	150.792	152.499	156.531	282.966	154.892	-8191	255	
22109.619	1	1	0	0	0.03257	0.24872	0.088348	0.2899	0.091521	0.053096	0.057445	0.32826	0.20106	0.14104	0.024086	0.40596	0.17876	0.075479	0.27669	0.22408	-1.6479	-1.9958	-1.9062	-2.3542	-2.1437	-1.9875	-2.6521	-2.1667	-2.2729	-2.2313	-1.9542	-2.2167	-2.2188	-2.0458	-2.1562	-1.9937	346.993	223.935	132.228	486.893	324.164	217.728	414.632	428.694	219.772	401.537	153.184	209.312	398.755	448.172	132.671	474.604	0.0003408	0.00043229	9.3732e-05	1114.1	3.0514e-06	3.4356e-06	873.41	320.72	3.8075e-06	2.8953e-06	265.65	82.445	86.228	22.252	2.8749e-06	25.477	0.00038762	0.00042111	0.00011774	1100.6	4.5285e-06	4.7452e-06	858.47	317.27	4.5708e-06	4.49e-06	263.36	81.392	85.295	22.187	4.4818e-06	25.33	259.859	235.451	241.821	144.489	291.572	286.286	143.392	148.292	273.990	248.178	146.515	150.850	152.307	156.638	306.555	154.666	-8191	255	
22109.715	1	1	0	0	0.23582	0.27726	0.28424	0.42472	0.10979	0.13874	0.21998	0.15436	0.11441	0.15828	0.083708	0.24428	0.22036	0.33711	0.23763	0.11341	-1.5708	-2.2438	-1.825	-2.3292	-2.1146	-1.9604	-2.4042	-2.0708	-2.0604	-2.4188	-2.1479	-2.2396	-2.3167	-1.8917	-2.3042	-2.0958	192.852	367.502	290.320	444.076	351.421	170.253	375.936	487.297	153.722	364.603	164.775	154.009	427.088	400.093	484.034	471.079	0.00029375	0.00042212	0.00010019	1111.9	6.1656e-06	2.5625e-06	869.67	318.21	3.0709e-06	2.875e-06	261.95	81.342	85.635	21.849	3.8983e-06	24.935	0.00038647	0.00041844	0.00011717	1095.6	4.4545e-06	4.65e-06	853.49	314.88	4.5996e-06	4.6281e-06	259.65	80.257	84.526	21.906	4.4171e-06	24.866	260.958	230.737	277.839	144.406	286.151	296.125	143.656	148.383	293.127	276.597	146.724	150.711	152.580	156.964	282.386	154.941	-8191	255	
22109.809	1	1	0	0	0.28153	0.12442	0.12368	0.21566	0.091393	0.10726	0.21852	0.25385	0.2967	0.018586	0.097245	0.28606	0.091323	0.19777	0.20544	0.16373	-1.7646	-2.2958	-1.7792	-2.3	-2.3542	-1.8937	-2.4042	-2.1083	-2.025	-2.4021	-1.9792	-2.1125	-2.2938	-2.0854	-2.2562	-2.1417	436.874	480.933	214.897	457.280	358.676	449.636	467.752	400.914	419.122	354.760	413.844	421.392	487.557	238.548	135.669	342.741	0.00031542	0.00035702	0.00012887	1108.5	4.8874e-06	2.4765e-06	860.49	317.49	2.7006e-06	2.4037e-06	263.46	80.513	84.474	21.648	4.4268e-06	25.29	0.00039291	0.00041902	0.00011623	1091.7	4.534e-06	4.5057e-06	848.56	313.17	4.6365e-06	4.5541e-06	258.65	79.731	83.556	21.718	4.5524e-06	25.028	264.806	198.884	218.098	144.553	296.435	303.485	143.466	148.451	278.327	291.095	146.497	151.121	152.441	156.944	267.629	154.266	-8191	255	
22109.883	1	1	0	0	0.13331	0.19891	0.24118	0.32376	0.16886	0.31853	0.24193	0.17135	0.037157	0.24349	0.13147	0.12733	0.54599	0.50466	0.25048	0.17662	-1.4125	-2.4729	-2.0458	-2.2792	-2.2375	-1.8958	-2.4021	-2.1979	-1.9146	-2.3479	-2.0771	-2.2208	-2.2729	-1.8292	-2.2812	-2.4896	192.918	468.972	439.015	450.448	246.225	320.495	311.264	456.975	433.940	462.180	299.975	303.244	461.085	434.574	150.885	374.708	0.00031262	0.0004394	9.6787e-05	1104.3	5.0822e-06	3.5784e-06	859.7	315.74	5.6974e-06	7.1048e-06	258.72	80.25	84.309	21.765	4.7808e-06	25.108	0.00039479	0.00040609	0.00011774	1086.4	4.4749e-06	4.5627e-06	847.78	311.49	4.5657e-06	4.4237e-06	258.03	79.593	83.535	21.755	4.3448e-06	25.136	264.732	218.460	231.857	144.685	290.185	273.628	143.686	148.522	283.395	277.536	146.628	151.116	152.489	156.684	296.024	154.708	-8191	255	
22110.002	1	1	0	0	0.13127	0.19212	0.069742	0.28061	0.21393	0.28582	0.25609	0.25928	0.21464	0.26263	0.14264	0.21117	0.080564	0.035517	0.10135	0.33698	-1.4104	-2.4229	-2.1333	-2.1396	-2.2854	-2.0687	-2.2833	-2.4125	-1.8813	-2.2771	-2.35	-1.9771	-2.1708	-1.9229	-2.2313	-2.3042	202.917	485.688	298.918	454.645	462.862	353.355	466.250	384.021	282.442	482.242	476.210	490.199	131.818	448.505	320.818	376.148	0.00030366	0.00029446	6.6812e-05	1109.3	2.9807e-06	2.1154e-06	869.24	317.93	2.6994e-06	3.3854e-06	264.11	82.174	85.608	22.257	4.7094e-06	25.755	0.0003905	0.00039976	0.00011337	1094.3	4.4837e-06	4.5986e-06	855.59	315.18	4.6873e-06	4.6192e-06	262.34	81.304	85.04	22.266	4.68e-06	25.727	254.636	251.786	192.364	144.569	276.520	251.017	143.619	148.741	278.997	261.683	146.689	151.087	152.678	157.069	295.190	154.715	-8191	255	
22110.098	1	1	0	0	0.11235	0.13126	0.16269	0.21692	0.066964	0.17894	0.13988	0.20878	0.18428	0.14019	0.20233	0.15242	0.097068	0.047589	0.10812	0.10734	-1.5479	-2.2271	-2.1688	-2.1417	-2.2583	-1.9354	-2.4062	-2.4271	-1.9583	-2.2938	-2.1583	-1.9021	-2.3792	-1.9354	-2.0187	-2.2438	196.326	191.781	137.491	417.308	364.024	388.725	443.866	427.443	232.580	175.586	156.244	217.523	163.769	144.831	467.581	462.272	0.00026919	0.00043013	0.00013042	1108.9	2.4921e-06	1.4609e-06	872.05	317.94	3.4566e-06	3.9233e-06	263.54	81.575	85.913	22.266	2.4395e-06	25.53	0.00039738	0.00040649	0.00011797	1095.2	4.5207e-06	4.5816e-06	856.29	315.44	4.584e-06	4.5533e-06	261.44	80.891	84.872	22.277	4.4454e-06	25.51	267.396	233.353	197.588	144.542	240.717	372.250	143.478	148.663	306.113	290.388	146.386	150.991	152.363	157.150	317.699	154.936	-8191	255	
22110.193	1	1	0	0	0.089475	0.11177	0.032785	0.11505	0.34502	0.1015	0.14084	0.083874	0.255	0.12482	0.11837	0.070018	0.14206	0.28238	0.066696	0.17846	-1.4917	-2.15	-2.1229	-2.0771	-2.2479	-2.0375	-2.025	-2.4813	-1.9208	-2.1604	-2.2292	-1.8979	-2.3917	-2.1104	-1.9396	-2.2938	180.290	133.286	361.688	296.428	228.648	242.166	346.517	396.810	250.350	252.487	387.773	444.692	481.803	425.674	179.646	350.917	0.00027217	0.00021881	0.00011596	1106.1	3.9082e-06	3.8304e-06	870.05	321.53	1.6055e-06	4.6849e-06	264.69	81.984	86.007	22.327	2.7736e-06	25.378	0.00038256	0.00041211	0.00011589	1094.3	4.4418e-06	4.5322e-06	854.38	317.72	4.5739e-06	4.3891e-06	261.67	81.312	85.503	22.403	4.559e-06	25.454	263.051	229.068	225.985	144.503	283.537	317.422	143.412	148.577	272.927	293.499	146.386	151.028	152.970	156.755	268.422	154.419	-8191	255	
22110.314	1	1	0	0	0.045836	0.27163	0.16823	0.32741	0.16765	0.28656	0.1573	0.33062	0.085934	0.1231	0.21765	0.047143	0.31084	0.11874	0.18197	0.18272	-1.3542	-2.1312	-2.2562	-2.0146	-2.4292	-2.0833	-2.0854	-2.5042	-1.9771	-2.1021	-2.3896	-1.9542	-2.4062	-2.175	-1.8542	-2.4333	251.087	187.787	437.541	422.974	419.598	389.485	473.111	448.819	259.569	175.830	452.840	174.416	377.456	347.323	397.842	136.890	0.00030603	0.0004357	6.7325e-05	1115.7	4.424e-06	3.5021e-06	869.01	323.28	2.5067e-06	3.4661e-06	264.51	82.509	87.375	22.482	2.6043e-06	25.552	0.00038324	0.00041821	0.00011543	1101	4.6299e-06	4.5246e-06	857.66	319.81	4.538e-06	4.4834e-06	263.09	81.668	86.319	22.479	4.5184e-06	25.591	256.059	199.022	188.746	144.433	285.313	291.055	143.445	148.358	293.112	311.362	146.564	150.801	152.576	156.908	247.007	155.010	-8191	255	
22110.410	1	1	0	0	0.22285	0.27142	0.068123	0.23486	0.15149	0.020899	0.037754	0.45037	0.42579	0.27849	0.18369	0.11663	0.050732	0.16046	0.30993	0.18598	-1.4375	-2.2562	-2.1625	-2.0083	-2.3292	-2.1188	-1.9625	-2.2479	-1.9562	-2.1208	-2.2708	-2.025	-2.2979	-2.3354	-1.8	-2.1958	236.185	242.401	418.777	132.849	191.940	397.974	310.939	469.097	352.641	310.913	156.812	413.161	211.540	383.173	419.851	138.243	0.00031903	0.00047172	7.9072e-05	1123.2	3.6764e-06	1.9583e-06	881.49	324.17	4.8871e-06	1.9686e-06	269.05	83.322	88.179	22.724	5.5573e-06	26.079	0.00039839	0.00042772	0.00011685	1106.5	4.6392e-06	4.622e-06	865.66	320.83	4.6281e-06	4.6398e-06	265.65	82.472	87.209	22.798	4.6702e-06	25.936	269.006	219.082	208.540	144.520	256.730	261.870	143.428	148.414	290.203	211.295	146.891	150.719	152.692	156.803	277.948	154.603	-8191	255	
22110.482	1	1	0	0	0.17843	0.23449	0.20676	0.23751	0.21151	0.18825	0.22484	0.27817	0.049337	0.075932	0.10752	0.19264	0.031125	0.16145	0.07349	0.14577	-1.5312	-2.1063	-2.2708	-2.1292	-2.2292	-2.3479	-1.7917	-2.2562	-2.1021	-2.0812	-2.3167	-2.075	-2.2104	-2.3146	-2.0042	-2.3521	245.185	231.054	150.404	436.267	187.684	400.205	457.000	466.049	240.134	166.477	149.909	469.177	364.228	343.593	162.166	426.135	0.00033075	0.00041681	0.00010706	1138.5	2.9915e-06	3.1427e-06	885.11	331.16	3.8511e-06	3.1118e-06	271.42	84.583	90.256	23.144	2.2849e-06	25.863	0.00039762	0.00043428	0.00011654	1121.1	4.6354e-06	4.7083e-06	873.13	327.18	4.5313e-06	4.6326e-06	269.04	83.816	89.305	23.206	4.7105e-06	25.961	265.894	222.251	257.166	144.598	298.494	271.480	143.638	148.524	299.115	257.404	146.552	151.025	152.555	156.930	276.618	154.741	-8191	255	
22110.604	1	1	0	0	0.1537	0.14245	0.27157	0.21384	0.18633	0.038542	0.28304	0.12462	0.25753	0.083114	0.15627	0.34859	0.13511	0.38684	0.15442	0.12038	-1.5771	-1.9104	-2.4625	-1.9958	-2.1229	-2.2604	-1.9875	-2.3667	-2.1042	-2.1771	-2.3312	-2.0396	-2.0771	-2.3167	-1.9271	-2.3521	149.921	151.255	137.295	423.288	394.219	260.494	399.718	424.344	343.144	354.799	436.992	467.670	434.872	388.458	180.844	386.081	0.00034708	0.00023129	0.0001318	1141.4	4.5367e-06	3.9585e-06	884.06	330.12	5.0578e-06	5.7544e-06	268.62	83.688	88.852	22.731	3.4721e-06	25.596	0.00039106	0.00042205	0.00011559	1123.8	4.6111e-06	4.5749e-06	870.69	326.67	4.5698e-06	4.7196e-06	266.26	82.726	88.077	22.89	4.5536e-06	25.631	267.759	210.670	198.140	144.535	298.623	285.362	143.399	148.595	308.430	276.065	146.439	150.972	152.994	157.061	284.242	155.139	-8191	255	
22110.699	1	1	0	0	0.077109	0.068478	0.20515	0.15966	0.073134	0.1729	0.23932	0.045066	0.19186	0.16732	0.1229	0.155	0.13231	0.031016	0.27774	0.28303	-1.6375	-1.8604	-2.3104	-2.0896	-1.8167	-2.0979	-2.0479	-2.2271	-2.1083	-1.8917	-2.3125	-2.0521	-2.3563	-2.3854	-1.8937	-2.225	176.210	309.411	194.971	413.770	264.174	269.927	196.074	303.143	441.306	247.124	473.164	143.107	148.829	265.850	338.519	339.321	0.00028967	0.00013208	0.00012377	1127.2	3.9964e-06	1.6333e-06	879.38	327.85	3.4996e-06	3.3493e-06	268.48	83.238	88.151	22.628	2.8952e-06	25.419	0.00039226	0.00042228	0.00011376	1116	4.6283e-06	4.6908e-06	866.45	324.21	4.6083e-06	4.6459e-06	265.88	82.216	87.652	22.672	4.5733e-06	25.49	259.194	238.077	240.694	144.511	277.597	306.523	143.511	148.821	279.654	240.204	146.273	151.309	152.833	156.949	309.984	154.687	-8191	255	
22110.795	1	1	0	0	0.16818	0.067975	0.36558	0.03484	0.23823	0.1517	0.20696	0.25382	0.28321	0.067919	0.31629	0.33458	0.26066	0.062291	0.012244	0.17449	-1.7083	-1.7188	-2.2938	-1.9896	-2.0271	-2.3583	-1.9229	-2.1396	-2.2938	-1.8125	-2.1875	-2.1292	-2.0146	-2.3292	-2.0354	-2.0604	456.874	403.200	133.237	344.616	209.803	427.094	344.505	455.799	151.740	207.373	439.686	425.918	143.585	417.838	360.404	159.214	0.00027904	0.00016868	6.5265e-05	1129.8	3.5673e-06	2.9347e-06	888.7	326.97	2.4721e-06	3.6833e-06	269.14	83.699	88	22.704	3.1328e-06	26.038	0.00039172	0.00042524	0.00011397	1118	4.6771e-06	4.6154e-06	870.81	324.26	4.5806e-06	4.6677e-06	266.58	82.603	87.491	22.765	4.65e-06	25.976	265.730	189.131	260.954	144.601	323.129	254.514	143.385	148.450	233.770	275.591	146.824	150.826	152.417	157.241	283.710	154.596	-8191	255	
22110.914	1	1	0	0	0.023652	0.26983	0.092615	0.16041	0.11757	0.089568	0.25226	0.14794	0.366	0.29239	0.096935	0.10016	0.18819	0.061403	0.16775	0.056851	-1.9	-1.8167	-2.2583	-2.0792	-2.0687	-2.2021	-2.1146	-2.15	-2.2458	-2.0187	-2.3083	-2.275	-1.9	-2.3292	-1.9708	-2.1562	276.040	138.288	414.720	380.246	471.716	411.411	471.375	341.189	148.373	275.908	442.802	246.957	471.974	478.246	256.842	134.840	0.00031664	0.00042102	7.3784e-05	1127.1	3.228e-06	4.6432e-06	887.78	328.95	4.9864e-06	5.7971e-06	271.69	84.57	89.068	23.005	3.6937e-06	26.126	0.00039323	0.00043435	0.0001165	1114.5	4.5766e-06	4.7002e-06	872.74	324.93	4.6964e-06	4.6964e-06	268.77	83.667	88.278	23.064	4.6485e-06	26.154	262.642	204.395	221.347	144.340	295.647	281.936	143.774	148.371	278.890	285.722	146.685	150.722	152.626	156.850	298.270	154.638	-8191	255	
22111.010	1	1	0	0	0.23369	0.14123	0.27182	0.098424	0.15789	0.033767	0.18945	0.15795	0.18958	0.26634	0.17561	0.36998	0.19636	0.31939	0.095685	0.11664	-2.1125	-1.9667	-2.3104	-2.4583	-1.8583	-2.3937	-2.2938	-2.1042	-2.2979	-1.9146	-2.3438	-2.3271	-1.9542	-2.4188	-2.1813	-2.0896	389.149	364.959	195.080	382.569	219.568	330.166	444.525	489.657	130.998	143.084	463.355	392.813	208.086	462.879	467.869	328.140	0.00034591	0.00040685	8.2165e-05	1142.5	4.1438e-06	5.0855e-06	888.03	330.66	5.0073e-06	3.3963e-06	270.36	83.504	89.327	22.867	4.1975e-06	25.53	0.00039839	0.00041337	0.00011358	1124.4	4.7061e-06	4.5398e-06	873.54	327.17	4.5712e-06	4.6835e-06	267.8	82.816	88.595	22.944	4.5334e-06	25.614	265.684	199.132	233.271	144.353	285.246	304.314	143.592	148.571	298.104	296.420	146.468	150.976	152.721	156.851	261.003	154.704	-8191	255	
22111.107	1	1	0	0	0.10984	0.089715	0.22244	0.13171	0.25702	0.08347	0.32364	0.20019	0.06574	0.17613	0.32183	0.15952	0.20093	0.29703	0.09588	0.0883	-1.9521	-2.0125	-2.2771	-2.2625	-2.1063	-2.4688	-2.3125	-2.225	-2.2812	-1.8354	-2.1771	-2.25	-1.9229	-2.1792	-2.1229	-2.1542	285.896	365.344	187.496	391.245	399.257	454.237	421.746	409.639	267.355	241.826	444.172	479.260	273.835	462.658	391.252	299.423	0.00031984	0.0003607	9.7505e-05	1139.6	4.7949e-06	8.5825e-07	886.09	330.44	5.1297e-06	3.9105e-06	270.81	83.324	89.313	22.872	2.1811e-06	25.775	0.00038412	0.00042338	0.00011632	1126.1	4.5549e-06	4.4851e-06	873.35	327.33	4.6324e-06	4.6207e-06	267.59	82.639	88.471	22.905	4.6935e-06	25.711	262.483	220.120	263.775	144.400	270.936	275.521	143.368	148.721	303.839	277.973	146.476	150.803	152.587	156.884	277.564	154.669	-8191	255	
22111.178	1	1	0	0	0.14256	0.0092165	0.024787	0.36097	0.10425	0.2266	0.13179	0.23534	0.089593	0.23393	0.22096	0.28766	0.072012	0.27142	0.074735	0.11602	-1.8667	-1.9896	-2.1417	-2.2729	-1.8167	-2.1896	-2.2896	-2.0438	-2.4479	-2.0792	-2.0792	-2.2083	-1.9062	-2.2167	-2.1604	-1.9375	478.581	240.174	152.434	429.628	273.477	389.910	402.998	413.372	286.183	280.334	349.044	433.459	172.626	454.865	251.911	394.719	0.00029838	4.4094e-05	0.00013603	1134.6	6.8574e-06	2.2014e-06	888.29	329.17	3.804e-06	2.3503e-06	270.93	84.861	89.351	22.969	1.8488e-06	25.889	0.00040588	0.00042891	0.00011626	1120.4	4.5042e-06	4.6091e-06	872.73	325.26	4.6114e-06	4.6253e-06	268.28	83.516	88.354	22.926	4.7083e-06	25.926	262.546	271.776	195.115	144.602	290.170	285.198	143.402	148.769	300.862	264.135	146.586	150.603	152.758	156.765	320.958	154.524	-8191	255	
22111.299	1	1	0	0	0.21764	0.16368	0.28299	0.25459	0.1012	0.20757	0.20428	0.2962	0.18366	0.26446	0.10531	0.26106	0.25066	0.09369	0.21822	0.099749	-1.9479	-2.0833	-1.9979	-2.5021	-1.7917	-2.3708	-2.325	-1.9458	-2.4917	-2.0854	-2.1	-2.3625	-2.0292	-2.3604	-2.0979	-2.1417	218.841	316.480	417.068	420.992	354.558	401.124	383.818	131.948	337.181	295.194	447.640	345.935	134.835	395.724	286.327	288.711	0.00030942	0.00048159	8.8735e-05	1142.8	5.8596e-06	3.1789e-06	896.23	334.41	5.0239e-06	4.8359e-06	275.73	85.382	91.391	23.442	4.3954e-06	26.069	0.00040767	0.00042939	0.00012092	1130.5	4.7368e-06	4.6554e-06	881.79	330.73	4.6967e-06	4.641e-06	272.82	84.812	90.483	23.453	4.8096e-06	26.219	263.297	195.596	209.685	144.382	303.264	379.719	143.517	148.482	269.470	262.769	146.464	151.021	152.537	156.824	283.005	154.676	-8191	255	
22111.395	1	1	0	0	0.19395	0.11505	0.23878	0.13423	0.34597	0.11558	0.2155	0.17975	0.28402	0.14971	0.24803	0.06357	0.14886	0.27345	0.11381	0.43535	-1.975	-2.1562	-1.9604	-2.4437	-2.0062	-2.1667	-2.3792	-2.0375	-2.2979	-2.0229	-2.0229	-2.3542	-1.8833	-2.2083	-2.225	-1.9458	311.566	387.174	337.104	488.075	235.322	131.808	162.312	133.802	380.560	382.417	279.560	191.966	220.591	441.062	223.322	473.864	0.0002918	0.00042175	0.00018736	1153.3	4.8633e-06	4.2602e-06	893.26	335.03	3.0134e-06	4.3994e-06	273.17	85.244	89.363	22.972	4.7963e-06	25.916	0.00040911	0.00042324	0.00012094	1137.6	4.7252e-06	4.6773e-06	881.66	330.74	4.7039e-06	4.7168e-06	270.75	84.006	89.261	23.212	4.6458e-06	25.975	267.280	237.850	220.162	144.613	292.623	289.108	143.517	148.625	289.699	295.742	146.592	151.080	152.613	156.883	271.015	154.814	-8191	255	
22111.490	1	1	0	0	0.17543	0.070784	0.2326	0.1424	0.082813	0.18612	0.081283	0.44638	0.16177	0.085717	0.1028	0.1464	0.1602	0.24338	0.25566	0.058452	-1.7125	-2.3083	-1.8062	-2.4479	-2.0375	-1.9646	-2.5125	-1.9979	-2.2167	-2.2313	-1.9792	-2.3417	-2.0438	-2.0604	-2.4667	-1.9958	349.364	224.900	392.104	477.129	245.279	256.582	376.978	428.136	281.712	340.023	444.994	170.041	373.722	371.377	453.956	283.921	0.00032603	0.00058822	8.7832e-05	1134.8	3.7872e-06	4.1104e-06	884.06	331.69	4.1856e-06	4.2464e-06	272.41	84.447	89.864	23.012	2.2666e-06	25.935	0.00039985	0.00043777	0.00012215	1122.4	4.6661e-06	4.6208e-06	872.3	327.29	4.6466e-06	4.6398e-06	268.97	83.437	88.906	23.007	4.5942e-06	25.899	262.250	249.898	233.963	144.673	281.549	275.786	143.609	148.648	302.003	264.956	146.690	150.920	152.943	156.810	307.531	154.817	-8191	255	
22111.588	1	1	0	0	0.31474	0.34572	0.16654	0.15992	0.088674	0.34015	0.23581	0.25931	0.078041	0.13044	0.22778	0.074764	0.246	0.19669	0.16518	0.14553	-1.825	-2.325	-1.9458	-2.5292	-2.1208	-2.1396	-2.4729	-2.2188	-2.35	-2.4146	-2.0896	-2.4167	-2.325	-1.9521	-2.3792	-2.0125	319.604	476.865	177.872	162.711	315.925	425.968	473.168	433.266	241.495	136.471	273.259	191.437	479.358	208.110	136.379	150.554	0.00031071	0.00064073	0.00013972	1143.8	3.4355e-06	4.4632e-06	893.28	333.28	4.453e-06	7.05e-06	274.97	85.006	90.824	23.291	3.3923e-06	26.257	0.00039203	0.00042487	0.00012051	1130.3	4.7052e-06	4.787e-06	877.3	329.91	4.7342e-06	4.6921e-06	271.62	84.328	89.963	23.308	4.4941e-06	26.2	266.405	219.519	194.927	144.495	300.992	288.625	143.637	148.290	293.464	300.334	146.742	150.753	152.533	156.814	306.083	155.277	-8191	255	
22111.705	1	1	0	0	0.14142	0.12957	0.16911	0.32647	0.26933	0.16112	0.22776	0.062678	0.34314	0.087987	0.080756	0.062175	0.20278	0.19987	0.27	0.15906	-1.8625	-2.1854	-1.9042	-2.4458	-2.1542	-1.9312	-2.525	-1.95	-2.1521	-2.2562	-1.9021	-2.3396	-2.1813	-2.0646	-2.4104	-2.1646	356.975	439.181	148.717	465.668	479.913	467.712	440.904	287.713	224.426	243.330	435.923	398.316	340.872	424.455	153.119	416.999	0.00029956	0.00038496	6.7621e-05	1150.7	4.1639e-06	3.7096e-06	894.36	335.82	5.0244e-06	3.1242e-06	277.07	86.425	90.67	23.608	3.1604e-06	26.623	0.00039814	0.00042728	0.00011879	1135.8	4.7614e-06	4.7814e-06	883.87	331.6	4.6278e-06	4.7008e-06	273.54	84.973	90.019	23.462	4.6239e-06	26.514	266.117	220.325	213.699	144.483	273.128	302.657	143.555	148.495	315.108	276.902	146.830	150.996	152.623	156.820	273.664	154.485	-8191	255	
22111.779	1	1	0	0	0.28728	0.12876	0.10538	0.092939	0.16715	0.078766	0.36423	0.24323	0.23067	0.077001	0.27838	0.20264	0.11042	0.21101	0.062874	0.2324	-1.6208	-2.4688	-2.0125	-2.2229	-2.2354	-1.8687	-2.5354	-2.0833	-1.9937	-2.225	-2.1083	-2.3438	-2.4542	-1.9688	-2.4188	-2.0604	263.252	230.044	320.573	248.013	360.451	240.229	403.527	432.240	210.932	325.595	422.687	452.017	146.126	395.584	236.350	462.171	0.00033125	0.00048269	0.000131	1140.7	3.0188e-06	4.218e-06	895.25	331.36	5.1515e-06	5.1651e-06	274.63	86.038	89.902	23.386	1.7363e-06	26.586	0.00040029	0.00043577	0.00011852	1127.5	4.7626e-06	4.8905e-06	881.56	328.47	4.6909e-06	4.6769e-06	272.22	84.952	89.045	23.375	4.5669e-06	26.571	260.523	205.023	217.568	144.649	261.136	299.068	143.521	148.583	278.822	293.608	146.505	151.067	152.583	156.993	268.321	154.824	-8191	255	
22111.877	1	1	0	0	0.18577	0.17856	0.14989	0.4139	0.15914	0.13818	0.20088	0.42651	0.15358	0.11959	0.11218	0.2931	0.21448	0.30409	0.26203	0.21212	-1.7354	-2.5062	-2	-2.2354	-2.3208	-2.0354	-2.5125	-2.2083	-1.9625	-2.4813	-2.1375	-2.2083	-2.375	-1.975	-2.3229	-2.1458	473.451	464.772	393.058	428.245	289.805	339.480	414.893	389.970	143.784	134.807	216.122	377.311	415.129	446.269	138.566	170.899	0.00030498	0.00019125	7.4668e-05	1132.1	4.4435e-06	6.1559e-06	885.82	330.29	3.3595e-06	4.1583e-06	274.09	85.592	88.51	22.952	3.3e-06	26.484	0.0004029	0.000422	0.00011652	1118.1	4.7618e-06	4.7699e-06	872.57	325.92	4.722e-06	4.759e-06	269.96	84.288	87.943	23.125	4.6957e-06	26.464	261.388	167.730	227.151	144.587	271.794	282.722	143.842	148.651	272.388	295.445	146.620	150.967	152.775	156.941	289.431	155.192	-8191	255	
22111.994	1	1	0	0	0.30258	0.069503	0.51331	0.28153	0.20234	0.16827	0.20196	0.10242	0.23584	0.10938	0.22221	0.17318	0.20202	0.061442	0.15395	0.24223	-1.7271	-2.3917	-1.8312	-2.3167	-2.1958	-2.0417	-2.3833	-2.3333	-1.8729	-2.4062	-2.0896	-2.2438	-2.3271	-1.9542	-2.1708	-2.3375	293.661	307.603	149.713	412.224	376.004	458.953	413.315	334.060	262.703	302.531	378.189	361.771	134.797	419.286	252.673	457.159	0.00032521	0.00031016	5.7e-05	1121.3	3.5037e-06	4.1774e-06	880.8	325.28	4.0575e-06	3.7652e-06	270.31	84.227	87.858	22.902	3.404e-06	26.67	0.00041264	0.00042379	0.00011732	1108.9	4.6883e-06	4.6979e-06	867.45	322.04	4.8732e-06	4.6863e-06	268.24	83.537	86.94	22.897	4.5199e-06	26.479	265.732	287.232	221.053	144.580	291.750	262.197	143.402	148.618	316.357	276.156	147.006	151.103	152.424	156.512	273.490	154.999	-8191	255	
22112.092	1	1	0	0	0.070057	0.064537	0.062696	0.26668	0.21729	0.15021	0.18042	0.21429	0.16202	0.10859	0.34179	0.15008	0.14342	0.064527	0.10158	0.16005	-1.6417	-2.2375	-2.2292	-2.0312	-2.4708	-2.0563	-2.2583	-2.4188	-2.0021	-2.3479	-2.2979	-2.0354	-2.4688	-2.2125	-2.15	-2.2375	423.220	389.302	263.691	452.654	352.791	366.546	404.178	482.910	158.527	278.105	166.364	362.496	152.548	387.745	401.092	372.140	0.00029693	0.00035818	7.1933e-05	1124.4	3.7317e-06	2.8138e-06	889.33	326.2	5.0418e-06	4.1949e-06	273.32	84.976	88.176	22.858	3.5024e-06	26.839	0.00040347	0.00042439	0.00011708	1109.7	4.6299e-06	4.65e-06	871.32	322.39	4.8414e-06	4.5373e-06	269.86	84.123	87.397	23.032	4.5143e-06	26.682	265.959	265.254	207.146	144.696	263.849	297.469	143.623	148.693	303.711	264.670	146.710	150.962	152.596	157.048	312.732	154.798	-8191	255	
22112.188	1	1	0	0	0.11903	0.18283	0.22751	0.20758	0.094247	0.13201	0.14998	0.21342	0.1448	0.26155	0.18829	0.31427	0.14514	0.20303	0.14731	0.32489	-1.4979	-2.1208	-2.1188	-2.2458	-2.2083	-1.9521	-2.1688	-2.3833	-1.8854	-2.3146	-2.0667	-2.0729	-2.3667	-1.9542	-1.9604	-2.2812	280.859	422.856	313.233	412.602	368.254	205.272	380.045	475.494	144.655	440.727	423.874	385.698	409.604	328.719	281.821	149.806	0.00029432	0.00044061	0.00012501	1126.9	2.4589e-06	4.7561e-06	889.19	326.96	5.1735e-06	3.9939e-06	274.58	85.565	89.366	23.264	5.0185e-06	26.492	0.00039128	0.00042257	0.00011877	1112.1	4.5809e-06	4.5449e-06	876.58	324.12	4.5669e-06	4.6138e-06	270.89	84.743	88.353	23.28	4.6682e-06	26.608	263.584	219.192	233.375	144.378	267.933	293.785	143.816	148.569	298.287	263.358	146.573	150.902	152.702	156.639	306.474	154.933	-8191	255	
22112.283	1	1	0	0	0.13847	0.20084	0.093008	0.39161	0.33593	0.13696	0.29375	0.1127	0.23738	0.22635	0.27659	0.14974	0.21316	0.028561	0.050415	0.26252	-1.5063	-2.3958	-2.05	-2.0708	-2.175	-1.9937	-1.9458	-2.1437	-1.75	-2.2458	-2.2146	-2.0708	-2.4833	-2.0687	-2.0917	-2.3208	219.274	228.667	250.874	458.569	467.393	405.028	481.063	334.833	341.215	321.009	414.273	462.573	177.088	333.167	454.834	168.816	0.00032929	0.00036223	0.00012288	1132.6	3.897e-06	3.5302e-06	891.17	328.42	3.8976e-06	5.9634e-06	269.71	84.297	87.979	22.795	2.771e-06	26.207	0.00038649	0.00041404	0.00011323	1117.6	4.3407e-06	4.4907e-06	872.88	325.05	4.5729e-06	4.5696e-06	267.41	83.132	87.511	22.895	4.487e-06	26.211	263.661	218.286	217.537	144.571	256.731	316.433	143.503	148.507	268.901	312.912	146.295	150.935	152.527	157.003	240.918	154.778	-8191	255	
22112.379	1	1	0	0	0.13946	0.058184	0.44512	0.08139	0.27049	0.25711	0.33337	0.30916	0.15267	0.055922	0.22359	0.10015	0.16839	0.11858	0.011646	0.080111	-1.5625	-2.1229	-2.2021	-2.1021	-2.2458	-2.275	-2.1542	-2.5083	-1.8958	-2.1458	-2.1396	-1.8958	-2.4354	-2.1312	-1.7354	-2.3958	146.269	314.310	326.618	484.384	467.418	343.713	163.936	303.743	488.493	163.170	431.562	217.991	432.996	255.167	354.816	348.349	0.00030874	0.00057256	6.3136e-05	1123.5	4.4007e-06	3.4031e-06	879.65	323.73	2.9695e-06	2.9563e-06	268.47	83.458	86.496	22.557	2.9945e-06	26.205	0.0003881	0.00041018	0.00011224	1107.6	4.3452e-06	4.4423e-06	863.92	319.83	4.4188e-06	4.2654e-06	265.37	82.552	85.902	22.537	4.4004e-06	26.311	270.420	227.170	247.716	144.727	307.379	234.166	143.743	148.345	272.586	284.578	146.020	151.085	152.636	156.482	272.075	154.948	-8191	255	
22112.475	1	1	0	0	0.076273	0.29744	0.28255	0.38773	0.11983	0.15649	0.23356	0.18786	0.18095	0.039247	0.080866	0.11051	0.42996	0.24636	0.19341	0.027823	-1.5208	-2.0729	-2.2875	-2.0292	-2.0687	-2.1167	-2.1083	-2.5604	-2.0875	-2.0396	-2.4	-2.2146	-2.2333	-2.3583	-1.8271	-2.3688	354.922	226.638	209.535	455.903	385.306	416.897	430.674	404.573	348.330	296.183	153.676	137.004	396.901	210.052	335.017	283.907	0.00030829	0.00031983	8.3601e-05	1110.9	4.693e-06	5.7065e-06	872.29	321.19	2.604e-06	4.0525e-06	266.53	82.919	86.919	22.219	4.6448e-06	26.095	0.00039289	0.00039001	0.00010849	1097.8	4.4114e-06	4.3723e-06	860.81	317.51	4.4855e-06	4.5302e-06	264.69	82.1	85.645	22.275	4.4383e-06	25.884	260.386	213.319	234.061	144.621	274.880	262.326	143.636	148.607	315.063	293.988	146.624	150.657	152.678	156.676	276.325	154.766	-8191	255	
22112.596	1	1	0	0	0.39755	0.11922	0.10074	0.18247	0.28646	0.1426	0.39705	0.13014	0.19233	0.1705	0.25033	0.15986	0.052101	0.20549	0.16028	0.11769	-1.8062	-2.0104	-2.4167	-2.1208	-2.2313	-2.1875	-1.9521	-2.3688	-2.1021	-2.1083	-2.3917	-1.925	-2.1875	-2.2604	-1.8687	-2.3833	257.640	155.020	144.599	427.168	337.232	175.842	454.397	484.946	154.114	370.109	410.249	442.698	430.609	277.549	488.749	224.435	0.00027627	0.00016253	0.00012171	1114.3	2.3363e-06	4.4484e-06	873.04	320.51	2.7931e-06	2.7376e-06	267.12	83.358	86.647	22.515	3.5437e-06	25.73	0.00037823	0.00040212	0.00011318	1099.5	4.3249e-06	4.409e-06	864.53	317.48	4.374e-06	4.3691e-06	265.16	82.189	85.717	22.436	4.4353e-06	25.812	265.065	224.821	237.470	144.521	326.762	300.064	143.587	148.642	280.639	257.666	146.454	150.786	152.950	156.861	277.050	154.373	-8191	255	
22112.691	1	1	0	0	0.36821	0.14299	0.16967	0.50834	0.16218	0.24171	0.17924	0.027593	0.14226	0.086904	0.20876	0.14575	0.28321	0.23592	0.15055	0.10529	-1.8354	-2.0979	-2.1729	-2.2396	-2.0125	-2.3729	-1.9708	-2.5479	-2.2062	-2.0396	-2.3271	-1.9937	-2.2479	-2.4062	-2.0938	-2.2875	153.660	260.412	482.938	135.240	143.660	487.891	137.753	275.033	352.075	365.456	471.556	238.737	373.614	411.927	246.604	335.042	0.0003642	0.00028661	6.8258e-05	1115.4	3.8219e-06	2.7048e-06	873.02	322.26	3.6227e-06	2.1094e-06	266.98	82.294	86.502	22.256	3.4835e-06	25.872	0.00038171	0.00039733	0.00010905	1102.3	4.3768e-06	4.3556e-06	858.19	318.44	4.3733e-06	4.428e-06	262.63	81.454	85.608	22.301	4.482e-06	25.65	263.644	225.109	236.150	144.376	304.967	307.266	143.783	148.321	282.130	282.754	146.352	150.959	152.445	156.547	303.277	154.821	-8191	255	
22112.787	1	1	0	0	0.36474	0.22942	0.069828	0.27312	0.15581	0.12862	0.1513	0.082902	0.27397	0.23553	0.039017	0.27048	0.32731	0.35104	0.29193	0.16532	-1.5104	-2.0479	-2.5146	-2.1583	-2.0708	-2.35	-1.85	-2.2542	-2.1021	-1.9792	-2.4208	-1.9333	-2.0167	-2.2125	-2.2313	-2.2417	439.793	300.581	439.953	411.932	301.993	387.575	430.039	260.404	463.827	368.656	423.991	406.687	174.300	437.386	393.039	152.687	0.00026558	0.00026928	0.00015522	1110.3	2.4232e-06	2.637e-06	865.65	320.74	5.122e-06	3.2822e-06	264.52	81.995	85.603	22.222	3.7302e-06	25.711	0.00038241	0.00040793	0.00011158	1096.5	4.3435e-06	4.324e-06	854.46	317.1	4.3444e-06	4.3993e-06	261.56	81.022	84.963	22.21	4.3554e-06	25.629	264.303	223.634	236.723	144.462	289.226	252.586	143.348	148.508	296.321	316.642	146.526	151.070	152.750	156.754	335.756	154.735	-8191	255	
22112.883	1	1	0	0	0.33518	0.15463	0.27964	0.32058	0.21847	0.12435	0.10793	0.062231	0.10195	0.3491	0.027878	0.1466	0.27226	0.11604	0.10882	0.19585	-1.8208	-1.9625	-2.2562	-2.0938	-2.1479	-2.3333	-2.0938	-2.3417	-2.2146	-1.8667	-2.4542	-1.9833	-2.0917	-2.4979	-1.9917	-2.1833	415.866	213.444	173.313	445.118	151.654	297.692	142.698	162.912	220.649	272.629	220.273	130.713	438.426	480.825	156.805	357.719	0.00030619	0.00034444	9.2432e-05	1105.3	4.9125e-06	2.9754e-06	862.97	316.78	3.0899e-06	3.718e-06	265.26	82.688	85.139	22.304	3.3481e-06	26.169	0.00038583	0.00040922	0.00010819	1088.4	4.3892e-06	4.4194e-06	851.83	313.26	4.3244e-06	4.4151e-06	262.78	81.672	84.435	22.335	4.3726e-06	26.128	258.107	225.093	221.455	144.453	288.512	277.133	143.249	148.582	302.537	281.105	146.790	150.721	152.764	156.855	329.682	154.717	-8191	255	
22113.004	1	1	0	0	0.096467	0.31038	0.14767	0.24673	0.21893	0.36018	0.20437	0.04454	0.099467	0.2598	0.14368	0.18274	0.087145	0.074694	0.14129	0.1951	-1.8771	-2.1104	-2.1375	-2.0583	-1.9104	-2.3854	-2.2896	-2.1063	-2.3729	-2.0396	-2.3625	-2.3708	-1.925	-2.3063	-2.175	-2.2958	253.172	399.768	440.236	135.745	165.940	437.589	394.199	350.016	361.959	281.606	162.538	217.022	271.383	456.373	331.425	358.658	0.00032101	0.00028116	8.9348e-05	1104.3	4.3216e-06	3.9236e-06	870.82	320.3	3.0453e-06	5.2239e-06	267.58	84.303	86.746	22.911	4.6329e-06	26.644	0.00037702	0.00040401	0.00010726	1088.8	4.5766e-06	4.4085e-06	857.72	316.29	4.4463e-06	4.3874e-06	265.84	83.436	85.925	22.937	4.545e-06	26.651	262.739	214.494	191.924	144.577	299.761	264.207	143.082	148.284	297.964	258.410	146.726	150.842	152.718	156.613	298.183	154.620	-8191	255	
22113.074	1	1	0	0	0.089172	0.19332	0.16045	0.052728	0.035534	0.088759	0.26442	0.084445	0.18081	0.19357	0.12501	0.23121	0.26816	0.29618	0.093042	0.025598	-1.9896	-1.875	-2.3083	-2.3438	-2.0146	-2.4167	-2.0708	-2.1708	-2.3021	-2.0187	-2.1125	-2.2167	-1.8396	-2.3917	-2.2583	-2.1667	177.247	225.663	447.955	425.936	363.317	307.679	415.049	195.809	267.446	386.816	471.831	385.132	198.333	208.772	342.626	373.559	0.00029512	0.00024362	0.00010279	1112.1	3.8929e-06	3.3856e-06	877.06	326.61	4.7891e-06	4.0619e-06	272.14	85.131	87.999	23.205	3.7852e-06	26.778	0.00038439	0.00041071	0.00011176	1098.3	4.4521e-06	4.3848e-06	863.08	323.18	4.5541e-06	4.5721e-06	268.6	84.338	87.839	23.215	4.3382e-06	26.683	264.332	252.303	215.845	144.522	269.609	252.468	143.258	148.477	298.112	293.533	146.175	151.129	152.835	156.858	309.221	154.365	-8191	255	
22113.172	1	1	0	0	0.058251	0.1739	0.18506	0.23421	0.079023	0.15861	0.14083	0.18034	0.13072	0.31035	0.37839	0.27365	0.18589	0.1491	0.21505	0.1525	-1.9083	-2.0312	-2.0208	-2.2	-1.9479	-2.3583	-2.1937	-2.0042	-2.3146	-2.0521	-2.0667	-2.3208	-1.9958	-2.2812	-2.0187	-1.9979	167.132	138.358	145.165	463.927	463.665	486.724	412.869	412.184	273.065	413.482	470.906	477.242	214.814	374.766	488.207	235.347	0.0002923	0.00021091	6.4547e-05	1113.6	3.9864e-06	3.1182e-06	872.2	328	5.1463e-06	4.1235e-06	272.13	85.723	90.236	23.296	7.4351e-07	26.708	0.00038283	0.0003946	0.00011193	1097.5	4.5347e-06	4.5032e-06	860.51	324.78	4.5019e-06	4.3243e-06	269.1	84.692	88.893	23.343	4.334e-06	26.777	264.873	226.090	256.039	144.217	275.837	241.784	143.533	148.649	281.257	284.773	146.545	151.040	152.503	157.032	343.139	154.191	-8191	255	
22113.268	1	1	0	0	0.27454	0.16631	0.18106	0.45795	0.24161	0.14953	0.17712	0.2879	0.27097	0.11937	0.17022	0.10899	0.18805	0.39941	0.044899	0.283	-1.8042	-1.9333	-1.9729	-2.4271	-1.6417	-2.2896	-2.3479	-2.0271	-2.1896	-2.0875	-2.1333	-2.5312	-1.9708	-2.2625	-2.4	-1.9979	487.425	132.356	229.701	457.225	454.049	271.121	200.960	438.592	187.781	202.887	416.618	169.540	468.910	471.730	295.732	205.837	0.00030347	0.00020686	0.00010694	1115.2	4.9694e-06	3.9508e-06	875.29	333.18	3.1899e-06	5.0206e-06	274.51	87.333	91.018	23.693	4.6839e-06	27.173	0.0003905	0.00040752	0.0001192	1103	4.4207e-06	4.6615e-06	864.21	328.32	4.5874e-06	4.5279e-06	272.22	86.388	90.233	23.716	4.6178e-06	27.289	265.437	206.868	239.201	144.598	274.721	293.695	143.368	148.387	282.815	271.419	146.562	150.616	152.214	156.436	279.409	154.621	-8191	255	
22113.389	1	1	0	0	0.16055	0.038931	0.17814	0.20724	0.24867	0.076174	0.028514	0.287	0.048786	0.25506	0.17975	0.13182	0.07664	0.20919	0.33198	0.20745	-1.9396	-2.1146	-1.9208	-2.3083	-2.0771	-2.0792	-2.3187	-1.925	-2.1896	-2.125	-1.975	-2.4	-1.9729	-2.1646	-2.4792	-1.8729	413.632	330.343	270.394	389.561	346.053	209.734	456.403	131.646	218.329	470.525	290.912	191.350	351.427	141.631	461.043	187.231	0.00031038	0.00018527	0.00011934	1120.2	2.9907e-06	3.5807e-06	884.22	336.93	5.2734e-06	3.734e-06	280.62	89.162	93.178	24.405	3.596e-06	28.027	0.00039303	0.00041578	0.00012012	1108.3	4.568e-06	4.7236e-06	870.59	332.29	4.6317e-06	4.6019e-06	277.34	88.581	92.207	24.441	4.6596e-06	28.107	260.168	267.540	220.773	144.707	305.388	259.303	143.554	148.594	313.469	299.210	146.545	150.446	152.383	156.756	280.491	154.311	-8191	255	
22113.484	1	1	0	0	0.035531	0.2768	0.13072	0.07451	0.32145	0.11984	0.18029	0.11884	0.18892	0.28151	0.16335	0.15623	0.20686	0.26614	0.09611	0.1366	-1.8167	-1.9917	-2.0875	-2.5042	-2.0333	-2.1312	-2.3271	-1.9354	-2.2542	-2.1	-2.1458	-2.2833	-2.0375	-2.1688	-2.3854	-1.9625	290.295	458.105	326.540	370.922	348.723	483.019	488.287	422.409	197.945	449.132	330.273	308.720	451.040	441.562	170.664	466.506	0.00038126	0.00037937	9.3242e-05	1128.9	4.6035e-06	2.0029e-06	887.03	339.71	4.5775e-06	2.2282e-06	283.38	90.481	93.962	24.711	4.8861e-06	28.177	0.00040239	0.00041922	0.00012172	1115	4.5837e-06	4.6238e-06	879.02	336.71	4.7044e-06	4.6019e-06	280.17	89.611	93.123	24.708	4.5489e-06	28.242	265.270	220.425	263.231	144.647	297.076	275.563	143.366	148.379	306.230	362.534	146.741	150.895	152.531	156.629	290.367	154.504	-8191	255	
22113.580	1	1	0	0	0.17214	0.17065	0.3519	0.10916	0.093518	0.21167	0.41133	0.23693	0.15453	0.295	0.17274	0.41421	0.021866	0.1438	0.13506	0.26268	-1.9146	-2.1958	-2.0646	-2.5521	-1.9167	-2.1688	-2.5187	-2.1271	-2.3646	-2.3042	-2.0312	-2.2396	-2.3521	-2.0875	-2.4417	-2.0667	151.430	463.513	342.211	175.080	333.454	433.112	469.970	425.403	165.736	405.713	349.255	168.227	136.346	228.139	380.877	365.294	0.00035316	0.00061367	5.8428e-05	1121.8	5.4558e-06	5.9341e-06	884.21	337.42	4.6998e-06	3.0857e-06	278.74	89.396	92.878	24.494	3.902e-06	28.067	0.00040427	0.00042987	0.00011786	1109.5	4.5609e-06	4.6103e-06	869.45	333.69	4.6615e-06	4.6598e-06	276.67	88.401	91.673	24.464	4.6773e-06	28.136	261.357	211.809	175.497	144.433	305.523	302.767	143.476	148.540	281.969	275.020	146.309	150.736	152.275	156.789	288.583	154.138	-8191	255	
22113.676	1	1	0	0	0.066579	0.11204	0.40283	0.22259	0.30859	0.23718	0.13682	0.1792	0.14431	0.31875	0.23979	0.233	0.20208	0.15486	0.033925	0.10056	-1.7833	-2.3063	-1.9458	-2.4188	-2.1271	-2.0542	-2.4958	-2.1896	-2.2375	-2.4708	-1.8687	-2.4	-2.2417	-2.0125	-2.3958	-2.2687	415.685	282.835	252.393	132.514	299.812	250.268	365.031	485.537	329.545	394.028	383.508	148.630	431.415	432.506	417.929	402.267	0.0003372	0.00029916	7.4767e-05	1117.1	5.2641e-06	6.3123e-06	874.76	334.18	4.103e-06	5.7987e-06	278.12	88.871	92.484	24.076	2.1908e-06	28.058	0.0004064	0.00041539	0.00011838	1102.8	4.6245e-06	4.7198e-06	866.39	331.1	4.6148e-06	4.7132e-06	275.37	88.113	91.288	24.194	4.5054e-06	28.042	264.173	204.882	217.835	144.620	269.536	282.282	143.267	148.436	317.269	311.511	146.944	151.068	152.442	156.550	351.312	154.607	-8191	255	
22113.773	1	1	0	0	0.052061	0.055282	0.05079	0.087308	0.11312	0.068802	0.14713	0.20629	0.34574	0.12388	0.11533	0.18865	0.023962	0.11283	0.079551	0.13146	-1.7792	-2.3667	-1.9188	-2.2958	-2.0646	-2.0563	-2.5042	-2.1583	-1.9438	-2.3792	-1.9833	-2.2354	-2.3563	-2.0563	-2.2938	-2.1875	254.253	145.401	174.635	132.231	389.291	322.684	164.688	359.271	185.842	346.359	477.460	374.507	185.413	185.193	409.300	229.302	0.00032092	0.00041082	7.9954e-05	1124.9	5.7271e-06	4.0439e-06	886.53	337.22	5.5499e-06	2.3915e-06	280.13	89.291	92.697	24.359	4.0007e-06	28.216	0.00040823	0.0004074	0.00011807	1110.9	4.5797e-06	4.6368e-06	874.31	333.28	4.6548e-06	4.5538e-06	277.86	88.535	92.04	24.425	4.6662e-06	28.227	259.383	241.329	186.743	144.561	272.650	289.018	143.239	148.461	284.591	261.123	146.372	151.034	152.210	156.811	305.022	154.664	-8191	255	
22113.869	1	1	0	0	0.20216	0.11262	0.22302	0.2925	0.035459	0.060614	0.12567	0.25547	0.19658	0.14411	0.23646	0.080118	0.34845	0.10747	0.053718	0.10916	-1.6729	-2.3021	-1.925	-2.2646	-2.3729	-1.8875	-2.3771	-2.0417	-1.8729	-2.3521	-2.1312	-2.2042	-2.3375	-1.9833	-2.3083	-2.1771	385.657	209.880	381.633	469.631	271.006	407.536	444.924	462.854	345.188	184.709	475.880	405.638	487.519	147.613	197.878	489.496	0.00036493	0.0002252	0.00015773	1129.3	3.2706e-06	4.7668e-06	892.1	338.35	4.3643e-06	4.0321e-06	283.12	90.519	93.242	24.604	3.6527e-06	28.449	0.00040322	0.00042195	0.0001204	1115	4.7064e-06	4.7218e-06	877.74	335.27	4.7581e-06	4.8683e-06	279.38	89.747	92.16	24.647	4.7181e-06	28.538	260.557	251.591	175.329	144.479	306.297	263.481	143.258	148.544	265.580	234.831	146.560	150.678	152.612	156.508	280.593	154.727	-8191	255	
22113.965	1	1	0	0	0.43513	0.24751	0.22124	0.24942	0.1121	0.34291	0.099616	0.28105	0.1136	0.22445	0.37288	0.22055	0.085496	0.094968	0.28585	0.2599	-1.4458	-2.4958	-1.9708	-2.3333	-2.2396	-2.0083	-2.4979	-2.2083	-2.0312	-2.4333	-2.1875	-2.1833	-2.4021	-2.025	-2.1625	-2.3688	264.353	281.671	143.807	161.546	430.958	472.687	228.113	381.540	429.848	402.658	183.673	377.680	435.053	396.019	333.545	404.008	0.0003781	0.00031928	0.0001653	1121.8	5.1843e-06	3.5985e-06	885.53	335.29	3.6588e-06	3.8329e-06	278.58	89.111	91.569	24.21	2.1283e-06	28.359	0.00042122	0.00043235	0.00011819	1108.9	4.8235e-06	4.8552e-06	871.19	331.36	4.8168e-06	4.7297e-06	275.43	88.059	90.633	24.254	4.6576e-06	28.114	264.606	235.924	226.214	144.589	268.425	244.627	143.463	148.671	307.081	283.116	146.572	150.897	152.522	156.496	293.316	154.576	-8191	255	
22114.084	1	1	0	0	0.16414	0.10742	0.013998	0.29311	0.10412	0.25675	0.379	0.066933	0.082459	0.10771	0.17129	0.045065	0.22049	0.1754	0.06291	0.10141	-1.4042	-2.2604	-2.0104	-2.1	-2.4	-2.1042	-2.1208	-2.3208	-1.9438	-2.3125	-2.0167	-2.075	-2.4354	-2.0563	-2.2313	-2.3979	135.669	215.343	329.467	398.218	327.675	282.561	440.100	438.105	322.707	306.805	135.329	368.490	401.542	172.424	157.494	342.689	0.0003364	0.00045965	6.7542e-05	1116	3.3112e-06	3.3969e-06	880.02	334.03	3.0341e-06	8.303e-06	276.67	87.871	90.85	23.937	4.2732e-06	27.994	0.00041866	0.00043329	0.00011883	1101.6	4.7423e-06	4.7277e-06	865.93	328.53	4.7147e-06	4.7854e-06	273.65	87.342	90.076	24.014	4.7693e-06	27.947	263.161	260.045	198.473	144.598	307.325	237.315	143.327	148.371	357.368	308.699	146.583	150.707	152.238	156.362	298.597	154.782	-8191	255	
#DATA ENDS
