BOXY.EXE: ISS Imagent and Oximeter Data Acquisition Program Version 0.80
Ascii Record File

#ACQ INFORMATION
2  Detector Channels 
16  External MUX Channels 
1  Auxiliary Channels 
5000  Waveform (CCF) Frequency (Hz)
1  Waveforms Skipped 
30  Waveforms Averaged 
1  Cycles Averaged 
16  Acquisitions per Waveform 
10.0806  Updata Rate (Hz) 

#FILE INFORMATION
TRUE -- External MUX Channel results are PARSED.
FALSE -- AC DC and Phase are NOT grouped.
TRUE -- Companion Program Settings File CREATED.
FALSE -- AC data not excluded
FALSE -- DC data not excluded
FALSE -- Phase data not excluded
FALSE -- Auxillary Chn. data not excluded
Tab delimiters

#CALIBRATION STATE
TRUE -- Waveform Calibration Values APPLIED.


#AUX CALIBRATION VALUES
Val Type	aux-1	

Term	1.0000e+00	
Factor	0.0000e+00	


#WF CALIBRATION VALUES
A = Detector Channel
Val Type	A-AC1	A-AC2	A-AC3	A-AC4	A-AC5	A-AC6	A-AC7	A-AC8	A-AC9	A-AC10	A-AC11	A-AC12	A-AC13	A-AC14	A-AC15	A-AC16	A-DC1	A-DC2	A-DC3	A-DC4	A-DC5	A-DC6	A-DC7	A-DC8	A-DC9	A-DC10	A-DC11	A-DC12	A-DC13	A-DC14	A-DC15	A-DC16	A-Ph1	A-Ph2	A-Ph3	A-Ph4	A-Ph5	A-Ph6	A-Ph7	A-Ph8	A-Ph9	A-Ph10	A-Ph11	A-Ph12	A-Ph13	A-Ph14	A-Ph15	A-Ph16	

Term	0.00000e+00	0.00000e+00	0.00000e+00	0.00000e+00	0.00000e+00	0.00000e+00	0.00000e+00	0.00000e+00	0.00000e+00	0.00000e+00	0.00000e+00	0.00000e+00	0.00000e+00	0.00000e+00	0.00000e+00	0.00000e+00	0.00000e+00	0.00000e+00	0.00000e+00	0.00000e+00	0.00000e+00	0.00000e+00	0.00000e+00	0.00000e+00	0.00000e+00	0.00000e+00	0.00000e+00	0.00000e+00	0.00000e+00	0.00000e+00	0.00000e+00	0.00000e+00	0.00000e+00	0.00000e+00	0.00000e+00	0.00000e+00	0.00000e+00	0.00000e+00	0.00000e+00	0.00000e+00	0.00000e+00	0.00000e+00	0.00000e+00	0.00000e+00	0.00000e+00	0.00000e+00	0.00000e+00	0.00000e+00	
Factor	1.00000e+00	1.00000e+00	1.00000e+00	1.00000e+00	1.00000e+00	1.00000e+00	1.00000e+00	1.00000e+00	1.00000e+00	1.00000e+00	1.00000e+00	1.00000e+00	1.00000e+00	1.00000e+00	1.00000e+00	1.00000e+00	1.00000e+00	1.00000e+00	1.00000e+00	1.00000e+00	1.00000e+00	1.00000e+00	1.00000e+00	1.00000e+00	1.00000e+00	1.00000e+00	1.00000e+00	1.00000e+00	1.00000e+00	1.00000e+00	1.00000e+00	1.00000e+00	X	X	X	X	X	X	X	X	X	X	X	X	X	X	X	X	

B = Detector Channel
Val Type	B-AC1	B-AC2	B-AC3	B-AC4	B-AC5	B-AC6	B-AC7	B-AC8	B-AC9	B-AC10	B-AC11	B-AC12	B-AC13	B-AC14	B-AC15	B-AC16	B-DC1	B-DC2	B-DC3	B-DC4	B-DC5	B-DC6	B-DC7	B-DC8	B-DC9	B-DC10	B-DC11	B-DC12	B-DC13	B-DC14	B-DC15	B-DC16	B-Ph1	B-Ph2	B-Ph3	B-Ph4	B-Ph5	B-Ph6	B-Ph7	B-Ph8	B-Ph9	B-Ph10	B-Ph11	B-Ph12	B-Ph13	B-Ph14	B-Ph15	B-Ph16	

Term	0.00000e+00	0.00000e+00	0.00000e+00	0.00000e+00	0.00000e+00	0.00000e+00	0.00000e+00	0.00000e+00	0.00000e+00	0.00000e+00	0.00000e+00	0.00000e+00	0.00000e+00	0.00000e+00	0.00000e+00	0.00000e+00	0.00000e+00	0.00000e+00	0.00000e+00	0.00000e+00	0.00000e+00	0.00000e+00	0.00000e+00	0.00000e+00	0.00000e+00	0.00000e+00	0.00000e+00	0.00000e+00	0.00000e+00	0.00000e+00	0.00000e+00	0.00000e+00	-1.74148e+02	-1.27087e+02	-1.30125e+02	-1.81316e+02	-8.55190e+01	-6.66878e+01	-1.57075e+02	-1.62015e+02	-8.14386e+01	-6.69092e+01	-1.71893e+02	-1.70622e+02	-1.79843e+02	-1.76980e+02	-7.36244e+01	-1.49926e+02	
Factor	3.06324e-05	1.62235e-04	4.72445e-05	1.48920e-01	1.49831e-06	1.76165e-06	1.72106e-01	6.28372e-02	1.68338e-06	1.86821e-06	8.65051e-02	2.99025e-02	3.08083e-02	9.61349e-03	1.55958e-06	1.36815e-02	1.62461e-05	2.79970e-05	7.84780e-06	7.48325e-02	2.67660e-07	3.17064e-07	8.15900e-02	3.16269e-02	2.77634e-07	3.15248e-07	4.25007e-02	1.47081e-02	1.57617e-02	4.89367e-03	2.89544e-07	6.76532e-03	X	X	X	X	X	X	X	X	X	X	X	X	X	X	X	X	



#DISTANCE SETTINGS
A = Detector Channel
A-1	A-2	A-3	A-4	A-5	A-6	A-7	A-8	A-9	A-10	A-11	A-12	A-13	A-14	A-15	A-16	

2.5000e+00	3.0000e+00	2.5000e+00	3.0000e+00	2.0000e+00	3.0000e+00	1.5000e+00	3.0000e+00	3.0000e+00	3.0000e+00	3.0000e+00	3.0000e+00	3.0000e+00	3.0000e+00	1.5000e+00	3.0000e+00	

B = Detector Channel
B-1	B-2	B-3	B-4	B-5	B-6	B-7	B-8	B-9	B-10	B-11	B-12	B-13	B-14	B-15	B-16	

1.0000e+01	1.0000e+01	1.0000e+01	1.4400e+00	1.0000e+01	1.0000e+01	1.5100e+00	1.9400e+00	1.0000e+01	1.0000e+01	1.9900e+00	2.4900e+00	2.4100e+00	2.9000e+00	1.0000e+01	2.9800e+00	




#DATA BEGINS
time	group	step	mark	flag	A-AC1	A-AC2	A-AC3	A-AC4	A-AC5	A-AC6	A-AC7	A-AC8	A-AC9	A-AC10	A-AC11	A-AC12	A-AC13	A-AC14	A-AC15	A-AC16	A-DC1	A-DC2	A-DC3	A-DC4	A-DC5	A-DC6	A-DC7	A-DC8	A-DC9	A-DC10	A-DC11	A-DC12	A-DC13	A-DC14	A-DC15	A-DC16	A-Ph1	A-Ph2	A-Ph3	A-Ph4	A-Ph5	A-Ph6	A-Ph7	A-Ph8	A-Ph9	A-Ph10	A-Ph11	A-Ph12	A-Ph13	A-Ph14	A-Ph15	A-Ph16	B-AC1	B-AC2	B-AC3	B-AC4	B-AC5	B-AC6	B-AC7	B-AC8	B-AC9	B-AC10	B-AC11	B-AC12	B-AC13	B-AC14	B-AC15	B-AC16	B-DC1	B-DC2	B-DC3	B-DC4	B-DC5	B-DC6	B-DC7	B-DC8	B-DC9	B-DC10	B-DC11	B-DC12	B-DC13	B-DC14	B-DC15	B-DC16	B-Ph1	B-Ph2	B-Ph3	B-Ph4	B-Ph5	B-Ph6	B-Ph7	B-Ph8	B-Ph9	B-Ph10	B-Ph11	B-Ph12	B-Ph13	B-Ph14	B-Ph15	B-Ph16	aux-1	digaux	

28211.895	1	1	0	512	0.26721	0.068814	0.10753	0.06268	0.037898	0.13575	0.20387	0.1155	0.11789	0.31109	0.20876	0.15961	0.071705	0.12629	0.11765	0.05081	-1.6875	-1.9542	-2.2042	-2.1042	-2.1104	-2.2583	-1.7938	-2.1354	-2.1021	-1.9375	-2.3063	-1.8146	-2.0667	-2.2167	-1.8417	-2.0083	415.910	496.320	328.376	305.617	382.245	220.350	351.709	480.911	390.344	469.611	445.110	488.248	276.661	210.113	280.486	313.192	0.00040432	0.00018534	5.7268e-05	352.43	2.0057e-06	1.7457e-06	305.32	137.52	2.7313e-06	2.9428e-06	134.93	51.157	55.201	19.914	2.7111e-06	19.296	0.0005303	5.6169e-05	1.1183e-05	371.63	6.6859e-07	4.135e-07	323.22	145.46	8.5777e-07	5.4971e-07	142.77	54.56	58.191	21.288	9.38e-07	20.738	150.220	240.075	236.992	162.154	265.825	290.987	160.909	166.193	266.399	308.206	163.838	167.043	169.579	173.763	280.426	171.003	-8191	255	
28211.988	1	1	0	0	0.26973	0.31212	0.082132	0.30479	0.02612	0.33192	0.16062	0.2491	0.1312	0.16159	0.27604	0.18126	0.14804	0.1848	0.22947	0.15834	-1.6708	-1.9542	-2.1417	-1.925	-1.9292	-2.2917	-1.7479	-2.1521	-2.0917	-1.8563	-2.2208	-1.9771	-1.9312	-2.2104	-1.8958	-2.2354	435.668	244.909	196.424	465.882	413.978	298.439	195.822	465.814	436.766	488.495	244.127	349.899	221.275	212.876	337.017	507.309	0.00036005	0.00029783	6.9619e-05	352.34	2.0227e-06	2.4388e-06	305.16	137.34	3.04e-06	1.6792e-06	134.8	51.017	54.937	19.85	2.1909e-06	19.474	0.00025655	0.0001187	1.3439e-05	371.55	7.6729e-07	4.1681e-07	323.64	145.11	7.9126e-07	5.3395e-07	142.2	54.165	58.065	21.252	8.1736e-07	20.746	507.384	219.547	246.973	162.128	275.176	300.908	160.766	166.303	276.815	286.402	163.717	167.387	169.599	174.016	269.075	170.918	-8191	255	
28212.062	1	1	0	0	0.035067	0.10562	0.1602	0.19689	0.239	0.04409	0.22379	0.089456	0.31364	0.1957	0.38069	0.30591	0.15042	0.07423	0.081764	0.057778	-1.7521	-1.7896	-2.2042	-1.875	-1.7271	-2.3937	-1.9438	-2.0917	-2.0187	-1.7604	-2.1271	-2.0646	-1.8479	-2.2042	-1.8375	-2.0042	185.018	309.685	203.385	263.411	383.737	366.547	151.715	432.058	342.635	186.448	345.492	327.392	506.338	508.281	505.482	382.962	0.00035594	0.00040906	4.9692e-05	352.92	1.7839e-06	1.7263e-06	305.64	137.47	2.4155e-06	2.4109e-06	133.97	51.441	55.246	19.885	2.2576e-06	19.38	0.00017255	0.0005824	1.0595e-05	371.21	7.7398e-07	4.4257e-07	322.12	145.06	6.9524e-07	6.1605e-07	142.1	54.488	58.12	21.269	8.1675e-07	20.769	148.665	223.363	233.254	161.945	265.083	302.640	160.670	166.400	285.099	317.451	163.927	167.252	169.419	173.644	293.757	170.745	-8191	255	
28212.158	1	1	0	0	0.034645	0.077675	0.11657	0.13502	0.17157	0.2805	0.25126	0.1148	0.10467	0.28599	0.21278	0.090303	0.11054	0.19392	0.14072	0.10554	-1.6167	-1.7875	-2.0708	-2.0479	-2.0125	-2.5021	-1.7875	-2.1583	-2.3083	-1.9625	-2.2229	-2.1021	-1.9917	-2.2062	-1.9937	-2.3042	483.475	367.230	183.779	176.288	194.218	340.982	439.607	291.177	154.319	500.989	339.528	163.506	167.533	189.857	264.850	417.380	0.00034818	0.00031834	6.0414e-05	354.13	2.1348e-06	1.8038e-06	305.93	138.17	2.6489e-06	2.8676e-06	134.78	51.778	55.273	19.959	2.0866e-06	19.536	0.00015525	0.00029064	1.3554e-05	372.16	8.0186e-07	4.0756e-07	324.46	145.52	7.0565e-07	6.7187e-07	143.05	54.613	58.494	21.364	8.3003e-07	20.905	504.084	237.603	230.622	162.451	260.296	294.925	160.723	166.615	274.702	295.667	163.938	167.352	169.470	173.612	286.785	170.661	-8191	255	
28212.277	1	1	0	0	0.29756	0.19558	0.26211	0.24206	0.23955	0.23828	0.18424	0.09048	0.24876	0.15979	0.15747	0.07023	0.25727	0.15181	0.14789	0.26293	-1.7646	-1.9021	-2.1583	-2.2729	-1.8208	-2.3167	-1.9979	-2.0312	-2.2167	-1.9458	-2.1896	-2.1104	-1.8042	-2.3896	-2.1583	-1.9813	501.674	303.401	192.268	423.741	439.154	197.292	248.123	333.306	400.422	278.387	393.216	372.281	304.894	461.373	360.331	358.048	0.0003587	0.00048505	5.5666e-05	353.61	2.1741e-06	2.5912e-06	305.97	138.69	2.3307e-06	2.7846e-06	135.82	51.804	55.31	19.927	2.086e-06	19.555	0.00016212	0.00067572	1.1739e-05	372.94	7.8067e-07	4.5314e-07	324.02	146.11	7.1722e-07	7.0011e-07	143.59	54.75	58.875	21.398	7.697e-07	20.89	506.763	233.912	228.704	162.033	268.097	292.802	160.717	166.263	272.537	286.685	164.257	167.421	169.285	173.688	274.750	170.987	-8191	255	
28212.373	1	1	0	0	0.039185	0.20415	0.042198	0.13403	0.13118	0.17398	0.094006	0.16612	0.25393	0.20209	0.11405	0.19785	0.073956	0.30503	0.17083	0.23266	-1.7167	-1.6833	-1.9646	-2.1312	-1.8521	-2.3292	-2.1583	-1.8917	-2.2417	-2.1167	-2.1104	-2.2271	-1.7354	-2.225	-1.9854	-1.8563	475.203	444.528	363.031	476.987	484.783	348.559	461.386	211.326	191.594	155.990	504.439	345.099	196.904	162.700	477.737	373.805	0.00034146	0.00036809	5.9501e-05	353.03	1.782e-06	2.0718e-06	305.38	137.37	2.3455e-06	1.8119e-06	135.12	51.507	55.288	19.915	2.1975e-06	19.491	0.00015972	0.00030458	1.3913e-05	372.46	8.225e-07	3.9963e-07	324.69	145.82	6.2815e-07	5.3986e-07	142.94	54.354	58.548	21.346	8.0107e-07	20.796	507.370	249.763	230.173	162.069	271.020	296.130	160.895	166.187	279.808	288.836	164.151	167.521	169.430	173.583	278.134	170.624	-8191	255	
28212.471	1	1	0	0	0.14143	0.054444	0.22601	0.21579	0.18774	0.32007	0.19246	0.13481	0.20223	0.18591	0.20678	0.13384	0.04232	0.041675	0.11023	0.2379	-1.9958	-1.8354	-2.0292	-2.2542	-1.7271	-2.0021	-2.2083	-1.8229	-2.3146	-1.9083	-1.9396	-2.2083	-1.9208	-1.9979	-2.0417	-1.7604	416.113	468.464	293.410	381.020	328.935	465.985	337.213	410.206	177.745	375.767	175.243	475.485	225.849	338.850	286.214	429.940	0.00036541	0.00056208	5.1581e-05	351.58	1.9751e-06	2.0199e-06	306.5	138.09	2.5484e-06	2.3548e-06	135.05	51.323	55.435	19.989	2.1179e-06	19.413	0.0001694	0.00067735	1.3292e-05	371.4	8.1748e-07	4.8881e-07	322.37	145.57	6.7384e-07	5.6613e-07	142.91	54.414	58.756	21.38	7.8297e-07	20.818	503.776	248.579	240.822	162.073	269.819	308.686	160.596	166.324	265.401	286.054	164.098	167.203	169.374	173.721	279.080	170.885	-8191	255	
28212.566	1	1	0	0	0.11999	0.21426	0.093586	0.25807	0.16161	0.16817	0.16864	0.23737	0.2263	0.032744	0.097921	0.17221	0.10328	0.25388	0.10558	0.11149	-1.9375	-2.0312	-2.0812	-2.2708	-1.8646	-2.0458	-2.1292	-1.825	-2.3646	-1.9375	-1.7208	-2.1917	-1.9833	-2.2271	-2.1229	-1.7271	482.156	378.093	479.348	231.512	222.627	468.146	500.425	487.084	207.528	292.279	388.413	179.123	425.174	452.511	272.623	361.954	0.00034471	0.00040509	6.2834e-05	353.01	2.0806e-06	1.7904e-06	305.95	137.73	3.0804e-06	1.7657e-06	135.91	51.886	55.504	20.141	2.2634e-06	19.514	0.0001581	0.00029199	1.5761e-05	371.9	8.5038e-07	4.4323e-07	322.61	146.51	6.241e-07	5.7073e-07	143.35	54.735	58.846	21.481	7.2326e-07	20.948	506.795	247.070	234.684	161.972	276.314	304.843	160.818	166.485	269.479	304.438	164.205	167.269	169.647	173.558	286.933	170.836	-8191	255	
28212.688	1	1	0	0	0.071498	0.13226	0.12282	0.30475	0.24583	0.16499	0.22312	0.35857	0.22415	0.02903	0.084249	0.096135	0.21232	0.098458	0.19522	0.12663	-1.9083	-1.8417	-1.8563	-2.3937	-1.9396	-2.2021	-2.2542	-1.7104	-2.1667	-2.1479	-1.825	-2.2729	-2.0354	-2.0792	-2.2604	-1.8625	448.189	400.507	337.082	425.725	362.319	176.652	427.172	491.295	224.067	299.266	451.651	286.883	152.157	301.668	224.820	283.197	0.00035478	0.00050366	7.5067e-05	354.17	2.0755e-06	1.9299e-06	308.54	138.39	3.3659e-06	2.5211e-06	136.2	52.147	55.536	20.05	2.085e-06	19.713	0.00016422	0.00066026	1.6399e-05	373.17	6.9703e-07	5.1787e-07	324.77	146.7	7.2243e-07	5.2673e-07	143.91	55.036	59.309	21.479	7.0275e-07	21.062	505.188	268.525	224.561	161.836	254.574	297.877	160.743	166.536	267.425	317.281	164.328	167.602	169.531	173.548	280.012	170.461	-8191	255	
28212.760	1	1	0	0	0.023496	0.039843	0.18807	0.015391	0.12031	0.28576	0.087099	0.17922	0.04803	0.29319	0.15141	0.11648	0.15886	0.079099	0.044935	0.10495	-1.6562	-2.1104	-1.9312	-2.0625	-1.9042	-2.0917	-2.0125	-1.8542	-2.2146	-2.1125	-1.9937	-2.2812	-1.7437	-2.1312	-2.375	-1.9521	419.413	439.043	179.671	316.776	157.739	274.285	297.823	161.681	198.929	349.354	485.911	435.169	276.018	169.862	468.831	410.021	0.00035607	0.00028424	6.5535e-05	353.92	1.6765e-06	2.3493e-06	308.06	137.48	3.2804e-06	2.7571e-06	135.72	51.916	55.558	20.029	2.8283e-06	19.511	0.00016476	0.00017218	4.0367e-05	373.22	6.9926e-07	5.8261e-07	323.81	146.81	7.0855e-07	4.512e-07	143.25	54.94	58.923	21.444	6.8887e-07	20.908	505.115	251.058	237.029	162.107	265.371	282.495	160.600	166.382	269.285	309.837	164.019	167.260	169.563	173.823	290.197	171.239	-8191	255	
28212.879	1	1	0	0	0.39022	0.054833	0.11847	0.058029	0.017536	0.27098	0.049496	0.079609	0.20133	0.13206	0.22615	0.082909	0.22963	0.049894	0.1569	0.18448	-1.6375	-2.0167	-1.8625	-2.2729	-2	-2.0583	-2.2396	-1.9021	-2.0125	-2.2333	-1.9375	-2.1937	-1.9521	-1.8958	-2.2667	-1.8958	401.601	264.865	443.611	172.555	437.539	330.796	470.927	197.154	306.767	186.153	187.561	460.918	357.939	253.462	244.888	477.402	0.00034483	0.00021201	8.745e-05	353.26	1.7817e-06	2.2246e-06	305.12	137.76	2.6817e-06	2.7876e-06	135.42	51.566	55.461	19.954	2.1461e-06	19.509	0.00015349	5.2786e-05	0.0001803	371.72	6.7751e-07	5.9251e-07	322.26	146.17	7.3689e-07	4.8141e-07	143.24	54.691	59.099	21.425	6.9129e-07	20.872	503.545	238.350	192.402	161.870	253.926	297.262	160.555	166.633	276.273	280.293	163.976	167.056	169.666	173.645	300.637	170.807	-8191	255	
28212.975	1	1	0	0	0.32811	0.22043	0.29444	0.23692	0.30591	0.22855	0.10026	0.2137	0.028793	0.1379	0.12286	0.052242	0.073477	0.21418	0.39812	0.24329	-1.9083	-2.0458	-1.7375	-2.2396	-2.0646	-1.8312	-2.4125	-1.8854	-2.1021	-2.4208	-1.7354	-2.0542	-2.0938	-1.8646	-2.2875	-1.8958	502.154	332.197	486.222	428.582	372.123	375.253	483.240	285.527	492.818	409.208	370.585	353.247	402.746	399.723	366.893	438.306	0.00035923	0.00015621	9.2921e-05	352.17	2.2128e-06	1.9499e-06	303.71	137.75	2.464e-06	2.1982e-06	135.35	52.07	55.883	20.064	1.7288e-06	19.617	0.00016392	5.0628e-05	8.1928e-05	370.7	7.5837e-07	6.3809e-07	320.74	146.64	7.6234e-07	3.7764e-07	143.6	55.061	59.066	21.481	7.2688e-07	21.028	506.818	234.796	254.363	162.061	265.195	311.211	160.613	166.415	275.835	307.630	164.167	167.524	169.384	173.602	269.339	170.861	-8191	255	
28213.070	1	1	0	0	0.14102	0.060182	0.17607	0.14217	0.34772	0.12277	0.3	0.17066	0.23391	0.15483	0.14738	0.2768	0.20041	0.21288	0.090489	0.06592	-1.5604	-2.2021	-1.7125	-2.425	-2.0979	-1.9208	-2.2917	-2.2083	-1.9708	-2.3688	-1.9667	-2.1562	-2.0062	-1.9521	-2.2896	-2.0833	390.789	382.967	273.718	249.831	229.260	279.960	503.519	169.847	429.758	225.362	451.760	395.660	190.061	203.653	491.516	212.597	0.00036403	0.00025222	0.00012238	352.05	1.8804e-06	2.3682e-06	304.62	139.33	2.5511e-06	1.8748e-06	136.54	52.783	56.432	20.217	2.1463e-06	19.787	0.00017272	4.6428e-05	0.00019062	370.07	6.6859e-07	6.698e-07	320.61	147.43	8.1671e-07	4.1573e-07	144.76	55.727	59.603	21.717	6.9551e-07	21.146	505.579	241.997	268.136	161.813	283.516	298.719	160.610	166.301	257.967	295.879	164.071	167.313	169.402	173.482	275.861	170.903	-8191	255	
28213.168	1	1	0	0	0.31426	0.30523	0.11196	0.022045	0.30258	0.10247	0.17544	0.14115	0.25967	0.1231	0.12802	0.25838	0.082674	0.26117	0.10367	0.1402	-1.5646	-2.3063	-1.9146	-2.225	-2.3646	-1.7646	-2.2333	-1.9042	-2.0375	-2.4271	-1.9125	-2.0396	-2.2313	-1.7229	-2.3187	-1.9937	203.159	215.144	155.834	435.242	482.742	168.107	413.774	444.822	343.513	368.486	189.607	148.832	321.767	232.962	269.070	490.348	0.00037672	0.00023379	9.2247e-05	351.63	1.9533e-06	2.5622e-06	304.84	140.01	3.0077e-06	1.7759e-06	136.85	52.775	56.437	20.272	2.3174e-06	19.675	0.00017454	4.6778e-05	8.541e-05	370.03	6.1283e-07	7.5501e-07	320.24	148.57	9.052e-07	3.8815e-07	144.82	55.622	59.657	21.698	6.5027e-07	21.06	505.766	231.400	270.204	162.026	280.169	296.188	160.412	166.508	280.232	286.454	163.836	166.856	169.376	173.452	278.749	170.334	-8191	255	
28213.285	1	1	0	0	0.13257	0.082207	0.26727	0.26333	0.10007	0.065188	0.16838	0.19768	0.051767	0.16253	0.35621	0.20176	0.21061	0.092037	0.19822	0.15297	-1.5417	-2.3875	-1.9542	-2.2375	-2.3833	-1.9125	-2.1104	-2.2562	-2.05	-2.425	-1.7563	-2.2687	-2.3333	-1.8167	-2.1625	-2.0229	447.771	436.935	392.414	463.911	503.533	484.758	419.269	475.269	364.549	151.191	481.164	429.980	168.869	450.641	206.127	195.927	0.00034244	0.0002084	0.00015021	349.88	2.4133e-06	1.6504e-06	301.43	139.67	2.6702e-06	2.9784e-06	136.42	52.379	56.515	20.176	1.817e-06	19.586	0.00017187	4.7303e-05	0.00019132	368.96	6.4852e-07	5.6345e-07	317.51	147.61	1.9909e-06	4.6039e-07	144.52	55.457	59.761	21.695	7.1722e-07	20.99	503.350	236.365	270.090	162.135	263.914	298.282	160.599	166.149	259.990	285.922	163.871	167.123	169.338	173.359	282.563	170.379	-8191	255	
28213.357	1	1	0	0	0.2229	0.11782	0.10099	0.11637	0.24	0.32209	0.079919	0.067416	0.08064	0.08703	0.30237	0.18968	0.066435	0.27365	0.13097	0.093129	-1.3937	-2.1771	-1.9021	-1.9917	-2.2667	-1.6771	-2.1646	-2.2958	-1.8125	-2.2229	-2.0312	-1.9292	-2.5146	-1.9354	-2.3146	-2.1917	420.237	366.241	252.454	463.103	251.614	484.800	360.023	290.648	320.821	405.905	502.845	161.856	444.415	161.643	437.780	292.773	0.00035066	0.00022498	8.3638e-05	348.5	1.6432e-06	2.8326e-06	301.22	140.25	1.2243e-06	1.8908e-06	136.91	52.843	56.216	20.192	2.0533e-06	19.691	0.00017204	5.4303e-05	8.2598e-05	367.49	6.2175e-07	6.8895e-07	317.58	148	7.1092e-06	4.4332e-07	144.71	55.718	59.726	21.699	7.2627e-07	21.06	504.846	238.019	277.370	161.919	258.773	295.339	160.604	166.119	164.459	291.442	163.840	167.269	169.539	173.464	276.510	170.692	-8191	255	
28213.453	1	1	0	0	0.20313	0.32035	0.25503	0.17122	0.12717	0.055134	0.021858	0.15913	0.18115	0.18133	0.20971	0.13056	0.16256	0.23107	0.21963	0.16259	-1.5167	-2.2375	-1.8208	-1.7958	-2.3083	-1.9958	-1.9354	-2.3438	-1.775	-2.2417	-2.0708	-2.0563	-2.2771	-1.7979	-2.1312	-2.1813	471.891	382.220	459.355	435.918	232.589	398.527	476.928	448.588	400.345	257.890	452.710	411.092	490.513	166.693	306.641	169.711	0.0003415	0.00020966	0.00010137	349.26	1.5547e-06	1.9559e-06	300.79	141	2.4454e-06	2.5602e-06	137.72	52.761	56.725	20.285	2.1457e-06	19.72	0.00017498	4.9695e-05	0.0001897	367.35	6.4796e-07	6.5461e-07	317.89	148.4	3.2275e-06	4.4529e-07	145.38	55.858	59.941	21.857	8.0167e-07	21.102	506.729	233.965	282.589	161.922	271.696	312.428	160.773	166.070	278.222	298.129	163.814	167.147	169.162	173.527	275.744	170.626	-8191	255	
28213.574	1	1	0	0	0.064121	0.22339	0.4523	0.29015	0.11721	0.18563	0.077093	0.16293	0.14888	0.25175	0.12581	0.11847	0.25173	0.14786	0.29188	0.16217	-1.3854	-2.1854	-2.1104	-1.8354	-2.4396	-1.8	-2.0875	-2.2542	-1.9896	-2.1562	-2.1229	-1.8417	-2.3187	-1.9771	-2.0812	-2.3375	298.356	270.378	459.490	467.560	470.880	176.832	303.227	156.465	201.252	206.468	462.373	461.468	473.574	377.953	476.883	490.906	0.00034845	0.00023049	7.8798e-05	347.96	2.1358e-06	2.0179e-06	303.65	140.45	2.6395e-06	2.292e-06	137.49	52.972	56.821	20.368	2.4149e-06	19.779	0.00016876	5.1328e-05	4.179e-05	367.98	6.8253e-07	4.7824e-07	319.14	148.29	7.0004e-06	4.4135e-07	145.37	55.913	59.983	21.764	7.8358e-07	21.113	506.054	236.946	278.379	162.198	272.034	303.060	160.586	166.197	179.524	292.855	163.723	167.802	169.149	173.281	289.859	170.620	-8191	255	
28213.672	1	1	0	0	0.13942	0.092796	0.16932	0.075954	0.1856	0.085481	0.25194	0.21217	0.1334	0.15291	0.37259	0.094411	0.26172	0.02044	0.10118	0.067301	-1.3292	-2.0292	-2.1958	-1.9979	-2.3229	-2.2208	-1.9125	-2.4896	-1.9625	-2.2271	-2.1271	-1.875	-2.2875	-2.1021	-1.85	-2.3375	408.902	417.574	186.139	179.502	153.808	260.512	449.870	299.759	490.848	272.642	396.604	458.800	485.610	169.873	507.647	505.610	0.00035965	0.000235	7.3861e-05	349.39	1.5901e-06	2.2463e-06	302.79	139.53	1.779e-06	2.3006e-06	136.27	52.62	56.79	20.309	2.2622e-06	19.611	0.00017018	5.7161e-05	1.2589e-05	369.49	6.8365e-07	5.793e-07	318.41	147.62	3.2252e-06	5.2016e-07	144.17	55.524	59.911	21.854	8.3123e-07	21.034	506.051	239.172	223.027	162.085	288.366	304.599	160.450	166.238	231.315	312.401	163.930	167.521	169.321	173.569	276.474	170.826	-8191	255	
28213.768	1	1	0	0	0.092834	0.15779	0.16626	0.3651	0.15601	0.28048	0.05109	0.17965	0.13709	0.066369	0.21979	0.052433	0.26974	0.076172	0.080789	0.014726	-1.3917	-1.9542	-2.1771	-1.9542	-2.1146	-2.1146	-1.8021	-2.2833	-1.8708	-1.9854	-2.2833	-1.9375	-2.1437	-2.2313	-1.8667	-2.5208	151.225	375.897	421.024	499.771	416.970	335.327	182.481	307.885	317.488	152.328	504.040	364.013	239.042	502.785	352.383	499.602	0.00034604	0.00018088	7.3662e-05	349.15	2.1051e-06	2.1496e-06	303.32	138.9	3.6597e-06	2.3884e-06	137.45	52.688	56.811	20.452	3.4804e-06	19.769	0.00017058	5.0045e-05	1.1592e-05	368.35	6.7417e-07	5.4099e-07	317.92	147.34	6.7876e-06	5.1359e-07	144.53	55.684	59.951	21.793	2.1643e-06	21.113	506.761	230.503	241.693	161.956	259.023	311.114	160.637	166.422	172.995	295.143	164.060	167.014	169.001	173.606	272.764	170.859	-8191	255	
28213.863	1	1	0	0	0.20388	0.17288	0.43328	0.12641	0.19337	0.11815	0.17959	0.16246	0.08259	0.079461	0.16741	0.14609	0.35938	0.2328	0.33794	0.30623	-1.6	-2.0229	-2.4313	-1.8792	-2.2833	-2.1833	-1.9937	-2.1792	-1.8875	-1.9208	-2.2771	-2.0854	-2.1604	-2.125	-1.8104	-2.2604	473.216	398.829	340.452	495.623	315.468	368.261	206.471	407.945	507.323	383.069	452.915	492.206	481.262	454.388	352.574	419.705	0.00033936	0.00018156	5.546e-05	349.2	2.1412e-06	2.4331e-06	304.1	140.53	2.6679e-06	1.8031e-06	136.53	53.204	56.657	20.344	5.6712e-06	19.822	0.00016273	6.1477e-05	1.0006e-05	370.47	6.6246e-07	4.287e-07	319.63	148	3.2518e-06	5.5759e-07	144.79	56.004	59.943	21.801	7.3261e-06	21.221	505.551	227.551	233.962	161.982	250.494	295.904	160.803	166.326	261.679	290.801	163.853	167.035	169.499	173.356	271.935	170.499	-8191	255	
28213.961	1	1	0	0	0.22462	0.21868	0.1402	0.26898	0.14512	0.16912	0.31895	0.21482	0.053366	0.18028	0.053966	0.36336	0.13604	0.25275	0.16868	0.25914	-1.4604	-1.9667	-2.3042	-1.8104	-2.2042	-2.0354	-1.7542	-2.1625	-2.1229	-1.8854	-2.3187	-1.8854	-2.1583	-2.2729	-1.8271	-2.2042	322.441	168.231	166.348	495.488	164.107	225.626	429.729	301.241	471.629	444.723	308.057	452.358	380.834	374.707	320.047	374.445	0.00035795	0.00021417	5.9879e-05	350.31	2.1985e-06	2.1444e-06	304.57	140.38	1.9549e-06	2.4012e-06	136.92	53.418	56.827	20.459	2.5951e-06	19.938	0.00016666	5.961e-05	1.1592e-05	370.82	7.4833e-07	4.8352e-07	320.81	148.32	6.5024e-06	6.2196e-07	145.44	56.263	60.275	21.863	3.3195e-06	21.368	505.718	243.995	241.104	162.094	271.174	294.321	160.495	165.992	227.710	297.522	163.988	167.351	169.312	173.556	293.660	170.627	-8191	255	
28214.055	1	1	0	0	0.14671	0.28618	0.12054	0.20402	0.022619	0.081328	0.058584	0.051525	0.070867	0.067877	0.095941	0.29587	0.23732	0.068767	0.27315	0.33254	-1.4917	-1.7396	-2.2979	-2.0312	-1.9208	-2.0917	-1.8021	-2.1688	-2.0375	-1.6562	-2.375	-2.0042	-1.8958	-2.5042	-1.8312	-2.1271	336.855	302.562	268.912	430.050	497.732	352.004	467.622	498.542	154.495	169.621	179.990	184.297	163.842	160.700	166.877	447.877	0.00035251	0.00022014	7.9502e-05	352.43	1.5011e-06	1.5983e-06	304.78	140.21	1.9715e-06	2.6515e-06	137.46	53.054	56.991	20.521	5.5904e-06	19.888	0.00016832	7.4367e-05	1.4764e-05	373.12	7.6283e-07	4.9079e-07	320.85	148.13	1.4807e-06	2.0642e-06	145.08	56.135	60.264	21.896	7.4473e-06	21.262	505.792	246.733	237.994	162.055	271.978	297.115	160.646	166.207	276.521	274.300	163.877	167.164	169.282	173.605	280.751	170.638	-8191	255	
28214.150	1	1	0	0	0.18355	0.080363	0.18302	0.18023	0.0867	0.19667	0.12494	0.29867	0.11377	0.16289	0.040243	0.077072	0.15289	0.34781	0.16112	0.12627	-1.7896	-1.8396	-2.2396	-1.9396	-1.9292	-2.4062	-1.8729	-2.1583	-2.1667	-1.7521	-2.4146	-1.8625	-1.8625	-2.2354	-1.9958	-1.8937	285.490	484.598	410.566	463.998	176.463	384.358	190.062	154.524	500.147	465.434	338.510	303.741	187.875	482.327	310.957	499.489	0.00035871	0.00024676	6.2077e-05	351.99	2.1275e-06	2.3948e-06	303.53	139.81	2.8684e-06	3.844e-06	137.01	52.931	56.849	20.449	3.6231e-06	19.805	0.00016426	5.7802e-05	1.1935e-05	372.15	8.4926e-07	5.0928e-07	321.16	147.78	7.2069e-07	7.8155e-06	144.64	55.982	60.126	21.853	3.2875e-06	21.238	506.353	226.968	220.748	162.154	277.393	320.143	160.561	166.375	266.447	245.605	164.100	167.400	169.513	173.681	294.215	170.786	-8191	255	
28214.246	1	1	0	0	0.19044	0.15129	0.15821	0.12887	0.20138	0.26163	0.24733	0.044245	0.055489	0.15177	0.25331	0.32792	0.088916	0.13245	0.19036	0.18284	-1.7354	-1.8104	-2.0417	-2.1083	-2.0687	-2.2375	-2.0354	-2.2042	-2.2562	-1.8771	-2.1292	-1.9937	-1.8563	-2.2208	-1.9333	-1.9833	228.710	353.997	225.205	355.339	486.379	261.935	158.241	240.468	270.767	440.507	334.354	444.922	201.214	373.102	437.516	424.741	0.00035133	0.00024373	6.5567e-05	351.74	1.8622e-06	2.6609e-06	307.13	140.3	2.2134e-06	2.3349e-06	136.99	53.098	57.089	20.487	5.7865e-06	19.986	0.00016287	6.5735e-05	1.29e-05	373.26	7.935e-07	5.007e-07	322.78	148	6.5591e-07	3.3653e-06	144.82	56.168	60.389	21.918	7.4141e-06	21.341	506.964	235.842	224.206	161.902	267.052	301.540	160.774	166.354	267.071	289.227	164.450	167.184	169.392	173.549	291.140	170.667	-8191	255	
28214.367	1	1	0	0	0.46397	0.33287	0.15337	0.11023	0.13714	0.071426	0.12561	0.12463	0.12383	0.19425	0.092214	0.012421	0.1925	0.30351	0.263	0.14232	-1.8354	-1.9875	-2.0479	-2.0792	-1.7479	-2.2625	-2.0646	-2.0125	-2.2479	-1.9312	-2.2125	-2.3271	-1.8521	-2.0938	-2.0479	-1.9771	471.011	472.106	476.788	294.196	374.822	282.100	369.945	305.529	166.650	169.378	407.865	246.343	255.540	150.567	232.258	156.049	0.00035496	0.00016129	7.0918e-05	354.1	1.6922e-06	2.319e-06	308.92	140.56	2.2128e-06	2.4294e-06	137.67	53.457	57.26	20.476	3.7824e-06	20.029	0.0001608	6.451e-05	1.7445e-05	373.6	2.2188e-06	4.5644e-07	324.36	148.55	6.4723e-07	7.8254e-06	145.56	56.389	60.515	21.954	3.3279e-06	21.448	507.208	225.611	230.581	162.074	243.071	313.626	160.641	166.386	277.420	230.897	163.867	167.238	169.517	173.658	294.906	170.851	-8191	255	
28214.461	1	1	0	0	0.31464	0.14909	0.089815	0.17099	0.17301	0.10564	0.28994	0.30825	0.1082	0.10268	0.05169	0.064115	0.15378	0.13151	0.1951	0.12656	-1.8875	-1.9146	-2.1958	-2.0292	-1.8292	-2.2271	-2.0667	-1.8062	-2.3979	-2.0396	-2.2833	-2.0833	-1.8021	-2.2771	-2.1312	-1.8417	214.076	499.646	434.168	465.598	468.033	251.185	485.214	449.262	194.696	294.186	231.440	161.661	212.043	292.449	309.875	290.790	0.00037099	0.00024189	6.282e-05	355.13	1.5363e-06	2.3196e-06	308.51	140.83	2.6038e-06	3.2113e-06	137.12	53.637	57.323	20.526	4.0117e-06	20.127	0.00016591	7.4834e-05	1.3178e-05	374.77	7.016e-06	3.7916e-07	324.9	148.6	6.7558e-07	3.452e-06	145.37	56.45	60.361	21.968	6.2674e-06	21.375	503.519	241.016	247.812	162.178	431.304	283.592	160.652	166.289	285.037	264.176	163.500	167.145	169.554	173.600	318.304	170.443	-8191	255	
28214.559	1	1	0	0	0.3686	0.088398	0.13345	0.12865	0.011637	0.066208	0.20821	0.18669	0.16536	0.12156	0.16263	0.064023	0.20444	0.17207	0.0087287	0.094388	-1.9375	-1.9375	-1.8854	-2.1854	-1.8875	-2.2083	-2.1	-1.7917	-2.2042	-2.0125	-2.1021	-2.2333	-1.8896	-2.1562	-2.1437	-1.8417	274.895	260.513	364.266	199.234	174.907	245.572	403.323	409.431	175.985	189.459	446.145	462.177	220.955	299.836	194.608	507.908	0.00036127	0.00015127	5.892e-05	355.99	6.648e-07	2.0797e-06	307.87	140.19	3.5468e-06	5.6484e-06	137.82	53.211	57.094	20.521	1.949e-06	19.908	0.00016422	6.066e-05	1.6644e-05	374.51	3.0463e-06	5.8195e-07	324.09	147.77	8.1555e-07	7.6599e-06	145.22	56.115	60.415	21.935	1.1926e-06	21.378	502.566	245.166	240.926	162.081	294.829	306.515	160.965	166.360	272.391	238.474	164.097	167.259	169.155	173.299	317.547	170.536	-8191	255	
28214.654	1	1	0	0	0.26176	0.15669	0.24445	0.23462	0.067721	0.1652	0.28013	0.069074	0.095225	0.3263	0.062576	0.20245	0.21347	0.26388	0.15206	0.11426	-1.9292	-1.9979	-1.8854	-2.1375	-1.9375	-2.0604	-2.1396	-1.7667	-2.3354	-1.8833	-2.0125	-2.2979	-1.9417	-2.2438	-2.0896	-1.8875	462.227	293.465	240.133	425.194	333.756	464.734	238.802	360.491	424.602	229.353	472.700	281.718	473.450	454.881	251.099	359.598	0.00036073	0.00022756	6.5397e-05	355.39	1.7306e-06	1.5114e-06	308.98	140.81	2.7285e-06	2.3499e-06	136.79	53.48	56.931	20.61	2.318e-06	20.013	0.00016574	5.821e-05	1.3848e-05	374.52	6.9012e-06	5.8062e-07	325.22	148.16	7.1606e-07	3.2155e-06	145.01	56.321	60.333	22.019	7.4919e-07	21.607	506.361	238.285	238.290	161.961	429.331	298.226	160.499	166.342	269.761	246.764	164.010	167.351	169.437	173.520	286.522	171.155	-8191	255	
28214.750	1	1	0	0	0.33427	0.076468	0.2591	0.28825	0.074785	0.041117	0.16448	0.25335	0.076967	0.19751	0.15343	0.22878	0.1276	0.32619	0.20427	0.18537	-1.5792	-1.8292	-1.8396	-2.3708	-1.9562	-2.1479	-2.2333	-1.8167	-2.1188	-2.2375	-1.9667	-2.2	-2.0062	-1.9813	-2.3646	-1.875	223.617	433.702	382.523	160.191	335.851	195.580	402.527	175.130	454.829	378.301	286.617	314.134	268.364	362.455	180.543	272.878	0.00035382	0.00024145	5.7146e-05	356.12	9.7485e-07	2.6548e-06	310.47	140.59	3.2579e-06	1.9618e-06	137.24	53.874	57.572	20.538	1.9546e-06	20.013	0.00016974	5.4244e-05	1.5467e-05	375.87	3.1985e-06	4.9343e-07	325.84	148.27	7.7738e-07	6.1276e-06	145.55	56.645	60.656	22.009	7.5824e-07	21.543	505.124	239.497	244.223	161.813	293.557	306.243	160.623	166.450	261.368	324.581	163.897	167.134	169.187	173.471	287.443	170.673	-8191	255	
28214.846	1	1	0	0	0.33085	0.30217	0.2281	0.30136	0.38128	0.099305	0.44351	0.032403	0.19398	0.18249	0.0087518	0.14107	0.058893	0.25805	0.053115	0.2694	-1.6833	-2.1521	-1.8646	-2.2417	-1.9958	-2.0438	-2.4583	-1.9958	-2.3229	-2.2646	-2.1521	-2.3396	-1.925	-1.9896	-2.2167	-1.9042	277.972	249.636	238.910	475.165	411.506	370.894	455.195	427.893	264.592	205.755	443.371	383.590	418.358	421.478	327.210	324.386	0.00035283	0.00020116	4.9615e-05	357.09	2.2714e-06	1.7084e-06	311.85	140.76	2.3928e-06	2.7264e-06	138.46	53.878	57.285	20.62	1.7913e-06	20.103	0.00016442	5.4594e-05	1.648e-05	376.24	7.0947e-06	5.9516e-07	327.32	148.3	7.4094e-07	9.5822e-07	146.42	56.751	60.619	22.069	6.4604e-07	21.633	503.196	255.019	240.155	161.802	454.653	281.127	160.601	166.311	282.595	308.326	164.060	167.601	169.294	173.611	283.843	170.697	-8191	255	
28214.967	1	1	0	0	0.093509	0.13777	0.25184	0.20797	0.23766	0.33002	0.076929	0.15285	0.11932	0.28241	0.18021	0.043158	0.22967	0.26187	0.10851	0.091486	-1.8208	-2.0375	-1.7771	-2.3021	-2.0563	-1.8479	-2.4104	-1.9833	-2.2625	-2.3104	-1.9354	-2.2542	-2.1458	-1.9021	-2.2021	-1.8646	452.571	253.564	173.814	187.798	203.251	171.082	458.998	376.338	380.992	178.169	466.383	369.664	456.641	195.364	425.405	435.689	0.00036636	0.00016327	6.8719e-05	357.45	1.554e-06	2.6287e-06	310.72	139.96	2.6345e-06	2.0857e-06	137.18	53.444	57.326	20.564	2.5986e-06	19.984	0.00016652	4.1704e-05	1.8671e-05	376.96	3.1121e-06	6.2356e-07	325.97	148.04	7.5482e-07	4.0982e-07	146.23	56.388	60.551	22.003	6.9249e-07	21.467	506.354	263.640	232.317	162.003	265.565	298.596	160.343	166.499	278.458	300.951	163.807	167.094	169.307	173.515	280.034	171.046	-8191	255	
28215.062	1	1	0	0	0.1889	0.158	0.15533	0.11436	0.18795	0.27137	0.1994	0.19286	0.16737	0.10019	0.14508	0.14863	0.077709	0.17077	0.097525	0.38214	-1.6812	-2.2083	-1.8521	-2.1937	-2.2292	-2.0312	-2.425	-2.0375	-2.0333	-2.2313	-1.7563	-2.2854	-2.1229	-1.8625	-2.4437	-2.0312	459.242	190.618	452.833	318.037	211.373	330.767	263.292	160.508	215.721	215.811	442.198	478.237	480.750	152.191	441.432	406.066	0.00035852	0.00026142	5.1144e-05	357.47	1.8767e-06	2.6496e-06	307.86	139.85	2.7099e-06	2.6791e-06	137.71	53.382	57.357	20.58	2.0269e-06	20.083	0.00016598	4.9811e-05	1.7788e-05	375.94	5.3086e-06	1.4334e-06	325.15	147.82	8.3348e-07	5.0637e-07	145.45	56.422	60.397	22.017	6.3639e-07	21.568	505.097	231.225	242.680	162.112	363.935	211.859	160.425	166.269	274.965	282.061	164.016	167.303	169.471	173.758	277.217	170.330	-8191	255	
28215.158	1	1	0	0	0.11524	0.068593	0.20345	0.12231	0.13633	0.21806	0.1546	0.059394	0.17568	0.18862	0.14368	0.19397	0.27085	0.070178	0.013442	0.18606	-1.6063	-2.2313	-1.9688	-2.2083	-2.0896	-1.9813	-2.3667	-2.1521	-1.9292	-2.3125	-2.0125	-2.1458	-2.2854	-1.9333	-2.3312	-2.2542	293.383	263.802	243.810	475.972	503.267	335.583	457.393	316.627	337.647	234.317	501.729	386.846	489.840	271.726	456.887	217.576	0.00036336	0.0002298	6.0952e-05	357.91	1.6622e-06	2.7915e-06	309.33	140.02	2.0331e-06	2.3145e-06	137.78	54.066	57.209	20.676	2.3997e-06	20.106	0.00017583	4.5495e-05	1.8312e-05	376.69	9.9257e-07	2.7703e-06	325.96	147.94	8.5488e-07	4.558e-07	146.52	56.648	60.627	22.114	7.7815e-07	21.555	506.682	258.147	224.249	162.079	296.502	244.079	160.354	166.438	260.276	297.511	163.773	167.040	169.425	173.938	289.924	170.720	-8191	255	
28215.230	1	1	0	0	0.15861	0.19015	0.18838	0.098686	0.26065	0.1001	0.15432	0.14618	0.1648	0.24615	0.080183	0.24041	0.22166	0.15515	0.1803	0.066356	-1.425	-2.3417	-1.7979	-2.15	-2.1917	-1.6854	-2.1875	-2.0792	-2.125	-2.2354	-2.0187	-2.1521	-2.1604	-1.8396	-2.4292	-2.0542	499.152	378.590	371.487	317.587	205.219	177.928	161.218	332.616	438.154	162.486	353.118	360.585	221.122	177.063	378.393	299.498	0.00035546	0.00023611	6.7069e-05	359.09	1.7071e-06	2.6952e-06	312.21	140.44	2.8641e-06	2.0982e-06	138.42	53.945	57.54	20.689	2.7958e-06	20.146	0.00017397	5.0103e-05	1.7625e-05	377.41	7.0205e-07	8.1175e-06	327.77	148.23	8.4736e-07	4.6236e-07	146.11	56.865	60.727	22.139	7.1421e-07	21.664	506.379	236.880	223.722	161.862	281.691	176.092	160.627	166.307	271.243	303.074	163.987	167.398	169.156	173.446	268.651	170.704	-8191	255	
28215.352	1	1	0	0	0.12842	0.24533	0.10032	0.22918	0.11592	0.13545	0.18987	0.019208	0.26713	0.1879	0.03396	0.18086	0.30023	0.31254	0.040607	0.20075	-1.2396	-2.25	-1.8396	-2.0771	-2.1792	-1.8937	-2.1229	-2.1333	-1.8521	-2.3479	-2.0375	-2.0833	-2.2125	-1.7146	-2.15	-2	396.909	330.781	208.049	490.540	346.430	211.362	370.022	207.634	368.158	486.022	388.286	415.847	493.933	468.283	458.667	470.632	0.00037595	0.00025475	5.1829e-05	357.19	2.1844e-06	1.4671e-06	309.82	140.01	2.3474e-06	2.4683e-06	137.3	53.196	57.215	20.549	2.3414e-06	20.044	0.00023354	5.5761e-05	1.5924e-05	377.74	6.0223e-07	3.5082e-06	326.87	147.93	8.9421e-07	4.6893e-07	145.87	56.493	60.538	22.023	6.9611e-07	21.435	505.689	234.759	250.254	161.996	257.323	257.920	160.604	166.282	263.866	301.902	163.971	167.122	169.308	173.786	278.748	170.697	-8191	255	
28215.447	1	1	0	0	0.10644	0.12636	0.25442	0.047109	0.04918	0.12216	0.13438	0.2093	0.10255	0.12719	0.08995	0.19239	0.10806	0.32588	0.32421	0.098681	-1.3729	-2.0354	-2.0104	-1.9042	-2.2708	-1.825	-2.0208	-2.1854	-1.7271	-2.1604	-2.0229	-1.9125	-2.1667	-2.0375	-1.9062	-2.2167	217.167	461.897	156.893	391.726	412.917	378.032	461.374	468.496	485.215	279.368	221.917	181.645	179.812	443.801	438.798	159.520	0.00034843	0.00015681	4.9476e-05	357.86	1.5606e-06	3.3205e-06	310.59	140.04	2.5406e-06	2.4995e-06	136.71	53.694	57.225	20.523	2.4792e-06	20.059	0.00028756	4.4095e-05	1.841e-05	377.62	6.0725e-07	8.1684e-06	326.88	147.79	9.1908e-07	5.1031e-07	145	56.515	60.489	22.037	6.7982e-07	21.449	505.202	249.527	243.742	161.917	269.769	160.788	160.571	166.265	273.773	300.156	163.950	167.334	169.133	173.432	272.838	170.390	-8191	255	
28215.543	1	1	0	0	0.069451	0.18285	0.1163	0.42137	0.23289	0.092613	0.14865	0.18	0.09122	0.26161	0.1989	0.1803	0.22617	0.33858	0.17573	0.22418	-1.3854	-2.2833	-2.1875	-1.85	-2.45	-1.875	-2.1083	-2.1937	-1.9208	-2.2146	-2.0083	-1.8	-2.3146	-1.9625	-2.0687	-2.3396	343.366	238.073	469.702	449.754	182.775	246.001	324.596	164.409	483.146	385.004	211.125	358.413	338.603	158.032	371.081	392.319	0.0003294	0.00023478	8.2192e-05	358.93	2.5505e-06	1.205e-06	311.58	139.13	2.624e-06	2.3126e-06	137	53.468	57.059	20.692	2.5922e-06	20.025	0.00055724	5.2378e-05	1.617e-05	378.46	6.4183e-07	3.5795e-06	328	147.66	9.0462e-07	5.241e-07	145.36	56.56	60.547	22.093	8.3003e-07	21.499	150.799	244.779	231.003	162.103	267.701	298.013	160.692	166.191	268.057	294.002	164.039	167.093	169.456	173.582	272.154	170.596	-8191	255	
28215.641	1	1	0	0	0.28816	0.079634	0.017077	0.15946	0.072055	0.048844	0.40388	0.19083	0.30672	0.040655	0.32227	0.048075	0.20237	0.15028	0.092251	0.09167	-1.4396	-2.1604	-2.2979	-1.8375	-2.2208	-2.1188	-2.0479	-2.3187	-1.9458	-2.3146	-2.2396	-1.7917	-2.2208	-2.3271	-1.9375	-2.2146	478.705	335.500	268.351	347.173	399.772	426.031	442.729	366.954	154.732	350.504	422.383	186.981	155.407	493.494	273.020	164.973	0.00034364	0.00019102	4.6155e-05	361.54	2.118e-06	4.0077e-06	313.72	140.29	2.1909e-06	2.2627e-06	138.12	53.682	57.468	20.685	1.5358e-06	20.19	0.00033051	5.2203e-05	1.3897e-05	379.74	6.1785e-07	8.4002e-06	329.56	148.18	8.543e-07	5.3395e-07	145.2	56.676	60.689	22.125	8.8552e-07	21.572	149.034	231.726	234.072	162.194	267.870	195.661	160.310	166.159	268.410	298.850	164.295	167.044	169.419	173.357	281.834	170.407	-8191	255	
28215.758	1	1	0	0	0.35146	0.22728	0.26292	0.209	0.045051	0.26209	0.22044	0.34033	0.2271	0.12821	0.19848	0.062979	0.10178	0.20812	0.19474	0.14852	-1.4896	-2.1042	-2.0083	-1.8521	-2.1708	-1.9875	-1.9396	-2.3792	-1.8042	-2.0208	-2.1437	-1.8813	-2.2375	-1.9917	-1.9229	-2.2208	255.669	467.627	150.515	505.248	308.472	222.753	253.048	484.948	402.361	186.342	305.373	367.346	492.133	160.734	244.635	179.407	0.00029188	0.00018114	6.4434e-05	359.78	2.1221e-06	9.3873e-07	311.52	140.66	2.8253e-06	2.3708e-06	136.75	53.656	57.191	20.642	1.9389e-06	20.095	0.00057589	5.1095e-05	1.3488e-05	379.42	6.619e-07	3.565e-06	328.27	148.08	8.4736e-07	4.9586e-07	144.81	56.888	60.51	22.059	8.7768e-07	21.446	153.320	240.751	240.187	162.062	265.740	203.489	160.424	166.066	273.189	295.293	164.274	167.190	169.183	173.678	270.572	170.788	-8191	255	
28215.855	1	1	0	0	0.22618	0.09699	0.14945	0.018714	0.33985	0.1665	0.21515	0.16553	0.15614	0.34856	0.17389	0.13952	0.12123	0.12837	0.081703	0.12449	-1.5438	-2.0542	-2.2292	-1.8792	-2.1688	-2.1833	-1.8917	-2.3833	-1.9667	-2.0687	-2.1917	-1.9042	-2.1771	-2.1458	-1.9021	-2.2792	476.667	414.700	441.408	436.330	163.194	469.679	425.751	401.298	494.070	384.295	505.872	371.570	226.517	149.467	326.774	163.847	0.00031959	0.00023757	6.9809e-05	360.69	2.0027e-06	7.6821e-07	309.78	139.7	2.8101e-06	2.5823e-06	137.04	53.386	56.848	20.593	1.7663e-06	19.98	0.00032418	5.6169e-05	1.3047e-05	378.7	7.2882e-07	5.2699e-06	327.79	147.28	7.9762e-07	5.6745e-07	144.4	56.508	60.258	22.036	8.6381e-07	21.378	508.009	236.072	225.342	162.059	251.393	309.717	160.475	166.220	276.507	291.102	163.972	167.445	169.547	173.613	285.594	170.752	-8191	255	
28215.926	1	1	0	0	0.19138	0.13466	0.07709	0.13455	0.20895	0.33385	0.32514	0.31911	0.25356	0.17811	0.15707	0.20744	0.18499	0.3384	0.1484	0.14186	-1.6667	-1.8854	-2.2625	-1.9375	-2.1375	-2.2313	-1.875	-2.275	-1.9438	-2.0333	-2.2354	-1.7771	-2.1625	-2.1792	-1.8146	-2.1146	336.129	150.528	194.886	174.280	324.187	279.133	407.355	495.153	406.512	205.079	288.791	473.460	507.692	504.103	368.368	176.231	0.00031854	0.00016096	5.7448e-05	357.59	1.8566e-06	1.9607e-06	311.41	139.05	1.9713e-06	1.9205e-06	136.63	53.701	57.274	20.621	2.5994e-06	20.132	0.00057708	5.3428e-05	1.3374e-05	377.33	6.2956e-07	4.6305e-07	328.15	147.19	8.2076e-07	5.6548e-07	144.49	56.805	60.449	22.067	9.0241e-07	21.484	507.549	237.572	248.738	161.705	272.884	284.968	160.613	166.220	279.212	288.806	164.009	167.393	169.361	173.440	277.145	170.643	-8191	255	
28216.047	1	1	0	0	0.21151	0.13892	0.22292	0.2206	0.21527	0.21009	0.30142	0.19082	0.21028	0.23915	0.089577	0.11126	0.018989	0.15487	0.31627	0.18049	-1.475	-1.825	-2.3167	-1.9542	-2.2062	-2.2562	-1.6521	-2.2271	-2.1208	-2.0083	-2.3563	-2.125	-2.1063	-2.2375	-1.9167	-2.4146	180.665	220.296	215.309	436.939	208.073	203.634	459.882	449.095	395.367	204.396	413.283	450.024	409.344	196.365	278.033	407.466	0.00033269	0.00022466	5.118e-05	359.24	2.1075e-06	1.8871e-06	312.07	140.27	3.0204e-06	2.1647e-06	137.04	53.729	57.356	20.754	2.2308e-06	20.125	0.00032465	6.2177e-05	1.0807e-05	378.7	7.4554e-07	4.9872e-07	330.37	147.96	8.4505e-07	6.3312e-07	144.69	56.782	60.711	22.175	9.0905e-07	21.564	504.478	242.002	244.935	161.793	254.736	307.576	160.866	166.069	271.759	293.920	164.058	167.184	169.384	173.626	288.003	170.429	-8191	255	
28216.143	1	1	0	0	0.12142	0.06689	0.11677	0.26726	0.23076	0.16275	0.078773	0.1884	0.11513	0.12704	0.14727	0.2154	0.26101	0.018388	0.14539	0.083776	-1.6646	-1.8708	-2.2479	-2.1083	-1.9583	-2.4604	-1.7313	-2.1271	-2.0104	-1.8521	-2.2625	-1.8979	-1.9854	-2.4708	-2.1292	-2.2583	324.751	506.701	232.246	289.605	241.049	497.959	252.614	167.474	155.243	503.620	194.245	192.337	189.674	423.988	463.772	428.829	0.00028123	9.0122e-05	5.0416e-05	360.72	2.2241e-06	1.8846e-06	313.51	140.77	2.6149e-06	2.0032e-06	137.64	53.544	57.414	20.745	2.3536e-06	20.019	0.00038469	0.00026667	1.1363e-05	380.63	7.2491e-07	4.5314e-07	330.93	148.38	6.9351e-07	6.4232e-07	145.36	57.045	60.704	22.175	8.7889e-07	21.497	152.733	170.941	235.436	162.219	264.919	291.025	160.611	166.327	259.522	297.265	164.218	167.127	169.621	173.553	290.714	170.484	-8191	255	
28216.238	1	1	0	0	0.26578	0.23135	0.17568	0.2064	0.24257	0.023577	0.2869	0.33631	0.25949	0.26419	0.13976	0.019516	0.17938	0.21232	0.31225	0.44644	-1.7583	-1.9583	-2.0875	-2.0396	-2.0604	-2.2667	-2.0875	-2.1104	-2.2562	-1.7958	-2.3604	-1.925	-1.9792	-2.2479	-1.8625	-2.0896	338.206	185.222	377.231	463.871	354.259	482.040	225.940	439.686	193.273	475.258	505.568	349.874	164.431	333.055	334.412	422.289	0.00034564	0.00018671	6.6284e-05	361.84	1.3117e-06	2.3441e-06	312.29	139.89	2.6187e-06	1.9865e-06	136.58	53.436	56.962	20.7	2.2236e-06	19.997	0.000163	0.00029904	1.2426e-05	380.26	7.6227e-07	4.5512e-07	330.46	147.75	6.9293e-07	5.9372e-07	144.77	56.525	60.552	22.07	9.5127e-07	21.36	503.908	221.038	237.704	161.866	265.446	307.596	160.476	166.244	274.977	284.375	163.840	167.216	169.180	173.323	286.549	170.576	-8191	255	
28216.359	1	1	0	0	0.47473	0.15361	0.13089	0.038689	0.056348	0.11914	0.24905	0.041664	0.073641	0.0021392	0.13198	0.10106	0.21705	0.21834	0.20167	0.28442	-1.6583	-1.8375	-2.2021	-2.1083	-1.7896	-2.2792	-1.9062	-1.8792	-2.1562	-2.0292	-2.1125	-2.0083	-1.9229	-2.2771	-1.9792	-1.9792	424.366	186.316	450.542	477.009	164.638	272.259	428.523	467.454	495.129	180.000	202.061	408.792	245.746	243.025	334.449	177.047	0.00035193	0.00029799	5.7551e-05	360.28	1.352e-06	1.6406e-06	311.13	140.53	2.6091e-06	2.8203e-06	136.84	53.236	57.46	20.691	2.2006e-06	20.004	0.00016233	0.00073376	1.411e-05	378.82	7.9406e-07	3.9237e-07	327.99	147.87	7.606e-07	6.6268e-07	144.78	56.756	60.943	22.101	8.3244e-07	21.388	505.059	378.092	229.750	161.964	270.786	275.090	160.608	166.356	267.360	297.451	163.689	167.021	169.109	173.636	277.511	170.341	-8191	255	
28216.453	1	1	0	0	0.27799	0.22309	0.25699	0.057462	0.094956	0.21805	0.1748	0.25536	0.10313	0.18186	0.22155	0.15548	0.1272	0.046216	0.28329	0.058785	-1.9708	-1.8917	-2.0917	-2.1562	-1.9479	-2.3083	-1.9667	-2.0708	-2.2833	-1.9917	-2.0958	-2.2062	-1.8438	-2.275	-2.0042	-1.9646	455.236	237.575	267.342	417.734	248.377	462.094	389.167	493.776	163.000	360.346	450.987	467.744	470.511	349.657	399.548	162.672	0.00037458	0.00018972	7.4923e-05	357.51	2.111e-06	1.7536e-06	309.42	140.97	3.023e-06	2.1471e-06	137.9	53.732	57.551	20.674	2.3708e-06	19.97	0.0001741	0.00031397	1.3897e-05	377.16	8.5317e-07	3.9633e-07	327.3	148.7	7.7333e-07	7.2047e-07	145.26	56.704	61.022	22.129	9.0241e-07	21.435	506.540	297.427	226.680	162.237	263.630	292.061	160.329	166.446	270.659	295.613	163.691	167.120	169.343	173.545	281.539	170.528	-8191	255	
28216.527	1	1	0	0	0.14709	0.099887	0.17244	0.012475	0.26352	0.25546	0.083599	0.18188	0.2709	0.2999	0.1309	0.21152	0.40982	0.20431	0.17117	0.26227	-1.9958	-1.9292	-2.1021	-2.4208	-1.8125	-2.2229	-2.1375	-2.1208	-2.4292	-1.9271	-2.0062	-2.3542	-1.9229	-2.3083	-2.3646	-2.0229	156.858	443.078	415.237	390.375	343.702	411.806	471.578	175.731	277.876	209.662	380.110	435.524	168.266	503.913	354.275	151.021	0.00035049	0.0001442	5.0031e-05	359.13	2.1667e-06	1.9786e-06	309.04	141.61	2.9954e-06	2.6362e-06	138.05	53.863	57.525	20.745	2.1723e-06	19.956	0.00016646	0.00069701	1.4224e-05	377.21	8.264e-07	5.6873e-07	325.82	149.51	7.4961e-07	7.185e-07	145.7	56.955	61.334	22.151	7.8599e-07	21.369	504.598	376.874	222.220	161.640	275.006	290.483	160.686	166.258	265.733	288.517	163.965	167.083	169.111	173.318	289.581	170.379	-8191	255	
28216.646	1	1	0	0	0.015145	0.14565	0.22625	0.16468	0.13092	0.10958	0.3922	0.057832	0.26116	0.13178	0.15198	0.028236	0.10093	0.062185	0.23153	0.22163	-1.7979	-1.9	-1.9708	-2.4292	-1.8521	-2.0833	-1.9583	-1.7396	-2.1979	-2.1063	-1.9583	-2.1021	-1.6542	-2.1792	-2.325	-1.7417	502.755	249.728	327.140	177.639	182.998	479.293	490.383	405.908	361.141	354.402	328.141	417.393	198.690	209.859	408.856	167.232	0.00035812	0.00011712	5.46e-05	355.85	2.6319e-06	2.2804e-06	307.97	140.6	2.8001e-06	1.7021e-06	138.09	53.193	57.525	20.593	2.3662e-06	19.73	0.00016158	0.00031322	1.3472e-05	376	9.3068e-07	4.287e-07	324.62	148.95	6.6921e-07	5.5562e-07	145.37	56.455	60.823	22.065	7.1602e-07	21.189	506.467	258.127	232.983	162.011	277.810	299.559	160.788	166.161	270.150	287.938	163.850	166.790	169.313	173.331	283.059	170.877	-8191	255	
28216.742	1	1	0	0	0.062861	0.17145	0.15813	0.18661	0.059891	0.27885	0.32881	0.22587	0.1731	0.21822	0.25579	0.2886	0.082212	0.063339	0.18153	0.060504	-1.8479	-2.0854	-1.7604	-2.1792	-1.9062	-2.1437	-2.225	-1.8937	-2.3	-2.0208	-1.9562	-2.2771	-1.9688	-2.1396	-2.1333	-1.9625	469.801	313.561	208.530	150.298	243.785	471.720	447.995	435.909	337.146	446.539	439.274	455.449	278.884	340.797	464.537	410.014	0.00035341	0.00028505	6.8675e-05	356.04	2.3401e-06	2.1993e-06	304.7	140.76	2.8516e-06	1.8653e-06	136.99	53.452	57.318	20.371	2.3121e-06	19.723	0.00016382	0.00070109	1.6856e-05	374.44	8.0577e-07	5.2712e-07	322.28	148.62	6.8483e-07	6.5414e-07	144.76	56.292	60.939	21.929	7.3411e-07	21.14	503.614	378.878	241.366	161.768	274.544	297.609	160.555	166.368	264.237	302.635	163.879	167.319	169.119	173.209	277.985	170.267	-8191	255	
28216.840	1	1	0	0	0.22295	0.068491	0.15524	0.25872	0.12357	0.068887	0.14037	0.24652	0.26292	0.25127	0.10143	0.44371	0.22692	0.22608	0.24499	0.17053	-1.7104	-2.1854	-1.8208	-2.3	-2.1458	-2.1667	-2.2708	-1.6562	-2.0083	-2.1562	-1.9646	-2.2604	-1.8687	-2.0104	-2.1833	-1.7708	468.720	479.989	250.180	436.144	350.623	386.581	390.230	423.298	229.131	176.930	417.102	191.060	189.767	156.338	487.573	172.704	0.00033092	6.0003e-05	5.2942e-05	353.66	2.102e-06	1.9565e-06	305.28	140.96	2.8317e-06	1.6559e-06	137.38	53.548	57.299	20.505	2.4083e-06	19.795	0.00016219	0.00030412	1.3488e-05	373.03	8.5038e-07	5.3108e-07	321.46	148.99	8.0745e-07	4.4989e-07	144.95	56.299	60.689	21.984	7.9504e-07	21.221	507.635	308.366	214.382	161.969	261.887	305.227	160.473	166.327	274.639	301.403	164.242	167.235	169.390	173.392	283.700	170.477	-8191	255	
28216.936	1	1	0	0	0.040423	0.20137	0.14714	0.29571	0.042082	0.074855	0.33757	0.1205	0.20433	0.1041	0.31048	0.19299	0.13695	0.028887	0.17537	0.088596	-1.8	-2.0396	-1.7687	-2.4125	-1.875	-2.0708	-2.3	-2.0667	-2.3063	-2.0104	-1.9458	-2.2958	-2.0271	-2.0875	-2.2292	-1.7812	225.653	345.108	369.510	152.118	219.398	493.920	346.134	498.025	407.292	497.290	286.175	208.183	170.705	171.516	433.165	485.778	0.00036605	0.00019838	5.5384e-05	355.04	1.9652e-06	1.7653e-06	305.81	140.48	2.5178e-06	2.3238e-06	136.67	53.297	57.258	20.619	2.2195e-06	19.769	0.00016344	0.00032622	9.262e-05	373.56	7.8514e-07	5.5883e-07	322.55	148.42	7.2185e-07	4.4726e-07	144.73	56.306	60.764	21.997	7.0275e-07	21.212	504.802	355.716	152.329	162.017	273.103	304.941	160.705	166.252	278.519	287.648	163.886	167.071	169.445	173.064	279.077	170.617	-8191	255	
28217.057	1	1	0	0	0.16995	0.070828	0.17342	0.042455	0.18823	0.22513	0.096836	0.10756	0.020715	0.044432	0.27241	0.16331	0.15714	0.11267	0.20027	0.038597	-1.7146	-2.1042	-1.7646	-2.3604	-1.9292	-1.8646	-2.3771	-1.9896	-2.1042	-2.2833	-1.7979	-2.2521	-2.1229	-1.7125	-2.1875	-1.8937	311.380	344.230	392.418	306.907	204.648	417.329	482.192	447.167	411.815	208.184	452.784	283.726	398.043	465.709	468.438	433.512	0.00034066	0.00017534	2.4466e-05	356.92	1.8583e-06	1.8799e-06	308.85	139.8	2.4926e-06	2.4342e-06	136.38	53.428	56.914	20.464	2.2293e-06	19.706	0.00016507	4.1762e-05	8.9171e-05	374.61	7.7844e-07	6.044e-07	323.38	148.69	6.9351e-07	4.072e-07	144.13	56.362	60.392	21.956	6.4544e-07	21.155	504.335	228.268	200.469	162.004	265.797	296.389	160.610	166.244	258.455	288.367	163.954	167.066	169.290	173.361	275.902	170.877	-8191	255	
28217.152	1	1	0	0	0.22587	0.097038	0.17295	0.30448	0.20023	0.31067	0.32335	0.31617	0.12508	0.38222	0.16999	0.070716	0.10622	0.25611	0.121	0.22536	-1.7708	-2.2104	-1.9979	-2.1208	-1.8875	-1.9375	-2.3688	-2.05	-2.0729	-2.3771	-1.8312	-2.1813	-2.2646	-1.8542	-2.3	-2.0417	384.359	431.813	297.693	240.820	362.932	399.120	499.825	468.795	432.704	193.099	226.198	383.953	374.475	466.436	163.574	434.566	0.00034434	0.00017813	7.0729e-05	355.42	2.0977e-06	2.178e-06	307.36	138.7	2.7813e-06	1.8752e-06	135.67	53.106	57.236	20.629	2.2248e-06	19.706	0.00016537	4.3512e-05	0.00020412	374.48	7.2547e-07	6.2356e-07	323	147.45	7.687e-07	4.5514e-07	143.65	56.007	60.389	22.038	5.9718e-07	21.092	505.656	233.666	161.711	161.918	252.519	293.543	160.636	166.095	268.981	303.004	163.822	167.362	169.486	173.659	285.009	170.887	-8191	255	
28217.223	1	1	0	0	0.12298	0.12769	0.23898	0.027784	0.23037	0.19155	0.13678	0.054841	0.19847	0.25052	0.139	0.10636	0.076283	0.014186	0.1385	0.10358	-1.4542	-2.2792	-1.9312	-2.0583	-2.2375	-1.9479	-2.2104	-2.0563	-2.1521	-2.3417	-1.9021	-2.125	-2.2917	-1.7875	-2.2521	-2.1021	260.991	220.979	156.112	179.318	253.946	217.246	374.233	465.076	354.880	215.646	305.651	380.581	333.238	216.751	345.214	466.839	0.000339	0.00022858	2.97e-05	353.85	2.119e-06	2.6204e-06	306.71	139.82	2.779e-06	2.2032e-06	136.05	53.104	57.324	20.538	2.1449e-06	19.879	0.00016811	4.1412e-05	8.3841e-05	374.5	6.0837e-07	6.2686e-07	323.36	147.97	7.82e-07	4.2953e-07	143.61	56.07	60.52	22.027	6.6716e-07	21.206	507.620	237.559	170.921	162.106	268.972	285.449	160.544	165.767	272.147	296.517	163.889	166.818	169.244	173.480	262.133	170.801	-8191	255	
28217.320	1	1	0	0	0.19927	0.187	0.15017	0.070286	0.10595	0.032325	0.22441	0.17187	0.098546	0.21419	0.12934	0.025494	0.23258	0.083786	0.098077	0.11749	-1.3687	-2.1333	-1.9208	-2.0438	-2.1042	-1.775	-2.0917	-2.0042	-1.9292	-2.2646	-1.9667	-1.9458	-2.1771	-1.8479	-2.2708	-2.0917	148.949	376.952	329.043	249.586	338.232	420.256	346.639	482.088	439.771	364.614	450.207	236.337	310.431	431.500	487.401	235.818	0.00035983	0.00022467	6.445e-05	356.91	1.9561e-06	1.74e-06	308.77	139.74	2.9415e-06	2.8941e-06	136.22	53.82	57.288	20.575	2.2808e-06	19.746	0.00017874	4.8003e-05	0.00019356	375.76	6.7305e-07	5.8657e-07	325.39	147.93	8.7223e-07	3.9537e-07	144.38	56.406	60.462	22.17	6.6957e-07	21.243	505.414	244.989	150.048	161.943	277.160	315.774	160.509	166.364	270.037	296.152	163.898	167.082	169.353	173.637	284.014	170.727	-8191	255	
28217.438	1	1	0	0	0.22806	0.11692	0.22196	0.20925	0.055299	0.18517	0.12802	0.1645	0.027269	0.12191	0.31829	0.17464	0.088077	0.25501	0.22607	0.23982	-1.3333	-2.1521	-1.9708	-1.975	-2.1729	-1.9833	-2.2271	-2.2396	-1.7687	-2.2208	-1.9146	-1.9708	-2.2625	-1.9375	-2.1271	-2.125	505.217	468.205	229.084	364.721	180.168	246.392	454.473	450.206	261.421	443.060	289.295	499.216	236.741	174.434	218.072	166.367	0.00035931	0.0002073	4.9307e-05	358.48	2.0803e-06	2.244e-06	309.22	139.73	5.3232e-06	2.1717e-06	136.61	53.383	57.146	20.663	2.4867e-06	19.922	0.0001718	5.0395e-05	8.6784e-05	376.82	6.4406e-07	7.2661e-07	325.81	148.17	4.1645e-06	4.4463e-07	144.68	56.46	60.43	22.131	7.4196e-07	21.31	505.386	231.029	187.925	162.090	258.916	304.326	160.559	166.619	247.196	296.855	163.705	167.310	169.369	173.385	292.278	170.568	-8191	255	
28217.535	1	1	0	0	0.26185	0.20804	0.077274	0.057218	0.20071	0.19304	0.36848	0.10767	0.17284	0.29387	0.065825	0.10216	0.13015	0.053775	0.23487	0.37959	-1.2625	-2.1	-1.9021	-1.8979	-2.3458	-2.025	-2.275	-2.1458	-2.0104	-2.2979	-1.9333	-1.8417	-2.3292	-2.0062	-2.0042	-2.3	312.664	153.792	454.288	463.780	394.149	507.139	490.939	449.129	308.020	364.667	463.339	339.093	271.937	394.887	367.908	478.545	0.00036544	0.00019241	7.9818e-05	357.29	2.2613e-06	2.096e-06	309.51	139.57	3.9748e-06	1.9934e-06	135.88	53.29	57.162	20.608	2.6963e-06	19.981	0.00018382	5.1794e-05	0.00019539	376.81	6.764e-07	6.0639e-07	325.17	147.48	3.3663e-06	4.6433e-07	144.05	56.324	60.355	22.185	8.4149e-07	21.272	507.007	234.899	493.889	161.943	260.418	296.059	160.693	166.240	278.575	302.711	164.284	167.234	169.439	173.580	280.758	170.384	-8191	255	
28217.631	1	1	0	0	0.18691	0.32599	0.34224	0.11774	0.24169	0.32761	0.018569	0.088244	0.23061	0.09688	0.17682	0.2463	0.14202	0.1229	0.050156	0.028251	-1.3417	-2.2083	-2.0771	-2.1729	-2.4688	-2.0646	-2.0687	-2.1917	-1.8354	-2.3167	-2	-1.9521	-2.2521	-1.9729	-2.0042	-2.1896	299.324	232.019	265.386	184.822	242.764	156.920	193.267	467.082	372.901	243.733	458.122	507.812	174.779	489.228	340.563	253.616	0.00037714	0.00023666	4.7951e-05	358.97	1.8895e-06	2.2565e-06	309.14	140.07	6.2129e-06	3.0126e-06	136.73	53.259	57.259	20.642	2.4312e-06	19.916	0.00018098	5.1036e-05	7.7889e-05	377.42	6.7696e-07	5.7468e-07	325.53	147.35	7.1826e-06	5.4643e-07	144.2	56.25	60.45	22.136	8.6501e-07	21.297	505.191	236.491	271.887	161.950	277.219	296.400	160.603	166.247	283.378	291.922	164.046	167.335	169.354	173.379	284.566	170.309	-8191	255	
28217.729	1	1	0	0	0.14499	0.18605	0.22413	0.12348	0.16145	0.17986	0.20472	0.27081	0.091968	0.11345	0.045754	0.051818	0.066394	0.17242	0.17317	0.17585	-1.3958	-2.2896	-2.0938	-1.9083	-2.3896	-2.1667	-2.0896	-2.4083	-2.0125	-2.0479	-2.1708	-1.8458	-2.5021	-1.8458	-2.0104	-2.275	506.720	388.623	159.180	351.777	242.778	408.070	487.529	397.950	175.230	391.553	288.174	321.485	470.060	488.912	373.434	257.410	0.0003512	0.00019424	5.2295e-05	359.57	2.1938e-06	1.5986e-06	311	140.07	3.1441e-06	2.0188e-06	137.14	53.633	57.383	20.631	2.2989e-06	20.004	0.00017495	5.5586e-05	6.9388e-05	378.9	7.2603e-07	5.1523e-07	327.72	147.92	3.4323e-06	4.7024e-07	144.59	56.484	60.71	22.242	7.6247e-07	21.429	504.580	256.285	214.330	161.946	262.889	291.092	160.604	166.336	269.665	287.081	163.833	167.208	169.313	173.313	301.289	170.819	-8191	255	
28217.822	1	1	0	0	0.012479	0.1987	0.27916	0.28885	0.18961	0.10775	0.10192	0.10193	0.097993	0.13287	0.37426	0.072135	0.16701	0.24902	0.24306	0.38098	-1.6	-2.1937	-2.0958	-1.7771	-2.2354	-2.0896	-1.8646	-2.4917	-1.9396	-2.1562	-2.1646	-1.9917	-2.1625	-2.1604	-1.7125	-2.2208	295.218	444.708	435.719	415.024	349.603	416.395	344.794	159.447	460.931	492.214	374.281	187.229	493.189	402.525	218.331	275.937	0.00037892	0.00022166	7.5189e-05	358.39	2.0528e-06	2.3313e-06	311.14	140.24	6.6701e-06	2.242e-06	138.05	53.555	57.16	20.688	2.6682e-06	20.034	0.00017698	5.1095e-05	1.2867e-05	379.7	6.6748e-07	6.6253e-07	328.42	147.96	7.4603e-06	5.6548e-07	145.33	56.731	60.662	22.25	8.9457e-07	21.409	507.589	244.931	227.148	161.834	262.436	290.508	160.763	166.407	285.855	290.643	163.842	167.228	169.504	173.353	280.781	170.855	-8191	255	
28217.920	1	1	0	0	0.13071	0.069647	0.21718	0.15134	0.19038	0.067226	0.21133	0.2044	0.0814	0.038335	0.18501	0.088337	0.079046	0.22368	0.23521	0.1796	-1.6271	-1.9396	-2.1729	-2.0354	-2.2771	-2.0104	-1.7729	-2.4208	-1.9688	-2.0104	-2.4229	-1.9083	-2.1312	-2.1354	-1.7771	-2.1813	507.139	470.290	195.720	416.954	252.563	196.429	494.108	291.918	404.819	254.205	278.219	281.245	411.842	454.613	352.481	435.901	0.00036157	0.00024299	6.9688e-05	360.79	1.8897e-06	2.1859e-06	312.04	140.42	3.7728e-06	2.8533e-06	136.83	53.359	57.371	20.681	1.7682e-06	19.935	0.00017174	5.8152e-05	1.4388e-05	382.12	7.2212e-07	5.2844e-07	329.09	147.98	3.3038e-06	5.9043e-07	144.61	56.54	60.572	22.151	4.8456e-06	21.258	504.898	239.428	241.555	161.908	278.883	303.608	160.520	166.219	274.403	292.316	164.205	166.860	169.488	173.634	271.752	170.481	-8191	255	
28218.039	1	1	0	0	0.069278	0.06949	0.1582	0.129	0.15827	0.30754	0.07019	0.23322	0.16204	0.1137	0.074345	0.099115	0.13311	0.082702	0.12845	0.16787	-1.5417	-2.0083	-2.3479	-1.8479	-2.3417	-2.25	-1.9354	-2.1833	-1.8937	-1.8979	-2.2854	-1.775	-2.2167	-2.3292	-1.9688	-2.1458	439.278	419.063	401.983	434.153	320.673	267.227	352.166	166.253	295.307	361.234	341.460	487.078	466.026	168.341	331.633	428.452	0.0003444	0.00027031	6.4417e-05	358.78	1.8951e-06	2.3988e-06	312.87	140.09	5.7562e-06	2.4226e-06	136.17	53.411	57.277	20.593	1.1363e-06	19.883	0.00016358	5.4069e-05	1.4273e-05	380.1	7.3383e-07	4.7758e-07	328.42	147.27	7.4088e-06	5.7533e-07	143.76	56.318	60.464	22.056	3.5312e-06	21.212	505.036	223.639	218.653	162.228	273.952	288.266	160.626	165.996	307.207	286.479	163.558	167.288	169.388	173.261	309.234	170.301	-8191	255	
28218.137	1	1	0	0	0.23206	0.23517	0.26653	0.36009	0.20256	0.042595	0.13616	0.1548	0.066001	0.23193	0.23374	0.081295	0.187	0.14222	0.23213	0.1265	-1.6646	-2.0375	-2.1333	-1.9146	-1.9937	-2.2479	-1.9542	-2.1146	-1.9813	-2.0062	-2.4938	-1.8854	-1.925	-2.2	-1.9833	-2.15	398.218	474.248	393.935	369.821	450.378	361.001	271.100	207.641	379.768	375.773	357.829	477.543	223.980	160.897	284.780	396.325	0.00036092	0.00019083	4.9442e-05	358.99	2.3051e-06	1.3421e-06	312.06	139.67	3.5262e-06	3.7364e-06	136.54	53.512	57.405	20.765	1.8007e-06	20.06	0.00017627	6.4801e-05	1.0971e-05	381.49	7.2547e-07	4.2672e-07	328.68	147.54	2.8961e-06	6.5414e-07	144.69	56.516	60.72	22.14	7.6608e-06	21.37	505.700	243.245	222.961	161.929	279.693	305.786	160.416	166.390	293.916	300.494	163.823	167.021	169.285	173.426	404.826	170.621	-8191	255	
28218.232	1	1	0	0	0.07158	0.099262	0.15946	0.16625	0.082	0.15363	0.063675	0.16683	0.11658	0.1217	0.1785	0.099425	0.09487	0.13924	0.1645	0.23231	-1.7104	-1.8937	-2.2313	-1.8229	-2.0792	-2.3979	-2.0896	-2.1708	-2.2979	-1.8792	-2.3625	-1.9458	-2.0479	-2.3708	-2.1354	-2.2125	284.800	421.197	313.137	251.510	260.813	266.473	177.524	448.987	216.511	285.023	501.726	237.723	203.465	357.066	346.258	433.198	0.00034935	0.00026671	6.3922e-05	362.1	2.1417e-06	2.3355e-06	313.24	140.21	3.9954e-06	3.8761e-06	137.47	53.632	57.456	20.689	6.3253e-07	20.043	0.00016442	6.066e-05	1.1445e-05	381.29	7.6785e-07	4.7163e-07	329.76	147.91	2.1638e-06	5.1865e-06	144.78	56.794	60.757	22.183	3.4027e-06	21.426	504.351	240.677	220.975	161.840	269.399	290.804	160.532	166.430	319.552	289.333	163.955	167.140	169.423	173.570	319.890	170.357	-8191	255	
28218.328	1	1	0	0	0.29953	0.14771	0.13952	0.20813	0.27727	0.047657	0.076275	0.17264	0.028698	0.059636	0.16059	0.10792	0.31182	0.18697	0.27325	0.28517	-1.6583	-1.9813	-2.2833	-1.875	-1.7583	-2.2625	-1.9438	-1.9646	-2.2188	-1.7792	-2.1937	-2.0333	-2.0292	-2.3042	-1.9604	-2.0938	375.908	275.357	394.099	448.907	214.171	384.848	498.431	335.283	187.444	364.043	399.175	186.233	409.108	483.266	182.635	259.346	0.00036524	0.00021597	5.2245e-05	361.21	1.4176e-06	1.4177e-06	314.45	139.7	2.6641e-06	3.4014e-06	136.39	53.606	57.221	20.726	1.857e-06	19.849	0.00016825	7.9267e-05	1.1494e-05	382.36	7.6116e-07	4.0756e-07	330.68	147.65	7.4267e-07	3.5971e-06	144.71	56.602	60.593	22.121	7.5179e-06	21.3	506.594	233.658	216.511	162.042	270.619	293.636	160.367	166.395	269.251	308.156	163.983	167.106	169.341	173.543	159.291	170.923	-8191	255	
28218.424	1	1	0	0	0.048312	0.16147	0.23801	0.10598	0.19094	0.2111	0.14361	0.083643	0.11999	0.13379	0.075054	0.16128	0.19321	0.22688	0.19358	0.14338	-1.6437	-1.9521	-2.2271	-2.3229	-1.975	-2.2562	-2.1792	-1.9396	-2.0875	-1.9792	-2.225	-2.1979	-1.8792	-2.4333	-1.9542	-2.0604	199.201	487.485	381.559	174.130	378.100	373.472	314.717	495.238	310.337	324.639	450.590	433.775	160.741	154.882	330.625	464.368	0.0003519	0.00018548	6.8714e-05	360.86	3.298e-06	2.4247e-06	313.99	139.87	2.6423e-06	6.2244e-06	136.91	53.114	56.847	20.614	1.1699e-06	19.725	0.00016436	6.4626e-05	1.2426e-05	380.44	8.922e-07	4.5182e-07	329.47	147.48	7.901e-07	7.9548e-06	144.3	56.318	60.401	22.026	3.4504e-06	21.216	506.286	232.666	250.090	161.795	249.179	293.308	160.856	166.473	275.454	340.191	163.978	167.145	169.487	173.657	253.350	170.566	-8191	255	
28218.521	1	1	0	0	0.2511	0.3154	0.16187	0.15335	0.17274	0.18991	0.097559	0.18486	0.25475	0.076676	0.07762	0.059409	0.23514	0.050338	0.12815	0.1692	-1.7958	-1.8479	-2.2438	-2.2083	-1.6917	-2.2854	-2.1083	-1.9521	-2.3312	-1.8979	-2.1271	-2.3438	-1.6854	-2.2833	-2.15	-1.9375	210.722	443.620	398.448	485.813	212.695	484.476	471.826	330.580	454.835	492.539	290.691	192.204	203.954	324.444	159.587	203.603	0.00036945	0.00016353	5.2974e-05	360.97	5.5608e-06	2.6314e-06	311.5	139.88	2.9938e-06	3.5852e-06	136.32	53.636	56.876	20.532	1.0763e-06	19.966	0.0001649	7.1742e-05	1.4567e-05	380.46	5.1274e-06	5.5156e-07	328.54	147.24	7.4094e-07	3.5104e-06	144.22	56.504	60.444	22.056	7.723e-06	21.293	505.589	229.761	235.674	161.951	246.107	293.752	160.517	166.140	280.990	319.829	164.024	167.078	169.498	173.706	181.469	170.952	-8191	255	
28218.617	1	1	0	0	0.19031	0.12808	0.2143	0.28744	0.080505	0.056947	0.091641	0.13896	0.041058	0.34244	0.40531	0.030371	0.12119	0.19503	0.30456	0.10522	-1.9458	-1.9896	-2.125	-2.3833	-1.8125	-2.3438	-2.0917	-1.9854	-2.15	-2.0771	-2.2833	-2.4042	-2.1042	-2.1417	-2.1458	-1.7292	356.618	449.054	232.575	428.133	505.431	311.856	385.684	483.606	438.852	239.345	174.245	373.224	417.776	358.766	452.471	210.547	0.00036331	0.00023539	5.2837e-05	361.89	3.5953e-06	1.9744e-06	314.65	140.01	2.9919e-06	4.481e-06	136.99	53.536	57.537	20.569	1.0212e-06	19.837	0.00016226	6.9293e-05	1.3521e-05	381.2	3.2381e-06	3.6859e-07	330.61	147.47	6.964e-07	8.0809e-06	144.5	56.505	60.641	22.068	2.6481e-06	21.288	503.023	255.409	232.851	162.169	251.379	307.424	160.666	166.206	263.886	355.781	163.735	166.929	169.354	173.705	308.402	170.479	-8191	255	
28218.736	1	1	0	0	0.10352	0.19893	0.073384	0.34312	0.11574	0.097499	0.20037	0.31129	0.18993	0.035524	0.29875	0.31563	0.11925	0.12723	0.17718	0.44281	-1.9042	-1.9354	-1.9875	-2.1854	-1.8896	-2.1688	-2.3354	-1.8771	-2.2896	-2.1896	-2.025	-2.2646	-1.9	-2.2542	-2.2562	-1.8896	410.616	220.507	378.583	415.719	394.408	468.738	352.811	419.647	404.041	502.496	475.504	295.237	218.095	322.800	473.562	500.960	0.0003673	0.00016156	6.1254e-05	360.76	3.4788e-06	1.9899e-06	315.33	139.78	2.1663e-06	3.3275e-06	136.79	53.231	57.067	20.602	7.4185e-07	19.947	0.00016507	6.066e-05	1.5156e-05	380.58	7.0963e-06	4.2738e-07	330.88	147.43	6.536e-07	3.5393e-06	144.37	56.457	60.603	22.053	1.5273e-06	21.385	507.260	238.801	232.865	161.951	245.886	303.497	160.476	166.363	266.355	324.609	164.066	167.089	169.593	173.679	361.701	170.823	-8191	255	
28218.832	1	1	0	0	0.33678	0.18804	0.32488	0.16135	0.13963	0.20116	0.23057	0.12756	0.077708	0.1574	0.11428	0.24838	0.050881	0.20771	0.41763	0.06777	-1.7646	-1.875	-1.9604	-2.3	-1.85	-2.2458	-2.2313	-1.8271	-2.0917	-2.1354	-1.8521	-2.3354	-1.9438	-2.2208	-2.25	-1.8771	323.383	192.344	185.676	437.780	253.498	233.800	496.567	507.258	482.533	151.482	211.695	475.247	178.990	424.914	385.101	347.034	0.00034243	0.00019802	5.3869e-05	360.86	3.092e-06	2.097e-06	311.78	139.31	2.2569e-06	4.1879e-06	136.2	53.52	56.882	20.551	2.383e-06	19.748	0.00015803	5.7627e-05	1.4535e-05	380.5	3.2203e-06	5.2514e-07	329.05	147.11	6.5418e-07	7.8582e-06	143.71	56.335	60.295	22.01	6.6112e-07	21.162	505.844	240.851	234.636	162.131	275.467	299.072	160.716	165.996	260.697	355.236	163.755	167.061	169.574	173.419	273.111	170.655	-8191	255	
28218.928	1	1	0	0	0.053134	0.29771	0.17393	0.23133	0.20678	0.18411	0.094667	0.082616	0.2851	0.1398	0.11756	0.22241	0.32068	0.10819	0.044213	0.14058	-1.7167	-2.0583	-1.8896	-2.3542	-1.8625	-1.9646	-2.5146	-2.0521	-2.3125	-2.2875	-1.975	-2.3521	-2.1188	-2.1146	-2.2292	-1.8167	449.767	397.845	442.359	390.696	390.187	188.373	159.194	318.111	252.939	180.092	372.094	325.538	476.538	151.174	490.650	477.194	0.00036217	0.00019549	5.7965e-05	360.57	5.6708e-06	2.2794e-06	312.22	139.28	2.4211e-06	2.7205e-06	136.08	53.293	56.98	20.562	2.6736e-06	19.835	0.0001627	5.2553e-05	1.9325e-05	379.79	7.1398e-06	6.0242e-07	328.95	146.86	7.8605e-07	2.5489e-06	143.6	56.233	60.368	22	6.7922e-07	21.356	504.828	249.044	234.900	162.101	255.172	293.951	160.769	166.344	265.622	323.103	163.860	167.271	169.066	173.381	292.330	170.745	-8191	255	
28219.023	1	1	0	0	0.10959	0.25806	0.2979	0.16464	0.16211	0.11473	0.29299	0.14187	0.20897	0.057722	0.082604	0.15069	0.33562	0.19655	0.093612	0.34145	-1.8083	-2.0333	-1.8458	-2.1063	-2.0167	-2.0312	-2.3271	-1.8292	-2.075	-2.3396	-1.7604	-2.1708	-2.075	-1.9375	-2.2771	-1.9333	245.861	405.076	167.542	456.005	323.281	326.177	416.257	237.248	487.428	210.957	330.695	148.801	495.508	154.414	154.572	350.688	0.00034597	0.00021005	6.0541e-05	360.92	3.0546e-06	2.1988e-06	312.83	139.5	2.482e-06	4.1158e-06	136.32	53.555	57.413	20.597	2.5711e-06	19.95	0.000165	4.4037e-05	1.7919e-05	379.62	3.2119e-06	5.1589e-07	329.97	147.16	7.8836e-07	9.95e-07	144.93	56.384	60.604	22.091	7.0094e-07	21.372	507.236	232.296	236.407	161.970	266.163	296.017	160.204	166.273	264.651	366.764	164.011	167.247	169.517	173.437	292.067	170.588	-8191	255	
28219.119	1	1	0	0	0.22209	0.24503	0.084679	0.22283	0.065083	0.22804	0.2735	0.25588	0.14237	0.18459	0.17978	0.16389	0.15396	0.28079	0.22603	0.035687	-1.7083	-2.1771	-1.8167	-2.2792	-2.0312	-2.0979	-2.3708	-1.9	-2.0125	-2.2875	-1.9229	-2.1312	-2.1146	-1.8229	-2.3667	-2.0333	187.950	174.159	315.039	390.579	358.151	394.399	494.922	442.273	171.736	190.361	158.354	481.414	434.160	450.493	392.720	182.452	0.00036769	0.00024356	5.9546e-05	361.42	4.43e-06	1.5712e-06	313.39	139.21	2.9565e-06	2.2222e-06	136.7	53.58	57.38	20.615	1.9241e-06	19.875	0.00016754	4.5962e-05	1.9472e-05	381.3	7.1761e-06	5.9582e-07	330.29	147.33	8.3059e-07	4.8141e-07	145	56.576	60.62	22.057	7.4135e-07	21.443	504.901	243.515	253.468	161.926	260.344	273.785	160.383	166.252	267.524	298.406	163.973	166.872	169.192	173.527	283.802	170.319	-8191	255	
28219.217	1	1	0	0	0.11342	0.18521	0.29319	0.2467	0.13257	0.089974	0.31243	0.13076	0.18366	0.22993	0.10784	0.1168	0.16283	0.18253	0.086888	0.27228	-1.6396	-2.2208	-1.8896	-2.3125	-2.1729	-2.0792	-2.3542	-1.9125	-2.0396	-2.3312	-1.8333	-2.0083	-2.1854	-1.8729	-2.2271	-2.0896	459.245	174.795	149.992	446.874	174.186	322.484	201.549	496.397	338.835	221.561	236.450	276.502	458.058	485.257	319.700	403.736	0.00035018	0.00022231	5.4572e-05	362.2	2.6459e-06	3.0079e-06	312.49	139.46	3.1e-06	2.7597e-06	136.05	53.429	56.937	20.509	1.9974e-06	19.801	0.00016622	5.127e-05	1.5957e-05	380.6	2.2863e-06	1.2498e-06	329.22	147.09	8.3232e-07	4.2624e-07	145.15	56.364	60.398	22.019	7.0094e-07	21.183	506.859	234.004	246.408	162.030	287.309	291.065	160.787	166.100	268.734	287.240	163.716	167.133	169.536	173.697	288.825	170.574	-8191	255	
28219.312	1	1	0	0	0.2119	0.1794	0.047131	0.26588	0.10935	0.19968	0.24488	0.2188	0.068341	0.10812	0.041195	0.19976	0.13216	0.13743	0.03062	0.28202	-1.6271	-2.2438	-1.8917	-2.1458	-2.1208	-1.5792	-2.1479	-2.1042	-1.925	-2.4667	-2.0646	-1.9979	-2.2604	-1.7021	-2.1125	-1.9708	267.000	291.657	392.550	416.503	357.462	271.637	386.199	198.313	242.324	494.507	451.004	377.728	337.016	459.812	484.762	453.022	0.00036584	0.00017559	6.5695e-05	362.27	3.9603e-06	5.5563e-06	314.8	138.89	2.6066e-06	2.3487e-06	136.19	53.339	57.394	20.472	2.4416e-06	19.546	0.00017322	5.092e-05	2.0224e-05	380.53	8.8272e-07	6.8162e-06	329.87	146.89	8.6067e-07	4.269e-07	144.06	56.327	60.428	21.948	7.872e-07	21.22	506.409	229.120	229.682	161.881	294.641	269.670	160.390	166.234	281.613	307.728	164.051	167.404	169.338	173.601	277.310	170.506	-8191	255	
28219.408	1	1	0	0	0.1195	0.16577	0.28452	0.23704	0.25377	0.10464	0.20005	0.33497	0.108	0.15234	0.17305	0.22113	0.20907	0.29476	0.27605	0.30299	-1.3896	-2.1021	-1.8271	-2.1292	-2.1354	-1.8604	-2.2042	-2.2062	-1.9021	-2.4417	-1.9854	-2.0792	-2.3104	-1.7125	-2.2917	-2.0625	339.341	260.884	458.606	460.671	411.848	159.247	360.888	365.872	359.922	358.329	156.796	449.775	466.946	471.264	262.686	153.345	0.00035278	0.00023742	6.6987e-05	361.39	2.2639e-06	2.8241e-06	312.8	138.13	2.416e-06	2.2256e-06	135.88	53.306	56.998	20.61	1.9325e-06	19.786	0.00017383	5.1095e-05	1.6807e-05	380.14	7.1543e-07	3.5491e-06	329.92	146.77	9e-07	4.6368e-07	145.31	56.458	60.477	22.051	7.1059e-07	21.214	506.241	238.782	220.037	162.131	282.614	306.733	160.728	166.021	263.688	287.291	164.050	167.040	169.173	173.413	278.488	170.595	-8191	255	
28219.529	1	1	0	0	0.21943	0.14225	0.14175	0.26768	0.26082	0.12675	0.13649	0.22776	0.14647	0.021176	0.39852	0.014029	0.090755	0.095389	0.072269	0.1402	-1.4229	-2.2646	-1.8417	-1.9792	-2.15	-1.9792	-2.3458	-2.1042	-1.8354	-2.1875	-2.0229	-2.0333	-2.4104	-1.8625	-2.1167	-2.1958	176.773	163.466	393.985	449.071	413.640	195.339	197.079	485.532	435.122	263.458	425.930	245.815	479.899	498.981	239.356	177.275	0.00038243	0.00012569	7.0976e-05	362.79	2.5864e-06	5.159e-06	315.92	139.43	2.1936e-06	2.7075e-06	136.38	53.763	57.45	20.602	2.3317e-06	19.848	0.00021113	4.9928e-05	1.684e-05	381.97	6.5186e-07	8.352e-06	331.68	147.08	8.248e-07	5.3526e-07	144.85	56.664	60.698	22.08	7.4497e-07	21.242	504.561	228.509	231.729	162.157	261.234	310.542	160.360	166.343	274.554	289.601	163.846	167.225	169.557	173.902	279.590	170.580	-8191	255	
28219.623	1	1	0	0	0.088712	0.074413	0.13879	0.28648	0.07927	0.18041	0.17007	0.13697	0.10391	0.17015	0.24173	0.39886	0.20753	0.13649	0.18134	0.065258	-1.3	-2.2021	-1.9062	-1.925	-2.4292	-2.05	-2.1083	-2.1417	-1.7812	-2.25	-2.1625	-1.9146	-2.3646	-2.0875	-2.1083	-2.1479	340.260	180.278	399.931	502.717	353.282	193.267	423.227	389.198	312.749	278.820	421.863	372.156	442.453	475.689	338.735	394.612	0.00040453	0.00016917	4.0832e-05	364.33	1.136e-06	4.6853e-06	315.01	139.18	2.6474e-06	2.3042e-06	136.11	53.387	57.369	20.628	2.319e-06	19.821	0.00051903	5.2086e-05	1.6023e-05	382.39	6.106e-07	3.563e-06	331.78	147.21	9.5147e-07	4.4003e-07	145.02	56.354	60.656	22.061	8.0529e-07	21.08	496.534	234.078	258.759	161.933	276.254	300.555	160.660	166.327	271.193	299.818	163.672	167.111	169.492	173.541	286.456	170.631	-8191	255	
28219.721	1	1	0	0	0.21036	0.19938	0.15359	0.088667	0.29507	0.16795	0.15865	0.29217	0.26536	0.19073	0.16205	0.1894	0.065976	0.11225	0.14759	0.24696	-1.5604	-2.2667	-2.1021	-1.7604	-2.1854	-2.0542	-2.1396	-2.4021	-1.9188	-2.3042	-2.1229	-1.8854	-2.3958	-2.0438	-2.1021	-2.2875	468.269	457.588	437.342	379.597	266.288	250.361	417.428	304.724	340.474	355.940	265.040	475.232	228.391	295.139	177.704	333.922	0.00036221	0.00020645	5.7694e-05	361.53	2.0914e-06	5.8176e-06	312.51	139.12	2.2879e-06	1.9876e-06	136.64	53.13	57.117	20.585	2.0551e-06	19.492	0.00032191	4.497e-05	1.6546e-05	380.1	5.7324e-07	8.3467e-06	329.46	146.95	7.9068e-07	4.7222e-07	144.13	56.283	60.48	21.996	8.3726e-07	20.948	502.815	229.689	233.722	162.013	256.707	314.027	160.539	166.102	260.134	306.629	164.219	167.300	169.500	173.779	281.863	170.549	-8191	255	
28219.816	1	1	0	0	0.18138	0.14671	0.25201	0.19549	0.14142	0.27803	0.10634	0.27571	0.075806	0.090462	0.21169	0.22543	0.18567	0.17082	0.14777	0.21396	-1.4208	-2.0521	-1.9813	-1.8667	-2.2583	-1.9667	-2.0417	-2.2583	-1.7417	-2.0167	-2.2375	-1.6812	-2.2812	-2.0062	-1.8167	-2.2417	163.675	328.318	165.758	482.591	494.987	297.376	481.926	470.301	428.031	440.230	500.431	414.772	156.810	229.370	234.884	346.392	0.00037425	0.00025399	4.6616e-05	358.27	2.1678e-06	3.5635e-06	311.45	140.09	2.4685e-06	2.6087e-06	136.12	53.102	57.216	20.448	2.3596e-06	19.54	0.00058344	5.0745e-05	1.2818e-05	378.19	7.0707e-07	3.5967e-06	327.28	147.37	8.9306e-07	5.7336e-07	143.94	56.562	60.539	21.907	8.4873e-07	20.928	502.743	262.752	240.289	161.914	265.227	320.979	160.190	166.340	266.995	307.970	164.009	166.881	169.278	173.334	277.872	170.306	-8191	255	
28219.912	1	1	0	0	0.30242	0.27275	0.087319	0.14729	0.31521	0.12623	0.1049	0.1375	0.018928	0.28434	0.19826	0.17143	0.18463	0.14392	0.17711	0.16117	-1.2646	-1.9104	-1.9917	-1.9646	-2.1688	-2.1604	-1.9396	-2.2646	-1.7646	-1.9979	-2.2521	-1.8646	-2.0312	-2.2062	-1.8625	-2.2729	298.848	271.184	367.039	468.463	293.312	453.714	343.570	453.850	246.177	216.861	270.160	161.279	493.667	408.372	354.407	358.912	0.00035409	0.00021224	5.6066e-05	357.44	1.7468e-06	6.0192e-06	311.45	140.31	3.0576e-06	2.229e-06	137.44	53.454	57.129	20.502	2.4792e-06	19.555	0.00032831	5.3311e-05	1.2426e-05	376.96	6.948e-07	8.5601e-06	326.64	148.01	8.5141e-07	4.8732e-07	144.42	56.531	60.49	21.904	8.5536e-07	20.924	505.397	237.319	241.030	162.189	260.761	322.707	160.858	166.301	274.718	289.414	163.560	167.038	169.500	173.430	269.258	170.562	-8191	255	
28220.008	1	1	0	0	0.18971	0.21716	0.13577	0.16256	0.087282	0.13123	0.12015	0.21266	0.25191	0.31631	0.22185	0.10557	0.14366	0.18363	0.1043	0.24069	-1.5417	-1.9188	-2.0521	-1.9771	-2.0729	-2.1479	-1.9521	-2.2854	-1.9188	-2.0375	-2.2917	-1.875	-2.1104	-2.2729	-1.6229	-2.0417	471.625	173.905	370.291	413.962	379.604	345.622	402.034	348.731	396.657	324.441	452.527	181.219	310.697	496.575	396.714	404.257	0.00040751	0.00019411	6.0122e-05	355.71	2.2905e-06	1.9516e-06	308.28	138.62	2.1992e-06	1.9851e-06	136.47	53.27	57.182	20.42	2.0993e-06	19.506	0.00056993	6.0019e-05	1.4944e-05	376.56	6.1339e-07	2.0675e-06	325.96	147.51	8.115e-07	5.3592e-07	143.91	56.729	60.536	21.842	9.2835e-07	20.846	503.450	255.375	226.312	161.998	260.661	320.883	160.519	166.214	268.566	297.207	163.965	166.916	169.475	173.391	284.646	170.652	-8191	255	
28220.129	1	1	0	0	0.10433	0.20824	0.2199	0.33561	0.29619	0.078213	0.29034	0.25045	0.2536	0.32699	0.067366	0.1037	0.080491	0.16055	0.26689	0.33489	-1.5146	-2.0375	-2.2375	-1.7812	-2.0479	-2.15	-1.7396	-2.2104	-1.9062	-1.6896	-2.1875	-1.7667	-1.9396	-2.2875	-1.6958	-2.2708	178.813	240.273	451.957	430.593	405.732	430.695	506.745	439.341	177.738	415.669	183.460	436.020	298.607	191.573	439.355	173.497	0.00036668	0.00017239	6.7027e-05	356.63	2.2902e-06	2.3133e-06	307.42	138.94	2.9443e-06	2.5781e-06	136.22	52.812	57.016	20.391	2.6059e-06	19.292	0.00032502	5.3544e-05	1.2655e-05	375.2	7.2658e-07	3.6661e-07	325.27	147.08	7.606e-07	6.3575e-07	143.35	55.984	60.241	21.76	9.193e-07	20.701	504.393	237.670	230.345	162.095	264.270	309.873	160.780	166.249	274.665	297.134	163.839	166.944	169.294	173.498	275.016	170.660	-8191	255	
28220.225	1	1	0	0	0.18842	0.10681	0.07522	0.088144	0.030608	0.18877	0.21735	0.056896	0.072171	0.25184	0.18408	0.26306	0.14872	0.094566	0.20622	0.4371	-1.8042	-1.9396	-2.2188	-2.1625	-2.2188	-2.2104	-1.8729	-2.15	-2.1312	-2	-2.4208	-1.8771	-1.9854	-2.3542	-1.7896	-2.2188	220.840	321.586	252.934	383.630	259.804	148.176	489.029	444.193	304.957	238.152	448.258	375.289	420.298	492.920	318.527	383.729	0.00041377	0.00019237	4.3917e-05	356.19	1.4307e-06	2.2734e-06	307	139.14	2.8342e-06	1.6867e-06	134.84	52.754	56.842	20.355	2.3064e-06	19.376	0.00057044	6.4335e-05	1.2393e-05	374.25	6.8142e-07	4.1086e-07	323.72	146.53	7.6349e-07	5.6942e-07	142.59	55.954	60.021	21.729	7.884e-07	20.713	505.703	222.089	242.160	162.093	269.531	309.070	160.388	166.146	267.587	294.760	164.178	167.085	169.417	173.583	282.466	170.760	-8191	255	
28220.320	1	1	0	0	0.17756	0.14422	0.2915	0.22596	0.1571	0.067646	0.13028	0.29894	0.087409	0.27747	0.1366	0.16058	0.21876	0.32249	0.078986	0.16734	-1.6958	-1.875	-2.2604	-2.0458	-2.0312	-2.3208	-1.8125	-2.2979	-2.1188	-1.8292	-2.1521	-1.8875	-1.8729	-2.2021	-1.8937	-2.0875	313.459	455.213	370.377	191.627	281.288	441.633	208.839	254.918	282.424	230.279	220.685	448.593	508.045	345.941	319.343	478.429	0.00036668	0.00024929	4.8601e-05	355.9	1.6694e-06	2.453e-06	306.91	137.99	2.408e-06	2.3543e-06	135.14	52.407	56.578	20.28	2.2949e-06	19.457	0.00023696	0.00015538	1.0317e-05	374.39	7.567e-07	3.8972e-07	326.03	145.95	7.901e-07	6.4691e-07	142.8	55.786	59.962	21.717	8.5838e-07	20.745	507.645	203.721	224.051	161.834	283.048	311.019	160.670	166.368	279.580	321.798	163.573	166.914	169.306	173.327	291.324	170.583	-8191	255	
28220.393	1	1	0	0	0.16651	0.27526	0.17644	0.061645	0.14704	0.13737	0.30933	0.18467	0.18577	0.064463	0.20675	0.20133	0.12178	0.2354	0.15464	0.12577	-1.7271	-1.7396	-2.3479	-1.9792	-1.9771	-2.3458	-2.025	-2.1188	-2.25	-1.95	-2.3083	-2.1333	-1.7958	-2.5042	-1.8958	-2.1188	450.925	398.699	158.182	314.594	154.284	381.375	340.655	340.769	288.708	492.699	490.164	456.348	369.207	474.527	317.144	461.688	0.00035596	0.00055683	5.9318e-05	356.23	1.9986e-06	1.8206e-06	309.78	137.88	2.5964e-06	2.6204e-06	135.52	52.782	56.494	20.351	1.893e-06	19.405	0.00016202	0.00075854	1.3341e-05	375.62	7.5781e-07	3.5934e-07	326.84	145.91	6.5128e-07	6.6333e-07	142.72	56.085	59.981	21.778	8.4933e-07	20.771	506.515	193.979	243.650	161.679	252.865	280.573	160.552	166.253	265.620	288.351	163.848	166.883	169.132	173.479	281.221	170.480	-8191	255	
28220.512	1	1	0	0	0.25229	0.14716	0.19326	0.19079	0.026391	0.073033	0.18888	0.064808	0.22005	0.3098	0.16727	0.11138	0.17607	0.10291	0.28634	0.18971	-1.775	-1.8937	-2.0646	-2.0396	-1.8125	-2.3417	-2.3417	-2.0417	-2.3563	-1.8042	-2.0812	-2.4104	-1.9312	-2.2208	-1.9292	-1.9708	285.043	221.983	232.247	420.753	369.849	204.750	306.389	239.988	313.155	202.425	488.405	395.205	374.993	216.674	381.790	376.915	0.00034491	0.00030809	5.6037e-05	357.57	2.0276e-06	2.7228e-06	308.14	137.36	2.5411e-06	2.758e-06	134.27	52.48	56.442	20.316	2.0368e-06	19.375	0.00015931	0.000332	1.2785e-05	376.17	8.2975e-07	4.5314e-07	328.03	145.22	6.8946e-07	5.7204e-07	141.68	55.452	59.745	21.668	7.7513e-07	20.656	504.382	221.518	231.030	161.869	264.221	312.124	160.817	166.137	265.827	292.155	164.083	167.168	169.453	173.471	274.538	170.770	-8191	255	
28220.607	1	1	0	0	0.17684	0.15198	0.1384	0.12498	0.1368	0.098655	0.2035	0.22132	0.090308	0.10789	0.024942	0.17638	0.044718	0.02368	0.18784	0.10047	-1.6562	-1.9375	-2.0438	-2.1	-1.825	-2.0854	-1.8813	-1.9125	-2.3667	-1.9583	-2.2333	-2.2938	-1.8687	-2.3688	-2.0187	-1.8854	219.578	168.206	170.283	261.346	471.442	255.580	508.124	466.231	155.539	482.340	277.295	241.306	303.694	389.485	400.363	494.241	0.00035213	0.00044675	7.2141e-05	355.65	2.0714e-06	1.7569e-06	308.07	137.19	2.884e-06	2.2478e-06	133.52	52.347	56.081	20.245	1.8364e-06	19.269	0.00015546	0.00075674	1.3423e-05	374.37	7.2826e-07	4.9343e-07	325.63	144.83	7.178e-07	6.2524e-07	141.08	55.244	59.979	21.656	7.3713e-07	20.627	507.438	199.103	242.828	162.013	262.086	306.047	160.260	166.418	274.877	279.153	163.853	167.122	169.295	173.857	288.337	170.635	-8191	255	
28220.703	1	1	0	0	0.25989	0.25349	0.23	0.15209	0.062352	0.1963	0.17419	0.22502	0.20941	0.10544	0.28845	0.11987	0.16345	0.092832	0.17298	0.1523	-1.7687	-1.9917	-2.075	-2.3354	-1.75	-2.0812	-1.8979	-2.0521	-2.3771	-1.8458	-2.0979	-2.3083	-1.8521	-2.3542	-1.9979	-1.95	503.358	289.759	337.019	270.715	200.415	328.223	442.045	429.217	213.024	326.001	167.913	319.057	445.633	480.221	233.408	369.394	0.00034573	0.00029732	5.7605e-05	356.5	2.2922e-06	2.0478e-06	309.6	136.63	2.8733e-06	2.2477e-06	133.86	52.612	56.447	20.235	2.083e-06	19.482	0.00016209	0.00032926	1.2867e-05	375.75	8.6934e-07	4.6767e-07	328.33	144.88	6.6748e-07	6.3115e-07	141.75	55.562	59.818	21.693	7.6367e-07	20.743	506.250	232.430	228.689	162.119	265.637	290.914	160.408	166.446	276.674	303.089	163.947	167.011	169.574	173.497	279.834	170.894	-8191	255	
28220.801	1	1	0	0	0.27266	0.18826	0.087376	0.05435	0.26129	0.14972	0.23027	0.087774	0.16979	0.057734	0.15672	0.069173	0.26998	0.21943	0.14693	0.061073	-1.8083	-1.7583	-2.0312	-2.2625	-1.7542	-2.2146	-2.2896	-1.9583	-2.2125	-1.9188	-2.0479	-2.1146	-1.9458	-2.1583	-2.0896	-1.7333	339.562	340.016	280.148	272.314	187.447	279.515	464.430	168.158	446.342	471.788	496.063	458.819	488.283	224.205	182.470	428.325	0.00036079	0.00048237	6.9956e-05	359.47	1.4953e-06	2.5998e-06	309.68	137.82	2.495e-06	2.5157e-06	134.19	52.836	56.591	20.398	2.2957e-06	19.48	0.00015952	0.00075662	1.581e-05	377.81	8.119e-07	5.4561e-07	326.85	145.42	7.3168e-07	6.3247e-07	141.98	55.675	60.324	21.767	7.2567e-07	20.852	507.192	230.257	214.353	162.149	269.633	291.455	160.412	166.173	259.250	297.927	164.024	167.179	169.456	173.541	291.623	170.484	-8191	255	
28220.922	1	1	0	0	0.24223	0.037417	0.14718	0.19218	0.16969	0.23382	0.21126	0.13795	0.1696	0.06772	0.27778	0.38183	0.081622	0.15712	0.20444	0.35279	-1.7604	-2.0062	-1.8563	-2.3292	-1.8646	-2.2521	-2.1167	-1.875	-2.1312	-2.1562	-1.7875	-2.1458	-1.9292	-2.1083	-2.1208	-1.6271	289.704	225.667	374.523	488.321	193.238	350.883	435.385	480.145	378.862	416.857	177.011	270.800	165.187	236.068	225.804	158.549	0.00037263	0.00036952	6.9234e-05	358.32	2.0282e-06	1.9305e-06	310.23	137.74	2.91e-06	2.1335e-06	134.96	52.426	56.598	20.361	2.2936e-06	19.46	0.00016128	0.00033684	1.6006e-05	377.69	7.8123e-07	4.6172e-07	327.15	146.01	7.4036e-07	4.755e-07	142.24	55.531	59.993	21.805	6.2252e-07	20.803	508.155	226.085	236.686	162.212	272.071	304.259	160.822	166.244	266.373	294.031	163.749	167.124	169.250	173.604	274.559	170.433	-8191	255	
28220.992	1	1	0	0	0.1535	0.07158	0.20365	0.26723	0.16023	0.15554	0.16931	0.080838	0.1614	0.054705	0.22561	0.25076	0.29379	0.069259	0.21743	0.081758	-1.5625	-1.975	-1.8229	-2.2792	-2.0771	-2.0375	-2.3312	-1.8042	-2.1083	-2.025	-1.7042	-2.3167	-2.0229	-2.1083	-2.1854	-1.8417	491.672	274.703	262.130	386.899	443.094	216.523	304.607	469.502	266.838	250.529	392.874	355.575	432.999	497.996	208.418	426.455	0.00035319	0.0004594	6.9034e-05	357.78	2.1322e-06	1.8897e-06	310.77	137.14	2.703e-06	2.3826e-06	134.33	52.653	56.651	20.286	1.969e-06	19.367	0.00016547	0.00071177	1.7314e-05	377.12	7.7064e-07	4.7031e-07	327.49	145.21	7.7853e-07	5.195e-07	141.85	55.519	60.203	21.749	6.3519e-07	20.789	505.540	265.820	227.924	162.045	273.779	323.043	160.588	166.291	265.463	293.706	163.892	167.165	169.055	173.532	280.037	170.706	-8191	255	
28221.090	1	1	0	0	0.054866	0.18615	0.16497	0.11567	0.146	0.074895	0.09979	0.23145	0.14623	0.20636	0.18772	0.19911	0.39725	0.25782	0.14339	0.070764	-1.9146	-2.2042	-1.8	-2.1271	-2.0771	-1.9104	-2.3479	-1.9896	-2.0396	-2.0979	-1.8625	-2.3604	-1.9333	-2.0479	-2.2979	-2.0292	432.838	188.676	186.385	290.440	321.546	350.536	165.984	384.899	163.138	476.030	362.581	469.428	363.236	489.559	177.492	483.354	0.00034778	0.0002228	9.8368e-05	358.69	2.4558e-06	2.2203e-06	311.87	137.1	2.8184e-06	1.4804e-06	135.19	52.659	56.666	20.397	2.7189e-06	19.488	0.00016097	0.00013958	5.5589e-05	377.08	7.0038e-07	5.7864e-07	327.32	145.85	7.7911e-07	4.3281e-07	142.13	55.632	60.142	21.811	7.2024e-07	20.886	506.809	248.100	209.852	162.014	273.637	291.306	160.349	166.287	268.061	263.844	164.172	166.897	169.352	173.408	272.980	170.592	-8191	255	
28221.209	1	1	0	0	0.30064	0.19674	0.12272	0.24307	0.24292	0.11996	0.10767	0.035508	0.1035	0.061757	0.1765	0.11481	0.21063	0.034237	0.31123	0.35551	-1.7479	-2.2687	-1.8375	-2.4625	-1.9833	-1.85	-2.1958	-1.9458	-1.9417	-2.2583	-1.875	-2.1562	-1.9917	-1.7104	-2.1708	-2.0312	305.619	365.629	318.359	291.683	502.749	226.630	474.711	170.663	223.570	234.048	449.691	299.343	436.562	400.398	408.472	461.913	0.00035286	0.00024972	0.00015956	358.84	2.3715e-06	2.0866e-06	311.32	137.57	2.4613e-06	1.5317e-06	135.48	53.135	56.855	20.5	2.2921e-06	19.64	0.00016524	5.057e-05	0.00021021	377.91	7.9685e-07	5.7402e-07	328.05	146.03	7.6696e-07	3.5728e-07	143.03	56.082	60.549	21.899	6.9792e-07	21.017	504.985	230.677	239.222	162.059	262.807	300.273	160.189	166.211	260.444	302.104	164.105	167.308	169.348	173.569	276.024	170.492	-8191	255	
28221.305	1	1	0	0	0.13512	0.33114	0.1425	0.02794	0.23713	0.22557	0.087816	0.058211	0.21483	0.25594	0.0813	0.098809	0.22137	0.33816	0.23381	0.18405	-1.6667	-2.1771	-1.6917	-2.1188	-2.1	-1.8292	-2.1875	-2.0062	-2.0292	-2.3521	-1.6229	-2.0792	-2.1229	-1.9479	-2.1958	-1.9438	413.552	377.921	436.981	404.337	294.964	315.990	296.562	407.467	381.689	226.084	253.007	189.418	503.870	507.606	223.198	160.395	0.00034042	0.00018897	0.00010174	358.91	2.537e-06	2.3132e-06	310.5	138.05	2.5468e-06	2.0607e-06	135.22	52.961	56.707	20.492	2.7086e-06	19.705	0.00016324	4.1879e-05	9.0462e-05	378.66	7.6339e-07	6.8235e-07	328.47	146.55	8.7802e-07	3.7501e-07	142.9	56.111	60.166	21.947	6.2614e-07	21.006	503.303	232.983	242.118	162.175	266.211	291.546	160.586	166.394	283.707	310.913	164.050	167.414	169.706	173.519	285.427	170.789	-8191	255	
28221.402	1	1	0	0	0.023337	0.13331	0.074961	0.18303	0.27762	0.22345	0.30253	0.068881	0.082625	0.081209	0.090882	0.15767	0.052229	0.12029	0.098584	0.10479	-1.3208	-2.1417	-1.825	-2.1917	-2.1542	-1.7563	-2.2792	-2.0375	-1.825	-2.0854	-1.8125	-1.9979	-2.1396	-1.8854	-2.3208	-2.0229	420.402	464.075	285.556	479.402	355.501	439.308	498.801	449.100	199.555	502.070	243.572	215.368	421.251	479.633	228.517	199.589	0.0003597	0.0001947	0.00016268	358.78	2.4303e-06	2.1342e-06	312.07	137.04	2.4922e-06	1.9729e-06	134.56	52.771	56.54	20.405	2.695e-06	19.483	0.00017366	4.4387e-05	0.00021245	377.79	6.7974e-07	7.0745e-07	327.75	145.59	8.3811e-07	3.6254e-07	142.36	55.824	59.965	21.97	7.0757e-07	20.878	506.272	238.633	240.186	162.034	280.369	309.241	160.782	166.645	262.278	300.646	163.798	167.284	169.392	173.494	273.863	170.887	-8191	255	
28221.521	1	1	0	0	0.14679	0.13846	0.14547	0.19743	0.20258	0.12449	0.094726	0.085192	0.14413	0.22187	0.019028	0.21783	0.020011	0.13975	0.23447	0.21523	-1.4104	-2.2	-1.9062	-2.0625	-2.0771	-1.9708	-2.1229	-2.1396	-1.9646	-2.3771	-2.0667	-1.9271	-2.3	-2.025	-2.1625	-1.9458	292.767	313.925	229.455	502.189	501.394	192.104	389.870	473.266	479.576	263.323	236.077	192.708	406.061	170.885	439.130	354.373	0.00034459	0.00021276	6.665e-05	358.52	1.9127e-06	2.0304e-06	310.71	137.48	2.6948e-06	2.4688e-06	134.76	53.026	56.64	20.451	1.6724e-06	19.616	0.00017045	5.1561e-05	8.9007e-05	378	6.9647e-07	6.4338e-07	327.16	146.11	8.3522e-07	4.4463e-07	142.49	55.976	60.071	21.898	7.311e-07	21.003	505.729	250.344	225.100	161.974	273.758	282.001	160.831	166.025	270.026	297.837	164.127	167.137	169.218	173.372	285.978	170.681	-8191	255	
28221.594	1	1	0	0	0.24862	0.16396	0.19734	0.23171	0.054168	0.22739	0.15429	0.2537	0.10308	0.0885	0.10886	0.090889	0.041357	0.24537	0.12455	0.21894	-1.5979	-2.2583	-1.8229	-1.9937	-2.2313	-1.825	-2.1688	-2.1458	-1.8354	-2.3021	-2.1604	-2.0604	-2.2375	-1.8813	-2.2229	-2.35	192.420	228.543	431.388	461.451	256.671	265.654	317.092	450.375	381.116	466.994	496.237	374.916	193.358	437.707	192.676	345.581	0.00034088	0.00020045	0.00015331	358.39	2.1785e-06	1.8236e-06	313.85	138.06	2.0583e-06	1.8133e-06	135.7	53.195	56.85	20.63	2.6795e-06	19.837	0.00016717	5.4886e-05	0.00020967	378.07	6.4461e-07	5.7336e-07	328.72	146.12	2.5525e-06	4.6959e-07	143.4	56.177	60.428	22.159	7.4015e-07	21.11	505.456	252.308	252.532	162.051	269.901	284.773	160.503	166.368	257.865	291.608	164.032	166.912	169.413	173.599	285.718	170.573	-8191	255	
28221.688	1	1	0	0	0.43798	0.14091	0.19215	0.085745	0.065823	0.11256	0.30049	0.078026	0.14322	0.20649	0.22332	0.15956	0.30789	0.11084	0.14676	0.14477	-1.4354	-2.1896	-1.9979	-1.8875	-2.3167	-2.0292	-2.2625	-2.3083	-1.9813	-2.2208	-2.2708	-1.7979	-2.1937	-1.9229	-1.9479	-2.1521	414.174	219.257	286.037	212.711	486.867	292.611	208.735	461.776	503.887	505.769	416.349	190.917	160.776	180.635	319.217	317.916	0.0003535	0.00029187	0.00010616	359.8	2.0423e-06	2.1451e-06	313.37	137.98	6.0856e-07	2.2058e-06	135.7	53.347	57.17	20.628	2.5268e-06	19.578	0.00017302	5.1678e-05	8.9547e-05	379.47	6.8421e-07	6.0903e-07	330.23	146.09	7.6922e-06	4.8272e-07	143.43	56.424	60.439	22.106	7.2869e-07	21.112	505.957	233.357	227.040	162.027	260.888	306.811	160.196	166.181	382.174	305.890	163.976	166.970	169.278	173.151	286.667	170.879	-8191	255	
#DATA ENDS
