BOXY.EXE: ISS Imagent and Oximeter Data Acquisition Program Version 0.80
Ascii Record File

#ACQ INFORMATION
2  Detector Channels 
16  External MUX Channels 
1  Auxiliary Channels 
5000  Waveform (CCF) Frequency (Hz)
1  Waveforms Skipped 
30  Waveforms Averaged 
1  Cycles Averaged 
16  Acquisitions per Waveform 
10.0806  Updata Rate (Hz) 

#FILE INFORMATION
TRUE -- External MUX Channel results are PARSED.
FALSE -- AC DC and Phase are NOT grouped.
TRUE -- Companion Program Settings File CREATED.
FALSE -- AC data not excluded
FALSE -- DC data not excluded
FALSE -- Phase data not excluded
FALSE -- Auxillary Chn. data not excluded
Tab delimiters

#CALIBRATION STATE
TRUE -- Waveform Calibration Values APPLIED.


#AUX CALIBRATION VALUES
Val Type	aux-1	

Term	1.0000e+00	
Factor	0.0000e+00	


#WF CALIBRATION VALUES
A = Detector Channel
Val Type	A-AC1	A-AC2	A-AC3	A-AC4	A-AC5	A-AC6	A-AC7	A-AC8	A-AC9	A-AC10	A-AC11	A-AC12	A-AC13	A-AC14	A-AC15	A-AC16	A-DC1	A-DC2	A-DC3	A-DC4	A-DC5	A-DC6	A-DC7	A-DC8	A-DC9	A-DC10	A-DC11	A-DC12	A-DC13	A-DC14	A-DC15	A-DC16	A-Ph1	A-Ph2	A-Ph3	A-Ph4	A-Ph5	A-Ph6	A-Ph7	A-Ph8	A-Ph9	A-Ph10	A-Ph11	A-Ph12	A-Ph13	A-Ph14	A-Ph15	A-Ph16	

Term	0.00000e+00	0.00000e+00	0.00000e+00	0.00000e+00	0.00000e+00	0.00000e+00	0.00000e+00	0.00000e+00	0.00000e+00	0.00000e+00	0.00000e+00	0.00000e+00	0.00000e+00	0.00000e+00	0.00000e+00	0.00000e+00	0.00000e+00	0.00000e+00	0.00000e+00	0.00000e+00	0.00000e+00	0.00000e+00	0.00000e+00	0.00000e+00	0.00000e+00	0.00000e+00	0.00000e+00	0.00000e+00	0.00000e+00	0.00000e+00	0.00000e+00	0.00000e+00	0.00000e+00	0.00000e+00	0.00000e+00	0.00000e+00	0.00000e+00	0.00000e+00	0.00000e+00	0.00000e+00	0.00000e+00	0.00000e+00	0.00000e+00	0.00000e+00	0.00000e+00	0.00000e+00	0.00000e+00	0.00000e+00	
Factor	1.00000e+00	1.00000e+00	1.00000e+00	1.00000e+00	1.00000e+00	1.00000e+00	1.00000e+00	1.00000e+00	1.00000e+00	1.00000e+00	1.00000e+00	1.00000e+00	1.00000e+00	1.00000e+00	1.00000e+00	1.00000e+00	1.00000e+00	1.00000e+00	1.00000e+00	1.00000e+00	1.00000e+00	1.00000e+00	1.00000e+00	1.00000e+00	1.00000e+00	1.00000e+00	1.00000e+00	1.00000e+00	1.00000e+00	1.00000e+00	1.00000e+00	1.00000e+00	X	X	X	X	X	X	X	X	X	X	X	X	X	X	X	X	

B = Detector Channel
Val Type	B-AC1	B-AC2	B-AC3	B-AC4	B-AC5	B-AC6	B-AC7	B-AC8	B-AC9	B-AC10	B-AC11	B-AC12	B-AC13	B-AC14	B-AC15	B-AC16	B-DC1	B-DC2	B-DC3	B-DC4	B-DC5	B-DC6	B-DC7	B-DC8	B-DC9	B-DC10	B-DC11	B-DC12	B-DC13	B-DC14	B-DC15	B-DC16	B-Ph1	B-Ph2	B-Ph3	B-Ph4	B-Ph5	B-Ph6	B-Ph7	B-Ph8	B-Ph9	B-Ph10	B-Ph11	B-Ph12	B-Ph13	B-Ph14	B-Ph15	B-Ph16	

Term	0.00000e+00	0.00000e+00	0.00000e+00	0.00000e+00	0.00000e+00	0.00000e+00	0.00000e+00	0.00000e+00	0.00000e+00	0.00000e+00	0.00000e+00	0.00000e+00	0.00000e+00	0.00000e+00	0.00000e+00	0.00000e+00	0.00000e+00	0.00000e+00	0.00000e+00	0.00000e+00	0.00000e+00	0.00000e+00	0.00000e+00	0.00000e+00	0.00000e+00	0.00000e+00	0.00000e+00	0.00000e+00	0.00000e+00	0.00000e+00	0.00000e+00	0.00000e+00	2.53724e+01	-1.25825e+02	-1.32423e+02	-1.86157e+02	-5.31231e+01	-7.74207e+01	-1.59021e+02	-1.62015e+02	-9.81342e+01	-6.42266e+01	-1.73719e+02	-1.69925e+02	-1.79918e+02	-1.77120e+02	-6.73402e+01	-1.50188e+02	
Factor	4.43643e-05	1.31752e-04	3.84766e-05	6.00296e-01	1.09162e-06	1.23883e-06	1.58776e-01	4.81384e-02	1.60025e-06	1.38813e-06	8.39062e-02	2.75674e-02	2.39658e-02	9.07276e-03	1.49700e-06	1.30833e-02	1.61200e-06	1.67637e-06	4.65165e-07	2.83808e-01	1.83225e-08	1.83332e-08	7.47258e-02	2.41391e-02	1.82575e-08	1.83873e-08	4.04860e-02	1.32768e-02	1.20086e-02	4.53932e-03	1.82600e-08	6.30792e-03	X	X	X	X	X	X	X	X	X	X	X	X	X	X	X	X	



#DISTANCE SETTINGS
A = Detector Channel
A-1	A-2	A-3	A-4	A-5	A-6	A-7	A-8	A-9	A-10	A-11	A-12	A-13	A-14	A-15	A-16	

2.5000e+00	3.0000e+00	2.5000e+00	3.0000e+00	2.0000e+00	3.0000e+00	1.5000e+00	3.0000e+00	3.0000e+00	3.0000e+00	3.0000e+00	3.0000e+00	3.0000e+00	3.0000e+00	1.5000e+00	3.0000e+00	

B = Detector Channel
B-1	B-2	B-3	B-4	B-5	B-6	B-7	B-8	B-9	B-10	B-11	B-12	B-13	B-14	B-15	B-16	

1.0000e+01	1.0000e+01	1.0000e+01	1.4400e+00	1.0000e+01	1.0000e+01	1.5100e+00	1.9400e+00	1.0000e+01	1.0000e+01	1.9900e+00	2.4900e+00	2.4100e+00	2.9000e+00	1.0000e+01	2.9800e+00	




#DATA BEGINS
time	group	step	mark	flag	A-AC1	A-AC2	A-AC3	A-AC4	A-AC5	A-AC6	A-AC7	A-AC8	A-AC9	A-AC10	A-AC11	A-AC12	A-AC13	A-AC14	A-AC15	A-AC16	A-DC1	A-DC2	A-DC3	A-DC4	A-DC5	A-DC6	A-DC7	A-DC8	A-DC9	A-DC10	A-DC11	A-DC12	A-DC13	A-DC14	A-DC15	A-DC16	A-Ph1	A-Ph2	A-Ph3	A-Ph4	A-Ph5	A-Ph6	A-Ph7	A-Ph8	A-Ph9	A-Ph10	A-Ph11	A-Ph12	A-Ph13	A-Ph14	A-Ph15	A-Ph16	B-AC1	B-AC2	B-AC3	B-AC4	B-AC5	B-AC6	B-AC7	B-AC8	B-AC9	B-AC10	B-AC11	B-AC12	B-AC13	B-AC14	B-AC15	B-AC16	B-DC1	B-DC2	B-DC3	B-DC4	B-DC5	B-DC6	B-DC7	B-DC8	B-DC9	B-DC10	B-DC11	B-DC12	B-DC13	B-DC14	B-DC15	B-DC16	B-Ph1	B-Ph2	B-Ph3	B-Ph4	B-Ph5	B-Ph6	B-Ph7	B-Ph8	B-Ph9	B-Ph10	B-Ph11	B-Ph12	B-Ph13	B-Ph14	B-Ph15	B-Ph16	aux-1	digaux	

3278.185	1	1	0	256	0.25678	0.17723	0.097463	0.26202	0.064735	0.050832	0.11299	0.1723	0.15016	0.22121	0.31489	0.31783	0.10861	0.21607	0.19162	0.094557	-2.3438	-2.7771	-2.2979	-2.8563	-2.4938	-2.4333	-2.9625	-2.3937	-2.5146	-2.6688	-2.5396	-2.8083	-2.6646	-2.4875	-2.7479	-2.5771	191.776	-72.573	184.985	-68.482	149.031	140.461	168.391	253.322	195.800	226.959	-92.237	227.054	-29.407	205.894	21.778	205.529	0.00042886	0.00084801	9.7844e-05	867.03	2.7815e-06	5.1304e-06	1012.3	312.49	8.7568e-06	2.0781e-06	396.16	146.12	114.24	42.474	3.7702e-06	59.923	0.000133	0.00010857	2.8689e-05	698.19	1.2882e-06	1.1715e-06	841.74	261.19	1.3257e-06	1.1751e-06	326.85	121.61	95.077	35.754	1.1982e-06	49.912	8.715	5.888	-46.240	-92.670	69.938	-3.357	-94.016	-87.738	-18.438	-55.344	-89.640	-85.965	-82.955	-77.505	28.202	-81.336	-8191	255	
3278.281	1	1	0	0	0.11268	0.070483	0.030372	0.23219	0.19241	0.079557	0.24645	0.272	0.060039	0.13227	0.15215	0.16573	0.25161	0.34952	0.233	0.21074	-2.2021	-2.8063	-2.3063	-2.7667	-2.5396	-2.475	-2.8625	-2.4813	-2.6729	-2.6771	-2.5292	-2.7979	-2.7438	-2.3563	-2.7417	-2.6271	-7.089	248.035	-102.206	-79.194	105.299	-82.678	205.178	155.132	224.889	218.766	113.213	116.466	-95.119	-52.434	-100.064	240.617	0.0004451	0.00023879	0.00012957	867.34	2.7781e-06	3.9896e-06	1015.4	313.95	3.7656e-06	4.0191e-06	400.29	148.28	114.75	43.284	2.0317e-06	61.17	0.00013826	0.00011121	3.2129e-05	703.14	1.3419e-06	1.2747e-06	846.79	263.4	1.3988e-06	1.3266e-06	331.32	123.52	96.528	36.194	1.4363e-06	50.9	0.513	25.709	-50.751	-93.015	75.034	61.494	-93.824	-87.609	-42.602	84.022	-89.953	-85.772	-83.571	-78.010	-7.174	-80.965	-8191	255	
3278.354	1	1	0	0	0.15885	0.44988	0.077687	0.15111	0.21509	0.20281	0.25031	0.33759	0.1473	0.11629	0.11414	0.049595	0.33529	0.32194	0.039377	0.24647	-2.1417	-2.7938	-2.4313	-2.7833	-2.6833	-2.375	-2.9458	-2.7833	-2.5333	-2.9458	-2.6188	-2.7604	-2.7104	-2.5375	-2.7729	-2.7458	-58.389	-94.490	154.972	193.156	-70.037	-19.862	237.835	212.943	235.732	-60.073	229.767	242.927	222.783	221.190	113.978	165.963	0.00042903	0.00028626	3.7952e-05	869.7	6.0855e-06	5.9933e-06	1026.4	317.84	4.9375e-06	5.4134e-06	403.78	151.82	116.43	43.588	2.972e-06	61.384	0.00014215	0.00011024	3.4855e-05	708.47	1.3365e-06	1.2875e-06	856.46	266.24	1.3606e-06	1.2677e-06	335.72	125.64	97.285	36.32	1.461e-06	51.152	-13.041	46.453	25.813	-92.350	54.941	41.946	-94.047	-87.897	24.288	6.725	-90.185	-85.828	-82.924	-77.996	-23.711	-81.245	-8191	255	
3278.473	1	1	0	0	0.028265	0.22216	0.044404	0.14876	0.12408	0.1307	0.25796	0.11095	0.086356	0.11226	0.13119	0.13397	0.085943	0.088165	0.22452	0.066993	-1.9854	-2.7542	-2.4417	-2.6792	-2.6312	-2.4313	-3.0333	-2.6875	-2.3083	-2.9	-2.6813	-2.7896	-2.7917	-2.65	-2.8125	-2.6604	-15.690	102.529	122.825	-104.443	-48.845	-6.406	214.119	247.213	15.167	96.296	75.969	-74.425	-88.341	220.901	172.195	19.539	0.00046737	0.00030762	0.00019268	856.57	7.0291e-06	4.4659e-06	1010.2	313.45	1.0656e-05	2.8029e-06	399.05	147.76	115.93	42.284	6.461e-06	59.531	0.00013328	0.00011129	3.6366e-05	702.73	1.2715e-06	1.2969e-06	846.12	262.63	1.4264e-06	1.2895e-06	331.61	123.01	96.692	35.648	1.6289e-06	50.073	-13.205	-0.500	-16.068	-93.494	51.374	48.387	-94.159	-87.597	-24.608	22.933	-89.904	-85.874	-83.217	-77.769	-0.075	-81.276	-8191	255	
3278.569	1	1	0	0	0.14373	0.17931	0.1612	0.062975	0.13223	0.059783	0.20877	0.19147	0.12925	0.088206	0.20514	0.23385	0.32745	0.20759	0.10743	0.11109	-2.0438	-2.7417	-2.3792	-2.6833	-3.0042	-2.6521	-2.9625	-2.9146	-2.3042	-2.8896	-2.5458	-2.8042	-2.9396	-2.5396	-2.6979	-2.9667	-46.196	-9.139	191.400	-58.529	70.940	27.368	106.543	-71.006	247.225	67.192	-14.584	187.483	209.504	214.662	3.790	-40.989	0.00045852	0.00065878	0.00016236	874.76	3.0513e-06	5.8957e-06	1010.5	313.68	6.001e-06	5.3188e-06	402.46	149.02	116.73	43.243	4.8777e-06	61.241	0.00014455	0.00012665	4.1746e-05	705.09	1.3052e-06	1.3971e-06	844.87	263.25	1.4275e-06	1.5108e-06	333.98	124.24	97.607	36.26	1.719e-06	50.974	5.549	-10.416	-0.103	-92.791	-7.468	59.577	-93.751	-87.677	-26.736	42.459	-90.137	-85.743	-83.400	-78.499	88.045	-81.053	-8191	255	
3278.665	1	1	0	0	0.27083	0.17052	0.10168	0.21714	0.14151	0.42952	0.16976	0.12821	0.11123	0.098839	0.12688	0.22737	0.26036	0.34366	0.13052	0.10758	-1.8271	-2.7979	-2.7	-2.6396	-3.0771	-2.6063	-2.9375	-2.7792	-2.525	-2.95	-2.7687	-2.6562	-2.9313	-2.5604	-2.5479	-3.0208	150.118	25.910	145.961	220.940	94.489	-64.664	209.676	70.039	-53.800	-69.817	-1.364	203.366	-100.003	236.802	19.155	187.402	0.00044163	0.000971	0.00023694	868.39	4.4073e-06	1.1801e-06	1018.5	317.21	3.2258e-06	2.2976e-06	406.65	153.3	118.98	43.902	4.3302e-06	62.623	0.00014504	0.00015347	4.421e-05	705.91	1.4605e-06	1.7328e-06	852.13	265.62	1.5174e-06	1.7566e-06	338	127.27	99.19	36.918	1.7728e-06	52.055	-0.244	-3.530	-28.419	-92.345	39.383	-64.235	-94.227	-87.557	-101.468	-28.457	-89.955	-85.694	-83.460	-78.133	-3.921	-81.037	-8191	255	
3278.761	1	1	0	0	0.16936	0.18312	0.014206	0.062577	0.094456	0.05064	0.1826	0.18426	0.11142	0.17827	0.31478	0.49675	0.12706	0.31134	0.23193	0.32179	-2.1208	-2.9333	-2.5708	-2.4208	-2.9854	-2.7271	-2.7229	-2.9	-2.3229	-2.9208	-2.7958	-2.5854	-2.8708	-2.4688	-2.7583	-2.8625	-54.376	191.809	-50.137	116.805	215.629	101.656	171.441	210.884	113.453	5.384	139.026	-95.964	237.161	215.340	43.662	175.180	0.00055374	0.00030978	4.9835e-05	880.75	3.1455e-06	8.7604e-06	1024.7	319.36	1.8414e-06	4.4863e-06	406.22	153.62	119.68	43.81	5.45e-06	61.555	0.0001604	0.00017065	4.4139e-05	717.62	1.5538e-06	1.8918e-06	857.19	267.38	1.7012e-06	1.9489e-06	338.73	127.77	100.02	37.064	1.8046e-06	51.43	1.785	-26.288	-78.378	-93.144	36.772	80.429	-93.850	-87.602	92.944	37.531	-90.230	-85.817	-83.491	-78.125	84.867	-81.216	-8191	255	
3278.882	1	1	0	0	0.11953	0.032727	0.10094	0.1686	0.088788	0.078566	0.24913	0.23673	0.24599	0.10919	0.2301	0.17087	0.10541	0.011223	0.040739	0.13857	-1.9771	-2.8208	-2.675	-2.4583	-2.9375	-2.5333	-2.725	-2.8875	-2.35	-2.7396	-2.8396	-2.4375	-2.8229	-2.6	-2.7021	-2.8708	226.501	233.387	109.156	149.667	171.479	77.582	-55.048	240.171	-83.598	222.341	217.143	-91.302	-92.996	87.491	49.352	205.740	0.00036469	0.00011882	5.672e-05	879.75	1.1474e-06	2.4115e-06	1001.8	320.43	7.8208e-06	6.595e-06	405.64	152.61	119.74	44.09	5.6469e-06	61.99	0.00017981	0.00018352	4.5042e-05	707.34	1.7668e-06	1.959e-06	844.94	267.53	1.8315e-06	1.9683e-06	337.88	127.54	100.39	37.022	1.7355e-06	51.983	25.543	191.499	-78.785	-92.397	95.871	90.556	-93.801	-87.755	-62.126	35.879	-90.192	-85.709	-83.330	-77.908	47.404	-81.545	-8191	255	
3278.954	1	1	0	0	0.10792	0.1887	0.13824	0.11063	0.087365	0.14716	0.2736	0.15076	0.14383	0.25873	0.12133	0.20555	0.37242	0.18811	0.19332	0.046825	-2.1208	-2.65	-2.7333	-2.4938	-2.8	-2.6188	-2.8479	-3.1458	-2.6042	-2.6937	-2.875	-2.4396	-2.9021	-2.7542	-2.5896	-2.9813	-70.499	229.158	-58.397	151.526	141.641	168.838	220.908	145.990	-47.279	215.476	196.049	197.050	245.180	205.388	99.700	184.299	0.00035608	0.000776	0.00031607	883.26	8.4543e-06	5.8013e-06	1028.7	321.19	3.9119e-06	8.4688e-06	409.08	155.54	122.07	44.723	6.2247e-06	63.406	0.00019373	0.00017365	4.5259e-05	713.34	1.9606e-06	1.9443e-06	858.81	268.35	1.9532e-06	2.0074e-06	341.05	129.51	101.85	37.558	1.7615e-06	52.878	-16.649	-9.265	-19.284	-92.295	47.178	30.428	-93.922	-87.601	-80.456	32.812	-89.829	-85.953	-83.362	-77.680	-37.186	-81.583	-8191	255	
3279.050	1	1	0	0	0.1649	0.27172	0.047215	0.18638	0.13543	0.21925	0.060099	0.068732	0.031438	0.25705	0.10864	0.1061	0.11977	0.32714	0.14637	0.11938	-2.1771	-2.6792	-2.8479	-2.45	-2.925	-2.7354	-2.7396	-2.9562	-2.5854	-2.5187	-3.0417	-2.6688	-2.7458	-2.7583	-2.3646	-2.9313	250.146	-46.127	153.641	-89.028	37.837	46.663	-15.897	124.567	58.311	121.824	221.890	140.767	171.123	76.478	207.172	-20.951	0.00047476	0.00079516	0.00015066	872.44	5.7846e-06	5.3509e-06	1032.9	325.92	6.6997e-06	3.0241e-06	414.65	156.88	122.64	45.116	8.3804e-06	63.895	0.00020834	0.00017886	4.4487e-05	713.51	2.0925e-06	1.8798e-06	865.68	270.6	2.1672e-06	1.8527e-06	345.14	131.17	102.62	37.934	1.7192e-06	53.51	-16.390	39.927	-20.022	-93.183	22.669	56.639	-93.707	-87.588	25.073	-8.148	-89.694	-85.613	-83.507	-78.374	42.475	-81.006	-8191	255	
3279.171	1	1	0	0	0.078106	0.055553	0.23196	0.13895	0.072566	0.075538	0.35037	0.27331	0.10859	0.1014	0.25868	0.14845	0.17484	0.17624	0.17059	0.081555	-2.2458	-2.6167	-2.8896	-2.5208	-2.8125	-2.6813	-2.5104	-2.8792	-2.6813	-2.4938	-2.9396	-2.5292	-2.85	-2.6396	-2.5083	-3	240.381	-57.686	241.241	-102.868	-91.027	15.841	202.447	205.893	69.903	-19.537	201.348	214.767	136.195	-82.743	108.798	226.589	0.0006125	0.00017833	0.00015831	870.12	5.9518e-06	7.3423e-06	1022.6	317.93	4.3216e-06	1.2127e-05	407.8	153.78	121.13	44.17	4.822e-06	62.376	0.00020518	0.00016796	4.4226e-05	712.07	2.0236e-06	1.8023e-06	853.56	268.09	2.0773e-06	1.8894e-06	338.48	128.31	101.1	37.215	1.7958e-06	52.231	-9.092	-84.536	14.035	-93.086	68.924	-17.856	-94.028	-87.390	35.523	95.050	-90.176	-85.320	-83.301	-78.047	72.327	-80.791	-8191	255	
3279.265	1	1	0	0	0.11469	0.15664	0.16368	0.13213	0.098645	0.11376	0.29587	0.31163	0.2231	0.1289	0.069215	0.16318	0.18435	0.11161	0.17719	0.24112	-2.1625	-2.4604	-2.8354	-2.5396	-2.7771	-2.9354	-2.5542	-2.8063	-2.6979	-2.3833	-2.9167	-2.4646	-2.6354	-2.9062	-2.5438	-2.7083	-34.953	-7.098	76.201	-51.145	148.350	-3.434	195.615	165.241	-25.599	209.966	-101.692	-52.074	187.565	-23.069	160.730	152.752	0.00035388	0.00052811	0.00013471	870.18	4.3736e-06	5.9504e-06	1019.5	318.17	4.9671e-06	4.22e-06	408.67	154.15	121.32	44.433	8.0345e-06	62.984	0.00019773	0.00016815	4.5275e-05	719.31	2.1139e-06	1.873e-06	855.49	267.98	2.1553e-06	1.8878e-06	340.24	129.11	101.6	37.402	1.9639e-06	52.874	3.772	8.875	88.235	-93.235	76.818	60.184	-94.373	-87.467	25.218	0.697	-90.165	-85.947	-83.183	-78.261	38.507	-81.091	-8191	255	
3279.363	1	1	0	0	0.33684	0.078552	0.20073	0.074362	0.28836	0.096434	0.39911	0.11619	0.10115	0.16448	0.1033	0.13658	0.45395	0.18177	0.1418	0.037014	-2.3229	-2.5167	-2.8104	-2.3292	-2.5875	-2.8167	-2.5312	-2.9938	-2.675	-2.4062	-2.8354	-2.6521	-2.7188	-2.8063	-2.3958	-2.8792	136.582	199.415	-84.146	120.445	-76.371	250.212	174.630	236.996	-16.965	-95.717	202.249	224.649	238.940	200.610	222.436	102.064	0.0002917	0.00073485	0.00014603	879.83	5.3567e-06	1.7601e-06	1030.4	322.77	8.6135e-06	4.1939e-06	414.08	157.09	122.23	44.965	4.2873e-06	64.026	0.00019705	0.0001754	4.8826e-05	723.58	1.9609e-06	1.7326e-06	861.4	270.09	1.965e-06	1.8417e-06	343.72	130.89	102.22	37.755	2.0732e-06	53.704	-12.775	-10.743	-55.955	-93.572	17.588	-41.521	-93.933	-87.417	5.289	12.164	-89.842	-86.029	-82.996	-77.965	10.827	-81.136	-8191	255	
3279.482	1	1	0	0	0.060198	0.18016	0.094584	0.16625	0.13798	0.1985	0.28891	0.28606	0.092181	0.1152	0.094315	0.095191	0.21319	0.28632	0.13921	0.36255	-2.325	-2.2562	-2.7958	-2.4562	-2.5812	-2.8812	-2.6208	-2.8167	-2.6979	-2.3521	-3.0292	-2.8333	-2.5333	-2.9667	-2.4271	-2.8396	82.128	218.993	110.374	157.938	53.930	23.945	167.370	184.931	-41.374	36.031	203.968	204.194	230.324	149.096	39.096	-90.309	0.00037004	0.0007547	0.00010644	876.14	2.6753e-06	5.9624e-06	1028.3	321.23	3.7576e-06	5.9905e-06	411.65	155.47	120.81	44.06	1.0367e-05	63.385	0.0001941	0.0001711	5.4385e-05	726.93	2.0313e-06	1.8676e-06	864.75	270.18	2.0001e-06	1.932e-06	343.11	129.83	101.28	37.27	2.3126e-06	52.8	-2.848	-49.509	123.213	-93.207	102.459	-12.017	-93.924	-87.701	-22.418	39.226	-89.730	-85.726	-83.427	-78.150	48.812	-81.722	-8191	255	
3279.578	1	1	0	0	0.17429	0.16641	0.19486	0.27166	0.1842	0.30834	0.17291	0.010561	0.2274	0.14377	0.24221	0.34046	0.077593	0.21076	0.18581	0.12534	-2.4	-2.3917	-2.8708	-2.5187	-2.6521	-2.7208	-2.6021	-2.7729	-2.9042	-2.4813	-2.9542	-2.6396	-2.6937	-2.9021	-2.425	-2.7687	6.990	218.652	34.450	177.722	98.180	105.109	125.438	195.706	65.886	219.788	88.436	190.851	112.476	-81.416	52.389	-32.593	0.00045462	0.00039005	5.3727e-05	862.49	8.2129e-06	1.4069e-06	1014.9	317.67	5.7631e-06	7.1735e-06	404.9	153.16	119.7	43.643	3.4368e-06	61.864	0.0001983	0.00018006	5.6696e-05	709.77	1.9223e-06	1.9471e-06	851.54	266.1	1.8818e-06	1.9542e-06	338.57	127.84	100.44	36.942	2.3225e-06	52.034	3.246	-71.943	211.290	-92.326	74.160	74.715	-93.964	-87.423	-29.211	5.933	-90.055	-85.653	-83.559	-78.322	89.959	-81.359	-8191	255	
3279.650	1	1	0	0	0.28459	0.15771	0.093944	0.14023	0.37967	0.2526	0.24008	0.28779	0.18914	0.039857	0.31408	0.22436	0.028959	0.11579	0.050569	0.025549	-2.4792	-2.5104	-2.7771	-2.7625	-2.5771	-3.1292	-2.7458	-2.6458	-2.8812	-2.3625	-3.0312	-2.7333	-2.5875	-2.975	-2.475	-2.6458	195.870	168.145	-5.834	172.518	213.016	238.399	-101.490	217.268	146.774	-6.130	-68.214	211.930	21.262	125.614	-55.296	-87.430	0.0004456	0.00054538	9.0086e-05	856.13	3.2888e-06	5.1624e-06	1023.5	318.79	9.6059e-06	4.5271e-06	403.98	152.07	118.92	44.112	4.4634e-06	62.78	0.0001842	0.00019162	5.94e-05	712.19	1.9757e-06	2.146e-06	854.68	266.76	1.9483e-06	2.1843e-06	337.98	127.78	100.1	37.172	2.2856e-06	52.473	-8.392	5.695	-8.697	-93.359	62.299	21.881	-93.608	-87.425	19.734	89.736	-89.988	-85.996	-83.249	-77.914	-35.372	-81.630	-8191	255	
3279.770	1	1	0	0	0.074987	0.27677	0.0046966	0.28221	0.18171	0.15725	0.17423	0.29009	0.091593	0.18692	0.25685	0.26276	0.34984	0.30336	0.17489	0.36142	-2.4979	-2.5542	-2.5292	-2.9333	-2.4562	-2.9396	-2.5854	-2.6833	-3.0021	-2.5792	-2.7604	-2.7604	-2.4813	-2.8937	-2.6146	-2.5104	202.139	-37.892	247.825	19.400	186.977	62.398	186.657	121.194	-13.421	124.786	105.061	153.240	216.028	192.009	102.066	-80.337	0.0004538	0.0004504	0.00014049	856.29	5.9622e-06	1.2449e-06	1020.1	316.82	1.4609e-06	3.5052e-06	408.94	153.56	119.64	44.397	3.1541e-06	62.916	0.00019125	0.00021106	5.5488e-05	708.15	1.901e-06	2.1912e-06	854.61	265.42	1.8813e-06	2.205e-06	340.11	128.19	100.06	37.377	2.142e-06	52.606	-5.167	-96.438	11.695	-92.940	22.443	132.634	-93.873	-87.797	-26.668	253.318	-89.786	-85.870	-83.313	-77.656	109.112	-81.144	-8191	255	
3279.866	1	1	0	0	0.1854	0.35362	0.11195	0.11037	0.13584	0.13231	0.25372	0.095614	0.14849	0.15087	0.10624	0.050588	0.3185	0.11329	0.25046	0.11038	-2.3583	-2.5583	-2.6792	-2.8583	-2.4333	-2.8583	-2.7521	-2.6	-2.7938	-2.5229	-2.6813	-2.9437	-2.5875	-2.7104	-2.7521	-2.3271	219.988	-72.116	252.171	37.369	115.840	119.184	168.395	143.862	102.032	92.068	230.044	226.111	182.197	13.024	217.510	112.677	0.00036011	0.0006257	0.00012084	862.72	1.8711e-06	6.8881e-06	1007.9	311.84	3.4259e-06	4.1936e-06	396.83	148.36	115.43	42.739	7.3821e-06	60.797	0.00019256	0.00021341	5.4734e-05	705.51	2.0475e-06	2.3411e-06	845.98	262.05	1.9994e-06	2.3193e-06	331.08	123.9	97.097	36.271	1.9501e-06	50.756	-2.805	13.148	-49.033	-92.905	62.840	0.592	-94.029	-87.698	-46.808	49.758	-90.007	-85.702	-83.264	-78.439	-7.858	-81.087	-8191	255	
3279.962	1	1	0	0	0.25222	0.075212	0.22705	0.18943	0.11088	0.21731	0.22662	0.26163	0.21369	0.17277	0.11396	0.030312	0.18209	0.19054	0.17113	0.20902	-2.4208	-2.5125	-2.5104	-2.8438	-2.4625	-2.7292	-2.8208	-2.4938	-2.825	-2.5708	-2.7771	-3.0708	-2.7396	-2.8646	-2.8646	-2.6708	-71.156	-34.304	2.633	-70.946	-103.670	225.502	186.852	220.665	92.534	232.692	171.304	-22.136	225.774	-73.616	-26.496	168.163	0.00055825	0.00069542	0.0001976	866.24	4.3857e-06	4.5968e-06	1002.2	309.56	3.4018e-06	6.0148e-06	395.3	149.03	116.33	42.903	6.9155e-06	61.479	0.00019211	0.0001873	4.7381e-05	700.91	1.9408e-06	2.1147e-06	840.42	260.43	2.0578e-06	2.1369e-06	329.93	124.51	97.6	36.271	1.9109e-06	51.265	1.708	-24.974	-35.089	-92.845	96.118	27.268	-94.122	-87.336	-74.217	119.602	-89.786	-85.363	-83.471	-78.046	97.368	-81.541	-8191	255	
3280.059	1	1	0	0	0.12258	0.14464	0.21403	0.041911	0.13093	0.17763	0.29849	0.28914	0.069793	0.12932	0.1278	0.25986	0.31343	0.11905	0.06998	0.22807	-2.5438	-2.6396	-2.5604	-2.9625	-2.4667	-2.7521	-2.9771	-2.5062	-2.7979	-2.7854	-2.5187	-2.7583	-2.6167	-2.6667	-3.0438	-2.4792	246.302	44.972	6.479	224.765	-2.838	-44.054	248.953	-46.681	50.888	24.653	163.185	240.069	200.936	-86.497	-36.947	183.010	0.00044038	0.00080663	0.00011775	851.34	2.2924e-06	8.2668e-06	1017.3	311.99	9.1153e-06	1.1995e-05	403.13	150.66	117.05	43.733	2.0674e-06	62.43	0.00020783	0.00018793	4.6355e-05	698.93	2.1346e-06	1.9885e-06	847.14	261.3	2.1501e-06	2.01e-06	334.48	125.54	98.519	36.672	1.7999e-06	51.924	13.250	-19.943	50.471	-92.299	103.069	2.462	-93.904	-87.303	-89.187	52.856	-89.992	-85.953	-83.602	-78.241	76.418	-81.096	-8191	255	
3280.179	1	1	0	0	0.16407	0.14381	0.14614	0.074912	0.21596	0.15422	0.10496	0.17401	0.10027	0.15839	0.18675	0.27894	0.32221	0.3212	0.24895	0.13453	-2.5062	-2.7208	-2.5104	-3.0271	-2.3917	-2.7521	-2.8604	-2.5062	-2.7167	-2.7125	-2.5521	-3.0167	-2.6583	-2.4688	-2.8667	-2.5542	242.266	132.489	159.985	90.322	242.230	-87.293	-98.723	175.672	60.434	-103.672	60.696	192.921	191.153	-104.416	-99.043	-67.150	0.00043724	0.00064779	0.00017592	871.92	2.4841e-06	5.2436e-06	1024.7	314.22	7.2228e-06	8.0236e-06	404.5	151.9	117.91	43.452	9.2683e-06	61.548	0.00021312	0.0001777	4.686e-05	708.69	2.2075e-06	1.975e-06	856.13	264.34	2.1916e-06	1.9489e-06	335.33	126.82	98.602	36.612	1.6919e-06	51.427	3.806	-46.812	-26.872	-92.899	215.167	65.907	-94.030	-87.774	-9.421	33.779	-90.003	-85.687	-83.514	-77.820	7.769	-81.117	-8191	255	
3280.251	1	1	0	0	0.12215	0.14718	0.2432	0.204	0.1118	0.23039	0.32682	0.42782	0.26883	0.06498	0.10274	0.16654	0.2822	0.35402	0.10997	0.071498	-2.5563	-2.7667	-2.4375	-2.7917	-2.725	-2.6604	-2.9417	-2.5917	-2.8271	-2.6396	-2.5417	-2.8583	-2.8021	-2.5833	-2.7938	-2.5396	191.291	15.700	125.588	-51.195	-41.460	-36.964	-67.565	208.844	177.554	181.464	-98.370	-80.310	184.709	225.877	52.229	136.252	0.00061164	0.00049833	9.3488e-05	860.4	4.1673e-06	3.0613e-06	998.7	307.22	8.799e-06	6.4287e-06	396.43	147.71	115.02	42.878	6.0782e-06	60.754	0.00019913	0.00016174	4.2714e-05	702.2	2.0304e-06	1.8018e-06	837.66	259.37	2.0284e-06	1.7281e-06	328.6	123.71	96.624	35.952	1.6873e-06	50.726	-12.932	34.129	-28.936	-93.138	126.560	39.071	-93.913	-87.330	-39.353	72.001	-89.731	-85.991	-83.573	-77.960	53.053	-81.182	-8191	255	
3280.345	1	1	0	0	0.22811	0.24026	0.20191	0.16438	0.1985	0.09378	0.20617	0.19864	0.074645	0.11437	0.007626	0.22931	0.14745	0.25616	0.2191	0.099338	-2.2521	-2.6958	-2.5229	-2.7333	-2.5187	-2.6312	-3.0521	-2.5583	-2.6271	-2.9062	-2.5854	-2.8146	-2.8563	-2.4583	-2.9271	-2.5917	-61.705	200.947	-99.276	-30.060	207.559	-43.283	-91.246	114.379	27.353	199.831	179.395	236.294	223.295	231.585	61.577	187.801	0.0004085	0.00013296	6.2723e-05	865.56	7.7762e-06	6.2608e-06	1006	309.89	4.5187e-06	5.49e-06	394.28	148.78	115.29	43.113	1.8438e-06	61.018	0.00018813	0.0001558	4.4087e-05	705.72	1.8429e-06	1.7146e-06	840.11	260.21	1.8741e-06	1.6942e-06	329.84	124.55	96.758	36.213	1.8339e-06	51.1	-4.151	250.341	-12.225	-91.923	36.452	54.067	-93.979	-87.497	-21.461	62.243	-90.326	-86.190	-83.334	-78.258	35.515	-81.076	-8191	255	
3280.443	1	1	0	0	0.10705	0.29666	0.31052	0.043784	0.043398	0.12718	0.092542	0.29103	0.19097	0.22984	0.23712	0.26077	0.27362	0.22396	0.24482	0.30845	-2.2604	-2.825	-2.4562	-2.8396	-2.5792	-2.2708	-3.0312	-2.6896	-2.3833	-2.975	-2.6	-2.825	-2.8271	-2.4396	-2.6375	-2.7458	201.068	-40.971	246.021	239.905	172.355	-48.056	192.154	222.028	101.068	15.701	216.002	169.831	78.316	222.527	-82.412	-85.351	0.00025638	0.00079644	4.7177e-05	862.53	5.4423e-06	4.7255e-06	1008.3	312.16	4.3464e-06	6.1302e-06	398.93	149.7	115.86	43	4.1301e-06	60.824	0.0001817	0.00015535	4.6854e-05	704.95	1.8393e-06	1.7049e-06	845.72	260.51	1.7815e-06	1.6266e-06	331.49	124.79	96.796	36.074	1.8539e-06	50.611	-12.640	-3.448	239.950	-92.527	65.377	59.146	-94.043	-87.406	-25.178	32.097	-89.859	-85.563	-83.105	-77.881	40.706	-80.913	-8191	255	
3280.562	1	1	0	0	0.14921	0.12478	0.10685	0.019804	0.036106	0.19011	0.16507	0.13572	0.3895	0.074057	0.32332	0.21414	0.441	0.3332	0.233	0.11583	-2.1917	-2.8688	-2.65	-2.7812	-2.9	-2.6646	-3.0521	-2.825	-2.375	-2.9521	-2.6042	-2.8479	-2.9083	-2.5	-2.7625	-2.8896	40.166	-46.599	10.635	251.826	171.541	76.371	160.654	242.652	-26.587	0.742	-72.672	219.587	143.514	195.916	-70.418	149.737	0.00058671	0.00040235	8.2774e-05	842.28	5.1001e-06	4.4531e-06	998.9	309.99	5.1352e-06	3.0012e-06	395.49	148.67	114.48	42.485	8.9239e-06	60.4	0.00016517	0.00014338	4.7943e-05	700.39	1.6865e-06	1.6116e-06	838.36	259.1	1.6992e-06	1.6108e-06	329.19	123.07	95.853	35.782	1.8971e-06	50.436	6.082	9.451	-25.176	-92.663	76.917	51.345	-93.649	-87.546	35.444	58.443	-89.802	-85.901	-83.259	-78.050	29.320	-81.214	-8191	255	
3280.658	1	1	0	0	0.21392	0.13157	0.21483	0.049779	0.33149	0.16377	0.31139	0.071147	0.16461	0.087389	0.29928	0.18809	0.095043	0.14145	0.18431	0.18096	-2.0312	-2.6271	-2.5375	-2.5854	-2.7938	-2.5354	-2.9708	-2.8375	-2.5771	-2.8375	-2.6167	-2.5479	-2.9167	-2.7458	-2.7604	-2.8792	251.860	172.615	-71.701	-76.456	144.163	-56.488	171.324	-2.022	179.701	-98.129	252.204	-83.725	-19.099	-89.843	-63.713	149.728	0.00047003	0.00034567	0.00025352	849.72	2.5697e-06	3.7784e-06	1013.3	310.1	1.035e-06	3.5464e-06	397.49	149.71	115.97	43.061	4.8931e-06	61.181	0.00016645	0.00015463	5.0821e-05	695.67	1.5847e-06	1.7074e-06	844.53	259.94	1.657e-06	1.7068e-06	331.54	124.42	96.671	36.125	1.8849e-06	51.185	3.180	14.531	-89.569	-92.423	56.822	62.435	-94.125	-87.325	-30.100	51.383	-90.167	-85.370	-83.416	-77.760	8.471	-81.468	-8191	255	
3280.754	1	1	0	0	0.083739	0.040305	0.20081	0.34398	0.056373	0.14376	0.12026	0.11389	0.12432	0.2765	0.40008	0.3798	0.027846	0.20162	0.30538	0.088998	-1.9229	-2.7125	-2.5792	-2.4667	-2.9604	-2.4375	-2.8833	-2.9062	-2.5042	-2.8208	-2.6521	-2.4979	-2.8688	-2.6813	-2.7167	-2.6792	88.471	101.938	228.161	-103.496	-88.333	240.945	-51.009	-97.625	56.279	145.732	198.030	239.847	-62.388	248.758	207.526	180.543	0.00054249	0.00053205	0.00020229	852.84	7.6149e-06	9.184e-06	1020.9	311.33	6.0196e-06	4.6641e-06	404.23	150.31	115.73	43.54	9.4148e-06	62.056	0.00015542	0.00015317	4.6131e-05	698.94	1.5025e-06	1.834e-06	851.47	261.26	1.5668e-06	1.8039e-06	333.73	125.08	96.841	36.493	1.83e-06	51.677	-8.899	220.201	-26.965	-93.136	57.415	29.118	-93.777	-87.507	-36.472	-56.704	-90.008	-85.647	-83.081	-77.960	67.893	-81.168	-8191	255	
3280.851	1	1	0	0	0.164	0.17859	0.054743	0.12725	0.074827	0.050262	0.18536	0.16238	0.19313	0.1825	0.091644	0.20045	0.18484	0.12489	0.082734	0.13307	-1.8687	-2.875	-2.6042	-2.6604	-2.9146	-2.4958	-2.6917	-2.7479	-2.4625	-2.8063	-2.85	-2.5708	-2.9292	-2.6333	-2.5708	-2.9208	-104.234	-22.623	194.188	189.107	78.309	127.600	196.009	173.743	80.114	226.901	48.627	228.984	151.360	233.444	-59.080	65.867	0.00042045	0.00062684	0.00012795	867.45	5.6114e-06	5.0233e-06	1029.3	312.42	3.7705e-06	2.9747e-06	400.54	149.49	115.06	43.203	3.6536e-06	60.465	0.00015962	0.00017348	4.5116e-05	706.89	1.6015e-06	1.9032e-06	859.39	261.98	1.661e-06	1.8675e-06	333.09	124.49	95.951	36.42	1.684e-06	50.795	-4.270	15.857	-32.404	-93.177	65.979	8.692	-93.786	-87.741	-9.799	-14.906	-90.068	-85.217	-83.076	-78.052	19.302	-81.199	-8191	255	
3280.947	1	1	0	0	0.19575	0.15425	0.2251	0.1194	0.29157	0.069264	0.26356	0.12175	0.06924	0.26078	0.15233	0.21012	0.037917	0.21945	0.23562	0.19475	-1.9375	-2.8167	-2.6458	-2.4396	-2.9708	-2.5979	-2.7208	-2.9354	-2.3563	-2.6021	-2.8542	-2.5458	-2.8167	-2.6104	-2.5625	-2.9729	36.432	79.119	58.805	-77.657	-81.182	102.647	144.602	-85.751	105.107	85.737	141.732	-99.471	24.990	176.875	160.154	182.143	0.00037508	0.00041363	0.00022778	850.62	1.8167e-06	5.0923e-06	1005.2	305.53	5.6204e-06	6.6603e-06	392.43	144.61	111.88	42.272	4.7424e-06	59.2	0.00016279	0.00016781	4.2064e-05	694.27	1.6568e-06	1.8051e-06	837.42	256.21	1.7404e-06	1.8208e-06	323.92	120.35	93.705	35.372	1.575e-06	49.359	-30.554	-35.076	35.504	-93.039	85.538	-0.058	-93.786	-87.740	15.159	23.321	-89.969	-85.882	-82.930	-77.637	5.963	-81.120	-8191	255	
3281.043	1	1	0	0	0.11066	0.076456	0.21455	0.03136	0.088384	0.088789	0.22167	0.17136	0.32297	0.13551	0.14093	0.14294	0.26899	0.16233	0.11075	0.38939	-1.9542	-2.6688	-2.7708	-2.5062	-2.8708	-2.7188	-2.6104	-3.0104	-2.4104	-2.775	-3.0583	-2.4167	-2.8312	-2.6625	-2.5583	-2.9458	137.263	-71.832	-40.584	42.219	123.163	-47.398	227.294	169.046	80.568	244.934	182.750	-98.941	199.588	4.305	247.344	215.643	0.00045622	0.00052977	0.00010798	845.14	5.3478e-06	3.2695e-06	993.97	303.88	8.1495e-07	9.7415e-06	387.11	141.93	110.58	42.178	7.0946e-06	59.267	0.00017349	0.00015261	3.9406e-05	688.09	1.7664e-06	1.6913e-06	831.92	253.01	1.7753e-06	1.7196e-06	320.94	118.41	92.744	35.314	1.6121e-06	49.348	-18.137	6.264	-3.248	-92.695	59.908	93.432	-94.051	-87.657	3.197	37.144	-89.736	-85.588	-82.920	-77.805	62.751	-81.194	-8191	255	
3281.163	1	1	0	0	0.23913	0.11672	0.3031	0.14214	0.1204	0.084743	0.12774	0.0016181	0.10139	0.086122	0.35283	0.18002	0.23432	0.11864	0.20251	0.11164	-2.1229	-2.5938	-2.8521	-2.3063	-2.7583	-2.7729	-2.6104	-2.9104	-2.4792	-2.6813	-2.8146	-2.6437	-2.9167	-2.8375	-2.6167	-2.9125	-84.027	-64.895	-95.202	76.845	185.515	77.940	-91.082	180.000	95.850	-60.898	218.916	26.099	237.395	212.261	48.481	132.844	0.000482	0.00015402	0.00019152	842.62	9.0064e-07	9.2404e-06	1003.3	301.42	4.9622e-06	7.6934e-06	385.01	141.93	109.73	42.057	1.0102e-05	59.754	0.00017786	0.00015166	3.8996e-05	687.98	1.8253e-06	1.619e-06	835.49	251.29	1.7942e-06	1.5477e-06	319.13	118.2	91.938	35.324	1.4359e-06	49.777	19.010	131.852	-23.638	-92.809	-29.491	69.334	-93.825	-87.544	-63.091	59.433	-89.817	-85.478	-83.147	-78.158	56.344	-80.579	-8191	255	
3281.260	1	1	0	0	0.27091	0.19127	0.17927	0.090653	0.017506	0.33439	0.31696	0.12196	0.11541	0.14383	0.17103	0.25934	0.43212	0.30697	0.064739	0.17605	-1.9875	-2.5917	-2.875	-2.3187	-2.75	-2.7	-2.5979	-2.925	-2.7167	-2.5292	-3.0271	-2.575	-2.7354	-2.9604	-2.4313	-2.8	92.751	-21.195	35.822	199.262	154.255	8.573	234.571	172.281	137.278	163.352	-90.421	246.368	200.955	-100.023	-51.707	198.746	0.00050034	0.00083448	0.00018833	860.72	3.8787e-06	6.0252e-06	995.44	299.59	6.199e-06	6.1e-06	383.46	140.22	108.31	41.222	3.8189e-06	58.007	0.00016956	0.00014239	3.5091e-05	695.78	1.6951e-06	1.533e-06	835.21	250.41	1.7761e-06	1.5718e-06	317.03	116.7	90.815	34.721	1.4462e-06	48.436	-3.859	-20.017	-42.027	-92.513	21.504	61.186	-94.049	-87.594	71.932	44.361	-90.153	-85.936	-83.226	-77.783	-40.694	-81.269	-8191	255	
3281.354	1	1	0	0	0.10167	0.089691	0.11616	0.15527	0.13803	0.17017	0.17459	0.10123	0.19712	0.1579	0.16139	0.27666	0.16422	0.23332	0.13842	0.15791	-2.0854	-2.6104	-2.8438	-2.4938	-2.6896	-2.8396	-2.4771	-2.7104	-2.4896	-2.7125	-2.7562	-2.6833	-2.5729	-2.8937	-2.3708	-2.8542	27.789	15.242	-94.681	190.654	-89.540	-84.797	195.592	214.265	87.970	-2.152	-49.132	-105.466	-102.122	248.741	75.360	62.293	0.00040466	0.00052402	0.00014468	838.7	4.0853e-06	3.9395e-06	990.86	296.14	1.0313e-06	2.2448e-06	380.43	138.33	107.47	40.989	5.8521e-06	57.632	0.00016418	0.00013895	3.5131e-05	687.2	1.651e-06	1.4525e-06	826.91	247.98	1.5694e-06	1.5164e-06	312.66	115.34	89.932	34.479	1.4827e-06	48.361	-31.236	-1.047	-26.332	-92.542	109.354	92.615	-93.751	-87.643	-61.800	30.278	-89.905	-85.711	-82.733	-78.086	-8.677	-80.715	-8191	255	
3281.450	1	1	0	0	0.14815	0.078328	0.26975	0.01665	0.21671	0.16951	0.06456	0.24621	0.11661	0.14818	0.075009	0.12304	0.103	0.10439	0.18345	0.2127	-2.3583	-2.5604	-2.9583	-2.5354	-2.5458	-2.8667	-2.4667	-2.7562	-2.6292	-2.5125	-2.9167	-2.6167	-2.6875	-2.9729	-2.3521	-2.8479	-57.297	144.672	139.070	75.426	217.230	-104.750	136.904	181.141	37.489	-44.184	151.588	223.360	184.287	176.350	108.397	222.555	0.00046336	0.00050832	0.0001903	849.55	1.1113e-05	6.8202e-06	996.26	298.97	7.0974e-06	6.2088e-06	379.97	138.85	107.48	41.533	7.5506e-06	58.195	0.00015982	0.00013402	3.7828e-05	688.95	1.5412e-06	1.4233e-06	832.28	249.64	1.6537e-06	1.4635e-06	315.89	116.26	90.327	34.794	1.6731e-06	48.827	22.152	36.453	-29.871	-92.737	37.757	60.339	-94.067	-87.551	36.440	19.251	-89.953	-85.766	-83.364	-78.313	27.335	-80.715	-8191	255	
3281.546	1	1	0	0	0.29321	0.1105	0.32646	0.038509	0.092777	0.13492	0.053806	0.28152	0.20584	0.0060733	0.28662	0.30906	0.23204	0.1499	0.22661	0.25243	-2.3208	-2.5021	-2.7375	-2.5833	-2.5396	-2.8458	-2.6146	-2.8083	-2.8271	-2.5542	-2.9854	-2.5833	-2.5458	-2.8292	-2.2646	-2.7896	-0.219	202.685	-47.404	-69.329	225.917	-11.699	154.551	236.956	58.471	-103.438	170.378	-55.996	-102.704	-48.425	149.180	245.943	0.00044929	0.00053887	0.00014797	847.66	1.8342e-06	1.5503e-06	1005.3	302.41	8.9764e-06	5.3774e-06	382.77	142.34	109.88	41.778	8.6712e-06	59.276	0.00015587	0.00013212	4.3076e-05	694.19	1.5107e-06	1.4548e-06	838.7	252.26	1.6165e-06	1.5314e-06	321.38	118.64	91.837	35.06	1.8331e-06	49.26	-10.645	0.365	-24.443	-92.796	131.759	0.287	-94.154	-87.564	6.921	57.479	-90.204	-85.824	-83.249	-77.571	47.419	-81.096	-8191	255	
3281.642	1	1	0	0	0.050492	0.16368	0.18882	0.24213	0.112	0.16886	0.11024	0.12363	0.21323	0.13219	0.23147	0.2548	0.29641	0.16396	0.29463	0.038155	-2.1958	-2.3271	-2.7021	-2.6021	-2.5396	-2.8021	-2.5125	-2.7417	-2.8646	-2.2229	-2.7458	-2.6875	-2.6167	-2.8958	-2.3708	-2.6604	124.195	-102.219	144.504	185.769	-6.906	49.605	-102.305	-75.813	28.572	94.251	98.282	65.693	-98.110	127.681	238.308	179.984	0.00041986	0.00046706	0.00024173	848.84	3.8618e-06	5.217e-06	991.3	296.31	4.4592e-06	6.7565e-06	377.75	138.48	107.82	41.141	8.0605e-06	57.778	0.00015928	0.00014004	4.5771e-05	689.93	1.535e-06	1.5202e-06	830.5	248.27	1.508e-06	1.5438e-06	314.29	115.54	90.091	34.638	1.8255e-06	48.13	-1.314	5.374	-29.827	-92.311	103.454	18.532	-93.674	-87.411	-35.556	7.875	-90.049	-85.756	-83.168	-78.074	28.998	-81.237	-8191	255	
3281.739	1	1	0	0	0.068763	0.024907	0.25842	0.23106	0.21982	0.071739	0.17806	0.16186	0.10719	0.16795	0.090347	0.12992	0.28065	0.31657	0.09637	0.067388	-2.4625	-2.3854	-2.6896	-2.6688	-2.5625	-2.9521	-2.8458	-2.6417	-2.6375	-2.6792	-2.6063	-2.7583	-2.4729	-2.9	-2.3937	-2.6437	112.758	75.781	77.832	114.418	-40.499	-66.072	95.834	169.662	47.659	42.580	215.185	114.250	207.960	-104.063	38.831	224.885	0.00040943	0.00075363	0.00025762	840.34	5.6177e-06	2.4054e-06	990.02	296.43	1.2587e-06	3.1429e-06	381.72	139.16	108.59	41.471	1.0836e-05	58.516	0.00015609	0.0001539	4.5842e-05	688.33	1.5546e-06	1.6517e-06	829.49	248.73	1.5733e-06	1.7974e-06	316.3	116.46	90.874	34.839	1.783e-06	48.89	3.644	-18.836	2.404	-93.119	64.975	86.048	-94.165	-87.390	8.301	83.861	-89.902	-85.861	-82.840	-78.065	3.717	-81.113	-8191	255	
3281.859	1	1	0	0	0.1698	0.28162	0.11765	0.18661	0.07489	0.096113	0.40957	0.047682	0.094583	0.088857	0.013355	0.13239	0.1746	0.12999	0.097281	0.16751	-2.2313	-2.4979	-2.6625	-2.6667	-2.4292	-2.9021	-2.6437	-2.6354	-2.8812	-2.5625	-2.8896	-2.7833	-2.5021	-2.7792	-2.6792	-2.5646	67.751	24.688	245.786	242.679	-32.243	-45.366	-104.616	248.413	132.447	52.247	80.463	106.925	-97.439	199.117	187.891	157.145	0.00041156	0.0004811	0.00020695	842.52	7.4778e-07	6.1664e-06	997.76	298.14	7.5725e-06	3.9506e-06	378.81	140.53	109.19	41.957	3.8784e-06	59.029	0.00015564	0.00016403	4.4525e-05	686.26	1.5728e-06	1.8253e-06	832.96	248.7	1.5363e-06	1.821e-06	317.67	117.65	91.22	35.188	1.6392e-06	49.345	-11.510	-27.338	-36.037	-92.945	-2.037	-45.080	-93.867	-87.832	-71.479	132.727	-89.785	-85.738	-83.065	-78.064	108.381	-81.111	-8191	255	
3281.955	1	1	0	0	0.11419	0.052608	0.049863	0.11199	0.079233	0.1536	0.16806	0.038969	0.043606	0.057377	0.17523	0.34415	0.1533	0.078905	0.16647	0.048787	-2.3667	-2.4437	-2.7062	-2.6854	-2.4562	-2.7333	-2.9646	-2.3917	-2.8833	-2.6167	-2.7667	-2.95	-2.35	-2.7625	-2.5292	-2.4833	252.984	119.898	-17.450	76.477	15.911	161.080	208.087	171.177	-19.599	112.352	159.081	203.572	190.215	-77.530	108.257	208.470	0.00055082	0.00083481	0.00013834	855.32	6.11e-06	5.5181e-06	1004.1	296.19	1.4469e-06	8.2174e-06	380.42	139.21	106.89	41.52	2.8241e-06	57.981	0.00015563	0.00016754	4.101e-05	693.35	1.5957e-06	1.8851e-06	840.83	248.58	1.6189e-06	1.8522e-06	315.87	115.86	89.765	34.813	1.6042e-06	48.399	-6.337	-8.393	-61.243	-93.049	65.943	-9.529	-93.751	-87.660	-88.592	68.492	-89.989	-86.075	-83.686	-77.735	39.209	-81.141	-8191	255	
3282.052	1	1	0	0	0.027676	0.24553	0.094382	0.091688	0.15047	0.1201	0.09837	0.037255	0.22796	0.11691	0.17591	0.12952	0.34456	0.19443	0.16826	0.0737	-2.4146	-2.5271	-2.5812	-3.025	-2.4646	-2.8812	-2.8042	-2.5729	-2.8417	-2.5354	-2.5792	-2.9479	-2.4688	-2.7417	-2.825	-2.5958	112.678	227.984	-91.853	169.912	140.823	-71.118	139.444	128.006	92.962	162.874	251.751	223.804	134.921	169.933	107.075	182.700	0.00052496	0.00015101	0.00022108	848.78	6.305e-06	1.8427e-06	986.17	290.99	1.5525e-06	3.9751e-06	376.33	136.4	105.91	40.966	1.3715e-06	57.25	0.00016484	0.00016485	4.0863e-05	684.08	1.7263e-06	1.7355e-06	824.82	243.94	1.7957e-06	1.7597e-06	312.33	113.99	88.768	34.463	1.5377e-06	47.898	-22.802	235.321	15.960	-92.706	56.109	56.421	-93.781	-87.555	11.203	31.337	-89.776	-85.899	-83.292	-77.774	61.936	-80.748	-8191	255	
3282.123	1	1	0	0	0.095551	0.24092	0.096835	0.30091	0.10401	0.22057	0.19948	0.12545	0.15957	0.096234	0.27602	0.12229	0.050729	0.106	0.16814	0.19141	-2.3604	-2.4646	-2.5604	-2.8625	-2.5375	-2.6354	-2.9854	-2.6604	-2.7792	-2.6208	-2.4562	-2.9688	-2.4562	-2.7417	-2.725	-2.6375	-35.454	134.428	205.089	222.485	216.441	111.747	192.268	240.715	145.200	77.578	-96.538	254.012	26.213	245.122	184.701	-5.910	0.00040439	0.00074175	0.00018076	833.97	5.9584e-06	8.6529e-06	991.57	291.92	8.0403e-06	6.0544e-06	378.3	137.88	107.28	41.224	7.0003e-06	58.034	0.00017475	0.00015845	3.9436e-05	684.74	1.8107e-06	1.6221e-06	828.42	245.06	1.8364e-06	1.6894e-06	313.49	115.1	89.602	34.558	1.5338e-06	48.494	-22.754	62.451	-3.523	-92.339	66.040	13.795	-93.946	-87.430	-72.057	63.357	-89.759	-85.174	-82.848	-78.531	98.020	-80.995	-8191	255	
3282.244	1	1	0	0	0.24425	0.1418	0.14643	0.087753	0.075508	0.13707	0.13602	0.33417	0.32114	0.14683	0.26152	0.079573	0.17706	0.12007	0.13984	0.20529	-2.5438	-2.6	-2.3333	-2.8167	-2.5333	-2.6979	-2.9458	-2.6104	-2.8958	-2.6729	-2.5875	-2.8667	-2.6542	-2.6917	-2.7833	-2.6	141.112	126.936	216.025	54.307	218.859	69.545	192.120	240.601	221.801	171.351	-66.446	217.964	-91.084	-81.281	96.866	126.703	0.00035466	0.00053058	0.0001513	845.5	2.9608e-06	7.9248e-06	996.55	294.94	1.2317e-06	6.8033e-06	376.93	138.74	105.42	41.088	3.5856e-06	57.193	0.00018017	0.0001491	3.8423e-05	689.01	1.7992e-06	1.6312e-06	831.98	247.37	1.872e-06	1.6521e-06	313.34	115.11	88.918	34.446	1.4943e-06	48.096	1.548	-27.620	10.172	-92.628	23.786	6.085	-94.010	-87.649	-50.726	65.624	-89.637	-85.647	-82.954	-78.229	117.883	-80.720	-8191	255	
3282.340	1	1	0	0	0.037892	0.15971	0.10442	0.19592	0.13291	0.35619	0.14303	0.29114	0.083353	0.17799	0.10434	0.41754	0.17702	0.074448	0.1317	0.16757	-2.1604	-2.8083	-2.5021	-2.8292	-2.5458	-2.5708	-2.9729	-2.3937	-2.5833	-2.9625	-2.7458	-2.9146	-2.7771	-2.3854	-2.9104	-2.7	70.708	170.414	174.715	-90.456	82.949	112.529	248.432	196.177	140.848	2.933	-65.672	190.909	203.935	-65.302	-42.426	5.697	0.00040722	0.00052203	0.00019706	831.46	5.5406e-06	5.4298e-06	979.52	292.6	7.1689e-06	9.7022e-06	376.18	138.36	107.58	40.872	7.458e-06	58.169	0.00018634	0.0001513	3.8755e-05	685.22	1.8101e-06	1.6137e-06	823.06	245.84	1.7731e-06	1.5971e-06	313.94	115.52	89.959	34.567	1.5766e-06	48.555	2.589	-18.989	-35.935	-92.405	61.659	58.538	-93.874	-87.797	12.729	38.974	-90.015	-85.597	-82.940	-78.123	-7.642	-81.083	-8191	255	
3282.434	1	1	0	0	0.13667	0.21179	0.12195	0.25879	0.078737	0.16611	0.13534	0.25642	0.22918	0.057633	0.1311	0.32687	0.081193	0.31029	0.23159	0.051784	-2.2812	-2.8354	-2.2208	-2.6458	-2.6312	-2.5104	-3.0083	-2.6021	-2.7375	-2.7604	-2.55	-3.0458	-2.7021	-2.4208	-2.8104	-2.6958	-72.615	187.100	-33.156	214.377	193.997	101.562	176.182	252.263	161.298	251.621	204.842	-75.931	-97.620	193.315	9.979	146.135	0.00033528	0.00033566	0.00015987	845.12	3.8849e-06	4.4265e-06	995.36	295.47	2.9263e-06	5.5412e-06	380.58	141.09	109.21	41.485	5.5074e-06	59.319	0.00018049	0.00015413	4.2694e-05	694.35	1.8463e-06	1.6334e-06	832.22	247.73	1.8522e-06	1.6572e-06	316.96	117.59	91.104	34.928	1.8056e-06	49.525	11.234	-77.099	-27.142	-92.517	63.508	-83.541	-93.828	-87.575	5.311	30.498	-89.653	-85.970	-83.119	-78.253	31.144	-81.010	-8191	255	
3282.531	1	1	0	0	0.14066	0.098026	0.21924	0.096686	0.14047	0.045118	0.26153	0.36228	0.037238	0.17154	0.13427	0.0931	0.36289	0.21277	0.11431	0.16255	-2.2729	-2.925	-2.5979	-2.8937	-2.9646	-2.5104	-2.9917	-2.7083	-2.6729	-2.8458	-2.6813	-2.65	-2.9042	-2.5042	-2.9229	-2.7729	126.291	70.903	242.076	-59.337	-78.882	34.706	200.349	-64.217	98.920	195.047	-27.380	132.827	200.901	239.544	-76.765	61.794	0.00052347	0.00075494	0.00011997	855.65	3.3075e-06	4.7268e-06	1003.4	299.15	1.152e-05	7.6012e-06	384.53	142.27	108.98	41.8	2.3794e-06	59.476	0.00018251	0.00015374	4.6932e-05	700.77	1.7953e-06	1.6915e-06	845.31	250.76	1.8787e-06	1.727e-06	321.23	118.87	91.354	35.121	2.0192e-06	50.044	17.333	-27.139	4.137	-92.859	84.441	8.416	-93.589	-87.721	-5.124	91.387	-89.808	-85.489	-83.047	-77.753	24.948	-81.263	-8191	255	
3282.651	1	1	0	0	0.1274	0.12998	0.302	0.21964	0.22864	0.14274	0.056776	0.18107	0.21524	0.12885	0.26041	0.10078	0.16252	0.38103	0.22662	0.13615	-2.1625	-2.8771	-2.5875	-2.7625	-2.8833	-2.5521	-3.0354	-2.7771	-2.4813	-3.1458	-2.5667	-2.8396	-2.975	-2.6917	-2.7667	-2.8833	-94.972	46.579	196.157	115.425	59.982	-71.710	-19.682	192.544	174.375	62.033	154.352	-103.671	154.592	-57.109	199.521	249.559	0.00045286	0.00096388	0.0001413	852.35	2.1799e-06	4.8351e-06	1013.6	297.28	2.2694e-06	7.2817e-06	383.33	141.42	108.72	41.558	7.288e-06	58.559	0.00017711	0.00016542	5.1639e-05	701.97	1.7898e-06	1.7813e-06	848.93	250.81	1.8734e-06	1.7988e-06	320.02	118.42	91.134	35.029	2.2227e-06	49.102	-0.314	6.747	-12.668	-93.157	152.277	-40.198	-94.371	-87.523	35.400	4.701	-90.245	-85.870	-83.143	-78.063	70.509	-80.807	-8191	255	
3282.747	1	1	0	0	0.13189	0.1051	0.26106	0.29333	0.082599	0.14466	0.20945	0.23275	0.16765	0.070723	0.167	0.12243	0.19873	0.17908	0.11309	0.023872	-2.3167	-2.9229	-2.4375	-2.75	-2.9062	-2.5354	-2.9729	-2.8021	-2.6312	-2.8646	-2.7167	-2.7979	-2.9396	-2.6771	-2.8604	-2.8563	-95.307	155.099	88.967	236.352	-70.102	215.080	240.081	209.016	-94.541	220.952	137.622	89.274	193.957	11.660	-13.581	153.561	0.00060879	0.00037406	0.0001508	845.3	5.3947e-06	2.8542e-06	995.69	291.97	2.137e-06	2.3028e-06	376.21	138.09	107.53	40.963	5.1364e-06	57.827	0.00018549	0.00017414	5.7914e-05	697.03	1.8629e-06	1.9572e-06	832.69	245.37	1.8752e-06	1.9597e-06	314.02	115.81	89.637	34.545	2.2095e-06	48.403	-9.724	78.806	-4.989	-91.984	25.224	26.658	-94.111	-87.641	106.788	-5.336	-90.311	-86.059	-83.141	-77.780	18.322	-80.994	-8191	255	
3282.843	1	1	0	0	0.14335	0.11314	0.37602	0.26054	0.20578	0.14001	0.24873	0.17429	0.1989	0.11437	0.15897	0.18522	0.17864	0.16643	0.27937	0.20043	-2.2479	-2.9708	-2.5375	-2.7	-2.9708	-2.8042	-2.7083	-2.875	-2.4667	-2.9354	-2.5896	-2.7354	-2.8438	-2.7479	-2.8542	-2.9542	200.776	-38.724	61.694	37.843	-29.482	195.389	126.718	236.440	-17.956	147.562	223.664	205.219	-102.403	179.337	-45.260	103.681	0.00049294	0.00031114	8.4644e-05	840.17	1.3087e-06	7.3689e-06	992.51	294.68	5.2552e-06	4.5123e-06	379.73	139.34	107.3	41.468	5.3728e-06	58.485	0.00018206	0.00018456	5.5001e-05	695.43	1.7534e-06	2.0726e-06	832.11	247.28	1.8104e-06	2.0652e-06	315.6	116.6	90.163	34.872	2.035e-06	49.002	-0.559	-4.931	22.320	-93.445	46.290	16.009	-94.286	-87.444	-27.407	20.303	-89.844	-85.995	-83.051	-78.073	22.152	-81.428	-8191	255	
3282.940	1	1	0	0	0.13077	0.11892	0.27222	0.1513	0.13779	0.21498	0.4544	0.29455	0.20626	0.27819	0.037644	0.088859	0.041797	0.091948	0.29482	0.080421	-2.0708	-2.9146	-2.6083	-2.5021	-2.9188	-2.5792	-2.8875	-2.8271	-2.5312	-2.9562	-2.6604	-2.4583	-2.9771	-2.5083	-2.4688	-2.7958	57.707	125.817	-53.313	11.984	-17.705	-74.139	177.219	143.651	-27.623	74.670	100.593	-48.206	-65.728	195.998	220.729	156.497	0.00047405	0.00065821	0.00016621	843.69	4.5256e-06	5.9487e-07	996.44	296.45	6.8187e-06	7.6386e-06	380.44	140.41	107.84	41.552	1.2174e-06	58.406	0.00017421	0.00018663	4.9541e-05	693.02	1.7311e-06	2.0437e-06	838.42	247.45	1.7536e-06	1.9986e-06	318.43	117.24	90.42	35.03	1.8729e-06	49.167	-17.680	16.385	-27.992	-93.104	28.020	-46.075	-93.940	-87.552	30.741	48.081	-89.815	-85.511	-82.806	-77.886	27.101	-80.555	-8191	255	
3283.036	1	1	0	0	0.025137	0.17051	0.098494	0.14355	0.19845	0.22783	0.27181	0.10164	0.11464	0.31236	0.16641	0.14051	0.21816	0.30506	0.048221	0.35768	-2.2854	-2.6646	-2.7229	-2.4979	-3.0312	-2.6396	-2.6271	-3.0583	-2.6604	-2.6729	-2.7708	-2.6521	-2.8333	-2.7021	-2.8	-3.0104	134.672	242.337	-92.776	56.894	66.467	111.132	171.839	153.014	113.350	247.509	-26.677	-30.747	224.974	247.923	154.209	164.967	0.00041742	0.00022075	0.00027682	859.58	2.3765e-06	4.0976e-06	995.43	293.32	8.704e-06	1.0768e-05	377.56	137.9	106.44	40.515	5.5103e-06	57.358	0.00017547	0.00018107	4.7338e-05	689.44	1.7237e-06	1.9815e-06	832.81	246.34	1.8789e-06	1.994e-06	313.55	115.06	89.072	34.304	1.8258e-06	47.959	-3.583	-54.727	-22.448	-92.696	42.087	36.274	-94.047	-87.938	-13.411	68.333	-89.909	-85.521	-83.342	-78.098	72.572	-80.979	-8191	255	
3283.132	1	1	0	0	0.12574	0.04465	0.088444	0.10934	0.1071	0.064668	0.20411	0.22621	0.1131	0.29318	0.19898	0.12879	0.082071	0.073635	0.10261	0.14914	-2.0667	-2.7708	-2.7479	-2.475	-3.0375	-2.4979	-2.7188	-3.1729	-2.4125	-2.7313	-2.8563	-2.3563	-2.8979	-2.7792	-2.3625	-3.0333	38.033	-76.678	45.384	150.149	147.573	197.206	191.441	226.004	-82.067	-73.904	169.495	-14.541	94.687	9.742	207.888	-79.811	0.00042918	0.00071562	0.00017673	836.46	3.2576e-06	4.8213e-06	989.51	293.06	7.2621e-06	4.5994e-06	380.75	137.67	106.93	41.084	1.4142e-06	57.602	0.00018789	0.00018981	4.2573e-05	684.99	1.8881e-06	1.8723e-06	828.08	244.96	1.9375e-06	1.9265e-06	314.74	114.94	89.689	34.508	1.6837e-06	48.512	4.813	4.770	0.685	-92.681	34.239	64.867	-93.653	-87.456	-4.016	37.496	-89.593	-85.724	-82.895	-78.052	40.782	-81.105	-8191	255	
3283.253	1	1	0	0	0.072281	0.22134	0.091925	0.22192	0.07802	0.14105	0.12889	0.030421	0.25333	0.2232	0.22759	0.19919	0.011826	0.30665	0.1825	0.24413	-2.2313	-2.5604	-2.7917	-2.5458	-2.8396	-2.7958	-2.6917	-2.9437	-2.6125	-2.7583	-2.9667	-2.4625	-2.8896	-2.7417	-2.275	-3.0042	17.291	-2.112	176.647	-77.125	19.683	17.091	139.288	58.257	22.031	16.972	-69.303	84.006	189.442	-30.153	-9.616	-72.592	0.0006012	0.00034535	0.00010402	852.85	2.0988e-06	2.1154e-06	994.14	293.15	5.4789e-06	3.1266e-06	382.87	139.26	106.67	41.165	8.769e-06	58.712	0.00019023	0.00016423	4.2848e-05	687.89	1.9438e-06	1.8132e-06	831.59	245.59	2.0182e-06	1.7658e-06	315.98	116.27	89.713	34.768	1.6288e-06	49.004	-4.965	14.258	-15.670	-92.160	-25.008	31.928	-93.921	-87.523	-0.292	0.604	-89.682	-85.489	-83.031	-78.055	128.142	-80.941	-8191	255	
3283.347	1	1	0	0	0.18622	0.13129	0.083183	0.087659	0.30552	0.048892	0.23211	0.21107	0.10267	0.11977	0.1561	0.22469	0.084252	0.054144	0.29311	0.32982	-2.1042	-2.6292	-2.8667	-2.6104	-2.8542	-2.6146	-2.4979	-3.0042	-2.5	-2.5333	-3.0312	-2.6833	-2.7396	-2.75	-2.5042	-2.8542	-21.475	-16.804	-65.431	183.138	38.572	-46.021	214.320	-79.177	183.028	230.512	249.141	230.379	-92.795	227.068	92.634	212.448	0.00029945	0.00046884	0.00011827	854.09	6.4297e-06	4.3478e-06	1008.8	295.99	2.0532e-06	5.7316e-06	383.04	140.33	106.87	41.101	5.7484e-06	57.946	0.00018868	0.00015901	3.9667e-05	693.44	1.9174e-06	1.7174e-06	842.3	247.98	1.9246e-06	1.724e-06	317.67	116.7	89.525	34.584	1.623e-06	48.643	37.354	-45.811	120.095	-92.303	60.399	21.050	-93.752	-87.160	-39.943	94.269	-89.905	-85.664	-82.782	-77.978	-27.121	-81.165	-8191	255	
3283.419	1	1	0	0	0.0428	0.38423	0.16516	0.070007	0.034225	0.21134	0.07864	0.18359	0.053251	0.12569	0.10588	0.21975	0.13814	0.09659	0.066203	0.18428	-2.2208	-2.55	-2.9292	-2.7438	-2.5167	-2.9437	-2.5229	-2.9021	-2.3917	-2.4958	-2.9562	-2.7208	-2.5458	-2.9292	-2.2604	-2.9208	253.505	-101.790	195.746	67.030	-15.498	198.625	202.118	-96.190	171.828	36.150	-35.882	-41.653	-96.576	244.330	62.222	152.048	0.0003269	0.0005104	0.00016824	840.69	6.0843e-06	3.2334e-06	990.07	291.33	5.3888e-06	2.7485e-06	374.06	135.57	104.88	40.176	5.6855e-06	56.673	0.00018351	0.00015247	3.9591e-05	689.78	1.8157e-06	1.6202e-06	826.8	243.93	1.8018e-06	1.5933e-06	310.91	113.32	87.621	33.885	1.5866e-06	47.563	8.988	72.777	5.100	-92.225	73.946	-4.564	-94.122	-87.228	21.394	87.494	-90.212	-85.536	-83.198	-77.581	-68.620	-80.496	-8191	255	
3283.515	1	1	0	0	0.089144	0.2181	0.39421	0.076192	0.14986	0.11273	0.14986	0.33205	0.092255	0.14607	0.26804	0.28278	0.2403	0.073504	0.067402	0.22419	-2.3792	-2.3	-2.9125	-2.6896	-2.6292	-2.9083	-2.7687	-2.7542	-2.6813	-2.4292	-2.7958	-2.6708	-2.7687	-3.0396	-2.5271	-2.7396	163.319	-6.579	110.611	227.959	11.600	149.868	70.556	174.506	191.373	77.372	202.019	240.543	196.723	10.516	47.100	170.230	0.00034223	0.00029185	0.00021565	835.47	3.0851e-06	6.2129e-06	993.74	290.15	1.4197e-05	8.7286e-06	372.95	136.46	104.78	40.618	7.9305e-06	57.426	0.0001624	0.00014049	3.8995e-05	682.13	1.6099e-06	1.4597e-06	826.51	243.15	1.641e-06	1.5022e-06	311.56	113.42	87.872	34.143	1.663e-06	48.12	-5.258	107.744	47.994	-92.770	106.785	5.990	-93.943	-87.598	-16.222	2.979	-90.052	-85.737	-82.924	-77.798	-26.285	-80.641	-8191	255	
3283.635	1	1	0	0	0.11761	0.10287	0.16686	0.12738	0.078525	0.080142	0.12442	0.18901	0.13001	0.049003	0.12618	0.085058	0.28776	0.27845	0.1685	0.26502	-2.2042	-2.5438	-2.9167	-2.6083	-2.6937	-2.8229	-2.7354	-2.8833	-2.8354	-2.6729	-2.7771	-2.6146	-2.6771	-2.8083	-2.4229	-2.9021	243.134	33.314	4.004	73.683	87.017	119.463	206.333	244.066	54.516	252.633	189.248	201.398	173.820	230.484	-80.299	112.873	0.00047355	0.00064718	0.00025701	838.81	3.971e-06	3.1232e-06	1001.2	288.76	6.3133e-06	2.7072e-06	374.85	136.41	104.87	41.001	1.0265e-05	57.754	0.00015975	0.00013247	4.2754e-05	688.92	1.5525e-06	1.4266e-06	835.18	242.9	1.5522e-06	1.4025e-06	312.61	113.66	87.446	34.304	1.6753e-06	48.329	4.030	-19.274	-5.164	-92.452	93.752	57.705	-93.792	-87.287	23.846	7.592	-89.694	-85.592	-82.308	-77.845	44.806	-80.692	-8191	255	
3283.732	1	1	0	0	0.14238	0.071166	0.03825	0.075125	0.14452	0.21706	0.17512	0.23958	0.24294	0.20452	0.20553	0.071726	0.3955	0.20337	0.20322	0.15721	-2.1729	-2.475	-2.6542	-2.5396	-2.6458	-2.8187	-2.6917	-2.8354	-2.85	-2.5292	-2.8625	-2.7208	-2.5917	-2.8896	-2.3458	-2.4938	39.138	-14.510	249.591	-101.657	35.770	-8.994	217.957	235.080	149.588	59.019	-87.739	-43.741	-91.461	237.509	208.042	124.171	0.00037791	0.00040177	7.2681e-05	846.2	1.1033e-06	4.7868e-06	1000.7	287.57	7.3184e-06	5.5224e-06	371.63	132	102.18	39.49	7.1651e-07	56.433	0.00014728	0.00013426	4.3977e-05	689.63	1.4314e-06	1.4364e-06	831.6	240.1	1.4323e-06	1.4559e-06	307.38	110.68	85.314	33.363	1.693e-06	46.926	-15.389	-32.654	-15.450	-92.658	-74.483	33.093	-93.722	-87.123	6.530	10.539	-89.621	-85.430	-83.068	-77.588	152.141	-80.986	-8191	255	
3283.828	1	1	0	0	0.1872	0.29834	0.043143	0.21445	0.27799	0.15674	0.10109	0.29751	0.070566	0.086183	0.2767	0.21425	0.051939	0.15856	0.064688	0.25524	-2.425	-2.2417	-2.8063	-2.6479	-2.4437	-2.8063	-2.6479	-2.8583	-2.7229	-2.5125	-2.8583	-2.7646	-2.6604	-2.9292	-2.4708	-2.5521	198.606	108.690	106.792	90.293	-12.630	37.277	22.644	221.440	108.117	-19.370	236.794	-54.276	130.842	-97.188	-5.412	183.321	0.00054059	0.00080814	0.00013296	833.64	5.5607e-06	5.9781e-06	989.58	281.97	7.4285e-06	6.036e-06	364.5	130.33	101.16	39.745	4.2446e-06	55.901	0.00013868	0.00013935	4.1217e-05	675.69	1.3217e-06	1.5053e-06	821.92	236.61	1.4159e-06	1.4919e-06	303.54	108.87	84.434	33.336	1.65e-06	46.845	-9.727	-4.502	-11.211	-92.270	71.985	43.525	-93.680	-87.351	-35.339	46.971	-90.007	-85.525	-82.787	-77.578	27.168	-81.080	-8191	255	
3283.924	1	1	0	0	0.02075	0.11045	0.12182	0.38531	0.19872	0.11166	0.044552	0.3094	0.12365	0.25691	0.28231	0.46581	0.19911	0.019787	0.073999	0.082951	-2.2833	-2.5333	-2.4667	-2.7292	-2.4375	-2.9042	-2.7167	-2.6104	-2.9208	-2.475	-2.7896	-2.7417	-2.5396	-3.0104	-2.7125	-2.6479	168.937	-50.180	141.474	187.551	-89.267	61.348	78.229	107.711	109.327	111.748	129.331	243.990	176.428	227.603	-78.416	-54.373	0.00043514	0.00079689	0.0001092	838.27	6.7744e-06	7.9537e-06	985.67	282.33	3.3012e-06	5.5965e-06	367.12	131.33	100.94	39.916	3.4785e-06	56.172	0.00014235	0.00014642	4.0609e-05	680.62	1.4187e-06	1.5762e-06	823.85	236.66	1.3937e-06	1.6484e-06	304.75	109.45	84.433	33.479	1.5921e-06	47.048	9.652	31.195	-41.877	-93.551	54.864	35.349	-94.164	-87.210	-74.247	57.064	-89.768	-85.247	-83.114	-77.432	37.479	-81.168	-8191	255	
3284.020	1	1	0	0	0.17679	0.28102	0.19558	0.15607	0.187	0.11046	0.08798	0.22218	0.14062	0.070981	0.1996	0.17124	0.074086	0.2895	0.20836	0.26826	-2.3854	-2.4938	-2.7792	-2.7417	-2.3542	-2.6042	-2.9875	-2.6167	-2.8646	-2.6188	-2.65	-2.7542	-2.4562	-2.8792	-2.7708	-2.4833	52.847	114.217	-74.273	171.519	29.255	104.061	129.633	205.540	-36.489	63.395	104.220	247.145	-17.259	210.375	94.668	206.698	0.00051356	0.00038839	0.00017185	834.77	4.2516e-06	3.6706e-06	989.42	284.36	5.9216e-07	5.9471e-06	371.87	132.58	101.12	39.877	5.763e-06	56.147	0.00013964	0.00014993	3.8525e-05	680.09	1.4289e-06	1.5765e-06	827.58	237.81	1.3788e-06	1.5781e-06	306.44	110.39	84.762	33.555	1.4167e-06	47.054	-6.501	24.726	-25.403	-92.498	101.340	60.008	-93.854	-87.421	216.512	62.237	-90.051	-85.068	-82.572	-77.574	-11.016	-80.613	-8191	255	
3284.116	1	1	0	0	0.15369	0.16686	0.079036	0.045143	0.077663	0.12056	0.20012	0.26441	0.30749	0.068261	0.12094	0.25877	0.2532	0.20548	0.14142	0.1073	-2.2083	-2.6229	-2.2583	-2.8167	-2.6292	-2.675	-2.6063	-2.5729	-2.8688	-2.4771	-2.6792	-2.9437	-2.6667	-2.7333	-2.6375	-2.4208	35.073	100.266	-25.034	213.990	23.820	92.231	177.556	233.022	247.403	-93.685	219.076	211.365	218.669	149.212	53.253	-21.188	0.00038183	0.00088812	0.0001226	822.79	5.94e-06	9.059e-06	977.51	280.13	7.019e-06	2.9002e-06	359.85	127.31	99.456	39.185	3.7311e-06	54.886	0.00014723	0.00014553	3.8214e-05	668.34	1.5389e-06	1.6272e-06	815.57	233.89	1.5423e-06	1.5717e-06	299.15	106.62	82.978	32.922	1.444e-06	45.844	-2.706	-27.483	-13.377	-92.609	80.524	35.098	-94.168	-87.122	-30.162	-95.358	-89.930	-85.551	-83.233	-77.566	89.468	-80.842	-8191	255	
3284.212	1	1	0	0	0.096602	0.22009	0.16946	0.023254	0.142	0.22932	0.11636	0.19626	0.11275	0.33979	0.15361	0.19988	0.1528	0.17604	0.12477	0.10953	-2.4396	-2.6562	-2.4604	-2.9083	-2.6021	-2.7125	-2.725	-2.5333	-2.7958	-2.55	-2.7125	-2.9833	-2.5708	-2.7208	-2.7708	-2.6604	181.325	117.564	65.390	79.392	134.413	-69.914	141.563	182.110	218.961	115.078	219.587	159.856	-93.853	-87.575	181.430	-104.713	0.00056914	0.00058884	0.00018405	833.3	1.8018e-06	5.4381e-06	973.64	277.85	5.2774e-06	4.869e-06	358.65	127.82	100.31	38.897	3.0513e-06	55.918	0.00015881	0.00014009	3.5437e-05	673.04	1.5889e-06	1.4994e-06	813.18	232.56	1.5919e-06	1.5175e-06	299.51	107.13	83.443	32.842	1.3816e-06	46.476	-3.389	-4.466	-37.268	-92.418	75.968	67.074	-93.917	-87.394	13.404	32.362	-89.350	-85.423	-82.984	-77.463	82.944	-80.842	-8191	255	
3284.333	1	1	0	0	0.20867	0.053969	0.089781	0.23484	0.26971	0.10196	0.11282	0.16259	0.18953	0.20128	0.273	0.093871	0.193	0.26163	0.14697	0.16708	-2.375	-2.7479	-2.4521	-2.9583	-2.5833	-2.8604	-2.9417	-2.5	-2.9146	-2.8	-2.4104	-2.8375	-2.6229	-2.8479	-2.7875	-2.3854	-104.429	-55.516	106.494	208.216	89.990	-20.519	194.257	-60.815	-83.041	92.131	227.237	66.902	213.432	203.239	148.222	182.570	0.00048918	0.0006469	0.00015891	822.56	3.35e-06	5.3449e-06	978.67	278.82	5.1312e-06	6.9803e-06	361.32	129.75	100.01	39.504	6.1652e-06	56.419	0.00015996	0.00013982	3.4615e-05	674.1	1.6109e-06	1.4016e-06	815.57	234.1	1.6189e-06	1.4543e-06	301.08	108.45	83.446	33.285	1.3685e-06	46.889	-5.000	7.224	-14.025	-92.521	33.532	47.410	-93.998	-87.409	67.311	68.441	-89.733	-85.584	-82.767	-77.439	22.688	-80.713	-8191	255	
3284.427	1	1	0	0	0.0616	0.24379	0.066744	0.058703	0.078798	0.072785	0.17942	0.36462	0.11744	0.16689	0.26594	0.10406	0.37389	0.19213	0.11169	0.23262	-2.1521	-2.6354	-2.5208	-2.7687	-2.4875	-2.6521	-2.8875	-2.5708	-2.7062	-2.6771	-2.5854	-2.6729	-2.55	-2.5563	-2.8688	-2.6479	40.905	29.385	203.944	198.446	219.013	-48.764	165.307	185.555	-46.271	-74.787	184.505	-39.370	243.474	-44.893	33.062	-6.806	0.00044956	0.00060964	0.0002075	834.73	4.5169e-06	6.13e-06	990.29	280.29	6.3827e-06	6.8789e-06	361.31	128.31	98.824	38.911	3.5262e-06	54.933	0.00015885	0.00012519	3.3762e-05	679.1	1.6133e-06	1.3646e-06	821.07	234.45	1.5751e-06	1.3523e-06	299.18	107.41	82.773	32.662	1.331e-06	45.798	-18.206	17.662	-6.459	-93.028	71.203	44.980	-94.134	-87.578	-14.023	138.800	-89.655	-85.614	-82.656	-77.828	15.701	-80.655	-8191	255	
3284.523	1	1	0	0	0.27336	0.10208	0.19686	0.13115	0.27492	0.23826	0.15851	0.10797	0.1734	0.072963	0.34813	0.032703	0.077864	0.41169	0.21211	0.077627	-2.4625	-2.7229	-2.3479	-2.8417	-2.7229	-2.6146	-2.9708	-2.6292	-2.5417	-2.9354	-2.6354	-2.6958	-2.7313	-2.5042	-2.8187	-2.5958	43.534	240.246	-61.971	229.886	176.674	46.409	170.100	199.655	-10.693	187.892	218.111	89.599	230.509	231.619	-7.413	114.285	0.00028241	0.00051821	0.00019859	829.48	4.8934e-06	4.9985e-06	966.62	275.02	2.0245e-06	4.1925e-06	356.61	127.82	99.109	38.756	2.4521e-06	54.832	0.00014793	0.00012767	3.3394e-05	672.16	1.4889e-06	1.296e-06	807.79	231.46	1.4808e-06	1.3555e-06	297.14	106.63	82.598	32.462	1.4369e-06	45.768	12.904	-16.338	-1.062	-92.756	61.710	-4.792	-94.199	-86.816	-83.805	15.824	-89.674	-85.400	-82.912	-78.188	25.679	-80.612	-8191	255	
3284.644	1	1	0	0	0.064836	0.33202	0.10127	0.11494	0.023505	0.13187	0.099267	0.19538	0.26869	0.049909	0.23072	0.025419	0.24429	0.22884	0.13073	0.10539	-2.0354	-2.6417	-2.4146	-2.7896	-2.6396	-2.4875	-3.0667	-2.5625	-2.5146	-3.0708	-2.5042	-2.825	-2.85	-2.5062	-3.0104	-2.6271	30.000	-55.068	229.645	-63.348	-35.475	-5.887	111.901	189.470	168.542	82.553	248.285	5.590	241.652	-66.164	-104.511	210.616	0.0004639	8.7245e-05	4.7821e-05	829.14	4.4443e-06	2.9605e-06	973.22	277.62	7.5563e-06	3.8037e-07	362.56	127.82	99.092	38.735	7.0909e-06	55.348	0.00014619	0.00012108	3.5861e-05	674.1	1.4461e-06	1.3427e-06	809.83	232.36	1.3836e-06	1.2821e-06	299.64	107.05	82.61	32.53	1.4816e-06	46.252	-16.006	-31.470	-86.296	-92.324	87.862	63.110	-93.703	-87.374	8.940	106.468	-89.792	-85.439	-82.997	-77.870	61.401	-80.910	-8191	255	
3284.716	1	1	0	0	0.24332	0.057815	0.0473	0.31513	0.062571	0.2316	0.079526	0.26721	0.25481	0.057935	0.30487	0.15495	0.16288	0.055827	0.20809	0.24093	-2.3542	-2.8125	-2.4813	-2.6437	-2.7792	-2.6396	-2.9292	-2.5792	-2.6542	-2.9021	-2.7062	-2.6208	-2.8125	-2.5354	-2.8333	-2.8208	64.722	-56.160	-42.946	181.207	77.625	73.354	225.845	241.590	-30.677	51.005	211.577	129.404	153.435	-98.119	185.904	182.146	0.00047652	0.00063807	0.00011902	814.57	4.6641e-06	2.5049e-06	984.23	280.93	3.5767e-06	3.9351e-06	364.5	131.2	99.236	39.123	2.48e-06	55.59	0.00013895	0.00011704	3.7415e-05	668.63	1.3327e-06	1.3022e-06	818.33	233.64	1.3869e-06	1.3713e-06	302.37	108.62	83.104	32.851	1.5996e-06	46.551	-11.156	29.237	-28.303	-92.813	89.816	130.030	-94.014	-87.352	40.958	59.773	-89.431	-85.518	-83.136	-77.939	-86.881	-81.158	-8191	255	
3284.812	1	1	0	0	0.061943	0.19943	0.28575	0.073112	0.19355	0.080954	0.072025	0.24844	0.33627	0.046985	0.30873	0.04745	0.1344	0.098476	0.018094	0.18789	-2.0938	-2.825	-2.6104	-2.7375	-2.9229	-2.4646	-3.025	-2.7396	-2.4437	-2.9146	-2.6979	-2.8438	-2.8625	-2.4583	-2.7062	-2.6875	202.330	-84.345	215.990	207.781	174.653	-19.566	87.596	185.999	235.238	214.652	167.514	217.804	252.159	184.007	-100.247	177.809	0.00044852	0.00098286	0.00022312	821.12	1.913e-06	3.8591e-06	968.91	276.02	9.6874e-06	6.5968e-06	357.71	126.85	98.021	38.571	2.9107e-06	54.194	0.00013981	0.00012466	4.0044e-05	668.15	1.3991e-06	1.431e-06	810.59	230.63	1.4457e-06	1.4614e-06	296.59	105.67	81.513	32.329	1.6952e-06	45.371	-5.361	-43.444	49.571	-92.601	78.196	-22.091	-93.994	-87.306	-22.242	72.690	-89.602	-85.623	-82.772	-77.467	-105.018	-80.849	-8191	255	
3284.933	1	1	0	0	0.10272	0.22695	0.1769	0.28251	0.032137	0.16077	0.28885	0.25448	0.18571	0.25194	0.085822	0.13126	0.20057	0.28852	0.42703	0.068033	-1.9125	-2.9771	-2.3667	-2.6	-2.8854	-2.4729	-2.8333	-2.6562	-2.475	-2.7792	-2.7938	-2.6146	-3.0125	-2.5354	-2.7875	-2.9104	-101.458	86.029	-23.400	178.815	-52.466	13.351	247.452	172.034	254.300	54.135	53.385	77.476	201.510	208.528	-26.298	-99.871	0.00055059	0.00015452	0.00013849	819.19	7.4242e-06	4.8395e-07	966.68	272.31	6.4758e-07	7.8588e-06	359.84	127.26	98.285	38.242	4.7352e-06	55.115	0.00014088	0.00013683	4.0848e-05	665.02	1.3734e-06	1.5605e-06	806.7	228.81	1.431e-06	1.5756e-06	297.71	106.36	82.008	32.49	1.6661e-06	45.953	2.567	-53.640	-12.973	-92.467	48.836	216.660	-93.845	-87.510	249.375	67.585	-89.674	-85.368	-83.007	-77.673	85.395	-81.153	-8191	255	
3285.029	1	1	0	0	0.28442	0.14204	0.18956	0.26511	0.21578	0.13911	0.10432	0.13519	0.14569	0.10381	0.29569	0.12768	0.27467	0.084449	0.39062	0.056451	-1.9021	-2.6312	-2.5333	-2.5917	-2.9354	-2.7062	-2.6396	-2.8896	-2.5208	-2.9188	-2.5708	-2.4292	-2.9333	-2.4167	-2.625	-2.9479	246.933	110.641	242.608	129.700	140.356	188.857	151.929	82.190	159.150	187.865	235.896	224.304	-76.239	-62.554	55.777	203.463	0.00040827	0.00060072	0.0002199	820.05	1.2102e-06	3.0154e-06	980.32	275.96	1.595e-06	4.3141e-06	361.18	129.02	98.915	39.316	2.544e-06	55.49	0.00013869	0.00014837	4.0944e-05	667.18	1.3811e-06	1.6697e-06	812.34	230.82	1.4957e-06	1.7183e-06	300.03	107.31	82.434	32.941	1.5413e-06	46.493	14.722	21.610	-11.366	-93.151	168.556	27.623	-93.899	-87.310	-11.489	137.228	-89.905	-85.514	-83.252	-78.128	-35.792	-80.710	-8191	255	
3285.125	1	1	0	0	0.12081	0.36205	0.19558	0.11044	0.13651	0.074943	0.22915	0.19525	0.12941	0.16171	0.25779	0.15418	0.048799	0.24812	0.1786	0.21066	-2.1312	-2.8312	-2.425	-2.4354	-2.7979	-2.5792	-2.6063	-2.9271	-2.3896	-2.8333	-2.7771	-2.5271	-3.0229	-2.6083	-2.7208	-2.9104	215.504	239.942	-50.440	135.595	-30.914	14.114	197.232	55.911	219.952	196.849	208.897	-86.182	-84.115	231.424	89.215	146.787	0.00063998	0.00017832	0.00020102	830.01	2.1122e-06	4.936e-06	978.93	275.8	5.4978e-06	5.2312e-06	360.21	126.69	97.752	38.72	2.0989e-07	54.693	0.00015152	0.00015536	3.8342e-05	672.04	1.4942e-06	1.6674e-06	816.31	231.27	1.6173e-06	1.6905e-06	299.52	106.33	81.724	32.588	1.5413e-06	45.643	-18.832	-70.984	-23.835	-93.141	2.388	6.205	-93.722	-87.297	-25.849	-28.260	-89.791	-85.178	-82.915	-77.515	48.675	-80.553	-8191	255	
3285.221	1	1	0	0	0.049078	0.084605	0.10785	0.20789	0.25479	0.16315	0.15866	0.52607	0.14202	0.25562	0.090566	0.23556	0.17961	0.097024	0.16663	0.22715	-2.2167	-2.5417	-2.7021	-2.4646	-2.7896	-2.6562	-2.6021	-2.9625	-2.5938	-2.6479	-2.8458	-2.4042	-2.8479	-2.5208	-2.6583	-2.8917	230.924	-10.955	103.121	64.904	222.486	-40.900	167.686	230.540	-52.236	206.847	241.262	36.950	140.995	-31.580	-8.961	-16.787	0.00055565	0.00043796	0.00010961	834.16	4.0996e-06	2.2326e-06	965.86	272.76	2.4519e-06	8.7591e-06	354.95	125.15	97.283	38.555	5.1086e-06	54.41	0.00016575	0.00015375	3.8953e-05	670.12	1.624e-06	1.6289e-06	804.15	228.28	1.6576e-06	1.6338e-06	294.6	104.75	81.71	32.427	1.5464e-06	45.418	-0.453	-21.002	-60.600	-92.699	90.998	-28.260	-93.740	-87.175	72.484	46.124	-89.690	-85.201	-82.724	-77.314	39.151	-80.631	-8191	255	
3285.315	1	1	0	0	0.26085	0.05112	0.15591	0.039063	0.18652	0.10973	0.12991	0.369	0.37321	0.13921	0.15736	0.17701	0.18875	0.10185	0.11164	0.057193	-2.0521	-2.6417	-2.7583	-2.4437	-2.925	-2.6667	-2.7354	-2.9208	-2.8375	-2.7396	-2.925	-2.4792	-2.8	-2.7687	-2.4042	-2.8937	168.336	53.547	189.252	213.388	142.207	105.469	-82.837	198.143	221.906	88.951	221.926	249.936	143.977	147.578	-97.314	181.601	0.0004471	0.00066564	0.00014903	818.69	2.7854e-06	5.0359e-06	967.07	275.1	7.5386e-07	6.7039e-06	356.73	127.74	98.493	38.806	3.5507e-06	54.621	0.00016914	0.00015306	3.8627e-05	668.9	1.7248e-06	1.6472e-06	808.21	230.31	1.7336e-06	1.516e-06	297.13	106.55	82.078	32.699	1.5456e-06	46.023	10.185	-46.116	-50.914	-92.889	77.803	-73.474	-93.577	-87.107	201.853	25.569	-89.837	-85.124	-82.486	-77.979	51.869	-80.985	-8191	255	
3285.412	1	1	0	0	0.1079	0.089267	0.020222	0.1301	0.077966	0.16435	0.055896	0.13344	0.1496	0.14208	0.11989	0.087349	0.089241	0.26243	0.11602	0.1953	-2.0938	-2.5167	-2.9458	-2.5438	-2.8625	-2.8229	-2.5312	-2.7083	-2.5792	-2.6271	-3.0271	-2.4833	-2.9833	-2.8333	-2.5563	-2.8542	-75.737	127.422	12.650	147.079	-14.194	-15.164	125.044	244.009	182.743	-33.709	-77.282	-58.465	218.142	184.033	90.256	241.120	0.0003562	0.00034864	0.00013105	830.21	2.65e-06	7.458e-06	970.94	275.79	6.6905e-06	8.8538e-06	358.03	127.85	98.636	39.192	5.6354e-06	55.963	0.00017849	0.00014995	3.9221e-05	671.15	1.9e-06	1.7605e-06	813.89	231.47	1.9086e-06	1.6927e-06	298.41	107.43	82.505	32.901	1.5831e-06	46.661	4.501	-22.827	-25.755	-92.549	70.006	24.964	-93.870	-87.345	-59.287	43.914	-89.792	-85.170	-82.821	-77.563	2.129	-80.892	-8191	255	
3285.508	1	1	0	0	0.076377	0.05731	0.092856	0.049413	0.12465	0.31279	0.18614	0.18158	0.19471	0.06688	0.2344	0.04406	0.16523	0.049468	0.32973	0.2694	-2.1562	-2.4729	-2.8	-2.4583	-2.4708	-2.8417	-2.4042	-2.9333	-2.4708	-2.4396	-3.0042	-2.4292	-2.9271	-2.8083	-2.3146	-2.9729	-78.818	-13.089	56.533	113.184	19.179	241.349	191.027	111.301	160.828	60.421	210.468	179.413	-66.675	-92.673	-25.808	143.719	0.0002833	0.00097881	9.8508e-05	819.59	1.3895e-06	2.7951e-06	971.19	271.8	9.0064e-06	5.8861e-06	353.49	125.35	96.608	38.297	3.9232e-06	54.335	0.00018289	0.00015614	3.9395e-05	672.77	1.831e-06	1.65e-06	809.08	227.65	1.7486e-06	1.6146e-06	294.68	105	81.065	32.37	1.6461e-06	45.434	-1.734	19.947	5.774	-92.363	136.336	44.610	-94.442	-87.262	61.560	33.001	-89.976	-85.744	-82.964	-78.105	-71.082	-80.530	-8191	255	
3285.604	1	1	0	0	0.16944	0.1794	0.029402	0.11587	0.18027	0.1759	0.10834	0.12702	0.093092	0.30254	0.10805	0.058104	0.39283	0.29834	0.16879	0.26836	-2.2687	-2.4604	-2.8688	-2.3167	-2.7646	-2.8375	-2.5667	-2.8292	-2.5583	-2.4542	-2.9104	-2.5292	-2.6396	-2.9146	-2.4896	-2.7458	33.678	220.498	-101.492	228.953	-58.401	175.053	164.043	171.185	35.564	52.560	-68.313	159.987	222.456	-49.390	68.797	232.629	0.00049433	0.00060578	4.797e-05	829.61	4.2083e-06	4.7235e-06	963.37	272.88	7.3106e-06	9.781e-06	354.42	126.26	97.312	38.867	2.1859e-06	54.478	0.00016495	0.00014661	3.9004e-05	674.85	1.6956e-06	1.5289e-06	804.08	228.88	1.6984e-06	1.5541e-06	295.43	105.59	81.365	32.548	1.7232e-06	45.877	-12.383	18.875	235.718	-92.479	57.102	44.046	-93.667	-87.147	-41.979	46.573	-89.891	-85.749	-83.099	-77.746	-59.991	-80.747	-8191	255	
3285.724	1	1	0	0	0.12558	0.17169	0.041177	0.18048	0.04431	0.18062	0.19997	0.12645	0.10458	0.081818	0.12496	0.11779	0.059107	0.21172	0.43631	0.25314	-2.1792	-2.4437	-2.7354	-2.6917	-2.6167	-2.9042	-2.525	-2.7792	-2.7896	-2.3396	-2.9979	-2.6771	-2.4938	-2.8146	-2.4042	-2.6708	93.626	-59.981	9.534	164.172	-38.197	226.104	-101.381	-1.389	-80.807	173.063	-22.458	192.673	164.414	243.749	-84.376	161.003	0.00022699	0.00051726	6.804e-05	813.76	2.7827e-06	5.5662e-06	971.11	272.17	2.4528e-06	6.2278e-07	355.63	126.44	96.568	39.091	6.6563e-06	55.081	0.00015524	0.00013966	4.1787e-05	669.06	1.611e-06	1.4498e-06	811.39	229.02	1.5795e-06	1.4909e-06	296.53	105.93	81.044	32.726	1.6211e-06	46.269	-10.300	-52.008	-70.950	-93.210	18.005	56.804	-93.683	-87.313	-9.689	106.052	-89.782	-85.147	-82.811	-77.795	-32.661	-80.852	-8191	255	
3285.821	1	1	0	0	0.074898	0.05332	0.065062	0.17526	0.24023	0.10077	0.20721	0.473	0.26734	0.123	0.21526	0.14433	0.21358	0.23666	0.087773	0.21435	-2.5625	-2.4708	-2.6354	-2.7792	-2.45	-2.8937	-2.6625	-2.7333	-2.7604	-2.4917	-2.9292	-2.7	-2.4938	-2.9604	-2.4896	-2.8104	242.827	82.092	12.528	100.307	210.751	73.670	213.945	-86.371	169.594	-93.153	-102.223	233.872	242.597	221.967	17.986	133.743	0.00070212	0.00027461	0.00018513	828.55	3.826e-06	4.9085e-06	975.42	271.59	4.7403e-06	6.1046e-06	358.43	125.84	96.229	38.583	4.2225e-06	54.377	0.00015224	0.00013268	4.314e-05	672.2	1.4666e-06	1.4441e-06	816.27	228.89	1.514e-06	1.4513e-06	297.64	105.57	80.635	32.374	1.6938e-06	45.663	22.041	-19.354	1.605	-92.780	75.759	-0.707	-93.334	-87.594	-25.240	70.543	-89.574	-85.303	-82.541	-77.705	-40.303	-80.870	-8191	255	
3285.917	1	1	0	0	0.2597	0.060611	0.15706	0.11325	0.22695	0.29584	0.12338	0.099467	0.069221	0.064343	0.16956	0.14913	0.11309	0.11296	0.25648	0.072961	-2.4375	-2.3458	-2.6375	-2.6312	-2.5542	-2.8146	-2.6167	-2.7938	-2.8979	-2.4146	-2.7646	-2.8271	-2.5271	-2.8312	-2.5896	-2.4458	-8.862	104.662	-69.890	18.198	78.982	187.870	-96.470	110.944	-54.206	128.934	200.495	198.557	-49.773	245.344	180.537	-87.059	0.00033153	0.00046493	0.00015615	806.6	1.8091e-06	2.3552e-06	964.35	269.68	4.8935e-06	6.0515e-07	353.33	124.87	95.518	38.242	5.4151e-06	54.573	0.000142	0.00013622	4.1954e-05	662.12	1.4525e-06	1.5403e-06	806.35	225.54	1.4106e-06	1.5606e-06	293.38	103.86	79.875	32.132	1.6111e-06	45.375	0.716	28.882	-54.651	-92.881	-14.505	-26.137	-94.007	-87.603	-18.772	-24.303	-89.489	-84.961	-82.812	-77.989	47.130	-81.265	-8191	255	
3286.013	1	1	0	0	0.02371	0.22189	0.40113	0.1685	0.085959	0.134	0.17169	0.078021	0.14985	0.065997	0.32752	0.26802	0.32739	0.20943	0.072809	0.16013	-2.4417	-2.3479	-2.7687	-2.8417	-2.6021	-2.8354	-2.5563	-2.5417	-2.7625	-2.4938	-2.6542	-2.7458	-2.4375	-2.6896	-2.4938	-2.6667	111.405	85.602	75.663	32.968	-91.854	110.265	241.958	-81.954	-97.900	-32.490	198.612	217.715	-70.483	234.488	70.144	208.895	0.00040988	0.00098436	0.00012101	811.39	3.0295e-06	2.6963e-06	966.95	271.59	4.6927e-06	4.4437e-06	355.98	125.85	96.88	38.682	3.609e-06	54.754	0.00013446	0.00014271	4.0294e-05	663.05	1.317e-06	1.5344e-06	806.6	226.75	1.3444e-06	1.5466e-06	296.33	105.14	80.529	32.546	1.5308e-06	45.931	-9.064	-49.615	-29.371	-92.556	45.942	26.297	-93.733	-87.154	-11.715	53.629	-89.302	-85.559	-83.248	-77.379	30.488	-80.897	-8191	255	
3286.109	1	1	0	0	0.17493	0.19721	0.10714	0.221	0.15588	0.1951	0.17289	0.21052	0.32001	0.14923	0.18551	0.34563	0.18448	0.28045	0.11423	0.263	-2.3271	-2.3396	-2.6333	-2.8479	-2.3833	-2.7896	-2.6708	-2.5708	-2.9708	-2.5479	-2.6833	-2.7958	-2.6667	-2.9271	-2.5125	-2.65	211.315	-95.251	178.839	45.056	-72.583	65.900	160.945	168.510	186.535	-59.747	-74.972	230.583	237.140	184.061	99.895	-76.728	0.00048227	0.00047481	0.0001364	820.11	5.065e-06	8.1533e-06	971.5	273.81	5.3235e-06	6.6563e-06	359.66	128.06	97.03	39.218	5.5278e-06	56.071	0.00014124	0.00014627	3.7816e-05	666.89	1.3856e-06	1.6473e-06	813.75	229.13	1.4379e-06	1.6257e-06	299.74	107.04	81.573	32.938	1.4988e-06	46.653	-1.137	58.223	-37.732	-92.246	82.337	40.194	-93.730	-87.472	-45.415	12.601	-89.653	-85.310	-82.600	-77.492	65.014	-80.938	-8191	255	
3286.205	1	1	0	0	0.07295	0.17685	0.359	0.20271	0.25002	0.14142	0.24215	0.2857	0.14462	0.16789	0.037331	0.13282	0.15827	0.21149	0.13326	0.25532	-2.3729	-2.4938	-2.5125	-2.8125	-2.4229	-2.8125	-2.95	-2.4646	-2.9062	-2.5438	-2.7792	-2.9021	-2.4771	-2.8417	-2.7333	-2.4104	143.694	-28.769	-105.124	66.806	-22.101	-31.174	123.820	231.833	182.361	-26.076	195.218	246.482	-89.225	235.669	10.319	219.748	0.00041486	0.00045886	0.00014628	823.66	4.8326e-06	7.6515e-06	977.81	272.51	2.8957e-06	3.6064e-06	354.48	126.66	97.204	38.668	4.2304e-06	54.711	0.00014487	0.00014469	3.7654e-05	666.41	1.4354e-06	1.591e-06	814.38	228.82	1.5103e-06	1.5711e-06	295.73	105.6	81.384	32.526	1.4696e-06	45.748	-5.476	14.144	-64.318	-92.810	66.617	71.892	-93.958	-87.283	-47.079	-22.215	-89.842	-85.805	-83.052	-77.796	21.326	-81.017	-8191	255	
3286.324	1	1	0	0	0.10112	0.15428	0.086587	0.13066	0.3032	0.15466	0.23133	0.10552	0.21078	0.13735	0.10404	0.1669	0.14203	0.25626	0.019619	0.041287	-2.3396	-2.4604	-2.4292	-3.0333	-2.4792	-2.8625	-2.8708	-2.6833	-2.6937	-2.5854	-2.5354	-3.1312	-2.525	-2.6688	-2.8771	-2.4958	193.461	237.589	96.931	154.503	-68.720	36.737	169.657	38.189	184.835	88.509	-92.564	-90.529	225.515	97.846	157.934	110.786	0.00039434	0.0006378	0.00012715	816.81	2.5803e-06	2.6522e-06	966.73	275.04	4.5606e-06	6.3912e-06	357.47	126.66	97.322	38.554	3.7525e-06	55.294	0.00015454	0.00014324	3.6571e-05	660.11	1.637e-06	1.5529e-06	808.55	229.54	1.5897e-06	1.539e-06	297.23	105.98	81.318	32.538	1.3841e-06	46.149	9.563	-24.078	1.226	-93.057	67.088	18.948	-94.033	-87.561	24.234	66.113	-89.880	-85.043	-83.498	-77.827	86.239	-80.830	-8191	255	
3286.420	1	1	0	0	0.32742	0.14738	0.1651	0.17599	0.10519	0.20323	0.20254	0.20694	0.21066	0.26293	0.14725	0.21503	0.075515	0.11356	0.24064	0.25886	-2.6833	-2.6708	-2.4104	-2.7938	-2.4021	-2.5604	-2.9042	-2.6021	-3.0458	-2.5812	-2.5708	-2.6271	-2.7146	-2.5417	-2.9667	-2.4708	7.800	-67.639	-35.912	32.849	-102.906	188.783	246.181	164.640	-103.194	-77.829	-78.152	116.448	228.959	-28.543	18.453	224.062	0.00040879	0.00075782	0.00019956	824.92	2.2953e-06	2.2472e-06	978	276.12	3.8378e-06	5.858e-06	363.45	129.63	98.437	39.365	6.0458e-06	55.702	0.00016091	0.00013592	3.4888e-05	668.55	1.6594e-06	1.481e-06	815.9	231.48	1.662e-06	1.4762e-06	301.02	107.63	82.39	32.931	1.3572e-06	46.673	-29.988	-33.769	-14.539	-93.264	70.381	53.740	-94.108	-87.201	-68.561	33.046	-89.655	-85.310	-83.306	-77.689	43.816	-80.732	-8191	255	
3286.516	1	1	0	0	0.19619	0.035715	0.19361	0.13378	0.20484	0.33434	0.15756	0.3458	0.26115	0.051198	0.3069	0.062445	0.053732	0.111	0.10492	0.11151	-2.2313	-2.8104	-2.3479	-2.8396	-2.5354	-2.6562	-2.925	-2.4333	-2.6604	-2.8625	-2.4417	-2.9021	-2.6437	-2.5333	-2.7625	-2.4792	-93.983	81.135	-42.640	33.273	225.152	-78.172	53.235	190.501	-57.738	164.910	-20.062	184.461	91.185	107.054	-76.491	189.028	0.00036653	0.0010104	7.8542e-05	820.16	5.8078e-06	5.3648e-06	985.47	279.13	5.0629e-06	7.834e-06	367.84	128.97	98.74	39.328	7.9119e-06	55.936	0.0001582	0.0001278	3.319e-05	672.66	1.5996e-06	1.3792e-06	823.76	233.49	1.6439e-06	1.4383e-06	303.96	107.94	82.448	33.052	1.3773e-06	46.484	-4.777	-0.873	-104.489	-92.516	60.516	39.545	-93.798	-87.201	25.095	57.113	-89.540	-85.309	-83.233	-77.438	27.698	-81.064	-8191	255	
3286.613	1	1	0	0	0.15882	0.24411	0.15396	0.057995	0.16988	0.21863	0.27663	0.23589	0.11352	0.15382	0.25742	0.10682	0.13617	0.34037	0.074095	0.28338	-2.2667	-2.7417	-2.325	-2.7438	-2.5333	-2.6354	-2.9875	-2.5812	-2.725	-2.8792	-2.3	-2.9042	-2.4729	-2.3771	-3.025	-2.4729	134.004	242.118	176.144	154.664	88.907	15.046	186.202	102.124	252.076	114.038	239.042	251.872	246.872	-64.316	21.076	183.161	0.00039054	0.00073192	0.00013268	812.45	3.3975e-06	4.5197e-06	973.41	272.31	7.4133e-06	4.84e-06	358.62	127.63	96.904	38.742	7.017e-06	54.642	0.00015343	0.0001295	3.4946e-05	669.35	1.4691e-06	1.408e-06	809.73	229.03	1.5565e-06	1.366e-06	296.5	106.18	81.138	32.531	1.3692e-06	45.844	-3.093	-2.720	40.927	-92.928	96.549	-13.232	-94.010	-87.357	63.675	70.659	-89.975	-85.652	-82.822	-77.493	14.554	-80.944	-8191	255	
3286.709	1	1	0	0	0.17047	0.18692	0.21401	0.27178	0.12959	0.1344	0.2303	0.085355	0.093256	0.26815	0.019155	0.093135	0.20074	0.20634	0.029623	0.080711	-2.2	-2.7896	-2.4396	-2.8063	-2.6292	-2.475	-2.9	-2.5938	-2.5208	-3.1562	-2.5958	-2.95	-2.7792	-2.6271	-2.7271	-2.6063	149.579	92.522	-70.602	170.957	236.286	85.771	-69.043	114.652	14.246	96.503	70.637	-85.451	97.634	-95.997	-40.851	59.290	0.00043383	0.00027325	0.0001358	818.84	6.3303e-06	1.6702e-06	980.38	275.03	3.3795e-06	3.4943e-06	363.55	128.99	98.988	39.041	4.837e-06	55.492	0.00014725	0.00011856	3.5538e-05	669.27	1.5128e-06	1.2895e-06	814.92	231.55	1.4539e-06	1.364e-06	300.4	107.55	82.54	32.719	1.5866e-06	46.401	19.757	238.049	37.078	-92.697	30.973	-75.080	-93.965	-87.586	-27.681	31.522	-89.522	-85.731	-82.751	-77.593	116.707	-81.193	-8191	255	
3286.805	1	1	0	0	0.16727	0.12159	0.19536	0.15029	0.10826	0.13663	0.25496	0.16502	0.35267	0.13876	0.20193	0.098272	0.15937	0.085531	0.15278	0.21036	-2.1458	-2.7771	-2.675	-2.7354	-2.8083	-2.475	-2.9437	-2.8854	-2.5292	-2.8229	-2.5417	-2.6896	-2.8563	-2.425	-2.7875	-2.6562	-67.646	82.754	205.641	132.719	84.079	-76.948	205.729	175.743	195.529	-37.393	178.171	25.361	-60.151	244.797	94.373	167.712	0.000466	0.00065515	4.3845e-05	828.2	4.7341e-06	1.4719e-06	979.42	276.38	4.8865e-06	8.9252e-06	361.46	130.35	98.16	39.429	6.4209e-06	55.982	0.0001485	0.00011851	3.9409e-05	670.53	1.4752e-06	1.3934e-06	818.11	230.61	1.4579e-06	1.4046e-06	300.71	108.33	82.258	33.082	1.6236e-06	46.896	-19.282	21.333	55.301	-92.909	84.391	188.458	-94.216	-87.136	12.827	37.012	-89.528	-85.306	-82.764	-77.681	-32.119	-81.161	-8191	255	
3286.901	1	1	0	0	0.17468	0.33095	0.086287	0.17127	0.20537	0.1353	0.32779	0.10278	0.16942	0.25121	0.11807	0.060158	0.081679	0.15643	0.056046	0.201	-1.8937	-2.6937	-2.4417	-2.7396	-2.6167	-2.6167	-2.8688	-2.6854	-2.6125	-2.95	-2.6333	-2.6417	-3.0229	-2.5396	-2.7646	-2.9167	225.871	82.869	227.173	28.044	-100.826	253.075	165.500	227.084	14.181	-50.609	188.316	28.726	184.869	0.322	52.875	91.954	0.00019169	0.00054998	3.1251e-05	831.93	3.9955e-06	4.6287e-06	978.88	275.96	5.4741e-06	4.3508e-06	362.87	128.27	97.532	38.566	8.7429e-06	54.581	0.00013491	0.00012064	3.8704e-05	669.35	1.3747e-06	1.3824e-06	818.14	231.5	1.3732e-06	1.3382e-06	298.95	106.47	81.391	32.541	1.6079e-06	45.56	-14.522	-32.315	-33.239	-92.032	58.402	47.747	-93.791	-87.288	-2.092	33.784	-89.569	-85.352	-82.796	-77.896	71.559	-80.622	-8191	255	
3287.022	1	1	0	0	0.075201	0.27548	0.14803	0.018994	0.22129	0.13107	0.081462	0.19493	0.08229	0.24642	0.13	0.057962	0.21007	0.27823	0.15602	0.11904	-2.0396	-2.9208	-2.65	-2.6437	-2.6521	-2.5229	-2.7292	-2.7562	-2.5333	-2.9062	-2.5896	-2.7875	-3.0729	-2.4458	-2.5083	-2.6833	-49.311	-23.015	-52.825	124.384	50.744	100.175	25.979	124.931	60.045	23.190	205.097	-26.886	224.663	-104.033	174.882	-100.356	0.00052282	0.00084515	0.00013196	836.36	5.9287e-06	4.0915e-06	964.58	270.36	9.5196e-06	2.2159e-06	355.78	126.94	96.255	38.602	9.136e-06	54.426	0.00013544	0.00013521	4.091e-05	668.47	1.32e-06	1.4856e-06	805.24	227.22	1.3755e-06	1.5019e-06	295.08	105.5	80.585	32.495	1.5424e-06	45.626	2.766	-4.388	-32.782	-92.401	98.292	-53.371	-94.088	-87.307	15.544	15.542	-89.740	-85.623	-83.126	-78.131	141.989	-81.027	-8191	255	
3287.116	1	1	0	0	0.23922	0.069449	0.17205	0.12724	0.16507	0.16484	0.21445	0.31365	0.10282	0.18655	0.17155	0.10463	0.075895	0.20886	0.24611	0.12872	-2.1896	-2.9813	-2.45	-2.4958	-2.8708	-2.4896	-2.725	-3.0458	-2.3146	-2.8854	-2.7333	-2.7313	-3.075	-2.3979	-2.5542	-2.825	165.069	-49.776	174.993	-56.971	-16.358	142.395	228.793	211.696	252.382	121.656	115.364	-37.849	-61.343	-50.743	-87.542	139.334	0.00051645	0.00045516	0.0001959	814.93	4.3275e-06	2.2541e-06	973.76	272.79	1.1329e-06	2.1857e-06	357.36	127.07	96.766	38.76	3.8316e-06	55.06	0.00013447	0.00014383	3.8643e-05	662.86	1.3394e-06	1.6034e-06	808.98	228.33	1.4151e-06	1.5992e-06	296.74	106.12	80.821	32.6	1.4571e-06	46.044	3.908	-6.461	-58.713	-93.221	36.946	92.069	-94.004	-86.892	129.092	-43.690	-89.540	-85.115	-82.974	-77.698	80.512	-80.827	-8191	255	
3287.189	1	1	0	0	0.26292	0.23923	0.14378	0.14212	0.10856	0.1512	0.26026	0.20012	0.10418	0.26377	0.18842	0.2067	0.1651	0.27315	0.18655	0.25679	-1.8792	-2.8771	-2.6979	-2.3917	-2.9396	-2.4771	-2.6083	-2.9396	-2.3854	-2.6188	-2.6625	-2.5229	-2.825	-2.6667	-2.6729	-2.8604	-81.450	65.535	79.012	-65.517	184.603	-91.897	187.150	-89.324	-20.481	91.250	32.189	220.520	114.206	157.300	-83.010	155.799	0.00067253	0.00026504	0.00022798	815.65	3.1342e-06	5.2052e-06	966.79	274.43	5.8607e-06	6.5063e-06	357.5	128.04	97.551	39.149	4.0166e-06	55.195	0.00013961	0.00014412	3.4961e-05	661.77	1.3317e-06	1.5528e-06	810.83	229.44	1.4537e-06	1.5356e-06	298.33	107.07	81.58	32.805	1.3987e-06	46.077	-6.010	20.418	-5.633	-92.954	112.863	70.545	-94.119	-87.689	238.275	36.795	-88.976	-85.043	-83.049	-77.491	-54.706	-80.909	-8191	255	
3287.286	1	1	0	0	0.21856	0.042853	0.2455	0.056606	0.13738	0.13751	0.26443	0.16849	0.12438	0.096642	0.14577	0.23277	0.092935	0.15418	0.11417	0.095858	-1.8479	-2.6479	-2.6896	-2.4583	-2.9833	-2.575	-2.7542	-2.8333	-2.5354	-2.6583	-2.8625	-2.7833	-2.6896	-2.6604	-2.4062	-2.9562	142.438	-8.765	156.324	132.592	-43.604	51.096	148.526	207.014	91.070	92.103	128.599	230.078	238.706	214.538	-87.098	197.483	0.00053526	0.00071912	0.00017197	808.65	5.2629e-06	5.7397e-06	957.59	269.25	3.4888e-06	5.4511e-06	351.38	124.64	95.189	38.133	6.4809e-06	54.31	0.00014511	0.00013896	3.524e-05	656.59	1.439e-06	1.5149e-06	801.59	224.77	1.5084e-06	1.506e-06	291.06	103.54	79.374	32.011	1.4644e-06	44.89	-4.938	-44.193	22.039	-92.870	22.660	2.974	-93.842	-87.660	-99.017	107.078	-89.692	-85.797	-83.144	-77.611	80.587	-80.853	-8191	255	
3287.404	1	1	0	0	0.34412	0.013576	0.12385	0.14078	0.30406	0.26705	0.11688	0.058175	0.29438	0.11475	0.16397	0.16035	0.49093	0.19016	0.11366	0.14503	-1.9771	-2.6646	-2.6417	-2.1813	-2.8854	-2.5729	-2.7062	-2.9896	-2.5083	-2.8375	-2.9062	-2.5646	-2.9292	-2.6333	-2.4208	-2.9125	26.336	235.947	84.281	-40.544	197.506	-56.298	93.371	160.097	165.996	179.394	226.865	245.939	244.738	242.377	152.465	85.687	0.00035827	0.00056331	1.7827e-05	804.44	4.4759e-06	3.2068e-06	959.93	268.02	8.5432e-06	7.8242e-06	350.12	124.13	95.55	38.048	7.7646e-06	53.903	0.00015779	0.000139	3.5308e-05	651.41	1.5831e-06	1.4765e-06	799.2	224.35	1.6601e-06	1.5488e-06	291.38	103.51	79.821	32.113	1.3596e-06	45.074	-16.852	6.640	226.589	-92.572	37.175	68.061	-93.884	-86.992	91.601	35.063	-89.761	-85.649	-82.746	-77.966	22.356	-80.740	-8191	255	
3287.501	1	1	0	0	0.053579	0.12309	0.08233	0.36891	0.35465	0.14671	0.35917	0.31786	0.17134	0.11493	0.024782	0.19083	0.09903	0.12713	0.20834	0.062735	-2.25	-2.475	-2.5667	-2.4417	-2.5625	-2.8708	-2.5417	-2.9333	-2.4813	-2.5667	-2.8479	-2.5521	-2.8063	-2.7833	-2.3396	-2.8896	-33.462	-22.256	104.158	133.772	85.676	230.939	104.015	-102.357	-65.225	-44.115	124.053	159.826	74.749	-45.680	116.151	58.035	0.00040181	0.00048004	0.00016321	813.23	1.7321e-06	5.9464e-06	958.12	269.45	2.0207e-06	6.98e-06	352	124.61	95.513	38.854	1.4297e-06	54.883	0.00016081	0.00013354	3.3739e-05	661.47	1.544e-06	1.4211e-06	800.48	224.65	1.6065e-06	1.3907e-06	292.62	104.26	79.729	32.304	1.2709e-06	45.728	-17.523	-13.174	-24.871	-92.451	144.093	17.454	-93.975	-87.390	-23.012	80.211	-89.493	-85.727	-83.264	-77.578	-13.625	-80.570	-8191	255	
3287.597	1	1	0	0	0.050577	0.24282	0.16731	0.37423	0.081693	0.14334	0.25735	0.054154	0.10461	0.21124	0.053881	0.1479	0.17067	0.17964	0.15181	0.042978	-2.1813	-2.5083	-2.725	-2.6188	-2.65	-2.8792	-2.7167	-2.9688	-2.7979	-2.7167	-2.9938	-2.5792	-2.7271	-2.6896	-2.4188	-2.8479	5.450	218.915	99.435	33.381	46.533	167.903	172.226	-22.337	87.008	244.886	-52.459	-39.950	234.082	221.327	178.707	186.897	0.00035008	0.00059701	9.8113e-05	813.46	1.3411e-06	7.9204e-06	962.86	270.03	5.7135e-06	6.2168e-06	351.62	123.81	95.546	37.944	3.9292e-06	53.921	0.00015378	0.00012791	3.2005e-05	661.45	1.4943e-06	1.3335e-06	806.22	226.04	1.5052e-06	1.3192e-06	292.97	103.97	79.518	31.917	1.3484e-06	44.981	15.764	-5.275	1.159	-92.174	69.156	6.147	-94.032	-87.103	59.300	30.973	-89.652	-85.463	-82.885	-77.862	43.069	-80.932	-8191	255	
3287.693	1	1	0	0	0.34863	0.13705	0.17602	0.16214	0.17649	0.19299	0.24172	0.31164	0.15477	0.19888	0.34086	0.091343	0.17028	0.046615	0.18281	0.30034	-2.2104	-2.3563	-2.7771	-2.5021	-2.7	-2.8625	-2.7083	-2.9708	-2.8208	-2.4146	-2.7229	-2.7062	-2.7438	-2.9979	-2.2167	-2.7687	205.959	-5.444	-76.781	237.754	215.560	-29.163	231.786	151.905	50.263	109.403	147.134	219.171	215.233	195.511	247.697	197.910	0.00048312	0.00075364	8.6814e-05	809.27	6.5126e-06	6.4431e-06	951.42	266.94	1.2369e-05	4.4821e-06	350.26	123.99	94.376	37.633	3.402e-06	53.622	0.00014528	0.00012622	3.3385e-05	659.76	1.5194e-06	1.3783e-06	793.39	223.17	1.5759e-06	1.412e-06	289.85	103.51	79.357	31.7	1.5502e-06	44.905	11.934	12.587	233.654	-92.838	37.614	16.061	-93.879	-87.359	3.013	42.191	-89.505	-85.277	-82.997	-77.552	38.575	-81.002	-8191	255	
3287.814	1	1	0	0	0.23864	0.19043	0.22287	0.16444	0.063099	0.16117	0.30249	0.25606	0.1066	0.17058	0.3847	0.19809	0.076142	0.24545	0.09479	0.12456	-2.3563	-2.375	-2.8	-2.4396	-2.6167	-2.9188	-2.5604	-2.8458	-2.75	-2.3729	-2.9875	-2.5729	-2.6396	-2.8979	-2.5021	-2.8917	164.599	-72.102	139.103	210.906	34.104	122.084	251.369	188.120	-42.205	40.748	231.241	206.772	-80.083	-101.794	-72.348	173.575	0.00037978	0.00061279	0.00013841	805.51	5.37e-06	5.7144e-06	958.42	267.55	1.6457e-06	6.4996e-06	353.29	127.02	95.507	38.397	1.6628e-06	54.389	0.00014627	0.00013021	3.9587e-05	658.16	1.5243e-06	1.4096e-06	799.36	225.52	1.6149e-06	1.4254e-06	294.86	105.62	80.509	32.265	1.7441e-06	45.752	-4.836	-5.722	-22.037	-92.941	75.936	37.727	-94.106	-87.294	96.549	66.053	-89.438	-85.450	-82.562	-77.911	110.110	-80.796	-8191	255	
3287.885	1	1	0	0	0.0878	0.13558	0.07997	0.1175	0.021531	0.18358	0.16657	0.093044	0.18865	0.20747	0.12704	0.13487	0.20867	0.36385	0.14566	0.18369	-2.1937	-2.5375	-2.8625	-2.4104	-2.7396	-2.9917	-2.5812	-2.7354	-2.6604	-2.4	-2.925	-2.5375	-2.4979	-3.0271	-2.3146	-2.7875	105.812	57.034	52.308	-23.357	32.667	72.204	118.950	175.062	-33.124	-29.953	175.152	44.700	214.096	238.248	43.644	-86.068	0.00032859	0.00063104	0.000145	814.11	4.838e-06	7.5364e-06	959.62	270.03	3.5996e-06	6.9741e-06	354	127.18	95.221	38.33	1.9019e-06	55.417	0.00015529	0.00013941	4.5106e-05	662.67	1.6137e-06	1.556e-06	804.9	226.46	1.6922e-06	1.7143e-06	295.42	106.02	80.526	32.369	2.0178e-06	46.292	19.791	-71.104	81.230	-92.829	63.134	36.408	-93.922	-87.342	2.000	79.006	-89.945	-84.854	-82.639	-77.633	36.214	-80.521	-8191	255	
3288.006	1	1	0	0	0.21492	0.060918	0.06649	0.30083	0.13578	0.051516	0.18412	0.10195	0.13082	0.23915	0.18966	0.23215	0.082787	0.21428	0.059246	0.17563	-2.3812	-2.4979	-2.6417	-2.6562	-2.4292	-2.9146	-2.7417	-2.6333	-2.7333	-2.6271	-2.8979	-2.9833	-2.2208	-2.9313	-2.6813	-2.5708	-11.797	99.242	-13.930	249.002	45.878	178.675	174.029	198.939	-40.260	-85.725	-66.287	-63.521	227.177	-54.243	-84.710	-80.584	0.00034241	0.00056859	0.00015415	804.7	5.1239e-06	1.2003e-06	947.99	267.04	9.5145e-07	2.3236e-06	352.13	124.33	95.562	37.952	8.1816e-06	54.208	0.00016583	0.0001684	5.1543e-05	661.52	1.8022e-06	1.8647e-06	798.45	224.65	1.8771e-06	1.914e-06	292.91	104.11	80.445	32.012	1.9993e-06	45.231	-13.469	16.031	-68.598	-92.525	85.652	-15.709	-93.838	-87.552	-100.698	-29.012	-89.759	-85.523	-82.646	-78.003	71.886	-80.523	-8191	255	
#DATA ENDS
