BOXY.EXE: ISS Imagent and Oximeter Data Acquisition Program Version 0.80
Ascii Record File

#ACQ INFORMATION
2  Detector Channels 
16  External MUX Channels 
1  Auxiliary Channels 
5000  Waveform (CCF) Frequency (Hz)
1  Waveforms Skipped 
30  Waveforms Averaged 
1  Cycles Averaged 
16  Acquisitions per Waveform 
10.0806  Updata Rate (Hz) 

#FILE INFORMATION
TRUE -- External MUX Channel results are PARSED.
FALSE -- AC DC and Phase are NOT grouped.
TRUE -- Companion Program Settings File CREATED.
FALSE -- AC data not excluded
FALSE -- DC data not excluded
FALSE -- Phase data not excluded
FALSE -- Auxillary Chn. data not excluded
Tab delimiters

#CALIBRATION STATE
TRUE -- Waveform Calibration Values APPLIED.


#AUX CALIBRATION VALUES
Val Type	aux-1	

Term	1.0000e+00	
Factor	0.0000e+00	


#WF CALIBRATION VALUES
A = Detector Channel
Val Type	A-AC1	A-AC2	A-AC3	A-AC4	A-AC5	A-AC6	A-AC7	A-AC8	A-AC9	A-AC10	A-AC11	A-AC12	A-AC13	A-AC14	A-AC15	A-AC16	A-DC1	A-DC2	A-DC3	A-DC4	A-DC5	A-DC6	A-DC7	A-DC8	A-DC9	A-DC10	A-DC11	A-DC12	A-DC13	A-DC14	A-DC15	A-DC16	A-Ph1	A-Ph2	A-Ph3	A-Ph4	A-Ph5	A-Ph6	A-Ph7	A-Ph8	A-Ph9	A-Ph10	A-Ph11	A-Ph12	A-Ph13	A-Ph14	A-Ph15	A-Ph16	

Term	0.00000e+00	0.00000e+00	0.00000e+00	0.00000e+00	0.00000e+00	0.00000e+00	0.00000e+00	0.00000e+00	0.00000e+00	0.00000e+00	0.00000e+00	0.00000e+00	0.00000e+00	0.00000e+00	0.00000e+00	0.00000e+00	0.00000e+00	0.00000e+00	0.00000e+00	0.00000e+00	0.00000e+00	0.00000e+00	0.00000e+00	0.00000e+00	0.00000e+00	0.00000e+00	0.00000e+00	0.00000e+00	0.00000e+00	0.00000e+00	0.00000e+00	0.00000e+00	0.00000e+00	0.00000e+00	0.00000e+00	0.00000e+00	0.00000e+00	0.00000e+00	0.00000e+00	0.00000e+00	0.00000e+00	0.00000e+00	0.00000e+00	0.00000e+00	0.00000e+00	0.00000e+00	0.00000e+00	0.00000e+00	
Factor	1.00000e+00	1.00000e+00	1.00000e+00	1.00000e+00	1.00000e+00	1.00000e+00	1.00000e+00	1.00000e+00	1.00000e+00	1.00000e+00	1.00000e+00	1.00000e+00	1.00000e+00	1.00000e+00	1.00000e+00	1.00000e+00	1.00000e+00	1.00000e+00	1.00000e+00	1.00000e+00	1.00000e+00	1.00000e+00	1.00000e+00	1.00000e+00	1.00000e+00	1.00000e+00	1.00000e+00	1.00000e+00	1.00000e+00	1.00000e+00	1.00000e+00	1.00000e+00	X	X	X	X	X	X	X	X	X	X	X	X	X	X	X	X	

B = Detector Channel
Val Type	B-AC1	B-AC2	B-AC3	B-AC4	B-AC5	B-AC6	B-AC7	B-AC8	B-AC9	B-AC10	B-AC11	B-AC12	B-AC13	B-AC14	B-AC15	B-AC16	B-DC1	B-DC2	B-DC3	B-DC4	B-DC5	B-DC6	B-DC7	B-DC8	B-DC9	B-DC10	B-DC11	B-DC12	B-DC13	B-DC14	B-DC15	B-DC16	B-Ph1	B-Ph2	B-Ph3	B-Ph4	B-Ph5	B-Ph6	B-Ph7	B-Ph8	B-Ph9	B-Ph10	B-Ph11	B-Ph12	B-Ph13	B-Ph14	B-Ph15	B-Ph16	

Term	0.00000e+00	0.00000e+00	0.00000e+00	0.00000e+00	0.00000e+00	0.00000e+00	0.00000e+00	0.00000e+00	0.00000e+00	0.00000e+00	0.00000e+00	0.00000e+00	0.00000e+00	0.00000e+00	0.00000e+00	0.00000e+00	0.00000e+00	0.00000e+00	0.00000e+00	0.00000e+00	0.00000e+00	0.00000e+00	0.00000e+00	0.00000e+00	0.00000e+00	0.00000e+00	0.00000e+00	0.00000e+00	0.00000e+00	0.00000e+00	0.00000e+00	0.00000e+00	-6.55746e+01	-1.32460e+02	-1.24044e+02	-1.81644e+02	-4.96078e+01	-6.09442e+01	-1.57078e+02	-1.62015e+02	-5.27148e+01	-6.58019e+01	-1.71967e+02	-1.70181e+02	-1.79589e+02	-1.77401e+02	-5.55509e+01	-1.50229e+02	
Factor	1.83242e-05	1.60084e-04	4.40432e-05	1.55119e-01	1.49884e-06	1.72698e-06	1.71925e-01	5.85861e-02	1.36267e-06	1.76728e-06	8.00050e-02	2.74382e-02	3.05121e-02	9.14989e-03	1.57629e-06	1.28563e-02	1.07384e-05	1.73561e-05	4.82899e-06	8.05253e-02	1.73972e-07	1.92695e-07	8.40553e-02	3.05412e-02	1.75866e-07	1.93004e-07	4.05408e-02	1.39842e-02	1.61609e-02	4.81515e-03	1.80523e-07	6.55076e-03	X	X	X	X	X	X	X	X	X	X	X	X	X	X	X	X	



#DISTANCE SETTINGS
A = Detector Channel
A-1	A-2	A-3	A-4	A-5	A-6	A-7	A-8	A-9	A-10	A-11	A-12	A-13	A-14	A-15	A-16	

2.5000e+00	3.0000e+00	2.5000e+00	3.0000e+00	2.0000e+00	3.0000e+00	1.5000e+00	3.0000e+00	3.0000e+00	3.0000e+00	3.0000e+00	3.0000e+00	3.0000e+00	3.0000e+00	1.5000e+00	3.0000e+00	

B = Detector Channel
B-1	B-2	B-3	B-4	B-5	B-6	B-7	B-8	B-9	B-10	B-11	B-12	B-13	B-14	B-15	B-16	

1.0000e+01	1.0000e+01	1.0000e+01	1.4400e+00	1.0000e+01	1.0000e+01	1.5100e+00	1.9400e+00	1.0000e+01	1.0000e+01	1.9900e+00	2.4900e+00	2.4100e+00	2.9000e+00	1.0000e+01	2.9800e+00	




#DATA BEGINS
time	group	step	mark	flag	A-AC1	A-AC2	A-AC3	A-AC4	A-AC5	A-AC6	A-AC7	A-AC8	A-AC9	A-AC10	A-AC11	A-AC12	A-AC13	A-AC14	A-AC15	A-AC16	A-DC1	A-DC2	A-DC3	A-DC4	A-DC5	A-DC6	A-DC7	A-DC8	A-DC9	A-DC10	A-DC11	A-DC12	A-DC13	A-DC14	A-DC15	A-DC16	A-Ph1	A-Ph2	A-Ph3	A-Ph4	A-Ph5	A-Ph6	A-Ph7	A-Ph8	A-Ph9	A-Ph10	A-Ph11	A-Ph12	A-Ph13	A-Ph14	A-Ph15	A-Ph16	B-AC1	B-AC2	B-AC3	B-AC4	B-AC5	B-AC6	B-AC7	B-AC8	B-AC9	B-AC10	B-AC11	B-AC12	B-AC13	B-AC14	B-AC15	B-AC16	B-DC1	B-DC2	B-DC3	B-DC4	B-DC5	B-DC6	B-DC7	B-DC8	B-DC9	B-DC10	B-DC11	B-DC12	B-DC13	B-DC14	B-DC15	B-DC16	B-Ph1	B-Ph2	B-Ph3	B-Ph4	B-Ph5	B-Ph6	B-Ph7	B-Ph8	B-Ph9	B-Ph10	B-Ph11	B-Ph12	B-Ph13	B-Ph14	B-Ph15	B-Ph16	aux-1	digaux	

16692.279	1	1	0	256	0.090816	0.26424	0.32218	0.077975	0.21883	0.2641	0.11048	0.15854	0.1596	0.28247	0.20291	0.17441	0.079978	0.28645	0.061271	0.14955	-2.1896	-2.5146	-2.1021	-2.7646	-2.4938	-2.6167	-2.8	-2.1854	-2.6083	-2.4396	-2.2396	-2.6958	-2.2896	-2.5458	-2.6354	-2.4667	271.028	454.418	379.379	294.449	197.000	222.812	297.012	430.735	172.845	410.053	452.178	500.700	245.669	466.195	167.936	213.571	0.00024495	0.00043612	6.0241e-05	456.11	1.2987e-06	5.138e-06	545.84	105.04	2.6711e-06	1.2912e-06	156.6	51.49	28.807	11.184	1.9468e-06	24.8	0.0014321	0.0020957	0.00058162	453.18	2.1228e-05	2.34e-05	542.97	106.25	2.0956e-05	2.2852e-05	158.22	52.438	30.444	11.747	2.1508e-05	25.424	258.335	227.119	313.896	180.869	333.879	479.256	180.091	185.836	295.282	297.785	184.971	189.817	191.012	195.148	246.309	193.050	-8191	255	
16692.377	1	1	0	0	0.099303	0.1486	0.2056	0.14459	0.027609	0.21786	0.096969	0.046058	0.15522	0.21325	0.085851	0.010929	0.015333	0.12353	0.40795	0.24731	-2.0625	-2.4375	-2.3187	-2.7333	-2.5521	-2.2333	-2.7729	-2.4854	-2.6042	-2.6083	-2.2646	-2.5083	-2.4917	-2.1312	-2.55	-2.4313	278.794	327.015	352.723	466.521	494.877	229.671	307.996	494.098	505.728	399.296	311.472	385.076	522.916	174.200	513.853	420.535	0.00021126	0.00020163	0.00012021	461.19	2.1031e-06	4.2703e-06	551.67	105.05	1.2867e-06	2.6754e-06	155.43	51.125	29.017	11.181	1.6316e-06	24.716	0.0013715	0.0020449	0.00057282	457.98	2.0947e-05	2.2749e-05	546.1	106.54	2.0802e-05	2.2285e-05	157.52	51.912	30.217	11.622	2.1485e-05	25.181	266.223	511.944	243.885	180.571	326.374	292.258	180.369	185.576	240.790	269.866	184.983	189.944	190.704	195.621	305.010	193.334	-8191	255	
16692.473	1	1	0	0	0.060783	0.19133	0.31693	0.23063	0.073083	0.14842	0.21093	0.40828	0.21313	0.11642	0.25146	0.16082	0.016997	0.28406	0.043918	0.31979	-1.85	-2.4188	-2.1896	-2.6063	-2.3021	-2.4083	-2.7667	-2.3583	-2.275	-2.5083	-2.1333	-2.6063	-2.4458	-2.1625	-2.6354	-2.4562	518.049	254.302	464.532	434.662	513.284	375.811	435.502	363.996	293.687	242.140	216.917	416.156	524.824	246.707	289.063	449.253	0.00022365	0.0001401	8.9525e-05	455.16	2.1944e-06	4.2785e-06	549.07	104.35	2.2311e-06	1.681e-06	155.37	50.972	28.881	11.099	1.0269e-06	24.802	0.0013899	0.0020447	0.0005611	454.25	2.0562e-05	2.2908e-05	545.17	106.02	2.0067e-05	2.2552e-05	157.51	51.904	30.239	11.589	2.0416e-05	25.301	262.380	412.703	348.307	180.757	419.616	318.649	180.059	185.794	258.445	489.303	184.728	190.559	190.921	195.573	170.440	193.291	-8191	255	
16692.594	1	1	0	0	0.26253	0.18235	0.015055	0.10403	0.171	0.14785	0.20764	0.26074	0.20418	0.097721	0.24972	0.11891	0.21654	0.1978	0.17192	0.27206	-1.8521	-2.675	-2.1021	-2.4104	-2.4813	-2.1437	-2.5646	-2.2479	-2.3438	-2.6521	-2.2562	-2.5708	-2.6583	-2.0938	-2.4979	-2.3542	392.814	363.733	400.273	413.103	517.926	238.321	183.828	406.295	201.568	405.401	202.338	526.020	183.765	495.104	170.653	376.750	0.00025474	0.00022149	0.00017089	459.37	8.8066e-07	3.9269e-06	548.14	105.26	5.9604e-06	4.2487e-06	158.8	51.075	29.12	11.377	3.1165e-06	25.056	0.001358	0.0019625	0.00055676	457.13	1.993e-05	2.2108e-05	547.46	106.79	2.0724e-05	2.2032e-05	159.43	52.428	30.368	11.776	2.0771e-05	25.458	257.246	275.265	281.266	180.677	260.592	378.543	180.417	185.494	365.696	507.669	184.721	189.891	190.664	195.409	427.719	193.083	-8191	255	
16692.689	1	1	0	0	0.03233	0.11712	0.28458	0.20438	0.052359	0.21662	0.21333	0.17495	0.28385	0.14256	0.056414	0.19368	0.017858	0.21077	0.082194	0.19813	-2.0083	-2.4479	-2.2354	-2.4083	-2.5208	-2.2604	-2.7375	-2.4417	-2.2958	-2.7313	-2.3771	-2.3958	-2.4396	-2.1646	-2.5208	-2.4333	168.711	363.751	208.309	207.714	285.490	364.545	461.023	447.720	442.331	466.112	352.868	369.765	355.486	490.135	503.525	191.326	0.00025934	0.00075474	0.00013335	464.85	1.7633e-06	4.9502e-06	555.17	106.58	5.687e-06	6.6135e-06	158.04	52.09	29.163	11.372	2.8707e-06	25.066	0.0013793	0.0019935	0.00056447	460.58	2.0107e-05	2.2481e-05	549.22	107.77	2.0532e-05	2.2312e-05	159.7	52.774	30.511	11.796	2.033e-05	25.482	264.030	304.446	283.986	180.614	293.926	400.171	180.298	185.657	325.499	322.042	184.569	189.962	191.295	196.053	241.315	193.298	-8191	255	
16692.762	1	1	0	0	0.10706	0.15066	0.18211	0.30994	0.14915	0.18033	0.12948	0.38467	0.067165	0.10079	0.11222	0.089942	0.13027	0.18074	0.11155	0.35331	-1.7396	-2.7375	-2.4313	-2.4792	-2.55	-2.3396	-2.6958	-2.4479	-2.1042	-2.725	-2.3854	-2.4625	-2.4688	-2.3125	-2.7313	-2.5625	293.699	249.478	441.691	484.033	443.478	255.957	231.589	506.515	430.158	234.678	227.085	241.045	343.969	382.904	516.651	188.185	0.00025384	0.00034469	0.00014761	467.21	6.8301e-06	1.6908e-06	557.56	107.79	6.1721e-06	3.7415e-06	157.58	52.022	29.147	11.221	1.975e-07	24.614	0.0013596	0.001988	0.00055684	463.43	2.0001e-05	2.1998e-05	553.07	108.46	2.0101e-05	2.1246e-05	159.86	52.635	30.594	11.657	2.0089e-05	25.195	257.517	285.543	494.510	180.779	325.632	327.768	180.252	185.964	359.534	279.688	184.697	189.710	190.188	195.441	219.603	193.127	-8191	255	
16692.883	1	1	0	0	0.17668	0.092094	0.032262	0.055547	0.10371	0.36399	0.36798	0.32137	0.037403	0.20089	0.28758	0.11706	0.21912	0.072313	0.27634	0.14843	-1.8708	-2.5792	-2.225	-2.475	-2.6458	-2.2938	-2.5979	-2.4625	-2.2667	-2.6813	-2.2792	-2.3417	-2.7646	-2.2271	-2.4979	-2.5458	326.035	179.813	380.102	261.534	472.550	270.512	174.876	430.623	364.096	450.425	433.095	352.456	231.180	330.961	509.283	321.818	0.00024391	0.00063491	1.4896e-05	465.24	6.1873e-06	3.1762e-06	559.09	106.95	3.3582e-06	3.508e-06	159.31	51.235	29.234	11.104	2.136e-06	24.515	0.001328	0.0019151	0.000538	463.5	1.9023e-05	2.2036e-05	553.95	108.36	1.9419e-05	2.1388e-05	159.81	52.228	30.5	11.527	2.0539e-05	25.092	263.415	264.626	289.859	180.886	276.869	188.268	180.170	185.821	291.441	303.716	184.598	189.739	190.640	196.105	332.519	192.830	-8191	255	
16692.979	1	1	0	0	0.16216	0.25307	0.3158	0.22121	0.13639	0.30892	0.11383	0.15449	0.034818	0.33234	0.22297	0.1593	0.057179	0.23395	0.21563	0.13587	-1.8708	-2.4896	-2.3875	-2.15	-2.4896	-2.2938	-2.5438	-2.4958	-2.3854	-2.4854	-2.5875	-2.2833	-2.8542	-2.3042	-2.5083	-2.6396	191.846	356.912	254.146	505.329	521.040	518.711	512.904	374.337	497.901	193.845	265.295	265.375	183.193	392.291	285.365	178.094	0.00024011	0.00022383	4.5842e-05	463.41	1.7457e-06	4.542e-06	550.14	107.56	3.4291e-06	4.2867e-06	159.68	51.777	29.265	11.396	2.8864e-06	25.087	0.001324	0.0019139	0.00052944	462.69	1.9462e-05	2.1742e-05	550.63	108.48	2.0224e-05	2.2058e-05	160.17	52.517	30.524	11.754	2.0987e-05	25.528	255.282	224.604	507.453	180.487	382.463	336.817	180.358	185.796	306.903	270.204	184.590	189.951	190.810	195.794	262.914	193.386	-8191	255	
16693.072	1	1	0	0	0.18191	0.13957	0.155	0.20397	0.11641	0.17261	0.16936	0.15022	0.23672	0.20469	0.096841	0.21301	0.25049	0.14143	0.097994	0.16571	-1.9438	-2.6458	-2.2958	-2.2521	-2.55	-2.3125	-2.4833	-2.5875	-2.2521	-2.5021	-2.5792	-2.2292	-2.575	-2.3167	-2.4146	-2.7271	416.013	454.571	477.620	215.247	346.492	417.385	409.473	169.267	238.261	227.285	412.938	278.645	478.366	492.542	330.215	497.993	0.0002702	0.0002479	0.00012444	463.75	3.8158e-06	2.4653e-06	554.39	106.13	5.4915e-06	6.7907e-06	159.41	51.809	29.639	11.375	1.0213e-06	24.888	0.0013713	0.0020066	0.00056024	461.35	2.0374e-05	2.2343e-05	551.03	108.17	1.9963e-05	2.2166e-05	160.11	52.773	30.784	11.764	2.0646e-05	25.429	258.380	217.098	515.527	180.479	374.224	339.157	180.096	186.029	330.962	321.016	184.693	189.789	190.929	195.651	292.417	192.813	-8191	255	
16693.168	1	1	0	0	0.10148	0.27365	0.21547	0.12586	0.20191	0.20537	0.16057	0.086516	0.14485	0.087894	0.28549	0.27373	0.22383	0.17919	0.13055	0.14697	-2.0104	-2.5958	-2.4583	-2.1958	-2.6583	-2.4625	-2.375	-2.5771	-2.2646	-2.525	-2.625	-2.2708	-2.6604	-2.3104	-2.4021	-2.6542	404.005	452.280	462.731	495.914	413.136	256.372	377.926	283.189	175.268	463.490	249.102	297.453	342.426	393.035	177.506	192.906	0.00019022	0.00025632	7.3082e-05	462.92	3.2052e-06	2.1694e-06	554.9	106.86	1.6911e-06	6.9641e-06	156.31	51.043	28.888	11.186	4.0308e-06	24.304	0.0013614	0.001959	0.00054511	462.42	1.9751e-05	2.206e-05	550.38	108.18	2.0126e-05	2.1637e-05	158.37	51.863	30.215	11.551	2.0373e-05	24.926	259.916	341.295	199.905	180.557	279.640	291.529	180.002	185.443	319.805	341.818	184.501	189.698	190.327	196.417	422.661	193.116	-8191	255	
16693.289	1	1	0	0	0.070914	0.1836	0.20872	0.099884	0.14444	0.28453	0.12035	0.1673	0.14845	0.2683	0.152	0.047344	0.067705	0.13126	0.37325	0.14447	-2.0833	-2.4396	-2.525	-2.1833	-2.4333	-2.4437	-2.4292	-2.675	-2.2833	-2.5167	-2.6167	-2.1063	-2.5458	-2.3792	-2.3542	-2.8646	233.219	474.785	255.418	373.026	272.384	450.215	191.107	441.528	214.321	498.421	515.727	390.838	215.770	485.599	304.985	495.499	0.00023548	0.00043663	0.00011848	458.15	1.5263e-06	4.0241e-06	543.6	104.21	6.4957e-06	7.269e-06	154.11	49.921	28.1	11.186	3.4407e-06	24.57	0.0013562	0.0020126	0.00055722	456.61	2.0097e-05	2.2225e-05	543.09	105.64	2.0665e-05	2.1985e-05	156.04	51.175	29.806	11.535	2.0749e-05	24.919	257.888	240.629	260.949	181.035	273.762	388.487	180.567	185.572	285.830	298.129	184.724	190.022	190.401	195.651	277.638	193.210	-8191	255	
16693.361	1	1	0	0	0.0687	0.24076	0.095311	0.13181	0.11823	0.1945	0.06924	0.20882	0.076789	0.0047892	0.13566	0.061551	0.14568	0.082057	0.0827	0.19423	-1.9771	-2.5042	-2.6917	-2.2188	-2.5563	-2.4688	-2.4354	-2.7229	-2.3771	-2.1625	-2.6729	-2.4938	-2.5958	-2.525	-2.125	-2.8292	208.831	495.198	488.313	524.568	335.697	300.064	383.712	177.207	175.244	303.453	251.609	178.901	391.610	442.533	214.677	493.865	0.00026276	9.4186e-05	6.4742e-05	456.62	4.2596e-06	4.4617e-06	546.02	103.88	4.499e-06	4.2256e-06	153.59	50.035	28.655	11.052	3.6894e-07	24.501	0.001358	0.0020516	0.00056918	455.81	2.0241e-05	2.1864e-05	542.37	105.53	2.0406e-05	2.2613e-05	155.78	51.367	29.995	11.509	2.0973e-05	25.028	251.703	395.824	280.802	180.313	441.941	314.065	180.438	185.732	335.964	319.420	184.832	189.902	189.949	195.367	265.755	192.935	-8191	255	
16693.457	1	1	0	0	0.26557	0.20466	0.29724	0.081006	0.17583	0.11757	0.21445	0.091207	0.044271	0.17283	0.12074	0.11124	0.15677	0.39321	0.20977	0.1764	-2.0312	-2.1667	-2.6583	-2.2729	-2.5312	-2.6271	-2.3563	-2.5417	-2.3021	-2.3688	-2.6458	-2.2792	-2.3937	-2.7104	-2.3688	-2.6063	487.393	430.560	432.168	335.438	326.641	513.492	285.901	450.950	263.056	441.435	477.959	492.473	168.919	181.188	518.809	286.597	0.00027118	4.2947e-05	5.6672e-05	455.7	2.5143e-06	4.5475e-06	540.98	103.76	1.2674e-06	4.8073e-06	153.77	50.461	28.326	11.008	1.3115e-06	24.43	0.001354	0.0020265	0.00056646	453.62	2.0391e-05	2.206e-05	540.86	104.47	2.0743e-05	2.2546e-05	155.05	51.255	29.744	11.462	2.1184e-05	24.952	268.274	519.549	288.857	180.422	239.744	276.099	180.071	185.707	193.298	303.674	184.923	189.805	190.771	195.951	207.452	193.200	-8191	255	
16693.553	1	1	0	0	0.093849	0.35449	0.19354	0.14581	0.15839	0.16383	0.14856	0.22179	0.035292	0.28317	0.12819	0.16072	0.19157	0.15358	0.18193	0.21276	-1.8875	-2.3104	-2.6562	-2.3042	-2.2271	-2.5979	-2.3729	-2.5062	-2.4833	-2.3833	-2.675	-2.2979	-2.2875	-2.4875	-2.0917	-2.7958	442.011	231.929	523.862	481.836	213.800	295.882	394.542	483.451	206.251	498.070	464.435	481.341	201.797	338.844	447.395	448.266	0.0002361	9.396e-05	2.2745e-05	447.48	1.8497e-06	2.2581e-06	537.89	101.91	3.7927e-06	4.3008e-06	150.03	49.695	27.906	10.837	5.3813e-06	24.396	0.0013515	0.0020486	0.00055143	446.38	2.0293e-05	2.2258e-05	534.66	103.03	2.0795e-05	2.2305e-05	152.35	50.552	29.245	11.328	2.0399e-05	24.826	258.892	202.172	290.558	180.632	238.398	319.069	180.166	185.630	267.171	332.480	184.765	189.727	190.736	196.312	360.352	192.941	-8191	255	
16693.674	1	1	0	0	0.40183	0.21644	0.042384	0.11404	0.13205	0.16784	0.12906	0.16049	0.36554	0.15146	0.26868	0.17938	0.17475	0.12279	0.27043	0.20207	-2.1146	-2.1146	-2.6271	-2.3979	-2.3812	-2.8312	-2.3604	-2.4667	-2.7479	-2.1583	-2.875	-2.3896	-2.4896	-2.6792	-2.0521	-2.4479	389.402	404.076	441.965	221.745	432.055	457.054	471.829	461.588	316.366	254.495	495.828	169.179	346.081	503.409	499.756	461.366	0.00024873	0.00052578	9.6425e-05	449.17	4.4195e-06	4.529e-06	532.15	101.36	6.093e-07	2.8746e-06	150.79	49.595	27.833	10.884	1.2476e-06	24.317	0.0013154	0.0019573	0.00054989	446.09	2.0109e-05	2.217e-05	529.58	102.31	2.044e-05	2.1813e-05	151.61	50.56	29.157	11.328	2.003e-05	24.822	258.754	210.027	255.303	180.399	319.822	302.406	180.285	185.745	424.876	394.620	184.747	189.652	190.825	195.573	394.621	193.026	-8191	255	
16693.770	1	1	0	0	0.071056	0.12163	0.061033	0.063521	0.21776	0.1324	0.25922	0.19324	0.14627	0.12789	0.15033	0.43184	0.24575	0.10737	0.09758	0.21061	-2.0417	-2.1479	-2.5875	-2.5417	-2.4333	-2.8396	-2.2646	-2.4562	-2.75	-2.1375	-2.5646	-2.4979	-2.2083	-2.6813	-2.4625	-2.4417	353.357	520.118	274.961	296.185	447.232	319.422	463.558	225.019	308.268	397.378	471.205	515.471	472.178	215.210	385.632	171.270	0.00019408	0.00020695	8.3815e-05	446.21	2.3004e-06	2.4808e-06	536.83	100.49	3.1565e-06	2.2785e-06	151.44	49.708	27.902	10.88	1.1834e-06	24.445	0.0012656	0.0019269	0.00052465	444.6	1.8723e-05	1.9905e-05	532.32	102.3	1.7942e-05	1.9854e-05	152.4	50.55	29.259	11.334	1.8737e-05	24.972	248.307	198.442	235.175	180.695	355.168	272.719	180.440	185.884	256.473	356.288	184.380	189.978	190.630	196.016	475.257	192.866	-8191	255	
16693.865	1	1	0	0	0.14645	0.12913	0.068659	0.21593	0.14088	0.096226	0.32206	0.14983	0.16146	0.11601	0.18443	0.033155	0.069721	0.11977	0.055246	0.221	-2.4104	-2.275	-2.5521	-2.5625	-2.2729	-2.5875	-2.3688	-2.5604	-2.6146	-2.3	-2.6021	-2.6646	-2.4313	-2.5479	-2.4625	-2.3604	296.573	364.604	415.969	182.065	373.031	397.142	432.797	323.600	249.595	376.817	518.230	472.845	385.089	508.209	299.805	262.416	0.00026863	0.00032639	9.5804e-05	449.04	5.3651e-06	6.3361e-06	535.24	101.49	1.279e-06	6.5324e-06	152.95	50.336	28.38	11.075	3.2433e-06	25.105	0.0012031	0.001818	0.00050279	445.11	1.8519e-05	2.0562e-05	533.99	102.85	1.8412e-05	2.0179e-05	154.7	51.395	29.682	11.546	1.8981e-05	25.491	264.716	337.717	198.786	180.755	293.412	284.614	179.833	185.822	385.420	323.046	185.138	189.555	190.494	196.072	266.121	193.118	-8191	255	
16693.963	1	1	0	0	0.047559	0.33128	0.19207	0.22047	0.19182	0.32078	0.1225	0.087721	0.18255	0.045015	0.26476	0.24911	0.16824	0.10144	0.17201	0.15452	-2.3104	-2.1854	-2.4979	-2.475	-2.2354	-2.6146	-2.3812	-2.3896	-2.775	-2.2854	-2.5271	-2.4958	-2.2792	-2.7646	-2.3688	-2.4667	449.514	371.911	306.538	513.148	331.095	169.015	284.917	348.814	176.842	272.279	504.017	456.751	363.988	461.335	263.305	485.977	0.00023961	0.00028347	5.1402e-05	453.64	3.0159e-06	3.8706e-06	540.28	103.72	1.7396e-06	4.3487e-06	154.51	50.915	28.855	11.505	4.3416e-06	25.159	0.0012187	0.001852	0.00051286	449.62	1.8479e-05	2.0147e-05	538.64	104.49	1.8589e-05	2.061e-05	155.63	51.634	29.932	11.778	1.8985e-05	25.591	257.501	306.231	520.791	180.796	268.395	329.904	180.463	185.700	292.772	337.223	184.565	189.926	190.883	195.753	320.963	193.492	-8191	255	
16694.059	1	1	0	0	0.12028	0.24166	0.24045	0.3948	0.05501	0.14997	0.28939	0.14187	0.19415	0.067145	0.09851	0.058648	0.2547	0.28408	0.042765	0.06234	-2.3	-2.2313	-2.4854	-2.5292	-2.1521	-2.6792	-2.6417	-2.4375	-2.7021	-2.2542	-2.3312	-2.6562	-2.2792	-2.5042	-2.5271	-2.4542	203.553	436.712	484.128	259.475	312.942	296.974	403.209	480.129	346.730	386.343	282.626	349.491	475.601	483.892	223.016	206.953	0.00027715	0.00020713	0.00014816	452.15	4.6803e-06	1.0546e-05	537.82	103.47	2.2761e-06	2.6658e-06	152.6	50.869	28.667	11.416	3.7018e-06	25.311	0.0012302	0.0018602	0.00050422	449.26	1.8616e-05	2.0252e-05	535.58	104.55	1.866e-05	2.0332e-05	154.78	51.625	29.973	11.794	1.8822e-05	25.776	250.873	348.762	299.031	180.478	338.195	307.835	180.574	185.947	298.238	498.058	184.775	190.097	190.732	195.631	283.839	193.489	-8191	255	
16694.154	1	1	0	0	0.20652	0.23931	0.25454	0.16833	0.25354	0.086307	0.27169	0.29139	0.27346	0.044251	0.025132	0.25087	0.082136	0.15461	0.11845	0.068772	-2.1521	-2.525	-2.5833	-2.5292	-2.2146	-2.4875	-2.5458	-1.9937	-2.5083	-2.3875	-2.5062	-2.6583	-2.3333	-2.4313	-2.4646	-2.3521	212.937	426.110	433.183	478.369	456.460	306.630	345.617	496.377	348.231	168.886	506.694	522.631	277.578	491.124	241.700	518.040	0.0002958	0.00038525	3.089e-05	452.02	1.0146e-06	5.5584e-06	541.77	103.83	4.0356e-06	5.2705e-06	154.29	50.959	28.696	11.302	1.0383e-06	25.088	0.0012465	0.0018642	0.00052587	448.85	1.8968e-05	2.0759e-05	537.78	104.71	1.885e-05	2.0828e-05	155.64	51.767	30.003	11.805	1.951e-05	25.62	249.887	268.213	269.470	180.246	283.463	281.690	180.096	185.863	346.023	319.137	184.509	189.653	191.273	195.699	390.230	193.291	-8191	255	
16694.273	1	1	0	0	0.20906	0.11062	0.17156	0.37393	0.23733	0.17155	0.27338	0.11286	0.16977	0.1842	0.2182	0.18342	0.13047	0.12187	0.11608	0.17786	-2.4	-2.4437	-2.1562	-2.8312	-2.2542	-2.5854	-2.8958	-2.1042	-2.6021	-2.4833	-2.3896	-2.7771	-2.2167	-2.5604	-2.5875	-2.2333	494.450	507.091	461.356	248.611	297.274	170.995	402.484	297.070	307.346	525.222	448.159	410.717	462.349	516.190	192.886	471.536	0.0002799	0.00039373	8.1247e-05	450.92	1.5179e-06	1.6954e-06	541.99	103.5	5.0764e-06	6.3241e-06	155.37	51.369	29.018	11.366	2.7882e-06	25.241	0.0012644	0.0018697	0.00053211	450.24	1.9387e-05	2.1082e-05	540.63	105.29	1.9194e-05	2.0858e-05	156.82	52.297	30.293	11.829	1.9603e-05	25.762	259.197	518.605	376.277	180.683	464.587	318.084	180.107	185.853	383.956	276.892	184.761	189.670	191.152	195.691	305.811	193.072	-8191	255	
16694.369	1	1	0	0	0.24656	0.076294	0.25722	0.080327	0.13995	0.11755	0.03101	0.10629	0.011164	0.14215	0.27139	0.050649	0.22043	0.21773	0.13379	0.18942	-1.9583	-2.4979	-2.2188	-2.8521	-2.2771	-2.5292	-2.6813	-2.3083	-2.7396	-2.6979	-2.4	-2.7438	-2.3208	-2.3521	-2.7188	-2.45	413.069	494.766	420.946	249.581	514.548	511.810	301.491	378.480	494.987	388.809	429.674	309.119	201.954	464.380	302.559	179.856	0.00025665	0.00044599	0.00015992	457.68	1.9924e-06	4.5896e-06	548.87	104.86	3.9413e-06	3.0138e-06	156.81	51.537	28.927	11.549	1.5114e-06	25.495	0.0012895	0.0019242	0.00055377	454.88	1.9701e-05	2.1524e-05	545.79	106.46	2.004e-05	2.1735e-05	158.34	52.602	30.374	11.942	1.9968e-05	25.988	248.946	207.429	300.536	180.801	433.892	247.767	180.502	185.323	311.468	384.665	184.561	189.866	190.467	196.067	249.957	193.102	-8191	255	
16694.467	1	1	0	0	0.26612	0.21461	0.15775	0.097638	0.14937	0.39728	0.30713	0.16205	0.08346	0.29124	0.072591	0.31642	0.24208	0.1666	0.26488	0.15078	-2.1688	-2.5208	-2.2042	-2.5812	-2.3708	-2.3979	-2.8896	-2.1979	-2.5521	-2.5979	-2.3875	-2.7646	-2.3937	-2.4167	-2.8104	-2.3896	330.119	496.104	344.396	526.073	340.691	334.748	454.423	225.753	419.403	358.099	229.063	457.470	229.532	197.331	368.845	288.380	0.00026044	0.00037356	8.7846e-05	455.29	3.6575e-06	3.1288e-06	546.1	105.14	1.2819e-06	4.6798e-06	156.27	52.171	29.416	11.486	4.3425e-06	25.498	0.0012659	0.0019193	0.00054366	452.47	1.9079e-05	2.0873e-05	542.16	105.88	1.9131e-05	2.0883e-05	157.35	52.667	30.519	11.925	1.9677e-05	25.954	268.789	279.707	440.397	180.746	303.621	302.248	179.994	185.656	525.866	296.447	184.414	190.075	190.989	195.501	322.866	193.064	-8191	255	
16694.562	1	1	0	0	0.32435	0.14336	0.092512	0.1063	0.15974	0.23548	0.2932	0.13491	0.17474	0.12008	0.35979	0.30541	0.057119	0.17991	0.077614	0.066111	-1.9625	-2.4917	-2.1792	-2.6854	-2.4375	-2.2	-2.7417	-2.2938	-2.4917	-2.6083	-2.2812	-2.5604	-2.3854	-2.2188	-2.7583	-2.1875	197.612	284.665	356.865	413.593	485.953	487.303	172.677	451.854	185.916	433.459	482.473	328.930	431.938	402.101	478.861	447.511	0.00030213	0.00034338	0.00010822	452.87	1.0724e-06	4.2177e-06	544.34	104.04	7.3576e-06	2.5072e-06	155.57	51.672	28.807	11.317	2.1192e-06	25.409	0.0012951	0.0019463	0.00055634	450.25	1.9738e-05	2.186e-05	539.9	104.85	2.0439e-05	2.1749e-05	156.78	52.444	30.244	11.815	2.0198e-05	25.85	259.031	508.612	261.813	180.634	232.752	422.784	179.969	185.656	364.139	200.294	184.625	189.861	190.753	195.647	282.331	192.780	-8191	255	
16694.658	1	1	0	0	0.16892	0.20259	0.16555	0.083329	0.21849	0.16927	0.28325	0.13193	0.069315	0.17311	0.32989	0.049595	0.41166	0.27297	0.0089485	0.35166	-1.9438	-2.7458	-2.2625	-2.6875	-2.5271	-2.3312	-2.9688	-2.3271	-2.4271	-2.7354	-2.2646	-2.5979	-2.3792	-2.3583	-2.7208	-2.5125	249.137	372.781	223.292	485.075	179.936	441.627	472.154	373.901	297.440	431.818	176.786	430.560	395.506	184.027	409.559	423.723	0.00026012	0.00054049	0.00010226	451.14	2.6645e-06	2.7602e-06	547.34	104.71	3.5152e-06	4.8698e-06	155.82	51.816	29.26	11.397	2.8129e-06	25.266	0.0013241	0.0019813	0.00055513	450.93	1.99e-05	2.1618e-05	542.59	106	2.0603e-05	2.1669e-05	157.72	52.51	30.415	11.887	2.0332e-05	25.8	252.358	244.466	260.659	180.740	318.894	450.102	180.433	185.857	307.377	265.853	184.797	190.043	190.859	195.821	390.605	192.806	-8191	255	
16694.754	1	1	0	0	0.21409	0.29649	0.21225	0.23838	0.18979	0.29408	0.18114	0.16233	0.24465	0.073496	0.14117	0.11321	0.13741	0.21478	0.037981	0.15933	-1.8896	-2.6625	-2.2146	-2.6375	-2.5979	-2.0938	-2.45	-2.4813	-2.3375	-2.5458	-2.1937	-2.5229	-2.6542	-2.2625	-2.7542	-2.5062	460.807	289.714	346.964	415.227	482.594	233.425	306.896	355.258	399.529	372.004	421.793	197.801	172.891	261.827	250.086	372.418	0.0002601	0.00036156	0.00014131	454.88	1.3925e-06	2.1306e-06	544.43	103.98	2.5101e-06	3.264e-06	156.96	52.101	29.194	11.494	4.2555e-06	25.664	0.0013454	0.0019268	0.00054158	452.15	1.9794e-05	2.1865e-05	543.15	105.52	2.0469e-05	2.2363e-05	158.11	53.006	30.636	11.973	2.1088e-05	26.13	253.055	289.980	247.135	180.569	382.406	294.478	179.941	185.999	335.655	503.924	184.665	190.330	191.327	195.273	364.487	193.114	-8191	255	
16694.850	1	1	0	0	0.12634	0.32938	0.11617	0.12844	0.27162	0.18733	0.14554	0.15118	0.19187	0.095653	0.22125	0.086384	0.27213	0.15939	0.15971	0.055072	-1.9542	-2.575	-2.3187	-2.4938	-2.7958	-2.25	-2.7125	-2.5563	-2.3271	-2.6958	-2.4583	-2.5292	-2.6583	-2.1583	-2.5646	-2.4938	223.382	415.839	246.640	481.109	253.252	286.613	429.581	446.203	348.147	312.714	181.263	492.322	386.039	478.304	327.050	183.191	0.00027012	0.00020085	9.1258e-05	451.9	4.5477e-06	1.8222e-06	546.06	103.79	2.7269e-06	6.0217e-06	155.24	52.336	29.374	11.481	3.9306e-06	25.487	0.0013438	0.0019825	0.00055204	451.61	1.9944e-05	2.2043e-05	542.76	105.86	2.0696e-05	2.1937e-05	157.68	53.023	30.59	11.98	2.0893e-05	26.016	259.233	315.266	253.954	180.579	319.248	437.075	180.116	186.101	295.522	382.114	184.619	189.675	190.937	195.549	297.354	193.376	-8191	255	
16694.971	1	1	0	0	0.016031	0.15126	0.16644	0.28969	0.013228	0.19722	0.28503	0.20837	0.19309	0.12497	0.052087	0.090555	0.2137	0.13624	0.14139	0.022189	-1.7833	-2.8542	-2.4146	-2.4875	-2.6	-2.2771	-2.5375	-2.4313	-2.2687	-2.7083	-2.4125	-2.3917	-2.675	-2.4104	-2.5938	-2.6146	352.443	438.801	382.777	521.376	360.386	435.350	396.979	437.320	178.158	361.312	173.279	218.812	388.945	401.896	360.994	347.172	0.00021496	0.00054585	6.7308e-05	452.01	4.1405e-06	5.8656e-06	543.82	105.03	9.0772e-07	2.3447e-06	155.67	51.201	29.156	11.414	1.6447e-06	25.301	0.0013423	0.0019618	0.00053928	451.55	1.9859e-05	2.1871e-05	541.47	105.76	2.0134e-05	2.219e-05	156.89	52.347	30.26	11.863	2.0407e-05	25.894	248.772	247.778	311.730	180.655	440.203	272.925	180.623	185.705	397.971	383.086	184.535	190.271	190.863	196.074	276.118	193.015	-8191	255	
16695.064	1	1	0	0	0.069192	0.154	0.19078	0.15629	0.24719	0.061387	0.18016	0.055448	0.22169	0.17439	0.053674	0.23769	0.044303	0.12653	0.059335	0.10752	-1.7563	-2.275	-2.3563	-2.2833	-2.5104	-2.2042	-2.6042	-2.5	-2.2396	-2.6708	-2.3063	-2.3104	-2.8063	-2.4646	-2.5563	-2.7021	283.733	476.898	314.475	246.664	208.796	520.721	322.411	255.608	208.874	322.152	250.627	474.459	523.550	334.903	300.156	487.776	0.00024514	0.00074783	2.8146e-05	450.16	4.6058e-06	1.9653e-06	542.95	102.94	5.8603e-06	1.8375e-06	155.55	51.192	28.989	11.257	1.3749e-06	25.381	0.0013013	0.001953	0.00054608	447.8	1.9867e-05	2.1715e-05	537.76	104.42	2.0471e-05	2.1663e-05	156.03	52.333	30.076	11.804	2.0788e-05	25.921	266.069	305.782	243.302	180.832	283.268	199.946	180.130	185.754	324.756	350.306	184.819	189.990	191.333	195.928	199.218	193.270	-8191	255	
16695.160	1	1	0	0	0.27225	0.091	0.22552	0.15055	0.34814	0.11632	0.29918	0.42371	0.024085	0.005214	0.32028	0.096616	0.14383	0.16264	0.15825	0.10704	-1.7979	-2.5812	-2.4938	-2.1667	-2.6667	-2.4958	-2.5833	-2.5438	-2.2313	-2.6708	-2.5438	-2.2979	-2.6458	-2.4333	-2.5229	-2.6958	322.538	170.205	249.737	498.845	405.428	239.985	481.375	250.069	412.096	291.107	310.431	385.521	295.538	496.092	475.384	447.257	0.00022256	0.00035606	5.947e-05	448.72	4.4227e-06	4.0427e-06	546.07	103.2	3.5305e-06	3.9801e-06	155.9	52.094	29.254	11.383	6.9833e-07	25.34	0.0013205	0.0019868	0.00055445	448.47	1.9764e-05	2.1982e-05	541.38	105.05	2.032e-05	2.194e-05	157.74	52.766	30.408	11.859	2.1368e-05	25.92	263.304	274.580	498.505	180.734	344.115	340.899	179.954	185.619	356.590	369.042	184.803	190.170	190.421	195.175	242.387	193.523	-8191	255	
16695.234	1	1	0	0	0.29055	0.22251	0.065181	0.052157	0.077279	0.11419	0.058349	0.1119	0.27626	0.11987	0.077081	0.11207	0.10604	0.26657	0.21216	0.34895	-1.8292	-2.3354	-2.3729	-2.3458	-2.7562	-2.3167	-2.3458	-2.7208	-2.2042	-2.5375	-2.7125	-2.2521	-2.7896	-2.3583	-2.35	-2.7896	492.672	509.040	452.468	283.295	354.497	260.639	311.865	171.798	242.303	522.450	442.297	471.841	446.004	427.246	218.750	411.788	0.00026507	0.00018781	0.00010787	454.93	3.8658e-06	8.2142e-07	551.93	106.19	1.8597e-06	1.6942e-06	157.68	51.915	29.677	11.514	4.803e-06	25.387	0.0013383	0.0019905	0.00055594	455.03	2.0061e-05	2.2196e-05	548.03	107.33	2.0514e-05	2.2038e-05	158.86	52.86	30.759	11.93	2.1324e-05	25.799	260.565	299.356	223.269	180.801	250.706	453.156	180.137	185.710	168.119	293.438	185.193	190.034	190.558	196.409	494.888	192.888	-8191	255	
16695.354	1	1	0	0	0.18969	0.20005	0.15549	0.17922	0.066592	0.17684	0.026332	0.042952	0.29963	0.31455	0.078101	0.16214	0.1097	0.090221	0.12623	0.18827	-1.8125	-2.4333	-2.7458	-2.2917	-2.7354	-2.6021	-2.325	-2.7938	-2.3396	-2.6146	-2.7542	-2.3583	-2.6292	-2.5208	-2.3271	-2.5708	493.836	231.584	296.292	520.250	353.926	454.693	443.041	178.853	340.690	358.803	505.661	320.735	247.593	222.601	523.947	205.970	0.00024243	0.00047399	6.6501e-05	457.41	4.1095e-06	4.5441e-06	548.41	104.79	2.8893e-06	3.1635e-06	155.17	51.442	29.123	11.371	3.7594e-06	25.32	0.0013459	0.0019823	0.00055515	455.27	2.0151e-05	2.2017e-05	542.6	106.33	2.047e-05	2.2355e-05	157.36	52.608	30.482	11.907	2.1943e-05	25.8	260.817	331.617	258.244	180.807	400.311	392.746	180.550	185.626	368.561	455.932	185.036	190.221	191.382	195.693	335.741	193.098	-8191	255	
16695.449	1	1	0	0	0.33383	0.21426	0.12934	0.11134	0.063093	0.15963	0.13292	0.38604	0.15737	0.17437	0.19169	0.11717	0.11065	0.083606	0.18356	0.38577	-1.9271	-2.5146	-2.4521	-2.2604	-2.5687	-2.575	-2.2542	-2.6813	-2.4437	-2.4417	-2.9229	-2.2958	-2.6437	-2.6979	-2.0771	-2.6854	266.236	170.937	177.165	315.830	409.976	409.211	214.484	486.325	358.757	314.631	446.673	381.389	179.528	408.058	378.328	461.331	0.0002634	0.00016997	2.7455e-05	450.59	5.8993e-06	1.0428e-06	542.22	104.54	1.2361e-06	8.3215e-07	154.37	51.214	28.748	11.374	1.1405e-06	24.936	0.001397	0.0020957	0.00057193	450.01	2.0787e-05	2.2772e-05	539.8	105.41	2.1354e-05	2.3581e-05	156.26	52.267	30.366	11.763	2.2253e-05	25.627	252.466	283.541	199.544	180.599	354.140	402.486	180.316	185.811	474.206	374.109	184.530	189.926	191.133	195.556	329.807	193.043	-8191	255	
16695.547	1	1	0	0	0.10922	0.19229	0.14463	0.16257	0.11321	0.2902	0.040946	0.093677	0.17948	0.27861	0.485	0.21446	0.0867	0.15172	0.19764	0.14909	-1.7833	-2.3333	-2.6583	-2.2271	-2.4792	-2.5875	-2.1875	-2.65	-2.2125	-2.4208	-2.7583	-2.2687	-2.6146	-2.5	-2.3937	-2.6979	407.604	192.842	193.232	413.645	322.232	434.879	358.802	477.167	418.205	477.718	259.175	515.438	343.305	440.668	384.424	459.169	0.00020883	0.00011932	0.0001581	453.83	7.1835e-06	3.6101e-06	545.7	104.41	3.8744e-06	2.9216e-06	156.05	51.922	29.207	11.303	4.2522e-06	25.366	0.0013884	0.0021145	0.0005838	451.79	2.144e-05	2.3303e-05	542.34	105.99	2.1427e-05	2.32e-05	157.93	52.588	30.516	11.818	2.2113e-05	25.763	254.061	428.737	265.369	180.454	322.881	325.934	180.426	185.689	299.143	353.523	184.315	189.678	190.349	195.790	369.592	192.865	-8191	255	
16695.643	1	1	0	0	0.30673	0.36634	0.11515	0.27982	0.16766	0.25146	0.35585	0.093642	0.067606	0.27829	0.055786	0.23922	0.098907	0.27718	0.15311	0.096773	-2	-2.0333	-2.6875	-2.4521	-2.4437	-2.6562	-2.1521	-2.7042	-2.6458	-2.125	-2.725	-2.3875	-2.4729	-2.7333	-2.2417	-2.8063	416.446	369.864	371.255	438.421	501.281	241.525	460.116	365.098	215.137	439.332	389.624	391.588	431.006	418.898	506.668	477.053	0.00026269	0.00051955	3.1005e-05	456.52	3.9255e-06	2.0916e-06	551.38	105.38	2.9829e-06	5.8529e-06	156.26	52.185	29.14	11.623	2.8268e-06	25.137	0.0014006	0.0020884	0.00057693	455.15	2.1157e-05	2.3095e-05	547.26	107.34	2.1344e-05	2.3397e-05	159.01	53.056	30.894	11.967	2.2225e-05	25.812	262.179	228.751	240.628	180.622	374.580	301.117	180.185	186.100	303.281	337.483	184.763	189.805	190.556	195.359	203.927	192.918	-8191	255	
16695.764	1	1	0	0	0.15289	0.23233	0.18364	0.17691	0.22682	0.068389	0.086767	0.14849	0.14716	0.072145	0.32824	0.16775	0.11965	0.08912	0.25202	0.18376	-2	-2.0792	-2.5542	-2.3563	-2.2479	-2.6667	-2.3229	-2.5729	-2.4813	-2.3396	-2.6292	-2.5375	-2.4021	-2.6958	-2.1854	-2.5938	437.365	335.917	367.548	401.733	217.546	179.883	494.023	363.324	220.394	357.450	213.950	280.817	478.217	369.563	252.674	176.601	0.00029435	0.0004556	3.3764e-05	454.14	3.2506e-06	6.3259e-06	548.76	105.64	2.4385e-06	2.6837e-06	156.54	52.032	29.471	11.487	5.2662e-06	25.348	0.0013972	0.0021366	0.00058806	454.55	2.1388e-05	2.3495e-05	546.76	107.26	2.1549e-05	2.3675e-05	158.86	53.054	30.768	11.933	2.1553e-05	25.828	268.005	176.276	178.731	180.854	274.820	298.880	180.206	186.008	339.326	323.137	184.515	190.066	191.092	195.896	354.351	193.412	-8191	255	
16695.859	1	1	0	0	0.27179	0.054289	0.11057	0.12866	0.13894	0.28768	0.13683	0.24767	0.31939	0.11896	0.10602	0.0047907	0.17844	0.1381	0.093406	0.14415	-2.0979	-2.2375	-2.4917	-2.325	-2.2208	-2.5458	-2.3625	-2.6125	-2.6104	-2.2583	-2.7062	-2.3937	-2.3521	-2.6896	-2.2479	-2.5208	277.610	345.428	356.473	440.031	266.376	171.297	257.402	407.654	363.778	392.873	515.233	329.189	313.679	354.660	428.646	316.408	0.00023723	0.00018285	0.00011115	455.36	5.132e-06	2.5182e-06	546.1	104.95	2.4795e-06	1.2386e-06	156.34	51.426	29.35	11.294	4.0302e-06	25.066	0.0013943	0.0020658	0.00057444	454.61	2.0946e-05	2.299e-05	544.57	106.61	2.0661e-05	2.3555e-05	158.09	52.485	30.527	11.818	2.1483e-05	25.6	268.138	208.733	195.482	180.432	332.779	438.234	180.083	185.446	284.088	431.862	184.675	189.899	190.351	195.837	242.945	193.230	-8191	255	
16695.955	1	1	0	0	0.068019	0.063062	0.22414	0.18621	0.36696	0.13047	0.089292	0.35281	0.28173	0.23556	0.10634	0.30127	0.15968	0.10908	0.18713	0.26525	-2.2375	-2.1229	-2.475	-2.5062	-2.2562	-2.7271	-2.3312	-2.3438	-2.8021	-2.1688	-2.7792	-2.4396	-2.1854	-2.8312	-2.2875	-2.4771	336.452	413.612	191.392	489.388	486.346	333.928	384.707	417.878	295.200	427.051	512.448	219.227	325.302	403.697	178.208	172.804	0.00025252	0.0001988	0.00010332	457.91	1.2881e-06	1.2558e-06	549.9	105.69	1.98e-06	3.973e-06	158.07	51.606	29.237	11.361	6.3305e-07	25.034	0.0014036	0.0020585	0.00057381	455.69	2.1181e-05	2.2764e-05	546.51	107.09	2.0878e-05	2.3024e-05	159.27	52.733	30.778	11.836	2.1364e-05	25.654	267.141	303.684	256.369	180.528	280.018	341.463	180.271	185.920	296.439	362.095	184.769	189.776	191.853	196.131	193.992	192.968	-8191	255	
16696.051	1	1	0	0	0.040676	0.16261	0.20663	0.066108	0.23424	0.22348	0.11929	0.12076	0.24556	0.2942	0.11365	0.13205	0.19677	0.016881	0.13189	0.038853	-2.2542	-2.3417	-2.425	-2.5958	-2.3667	-2.6896	-2.5146	-2.3292	-2.7708	-2.2896	-2.4167	-2.6063	-2.25	-2.8021	-2.2771	-2.3854	387.091	460.988	407.359	311.272	321.739	232.402	379.247	308.441	205.212	167.775	227.952	433.070	360.493	362.466	508.180	358.976	0.00028365	0.00037531	2.75e-05	460.62	2.0418e-06	3.9638e-06	552.23	107.52	2.8935e-06	6.7338e-06	159.87	51.933	29.597	11.424	2.4954e-06	25.293	0.0013566	0.002052	0.0005722	458.49	2.0778e-05	2.273e-05	549.67	108.3	2.103e-05	2.3159e-05	160.65	53.153	31.035	11.901	2.1584e-05	25.847	269.280	468.755	494.759	180.841	313.791	233.603	180.387	185.733	331.819	297.882	184.581	189.655	191.139	195.697	332.574	193.431	-8191	255	
16696.146	1	1	0	0	0.13197	0.097355	0.20947	0.10445	0.15444	0.13296	0.11295	0.2971	0.23409	0.17354	0.35744	0.040951	0.12811	0.11955	0.12989	0.12851	-2.1417	-2.35	-2.5167	-2.6937	-2.1521	-2.6063	-2.5958	-2.5542	-2.7021	-2.4313	-2.5021	-2.6979	-2.3458	-2.5646	-2.3771	-2.3937	453.083	178.530	196.468	518.806	196.622	365.261	403.555	403.757	286.416	352.536	225.437	505.400	427.676	331.739	312.234	424.123	0.00028949	0.00028119	7.2996e-05	462.75	5.4772e-06	2.1087e-06	553.98	107.19	2.2036e-07	2.0896e-06	158.62	52.22	29.711	11.469	3.2591e-06	25.291	0.0013345	0.0020352	0.00056146	461.74	2.0803e-05	2.2062e-05	550.68	108.94	2.0529e-05	2.2049e-05	161.2	53.145	31.194	11.907	2.0767e-05	25.711	268.473	189.091	253.929	180.791	296.561	454.523	180.160	185.517	479.336	244.625	184.406	189.901	190.426	195.876	515.192	192.779	-8191	255	
16696.244	1	1	0	0	0.10703	0.21828	0.16758	0.23927	0.20406	0.24422	0.14871	0.21915	0.1187	0.078939	0.082715	0.26993	0.17599	0.2344	0.36344	0.14564	-2.3104	-2.3521	-2.45	-2.5479	-2.2146	-2.5687	-2.5708	-2.1813	-2.6875	-2.2812	-2.3333	-2.6312	-2.3917	-2.5771	-2.3563	-2.2917	213.540	348.600	499.906	170.375	196.340	269.840	363.936	520.190	252.641	252.690	432.252	513.381	490.260	167.759	483.499	209.887	0.00019975	7.6362e-05	8.8604e-05	464.22	3.2283e-07	7.0629e-07	555.66	107.88	3.0795e-06	6.2617e-06	158.89	51.835	29.357	11.267	1.5763e-06	24.699	0.0013429	0.0020494	0.00056664	463.27	2.0293e-05	2.2359e-05	551.29	108.96	2.0774e-05	2.2183e-05	160.27	53.034	30.963	11.723	2.1279e-05	25.414	258.562	343.761	275.144	180.410	481.048	312.572	180.198	185.739	278.556	308.619	184.286	189.768	190.436	195.153	232.536	193.185	-8191	255	
16696.361	1	1	0	0	0.094938	0.16961	0.091229	0.13914	0.18708	0.022268	0.52669	0.20394	0.22697	0.11269	0.21009	0.03752	0.1866	0.059317	0.23109	0.26445	-2.2229	-2.2833	-2.2292	-2.6729	-2.3688	-2.6042	-2.7646	-2.1188	-2.7062	-2.3625	-2.4479	-2.7354	-2.3688	-2.5771	-2.5542	-2.2896	433.436	403.905	473.483	473.052	236.460	475.961	510.880	369.695	212.902	277.176	516.527	430.194	401.069	293.117	475.627	395.222	0.00030898	0.00025946	0.00021669	464.28	5.4063e-06	1.4476e-06	552.95	107.05	9.6533e-07	4.7528e-06	158.65	52.139	29.355	11.254	1.3783e-06	24.904	0.0013484	0.0020341	0.00057223	460.98	2.0704e-05	2.2506e-05	549.98	108.58	2.0277e-05	2.2164e-05	160.8	52.727	30.704	11.667	2.11e-05	25.287	258.250	211.418	301.025	180.688	274.334	212.640	180.020	185.999	398.472	216.146	184.422	190.014	190.372	195.603	315.291	192.573	-8191	255	
16696.459	1	1	0	0	0.14336	0.17345	0.16913	0.15249	0.17179	0.029888	0.20243	0.067538	0.095793	0.11257	0.016658	0.13896	0.1472	0.085357	0.16717	0.14176	-2.1937	-2.5875	-2.3167	-2.7542	-2.2354	-2.4854	-2.6021	-2.2646	-2.7521	-2.4813	-2.3187	-2.5708	-2.3187	-2.6479	-2.6021	-2.2687	218.235	406.786	235.055	523.046	172.971	462.249	399.072	193.448	210.611	282.458	487.815	202.335	456.977	402.592	298.670	464.879	0.00019625	0.00016911	3.1909e-05	463.9	4.845e-06	2.0839e-06	555.28	106.81	6.4287e-07	2.9459e-06	160.23	52.366	29.585	11.24	3.5818e-06	24.802	0.0013468	0.0020352	0.00055966	462.98	1.9997e-05	2.1937e-05	552.1	108.63	2.0539e-05	2.2012e-05	160.65	53.009	31.011	11.67	2.0921e-05	25.319	240.955	179.783	224.736	180.289	428.833	261.380	180.207	186.227	313.603	480.882	184.361	189.920	190.607	195.493	247.767	193.187	-8191	255	
16696.529	1	1	0	0	0.14677	0.20689	0.10289	0.1116	0.060184	0.20764	0.085875	0.26132	0.2582	0.096399	0.21922	0.21941	0.32049	0.10442	0.18409	0.24551	-2.1021	-2.5396	-2.2917	-2.7938	-2.4458	-2.5479	-2.7458	-2.2125	-2.5563	-2.6208	-2.4646	-2.3063	-2.45	-2.2521	-2.9146	-2.3167	312.323	257.074	304.774	458.875	381.271	503.230	423.274	464.830	329.487	256.672	247.494	526.305	238.085	496.428	394.513	193.472	0.00029318	0.00046635	0.00013898	464.1	1.5722e-06	4.6337e-06	549.92	106.91	1.105e-06	2.9467e-06	157.01	51.666	29.382	11.253	2.2073e-06	24.808	0.0013261	0.0020292	0.00056971	461.35	2.0671e-05	2.2813e-05	548.66	108.26	2.0749e-05	2.2412e-05	158.63	52.384	30.673	11.64	2.085e-05	25.129	270.467	233.799	271.394	180.568	491.951	311.374	180.388	185.374	345.333	326.134	184.404	189.811	190.700	195.504	370.240	192.636	-8191	255	
16696.650	1	1	0	0	0.21145	0.2548	0.17001	0.32011	0.33013	0.17666	0.062304	0.10614	0.10815	0.23721	0.27729	0.19207	0.17259	0.12203	0.20618	0.14786	-2.2125	-2.6458	-2.375	-2.7271	-2.4729	-2.5125	-2.7646	-2.2208	-2.5521	-2.625	-2.3229	-2.5146	-2.5021	-2.4083	-2.6771	-2.4979	484.139	340.333	193.736	431.551	411.358	272.647	338.584	414.299	467.533	429.003	186.016	485.793	304.642	380.311	295.499	417.330	0.00022187	0.0005978	0.00016554	459.61	3.6717e-06	3.2835e-06	546.51	105.28	3.7195e-06	7.8363e-07	153.29	50.853	28.653	10.907	7.4281e-06	24.106	0.0013666	0.001998	0.00056714	457.97	2.0222e-05	2.3079e-05	541.36	106.5	2.0487e-05	2.2347e-05	156.01	51.523	30.182	11.412	2.1396e-05	24.709	268.082	243.213	234.117	180.657	364.269	311.180	179.762	185.425	282.599	305.329	184.582	189.954	190.571	195.597	376.577	192.881	-8191	255	
16696.746	1	1	0	0	0.053036	0.2471	0.354	0.12081	0.045877	0.13834	0.30592	0.26803	0.17591	0.23859	0.28787	0.17421	0.13222	0.202	0.081463	0.1901	-2	-2.5938	-2.3	-2.5854	-2.4771	-2.25	-2.7708	-2.4042	-2.5542	-2.6917	-2.3917	-2.6688	-2.5292	-2.2542	-2.8208	-2.6167	263.190	416.990	416.204	333.973	335.447	427.917	416.015	324.089	343.634	498.548	231.095	381.549	260.650	517.807	262.358	472.458	0.00023614	0.00040426	0.00014466	458.46	3.7827e-06	3.9477e-06	541.72	104.26	1.1982e-06	1.6165e-06	153.86	50.707	28.89	10.939	5.7222e-06	24.265	0.0013641	0.0020682	0.00056513	456.6	2.0723e-05	2.327e-05	538.49	105.87	2.0799e-05	2.2779e-05	155.61	51.491	30.137	11.481	2.1794e-05	24.833	255.627	265.801	241.701	180.615	361.092	276.151	179.750	185.436	360.475	404.302	184.539	189.848	190.738	195.651	278.593	193.061	-8191	255	
16696.844	1	1	0	0	0.16871	0.12188	0.16181	0.1332	0.11331	0.12828	0.2978	0.34476	0.10736	0.22717	0.13735	0.11751	0.1481	0.15571	0.077169	0.19186	-2.0896	-2.7292	-2.3063	-2.65	-2.6063	-2.4167	-2.9271	-2.4125	-2.4271	-2.7458	-2.4188	-2.7542	-2.7542	-2.2896	-2.6813	-2.6104	376.127	400.628	378.912	490.932	179.740	283.527	505.906	463.297	239.790	333.157	334.573	426.605	334.653	182.283	368.981	463.192	0.00024737	8.4688e-05	0.0001886	452.18	1.8405e-06	3.5664e-06	538.61	103.11	1.5087e-06	4.3425e-06	152.84	50.799	28.761	11.007	2.1499e-06	24.231	0.0014176	0.0020422	0.00057415	451.69	2.0907e-05	2.3408e-05	535.08	104.8	2.1329e-05	2.3092e-05	155.07	51.662	30.211	11.465	2.199e-05	24.823	255.810	334.703	281.680	180.379	299.550	372.450	179.943	185.705	470.427	465.728	184.631	190.187	190.574	195.134	496.720	193.172	-8191	255	
16696.939	1	1	0	0	0.19964	0.25401	0.12812	0.20373	0.13744	0.07224	0.12524	0.17993	0.34571	0.25972	0.24671	0.13648	0.15827	0.1589	0.141	0.080992	-2.0708	-2.8104	-2.5062	-2.5438	-2.7208	-2.1604	-2.7708	-2.4938	-2.5458	-2.8438	-2.4479	-2.4375	-2.5667	-2.3708	-2.7104	-2.5792	183.461	350.214	299.435	466.202	235.611	497.504	316.340	248.209	449.765	429.950	255.470	346.934	431.377	207.350	414.549	187.180	0.00026805	1.0304e-05	0.00011385	452.3	1.7934e-06	1.9875e-06	538.85	103.96	1.3573e-06	1.4654e-06	153.6	50.358	28.545	11.049	1.8936e-06	24.086	0.0013998	0.0020784	0.00057143	452.31	2.0879e-05	2.331e-05	536.03	105.07	2.1177e-05	2.2402e-05	155.02	51.353	29.917	11.406	2.1377e-05	24.553	256.949	349.549	182.784	180.455	232.927	394.819	180.135	185.594	231.558	433.865	184.579	189.642	190.432	195.969	446.613	193.103	-8191	255	
16697.035	1	1	0	0	0.36722	0.11501	0.015115	0.025185	0.32197	0.013776	0.079156	0.10437	0.15811	0.095555	0.16086	0.07619	0.22676	0.26937	0.19007	0.061935	-1.9479	-2.5833	-2.3563	-2.4188	-2.6354	-2.4104	-2.6979	-2.3708	-2.2208	-2.6042	-2.3187	-2.3271	-2.5812	-2.3021	-2.4938	-2.6229	358.421	273.681	473.787	173.696	423.138	295.604	394.334	443.783	420.119	515.478	483.308	297.671	406.587	499.593	194.057	325.651	0.00024257	0.00010366	8.8012e-05	453.19	4.0146e-06	6.4895e-06	529.61	102.38	2.0927e-06	3.7707e-06	150.06	49.233	28.306	10.842	2.0427e-06	23.845	0.0013624	0.0020149	0.00056091	451.82	2.0553e-05	2.2968e-05	528.51	103.82	2.1082e-05	2.3164e-05	151.95	50.344	29.632	11.294	2.1492e-05	24.326	257.754	177.726	280.439	180.583	306.796	311.364	180.294	185.510	401.840	283.980	184.445	189.741	190.275	195.449	399.012	192.583	-8191	255	
16697.133	1	1	0	0	0.12843	0.42778	0.15766	0.35016	0.13957	0.23149	0.038153	0.21208	0.054542	0.22732	0.18515	0.18139	0.16436	0.16631	0.28155	0.13798	-1.9	-2.6729	-2.4229	-2.2979	-2.8771	-2.3521	-2.525	-2.7	-2.1625	-2.7042	-2.6729	-2.3792	-2.7313	-2.2375	-2.6854	-2.4854	360.827	386.847	171.530	487.187	220.874	265.389	350.380	213.726	488.281	286.548	480.194	499.337	179.277	419.391	253.666	224.515	0.00024252	0.00072678	0.00020041	451.48	3.2197e-06	1.6939e-06	532.35	102.24	2.9822e-06	8.3878e-06	150.9	49.742	28.342	10.913	4.4889e-06	23.852	0.0013749	0.0020434	0.00057848	450.05	2.0862e-05	2.3312e-05	528.84	103.89	2.1084e-05	2.3057e-05	153.18	50.942	29.812	11.35	2.178e-05	24.456	259.486	192.189	216.886	180.386	349.101	386.322	180.280	185.771	305.185	284.046	184.862	189.489	190.259	195.287	299.745	192.960	-8191	255	
16697.227	1	1	0	0	0.14412	0.23664	0.10874	0.28811	0.1026	0.19548	0.15662	0.093667	0.070502	0.074594	0.13665	0.19118	0.17162	0.077137	0.21654	0.20958	-1.7479	-2.7021	-2.3542	-2.3812	-2.7979	-2.3333	-2.35	-2.5917	-2.2542	-2.5958	-2.6271	-2.3729	-2.525	-2.4729	-2.5917	-2.6583	312.328	276.470	305.912	468.306	502.206	323.992	276.354	437.890	222.006	340.151	236.901	303.627	371.819	371.320	249.819	509.751	0.00025512	0.00055616	0.00010544	453.39	3.6786e-07	6.6694e-06	538.08	103.64	3.0708e-06	3.9346e-06	152.58	50.514	29.116	11.027	4.4317e-06	24.238	0.0014037	0.0020795	0.00057891	452.6	2.113e-05	2.2991e-05	534.89	105.09	2.1042e-05	2.3063e-05	155.03	51.527	30.351	11.516	2.1927e-05	24.838	272.733	213.422	230.190	181.048	173.667	232.963	179.819	185.516	245.355	323.701	184.640	189.691	190.126	195.792	338.647	192.825	-8191	255	
16697.324	1	1	0	0	0.25249	0.282	0.24197	0.043921	0.34597	0.33386	0.34242	0.42133	0.24817	0.15433	0.11087	0.10662	0.069405	0.14773	0.0727	0.26993	-1.8354	-2.4917	-2.4688	-2.3292	-2.6542	-2.4167	-2.5146	-2.7542	-2.2313	-2.7542	-2.6792	-2.2021	-2.7792	-2.3896	-2.3875	-2.6146	432.090	498.032	245.073	445.916	315.981	329.493	412.535	499.711	374.784	181.860	320.085	449.873	211.337	335.530	381.621	431.258	0.00018909	0.00024454	4.3677e-05	458.92	2.8928e-06	5.9156e-06	544.29	105.48	2.273e-06	7.1196e-06	154.87	51.437	29.677	11.119	5.775e-06	24.65	0.0014043	0.0020745	0.0005831	457.93	2.1456e-05	2.3014e-05	540.99	106.87	2.0871e-05	2.2912e-05	156.82	52.346	30.798	11.663	2.212e-05	25.142	257.029	520.656	508.531	180.576	259.510	254.013	180.393	185.559	464.966	254.096	184.775	189.565	191.251	195.428	352.561	192.737	-8191	255	
16697.443	1	1	0	0	0.19457	0.13259	0.1315	0.16972	0.12517	0.070359	0.081323	0.14752	0.16411	0.20975	0.019302	0.21861	0.071005	0.41493	0.082898	0.1094	-1.9062	-2.3729	-2.6396	-2.4208	-2.6583	-2.6146	-2.4375	-2.6396	-2.2854	-2.55	-2.4854	-2.1792	-2.6625	-2.5896	-2.4188	-2.825	170.806	322.915	188.502	416.099	370.116	230.866	469.004	452.932	240.959	323.044	324.593	425.826	443.542	189.314	521.104	473.023	0.00024984	0.00023382	0.00011475	460.71	4.3694e-06	1.64e-06	547.25	106.33	1.2277e-06	4.0252e-06	156.14	51.182	29.26	11.169	1.1342e-06	24.584	0.0013887	0.0020929	0.00057677	459.96	2.0763e-05	2.3121e-05	544.51	108	2.1163e-05	2.293e-05	158.15	52.393	30.721	11.661	2.1515e-05	25.03	251.452	168.613	235.604	180.402	265.242	227.097	180.159	185.845	240.763	313.405	184.563	189.321	190.895	195.165	339.860	192.745	-8191	255	
16697.539	1	1	0	0	0.058276	0.060364	0.086547	0.44123	0.11381	0.086235	0.11947	0.042308	0.17196	0.23059	0.16827	0.28669	0.12496	0.16992	0.31295	0.47472	-1.7333	-2.4833	-2.6104	-2.4208	-2.7771	-2.4375	-2.4313	-2.6229	-2.4396	-2.5521	-2.6979	-2.2667	-2.5083	-2.5583	-2.2208	-2.7313	253.040	487.485	322.412	513.893	251.722	468.075	403.001	441.520	331.624	254.887	421.325	519.188	484.159	514.585	390.543	367.738	0.00021902	0.00031788	0.00015096	459.02	3.7943e-06	2.4607e-06	544.43	105.79	3.1582e-06	5.4752e-06	155.32	51.718	29.311	11.107	7.6603e-07	24.477	0.0013818	0.002081	0.00056079	458.16	2.067e-05	2.2933e-05	541.55	107.26	2.1291e-05	2.3138e-05	157.46	52.48	30.802	11.647	2.1781e-05	25.013	268.218	200.326	248.733	180.658	290.975	295.373	180.237	185.754	335.362	320.614	184.531	189.910	190.525	195.169	168.047	192.915	-8191	255	
16697.635	1	1	0	0	0.18914	0.11219	0.14915	0.25104	0.0069907	0.15925	0.35371	0.148	0.16704	0.15146	0.17593	0.24961	0.094311	0.47169	0.10205	0.19019	-1.7292	-2.5583	-2.5208	-2.2229	-2.5625	-2.4938	-2.2896	-2.7208	-2.3625	-2.4917	-2.7792	-2.3812	-2.4958	-2.5958	-2.2479	-2.6625	397.096	363.229	224.888	240.429	407.658	293.495	185.083	481.186	380.369	394.618	463.112	251.639	350.093	220.946	461.232	390.204	0.00024667	0.00036094	4.6701e-05	460.25	6.067e-06	3.2008e-06	545.74	105.83	5.3086e-06	2.6444e-06	155.73	51.04	29.318	11.267	4.6453e-06	24.499	0.0014109	0.0021409	0.00057654	457.95	2.0807e-05	2.3335e-05	543.25	107.54	2.1283e-05	2.3162e-05	157.6	52.199	30.72	11.626	2.1468e-05	24.931	266.525	482.989	229.735	180.647	401.323	305.472	180.023	185.585	314.814	292.373	184.602	189.743	190.879	195.904	199.756	193.092	-8191	255	
16697.756	1	1	0	0	0.14006	0.14618	0.12123	0.22235	0.085835	0.38553	0.15157	0.09096	0.069841	0.20656	0.26086	0.12881	0.16286	0.14217	0.12489	0.11128	-2.2375	-2.4354	-2.675	-2.325	-2.3917	-2.7333	-2.225	-2.6375	-2.4458	-2.2083	-2.5958	-2.3937	-2.5083	-2.4854	-2.2771	-2.7313	429.819	189.943	504.463	382.215	341.558	507.842	238.707	338.705	465.082	463.382	406.447	411.290	222.132	491.019	264.213	463.731	0.00022397	8.1886e-05	9.5078e-05	463.02	4.0165e-06	1.5868e-06	548.13	106.3	3.1693e-06	2.6835e-06	157.05	51.497	29.705	11.22	3.3421e-06	24.728	0.0013881	0.0020839	0.00056991	460.58	2.0534e-05	2.2702e-05	546.98	107.59	2.0729e-05	2.3118e-05	158.89	52.67	30.897	11.627	2.1544e-05	25.076	257.581	430.049	326.518	180.721	477.677	339.151	180.308	186.208	303.346	297.536	184.699	189.922	190.409	195.440	279.920	192.672	-8191	255	
16697.826	1	1	0	0	0.42935	0.090101	0.21101	0.072878	0.099982	0.11944	0.08703	0.20741	0.17566	0.18099	0.14953	0.27105	0.19433	0.11417	0.11194	0.050877	-2.0563	-2.3083	-2.6542	-2.3792	-2.5354	-2.6167	-2.3354	-2.4083	-2.6229	-2.425	-2.8042	-2.3583	-2.4417	-2.5938	-2.3646	-2.8312	192.027	315.568	191.411	292.409	305.933	400.371	421.256	525.890	207.938	411.755	494.092	430.603	482.593	312.383	254.024	215.830	0.00021462	0.00031885	6.9368e-05	460.82	2.3374e-06	9.6705e-06	549.35	106.54	1.9927e-06	4.2806e-06	157.08	51.868	29.921	11.377	1.2567e-06	24.77	0.0013562	0.0020563	0.00056777	461	2.0044e-05	2.1852e-05	546.68	107.94	1.9868e-05	2.2072e-05	158.84	52.757	31.037	11.778	2.0475e-05	25.253	257.846	303.696	236.879	180.747	490.702	335.776	180.079	185.468	313.999	302.400	184.761	189.490	191.145	195.613	211.135	192.517	-8191	255	
16697.924	1	1	0	0	0.23664	0.055137	0.20936	0.078786	0.14912	0.22234	0.048189	0.38382	0.21329	0.094122	0.30115	0.15568	0.19698	0.0488	0.1368	0.21583	-2.1875	-2.2708	-2.5875	-2.4875	-2.3375	-2.7062	-2.4521	-2.4875	-2.5187	-2.2625	-2.575	-2.3792	-2.2687	-2.7271	-2.2521	-2.5104	209.878	172.973	286.257	255.401	247.841	392.186	407.129	471.507	342.815	368.833	451.791	499.586	314.636	218.891	258.893	495.690	0.00024086	0.00030106	0.00017208	462.14	1.588e-06	3.5053e-06	554.66	107.13	4.1374e-06	2.9194e-06	156.73	51.095	29.208	11.297	3.3473e-06	24.441	0.0013406	0.0020371	0.00054169	461.09	2.0119e-05	2.1585e-05	547.33	108.16	2.035e-05	2.2649e-05	158.41	52.438	30.733	11.687	2.1654e-05	25.022	263.331	238.165	289.910	180.676	341.563	240.356	180.315	185.815	287.085	233.718	184.767	189.461	190.409	195.509	303.644	192.607	-8191	255	
16698.045	1	1	0	0	0.11208	0.20232	0.15462	0.15384	0.10657	0.28767	0.24576	0.29457	0.2558	0.12979	0.29274	0.096696	0.083829	0.20129	0.12802	0.23719	-2.2083	-2.1562	-2.575	-2.4167	-2.3187	-2.7438	-2.4583	-2.6271	-2.5292	-2.3583	-2.6333	-2.5396	-2.3125	-2.6021	-2.2625	-2.4542	383.502	225.863	326.844	179.140	180.119	454.039	169.117	483.930	432.515	263.921	396.233	424.515	489.208	218.647	329.709	515.154	0.00026187	0.00035018	0.00013012	457.22	3.4468e-06	4.7085e-06	547.29	105.13	1.4346e-06	2.0213e-06	155.98	51.461	29.033	11.004	3.7314e-06	24.553	0.0013844	0.0020488	0.00056238	456.77	2.1087e-05	2.2487e-05	544.68	106.63	2.0498e-05	2.2571e-05	157.42	52.237	30.457	11.524	2.0871e-05	24.919	269.177	299.999	237.420	180.589	296.545	300.157	180.390	185.427	512.107	398.371	184.617	190.288	190.913	195.478	375.687	192.626	-8191	255	
16698.139	1	1	0	0	0.25799	0.11695	0.084115	0.19812	0.10725	0.1675	0.13418	0.20421	0.39871	0.090181	0.18189	0.31933	0.1595	0.21472	0.15903	0.25096	-2.2083	-2.2167	-2.5083	-2.6979	-2.1292	-2.85	-2.5271	-2.3479	-2.7	-2.2083	-2.5438	-2.5687	-2.2208	-2.6667	-2.4042	-2.3333	503.378	238.338	382.378	444.042	410.937	236.234	309.476	443.398	506.669	225.837	516.212	422.150	406.502	270.466	432.616	221.439	0.00024726	0.00035227	1.9422e-05	455.15	8.6369e-07	4.2515e-06	545.21	105.26	2.9514e-06	7.4004e-07	153.96	51.003	29.118	11.211	4.9006e-06	24.518	0.0013163	0.0020428	0.00056677	455.58	2.0499e-05	2.2689e-05	543.07	106.45	2.1097e-05	2.2598e-05	156.63	52.168	30.612	11.667	2.1809e-05	25.026	251.475	254.459	448.375	180.701	322.399	277.853	180.336	185.711	247.012	259.234	184.479	189.440	190.695	195.193	290.355	192.859	-8191	255	
16698.234	1	1	0	0	0.075533	0.18274	0.16905	0.068645	0.2787	0.12045	0.27707	0.13649	0.0561	0.15004	0.072225	0.20811	0.14704	0.052994	0.053042	0.070153	-2.1208	-2.2083	-2.65	-2.5687	-2.1729	-2.5708	-2.5729	-2.4333	-2.5563	-2.1979	-2.4875	-2.5729	-2.4458	-2.6542	-2.5396	-2.2313	484.215	280.912	294.810	331.880	242.237	190.665	423.665	329.099	503.751	464.294	176.257	498.111	465.903	279.634	252.004	290.280	0.00024619	0.00052551	6.7798e-05	453.05	4.0071e-06	3.8044e-06	549.41	104.38	3.6908e-06	3.1212e-06	155.88	51.421	29.549	11.376	3.388e-06	24.838	0.0014288	0.002118	0.00059115	453.57	2.1279e-05	2.3843e-05	544.8	106.51	2.1792e-05	2.3889e-05	157.98	52.739	30.814	11.77	2.2967e-05	25.436	249.502	213.059	498.034	180.685	267.553	349.983	180.419	185.716	326.534	338.661	184.512	189.728	190.015	195.106	240.866	192.708	-8191	255	
16698.330	1	1	0	0	0.11614	0.1472	0.16069	0.052133	0.22383	0.12219	0.048144	0.18553	0.1346	0.11437	0.22522	0.095531	0.1319	0.099817	0.13836	0.16576	-2.3667	-2.2125	-2.4375	-2.7292	-2.4167	-2.775	-2.625	-2.3	-2.7562	-2.4417	-2.3854	-2.5708	-2.1167	-2.5375	-2.5646	-2.1792	494.489	502.221	403.197	454.508	288.692	237.542	254.494	471.900	414.278	502.422	478.675	485.699	509.858	354.364	352.520	181.394	0.0003212	0.00018356	9.0777e-05	455.23	5.328e-07	2.3887e-06	545.77	104.64	1.5724e-06	7.5001e-06	155.62	51.864	29.076	11.261	6.0176e-06	24.815	0.0014609	0.0022251	0.00062449	453.79	2.2558e-05	2.4781e-05	544.39	106.65	2.246e-05	2.4889e-05	158.11	52.949	30.825	11.837	2.3605e-05	25.416	262.068	320.650	426.112	180.734	275.270	336.974	180.249	185.738	313.124	280.804	184.770	189.740	190.257	195.226	227.567	192.564	-8191	255	
16698.428	1	1	0	0	0.2182	0.16697	0.040223	0.34566	0.21676	0.33588	0.18792	0.26116	0.053654	0.38998	0.050483	0.29278	0.18312	0.095233	0.084082	0.083258	-2.1479	-2.25	-2.1292	-2.6417	-2.45	-2.5187	-2.5187	-2.35	-2.7417	-2.4521	-2.3229	-2.6479	-2.1792	-2.4021	-2.7104	-2.2	479.228	397.218	469.601	414.143	450.175	473.060	338.354	420.029	412.419	468.304	196.239	208.472	467.682	517.490	258.324	456.352	0.00023201	0.00032772	0.00015366	450.98	6.366e-06	1.6439e-06	543.97	104.05	5.1441e-06	5.1261e-06	155.52	50.989	29.087	11.289	1.8739e-06	24.408	0.0015147	0.0022635	0.00065673	451.33	2.3185e-05	2.5585e-05	542.19	106.22	2.3815e-05	2.5573e-05	157.23	52.487	30.611	11.707	2.4136e-05	25.102	263.503	197.316	265.363	180.673	390.340	316.270	180.187	185.961	321.097	304.382	185.182	189.884	190.338	195.404	456.782	192.908	-8191	255	
16698.523	1	1	0	0	0.19245	0.22099	0.21737	0.14316	0.096693	0.06169	0.16005	0.26407	0.30706	0.11798	0.30622	0.13352	0.18665	0.12963	0.12882	0.11802	-2.4604	-2.4938	-2.1583	-2.7354	-2.4083	-2.6208	-2.6917	-2.3583	-2.6437	-2.5021	-2.5604	-2.7	-2.2479	-2.3708	-2.7354	-2.35	442.104	427.862	302.014	446.276	268.726	233.816	373.641	496.760	510.988	354.052	237.880	173.767	336.668	444.151	221.286	340.606	0.00026575	0.00023155	9.922e-05	453.64	2.2729e-06	4.5718e-06	544.28	103.45	2.6749e-06	5.9328e-06	155.44	51.149	28.619	11.124	1.8464e-06	24.483	0.0015604	0.0023199	0.00066379	454.97	2.3744e-05	2.5953e-05	543.21	105.56	2.4173e-05	2.6121e-05	157.68	52.515	30.563	11.684	2.4529e-05	25.144	250.605	312.295	251.388	180.592	276.356	211.126	180.326	185.901	194.586	340.851	184.702	189.913	191.123	195.407	346.167	192.999	-8191	255	
16698.619	1	1	0	0	0.11772	0.30144	0.03226	0.22451	0.074844	0.20979	0.057379	0.092446	0.099669	0.24052	0.24025	0.16155	0.50042	0.16578	0.29469	0.19991	-2.05	-2.5771	-2.2958	-2.825	-2.3063	-2.6229	-2.7938	-2.1521	-2.6396	-2.5271	-2.3521	-2.65	-2.3063	-2.4229	-2.675	-2.3208	251.993	377.901	506.913	371.452	498.459	206.482	189.590	286.125	321.845	338.536	491.221	507.674	510.935	468.407	513.838	371.910	0.00028037	0.00013426	6.3902e-05	456.64	2.5626e-06	3.558e-06	545.3	104.32	4.6079e-06	3.1043e-06	154.76	51.266	29.011	11.29	4.5492e-06	24.748	0.0015868	0.0023906	0.00066634	454.38	2.3725e-05	2.6266e-05	544.18	106.57	2.4166e-05	2.6297e-05	157.78	52.829	30.856	11.796	2.5237e-05	25.487	272.211	385.836	301.583	180.952	325.315	421.080	180.655	185.909	288.077	333.931	184.720	189.741	190.974	195.863	252.234	192.537	-8191	255	
16698.715	1	1	0	0	0.26028	0.073056	0.18213	0.043788	0.20444	0.27722	0.42376	0.20091	0.18742	0.25969	0.20107	0.057698	0.038741	0.25701	0.11158	0.2376	-2.2646	-2.575	-2.2521	-2.7521	-2.5938	-2.3333	-2.8083	-2.375	-2.5042	-2.6354	-2.3896	-2.7833	-2.5208	-2.5687	-2.8167	-2.4604	399.346	418.976	195.902	446.364	180.846	202.017	429.735	171.468	240.460	379.167	422.274	516.575	323.031	524.450	390.556	480.644	0.00023028	0.0003344	6.6556e-05	454.85	2.5279e-06	4.5958e-06	544.9	104.91	6.5356e-06	3.0739e-06	155.73	51.76	29.302	11.251	6.2118e-06	24.803	0.0015821	0.0023597	0.00067842	455.29	2.4146e-05	2.663e-05	545.06	107.07	2.4786e-05	2.6749e-05	159.05	53.123	31.009	11.882	2.5069e-05	25.432	259.889	230.565	262.799	180.756	243.644	321.641	180.088	185.921	355.738	397.806	184.685	189.976	190.371	195.387	379.989	192.794	-8191	255	
16698.836	1	1	0	0	0.11229	0.35133	0.12531	0.20729	0.13752	0.13096	0.13104	0.28166	0.24095	0.1361	0.15912	0.065911	0.38978	0.31457	0.12469	0.31113	-2.0021	-2.6479	-2.125	-2.5917	-2.5938	-2.3	-2.7854	-2.4792	-2.5979	-2.45	-2.2021	-2.6542	-2.4896	-2.2333	-2.5792	-2.4771	253.776	466.552	174.327	185.898	261.139	262.724	460.971	479.052	493.251	453.168	400.566	493.615	487.749	523.704	400.876	508.608	0.00026558	0.00021166	0.00012039	456.78	4.7181e-06	2.2438e-06	543.09	104.85	4.1359e-06	2.4881e-06	155.49	51.66	29.134	11.335	9.1547e-07	24.75	0.001592	0.0023963	0.00067016	456.17	2.437e-05	2.6725e-05	544.83	107	2.4459e-05	2.637e-05	158.34	52.827	30.827	11.813	2.4945e-05	25.316	261.128	170.287	258.319	180.458	335.305	308.111	180.055	185.676	258.032	367.366	184.515	189.430	190.572	195.572	481.076	193.363	-8191	255	
16698.932	1	1	0	0	0.057948	0.26241	0.019587	0.39512	0.063728	0.12364	0.24716	0.10719	0.19718	0.17061	0.18963	0.17477	0.2694	0.25347	0.18468	0.13514	-1.8896	-2.6875	-2.2896	-2.4208	-2.5396	-2.1771	-2.7229	-2.3958	-2.4938	-2.7396	-2.3604	-2.4833	-2.5354	-2.1479	-2.5854	-2.3688	379.069	475.652	406.502	236.300	521.248	319.923	488.976	190.549	234.171	181.470	252.591	449.206	369.340	207.352	458.228	441.011	0.00023316	0.00013816	0.00013817	451.35	8.1725e-06	4.9654e-06	539.98	102.86	4.2395e-06	1.7085e-06	155.01	50.943	29.17	11.148	4.2004e-06	24.594	0.0016082	0.0024376	0.00069138	452.54	2.4903e-05	2.7143e-05	540.91	105.52	2.4901e-05	2.7264e-05	157.22	52.41	30.735	11.669	2.5238e-05	25.186	267.164	257.695	342.946	180.817	283.858	319.210	180.640	185.659	275.150	396.487	184.684	190.108	190.346	195.467	359.174	192.806	-8191	255	
16699.027	1	1	0	0	0.061383	0.11014	0.18193	0.17013	0.19877	0.12812	0.090687	0.14461	0.19103	0.11202	0.23748	0.15751	0.1499	0.24748	0.095031	0.14809	-1.8979	-2.5687	-2.2208	-2.5	-2.5542	-2.1562	-2.6375	-2.3667	-2.2917	-2.7083	-2.3854	-2.6063	-2.6604	-2.2646	-2.7667	-2.6479	433.474	272.660	370.699	527.171	480.135	315.691	477.930	445.954	193.284	200.215	234.768	418.492	220.703	203.902	420.772	189.504	0.00021863	0.00027457	6.8085e-05	453.17	2.2774e-06	8.6837e-07	545.1	103.81	7.6224e-06	2.3756e-06	154.95	51.268	28.935	11.279	2.5031e-06	24.725	0.0016084	0.0024476	0.00068129	453.9	2.4482e-05	2.7196e-05	543.94	105.9	2.5234e-05	2.7272e-05	157.53	52.678	30.858	11.813	2.5755e-05	25.407	249.167	485.804	414.531	180.602	420.956	341.861	180.033	185.904	266.860	461.668	184.605	189.422	190.727	195.596	375.616	193.027	-8191	255	
16699.125	1	1	0	0	0.17365	0.19294	0.031128	0.18777	0.043701	0.21505	0.10527	0.052551	0.26709	0.15717	0.20209	0.13739	0.11958	0.16684	0.2239	0.13255	-1.8854	-2.6667	-2.3979	-2.4688	-2.7042	-2.25	-2.7562	-2.4667	-2.4458	-2.7875	-2.3896	-2.2583	-2.6833	-2.1104	-2.5771	-2.5979	427.694	452.392	306.052	454.928	232.409	344.551	223.810	511.732	405.027	247.616	466.477	498.250	430.810	180.835	508.523	186.833	0.00025222	0.00059173	7.3672e-06	453.16	2.7929e-06	6.0353e-06	550.09	105.27	4.152e-06	3.555e-06	155.33	51.773	29.557	11.279	1.9185e-06	24.818	0.0016443	0.002507	0.0007018	454.66	2.5719e-05	2.7883e-05	547.65	106.92	2.6048e-05	2.7959e-05	158.77	53.009	31.115	11.919	2.6788e-05	25.645	256.010	270.589	408.132	180.998	290.827	416.666	180.271	185.756	370.064	466.987	185.380	190.151	190.772	195.212	275.336	192.940	-8191	255	
16699.219	1	1	0	0	0.31421	0.22683	0.21943	0.13925	0.28269	0.13852	0.26574	0.19484	0.13685	0.18677	0.22901	0.08714	0.090621	0.08077	0.38918	0.014395	-1.7917	-2.7167	-2.2083	-2.3396	-2.5938	-2.2917	-2.5833	-2.4854	-2.15	-2.4833	-2.4188	-2.3812	-2.5458	-2.3333	-2.6063	-2.5458	356.953	283.000	391.289	221.693	424.124	231.292	499.887	450.004	492.405	407.900	264.986	458.783	474.369	403.576	284.126	462.963	0.00025522	0.00015415	8.587e-05	453.52	2.1072e-06	3.7534e-06	541.44	103.54	1.3635e-06	5.2323e-06	156.16	51.581	29.344	11.231	4.8248e-06	24.836	0.001693	0.0025929	0.00071478	455.02	2.6566e-05	2.8606e-05	543.84	106.64	2.6948e-05	2.9033e-05	158.92	52.989	31.226	11.891	2.7879e-05	25.52	270.472	249.070	234.116	180.868	314.386	290.729	180.138	186.168	190.797	480.728	184.902	190.179	190.920	195.706	391.315	192.739	-8191	255	
16699.316	1	1	0	0	0.17225	0.053248	0.13913	0.16919	0.11089	0.2409	0.16137	0.092845	0.093227	0.22687	0.27131	0.15909	0.22743	0.15522	0.11736	0.29316	-1.6833	-2.5542	-2.325	-2.4333	-2.5646	-2.1625	-2.3875	-2.4813	-2.3646	-2.7625	-2.3583	-2.0958	-2.5583	-2.4146	-2.5292	-2.5896	488.099	345.725	434.074	322.700	180.862	503.881	271.746	437.422	507.961	346.151	480.699	204.988	264.939	171.184	493.020	218.857	0.00027017	0.00038067	0.00014673	453.28	6.1491e-06	2.0409e-06	541.12	103.73	7.8773e-06	4.7246e-06	153.56	50.774	29.018	11.046	1.911e-06	24.284	0.0017706	0.0026646	0.00074168	455.39	2.687e-05	2.9801e-05	543.89	106.8	2.7265e-05	2.9907e-05	157.61	52.651	30.938	11.677	2.74e-05	25.125	266.408	323.025	214.882	180.477	313.770	240.015	180.071	185.994	326.186	341.716	184.461	189.686	190.812	195.448	189.786	192.380	-8191	255	
16699.436	1	1	0	0	0.19154	0.12583	0.28512	0.048484	0.09237	0.20688	0.38546	0.14936	0.12576	0.15624	0.14654	0.1985	0.23525	0.021381	0.16639	0.13573	-1.6354	-2.6625	-2.3625	-2.2896	-2.7979	-2.3125	-2.5479	-2.6854	-2.2333	-2.4104	-2.575	-2.45	-2.6188	-2.35	-2.3792	-2.85	458.894	266.036	316.560	286.608	405.217	187.476	373.563	457.562	262.060	344.852	375.203	265.703	465.375	297.611	404.483	443.731	0.00021686	0.00045501	9.1058e-05	453.34	2.6042e-06	4.5154e-07	540.44	104.25	6.8108e-06	1.6161e-06	154.21	50.796	28.671	11.102	4.6575e-06	24.483	0.0017515	0.0026577	0.00073429	453.47	2.697e-05	2.9778e-05	541.9	106.09	2.694e-05	2.9917e-05	157.75	52.46	30.821	11.754	2.7886e-05	25.346	257.935	250.073	255.236	180.434	327.450	215.476	180.313	185.928	307.326	338.165	184.337	189.995	191.023	195.899	260.113	192.889	-8191	255	
16699.531	1	1	0	0	0.24663	0.099404	0.28731	0.22691	0.23071	0.37111	0.020662	0.19306	0.12742	0.16639	0.14776	0.11081	0.24635	0.10271	0.10701	0.1168	-1.7833	-2.5	-2.4854	-2.1188	-2.5979	-2.3833	-2.4313	-2.6708	-2.2	-2.5354	-2.6271	-2.2021	-2.4833	-2.5271	-2.3417	-2.775	234.440	345.097	231.394	526.918	400.275	330.229	502.358	511.888	249.091	282.650	291.974	312.231	190.834	357.088	281.336	368.145	0.00022405	0.00022698	9.8627e-05	452.49	3.6701e-06	8.1494e-06	542.02	103.94	2.1237e-06	5.8909e-06	155.03	51.394	29.011	11.206	2.1087e-06	24.681	0.0017478	0.0026423	0.00074857	452.57	2.6926e-05	2.9367e-05	543.41	106.21	2.6823e-05	3.0087e-05	158.21	52.967	31.001	11.825	2.7933e-05	25.535	243.033	306.723	321.882	180.955	176.676	425.855	180.375	185.490	279.963	353.675	185.081	189.591	190.694	195.135	198.836	192.892	-8191	255	
16699.629	1	1	0	0	0.086942	0.38628	0.10639	0.1983	0.12365	0.42762	0.23986	0.057322	0.22746	0.16639	0.10521	0.14346	0.1411	0.28259	0.045361	0.179	-1.8792	-2.4562	-2.7	-2.1125	-2.7667	-2.4375	-2.3937	-2.8	-2.3146	-2.5187	-2.6604	-2.2146	-2.5271	-2.3708	-2.4	-2.5583	451.235	290.020	381.709	435.782	366.733	456.601	494.610	489.408	196.777	465.723	385.729	516.589	494.988	351.911	493.951	330.833	0.00025815	0.00036744	0.00014286	456.69	4.8285e-06	4.4603e-06	548.39	105.69	4.415e-06	1.2363e-06	156.18	51.655	29.103	11.153	4.6046e-06	24.716	0.0017401	0.0026293	0.00074076	456.56	2.594e-05	2.909e-05	547.27	107.95	2.6371e-05	2.9405e-05	159.49	52.987	31.084	11.802	2.7235e-05	25.347	255.207	323.966	331.354	180.824	289.375	341.444	180.504	185.901	293.691	255.133	184.853	190.096	190.446	195.512	323.292	192.921	-8191	255	
16699.725	1	1	0	0	0.13794	0.19712	0.07946	0.16839	0.42324	0.098742	0.26641	0.093419	0.11777	0.14845	0.18102	0.12995	0.084504	0.14962	0.21015	0.083899	-2.1208	-2.3583	-2.8167	-2.45	-2.6	-2.4771	-2.3271	-2.7375	-2.4708	-2.3812	-2.8708	-2.2646	-2.5812	-2.6375	-2.3187	-2.7208	498.934	355.964	405.158	503.013	435.961	415.306	180.673	259.003	431.339	202.062	209.389	270.975	527.901	334.268	498.476	384.375	0.00019592	0.00048158	0.00011369	457.14	1.7253e-06	5.9472e-06	545.57	104.76	1.9606e-06	5.8182e-06	155.34	50.815	28.873	11.031	9.9711e-07	24.104	0.0016827	0.0025583	0.00071419	460.03	2.529e-05	2.8129e-05	547.11	107.82	2.6049e-05	2.8741e-05	158.14	52.035	30.782	11.604	2.6174e-05	24.808	261.848	316.879	220.406	180.806	329.130	443.967	180.014	185.912	364.081	305.987	184.582	190.022	191.253	195.638	294.700	193.019	-8191	255	
16699.820	1	1	0	0	0.11484	0.13372	0.070237	0.033403	0.21522	0.25238	0.27608	0.15922	0.24767	0.25078	0.13711	0.12738	0.23792	0.11587	0.18062	0.24051	-2.0563	-2.2667	-2.5438	-2.3458	-2.4458	-2.4521	-2.0917	-2.6479	-2.3583	-2.3479	-2.8375	-2.2188	-2.4062	-2.6396	-2.2875	-2.7375	175.981	395.000	288.205	215.416	463.924	438.123	484.998	514.546	493.145	275.537	214.627	314.077	436.510	201.455	319.982	494.806	0.00025712	0.00010695	0.00012998	457.43	9.1881e-07	3.8913e-06	542.67	104.48	4.8461e-06	3.0204e-06	153.24	50.289	28.722	10.799	6.4509e-06	23.843	0.0016515	0.0025186	0.00069309	456.66	2.5601e-05	2.7554e-05	543.05	107.03	2.5829e-05	2.7921e-05	156.49	51.396	30.516	11.427	2.659e-05	24.719	251.439	257.444	248.050	180.550	284.050	367.969	180.262	185.865	375.280	457.470	184.598	189.804	190.703	195.770	304.466	193.427	-8191	255	
16699.916	1	1	0	0	0.28742	0.27314	0.32103	0.14802	0.12685	0.16751	0.20795	0.19404	0.18015	0.11106	0.15665	0.20389	0.23684	0.16981	0.04402	0.12115	-2.0396	-2.3458	-2.6792	-2.4104	-2.3854	-2.8625	-2.2854	-2.5604	-2.6583	-2.4562	-2.8021	-2.4042	-2.4896	-2.6312	-2.2333	-2.7354	287.889	363.065	415.462	381.456	176.147	206.422	261.489	508.787	524.105	360.267	293.963	304.883	243.119	478.633	310.856	498.986	0.00024265	0.00048224	1.6211e-05	455.97	3.5767e-06	5.5736e-06	543.55	104.9	2.554e-06	5.449e-06	155.93	50.243	28.613	10.963	1.5399e-06	24.076	0.0016176	0.002472	0.00068972	456.61	2.523e-05	2.7723e-05	542.3	107.37	2.5863e-05	2.8561e-05	157.59	51.655	30.44	11.493	2.6129e-05	24.749	253.959	277.926	295.444	180.362	389.690	378.791	180.167	186.145	325.910	309.903	184.442	189.820	191.295	195.602	306.754	192.910	-8191	255	
16700.014	1	1	0	0	0.25213	0.19059	0.039611	0.26732	0.23396	0.17778	0.088142	0.23848	0.18876	0.1186	0.22433	0.24528	0.11163	0.056113	0.21092	0.081889	-2.0625	-2.3292	-2.6167	-2.5167	-2.4646	-2.7729	-2.3021	-2.7979	-2.6979	-2.1542	-2.6562	-2.4458	-2.5625	-2.5875	-2.2083	-2.6354	452.788	465.662	290.198	234.170	507.868	354.072	524.610	421.673	386.379	404.554	452.162	316.443	258.307	181.071	513.856	478.437	0.00023041	0.00040473	4.2217e-05	454.37	4.6786e-06	1.4663e-07	536.27	104.14	1.1919e-06	6.3939e-06	150.58	49.455	28.039	10.763	4.2413e-06	23.947	0.001628	0.0024716	0.0006812	455.23	2.5101e-05	2.7211e-05	537.91	106.49	2.4792e-05	2.7484e-05	154.66	50.859	30.04	11.341	2.5723e-05	24.391	255.314	311.438	506.911	180.467	369.122	485.210	180.175	185.678	525.919	281.360	184.645	190.063	190.694	196.014	313.235	193.250	-8191	255	
16700.133	1	1	0	0	0.13523	0.069539	0.23267	0.20627	0.070357	0.1932	0.12392	0.18071	0.070403	0.27098	0.081665	0.188	0.18324	0.11969	0.039791	0.15137	-2.0792	-2.2542	-2.6729	-2.4375	-2.3375	-2.7271	-2.2854	-2.6167	-2.6604	-2.2917	-2.5896	-2.3937	-2.5042	-2.625	-2.5333	-2.4396	266.608	394.661	451.284	326.014	260.034	373.428	195.046	514.988	514.134	319.125	420.978	342.829	202.710	526.375	307.557	466.164	0.00026329	0.00024637	7.8824e-05	449.61	3.0066e-06	6.6014e-06	531.53	102.78	9.9651e-07	4.4346e-06	150.76	48.75	28.403	10.606	3.0529e-06	23.468	0.0016244	0.0024549	0.00069106	450.01	2.4791e-05	2.7688e-05	529.95	104.69	2.5266e-05	2.7412e-05	153.05	50.346	29.952	11.204	2.5513e-05	24.101	266.267	263.089	279.446	180.737	318.533	340.565	180.157	185.685	304.313	279.219	185.034	189.677	190.979	195.397	411.516	192.993	-8191	255	
16700.229	1	1	0	0	0.15096	0.14591	0.095737	0.27317	0.1707	0.17193	0.18751	0.22602	0.31852	0.070742	0.29049	0.32418	0.12698	0.078694	0.28384	0.20088	-2.2771	-2.3042	-2.5917	-2.5229	-2.3375	-2.9417	-2.6	-2.4	-2.7333	-2.4313	-2.7062	-2.3708	-2.3187	-2.85	-2.4125	-2.3708	450.103	204.376	183.671	512.961	363.060	339.605	343.714	191.736	169.906	502.873	244.732	375.168	452.632	420.616	301.762	502.947	0.00019221	0.00036021	6.3646e-05	452.8	3.0946e-06	6.2412e-06	531.41	102.25	4.0122e-06	5.2537e-06	150.43	49	28.146	10.641	5.0938e-07	23.364	0.0016136	0.002483	0.00068803	450.94	2.5468e-05	2.7347e-05	529.4	104.88	2.4929e-05	2.7737e-05	153.12	50.377	29.899	11.211	2.575e-05	24.19	261.921	329.909	298.995	180.757	340.848	376.351	180.076	185.866	236.575	345.221	184.528	189.963	191.192	195.630	325.978	193.034	-8191	255	
16700.299	1	1	0	0	0.24597	0.046064	0.19663	0.15953	0.10651	0.13806	0.3182	0.09345	0.24503	0.12463	0.048887	0.17	0.34714	0.11126	0.022914	0.019327	-2.1792	-2.2583	-2.6896	-2.6958	-2.2729	-2.6396	-2.5917	-2.1937	-2.6417	-2.3333	-2.5979	-2.6208	-2.2979	-2.7521	-2.325	-2.4979	503.227	421.461	251.628	460.283	505.106	313.569	524.265	253.473	515.543	253.798	489.599	197.183	470.048	519.166	401.510	333.620	0.00024417	0.00039841	7.3397e-05	448.17	3.8826e-06	4.7068e-06	530.21	102.55	3.6039e-06	2.7646e-06	150.53	49.188	27.993	10.668	1.6051e-06	23.421	0.0016192	0.0025199	0.00068438	448.62	2.5082e-05	2.7555e-05	529.67	104.38	2.5261e-05	2.7606e-05	153.52	50.583	29.94	11.189	2.5499e-05	24.166	251.058	232.624	226.789	180.443	278.977	411.217	180.390	185.765	370.251	383.167	184.668	189.906	190.396	195.619	180.323	192.430	-8191	255	
16700.396	1	1	0	0	0.44641	0.15777	0.094076	0.16867	0.23456	0.24882	0.18921	0.2156	0.17972	0.12995	0.098776	0.097425	0.16654	0.13814	0.31499	0.041888	-2.2667	-2.2292	-2.7396	-2.7125	-2.1917	-2.6458	-2.3896	-2.325	-2.7167	-2.2896	-2.6146	-2.6167	-2.2875	-2.7313	-2.45	-2.2292	291.645	453.007	370.987	418.364	430.292	309.527	491.255	513.829	476.860	192.534	417.079	521.029	259.759	521.093	419.359	445.352	0.00028663	0.0007779	0.00014003	451.92	2.3378e-06	1.6899e-06	531.62	103.2	6.9954e-07	1.6839e-06	151.01	49.272	28.262	10.569	5.0878e-06	23.103	0.001618	0.0024476	0.00069104	451.71	2.5011e-05	2.7306e-05	532.69	105.08	2.4837e-05	2.7111e-05	154.05	50.486	29.888	11.134	2.5772e-05	23.949	267.401	239.126	267.085	180.633	250.563	303.334	179.971	185.614	386.260	327.350	184.347	190.032	190.961	195.262	389.213	193.133	-8191	255	
16700.516	1	1	0	0	0.19703	0.29128	0.1079	0.083948	0.11892	0.1718	0.069828	0.21648	0.070086	0.11899	0.13056	0.094588	0.022963	0.21581	0.27328	0.20768	-2.2917	-2.2583	-2.3625	-2.7458	-2.3271	-2.6583	-2.5563	-2.1813	-2.4708	-2.325	-2.475	-2.7104	-2.2667	-2.6437	-2.6479	-2.4354	361.334	392.836	415.738	372.508	404.035	333.363	201.190	355.514	183.233	261.583	428.632	426.578	471.555	473.665	299.528	320.519	0.00024988	0.0001481	0.0001076	450.03	3.5838e-06	5.5132e-06	530.74	103.76	2.4119e-06	4.8827e-06	151.16	49.189	28.407	10.579	1.8773e-06	23.174	0.0016242	0.0024156	0.00067158	452.22	2.4533e-05	2.6907e-05	530.92	105.67	2.4515e-05	2.6584e-05	153.72	50.25	30.01	11.152	2.5296e-05	23.957	266.067	303.635	369.460	180.692	439.832	175.425	180.227	185.741	459.689	299.520	184.902	189.501	191.340	195.711	432.378	192.775	-8191	255	
16700.611	1	1	0	0	0.066421	0.1488	0.19008	0.24266	0.17728	0.069316	0.25888	0.047569	0.088527	0.038448	0.1318	0.12493	0.31485	0.11456	0.18512	0.18663	-2.325	-2.3896	-2.3042	-2.6271	-2.4021	-2.5917	-2.5812	-2.3604	-2.5146	-2.4604	-2.3354	-2.7208	-2.0938	-2.4604	-2.4771	-2.2833	279.654	196.670	209.458	507.512	396.237	485.713	473.487	244.583	475.729	417.789	391.317	212.963	476.387	366.143	260.419	194.783	0.00027969	0.00015493	7.2128e-05	451.45	4.809e-06	2.0421e-06	531.74	104.67	2.4667e-06	2.2793e-06	152.34	49.57	28.766	10.72	6.1913e-06	23.551	0.0015838	0.0024064	0.00067079	452.09	2.4101e-05	2.6692e-05	531.35	106.29	2.3984e-05	2.6637e-05	155.38	50.864	30.368	11.332	2.4645e-05	24.197	258.469	225.108	235.694	180.389	293.821	271.598	180.454	185.834	199.750	314.093	184.412	189.774	191.065	195.794	294.270	192.819	-8191	255	
16700.707	1	1	0	0	0.15309	0.15949	0.23231	0.25104	0.28194	0.21806	0.37048	0.22728	0.18641	0.1494	0.31721	0.069663	0.06967	0.17815	0.12979	0.15456	-2.1458	-2.3583	-2.0354	-2.8229	-2.3375	-2.6208	-2.7687	-2.2521	-2.6729	-2.4771	-2.2542	-2.5542	-2.4562	-2.3896	-2.725	-2.3333	358.549	198.326	432.116	193.636	412.622	175.607	201.667	443.010	380.494	292.597	414.469	173.106	521.604	502.925	314.730	167.752	0.00022668	0.00043141	7.1275e-05	459.24	4.7692e-06	4.6287e-06	541.33	106.74	3.3129e-07	4.6856e-06	155.81	50.563	29.261	10.813	4.3488e-06	23.688	0.0015913	0.0023546	0.00065509	459.75	2.4036e-05	2.6315e-05	539.17	108.66	2.4007e-05	2.6151e-05	158.08	51.749	30.968	11.461	2.5051e-05	24.43	269.728	263.281	242.566	180.632	340.861	266.906	179.976	185.401	426.537	276.242	184.596	189.720	191.009	195.354	394.446	193.047	-8191	255	
16700.805	1	1	0	0	0.17208	0.081592	0.1144	0.12526	0.17637	0.1639	0.071397	0.11146	0.018551	0.10322	0.43826	0.12041	0.35708	0.16293	0.25943	0.12339	-2.0542	-2.5875	-2.3771	-2.7812	-2.4542	-2.4646	-2.7667	-2.1312	-2.4229	-2.5354	-2.2687	-2.5	-2.2917	-2.225	-2.5875	-2.1792	168.755	517.498	218.847	395.240	333.069	342.215	172.911	391.872	356.018	192.628	503.289	296.410	393.542	205.872	395.405	420.078	0.00024679	0.00036391	8.8491e-05	465.65	7.7406e-07	1.0932e-05	551.2	107.44	4.0089e-06	5.0208e-06	156.58	51.221	29.71	11.064	4.1556e-06	23.983	0.0015551	0.0023886	0.00065997	463.87	2.419e-05	2.6922e-05	547.58	109.47	2.4419e-05	2.6554e-05	159.84	52.294	31.192	11.614	2.5062e-05	24.71	267.242	236.027	352.080	180.848	257.711	370.207	180.090	185.636	405.408	342.715	185.040	189.421	191.278	195.654	313.660	193.338	-8191	255	
16700.926	1	1	0	0	0.12646	0.14525	0.20392	0.29796	0.27189	0.090687	0.19745	0.10065	0.17602	0.18241	0.27771	0.09986	0.11695	0.26728	0.24214	0.10995	-2.0958	-2.6708	-2.2438	-2.6792	-2.4667	-2.5708	-2.9083	-2.2292	-2.4938	-2.7875	-2.3708	-2.7812	-2.3937	-2.2667	-2.7604	-2.4292	407.037	275.178	519.998	491.987	479.196	329.368	411.157	465.720	349.268	349.400	423.979	417.644	214.035	377.310	468.019	396.519	0.00024726	0.00055015	0.00013493	462.65	3.7053e-06	9.2134e-06	544.15	108.14	3.1509e-06	4.2787e-06	155.65	50.743	29.294	10.974	6.3028e-06	23.867	0.0016112	0.0023652	0.00065997	463.68	2.3973e-05	2.6251e-05	545	109.9	2.4338e-05	2.653e-05	158.97	52.077	31.096	11.585	2.4598e-05	24.621	261.884	175.017	300.442	180.705	318.567	327.690	180.092	185.798	176.057	224.165	184.701	189.466	190.941	195.754	355.987	193.179	-8191	255	
16700.996	1	1	0	0	0.093457	0.089322	0.20851	0.14576	0.03702	0.21745	0.13436	0.14997	0.32408	0.11561	0.11371	0.17257	0.13633	0.11145	0.076858	0.30097	-2.0312	-2.6417	-2.1125	-2.5938	-2.5604	-2.5	-2.825	-2.5104	-2.375	-2.6417	-2.4208	-2.6479	-2.4667	-2.2792	-2.7479	-2.4875	456.733	170.655	252.610	172.005	303.510	222.294	456.272	200.249	491.155	376.438	330.060	427.176	269.839	452.692	430.188	414.563	0.00025296	0.00026921	0.00014115	462.92	5.7824e-06	2.3877e-06	546.58	107.72	2.791e-06	1.7336e-06	156.57	50.603	29.337	11.093	6.955e-06	24.045	0.0015598	0.0023704	0.00066059	464	2.3865e-05	2.6341e-05	543.78	109.6	2.3979e-05	2.6441e-05	159.45	51.847	31.022	11.596	2.4307e-05	24.629	260.642	191.116	338.918	180.868	310.574	255.659	180.381	186.061	301.026	274.190	184.541	189.568	190.057	195.521	246.367	192.422	-8191	255	
16701.117	1	1	0	0	0.33442	0.41177	0.16081	0.1632	0.26198	0.23695	0.2633	0.1027	0.12362	0.28755	0.22637	0.068895	0.41804	0.1391	0.27316	0.16232	-1.8667	-2.675	-2.2896	-2.5604	-2.5833	-2.2125	-2.7167	-2.4688	-2.3708	-2.6729	-2.3917	-2.6354	-2.5396	-2.1729	-2.6604	-2.4729	489.335	371.740	348.832	486.568	222.625	203.113	522.777	502.011	400.829	312.338	205.144	251.855	267.801	476.811	341.522	271.753	0.00026757	0.00054994	6.8115e-05	464.2	2.3342e-06	2.6182e-06	545.38	107.14	3.0975e-06	4.3192e-06	155.7	50.547	29.152	10.899	3.3808e-06	24.057	0.0015764	0.0023677	0.00066047	464.92	2.4097e-05	2.6379e-05	544.09	109.05	2.4353e-05	2.6203e-05	158.59	51.875	30.79	11.493	2.4428e-05	24.678	281.734	344.709	259.906	180.666	339.587	330.419	180.026	185.457	338.931	332.392	184.506	189.652	190.555	195.428	290.775	192.841	-8191	255	
16701.215	1	1	0	0	0.26572	0.033848	0.21326	0.2923	0.065989	0.069438	0.094504	0.15946	0.32357	0.17919	0.57615	0.090058	0.1747	0.091414	0.33219	0.059145	-1.9292	-2.775	-2.2667	-2.5771	-2.6146	-2.3271	-2.5583	-2.5062	-2.3083	-2.6458	-2.3646	-2.4688	-2.7188	-2.2875	-2.6458	-2.6521	420.013	526.411	486.700	450.349	417.048	258.970	371.372	497.423	430.417	374.253	168.183	332.308	467.384	469.695	501.587	215.289	0.0002263	0.00059508	6.5181e-05	465.9	3.4961e-06	4.1719e-06	551.93	107.71	8.3674e-07	4.867e-06	157.16	51.089	29.386	11.103	2.7315e-06	24.173	0.0015748	0.0024124	0.0006756	464.48	2.4522e-05	2.6982e-05	548.2	109.33	2.4822e-05	2.6762e-05	159.51	52.299	31.043	11.606	2.5351e-05	24.825	259.131	270.067	320.677	180.692	318.470	405.211	180.318	185.395	227.500	373.517	184.671	189.683	190.271	195.544	393.664	192.969	-8191	255	
16701.309	1	1	0	0	0.17184	0.26575	0.10724	0.10322	0.13755	0.379	0.18142	0.065846	0.12069	0.082261	0.27262	0.21729	0.067386	0.19879	0.17433	0.26827	-1.8333	-2.6667	-2.2833	-2.5042	-2.8	-2.3187	-2.5854	-2.7021	-2.2354	-2.6437	-2.3854	-2.4958	-2.7792	-2.2604	-2.6021	-2.5812	202.160	242.299	511.818	213.028	202.197	198.462	246.491	411.319	512.011	392.001	182.090	202.808	518.738	181.078	517.608	415.646	0.00024841	0.00044844	0.00018123	467.24	5.3951e-06	4.9188e-07	548.36	108.61	5.8586e-06	3.3981e-06	157.5	51.098	29.549	11.12	3.2917e-06	24.2	0.0016154	0.0024362	0.00068259	466.49	2.442e-05	2.6875e-05	549.09	110.03	2.4784e-05	2.6487e-05	159.87	52.373	31.227	11.72	2.5025e-05	24.92	267.159	226.814	298.574	180.536	278.864	355.569	180.387	185.381	357.151	355.363	184.739	189.993	191.271	195.241	211.493	193.071	-8191	255	
16701.404	1	1	0	0	0.17999	0.18207	0.26458	0.26547	0.031861	0.17825	0.17876	0.24885	0.30549	0.26807	0.24015	0.0856	0.20073	0.060721	0.11248	0.096785	-1.8396	-2.5896	-2.4083	-2.3458	-2.7333	-2.2062	-2.4208	-2.5167	-2.0646	-2.6979	-2.4854	-2.2625	-2.5687	-2.2792	-2.4875	-2.6458	370.804	426.306	445.763	504.385	257.627	305.926	454.397	347.645	471.306	181.200	235.003	422.604	215.408	266.822	461.601	240.793	0.00025074	0.00015818	9.2633e-05	464.59	4.5254e-06	4.5141e-06	546.72	106.83	2.4204e-06	4.8558e-06	155.35	51.222	29.002	11.121	2.3683e-06	24.081	0.0016091	0.0024328	0.00068525	462.57	2.4563e-05	2.7113e-05	545.27	108.9	2.4498e-05	2.7014e-05	158.71	52.08	31.004	11.633	2.5123e-05	24.799	264.921	480.851	276.952	180.410	195.574	483.813	180.412	185.703	211.206	370.311	184.536	189.809	190.107	195.396	410.929	193.267	-8191	255	
16701.525	1	1	0	0	0.24862	0.089416	0.12566	0.19465	0.17895	0.097885	0.25387	0.14006	0.13991	0.23634	0.1368	0.25731	0.12056	0.15601	0.40658	0.23597	-1.8229	-2.7479	-2.2917	-2.4333	-2.6542	-2.3688	-2.6125	-2.7687	-2.3354	-2.4396	-2.6021	-2.2917	-2.6396	-2.1375	-2.3417	-2.7229	349.704	352.050	451.263	446.303	364.509	315.135	490.170	312.904	223.918	396.565	512.146	386.353	470.441	521.256	229.721	326.411	0.00025273	0.000281	4.021e-05	460.94	3.0118e-06	4.4822e-06	546.68	106.43	1.0558e-06	3.5112e-06	156.3	50.931	29.176	10.988	3.5345e-06	24.147	0.0016468	0.0024643	0.00067774	461.35	2.4346e-05	2.6855e-05	543.72	108.46	2.4815e-05	2.6759e-05	157.97	51.885	30.783	11.509	2.5357e-05	24.728	269.230	257.118	433.017	180.249	374.385	430.938	180.400	185.848	442.369	313.272	184.463	189.675	191.332	195.343	347.809	192.421	-8191	255	
16701.596	1	1	0	0	0.19968	0.19783	0.30779	0.087926	0.07468	0.06304	0.15883	0.24856	0.18668	0.15706	0.30548	0.18061	0.18644	0.19056	0.11342	0.087325	-1.9271	-2.5229	-2.5354	-2.3125	-2.4958	-2.275	-2.1667	-2.5875	-2.1312	-2.4938	-2.5667	-2.225	-2.6167	-2.2438	-2.2375	-2.6063	321.814	475.298	185.911	183.125	437.578	269.662	445.109	463.093	521.251	365.960	482.674	494.184	224.934	268.229	245.969	367.652	0.00025863	0.00019278	4.8545e-05	459.1	4.3493e-06	1.1471e-06	547.63	105.76	5.4713e-06	2.7255e-06	156.47	50.461	29.458	10.974	6.124e-06	24.187	0.0016279	0.0024286	0.00067334	460.73	2.4493e-05	2.6769e-05	546.64	108.23	2.4847e-05	2.7432e-05	158.99	52.085	30.985	11.584	2.5271e-05	24.885	246.167	508.128	477.438	180.567	302.578	413.451	179.977	185.533	310.294	230.855	184.323	189.820	190.928	195.721	267.250	193.020	-8191	255	
16701.693	1	1	0	0	0.31922	0.25218	0.14594	0.034923	0.29471	0.18858	0.14018	0.28753	0.095055	0.24253	0.21935	0.17391	0.17292	0.097897	0.25079	0.18779	-1.7229	-2.4354	-2.4938	-2.3667	-2.7417	-2.45	-2.2729	-2.7229	-2.4354	-2.5938	-2.7583	-2.3333	-2.6375	-2.4375	-2.175	-2.7854	335.555	420.041	230.544	189.222	344.041	448.854	466.622	427.393	300.957	255.144	439.823	440.916	490.416	419.261	353.172	527.306	0.00026123	0.00018871	6.821e-05	461.58	2.1248e-06	1.739e-06	548.69	107.07	1.553e-06	2.3046e-06	157.32	51.062	29.383	11.263	4.7245e-06	24.457	0.0015865	0.002477	0.00067023	461.23	2.4456e-05	2.6847e-05	550.21	109.5	2.4763e-05	2.684e-05	159.96	52.406	31.064	11.713	2.5463e-05	25.169	263.702	281.398	324.421	180.316	271.158	345.880	180.412	185.931	332.129	283.323	184.661	189.606	190.692	195.802	293.397	193.326	-8191	255	
16701.812	1	1	0	0	0.064567	0.21985	0.085462	0.20861	0.37719	0.33827	0.21316	0.10869	0.085598	0.10157	0.13403	0.23847	0.053844	0.037564	0.34417	0.079704	-1.9188	-2.2313	-2.6958	-2.1083	-2.575	-2.5729	-2.4396	-2.7167	-2.4979	-2.4208	-2.8333	-2.2188	-2.625	-2.4396	-2.2646	-2.5896	197.623	419.800	418.431	231.516	291.806	428.914	516.076	354.439	478.315	460.971	293.922	467.642	429.603	486.350	445.980	209.861	0.00023097	0.00050785	0.00011592	460.25	3.0136e-06	5.1581e-06	544.76	108.21	9.4687e-07	9.3164e-06	156.84	51.032	29.564	11.177	3.9699e-06	24.449	0.0015968	0.0024531	0.0006761	460.81	2.4255e-05	2.6718e-05	545.41	109.85	2.4617e-05	2.6633e-05	159.19	52.288	31.129	11.72	2.5406e-05	24.988	263.688	260.806	303.350	180.355	349.642	300.779	180.450	186.023	388.404	284.023	184.457	190.208	190.556	195.918	338.966	193.297	-8191	255	
16701.908	1	1	0	0	0.16876	0.11505	0.23334	0.24234	0.07356	0.11871	0.17354	0.059907	0.14256	0.29893	0.091126	0.30665	0.31394	0.19529	0.073061	0.21648	-1.8229	-2.3896	-2.4688	-2.2854	-2.3792	-2.6708	-2.4104	-2.6146	-2.4417	-2.45	-2.7687	-2.3375	-2.625	-2.7479	-2.4708	-2.8521	474.192	500.389	442.546	461.940	275.582	400.258	469.346	389.547	482.002	442.311	400.135	493.482	260.495	246.084	281.552	395.384	0.00021862	0.00016915	7.0211e-05	462.2	3.26e-06	4.2295e-06	549.55	106.86	4.182e-06	3.3723e-06	156.33	50.98	29.352	10.876	3.1661e-06	23.981	0.0015814	0.0024474	0.00065884	461.73	2.3916e-05	2.6308e-05	546.32	109.49	2.45e-05	2.6293e-05	159	52.117	31.112	11.525	2.5182e-05	24.679	257.176	513.933	469.326	180.604	316.602	316.668	180.154	186.034	322.775	399.849	184.858	189.452	190.244	195.632	348.046	193.257	-8191	255	
16702.006	1	1	0	0	0.14709	0.19278	0.24039	0.033817	0.095649	0.077112	0.17352	0.18601	0.20908	0.30508	0.23496	0.070938	0.042321	0.12171	0.09246	0.12961	-2.0729	-2.4	-2.7229	-2.3688	-2.475	-2.6875	-2.4208	-2.7104	-2.4188	-2.2417	-2.8208	-2.3792	-2.5	-2.7021	-2.1458	-2.4875	505.575	288.151	193.007	318.713	328.899	191.318	398.782	201.191	428.456	435.520	178.055	174.856	526.032	401.050	285.070	443.549	0.00021728	0.00019945	8.9695e-05	462.87	4.9967e-06	1.0396e-06	545.77	107.74	2.5292e-06	8.7442e-06	156.35	51.024	29.26	11.004	6.6339e-06	24.214	0.0015662	0.0023928	0.0006656	462.6	2.3933e-05	2.6155e-05	545.78	109.52	2.3898e-05	2.5958e-05	158.78	52.056	30.96	11.537	2.4047e-05	24.79	259.746	313.775	219.690	180.507	268.894	169.359	179.928	185.824	342.102	256.366	184.799	189.928	191.175	195.492	249.980	193.141	-8191	255	
16702.102	1	1	0	0	0.23395	0.10978	0.24698	0.2627	0.19459	0.12611	0.046563	0.34258	0.20947	0.18699	0.029968	0.1814	0.29562	0.36188	0.066783	0.068791	-2.2917	-2.2146	-2.6813	-2.3771	-2.5583	-2.7062	-2.3854	-2.5938	-2.4625	-2.2333	-2.7667	-2.4354	-2.3979	-2.65	-2.1667	-2.6167	181.158	508.389	265.645	458.667	466.100	199.753	466.041	364.928	408.238	463.744	492.488	496.059	237.361	380.574	388.369	496.668	0.00023644	0.0002917	4.6083e-05	465.25	1.2286e-06	2.0105e-06	548	108.05	5.6831e-06	9.4103e-07	158.17	50.955	29.025	11.029	5.6005e-06	24.317	0.0015421	0.0023773	0.00065232	463.97	2.3817e-05	2.6012e-05	548.79	110.11	2.3716e-05	2.5765e-05	160.87	52.385	31.171	11.619	2.4158e-05	25.069	266.639	521.662	312.503	180.765	485.531	381.971	179.980	185.898	216.293	169.235	184.533	189.737	191.007	196.245	289.965	193.464	-8191	255	
#DATA ENDS
