BOXY.EXE: ISS Imagent and Oximeter Data Acquisition Program Version 0.80
Ascii Record File

#ACQ INFORMATION
2  Detector Channels 
16  External MUX Channels 
1  Auxiliary Channels 
5000  Waveform (CCF) Frequency (Hz)
1  Waveforms Skipped 
30  Waveforms Averaged 
1  Cycles Averaged 
16  Acquisitions per Waveform 
10.0806  Updata Rate (Hz) 

#FILE INFORMATION
TRUE -- External MUX Channel results are PARSED.
FALSE -- AC DC and Phase are NOT grouped.
TRUE -- Companion Program Settings File CREATED.
FALSE -- AC data not excluded
FALSE -- DC data not excluded
FALSE -- Phase data not excluded
FALSE -- Auxillary Chn. data not excluded
Tab delimiters

#CALIBRATION STATE
TRUE -- Waveform Calibration Values APPLIED.


#AUX CALIBRATION VALUES
Val Type	aux-1	

Term	1.0000e+00	
Factor	0.0000e+00	


#WF CALIBRATION VALUES
A = Detector Channel
Val Type	A-AC1	A-AC2	A-AC3	A-AC4	A-AC5	A-AC6	A-AC7	A-AC8	A-AC9	A-AC10	A-AC11	A-AC12	A-AC13	A-AC14	A-AC15	A-AC16	A-DC1	A-DC2	A-DC3	A-DC4	A-DC5	A-DC6	A-DC7	A-DC8	A-DC9	A-DC10	A-DC11	A-DC12	A-DC13	A-DC14	A-DC15	A-DC16	A-Ph1	A-Ph2	A-Ph3	A-Ph4	A-Ph5	A-Ph6	A-Ph7	A-Ph8	A-Ph9	A-Ph10	A-Ph11	A-Ph12	A-Ph13	A-Ph14	A-Ph15	A-Ph16	

Term	0.00000e+00	0.00000e+00	0.00000e+00	0.00000e+00	0.00000e+00	0.00000e+00	0.00000e+00	0.00000e+00	0.00000e+00	0.00000e+00	0.00000e+00	0.00000e+00	0.00000e+00	0.00000e+00	0.00000e+00	0.00000e+00	0.00000e+00	0.00000e+00	0.00000e+00	0.00000e+00	0.00000e+00	0.00000e+00	0.00000e+00	0.00000e+00	0.00000e+00	0.00000e+00	0.00000e+00	0.00000e+00	0.00000e+00	0.00000e+00	0.00000e+00	0.00000e+00	0.00000e+00	0.00000e+00	0.00000e+00	0.00000e+00	0.00000e+00	0.00000e+00	0.00000e+00	0.00000e+00	0.00000e+00	0.00000e+00	0.00000e+00	0.00000e+00	0.00000e+00	0.00000e+00	0.00000e+00	0.00000e+00	
Factor	1.00000e+00	1.00000e+00	1.00000e+00	1.00000e+00	1.00000e+00	1.00000e+00	1.00000e+00	1.00000e+00	1.00000e+00	1.00000e+00	1.00000e+00	1.00000e+00	1.00000e+00	1.00000e+00	1.00000e+00	1.00000e+00	1.00000e+00	1.00000e+00	1.00000e+00	1.00000e+00	1.00000e+00	1.00000e+00	1.00000e+00	1.00000e+00	1.00000e+00	1.00000e+00	1.00000e+00	1.00000e+00	1.00000e+00	1.00000e+00	1.00000e+00	1.00000e+00	X	X	X	X	X	X	X	X	X	X	X	X	X	X	X	X	

B = Detector Channel
Val Type	B-AC1	B-AC2	B-AC3	B-AC4	B-AC5	B-AC6	B-AC7	B-AC8	B-AC9	B-AC10	B-AC11	B-AC12	B-AC13	B-AC14	B-AC15	B-AC16	B-DC1	B-DC2	B-DC3	B-DC4	B-DC5	B-DC6	B-DC7	B-DC8	B-DC9	B-DC10	B-DC11	B-DC12	B-DC13	B-DC14	B-DC15	B-DC16	B-Ph1	B-Ph2	B-Ph3	B-Ph4	B-Ph5	B-Ph6	B-Ph7	B-Ph8	B-Ph9	B-Ph10	B-Ph11	B-Ph12	B-Ph13	B-Ph14	B-Ph15	B-Ph16	

Term	0.00000e+00	0.00000e+00	0.00000e+00	0.00000e+00	0.00000e+00	0.00000e+00	0.00000e+00	0.00000e+00	0.00000e+00	0.00000e+00	0.00000e+00	0.00000e+00	0.00000e+00	0.00000e+00	0.00000e+00	0.00000e+00	0.00000e+00	0.00000e+00	0.00000e+00	0.00000e+00	0.00000e+00	0.00000e+00	0.00000e+00	0.00000e+00	0.00000e+00	0.00000e+00	0.00000e+00	0.00000e+00	0.00000e+00	0.00000e+00	0.00000e+00	0.00000e+00	-1.74148e+02	-1.27087e+02	-1.30125e+02	-1.81316e+02	-8.55190e+01	-6.66878e+01	-1.57075e+02	-1.62015e+02	-8.14386e+01	-6.69092e+01	-1.71893e+02	-1.70622e+02	-1.79843e+02	-1.76980e+02	-7.36244e+01	-1.49926e+02	
Factor	3.06324e-05	1.62235e-04	4.72445e-05	1.48920e-01	1.49831e-06	1.76165e-06	1.72106e-01	6.28372e-02	1.68338e-06	1.86821e-06	8.65051e-02	2.99025e-02	3.08083e-02	9.61349e-03	1.55958e-06	1.36815e-02	1.62461e-05	2.79970e-05	7.84780e-06	7.48325e-02	2.67660e-07	3.17064e-07	8.15900e-02	3.16269e-02	2.77634e-07	3.15248e-07	4.25007e-02	1.47081e-02	1.57617e-02	4.89367e-03	2.89544e-07	6.76532e-03	X	X	X	X	X	X	X	X	X	X	X	X	X	X	X	X	



#DISTANCE SETTINGS
A = Detector Channel
A-1	A-2	A-3	A-4	A-5	A-6	A-7	A-8	A-9	A-10	A-11	A-12	A-13	A-14	A-15	A-16	

2.5000e+00	3.0000e+00	2.5000e+00	3.0000e+00	2.0000e+00	3.0000e+00	1.5000e+00	3.0000e+00	3.0000e+00	3.0000e+00	3.0000e+00	3.0000e+00	3.0000e+00	3.0000e+00	1.5000e+00	3.0000e+00	

B = Detector Channel
B-1	B-2	B-3	B-4	B-5	B-6	B-7	B-8	B-9	B-10	B-11	B-12	B-13	B-14	B-15	B-16	

1.0000e+01	1.0000e+01	1.0000e+01	1.4400e+00	1.0000e+01	1.0000e+01	1.5100e+00	1.9400e+00	1.0000e+01	1.0000e+01	1.9900e+00	2.4900e+00	2.4100e+00	2.9000e+00	1.0000e+01	2.9800e+00	




#DATA BEGINS
time	group	step	mark	flag	A-AC1	A-AC2	A-AC3	A-AC4	A-AC5	A-AC6	A-AC7	A-AC8	A-AC9	A-AC10	A-AC11	A-AC12	A-AC13	A-AC14	A-AC15	A-AC16	A-DC1	A-DC2	A-DC3	A-DC4	A-DC5	A-DC6	A-DC7	A-DC8	A-DC9	A-DC10	A-DC11	A-DC12	A-DC13	A-DC14	A-DC15	A-DC16	A-Ph1	A-Ph2	A-Ph3	A-Ph4	A-Ph5	A-Ph6	A-Ph7	A-Ph8	A-Ph9	A-Ph10	A-Ph11	A-Ph12	A-Ph13	A-Ph14	A-Ph15	A-Ph16	B-AC1	B-AC2	B-AC3	B-AC4	B-AC5	B-AC6	B-AC7	B-AC8	B-AC9	B-AC10	B-AC11	B-AC12	B-AC13	B-AC14	B-AC15	B-AC16	B-DC1	B-DC2	B-DC3	B-DC4	B-DC5	B-DC6	B-DC7	B-DC8	B-DC9	B-DC10	B-DC11	B-DC12	B-DC13	B-DC14	B-DC15	B-DC16	B-Ph1	B-Ph2	B-Ph3	B-Ph4	B-Ph5	B-Ph6	B-Ph7	B-Ph8	B-Ph9	B-Ph10	B-Ph11	B-Ph12	B-Ph13	B-Ph14	B-Ph15	B-Ph16	aux-1	digaux	

27019.818	1	1	0	256	0.27997	0.12517	0.26525	0.3394	0.29422	0.19846	0.20499	0.26301	0.16823	0.24473	0.059909	0.18226	0.096673	0.063147	0.14588	0.14041	-1.6938	-2.6396	-2.3042	-2.5771	-2.6604	-2.1375	-2.8354	-2.675	-2.3146	-2.5917	-2.4208	-2.3667	-2.7313	-2.3	-2.5729	-2.4917	93.248	116.889	-134.252	137.631	-130.624	-40.525	97.465	149.802	96.016	72.051	6.726	122.116	66.101	-95.310	105.143	-122.116	0.0007626	0.00057299	0.00014108	1541	5.1129e-06	4.0415e-06	1617.2	364.6	5.7905e-06	5.4339e-06	431.6	135.83	114.55	41.962	5.2245e-06	47.927	0.00053182	0.00041086	0.00011801	1519.5	4.6779e-06	4.2698e-06	1597	361.26	4.5301e-06	4.047e-06	429.44	136.55	114.49	42.613	3.9016e-06	49.015	155.894	-91.998	-80.027	-157.007	-57.385	11.150	-157.399	-152.016	-53.102	-18.360	-151.744	-147.535	-148.163	-145.915	-40.022	-143.519	-8191	255	
27019.914	1	1	0	0	0.038312	0.28573	0.17326	0.33247	0.11611	0.098017	0.29202	0.28984	0.16216	0.11588	0.13737	0.25734	0.082035	0.18075	0.036029	0.24665	-1.8667	-2.6063	-2.3187	-2.4938	-2.6479	-2.1396	-2.7812	-2.4604	-2.1771	-2.5021	-2.4771	-2.3583	-2.7708	-2.2687	-2.3104	-2.6771	64.605	54.903	4.121	139.741	34.542	136.578	83.116	131.824	105.329	-29.674	152.830	20.938	41.932	141.878	63.527	31.152	0.00066106	0.00051986	0.00010604	1494.5	4.2865e-06	5.6601e-06	1572.8	346.56	5.884e-06	4.0087e-06	414.44	127.95	106.53	37.772	4.1688e-06	44.054	0.00044636	0.00031386	8.8778e-05	1474.9	3.7205e-06	3.3477e-06	1556.2	343.06	3.338e-06	2.7466e-06	412.34	128.64	106.45	38.579	2.7404e-06	45.082	155.383	-69.336	-69.216	-157.206	-52.994	-19.184	-157.359	-151.543	-54.525	-14.550	-151.477	-147.160	-147.152	-144.774	-53.489	-142.519	-8191	255	
27020.035	1	1	0	0	0.13237	0.048046	0.48681	0.45679	0.071767	0.095943	0.14845	0.20492	0.25689	0.23617	0.13682	0.27035	0.085532	0.29655	0.17548	0.27743	-1.9062	-2.425	-2.1917	-2.425	-2.525	-2.1896	-2.6146	-2.6937	-2.3042	-2.5479	-2.4021	-2.2958	-2.5979	-2.3417	-2.3604	-2.65	-27.401	-21.608	-80.576	-159.338	0.848	37.700	-77.741	-159.426	-19.859	-6.510	-165.456	20.405	142.717	-106.732	-137.970	165.839	0.00061071	0.00035743	0.00010629	1442.5	3.9289e-06	3.7206e-06	1514.2	326.34	4.7646e-06	4.8596e-06	389.9	117.17	94.447	31.515	3.7048e-06	38.443	0.00037779	0.00020321	5.7273e-05	1421.7	2.8879e-06	2.2981e-06	1498.4	322.17	2.6283e-06	2.1581e-06	388.67	117.65	94.86	31.914	2.3248e-06	39.266	157.042	-69.511	-95.214	-156.892	-62.192	-6.564	-157.270	-151.126	-65.489	-12.535	-151.046	-146.059	-146.240	-142.204	-38.264	-140.522	-8191	255	
27020.133	1	1	0	0	0.044789	0.12734	0.11115	0.27896	0.14485	0.21754	0.49651	0.13777	0.086654	0.096048	0.16962	0.21385	0.60852	0.080061	0.22173	0.19176	-1.6771	-2.3667	-2.5687	-2.5438	-2.6	-2.1562	-2.45	-2.7833	-2.1083	-2.5021	-2.5771	-2.1542	-2.5583	-2.3417	-2.3729	-2.6104	-65.858	-111.076	118.532	147.385	162.903	188.809	136.065	75.600	-166.509	151.896	51.066	-145.503	129.531	120.739	157.942	144.718	0.00053411	0.00047504	9.1468e-05	1402.9	3.583e-06	3.409e-06	1484.6	312.16	3.7418e-06	2.6837e-06	375.61	108.66	87.274	26.69	3.5079e-06	34.952	0.00032001	0.00019814	5.0635e-05	1381.2	2.6805e-06	2.1151e-06	1467.2	309.15	2.5253e-06	2.1686e-06	376.03	109.53	87.186	26.954	2.4249e-06	35.628	154.492	-89.272	-79.932	-156.960	-42.139	-42.108	-157.369	-150.952	-64.991	-19.959	-150.879	-145.490	-145.814	-139.523	-23.359	-138.685	-8191	255	
27020.227	1	1	0	0	0.03168	0.10678	0.15928	0.42721	0.13575	0.12798	0.4012	0.053394	0.24625	0.32853	0.20964	0.037479	0.32453	0.10229	0.057851	0.064154	-1.6187	-2.3667	-2.475	-2.4562	-2.5187	-2.4729	-2.3521	-2.6312	-2.2354	-2.4854	-2.5229	-2.4	-2.5604	-2.4479	-2.2583	-2.7375	-141.722	-153.722	9.008	177.444	-2.278	153.235	161.848	-138.695	-17.489	54.808	94.222	2.528	167.780	-81.373	170.061	174.585	0.00046576	0.00042562	8.576e-05	1396.7	4.6079e-06	3.5244e-06	1476.1	307.16	2.9764e-06	4.1552e-06	371.35	105.55	84.327	24.63	4.0826e-06	33.35	0.00031856	0.00020333	6.4058e-05	1378	3.1015e-06	2.2082e-06	1461.2	303.95	2.9539e-06	2.5673e-06	370.45	105.88	84.487	24.889	2.922e-06	33.915	158.084	-80.253	-68.417	-156.822	-54.567	0.344	-157.217	-150.873	-48.633	-20.744	-150.686	-145.246	-145.225	-137.756	-6.499	-137.950	-8191	255	
27020.322	1	1	0	0	0.23373	0.13895	0.099841	0.15907	0.16873	0.098022	0.20427	0.11594	0.29788	0.049712	0.16763	0.057517	0.09628	0.10653	0.13024	0.12137	-1.925	-2.4083	-2.5896	-2.6792	-2.4708	-2.5792	-2.5042	-2.6875	-2.3896	-2.5458	-2.7354	-2.2396	-2.5458	-2.7292	-2.2229	-2.7375	5.785	-3.220	44.888	143.008	170.976	-112.181	64.846	56.692	76.338	-26.227	-156.973	51.464	137.974	82.327	10.813	174.151	0.00046018	0.00041425	0.00010331	1408.1	4.0831e-06	4.1636e-06	1476.7	301.92	3.0928e-06	3.794e-06	366.01	102.21	80.906	23.183	3.484e-06	31.935	0.00033081	0.00025151	7.032e-05	1386.4	3.421e-06	2.7089e-06	1461	298.73	3.2576e-06	2.7381e-06	364.32	102.42	81.019	23.522	2.9401e-06	32.499	156.880	-82.375	-59.162	-156.936	-71.645	-7.464	-156.911	-150.824	-44.720	-18.878	-150.546	-144.519	-144.639	-137.186	-26.053	-137.566	-8191	255	
27020.420	1	1	0	0	0.26269	0.12723	0.15155	0.11178	0.052055	0.17675	0.50037	0.065956	0.32325	0.01578	0.11859	0.23186	0.18758	0.36773	0.11901	0.091511	-1.8687	-2.2375	-2.8646	-2.5062	-2.5021	-2.6646	-2.2646	-2.725	-2.4542	-2.3875	-2.7104	-2.4125	-2.5	-2.4917	-2.2646	-2.6583	185.178	-131.330	-22.033	169.438	99.945	-35.468	102.646	-160.118	105.492	-25.125	137.283	153.825	-141.490	-151.468	1.653	78.044	0.00044638	0.00025514	0.00010231	1365.4	2.1461e-06	3.3028e-06	1428.5	288.29	5.0623e-06	3.9749e-06	349.97	97.802	77.369	22.351	2.6376e-06	30.847	0.00032049	0.00024392	6.9666e-05	1345.3	3.1032e-06	2.7228e-06	1414.9	285.35	3.0592e-06	2.897e-06	349.31	97.808	77.237	22.479	2.9214e-06	31.318	156.668	-73.201	-66.816	-156.795	-72.252	0.809	-156.952	-150.113	-50.028	-6.113	-150.402	-144.555	-144.575	-136.747	-18.106	-137.093	-8191	255	
27020.516	1	1	0	0	0.27207	0.17704	0.11787	0.16405	0.15629	0.1741	0.44796	0.3358	0.038773	0.16731	0.09692	0.33844	0.026315	0.18316	0.23595	0.39161	-2.0729	-2.2833	-2.5625	-2.5979	-2.4979	-2.6208	-2.4417	-2.4938	-2.3	-2.1375	-2.7396	-2.4792	-2.4521	-2.5125	-2.1125	-2.5896	107.051	87.648	-122.529	156.589	-144.798	-8.162	95.358	134.342	4.811	-103.783	60.378	-151.159	-85.197	72.764	52.868	100.048	0.00041598	0.00034831	9.6919e-05	1318.5	2.8759e-06	3.6267e-06	1394.3	278.89	3.3264e-06	3.5321e-06	343.26	95.829	75.753	21.875	3.0764e-06	30.722	0.00031311	0.0002672	6.5447e-05	1300.9	3.251e-06	2.6686e-06	1374.8	276.9	2.9429e-06	2.6783e-06	342.7	95.902	75.734	22.126	2.665e-06	31.004	157.763	-87.485	-90.692	-156.806	-53.947	-30.619	-157.136	-150.217	-54.215	-24.327	-150.051	-144.411	-144.029	-136.683	-25.781	-136.745	-8191	255	
27020.611	1	1	0	0	0.066412	0.016724	0.066734	0.2407	0.22556	0.11392	0.23361	0.29172	0.18812	0.16341	0.012068	0.24398	0.18733	0.20845	0.36484	0.3412	-2.075	-2.1771	-2.6479	-2.5812	-2.4125	-2.7146	-2.4229	-2.7625	-2.4333	-2.1667	-2.6	-2.5458	-2.3292	-2.7188	-2.2604	-2.5167	-74.507	36.925	6.471	83.134	43.133	-37.851	136.717	110.791	-93.928	162.874	166.730	154.447	-67.500	179.464	39.039	128.601	0.00042678	0.0002972	0.00010642	1306.6	4.134e-06	4.1445e-06	1384.1	276.62	3.9751e-06	3.7467e-06	341.22	95.036	75.479	21.76	3.1389e-06	30.474	0.00030116	0.00024392	6.7017e-05	1290	3.2694e-06	2.7017e-06	1367.5	275.05	2.8828e-06	3.0632e-06	340.1	95.265	75.284	22.008	3.0668e-06	30.976	159.965	-72.492	-95.065	-156.938	-51.331	-13.112	-156.912	-150.256	-60.309	-8.068	-150.248	-144.714	-143.903	-136.712	-21.737	-137.037	-8191	255	
27020.707	1	1	0	0	0.11177	0.12155	0.070298	0.37993	0.19946	0.13643	0.098579	0.041836	0.11374	0.17378	0.20027	0.13877	0.17462	0.31532	0.15755	0.28331	-2.175	-2.1625	-2.6188	-2.6458	-2.4792	-2.5417	-2.5167	-2.7083	-2.6042	-2.3479	-2.7646	-2.775	-2.2417	-2.7271	-2.2042	-2.5333	-41.716	-144.571	-26.907	148.188	-49.243	-82.060	129.863	177.648	74.339	-37.076	166.013	108.446	-79.900	152.890	-63.667	183.869	0.00041543	0.00022691	8.4202e-05	1311.9	2.7324e-06	4.1451e-06	1387.3	278.58	2.8125e-06	3.8897e-06	342.73	95.676	75.906	22.013	2.6995e-06	30.639	0.0003255	0.00028989	7.8167e-05	1292.6	3.5755e-06	3.3391e-06	1372.2	275.81	3.482e-06	3.5196e-06	341.84	95.834	75.673	22.187	3.2411e-06	31.116	159.373	-72.279	-75.141	-156.880	-77.289	-23.790	-156.836	-150.096	-60.969	-21.561	-149.845	-144.676	-143.987	-136.931	-38.035	-137.048	-8191	255	
27020.828	1	1	0	0	0.28894	0.047329	0.15506	0.48147	0.26403	0.28882	0.3533	0.32505	0.12083	0.14745	0.029722	0.21898	0.034764	0.3094	0.14609	0.031596	-2.1625	-2.3937	-2.5042	-2.6271	-2.2438	-2.6875	-2.7417	-2.4208	-2.7604	-2.2521	-2.6937	-2.4813	-2.3083	-2.775	-2.375	-2.3208	136.219	-131.386	-128.733	177.229	27.900	47.983	149.091	128.718	55.701	-123.123	158.003	151.234	36.333	-45.606	-153.723	-33.832	0.00039666	0.00042013	8.5154e-05	1318.8	2.9365e-06	3.0883e-06	1386.8	279.64	3.7431e-06	2.8678e-06	344.14	95.251	75.671	21.818	3.4944e-06	30.501	0.00034631	0.00030429	8.0489e-05	1295.5	3.7104e-06	3.4111e-06	1371.9	275.83	3.4276e-06	3.406e-06	341.03	95.476	75.493	22.046	3.0511e-06	30.981	156.844	-66.788	-69.415	-156.837	-30.019	10.516	-157.007	-150.139	-62.652	-14.537	-150.270	-144.398	-143.956	-136.799	-36.698	-137.258	-8191	255	
27020.924	1	1	0	0	0.21772	0.39519	0.069686	0.17703	0.14425	0.046207	0.035527	0.24934	0.13979	0.11319	0.10477	0.069636	0.083468	0.23111	0.20198	0.11885	-2.1167	-2.2396	-2.5833	-2.7979	-2.1354	-2.6271	-2.6167	-2.3917	-2.6479	-2.3542	-2.6208	-2.4625	-2.3458	-2.5187	-2.3917	-2.3521	-78.208	37.669	-119.768	108.343	-141.594	6.984	-161.061	-128.752	-142.016	-64.885	-78.705	54.705	-23.344	151.044	-52.007	100.732	0.00037754	0.00032973	0.00010239	1304.8	3.1292e-06	3.2198e-06	1379.8	278.3	4.1777e-06	3.0959e-06	343.47	95.486	74.964	21.837	2.8774e-06	30.472	0.00032411	0.00029362	7.9966e-05	1286.6	3.7344e-06	3.0524e-06	1365.2	275.45	3.3258e-06	3.1426e-06	341	95.603	75.485	22.115	2.9714e-06	31.089	157.364	-65.832	-68.204	-157.018	-85.082	-12.724	-157.042	-150.159	-55.941	-19.642	-150.145	-144.228	-144.319	-136.706	-48.969	-136.791	-8191	255	
27020.996	1	1	0	0	0.13606	0.075001	0.16193	0.12363	0.087859	0.073587	0.11166	0.14687	0.20712	0.16099	0.07595	0.18602	0.26896	0.13368	0.30578	0.22611	-2.0604	-2.4688	-2.3042	-2.9542	-2.3229	-2.5563	-2.5312	-2.5167	-2.6333	-2.35	-2.4333	-2.5687	-2.3354	-2.5021	-2.5333	-2.2125	-125.651	-85.805	40.103	-131.915	164.120	165.996	49.830	-160.870	141.377	-165.667	-50.097	47.662	-54.545	-6.686	84.283	145.533	0.00040323	0.0003233	8.0158e-05	1311	3.2337e-06	1.8167e-06	1378.9	276.98	4.7781e-06	3.4603e-06	341.96	95.037	75.843	22.032	3.4432e-06	30.635	0.00033118	0.00029333	7.4946e-05	1290.4	3.5772e-06	2.6191e-06	1366.6	275.21	3.1031e-06	2.7617e-06	340.64	95.444	75.654	22.167	2.893e-06	31.024	158.913	-74.492	-63.477	-156.990	-55.422	-35.751	-157.091	-150.302	-59.652	-20.576	-150.336	-144.254	-144.089	-136.983	-30.635	-137.168	-8191	255	
27021.115	1	1	0	0	0.21025	0.28835	0.15904	0.2289	0.076965	0.099627	0.35893	0.30577	0.34612	0.20542	0.2287	0.27986	0.14535	0.13596	0.11674	0.1803	-2.2708	-2.5667	-2.5167	-2.9292	-2.2958	-2.4271	-2.8229	-2.6646	-2.8271	-2.5729	-2.3333	-2.7104	-2.3812	-2.4646	-2.6208	-2.3729	141.928	114.143	62.745	141.090	93.712	173.086	112.406	177.903	-10.412	40.139	109.875	-154.178	184.538	-89.824	106.093	118.471	0.00044427	0.00020978	7.7165e-05	1308.1	2.9135e-06	3.3231e-06	1379.4	277.25	4.0436e-06	4.0937e-06	338.76	95.438	75.503	21.842	1.6604e-06	30.488	0.00031687	0.00024643	7.0941e-05	1287.2	3.2136e-06	2.6244e-06	1361.9	274.54	2.9655e-06	2.7138e-06	338.64	95.477	75.412	22.064	2.5775e-06	31.023	156.947	-65.541	-80.248	-156.723	-55.746	-9.123	-157.080	-150.285	-54.679	-20.917	-150.298	-144.385	-143.909	-136.609	-24.565	-136.977	-8191	255	
27021.213	1	1	0	0	0.24494	0.11419	0.19131	0.44554	0.30152	0.1643	0.23184	0.06577	0.12985	0.15591	0.067267	0.11875	0.17066	0.17521	0.17299	0.17781	-2.2729	-2.375	-2.3583	-2.7792	-2.4688	-2.4167	-2.8417	-2.3104	-2.5687	-2.5833	-2.5917	-2.6979	-2.3167	-2.3812	-2.6375	-2.4062	99.863	26.415	-20.766	139.579	-44.131	14.004	135.689	167.672	-60.624	-91.293	-5.531	170.792	79.145	125.015	-136.447	25.357	0.00042839	0.00036225	6.8815e-05	1309.3	2.81e-06	3.8134e-06	1381.8	276.6	4.3855e-06	4.0182e-06	343.26	96.325	75.957	21.971	3.6901e-06	30.822	0.00031375	0.00024229	6.6575e-05	1288.6	3.3e-06	2.6766e-06	1367.6	275.12	2.888e-06	2.7374e-06	341.07	96.063	75.811	22.293	2.6964e-06	31.293	158.384	-77.865	-85.090	-156.834	-55.260	-17.290	-157.023	-150.380	-53.311	-13.612	-150.208	-144.786	-144.225	-137.144	-29.452	-137.176	-8191	255	
27021.309	1	1	0	0	0.035928	0.23612	0.13155	0.12852	0.16217	0.094812	0.16909	0.36341	0.14835	0.17006	0.21089	0.16192	0.14216	0.18723	0.059935	0.28355	-2.3104	-2.6021	-2.1	-3.0125	-2.45	-2.5958	-2.7188	-2.2875	-2.5687	-2.65	-2.3667	-2.7375	-2.425	-2.5396	-2.7438	-2.3771	-36.024	73.785	-152.706	-155.694	-49.028	137.959	92.517	52.327	-94.195	166.004	-11.714	157.855	-161.112	166.808	88.602	-124.405	0.0004095	0.00037985	7.1967e-05	1315.2	3.1348e-06	2.6264e-06	1388.1	277.5	3.081e-06	3.3685e-06	341.84	96.011	76.267	22.086	2.6375e-06	30.747	0.00029145	0.00022421	6.7687e-05	1294.1	2.9019e-06	2.5193e-06	1370.5	275.43	2.7636e-06	2.5726e-06	340.79	96.108	76.079	22.364	2.6029e-06	31.247	156.104	-74.227	-67.655	-156.672	-55.104	-10.408	-156.973	-150.263	-62.347	-29.519	-150.316	-144.408	-144.283	-136.817	-35.740	-136.876	-8191	255	
27021.428	1	1	0	0	0.31697	0.19213	0.11754	0.31784	0.10157	0.15717	0.37063	0.28117	0.003725	0.066748	0.077407	0.1419	0.075663	0.27063	0.15608	0.11443	-2.175	-2.6583	-2.2021	-2.7604	-2.2896	-2.4813	-2.925	-2.3937	-2.4208	-2.6667	-2.2333	-2.6917	-2.5375	-2.2292	-2.6937	-2.45	-140.812	-66.610	-77.583	-137.100	-27.314	175.477	140.125	-104.320	155.802	11.905	145.936	-67.655	143.846	-91.085	147.633	63.249	0.00040914	0.00024359	0.00010174	1299.9	3.4058e-06	3.2739e-06	1369	277.15	3.6246e-06	1.8602e-06	341.26	95.769	75.528	22.1	2.9306e-06	30.704	0.00028498	0.00021266	6.3109e-05	1281.7	2.9342e-06	2.3621e-06	1357.3	273.95	2.6271e-06	2.3729e-06	339.79	95.89	75.391	22.225	2.5226e-06	31.164	159.093	-66.598	-58.337	-156.802	-60.443	-4.918	-156.907	-150.432	-58.832	-22.558	-150.183	-144.337	-143.972	-136.848	-22.651	-137.231	-8191	255	
27021.523	1	1	0	0	0.16277	0.1378	0.33638	0.29146	0.15408	0.18188	0.24228	0.20115	0.052976	0.22723	0.037453	0.088853	0.19355	0.286	0.16571	0.23607	-2.0417	-2.4458	-2.3667	-2.975	-2.4375	-2.3563	-2.8979	-2.4333	-2.5354	-2.6833	-2.3417	-2.6229	-2.65	-2.2208	-2.6625	-2.3792	-156.622	-143.303	-155.655	121.905	-42.586	-153.977	120.503	121.952	56.271	166.883	-55.903	-88.347	70.747	115.826	18.399	-75.028	0.00038685	0.0003333	9.8969e-05	1300.3	3.6399e-06	3.6794e-06	1374.7	276.21	4.8829e-06	3.5183e-06	342.77	96.222	75.99	22.093	3.0925e-06	30.702	0.00029277	0.00022759	6.275e-05	1279.6	2.9649e-06	2.5339e-06	1358.7	274.23	2.7416e-06	2.3624e-06	340.62	96.305	75.911	22.325	2.4189e-06	31.244	161.238	-84.632	-89.227	-156.863	-71.612	-1.765	-156.992	-150.248	-62.867	-12.316	-150.280	-144.437	-144.180	-136.488	-43.361	-137.302	-8191	255	
27021.596	1	1	0	0	0.083212	0.21313	0.19268	0.12846	0.20482	0.14341	0.30498	0.12754	0.051194	0.1463	0.087355	0.22008	0.10471	0.14184	0.077732	0.16279	-1.9917	-2.75	-2.2729	-2.7604	-2.7917	-2.4125	-2.7125	-2.4958	-2.4292	-2.6063	-2.325	-2.4396	-2.7208	-2.2417	-2.8646	-2.5542	56.393	139.215	179.042	42.295	-62.455	-95.669	136.687	120.195	181.963	8.447	31.919	5.854	-84.180	162.842	62.245	68.119	0.00041214	0.00038168	9.8247e-05	1305.6	4.0728e-06	3.1516e-06	1375.9	276.67	4.2463e-06	3.8602e-06	341.19	95.223	75.417	21.813	2.6268e-06	30.29	0.00029761	0.00023605	6.6788e-05	1284.9	3.1679e-06	3.0319e-06	1362.1	274.22	3.2049e-06	2.677e-06	339.71	95.468	75.37	22.086	2.8098e-06	30.935	158.076	-65.176	-91.631	-156.771	-60.634	-17.134	-156.844	-150.325	-43.255	-2.749	-150.012	-144.361	-144.404	-136.583	-47.368	-136.792	-8191	255	
27021.717	1	1	0	0	0.19105	0.028935	0.34793	0.17766	0.20238	0.10344	0.19524	0.068237	0.1746	0.15699	0.15596	0.13844	0.1589	0.17076	0.13328	0.19595	-1.9583	-2.7833	-2.3146	-2.7313	-2.6479	-2.3021	-2.9417	-2.6125	-2.4688	-2.7542	-2.4083	-2.5958	-2.6542	-2.0854	-2.7396	-2.6312	-133.816	-105.514	152.979	91.315	-74.113	-96.913	-164.988	180.259	-166.488	-85.474	144.488	127.860	153.945	141.104	-74.764	112.619	0.00039038	0.00031967	9.1759e-05	1303.9	2.5058e-06	4.1887e-06	1371.3	275.36	4.1843e-06	4.2473e-06	340.52	95.427	75.47	21.932	2.8385e-06	30.533	0.00030681	0.00025571	7.5192e-05	1283.2	3.3563e-06	3.2486e-06	1356.9	273.4	3.2489e-06	2.8254e-06	339.06	95.207	75.419	22.099	2.896e-06	30.961	159.399	-57.577	-78.439	-156.790	-68.810	-16.353	-156.927	-150.418	-61.218	-9.310	-150.260	-144.315	-144.317	-137.005	-22.824	-137.184	-8191	255	
27021.812	1	1	0	0	0.12028	0.11918	0.088168	0.31044	0.069828	0.098531	0.27496	0.32168	0.23772	0.24434	0.44464	0.28693	0.28123	0.22653	0.23973	0.069835	-1.7896	-2.7417	-2.2917	-2.6771	-2.6854	-2.3063	-2.6792	-2.5167	-2.2583	-2.7479	-2.5187	-2.5167	-2.8125	-2.4271	-2.7375	-2.7521	-142.879	-79.914	-107.221	-165.520	-22.504	-7.170	72.397	92.228	84.068	-19.757	173.211	-84.384	136.381	122.929	36.282	63.308	0.00040249	0.00031261	8.8878e-05	1307	3.6429e-06	2.9534e-06	1381.7	277.2	4.0793e-06	4.4687e-06	343.81	95.158	75.659	21.979	2.2564e-06	30.638	0.00032113	0.000249	7.372e-05	1289	3.2805e-06	2.9566e-06	1367.7	275.08	3.0262e-06	2.8169e-06	341.1	95.717	75.504	22.215	2.6861e-06	31.091	157.807	-89.778	-71.462	-156.658	-69.412	-2.975	-156.946	-150.401	-60.138	-13.623	-150.601	-144.301	-144.126	-136.829	-19.199	-137.163	-8191	255	
27021.908	1	1	0	0	0.16152	0.18542	0.18133	0.31443	0.18141	0.43357	0.3041	0.1074	0.25234	0.19369	0.22967	0.22067	0.25831	0.1995	0.10774	0.27997	-1.8479	-2.6042	-2.4583	-2.475	-2.7417	-2.3771	-2.7458	-2.7812	-2.2208	-2.5958	-2.5708	-2.4417	-2.7708	-2.3771	-2.5563	-2.6708	147.548	89.128	-104.305	123.961	-2.806	160.176	132.740	140.044	129.754	119.366	158.255	-124.072	-160.072	-44.033	151.957	-88.348	0.00043745	0.00035128	8.9232e-05	1311.4	3.3514e-06	4.0948e-06	1382.2	278.79	4.2357e-06	3.1884e-06	341.3	95.184	75.816	22.073	2.5154e-06	30.47	0.00032337	0.00024037	6.9894e-05	1291.7	3.0987e-06	2.841e-06	1367.4	275.9	3.1749e-06	2.6829e-06	340.61	95.693	75.637	22.189	2.6958e-06	31.04	158.407	-86.679	-84.797	-156.917	-61.398	-4.798	-157.181	-150.154	-51.563	-21.631	-150.202	-144.570	-144.092	-136.870	-28.674	-137.015	-8191	255	
27022.004	1	1	0	0	0.13886	0.18676	0.31362	0.29101	0.42303	0.20753	0.28399	0.22241	0.13139	0.19131	0.20134	0.15164	0.15068	0.23744	0.14804	0.29206	-1.8542	-2.65	-2.4458	-2.6792	-2.7396	-2.4562	-2.7479	-2.9	-2.2792	-2.725	-2.625	-2.3042	-2.75	-2.4146	-2.4396	-2.725	-62.855	152.019	82.035	172.007	-19.954	-7.032	13.352	121.398	46.959	145.362	-50.065	36.436	-142.060	-153.825	-20.839	105.666	0.00043601	0.00028553	0.00010048	1307.5	3.5171e-06	3.688e-06	1381.2	277.4	3.9623e-06	2.7622e-06	340.98	95.335	75.466	21.872	3.6706e-06	30.406	0.00032177	0.00021954	6.5971e-05	1288.8	2.9777e-06	2.8959e-06	1364.6	275.2	2.9672e-06	2.6008e-06	340.34	95.523	75.336	22.115	2.7338e-06	30.935	156.237	-79.909	-68.896	-156.821	-53.334	-9.602	-157.021	-150.419	-62.673	13.401	-150.214	-144.398	-144.300	-136.861	-34.328	-136.808	-8191	255	
27022.100	1	1	0	0	0.17124	0.22687	0.064028	0.27704	0.02415	0.2371	0.15997	0.15162	0.16534	0.1555	0.14823	0.24832	0.1602	0.093458	0.14364	0.076103	-1.8563	-2.6167	-2.4792	-2.3708	-2.8104	-2.4146	-2.6167	-2.7271	-2.3521	-2.6562	-2.7729	-2.3208	-2.6979	-2.4646	-2.4271	-2.7458	187.492	-55.449	0.734	103.399	180.277	191.327	158.370	171.134	104.086	178.546	65.146	173.857	-146.366	-107.277	-6.867	183.569	0.0004189	0.00037781	6.6655e-05	1294	1.289e-06	3.682e-06	1371.8	276.68	3.7993e-06	2.5824e-06	337.82	94.707	74.72	21.749	2.9732e-06	30.241	0.00030414	0.00023529	6.4712e-05	1279	3.1127e-06	2.5563e-06	1355.1	273.51	2.877e-06	2.4648e-06	337.16	94.843	74.83	21.944	2.7229e-06	30.844	154.063	-93.077	-79.801	-156.814	-53.785	-15.113	-157.165	-150.469	-69.241	-23.587	-150.235	-144.361	-144.244	-136.628	-21.155	-137.146	-8191	255	
27022.219	1	1	0	0	0.27883	0.03298	0.2083	0.2129	0.24511	0.19404	0.52212	0.21246	0.11036	0.17704	0.17128	0.17845	0.31496	0.13592	0.20938	0.49268	-1.8583	-2.5375	-2.65	-2.4875	-2.7333	-2.2917	-2.6792	-2.6771	-2.3979	-2.4354	-2.6479	-2.3187	-2.7146	-2.4542	-2.3333	-2.6604	162.748	42.262	88.371	111.932	134.411	65.896	122.258	162.959	172.307	105.064	99.188	146.897	-129.469	190.175	-10.138	41.681	0.00038966	0.00034508	9.2339e-05	1298.8	4.0026e-06	3.1622e-06	1372.1	278.33	4.0282e-06	4.386e-06	340.52	95.408	75.374	21.851	3.2918e-06	30.544	0.00030817	0.00024025	6.8325e-05	1282.1	3.0491e-06	2.8384e-06	1361.6	275.37	2.8874e-06	2.5877e-06	339.75	95.637	75.438	22.172	2.5824e-06	31.078	160.487	-89.562	-79.125	-156.786	-78.556	-12.084	-156.879	-150.317	-48.527	-23.238	-150.468	-144.280	-144.109	-136.895	-28.845	-137.285	-8191	255	
27022.293	1	1	0	0	0.071231	0.17541	0.13393	0.15602	0.063241	0.12753	0.29443	0.038953	0.11749	0.11287	0.18731	0.39114	0.17789	0.095713	0.078045	0.12453	-2.0271	-2.4292	-2.7021	-2.3875	-2.5771	-2.4792	-2.4167	-2.7271	-2.55	-2.4104	-2.6	-2.2812	-2.6521	-2.6354	-2.2708	-2.6021	138.010	145.276	75.359	185.784	-162.917	-20.716	134.325	-9.411	-135.455	78.482	122.080	-1.006	-141.132	-127.262	46.159	-89.802	0.00039686	0.0002565	0.0001131	1296.8	3.1663e-06	2.7426e-06	1369.3	276.78	3.9453e-06	4.2756e-06	340.21	95.178	74.932	21.86	3.1883e-06	30.554	0.00028817	0.00020409	5.6651e-05	1278.2	2.6632e-06	2.1811e-06	1354.2	273.51	2.6248e-06	2.2882e-06	338.9	95.255	75.067	22.053	2.5323e-06	30.963	160.346	-94.118	-60.801	-156.761	-72.199	-17.643	-156.887	-150.048	-56.996	-26.224	-150.191	-144.444	-143.939	-136.516	-38.857	-136.947	-8191	255	
27022.389	1	1	0	0	0.20924	0.16466	0.12281	0.38397	0.36489	0.055261	0.34454	0.056967	0.18445	0.13812	0.047105	0.086126	0.21552	0.29874	0.16655	0.014808	-2.0583	-2.2771	-2.6562	-2.3979	-2.5667	-2.5396	-2.4833	-2.7125	-2.2625	-2.425	-2.7667	-2.3542	-2.5604	-2.7646	-2.2375	-2.5396	2.480	81.008	188.348	152.301	-104.511	-66.415	112.794	77.065	-20.716	29.395	-33.358	-44.199	-127.576	-149.057	44.926	190.502	0.00039817	0.00037474	0.00011332	1297.8	2.4587e-06	2.9143e-06	1370.8	275.5	3.6872e-06	2.3125e-06	340.13	94.388	74.664	21.793	3.0824e-06	30.387	0.00029233	0.00022707	6.3077e-05	1275.9	2.7926e-06	2.448e-06	1352.5	272.43	2.8024e-06	2.5246e-06	337.79	94.772	74.818	21.983	2.7181e-06	30.826	158.362	-64.153	-98.853	-156.890	-72.951	-26.486	-157.078	-150.083	-55.607	-51.665	-150.332	-144.492	-144.010	-136.856	-25.730	-136.841	-8191	255	
27022.508	1	1	0	0	0.24947	0.18503	0.058667	0.17104	0.22596	0.13198	0.077376	0.10817	0.01285	0.13813	0.098327	0.10458	0.27523	0.094271	0.26766	0.23074	-2.0875	-2.3125	-2.5896	-2.5479	-2.5646	-2.5771	-2.4458	-2.6375	-2.55	-2.4062	-2.8979	-2.3438	-2.4167	-2.6146	-2.2896	-2.775	140.311	-158.648	-30.399	155.061	50.313	-128.076	78.558	-32.925	20.798	163.281	-98.070	-140.829	-119.817	126.941	-113.996	-102.758	0.00041353	0.00034597	9.6822e-05	1297.9	3.2486e-06	2.8633e-06	1367.8	275.11	4.2584e-06	4.0422e-06	338.35	94.692	75.079	21.598	2.4063e-06	30.008	0.00029873	0.00025046	6.1949e-05	1276.3	2.9627e-06	2.6178e-06	1352.1	272.28	2.8359e-06	2.675e-06	336.77	94.78	74.76	21.848	2.7718e-06	30.596	157.642	-78.164	-75.822	-156.772	-52.658	-12.213	-157.036	-150.001	-60.321	-28.852	-150.357	-144.435	-143.891	-136.441	-37.595	-137.093	-8191	255	
27022.604	1	1	0	0	0.23455	0.12261	0.23243	0.1519	0.11436	0.18737	0.11572	0.049346	0.10454	0.16548	0.18765	0.27735	0.13896	0.31056	0.15071	0.056488	-2.0563	-2.2625	-2.8458	-2.5354	-2.5417	-2.7542	-2.1958	-2.7104	-2.4813	-2.3521	-2.8625	-2.7021	-2.2875	-2.8271	-2.4625	-2.7042	161.040	-88.493	-144.161	179.058	-19.222	128.973	97.702	149.658	25.990	68.740	120.327	116.833	-66.948	137.687	62.989	-158.940	0.00041018	0.0003001	8.182e-05	1292.2	4.1293e-06	3.909e-06	1367.3	274.99	3.5819e-06	3.5469e-06	337.22	94.286	74.681	21.714	2.9316e-06	30.06	0.00030908	0.00025938	6.6723e-05	1274.4	3.1417e-06	2.668e-06	1350.8	272.55	2.9047e-06	3.0165e-06	337.21	94.406	74.61	21.856	2.8399e-06	30.564	159.342	-57.455	-89.625	-156.718	-56.205	-10.625	-156.939	-150.110	-55.243	-2.185	-150.041	-144.412	-144.219	-136.724	-24.276	-137.276	-8191	255	
27022.699	1	1	0	0	0.13851	0.1943	0.11872	0.28828	0.26345	0.19874	0.27362	0.20144	0.034644	0.048487	0.12453	0.11935	0.13309	0.19165	0.05397	0.15335	-2.1458	-2.1688	-2.6417	-2.5333	-2.3896	-2.7167	-2.6542	-2.475	-2.6396	-2.2792	-2.725	-2.5104	-2.2375	-2.6854	-2.2917	-2.4188	105.168	-102.607	117.479	133.578	-7.210	115.479	103.522	60.461	-159.167	-146.096	171.950	-128.800	183.747	66.910	-133.941	-20.587	0.00041178	0.00043882	9.773e-05	1291.9	2.4304e-06	4.1167e-06	1366.8	275.49	3.2624e-06	3.1533e-06	338.05	93.993	75.01	21.754	3.4756e-06	30.013	0.00031477	0.00026241	6.5235e-05	1276.2	3.1818e-06	2.3952e-06	1352.4	272.08	2.8504e-06	2.8261e-06	336.15	94.47	74.72	21.85	2.583e-06	30.543	159.097	-71.344	-93.851	-156.753	-67.994	-13.477	-157.016	-149.968	-61.236	-1.445	-150.122	-144.339	-144.157	-136.344	-24.038	-137.187	-8191	255	
27022.797	1	1	0	0	0.12019	0.2899	0.095706	0.16007	0.19104	0.095241	0.33023	0.163	0.092797	0.22407	0.19943	0.13805	0.22237	0.081649	0.17548	0.30969	-2.3104	-2.3937	-2.8292	-2.8187	-2.4667	-2.7792	-2.6667	-2.5708	-2.7938	-2.2646	-2.7708	-2.7104	-2.4167	-2.8354	-2.2938	-2.5458	-43.383	-7.860	63.533	60.454	147.037	153.809	111.706	188.579	-128.944	120.438	-150.479	99.800	-75.909	133.539	35.210	-99.400	0.00041665	0.00034734	7.8651e-05	1302.1	2.9569e-06	3.1036e-06	1369.8	274.81	3.0361e-06	4.2691e-06	340.64	94.391	74.865	21.737	2.7791e-06	30.253	0.00030742	0.00022304	6.1491e-05	1282.7	3.2705e-06	2.4916e-06	1356.4	272.89	2.8689e-06	2.7374e-06	338.32	94.625	74.757	21.89	2.7308e-06	30.719	157.457	-70.495	-71.246	-156.931	-60.543	-15.751	-157.030	-150.139	-25.225	-29.229	-150.066	-144.348	-143.820	-136.635	-40.054	-137.146	-8191	255	
27022.893	1	1	0	0	0.18665	0.15155	0.3372	0.42558	0.29233	0.17505	0.26165	0.15576	0.061319	0.14374	0.28743	0.030938	0.17305	0.17197	0.060074	0.077466	-2.325	-2.2417	-2.5312	-2.5833	-2.2354	-2.7313	-2.6646	-2.3187	-2.7062	-2.4396	-2.7083	-2.8021	-2.5146	-2.7125	-2.6229	-2.4083	78.597	-141.641	-81.455	175.334	-128.583	-73.736	124.209	172.578	186.344	20.464	157.794	64.494	90.561	123.285	59.889	94.095	0.00040937	0.00033025	0.00012597	1303.7	2.8925e-06	4.223e-06	1375.1	276.01	4.9326e-06	3.0768e-06	339.81	94.814	75.032	21.709	2.4208e-06	30.342	0.00031237	0.00023319	7.2429e-05	1283.8	3.4244e-06	2.6521e-06	1360.9	273.57	3.08e-06	2.5292e-06	338.82	94.843	74.893	21.917	2.7102e-06	30.727	156.671	-71.532	-81.894	-156.906	-62.507	-14.889	-157.124	-150.201	-46.293	-1.464	-150.177	-144.424	-143.934	-136.838	-38.466	-137.136	-8191	255	
27022.988	1	1	0	0	0.058834	0.44203	0.23361	0.27872	0.057011	0.13788	0.21824	0.13694	0.04344	0.11295	0.22866	0.1459	0.24605	0.25521	0.31281	0.070765	-2.2938	-2.275	-2.3646	-2.7729	-2.2938	-2.5875	-2.6188	-2.3042	-2.6917	-2.4854	-2.5167	-2.675	-2.3333	-2.5792	-2.5708	-2.2792	-116.342	-102.975	-27.898	156.877	178.669	-21.100	134.371	114.431	-60.702	-15.728	160.866	68.266	44.109	84.919	90.162	148.106	0.00037849	0.00032697	8.5112e-05	1303.7	3.1799e-06	3.0111e-06	1377.6	276.51	3.6567e-06	3.6575e-06	340.16	94.703	75.029	21.591	3.2535e-06	30.346	0.00029801	0.00023057	6.7409e-05	1287.2	3.0547e-06	2.4434e-06	1362	273.53	2.7422e-06	2.5824e-06	338.84	94.645	74.936	21.826	2.6186e-06	30.686	160.957	-56.008	-77.535	-157.032	-68.382	-15.621	-156.929	-150.333	-66.601	-5.058	-150.019	-144.200	-144.301	-136.519	-34.577	-136.960	-8191	255	
27023.109	1	1	0	0	0.27401	0.12908	0.25537	0.46056	0.31644	0.084611	0.43144	0.41027	0.11785	0.090141	0.30979	0.17153	0.075211	0.22261	0.08213	0.062932	-2.2812	-2.2333	-2.3187	-2.6708	-2.2167	-2.4958	-3.0125	-2.2896	-2.6833	-2.3917	-2.4479	-2.7979	-2.3896	-2.6625	-2.6646	-2.2104	-29.448	141.213	-73.530	160.484	116.128	124.836	157.338	142.113	-64.020	-150.223	138.656	158.006	146.289	122.897	90.201	42.159	0.00040432	0.00043627	8.0967e-05	1290.5	3.1401e-06	3.6006e-06	1366.7	272.42	5.1666e-06	2.7798e-06	337.02	93.358	74.175	21.542	2.893e-06	30.032	0.00028861	0.00023523	6.5922e-05	1275.6	2.8918e-06	2.4361e-06	1348.2	270.41	2.6716e-06	2.4642e-06	334.82	93.701	73.86	21.657	2.4201e-06	30.374	156.192	-87.156	-83.951	-156.635	-51.012	-4.389	-157.133	-150.040	-47.139	-26.526	-149.979	-144.258	-143.778	-136.562	-26.465	-136.852	-8191	255	
27023.205	1	1	0	0	0.17663	0.19227	0.047747	0.40775	0.11616	0.25967	0.2905	0.37783	0.11629	0.15932	0.043746	0.078305	0.11872	0.17366	0.1374	0.05626	-2.1437	-2.2167	-2.2333	-2.8979	-2.3104	-2.4958	-2.8604	-2.325	-2.5208	-2.3896	-2.3604	-2.7229	-2.3375	-2.5854	-2.5646	-2.4021	-124.906	21.867	-158.075	184.483	90.776	69.548	146.912	73.095	42.661	158.698	173.336	-109.643	32.990	-86.974	71.369	-94.240	0.00039993	0.00024671	9.3898e-05	1279.3	3.5198e-06	3.8002e-06	1351.9	271.12	4.4112e-06	3.1313e-06	332.63	93.207	73.477	21.419	2.0613e-06	30.013	0.00029213	0.00022287	6.2112e-05	1260	2.874e-06	2.3417e-06	1335.4	268.02	2.5832e-06	2.3309e-06	331.81	93.278	73.292	21.515	2.3966e-06	30.354	157.645	-83.082	-77.246	-156.811	-69.212	-24.583	-156.827	-150.264	-53.873	-27.559	-149.968	-144.173	-143.816	-136.263	-49.881	-136.840	-8191	255	
27023.301	1	1	0	0	0.052932	0.21056	0.13301	0.13671	0.093627	0.12544	0.38142	0.18733	0.095851	0.2844	0.25751	0.073167	0.22989	0.13947	0.093676	0.14252	-1.9667	-2.5812	-2.4813	-2.7438	-2.2646	-2.6271	-2.9896	-2.475	-2.5896	-2.4875	-2.4521	-2.7708	-2.3854	-2.4021	-2.6979	-2.2708	-78.670	-152.638	-87.495	166.303	160.500	102.979	130.072	76.782	135.913	168.888	143.917	155.155	177.782	49.144	180.812	77.756	0.00039547	0.00034015	8.9951e-05	1275.6	3.8154e-06	3.6145e-06	1343.3	271.42	3.1326e-06	2.5832e-06	333.26	92.596	74.098	21.301	2.4512e-06	29.987	0.00027192	0.00022269	6.4074e-05	1257.8	2.8299e-06	2.4579e-06	1332.1	267.55	2.6751e-06	2.3985e-06	331.9	93.177	73.669	21.562	2.4123e-06	30.371	160.867	-73.757	-84.397	-156.575	-67.817	-36.644	-156.971	-150.348	-52.719	-19.081	-149.978	-144.239	-144.335	-136.499	-35.454	-136.928	-8191	255	
27023.396	1	1	0	0	0.24543	0.22918	0.24063	0.11114	0.085089	0.16583	0.10652	0.37279	0.039734	0.10585	0.19025	0.12355	0.17596	0.21333	0.12425	0.13473	-2.0417	-2.525	-2.2	-2.6813	-2.4562	-2.3937	-2.95	-2.4833	-2.5583	-2.6458	-2.4042	-2.8042	-2.6562	-2.4271	-2.9083	-2.6167	65.753	-89.569	89.623	-148.312	-160.781	-71.999	89.542	146.524	-21.213	-62.062	186.154	-133.159	174.331	-162.529	175.375	-31.415	0.00041224	0.00040018	8.7097e-05	1278.3	3.1503e-06	3.5072e-06	1351	271.29	4.0091e-06	4.3035e-06	335.1	93.781	73.395	21.419	3.261e-06	29.825	0.00029568	0.00022619	6.203e-05	1260.1	2.9855e-06	2.4625e-06	1336.6	268.68	2.7584e-06	2.6297e-06	333.06	93.703	73.65	21.684	2.4859e-06	30.408	158.663	-85.371	-94.043	-156.841	-66.671	-6.163	-156.859	-150.202	-53.461	-16.038	-150.106	-144.451	-144.157	-136.877	-20.305	-136.469	-8191	255	
27023.516	1	1	0	0	0.12495	0.24957	0.072128	0.17216	0.2927	0.09863	0.39379	0.020727	0.039113	0.14514	0.23015	0.062534	0.19839	0.14495	0.18495	0.22449	-1.9667	-2.5771	-2.1604	-2.9375	-2.5146	-2.3333	-2.9083	-2.5146	-2.475	-2.7021	-2.2958	-2.6021	-2.7062	-2.2	-2.8583	-2.5938	168.136	143.615	181.180	173.997	152.050	52.976	127.597	-68.168	-2.744	-47.147	-128.999	-20.300	-166.189	163.503	-11.706	54.191	0.0003958	0.00039844	7.2529e-05	1283.7	1.685e-06	3.204e-06	1357.9	270.37	4.0446e-06	3.6864e-06	335.38	93.303	73.69	21.751	1.8557e-06	30.046	0.00028729	0.00022258	6.3404e-05	1265.9	2.9905e-06	2.5583e-06	1340.8	268.74	2.9244e-06	2.5377e-06	333.49	93.702	73.931	21.783	2.4497e-06	30.511	160.373	-61.042	-66.088	-156.816	-54.227	-10.679	-156.969	-150.270	-66.403	-17.242	-150.327	-144.061	-144.139	-136.903	-39.207	-136.821	-8191	255	
27023.588	1	1	0	0	0.37963	0.037076	0.1757	0.27215	0.22602	0.13083	0.38293	0.15614	0.20932	0.068601	0.10841	0.21001	0.24167	0.068207	0.26291	0.28233	-2.0125	-2.7938	-2.2458	-2.7646	-2.4208	-2.2354	-2.7583	-2.5958	-2.5375	-2.7146	-2.4896	-2.6958	-2.6271	-2.3187	-2.7979	-2.4562	52.871	-81.622	115.319	144.340	138.973	85.335	129.768	85.924	81.569	92.217	172.100	-159.664	-118.069	-55.166	64.868	174.217	0.00040849	0.00037398	8.8102e-05	1288.1	3.7598e-06	2.6354e-06	1359.6	272.92	3.0309e-06	3.0271e-06	334.64	93.372	73.786	21.625	2.2329e-06	30.022	0.00030255	0.00023109	6.2684e-05	1268.9	3.2158e-06	2.6614e-06	1344.5	269.74	2.9499e-06	2.5128e-06	334.57	93.91	74.079	21.812	2.6107e-06	30.533	160.914	-71.378	-96.043	-156.974	-68.016	-24.779	-156.957	-150.249	-49.131	-30.648	-150.362	-144.325	-143.693	-136.768	-39.971	-137.194	-8191	255	
27023.684	1	1	0	0	0.15737	0.12861	0.077742	0.042351	0.26441	0.29426	0.13685	0.15735	0.25847	0.18881	0.11176	0.026829	0.12576	0.08937	0.17385	0.14733	-1.9458	-2.7271	-2.2771	-2.8667	-2.4667	-2.2396	-2.6437	-2.5521	-2.2896	-2.7708	-2.1854	-2.6437	-2.6479	-2.375	-2.5062	-2.6375	16.886	37.002	-120.100	-47.903	1.660	79.266	157.094	10.920	18.425	21.256	109.361	-125.067	-154.321	115.038	-8.462	76.265	0.00040396	0.00029141	0.00010413	1290.2	1.8802e-06	3.0598e-06	1357.9	273.48	4.4331e-06	3.3218e-06	336.36	94.057	74.602	21.578	2.5025e-06	30.06	0.00030668	0.00024812	6.7769e-05	1270.4	3.0675e-06	2.6158e-06	1344.7	270.61	3.1188e-06	2.6238e-06	335.22	94.129	74.318	21.869	2.7464e-06	30.558	156.763	-68.209	-65.778	-156.929	-59.043	-9.101	-156.947	-150.362	-58.802	10.984	-150.413	-144.309	-144.252	-136.501	-32.497	-137.048	-8191	255	
27023.805	1	1	0	0	0.15711	0.10576	0.041343	0.31416	0.061669	0.23425	0.45649	0.088639	0.28309	0.22016	0.27479	0.27457	0.177	0.21358	0.031798	0.21848	-2.0812	-2.6854	-2.2604	-2.5521	-2.7	-2.4729	-2.6771	-2.5667	-2.1479	-2.7313	-2.4708	-2.5938	-2.7792	-2.3708	-2.5687	-2.475	-1.848	-85.910	43.846	188.302	-58.891	15.808	116.971	188.669	74.801	-3.652	96.982	164.349	190.009	-150.317	-57.456	-78.425	0.00039746	0.00034152	7.4693e-05	1292.9	2.5107e-06	2.7055e-06	1364.9	273.48	3.9527e-06	4.4059e-06	338.12	94.043	74.584	21.711	2.6063e-06	30.012	0.00031575	0.00023448	7.1562e-05	1274.6	3.0563e-06	2.7809e-06	1349.8	270.71	3.0858e-06	2.3374e-06	336.14	94.369	74.43	21.838	2.5407e-06	30.54	157.246	-76.512	-58.013	-156.873	-73.976	-50.125	-157.252	-150.195	-44.671	-11.709	-150.096	-144.432	-144.295	-136.603	-16.866	-136.935	-8191	255	
27023.900	1	1	0	0	0.27027	0.15193	0.16555	0.34837	0.060523	0.28335	0.3086	0.1887	0.079114	0.067613	0.36934	0.22402	0.075003	0.147	0.17874	0.23386	-1.8208	-2.6417	-2.3875	-2.6312	-2.7792	-2.2896	-2.7479	-2.5083	-2.2479	-2.7833	-2.525	-2.3771	-2.6188	-2.4083	-2.2958	-2.6333	-137.497	146.105	5.401	148.573	149.273	-74.900	63.618	107.334	-165.437	44.016	146.781	157.072	-4.460	-54.183	-136.098	-98.667	0.00037925	0.00038588	0.00012258	1296.3	3.0497e-06	3.6793e-06	1364.1	272.74	3.7847e-06	3.8787e-06	336.11	93.689	74.121	21.667	3.44e-06	29.879	0.00031047	0.00024474	7.1121e-05	1274.8	2.99e-06	2.6197e-06	1349.4	270.88	3.0303e-06	2.5286e-06	334.84	94.172	74.295	21.844	2.6988e-06	30.494	156.637	-77.300	-70.985	-156.720	-66.937	-5.126	-156.968	-150.273	-44.809	-5.137	-149.905	-144.153	-144.147	-136.775	-35.902	-136.664	-8191	255	
27023.996	1	1	0	0	0.18721	0.072262	0.3091	0.30049	0.23539	0.3592	0.28583	0.12012	0.41444	0.41656	0.12418	0.27805	0.18704	0.19503	0.17863	0.1677	-1.7521	-2.5958	-2.4146	-2.4146	-2.7417	-2.3896	-2.5	-2.5896	-2.2375	-2.6937	-2.5792	-2.2875	-2.65	-2.2375	-2.4896	-2.8	-103.567	70.595	91.796	160.887	-164.455	65.627	119.658	-51.266	61.728	-167.968	123.673	101.790	28.928	3.038	190.659	-136.746	0.00040148	0.00025171	6.8703e-05	1292.3	3.0822e-06	2.9035e-06	1359.4	273.86	4.4556e-06	3.926e-06	336.55	93.638	74.003	21.588	2.9409e-06	29.989	0.0003014	0.00023214	7.0843e-05	1272.5	3.0781e-06	2.7406e-06	1347.3	271.08	3.0008e-06	2.457e-06	334.91	93.806	74.092	21.75	2.7621e-06	30.47	158.862	-64.788	-89.335	-156.796	-60.058	-21.372	-156.886	-150.220	-50.541	-12.580	-149.924	-144.208	-144.421	-136.582	-30.966	-136.998	-8191	255	
27024.094	1	1	0	0	0.20303	0.027796	0.26018	0.28832	0.10983	0.025325	0.23405	0.020568	0.061072	0.21089	0.20397	0.16978	0.20424	0.049685	0.107	0.18762	-1.7812	-2.4875	-2.4437	-2.5271	-2.5875	-2.5938	-2.5271	-2.7354	-2.3583	-2.6542	-2.6583	-2.425	-2.8063	-2.3458	-2.2917	-2.7271	-6.810	-76.662	85.753	156.152	-52.367	67.664	143.231	-115.268	152.393	-18.000	-144.747	-89.869	-76.999	35.625	-108.084	-145.696	0.00040672	0.00033666	9.6755e-05	1291	3.7312e-06	3.3074e-06	1358.2	272.44	3.4447e-06	1.2726e-06	335.1	93.932	74.004	21.405	2.7015e-06	29.837	0.00030939	0.00022625	7.2232e-05	1271.8	2.9387e-06	2.808e-06	1345	269.89	2.792e-06	2.5726e-06	333.85	93.566	73.958	21.641	2.7573e-06	30.294	156.092	-74.257	-66.501	-156.815	-77.493	-2.920	-157.100	-150.146	-55.319	-0.471	-150.051	-144.070	-144.102	-136.241	5.074	-137.106	-8191	255	
27024.189	1	1	0	0	0.29446	0.10979	0.16205	0.433	0.16194	0.048338	0.39313	0.12531	0.023893	0.087369	0.073951	0.28731	0.42659	0.15249	0.35549	0.14136	-1.7812	-2.5292	-2.5708	-2.5229	-2.4729	-2.5938	-2.4896	-2.6729	-2.1542	-2.5167	-2.6771	-2.3521	-2.6604	-2.4938	-2.2687	-2.6063	76.158	168.227	113.482	159.887	-60.626	97.782	162.082	-111.490	-51.384	-145.697	133.839	190.822	121.754	67.897	-154.822	-113.011	0.00041695	0.00027269	8.9399e-05	1289	2.6151e-06	4.1983e-06	1355.6	271.62	4.3278e-06	1.9225e-06	332.3	92.586	73.234	21.261	2.8037e-06	29.733	0.00030157	0.00023681	6.0722e-05	1267.2	2.8389e-06	2.4553e-06	1341.4	268.55	2.7006e-06	2.5469e-06	331.13	92.865	73.061	21.463	2.5226e-06	30.045	156.483	-61.041	-67.999	-156.782	-62.488	-19.495	-156.796	-149.835	-64.646	-10.165	-149.942	-144.636	-143.637	-136.260	-40.245	-137.320	-8191	255	
27024.285	1	1	0	0	0.042325	0.14995	0.18267	0.27559	0.090739	0.069527	0.12335	0.21147	0.09786	0.10049	0.067161	0.15846	0.2467	0.090671	0.023279	0.10456	-1.8563	-2.3583	-2.65	-2.5458	-2.5042	-2.4646	-2.4062	-2.8271	-2.4062	-2.2062	-2.6354	-2.3542	-2.4688	-2.5521	-2.4	-2.7542	-146.689	67.615	189.954	-164.772	-35.233	-152.855	81.714	103.248	134.369	21.924	124.748	163.529	178.252	88.490	125.778	-93.064	0.00041928	0.00039805	0.00011276	1275.2	2.9111e-06	2.8443e-06	1346	268.58	3.5322e-06	2.7096e-06	329.98	92.222	72.24	20.943	1.5032e-06	29.455	0.00029805	0.00024317	6.2864e-05	1257.3	2.7179e-06	2.6534e-06	1333	265.6	2.7301e-06	2.3105e-06	328.69	92.284	72.494	21.196	2.3712e-06	29.846	157.468	-75.502	-69.340	-156.835	-63.564	-10.863	-156.937	-149.870	-61.811	-35.890	-149.936	-143.990	-143.752	-136.421	-19.853	-137.156	-8191	255	
27024.383	1	1	0	0	0.11337	0.089221	0.12569	0.14872	0.10082	0.11979	0.28175	0.23557	0.18086	0.16381	0.13168	0.15959	0.099843	0.18649	0.022435	0.21148	-1.9125	-2.2104	-2.4979	-2.4771	-2.5667	-2.4313	-2.2875	-2.5542	-2.3167	-2.3854	-2.8417	-2.3042	-2.3958	-2.6396	-2.0854	-2.5687	-100.901	13.098	-17.431	132.757	61.368	-52.821	69.141	-28.574	-102.814	-124.836	4.397	190.006	147.995	185.195	-23.889	155.859	0.00040923	0.00036208	9.3638e-05	1263.8	2.6323e-06	1.9757e-06	1338.5	265.04	3.6044e-06	3.5753e-06	329.24	91.47	72.172	20.924	2.5631e-06	29.292	0.00028962	0.00021604	5.5033e-05	1249.6	2.6989e-06	2.2234e-06	1324.2	262.89	2.5704e-06	2.321e-06	326.44	91.691	72.166	21.138	2.3423e-06	29.712	156.799	-88.064	-67.963	-156.760	-72.825	-45.941	-156.990	-150.108	-59.585	-26.981	-150.011	-144.635	-143.789	-136.043	-50.217	-136.754	-8191	255	
27024.479	1	1	0	0	0.14199	0.09455	0.15524	0.19533	0.093156	0.081479	0.25578	0.24914	0.18871	0.1968	0.26385	0.39973	0.038294	0.18863	0.24057	0.19498	-2.0687	-2.3333	-2.7354	-2.5292	-2.4604	-2.5083	-2.4437	-2.6646	-2.5104	-2.4667	-2.7313	-2.2896	-2.4854	-2.575	-2.3563	-2.7188	146.898	-121.657	137.025	189.925	-38.220	-30.841	169.244	180.877	-140.110	-133.050	155.414	176.917	-52.823	-42.204	-2.687	186.926	0.00040296	0.00038254	8.258e-05	1263.5	2.2157e-06	4.0643e-06	1338.4	263.68	2.9649e-06	2.786e-06	325.69	90.598	71.598	20.846	2.6908e-06	29.22	0.00027784	0.00020397	5.1975e-05	1244.3	2.6777e-06	2.2888e-06	1318.1	260.79	2.5565e-06	2.4005e-06	323.87	91.076	71.828	21.071	2.1734e-06	29.658	155.466	-79.950	-88.596	-156.718	-74.646	-35.093	-156.886	-150.369	-55.253	-39.037	-150.097	-143.896	-143.839	-136.308	-31.066	-136.888	-8191	255	
27024.598	1	1	0	0	0.055545	0.011166	0.07024	0.24505	0.071815	0.37641	0.29977	0.25871	0.19228	0.15872	0.2143	0.039167	0.14162	0.20025	0.21777	0.19657	-1.925	-2.3208	-2.8583	-2.6167	-2.1583	-2.7812	-2.6646	-2.6021	-2.475	-2.1083	-2.8396	-2.4396	-2.3979	-2.8	-2.3063	-2.5729	-156.860	126.481	-10.593	140.118	-118.316	-129.045	115.158	-150.803	34.416	-67.943	191.522	32.680	68.268	-162.206	132.933	128.180	0.00040635	0.00036005	0.00010777	1256.1	3.1189e-06	2.1707e-06	1325.9	262.97	3.4081e-06	3.3546e-06	322.47	90.288	71.624	20.801	2.4077e-06	29.11	0.00028035	0.00022503	5.0782e-05	1239.1	2.8852e-06	2.0986e-06	1311.6	259.62	2.4964e-06	2.1759e-06	322.21	90.772	71.544	20.935	2.282e-06	29.469	158.521	-94.817	-60.897	-156.797	-67.631	-2.478	-156.730	-150.096	-55.060	-21.928	-149.950	-144.051	-143.612	-136.725	-36.197	-136.709	-8191	255	
27024.693	1	1	0	0	0.14051	0.17753	0.025469	0.31654	0.06557	0.12684	0.26864	0.20459	0.24324	0.12015	0.15626	0.31735	0.13888	0.27064	0.3406	0.19177	-2.0938	-2.2917	-2.5396	-2.6979	-2.4188	-2.875	-2.625	-2.3646	-2.4875	-2.3167	-2.6854	-2.6021	-2.375	-2.8	-2.1896	-2.4062	-52.093	96.717	183.273	132.609	57.646	-100.797	60.183	78.105	111.536	-83.792	191.041	46.487	127.396	-132.314	70.300	-34.896	0.00038266	0.00031378	0.00011219	1245.2	2.8395e-06	4.0281e-06	1316.6	260.13	3.5833e-06	2.3971e-06	321.88	90.134	71.317	20.645	3.0729e-06	28.96	0.00027568	0.00020105	5.0896e-05	1231.6	2.7285e-06	2.018e-06	1305.5	257.75	2.3888e-06	2.1949e-06	321.01	90.401	71.15	20.854	2.2216e-06	29.433	158.278	-89.719	-80.004	-156.864	-60.184	-13.623	-156.862	-149.996	-52.302	-22.062	-149.994	-143.983	-143.683	-136.003	-22.855	-136.604	-8191	255	
27024.789	1	1	0	0	0.27657	0.049392	0.074306	0.25762	0.10276	0.16726	0.23805	0.40458	0.18008	0.28657	0.12635	0.19499	0.38901	0.058243	0.2634	0.020857	-2.0208	-2.0542	-2.4229	-2.7	-2.3271	-2.5583	-2.5771	-2.5646	-2.7625	-2.3146	-2.7542	-2.7583	-2.3792	-2.6104	-2.5729	-2.5687	-53.488	49.809	-161.677	-140.162	78.426	-122.670	86.323	139.427	127.290	-10.466	72.705	-71.259	160.637	-122.737	-34.979	-15.316	0.00039701	0.00035061	9.0804e-05	1245.3	2.774e-06	3.6464e-06	1316.1	259.96	3.8647e-06	2.316e-06	322.5	90.442	71.097	20.604	2.3776e-06	28.864	0.00027141	0.00020292	5.4967e-05	1228.3	2.7937e-06	2.0279e-06	1303.8	257.41	2.3743e-06	2.1765e-06	321.63	90.437	70.986	20.812	2.1227e-06	29.373	158.196	-81.842	-70.054	-156.644	-50.767	-15.772	-156.838	-149.669	-56.802	16.687	-150.009	-144.144	-143.906	-136.288	-27.115	-136.533	-8191	255	
27024.885	1	1	0	0	0.15976	0.036397	0.049875	0.31806	0.093578	0.56318	0.15526	0.12697	0.21875	0.19012	0.11402	0.28901	0.22779	0.17949	0.038826	0.2292	-2.0979	-2.2417	-2.6167	-2.95	-2.3	-2.6396	-2.6896	-2.4792	-2.6667	-2.4083	-2.4813	-2.5438	-2.2687	-2.5708	-2.5187	-2.3896	-16.780	123.659	138.339	133.529	174.616	-110.181	185.551	-117.958	81.878	15.872	-47.843	-31.194	175.818	-124.840	-146.464	-68.284	0.00041248	0.00034552	0.00011882	1248.8	3.4673e-06	3.5875e-06	1317.3	260.18	3.4747e-06	2.4303e-06	322.62	90.475	71.265	20.686	2.0785e-06	28.968	0.00027923	0.00021091	5.6668e-05	1229.6	2.8182e-06	2.129e-06	1304	257.83	2.5166e-06	2.411e-06	321.53	90.683	71.154	20.884	2.2512e-06	29.382	158.317	-77.049	-82.545	-156.555	-51.866	-23.745	-156.977	-150.055	-58.732	20.326	-150.273	-144.125	-143.314	-136.285	-37.062	-136.886	-8191	255	
27024.980	1	1	0	0	0.14596	0.19557	0.19878	0.29075	0.1843	0.23989	0.17353	0.1172	0.015654	0.17004	0.12025	0.071091	0.043086	0.18395	0.19811	0.10198	-2.1688	-2.3646	-2.525	-2.7042	-2.3625	-2.6021	-2.7833	-2.4625	-2.6625	-2.3917	-2.6354	-2.8729	-2.4625	-2.6396	-2.5958	-2.1	-49.363	47.368	91.635	158.325	-5.410	43.835	131.985	-73.029	-127.585	129.150	78.621	38.253	148.019	-164.143	175.985	103.675	0.00041425	0.00026483	9.515e-05	1253.7	2.9015e-06	2.8617e-06	1318.6	258.5	4.417e-06	3.9594e-06	323.81	90.438	71.105	20.735	3.5607e-06	28.897	0.0002815	0.00020607	6.0526e-05	1234	2.7368e-06	2.1692e-06	1305.1	257.76	2.3582e-06	2.2658e-06	322.25	90.362	71.219	20.89	2.4213e-06	29.375	158.061	-83.412	-65.955	-156.661	-64.981	-6.050	-157.100	-149.747	-57.960	-13.009	-150.050	-144.363	-143.733	-136.231	-31.082	-136.326	-8191	255	
27025.078	1	1	0	0	0.20217	0.12298	0.080287	0.06364	0.18501	0.10959	0.30711	0.11721	0.27808	0.20281	0.10272	0.038655	0.1815	0.069951	0.14447	0.14498	-2.2417	-2.2812	-2.2958	-2.9271	-2.2896	-2.3542	-2.8937	-2.2917	-2.6937	-2.4938	-2.6104	-2.8937	-2.2542	-2.3646	-2.5687	-2.1354	-110.838	107.032	96.770	-135.682	-35.563	-96.445	55.443	-72.988	74.436	98.650	179.483	23.493	-84.938	89.931	-64.037	16.566	0.00038839	0.0003249	8.1781e-05	1251.8	1.5305e-06	2.3099e-06	1326	260.92	2.9346e-06	2.5568e-06	324.54	90.749	70.865	20.836	2.7163e-06	28.99	0.00027165	0.00021336	5.9758e-05	1235.8	2.7887e-06	2.1415e-06	1310.8	258.53	2.4547e-06	2.4044e-06	322.47	90.758	71.311	20.978	2.3206e-06	29.478	157.433	-75.870	-81.012	-156.855	-61.489	-22.426	-156.999	-149.994	-54.813	-15.770	-149.927	-144.096	-143.903	-136.192	-43.308	-136.480	-8191	255	
27025.197	1	1	0	0	0.0901	0.18155	0.19536	0.15475	0.048089	0.19564	0.21593	0.39579	0.31789	0.16194	0.08812	0.089174	0.10269	0.061592	0.17452	0.12639	-2.3	-2.2646	-2.3063	-2.8708	-2.3812	-2.4042	-2.7354	-2.4375	-2.6979	-2.4833	-2.3208	-2.7562	-2.3729	-2.5583	-2.5062	-2.3708	-34.534	-166.843	-51.585	-165.987	135.968	170.085	126.385	141.733	-141.692	52.339	-143.711	190.455	-148.646	-5.480	-94.304	151.516	0.00036702	0.00024496	0.00011281	1252	3.0851e-06	2.8818e-06	1330.1	261.5	2.8225e-06	3.2068e-06	323.11	91.008	71.459	20.847	2.7112e-06	29.197	0.00027077	0.00022199	6.2684e-05	1236.7	2.8835e-06	2.3905e-06	1313.7	258.88	2.4073e-06	2.2599e-06	322.81	90.887	71.418	20.995	2.2729e-06	29.578	156.308	-64.577	-78.133	-156.723	-45.142	-28.012	-156.952	-150.042	-56.730	-33.753	-149.940	-144.200	-143.783	-136.130	-20.696	-137.458	-8191	255	
27025.293	1	1	0	0	0.18422	0.053305	0.21296	0.26721	0.11998	0.10539	0.32483	0.18229	0.18362	0.049142	0.16342	0.38137	0.18989	0.20061	0.083602	0.27166	-2.1188	-2.5292	-2.1667	-2.7604	-2.3312	-2.4729	-3.0042	-2.425	-2.6562	-2.5021	-2.3729	-2.5687	-2.2583	-2.3521	-2.7687	-2.2375	135.046	-121.330	-40.293	181.165	-154.773	-51.776	137.406	124.824	137.898	163.814	109.607	164.488	-80.978	-138.913	36.135	139.509	0.00039364	0.00039228	9.1818e-05	1259.1	3.3194e-06	2.7613e-06	1326.3	260.57	4.3028e-06	3.8494e-06	322.8	90.87	71.372	20.744	3.2285e-06	28.802	0.00027937	0.00021552	5.6946e-05	1238.7	2.6688e-06	2.3747e-06	1312.7	258.48	2.438e-06	2.3736e-06	322.72	90.686	71.368	20.911	2.259e-06	29.409	155.130	-66.962	-83.279	-156.813	-74.237	-6.855	-156.879	-149.849	-60.374	6.113	-149.819	-144.071	-143.866	-136.240	-31.221	-136.779	-8191	255	
27025.389	1	1	0	0	0.081494	0.32128	0.21996	0.20343	0.10525	0.095232	0.10212	0.049068	0.17377	0.085312	0.29915	0.2072	0.34489	0.20295	0.19573	0.13981	-2.1042	-2.5792	-2.0417	-2.925	-2.5625	-2.3979	-3.0333	-2.4229	-2.4458	-2.5667	-2.2812	-2.6021	-2.5563	-2.2458	-2.6167	-2.3042	-124.898	134.607	-57.558	107.203	174.824	50.271	102.508	107.371	-166.793	163.869	189.851	65.792	2.595	156.578	-87.661	124.564	0.00038752	0.00036901	0.00010763	1252.9	2.8872e-06	2.6487e-06	1321.3	260.17	3.6922e-06	3.9937e-06	322.33	90.441	71.203	20.788	3.3138e-06	29.001	0.00027134	0.00019545	5.8662e-05	1234.3	2.7101e-06	2.2789e-06	1308.3	258.67	2.4918e-06	2.298e-06	321.69	90.516	71.154	20.928	2.2174e-06	29.48	157.926	-66.698	-62.562	-156.804	-62.749	5.607	-156.955	-150.002	-54.327	-9.009	-150.049	-143.939	-143.749	-136.462	-19.407	-136.496	-8191	255	
27025.463	1	1	0	0	0.17087	0.076738	0.23354	0.15169	0.20896	0.085991	0.082445	0.10986	0.18295	0.087525	0.062555	0.070244	0.32186	0.036139	0.14598	0.1604	-1.9229	-2.6437	-2.2313	-2.6521	-2.3208	-2.3729	-2.9042	-2.2792	-2.4521	-2.625	-2.3375	-2.5187	-2.575	-2.1688	-2.9417	-2.4813	131.739	80.679	85.514	162.145	95.602	-127.528	139.742	-50.242	64.314	-22.563	-152.519	18.886	102.622	-97.506	-107.634	-10.397	0.00039137	0.00033457	0.00011631	1250	2.5549e-06	2.9364e-06	1316.1	260.33	4.3621e-06	2.8495e-06	324.06	90.293	70.938	20.724	3.5356e-06	29.005	0.00026897	0.00020076	5.4166e-05	1232	2.647e-06	2.0913e-06	1305.9	257.97	2.4866e-06	2.2475e-06	322.38	90.589	71.18	20.838	2.2325e-06	29.467	158.821	-72.890	-59.203	-156.705	-74.210	-24.102	-156.783	-150.120	-61.620	-6.378	-149.912	-144.396	-143.579	-136.574	-25.641	-136.720	-8191	255	
27025.580	1	1	0	0	0.087891	0.090227	0.32644	0.22421	0.19873	0.17732	0.077362	0.13296	0.36426	0.22836	0.16235	0.18003	0.14815	0.084119	0.17194	0.16641	-1.8458	-2.5729	-2.3104	-2.6646	-2.4938	-2.1417	-2.9479	-2.3729	-2.4437	-2.7604	-2.1104	-2.7729	-2.4396	-2.4062	-2.5875	-2.5854	-111.267	-56.466	-54.666	178.433	-58.389	119.180	118.235	61.522	-122.330	187.488	-168.122	-74.499	-167.645	-114.653	146.954	-39.147	0.0003741	0.00044099	8.5751e-05	1253.3	3.6084e-06	3.1421e-06	1320.4	259.48	2.9504e-06	2.9794e-06	324.5	90.778	71.764	20.904	2.6054e-06	29.139	0.00026847	0.00021021	5.5229e-05	1233.5	2.8233e-06	2.306e-06	1309.3	258.08	2.6647e-06	2.1982e-06	322.82	90.968	71.686	21.027	2.5377e-06	29.512	156.744	-79.960	-65.921	-156.728	-54.690	-21.229	-156.887	-150.202	-70.257	-16.048	-150.115	-144.174	-143.875	-136.230	-28.977	-137.017	-8191	255	
27025.678	1	1	0	0	0.077263	0.17551	0.21425	0.45487	0.054993	0.092144	0.28294	0.16536	0.31342	0.094424	0.089656	0.17003	0.24437	0.20421	0.26524	0.18883	-1.8937	-2.6958	-2.4833	-2.8125	-2.6	-2.3646	-2.6937	-2.6458	-2.5062	-2.7771	-2.525	-2.3125	-2.5958	-2.2042	-2.575	-2.575	-95.247	-68.456	178.281	177.907	-104.934	147.222	95.290	154.350	123.261	188.102	57.226	-134.434	191.545	128.089	108.264	102.678	0.00036953	0.00028902	0.00010509	1269	2.8318e-06	3.5151e-06	1349.5	266.01	3.3329e-06	3.6585e-06	330.77	92.47	73.605	21.332	1.6749e-06	29.734	0.00029903	0.00023366	7.2559e-05	1251.7	3.3469e-06	2.9817e-06	1333.4	263.9	3.4589e-06	3.0454e-06	328.82	92.81	73.45	21.536	3.2556e-06	30.227	158.874	-85.113	-81.334	-156.757	-68.551	0.928	-156.872	-150.190	-51.216	-6.962	-149.992	-144.289	-144.244	-136.704	-41.510	-136.673	-8191	255	
27025.773	1	1	0	0	0.096196	0.23698	0.16518	0.16671	0.24684	0.00094716	0.23452	0.11024	0.21882	0.16733	0.19649	0.054702	0.19033	0.082042	0.19691	0.060807	-1.8479	-2.5083	-2.2667	-2.6771	-2.5187	-2.3042	-2.9188	-2.3833	-2.4229	-2.7021	-2.5542	-2.35	-2.7167	-2.1458	-2.3438	-2.5896	176.237	104.414	-33.642	167.903	37.397	180.000	114.126	164.673	98.498	33.659	55.471	70.117	-92.870	132.655	-38.665	-54.573	0.0004277	0.0002218	9.9074e-05	1305	3.445e-06	3.1606e-06	1378.4	272.37	4.0721e-06	4.4186e-06	335.33	93.547	74.088	21.351	3.419e-06	29.76	0.00034553	0.00029304	9.0707e-05	1283.6	3.6915e-06	3.3999e-06	1361	269.92	3.6416e-06	3.3081e-06	334.31	93.731	74.132	21.568	3.4528e-06	30.319	153.538	-71.833	-74.568	-156.731	-72.094	-18.656	-157.178	-150.273	-50.250	-31.780	-150.184	-144.300	-143.804	-136.837	-57.977	-137.010	-8191	255	
27025.869	1	1	0	0	0.38101	0.14675	0.23427	0.23851	0.23257	0.12581	0.17827	0.16561	0.11475	0.041395	0.20645	0.20511	0.047394	0.29926	0.31319	0.022247	-1.6958	-2.6167	-2.2542	-2.5187	-2.5458	-2.4292	-2.6771	-2.5604	-2.2875	-2.6979	-2.4521	-2.3146	-2.7167	-2.3187	-2.5896	-2.5687	125.628	-36.273	-36.662	91.173	167.522	-25.106	140.580	120.491	77.495	79.087	170.811	137.828	-132.241	-143.347	-104.797	-134.244	0.00036478	0.00031131	0.00012035	1307	2.8115e-06	2.662e-06	1374.6	273.54	2.819e-06	4.0491e-06	336.05	93.258	73.928	21.39	2.7156e-06	29.661	0.00032235	0.00029607	8.541e-05	1289.1	3.5119e-06	3.1303e-06	1361.9	270.47	3.4172e-06	3.1177e-06	334.06	93.556	74.02	21.542	3.3279e-06	30.289	158.688	-91.687	-95.934	-156.911	-90.524	-13.225	-157.085	-150.482	-69.026	-9.153	-150.138	-144.268	-144.167	-136.626	-26.780	-137.117	-8191	255	
27025.990	1	1	0	0	0.085897	0.34912	0.43413	0.11372	0.25699	0.16309	0.30887	0.10625	0.24669	0.24878	0.18098	0.11282	0.18183	0.25743	0.11672	0.27785	-1.9792	-2.5896	-2.3958	-2.4854	-2.5687	-2.3625	-2.6625	-2.7479	-2.1917	-2.5708	-2.5312	-2.4021	-2.65	-2.4625	-2.5271	-2.7062	-131.878	-131.455	-83.727	-131.537	-163.604	10.160	141.631	43.518	55.734	-138.803	141.762	102.617	-131.902	-152.237	-159.567	113.067	0.00037595	0.0003495	0.00012206	1302.8	3.5711e-06	2.3261e-06	1375.9	272.95	3.5878e-06	3.3413e-06	334.91	92.99	74.08	21.078	2.9124e-06	29.537	0.00032482	0.0003124	8.6898e-05	1284.5	3.4166e-06	3.275e-06	1359.8	269.74	3.5474e-06	3.1124e-06	333.57	93.513	73.888	21.448	3.217e-06	30.084	154.904	-70.359	-62.689	-156.833	-59.361	-31.796	-157.049	-150.254	-54.626	-23.006	-150.233	-144.647	-143.820	-136.607	-24.478	-137.203	-8191	255	
27026.062	1	1	0	0	0.18458	0.22557	0.15636	0.2124	0.30611	0.062996	0.42664	0.12553	0.24048	0.16375	0.31049	0.18684	0.028989	0.14634	0.4856	0.16025	-1.7458	-2.6604	-2.4583	-2.5771	-2.775	-2.375	-2.7125	-2.8479	-2.3167	-2.6521	-2.6813	-2.2354	-2.6813	-2.4479	-2.1937	-2.5354	21.143	-156.386	69.206	97.086	188.721	-107.513	119.952	162.344	29.111	-119.260	180.608	155.440	177.849	57.168	134.811	100.661	0.00039456	0.0003504	9.7679e-05	1296.3	2.6058e-06	3.4203e-06	1364	270.41	2.8988e-06	3.4012e-06	333.31	92.759	73.669	21.165	3.6151e-06	29.651	0.00033944	0.00029514	7.7464e-05	1279.2	3.2911e-06	3.3014e-06	1353.6	268.49	3.2495e-06	3.0815e-06	331.79	92.921	73.362	21.324	3.2049e-06	29.969	155.907	-60.026	-91.278	-156.813	-37.711	-8.419	-157.025	-150.318	-71.073	-18.562	-150.167	-144.071	-144.358	-136.309	-24.325	-136.761	-8191	255	
27026.158	1	1	0	0	0.2177	0.079023	0.066543	0.19785	0.21953	0.17101	0.34429	0.072559	0.26451	0.17532	0.19278	0.12709	0.099083	0.034452	0.10803	0.06904	-1.8479	-2.4188	-2.3958	-2.6188	-2.6479	-2.2604	-2.4188	-2.5646	-2.4771	-2.4583	-2.5979	-2.4292	-2.6229	-2.5042	-2.4125	-2.7646	-117.872	21.442	-41.976	71.866	50.125	59.185	86.275	-146.778	74.342	32.859	-129.128	-8.098	-60.675	165.453	120.716	-19.993	0.0004115	0.00036205	9.3178e-05	1285.8	2.6732e-06	2.8706e-06	1353.1	268.11	3.4038e-06	3.4605e-06	329.24	91.55	72.89	21.07	1.9767e-06	29.118	0.00032343	0.00026976	7.7383e-05	1268.3	3.3586e-06	3.0405e-06	1342.4	265.46	3.2067e-06	3.0914e-06	328.66	92.027	72.527	21.159	2.8526e-06	29.717	160.665	-78.524	-67.940	-156.685	-74.614	-16.280	-157.180	-149.936	-55.152	8.052	-149.996	-144.330	-144.009	-136.381	-42.404	-136.966	-8191	255	
27026.279	1	1	0	0	0.10112	0.29224	0.26508	0.30895	0.34271	0.20904	0.20676	0.20581	0.011138	0.11235	0.084225	0.10449	0.18134	0.22459	0.37833	0.12068	-1.9396	-2.4938	-2.6479	-2.4458	-2.5271	-2.5458	-2.4646	-2.7229	-2.3146	-2.4188	-2.6146	-2.3333	-2.6521	-2.3667	-2.3083	-2.7271	-48.381	-77.093	-158.609	166.718	-37.641	-51.397	152.711	-90.464	-133.542	-16.348	-9.326	18.694	114.205	-130.092	-65.413	7.121	0.00039787	0.00029235	0.00010785	1276.6	2.7724e-06	3.2457e-06	1352.2	265.7	4.7306e-06	3.6964e-06	328.02	91.409	71.94	20.806	2.7947e-06	29.195	0.0003125	0.00024947	6.7785e-05	1259.1	3.2069e-06	2.5425e-06	1333.4	263.77	2.8816e-06	2.5831e-06	326.71	91.461	72.071	20.973	2.6505e-06	29.583	157.291	-100.190	-62.668	-156.699	-76.571	10.517	-156.831	-150.310	-66.937	-9.840	-149.821	-144.398	-144.063	-136.454	-22.168	-136.510	-8191	255	
27026.373	1	1	0	0	0.061759	0.042744	0.10723	0.13607	0.12883	0.28328	0.41026	0.51058	0.20343	0.067563	0.18866	0.31485	0.30908	0.265	0.085169	0.14216	-1.8771	-2.2792	-2.7583	-2.4125	-2.475	-2.6583	-2.3208	-2.7542	-2.5542	-2.2917	-2.6437	-2.3438	-2.6042	-2.8583	-2.2438	-2.7104	-28.994	-56.439	110.730	179.819	-45.425	122.058	161.417	148.593	179.911	-69.851	-153.565	149.536	-136.705	184.462	52.627	124.686	0.00042169	0.00034367	6.4724e-05	1275.1	2.7283e-06	3.3195e-06	1341.7	264.6	3.3332e-06	2.7294e-06	326.62	90.841	71.821	20.731	3.2482e-06	28.842	0.00030272	0.00023576	6.5856e-05	1253.3	3.082e-06	2.6429e-06	1326.6	262.17	2.7405e-06	2.5791e-06	325.41	91.315	71.814	20.941	2.656e-06	29.497	158.073	-67.854	-81.752	-156.812	-42.146	-1.676	-157.016	-150.049	-65.280	-7.995	-149.996	-144.483	-143.830	-136.542	-30.904	-136.748	-8191	255	
27026.471	1	1	0	0	0.2648	0.15379	0.19325	0.21801	0.040369	0.26708	0.15517	0.25424	0.31671	0.25744	0.19853	0.1271	0.17893	0.086269	0.21591	0.23516	-1.9292	-2.2896	-2.6521	-2.3937	-2.3563	-2.5667	-2.3688	-2.6688	-2.4521	-2.1979	-2.9083	-2.2792	-2.2292	-2.6833	-2.3542	-2.5771	104.467	154.383	-43.744	118.145	20.521	68.698	144.365	-160.138	36.251	90.081	155.384	71.364	-148.506	-83.542	12.888	121.712	0.00038052	0.00029365	0.00012435	1266.7	2.8332e-06	3.3221e-06	1333.4	263.54	3.3342e-06	3.4087e-06	325.49	90.267	71.39	20.729	3.0373e-06	28.868	0.0002969	0.00024031	5.7551e-05	1248.3	3.0904e-06	2.411e-06	1319.1	260.86	2.6959e-06	2.5161e-06	324.03	90.622	71.525	20.835	2.481e-06	29.383	157.381	-115.367	-82.872	-156.875	-53.959	-11.364	-156.914	-149.862	-54.507	-10.221	-150.178	-144.133	-143.752	-136.604	-34.499	-136.638	-8191	255	
27026.590	1	1	0	0	0.062444	0.28646	0.12578	0.102	0.14054	0.3368	0.33172	0.18988	0.22431	0.14453	0.1575	0.29177	0.099444	0.18427	0.18042	0.22002	-2.0104	-2.0812	-2.6771	-2.5771	-2.2354	-2.6396	-2.3958	-2.6958	-2.6208	-2.2021	-2.7583	-2.5771	-2.2833	-2.6917	-2.2771	-2.4521	79.581	-134.722	190.179	164.809	-148.482	59.517	119.989	147.015	119.121	-108.352	159.375	-100.552	6.028	-109.297	-92.931	47.323	0.00039673	0.0003165	9.2873e-05	1261	3.7427e-06	3.0088e-06	1329.1	261.34	3.4213e-06	3.4819e-06	323.78	90.383	71.5	20.699	3.5212e-06	28.81	0.00028976	0.00022864	5.8924e-05	1241.6	2.9682e-06	2.1607e-06	1314.6	259.81	2.6439e-06	2.4839e-06	323.19	90.577	71.388	20.807	2.4672e-06	29.275	156.846	-67.015	-85.496	-156.746	-52.055	-7.570	-156.943	-150.086	-72.582	-18.856	-150.116	-144.225	-143.991	-136.133	-24.489	-136.639	-8191	255	
27026.686	1	1	0	0	0.092009	0.081397	0.29086	0.22465	0.21197	0.20993	0.23511	0.15471	0.038287	0.12403	0.21751	0.11039	0.29002	0.33814	0.088734	0.11925	-2.1708	-2.425	-2.6063	-2.5854	-2.3083	-2.7188	-2.4167	-2.5479	-2.6083	-2.4042	-2.7417	-2.4125	-2.2313	-2.6354	-2.2083	-2.4021	152.799	90.784	143.880	-160.465	-130.452	-44.593	97.186	-152.789	-80.341	54.434	-163.699	126.498	-152.805	97.883	166.621	-39.312	0.0003488	0.0004414	7.1993e-05	1257.1	2.7609e-06	3.1607e-06	1326.7	260.67	3.1069e-06	3.1012e-06	325.02	90.33	70.925	20.591	2.7004e-06	28.77	0.00027307	0.00022211	5.6079e-05	1237.5	2.792e-06	2.0986e-06	1310.9	259.08	2.4923e-06	2.2849e-06	322.94	90.46	71.279	20.784	2.4587e-06	29.32	161.657	-85.083	-71.354	-156.737	-37.354	-24.338	-157.069	-149.984	-64.314	-7.183	-150.163	-144.389	-143.662	-136.198	-39.103	-136.617	-8191	255	
27026.758	1	1	0	0	0.25849	0.28178	0.30143	0.33649	0.095113	0.30514	0.20713	0.18769	0.28449	0.20848	0.31806	0.22626	0.1553	0.31925	0.23716	0.19093	-2.2104	-2.0646	-2.5062	-2.625	-2.1875	-2.7687	-2.4979	-2.3354	-2.6312	-2.0896	-2.5438	-2.5812	-2.2208	-2.6729	-2.3292	-2.325	-50.415	177.455	159.646	97.076	74.301	116.027	31.646	108.832	163.748	-152.183	80.144	107.159	19.356	156.605	24.583	-117.090	0.00038273	0.00039744	8.4704e-05	1256.3	2.5706e-06	3.336e-06	1328.8	260.66	2.6657e-06	2.1401e-06	323	90.234	70.858	20.601	2.8295e-06	28.915	0.00027429	0.00022508	6.4172e-05	1236.3	2.7803e-06	2.3496e-06	1311.9	258.55	2.4958e-06	2.3493e-06	322.57	90.637	71.104	20.77	2.5836e-06	29.287	157.806	-64.918	-75.998	-156.727	-75.476	-9.910	-156.961	-150.160	-77.558	-12.454	-149.924	-144.370	-143.664	-136.208	-46.683	-136.530	-8191	255	
27026.879	1	1	0	0	0.30345	0.20377	0.36654	0.16907	0.18833	0.24734	0.36199	0.27208	0.17161	0.15784	0.09861	0.09248	0.028623	0.31738	0.20454	0.11005	-2.1521	-2.0521	-2.6875	-2.6021	-2.3354	-2.6854	-2.5167	-2.4354	-2.5792	-2.3729	-2.7812	-2.5417	-2.3104	-2.6771	-2.3896	-2.3292	-120.343	-45.974	-29.834	55.598	-55.668	-128.405	126.299	150.869	116.174	-21.015	10.094	118.232	-122.796	191.948	34.648	8.733	0.00039408	0.00035198	8.658e-05	1252.4	2.8994e-06	3.448e-06	1324.6	261.77	3.471e-06	3.6678e-06	324.39	89.982	71.249	20.644	2.1699e-06	28.88	0.00027788	0.00020794	6.1131e-05	1234.7	2.8857e-06	2.2743e-06	1311.1	259	2.4912e-06	2.3873e-06	323.15	90.319	71.492	20.818	2.4442e-06	29.334	157.641	-59.003	-76.071	-156.765	-51.018	-4.390	-156.955	-149.870	-47.614	-11.716	-150.377	-144.344	-143.750	-136.458	-40.005	-136.898	-8191	255	
27026.975	1	1	0	0	0.094257	0.04649	0.16962	0.2581	0.10397	0.035442	0.17831	0.19688	0.12587	0.10129	0.11017	0.2004	0.13856	0.17239	0.035223	0.14075	-2.3729	-2.3083	-2.6125	-2.7604	-2.1958	-2.6875	-2.8563	-2.3271	-2.75	-2.4188	-2.6437	-2.7708	-2.2375	-2.5438	-2.5708	-2.2479	-156.440	65.313	28.294	164.302	-32.185	-119.637	140.934	182.580	89.413	161.881	147.266	-133.133	129.528	-140.362	-2.247	-132.683	0.00037364	0.00024767	0.0001034	1258	2.4848e-06	3.4399e-06	1324.3	262.5	4.4546e-06	3.4624e-06	324.25	90.142	71.576	20.769	2.6066e-06	28.729	0.00026782	0.00023033	6.5235e-05	1238.5	2.695e-06	2.2234e-06	1311.4	259.31	2.6017e-06	2.342e-06	322.91	90.465	71.32	20.864	2.3887e-06	29.307	158.183	-73.515	-70.460	-156.908	-65.191	-14.373	-156.794	-149.974	-44.996	-8.357	-149.946	-144.151	-143.808	-136.659	-27.419	-136.920	-8191	255	
27027.070	1	1	0	0	0.0083023	0.16034	0.060129	0.2427	0.076771	0.23695	0.39573	0.28962	0.15887	0.42262	0.012678	0.2239	0.090312	0.093619	0.38922	0.14327	-2.1375	-2.3458	-2.3458	-2.9792	-2.1792	-2.6542	-2.55	-2.35	-2.5333	-2.4521	-2.5021	-2.6771	-2.2667	-2.4688	-2.6396	-2.4021	101.097	-85.496	-115.919	126.594	-66.565	82.715	128.099	185.122	134.445	147.480	-85.642	109.644	-114.254	94.444	-79.985	180.044	0.00039013	0.00032237	8.8646e-05	1254.6	2.2051e-06	3.1082e-06	1328.7	261.46	3.4155e-06	4.6763e-06	323.61	90.275	71.499	20.585	2.4005e-06	28.879	0.00026698	0.0002175	6.0575e-05	1238.8	2.7541e-06	2.2294e-06	1314.2	259.02	2.5178e-06	2.5128e-06	322.54	90.658	71.338	20.784	2.1921e-06	29.29	157.174	-83.018	-64.590	-156.718	-63.106	-20.659	-156.839	-150.176	-64.539	-7.726	-150.047	-144.286	-143.865	-136.444	-15.721	-136.816	-8191	255	
27027.168	1	1	0	0	0.12111	0.16089	0.21456	0.37174	0.049646	0.10576	0.20223	0.046451	0.3744	0.05247	0.090763	0.17658	0.028516	0.2465	0.11629	0.079793	-2.3583	-2.4479	-2.3021	-2.8667	-2.5229	-2.5396	-2.8521	-2.275	-2.8646	-2.5208	-2.4292	-2.6208	-2.2771	-2.4917	-2.6521	-2.1833	152.860	-136.113	27.267	150.088	68.181	24.550	103.757	-2.438	175.252	-31.834	93.638	189.762	75.369	119.483	-4.602	171.188	0.00039609	0.00039203	8.4042e-05	1252.4	3.1061e-06	3.326e-06	1322.2	259.83	4.7459e-06	3.3479e-06	323.33	90.742	70.758	20.63	3.9958e-06	28.924	0.00027869	0.00021803	5.4248e-05	1235.6	2.8238e-06	2.014e-06	1309.5	257.97	2.3541e-06	2.0071e-06	322.05	90.597	71.077	20.789	2.1999e-06	29.313	160.283	-76.653	-62.104	-156.613	-59.058	-30.741	-156.929	-149.975	-63.539	-32.184	-150.134	-144.049	-143.984	-136.369	-42.195	-136.638	-8191	255	
27027.287	1	1	0	0	0.11784	0.34642	0.11427	0.19777	0.087085	0.049708	0.11048	0.075959	0.25395	0.13234	0.21318	0.19676	0.24661	0.2596	0.083275	0.1286	-2.1479	-2.45	-2.1708	-2.9167	-2.3229	-2.5271	-2.8542	-2.3917	-2.5833	-2.5479	-2.4083	-2.8021	-2.3104	-2.4792	-2.7042	-2.375	29.940	-17.963	-137.766	128.687	-95.851	113.972	147.832	70.168	-85.132	139.762	135.595	124.822	138.539	28.406	-17.280	77.915	0.00038837	0.0002761	0.00010406	1250.4	3.2333e-06	2.7502e-06	1318.5	260.28	3.3743e-06	3.5439e-06	322.17	90.22	71.015	20.728	3.0801e-06	28.857	0.00028058	0.00020304	5.5605e-05	1233.6	2.7597e-06	2.158e-06	1309.4	258.13	2.5357e-06	2.0182e-06	321.32	90.483	71.129	20.847	2.2615e-06	29.21	156.923	-87.697	-78.363	-156.712	-62.639	-3.547	-156.893	-149.921	-51.369	-9.862	-149.810	-144.462	-143.779	-136.441	-25.010	-136.692	-8191	255	
27027.359	1	1	0	0	0.041422	0.18639	0.13219	0.3326	0.13175	0.12445	0.26022	0.20595	0.05223	0.15087	0.18428	0.17857	0.15798	0.15756	0.020381	0.10063	-2.0667	-2.6083	-2.275	-2.8958	-2.4729	-2.5417	-2.8708	-2.2875	-2.5792	-2.6813	-2.4062	-2.8729	-2.5	-2.3708	-2.6667	-2.2313	-35.921	-155.764	-0.358	141.838	-71.383	-162.404	175.443	94.065	-129.256	149.159	-79.712	75.263	-99.321	141.375	19.523	2.419	0.00039869	0.00029945	7.1148e-05	1250	3.1132e-06	3.0079e-06	1325.2	261.94	3.5995e-06	3.5462e-06	322.79	89.974	71.308	20.627	2.4655e-06	28.977	0.00028031	0.0001961	5.4215e-05	1233.9	2.6353e-06	2.1792e-06	1308.4	258.57	2.4241e-06	2.2672e-06	320.96	90.389	71.106	20.851	2.025e-06	29.303	161.108	-69.917	-68.083	-156.757	-50.033	-13.548	-156.699	-149.999	-60.253	-21.562	-150.097	-144.110	-143.597	-136.113	-34.215	-136.806	-8191	255	
27027.455	1	1	0	0	0.078467	0.16788	0.10659	0.083063	0.058198	0.12849	0.095853	0.34355	0.23969	0.26732	0.13842	0.072419	0.25215	0.25787	0.058787	0.094695	-1.8604	-2.4542	-2.4271	-2.6458	-2.4792	-2.1854	-2.8021	-2.4437	-2.5375	-2.5708	-2.2604	-2.6104	-2.4646	-2.2708	-2.8312	-2.3479	-103.068	78.898	-121.446	138.999	-88.562	134.882	95.362	-132.635	-25.567	-57.982	79.028	60.520	-111.586	167.883	-168.104	102.949	0.00039117	0.00036032	8.637e-05	1249.6	2.8931e-06	2.1653e-06	1315.8	260.92	4.0331e-06	2.8667e-06	322.64	90.14	71.24	20.619	3.5034e-06	28.839	0.00027679	0.00018933	6.0493e-05	1231.6	2.7268e-06	2.0563e-06	1306.2	257.9	2.4623e-06	1.9545e-06	321.35	90.349	71.055	20.826	2.1287e-06	29.23	159.911	-82.851	-84.177	-156.772	-61.337	-15.599	-156.959	-150.209	-65.674	-29.538	-150.085	-144.281	-143.841	-136.191	-31.536	-136.632	-8191	255	
27027.551	1	1	0	0	0.12123	0.079551	0.18686	0.12935	0.18779	0.017353	0.26735	0.24069	0.30939	0.25168	0.11089	0.22827	0.13389	0.15111	0.1477	0.08093	-2.0229	-2.5292	-2.1521	-2.6083	-2.6	-2.2562	-2.6146	-2.3667	-2.1292	-2.6521	-2.3021	-2.7083	-2.5729	-2.2833	-2.5604	-2.5042	-100.693	-60.906	-71.781	191.045	-127.957	142.300	137.083	158.667	181.454	-138.960	152.329	141.006	93.194	127.505	181.101	130.373	0.00038979	0.00027267	8.1355e-05	1248.8	3.0246e-06	3.3156e-06	1318.2	259.24	4.434e-06	2.871e-06	322.03	89.877	71.366	20.531	3.0399e-06	28.725	0.00027321	0.00018816	5.2548e-05	1230.8	2.4982e-06	2.2386e-06	1305.4	257.44	2.4733e-06	1.9624e-06	320.77	90.316	71.055	20.792	2.2355e-06	29.236	158.927	-72.947	-58.764	-156.657	-65.805	-15.652	-156.788	-149.917	-44.160	-26.459	-150.150	-143.908	-143.711	-136.283	-25.459	-136.627	-8191	255	
27027.670	1	1	0	0	0.1718	0.055026	0.088741	0.39847	0.15144	0.045079	0.23439	0.16012	0.11889	0.021623	0.094567	0.10936	0.40851	0.13881	0.098738	0.2678	-1.9354	-2.7458	-2.3521	-2.6583	-2.7083	-2.3354	-2.8292	-2.5292	-2.2333	-2.7	-2.2458	-2.5396	-2.5208	-2.1188	-2.6063	-2.5187	175.766	169.616	122.321	140.446	79.196	181.734	142.866	-161.333	-107.448	31.641	130.790	159.970	-139.058	5.065	-49.439	138.152	0.0003567	0.00033482	9.2227e-05	1251.2	3.1112e-06	2.8091e-06	1318.7	261.07	3.9972e-06	2.2186e-06	319.9	90.031	71.026	20.617	3.1189e-06	28.816	0.00026688	0.00019405	5.8842e-05	1229	2.5266e-06	2.1864e-06	1304.4	257.74	2.527e-06	1.8875e-06	319.85	90.169	71.069	20.774	2.2048e-06	29.214	159.088	-71.883	-77.175	-156.612	-53.722	-21.416	-156.932	-149.911	-32.024	-21.325	-149.905	-144.044	-143.777	-135.868	-34.705	-136.885	-8191	255	
27027.766	1	1	0	0	0.17016	0.16866	0.24027	0.27433	0.03923	0.070669	0.19779	0.12164	0.035425	0.18622	0.21137	0.26218	0.071935	0.1522	0.085805	0.30554	-1.7667	-2.6958	-2.1521	-2.6833	-2.7125	-2.2792	-2.7521	-2.5938	-2.1521	-2.7375	-2.3646	-2.375	-2.6729	-2.2	-2.5187	-2.4979	-106.083	179.424	-100.473	169.386	-164.439	-54.994	117.914	127.949	-122.421	109.310	112.672	-139.552	151.184	-18.132	131.594	124.623	0.00038457	0.0003324	9.4662e-05	1246.9	3.0364e-06	1.9709e-06	1311.2	258.77	4.3343e-06	4.1698e-06	320.64	89.938	70.875	20.561	3.113e-06	28.797	0.00026566	0.00019872	5.4411e-05	1228.1	2.5517e-06	2.0893e-06	1301	257.01	2.4091e-06	1.9907e-06	320.19	90.127	70.843	20.757	2.2542e-06	29.213	161.582	-92.934	-69.561	-156.602	-53.245	-24.180	-156.834	-149.971	-58.647	-17.719	-149.970	-143.911	-143.804	-136.261	-31.524	-136.515	-8191	255	
27027.861	1	1	0	0	0.23851	0.13791	0.25643	0.14767	0.22604	0.10695	0.2701	0.091132	0.11863	0.22428	0.16664	0.19724	0.027498	0.13478	0.18855	0.090093	-1.6896	-2.6458	-2.3333	-2.6521	-2.5271	-2.1375	-2.7521	-2.5333	-2.275	-2.6458	-2.4604	-2.3729	-2.6312	-2.1417	-2.5833	-2.5771	103.600	155.504	19.173	0.708	42.494	-139.199	155.849	140.677	8.898	184.117	123.901	50.508	14.645	133.461	185.411	147.000	0.00034769	0.00028814	8.7664e-05	1245.1	2.6348e-06	3.9078e-06	1313.1	260.43	2.6523e-06	2.8198e-06	320.29	89.824	71.293	20.457	2.8945e-06	28.836	0.00026254	0.00019411	5.4591e-05	1225.7	2.5004e-06	2.1805e-06	1300.9	256.9	2.4426e-06	2.0531e-06	319.9	90.071	70.933	20.73	2.2723e-06	29.152	157.647	-72.677	-109.201	-156.699	-73.132	-21.178	-156.808	-150.016	-44.621	-14.496	-150.178	-144.185	-143.772	-136.317	-31.963	-136.886	-8191	255	
27027.959	1	1	0	0	0.23208	0.06039	0.13373	0.17562	0.09557	0.09682	0.22341	0.39914	0.23029	0.13127	0.24164	0.14845	0.18805	0.075357	0.42382	0.060987	-1.9333	-2.6604	-2.2938	-2.5687	-2.7458	-2.2396	-2.6521	-2.6146	-2.1167	-2.5583	-2.4854	-2.3458	-2.4771	-2.3688	-2.4771	-2.6729	-127.235	160.177	-64.049	166.762	-157.192	-73.119	130.732	145.896	-166.061	126.201	155.458	-112.154	-165.415	80.318	-160.336	-107.338	0.00040452	0.00035082	8.7747e-05	1246.3	3.1343e-06	3.1511e-06	1311.2	258.52	3.3288e-06	3.6792e-06	320.82	89.823	70.907	20.486	2.2475e-06	28.876	0.00026992	0.00019452	5.3463e-05	1225.3	2.6331e-06	2.2029e-06	1299.2	256.24	2.4339e-06	1.9821e-06	319.27	89.983	70.898	20.686	2.0865e-06	29.135	158.512	-56.711	-71.289	-156.648	-64.075	-2.696	-156.905	-149.976	-43.742	-16.737	-150.140	-144.183	-143.562	-136.115	-40.518	-136.520	-8191	255	
27028.055	1	1	0	0	0.16632	0.19747	0.28801	0.32675	0.13371	0.22562	0.17001	0.12582	0.25919	0.079013	0.29946	0.31371	0.1192	0.35186	0.25742	0.040156	-1.7458	-2.3854	-2.6063	-2.5563	-2.6792	-2.3083	-2.5771	-2.6458	-2.2167	-2.6083	-2.7854	-2.2438	-2.6021	-2.4667	-2.4125	-2.6917	145.656	153.658	-44.641	149.843	160.684	91.199	-167.091	132.404	53.068	19.032	51.532	-116.130	-34.130	176.331	-132.583	28.886	0.00038422	0.00036994	6.6767e-05	1235.2	2.9965e-06	2.7983e-06	1306.8	258.06	4.6174e-06	3.3916e-06	320.07	90.044	70.694	20.508	2.3682e-06	28.87	0.00026728	0.00018927	5.0651e-05	1220.1	2.5188e-06	2.1105e-06	1295.3	255.97	2.3396e-06	2.0399e-06	319.22	89.986	70.558	20.668	2.0998e-06	29.149	157.625	-75.297	-90.234	-156.664	-54.032	-14.632	-156.806	-149.994	-67.098	-2.782	-149.555	-144.091	-144.122	-136.695	-29.878	-136.414	-8191	255	
27028.150	1	1	0	0	0.34635	0.22926	0.17439	0.14555	0.062153	0.3689	0.13464	0.47866	0.10132	0.18417	0.31	0.057214	0.037225	0.14255	0.09452	0.13226	-1.8375	-2.2583	-2.5604	-2.6083	-2.7687	-2.5042	-2.5667	-2.6583	-2.3667	-2.4521	-2.6312	-2.1958	-2.5771	-2.5938	-2.3438	-2.5646	71.527	-142.235	130.386	-163.161	-54.307	59.208	138.006	82.292	-117.976	-95.635	102.482	-157.380	159.393	37.351	77.421	-35.762	0.00038392	0.00033271	0.00010084	1237.3	2.9854e-06	3.1084e-06	1301.7	258.98	3.6359e-06	3.9004e-06	320.51	89.842	71.058	20.493	2.0812e-06	28.81	0.0002708	0.00018058	4.6498e-05	1220	2.4535e-06	2.0272e-06	1293.1	255.96	2.2801e-06	1.9926e-06	319.09	89.847	70.805	20.678	2.0316e-06	29.126	158.638	-65.736	-83.354	-156.767	-59.628	-6.371	-156.974	-150.121	-46.884	-2.858	-150.015	-144.512	-143.554	-136.361	-33.354	-136.505	-8191	255	
27028.271	1	1	0	0	0.2878	0.20266	0.17529	0.107	0.20695	0.16945	0.31459	0.090669	0.044483	0.169	0.13854	0.13174	0.19857	0.13355	0.13352	0.066165	-1.6875	-2.35	-2.525	-2.3896	-2.6562	-2.3792	-2.3792	-2.6292	-2.3333	-2.4271	-2.8271	-2.3979	-2.7667	-2.6542	-2.1375	-2.5687	33.672	-12.798	71.163	61.229	88.575	77.016	166.803	12.340	-161.879	-10.205	-14.910	8.495	-91.842	80.216	123.414	3.330	0.0003812	0.00034124	9.0329e-05	1235.7	2.9233e-06	2.8761e-06	1304.8	258.83	2.646e-06	3.7242e-06	319.77	89.209	71.025	20.415	2.688e-06	28.685	0.0002663	0.00017323	5.2711e-05	1219.1	2.5188e-06	2.0173e-06	1293	255.86	2.4067e-06	2.0301e-06	318.76	89.624	70.529	20.623	2.0841e-06	29.02	157.612	-75.394	-82.932	-156.656	-58.022	-21.224	-156.794	-149.862	-59.021	-7.023	-150.191	-144.133	-143.491	-136.153	-28.799	-136.791	-8191	255	
27028.367	1	1	0	0	0.12789	0.18853	0.35077	0.20545	0.18735	0.24598	0.40329	0.016914	0.18838	0.12229	0.3377	0.13845	0.1211	0.060019	0.050737	0.27988	-1.9021	-2.3625	-2.6437	-2.3646	-2.5875	-2.6708	-2.3458	-2.6792	-2.3354	-2.3083	-2.8104	-2.4229	-2.6583	-2.6	-2.3063	-2.675	-64.966	-110.976	-72.783	116.387	-3.841	-138.371	160.313	167.479	-86.365	75.398	107.016	106.345	-95.771	-54.902	-124.294	18.048	0.00040169	0.00030215	0.00010319	1235.8	2.6719e-06	2.6014e-06	1309.8	256.67	3.9992e-06	3.1561e-06	319.15	89.8	70.363	20.449	2.4996e-06	28.529	0.00027117	0.00016997	5.1779e-05	1217.2	2.4056e-06	1.9684e-06	1292.4	254.9	2.2575e-06	1.9834e-06	318.02	89.738	70.407	20.613	2.1082e-06	29.012	157.959	-67.974	-72.821	-156.534	-51.793	-3.146	-156.617	-150.013	-71.905	-9.506	-150.063	-143.992	-143.700	-136.141	-27.016	-136.660	-8191	255	
27028.463	1	1	0	0	0.28986	0.17997	0.019258	0.3045	0.17154	0.22455	0.29124	0.10931	0.084397	0.040639	0.24122	0.26857	0.070153	0.090105	0.27156	0.15502	-1.9688	-2.3312	-2.6792	-2.5979	-2.5812	-2.7479	-2.5083	-2.6958	-2.6083	-2.2604	-2.875	-2.575	-2.6479	-2.7208	-2.2021	-2.7812	-66.614	-72.013	126.620	181.574	-105.003	-134.373	109.746	-146.288	-89.835	146.547	-78.709	145.941	64.995	167.842	102.311	132.348	0.00037736	0.00028952	0.00011767	1230	3.1009e-06	2.544e-06	1303.7	258.28	4.7538e-06	4.3045e-06	320.14	89.32	70.561	20.388	2.4194e-06	28.521	0.00025632	0.00018099	4.9784e-05	1214.3	2.4524e-06	1.8528e-06	1289.9	255.38	2.3113e-06	1.9329e-06	318.56	89.678	70.48	20.592	1.9985e-06	29.073	156.872	-69.167	-68.673	-156.838	-49.900	-8.261	-156.856	-150.125	-53.293	-5.230	-149.891	-144.338	-143.694	-136.288	-34.391	-136.700	-8191	255	
27028.559	1	1	0	0	0.11178	0.32727	0.09444	0.31639	0.2456	0.10609	0.31666	0.29478	0.13966	0.26291	0.1915	0.097603	0.2091	0.091783	0.054271	0.17124	-1.9521	-2.2979	-2.6771	-2.6479	-2.3708	-2.6833	-2.4104	-2.6042	-2.8375	-2.1375	-2.7479	-2.3271	-2.4104	-2.7375	-2.4375	-2.5854	180.082	-128.946	41.094	-149.425	174.427	-159.865	158.146	-63.180	-119.543	10.130	97.999	106.590	-128.810	131.667	60.174	-81.947	0.00037805	0.00025261	8.5325e-05	1233.9	2.7404e-06	2.971e-06	1302.5	256.89	3.7172e-06	4.0959e-06	318.1	89.231	70.916	20.488	2.9697e-06	28.662	0.00026017	0.00018612	5.2122e-05	1215.6	2.5205e-06	1.8614e-06	1288.4	255.2	2.2616e-06	1.9999e-06	318.08	89.596	70.608	20.696	2.1203e-06	29.043	158.554	-73.028	-89.177	-156.549	-55.882	-21.990	-156.853	-150.198	-56.038	-13.002	-150.176	-143.913	-144.020	-136.172	-28.103	-136.927	-8191	255	
27028.654	1	1	0	0	0.37993	0.17408	0.12229	0.3685	0.13595	0.161	0.19214	0.30719	0.18091	0.071713	0.14033	0.18384	0.20036	0.23162	0.20334	0.37865	-2.1583	-2.2292	-2.5229	-2.5896	-2.2917	-2.6937	-2.5292	-2.6292	-2.6708	-2.2729	-2.8042	-2.5687	-2.2375	-2.875	-2.1708	-2.3771	179.337	138.624	-25.077	175.059	-67.914	5.564	140.943	104.466	-79.103	7.099	109.404	-137.231	90.455	125.402	-82.447	-164.711	0.00036471	0.00025797	8.1255e-05	1231.5	2.3998e-06	3.8368e-06	1302.8	257.99	4.0888e-06	2.9517e-06	319.54	89.235	70.441	20.53	3.1186e-06	28.663	0.00025232	0.00020012	4.8902e-05	1215.4	2.6286e-06	1.9381e-06	1290.1	255.47	2.3344e-06	2.0655e-06	318	89.609	70.342	20.661	2.3037e-06	29.051	158.681	-65.935	-94.380	-156.672	-51.805	-13.943	-156.986	-149.624	-50.093	-13.726	-149.990	-144.246	-143.801	-136.393	-11.304	-136.760	-8191	255	
27028.752	1	1	0	0	0.13528	0.037785	0.32681	0.13136	0.14128	0.12546	0.32162	0.080069	0.10745	0.39232	0.25658	0.088225	0.48247	0.032535	0.30512	0.10101	-2.2208	-2.3917	-2.4167	-2.5917	-2.1729	-2.7667	-2.6833	-2.6167	-2.7229	-2.4667	-2.725	-2.3312	-2.1729	-2.6958	-2.4979	-2.4062	-57.391	-159.989	131.611	139.733	48.230	185.197	105.687	-145.083	84.120	-78.088	95.092	118.120	146.374	-78.779	-113.166	-150.887	0.00040878	0.00045187	9.4971e-05	1236.7	2.7115e-06	2.7463e-06	1303.6	258.73	3.9175e-06	3.2356e-06	320.35	89.187	70.586	20.389	3.467e-06	28.638	0.00026823	0.00019184	5.4624e-05	1217.9	2.5857e-06	1.8165e-06	1291.8	255.88	2.143e-06	2.2212e-06	318.64	89.515	70.603	20.654	2.2554e-06	29.06	158.311	-86.660	-87.033	-156.578	-46.658	-31.792	-156.986	-149.804	-59.442	-17.842	-149.863	-144.030	-143.803	-136.295	-26.992	-136.560	-8191	255	
27028.848	1	1	0	0	0.15403	0.026614	0.1363	0.33935	0.15688	0.092283	0.1299	0.30683	0.22594	0.063475	0.36744	0.23402	0.037308	0.11664	0.066022	0.017511	-2.2792	-2.2	-2.5875	-2.7771	-2.2729	-2.6729	-2.6229	-2.3875	-2.6083	-2.3875	-2.5687	-2.4917	-2.2313	-2.6937	-2.4604	-2.4	155.567	-49.385	168.344	128.390	-150.177	29.594	120.656	181.852	162.610	178.918	114.388	124.208	129.347	119.817	26.861	-81.911	0.00036272	0.00030077	0.00011419	1238.7	2.9242e-06	3.1654e-06	1305.5	257.23	3.4515e-06	3.4108e-06	319.76	89.176	70.967	20.588	3.0255e-06	28.687	0.00026068	0.00019837	5.0177e-05	1218.4	2.5991e-06	2.0418e-06	1291.6	255.26	2.2575e-06	2.0708e-06	318.5	89.587	70.537	20.671	2.0696e-06	29.045	159.530	-68.655	-70.204	-156.977	-50.252	7.552	-156.741	-149.847	-55.056	-10.935	-149.902	-144.201	-143.739	-136.175	-23.752	-136.738	-8191	255	
27028.967	1	1	0	0	0.090745	0.34879	0.019594	0.24534	0.26419	0.15114	0.1385	0.32455	0.18452	0.18959	0.037046	0.21943	0.32058	0.21347	0.15072	0.038314	-2.2812	-2.2062	-2.4667	-2.7396	-2.2042	-2.4896	-2.7375	-2.3563	-2.6833	-2.3063	-2.4354	-2.7542	-2.3042	-2.4938	-2.3958	-2.4062	-74.925	47.281	33.366	105.746	178.328	130.506	54.303	156.670	72.101	93.674	-115.440	132.715	116.313	159.204	75.234	60.820	0.00037279	0.00037087	0.00010558	1235.3	2.6e-06	3.7134e-06	1302.5	258.38	3.1171e-06	3.697e-06	319.32	89.563	70.622	20.553	2.2309e-06	28.574	0.00026498	0.0001877	4.8967e-05	1216.8	2.6303e-06	1.9783e-06	1292.4	255.48	2.265e-06	2.1457e-06	318.46	89.598	70.392	20.656	1.9954e-06	29.103	158.988	-76.324	-94.192	-156.608	-55.485	14.194	-156.932	-149.926	-56.094	-29.520	-149.907	-144.250	-143.380	-136.301	-46.387	-136.234	-8191	255	
27029.062	1	1	0	0	0.14851	0.15508	0.1573	0.2807	0.07912	0.20289	0.1829	0.1073	0.12201	0.16098	0.21175	0.043764	0.20672	0.08992	0.099597	0.24821	-2.3792	-2.2562	-2.4104	-2.875	-2.2604	-2.8292	-2.6708	-2.6625	-2.7958	-2.5062	-2.6458	-2.8833	-2.4417	-2.5187	-2.4729	-2.2812	-162.596	19.135	73.530	161.714	-75.330	136.290	62.917	181.511	-10.055	88.935	181.684	-100.997	-149.240	128.038	69.727	129.483	0.00038958	0.00032468	3.9551e-05	1233	3.2151e-06	3.1157e-06	1304.6	256.8	4.4142e-06	3.1557e-06	320.39	89.686	70.578	20.497	2.4331e-06	28.486	0.00026241	0.00018326	4.6629e-05	1217.8	2.6097e-06	1.8575e-06	1290.1	254.66	2.4345e-06	2.0255e-06	317.96	89.587	70.538	20.628	1.9846e-06	29.017	159.002	-77.556	-87.303	-156.606	-48.922	-1.455	-156.882	-150.259	-66.716	-9.608	-150.058	-144.075	-143.638	-136.243	-15.853	-136.312	-8191	255	
27029.160	1	1	0	0	0.23413	0.067437	0.28828	0.3056	0.19236	0.22263	0.19039	0.19047	0.20657	0.2008	0.052502	0.14478	0.28397	0.12509	0.16622	0.24327	-2.25	-2.4437	-2.2729	-2.8042	-2.2812	-2.5396	-2.6167	-2.3896	-2.625	-2.6354	-2.5354	-2.6625	-2.2667	-2.5521	-2.6312	-2.3104	177.042	22.797	88.283	120.889	-62.610	-28.671	104.943	160.484	96.176	-1.427	-150.103	-99.978	-115.151	137.003	121.978	-4.036	0.00039173	0.00028233	0.0001038	1233.6	2.9937e-06	3.1868e-06	1308.6	256.88	3.5751e-06	2.2509e-06	319.72	89.715	70.411	20.499	2.5971e-06	28.76	0.00025547	0.0001765	4.9605e-05	1217	2.7207e-06	1.8799e-06	1293.1	255.21	2.2072e-06	1.8626e-06	318.13	89.857	70.414	20.678	2.1143e-06	29.178	158.527	-74.301	-77.439	-156.527	-69.224	-4.000	-156.911	-149.928	-58.924	-37.641	-149.751	-144.188	-143.547	-135.974	-35.142	-136.474	-8191	255	
27029.230	1	1	0	0	0.34305	0.26287	0.11117	0.064794	0.18894	0.10788	0.18776	0.22117	0.14638	0.21561	0.32517	0.15584	0.067163	0.14443	0.14848	0.18765	-2.1063	-2.4458	-2.2667	-2.7333	-2.1937	-2.4854	-2.7292	-2.3854	-2.3875	-2.475	-2.4208	-2.7333	-2.5687	-2.3271	-2.6354	-2.3312	153.498	157.841	-160.561	130.881	-84.242	-162.720	76.528	-139.929	140.082	-145.035	147.712	-142.909	-40.452	168.486	-50.323	81.220	0.00039525	0.00033338	8.4077e-05	1237.5	3.4836e-06	3.388e-06	1302.9	257.56	4.5769e-06	2.5012e-06	320.53	89.402	70.48	20.433	2.3321e-06	28.612	0.00025621	0.00018956	5.2891e-05	1218.7	2.6855e-06	1.9711e-06	1291.5	255.23	2.3032e-06	1.8705e-06	318.19	89.588	70.467	20.6	1.8844e-06	29.068	159.303	-63.125	-71.116	-156.764	-35.175	-24.888	-156.838	-150.026	-69.445	0.265	-149.761	-144.156	-143.976	-135.821	-12.802	-136.501	-8191	255	
27029.352	1	1	0	0	0.12856	0.063862	0.20629	0.29281	0.32122	0.32036	0.35563	0.11609	0.16379	0.040307	0.10102	0.057613	0.21392	0.30648	0.092904	0.14363	-2.0125	-2.3854	-2.1271	-2.7625	-2.2833	-2.1813	-2.85	-2.3333	-2.3396	-2.7083	-2.3771	-2.8083	-2.4	-2.2583	-2.6354	-2.4208	38.185	-160.302	142.665	160.123	-32.454	-165.865	134.701	-62.220	-97.276	-42.310	-81.125	10.534	73.945	168.965	127.813	11.893	0.00040177	0.0002756	8.5756e-05	1233.5	2.6819e-06	3.6368e-06	1302.4	258.07	3.631e-06	3.9941e-06	319.39	89.213	70.479	20.359	2.0597e-06	28.636	0.00025445	0.00018513	5.2139e-05	1216.7	2.4318e-06	2.1263e-06	1289.7	255	2.1794e-06	1.9099e-06	318.61	89.649	70.444	20.58	1.9315e-06	29.1	158.249	-71.086	-80.131	-156.739	-56.793	-36.192	-156.821	-149.803	-49.028	-26.029	-150.063	-144.066	-143.718	-136.267	-27.666	-136.778	-8191	255	
27029.445	1	1	0	0	0.17155	0.062945	0.22253	0.26707	0.16098	0.24976	0.13033	0.20054	0.040991	0.17493	0.21479	0.28851	0.20622	0.15194	0.044042	0.14423	-2.0312	-2.5042	-2.1271	-2.7375	-2.4229	-2.2042	-2.8229	-2.4729	-2.5438	-2.6562	-2.3375	-2.6854	-2.3458	-2.4333	-2.8208	-2.3104	-127.916	-78.523	188.384	94.836	-102.653	141.978	171.389	98.246	37.566	178.368	-167.750	163.032	-126.663	-18.297	-153.204	-102.745	0.00040014	0.00027868	9.1894e-05	1229.6	2.9722e-06	3.2375e-06	1309.4	255.98	4.2166e-06	3.7017e-06	318.3	89	70.35	20.48	2.5722e-06	28.727	0.00026637	0.00018081	5.4362e-05	1213.6	2.6844e-06	1.9427e-06	1291.4	254.51	2.2523e-06	1.7752e-06	317.55	89.534	70.26	20.648	1.9683e-06	29.078	158.011	-53.856	-77.882	-156.808	-48.244	-4.465	-157.006	-150.054	-61.242	-26.080	-150.020	-144.377	-143.278	-135.909	-21.510	-136.583	-8191	255	
27029.543	1	1	0	0	0.13006	0.16505	0.14678	0.36066	0.087855	0.24282	0.30122	0.21535	0.19741	0.20966	0.043595	0.14211	0.28668	0.17992	0.051327	0.20236	-2.0625	-2.4688	-2.2438	-2.6167	-2.4958	-2.4292	-2.775	-2.4708	-2.4042	-2.6562	-2.4479	-2.6229	-2.7208	-2.25	-2.7687	-2.4104	-122.337	-136.877	87.711	110.607	-164.185	-15.748	173.281	-134.170	-12.268	-133.483	127.455	-89.838	189.774	155.583	-53.148	-25.504	0.00039068	0.00026228	8.7524e-05	1233.1	2.3138e-06	2.5556e-06	1307.6	256.41	4.0991e-06	2.9827e-06	319.08	89.177	70.266	20.508	3.1091e-06	28.607	0.00025605	0.00018081	5.2744e-05	1215.9	2.5127e-06	2.0834e-06	1289.8	254.9	2.331e-06	1.8757e-06	317.74	89.53	70.378	20.646	2.0461e-06	29.076	155.989	-75.106	-70.961	-156.690	-54.625	-10.074	-157.044	-149.882	-52.795	-11.220	-150.053	-143.832	-143.749	-135.825	-32.922	-137.073	-8191	255	
27029.641	1	1	0	0	0.31986	0.16297	0.086521	0.11307	0.27226	0.19317	0.096745	0.34595	0.24801	0.068961	0.22213	0.25406	0.24925	0.12638	0.14666	0.0961	-1.9875	-2.5625	-2.2417	-2.7271	-2.675	-2.0375	-2.8688	-2.4292	-2.2542	-2.5958	-2.3583	-2.5771	-2.4625	-2.2708	-2.6125	-2.5812	-75.007	96.114	88.931	132.803	-148.366	-115.459	-112.988	87.220	-59.894	168.405	-151.895	172.685	-156.734	102.752	-146.144	-50.462	0.00036371	0.00018375	7.7067e-05	1233	2.136e-06	2.993e-06	1299.5	256.83	2.5649e-06	4.5442e-06	318.05	89.557	70.482	20.468	1.885e-06	28.722	0.00025107	0.00016787	5.2564e-05	1214.7	2.3788e-06	1.9731e-06	1289.3	254.66	2.1765e-06	1.9092e-06	317.64	89.355	70.389	20.629	2.0135e-06	29.086	159.125	-90.269	-80.987	-156.607	-64.268	-27.181	-156.721	-150.386	-57.684	-12.476	-149.833	-144.051	-143.904	-136.327	-5.089	-136.624	-8191	255	
#DATA ENDS
