BOXY.EXE: ISS Imagent and Oximeter Data Acquisition Program Version 0.80
Ascii Record File

#ACQ INFORMATION
2  Detector Channels 
16  External MUX Channels 
1  Auxiliary Channels 
5000  Waveform (CCF) Frequency (Hz)
1  Waveforms Skipped 
30  Waveforms Averaged 
1  Cycles Averaged 
16  Acquisitions per Waveform 
10.0806  Updata Rate (Hz) 

#FILE INFORMATION
TRUE -- External MUX Channel results are PARSED.
FALSE -- AC DC and Phase are NOT grouped.
TRUE -- Companion Program Settings File CREATED.
FALSE -- AC data not excluded
FALSE -- DC data not excluded
FALSE -- Phase data not excluded
FALSE -- Auxillary Chn. data not excluded
Tab delimiters

#CALIBRATION STATE
TRUE -- Waveform Calibration Values APPLIED.


#AUX CALIBRATION VALUES
Val Type	aux-1	

Term	1.0000e+00	
Factor	0.0000e+00	


#WF CALIBRATION VALUES
A = Detector Channel
Val Type	A-AC1	A-AC2	A-AC3	A-AC4	A-AC5	A-AC6	A-AC7	A-AC8	A-AC9	A-AC10	A-AC11	A-AC12	A-AC13	A-AC14	A-AC15	A-AC16	A-DC1	A-DC2	A-DC3	A-DC4	A-DC5	A-DC6	A-DC7	A-DC8	A-DC9	A-DC10	A-DC11	A-DC12	A-DC13	A-DC14	A-DC15	A-DC16	A-Ph1	A-Ph2	A-Ph3	A-Ph4	A-Ph5	A-Ph6	A-Ph7	A-Ph8	A-Ph9	A-Ph10	A-Ph11	A-Ph12	A-Ph13	A-Ph14	A-Ph15	A-Ph16	

Term	0.00000e+00	0.00000e+00	0.00000e+00	0.00000e+00	0.00000e+00	0.00000e+00	0.00000e+00	0.00000e+00	0.00000e+00	0.00000e+00	0.00000e+00	0.00000e+00	0.00000e+00	0.00000e+00	0.00000e+00	0.00000e+00	0.00000e+00	0.00000e+00	0.00000e+00	0.00000e+00	0.00000e+00	0.00000e+00	0.00000e+00	0.00000e+00	0.00000e+00	0.00000e+00	0.00000e+00	0.00000e+00	0.00000e+00	0.00000e+00	0.00000e+00	0.00000e+00	0.00000e+00	0.00000e+00	0.00000e+00	0.00000e+00	0.00000e+00	0.00000e+00	0.00000e+00	0.00000e+00	0.00000e+00	0.00000e+00	0.00000e+00	0.00000e+00	0.00000e+00	0.00000e+00	0.00000e+00	0.00000e+00	
Factor	1.00000e+00	1.00000e+00	1.00000e+00	1.00000e+00	1.00000e+00	1.00000e+00	1.00000e+00	1.00000e+00	1.00000e+00	1.00000e+00	1.00000e+00	1.00000e+00	1.00000e+00	1.00000e+00	1.00000e+00	1.00000e+00	1.00000e+00	1.00000e+00	1.00000e+00	1.00000e+00	1.00000e+00	1.00000e+00	1.00000e+00	1.00000e+00	1.00000e+00	1.00000e+00	1.00000e+00	1.00000e+00	1.00000e+00	1.00000e+00	1.00000e+00	1.00000e+00	X	X	X	X	X	X	X	X	X	X	X	X	X	X	X	X	

B = Detector Channel
Val Type	B-AC1	B-AC2	B-AC3	B-AC4	B-AC5	B-AC6	B-AC7	B-AC8	B-AC9	B-AC10	B-AC11	B-AC12	B-AC13	B-AC14	B-AC15	B-AC16	B-DC1	B-DC2	B-DC3	B-DC4	B-DC5	B-DC6	B-DC7	B-DC8	B-DC9	B-DC10	B-DC11	B-DC12	B-DC13	B-DC14	B-DC15	B-DC16	B-Ph1	B-Ph2	B-Ph3	B-Ph4	B-Ph5	B-Ph6	B-Ph7	B-Ph8	B-Ph9	B-Ph10	B-Ph11	B-Ph12	B-Ph13	B-Ph14	B-Ph15	B-Ph16	

Term	0.00000e+00	0.00000e+00	0.00000e+00	0.00000e+00	0.00000e+00	0.00000e+00	0.00000e+00	0.00000e+00	0.00000e+00	0.00000e+00	0.00000e+00	0.00000e+00	0.00000e+00	0.00000e+00	0.00000e+00	0.00000e+00	0.00000e+00	0.00000e+00	0.00000e+00	0.00000e+00	0.00000e+00	0.00000e+00	0.00000e+00	0.00000e+00	0.00000e+00	0.00000e+00	0.00000e+00	0.00000e+00	0.00000e+00	0.00000e+00	0.00000e+00	0.00000e+00	-1.74148e+02	-1.27087e+02	-1.30125e+02	-1.81316e+02	-8.55190e+01	-6.66878e+01	-1.57075e+02	-1.62015e+02	-8.14386e+01	-6.69092e+01	-1.71893e+02	-1.70622e+02	-1.79843e+02	-1.76980e+02	-7.36244e+01	-1.49926e+02	
Factor	3.06324e-05	1.62235e-04	4.72445e-05	1.48920e-01	1.49831e-06	1.76165e-06	1.72106e-01	6.28372e-02	1.68338e-06	1.86821e-06	8.65051e-02	2.99025e-02	3.08083e-02	9.61349e-03	1.55958e-06	1.36815e-02	1.62461e-05	2.79970e-05	7.84780e-06	7.48325e-02	2.67660e-07	3.17064e-07	8.15900e-02	3.16269e-02	2.77634e-07	3.15248e-07	4.25007e-02	1.47081e-02	1.57617e-02	4.89367e-03	2.89544e-07	6.76532e-03	X	X	X	X	X	X	X	X	X	X	X	X	X	X	X	X	



#DISTANCE SETTINGS
A = Detector Channel
A-1	A-2	A-3	A-4	A-5	A-6	A-7	A-8	A-9	A-10	A-11	A-12	A-13	A-14	A-15	A-16	

2.5000e+00	3.0000e+00	2.5000e+00	3.0000e+00	2.0000e+00	3.0000e+00	1.5000e+00	3.0000e+00	3.0000e+00	3.0000e+00	3.0000e+00	3.0000e+00	3.0000e+00	3.0000e+00	1.5000e+00	3.0000e+00	

B = Detector Channel
B-1	B-2	B-3	B-4	B-5	B-6	B-7	B-8	B-9	B-10	B-11	B-12	B-13	B-14	B-15	B-16	

1.0000e+01	1.0000e+01	1.0000e+01	1.4400e+00	1.0000e+01	1.0000e+01	1.5100e+00	1.9400e+00	1.0000e+01	1.0000e+01	1.9900e+00	2.4900e+00	2.4100e+00	2.9000e+00	1.0000e+01	2.9800e+00	




#DATA BEGINS
time	group	step	mark	flag	A-AC1	A-AC2	A-AC3	A-AC4	A-AC5	A-AC6	A-AC7	A-AC8	A-AC9	A-AC10	A-AC11	A-AC12	A-AC13	A-AC14	A-AC15	A-AC16	A-DC1	A-DC2	A-DC3	A-DC4	A-DC5	A-DC6	A-DC7	A-DC8	A-DC9	A-DC10	A-DC11	A-DC12	A-DC13	A-DC14	A-DC15	A-DC16	A-Ph1	A-Ph2	A-Ph3	A-Ph4	A-Ph5	A-Ph6	A-Ph7	A-Ph8	A-Ph9	A-Ph10	A-Ph11	A-Ph12	A-Ph13	A-Ph14	A-Ph15	A-Ph16	B-AC1	B-AC2	B-AC3	B-AC4	B-AC5	B-AC6	B-AC7	B-AC8	B-AC9	B-AC10	B-AC11	B-AC12	B-AC13	B-AC14	B-AC15	B-AC16	B-DC1	B-DC2	B-DC3	B-DC4	B-DC5	B-DC6	B-DC7	B-DC8	B-DC9	B-DC10	B-DC11	B-DC12	B-DC13	B-DC14	B-DC15	B-DC16	B-Ph1	B-Ph2	B-Ph3	B-Ph4	B-Ph5	B-Ph6	B-Ph7	B-Ph8	B-Ph9	B-Ph10	B-Ph11	B-Ph12	B-Ph13	B-Ph14	B-Ph15	B-Ph16	aux-1	digaux	

28142.090	1	1	0	512	0.25305	0.12402	0.15847	0.040815	0.1859	0.19618	0.052422	0.13475	0.16808	0.15591	0.3066	0.06219	0.18897	0.11471	0.1786	0.12279	-1.6	-2.0896	-2.1312	-2.0042	-2.3083	-2.1083	-2.075	-2.3042	-1.925	-2.0917	-2.1521	-2.0083	-2.0021	-2.2854	-1.8271	-2.2729	429.080	222.927	489.423	190.348	479.057	363.813	364.949	463.179	509.905	336.513	380.750	327.737	399.741	520.571	415.097	336.048	0.00045601	0.00013262	3.7784e-05	268.32	1.6447e-06	1.4927e-06	240.58	99.324	1.5363e-06	2.211e-06	103.75	32.012	32.424	8.5181	1.2636e-06	9.1035	0.0022186	3.7213e-05	9.7443e-06	282.31	4.9907e-07	3.7189e-07	263.25	104.71	9.3933e-07	4.6959e-07	110.13	35.883	34.35	9.079	8.6984e-07	9.717	199.359	270.492	261.854	185.508	269.677	287.811	184.444	190.720	275.743	336.314	188.319	191.352	194.492	199.273	288.037	195.763	-8191	255	
28142.186	1	1	0	0	0.17008	0.079974	0.1823	0.42483	0.042119	0.052398	0.032761	0.10323	0.21576	0.21593	0.20833	0.27771	0.096831	0.22587	0.071695	0.044355	-1.4333	-2.0521	-2.3708	-1.9937	-2.2604	-2.1708	-1.9125	-2.4771	-1.8312	-1.9937	-2.2375	-1.725	-2.3167	-2.1167	-1.8771	-2.3667	285.056	386.183	362.216	464.205	470.374	350.967	210.381	475.937	183.784	308.801	424.785	512.992	518.436	193.806	451.184	431.977	0.00028089	0.00010981	5.2361e-05	268.84	1.3003e-06	1.3083e-06	238.55	98.381	1.9012e-06	8.6689e-07	103.63	31.815	32.076	8.6214	1.2531e-06	9.1365	0.0017584	4.6778e-05	8.4037e-06	283.3	4.3718e-07	4.0228e-07	264.09	104.16	7.7795e-07	4.1245e-07	109	35.038	34.006	9.1818	1.0798e-06	9.7482	219.628	262.355	270.092	185.268	302.872	304.859	183.920	190.758	296.283	347.076	188.442	191.527	194.146	198.758	295.050	195.738	-8191	255	
28142.279	1	1	0	0	0.11792	0.0088974	0.072867	0.096486	0.14961	0.11395	0.19816	0.070312	0.113	0.18281	0.24439	0.090443	0.089598	0.17893	0.16974	0.16515	-1.6354	-2.0687	-2.3854	-2.0229	-2.175	-2.0375	-1.7417	-2.1937	-2.0104	-2.0167	-2.5417	-1.8521	-1.9833	-2.2792	-1.9542	-2.3917	447.056	180.352	484.800	425.403	513.638	480.696	380.024	191.606	400.073	201.803	504.750	392.966	237.381	244.796	321.831	245.198	0.00030618	0.00090833	4.9481e-05	270.14	1.2648e-06	1.3148e-06	238.94	98.72	1.3686e-06	1.1769e-06	101.88	31.234	31.738	8.6256	1.2813e-06	8.9405	0.0008537	0.0018082	9.3847e-06	283.75	5.8104e-07	3.4811e-07	261.66	104.07	5.7609e-07	9.2473e-07	107.77	34.692	33.531	9.207	9.2352e-07	9.6222	230.944	221.895	245.091	185.624	277.930	318.671	184.268	190.764	291.307	327.293	188.329	190.996	194.443	198.980	289.323	195.835	-8191	255	
28142.400	1	1	0	0	0.33527	0.29364	0.26269	0.14639	0.17795	0.04821	0.21158	0.17452	0.20958	0.082437	0.37851	0.16471	0.16323	0.155	0.051545	0.30201	-1.5229	-1.7437	-2.3021	-2.0896	-2.0917	-2.3271	-1.8687	-2.2062	-2.0229	-1.9167	-2.4208	-1.8854	-2.0979	-2.3521	-1.8667	-2.1312	450.736	477.125	350.503	423.678	284.746	489.237	205.394	205.419	384.515	239.970	521.594	258.318	358.699	258.522	268.528	525.345	0.00015215	0.0016212	3.6787e-05	273.41	1.3414e-06	1.6502e-06	239.08	98.507	1.4384e-06	1.1723e-06	101.12	30.409	31.031	8.5801	9.0109e-07	8.9266	8.1704e-05	0.0030202	7.4718e-06	287.14	6.0502e-07	3.1905e-07	264.59	104.14	5.5758e-07	8.2753e-07	106.54	33.573	33.021	9.0929	9.3559e-07	9.4697	511.338	290.484	261.282	185.594	252.595	313.943	183.925	190.700	285.571	332.936	188.164	191.775	194.345	199.457	286.827	195.332	-8191	255	
28142.496	1	1	0	0	0.079103	0.27645	0.069453	0.086622	0.19017	0.098069	0.21228	0.099134	0.13884	0.076841	0.1107	0.29252	0.15649	0.2525	0.1616	0.13306	-1.7854	-1.8563	-2.3292	-2.2	-2.0604	-2.3792	-2.0542	-2.3563	-2.2229	-1.9104	-2.2812	-1.8813	-1.9771	-2.4542	-1.8687	-2.0479	256.522	234.578	286.588	245.752	336.653	256.019	458.396	399.246	379.942	260.708	274.331	281.785	276.877	421.726	455.876	409.591	0.00015806	0.0022071	3.5359e-05	270.07	1.0146e-06	1.6056e-06	237.51	98.057	1.2373e-06	1.7362e-06	101.11	30.401	31.328	8.3512	1.4204e-06	8.8455	8.5901e-05	0.0037008	9.8097e-06	284.13	6.2789e-07	2.9593e-07	259.94	103.5	5.1825e-07	9.5428e-07	106.61	32.729	34.139	8.9033	7.7755e-07	9.4605	517.264	294.147	261.572	185.404	284.346	321.051	183.892	190.536	283.690	322.852	188.297	192.037	193.438	199.304	314.246	195.691	-8191	255	
28142.570	1	1	0	0	0.058921	0.21974	0.10792	0.24813	0.13899	0.12097	0.11449	0.081265	0.075281	0.12678	0.022688	0.29564	0.17071	0.047732	0.10545	0.023176	-1.925	-1.7771	-2.2521	-2.2729	-2.0208	-2.5042	-2.0833	-2.1833	-2.1875	-1.8875	-2.4646	-2.1396	-1.9188	-2.4417	-1.9375	-2.1271	469.095	342.193	267.457	478.679	335.960	487.767	342.588	421.557	403.561	467.642	517.140	449.143	260.413	260.622	379.982	509.271	0.0001514	0.0017134	4.1107e-05	268.7	8.8436e-07	1.4986e-06	237.11	98.412	1.5503e-06	1.234e-06	102.39	31.025	31.756	8.4566	9.2799e-07	8.9394	8.2551e-05	0.003126	7.4881e-06	282.71	9.6302e-07	2.9989e-07	262.65	103.75	5.4081e-07	7.6054e-07	107.88	32.761	35.214	9.0077	8.6441e-07	9.5973	514.514	294.193	240.145	185.266	285.309	302.810	183.794	190.631	292.877	313.802	188.255	191.757	193.914	199.231	301.397	196.267	-8191	255	
28142.689	1	1	0	0	0.25143	0.19526	0.17209	0.084324	0.27264	0.062286	0.05947	0.068328	0.12199	0.15632	0.08476	0.20526	0.14214	0.39038	0.065216	0.069253	-1.875	-1.8	-2.1833	-2.1104	-2.0583	-2.4792	-2.0042	-2.125	-2.2417	-1.7292	-2.1813	-2.1625	-1.8479	-2.3896	-2.1167	-2.0854	320.361	365.637	389.152	230.114	462.954	470.972	286.770	329.837	184.768	376.784	374.845	315.741	525.031	233.028	308.227	267.472	0.00015534	0.0020791	3.7097e-05	269.33	1.2659e-06	1.4027e-06	236.72	98.596	1.4423e-06	1.8599e-06	102.16	31.345	32.047	8.4836	1.59e-06	9.1664	8.0384e-05	0.003765	8.6326e-06	282.9	8.4201e-07	2.4969e-07	259.62	103.83	4.9049e-07	8.6168e-07	108.71	33.193	35.83	9.0326	5.6521e-07	9.7506	518.143	305.708	258.232	185.417	293.854	326.453	184.196	190.771	299.159	347.594	188.139	191.881	193.862	199.198	310.852	195.591	-8191	255	
28142.785	1	1	0	0	0.19196	0.25234	0.19412	0.14559	0.098043	0.033243	0.14607	0.079947	0.22524	0.16522	0.10228	0.1979	0.13674	0.28431	0.20445	0.077287	-1.925	-2.0479	-2.1208	-2.1562	-1.7458	-2.2104	-2.2104	-2.0771	-2.4396	-1.9375	-2.1917	-2.1667	-1.9125	-2.2083	-2.1167	-1.9125	357.161	465.985	404.865	419.758	526.577	226.276	479.008	478.141	436.325	360.532	515.445	400.925	379.871	480.408	199.142	418.833	0.00015097	0.0016345	3.0561e-05	267	1.2667e-06	1.3722e-06	239.13	98.401	1.8522e-06	1.0748e-06	102.36	30.894	31.79	8.4674	1.0865e-06	8.8608	8.2686e-05	0.0031055	8.698e-06	282.71	1.0617e-06	2.9461e-07	255.68	106.66	4.5463e-07	7.1325e-07	108.49	32.726	35.144	9.0047	4.1501e-07	9.5428	513.940	305.292	277.661	185.316	278.279	310.859	184.136	190.046	308.306	311.297	188.325	192.378	193.580	199.100	308.030	195.852	-8191	255	
28142.883	1	1	0	0	0.33034	0.096121	0.1925	0.21121	0.14213	0.555	0.075241	0.07754	0.37112	0.1294	0.12014	0.078897	0.091511	0.1001	0.10482	0.076002	-2.1542	-1.7521	-2.1646	-2.2625	-2.0104	-2.2229	-2.1875	-1.8979	-2.375	-2.1042	-2.0896	-2.2625	-1.7896	-2.25	-2.0479	-2.0625	404.191	425.722	361.476	504.841	406.065	367.499	438.036	259.463	373.132	466.624	356.044	444.244	396.462	260.389	191.051	474.090	0.00015042	0.0021041	4.5801e-05	268.4	5.8139e-07	1.331e-06	235.64	97.461	1.7786e-06	1.7881e-06	100.78	30.602	31.519	8.2573	1.1242e-06	8.8137	7.4698e-05	0.0038029	1.3881e-05	282.93	8.632e-07	3.3754e-07	249.16	106.98	5.0726e-07	9.9763e-07	106.94	32.219	35.167	8.8535	4.6508e-07	9.429	512.928	307.792	267.076	185.325	305.422	333.210	184.233	190.252	265.794	332.875	188.325	191.706	194.345	199.433	305.028	195.624	-8191	255	
28142.979	1	1	0	0	0.049879	0.18254	0.43635	0.37419	0.46627	0.12284	0.10246	0.12725	0.15843	0.09287	0.13643	0.14884	0.2644	0.18997	0.10725	0.12957	-2.0438	-1.875	-2.1083	-2.3396	-1.8604	-2.3875	-2.3167	-1.9562	-2.2479	-2.2938	-2.1104	-2.275	-1.9896	-2.2396	-2.1583	-1.6729	305.501	488.704	266.058	211.908	363.127	445.613	504.965	338.305	385.820	327.863	308.558	491.313	203.975	389.398	392.453	527.151	0.00015843	0.0016107	6.2106e-05	266.61	1.5438e-06	1.8629e-06	236.29	97.699	1.333e-06	1.6794e-06	102.04	30.658	31.644	8.391	6.5346e-07	8.8292	7.6323e-05	0.0026718	1.8949e-05	281.09	9.5911e-07	4.4653e-07	250.22	108.01	4.9338e-07	5.4971e-07	107.89	32.53	34.879	8.8837	3.6012e-07	9.4618	508.300	326.487	238.124	185.434	266.432	307.701	184.213	190.091	275.469	346.885	188.308	192.087	194.447	199.253	304.251	196.025	-8191	255	
28143.100	1	1	0	0	0.2379	0.10655	0.23844	0.095695	0.37248	0.13489	0.14649	0.098696	0.16718	0.033626	0.11777	0.082267	0.21212	0.14717	0.072164	0.21952	-1.7479	-2.0312	-1.9854	-2.4521	-1.8563	-2.2021	-2.2583	-2.0896	-2.2417	-1.975	-2.1021	-2.4208	-1.9646	-2.2188	-2.1542	-1.8708	435.683	210.339	529.055	468.609	264.581	483.930	346.378	523.334	509.923	371.604	488.592	460.317	491.829	223.578	390.337	455.096	0.00014325	0.0021391	6.7391e-05	270.2	1.484e-06	6.4055e-07	239.48	98.537	1.9917e-06	1.5353e-06	101.67	30.687	31.422	8.3608	1.0446e-06	8.8398	7.2329e-05	0.00093586	0.00068379	283.92	7.6618e-07	3.6462e-07	251.51	107.58	4.6388e-07	2.522e-07	107.6	32.226	35.172	8.9568	3.5469e-07	9.4145	511.816	332.550	217.524	185.584	284.497	330.317	184.074	190.312	281.709	311.083	188.327	192.069	193.777	199.438	320.205	195.798	-8191	255	
28143.170	1	1	0	0	0.16186	0.13807	0.16135	0.14974	0.017173	0.087223	0.12981	0.021777	0.34762	0.08152	0.083979	0.18535	0.14831	0.22733	0.12722	0.1719	-1.9438	-1.9208	-1.9333	-2.4708	-1.8542	-1.9688	-2.1021	-1.8667	-2.3354	-2.1937	-1.95	-2.2229	-1.9292	-2.0583	-2.2625	-1.9792	354.665	316.656	204.835	176.650	427.791	529.887	300.875	280.309	387.177	349.371	322.222	191.556	312.503	359.645	370.558	357.822	0.00014884	0.00013709	0.00053894	270.17	1.4525e-06	9.1863e-07	239.52	98.156	1.4207e-06	1.068e-06	102.01	30.431	31.394	8.4069	8.2795e-07	8.781	7.876e-05	3.453e-05	0.00089158	284.88	9.8365e-07	4.8286e-07	251.84	108.16	4.6388e-07	3.0014e-07	107.67	32.119	34.36	8.9649	3.8546e-07	9.4136	516.285	261.149	326.011	185.161	298.797	296.602	184.090	190.025	275.650	288.131	188.237	191.495	194.780	198.189	296.733	196.115	-8191	255	
28143.291	1	1	0	0	0.14377	0.27884	0.078693	0.28638	0.28248	0.079949	0.15164	0.12643	0.18491	0.095986	0.03101	0.068612	0.05901	0.14249	0.24461	0.1603	-1.9083	-2.2792	-1.9604	-2.3208	-2.1542	-1.9333	-2.3563	-1.8479	-2.3167	-2.2771	-1.8687	-2.3875	-2.1562	-2.0479	-2.2417	-1.8396	312.607	203.050	177.773	482.965	316.972	289.226	185.688	216.374	478.152	352.837	433.381	227.913	474.998	488.433	496.656	394.823	0.00014896	0.00016147	0.00053633	267.48	1.5828e-06	1.4161e-06	236.67	97.806	1.68e-06	1.4149e-06	101.37	30.5	31.309	8.4411	1.3972e-06	8.8468	8.3803e-05	3.7096e-05	0.0011041	282.08	6.3904e-07	5.5618e-07	248.77	106.81	5.4601e-07	2.6599e-07	107.19	32.268	33.338	9.3687	3.8184e-07	9.4363	506.352	250.745	338.724	185.405	289.328	337.596	184.127	190.109	291.794	338.038	188.305	191.872	194.598	198.495	293.648	195.934	-8191	255	
28143.385	1	1	0	0	0.044773	0.16956	0.078214	0.16812	0.15372	0.28506	0.18411	0.17978	0.28344	0.13436	0.046113	0.079135	0.22943	0.06127	0.17298	0.11128	-1.6229	-2.0396	-1.7333	-2.2542	-2.3	-2.0792	-2.2687	-1.8875	-1.9646	-2.1979	-1.8687	-2.4042	-2.0896	-1.8479	-2.2875	-2.0479	199.045	503.276	211.866	331.257	465.463	505.490	330.142	455.352	495.385	408.759	481.720	532.261	464.926	404.145	513.921	315.400	0.00013682	0.00014065	0.00049383	264.84	1.1232e-06	1.6537e-06	236.64	96.664	1.3562e-06	1.9826e-06	100.25	30.794	30.881	8.4078	9.2378e-07	8.8293	8.2449e-05	4.0887e-05	0.00088744	278.77	4.5781e-07	9.5648e-07	247.76	106.76	7.2532e-07	2.0425e-07	106.59	32.378	32.812	9.4199	3.2634e-07	9.4492	517.296	251.775	336.234	185.545	301.192	342.202	184.214	190.287	303.597	304.876	188.433	192.124	194.055	199.316	305.755	195.885	-8191	255	
28143.480	1	1	0	0	0.13356	0.023884	0.16104	0.16352	0.050551	0.044264	0.40696	0.33509	0.17448	0.37167	0.0096333	0.07293	0.16463	0.097042	0.22901	0.25079	-1.7521	-2.0917	-1.6375	-2.1667	-2.0729	-1.9167	-2.2104	-1.8875	-2.0187	-2.3208	-1.6583	-2.1042	-2.1479	-1.725	-2.3042	-2.0354	269.768	281.435	375.466	506.000	194.689	287.243	381.095	488.370	240.842	487.314	176.146	327.390	206.886	266.616	432.443	361.518	0.00015771	0.0001622	0.00055094	263.75	1.1605e-06	2.1674e-06	235.9	96.544	1.6496e-05	1.5406e-06	101.84	30.876	31.199	8.4515	1.3565e-06	9.0555	9.2704e-05	2.823e-05	0.0010833	277.52	4.0484e-07	7.7813e-07	247.9	104.91	3.2119e-06	2.6139e-07	107.73	32.749	33.01	9.5848	3.8123e-07	9.6665	515.426	266.883	346.782	185.438	278.256	318.001	184.213	190.851	194.572	296.102	188.451	192.028	194.194	198.668	306.889	195.853	-8191	255	
28143.578	1	1	0	0	0.2306	0.084379	0.20604	0.18325	0.21644	0.1568	0.13561	0.12865	0.039261	0.23404	0.076053	0.12659	0.16708	0.010569	0.062558	0.24141	-1.6229	-2.3292	-1.9458	-2.1208	-2.3583	-1.8167	-2.3438	-2.0438	-1.75	-2.1833	-2.1146	-2.1229	-2.4208	-1.8646	-2.2542	-2.0687	257.798	210.460	317.919	487.177	273.657	416.376	501.061	506.562	272.746	210.666	212.337	322.972	503.893	221.496	405.531	186.345	0.00014207	0.00010266	0.00043965	264.43	8.7953e-07	9.7701e-07	236.77	97.081	2.2191e-05	1.3858e-06	102.4	31.578	31.582	8.5056	1.4603e-06	9.09	9.0843e-05	2.5372e-05	0.00084759	277.54	4.4554e-07	9.7695e-07	248.86	103.36	2.6487e-05	2.8438e-07	108.29	33.368	33.378	9.5474	3.3117e-07	9.7807	510.815	266.255	367.571	185.430	274.588	314.932	184.027	190.611	195.639	341.492	188.464	192.057	194.454	198.842	302.148	195.908	-8191	255	
28143.697	1	1	0	0	0.015713	0.18061	0.22382	0.27273	0.084523	0.20111	0.23436	0.2045	0.31182	0.047872	0.13618	0.039858	0.074936	0.26186	0.024836	0.11389	-1.4521	-2.4229	-2.0271	-2.1396	-2.2146	-1.8542	-2.3521	-2.0354	-1.7646	-2.3417	-2.1667	-2.2271	-2.3604	-1.8771	-2.1542	-2.075	502.538	401.606	468.257	391.750	222.955	300.017	435.340	484.497	398.627	216.707	432.394	387.129	506.939	406.628	254.895	237.973	0.00014952	0.00018161	0.000461	263.63	1.1628e-06	1.0509e-06	236.01	98.214	1.4948e-05	1.7282e-06	102.15	31.211	31.548	8.5959	8.3542e-07	9.1922	0.00011156	3.1263e-05	0.0010052	277.44	4.7175e-07	7.8473e-07	248.53	103.35	2.9262e-05	2.036e-07	108.22	33.207	33.408	9.7036	4.2647e-07	9.7634	512.670	274.790	376.552	185.431	283.961	304.665	184.309	190.575	189.219	300.841	188.671	191.573	194.307	199.152	309.112	195.509	-8191	255	
28143.795	1	1	0	0	0.18615	0.23564	0.22698	0.18234	0.18376	0.037704	0.10514	0.1798	0.10904	0.01896	0.10091	0.1296	0.31569	0.20458	0.072684	0.1202	-1.6104	-2.5062	-2.1271	-2.0563	-2.225	-1.9083	-2.1604	-2.1208	-1.9896	-2.3417	-2.0146	-2.0854	-2.2708	-1.8312	-2.2271	-2.4958	300.129	310.097	381.265	417.850	494.565	232.116	408.238	222.876	419.085	529.932	417.745	257.272	182.800	394.721	339.615	241.982	0.00015881	4.95e-05	0.00037362	261.81	1.6951e-06	1.2188e-06	233.93	97.295	1.8211e-05	1.412e-06	101.61	31.521	31.114	8.5675	1.3921e-06	9.1841	0.00010232	2.6072e-05	0.00058628	276.7	4.2881e-07	8.3295e-07	247.07	102.5	3.5264e-05	2.2987e-07	107.61	33.163	33.241	9.5422	5.6521e-07	9.7536	514.930	271.753	338.351	185.300	300.090	333.434	184.134	190.748	193.054	292.981	188.351	192.143	194.540	199.359	328.561	195.649	-8191	255	
28143.865	1	1	0	0	0.25398	0.15277	0.15256	0.1763	0.1519	0.24887	0.28626	0.13686	0.22698	0.093753	0.11388	0.084595	0.11243	0.10969	0.21031	0.20591	-1.3062	-2.2354	-2.2812	-2.1625	-2.35	-1.9271	-2.3042	-2.1708	-1.9979	-2.425	-2.2875	-2.0354	-2.45	-2.0354	-2.1208	-2.3021	519.286	423.261	406.853	500.693	249.917	344.594	335.364	198.638	183.525	176.899	348.798	297.270	462.500	394.726	188.885	288.968	0.00015865	8.6147e-05	0.00051746	261.14	1.2349e-06	1.3918e-06	235.14	97.3	1.6863e-05	1.7124e-06	102.49	31.508	31.542	8.6666	1.353e-06	9.1473	0.00011674	3.3188e-05	0.00010833	282.51	4.5837e-07	6.044e-07	247.78	102.82	2.9274e-05	3.0802e-07	108.13	33.335	33.426	9.6939	6.2493e-07	9.7707	514.322	265.663	351.152	185.314	326.421	333.453	184.226	190.739	211.140	335.841	188.535	192.550	194.534	199.658	299.985	195.743	-8191	255	
28143.963	1	1	0	0	0.099467	0.070334	0.17893	0.18839	0.20117	0.087042	0.17912	0.20626	0.2666	0.19984	0.16444	0.05637	0.20361	0.06393	0.1793	0.040868	-1.6146	-2.1792	-2.1063	-2.0896	-2.1146	-2.025	-2.2708	-2.3667	-1.9167	-2.3125	-2.3187	-1.8875	-2.3708	-1.9771	-2.0646	-2.1854	174.956	328.059	203.488	390.272	424.392	408.228	500.954	495.871	399.800	417.424	329.708	371.889	494.386	481.460	287.471	378.374	0.00016391	0.00015952	2.8848e-05	263.73	1.1368e-06	1.177e-06	237.53	98.101	1.5694e-05	1.5156e-06	102.36	31.407	31.505	8.5832	7.2919e-06	9.2453	0.00010638	3.5346e-05	7.8478e-06	285.92	4.3662e-07	7.6888e-07	249.31	103.39	3.5862e-05	2.8701e-07	108.6	33.251	33.508	9.4962	5.9103e-06	9.8759	512.829	253.493	254.707	185.728	292.533	317.859	183.786	190.486	205.077	333.118	188.820	192.198	194.922	199.467	269.362	195.819	-8191	255	
28144.059	1	1	0	0	0.15349	0.23558	0.15031	0.22015	0.22403	0.22124	0.29835	0.043019	0.08245	0.16959	0.091672	0.17852	0.16806	0.083658	0.15792	0.034042	-1.4875	-2.25	-2.1479	-1.9229	-2.2562	-2.1188	-2.075	-2.4021	-2.0542	-2.1229	-2.2354	-1.8542	-2.3104	-1.9833	-2.0125	-2.2896	387.935	257.661	251.691	421.618	361.107	400.334	511.814	247.242	231.147	302.807	314.273	529.255	200.141	264.160	270.562	417.015	0.00016415	9.5915e-05	4.0222e-05	265.57	1.4725e-06	1.1241e-06	238.57	98.842	1.5631e-05	1.3857e-06	103.66	31.511	31.945	8.662	8.0229e-06	9.295	0.00011159	4.4854e-05	9.0086e-06	289.12	4.1432e-07	5.1259e-07	250.82	104.18	2.929e-05	4.2361e-07	109.78	33.502	33.702	9.2701	2.9417e-05	9.8975	514.635	263.275	239.840	185.486	288.873	308.696	184.416	190.329	218.516	341.023	188.386	191.922	194.036	199.882	274.702	195.710	-8191	255	
28144.180	1	1	0	0	0.078993	0.19986	0.23255	0.011076	0.27128	0.16974	0.053881	0.23139	0.28604	0.20529	0.15868	0.13388	0.22693	0.27607	0.10834	0.19633	-1.5958	-2.0312	-2.2833	-1.8208	-2.0979	-2.2542	-1.9542	-2.3458	-1.6958	-2.1479	-2.25	-1.7979	-2.3125	-2.0896	-1.9479	-2.4375	409.194	392.801	212.630	488.917	506.765	189.501	526.984	441.640	484.164	183.881	374.482	354.496	464.610	434.584	190.011	409.002	0.00015735	0.00014066	3.4824e-05	265.07	9.6606e-07	1.0608e-06	235.48	98.626	1.9101e-05	1.4908e-06	103.02	31.496	31.965	8.6828	1.6585e-05	9.2389	9.7443e-05	4.252e-05	7.063e-06	288.08	4.1933e-07	4.2077e-07	249.12	103.79	3.5483e-05	4.4857e-07	108.93	33.405	33.722	9.2244	3.0599e-05	9.8472	511.683	263.471	270.443	185.957	280.281	343.946	184.033	190.559	220.536	334.237	187.845	192.031	194.272	199.010	340.583	195.572	-8191	255	
28144.273	1	1	0	0	0.050844	0.11634	0.44175	0.069449	0.067864	0.025844	0.11971	0.080806	0.27345	0.053983	0.24588	0.14363	0.044094	0.086252	0.18048	0.14897	-1.5688	-2.05	-2.2667	-1.8583	-2.2188	-2.3583	-1.8333	-2.3812	-2.0708	-2.1896	-2.1688	-1.9229	-2.4479	-2.1917	-1.8646	-2.5167	412.240	324.159	474.013	518.685	392.121	450.235	527.741	310.581	314.249	490.316	254.953	383.108	282.912	263.923	179.119	248.867	0.00016176	0.00017387	5.0951e-05	263.45	1.5309e-06	1.289e-06	235.79	98.57	5.3194e-06	1.6589e-05	103.01	31.796	31.946	8.7009	1.8214e-05	9.307	0.00010543	5.2844e-05	9.1558e-06	288.15	4.8736e-07	3.382e-07	249.47	103.97	1.8449e-05	7.4418e-06	109.22	33.656	33.808	9.2477	3.6805e-05	9.9611	514.302	266.049	249.528	185.667	270.102	320.514	184.467	190.833	293.786	233.584	188.641	191.865	194.956	198.867	352.873	196.341	-8191	255	
28144.371	1	1	0	0	0.17996	0.29382	0.085106	0.40344	0.11446	0.24064	0.087782	0.097507	0.32057	0.1079	0.19302	0.14807	0.03299	0.26413	0.14424	0.32115	-1.65	-1.8354	-2.3917	-2.0896	-2.1979	-2.4292	-1.8417	-2.2229	-2.3458	-2.1646	-2.5021	-1.9458	-2.2125	-2.1625	-1.8271	-2.2271	235.425	258.004	368.536	498.745	234.613	216.169	501.120	185.217	492.836	511.542	461.341	233.685	440.133	470.320	343.497	440.174	0.00014018	0.00013249	3.3097e-05	265.27	6.5723e-07	8.7387e-07	237.54	99.118	6.0342e-06	1.857e-05	103.86	32.177	32.14	8.7762	1.642e-05	9.4029	8.6037e-05	6.5151e-05	7.3573e-06	287.71	5.5707e-07	3.5472e-07	251.04	104.39	9.5726e-07	3.3285e-05	109.9	34.041	34.005	9.3321	3.0587e-05	10.043	509.717	266.587	267.199	185.346	291.071	358.077	184.358	190.703	309.186	239.538	188.361	191.917	194.387	199.265	358.224	195.666	-8191	255	
28144.467	1	1	0	0	0.093859	0.43586	0.24002	0.11388	0.16128	0.10247	0.048234	0.20771	0.11874	0.051422	0.1251	0.19591	0.11694	0.34839	0.16236	0.30245	-1.6604	-1.7979	-2.5312	-2.0292	-2.2188	-2.45	-2.0833	-2.1021	-2.2292	-1.9958	-2.3271	-1.9167	-2.0896	-2.4729	-1.9146	-2.2146	360.987	473.059	192.003	233.528	416.300	344.787	507.057	433.523	421.159	221.139	522.624	232.063	238.564	414.436	364.389	498.389	0.00015214	9.0502e-05	3.7715e-05	264.54	9.8069e-07	8.3119e-07	240.09	99.527	1.7525e-06	1.8505e-05	103.83	32.326	32.411	8.7744	2.0723e-05	9.4137	8.1704e-05	8.7491e-05	7.7824e-06	290.85	6.0837e-07	2.411e-07	252.71	104.96	5.7493e-07	3.3479e-05	110.26	33.987	34.154	9.3086	3.7664e-05	10.038	514.941	232.105	286.780	185.361	309.699	322.984	184.091	191.094	287.131	250.631	188.361	192.065	194.412	199.541	365.857	196.268	-8191	255	
28144.562	1	1	0	0	0.22425	0.23504	0.19464	0.24576	0.16304	0.11289	0.20122	0.16972	0.19801	0.17583	0.12012	0.10048	0.26361	0.22823	0.1181	0.10429	-1.8896	-1.6854	-2.3667	-1.9354	-2.0292	-2.475	-1.9604	-2.1312	-2.4208	-1.9083	-2.325	-2.2375	-2.0896	-2.3583	-2.0917	-2.2021	218.213	363.829	373.271	257.288	237.239	531.255	209.106	464.145	190.598	347.438	273.439	242.551	193.306	345.000	199.758	417.799	0.0001551	0.00010181	3.1005e-05	267.72	1.1666e-05	1.3682e-06	237.53	99.137	1.4051e-06	2.4002e-05	104.14	32.085	32.173	8.566	1.3538e-05	9.2356	8.8135e-05	7.3376e-05	7.1938e-06	287.26	8.0928e-06	2.5695e-07	251.79	104.8	5.0842e-07	4.1018e-05	110.07	33.695	34.034	9.185	3.1137e-05	9.879	514.961	243.022	246.663	185.455	526.989	316.155	184.043	190.414	302.894	263.508	188.487	191.629	194.451	199.663	378.817	196.396	-8191	255	
28144.658	1	1	0	0	0.1557	0.16949	0.063818	0.26063	0.19344	0.15461	0.074028	0.23457	0.14662	0.087538	0.24238	0.29508	0.20996	0.21339	0.095021	0.078167	-1.6521	-1.9083	-2.3479	-1.9708	-1.8708	-2.2687	-1.8792	-2.1729	-2.2687	-1.975	-2.4167	-2.1042	-1.9833	-2.35	-2.1063	-2.1271	500.945	521.216	273.385	523.198	513.627	515.484	281.753	250.443	502.938	189.441	429.976	506.011	377.979	437.118	331.936	447.358	0.00016508	9.3014e-05	4.053e-05	267.98	1.5418e-05	1.2082e-06	239.7	99.775	1.7503e-06	2.2228e-05	104.87	31.968	32.301	8.6057	1.9532e-05	9.3449	8.1908e-05	8.7491e-05	7.5208e-06	282.27	3.1633e-05	2.4903e-07	252.73	105.04	5.6568e-07	3.4262e-05	110.65	33.838	34.05	9.1386	3.904e-05	9.8955	513.664	244.507	268.072	185.644	523.527	329.238	184.046	190.555	285.457	271.707	188.270	191.867	194.027	199.540	381.900	195.920	-8191	255	
28144.779	1	1	0	0	0.11647	0.30027	0.3075	0.34216	0.077721	0.087496	0.13446	0.059922	0.25146	0.23934	0.19758	0.021784	0.094336	0.41634	0.29021	0.077475	-1.675	-1.9333	-2.3396	-2.0438	-1.8583	-2.2875	-1.9979	-2.1604	-2.3292	-2.2188	-2.0687	-2.1083	-1.8167	-2.3333	-2.1229	-2.1354	379.295	427.377	484.829	259.547	357.885	183.980	290.065	443.258	425.249	443.195	418.699	216.757	413.872	200.549	483.364	196.444	0.00015719	0.00016617	4.6096e-05	270.22	1.531e-05	1.4319e-06	239.05	99.696	1.6241e-06	2.5733e-05	104.9	32.161	32.233	8.629	1.653e-05	9.3044	8.4818e-05	7.6584e-05	7.6516e-06	283.77	2.9517e-05	2.3912e-07	253.86	105.5	5.0957e-07	4.2602e-05	110.67	33.954	34.228	9.1778	1.7771e-05	10.168	514.686	287.417	269.800	185.324	499.038	303.367	184.403	190.726	288.250	269.142	188.401	191.984	194.531	198.845	382.135	195.647	-8191	255	
28144.875	1	1	0	0	0.11467	0.23823	0.086475	0.19069	0.036434	0.12952	0.17623	0.071816	0.26243	0.097529	0.060789	0.25084	0.16697	0.039762	0.047379	0.18994	-1.6729	-1.9792	-2.1833	-2.2083	-1.9417	-2.35	-1.9292	-2.0167	-2.4021	-1.9375	-1.9688	-2.3417	-1.9438	-2.3208	-1.9708	-1.9854	299.711	235.531	315.832	531.452	388.850	403.630	437.344	297.820	353.689	501.789	406.951	520.859	188.364	372.381	417.048	239.643	0.00016878	0.00018928	3.4327e-05	269.91	1.7994e-05	1.7995e-06	243.6	100.09	1.488e-06	2.0409e-05	105.86	32.507	32.732	8.7015	1.2136e-06	9.3402	8.3769e-05	8.3758e-05	1.2867e-05	285.4	3.6381e-05	3.2433e-07	255.85	105.76	4.8123e-07	3.4537e-05	111.59	34.278	34.471	9.2425	5.1877e-07	10.846	516.351	279.152	255.281	185.512	495.511	325.602	184.094	190.469	298.305	284.151	188.406	191.750	194.449	198.981	323.737	196.509	-8191	255	
28144.971	1	1	0	0	0.19302	0.064162	0.20759	0.30405	0.22433	0.1782	0.060015	0.22989	0.068168	0.17875	0.33162	0.1276	0.16001	0.11031	0.15488	0.11396	-1.9042	-1.8792	-2.2146	-2.4021	-2.0125	-2.3333	-2.1063	-2.0958	-2.5458	-2.0333	-2.1312	-2.1042	-1.7771	-2.3375	-2.175	-1.8875	344.931	447.946	407.798	519.515	445.614	195.099	485.108	308.247	289.515	174.471	442.419	377.304	463.919	378.400	428.919	235.534	0.00014558	0.000148	3.8242e-05	272.23	1.4564e-05	1.1939e-06	242.25	100.35	1.4327e-06	2.0094e-05	104.51	32.226	32.39	8.6264	1.1369e-06	9.1864	7.8997e-05	7.1276e-05	1.1494e-05	287.81	2.935e-05	3.3358e-07	256.2	106.23	5.2924e-07	4.1215e-05	110.85	33.904	34.38	9.2519	4.1562e-07	10.627	519.855	267.366	225.748	185.334	515.140	342.543	184.092	190.430	290.286	287.618	188.574	192.074	194.453	199.184	288.656	196.458	-8191	255	
28145.066	1	1	0	0	0.25186	0.052827	0.014136	0.12578	0.085739	0.25512	0.13826	0.15886	0.12913	0.040774	0.28218	0.070974	0.11186	0.20217	0.26049	0.07042	-1.9854	-1.8687	-2.1375	-2.2771	-1.8563	-2.2792	-2.3146	-2.0396	-2.2896	-2.1333	-1.9562	-2.3063	-1.8958	-2.3271	-2.0333	-1.8583	371.508	182.562	198.405	204.746	290.160	356.166	333.742	200.688	437.527	474.964	257.726	276.898	453.727	361.109	230.301	459.602	0.00016392	0.00011217	3.8122e-05	272.84	1.3826e-05	1.0166e-06	240.63	100.26	1.7275e-06	1.1699e-05	104.91	32.077	32.468	8.6982	1.4282e-06	9.1302	8.7188e-05	7.425e-05	1.3014e-05	287.78	3.4733e-05	3.5339e-07	253.98	105.81	5.275e-07	1.7008e-05	112.16	33.806	34.238	9.2616	4.693e-07	10.754	514.254	238.129	255.020	185.174	512.826	304.595	184.242	190.417	299.862	341.166	188.510	192.064	194.488	199.068	306.246	196.483	-8191	255	
28145.162	1	1	0	0	0.17541	0.082002	0.070167	0.19492	0.069477	0.11046	0.19803	0.047744	0.09883	0.2579	0.25076	0.17004	0.19266	0.091114	0.18901	0.11617	-1.8271	-2.0917	-1.8792	-2.4437	-2.1312	-2.2229	-2.2458	-2	-2.1437	-2.2042	-1.9458	-2.3333	-2.0104	-1.9417	-2.4	-1.7854	362.018	207.567	326.885	429.887	353.579	221.065	312.864	192.697	403.420	402.283	514.838	485.654	314.873	260.595	486.090	514.544	0.000157	0.00012015	1.8559e-05	273.34	1.6038e-05	1.202e-06	241.81	100.14	1.5435e-06	1.1765e-06	105.08	31.998	32.494	8.7014	1.394e-06	9.2018	8.4615e-05	4.1879e-05	1.7363e-05	287.77	2.8784e-05	3.8048e-07	254.97	105.86	4.7198e-07	3.8946e-07	116.22	33.89	34.329	9.287	3.5952e-07	10.675	513.380	277.413	261.620	185.430	175.184	333.642	183.965	190.651	288.305	334.625	188.096	192.029	194.225	198.875	311.811	195.359	-8191	255	
28145.260	1	1	0	0	0.10993	0.063234	0.06914	0.13738	0.31176	0.12452	0.32058	0.25102	0.088379	0.20188	0.28555	0.25701	0.13316	0.14827	0.032858	0.20169	-1.7792	-2.175	-1.9438	-2.3833	-2.0917	-2.3708	-2.3479	-2.0208	-2.3521	-2.2229	-2.0708	-2.3708	-1.975	-2.1729	-2.5229	-1.925	337.452	475.776	175.383	420.760	493.791	405.267	481.013	517.528	340.472	254.465	473.980	451.293	351.055	458.639	447.780	413.200	0.00015724	0.00019676	4.3741e-05	273.96	1.6673e-05	1.0632e-06	244.03	101.09	9.5819e-07	1.1193e-06	106.47	32.132	32.333	8.755	1.1503e-06	9.0949	8.5834e-05	4.1062e-05	2.3952e-05	288.29	3.5376e-05	5.0995e-07	256.71	106.28	5.1189e-07	3.3495e-07	116.02	34.032	34.388	9.3198	3.9571e-07	10.8	517.231	279.729	238.123	185.363	529.698	285.281	184.329	190.326	274.550	291.881	188.622	191.825	194.428	198.958	296.927	196.446	-8191	255	
28145.354	1	1	0	0	0.017913	0.076342	0.20839	0.11111	0.06635	0.11163	0.10237	0.11838	0.060819	0.14953	0.23073	0.14069	0.022115	0.24375	0.23108	0.14855	-1.8146	-2.0542	-1.8354	-2.4313	-2.0333	-2.0708	-2.3542	-1.9958	-2.2188	-2.1958	-1.9312	-2.3646	-2.0417	-1.7958	-2.4375	-1.9396	437.596	397.406	486.702	479.151	422.910	212.573	265.482	217.342	290.495	513.222	297.415	371.822	420.064	231.741	488.770	393.762	0.00015444	7.1915e-05	4.7222e-05	275.32	2.6252e-06	1.7999e-05	244.78	101.17	1.8936e-06	9.179e-07	105.86	31.964	32.289	8.7145	1.3481e-06	9.1427	8.9997e-05	4.0712e-05	2.0829e-05	290.5	1.3651e-05	1.3858e-05	257.61	106.8	6.9524e-07	3.5794e-07	117.03	33.782	34.281	9.2841	3.6857e-07	10.569	511.058	245.568	244.283	185.146	440.786	207.188	184.133	190.348	270.548	303.387	188.910	192.054	194.364	198.824	305.075	195.827	-8191	255	
28145.475	1	1	0	0	0.19748	0.13482	0.17693	0.1583	0.11152	0.2084	0.20459	0.34633	0.14744	0.21096	0.20501	0.38502	0.541	0.068615	0.1582	0.3609	-1.6979	-2.1083	-1.9521	-2.2875	-2.0792	-2.1292	-2.2583	-1.875	-2.3021	-2.2062	-1.8042	-2.2375	-1.9771	-1.9708	-2.2625	-1.9521	273.684	300.411	342.494	235.074	358.829	254.044	220.151	472.878	344.844	524.943	208.924	188.062	512.361	515.107	530.140	499.267	0.0001411	9.7806e-05	5.6554e-05	277.46	1.2002e-06	2.2152e-05	242.65	100.94	1.6117e-06	1.9468e-06	104.9	31.315	32.146	8.6659	1.449e-06	8.8673	8.6341e-05	3.138e-05	2.4557e-05	290.16	5.1915e-07	4.2388e-05	254.8	106.37	6.0096e-07	2.8504e-07	114.34	33.105	33.974	9.2347	3.9209e-07	10.551	506.903	276.478	264.433	185.468	296.576	201.362	184.046	190.410	279.376	331.725	188.553	192.047	194.209	198.508	328.962	195.806	-8191	255	
28145.568	1	1	0	0	0.31793	0.050299	0.16079	0.17518	0.15537	0.2069	0.3018	0.097321	0.24275	0.047056	0.1841	0.2454	0.11269	0.14459	0.30505	0.28457	-1.5896	-2.0271	-1.8042	-2.2146	-2.1354	-1.8542	-2.2833	-2.0792	-2.0062	-2.4083	-1.9042	-2.2396	-2.1854	-1.6979	-2.2625	-2.1604	395.153	492.013	403.372	181.659	196.369	272.242	496.465	528.624	278.009	210.985	505.118	256.965	395.843	471.274	474.537	434.579	0.00014047	8.7204e-05	4.8678e-05	277.06	1.6716e-06	1.6311e-05	240.31	100.68	1.3425e-06	1.5196e-06	103.58	30.836	31.988	8.637	1.7194e-06	8.7724	9.2163e-05	3.1788e-05	1.957e-05	291.95	4.7565e-07	3.5721e-05	253.55	106.27	7.8316e-07	2.4694e-07	114.22	32.461	33.654	9.185	5.3867e-07	9.8466	511.053	279.674	265.001	185.555	298.183	214.570	183.995	190.297	285.494	332.452	188.531	191.514	194.412	198.810	290.503	195.866	-8191	255	
28145.664	1	1	0	0	0.32407	0.085527	0.14031	0.30271	0.099593	0.206	0.12572	0.21492	0.042318	0.14	0.1045	0.17933	0.33681	0.16416	0.16511	0.11471	-1.6396	-2.15	-1.7708	-2.1875	-2.2542	-1.9104	-2.3438	-2.0333	-2.1375	-2.5	-2.0896	-2.2896	-2.2792	-1.8979	-2.3312	-2.1583	209.818	262.890	267.011	439.915	343.588	449.558	353.725	522.294	449.969	187.480	491.551	527.856	313.434	510.315	466.293	325.739	0.00019952	7.7804e-05	3.9397e-05	281.63	9.8328e-07	2.328e-05	243.45	100.84	1.7669e-06	8.458e-07	103.64	30.69	31.936	8.7143	1.1197e-06	8.9619	0.00087959	3.523e-05	2.2562e-05	295.3	4.9294e-07	4.4481e-05	254.99	106.66	9.1388e-07	3.2576e-07	113.41	32.267	33.734	9.2787	3.9088e-07	9.5087	465.051	239.944	270.177	185.686	312.367	216.809	183.927	190.279	278.586	321.480	188.088	191.327	194.100	198.601	308.259	195.249	-8191	255	
28145.764	1	1	0	0	0.13647	0.23276	0.12123	0.22865	0.27993	0.14406	0.056734	0.098703	0.047938	0.33703	0.10866	0.13287	0.28121	0.30986	0.12135	0.19891	-1.4292	-2.3063	-1.9292	-2.0083	-2.1667	-1.7875	-2.3187	-2.0521	-2.0563	-2.3854	-1.9417	-2.1729	-2.125	-1.9479	-2.2375	-2.1875	239.167	460.849	497.557	464.938	214.954	514.007	513.244	528.355	483.381	484.150	421.308	487.382	493.225	274.874	312.639	276.549	0.0002284	0.00014614	2.8675e-05	286.02	1.1032e-06	1.8068e-05	243.09	101.1	6.6386e-07	1.4865e-06	101.81	30.306	31.902	8.673	1.1071e-06	8.9298	0.0023997	3.7446e-05	2.0077e-05	300.24	5.4591e-07	3.7835e-05	255.8	107.07	1.2146e-06	2.9554e-07	114.02	31.977	33.813	9.2661	5.7125e-07	9.5437	348.134	286.653	272.055	184.929	281.244	218.798	183.982	190.396	288.326	321.789	188.593	191.543	194.190	198.917	289.530	195.234	-8191	255	
28145.857	1	1	0	0	0.060992	0.10764	0.38538	0.27195	0.059962	0.12269	0.23255	0.025373	0.063698	0.30212	0.12496	0.36493	0.37554	0.11833	0.1081	0.19941	-1.5083	-2.3688	-1.9354	-2.1063	-2.3146	-2.0125	-2.2292	-2.3167	-2.1604	-2.6083	-2.2083	-1.9	-2.2313	-1.9729	-2.2188	-2.4437	487.359	173.675	501.569	401.600	208.451	435.972	206.892	304.946	352.412	292.942	468.485	188.117	397.811	317.205	365.241	174.684	0.00026222	9.3185e-05	4.8321e-05	283.96	1.1411e-06	2.5579e-05	239.43	101.16	6.5636e-07	1.4652e-06	102.51	30.808	32.099	8.7008	1.2232e-06	8.8553	0.002014	3.383e-05	1.7707e-05	299.15	5.3588e-07	4.7357e-05	253.02	106.87	9.7577e-07	2.6205e-07	109.87	33.1	33.79	9.2022	5.8391e-07	9.5111	376.179	273.979	279.091	185.354	288.612	225.865	184.034	190.243	311.759	317.799	188.452	191.642	194.196	199.006	285.298	195.664	-8191	255	
28145.953	1	1	0	0	0.15426	0.21972	0.097261	0.18005	0.13161	0.17853	0.088004	0.14531	0.13794	0.082355	0.18339	0.19091	0.23934	0.12247	0.10841	0.11381	-1.2833	-2.4667	-2.2938	-1.9646	-2.3646	-1.9354	-2.2292	-2.3625	-1.9625	-2.3292	-2.4062	-2.0312	-2.2313	-2.0208	-2.0646	-2.2604	497.672	227.399	370.165	237.644	438.012	236.128	293.340	286.935	475.511	225.277	389.975	209.710	299.675	254.907	310.106	203.879	0.00025367	0.00011502	3.9692e-05	279.13	1.0678e-06	2.0215e-05	238.27	100.64	1.7865e-06	1.4194e-06	102.65	30.844	31.682	8.5943	1.2076e-06	9.0198	0.0024602	3.4121e-05	1.0431e-05	293.57	5.3699e-07	3.8307e-05	251.98	106.1	1.291e-06	4.6499e-07	108.02	34.602	33.603	9.1597	5.6521e-07	9.61	363.589	272.658	265.249	185.387	268.053	236.210	184.139	190.071	304.716	325.427	187.964	192.424	194.126	199.097	283.129	195.780	-8191	255	
28146.049	1	1	0	0	0.13352	0.085257	0.12326	0.071441	0.14211	0.052145	0.054684	0.12267	0.14002	0.10751	0.16164	0.096475	0.075565	0.28966	0.1962	0.023021	-1.2708	-2.4167	-2.0229	-1.8729	-2.1771	-1.8687	-2.3042	-2.1917	-1.7771	-2.2021	-2.0646	-2.1208	-2.4604	-2.1063	-1.9833	-2.4708	311.088	210.075	254.812	478.344	194.875	304.259	329.390	178.028	306.998	474.750	487.577	243.825	196.553	527.900	214.954	173.363	0.00026411	0.00010586	3.6599e-05	274.58	1.4908e-06	4.198e-06	238.99	100.08	1.371e-06	1.6749e-06	102.63	31.082	31.891	8.5711	1.7159e-06	9.03	0.0020003	4.0829e-05	1.1003e-05	288.62	5.671e-07	4.3268e-05	252.22	105.52	1.0284e-06	3.5006e-07	108.87	34.375	33.583	9.1534	7.7031e-07	9.6605	389.836	268.207	266.791	185.392	284.998	345.447	184.363	190.303	277.717	302.823	188.169	192.295	194.005	199.717	291.050	195.764	-8191	255	
28146.170	1	1	0	0	0.11402	0.20107	0.05068	0.10474	0.18232	0.17451	0.15039	0.095073	0.20923	0.15381	0.12002	0.11621	0.10731	0.16384	0.25285	0.46628	-1.4375	-2.1562	-2.2458	-1.975	-2.425	-1.9354	-2.0729	-2.3875	-2.0833	-2.2562	-2.1813	-1.9542	-2.5104	-2.1375	-2.1292	-2.4854	391.329	269.105	412.618	486.342	501.405	387.882	451.208	340.625	292.543	476.772	307.596	268.447	510.561	368.206	491.221	293.095	0.00030481	7.4809e-05	5.1506e-05	272.11	1.5316e-06	7.3061e-06	240.66	99.666	1.9074e-06	1.9697e-06	102.51	30.648	31.698	9.0916	1.5217e-06	9.4564	0.0024608	5.8269e-05	1.0153e-05	286.34	4.7956e-07	1.2706e-05	257.02	105.59	1.029e-06	4.9389e-07	108.76	34.424	33.572	9.6741	8.5838e-07	10.036	400.358	228.108	259.127	185.634	297.124	316.365	183.965	190.295	278.710	347.302	187.912	192.655	193.876	198.873	309.185	195.405	-8191	255	
28146.266	1	1	0	0	0.1379	0.026224	0.13094	0.16441	0.19677	0.12092	0.19049	0.09299	0.11718	0.21257	0.12089	0.19628	0.15578	0.26968	0.15645	0.076583	-1.5021	-2.175	-2.1937	-2.0208	-2.3771	-2.1063	-2.0271	-2.3771	-2.0833	-2.0479	-2.4854	-1.9937	-2.4167	-2.3333	-2.0354	-2.4708	392.212	254.250	334.412	285.548	321.347	367.942	264.116	315.528	453.919	477.425	383.664	228.846	194.958	466.126	502.673	326.686	0.00026458	0.00011468	3.2713e-05	271.89	1.4854e-06	1.2779e-06	240.07	100.15	1.6057e-06	1.5674e-06	101.29	29.652	31.584	9.3721	1.2502e-06	9.275	0.00196	5.3428e-05	9.2212e-06	286.57	5.4145e-07	3.5075e-07	262.84	105.74	9.133e-07	6.0488e-07	107.4	33.009	33.274	10.024	1.1546e-06	9.9517	419.458	249.901	261.470	185.690	272.689	321.412	183.819	190.626	281.773	306.980	187.728	192.017	194.024	199.003	293.400	195.037	-8191	255	
28146.361	1	1	0	0	0.13983	0.15893	0.16082	0.2	0.060501	0.12481	0.30305	0.3328	0.17666	0.19143	0.24042	0.013659	0.15181	0.19831	0.20034	0.059386	-1.6313	-2.1271	-2.3229	-1.9271	-2.2333	-2.0917	-2.0229	-2.4042	-2.0854	-2.0563	-2.4146	-2.075	-2.2333	-2.2729	-1.8708	-2.3479	529.339	336.177	462.819	487.640	359.303	320.711	183.671	473.406	472.536	433.744	416.297	268.750	186.751	410.610	449.834	390.683	0.00013179	0.000139	4.0845e-05	272.65	1.6585e-06	1.6396e-06	241.59	99.319	1.7803e-06	8.6897e-07	99.965	29.044	30.798	9.122	1.5577e-06	9.0418	0.0021599	6.5793e-05	1.1461e-05	287.52	5.7937e-07	3.6661e-07	260.77	105.39	9.4049e-07	7.5791e-07	105.78	32.737	32.704	9.7611	9.374e-07	9.6721	314.850	278.498	266.081	185.261	290.796	326.421	183.651	190.093	285.950	284.028	187.911	192.448	194.634	198.495	288.025	195.085	-8191	255	
28146.459	1	1	0	0	0.049255	0.053921	0.081864	0.049493	0.28661	0.16478	0.22046	0.12883	0.26319	0.15744	0.12343	0.28705	0.16163	0.091758	0.22806	0.088247	-1.6833	-2.0229	-2.1458	-2.0521	-2.3354	-2.3958	-2.0125	-2.2687	-2.2208	-2.175	-2.4833	-2.1125	-2.0563	-2.2229	-1.9792	-2.2708	355.890	509.824	318.367	505.345	267.551	205.449	487.543	303.802	410.044	524.185	260.903	515.692	297.220	179.758	215.722	310.702	6.4712e-05	0.001459	4.023e-05	268.2	1.0624e-06	1.5891e-06	238.42	98.814	2.0848e-06	1.0569e-06	101.67	29.608	30.985	8.7593	1.5118e-06	9.1273	0.00061908	0.0018965	8.2892e-06	282.83	5.9833e-07	2.7281e-07	261.34	104.31	5.8535e-07	7.474e-07	106.84	32.996	32.621	9.3894	1.169e-06	9.7392	343.266	492.168	256.047	185.162	270.121	323.102	183.981	190.353	272.899	368.594	187.959	192.117	194.362	198.593	305.216	195.280	-8191	255	
28146.555	1	1	0	0	0.20508	0.18663	0.0814	0.1762	0.053615	0.094564	0.21009	0.17669	0.18577	0.15851	0.13052	0.1777	0.19326	0.18904	0.2078	0.21364	-1.6187	-1.9271	-2.3604	-2.2104	-2.2	-2.2188	-2.0583	-2.1479	-2.1542	-1.9417	-2.3812	-2.1167	-2.225	-2.25	-1.9062	-2.4042	256.628	430.743	508.138	371.254	244.292	288.471	455.509	233.184	181.328	448.793	469.503	394.754	277.864	216.054	287.244	442.586	0.00016167	0.0021659	4.1674e-05	265.61	9.0979e-07	1.8155e-06	238.6	98.354	1.6197e-06	9.2684e-07	99.906	29.487	30.912	9.2103	1.6091e-06	9.3339	8.1028e-05	0.0041041	5.7224e-06	280.05	6.3235e-07	2.9923e-07	258.41	103.84	5.7667e-07	9.8252e-07	105.87	32.858	32.671	9.8529	8.5596e-07	9.9718	511.727	450.843	248.909	185.538	279.703	315.964	184.223	190.436	275.934	283.984	188.068	192.103	194.191	198.074	306.601	194.956	-8191	255	
28146.650	1	1	0	0	0.17885	0.21468	0.083712	0.49544	0.19091	0.20224	0.080277	0.22073	0.07971	0.12785	0.11665	0.15565	0.094141	0.23047	0.25358	0.17934	-1.7792	-1.9708	-2.5375	-1.9062	-1.9729	-2.4292	-1.8438	-2.3833	-2.0604	-2.0917	-2.3625	-2.0958	-2.0875	-2.3771	-2.0146	-2.2604	300.237	400.469	247.416	463.930	216.507	369.843	347.957	422.270	480.531	493.034	362.869	466.009	258.058	381.594	444.750	315.176	0.00013674	0.0017384	3.3473e-05	268.09	8.1254e-07	1.1214e-06	239.89	97.729	1.4471e-06	9.9076e-07	98.755	28.22	30.165	9.4182	1.5211e-06	9.2599	8.4852e-05	0.0033388	7.4227e-06	282.41	7.5056e-07	2.8139e-07	263.38	103.37	5.4312e-07	9.5691e-07	104.18	30.204	33.17	10.005	9.7178e-07	9.8772	511.191	444.858	270.207	185.195	286.627	328.836	184.367	190.404	299.067	300.290	188.130	192.322	194.128	197.972	282.160	194.763	-8191	255	
28146.770	1	1	0	0	0.16267	0.034382	0.282	0.1366	0.32183	0.23034	0.28004	0.13568	0.23389	0.10006	0.1743	0.024127	0.2775	0.172	0.06344	0.094072	-1.9896	-1.8896	-2.075	-2.1271	-2.0896	-2.4271	-2.0292	-2.1917	-2.4062	-1.9438	-2.3438	-2.1958	-1.8687	-2.3958	-2.2354	-2.1688	224.005	314.475	249.215	416.649	432.591	316.649	423.902	357.774	331.918	240.971	184.359	408.093	213.481	254.725	460.801	428.008	0.00014648	0.001952	4.817e-05	268.17	1.1939e-06	8.0404e-07	237.05	95.51	1.426e-06	1.7018e-06	94.421	27.006	29.56	9.3265	1.2651e-06	9.0195	8.4581e-05	0.0041716	9.3356e-06	281.4	8.6934e-07	3.1706e-07	257.66	100.91	4.9974e-07	1.0127e-06	100.26	28.559	33.765	9.909	8.1856e-07	9.6927	510.223	466.913	252.651	185.116	273.303	303.424	184.105	190.320	280.381	320.455	188.175	191.217	194.816	197.749	287.973	194.782	-8191	255	
28146.865	1	1	0	0	0.19155	0.21558	0.21663	0.14923	0.035904	0.12265	0.12853	0.091215	0.12252	0.36761	0.26795	0.12178	0.28442	0.11687	0.24815	0.17857	-1.9937	-1.8333	-2.3042	-2.3688	-2.0333	-2.3292	-2.1083	-1.8937	-2.3917	-1.9792	-2.2	-2.1937	-1.8083	-2.4042	-2.0771	-1.9417	193.560	416.573	462.120	420.102	482.917	290.359	335.382	187.862	201.812	361.095	299.145	308.252	529.020	416.322	262.505	389.840	0.00014798	0.0017459	3.4711e-05	266.78	1.7561e-07	1.2653e-06	235.83	95.798	2.0124e-06	1.367e-06	94.63	26.928	29.257	9.3209	1.2691e-06	9.1605	8.5664e-05	0.0034737	1.0791e-05	279.68	1.0561e-06	3.0055e-07	257.58	100.57	5.2403e-07	8.1899e-07	100.42	28.547	33.069	9.9313	7.4015e-07	9.7926	514.125	481.439	248.805	185.197	300.972	324.861	184.309	190.003	284.747	322.533	187.715	191.414	195.021	198.546	294.284	195.468	-8191	255	
28146.963	1	1	0	0	0.27291	0.37235	0.14831	0.098176	0.16824	0.20519	0.21772	0.14318	0.23077	0.21137	0.4482	0.28538	0.3157	0.020133	0.22119	0.26034	-2.0042	-1.9542	-2.1708	-2.0542	-1.9312	-2.1646	-2.05	-1.9896	-2.2729	-2.0708	-2.2333	-2.4292	-1.8854	-2.2646	-1.9562	-1.8854	497.987	343.578	232.729	495.212	192.587	215.085	239.440	306.302	183.746	506.039	445.992	297.479	523.777	391.361	502.288	211.597	0.00014783	0.0022805	2.6229e-05	262.55	1.2929e-06	9.0319e-07	234.01	95.308	1.3251e-06	1.2754e-06	96.578	27.297	29.356	9.2506	1.0753e-06	9.4438	8.3397e-05	0.0043775	1.3685e-05	277.63	9.7863e-07	3.2301e-07	247.67	103.03	4.9222e-07	9.8121e-07	101.81	28.993	33.657	9.8792	4.9524e-07	10.082	512.622	481.221	235.030	185.449	292.319	362.522	184.476	190.306	278.444	292.369	187.960	191.313	194.793	198.285	290.687	195.209	-8191	255	
28147.033	1	1	0	0	0.096282	0.1017	0.20166	0.0368	0.086582	0.025252	0.16501	0.084467	0.078856	0.17091	0.08418	0.19234	0.1037	0.33251	0.31892	0.16328	-1.85	-1.8542	-2.1063	-2.2042	-1.9833	-2.1833	-1.9979	-1.8167	-2.4729	-2.0417	-1.9604	-2.2479	-1.9208	-2.25	-2.1021	-1.8042	422.394	454.767	215.321	289.457	415.456	190.363	407.220	515.875	389.650	251.897	420.668	521.018	429.837	329.746	444.749	201.416	0.00015787	0.0019568	2.4676e-05	258.64	1.1018e-06	1.7373e-06	230.71	95.91	1.1817e-06	1.387e-06	96.813	28.469	29.643	8.8867	7.3104e-07	9.3148	8.7661e-05	0.0034502	1.339e-05	272.66	1.1186e-06	3.8642e-07	243.57	105.58	5.2461e-07	8.6233e-07	102.61	30.071	33.588	9.4793	5.5013e-07	9.9218	515.996	487.372	249.787	185.180	323.858	330.800	183.902	190.554	283.613	307.739	187.688	191.281	194.591	198.418	341.223	194.808	-8191	255	
28147.154	1	1	0	0	0.063146	0.14356	0.14706	0.15864	0.18544	0.13639	0.043302	0.084674	0.10704	0.087221	0.15984	0.33964	0.081287	0.14969	0.076862	0.15045	-1.8542	-2.1354	-2.075	-2.5917	-2.0667	-2.2167	-2.2375	-1.8875	-2.3542	-2.1375	-2.1083	-2.4354	-1.7875	-2.2542	-2.1917	-1.8271	293.326	453.646	258.423	343.538	419.073	451.267	359.567	221.373	195.534	343.755	226.841	389.654	520.995	515.283	259.552	449.313	0.0001581	0.00036084	0.0006901	256.05	1.1473e-06	1.5831e-06	225.16	94.956	1.7329e-06	1.2239e-06	94.934	28.629	29.59	8.4848	1.3338e-06	8.9065	8.9624e-05	0.0034687	0.00012865	269.42	9.6413e-07	5.509e-07	237.47	103.7	5.8939e-07	8.3409e-07	100.35	30.083	34.288	9.0398	4.7956e-07	9.5025	515.608	413.363	505.875	185.451	266.321	337.725	184.153	190.494	293.423	365.857	187.845	191.521	194.949	198.455	318.262	195.009	-8191	255	
28147.250	1	1	0	0	0.1228	0.22692	0.13452	0.06819	0.16724	0.096595	0.31248	0.14634	0.30664	0.20194	0.35795	0.048018	0.080023	0.1246	0.15128	0.11501	-1.8563	-1.9479	-1.9188	-2.4354	-1.8396	-2.3688	-2.25	-1.8854	-2.4292	-2.1792	-1.8729	-2.2771	-1.8896	-2.0708	-2.225	-1.7167	378.271	293.680	175.574	478.115	358.429	233.721	424.689	517.834	397.339	469.149	430.263	507.486	446.728	452.654	209.953	175.510	0.00015975	0.00025859	0.00058773	253.81	2.2121e-07	9.9804e-07	223.93	94.309	1.7013e-06	1.8142e-06	92.988	28.172	29.415	8.4157	1.1817e-06	8.726	9.1655e-05	0.00062556	0.00077265	266.92	1.1236e-06	6.916e-07	235.02	104.71	6.0212e-07	5.2016e-07	98.911	29.877	33.599	8.9201	5.6944e-07	9.3815	515.086	394.423	507.286	185.369	212.341	309.727	184.299	190.937	273.093	332.524	187.789	191.290	194.402	198.458	268.003	195.515	-8191	255	
28147.348	1	1	0	0	0.1385	0.032609	0.29818	0.1462	0.21151	0.22956	0.35302	0.11338	0.092633	0.18544	0.11386	0.049503	0.063904	0.11606	0.08797	0.30333	-1.9104	-2.0771	-1.8208	-2.2833	-2.0542	-2.1083	-2.4146	-1.7313	-2.1979	-2.2292	-1.9458	-2.3667	-2.2083	-2.0104	-2.375	-2.0646	183.622	479.264	426.543	518.201	286.204	382.148	496.319	490.347	367.641	417.324	373.288	188.220	241.824	301.146	176.682	372.003	0.00015639	7.4477e-05	0.00082062	251.43	6.7201e-07	9.0145e-07	221.17	93.57	1.105e-06	1.1708e-06	93.467	28.086	29.502	8.2775	9.5028e-07	8.6186	9.4397e-05	5.6344e-05	0.0015357	265.35	1.0283e-06	7.6822e-07	233.43	102.72	6.7384e-07	5.3723e-07	98.629	29.773	33.504	9.0155	5.7788e-07	9.3096	509.829	265.058	502.411	185.420	264.592	318.448	183.955	190.656	279.305	321.685	188.130	191.617	194.998	198.572	288.389	195.048	-8191	255	
28147.443	1	1	0	0	0.38037	0.052146	0.1476	0.092426	0.2579	0.12179	0.14407	0.14574	0.13846	0.17091	0.084805	0.2397	0.063313	0.074793	0.023874	0.085054	-1.6437	-1.8958	-1.8333	-2.2417	-2.0458	-2.1771	-2.4646	-2.0375	-2.0833	-2.1833	-1.85	-2.2729	-2.1104	-2.0583	-2.4521	-1.9854	382.123	369.060	442.086	183.735	492.148	401.574	183.319	421.539	287.189	236.649	384.089	330.031	262.088	465.014	511.975	448.009	0.00013772	0.00015491	0.00052219	254.02	1.0024e-06	1.4754e-06	221.59	93.356	1.4379e-06	1.3182e-06	92.87	27.774	29.196	8.1126	1.2705e-06	8.4781	9.5548e-05	5.7919e-05	0.0010962	267.13	9.7027e-07	1.148e-06	233.99	104.17	9.4049e-07	6.0817e-07	98.077	29.36	31.381	9.2707	7.5462e-07	9.1121	510.122	259.567	511.556	185.619	297.877	319.776	184.169	190.599	281.984	310.502	187.986	191.739	194.768	198.113	306.632	195.542	-8191	255	
28147.562	1	1	0	0	0.13422	0.14561	0.14165	0.10553	0.11674	0.067231	0.077961	0.19227	0.027474	0.013928	0.33763	0.037686	0.16235	0.1194	0.13015	0.080653	-1.775	-2.1958	-1.8896	-2.1792	-2.1583	-2.1021	-2.4375	-2.0042	-2.2396	-2.3187	-1.85	-2.3125	-2.0312	-1.8917	-2.25	-1.975	444.303	468.053	411.017	268.402	491.953	492.155	224.886	515.464	200.628	265.362	505.206	256.085	174.798	361.733	225.973	192.967	0.00013396	7.8023e-05	0.0009692	254.59	9.8687e-07	1.6232e-06	221.17	93.276	1.126e-06	7.0909e-07	92.264	27.505	29.29	7.9093	1.2229e-06	8.3427	0.00010073	5.5119e-05	0.0018362	267.44	7.3105e-07	1.4208e-06	233.53	105	9.0809e-07	5.2935e-07	97.292	28.984	30.946	10.139	6.0261e-07	8.917	510.962	268.206	514.149	185.537	258.381	303.789	184.424	191.083	269.973	340.409	187.641	191.448	193.796	199.471	324.002	195.215	-8191	255	
28147.635	1	1	0	0	0.059735	0.032634	0.21775	0.20777	0.24965	0.25889	0.22628	0.17205	0.23676	0.098335	0.21329	0.2141	0.2367	0.043761	0.089047	0.21163	-1.55	-2.1125	-1.9188	-2.1646	-2.2333	-2.0375	-2.3729	-2.0271	-2.1125	-2.1917	-2.0062	-2.275	-2.15	-2.0417	-2.3	-2.1813	526.184	477.505	515.178	466.717	437.589	433.080	211.072	423.967	348.946	511.442	407.637	376.591	246.921	200.908	357.107	411.103	0.00013336	0.00010818	0.0011257	252.14	1.2777e-06	7.0702e-07	218.58	92.489	2.2895e-05	1.1042e-06	90.81	27.195	29.167	7.7184	1.5769e-06	8.3461	0.00010232	5.9902e-05	0.0022081	265.58	7.7454e-07	2.084e-06	230.75	105.06	1.8928e-05	7.3755e-07	96.391	28.816	30.805	10.078	8.0409e-07	8.9368	510.158	272.770	524.251	185.417	282.576	284.835	184.004	191.712	265.121	328.973	188.340	191.377	193.928	199.201	286.830	195.147	-8191	255	
28147.730	1	1	0	0	0.062378	0.044893	0.26169	0.15159	0.43493	0.068797	0.066137	0.18453	0.17018	0.22095	0.15137	0.19195	0.066	0.10815	0.015327	0.14505	-1.5708	-2.4521	-1.8833	-2.0792	-2.1542	-1.7687	-2.2875	-2.125	-2.1458	-2.4354	-1.8604	-2.2542	-2.2042	-1.9396	-2.3396	-2.1625	287.117	333.487	194.520	417.164	212.759	478.692	420.345	342.210	261.020	420.240	458.369	269.997	413.885	482.435	340.682	234.233	0.00013865	0.00012668	0.0014948	250.25	1.0369e-06	9.63e-07	219.42	92.118	1.6264e-05	7.9916e-07	92.472	28.149	29.424	7.8502	4.0351e-07	8.571	0.00014943	6.8184e-05	0.0030003	263.46	7.8514e-07	1.7861e-06	230.53	97.838	7.0272e-05	5.484e-07	97.935	29.691	31.246	10.542	6.9068e-07	9.1663	509.600	248.923	174.386	185.471	303.206	325.613	184.071	191.314	249.286	286.887	187.795	191.583	193.960	198.899	294.940	195.431	-8191	255	
28147.852	1	1	0	0	0.2319	0.19559	0.16415	0.14736	0.20962	0.34204	0.08626	0.1014	0.054039	0.05828	0.136	0.19128	0.014541	0.089144	0.22068	0.25732	-1.4312	-2.4104	-1.8292	-2.1292	-2.2146	-1.9458	-2.2438	-2.1729	-2	-2.4542	-1.9917	-2.0625	-2.3208	-1.9104	-2.1979	-2.2104	295.100	253.731	202.942	386.984	316.781	173.979	275.439	478.063	505.937	254.550	199.713	386.368	364.977	241.250	381.155	364.013	0.00013547	0.0001643	0.001307	251.44	1.2643e-06	4.4522e-07	219.56	92.811	5.5823e-05	1.6396e-06	93.902	28.613	30.108	7.9124	9.894e-07	8.5522	0.00015021	5.7277e-05	0.0025177	263.84	7.1376e-07	2.3608e-06	231.66	97.714	0.00010763	6.3312e-07	98.852	30.228	31.595	10.314	7.2808e-07	9.223	514.664	255.793	178.824	185.292	275.615	410.313	184.047	190.346	342.044	318.347	188.142	191.681	194.497	199.061	292.610	195.413	-8191	255	
28147.945	1	1	0	0	0.241	0.2985	0.15011	0.31477	0.13488	0.3159	0.30967	0.16965	0.070383	0.16827	0.074438	0.18595	0.15691	0.2265	0.26982	0.1278	-1.3875	-2.4313	-2.1958	-2.2396	-2.4354	-2.0042	-2.2771	-2.2979	-1.9604	-2.3146	-1.8708	-2.0021	-2.4292	-1.9583	-2.2062	-2.1833	186.643	278.142	357.436	452.829	358.018	385.580	514.836	187.005	438.272	382.968	515.897	215.092	508.353	402.531	527.555	529.129	0.00013943	0.00011212	0.00046809	247.54	1.4595e-06	4.1899e-07	217.23	90.584	5.2554e-05	1.2457e-06	91.019	27.762	29.132	7.5654	1.7178e-07	8.3605	0.00018856	8.3524e-05	0.0020747	265.39	1.0941e-06	2.0741e-06	229.25	95.672	9.7439e-05	1.5362e-06	96.171	29.39	30.865	10.583	1.9315e-06	8.9876	517.128	234.992	249.446	184.291	291.113	402.960	184.327	190.193	352.796	349.454	187.802	191.624	194.080	198.543	253.053	194.883	-8191	255	
28148.043	1	1	0	0	0.13102	0.22037	0.18874	0.25336	0.14045	0.21721	0.20401	0.14068	0.17861	0.073633	0.11722	0.071491	0.21675	0.1468	0.1178	0.12076	-1.2563	-2.3104	-2.0917	-1.9604	-2.3292	-2.0396	-2.1125	-2.2083	-1.7938	-2.0563	-2.0146	-2.0583	-2.25	-2.125	-2.0604	-2.2646	269.328	228.301	309.418	498.545	456.165	453.004	505.964	275.867	345.790	457.157	480.936	493.953	511.300	419.880	174.360	284.761	0.00012632	0.00010219	0.00042947	246.81	6.9632e-07	2.8175e-07	213.91	90.445	5.4645e-05	1.5386e-06	91.086	28.103	29.442	7.7689	9.922e-07	8.503	0.0001894	0.00011817	6.7851e-05	277.2	1.1693e-06	2.3172e-06	226.14	95.48	0.00010239	1.0738e-06	96.428	29.638	31.056	9.861	1.0647e-06	9.1486	512.399	281.104	263.531	184.563	296.416	365.783	183.928	190.255	352.687	357.248	188.216	191.240	193.883	198.294	315.948	195.548	-8191	255	
28148.162	1	1	0	0	0.13533	0.35774	0.31885	0.13612	0.069004	0.12661	0.088031	0.047522	0.36446	0.16856	0.15859	0.18287	0.19797	0.28905	0.17992	0.14305	-1.5542	-2.3104	-2.0583	-2.075	-2.2438	-2.0917	-2.1729	-2.3167	-1.9958	-2.2979	-2.2938	-1.8771	-2.3479	-2.0458	-2.0396	-2.275	385.195	454.825	245.955	191.480	385.842	349.608	246.923	255.439	287.577	420.565	318.007	473.990	448.750	178.397	283.370	392.227	0.00012891	8.5506e-05	4.6262e-05	247.43	1.1646e-06	2.0486e-06	215.68	91.841	3.7785e-05	1.4605e-06	93.214	28.554	29.776	8.1561	3.7208e-05	8.9522	0.00017397	7.7633e-05	1.8213e-05	283.47	8.3086e-07	1.3337e-06	228.37	96.609	6.8876e-05	6.0948e-07	98.586	30.3	31.537	9.7393	2.4483e-05	9.5556	518.245	233.852	268.991	184.867	268.566	320.734	183.824	190.325	366.278	337.816	187.852	191.573	194.278	199.863	181.338	195.254	-8191	255	
28148.234	1	1	0	0	0.22378	0.10631	0.34046	0.28532	0.039145	0.088349	0.17589	0.32369	0.17768	0.17341	0.035608	0.081712	0.21757	0.096118	0.13652	0.15235	-1.5083	-2.1979	-2.2354	-1.8521	-2.3229	-2.1396	-1.8917	-2.2146	-1.9542	-2.2188	-2.1396	-1.6208	-2.4104	-2.0667	-1.8917	-2.2667	508.631	211.140	464.825	449.760	373.707	244.511	435.843	472.972	459.989	507.903	205.620	312.458	273.949	505.984	234.791	373.084	0.0001565	0.00011721	3.9035e-05	256.87	1.2537e-06	1.4064e-06	225.82	95.168	4.694e-05	1.6899e-06	97.973	30.084	30.763	8.6621	2.7775e-05	9.3321	0.00012655	6.0777e-05	1.4453e-05	283.26	6.5521e-07	7.8341e-07	238.07	100.46	8.6346e-05	7.7039e-07	103.54	31.661	32.544	9.2281	5.9857e-05	9.9448	516.071	264.582	255.670	185.180	301.618	327.053	183.970	190.463	368.312	314.581	187.608	191.624	194.214	198.353	182.856	194.853	-8191	255	
28148.330	1	1	0	0	0.24609	0.22206	0.12991	0.17115	0.2243	0.30252	0.22738	0.31666	0.3344	0.12341	0.11683	0.23461	0.11685	0.11587	0.13706	0.1173	-1.6021	-2.1562	-2.3396	-1.9417	-2.1667	-2.0583	-1.8125	-2.3688	-1.8604	-2.3083	-2.2771	-1.7354	-2.2771	-2.3063	-1.8271	-2.3604	310.905	513.556	187.489	505.499	460.001	366.779	336.836	388.214	509.920	265.753	490.278	413.356	256.984	297.783	228.596	470.115	0.00013974	0.00013985	3.7894e-05	257.88	9.1248e-07	8.1313e-07	226.11	95.94	3.043e-05	1.5262e-06	98.444	30.779	31.819	8.5951	3.9453e-05	9.1557	0.00014242	7.495e-05	1.4682e-05	288.55	6.2119e-07	6.2356e-07	239.64	101.27	5.9087e-05	7.3361e-07	104.09	32.406	33.441	9.165	8.2128e-05	9.7948	514.136	266.376	278.784	184.962	295.448	342.797	183.850	190.494	381.231	365.008	187.680	191.314	194.195	198.395	515.783	194.853	-8191	255	
28148.451	1	1	0	0	0.20197	0.26438	0.079578	0.24564	0.093319	0.10353	0.02228	0.16827	0.25854	0.1811	0.21516	0.18005	0.1247	0.22133	0.093448	0.11212	-1.675	-2.0292	-2.1375	-1.8458	-2.2833	-2.0875	-1.9375	-2.3229	-2.0604	-2.0583	-2.3854	-2.1437	-2.1792	-2.2583	-1.8417	-2.4417	469.747	384.279	370.446	488.017	355.004	526.054	303.438	440.766	389.200	358.848	391.769	499.966	382.183	430.016	511.904	495.016	0.0001475	7.0857e-05	3.3865e-05	257.31	1.3832e-06	1.4194e-06	226.46	95.696	4.2728e-05	3.5563e-06	97.711	30.752	31.65	8.6672	2.8094e-05	9.1644	0.00012086	7.1801e-05	1.151e-05	283.99	6.7528e-07	5.5486e-07	239.04	101.29	4.2146e-05	2.6677e-05	103.61	32.409	33.447	9.1705	5.9756e-05	9.7584	510.912	264.301	268.347	185.105	296.651	316.628	184.323	190.496	378.462	521.900	187.673	191.135	193.773	198.547	515.848	195.308	-8191	255	
28148.549	1	1	0	0	0.22478	0.21761	0.14036	0.30724	0.15602	0.006731	0.19169	0.22532	0.043141	0.25564	0.077747	0.13217	0.1357	0.075753	0.12078	0.028981	-1.5542	-2.175	-2.4083	-1.7583	-2.1083	-2.1646	-1.9312	-2.3417	-2.0104	-1.7812	-2.3833	-1.9542	-2.1479	-2.2146	-1.8563	-2.2062	207.723	226.783	315.168	445.120	291.502	409.086	449.755	478.074	176.203	239.661	428.671	517.184	333.186	492.149	510.787	198.659	0.00014851	8.9898e-05	2.8137e-05	257.31	8.0562e-07	1.5009e-06	226.69	95.868	1.822e-06	1.596e-06	99.85	31.297	31.682	8.5695	3.5059e-05	9.3028	0.00010658	0.00012797	1.169e-05	286.29	8.3253e-07	4.6569e-07	239.95	101.39	7.1028e-07	6.0103e-05	105.31	33.13	33.575	9.1529	7.9945e-05	9.8879	515.392	259.511	248.574	185.218	293.828	305.772	184.253	190.167	302.395	478.927	188.222	191.677	193.956	198.715	522.073	195.058	-8191	255	
28148.643	1	1	0	0	0.29423	0.046122	0.27127	0.27615	0.12083	0.11818	0.20425	0.053275	0.14551	0.20332	0.13813	0.052673	0.28589	0.06124	0.095226	0.04526	-1.65	-1.9542	-2.3479	-2	-2.125	-2.3625	-1.9937	-2.3542	-2.0208	-1.9917	-2.3229	-2.0375	-2.2354	-2.3563	-1.9521	-2.2083	459.935	223.058	346.865	423.460	430.951	224.850	461.257	384.818	505.832	455.136	477.658	194.873	345.447	283.441	191.490	223.751	0.00014659	0.00011164	4.5063e-05	253.47	9.6353e-07	1.0599e-06	230.58	96.659	2.0309e-06	4.0742e-05	101.99	32.058	32.516	8.6433	2.8843e-05	9.4623	8.9997e-05	0.00011835	1.2589e-05	280.49	7.7287e-07	5.1391e-07	242.63	101.87	6.7268e-07	8.5674e-05	107	33.858	34.264	9.2255	5.9571e-05	10.158	518.666	296.914	256.531	185.566	279.671	323.354	184.155	190.501	289.803	407.484	188.006	191.843	194.051	198.723	172.823	195.673	-8191	255	
28148.738	1	1	0	0	0.068537	0.27668	0.15462	0.0684	0.24476	0.27785	0.1345	0.054485	0.27408	0.2707	0.23042	0.117	0.19662	0.22709	0.10477	0.12939	-1.6167	-1.6771	-2.3542	-2.0625	-2.0104	-2.3167	-1.9188	-2.0854	-2.1437	-1.8375	-2.3667	-1.9188	-2.0208	-2.3167	-1.9562	-2.15	365.267	333.951	367.759	293.523	502.861	505.255	497.966	425.770	405.687	374.358	408.120	250.846	494.689	429.374	448.813	278.599	0.00015917	0.00015554	3.3029e-05	255.56	2.5426e-05	1.8246e-06	232.71	97.662	1.3922e-06	3.5803e-05	103.02	32.753	33.457	8.8519	2.9952e-05	9.6509	9.6868e-05	0.00015603	1.1052e-05	277.85	2.5591e-05	4.4455e-07	244.74	103.22	6.7731e-07	6.3561e-05	108.7	34.695	35.239	9.3961	7.7025e-05	10.375	511.988	296.600	251.599	186.104	236.860	324.470	183.606	190.391	302.911	418.768	188.047	191.482	193.945	198.566	180.523	195.674	-8191	255	
28148.859	1	1	0	0	0.16073	0.023371	0.072174	0.14398	0.38921	0.2108	0.28811	0.1701	0.048586	0.082431	0.12998	0.092041	0.20215	0.36753	0.10805	0.089213	-1.6812	-1.7417	-2.225	-2.0646	-1.9125	-2.4188	-1.975	-2.1583	-2.3104	-1.9188	-2.2521	-1.9667	-1.8146	-2.2229	-1.8188	-1.9583	447.871	235.726	482.782	357.709	385.034	341.437	419.727	229.576	212.035	245.767	525.610	400.100	499.154	192.505	394.017	493.766	0.00016257	0.00016607	3.4889e-05	256.38	1.756e-05	1.35e-06	234.66	98.903	1.9396e-06	3.9972e-05	104.35	33.34	34.001	8.8728	2.1093e-05	9.7517	9.4803e-05	0.00011537	1.3488e-05	269.86	5.2065e-05	5.4826e-07	245.83	104.55	6.5533e-07	8.1143e-05	109.73	35.18	35.756	9.4648	5.6154e-05	10.435	513.103	266.464	276.941	185.585	233.182	314.929	184.236	190.518	289.010	424.586	188.098	191.169	193.805	198.677	193.230	194.876	-8191	255	
28148.930	1	1	0	0	0.32844	0.14238	0.1111	0.37267	0.11891	0.084674	0.097152	0.33704	0.13553	0.10469	0.12312	0.064938	0.22171	0.11722	0.065411	0.068215	-1.8417	-1.7188	-2.0729	-2.1729	-1.7729	-2.2646	-1.9854	-1.975	-2.1813	-1.9021	-2.05	-2.1396	-1.7083	-2.1688	-1.9854	-1.9979	274.743	389.339	347.841	459.933	386.572	279.050	176.066	366.995	385.129	334.750	465.471	414.171	502.505	244.154	414.788	440.658	0.00016566	0.0001482	4.0654e-05	256.84	3.4416e-05	1.9593e-06	232.69	99.454	1.8506e-06	2.8337e-05	104.52	33.604	34.029	8.9705	5.4193e-06	10.079	9.5548e-05	0.00015293	1.3685e-05	270.64	6.6435e-05	4.1681e-07	246.35	105.34	6.5533e-07	5.9667e-05	110.55	35.614	35.94	9.5974	3.2407e-05	11.292	514.196	278.996	282.429	185.074	297.929	324.614	183.753	190.505	281.769	430.691	188.103	191.370	193.993	198.608	417.266	193.746	-8191	255	
28149.027	1	1	0	0	0.12872	0.10681	0.044218	0.18809	0.15681	0.28836	0.060303	0.072011	0.14992	0.18064	0.099919	0.18159	0.0063161	0.29027	0.1388	0.029941	-1.7979	-1.7354	-2.1188	-2.1	-1.7938	-2.3771	-2.1146	-2.05	-2.2188	-1.7167	-2.1542	-2.05	-2.0354	-2.2271	-1.8979	-1.8542	465.978	387.050	475.713	497.247	461.628	194.143	487.140	500.380	441.737	424.942	211.774	528.583	326.288	527.912	370.339	497.984	0.00017826	0.00015471	1.8664e-05	258.38	2.9916e-05	1.379e-06	236.41	100.49	1.8029e-06	3.8777e-05	105.42	33.952	34.234	9.1062	1.4279e-06	10.21	9.9101e-05	8.9066e-05	1.6072e-05	271.98	4.9807e-05	4.2473e-07	249.07	106.02	6.7789e-07	7.3754e-05	111.6	35.94	36.175	9.7145	5.9115e-07	11.984	513.328	263.299	273.583	185.335	304.452	306.617	184.524	190.255	280.326	437.220	187.968	191.472	193.725	198.119	294.265	193.962	-8191	255	
28149.123	1	1	0	0	0.051423	0.24828	0.13993	0.12552	0.10468	0.32794	0.21352	0.19813	0.24579	0.1141	0.034772	0.032733	0.081476	0.18465	0.065409	0.11062	-1.6854	-1.7437	-1.7625	-2.1771	-1.7521	-2.2729	-2.0812	-1.8667	-2.2812	-1.925	-2.1833	-2.1104	-1.7729	-2.1875	-1.8917	-1.7938	447.192	174.535	237.682	301.460	210.448	399.455	492.416	393.239	260.025	507.302	300.334	221.923	312.833	273.937	392.605	354.062	0.0001708	0.000125	3.7665e-05	260.16	2.9002e-05	1.6479e-06	238.24	101.42	1.2766e-06	2.7817e-05	106.94	34.295	34.574	9.1277	1.3958e-06	10.225	9.4464e-05	0.00011555	1.9636e-05	274.47	6.368e-05	4.0294e-07	250.93	107.15	6.6112e-07	5.7929e-05	112.92	36.249	36.475	9.7697	6.1166e-07	12.428	512.391	296.162	250.723	185.367	306.739	311.071	184.393	190.582	284.269	439.678	188.326	191.338	194.072	198.635	303.108	193.449	-8191	255	
28149.242	1	1	0	0	0.12608	0.25873	0.23096	0.25339	0.23408	0.17367	0.33299	0.14776	0.029531	0.077845	0.19704	0.24469	0.13947	0.10942	0.072364	0.078596	-1.6542	-1.8729	-1.9208	-2.3771	-1.9146	-2.25	-2.1917	-1.9833	-2.2313	-2.0542	-1.9396	-2.3333	-1.8917	-2.275	-2.1583	-1.8271	516.844	244.791	440.685	465.848	516.554	357.520	436.984	218.382	318.031	463.285	407.090	321.580	437.176	485.900	320.171	297.144	0.00017638	0.00014802	3.1522e-05	263.75	2.3917e-05	1.4911e-06	239.82	102.6	1.7904e-06	3.3346e-05	106.24	34.424	34.636	9.2557	1.2283e-06	10.271	9.4634e-05	8.5333e-05	1.6693e-05	277.38	4.8778e-05	5.4297e-07	253.41	108.12	5.6799e-07	3.0177e-05	117.36	36.326	36.648	9.8662	6.3398e-07	12.005	512.481	287.543	284.785	185.388	313.352	324.595	184.025	190.336	305.146	416.932	187.706	191.259	194.139	198.439	305.651	194.034	-8191	255	
28149.340	1	1	0	0	0.17959	0.055644	0.15238	0.089518	0.24989	0.092436	0.043873	0.066226	0.2219	0.063654	0.060557	0.061412	0.20766	0.076669	0.087555	0.26203	-1.8083	-1.7604	-1.9458	-2.3354	-1.9	-1.9854	-2.1125	-1.9813	-2.1417	-1.8625	-1.9333	-2.2479	-1.7042	-2.1042	-2.3542	-1.6833	359.118	212.657	205.578	459.493	229.360	283.958	468.148	526.489	478.226	295.223	491.963	206.064	482.413	497.749	329.524	470.493	0.000174	0.00012045	2.8067e-05	265.23	2.6659e-05	1.1226e-06	238.58	102.75	1.765e-06	1.0979e-06	105.07	34.3	34.562	9.2177	1.35e-06	10.223	9.5615e-05	5.6169e-05	3.3925e-05	278.42	6.098e-05	6.9556e-07	252	108.06	6.9987e-07	4.4923e-07	120.31	36.118	36.566	9.8495	5.4772e-07	12.264	511.042	268.894	258.206	185.344	323.574	330.793	184.349	190.332	287.970	312.615	187.537	191.251	193.809	198.414	311.630	194.065	-8191	255	
28149.436	1	1	0	0	0.08306	0.20863	0.16365	0.043682	0.13621	0.15912	0.24202	0.082658	0.068598	0.15778	0.22189	0.095819	0.15515	0.28385	0.23273	0.1975	-1.7854	-2.1667	-1.8479	-2.2062	-1.9083	-2.0208	-2.2271	-1.875	-2.1125	-2.325	-1.9417	-2.1917	-1.9229	-2.1417	-2.2729	-1.9958	243.134	344.013	299.354	178.940	395.601	254.340	338.906	176.829	304.843	466.920	212.361	370.685	518.182	493.963	218.881	481.988	0.00016642	0.00016462	2.8554e-05	265.24	2.4445e-05	8.2076e-07	241.34	102.53	1.4009e-06	1.7474e-06	105.46	34.551	34.594	9.2218	1.1877e-06	10.208	9.6529e-05	4.8528e-05	2.9021e-05	278.49	4.5916e-05	6.7772e-07	253.21	108.34	6.7442e-07	4.2558e-07	122.32	36.327	36.644	9.8449	5.061e-07	11.917	512.850	273.126	290.863	185.339	344.872	342.586	184.095	190.156	285.471	320.803	188.017	191.578	194.066	198.199	288.441	194.212	-8191	255	
28149.531	1	1	0	0	0.14588	0.13714	0.068864	0.16781	0.21926	0.15259	0.17785	0.095353	0.20028	0.073627	0.25175	0.21094	0.12309	0.12355	0.19367	0.19243	-1.6646	-2.1125	-1.8333	-2.2896	-2.1875	-1.8438	-2.4354	-1.7333	-2.1583	-1.9729	-1.7938	-2.2417	-2.0729	-1.9771	-2.2188	-1.8292	491.847	267.850	439.187	240.927	222.552	255.793	530.112	468.927	338.064	527.819	497.645	500.266	265.515	347.703	244.214	366.516	0.00017978	0.00013683	1.6545e-05	264.15	2.9848e-05	1.1667e-05	240.21	102.33	1.5376e-06	1.4827e-06	105.66	34.269	34.913	9.2437	6.6648e-07	10.227	0.00010496	4.3804e-05	3.574e-05	279.21	2.1746e-05	3.3057e-05	253.48	108.2	7.6176e-07	5.1031e-07	120.57	36.277	36.755	9.8693	4.3854e-07	12.232	510.668	286.355	262.740	185.498	349.804	287.778	184.079	190.549	272.293	295.804	187.973	191.351	194.030	198.782	326.526	194.591	-8191	255	
28149.629	1	1	0	0	0.19559	0.12874	0.19854	0.19053	0.14751	0.29385	0.077804	0.12506	0.17564	0.18233	0.078489	0.2385	0.15913	0.15973	0.077744	0.34003	-1.6854	-2.1729	-1.6708	-2.1667	-2.0417	-1.9583	-2.2604	-1.65	-1.9958	-2.2375	-1.925	-2.2208	-2.0708	-1.9354	-2.3125	-1.9979	192.489	292.442	465.468	282.738	455.844	491.110	294.237	448.363	410.815	364.553	456.940	289.807	402.515	386.954	300.598	432.642	0.00016751	0.00012347	3.2556e-05	266.47	1.2609e-06	2.829e-05	242.3	102.97	1.7427e-06	1.3776e-06	106.15	34.441	34.562	9.2709	1.3847e-06	9.9852	0.00010645	3.9021e-05	3.0819e-05	280.48	6.7417e-07	5.4246e-05	254.96	108.66	7.9126e-07	5.2804e-07	122.91	36.363	36.713	9.8841	5.1756e-07	11.794	513.955	250.185	280.406	185.702	265.749	360.518	184.506	190.399	284.336	330.498	188.080	191.536	193.891	198.147	305.817	195.372	-8191	255	
28149.725	1	1	0	0	0.11475	0.18718	0.15101	0.17472	0.13028	0.083724	0.12705	0.2113	0.15141	0.31368	0.074897	0.127	0.17044	0.17682	0.051162	0.2417	-1.5958	-2.2375	-1.8937	-2.1104	-2	-1.7667	-2.2958	-2.0021	-1.7313	-2.325	-1.9021	-2.1188	-2.1458	-1.8208	-2.4354	-1.9521	496.499	333.554	476.431	178.328	340.479	288.834	394.507	475.045	196.123	479.541	177.711	401.557	293.703	366.065	210.000	308.281	0.00016921	0.00015068	3.8933e-05	266.43	1.4122e-06	3.4275e-05	239.52	102.26	1.9512e-06	1.5363e-06	105.18	33.89	34.373	9.1887	1.4528e-06	9.927	0.00010127	4.3862e-05	3.435e-05	280.31	6.6357e-07	6.8551e-05	252.54	108.05	8.2943e-07	4.0654e-07	119.54	35.731	36.282	9.7755	5.5797e-07	11.035	511.847	273.774	273.670	185.294	282.440	364.095	184.238	190.343	288.307	305.757	187.791	191.306	193.887	198.469	321.166	195.252	-8191	255	
28149.844	1	1	0	0	0.3028	0.14922	0.077749	0.14045	0.081745	0.18621	0.14349	0.2857	0.043877	0.23305	0.23101	0.21732	0.21604	0.045725	0.24918	0.14114	-1.4708	-2.1063	-1.7854	-2.0042	-2.0333	-1.7042	-2.1958	-2	-1.8312	-2.2792	-1.9438	-2.0479	-2.0167	-1.8542	-1.9771	-1.9646	372.363	410.745	315.051	518.814	201.294	282.410	472.964	479.028	441.403	444.601	457.002	228.268	318.375	302.306	439.493	421.488	0.00069943	0.0001044	2.1543e-05	265.4	1.5974e-06	2.932e-05	238.72	102.11	1.1726e-06	1.5029e-06	104.87	33.745	34.288	9.014	1.3066e-06	9.8729	0.0018786	3.8204e-05	2.4492e-05	278.77	5.922e-07	5.2991e-05	252.14	107.6	1.3182e-06	4.5317e-07	121.13	35.63	36.126	9.6699	5.1213e-07	10.525	494.711	265.428	256.006	185.671	288.388	370.288	183.924	190.095	305.882	352.195	187.269	191.312	193.857	198.450	285.625	194.748	-8191	255	
28149.939	1	1	0	0	0.097445	0.13339	0.11764	0.30506	0.31035	0.44563	0.20361	0.22888	0.082463	0.36201	0.15955	0.11215	0.028022	0.073697	0.15131	0.083406	-1.2583	-2.3354	-1.7208	-2.0771	-2.2229	-1.875	-2.0312	-2.1188	-1.7479	-2.2812	-1.9771	-1.9521	-2.3187	-1.6146	-2.1521	-2.0021	379.679	509.421	383.513	208.826	302.888	312.277	507.987	474.310	201.440	221.585	295.456	214.991	457.747	453.018	367.662	446.469	0.0006311	0.00011707	3.6751e-05	264.94	8.8028e-07	3.6225e-05	238.5	101.36	1.7933e-06	1.3985e-06	105.57	33.904	34.106	9.1009	1.7845e-06	9.9394	0.0027729	4.3045e-05	2.8857e-05	278.14	5.1357e-07	6.6427e-05	251.33	107.13	1.0978e-06	3.6976e-07	118.66	35.759	36.166	9.688	6.2734e-07	10.571	516.230	264.808	272.152	185.591	281.331	377.877	184.112	190.390	282.796	342.127	188.049	191.491	193.698	198.535	314.494	195.161	-8191	255	
28150.035	1	1	0	0	0.14941	0.091576	0.11918	0.091049	0.12978	0.31874	0.20476	0.15864	0.40047	0.063105	0.13667	0.2096	0.17778	0.26495	0.16202	0.20842	-1.3271	-2.2583	-1.8604	-1.9271	-2.0833	-1.8771	-2.2333	-2.1375	-1.8083	-2.3312	-1.925	-1.9667	-2.3688	-1.8083	-2.0563	-2.2708	486.155	469.547	289.107	518.053	385.879	497.140	476.376	454.196	288.450	300.269	178.324	369.223	340.738	360.870	472.274	424.499	0.00074126	0.00014114	3.0132e-05	264.8	1.1528e-06	2.7281e-05	239.96	101.81	1.9867e-06	1.8111e-06	106.11	33.909	34.478	9.1057	1.2189e-06	10.039	0.0034989	4.462e-05	1.9979e-05	277.51	6.1562e-07	5.2582e-05	252.37	107.35	1.49e-06	4.1442e-07	115.32	37.876	36.345	9.7356	6.8465e-07	10.69	518.932	264.316	278.354	185.226	281.817	388.891	184.252	190.253	313.115	321.688	188.215	190.646	193.704	198.171	305.221	195.262	-8191	255	
28150.131	1	1	0	0	0.13351	0.093302	0.25417	0.11949	0.2236	0.19841	0.22143	0.045728	0.035847	0.099023	0.11695	0.1689	0.18985	0.19697	0.055566	0.16686	-1.4188	-2.2062	-2.0875	-1.9625	-2.375	-1.7812	-2.0146	-2.1625	-1.7896	-2.1	-2.0146	-1.7229	-2.2938	-1.9792	-2.0354	-2.1083	512.435	469.902	465.054	202.190	454.082	425.492	421.505	435.484	211.615	410.059	445.074	306.720	203.878	246.002	196.785	510.582	0.00063253	9.9094e-05	4.4506e-05	264.92	1.2881e-06	3.2526e-05	237.98	102	2.6883e-06	1.3413e-06	106.16	34.006	34.352	9.0833	1.231e-06	9.9542	0.0027714	3.7329e-05	1.2262e-05	278.25	5.0298e-07	6.6833e-05	252.5	107.51	1.147e-06	4.4529e-07	112.14	38.639	36.468	9.7143	7.8177e-07	10.609	522.245	244.663	252.379	185.518	290.077	395.779	183.977	190.493	283.473	320.318	188.315	190.927	193.410	198.275	308.151	195.069	-8191	255	
28150.229	1	1	0	0	0.097016	0.24105	0.069113	0.039391	0.029178	0.057139	0.2004	0.14181	0.08806	0.020746	0.10548	0.14291	0.23469	0.23186	0.15263	0.12532	-1.2417	-2.1146	-2.1583	-1.9062	-2.3021	-2.0312	-1.9521	-2.1708	-1.875	-2.1875	-2.1646	-1.8458	-2.225	-1.8708	-1.9271	-2.0938	200.030	271.484	512.813	366.490	519.736	292.578	431.696	401.564	486.084	404.847	217.197	182.996	309.373	427.240	455.154	300.483	0.00076621	0.00013432	4.1065e-05	262.11	6.8806e-07	2.8166e-05	236.87	101.61	1.9032e-06	1.886e-06	106.26	33.788	34.558	9.1117	1.9327e-06	9.9965	0.0035474	4.3979e-05	1.2589e-05	275.82	4.9629e-07	4.5814e-05	250.28	107.2	1.4154e-06	5.1293e-07	112.61	39.373	36.658	9.7255	8.7044e-07	10.703	523.443	245.966	275.538	185.673	261.833	388.775	184.012	190.412	305.244	311.988	187.800	191.070	193.939	198.159	298.528	195.136	-8191	255	
28150.324	1	1	0	0	0.18894	0.24797	0.25835	0.1773	0.16019	0.17524	0.2303	0.30046	0.26585	0.28015	0.18711	0.1593	0.10876	0.14164	0.24199	0.21066	-1.5146	-2.1479	-2.0563	-1.7958	-2.2958	-1.8854	-1.9729	-2.3583	-1.7521	-1.9	-1.9188	-1.8083	-2.1646	-1.85	-1.9146	-2.2458	435.293	339.109	363.462	392.735	397.278	347.058	407.965	233.237	267.325	250.414	518.778	290.454	173.864	318.519	503.273	455.655	0.00065834	0.00012353	2.7661e-05	261.54	1.7996e-06	3.4743e-05	237.78	101.47	1.2436e-06	1.6351e-06	107.14	34.478	35.004	9.1977	8.207e-07	10.285	0.0028451	6.2177e-05	1.478e-05	275.33	5.3699e-07	1.663e-05	261.13	107.5	1.0938e-06	6.8304e-07	113.17	39.327	37.014	9.8242	1.3856e-06	10.906	530.394	237.032	251.958	185.075	295.402	397.501	183.690	190.376	281.783	339.315	187.559	190.763	193.751	198.383	319.461	195.275	-8191	255	
28150.420	1	1	0	0	0.12542	0.12668	0.0094147	0.19688	0.15449	0.19504	0.3391	0.30362	0.055388	0.16654	0.095903	0.25744	0.10626	0.29959	0.11533	0.1736	-1.4104	-1.8438	-2.0771	-1.6875	-2.0479	-2.1167	-1.8271	-2.25	-1.9667	-1.9562	-2.0958	-1.7667	-2.1104	-1.8771	-1.8312	-2.2354	231.033	503.190	494.747	437.777	489.902	503.011	464.461	352.997	401.311	232.874	476.576	338.043	358.494	237.650	239.343	512.829	0.00073481	0.00017655	5.261e-05	260.69	1.175e-06	9.9749e-07	235.99	102.43	2.2135e-06	2.4803e-06	108.26	35.533	35.257	9.3103	8.8324e-07	10.43	0.0036262	7.7808e-05	1.4224e-05	274.92	6.2231e-07	5.291e-07	266.02	108.07	1.3245e-06	7.4806e-07	114.29	40.696	37.347	9.9175	1.2119e-06	11.143	181.216	275.015	258.306	185.265	271.995	348.882	184.488	190.111	290.459	315.155	188.185	190.813	193.906	198.047	337.932	195.211	-8191	255	
28150.516	1	1	0	0	0.15119	0.19769	0.37594	0.096489	0.16584	0.080149	0.22734	0.11911	0.10233	0.20872	0.29661	0.11558	0.17819	0.1711	0.16093	0.090607	-1.4708	-1.85	-2.2438	-1.7396	-2.0812	-2.1604	-1.8375	-2.2708	-1.8854	-2.0833	-2.2604	-1.7563	-2.1	-2.0875	-1.7958	-2.2625	261.679	274.549	199.742	453.459	227.628	339.439	196.120	401.531	312.054	291.399	422.230	205.815	182.880	384.413	391.252	504.141	0.00041715	0.0017283	4.176e-05	261.36	1.6272e-06	1.2848e-06	237.72	103.59	2.0072e-06	9.3648e-07	109.57	35.747	35.415	9.3844	1.1235e-06	10.423	0.0023472	0.00024462	1.1118e-05	275.55	7.1655e-07	4.7097e-07	272.65	108.87	9.5321e-07	8.0782e-07	115.59	40.398	37.649	9.9923	1.3422e-06	11.203	209.393	200.508	262.577	185.202	276.786	307.300	184.481	190.369	289.198	311.423	188.107	190.900	194.094	198.492	330.862	195.406	-8191	255	
28150.635	1	1	0	0	0.18583	0.15687	0.26806	0.2088	0.22054	0.28967	0.03634	0.12552	0.14248	0.20013	0.18618	0.24776	0.31595	0.12674	0.12809	0.3134	-1.5812	-1.7625	-2.3125	-2	-1.9396	-2.1167	-1.9396	-2.25	-1.9354	-1.9646	-2.3792	-1.7479	-2.0271	-2.2542	-1.8687	-2.2917	403.256	257.214	404.216	402.836	309.003	434.852	234.922	223.590	468.173	467.772	295.859	190.006	206.138	313.683	236.231	468.439	0.00045246	0.0021263	3.6273e-05	263.55	7.8221e-07	1.6327e-06	238.91	103.79	1.38e-06	1.8971e-06	110.43	35.952	35.672	9.4045	1.0753e-06	10.554	0.00078817	0.0040193	1.1526e-05	276.18	7.2714e-07	5.1919e-07	268.44	109.38	7.5193e-07	1.46e-06	116.28	41.305	37.766	9.9922	1.1708e-06	11.267	220.598	199.400	272.023	185.605	270.233	309.744	184.462	190.476	312.755	330.173	188.222	190.389	193.679	198.195	327.630	195.189	-8191	255	
28150.730	1	1	0	0	0.055214	0.097193	0.17158	0.097422	0.12559	0.16359	0.19482	0.20028	0.19199	0.34476	0.084971	0.13417	0.073383	0.14684	0.07796	0.066183	-1.8438	-1.7188	-2.2646	-1.6708	-1.8917	-2.3354	-1.6708	-2.1771	-2.0896	-1.9604	-2.3396	-2.0104	-1.9958	-2.3083	-1.8333	-2.1083	496.681	228.016	458.925	378.654	274.691	185.661	189.900	388.496	396.578	287.678	244.028	479.361	173.779	453.144	228.979	527.492	0.00017844	0.0025902	3.9904e-05	264.25	1.1608e-06	1.258e-06	239.47	103.76	2.275e-06	1.1465e-06	110.56	36.327	35.919	9.4457	1.3202e-06	10.623	0.00010299	0.0048524	1.2344e-05	277.2	7.2101e-07	3.9237e-07	274.42	109.7	7.2185e-07	1.0915e-06	116.95	40.334	38.284	10.067	1.3379e-06	11.376	512.708	255.795	273.044	185.550	312.515	332.122	184.325	190.284	296.075	338.063	188.321	191.348	193.257	198.522	320.972	195.088	-8191	255	
28150.805	1	1	0	0	0.20668	0.28106	0.25424	0.1062	0.13983	0.1659	0.16487	0.20687	0.097109	0.14968	0.066822	0.098331	0.056795	0.15415	0.2095	0.063665	-1.6354	-1.7437	-2.2604	-1.9375	-1.7854	-2.2917	-1.9438	-2.0938	-2.1875	-2.0604	-2.2208	-2.0604	-1.8479	-2.1604	-1.8021	-1.8375	493.783	404.238	469.781	524.621	431.836	373.501	494.456	496.544	411.133	385.040	499.318	359.782	202.837	526.352	420.760	231.952	0.00017248	0.0035981	5.4417e-05	265.52	1.0481e-06	1.2907e-06	243.27	104.07	1.9462e-06	1.8679e-06	111.49	36.468	36.129	9.4868	1.1225e-06	10.638	9.9575e-05	0.0061561	1.2753e-05	278.73	8.8662e-07	4.0822e-07	272.94	110.19	6.3624e-07	1.368e-06	118	39.232	40.685	10.095	1.0592e-06	11.447	515.501	261.911	247.065	185.501	260.429	302.065	184.189	190.335	282.628	317.558	187.708	191.313	192.778	198.528	306.832	195.087	-8191	255	
28150.924	1	1	0	0	0.22545	0.12122	0.13301	0.3801	0.108	0.063063	0.10958	0.23289	0.10794	0.13456	0.11501	0.064196	0.27661	0.16654	0.22377	0.21438	-1.7604	-1.8104	-2.2208	-1.9396	-1.9396	-2.3333	-1.8625	-1.8979	-2.2333	-1.7042	-2.2125	-2.1542	-1.7146	-2.2875	-1.8833	-2.0125	336.205	243.655	245.975	415.609	419.760	476.677	336.816	432.584	258.835	192.979	235.613	346.533	403.647	432.432	172.956	250.346	0.0001913	0.0022774	5.6257e-05	265.63	1.1961e-06	2.2068e-06	245.11	104.87	1.6573e-06	1.6272e-06	112.44	36.855	36.28	9.5109	9.7169e-07	10.76	0.00010689	0.0049324	1.2164e-05	280.1	1.4303e-06	4.4455e-07	279.61	110.97	7.1606e-07	1.1172e-06	118.84	38.964	41.232	10.17	1.2094e-06	11.502	513.803	265.235	264.661	185.538	275.373	311.031	183.634	190.350	297.156	321.919	188.362	191.523	192.828	198.175	322.122	195.036	-8191	255	
28151.020	1	1	0	0	0.033232	0.21492	0.085675	0.082831	0.14317	0.19293	0.13934	0.18753	0.22619	0.13774	0.10207	0.10032	0.1182	0.13533	0.10532	0.21059	-1.7375	-1.7583	-2.1688	-2.1646	-1.825	-2.2833	-1.9188	-1.9125	-2.0708	-1.7583	-2.2417	-2.1458	-1.9146	-2.2625	-1.9042	-2.1	486.262	319.860	408.686	466.482	414.150	305.158	371.198	216.410	337.572	494.616	193.402	295.377	506.771	502.136	327.689	284.648	0.00018039	0.0035495	5.1184e-05	267.19	1.2293e-06	1.3932e-06	243.29	104.89	1.741e-06	1.6138e-06	111.97	36.354	36.092	9.4392	1.409e-06	10.446	0.00010479	0.0062435	1.2311e-05	280.96	1.1688e-06	4.6635e-07	270.42	111.79	5.9344e-07	1.1993e-06	118.04	38.563	41.641	10.066	7.7031e-07	11.242	513.216	272.495	268.995	185.213	262.186	319.177	184.681	189.834	309.641	362.067	187.876	191.665	193.180	198.170	298.212	195.413	-8191	255	
28151.115	1	1	0	0	0.1903	0.14779	0.19175	0.28525	0.33295	0.1151	0.21952	0.26633	0.13617	0.28059	0.11695	0.22791	0.23753	0.13573	0.20166	0.09217	-1.8875	-1.7687	-1.9792	-2.2188	-1.6792	-2.1958	-1.9521	-1.9042	-2.3729	-1.6688	-2.1729	-2.1229	-1.6042	-2.1042	-1.9875	-1.7896	189.758	405.540	477.780	199.736	444.542	274.743	427.160	413.552	324.882	396.680	200.147	433.178	241.219	332.812	495.824	434.839	0.00018079	0.0027646	2.7561e-05	265.71	2.0297e-06	1.5508e-06	243.84	104.7	1.3508e-06	1.8885e-06	111.14	36.371	35.999	9.3393	1.6557e-06	10.382	0.00010418	0.0048671	1.7004e-05	279.1	1.3539e-06	4.6569e-07	262.16	115.72	5.57e-07	9.0108e-07	118.02	38.288	40.572	9.9301	6.4303e-07	11.114	511.920	288.469	249.667	185.446	275.040	339.039	184.271	190.105	292.800	316.019	188.154	190.979	193.384	198.508	310.492	195.174	-8191	255	
28151.213	1	1	0	0	0.14518	0.25187	0.17778	0.16046	0.15295	0.45942	0.22139	0.10537	0.3393	0.13944	0.13586	0.32772	0.10955	0.18223	0.11399	0.08512	-1.9125	-1.8125	-1.9333	-1.9729	-1.9312	-2.1396	-2.075	-1.7958	-2.2208	-1.8729	-2	-2.1542	-1.6292	-2.1688	-2.1417	-1.7687	509.401	366.204	292.794	378.114	338.832	175.058	473.231	525.817	502.654	362.209	190.630	487.411	436.005	422.688	384.400	325.190	0.00017111	0.0035993	4.3975e-05	265.31	1.521e-06	1.2901e-06	249.03	102.63	1.4546e-06	2.0411e-06	111.89	36.257	35.227	9.0972	1.2409e-06	10.201	9.2197e-05	0.0061788	1.8524e-05	278.95	1.0801e-06	5.225e-07	262.19	115.1	6.9813e-07	1.1605e-06	118.28	38.158	40.765	9.6756	6.8163e-07	10.92	513.763	294.761	269.387	185.317	308.194	334.303	184.086	190.407	295.436	319.745	188.002	191.552	192.843	198.873	304.770	195.311	-8191	255	
28151.332	1	1	0	0	0.22072	0.28748	0.1102	0.22838	0.058717	0.31484	0.37054	0.13966	0.22702	0.1188	0.10309	0.25066	0.11591	0.1757	0.040973	0.27304	-1.7896	-1.9312	-1.8396	-2.3167	-1.7479	-2.0812	-2.0375	-1.6479	-2.1583	-2.0938	-1.8104	-2.2542	-1.7708	-2.0729	-2.1813	-1.8396	409.911	296.752	352.394	245.711	513.401	296.421	187.984	278.657	234.080	312.614	257.822	480.476	276.684	317.741	405.173	382.987	0.00017246	0.0026429	0.0002621	265.93	1.2793e-06	1.4399e-06	252.15	103	1.7168e-06	1.6352e-06	114.7	36.965	35.779	9.1415	1.4846e-06	10.399	9.5277e-05	0.0033515	0.00024142	279.9	1.1978e-06	6.8037e-07	265.67	117.29	5.7436e-07	7.8943e-07	120.73	39.084	40.355	9.726	5.8331e-07	11.145	509.964	309.991	223.294	185.593	276.519	311.233	183.995	190.103	284.040	338.550	188.211	191.676	193.340	198.433	316.219	195.769	-8191	255	
28151.404	1	1	0	0	0.18245	0.21867	0.090517	0.14146	0.181	0.24121	0.20665	0.028815	0.11783	0.04891	0.18973	0.14978	0.15985	0.12519	0.12899	0.12434	-1.5792	-1.8583	-1.8083	-2.2479	-1.8771	-2.1771	-2.3187	-1.7042	-2.2	-1.9667	-2.0021	-2.3833	-2.0333	-2.0438	-2.2646	-1.8167	233.776	452.249	248.152	454.042	396.041	532.481	506.006	372.272	322.449	525.280	347.884	513.651	488.064	434.363	481.592	473.551	0.00016101	0.0033333	0.00041604	266.32	2.0663e-06	1.7978e-06	252.9	103.91	1.7841e-06	1.4336e-06	113.98	36.72	35.337	8.8804	1.1415e-06	9.969	9.6935e-05	0.00043372	0.001372	279.18	1.0216e-06	6.0308e-07	265.84	115.95	6.3856e-07	5.241e-07	120.53	38.728	40.83	9.4939	5.6883e-07	10.736	515.892	313.437	225.905	185.534	291.658	331.574	184.427	190.618	285.235	294.371	188.482	191.827	193.048	198.605	314.543	195.384	-8191	255	
28151.525	1	1	0	0	0.14344	0.20903	0.1018	0.27227	0.19091	0.18201	0.15391	0.061648	0.32987	0.23916	0.23895	0.14149	0.082959	0.13696	0.14585	0.056322	-1.8062	-1.7812	-1.8354	-2.4021	-2.0312	-2.0875	-2.2771	-1.8333	-2.2479	-2.0062	-1.9562	-2.3563	-2.0687	-1.725	-2.2479	-1.7875	277.877	448.456	499.733	519.915	474.858	377.328	178.341	249.706	463.574	445.952	306.227	427.523	388.121	225.580	235.568	434.915	0.00016945	0.00013664	0.00081727	264	8.4635e-07	1.6879e-06	253.06	102.98	1.4681e-06	1.5215e-06	113.69	36.264	35.262	8.725	1.3688e-06	9.8399	9.3618e-05	4.6253e-05	0.0014028	277.8	1.2301e-06	6.5725e-07	266.39	117.07	6.8367e-07	4.7222e-07	120.72	38.442	38.634	9.4731	5.2178e-07	10.575	514.526	274.658	304.896	185.608	275.952	289.299	184.063	190.492	279.810	327.550	187.978	191.978	194.436	198.246	312.697	195.953	-8191	255	
28151.621	1	1	0	0	0.30239	0.038383	0.41355	0.22374	0.14132	0.12487	0.18651	0.12508	0.2991	0.13547	0.05758	0.077693	0.031952	0.32403	0.1665	0.054395	-1.6812	-2.0042	-1.8438	-2.2	-2.1208	-1.9021	-2.1562	-1.9	-1.9562	-2.3625	-1.9438	-2.0458	-1.9792	-1.7021	-1.9625	-1.9354	313.415	281.679	472.816	207.525	432.613	517.110	265.463	528.636	442.863	485.930	360.242	267.326	381.780	220.081	376.210	444.067	0.00016587	0.00014418	0.00093363	265.48	1.7944e-06	1.0516e-06	255.69	103.54	1.9592e-06	1.7981e-06	114.54	36.365	34.926	8.7096	1.4446e-06	9.8218	0.00010986	5.5352e-05	0.0017853	279.3	7.9629e-07	9.4525e-07	269.2	115.51	7.7159e-07	4.6039e-07	121.4	38.193	36.71	10.128	5.8452e-07	10.465	511.895	256.275	311.706	185.283	290.193	362.792	184.229	190.486	297.247	322.453	188.663	191.844	194.189	197.442	300.406	195.499	-8191	255	
28151.715	1	1	0	0	0.083541	0.051251	0.18269	0.12492	0.12351	0.090491	0.39763	0.34643	0.25678	0.16903	0.22837	0.091326	0.13355	0.23398	0.23978	0.37595	-1.5979	-2.1292	-1.7042	-2.1437	-2.1125	-1.8479	-2.2104	-1.8833	-1.8417	-2.3667	-1.8708	-2.125	-2.1354	-1.6875	-2.2562	-1.9688	242.154	433.387	313.956	224.797	509.674	359.043	371.289	172.360	245.547	311.148	198.192	483.411	469.463	175.509	197.501	421.023	0.00015802	0.00017726	0.0008013	265.54	1.5601e-06	2.0167e-06	256.69	103.52	2.2983e-06	1.3714e-06	116	35.987	34.572	8.6634	1.3762e-06	9.7366	9.8154e-05	4.7595e-05	0.0014334	280.52	6.8421e-07	1.4083e-06	270.72	117.8	9.7114e-07	5.3855e-07	121.95	38.098	36.61	10.032	5.2299e-07	10.383	514.238	241.364	315.322	185.658	255.295	289.568	184.446	190.088	268.057	296.300	188.293	191.564	194.277	198.447	277.992	195.631	-8191	255	
28151.811	1	1	0	0	0.12837	0.24246	0.33835	0.079558	0.094834	0.14316	0.18739	0.078132	0.061889	0.40107	0.21457	0.11584	0.041554	0.2038	0.12538	0.14627	-1.5312	-2.1104	-1.6521	-2.0021	-1.8958	-1.9667	-2.1688	-1.8542	-2.0312	-2.2438	-1.8625	-1.9917	-2.0083	-1.7542	-2.3229	-2.0458	259.256	275.956	266.810	470.034	475.971	377.224	484.550	467.027	390.960	193.164	255.609	299.379	332.771	458.952	229.469	493.459	0.00014412	9.7188e-05	0.001009	267.91	1.2424e-06	1.4596e-06	258.22	104.22	2.438e-05	1.3179e-06	114.75	35.904	34.517	8.7575	1.3494e-06	9.5818	0.00010621	4.1646e-05	0.0019144	281.25	6.4406e-07	1.1943e-06	271.45	114.47	1.4058e-05	4.7024e-07	121.3	37.824	36.616	10.301	6.0684e-07	10.279	510.701	264.612	325.406	185.257	271.579	302.049	184.405	190.856	177.858	334.662	188.053	192.000	194.455	198.512	287.173	195.699	-8191	255	
28151.932	1	1	0	0	0.07411	0.14641	0.15298	0.24544	0.13324	0.21142	0.22158	0.085772	0.059101	0.12323	0.15717	0.031713	0.23884	0.22433	0.10499	0.10383	-1.4708	-2.2729	-1.6729	-1.8292	-2.1771	-1.6458	-2.1562	-1.9333	-1.9375	-2.2792	-1.8604	-2.0708	-2.2229	-1.7521	-2.1896	-2.0625	239.054	245.369	226.978	461.562	462.858	263.688	225.394	262.886	393.283	177.517	284.637	361.740	520.134	484.651	435.013	432.108	0.00016184	0.00011935	0.00073678	268.02	1.6719e-06	1.7372e-06	253.99	105.35	3.7234e-05	1.9049e-06	114.12	35.708	35.001	8.8269	6.3951e-07	9.7888	0.0001208	4.4037e-05	0.001522	283.12	6.474e-07	1.6382e-06	267.95	111.16	6.1387e-05	4.952e-07	120.69	37.948	36.95	10.184	5.5617e-07	10.444	509.496	284.620	330.459	185.381	301.462	310.438	184.451	190.754	179.444	334.414	188.377	191.738	194.094	198.695	312.562	195.708	-8191	255	
#DATA ENDS
