BOXY.EXE: ISS Imagent and Oximeter Data Acquisition Program Version 0.80
Ascii Record File

#ACQ INFORMATION
2  Detector Channels 
16  External MUX Channels 
1  Auxiliary Channels 
5000  Waveform (CCF) Frequency (Hz)
1  Waveforms Skipped 
30  Waveforms Averaged 
1  Cycles Averaged 
16  Acquisitions per Waveform 
10.0806  Updata Rate (Hz) 

#FILE INFORMATION
TRUE -- External MUX Channel results are PARSED.
FALSE -- AC DC and Phase are NOT grouped.
TRUE -- Companion Program Settings File CREATED.
FALSE -- AC data not excluded
FALSE -- DC data not excluded
FALSE -- Phase data not excluded
FALSE -- Auxillary Chn. data not excluded
Tab delimiters

#CALIBRATION STATE
TRUE -- Waveform Calibration Values APPLIED.


#AUX CALIBRATION VALUES
Val Type	aux-1	

Term	1.0000e+00	
Factor	0.0000e+00	


#WF CALIBRATION VALUES
A = Detector Channel
Val Type	A-AC1	A-AC2	A-AC3	A-AC4	A-AC5	A-AC6	A-AC7	A-AC8	A-AC9	A-AC10	A-AC11	A-AC12	A-AC13	A-AC14	A-AC15	A-AC16	A-DC1	A-DC2	A-DC3	A-DC4	A-DC5	A-DC6	A-DC7	A-DC8	A-DC9	A-DC10	A-DC11	A-DC12	A-DC13	A-DC14	A-DC15	A-DC16	A-Ph1	A-Ph2	A-Ph3	A-Ph4	A-Ph5	A-Ph6	A-Ph7	A-Ph8	A-Ph9	A-Ph10	A-Ph11	A-Ph12	A-Ph13	A-Ph14	A-Ph15	A-Ph16	

Term	0.00000e+00	0.00000e+00	0.00000e+00	0.00000e+00	0.00000e+00	0.00000e+00	0.00000e+00	0.00000e+00	0.00000e+00	0.00000e+00	0.00000e+00	0.00000e+00	0.00000e+00	0.00000e+00	0.00000e+00	0.00000e+00	0.00000e+00	0.00000e+00	0.00000e+00	0.00000e+00	0.00000e+00	0.00000e+00	0.00000e+00	0.00000e+00	0.00000e+00	0.00000e+00	0.00000e+00	0.00000e+00	0.00000e+00	0.00000e+00	0.00000e+00	0.00000e+00	0.00000e+00	0.00000e+00	0.00000e+00	0.00000e+00	0.00000e+00	0.00000e+00	0.00000e+00	0.00000e+00	0.00000e+00	0.00000e+00	0.00000e+00	0.00000e+00	0.00000e+00	0.00000e+00	0.00000e+00	0.00000e+00	
Factor	1.00000e+00	1.00000e+00	1.00000e+00	1.00000e+00	1.00000e+00	1.00000e+00	1.00000e+00	1.00000e+00	1.00000e+00	1.00000e+00	1.00000e+00	1.00000e+00	1.00000e+00	1.00000e+00	1.00000e+00	1.00000e+00	1.00000e+00	1.00000e+00	1.00000e+00	1.00000e+00	1.00000e+00	1.00000e+00	1.00000e+00	1.00000e+00	1.00000e+00	1.00000e+00	1.00000e+00	1.00000e+00	1.00000e+00	1.00000e+00	1.00000e+00	1.00000e+00	X	X	X	X	X	X	X	X	X	X	X	X	X	X	X	X	

B = Detector Channel
Val Type	B-AC1	B-AC2	B-AC3	B-AC4	B-AC5	B-AC6	B-AC7	B-AC8	B-AC9	B-AC10	B-AC11	B-AC12	B-AC13	B-AC14	B-AC15	B-AC16	B-DC1	B-DC2	B-DC3	B-DC4	B-DC5	B-DC6	B-DC7	B-DC8	B-DC9	B-DC10	B-DC11	B-DC12	B-DC13	B-DC14	B-DC15	B-DC16	B-Ph1	B-Ph2	B-Ph3	B-Ph4	B-Ph5	B-Ph6	B-Ph7	B-Ph8	B-Ph9	B-Ph10	B-Ph11	B-Ph12	B-Ph13	B-Ph14	B-Ph15	B-Ph16	

Term	0.00000e+00	0.00000e+00	0.00000e+00	0.00000e+00	0.00000e+00	0.00000e+00	0.00000e+00	0.00000e+00	0.00000e+00	0.00000e+00	0.00000e+00	0.00000e+00	0.00000e+00	0.00000e+00	0.00000e+00	0.00000e+00	0.00000e+00	0.00000e+00	0.00000e+00	0.00000e+00	0.00000e+00	0.00000e+00	0.00000e+00	0.00000e+00	0.00000e+00	0.00000e+00	0.00000e+00	0.00000e+00	0.00000e+00	0.00000e+00	0.00000e+00	0.00000e+00	-1.10335e+02	-1.62587e+02	-1.90705e+02	-1.85735e+02	-7.95890e+01	-9.80034e+01	-1.58876e+02	-1.62015e+02	-9.35963e+01	-1.16549e+02	-1.73504e+02	-1.69991e+02	-1.80150e+02	-1.77034e+02	-1.13923e+02	-1.49910e+02	
Factor	1.77319e-05	8.39323e-05	2.32807e-05	6.63806e-01	6.50858e-07	8.58057e-07	1.78611e-01	5.53004e-02	7.65979e-07	9.03384e-07	9.65138e-02	3.13854e-02	2.64622e-02	1.04344e-02	8.22500e-07	1.50170e-02	3.36373e-07	3.38385e-07	9.36488e-08	2.35456e-01	3.72523e-09	3.70374e-09	7.59690e-02	2.46404e-02	3.72491e-09	3.70198e-09	3.96877e-02	1.30564e-02	1.13969e-02	4.37442e-03	3.68760e-09	5.98844e-03	X	X	X	X	X	X	X	X	X	X	X	X	X	X	X	X	



#DISTANCE SETTINGS
A = Detector Channel
A-1	A-2	A-3	A-4	A-5	A-6	A-7	A-8	A-9	A-10	A-11	A-12	A-13	A-14	A-15	A-16	

2.5000e+00	3.0000e+00	2.5000e+00	3.0000e+00	2.0000e+00	3.0000e+00	1.5000e+00	3.0000e+00	3.0000e+00	3.0000e+00	3.0000e+00	3.0000e+00	3.0000e+00	3.0000e+00	1.5000e+00	3.0000e+00	

B = Detector Channel
B-1	B-2	B-3	B-4	B-5	B-6	B-7	B-8	B-9	B-10	B-11	B-12	B-13	B-14	B-15	B-16	

1.0000e+01	1.0000e+01	1.0000e+01	1.4400e+00	1.0000e+01	1.0000e+01	1.5100e+00	1.9400e+00	1.0000e+01	1.0000e+01	1.9900e+00	2.4900e+00	2.4100e+00	2.9000e+00	1.0000e+01	2.9800e+00	




#DATA BEGINS
time	group	step	mark	flag	A-AC1	A-AC2	A-AC3	A-AC4	A-AC5	A-AC6	A-AC7	A-AC8	A-AC9	A-AC10	A-AC11	A-AC12	A-AC13	A-AC14	A-AC15	A-AC16	A-DC1	A-DC2	A-DC3	A-DC4	A-DC5	A-DC6	A-DC7	A-DC8	A-DC9	A-DC10	A-DC11	A-DC12	A-DC13	A-DC14	A-DC15	A-DC16	A-Ph1	A-Ph2	A-Ph3	A-Ph4	A-Ph5	A-Ph6	A-Ph7	A-Ph8	A-Ph9	A-Ph10	A-Ph11	A-Ph12	A-Ph13	A-Ph14	A-Ph15	A-Ph16	B-AC1	B-AC2	B-AC3	B-AC4	B-AC5	B-AC6	B-AC7	B-AC8	B-AC9	B-AC10	B-AC11	B-AC12	B-AC13	B-AC14	B-AC15	B-AC16	B-DC1	B-DC2	B-DC3	B-DC4	B-DC5	B-DC6	B-DC7	B-DC8	B-DC9	B-DC10	B-DC11	B-DC12	B-DC13	B-DC14	B-DC15	B-DC16	B-Ph1	B-Ph2	B-Ph3	B-Ph4	B-Ph5	B-Ph6	B-Ph7	B-Ph8	B-Ph9	B-Ph10	B-Ph11	B-Ph12	B-Ph13	B-Ph14	B-Ph15	B-Ph16	aux-1	digaux	

7177.050	1	1	0	256	0.086824	0.15385	0.30756	0.16594	0.2477	0.32838	0.047073	0.18469	0.23622	0.26379	0.16453	0.14058	0.18252	0.065644	0.2317	0.26661	-2.5333	-2.6146	-2.4479	-3.0396	-2.7021	-2.7208	-3.1	-2.7188	-2.7646	-2.9875	-2.5646	-2.9083	-2.8312	-2.7021	-3.0375	-2.6083	174.690	-124.879	211.830	162.978	119.144	172.858	-25.712	127.283	-99.397	-9.597	-61.764	-100.751	211.334	157.659	-73.696	206.739	0.00040125	0.00092962	0.0003493	632.44	1.7614e-05	1.4704e-05	793.37	242.9	2.2412e-05	7.575e-06	383.43	167.73	107.07	48.418	5.1431e-06	84.203	0.0020198	0.0018135	0.0004703	1680.5	2.2243e-05	1.9994e-05	1041.7	339.34	2.189e-05	1.9334e-05	500.54	206.92	152.44	61.133	1.7541e-05	98.961	-115.074	-101.584	-117.428	-124.272	-73.016	20.591	-123.231	-117.979	23.242	-84.288	-119.128	-115.808	-113.725	-108.619	79.785	-111.189	-8191	255	
7177.147	1	1	0	0	0.15208	0.10882	0.026432	0.17519	0.28693	0.37137	0.11977	0.19434	0.13295	0.13732	0.2555	0.38527	0.12984	0.23842	0.068008	0.11961	-2.4646	-2.9417	-2.5333	-2.9521	-2.6917	-2.4396	-3.0167	-2.6312	-2.5417	-3.0542	-2.4917	-3.0354	-2.7083	-2.5563	-3.1479	-2.9313	212.314	126.590	-113.328	-53.406	91.104	-84.279	15.448	167.870	166.908	185.195	195.308	200.778	209.993	-127.882	178.277	202.203	0.00018421	0.0020417	0.00010475	631.95	8.2569e-06	2.8413e-05	796.52	243.86	1.6719e-05	1.9107e-05	384.37	166.9	106.39	48.356	1.7317e-05	83.28	0.0019544	0.0017456	0.00046147	1770.7	2.1351e-05	1.9248e-05	1042.3	348.83	2.1075e-05	1.8745e-05	504.63	211.73	149.12	60.476	1.8272e-05	100.59	-110.021	-5.523	88.190	-124.876	17.557	-15.527	-123.332	-117.886	15.480	-27.040	-119.129	-115.789	-114.396	-108.935	185.787	-111.078	-8191	255	
7177.267	1	1	0	0	0.12864	0.14363	0.28833	0.085692	0.389	0.11944	0.078879	0.19954	0.070718	0.26469	0.090813	0.29208	0.088863	0.33116	0.0096858	0.24561	-2.1125	-3.05	-2.5271	-2.9042	-2.8458	-2.4188	-2.9771	-2.7062	-2.7229	-3.1083	-2.5312	-2.85	-2.875	-2.5542	-3.1937	-2.975	-51.544	-108.857	-135.296	191.318	15.041	8.287	-128.912	-36.807	51.089	170.578	163.886	176.995	-130.402	174.595	55.458	163.045	0.00079713	0.0021033	0.0004691	626.65	2.1882e-05	1.8467e-05	785.98	243.74	1.5264e-05	2.5196e-05	378.26	165.62	106.54	48.321	5.9732e-06	82.824	0.0018816	0.0017	0.00048454	1841.2	2.0397e-05	1.8823e-05	1059.9	351.13	2.0209e-05	1.8106e-05	514.52	212.13	146.09	60.041	1.9908e-05	100.3	-114.048	-102.712	85.425	-124.102	16.461	-20.656	-123.915	-117.837	31.702	-0.455	-119.419	-115.057	-113.744	-108.910	73.751	-110.653	-8191	255	
7177.363	1	1	0	0	0.13489	0.27973	0.12572	0.3053	0.042922	0.042984	0.12144	0.044423	0.086899	0.12324	0.16838	0.14425	0.12693	0.17768	0.041539	0.19516	-2.2687	-2.8854	-2.4396	-2.9958	-2.9062	-2.6771	-3.0354	-3.0667	-2.5229	-2.9708	-2.6292	-2.875	-3.1	-2.4854	-2.9417	-2.9042	-80.819	-36.100	144.484	-91.895	-32.559	214.906	201.427	72.384	90.632	107.192	196.498	203.048	208.961	-103.987	42.425	156.865	0.00025158	0.00075786	0.00065814	644.19	2.3271e-05	1.765e-05	793.93	242.46	1.4977e-05	1.089e-06	372.24	163.62	105.67	47.524	2.9181e-05	82.27	0.0018502	0.001673	0.00053309	1865.8	2.0035e-05	1.8818e-05	1105.5	347.34	1.9914e-05	1.7904e-05	527.13	207.68	143.38	59.142	2.1002e-05	96.906	218.251	53.962	41.754	-123.025	17.005	-90.586	-124.150	-118.082	-17.583	10.084	-119.179	-114.974	-113.508	-109.020	115.622	-110.772	-8191	255	
7177.459	1	1	0	0	0.16207	0.22758	0.056273	0.1628	0.065673	0.19927	0.1348	0.11196	0.15736	0.18434	0.23907	0.44059	0.037932	0.24437	0.1523	0.38772	-2.0708	-2.9083	-2.4729	-2.8583	-3.0354	-2.6188	-3.1521	-2.875	-2.3375	-2.8875	-2.6625	-2.6146	-2.9625	-2.5312	-2.9958	-2.925	79.506	138.569	-109.221	158.995	-25.868	97.142	82.992	-64.862	142.338	157.557	63.183	204.108	164.926	195.443	170.399	181.228	0.00038587	0.0026698	0.00069511	663.08	1.8587e-05	1.4338e-05	784.77	240.58	2.3307e-05	2.3999e-05	377.37	166.03	106.56	47.976	1.08e-05	83.117	0.0017329	0.0016199	0.00054007	1733.4	1.8399e-05	1.8255e-05	1110	334.87	1.8744e-05	1.8143e-05	534.91	205.25	140.95	60.538	2.1858e-05	96.504	-107.631	56.422	57.304	-123.127	1.289	176.562	-123.614	-117.671	-34.165	164.961	-118.587	-115.173	-114.075	-109.157	45.139	-110.959	-8191	255	
7177.556	1	1	0	0	0.2425	0.11337	0.060605	0.20548	0.041584	0.033173	0.15218	0.16681	0.11836	0.026637	0.10774	0.15647	0.289	0.073582	0.11246	0.2709	-2.2188	-3.0396	-2.7021	-2.55	-2.9917	-2.4125	-2.8854	-3.0542	-2.4625	-2.9396	-2.9208	-2.9083	-3.1917	-2.7146	-2.775	-3.0417	135.707	-114.443	179.616	195.177	76.899	195.861	104.753	193.481	-17.617	188.249	143.248	164.417	193.936	73.851	147.950	196.594	0.00032334	0.00092779	0.0004016	655.44	1.1127e-05	3.5424e-05	798.26	243.15	1.7615e-05	3.8322e-05	379.19	165.84	105.88	48.013	2.7345e-05	83.346	0.0016956	0.0017503	0.00056142	1710	1.8209e-05	1.999e-05	1126.7	332.66	1.8521e-05	1.9915e-05	536.06	203.23	139.31	62.231	2.145e-05	95.109	-96.274	69.956	-73.615	-122.476	16.208	184.473	-123.398	-118.035	-38.215	147.455	-118.791	-114.953	-114.525	-108.971	52.356	-110.767	-8191	255	
7177.652	1	1	0	0	0.21048	0.20692	0.14636	0.1465	0.07164	0.032475	0.10151	0.17952	0.12156	0.1475	0.16974	0.23036	0.20882	0.056408	0.31329	0.3346	-2.0417	-2.9458	-2.6104	-2.5771	-3.1	-2.5667	-2.9458	-3.2021	-2.6146	-3.0042	-2.8187	-2.5667	-3.0083	-2.5146	-2.9021	-3.3354	166.425	-93.045	0.422	-114.769	216.759	179.647	-77.650	191.120	-76.389	119.891	149.598	205.389	146.972	191.308	9.773	162.271	0.00061444	0.0025444	0.00041342	645.68	3.61e-06	2.2674e-05	796.8	242.52	1.2164e-05	1.3862e-05	381.68	165.29	105.19	47.721	1.1041e-05	82.165	0.0016656	0.0018923	0.00054232	1674.2	1.8017e-05	2.16e-05	1115.8	331	1.8935e-05	2.1972e-05	531.28	202.78	141.9	64.278	2.116e-05	94.203	-123.650	144.418	205.379	-122.813	211.813	165.845	-123.575	-117.292	63.472	212.079	-118.484	-115.390	-114.604	-109.004	98.056	-111.023	-8191	255	
7177.748	1	1	0	0	0.22392	0.17705	0.18826	0.12541	0.082824	0.043709	0.16043	0.13954	0.078187	0.25418	0.18131	0.13712	0.20708	0.24804	0.40454	0.14749	-2.2333	-2.7458	-2.75	-2.5312	-2.9292	-2.8417	-2.8271	-2.9854	-2.4917	-2.8375	-2.8521	-2.4917	-2.9292	-2.6396	-2.3333	-3.0104	-32.859	71.395	-112.346	50.357	-113.816	-64.734	-78.347	184.677	46.854	27.003	-96.715	-134.789	20.832	-59.025	116.944	-67.429	0.00096845	0.00057047	0.00069888	654.95	2.0957e-05	6.3689e-06	797.04	241.66	3.0907e-05	1.0962e-05	382.11	165.66	105.12	48.025	2.2808e-06	82.851	0.0017567	0.0020382	0.00052312	1644.8	1.9011e-05	2.237e-05	1091.8	324.13	1.9676e-05	2.2218e-05	515.15	199.39	145.41	64.41	2.016e-05	93.412	216.610	170.016	-73.693	-122.224	202.516	6.710	-123.096	-117.302	217.717	16.035	-118.691	-115.225	-114.486	-109.088	-98.957	-110.551	-8191	255	
7177.869	1	1	0	0	0.032555	0.20571	0.20988	0.062938	0.12313	0.13029	0.33422	0.16479	0.25112	0.1377	0.22594	0.25807	0.17546	0.22269	0.18704	0.26989	-2.0917	-2.7417	-2.8354	-2.4292	-3.2125	-2.8896	-2.7979	-3.2104	-2.5521	-2.7167	-2.9125	-2.6042	-3.1604	-2.725	-2.6	-3.0292	202.771	76.549	-90.288	158.057	-125.147	-17.361	143.994	216.208	-77.878	-37.800	184.524	140.886	-129.505	128.335	-46.188	186.918	0.001139	0.00075197	0.00045455	645.49	2.894e-05	1.3253e-05	789.65	241.26	1.0903e-05	1.0116e-05	379.21	167.28	106.92	48.369	2.2253e-05	82.44	0.0018598	0.0020369	0.00050181	1615.2	2.0721e-05	2.2176e-05	1084.1	323.34	2.148e-05	2.2245e-05	513.89	201.97	153.41	64.018	2.0128e-05	93.8	195.537	-106.553	217.758	-123.325	194.900	42.759	-123.082	-117.645	154.845	-43.605	-118.706	-115.575	-114.139	-108.779	4.622	-110.775	-8191	255	
7177.963	1	1	0	0	0.1762	0.15842	0.095409	0.29308	0.22703	0.13368	0.34217	0.066633	0.13152	0.31182	0.19435	0.17291	0.27728	0.032176	0.10136	0.29722	-2.0854	-2.8104	-2.7188	-2.4042	-2.7167	-2.6	-2.8042	-3.2833	-2.6979	-2.7042	-2.9458	-2.5167	-2.925	-3.0354	-2.5604	-3.0875	65.583	120.973	185.977	80.163	175.200	130.376	219.662	38.587	-3.989	-133.627	-115.041	212.243	-131.747	222.236	65.935	208.377	0.00079419	0.00090367	0.00031954	641.12	1.4343e-05	3.2423e-05	798.81	242.38	1.2521e-05	2.4365e-05	379.14	164.88	106.94	47.712	1.1472e-05	81.457	0.0020378	0.0019991	0.00049595	1656.6	2.249e-05	2.1496e-05	1081.4	328.66	2.2856e-05	2.1318e-05	506.57	203.03	156.4	62.286	1.955e-05	94.902	194.404	-64.161	-70.215	-123.448	180.594	4.030	-123.362	-117.589	191.263	-28.290	-118.858	-115.652	-113.777	-109.055	39.661	-111.574	-8191	255	
7178.059	1	1	0	0	0.12061	0.10445	0.10657	0.070044	0.052451	0.19472	0.060982	0.20654	0.18891	0.23755	0.13685	0.23019	0.073762	0.13401	0.10364	0.22733	-2.2125	-2.4667	-2.9333	-2.5271	-3.0229	-2.9354	-2.3646	-3.0583	-2.6813	-2.6042	-3.1104	-2.5979	-2.825	-3.1	-2.35	-3.0667	-83.245	121.528	173.932	52.676	-81.102	164.809	137.509	121.439	83.090	95.331	132.857	194.948	187.507	152.729	-90.570	104.380	0.00011597	0.002384	0.00073463	649.74	1.553e-05	2.4955e-05	793.88	238.49	2.23e-05	3.9463e-06	375.15	161.57	105	47.242	2.7401e-05	80.036	0.0021201	0.001955	0.00048953	1773.2	2.3867e-05	2.1448e-05	1084.9	344.1	2.4114e-05	2.1746e-05	507.35	210.38	158.7	62.346	2.0063e-05	98.663	91.214	-74.004	-69.463	-124.768	148.491	-11.777	-123.189	-117.985	15.384	-62.900	-119.136	-115.423	-114.168	-108.869	11.181	-111.786	-8191	255	
7178.155	1	1	0	0	0.22556	0.21986	0.21227	0.096858	0.18381	0.32981	0.27342	0.087155	0.22813	0.0079056	0.059319	0.22157	0.31764	0.32432	0.25333	0.28969	-2.2792	-2.7021	-3.0354	-2.6542	-2.8521	-2.8208	-2.6646	-2.9313	-2.7917	-2.6146	-2.9417	-2.7583	-2.8042	-3.2042	-2.4521	-3.0083	120.347	-104.500	-35.705	-31.934	-133.149	-16.926	128.741	-59.984	32.516	216.143	135.169	196.018	-36.619	187.650	27.103	154.476	0.00062242	0.0017571	0.00027175	638.02	2.4542e-05	2.598e-05	781.73	239.55	2.1872e-05	6.7543e-06	371.16	161.32	104.64	46.999	1.6646e-05	80.209	0.0021714	0.0019859	0.00049981	1938.5	2.4164e-05	2.1533e-05	1093.1	360.41	2.4111e-05	2.1847e-05	512.5	216.88	157.05	61.789	2.0785e-05	101.57	-127.876	-97.577	49.288	-125.070	1.831	6.258	-123.302	-117.720	-16.216	-118.870	-119.138	-115.492	-113.809	-109.008	184.610	-111.120	-8191	255	
7178.251	1	1	0	0	0.15514	0.1466	0.16091	0.15434	0.22961	0.2821	0.17063	0.15581	0.06451	0.091503	0.12673	0.11474	0.18664	0.083507	0.10043	0.062256	-2.3771	-2.6854	-3.0167	-2.6667	-2.7458	-3.1021	-2.5417	-2.8958	-2.6875	-2.6833	-3.0167	-2.7562	-2.6667	-3.2083	-2.5958	-3.0687	115.393	216.068	49.917	19.173	-52.773	187.222	104.616	127.888	-69.033	110.919	195.161	144.175	164.185	215.047	95.772	-72.601	0.00031436	0.0015752	0.0009045	652.97	5.276e-06	2.7482e-05	791.41	240.43	2.6108e-05	1.7538e-05	372.01	161.97	105.76	47.314	4.0453e-05	80.684	0.0021001	0.0019514	0.00052131	2008.4	2.3034e-05	2.0606e-05	1112	365.06	2.2486e-05	2.1071e-05	528.22	219.39	154.85	61.014	2.237e-05	102.84	-73.730	-108.825	72.100	-123.697	56.371	-41.670	-124.272	-117.807	-13.489	60.442	-119.383	-115.152	-113.937	-109.153	192.341	-110.991	-8191	255	
7178.348	1	1	0	0	0.060308	0.26835	0.13448	0.30847	0.22934	0.15174	0.30703	0.080113	0.079778	0.28063	0.20653	0.11258	0.041632	0.28189	0.17445	0.23338	-2.5042	-2.1979	-2.95	-2.9188	-2.6479	-2.9104	-2.7417	-2.6958	-2.8375	-2.6521	-2.8375	-2.7438	-2.5479	-3.1833	-2.6063	-2.9	-68.580	131.611	-3.251	182.437	-9.688	30.053	121.970	-86.183	-101.687	-90.827	-129.241	-20.878	-83.138	132.974	86.365	137.730	0.00018303	0.0015743	0.00062224	665.92	1.674e-05	4.452e-06	792.54	243.14	9.2703e-06	2.9121e-05	378.14	163.41	106.43	46.467	2.6832e-05	79.37	0.0020355	0.0019143	0.00057192	2031.3	2.2586e-05	2.0433e-05	1157.3	367.83	2.2126e-05	2.0745e-05	553.52	217.99	153.92	60.585	2.4124e-05	101.02	77.637	38.782	126.984	-122.913	4.087	17.916	-123.975	-117.642	138.714	-65.298	-119.128	-114.781	-113.667	-109.211	160.003	-110.799	-8191	255	
7178.444	1	1	0	0	0.10521	0.10687	0.18825	0.052937	0.30174	0.060594	0.11084	0.14477	0.38908	0.3118	0.11586	0.13482	0.03333	0.29201	0.18453	0.16041	-2.5312	-2.3208	-2.9521	-2.7458	-2.8333	-2.9854	-2.6188	-2.7083	-3.0646	-2.6021	-2.9917	-2.7479	-2.5417	-3.0875	-2.6437	-2.7896	51.048	175.923	168.361	1.824	-77.572	-108.160	89.273	103.445	-4.468	-127.556	75.552	204.191	-133.116	216.755	140.307	135.231	0.00024637	0.0015579	0.00044585	677.43	2.8914e-05	1.6719e-05	789.25	241.96	1.6888e-05	2.3292e-05	374.21	163.47	106.74	46.192	1.6794e-05	79.527	0.0019853	0.0019185	0.00061608	1965.2	2.2134e-05	2.0661e-05	1183.8	361.14	2.1329e-05	2.1206e-05	565.6	213.66	151.59	61.414	2.4932e-05	98.645	-101.718	186.785	119.966	-123.358	40.200	-120.638	-123.629	-117.326	0.268	173.145	-119.054	-115.150	-114.068	-109.642	204.480	-110.883	-8191	255	
7178.540	1	1	0	0	0.33378	0.088925	0.18097	0.27174	0.13018	0.10237	0.2221	0.036414	0.28906	0.13185	0.29065	0.17849	0.10812	0.33384	0.095652	0.22607	-2.8896	-2.6063	-2.8083	-2.9146	-2.65	-3.1354	-2.85	-2.6854	-3.1	-2.6833	-3.1042	-2.9646	-2.6396	-2.6625	-2.7521	-2.7667	-27.871	216.852	95.289	92.970	-60.256	-123.566	188.438	137.972	124.292	205.306	95.838	141.620	-124.007	90.879	123.306	27.286	0.00051317	0.0021755	0.00038405	677.54	5.4558e-06	3.4828e-05	797.5	243.37	1.0814e-05	4.384e-05	380.86	164.37	106.15	46.392	2.0153e-05	80.031	0.0019026	0.001999	0.00063245	1885.9	2.127e-05	2.1921e-05	1190.1	354.17	2.0483e-05	2.2487e-05	564.44	209.45	148.23	63.092	2.3984e-05	97.065	-77.565	124.021	147.343	-121.984	46.994	181.198	-123.293	-117.369	24.031	175.650	-118.764	-115.054	-114.319	-109.440	-10.678	-110.945	-8191	255	
7178.660	1	1	0	0	0.19045	0.093442	0.25866	0.05626	0.23953	0.07628	0.3039	0.039733	0.19852	0.33778	0.2379	0.24117	0.16299	0.10908	0.10013	0.23395	-2.7125	-2.25	-2.6937	-2.9208	-2.4875	-2.9958	-2.9208	-2.5687	-2.9354	-2.5542	-2.8021	-3.1542	-2.3187	-2.8021	-2.8625	-2.6104	118.523	12.886	1.432	41.633	-110.341	-33.611	211.284	-4.362	57.977	-118.044	204.135	145.835	190.689	199.125	-57.202	100.300	0.00064539	0.0028024	0.00038739	663.1	8.5153e-06	2.9086e-05	793.68	244.37	6.5147e-06	2.7169e-05	383.13	166.93	107.05	46.882	2.514e-05	80.821	0.0017896	0.0020834	0.00060126	1779.9	2.0173e-05	2.2861e-05	1152.6	344.5	1.9759e-05	2.3571e-05	551.36	207.38	148.77	65.341	2.3046e-05	97.335	-112.899	117.380	-41.403	-122.475	178.271	186.558	-123.036	-117.327	139.762	144.482	-118.829	-115.144	-114.208	-109.039	-41.338	-110.945	-8191	255	
7178.757	1	1	0	0	0.16264	0.26503	0.061828	0.070649	0.059654	0.021358	0.32981	0.080466	0.086174	0.10435	0.057298	0.026045	0.29747	0.20481	0.11487	0.2636	-2.5542	-2.7479	-2.8104	-2.9521	-2.3604	-2.9375	-2.8771	-2.375	-2.9417	-2.9437	-2.6021	-2.8875	-2.4917	-2.8083	-2.9292	-2.5542	-19.921	8.810	129.067	-71.023	-113.754	100.432	203.341	139.943	-81.891	-68.596	-94.829	-104.461	210.586	169.038	148.732	-95.594	0.00074828	0.0017523	0.00076581	651.59	1.4345e-05	2.0456e-05	792.94	243.43	2.6322e-05	1.3162e-05	379.42	164.55	104.7	46.667	2.3302e-05	79.599	0.0018464	0.0022434	0.00058919	1763.8	2.1327e-05	2.458e-05	1140	343.13	2.1181e-05	2.4869e-05	545.17	205.24	153.52	66.344	2.2284e-05	95.75	186.576	89.059	-84.429	-122.643	-132.983	207.537	-122.901	-117.331	-134.695	81.896	-118.493	-115.348	-114.556	-108.888	-47.225	-111.003	-8191	255	
7178.828	1	1	0	0	0.042601	0.18455	0.025342	0.35599	0.24031	0.20002	0.28558	0.058924	0.13753	0.29893	0.18233	0.090894	0.052961	0.12278	0.099128	0.083461	-2.7229	-2.6458	-2.4354	-2.9604	-2.5771	-2.8792	-3.0292	-2.3521	-2.9354	-2.9313	-2.7479	-2.9979	-2.625	-3	-3.0521	-2.6979	189.500	-106.964	-7.629	204.391	48.838	45.693	177.396	91.130	124.813	48.495	65.238	-130.777	160.729	73.659	210.658	-92.437	0.0013352	0.0017954	0.00040009	657.29	2.7269e-05	1.538e-05	785.43	239.09	3.4336e-05	8.1033e-06	370.85	162.39	104.66	47.073	7.1325e-06	80.26	0.002012	0.0022823	0.00057137	1731.4	2.3071e-05	2.4681e-05	1118.3	338	2.2919e-05	2.4367e-05	532.27	201.68	157.5	65.311	2.1352e-05	94.988	181.760	-33.849	-85.675	-123.186	198.948	62.335	-122.920	-117.595	192.711	-49.271	-118.699	-115.290	-114.354	-108.819	-43.015	-110.979	-8191	255	
7178.949	1	1	0	0	0.12846	0.11272	0.24741	0.18587	0.17462	0.12623	0.12689	0.19925	0.1864	0.028372	0.034623	0.11957	0.23334	0.062221	0.33554	0.24146	-2.6354	-2.7521	-2.3625	-2.9562	-2.6417	-2.8667	-3.0708	-2.5563	-2.8854	-2.6042	-2.6042	-3.1708	-2.6437	-2.8125	-3.0604	-2.7729	177.374	102.311	4.461	64.252	-109.599	122.478	-95.058	117.366	-58.286	77.597	93.813	-134.520	154.839	142.823	-86.292	190.367	0.0010452	0.0015092	0.00060377	647.14	1.867e-05	1.8193e-05	781.55	237.41	1.7579e-05	1.3675e-05	373.78	162.15	105.36	47.112	2.9869e-06	80.205	0.0021423	0.0021737	0.0005528	1723.2	2.4513e-05	2.3848e-05	1102.3	339.93	2.4554e-05	2.341e-05	528.22	204.64	161.62	64.385	2.0714e-05	96.937	189.358	-115.025	-130.948	-124.455	194.276	57.407	-123.141	-117.798	182.397	-16.433	-118.467	-115.456	-113.916	-108.896	38.568	-111.333	-8191	255	
7179.043	1	1	0	0	0.10548	0.19002	0.1972	0.18714	0.29517	0.12217	0.15244	0.034696	0.35717	0.21453	0.30372	0.087012	0.18506	0.1619	0.11665	0.35112	-2.3708	-2.7458	-2.3917	-3.0021	-2.6479	-2.6708	-3.1771	-2.6833	-2.9208	-2.675	-2.5312	-3.0167	-2.7646	-2.6813	-3.0854	-2.5563	9.842	-43.469	58.091	176.699	-12.531	134.464	198.261	196.113	77.635	-58.741	187.569	210.530	125.052	156.758	-53.479	140.826	0.00059026	0.0038438	0.00041552	625.45	1.2002e-05	1.9989e-05	789.04	240.81	1.6854e-06	2.5448e-05	379.1	163.25	106.27	46.1	1.5756e-05	78.24	0.0022551	0.0020821	0.00053836	1814.1	2.5489e-05	2.3111e-05	1102.9	354.44	2.5383e-05	2.2832e-05	530.04	212.55	163.82	63.406	2.0635e-05	99.081	185.313	-53.818	-25.105	-124.497	-118.725	-53.590	-123.155	-117.965	45.678	-25.344	-118.509	-115.192	-113.803	-109.299	19.455	-111.339	-8191	255	
7179.139	1	1	0	0	0.16719	0.017427	0.02604	0.38917	0.34045	0.10123	0.41949	0.19815	0.23999	0.18176	0.1747	0.20604	0.13036	0.2949	0.17895	0.3331	-2.1562	-2.7479	-2.6208	-2.9292	-2.7792	-2.6146	-3.1437	-2.6979	-2.6104	-2.9271	-2.55	-2.9729	-2.7562	-2.4	-3.0042	-2.7562	-61.251	218.581	92.782	-112.821	201.856	203.595	-108.221	215.724	-135.188	-3.518	99.889	169.742	77.893	181.303	96.717	108.461	0.00042648	0.00062057	0.00048724	647.2	1.4062e-05	9.0156e-06	789.63	242.73	2.1203e-05	2.2108e-05	373.41	162.39	106.07	45.975	1.7204e-05	78.054	0.0022731	0.0020296	0.00052726	1913.8	2.4508e-05	2.2099e-05	1084.6	361.95	2.4125e-05	2.163e-05	519.49	216.72	158.5	62.293	2.0468e-05	100.89	-106.355	-38.755	-113.445	-126.068	7.806	-54.751	-123.309	-117.959	7.470	22.656	-118.538	-115.403	-114.158	-109.172	184.313	-111.521	-8191	255	
7179.260	1	1	0	0	0.069039	0.2414	0.18574	0.25681	0.22562	0.1691	0.096752	0.22376	0.06551	0.20457	0.05766	0.29142	0.29331	0.17316	0.087978	0.024986	-2.3979	-3.0083	-2.5062	-2.7417	-2.6688	-2.5104	-3.1875	-2.9417	-2.6396	-2.8312	-2.4542	-3.0312	-3.1104	-2.4813	-2.7792	-2.8042	1.035	84.878	109.785	-41.285	16.080	121.738	-125.013	218.275	40.635	-3.680	180.309	-104.476	-89.906	-40.101	-89.663	136.648	0.00026715	0.002896	0.00057708	642.23	1.7033e-05	1.7053e-05	784.28	241.91	4.6055e-05	2.5183e-05	368.89	161.98	105.47	45.901	2.4007e-05	77.103	0.0021733	0.0019606	0.00054053	2019.2	2.3583e-05	2.1799e-05	1100.9	369.37	2.3344e-05	2.1025e-05	529.51	219.22	154.34	61.046	2.1664e-05	100.83	-47.769	-61.989	157.520	-124.042	7.684	-23.038	-123.525	-117.949	20.487	-36.345	-119.154	-115.319	-113.969	-109.256	189.394	-110.903	-8191	255	
7179.356	1	1	0	0	0.16549	0.022026	0.2005	0.39062	0.16097	0.20039	0.17918	0.052725	0.09945	0.15003	0.18334	0.21991	0.061197	0.37237	0.10696	0.1972	-2.1354	-3.1667	-2.5167	-2.7833	-2.9208	-2.4542	-3.2167	-2.6708	-2.5938	-2.9521	-2.6458	-2.775	-2.9583	-2.3	-2.9896	-2.9167	-86.243	-0.574	-68.657	-96.407	-69.464	-126.199	144.447	-124.645	-126.591	9.338	-114.269	128.452	-103.884	180.311	127.332	-70.438	0.00013256	0.0027088	0.0010389	665.29	1.0434e-05	2.1335e-05	782.48	242.24	1.8004e-05	1.5795e-05	369.3	160.12	105.36	45.361	3.5391e-05	77.4	0.0020773	0.0018862	0.00057399	2028.7	2.2511e-05	2.1065e-05	1131.3	367.74	2.2661e-05	2.0464e-05	547.78	217.3	152.18	60.46	2.345e-05	99.405	-10.834	-105.017	72.961	-122.806	11.782	-42.167	-124.041	-117.458	48.806	75.498	-119.525	-115.018	-114.042	-108.853	166.431	-110.296	-8191	255	
7179.428	1	1	0	0	0.113	0.05155	0.22721	0.23461	0.20601	0.16574	0.039302	0.30162	0.42157	0.056143	0.054291	0.10988	0.061814	0.11528	0.26426	0.47708	-2.0771	-2.7562	-2.4042	-2.7958	-3.0583	-2.3792	-3.0521	-2.8646	-2.4917	-2.6333	-2.625	-2.7833	-2.9896	-2.3917	-2.8021	-2.8771	-34.678	-128.270	11.531	219.066	172.730	166.549	-125.198	136.805	170.105	150.242	125.932	151.882	213.495	215.275	172.368	205.565	0.00010882	0.0014309	0.00097436	663.54	2.337e-05	1.1729e-05	784.27	240.25	1.6023e-05	1.6129e-05	369.65	160.23	103.47	45.049	2.0626e-05	76.654	0.0020351	0.0018754	0.0006191	1994	2.2104e-05	2.1318e-05	1177.4	363	2.2519e-05	2.1283e-05	568.53	214.96	151.26	61.531	2.5315e-05	98.234	-32.235	30.805	92.999	-122.872	-47.249	62.482	-124.057	-117.148	-0.567	185.026	-118.930	-115.214	-114.082	-109.322	144.151	-110.673	-8191	255	
7179.549	1	1	0	0	0.25285	0.056095	0.069228	0.070945	0.17123	0.2372	0.50206	0.30414	0.10973	0.17689	0.21298	0.082312	0.20582	0.0062286	0.10126	0.1436	-2.1042	-2.8312	-2.5292	-2.725	-3.1229	-2.4354	-2.8271	-3.0229	-2.4979	-3.1021	-2.7792	-2.5979	-3.0125	-2.8042	-2.7479	-2.9062	17.294	-106.982	91.279	213.001	19.087	200.830	217.605	160.800	198.591	-65.649	187.876	146.693	222.366	-75.824	154.599	57.552	0.00044873	0.0040979	0.00033696	664.74	1.3287e-05	1.6438e-05	784.57	239.61	1.8145e-05	3.7847e-05	374.42	160.92	104.24	44.6	7.9787e-06	76.213	0.0020208	0.0019962	0.00065025	1941.4	2.1629e-05	2.2488e-05	1190.7	354.98	2.162e-05	2.2537e-05	570.28	211.55	148.72	63.228	2.5463e-05	96.278	216.654	139.626	131.681	-123.313	72.181	150.029	-123.380	-117.596	54.115	163.449	-118.729	-115.373	-114.269	-109.040	-41.102	-110.623	-8191	255	
7179.645	1	1	0	0	0.025786	0.10079	0.032314	0.10689	0.084583	0.1192	0.081706	0.14385	0.18031	0.16348	0.33593	0.14605	0.18412	0.29408	0.26949	0.16004	-2.3792	-3.0062	-2.7313	-2.6042	-3.0938	-2.7792	-2.8479	-2.9958	-2.4437	-2.9646	-2.8604	-2.5583	-3.0021	-2.6688	-2.6979	-3.0625	189.832	-76.667	147.910	-48.034	-128.555	-115.566	211.651	220.919	-130.782	-119.304	123.964	16.968	-127.621	135.661	-105.105	-22.140	0.00062344	0.0023783	0.0005987	666.93	8.8737e-06	2.6524e-05	789.15	240.4	7.137e-06	2.3531e-05	371.36	159.94	102.99	44.346	2.1546e-05	75.924	0.0019619	0.0021646	0.00064673	1916.1	2.1254e-05	2.443e-05	1185.3	351.96	2.1401e-05	2.4371e-05	559.94	208.43	147.87	64.671	2.4304e-05	94.266	-108.615	135.960	-111.881	-122.786	42.390	183.949	-123.313	-117.812	-91.678	127.381	-118.443	-115.303	-114.682	-109.212	-26.603	-110.915	-8191	255	
7179.741	1	1	0	0	0.16958	0.15529	0.12932	0.25904	0.078414	0.11405	0.17978	0.0085385	0.080712	0.20258	0.19794	0.1052	0.18432	0.21415	0.34473	0.3218	-2.1771	-2.8354	-2.7354	-2.3521	-2.9458	-2.7333	-2.7854	-3.0687	-2.35	-2.8521	-2.9146	-2.7146	-2.9104	-2.7958	-2.7708	-3.2521	189.828	-111.830	80.100	-130.818	-44.076	-60.070	165.254	20.255	63.187	-105.118	-18.761	-41.351	204.878	189.578	165.390	136.908	0.00071225	0.0021429	0.00021092	656.73	1.2401e-05	1.8531e-05	781.71	240.47	2.7549e-05	3.8181e-05	371.77	160.9	104.09	45.086	1.3371e-05	76.129	0.0019509	0.0022737	0.00061071	1843.4	2.1429e-05	2.542e-05	1153.4	344.94	2.1966e-05	2.5341e-05	546.15	205.6	151.25	65.693	2.322e-05	93.091	161.079	96.550	-105.865	-124.006	208.858	-122.776	-122.664	-117.582	165.427	128.396	-118.800	-115.083	-114.129	-109.266	24.967	-110.886	-8191	255	
7179.837	1	1	0	0	0.035091	0.028272	0.19526	0.21594	0.032682	0.38505	0.10634	0.16964	0.20282	0.15829	0.40965	0.015866	0.20584	0.064482	0.054887	0.29501	-2.0896	-3.0542	-2.9458	-2.2562	-2.9521	-3	-2.675	-2.775	-2.4375	-2.8625	-2.8771	-2.3417	-3.0438	-2.6875	-2.4667	-3.0312	-111.940	130.925	-13.576	-122.945	60.059	-96.582	-117.358	153.381	188.740	116.859	176.376	-132.254	-77.947	109.974	-95.790	168.607	0.00077481	0.00034389	0.0010411	662.1	2.0653e-05	3.7598e-06	779.78	238.47	2.9831e-05	1.2835e-05	371.7	159.85	103.42	45.636	1.9835e-05	77.058	0.0020687	0.0023356	0.00058267	1802	2.2781e-05	2.5454e-05	1130.8	337.86	2.3334e-05	2.4949e-05	533.19	202.89	155.52	64.732	2.2046e-05	92.221	188.146	154.662	-102.872	-122.613	151.391	151.708	-123.383	-117.436	192.625	-57.410	-118.720	-115.102	-114.167	-109.304	5.519	-110.894	-8191	255	
7179.933	1	1	0	0	0.04596	0.20983	0.11246	0.092647	0.13967	0.34569	0.33274	0.099412	0.11547	0.061816	0.20584	0.11923	0.11194	0.241	0.12852	0.070988	-2.1979	-2.8458	-2.8812	-2.2896	-2.9417	-2.8417	-2.5667	-3.125	-2.6437	-2.6833	-3.1875	-2.5583	-2.975	-2.7396	-2.4729	-3.0458	-18.227	-16.470	27.957	204.172	-83.544	-89.483	185.790	116.251	16.045	223.475	-91.430	140.844	71.779	-122.943	155.054	218.100	0.00068813	0.0025829	0.00060237	646.3	3.6286e-05	3.2128e-05	778.62	237.61	1.7797e-05	3.3219e-05	371.13	160.68	103.21	46.009	7.4502e-06	77.482	0.0021618	0.0022097	0.00055097	1754.9	2.4051e-05	2.3842e-05	1107.4	335.04	2.4334e-05	2.3463e-05	521.33	202.95	158.34	63.339	2.1168e-05	93.408	186.087	-31.685	-90.343	-123.344	197.611	31.570	-123.522	-117.996	-130.887	-24.512	-119.069	-115.633	-114.232	-108.583	-19.257	-111.527	-8191	255	
7180.052	1	1	0	0	0.42679	0.083705	0.31204	0.2524	0.081293	0.062906	0.28472	0.079884	0.21041	0.23736	0.10354	0.15951	0.058646	0.33017	0.039451	0.30718	-2.1708	-2.4479	-2.9729	-2.1854	-3.0292	-2.7333	-2.5833	-2.9813	-2.7771	-2.4542	-3.0521	-2.7083	-2.9729	-3.0375	-2.2896	-3.1083	159.624	69.924	133.849	182.259	125.475	134.835	163.611	-101.734	-59.630	-115.551	52.424	184.032	-81.421	137.907	-23.425	162.356	0.00044004	0.0011934	0.00041902	628.35	9.4837e-06	3.0973e-05	773.85	235.1	5.0404e-06	1.5534e-05	365.73	158.19	104.14	45.278	1.5489e-05	76.022	0.0022484	0.002096	0.00052961	1800.3	2.4979e-05	2.2784e-05	1089.7	342.44	2.5288e-05	2.2693e-05	513.15	207.95	160.48	62.234	2.0831e-05	95.817	207.744	-74.824	-64.618	-124.779	-109.980	-12.179	-123.285	-118.011	27.241	6.618	-118.765	-115.677	-114.030	-109.519	-0.635	-111.591	-8191	255	
7180.124	1	1	0	0	0.077375	0.1354	0.13239	0.017607	0.081611	0.037602	0.17942	0.065034	0.19703	0.14588	0.086403	0.1132	0.29437	0.2615	0.066362	0.17029	-2.275	-2.5292	-2.9917	-2.4375	-2.7521	-3.0083	-2.4521	-3.0625	-2.7583	-2.325	-3.1792	-2.7896	-2.8771	-3.0292	-2.3083	-3.0042	-75.578	-104.805	-124.443	-34.293	48.931	-45.785	124.851	43.113	94.025	171.899	-126.395	163.980	107.518	201.342	-30.316	202.394	0.00038121	0.0013553	0.0002927	622.51	1.425e-05	3.2674e-05	765.57	234.31	2.3483e-05	2.6739e-05	364.42	158.1	102.53	44.77	1.1821e-05	76.038	0.0022665	0.002059	0.0005179	1920.7	2.4879e-05	2.2165e-05	1078	353.49	2.4685e-05	2.2175e-05	509.27	214.42	158.29	61.47	2.1052e-05	98.927	220.867	-66.133	-124.675	-125.690	45.599	13.507	-123.541	-118.106	9.863	-56.259	-118.658	-115.629	-113.867	-108.668	146.224	-111.317	-8191	255	
7180.220	1	1	0	0	0.069824	0.09096	0.098643	0.11574	0.17763	0.15863	0.23523	0.15745	0.22393	0.29296	0.089439	0.22773	0.28411	0.11284	0.27735	0.19136	-2.3042	-2.5646	-2.9958	-2.6625	-2.7542	-3.075	-2.4833	-2.8167	-2.8708	-2.5187	-3.2208	-2.8167	-2.6354	-2.9188	-2.4813	-3.1354	-121.815	0.913	-129.696	-66.545	63.065	6.315	204.625	212.524	-2.017	159.166	182.687	101.935	67.795	-133.145	25.893	222.316	0.00055278	0.0024914	0.00050672	637.81	2.4644e-05	2.3109e-05	771.86	234.17	3.0135e-06	1.9223e-05	362.51	158.16	102.01	44.812	3.5146e-05	76.574	0.0022214	0.0020299	0.00053183	2035.1	2.4208e-05	2.1693e-05	1093.6	364.55	2.387e-05	2.1826e-05	520.39	218.46	155.23	60.739	2.239e-05	101.25	-54.441	-58.097	125.225	-123.242	14.798	1.058	-124.008	-118.253	-84.432	-10.707	-119.518	-115.096	-113.861	-109.608	152.870	-110.919	-8191	255	
7180.340	1	1	0	0	0.22238	0.34502	0.30181	0.17498	0.29665	0.010819	0.14057	0.17657	0.30373	0.18584	0.16118	0.23765	0.28356	0.28975	0.2499	0.060029	-2.5062	-2.5062	-2.9542	-2.7708	-2.5563	-2.9667	-2.6479	-2.9542	-2.8375	-2.5979	-2.875	-2.7938	-2.6021	-3.0771	-2.4437	-2.8708	81.478	-18.974	176.544	148.656	-43.151	-11.557	-58.280	-76.509	54.152	89.113	172.189	-107.224	-96.740	141.717	-55.990	112.005	0.00013821	0.0022664	0.0012917	647.22	1.9034e-05	3.3384e-05	767.01	235.62	7.5908e-06	1.855e-05	357.4	155.22	100.83	43.837	3.0438e-05	73.916	0.0021474	0.0020217	0.00057942	2107.2	2.4119e-05	2.1957e-05	1150.5	374.15	2.4241e-05	2.2466e-05	551	220.86	156.11	60.663	2.5552e-05	100.78	-78.447	-33.532	100.140	-123.775	85.287	30.610	-124.332	-117.281	-7.842	-111.015	-119.455	-115.074	-114.078	-109.044	145.691	-110.638	-8191	255	
7180.437	1	1	0	0	0.20142	0.16127	0.31495	0.14432	0.23272	0.10085	0.16937	0.061985	0.19094	0.05153	0.27671	0.15472	0.51887	0.15437	0.20234	0.17127	-2.4562	-2.3292	-2.8521	-2.6542	-2.6	-3.1708	-2.6229	-2.6583	-2.9688	-2.5104	-2.9667	-2.6396	-2.5021	-2.9646	-2.6833	-2.7542	217.020	50.324	86.994	4.968	-49.092	132.377	151.674	128.951	213.002	206.625	224.638	-111.059	178.541	-85.407	-135.178	-87.727	0.00032014	0.0012745	0.0010315	660.17	1.3257e-05	1.397e-05	770.31	232.91	1.7188e-05	2.7978e-05	353.37	152.77	99.055	43	4.6596e-06	73.477	0.0022028	0.0020796	0.00065475	2140.6	2.4463e-05	2.2561e-05	1204.1	370.23	2.3863e-05	2.2768e-05	566.36	213.68	151.51	60.271	2.6459e-05	97.211	-111.298	-94.871	113.568	-122.897	-8.807	178.580	-124.030	-117.265	25.618	210.498	-119.056	-115.257	-113.915	-109.408	-92.327	-110.644	-8191	255	
7180.533	1	1	0	0	0.17756	0.15608	0.043271	0.26713	0.10262	0.12528	0.078581	0.090591	0.10214	0.15694	0.30653	0.17797	0.16237	0.1641	0.096888	0.056428	-2.6667	-2.1333	-2.7604	-2.9104	-2.7542	-3.1167	-2.7708	-2.8042	-2.9792	-2.7229	-3.0229	-3.0833	-2.6667	-2.9583	-2.7438	-2.8187	28.423	-116.237	143.350	78.101	-104.205	-94.370	32.212	139.673	25.938	-127.692	182.049	-117.944	210.548	-84.668	66.472	123.722	0.00046634	0.0028282	0.00033051	663.12	1.4482e-05	2.9395e-05	767.29	233.23	2.5559e-05	5.6595e-05	357.98	154.23	100.87	43.207	2.1152e-05	74.394	0.0020705	0.0020831	0.00066802	2002.2	2.286e-05	2.2554e-05	1195	356.13	2.1927e-05	2.2959e-05	562.95	207.15	147	61.066	2.5368e-05	94.214	-18.205	131.453	60.496	-123.907	70.551	200.327	-123.560	-117.338	-13.794	146.944	-118.721	-115.691	-113.928	-109.395	-77.718	-110.851	-8191	255	
7180.629	1	1	0	0	0.12436	0.15899	0.22145	0.061776	0.25833	0.054128	0.20629	0.15587	0.094445	0.17208	0.088401	0.15038	0.40872	0.26697	0.21183	0.41677	-2.5292	-2.6021	-2.925	-2.8208	-2.5812	-3.125	-2.6708	-2.6312	-2.975	-2.7104	-2.9	-3.0125	-2.4229	-2.9458	-2.6625	-2.5458	50.332	31.639	-44.294	106.979	-83.918	215.103	211.614	-26.037	-94.029	100.712	165.228	134.409	150.714	174.968	102.974	110.735	0.00016247	0.0033233	0.00066465	662.67	1.7934e-06	5.4343e-05	766.76	233.91	1.9714e-05	4.0345e-05	359.95	154.16	100.42	43.793	1.8703e-05	74.54	0.0018904	0.0021018	0.0006283	1841.4	2.0778e-05	2.29e-05	1151.6	342.83	2.0355e-05	2.3613e-05	545.13	202.16	144.17	62.471	2.3685e-05	92.813	-65.205	103.351	-92.913	-121.793	13.513	198.590	-123.150	-117.453	219.905	207.914	-118.767	-115.164	-114.726	-109.576	-8.433	-110.633	-8191	255	
7180.725	1	1	0	0	0.25006	0.11049	0.18023	0.33077	0.14884	0.16646	0.084874	0.27426	0.016498	0.12032	0.096795	0.070997	0.24353	0.18027	0.14212	0.41146	-2.6354	-2.7417	-2.6146	-2.8708	-2.4271	-2.9125	-3.0854	-2.8042	-3.1083	-2.5583	-2.8771	-2.9958	-2.4833	-2.8125	-2.9521	-2.5958	117.406	54.592	32.025	86.178	154.721	-91.647	8.895	204.931	189.797	199.317	94.616	145.662	150.973	47.846	203.894	196.579	0.00069209	0.0016298	0.0008841	658.03	7.7468e-06	2.7742e-05	771.8	234.89	1.638e-05	2.3135e-05	362.43	156.49	100.19	44.527	7.4837e-06	74.384	0.0018314	0.0022033	0.00059485	1779.3	2.0717e-05	2.4013e-05	1123.8	335.21	2.0397e-05	2.431e-05	530.29	198.19	145.59	63.447	2.2206e-05	91.244	191.274	105.110	-80.792	-123.646	85.945	140.976	-123.016	-117.442	163.898	201.062	-118.901	-115.310	-114.130	-108.915	-29.622	-110.979	-8191	255	
7180.821	1	1	0	0	0.095753	0.29931	0.22605	0.17181	0.14572	0.16049	0.2057	0.12873	0.11598	0.23205	0.11943	0.31077	0.27833	0.2627	0.21289	0.13188	-2.6292	-2.7104	-2.3521	-3.0646	-2.7354	-2.7667	-2.9271	-2.45	-2.9688	-2.6354	-2.5854	-3.2062	-2.8063	-2.9479	-3.1333	-2.5542	-102.101	199.115	185.930	134.991	-8.582	-97.643	-131.341	189.668	-88.233	166.320	199.054	25.997	159.287	-99.237	-112.534	-75.782	0.0010833	0.0020484	7.6723e-05	638.22	3.2136e-05	1.1756e-05	761.61	231.18	4.227e-05	2.2865e-05	360.65	155.34	100.28	44.25	2.1294e-05	75.393	0.0019085	0.0022346	0.00056238	1714.4	2.1776e-05	2.4252e-05	1091.5	326.91	2.1619e-05	2.3923e-05	513.88	193.84	148.8	62.534	2.0809e-05	89.965	205.754	-9.012	-75.505	-123.719	192.550	130.484	-123.190	-117.749	179.803	38.410	-119.302	-115.332	-114.212	-108.958	-10.591	-110.829	-8191	255	
7180.942	1	1	0	0	0.13007	0.17629	0.39661	0.12936	0.14909	0.092905	0.17752	0.20112	0.082971	0.043778	0.12615	0.065823	0.30833	0.12525	0.069554	0.34504	-2.5854	-2.7771	-2.6396	-2.8646	-2.675	-2.8625	-3.0938	-2.4083	-2.8604	-2.8583	-2.6792	-3.0292	-2.6479	-3.0125	-2.9188	-2.6063	-73.631	-68.685	-92.915	165.810	-128.849	9.047	180.040	156.222	6.273	108.146	141.131	134.495	202.017	-82.282	65.996	208.867	0.00078786	0.0018735	0.00071023	622.78	8.9912e-06	3.7429e-05	758.57	229.77	1.9796e-05	2.5904e-05	359.65	155.6	99.897	44.315	8.0188e-06	75.302	0.0019978	0.0021182	0.00053035	1646.5	2.2938e-05	2.317e-05	1068.2	324.89	2.3193e-05	2.2961e-05	507.75	195.16	153.69	61.707	2.0445e-05	91.032	190.282	-89.146	-66.937	-122.718	-127.649	21.904	-123.054	-117.688	-102.114	0.229	-118.704	-115.726	-114.301	-108.676	-10.622	-111.308	-8191	255	
7181.036	1	1	0	0	0.055958	0.14277	0.27174	0.15521	0.055656	0.16078	0.10661	0.31863	0.23396	0.12881	0.14482	0.16376	0.094323	0.34782	0.12217	0.12554	-2.5271	-2.8979	-2.6208	-2.7583	-2.5312	-2.7562	-3.1104	-2.4771	-2.8063	-3.0312	-2.7354	-3.1396	-2.8146	-2.8125	-2.8021	-2.3854	34.942	87.101	-121.407	13.293	-108.825	177.265	200.759	164.743	171.043	-16.656	196.224	4.394	33.730	140.949	-66.790	199.332	0.00063101	0.0031284	0.00081178	623.95	3.2134e-06	2.2879e-05	759.13	230.19	1.4807e-05	2.8281e-05	360.01	153.98	99.702	44.142	1.9704e-05	74.95	0.0021575	0.002053	0.0005261	1712.5	2.4319e-05	2.239e-05	1060.8	333.22	2.4331e-05	2.2188e-05	505.38	200.07	156.31	60.804	2.0099e-05	93.812	183.038	-68.910	-105.291	-124.686	190.193	-18.823	-123.348	-117.962	-132.194	-36.880	-118.798	-115.782	-114.161	-108.740	-18.387	-111.515	-8191	255	
7181.132	1	1	0	0	0.056194	0.057389	0.15615	0.15087	0.048853	0.27407	0.076379	0.29271	0.15934	0.27991	0.011639	0.32549	0.20509	0.45567	0.25757	0.36268	-2.425	-3	-2.3833	-2.7792	-2.8	-2.7854	-3.2146	-2.6	-2.7792	-2.825	-2.5208	-3.1396	-2.825	-2.5792	-3.1479	-2.6813	159.118	5.834	37.428	-72.494	4.112	186.277	4.047	166.011	-42.785	-46.414	34.664	196.989	206.853	-126.781	216.273	83.046	0.00013934	0.0015093	0.00017851	618.5	2.8883e-06	1.099e-05	761.02	231.77	2.7897e-05	3.1831e-05	356.71	155.07	100.87	44.726	4.8993e-06	74.899	0.0022186	0.0019918	0.00051779	1833.1	2.438e-05	2.1785e-05	1050.8	345.65	2.398e-05	2.138e-05	501.6	206.94	154.25	60.476	1.9802e-05	97.192	-46.860	-116.024	20.913	-125.231	31.915	-102.911	-123.954	-117.868	4.318	-30.679	-119.101	-115.636	-113.850	-109.012	12.815	-111.686	-8191	255	
7181.229	1	1	0	0	0.17316	0.22678	0.13973	0.12085	0.1964	0.26038	0.11828	0.082743	0.032976	0.072595	0.10011	0.13853	0.20569	0.39957	0.10466	0.36128	-2.4062	-2.8792	-2.3688	-3.0042	-2.875	-2.5625	-3.1729	-2.7333	-2.6167	-2.8979	-2.6833	-2.9729	-2.9938	-2.4458	-3.1708	-2.8312	-94.296	99.871	155.944	182.469	50.005	-97.300	-47.867	83.951	-11.747	56.013	-66.789	106.275	173.023	188.592	17.843	158.035	0.0003496	0.0019509	0.00026754	619.39	1.6465e-05	1.0985e-05	763.78	230.87	1.156e-05	2.0718e-05	358.34	154.73	101.47	44.25	1.6248e-05	75.234	0.0021692	0.0019451	0.0005233	1959.6	2.3737e-05	2.1642e-05	1065.1	357.63	2.3511e-05	2.1054e-05	511.03	212.66	151.63	59.676	2.0821e-05	98.382	-101.816	-40.345	74.161	-125.289	66.035	49.442	-123.630	-118.178	-32.397	-22.595	-119.312	-115.346	-113.792	-109.005	211.529	-111.052	-8191	255	
7181.349	1	1	0	0	0.12305	0.21248	0.24901	0.30138	0.10706	0.082897	0.26213	0.045609	0.14108	0.16797	0.14372	0.033946	0.27465	0.27483	0.093697	0.22286	-2.4646	-2.9292	-2.5729	-2.6333	-2.9104	-2.3854	-2.95	-2.7854	-2.55	-3.1375	-2.5854	-2.7854	-2.9042	-2.5417	-2.9292	-2.8187	182.296	-54.969	-59.331	160.292	158.659	-7.447	180.155	202.999	71.624	139.441	-130.494	-5.145	22.530	188.567	30.648	94.769	5.8405e-05	0.0014731	0.00053146	643.49	5.0896e-06	1.1425e-05	754.91	231.72	7.2495e-06	2.7461e-05	359.89	155.94	100.71	43.768	3.457e-05	75.707	0.0020664	0.0018834	0.00054992	2007.2	2.2581e-05	2.1061e-05	1094	361.36	2.27e-05	2.0566e-05	531.18	214.07	150.09	59.238	2.2905e-05	98.383	-107.660	-41.134	64.488	-123.540	28.645	15.404	-124.080	-117.777	81.172	-17.868	-119.277	-115.172	-114.190	-109.158	165.801	-111.047	-8191	255	
7181.421	1	1	0	0	0.06207	0.2397	0.21894	0.060422	0.12948	0.039742	0.1179	0.26417	0.21189	0.21832	0.25776	0.11962	0.42397	0.32978	0.1879	0.20829	-2.2167	-2.8542	-2.4333	-2.7667	-2.9896	-2.3604	-2.9021	-2.9146	-2.7354	-3.1167	-2.5792	-2.7687	-2.9771	-2.6167	-2.85	-2.9313	-10.483	-66.991	49.984	-38.531	-9.260	-47.625	28.181	193.589	139.543	-17.017	-88.671	186.150	-134.043	-126.631	3.759	224.539	0.00028887	0.0010748	0.0014633	650.43	1.3766e-05	7.3688e-06	754.17	233.69	1.622e-05	9.2511e-06	358.47	156.06	101.75	43.559	3.0818e-05	75.221	0.0020434	0.001861	0.00060399	1999	2.2166e-05	2.1009e-05	1138.9	358.85	2.2439e-05	2.0693e-05	553.45	212.02	149.36	59.808	2.4909e-05	97.049	-61.050	-115.464	75.273	-122.588	85.482	206.201	-123.959	-117.339	-29.596	74.478	-119.542	-114.829	-113.892	-109.464	150.849	-110.997	-8191	255	
7181.517	1	1	0	0	0.24656	0.12827	0.11531	0.10444	0.33269	0.16188	0.09741	0.20311	0.11606	0.15879	0.14326	0.17187	0.23801	0.26888	0.3923	0.10734	-1.9208	-3.0875	-2.5833	-2.7167	-2.9062	-2.7104	-3.0187	-2.7396	-2.3896	-2.8917	-3.0333	-2.7146	-3.1604	-2.8146	-2.7479	-3.0271	132.248	48.844	179.151	124.668	-126.016	-45.799	-65.126	199.443	60.691	-9.310	15.700	189.138	-110.788	212.743	-19.647	161.077	0.00019651	0.0028871	0.00039145	657.53	1.0045e-05	1.8262e-05	762.32	233.46	6.7437e-06	2.7443e-05	359.22	156.27	100.85	43.494	9.9324e-06	74.921	0.0020209	0.0019424	0.0006443	1958.2	2.1782e-05	2.1892e-05	1172.7	351.39	2.1749e-05	2.1685e-05	560.63	207.45	145.44	60.975	2.5107e-05	94.525	-71.414	162.052	51.015	-120.428	19.282	220.098	-123.553	-117.417	11.535	181.430	-118.879	-115.175	-114.156	-109.394	3.636	-110.805	-8191	255	
7181.613	1	1	0	0	0.057807	0.048606	0.11994	0.09702	0.061914	0.050816	0.039263	0.31489	0.1406	0.15357	0.12289	0.020864	0.16177	0.068445	0.088639	0.25074	-2.0667	-2.9583	-2.8208	-2.4396	-3.0958	-2.4417	-3.0396	-2.8958	-2.2521	-2.9667	-2.7687	-2.4354	-3.1104	-2.6417	-2.9083	-2.9667	-11.656	131.468	-114.007	142.964	86.036	118.046	136.883	132.964	-42.310	29.832	-51.838	-29.111	41.342	208.244	36.228	174.004	0.00047617	0.002277	0.00052538	647	3.0216e-06	2.8872e-05	762.47	234.36	3.1985e-06	4.3214e-05	359.6	154.86	101.23	43.783	1.7505e-05	74.461	0.0019201	0.0020427	0.00063712	1873.6	2.0692e-05	2.3098e-05	1159.1	342.8	2.0854e-05	2.3052e-05	549.83	203.58	143.35	62.521	2.3956e-05	92.639	-127.779	116.895	214.676	-121.170	22.825	139.730	-123.456	-117.278	166.013	141.369	-119.055	-114.993	-114.550	-109.360	0.440	-110.572	-8191	255	
7181.734	1	1	0	0	0.26205	0.048924	0.23957	0.24891	0.20152	0.21776	0.045612	0.24715	0.1201	0.15877	0.040957	0.20994	0.15632	0.2265	0.23415	0.15443	-2.3229	-3.0646	-2.8771	-2.5958	-2.9313	-2.6312	-2.7062	-3.1188	-2.4562	-2.8979	-2.9896	-2.4688	-2.9958	-2.4437	-2.5062	-2.9667	218.291	117.871	49.806	155.828	195.008	21.409	153.183	113.343	-76.485	91.823	129.889	215.759	-28.992	-126.293	170.978	148.755	0.00045732	0.0021822	0.00075025	649.53	2.5667e-05	1.8926e-05	763.7	234.68	1.4444e-05	2.1494e-05	363.88	156.9	99.964	44.091	3.1552e-05	74.854	0.0018797	0.0021631	0.00060038	1810.9	2.0412e-05	2.4315e-05	1133.2	336.65	2.0923e-05	2.4331e-05	536.27	201.25	144.9	63.905	2.2779e-05	91.236	200.676	154.792	-58.928	-123.568	-111.308	148.356	-123.180	-117.456	211.699	162.346	-118.911	-114.720	-114.346	-109.123	-7.564	-111.112	-8191	255	
7181.828	1	1	0	0	0.092716	0.15951	0.14475	0.3494	0.13879	0.17269	0.15841	0.25899	0.14822	0.095038	0.1395	0.089388	0.28301	0.082561	0.2792	0.051757	-2.1125	-2.9062	-3.0125	-2.6854	-3.0917	-2.5417	-2.6271	-3.0958	-2.4146	-3	-3.0125	-2.5396	-2.975	-2.5167	-2.4875	-3.0708	3.052	-7.561	50.104	-113.304	75.207	49.811	163.653	135.221	169.554	31.284	128.095	-99.298	103.861	154.455	150.369	198.991	0.00081407	0.0010156	0.00054152	634.35	3.8656e-05	8.3298e-06	763.26	235.82	3.1236e-05	1.3616e-05	365.95	156.82	101.34	44.323	2.4549e-05	74.925	0.0019386	0.002246	0.0005683	1754.9	2.1356e-05	2.4717e-05	1108.5	330.54	2.2134e-05	2.4542e-05	525.48	198.71	149.88	63.674	2.1935e-05	90.143	206.378	60.523	-132.678	-122.467	-133.786	-104.954	-123.559	-117.775	185.874	20.925	-119.025	-115.498	-114.327	-109.007	40.409	-110.536	-8191	255	
7181.924	1	1	0	0	0.13116	0.16899	0.1423	0.070769	0.219	0.32899	0.056468	0.24933	0.15301	0.060616	0.27215	0.2295	0.19317	0.19351	0.18881	0.071191	-2.15	-2.7583	-2.8354	-2.5396	-2.9979	-2.8125	-2.5979	-3.0312	-2.5125	-2.8104	-2.9729	-2.4792	-2.9917	-2.9208	-2.6292	-3.15	43.872	-12.849	2.639	160.813	21.354	-51.034	108.688	218.972	-126.472	145.415	207.581	216.429	82.149	179.125	134.517	104.556	0.00094597	0.0019727	0.00043352	643.21	3.1186e-05	2.2459e-05	765.36	234.19	1.4384e-05	4.1791e-05	362.8	158.05	101.06	44.593	1.2035e-05	74.418	0.0020803	0.0022094	0.0005456	1722.6	2.299e-05	2.3875e-05	1093.8	327.52	2.3659e-05	2.3705e-05	515.8	199.12	155.02	62.58	2.1263e-05	90.377	185.804	-74.940	-76.326	-124.959	203.230	43.853	-123.462	-118.008	202.196	-27.719	-119.054	-115.104	-114.408	-108.774	-50.604	-111.098	-8191	255	
7182.020	1	1	0	0	0.10175	0.023224	0.076249	0.064295	0.095788	0.17631	0.13569	0.082541	0.19973	0.073788	0.12117	0.25654	0.34385	0.055049	0.24397	0.15457	-2.2625	-2.7062	-2.8083	-2.3688	-2.8604	-2.925	-2.6312	-3.0042	-2.5042	-2.6354	-2.9146	-2.8083	-3	-2.8896	-2.2854	-3.0271	-124.313	51.210	125.602	60.748	75.511	-54.976	176.317	8.752	-35.944	-123.744	168.011	189.375	137.936	220.716	140.631	164.082	0.00083342	0.0014023	0.00088005	629.83	1.2137e-05	2.0175e-05	762.7	232.57	8.2661e-06	3.7063e-05	363.24	156.1	101.07	44.313	1.9721e-06	74.701	0.002197	0.0021195	0.00052724	1750.9	2.4264e-05	2.2778e-05	1076.9	332.09	2.4525e-05	2.2445e-05	504.37	201.05	156.33	60.662	2.0343e-05	91.919	208.734	-67.801	-63.002	-123.559	187.972	2.935	-123.436	-117.992	26.491	-8.498	-118.922	-115.516	-114.135	-108.966	97.686	-111.513	-8191	255	
7182.117	1	1	0	0	0.15547	0.1272	0.051429	0.13037	0.2614	0.072519	0.41374	0.14818	0.26379	0.21276	0.081512	0.098	0.22429	0.13116	0.26558	0.25608	-2.3479	-2.5646	-3.1979	-2.4604	-2.7458	-2.9083	-2.4333	-2.9625	-2.8896	-2.7729	-3.2271	-2.6521	-2.8042	-2.8125	-2.4479	-3.2062	53.913	134.672	153.311	151.184	-1.796	126.221	-132.009	112.089	8.027	194.213	27.863	-75.521	-95.977	207.012	86.003	-84.280	0.00058296	0.0023506	0.00035412	624.39	2.741e-05	2.4079e-05	759.87	231.47	9.3617e-06	1.3694e-05	363.61	157.42	101.97	44.206	1.6414e-05	74.733	0.0022117	0.0020072	0.00050562	1827.9	2.431e-05	2.1659e-05	1058.6	342.99	2.4171e-05	2.1651e-05	497.32	207.31	155.18	59.921	1.99e-05	94.967	-78.939	-61.926	-104.611	-125.200	9.343	-0.668	-123.123	-118.048	14.748	-12.466	-118.755	-115.290	-114.120	-109.215	152.843	-111.712	-8191	255	
7182.213	1	1	0	0	0.058933	0.23709	0.24375	0.16713	0.20966	0.16684	0.25826	0.13679	0.11934	0.037571	0.097381	0.0086672	0.22564	0.4082	0.12672	0.14877	-2.4417	-2.5375	-3.2208	-2.65	-2.775	-3.2104	-2.4813	-2.8792	-2.6604	-2.4979	-3.0292	-2.8438	-2.8271	-2.95	-2.8521	-3.0875	113.967	-64.352	-123.997	-127.195	-99.719	96.154	160.126	186.485	106.405	49.780	175.508	-28.391	143.230	-132.877	113.580	221.168	0.00040015	0.0030236	0.00030769	625.56	1.2371e-05	1.001e-05	761.47	233.06	1.6313e-05	2.3805e-05	360.78	157.21	101.67	44.242	3.6464e-05	74.832	0.0021331	0.0019414	0.00049646	1921.8	2.3397e-05	2.0936e-05	1061.2	353.89	2.3164e-05	2.1133e-05	502.51	212.5	152.22	59.011	2.0655e-05	97.194	-93.029	-100.062	167.053	-123.992	50.463	76.897	-123.815	-118.126	25.978	7.281	-119.145	-115.362	-113.800	-109.046	191.633	-111.336	-8191	255	
7182.309	1	1	0	0	0.1593	0.07661	0.12967	0.0086598	0.044134	0.1215	0.11183	0.15287	0.077382	0.21725	0.049141	0.21702	0.38648	0.095086	0.18454	0.10075	-2.5021	-2.4104	-2.9083	-2.5542	-2.3458	-3.275	-2.6437	-2.9062	-3.0458	-2.4458	-2.9417	-2.6729	-2.6229	-2.875	-2.5979	-3.0604	-117.860	-64.148	183.251	26.688	117.711	209.510	94.018	130.700	76.603	40.146	-96.466	217.731	219.950	-125.535	1.209	76.751	0.00010487	0.00083158	0.00041087	623.63	1.4545e-05	8.645e-06	755.31	234.43	2.8092e-05	1.4268e-05	361.55	158.03	101.41	44.209	2.7908e-05	75.536	0.0020446	0.0018992	0.00052105	1974.8	2.2344e-05	2.0134e-05	1082.8	357.69	2.1937e-05	2.0391e-05	516.76	212.96	149.16	58.115	2.1979e-05	97.205	181.468	7.546	107.043	-124.245	40.544	0.062	-123.487	-117.875	-2.340	-92.234	-119.383	-114.836	-114.099	-109.046	169.595	-110.643	-8191	255	
7182.430	1	1	0	0	0.21229	0.22389	0.14835	0.26916	0.083878	0.21738	0.37335	0.10849	0.23174	0.3088	0.19096	0.1657	0.10875	0.18835	0.26602	0.27346	-2.7542	-2.4562	-3.1063	-2.6229	-2.4521	-2.9542	-2.5146	-2.7438	-2.9938	-2.3167	-2.9646	-2.975	-2.7625	-3.2083	-2.6667	-2.7792	216.715	135.073	-18.487	198.965	-35.251	-117.633	98.894	-118.113	2.296	-129.952	78.756	168.811	218.848	195.077	191.881	178.071	0.00030224	0.0018233	0.00092522	644.11	1.8359e-05	7.7057e-06	762.53	233.54	2.2051e-05	3.102e-06	359.87	157.92	101.64	43.849	2.2467e-05	75.106	0.0019439	0.0018382	0.00056198	1941.5	2.1652e-05	1.956e-05	1118.2	353.03	2.1092e-05	1.9992e-05	534.27	209.09	146.8	57.873	2.3276e-05	95.127	-69.021	-91.032	80.515	-122.081	50.539	-34.322	-124.133	-117.702	-65.646	169.287	-119.327	-114.796	-114.487	-109.362	149.621	-110.835	-8191	255	
7182.526	1	1	0	0	0.18525	0.050691	0.13216	0.25124	0.16947	0.25445	0.15599	0.023586	0.13898	0.2086	0.16774	0.39389	0.10937	0.20653	0.078296	0.12995	-2.5458	-2.4229	-2.7208	-2.6917	-2.6083	-3.0875	-3.0229	-2.7896	-3.1562	-2.6417	-2.8917	-2.8667	-2.45	-2.9229	-2.6542	-2.4646	183.636	-6.304	23.924	216.205	-76.891	223.195	90.965	139.295	-36.636	18.520	69.912	185.138	193.665	206.467	9.540	-96.862	0.00073306	0.0026297	0.00052139	661.49	4.3442e-06	2.5816e-05	756.14	232.92	1.2068e-05	3.2565e-05	359.91	157.89	101.5	43.772	1.4418e-06	75.45	0.0018774	0.001842	0.00059383	1862.1	2.1005e-05	1.9928e-05	1138.4	344.68	2.0373e-05	2.0724e-05	545.92	204.97	144.47	59.071	2.4048e-05	93.637	-94.633	181.748	121.868	-123.281	34.123	170.008	-123.532	-117.453	20.774	168.638	-118.922	-114.677	-114.350	-109.349	212.951	-110.893	-8191	255	
7182.622	1	1	0	0	0.060635	0.2018	0.14883	0.28816	0.26365	0.16948	0.042012	0.1253	0.15724	0.20251	0.059164	0.38029	0.080921	0.25377	0.29051	0.11197	-2.4625	-2.4729	-2.7896	-2.9229	-2.3312	-3.0333	-2.8208	-2.8104	-3.1792	-2.7667	-2.8854	-3.0312	-2.6792	-3.025	-2.7188	-2.4333	-109.887	196.237	94.678	-131.320	46.782	-77.949	-41.129	130.488	-15.289	133.443	219.604	218.977	-13.414	188.705	-3.328	210.046	0.00046773	0.0025155	7.1508e-05	644.68	1.4152e-05	3.9471e-05	758.47	232.41	1.4224e-05	2.6649e-05	358.56	157.05	100.82	43.289	1.7438e-05	74.589	0.0018098	0.001953	0.00060921	1806.6	2.0387e-05	2.1557e-05	1143.7	340.12	2.0057e-05	2.2574e-05	547.42	202.85	143.7	61.538	2.415e-05	93.231	-98.306	117.407	209.844	-123.736	3.702	168.863	-123.385	-117.955	-53.791	175.492	-118.427	-114.981	-114.212	-109.610	-2.901	-110.812	-8191	255	
7182.718	1	1	0	0	0.31326	0.21692	0.13878	0.19793	0.15658	0.26308	0.23622	0.14629	0.23962	0.10402	0.20765	0.16594	0.20956	0.21069	0.29789	0.1892	-2.5812	-2.5521	-2.9125	-3.0167	-2.6729	-3.1	-2.8292	-2.7354	-3.1188	-2.6604	-2.6958	-2.8917	-2.5187	-3	-2.8604	-2.5854	-86.056	-33.697	219.087	-64.048	-41.490	30.932	176.807	57.942	-109.090	-66.772	157.975	108.247	108.363	170.434	138.639	93.282	0.00028531	0.0036744	0.00011393	645.92	4.0106e-06	1.0624e-05	763.45	232.67	1.3832e-05	1.5169e-05	361.89	156.59	100.11	43.72	2.5902e-05	74.776	0.001837	0.0021578	0.00060718	1797	2.079e-05	2.3901e-05	1135.4	339.27	2.0506e-05	2.4406e-05	539.64	201.26	145.45	63.468	2.318e-05	92.379	192.495	124.984	-97.429	-123.575	-35.683	133.779	-123.124	-117.294	215.099	109.036	-118.281	-114.949	-114.118	-109.331	-21.069	-111.038	-8191	255	
7182.814	1	1	0	0	0.10179	0.062867	0.093099	0.12384	0.2324	0.13824	0.11352	0.096405	0.2539	0.17076	0.18278	0.24051	0.28725	0.22958	0.12078	0.2907	-2.5021	-2.6354	-2.6375	-3.0875	-2.5396	-2.9146	-3.0604	-2.5875	-2.7917	-2.6792	-2.6375	-2.9771	-2.4583	-2.8396	-3.0333	-2.6979	216.555	154.836	138.978	82.716	176.251	-116.077	170.215	-129.505	-131.812	34.065	173.017	-134.839	174.938	177.754	32.243	213.274	0.00061615	0.0014736	0.00045396	641.52	1.1659e-05	2.3218e-05	761.86	230.56	2.9223e-05	1.8711e-05	359.16	155.8	99.831	43.611	2.0325e-05	73.89	0.0018979	0.0022822	0.00058675	1759.6	2.1727e-05	2.4929e-05	1113.6	334.85	2.176e-05	2.515e-05	528.95	198.39	150.01	63.825	2.2155e-05	91.051	196.172	118.136	-82.760	-123.800	-133.938	135.923	-123.197	-117.441	198.587	-74.706	-118.776	-115.122	-114.731	-109.102	-45.610	-111.060	-8191	255	
7182.910	1	1	0	0	0.11042	0.10212	0.2249	0.047643	0.084869	0.11111	0.13887	0.10044	0.22842	0.1169	0.16057	0.21806	0.16524	0.14079	0.14849	0.084671	-2.5229	-2.7521	-2.6437	-2.8875	-2.3833	-2.8229	-3.0625	-2.5	-2.7958	-2.6604	-2.5083	-2.9062	-2.525	-2.8208	-3.1208	-2.5667	-35.565	-0.183	-121.885	155.668	-133.901	27.458	122.956	169.503	-122.682	26.549	-123.930	137.313	143.827	218.650	54.316	159.626	0.0011073	0.0011653	0.00068071	635.23	3.2496e-05	3.367e-05	755.4	230.22	2.0043e-05	1.4801e-05	358.1	155.43	99.056	43.354	3.3274e-05	74.05	0.0020355	0.0022592	0.00056367	1704.5	2.3314e-05	2.4545e-05	1089.8	330.51	2.3411e-05	2.4323e-05	521.42	196.45	154.92	62.758	2.1662e-05	91.122	200.882	-114.155	-121.290	-123.443	173.050	1.127	-123.290	-117.654	156.201	-3.488	-119.104	-115.091	-114.149	-109.106	-15.548	-110.730	-8191	255	
7183.029	1	1	0	0	0.11877	0.061888	0.13697	0.1918	0.25187	0.10893	0.21493	0.23081	0.15577	0.082598	0.22035	0.11186	0.17251	0.05187	0.11515	0.04703	-2.5667	-2.625	-2.5312	-2.8438	-2.5875	-2.8	-3.0042	-2.6437	-2.8958	-2.85	-2.725	-3.1146	-2.8333	-2.75	-3.15	-2.7062	-46.341	-121.538	-107.646	10.132	-60.632	62.700	107.255	158.326	-113.021	-12.916	-75.452	106.557	194.838	14.070	-68.915	-118.348	0.0010656	0.0025553	0.00088833	632.93	3.9466e-05	2.8236e-05	754.76	230.66	1.2265e-05	2.4045e-05	357.41	152.88	99.76	43.011	2.2728e-05	72.489	0.0022088	0.0021974	0.00056014	1750.1	2.516e-05	2.3957e-05	1085.2	337.15	2.5239e-05	2.3689e-05	518.13	199.83	158.72	61.545	2.1195e-05	92.32	205.645	-47.764	-119.151	-123.344	197.316	8.467	-123.127	-118.408	57.654	15.605	-118.082	-115.619	-114.177	-109.148	-15.574	-111.413	-8191	255	
7183.125	1	1	0	0	0.085526	0.076538	0.093822	0.048806	0.079744	0.1049	0.042862	0.12051	0.075216	0.065366	0.19838	0.18595	0.17205	0.21544	0.15546	0.20239	-2.4042	-2.7438	-2.2667	-2.9458	-2.8021	-2.8729	-3.0833	-2.4437	-2.8875	-2.9833	-2.5167	-3.1521	-3.0896	-2.6292	-3.0563	-2.5667	-53.835	16.347	119.869	171.068	134.012	202.791	25.916	118.715	142.226	-130.216	139.664	142.159	216.756	-101.946	-100.585	-5.684	0.0006012	0.0024072	0.00049982	612.72	7.4248e-06	1.5075e-05	752.24	228.44	1.0034e-05	1.998e-05	357.79	154.38	100.01	43.91	1.3666e-05	74.04	0.0023044	0.0021045	0.00054161	1833.7	2.5454e-05	2.29e-05	1063.6	344.49	2.5067e-05	2.2372e-05	507.77	205.68	156.63	60.583	2.0194e-05	95.437	207.262	-69.030	219.936	-125.059	-3.145	-51.132	-123.380	-117.884	28.823	-32.130	-119.068	-115.712	-113.880	-109.100	-116.484	-111.553	-8191	255	
7183.221	1	1	0	0	0.11659	0.2901	0.26355	0.12002	0.12955	0.18519	0.20797	0.2686	0.12025	0.14426	0.29108	0.13842	0.10806	0.32364	0.16558	0.39957	-2.3667	-2.925	-2.4896	-3.1104	-2.8563	-2.6688	-3.2354	-2.4958	-2.725	-2.7625	-2.4667	-2.9938	-2.8333	-2.7646	-2.9729	-2.675	3.145	219.575	216.425	27.671	105.748	-135.322	131.732	89.275	145.945	12.467	222.558	163.903	11.579	134.666	108.954	135.165	0.0004199	0.001642	0.00039526	618.8	2.7185e-05	1.0502e-05	751.35	231.25	2.9937e-05	2.8483e-05	359.73	155.96	100.98	43.506	1.996e-05	73.689	0.0022141	0.0019909	0.00052118	1921.8	2.4211e-05	2.1962e-05	1053.8	354.47	2.3936e-05	2.1518e-05	507.45	211.84	153.57	59.822	2.0609e-05	97.546	206.419	-73.966	-124.057	-125.135	10.929	-51.836	-123.694	-117.846	25.942	-18.024	-119.296	-115.364	-113.817	-109.089	130.037	-111.311	-8191	255	
7183.293	1	1	0	0	0.027174	0.17862	0.18936	0.08205	0.23537	0.21	0.1508	0.059742	0.17246	0.14788	0.17205	0.080364	0.14268	0.15469	0.13258	0.026253	-2.3333	-2.9062	-2.2938	-2.7792	-2.7167	-2.4375	-3.1958	-2.8396	-2.7	-2.9854	-2.3667	-2.9	-2.8604	-2.4979	-3.1917	-2.8	102.529	181.748	206.176	-27.716	219.742	-121.850	151.818	65.014	205.148	125.528	-24.552	-120.781	169.423	-78.985	-122.362	14.286	0.00030954	0.0017293	0.00031038	635.59	2.272e-05	4.7788e-06	747.16	229.38	2.2416e-05	4.8916e-06	352.63	154.55	99.677	42.822	2.8559e-05	73.729	0.0021302	0.001938	0.00054036	2008.8	2.3217e-05	2.1439e-05	1074.5	360.1	2.3074e-05	2.0841e-05	520.12	213.8	150.16	58.934	2.2192e-05	97.896	-66.611	-91.853	51.780	-123.885	11.701	57.357	-123.800	-117.868	-13.250	15.944	-119.462	-115.139	-114.024	-108.938	185.343	-111.173	-8191	255	
7183.414	1	1	0	0	0.18853	0.19301	0.13957	0.15401	0.084464	0.15752	0.076002	0.17144	0.32124	0.080255	0.058204	0.10718	0.14773	0.17544	0.080439	0.14846	-2.4583	-2.9583	-2.6896	-2.7458	-3.0146	-2.6146	-2.9542	-2.8979	-2.5021	-2.8979	-2.8792	-2.7229	-3.1312	-2.6292	-2.9083	-2.9417	-76.854	194.437	-36.541	205.534	-67.105	38.491	-26.663	65.019	41.640	114.346	-95.691	-71.934	167.179	192.817	192.123	129.034	0.00013723	0.0014666	0.0012653	648.53	1.3517e-05	1.461e-05	746.24	229.85	2.399e-05	8.2787e-06	353.3	154.96	99.998	42.931	4.0594e-05	73.782	0.0020751	0.00189	0.00058743	2021.3	2.2647e-05	2.1168e-05	1117.8	358.37	2.2713e-05	2.0521e-05	541.02	211.75	148.24	58.714	2.4008e-05	96.556	-92.052	-65.214	84.260	-123.272	25.669	-49.445	-123.802	-117.017	23.883	37.553	-119.546	-115.154	-114.097	-108.899	180.770	-110.680	-8191	255	
7183.510	1	1	0	0	0.12038	0.12894	0.076731	0.14019	0.061704	0.11506	0.27361	0.17413	0.22414	0.10597	0.25359	0.20337	0.081017	0.31389	0.083834	0.11302	-2.0104	-2.7354	-2.6354	-2.6729	-3.2646	-2.8271	-2.9104	-2.825	-2.6167	-3.15	-2.9542	-2.825	-3.2	-2.5542	-2.8771	-3.0354	-78.180	174.996	-96.974	40.096	-36.491	-7.480	173.130	161.331	133.771	190.659	180.619	213.813	40.099	219.582	-132.727	65.578	0.00027759	9.1471e-05	0.00066389	640.24	9.9813e-06	5.2363e-06	744.11	229.62	2.1548e-05	1.2653e-05	356.54	155.03	98.905	43.094	2.1332e-05	74.125	0.0020154	0.0018802	0.00062381	1951.8	2.1737e-05	2.1205e-05	1143.8	349.26	2.1958e-05	2.091e-05	553.02	207.94	145.51	59.691	2.4959e-05	94.696	-75.928	-109.868	96.003	-123.164	63.995	156.523	-123.604	-117.348	-32.766	139.569	-118.762	-115.226	-114.140	-108.980	63.944	-110.542	-8191	255	
7183.606	1	1	0	0	0.18418	0.26941	0.15098	0.3109	0.21237	0.27085	0.17212	0.16768	0.039052	0.16676	0.090956	0.17875	0.12829	0.078229	0.12927	0.17357	-1.9208	-2.6583	-2.7062	-2.8208	-3.2146	-2.5625	-2.9167	-3.0271	-2.5729	-2.8479	-2.8396	-2.6146	-3.1521	-2.6021	-2.7771	-3.2313	166.430	29.562	-133.495	-61.592	-2.699	-57.718	148.424	133.703	84.817	-82.032	146.837	154.382	151.161	-122.685	122.838	162.620	0.00045068	0.0026269	0.0003535	642.29	1.3006e-06	2.2192e-05	751.9	229.65	4.609e-06	2.6386e-05	356.72	155.1	99.784	42.905	2.512e-05	73.849	0.0019525	0.0019823	0.00063878	1882.6	2.0878e-05	2.2385e-05	1152.7	341.22	2.1087e-05	2.2387e-05	552.51	204.86	143.24	61.657	2.4631e-05	93.181	-82.344	130.743	16.196	-121.965	139.978	177.560	-123.346	-117.507	-20.180	165.712	-118.946	-115.061	-113.658	-109.186	-0.039	-111.119	-8191	255	
7183.702	1	1	0	0	0.25267	0.12817	0.15037	0.11264	0.039857	0.158	0.1584	0.13326	0.098507	0.19766	0.21418	0.090852	0.062607	0.17277	0.1138	0.2829	-2.0521	-3.0646	-2.7812	-2.4813	-3.1688	-2.6937	-2.9688	-3.1167	-2.5542	-3.1375	-2.9625	-2.6771	-2.9833	-2.525	-2.8125	-3.0542	20.654	-42.177	221.035	160.108	101.434	175.661	-95.727	-113.344	159.306	119.203	14.550	193.701	133.937	96.610	139.562	-90.899	0.00028317	0.0017451	0.00067807	627.4	5.8944e-06	1.4248e-05	756.24	228.9	1.4586e-05	2.4918e-05	356.42	153.75	98.432	43.038	2.566e-05	73.669	0.0018975	0.0021417	0.00062497	1848.6	2.0683e-05	2.4385e-05	1145.2	338.55	2.1319e-05	2.4621e-05	544.48	203.02	144.35	63.833	2.4126e-05	92.237	197.284	140.944	-94.472	-123.635	184.751	182.972	-123.383	-117.413	-30.141	187.615	-118.630	-115.285	-114.092	-109.559	-6.241	-111.393	-8191	255	
7183.821	1	1	0	0	0.22412	0.059443	0.19602	0.19725	0.1036	0.37923	0.23408	0.18317	0.17141	0.083173	0.31037	0.1122	0.083299	0.20208	0.13016	0.42161	-2.2896	-2.975	-2.8021	-2.4979	-2.9521	-2.6229	-2.7667	-2.9958	-2.5646	-2.7458	-3.0708	-2.3667	-3.0062	-2.9	-2.5125	-3.1667	-111.632	149.749	195.089	120.209	219.675	71.849	-67.840	170.364	137.134	-128.567	128.983	156.979	158.174	-23.600	183.025	170.191	0.0010892	0.00066655	0.00061969	628.58	1.6578e-05	1.2825e-05	749.8	228.81	1.5113e-05	5.2984e-06	357.37	154.5	98.078	43.014	1.8518e-05	73.735	0.0019674	0.0022985	0.00060415	1824.8	2.1457e-05	2.5476e-05	1118.2	331.6	2.1982e-05	2.5223e-05	527.03	199.41	147.1	63.92	2.279e-05	90.399	196.500	117.665	-96.208	-122.603	182.611	-51.913	-123.299	-117.685	169.174	-51.177	-119.054	-115.435	-114.319	-108.907	-2.541	-110.707	-8191	255	
7183.895	1	1	0	0	0.078762	0.073476	0.23271	0.23076	0.19695	0.14414	0.30108	0.22109	0.069611	0.28723	0.042061	0.14059	0.093788	0.19068	0.016057	0.24251	-2.1688	-2.9583	-2.8604	-2.3771	-3.1833	-2.8688	-2.6979	-3.2708	-2.5896	-2.7417	-2.9188	-2.4083	-2.9625	-2.9646	-2.6667	-3.1792	-89.466	215.678	177.066	168.610	-107.427	-13.143	122.009	115.422	61.807	-77.715	70.776	135.185	211.569	-105.424	115.802	127.336	0.0010377	0.00026867	0.0005479	644.97	2.139e-05	2.0946e-05	744.84	228.16	2.7211e-05	2.3751e-05	357.66	154.65	98.67	43.326	9.3313e-06	74.62	0.0020698	0.0023035	0.00057159	1760	2.2903e-05	2.4972e-05	1098	326.26	2.3561e-05	2.4678e-05	518.18	197.59	152.62	62.845	2.1875e-05	90.068	186.991	50.147	-51.827	-122.225	-115.314	2.613	-123.739	-117.631	167.728	-48.666	-118.545	-115.455	-113.927	-108.771	-47.472	-110.898	-8191	255	
7183.991	1	1	0	0	0.28463	0.076361	0.24713	0.068764	0.19833	0.049691	0.036556	0.098148	0.16511	0.26439	0.11269	0.15566	0.21545	0.099203	0.27327	0.050421	-2.1875	-2.7167	-2.8917	-2.5563	-3.0062	-2.9062	-2.5229	-3.025	-2.7292	-2.6646	-2.8958	-2.4625	-2.8167	-2.8771	-2.7542	-2.9146	142.840	45.592	12.578	164.071	174.554	-27.173	-88.059	-50.830	81.087	-48.430	163.921	-101.654	126.729	161.399	-25.238	142.539	0.00069232	0.002657	0.00050312	616.48	2.7407e-05	2.7494e-05	753.65	229.74	2.0018e-05	1.9327e-05	357.61	153.83	98.641	43.22	5.5235e-06	72.56	0.0021947	0.002201	0.00054618	1744.2	2.4443e-05	2.3787e-05	1085.8	329.72	2.5123e-05	2.3769e-05	511.85	200.44	157.73	61.495	2.1594e-05	91.079	192.614	-74.472	-79.026	-124.032	185.829	15.202	-123.369	-117.958	200.070	-13.392	-118.747	-114.976	-114.086	-108.832	-61.873	-111.642	-8191	255	
7184.110	1	1	0	0	0.17415	0.16244	0.054268	0.072772	0.30053	0.14053	0.30193	0.15497	0.080935	0.14467	0.070482	0.13984	0.2144	0.15633	0.20726	0.37902	-2.1708	-2.6375	-2.9958	-2.6083	-2.7583	-2.8187	-2.5187	-3.0833	-2.8417	-2.4917	-2.9979	-2.4521	-2.8563	-2.9833	-2.525	-3.1146	88.591	143.676	148.560	105.766	87.856	124.501	59.005	137.845	-33.840	-90.813	124.404	61.622	-91.444	-127.353	-64.369	138.945	0.00037475	0.00086234	0.00059718	615.91	2.2975e-05	2.2233e-05	752.69	227.39	1.9843e-05	1.2573e-05	355.67	153.31	99.478	42.677	1.1932e-05	72.59	0.0023189	0.0021319	0.00053346	1843.2	2.5521e-05	2.2765e-05	1076.9	339.49	2.54e-05	2.274e-05	502.45	204.84	156.49	59.707	2.0613e-05	93.245	198.124	-52.322	-65.629	-124.132	40.959	17.724	-123.072	-118.251	-40.140	1.764	-118.894	-115.470	-114.110	-108.800	-87.206	-111.152	-8191	255	
7184.206	1	1	0	0	0.055998	0.18359	0.22635	0.083271	0.20054	0.32254	0.085677	0.15246	0.23471	0.21965	0.2889	0.028224	0.15688	0.38928	0.16606	0.18437	-2.5542	-2.4833	-2.8875	-2.7687	-2.7833	-3.1167	-2.6875	-2.8312	-2.8375	-2.5229	-3.1937	-2.5896	-2.7333	-3.0062	-2.3792	-3.1083	-1.176	57.878	-50.719	-135.482	-84.145	130.116	120.087	120.427	-72.722	139.503	-105.141	126.153	148.578	-117.804	76.131	-124.143	0.00045586	0.002262	0.00040459	607.77	1.6865e-05	1.7447e-05	744.8	227.08	1.9283e-05	4.4205e-06	357.25	154.6	99.997	43.086	1.6943e-06	73.5	0.0022407	0.0020295	0.00050766	1917.1	2.4539e-05	2.1529e-05	1058.3	348.29	2.4024e-05	2.1856e-05	497.96	210.84	153.65	58.836	2.058e-05	96.379	-96.865	-5.784	98.769	-125.884	50.397	21.744	-123.565	-117.925	-12.208	77.096	-119.414	-115.513	-113.999	-108.812	168.709	-111.348	-8191	255	
7184.302	1	1	0	0	0.30998	0.13753	0.30725	0.11705	0.14418	0.062412	0.17844	0.14019	0.17502	0.20575	0.10256	0.44159	0.062067	0.088226	0.034338	0.15677	-2.4208	-2.3875	-2.7292	-2.8292	-2.7188	-2.8167	-2.6	-2.7854	-2.95	-2.4313	-2.8792	-2.7771	-2.7854	-2.9813	-2.4104	-3.0333	12.672	66.503	192.534	61.267	-102.408	85.612	64.105	-8.571	29.547	-81.039	17.194	193.134	213.796	153.447	194.283	-30.832	0.0005039	0.0023605	0.00052955	614.81	1.9088e-05	5.7127e-06	745.72	227.18	2.2607e-05	1.5762e-05	352.74	155.74	99.683	43.077	2.9631e-05	74.043	0.0021178	0.0019657	0.00051678	1989.9	2.3384e-05	2.0722e-05	1071.4	355.6	2.2668e-05	2.0951e-05	508.53	213.05	149.4	57.971	2.1789e-05	97.443	-56.467	-135.353	127.984	-124.198	10.527	69.098	-123.094	-118.020	13.570	-33.734	-119.773	-115.425	-113.929	-109.143	156.478	-110.858	-8191	255	
7184.422	1	1	0	0	0.11944	0.15233	0.10144	0.062413	0.1631	0.095938	0.059939	0.17859	0.02671	0.22008	0.13277	0.15024	0.29665	0.039911	0.13313	0.23621	-2.2708	-2.3042	-2.8312	-2.675	-2.5292	-3.1208	-2.4146	-2.6729	-2.8979	-2.6104	-2.9375	-2.85	-2.6813	-2.8937	-2.6917	-2.9417	216.240	8.406	-72.091	-115.069	148.979	192.091	-91.344	-117.457	71.239	222.044	135.093	-32.142	194.467	-106.266	12.290	167.309	0.00067166	0.0019459	0.00098862	647.22	1.6755e-05	1.6394e-05	749.2	230.73	2.3597e-05	9.9877e-06	353.81	155.9	99.426	43.104	2.8131e-05	73.819	0.0020089	0.0018938	0.0005556	2002.3	2.2392e-05	2.0018e-05	1109.8	357.67	2.1751e-05	2.0476e-05	529.07	211.22	147.43	57.391	2.3497e-05	96.105	-90.695	-83.086	83.978	-123.655	-56.294	7.963	-123.827	-117.686	-73.401	-57.083	-119.482	-114.711	-113.964	-109.090	134.079	-110.546	-8191	255	
7184.519	1	1	0	0	0.11912	0.16158	0.063445	0.26885	0.14606	0.14845	0.15092	0.075438	0.064696	0.15609	0.16456	0.094259	0.30104	0.30498	0.14381	0.21604	-2.4313	-2.4604	-2.9	-2.7375	-2.5563	-3.3688	-2.8333	-2.6708	-2.8833	-2.625	-2.9979	-2.8333	-2.5083	-2.9562	-2.8021	-2.7708	13.229	164.607	-34.323	134.521	46.739	91.252	159.805	129.485	11.285	6.139	130.156	139.764	101.472	-123.026	-23.814	168.534	0.00024334	0.0010667	0.00096908	644.53	1.8992e-05	1.7944e-05	752.45	230.6	1.5079e-05	2.4902e-05	355.55	154.81	99.884	42.5	1.067e-05	72.806	0.0019308	0.0018672	0.00059741	1923.8	2.171e-05	1.9965e-05	1137	349.06	2.1001e-05	2.0773e-05	544.29	205.66	145.22	57.962	2.4512e-05	93.548	-130.123	-39.305	63.292	-122.166	-19.649	-125.293	-123.950	-117.376	-30.220	145.497	-119.419	-114.782	-113.683	-109.226	168.933	-110.907	-8191	255	
7184.590	1	1	0	0	0.17502	0.18377	0.13598	0.06473	0.21314	0.42692	0.16001	0.083634	0.1891	0.14122	0.22757	0.082774	0.2476	0.1493	0.27442	0.097753	-2.4188	-2.4146	-2.8812	-2.8208	-2.5687	-3.1667	-2.8646	-2.6833	-3.1229	-2.6125	-2.7646	-3.0958	-2.3625	-3.0167	-2.9271	-2.7104	-14.073	-87.849	-62.766	205.784	138.503	-106.553	124.930	78.747	-24.852	65.646	-82.597	45.558	85.524	190.120	212.548	84.679	0.00059442	0.0037486	0.00050492	649.72	2.3911e-05	4.6879e-05	750.93	228.68	1.3613e-05	3.623e-05	357.63	154.14	99.269	42.56	1.2574e-05	73.246	0.0018607	0.00194	0.00062285	1834.5	2.1004e-05	2.1182e-05	1145.7	341.12	2.0056e-05	2.2061e-05	548.27	201.76	143.04	59.986	2.436e-05	92.401	-113.063	142.575	-21.039	-122.230	55.207	174.808	-123.203	-117.365	29.069	159.203	-119.026	-115.319	-114.418	-109.408	-1.846	-110.710	-8191	255	
7184.711	1	1	0	0	0.25364	0.076674	0.21604	0.091839	0.1073	0.28569	0.30922	0.33851	0.06148	0.2153	0.22072	0.12011	0.10695	0.18706	0.18974	0.18008	-2.5271	-2.4313	-2.7062	-3.0687	-2.6333	-2.9896	-2.6813	-2.5812	-3.15	-2.6604	-2.8292	-2.925	-2.6542	-3.0583	-2.6792	-2.5563	136.742	24.309	-87.666	-58.026	139.918	-61.404	201.640	124.297	124.270	7.878	134.941	-36.126	165.333	134.788	164.178	163.041	0.00037756	0.0028663	0.00047433	629.57	1.7173e-05	2.9418e-05	752.94	229.1	4.497e-06	2.7357e-05	359.53	154.8	99.259	42.965	3.026e-05	73.739	0.0018124	0.0020959	0.00061486	1782.5	2.0575e-05	2.2913e-05	1129	336.88	1.9866e-05	2.3731e-05	539.3	199.45	142.86	62.107	2.3148e-05	91.721	194.539	118.095	-102.334	-122.815	179.358	163.285	-122.901	-117.517	-14.939	176.679	-118.486	-114.781	-114.153	-109.227	-36.943	-110.911	-8191	255	
7184.805	1	1	0	0	0.067873	0.12614	0.22707	0.14894	0.19273	0.074174	0.24453	0.19706	0.20319	0.37152	0.30471	0.11044	0.31861	0.28634	0.19528	0.034538	-2.7417	-2.5438	-2.6833	-3.0021	-2.7208	-2.8875	-2.8458	-2.7125	-3.1312	-2.6	-2.6208	-2.9083	-2.5792	-2.9146	-2.9562	-2.5229	64.158	158.360	43.996	158.986	-93.339	140.840	40.097	98.116	-117.309	82.953	170.317	197.350	-113.183	187.233	79.949	54.868	0.00094089	0.0014641	0.0007089	630.57	2.3327e-06	8.4494e-06	752.64	228.72	2.1012e-05	1.6697e-05	361.18	157.37	99.887	43.679	1.6734e-05	74.366	0.001821	0.0022191	0.00058621	1733.6	2.0894e-05	2.4258e-05	1101.4	332.09	2.0636e-05	2.4601e-05	527.73	197.36	146.58	63.352	2.1953e-05	90.88	202.635	175.063	-58.496	-122.739	-131.759	107.685	-123.078	-117.540	192.403	-79.243	-119.060	-115.272	-114.639	-108.757	-1.939	-111.127	-8191	255	
7184.901	1	1	0	0	0.17464	0.11819	0.10045	0.13009	0.12839	0.072982	0.19388	0.15312	0.17127	0.09099	0.11378	0.18578	0.35304	0.061577	0.046383	0.052992	-2.6542	-2.9896	-2.6292	-2.8104	-2.4583	-2.8708	-3.0958	-2.7687	-2.8354	-2.8125	-2.7833	-3.2229	-2.8292	-2.8125	-3.0521	-2.5771	-27.769	98.290	-27.161	79.868	94.308	70.617	132.639	162.366	-90.002	-77.243	186.815	102.095	197.709	130.643	198.196	-29.733	0.00095121	0.0022822	0.00083595	620.44	2.7676e-05	2.3636e-05	753.91	229.36	2.6873e-05	3.4029e-05	356.54	154.92	98.739	43.363	5.6702e-06	73.557	0.0019549	0.0022603	0.00056187	1696.1	2.2611e-05	2.4687e-05	1085.5	329.89	2.2601e-05	2.4462e-05	519.6	195.42	152	62.742	2.1351e-05	89.722	198.461	-14.912	-103.450	-123.820	-133.296	-26.093	-123.278	-117.726	218.800	-39.292	-118.976	-115.346	-114.490	-108.607	-45.048	-111.031	-8191	255	
7184.998	1	1	0	0	0.090423	0.14047	0.079121	0.3417	0.14838	0.11203	0.084417	0.15374	0.032729	0.20181	0.16459	0.19316	0.28023	0.2482	0.17099	0.23167	-2.4146	-2.8042	-2.1979	-2.9625	-2.525	-2.9188	-3.0167	-2.6042	-2.9292	-2.6479	-2.5917	-3.0646	-2.6937	-2.8125	-2.9958	-2.5708	-34.065	-48.767	-18.630	189.779	0.652	215.401	206.222	131.147	-35.744	22.564	171.711	101.246	103.490	144.672	137.091	138.375	0.00088267	0.0025152	0.00046457	616.09	1.794e-05	6.8175e-06	747.27	229.29	1.2837e-05	3.9374e-05	357.07	154.44	99.158	43.404	3.5701e-05	73.492	0.002113	0.0021693	0.00054559	1683.9	2.4136e-05	2.3627e-05	1066.5	329.03	2.4026e-05	2.3132e-05	511.95	196.63	155.49	61.302	2.0512e-05	91.136	195.505	-84.121	-41.008	-122.897	186.348	-49.891	-123.708	-117.984	88.800	-9.380	-119.084	-115.705	-114.196	-108.526	-9.033	-111.249	-8191	255	
7185.118	1	1	0	0	0.083547	0.20578	0.27835	0.14956	0.22693	0.15674	0.30423	0.22736	0.095866	0.21233	0.074046	0.18922	0.22775	0.25493	0.099755	0.30072	-2.5521	-2.8854	-2.6562	-3.0646	-2.9562	-2.6042	-3	-2.6042	-2.8958	-2.9542	-2.6312	-3.1333	-2.5938	-2.4667	-2.85	-2.7021	78.424	206.983	161.130	-99.740	5.032	146.766	160.383	102.453	156.487	221.003	46.129	-111.997	-34.547	212.661	78.530	114.430	0.00028874	0.0019121	0.00041698	611.27	3.5266e-06	2.3148e-05	748.65	229.3	3.2761e-06	2.4725e-05	359.57	154.15	100.12	43.113	2.4247e-05	73.236	0.0022219	0.0020626	0.00053221	1749.1	2.4969e-05	2.263e-05	1049.4	337.37	2.4841e-05	2.2174e-05	507.01	203.1	157.16	60.331	2.0166e-05	94.217	216.095	-68.205	-102.359	-123.643	213.361	21.826	-123.386	-117.744	-47.913	-29.768	-118.871	-115.409	-114.199	-108.948	-63.364	-111.414	-8191	255	
7185.190	1	1	0	0	0.20239	0.14427	0.33443	0.12548	0.16094	0.1124	0.25363	0.16675	0.26975	0.10718	0.05722	0.10344	0.047708	0.029712	0.063744	0.44056	-2.4104	-2.8729	-2.2667	-2.9583	-2.7479	-2.5042	-3.2812	-2.6042	-2.6437	-3.0042	-2.6312	-2.9479	-2.825	-2.4917	-2.9458	-2.8104	-37.283	78.963	213.691	48.818	178.949	148.974	-91.928	164.427	5.411	-45.705	-71.539	96.781	76.147	155.055	102.398	121.829	4.0654e-05	0.0024827	0.00019841	610.13	1.4739e-05	2.5865e-05	752.95	229.12	1.9586e-05	1.6034e-05	357.68	154.05	99.641	42.937	8.4047e-06	73.422	0.0022685	0.0020215	0.00052949	1890.4	2.4984e-05	2.2435e-05	1051	352.69	2.4623e-05	2.1713e-05	506.76	209.61	153.64	59.653	2.0145e-05	96.67	205.855	-32.904	119.635	-124.220	15.312	-7.282	-123.342	-118.064	-15.049	-24.610	-119.383	-115.185	-113.776	-109.011	-103.822	-110.937	-8191	255	
7185.286	1	1	0	0	0.09992	0.30631	0.24474	0.12501	0.43441	0.14815	0.17464	0.039185	0.095754	0.10475	0.18441	0.1965	0.11251	0.20166	0.19711	0.1878	-2.1521	-2.7417	-2.4958	-3.1562	-2.7229	-2.2125	-2.975	-2.7021	-3.0479	-2.925	-2.525	-3.0125	-2.9604	-2.5042	-2.9562	-2.8937	-62.863	-11.885	184.309	190.237	170.647	2.187	154.114	-76.008	-60.683	66.212	168.429	217.891	-132.760	138.612	203.934	132.567	0.00038145	0.00063355	0.00071573	601.42	3.0813e-05	1.1863e-05	744.71	228.8	1.7462e-05	2.1504e-05	352.41	153.51	100.16	43.059	3.1794e-05	73.211	0.0021584	0.0019405	0.0005297	1975.7	2.3489e-05	2.1585e-05	1057.1	358.38	2.3392e-05	2.0799e-05	513.91	213.22	149.94	58.79	2.1242e-05	97.65	-39.314	-102.072	77.840	-123.217	10.594	88.553	-123.895	-118.007	-12.750	21.798	-119.087	-115.288	-113.921	-109.021	173.944	-111.226	-8191	255	
7185.382	1	1	0	0	0.15393	0.019326	0.10171	0.14917	0.25914	0.45128	0.051703	0.22883	0.23301	0.12503	0.29697	0.36534	0.18132	0.17366	0.085555	0.084279	-1.9917	-2.6854	-2.425	-2.8167	-2.9813	-2.5917	-3	-2.7479	-2.5104	-3.0458	-2.5542	-2.6542	-2.8083	-2.5021	-3.0958	-2.9917	39.783	63.411	-7.429	-64.897	-46.604	105.605	-101.532	70.418	187.524	175.010	216.382	-117.816	27.506	166.522	-27.521	221.989	0.00030499	0.0023625	0.00099341	615.06	1.9308e-05	1.9348e-05	739.78	230.7	1.6636e-05	1.3823e-05	355.14	154.73	98.961	42.871	3.278e-05	73.454	0.0020625	0.0018674	0.00056421	2005.6	2.2383e-05	2.0893e-05	1091.1	357.53	2.2554e-05	2.0293e-05	533.13	212.08	147.22	58.276	2.3273e-05	96.455	-108.299	213.909	110.167	-123.214	17.243	-8.780	-123.859	-117.203	0.453	-44.772	-119.444	-114.997	-114.141	-109.096	185.355	-110.835	-8191	255	
7185.503	1	1	0	0	0.20482	0.20308	0.21895	0.21903	0.091435	0.1641	0.11691	0.1526	0.087479	0.02899	0.13169	0.1804	0.22108	0.10321	0.014925	0.17483	-2.2521	-3.0125	-2.2958	-2.5646	-3.0646	-2.7396	-2.9771	-2.8667	-2.4375	-3.1188	-2.8812	-2.8521	-3.0062	-2.4521	-2.8229	-2.7646	118.674	-23.537	150.134	-97.708	20.585	56.839	-75.705	166.024	85.987	47.923	-103.735	224.431	-106.995	26.745	212.795	116.546	0.00042419	0.0007631	0.00043264	628.23	2.3354e-05	1.9059e-05	749.98	229.58	2.7149e-05	8.9769e-06	354.28	153.78	99.994	42.55	1.254e-05	73.312	0.0020293	0.001863	0.00061392	1977.6	2.1951e-05	2.0981e-05	1135.5	352.04	2.2167e-05	2.0626e-05	550.9	209.09	145.5	58.829	2.4877e-05	94.857	-117.385	56.123	81.150	-122.110	39.767	99.574	-123.849	-117.432	23.984	121.367	-119.054	-114.946	-114.520	-109.403	155.499	-110.876	-8191	255	
7185.599	1	1	0	0	0.14526	0.043658	0.029148	0.1004	0.1196	0.085522	0.19396	0.21785	0.31556	0.049888	0.097832	0.13856	0.14859	0.13651	0.14256	0.2167	-2.0458	-2.925	-2.8083	-2.5854	-2.8646	-2.525	-2.8375	-2.9437	-2.4188	-2.8646	-2.7125	-2.7271	-3.1042	-2.6646	-2.9229	-2.9313	188.209	49.276	146.353	-129.325	80.967	126.625	171.874	133.029	-61.648	-3.369	136.423	152.570	221.376	-132.007	180.685	187.951	0.00016414	0.0012117	0.00053851	642.88	8.2052e-06	2.3255e-05	753.42	229.05	1.6472e-05	4.8614e-05	357.24	154.48	99.166	42.624	1.8749e-05	73.525	0.0019766	0.0019451	0.00064574	1917	2.1192e-05	2.2253e-05	1162.2	345.4	2.1723e-05	2.2211e-05	559.9	206.3	143.92	61.079	2.5283e-05	93.349	-62.620	123.708	103.861	-121.623	74.230	160.606	-123.767	-117.693	-3.984	155.498	-118.728	-115.057	-114.250	-109.314	-60.928	-110.906	-8191	255	
7185.695	1	1	0	0	0.26689	0.13153	0.20479	0.30519	0.19544	0.20822	0.4179	0.36881	0.20304	0.032294	0.073027	0.17044	0.29614	0.074035	0.39691	0.198	-1.8062	-3.1063	-2.8896	-2.7792	-3.025	-2.5396	-2.6813	-3.0646	-2.5417	-2.9042	-2.8708	-2.5917	-3.1479	-2.85	-2.8708	-2.9562	109.655	-63.998	156.971	20.650	-77.873	202.750	-122.068	197.471	-1.132	83.767	186.006	210.322	157.838	148.371	-46.283	-128.459	0.00016429	0.00224	0.00092585	621.54	1.7686e-05	2.3532e-05	751.99	228.84	1.136e-05	1.8606e-05	359.15	155.44	98.216	43.01	3.1039e-05	73.953	0.0019188	0.0020929	0.0006358	1850.6	2.0551e-05	2.374e-05	1146.2	336.62	2.1076e-05	2.3767e-05	547.42	203.47	142.51	63.09	2.4254e-05	92.16	132.729	133.996	-116.236	-123.191	43.458	196.526	-123.253	-117.353	170.323	172.679	-118.512	-114.935	-113.878	-108.965	14.462	-110.984	-8191	255	
7185.791	1	1	0	0	0.051079	0.15741	0.26046	0.20331	0.19803	0.11377	0.28943	0.13567	0.12643	0.035585	0.075703	0.3015	0.4734	0.3338	0.087384	0.13089	-2.025	-2.7438	-2.7792	-2.5979	-2.9229	-2.8	-2.9417	-3.1312	-2.4292	-2.9104	-3.0625	-2.6688	-3.0375	-2.7625	-2.6146	-3.2521	65.110	125.610	189.084	188.184	167.087	132.181	-124.655	175.726	74.004	200.374	142.991	-86.712	219.498	95.175	53.126	181.508	0.00064237	0.0026797	0.00075576	628.06	1.4888e-05	1.6089e-05	742.67	226.81	1.2103e-05	1.5011e-05	356.82	153.5	98.373	42.845	2.6997e-05	73.098	0.0019195	0.0022564	0.00060744	1816.8	2.1003e-05	2.5246e-05	1123	332.28	2.1758e-05	2.5318e-05	533.25	200.89	145.57	64.07	2.3314e-05	90.573	201.967	151.926	-99.220	-122.465	156.545	161.075	-123.138	-117.276	144.094	202.940	-118.722	-115.355	-114.660	-109.050	0.885	-110.822	-8191	255	
7185.887	1	1	0	0	0.14659	0.22928	0.090818	0.2501	0.22875	0.3123	0.25271	0.13625	0.15813	0.076321	0.063421	0.35448	0.2909	0.16452	0.094994	0.32828	-2.2667	-2.9042	-2.8563	-2.5917	-3.0667	-2.6729	-2.8229	-2.9542	-2.5438	-2.95	-3.0125	-2.5771	-3.025	-2.8479	-2.3771	-3.1479	42.581	-5.161	-8.061	-123.453	-96.021	-117.663	-114.883	118.587	-116.736	67.805	136.437	175.208	167.561	-106.700	83.003	210.402	0.0013329	0.0012841	0.00067685	635.13	1.8368e-05	1.3615e-05	743.52	228.46	3.6483e-05	1.321e-05	358.85	154.38	98.501	43.304	1.9958e-05	73.854	0.0020402	0.0023338	0.00057864	1779.1	2.2471e-05	2.5556e-05	1101.9	327.26	2.3391e-05	2.5381e-05	521.03	198.89	151.34	63.679	2.252e-05	90.213	194.146	-73.915	-94.337	-123.597	211.546	-0.183	-123.407	-117.688	181.608	-38.000	-119.286	-115.440	-114.417	-108.660	8.548	-111.117	-8191	255	
7185.984	1	1	0	0	0.089817	0.16808	0.207	0.16384	0.22895	0.21453	0.11417	0.25561	0.2816	0.21555	0.19967	0.26635	0.069091	0.1445	0.15519	0.046146	-2.2792	-2.7625	-2.9917	-2.5917	-2.95	-2.7438	-2.5729	-3.1	-2.6875	-2.7667	-3.0208	-2.5792	-2.9042	-2.9146	-2.4729	-3.0729	-134.851	-87.447	-112.185	162.748	-58.867	-88.413	-107.492	128.675	-11.606	-126.135	79.110	123.055	-122.392	156.766	2.177	95.885	0.0007712	0.0008463	0.00051249	619.27	2.0227e-05	2.7857e-05	745.29	227.23	1.3686e-05	2.0557e-05	355.91	153.78	98.926	43.388	1.1547e-05	73.176	0.0021988	0.0022792	0.00055889	1759.6	2.4353e-05	2.4578e-05	1091.7	327.43	2.5083e-05	2.4478e-05	516.07	200.55	157.39	62.396	2.1998e-05	91.532	167.253	-65.278	204.764	-124.107	190.944	18.734	-123.364	-118.158	189.686	-43.130	-118.975	-115.598	-114.159	-108.927	20.868	-110.770	-8191	255	
7186.102	1	1	0	0	0.34045	0.22221	0.29377	0.23733	0.015695	0.18132	0.22144	0.2425	0.30006	0.28156	0.1661	0.25806	0.097453	0.16711	0.072274	0.1133	-2.2687	-2.8146	-2.8604	-2.3917	-2.7646	-2.8604	-2.5083	-3.0208	-2.8	-2.6833	-3.275	-2.7729	-2.9542	-2.9313	-2.6125	-2.9688	39.041	49.613	109.601	-22.214	65.102	-8.737	121.591	-118.530	164.395	-43.877	-109.456	162.584	166.970	-95.883	-89.213	-125.153	0.0005565	0.0037329	0.00071227	598.22	6.1734e-06	2.6721e-05	745.42	228.05	5.4703e-06	2.7006e-05	355.89	152.49	98.317	42.479	1.838e-05	72.081	0.0023402	0.0022053	0.00054944	1832.9	2.6037e-05	2.3725e-05	1085.9	338.57	2.6237e-05	2.3751e-05	509.64	205.35	159.37	60.706	2.16e-05	93.446	188.272	-58.809	-76.135	-124.439	-48.688	3.485	-123.493	-117.920	148.829	-13.680	-118.988	-115.520	-114.269	-108.777	-10.022	-111.361	-8191	255	
7186.199	1	1	0	0	0.040202	0.084617	0.092496	0.13457	0.057324	0.19489	0.12744	0.048019	0.3139	0.051428	0.13171	0.14622	0.044932	0.3833	0.34291	0.1533	-2.1979	-2.5958	-2.975	-2.5854	-2.8521	-2.8937	-2.5708	-3.0083	-2.6875	-2.5042	-2.9396	-2.7271	-2.7604	-3.0479	-2.2687	-2.9583	13.810	220.311	-96.880	-133.250	-71.904	55.934	216.488	-132.733	-59.299	-56.150	137.538	195.664	-99.181	180.299	51.246	140.229	0.00022055	0.0021465	0.00045719	587.88	1.0433e-05	2.3186e-05	742.3	225.74	2.3972e-05	1.8886e-05	352.78	151.08	98.045	42.179	1.2881e-05	72.189	0.0023537	0.0021176	0.00053082	1940.3	2.5891e-05	2.2707e-05	1072.9	349.89	2.5371e-05	2.2959e-05	503.74	210.78	156.37	59.601	2.1342e-05	96.17	205.075	-89.992	219.562	-123.980	73.482	61.184	-123.398	-117.860	27.076	44.937	-118.918	-115.298	-113.643	-108.632	-118.577	-111.498	-8191	255	
7186.295	1	1	0	0	0.043587	0.18109	0.18032	0.064821	0.197	0.11291	0.23525	0.058513	0.24295	0.12488	0.24259	0.2033	0.20074	0.2068	0.27287	0.04298	-2.275	-2.5479	-3.0333	-2.8375	-2.575	-2.8229	-2.5104	-3.0167	-2.9208	-2.5604	-2.8833	-2.7458	-2.625	-2.8563	-2.5771	-2.8438	207.301	187.170	-120.455	173.902	101.597	113.159	148.969	177.577	70.115	122.056	-42.576	108.463	-129.685	147.434	37.413	198.979	0.00018449	0.003278	0.00056075	607.65	8.6872e-06	3.2349e-05	740.29	227.47	1.4363e-05	1.6784e-05	353.2	152.93	98.257	42.379	2.4628e-05	72.401	0.0022442	0.0020459	0.00052922	2025.5	2.4546e-05	2.1712e-05	1073	358.15	2.3798e-05	2.1854e-05	507.53	213.4	151.31	58.386	2.1931e-05	97.71	-49.696	-79.431	123.985	-123.889	49.215	12.654	-123.934	-117.656	-48.255	-29.613	-119.024	-115.253	-114.040	-108.628	171.942	-111.152	-8191	255	
7186.391	1	1	0	0	0.26149	0.14002	0.24459	0.075822	0.020796	0.027349	0.27907	0.063236	0.20038	0.29033	0.14085	0.32439	0.15863	0.15688	0.14361	0.2149	-2.4708	-2.6458	-3.0479	-2.6813	-2.5604	-3.1458	-2.7313	-2.8792	-2.8708	-2.3042	-3.0021	-2.9542	-2.7979	-3.1146	-2.75	-2.6562	143.741	148.874	149.755	-99.956	27.659	-84.433	213.648	213.512	70.229	222.461	63.627	166.175	44.686	143.425	86.900	208.887	0.0004766	0.001381	0.0011822	609.21	2.3594e-05	1.8753e-05	739.04	226.6	3.3614e-05	9.7732e-06	353.51	154.82	99.083	42.855	3.398e-05	73.873	0.0020894	0.0019544	0.0005544	2032	2.308e-05	2.0717e-05	1099.1	359.24	2.2553e-05	2.1164e-05	527.74	213.32	149.06	57.678	2.3403e-05	97.505	-59.171	-83.699	104.518	-124.041	54.151	49.887	-124.364	-117.348	22.791	18.310	-119.352	-115.102	-113.959	-109.425	207.034	-110.966	-8191	255	
7186.487	1	1	0	0	0.20483	0.13555	0.27241	0.2446	0.11158	0.094987	0.20102	0.076325	0.098612	0.098718	0.1268	0.2325	0.044172	0.29176	0.12826	0.35487	-2.3604	-2.4667	-2.8771	-2.8646	-2.6063	-2.9667	-2.5042	-2.9104	-3.1271	-2.5667	-3.0646	-2.65	-2.6167	-3.15	-2.8271	-2.8083	11.109	207.783	17.573	87.360	14.877	132.282	214.175	-92.561	-39.227	153.641	100.387	179.393	144.478	86.268	-3.492	177.480	0.00063601	0.0011456	0.00083297	631.97	2.1068e-05	5.6513e-06	737.32	228.55	1.9425e-05	1.6914e-05	355.11	156.51	99.715	42.609	2.2638e-05	73.811	0.0019977	0.0018924	0.00059564	1963.7	2.2213e-05	2.0171e-05	1128.9	350.92	2.1468e-05	2.0879e-05	544.93	209.17	146.96	58.092	2.4741e-05	95.442	-55.948	-14.072	103.509	-122.872	39.692	93.531	-124.048	-116.822	18.356	200.083	-119.339	-114.854	-113.823	-109.138	216.938	-110.483	-8191	255	
7186.583	1	1	0	0	0.047439	0.19304	0.24295	0.06865	0.18902	0.10594	0.11792	0.18669	0.067109	0.055722	0.054582	0.068685	0.1854	0.050431	0.1965	0.35062	-2.4271	-2.4625	-2.6208	-2.8187	-2.3875	-2.9396	-2.8271	-2.8104	-3.1896	-2.6604	-2.8375	-2.925	-2.5896	-3.1625	-2.675	-2.4667	6.544	-104.364	101.240	37.918	-15.758	-66.658	96.855	163.891	-38.326	-51.642	54.273	-86.087	108.607	-78.174	89.842	173.356	0.0002564	0.0011607	0.00013794	640.34	3.4354e-06	2.3516e-05	743.22	227.63	1.9931e-05	2.4415e-05	349.94	154.09	98.254	42.578	1.7732e-05	73.654	0.0019279	0.001948	0.00063003	1887.3	2.1481e-05	2.1034e-05	1146.6	342.33	2.0604e-05	2.1852e-05	548.8	202.9	143.37	59.428	2.4809e-05	93.164	-113.768	157.253	3.331	-121.516	-16.128	176.853	-123.751	-117.522	35.561	210.734	-118.862	-115.277	-113.913	-109.388	8.264	-111.085	-8191	255	
7186.679	1	1	0	0	0.094283	0.31639	0.13446	0.22166	0.027039	0.12854	0.14359	0.11312	0.065599	0.20117	0.24216	0.22827	0.36156	0.2508	0.3705	0.21503	-2.7896	-2.5917	-3.0062	-2.975	-2.3542	-2.9125	-2.9313	-2.625	-2.9729	-2.4688	-2.7188	-3.0854	-2.5604	-2.7875	-2.6167	-2.6042	58.809	74.164	71.262	-64.320	187.007	-86.607	135.179	113.980	52.130	-33.165	-132.308	155.431	-59.507	180.246	7.788	192.723	0.00011657	0.0024487	0.00045952	621.37	3.6349e-06	3.494e-05	744.62	226.28	2.2492e-05	3.2221e-05	356.95	153.75	97.777	42.395	2.5702e-05	73.498	0.0018457	0.0020698	0.00062901	1815.2	2.0913e-05	2.2799e-05	1135.6	337.29	2.0229e-05	2.3772e-05	545.74	200.75	143.25	61.771	2.4169e-05	92.323	138.947	138.508	-102.164	-121.534	-18.133	150.664	-123.046	-117.698	102.186	165.878	-118.681	-115.307	-114.303	-109.396	-8.221	-111.092	-8191	255	
7186.800	1	1	0	0	0.044844	0.20543	0.34235	0.15573	0.18611	0.02221	0.13695	0.083972	0.23231	0.05159	0.14508	0.12743	0.16289	0.1097	0.11627	0.15647	-2.6042	-2.675	-2.5417	-2.9542	-2.5687	-3.0583	-2.8312	-2.525	-3.0208	-2.7812	-2.7646	-3.0604	-2.4542	-2.9979	-2.8708	-2.4083	86.706	-4.714	70.682	146.672	173.775	83.807	101.911	-133.031	61.207	-23.517	3.310	-78.238	209.337	143.517	188.476	-127.680	0.00056469	0.0012907	0.00063656	624.08	4.1222e-06	1.767e-05	745.06	225.68	1.6755e-05	2.1805e-05	358.7	153.42	97.487	42.247	3.2621e-05	72.555	0.0018586	0.0022474	0.00061078	1783.7	2.1265e-05	2.4709e-05	1118.1	334.74	2.0926e-05	2.5171e-05	536.77	198.08	145.71	63.381	2.3034e-05	91.016	214.601	124.465	220.790	-123.643	202.044	217.947	-123.239	-117.192	165.960	151.991	-118.491	-115.354	-114.488	-109.064	-22.046	-110.913	-8191	255	
7186.894	1	1	0	0	0.30481	0.18655	0.18917	0.20677	0.30009	0.11219	0.079296	0.27462	0.034675	0.15436	0.080187	0.30294	0.12259	0.16904	0.20706	0.23247	-2.5125	-2.8688	-2.7021	-2.9479	-2.5896	-2.9896	-2.9333	-2.5062	-2.9792	-2.8771	-2.775	-3.0563	-2.6688	-2.9333	-2.9833	-2.3979	-87.208	101.358	196.790	-134.003	67.656	218.367	100.407	-43.146	103.929	76.713	-19.632	121.789	188.924	-5.878	127.957	58.255	0.0013122	0.0011614	0.00073599	635.97	2.2739e-05	1.1708e-05	745.1	226.89	2.0109e-05	2.4911e-05	355.99	152.45	96.552	42.73	2.388e-05	72.75	0.0019667	0.0023256	0.0005875	1738.4	2.2636e-05	2.5401e-05	1095.5	330.36	2.2513e-05	2.5191e-05	524.12	195.08	149.97	62.734	2.183e-05	89.797	209.882	-24.648	-87.896	-122.310	182.997	87.807	-123.061	-117.526	169.696	-54.073	-118.921	-115.358	-114.456	-108.780	8.406	-110.952	-8191	255	
#DATA ENDS
