BOXY.EXE: ISS Imagent and Oximeter Data Acquisition Program Version 0.80
Ascii Record File

#ACQ INFORMATION
2  Detector Channels 
16  External MUX Channels 
1  Auxiliary Channels 
5000  Waveform (CCF) Frequency (Hz)
1  Waveforms Skipped 
30  Waveforms Averaged 
1  Cycles Averaged 
16  Acquisitions per Waveform 
10.0806  Updata Rate (Hz) 

#FILE INFORMATION
TRUE -- External MUX Channel results are PARSED.
FALSE -- AC DC and Phase are NOT grouped.
TRUE -- Companion Program Settings File CREATED.
FALSE -- AC data not excluded
FALSE -- DC data not excluded
FALSE -- Phase data not excluded
FALSE -- Auxillary Chn. data not excluded
Tab delimiters

#CALIBRATION STATE
TRUE -- Waveform Calibration Values APPLIED.


#AUX CALIBRATION VALUES
Val Type	aux-1	

Term	1.0000e+00	
Factor	0.0000e+00	


#WF CALIBRATION VALUES
A = Detector Channel
Val Type	A-AC1	A-AC2	A-AC3	A-AC4	A-AC5	A-AC6	A-AC7	A-AC8	A-AC9	A-AC10	A-AC11	A-AC12	A-AC13	A-AC14	A-AC15	A-AC16	A-DC1	A-DC2	A-DC3	A-DC4	A-DC5	A-DC6	A-DC7	A-DC8	A-DC9	A-DC10	A-DC11	A-DC12	A-DC13	A-DC14	A-DC15	A-DC16	A-Ph1	A-Ph2	A-Ph3	A-Ph4	A-Ph5	A-Ph6	A-Ph7	A-Ph8	A-Ph9	A-Ph10	A-Ph11	A-Ph12	A-Ph13	A-Ph14	A-Ph15	A-Ph16	

Term	0.00000e+00	0.00000e+00	0.00000e+00	0.00000e+00	0.00000e+00	0.00000e+00	0.00000e+00	0.00000e+00	0.00000e+00	0.00000e+00	0.00000e+00	0.00000e+00	0.00000e+00	0.00000e+00	0.00000e+00	0.00000e+00	0.00000e+00	0.00000e+00	0.00000e+00	0.00000e+00	0.00000e+00	0.00000e+00	0.00000e+00	0.00000e+00	0.00000e+00	0.00000e+00	0.00000e+00	0.00000e+00	0.00000e+00	0.00000e+00	0.00000e+00	0.00000e+00	0.00000e+00	0.00000e+00	0.00000e+00	0.00000e+00	0.00000e+00	0.00000e+00	0.00000e+00	0.00000e+00	0.00000e+00	0.00000e+00	0.00000e+00	0.00000e+00	0.00000e+00	0.00000e+00	0.00000e+00	0.00000e+00	
Factor	1.00000e+00	1.00000e+00	1.00000e+00	1.00000e+00	1.00000e+00	1.00000e+00	1.00000e+00	1.00000e+00	1.00000e+00	1.00000e+00	1.00000e+00	1.00000e+00	1.00000e+00	1.00000e+00	1.00000e+00	1.00000e+00	1.00000e+00	1.00000e+00	1.00000e+00	1.00000e+00	1.00000e+00	1.00000e+00	1.00000e+00	1.00000e+00	1.00000e+00	1.00000e+00	1.00000e+00	1.00000e+00	1.00000e+00	1.00000e+00	1.00000e+00	1.00000e+00	X	X	X	X	X	X	X	X	X	X	X	X	X	X	X	X	

B = Detector Channel
Val Type	B-AC1	B-AC2	B-AC3	B-AC4	B-AC5	B-AC6	B-AC7	B-AC8	B-AC9	B-AC10	B-AC11	B-AC12	B-AC13	B-AC14	B-AC15	B-AC16	B-DC1	B-DC2	B-DC3	B-DC4	B-DC5	B-DC6	B-DC7	B-DC8	B-DC9	B-DC10	B-DC11	B-DC12	B-DC13	B-DC14	B-DC15	B-DC16	B-Ph1	B-Ph2	B-Ph3	B-Ph4	B-Ph5	B-Ph6	B-Ph7	B-Ph8	B-Ph9	B-Ph10	B-Ph11	B-Ph12	B-Ph13	B-Ph14	B-Ph15	B-Ph16	

Term	0.00000e+00	0.00000e+00	0.00000e+00	0.00000e+00	0.00000e+00	0.00000e+00	0.00000e+00	0.00000e+00	0.00000e+00	0.00000e+00	0.00000e+00	0.00000e+00	0.00000e+00	0.00000e+00	0.00000e+00	0.00000e+00	0.00000e+00	0.00000e+00	0.00000e+00	0.00000e+00	0.00000e+00	0.00000e+00	0.00000e+00	0.00000e+00	0.00000e+00	0.00000e+00	0.00000e+00	0.00000e+00	0.00000e+00	0.00000e+00	0.00000e+00	0.00000e+00	2.53724e+01	-1.25825e+02	-1.32423e+02	-1.86157e+02	-5.31231e+01	-7.74207e+01	-1.59021e+02	-1.62015e+02	-9.81342e+01	-6.42266e+01	-1.73719e+02	-1.69925e+02	-1.79918e+02	-1.77120e+02	-6.73402e+01	-1.50188e+02	
Factor	4.43643e-05	1.31752e-04	3.84766e-05	6.00296e-01	1.09162e-06	1.23883e-06	1.58776e-01	4.81384e-02	1.60025e-06	1.38813e-06	8.39062e-02	2.75674e-02	2.39658e-02	9.07276e-03	1.49700e-06	1.30833e-02	1.61200e-06	1.67637e-06	4.65165e-07	2.83808e-01	1.83225e-08	1.83332e-08	7.47258e-02	2.41391e-02	1.82575e-08	1.83873e-08	4.04860e-02	1.32768e-02	1.20086e-02	4.53932e-03	1.82600e-08	6.30792e-03	X	X	X	X	X	X	X	X	X	X	X	X	X	X	X	X	



#DISTANCE SETTINGS
A = Detector Channel
A-1	A-2	A-3	A-4	A-5	A-6	A-7	A-8	A-9	A-10	A-11	A-12	A-13	A-14	A-15	A-16	

2.5000e+00	3.0000e+00	2.5000e+00	3.0000e+00	2.0000e+00	3.0000e+00	1.5000e+00	3.0000e+00	3.0000e+00	3.0000e+00	3.0000e+00	3.0000e+00	3.0000e+00	3.0000e+00	1.5000e+00	3.0000e+00	

B = Detector Channel
B-1	B-2	B-3	B-4	B-5	B-6	B-7	B-8	B-9	B-10	B-11	B-12	B-13	B-14	B-15	B-16	

1.0000e+01	1.0000e+01	1.0000e+01	1.4400e+00	1.0000e+01	1.0000e+01	1.5100e+00	1.9400e+00	1.0000e+01	1.0000e+01	1.9900e+00	2.4900e+00	2.4100e+00	2.9000e+00	1.0000e+01	2.9800e+00	




#DATA BEGINS
time	group	step	mark	flag	A-AC1	A-AC2	A-AC3	A-AC4	A-AC5	A-AC6	A-AC7	A-AC8	A-AC9	A-AC10	A-AC11	A-AC12	A-AC13	A-AC14	A-AC15	A-AC16	A-DC1	A-DC2	A-DC3	A-DC4	A-DC5	A-DC6	A-DC7	A-DC8	A-DC9	A-DC10	A-DC11	A-DC12	A-DC13	A-DC14	A-DC15	A-DC16	A-Ph1	A-Ph2	A-Ph3	A-Ph4	A-Ph5	A-Ph6	A-Ph7	A-Ph8	A-Ph9	A-Ph10	A-Ph11	A-Ph12	A-Ph13	A-Ph14	A-Ph15	A-Ph16	B-AC1	B-AC2	B-AC3	B-AC4	B-AC5	B-AC6	B-AC7	B-AC8	B-AC9	B-AC10	B-AC11	B-AC12	B-AC13	B-AC14	B-AC15	B-AC16	B-DC1	B-DC2	B-DC3	B-DC4	B-DC5	B-DC6	B-DC7	B-DC8	B-DC9	B-DC10	B-DC11	B-DC12	B-DC13	B-DC14	B-DC15	B-DC16	B-Ph1	B-Ph2	B-Ph3	B-Ph4	B-Ph5	B-Ph6	B-Ph7	B-Ph8	B-Ph9	B-Ph10	B-Ph11	B-Ph12	B-Ph13	B-Ph14	B-Ph15	B-Ph16	aux-1	digaux	

1765.897	1	1	0	512	0.069816	0.15939	0.27524	0.074985	0.3362	0.27291	0.29156	0.10466	0.21354	0.22557	0.11135	0.17792	0.21402	0.076257	0.11304	0.22427	-2.175	-2.9583	-2.3646	-2.9229	-2.8771	-2.475	-3.1021	-2.7667	-2.6542	-3.2083	-2.6917	-3.0958	-2.8771	-2.6562	-2.7146	-2.8083	402.654	221.006	229.316	280.484	169.833	256.217	395.971	313.802	462.964	331.841	474.119	488.815	457.004	370.530	157.978	457.239	0.0017159	0.00073348	0.00011126	532.42	1.5068e-06	3.6958e-06	690.08	186.61	4.4799e-06	3.9294e-06	284.49	119.82	75.283	38.068	8.8729e-06	62.215	0.00014486	9.8445e-05	3.2917e-05	475	1.1664e-06	1.0605e-06	628.42	170.89	1.1943e-06	1.0914e-06	259.53	109.06	68.562	34.809	1.3601e-06	56.603	340.089	209.448	205.913	141.151	296.206	274.124	140.968	146.935	234.905	312.085	144.819	149.058	150.914	155.492	294.755	152.465	-8191	255	
1765.969	1	1	0	0	0.22512	0.14091	0.17103	0.060826	0.078565	0.14469	0.12946	0.29473	0.17999	0.15224	0.35677	0.18921	0.10809	0.10494	0.23514	0.069463	-2.2062	-2.8646	-2.6458	-2.6875	-3.0208	-2.6312	-3.1042	-3.0333	-2.7833	-2.9479	-2.85	-2.7438	-2.9813	-2.4437	-2.9167	-2.9958	343.796	451.289	387.800	155.686	218.866	272.014	185.858	470.411	384.012	233.376	218.216	385.928	218.377	135.363	234.612	135.750	0.0016047	0.0007079	7.5118e-05	528.81	6.3732e-07	1.9725e-06	693.1	187.32	6.1709e-06	2.2981e-06	285.78	119.45	74.67	37.868	3.2977e-06	61.427	0.00013947	0.00010153	3.5104e-05	475.77	1.1617e-06	1.1512e-06	632.25	171.91	1.1694e-06	1.1772e-06	258.77	107.81	67.72	34.689	1.3301e-06	55.915	338.417	212.244	150.736	140.561	338.672	297.525	140.935	147.105	235.990	280.640	144.730	149.060	150.682	155.446	250.786	152.865	-8191	255	
1766.088	1	1	0	0	0.080212	0.30721	0.13927	0.14914	0.10461	0.25036	0.35951	0.084288	0.12682	0.13007	0.24927	0.15108	0.16203	0.41352	0.26372	0.35394	-2.0271	-2.9375	-2.5812	-2.7125	-3.1521	-2.3354	-3.0292	-2.9062	-2.6229	-3.0833	-2.9	-2.7271	-3.0083	-2.6667	-2.85	-3.1083	176.410	265.423	382.523	344.840	293.618	142.111	410.257	464.640	481.527	213.419	357.534	434.562	293.587	146.827	394.475	459.847	0.0015035	0.00025003	0.00016152	537.56	4.0494e-06	5.2573e-06	685.62	184.98	7.0497e-06	5.8987e-06	279.83	116.23	73.955	36.95	8.1831e-06	60.179	0.00013811	0.000111	3.4343e-05	474.43	1.0662e-06	1.2234e-06	624.99	169.35	1.1238e-06	1.2431e-06	254.66	105.34	66.767	33.953	1.2973e-06	55.014	339.226	225.494	235.447	141.696	328.102	307.580	140.778	146.627	230.377	278.840	144.919	149.018	151.167	155.720	253.270	152.829	-8191	255	
1766.184	1	1	0	0	0.27186	0.24854	0.040792	0.11274	0.032888	0.1698	0.25478	0.12812	0.12361	0.19059	0.12741	0.19954	0.16506	0.14133	0.26744	0.14222	-1.9583	-2.8458	-2.5958	-2.6167	-2.8187	-2.7125	-2.9562	-2.9958	-2.5729	-2.9646	-2.775	-2.7313	-3.075	-2.8	-2.7729	-2.9583	485.071	244.117	166.067	134.098	309.067	218.427	161.127	292.484	208.640	279.291	475.317	470.567	150.218	421.492	339.655	400.608	0.0015046	0.00028142	0.00015023	536.28	5.4829e-06	6.9752e-06	683.08	182.02	3.5568e-06	1.1476e-06	272.62	112.16	69.883	35.759	3.7314e-06	59.362	0.00013597	0.00011589	3.2522e-05	476.59	1.0646e-06	1.286e-06	628.01	165.91	1.1095e-06	1.2982e-06	247.62	102.04	63.551	32.855	1.1715e-06	54.037	336.980	281.412	247.248	141.591	273.872	288.993	141.064	146.409	220.232	341.496	144.845	148.943	150.801	155.730	355.549	152.737	-8191	255	
1766.280	1	1	0	0	0.10996	0.10688	0.077786	0.12358	0.054305	0.19647	0.24884	0.11253	0.20448	0.092835	0.10638	0.12724	0.35051	0.089253	0.096452	0.41536	-2.0458	-2.6896	-2.7292	-2.6417	-2.9562	-2.7875	-2.7354	-3.1792	-2.5083	-2.7646	-2.9958	-2.5438	-2.8771	-2.9417	-2.6125	-3.025	435.650	289.548	283.021	343.677	192.155	147.417	468.287	468.740	350.323	188.773	426.227	395.894	354.210	413.297	294.910	402.375	0.0016023	0.00016528	0.00012663	537.03	5.4211e-06	3.5063e-06	691.04	176.36	6.6066e-06	5.9259e-06	262.87	109.51	67.554	34.647	3.5907e-06	57.811	0.00013727	0.00011901	2.9105e-05	476.19	1.1234e-06	1.2694e-06	631.91	161.05	1.1613e-06	1.2588e-06	239.92	99.099	61.274	31.909	1.1129e-06	52.583	335.583	204.198	267.385	141.506	277.031	265.979	140.946	146.376	224.324	267.750	144.578	149.061	150.972	155.715	288.184	152.689	-8191	255	
1766.376	1	1	0	0	0.20327	0.12776	0.096577	0.12287	0.042207	0.12984	0.28066	0.13035	0.3185	0.13161	0.34069	0.27094	0.032417	0.18424	0.055705	0.1006	-2.2042	-2.7583	-2.9021	-2.4562	-2.8937	-2.8229	-2.7146	-3.2479	-2.4938	-2.9375	-3.1021	-2.6396	-3.025	-2.7438	-2.6625	-3.0146	280.496	375.511	302.214	394.284	237.085	223.917	464.126	163.528	411.894	464.761	408.163	382.255	391.086	468.647	337.281	142.503	0.0014792	0.00029744	8.312e-05	537.58	2.6699e-06	2.3458e-06	683.63	170.1	6.3316e-06	3.5387e-06	255.16	104.41	64.574	32.984	5.2915e-06	55.648	0.00014058	0.00011127	2.6174e-05	478.94	1.1642e-06	1.1733e-06	622.92	154.89	1.1643e-06	1.1645e-06	230.76	94.696	58.527	30.333	1.0515e-06	50.707	336.920	246.279	263.845	141.285	263.123	261.913	140.376	146.109	259.616	308.140	144.656	148.987	150.919	155.682	247.066	152.647	-8191	255	
1766.472	1	1	0	0	0.041582	0.074665	0.10529	0.018764	0.099301	0.17086	0.32732	0.11066	0.085489	0.12295	0.1219	0.063267	0.15157	0.30969	0.094189	0.20078	-2.2521	-2.7167	-2.8958	-2.5938	-2.9938	-2.9229	-2.7667	-3.125	-2.6333	-2.7	-3.0312	-2.5917	-2.9708	-2.8396	-2.4958	-3.1604	446.233	215.995	179.408	165.226	442.530	401.833	434.451	187.262	185.042	437.068	234.160	211.560	212.603	146.095	197.236	141.033	0.0014838	0.00050787	8.4789e-05	527.74	2.0375e-06	3.2829e-06	680.84	167.47	2.5432e-06	3.842e-06	251.03	103.64	64.283	32.977	7.291e-06	55.794	0.00013869	0.00010164	2.5539e-05	473.39	1.2046e-06	1.0654e-06	618.62	152.86	1.2042e-06	1.0297e-06	228	94.09	58.192	30.194	9.9783e-07	50.879	337.887	250.991	200.022	140.806	293.446	275.427	140.268	146.329	261.239	287.393	144.493	149.009	150.773	155.436	265.686	152.850	-8191	255	
1766.568	1	1	0	0	0.048127	0.13636	0.11358	0.33687	0.40125	0.047852	0.20356	0.044966	0.033033	0.1239	0.2173	0.3707	0.10428	0.25428	0.055105	0.12479	-2.2021	-2.6771	-2.9042	-2.4917	-2.8667	-3.0563	-2.7333	-2.9417	-2.7	-2.7708	-2.9167	-2.7708	-2.8479	-3.1937	-2.4292	-3.0604	430.898	380.647	290.414	376.482	323.584	327.820	281.321	414.338	375.362	166.127	307.898	417.212	478.334	198.377	175.406	148.650	0.0013331	0.00025702	6.3406e-05	533.67	2.7512e-06	1.9539e-06	688.13	169.31	6.3027e-06	2.1655e-06	255.77	106.15	65.489	33.256	4.473e-06	56.498	0.00014239	9.7907e-05	2.4278e-05	479.6	1.2415e-06	1.0155e-06	624.71	155.44	1.1716e-06	1.0482e-06	231.55	95.907	59.193	30.58	9.86e-07	51.503	340.321	241.657	218.407	140.683	291.440	237.073	140.951	146.223	199.859	225.850	144.851	149.290	150.693	155.721	272.699	152.876	-8191	255	
1766.664	1	1	0	0	0.119	0.18953	0.04314	0.078503	0.12869	0.15747	0.06312	0.088381	0.26174	0.10595	0.18601	0.23445	0.36116	0.46454	0.075107	0.12248	-2.325	-2.6688	-3.1521	-2.6479	-2.7188	-2.9292	-2.6354	-2.9375	-2.8896	-2.4688	-3.2062	-2.7396	-2.8396	-3.0771	-2.7229	-2.9167	255.848	148.264	455.795	323.544	208.359	293.810	344.414	402.846	137.401	448.864	214.614	471.074	408.464	146.008	175.709	361.875	0.001552	0.00052927	0.00010881	541.2	3.1892e-06	3.5317e-06	684.8	168.59	6.5524e-06	4.6841e-06	253.3	103.32	64.082	32.657	1.6673e-06	55.13	0.00013813	9.6737e-05	2.4332e-05	483.72	1.1137e-06	9.7384e-07	623.63	154.18	1.1069e-06	1.0184e-06	229.04	94.022	58.078	29.939	1.0379e-06	50.549	336.083	223.512	248.887	140.804	285.915	280.042	140.657	146.627	273.583	270.737	144.267	148.956	150.693	155.669	272.950	152.790	-8191	255	
1766.785	1	1	0	0	0.16507	0.23781	0.21017	0.13324	0.14534	0.21964	0.16559	0.20722	0.32196	0.24966	0.272	0.1577	0.095325	0.19768	0.2452	0.1849	-2.4625	-2.5125	-3.1542	-2.7188	-2.7583	-3.0521	-2.5271	-2.9792	-2.8625	-2.7396	-3.0771	-2.7646	-2.5542	-3.3042	-2.5917	-2.9458	196.748	412.082	277.545	463.861	224.197	296.578	141.723	170.909	396.912	478.224	433.397	473.286	407.335	136.217	342.764	372.242	0.0013722	0.00030351	5.81e-05	541.39	2.5172e-06	3.3276e-06	688.45	166.85	6.1516e-06	1.5344e-06	254.2	103.99	63.882	32.638	6.4365e-06	55.848	0.000136	8.8795e-05	2.5441e-05	483.09	1.0332e-06	9.8212e-07	627.34	153.4	1.0753e-06	9.9287e-07	230.15	94.44	57.967	29.915	1.1349e-06	50.908	340.378	253.405	231.514	140.581	325.098	376.808	140.414	146.402	262.177	231.286	144.330	148.808	150.576	156.010	270.505	152.586	-8191	255	
1766.881	1	1	0	0	0.15593	0.15463	0.23605	0.27103	0.18206	0.22631	0.22936	0.2561	0.093092	0.24018	0.11035	0.16222	0.21706	0.13143	0.070314	0.3047	-2.4458	-2.7625	-3.0208	-2.8688	-2.4813	-3.0312	-2.6354	-3.0479	-2.9833	-2.6813	-2.9625	-2.7562	-2.7771	-3.1417	-2.7167	-2.7125	484.161	245.956	213.839	334.045	356.031	278.532	312.671	383.071	360.301	142.288	201.191	443.433	479.219	154.424	455.711	426.851	0.0014253	0.00068478	0.00016593	547.86	1.6207e-06	2.4717e-06	695.23	169.22	3.3598e-06	2.8752e-06	256.9	106.11	64.877	33.246	3.7446e-06	56.933	0.0001276	9.1715e-05	2.9254e-05	487.46	1.035e-06	9.3167e-07	634.45	155.25	1.0593e-06	9.9464e-07	234.87	95.69	58.91	30.464	1.2343e-06	52.043	339.599	201.677	198.970	140.829	288.176	282.071	140.732	146.313	233.008	311.803	144.578	149.275	150.615	155.610	256.628	152.923	-8191	255	
1766.977	1	1	0	0	0.27457	0.16866	0.091886	0.2018	0.11049	0.23019	0.18132	0.22186	0.14031	0.20547	0.32336	0.32596	0.20459	0.014733	0.17324	0.19981	-2.7313	-2.5729	-2.6104	-2.8896	-2.5625	-3.0625	-2.9042	-2.7979	-3.1146	-2.5646	-2.9146	-3.0083	-2.6521	-2.9583	-2.775	-2.8146	308.649	132.498	162.421	388.153	430.070	484.640	308.611	393.702	198.846	435.359	370.197	441.232	161.635	402.539	202.027	365.657	0.0013617	0.00025181	0.00012984	547.15	1.5396e-06	3.7789e-06	698.07	174.45	4.9355e-06	5.2594e-06	261.24	106.66	65.157	33.31	6.3678e-06	56.393	0.00012468	9.5662e-05	3.0974e-05	487.64	1.0211e-06	1.0486e-06	638.95	158.98	1.0067e-06	1.0929e-06	237.99	96.674	59.357	30.534	1.2481e-06	51.506	338.490	229.466	216.298	140.775	296.545	241.866	140.850	146.382	239.257	292.024	144.355	149.259	150.608	155.829	274.505	152.933	-8191	255	
1767.073	1	1	0	0	0.38674	0.18683	0.1924	0.20696	0.20859	0.21378	0.033681	0.046575	0.12775	0.12577	0.092085	0.2682	0.19953	0.13083	0.07057	0.1437	-2.7146	-2.5625	-2.7083	-2.9958	-2.4813	-3.1646	-2.8688	-2.6917	-3.1021	-2.7917	-3.1104	-2.9521	-2.4583	-3.1063	-2.7917	-2.6771	405.550	313.457	163.155	341.175	438.685	344.097	442.012	324.588	200.220	362.042	449.476	413.762	268.521	174.124	304.144	153.006	0.0014619	7.7754e-05	0.00017141	540.39	2.5328e-06	2.5918e-06	684.61	169.08	7.3251e-06	2.9835e-06	255.94	103.74	63.654	32.289	5.0181e-06	55.366	0.00012312	0.00010346	3.0932e-05	479.99	9.9709e-07	1.0802e-06	625.58	154.55	9.6053e-07	1.1419e-06	232.35	93.902	57.923	29.732	1.1799e-06	50.309	337.974	251.795	192.776	141.418	229.066	248.830	141.001	146.123	226.138	246.199	144.530	148.912	150.986	155.896	271.133	152.993	-8191	255	
1767.192	1	1	0	0	0.038455	0.16115	0.076865	0.33576	0.14235	0.13684	0.32336	0.039438	0.10192	0.0586	0.089619	0.017234	0.13509	0.14088	0.20692	0.17815	-2.5604	-2.4521	-2.75	-2.9667	-2.4979	-3.0979	-2.8854	-2.7917	-2.9313	-2.6104	-2.8354	-2.95	-2.6125	-3.0542	-2.8167	-2.8542	281.242	410.704	346.367	473.127	307.395	301.718	402.508	136.799	428.950	307.666	467.000	401.053	239.591	142.847	307.189	342.569	0.001366	0.00042035	3.9971e-05	526.05	3.0966e-06	2.8691e-06	680.75	170.34	7.5307e-06	5.0883e-07	257.63	105.97	65.215	33.08	4.4817e-06	56.728	0.00012009	0.00010766	2.9009e-05	471.71	1.0229e-06	1.1901e-06	621.57	155.91	1.0243e-06	1.2069e-06	235.71	96.084	59.053	30.435	1.1251e-06	51.436	337.609	212.052	138.581	140.707	282.128	247.670	140.375	146.434	247.250	368.169	144.594	148.873	150.840	155.441	272.396	152.875	-8191	255	
1767.264	1	1	0	0	0.079399	0.090998	0.17269	0.28592	0.12713	0.22509	0.20081	0.037392	0.17182	0.11567	0.085145	0.16575	0.092141	0.056801	0.039998	0.18612	-2.6583	-2.7208	-2.5417	-3.0583	-2.4125	-2.9833	-2.8875	-2.6792	-3.0104	-2.7938	-2.6562	-3.1479	-2.7229	-2.9313	-2.7229	-2.8021	477.002	394.701	244.491	373.663	155.493	451.378	461.975	193.984	335.401	447.053	411.522	468.851	182.723	252.007	371.050	183.782	0.0014999	0.00069223	6.4946e-05	538.63	4.1269e-06	2.5723e-06	687.4	173.04	4.0695e-06	4.7834e-06	263.62	107.58	66.247	33.239	2.4951e-06	56.204	0.00012953	0.00011475	2.866e-05	476.5	1.099e-06	1.1822e-06	627.52	157.65	1.134e-06	1.2372e-06	238.92	96.894	59.9	30.479	1.0522e-06	51.341	337.402	242.791	193.535	141.273	283.682	276.556	140.874	146.576	211.684	257.492	144.114	149.203	150.929	155.581	228.360	152.561	-8191	255	
1767.385	1	1	0	0	0.10091	0.17413	0.084635	0.15317	0.31122	0.11414	0.17133	0.21823	0.19697	0.19022	0.19635	0.06196	0.10928	0.2192	0.076771	0.11623	-2.6625	-2.7604	-2.5375	-3.0625	-2.5646	-2.8937	-2.8708	-2.7708	-2.8271	-2.8958	-2.8479	-2.9313	-2.6688	-2.9292	-2.8333	-2.775	350.943	428.954	216.052	398.951	476.834	331.357	312.844	408.780	296.635	441.689	256.551	483.406	448.234	140.719	433.947	472.738	0.001444	0.00019318	6.0761e-05	535.96	2.4023e-06	1.3296e-06	684.8	170.1	8.2362e-06	2.8775e-06	254.8	103.53	63.717	32.027	3.6001e-06	54.715	0.00014106	0.00010865	2.7127e-05	476.18	1.1641e-06	1.1599e-06	621.57	155.11	1.1793e-06	1.1414e-06	232.79	94.104	58.162	29.554	1.0004e-06	49.854	338.324	219.881	199.701	140.530	326.401	399.565	140.339	146.205	233.767	263.109	144.463	149.248	150.735	155.604	140.842	153.011	-8191	255	
1767.481	1	1	0	0	0.13068	0.19225	0.32902	0.20989	0.2442	0.11428	0.099996	0.17507	0.19412	0.12338	0.30584	0.18044	0.092813	0.061105	0.14177	0.27418	-2.6188	-2.7896	-2.6312	-2.9146	-2.7875	-2.8021	-3.0292	-2.7042	-2.8958	-2.95	-2.6542	-3.1021	-2.7625	-2.7188	-3.1104	-2.7125	354.115	348.932	186.425	434.284	204.693	132.501	403.072	153.562	419.458	192.879	450.376	483.430	166.411	480.544	150.048	375.629	0.0015291	0.00037614	0.00015639	527.77	3.5859e-06	5.4877e-06	671.76	166.57	5.6907e-06	5.3266e-06	254.67	103.72	63.471	32.19	2.6098e-06	54.388	0.00014226	0.00010061	2.6321e-05	470.45	1.2128e-06	1.1118e-06	612.45	152.49	1.2742e-06	1.077e-06	230.91	94.057	57.753	29.433	9.911e-07	49.651	338.112	237.387	221.719	140.765	207.807	283.284	140.771	146.365	246.877	282.588	144.129	149.077	150.739	155.523	300.961	152.616	-8191	255	
1767.577	1	1	0	0	0.031572	0.050979	0.075178	0.26551	0.32684	0.061895	0.46598	0.12279	0.092797	0.082242	0.2332	0.023059	0.16817	0.078235	0.11542	0.28293	-2.4292	-2.9958	-2.4167	-3.0208	-2.7208	-2.7417	-3.0604	-2.5542	-2.8896	-2.8771	-2.6125	-3.3729	-2.7146	-2.575	-3.2188	-2.7854	252.166	451.551	437.053	303.168	227.547	422.159	461.418	398.325	415.298	165.756	419.264	251.593	161.848	416.194	138.506	349.479	0.0015239	1.6984e-05	3.8451e-05	530.86	2.5253e-06	4.4073e-06	673.86	166.94	2.783e-06	2.4813e-06	257.43	104.93	64.626	32.382	5.5419e-06	55.141	0.00014123	9.7107e-05	2.476e-05	471.46	1.2159e-06	1.0674e-06	615.04	153.19	1.2013e-06	1.0632e-06	233.96	95.512	58.731	29.842	9.556e-07	50.351	337.561	282.768	262.801	141.417	330.020	281.002	140.497	146.442	283.812	304.172	144.596	148.748	151.161	155.436	288.685	152.766	-8191	255	
1767.673	1	1	0	0	0.33172	0.27861	0.058046	0.12933	0.023432	0.17743	0.21531	0.17286	0.17988	0.13827	0.097174	0.37816	0.066727	0.073855	0.10335	0.19846	-2.4188	-2.8958	-2.4604	-2.7646	-2.7708	-2.5208	-3.0354	-2.6875	-2.5312	-3.0875	-2.6958	-2.9958	-2.7438	-2.5917	-2.9854	-2.7687	230.764	238.209	199.410	315.604	371.437	486.675	140.097	387.246	369.762	409.621	448.483	447.810	392.649	172.820	447.935	141.292	0.001294	0.00035532	8.8563e-05	521.99	3.9606e-06	2.6558e-06	670.17	168.14	5.2264e-06	4.2803e-06	257.17	105.96	64.879	32.92	5.5595e-06	55.319	0.00013603	9.3535e-05	2.4903e-05	468.44	1.0958e-06	1.0035e-06	611.69	154.44	1.1228e-06	9.841e-07	234.41	95.839	58.98	30.195	1.0392e-06	50.65	338.238	229.804	159.473	141.101	334.860	291.641	140.521	146.618	257.887	295.118	144.524	149.038	151.045	155.493	281.246	152.665	-8191	255	
1767.769	1	1	0	0	0.097466	0.28618	0.268	0.25703	0.065899	0.2112	0.28128	0.36135	0.28947	0.12083	0.21652	0.14825	0.15011	0.19506	0.078849	0.26152	-2.175	-3.1229	-2.4792	-3.0146	-2.8937	-2.65	-2.7938	-2.6562	-2.8958	-3.1271	-2.6979	-2.9333	-2.8458	-2.5958	-2.8333	-3.0792	261.331	142.340	325.550	484.724	371.447	216.003	484.305	414.136	229.215	459.044	431.710	472.482	175.406	378.003	419.023	434.887	0.0014396	0.00039055	0.00012847	520.16	2.2878e-06	2.2067e-06	674.42	168.31	5.1498e-06	3.0208e-06	259.3	106.69	65.615	33.105	8.4088e-06	56.252	0.00013426	8.9889e-05	2.6792e-05	470.16	1.06e-06	9.9129e-07	614.55	154.79	1.1155e-06	9.4308e-07	236.47	96.824	59.644	30.448	1.1504e-06	51.288	339.485	232.906	251.526	141.382	283.929	304.692	140.517	146.247	222.116	298.495	144.696	149.199	150.791	155.584	288.269	152.949	-8191	255	
1767.865	1	1	0	0	0.16175	0.055109	0.26932	0.037753	0.046552	0.23504	0.22172	0.18779	0.12704	0.10798	0.03971	0.16978	0.18013	0.17592	0.12986	0.14828	-2.3458	-2.7542	-2.6771	-2.7458	-2.9458	-2.5938	-3.0292	-2.975	-2.4646	-3.0271	-2.6958	-2.8	-2.9292	-2.4792	-3.0687	-2.8021	170.693	339.431	166.592	135.590	258.643	440.571	335.216	241.493	383.811	138.410	474.422	429.217	396.756	482.721	387.982	447.794	0.0014573	0.0003045	0.00016607	526.09	2.0728e-06	4.7261e-06	682.03	171.57	6.3749e-06	4.6379e-06	264.87	108.42	65.909	33.287	3.3475e-06	56.409	0.00013201	8.9815e-05	2.9639e-05	469.32	1.0263e-06	9.9438e-07	620.03	156.82	1.0769e-06	1.0185e-06	240.78	98.219	59.991	30.628	1.2359e-06	51.194	338.283	144.445	204.184	141.575	276.695	248.641	140.701	146.504	282.275	256.020	144.954	148.621	150.776	155.626	216.405	153.046	-8191	255	
1767.962	1	1	0	0	0.13532	0.16426	0.34999	0.092654	0.29351	0.20456	0.18022	0.25324	0.11429	0.13117	0.21938	0.053351	0.1847	0.057202	0.18786	0.23641	-2.0458	-2.85	-2.5625	-2.6333	-3.0667	-2.5812	-2.8521	-2.7896	-2.3375	-2.9729	-2.9188	-2.7854	-3.0521	-2.4729	-2.7625	-2.9375	193.805	272.406	266.574	146.306	217.566	303.573	204.899	456.680	178.232	472.343	448.815	387.363	133.951	367.614	300.791	429.961	0.0015384	0.00015917	0.00015681	523.38	4.0183e-06	3.0138e-06	672.17	167.61	6.7157e-06	3.2878e-06	257.38	105.73	65.45	33.044	4.766e-06	55.456	0.00012887	9.2686e-05	3.132e-05	467.16	1.0138e-06	1.0469e-06	612.7	153.68	1.0623e-06	1.0223e-06	234.52	95.875	59.168	30.327	1.2546e-06	50.514	343.195	193.064	234.018	140.502	291.178	269.336	140.656	146.574	230.181	256.557	144.451	149.070	150.910	155.552	295.808	152.679	-8191	255	
1768.058	1	1	0	0	0.14554	0.15865	0.018245	0.21849	0.22877	0.17212	0.58909	0.046008	0.30475	0.26907	0.20515	0.065325	0.15468	0.10533	0.12444	0.35634	-2.0625	-2.9771	-2.5771	-2.4938	-3.075	-2.6271	-2.8479	-3.0458	-2.3646	-2.9104	-2.5542	-2.8125	-3.0708	-2.775	-2.7458	-2.9146	184.950	433.702	237.201	166.929	335.284	315.911	381.012	219.215	481.209	269.942	222.655	228.213	142.491	417.065	241.754	422.878	0.0015136	0.00041265	9.0249e-05	509.23	4.3001e-06	5.388e-06	665.92	170.2	4.6599e-06	5.4404e-06	263.17	108.36	66.416	33.861	6.6708e-06	57.227	0.00012946	0.0001039	3.123e-05	461.19	9.8407e-07	1.1794e-06	610.7	155.85	1.0538e-06	1.1903e-06	238.9	98.167	60.58	31.21	1.2293e-06	51.923	340.271	178.781	196.034	141.429	296.248	245.845	140.709	146.397	254.584	292.485	144.530	149.090	150.840	155.460	265.934	152.973	-8191	255	
1768.154	1	1	0	0	0.33106	0.17295	0.042944	0.14839	0.17475	0.13003	0.39271	0.27028	0.096093	0.27598	0.14985	0.067586	0.057671	0.13237	0.18592	0.0058646	-2.1021	-2.9604	-2.7771	-2.6271	-2.9479	-2.6521	-2.9375	-2.8937	-2.5062	-2.8208	-2.65	-2.6625	-3.1354	-2.5646	-2.775	-3.0563	441.514	166.134	322.948	221.138	427.291	468.216	431.416	136.124	142.977	342.833	265.943	420.078	318.196	474.293	465.370	473.261	0.001538	0.0005468	0.00011245	517.51	6.6186e-07	1.2981e-06	676.44	175.79	6.0114e-06	6.2182e-06	269.31	110.74	68.733	34.971	2.0363e-06	57.93	0.00013144	0.0001116	3.0643e-05	464.99	1.0498e-06	1.2771e-06	617.62	160.27	1.1083e-06	1.2583e-06	244.16	100.71	62.343	32.098	1.2136e-06	52.89	337.037	215.303	208.074	141.268	337.396	339.809	140.850	146.470	217.251	294.713	144.717	149.367	151.025	155.587	277.404	152.891	-8191	255	
1768.273	1	1	0	0	0.12657	0.28288	0.11603	0.070692	0.073486	0.096293	0.18676	0.19292	0.22059	0.25927	0.13097	0.18395	0.12135	0.076056	0.029059	0.16791	-2.2771	-2.8271	-2.9396	-2.3438	-3.1104	-2.6021	-2.8042	-2.8937	-2.6396	-2.7771	-3.0229	-2.6	-2.9313	-2.7479	-2.6604	-3.0938	437.113	327.360	212.043	174.391	430.175	189.057	437.886	465.194	348.349	262.457	375.835	421.934	185.089	341.566	205.925	397.478	0.0015868	0.00037907	0.00011564	517.99	2.2285e-06	3.2185e-06	684.18	177.76	4.5984e-06	3.7913e-06	275.56	115.05	70.899	36.011	2.5218e-06	60.062	0.00014219	0.00011716	2.8902e-05	466.35	1.155e-06	1.3139e-06	624.24	162.81	1.1942e-06	1.2669e-06	250.52	103.88	64.358	33.051	1.2064e-06	54.506	337.347	231.290	250.076	141.510	338.896	228.016	140.921	146.614	244.581	262.477	144.494	149.160	150.955	155.715	387.952	152.963	-8191	255	
1768.369	1	1	0	0	0.28896	0.22725	0.19964	0.098588	0.06954	0.12957	0.48565	0.17468	0.13857	0.093882	0.13652	0.098609	0.086666	0.028639	0.32826	0.21153	-2.1458	-2.7896	-2.9354	-2.5417	-3.0021	-2.4771	-2.75	-3.0604	-2.4229	-2.7	-3.1229	-2.6417	-3.1896	-2.7562	-2.6396	-2.8937	424.334	138.967	335.105	192.417	274.293	325.427	427.295	376.271	221.677	154.690	472.513	333.300	482.304	296.439	332.471	347.190	0.0016357	0.00025454	0.00016225	515.48	4.974e-07	3.5973e-06	683	179.33	3.7433e-06	4.4582e-06	274.37	114.17	71.319	36.296	2.3647e-06	59.362	0.0001521	0.00011779	2.9222e-05	467.1	1.2996e-06	1.2268e-06	620.92	164.71	1.3438e-06	1.2592e-06	248.53	103.24	64.774	33.391	1.1283e-06	54.07	338.834	189.819	249.294	141.287	371.262	256.548	140.678	146.828	243.049	289.675	144.971	149.370	150.807	155.507	254.781	152.429	-8191	255	
1768.465	1	1	0	0	0.19623	0.075158	0.11505	0.11511	0.23488	0.24699	0.059707	0.26809	0.33297	0.055133	0.071375	0.18093	0.13253	0.075623	0.073073	0.019129	-2.2646	-2.7146	-3.0917	-2.5792	-3.025	-2.7021	-2.4708	-2.8979	-2.6562	-2.8063	-3.0583	-2.7229	-2.9292	-2.8833	-2.3375	-3.2708	439.837	227.538	480.120	205.044	220.053	380.665	274.476	363.813	206.334	174.755	251.120	200.263	460.029	132.857	279.719	399.593	0.0014157	0.00041698	7.2927e-05	524.99	2.5492e-06	9.6855e-07	671.97	181.37	3.3079e-06	4.3827e-06	278.04	116.09	72.862	37.151	3.6934e-06	60.758	0.00015708	0.00011312	2.8189e-05	465.3	1.3474e-06	1.2179e-06	615.37	165.66	1.4001e-06	1.2159e-06	251.46	105.05	66.396	34.131	1.1501e-06	55.24	340.262	286.687	236.890	140.772	293.207	190.707	141.084	147.033	210.952	287.425	145.087	149.223	150.881	156.109	281.749	152.874	-8191	255	
1768.561	1	1	0	0	0.22459	0.065669	0.27209	0.098901	0.10514	0.12019	0.24089	0.16698	0.31599	0.22839	0.21573	0.066915	0.05755	0.15203	0.046886	0.074334	-2.2854	-2.5542	-2.9354	-2.575	-2.8229	-2.8792	-2.6458	-3.0979	-2.7146	-2.4792	-3.0812	-2.7958	-2.7854	-2.9813	-2.7229	-2.8708	312.749	288.331	142.084	383.778	175.543	330.664	152.502	389.819	266.045	329.259	129.105	374.220	227.072	167.914	216.033	360.189	0.0015529	0.00054887	0.00012376	526.72	3.5826e-06	2.7809e-06	679.2	184.82	8.6178e-06	2.7092e-06	281.85	119.36	75.449	38.752	3.7358e-07	62.874	0.0001608	0.00011592	2.8428e-05	470.97	1.3951e-06	1.1597e-06	621.7	169.79	1.3954e-06	1.2618e-06	256.44	108.44	68.665	35.498	1.164e-06	57.4	337.356	240.035	223.308	141.453	242.600	259.156	141.241	146.973	253.546	298.796	145.032	149.185	151.237	155.624	329.415	152.678	-8191	255	
1768.657	1	1	0	0	0.087857	0.1284	0.16087	0.0706	0.044734	0.086456	0.16113	0.19543	0.20613	0.13068	0.2743	0.28564	0.32551	0.076237	0.083518	0.10748	-2.3937	-2.5625	-3.0667	-2.8187	-2.825	-3.0083	-2.5104	-3.0896	-2.6312	-2.6917	-3.1333	-2.6063	-2.9792	-3.0854	-2.5417	-3.0104	393.404	298.158	134.792	188.716	377.824	364.143	414.035	165.830	300.118	415.637	151.703	454.542	389.320	423.500	478.587	473.421	0.0016236	0.00046006	1.5699e-05	523.46	2.4923e-06	2.5282e-06	689.61	190.15	4.4188e-06	2.661e-06	288.63	122.17	77.178	39.499	4.104e-06	62.908	0.00016263	0.00011767	2.9196e-05	474.65	1.3802e-06	1.211e-06	630.05	174.33	1.3901e-06	1.2407e-06	261.99	110.45	69.851	36.249	1.3243e-06	57.827	338.742	224.387	300.088	141.742	264.821	250.054	141.141	147.012	259.142	340.163	144.937	148.949	150.921	156.084	265.295	152.840	-8191	255	
1768.753	1	1	0	0	0.069293	0.096565	0.20172	0.12926	0.18167	0.094375	0.047335	0.21802	0.064484	0.17357	0.27333	0.2127	0.097006	0.18432	0.091747	0.16887	-2.5708	-2.4583	-3.0167	-2.5938	-2.6208	-3.0187	-2.5438	-2.9583	-2.8583	-2.5125	-2.9292	-2.8979	-2.9375	-2.9833	-2.5687	-2.9896	140.903	424.571	211.676	456.748	476.248	212.084	386.573	450.378	244.822	137.428	412.118	394.170	446.360	138.011	345.979	144.263	0.0016719	0.00043272	9.1687e-05	521.9	4.4534e-06	3.8711e-06	678.24	189.55	6.6546e-06	6.6254e-06	290.48	123.29	77.966	40.315	4.4064e-06	64.409	0.00015954	0.00010943	3.3691e-05	474.34	1.3661e-06	1.1685e-06	621.39	174.29	1.3621e-06	1.254e-06	263.37	111.88	71.061	36.88	1.4306e-06	58.741	337.009	195.288	225.122	142.142	265.603	272.165	140.786	147.428	251.192	260.674	145.185	149.045	150.958	155.817	227.567	153.272	-8191	255	
1768.874	1	1	0	0	0.12477	0.10868	0.1319	0.15164	0.16471	0.2103	0.29069	0.22914	0.32185	0.13132	0.16902	0.14596	0.036729	0.0865	0.203	0.21124	-2.5708	-2.6896	-2.8438	-2.6937	-2.6813	-2.9229	-2.8021	-2.8979	-3.1604	-2.5729	-3.075	-2.6312	-2.7042	-3.15	-2.5563	-2.8625	335.829	464.297	287.448	367.584	389.093	482.606	430.819	323.918	157.536	363.856	175.745	130.986	355.724	462.607	331.905	485.837	0.001688	0.00046014	6.4737e-05	536.49	5.5085e-06	1.8979e-06	694.01	195.26	9.3301e-06	2.3991e-06	296.27	126.64	80.663	41.019	6.7015e-06	65.691	0.00016022	0.00011574	3.761e-05	481.33	1.3057e-06	1.2378e-06	635.62	179.39	1.3392e-06	1.3151e-06	270.63	114.52	73.377	37.649	1.6165e-06	59.958	337.442	233.966	267.747	141.919	299.759	263.238	141.299	147.243	228.228	303.005	145.348	148.997	151.263	156.087	272.338	152.997	-8191	255	
1768.970	1	1	0	0	0.13027	0.11478	0.075394	0.18178	0.17115	0.15986	0.067971	0.15927	0.19227	0.11316	0.20703	0.058202	0.34459	0.16334	0.05713	0.28035	-2.4625	-2.4396	-2.7729	-2.7	-2.5917	-3.0687	-2.6146	-2.85	-3.1292	-2.7167	-2.9938	-3.0521	-2.5333	-3.0792	-2.6813	-2.9396	255.534	229.308	265.254	437.069	373.166	372.872	284.982	295.038	249.374	401.654	319.443	181.323	158.750	462.760	365.222	476.511	0.0016007	0.00063258	0.00011374	535.46	2.4748e-06	1.8918e-06	701.03	198.3	5.8277e-06	2.8742e-06	298.91	128.27	82.805	41.823	7.7813e-06	66.405	0.00015802	0.00012675	4.2093e-05	485.03	1.3827e-06	1.359e-06	646.2	181.71	1.3385e-06	1.462e-06	274.11	117.12	75.055	38.375	1.6696e-06	60.441	336.295	178.929	179.256	141.337	234.757	266.654	141.223	146.988	259.450	236.488	144.931	148.922	150.689	155.855	276.053	153.135	-8191	255	
1769.066	1	1	0	0	0.0259	0.060099	0.17107	0.29115	0.1446	0.13077	0.18063	0.185	0.028747	0.12903	0.22282	0.068097	0.23229	0.19547	0.35117	0.31662	-2.4604	-2.3208	-2.9396	-2.6813	-2.6354	-2.9958	-2.6729	-2.7521	-2.9583	-2.6958	-2.7625	-2.9042	-2.5333	-3.0104	-2.8438	-2.7854	279.351	343.754	352.250	394.670	137.073	243.040	485.444	190.727	246.449	449.292	268.659	260.541	150.797	180.894	406.950	439.641	0.0017295	0.00070856	0.00024235	532.78	4.8172e-06	1.8212e-06	700.56	195.65	5.1229e-06	5.0802e-06	296.73	128.71	82.694	41.919	3.748e-06	66.029	0.00016259	0.00014468	4.1613e-05	482.25	1.3451e-06	1.5614e-06	640.69	179.63	1.3499e-06	1.5979e-06	269.71	116.47	74.898	38.457	1.6451e-06	59.972	336.679	205.527	169.459	142.241	256.135	216.104	141.172	147.072	207.939	289.735	145.061	149.039	151.128	155.435	278.471	152.901	-8191	255	
1769.161	1	1	0	0	0.24106	0.19496	0.30932	0.13979	0.24174	0.11418	0.27255	0.29799	0.30036	0.1474	0.20796	0.23462	0.21097	0.32046	0.22446	0.19576	-2.4042	-2.3438	-2.5833	-2.8479	-2.5458	-3.0187	-2.9625	-2.6292	-2.9354	-2.6125	-2.7771	-3.0896	-2.5479	-2.975	-2.8021	-2.5729	221.644	444.373	315.920	264.904	391.248	472.632	429.255	142.489	395.349	315.603	380.953	469.406	175.208	135.402	239.702	470.561	0.0017639	0.00037585	9.8843e-05	532.8	3.8834e-06	2.024e-06	702.87	197.29	3.4649e-06	2.9396e-06	298.09	130.34	83.97	41.903	7.4594e-06	66.022	0.00016293	0.00015183	4.1057e-05	482.1	1.3767e-06	1.7021e-06	642.73	179.95	1.3954e-06	1.7185e-06	270.63	118.1	76.241	38.636	1.5483e-06	60.306	340.440	203.306	230.415	142.124	277.444	332.335	141.085	147.106	224.123	304.349	144.650	149.096	151.181	155.680	286.407	152.590	-8191	255	
1769.257	1	1	0	0	0.16049	0.16255	0.088255	0.01075	0.10664	0.12821	0.15643	0.20685	0.10858	0.078429	0.45845	0.10801	0.21504	0.2267	0.24263	0.37162	-2.5104	-2.5604	-2.5125	-2.9062	-2.5292	-2.9208	-3.1896	-2.5687	-2.8083	-2.6396	-2.5583	-2.925	-2.4813	-2.8937	-2.5396	-2.7292	159.617	408.644	134.379	238.426	425.868	265.565	394.936	451.656	334.303	234.619	174.442	464.379	447.081	351.166	424.086	437.278	0.0017898	0.00070503	9.0105e-05	544.96	6.0723e-06	4.5965e-06	720.77	199.07	5.091e-06	5.5312e-06	304.01	134.3	86.097	42.865	1.3702e-06	67.993	0.00018014	0.00015957	3.8705e-05	488	1.5561e-06	1.7242e-06	656.55	182.79	1.6056e-06	1.726e-06	276.96	121.44	78.479	39.308	1.5098e-06	61.488	339.964	185.601	208.908	141.699	285.514	232.884	140.988	147.161	246.176	275.556	144.910	148.953	150.952	155.882	388.913	153.067	-8191	255	
1769.353	1	1	0	0	0.15694	0.11405	0.15602	0.2062	0.081376	0.031019	0.27457	0.024071	0.15132	0.17504	0.22098	0.29385	0.068577	0.22555	0.15603	0.2375	-2.4875	-2.5646	-2.7042	-3.05	-2.5187	-2.6979	-2.9583	-2.4437	-2.9375	-2.9	-2.5833	-3.0104	-2.8063	-2.8063	-3.0896	-2.5667	179.356	171.299	135.025	340.227	189.270	457.663	372.834	249.830	461.786	412.550	433.547	389.831	162.881	441.236	440.112	359.580	0.0019319	0.00053906	6.3348e-05	556.57	3.7063e-06	2.8269e-06	729.56	205.47	7.3331e-06	5.3374e-06	307.55	135.22	87.063	42.409	9.3827e-06	67.058	0.00019439	0.00015958	3.8983e-05	499.35	1.739e-06	1.6658e-06	666.69	186.95	1.7613e-06	1.6645e-06	280.17	122.1	79.141	39.122	1.4473e-06	61.025	337.512	250.395	219.981	141.652	226.719	242.734	140.883	146.709	221.067	289.261	145.451	149.132	151.138	156.025	245.133	152.883	-8191	255	
1769.449	1	1	0	0	0.25472	0.15305	0.21114	0.22932	0.19566	0.10676	0.2178	0.177	0.096562	0.063045	0.090602	0.22311	0.21208	0.098096	0.048954	0.26478	-2.3979	-2.6875	-2.6188	-2.9771	-2.7083	-2.7562	-2.9896	-2.8542	-2.9875	-2.8375	-2.5292	-2.7812	-2.6896	-2.7562	-3.0375	-2.5187	138.541	167.890	387.338	429.802	419.429	187.311	413.026	482.116	328.418	382.678	141.656	445.203	475.119	183.410	222.765	481.014	0.0018153	0.00040618	0.00016862	556.69	1.6395e-06	1.7414e-06	725.42	204.9	1.1345e-05	3.5571e-06	308.34	133.74	87.007	42.594	6.1534e-06	67.121	0.00019839	0.00014447	3.7619e-05	500.69	1.7608e-06	1.535e-06	659.45	187.94	1.7476e-06	1.5022e-06	280.06	121.71	79.166	38.998	1.3604e-06	61.133	338.942	208.771	222.926	141.882	263.176	439.020	140.982	147.096	222.988	279.331	145.396	149.179	150.906	155.801	272.636	153.067	-8191	255	
1769.570	1	1	0	0	0.055364	0.10283	0.032423	0.1752	0.11008	0.16991	0.014996	0.14289	0.06989	0.16581	0.37916	0.21269	0.10726	0.11389	0.22493	0.31787	-2.2479	-2.6958	-2.5812	-2.9979	-2.7833	-2.6188	-3.1292	-2.6188	-2.8167	-2.9854	-2.4542	-3.0125	-2.7854	-2.5729	-3.0833	-2.675	257.673	180.970	252.005	413.928	459.335	486.408	209.843	466.013	294.575	388.343	186.934	403.918	222.935	187.121	451.442	436.089	0.0017705	0.00045138	0.00017665	557.23	2.2388e-06	3.2516e-06	715.98	206.61	5.2193e-06	3.3791e-06	311.42	134.01	86.653	42.57	8.0112e-06	67.716	0.00019454	0.00013178	3.4156e-05	499.03	1.6235e-06	1.4448e-06	657.76	189.68	1.616e-06	1.3897e-06	283.23	121.59	78.541	39.098	1.3356e-06	61.798	342.172	202.305	242.804	141.641	239.014	321.131	140.862	147.329	292.131	245.667	145.458	149.275	151.124	156.293	268.319	153.376	-8191	255	
1769.666	1	1	0	0	0.18428	0.16561	0.24917	0.16305	0.28558	0.14225	0.31774	0.16946	0.32004	0.12895	0.22393	0.25823	0.052292	0.15162	0.057242	0.43285	-2.3812	-2.8167	-2.5333	-2.8438	-2.6875	-2.5479	-2.8104	-2.6063	-2.6437	-3.0979	-2.5292	-3.0583	-2.7896	-2.575	-2.9896	-2.7833	215.042	289.488	291.064	158.221	349.938	272.908	396.360	377.353	440.805	192.514	463.195	417.692	129.493	310.904	258.035	470.827	0.0017255	0.00051372	0.00020795	550.9	2.8556e-06	5.3409e-06	726.3	208.38	5.8361e-06	5.305e-06	311.02	132.98	86.373	42.324	9.6376e-06	67.357	0.00018476	0.00012566	3.4984e-05	501.55	1.5184e-06	1.3795e-06	662.86	191.21	1.5435e-06	1.3432e-06	283.48	120.77	78.08	39.083	1.4306e-06	61.522	341.002	217.907	201.567	142.089	237.285	251.879	141.232	147.256	256.991	272.281	145.205	149.544	151.182	156.120	288.358	153.228	-8191	255	
1769.738	1	1	0	0	0.028716	0.13472	0.19373	0.1906	0.090372	0.063772	0.13723	0.25173	0.242	0.11005	0.089144	0.3182	0.40754	0.43458	0.18058	0.32524	-2.2771	-3.0104	-2.5833	-2.9521	-2.7687	-2.4125	-3.1167	-2.7854	-2.6104	-3.0854	-2.4979	-3	-3.0583	-2.7229	-2.9875	-2.8354	432.262	139.925	319.667	316.242	462.110	192.786	423.578	284.538	483.759	381.666	389.051	402.714	440.659	395.443	246.490	433.858	0.0017526	0.00058466	8.8039e-05	547.35	4.7005e-06	4.4236e-06	713.03	204.57	5.3476e-06	7.0601e-06	305.92	131.25	85.259	42.78	6.5679e-06	67.505	0.00017119	0.00011639	3.7612e-05	495.61	1.4184e-06	1.3114e-06	652.66	188.58	1.5043e-06	1.3165e-06	280.26	119.53	77.485	39.173	1.5804e-06	61.587	339.607	236.603	211.497	142.018	328.631	273.862	141.595	147.172	220.364	294.411	145.180	149.048	151.505	156.138	259.143	153.189	-8191	255	
1769.834	1	1	0	0	0.038297	0.11374	0.10573	0.080581	0.064628	0.1437	0.059826	0.11889	0.10491	0.096945	0.17261	0.23399	0.30591	0.22295	0.32123	0.22928	-2.1979	-3.0229	-2.5479	-2.7479	-3.0958	-2.5271	-3.0938	-2.7708	-2.45	-2.975	-2.5458	-2.8229	-3.1042	-2.5062	-2.8417	-3.0146	393.021	212.967	213.215	235.796	190.728	397.573	385.507	440.878	363.147	206.117	217.214	429.230	476.910	178.326	391.797	353.991	0.0017637	0.00065497	0.0001536	545	5.1673e-06	2.7135e-06	714.4	206.36	2.8904e-06	9.3895e-06	307.2	132.4	85.624	42.831	7.3185e-06	68.382	0.00017063	0.0001183	4.0911e-05	494.49	1.4084e-06	1.3259e-06	655.81	188.78	1.4449e-06	1.3456e-06	281.29	120.3	77.701	39.372	1.6801e-06	62.315	339.631	217.665	170.039	141.278	278.098	255.244	141.385	147.309	208.281	266.344	145.099	149.351	151.379	156.479	273.631	153.390	-8191	255	
1769.954	1	1	0	0	0.14184	0.18869	0.18981	0.19906	0.12079	0.16107	0.37053	0.12365	0.12607	0.24661	0.18273	0.097577	0.14794	0.21321	0.050395	0.29903	-2.1146	-3.0646	-2.7313	-2.575	-3.1	-2.4688	-3.2	-2.9646	-2.7021	-3.025	-2.7875	-2.9021	-2.9729	-2.6937	-2.8771	-2.975	214.511	375.872	425.189	303.326	364.212	201.764	444.985	473.401	392.304	257.255	165.753	166.244	423.620	417.000	434.362	421.232	0.0018214	0.00033245	6.8398e-05	536.47	2.8713e-06	2.0454e-06	713.12	204.04	2.8778e-06	8.2919e-06	309.14	134.23	86.28	43.193	2.2635e-06	68.808	0.00016871	0.00012757	4.1675e-05	489.39	1.3547e-06	1.4363e-06	654.33	187.66	1.3879e-06	1.4757e-06	281.37	121.49	77.993	39.732	1.7081e-06	62.84	336.154	214.411	238.492	142.464	334.790	233.046	141.355	146.905	255.196	265.339	144.957	149.370	151.076	156.282	269.817	152.802	-8191	255	
1770.051	1	1	0	0	0.10056	0.14155	0.20236	0.14808	0.097915	0.20522	0.12915	0.32129	0.18373	0.31579	0.10456	0.23685	0.14232	0.054586	0.064225	0.23723	-2.1167	-3.0521	-2.55	-2.6875	-3.0938	-2.6917	-2.9729	-2.8271	-2.5792	-3.025	-2.7729	-2.5521	-3.0896	-2.7687	-2.8875	-3.225	421.830	256.772	190.181	384.664	165.744	387.659	429.762	400.279	430.658	421.289	459.415	396.773	478.807	180.816	394.734	439.429	0.0018481	0.00034099	0.00017439	546.15	2.1593e-06	3.4172e-06	714.82	204.29	2.5253e-06	3.6579e-06	304.85	132.15	84.737	42.723	5.4733e-06	68.078	0.00016538	0.00014247	4.1455e-05	489.86	1.3014e-06	1.5636e-06	652.84	186.86	1.3991e-06	1.5819e-06	277.26	119.62	77.163	39.397	1.6038e-06	61.964	338.691	256.805	175.954	141.861	300.198	244.958	140.990	147.562	182.796	280.988	144.887	149.630	151.238	156.003	308.027	152.988	-8191	255	
1770.147	1	1	0	0	0.22726	0.11172	0.41882	0.14092	0.18747	0.26718	0.25752	0.25822	0.35658	0.15368	0.16265	0.058797	0.13237	0.18145	0.19222	0.12724	-2.1333	-2.7667	-2.8917	-2.4708	-3.1021	-2.6229	-2.8854	-3.0312	-2.4271	-2.8146	-2.7812	-2.6542	-3.0958	-2.8396	-2.5417	-3.2062	134.765	362.252	392.067	391.661	469.770	224.465	440.024	487.820	348.845	369.578	430.578	472.546	474.979	215.441	349.977	467.070	0.001684	0.00069509	8.2071e-05	538.11	2.9826e-06	2.2069e-06	703.63	201.55	7.7003e-06	3.4884e-06	302.87	131.23	84.459	42.513	6.5192e-06	67.797	0.00016429	0.00014486	3.7885e-05	484.85	1.3704e-06	1.6173e-06	644.01	185.39	1.4324e-06	1.6316e-06	275.36	118.81	77.036	39.289	1.487e-06	61.917	338.754	219.159	235.258	141.783	269.553	282.365	141.504	147.079	254.594	265.534	144.877	149.053	150.819	156.166	293.818	153.138	-8191	255	
1770.266	1	1	0	0	0.24422	0.08923	0.12874	0.056171	0.18664	0.10214	0.15382	0.3237	0.070355	0.011651	0.15321	0.14802	0.22173	0.29724	0.16863	0.26386	-2.1521	-3.1104	-2.65	-2.45	-2.8271	-2.7396	-2.9229	-2.9396	-2.4688	-2.7792	-2.7521	-2.5417	-2.9667	-2.8333	-2.5438	-3.1229	191.034	179.345	247.812	235.683	396.901	236.381	131.636	456.835	331.900	136.852	327.359	402.283	409.582	427.189	299.587	416.513	0.0017013	9.3968e-06	0.00011426	539.23	3.8487e-06	3.8421e-06	708.02	203.51	6.0965e-06	5.1876e-06	304.54	131.06	84.555	42.884	3.0468e-06	67.627	0.00017035	0.00015245	3.5626e-05	485.01	1.482e-06	1.5803e-06	644.96	186.17	1.5468e-06	1.5882e-06	276.79	118.64	76.986	39.42	1.4455e-06	61.951	340.640	398.549	222.785	141.913	287.569	287.601	141.052	147.105	260.839	273.559	145.106	149.473	151.392	155.815	269.809	153.053	-8191	255	
1770.362	1	1	0	0	0.25449	0.039771	0.26529	0.47306	0.079508	0.15813	0.09237	0.1203	0.10029	0.11845	0.054775	0.20455	0.13058	0.071346	0.14556	0.20678	-2.3229	-2.8563	-3.0542	-2.5521	-2.9479	-3.0146	-2.5792	-2.9813	-2.5167	-2.8604	-2.9354	-2.5292	-2.9688	-2.8583	-2.675	-3.0062	133.500	446.058	462.924	167.489	226.429	146.273	175.150	481.319	150.363	258.237	161.296	461.922	151.472	157.795	130.387	398.909	0.0018153	0.00030769	0.0001723	532.53	3.2631e-06	3.1476e-06	706.21	201.06	3.8352e-06	7.1939e-06	303.25	131.93	84.624	42.901	4.3425e-06	68.305	0.00018586	0.0001451	3.3926e-05	482.21	1.5762e-06	1.5461e-06	644.68	184.75	1.6727e-06	1.5396e-06	276.25	119.54	77	39.417	1.429e-06	62.317	340.242	187.894	272.575	141.398	231.117	253.953	141.405	147.090	197.238	321.618	145.166	149.364	151.214	156.297	315.670	152.941	-8191	255	
1770.435	1	1	0	0	0.12545	0.15606	0.038919	0.024353	0.17236	0.11089	0.25835	0.22667	0.16598	0.11052	0.083494	0.16673	0.30878	0.28505	0.082737	0.19962	-2.2729	-2.5833	-2.9604	-2.5812	-2.9396	-2.8958	-2.6937	-3.1542	-2.6042	-2.9792	-3.0625	-2.6333	-2.9979	-2.7146	-2.5271	-3.0958	344.904	461.797	387.316	382.683	315.763	151.109	439.759	437.599	247.973	454.685	469.738	467.425	470.413	487.012	413.697	391.504	0.0017706	0.00063503	0.00010692	527.78	3.612e-06	3.4093e-06	697.77	198.99	6.7389e-06	3.6017e-06	299.4	130.69	83.401	42.361	3.4283e-06	67.376	0.00019245	0.00013613	3.364e-05	479.35	1.6394e-06	1.4144e-06	638.16	183.2	1.6372e-06	1.4115e-06	272.02	117.71	75.841	38.841	1.3169e-06	61.339	333.054	229.070	224.198	142.165	316.798	282.634	141.229	147.187	230.911	300.980	145.137	148.810	151.721	155.870	259.953	153.015	-8191	255	
1770.554	1	1	0	0	0.15478	0.029183	0.021503	0.10183	0.15409	0.11064	0.17317	0.063509	0.19162	0.041333	0.16902	0.07461	0.17794	0.23008	0.18425	0.054956	-2.3417	-2.5938	-3.0438	-2.6667	-2.7917	-3.0146	-2.5042	-2.9771	-2.775	-2.6	-3.2188	-2.6646	-2.95	-2.9562	-2.4646	-3.225	140.133	225.712	210.061	444.662	154.574	230.165	414.279	313.244	307.210	188.034	375.948	483.297	169.398	471.755	255.962	384.505	0.0016283	0.00060188	0.00024344	531.75	4.9329e-06	1.0414e-06	701.3	198.57	1.0711e-05	4.4196e-06	295.79	129.54	83.144	42.166	4.226e-06	67.195	0.0001788	0.00012983	3.1229e-05	480.07	1.5273e-06	1.2926e-06	636.92	182.25	1.5414e-06	1.3455e-06	269.66	117.24	75.315	38.788	1.3126e-06	61.234	339.252	226.610	184.320	141.596	308.553	481.667	141.248	147.159	245.575	272.675	144.805	149.096	151.035	155.757	271.084	152.871	-8191	255	
1770.650	1	1	0	0	0.14697	0.18911	0.10293	0.063695	0.096556	0.28576	0.22103	0.11387	0.2611	0.035819	0.13554	0.19557	0.29682	0.091181	0.16145	0.10727	-2.4938	-2.6271	-3.15	-2.5854	-2.8708	-3.1021	-2.5333	-3.1875	-2.6375	-2.6333	-3.1708	-2.8625	-2.6	-3.2188	-2.6479	-3.025	213.080	281.833	442.842	145.707	386.831	383.778	428.324	287.416	372.198	320.201	177.321	416.330	368.608	162.825	170.954	430.322	0.0018861	0.00046486	0.00019054	525.96	4.3279e-06	4.3766e-06	696.81	197.34	2.5779e-06	3.9275e-06	297.56	130.48	83.078	41.9	2.9795e-06	67.223	0.00016953	0.00011979	3.1871e-05	479.46	1.4155e-06	1.2792e-06	636.61	181.11	1.3935e-06	1.2942e-06	270.84	117.96	75.397	38.572	1.4091e-06	61.349	338.839	192.748	195.936	141.520	245.345	306.566	141.399	146.915	182.717	242.644	145.035	148.804	150.956	155.967	290.761	152.979	-8191	255	
1770.746	1	1	0	0	0.037116	0.13263	0.21881	0.10926	0.22195	0.085949	0.19315	0.36702	0.1035	0.18925	0.094503	0.10006	0.21735	0.077653	0.16674	0.26396	-2.5167	-2.5917	-3.0646	-2.725	-2.7104	-2.9396	-2.7396	-2.9604	-2.9271	-2.575	-3.0771	-2.9437	-2.6896	-3.1521	-2.6417	-3.0125	263.051	336.819	238.957	151.749	253.607	191.339	379.308	388.363	254.033	342.869	475.497	192.193	439.845	372.409	157.433	387.300	0.0017962	0.00031314	0.00011188	523.77	2.3471e-06	1.3164e-06	692.51	194.41	3.4652e-06	3.8289e-06	293.1	128.8	81.781	41.547	5.6313e-06	66.15	0.00016325	0.00011686	3.3972e-05	477.1	1.3837e-06	1.2082e-06	631.48	178.62	1.3355e-06	1.2347e-06	266.7	116.42	74.13	38.146	1.4369e-06	60.138	338.128	216.170	221.822	142.078	371.665	180.233	140.912	146.870	287.773	303.597	144.976	149.096	151.031	155.901	272.080	152.918	-8191	255	
1770.867	1	1	0	0	0.16225	0.030434	0.18389	0.077854	0.28109	0.28571	0.31581	0.11149	0.040589	0.077662	0.14	0.1908	0.38594	0.084066	0.16102	0.13279	-2.5333	-2.6354	-2.875	-2.6667	-2.5271	-3.1104	-2.5312	-2.8167	-3.125	-2.6021	-2.8937	-2.8458	-2.725	-3.125	-2.7667	-2.6458	458.832	362.460	385.188	270.523	318.971	440.600	426.328	366.215	486.289	197.436	331.717	141.481	200.716	304.156	155.533	388.456	0.0017886	0.0007932	9.5438e-05	515.71	3.9566e-06	4.7687e-06	676.05	189.01	6.4772e-06	2.0415e-06	287.78	125.43	79.054	40.547	4.3351e-06	64.913	0.00015533	0.00011311	3.61e-05	466.76	1.2267e-06	1.1385e-06	619.11	173.27	1.198e-06	1.2077e-06	262.22	114.02	72.198	37.258	1.4384e-06	59.25	341.723	248.455	213.459	142.155	325.411	268.912	140.632	146.725	241.801	280.759	145.131	149.115	150.874	155.173	304.397	152.377	-8191	255	
1770.963	1	1	0	0	0.098186	0.3336	0.067742	0.03726	0.1867	0.11492	0.019693	0.28539	0.15208	0.15071	0.077754	0.18078	0.054027	0.21033	0.092662	0.29139	-2.4938	-2.5312	-2.75	-2.8417	-2.425	-3.0042	-2.8438	-2.7458	-2.925	-2.6896	-2.9458	-3.0938	-2.6208	-3.0583	-2.8958	-2.6625	416.335	403.112	136.039	228.506	146.825	424.993	360.957	426.502	439.008	289.227	388.164	437.528	346.387	147.759	346.563	436.854	0.0017444	0.00043841	5.6513e-05	506.88	4.5413e-06	3.2293e-06	668.75	185.18	8.0657e-06	5.9633e-06	287.08	126.75	79.195	40.421	8.0124e-06	65.077	0.00015006	0.0001126	3.5324e-05	454.38	1.1879e-06	1.1986e-06	613.68	170.42	1.1488e-06	1.2693e-06	259.54	114.43	71.846	37.011	1.3757e-06	59.245	339.428	282.357	207.347	141.732	317.114	297.150	141.151	146.864	253.245	291.116	145.235	148.820	150.716	155.771	290.519	152.723	-8191	255	
1771.035	1	1	0	0	0.27302	0.25062	0.04589	0.1313	0.18655	0.20922	0.18545	0.015651	0.10512	0.15628	0.089634	0.04864	0.1827	0.15618	0.1428	0.066941	-2.5896	-2.4875	-2.7708	-2.8187	-2.6708	-3.025	-3.0458	-2.5604	-3.1063	-2.7396	-3.2208	-2.9125	-2.8667	-2.9167	-2.7958	-2.575	437.840	332.519	451.795	353.876	143.727	375.349	132.239	250.064	420.304	306.789	346.094	470.203	236.462	139.314	202.114	411.370	0.0015802	0.00051696	0.00010109	507.72	3.1935e-06	5.1213e-06	672.59	185.15	5.5015e-06	3.6046e-06	288.86	127.83	79.709	40.647	3.5729e-06	65.154	0.00013866	0.0001225	3.4148e-05	451.84	1.097e-06	1.325e-06	616.93	169.89	1.1513e-06	1.3925e-06	261.54	115.52	72.209	37.28	1.3375e-06	59.28	339.889	194.742	203.931	140.494	325.766	232.106	140.676	147.246	257.318	352.079	144.976	148.856	150.478	155.252	279.149	152.719	-8191	255	
1771.131	1	1	0	0	0.24922	0.26225	0.070422	0.098458	0.08926	0.14172	0.24707	0.096504	0.05596	0.15311	0.18867	0.36744	0.12394	0.26411	0.26454	0.24114	-2.7354	-2.5563	-2.6396	-3.1021	-2.6542	-2.7583	-2.8792	-2.6604	-3.0229	-2.7	-2.6271	-2.9979	-2.6396	-3.0625	-2.8125	-2.7062	399.613	445.808	360.132	313.458	180.355	209.680	410.687	408.075	371.081	470.302	346.907	434.748	427.560	434.665	297.069	464.149	0.0017621	0.00039329	0.000154	493.72	1.4868e-06	3.0628e-06	664.94	182.01	8.0338e-06	7.1633e-06	282.13	126.24	80.031	40.43	4.5777e-06	63.86	0.00014288	0.00012501	3.2419e-05	448.72	1.183e-06	1.3789e-06	606.51	166.78	1.1986e-06	1.4011e-06	256	114.55	72.329	37.254	1.2547e-06	58.516	338.285	178.291	198.273	141.050	302.559	302.681	140.885	147.279	235.910	271.699	144.973	148.799	150.384	155.627	244.992	152.257	-8191	255	
1771.250	1	1	0	0	0.19117	0.075481	0.14284	0.2083	0.1955	0.35033	0.07004	0.26228	0.14873	0.21323	0.11681	0.3347	0.33491	0.098024	0.11207	0.29221	-2.4521	-2.7729	-2.5708	-3.0167	-2.3646	-3.0646	-2.9271	-2.7167	-2.9188	-2.8833	-2.5938	-3.1312	-2.6146	-2.9958	-3.0104	-2.5938	443.430	168.688	353.453	339.635	197.480	433.669	200.438	159.800	175.960	404.153	205.262	451.972	164.468	141.779	270.094	444.723	0.0017417	0.00023302	0.00015148	496.26	1.4932e-06	3.6666e-06	665.27	180.18	3.737e-06	3.9695e-06	280.12	127.05	79.539	40.704	3.7343e-06	64.524	0.00014908	0.00012601	3.087e-05	445.23	1.2788e-06	1.362e-06	603.96	165.2	1.3019e-06	1.3507e-06	254.22	114.85	72.414	37.211	1.1705e-06	58.677	338.490	148.831	212.983	140.862	289.777	260.805	141.107	146.887	293.376	308.498	144.659	148.760	150.729	155.307	263.217	152.090	-8191	255	
1771.346	1	1	0	0	0.24951	0.11207	0.10629	0.11763	0.13181	0.11995	0.15743	0.1374	0.32013	0.10578	0.099499	0.084088	0.28	0.28054	0.2201	0.17547	-2.4229	-2.7417	-2.7333	-2.9938	-2.7125	-2.8438	-3.0646	-2.7521	-2.8438	-2.9896	-2.7021	-3	-2.8354	-2.8917	-3.0021	-2.3208	184.212	380.065	424.348	364.156	264.568	368.826	173.841	343.575	457.099	281.105	311.675	419.152	411.416	479.683	150.492	300.177	0.001659	0.00037451	3.0347e-05	498.59	2.2551e-06	2.1866e-06	660.96	180.07	7.664e-06	5.8193e-06	282.58	128.61	80.82	40.708	4.7267e-06	65.422	0.00015983	0.00011901	2.9784e-05	443.56	1.3767e-06	1.3213e-06	605.48	165.17	1.3549e-06	1.2832e-06	256.21	116.45	73.275	37.515	1.1342e-06	59.56	341.152	215.585	146.689	141.173	331.976	253.596	141.046	146.991	198.976	260.327	144.837	148.915	151.000	155.538	280.839	152.648	-8191	255	
1771.442	1	1	0	0	0.20416	0.12705	0.021513	0.094389	0.28459	0.26675	0.23101	0.15366	0.077379	0.30537	0.22688	0.20423	0.10225	0.16269	0.049193	0.26309	-2.4104	-2.9396	-2.5021	-3.0938	-2.9271	-2.7917	-3.2875	-2.8729	-2.9646	-2.8479	-2.6667	-3.0792	-2.7812	-2.7958	-3.0979	-2.7	325.898	265.058	456.264	295.903	216.001	331.063	401.132	392.897	462.322	475.097	481.694	196.440	425.569	407.356	473.950	383.883	0.0018522	0.00018388	0.00016259	501.46	3.7395e-06	3.5982e-06	665.33	179.58	5.3912e-06	4.1036e-06	278.02	128.3	80.143	40.764	4.1088e-06	64.253	0.0001703	0.0001126	2.9961e-05	446.27	1.3837e-06	1.1928e-06	605.4	164.56	1.408e-06	1.2257e-06	252.53	115.68	72.684	37.324	1.0927e-06	58.567	337.705	169.368	193.848	141.823	332.682	212.724	141.117	146.934	250.100	296.678	144.946	148.747	150.536	155.289	296.362	152.296	-8191	255	
1771.538	1	1	0	0	0.055075	0.086051	0.18542	0.17215	0.1954	0.15348	0.25386	0.10486	0.18354	0.15479	0.15154	0.22317	0.095064	0.090859	0.36734	0.15754	-2.55	-3.0083	-2.6312	-3.1417	-2.8	-2.8021	-3.1583	-2.6021	-2.9562	-3.1	-2.7146	-3.1625	-2.8271	-2.7167	-3.1354	-2.6292	302.838	488.252	391.905	243.955	462.229	299.003	467.182	137.934	421.383	229.085	154.668	435.897	481.626	274.951	245.965	364.573	0.0017286	0.00062674	0.00013533	495.73	3.9572e-06	3.5316e-06	656.97	177.88	5.5894e-06	4.3101e-06	273.15	126.78	79.397	40.079	4.5614e-06	63.528	0.0001639	0.00010552	2.8971e-05	444.25	1.3312e-06	1.1579e-06	596.72	162.97	1.3113e-06	1.1119e-06	248.79	114.58	71.949	36.825	1.1042e-06	58.208	337.689	231.664	244.078	141.573	223.966	211.731	141.110	146.850	231.484	255.422	145.357	148.805	150.649	155.249	294.937	152.426	-8191	255	
1771.635	1	1	0	0	0.092025	0.075311	0.18037	0.18493	0.27087	0.30402	0.035572	0.15819	0.15357	0.081475	0.41872	0.14592	0.054529	0.17037	0.11007	0.40477	-2.525	-3.0625	-2.6437	-3.0563	-2.8396	-2.5146	-3.1562	-2.7667	-2.7292	-3.1021	-2.6708	-2.8875	-2.7625	-2.5625	-3.1167	-2.9417	460.691	315.490	293.579	441.482	299.638	136.317	337.867	427.004	208.387	238.253	453.592	216.668	467.743	415.914	186.970	448.509	0.0016055	0.00048905	0.00015415	493.53	2.9565e-06	4.479e-06	658.1	177.39	7.8628e-06	6.1906e-06	276.09	127.13	79.488	40.194	6.0013e-06	64.149	0.00015384	0.00010157	2.9128e-05	443.8	1.2314e-06	1.1575e-06	600.34	162.38	1.2264e-06	1.0801e-06	250.54	115.03	72.247	36.912	1.2074e-06	58.497	337.103	204.975	173.040	141.379	254.543	270.881	141.265	147.033	214.451	279.897	144.934	148.772	150.276	155.055	232.414	152.257	-8191	255	
1771.731	1	1	0	0	0.080613	0.23426	0.24919	0.11541	0.17305	0.24709	0.077024	0.044911	0.15649	0.17086	0.10672	0.089924	0.098832	0.11667	0.097981	0.077483	-2.1771	-3.0542	-2.5458	-2.7375	-2.9417	-2.6729	-3.0917	-2.85	-2.6688	-3.0396	-2.5771	-2.9479	-3.0833	-2.675	-2.9625	-2.7333	196.691	258.712	433.289	223.354	410.163	195.543	488.598	281.764	426.675	379.514	360.012	308.804	186.146	469.058	219.084	421.771	0.0018009	0.00074706	2.4185e-05	501.02	4.6007e-06	2.5184e-06	660.76	178.36	3.2716e-06	2.5485e-06	277.46	128.01	80.009	40.279	3.6268e-06	63.786	0.00015408	0.00010202	3.1378e-05	451.26	1.22e-06	1.1158e-06	604.72	162.96	1.2474e-06	1.0816e-06	250.05	115.62	72.341	36.956	1.3497e-06	58.205	336.546	240.569	213.182	141.307	279.719	237.548	140.529	146.715	213.081	288.036	145.273	148.883	150.626	155.553	210.812	152.576	-8191	255	
1771.827	1	1	0	0	0.18885	0.37611	0.10799	0.24914	0.26132	0.06382	0.087595	0.1682	0.12901	0.17673	0.082771	0.15909	0.2452	0.26905	0.12624	0.11656	-2.4021	-2.8979	-2.675	-2.8187	-2.9417	-2.5208	-3.075	-2.9875	-2.7375	-3.0271	-2.5938	-2.8958	-3.0896	-2.7562	-2.9042	-2.7979	158.491	248.489	182.023	253.535	435.708	391.316	154.075	464.881	254.374	479.047	446.371	485.417	219.312	438.517	237.807	362.123	0.0017146	0.00033601	8.3172e-05	498.55	2.9005e-06	4.1478e-06	661.18	177.24	5.1375e-06	7.2199e-06	274.37	127.11	79.01	40.072	6.7475e-06	63.509	0.00014897	0.00010171	3.3848e-05	444.49	1.166e-06	1.1707e-06	603.16	162.11	1.1813e-06	1.1092e-06	249.18	115.16	71.716	36.652	1.3827e-06	57.844	336.413	174.246	182.433	141.680	249.253	250.401	140.603	146.952	243.270	258.885	145.036	148.881	150.539	155.260	219.132	152.441	-8191	255	
1771.947	1	1	0	0	0.23124	0.19932	0.14082	0.16974	0.074627	0.10026	0.16617	0.28576	0.38586	0.11075	0.32813	0.22128	0.040602	0.10024	0.03663	0.22992	-2.3771	-3.1146	-2.7271	-2.7542	-3.0792	-2.6	-3.1396	-2.8688	-2.5042	-3.0354	-2.7875	-2.7646	-2.9292	-2.6417	-2.9167	-3.025	484.611	204.567	467.573	362.256	429.014	473.782	201.807	432.669	181.774	385.262	411.688	166.649	457.948	442.190	478.260	439.008	0.0016972	0.00049262	6.9219e-05	495.05	3.4261e-06	4.7302e-06	670.08	175.16	2.3998e-06	1.9012e-06	273.28	127.01	77.741	39.317	4.694e-06	63.136	0.0001419	0.00010837	3.3225e-05	442.26	1.0772e-06	1.2034e-06	610.45	160.59	1.1548e-06	1.2221e-06	248.79	115.01	70.78	36.058	1.3474e-06	57.481	336.885	190.978	227.885	141.335	331.973	248.706	140.738	146.782	173.271	284.659	144.755	148.871	150.665	154.855	304.334	152.300	-8191	255	
1772.044	1	1	0	0	0.090811	0.15106	0.41631	0.057571	0.0436	0.113	0.1197	0.19606	0.13631	0.25142	0.11157	0.29348	0.083755	0.079815	0.070931	0.10009	-2.2208	-3.0604	-2.6354	-2.6979	-2.9417	-2.5812	-3.1292	-2.9208	-2.7062	-3.1125	-2.7146	-2.8625	-3.1417	-2.7479	-2.8563	-3.1312	289.078	201.477	222.336	438.761	273.332	465.206	479.790	163.028	171.222	330.375	385.800	460.499	413.856	335.346	200.923	185.875	0.0016611	0.00043603	0.00015954	494.99	8.9877e-07	6.7316e-06	676.75	174.88	8.0026e-06	6.3137e-06	276.86	127.04	77.309	38.713	7.0366e-06	62.627	0.00014533	0.00011647	3.3483e-05	447.94	1.0898e-06	1.2882e-06	618.91	159.96	1.1268e-06	1.349e-06	251.31	114.88	70.369	35.612	1.3508e-06	56.698	336.191	197.980	197.892	141.808	158.129	278.961	140.789	146.771	227.165	268.015	144.734	148.596	150.327	155.144	297.734	152.174	-8191	255	
1772.138	1	1	0	0	0.24264	0.12842	0.14342	0.09116	0.076026	0.31092	0.16576	0.16857	0.17021	0.14501	0.21245	0.16071	0.39249	0.10263	0.17879	0.08268	-2.3146	-2.8521	-2.9188	-2.5667	-3.075	-2.7083	-2.8771	-3.0187	-2.4542	-2.9771	-2.8312	-2.8312	-3.1792	-2.6979	-2.6958	-3.2896	204.045	324.266	234.528	402.728	285.349	139.686	171.554	459.919	214.825	325.622	218.857	322.125	455.752	392.471	403.053	404.410	0.0016147	0.0005712	9.3796e-05	494.65	4.3377e-06	3.8835e-06	667.86	166.7	1.025e-05	3.0534e-06	260.06	120.88	73.059	37.549	4.1257e-06	60.179	0.0001444	0.00012421	3.2189e-05	446.31	1.1689e-06	1.3593e-06	610.77	153.14	1.2078e-06	1.3959e-06	236.22	109.15	66.649	34.455	1.2825e-06	54.707	335.761	218.589	196.742	141.371	292.608	301.415	140.494	146.561	281.134	352.880	144.596	148.934	150.782	154.964	320.455	152.042	-8191	255	
1772.236	1	1	0	0	0.22059	0.11483	0.24538	0.17949	0.16599	0.23401	0.31747	0.15094	0.21362	0.022746	0.19711	0.16913	0.10553	0.26623	0.12946	0.15435	-2.1729	-2.6229	-2.7708	-2.4521	-3.0292	-2.7812	-2.6937	-2.9521	-2.5875	-2.9271	-2.9771	-2.4313	-3.0396	-2.8125	-2.6146	-2.9667	152.922	253.842	396.036	179.832	236.843	175.444	163.913	475.612	371.466	373.178	170.315	476.422	254.819	461.709	160.510	429.889	0.001638	0.00066111	3.0083e-05	496.15	5.0421e-06	1.8902e-06	656.05	161.83	7.5023e-06	6.7057e-06	249.55	116.89	70.615	36.068	8.408e-07	58.624	0.00015546	0.00012293	3.0803e-05	441.45	1.2443e-06	1.3474e-06	598.04	148.01	1.3189e-06	1.3345e-06	228.29	105.68	64.273	33.284	1.2209e-06	53.391	337.563	193.502	298.940	140.842	282.574	317.153	140.533	146.654	241.152	269.097	144.639	148.773	150.492	155.148	302.211	152.059	-8191	255	
1772.330	1	1	0	0	0.21699	0.15831	0.048582	0.085549	0.27489	0.073682	0.29716	0.072034	0.094204	0.026967	0.217	0.22026	0.17191	0.13989	0.2982	0.29191	-2.0938	-2.7896	-2.7687	-2.4917	-2.8417	-2.8563	-2.7375	-3.0896	-2.7375	-2.8229	-3.2271	-2.7042	-2.9437	-2.9708	-2.4896	-3.1312	221.434	436.062	166.748	302.960	324.110	376.980	423.857	376.865	257.683	294.403	478.565	444.908	438.573	447.400	133.651	377.295	0.0014599	0.00016988	7.0297e-05	490.84	2.8593e-06	6.3379e-06	657.05	158.19	7.4217e-06	2.0041e-06	245.76	114.23	68.568	35.889	7.5825e-06	58.713	0.00015912	0.00012384	3.0806e-05	439.54	1.3494e-06	1.3343e-06	598.53	144.61	1.4317e-06	1.2969e-06	223.91	103.24	62.403	32.77	1.23e-06	53.406	337.751	246.856	196.074	141.055	298.519	254.152	140.632	146.580	252.201	186.369	144.899	148.832	150.486	155.046	283.082	151.886	-8191	255	
1772.426	1	1	0	0	0.29419	0.060885	0.22203	0.092972	0.18985	0.20763	0.054992	0.16245	0.15523	0.30056	0.24792	0.10633	0.22539	0.19904	0.28245	0.18741	-2.3458	-2.7958	-3.0396	-2.5229	-2.9979	-2.8875	-2.5708	-3.0875	-2.7396	-2.7229	-3.0563	-2.5687	-2.9125	-2.9271	-2.675	-3.0625	154.150	140.583	375.188	233.205	155.290	363.843	373.338	447.364	189.096	311.845	367.503	454.603	450.166	214.135	363.743	385.719	0.0015286	0.00041916	7.6272e-05	495.61	5.6482e-06	4.0327e-06	661.29	157.01	5.2724e-06	6.234e-06	242.68	112.12	67.003	35.276	3.28e-06	57.499	0.00016645	0.00012059	2.9733e-05	444.64	1.4719e-06	1.2334e-06	603.02	143.88	1.4844e-06	1.3122e-06	221.4	101.36	61.097	32.258	1.2246e-06	52.498	340.370	258.747	245.463	141.128	307.586	267.602	140.630	146.413	219.624	242.291	144.721	148.939	150.666	154.555	240.648	152.219	-8191	255	
1772.547	1	1	0	0	0.047923	0.15053	0.10508	0.17029	0.27421	0.18153	0.18276	0.3002	0.18216	0.35334	0.092628	0.14832	0.094411	0.097534	0.18819	0.23981	-2.3958	-2.6229	-2.9583	-2.7271	-2.7917	-3.0854	-2.7042	-3.1271	-2.8021	-2.7542	-3.1896	-2.6229	-2.8458	-3.2292	-2.5021	-3.1292	445.826	260.903	393.042	224.814	461.540	242.694	247.633	484.625	428.872	287.376	187.994	451.117	291.901	141.794	174.489	454.960	0.0014481	6.415e-05	3.094e-05	481.04	1.9057e-06	3.8724e-06	636.89	150.67	4.7743e-06	6.1179e-06	233.77	107.8	64.127	34.177	7.2183e-06	56.363	0.00016644	0.00011421	2.8625e-05	438.4	1.396e-06	1.2377e-06	580.59	138.51	1.3962e-06	1.254e-06	213.15	98.059	58.701	31.351	1.2488e-06	51.538	341.107	295.469	302.735	140.901	340.285	254.542	140.509	146.667	268.212	287.834	144.620	148.561	150.450	155.117	265.751	152.338	-8191	255	
1772.643	1	1	0	0	0.2413	0.11676	0.17294	0.093512	0.018541	0.27373	0.13624	0.12574	0.085101	0.37037	0.085748	0.20659	0.098834	0.13568	0.079267	0.06987	-2.3312	-2.6417	-3.05	-2.6917	-2.6562	-3.1083	-2.6271	-2.8187	-2.8146	-2.5333	-2.9667	-2.8771	-2.7167	-3.0167	-2.5208	-2.8708	170.751	319.009	233.960	455.177	448.010	363.493	129.740	358.243	195.864	165.054	271.737	462.190	288.774	423.721	481.554	245.460	0.0014465	0.00030803	0.00018757	488.21	6.221e-07	4.323e-06	643.77	150.92	1.4114e-06	3.2213e-06	236.92	108.31	65.295	33.946	7.6167e-06	56.935	0.00015266	0.00010935	2.9487e-05	438.44	1.2638e-06	1.1746e-06	584.46	138.27	1.3095e-06	1.2205e-06	214.75	98.076	58.956	31.238	1.2963e-06	51.623	336.625	189.743	222.381	141.090	245.168	266.022	140.653	146.840	224.503	325.372	144.975	148.785	150.435	155.001	267.682	152.051	-8191	255	
1772.739	1	1	0	0	0.18464	0.18432	0.16171	0.058437	0.23898	0.040063	0.061869	0.15768	0.091369	0.069618	0.1159	0.1734	0.22993	0.076016	0.14331	0.18128	-2.5	-2.4792	-2.7979	-2.6917	-2.5812	-2.925	-2.4979	-2.7271	-2.6688	-2.5438	-2.9167	-2.6396	-2.7521	-3	-2.7396	-2.875	488.416	342.607	171.100	460.008	168.234	256.434	187.741	190.879	187.951	382.112	176.987	487.446	436.765	290.763	159.398	275.831	0.0015979	0.00050641	0.00011202	487.7	2.3205e-06	4.3159e-06	645.93	151.64	5.3403e-06	3.7373e-06	238.91	107.43	64.806	34.062	7.6565e-06	55.839	0.00015102	0.00011171	3.2835e-05	441.74	1.2811e-06	1.1185e-06	591.11	139.8	1.2639e-06	1.1458e-06	216.99	98.011	58.809	31.125	1.4164e-06	50.919	343.097	280.204	210.019	140.641	284.894	289.880	140.516	146.510	244.528	246.746	144.388	148.768	150.392	154.951	237.829	152.336	-8191	255	
1772.836	1	1	0	0	0.13206	0.22032	0.28751	0.43034	0.17974	0.097201	0.04593	0.25635	0.13126	0.03362	0.050251	0.13333	0.22434	0.080179	0.084665	0.14316	-2.5271	-2.5396	-2.8833	-2.85	-2.4896	-2.875	-2.7229	-2.7812	-2.975	-2.7479	-2.9437	-2.85	-2.625	-3.1958	-2.6188	-2.8708	211.802	357.036	205.555	240.902	296.237	292.547	350.663	480.147	157.235	215.443	163.914	445.752	349.266	464.852	233.541	332.826	0.0014309	5.8831e-05	0.00011678	481.75	3.1187e-06	1.3776e-06	636.38	150.88	4.7253e-06	5.0626e-06	234.06	106.28	64.312	33.648	5.4398e-06	55.579	0.0001445	0.00010864	3.5061e-05	436.96	1.2307e-06	1.1397e-06	581.88	138.86	1.1772e-06	1.2325e-06	214.51	96.464	58.43	30.864	1.4538e-06	50.568	338.987	172.814	182.276	140.832	303.881	233.901	140.555	146.555	250.888	265.091	144.519	148.858	150.772	155.083	278.197	152.271	-8191	255	
1772.932	1	1	0	0	0.090839	0.073184	0.15713	0.13634	0.15904	0.082025	0.10956	0.21195	0.062454	0.14601	0.44066	0.26177	0.11916	0.17978	0.024567	0.056804	-2.4042	-2.4708	-2.9083	-2.7667	-2.4354	-3.1458	-2.7604	-2.7375	-3.1021	-2.5458	-2.8812	-2.9188	-2.4646	-2.9167	-2.7167	-2.7812	386.496	389.917	298.507	417.540	199.498	362.141	381.312	440.508	254.331	316.314	420.247	463.502	458.510	468.699	327.264	171.258	0.0014017	0.00038903	6.8538e-05	487.91	2.6104e-06	2.0117e-06	643.04	150.76	7.2599e-06	4.0437e-06	235.51	105.62	62.839	32.907	5.5215e-06	54.918	0.00013813	0.00011324	3.571e-05	438.31	1.193e-06	1.2531e-06	586.76	138.14	1.1311e-06	1.2999e-06	214.51	95.396	57.206	30.326	1.3888e-06	49.89	341.218	232.519	299.503	141.141	300.911	294.844	140.163	146.464	275.012	213.039	145.043	148.865	151.191	155.072	272.203	152.205	-8191	255	
1773.028	1	1	0	0	0.19697	0.052063	0.11767	0.024613	0.29113	0.1674	0.29664	0.1218	0.14075	0.16321	0.061479	0.10564	0.17165	0.093511	0.17943	0.22299	-2.3917	-2.6833	-2.7771	-2.8083	-2.4813	-2.8896	-2.5833	-2.6833	-3.0667	-2.7729	-2.8187	-2.7833	-2.5396	-2.8563	-2.7479	-2.8417	471.641	428.450	479.009	314.448	229.946	165.584	432.220	315.684	240.191	217.293	423.967	386.597	170.954	418.478	398.929	428.817	0.0013475	4.0345e-05	0.00010305	484.93	4.261e-06	2.3369e-06	637.79	148.54	4.1646e-06	4.097e-06	230.09	102.72	61.066	32.346	4.397e-06	53.137	0.00013564	0.00012563	3.4986e-05	437.88	1.1804e-06	1.3971e-06	582.24	136.65	1.1651e-06	1.3843e-06	210.47	93.008	55.504	29.681	1.2878e-06	48.453	343.728	155.184	253.050	140.970	290.746	226.121	140.370	146.438	282.732	293.786	144.355	148.984	150.812	154.777	262.754	152.209	-8191	255	
1773.124	1	1	0	0	0.15625	0.1231	0.16689	0.034472	0.1689	0.21702	0.10194	0.2546	0.18481	0.31487	0.14617	0.26227	0.37682	0.045898	0.18927	0.25677	-2.4521	-2.5583	-2.7208	-3.0312	-2.5083	-2.7458	-2.925	-2.4938	-2.9417	-2.4917	-2.6417	-3.0667	-2.7333	-2.9771	-2.6979	-2.5854	406.232	419.588	337.798	309.418	169.516	433.582	342.845	481.971	373.497	485.368	186.103	169.539	430.244	429.730	347.054	464.110	0.0014432	0.00030859	0.00014612	482.3	6.1368e-07	3.6886e-06	631.37	146.95	3.2935e-06	2.6282e-06	230.55	102.27	61.012	32.103	2.9685e-06	53.26	0.00013932	0.00012844	3.2525e-05	431.62	1.2022e-06	1.4005e-06	576.62	134.67	1.2072e-06	1.3916e-06	209.71	92.448	55.402	29.473	1.2343e-06	48.54	332.987	243.242	213.232	139.952	406.973	221.551	140.609	146.271	207.772	296.524	144.711	148.630	150.907	155.102	264.530	151.994	-8191	255	
1773.218	1	1	0	0	0.14266	0.093623	0.37941	0.19115	0.13605	0.10737	0.2296	0.3028	0.13822	0.1251	0.041788	0.14426	0.14577	0.064748	0.188	0.30632	-2.5042	-2.6729	-2.4583	-3.0187	-2.6146	-2.8083	-2.925	-2.5687	-2.7854	-2.7625	-2.7833	-3.0292	-2.7292	-2.9104	-2.9	-2.6979	146.203	342.323	128.596	193.577	430.248	177.594	427.955	421.470	136.345	353.627	173.150	437.655	129.612	163.735	307.170	399.513	0.001383	0.00038313	9.2519e-05	486.73	2.7192e-06	3.963e-06	640.24	147.82	4.8219e-06	2.0512e-06	232.18	102.03	60.762	31.615	9.4608e-07	52.677	0.00014689	0.00012847	3.0715e-05	435.01	1.3431e-06	1.3476e-06	582.39	135.37	1.3322e-06	1.3572e-06	211.29	92.451	55.243	29.105	1.189e-06	48.125	337.953	182.729	229.698	140.297	242.243	251.629	140.244	146.228	231.940	280.402	144.351	148.899	150.609	155.062	386.166	152.170	-8191	255	
1773.339	1	1	0	0	0.15226	0.093151	0.24585	0.11455	0.088904	0.023323	0.15076	0.23823	0.071939	0.17159	0.13003	0.2192	0.064023	0.062821	0.24612	0.21367	-2.4375	-2.7396	-2.6958	-2.9042	-2.6479	-2.8229	-2.9458	-2.4771	-2.8604	-2.8896	-2.6083	-2.9125	-2.6104	-2.7396	-3.1271	-2.675	423.611	168.227	153.474	464.585	477.182	365.237	301.275	134.674	366.476	369.339	392.614	374.765	186.186	298.814	218.346	483.375	0.0014149	0.00046545	3.275e-05	485.88	2.3433e-06	2.1608e-06	647.77	148.05	2.7059e-06	3.3944e-06	235.33	102.79	60.838	31.663	3.9315e-06	53.252	0.00015304	0.00011932	3.0205e-05	436.36	1.4177e-06	1.3181e-06	588.26	136.49	1.4014e-06	1.2812e-06	214.19	92.941	55.463	29.082	1.1583e-06	48.463	338.470	200.449	471.965	140.885	288.717	215.854	140.490	146.538	323.689	265.966	144.480	148.738	150.700	155.107	236.112	151.734	-8191	255	
1773.435	1	1	0	0	0.10197	0.44365	0.13803	0.10451	0.16425	0.078013	0.065672	0.16837	0.10492	0.15297	0.17735	0.10762	0.075692	0.096116	0.21853	0.081686	-2.4958	-2.6208	-2.5812	-2.8542	-2.6437	-2.7333	-3.3333	-2.6792	-2.6562	-2.7729	-2.4708	-3.0187	-2.7083	-2.6146	-2.8979	-2.6917	178.860	427.735	148.432	181.773	202.407	486.455	248.398	460.146	287.234	270.415	301.796	192.005	328.402	450.945	371.122	233.032	0.0013833	0.00052007	0.00010175	491.26	5.6038e-06	1.8476e-06	648.35	148.67	3.3134e-06	4.3845e-06	234.45	102.72	60.27	31.644	3.4183e-06	52.949	0.00016097	0.00011266	2.9479e-05	439.22	1.4327e-06	1.2789e-06	589.06	136.34	1.4056e-06	1.2219e-06	211.52	92.385	54.863	29.103	1.115e-06	48.322	338.025	227.443	210.889	140.644	311.415	262.880	140.380	146.740	344.266	230.413	144.952	148.863	150.432	154.740	290.048	152.254	-8191	255	
1773.531	1	1	0	0	0.12322	0.054654	0.18986	0.16744	0.087527	0.12987	0.092925	0.12151	0.15472	0.087867	0.24754	0.15369	0.37133	0.23107	0.10207	0.09434	-2.4125	-2.9729	-2.5917	-2.8292	-2.7562	-2.7313	-3.1333	-2.725	-2.8479	-2.9604	-2.4375	-2.9979	-2.825	-2.6208	-2.9688	-2.6562	158.019	468.287	477.511	229.763	395.673	358.509	440.831	435.508	255.735	375.223	475.059	382.777	374.383	486.127	354.945	427.493	0.0014276	0.00015772	0.00011048	490.06	5.1692e-06	4.2335e-06	639.41	149.39	4.4813e-08	2.3581e-06	234.23	102.18	60.738	31.98	8.4793e-07	53.081	0.00015123	0.00010517	2.8471e-05	438.59	1.309e-06	1.162e-06	581.17	136.84	1.3256e-06	1.1134e-06	212.39	93.149	55.347	29.339	1.1012e-06	48.397	339.041	267.754	247.227	140.656	308.520	222.144	140.176	146.889	332.575	276.192	144.867	149.204	150.497	154.973	234.014	151.817	-8191	255	
1773.627	1	1	0	0	0.36555	0.088537	0.1196	0.21192	0.016675	0.063704	0.34184	0.07052	0.20173	0.23282	0.14307	0.10806	0.11553	0.021489	0.25013	0.13293	-2.3625	-2.8021	-2.5875	-2.7687	-2.8312	-2.6333	-3.1813	-2.7396	-2.7313	-3.1792	-2.6021	-3.1208	-2.9208	-2.5771	-3.1437	-2.6	182.644	315.448	328.869	316.429	185.464	469.418	444.173	160.178	337.951	139.057	219.536	226.175	354.786	263.807	210.946	427.470	0.0013202	0.00059991	0.00011319	485.1	1.4734e-06	6.2646e-06	646.2	148.28	3.6912e-06	4.9098e-06	232.78	101.03	59.563	31.035	5.4282e-06	51.956	0.00014437	0.00010091	2.9992e-05	440.04	1.1607e-06	1.1722e-06	588.15	136.45	1.2986e-06	1.1045e-06	211.99	91.452	54.117	28.458	1.2309e-06	47.367	336.018	175.674	187.450	140.363	229.441	326.056	140.134	146.163	238.427	330.308	144.526	148.747	150.157	154.894	285.828	152.314	-8191	255	
1773.724	1	1	0	0	0.13181	0.12288	0.015564	0.24839	0.14272	0.22757	0.22874	0.12652	0.064656	0.17755	0.31711	0.041874	0.25449	0.31848	0.2316	0.1937	-2.3583	-2.9917	-2.5125	-2.9104	-2.9021	-2.7021	-3.1542	-2.7646	-2.5854	-3.0312	-2.7979	-2.8104	-3.1771	-2.7479	-2.9292	-2.9833	388.619	205.933	140.297	352.473	163.633	216.050	423.555	445.047	261.345	208.264	445.482	319.513	392.041	456.415	208.487	448.246	0.001387	0.00048584	5.7607e-05	486.7	3.1016e-06	5.4457e-07	653.37	149.2	2.2913e-06	6.53e-06	237.25	102.59	59.801	30.942	4.7474e-06	51.616	0.00014077	9.6989e-05	3.3053e-05	443.07	1.2106e-06	1.1383e-06	595.17	137.1	1.2138e-06	1.0833e-06	215.92	92.872	54.506	28.426	1.3466e-06	47.235	336.608	211.555	265.936	140.439	292.835	249.187	140.159	146.147	193.787	299.486	144.507	149.335	151.086	155.274	312.520	152.282	-8191	255	
1773.820	1	1	0	0	0.1169	0.048582	0.099691	0.2049	0.072723	0.11427	0.048571	0.079101	0.205	0.14997	0.30487	0.1179	0.24058	0.26573	0.14547	0.37104	-2.2854	-3.0917	-2.5687	-2.8542	-2.9333	-2.575	-3.0042	-2.8917	-2.5812	-2.8521	-2.8646	-2.7354	-2.8104	-2.7083	-3	-3.0292	150.420	466.296	257.151	426.693	249.363	414.049	376.815	374.732	242.075	180.466	372.383	439.720	391.858	464.266	458.400	421.547	0.0013566	0.00038856	4.1724e-05	488.44	1.2292e-06	3.7558e-06	640.05	145.54	5.9434e-06	2.5621e-06	227.22	99.313	58.69	30.245	6.3089e-06	50.069	0.00013738	0.00010272	3.481e-05	440.25	1.1208e-06	1.1663e-06	583.27	133.55	1.1591e-06	1.139e-06	207.03	89.641	53.181	27.683	1.3778e-06	45.798	337.376	202.027	269.405	140.445	179.175	240.866	140.571	146.497	225.681	256.264	144.375	148.799	150.619	155.268	312.803	152.074	-8191	255	
1773.916	1	1	0	0	0.23908	0.050242	0.32483	0.229	0.0078197	0.12154	0.18587	0.14901	0.18251	0.11057	0.10892	0.051386	0.17296	0.13251	0.14783	0.25743	-2.3021	-2.9833	-2.8646	-2.6042	-3.0167	-2.7021	-2.9813	-3.1771	-2.3917	-3.0187	-2.8729	-2.775	-3.0958	-2.5417	-2.8021	-2.9458	323.425	256.808	301.185	362.542	352.384	230.851	452.041	355.240	175.343	433.242	188.691	370.141	130.742	413.722	367.653	446.912	0.0013818	0.0001012	1.9542e-05	482.88	2.3312e-06	3.8842e-06	633.25	144.46	5.0374e-06	5.2187e-06	226.19	99.186	58.578	30.054	6.0608e-06	50.513	0.00013475	0.00011014	3.456e-05	436.07	1.0689e-06	1.2355e-06	580.58	132.53	1.1417e-06	1.2616e-06	206.72	89.691	53.193	27.617	1.3622e-06	46.071	337.133	224.942	245.854	140.586	296.726	296.047	140.237	146.285	245.294	258.443	144.473	148.840	150.514	154.869	282.639	152.083	-8191	255	
1774.037	1	1	0	0	0.14435	0.049715	0.09239	0.1151	0.18807	0.40484	0.26439	0.22112	0.10831	0.32844	0.14373	0.18254	0.23123	0.16684	0.21268	0.11676	-2.2687	-2.9167	-2.7667	-2.6917	-3.0771	-2.7938	-2.7521	-2.9125	-2.5979	-2.9	-2.925	-2.6354	-2.9542	-2.5687	-2.7604	-2.9938	247.756	427.189	204.760	383.414	169.990	388.330	420.890	460.442	182.475	229.628	131.681	486.574	382.192	415.005	207.644	146.646	0.0014142	0.00039753	0.00012285	489.45	3.0079e-06	4.8317e-06	647.8	146.91	6.1868e-06	4.222e-06	230.01	99.749	59.733	30.471	3.3524e-06	51.322	0.00013418	0.00012101	3.3591e-05	440.56	1.0926e-06	1.3601e-06	590.05	134.39	1.1708e-06	1.3533e-06	210.07	90.923	54.085	27.941	1.3335e-06	46.593	338.753	175.537	207.957	140.761	282.139	261.118	140.187	146.487	236.992	266.036	144.512	148.989	150.327	155.164	225.550	152.287	-8191	255	
1774.131	1	1	0	0	0.18726	0.066934	0.14186	0.13158	0.22049	0.16362	0.19656	0.27156	0.25053	0.12955	0.13042	0.093034	0.066042	0.30918	0.15177	0.074918	-2.2271	-3.0438	-2.8	-2.5312	-2.9146	-2.6479	-2.9458	-3.0167	-2.4646	-3.0042	-2.8708	-2.6125	-2.9688	-2.875	-2.6562	-3.1521	210.232	478.744	320.501	484.805	425.854	469.274	436.053	410.361	350.101	471.640	171.571	474.999	157.362	144.046	193.707	386.302	0.0013815	0.00053171	4.5927e-05	502.02	2.1147e-06	7.6487e-07	649.23	148.48	4.8991e-06	3.9646e-06	229.39	101.12	60.048	30.753	5.6459e-06	51.414	0.0001434	0.00013406	3.2685e-05	446.24	1.21e-06	1.4244e-06	591.98	135.28	1.2721e-06	1.3989e-06	208.95	91.172	54.283	28.217	1.2478e-06	46.746	334.277	251.741	194.278	141.164	363.693	380.659	140.300	146.207	240.074	375.720	144.471	148.954	150.656	155.162	292.336	151.938	-8191	255	
1774.204	1	1	0	0	0.17362	0.13103	0.059587	0.043707	0.14371	0.024818	0.13106	0.21865	0.040687	0.1043	0.10327	0.31292	0.27131	0.19858	0.23195	0.066956	-2.2271	-2.7271	-2.7646	-2.5146	-3.0146	-2.6875	-2.675	-2.9271	-2.525	-3.0062	-2.9854	-2.6375	-3.2667	-2.7917	-2.6583	-2.95	455.983	364.876	282.097	160.796	180.104	458.574	455.280	363.492	153.621	330.835	459.822	462.413	342.628	415.782	370.025	173.871	0.0014028	0.00025612	8.7998e-05	499.32	6.4578e-07	2.7369e-06	634.32	148.33	3.7219e-06	1.9125e-06	230.15	99.884	60.053	30.922	4.7326e-06	51.973	0.00014949	0.0001255	3.0629e-05	441.79	1.3074e-06	1.3429e-06	581.41	135.36	1.3815e-06	1.3576e-06	209.04	91.055	54.741	28.514	1.2546e-06	47.215	338.889	182.625	198.769	141.001	342.998	254.621	140.764	146.390	166.007	256.101	144.875	148.830	150.667	155.215	288.224	152.385	-8191	255	
1774.323	1	1	0	0	0.29422	0.22747	0.14989	0.11346	0.20106	0.067855	0.044252	0.085846	0.23965	0.19211	0.082583	0.2175	0.0375	0.13535	0.033899	0.56545	-2.275	-2.8083	-3.0042	-2.5021	-2.9854	-2.7687	-2.8812	-3.0333	-2.7292	-2.7792	-3.0417	-2.7417	-2.8208	-3.0563	-2.5729	-3.2	244.110	206.535	131.467	191.918	272.490	469.205	380.864	314.494	307.940	361.427	481.406	360.002	458.739	459.106	393.888	426.635	0.0015254	0.00049164	0.00013432	496.26	2.1175e-06	3.5646e-06	647.9	150.08	6.6304e-06	6.0869e-06	236.5	102.76	62.013	32.033	4.8387e-06	53.243	0.00016405	0.00012062	2.9653e-05	443.08	1.4329e-06	1.3054e-06	589.15	138.07	1.4566e-06	1.3062e-06	214.15	93.48	56.357	29.389	1.2199e-06	48.586	338.692	217.886	198.975	140.968	291.486	247.971	140.501	146.513	247.731	306.406	144.851	149.241	151.144	155.469	301.424	152.050	-8191	255	
1774.419	1	1	0	0	0.328	0.26574	0.32961	0.077818	0.16693	0.18613	0.072213	0.17673	0.12629	0.16716	0.19656	0.2153	0.48847	0.1286	0.078571	0.18768	-2.2938	-2.7458	-2.9813	-2.5062	-2.8458	-2.8375	-2.6688	-3.2188	-2.6312	-2.8854	-3.0896	-2.7875	-2.8667	-2.8792	-2.4917	-3.1229	460.243	246.591	181.920	407.413	450.844	262.623	477.007	366.571	166.206	226.125	211.105	458.862	308.102	389.870	375.703	131.451	0.0013054	0.00050178	4.8684e-05	500.65	1.4419e-06	1.7118e-06	652.07	153.33	2.9865e-06	4.2586e-06	234.86	103.85	61.564	32.323	4.9144e-06	53.382	0.0001631	0.0001184	2.9973e-05	449.59	1.4417e-06	1.2151e-06	592.83	140.17	1.4237e-06	1.2753e-06	214.26	93.867	56.454	29.585	1.1759e-06	48.599	339.509	259.478	294.075	141.225	236.915	231.785	140.183	146.449	221.248	287.907	144.380	148.800	150.432	155.257	205.279	152.365	-8191	255	
1774.516	1	1	0	0	0.19733	0.12153	0.31771	0.083497	0.108	0.2819	0.27422	0.18197	0.071734	0.10165	0.046163	0.10908	0.27228	0.068607	0.057318	0.26273	-2.25	-2.4104	-2.9604	-2.6562	-2.8	-2.9583	-2.65	-3.0875	-2.7458	-2.5979	-3.1688	-2.7562	-2.7271	-3.1417	-2.5729	-3.0729	342.906	263.143	286.472	275.336	388.365	441.859	467.609	441.180	415.727	244.474	349.900	452.392	413.949	461.751	260.627	401.568	0.0013783	0.00029736	0.00010764	492.26	4.5253e-06	1.3273e-06	648.63	153.59	4.0324e-06	1.4495e-06	238.77	105.13	63.357	32.87	9.8132e-06	54.871	0.00015689	0.00011135	2.9318e-05	446.89	1.4152e-06	1.2074e-06	590.13	140.98	1.343e-06	1.2183e-06	217.16	95.479	57.543	30.265	1.2325e-06	49.969	340.292	236.282	203.813	140.843	285.688	264.485	140.311	146.444	312.378	318.278	144.631	148.836	150.593	155.145	273.177	152.418	-8191	255	
1774.636	1	1	0	0	0.23195	0.25481	0.14904	0.088269	0.29171	0.24106	0.25345	0.25762	0.16051	0.16656	0.11063	0.14025	0.22324	0.2211	0.24889	0.35607	-2.3208	-2.4667	-2.9	-2.65	-2.8104	-3.1479	-2.7729	-3.0333	-3.0354	-2.4458	-3.0896	-2.825	-2.6125	-3.2	-2.4125	-3.0646	451.657	355.713	340.745	308.408	242.703	390.701	244.710	194.214	269.634	476.864	467.620	137.879	156.972	197.387	159.187	471.456	0.0012332	0.00018518	0.00019229	501.03	1.3397e-06	3.9922e-06	655.63	158.02	6.4144e-06	4.7764e-06	245.65	108.29	65.311	33.895	8.7439e-06	56.714	0.00015091	0.00011055	3.1288e-05	453.08	1.2883e-06	1.1626e-06	599.32	144.79	1.2751e-06	1.2043e-06	224.16	98.38	59.437	31.151	1.3606e-06	51.674	343.648	262.766	196.257	140.491	321.142	297.105	140.336	146.555	251.702	252.428	144.453	148.901	150.797	155.071	298.743	152.630	-8191	255	
1774.732	1	1	0	0	0.10144	0.066142	0.18559	0.077286	0.0934	0.15845	0.14885	0.064907	0.034383	0.23999	0.21504	0.041647	0.089656	0.21086	0.23356	0.17893	-2.4437	-2.5521	-3.0833	-2.6479	-2.7146	-3.125	-2.7271	-2.7979	-2.9667	-2.7354	-3.0812	-2.7646	-2.7792	-3.0062	-2.7083	-2.8812	194.496	402.628	194.250	411.895	192.540	436.467	381.754	443.848	163.515	309.042	464.371	409.520	469.903	455.883	149.880	286.956	0.001588	0.00045314	9.3556e-05	501.08	2.1912e-06	5.0022e-06	667.26	162.59	5.516e-06	1.546e-07	255.38	113.29	68.445	35.455	5.0905e-06	58.654	0.00014878	0.00011039	3.3824e-05	455.65	1.2751e-06	1.1327e-06	610.58	149.43	1.243e-06	1.1985e-06	232.9	102.61	62.208	32.483	1.4866e-06	53.349	337.317	165.619	483.152	141.070	234.288	299.971	140.745	146.666	232.279	461.136	144.615	148.873	151.015	154.841	272.805	152.240	-8191	255	
1774.828	1	1	0	0	0.1144	0.081359	0.050162	0.082708	0.19315	0.10795	0.1489	0.19236	0.052177	0.11183	0.055315	0.091806	0.14868	0.18229	0.099269	0.088321	-2.7021	-2.5208	-2.8729	-2.7875	-2.6021	-3.0438	-2.8875	-2.8312	-3.0833	-2.7687	-2.7938	-2.9437	-2.7396	-2.9479	-2.8667	-2.9042	155.484	244.338	207.945	486.309	405.558	364.835	271.129	186.711	187.170	273.602	369.012	452.897	331.757	373.601	347.935	250.128	0.0015027	0.00047465	0.00011928	512.14	4.6008e-06	3.4933e-06	666.12	165.17	7.5676e-06	4.435e-06	253.1	112.83	68.955	35.424	2.2853e-06	57.295	0.00014799	0.00011394	3.7414e-05	457.56	1.247e-06	1.1938e-06	609.39	150.85	1.2459e-06	1.2385e-06	231.65	102.06	62.277	32.567	1.4544e-06	52.552	334.434	173.056	196.123	140.682	275.778	288.109	140.933	146.439	238.684	300.077	144.609	148.984	150.367	154.949	269.377	152.196	-8191	255	
1774.900	1	1	0	0	0.12943	0.13744	0.11934	0.19533	0.18203	0.014101	0.22013	0.17595	0.13031	0.1703	0.1532	0.20947	0.098873	0.081053	0.079254	0.26828	-2.625	-2.575	-2.9146	-3.0604	-2.4667	-3.2667	-2.8292	-2.8375	-2.8354	-2.725	-3.0438	-3.1083	-2.6396	-3.0625	-2.9979	-2.7167	480.006	417.577	487.976	467.263	137.179	313.941	477.477	435.223	330.310	230.966	152.909	293.971	415.673	376.113	418.811	472.570	0.0015223	0.00041315	0.00016577	495.94	2.569e-06	1.5964e-06	658.21	163.64	2.3504e-06	4.592e-06	252.41	114.54	68.844	36.086	2.7472e-06	58.389	0.00013997	0.00011806	3.7079e-05	446.55	1.1987e-06	1.2805e-06	598.06	149.78	1.1519e-06	1.3805e-06	231.12	102.93	62.784	33	1.4096e-06	53.163	334.221	201.357	216.955	141.337	302.917	223.682	140.358	146.601	233.319	321.065	144.844	148.862	150.479	155.048	315.527	152.258	-8191	255	
1774.996	1	1	0	0	0.077154	0.025515	0.12717	0.19878	0.061918	0.33145	0.27973	0.27919	0.17813	0.21825	0.18777	0.123	0.31203	0.18534	0.15933	0.31701	-2.7375	-2.6063	-3.0708	-3.0667	-2.6875	-3.0458	-2.8146	-2.7458	-2.8458	-2.8	-2.8312	-3.1271	-2.7417	-3.1021	-2.9313	-2.7917	430.422	334.831	466.900	372.807	197.235	374.149	291.713	404.576	202.602	383.044	250.105	475.949	453.812	487.609	305.127	372.547	0.0015511	0.00054184	1.7296e-05	491.72	4.4059e-06	6.1411e-06	664.38	166.71	6.9047e-06	1.9194e-06	258.92	116.69	71.272	36.613	4.5463e-06	59.38	0.00014244	0.00013097	3.5469e-05	449.39	1.1891e-06	1.4543e-06	604.69	152.65	1.2024e-06	1.4786e-06	235.67	105.31	64.702	33.645	1.3942e-06	54.072	340.294	179.353	276.640	141.735	281.709	241.068	140.672	146.501	291.902	193.511	145.049	148.576	150.560	155.134	305.242	152.378	-8191	255	
1775.117	1	1	0	0	0.17901	0.15147	0.14702	0.10683	0.07247	0.16669	0.13454	0.23574	0.061665	0.16218	0.040885	0.13055	0.17113	0.28071	0.046919	0.25529	-2.6771	-2.725	-2.5771	-2.9917	-2.6125	-2.9625	-2.8458	-2.5083	-3.0229	-2.7	-2.7208	-2.9708	-2.5083	-2.8438	-2.9813	-2.6104	451.344	135.092	445.828	345.230	461.120	174.005	397.094	131.572	447.976	307.533	197.877	472.345	439.502	165.128	340.119	411.704	0.0015377	0.00019052	0.00018657	495.9	3.0333e-06	4.9868e-06	670.74	169.93	5.1453e-06	2.7689e-06	264.13	117.1	71.551	36.817	7.1053e-06	59.59	0.00014909	0.00013626	3.3903e-05	448.2	1.2913e-06	1.4554e-06	611.93	155.55	1.3316e-06	1.4799e-06	239.02	106.17	65.032	33.869	1.2819e-06	54.054	336.015	181.424	177.584	141.906	288.889	261.301	140.621	146.904	233.021	278.207	145.136	148.923	150.654	155.008	295.274	151.976	-8191	255	
1775.211	1	1	0	0	0.27479	0.035926	0.17192	0.22742	0.21953	0.13876	0.21396	0.1872	0.19339	0.2192	0.02094	0.2314	0.20121	0.13515	0.1434	0.098968	-2.5396	-2.8604	-2.5542	-3.0833	-2.6917	-2.875	-3.175	-2.3812	-3.1479	-2.7083	-2.8458	-3.1208	-2.6688	-2.8708	-3.0292	-2.8208	137.915	282.829	233.692	422.647	339.288	277.101	137.295	472.927	419.118	321.915	367.410	312.424	169.852	342.213	253.201	180.368	0.0015416	0.00047946	7.7492e-05	499.89	4.1054e-06	7.4667e-07	657.1	165.21	6.455e-06	1.7552e-06	250.98	113.1	69.354	35.88	4.5457e-06	57.447	0.00015862	0.00013338	3.3549e-05	444.44	1.4193e-06	1.4341e-06	599.24	151.63	1.4152e-06	1.398e-06	229.19	102.48	63.311	32.929	1.2304e-06	52.439	337.222	206.619	310.625	140.953	273.638	239.230	140.211	146.495	243.772	312.140	144.535	148.824	150.450	155.226	285.753	152.020	-8191	255	
1775.309	1	1	0	0	0.24683	0.099813	0.16191	0.050028	0.11536	0.10464	0.16824	0.1901	0.17737	0.033548	0.13974	0.17234	0.22113	0.16291	0.24152	0.32668	-2.6583	-3.0062	-2.3937	-3.2083	-2.6437	-2.8042	-2.9458	-2.4104	-2.7833	-2.8896	-2.6208	-2.9854	-2.8563	-2.8312	-3.0812	-2.9042	276.478	311.705	176.848	424.696	446.276	476.927	431.252	281.640	317.329	443.434	452.624	446.920	444.661	482.304	131.178	399.108	0.0014629	0.00047118	4.9896e-05	498.24	8.5838e-07	8.2006e-07	651.29	162.65	6.4569e-06	4.383e-06	247.4	110.3	67.899	34.814	1.6503e-06	56.02	0.00016384	0.00012788	3.286e-05	446.15	1.5221e-06	1.4002e-06	595.08	148.68	1.5553e-06	1.3405e-06	225.3	99.827	61.437	31.987	1.2317e-06	51.316	343.692	252.377	275.948	141.526	236.652	304.037	140.487	146.330	216.849	272.580	144.847	149.094	150.962	155.211	258.972	152.203	-8191	255	
1775.428	1	1	0	0	0.15864	0.13406	0.23777	0.10052	0.057101	0.12042	0.28399	0.22279	0.13946	0.17474	0.084384	0.33788	0.14544	0.13145	0.12774	0.16161	-2.35	-2.9437	-2.5917	-3.0271	-2.7333	-2.7708	-3.2229	-2.5583	-3.0708	-2.9229	-2.6813	-3.2042	-2.8937	-2.7021	-3.1583	-2.6188	182.899	203.979	287.094	283.670	238.013	378.179	423.346	446.081	403.789	315.806	408.559	468.244	352.534	131.645	332.074	343.963	0.0013583	0.00033978	0.00012159	482.01	4.4208e-06	3.7309e-06	657.48	160.22	5.637e-06	3.5465e-06	245.27	108.81	66.33	34.576	1.9062e-06	56.45	0.00017403	0.00012306	3.2473e-05	443.39	1.5374e-06	1.3633e-06	597.91	146.45	1.4934e-06	1.3139e-06	223.55	98.941	60.552	31.849	1.2285e-06	51.344	339.846	248.556	244.945	140.912	283.017	295.295	140.640	146.747	254.048	290.121	144.458	149.044	150.740	154.781	225.127	152.107	-8191	255	
1775.500	1	1	0	0	0.10816	0.22655	0.1391	0.19834	0.052019	0.13682	0.27419	0.12951	0.14079	0.23229	0.41699	0.20577	0.1026	0.16536	0.08839	0.25579	-2.5271	-2.8521	-2.3688	-2.875	-2.9979	-2.7687	-3.2083	-2.6208	-2.8917	-3.0187	-2.5354	-3.1333	-2.8896	-2.5896	-3.2	-2.8187	272.884	183.950	225.534	311.467	476.587	134.222	460.867	440.733	260.752	170.711	424.251	318.238	150.407	348.796	344.630	399.026	0.0014271	0.00048353	0.00012592	491.31	2.6274e-06	5.365e-06	647.25	157.61	5.4323e-06	2.2444e-06	241.75	107.15	65.955	34.164	5.1117e-06	55.546	0.00016582	0.00011592	3.2541e-05	445.09	1.4362e-06	1.3214e-06	589.82	144.71	1.4112e-06	1.2462e-06	219.62	97.311	59.748	31.518	1.2628e-06	50.561	337.580	225.593	191.410	141.234	321.361	292.905	140.608	146.504	200.120	293.373	144.856	149.085	150.794	154.780	235.469	152.172	-8191	255	
1775.596	1	1	0	0	0.11409	0.18103	0.21937	0.13621	0.12534	0.16176	0.08738	0.38244	0.079134	0.081351	0.11748	0.13782	0.24576	0.1051	0.086264	0.33271	-2.3417	-3.0479	-2.6437	-2.9354	-2.9021	-2.5354	-2.9958	-2.85	-2.8708	-3.1396	-2.6479	-2.9562	-3.1229	-2.6792	-3.1833	-2.875	206.357	208.798	417.068	354.839	301.243	196.013	193.345	371.305	482.712	344.089	193.715	405.246	474.077	169.421	250.452	443.158	0.001364	0.00046099	9.6716e-05	487.89	2.9807e-06	4.4794e-06	643.16	157.09	9.665e-06	2.4259e-06	242.32	106.82	65.452	34.121	2.3304e-06	55.412	0.00015484	0.00010866	3.3118e-05	440.68	1.3339e-06	1.245e-06	587.58	144.74	1.364e-06	1.1728e-06	220.82	97.253	59.588	31.357	1.4091e-06	50.445	340.869	233.195	193.522	141.011	295.025	265.544	140.617	146.649	245.993	267.439	144.820	148.565	150.928	155.014	284.166	152.253	-8191	255	
1775.717	1	1	0	0	0.17188	0.099833	0.23599	0.16393	0.209	0.11074	0.1105	0.15369	0.03016	0.21798	0.2479	0.27356	0.13475	0.23647	0.13828	0.047919	-2.4	-3.0583	-2.7667	-2.8979	-3	-2.6688	-3.0646	-2.6854	-2.7625	-3.0833	-2.9125	-2.975	-3.0312	-2.7417	-2.975	-3.0729	368.590	473.721	435.717	317.217	340.362	331.632	416.931	388.914	159.927	165.007	192.911	182.970	209.882	217.580	329.305	152.174	0.0014885	0.00042416	9.4876e-05	492.83	5.223e-06	3.5959e-06	647.12	159.23	4.5745e-06	4.4656e-06	248.3	109.44	66.302	34.592	7.4067e-06	56.381	0.00015322	0.00010803	3.5618e-05	444.03	1.2628e-06	1.238e-06	594.72	146.16	1.3257e-06	1.2433e-06	224.56	99.023	60.394	31.853	1.4745e-06	51.383	340.571	188.722	187.181	141.208	315.321	239.442	140.562	146.623	171.083	269.595	144.822	148.444	150.614	154.917	272.842	152.047	-8191	255	
#DATA ENDS
