BOXY.EXE: ISS Imagent and Oximeter Data Acquisition Program Version 0.80
Ascii Record File

#ACQ INFORMATION
2  Detector Channels 
16  External MUX Channels 
1  Auxiliary Channels 
5000  Waveform (CCF) Frequency (Hz)
1  Waveforms Skipped 
30  Waveforms Averaged 
1  Cycles Averaged 
16  Acquisitions per Waveform 
10.0806  Updata Rate (Hz) 

#FILE INFORMATION
TRUE -- External MUX Channel results are PARSED.
FALSE -- AC DC and Phase are NOT grouped.
TRUE -- Companion Program Settings File CREATED.
FALSE -- AC data not excluded
FALSE -- DC data not excluded
FALSE -- Phase data not excluded
FALSE -- Auxillary Chn. data not excluded
Tab delimiters

#CALIBRATION STATE
TRUE -- Waveform Calibration Values APPLIED.


#AUX CALIBRATION VALUES
Val Type	aux-1	

Term	1.0000e+00	
Factor	0.0000e+00	


#WF CALIBRATION VALUES
A = Detector Channel
Val Type	A-AC1	A-AC2	A-AC3	A-AC4	A-AC5	A-AC6	A-AC7	A-AC8	A-AC9	A-AC10	A-AC11	A-AC12	A-AC13	A-AC14	A-AC15	A-AC16	A-DC1	A-DC2	A-DC3	A-DC4	A-DC5	A-DC6	A-DC7	A-DC8	A-DC9	A-DC10	A-DC11	A-DC12	A-DC13	A-DC14	A-DC15	A-DC16	A-Ph1	A-Ph2	A-Ph3	A-Ph4	A-Ph5	A-Ph6	A-Ph7	A-Ph8	A-Ph9	A-Ph10	A-Ph11	A-Ph12	A-Ph13	A-Ph14	A-Ph15	A-Ph16	

Term	0.00000e+00	0.00000e+00	0.00000e+00	0.00000e+00	0.00000e+00	0.00000e+00	0.00000e+00	0.00000e+00	0.00000e+00	0.00000e+00	0.00000e+00	0.00000e+00	0.00000e+00	0.00000e+00	0.00000e+00	0.00000e+00	0.00000e+00	0.00000e+00	0.00000e+00	0.00000e+00	0.00000e+00	0.00000e+00	0.00000e+00	0.00000e+00	0.00000e+00	0.00000e+00	0.00000e+00	0.00000e+00	0.00000e+00	0.00000e+00	0.00000e+00	0.00000e+00	0.00000e+00	0.00000e+00	0.00000e+00	0.00000e+00	0.00000e+00	0.00000e+00	0.00000e+00	0.00000e+00	0.00000e+00	0.00000e+00	0.00000e+00	0.00000e+00	0.00000e+00	0.00000e+00	0.00000e+00	0.00000e+00	
Factor	1.00000e+00	1.00000e+00	1.00000e+00	1.00000e+00	1.00000e+00	1.00000e+00	1.00000e+00	1.00000e+00	1.00000e+00	1.00000e+00	1.00000e+00	1.00000e+00	1.00000e+00	1.00000e+00	1.00000e+00	1.00000e+00	1.00000e+00	1.00000e+00	1.00000e+00	1.00000e+00	1.00000e+00	1.00000e+00	1.00000e+00	1.00000e+00	1.00000e+00	1.00000e+00	1.00000e+00	1.00000e+00	1.00000e+00	1.00000e+00	1.00000e+00	1.00000e+00	X	X	X	X	X	X	X	X	X	X	X	X	X	X	X	X	

B = Detector Channel
Val Type	B-AC1	B-AC2	B-AC3	B-AC4	B-AC5	B-AC6	B-AC7	B-AC8	B-AC9	B-AC10	B-AC11	B-AC12	B-AC13	B-AC14	B-AC15	B-AC16	B-DC1	B-DC2	B-DC3	B-DC4	B-DC5	B-DC6	B-DC7	B-DC8	B-DC9	B-DC10	B-DC11	B-DC12	B-DC13	B-DC14	B-DC15	B-DC16	B-Ph1	B-Ph2	B-Ph3	B-Ph4	B-Ph5	B-Ph6	B-Ph7	B-Ph8	B-Ph9	B-Ph10	B-Ph11	B-Ph12	B-Ph13	B-Ph14	B-Ph15	B-Ph16	

Term	0.00000e+00	0.00000e+00	0.00000e+00	0.00000e+00	0.00000e+00	0.00000e+00	0.00000e+00	0.00000e+00	0.00000e+00	0.00000e+00	0.00000e+00	0.00000e+00	0.00000e+00	0.00000e+00	0.00000e+00	0.00000e+00	0.00000e+00	0.00000e+00	0.00000e+00	0.00000e+00	0.00000e+00	0.00000e+00	0.00000e+00	0.00000e+00	0.00000e+00	0.00000e+00	0.00000e+00	0.00000e+00	0.00000e+00	0.00000e+00	0.00000e+00	0.00000e+00	-5.38156e+01	-1.31042e+02	-1.24433e+02	-1.81592e+02	-5.12389e+01	-6.77519e+01	-1.57010e+02	-1.62015e+02	-4.49559e+01	-6.47779e+01	-1.71977e+02	-1.70149e+02	-1.79453e+02	-1.77250e+02	-5.57634e+01	-1.50141e+02	
Factor	2.03653e-05	1.65828e-04	4.62255e-05	1.62462e-01	1.69913e-06	1.87841e-06	1.83249e-01	6.39994e-02	1.44152e-06	1.88062e-06	8.71469e-02	2.95149e-02	3.17034e-02	9.42612e-03	1.54103e-06	1.33165e-02	8.12842e-06	1.10171e-05	3.07108e-06	8.26260e-02	1.14284e-07	1.22168e-07	8.76959e-02	3.26199e-02	1.15569e-07	1.22005e-07	4.32266e-02	1.46927e-02	1.64001e-02	4.85771e-03	1.18033e-07	6.63519e-03	X	X	X	X	X	X	X	X	X	X	X	X	X	X	X	X	



#DISTANCE SETTINGS
A = Detector Channel
A-1	A-2	A-3	A-4	A-5	A-6	A-7	A-8	A-9	A-10	A-11	A-12	A-13	A-14	A-15	A-16	

2.5000e+00	3.0000e+00	2.5000e+00	3.0000e+00	2.0000e+00	3.0000e+00	1.5000e+00	3.0000e+00	3.0000e+00	3.0000e+00	3.0000e+00	3.0000e+00	3.0000e+00	3.0000e+00	1.5000e+00	3.0000e+00	

B = Detector Channel
B-1	B-2	B-3	B-4	B-5	B-6	B-7	B-8	B-9	B-10	B-11	B-12	B-13	B-14	B-15	B-16	

1.0000e+01	1.0000e+01	1.0000e+01	1.4400e+00	1.0000e+01	1.0000e+01	1.5100e+00	1.9400e+00	1.0000e+01	1.0000e+01	1.9900e+00	2.4900e+00	2.4100e+00	2.9000e+00	1.0000e+01	2.9800e+00	




#DATA BEGINS
time	group	step	mark	flag	A-AC1	A-AC2	A-AC3	A-AC4	A-AC5	A-AC6	A-AC7	A-AC8	A-AC9	A-AC10	A-AC11	A-AC12	A-AC13	A-AC14	A-AC15	A-AC16	A-DC1	A-DC2	A-DC3	A-DC4	A-DC5	A-DC6	A-DC7	A-DC8	A-DC9	A-DC10	A-DC11	A-DC12	A-DC13	A-DC14	A-DC15	A-DC16	A-Ph1	A-Ph2	A-Ph3	A-Ph4	A-Ph5	A-Ph6	A-Ph7	A-Ph8	A-Ph9	A-Ph10	A-Ph11	A-Ph12	A-Ph13	A-Ph14	A-Ph15	A-Ph16	B-AC1	B-AC2	B-AC3	B-AC4	B-AC5	B-AC6	B-AC7	B-AC8	B-AC9	B-AC10	B-AC11	B-AC12	B-AC13	B-AC14	B-AC15	B-AC16	B-DC1	B-DC2	B-DC3	B-DC4	B-DC5	B-DC6	B-DC7	B-DC8	B-DC9	B-DC10	B-DC11	B-DC12	B-DC13	B-DC14	B-DC15	B-DC16	B-Ph1	B-Ph2	B-Ph3	B-Ph4	B-Ph5	B-Ph6	B-Ph7	B-Ph8	B-Ph9	B-Ph10	B-Ph11	B-Ph12	B-Ph13	B-Ph14	B-Ph15	B-Ph16	aux-1	digaux	

21757.900	1	1	0	256	0.21198	0.21309	0.1506	0.23654	0.026998	0.060214	0.2533	0.15983	0.1598	0.086175	0.090541	0.082686	0.25834	0.29028	0.068265	0.11555	-2.1937	-2.2271	-2.3	-2.8625	-2.2833	-2.2917	-2.6562	-2.2625	-2.5958	-2.3646	-2.2729	-2.6729	-2.1917	-2.3	-2.3542	-2.0875	-108.339	192.375	111.659	143.103	-124.774	62.234	102.541	-67.566	-45.698	140.569	2.137	55.475	162.560	-129.229	184.077	159.798	0.00041489	0.00051199	0.00014066	1416.3	4.6243e-06	6.6001e-06	1400.3	380.67	4.2142e-06	6.4794e-06	432.69	142.95	124.46	42.823	3.5814e-06	52.54	0.00039667	0.00037256	0.00010318	1440.2	4.0238e-06	4.0784e-06	1425.6	388.86	3.9939e-06	4.0808e-06	441.58	147.23	128.27	44.16	4.0672e-06	54.175	-80.315	-60.130	-61.864	-135.919	14.840	-6.000	-136.159	-131.590	9.344	-7.300	-131.886	-127.544	-127.270	-122.606	-6.425	-123.303	-8191	255	
21757.996	1	1	0	0	0.26311	0.19397	0.24884	0.30061	0.17563	0.42361	0.18171	0.052581	0.077092	0.10669	0.29072	0.23429	0.23603	0.0685	0.11354	0.21754	-2.1312	-2.3583	-2.0187	-2.6604	-2.1854	-2.3479	-2.6542	-2.1854	-2.3563	-2.3917	-2.1729	-2.5625	-2.3521	-2.3875	-2.5792	-2.3146	-27.319	176.334	96.934	-129.742	84.889	-16.611	163.458	83.529	-9.342	77.218	143.801	208.679	193.561	-63.115	65.747	-101.035	0.00041167	0.00036916	0.00013013	1414.8	5.9568e-06	5.3474e-06	1404.7	380.58	2.338e-06	7.6525e-06	432.05	143.92	124.85	42.899	4.2653e-06	52.635	0.00040114	0.00036726	0.0001027	1440.1	4.1821e-06	4.0634e-06	1428.2	388.61	4.1781e-06	4.0775e-06	441.87	147.63	128.39	44.203	4.081e-06	54.223	-82.476	-65.822	-56.238	-135.845	8.976	-18.287	-135.967	-131.255	11.093	15.397	-131.921	-127.250	-127.272	-122.419	18.355	-123.342	-8191	255	
21758.092	1	1	0	0	0.15076	0.13492	0.06624	0.081265	0.06437	0.1151	0.073857	0.30034	0.12966	0.22356	0.31187	0.31011	0.13706	0.27293	0.17008	0.23817	-2.1125	-2.3771	-2.175	-2.7	-2.1833	-2.2875	-2.7062	-2.1333	-2.3979	-2.35	-2.2521	-2.6688	-2.3458	-2.2771	-2.5021	-2.4583	167.550	107.073	134.225	-100.658	-130.809	-80.378	128.047	178.620	124.125	-8.280	192.855	142.590	59.617	-127.940	-109.997	135.854	0.00042476	0.00083586	0.00011573	1414.7	5.7665e-06	4.6572e-06	1406.7	380.24	4.9814e-06	4.9866e-06	432.52	143.94	125.11	42.722	4.7159e-06	52.843	0.00040505	0.00038427	0.00010438	1441.1	4.1883e-06	4.0092e-06	1429.1	389.02	4.1557e-06	4.0821e-06	442.25	147.76	128.33	44.122	4.0869e-06	54.276	-83.585	-69.486	-56.717	-135.992	-20.157	-13.388	-135.848	-131.324	-16.413	-3.889	-131.778	-127.539	-126.844	-122.444	-12.847	-123.287	-8191	255	
21758.213	1	1	0	0	0.2925	0.16731	0.082004	0.33501	0.18658	0.15325	0.15828	0.39698	0.25201	0.16704	0.079915	0.14868	0.26484	0.3564	0.040158	0.34162	-2.0771	-2.4896	-2.1646	-2.8146	-2.3833	-2.3812	-2.85	-2.4146	-2.4771	-2.4375	-2.3396	-2.5771	-2.5125	-2.1542	-2.6729	-2.3458	-113.396	-116.913	-29.275	48.412	151.014	79.806	136.323	159.519	46.250	-137.476	173.629	179.941	104.412	113.241	127.281	-148.415	0.00043181	0.00034941	0.00019432	1417.1	4.1559e-06	5.0334e-06	1401.6	379.37	3.6042e-06	5.6061e-06	432.95	143.75	124.87	42.635	3.3718e-06	52.791	0.00040776	0.00037263	0.00010518	1440.1	4.1361e-06	4.1094e-06	1426.6	388.73	4.1858e-06	4.0818e-06	441.83	147.51	128.02	44.046	4.1193e-06	54.23	-80.830	-78.126	-72.899	-135.946	16.754	-15.720	-135.903	-131.274	28.243	-4.554	-131.810	-127.398	-127.043	-122.608	4.074	-123.225	-8191	255	
21758.309	1	1	0	0	0.091002	0.04554	0.26475	0.41614	0.36586	0.24853	0.48579	0.19421	0.1408	0.12644	0.20936	0.10809	0.1416	0.087848	0.19104	0.24568	-1.8208	-2.4813	-2.0854	-2.5896	-2.3458	-2.0917	-2.7604	-2.3458	-2.2854	-2.5187	-2.3667	-2.4313	-2.5208	-2.4167	-2.7333	-2.6312	156.827	116.115	150.238	138.508	-41.583	162.053	172.601	75.148	-57.262	13.107	201.454	-79.820	-131.782	100.598	92.522	161.640	0.00043118	0.00053891	0.0001739	1420.3	5.3093e-06	6.2386e-06	1399.4	380.1	4.5616e-06	3.8722e-06	433.31	143.16	125.04	42.957	4.1498e-06	52.484	0.00041182	0.00037325	0.00010286	1438.8	4.168e-06	4.085e-06	1425.3	388.49	4.2108e-06	4.0099e-06	441.1	147.28	128.17	44.182	4.063e-06	54.12	-82.229	-60.382	-75.292	-135.915	8.013	5.127	-135.869	-131.361	-9.677	8.574	-131.852	-127.421	-127.016	-122.488	-3.719	-123.240	-8191	255	
21758.404	1	1	0	0	0.1102	0.16066	0.012338	0.24814	0.082101	0.13691	0.2013	0.22699	0.29616	0.080056	0.11735	0.10211	0.25073	0.19866	0.094758	0.17294	-1.7062	-2.5792	-2.0646	-2.5583	-2.6063	-2.1792	-2.675	-2.4375	-2.1208	-2.5938	-2.4354	-2.5042	-2.6688	-2.2812	-2.5521	-2.4854	-111.519	-38.407	-35.405	155.525	-48.104	-48.670	202.203	193.397	-147.470	-16.136	196.602	71.317	101.421	187.911	-35.498	174.527	0.00043489	0.00069328	0.0001046	1411.6	2.7823e-06	3.4835e-06	1395.6	380.09	5.6235e-06	4.0069e-06	430.79	143.46	124.29	42.88	3.5953e-06	52.542	0.00039934	0.0003621	0.00010353	1437.4	4.1999e-06	4.0784e-06	1422.8	388.31	4.1044e-06	3.9418e-06	440.78	147.39	127.94	44.154	4.0864e-06	54.219	-83.447	-65.359	-53.097	-136.065	-21.699	18.645	-135.925	-131.549	-11.630	7.530	-132.019	-127.448	-127.024	-122.501	-26.408	-123.297	-8191	255	
21758.502	1	1	0	0	0.045088	0.34683	0.10461	0.4087	0.11048	0.13956	0.30872	0.096754	0.1127	0.17936	0.20342	0.088279	0.081429	0.16952	0.090142	0.16501	-1.9479	-2.45	-1.8479	-2.5229	-2.4062	-2.2271	-2.6813	-2.65	-2.0479	-2.7562	-2.4604	-2.4542	-2.7792	-2.1458	-2.5396	-2.4021	-12.615	156.359	-90.172	161.529	158.134	45.900	160.648	130.808	-128.392	-102.375	169.071	195.279	89.149	129.800	18.873	122.896	0.00042249	0.00064594	0.00014976	1411.7	4.4696e-06	5.2368e-06	1397.3	379.85	5.396e-06	4.6991e-06	432.47	143.19	124.89	42.751	3.9733e-06	52.417	0.00041184	0.00036205	0.00010475	1434.7	4.2121e-06	4.1099e-06	1424.4	388.61	4.245e-06	4.0943e-06	441.38	147.48	128.01	44.101	4.098e-06	54.147	-82.981	-74.795	-33.428	-136.062	-1.554	3.561	-136.181	-131.391	10.360	10.581	-131.891	-127.491	-126.853	-122.572	-24.202	-123.212	-8191	255	
21758.598	1	1	0	0	0.14954	0.12975	0.08362	0.17093	0.18637	0.13734	0.35109	0.21978	0.38708	0.20998	0.37403	0.20245	0.077606	0.205	0.11035	0.1776	-1.7021	-2.5083	-2.2812	-2.5	-2.6312	-2.15	-2.5208	-2.65	-2.2167	-2.4917	-2.5083	-2.4313	-2.6979	-2.3083	-2.4896	-2.6917	104.658	5.007	74.769	170.353	78.721	-0.832	205.970	184.732	-0.563	118.991	185.447	208.779	-142.474	152.922	108.935	-66.985	0.00043168	0.00058571	0.00012628	1409.7	4.4179e-06	6.5683e-06	1397.2	378.83	4.8659e-06	4.2142e-06	431.44	143.02	124.27	42.827	4.2171e-06	52.776	0.00041294	0.00037938	0.00010568	1436.2	4.1492e-06	4.0214e-06	1425.3	387.59	4.0572e-06	3.8719e-06	441.01	147.19	127.82	44.07	3.9735e-06	54.132	-79.111	-62.324	-51.483	-136.012	8.173	2.626	-135.946	-131.531	0.441	-6.054	-131.811	-127.514	-127.079	-122.625	-3.627	-123.333	-8191	255	
21758.691	1	1	0	0	0.22813	0.24833	0.066816	0.038836	0.18109	0.23079	0.16446	0.16753	0.24199	0.073453	0.18345	0.33495	0.24924	0.033043	0.3468	0.080493	-1.7625	-2.4146	-2.3146	-2.4375	-2.5542	-2.2229	-2.7062	-2.6208	-2.2875	-2.5354	-2.5604	-2.1854	-2.7812	-2.4583	-2.375	-2.7271	-106.745	177.805	-66.888	82.228	27.945	-41.562	138.074	173.983	-99.506	23.738	204.827	173.469	124.244	159.113	31.024	-126.319	0.00042638	0.00060055	0.00011883	1404.6	4.595e-06	5.8591e-06	1393.2	377.18	2.5111e-06	6.0046e-06	430.72	143.1	124.64	42.768	4.3043e-06	52.826	0.00041363	0.00036175	0.00010187	1431.3	4.0314e-06	4.1102e-06	1419.5	386.61	4.1528e-06	3.9616e-06	439.42	147.06	127.76	44.011	4.1383e-06	54.122	-79.216	-59.379	-55.264	-136.013	18.374	0.180	-135.829	-131.219	-2.900	2.403	-131.894	-127.524	-126.824	-122.396	1.643	-123.161	-8191	255	
21758.787	1	1	0	0	0.06445	0.043477	0.085925	0.066573	0.25009	0.22732	0.19492	0.35608	0.30254	0.28321	0.23429	0.15037	0.085733	0.08032	0.044772	0.28206	-1.5958	-2.4333	-2.3729	-2.25	-2.6417	-2.2667	-2.5167	-2.5271	-2.3167	-2.5167	-2.4146	-2.1375	-2.6396	-2.3	-2.1458	-2.6146	-95.522	50.759	-66.648	-136.763	167.551	104.763	134.402	142.863	48.242	-132.987	138.827	125.861	169.538	100.847	9.014	145.848	0.00041209	0.0005676	0.0001768	1409.9	3.6621e-06	7.4518e-06	1397.2	378.32	4.2959e-06	5.844e-06	430.51	143.41	123.86	42.535	3.4678e-06	52.419	0.00041409	0.00036776	0.00010238	1432.4	4.119e-06	4.1077e-06	1419.2	386.8	4.1102e-06	3.9156e-06	439.84	147.09	127.51	43.896	4.0139e-06	54.009	-80.330	-84.621	-35.691	-136.066	3.282	-4.377	-135.982	-131.331	2.175	-22.062	-131.900	-127.556	-127.103	-122.353	-3.358	-123.160	-8191	255	
21758.885	1	1	0	0	0.14527	0.085555	0.1024	0.25662	0.19077	0.11571	0.22682	0.087822	0.16977	0.10623	0.13573	0.038342	0.056251	0.28119	0.15799	0.11199	-1.6979	-2.2583	-2.4604	-2.3354	-2.5438	-2.2854	-2.3354	-2.4875	-2.1188	-2.5438	-2.625	-2.2896	-2.3875	-2.3271	-2.3021	-2.725	124.688	104.602	63.361	180.092	-117.120	-1.884	117.556	17.746	118.315	-30.492	101.948	193.627	-89.653	166.061	84.339	108.562	0.00042136	0.00036818	0.00016533	1407.4	4.7773e-06	5.3481e-06	1391.7	380.3	4.9735e-06	6.4754e-06	429.85	142.94	124.56	42.54	6.1057e-06	52.34	0.00040932	0.0003618	0.00010442	1429.5	4.1085e-06	4.0265e-06	1416	386.78	4.206e-06	4.048e-06	439.22	146.68	127.54	43.916	4.1914e-06	53.902	-81.042	-55.230	-49.517	-135.966	-4.939	17.199	-136.057	-131.245	1.611	12.323	-132.043	-127.297	-127.013	-122.688	7.602	-123.237	-8191	255	
21758.980	1	1	0	0	0.47498	0.13368	0.1068	0.23256	0.073605	0.17303	0.26354	0.22437	0.30916	0.089422	0.20889	0.26967	0.19354	0.088754	0.23559	0.11943	-1.7646	-2.3521	-2.4396	-2.2687	-2.5312	-2.3896	-2.35	-2.825	-2.1917	-2.3917	-2.7	-2.3563	-2.4188	-2.5875	-2.05	-2.5771	-62.562	-118.995	-0.909	167.629	197.312	-99.387	73.861	153.582	-141.947	117.732	159.149	167.609	193.732	90.011	109.332	-30.899	0.00040581	0.00057525	0.00015228	1404.2	3.845e-06	3.997e-06	1390.3	379.15	6.0811e-06	4.3099e-06	429.52	142.49	124.14	42.541	4.0735e-06	52.404	0.00041101	0.00037396	0.00010614	1428.5	4.1802e-06	4.1125e-06	1416.2	386.69	4.1805e-06	4.0945e-06	438.91	146.64	127.54	43.892	4.2465e-06	53.991	-81.130	-76.357	-51.642	-135.988	10.855	12.806	-136.243	-131.316	-8.113	-14.373	-131.727	-127.604	-127.104	-122.625	-0.272	-123.534	-8191	255	
21759.102	1	1	0	0	0.16333	0.21178	0.1364	0.28227	0.11914	0.13424	0.26767	0.28707	0.25963	0.24769	0.20473	0.15743	0.084272	0.11274	0.12364	0.13533	-2.0812	-2.3104	-2.3187	-2.3854	-2.475	-2.5521	-2.4813	-2.6167	-2.525	-2.2583	-2.5479	-2.3208	-2.275	-2.475	-2.125	-2.7	187.351	-100.773	-93.705	-28.172	-108.913	-79.013	204.139	-123.293	149.524	91.104	163.732	168.658	25.101	188.309	-34.846	184.610	0.00042218	0.000603	0.00012282	1400.2	6.5606e-06	5.4654e-06	1393.6	379.03	6.2188e-06	5.6899e-06	429.01	142.51	123.96	42.474	4.8747e-06	52.275	0.00041467	0.00037975	0.00010385	1430	4.2135e-06	4.0794e-06	1417.2	386.53	4.251e-06	4.0262e-06	438.92	146.71	127.15	43.854	4.1695e-06	53.929	-81.574	-65.078	-40.392	-135.968	-4.540	3.336	-135.961	-131.350	-6.352	21.786	-132.011	-127.590	-126.756	-122.249	-7.183	-123.118	-8191	255	
21759.197	1	1	0	0	0.15724	0.07168	0.14991	0.19539	0.12751	0.23191	0.17725	0.2459	0.13904	0.14201	0.1419	0.24511	0.10074	0.179	0.16123	0.17269	-1.8062	-2.1792	-2.6229	-2.4542	-2.3229	-2.5208	-2.3688	-2.7188	-2.4375	-2.1667	-2.6583	-2.3708	-2.3792	-2.7	-2.2833	-2.7146	-36.066	-103.336	171.308	181.952	89.725	49.050	168.459	149.055	-31.293	-133.990	176.389	143.421	-12.611	90.796	-63.816	178.978	0.00041373	0.0006614	0.00017495	1407.2	3.0339e-06	6.0721e-06	1386.7	379.13	3.5709e-06	5.8677e-06	431.83	141.95	123.61	42.632	5.0001e-06	52.091	0.00040674	0.00037458	0.00010193	1429.5	4.1333e-06	4.2257e-06	1415.6	386.13	4.1383e-06	4.0831e-06	438.88	146.42	127.37	43.938	4.113e-06	53.928	-82.927	-62.593	-36.389	-135.847	1.961	14.799	-135.932	-131.393	6.693	6.350	-132.016	-127.504	-127.093	-122.562	7.656	-123.583	-8191	255	
21759.293	1	1	0	0	0.12535	0.068878	0.18607	0.12003	0.14041	0.028217	0.23663	0.16948	0.15013	0.36417	0.19647	0.17608	0.39475	0.10639	0.15412	0.12029	-2.0479	-2.3312	-2.5583	-2.5542	-2.3167	-2.625	-2.2562	-2.5604	-2.5833	-1.9729	-2.625	-2.3146	-2.4833	-2.6958	-2.2687	-2.6417	189.600	-80.560	47.353	-52.937	-17.434	-55.016	-141.981	113.255	4.434	64.434	117.655	0.463	-145.351	-9.486	163.328	60.733	0.00042125	0.00060131	0.00015435	1408.6	2.1759e-06	7.3529e-06	1393.8	379.9	3.6577e-06	5.9e-06	430.38	142.77	123.77	42.698	3.9657e-06	52.368	0.00041189	0.00037793	0.00010596	1429.7	4.1618e-06	4.0987e-06	1419	386.61	4.1444e-06	4.2547e-06	439.55	146.69	127.16	43.829	4.1914e-06	53.889	-78.669	-59.988	-54.888	-136.005	-14.390	17.389	-135.906	-131.381	-10.081	-8.217	-131.726	-127.404	-126.771	-122.595	11.563	-123.366	-8191	255	
21759.389	1	1	0	0	0.30511	0.05001	0.17957	0.24984	0.080066	0.070304	0.22563	0.045549	0.14507	0.17152	0.15546	0.19112	0.10187	0.17785	0.085219	0.21352	-1.9542	-2.1	-2.5333	-2.5125	-2.2917	-2.6021	-2.3104	-2.55	-2.4479	-2.0979	-2.7625	-2.2896	-2.2562	-2.7	-2.25	-2.55	121.841	152.405	-148.056	142.482	152.181	-74.355	133.494	112.335	-115.999	-49.093	180.142	197.500	161.707	151.172	-86.879	-108.289	0.00041726	0.0005622	9.7315e-05	1405.5	5.0775e-06	4.6069e-06	1392.6	377.71	4.8962e-06	5.6824e-06	431.51	142.4	124.13	42.48	7.8115e-06	52.081	0.00041477	0.00038555	0.00010597	1429.5	4.2628e-06	4.1367e-06	1418.1	386.69	4.3507e-06	4.1312e-06	439.36	146.54	127.26	43.784	4.1545e-06	53.732	-79.967	-69.689	-42.042	-135.684	-6.729	-3.839	-135.970	-131.168	-13.737	14.290	-131.946	-127.449	-126.821	-122.269	5.938	-123.044	-8191	255	
21759.484	1	1	0	0	0.06908	0.20548	0.056865	0.37711	0.15263	0.14918	0.20504	0.29829	0.06035	0.080769	0.18913	0.12731	0.13255	0.29838	0.06998	0.27609	-2.0125	-2.0604	-2.4604	-2.4771	-2.2625	-2.6771	-2.2333	-2.4167	-2.5167	-2.1083	-2.55	-2.5417	-2.2583	-2.8771	-2.3	-2.4854	-40.528	103.796	-17.638	201.328	4.488	-141.256	41.893	98.271	85.227	14.766	-121.205	110.870	108.002	200.760	196.257	-94.280	0.00041253	0.00054946	0.00013801	1399.7	2.7591e-06	6.5423e-06	1382.4	374.43	2.9126e-06	6.9073e-06	424.87	141.13	122.43	42.005	4.6436e-06	51.604	0.00040879	0.00037137	0.00010108	1420	4.0785e-06	3.8913e-06	1403.4	383.23	3.8968e-06	3.7916e-06	434.45	144.89	125.75	43.297	3.8417e-06	53.202	-84.959	-77.533	-48.592	-136.019	5.463	17.997	-135.945	-131.262	-8.608	1.051	-131.693	-127.178	-126.851	-122.253	20.072	-123.334	-8191	255	
21759.580	1	1	0	0	0.13737	0.27046	0.16121	0.16948	0.08843	0.21943	0.23164	0.12322	0.29532	0.15107	0.082245	0.092882	0.15601	0.10591	0.24028	0.31136	-2.0354	-2.2354	-2.6396	-2.6771	-2.1354	-2.5958	-2.5354	-2.3021	-2.7313	-2.2771	-2.5687	-2.5375	-2.3812	-2.5687	-2.2542	-2.4208	159.789	122.208	202.957	152.351	-102.826	148.525	172.086	151.667	-123.282	-62.244	-23.192	159.912	43.043	196.187	-146.918	87.410	0.00040731	0.00058265	0.00017046	1382.1	3.1821e-06	5.7862e-06	1373	373.83	5.3193e-06	7.7783e-06	424.96	140.54	121.94	41.89	4.4889e-06	51.743	0.00038984	0.0003576	9.7021e-05	1404.7	3.8588e-06	3.804e-06	1396.2	381.93	4.0774e-06	4.0269e-06	433.83	144.77	125.4	43.165	4.0869e-06	53.315	-81.694	-50.346	-53.565	-135.941	-24.821	-5.648	-135.885	-131.391	-29.236	-11.305	-132.007	-127.635	-127.024	-122.479	-10.363	-123.215	-8191	255	
21759.699	1	1	0	0	0.24263	0.28819	0.35177	0.49516	0.2099	0.037789	0.16175	0.49053	0.18307	0.16841	0.17857	0.25974	0.14796	0.011914	0.083208	0.17893	-2.2271	-2.2375	-2.5167	-2.7646	-2.2104	-2.3396	-2.7271	-2.5292	-2.6917	-2.2354	-2.6375	-2.7042	-2.3104	-2.7313	-2.4083	-2.2646	52.632	206.568	117.259	-134.027	121.365	150.806	165.701	158.742	-145.954	28.473	86.393	192.521	125.182	189.798	14.576	143.657	0.00038783	0.00040273	0.00013203	1386.4	3.7618e-06	3.5181e-06	1376.4	372.93	3.8626e-06	2.885e-06	425.79	140.84	122.85	41.799	4.2749e-06	51.644	0.00041077	0.00037454	0.00010235	1410.1	4.2159e-06	3.9638e-06	1400.5	382.05	4.1453e-06	4.2272e-06	434.86	144.82	125.92	43.193	4.1002e-06	53.262	-85.351	-26.433	-63.240	-135.893	-11.056	-1.279	-136.084	-131.384	-6.566	9.780	-131.600	-127.435	-126.963	-122.518	14.608	-123.101	-8191	255	
21759.797	1	1	0	0	0.050501	0.12475	0.20528	0.24079	0.21601	0.14687	0.16747	0.10627	0.10973	0.27742	0.13715	0.19496	0.18938	0.14891	0.29719	0.16507	-2.3208	-2.2208	-2.5083	-2.7896	-2.2188	-2.4333	-2.8021	-2.2833	-2.6083	-2.5312	-2.3312	-2.6167	-2.3125	-2.6896	-2.4021	-2.2021	-108.778	81.769	91.740	95.802	103.008	-15.768	189.171	148.706	-35.458	-148.124	127.784	-132.481	64.144	-120.844	-27.938	-109.123	0.00042575	0.00055606	7.7021e-05	1389.4	3.5215e-06	3.7138e-06	1379.8	374.3	4.2237e-06	4.4107e-06	426.64	140.92	122.75	41.887	4.1847e-06	51.911	0.00040143	0.00037637	0.00010058	1412.4	4.2488e-06	3.9733e-06	1400.5	382.91	4.0102e-06	3.9403e-06	435.46	145.08	125.91	43.289	4.2089e-06	53.374	-78.674	-67.345	-65.549	-135.879	24.928	-7.953	-135.831	-131.094	0.070	-29.654	-131.725	-127.464	-126.714	-122.368	15.589	-123.268	-8191	255	
21759.893	1	1	0	0	0.10931	0.25474	0.19445	0.2046	0.12904	0.19826	0.41104	0.31147	0.10094	0.10661	0.20025	0.36381	0.041342	0.26807	0.31433	0.20036	-2.0833	-2.2854	-2.0729	-2.7583	-2.1479	-2.4854	-2.5854	-2.2854	-2.4021	-2.1646	-2.2292	-2.7167	-2.2292	-2.4896	-2.525	-2.2896	-100.340	-16.414	-69.425	184.494	-103.845	-3.741	95.761	-112.232	-142.540	-134.439	209.437	147.592	-133.085	-141.299	146.401	-113.346	0.00043429	0.00052969	0.00011943	1394.2	2.8633e-06	4.2855e-06	1385.2	374.72	3.4635e-06	5.0887e-06	427.18	141.77	122.54	42.265	3.9759e-06	51.882	0.00041589	0.00037633	0.00010253	1416.8	4.3085e-06	4.0886e-06	1407.6	383.67	4.2756e-06	4.2837e-06	437.18	145.16	126.38	43.431	4.3276e-06	53.495	-84.207	-65.592	-52.399	-135.998	-1.279	-20.246	-136.003	-131.360	1.745	-17.903	-131.886	-127.389	-127.194	-122.526	23.188	-123.380	-8191	255	
21759.988	1	1	0	0	0.18265	0.041346	0.13492	0.33394	0.041135	0.17776	0.35831	0.20499	0.21795	0.0197	0.14528	0.099188	0.19012	0.29329	0.22301	0.10067	-2.0771	-2.2104	-2.1875	-2.5854	-2.1646	-2.5354	-2.6437	-2.2271	-2.475	-2.3958	-2.3729	-2.65	-2.4167	-2.5146	-2.5458	-2.2292	195.427	-73.160	77.656	188.330	5.385	64.941	168.599	162.639	-27.599	-119.560	72.765	125.190	-142.799	-121.611	-2.926	-64.386	0.00044791	0.0006253	0.00013765	1402.3	5.5549e-06	3.7082e-06	1389.1	377.74	4.1698e-06	4.7171e-06	429.64	142.19	123.2	42.095	4.0859e-06	52.023	0.0004263	0.00039664	0.00010851	1424.8	4.5549e-06	4.3339e-06	1413.3	385.48	4.4778e-06	4.4357e-06	438.33	145.87	126.56	43.48	4.5602e-06	53.572	-77.689	-58.345	-48.282	-135.909	0.330	19.577	-135.928	-131.356	-7.416	18.109	-131.786	-127.526	-127.059	-122.339	5.607	-123.605	-8191	255	
21760.086	1	1	0	0	0.29596	0.41197	0.11645	0.37013	0.56411	0.034248	0.11845	0.19187	0.097559	0.073264	0.21517	0.19107	0.15007	0.12939	0.061223	0.20944	-2.2146	-2.4917	-2.0708	-2.6854	-2.2833	-2.3583	-2.7687	-2.3187	-2.5625	-2.4	-2.2292	-2.6375	-2.3333	-2.4167	-2.5854	-2.4458	151.845	-126.311	-4.751	157.513	154.593	-34.270	138.316	147.642	128.459	-21.716	173.741	167.189	61.890	164.587	-104.961	149.212	0.00041971	0.0004752	0.00013506	1403.6	3.6381e-06	5.7017e-06	1388.9	374.84	2.481e-06	6.5125e-06	429.05	142.11	123.37	42.215	3.9481e-06	51.919	0.00043382	0.00040141	0.0001116	1425.7	4.4407e-06	4.3522e-06	1414.5	384.75	4.3117e-06	4.3823e-06	438.19	146.08	126.67	43.512	4.4134e-06	53.515	-83.768	-82.725	-52.182	-136.017	12.438	-13.433	-135.990	-131.192	-11.145	11.324	-131.808	-127.472	-126.822	-122.445	-13.301	-123.322	-8191	255	
21760.182	1	1	0	0	0.13464	0.14604	0.19664	0.13227	0.25772	0.1421	0.16065	0.22846	0.17418	0.18296	0.23995	0.19737	0.12439	0.19288	0.13588	0.18146	-2.1021	-2.4875	-2.0729	-2.7167	-2.3396	-2.2687	-2.7646	-2.2958	-2.4625	-2.5396	-2.2958	-2.4646	-2.3146	-2.2188	-2.6562	-2.4208	-24.976	192.064	143.131	150.228	-84.090	134.544	149.568	-95.514	111.056	-10.633	158.299	154.910	42.667	145.617	-64.597	68.885	0.00045363	0.0003578	0.00012877	1403.7	4.3629e-06	6.3172e-06	1387	377.46	5.7204e-06	5.9994e-06	429.12	141.37	123.74	42.05	4.9984e-06	51.826	0.00042581	0.00040605	0.00011156	1424.5	4.3233e-06	4.4599e-06	1412	385.9	4.5445e-06	4.3421e-06	438.24	145.69	126.57	43.397	4.2934e-06	53.483	-81.454	-55.640	-59.303	-136.118	9.604	-2.810	-136.017	-131.220	17.647	19.178	-131.422	-127.432	-126.951	-122.553	10.593	-123.331	-8191	255	
21760.303	1	1	0	0	0.020926	0.2637	0.15452	0.30466	0.14373	0.2277	0.10839	0.11016	0.050413	0.12503	0.045455	0.12621	0.042819	0.12772	0.11281	0.021453	-2.0229	-2.4375	-2.0917	-2.7438	-2.4229	-2.2333	-2.7083	-2.425	-2.3854	-2.575	-2.4146	-2.5938	-2.5375	-2.2062	-2.6208	-2.2604	49.122	69.954	-55.182	112.955	79.570	-84.194	129.198	209.177	111.382	51.062	158.879	192.114	102.590	4.457	60.039	-95.999	0.00040884	0.0007011	0.00017039	1398.6	3.5037e-06	3.3786e-06	1388.6	375.72	5e-06	4.3034e-06	427.78	141.39	122.61	42.126	5.2758e-06	51.672	0.00042369	0.00039496	0.00011222	1422.3	4.3864e-06	4.3428e-06	1409.9	384.68	4.3519e-06	4.1195e-06	436.52	145.43	125.82	43.308	4.2467e-06	53.319	-80.482	-60.270	-58.291	-135.962	6.725	2.627	-136.190	-131.216	-1.784	11.233	-131.556	-127.445	-127.194	-122.610	-8.205	-123.413	-8191	255	
21760.398	1	1	0	0	0.12711	0.11153	0.092195	0.23207	0.060341	0.10733	0.3098	0.14501	0.20048	0.1227	0.29361	0.14954	0.098658	0.1185	0.26054	0.04081	-2.1229	-2.5042	-2.1396	-2.6688	-2.525	-2.1771	-2.8083	-2.4625	-2.2583	-2.7479	-2.1729	-2.5938	-2.6167	-2.2062	-2.4604	-2.5271	96.621	-12.156	115.362	173.969	124.538	59.225	163.502	205.994	124.156	-32.216	-114.316	-69.800	-86.325	93.900	-30.385	25.804	0.00042075	0.00069285	0.00013714	1391.4	5.0223e-06	6.5311e-06	1379.8	375.04	4.4057e-06	6.0783e-06	426.94	140.83	123.21	42.116	4.2088e-06	51.657	0.00041516	0.00039028	0.00010711	1415.1	4.3716e-06	4.2148e-06	1405.1	383.38	4.3187e-06	4.2257e-06	436.23	144.98	125.88	43.269	4.1904e-06	53.344	-82.770	-61.064	-50.257	-136.068	-1.748	1.870	-135.966	-131.352	-5.713	-1.638	-131.750	-127.509	-126.929	-122.316	8.190	-123.232	-8191	255	
21760.469	1	1	0	0	0.111	0.13171	0.1417	0.055642	0.18763	0.31118	0.15275	0.24404	0.13732	0.21086	0.36019	0.26789	0.53234	0.28095	0.17791	0.1202	-1.7792	-2.6417	-2.3125	-2.6979	-2.7583	-2.1937	-2.7896	-2.4938	-2.2375	-2.7583	-2.2042	-2.6125	-2.4458	-2.0667	-2.5771	-2.5042	26.037	204.722	189.023	138.558	199.263	62.439	121.288	175.462	202.415	10.657	197.435	-114.895	-141.532	115.427	49.015	104.517	0.00042156	0.0004534	0.00015366	1394.9	4.3218e-06	3.3208e-06	1381.2	374.93	4.6403e-06	5.0573e-06	429.3	141.02	122.43	42.067	3.626e-06	51.926	0.00041252	0.0003732	0.00010608	1416	4.2723e-06	4.2105e-06	1404.8	383.28	4.1899e-06	4.2694e-06	436.53	144.88	125.75	43.281	4.1405e-06	53.389	-80.444	-76.787	-62.612	-135.879	19.233	11.038	-135.884	-131.442	2.736	3.774	-131.645	-127.619	-126.904	-122.355	-7.869	-123.268	-8191	255	
21760.566	1	1	0	0	0.16678	0.27615	0.089713	0.2464	0.041665	0.19372	0.31179	0.11497	0.15461	0.018777	0.19011	0.072135	0.029648	0.037864	0.17909	0.08468	-1.6875	-2.7146	-2.5	-2.4375	-2.5792	-2.2562	-2.55	-2.4146	-2.2208	-2.5521	-2.3646	-2.5292	-2.8958	-2.2333	-2.55	-2.6813	70.295	47.289	156.509	-137.500	70.111	184.182	174.849	-109.605	-75.129	-89.756	203.253	-103.041	-118.401	-43.096	99.872	162.431	0.0004328	0.00057358	0.00015177	1395.7	3.0407e-06	4.745e-06	1381.3	376.25	6.2536e-06	5.0713e-06	430.16	141.18	122.84	41.949	4.5689e-06	51.916	0.00041712	0.00038119	0.00010496	1416.9	4.2799e-06	4.1448e-06	1404.8	384.2	4.3033e-06	4.0874e-06	436.91	145.11	125.82	43.237	4.2241e-06	53.393	-80.520	-52.412	-67.134	-135.928	-15.451	-15.998	-136.116	-131.258	-6.014	-11.931	-131.859	-127.325	-126.910	-122.350	11.548	-123.253	-8191	255	
21760.684	1	1	0	0	0.03357	0.15704	0.044954	0.37853	0.10091	0.49779	0.098012	0.10582	0.22988	0.17454	0.0047889	0.21766	0.057892	0.12855	0.052174	0.40543	-1.6812	-2.5479	-2.1813	-2.4396	-2.7479	-2.2167	-2.6083	-2.7396	-2.0812	-2.5667	-2.4542	-2.4771	-2.7646	-2.2458	-2.3521	-2.6813	-26.218	9.543	124.178	143.095	-23.723	153.663	-121.493	60.572	-146.404	-77.078	112.819	142.942	31.381	-120.960	-49.816	107.942	0.00040277	0.00046081	0.00015969	1391.1	3.5111e-06	4.1864e-06	1383.4	376.2	2.7811e-06	4.2707e-06	428.14	140.97	122.9	42.009	4.0112e-06	51.669	0.00040698	0.00037816	0.00010814	1415.5	4.319e-06	4.2255e-06	1406.9	383.76	4.4246e-06	4.1029e-06	436.82	145.15	125.99	43.263	4.3311e-06	53.379	-80.288	-55.293	-46.164	-135.899	13.245	-33.488	-135.943	-131.234	8.450	4.483	-131.688	-127.461	-126.963	-122.353	-6.062	-123.135	-8191	255	
21760.781	1	1	0	0	0.29105	0.0064449	0.10097	0.39516	0.03951	0.2177	0.15864	0.039767	0.15978	0.29019	0.12325	0.16746	0.18331	0.19526	0.056935	0.17645	-1.6771	-2.3521	-2.3042	-2.3146	-2.4583	-2.5854	-2.5021	-2.6458	-2.1458	-2.5271	-2.4833	-2.4188	-2.7979	-2.3521	-2.4646	-2.6896	171.421	-53.920	84.767	-142.688	-61.979	-61.551	124.118	192.438	-20.403	-67.078	-23.004	-147.776	156.195	-139.350	181.771	162.914	0.00040795	0.00058246	0.00015372	1396.1	5.7809e-06	3.987e-06	1382.6	375.35	4.4618e-06	3.2257e-06	428.26	141.72	122.83	41.915	3.1952e-06	51.916	0.00042259	0.00037121	0.00010878	1418.8	4.2383e-06	4.2102e-06	1408.4	383.67	4.3218e-06	4.1662e-06	436.68	145.33	126.14	43.244	4.2627e-06	53.39	-79.984	-74.477	-50.004	-135.886	7.875	18.778	-135.941	-130.959	-4.317	49.675	-131.868	-127.464	-127.000	-122.337	5.890	-123.274	-8191	255	
21760.877	1	1	0	0	0.21973	0.095279	0.19752	0.17907	0.13691	0.27082	0.28978	0.19389	0.26046	0.26107	0.23988	0.19804	0.17936	0.1429	0.1503	0.21542	-1.6042	-2.5167	-2.3292	-2.4	-2.6188	-2.6542	-2.4625	-2.8458	-2.1521	-2.4479	-2.5125	-2.3104	-2.4167	-2.3333	-2.2708	-2.7562	-68.118	-86.615	-40.363	152.021	167.061	-140.874	169.772	88.223	-148.607	17.017	-149.014	191.819	160.808	181.898	166.749	159.352	0.00038221	0.00043133	9.9986e-05	1398.9	4.9811e-06	6.7924e-06	1385.1	376.11	4.0097e-06	6.717e-06	427.53	141.47	123.2	42.218	4.0089e-06	51.807	0.00040659	0.00038312	0.00010641	1422.5	4.2559e-06	4.2377e-06	1409.7	384.31	4.3793e-06	4.2778e-06	437.46	145.48	126.55	43.368	4.348e-06	53.381	-82.971	-74.390	-55.931	-135.912	-10.389	-0.379	-136.131	-131.317	0.473	-7.740	-131.958	-127.614	-126.810	-122.434	7.946	-123.126	-8191	255	
21760.973	1	1	0	0	0.25582	0.057808	0.22741	0.40568	0.20716	0.10453	0.17741	0.15676	0.16581	0.031413	0.12442	0.19015	0.15935	0.3008	0.10296	0.20872	-1.9104	-2.3979	-2.4458	-2.3646	-2.6542	-2.3625	-2.5604	-2.7375	-2.2146	-2.6667	-2.6688	-2.3208	-2.6	-2.65	-2.1125	-2.6875	60.045	30.140	-36.197	150.889	81.301	-61.887	121.196	151.260	124.890	119.632	194.706	166.742	154.039	-144.630	141.018	127.854	0.00043063	0.00059742	9.9662e-05	1398.9	5.9514e-06	4.7906e-06	1378.2	376.68	3.4976e-06	6.3382e-06	428.89	141.76	123.26	42.244	1.8705e-06	52.071	0.00041927	0.00038562	0.00010871	1423.5	4.403e-06	4.1713e-06	1408.9	385.06	4.3685e-06	4.273e-06	437.61	145.65	126.38	43.37	4.338e-06	53.37	-82.565	-52.606	-87.196	-135.804	4.154	-12.419	-135.818	-131.320	-6.591	-0.334	-131.783	-127.405	-127.072	-122.341	4.933	-123.323	-8191	255	
21761.094	1	1	0	0	0.027066	0.30129	0.18343	0.25228	0.24467	0.11336	0.26138	0.25322	0.23207	0.1907	0.20119	0.078246	0.32175	0.18378	0.11498	0.19015	-1.9312	-2.2458	-2.4208	-2.2854	-2.5958	-2.5146	-2.4188	-2.5917	-2.3812	-2.5146	-2.7771	-2.3396	-2.5271	-2.7333	-2.2083	-2.8438	144.716	-30.225	41.338	155.098	163.671	64.903	80.471	89.902	1.771	-85.965	204.583	-123.649	125.824	102.704	204.233	98.589	0.00040517	0.00049613	0.00017169	1398	6.6575e-06	4.2401e-06	1387	375.79	3.3417e-06	4.7474e-06	430.33	141.65	122.74	42.201	3.5233e-06	51.888	0.0004219	0.00038661	0.00010828	1422.7	4.308e-06	4.2224e-06	1411.4	384.63	4.396e-06	4.2295e-06	438.25	145.61	126.39	43.393	4.3348e-06	53.427	-78.203	-53.066	-62.053	-135.894	-2.637	14.369	-136.041	-131.383	-0.910	-2.262	-131.901	-127.455	-126.956	-122.333	-8.287	-122.984	-8191	255	
21761.164	1	1	0	0	0.16173	0.087281	0.050764	0.16492	0.10339	0.15187	0.066205	0.20515	0.10913	0.15797	0.17842	0.089823	0.052234	0.15459	0.11085	0.17805	-2.0021	-2.3146	-2.5208	-2.4167	-2.375	-2.5667	-2.4792	-2.6979	-2.3458	-2.3542	-2.7167	-2.3958	-2.4979	-2.7292	-2.0687	-2.6479	180.555	77.405	-6.655	163.401	120.063	-104.274	-131.690	91.821	99.660	-81.969	-43.521	50.449	135.981	171.543	48.644	23.884	0.00040216	0.00070236	0.00017041	1402.8	4.4378e-06	5.7922e-06	1388	376.83	4.7848e-06	3.4111e-06	427.75	141.12	123.29	42.065	5.7708e-06	51.91	0.00042876	0.00039602	0.00010756	1423	4.3628e-06	4.2275e-06	1412.1	384.72	4.3264e-06	4.2201e-06	437.15	145.33	126.46	43.372	4.439e-06	53.447	-80.440	-55.078	-51.051	-136.060	-14.985	-21.157	-135.910	-131.111	-13.778	-19.735	-131.773	-127.631	-127.254	-122.590	2.343	-123.310	-8191	255	
21761.262	1	1	0	0	0.055971	0.41616	0.26944	0.20055	0.25536	0.32439	0.038732	0.14407	0.38097	0.16942	0.058455	0.033897	0.095991	0.3467	0.24105	0.036452	-1.8646	-2.2	-2.5854	-2.4562	-2.2333	-2.6063	-2.1458	-2.6729	-2.3542	-2.075	-2.6583	-2.425	-2.3646	-2.6875	-2.2375	-2.5938	54.546	-74.708	-33.294	-131.928	135.764	129.402	136.859	-115.610	185.993	48.235	112.346	127.306	170.504	-97.334	-87.930	-125.148	0.00042167	0.00045169	0.00013242	1396.2	4.9633e-06	4.3276e-06	1389.6	377.13	4.4786e-06	4.9938e-06	430.09	142.25	122.55	42.289	4.517e-06	52.155	0.00040739	0.00039248	0.00010867	1422.6	4.3597e-06	4.2204e-06	1411.8	385.37	4.337e-06	4.3266e-06	438.74	145.78	126.28	43.478	4.4026e-06	53.557	-82.426	-56.462	-49.319	-135.947	-9.504	17.459	-136.166	-131.220	-26.409	0.710	-131.855	-127.505	-127.122	-122.601	-2.411	-123.176	-8191	255	
21761.383	1	1	0	0	0.18219	0.22845	0.054616	0.28551	0.17671	0.16037	0.23581	0.21403	0.13214	0.10443	0.11345	0.27949	0.14943	0.087674	0.19319	0.30424	-1.9125	-2.1479	-2.5875	-2.3646	-2.3458	-2.6646	-2.4896	-2.6625	-2.625	-2.2562	-2.7125	-2.4229	-2.3958	-2.675	-2.1708	-2.5187	12.614	27.751	-125.751	157.518	133.898	-100.130	71.779	46.293	82.705	151.151	-138.031	168.791	119.951	209.560	9.832	45.577	0.00041672	0.00044996	0.00013504	1400.2	4.2091e-06	4.0032e-06	1386.8	377.41	5.1461e-06	6.3132e-06	430.73	141.83	123.26	42.184	2.0415e-06	51.982	0.000422	0.00039886	0.00011096	1422.5	4.4285e-06	4.3418e-06	1410.5	385.93	4.4311e-06	4.2689e-06	438.52	145.54	126.57	43.321	4.3714e-06	53.536	-81.187	-59.527	-58.990	-136.074	-22.610	-33.599	-135.932	-131.152	-11.730	8.380	-131.912	-127.394	-126.902	-122.472	-1.405	-123.362	-8191	255	
21761.479	1	1	0	0	0.38113	0.18166	0.15924	0.11103	0.089649	0.26831	0.22195	0.20587	0.05924	0.21217	0.19901	0.1014	0.22373	0.28009	0.094208	0.28155	-1.9604	-2.0792	-2.5438	-2.5333	-2.3375	-2.7042	-2.475	-2.5083	-2.5938	-2.2125	-2.6771	-2.5833	-2.4271	-2.7271	-2.2667	-2.5438	-60.136	105.980	153.141	131.525	100.816	-107.038	132.128	154.522	-115.364	176.772	207.398	120.402	-134.983	104.253	173.911	176.456	0.00040114	0.00048641	0.00015242	1400.5	3.0163e-06	6.8965e-06	1389.7	377.26	3.6622e-06	5.4888e-06	429.39	141.52	123.34	42.093	4.0724e-06	52.019	0.00042256	0.00040371	0.00010878	1424.7	4.3914e-06	4.3372e-06	1413.3	385.45	4.4041e-06	4.3769e-06	438.18	145.65	126.44	43.416	4.3906e-06	53.438	-84.287	-84.653	-68.534	-135.823	-28.106	4.586	-135.832	-131.296	7.967	20.840	-131.951	-127.497	-126.865	-122.582	-1.183	-123.255	-8191	255	
21761.574	1	1	0	0	0.34869	0.23791	0.14798	0.36866	0.20332	0.087395	0.24891	0.13832	0.22	0.2304	0.16757	0.31061	0.14552	0.24489	0.1794	0.23651	-2.0521	-2.2042	-2.5375	-2.7458	-2.1896	-2.5479	-2.4229	-2.4333	-2.725	-1.9521	-2.6292	-2.6667	-2.125	-2.7313	-2.3792	-2.4688	152.957	54.138	191.698	137.646	58.686	176.316	-129.879	143.363	-86.378	115.810	-135.228	126.495	106.301	197.699	99.153	121.175	0.00040812	0.00056103	0.00015317	1408.1	4.4802e-06	4.8962e-06	1388.4	377.82	4.9618e-06	5.2679e-06	429.87	141.68	123.12	42.096	3.4449e-06	51.76	0.00042259	0.00040017	0.00011168	1425.2	4.4435e-06	4.2983e-06	1411.6	385.68	4.4164e-06	4.3777e-06	438.23	145.78	126.36	43.404	4.3945e-06	53.384	-83.088	-72.072	-42.966	-135.906	-10.906	-14.329	-136.010	-131.357	-16.324	8.913	-131.946	-127.534	-126.923	-122.377	3.099	-123.232	-8191	255	
21761.693	1	1	0	0	0.12193	0.091547	0.094997	0.25092	0.45236	0.19715	0.13783	0.26948	0.069464	0.11632	0.2383	0.093072	0.13682	0.18207	0.12745	0.38768	-2.2083	-2.0563	-2.4958	-2.7375	-1.9896	-2.7771	-2.5375	-2.2687	-2.5854	-2.2	-2.5812	-2.5792	-2.2438	-2.6354	-2.3771	-2.3479	-146.462	-106.661	207.961	-111.928	38.147	-51.211	189.117	108.779	-76.585	82.069	158.376	130.919	112.179	62.509	116.818	142.782	0.00041635	0.00049969	0.00018518	1404.1	3.1655e-06	5.351e-06	1386.7	377.62	2.8248e-06	4.6971e-06	429.2	141.54	123.18	41.997	4.5902e-06	51.933	0.00043245	0.00040167	0.00010953	1425.3	4.4266e-06	4.3288e-06	1412	385.2	4.3637e-06	4.3889e-06	437.82	145.46	126.41	43.398	4.3707e-06	53.483	-81.330	-47.652	-74.538	-135.841	4.443	9.435	-136.060	-131.346	5.994	13.852	-131.788	-127.401	-126.991	-122.056	2.331	-123.326	-8191	255	
21761.766	1	1	0	0	0.12815	0.19107	0.082698	0.29471	0.26459	0.25565	0.40674	0.10175	0.15261	0.12884	0.36073	0.13867	0.12753	0.33957	0.19601	0.10712	-2.1792	-2.3042	-2.3583	-2.7562	-2.3042	-2.6896	-2.6604	-2.375	-2.6542	-2.2625	-2.5708	-2.6354	-2.2604	-2.6729	-2.3896	-2.3854	-100.675	-10.670	-113.627	146.286	181.779	129.261	140.004	180.124	-111.735	-17.596	138.248	177.874	158.481	173.392	106.860	25.867	0.00041514	0.00054962	0.00013194	1399.4	3.5945e-06	3.4129e-06	1390.9	374.5	2.7773e-06	3.7783e-06	431.47	141.82	123.6	42.344	5.9412e-06	51.632	0.00042388	0.00038562	0.00010847	1422.6	4.4533e-06	4.255e-06	1412.3	384.38	4.2898e-06	4.4161e-06	438.66	145.69	126.33	43.424	4.4329e-06	53.386	-81.116	-64.329	-61.266	-136.003	-22.808	-10.613	-136.034	-131.281	-0.706	-32.457	-132.033	-127.579	-127.086	-122.522	-1.839	-123.391	-8191	255	
21761.861	1	1	0	0	0.14814	0.13855	0.17678	0.36683	0.15783	0.15206	0.36592	0.14769	0.25129	0.24152	0.1326	0.19915	0.16952	0.20245	0.29807	0.40133	-2.2562	-2.4583	-2.6229	-2.7562	-2.2708	-2.6104	-2.7042	-2.3271	-2.5104	-2.3583	-2.6396	-2.8521	-2.1521	-2.6271	-2.6083	-2.3729	-68.972	8.337	105.217	184.570	123.418	-86.628	-140.855	151.020	131.393	-9.381	-134.797	72.689	34.214	117.563	-101.252	207.920	0.00042209	0.00045637	0.00016836	1404.1	3.9684e-06	4.6922e-06	1389	377.64	6.1556e-06	3.6223e-06	430.4	141.99	123.77	42.218	5.939e-06	51.918	0.00042999	0.00039939	0.00011048	1424.9	4.4499e-06	4.3444e-06	1412.8	385.21	4.3719e-06	4.3088e-06	437.87	145.74	126.5	43.387	4.364e-06	53.454	-83.740	-60.413	-40.173	-135.936	-36.548	18.298	-136.007	-131.223	4.598	-3.601	-131.949	-127.451	-127.086	-122.502	8.983	-123.188	-8191	255	
21761.957	1	1	0	0	0.14094	0.27192	0.23314	0.26212	0.12568	0.086028	0.34361	0.093353	0.04115	0.10265	0.21062	0.18156	0.15847	0.36162	0.15749	0.076786	-2.3229	-2.3958	-2.2875	-2.7375	-1.9792	-2.5479	-2.6021	-2.1979	-2.6021	-2.5208	-2.4604	-2.7708	-2.2354	-2.5521	-2.3646	-2.4062	208.132	-64.852	164.939	121.041	129.802	24.386	-103.849	130.117	-81.431	184.931	174.500	182.067	200.067	155.098	168.784	133.505	0.00046107	0.00038793	0.000119	1399.8	4.1766e-06	4.674e-06	1390.2	377.03	2.7838e-06	4.122e-06	429.42	141.74	122.53	42.041	4.4343e-06	51.908	0.00042766	0.0004004	0.00011128	1423.1	4.3857e-06	4.3634e-06	1413.4	385.02	4.3285e-06	4.3749e-06	437.83	145.57	126.23	43.306	4.3859e-06	53.42	-80.335	-69.550	-81.700	-135.914	-0.290	7.909	-135.813	-131.355	-12.756	4.614	-131.716	-127.380	-127.004	-122.533	-11.056	-123.126	-8191	255	
21762.078	1	1	0	0	0.23025	0.13151	0.23582	0.41126	0.15632	0.17051	0.22988	0.38241	0.16395	0.18212	0.25513	0.19459	0.36212	0.14042	0.18636	0.2337	-2.1375	-2.2604	-2.2021	-2.6437	-2.1562	-2.4979	-2.7125	-2.2167	-2.5021	-2.4667	-2.3792	-2.725	-2.4917	-2.3792	-2.5583	-2.3479	186.383	191.362	-23.281	165.028	62.257	-58.779	78.889	159.900	151.021	128.442	-138.019	-136.109	200.288	-93.331	-100.872	205.735	0.00044374	0.00057171	0.00019886	1402.9	4.8667e-06	6.158e-06	1389.2	376.81	4.5059e-06	4.9558e-06	430.32	142.41	123.3	42.158	4.6477e-06	51.874	0.00041474	0.00039561	0.0001091	1423.5	4.3573e-06	4.2436e-06	1412.9	385.08	4.245e-06	4.319e-06	438.42	145.5	126.45	43.357	4.3542e-06	53.41	-81.907	-50.276	-62.151	-135.888	-13.557	9.534	-135.947	-131.052	-9.262	-16.549	-131.937	-127.507	-126.693	-122.472	-0.902	-123.381	-8191	255	
21762.174	1	1	0	0	0.25427	0.094004	0.18521	0.21259	0.33453	0.18167	0.2285	0.20762	0.15783	0.18376	0.16125	0.06417	0.28149	0.35171	0.22843	0.22661	-2.0792	-2.3729	-2.1521	-2.7896	-2.3979	-2.475	-2.7521	-2.4167	-2.5625	-2.5271	-2.3896	-2.7729	-2.5938	-2.2083	-2.6521	-2.2792	-86.460	112.291	112.616	189.063	132.564	199.781	146.117	-139.887	-82.299	-100.245	162.407	73.327	179.444	208.321	-61.578	187.055	0.00045728	0.00034512	0.00017217	1396.6	4.7794e-06	4.3889e-06	1387.5	378.03	5.1797e-06	7.1737e-06	428.95	141.87	122.99	42.115	5.0626e-06	51.814	0.00041689	0.00038913	0.00011619	1422.6	4.3928e-06	4.3902e-06	1412.2	385.3	4.2883e-06	4.1914e-06	438.09	145.59	126.28	43.409	4.3601e-06	53.44	-81.552	-62.258	-48.089	-135.885	-21.121	-3.260	-136.027	-131.317	-3.965	-0.978	-131.884	-127.399	-127.082	-122.524	3.913	-123.263	-8191	255	
21762.270	1	1	0	0	0.20266	0.17011	0.061184	0.23066	0.10553	0.095914	0.25733	0.40081	0.032176	0.18728	0.30557	0.11349	0.093648	0.14782	0.18779	0.13473	-2.0417	-2.4104	-2.1167	-2.8042	-2.3937	-2.1896	-2.7896	-2.3354	-2.4583	-2.6	-2.4292	-2.6396	-2.4146	-2.2042	-2.5917	-2.1542	187.466	43.274	-84.072	164.802	53.604	12.605	81.419	140.469	-131.634	69.593	-118.526	145.523	194.492	69.249	201.984	79.119	0.00039256	0.00042097	0.00019959	1401.7	6.0322e-06	5.5197e-06	1387	378.27	3.4054e-06	6.888e-06	429.32	141.44	122.37	42.186	3.9675e-06	51.775	0.00041292	0.00038032	0.00011161	1424	4.4504e-06	4.3731e-06	1412.5	385.63	4.3601e-06	4.3109e-06	438.4	145.56	126.24	43.407	4.2748e-06	53.399	-82.898	-85.297	-52.976	-136.030	-5.630	4.108	-135.924	-131.430	4.393	-0.911	-131.712	-127.691	-126.800	-122.531	-7.357	-123.378	-8191	255	
21762.365	1	1	0	0	0.1639	0.18632	0.16631	0.36063	0.09989	0.13848	0.27621	0.15529	0.068046	0.073185	0.35648	0.14482	0.18263	0.16809	0.22101	0.068734	-1.8937	-2.5687	-2.0604	-2.7583	-2.5375	-2.1479	-2.7479	-2.4938	-2.3187	-2.6375	-2.4271	-2.6146	-2.6437	-2.2333	-2.6208	-2.5896	-137.844	66.795	62.293	151.616	-33.661	-32.509	64.752	79.374	158.102	-143.281	148.723	72.609	149.401	-118.348	-78.459	-140.315	0.00042398	0.00049379	0.00012918	1401	3.2725e-06	5.1498e-06	1388.3	375.71	4.2047e-06	4.5262e-06	429.1	142	123.42	42.02	2.9135e-06	51.905	0.00041976	0.00038528	0.00010818	1424	4.4549e-06	4.1899e-06	1412.2	385.09	4.4118e-06	4.2432e-06	437.79	145.78	126.44	43.428	4.3183e-06	53.438	-84.384	-57.886	-65.394	-136.191	-9.114	-9.607	-135.878	-131.371	-10.469	27.656	-131.977	-127.706	-127.043	-122.519	3.463	-123.447	-8191	255	
21762.463	1	1	0	0	0.11702	0.085977	0.12539	0.066649	0.2554	0.083538	0.094745	0.14011	0.058616	0.063707	0.17821	0.21419	0.19747	0.17293	0.18309	0.41143	-1.7875	-2.7021	-2.1625	-2.6042	-2.575	-2.2646	-2.8563	-2.5646	-2.2396	-2.7396	-2.3563	-2.5167	-2.5396	-2.325	-2.3458	-2.5229	202.642	98.658	-85.308	-100.766	62.630	124.972	-127.299	125.872	-28.355	-23.560	-144.223	181.833	151.543	-131.645	23.129	15.118	0.0004322	0.00035714	0.00011092	1401.6	5.3833e-06	5.0094e-06	1390.6	376.82	5.9088e-06	4.1258e-06	429.49	141.84	122.43	42.2	4.2249e-06	51.797	0.00041746	0.00039129	0.00010964	1423.9	4.3711e-06	4.3874e-06	1414	385.02	4.4602e-06	4.2425e-06	438.18	145.6	126.12	43.395	4.3217e-06	53.398	-77.780	-49.792	-67.868	-136.153	5.232	-3.531	-136.065	-131.533	3.723	7.607	-131.880	-127.632	-126.947	-122.486	-8.253	-123.209	-8191	255	
21762.559	1	1	0	0	0.19443	0.066648	0.058562	0.39535	0.20785	0.41969	0.28941	0.2465	0.04277	0.19631	0.23584	0.31841	0.23422	0.086066	0.082322	0.047497	-1.8792	-2.5021	-2.1792	-2.5042	-2.6271	-2.2667	-2.6604	-2.5271	-2.1792	-2.6042	-2.3542	-2.3063	-2.5938	-2.3812	-2.4667	-2.6104	156.723	68.081	-19.011	189.387	102.436	-79.736	208.954	139.255	-105.848	-100.791	160.109	191.963	144.933	204.651	-82.935	132.431	0.00040865	0.00067104	0.00011143	1400.3	3.0548e-06	3.8756e-06	1387.4	376.62	4.9117e-06	4.7868e-06	429.49	141.02	122.45	42.173	3.2146e-06	52.056	0.00042092	0.00039629	0.00011034	1424	4.2599e-06	4.2728e-06	1412.4	384.46	4.4239e-06	4.2082e-06	438.06	145.33	126.06	43.442	4.2947e-06	53.474	-78.112	-40.101	-55.390	-136.007	6.052	1.863	-135.972	-131.398	-11.532	13.889	-131.980	-127.471	-126.818	-122.359	8.785	-123.124	-8191	255	
21762.654	1	1	0	0	0.1202	0.051851	0.28358	0.23204	0.10231	0.24106	0.39972	0.089314	0.15587	0.12913	0.11159	0.12898	0.10207	0.23251	0.08702	0.097131	-1.7042	-2.4229	-2.3146	-2.4813	-2.5271	-2.1937	-2.5396	-2.625	-2.0667	-2.5396	-2.4875	-2.225	-2.7146	-2.3292	-2.4	-2.6167	-130.415	-41.925	59.546	175.153	-5.267	-34.644	123.287	205.117	17.178	156.064	145.746	81.265	198.530	-131.442	76.445	49.004	0.00041692	0.00069794	0.00014783	1396.9	7.0136e-06	4.6538e-06	1386.2	378.02	3.6296e-06	3.7542e-06	429.97	141.96	123.26	42.08	3.9455e-06	51.954	0.00043467	0.00038916	0.00011063	1422.1	4.5745e-06	4.3563e-06	1413.1	385.64	4.4292e-06	4.3017e-06	438.59	145.58	126.47	43.362	4.4147e-06	53.462	-81.224	-68.339	-75.454	-135.898	-19.551	26.744	-135.897	-131.338	-4.139	4.687	-131.686	-127.540	-127.000	-122.254	-1.077	-123.051	-8191	255	
21762.773	1	1	0	0	0.25456	0.11925	0.24686	0.10289	0.16841	0.11378	0.14646	0.098136	0.20625	0.30039	0.19996	0.24561	0.14725	0.10106	0.079663	0.11962	-1.675	-2.5417	-2.2542	-2.3187	-2.4813	-2.1396	-2.6583	-2.5771	-2.2396	-2.5187	-2.4625	-2.3771	-2.4688	-2.3979	-2.5146	-2.7375	153.107	22.817	38.131	-135.483	114.900	188.033	115.565	-43.991	124.321	33.205	79.974	-40.022	114.904	-137.316	194.926	-108.221	0.00044453	0.00058784	0.0001706	1401.9	5.2579e-06	5.7588e-06	1389.9	376.66	5.0128e-06	4.9101e-06	428.76	141.8	123.05	42.076	2.2038e-06	51.631	0.00042935	0.00037747	0.00011009	1423.3	4.4002e-06	4.3092e-06	1413.2	385.39	4.4417e-06	4.2435e-06	437.85	145.58	126.29	43.354	4.3136e-06	53.344	-82.236	-78.145	-61.016	-135.922	-0.784	7.935	-135.948	-131.338	-0.239	-13.528	-131.895	-127.597	-126.922	-122.490	-34.128	-123.284	-8191	255	
21762.869	1	1	0	0	0.33861	0.078386	0.19504	0.15368	0.35192	0.12451	0.1941	0.30745	0.14167	0.050623	0.011064	0.17632	0.28959	0.33513	0.028122	0.13218	-1.6313	-2.6042	-2.3792	-2.2667	-2.4354	-2.3333	-2.5521	-2.6708	-2.2646	-2.5417	-2.5333	-2.3708	-2.7896	-2.4646	-2.2354	-2.5438	27.266	-42.699	27.177	144.578	-55.352	79.495	-120.512	141.016	-138.989	44.887	-20.466	154.799	24.717	187.297	45.181	191.785	0.00038709	0.0005606	0.00015292	1400.4	4.235e-06	5.1663e-06	1387.6	377.55	5.1722e-06	4.7187e-06	430.79	141.21	123.21	41.987	4.5348e-06	51.699	0.00042491	0.00039056	0.00010733	1424.4	4.3588e-06	4.2637e-06	1413	384.89	4.3338e-06	4.0836e-06	438.5	145.52	126.18	43.29	4.2713e-06	53.445	-78.755	-48.512	-53.321	-135.967	-11.133	0.236	-135.869	-131.362	-13.028	41.298	-132.003	-127.577	-126.807	-122.394	-15.809	-123.493	-8191	255	
21762.967	1	1	0	0	0.19116	0.087681	0.13114	0.31833	0.22786	0.32851	0.17259	0.33156	0.21279	0.11747	0.22337	0.17618	0.21215	0.27043	0.29677	0.18814	-1.9813	-2.2875	-2.3667	-2.3729	-2.5104	-2.1021	-2.3792	-2.6042	-2.1792	-2.4646	-2.4938	-2.1833	-2.5771	-2.4271	-2.1437	-2.7646	136.998	46.058	-39.716	164.096	-84.686	156.962	134.300	180.475	113.165	101.751	-106.786	163.723	145.233	-105.303	175.158	159.278	0.00040336	0.00058291	0.00012339	1403	4.1951e-06	7.0163e-06	1387.8	376.75	5.0926e-06	6.434e-06	428.49	142.08	123.42	42.201	6.2334e-06	51.948	0.00041897	0.00038831	0.00010796	1425.4	4.2959e-06	4.2387e-06	1412	385.18	4.3649e-06	4.3668e-06	437.6	145.6	126.22	43.441	4.4255e-06	53.406	-83.898	-55.785	-47.109	-136.100	0.643	9.277	-136.218	-131.192	-8.137	-6.356	-132.118	-127.584	-126.745	-122.583	-9.351	-123.329	-8191	255	
21763.062	1	1	0	0	0.10719	0.20829	0.20394	0.16342	0.30587	0.14906	0.24769	0.30115	0.21743	0.10772	0.29907	0.39255	0.12699	0.38574	0.12814	0.057405	-1.8146	-2.3104	-2.3854	-2.4083	-2.4771	-2.5271	-2.3688	-2.825	-2.3625	-2.4542	-2.7958	-2.25	-2.6521	-2.5375	-2.3208	-2.6604	-79.818	-30.310	35.725	168.217	42.764	34.946	138.386	83.384	-119.200	131.614	190.312	73.807	160.674	161.023	-17.137	-11.857	0.00039581	0.00028702	0.00013225	1398.2	4.3085e-06	6.721e-06	1385.3	376.09	4.9958e-06	2.41e-06	430.02	141.41	122.77	42	4.3065e-06	51.831	0.00041521	0.00039439	0.0001078	1423	4.2538e-06	4.3782e-06	1411.6	385.23	4.3815e-06	4.2394e-06	438.2	145.41	126.17	43.324	4.4043e-06	53.365	-80.093	-67.332	-68.722	-136.081	-4.853	4.701	-136.010	-131.395	0.549	4.628	-131.933	-127.842	-126.954	-122.381	-4.042	-123.414	-8191	255	
21763.158	1	1	0	0	0.17485	0.090206	0.18344	0.29759	0.10477	0.19403	0.26902	0.043772	0.26833	0.47552	0.072107	0.17328	0.28427	0.12771	0.11554	0.43923	-1.8917	-2.1917	-2.5021	-2.2062	-2.4396	-2.3729	-2.1813	-2.6375	-2.2917	-2.2354	-2.5375	-2.25	-2.65	-2.5583	-2.0583	-2.5938	43.135	103.201	-35.102	130.109	22.833	-111.316	130.016	38.105	177.832	80.339	-36.784	187.929	204.143	100.491	19.267	164.392	0.00043191	0.00056956	0.00011766	1399.9	4.8122e-06	6.1734e-06	1385.3	377.59	4.9688e-06	3.9163e-06	428.04	141.51	123.44	41.961	5.0949e-06	51.654	0.00042385	0.00039593	0.00010732	1421.7	4.2809e-06	4.3891e-06	1410	385.01	4.2936e-06	4.2727e-06	437.56	145.52	126.45	43.323	4.4764e-06	53.333	-83.845	-63.676	-85.005	-135.866	-29.074	-15.834	-136.074	-131.207	-2.779	-12.804	-132.071	-127.382	-126.824	-122.494	-2.545	-123.303	-8191	255	
21763.254	1	1	0	0	0.2092	0.141	0.18851	0.16558	0.089231	0.062762	0.19916	0.30439	0.25241	0.11967	0.1802	0.041773	0.13747	0.13176	0.1793	0.30799	-1.8667	-2.1521	-2.4667	-2.4542	-2.4042	-2.5438	-2.35	-2.5333	-2.2583	-2.5375	-2.7896	-2.3896	-2.4479	-2.4938	-2.35	-2.6521	-131.056	-92.039	-12.734	200.156	12.277	35.224	84.207	173.372	-72.803	-26.421	53.529	200.710	-130.628	157.522	-40.924	157.100	0.00045564	0.00043181	0.00015097	1400.7	5.2316e-06	5.7012e-06	1388.8	376.53	5.6137e-06	7.1232e-06	427.6	141.24	122.74	41.932	4.4227e-06	51.687	0.00042181	0.0003965	0.00010765	1423	4.2652e-06	4.2896e-06	1411.6	384.9	4.3536e-06	4.3309e-06	437.2	145.24	126.11	43.36	4.4166e-06	53.367	-85.160	-65.345	-64.911	-136.005	1.178	-4.863	-136.036	-131.255	-9.586	-14.164	-132.000	-127.476	-127.157	-122.502	5.493	-123.394	-8191	255	
21763.375	1	1	0	0	0.15378	0.12858	0.32284	0.082437	0.24322	0.094615	0.11506	0.078748	0.19753	0.33633	0.39226	0.14371	0.25546	0.18816	0.23036	0.12744	-1.9792	-2.2125	-2.55	-2.6042	-2.3625	-2.6562	-2.3229	-2.4625	-2.4083	-2.2938	-2.6521	-2.4667	-2.6479	-2.7083	-2.1917	-2.5792	-142.170	-1.348	189.507	94.892	181.490	-133.961	120.745	208.579	-97.088	-51.190	114.409	98.661	154.564	188.415	-49.331	-99.647	0.00042051	0.00063309	0.00017234	1397.9	6.4841e-06	5.3349e-06	1390.4	375.85	3.6247e-06	6.935e-06	430.18	140.91	122.57	42.236	3.2944e-06	51.727	0.00042012	0.00038608	0.00010827	1422.2	4.3383e-06	4.2588e-06	1412	384.74	4.3456e-06	4.2397e-06	438.24	145.24	126.05	43.373	4.3006e-06	53.281	-81.278	-60.168	-56.167	-136.102	2.983	-12.186	-135.791	-131.324	-5.978	7.338	-132.016	-127.608	-126.934	-122.483	-12.837	-123.346	-8191	255	
21763.471	1	1	0	0	0.18357	0.42682	0.26	0.21535	0.24695	0.10647	0.10541	0.1251	0.081785	0.19704	0.19245	0.26993	0.11378	0.45464	0.10672	0.27219	-2.0625	-2.2667	-2.4875	-2.7208	-2.5042	-2.6604	-2.425	-2.4146	-2.4	-2.45	-2.6125	-2.4813	-2.4292	-2.5792	-2.1708	-2.7062	-50.496	118.747	-46.448	-116.010	108.700	-3.358	181.094	195.766	-88.379	136.150	147.385	137.551	28.948	142.527	-26.762	-123.959	0.00042313	0.00048681	0.00015934	1402.8	5.9273e-06	5.7257e-06	1382	376.85	4.7287e-06	5.3048e-06	429.74	142.01	122.85	42.033	4.5116e-06	51.664	0.00041836	0.00039685	0.00010682	1422.8	4.2973e-06	4.2069e-06	1407	384.89	4.3134e-06	4.3088e-06	438.3	145.29	126.31	43.364	4.275e-06	53.303	-80.112	-50.792	-55.167	-136.008	-6.659	-4.706	-136.041	-131.197	6.071	13.566	-131.860	-127.405	-126.977	-122.434	-28.828	-123.359	-8191	255	
21763.566	1	1	0	0	0.11858	0.074457	0.36426	0.3857	0.30422	0.075191	0.23681	0.16744	0.13903	0.33558	0.29699	0.021737	0.25681	0.21272	0.30533	0.04445	-2.0167	-2.1292	-2.6771	-2.5521	-2.05	-2.7021	-2.375	-2.5792	-2.5354	-2.3187	-2.6125	-2.4833	-2.2667	-2.6646	-2.2979	-2.4938	-9.473	179.864	6.706	169.819	207.290	125.104	112.101	113.247	67.512	6.430	131.069	61.390	183.618	155.215	80.243	27.513	0.00041514	0.00053991	0.00016512	1397	5.6961e-06	4.8239e-06	1386.9	376.48	4.4685e-06	5.3439e-06	429.04	141.37	122.79	41.969	5.4808e-06	51.935	0.00041719	0.00039235	0.00010897	1420.3	4.344e-06	4.2039e-06	1409.7	384.53	4.2835e-06	4.2387e-06	437.44	145.34	125.97	43.277	4.3635e-06	53.305	-82.550	-77.875	-57.449	-135.962	-8.317	11.242	-136.103	-131.243	2.462	-8.795	-132.084	-127.503	-127.106	-122.399	10.955	-123.124	-8191	255	
21763.639	1	1	0	0	0.091011	0.36211	0.16511	0.31584	0.27344	0.10481	0.1393	0.12059	0.079901	0.14582	0.15471	0.35638	0.28512	0.055474	0.29828	0.34783	-2.0354	-1.9042	-2.35	-2.6917	-2.1063	-2.6542	-2.3375	-2.4333	-2.5625	-2.2646	-2.6312	-2.6104	-2.2625	-2.8646	-2.425	-2.3	97.766	66.501	67.021	137.717	-78.709	-75.821	143.317	90.127	-122.005	133.703	-53.023	160.292	194.398	175.557	-134.374	152.151	0.00042831	0.00046067	0.00015064	1398.6	3.5911e-06	4.941e-06	1386.5	375.91	5.534e-06	4.9605e-06	428.82	141.71	123.43	42.109	4.5616e-06	51.881	0.00041736	0.00038177	0.0001066	1420.7	4.3773e-06	4.211e-06	1410.2	385.07	4.3827e-06	4.2506e-06	438.06	145.59	126.34	43.326	4.3264e-06	53.356	-77.988	-62.388	-58.070	-135.940	-7.428	-15.473	-135.910	-131.307	15.480	10.422	-131.742	-127.545	-127.037	-122.347	1.119	-123.431	-8191	255	
21763.758	1	1	0	0	0.099033	0.01607	0.054841	0.088429	0.12728	0.17611	0.15725	0.27143	0.18011	0.21897	0.10478	0.13817	0.067166	0.17284	0.38823	0.30194	-2.1813	-2.3396	-2.3833	-2.75	-2.0062	-2.5292	-2.5125	-2.4	-2.6042	-2.1708	-2.5583	-2.6875	-2.2646	-2.7313	-2.3521	-2.3187	-59.134	47.370	93.583	201.940	-113.195	58.676	191.094	-140.489	105.502	97.389	173.677	148.188	-61.802	-106.523	0.129	-140.890	0.00044274	0.00068725	0.00013158	1398.9	4.51e-06	3.4002e-06	1385.9	376.94	6.1741e-06	6.8297e-06	428.89	141.55	122.84	41.998	3.9437e-06	51.721	0.00041629	0.000387	0.00010628	1420.6	4.3145e-06	4.1219e-06	1411.6	385.36	4.3439e-06	4.228e-06	438.2	145.49	126.17	43.272	4.277e-06	53.346	-83.513	-49.320	-47.042	-135.961	-2.934	7.623	-136.004	-131.241	-1.551	3.845	-131.753	-127.462	-126.833	-122.464	15.557	-123.283	-8191	255	
21763.854	1	1	0	0	0.19381	0.022388	0.085702	0.14741	0.1621	0.19035	0.28264	0.080445	0.19231	0.13839	0.17697	0.17109	0.29372	0.093225	0.32898	0.072863	-2.075	-2.2167	-2.6063	-2.6854	-2.2062	-2.4917	-2.7104	-2.3771	-2.6562	-2.425	-2.3688	-2.65	-2.4208	-2.6688	-2.4958	-2.2938	209.912	-128.070	119.655	140.604	-104.384	156.863	132.499	109.801	160.269	162.508	-145.889	-128.623	157.260	-6.458	120.560	50.471	0.00042871	0.000388	0.00011925	1399.7	3.9058e-06	3.6899e-06	1380.9	377.23	3.086e-06	3.9177e-06	428.75	140.91	122.43	42.138	4.139e-06	51.82	0.00041155	0.00037357	0.00010726	1422.1	4.2688e-06	4.2082e-06	1407.4	385.08	4.3261e-06	4.1067e-06	437.49	145.22	126.13	43.335	4.1877e-06	53.431	-78.710	-69.950	-49.573	-136.041	18.438	4.349	-136.010	-131.396	15.373	17.836	-131.886	-127.493	-127.011	-122.335	-23.835	-123.349	-8191	255	
21763.949	1	1	0	0	0.14092	0.18245	0.15279	0.44282	0.18561	0.11905	0.25548	0.033433	0.093686	0.048844	0.12264	0.32592	0.081337	0.1193	0.16705	0.085792	-2.3229	-2.3021	-2.2979	-2.6937	-2.0917	-2.3875	-2.6792	-2.3604	-2.6396	-2.4104	-2.4271	-2.8083	-2.225	-2.5771	-2.5042	-2.0875	130.324	-138.649	67.710	175.076	29.409	-142.418	154.383	35.291	-16.041	-71.864	-144.700	-146.714	-17.071	100.488	-144.928	53.503	0.00040205	0.00056366	0.0001328	1399.5	4.2845e-06	6.4529e-06	1386	376.63	2.7499e-06	4.0787e-06	427.96	141.63	123.19	42.2	1.7214e-06	51.74	0.00040297	0.00038496	0.00010804	1421.4	4.1795e-06	4.1507e-06	1409.3	384.86	4.2638e-06	4.1111e-06	437.15	145.4	126.19	43.323	4.2952e-06	53.357	-80.742	-49.505	-40.119	-135.877	-9.366	19.693	-135.922	-131.149	23.171	0.213	-131.759	-127.738	-126.944	-122.480	-14.556	-123.163	-8191	255	
21764.047	1	1	0	0	0.1646	0.27208	0.31583	0.086147	0.18547	0.18759	0.23381	0.11766	0.026462	0.2681	0.38322	0.22885	0.19982	0.18997	0.25669	0.076513	-2.0771	-2.4125	-2.1208	-2.7	-2.0812	-2.5042	-2.5833	-2.2542	-2.5792	-2.4313	-2.4229	-2.5792	-2.3229	-2.5583	-2.4708	-2.1167	182.754	69.736	8.685	-69.557	-101.248	124.097	114.143	171.765	87.227	85.802	201.142	80.570	-52.308	209.246	101.404	-102.548	0.00039943	0.00059827	0.00015874	1398.3	4.8847e-06	2.9935e-06	1384.9	376.55	4.7924e-06	5.2861e-06	427.91	141.44	123.23	42.184	4.6927e-06	51.929	0.00040966	0.00038812	0.00010623	1421.1	4.3411e-06	4.1593e-06	1410.4	384.58	4.1557e-06	4.151e-06	437.22	145.31	126.26	43.303	4.2984e-06	53.344	-80.099	-65.472	-46.814	-135.929	12.713	8.796	-136.022	-131.361	-4.115	0.857	-131.659	-127.545	-126.665	-122.532	20.494	-123.178	-8191	255	
21764.168	1	1	0	0	0.15452	0.11427	0.23951	0.21771	0.043999	0.12844	0.35457	0.052446	0.11851	0.22316	0.13106	0.23997	0.4251	0.21715	0.26152	0.20097	-2.0792	-2.3563	-2.1021	-2.7125	-2.3542	-2.3333	-2.5208	-2.3312	-2.4521	-2.5	-2.2708	-2.4979	-2.5146	-2.4875	-2.6188	-2.2958	126.401	32.329	-110.274	160.168	11.562	-33.400	136.532	-13.204	-75.405	-56.333	-106.346	142.303	124.414	204.231	38.128	175.821	0.00043246	0.00056054	0.00012978	1397.1	2.739e-06	4.091e-06	1383.5	375.3	4.5061e-06	6.3157e-06	429.03	141.61	122.49	42.16	4.4094e-06	51.804	0.00040625	0.00037711	0.00010579	1419.6	4.2657e-06	4.0735e-06	1408.5	383.9	4.0594e-06	4.0846e-06	437.16	145.02	125.71	43.325	4.1535e-06	53.224	-80.705	-55.943	-49.578	-135.922	14.119	17.723	-136.201	-131.158	-4.373	-1.166	-131.812	-127.255	-126.888	-122.490	15.733	-123.290	-8191	255	
21764.264	1	1	0	0	0.15327	0.13212	0.12967	0.33341	0.13513	0.11441	0.36455	0.13211	0.21695	0.049318	0.27733	0.055437	0.15154	0.20469	0.11473	0.3648	-1.9667	-2.4938	-1.925	-2.6979	-2.3042	-2.0667	-2.7104	-2.4292	-2.3271	-2.3563	-2.2	-2.6083	-2.2792	-2.2333	-2.5917	-2.4396	151.124	-87.034	194.962	120.942	200.313	-101.815	139.280	52.812	100.662	208.875	77.505	-125.066	-132.950	-139.294	39.934	-147.279	0.00040115	0.00060152	9.5463e-05	1395	3.2523e-06	5.1609e-06	1379.1	375.92	5.5028e-06	4.5158e-06	427.65	140.95	122.55	41.95	2.7292e-06	51.732	0.00040439	0.00037986	0.00010481	1415.8	4.1428e-06	4.0825e-06	1403.7	383.65	4.1328e-06	4.1919e-06	436.17	145	125.78	43.189	4.2684e-06	53.262	-77.930	-51.679	-79.159	-136.012	-9.059	10.039	-135.910	-131.335	7.088	15.569	-131.875	-127.475	-127.038	-122.489	-0.078	-123.150	-8191	255	
21764.336	1	1	0	0	0.12753	0.12546	0.048272	0.10915	0.19656	0.22657	0.35254	0.0037254	0.12817	0.18078	0.05466	0.11894	0.13819	0.23197	0.25122	0.10592	-1.9979	-2.4688	-2.1437	-2.6688	-2.4479	-2.1646	-2.7458	-2.4062	-2.4583	-2.6521	-2.2062	-2.6854	-2.4437	-2.1792	-2.5542	-2.1667	-32.534	-115.247	-33.831	146.230	150.931	158.199	101.510	137.773	149.576	-114.729	-88.795	148.428	148.641	114.645	132.101	-31.755	0.00043011	0.0004647	0.00014308	1396.2	5.9363e-06	5.7158e-06	1384.2	375.6	4.6524e-06	7.1523e-06	427.24	141.41	122.29	41.953	2.6053e-06	51.967	0.00042224	0.00038955	0.00010796	1417.9	4.2976e-06	4.3293e-06	1407.6	384.21	4.4106e-06	4.2722e-06	437	145.15	125.78	43.247	4.41e-06	53.289	-83.496	-36.045	-48.093	-135.851	-4.923	-4.994	-135.969	-131.207	-5.205	2.152	-131.816	-127.389	-127.161	-122.632	13.684	-123.411	-8191	255	
21764.455	1	1	0	0	0.14876	0.23485	0.14169	0.21611	0.18333	0.19695	0.047331	0.091598	0.098094	0.20646	0.21623	0.04959	0.11704	0.047177	0.15317	0.17768	-2.1063	-2.6396	-2.2542	-2.5167	-2.4667	-2.3083	-2.8563	-2.4104	-2.3604	-2.6729	-2.3208	-2.5542	-2.5292	-2.2292	-2.5771	-2.4771	-140.510	-11.618	-88.797	111.771	50.976	167.408	164.485	85.617	-0.641	186.990	-106.612	-107.130	125.250	91.656	125.461	99.423	0.00042012	0.00044432	0.00014892	1397	4.9013e-06	4.2861e-06	1381.8	375.95	2.9441e-06	6.1528e-06	428.52	141.19	122.49	41.942	4.1263e-06	51.642	0.00041477	0.0003842	0.00010692	1419.4	4.3616e-06	4.1005e-06	1405.2	384.14	4.5026e-06	4.1614e-06	436.87	145.14	125.79	43.193	4.2241e-06	53.154	-82.570	-84.523	-33.972	-135.812	-19.134	1.614	-136.081	-131.449	-11.892	-14.753	-131.901	-127.583	-126.721	-122.604	5.000	-123.251	-8191	255	
21764.551	1	1	0	0	0.12107	0.081516	0.12869	0.28221	0.11785	0.14405	0.26465	0.16201	0.12923	0.079334	0.044752	0.13542	0.24712	0.33941	0.16202	0.083466	-1.7375	-2.4938	-2.2062	-2.4313	-2.6042	-2.2188	-2.6375	-2.4146	-2.125	-2.5896	-2.375	-2.5563	-2.6771	-2.1208	-2.5521	-2.6583	88.950	-30.019	-65.722	-124.783	95.180	51.075	109.236	160.092	67.241	-139.509	16.273	77.045	180.200	197.650	-33.274	-94.701	0.00043693	0.00034103	0.00016755	1394.9	2.7188e-06	6.8722e-06	1383	375.08	4.7513e-06	5.8854e-06	427.53	141.79	122.8	42.031	5.4348e-06	51.566	0.00041817	0.00038204	0.00010683	1417.6	4.2588e-06	4.2102e-06	1407	383.93	4.4814e-06	4.1507e-06	437.07	145.16	126.09	43.227	4.2858e-06	53.271	-80.121	-46.016	-57.489	-135.929	-34.324	-16.713	-135.917	-131.161	-8.233	13.317	-132.022	-127.428	-126.797	-122.394	-3.376	-123.386	-8191	255	
21764.648	1	1	0	0	0.21978	0.13684	0.13428	0.24016	0.25019	0.33625	0.18359	0.29967	0.13276	0.18575	0.13688	0.20669	0.22274	0.143	0.16173	0.20071	-1.9167	-2.6813	-2.2875	-2.5208	-2.5646	-2.0187	-2.4771	-2.4521	-2.1646	-2.5167	-2.2625	-2.3667	-2.6021	-2.2271	-2.525	-2.5479	199.443	59.932	94.120	183.462	115.338	-38.992	-106.892	-145.808	-142.602	14.330	174.589	-130.651	126.318	-110.501	-6.558	-13.607	0.00043424	0.00065031	0.00012028	1394.1	3.8526e-06	4.1521e-06	1384.1	375.73	4.3392e-06	6.414e-06	426.55	141.05	122.55	41.971	4.9518e-06	51.816	0.00042562	0.00038636	0.00010822	1418.3	4.3771e-06	4.2919e-06	1407.6	384.17	4.4593e-06	4.1975e-06	436.68	144.94	125.92	43.26	4.4417e-06	53.384	-83.797	-62.757	-68.181	-135.942	12.027	6.686	-136.087	-131.401	4.770	-3.591	-131.887	-127.608	-126.901	-122.327	-13.517	-123.136	-8191	255	
21764.744	1	1	0	0	0.07435	0.16672	0.13106	0.17286	0.090172	0.23877	0.17524	0.12862	0.13594	0.27189	0.14807	0.18009	0.13312	0.26907	0.24442	0.13521	-1.7542	-2.7125	-2.1708	-2.3917	-2.4729	-2.0958	-2.5104	-2.6854	-2.1479	-2.65	-2.5208	-2.3042	-2.7292	-2.3521	-2.2542	-2.5604	179.996	-115.110	-27.838	199.601	-41.234	-11.390	149.733	85.383	-62.248	-33.717	138.700	-95.183	120.882	180.718	139.431	172.823	0.00040529	0.00041768	0.00014847	1394	5.1792e-06	5.8639e-06	1380.7	376.19	4.3955e-06	4.9755e-06	428.32	141.23	122.78	42.017	4.6456e-06	51.726	0.0004138	0.00039471	0.0001087	1419.6	4.3711e-06	4.4105e-06	1407.8	384.45	4.5154e-06	4.3848e-06	437.35	144.98	125.76	43.193	4.4134e-06	53.333	-81.701	-49.316	-47.946	-135.779	6.647	-5.088	-136.017	-131.296	-19.471	4.141	-131.842	-127.428	-127.022	-122.378	-21.941	-123.570	-8191	255	
21764.863	1	1	0	0	0.19998	0.085509	0.29434	0.21106	0.088271	0.14358	0.59206	0.17232	0.1562	0.16202	0.26779	0.27159	0.033879	0.2156	0.21914	0.04647	-1.6812	-2.5771	-2.4083	-2.4583	-2.4313	-1.9792	-2.3354	-2.5896	-2.1417	-2.4437	-2.4354	-2.1958	-2.7354	-2.3125	-2.375	-2.7188	-57.668	-14.787	142.447	-122.259	-60.598	154.028	154.179	128.432	146.840	-134.253	178.591	186.512	116.746	-142.895	53.865	116.102	0.00042464	0.00061666	0.00016369	1397.2	3.7464e-06	7.1946e-06	1379.4	376.4	3.6759e-06	3.2454e-06	426.81	141.41	122.62	41.886	4.4794e-06	51.643	0.0004344	0.00038867	0.00011258	1419.6	4.3442e-06	4.3863e-06	1406.9	383.84	4.3131e-06	4.137e-06	436.68	145.17	125.94	43.194	4.2278e-06	53.263	-81.752	-77.883	-68.905	-135.852	10.485	13.580	-135.860	-131.382	-24.288	43.444	-132.007	-127.644	-126.946	-122.253	15.104	-123.504	-8191	255	
21764.934	1	1	0	0	0.39559	0.1255	0.15238	0.17286	0.08297	0.32576	0.16211	0.15381	0.25195	0.17683	0.14489	0.069052	0.15457	0.020289	0.38051	0.013172	-1.6292	-2.3646	-2.3979	-2.4354	-2.4271	-2.2042	-2.3187	-2.4708	-2.3063	-2.5125	-2.5979	-2.0979	-2.475	-2.3875	-2.3792	-2.5375	-127.968	79.729	4.231	-49.684	-112.189	-57.292	194.669	169.760	25.334	160.209	-38.912	-106.527	-140.504	-77.223	-86.073	70.068	0.00043886	0.00051477	9.7843e-05	1400.1	4.6065e-06	5.4803e-06	1384.5	376.15	4.5044e-06	3.8918e-06	425.52	140.88	123.1	42.119	3.3412e-06	51.739	0.00042417	0.00038452	0.00010453	1418.4	4.1083e-06	4.1899e-06	1406.2	383.8	4.3148e-06	4.0979e-06	436.38	144.78	125.98	43.265	4.2851e-06	53.236	-81.146	-68.393	-54.584	-135.789	-2.350	9.465	-135.966	-131.357	16.454	0.455	-131.831	-127.366	-127.017	-122.490	-3.686	-123.308	-8191	255	
21765.055	1	1	0	0	0.075619	0.05965	0.20661	0.15071	0.029294	0.26308	0.20339	0.29364	0.28583	0.10516	0.2002	0.17871	0.31289	0.18612	0.22749	0.18795	-1.6	-2.45	-2.3937	-2.3417	-2.5542	-2.375	-2.5646	-2.6958	-2.0812	-2.4771	-2.6396	-2.2271	-2.4062	-2.4562	-2.1333	-2.6167	117.667	31.422	-39.261	-114.962	37.471	-72.454	144.689	122.866	-38.395	100.669	169.156	-142.203	179.474	-138.021	38.346	129.972	0.00044089	0.00059909	0.00015837	1393.7	3.6864e-06	6.9602e-06	1378.5	375.47	4.9502e-06	6.5672e-06	428.84	141.08	123.07	42.107	4.5534e-06	51.714	0.00042144	0.00037965	0.00010568	1416.9	4.3092e-06	4.1967e-06	1406.2	383.68	4.3365e-06	4.1858e-06	437.08	144.98	125.73	43.291	4.2957e-06	53.224	-82.101	-76.496	-58.731	-136.126	18.149	-14.659	-135.902	-131.228	-8.568	-9.542	-131.945	-127.503	-127.024	-122.412	-0.616	-122.910	-8191	255	
21765.150	1	1	0	0	0.24988	0.26259	0.10579	0.35111	0.12951	0.23813	0.20928	0.16242	0.39083	0.089718	0.14629	0.34539	0.22427	0.1751	0.12768	0.076772	-1.8375	-2.2062	-2.5021	-2.1771	-2.3417	-2.2812	-2.15	-2.6042	-2.1063	-2.4417	-2.6875	-2.2896	-2.4521	-2.4562	-2.0583	-2.6896	10.662	-29.686	181.626	-142.760	120.808	-121.636	87.657	127.257	148.110	-85.521	-144.793	177.482	-58.694	-121.910	80.754	154.524	0.00042456	0.00031512	0.00013921	1395.2	3.7946e-06	4.1986e-06	1379.7	376.29	3.2941e-06	4.4661e-06	428.63	141.18	122.76	42.156	5.1436e-06	51.582	0.00041982	0.00038583	0.00010635	1416.7	4.2614e-06	4.269e-06	1404.3	383.59	4.311e-06	4.2539e-06	436.49	144.84	125.69	43.28	4.2802e-06	53.163	-80.354	-43.701	-55.848	-135.761	-22.932	17.596	-136.031	-131.180	-7.690	-19.903	-131.828	-127.469	-126.921	-122.380	2.328	-123.349	-8191	255	
21765.246	1	1	0	0	0.22519	0.41954	0.18144	0.21702	0.12319	0.19198	0.1434	0.1683	0.26712	0.25653	0.07548	0.24481	0.2305	0.12415	0.23223	0.27875	-1.8292	-2.2854	-2.7687	-2.4271	-2.4833	-2.5146	-2.2479	-2.5687	-2.2708	-2.2812	-2.7958	-2.3292	-2.5083	-2.6521	-2.0667	-2.7521	193.001	60.973	-111.263	162.501	185.638	50.157	163.309	100.440	178.031	134.961	180.018	100.946	-28.229	134.032	168.440	126.660	0.00039479	0.00027477	0.00013156	1391.7	3.7694e-06	7.3657e-06	1384.5	374.23	4.3514e-06	2.714e-06	428.06	140.37	122.53	41.949	3.509e-06	51.791	0.00041286	0.00038688	0.00010465	1416.7	4.2111e-06	4.1509e-06	1405.9	383.22	4.2823e-06	4.2026e-06	436.85	144.71	125.66	43.234	4.2821e-06	53.199	-80.347	-64.810	-65.985	-135.832	23.082	7.134	-135.933	-131.340	14.476	47.804	-131.933	-127.226	-126.957	-122.331	13.470	-123.166	-8191	255	
21765.344	1	1	0	0	0.066092	0.17636	0.098304	0.19925	0.04371	0.33233	0.17587	0.283	0.081247	0.067525	0.22104	0.19798	0.1193	0.16089	0.11843	0.13213	-1.9854	-2.3521	-2.5354	-2.4	-2.4042	-2.7396	-2.4292	-2.5417	-2.375	-2.3854	-2.8063	-2.2667	-2.5354	-2.6917	-2.1167	-2.6375	159.579	46.872	172.206	132.716	-27.742	8.250	177.552	176.637	-80.487	33.920	200.939	-122.260	-81.633	-147.070	13.309	204.148	0.00043322	0.00060411	0.00013712	1394.4	3.5982e-06	3.9224e-06	1384.8	375.79	5.4855e-06	2.9861e-06	427.47	140.75	123.35	41.963	4.8259e-06	51.86	0.00041912	0.00038663	0.000107	1417.1	4.3038e-06	4.2606e-06	1407.2	383.55	4.3904e-06	4.2821e-06	436.34	144.79	126.21	43.231	4.3116e-06	53.232	-80.496	-65.373	-55.677	-135.888	-1.196	4.560	-136.012	-131.411	2.229	-24.237	-131.839	-127.675	-127.003	-122.370	-20.420	-123.444	-8191	255	
21765.465	1	1	0	0	0.089832	0.20494	0.15192	0.099837	0.10839	0.19864	0.088751	0.2948	0.13453	0.045853	0.18204	0.18528	0.093622	0.060273	0.25475	0.075025	-2.0104	-2.2188	-2.5271	-2.2417	-2.4708	-2.6375	-2.4125	-2.5771	-2.3021	-2.2083	-2.7	-2.4604	-2.3063	-2.8625	-2.1271	-2.4833	-134.844	-116.087	-108.778	108.694	-108.232	155.983	8.024	-122.670	195.421	-6.169	148.213	135.534	-80.601	23.911	75.866	-120.562	0.00043094	0.0005087	0.00014672	1392.3	3.5778e-06	4.8695e-06	1381.8	373.88	3.9493e-06	5.9326e-06	429.44	140.67	122.89	41.908	3.526e-06	51.675	0.0004263	0.00038509	0.00010913	1416.8	4.2292e-06	4.1929e-06	1406.7	382.82	4.3341e-06	4.2605e-06	437.33	144.89	125.8	43.196	4.2728e-06	53.166	-82.338	-69.776	-47.831	-135.886	-1.518	1.485	-135.947	-131.234	-11.606	29.131	-131.809	-127.539	-127.081	-122.400	9.441	-123.247	-8191	255	
21765.559	1	1	0	0	0.21851	0.12804	0.097418	0.45773	0.094702	0.23134	0.19138	0.14758	0.091212	0.17967	0.16292	0.21618	0.073403	0.18276	0.056281	0.17684	-2.0167	-2.0292	-2.5792	-2.4229	-2.2104	-2.5917	-2.4729	-2.4708	-2.6396	-2.2271	-2.7583	-2.4333	-2.3604	-2.7479	-2.4437	-2.3812	-75.816	-25.799	143.170	-148.932	-119.418	208.283	184.256	-147.223	-91.637	21.287	170.374	82.032	164.576	-66.162	-17.487	-133.492	0.0003946	0.00055153	0.00016467	1394	4.9982e-06	5.3861e-06	1380.3	374.88	5.2181e-06	3.7709e-06	429.14	141.03	123.18	42.091	4.132e-06	51.661	0.00041289	0.0003932	0.00010691	1416.5	4.4314e-06	4.2891e-06	1403.5	383.33	4.2965e-06	4.1769e-06	436.93	144.82	125.9	43.244	4.2192e-06	53.214	-82.007	-56.613	-48.850	-135.919	2.456	8.414	-136.037	-131.080	-8.556	13.600	-131.856	-127.398	-127.052	-122.446	16.719	-123.171	-8191	255	
21765.633	1	1	0	0	0.060984	0.10126	0.078913	0.25172	0.10808	0.18412	0.10813	0.10049	0.26542	0.12134	0.14047	0.18448	0.21994	0.25912	0.34553	0.15589	-1.9896	-2.0729	-2.5312	-2.7062	-2.2812	-2.5542	-2.4917	-2.3708	-2.5958	-2.0583	-2.6917	-2.5479	-2.15	-2.6271	-2.2958	-2.6167	-90.760	152.479	-14.680	168.398	42.844	-66.005	105.811	192.166	-132.754	-98.567	92.454	158.924	201.335	173.010	179.642	119.026	0.00039751	0.00058656	0.00013292	1392.6	5.9846e-06	7.6461e-06	1381.7	376.51	4.7248e-06	4.1415e-06	426.9	141.25	122.85	41.862	2.8947e-06	51.824	0.00041145	0.00038489	0.00010689	1415	4.2923e-06	4.2912e-06	1403.7	384.04	4.3827e-06	4.1589e-06	436.27	144.87	125.89	43.204	4.2799e-06	53.267	-80.821	-61.263	-60.023	-135.935	-6.412	5.622	-136.142	-131.339	1.407	-17.317	-131.927	-127.507	-127.138	-122.365	15.587	-123.150	-8191	255	
21765.729	1	1	0	0	0.32286	0.31199	0.46173	0.28064	0.037559	0.15533	0.13511	0.23072	0.20242	0.16346	0.38975	0.23925	0.10303	0.12643	0.1206	0.10628	-2.2313	-2.1729	-2.6646	-2.5458	-2.0729	-2.6625	-2.5104	-2.4667	-2.5146	-2.1688	-2.7104	-2.6188	-2.1063	-2.5021	-2.3667	-2.4167	110.727	157.445	9.707	198.054	-71.778	208.401	189.706	64.037	-130.096	141.013	196.835	156.058	-19.677	-119.437	128.756	-117.291	0.00043116	0.00045165	0.00010382	1395.7	2.7152e-06	4.6836e-06	1382.6	375.46	3.7771e-06	4.6904e-06	427.44	141.21	122.68	42.147	4.7564e-06	52.032	0.00041428	0.0003834	0.00010573	1415.7	4.2985e-06	4.1349e-06	1405.7	384.34	4.2496e-06	4.1944e-06	435.91	144.76	125.78	43.263	4.3994e-06	53.339	-81.290	-59.968	-53.039	-136.014	-7.982	1.830	-135.946	-131.172	5.750	7.171	-131.738	-127.425	-126.920	-122.412	0.969	-123.047	-8191	255	
21765.848	1	1	0	0	0.19089	0.24911	0.20555	0.11976	0.0649	0.097806	0.14332	0.25225	0.11089	0.091918	0.32525	0.13732	0.34447	0.1858	0.22018	0.23194	-2.175	-2.0979	-2.1854	-2.6979	-2.1542	-2.55	-2.5062	-2.4042	-2.5479	-2.2771	-2.5271	-2.6	-2.1688	-2.4104	-2.4229	-2.2	0.589	-100.545	100.273	179.628	-35.667	130.284	53.989	84.778	41.848	-46.726	-109.873	102.978	-99.479	128.934	157.769	175.626	0.00042375	0.00040753	0.00012397	1398.3	5.0099e-06	6.4403e-06	1385.8	377.68	4.3821e-06	5.4582e-06	432.63	142.1	123.91	42.162	4.8653e-06	52.026	0.00041687	0.00038367	0.00010538	1416	4.3342e-06	4.0695e-06	1405.5	384.17	4.2558e-06	4.1995e-06	437.47	145.02	126.16	43.259	4.2418e-06	53.221	-80.166	-46.054	-63.427	-136.016	-7.824	7.162	-136.012	-131.211	-11.900	10.807	-132.013	-127.373	-126.793	-122.163	1.505	-123.258	-8191	255	
21765.943	1	1	0	0	0.11547	0.36307	0.20807	0.19602	0.28448	0.16445	0.14721	0.26813	0.1994	0.19396	0.1414	0.23537	0.20915	0.088267	0.12435	0.298	-2.1208	-1.9937	-2.1458	-2.6937	-2.1292	-2.4125	-2.5917	-2.3229	-2.375	-2.1771	-2.4521	-2.5958	-2.1708	-2.4917	-2.2417	-2.2708	-90.397	85.669	-13.346	196.051	180.334	-145.029	78.376	167.430	-125.169	204.741	-29.364	-103.644	166.072	-35.039	79.626	155.106	0.0004152	0.00053513	0.00015819	1399.6	4.6296e-06	6.0952e-06	1389.9	377.51	5.7308e-06	5.4203e-06	428.98	141.31	123.57	42.182	3.2825e-06	51.76	0.00041165	0.00038576	0.00010521	1416.3	4.2768e-06	4.2405e-06	1408	383.84	4.2657e-06	4.2028e-06	436.94	144.8	125.96	43.277	4.2723e-06	53.23	-80.704	-61.219	-50.566	-135.795	-43.491	-11.229	-135.932	-131.171	21.014	17.087	-131.758	-127.558	-126.836	-122.189	-23.002	-122.981	-8191	255	
21766.039	1	1	0	0	0.053413	0.2815	0.081417	0.29608	0.34324	0.045011	0.16914	0.087783	0.070815	0.17989	0.11837	0.48425	0.11417	0.22888	0.15005	0.22538	-2.025	-2.2771	-2.0417	-2.5646	-2.1292	-2.5187	-2.575	-2.2542	-2.4229	-2.4604	-2.2375	-2.8167	-2.3021	-2.4313	-2.5958	-2.3	73.090	196.395	-5.562	189.510	83.832	-55.418	149.466	95.889	-0.817	-148.313	209.647	149.209	111.450	-117.280	68.995	114.016	0.00042518	0.00042793	0.0001516	1402	5.5861e-06	4.1259e-06	1384.4	377.52	4.1683e-06	4.9133e-06	428.97	141.36	123.49	42.154	4.43e-06	51.946	0.00041402	0.00038383	0.00010893	1416.9	4.3154e-06	4.2161e-06	1405.2	383.84	4.3102e-06	4.1927e-06	436.92	144.86	125.91	43.238	4.3375e-06	53.3	-78.859	-70.230	-68.835	-135.850	-22.700	1.613	-135.948	-131.478	3.736	-6.086	-131.670	-127.361	-126.733	-122.392	-19.784	-123.051	-8191	255	
21766.135	1	1	0	0	0.17354	0.10488	0.12665	0.32156	0.32741	0.11415	0.15922	0.30848	0.070597	0.15145	0.27582	0.11821	0.22023	0.12679	0.19177	0.10225	-1.9813	-2.3292	-2.2771	-2.8979	-2.2854	-2.4292	-2.7354	-2.0062	-2.5542	-2.4146	-2.3	-2.8333	-2.4562	-2.4313	-2.4229	-2.0354	45.524	-81.479	125.579	190.788	-124.167	45.551	205.411	179.140	-136.507	50.170	-147.768	-77.305	-93.549	138.228	93.582	-95.851	0.00043095	0.00065157	0.00012995	1403.1	4.3134e-06	5.1172e-06	1389.3	377.21	4.918e-06	3.9636e-06	430.63	141.81	123.33	42.052	4.9288e-06	51.862	0.00041176	0.00039168	0.00010744	1417.2	4.3718e-06	4.1479e-06	1405.5	384.11	4.1932e-06	4.2707e-06	436.57	145.07	125.97	43.24	4.2184e-06	53.235	-83.215	-48.113	-52.082	-135.855	-19.630	-10.105	-135.837	-131.002	0.233	8.611	-131.558	-127.354	-126.833	-122.271	-1.195	-123.178	-8191	255	
21766.230	1	1	0	0	0.0085397	0.029463	0.29233	0.18967	0.33388	0.12891	0.34766	0.093126	0.34888	0.10297	0.10307	0.13524	0.27589	0.083032	0.28338	0.21458	-2.0167	-2.3875	-2.1896	-2.7667	-2.3542	-2.2729	-2.7896	-2.275	-2.375	-2.5583	-2.2625	-2.7208	-2.35	-2.3521	-2.6396	-2.3208	205.090	149.078	165.274	174.376	-13.389	86.774	142.821	178.444	101.936	-27.140	123.973	-125.334	85.744	208.534	192.177	126.886	0.00041301	0.00025613	0.0001243	1398.9	5.2442e-06	4.5247e-06	1388.4	377.83	4.4299e-06	5.7228e-06	430.16	141	122.7	42.143	3.1549e-06	52.053	0.00041565	0.00038413	0.00010399	1416.2	4.248e-06	4.2003e-06	1406.1	384.11	4.2346e-06	4.2427e-06	436.54	144.79	125.74	43.211	4.2755e-06	53.304	-86.204	-85.631	-66.394	-135.972	-3.014	-1.577	-135.863	-131.123	-17.305	4.673	-131.724	-127.555	-127.057	-122.334	31.228	-123.214	-8191	255	
21766.328	1	1	0	0	0.10477	0.21684	0.31908	0.33295	0.15976	0.31511	0.15997	0.15193	0.038225	0.29879	0.060117	0.15659	0.061805	0.38001	0.24594	0.19176	-2.0042	-2.3438	-2.1333	-2.7542	-2.325	-2.1708	-2.7646	-2.3729	-2.4417	-2.4958	-2.3438	-2.6625	-2.4188	-2.2958	-2.6	-2.4354	140.966	159.036	17.617	-141.082	33.029	-38.466	209.565	-3.872	-8.822	159.581	209.744	-2.844	150.988	-79.534	192.985	86.234	0.00043022	0.00055934	0.00014347	1400.9	5.311e-06	6.7205e-06	1387.8	376.3	4.0725e-06	4.7804e-06	431.77	141.23	123.14	42.218	2.2602e-06	51.747	0.00041607	0.0003848	0.00010819	1416	4.3228e-06	4.1494e-06	1406.4	383.92	4.2833e-06	4.2247e-06	437.37	145.03	126.09	43.259	4.1523e-06	53.203	-79.207	-68.453	-61.616	-136.047	-6.793	6.797	-135.762	-131.181	-0.985	3.046	-131.717	-127.572	-126.895	-122.192	-26.480	-123.082	-8191	255	
21766.424	1	1	0	0	0.054583	0.30959	0.21798	0.27345	0.18032	0.15258	0.3353	0.28062	0.14166	0.19132	0.1535	0.026308	0.23757	0.058749	0.12855	0.29921	-1.8937	-2.3896	-2.2271	-2.7208	-2.5042	-2.0521	-2.8375	-2.2854	-2.3333	-2.6063	-2.2292	-2.6958	-2.6396	-2.4542	-2.5083	-2.3396	-147.875	-143.717	149.880	152.534	204.778	54.201	107.377	186.224	-125.329	-70.236	-133.526	53.352	-99.501	162.682	-67.508	126.248	0.00040308	0.00057018	8.9633e-05	1396	4.9147e-06	5.0706e-06	1385	377.57	5.3887e-06	4.4312e-06	428.84	141.05	122.67	42.144	3.1608e-06	51.841	0.00041233	0.0003761	0.00010586	1414.2	4.3435e-06	4.1262e-06	1403.2	383.76	4.2399e-06	4.076e-06	436.21	144.61	125.55	43.231	4.1909e-06	53.197	-81.453	-71.558	-75.804	-135.841	-5.849	-27.164	-135.884	-131.130	5.003	10.174	-131.762	-127.525	-127.085	-122.213	10.821	-123.334	-8191	255	
21766.545	1	1	0	0	0.23144	0.085907	0.10427	0.39267	0.1937	0.19888	0.20494	0.24833	0.22256	0.080732	0.26885	0.1919	0.37744	0.34038	0.11565	0.10471	-1.7458	-2.5354	-2.1271	-2.6188	-2.4521	-2.1917	-2.7167	-2.3979	-2.1271	-2.6875	-2.2208	-2.4708	-2.6063	-2.125	-2.5146	-2.3479	152.837	-27.115	192.929	-123.583	19.576	185.013	159.599	-116.679	-18.699	51.802	-148.952	195.020	-117.294	157.918	107.358	120.986	0.00042253	0.00042065	0.0001263	1400.8	3.4624e-06	4.5514e-06	1380.2	376.19	4.6578e-06	3.8606e-06	428.96	141.27	123.05	42.188	4.8367e-06	51.645	0.00040996	0.00039221	0.00010708	1414.4	4.259e-06	4.1122e-06	1402.3	383.58	4.2409e-06	4.0747e-06	436.56	144.75	125.78	43.254	4.1498e-06	53.23	-83.433	-37.451	-43.765	-135.943	12.625	-1.004	-135.831	-131.086	9.378	9.416	-131.607	-127.227	-126.998	-122.275	21.888	-123.122	-8191	255	
21766.639	1	1	0	0	0.073508	0.06904	0.2791	0.24757	0.34252	0.17003	0.28349	0.3469	0.09613	0.23534	0.2203	0.11044	0.041755	0.25228	0.31943	0.14052	-1.7792	-2.5333	-2.1417	-2.5667	-2.475	-2.1917	-2.7062	-2.4813	-2.2208	-2.7104	-2.2646	-2.5312	-2.5875	-2.375	-2.5771	-2.4562	16.906	201.906	8.726	204.704	183.335	-38.150	69.991	186.134	158.173	-61.494	80.255	-147.918	-28.194	201.625	52.842	142.436	0.00040607	0.00053275	0.0001243	1391.6	6.3922e-06	6.1788e-06	1383.3	377.1	3.1261e-06	5.0852e-06	427.17	141.31	122.64	41.972	5.6055e-06	51.551	0.00040764	0.00038356	0.00010501	1413.9	4.2323e-06	4.0481e-06	1404.3	383.33	4.1099e-06	4.1461e-06	436.2	144.69	125.78	43.261	4.2049e-06	53.194	-82.076	-49.346	-33.797	-135.978	16.029	8.275	-135.879	-131.320	2.302	-10.002	-131.659	-127.526	-127.019	-122.313	14.723	-123.329	-8191	255	
21766.736	1	1	0	0	0.10969	0.045707	0.16599	0.26218	0.045536	0.29007	0.16037	0.25864	0.33954	0.1505	0.20143	0.36049	0.18814	0.13784	0.33292	0.14378	-1.6917	-2.6417	-2.3083	-2.4625	-2.5187	-2.2188	-2.7438	-2.6292	-2.225	-2.7	-2.525	-2.4688	-2.6292	-2.3792	-2.5292	-2.5563	-53.951	-144.039	117.253	193.825	162.727	98.382	35.816	148.987	-37.094	-88.519	210.305	146.535	118.373	-85.793	-130.707	-85.799	0.00039906	0.00043904	0.00013505	1394.6	3.2345e-06	5.6692e-06	1383.1	376.42	2.937e-06	4.1622e-06	427.95	141.53	122.54	41.942	4.5637e-06	51.615	0.00041311	0.00036379	0.00010402	1414.7	4.1714e-06	4.1787e-06	1403.8	383.18	4.1224e-06	4.0033e-06	436.62	144.72	125.57	43.14	4.1862e-06	53.119	-86.033	-46.845	-62.041	-135.883	30.210	-11.322	-135.855	-131.180	1.882	6.913	-131.704	-127.531	-126.781	-122.331	23.097	-123.215	-8191	255	
21766.832	1	1	0	0	0.35871	0.15069	0.10137	0.093351	0.17009	0.17582	0.23757	0.055026	0.097155	0.15084	0.086302	0.26258	0.070942	0.32349	0.21741	0.11635	-1.6146	-2.3896	-2.3187	-2.3542	-2.425	-2.0875	-2.6229	-2.6208	-2.0271	-2.5667	-2.6146	-2.3542	-2.5271	-2.4583	-2.3042	-2.5604	-53.845	-42.455	-134.551	151.183	13.402	182.801	154.890	41.841	-81.239	194.774	-103.747	-121.631	151.541	-140.689	-51.558	131.112	0.00043812	0.0004847	0.00013582	1392.8	5.1358e-06	5.8177e-06	1381.1	376.61	3.3368e-06	4.0361e-06	427.75	140.46	122.34	42.051	3.6168e-06	51.523	0.00041016	0.00037102	0.00010332	1412.8	4.1623e-06	4.1621e-06	1402.1	383.56	4.2363e-06	4.0534e-06	435.94	144.46	125.49	43.141	4.1031e-06	53.082	-81.892	-72.359	-51.768	-135.811	-3.176	14.724	-136.013	-131.148	9.837	-3.012	-131.906	-127.341	-126.978	-122.343	9.042	-123.287	-8191	255	
21766.928	1	1	0	0	0.22565	0.03963	0.34283	0.35399	0.21554	0.077158	0.27661	0.24174	0.12873	0.16209	0.1866	0.31597	0.2012	0.17263	0.10518	0.04702	-1.7021	-2.45	-2.3271	-2.4104	-2.5375	-2.3083	-2.6646	-2.8063	-2.1708	-2.5521	-2.5646	-2.3375	-2.6458	-2.5333	-2.425	-2.725	37.965	-5.724	178.456	125.196	-29.205	54.948	147.507	-144.145	157.013	167.377	90.246	140.874	146.504	23.248	181.858	116.502	0.00040891	0.00047806	8.4355e-05	1390.7	2.8937e-06	5.6124e-06	1381.2	374.39	4.6256e-06	5.0901e-06	428.72	140.7	122.57	42.02	3.6183e-06	51.669	0.00041514	0.00037711	0.00010557	1412.5	4.1523e-06	4.2265e-06	1402.1	382.46	4.1829e-06	4.0775e-06	436.27	144.65	125.65	43.21	4.1651e-06	53.139	-81.892	-71.861	-56.958	-135.778	-3.335	24.671	-135.775	-131.380	4.430	-16.407	-131.804	-127.316	-126.913	-122.552	3.272	-123.230	-8191	255	
21767.023	1	1	0	0	0.36279	0.16468	0.23908	0.38175	0.21475	0.23327	0.17297	0.16881	0.25655	0.28559	0.12153	0.10175	0.15096	0.078169	0.12515	0.052128	-1.8604	-2.7292	-2.3917	-2.4708	-2.6625	-2.225	-2.4354	-2.7771	-2.1042	-2.4729	-2.6875	-2.2521	-2.5833	-2.3812	-2.2958	-2.4688	137.907	192.026	-92.802	139.860	-61.165	-78.316	105.956	18.667	183.214	-19.222	-115.158	200.776	-72.430	-51.173	70.735	105.035	0.00041524	0.00046835	0.00012252	1395.3	5.3697e-06	4.5013e-06	1386.1	375.75	3.1993e-06	4.911e-06	429.22	141.45	122.53	41.924	5.7405e-06	51.723	0.00041316	0.00036852	0.00010343	1414.8	4.159e-06	4.154e-06	1405.3	383.53	4.3213e-06	4.1566e-06	437.67	144.96	125.84	43.224	4.2184e-06	53.089	-84.555	-65.470	-53.200	-135.896	-10.393	0.813	-135.972	-131.192	-23.549	38.275	-131.703	-127.530	-126.888	-122.307	-2.558	-123.409	-8191	255	
21767.145	1	1	0	0	0.18376	0.11575	0.084226	0.57595	0.11834	0.05114	0.31095	0.12105	0.15011	0.33049	0.16639	0.085225	0.17574	0.23963	0.32262	0.34352	-1.7313	-2.3042	-2.4917	-2.4021	-2.5792	-2.2979	-2.3438	-2.8896	-2.4333	-2.3708	-2.7479	-2.3812	-2.4688	-2.4417	-2.0458	-2.4521	90.891	57.064	122.850	170.184	23.026	95.200	122.206	86.092	179.132	107.752	26.275	134.774	-46.380	151.060	-25.936	135.325	0.0004333	0.00034601	0.00010537	1398	4.0049e-06	5.8519e-06	1378.5	377.05	4.3201e-06	5.0676e-06	427.41	141.11	123.38	41.991	5.009e-06	51.65	0.00040871	0.0003699	0.00010394	1416.1	4.1516e-06	4.1077e-06	1404.1	384.33	4.2094e-06	4.1866e-06	435.84	144.84	126.05	43.194	4.2192e-06	53.194	-81.381	-58.338	-64.803	-135.805	-0.437	-12.685	-136.098	-131.539	-5.435	0.719	-131.788	-127.318	-126.960	-122.539	28.942	-123.251	-8191	255	
21767.240	1	1	0	0	0.17186	0.19005	0.24517	0.19426	0.10822	0.22293	0.085165	0.18494	0.11397	0.18717	0.11994	0.18881	0.088113	0.18738	0.23232	0.14437	-1.8417	-2.1708	-2.3646	-2.2625	-2.5083	-2.5479	-2.2896	-2.6396	-2.2771	-2.2979	-2.5458	-2.2125	-2.3771	-2.6167	-2.2125	-2.6437	67.638	-107.692	129.151	203.920	120.774	129.499	92.900	119.861	144.034	-29.876	59.320	203.923	-0.826	-102.853	195.446	113.943	0.00037794	0.00052316	0.00013443	1394.3	4.6722e-06	7.0183e-06	1384.5	376.68	5.1006e-06	4.7964e-06	426.28	140.97	123.25	42.001	5.6837e-06	51.628	0.00041003	0.00036969	0.0001054	1414.2	4.0788e-06	4.1227e-06	1405.3	384.38	4.2005e-06	4.1667e-06	435.51	144.97	125.97	43.292	4.1447e-06	53.148	-76.979	-72.113	-61.603	-135.875	-2.927	-9.909	-135.917	-131.341	1.743	-22.774	-131.961	-127.334	-127.195	-122.082	16.949	-123.390	-8191	255	
21767.336	1	1	0	0	0.23386	0.24313	0.099523	0.33376	0.090952	0.25756	0.015693	0.21128	0.3491	0.23413	0.37743	0.1599	0.074973	0.18224	0.19541	0.27382	-1.8771	-2.1833	-2.4583	-2.3729	-2.325	-2.5292	-2.3375	-2.5854	-2.2125	-2.1604	-2.6229	-2.3979	-2.475	-2.5083	-2.1208	-2.6208	-103.015	-13.757	179.763	195.403	-80.475	-53.489	67.460	163.602	96.937	93.581	169.849	103.571	-136.653	121.073	128.504	192.090	0.0004126	0.00037333	0.00014149	1395.2	4.8083e-06	4.6285e-06	1382.1	375.7	2.5528e-06	4.5798e-06	428.1	141.77	122.88	42.083	4.1743e-06	51.772	0.00039784	0.00037047	9.8588e-05	1414.3	4.0423e-06	4.017e-06	1405.3	383.58	4.2383e-06	4.0473e-06	436.18	145.01	125.71	43.245	4.1284e-06	53.115	-84.902	-84.350	-48.679	-135.853	-1.721	3.567	-135.841	-131.086	-16.495	-14.190	-131.682	-127.610	-126.894	-122.338	28.913	-123.443	-8191	255	
21767.432	1	1	0	0	0.099598	0.17298	0.097747	0.32612	0.16111	0.063109	0.41899	0.087298	0.082484	0.11058	0.20297	0.1119	0.17056	0.23616	0.14665	0.2268	-2.0896	-2.3208	-2.375	-2.425	-2.4333	-2.6	-2.5042	-2.7604	-2.5563	-2.1688	-2.7104	-2.2771	-2.4917	-2.6646	-2.1688	-2.5479	-49.817	162.334	-108.115	173.086	23.775	-44.880	108.334	159.378	-35.669	175.282	164.979	148.056	125.051	166.823	188.224	161.394	0.00040518	0.000632	0.00015799	1391.9	4.2698e-06	4.9372e-06	1382.4	376.21	3.8995e-06	4.9629e-06	429.88	141.42	123.02	42.064	4.2354e-06	51.985	0.00039992	0.00037731	9.9817e-05	1413.2	4.1861e-06	3.9135e-06	1402.6	383.83	4.0921e-06	4.0165e-06	437.23	145	125.93	43.23	4.216e-06	53.321	-81.650	-58.367	-58.000	-135.818	-9.483	2.894	-135.880	-131.299	-8.590	12.151	-131.702	-127.484	-126.834	-122.345	-4.413	-123.286	-8191	255	
21767.504	1	1	0	0	0.10719	0.37045	0.26129	0.15171	0.15012	0.084656	0.19021	0.23262	0.057329	0.17925	0.06343	0.18086	0.22361	0.25364	0.19744	0.26935	-2.1	-2.1688	-2.6979	-2.6125	-2.4021	-2.4938	-2.2167	-2.6667	-2.4333	-2.1917	-2.6646	-2.4354	-2.3	-2.675	-2.1813	-2.5208	-122.403	29.524	12.609	167.024	114.227	-138.413	-126.962	132.444	-64.552	150.672	204.942	-24.864	157.170	-101.895	-92.494	142.910	0.00042003	0.00047776	0.00015371	1394.5	5.6995e-06	6.1418e-06	1378.8	375.73	6.2159e-06	4.5163e-06	427.89	141.73	123.05	41.939	4.728e-06	51.758	0.00039441	0.00036457	0.00010154	1413.6	4.0928e-06	4.0237e-06	1401.7	383.34	4.0719e-06	3.9176e-06	436.15	144.79	125.56	43.169	4.0903e-06	53.194	-82.373	-81.050	-72.279	-135.773	-0.413	8.694	-135.916	-131.341	3.888	-1.508	-131.805	-127.619	-127.122	-122.525	15.037	-123.150	-8191	255	
21767.625	1	1	0	0	0.28635	0.18144	0.20241	0.1666	0.15133	0.27197	0.16063	0.29546	0.027533	0.12142	0.088607	0.019323	0.082362	0.18575	0.12164	0.20697	-1.9792	-1.9958	-2.5333	-2.6667	-2.2167	-2.6125	-2.3292	-2.5542	-2.675	-1.9458	-2.5917	-2.4229	-2.2771	-2.6479	-2.2375	-2.3271	172.663	35.459	-106.351	208.709	92.360	-50.536	191.142	182.748	78.551	7.373	-73.812	166.867	143.680	8.043	186.669	191.776	0.00044367	0.00062436	0.00013036	1392.6	3.687e-06	5.5052e-06	1382.3	374.99	4.152e-06	5.1797e-06	428.17	140.93	122.59	41.978	4.2175e-06	51.511	0.00040066	0.00036726	0.00010037	1410.6	4.0716e-06	3.9165e-06	1400.3	383.04	4.0815e-06	4.0112e-06	435.64	144.51	125.45	43.126	4.0178e-06	53.09	-82.896	-54.625	-77.365	-135.850	1.195	10.804	-135.594	-131.140	-1.111	-10.146	-131.600	-127.438	-127.152	-122.508	1.528	-123.118	-8191	255	
21767.719	1	1	0	0	0.1057	0.10295	0.22587	0.161	0.30982	0.30926	0.063026	0.3306	0.10914	0.17105	0.14097	0.22735	0.16043	0.24092	0.072866	0.11306	-2.0354	-2.3021	-2.4271	-2.5854	-2.2833	-2.4833	-2.4188	-2.525	-2.5458	-2.1688	-2.6	-2.5021	-2.0938	-2.5042	-2.2104	-2.3812	161.216	129.135	171.664	142.425	-148.644	-135.878	-29.965	159.912	56.165	-50.742	153.982	168.804	-48.452	159.117	-22.865	122.291	0.0004189	0.00077128	0.00016361	1389.3	4.2379e-06	3.9732e-06	1383.6	376.5	3.9844e-06	4.3516e-06	429.14	141.13	122.35	41.891	4.801e-06	51.839	0.00040302	0.00036653	0.00010076	1410.5	4.0692e-06	3.9878e-06	1402.8	383.38	4.0297e-06	4.0033e-06	435.88	144.57	125.5	43.099	4.0618e-06	53.13	-80.694	-57.699	-51.801	-135.812	-6.909	14.647	-135.874	-131.213	10.931	10.521	-131.744	-127.491	-126.955	-122.310	15.789	-123.344	-8191	255	
#DATA ENDS
