BOXY.EXE: ISS Imagent and Oximeter Data Acquisition Program Version 0.80
Ascii Record File

#ACQ INFORMATION
2  Detector Channels 
16  External MUX Channels 
1  Auxiliary Channels 
5000  Waveform (CCF) Frequency (Hz)
1  Waveforms Skipped 
30  Waveforms Averaged 
1  Cycles Averaged 
16  Acquisitions per Waveform 
10.0806  Updata Rate (Hz) 

#FILE INFORMATION
TRUE -- External MUX Channel results are PARSED.
FALSE -- AC DC and Phase are NOT grouped.
TRUE -- Companion Program Settings File CREATED.
FALSE -- AC data not excluded
FALSE -- DC data not excluded
FALSE -- Phase data not excluded
FALSE -- Auxillary Chn. data not excluded
Tab delimiters

#CALIBRATION STATE
TRUE -- Waveform Calibration Values APPLIED.


#AUX CALIBRATION VALUES
Val Type	aux-1	

Term	1.0000e+00	
Factor	0.0000e+00	


#WF CALIBRATION VALUES
A = Detector Channel
Val Type	A-AC1	A-AC2	A-AC3	A-AC4	A-AC5	A-AC6	A-AC7	A-AC8	A-AC9	A-AC10	A-AC11	A-AC12	A-AC13	A-AC14	A-AC15	A-AC16	A-DC1	A-DC2	A-DC3	A-DC4	A-DC5	A-DC6	A-DC7	A-DC8	A-DC9	A-DC10	A-DC11	A-DC12	A-DC13	A-DC14	A-DC15	A-DC16	A-Ph1	A-Ph2	A-Ph3	A-Ph4	A-Ph5	A-Ph6	A-Ph7	A-Ph8	A-Ph9	A-Ph10	A-Ph11	A-Ph12	A-Ph13	A-Ph14	A-Ph15	A-Ph16	

Term	0.00000e+00	0.00000e+00	0.00000e+00	0.00000e+00	0.00000e+00	0.00000e+00	0.00000e+00	0.00000e+00	0.00000e+00	0.00000e+00	0.00000e+00	0.00000e+00	0.00000e+00	0.00000e+00	0.00000e+00	0.00000e+00	0.00000e+00	0.00000e+00	0.00000e+00	0.00000e+00	0.00000e+00	0.00000e+00	0.00000e+00	0.00000e+00	0.00000e+00	0.00000e+00	0.00000e+00	0.00000e+00	0.00000e+00	0.00000e+00	0.00000e+00	0.00000e+00	0.00000e+00	0.00000e+00	0.00000e+00	0.00000e+00	0.00000e+00	0.00000e+00	0.00000e+00	0.00000e+00	0.00000e+00	0.00000e+00	0.00000e+00	0.00000e+00	0.00000e+00	0.00000e+00	0.00000e+00	0.00000e+00	
Factor	1.00000e+00	1.00000e+00	1.00000e+00	1.00000e+00	1.00000e+00	1.00000e+00	1.00000e+00	1.00000e+00	1.00000e+00	1.00000e+00	1.00000e+00	1.00000e+00	1.00000e+00	1.00000e+00	1.00000e+00	1.00000e+00	1.00000e+00	1.00000e+00	1.00000e+00	1.00000e+00	1.00000e+00	1.00000e+00	1.00000e+00	1.00000e+00	1.00000e+00	1.00000e+00	1.00000e+00	1.00000e+00	1.00000e+00	1.00000e+00	1.00000e+00	1.00000e+00	X	X	X	X	X	X	X	X	X	X	X	X	X	X	X	X	

B = Detector Channel
Val Type	B-AC1	B-AC2	B-AC3	B-AC4	B-AC5	B-AC6	B-AC7	B-AC8	B-AC9	B-AC10	B-AC11	B-AC12	B-AC13	B-AC14	B-AC15	B-AC16	B-DC1	B-DC2	B-DC3	B-DC4	B-DC5	B-DC6	B-DC7	B-DC8	B-DC9	B-DC10	B-DC11	B-DC12	B-DC13	B-DC14	B-DC15	B-DC16	B-Ph1	B-Ph2	B-Ph3	B-Ph4	B-Ph5	B-Ph6	B-Ph7	B-Ph8	B-Ph9	B-Ph10	B-Ph11	B-Ph12	B-Ph13	B-Ph14	B-Ph15	B-Ph16	

Term	0.00000e+00	0.00000e+00	0.00000e+00	0.00000e+00	0.00000e+00	0.00000e+00	0.00000e+00	0.00000e+00	0.00000e+00	0.00000e+00	0.00000e+00	0.00000e+00	0.00000e+00	0.00000e+00	0.00000e+00	0.00000e+00	0.00000e+00	0.00000e+00	0.00000e+00	0.00000e+00	0.00000e+00	0.00000e+00	0.00000e+00	0.00000e+00	0.00000e+00	0.00000e+00	0.00000e+00	0.00000e+00	0.00000e+00	0.00000e+00	0.00000e+00	0.00000e+00	-1.10335e+02	-1.62587e+02	-1.90705e+02	-1.85735e+02	-7.95890e+01	-9.80034e+01	-1.58876e+02	-1.62015e+02	-9.35963e+01	-1.16549e+02	-1.73504e+02	-1.69991e+02	-1.80150e+02	-1.77034e+02	-1.13923e+02	-1.49910e+02	
Factor	1.77319e-05	8.39323e-05	2.32807e-05	6.63806e-01	6.50858e-07	8.58057e-07	1.78611e-01	5.53004e-02	7.65979e-07	9.03384e-07	9.65138e-02	3.13854e-02	2.64622e-02	1.04344e-02	8.22500e-07	1.50170e-02	3.36373e-07	3.38385e-07	9.36488e-08	2.35456e-01	3.72523e-09	3.70374e-09	7.59690e-02	2.46404e-02	3.72491e-09	3.70198e-09	3.96877e-02	1.30564e-02	1.13969e-02	4.37442e-03	3.68760e-09	5.98844e-03	X	X	X	X	X	X	X	X	X	X	X	X	X	X	X	X	



#DISTANCE SETTINGS
A = Detector Channel
A-1	A-2	A-3	A-4	A-5	A-6	A-7	A-8	A-9	A-10	A-11	A-12	A-13	A-14	A-15	A-16	

2.5000e+00	3.0000e+00	2.5000e+00	3.0000e+00	2.0000e+00	3.0000e+00	1.5000e+00	3.0000e+00	3.0000e+00	3.0000e+00	3.0000e+00	3.0000e+00	3.0000e+00	3.0000e+00	1.5000e+00	3.0000e+00	

B = Detector Channel
B-1	B-2	B-3	B-4	B-5	B-6	B-7	B-8	B-9	B-10	B-11	B-12	B-13	B-14	B-15	B-16	

1.0000e+01	1.0000e+01	1.0000e+01	1.4400e+00	1.0000e+01	1.0000e+01	1.5100e+00	1.9400e+00	1.0000e+01	1.0000e+01	1.9900e+00	2.4900e+00	2.4100e+00	2.9000e+00	1.0000e+01	2.9800e+00	




#DATA BEGINS
time	group	step	mark	flag	A-AC1	A-AC2	A-AC3	A-AC4	A-AC5	A-AC6	A-AC7	A-AC8	A-AC9	A-AC10	A-AC11	A-AC12	A-AC13	A-AC14	A-AC15	A-AC16	A-DC1	A-DC2	A-DC3	A-DC4	A-DC5	A-DC6	A-DC7	A-DC8	A-DC9	A-DC10	A-DC11	A-DC12	A-DC13	A-DC14	A-DC15	A-DC16	A-Ph1	A-Ph2	A-Ph3	A-Ph4	A-Ph5	A-Ph6	A-Ph7	A-Ph8	A-Ph9	A-Ph10	A-Ph11	A-Ph12	A-Ph13	A-Ph14	A-Ph15	A-Ph16	B-AC1	B-AC2	B-AC3	B-AC4	B-AC5	B-AC6	B-AC7	B-AC8	B-AC9	B-AC10	B-AC11	B-AC12	B-AC13	B-AC14	B-AC15	B-AC16	B-DC1	B-DC2	B-DC3	B-DC4	B-DC5	B-DC6	B-DC7	B-DC8	B-DC9	B-DC10	B-DC11	B-DC12	B-DC13	B-DC14	B-DC15	B-DC16	B-Ph1	B-Ph2	B-Ph3	B-Ph4	B-Ph5	B-Ph6	B-Ph7	B-Ph8	B-Ph9	B-Ph10	B-Ph11	B-Ph12	B-Ph13	B-Ph14	B-Ph15	B-Ph16	aux-1	digaux	

6725.111	1	1	0	256	0.14611	0.18231	0.23236	0.15879	0.26414	0.14144	0.45369	0.052499	0.3356	0.23453	0.23854	0.29786	0.2323	0.15782	0.056023	0.26475	-1.9896	-2.8646	-2.3417	-2.6708	-2.8083	-2.575	-2.9021	-2.825	-2.3208	-3.0542	-2.575	-2.8396	-2.8458	-2.4	-2.7021	-2.8167	93.637	38.328	33.755	19.943	198.504	-49.917	195.596	36.392	-69.332	9.222	-90.001	250.632	249.243	249.192	-56.138	-29.895	0.00013157	0.00017935	8.4177e-05	1341.9	6.4537e-06	6.4765e-06	1338.5	359.86	3.3602e-06	3.3363e-06	417.19	138.2	119.52	41.735	2.8226e-06	52.104	0.00034417	0.00034146	0.00010607	1217	3.6949e-06	3.7921e-06	1307.2	349.81	3.704e-06	3.7959e-06	399.62	133.71	114.8	39.979	4.1427e-06	49.588	186.059	102.374	-16.314	-84.603	26.590	236.728	-84.309	-79.900	3.702	93.976	-80.541	-76.179	-75.554	-70.844	-6.141	-71.812	-8191	255	
6725.207	1	1	0	0	0.16924	0.20091	0.22574	0.27644	0.31726	0.18473	0.18096	0.28811	0.19487	0.17993	0.21693	0.13726	0.27905	0.070231	0.16888	0.055131	-1.9521	-2.8375	-2.3646	-2.6042	-2.85	-2.3688	-3.0146	-2.6813	-2.4479	-2.9458	-2.6875	-2.6521	-3.0938	-2.525	-2.7521	-2.9229	150.505	196.873	201.835	165.540	81.684	219.751	-77.776	171.077	191.325	149.244	199.266	250.879	219.750	209.583	106.731	103.422	0.00020849	0.00047405	0.00021222	1340.8	2.6572e-06	5.2842e-06	1339.8	358.93	5.136e-06	1.198e-06	417.14	138.71	119.71	41.7	7.094e-07	52.279	0.0003347	0.00035562	0.00010416	1209.5	3.5736e-06	3.9357e-06	1302.9	348.82	3.5605e-06	3.9082e-06	397.27	132.88	114.17	39.978	3.8466e-06	49.133	243.691	139.802	-68.681	-84.704	99.988	131.691	-84.469	-80.024	-30.809	257.498	-80.214	-76.103	-75.528	-70.972	246.533	-71.855	-8191	255	
6725.303	1	1	0	0	0.23093	0.085332	0.17871	0.22058	0.10524	0.20361	0.42115	0.22228	0.056202	0.15873	0.07524	0.092419	0.16416	0.17918	0.15678	0.22015	-2.1021	-2.6625	-2.4833	-2.8438	-2.6229	-2.5521	-2.75	-2.85	-2.4562	-2.9104	-2.7625	-2.7521	-3.0604	-2.6312	-2.6604	-2.7771	1.677	76.054	65.700	-64.566	-33.203	178.495	184.361	169.323	175.715	79.869	133.702	205.554	-24.625	-75.634	19.887	193.087	0.00029067	0.0003958	5.141e-05	1339.8	3.7683e-06	1.5503e-06	1338.2	359.69	2.9182e-06	1.0232e-06	416.17	138.52	119.62	41.993	1.9306e-06	52.284	0.0003182	0.00035406	9.5455e-05	1188.1	3.4023e-06	3.8115e-06	1293.1	346.29	3.3588e-06	3.6991e-06	391.79	131.53	113.58	39.763	3.4063e-06	48.382	211.223	-12.788	-72.541	-84.777	-1.786	142.490	-84.681	-80.001	249.838	210.330	-80.496	-76.237	-75.477	-71.063	77.654	-71.671	-8191	255	
6725.424	1	1	0	0	0.25933	0.10075	0.26087	0.10977	0.054659	0.28001	0.2239	0.16049	0.074539	0.11377	0.36725	0.27503	0.16022	0.30154	0.10814	0.095707	-1.9542	-2.8125	-2.4125	-2.5854	-2.8917	-2.4542	-2.8833	-2.8896	-2.5104	-2.9021	-2.6896	-2.7083	-2.9208	-2.4729	-2.4562	-3.0354	83.971	-54.292	257.035	103.135	11.022	111.217	213.739	171.832	257.966	61.835	210.246	178.482	87.039	217.527	28.311	204.273	0.00017443	0.00011342	1.5486e-05	1339	6.8466e-07	4.802e-06	1335.2	358.25	2.7125e-06	3.437e-06	416.03	138.59	119.46	41.972	2.0951e-06	52.388	0.00030318	0.00033344	8.5749e-05	1165.7	3.3482e-06	3.6884e-06	1286.3	344.45	3.4747e-06	3.7203e-06	391.8	131.62	114.56	39.906	3.5357e-06	48.701	201.987	26.185	19.148	-84.846	121.477	9.606	-84.449	-79.788	102.996	5.971	-80.095	-76.132	-75.659	-70.958	29.473	-71.457	-8191	255	
6725.520	1	1	0	0	0.29529	0.24102	0.12788	0.084184	0.20531	0.13066	0.23493	0.28924	0.19773	0.047092	0.20628	0.15537	0.28464	0.32835	0.054078	0.18166	-1.9688	-2.7812	-2.5896	-2.3312	-3.0042	-2.6146	-2.7292	-2.8417	-2.5521	-2.8708	-2.8792	-2.4854	-2.9292	-2.8521	-2.6188	-3.0792	48.294	-14.452	233.917	65.970	13.868	133.441	240.090	-93.809	-40.826	246.917	186.871	145.872	237.531	-90.525	39.814	-81.181	0.00019406	0.00060914	5.46e-05	1344.7	4.2272e-06	2.1121e-06	1343.2	359.57	5.9559e-06	5.0117e-06	416.8	138.47	120.02	42.032	1.0401e-06	52.514	0.00033961	0.00034926	8.9655e-05	1183.4	3.7493e-06	3.8048e-06	1296.7	346.7	3.8428e-06	3.7776e-06	393.23	132.45	115.87	39.99	3.5606e-06	49.046	182.655	-59.457	257.333	-84.552	241.458	-9.913	-84.490	-79.875	177.754	-63.357	-80.286	-75.991	-75.563	-70.877	-29.242	-71.595	-8191	255	
6725.592	1	1	0	0	0.25289	0.24415	0.10109	0.17753	0.060024	0.13495	0.081339	0.34165	0.14189	0.17715	0.099564	0.26497	0.21271	0.042838	0.12623	0.16551	-2.0854	-2.6208	-2.7521	-2.6208	-2.8792	-2.4917	-2.8583	-2.9813	-2.5729	-2.6312	-2.975	-2.5854	-2.9896	-2.5833	-2.3542	-3.0062	48.029	184.856	80.860	-1.629	218.438	260.652	239.255	120.629	261.284	-92.380	-91.750	-69.708	234.916	203.995	57.954	199.373	0.00019135	0.00044101	0.00024622	1351.4	3.9015e-06	7.7535e-06	1345.1	361.66	4.3241e-06	6.0407e-06	416.99	138.4	120.68	42.395	6.2491e-06	52.742	0.0003639	0.00035023	9.0765e-05	1199.2	4.053e-06	3.8735e-06	1302.8	349.73	4.1374e-06	3.8892e-06	395.33	133.99	117.46	40.324	3.6928e-06	49.757	193.296	-60.541	-78.033	-84.588	159.072	16.830	-84.500	-79.983	210.470	-39.857	-80.203	-76.239	-75.822	-71.024	-13.361	-71.474	-8191	255	
6725.688	1	1	0	0	0.19051	0.16185	0.38943	0.051786	0.23498	0.085988	0.23736	0.034519	0.2677	0.095855	0.16576	0.22292	0.34746	0.18132	0.10015	0.35136	-1.8833	-2.6021	-2.9021	-2.2979	-2.8229	-2.7333	-2.6542	-2.975	-2.7979	-2.6604	-2.8729	-2.6667	-2.8396	-2.725	-2.1604	-2.9646	-73.981	68.562	196.038	169.865	-7.680	-86.333	-70.529	179.276	-32.177	-53.699	239.186	-37.847	177.079	-15.153	217.396	196.648	0.00018307	0.00035759	8.5683e-05	1350.9	1.9711e-06	3.8547e-06	1358.4	361.98	3.1372e-06	2.4154e-06	421.2	139.89	121.32	42.367	3.3219e-06	52.742	0.00038471	0.00035886	9.2992e-05	1225.2	4.2268e-06	3.902e-06	1312.9	353.03	4.2603e-06	3.9448e-06	398.47	135.77	117.95	40.457	3.7538e-06	50.508	239.151	252.933	-32.977	-84.306	89.806	-5.449	-84.522	-79.898	17.433	256.425	-80.348	-76.193	-75.585	-70.946	-83.634	-71.796	-8191	255	
6725.809	1	1	0	0	0.27706	0.28277	0.26045	0.03689	0.029004	0.095515	0.15711	0.28269	0.24076	0.22388	0.34854	0.16974	0.13309	0.17401	0.25881	0.2147	-2.2146	-2.4521	-2.8167	-2.3958	-2.8125	-2.7188	-2.6458	-3.0542	-2.7104	-2.4938	-3.0417	-2.5187	-2.6479	-2.7521	-2.2896	-2.9792	258.599	-91.488	144.421	-11.802	62.187	-21.560	-43.053	222.008	-21.354	-17.248	194.406	149.530	-57.674	134.490	-82.452	195.286	2.0609e-05	0.00035638	5.362e-05	1358.5	4.2353e-06	1.0436e-05	1360.2	363.18	4.1931e-06	4.6542e-06	421.79	139.52	121.07	42.19	3.0265e-06	52.842	0.00039211	0.00036621	9.5439e-05	1255.9	4.2916e-06	3.9701e-06	1321	355.82	4.2378e-06	3.9666e-06	399.91	136.4	117.84	40.38	3.8425e-06	50.899	-37.304	184.478	-93.166	-84.642	12.418	20.542	-84.468	-79.997	1.237	2.149	-80.461	-76.287	-75.591	-70.981	223.613	-71.615	-8191	255	
6725.903	1	1	0	0	0.37334	0.091589	0.16883	0.15885	0.15648	0.2302	0.065903	0.12137	0.1793	0.22574	0.15005	0.22239	0.45999	0.3675	0.13489	0.26369	-2.1021	-2.6021	-2.9396	-2.6354	-2.7188	-2.5229	-2.7271	-2.7667	-2.5604	-2.3604	-2.9021	-2.5479	-2.7875	-2.9188	-2.4875	-2.8146	111.076	64.185	-59.495	154.025	120.509	-93.206	238.067	-76.290	256.772	150.582	189.780	-74.039	199.459	240.832	120.967	229.566	0.00012169	0.00016316	0.00013241	1359.5	6.1025e-06	6.602e-06	1361.1	364.39	2.7962e-06	3.3038e-06	420.29	139.74	121.01	42.279	7.3874e-06	52.627	0.00038297	0.00035946	9.8059e-05	1264	4.18e-06	3.8978e-06	1325.7	357.28	4.1828e-06	3.9728e-06	403.14	137.37	118.01	40.549	4.2645e-06	51.11	226.098	-54.303	227.355	-84.606	46.756	-12.806	-84.600	-79.999	253.812	-15.518	-80.223	-76.319	-75.606	-71.096	159.183	-71.989	-8191	255	
6726.001	1	1	0	0	0.15111	0.17726	0.094793	0.16239	0.14426	0.1495	0.27249	0.21903	0.082346	0.33456	0.10369	0.10808	0.076583	0.24573	0.041278	0.13534	-2.0354	-2.4542	-2.7938	-2.6458	-2.6792	-2.9375	-2.7062	-2.8312	-2.5229	-2.3479	-2.9813	-2.6208	-2.6917	-2.7146	-2.3271	-2.8771	31.324	-72.205	-36.512	14.074	-36.475	83.771	223.416	176.288	-29.538	40.415	42.542	200.198	-93.860	261.478	90.430	156.882	8.2662e-05	0.0004522	0.00013922	1372.2	1.6116e-06	5.4406e-06	1364.7	363.24	5.7317e-06	1.5136e-06	423.15	139.99	121.59	42.446	1.8986e-06	52.939	0.00039634	0.00037539	0.00011023	1285.5	4.4008e-06	4.0845e-06	1339.9	359.64	4.4044e-06	4.141e-06	409.13	138.1	118.53	40.646	4.5876e-06	51.237	223.236	-35.303	22.189	-84.677	16.804	20.213	-84.523	-79.860	-52.874	-30.351	-80.559	-76.116	-75.746	-70.956	149.584	-71.404	-8191	255	
6726.120	1	1	0	0	0.048636	0.14243	0.077037	0.25355	0.15245	0.26213	0.084538	0.15529	0.15139	0.2766	0.38814	0.22473	0.1422	0.18962	0.17625	0.27799	-2.3	-2.3333	-2.6667	-2.6667	-2.5938	-2.6437	-2.7604	-2.6688	-2.65	-2.4396	-2.7771	-2.5854	-2.6583	-2.8563	-2.5062	-2.8792	-35.874	117.484	38.121	106.171	-33.981	6.252	226.839	190.065	149.423	34.506	210.353	-76.646	240.000	-40.311	232.074	182.087	0.00014208	0.00044372	8.8024e-05	1376.3	1.8471e-06	4.4891e-06	1361	364.1	1.8985e-06	3.5667e-06	421.6	139.89	121.41	42.52	2.258e-06	52.577	0.00039085	0.00037055	0.00011505	1272.9	4.2485e-06	4.0106e-06	1337.1	357.79	4.1688e-06	4.0529e-06	408.65	136.88	117.8	40.639	4.5721e-06	50.749	215.817	239.620	85.475	-84.746	25.966	120.650	-84.701	-79.946	91.435	144.508	-80.478	-76.407	-75.764	-71.177	196.130	-71.504	-8191	255	
6726.216	1	1	0	0	0.092753	0.2816	0.18611	0.12979	0.088045	0.24889	0.0082142	0.24157	0.18054	0.081394	0.075582	0.15502	0.14478	0.1914	0.20882	0.27185	-2.3812	-2.4333	-2.7479	-2.5583	-2.4208	-2.8563	-2.5646	-2.3875	-2.9646	-2.4354	-2.9062	-2.7396	-2.7979	-3.0375	-2.45	-2.6083	17.964	37.256	-75.506	119.967	-63.174	212.227	184.273	213.557	229.897	38.104	199.458	201.581	-12.494	221.945	20.009	69.515	0.0002099	0.00031916	0.00010436	1369.5	1.9808e-06	2.7755e-06	1364.8	364.17	2.1696e-06	2.3445e-06	420.67	139.49	121.4	42.088	2.6378e-07	52.802	0.00037244	0.00037428	0.00011578	1255.7	4.077e-06	4.0933e-06	1337.7	355.97	4.0001e-06	4.1788e-06	407.15	136.21	117.08	40.709	4.4986e-06	50.422	225.031	37.860	92.108	-84.730	29.884	110.561	-84.486	-79.980	-31.165	124.334	-80.196	-75.974	-75.656	-70.925	225.608	-71.590	-8191	255	
6726.288	1	1	0	0	0.070055	0.10177	0.11947	0.27874	0.16479	0.06703	0.11407	0.26095	0.09123	0.07813	0.063427	0.10804	0.2993	0.337	0.080043	0.046305	-2.5292	-2.3167	-2.7521	-2.7729	-2.5083	-2.7771	-2.7896	-2.9188	-2.75	-2.4646	-2.9292	-2.7458	-2.5833	-2.7125	-2.3583	-2.325	-39.926	217.040	12.742	-30.147	2.768	82.328	164.421	183.673	-14.680	172.971	139.950	-9.362	180.865	-84.752	32.050	234.132	8.566e-05	0.00050043	0.00020976	1360.5	4.2775e-06	3.2266e-06	1357.6	364.36	2.5359e-06	2.9299e-06	419.32	139.17	120.66	42.205	7.0412e-06	52.606	0.00035763	0.00039173	0.00011325	1245.6	3.9357e-06	4.3059e-06	1333.1	355.56	3.9191e-06	4.4072e-06	405.87	135.64	116.82	40.965	4.4188e-06	50.339	228.460	33.530	218.734	-84.423	35.118	132.763	-84.543	-79.992	8.259	31.303	-80.508	-76.153	-75.706	-70.895	-45.625	-71.372	-8191	255	
6726.408	1	1	0	0	0.17686	0.22083	0.23021	0.17937	0.12907	0.12316	0.28391	0.26019	0.32052	0.094267	0.089702	0.17556	0.12554	0.19284	0.13167	0.14074	-2.4479	-2.375	-2.4896	-2.6417	-2.4562	-2.9229	-2.6437	-2.7083	-2.8771	-2.5792	-2.7521	-2.9125	-2.4562	-3.0229	-2.5021	-2.6333	222.058	98.636	176.072	67.398	185.017	113.875	178.524	-74.083	155.379	62.990	217.592	243.189	-90.082	101.258	-12.153	148.305	0.00026215	0.00037951	0.00020969	1355.1	4.2211e-06	2.741e-06	1362.4	363.5	1.9774e-06	9.4886e-06	419.76	139.64	119.94	42.248	6.6421e-06	52.492	0.00036488	0.0004178	0.0001121	1244.3	4.0806e-06	4.5786e-06	1332.1	355.2	4.0813e-06	4.627e-06	405.09	135.43	117.14	41.192	4.3406e-06	50.186	212.842	-49.957	-23.815	-84.694	112.513	139.466	-84.347	-79.759	200.177	146.618	-80.329	-76.052	-75.909	-71.161	-6.758	-71.297	-8191	255	
6726.504	1	1	0	0	0.12202	0.20422	0.11558	0.19601	0.07591	0.16556	0.053674	0.30321	0.32311	0.28953	0.095647	0.1934	0.13504	0.076671	0.34161	0.11079	-2.4125	-2.4458	-2.7729	-2.8812	-2.5292	-2.9167	-2.6437	-2.5854	-2.8917	-2.5771	-2.9437	-2.9313	-2.5771	-2.7979	-2.7125	-2.5	-95.422	-80.861	229.887	108.910	114.521	179.643	94.809	194.161	-26.007	185.190	52.410	231.109	10.062	-37.639	180.329	211.572	0.00016646	0.0012371	6.6613e-05	1359.2	1.7527e-06	5.0633e-06	1360.1	362.93	4.3317e-06	2.6636e-06	419.38	138.61	120.3	42.222	1.8389e-06	52.523	0.00038538	0.00042588	0.00010988	1240.9	4.2969e-06	4.622e-06	1329.3	354.36	4.3056e-06	4.6053e-06	403.59	134.8	117.85	41.073	4.1878e-06	49.924	204.777	-6.385	-50.358	-84.698	-89.971	-0.693	-84.494	-79.907	191.046	12.398	-80.412	-76.090	-75.593	-70.985	-59.837	-71.455	-8191	255	
6726.600	1	1	0	0	0.13483	0.14308	0.22858	0.16698	0.051811	0.11007	0.11743	0.62218	0.041356	0.12511	0.088466	0.20242	0.15307	0.15048	0.14568	0.31577	-2.5438	-2.6063	-2.5396	-2.8187	-2.3604	-2.8229	-2.8271	-2.3833	-2.85	-2.65	-2.8271	-2.8438	-2.6604	-2.9104	-2.7167	-2.5438	181.456	-57.260	-24.829	244.361	-32.939	130.485	-40.210	189.725	240.189	185.464	-40.738	251.611	90.241	238.193	181.602	164.977	0.00025522	0.00069056	0.00022175	1363.5	5.0135e-06	6.5861e-06	1361.1	362.34	3.9273e-07	5.0491e-06	420.62	138.83	120.15	42.138	1.9154e-06	52.474	0.00039775	0.00041247	0.0001059	1229.8	4.4508e-06	4.4799e-06	1326.4	353.65	4.4858e-06	4.4221e-06	402.74	134.76	118.38	40.905	4.1427e-06	50.11	204.905	-89.171	-87.604	-84.925	186.680	3.760	-84.452	-79.987	254.647	-1.960	-80.382	-76.254	-75.475	-70.951	63.139	-71.624	-8191	255	
6726.721	1	1	0	0	0.16506	0.0063833	0.26702	0.34142	0.21439	0.139	0.1619	0.27706	0.17485	0.15298	0.10406	0.12052	0.27628	0.018706	0.10525	0.040422	-2.3396	-2.5083	-2.4208	-2.9354	-2.4437	-2.7396	-2.8979	-2.5458	-2.75	-2.7583	-2.4437	-2.8854	-2.4771	-2.7375	-2.5875	-2.5229	-34.635	224.625	1.817	147.176	216.993	212.908	189.430	176.582	110.236	-62.592	145.944	62.755	-91.985	167.782	172.842	-30.590	0.00019058	0.0011192	9.9003e-05	1360.9	4.3756e-06	1.148e-05	1359.1	363.66	8.5923e-07	8.1781e-06	420.54	138.75	120.91	42.391	4.8423e-06	52.389	0.00042064	0.00040736	0.00010651	1244.6	4.7315e-06	4.475e-06	1328.9	355.32	4.7563e-06	4.4607e-06	403.21	136.05	119.34	41	4.1774e-06	50.703	198.799	-36.196	-81.598	-84.649	-53.460	5.863	-84.515	-79.864	117.527	-13.499	-80.518	-76.157	-75.628	-71.074	19.424	-71.580	-8191	255	
6726.816	1	1	0	0	0.095859	0.1831	0.014171	0.13807	0.07939	0.11087	0.25626	0.20006	0.11051	0.21681	0.15676	0.06045	0.24699	0.15862	0.22739	0.031868	-2.2833	-2.5792	-2.2667	-2.9375	-2.5812	-2.6979	-3.0375	-2.6854	-2.7396	-2.6958	-2.7646	-2.8146	-2.5708	-2.6854	-2.9	-2.5729	-7.650	132.121	130.862	-94.360	-9.197	102.439	-72.071	168.733	-76.109	151.363	251.068	185.578	46.307	214.271	133.905	177.996	0.00017074	0.00061272	0.00022659	1363.4	2.4442e-06	5.5515e-06	1362.7	363.1	4.9521e-06	2.2783e-06	422.29	138.93	120.84	42.333	3.3252e-06	52.686	0.00044432	0.00041159	0.00010785	1274.1	4.9149e-06	4.5607e-06	1331.1	359.07	4.9035e-06	4.4982e-06	405.48	137.67	119.59	41.061	4.1827e-06	51.292	213.059	-32.286	-45.819	-84.548	65.312	-4.775	-84.492	-80.000	6.528	-31.937	-80.331	-76.268	-75.470	-70.993	88.372	-71.644	-8191	255	
6726.889	1	1	0	0	0.1981	0.098642	0.15378	0.17201	0.035889	0.11483	0.28005	0.16124	0.21321	0.24408	0.17084	0.17638	0.094191	0.34924	0.108	0.16347	-2.4021	-2.4458	-2.3667	-2.8896	-2.5271	-2.4188	-2.9708	-2.6708	-2.7854	-2.7562	-2.3896	-3.0208	-2.6521	-2.6729	-2.9437	-2.4875	216.007	158.793	43.396	0.677	82.597	213.985	204.176	208.165	174.351	-8.372	215.026	186.890	66.108	-88.977	195.285	200.830	0.00024348	0.00055042	1.3103e-05	1361.7	2.8503e-06	4.6012e-06	1363.3	363.85	9.4797e-07	5.9153e-06	421.23	139.24	120.55	42.237	4.0557e-06	52.577	0.000434	0.00040315	0.00010574	1285.2	4.6935e-06	4.3443e-06	1329	359.78	4.6282e-06	4.2979e-06	403.74	137.74	118.51	40.795	4.1387e-06	51.311	228.147	-42.554	-28.175	-84.649	-31.691	127.043	-84.627	-80.024	-25.349	21.007	-80.197	-76.294	-75.643	-71.118	184.850	-71.650	-8191	255	
6726.985	1	1	0	0	0.21785	0.16055	0.12788	0.035997	0.11623	0.24421	0.37705	0.13843	0.12697	0.28726	0.22013	0.11074	0.16241	0.12391	0.14255	0.44059	-2.175	-2.7583	-2.475	-2.7396	-2.6396	-2.375	-2.9979	-2.6854	-2.6667	-2.6542	-2.6271	-2.6792	-2.7354	-2.4958	-2.8604	-2.6333	64.022	79.216	-85.143	95.816	65.667	-74.116	212.572	-60.387	205.290	-50.951	127.235	47.028	201.726	-23.132	117.936	258.889	0.0001503	0.00030952	8.9091e-05	1364.1	2.5728e-06	3.218e-06	1361.8	363.58	3.0469e-06	3.3813e-06	418.16	139.74	120.34	42.236	3.8253e-06	52.569	0.00041422	0.00038676	0.00010706	1285.2	4.4771e-06	4.1833e-06	1328.8	359.16	4.3853e-06	4.0753e-06	403.92	137.6	117.78	40.478	4.2358e-06	51.095	215.007	260.675	228.610	-84.689	8.942	252.163	-84.537	-79.952	-9.929	13.486	-80.448	-76.162	-75.540	-71.170	144.893	-71.510	-8191	255	
6727.104	1	1	0	0	0.14384	0.092256	0.14871	0.11682	0.01522	0.074599	0.18923	0.074366	0.16321	0.22094	0.095732	0.1764	0.11079	0.29096	0.24123	0.28008	-2.4813	-2.7	-2.3167	-2.8625	-2.5333	-2.5833	-2.9188	-2.7167	-2.7292	-2.9437	-2.4417	-2.9188	-2.6437	-2.6104	-2.7521	-2.5271	130.883	203.474	249.234	229.317	207.611	-43.516	188.389	-79.733	-82.513	196.480	69.938	200.688	150.910	238.799	202.455	187.829	0.00022366	0.00061359	6.7699e-05	1359.6	5.3018e-06	5.1328e-06	1359.1	363.98	2.2958e-06	2.6408e-06	420.89	139.9	120.64	42.279	5.2586e-06	52.693	0.00039231	0.00036579	0.00010928	1272.5	4.2335e-06	3.9905e-06	1331.2	357.99	4.2321e-06	3.9229e-06	405.75	136.98	117.32	40.365	4.3599e-06	50.699	256.764	-39.425	165.914	-84.744	-8.807	-9.410	-84.538	-79.870	-57.483	255.630	-80.376	-76.139	-75.644	-70.945	186.249	-71.412	-8191	255	
6727.200	1	1	0	0	0.08905	0.2931	0.10459	0.4057	0.24459	0.082626	0.20506	0.091717	0.099151	0.15835	0.22404	0.031475	0.080603	0.13896	0.070553	0.20008	-2.1542	-2.8208	-2.3125	-2.8333	-2.5583	-2.4979	-3.0333	-2.6208	-2.6271	-2.8917	-2.5542	-2.6854	-2.9437	-2.4542	-2.7396	-2.775	30.706	-94.282	-67.677	43.022	-1.750	-10.664	141.254	172.454	150.543	58.024	-86.516	111.750	138.558	-17.401	153.086	175.163	0.00010158	0.00011292	3.0893e-05	1364.2	3.5871e-06	3.4634e-06	1357.7	364.95	4.6242e-06	5.6805e-06	420.58	139	120.41	41.962	2.9247e-06	52.581	0.00037954	0.00035775	0.00011258	1261.7	4.0931e-06	3.9293e-06	1334.2	356.76	4.0755e-06	3.9218e-06	406.84	136.29	116.93	40.428	4.4749e-06	50.533	209.749	231.864	117.004	-84.301	-17.793	233.678	-84.514	-79.815	15.026	216.151	-80.261	-76.068	-75.700	-70.898	-39.427	-71.595	-8191	255	
6727.296	1	1	0	0	0.085395	0.20183	0.15395	0.14622	0.33716	0.097136	0.25607	0.22545	0.13367	0.047026	0.13389	0.079571	0.14423	0.18342	0.063746	0.015724	-1.9875	-2.8125	-2.4125	-2.6292	-2.8312	-2.3479	-3.0458	-2.8896	-2.2958	-2.9021	-2.6208	-2.5812	-2.9667	-2.4042	-2.7771	-2.5167	257.092	26.984	-85.244	7.588	107.331	-16.704	206.078	179.766	216.733	141.814	231.619	88.230	240.507	-79.871	-46.641	199.974	0.0001009	0.00063414	9.4086e-05	1363.3	3.4002e-06	4.8693e-06	1361.2	364.42	7.2277e-06	4.4424e-06	421.26	138.83	120.96	42.239	6.8406e-06	52.764	0.00036761	0.00036707	0.00011458	1252.2	3.9757e-06	4.1166e-06	1333.7	355.97	3.9956e-06	4.1074e-06	407.22	135.63	116.64	40.663	4.4657e-06	50.295	237.933	146.664	-31.364	-84.767	17.208	138.472	-84.549	-79.946	-17.835	78.779	-80.287	-76.350	-75.586	-70.716	-8.975	-71.424	-8191	255	
6727.392	1	1	0	0	0.1971	0.068691	0.26031	0.17475	0.0517	0.15846	0.055311	0.13575	0.31818	0.22416	0.17129	0.17146	0.076125	0.055468	0.2788	0.091824	-2.0521	-2.5833	-2.3063	-2.5687	-2.5563	-2.5375	-3.0292	-2.8479	-2.6792	-2.7979	-2.7438	-2.7271	-2.8688	-2.6167	-2.5458	-2.9313	-77.291	94.748	-23.758	-3.036	137.373	-14.740	-61.701	177.080	184.735	-3.696	230.007	257.408	-57.959	121.983	154.020	203.565	0.0001641	0.00017124	0.00020971	1373.6	4.6347e-06	3.6999e-06	1363.1	363.1	5.2376e-06	4.032e-06	419.18	138.98	120.43	42.109	3.5502e-06	52.711	0.00036356	0.00039029	0.00011354	1251.4	3.9121e-06	4.3523e-06	1334	355.08	3.9684e-06	4.3537e-06	405.29	135.6	116.59	40.978	4.4134e-06	50.25	202.756	-27.595	-63.865	-84.917	61.324	201.858	-84.551	-79.927	185.658	162.613	-80.148	-76.271	-75.863	-71.018	29.143	-71.645	-8191	255	
6727.489	1	1	0	0	0.30205	0.49776	0.078322	0.19246	0.20981	0.15507	0.17877	0.20422	0.14949	0.2911	0.30249	0.32379	0.27044	0.32828	0.31098	0.10912	-2.0167	-2.6771	-2.625	-2.4521	-2.7938	-2.3833	-2.7542	-2.8479	-2.3625	-2.9	-2.6437	-2.5417	-3.1146	-2.3125	-2.6521	-2.8958	11.678	-18.277	-15.417	-80.477	-60.495	59.639	223.307	-54.551	198.034	122.369	208.825	170.734	168.978	-70.451	-81.194	-41.820	0.00023374	0.00038603	0.00016802	1365.6	3.277e-06	3.6073e-06	1359.9	363.71	4.2702e-06	4.1896e-06	420.33	139.42	120.4	42.04	5.7851e-06	52.569	0.00036721	0.00041393	0.00011213	1247.2	4.0476e-06	4.6004e-06	1329.9	355.41	4.1408e-06	4.6361e-06	404.93	135.73	117.28	41.247	4.3577e-06	50.183	223.367	104.932	-58.817	-84.411	125.757	-83.579	-84.422	-80.053	-83.018	160.309	-80.279	-76.128	-75.563	-70.810	28.671	-71.725	-8191	255	
6727.585	1	1	0	0	0.20034	0.1143	0.099377	0.20721	0.067799	0.16183	0.17847	0.096487	0.079067	0.22366	0.075624	0.041792	0.056473	0.19926	0.35772	0.15707	-1.7687	-2.7708	-2.6854	-2.5062	-2.7542	-2.375	-2.8875	-2.7438	-2.6562	-2.9646	-2.7479	-2.5062	-2.975	-2.4229	-2.5396	-2.8688	42.295	230.713	246.222	242.640	-92.197	-67.694	128.558	231.814	184.524	157.170	231.314	191.055	-78.234	-93.077	232.004	257.610	0.00021125	0.00069005	0.00010621	1354.8	4.5236e-06	7.2312e-06	1355.5	364.32	3.8474e-06	3.5726e-06	417.88	139.31	120.72	42.05	3.1456e-06	52.639	0.00038741	0.00042699	0.00010973	1241.5	4.2583e-06	4.6619e-06	1327.9	354.48	4.368e-06	4.6379e-06	403.85	135.4	118.2	41.091	4.2462e-06	50.028	208.919	54.456	228.277	-84.677	196.523	60.897	-84.675	-79.986	200.970	-1.471	-80.422	-76.023	-75.625	-70.817	-11.727	-71.616	-8191	255	
6727.681	1	1	0	0	0.15964	0.068459	0.11471	0.14006	0.065418	0.27923	0.2197	0.26756	0.208	0.12847	0.3173	0.31348	0.11815	0.2073	0.21413	0.1768	-2.0417	-2.7625	-2.6146	-2.4354	-2.9229	-2.45	-2.9042	-2.9729	-2.4958	-2.6146	-2.7729	-2.4813	-3.0479	-2.7583	-2.575	-2.9208	91.255	156.588	166.647	-31.697	-48.784	250.457	157.351	144.745	109.311	154.325	232.546	210.408	-59.156	233.645	-44.758	157.833	0.00029145	0.0005214	0.00014939	1367.9	1.6453e-06	8.9013e-06	1354.8	364.27	4.5478e-06	4.6683e-06	420.01	139.43	120.57	42.308	4.3934e-06	52.826	0.00040397	0.00041262	0.00010614	1237.1	4.4309e-06	4.4833e-06	1324.6	354.27	4.4893e-06	4.4142e-06	402.57	134.94	118.32	40.849	4.0694e-06	50.022	195.565	-7.948	-92.327	-84.826	258.998	46.763	-84.494	-79.816	147.477	28.233	-80.616	-76.462	-75.510	-71.056	26.008	-71.799	-8191	255	
6727.801	1	1	0	0	0.12155	0.21689	0.038543	0.20359	0.32501	0.20794	0.24472	0.10334	0.28861	0.072088	0.10661	0.12677	0.09721	0.10131	0.23374	0.094922	-2.125	-2.6458	-2.9437	-2.5104	-2.9229	-2.5979	-2.6417	-2.8625	-2.5854	-2.7562	-2.8208	-2.5146	-2.9375	-2.6188	-2.5208	-2.9042	168.795	259.716	-8.340	217.891	-72.252	207.533	256.204	190.682	-65.136	169.903	-43.334	124.430	134.967	145.964	156.250	201.506	0.00024868	0.00011789	0.00023859	1365.7	5.0285e-06	3.2657e-06	1352.1	362.9	3.9652e-06	8.835e-06	420.7	138.8	120.68	42.293	1.1369e-05	52.762	0.00041153	0.00039407	0.00010165	1237.2	4.5129e-06	4.2679e-06	1320.3	354.22	4.5315e-06	4.2352e-06	400.85	135.35	118.47	40.667	3.9224e-06	50.203	190.463	-80.347	-76.556	-84.698	25.937	113.503	-84.354	-79.833	135.522	1.748	-80.452	-75.925	-75.826	-70.814	-27.147	-71.709	-8191	255	
6727.896	1	1	0	0	0.20723	0.1951	0.12216	0.11254	0.33453	0.14162	0.37397	0.19578	0.21887	0.1899	0.098884	0.15849	0.2578	0.16591	0.10429	0.092826	-2.0833	-2.5062	-2.7875	-2.4729	-2.6625	-2.475	-2.6979	-2.875	-2.5833	-2.5667	-2.8104	-2.4396	-2.8063	-2.9146	-2.5375	-3.125	201.109	-95.783	-61.718	141.962	174.794	110.597	181.441	184.180	-4.486	42.892	122.572	-7.346	168.644	-83.291	169.187	-96.638	7.015e-05	0.00049733	0.00017923	1353.4	5.217e-06	9.1328e-06	1357.8	363.77	2.2511e-06	3.4177e-06	420.18	138.96	120.89	42.361	2.0375e-06	52.533	0.00041055	0.00037791	9.8218e-05	1243.5	4.4775e-06	4.1169e-06	1317.3	355.69	4.4694e-06	4.1152e-06	399.57	135.95	118.13	40.582	3.9036e-06	50.577	197.851	0.582	-69.092	-84.562	37.959	52.869	-84.496	-79.936	38.777	-33.639	-80.378	-76.082	-75.615	-70.857	244.511	-71.690	-8191	255	
6727.992	1	1	0	0	0.10437	0.16461	0.17189	0.2001	0.20351	0.21925	0.055839	0.1606	0.22432	0.0712	0.14287	0.29636	0.17211	0.22512	0.13652	0.10061	-2.0896	-2.4979	-2.6604	-2.5646	-2.75	-2.8104	-2.5687	-3.0583	-2.5563	-2.4854	-2.9229	-2.4375	-2.8125	-2.8833	-2.4021	-2.8604	122.792	-18.064	33.878	-71.085	177.080	236.965	-68.543	208.730	152.602	175.271	179.179	-75.942	-97.499	82.243	90.364	203.053	9.1849e-05	0.00053938	0.0001297	1357.5	6.5196e-06	3.667e-06	1351.4	364.66	5.6391e-06	8.3759e-06	419.4	139.08	120.82	42.292	5.5584e-06	52.451	0.00040468	0.00037677	9.7903e-05	1258.7	4.4049e-06	4.0847e-06	1317.3	357.39	4.3444e-06	4.0665e-06	399.76	136.76	117.78	40.432	3.943e-06	50.849	247.466	8.052	-74.280	-84.953	31.453	-95.141	-84.473	-79.933	-26.780	4.568	-80.515	-76.407	-75.712	-70.992	171.542	-71.837	-8191	255	
6728.090	1	1	0	0	0.27912	0.03735	0.21177	0.11372	0.060566	0.094123	0.26665	0.062823	0.12256	0.18621	0.14524	0.23356	0.13439	0.24886	0.1447	0.20218	-2.1208	-2.3833	-2.8792	-2.5563	-2.7104	-2.7313	-2.7188	-2.9375	-2.5833	-2.6896	-2.8896	-2.5375	-2.8979	-2.85	-2.5979	-2.7479	59.649	-14.418	-54.474	90.750	6.592	-65.138	174.035	209.973	156.085	47.190	58.421	224.785	-78.369	136.270	228.051	237.299	9.8618e-05	0.00017634	0.00017595	1361.5	4.5777e-06	6.4583e-06	1354.6	363.43	5.9908e-06	4.8312e-06	417.75	139.26	120.94	42.16	4.7025e-06	52.662	0.00039011	0.00036628	0.00010009	1263.8	4.2254e-06	3.9357e-06	1320.1	357.54	4.2011e-06	3.9435e-06	401.85	137.12	117.38	40.245	4.1377e-06	50.865	205.460	-73.865	100.068	-84.740	30.211	20.307	-84.716	-79.937	10.000	31.442	-80.507	-76.297	-75.633	-70.826	174.869	-71.439	-8191	255	
6728.184	1	1	0	0	0.050265	0.14199	0.026428	0.2222	0.18646	0.15972	0.22475	0.092686	0.034116	0.14675	0.16906	0.22254	0.25652	0.19916	0.19642	0.15324	-2.4417	-2.225	-2.8146	-2.6562	-2.6958	-2.675	-2.5729	-2.9396	-2.5792	-2.4042	-2.9083	-2.6104	-2.55	-2.8917	-2.4354	-2.7104	-0.017	-50.436	72.500	74.032	162.895	186.548	212.116	-46.898	217.410	56.321	107.061	-77.519	-19.594	215.293	186.247	146.336	6.9446e-05	0.00046867	0.00012386	1365.8	1.4387e-06	3.2296e-06	1357.4	363.2	5.0607e-06	2.0686e-06	420.6	138.78	121.02	42.147	2.9201e-06	52.562	0.00038385	0.00035856	0.00010624	1269.1	4.1918e-06	3.9195e-06	1327.6	357.25	4.1799e-06	3.9451e-06	405.54	136.61	117.37	40.31	4.4177e-06	50.773	255.531	-71.682	166.519	-84.292	22.410	24.680	-84.713	-80.038	55.251	114.141	-80.408	-76.158	-75.440	-71.075	77.643	-71.487	-8191	255	
6728.281	1	1	0	0	0.087328	0.11275	0.054717	0.092864	0.044185	0.18836	0.33268	0.16472	0.20707	0.19335	0.20911	0.15639	0.18696	0.14557	0.15595	0.27578	-2.3854	-2.2333	-2.9313	-2.6771	-2.3875	-3.0375	-2.5521	-2.7979	-2.6958	-2.3396	-2.8542	-2.6688	-2.4917	-2.9813	-2.5083	-2.6688	6.338	-40.400	235.948	170.272	170.333	11.729	214.029	250.086	-69.661	146.605	198.538	227.131	-83.342	233.926	164.492	-78.188	0.00018296	0.00056782	0.00010721	1368.3	3.9836e-06	2.8221e-06	1357	364.99	6.2014e-07	4.5341e-06	421.21	139.47	120.64	42.175	4.7116e-06	52.789	0.00037867	0.00036228	0.00011293	1262.4	4.1453e-06	3.958e-06	1330.2	357.12	4.111e-06	4.0216e-06	406.56	136.22	117.03	40.414	4.5535e-06	50.562	208.334	247.689	62.357	-84.287	14.151	85.573	-84.540	-80.138	-72.240	117.733	-80.372	-76.079	-75.831	-70.984	63.316	-71.591	-8191	255	
6728.401	1	1	0	0	0.12201	0.071167	0.13117	0.39407	0.088749	0.14701	0.2987	0.1009	0.11108	0.13104	0.28172	0.26851	0.27667	0.23191	0.13464	0.23486	-2.3312	-2.5938	-2.875	-2.7375	-2.4875	-2.9583	-2.6396	-2.9042	-2.6917	-2.5417	-2.7042	-2.6312	-2.4354	-3.1042	-2.4542	-2.6146	13.950	202.727	-36.475	203.076	46.570	78.180	254.521	207.073	-73.958	-76.766	170.771	193.025	260.538	-51.709	147.986	208.758	0.00015986	0.00043734	2.2557e-05	1356.8	4.2543e-06	8.0961e-06	1354.3	363.1	3.7412e-06	5.2032e-06	417.86	139.22	120.57	42.094	7.2889e-06	52.699	0.00036993	0.00037542	0.0001154	1252.1	4.0435e-06	4.1391e-06	1331	355.62	4.0221e-06	4.1969e-06	406.17	135.64	116.61	40.64	4.5048e-06	50.332	213.057	-83.460	-4.259	-84.498	15.345	189.443	-84.401	-79.806	36.794	182.352	-80.474	-76.345	-75.537	-70.961	22.187	-71.371	-8191	255	
6728.497	1	1	0	0	0.14425	0.15033	0.064225	0.19994	0.33686	0.10005	0.27211	0.048779	0.13799	0.064488	0.14271	0.33847	0.2861	0.22529	0.048757	0.024527	-2.4646	-2.3833	-2.6937	-2.725	-2.4125	-2.8104	-2.8	-2.5604	-2.8021	-2.3146	-2.8979	-2.7313	-2.5771	-2.9271	-2.5979	-2.6188	209.166	162.932	100.139	261.560	-78.025	61.640	248.060	48.688	191.195	186.196	245.476	184.507	-56.366	187.657	193.028	83.674	0.000177	0.00037913	0.00014125	1364.7	4.3708e-06	3.5053e-06	1355.7	364.02	2.5529e-06	1.9684e-06	420.19	139.28	119.93	42.03	6.5752e-06	52.565	0.00036118	0.00039113	0.00011356	1244.1	3.9449e-06	4.3233e-06	1328.9	355.35	3.9112e-06	4.3895e-06	405.51	135.52	116.32	40.796	4.3431e-06	50.172	208.916	30.426	-64.864	-84.482	51.931	135.810	-84.509	-79.842	44.676	182.267	-80.460	-76.293	-75.717	-70.726	21.808	-71.492	-8191	255	
6728.593	1	1	0	0	0.10221	0.19301	0.11051	0.15927	0.12282	0.22988	0.30939	0.16979	0.1528	0.1609	0.11964	0.23052	0.19294	0.084362	0.13814	0.15539	-2.6375	-2.3875	-2.6896	-2.9625	-2.3146	-2.9167	-2.9	-2.3542	-2.9875	-2.3292	-2.9854	-2.9875	-2.5667	-3.0208	-2.6375	-2.6188	73.500	209.114	-4.512	112.623	228.050	-58.169	175.044	171.154	13.192	-10.096	217.366	-87.366	242.731	-77.497	-8.463	-78.461	0.00014081	0.00054351	0.00017497	1351	4.0122e-06	3.6991e-06	1353.3	362.93	2.8745e-06	5.767e-06	421.13	139.33	120.61	42.252	5.9559e-06	52.514	0.00035941	0.00040587	0.00010894	1232.9	3.968e-06	4.4565e-06	1322.3	353.85	3.9705e-06	4.4785e-06	403.31	134.85	116.88	40.955	4.1553e-06	49.88	196.472	18.472	-86.840	-84.645	128.316	171.241	-84.634	-79.899	207.344	57.965	-80.382	-76.108	-75.683	-71.054	-24.977	-71.558	-8191	255	
6728.690	1	1	0	0	0.098233	0.27062	0.31952	0.30636	0.19311	0.065393	0.21209	0.35142	0.20471	0.12073	0.25855	0.30696	0.23815	0.12361	0.20248	0.081415	-2.5438	-2.55	-2.5229	-2.9167	-2.4292	-2.9208	-2.9521	-2.6667	-2.7375	-2.6979	-2.7354	-2.8417	-2.7062	-2.7604	-2.6562	-2.5312	22.462	-73.983	157.207	121.772	184.934	166.706	235.992	194.014	162.484	148.816	236.866	-21.975	-1.143	210.223	178.107	-72.051	0.00029406	0.00033012	0.00017049	1362.5	2.8009e-06	6.1304e-06	1355.4	363.4	1.6808e-06	3.7748e-06	419.9	139.22	121.11	42.09	1.9668e-06	52.382	0.00036933	0.00040766	0.00010492	1224.6	4.1227e-06	4.4087e-06	1320.4	353.29	4.1163e-06	4.381e-06	401.9	134.12	117.41	40.687	3.9689e-06	49.511	199.429	201.412	-67.588	-84.783	213.838	-35.142	-84.620	-79.710	223.206	-1.152	-80.421	-76.132	-75.761	-70.690	246.300	-71.646	-8191	255	
6728.786	1	1	0	0	0.1652	0.095301	0.11473	0.089404	0.088639	0.1396	0.24156	0.39505	0.072316	0.20107	0.26686	0.10795	0.18764	0.074359	0.21329	0.080503	-2.6188	-2.4292	-2.5271	-2.9833	-2.3438	-2.8479	-3.1667	-2.6646	-2.7604	-2.7771	-2.5583	-2.8812	-2.6188	-2.9542	-2.7104	-2.4667	26.625	26.680	-1.833	244.375	167.869	54.365	217.356	188.496	-83.822	259.365	10.580	151.331	-66.561	99.582	260.046	-56.010	0.00015379	0.00026456	0.00013745	1350.8	8.1073e-07	1.0131e-05	1349	362.37	2.0717e-06	4.8943e-06	418.22	138.74	120.19	42.165	1.7437e-06	52.487	0.00037398	0.00038406	9.8685e-05	1209.9	4.1084e-06	4.0945e-06	1308.9	351.21	4.081e-06	4.045e-06	397.22	133.12	116.68	40.31	3.7303e-06	49.303	210.074	12.438	-85.794	-85.041	116.950	13.928	-84.442	-79.936	174.723	14.367	-80.379	-76.191	-75.832	-70.870	-52.810	-71.149	-8191	255	
6728.882	1	1	0	0	0.1777	0.19229	0.13839	0.18417	0.1876	0.1156	0.052621	0.094016	0.2446	0.14779	0.1068	0.21435	0.19376	0.044618	0.21228	0.26429	-2.5146	-2.4542	-2.55	-2.9479	-2.5729	-2.6333	-3.0771	-2.7	-2.8417	-2.6583	-2.625	-2.8312	-2.5062	-2.5187	-2.9917	-2.3937	12.612	92.290	-24.661	2.932	165.400	247.834	189.150	52.561	-46.643	17.647	202.048	235.699	170.866	238.885	121.776	-37.383	0.00023218	0.00079285	0.00013173	1361.5	1.1865e-06	6.5762e-06	1346	362.71	4.1566e-06	8.0532e-06	419.85	139.07	119.77	42.087	6.6214e-06	52.446	0.00037833	0.00036139	9.4299e-05	1208.6	4.1814e-06	3.9171e-06	1304	351.26	4.1624e-06	3.885e-06	396.69	133.75	116.83	40.075	3.5825e-06	49.534	198.028	-51.190	243.372	-84.511	246.858	-42.229	-84.367	-79.848	68.795	16.232	-80.121	-76.277	-75.643	-70.923	37.622	-71.570	-8191	255	
6728.978	1	1	0	0	0.21102	0.15221	0.19602	0.26222	0.11551	0.08898	0.44147	0.34421	0.19456	0.064794	0.12635	0.16121	0.13008	0.13204	0.083443	0.070458	-2.3375	-2.625	-2.4271	-2.9688	-2.4854	-2.4208	-3.0458	-2.3771	-2.9333	-2.625	-2.4917	-3.0917	-2.6875	-2.4667	-2.8333	-2.6854	33.986	114.942	244.589	-55.114	219.998	259.730	216.202	157.248	214.605	-79.580	186.251	203.815	218.714	-84.926	102.348	-65.080	3.5776e-05	0.00016645	0.00016816	1355.1	2.7986e-06	7.4488e-06	1347	362.15	2.8021e-06	4.9509e-06	416.87	138.48	120.52	42.307	2.877e-06	52.467	0.00037323	0.0003434	8.9251e-05	1214.3	4.0267e-06	3.6779e-06	1300.3	351.55	3.9405e-06	3.6267e-06	392.98	133.57	116.12	39.851	3.3684e-06	49.535	-97.211	214.239	238.069	-84.754	21.450	-2.238	-84.428	-79.868	26.229	-22.172	-80.546	-76.205	-75.871	-70.901	232.669	-71.651	-8191	255	
6729.072	1	1	0	0	0.20027	0.33091	0.22322	0.16	0.21138	0.22921	0.18295	0.14301	0.086118	0.22364	0.19661	0.19914	0.48421	0.086277	0.13078	0.17579	-2.1875	-2.5708	-2.45	-2.875	-2.475	-2.4938	-2.9542	-2.5438	-2.5042	-2.7438	-2.5208	-2.9354	-2.7812	-2.4938	-2.9625	-2.6271	104.711	166.561	46.072	252.978	11.292	136.882	135.073	-80.815	105.809	94.944	98.542	202.692	182.410	-95.783	-22.365	-82.433	8.2242e-05	0.00036381	0.00015386	1352.8	3.6143e-06	1.5457e-06	1346	361.26	2.2911e-06	1.0245e-05	419.36	138.48	120.24	41.97	9.0184e-07	52.59	0.00035105	0.00032575	8.6095e-05	1217.3	3.8399e-06	3.5749e-06	1297.1	352	3.8289e-06	3.5632e-06	394.05	134.3	115.7	39.734	3.47e-06	49.887	229.945	-57.178	-57.952	-84.430	39.805	162.058	-84.560	-79.944	-14.859	-7.426	-80.213	-76.326	-75.781	-70.917	104.427	-71.478	-8191	255	
6729.170	1	1	0	0	0.17467	0.058891	0.15464	0.10162	0.2694	0.12683	0.44719	0.051149	0.11146	0.10891	0.045911	0.14268	0.09173	0.21875	0.14882	0.11856	-2.2667	-2.7792	-2.3875	-2.7208	-2.6833	-2.4604	-2.8438	-2.4521	-2.4521	-3.1625	-2.6771	-2.6917	-2.6979	-2.4813	-2.5312	-2.6667	234.465	40.458	98.910	170.222	-64.877	135.030	-97.543	119.934	87.943	219.468	-31.855	-44.463	-45.676	193.167	249.597	67.597	0.00018366	0.00031343	0.00010906	1352.4	3.1136e-06	3.9388e-06	1344.6	361.5	4.4646e-06	6.5763e-06	418.07	139.17	120.54	42.15	1.0281e-05	52.278	0.00034634	0.00032498	9.0676e-05	1227.4	3.8094e-06	3.5666e-06	1302.8	353.33	3.8093e-06	3.5579e-06	397.32	135.02	115.8	39.807	3.7186e-06	49.98	227.475	-89.029	103.813	-84.699	14.482	114.386	-84.311	-79.963	41.344	3.079	-80.401	-76.205	-75.670	-70.766	148.212	-71.604	-8191	255	
6729.289	1	1	0	0	0.20632	0.39697	0.075788	0.11739	0.17929	0.20274	0.1337	0.18652	0.18329	0.32433	0.20265	0.51164	0.12516	0.15081	0.11886	0.12448	-2.1896	-2.5187	-2.4562	-2.8271	-2.5229	-2.5083	-3.1125	-2.7271	-2.6542	-2.6792	-2.5542	-2.6042	-2.6979	-2.7125	-2.9354	-2.8771	177.448	-38.864	-76.111	-18.316	168.415	16.645	250.464	171.729	-89.249	142.249	214.665	213.675	95.285	203.436	62.021	-32.411	0.00024514	0.00049032	1.2545e-05	1368.9	4.4761e-06	2.0561e-06	1346.9	361.82	5.2455e-06	3.132e-06	417.62	139.19	120.29	42.022	9.6626e-07	52.175	0.00034239	0.00031995	9.5222e-05	1230.3	3.7074e-06	3.4625e-06	1305.9	351.95	3.6917e-06	3.4416e-06	397.81	134.3	115.27	39.681	3.8916e-06	49.653	187.210	-40.822	-66.009	-84.883	43.456	-4.283	-84.442	-79.886	-66.171	88.108	-80.373	-75.908	-75.845	-71.013	-74.779	-71.533	-8191	255	
6729.385	1	1	0	0	0.3089	0.11543	0.27115	0.12453	0.16908	0.058105	0.20127	0.13167	0.087902	0.11475	0.1097	0.3085	0.29834	0.1592	0.31014	0.14518	-2.1146	-2.8458	-2.5917	-2.7062	-2.8042	-2.3146	-2.9313	-2.7396	-2.4646	-2.6667	-2.5458	-2.5771	-2.8083	-2.6167	-2.7812	-2.7979	-81.249	97.810	252.285	146.993	255.697	-82.652	165.975	21.062	144.142	78.768	-19.445	236.996	224.726	165.841	95.291	-97.158	0.00012416	0.00024286	0.00019123	1344	3.6165e-06	3.2279e-06	1342.3	362.3	3.7959e-06	4.1426e-06	418.32	138.67	120.34	41.913	5.3216e-06	52.306	0.0003393	0.00032159	0.00010158	1221.8	3.7141e-06	3.6026e-06	1308.6	352.53	3.7091e-06	3.6342e-06	401.11	134.4	115.45	39.878	4.118e-06	49.71	233.978	87.957	-38.600	-84.695	-67.029	-11.034	-84.478	-79.764	-76.425	236.897	-80.380	-76.065	-75.652	-70.962	95.583	-71.628	-8191	255	
6729.482	1	1	0	0	0.13139	0.15988	0.17049	0.1186	0.19472	0.17303	0.21096	0.31103	0.075384	0.080853	0.20101	0.19913	0.17389	0.28523	0.051739	0.14793	-2.0875	-2.7625	-2.6042	-2.6396	-2.7062	-2.5312	-2.9479	-2.7792	-2.2938	-2.8667	-2.5812	-2.6104	-3.0479	-2.5875	-2.6667	-2.8563	206.010	68.328	-11.132	247.877	165.241	-68.763	233.628	205.432	11.607	153.835	216.663	195.620	-26.809	205.944	48.140	-90.985	0.00024373	0.00048014	0.0001097	1353	3.9498e-06	3.0185e-06	1343.6	361.74	7.1216e-06	3.0594e-06	419.69	139.09	120.56	42.181	6.2658e-06	52.683	0.00033725	0.00033933	0.00010532	1217.3	3.6357e-06	3.7754e-06	1313	351.57	3.6427e-06	3.8066e-06	401.47	134.15	115.14	40.14	4.0579e-06	49.505	209.596	215.204	259.098	-84.675	48.148	219.573	-84.397	-79.800	42.683	-31.662	-80.341	-76.086	-75.653	-70.869	31.569	-71.668	-8191	255	
6729.578	1	1	0	0	0.21259	0.25192	0.044706	0.49726	0.19981	0.23934	0.19397	0.12869	0.11836	0.17934	0.19115	0.069212	0.14111	0.10044	0.26329	0.22705	-2.0146	-2.9396	-2.4646	-2.6188	-2.9083	-2.5583	-3.075	-2.8854	-2.5667	-2.675	-2.7542	-2.7271	-2.7896	-2.6646	-2.6542	-2.7771	178.247	-62.775	18.603	236.605	219.413	-76.039	204.899	200.851	4.240	224.272	223.483	26.714	-46.602	106.314	59.970	30.691	0.00011088	0.00035868	0.0001966	1350.3	1.9972e-06	5.1953e-06	1347.4	363.32	3.0667e-06	3.5565e-06	420.88	139.13	120.78	41.987	3.4909e-06	52.584	0.00032727	0.00035236	0.0001017	1210.9	3.5128e-06	3.9079e-06	1310.2	351.22	3.4988e-06	3.8706e-06	399.55	133.51	114.8	40.196	3.7997e-06	49.235	196.780	152.104	256.938	-84.595	68.925	87.909	-84.502	-80.010	197.507	147.266	-80.246	-76.209	-75.595	-71.182	-34.884	-71.390	-8191	255	
6729.674	1	1	0	0	0.16253	0.15761	0.26173	0.18745	0.13563	0.35449	0.30758	0.12801	0.02997	0.19414	0.085711	0.23957	0.1714	0.18093	0.33479	0.27977	-1.9458	-2.7125	-2.6042	-2.4562	-2.8417	-2.4417	-2.95	-2.8563	-2.4021	-2.575	-2.7958	-2.5917	-2.8229	-2.5687	-2.6896	-2.8042	-40.687	205.414	6.887	114.081	184.912	190.941	244.880	-88.947	125.495	-32.392	-79.210	193.716	224.443	-58.507	98.389	208.279	0.00028151	0.00040576	0.00028526	1350.2	3.4476e-07	1.4608e-06	1344.7	361.7	3.2643e-06	1.6772e-06	419.63	138.76	120.19	42.135	2.7913e-06	52.487	0.00031713	0.00035673	9.5504e-05	1197.5	3.4705e-06	3.9392e-06	1304.8	349.03	3.5129e-06	3.9456e-06	396.85	132.76	114.82	40.164	3.6793e-06	49.066	213.242	-10.680	254.469	-84.459	106.742	126.733	-84.542	-79.858	197.040	-0.427	-80.249	-76.171	-75.810	-71.143	27.541	-71.690	-8191	255	
6729.770	1	1	0	0	0.13557	0.24443	0.10846	0.10052	0.21481	0.2586	0.039438	0.27133	0.32043	0.20891	0.18472	0.074523	0.22297	0.0965	0.078901	0.10713	-1.9542	-2.6708	-2.6146	-2.55	-2.75	-2.5938	-2.6875	-3.0542	-2.4271	-2.725	-2.6396	-2.3125	-2.8688	-2.6229	-2.5458	-2.7104	229.212	151.397	247.935	247.552	132.488	-62.038	-53.523	177.959	-1.431	9.050	148.600	10.511	160.808	-81.516	164.970	40.787	0.00028597	0.00048286	9.1944e-06	1351.3	4.2017e-06	4.041e-06	1347.3	361.6	4.8619e-06	5.1167e-06	419.33	139.05	119.96	42.167	7.4355e-06	52.479	0.000332	0.00036196	9.382e-05	1195.6	3.7012e-06	4.0197e-06	1304.5	349.44	3.8035e-06	4.0166e-06	397.51	133.15	115.99	40.342	3.7405e-06	49.189	206.932	-78.766	-54.343	-84.783	215.120	15.361	-84.509	-79.974	-85.142	-18.763	-80.449	-76.118	-75.299	-70.821	-7.665	-71.803	-8191	255	
6729.891	1	1	0	0	0.35382	0.26404	0.036421	0.035194	0.26812	0.13073	0.22794	0.16096	0.35617	0.24581	0.18236	0.17471	0.11396	0.14169	0.040768	0.16935	-2.1104	-2.7646	-2.5708	-2.45	-2.7729	-2.5479	-2.675	-2.9833	-2.3167	-2.8208	-2.5521	-2.5708	-2.875	-2.6354	-2.5333	-2.6896	234.691	-61.706	14.356	125.136	-35.629	78.656	182.322	238.209	82.664	187.236	197.216	187.235	223.306	218.183	232.933	198.609	0.00015685	0.00083343	0.00013936	1348.5	1.6547e-06	7.0667e-06	1345	362.63	1.9245e-06	3.2321e-06	417.55	138.62	120.16	42.311	6.0693e-06	52.423	0.00036114	0.00036723	9.4452e-05	1198.7	3.9975e-06	4.0037e-06	1305.9	349.79	4.0403e-06	3.929e-06	396.44	132.98	116.62	40.161	3.6359e-06	49.16	215.799	-72.012	-33.565	-84.673	170.369	63.684	-84.492	-79.826	234.452	-68.316	-80.390	-76.251	-75.719	-70.817	220.789	-71.576	-8191	255	
6729.985	1	1	0	0	0.090441	0.2791	0.056271	0.10988	0.15147	0.030692	0.26265	0.20531	0.32436	0.124	0.13433	0.031097	0.19751	0.32087	0.12152	0.20976	-1.9604	-2.5542	-2.4979	-2.3854	-2.8375	-2.5479	-2.6354	-3.0583	-2.3354	-2.4062	-3.0042	-2.5854	-3.0354	-2.7521	-2.5938	-2.8708	24.578	224.086	261.857	106.192	134.076	154.842	216.335	234.416	82.354	195.632	173.803	261.943	-96.670	197.512	-63.494	257.632	0.00028227	0.00020898	0.00010497	1356.3	7.2758e-07	9.8063e-06	1348.1	362.02	4.3771e-06	3.7225e-06	420.04	139.02	119.88	42.22	1.4696e-06	52.743	0.00036968	0.00035199	9.1139e-05	1202.8	4.0687e-06	3.8146e-06	1303.3	350.41	4.0941e-06	3.7829e-06	395.81	133.91	116.69	40.151	3.5881e-06	49.662	207.723	-1.747	-41.980	-85.027	-22.535	15.741	-84.303	-79.831	151.777	48.645	-80.493	-76.261	-75.745	-71.162	129.534	-71.487	-8191	255	
6730.081	1	1	0	0	0.24902	0.047173	0.13684	0.26419	0.0721	0.084479	0.18816	0.25101	0.10801	0.22724	0.027709	0.30086	0.4303	0.11578	0.024875	0.12312	-2.0729	-2.2979	-2.7729	-2.3312	-2.6333	-2.6312	-2.6	-2.9813	-2.5042	-2.5875	-2.8063	-2.6625	-2.7292	-2.7021	-2.5354	-3.0146	157.701	55.632	32.793	-14.554	205.873	203.945	238.664	236.219	79.784	170.153	-35.905	185.266	229.309	206.099	218.131	73.621	0.00018676	0.00065731	0.00012734	1346.2	4.1513e-06	5.5657e-06	1354	362.89	8.639e-06	6.5266e-06	420.64	138.99	120.68	42.146	3.4219e-06	52.45	0.00037777	0.00034879	9.0849e-05	1218.7	4.1698e-06	3.8533e-06	1305.8	353.17	4.1898e-06	3.8775e-06	396.73	135.2	117.11	40.247	3.7028e-06	50.344	244.312	-56.097	205.408	-84.586	-10.756	-10.068	-84.651	-80.021	20.413	-8.584	-80.251	-76.093	-75.760	-70.958	87.411	-71.707	-8191	255	
6730.177	1	1	0	0	0.17825	0.18285	0.038477	0.22967	0.039861	0.1478	0.15993	0.48042	0.008751	0.064688	0.17236	0.071685	0.1589	0.13571	0.10344	0.15793	-2.2521	-2.7896	-2.6458	-2.6771	-2.6896	-2.9	-2.5625	-2.9646	-2.7458	-2.4833	-3.0312	-2.5875	-2.8104	-2.8958	-2.5854	-2.7271	11.637	236.801	-16.940	115.862	135.892	101.186	207.063	223.615	9.148	129.661	208.907	152.705	111.138	-43.712	116.875	88.108	1.0623e-05	0.00033063	0.0001368	1358	4.4056e-06	6.6547e-06	1353.5	362.59	3.2258e-06	6.276e-06	420.83	139.59	120.6	42.103	4.8851e-06	52.805	0.00038745	0.00036337	9.5565e-05	1254.6	4.2838e-06	4.0057e-06	1315.1	356.92	4.2923e-06	4.0146e-06	400.48	136.89	117.72	40.429	3.9688e-06	50.947	-10.756	23.648	237.407	-84.637	70.305	13.311	-84.354	-79.933	10.118	37.758	-80.274	-76.024	-75.518	-71.062	99.884	-71.822	-8191	255	
6730.273	1	1	0	0	0.21086	0.21067	0.11792	0.18924	0.23979	0.15639	0.11577	0.29932	0.10064	0.11345	0.073962	0.29664	0.19475	0.12237	0.2559	0.19887	-2.0312	-2.5667	-2.925	-2.4729	-2.5854	-2.7854	-2.7021	-2.9437	-2.7229	-2.3063	-2.8937	-2.5479	-2.6625	-2.8229	-2.3417	-3.0563	170.853	39.749	-45.255	132.271	91.773	237.747	229.250	173.819	-28.509	205.165	-32.738	145.804	240.826	74.841	198.998	-16.565	0.0001335	0.00021682	3.167e-05	1357.1	5.5745e-06	2.6807e-06	1362.3	364.24	5.6698e-06	5.0867e-06	421.79	139.88	120.51	42.344	5.2875e-06	52.75	0.00038876	0.00036525	0.0001019	1268.2	4.2405e-06	3.9843e-06	1325	358.5	4.2261e-06	3.9598e-06	404.16	137.39	117.62	40.335	4.1823e-06	50.976	225.105	-29.755	211.610	-84.307	50.102	56.418	-84.477	-80.131	3.450	-13.106	-80.453	-76.135	-75.662	-70.955	188.832	-71.708	-8191	255	
6730.370	1	1	0	0	0.12445	0.17661	0.21106	0.34205	0.33241	0.14309	0.32384	0.1978	0.24936	0.23025	0.046788	0.047049	0.22675	0.10968	0.21526	0.063308	-2.2979	-2.5042	-2.8958	-2.8417	-2.5167	-2.7875	-2.6813	-2.95	-2.5417	-2.6083	-2.9479	-2.6875	-2.7229	-3.0229	-2.3729	-2.8792	-38.206	-40.237	153.770	55.072	14.614	18.383	-95.210	253.930	238.553	222.814	251.149	87.657	237.524	7.880	158.200	192.926	0.00014246	0.00044683	9.1465e-05	1357.5	1.1777e-06	3.6377e-06	1359.5	364.71	4.0958e-06	3.6812e-06	420.47	140.04	121.51	42.162	4.7231e-06	52.632	0.00037984	0.0003576	0.00010722	1268	4.1699e-06	3.9005e-06	1330	358.04	4.1683e-06	3.9089e-06	406.96	137.2	117.82	40.461	4.4366e-06	50.863	191.940	-32.281	65.342	-84.749	41.352	63.965	-84.341	-79.863	-83.093	-15.606	-80.169	-76.162	-75.709	-70.948	139.164	-71.564	-8191	255	
6730.490	1	1	0	0	0.26431	0.2269	0.14957	0.142	0.15045	0.09065	0.1072	0.12866	0.14392	0.20423	0.11172	0.19806	0.21871	0.33919	0.14422	0.045844	-2.2396	-2.5812	-2.8458	-2.6125	-2.4104	-2.8583	-2.6729	-2.7979	-2.7	-2.4979	-2.825	-2.6021	-2.7917	-2.8104	-2.6125	-2.8146	90.241	79.977	147.245	244.594	179.123	-58.019	-97.376	196.590	78.340	183.805	-77.056	-83.715	251.863	95.360	231.578	-41.548	0.00019377	0.00030293	0.0001348	1373.7	1.9857e-06	2.9786e-06	1364.9	364.66	8.8796e-06	2.3594e-06	422.13	139.74	121.5	42.335	6.2105e-06	52.601	0.00037889	0.0003632	0.00011387	1266.9	4.1625e-06	3.9937e-06	1338.8	357.78	4.1177e-06	4.0714e-06	409.64	136.68	117.73	40.683	4.6439e-06	50.758	234.809	-9.789	-60.023	-84.880	41.814	-58.498	-84.573	-79.944	-21.175	151.990	-80.336	-76.293	-75.884	-70.943	-8.352	-71.682	-8191	255	
6730.586	1	1	0	0	0.2412	0.017487	0.053324	0.41557	0.21371	0.22939	0.058357	0.31791	0.15883	0.20741	0.093475	0.024179	0.10281	0.065115	0.094008	0.17758	-2.4521	-2.5667	-2.6958	-2.6708	-2.5542	-2.9021	-2.675	-2.8333	-2.8583	-2.4688	-2.8521	-2.75	-2.6292	-2.8	-2.6771	-2.7458	-39.415	-50.692	-96.012	150.416	152.970	135.666	-80.108	171.273	193.252	25.045	136.381	-47.430	-63.693	195.467	121.763	28.483	0.00014968	0.00056461	0.00018554	1378.2	3.3527e-06	5.7335e-06	1361.5	364.67	2.4321e-06	2.7142e-06	424.64	140.43	121.21	42.253	7.0428e-06	52.948	0.00037445	0.0003849	0.00011835	1261.7	4.1192e-06	4.2462e-06	1340.4	357.62	4.0587e-06	4.3428e-06	410.75	136.86	117.48	40.968	4.5869e-06	50.745	224.440	65.401	-10.297	-84.672	34.756	229.569	-84.464	-79.983	224.876	209.033	-80.489	-76.422	-75.764	-71.116	-1.844	-71.781	-8191	255	
6730.658	1	1	0	0	0.24423	0.20041	0.12959	0.041789	0.19573	0.25622	0.21834	0.27158	0.2348	0.047778	0.41789	0.028727	0.22622	0.16638	0.26731	0.1445	-2.3521	-2.5479	-2.6875	-2.7354	-2.3833	-2.9021	-2.8646	-2.5771	-2.8604	-2.4062	-2.9646	-2.8542	-2.5125	-2.8625	-2.5542	-2.7667	-11.275	31.843	-25.573	255.115	-43.896	-32.456	244.048	-81.058	186.141	4.165	258.122	145.710	260.399	-50.800	93.230	189.833	0.00021024	0.000331	0.00022306	1368.2	2.0549e-06	3.4415e-06	1361.2	363.98	3.5357e-06	6.2947e-06	423.04	140.02	121.54	42.395	4.6195e-06	52.656	0.00036782	0.00040642	0.00011584	1257	4.0486e-06	4.477e-06	1336.3	357.25	4.0328e-06	4.4989e-06	408.66	136.19	117.58	41.216	4.4362e-06	50.483	224.799	43.834	-26.983	-84.646	-4.709	222.497	-84.612	-79.927	152.327	-10.054	-80.486	-76.234	-75.761	-71.002	42.283	-71.401	-8191	255	
6730.754	1	1	0	0	0.15574	0.20804	0.22531	0.34022	0.095505	0.2544	0.17917	0.14788	0.13992	0.29173	0.082129	0.21255	0.12735	0.35759	0.12815	0.3191	-2.5	-2.3312	-2.6708	-2.8292	-2.2812	-2.8438	-2.7812	-2.4562	-2.7812	-2.525	-2.7333	-3.0792	-2.4417	-2.875	-2.5958	-2.5563	224.655	241.723	122.597	213.062	110.118	-7.594	192.635	195.337	-33.112	158.206	159.742	-86.273	-43.695	231.279	-72.359	-45.819	0.00015354	0.0006125	0.00014196	1365.9	6.5682e-06	5.6491e-06	1363.7	365.42	1.534e-06	2.5626e-06	424.15	140.19	121.57	42.409	6.9772e-06	53.045	0.00036968	0.00041839	0.00011169	1248	4.0798e-06	4.6067e-06	1333.8	356.58	4.1103e-06	4.6556e-06	407.32	136.02	118.34	41.34	4.3292e-06	50.417	188.328	55.935	-62.906	-84.738	133.877	76.543	-84.456	-80.073	124.141	249.910	-80.350	-76.043	-75.770	-71.160	-18.236	-71.442	-8191	255	
6730.850	1	1	0	0	0.24769	0.084702	0.049498	0.20501	0.23834	0.054368	0.074051	0.028836	0.1023	0.22182	0.23462	0.26024	0.24689	0.20077	0.086389	0.094312	-2.475	-2.4208	-2.6875	-2.8125	-2.3104	-2.9938	-2.7208	-2.7896	-2.8542	-2.5583	-2.5563	-3.0812	-2.4688	-2.7375	-2.7417	-2.6208	201.944	208.105	236.233	246.895	-16.294	46.137	-12.869	38.457	-79.458	127.366	151.762	257.791	-59.640	-95.707	-35.864	41.021	0.00018732	0.0010175	9.7922e-05	1370.9	4.0204e-06	3.6285e-06	1366.3	365.07	4.9423e-06	4.7825e-06	424.63	139.58	121.35	42.43	9.011e-06	52.726	0.0003886	0.00042753	0.0001094	1243	4.3411e-06	4.6174e-06	1332.7	355.95	4.3489e-06	4.5807e-06	406.91	135.71	118.71	41.241	4.1841e-06	50.161	198.481	14.188	260.283	-84.417	-94.482	-11.728	-84.489	-79.918	194.408	-26.366	-80.228	-76.256	-75.605	-70.840	27.405	-71.517	-8191	255	
6730.969	1	1	0	0	0.13475	0.21727	0.14255	0.16446	0.17016	0.011422	0.05947	0.14578	0.21988	0.10159	0.041523	0.30009	0.065192	0.085737	0.2498	0.21253	-2.3812	-2.3833	-2.65	-2.7104	-2.4542	-2.7667	-2.8125	-2.5708	-2.6208	-2.4792	-2.7938	-2.8333	-2.5667	-2.5187	-2.7062	-2.5271	10.231	167.332	62.802	-90.731	49.724	66.215	157.462	234.217	12.679	237.260	-73.370	237.037	-62.606	-34.520	151.943	225.834	0.00028482	0.00058075	5.0087e-05	1374.9	8.6091e-07	6.8762e-06	1363.9	365.69	1.5004e-07	5.511e-06	421.87	139.79	120.93	42.428	4.2827e-06	52.76	0.00040412	0.00040976	0.00010498	1238.4	4.4954e-06	4.4436e-06	1329.1	355.5	4.4906e-06	4.382e-06	403.9	135.34	118.93	40.903	4.0384e-06	50.189	188.410	-68.399	-79.642	-84.885	71.291	53.626	-84.482	-79.910	-55.126	3.563	-80.489	-76.072	-75.620	-71.007	-12.082	-71.720	-8191	255	
6731.065	1	1	0	0	0.33904	0.17474	0.1534	0.19065	0.32083	0.08333	0.29117	0.3412	0.16265	0.13056	0.10534	0.25385	0.24431	0.24511	0.24007	0.042864	-2.3312	-2.2542	-2.4771	-2.9354	-2.4167	-2.4875	-3.0021	-2.5375	-2.6208	-2.6688	-2.5333	-2.7854	-2.425	-2.7354	-2.9542	-2.4979	-6.271	-80.917	119.249	20.222	-89.255	95.841	229.444	231.262	14.195	121.841	215.821	181.498	-87.843	246.908	240.603	110.572	0.0001397	0.000604	0.00019644	1367	2.765e-06	8.6687e-06	1358.2	364.41	2.5917e-06	2.9445e-06	424.35	140.13	121.61	42.281	5.555e-06	52.908	0.00041136	0.00039385	0.00010209	1242.2	4.5631e-06	4.2667e-06	1324.9	356.34	4.5494e-06	4.2521e-06	403.72	136.12	119.06	40.793	3.9552e-06	50.462	196.848	-75.435	-44.440	-84.920	-1.800	-2.763	-84.489	-79.862	82.106	-5.552	-80.623	-76.341	-75.753	-71.015	41.812	-71.536	-8191	255	
6731.162	1	1	0	0	0.093201	0.16527	0.1433	0.27685	0.094901	0.022418	0.24563	0.048286	0.14872	0.14606	0.31712	0.17295	0.1961	0.16751	0.20753	0.19558	-2.4688	-2.6271	-2.525	-2.8271	-2.425	-2.5292	-2.7604	-2.4396	-2.8125	-2.6771	-2.4938	-2.9042	-2.4083	-2.5104	-2.775	-2.4271	-34.778	174.884	260.830	-81.765	36.152	226.912	-74.163	-71.399	126.574	136.690	206.859	246.217	-91.532	180.087	49.296	69.032	0.00019661	0.00020824	0.0001367	1362.3	6.5531e-06	7.168e-06	1362.8	364.48	6.5791e-06	6.853e-06	424.52	139.59	121.14	42.309	5.4579e-06	52.724	0.00041388	0.00038468	9.9902e-05	1253.9	4.5304e-06	4.1595e-06	1323.8	357.89	4.4736e-06	4.1426e-06	402.9	136.89	118.75	40.71	3.887e-06	50.91	216.506	-89.839	234.050	-84.623	-2.164	11.336	-84.455	-80.083	70.447	33.909	-80.251	-76.145	-75.595	-71.075	21.134	-71.528	-8191	255	
6731.282	1	1	0	0	0.21447	0.0905	0.067043	0.24763	0.20012	0.070362	0.078075	0.17658	0.15147	0.082723	0.20443	0.14741	0.16452	0.077233	0.21145	0.1559	-1.9625	-2.7146	-2.2125	-2.7146	-2.6	-2.6083	-2.8625	-2.6125	-2.7396	-2.8	-2.5604	-2.8542	-2.7562	-2.6667	-2.8875	-2.4792	-58.747	17.751	198.928	-40.759	86.201	46.630	216.445	-5.029	120.204	181.178	-27.631	177.981	168.042	182.911	129.245	150.290	0.00010766	0.00028697	0.0001132	1366.9	6.4701e-06	5.378e-06	1363.7	364.98	2.1083e-06	6.7476e-06	421.84	139.13	122.39	42.365	7.116e-06	52.817	0.00040381	0.00037533	9.9655e-05	1266.6	4.3918e-06	4.0788e-06	1323.4	358.8	4.3411e-06	4.0652e-06	403.35	137.28	118.56	40.605	3.9887e-06	51.035	234.583	-60.892	-56.071	-84.762	14.042	-7.075	-84.523	-79.936	-20.108	-1.827	-80.491	-76.363	-75.883	-71.119	107.422	-71.599	-8191	255	
6731.354	1	1	0	0	0.21426	0.088575	0.093645	0.27293	0.3248	0.035362	0.025646	0.13462	0.11026	0.066123	0.10769	0.22531	0.26518	0.15246	0.20051	0.14881	-2.3083	-2.7229	-2.325	-2.9542	-2.6896	-2.4104	-3.3021	-2.6167	-2.5563	-2.9396	-2.5667	-2.9208	-2.5938	-2.4792	-2.9271	-2.75	154.969	255.529	8.446	59.381	238.384	23.679	84.903	131.293	108.187	159.797	242.442	168.835	-42.844	-22.369	252.361	214.031	0.00010955	0.00035621	3.6039e-05	1368.6	3.9096e-06	7.8249e-06	1358.6	364.88	5.9798e-06	5.1043e-06	423.79	140.18	121.45	42.375	4.6056e-06	52.677	0.000388	0.00036428	0.00010238	1272.9	4.2401e-06	3.9662e-06	1327.4	359.67	4.2187e-06	3.9432e-06	405.7	137.5	118.14	40.429	4.1676e-06	51.021	-82.212	-54.592	177.691	-84.756	14.116	-3.234	-84.509	-79.860	25.602	11.350	-80.468	-76.192	-75.879	-70.929	135.310	-71.461	-8191	255	
6731.450	1	1	0	0	0.3011	0.19116	0.0014549	0.17015	0.15347	0.1039	0.18303	0.30715	0.44747	0.37451	0.2239	0.19966	0.065936	0.20118	0.063286	0.062765	-2.2146	-2.7021	-2.5667	-2.7062	-2.6125	-2.5333	-3.175	-2.5646	-2.6063	-2.9625	-2.4542	-2.7146	-2.8604	-2.4521	-2.7562	-2.6292	50.252	250.827	180.000	44.232	38.376	-78.074	198.483	195.893	258.700	25.285	243.590	62.507	63.643	193.023	248.680	-25.078	0.00018364	0.00047265	7.2139e-05	1375.5	6.2752e-06	3.9212e-06	1363.3	364.9	7.405e-06	4.6322e-06	423.26	140.39	121.11	42.293	2.1289e-06	52.854	0.00038108	0.00035419	0.00010756	1270.2	4.1273e-06	3.8533e-06	1331.5	358.1	4.0667e-06	3.8176e-06	407.48	136.72	117.43	40.341	4.2985e-06	50.715	225.754	246.970	43.050	-84.454	60.937	7.454	-84.586	-80.009	-50.065	-15.717	-80.312	-76.256	-75.816	-71.009	234.176	-71.830	-8191	255	
6731.571	1	1	0	0	0.045537	0.19294	0.071227	0.066616	0.18628	0.092236	0.24398	0.22667	0.086163	0.15428	0.12091	0.10119	0.092315	0.23669	0.42801	0.19533	-2.2542	-2.8042	-2.3458	-2.8042	-2.7729	-2.3083	-3.1021	-2.9229	-2.3646	-2.7729	-2.7562	-2.625	-2.7938	-2.5625	-2.6875	-2.7479	17.251	218.248	233.261	197.952	-68.085	57.554	197.905	223.937	-6.395	56.355	120.689	116.494	231.565	170.277	254.138	126.006	0.00020467	0.00034818	0.00017657	1369.2	5.847e-06	6.2854e-07	1362.8	363.81	1.9614e-06	2.5664e-06	422.14	140.86	121.23	42.385	3.4416e-06	53.006	0.0003664	0.00034956	0.00011084	1256.6	4.0016e-06	3.8807e-06	1334.6	356.59	3.9639e-06	3.8718e-06	407.86	136.32	117.04	40.461	4.3859e-06	50.44	206.598	-63.987	200.105	-84.558	59.228	0.595	-84.513	-80.069	14.302	245.377	-80.528	-76.259	-75.805	-70.866	-9.159	-71.917	-8191	255	
6731.667	1	1	0	0	0.037673	0.17368	0.23855	0.079225	0.28531	0.052453	0.30017	0.059615	0.093898	0.22751	0.10471	0.21155	0.39644	0.063335	0.17243	0.27607	-2.0708	-2.7917	-2.5292	-2.7083	-2.7313	-2.4667	-2.9896	-2.7708	-2.5354	-2.7438	-2.4938	-2.7	-2.85	-2.4271	-2.6667	-2.8	32.402	-89.475	126.472	158.918	240.073	26.167	243.385	227.162	-57.127	181.710	-54.230	230.363	239.921	154.999	243.633	162.096	0.00017378	0.00020998	9.9614e-05	1374.7	5.8938e-06	1.2969e-06	1362	364.97	4.8876e-06	3.393e-06	422.97	139.76	120.98	42.269	3.3121e-06	52.763	0.00035614	0.0003629	0.00011186	1245.7	3.8628e-06	4.0512e-06	1333.4	356.01	3.8566e-06	4.0644e-06	408.93	135.72	116.78	40.742	4.3349e-06	50.305	227.922	63.148	6.064	-84.917	0.491	-86.892	-84.605	-79.988	-9.692	44.991	-80.311	-76.173	-75.793	-71.197	-8.463	-71.513	-8191	255	
6731.763	1	1	0	0	0.13512	0.18817	0.28162	0.33978	0.17735	0.11193	0.096896	0.33004	0.084826	0.26107	0.2045	0.067681	0.26056	0.1765	0.030519	0.30471	-1.7583	-2.8792	-2.4417	-2.2604	-2.8354	-2.3	-2.9833	-3.0062	-2.2354	-2.8271	-2.7896	-2.6729	-3.0875	-2.6521	-2.6063	-2.8875	131.659	73.259	57.732	255.243	-78.609	246.814	230.126	196.834	-62.930	64.552	-51.802	90.857	155.109	205.777	242.138	242.447	0.00026153	0.00076763	0.0002194	1368.1	2.2809e-06	6.958e-06	1361.6	366.15	2.0345e-06	6.8111e-06	423.28	140.25	121.07	42.308	5.8975e-06	52.992	0.00035204	0.00038614	0.00010991	1240.3	3.8155e-06	4.2774e-06	1330.8	355.65	3.8417e-06	4.3083e-06	406.22	135.81	116.81	41.057	4.2328e-06	50.227	201.978	109.270	-56.404	-84.938	52.193	181.924	-84.538	-80.095	230.296	147.463	-80.480	-76.198	-75.950	-70.901	13.541	-71.615	-8191	255	
6731.884	1	1	0	0	0.2287	0.11967	0.078434	0.11137	0.1928	0.36291	0.35954	0.25699	0.18251	0.19132	0.096025	0.22854	0.18267	0.10974	0.037201	0.095437	-2.0583	-2.6875	-2.4958	-2.6083	-2.6417	-2.6167	-2.8771	-2.7875	-2.4208	-2.85	-2.6312	-2.5062	-3.1208	-2.5417	-2.6167	-2.8875	234.118	155.668	256.308	232.355	171.352	-68.460	188.707	136.444	51.681	68.677	45.078	-44.567	49.999	-93.316	258.589	142.147	0.00026062	0.00045208	7.0853e-05	1361.9	3.5435e-06	2.5634e-06	1363.5	364.89	3.6513e-06	2.4828e-06	423.33	139.97	120.88	42.164	1.6296e-06	52.777	0.00035662	0.00040091	0.00010727	1238.3	3.9235e-06	4.4492e-06	1330	355.24	4.0064e-06	4.4364e-06	405.64	135.29	117.45	41.113	4.1221e-06	49.983	211.318	68.208	21.534	-84.382	197.103	-61.116	-84.443	-79.985	10.999	111.609	-80.370	-76.016	-75.444	-71.219	-35.331	-71.686	-8191	255	
6731.955	1	1	0	0	0.060742	0.17192	0.13636	0.34043	0.04704	0.158	0.15841	0.30991	0.23902	0.10742	0.21046	0.091425	0.11544	0.21107	0.12547	0.17719	-2.2167	-2.5333	-2.5854	-2.5167	-2.7313	-2.6125	-2.8	-2.8583	-2.4396	-2.8458	-2.6229	-2.7354	-3.1063	-2.5563	-2.6271	-2.8354	-88.158	101.427	178.873	253.806	165.164	-62.005	237.627	193.811	125.473	-41.032	-59.920	233.023	-37.335	241.696	242.548	25.098	0.00030011	0.00062708	0.00018698	1361.9	2.4335e-06	6.3985e-06	1359.8	364.58	2.8758e-06	8.0968e-06	422.26	139.83	121.06	42.396	9.8271e-06	52.612	0.0003735	0.00040512	0.00010379	1233.3	4.1481e-06	4.4318e-06	1327.5	354.36	4.1962e-06	4.3733e-06	403.96	134.91	117.92	40.932	3.9988e-06	49.8	181.971	-73.880	-27.253	-84.618	-86.793	-20.979	-84.491	-80.001	251.126	9.682	-80.223	-76.111	-75.664	-71.112	54.623	-71.485	-8191	255	
6732.050	1	1	0	0	0.32852	0.088906	0.20786	0.079378	0.11663	0.14533	0.46813	0.23957	0.047325	0.091938	0.10637	0.19673	0.20088	0.035126	0.12184	0.089562	-2.0333	-2.9313	-2.6333	-2.5125	-2.8646	-2.5229	-2.7167	-3.0917	-2.3458	-2.9125	-2.7375	-2.4604	-2.8208	-2.6417	-2.4833	-3.0083	134.295	-47.282	-10.730	245.323	257.010	200.130	180.816	180.680	-4.755	-69.932	125.277	51.919	-37.277	122.881	157.577	-65.445	0.00033542	0.00085176	3.2307e-05	1372.5	3.4073e-06	1.2064e-05	1358.5	364.17	1.7447e-06	3.3824e-06	423.99	139.74	121.19	42.205	5.7529e-06	52.858	0.00039031	0.00039103	0.00010086	1226.6	4.2778e-06	4.2379e-06	1325.4	353.93	4.3426e-06	4.2156e-06	403.52	135.05	118.49	40.727	3.9064e-06	49.95	182.152	-13.710	-10.910	-84.667	215.063	42.488	-84.428	-79.923	-36.100	47.570	-80.600	-76.149	-75.842	-71.126	24.095	-71.680	-8191	255	
6732.146	1	1	0	0	0.12245	0.3676	0.14754	0.083791	0.21677	0.24256	0.13383	0.35587	0.22975	0.2145	0.12705	0.16063	0.085428	0.15468	0.27973	0.17231	-1.9771	-2.8708	-2.6729	-2.4958	-2.8187	-2.6417	-2.7771	-2.8667	-2.4458	-3.125	-2.9396	-2.4313	-2.9062	-2.7083	-2.4792	-2.8396	227.435	42.781	154.288	203.424	190.554	-94.918	185.373	196.041	0.041	-86.794	102.249	246.374	217.491	108.958	-88.756	-88.000	0.0002126	0.00060581	0.00018788	1366.4	2.488e-06	4.2682e-06	1363.5	364.73	4.012e-06	8.0139e-06	422.54	139.83	121.2	42.293	2.176e-06	52.557	0.00040185	0.00037868	9.8192e-05	1235.3	4.3751e-06	4.0782e-06	1322.8	355.05	4.3675e-06	4.0523e-06	401.01	135.52	118.47	40.544	3.7505e-06	50.211	173.565	-78.844	-70.171	-84.765	102.281	-12.099	-84.427	-80.045	55.219	20.012	-80.439	-76.126	-75.716	-70.857	89.902	-71.852	-8191	255	
6732.266	1	1	0	0	0.17315	0.035144	0.069744	0.08413	0.16235	0.11781	0.30487	0.12674	0.25257	0.12934	0.38899	0.21839	0.070485	0.1842	0.16189	0.15265	-2.1667	-2.6083	-2.7417	-2.5438	-2.725	-2.9062	-2.4646	-3.0979	-2.7479	-2.6521	-3.0292	-2.6312	-3.0083	-2.7396	-2.5375	-2.9188	223.213	244.261	245.365	178.959	-92.395	82.276	234.209	68.823	58.028	26.836	204.339	197.310	-3.549	257.315	-85.483	76.288	0.00023698	0.00039081	8.1236e-05	1367	4.7066e-06	5.9092e-06	1364.8	365.56	3.7231e-06	2.2826e-06	422	139.81	121.45	42.405	4.8536e-06	52.955	0.00039683	0.00036452	9.478e-05	1246.1	4.3058e-06	3.9899e-06	1322.3	356.73	4.2702e-06	3.9623e-06	400.28	136.3	118.15	40.431	3.7284e-06	50.621	202.854	-47.181	-91.466	-84.437	43.607	-37.428	-84.457	-79.825	-30.964	-30.875	-80.317	-76.164	-75.836	-71.093	260.446	-71.485	-8191	255	
6732.363	1	1	0	0	0.071912	0.15529	0.08295	0.13576	0.17952	0.079593	0.13845	0.20129	0.12526	0.23386	0.19739	0.2767	0.26316	0.24097	0.2273	0.29754	-2.1479	-2.4729	-2.9729	-2.4125	-2.6375	-2.8438	-2.5771	-3.1542	-2.5396	-2.6042	-2.7229	-2.6375	-2.6792	-2.8	-2.4792	-2.8771	-10.326	63.865	-52.215	260.175	245.634	22.766	151.700	219.575	-9.065	32.625	39.203	233.016	-73.051	174.538	-62.212	185.653	0.0001053	0.00050209	0.00010366	1363	1.4608e-06	7.8768e-06	1362.6	364.01	5.1605e-06	5.4564e-06	422.63	139.94	121.29	42.47	5.5297e-06	52.88	0.00038548	0.00035839	9.445e-05	1259.6	4.1909e-06	3.9187e-06	1321.8	357.3	4.137e-06	3.8817e-06	401.42	136.87	117.67	40.364	3.826e-06	50.767	219.836	-63.070	215.655	-84.954	34.047	-52.616	-84.475	-80.200	-0.820	-62.669	-80.479	-76.252	-75.641	-71.036	87.796	-71.725	-8191	255	
6732.459	1	1	0	0	0.18399	0.18205	0.27308	0.07061	0.1287	0.13906	0.30742	0.1404	0.43117	0.036058	0.065487	0.17225	0.14257	0.1421	0.1004	0.22483	-2.2687	-2.2979	-2.7792	-2.5958	-2.7479	-2.8563	-2.5875	-3.0208	-2.5729	-2.6021	-2.9667	-2.5312	-2.725	-2.85	-2.5729	-2.9396	84.759	32.403	132.846	205.813	-13.941	107.016	183.534	146.210	56.268	236.907	-34.138	240.221	250.749	180.512	157.083	235.080	0.00016386	0.00012559	0.00015159	1368.2	4.4168e-06	5.0605e-06	1367.2	365.04	2.0278e-06	9.6562e-07	421.78	139.72	121.38	42.459	4.3871e-06	52.964	0.0003729	0.0003511	9.8154e-05	1264.4	4.0976e-06	3.821e-06	1327.7	358.42	4.0878e-06	3.8182e-06	404.28	137.08	117.6	40.352	4.128e-06	50.842	233.461	1.392	85.945	-84.785	-55.489	4.455	-84.569	-80.012	-46.507	-19.471	-80.526	-76.147	-75.810	-71.213	126.130	-71.831	-8191	255	
6732.555	1	1	0	0	0.11606	0.22509	0.17127	0.13023	0.21599	0.17043	0.37005	0.2564	0.19396	0.30222	0.22818	0.19137	0.15614	0.11117	0.2044	0.1657	-1.9417	-2.3833	-2.9417	-2.725	-2.6771	-2.9938	-2.8354	-2.675	-2.8125	-2.3542	-3.0542	-2.7396	-2.65	-2.9292	-2.4646	-2.8438	177.915	257.679	89.389	116.319	-13.573	110.216	178.190	225.770	98.556	119.826	184.245	232.879	229.828	198.506	238.996	83.627	0.00011266	0.00030644	9.2675e-05	1373	3.7759e-06	7.0649e-06	1366	365.71	5.125e-06	3.3889e-06	422.6	140.33	121.54	42.352	1.4642e-06	52.863	0.00037349	0.00035012	0.00010563	1265.6	4.0521e-06	3.7957e-06	1331.9	357.66	4.0254e-06	3.7881e-06	406.52	136.87	117.49	40.36	4.3229e-06	50.705	187.302	17.614	103.998	-84.749	14.656	75.521	-84.513	-79.936	-85.259	15.845	-80.299	-76.113	-75.745	-71.089	235.283	-71.735	-8191	255	
6732.651	1	1	0	0	0.24142	0.11697	0.15342	0.23461	0.36374	0.062297	0.19799	0.54319	0.103	0.1196	0.28854	0.071027	0.14977	0.14472	0.18919	0.41716	-2.5667	-2.2875	-2.8021	-2.8063	-2.5812	-2.7292	-2.7917	-2.8021	-2.8583	-2.6042	-2.8229	-2.7396	-2.4708	-3.0083	-2.5583	-2.9542	233.567	-7.019	183.850	177.006	-1.335	168.061	213.183	196.573	20.567	30.336	5.463	203.821	31.475	-31.187	13.763	-94.681	0.00021654	8.9143e-05	0.00015382	1382.1	4.5453e-06	3.943e-06	1365	365.39	3.6594e-06	3.4101e-06	424.05	140.46	121.19	42.273	5.0377e-06	53.238	0.00036713	0.00035535	0.0001106	1259.8	4.0106e-06	3.8849e-06	1338.5	357.2	3.9795e-06	3.9521e-06	408.9	136.53	117.36	40.565	4.4299e-06	50.545	207.475	221.641	-30.043	-84.692	71.091	85.463	-84.495	-79.974	7.429	134.179	-80.522	-76.443	-75.564	-71.197	59.418	-71.467	-8191	255	
6732.747	1	1	0	0	0.093697	0.088968	0.11565	0.076703	0.34756	0.052552	0.29068	0.27832	0.11564	0.12518	0.12866	0.3584	0.22569	0.21667	0.13764	0.24366	-2.4042	-2.4229	-2.8417	-2.5458	-2.4292	-2.8271	-2.7417	-2.6188	-3.0021	-2.3187	-2.8125	-2.825	-2.6854	-2.9083	-2.625	-2.7771	248.336	-48.287	223.840	257.879	-86.624	64.403	255.780	195.490	240.797	142.701	115.540	134.672	258.150	-69.088	-49.265	243.566	0.00015848	0.0003555	4.302e-05	1371.2	5.1938e-06	7.1069e-06	1372.3	365.62	4.353e-06	6.7958e-06	423.59	140.59	121.72	42.322	8.3496e-06	52.656	0.00035694	0.00036888	0.00011201	1252.1	3.9058e-06	4.0622e-06	1341.6	356.52	3.8388e-06	4.1366e-06	409.14	136.26	117.11	40.834	4.3581e-06	50.271	244.493	92.803	132.684	-84.764	9.161	134.978	-84.446	-80.108	249.006	177.634	-80.353	-76.199	-75.474	-71.198	21.220	-71.534	-8191	255	
6732.843	1	1	0	0	0.26445	0.16303	0.071839	0.21447	0.22728	0.072287	0.33172	0.18496	0.18662	0.038409	0.15973	0.048542	0.38176	0.14599	0.19245	0.13751	-2.4229	-2.4396	-2.7625	-2.5625	-2.4833	-2.5917	-2.6167	-2.7667	-2.6562	-2.5625	-2.8875	-2.7812	-2.3271	-2.9813	-2.5833	-2.7271	170.631	-39.506	260.940	30.956	-21.053	189.335	204.206	-71.777	-93.600	95.574	-66.749	175.485	214.386	257.089	-36.942	77.273	0.00018833	0.00010212	8.6187e-05	1371.7	7.3509e-07	7.616e-06	1367.2	366.32	1.8441e-06	5.6945e-06	425.74	140.01	121.55	42.286	7.5347e-06	53.05	0.00034854	0.00038783	0.00010861	1242.5	3.8224e-06	4.2276e-06	1336	355.42	3.7987e-06	4.2967e-06	406.17	135.45	116.88	40.936	4.1639e-06	50.134	224.372	31.333	262.023	-84.675	45.767	206.099	-84.698	-79.753	260.282	249.474	-80.325	-76.296	-75.604	-71.123	0.047	-71.813	-8191	255	
6732.964	1	1	0	0	0.11688	0.13996	0.11355	0.070944	0.21358	0.088833	0.15514	0.18373	0.16628	0.1627	0.1383	0.083524	0.097515	0.14343	0.23877	0.18172	-2.5208	-2.3625	-2.7896	-2.8146	-2.4417	-2.775	-2.7812	-2.6437	-3.0021	-2.5812	-2.8542	-3.025	-2.6063	-2.9125	-2.6521	-2.5333	200.904	121.110	189.062	64.737	12.085	30.978	124.488	-92.474	157.801	198.204	213.216	31.373	171.030	102.277	13.693	-97.089	0.00018076	0.00029144	0.00018731	1361.9	1.2257e-06	3.0185e-06	1367.4	365.73	2.2796e-06	4.6394e-06	424.38	139.42	121.31	42.303	7.3163e-06	52.841	0.000349	0.00039633	0.00010445	1232.5	3.8879e-06	4.3288e-06	1331.2	354.92	3.8782e-06	4.3334e-06	404.08	134.74	117.21	40.904	3.9643e-06	49.81	178.192	-2.192	3.518	-84.757	125.447	53.035	-84.491	-79.880	172.559	-9.439	-80.457	-76.339	-75.888	-71.011	-5.930	-71.922	-8191	255	
6733.058	1	1	0	0	0.063357	0.25767	0.042876	0.057978	0.17698	0.079061	0.060106	0.13251	0.12258	0.05009	0.17301	0.24291	0.16557	0.20271	0.24296	0.37905	-2.4708	-2.3292	-2.4562	-2.975	-2.5146	-2.8479	-2.8083	-2.7188	-2.9583	-2.725	-2.5625	-3	-2.4104	-2.9167	-2.75	-2.5687	220.387	129.646	155.268	-41.226	-44.611	53.789	-89.507	224.995	-57.294	259.973	144.245	207.858	200.445	156.004	149.533	200.193	0.00039987	0.00032629	0.00016378	1375.1	3.2641e-06	6.8673e-06	1363	364.12	5.3469e-06	8.1226e-06	421.49	139.65	121.28	42.298	6.7757e-06	52.756	0.00036063	0.00038978	9.9977e-05	1222.3	4.0294e-06	4.2574e-06	1324.2	353.53	4.0956e-06	4.2655e-06	402.66	134.52	118.15	40.853	3.9991e-06	49.859	202.843	246.972	-89.817	-84.524	256.364	-9.276	-84.500	-79.778	199.024	-38.094	-80.196	-76.403	-75.789	-71.001	-38.328	-71.645	-8191	255	
6733.154	1	1	0	0	0.18311	0.2479	0.24402	0.092082	0.11394	0.07231	0.1866	0.18783	0.10667	0.26526	0.32219	0.067647	0.080657	0.2965	0.14783	0.05956	-2.4958	-2.4229	-2.6708	-2.6875	-2.5417	-2.6917	-2.9354	-2.5583	-2.8063	-2.5417	-2.8479	-2.9333	-2.525	-2.7333	-2.7854	-2.575	215.823	-19.974	220.845	-67.033	96.441	203.806	-66.961	202.084	26.154	73.389	166.480	-83.621	258.597	-33.386	-43.642	-22.083	0.00021237	0.00023747	9.1081e-05	1369.8	3.5376e-07	2.3893e-06	1366.6	365.3	3.0935e-06	6.4235e-06	423.58	140.2	121.39	42.525	7.2047e-06	52.692	0.00039096	0.00039179	0.00010166	1229.3	4.3705e-06	4.2724e-06	1327.5	354.76	4.3657e-06	4.2241e-06	403.69	135.21	118.62	40.78	3.8892e-06	50.018	202.508	17.001	-41.333	-84.926	122.142	-41.292	-84.603	-79.986	102.375	1.174	-80.104	-76.194	-75.913	-71.101	-25.327	-71.557	-8191	255	
6733.251	1	1	0	0	0.067566	0.37771	0.10335	0.19846	0.089133	0.22457	0.20119	0.21655	0.25515	0.17147	0.24722	0.12047	0.090877	0.14253	0.14728	0.15016	-2.4979	-2.5104	-2.3646	-2.5708	-2.6125	-2.5896	-3.0438	-2.6437	-2.8604	-2.7562	-2.4167	-2.8958	-2.6437	-2.7333	-2.8667	-2.5062	134.545	0.877	60.225	-41.250	234.364	234.191	231.204	156.760	160.345	-60.606	174.821	179.374	-92.080	257.915	-31.450	203.805	9.8979e-05	0.00029259	8.4724e-05	1367.7	6.1948e-06	6.9097e-06	1367.1	365.85	4.3671e-06	7.5947e-06	423.88	139.71	121.95	42.472	2.4232e-06	52.914	0.00039765	0.0003744	9.7561e-05	1234.6	4.3815e-06	4.0617e-06	1325.4	355.66	4.3689e-06	4.0405e-06	401.9	135.76	118.74	40.681	3.7791e-06	50.487	230.385	-32.701	5.804	-84.356	56.408	-16.965	-84.446	-80.253	-31.216	249.219	-80.471	-76.038	-76.090	-71.012	158.460	-71.731	-8191	255	
6733.347	1	1	0	0	0.1993	0.049107	0.11655	0.1498	0.065666	0.27994	0.56671	0.26887	0.17766	0.30754	0.16138	0.2182	0.25706	0.26533	0.16899	0.31217	-2.5438	-2.4875	-2.525	-2.8083	-2.5917	-2.7292	-3.1521	-2.4875	-2.9083	-2.7792	-2.7458	-2.9458	-2.6979	-2.4604	-3.0646	-2.6	-23.991	-46.557	181.173	-81.970	60.166	-35.631	171.099	-93.831	-67.318	-66.547	148.245	-77.224	215.318	231.269	160.226	238.962	0.00015193	0.00032543	0.00012058	1383.7	6.6961e-06	3.1461e-06	1365.7	364.99	3.5826e-06	5.2491e-06	424.53	140.04	121.34	42.513	7.1727e-06	53.041	0.00040045	0.00037164	9.6912e-05	1250.7	4.3785e-06	4.0226e-06	1324.6	357.22	4.2825e-06	3.9263e-06	401.58	136.65	118.08	40.452	3.6691e-06	50.585	205.707	199.471	-55.950	-84.504	18.164	88.549	-84.579	-79.966	69.211	-78.719	-80.257	-76.371	-75.704	-71.019	-56.187	-71.620	-8191	255	
6733.443	1	1	0	0	0.26751	0.10317	0.044682	0.049505	0.083867	0.17615	0.30789	0.21405	0.26146	0.080376	0.19223	0.12235	0.32327	0.20406	0.082818	0.0902	-2.3187	-2.6167	-2.3604	-2.7042	-2.7271	-2.4375	-2.95	-2.6021	-2.6354	-2.7562	-2.6854	-2.9646	-2.9042	-2.5375	-2.9667	-2.7062	-84.671	127.306	-82.398	39.176	49.614	95.418	189.206	211.663	-79.256	-44.573	254.215	154.943	218.689	248.564	65.464	-95.996	0.00013481	0.00049335	0.00012911	1368.3	1.846e-06	7.7832e-06	1367.3	365.91	3.6257e-06	5.8321e-06	422.4	139.98	121.33	42.285	1.2342e-06	52.779	0.00037736	0.0003524	9.4052e-05	1257.5	4.1468e-06	3.8569e-06	1325.9	357.65	4.1189e-06	3.8418e-06	401.46	136.94	117.89	40.367	3.7794e-06	50.849	189.597	-50.406	-42.849	-84.707	47.632	5.005	-84.500	-79.826	14.390	-5.429	-80.339	-76.212	-75.816	-71.188	-7.608	-71.701	-8191	255	
6733.564	1	1	0	0	0.071569	0.14178	0.091729	0.025374	0.22825	0.18394	0.1693	0.17537	0.30831	0.26829	0.088542	0.22088	0.35288	0.26058	0.20318	0.18002	-2.2708	-2.95	-2.3979	-2.8708	-2.7	-2.4729	-3.0271	-2.7	-2.6083	-2.7979	-2.5604	-2.8542	-2.9062	-2.6437	-3.0271	-2.5771	18.480	-92.233	-60.231	133.258	3.750	6.784	192.769	212.563	188.845	-20.670	201.111	-82.433	206.101	-67.126	-85.609	261.194	0.00011895	0.00085405	0.00015212	1375.7	1.3632e-06	1.8208e-06	1368.3	365.37	6.6021e-06	4.2762e-06	424.06	140.12	121.78	42.484	4.6781e-06	52.881	0.00036884	0.0003432	9.7293e-05	1260.3	3.983e-06	3.7203e-06	1328.6	357.46	3.9203e-06	3.6514e-06	403.31	136.55	117.11	40.226	3.904e-06	50.519	-95.250	-69.585	113.113	-84.477	10.301	257.984	-84.483	-79.975	77.579	78.832	-80.396	-76.253	-75.648	-70.889	154.336	-71.501	-8191	255	
6733.660	1	1	0	0	0.086992	0.15507	0.19053	0.034327	0.1439	0.13174	0.35157	0.15959	0.2374	0.24347	0.13007	0.1289	0.11125	0.18786	0.10214	0.081065	-2.2792	-2.6729	-2.4021	-2.7042	-2.6875	-2.4938	-3.1667	-2.7729	-2.675	-3.0687	-2.4542	-2.8604	-2.7583	-2.6104	-2.8125	-2.7438	45.103	-48.262	145.135	218.167	-30.188	205.602	205.817	-20.090	39.944	232.953	239.831	259.268	-89.917	-82.700	58.629	2.734	0.00017913	0.00057143	0.00010985	1371.8	2.3235e-06	1.7382e-06	1368.4	365.16	4.6457e-06	7.1057e-06	423.23	140.7	121.51	42.402	3.114e-06	52.915	0.00035402	0.00033099	0.00010147	1251	3.8413e-06	3.6152e-06	1333.1	356.45	3.8021e-06	3.5734e-06	404.72	136.08	116.71	40.086	4.0537e-06	50.242	192.571	-55.861	10.619	-84.514	3.405	45.542	-84.645	-79.996	-15.662	-52.160	-80.551	-76.087	-75.657	-71.059	47.466	-71.466	-8191	255	
6733.756	1	1	0	0	0.17369	0.067372	0.16618	0.16352	0.074051	0.18334	0.30368	0.15626	0.2299	0.18745	0.1977	0.11385	0.25667	0.040581	0.20864	0.21353	-2.1396	-2.7687	-2.6562	-2.7792	-2.9042	-2.5604	-3.0021	-2.8875	-2.6167	-2.725	-2.7917	-2.8333	-2.825	-2.6167	-2.7313	-2.7812	-15.526	159.832	93.098	-25.500	248.819	32.158	227.709	16.513	-40.418	148.596	251.068	206.530	200.379	248.551	-42.601	205.795	0.00017871	0.00041691	4.7354e-05	1368.8	1.7666e-06	4.727e-06	1368.3	365.31	5.7224e-06	2.0461e-06	424.38	140.19	121.43	42.318	8.1147e-07	53.022	0.00034178	0.00032931	0.00010402	1238.7	3.7065e-06	3.6579e-06	1333.2	355.24	3.6947e-06	3.6642e-06	406.16	135.34	116.59	40.291	4.0911e-06	50.075	239.080	65.152	104.998	-84.792	11.205	98.570	-84.471	-80.062	-10.864	76.971	-80.462	-76.235	-75.769	-70.968	-10.398	-71.483	-8191	255	
6733.827	1	1	0	0	0.040526	0.034909	0.30309	0.21174	0.27728	0.2759	0.23141	0.19339	0.091594	0.070501	0.095008	0.095515	0.078995	0.065082	0.192	0.1079	-1.8563	-2.7375	-2.5646	-2.7458	-2.8104	-2.6021	-3.0396	-2.9104	-2.5604	-3.0312	-2.7604	-2.6167	-3.0729	-2.4208	-2.5625	-2.9208	246.910	-40.285	-49.988	223.120	35.016	172.645	223.041	165.087	-61.562	194.256	-38.599	213.924	236.896	187.301	178.349	252.542	0.00016556	0.00029085	5.6782e-05	1380.7	4.1823e-06	3.5187e-06	1371.4	365.7	2.6605e-06	1.0112e-06	423.46	140.69	121.69	42.275	4.8144e-06	52.984	0.00033212	0.0003431	0.00010428	1231.9	3.6007e-06	3.8191e-06	1334	354.56	3.5894e-06	3.8477e-06	404.71	135.16	116.28	40.487	3.9827e-06	49.938	234.123	101.395	-53.725	-84.845	36.476	141.361	-84.661	-80.301	17.177	-0.070	-80.593	-76.269	-75.785	-71.308	70.114	-71.574	-8191	255	
6733.946	1	1	0	0	0.16292	0.12732	0.026956	0.41133	0.22546	0.023836	0.22913	0.082381	0.10533	0.24299	0.030122	0.040311	0.16264	0.39001	0.22079	0.16978	-2.0812	-3.0521	-2.6	-2.7062	-2.8042	-2.4625	-2.8271	-2.7021	-2.6188	-2.8937	-2.4792	-2.75	-2.9667	-2.4479	-2.5333	-2.7958	230.371	163.410	-17.826	14.428	149.810	142.222	-96.191	253.533	108.323	234.659	127.658	193.736	-85.817	-79.831	37.558	112.426	0.00019128	0.00032142	0.00019825	1370.4	1.1154e-06	3.1056e-06	1368	365.32	1.7797e-06	1.3783e-06	425.54	140.32	121.68	42.503	5.5708e-06	53.076	0.00032506	0.00035738	0.00010121	1225	3.5277e-06	3.9639e-06	1329.8	353.58	3.5647e-06	3.9827e-06	403.78	134.52	116.18	40.695	3.8442e-06	49.704	194.336	115.720	-14.909	-84.704	254.139	90.746	-84.521	-80.106	-63.227	14.840	-80.376	-76.369	-75.620	-70.902	-76.549	-71.627	-8191	255	
6734.043	1	1	0	0	0.080088	0.029452	0.05378	0.2374	0.053473	0.18545	0.13811	0.24453	0.19159	0.066624	0.1445	0.34544	0.042462	0.28939	0.27773	0.10785	-2.025	-2.8708	-2.5417	-2.5333	-2.9542	-2.6542	-2.8312	-3.0375	-2.5	-2.8104	-2.9208	-2.7604	-2.9854	-2.6833	-2.5438	-2.9208	39.336	-29.408	-46.942	-51.904	213.594	168.763	-80.542	-90.241	-97.333	44.123	95.314	236.865	202.274	-48.971	134.826	224.106	0.00025274	0.0010698	0.00028388	1373.6	1.9359e-06	5.9508e-06	1372.2	365.99	4.3778e-06	6.143e-06	426.71	140.46	121.62	42.565	3.3073e-06	52.902	0.00032682	0.00036751	9.7018e-05	1217.6	3.6094e-06	4.0495e-06	1327.8	353.38	3.6555e-06	4.0311e-06	402.89	134.39	116.69	40.767	3.7023e-06	49.571	203.465	-40.359	-83.554	-84.497	205.351	18.003	-84.619	-79.931	207.735	-76.990	-80.606	-76.339	-75.796	-71.085	48.226	-71.623	-8191	255	
6734.139	1	1	0	0	0.097716	0.051322	0.087619	0.14089	0.18557	0.04871	0.30311	0.19123	0.18578	0.1223	0.14657	0.088424	0.16379	0.18647	0.015337	0.12983	-2.2125	-2.6458	-2.7042	-2.475	-2.7583	-2.5667	-2.7188	-3.0417	-2.5833	-2.7479	-2.7646	-2.5104	-3.0458	-2.4479	-2.6521	-2.9292	206.444	-35.207	223.899	251.044	217.830	58.692	241.347	177.577	124.215	172.815	231.454	251.624	1.745	258.159	-24.276	255.695	0.00026968	0.00022967	1.2071e-05	1373.7	8.6156e-07	7.5752e-06	1364.5	366.97	5.8095e-06	3.7366e-06	423.64	140.68	121.8	42.588	3.5945e-06	53.045	0.00034299	0.00036571	9.4254e-05	1214.2	3.7848e-06	4.0205e-06	1323.3	353.04	3.8542e-06	3.9587e-06	400.86	134.06	117.45	40.577	3.6674e-06	49.548	190.065	256.578	1.497	-84.634	241.127	9.806	-84.357	-80.072	236.286	58.248	-80.549	-76.246	-75.771	-70.990	-5.866	-71.490	-8191	255	
6734.235	1	1	0	0	0.097849	0.069655	0.24173	0.27512	0.062889	0.1204	0.21803	0.26851	0.27365	0.060781	0.17197	0.13537	0.17535	0.24256	0.22206	0.094365	-2.3375	-2.5792	-2.8271	-2.3583	-2.7458	-2.7771	-2.6083	-3.0167	-2.3646	-2.7729	-2.9417	-2.4208	-2.9229	-2.7083	-2.5458	-3.0312	208.285	174.136	10.308	199.260	193.362	55.501	237.013	109.411	234.325	-2.730	210.310	-60.948	-97.706	-5.128	-22.331	239.540	0.00019326	0.00042126	6.1788e-05	1363.6	5.024e-06	4.2118e-06	1371.7	364.62	5.6798e-06	6.5539e-06	423.49	140.51	121.38	42.585	4.8071e-06	52.786	0.00036045	0.00035719	9.2616e-05	1212.4	3.9954e-06	3.9102e-06	1322.6	352.77	4.0336e-06	3.8385e-06	399.37	134.24	117.58	40.401	3.5238e-06	49.527	211.589	-67.902	-92.020	-84.628	113.518	-16.014	-84.489	-79.992	224.317	-5.205	-80.278	-76.018	-75.848	-71.017	-19.855	-71.574	-8191	255	
6734.355	1	1	0	0	0.066337	0.06857	0.13919	0.1619	0.23862	0.02314	0.40426	0.33721	0.093034	0.11443	0.1576	0.09276	0.17072	0.34785	0.019149	0.1706	-2.0021	-2.8167	-2.85	-2.3458	-2.825	-2.6562	-2.6958	-3.0062	-2.4479	-2.7875	-2.9333	-2.4583	-2.9542	-2.8104	-2.6646	-2.9146	3.368	97.947	11.121	-89.926	-17.735	208.524	204.852	217.748	139.558	255.404	261.200	-44.052	-60.080	213.431	-23.004	78.149	0.00017679	0.00033501	7.501e-05	1371.9	2.6482e-06	7.0047e-06	1367.7	365.76	3.2192e-06	3.4101e-06	425.59	140.05	121.08	42.361	3.0822e-06	52.839	0.00036687	0.00034154	8.8999e-05	1216.3	4.0203e-06	3.7387e-06	1320.1	354.02	4.0449e-06	3.72e-06	399.5	134.9	117.69	40.342	3.496e-06	49.959	218.141	-54.832	-95.617	-84.665	-48.938	23.672	-84.318	-80.136	240.028	-9.668	-80.690	-76.449	-75.584	-70.965	25.918	-71.651	-8191	255	
6734.452	1	1	0	0	0.29372	0.31893	0.17905	0.11678	0.12191	0.05646	0.19293	0.29132	0.36037	0.1623	0.16398	0.18144	0.020118	0.24224	0.14117	0.097551	-1.9771	-2.6562	-2.7521	-2.5146	-3.1229	-2.8104	-2.7271	-3.1542	-2.5646	-2.5938	-3.0479	-2.4688	-2.7917	-2.7438	-2.2354	-3.0146	258.120	27.852	23.418	137.703	186.631	147.067	184.604	185.776	105.483	-50.857	184.510	-60.541	-32.080	-31.276	-91.667	239.438	0.00018238	0.0005758	0.00015931	1361.9	4.649e-06	7.3028e-06	1367	366.58	2.3096e-06	7.0641e-06	424.43	140.32	121.85	42.354	2.0039e-06	52.892	0.00037004	0.00034109	8.8602e-05	1232.2	4.0099e-06	3.6931e-06	1320.3	356.29	3.9859e-06	3.6814e-06	398.75	135.94	117.52	40.22	3.4845e-06	50.275	231.666	-55.216	252.851	-84.714	63.770	-19.463	-84.604	-79.919	-95.584	-43.981	-80.278	-76.263	-75.658	-70.834	145.299	-71.658	-8191	255	
6734.523	1	1	0	0	0.11985	0.19033	0.13883	0.28664	0.088774	0.12784	0.17987	0.12206	0.30941	0.14846	0.33369	0.19057	0.21278	0.33435	0.16886	0.11631	-2.1854	-2.525	-2.775	-2.4667	-2.8417	-2.9833	-2.6562	-3.0271	-2.6813	-2.7354	-2.9688	-2.4458	-2.9375	-2.7354	-2.6771	-2.9271	69.726	126.587	-74.160	-61.356	242.853	6.678	204.741	106.870	74.459	171.569	-64.386	-91.969	-46.986	189.214	44.355	198.999	0.00016845	0.00088995	0.00012632	1371.2	3.0347e-06	6.3801e-06	1366.3	365.19	6.4848e-06	5.3691e-06	421.61	140.27	121.64	42.519	2.8988e-06	53.004	0.00035842	0.00033595	8.9092e-05	1245	3.8944e-06	3.643e-06	1321.3	356.58	3.857e-06	3.6004e-06	399.53	136.18	117.22	40.154	3.6104e-06	50.476	219.733	-35.253	-49.022	-84.648	2.068	33.725	-84.578	-79.930	13.577	45.714	-80.374	-76.104	-75.861	-71.052	206.089	-71.762	-8191	255	
6734.644	1	1	0	0	0.19498	0.24547	0.17255	0.14463	0.16464	0.24484	0.4619	0.15398	0.28279	0.21189	0.27656	0.22361	0.38415	0.33989	0.056357	0.18477	-2.4188	-2.6292	-2.9708	-2.5438	-2.6042	-3.0583	-2.5958	-3.1167	-2.7	-2.5312	-3.1042	-2.4917	-2.6104	-2.9833	-2.4146	-2.8792	77.664	-94.943	48.521	233.732	257.641	-77.189	227.569	231.142	85.314	221.532	180.158	161.588	243.543	-26.834	-85.247	232.061	0.00015766	0.00030206	8.7484e-05	1367.9	4.914e-06	8.5527e-06	1370.4	365.8	1.1631e-06	2.9943e-06	422.77	140.78	121.23	42.624	2.8661e-06	53.066	0.00034807	0.00032626	9.3231e-05	1247.1	3.7998e-06	3.5489e-06	1326.7	356.99	3.796e-06	3.55e-06	402.24	136.33	116.92	40.081	3.8338e-06	50.329	235.083	-65.843	23.265	-85.019	56.188	10.688	-84.597	-80.060	-96.000	138.496	-80.496	-76.225	-75.854	-70.987	181.397	-71.651	-8191	255	
6734.740	1	1	0	0	0.16436	0.39197	0.16731	0.2589	0.1276	0.20969	0.23599	0.065807	0.1035	0.24418	0.10681	0.18921	0.12363	0.21873	0.12035	0.19669	-2.1688	-2.3083	-2.9167	-2.5354	-2.7313	-3.0083	-2.7896	-2.7667	-2.7167	-2.65	-3.0229	-2.6646	-2.6271	-3.0563	-2.5104	-2.8896	-74.491	91.437	-56.955	151.663	31.089	134.584	164.053	229.874	163.820	93.171	239.939	165.600	-84.530	-49.792	261.091	142.682	0.00014194	0.00034082	1.4274e-05	1377.9	8.3382e-07	1.4454e-06	1366.9	365.94	4.7531e-06	6.1026e-06	424.59	140.57	121.83	42.45	1.9812e-06	52.793	0.00034315	0.00032232	9.8498e-05	1246.2	3.7446e-06	3.5084e-06	1329.6	356.25	3.7035e-06	3.5305e-06	404.43	135.81	116.69	40.095	4.0003e-06	50.197	226.892	-82.990	79.760	-84.741	79.913	52.253	-84.567	-79.948	79.274	-4.786	-80.536	-76.359	-75.706	-70.995	114.059	-71.651	-8191	255	
6734.836	1	1	0	0	0.19717	0.31088	0.19852	0.33239	0.13439	0.0073769	0.13939	0.14655	0.078361	0.087174	0.34053	0.12353	0.24682	0.16569	0.23829	0.029812	-2.3271	-2.4354	-2.6063	-2.65	-2.5563	-2.8125	-2.5729	-2.8812	-2.9083	-2.4333	-2.8	-2.825	-2.5604	-2.8333	-2.425	-2.8458	236.702	43.615	-77.205	-50.495	130.851	140.067	143.557	158.226	-69.751	246.611	199.846	49.595	-75.396	-69.191	40.773	33.217	0.00016305	0.00033041	8.6477e-05	1379.9	2.9818e-06	2.2346e-06	1371.1	366.38	5.4385e-07	4.433e-06	423.29	140.17	121.81	42.37	1.4236e-06	52.912	0.00033739	0.00032616	0.00010204	1235.7	3.669e-06	3.5948e-06	1332.3	355.45	3.6405e-06	3.6582e-06	405.53	135.37	116.42	40.209	4.0674e-06	49.931	213.818	76.667	135.363	-84.586	21.280	158.246	-84.535	-80.194	144.990	-18.816	-80.745	-76.366	-75.755	-70.906	51.912	-71.718	-8191	255	
6734.932	1	1	0	0	0.14099	0.2017	0.063689	0.12743	0.035799	0.088385	0.14671	0.21407	0.11567	0.23547	0.33528	0.18496	0.11394	0.23777	0.15497	0.033827	-2.3167	-2.4375	-2.8521	-2.4396	-2.4354	-2.8833	-2.6729	-2.8958	-2.7354	-2.6021	-2.6646	-2.6708	-2.5	-2.8583	-2.5521	-2.525	172.208	31.998	162.611	-50.360	221.376	33.582	229.485	230.774	245.320	16.726	209.858	240.801	-69.789	-44.104	222.663	163.366	0.00016952	0.00037979	6.9231e-05	1369.2	3.5757e-06	1.6741e-06	1365.2	366.43	9.9387e-07	5.5269e-06	424.27	140.61	121.59	42.542	6.916e-06	52.911	0.00032872	0.00034352	0.00010267	1228.1	3.5939e-06	3.7839e-06	1330.6	354.85	3.5747e-06	3.8828e-06	405.24	135.13	116.37	40.531	4.0064e-06	49.875	195.870	66.433	245.378	-84.782	12.459	122.640	-84.630	-79.847	-36.797	91.693	-80.559	-76.370	-75.751	-71.061	33.223	-71.592	-8191	255	
#DATA ENDS
