BOXY.EXE: ISS Imagent and Oximeter Data Acquisition Program Version 0.80
Ascii Record File

#ACQ INFORMATION
2  Detector Channels 
16  External MUX Channels 
1  Auxiliary Channels 
5000  Waveform (CCF) Frequency (Hz)
1  Waveforms Skipped 
30  Waveforms Averaged 
1  Cycles Averaged 
16  Acquisitions per Waveform 
10.0806  Updata Rate (Hz) 

#FILE INFORMATION
TRUE -- External MUX Channel results are PARSED.
FALSE -- AC DC and Phase are NOT grouped.
TRUE -- Companion Program Settings File CREATED.
FALSE -- AC data not excluded
FALSE -- DC data not excluded
FALSE -- Phase data not excluded
FALSE -- Auxillary Chn. data not excluded
Tab delimiters

#CALIBRATION STATE
TRUE -- Waveform Calibration Values APPLIED.


#AUX CALIBRATION VALUES
Val Type	aux-1	

Term	1.0000e+00	
Factor	0.0000e+00	


#WF CALIBRATION VALUES
A = Detector Channel
Val Type	A-AC1	A-AC2	A-AC3	A-AC4	A-AC5	A-AC6	A-AC7	A-AC8	A-AC9	A-AC10	A-AC11	A-AC12	A-AC13	A-AC14	A-AC15	A-AC16	A-DC1	A-DC2	A-DC3	A-DC4	A-DC5	A-DC6	A-DC7	A-DC8	A-DC9	A-DC10	A-DC11	A-DC12	A-DC13	A-DC14	A-DC15	A-DC16	A-Ph1	A-Ph2	A-Ph3	A-Ph4	A-Ph5	A-Ph6	A-Ph7	A-Ph8	A-Ph9	A-Ph10	A-Ph11	A-Ph12	A-Ph13	A-Ph14	A-Ph15	A-Ph16	

Term	0.00000e+00	0.00000e+00	0.00000e+00	0.00000e+00	0.00000e+00	0.00000e+00	0.00000e+00	0.00000e+00	0.00000e+00	0.00000e+00	0.00000e+00	0.00000e+00	0.00000e+00	0.00000e+00	0.00000e+00	0.00000e+00	0.00000e+00	0.00000e+00	0.00000e+00	0.00000e+00	0.00000e+00	0.00000e+00	0.00000e+00	0.00000e+00	0.00000e+00	0.00000e+00	0.00000e+00	0.00000e+00	0.00000e+00	0.00000e+00	0.00000e+00	0.00000e+00	0.00000e+00	0.00000e+00	0.00000e+00	0.00000e+00	0.00000e+00	0.00000e+00	0.00000e+00	0.00000e+00	0.00000e+00	0.00000e+00	0.00000e+00	0.00000e+00	0.00000e+00	0.00000e+00	0.00000e+00	0.00000e+00	
Factor	1.00000e+00	1.00000e+00	1.00000e+00	1.00000e+00	1.00000e+00	1.00000e+00	1.00000e+00	1.00000e+00	1.00000e+00	1.00000e+00	1.00000e+00	1.00000e+00	1.00000e+00	1.00000e+00	1.00000e+00	1.00000e+00	1.00000e+00	1.00000e+00	1.00000e+00	1.00000e+00	1.00000e+00	1.00000e+00	1.00000e+00	1.00000e+00	1.00000e+00	1.00000e+00	1.00000e+00	1.00000e+00	1.00000e+00	1.00000e+00	1.00000e+00	1.00000e+00	X	X	X	X	X	X	X	X	X	X	X	X	X	X	X	X	

B = Detector Channel
Val Type	B-AC1	B-AC2	B-AC3	B-AC4	B-AC5	B-AC6	B-AC7	B-AC8	B-AC9	B-AC10	B-AC11	B-AC12	B-AC13	B-AC14	B-AC15	B-AC16	B-DC1	B-DC2	B-DC3	B-DC4	B-DC5	B-DC6	B-DC7	B-DC8	B-DC9	B-DC10	B-DC11	B-DC12	B-DC13	B-DC14	B-DC15	B-DC16	B-Ph1	B-Ph2	B-Ph3	B-Ph4	B-Ph5	B-Ph6	B-Ph7	B-Ph8	B-Ph9	B-Ph10	B-Ph11	B-Ph12	B-Ph13	B-Ph14	B-Ph15	B-Ph16	

Term	0.00000e+00	0.00000e+00	0.00000e+00	0.00000e+00	0.00000e+00	0.00000e+00	0.00000e+00	0.00000e+00	0.00000e+00	0.00000e+00	0.00000e+00	0.00000e+00	0.00000e+00	0.00000e+00	0.00000e+00	0.00000e+00	0.00000e+00	0.00000e+00	0.00000e+00	0.00000e+00	0.00000e+00	0.00000e+00	0.00000e+00	0.00000e+00	0.00000e+00	0.00000e+00	0.00000e+00	0.00000e+00	0.00000e+00	0.00000e+00	0.00000e+00	0.00000e+00	-1.10335e+02	-1.62587e+02	-1.90705e+02	-1.85735e+02	-7.95890e+01	-9.80034e+01	-1.58876e+02	-1.62015e+02	-9.35963e+01	-1.16549e+02	-1.73504e+02	-1.69991e+02	-1.80150e+02	-1.77034e+02	-1.13923e+02	-1.49910e+02	
Factor	1.77319e-05	8.39323e-05	2.32807e-05	6.63806e-01	6.50858e-07	8.58057e-07	1.78611e-01	5.53004e-02	7.65979e-07	9.03384e-07	9.65138e-02	3.13854e-02	2.64622e-02	1.04344e-02	8.22500e-07	1.50170e-02	3.36373e-07	3.38385e-07	9.36488e-08	2.35456e-01	3.72523e-09	3.70374e-09	7.59690e-02	2.46404e-02	3.72491e-09	3.70198e-09	3.96877e-02	1.30564e-02	1.13969e-02	4.37442e-03	3.68760e-09	5.98844e-03	X	X	X	X	X	X	X	X	X	X	X	X	X	X	X	X	



#DISTANCE SETTINGS
A = Detector Channel
A-1	A-2	A-3	A-4	A-5	A-6	A-7	A-8	A-9	A-10	A-11	A-12	A-13	A-14	A-15	A-16	

2.5000e+00	3.0000e+00	2.5000e+00	3.0000e+00	2.0000e+00	3.0000e+00	1.5000e+00	3.0000e+00	3.0000e+00	3.0000e+00	3.0000e+00	3.0000e+00	3.0000e+00	3.0000e+00	1.5000e+00	3.0000e+00	

B = Detector Channel
B-1	B-2	B-3	B-4	B-5	B-6	B-7	B-8	B-9	B-10	B-11	B-12	B-13	B-14	B-15	B-16	

1.0000e+01	1.0000e+01	1.0000e+01	1.4400e+00	1.0000e+01	1.0000e+01	1.5100e+00	1.9400e+00	1.0000e+01	1.0000e+01	1.9900e+00	2.4900e+00	2.4100e+00	2.9000e+00	1.0000e+01	2.9800e+00	




#DATA BEGINS
time	group	step	mark	flag	A-AC1	A-AC2	A-AC3	A-AC4	A-AC5	A-AC6	A-AC7	A-AC8	A-AC9	A-AC10	A-AC11	A-AC12	A-AC13	A-AC14	A-AC15	A-AC16	A-DC1	A-DC2	A-DC3	A-DC4	A-DC5	A-DC6	A-DC7	A-DC8	A-DC9	A-DC10	A-DC11	A-DC12	A-DC13	A-DC14	A-DC15	A-DC16	A-Ph1	A-Ph2	A-Ph3	A-Ph4	A-Ph5	A-Ph6	A-Ph7	A-Ph8	A-Ph9	A-Ph10	A-Ph11	A-Ph12	A-Ph13	A-Ph14	A-Ph15	A-Ph16	B-AC1	B-AC2	B-AC3	B-AC4	B-AC5	B-AC6	B-AC7	B-AC8	B-AC9	B-AC10	B-AC11	B-AC12	B-AC13	B-AC14	B-AC15	B-AC16	B-DC1	B-DC2	B-DC3	B-DC4	B-DC5	B-DC6	B-DC7	B-DC8	B-DC9	B-DC10	B-DC11	B-DC12	B-DC13	B-DC14	B-DC15	B-DC16	B-Ph1	B-Ph2	B-Ph3	B-Ph4	B-Ph5	B-Ph6	B-Ph7	B-Ph8	B-Ph9	B-Ph10	B-Ph11	B-Ph12	B-Ph13	B-Ph14	B-Ph15	B-Ph16	aux-1	digaux	

7297.820	1	1	0	256	0.042909	0.093188	0.053047	0.16353	0.095151	0.09164	0.11596	0.18348	0.25479	0.15792	0.16408	0.29012	0.24177	0.097434	0.30125	0.075526	-2.0583	-2.8312	-2.225	-2.975	-2.3271	-2.5312	-2.9917	-2.6271	-2.5354	-2.6833	-2.5312	-2.9813	-2.5979	-2.4396	-2.8292	-2.5854	99.867	183.764	-89.644	238.122	62.040	-2.530	246.963	184.326	146.380	64.042	-63.631	221.893	30.957	-82.986	205.143	158.872	0.00011195	0.0002231	7.3411e-05	349.12	2.7941e-07	1.0128e-06	680.69	109.3	9.5728e-07	1.3872e-06	271.34	95.05	35.142	13.279	1.3184e-06	39.561	9.6112e-06	6.7599e-06	1.689e-06	220.2	7.4303e-08	6.8103e-08	547.72	86.917	7.7936e-08	6.8756e-08	204.39	73.03	27.148	9.9734	6.2659e-08	29.026	195.692	-2.513	256.331	-79.029	105.621	-41.784	-79.184	-73.289	8.638	22.254	-73.914	-69.517	-68.994	-62.644	8.030	-64.552	-8191	255	
7297.916	1	1	0	0	0.083093	0.12151	0.13818	0.11954	0.15534	0.21442	0.13814	0.10451	0.19997	0.31727	0.21442	0.30802	0.17212	0.16016	0.10267	0.27994	-2.2833	-2.5604	-2.4083	-2.6375	-2.7854	-2.5458	-3.0938	-2.4167	-2.675	-2.7375	-2.2854	-2.9875	-2.7417	-2.5062	-2.9708	-2.6083	-78.542	223.475	57.424	19.054	107.624	268.156	245.714	205.201	149.003	69.410	163.188	-85.845	228.179	-4.705	-9.930	225.229	0.00011361	9.9101e-05	5.7417e-05	343.98	6.6904e-07	2.0996e-06	672.84	108.98	1.1894e-06	8.2753e-07	270.99	95.299	35.324	13.164	1.5782e-06	38.984	9.5663e-06	6.0254e-06	1.6775e-06	218.21	7.1462e-08	6.8681e-08	542.75	86.425	7.4568e-08	6.4908e-08	203.33	72.661	27.186	9.8521	6.1145e-08	28.723	210.165	-28.532	-51.753	-79.607	47.590	4.326	-79.047	-72.871	52.590	11.816	-73.858	-69.346	-68.329	-62.408	31.804	-64.419	-8191	255	
7298.013	1	1	0	0	0.089903	0.13694	0.20073	0.14434	0.10974	0.21507	0.031657	0.099653	0.11685	0.14851	0.12084	0.23913	0.069882	0.058369	0.1546	0.052541	-2.2646	-2.8542	-2.2771	-2.7854	-2.3875	-2.3625	-2.9	-2.2917	-2.6396	-2.8438	-2.5667	-2.9729	-2.85	-2.4917	-2.9229	-2.5833	90.892	57.225	69.329	166.441	116.840	-0.034	140.793	170.049	-2.537	109.568	188.023	33.684	62.901	268.558	103.559	256.501	0.00010114	9.8208e-05	3.8363e-05	334.93	1.6699e-06	9.1448e-07	675.96	109.11	1.2327e-06	1.5729e-06	271.06	94.842	35.946	13.189	1.8463e-06	39.434	9.3119e-06	5.5453e-06	1.5417e-06	216.72	7.0904e-08	6.6984e-08	542.79	86.666	7.0959e-08	6.3389e-08	204.64	72.86	27.292	9.9398	6.5332e-08	28.905	190.522	-54.393	-75.587	-78.921	29.868	14.388	-78.962	-73.298	55.085	60.709	-73.940	-69.182	-68.412	-62.540	13.094	-64.350	-8191	255	
7298.133	1	1	0	0	0.13613	0.11918	0.045327	0.23966	0.17845	0.11909	0.13825	0.17305	0.22891	0.12373	0.21772	0.46945	0.069748	0.21277	0.214	0.3388	-1.9667	-2.7375	-2.2313	-2.3438	-2.7854	-2.5104	-2.9208	-2.5667	-2.5417	-3.0062	-2.3271	-2.4333	-2.7042	-2.3146	-2.8958	-2.7375	52.531	-29.553	-50.038	56.301	158.699	134.171	234.392	216.495	30.841	-22.006	144.707	-80.099	23.802	257.325	127.864	217.528	8.275e-05	3.3876e-05	1.9644e-05	336.64	9.3239e-07	2.3475e-06	676.16	109.08	7.0057e-07	1.9551e-06	273	96.627	36.058	13.617	1.6821e-06	40.287	8.8144e-06	5.3253e-06	1.729e-06	218.23	6.9445e-08	6.3481e-08	544.95	87.11	7.2108e-08	6.3265e-08	206.33	73.769	27.814	10.125	6.998e-08	29.425	206.978	117.781	118.664	-79.474	64.224	27.791	-78.983	-73.697	36.739	13.190	-73.569	-69.312	-68.668	-62.482	7.892	-64.315	-8191	255	
7298.205	1	1	0	0	0.13309	0.16689	0.092256	0.1246	0.13041	0.17855	0.077235	0.014511	0.28135	0.28328	0.12412	0.2318	0.088556	0.37719	0.090956	0.12142	-2.075	-2.8208	-2.2646	-2.7083	-2.7521	-2.5667	-2.9896	-2.55	-2.2958	-2.6521	-2.5438	-2.825	-3.1375	-2.3229	-2.9146	-2.8729	249.166	60.894	63.868	-28.606	249.538	-17.936	98.782	231.283	-26.688	6.121	22.795	210.301	193.385	268.238	90.682	-36.582	9.421e-05	8.037e-05	3.8037e-05	342.04	6.3788e-07	1.7251e-06	682.74	109.2	1.1601e-06	1.9549e-06	273.14	94.522	35.524	13.491	1.4013e-06	39.449	8.7702e-06	5.6292e-06	1.8687e-06	215.87	6.1389e-08	6.1744e-08	547.17	87.22	6.5263e-08	6.1152e-08	205.82	73.024	27.417	10.027	7.0018e-08	28.993	201.086	-42.717	-21.224	-78.546	60.938	54.018	-78.893	-73.240	28.592	0.502	-73.843	-69.568	-68.947	-62.682	14.139	-64.320	-8191	255	
7298.301	1	1	0	0	0.13776	0.19157	0.13114	0.21576	0.2826	0.12711	0.2364	0.17476	0.25244	0.14684	0.23066	0.085729	0.18499	0.14657	0.25745	0.13552	-2.0604	-2.8417	-2.6021	-2.6042	-2.9521	-2.5333	-2.7646	-2.6	-2.3688	-2.875	-2.7104	-2.7792	-2.9625	-2.35	-2.7062	-2.8167	-86.529	176.771	164.000	-47.278	218.008	-64.418	153.321	110.570	251.078	151.486	182.482	-13.351	201.962	239.502	-70.012	174.103	8.7518e-05	0.00012087	2.2235e-05	338.75	1.0117e-06	1.37e-06	673.46	107.6	1.5208e-06	2.2865e-06	270.8	95.648	35.469	13.143	5.7899e-07	39.058	8.6637e-06	5.405e-06	1.8394e-06	216.51	6.0318e-08	6.0757e-08	542.81	86.081	6.7739e-08	6.379e-08	204.71	72.602	27.308	9.9024	7.3898e-08	28.658	195.919	-14.757	-66.423	-80.335	-0.478	41.158	-78.968	-73.517	13.121	14.738	-74.286	-69.704	-68.471	-62.794	-32.801	-64.863	-8191	255	
7298.397	1	1	0	0	0.23213	0.26519	0.10671	0.26124	0.29187	0.25346	0.26313	0.098092	0.20381	0.21798	0.024801	0.05046	0.062967	0.20138	0.16583	0.12405	-1.8188	-2.8104	-2.625	-2.6479	-2.975	-2.4354	-2.7	-2.7062	-2.3271	-2.6896	-2.6875	-2.5312	-2.7083	-2.4979	-2.8021	-2.9271	98.045	231.252	69.979	-3.351	-75.237	40.438	244.523	75.587	177.308	10.425	-74.934	191.985	119.698	50.002	251.062	258.220	0.00010851	0.00012346	4.5552e-05	330.26	1.1256e-06	1.8401e-06	673.86	108.86	1.0228e-06	6.8902e-07	271.38	95.231	35.703	13.475	1.5778e-06	39.293	8.759e-06	6.1903e-06	1.7393e-06	214.48	6.1156e-08	6.9823e-08	543.21	87.006	7.0874e-08	6.7692e-08	205.34	73.015	27.555	10.077	7.0041e-08	29.021	191.585	33.097	247.932	-79.721	68.533	-5.757	-78.774	-73.177	83.726	-43.577	-73.867	-69.015	-68.764	-63.102	-27.011	-64.505	-8191	255	
7298.518	1	1	0	0	0.27796	0.15197	0.18048	0.28217	0.16014	0.13176	0.049196	0.030102	0.11534	0.18249	0.15333	0.31566	0.15074	0.11415	0.12495	0.14065	-1.9646	-2.8688	-2.7896	-2.4125	-3.0646	-2.7229	-2.5938	-2.975	-2.4208	-2.8375	-2.8438	-2.4917	-2.7875	-2.7188	-2.5458	-2.9729	-57.451	37.374	220.530	236.566	257.033	182.457	41.552	78.650	121.736	-14.302	240.611	263.901	-84.308	62.076	93.534	208.233	8.9302e-05	0.00022796	2.1744e-05	333.17	1.4661e-06	1.865e-06	678.63	109.24	6.5642e-07	2.0737e-06	275.53	96.478	36.049	13.349	1.3152e-06	39.813	8.7156e-06	6.5844e-06	1.6242e-06	215.78	6.2095e-08	7.2941e-08	546.75	87.2	6.8756e-08	7.5312e-08	207.5	73.826	27.856	10.106	6.9035e-08	29.238	215.770	-34.680	-34.520	-79.803	59.833	8.016	-79.075	-73.441	-38.531	21.279	-74.097	-69.251	-69.001	-62.473	13.631	-64.291	-8191	255	
7298.614	1	1	0	0	0.16238	0.15387	0.21315	0.15903	0.099466	0.20881	0.11043	0.11821	0.15892	0.070039	0.13548	0.11753	0.167	0.26866	0.35928	0.12635	-2.1229	-2.7875	-2.9042	-2.3396	-2.6958	-2.4521	-2.3312	-2.8917	-2.4875	-2.6063	-2.8896	-2.4583	-2.9875	-2.525	-2.4375	-2.9083	-51.423	88.247	244.949	248.474	256.877	208.411	206.759	40.523	-1.207	167.912	4.938	66.506	-76.639	144.582	210.315	255.921	0.00010501	7.6959e-05	6.1114e-05	340.41	6.4542e-07	1.2201e-06	680.37	109.26	8.8813e-07	2.0984e-06	275.55	96.175	35.873	13.324	1.1497e-06	39.212	8.8999e-06	6.6493e-06	1.7073e-06	216.19	6.2103e-08	7.0942e-08	545.34	87.13	7.0843e-08	6.925e-08	207.71	73.604	27.831	10.022	6.6446e-08	28.857	196.191	8.888	265.058	-79.716	29.694	21.083	-78.526	-73.017	78.578	3.646	-74.036	-69.657	-69.537	-62.765	-18.126	-64.441	-8191	255	
7298.710	1	1	0	0	0.043844	0.13974	0.1365	0.14708	0.094303	0.10647	0.092217	0.11473	0.28923	0.099517	0.28112	0.080761	0.21144	0.27008	0.12558	0.13196	-2.0208	-2.4667	-2.7104	-2.4146	-2.9417	-2.5083	-2.5125	-2.9667	-2.3229	-2.7979	-3.0458	-2.4146	-2.7167	-2.6125	-2.6063	-3.0604	8.734	117.792	135.247	22.855	236.906	214.290	203.224	204.001	107.749	79.848	-85.359	180.674	-15.447	261.738	98.877	-11.285	0.00011161	0.00016791	3.36e-05	338.84	2.0255e-06	1.9903e-06	678.07	109.95	9.8196e-07	2.035e-06	271.9	94.696	35.747	13.223	1.4781e-06	38.83	8.9195e-06	6.7028e-06	1.6792e-06	215.83	7.2013e-08	6.9013e-08	544.57	87.102	7.4467e-08	6.5463e-08	204.53	72.682	27.436	9.9012	6.3235e-08	28.693	207.648	-36.381	-60.045	-80.512	37.539	-9.605	-78.688	-72.823	-2.062	37.603	-73.964	-69.738	-69.198	-62.880	-6.454	-64.942	-8191	255	
7298.806	1	1	0	0	0.17554	0.31675	0.075039	0.15549	0.10835	0.26405	0.078929	0.36844	0.17475	0.2477	0.26579	0.25835	0.13803	0.11018	0.34316	0.20047	-2.2521	-2.5708	-2.9583	-2.3	-2.6792	-2.5	-2.2313	-2.8625	-2.6042	-2.5312	-2.9188	-2.4083	-2.7625	-2.8333	-2.2562	-2.8812	175.191	108.984	33.696	115.868	-37.401	-27.659	205.031	239.796	240.895	182.303	103.970	185.294	69.140	7.098	-34.297	-54.411	0.00010301	0.0001572	3.367e-05	335.07	1.1784e-06	1.5734e-06	676.28	110.13	8.5702e-07	2.0582e-06	271.03	95.33	35.203	13.255	2.0658e-06	39.385	9.0442e-06	6.6006e-06	1.5825e-06	215.66	7.452e-08	6.5348e-08	544.42	87.081	7.8758e-08	6.9026e-08	205.06	73.053	27.453	9.9416	6.6162e-08	28.875	202.303	15.578	-77.316	-80.292	54.533	26.301	-78.996	-73.370	9.790	56.286	-73.966	-69.079	-68.510	-62.429	61.325	-64.886	-8191	255	
7298.901	1	1	0	0	0.039761	0.28937	0.10267	0.19165	0.061047	0.41767	0.13343	0.19943	0.33144	0.16331	0.13454	0.22325	0.10257	0.12712	0.10847	0.054004	-2.1896	-2.2	-2.7188	-2.1729	-2.5854	-2.825	-2.6458	-2.8187	-2.6437	-2.65	-2.9208	-2.4625	-2.6292	-2.5833	-2.1708	-2.625	189.698	106.560	21.718	-70.205	265.386	162.958	227.833	64.999	261.826	-64.893	147.675	174.874	245.409	141.884	123.640	262.024	9.9441e-05	0.00015763	1.6612e-05	334.04	1.4502e-06	1.1442e-06	680.36	109.7	1.1415e-06	2.0714e-06	276.62	96.586	36.076	13.562	1.7483e-06	39.937	9.3974e-06	6.0775e-06	1.5392e-06	215.15	6.9631e-08	6.2879e-08	545.85	87.147	7.6423e-08	6.3234e-08	206.93	73.653	27.741	10.109	6.7737e-08	29.276	201.482	-53.557	-12.546	-78.362	47.721	12.527	-78.877	-73.266	8.074	-6.357	-74.010	-69.462	-67.453	-62.902	0.017	-64.569	-8191	255	
7298.997	1	1	0	0	0.058595	0.01037	0.16762	0.20912	0.064915	0.24824	0.34576	0.13587	0.21373	0.17072	0.11297	0.15401	0.045047	0.018923	0.18671	0.23873	-2.1458	-2.5292	-2.5896	-2.5	-2.725	-2.6646	-2.7313	-2.8688	-2.7604	-2.4167	-2.9146	-2.5167	-2.4813	-2.6562	-2.3833	-2.7542	-54.082	-76.153	164.645	22.907	196.328	96.896	-89.555	97.333	136.624	-77.433	239.382	260.452	223.954	38.783	-60.241	266.487	0.00011069	0.0001363	3.4532e-05	338.71	8.223e-07	1.0029e-06	680.82	108.9	5.0023e-07	1.0116e-06	273.72	96.337	35.971	13.42	7.0019e-07	39.918	9.3203e-06	6.0148e-06	1.6482e-06	217.35	6.849e-08	6.0834e-08	547.43	87.572	6.8313e-08	6.79e-08	207.1	73.845	27.844	10.092	6.945e-08	29.207	200.844	-52.659	255.952	-79.346	34.691	26.248	-78.787	-73.137	24.576	-13.327	-73.970	-69.616	-68.436	-63.504	-50.673	-64.553	-8191	255	
7299.117	1	1	0	0	0.20454	0.023081	0.032648	0.12445	0.19637	0.069449	0.22328	0.012176	0.22678	0.20805	0.22434	0.2626	0.164	0.086147	0.15802	0.14723	-2.3021	-2.3146	-2.8333	-2.3937	-2.5854	-2.8875	-2.5312	-2.6604	-2.7021	-2.4667	-3.075	-2.7979	-2.2792	-2.9854	-2.6792	-2.875	-66.329	130.220	96.162	108.963	-29.082	165.512	131.594	239.825	147.960	-25.434	89.003	79.193	174.800	-24.222	-87.439	47.784	9.6358e-05	0.00013446	4.0398e-05	340.7	1.8359e-06	5.7057e-07	675.33	108.77	1.2295e-06	1.3462e-06	272.1	95.325	35.993	13.051	1.7552e-06	39.084	8.8403e-06	5.6806e-06	1.665e-06	216.43	6.7923e-08	5.8689e-08	543.88	86.752	6.9283e-08	6.2386e-08	205.41	72.679	27.59	9.8876	7.1224e-08	28.759	202.407	-37.440	-31.886	-79.339	51.460	20.242	-78.844	-72.930	25.406	2.337	-73.856	-69.760	-68.477	-63.126	6.694	-64.329	-8191	255	
7299.214	1	1	0	0	0.14654	0.13154	0.057696	0.16156	0.07675	0.14281	0.24312	0.29864	0.24126	0.28556	0.15947	0.1311	0.13576	0.062195	0.21785	0.30625	-2.3354	-2.45	-2.9313	-2.6188	-2.3833	-2.9646	-2.6333	-2.8604	-2.8958	-2.325	-2.9958	-2.7812	-2.5792	-2.9292	-2.5646	-2.6958	-86.937	257.794	-6.370	188.331	101.033	74.130	172.699	228.241	-66.497	110.773	195.512	265.739	-39.341	202.438	110.209	181.240	8.9834e-05	8.3689e-05	4.1907e-05	335.46	7.4008e-07	1.5748e-06	673.65	107.84	1.4766e-06	1.9966e-06	273.53	94.624	35.526	13.269	1.938e-06	38.954	8.8669e-06	5.7081e-06	1.7483e-06	214.75	6.2972e-08	5.838e-08	543.2	86.157	6.5659e-08	6.3535e-08	204.96	72.435	27.425	9.8894	7.2354e-08	28.732	201.391	-14.377	-76.284	-79.542	45.655	8.638	-78.916	-73.245	-17.728	25.931	-73.989	-69.584	-68.415	-62.735	49.088	-64.570	-8191	255	
7299.310	1	1	0	0	0.063566	0.14034	0.12114	0.26383	0.31237	0.047966	0.22373	0.12052	0.33153	0.10416	0.23548	0.017235	0.1132	0.080162	0.15025	0.19048	-2.3396	-2.2833	-2.6167	-2.6625	-2.3438	-3.075	-2.6854	-2.5167	-2.9	-2.4021	-2.6542	-2.7167	-2.3333	-2.9667	-2.6104	-2.6208	263.449	242.257	142.735	248.720	94.764	198.375	-41.061	-26.008	61.381	153.813	161.464	-87.658	199.723	156.859	195.742	84.502	0.0001008	0.00011076	2.6301e-05	335.14	7.2802e-07	1.9918e-06	674.69	108.06	6.1806e-07	9.6593e-07	271.38	95.878	35.542	13.15	6.4389e-07	39.808	8.5348e-06	6.1142e-06	1.7577e-06	215.31	6.409e-08	6.3959e-08	543.4	86.45	6.2066e-08	6.6666e-08	204.93	73.307	27.527	9.9111	7.472e-08	29.142	195.949	-14.216	-44.967	-79.773	45.762	12.208	-79.032	-73.464	156.714	108.965	-74.319	-69.872	-69.180	-62.749	84.485	-64.450	-8191	255	
7299.430	1	1	0	0	0.13179	0.199	0.10402	0.040797	0.041988	0.19062	0.12466	0.2821	0.094228	0.15802	0.19014	0.060437	0.13028	0.16113	0.098192	0.080642	-2.4729	-2.1854	-2.5396	-2.7917	-2.4938	-2.8583	-2.6542	-2.575	-2.8042	-2.3896	-2.6021	-2.675	-2.225	-2.6396	-2.6708	-2.4229	220.804	-23.964	150.072	146.700	84.559	-32.550	186.922	222.049	50.016	232.179	182.076	204.940	23.230	56.998	54.836	218.617	6.7468e-05	0.00016037	3.564e-05	334.04	1.1899e-06	1.6212e-06	683.34	110.29	1.8404e-06	1.1129e-06	274.78	96.478	36.4	13.333	1.7093e-06	40.139	8.4794e-06	6.6006e-06	1.8367e-06	215.62	6.3942e-08	6.7948e-08	547	87.575	6.7374e-08	7.3831e-08	207.29	73.884	27.977	10.073	7.2799e-08	29.286	206.787	-68.767	-87.492	-80.033	51.101	-6.479	-79.296	-72.866	4.318	-23.945	-73.636	-69.282	-68.726	-62.285	-4.382	-64.625	-8191	255	
7299.502	1	1	0	0	0.20435	0.074779	0.14294	0.25828	0.082342	0.15434	0.092939	0.20631	0.12149	0.097491	0.31411	0.14225	0.069325	0.07984	0.13763	0.12172	-2.3937	-2.5062	-2.5833	-2.7396	-2.1125	-2.5542	-2.5646	-2.5687	-2.8542	-2.4313	-2.6458	-2.7625	-2.2167	-2.6375	-2.5708	-2.3583	97.275	258.701	223.449	98.406	179.363	-34.798	175.210	102.177	230.516	167.171	7.978	-81.315	144.055	202.740	79.964	105.899	8.0622e-05	0.00014703	3.3487e-05	335.93	1.2385e-06	1.8313e-06	680.26	110.09	1.0209e-06	7.3063e-07	271.56	94.965	36.139	13.168	1.5166e-06	39.045	8.4976e-06	6.6697e-06	1.8433e-06	214.96	6.3383e-08	6.8974e-08	543.68	87.249	6.4371e-08	7.252e-08	205.41	72.874	27.677	9.9096	6.9811e-08	28.714	193.816	-70.152	-66.348	-79.107	45.980	63.223	-78.757	-72.640	15.826	-27.352	-74.047	-70.073	-68.606	-63.138	21.697	-64.731	-8191	255	
7299.598	1	1	0	0	0.20563	0.20428	0.15505	0.24453	0.017145	0.045275	0.23583	0.08007	0.23601	0.075658	0.21504	0.083916	0.10859	0.039473	0.15777	0.0814	-2.4625	-2.3958	-2.675	-2.9646	-2.3708	-2.8458	-2.775	-2.2146	-2.8167	-2.3937	-2.4188	-2.6708	-2.2062	-2.4979	-2.575	-2.2354	255.158	76.208	223.520	-0.732	7.521	-77.390	238.107	-65.531	219.134	-65.013	246.608	44.996	205.948	1.179	-70.007	-73.635	0.00010612	9.8502e-05	6.8342e-05	335.09	8.0328e-07	1.6134e-06	675.47	108.94	1.6305e-06	1.8118e-06	271.16	94.271	35.67	13.307	2.0143e-06	39.129	8.1563e-06	6.8424e-06	1.6867e-06	214.41	6.8894e-08	6.9769e-08	541.74	86.792	7.068e-08	7.0615e-08	204.78	72.751	27.604	9.9868	6.5824e-08	28.581	200.612	-22.985	-57.001	-78.932	70.289	72.470	-78.992	-73.347	35.582	-4.324	-73.966	-69.714	-68.574	-62.471	-5.220	-64.769	-8191	255	
7299.694	1	1	0	0	0.14595	0.034959	0.053476	0.1702	0.30781	0.084233	0.10935	0.13228	0.053708	0.056453	0.017533	0.23176	0.24217	0.30964	0.038116	0.039537	-2.1458	-2.3979	-2.4188	-2.7271	-2.3896	-2.6667	-2.5917	-2.4104	-2.7625	-2.8	-2.5042	-2.8917	-2.3083	-2.5062	-2.6667	-2.3958	65.686	108.941	127.592	252.030	41.320	165.617	240.925	154.940	-7.636	200.174	133.837	182.763	81.003	49.078	47.694	52.256	6.878e-05	0.00018214	6.8021e-05	332.32	7.7036e-07	1.8766e-07	679.79	110.04	1.6823e-07	4.1209e-07	273.66	95.615	35.677	13.36	1.215e-06	39.415	9.0043e-06	6.4392e-06	1.6504e-06	212.96	7.0275e-08	7.1791e-08	544.39	87.389	7.6818e-08	7.0384e-08	206.55	73.155	27.809	10.037	6.3419e-08	28.931	204.163	-27.826	-78.908	-79.160	92.091	8.897	-78.935	-73.720	126.641	100.786	-73.786	-69.134	-68.961	-63.326	24.643	-64.528	-8191	255	
7299.813	1	1	0	0	0.17417	0.21754	0.09124	0.359	0.12602	0.17229	0.11353	0.15615	0.23525	0.22986	0.15563	0.17908	0.21387	0.047186	0.11251	0.16592	-2.3146	-2.6167	-2.4917	-2.8333	-2.3417	-2.4562	-2.6937	-2.2896	-2.6083	-2.5771	-2.4292	-2.7833	-2.5062	-2.5438	-2.8125	-2.4292	16.446	-90.743	144.439	252.346	65.471	260.390	258.696	254.911	-62.252	58.970	169.935	-57.087	-21.283	256.520	-59.869	-53.784	8.4331e-05	8.5646e-05	3.6673e-05	338.58	1.4055e-06	1.1829e-06	683.37	109.89	7.8341e-07	1.3835e-06	276.14	96.712	36.649	13.358	8.5553e-07	39.845	8.9917e-06	6.3722e-06	1.6307e-06	215.56	7.0842e-08	7.0911e-08	545.94	87.438	7.7439e-08	6.6628e-08	207.37	73.921	28.118	10.091	6.2973e-08	29.13	196.759	-15.215	-73.243	-79.083	41.174	36.439	-79.042	-73.226	36.446	12.904	-74.027	-69.464	-68.464	-62.256	15.950	-63.451	-8191	255	
7299.909	1	1	0	0	0.20685	0.11361	0.065633	0.26945	0.088473	0.059014	0.23405	0.18091	0.33348	0.026616	0.12032	0.16876	0.14536	0.055074	0.043891	0.25125	-2.2938	-2.7479	-2.2729	-2.7479	-2.6521	-2.45	-2.8771	-2.5563	-2.6917	-2.9479	-2.4125	-2.7542	-2.5521	-2.5396	-2.8208	-2.4417	179.226	-81.093	209.775	109.452	-80.994	120.926	239.566	-50.713	245.508	172.564	236.910	41.359	45.735	131.017	58.881	29.955	0.00011004	0.00018957	3.7821e-05	336.64	1.1032e-06	1.157e-06	682.53	110.01	7.3918e-07	8.9247e-07	277.24	95.771	35.708	13.334	1.2111e-06	39.353	9.5649e-06	5.7384e-06	1.6262e-06	217.38	7.4311e-08	6.5039e-08	546.17	87.873	7.2139e-08	6.5764e-08	207.68	73.348	27.853	10.042	5.8241e-08	28.835	218.466	-27.822	-77.840	-78.942	49.746	16.197	-78.915	-73.249	21.401	-6.776	-73.391	-69.541	-68.760	-63.060	-12.304	-64.612	-8191	255	
7300.006	1	1	0	0	0.15692	0.12063	0.095025	0.19768	0.1563	0.11198	0.10593	0.18653	0.052852	0.32213	0.24488	0.088047	0.082422	0.22679	0.22634	0.083566	-2.3792	-2.8	-2.4146	-2.7062	-2.4854	-2.1063	-2.8396	-2.2646	-2.3229	-2.8542	-2.3417	-2.5917	-2.7396	-2.5208	-2.8688	-2.6354	249.712	243.311	208.669	64.112	56.359	-48.436	143.763	49.739	181.564	-38.091	257.874	240.961	211.732	238.420	73.359	219.807	7.84e-05	0.00031017	2.8201e-05	333.26	1.652e-06	1.5055e-06	677.06	110.22	6.4625e-07	1.6932e-06	273.16	95.177	36.085	13.274	1.1759e-06	38.789	9.3259e-06	5.9746e-06	1.5731e-06	214.98	6.856e-08	6.7447e-08	544.02	87.349	7.2907e-08	6.3443e-08	204.99	72.955	27.759	9.9706	6.4287e-08	28.506	198.826	-37.623	-48.202	-79.115	35.917	28.160	-78.925	-73.222	-35.478	3.542	-74.156	-69.140	-68.403	-62.781	-7.591	-64.679	-8191	255	
7300.077	1	1	0	0	0.16842	0.27183	0.088289	0.15497	0.075961	0.030507	0.22225	0.23765	0.14144	0.14376	0.048791	0.074624	0.21488	0.11069	0.20476	0.019146	-2.2896	-2.9938	-2.5396	-2.6646	-2.8625	-2.3896	-2.925	-2.6458	-2.6042	-2.9042	-2.6833	-2.9417	-2.9417	-2.5375	-2.9625	-2.7292	268.065	-2.179	-42.165	54.689	31.313	115.899	63.153	92.367	127.978	106.990	253.513	171.370	-57.543	120.519	70.637	41.547	9.9262e-05	0.00017026	6.9254e-05	337.54	2.6115e-07	1.4372e-06	676.37	109.14	3.4875e-07	1.7162e-06	274.51	95.131	36.255	13.316	8.2976e-07	38.968	8.8417e-06	5.7335e-06	1.6966e-06	216.56	6.5743e-08	5.9607e-08	543.75	87.014	6.9896e-08	6.0959e-08	206.02	73.06	27.775	10.001	6.9312e-08	28.696	202.885	-59.788	-88.190	-79.309	129.248	30.526	-79.029	-73.038	249.768	54.948	-74.134	-69.803	-68.786	-62.763	-5.245	-64.662	-8191	255	
7300.198	1	1	0	0	0.2505	0.21321	0.1291	0.3036	0.14637	0.12174	0.20044	0.14973	0.17101	0.12647	0.12504	0.095201	0.0092857	0.17538	0.19756	0.082544	-1.7667	-2.7229	-2.1917	-2.4062	-2.8521	-2.3396	-2.8104	-2.6875	-2.625	-2.8583	-2.7042	-2.9146	-2.8521	-2.4083	-2.5354	-2.5771	-12.442	9.783	172.291	54.848	252.185	183.359	247.646	200.800	-90.363	127.780	229.772	98.199	72.677	36.522	223.275	219.377	0.00010337	0.00010478	3.619e-05	338.01	1.7579e-06	1.2241e-06	673.98	109.83	1.2109e-06	1.2913e-06	273.49	95.929	36.642	13.302	1.6695e-06	39.36	8.9608e-06	5.1399e-06	1.7151e-06	216.19	6.6581e-08	6.3581e-08	544.34	87.27	6.9857e-08	6.0813e-08	206.59	73.479	27.975	10.002	7.1708e-08	28.941	197.867	-51.948	-59.327	-78.249	34.900	25.094	-78.929	-73.525	-12.625	3.954	-73.645	-69.661	-68.353	-62.309	35.549	-64.273	-8191	255	
7300.294	1	1	0	0	0.18452	0.21702	0.059719	0.14336	0.070417	0.10911	0.18952	0.09839	0.099615	0.28268	0.16393	0.34366	0.1762	0.28891	0.23499	0.27283	-1.9917	-2.6771	-2.4437	-2.5229	-2.9938	-2.3917	-3	-2.6562	-2.6188	-2.7833	-2.4167	-2.5062	-2.7438	-2.4021	-2.7792	-2.7354	28.786	7.867	94.022	254.004	124.589	113.046	-58.987	54.450	141.281	214.183	212.661	213.679	-35.045	-30.395	253.505	260.606	9.8964e-05	8.5272e-05	4.7978e-05	338.07	9.2322e-07	1.4522e-06	680.75	109.85	1.2421e-06	5.9484e-07	273.04	96.084	36.295	13.422	1.7639e-06	39.213	8.6308e-06	5.3267e-06	1.7631e-06	216.27	5.8183e-08	6.3504e-08	547.39	87.71	6.5318e-08	6.5618e-08	207.46	73.644	27.873	10.03	7.6295e-08	28.774	206.571	-19.380	-45.712	-80.316	78.860	-6.653	-78.956	-72.973	70.178	79.357	-73.843	-69.526	-69.187	-62.747	29.196	-64.791	-8191	255	
7300.390	1	1	0	0	0.097043	0.32356	0.1403	0.18852	0.11593	0.098614	0.022235	0.17114	0.023659	0.1078	0.27195	0.31083	0.15593	0.21096	0.22433	0.08917	-1.9438	-2.7542	-2.3729	-2.2479	-2.9104	-2.6	-2.8708	-2.7604	-2.5187	-2.7479	-2.5667	-2.4708	-2.8771	-2.5458	-2.5979	-2.9354	-45.777	136.064	-70.397	-38.465	76.871	150.785	96.786	-24.655	154.778	143.863	233.345	189.245	176.559	-88.083	15.322	-75.405	7.1792e-05	0.00026835	5.5113e-05	337.07	1.1352e-06	2.1765e-06	670.71	110.01	4.5449e-07	8.4269e-07	272.79	95.597	36.006	13.091	9.7397e-07	38.766	8.6399e-06	6.2213e-06	1.8476e-06	215.41	6.0939e-08	6.9885e-08	541.78	87.042	6.6901e-08	6.7754e-08	204.59	72.76	27.633	9.9013	6.7306e-08	28.347	203.867	-64.233	-51.558	-80.342	50.291	25.234	-78.834	-72.774	146.862	-7.984	-73.765	-69.656	-67.688	-62.586	-25.007	-64.331	-8191	255	
7300.511	1	1	0	0	0.21201	0.18208	0.23233	0.15324	0.094278	0.14567	0.18059	0.16139	0.32282	0.17051	0.47943	0.25028	0.20943	0.11332	0.10574	0.27522	-2.0917	-2.7792	-2.6	-2.5	-2.9896	-2.3042	-2.7083	-2.7021	-2.2604	-2.65	-2.6333	-2.3729	-2.6208	-2.4938	-2.5229	-2.9417	17.672	244.742	80.222	90.254	261.113	63.568	202.104	234.260	90.910	208.145	154.883	236.721	207.716	122.150	90.116	207.039	8.1888e-05	0.0001646	3.2127e-05	327.34	6.5655e-07	1.1154e-06	674.16	110.27	1.6513e-06	1.6755e-06	269.69	94.479	35.786	13.106	7.3287e-07	38.911	8.4079e-06	6.3285e-06	1.6933e-06	213.5	6.1094e-08	7.3481e-08	541.68	87.016	7.0657e-08	7.168e-08	203.43	72.612	27.589	9.9051	7.3306e-08	28.443	200.752	-79.034	2.958	-78.568	24.587	43.393	-79.144	-73.271	-33.159	-7.428	-73.915	-69.906	-68.581	-62.968	-25.478	-65.030	-8191	255	
7300.607	1	1	0	0	0.086762	0.13803	0.2074	0.20207	0.091562	0.083171	0.17731	0.09565	0.25463	0.13322	0.049721	0.37505	0.10424	0.13896	0.062045	0.18087	-1.95	-2.6604	-2.5646	-2.2396	-2.7896	-2.5208	-2.4333	-2.8812	-2.4562	-2.8125	-2.7938	-2.5292	-2.8354	-2.5125	-2.4083	-2.9375	89.682	-84.450	94.868	-37.988	30.234	23.006	200.379	237.856	-52.405	-88.864	-30.639	198.903	162.755	240.708	188.855	-80.828	8.2796e-05	7.2918e-05	3.1405e-05	329.67	1.1164e-06	1.928e-06	673.17	110.18	1.3577e-06	1.0978e-06	274.84	95.881	35.728	13.351	1.1375e-06	39.238	8.6525e-06	6.8403e-06	1.7522e-06	214.18	6.5029e-08	7.1166e-08	543.21	87.298	6.8981e-08	7.4387e-08	206	73.139	27.74	10.001	6.6246e-08	28.685	208.175	-33.443	-45.690	-79.109	7.157	-9.213	-78.894	-73.447	-5.409	-18.505	-73.668	-69.559	-68.446	-62.309	-7.634	-64.918	-8191	255	
7300.679	1	1	0	0	0.31423	0.18178	0.33712	0.027147	0.1584	0.088345	0.125	0.18689	0.2806	0.26443	0.077051	0.27265	0.21579	0.33214	0.11441	0.14647	-1.7583	-2.6521	-2.7	-2.1875	-2.6271	-2.3125	-2.4208	-2.7979	-2.5354	-2.3937	-2.7229	-2.2917	-2.5854	-2.5021	-2.3021	-2.8125	-6.319	220.216	266.937	243.658	258.594	101.184	133.877	264.677	7.818	-43.817	-84.947	132.371	201.078	193.621	3.634	162.566	9.9297e-05	0.00021439	6.2043e-05	333.94	5.1966e-07	1.1666e-06	682.72	108.72	1.0421e-06	1.4584e-06	274.76	96.251	36.41	13.318	1.1973e-06	39.059	9.1262e-06	6.6556e-06	1.6092e-06	214.05	6.9592e-08	6.8365e-08	545.63	86.825	7.7385e-08	6.851e-08	206.33	73.481	27.855	10.049	6.6208e-08	28.726	193.897	12.329	-61.702	-79.614	22.079	-7.917	-78.958	-72.988	38.085	-19.890	-74.305	-69.879	-69.276	-63.025	-11.426	-64.573	-8191	255	
7300.799	1	1	0	0	0.12699	0.029607	0.19043	0.2166	0.25643	0.23038	0.066177	0.19834	0.27368	0.10558	0.056833	0.04926	0.16726	0.20851	0.18764	0.086678	-2.125	-2.3917	-2.8104	-2.4167	-2.8479	-2.9083	-2.3312	-2.9667	-2.5667	-2.6083	-2.8104	-2.3417	-2.4896	-2.5563	-2.3229	-2.9479	128.950	171.046	17.822	-75.577	117.587	-18.451	-28.880	168.063	-42.138	225.014	-0.328	147.604	263.062	191.624	31.880	172.886	0.00011758	0.00013903	6.2396e-05	336.42	1.5618e-06	1.5256e-06	679.33	108.26	2.3247e-07	7.0743e-07	272.48	94.248	35.542	13.254	1.6382e-06	38.46	9.1858e-06	6.0021e-06	1.4976e-06	214.54	7.0942e-08	7.088e-08	543.4	86.308	7.5942e-08	6.5348e-08	204.67	72.487	27.54	9.9151	6.2428e-08	28.204	200.967	7.839	-75.047	-79.830	64.162	41.947	-78.781	-72.917	263.649	8.343	-74.154	-69.688	-68.488	-62.526	52.264	-64.083	-8191	255	
7300.894	1	1	0	0	0.042423	0.1489	0.1326	0.1091	0.003553	0.085846	0.19433	0.075734	0.24689	0.15058	0.027896	0.21461	0.15478	0.22493	0.22257	0.36983	-2.0292	-2.4	-2.8396	-2.4313	-2.8625	-2.7417	-2.5042	-2.9729	-2.7958	-2.5312	-2.9792	-2.5875	-2.7083	-2.8021	-2.5854	-3.0125	147.184	142.689	-81.644	144.886	48.874	-34.674	240.523	3.567	-67.215	-45.785	120.639	216.581	93.363	-41.418	23.433	126.660	7.8197e-05	0.00014615	5.5762e-05	333.88	8.3495e-07	1.475e-06	675.53	107.5	1.567e-06	2.5181e-06	271.99	94.035	35.732	13.108	2.0496e-06	38.279	9.511e-06	5.8512e-06	1.5196e-06	213.36	7.4311e-08	6.24e-08	540.21	86.078	7.5026e-08	6.5787e-08	204.45	72.272	27.519	9.82	6.0899e-08	28.215	193.709	-49.335	-56.689	-80.692	56.587	43.999	-78.731	-73.146	10.028	15.501	-74.437	-69.480	-68.239	-62.455	-8.010	-64.358	-8191	255	
7300.990	1	1	0	0	0.21688	0.026296	0.19392	0.27879	0.13719	0.11694	0.3118	0.22554	0.14798	0.15823	0.030219	0.39519	0.1885	0.37677	0.083339	0.056692	-2.3292	-2.3354	-2.925	-2.8	-2.6125	-3.0271	-2.4458	-2.9167	-2.8854	-2.5042	-3.0438	-2.6167	-2.6208	-2.7146	-2.4062	-2.7958	-52.128	-24.432	222.095	112.761	148.674	159.759	245.737	120.723	110.263	111.853	-54.855	-77.519	46.716	253.943	-13.617	113.532	0.00011234	0.000238	3.5768e-05	330.76	3.2639e-07	2.2377e-06	675.65	108.63	5.7673e-07	1.3242e-06	273.5	94.443	35.851	13.131	1.4592e-06	38.526	9.0912e-06	6.0254e-06	1.4865e-06	213.79	6.9809e-08	5.6752e-08	542.02	86.415	6.9376e-08	6.3867e-08	204.92	72.644	27.648	9.8427	7.0141e-08	28.348	199.700	-22.867	-70.747	-79.304	47.730	31.481	-78.763	-73.927	106.788	1.001	-74.161	-69.879	-68.311	-63.250	55.572	-64.595	-8191	255	
7301.086	1	1	0	0	0.21352	0.25015	0.13291	0.043831	0.20853	0.013764	0.13355	0.30094	0.198	0.064038	0.18662	0.24449	0.075575	0.19461	0.23442	0.15369	-2.3271	-2.2313	-3.0208	-2.4813	-2.4854	-2.9437	-2.4625	-2.8063	-2.8083	-2.4958	-2.675	-2.5354	-2.4021	-2.6625	-2.3292	-2.6417	-77.283	128.441	181.814	119.544	93.396	249.719	218.538	-81.341	259.466	34.926	216.051	-76.159	9.865	-39.773	143.402	112.131	7.4196e-05	0.00014838	2.4694e-05	337.25	3.7737e-07	1.0351e-06	677.63	110.01	1.3202e-06	1.1551e-06	275.29	95.814	36.525	13.152	1.0279e-06	38.964	8.9854e-06	5.9168e-06	1.5019e-06	216.04	6.6457e-08	6.3018e-08	544.07	87.428	6.822e-08	6.6651e-08	206.38	73.557	27.968	9.8976	7.2323e-08	28.711	197.036	-78.032	258.636	-78.313	75.149	26.622	-79.201	-73.343	7.660	36.148	-74.052	-69.519	-69.134	-62.796	63.529	-64.468	-8191	255	
7301.207	1	1	0	0	0.19044	0.12874	0.15705	0.026946	0.36295	0.42837	0.15002	0.19951	0.1152	0.16789	0.24151	0.27087	0.25131	0.13016	0.27448	0.17891	-2.1521	-2.1333	-2.8083	-2.3833	-2.3271	-2.7625	-2.5125	-2.5938	-2.5958	-2.1583	-2.7854	-2.7521	-2.6146	-2.9688	-2.4938	-2.4917	39.726	76.093	43.900	207.641	252.051	165.515	185.291	142.484	198.545	190.861	200.606	-78.992	242.320	210.575	-17.538	-73.681	0.0001185	0.00016726	3.6807e-05	330.03	9.9172e-07	1.3378e-06	675.2	109.74	1.4714e-06	1.1608e-06	272.74	94.324	36.159	13.204	1.6037e-06	38.849	8.7976e-06	5.8463e-06	1.7434e-06	213.87	6.641e-08	6.3025e-08	542.01	87.006	6.8802e-08	6.834e-08	205.59	72.811	27.804	9.8649	7.4705e-08	28.442	198.904	-5.573	-49.304	-80.585	73.111	15.195	-78.863	-73.736	37.584	78.589	-74.171	-69.564	-68.904	-62.731	11.542	-64.377	-8191	255	
7301.303	1	1	0	0	0.1172	0.1698	0.15028	0.15611	0.29957	0.17108	0.2251	0.12409	0.33398	0.075886	0.10987	0.24302	0.11324	0.073721	0.17444	0.20271	-2.2021	-2.2458	-2.8604	-2.6292	-2.3875	-2.9229	-2.6583	-2.6	-2.8292	-2.6146	-3.0125	-2.625	-2.2438	-2.6458	-2.5875	-2.5271	-18.585	-26.755	183.773	214.712	213.467	-51.215	216.824	172.840	71.521	183.130	261.328	225.759	-33.521	209.293	203.630	226.724	8.2477e-05	6.2941e-05	4.3701e-05	335.29	1.1708e-06	1.5092e-06	670.14	108.91	6.2987e-07	6.2293e-07	271.64	94.046	36.257	13.205	4.5922e-07	38.37	8.3203e-06	5.5869e-06	1.9052e-06	213.96	6.6061e-08	6.1019e-08	541.32	86.703	6.7087e-08	6.6319e-08	205.2	72.497	27.718	9.8657	7.4628e-08	28.321	216.759	-30.523	-64.992	-79.701	34.157	-3.262	-78.666	-73.512	44.787	-25.197	-73.942	-69.763	-68.110	-62.424	19.575	-64.651	-8191	255	
7301.374	1	1	0	0	0.11037	0.11177	0.047553	0.097062	0.22713	0.077612	0.12836	0.063983	0.031745	0.30395	0.047327	0.052965	0.15653	0.2621	0.15332	0.1409	-2.4979	-2.2667	-2.5583	-2.6958	-2.2708	-2.6854	-2.7125	-2.4854	-2.9333	-2.3854	-2.7542	-2.7854	-2.2333	-2.6312	-2.4	-2.4437	-68.498	107.385	138.090	156.470	251.939	200.240	165.040	88.248	-53.536	155.539	77.619	236.459	254.321	-75.172	142.718	163.102	0.00010708	0.00019697	2.7312e-05	337.45	1.3465e-06	1.8497e-06	674.15	107.84	1.4035e-06	2.7726e-06	271.95	95.339	35.997	13.1	4.7808e-07	38.81	8.5859e-06	6.3983e-06	1.8829e-06	214.25	6.7791e-08	6.7856e-08	542.65	86.313	6.5256e-08	7.3716e-08	204.95	72.646	27.78	9.8806	7.7155e-08	28.43	204.494	-39.988	-70.709	-80.226	21.008	-7.522	-78.759	-73.607	29.548	-5.856	-73.553	-69.503	-68.399	-62.265	55.538	-64.470	-8191	255	
7301.495	1	1	0	0	0.17469	0.12261	0.11406	0.088789	0.23938	0.25862	0.10272	0.12248	0.27478	0.10731	0.40602	0.12252	0.035248	0.1391	0.25353	0.15721	-2.425	-2.4646	-2.5563	-2.7271	-2.4	-2.8667	-2.7458	-2.2479	-2.6333	-2.4562	-2.7979	-2.9938	-2.2042	-2.6937	-2.5625	-2.4021	41.203	-53.747	116.724	197.759	245.991	-38.439	127.032	219.754	23.006	96.407	214.629	-49.489	130.206	228.514	-78.306	47.522	0.00010089	0.00018256	1.4456e-05	325.01	1.8439e-06	9.9027e-07	675.56	110.06	7.9965e-07	1.7179e-06	275.34	95.836	36.321	13.246	1.8555e-06	39.442	8.5894e-06	7.0511e-06	1.9284e-06	212.75	6.863e-08	7.3056e-08	543.8	87.082	7.3396e-08	7.5898e-08	207.42	73.363	27.946	9.9924	7.2423e-08	28.898	201.734	-18.124	-88.798	-79.300	39.791	36.765	-79.108	-73.689	-8.270	22.027	-73.866	-69.670	-68.313	-62.204	44.448	-64.517	-8191	255	
7301.591	1	1	0	0	0.063529	0.18247	0.29995	0.19319	0.1413	0.037093	0.093744	0.24892	0.14192	0.28606	0.18717	0.11713	0.10534	0.089147	0.02872	0.033498	-2.3125	-2.5083	-2.725	-3.0021	-2.5125	-2.7438	-2.7333	-2.4062	-2.8354	-2.7562	-2.5625	-2.8958	-2.5167	-2.7062	-2.8271	-2.4646	34.879	95.108	137.686	-59.402	230.430	34.970	37.606	197.247	197.592	203.012	257.492	-70.350	222.334	38.016	171.197	199.247	8.5915e-05	0.00019141	4.9511e-05	331.39	1.1062e-06	1.6881e-06	676.37	109.99	1.814e-06	2.132e-06	277.95	95.682	35.821	13.338	1.1368e-06	39.231	8.7772e-06	7.455e-06	1.8386e-06	213.29	6.7644e-08	7.6035e-08	545.27	87.335	7.3357e-08	7.8551e-08	207.33	73.489	27.83	9.9883	6.9312e-08	28.775	195.078	-20.210	-79.100	-80.289	35.085	6.925	-79.010	-73.277	-4.906	21.214	-73.828	-69.678	-68.454	-63.214	39.181	-64.388	-8191	255	
7301.687	1	1	0	0	0.10051	0.084392	0.19638	0.088062	0.066786	0.071588	0.12926	0.13992	0.10859	0.27657	0.29938	0.24259	0.12371	0.11811	0.038936	0.28048	-2.6292	-2.7396	-2.5458	-2.9354	-2.6917	-2.6854	-2.8875	-2.4146	-2.9	-2.5396	-2.4104	-2.8208	-2.5396	-2.6354	-2.8708	-2.2458	-67.153	252.046	1.787	-22.360	66.516	89.836	178.649	-63.407	134.073	-42.944	252.653	194.046	75.149	73.682	-38.939	-76.575	0.00010763	0.00012842	5.8127e-05	336.86	1.0561e-06	8.0818e-07	673.46	109.07	7.0143e-07	2.2363e-06	271.01	94.284	35.626	13.233	1.0501e-06	38.549	9.3771e-06	7.5862e-06	1.7944e-06	213.14	7.7555e-08	7.6853e-08	542.04	86.574	7.7315e-08	7.5536e-08	204.11	72.644	27.581	9.8812	7.1524e-08	28.305	193.648	-49.178	-54.797	-79.894	48.323	59.604	-79.269	-73.292	51.561	-0.352	-73.814	-69.856	-68.656	-62.214	-5.379	-64.930	-8191	255	
7301.782	1	1	0	0	0.17866	0.22206	0.048739	0.23472	0.16683	0.14895	0.08952	0.15754	0.10022	0.15575	0.1213	0.21952	0.14237	0.093362	0.10036	0.29365	-2.1854	-2.6229	-2.4938	-2.9521	-2.5438	-2.4833	-2.8021	-2.2979	-2.7521	-2.7	-2.3854	-2.9167	-2.575	-2.7125	-2.9792	-2.4125	70.779	-55.882	-40.539	13.973	183.534	149.523	35.494	-71.473	199.230	-45.794	-83.645	-8.646	-72.966	-79.214	-3.107	221.817	9.38e-05	0.00016878	5.4633e-05	333.73	1.2392e-06	6.6754e-07	676.95	108.66	6.6162e-07	2.2918e-06	270.11	95.453	35.975	13.152	8.0392e-07	39.007	1.01e-05	6.2904e-06	1.7282e-06	212.79	8.1482e-08	7.1521e-08	541.87	86.598	7.7168e-08	7.4826e-08	204.66	72.966	27.694	9.9038	6.8551e-08	28.566	200.146	-51.298	267.332	-79.424	51.316	37.572	-79.034	-73.298	36.520	14.884	-73.319	-69.879	-68.620	-62.828	-28.843	-64.414	-8191	255	
7301.880	1	1	0	0	0.28427	0.10448	0.1136	0.041515	0.09981	0.076201	0.096948	0.19223	0.16321	0.28876	0.095481	0.24499	0.07282	0.10306	0.075076	0.072311	-2.3667	-2.8208	-2.375	-2.8521	-2.6083	-2.6583	-3.0812	-2.4354	-2.6188	-2.8396	-2.3312	-2.6625	-2.6375	-2.5812	-2.8292	-2.5708	-73.489	51.735	214.879	76.137	174.027	-19.054	-52.285	-49.607	163.712	116.848	-70.065	207.965	213.077	-61.392	-65.633	-29.383	0.00010089	0.00011181	4.6937e-05	334.11	1.3097e-06	1.1353e-06	673.05	108.88	2.6894e-07	1.2991e-06	274.09	95.709	36.327	13.371	2.0888e-06	39.463	9.7709e-06	5.9041e-06	1.6707e-06	214.05	7.6631e-08	6.5518e-08	542.11	86.812	7.8138e-08	6.7183e-08	206.34	73.554	27.865	10.011	6.1506e-08	28.958	206.129	-47.721	-57.190	-78.735	17.006	66.855	-79.063	-73.055	-16.034	-27.931	-73.827	-70.004	-68.625	-62.705	50.476	-64.599	-8191	255	
7301.974	1	1	0	0	0.069337	0.19827	0.18514	0.24994	0.2597	0.077608	0.23427	0.11614	0.22028	0.055088	0.19657	0.23998	0.055483	0.03903	0.13981	0.034354	-2.2542	-2.7854	-2.4313	-2.7438	-2.5375	-2.4854	-3.125	-2.475	-2.5187	-2.7687	-2.4854	-2.8187	-2.7062	-2.6208	-3.0312	-2.5521	161.348	118.312	26.835	137.232	31.476	230.174	171.600	237.004	233.714	233.328	128.601	-30.942	-56.729	-71.349	51.799	4.773	9.2756e-05	0.0001297	5.4132e-05	324.45	1.4046e-06	1.0662e-06	682.63	109.19	1.5218e-06	2.0363e-06	272.13	96.459	36.576	13.276	1.1664e-06	39.42	9.2384e-06	6.0113e-06	1.619e-06	212.85	6.9833e-08	6.6683e-08	546.98	87.412	7.3148e-08	6.8032e-08	207.24	74.04	28.018	10.022	6.4379e-08	29.002	209.938	-70.089	-15.497	-78.306	33.790	95.055	-79.109	-73.007	58.835	13.675	-73.867	-69.844	-68.612	-63.391	39.980	-64.487	-8191	255	
7302.070	1	1	0	0	0.12547	0.21629	0.24577	0.30724	0.063135	0.082665	0.12576	0.086911	0.11433	0.14986	0.33941	0.14505	0.2413	0.22199	0.18386	0.086902	-2.3458	-2.6396	-2.3563	-2.5458	-2.6083	-2.4271	-2.6958	-2.6167	-2.5854	-2.8812	-2.4583	-2.6625	-2.725	-2.65	-2.95	-2.6	133.794	122.682	-30.145	111.514	245.527	-79.825	153.273	100.782	134.912	21.120	257.911	135.520	253.998	-42.334	206.751	57.910	8.7268e-05	0.00010308	1.4334e-05	334.85	7.6547e-07	1.8576e-06	678.34	108.24	1.3684e-06	1.8776e-06	272.81	95.121	36.024	13.355	2.961e-06	38.588	9.4276e-06	5.7314e-06	1.6586e-06	213.57	6.6084e-08	6.3311e-08	544.19	86.786	7.5608e-08	6.1461e-08	205.25	73.043	27.762	9.8998	7.0533e-08	28.508	187.326	-11.303	221.748	-80.705	8.037	32.002	-78.805	-73.164	41.552	27.578	-73.910	-69.408	-68.464	-62.875	14.049	-64.974	-8191	255	
7302.191	1	1	0	0	0.10689	0.27692	0.14102	0.21626	0.018918	0.19364	0.093011	0.19564	0.18013	0.13112	0.11366	0.25573	0.15199	0.29725	0.17129	0.33021	-2.2042	-3.0333	-2.5563	-2.5896	-2.6979	-2.4188	-3.0521	-2.6792	-2.5812	-2.875	-2.4729	-2.8083	-2.9833	-2.45	-2.7521	-2.8	66.310	22.360	-80.808	204.493	-81.966	119.718	155.598	194.595	30.378	133.973	134.402	147.010	44.359	61.648	-78.809	105.384	9.3054e-05	0.00014568	3.6106e-05	331.74	1.4213e-06	2.2028e-06	671.01	109.81	6.3151e-07	1.5252e-06	274.5	95.607	36.087	13.275	7.6482e-07	39.274	9.2538e-06	6.0077e-06	1.8878e-06	212.5	6.9949e-08	6.6883e-08	540.79	86.916	7.3396e-08	6.4985e-08	206.22	73.17	27.875	9.9321	7.7747e-08	28.679	198.461	-47.462	-31.065	-78.883	61.516	52.210	-78.940	-73.669	53.365	29.624	-74.058	-69.325	-68.396	-62.636	-62.517	-64.725	-8191	255	
7302.287	1	1	0	0	0.086994	0.33782	0.037698	0.086275	0.20639	0.093333	0.10204	0.18388	0.22522	0.10874	0.25	0.30283	0.093594	0.22953	0.25492	0.14902	-2.225	-2.9229	-2.5687	-2.8271	-2.8417	-2.5771	-2.7021	-2.4354	-2.5208	-2.7396	-2.3396	-2.6042	-2.8792	-2.4938	-2.6104	-2.5667	243.576	209.889	188.302	107.912	137.170	259.056	16.043	-64.700	159.164	-82.573	190.081	214.610	205.583	268.010	255.424	250.538	8.7694e-05	0.00017731	6.0428e-05	343.52	3.9055e-07	2.6159e-06	678.71	108.31	2.8503e-07	1.3997e-06	275.51	95.974	36.074	13.303	1.1723e-06	39.185	9.04e-06	5.5291e-06	1.9282e-06	217	6.6115e-08	6.5649e-08	543.23	86.822	7.0587e-08	5.8553e-08	207.59	73.441	27.956	10.004	7.5519e-08	28.918	209.188	-29.754	-55.310	-79.374	181.309	13.839	-78.833	-73.150	36.024	15.120	-73.872	-69.646	-69.228	-62.974	46.511	-64.060	-8191	255	
7302.383	1	1	0	0	0.25158	0.12885	0.24234	0.29948	0.24513	0.10319	0.084473	0.12067	0.18624	0.14522	0.20864	0.08131	0.25396	0.33441	0.065348	0.25722	-1.9271	-2.8083	-2.5875	-2.6437	-2.9375	-2.6125	-2.9042	-2.9979	-2.4292	-2.9396	-2.4833	-2.7083	-3.0625	-2.4021	-2.9313	-2.9833	-0.166	-77.106	175.792	166.108	-4.692	-23.808	206.390	-69.554	70.512	-57.721	185.738	109.784	258.336	36.454	183.759	209.351	0.00011177	0.00022661	1.784e-05	327.99	1.0271e-06	1.2475e-06	676	110.23	1.2071e-06	1.9373e-06	275.71	96.427	36.349	13.368	1.1233e-06	40.249	8.6392e-06	6.2975e-06	1.9307e-06	212.44	6.3453e-08	7.3704e-08	544.68	87.277	6.5085e-08	6.8055e-08	208.14	74.192	28.051	10.099	7.1209e-08	29.344	192.609	-47.658	2.728	-79.309	34.120	4.293	-78.854	-73.221	36.150	0.834	-73.871	-69.124	-69.180	-62.365	42.080	-64.474	-8191	255	
7302.479	1	1	0	0	0.16279	0.1693	0.24024	0.11692	0.10345	0.28548	0.071223	0.1248	0.48185	0.18662	0.057191	0.23409	0.063092	0.093336	0.24703	0.20286	-2.0979	-2.8021	-2.7062	-2.6083	-2.9458	-2.5542	-2.6833	-2.9625	-2.3438	-2.8958	-2.9896	-2.5833	-3.025	-2.5417	-2.575	-2.7771	89.289	-42.200	179.600	117.949	111.719	-17.708	129.934	-19.459	2.722	-74.792	251.970	-77.210	267.915	219.855	60.129	130.249	0.00010411	0.00020376	5.3157e-05	330.86	1.1065e-06	2.5804e-06	677.67	109.21	1.1018e-06	1.3279e-06	275.54	95.759	36.235	13.338	8.5636e-07	39.436	8.951e-06	6.5527e-06	1.8379e-06	214.08	6.2599e-08	7.014e-08	545.79	87.011	6.9275e-08	7.1163e-08	206.82	73.487	27.828	9.9944	7.2008e-08	28.757	191.020	-16.437	-51.569	-79.501	38.185	45.808	-79.079	-72.736	67.071	-30.210	-73.785	-69.531	-68.404	-63.013	-14.243	-64.550	-8191	255	
7302.600	1	1	0	0	0.22609	0.070248	0.33857	0.091021	0.14896	0.21463	0.088487	0.21886	0.30313	0.083962	0.13575	0.14617	0.19645	0.072997	0.092717	0.10474	-1.7854	-2.6896	-2.5354	-2.4021	-2.6167	-2.4417	-2.4479	-2.8458	-2.4542	-2.7313	-2.9292	-2.5229	-2.925	-2.7229	-2.4979	-2.9625	151.112	51.222	103.130	-21.808	179.907	139.589	191.652	186.365	129.236	107.922	109.506	-44.120	191.287	-23.719	50.133	234.305	0.00012415	0.00011796	4.5325e-05	332.88	7.6282e-07	2.4899e-06	678.15	109.29	1.594e-06	2.2781e-06	272.22	95.32	36.308	13.279	4.6625e-07	38.796	8.8361e-06	6.7219e-06	1.7555e-06	212.59	6.6255e-08	7.7385e-08	542.85	86.867	7.2116e-08	7.4001e-08	205.1	72.805	27.844	9.9423	7.1017e-08	28.616	199.771	2.025	-83.246	-80.731	12.994	45.086	-79.455	-73.211	13.298	36.066	-73.333	-69.226	-68.602	-62.658	33.167	-64.533	-8191	255	
7302.672	1	1	0	0	0.16746	0.087474	0.20919	0.20833	0.35037	0.0090351	0.16273	0.076116	0.18	0.094249	0.035154	0.26658	0.16191	0.146	0.11164	0.24542	-2.1417	-2.7062	-2.7229	-2.4833	-2.8771	-2.6292	-2.5979	-3.0896	-2.5729	-2.725	-3.0021	-2.4667	-2.8375	-2.7354	-2.425	-2.8958	22.318	-41.865	111.386	169.446	263.604	-39.983	194.371	219.457	-66.600	-51.350	211.998	8.577	184.047	-38.509	260.907	69.189	8.9002e-05	0.00023197	4.792e-05	329.74	1.6665e-07	1.1995e-06	672.66	108.58	1.0088e-06	1.2688e-06	273.77	95.314	35.901	13.392	1.8886e-06	39.451	9.2769e-06	7.1033e-06	1.6738e-06	213.07	7.3783e-08	7.1081e-08	540.64	86.635	7.3621e-08	7.4695e-08	205.27	73.105	27.879	9.9639	7.0495e-08	28.854	209.419	-84.600	-11.717	-79.320	62.961	-25.825	-79.136	-72.986	39.596	24.241	-73.780	-69.319	-68.388	-62.881	-11.920	-64.356	-8191	255	
7302.768	1	1	0	0	0.10359	0.31557	0.094281	0.12192	0.025441	0.26557	0.11913	0.24655	0.19322	0.12575	0.015828	0.19541	0.1647	0.24512	0.30563	0.17852	-2.0563	-2.7208	-2.7021	-2.4208	-2.8563	-2.6667	-2.5208	-3.1063	-2.3875	-2.6104	-2.8792	-2.4562	-2.7167	-2.7583	-2.3104	-2.9688	46.711	41.518	225.787	224.871	150.550	-46.306	256.258	-45.552	174.073	-16.254	-60.118	-79.905	106.084	-77.719	103.278	-52.110	0.00010048	4.9869e-05	5.784e-05	337	5.9703e-07	1.9395e-06	676.37	109.39	1.3894e-06	2.3744e-06	274.54	96.13	36.307	13.446	1.5492e-06	39.679	9.595e-06	6.4808e-06	1.6311e-06	213.93	7.3713e-08	6.8079e-08	543.01	86.951	7.9333e-08	6.9566e-08	206.61	73.735	27.874	10.078	6.9135e-08	29.223	189.439	34.162	-83.477	-79.630	113.685	64.806	-79.190	-73.382	8.806	23.421	-74.118	-69.377	-69.220	-62.364	60.116	-64.574	-8191	255	
7302.887	1	1	0	0	0.091417	0.18763	0.10991	0.10497	0.028406	0.019743	0.067359	0.30635	0.16827	0.072497	0.18437	0.14269	0.2135	0.24954	0.23639	0.09021	-2.0521	-2.6813	-2.9292	-2.2604	-2.6188	-2.7167	-2.3458	-2.9042	-2.5812	-2.4604	-2.975	-2.4583	-2.5729	-2.7167	-2.4646	-2.8271	128.116	37.524	-1.139	-16.672	2.723	160.480	171.433	-60.477	29.767	177.936	-5.312	4.393	-50.284	11.293	245.612	159.235	8.0651e-05	0.00023775	5.0295e-05	332.64	6.892e-07	2.6229e-06	677.7	109.21	1.2083e-06	1.1109e-06	275.88	95.914	36.143	13.336	1.4282e-06	39.675	9.684e-06	6.6274e-06	1.6363e-06	215	7.913e-08	6.8905e-08	543.78	87.028	7.9915e-08	7.0152e-08	205.95	73.566	28.053	10.039	7.21e-08	28.907	197.302	-14.444	262.715	-79.687	70.108	30.579	-79.016	-73.161	34.967	-20.561	-74.067	-69.399	-68.490	-62.499	13.819	-64.087	-8191	255	
7302.983	1	1	0	0	0.19297	0.16105	0.23251	0.31994	0.094264	0.24926	0.080577	0.20255	0.085682	0.16957	0.19166	0.27486	0.17592	0.16043	0.10489	0.12095	-2.0917	-2.3854	-2.8937	-2.3438	-2.6646	-2.6875	-2.3417	-2.6688	-2.5583	-2.4417	-2.9646	-2.6063	-2.5917	-2.975	-2.4021	-3.0417	-0.474	187.587	246.843	210.176	122.614	159.926	252.475	197.048	45.612	101.229	-66.107	216.555	257.519	142.889	234.498	-79.404	9.1407e-05	0.0001679	5.2444e-05	334.55	6.1832e-07	1.4589e-06	671.32	107.56	9.2608e-07	4.1338e-07	270.8	94.59	35.877	13.223	1.2694e-06	38.845	9.902e-06	6.9468e-06	1.7871e-06	213.71	7.9922e-08	7.3118e-08	541.07	86.314	8.2367e-08	7.5096e-08	204.26	72.693	27.714	9.9274	6.6991e-08	28.549	202.307	-20.248	-85.386	-80.119	28.111	-0.081	-78.846	-72.899	48.783	-27.833	-73.805	-69.641	-69.078	-63.333	25.008	-64.687	-8191	255	
7303.079	1	1	0	0	0.29219	0.086111	0.25133	0.052088	0.16299	0.11062	0.11883	0.21693	0.19909	0.22208	0.15541	0.063185	0.21536	0.039913	0.12122	0.097173	-2.4375	-2.3667	-3.0458	-2.7604	-2.7417	-3.0833	-2.5438	-2.9688	-2.8917	-2.5375	-2.6917	-2.5708	-2.6458	-2.8417	-2.5208	-2.8563	89.102	90.087	143.646	-77.867	229.261	39.037	215.290	125.775	128.870	14.183	223.069	189.236	186.463	259.075	-24.336	-59.650	9.6808e-05	9.3366e-05	3.5564e-05	331.71	1.0499e-06	1.3947e-06	678.2	107.35	1.1665e-06	1.6524e-06	270.58	93.997	36.275	13.256	6.8436e-07	39.121	9.5789e-06	6.6641e-06	1.7446e-06	213.38	7.9852e-08	6.5888e-08	541.79	85.826	8.1707e-08	7.1919e-08	204.54	72.5	27.808	9.9232	7.8807e-08	28.671	220.275	-50.843	266.356	-79.396	21.202	-0.453	-78.977	-73.619	17.385	1.082	-73.638	-69.420	-68.597	-62.806	-7.016	-64.902	-8191	255	
7303.175	1	1	0	0	0.17588	0.26959	0.19361	0.05418	0.15957	0.10015	0.15647	0.19528	0.11034	0.26292	0.23682	0.27659	0.17945	0.1949	0.27252	0.2672	-2.5146	-2.425	-2.8417	-2.5333	-2.4708	-3	-2.7667	-2.9437	-2.8979	-2.4188	-2.7854	-2.6813	-2.3917	-2.9146	-2.4208	-2.8333	19.538	53.747	200.597	186.870	131.438	-12.174	-46.877	-79.173	48.469	203.285	-24.744	255.378	190.861	24.587	4.838	247.013	8.8985e-05	0.00017713	5.1009e-05	331.31	5.6963e-07	1.3945e-06	674.84	109.69	1.926e-07	8.0818e-07	274.33	94.613	36.104	13.246	9.0286e-07	38.965	9.403e-06	6.6972e-06	1.9036e-06	214.19	7.5871e-08	6.4715e-08	541.57	86.899	7.1588e-08	6.8957e-08	205.91	72.889	27.705	9.9134	7.8154e-08	28.813	186.749	-29.117	-61.815	-79.612	96.001	6.857	-79.262	-73.715	182.643	16.109	-73.902	-69.103	-68.593	-62.849	-40.427	-64.448	-8191	255	
7303.271	1	1	0	0	0.21428	0.21437	0.085685	0.11704	0.17023	0.25685	0.059849	0.18553	0.21107	0.13076	0.21081	0.15343	0.081959	0.175	0.10122	0.28133	-2.3083	-2.3875	-2.8271	-2.6667	-2.3438	-2.9188	-2.5333	-2.5667	-2.6375	-2.4917	-2.6146	-2.5438	-2.475	-2.8604	-2.5542	-2.5438	228.659	200.432	216.404	-41.249	76.563	238.920	-40.314	258.577	267.048	-81.916	-60.145	-35.678	191.877	173.491	27.309	253.140	9.4339e-05	0.00017102	3.6255e-05	339.76	7.518e-07	1.1999e-06	675.25	109.89	1.3004e-06	8.1783e-07	272.88	94.886	36.082	13.354	1.0341e-06	39.114	9.3365e-06	6.2601e-06	1.9473e-06	215.76	7.4862e-08	6.5942e-08	543.12	86.857	7.1844e-08	7.1649e-08	205.96	73.251	27.8	9.983	8.168e-08	28.76	201.793	-52.372	-33.552	-79.893	23.909	87.067	-78.853	-73.168	17.751	-6.868	-73.819	-69.292	-69.041	-62.601	34.349	-64.722	-8191	255	
7303.367	1	1	0	0	0.21647	0.09096	0.17705	0.30647	0.15325	0.23567	0.14963	0.18335	0.31914	0.11228	0.20394	0.19568	0.047494	0.03676	0.16723	0.20459	-2.2938	-2.3167	-2.3521	-2.325	-2.375	-2.8417	-2.6375	-2.5062	-2.8854	-2.4375	-2.7417	-2.9896	-2.3708	-2.6958	-2.7125	-2.575	156.225	241.501	176.662	93.092	-90.369	-19.584	79.800	250.735	-25.234	205.726	-29.298	148.690	43.498	30.358	219.383	29.857	6.2937e-05	0.00016733	1.724e-05	325.11	4.5847e-07	1.4867e-06	666.91	107.91	8.0482e-07	2.1515e-06	269.96	94.437	35.374	12.917	1.0579e-06	38.685	8.8032e-06	6.6676e-06	2.0534e-06	210.58	6.6728e-08	6.8666e-08	538.17	85.748	6.6847e-08	7.161e-08	203.49	72.159	27.374	9.7212	7.3691e-08	28.318	190.524	-57.711	-62.889	-79.416	51.853	46.383	-78.998	-73.242	-9.037	-19.924	-73.542	-69.530	-68.387	-62.963	10.005	-64.734	-8191	255	
7303.463	1	1	0	0	0.24401	0.17626	0.024986	0.096213	0.11136	0.10635	0.16028	0.25684	0.18564	0.17846	0.23808	0.12007	0.073093	0.204	0.19387	0.044014	-2.3104	-2.4896	-2.6271	-2.8271	-2.5229	-3.0479	-2.9313	-2.3729	-2.5875	-2.5271	-2.6562	-2.8937	-2.3958	-2.7625	-2.9437	-2.45	132.572	174.943	145.806	202.647	241.917	144.140	159.246	230.883	-53.764	-10.196	228.233	255.137	129.635	171.978	207.484	262.384	0.00011568	8.3669e-05	4.2372e-05	326.7	1.5681e-06	2.3434e-06	667.52	107.83	1.1999e-06	1.289e-06	270.65	93.137	35.353	12.928	1.3569e-06	38.736	8.2664e-06	6.7254e-06	1.977e-06	212.15	6.8956e-08	7.3272e-08	536.82	85.642	6.5807e-08	7.7803e-08	203.25	71.835	27.395	9.757	7.2991e-08	28.384	206.392	15.459	-65.032	-79.173	35.359	10.550	-79.046	-72.825	38.119	22.747	-73.916	-69.236	-68.924	-62.528	-3.105	-64.105	-8191	255	
7303.560	1	1	0	0	0.21246	0.24185	0.12724	0.045979	0.020811	0.14224	0.070043	0.18158	0.095971	0.13035	0.10765	0.12463	0.239	0.13966	0.12945	0.15231	-2.5083	-2.5771	-2.7646	-3.0333	-2.4	-2.9292	-2.9271	-2.4313	-2.9042	-2.5375	-2.6354	-2.6396	-2.2792	-2.5729	-2.6979	-2.2979	33.295	4.542	-15.214	-4.357	6.795	166.636	-75.871	-65.487	-69.207	244.122	-79.841	49.105	126.066	-6.421	238.605	-69.499	0.00010333	0.00020918	4.7351e-05	327.06	1.4323e-06	2.2768e-06	671.1	107.86	1.415e-06	1.6896e-06	271.59	94.517	35.949	13.205	8.6279e-07	39.033	8.3946e-06	6.8812e-06	1.7994e-06	209.05	6.6325e-08	7.1544e-08	538.21	85.475	6.7172e-08	7.6909e-08	204.25	72.467	27.644	9.8629	7.0833e-08	28.629	189.097	-69.911	-79.826	-80.372	52.873	31.198	-79.358	-73.371	7.646	11.220	-73.764	-69.001	-68.265	-62.448	29.407	-63.985	-8191	255	
7303.678	1	1	0	0	0.087698	0.014426	0.10871	0.14467	0.17884	0.14941	0.19696	0.10938	0.33308	0.21408	0.075261	0.18566	0.19428	0.13093	0.23576	0.13892	-2.3792	-2.6375	-2.4896	-2.9062	-2.5167	-2.8625	-2.9396	-2.6063	-2.8771	-2.8167	-2.4708	-2.9313	-2.4	-2.7062	-2.6667	-2.3875	195.639	92.873	190.710	236.426	264.455	-40.102	184.537	64.930	14.793	-24.669	267.974	-90.489	-86.632	195.519	-82.753	-90.159	0.000102	0.0001263	6.3166e-05	323.48	1.0914e-06	1.0996e-06	668.77	108.1	1.7203e-06	2.1104e-06	271.7	95.249	35.537	13.21	1.8927e-06	38.952	8.8732e-06	6.9136e-06	1.7023e-06	209.07	6.811e-08	7.2022e-08	538.9	85.81	7.4281e-08	7.2543e-08	204.83	72.849	27.552	9.8834	6.6546e-08	28.701	193.623	-24.141	-36.756	-79.708	14.645	22.591	-79.162	-72.965	26.924	27.038	-73.877	-69.454	-68.797	-63.237	-30.163	-64.382	-8191	255	
7303.775	1	1	0	0	0.045865	0.12181	0.2136	0.05584	0.035313	0.17458	0.056284	0.19231	0.076675	0.14191	0.2791	0.23989	0.24066	0.14924	0.081543	0.28223	-2.4208	-2.7479	-2.4583	-3.0896	-2.5417	-2.7646	-2.9875	-2.5208	-2.9104	-2.6333	-2.5917	-2.875	-2.5604	-2.4208	-2.8354	-2.55	151.521	76.017	8.996	-70.429	-27.763	5.280	-49.014	191.497	18.189	113.705	8.216	52.330	197.454	180.981	69.743	-76.803	0.00010993	0.00016233	2.07e-05	326.76	1.5312e-06	1.28e-06	668.23	107.58	1.0952e-06	1.8495e-06	269.8	93.326	35.082	13.009	8.6752e-07	38.744	9.0295e-06	6.4187e-06	1.703e-06	210.61	7.6429e-08	7.132e-08	536.85	85.764	7.522e-08	7.0392e-08	203.23	71.796	27.253	9.7524	6.4802e-08	28.387	214.005	-39.867	-16.284	-78.697	35.971	-37.741	-78.807	-73.403	33.189	-12.268	-74.490	-69.203	-68.599	-62.563	-45.369	-64.940	-8191	255	
7303.873	1	1	0	0	0.32873	0.1564	0.13812	0.03458	0.25946	0.076813	0.10858	0.10003	0.11615	0.069698	0.12479	0.27536	0.071341	0.20856	0.11871	0.37927	-2.2833	-2.8146	-2.3042	-2.6229	-2.4562	-2.3958	-3.0229	-2.5646	-2.8396	-2.8979	-2.55	-2.7521	-2.6125	-2.2583	-2.825	-2.4125	194.691	52.414	7.763	232.418	57.773	-52.140	263.257	225.586	206.247	108.628	187.277	260.280	183.299	67.060	73.171	219.387	8.2441e-05	0.00016606	6.0303e-05	326.88	2.2564e-07	2.139e-06	670.47	106.34	9.3323e-07	1.9801e-06	267.4	93.36	35.288	13.223	2.3918e-06	38.339	9.5817e-06	6.7268e-06	1.6683e-06	210.95	7.7741e-08	6.9623e-08	537.12	85	8.2289e-08	7.0985e-08	202.22	71.5	27.317	9.7707	6.8328e-08	28.21	213.801	-66.350	-59.669	-78.592	38.256	52.355	-78.864	-73.324	-12.421	1.800	-74.177	-69.459	-69.320	-62.376	1.919	-64.811	-8191	255	
7303.967	1	1	0	0	0.21377	0.19361	0.26158	0.1414	0.069169	0.16952	0.12684	0.13072	0.22972	0.13999	0.1623	0.065321	0.14132	0.11373	0.17134	0.10377	-2.25	-2.9104	-2.5083	-2.775	-2.7396	-2.5333	-3.1417	-2.5875	-2.6354	-2.7438	-2.3729	-2.825	-2.6083	-2.5208	-2.7792	-2.4	213.136	-40.559	121.641	153.107	147.775	261.605	75.269	-38.635	-14.711	-56.812	264.048	103.629	-68.940	209.357	-41.000	33.892	0.0001073	0.00025596	2.8043e-05	326.15	1.4632e-06	1.1685e-06	666.46	107.35	1.202e-06	1.3126e-06	268.57	94.104	35.308	12.888	1.3864e-06	38.407	9.4107e-06	6.2425e-06	1.6398e-06	209.94	7.0151e-08	6.6675e-08	535.74	85.617	7.9224e-08	6.362e-08	202.91	72.206	27.321	9.7379	6.0262e-08	28.327	198.010	-74.817	-25.959	-79.278	87.657	8.700	-78.900	-73.361	-26.722	-7.488	-73.994	-69.165	-68.975	-63.087	33.969	-64.230	-8191	255	
7304.063	1	1	0	0	0.12997	0.16069	0.1264	0.17752	0.087221	0.20222	0.36541	0.17969	0.11245	0.19491	0.22519	0.1794	0.33563	0.074658	0.17444	0.50979	-2.3729	-2.9146	-2.6583	-2.9188	-2.7562	-2.4125	-2.9458	-2.7125	-2.625	-3.0708	-2.4625	-2.5563	-2.7292	-2.1625	-2.8646	-2.5521	243.457	147.496	-68.204	5.379	208.207	231.156	184.573	-74.506	-14.789	-30.247	182.076	-79.007	264.906	-32.930	178.549	52.999	0.00011049	0.00011283	3.3339e-05	331.14	5.4616e-07	1.7534e-06	667.72	107.78	1.1939e-06	1.7831e-06	273.25	95.135	35.745	13.139	1.2862e-06	39.325	8.7548e-06	5.8879e-06	1.7019e-06	211.19	6.9165e-08	6.1868e-08	536.45	85.773	7.1324e-08	6.2934e-08	205.36	72.97	27.46	9.8457	6.6707e-08	28.775	192.086	-61.950	-51.016	-78.776	62.373	2.370	-79.144	-73.213	96.031	-23.643	-73.803	-68.881	-68.841	-63.482	48.390	-64.113	-8191	255	
7304.159	1	1	0	0	0.11257	0.17816	0.085299	0.29084	0.088483	0.04065	0.086131	0.1849	0.21938	0.13856	0.068142	0.18537	0.090774	0.41328	0.045576	0.26152	-2.0146	-2.9062	-2.4708	-2.7333	-2.9729	-2.55	-3.1333	-2.6937	-2.5792	-2.7896	-2.5833	-2.5604	-2.8271	-2.4125	-2.8021	-2.5833	96.719	-83.938	5.269	9.050	-22.001	256.473	-36.082	94.385	53.571	26.037	112.959	-89.101	242.397	18.223	231.160	-2.299	8.4189e-05	0.00015071	1.6295e-05	327.6	1.3471e-06	1.2361e-06	672.07	108.1	1.3155e-06	1.039e-06	270.39	94.582	35.628	13.041	2.0015e-06	38.467	8.9195e-06	5.9168e-06	1.8027e-06	211.22	6.5719e-08	6.2308e-08	540.27	85.774	6.926e-08	6.035e-08	204.35	72.608	27.448	9.7847	7.0218e-08	28.344	196.090	-38.239	-43.803	-79.157	66.369	4.042	-79.073	-73.148	3.452	33.351	-74.128	-69.467	-68.620	-62.269	61.483	-64.943	-8191	255	
7304.280	1	1	0	0	0.073352	0.078426	0.081871	0.26144	0.10842	0.17942	0.32183	0.14465	0.16555	0.1654	0.16337	0.014103	0.16842	0.23471	0.051789	0.087448	-1.9854	-2.6646	-2.5062	-2.8937	-2.9896	-2.5396	-2.8646	-2.5896	-2.3563	-2.7208	-2.6688	-2.7146	-2.9604	-2.4271	-2.9104	-2.7458	7.388	153.396	87.221	214.815	176.066	257.837	181.529	-88.343	182.807	117.124	-12.777	170.858	261.109	188.727	254.164	-43.820	9.376e-05	0.00011542	7.0626e-05	322.59	5.0734e-07	7.6663e-07	666.1	106.54	1.5987e-06	1.6037e-06	266.6	93.693	35.224	12.881	1.2655e-06	38.224	8.6154e-06	5.7194e-06	1.8158e-06	208.63	6.0659e-08	6.0494e-08	535.09	84.735	6.597e-08	5.964e-08	201.73	71.794	27.175	9.6459	6.9327e-08	28.051	192.687	-67.541	-85.623	-79.364	143.981	49.420	-78.928	-73.649	36.496	19.019	-73.968	-69.496	-68.638	-62.540	30.028	-64.392	-8191	255	
7304.376	1	1	0	0	0.10785	0.052502	0.22276	0.19903	0.24447	0.11684	0.10971	0.094462	0.25864	0.15206	0.15389	0.16821	0.13591	0.36792	0.1623	0.14486	-1.9562	-2.725	-2.5104	-2.5396	-2.8625	-2.5292	-2.8833	-2.7458	-2.3896	-2.7729	-2.4792	-2.4479	-2.8812	-2.6104	-2.6604	-2.7812	238.831	173.448	190.618	-25.594	-79.627	67.134	124.087	2.784	169.573	-73.293	-15.121	252.178	203.878	267.903	106.379	239.310	7.5994e-05	0.00016238	4.7248e-05	327.7	1.6182e-06	6.6738e-07	665.64	105.15	4.5952e-07	2.4505e-06	269.24	93.444	34.844	12.752	1.4112e-06	38.473	8.3245e-06	5.5594e-06	1.8197e-06	209.98	5.9798e-08	6.3974e-08	534.21	83.948	6.9609e-08	6.5672e-08	202.14	71.714	27.095	9.6178	7.671e-08	28.248	211.423	-31.617	-84.510	-80.235	84.942	79.279	-79.078	-73.312	200.099	26.236	-73.945	-69.167	-68.744	-62.909	25.643	-64.683	-8191	255	
7304.472	1	1	0	0	0.13639	0.24153	0.15878	0.164	0.05855	0.24292	0.1273	0.17816	0.16859	0.17347	0.14266	0.17295	0.14425	0.26399	0.17253	0.26689	-1.9208	-2.6667	-2.4979	-2.2396	-2.7687	-2.4688	-2.7521	-2.8292	-2.4333	-2.7771	-2.5958	-2.6583	-3	-2.625	-2.7333	-2.7917	92.716	178.163	-22.693	-46.014	55.171	-25.364	248.661	-16.902	57.833	231.466	211.149	232.492	169.144	201.442	229.359	261.411	9.299e-05	0.00014924	3.5606e-05	325.19	1.889e-06	1.1119e-06	663.23	106.74	3.7522e-07	1.8854e-06	270.79	94.189	35.678	12.982	4.6065e-07	39.196	8.7163e-06	6.3348e-06	1.88e-06	209.64	5.837e-08	7.0726e-08	533.79	84.778	6.4092e-08	6.9196e-08	202.9	72.287	27.32	9.7726	6.8605e-08	28.655	205.778	-50.685	-27.463	-79.433	25.800	49.338	-78.708	-73.474	-6.062	-24.097	-73.735	-69.563	-68.846	-62.416	55.062	-64.181	-8191	255	
7304.568	1	1	0	0	0.16559	0.29426	0.16105	0.080316	0.1868	0.0082786	0.1975	0.19518	0.10807	0.25586	0.20371	0.020746	0.14366	0.10489	0.23899	0.32912	-1.9396	-2.7583	-2.6458	-2.5646	-3.025	-2.4875	-2.5187	-2.8083	-2.4938	-2.925	-2.775	-2.25	-2.8563	-2.5167	-2.6083	-2.9833	78.428	-48.209	62.051	172.441	112.421	66.369	187.352	168.174	-63.149	-29.900	171.103	122.751	226.216	-40.327	25.904	-82.392	8.2315e-05	0.00021867	2.4053e-05	323.43	1.7335e-06	8.3792e-07	669.9	105.92	8.8402e-07	1.0214e-06	270.62	95.132	35.458	12.979	1.2863e-06	38.931	8.7184e-06	6.6753e-06	1.7702e-06	209.77	6.3864e-08	7.2948e-08	537.94	84.669	6.6459e-08	7.1533e-08	203.66	72.549	27.252	9.7865	7.1901e-08	28.501	209.344	-46.932	241.922	-79.500	42.323	66.650	-79.194	-73.304	-50.716	-14.929	-73.738	-69.848	-68.530	-62.327	30.282	-64.779	-8191	255	
7304.664	1	1	0	0	0.19911	0.048423	0.018687	0.23536	0.17126	0.30094	0.27285	0.20356	0.40703	0.15029	0.30247	0.067579	0.075715	0.1636	0.18786	0.12686	-2.1708	-2.8375	-2.55	-2.3646	-3.0646	-2.5375	-2.6292	-2.8354	-2.4833	-2.6917	-2.7188	-2.2562	-2.7917	-2.4	-2.3854	-2.7604	-84.801	163.911	243.775	3.642	195.293	-51.192	115.138	178.427	128.464	2.549	213.872	217.814	255.603	266.054	111.146	85.565	9.6317e-05	0.00021768	1.8159e-05	326.82	7.1984e-07	1.9299e-06	666.88	105.86	1.6968e-06	2.7635e-06	266.24	93.354	34.593	12.888	2.4075e-07	38.345	8.567e-06	6.6493e-06	1.6595e-06	208.48	6.6263e-08	7.0194e-08	534.38	84.093	7.023e-08	7.289e-08	200.96	71.411	26.958	9.6362	6.8589e-08	28.129	192.907	-58.523	227.208	-79.237	80.410	22.601	-78.958	-73.743	10.808	24.703	-73.964	-69.806	-69.307	-62.955	186.394	-64.296	-8191	255	
7304.759	1	1	0	0	0.097076	0.10018	0.1922	0.15482	0.0797	0.10134	0.21625	0.14394	0.22124	0.12353	0.053407	0.19575	0.14594	0.26313	0.071591	0.18538	-1.95	-2.6896	-2.8792	-2.5021	-2.4979	-2.5646	-2.675	-3.0625	-2.6542	-2.4062	-2.9708	-2.3667	-2.5896	-2.7125	-2.4521	-2.7188	41.601	195.310	73.908	73.805	214.082	137.465	171.975	223.379	48.681	225.100	106.000	-11.992	186.449	53.403	160.321	62.695	9.4318e-05	0.00031056	4.5843e-05	322.96	1.6689e-06	1.9639e-06	668.34	106.53	5.7373e-07	9.6647e-07	269.61	93.829	35.646	12.983	8.9082e-07	38.607	9.0078e-06	6.9143e-06	1.5809e-06	208.22	7.0376e-08	7.4152e-08	533.4	84.186	7.872e-08	6.8348e-08	202.38	71.886	27.266	9.7279	6.9811e-08	28.323	211.363	-22.865	-52.172	-80.260	38.496	72.209	-78.955	-73.430	-24.825	24.122	-73.985	-69.614	-68.644	-62.899	10.453	-64.504	-8191	255	
7304.855	1	1	0	0	0.14198	0.091933	0.24831	0.33167	0.10728	0.11838	0.31717	0.08591	0.091074	0.15252	0.18856	0.20755	0.065452	0.11146	0.027183	0.24041	-2.1	-2.5708	-2.7854	-2.3458	-2.7792	-2.6979	-2.2979	-2.8167	-2.6688	-2.2938	-2.7833	-2.3604	-2.7771	-2.7958	-2.3563	-2.7604	156.570	228.527	-32.067	232.211	141.188	25.919	217.735	246.092	213.060	253.672	256.529	241.580	133.294	211.671	89.226	254.801	7.5315e-05	0.00028032	6.3315e-05	325.45	9.5149e-07	1.0847e-06	663.88	106.58	9.1463e-07	1.4538e-06	270.22	94.116	35.074	13.097	1.0334e-06	38.588	9.4731e-06	6.1367e-06	1.5632e-06	208.91	7.6988e-08	6.5633e-08	534.04	84.849	7.865e-08	6.5355e-08	203.85	72.131	27.278	9.7925	6.6884e-08	28.508	201.351	-31.153	-84.817	-79.752	111.405	-5.680	-78.939	-73.471	10.513	40.520	-73.849	-69.057	-68.139	-62.525	23.069	-64.668	-8191	255	
7304.976	1	1	0	0	0.21573	0.10878	0.0090972	0.26865	0.06655	0.13929	0.14387	0.28371	0.081207	0.1724	0.11195	0.13505	0.22228	0.20101	0.2672	0.25867	-2.2062	-2.5	-2.8812	-2.3187	-2.55	-2.6188	-2.5271	-2.7667	-2.5167	-2.6104	-3.0229	-2.6396	-2.5042	-2.7729	-2.4875	-2.9396	177.005	137.411	-82.763	-4.936	136.289	226.039	151.299	-62.636	209.518	-80.181	157.795	138.249	220.556	146.414	259.087	186.772	0.00011779	6.8706e-05	8.8476e-06	326.69	9.1293e-07	1.3707e-06	666.54	106.94	6.1036e-07	1.7616e-06	271.57	95.003	35.613	13.047	8.2514e-07	39.416	9.7289e-06	6.141e-06	1.5575e-06	210.03	7.2518e-08	6.6814e-08	536.93	84.996	7.9705e-08	6.7322e-08	204.59	73.122	27.611	9.8522	6.9112e-08	28.905	207.525	9.777	-2.636	-79.579	8.718	37.903	-78.808	-73.255	1.192	10.155	-74.115	-69.160	-68.534	-62.961	5.403	-64.701	-8191	255	
7305.072	1	1	0	0	0.083844	0.26588	0.15075	0.070791	0.037328	0.14776	0.094818	0.1726	0.05327	0.083778	0.069395	0.052587	0.16711	0.24499	0.30113	0.1914	-2.2833	-2.3958	-2.8896	-2.3625	-2.5917	-2.9146	-2.7396	-2.8792	-2.8438	-2.5958	-2.8229	-2.2938	-2.4833	-3.0083	-2.6104	-2.7667	195.931	-65.462	267.198	78.578	81.023	57.995	-83.793	203.233	-23.016	210.576	238.181	-76.376	230.956	141.845	-58.014	162.479	7.7082e-05	2.8647e-05	5.2665e-05	323.73	2.1115e-06	1.0652e-06	667.34	107.54	1.6549e-06	2.8886e-06	270.35	94.515	35.451	13.177	1.5561e-06	38.657	9.4864e-06	5.8491e-06	1.5846e-06	210.64	7.3573e-08	6.3573e-08	537.36	85.562	7.6943e-08	6.6474e-08	204.3	72.493	27.523	9.8085	7.008e-08	28.454	198.778	-81.917	-52.391	-78.470	12.897	58.510	-78.935	-72.855	24.386	3.557	-74.144	-69.399	-68.314	-62.490	7.070	-64.513	-8191	255	
7305.143	1	1	0	0	0.24094	0.045335	0.23157	0.064233	0.10776	0.20465	0.14272	0.098068	0.1308	0.20477	0.06963	0.084097	0.082972	0.16629	0.15091	0.080554	-2.1125	-2.4208	-2.8708	-2.4083	-2.3604	-2.9167	-2.7083	-2.6375	-2.6542	-2.3833	-3.025	-2.6292	-2.3104	-2.8229	-2.6375	-2.7375	204.369	45.150	3.791	-83.325	136.467	173.087	166.281	202.382	-79.950	54.483	24.257	257.297	-19.617	-39.096	-69.745	174.811	0.00010698	0.00025051	4.2172e-05	325.87	4.805e-07	1.1041e-06	665.55	105.99	1.3151e-06	1.6878e-06	270.23	93.672	35.408	12.842	9.7198e-07	38.324	8.4353e-06	5.9922e-06	1.711e-06	209.88	6.9382e-08	5.9985e-08	534.24	84.42	7.0944e-08	6.1113e-08	203.18	72.002	27.382	9.6706	7.5181e-08	28.345	195.128	-19.243	-68.361	-80.333	21.171	8.509	-78.905	-73.098	94.877	-54.580	-73.886	-69.212	-68.759	-62.853	8.246	-64.647	-8191	255	
7305.240	1	1	0	0	0.36905	0.14907	0.3037	0.16409	0.058338	0.083365	0.17742	0.20366	0.18692	0.1137	0.13483	0.24104	0.29301	0.07673	0.080937	0.17784	-2.3083	-2.3125	-2.7792	-2.7854	-2.3854	-2.9333	-2.6312	-2.6562	-2.7646	-2.2979	-2.8146	-2.8417	-2.4458	-2.8396	-2.3292	-2.6792	55.922	99.732	165.530	193.464	-65.075	45.713	251.259	99.870	259.184	184.200	68.467	205.135	199.559	1.440	71.803	218.222	0.00011357	0.00014524	5.5253e-05	320.89	1.5816e-06	6.6288e-07	664.72	106.91	9.7952e-07	2.1388e-06	270.8	95.258	35.463	12.951	2.0274e-06	39.122	9.1578e-06	6.093e-06	1.8476e-06	208.3	7.1439e-08	6.139e-08	535.29	85.415	6.8957e-08	7.0438e-08	204.54	72.753	27.506	9.7622	7.293e-08	28.7	209.917	-54.550	-20.447	-79.887	70.799	36.084	-78.978	-73.161	-6.215	-35.171	-73.942	-69.277	-68.398	-62.659	28.421	-64.405	-8191	255	
7305.360	1	1	0	0	0.069741	0.041847	0.11166	0.17906	0.38974	0.1786	0.31152	0.061734	0.42556	0.11044	0.26625	0.20305	0.078949	0.094779	0.26544	0.10822	-2.6125	-2.5521	-2.6688	-2.6312	-2.3042	-2.8542	-2.6417	-2.5667	-2.8875	-2.3375	-2.7417	-2.8333	-2.3875	-2.9104	-2.7375	-2.5625	228.599	197.360	205.919	-45.877	212.566	-31.497	249.313	259.571	63.185	-25.122	261.939	185.126	135.791	23.437	37.261	-55.462	8.8665e-05	0.00022412	5.2201e-05	326.84	8.7497e-07	8.7649e-07	668.95	106.92	2.8457e-07	1.9674e-06	273.17	95.744	36.089	13.226	1.1914e-06	39.38	8.4696e-06	5.8576e-06	1.8517e-06	210.9	6.8839e-08	6.6621e-08	537.83	85.412	6.6466e-08	7.2551e-08	205.19	73.328	27.67	9.9143	7.2446e-08	28.964	186.145	-17.154	-76.570	-79.407	19.496	84.089	-79.071	-73.226	2.726	15.463	-73.908	-69.471	-68.148	-63.377	32.787	-64.536	-8191	255	
7305.456	1	1	0	0	0.092071	0.20379	0.37662	0.2884	0.072757	0.038252	0.15537	0.14212	0.064352	0.27509	0.035973	0.14025	0.029305	0.34844	0.16042	0.1835	-2.4146	-2.3354	-2.6271	-2.6562	-2.3521	-2.8083	-2.8917	-2.6188	-2.7979	-2.1354	-2.6	-2.7896	-2.4813	-2.7812	-2.4938	-2.5729	-73.344	87.701	98.733	242.164	189.810	178.579	237.603	69.340	-69.941	160.191	67.568	119.413	-88.894	192.898	-50.358	126.513	9.4233e-05	0.00013146	5.2232e-05	325.12	1.1656e-06	2.1177e-06	669.63	107.92	1.5224e-06	1.5814e-06	272.62	94.932	35.414	13.061	6.9981e-07	39.43	8.2734e-06	6.779e-06	1.8357e-06	209.33	6.8894e-08	7.034e-08	537.59	85.601	6.8577e-08	7.1464e-08	205.34	72.879	27.527	9.7865	7.7171e-08	28.89	194.608	-58.000	-70.349	-80.009	77.238	86.342	-78.988	-73.400	-23.962	-17.716	-73.873	-69.181	-68.844	-62.915	26.112	-64.573	-8191	255	
7305.553	1	1	0	0	0.36241	0.12528	0.24045	0.024683	0.19398	0.21022	0.13455	0.18959	0.1717	0.1505	0.15139	0.18624	0.097197	0.055282	0.16545	0.20878	-2.4437	-2.2396	-2.5354	-2.8167	-2.4542	-2.8667	-2.8292	-2.3167	-2.9271	-2.5021	-2.4938	-3.0354	-2.4167	-2.6792	-2.6875	-2.1958	-62.629	227.833	254.199	138.637	-51.526	-10.131	-89.071	-32.063	3.089	141.843	88.880	257.728	218.326	225.051	-73.727	176.084	9.8115e-05	0.00010841	4.052e-05	324.53	6.2671e-07	1.0137e-06	662.68	106.59	1.7037e-06	1.6363e-06	270.92	93.857	35.529	12.936	1.2765e-06	38.481	8.328e-06	7.1745e-06	1.8219e-06	209.42	6.53e-08	7.6559e-08	533.47	84.901	7.3396e-08	7.7595e-08	203.12	71.833	27.216	9.746	7.1117e-08	28.393	197.910	-36.512	-38.151	-79.809	78.252	12.114	-78.621	-73.402	20.534	15.752	-74.225	-69.267	-68.730	-62.419	22.240	-64.533	-8191	255	
7305.673	1	1	0	0	0.17149	0.10893	0.19153	0.066881	0.21939	0.067402	0.13638	0.26383	0.1486	0.21583	0.08698	0.10106	0.11875	0.10533	0.14166	0.27578	-2.4417	-2.6021	-2.5125	-2.8563	-2.2812	-2.6312	-2.6958	-2.55	-2.875	-2.3625	-2.375	-2.7417	-2.45	-2.7958	-2.9437	-2.4938	82.523	-46.119	26.330	66.982	191.945	195.613	178.551	-30.615	48.518	-61.311	-78.829	252.993	79.093	-76.662	31.912	-49.007	0.00011321	0.00016076	3.6601e-05	329.88	9.4433e-07	9.956e-07	668.02	104.71	2.8957e-07	2.0822e-06	265.57	93.233	35.202	12.888	9.297e-07	39.139	8.9826e-06	7.4501e-06	1.7684e-06	209.38	7.1012e-08	7.0093e-08	532.46	83.922	7.2224e-08	7.1147e-08	201.01	71.57	27.001	9.6858	6.6116e-08	28.716	203.230	-37.615	243.895	-79.574	66.049	68.685	-79.240	-73.538	48.097	-41.116	-74.374	-69.397	-68.497	-63.086	7.706	-64.141	-8191	255	
7305.769	1	1	0	0	0.17305	0.082093	0.066252	0.031547	0.25374	0.13983	0.16487	0.3563	0.092815	0.10564	0.069764	0.056227	0.2315	0.45493	0.16523	0.087446	-2.4854	-2.5312	-2.4833	-2.9271	-2.4521	-2.6042	-2.7583	-2.4208	-2.9958	-2.7625	-2.7042	-2.7896	-2.5479	-2.5	-3.1188	-2.6	-8.853	199.947	192.041	198.029	40.376	206.670	25.858	155.838	17.669	228.511	205.784	261.554	11.513	226.874	245.024	121.194	0.00010885	0.00014737	3.692e-05	326.21	1.2144e-06	1.6536e-06	664.92	106.87	1.4491e-06	9.7878e-07	272.31	94.512	35.277	13.11	6.9848e-07	39.508	9.3323e-06	6.9136e-06	1.775e-06	209.17	7.1625e-08	6.9831e-08	535.03	84.572	8.021e-08	7.3816e-08	204.23	72.602	27.34	9.8331	6.9534e-08	28.931	193.929	-49.356	-84.012	-79.211	23.179	-7.221	-79.320	-73.315	-28.524	3.873	-74.128	-69.755	-68.760	-62.608	5.197	-64.425	-8191	255	
7305.841	1	1	0	0	0.47423	0.063864	0.064055	0.14136	0.096426	0.20004	0.32056	0.074133	0.26375	0.17658	0.22827	0.099434	0.048132	0.10568	0.19518	0.14791	-2.4396	-2.4833	-2.4542	-2.7958	-2.425	-2.7208	-2.9875	-2.4896	-2.6083	-2.8125	-2.4604	-2.9521	-2.5042	-2.4667	-3.0021	-2.2417	49.922	177.507	192.733	184.548	53.523	-79.619	85.813	123.031	144.436	77.804	132.058	63.608	107.118	-64.573	-43.026	188.558	8.6755e-05	0.00011549	4.0828e-05	327.46	5.654e-07	8.745e-07	668.42	107.26	5.7346e-07	2.3943e-06	272.01	94.888	35.483	13.019	1.2185e-06	39.001	9.8291e-06	6.5872e-06	1.6904e-06	209.42	7.837e-08	6.6636e-08	536.27	85.025	8.0155e-08	6.9836e-08	204.35	72.91	27.408	9.8087	6.4748e-08	28.763	214.236	-7.695	-51.544	-80.474	-77.897	18.853	-79.620	-73.298	59.769	9.157	-73.782	-69.382	-69.298	-63.471	-23.651	-64.557	-8191	255	
7305.960	1	1	0	0	0.22891	0.1035	0.19387	0.1388	0.364	0.17437	0.21471	0.10692	0.22386	0.17056	0.038619	0.18294	0.10128	0.2723	0.077382	0.028656	-2.2562	-2.7021	-2.3646	-2.7396	-2.5125	-2.6	-3.0979	-2.2229	-2.7521	-2.6562	-2.4271	-2.8812	-2.3958	-2.5938	-2.9854	-2.5479	-46.251	72.257	74.223	-16.590	-19.359	195.675	140.863	-36.164	-19.302	59.969	144.175	-51.453	104.882	226.220	254.092	201.172	0.0001029	0.00022518	4.4539e-05	320.86	1.4412e-06	1.8889e-06	662.01	105.8	1.4495e-06	2.2259e-06	268.9	92.884	35.015	12.825	1.8694e-06	38.491	9.3841e-06	6.0902e-06	1.6392e-06	206.81	7.4838e-08	6.6035e-08	533.03	84.203	7.5507e-08	6.9867e-08	201.98	71.506	27.082	9.6596	6.2958e-08	28.212	211.429	-8.246	-70.038	-79.304	40.242	24.879	-79.224	-73.292	38.853	46.744	-74.184	-69.571	-68.644	-62.453	-39.299	-64.361	-8191	255	
7306.056	1	1	0	0	0.043689	0.14157	0.17581	0.20575	0.23026	0.23503	0.11679	0.16281	0.033071	0.10668	0.1704	0.31418	0.2445	0.14043	0.25245	0.14039	-2.1854	-2.75	-2.525	-2.7521	-2.875	-2.4125	-2.9333	-2.6104	-2.6042	-2.9292	-2.6375	-2.7687	-2.7271	-2.2729	-2.9938	-2.6542	129.172	51.345	238.068	247.927	159.012	134.311	221.933	136.283	28.198	-59.913	191.357	241.106	256.690	-6.464	-43.772	95.150	9.1265e-05	0.00014328	4.3454e-05	319.46	1.0748e-06	6.8011e-07	663.88	105.56	1.6551e-06	1.9233e-06	268.68	93.692	35.125	12.926	2.2426e-06	38.664	9.382e-06	5.945e-06	1.6952e-06	207.12	7.0485e-08	6.1721e-08	531.95	83.94	7.6438e-08	6.2471e-08	202.48	71.64	27.19	9.6717	6.6292e-08	28.268	202.409	-65.767	-32.207	-79.636	4.242	63.534	-78.791	-73.583	18.696	40.198	-73.872	-69.420	-68.931	-62.438	9.706	-64.418	-8191	255	
7306.152	1	1	0	0	0.17691	0.018375	0.10027	0.12739	0.016856	0.18883	0.033405	0.16736	0.077617	0.087282	0.16826	0.1445	0.29962	0.23852	0.11499	0.11415	-2.2125	-3.0187	-2.5104	-2.7896	-2.8479	-2.3208	-2.9521	-2.4604	-2.5542	-2.9083	-2.55	-2.7625	-2.8125	-2.275	-2.7771	-2.7083	141.093	229.269	92.584	-90.635	214.765	20.816	249.368	-67.923	-26.088	36.526	252.195	21.881	184.149	-16.036	224.964	254.720	0.00010135	0.0001595	2.3067e-05	327	7.3807e-07	2.5888e-06	665.29	106.21	1.216e-06	1.3617e-06	271.33	93.679	35.089	13.087	1.4644e-06	38.88	9.3988e-06	6.0782e-06	1.72e-06	210.51	6.856e-08	6.5996e-08	534.15	84.844	7.6958e-08	6.406e-08	203.81	72.253	27.244	9.7778	7.1854e-08	28.545	199.949	-4.726	268.124	-79.293	72.619	70.656	-79.384	-73.241	40.915	58.618	-73.629	-69.102	-68.569	-63.092	23.821	-64.686	-8191	255	
7306.273	1	1	0	0	0.076314	0.13225	0.15901	0.16603	0.3147	0.081757	0.21372	0.11835	0.21331	0.22757	0.053658	0.06472	0.044351	0.23185	0.13789	0.29666	-2.0958	-3.1167	-2.4125	-2.4979	-2.8292	-2.5	-2.8271	-2.6458	-2.3187	-2.9625	-2.4104	-2.6562	-2.8771	-2.4771	-2.8271	-2.8125	265.863	238.296	-6.407	225.140	61.721	172.728	222.051	85.361	-75.585	-55.913	52.778	23.693	-90.068	-31.501	183.221	180.605	6.9794e-05	0.00019837	1.9043e-05	318.33	1.178e-06	2.4203e-06	666.15	107.03	6.5382e-07	9.392e-07	272.03	94.865	35.508	12.979	6.4479e-07	38.854	8.7611e-06	5.976e-06	1.808e-06	208.73	6.9646e-08	6.2956e-08	536.06	84.9	6.9423e-08	6.1414e-08	204.83	72.787	27.459	9.7488	7.2761e-08	28.555	200.596	-26.567	-60.092	-79.878	15.839	20.497	-78.755	-73.319	38.247	67.927	-74.190	-69.519	-68.697	-62.797	61.477	-64.575	-8191	255	
7306.369	1	1	0	0	0.14808	0.017963	0.051383	0.094133	0.23348	0.23581	0.17867	0.078036	0.051214	0.11925	0.024122	0.14958	0.019197	0.28926	0.059075	0.07832	-2.0958	-2.8604	-2.35	-2.4667	-2.8604	-2.4375	-2.9604	-2.7562	-2.5458	-2.8604	-2.6021	-2.3771	-2.9896	-2.5771	-2.8854	-2.6771	46.136	159.807	-74.243	177.673	146.351	99.913	-25.939	49.205	210.314	105.805	180.009	143.378	212.992	179.628	195.539	231.614	0.00010395	0.00019277	7.3912e-05	326.73	6.3235e-07	2.3952e-06	670.64	105.96	1.3269e-06	9.0277e-07	268.1	92.437	35.284	12.647	2.0264e-06	38.143	8.8186e-06	6.0176e-06	1.8907e-06	207.85	6.3321e-08	6.7123e-08	535.02	84.099	7.0758e-08	6.7052e-08	201.67	71.217	26.86	9.5701	7.1962e-08	28.032	193.476	-1.401	-90.917	-80.140	94.656	23.449	-79.119	-73.534	3.558	27.507	-73.769	-69.593	-69.136	-62.615	-20.081	-64.681	-8191	255	
7306.441	1	1	0	0	0.19456	0.065285	0.19576	0.030351	0.18204	0.39049	0.056058	0.037347	0.012121	0.13224	0.016317	0.084562	0.10862	0.18626	0.16536	0.062587	-1.8188	-2.7729	-2.6	-2.425	-2.9562	-2.3375	-2.5958	-2.4604	-2.4021	-3.1271	-2.8375	-2.5375	-2.7854	-2.4604	-2.5229	-2.9708	253.812	-7.970	9.770	120.397	-56.410	-5.105	-23.134	72.303	211.220	175.476	-50.794	128.213	120.507	-44.772	236.990	145.391	7.1003e-05	0.00017948	5.2279e-05	322.97	7.5894e-07	1.6828e-06	663.49	105.54	8.7531e-07	1.1e-06	267.3	93.463	35.438	12.79	9.9317e-07	38.511	8.4402e-06	6.1614e-06	1.943e-06	206.17	5.9045e-08	6.8265e-08	530.98	83.883	6.9113e-08	6.4368e-08	201.14	71.531	27.153	9.6589	7.3644e-08	28.228	202.354	-49.289	-54.485	-79.985	54.738	36.208	-79.139	-73.055	28.619	16.510	-74.026	-69.587	-68.528	-62.439	56.863	-64.696	-8191	255	
7306.537	1	1	0	0	0.2282	0.10547	0.059776	0.21817	0.075768	0.18472	0.12347	0.039699	0.18947	0.093649	0.27894	0.00023886	0.20718	0.11102	0.19214	0.20082	-2.0125	-2.7875	-2.5146	-2.3438	-2.9646	-2.5583	-2.6896	-2.825	-2.2958	-2.6083	-2.7479	-2.5458	-3.0625	-2.5938	-2.75	-2.9208	250.369	-57.708	15.957	58.915	142.583	174.774	29.692	92.589	166.288	261.028	253.411	180.000	264.296	26.666	80.467	208.878	8.8582e-05	3.3149e-05	3.9801e-05	317.86	1.3548e-06	5.0256e-08	664.96	105.57	3.9722e-07	1.3362e-06	269.29	93.318	35.561	12.879	9.1977e-07	38.551	8.2453e-06	6.1981e-06	1.8057e-06	206.39	6.4726e-08	7.8635e-08	531.56	83.61	6.8181e-08	7.3214e-08	202.27	71.649	27.132	9.6659	7.1194e-08	28.346	198.907	-46.672	-30.488	-79.674	48.984	98.470	-79.329	-73.531	-22.078	40.525	-73.642	-69.797	-68.739	-62.562	-1.002	-64.168	-8191	255	
7306.656	1	1	0	0	0.21982	0.19466	0.083575	0.26016	0.1915	0.16467	0.10044	0.056093	0.10831	0.17153	0.16648	0.10641	0.27833	0.16515	0.14008	0.22177	-1.7833	-2.6729	-2.5958	-2.3375	-2.925	-2.7625	-2.6604	-2.975	-2.4062	-2.7042	-2.7042	-2.3583	-2.7687	-2.6104	-2.6708	-3.0979	147.768	144.639	174.458	223.608	45.345	242.870	200.224	-63.007	-53.125	-43.878	247.392	238.857	-2.997	259.155	-51.093	209.853	9.3591e-05	0.00016267	4.7638e-05	318.65	1.8323e-06	1.6709e-06	665.74	106.47	1.3107e-06	2.2739e-06	271.85	94.523	36.102	12.95	1.5395e-06	38.79	9.0611e-06	6.509e-06	1.6433e-06	206.11	6.6984e-08	7.2138e-08	534.22	84.449	7.248e-08	7.4471e-08	203.72	72.351	27.456	9.6857	6.6653e-08	28.371	215.651	-28.602	-84.951	-79.234	14.590	4.023	-79.012	-73.656	36.534	-12.716	-73.959	-69.260	-68.606	-63.205	12.217	-64.338	-8191	255	
7306.752	1	1	0	0	0.29648	0.16159	0.19536	0.20134	0.21441	0.2724	0.20986	0.11346	0.13241	0.26985	0.12099	0.084485	0.18912	0.098944	0.18227	0.10702	-1.9542	-2.6063	-2.7521	-2.4125	-2.8312	-2.6229	-2.5146	-2.8354	-2.4375	-2.7917	-3.1	-2.4771	-2.8187	-2.7354	-2.3312	-2.9688	152.104	27.168	1.121	78.264	203.862	159.863	138.187	-59.881	252.905	57.433	40.016	7.200	261.790	147.190	189.045	158.935	9.2367e-05	0.00012804	4.2819e-05	321.21	8.7583e-07	1.7308e-06	665.56	106.46	5.2945e-07	1.232e-06	268.43	93.144	35.05	12.642	2.2008e-06	37.958	9.4199e-06	6.6225e-06	1.5712e-06	207.29	7.3566e-08	6.8365e-08	531.84	84.509	7.4413e-08	7.0754e-08	202.27	71.545	27.066	9.5739	6.6792e-08	27.968	202.684	-43.066	-87.931	-78.824	62.110	37.087	-78.807	-73.399	78.571	9.476	-73.674	-69.348	-68.923	-62.828	21.118	-64.253	-8191	255	
7306.848	1	1	0	0	0.076084	0.13225	0.12036	0.038789	0.12338	0.26279	0.20296	0.13397	0.17638	0.29537	0.10603	0.1244	0.077631	0.25222	0.18703	0.068882	-2.0854	-2.35	-2.8917	-2.3063	-2.7479	-2.6521	-2.7083	-2.8208	-2.4625	-2.3458	-2.8917	-2.6917	-2.7396	-2.8292	-2.4896	-2.8625	18.049	17.216	147.327	147.265	-32.628	45.998	4.142	168.223	-63.600	98.809	-24.757	214.916	-82.001	-80.059	-3.485	177.893	9.996e-05	8.7127e-05	1.5719e-05	326.26	9.5558e-07	2.2805e-06	658.47	105.23	4.3526e-07	8.7896e-07	266.69	92.996	34.879	12.843	2.0767e-06	38.213	9.1802e-06	6.4723e-06	1.537e-06	207.76	7.2797e-08	6.7377e-08	529.38	83.648	7.7121e-08	6.8402e-08	201.08	71.292	26.886	9.567	6.408e-08	28.015	206.808	244.602	-73.038	-78.989	3.869	77.892	-79.495	-73.265	7.000	45.601	-73.789	-69.553	-68.691	-62.063	11.962	-64.783	-8191	255	
7306.944	1	1	0	0	0.077382	0.20924	0.16816	0.17767	0.17178	0.20531	0.12743	0.29773	0.19185	0.30293	0.067101	0.23536	0.13623	0.051433	0.046435	0.081861	-2.1979	-2.5229	-2.9458	-2.5667	-2.85	-3.0354	-2.5125	-2.7521	-2.5771	-2.4813	-3.3125	-2.4771	-2.725	-2.8312	-2.3542	-2.6833	79.721	-3.669	48.742	-48.342	216.924	118.518	247.456	249.722	104.994	-15.666	211.991	120.690	3.059	-81.941	-88.302	92.514	8.8179e-05	0.0001368	3.3052e-05	319.07	1.1861e-06	1.032e-06	661.18	104.66	3.8205e-07	2.3011e-06	267.55	93.615	35.131	12.84	1.2689e-06	38.644	8.9167e-06	5.9668e-06	1.5091e-06	205.39	7.5366e-08	6.345e-08	530.94	83.399	7.3978e-08	6.7106e-08	201.69	71.733	27.026	9.5889	6.5708e-08	28.27	212.528	-54.137	232.498	-80.686	44.424	34.485	-79.135	-73.340	83.212	17.216	-74.208	-69.405	-68.285	-62.819	-3.238	-64.918	-8191	255	
7307.040	1	1	0	0	0.13246	0.082122	0.17031	0.17442	0.17763	0.24362	0.043739	0.12839	0.17488	0.19656	0.16378	0.043459	0.18245	0.18967	0.16179	0.0057464	-2.1979	-2.3958	-2.8229	-2.5521	-2.6312	-2.75	-2.4667	-2.7417	-2.7146	-2.6729	-3.0792	-2.7229	-2.3187	-2.8937	-2.1625	-2.8	-62.747	31.901	152.019	185.553	203.720	252.986	141.076	-58.907	222.062	7.712	177.320	202.048	93.257	97.883	-31.628	184.208	6.8884e-05	0.00013186	5.1136e-05	328.88	1.6565e-06	9.7672e-07	663.77	106.16	8.516e-07	2.5228e-06	270.41	94.516	35.451	12.919	5.4181e-07	39.376	8.9917e-06	5.8794e-06	1.5573e-06	208.2	6.575e-08	6.7223e-08	534.16	84.328	6.9982e-08	6.4337e-08	204.22	72.567	27.386	9.7479	6.3504e-08	28.676	210.101	-13.728	-91.025	-80.173	28.491	-38.358	-79.046	-73.240	51.583	14.383	-73.766	-68.925	-68.386	-62.617	-35.448	-64.400	-8191	255	
7307.136	1	1	0	0	0.32834	0.057113	0.082877	0.24058	0.2421	0.15895	0.23087	0.13155	0.061254	0.15129	0.12307	0.060401	0.20776	0.19254	0.31005	0.30995	-2.3708	-2.3063	-2.9042	-2.4167	-2.2812	-2.7125	-2.6021	-2.9208	-2.7479	-2.3917	-2.775	-2.4146	-2.4833	-2.9375	-2.2729	-2.5646	266.854	4.036	51.908	-69.827	-1.697	59.362	240.660	83.792	7.799	-70.776	192.296	15.590	178.887	-50.015	199.882	-15.180	8.9643e-05	5.4485e-05	2.6823e-05	325.19	1.2774e-06	1.2407e-06	663.88	107.02	2.0403e-07	2.3037e-06	272.47	94.448	35.504	12.939	2.2983e-07	38.634	8.8389e-06	5.8548e-06	1.5743e-06	209	7.0042e-08	6.2076e-08	534.36	84.821	6.7964e-08	6.1854e-08	204.33	72.449	27.285	9.6809	6.9603e-08	28.601	198.311	-69.192	-82.827	-79.505	14.458	26.957	-78.886	-73.297	-0.150	-1.959	-73.911	-68.888	-69.013	-62.792	-44.454	-64.791	-8191	255	
7307.233	1	1	0	0	0.14458	0.15112	0.046377	0.13199	0.15346	0.12922	0.15612	0.11351	0.23459	0.15036	0.31289	0.29551	0.12017	0.12537	0.1446	0.11071	-2.2188	-2.1354	-3.0229	-2.7	-2.4521	-2.8875	-2.4813	-2.525	-2.9208	-2.4146	-2.9417	-2.7104	-2.1021	-2.7562	-2.2917	-2.7458	-62.061	86.521	149.215	46.982	11.587	2.372	-91.414	127.460	220.073	64.792	184.204	250.892	-19.164	10.698	-10.507	264.807	8.4797e-05	0.00011984	1.4399e-05	324.2	8.7338e-07	2.2021e-06	664.63	105.84	1.0017e-06	2.0899e-06	267.01	93.664	35.268	12.85	6.7772e-07	38.328	8.2517e-06	5.8336e-06	1.6375e-06	207.4	6.9732e-08	5.9869e-08	532.69	83.984	6.8926e-08	6.2818e-08	201.99	71.927	27.091	9.6702	7.6487e-08	28.181	199.675	-55.350	-18.731	-79.750	49.504	15.336	-79.291	-73.660	39.371	-17.499	-73.891	-69.676	-69.220	-62.762	32.659	-64.604	-8191	255	
7307.353	1	1	0	0	0.072291	0.18613	0.11447	0.075339	0.14793	0.24226	0.26625	0.28298	0.042549	0.22333	0.16064	0.16719	0.19669	0.24055	0.11454	0.28869	-2.6813	-2.5146	-2.5229	-2.7104	-2.2938	-2.9333	-2.8042	-2.6583	-2.8021	-2.4083	-2.6667	-2.75	-2.2458	-2.8375	-2.7104	-2.3521	41.874	128.551	-77.554	-47.268	112.984	148.285	168.285	136.048	-22.004	220.478	-60.182	235.532	-65.175	-82.460	-47.679	-62.796	7.7212e-05	0.00012881	3.3748e-05	319.63	7.7904e-07	1.3462e-06	658.13	106.17	7.9526e-07	1.2066e-06	268.79	94.345	35.09	12.901	3.4869e-07	38.713	8.5705e-06	5.8696e-06	1.84e-06	205.96	6.6953e-08	6.22e-08	531.21	84.424	6.3548e-08	6.3797e-08	202.57	72.214	27.092	9.637	7.1447e-08	28.562	196.481	-48.824	-52.843	-79.541	-21.667	13.054	-78.690	-74.235	36.963	-3.632	-73.482	-69.555	-69.238	-62.544	-19.926	-64.474	-8191	255	
7307.448	1	1	0	0	0.041429	0.083259	0.13825	0.18013	0.15591	0.166	0.32664	0.18324	0.1672	0.11625	0.14435	0.10889	0.19681	0.25161	0.07297	0.13033	-2.2979	-2.4896	-2.6833	-2.7021	-2.3271	-2.8458	-2.6958	-2.4021	-2.8667	-2.3458	-2.6979	-2.7021	-2.1833	-2.5896	-2.55	-2.4604	176.400	120.566	114.366	101.271	-65.539	133.186	112.969	-52.119	107.892	-71.039	-9.451	232.513	179.784	-87.967	-88.400	170.644	0.00010987	5.1837e-05	4.561e-05	320.38	7.9622e-07	2.0027e-06	665.32	104.87	1.6704e-06	2.1483e-06	272.39	94.687	35.432	12.935	1.6466e-06	39.011	8.3666e-06	6.2679e-06	1.9007e-06	206.06	6.357e-08	7.078e-08	534.71	84.052	6.4565e-08	7.1626e-08	204.82	72.656	27.332	9.7591	7.399e-08	28.756	198.254	-5.560	-90.629	-80.185	60.144	-3.055	-78.720	-73.403	63.394	-14.813	-74.357	-69.777	-68.387	-62.755	30.267	-64.270	-8191	255	
7307.544	1	1	0	0	0.22475	0.36465	0.19953	0.048897	0.24525	0.2958	0.10902	0.061234	0.053396	0.19051	0.36278	0.19803	0.21249	0.19679	0.11705	0.18785	-2.3083	-2.425	-2.5646	-2.7354	-2.2417	-2.8354	-2.8	-2.3604	-3.0208	-2.5646	-2.4729	-2.7229	-2.4	-2.7479	-2.9604	-2.6833	66.347	224.309	103.819	212.014	257.314	48.702	-65.702	-30.504	26.616	7.624	227.026	-26.428	58.819	-65.942	-34.055	-79.713	9.0094e-05	0.00012187	2.4952e-05	324.72	8.8719e-07	2.7427e-06	666.93	105.69	1.858e-06	1.8818e-06	272.06	94.82	35.658	12.952	1.6779e-06	39.071	8.2201e-06	6.6803e-06	1.8394e-06	208.85	6.2328e-08	7.1428e-08	537.53	84.516	6.3665e-08	7.289e-08	204.75	72.792	27.379	9.7887	6.5716e-08	28.684	209.781	-17.394	264.085	-79.816	21.647	62.862	-79.046	-73.214	41.117	11.962	-74.310	-69.368	-68.273	-62.562	13.029	-64.929	-8191	255	
7307.640	1	1	0	0	0.077513	0.23951	0.11987	0.030656	0.22301	0.064923	0.23304	0.18202	0.28626	0.22166	0.18357	0.064807	0.1218	0.026904	0.26454	0.18506	-2.5062	-2.4792	-2.3354	-2.8937	-2.3375	-2.6562	-2.7021	-2.2479	-3.0042	-2.5167	-2.6104	-2.8312	-2.2875	-2.625	-2.6979	-2.5625	142.313	151.799	167.404	91.805	172.528	94.210	-1.164	240.622	212.814	208.480	136.482	115.642	24.001	8.220	195.111	202.000	9.3984e-05	4.0286e-05	2.8516e-05	326.58	7.6723e-07	1.8133e-06	665.12	105.38	1.2211e-06	1.287e-06	271.2	93.726	34.931	12.752	2.3385e-06	38.42	8.6105e-06	7.264e-06	1.7912e-06	207.6	7.0904e-08	7.3272e-08	535.69	84.252	7.0618e-08	7.2551e-08	203.74	71.902	27.105	9.6436	6.746e-08	28.209	205.904	266.690	265.003	-80.279	43.883	36.293	-78.872	-73.831	2.417	-37.483	-73.933	-69.540	-68.436	-62.916	20.686	-64.538	-8191	255	
#DATA ENDS
