BOXY.EXE: ISS Imagent and Oximeter Data Acquisition Program Version 0.80
Ascii Record File

#ACQ INFORMATION
2  Detector Channels 
16  External MUX Channels 
1  Auxiliary Channels 
5000  Waveform (CCF) Frequency (Hz)
1  Waveforms Skipped 
30  Waveforms Averaged 
1  Cycles Averaged 
16  Acquisitions per Waveform 
10.0806  Updata Rate (Hz) 

#FILE INFORMATION
TRUE -- External MUX Channel results are PARSED.
FALSE -- AC DC and Phase are NOT grouped.
TRUE -- Companion Program Settings File CREATED.
FALSE -- AC data not excluded
FALSE -- DC data not excluded
FALSE -- Phase data not excluded
FALSE -- Auxillary Chn. data not excluded
Tab delimiters

#CALIBRATION STATE
TRUE -- Waveform Calibration Values APPLIED.


#AUX CALIBRATION VALUES
Val Type	aux-1	

Term	1.0000e+00	
Factor	0.0000e+00	


#WF CALIBRATION VALUES
A = Detector Channel
Val Type	A-AC1	A-AC2	A-AC3	A-AC4	A-AC5	A-AC6	A-AC7	A-AC8	A-AC9	A-AC10	A-AC11	A-AC12	A-AC13	A-AC14	A-AC15	A-AC16	A-DC1	A-DC2	A-DC3	A-DC4	A-DC5	A-DC6	A-DC7	A-DC8	A-DC9	A-DC10	A-DC11	A-DC12	A-DC13	A-DC14	A-DC15	A-DC16	A-Ph1	A-Ph2	A-Ph3	A-Ph4	A-Ph5	A-Ph6	A-Ph7	A-Ph8	A-Ph9	A-Ph10	A-Ph11	A-Ph12	A-Ph13	A-Ph14	A-Ph15	A-Ph16	

Term	0.00000e+00	0.00000e+00	0.00000e+00	0.00000e+00	0.00000e+00	0.00000e+00	0.00000e+00	0.00000e+00	0.00000e+00	0.00000e+00	0.00000e+00	0.00000e+00	0.00000e+00	0.00000e+00	0.00000e+00	0.00000e+00	0.00000e+00	0.00000e+00	0.00000e+00	0.00000e+00	0.00000e+00	0.00000e+00	0.00000e+00	0.00000e+00	0.00000e+00	0.00000e+00	0.00000e+00	0.00000e+00	0.00000e+00	0.00000e+00	0.00000e+00	0.00000e+00	0.00000e+00	0.00000e+00	0.00000e+00	0.00000e+00	0.00000e+00	0.00000e+00	0.00000e+00	0.00000e+00	0.00000e+00	0.00000e+00	0.00000e+00	0.00000e+00	0.00000e+00	0.00000e+00	0.00000e+00	0.00000e+00	
Factor	1.00000e+00	1.00000e+00	1.00000e+00	1.00000e+00	1.00000e+00	1.00000e+00	1.00000e+00	1.00000e+00	1.00000e+00	1.00000e+00	1.00000e+00	1.00000e+00	1.00000e+00	1.00000e+00	1.00000e+00	1.00000e+00	1.00000e+00	1.00000e+00	1.00000e+00	1.00000e+00	1.00000e+00	1.00000e+00	1.00000e+00	1.00000e+00	1.00000e+00	1.00000e+00	1.00000e+00	1.00000e+00	1.00000e+00	1.00000e+00	1.00000e+00	1.00000e+00	X	X	X	X	X	X	X	X	X	X	X	X	X	X	X	X	

B = Detector Channel
Val Type	B-AC1	B-AC2	B-AC3	B-AC4	B-AC5	B-AC6	B-AC7	B-AC8	B-AC9	B-AC10	B-AC11	B-AC12	B-AC13	B-AC14	B-AC15	B-AC16	B-DC1	B-DC2	B-DC3	B-DC4	B-DC5	B-DC6	B-DC7	B-DC8	B-DC9	B-DC10	B-DC11	B-DC12	B-DC13	B-DC14	B-DC15	B-DC16	B-Ph1	B-Ph2	B-Ph3	B-Ph4	B-Ph5	B-Ph6	B-Ph7	B-Ph8	B-Ph9	B-Ph10	B-Ph11	B-Ph12	B-Ph13	B-Ph14	B-Ph15	B-Ph16	

Term	0.00000e+00	0.00000e+00	0.00000e+00	0.00000e+00	0.00000e+00	0.00000e+00	0.00000e+00	0.00000e+00	0.00000e+00	0.00000e+00	0.00000e+00	0.00000e+00	0.00000e+00	0.00000e+00	0.00000e+00	0.00000e+00	0.00000e+00	0.00000e+00	0.00000e+00	0.00000e+00	0.00000e+00	0.00000e+00	0.00000e+00	0.00000e+00	0.00000e+00	0.00000e+00	0.00000e+00	0.00000e+00	0.00000e+00	0.00000e+00	0.00000e+00	0.00000e+00	-2.23001e+01	-1.31118e+02	-1.27019e+02	-1.81666e+02	-4.53864e+01	-6.84460e+01	-1.57174e+02	-1.62015e+02	-3.15602e+01	-6.98503e+01	-1.72144e+02	-1.70437e+02	-1.80168e+02	-1.77216e+02	-5.37287e+01	-1.50443e+02	
Factor	2.70342e-05	1.78126e-04	4.65819e-05	1.57117e-01	2.22186e-06	1.88121e-06	1.69599e-01	6.11707e-02	1.78797e-06	1.71761e-06	8.41507e-02	2.94470e-02	3.14763e-02	9.40915e-03	1.96861e-06	1.32475e-02	1.23498e-05	1.95506e-05	5.43040e-06	8.00331e-02	1.95624e-07	2.17931e-07	8.12340e-02	3.12191e-02	1.96656e-07	2.17415e-07	4.18388e-02	1.46241e-02	1.62889e-02	4.86224e-03	2.05225e-07	6.61259e-03	X	X	X	X	X	X	X	X	X	X	X	X	X	X	X	X	



#DISTANCE SETTINGS
A = Detector Channel
A-1	A-2	A-3	A-4	A-5	A-6	A-7	A-8	A-9	A-10	A-11	A-12	A-13	A-14	A-15	A-16	

2.5000e+00	3.0000e+00	2.5000e+00	3.0000e+00	2.0000e+00	3.0000e+00	1.5000e+00	3.0000e+00	3.0000e+00	3.0000e+00	3.0000e+00	3.0000e+00	3.0000e+00	3.0000e+00	1.5000e+00	3.0000e+00	

B = Detector Channel
B-1	B-2	B-3	B-4	B-5	B-6	B-7	B-8	B-9	B-10	B-11	B-12	B-13	B-14	B-15	B-16	

1.0000e+01	1.0000e+01	1.0000e+01	1.4400e+00	1.0000e+01	1.0000e+01	1.5100e+00	1.9400e+00	1.0000e+01	1.0000e+01	1.9900e+00	2.4900e+00	2.4100e+00	2.9000e+00	1.0000e+01	2.9800e+00	




#DATA BEGINS
time	group	step	mark	flag	A-AC1	A-AC2	A-AC3	A-AC4	A-AC5	A-AC6	A-AC7	A-AC8	A-AC9	A-AC10	A-AC11	A-AC12	A-AC13	A-AC14	A-AC15	A-AC16	A-DC1	A-DC2	A-DC3	A-DC4	A-DC5	A-DC6	A-DC7	A-DC8	A-DC9	A-DC10	A-DC11	A-DC12	A-DC13	A-DC14	A-DC15	A-DC16	A-Ph1	A-Ph2	A-Ph3	A-Ph4	A-Ph5	A-Ph6	A-Ph7	A-Ph8	A-Ph9	A-Ph10	A-Ph11	A-Ph12	A-Ph13	A-Ph14	A-Ph15	A-Ph16	B-AC1	B-AC2	B-AC3	B-AC4	B-AC5	B-AC6	B-AC7	B-AC8	B-AC9	B-AC10	B-AC11	B-AC12	B-AC13	B-AC14	B-AC15	B-AC16	B-DC1	B-DC2	B-DC3	B-DC4	B-DC5	B-DC6	B-DC7	B-DC8	B-DC9	B-DC10	B-DC11	B-DC12	B-DC13	B-DC14	B-DC15	B-DC16	B-Ph1	B-Ph2	B-Ph3	B-Ph4	B-Ph5	B-Ph6	B-Ph7	B-Ph8	B-Ph9	B-Ph10	B-Ph11	B-Ph12	B-Ph13	B-Ph14	B-Ph15	B-Ph16	aux-1	digaux	

570.585	1	1	0	768	0.042705	0.29378	0.050886	0.094584	0.067092	0.079333	0.41333	0.20813	0.29844	0.16197	0.37617	0.21244	0.13279	0.1192	0.053534	0.1718	-2.6813	-3.1688	-2.7792	-3.3667	-2.7729	-3.2146	-3.4021	-2.9667	-3.2667	-3.2667	-2.9437	-3.35	-2.9667	-3.2104	-3.1312	-3.0354	-135.154	-1.715	-62.358	-140.833	40.184	-141.438	105.667	141.645	126.123	-149.258	157.062	127.863	-167.656	70.038	55.004	90.260	0.00076449	0.00042575	0.00013821	1357.3	5.5221e-06	7.1119e-06	1352.8	366.73	6.8826e-06	4.5565e-06	418.03	140.34	121.6	41.698	6.5598e-06	51.804	0.00057308	0.00053398	0.00014372	1379.6	5.8854e-06	5.4914e-06	1377.3	374.09	5.7235e-06	5.9209e-06	427.24	143.34	124.62	42.988	5.6501e-06	53.184	-57.190	-93.126	-67.406	-157.413	-24.302	-12.540	-157.810	-153.035	-11.150	-24.341	-153.583	-149.086	-148.609	-144.109	-27.203	-144.987	-8191	255	
570.681	1	1	0	0	0.18519	0.33475	0.13365	0.069161	0.15452	0.17172	0.25716	0.25739	0.12649	0.12747	0.14157	0.26269	0.090141	0.17995	0.25949	0.1003	-2.7521	-2.8708	-2.85	-3.5812	-2.875	-2.8625	-3.5083	-3.0062	-2.975	-3.0958	-2.9146	-3.2979	-3.1792	-3.1167	-3.1937	-2.9437	0.173	14.904	-1.661	105.804	-22.606	-142.845	95.427	120.226	54.478	-121.443	-118.241	-154.656	154.803	78.888	-84.933	143.894	0.0006802	0.00061747	0.00018021	1359.5	6.9316e-06	4.4339e-06	1353.9	369.04	5.4327e-06	4.7991e-06	419.98	140.25	121.96	41.853	6.4042e-06	51.733	0.00055674	0.00054082	0.00014413	1379.3	5.8695e-06	5.6476e-06	1378.2	375.39	5.8182e-06	5.8593e-06	427.67	143.32	124.69	43.022	5.5855e-06	53.16	-52.515	-79.877	-67.157	-157.408	-25.295	-3.786	-157.739	-152.798	-18.519	-4.229	-153.527	-149.044	-148.770	-144.093	-28.386	-144.899	-8191	255	
570.778	1	1	0	0	0.21876	0.027592	0.042698	0.23733	0.22219	0.029156	0.3604	0.14696	0.076801	0.12988	0.11686	0.22285	0.26419	0.27519	0.16795	0.092804	-2.5687	-3.1375	-2.6396	-3.3583	-3.0875	-2.8625	-3.4396	-3.0021	-3.0979	-3.3208	-2.7562	-3.3063	-3.1708	-3.0583	-3.2625	-3.0271	38.161	-11.852	-0.114	72.977	160.663	54.112	122.838	112.341	-149.208	-35.670	-123.217	122.682	121.714	105.747	107.157	-141.361	0.00070646	0.00047477	0.00015964	1351.6	8.8194e-06	5.0062e-06	1355.1	366	7.1276e-06	5.7846e-06	417.38	139.78	122.06	41.614	5.9582e-06	51.52	0.00057378	0.00052102	0.00015225	1375.7	5.9107e-06	5.8905e-06	1377.3	373.81	5.8776e-06	5.9617e-06	427.38	143.08	124.47	42.895	5.7754e-06	53.179	-51.841	-81.960	-85.600	-157.466	-10.288	-28.590	-157.828	-153.068	-9.566	-9.571	-153.480	-148.986	-148.336	-143.975	-27.114	-144.641	-8191	255	
570.872	1	1	0	0	0.09044	0.08576	0.19566	0.42823	0.14067	0.12532	0.31305	0.043388	0.11997	0.17983	0.17307	0.25675	0.11956	0.16279	0.05087	0.22369	-2.8083	-2.9813	-2.8167	-3.2979	-3.2	-2.8438	-3.5854	-3.0771	-3.2146	-3.2812	-3.1979	-3.2875	-3.3438	-2.8271	-3.2938	-3.1792	-161.828	-66.364	-13.911	185.130	73.719	-30.183	-168.818	177.587	-117.103	109.781	112.359	161.098	-149.329	-1.473	-58.631	150.428	0.00072355	0.00053093	0.0001978	1356.9	5.8374e-06	5.364e-06	1357	365.92	6.0991e-06	5.0218e-06	419.92	139.99	121.81	41.435	4.8647e-06	51.455	0.00058252	0.00053141	0.00015145	1380.4	6.0591e-06	5.8955e-06	1379.6	372.98	5.9882e-06	5.9114e-06	427.92	143.15	124.72	42.901	6.0062e-06	53.218	-51.335	-71.715	-80.642	-157.500	-14.215	-4.821	-157.754	-152.903	-0.577	3.557	-153.497	-149.119	-148.516	-143.924	-6.408	-144.642	-8191	255	
570.968	1	1	0	0	0.059439	0.082056	0.19967	0.12395	0.16718	0.094443	0.37589	0.15597	0.24781	0.15174	0.19932	0.28801	0.23315	0.11727	0.11532	0.1376	-2.3854	-3.1063	-2.9354	-3.1833	-3.0896	-2.8854	-3.3646	-3.1604	-2.9771	-3.2958	-2.9813	-3.1042	-3.1771	-2.9	-2.9917	-3.1021	61.574	94.322	153.416	147.445	78.082	-142.268	65.836	107.604	-14.044	60.780	160.788	-165.289	150.419	-162.230	-26.397	104.618	0.00068123	0.00062229	8.8118e-05	1354.1	4.7123e-06	5.7834e-06	1358.6	367.66	6.2135e-06	4.0701e-06	418.74	140.3	121.67	41.746	6.0395e-06	51.455	0.00057622	0.00054542	0.00015031	1377.9	6.1088e-06	5.9609e-06	1378.7	374.34	5.9669e-06	5.8231e-06	426.97	143.34	124.45	42.976	5.857e-06	53.074	-51.651	-79.567	-78.583	-157.604	-16.428	-18.958	-157.626	-152.946	0.229	-31.359	-153.516	-149.289	-148.794	-143.861	-21.331	-144.647	-8191	255	
571.066	1	1	0	0	0.14007	0.19649	0.16947	0.1452	0.15233	0.05216	0.3053	0.10335	0.24813	0.37764	0.10687	0.1022	0.15161	0.069689	0.12001	0.10154	-2.6229	-3.2208	-2.8063	-3.1771	-3.3333	-2.9417	-3.3833	-2.9875	-2.8625	-3.4375	-3.0729	-3.0542	-3.3667	-2.9375	-3.2042	-3.0167	47.482	64.570	109.948	162.833	178.545	24.839	151.720	63.493	86.811	99.002	-139.465	-170.422	-168.954	-157.472	-162.677	62.733	0.00068301	0.00040744	0.0001234	1355.9	5.2208e-06	4.1432e-06	1354.3	366.81	7.3657e-06	5.0047e-06	416.92	140.51	122.02	41.656	7.3062e-06	51.792	0.00057722	0.00053613	0.00015117	1379.5	5.9013e-06	5.9091e-06	1377.9	374.16	6.0898e-06	5.829e-06	427.03	143.25	124.44	42.951	5.9584e-06	53.215	-53.784	-74.421	-77.954	-157.548	-36.295	4.792	-157.782	-152.945	-5.731	-34.310	-153.583	-149.384	-148.623	-143.933	-15.321	-144.787	-8191	255	
571.185	1	1	0	0	0.28502	0.15095	0.30805	0.31153	0.073408	0.19665	0.09206	0.12659	0.21209	0.019905	0.10565	0.29787	0.17495	0.16462	0.035858	0.26756	-2.4562	-3.1979	-2.9229	-3.2354	-3.2208	-2.9292	-3.4542	-3.1458	-2.7104	-3.275	-2.8792	-2.8479	-3.2479	-2.9292	-3.0458	-3.2375	91.849	111.622	-75.440	125.893	1.492	-60.622	179.723	59.150	98.739	-75.805	-109.823	165.620	75.271	128.118	-121.960	87.632	0.00070292	0.0006328	0.00011354	1357	7.6697e-06	5.5958e-06	1357.5	367.78	6.6675e-06	5.1046e-06	418.82	140.45	122.26	41.819	5.0986e-06	51.482	0.0005852	0.0005319	0.00015347	1378.2	6.0741e-06	5.9536e-06	1377.4	373.98	6.0271e-06	5.7841e-06	427.38	143.42	124.7	43.024	5.9639e-06	53.134	-55.494	-75.015	-80.666	-157.633	-7.539	-16.767	-157.868	-152.932	-0.152	-5.345	-153.435	-148.999	-148.743	-143.898	-29.063	-144.753	-8191	255	
571.281	1	1	0	0	0.11756	0.11207	0.15246	0.060262	0.22806	0.16535	0.22728	0.18277	0.16516	0.16961	0.16103	0.25645	0.13289	0.16235	0.29279	0.066057	-2.4646	-3.2458	-2.9708	-3.2396	-3.1417	-2.8333	-3.2146	-3.2313	-2.6479	-3.2604	-3.1917	-2.9229	-3.4646	-3.0125	-2.9458	-3.2271	120.402	-120.711	168.721	114.442	-92.455	3.937	124.529	69.158	132.004	-22.633	157.035	72.719	-120.682	68.634	-1.324	-105.073	0.00070573	0.00039234	0.00014107	1356.3	7.6626e-06	5.0378e-06	1355.4	366.97	8.0035e-06	5.5625e-06	419.3	140.07	121.99	41.685	6.9854e-06	51.537	0.00057637	0.00052216	0.00015762	1379.1	5.9568e-06	5.9718e-06	1380.2	374.67	6.1025e-06	5.7071e-06	427.72	143.35	124.66	42.939	5.9177e-06	53.271	-53.512	-93.298	-95.158	-157.591	-12.585	-19.508	-157.901	-152.947	-19.529	-34.518	-153.282	-149.212	-148.495	-144.063	-14.762	-144.906	-8191	255	
571.377	1	1	0	0	0.16551	0.17559	0.12001	0.25205	0.13759	0.084747	0.3463	0.19178	0.32884	0.18541	0.24806	0.042964	0.096571	0.27956	0.24365	0.063766	-2.2521	-3.1542	-3.1063	-3.0083	-3.2333	-2.7208	-3.2333	-3.2229	-2.6771	-3.4375	-3.2667	-2.8146	-3.3208	-3.1188	-2.9979	-3.1917	-111.613	-89.825	19.101	152.909	40.610	-79.870	123.825	154.954	-57.061	-7.457	158.423	-6.092	129.755	178.667	180.891	120.840	0.00068648	0.00042755	0.00013168	1361.4	5.9318e-06	5.6717e-06	1358.2	366.08	7.2273e-06	5.7656e-06	418.07	140.64	121.55	41.653	3.9349e-06	51.713	0.00058353	0.00054497	0.00015573	1380.1	5.9621e-06	6.1089e-06	1378.6	373.87	6.0287e-06	6.0654e-06	427.93	143.3	124.6	42.942	5.792e-06	53.174	-53.357	-73.408	-83.471	-157.635	13.208	-24.294	-157.650	-152.805	-11.210	1.340	-153.533	-149.282	-148.562	-143.920	-5.525	-144.937	-8191	255	
571.473	1	1	0	0	0.020267	0.079839	0.099135	0.10072	0.11234	0.094418	0.19971	0.18933	0.28325	0.13884	0.090429	0.058835	0.020672	0.30472	0.05402	0.19937	-2.4271	-3.0646	-3.1042	-2.9271	-3.0604	-3.05	-3.3521	-3.4667	-2.8312	-3.0271	-3.2771	-2.9188	-3.3125	-3.175	-2.8292	-3.2625	-99.621	19.175	-119.709	-145.599	55.690	-58.701	131.545	-123.376	44.893	143.633	50.732	144.485	-97.659	154.609	182.700	-145.385	0.00069171	0.00045415	0.00012513	1361.1	5.9815e-06	5.9756e-06	1356.4	367.68	7.6301e-06	3.5448e-06	419.59	140.53	121.56	41.747	6.7085e-06	51.629	0.00058093	0.00052225	0.00014931	1381.8	5.7326e-06	5.7393e-06	1378.8	374.27	5.4347e-06	5.3457e-06	427.79	143.33	124.44	42.949	5.4692e-06	53.125	-54.243	-94.917	-72.273	-157.655	-38.333	-3.784	-157.692	-152.806	-10.765	-16.108	-153.576	-149.207	-148.474	-143.853	-27.776	-144.888	-8191	255	
571.569	1	1	0	0	0.087421	0.20151	0.14169	0.35574	0.10822	0.1703	0.19201	0.11074	0.19762	0.20191	0.079371	0.10894	0.18634	0.12654	0.10317	0.18756	-2.4979	-2.9542	-3.2396	-3.0625	-3.1667	-3.0729	-3.0563	-3.2708	-2.9625	-2.9625	-3.2708	-3.0417	-3.2438	-3.2375	-2.8646	-3.1583	82.125	102.833	-0.997	-167.546	-45.247	179.403	-170.550	115.262	-169.453	87.213	122.342	-162.293	-142.020	-70.121	121.706	142.080	0.00070763	0.00056898	0.00014912	1356.6	8.8409e-06	4.6242e-06	1361.1	367.2	7.2789e-06	4.5041e-06	419.7	140.28	122.01	41.699	6.0866e-06	51.601	0.00054498	0.00047699	0.0001319	1377.8	5.107e-06	5.0792e-06	1379.8	373.82	5.1311e-06	4.8484e-06	427.28	143.08	124.52	42.949	4.9506e-06	53.109	-54.461	-83.244	-84.381	-157.550	-23.812	-42.029	-157.788	-153.029	-2.464	-27.377	-153.543	-149.256	-148.389	-143.903	-25.953	-144.850	-8191	255	
571.666	1	1	0	0	0.099404	0.28008	0.26659	0.21526	0.057157	0.10357	0.20753	0.31987	0.1688	0.29506	0.16358	0.23952	0.080334	0.31546	0.16046	0.053062	-2.5146	-3.1083	-3.2021	-2.9729	-3.2146	-3.1417	-2.9979	-3.275	-2.8646	-2.9771	-3.4229	-2.8708	-3.1292	-3.1437	-2.7521	-3.4208	-115.474	-83.958	63.441	128.671	61.692	51.887	105.292	132.019	-22.856	74.833	22.874	-122.824	-60.860	156.281	-110.856	-149.807	0.00067626	0.00056947	0.00017558	1355.1	7.1868e-06	5.5083e-06	1357.7	367.26	6.4094e-06	3.177e-06	418.05	140.57	121.42	41.836	6.3613e-06	51.725	0.00051537	0.00045182	0.00012093	1377.9	4.7806e-06	4.8018e-06	1379.8	374.56	4.9885e-06	4.4711e-06	426.79	143.22	124.27	42.894	4.9519e-06	53.136	-55.627	-79.095	-79.064	-157.558	-12.679	-16.760	-157.712	-153.112	-11.107	-14.750	-153.212	-149.077	-148.673	-144.148	-10.376	-144.696	-8191	255	
571.786	1	1	0	0	0.19747	0.12793	0.24273	0.13284	0.052259	0.11777	0.12328	0.14738	0.23299	0.14184	0.047707	0.36453	0.072014	0.14622	0.20584	0.16185	-2.4875	-2.9375	-3.0792	-3.1896	-3.1396	-3.1917	-2.9208	-3.3438	-2.8688	-2.9271	-3.5042	-2.9313	-2.9604	-3.3563	-2.7021	-3.2604	167.099	-31.961	156.684	152.557	1.387	-134.405	19.211	146.106	-28.198	117.325	-166.295	-155.648	120.652	-160.649	-119.240	47.715	0.00070037	0.00049812	0.00011803	1358.8	6.7896e-06	4.9126e-06	1353.9	367.23	7.0299e-06	5.0079e-06	419.7	140.48	122.41	41.779	4.2365e-06	51.695	0.00052077	0.00043366	0.00012336	1379.9	4.8857e-06	5.0419e-06	1378	374.61	5.0643e-06	4.8393e-06	427.71	143.53	124.58	42.986	5.2285e-06	53.255	-56.057	-73.352	-67.604	-157.406	-27.428	11.943	-157.755	-153.065	2.380	-19.612	-153.470	-148.976	-148.694	-144.108	-11.429	-144.940	-8191	255	
571.881	1	1	0	0	0.21471	0.21547	0.2246	0.21938	0.22824	0.16767	0.18704	0.16648	0.098051	0.23016	0.1268	0.014062	0.16168	0.16015	0.24335	0.036902	-2.6458	-2.8708	-3.3479	-3.1958	-3.0375	-3.1521	-3.1	-3.2062	-2.9729	-2.7792	-3.2771	-2.9708	-3.1479	-3.3354	-2.7188	-3.2271	173.380	-17.135	-157.847	111.266	25.906	121.258	132.635	142.065	76.013	-47.984	-29.055	117.130	-139.315	67.210	61.410	61.285	0.0007075	0.00048043	0.00011618	1355.9	6.2135e-06	6.2771e-06	1357.4	368.6	6.1487e-06	4.1297e-06	419.19	140.22	122.32	41.743	3.2987e-06	51.576	0.00054962	0.00046909	0.00013187	1380.4	5.1812e-06	5.3461e-06	1378.8	374.76	5.5129e-06	5.3738e-06	427.43	143.4	124.59	42.971	5.5432e-06	53.111	-53.905	-75.773	-61.621	-157.576	-27.797	-15.507	-157.688	-152.890	-37.228	-21.090	-153.561	-149.171	-148.487	-143.752	-25.244	-144.955	-8191	255	
571.977	1	1	0	0	0.059681	0.16826	0.16215	0.25871	0.25593	0.065379	0.18582	0.23216	0.19515	0.23133	0.22345	0.19236	0.16958	0.20564	0.2072	0.24703	-2.7542	-2.9	-3.2333	-3.1979	-2.9917	-3.3792	-3.075	-3.1604	-3.1375	-2.6271	-3.3063	-2.9938	-2.7792	-3.2687	-2.8521	-3.0958	18.768	187.132	138.861	-166.955	-57.163	-65.689	111.068	110.391	188.854	115.943	-108.850	121.455	-149.366	178.569	66.079	128.600	0.00068377	0.0004759	0.00010753	1358.3	8.2851e-06	3.2703e-06	1357.5	368.28	6.8455e-06	5.5185e-06	417.92	140.06	122.21	41.799	6.3571e-06	51.892	0.0005473	0.00050591	0.00013635	1382.4	5.6128e-06	5.4619e-06	1381.5	375	5.7833e-06	5.7253e-06	427.63	143.33	124.93	42.998	5.7506e-06	53.332	-53.212	-88.940	-96.500	-157.462	-11.576	-22.214	-157.567	-152.801	-20.014	-11.497	-153.346	-149.219	-148.458	-143.865	-20.608	-144.896	-8191	255	
572.073	1	1	0	0	0.18243	0.23348	0.1396	0.29182	0.34229	0.0058382	0.47508	0.17939	0.084003	0.21001	0.22842	0.21706	0.24463	0.31102	0.036298	0.21352	-2.8708	-2.7542	-3.0479	-3.1562	-2.8625	-3.3333	-3.1396	-3.2646	-3.2083	-2.8792	-3.3667	-3.1521	-2.9479	-3.35	-2.7812	-2.9896	-22.015	-13.327	39.908	110.100	-115.239	104.709	108.379	183.100	56.850	-98.590	169.799	73.539	-170.376	-132.045	47.506	111.911	0.00072404	0.00056476	0.000138	1361.7	6.7595e-06	3.6793e-06	1357.9	366.99	5.5102e-06	4.0278e-06	419.42	140.43	121.57	41.702	5.8241e-06	51.508	0.00057354	0.00050705	0.00013622	1381.5	5.8345e-06	5.3706e-06	1378.8	374.84	5.4888e-06	5.6478e-06	427.34	143.48	124.4	42.991	5.5441e-06	53.233	-55.475	-82.813	-73.090	-157.531	-10.751	-0.305	-157.661	-152.764	-4.846	-35.431	-153.418	-148.940	-148.442	-144.118	-37.332	-144.631	-8191	255	
572.169	1	1	0	0	0.075186	0.19179	0.32202	0.35179	0.086146	0.24253	0.18291	0.053048	0.081014	0.23551	0.36953	0.11432	0.3407	0.15862	0.072105	0.19384	-2.825	-2.6229	-3.0854	-3.2438	-2.7771	-3.1542	-3.0875	-3.0854	-3.1562	-2.8271	-3.2375	-3.1229	-3.0312	-3.3083	-2.9521	-2.9667	113.046	-169.868	119.026	137.995	11.271	153.608	61.297	125.475	145.748	-101.274	163.873	97.613	169.725	108.542	-158.691	57.428	0.00069521	0.00051959	0.00011205	1359	6.3212e-06	3.8625e-06	1356.4	367.4	5.5795e-06	6.6048e-06	417.34	140.46	121.6	41.649	6.7938e-06	51.557	0.00055883	0.00050449	0.00013219	1381.5	5.5321e-06	5.2953e-06	1378	374.67	5.2315e-06	5.2728e-06	427.28	143.26	124.41	42.971	5.288e-06	53.173	-54.844	-61.892	-71.915	-157.570	-26.078	-14.244	-157.728	-152.904	-10.427	-43.637	-153.463	-148.980	-148.691	-143.940	-12.423	-144.721	-8191	255	
572.265	1	1	0	0	0.13849	0.14975	0.060493	0.22274	0.14648	0.16141	0.22144	0.1264	0.20989	0.11008	0.19608	0.27077	0.026077	0.045092	0.1722	0.23515	-2.9083	-2.9437	-3.1063	-3.3333	-2.7146	-3.3229	-3.1646	-3.1063	-3.3563	-2.9521	-3.3167	-3.4021	-2.8438	-3.1417	-3.0125	-3.05	-21.888	86.309	-136.928	160.131	-126.920	136.191	144.352	-161.798	-9.814	109.421	143.563	188.017	-62.312	177.890	-44.806	147.298	0.00069719	0.00057811	0.00015488	1356.7	6.2674e-06	5.2919e-06	1357.3	366.59	6.007e-06	3.5452e-06	417.89	140.59	122.37	41.968	7.7218e-06	51.802	0.00053474	0.00049194	0.00013249	1377.4	5.3862e-06	5.0846e-06	1377.8	374.21	5.5596e-06	5.6474e-06	427.44	143.49	124.74	43.023	5.9622e-06	53.317	-56.413	-68.117	-90.465	-157.590	-40.482	-35.523	-157.770	-153.008	-13.633	-13.209	-153.453	-149.308	-148.765	-144.142	-7.717	-144.785	-8191	255	
572.361	1	1	0	0	0.13854	0.18845	0.21332	0.16819	0.24853	0.098417	0.31711	0.3087	0.090446	0.21714	0.19643	0.12362	0.13006	0.11001	0.013896	0.16615	-2.8667	-2.9625	-2.9583	-3.3875	-2.7896	-3.1229	-3.2396	-3.0604	-3.2021	-3.0563	-3.1396	-3.3125	-2.8958	-3.2438	-3.2167	-3.0208	-116.644	46.295	6.110	3.790	-46.617	-85.137	118.080	171.785	22.256	-127.387	130.004	-154.651	109.250	134.387	91.972	181.278	0.00070156	0.00052189	0.00017765	1363.4	7.9633e-06	4.9271e-06	1358.7	367.25	6.1855e-06	4.4323e-06	420.92	140.09	121.83	41.933	6.8363e-06	51.536	0.00057673	0.00054856	0.00014958	1382	6.1899e-06	5.9191e-06	1381.2	374.77	6.0459e-06	6.1094e-06	428.1	143.44	124.84	43.089	6.4372e-06	53.296	-54.216	-86.251	-79.649	-157.453	-35.944	-32.281	-157.594	-152.872	-17.401	-14.574	-153.468	-149.067	-148.354	-143.885	-29.789	-144.703	-8191	255	
572.458	1	1	0	0	0.20525	0.20916	0.068074	0.31932	0.21046	0.093968	0.367	0.18111	0.14969	0.026666	0.24226	0.12242	0.049823	0.069352	0.10403	0.13423	-2.7521	-3.1479	-2.9542	-3.3396	-2.9021	-3.0729	-3.2125	-2.8	-3.2375	-3.0792	-3.1708	-3.3312	-2.9875	-3.2771	-3.2104	-3.0125	-53.582	186.441	16.611	-156.849	60.494	170.097	111.185	128.045	-61.992	32.287	163.391	-117.443	-19.186	78.404	89.911	-50.061	0.00070893	0.00045148	9.9825e-05	1362.9	5.6048e-06	4.4956e-06	1357.6	367.66	4.7921e-06	5.1376e-06	418.05	140.32	121.95	41.782	5.2682e-06	51.665	0.00059253	0.00057279	0.00015634	1382.2	6.3545e-06	6.2011e-06	1381.3	374.58	6.0677e-06	6.4337e-06	427.79	143.53	124.72	43.032	6.3915e-06	53.297	-54.985	-84.196	-93.366	-157.424	-40.713	-16.823	-157.774	-152.974	-15.363	-28.451	-153.300	-149.106	-148.669	-143.908	0.843	-144.536	-8191	255	
572.554	1	1	0	0	0.25089	0.24384	0.15615	0.256	0.32667	0.081638	0.29096	0.17524	0.094123	0.17785	0.20056	0.23128	0.13253	0.09429	0.076737	0.27966	-2.8812	-3.0417	-2.8458	-3.3438	-2.7375	-3.0938	-3.3458	-2.9917	-3.3312	-2.9771	-3.0917	-3.425	-2.7979	-3.0458	-3.2917	-2.8229	-42.511	56.314	78.694	94.582	-144.682	83.719	129.080	179.366	102.949	162.880	89.891	187.971	169.762	100.954	66.248	158.224	0.00069408	0.00058018	0.00012116	1359	6.3552e-06	6.1897e-06	1355.7	366.02	5.1013e-06	4.1517e-06	417.48	140.44	122.29	41.637	4.7172e-06	51.532	0.00060352	0.00060786	0.00016454	1380	6.5497e-06	6.4258e-06	1377.2	374.05	6.2778e-06	6.609e-06	426.96	143.37	124.69	43.06	6.7344e-06	53.277	-53.885	-75.186	-93.394	-157.579	-31.459	-17.323	-157.752	-152.827	-8.683	-40.851	-153.474	-149.190	-148.566	-144.129	-6.119	-144.888	-8191	255	
572.674	1	1	0	0	0.25548	0.13178	0.27036	0.50885	0.084183	0.086836	0.27108	0.064157	0.30933	0.041677	0.16962	0.105	0.053722	0.09357	0.1512	0.094739	-2.8438	-3.025	-2.8896	-3.4229	-2.8438	-3.0646	-3.325	-2.9646	-3.1729	-3.1937	-3.1292	-3.175	-3.1167	-3.0563	-3.1208	-2.9125	-119.343	-158.262	138.213	147.313	44.292	61.927	105.422	-74.866	188.517	-37.393	66.029	-15.097	-84.132	157.885	78.993	108.439	0.00071134	0.0004641	0.00011903	1362.3	7.8124e-06	4.8025e-06	1357.5	366.98	6.5953e-06	4.799e-06	419.22	140.45	121.96	41.657	5.5718e-06	51.706	0.00062338	0.00060892	0.00016878	1383.3	6.6529e-06	6.6474e-06	1381.6	374.66	6.6318e-06	6.8472e-06	427.86	143.58	124.7	43.034	6.7575e-06	53.298	-52.365	-90.283	-67.027	-157.700	-24.246	-32.983	-157.684	-152.939	-9.297	-10.603	-153.339	-149.137	-148.482	-143.994	6.702	-144.896	-8191	255	
572.746	1	1	0	0	0.15527	0.093342	0.13545	0.17941	0.097583	0.17967	0.19329	0.067933	0.21372	0.20824	0.133	0.29059	0.15516	0.21005	0.21168	0.093697	-2.6542	-3.0563	-2.7771	-3.2771	-2.9875	-3.1646	-3.4188	-2.925	-2.8979	-3.0417	-3.075	-3.2604	-3.1125	-2.9437	-3.2042	-2.9875	106.722	150.387	18.180	139.425	-108.637	-91.784	122.889	131.988	-113.592	76.723	115.765	146.800	112.957	-135.925	-24.239	124.680	0.0007172	0.0006257	0.0001459	1358.1	6.8461e-06	4.1092e-06	1356.5	367.2	6.3308e-06	4.6207e-06	416.47	139.99	121.86	41.853	5.6106e-06	51.482	0.0006277	0.00061878	0.00017167	1380.9	6.8526e-06	6.8213e-06	1379.3	374.24	6.5745e-06	6.7562e-06	427.13	143.42	124.63	43.018	6.6454e-06	53.171	-56.804	-97.842	-60.027	-157.568	-29.260	-11.767	-157.601	-153.083	-19.066	-14.861	-153.312	-149.308	-148.549	-143.767	-9.062	-144.801	-8191	255	
572.867	1	1	0	0	0.226	0.20534	0.21306	0.30289	0.23347	0.083745	0.17908	0.04538	0.122	0.211	0.18839	0.071441	0.15486	0.15466	0.29013	0.41933	-2.6896	-3.2188	-2.7333	-3.475	-3.0458	-2.7896	-3.3479	-2.8542	-3.0646	-3.2896	-2.9771	-3.2812	-3.1188	-2.9	-3.2354	-2.9667	-68.542	-0.387	-40.698	128.094	124.706	133.452	164.670	113.206	-125.129	-77.764	153.699	-45.787	177.710	145.569	52.098	119.498	0.00072268	0.00053136	0.00014469	1357.2	7.1181e-06	3.8121e-06	1355.3	366.92	4.8915e-06	5.8917e-06	418.37	140.04	121.13	41.693	5.3771e-06	51.704	0.00063486	0.00063095	0.00017032	1380.3	6.864e-06	6.7304e-06	1379	374.81	6.6916e-06	6.9759e-06	427.72	143.3	124.34	42.996	6.6737e-06	53.254	-55.570	-78.084	-90.245	-157.539	-33.694	-15.314	-157.645	-152.929	-17.277	-26.448	-153.404	-149.143	-148.679	-143.956	-29.742	-144.806	-8191	255	
572.961	1	1	0	0	0.38888	0.067958	0.0091388	0.23637	0.20005	0.068537	0.34583	0.27859	0.081642	0.12174	0.25186	0.19355	0.011538	0.14299	0.062215	0.41297	-2.7583	-3.0812	-2.9021	-3.3542	-3.3083	-2.9375	-3.475	-2.9125	-3.0146	-3.1688	-2.9813	-3.3479	-3.1708	-2.9229	-3.2271	-3.2458	41.824	-72.434	-3.888	128.378	-165.339	72.910	93.809	65.408	167.684	75.669	63.292	168.260	-1.307	96.586	33.872	127.594	0.00068579	0.00033811	0.00010098	1357.2	5.6259e-06	5.453e-06	1356.8	368.81	4.3992e-06	4.0328e-06	419.42	140.29	121.84	41.753	2.3351e-06	51.872	0.00063419	0.00065038	0.00017489	1381.9	7.0054e-06	7.0183e-06	1380.3	375	6.996e-06	6.7675e-06	428.42	143.56	124.93	43.033	6.8926e-06	53.365	-55.963	-92.847	-94.246	-157.346	-18.144	-25.819	-157.771	-152.886	-21.782	-41.584	-153.448	-149.049	-148.726	-143.963	-44.040	-144.718	-8191	255	
573.057	1	1	0	0	0.10355	0.055947	0.091043	0.2606	0.077616	0.24985	0.085274	0.27725	0.1136	0.04438	0.059586	0.12344	0.082302	0.17946	0.12402	0.20712	-2.5625	-3.1229	-2.8438	-3.3646	-3.2479	-2.85	-3.4417	-3.1937	-2.7792	-3.1937	-3.2667	-3.0958	-3.1708	-2.9313	-3.1708	-3.1521	179.250	-112.697	112.702	-164.826	81.674	165.503	3.202	-170.607	13.928	53.035	123.899	-148.783	148.422	179.962	18.442	168.649	0.00068765	0.0003744	0.00014777	1359.2	7.0295e-06	5.4374e-06	1362.9	367.8	7.5184e-06	5.8442e-06	420.92	140.54	121.92	41.692	7.6762e-06	51.676	0.00064561	0.00063474	0.00017902	1383.8	7.1142e-06	7.1718e-06	1383.8	374.99	6.9669e-06	7.1761e-06	428.94	143.79	124.73	43.068	7.0721e-06	53.306	-53.841	-44.080	-88.951	-157.592	-7.925	-36.253	-157.741	-152.891	-7.317	-23.259	-153.425	-149.113	-148.459	-143.906	-7.004	-144.944	-8191	255	
573.153	1	1	0	0	0.078474	0.16708	0.1485	0.085685	0.12081	0.32417	0.3072	0.20151	0.40943	0.14484	0.35732	0.23814	0.30035	0.24133	0.045248	0.1176	-2.3958	-3.3021	-2.8479	-3.2354	-3.1271	-2.8458	-3.4542	-3.2188	-2.8667	-3.1917	-2.8896	-3.1292	-3.2604	-2.95	-3.1458	-3.1042	92.877	122.378	3.062	133.975	-87.182	105.580	143.507	117.044	146.097	25.069	138.071	110.269	174.188	51.447	177.701	136.032	0.00072488	0.00067542	0.00014746	1363.8	7.5074e-06	3.2856e-06	1363.2	368.15	6.3136e-06	3.3016e-06	417.97	140.93	122.38	41.991	4.1594e-06	51.605	0.00064165	0.00065751	0.00018424	1385.1	7.0983e-06	7.0029e-06	1384.8	375.6	7.1591e-06	7.1566e-06	428.23	143.81	125.18	43.147	7.0807e-06	53.258	-53.905	-74.675	-83.783	-157.539	-32.515	-63.881	-157.929	-152.865	-20.515	-19.389	-153.193	-149.283	-148.542	-144.178	-28.027	-144.944	-8191	255	
573.274	1	1	0	0	0.2622	0.14414	0.065561	0.3271	0.18785	0.32351	0.33703	0.14606	0.080687	0.47887	0.13259	0.084161	0.28086	0.28761	0.16246	0.30155	-2.3292	-3.1937	-2.8458	-3.1125	-3.4021	-2.7979	-3.3729	-3.1521	-2.9521	-3.1729	-3.0479	-2.9542	-3.4083	-2.8646	-3.2229	-3.2958	-116.629	88.897	-129.975	136.771	101.954	44.179	118.418	-137.286	-75.873	-28.455	106.134	178.249	90.066	187.702	75.776	135.548	0.0006761	0.00069771	0.00012022	1360.7	8.5891e-06	6.1437e-06	1365.5	368.71	8.4156e-06	4.0955e-06	419.74	140.6	122.05	41.888	5.6945e-06	51.855	0.0006559	0.00064378	0.00018459	1386.8	6.9434e-06	7.2049e-06	1385.9	375.87	7.0374e-06	7.0035e-06	429.06	143.91	124.98	43.144	7.0063e-06	53.385	-54.484	-93.510	-97.635	-157.427	11.787	-4.060	-157.722	-152.974	-15.393	-23.417	-153.464	-149.106	-148.506	-143.779	-20.005	-144.781	-8191	255	
573.370	1	1	0	0	0.15356	0.16882	0.053282	0.1103	0.20915	0.068526	0.31319	0.30509	0.045918	0.2135	0.17628	0.11139	0.30351	0.17579	0.13831	0.31998	-2.2042	-3.2333	-2.8521	-3.0687	-3.2917	-2.8771	-3.3167	-3.0979	-2.9292	-3.325	-3.1083	-3.1604	-3.3688	-2.8563	-3.0812	-3.225	-82.281	175.977	77.929	-167.185	53.850	24.470	59.288	83.434	7.304	-95.564	-164.493	136.573	166.489	184.517	112.829	145.292	0.00071819	0.00044058	0.00016344	1368.3	6.1242e-06	6.3568e-06	1363.2	368.33	5.2471e-06	6.621e-06	418.83	141.06	122.25	41.895	4.8963e-06	51.859	0.00065065	0.00064615	0.00018494	1389.5	6.9952e-06	7.3111e-06	1386.4	375.76	6.9633e-06	7.1588e-06	428.64	143.92	125.2	43.157	6.9597e-06	53.379	-53.954	-77.291	-77.467	-157.560	-17.743	-15.395	-157.579	-152.905	-19.825	-20.558	-153.215	-149.105	-148.382	-144.212	7.758	-145.040	-8191	255	
573.442	1	1	0	0	0.067682	0.19019	0.1664	0.23129	0.3528	0.11276	0.074495	0.11104	0.28492	0.11262	0.11156	0.16284	0.22276	0.25691	0.18701	0.12872	-2.5104	-3.125	-3.0187	-3.0208	-3.2292	-2.8937	-3.0917	-3.2167	-2.8479	-3.1458	-3.3646	-2.8667	-3.3479	-3.1104	-3.0812	-3.3292	168.925	-117.517	119.640	-116.970	94.417	-69.842	144.284	42.866	155.334	-89.487	179.848	149.072	88.426	132.516	165.455	50.864	0.00068545	0.00052729	0.00015375	1361.8	6.7918e-06	6.2239e-06	1364.2	369.24	7.6383e-06	4.9259e-06	420.59	141.32	122.33	41.942	6.9348e-06	51.745	0.00064798	0.00063038	0.00018149	1386.3	6.8782e-06	7.3674e-06	1386.7	376.29	6.9964e-06	7.201e-06	430.12	144.02	125.11	43.133	7.1217e-06	53.382	-55.428	-100.176	-70.506	-157.532	-16.296	-52.955	-157.877	-152.840	-2.706	-24.184	-153.461	-149.022	-148.602	-143.818	-9.655	-144.806	-8191	255	
573.562	1	1	0	0	0.12233	0.47548	0.1799	0.20612	0.3121	0.23043	0.15243	0.1545	0.25619	0.26795	0.25633	0.24983	0.23607	0.07959	0.2851	0.012787	-2.3792	-3.0438	-3.2625	-2.9958	-3.1125	-3.0167	-3.1521	-3.3604	-2.9333	-3.0646	-3.3625	-2.7458	-3.1646	-2.9958	-2.825	-3.3146	47.341	99.256	-87.210	172.854	169.157	77.282	-170.488	-148.955	-57.324	78.262	131.522	-147.197	-137.723	154.484	-152.924	183.484	0.0006852	0.00053575	0.00013294	1366.6	4.7636e-06	5.0623e-06	1363.7	369.11	5.4832e-06	6.3101e-06	419.96	140.99	122.08	41.856	6.5138e-06	51.942	0.00065557	0.00064366	0.00018752	1389	6.9548e-06	7.2262e-06	1385.7	376.1	7.1636e-06	7.2549e-06	429.04	143.94	125.29	43.138	7.0982e-06	53.426	-54.778	-74.791	-66.375	-157.490	-27.824	5.765	-157.795	-152.801	-3.711	-23.047	-153.479	-148.870	-148.736	-144.107	-26.702	-144.878	-8191	255	
573.659	1	1	0	0	0.23002	0.099609	0.04686	0.35395	0.19113	0.039088	0.13636	0.12914	0.29126	0.28566	0.12774	0.16463	0.2302	0.20004	0.19398	0.15361	-2.5667	-3.1458	-3.2938	-2.95	-3.0979	-3.0042	-2.9021	-3.3729	-2.8708	-3.0583	-3.3792	-2.8792	-3.2125	-3.2479	-2.8729	-3.3542	93.068	-10.252	-169.059	158.091	62.278	142.769	111.739	-117.853	-22.281	10.922	177.906	-135.256	82.341	-169.110	-35.391	-162.418	0.000709	0.00051135	0.00014837	1367.4	6.5029e-06	3.2735e-06	1365.8	369.85	7.3579e-06	4.4071e-06	421.13	140.7	122.39	41.872	5.6988e-06	51.506	0.0006754	0.00065625	0.00018104	1389.6	6.9703e-06	7.006e-06	1387	376.32	7.0554e-06	6.8708e-06	429.12	143.85	125.08	43.157	7.0892e-06	53.356	-53.028	-90.513	-56.852	-157.561	-14.353	-9.054	-157.847	-152.947	-7.769	-42.103	-153.529	-149.043	-148.648	-143.946	-25.216	-144.830	-8191	255	
573.755	1	1	0	0	0.083661	0.19385	0.13188	0.4616	0.14947	0.19348	0.22528	0.039218	0.082623	0.13929	0.28038	0.14451	0.14647	0.049766	0.30599	0.18474	-2.5542	-2.9229	-3.2896	-2.9854	-3.1375	-3.0438	-2.9708	-3.2896	-2.9271	-3.0125	-3.3375	-2.9437	-3.1833	-3.3	-2.8812	-3.4417	55.962	-92.738	-54.708	-155.877	-146.217	-91.778	85.045	-9.630	-71.435	-20.498	136.646	88.333	-67.329	144.556	-139.463	37.517	0.00072106	0.00055147	0.00011	1364	6.4416e-06	4.6486e-06	1366	368.52	6.7213e-06	4.7708e-06	419.96	141.25	122.89	41.865	6.1021e-06	51.771	0.00065516	0.00063026	0.00017528	1385.7	6.9589e-06	7.0301e-06	1384.6	375.82	7.241e-06	7.1009e-06	429.53	144.15	125.15	43.133	7.0927e-06	53.387	-55.959	-74.974	-76.586	-157.396	-7.953	-23.011	-157.497	-152.852	-32.444	-15.329	-153.504	-148.789	-148.429	-143.945	-14.622	-145.100	-8191	255	
573.851	1	1	0	0	0.1575	0.1126	0.2369	0.066058	0.096698	0.24082	0.28415	0.24864	0.21702	0.25484	0.2067	0.29597	0.27146	0.10421	0.13525	0.25475	-2.5438	-2.9	-3.2708	-3.0167	-3.0771	-3.2375	-3.0167	-3.3104	-2.9917	-2.8604	-3.3312	-2.8812	-3.0438	-3.2167	-3.0083	-3.3438	32.252	40.903	-124.932	113.947	13.554	60.171	46.444	-144.544	140.024	29.246	120.149	-70.713	105.156	-163.200	187.819	174.934	0.00065289	0.0004897	0.00011161	1368.1	3.9924e-06	7.0374e-06	1359.8	369.41	7.7068e-06	4.9927e-06	420.24	140.8	122.21	41.859	6.9817e-06	51.93	0.00064615	0.00065714	0.00018038	1386.6	6.7087e-06	7.0251e-06	1383.2	376.04	7.1124e-06	7.2286e-06	428.63	143.76	124.86	43.17	7.0413e-06	53.41	-56.903	-94.315	-62.499	-157.710	-36.242	-8.374	-157.797	-152.994	-4.494	-24.995	-153.526	-149.029	-148.867	-143.945	23.029	-144.870	-8191	255	
573.970	1	1	0	0	0.098564	0.059287	0.053873	0.14055	0.2191	0.11647	0.12698	0.17989	0.18818	0.06644	0.23499	0.076032	0.092427	0.10504	0.057012	0.13084	-2.6729	-2.8604	-3.2104	-3.2083	-3.0979	-3.1063	-3.075	-3.2687	-3.0708	-2.9354	-3.3812	-3.0625	-3.0271	-3.1875	-2.9	-3.1604	91.438	2.225	-113.841	105.079	-159.941	-15.853	95.766	147.470	46.383	-55.164	93.616	166.783	73.217	1.165	121.579	69.591	0.00063848	0.00070128	0.00015315	1367.3	7.2402e-06	3.4438e-06	1361.6	367.06	7.7828e-06	4.7283e-06	419.31	141.05	121.87	41.887	7.1473e-06	51.885	0.00065389	0.00064712	0.00017692	1387.2	7.0893e-06	7.3443e-06	1384	375.44	7.1398e-06	7.2739e-06	428.62	143.94	124.98	43.187	7.2526e-06	53.395	-53.300	-82.180	-67.860	-157.436	-24.148	-16.375	-157.578	-152.995	-7.538	-22.903	-153.570	-149.154	-148.600	-144.004	-0.012	-144.888	-8191	255	
574.041	1	1	0	0	0.035101	0.080798	0.12808	0.31954	0.13449	0.13096	0.16297	0.27671	0.17526	0.26796	0.28222	0.29649	0.27497	0.21088	0.24142	0.56081	-2.7396	-2.6354	-3.1292	-3.0104	-2.9896	-3.2125	-3.0375	-3.3125	-3.2792	-2.7667	-3.2125	-3.0333	-3.0438	-3.3854	-2.8833	-3.3521	-125.877	65.326	-140.834	172.787	-19.273	-61.480	-108.944	90.443	-94.554	22.490	151.726	-146.578	-150.036	-133.551	-51.001	91.239	0.00065803	0.00049395	0.00011902	1363.6	6.4266e-06	5.4597e-06	1363.5	369.29	5.8173e-06	5.589e-06	420.02	140.56	122.17	41.978	5.6742e-06	51.768	0.00066326	0.00065869	0.00017997	1386.2	7.1859e-06	7.3693e-06	1385.8	376.47	6.985e-06	7.2888e-06	429.96	144.08	125.08	43.162	7.3111e-06	53.355	-54.898	-89.045	-58.998	-157.610	-35.685	-25.632	-157.724	-152.821	5.962	-15.670	-153.400	-149.145	-148.448	-143.989	-23.601	-144.765	-8191	255	
574.138	1	1	0	0	0.20609	0.019515	0.3063	0.38758	0.12372	0.12637	0.20448	0.24738	0.32345	0.062202	0.39414	0.31561	0.23348	0.10249	0.042487	0.12999	-2.8521	-2.7229	-3.0917	-3.1771	-2.8375	-3.275	-3.0646	-3.1021	-3.15	-2.6271	-3.2604	-2.9521	-2.9542	-3.3917	-2.9479	-3.0958	-1.149	64.741	178.865	171.433	23.557	161.584	-126.502	95.612	-139.865	-123.788	-125.257	-160.815	128.099	-166.100	118.457	95.032	0.00073429	0.0004438	0.00014745	1365.2	5.5658e-06	5.588e-06	1366.8	368.8	5.61e-06	3.4315e-06	422.32	140.59	122.71	41.88	8.1517e-06	51.942	0.00065768	0.0006672	0.00017668	1387.6	7.0192e-06	7.0778e-06	1387.4	376.24	7.2009e-06	7.3455e-06	429.76	143.81	125.23	43.131	7.3308e-06	53.472	-54.678	-63.634	-75.887	-157.513	-27.020	-14.846	-157.669	-153.048	-19.981	-11.019	-153.443	-149.361	-148.583	-143.985	-12.402	-144.742	-8191	255	
574.235	1	1	0	0	0.10002	0.23242	0.1252	0.32541	0.11928	0.064906	0.21486	0.31427	0.12561	0.098328	0.06618	0.11432	0.16909	0.229	0.049205	0.14563	-2.6604	-2.5458	-3.1729	-3.1417	-2.8708	-3.3021	-3.1604	-2.9521	-3.2438	-2.9437	-3.3729	-3.2188	-2.9146	-3.3646	-2.9229	-3.1458	-39.244	-132.246	-162.862	112.073	52.916	-91.618	72.853	171.689	-77.082	170.831	175.846	-156.473	183.222	104.441	-56.816	-127.193	0.0006671	0.00059838	0.00016941	1362.7	6.14e-06	6.2489e-06	1358.1	368.77	6.6341e-06	5.1027e-06	420.48	141.09	122.73	41.94	7.6208e-06	51.811	0.0006566	0.0006589	0.00017995	1386.7	7.0563e-06	7.327e-06	1385.6	376.24	7.0874e-06	7.3731e-06	429.62	143.84	125.23	43.147	7.406e-06	53.415	-54.118	-93.970	-72.439	-157.620	-17.227	-23.356	-157.758	-152.855	-14.057	-21.041	-153.432	-149.156	-148.446	-144.058	-10.937	-144.714	-8191	255	
574.354	1	1	0	0	0.041762	0.30489	0.21508	0.37293	0.20314	0.2011	0.20553	0.18653	0.27697	0.31228	0.1336	0.2587	0.16176	0.056403	0.18079	0.17376	-2.9104	-2.8354	-3.1104	-3.3958	-2.8979	-3.3292	-3.1521	-3.1125	-3.1604	-2.7562	-3.2438	-3.2271	-2.8438	-3.3063	-2.9771	-2.8688	-29.257	111.108	63.086	170.921	-34.147	78.564	95.753	82.836	49.115	-107.051	-48.848	142.597	127.523	145.170	41.931	147.479	0.00070855	0.00052466	0.00020809	1365.5	5.4537e-06	4.779e-06	1364.8	368.04	6.2736e-06	3.7913e-06	420.34	140.62	122.11	41.718	8.4988e-06	51.616	0.00065904	0.00065869	0.00018079	1388.7	7.2524e-06	7.2285e-06	1386.3	375.78	7.1775e-06	7.2445e-06	428.69	143.91	125.21	43.108	7.3565e-06	53.34	-54.275	-77.403	-85.080	-157.578	-18.938	-21.432	-157.672	-153.079	1.175	-31.936	-153.425	-149.075	-148.701	-143.965	-20.920	-144.668	-8191	255	
574.450	1	1	0	0	0.25253	0.039491	0.10534	0.29655	0.24494	0.23435	0.044431	0.23279	0.060737	0.18222	0.29417	0.13787	0.29943	0.37792	0.076501	0.16954	-2.8021	-2.7854	-3.0229	-3.3812	-2.8167	-3.2167	-3.1583	-2.9313	-3.1542	-2.85	-3.1396	-3.2333	-2.8271	-3.2792	-3.1125	-3.0042	1.406	50.378	177.851	108.317	-170.543	-86.553	178.374	74.024	-22.795	35.076	164.988	-100.634	88.222	165.898	-166.847	-63.087	0.0007041	0.00047097	6.9174e-05	1367.5	4.8767e-06	5.1206e-06	1365.6	368.73	7.4774e-06	5.4211e-06	421.11	141.19	122.44	41.973	5.8574e-06	51.961	0.0006727	0.00067551	0.00018341	1388.6	7.4158e-06	7.342e-06	1387.9	376.68	7.1952e-06	7.528e-06	429.89	144.16	125.38	43.244	7.5471e-06	53.506	-52.148	-93.169	-86.958	-157.686	-42.741	-0.223	-157.673	-152.801	-15.674	-39.521	-153.240	-149.080	-148.473	-144.075	-7.809	-144.901	-8191	255	
574.547	1	1	0	0	0.25074	0.13963	0.034529	0.19798	0.064087	0.23314	0.22128	0.23143	0.14282	0.1125	0.1494	0.044537	0.12209	0.12083	0.13263	0.053144	-2.8063	-2.9979	-2.8146	-3.3854	-2.6521	-3.1708	-3.1646	-2.8021	-3.4583	-2.8979	-2.8438	-3.2667	-3.0667	-3.1562	-3.0729	-2.8438	161.670	89.356	174.007	163.342	25.194	112.482	109.313	-150.935	35.928	42.676	-116.608	91.398	163.610	177.315	62.876	161.656	0.00073867	0.00044976	0.00016101	1372.7	4.8303e-06	6.4728e-06	1370.3	369.19	7.4964e-06	4.4574e-06	421.95	141.19	122.45	41.959	5.3424e-06	52.059	0.00066462	0.00069849	0.00018828	1393.7	7.3147e-06	7.3279e-06	1391.1	377.06	7.3201e-06	7.5393e-06	431	144.36	125.45	43.293	7.5087e-06	53.65	-51.107	-79.855	-79.400	-157.592	14.487	-26.300	-157.877	-153.064	-11.965	-17.990	-153.481	-148.995	-148.627	-143.965	-2.120	-144.912	-8191	255	
574.643	1	1	0	0	0.19601	0.14573	0.24701	0.32781	0.12245	0.26816	0.24089	0.3038	0.10321	0.10075	0.28022	0.27031	0.074489	0.079212	0.084588	0.38794	-2.6854	-3.2042	-2.8292	-3.3292	-2.9146	-2.9062	-3.2792	-2.8271	-3.25	-2.8729	-2.9417	-3.4625	-3.0229	-3.0062	-3.1188	-3.0208	-4.570	-14.644	-104.595	156.085	29.822	41.334	99.835	134.839	-169.403	23.744	-169.726	-159.357	48.682	28.173	-164.755	156.326	0.00069331	0.00066542	0.00014904	1371.9	8.2969e-06	4.2225e-06	1369.4	370.94	5.2637e-06	6.0059e-06	422.29	141.55	122.85	42.123	3.6647e-06	52.1	0.00066586	0.00069364	0.00019301	1397.9	7.5678e-06	7.5659e-06	1394	378.37	7.3545e-06	7.7681e-06	431.15	144.56	125.59	43.404	7.7819e-06	53.622	-54.065	-104.748	-49.558	-157.493	-18.932	-26.249	-157.769	-153.021	-10.743	-0.875	-153.416	-149.020	-148.703	-143.867	-22.673	-144.769	-8191	255	
574.739	1	1	0	0	0.222	0.15048	0.2376	0.046093	0.050919	0.019847	0.12987	0.12564	0.052988	0.21552	0.12401	0.20599	0.084147	0.25413	0.14893	0.1822	-2.8646	-2.9708	-2.9625	-3.3396	-3.0604	-3.0354	-3.4458	-2.8604	-3.1417	-3.1104	-2.9104	-3.2771	-3.075	-2.95	-3.2313	-2.9042	174.258	65.587	-5.135	25.828	34.472	187.701	68.233	-117.002	110.660	-167.307	123.622	-133.103	148.256	-153.873	61.642	175.584	0.00068647	0.00075263	0.00014676	1375.4	6.5146e-06	5.04e-06	1371.3	371.58	6.445e-06	4.6676e-06	423	141.78	123.12	42.149	7.4376e-06	51.896	0.00067625	0.00070586	0.00019468	1399.3	7.6758e-06	7.4828e-06	1395.3	378.79	7.4414e-06	7.6766e-06	431.6	144.69	126.05	43.411	7.5685e-06	53.684	-53.999	-79.464	-89.720	-157.467	-14.024	-7.511	-157.737	-152.904	-19.448	-56.144	-153.346	-148.892	-148.657	-143.938	-18.954	-145.031	-8191	255	
574.835	1	1	0	0	0.24206	0.22609	0.15813	0.052536	0.11847	0.072695	0.21958	0.41229	0.21778	0.27389	0.31258	0.19228	0.091476	0.3161	0.071326	0.077682	-2.525	-2.9167	-2.7958	-3.3417	-3.0042	-2.8438	-3.3833	-2.8708	-3.0854	-3.0333	-2.8375	-3.1958	-3.075	-2.95	-3.2271	-3.0187	71.835	-24.183	136.988	144.421	19.742	142.140	-160.593	161.037	118.350	114.002	160.582	125.090	-14.322	149.950	14.158	94.229	0.0007037	0.00057578	0.0001814	1377.3	7.6928e-06	5.5816e-06	1379.1	370.17	7.5766e-06	5.5574e-06	424.95	141.8	123.16	42.159	5.8706e-06	52.077	0.00068024	0.00070985	0.00019617	1399.2	7.5079e-06	7.6054e-06	1398.1	378.67	7.4434e-06	7.6711e-06	433.03	144.92	126.01	43.394	7.6356e-06	53.713	-54.035	-98.366	-63.735	-157.587	-5.964	-9.668	-157.687	-153.012	-17.712	-25.588	-153.306	-149.112	-148.469	-143.940	-1.775	-144.890	-8191	255	
574.956	1	1	0	0	0.16707	0.14097	0.12548	0.52872	0.10126	0.1427	0.1906	0.2985	0.14797	0.074229	0.24157	0.22778	0.3119	0.13658	0.22037	0.0097471	-2.7313	-3.1125	-2.5854	-3.45	-3.0292	-2.8146	-3.5417	-3.1333	-2.9521	-3.2271	-2.8125	-3.2479	-3.1937	-2.8292	-3.1771	-3.1021	121.215	-134.245	170.427	163.681	134.540	139.093	100.546	141.976	46.396	-143.668	114.883	159.427	83.288	90.985	114.379	-117.845	0.00067826	0.00061194	0.00017476	1376.4	5.6487e-06	5.3311e-06	1375.5	372.34	7.096e-06	2.0163e-06	422.63	141.61	123.22	42.167	7.053e-06	51.769	0.00066771	0.00069242	0.00019878	1400.1	7.5527e-06	7.7234e-06	1396.3	379.03	7.3685e-06	7.5896e-06	432.84	144.74	126.05	43.399	7.527e-06	53.758	-56.493	-73.704	-89.998	-157.412	-8.207	-30.320	-157.844	-152.791	-11.835	-11.569	-153.486	-149.268	-148.503	-143.985	-15.300	-144.805	-8191	255	
575.050	1	1	0	0	0.025198	0.19346	0.23879	0.23804	0.14196	0.019337	0.41502	0.11261	0.18689	0.1008	0.13818	0.13969	0.20314	0.14011	0.071221	0.17226	-2.2792	-3.1063	-2.75	-3.3771	-3.0125	-2.8187	-3.3833	-2.8417	-2.8167	-3.2562	-2.8542	-3.2396	-3.2146	-2.8625	-3.1417	-3.1875	-123.071	-1.263	99.098	-154.840	53.931	49.905	120.703	-65.734	21.524	175.330	129.211	-88.811	148.449	-122.484	46.562	149.549	0.00067259	0.00046947	9.8395e-05	1375.9	5.5305e-06	3.895e-06	1383.1	372	6.7995e-06	2.8846e-06	423.53	142.06	123.35	42.381	5.4662e-06	52.136	0.0006894	0.00071429	0.0001951	1402.1	7.5629e-06	7.5876e-06	1400.7	379.23	7.3467e-06	7.3763e-06	432.79	144.84	126.18	43.504	7.613e-06	53.774	-55.285	-86.102	-102.357	-157.521	-21.715	-11.316	-157.762	-153.143	-27.254	-8.591	-153.484	-149.232	-148.481	-144.086	-14.947	-144.770	-8191	255	
575.146	1	1	0	0	0.087941	0.13329	0.15541	0.33463	0.31435	0.048783	0.21741	0.13672	0.50065	0.055153	0.32712	0.14878	0.21045	0.25642	0.088004	0.021324	-2.4708	-3.2771	-2.8667	-3.2729	-3.1875	-2.7667	-3.2938	-3.1271	-2.8875	-3.2542	-3.0042	-3.1542	-3.1875	-2.8688	-3.2146	-3.1188	-33.322	51.906	6.090	161.920	-157.063	150.852	171.025	112.575	-42.461	54.082	109.820	107.925	9.577	170.052	-150.185	81.704	0.00068611	0.00043766	0.00013106	1383.5	5.265e-06	3.7492e-06	1376.8	373.04	7.3994e-06	5.1036e-06	423.41	142.12	123.32	42.355	5.0612e-06	52.359	0.00068117	0.00072659	0.00020053	1406.9	7.8136e-06	7.8069e-06	1401.7	380.46	7.5819e-06	7.6562e-06	433.14	145.05	126.25	43.603	7.7203e-06	53.892	-53.437	-89.143	-67.505	-157.616	-23.105	-7.474	-157.623	-152.946	-0.536	-14.595	-153.375	-149.166	-148.826	-144.035	-27.357	-144.677	-8191	255	
575.267	1	1	0	0	0.27064	0.29423	0.20577	0.21418	0.24252	0.18494	0.10453	0.053459	0.22173	0.10449	0.0559	0.20286	0.14694	0.26732	0.10743	0.30732	-2.3833	-3.0542	-2.9229	-3.2333	-3.0375	-2.8083	-3.4042	-3.2562	-2.9083	-3.2917	-3.0604	-3.0917	-3.1188	-2.8604	-3.1021	-3.0833	-62.609	162.014	-78.081	146.574	-81.028	-148.330	177.901	-161.771	-63.660	-20.623	-64.031	113.895	151.691	127.197	-25.437	-149.289	0.0007192	0.00061129	0.00016333	1384	4.6474e-06	3.6706e-06	1383.4	374.14	6.4954e-06	4.2565e-06	425.72	142.02	123.51	42.216	6.2232e-06	52.166	0.00069467	0.00070761	0.00019694	1407.4	7.7035e-06	7.7997e-06	1404.8	380.63	7.5897e-06	7.5185e-06	434.13	145.23	126.33	43.503	7.6861e-06	53.88	-54.744	-77.210	-75.722	-157.533	-19.420	1.196	-157.843	-152.965	-17.578	-20.198	-153.275	-149.091	-148.664	-144.033	-25.519	-144.905	-8191	255	
575.339	1	1	0	0	0.30137	0.22562	0.25857	0.374	0.27121	0.3325	0.20255	0.20144	0.35772	0.17946	0.35494	0.11869	0.090867	0.15288	0.067261	0.049769	-2.2125	-3.0708	-2.8021	-2.8354	-3.2667	-2.8396	-3.2542	-3.2229	-2.6979	-3.1792	-2.9542	-2.8979	-3.4229	-2.9313	-3.0563	-3.3187	-6.329	17.482	43.733	184.267	114.545	-120.134	160.539	100.368	55.624	157.210	140.445	138.541	177.085	112.438	-92.521	-70.514	0.00067294	0.00042945	0.00016096	1385.5	7.6677e-06	4.0163e-06	1380.4	373.08	7.8425e-06	7.7595e-06	424.55	142.61	124.06	42.075	7.4344e-06	52.45	0.00068932	0.00069128	0.00020083	1409.1	7.73e-06	7.7774e-06	1404.8	380.87	7.6327e-06	7.7608e-06	433.76	145.6	126.49	43.54	7.6164e-06	53.988	-54.593	-72.106	-81.762	-157.264	-34.382	2.593	-157.646	-152.983	-32.823	-20.129	-153.153	-149.203	-148.663	-144.055	-39.301	-144.689	-8191	255	
575.435	1	1	0	0	0.2025	0.18224	0.25299	0.14982	0.18775	0.31206	0.37752	0.38887	0.059697	0.090451	0.16847	0.13732	0.031246	0.21864	0.12888	0.055249	-2.2396	-3.0875	-2.9292	-3.0542	-3.3042	-2.7646	-3.2417	-3.2021	-2.85	-3.1208	-3.0604	-3.025	-3.1354	-2.8563	-2.9833	-3.2854	176.086	-27.052	178.463	-167.777	-40.673	19.416	104.450	107.263	60.490	-44.351	146.407	-168.773	7.020	89.631	174.838	187.321	0.00067783	0.00023248	0.00011613	1387.9	7.8849e-06	2.5536e-06	1380.3	372.87	6.6069e-06	4.3797e-06	426.91	142.32	124.27	42.466	5.8005e-06	52.135	0.00069195	0.00070565	0.0001965	1408.6	7.5715e-06	7.9413e-06	1405.2	380.77	7.7216e-06	7.5955e-06	435.45	145.43	126.69	43.562	7.7519e-06	53.907	-53.325	-117.705	-93.204	-157.427	-15.591	-15.999	-157.609	-152.827	-3.337	-35.453	-153.547	-149.210	-148.337	-144.080	-22.283	-144.790	-8191	255	
575.531	1	1	0	0	0.27541	0.19053	0.066597	0.33371	0.22307	0.040256	0.21863	0.3971	0.20681	0.1011	0.10454	0.090804	0.36632	0.2308	0.26261	0.12423	-2.3458	-3.0583	-2.8042	-3.0625	-3.2708	-2.8896	-3.1063	-3.2354	-2.7521	-3.1833	-3.1854	-2.8438	-3.3667	-3.1188	-2.9437	-3.4042	-22.787	-152.040	89.899	168.549	72.100	-94.762	122.200	86.284	153.038	72.935	181.617	-72.582	181.332	-110.664	180.978	-131.467	0.00068088	0.00047546	0.00015764	1390.2	8.1701e-06	7.1042e-06	1386.9	373.55	7.0385e-06	5.3616e-06	424.93	143.12	124.65	42.395	9.0374e-06	52.357	0.0006929	0.00069071	0.00020145	1412	7.7667e-06	7.9677e-06	1410.1	381.65	7.736e-06	7.456e-06	435.14	145.93	127.04	43.581	7.7699e-06	54.052	-55.254	-104.330	-80.852	-157.544	-22.758	-6.667	-157.607	-153.085	-52.025	-28.950	-153.535	-149.051	-148.655	-143.925	-14.385	-144.761	-8191	255	
575.651	1	1	0	0	0.07834	0.2724	0.080073	0.24884	0.20158	0.074909	0.24352	0.13771	0.097218	0.1761	0.10444	0.24674	0.19905	0.11837	0.08285	0.30585	-2.3333	-3.0542	-3.1167	-3.175	-3.225	-3.0687	-3.2625	-3.4313	-2.9021	-3.1604	-3.3312	-3	-3.4729	-3.0438	-2.8875	-3.2229	-10.752	69.696	21.500	144.664	-103.403	-33.373	137.784	173.661	93.373	127.522	-124.585	82.959	-122.959	129.788	0.233	103.012	0.00068955	0.00047444	0.00011579	1390	5.3411e-06	3.3587e-06	1378.6	374.69	6.378e-06	4.2861e-06	427.18	142.14	123.58	42.345	6.8133e-06	51.962	0.00069233	0.00070105	0.00019958	1413.4	7.7206e-06	7.8987e-06	1408	382.2	7.8539e-06	7.3541e-06	435.63	145.91	126.87	43.625	7.6113e-06	53.973	-52.179	-84.661	-83.764	-157.485	-27.711	-12.290	-157.572	-153.026	-6.068	-18.424	-153.446	-149.142	-148.566	-143.851	-21.086	-144.755	-8191	255	
575.748	1	1	0	0	0.15893	0.080283	0.086227	0.24095	0.14077	0.1588	0.36044	0.34864	0.23043	0.29278	0.062066	0.098887	0.13546	0.30194	0.075897	0.12673	-2.5729	-3.1292	-3.0563	-2.9792	-3.0625	-3.0458	-3.0104	-3.4813	-2.85	-3.0417	-3.2354	-2.9917	-3.3167	-3.15	-2.8229	-3.3208	-135.378	15.210	48.273	141.668	73.208	-41.948	155.235	103.476	140.645	-6.725	73.981	113.136	188.402	177.602	58.547	-32.530	0.00073359	0.0004227	0.00015643	1388.8	3.7765e-06	5.8614e-06	1384.3	374.07	5.2001e-06	2.1521e-06	426.8	142.28	124.15	42.251	8.5026e-06	52.323	0.00070414	0.0007149	0.00020254	1412.7	7.6599e-06	7.6898e-06	1407.4	382.03	7.6159e-06	7.5593e-06	435.66	145.51	126.87	43.583	7.6433e-06	54.031	-53.244	-72.587	-68.155	-157.500	-9.138	-18.605	-157.834	-152.797	-15.565	-34.180	-153.261	-149.208	-148.500	-144.022	-14.537	-144.844	-8191	255	
575.844	1	1	0	0	0.17189	0.36698	0.1728	0.41589	0.090135	0.26592	0.46466	0.17374	0.034594	0.27293	0.094279	0.34233	0.12592	0.09115	0.23899	0.19397	-2.7042	-2.9042	-3.2021	-2.9917	-3.1792	-3.15	-3.0417	-3.1917	-2.8187	-3.0354	-3.45	-3.0062	-3.1417	-3.1583	-2.9333	-3.25	-25.695	-98.102	57.031	167.923	73.417	66.522	126.939	-150.551	92.706	45.485	-156.004	104.746	106.387	-15.010	-162.893	-97.229	0.00071363	0.0004498	0.00012304	1387.9	8.4613e-06	3.1906e-06	1382.8	372.73	7.4665e-06	3.3561e-06	426.17	141.98	123.96	42.369	7.8416e-06	52.207	0.00068775	0.00068574	0.00019242	1410.2	7.5246e-06	7.7792e-06	1406.6	381.19	7.6237e-06	7.5579e-06	435.06	145.56	126.76	43.639	7.6322e-06	53.954	-54.848	-77.480	-83.628	-157.608	-23.530	-24.149	-157.685	-152.722	-31.298	-37.665	-153.586	-149.229	-148.597	-143.660	-33.067	-144.907	-8191	255	
575.915	1	1	0	0	0.12967	0.12399	0.22668	0.22118	0.064702	0.25185	0.16902	0.13213	0.078923	0.31489	0.10116	0.2317	0.22777	0.10345	0.12165	0.15959	-2.5729	-2.6917	-3.3021	-3.0583	-3.1896	-3.2292	-2.9188	-3.3396	-3.0646	-2.8375	-3.325	-2.7958	-3.0604	-3.4188	-2.8021	-3.2542	151.647	6.797	62.325	-143.693	13.461	-134.784	129.142	143.088	18.276	37.762	139.414	130.349	173.966	38.237	89.522	123.884	0.00070143	0.00040648	0.00010147	1390.4	6.128e-06	6.3149e-06	1379.7	372.76	7.5652e-06	5.6468e-06	424.86	141.96	123.65	42.378	6.3259e-06	52.468	0.000693	0.00069515	0.00018554	1410.7	7.2597e-06	7.6362e-06	1404.3	380.95	7.373e-06	7.6086e-06	434.46	145.44	126.65	43.543	7.5711e-06	53.906	-54.799	-89.695	-34.522	-157.514	-16.874	-10.656	-157.731	-152.846	-22.257	-9.018	-153.266	-148.896	-148.404	-144.007	-16.028	-144.853	-8191	255	
576.034	1	1	0	0	0.21328	0.070035	0.15013	0.16001	0.17515	0.1322	0.16458	0.24156	0.057499	0.050243	0.22725	0.10051	0.21161	0.075767	0.12052	0.089963	-2.5812	-3.0292	-3.3417	-2.9979	-3.0667	-3.1813	-2.875	-3.2188	-2.95	-2.9021	-3.1979	-2.8979	-3.1167	-3.25	-2.7875	-3.1646	182.659	-133.874	56.024	136.164	-99.217	-82.185	147.129	172.023	117.528	40.357	106.560	-144.235	110.592	133.542	95.989	180.036	0.00067693	0.00042476	0.00017939	1383.1	9.3397e-06	6.2471e-06	1380.5	372.39	4.8762e-06	4.254e-06	423.94	142.17	123.35	42.46	5.7611e-06	52.591	0.00067615	0.00069629	0.00019061	1405.2	7.3718e-06	7.4955e-06	1402.7	379.92	7.3148e-06	7.5955e-06	433.82	145.27	126.35	43.579	7.5005e-06	53.981	-54.341	-72.574	-83.212	-157.431	-23.516	-27.893	-157.573	-152.881	-22.726	-18.662	-153.304	-149.321	-148.594	-144.176	-19.212	-145.070	-8191	255	
576.130	1	1	0	0	0.0993	0.10173	0.17255	0.064994	0.12251	0.19038	0.27435	0.34364	0.054634	0.25058	0.094105	0.12291	0.18479	0.14372	0.14557	0.13552	-2.4979	-2.8104	-3.1042	-3.0729	-3.0646	-3.1937	-2.9583	-3.2229	-2.9562	-2.9437	-3.2833	-3.1021	-3.0521	-3.2375	-2.9083	-3.2833	145.946	-61.743	-66.581	-168.043	6.993	62.512	91.768	148.029	-4.439	-45.337	37.367	91.092	-108.447	57.838	178.127	122.047	0.00069442	0.00070078	0.00016369	1383.9	4.8652e-06	6.9846e-06	1383.7	372.08	6.8198e-06	4.9888e-06	423.65	142.84	124	42.169	5.6149e-06	52.655	0.00068142	0.00068472	0.0001922	1407.4	7.4496e-06	7.4959e-06	1403.4	380.89	7.5704e-06	7.6073e-06	433.69	145.54	126.72	43.469	7.5587e-06	54.163	-55.653	-90.827	-73.082	-157.553	-26.727	0.004	-157.652	-153.059	-10.768	-23.941	-153.094	-149.127	-148.383	-143.919	-16.081	-144.936	-8191	255	
576.227	1	1	0	0	0.17908	0.14705	0.083404	0.21638	0.071327	0.18255	0.42505	0.3481	0.21016	0.081484	0.35002	0.017734	0.13553	0.16428	0.13003	0.13055	-2.8958	-2.7687	-3.1542	-3.0167	-2.8167	-3.1771	-3.1208	-3.1583	-3.15	-2.8979	-3.2812	-3.1104	-3.0771	-3.3312	-2.85	-3.1229	-39.129	169.623	-66.368	139.803	5.072	71.426	102.609	171.796	115.871	183.632	111.015	150.985	72.874	-140.229	60.735	70.073	0.00074169	0.00031392	0.00021253	1385.2	4.8023e-06	3.9516e-06	1382.7	373.75	7.1367e-06	3.559e-06	424.06	142.55	123.57	42.267	5.3779e-06	52.29	0.00067947	0.00071128	0.00018595	1407.8	7.6147e-06	7.6957e-06	1403.9	381.32	7.5561e-06	7.7391e-06	434.41	145.6	126.59	43.549	7.7207e-06	53.973	-54.860	-88.980	-63.127	-157.402	-39.338	-37.411	-157.687	-152.990	-13.070	-28.361	-153.544	-149.121	-148.744	-144.084	-4.801	-144.839	-8191	255	
576.347	1	1	0	0	0.079936	0.15811	0.1411	0.21719	0.17662	0.19491	0.40401	0.16527	0.17529	0.1333	0.28106	0.21415	0.22725	0.23955	0.208	0.15803	-2.8208	-2.7812	-3.0312	-3.1958	-2.9083	-3.1896	-3.1958	-3.0375	-3.2625	-2.875	-3.375	-3.0187	-2.825	-3.2562	-2.9229	-3.0875	158.587	-64.268	-25.762	184.613	188.059	-33.398	171.115	145.115	-11.384	-0.848	-150.650	-135.756	34.321	139.098	162.838	-115.492	0.00065904	0.00042911	0.00013998	1383.1	6.3984e-06	3.7743e-06	1382	373.78	7.6623e-06	5.5001e-06	423.67	141.82	123.78	42.153	6.4859e-06	52.13	0.00067782	0.00069421	0.00018441	1408.7	7.613e-06	7.5872e-06	1404.3	380.86	7.5225e-06	7.6892e-06	434.63	145.4	126.69	43.473	7.5279e-06	53.984	-51.878	-75.925	-56.538	-157.491	-23.573	-14.647	-157.666	-152.803	-16.655	-7.507	-153.394	-149.270	-148.608	-143.969	-15.780	-144.793	-8191	255	
576.443	1	1	0	0	0.23673	0.10953	0.16836	0.17367	0.13152	0.23842	0.20594	0.16566	0.1385	0.036915	0.16737	0.1887	0.21495	0.11761	0.16269	0.20121	-2.6625	-2.7562	-2.9875	-3.25	-2.7188	-3.2708	-3.1375	-2.9417	-3.1562	-2.7542	-3.175	-3.2979	-2.9583	-3.2062	-2.9917	-2.8708	148.965	-39.117	28.318	-152.398	-108.458	8.043	117.779	140.567	61.111	179.055	151.448	30.398	166.251	151.517	-167.079	127.519	0.00069768	0.00027759	0.00015099	1378.6	6.0631e-06	5.3157e-06	1379.3	373.32	5.8482e-06	4.1924e-06	424.11	142.16	123.52	42.123	5.8271e-06	52.196	0.00068055	0.00069474	0.00018612	1405.1	7.4182e-06	7.3479e-06	1401.8	380.57	7.3041e-06	7.6055e-06	433.45	145.38	126.65	43.429	7.4967e-06	53.855	-53.859	-61.929	-89.762	-157.488	-6.395	-20.898	-157.954	-152.809	-25.639	-10.680	-153.320	-149.288	-148.511	-144.019	-11.661	-144.735	-8191	255	
576.540	1	1	0	0	0.18361	0.091779	0.083365	0.14072	0.14588	0.14195	0.22604	0.24415	0.087844	0.14185	0.014151	0.083998	0.23588	0.077421	0.3886	0.094898	-2.8354	-2.8271	-3.1208	-3.2146	-2.9167	-3.0917	-3.3937	-2.8187	-3.3271	-2.9979	-3.1333	-3.275	-2.8729	-3.1312	-2.8458	-2.9583	-30.296	134.325	-111.787	139.244	-67.678	13.174	165.687	151.487	-156.004	-95.964	92.026	100.230	185.472	-148.562	-155.066	101.582	0.00069546	0.00047225	0.00013228	1380.7	8.762e-06	5.5916e-06	1380.1	372.58	9.588e-06	4.7137e-06	425	142.26	123.4	42.14	7.9562e-06	52.173	0.00067365	0.00068627	0.00018517	1404.6	7.492e-06	7.4378e-06	1401.8	380.11	7.3758e-06	7.4664e-06	433.83	145.39	126.26	43.492	7.3607e-06	53.875	-56.202	-104.941	-96.463	-157.399	-45.203	-9.520	-157.755	-152.800	-12.446	-30.856	-153.356	-149.082	-148.384	-143.998	-23.604	-144.688	-8191	255	
576.636	1	1	0	0	0.15135	0.28239	0.056719	0.31306	0.082803	0.12067	0.17252	0.19989	0.23201	0.17405	0.23213	0.07449	0.10219	0.29784	0.16714	0.14855	-2.7833	-3.025	-3.0042	-3.4646	-2.8708	-3.2375	-3.2271	-3.0792	-3.2083	-2.9813	-3.1521	-3.2	-3.0042	-3.2479	-3.1396	-3.0167	124.853	120.179	-148.815	109.584	-133.865	-30.464	87.390	153.942	148.774	47.554	82.303	100.789	102.379	160.174	90.854	38.111	0.00074781	0.00039245	0.00016467	1378.2	7.4193e-06	4.387e-06	1375.6	372.48	5.4206e-06	5.3813e-06	422.84	141.99	123.35	42.014	6.8457e-06	52.204	0.0006718	0.00067026	0.00018188	1399.6	7.2943e-06	7.1827e-06	1397.2	379.12	7.2042e-06	7.5697e-06	432.91	144.95	125.98	43.396	7.4133e-06	53.865	-52.758	-105.110	-67.818	-157.337	-11.148	-26.763	-157.792	-153.017	-10.648	-34.396	-153.404	-149.171	-148.437	-143.898	-35.080	-144.777	-8191	255	
576.732	1	1	0	0	0.35659	0.30094	0.2555	0.089752	0.02953	0.17084	0.18347	0.21374	0.15359	0.18002	0.1594	0.1605	0.34588	0.15889	0.19391	0.23606	-2.9292	-2.8917	-2.9375	-3.5542	-2.8708	-3.1083	-3.3021	-2.9542	-3.2417	-3.1604	-3.0146	-3.2146	-2.9354	-2.9708	-2.9833	-3.1354	151.632	-59.817	-31.279	45.838	-18.959	-163.933	-149.093	106.238	-51.561	-78.851	139.319	-159.552	-164.548	153.568	-103.020	-150.730	0.00069932	0.00049544	0.00010096	1377.1	6.5044e-06	4.5684e-06	1375.7	370.96	6.6044e-06	5.1108e-06	423.19	142.09	123.34	42.097	7.2336e-06	52.157	0.00066287	0.00069506	0.00018286	1398.8	7.4113e-06	7.3402e-06	1397.2	379.12	7.2115e-06	7.6575e-06	432.53	145	126.04	43.442	7.4078e-06	53.792	-54.030	-67.407	-76.031	-157.340	-6.646	-15.908	-157.624	-153.009	-14.266	-26.753	-153.356	-149.146	-148.387	-143.944	-22.770	-144.945	-8191	255	
576.828	1	1	0	0	0.042047	0.11117	0.0063399	0.29122	0.20469	0.17189	0.1791	0.40015	0.17767	0.12724	0.18562	0.2663	0.23377	0.095114	0.16146	0.1954	-2.8042	-3.1625	-2.9437	-3.5542	-2.7854	-2.9979	-3.3667	-2.8521	-3.15	-3.0271	-2.9521	-3.3438	-3.1854	-3.0187	-3.2042	-3.0083	186.755	-155.196	-154.353	127.993	-114.026	41.461	109.170	150.535	-120.069	122.816	-166.170	97.840	164.786	-136.074	-59.304	99.586	0.00070235	0.0004007	0.00012058	1374.1	5.454e-06	5.6132e-06	1375.9	372.45	8.6876e-06	4.2563e-06	423.81	141.31	123.29	42.109	5.1649e-06	52.078	0.00066262	0.00067201	0.00018782	1397.8	7.2809e-06	7.4083e-06	1396.9	379.59	7.1939e-06	7.4551e-06	432.33	144.71	126.25	43.416	7.247e-06	53.794	-55.453	-92.374	-81.850	-157.542	-23.704	-11.849	-157.768	-152.786	-19.209	-14.792	-153.528	-149.055	-148.605	-143.721	-32.172	-144.726	-8191	255	
576.947	1	1	0	0	0.18521	0.20831	0.30144	0.24761	0.19024	0.050312	0.14413	0.19961	0.14707	0.17685	0.40292	0.24559	0.32704	0.23614	0.096593	0.20556	-2.7479	-2.8396	-2.9125	-3.375	-2.9604	-3.0125	-3.4854	-2.9417	-3.025	-3.0833	-2.8375	-3.3021	-3.0375	-2.95	-3.2812	-2.9979	163.390	-91.531	-9.407	189.086	148.031	-58.061	114.804	107.599	1.174	72.371	146.703	127.461	184.269	183.129	170.978	92.898	0.0007149	0.00041485	0.00015869	1378.3	6.6723e-06	4.3414e-06	1374.9	372.37	8.3668e-06	3.7522e-06	424.98	141.74	123.35	42.105	4.6675e-06	52.207	0.00067641	0.00069836	0.00019216	1399.2	7.362e-06	7.4492e-06	1396	379.78	7.2726e-06	7.4207e-06	433.35	145	126.09	43.469	7.3971e-06	53.798	-56.644	-102.425	-73.850	-157.464	-14.921	-16.845	-157.594	-152.875	-15.071	0.727	-153.370	-149.044	-148.525	-143.932	-9.893	-144.577	-8191	255	
577.043	1	1	0	0	0.18267	0.16113	0.13319	0.1433	0.30305	0.17078	0.40517	0.14815	0.08607	0.1142	0.036492	0.1656	0.21049	0.18784	0.17173	0.013751	-2.5083	-3.0687	-2.6729	-3.3521	-2.9125	-2.7625	-3.4042	-2.8396	-3.1104	-3.2875	-2.9479	-3.3854	-3.1583	-3.1083	-3.1875	-2.9229	161.025	180.525	-63.438	83.771	-159.663	-146.150	69.861	-169.866	-160.622	65.750	154.371	62.996	166.429	160.030	171.901	26.653	0.00068326	0.0005534	0.00019173	1376	8.7512e-06	5.163e-06	1376.5	371.21	6.4612e-06	4.3566e-06	423.89	141.91	123.5	42.16	5.9285e-06	52.186	0.0006654	0.00070134	0.00019547	1399.7	7.5169e-06	7.5155e-06	1398.3	379.42	7.2845e-06	7.5842e-06	432.87	144.96	126.25	43.452	7.5061e-06	53.765	-53.399	-65.815	-82.629	-157.435	-13.816	-26.324	-157.597	-153.050	-21.734	-32.809	-153.492	-149.225	-148.439	-144.051	-12.652	-145.010	-8191	255	
577.139	1	1	0	0	0.06637	0.1546	0.13068	0.19864	0.036362	0.18866	0.1576	0.23269	0.11756	0.14697	0.17269	0.25135	0.082881	0.10583	0.12703	0.082411	-2.4854	-3.2146	-2.8438	-3.4	-3.1583	-2.8812	-3.3333	-3.1188	-3.0958	-3.2729	-2.8583	-3.1729	-3.1333	-2.9458	-3.2354	-2.8937	-137.249	-152.266	23.285	113.520	-57.098	30.451	87.384	-168.044	145.681	124.381	114.924	126.072	51.648	81.598	89.877	-50.182	0.00072259	0.00049008	0.00017704	1382.5	7.7666e-06	5.0024e-06	1376.4	372.29	6.6911e-06	6.0322e-06	423.94	142.19	123.56	42.244	6.1209e-06	52.214	0.00066316	0.0007004	0.0001927	1403.3	7.3881e-06	7.4069e-06	1398	379.6	7.2738e-06	7.4967e-06	433.61	145.16	126.28	43.499	7.5074e-06	53.872	-55.720	-83.090	-95.304	-157.454	-9.557	-20.777	-157.777	-152.788	-14.433	-12.678	-153.570	-148.910	-148.554	-144.150	-18.669	-144.914	-8191	255	
577.211	1	1	0	0	0.1412	0.12992	0.039744	0.20592	0.089521	0.1157	0.13846	0.22492	0.10458	0.1151	0.32459	0.074352	0.21886	0.15748	0.092088	0.077816	-2.575	-3.0333	-2.7562	-3.2917	-3.1271	-2.9521	-3.3	-3.1063	-2.8542	-3.3563	-3.0187	-3.2146	-3.2021	-2.8917	-3.2083	-3.0292	119.658	180.971	-143.912	-140.522	161.253	79.857	25.782	118.678	-134.828	-140.526	100.459	-41.022	-155.027	-159.733	-170.250	133.566	0.00069563	0.00061289	0.00015944	1381.4	8.0566e-06	5.8483e-06	1379.9	372.57	1.0256e-05	4.7059e-06	424.36	142.19	123.43	42.211	4.2216e-06	52.047	0.00067461	0.00067511	0.00018565	1402.4	7.609e-06	7.3652e-06	1400.3	379.72	7.443e-06	7.3282e-06	433.32	145.15	126.3	43.443	7.2397e-06	53.801	-54.443	-90.960	-51.526	-157.539	-22.200	-20.918	-157.611	-152.752	-19.336	-16.083	-153.305	-149.059	-148.491	-143.878	-14.964	-144.890	-8191	255	
577.309	1	1	0	0	0.14733	0.18722	0.1916	0.34711	0.1792	0.13701	0.19187	0.20981	0.16851	0.22105	0.26344	0.15036	0.13248	0.14482	0.29353	0.26296	-2.5042	-3.4333	-2.8854	-3.2708	-3.3771	-2.825	-3.325	-3.2583	-2.8375	-3.1688	-3.0167	-2.9646	-3.275	-2.9625	-3.3208	-3.1208	82.226	-146.800	-151.201	132.493	129.598	142.229	95.516	-150.568	10.323	-92.044	33.807	-103.767	-136.079	157.766	125.828	78.059	0.00071618	0.00072449	0.00018133	1378.6	5.2314e-06	5.1803e-06	1370.3	372.91	6.1993e-06	1.828e-06	422.95	142.43	123.25	42.269	5.4543e-06	52.215	0.00068299	0.00067405	0.00018721	1402.3	7.3742e-06	7.5545e-06	1398.1	379.72	7.3398e-06	7.2485e-06	432.97	145.2	126.19	43.51	7.1085e-06	53.761	-54.615	-93.552	-81.578	-157.667	-42.038	-15.313	-157.733	-152.846	-31.020	-24.984	-153.606	-149.362	-148.661	-143.771	-35.124	-144.724	-8191	255	
577.428	1	1	0	0	0.11565	0.23782	0.10527	0.085897	0.013732	0.51133	0.3326	0.066833	0.16306	0.04794	0.21478	0.077273	0.21361	0.1983	0.2025	0.24052	-2.5292	-3.1625	-2.8	-3.0708	-3.3021	-2.8896	-3.3	-3.2938	-2.85	-3.35	-3.1562	-3.05	-3.3458	-3.0396	-3.0521	-3.2562	-159.157	-55.873	146.741	31.537	-74.780	-154.889	116.437	-87.711	-50.495	-12.474	134.533	-49.004	174.397	101.374	55.988	135.794	0.00072721	0.00057819	0.00014503	1379.5	7.4538e-06	5.5345e-06	1377.7	372.51	6.0931e-06	4.6603e-06	425.43	141.61	123.32	42.298	5.5545e-06	52.385	0.00065894	0.00066529	0.00018583	1402	7.2707e-06	7.54e-06	1400.1	379.92	7.2296e-06	7.1362e-06	433.58	145.05	126.14	43.521	7.135e-06	53.869	-54.310	-91.116	-88.562	-157.395	-17.859	-18.003	-157.439	-152.899	-10.424	-18.031	-153.123	-149.200	-148.593	-143.813	-10.384	-144.853	-8191	255	
577.524	1	1	0	0	0.088399	0.23228	0.19123	0.17946	0.3922	0.18316	0.087789	0.36374	0.19182	0.14832	0.36434	0.096767	0.22957	0.13911	0.096177	0.21065	-2.5187	-3.2042	-2.9375	-2.9958	-3.3417	-2.8833	-3.4021	-3.2062	-2.7792	-3.2833	-2.9333	-3.1896	-3.3063	-2.9521	-3.0646	-3.2479	139.171	-153.931	184.146	129.273	-140.939	2.993	167.375	145.308	-170.237	-136.504	185.290	143.313	139.477	175.283	-165.812	83.673	0.00068019	0.00051588	0.00014637	1378.9	7.2254e-06	5.4929e-06	1374.1	371.87	5.3152e-06	5.5652e-06	422.47	142.1	123.27	42.094	5.7908e-06	52.292	0.00067301	0.00066395	0.00018808	1402.1	7.4125e-06	7.382e-06	1397.3	379.43	7.341e-06	7.2893e-06	432.99	144.97	126	43.535	7.1756e-06	53.891	-54.125	-87.066	-88.056	-157.455	-17.292	-0.232	-157.614	-152.893	-5.514	2.657	-153.197	-148.824	-148.426	-143.786	-26.220	-144.786	-8191	255	
577.620	1	1	0	0	0.076229	0.080675	0.14138	0.17729	0.11741	0.066053	0.25345	0.078967	0.072335	0.10403	0.107	0.20858	0.22629	0.27413	0.10638	0.33449	-2.4667	-3.1	-3.2	-3.1354	-3.2625	-3.0062	-3.3667	-3.4333	-2.8208	-3.2583	-3.1708	-2.9458	-3.1104	-3.1792	-3.1146	-3.3708	66.718	13.710	81.006	158.419	-42.559	-9.643	113.876	167.804	168.312	-83.548	109.674	-167.740	123.886	165.507	104.374	164.030	0.00070379	0.00054168	8.9605e-05	1378.6	5.8836e-06	5.5383e-06	1376.3	371.69	9.1494e-06	6.0681e-06	421.82	141.78	123.21	42.216	7.0649e-06	52.218	0.00067106	0.00066122	0.00018765	1401.6	7.2357e-06	7.4165e-06	1396.6	379.49	7.2247e-06	7.2245e-06	433.11	145.06	126.01	43.496	7.2517e-06	53.882	-56.895	-72.396	-60.239	-157.630	-28.255	-28.789	-157.695	-152.919	-13.781	-31.262	-153.348	-149.044	-148.509	-143.968	-11.856	-144.786	-8191	255	
577.716	1	1	0	0	0.1928	0.30793	0.18402	0.2341	0.13807	0.3331	0.21386	0.11912	0.1284	0.19992	0.041559	0.23281	0.25922	0.19129	0.13541	0.14155	-2.3479	-3.0542	-3.0396	-2.9042	-3.2667	-2.9771	-3.1813	-3.2271	-2.8583	-3.0229	-3.2021	-2.9854	-3.3479	-3.1375	-2.9542	-3.3688	96.918	176.398	186.807	154.611	15.666	170.333	95.606	-95.416	-83.559	-50.531	-100.758	128.035	-149.919	106.117	-93.322	-169.347	0.00067747	0.00065801	0.0001621	1374.7	6.2652e-06	5.4751e-06	1374.2	372.49	4.9072e-06	5.4774e-06	423.56	141.63	123.24	42.16	8.237e-06	52.274	0.00066897	0.00067507	0.00018787	1399.1	7.2075e-06	7.6526e-06	1397.5	379.59	7.0862e-06	7.4207e-06	433.38	144.96	126.23	43.475	7.5565e-06	53.874	-53.575	-71.108	-83.576	-157.555	-13.637	-15.170	-157.531	-152.759	-20.903	-11.819	-153.532	-149.262	-148.662	-143.794	-34.013	-144.656	-8191	255	
577.812	1	1	0	0	0.092378	0.18879	0.19697	0.23053	0.10383	0.075591	0.12168	0.45481	0.21688	0.069692	0.066347	0.19619	0.10687	0.13078	0.11838	0.2179	-2.4625	-2.9792	-3.1937	-2.9437	-3.2	-2.8563	-3.1542	-3.5208	-2.8646	-2.9562	-3.2438	-2.7979	-3.2208	-3.1167	-2.9979	-3.4458	-77.917	60.718	169.005	174.974	-105.225	165.408	135.443	181.890	-11.477	83.293	97.830	165.342	131.968	-123.236	15.449	88.503	0.00074498	0.00039982	0.00014215	1379.2	6.1928e-06	3.7338e-06	1374.4	373.25	7.1071e-06	4.3346e-06	423.16	142.52	123.76	42.049	6.3694e-06	52.287	0.00067378	0.00068256	0.00019049	1401.1	7.223e-06	7.4719e-06	1397	379.6	7.2783e-06	7.2694e-06	432.78	145.03	126.13	43.456	7.3851e-06	53.781	-54.111	-62.726	-79.385	-157.513	8.442	-28.462	-157.782	-152.923	2.322	-25.568	-153.113	-148.952	-148.575	-144.054	-43.624	-144.956	-8191	255	
577.908	1	1	0	0	0.088383	0.20648	0.22499	0.06143	0.078452	0.12684	0.26893	0.1263	0.20729	0.19811	0.11664	0.059307	0.037224	0.024763	0.11001	0.046789	-2.5292	-3.0125	-3.2042	-3.0792	-2.9188	-3.2938	-2.9958	-3.2271	-3.0792	-2.9167	-3.3125	-3.0083	-3.2083	-3.3625	-2.8937	-3.2188	88.583	-29.590	118.232	171.344	159.952	48.812	93.616	150.054	-108.350	-157.522	157.186	-106.079	98.405	145.142	-50.839	-77.485	0.00069834	0.00052549	0.00013976	1377.8	6.1138e-06	4.8335e-06	1375.2	372.63	8.1692e-06	4.8079e-06	424.42	142.56	123.57	42.2	5.7679e-06	52.102	0.00067064	0.00067348	0.00019146	1400.2	7.3204e-06	7.6816e-06	1397.4	379.44	7.3865e-06	7.3726e-06	433.4	145.17	126.22	43.434	7.4167e-06	53.778	-53.139	-79.338	-75.864	-157.729	-4.578	-12.774	-157.719	-152.940	-0.212	-13.379	-153.290	-149.040	-148.667	-143.772	-16.344	-144.741	-8191	255	
578.029	1	1	0	0	0.065503	0.36942	0.071729	0.17138	0.16596	0.031071	0.23572	0.19549	0.27716	0.21861	0.19652	0.18703	0.30312	0.16684	0.2627	0.22307	-2.6188	-2.9875	-3.2313	-2.9688	-3.2667	-3.1833	-3.0604	-3.3354	-3.1688	-2.9062	-3.3958	-3.0458	-3.0417	-3.3292	-2.9417	-3.2375	-124.853	65.926	61.892	-142.567	-155.681	120.726	139.412	164.442	147.208	-69.312	166.036	150.970	-156.174	156.743	22.537	92.552	0.00067868	0.00058596	0.00016676	1376.7	8.4791e-06	4.287e-06	1375.1	372.56	7.1561e-06	5.8265e-06	426.1	142.58	123.65	42.176	6.1249e-06	52.381	0.00066738	0.00067621	0.00018857	1399.7	7.4248e-06	7.6657e-06	1397.3	380.01	7.4565e-06	7.4315e-06	433.66	145.2	126.22	43.451	7.586e-06	53.835	-53.305	-102.242	-81.074	-157.469	-0.137	-21.672	-157.739	-152.991	-16.505	-26.287	-153.336	-149.213	-148.555	-143.957	-16.166	-144.892	-8191	255	
578.123	1	1	0	0	0.17664	0.12632	0.2312	0.16287	0.058056	0.12533	0.215	0.24397	0.15511	0.10107	0.096597	0.11447	0.043388	0.13851	0.21914	0.30022	-2.7875	-2.9042	-3.1396	-3.0104	-2.9896	-3.1979	-3.0312	-3.3667	-3.0687	-2.8187	-3.4354	-2.8875	-3.2146	-3.2583	-2.7729	-3.3438	-64.727	-84.792	-168.320	-162.364	-107.221	165.447	102.247	174.091	-101.797	75.767	-35.424	172.689	74.062	80.585	56.105	167.257	0.00066664	0.00060065	0.00018555	1377.2	8.5407e-06	6.6236e-06	1377.7	371.76	6.6384e-06	5.4989e-06	422.12	141.59	123.19	42.188	5.5001e-06	51.973	0.00066084	0.00068122	0.00018192	1401.2	7.4451e-06	7.2884e-06	1396.3	379.77	7.1755e-06	7.5878e-06	432.52	144.87	126.16	43.501	7.4065e-06	53.813	-52.662	-58.672	-83.350	-157.467	2.000	-24.908	-157.824	-152.902	-2.882	-28.607	-153.310	-149.109	-148.260	-143.792	-27.538	-144.627	-8191	255	
578.220	1	1	0	0	0.23903	0.10629	0.21013	0.22986	0.18031	0.15024	0.063032	0.032421	0.16363	0.04745	0.27654	0.23109	0.22033	0.16623	0.098076	0.15937	-2.6937	-2.825	-3.325	-3.1958	-3	-3.3104	-2.9979	-3.2229	-3.1583	-2.8	-3.2271	-3.0208	-3	-3.3	-2.9813	-3.1292	-98.778	38.088	115.575	-146.017	-71.455	-154.548	91.207	186.760	162.326	10.331	181.281	-75.276	149.701	121.219	-118.492	80.575	0.000735	0.00057361	0.00018478	1380	6.6829e-06	3.7251e-06	1374.2	371.87	7.9491e-06	4.7581e-06	422.87	142.02	122.81	42.054	5.7966e-06	52.136	0.00067669	0.00067743	0.0001841	1400.4	7.2218e-06	7.5613e-06	1396	379.53	7.3103e-06	7.4746e-06	432.38	144.88	126.07	43.374	7.5317e-06	53.777	-52.087	-86.532	-76.570	-157.247	-9.944	-29.355	-157.578	-152.846	-0.032	-32.211	-153.253	-149.024	-148.467	-143.871	3.467	-144.840	-8191	255	
578.316	1	1	0	0	0.2763	0.12073	0.034008	0.11693	0.16636	0.48474	0.37896	0.28245	0.21933	0.12919	0.47203	0.17981	0.034735	0.074425	0.12292	0.16726	-2.6167	-2.7354	-3.2896	-3.2667	-3.075	-3.4583	-3.0333	-3.2646	-3.1979	-2.7208	-3.3625	-3.1188	-2.9688	-3.4396	-2.7938	-3.1771	83.399	7.348	155.796	-156.019	9.613	135.075	94.690	159.735	72.557	-125.888	117.963	143.136	-164.194	-11.495	6.010	100.647	0.00074722	0.00051304	0.00010906	1372.2	7.241e-06	4.144e-06	1371	372.44	7.7957e-06	3.7707e-06	423.23	141.29	122.76	42.19	5.8209e-06	52.147	0.00067121	0.00066985	0.00018162	1398.1	7.1937e-06	7.2358e-06	1395.9	379.41	7.3525e-06	7.311e-06	432.53	144.91	125.88	43.438	7.4548e-06	53.811	-52.065	-82.967	-78.559	-157.415	-12.529	18.135	-157.648	-152.859	-9.786	-14.414	-153.498	-149.286	-148.628	-143.905	-33.611	-144.985	-8191	255	
578.436	1	1	0	0	0.11644	0.21417	0.23533	0.25869	0.143	0.17161	0.36874	0.21463	0.13888	0.20363	0.22588	0.21386	0.15602	0.22623	0.0052863	0.10404	-2.7646	-2.7562	-3.0833	-3.4437	-2.7354	-3.1792	-3.1042	-3.0979	-3.2479	-2.9813	-3.1958	-2.9688	-2.9125	-3.2854	-3.0792	-3.1417	139.997	100.855	26.044	130.900	140.497	60.216	174.729	133.409	-81.836	-36.552	89.682	-164.545	-146.498	159.586	-3.687	33.770	0.0007104	0.0004776	6.211e-05	1375.6	7.7159e-06	5.1635e-06	1373.9	370.77	6.2499e-06	3.8812e-06	424.64	142.05	123.01	42.299	6.055e-06	52.076	0.00067188	0.00066839	0.00018238	1399.2	7.3742e-06	7.4528e-06	1395.7	379.15	7.2783e-06	7.2381e-06	433.53	144.95	126.07	43.508	7.4693e-06	53.847	-55.792	-78.788	-55.834	-157.382	1.145	-10.421	-157.732	-152.841	18.835	-27.976	-153.187	-149.308	-148.623	-143.941	-16.929	-144.828	-8191	255	
578.508	1	1	0	0	0.34884	0.065258	0.14564	0.083649	0.25766	0.031586	0.13182	0.32235	0.10383	0.051125	0.32952	0.13588	0.2556	0.06887	0.20604	0.21061	-3	-2.7938	-3.1396	-3.2479	-3.0104	-3.3646	-3.1208	-2.8625	-3.3604	-2.8458	-3.075	-3.3937	-2.7979	-3.4	-2.9646	-2.9938	88.933	-106.853	-160.080	75.803	-107.837	-15.107	121.852	172.592	-4.766	-83.514	104.569	178.247	172.731	128.559	-148.052	-79.591	0.00070827	0.00042169	0.00010158	1373.8	7.9295e-06	2.9375e-06	1370.3	371.59	7.2052e-06	4.8035e-06	423.43	142.15	122.91	42.295	4.0024e-06	52.45	0.00066756	0.00069335	0.00018689	1398.6	7.4553e-06	7.3838e-06	1396.2	379.24	7.2623e-06	7.5765e-06	432.57	144.91	125.89	43.495	7.3197e-06	53.801	-55.954	-66.794	-104.463	-157.535	-22.346	-23.026	-157.533	-152.872	-6.922	-8.912	-153.369	-149.042	-148.453	-144.072	-23.120	-144.527	-8191	255	
578.629	1	1	0	0	0.08056	0.092719	0.16715	0.25388	0.28095	0.19407	0.32805	0.23213	0.22284	0.020778	0.14711	0.3727	0.12495	0.21655	0.1903	0.10885	-2.8167	-2.9604	-3.0667	-3.3021	-2.8354	-3.2687	-3.1104	-2.9583	-3.175	-2.9208	-3.1146	-3.2021	-2.8667	-3.2354	-3.0312	-3.075	145.593	-80.691	-102.270	105.665	186.567	28.159	117.186	176.747	-84.762	185.046	135.723	164.396	-135.630	-144.277	140.133	-169.577	0.00072413	0.00057851	0.00012165	1374.5	6.7781e-06	5.0443e-06	1371.8	371.51	5.2442e-06	4.7366e-06	422.46	141.69	122.71	42.22	3.7227e-06	52.212	0.00065557	0.00068708	0.00018538	1396.6	7.3392e-06	7.0387e-06	1394.5	378.9	7.0382e-06	7.5044e-06	432.36	144.78	125.94	43.414	7.4817e-06	53.815	-54.447	-99.952	-115.862	-157.377	-17.798	-5.113	-157.512	-152.878	-11.041	-14.214	-153.200	-149.061	-148.552	-143.946	-25.471	-144.859	-8191	255	
578.725	1	1	0	0	0.18937	0.27325	0.029044	0.44748	0.20054	0.44135	0.23137	0.21685	0.082754	0.47185	0.18329	0.078347	0.03933	0.045769	0.25846	0.20193	-2.8438	-2.7333	-2.9792	-3.4104	-2.9313	-3.0729	-3.2667	-3.0208	-3.3542	-2.9833	-2.8729	-3.3229	-2.9667	-3.325	-3.0958	-2.8563	134.101	119.065	10.420	121.545	-149.483	-61.384	88.131	-165.575	46.792	11.916	120.786	34.295	54.094	-70.561	29.615	-87.557	0.00069683	0.00061536	0.00018599	1372.8	5.0845e-06	2.9428e-06	1374.7	370.96	5.1545e-06	3.1027e-06	423.7	141.61	123.56	42.218	6.8287e-06	52.037	0.00066501	0.00068325	0.00018187	1395.9	7.3669e-06	7.3102e-06	1395.7	378.94	7.1091e-06	7.3482e-06	432.66	144.84	126.13	43.487	7.439e-06	53.686	-53.015	-89.978	-80.802	-157.497	-20.286	-55.472	-157.774	-152.830	-27.373	-36.788	-153.310	-149.041	-148.449	-143.820	-27.134	-144.638	-8191	255	
578.821	1	1	0	0	0.11542	0.3366	0.12592	0.11012	0.002642	0.15114	0.22301	0.060825	0.077234	0.10287	0.082087	0.16259	0.14246	0.027392	0.19464	0.31721	-2.8729	-2.9042	-2.875	-3.3625	-2.8187	-2.9917	-3.1125	-2.9042	-3.1729	-2.8979	-3.0917	-3.2208	-2.8979	-2.9771	-3.1167	-2.8771	35.472	61.437	140.283	152.884	103.805	-153.201	94.638	53.554	29.694	-48.864	-107.440	-162.520	140.681	36.976	170.272	78.790	0.00069512	0.00040104	0.00012706	1371.3	8.3731e-06	6.5704e-06	1369.5	370.7	5.2581e-06	3.0038e-06	422.75	141.91	123.1	42.149	5.6461e-06	51.862	0.00066285	0.00067405	0.00018265	1392.9	7.3934e-06	7.3152e-06	1390.7	378.14	7.0317e-06	7.384e-06	431.35	144.71	125.75	43.409	7.3453e-06	53.656	-55.605	-80.773	-64.561	-157.487	-10.933	-3.386	-157.647	-152.718	-17.659	-30.223	-153.297	-149.417	-148.288	-143.795	-14.426	-144.776	-8191	255	
578.915	1	1	0	0	0.065927	0.1662	0.084546	0.075088	0.11795	0.20545	0.21097	0.44575	0.1928	0.071965	0.091657	0.21213	0.21547	0.078803	0.16961	0.098503	-2.7208	-2.825	-2.7917	-3.3375	-2.8042	-3.2062	-3.3063	-3.0083	-3.1458	-3.0104	-2.8937	-3.4396	-2.8896	-2.9396	-3.1396	-2.9542	154.320	-83.768	-15.342	157.104	47.917	-28.291	126.180	119.795	187.188	80.532	99.688	165.420	158.138	-105.763	-144.278	-23.122	0.00072473	0.00058559	0.00014337	1371	7.0635e-06	4.8297e-06	1372	372.06	6.039e-06	3.9577e-06	423.39	141.6	123.16	42.189	5.2215e-06	52.052	0.00066506	0.00068619	0.00018519	1394	7.1435e-06	7.2698e-06	1392.6	378.51	6.9928e-06	7.201e-06	431.94	144.59	125.77	43.388	7.2761e-06	53.754	-55.154	-101.925	-103.847	-157.309	-0.935	-29.517	-157.636	-152.809	-0.832	-11.282	-153.488	-149.134	-148.261	-143.790	-26.894	-145.068	-8191	255	
579.036	1	1	0	0	0.17896	0.44087	0.20691	0.27527	0.22638	0.32305	0.10901	0.16092	0.13527	0.3198	0.19179	0.12439	0.27372	0.22788	0.16044	0.038688	-2.7042	-3.0625	-2.8708	-3.3333	-2.7354	-2.8812	-3.3208	-2.9542	-3.25	-3.1917	-2.9021	-3.4375	-2.9875	-3.0458	-3.1292	-2.8542	88.258	125.894	-76.889	-154.863	-130.147	145.847	92.872	140.738	86.197	62.506	166.131	9.755	117.099	146.344	135.197	133.053	0.00069407	0.00039214	0.00014516	1370.5	5.3128e-06	5.7264e-06	1370.7	370.63	5.4805e-06	2.1743e-06	424.43	142.02	123.11	42.078	8.5686e-06	51.994	0.00065513	0.00066712	0.00018376	1395.2	7.3013e-06	7.2408e-06	1393.8	378.39	6.9559e-06	7.3935e-06	432.59	144.66	126.04	43.366	7.1846e-06	53.773	-54.653	-99.312	-68.981	-157.569	-12.964	-27.901	-157.664	-152.998	-8.921	-29.179	-153.298	-149.124	-148.391	-143.850	1.137	-144.717	-8191	255	
579.108	1	1	0	0	0.069394	0.17286	0.22767	0.31178	0.047425	0.15131	0.39466	0.17777	0.1364	0.06735	0.18203	0.17105	0.13223	0.11366	0.098832	0.12198	-2.725	-3.0771	-2.7104	-3.4229	-2.7917	-2.9771	-3.3563	-3.0646	-2.9604	-3.2271	-2.7792	-3.1854	-3.0521	-2.9021	-3.4042	-2.9833	82.772	-163.622	-1.262	164.063	-153.323	76.322	84.517	127.755	137.129	7.184	143.933	148.899	108.959	-113.908	-43.025	179.072	0.00071745	0.00071483	0.00012419	1370.5	5.493e-06	5.9467e-06	1372.1	371.72	4.7567e-06	4.9212e-06	420.66	141.53	122.65	41.953	5.8597e-06	51.808	0.00064504	0.00066578	0.00018437	1394.6	7.2507e-06	7.2816e-06	1391.9	378.64	7.0997e-06	7.2463e-06	431.24	144.45	125.67	43.311	7.1226e-06	53.548	-54.977	-87.349	-82.494	-157.453	-19.472	-15.850	-157.596	-152.973	-26.603	-11.909	-153.063	-148.892	-148.554	-144.063	-28.823	-144.623	-8191	255	
579.204	1	1	0	0	0.12947	0.21148	0.084813	0.46044	0.19681	0.15327	0.27915	0.13288	0.13635	0.11708	0.26383	0.20942	0.09034	0.061754	0.10566	0.25555	-2.4688	-3.1021	-2.5375	-3.2729	-2.9875	-2.8208	-3.2479	-3.0438	-3.0521	-3.0833	-2.7854	-3.2521	-3.0708	-2.9333	-3.1875	-2.9062	45.859	7.847	-118.191	158.510	-83.649	39.705	138.102	-164.690	110.577	171.660	148.239	-169.091	-45.397	90.585	140.712	-132.506	0.00067254	0.00058671	0.00014403	1367.6	8.7752e-06	4.764e-06	1366	368.91	6.2686e-06	4.9572e-06	419.31	140.71	122.36	42.008	5.8946e-06	51.708	0.00065732	0.00066175	0.0001852	1388.9	7.3832e-06	7.1954e-06	1385.3	376.52	7.1149e-06	7.1607e-06	430.11	144.11	125.07	43.267	7.2923e-06	53.414	-51.572	-76.225	-81.289	-157.391	-32.344	14.874	-157.626	-152.890	-8.994	-5.123	-153.261	-148.938	-148.530	-143.984	-27.331	-144.975	-8191	255	
579.300	1	1	0	0	0.37019	0.1588	0.12038	0.18588	0.061031	0.092599	0.18051	0.090081	0.077121	0.11133	0.086215	0.26929	0.14408	0.1662	0.12543	0.17362	-2.525	-3.1854	-2.7604	-3.3167	-3.0271	-2.8187	-3.3208	-3.075	-2.7521	-3.2521	-2.9479	-2.9375	-3.1583	-2.9417	-3.1792	-2.95	151.063	185.541	166.794	155.384	52.091	-18.502	138.482	-110.838	-44.288	-58.238	172.561	177.095	101.994	-72.503	46.086	170.910	0.00069158	0.0006381	0.00012888	1362.6	8.6992e-06	4.0898e-06	1360.1	370.58	8.1137e-06	6.1917e-06	420.95	140.38	122.79	41.912	4.8076e-06	51.783	0.00065232	0.00064989	0.00018436	1386.9	7.1749e-06	7.3852e-06	1383.5	377.45	7.1476e-06	7.3092e-06	429.88	144.05	125.37	43.251	7.1375e-06	53.461	-55.166	-88.307	-100.848	-157.424	-27.816	5.058	-157.673	-152.577	-14.540	-25.035	-153.201	-149.035	-148.400	-144.013	-14.764	-144.762	-8191	255	
579.396	1	1	0	0	0.07382	0.21925	0.19183	0.22662	0.12443	0.22961	0.35256	0.14182	0.093419	0.14763	0.28791	0.16011	0.093113	0.079619	0.16633	0.19451	-2.3917	-3.2458	-2.8063	-3.3333	-3.0333	-2.6208	-3.3021	-3.0479	-2.6937	-3.175	-3.0146	-3.1896	-3.2167	-2.8438	-3.0563	-2.9583	-122.791	40.644	112.484	157.708	-64.613	-154.119	163.411	-163.740	158.345	-136.398	109.416	-131.263	-161.636	181.875	10.058	130.743	0.00069121	0.00053329	0.00013296	1367	6.2365e-06	7.2325e-06	1364.2	368.86	5.408e-06	4.5315e-06	421.4	141.24	122.71	41.775	7.0056e-06	51.836	0.00066097	0.00067177	0.00018288	1388.4	6.9964e-06	7.2558e-06	1384.7	376.6	7.164e-06	7.191e-06	430.23	144.15	125.33	43.201	7.2479e-06	53.454	-52.134	-85.909	-86.399	-157.460	-28.455	-25.092	-157.707	-152.889	-18.963	-3.632	-153.316	-149.048	-148.268	-143.962	-25.625	-144.835	-8191	255	
579.517	1	1	0	0	0.10906	0.32332	0.18152	0.093752	0.33765	0.26195	0.27253	0.26603	0.039948	0.32938	0.3397	0.11621	0.27074	0.25775	0.098674	0.18526	-2.275	-3.0479	-3.0229	-3.0708	-3.0333	-2.7521	-3.2542	-3.2188	-2.8187	-3.3375	-2.9771	-2.8979	-3.2375	-2.6208	-3.0812	-3.2521	150.082	-62.982	133.879	96.859	29.542	79.248	129.177	113.877	154.570	-57.218	155.808	-69.263	65.156	150.585	-150.037	152.717	0.00071658	0.00038469	0.00013427	1367.4	6.8156e-06	4.9784e-06	1362.2	370.64	5.5412e-06	5.2199e-06	420.49	141.07	122.61	41.973	4.5814e-06	51.895	0.0006524	0.00064586	0.00018624	1388.3	7.2984e-06	7.1245e-06	1384.7	377.24	7.223e-06	7.3545e-06	429.81	144.05	125.34	43.291	7.185e-06	53.549	-53.244	-85.832	-95.412	-157.329	-2.153	-23.807	-157.700	-152.805	-23.960	-26.055	-153.484	-148.992	-148.470	-143.852	-16.098	-144.728	-8191	255	
579.613	1	1	0	0	0.32454	0.13355	0.15496	0.17732	0.04359	0.051562	0.23231	0.3512	0.22118	0.046558	0.19593	0.15753	0.014579	0.13691	0.27924	0.13362	-2.3771	-3.1875	-2.8542	-2.9813	-3.3229	-2.875	-3.1979	-3.2958	-2.8438	-3.2396	-3.0958	-3.0729	-3.325	-2.9167	-3.0667	-3.325	-86.561	60.577	169.008	125.530	-3.995	6.145	81.864	178.972	52.216	44.532	107.771	143.700	170.019	-20.474	-149.851	87.203	0.00066585	0.00057772	0.00015982	1364	6.7836e-06	5.9417e-06	1366.3	370.28	6.0172e-06	5.2766e-06	420.55	141.53	122.68	41.951	8.4784e-06	52.203	0.00065464	0.00064692	0.00018424	1389.4	7.036e-06	7.1636e-06	1388	377.49	7.2947e-06	7.0674e-06	430.53	144.66	125.54	43.28	7.1499e-06	53.584	-54.023	-86.270	-76.860	-157.528	-6.792	-10.911	-157.760	-152.977	0.893	-21.821	-153.441	-148.971	-148.346	-144.027	-13.915	-144.554	-8191	255	
579.709	1	1	0	0	0.27565	0.31125	0.077991	0.10756	0.1912	0.16607	0.049477	0.047684	0.1594	0.38411	0.21297	0.14727	0.35831	0.17857	0.13746	0.0054801	-2.3271	-3.2104	-2.9542	-2.8833	-3.3479	-2.9562	-3.1521	-3.2875	-2.7708	-3.2292	-3.2313	-3.0667	-3.3667	-2.9104	-3.0208	-3.1979	34.857	-85.775	76.045	135.055	-52.619	-56.930	102.374	133.770	-105.330	-43.482	-170.792	158.943	140.158	141.882	-146.202	92.154	0.0007036	0.00060563	0.00011021	1370.5	7.704e-06	5.8489e-06	1369.8	371.36	3.8782e-06	4.3568e-06	422.26	141.35	123.14	42.072	6.5489e-06	52.24	0.00065809	0.00064252	0.00018422	1394	7.2189e-06	7.5173e-06	1392	378.46	7.1218e-06	7.3346e-06	431.73	144.85	125.85	43.359	7.2397e-06	53.788	-53.248	-96.556	-73.386	-157.490	-13.042	1.584	-157.946	-152.907	6.861	-22.936	-153.385	-148.860	-148.687	-143.810	-12.838	-145.116	-8191	255	
579.805	1	1	0	0	0.36438	0.17879	0.11463	0.17953	0.13935	0.094529	0.22669	0.17238	0.080982	0.1824	0.13915	0.33456	0.20133	0.16728	0.013427	0.21316	-2.4229	-3.1604	-3.1688	-2.9062	-3.3021	-3.0167	-3.1937	-3.2313	-2.7188	-3.1146	-3.1688	-2.7917	-3.1917	-3.0375	-2.8021	-3.2938	140.425	60.143	69.459	-170.611	-121.860	126.177	151.058	119.152	112.275	38.275	139.910	-122.930	183.502	-35.641	-58.088	136.956	0.0007384	0.00035843	0.0001333	1375	7.8638e-06	4.07e-06	1374.6	372.31	7.6717e-06	6.0438e-06	422.54	141.65	122.57	41.894	8.5147e-06	51.951	0.00067345	0.00064106	0.0001821	1397.9	7.1668e-06	7.0555e-06	1395.7	379.1	7.0767e-06	7.465e-06	432.28	144.71	125.77	43.368	7.1444e-06	53.66	-53.250	-59.607	-77.226	-157.650	-8.943	-28.118	-157.683	-152.677	-13.048	-32.102	-153.317	-149.148	-148.705	-144.095	-29.015	-144.791	-8191	255	
579.901	1	1	0	0	0.091263	0.029155	0.14238	0.21753	0.041437	0.11529	0.090131	0.30627	0.03049	0.066729	0.14589	0.27376	0.13282	0.042335	0.058605	0.31457	-2.3375	-2.8979	-3.1125	-2.9521	-3.1875	-2.9396	-3.0979	-3.3646	-2.8917	-3.1208	-3.1771	-2.7	-3.0854	-2.975	-2.8583	-3.2354	49.119	-155.259	-107.502	141.931	-80.750	60.758	148.079	81.165	-115.335	16.995	98.997	185.252	174.662	162.986	-156.664	172.734	0.00069082	0.000406	0.00020325	1375.1	7.7332e-06	3.4745e-06	1366.4	370.5	9.8019e-06	3.9809e-06	422.6	141.32	123.02	42.105	7.2351e-06	52.113	0.00065927	0.00062582	0.00018002	1396.7	6.8134e-06	7.0092e-06	1393.3	378.22	6.9973e-06	6.897e-06	432.38	144.59	125.77	43.388	6.7805e-06	53.662	-54.783	-48.134	-66.868	-157.391	-6.354	-30.726	-157.603	-152.897	-16.802	-28.908	-153.491	-148.912	-148.583	-144.022	-12.914	-144.642	-8191	255	
579.997	1	1	0	0	0.11797	0.1143	0.033397	0.25815	0.12125	0.12177	0.13448	0.061984	0.032628	0.28026	0.24705	0.0752	0.064683	0.083151	0.25811	0.35583	-2.4562	-3.0479	-3.0042	-2.9	-3.0917	-3.0563	-2.9938	-3.3167	-2.7958	-2.9458	-3.3958	-2.9208	-3.2979	-3.2417	-2.7792	-3.4521	95.812	-103.078	-26.326	-150.288	-154.725	-126.109	132.867	107.095	-109.612	-163.173	132.400	81.144	-114.119	-143.341	100.331	160.483	0.00069192	0.00052585	0.00010905	1370	7.4864e-06	6.1762e-06	1369.2	371.1	5.0676e-06	5.861e-06	422.86	141.3	122.79	42.143	6.5784e-06	52.037	0.00064808	0.00062179	0.00017633	1393.6	6.7409e-06	6.9824e-06	1391.7	378.52	6.7932e-06	6.8382e-06	431.8	144.44	125.67	43.39	6.7314e-06	53.648	-53.024	-81.336	-75.022	-157.509	-21.036	-22.481	-157.767	-152.854	-17.484	9.278	-153.428	-149.143	-148.547	-143.901	-19.980	-144.886	-8191	255	
580.116	1	1	0	0	0.13517	0.24411	0.06341	0.32612	0.14842	0.063329	0.194	0.12405	0.14928	0.27517	0.23851	0.13126	0.1489	0.19491	0.071016	0.18519	-2.3458	-3.0104	-3.1479	-3.0458	-3.0042	-3.2625	-3.1021	-3.4479	-3.0479	-2.9062	-3.3833	-3.0938	-3.3125	-3.2354	-2.6875	-3.4083	87.823	146.697	170.578	128.372	96.554	180.212	165.089	146.990	88.875	1.011	-163.165	134.767	-101.995	85.371	172.662	48.849	0.00072339	0.00055637	0.00017689	1371.9	4.8743e-06	6.2711e-06	1371.4	371.21	6.2851e-06	5.6322e-06	423.14	141.44	123.06	42.009	4.4293e-06	52.2	0.00063882	0.00061316	0.00017185	1394.7	6.5852e-06	6.8825e-06	1392	378.17	6.5757e-06	6.5388e-06	431.57	144.43	125.62	43.372	6.3957e-06	53.713	-54.237	-92.645	-77.585	-157.325	4.149	-40.047	-157.550	-152.853	-28.003	-39.244	-153.435	-149.021	-148.568	-143.864	-22.667	-144.767	-8191	255	
580.212	1	1	0	0	0.14321	0.28937	0.13295	0.21606	0.18025	0.17672	0.082908	0.20924	0.2749	0.36422	0.12149	0.08176	0.18927	0.12176	0.15256	0.18702	-2.6896	-2.9208	-3.3333	-3.1937	-3.2021	-3.1771	-2.9542	-3.2812	-2.9917	-2.9813	-3.5375	-3.0646	-3.1104	-3.2521	-2.7896	-3.3354	166.741	79.723	3.931	134.290	-128.250	163.467	-159.349	-119.203	23.865	156.760	87.735	83.785	-12.454	-43.296	180.227	97.502	0.00068645	0.00061064	0.00017236	1372.5	6.2313e-06	5.3989e-06	1366.1	370.44	7.4507e-06	4.518e-06	421.43	141.8	123.29	42.042	5.1997e-06	52.041	0.00061664	0.00059022	0.0001635	1394.9	6.6019e-06	6.4857e-06	1392.1	378.13	6.497e-06	6.4038e-06	430.78	144.64	125.65	43.376	6.4462e-06	53.64	-54.003	-77.922	-57.818	-157.563	-38.680	-11.402	-157.639	-152.846	6.621	-13.331	-153.290	-148.956	-148.554	-143.901	-45.734	-144.641	-8191	255	
580.309	1	1	0	0	0.19646	0.30169	0.19545	0.28682	0.11406	0.067677	0.15052	0.1571	0.17266	0.13365	0.2042	0.10976	0.1116	0.25456	0.23116	0.10256	-2.6396	-2.7896	-3.2792	-3.0938	-3.0417	-3.0729	-2.8458	-3.2875	-3.1792	-2.8187	-3.4271	-3	-3.0917	-3.3583	-2.7375	-3.1771	19.396	-60.071	161.273	160.396	-13.448	-10.365	149.297	-140.753	102.852	-80.398	153.817	159.006	143.988	182.494	-20.535	168.554	0.00067977	0.00050177	0.00016282	1373.2	6.2616e-06	5.0349e-06	1372.7	369.82	7.2104e-06	5.4124e-06	422.85	141.5	123.28	42.154	4.8068e-06	52.072	0.0006151	0.0005835	0.00016123	1395.8	6.26e-06	6.389e-06	1393.1	378.09	6.4634e-06	6.5283e-06	431.51	144.65	125.78	43.385	6.5753e-06	53.63	-54.324	-67.580	-83.462	-157.488	19.588	-39.978	-157.671	-152.867	-0.558	-4.914	-153.179	-149.256	-148.578	-143.735	-15.733	-144.782	-8191	255	
580.405	1	1	0	0	0.0033294	0.27876	0.099486	0.089259	0.10112	0.095378	0.42462	0.046371	0.1482	0.16379	0.26537	0.32698	0.41206	0.24529	0.20166	0.12175	-2.6188	-2.6979	-3.2292	-3.1896	-2.8396	-3.2396	-2.9625	-3.2875	-3.0729	-2.7604	-3.4208	-2.9771	-2.925	-3.4875	-2.9583	-3.1875	103.755	-1.113	73.722	129.086	14.506	-57.262	118.540	121.514	-88.569	27.172	128.803	122.286	148.158	83.393	100.784	149.402	0.000711	0.00043344	0.0001367	1372	6.3276e-06	6.6167e-06	1369.9	370.49	5.0155e-06	3.5315e-06	424.81	141.36	123.6	41.983	8.2708e-06	52.42	0.00061021	0.00059027	0.00016212	1394.9	6.196e-06	6.3781e-06	1392.7	378.34	6.2098e-06	6.4024e-06	432.56	144.43	125.89	43.308	6.4389e-06	53.759	-53.133	-93.947	-94.696	-157.487	-8.487	-20.174	-157.744	-152.702	-2.679	-22.201	-153.352	-149.127	-148.631	-143.984	-24.465	-144.618	-8191	255	
#DATA ENDS
