BOXY.EXE: ISS Imagent and Oximeter Data Acquisition Program Version 0.80
Ascii Record File

#ACQ INFORMATION
2  Detector Channels 
16  External MUX Channels 
1  Auxiliary Channels 
5000  Waveform (CCF) Frequency (Hz)
1  Waveforms Skipped 
30  Waveforms Averaged 
1  Cycles Averaged 
16  Acquisitions per Waveform 
10.0806  Updata Rate (Hz) 

#FILE INFORMATION
TRUE -- External MUX Channel results are PARSED.
FALSE -- AC DC and Phase are NOT grouped.
TRUE -- Companion Program Settings File CREATED.
FALSE -- AC data not excluded
FALSE -- DC data not excluded
FALSE -- Phase data not excluded
FALSE -- Auxillary Chn. data not excluded
Tab delimiters

#CALIBRATION STATE
TRUE -- Waveform Calibration Values APPLIED.


#AUX CALIBRATION VALUES
Val Type	aux-1	

Term	1.0000e+00	
Factor	0.0000e+00	


#WF CALIBRATION VALUES
A = Detector Channel
Val Type	A-AC1	A-AC2	A-AC3	A-AC4	A-AC5	A-AC6	A-AC7	A-AC8	A-AC9	A-AC10	A-AC11	A-AC12	A-AC13	A-AC14	A-AC15	A-AC16	A-DC1	A-DC2	A-DC3	A-DC4	A-DC5	A-DC6	A-DC7	A-DC8	A-DC9	A-DC10	A-DC11	A-DC12	A-DC13	A-DC14	A-DC15	A-DC16	A-Ph1	A-Ph2	A-Ph3	A-Ph4	A-Ph5	A-Ph6	A-Ph7	A-Ph8	A-Ph9	A-Ph10	A-Ph11	A-Ph12	A-Ph13	A-Ph14	A-Ph15	A-Ph16	

Term	0.00000e+00	0.00000e+00	0.00000e+00	0.00000e+00	0.00000e+00	0.00000e+00	0.00000e+00	0.00000e+00	0.00000e+00	0.00000e+00	0.00000e+00	0.00000e+00	0.00000e+00	0.00000e+00	0.00000e+00	0.00000e+00	0.00000e+00	0.00000e+00	0.00000e+00	0.00000e+00	0.00000e+00	0.00000e+00	0.00000e+00	0.00000e+00	0.00000e+00	0.00000e+00	0.00000e+00	0.00000e+00	0.00000e+00	0.00000e+00	0.00000e+00	0.00000e+00	0.00000e+00	0.00000e+00	0.00000e+00	0.00000e+00	0.00000e+00	0.00000e+00	0.00000e+00	0.00000e+00	0.00000e+00	0.00000e+00	0.00000e+00	0.00000e+00	0.00000e+00	0.00000e+00	0.00000e+00	0.00000e+00	
Factor	1.00000e+00	1.00000e+00	1.00000e+00	1.00000e+00	1.00000e+00	1.00000e+00	1.00000e+00	1.00000e+00	1.00000e+00	1.00000e+00	1.00000e+00	1.00000e+00	1.00000e+00	1.00000e+00	1.00000e+00	1.00000e+00	1.00000e+00	1.00000e+00	1.00000e+00	1.00000e+00	1.00000e+00	1.00000e+00	1.00000e+00	1.00000e+00	1.00000e+00	1.00000e+00	1.00000e+00	1.00000e+00	1.00000e+00	1.00000e+00	1.00000e+00	1.00000e+00	X	X	X	X	X	X	X	X	X	X	X	X	X	X	X	X	

B = Detector Channel
Val Type	B-AC1	B-AC2	B-AC3	B-AC4	B-AC5	B-AC6	B-AC7	B-AC8	B-AC9	B-AC10	B-AC11	B-AC12	B-AC13	B-AC14	B-AC15	B-AC16	B-DC1	B-DC2	B-DC3	B-DC4	B-DC5	B-DC6	B-DC7	B-DC8	B-DC9	B-DC10	B-DC11	B-DC12	B-DC13	B-DC14	B-DC15	B-DC16	B-Ph1	B-Ph2	B-Ph3	B-Ph4	B-Ph5	B-Ph6	B-Ph7	B-Ph8	B-Ph9	B-Ph10	B-Ph11	B-Ph12	B-Ph13	B-Ph14	B-Ph15	B-Ph16	

Term	0.00000e+00	0.00000e+00	0.00000e+00	0.00000e+00	0.00000e+00	0.00000e+00	0.00000e+00	0.00000e+00	0.00000e+00	0.00000e+00	0.00000e+00	0.00000e+00	0.00000e+00	0.00000e+00	0.00000e+00	0.00000e+00	0.00000e+00	0.00000e+00	0.00000e+00	0.00000e+00	0.00000e+00	0.00000e+00	0.00000e+00	0.00000e+00	0.00000e+00	0.00000e+00	0.00000e+00	0.00000e+00	0.00000e+00	0.00000e+00	0.00000e+00	0.00000e+00	-1.10335e+02	-1.62587e+02	-1.90705e+02	-1.85735e+02	-7.95890e+01	-9.80034e+01	-1.58876e+02	-1.62015e+02	-9.35963e+01	-1.16549e+02	-1.73504e+02	-1.69991e+02	-1.80150e+02	-1.77034e+02	-1.13923e+02	-1.49910e+02	
Factor	1.77319e-05	8.39323e-05	2.32807e-05	6.63806e-01	6.50858e-07	8.58057e-07	1.78611e-01	5.53004e-02	7.65979e-07	9.03384e-07	9.65138e-02	3.13854e-02	2.64622e-02	1.04344e-02	8.22500e-07	1.50170e-02	3.36373e-07	3.38385e-07	9.36488e-08	2.35456e-01	3.72523e-09	3.70374e-09	7.59690e-02	2.46404e-02	3.72491e-09	3.70198e-09	3.96877e-02	1.30564e-02	1.13969e-02	4.37442e-03	3.68760e-09	5.98844e-03	X	X	X	X	X	X	X	X	X	X	X	X	X	X	X	X	



#DISTANCE SETTINGS
A = Detector Channel
A-1	A-2	A-3	A-4	A-5	A-6	A-7	A-8	A-9	A-10	A-11	A-12	A-13	A-14	A-15	A-16	

2.5000e+00	3.0000e+00	2.5000e+00	3.0000e+00	2.0000e+00	3.0000e+00	1.5000e+00	3.0000e+00	3.0000e+00	3.0000e+00	3.0000e+00	3.0000e+00	3.0000e+00	3.0000e+00	1.5000e+00	3.0000e+00	

B = Detector Channel
B-1	B-2	B-3	B-4	B-5	B-6	B-7	B-8	B-9	B-10	B-11	B-12	B-13	B-14	B-15	B-16	

1.0000e+01	1.0000e+01	1.0000e+01	1.4400e+00	1.0000e+01	1.0000e+01	1.5100e+00	1.9400e+00	1.0000e+01	1.0000e+01	1.9900e+00	2.4900e+00	2.4100e+00	2.9000e+00	1.0000e+01	2.9800e+00	




#DATA BEGINS
time	group	step	mark	flag	A-AC1	A-AC2	A-AC3	A-AC4	A-AC5	A-AC6	A-AC7	A-AC8	A-AC9	A-AC10	A-AC11	A-AC12	A-AC13	A-AC14	A-AC15	A-AC16	A-DC1	A-DC2	A-DC3	A-DC4	A-DC5	A-DC6	A-DC7	A-DC8	A-DC9	A-DC10	A-DC11	A-DC12	A-DC13	A-DC14	A-DC15	A-DC16	A-Ph1	A-Ph2	A-Ph3	A-Ph4	A-Ph5	A-Ph6	A-Ph7	A-Ph8	A-Ph9	A-Ph10	A-Ph11	A-Ph12	A-Ph13	A-Ph14	A-Ph15	A-Ph16	B-AC1	B-AC2	B-AC3	B-AC4	B-AC5	B-AC6	B-AC7	B-AC8	B-AC9	B-AC10	B-AC11	B-AC12	B-AC13	B-AC14	B-AC15	B-AC16	B-DC1	B-DC2	B-DC3	B-DC4	B-DC5	B-DC6	B-DC7	B-DC8	B-DC9	B-DC10	B-DC11	B-DC12	B-DC13	B-DC14	B-DC15	B-DC16	B-Ph1	B-Ph2	B-Ph3	B-Ph4	B-Ph5	B-Ph6	B-Ph7	B-Ph8	B-Ph9	B-Ph10	B-Ph11	B-Ph12	B-Ph13	B-Ph14	B-Ph15	B-Ph16	aux-1	digaux	

6615.465	1	1	0	768	0.17706	0.13309	0.027713	0.16484	0.10545	0.063136	0.3337	0.42484	0.031265	0.049676	0.13113	0.18133	0.15912	0.20505	0.05506	0.068808	-2.6354	-2.6063	-2.8833	-3.0604	-2.6854	-3.0667	-3.0896	-2.8833	-2.9375	-2.7604	-2.8583	-2.975	-2.6646	-2.8979	-2.9062	-2.6917	-49.058	67.997	-71.709	-72.119	21.518	194.287	219.863	262.051	43.944	137.807	174.862	211.939	150.978	87.528	72.866	109.566	0.00025583	0.00039579	3.5443e-05	1374.3	4.593e-06	2.7851e-06	1365.2	366.24	1.3992e-06	9.6342e-06	422.69	139.16	121.17	42.276	3.5902e-06	52.355	0.00042837	0.00043077	0.00011114	1254.3	4.6566e-06	4.5077e-06	1335.2	358.37	4.4915e-06	4.3527e-06	404.12	135.45	119.43	40.843	4.0048e-06	49.97	186.540	259.986	-35.149	-84.670	26.610	78.810	-84.425	-79.848	144.044	-20.722	-80.274	-75.989	-75.533	-70.951	-76.710	-71.486	-8191	255	
6615.561	1	1	0	0	0.28276	0.082281	0.12843	0.098849	0.077158	0.084689	0.21393	0.022594	0.064648	0.20216	0.23945	0.10676	0.15452	0.36161	0.18374	0.27143	-2.5667	-2.7771	-2.6167	-3.0604	-2.6354	-2.8583	-3.0646	-2.6521	-3.0125	-2.8208	-2.8479	-2.9021	-2.7521	-2.7562	-3.1188	-2.9042	237.124	-1.017	-14.158	181.817	244.126	-21.953	248.854	18.431	232.463	215.276	-56.374	10.041	260.890	218.779	-87.660	232.422	0.00012776	0.00083592	9.2661e-05	1367.7	3.7633e-06	8.2689e-06	1369.5	368.47	2.2593e-06	9.097e-06	423.77	140.11	121.77	42.126	4.8958e-06	52.387	0.00040558	0.0003886	0.00010181	1244.2	4.5205e-06	4.2297e-06	1333.3	359.92	4.5642e-06	4.3159e-06	405.03	136.88	120.18	41.049	4.1665e-06	50.831	170.823	-81.339	-44.227	-84.390	-45.825	10.847	-84.370	-79.888	7.515	15.121	-80.161	-75.930	-75.671	-70.871	-72.778	-71.674	-8191	255	
6615.657	1	1	0	0	0.16262	0.24384	0.17624	0.13368	0.02278	0.13348	0.44537	0.27096	0.183	0.08503	0.10284	0.23748	0.15097	0.078961	0.16602	0.07404	-2.5646	-2.5979	-2.4833	-2.875	-2.7521	-3.0146	-3.1458	-2.6854	-2.8729	-3.0646	-2.8542	-2.9125	-2.5021	-2.9229	-3.1271	-2.8187	-43.394	169.276	30.566	-87.169	13.057	-29.258	158.775	193.323	142.275	45.012	203.740	-49.802	-39.613	71.630	85.905	-5.919	0.00020408	0.00025704	0.00012799	1369.5	6.1815e-06	4.0244e-06	1366.3	368.27	6.8098e-06	3.5696e-06	423.59	140.12	122	42.442	2.1945e-06	52.359	0.00043845	0.00041363	0.00010826	1286.5	4.9362e-06	4.5885e-06	1337.7	364.88	4.92e-06	4.6293e-06	408.22	139.02	121.09	41.379	4.3237e-06	51.466	221.732	25.935	245.755	-84.118	53.940	-26.202	-84.411	-79.731	9.452	79.416	-80.138	-75.934	-75.433	-71.037	0.142	-71.503	-8191	255	
6615.753	1	1	0	0	0.061477	0.03752	0.071823	0.13513	0.19196	0.0061914	0.038144	0.070086	0.17519	0.29334	0.24606	0.098323	0.12865	0.25151	0.13619	0.26124	-2.4708	-2.8521	-2.5479	-3.1625	-2.8771	-2.9583	-3.1063	-2.7417	-2.8625	-3.0167	-2.6271	-3.1625	-2.9479	-2.525	-2.9229	-2.7896	201.617	157.465	49.171	136.195	104.971	-38.843	187.354	-92.304	-5.735	131.664	158.591	253.071	248.503	-78.223	147.099	-33.032	9.5735e-05	0.0004784	5.2006e-05	1371.2	4.8962e-06	5.119e-06	1366.8	369.16	2.0432e-06	4.7832e-06	421.12	139.64	121.76	42.467	3.8704e-06	52.513	0.00044029	0.00041465	0.00010986	1303.1	4.7552e-06	4.4354e-06	1339.6	365.05	4.6137e-06	4.3245e-06	406.28	138.23	119.5	40.805	4.153e-06	51.056	221.083	-39.959	-33.476	-84.120	29.200	-27.236	-84.369	-79.834	-27.456	-76.333	-80.437	-75.955	-75.526	-71.077	130.214	-71.637	-8191	255	
6615.848	1	1	0	0	0.13477	0.087918	0.11554	0.061559	0.11372	0.13887	0.13938	0.32964	0.085817	0.013466	0.26196	0.37002	0.10024	0.24954	0.32463	0.19272	-2.5646	-3.0083	-2.5187	-2.9583	-2.9396	-2.7271	-2.9667	-2.8333	-2.9146	-3.1083	-2.7146	-3.075	-2.9375	-2.775	-2.9604	-2.7542	-22.713	215.510	101.035	17.609	-0.399	187.405	185.072	194.309	253.111	187.954	198.277	-39.499	203.281	-33.756	224.661	157.846	0.00021946	0.00079394	7.8126e-05	1369.1	6.4003e-06	2.7403e-06	1360.3	366.92	2.6365e-06	6.9253e-06	421.24	139.63	121.47	42.212	6.2439e-06	52.035	0.00040053	0.00037881	0.00010688	1283.5	4.3631e-06	4.0767e-06	1333.5	362.07	4.2863e-06	4.0039e-06	405.43	137.27	118.36	40.443	4.252e-06	50.621	207.928	-5.204	-39.744	-84.457	41.209	128.611	-84.360	-79.774	-34.625	9.324	-80.402	-75.732	-75.374	-70.910	151.671	-71.165	-8191	255	
6615.946	1	1	0	0	0.14046	0.083453	0.19755	0.11946	0.079173	0.093559	0.24844	0.065659	0.058959	0.13717	0.036039	0.12677	0.13551	0.065491	0.047585	0.039358	-2.4125	-2.7396	-2.5708	-3.0083	-2.8438	-2.3958	-3.2583	-2.8083	-2.7917	-2.9458	-2.7938	-2.8979	-2.7458	-2.8104	-2.9479	-2.6646	12.207	35.893	170.775	31.173	27.791	-72.687	220.313	-69.767	20.570	177.130	157.293	200.454	-58.626	132.287	196.752	37.164	0.00020862	0.00051304	0.00015389	1370.3	1.9141e-06	5.6924e-06	1359.3	367.48	4.3822e-06	1.8468e-06	418.95	139.31	121.56	42.112	3.382e-06	52.461	0.0003849	0.00035907	0.00010849	1271.3	4.1696e-06	3.9129e-06	1334.5	360.89	4.1396e-06	3.901e-06	406.19	136.54	117.96	40.321	4.3873e-06	50.447	199.854	-40.017	80.340	-84.318	8.821	254.680	-84.246	-79.641	-95.953	87.740	-80.273	-75.993	-75.756	-71.075	124.249	-71.542	-8191	255	
6616.064	1	1	0	0	0.16623	0.091394	0.11332	0.22007	0.097317	0.10506	0.17884	0.097173	0.24741	0.15477	0.1612	0.11653	0.20214	0.036649	0.082331	0.17677	-2.1063	-3.225	-2.7062	-2.9062	-2.8438	-2.7188	-2.8917	-2.7375	-2.7667	-2.9	-2.6417	-2.9	-3.0438	-2.65	-2.8375	-2.8646	240.737	-7.066	49.676	178.028	111.452	6.328	187.988	60.807	222.959	10.770	252.341	-50.931	152.743	27.075	249.247	193.867	0.0001667	0.00039863	6.6243e-05	1366.1	4.3848e-06	1.8422e-06	1365.8	367.23	3.9495e-06	1.0461e-06	421.42	139.7	121.19	42.095	9.0092e-07	51.983	0.00037893	0.000363	0.00011429	1269	4.1721e-06	4.0949e-06	1345.3	361.55	4.2367e-06	4.181e-06	410.6	137.02	118.1	40.762	4.6911e-06	50.539	208.044	127.692	239.192	-84.504	70.469	239.147	-84.360	-79.868	231.522	14.945	-80.252	-75.866	-75.652	-70.989	148.507	-71.452	-8191	255	
6616.161	1	1	0	0	0.057811	0.13175	0.095326	0.15458	0.010107	0.12659	0.1989	0.17595	0.26766	0.33871	0.30546	0.13275	0.22184	0.27917	0.19077	0.088961	-2.3417	-2.8396	-2.6333	-2.8604	-2.9437	-2.3937	-2.9938	-2.9479	-2.7917	-2.8729	-2.5542	-2.8521	-3.0708	-2.6937	-2.75	-3.0146	68.085	71.251	251.514	-9.136	21.860	-3.258	179.122	230.178	242.942	111.329	163.209	23.440	-82.600	-96.101	125.947	252.238	0.00020247	0.00059457	0.00010656	1378.5	4.7652e-06	2.2114e-06	1364.3	367.68	8.0887e-06	6.1953e-06	419.9	139.14	121.29	42.332	4.3612e-06	52.202	0.00038605	0.0003929	0.00011954	1272.7	4.1564e-06	4.3801e-06	1345.1	360.85	4.1382e-06	4.3865e-06	409.4	136.6	117.87	41.071	4.6441e-06	50.493	204.447	18.235	-52.484	-84.062	25.276	-94.261	-84.218	-79.781	-1.064	196.688	-80.347	-76.144	-75.406	-70.801	-13.218	-71.283	-8191	255	
6616.257	1	1	0	0	0.11842	0.21661	0.11058	0.14233	0.056233	0.14732	0.17298	0.20302	0.32609	0.14768	0.18565	0.25423	0.29911	0.23244	0.221	0.15968	-2.0979	-2.7917	-2.7125	-2.8438	-3.075	-2.5833	-3.0271	-3.2021	-2.4188	-2.8875	-3.0062	-2.6479	-3.1063	-2.6937	-2.7687	-2.8708	126.480	217.502	-33.253	-61.099	-39.447	-11.173	226.790	-89.962	126.608	210.866	164.905	246.708	-95.944	-89.103	42.762	-80.069	0.00018405	0.00059886	0.00013789	1383	1.9834e-06	3.4519e-06	1361.4	366.62	5.5448e-06	4.7201e-06	420.45	139.03	120.91	42.1	3.0954e-06	52.213	0.00038238	0.0004196	0.00011894	1274.5	4.2148e-06	4.7023e-06	1342.2	361.07	4.2839e-06	4.7918e-06	410.22	136.79	118.27	41.453	4.7273e-06	50.549	199.047	223.847	224.123	-84.700	46.342	185.538	-84.268	-79.741	182.741	14.685	-80.175	-75.925	-75.480	-70.948	6.873	-71.646	-8191	255	
6616.353	1	1	0	0	0.19258	0.32464	0.16109	0.046706	0.27097	0.14507	0.13874	0.4095	0.11671	0.14622	0.16229	0.17977	0.24007	0.040476	0.41065	0.2272	-2.2479	-2.8646	-2.7792	-2.8646	-2.7833	-2.4437	-3.1333	-3.0792	-2.6083	-2.9104	-3.1104	-2.8542	-3.0667	-2.7625	-2.8979	-3.225	26.465	135.550	-55.900	88.609	168.343	180.342	213.618	199.660	176.556	151.501	186.516	239.563	-79.397	33.673	245.842	260.429	0.00023765	0.00056133	0.00018943	1376.4	6.5213e-07	6.3078e-06	1367.8	366.11	3.737e-06	7.987e-06	420.28	139.01	120.35	42.034	7.7715e-06	52.255	0.0004031	0.00045152	0.00012018	1278.2	4.4342e-06	4.982e-06	1343.7	360.21	4.5311e-06	4.9863e-06	410.17	136.87	119.02	41.686	4.7991e-06	50.749	183.373	-5.893	-92.904	-84.275	56.516	-31.496	-84.337	-79.693	-96.523	175.470	-80.035	-75.947	-75.566	-71.020	-30.041	-71.094	-8191	255	
6616.449	1	1	0	0	0.01373	0.11893	0.10289	0.23959	0.27287	0.21918	0.26393	0.2921	0.2346	0.18536	0.15728	0.3502	0.060931	0.090705	0.31961	0.039267	-1.8833	-2.8354	-2.7083	-2.6292	-3.3021	-2.7875	-3.1792	-2.9667	-2.4521	-2.9979	-2.8292	-2.4292	-3.1083	-2.925	-2.8271	-3.0167	-72.738	-36.700	23.376	160.918	-30.304	-55.092	224.507	179.800	231.011	-89.254	244.594	127.223	153.094	-73.790	260.247	237.802	0.00033845	0.0007189	0.00016317	1379	3.7037e-06	5.6037e-06	1369.5	367.83	1.976e-06	5.3316e-06	421.42	139.4	121.42	42.176	4.4762e-06	52.033	0.00044743	0.00047995	0.00012495	1292	5.0455e-06	5.3447e-06	1353.6	363.61	5.1876e-06	5.3262e-06	413.88	137.9	121.16	41.948	4.9159e-06	50.751	218.017	236.225	226.629	-84.792	135.090	-81.646	-84.334	-79.588	237.397	-83.245	-80.239	-75.787	-75.596	-70.906	6.450	-71.402	-8191	255	
6616.545	1	1	0	0	0.25432	0.1455	0.22885	0.027076	0.081083	0.16155	0.18684	0.17357	0.054538	0.13097	0.19598	0.24521	0.40038	0.12253	0.10908	0.15958	-2.4229	-2.9375	-3.1	-2.6833	-2.8312	-2.775	-2.9333	-3.0792	-2.6688	-2.8208	-3.1083	-2.8063	-3.1188	-2.8292	-2.6792	-3.1854	219.486	199.896	-25.709	174.227	103.546	34.273	223.436	231.275	-40.337	203.878	219.964	170.756	214.519	241.054	36.210	210.965	0.00024723	0.00073686	0.00013729	1384.2	1.8359e-06	9.3611e-06	1366.9	366.46	5.9229e-06	7.0135e-06	421.52	139.38	121.49	42.193	4.2946e-06	51.982	0.00047496	0.00047346	0.0001237	1294.4	5.2824e-06	5.2087e-06	1354.2	363.22	5.391e-06	5.2162e-06	412.53	138.28	121.89	41.844	4.8845e-06	51.156	192.211	12.324	-91.771	-84.800	147.954	-17.454	-84.173	-79.684	-67.699	9.085	-80.185	-76.053	-75.681	-70.924	-41.362	-71.527	-8191	255	
6616.666	1	1	0	0	0.078644	0.18301	0.0697	0.071055	0.16781	0.15648	0.5289	0.26948	0.19557	0.10495	0.14061	0.053809	0.21528	0.2424	0.10637	0.16957	-2.2604	-2.7021	-2.8187	-2.7792	-3.1396	-2.7958	-2.9188	-3.0042	-2.6146	-3.0646	-3.1146	-2.4313	-2.8854	-2.95	-2.575	-2.9437	134.200	95.565	179.840	55.007	250.941	258.864	254.417	188.685	-37.641	191.434	40.424	50.244	251.663	221.065	0.723	174.731	0.00014999	0.00077115	0.00015562	1374.5	1.291e-06	6.3964e-06	1371.4	366.7	7.7142e-06	4.6626e-06	421.6	138.63	121.33	42.028	2.9056e-06	52.372	0.00049696	0.00047255	0.0001233	1307.8	5.4836e-06	5.1762e-06	1350.4	365.01	5.5493e-06	5.1618e-06	411.67	139.07	122.02	41.707	4.8013e-06	51.678	168.449	-21.752	-80.633	-84.565	-9.941	-59.504	-84.273	-79.797	-74.580	42.815	-80.331	-75.798	-75.673	-70.832	10.634	-71.493	-8191	255	
6616.760	1	1	0	0	0.17687	0.22335	0.22339	0.090328	0.2324	0.092783	0.12388	0.3505	0.1211	0.13244	0.067455	0.32384	0.21964	0.15493	0.14279	0.304	-2.1208	-2.6833	-3.0625	-2.6792	-2.8063	-2.9417	-2.9833	-3.0667	-2.7687	-2.8583	-2.9437	-2.9708	-3.0042	-3.0771	-2.6979	-3.1063	113.089	101.482	87.384	108.871	198.268	-61.493	191.392	167.342	247.373	-50.932	10.220	255.105	-95.510	214.015	-80.006	164.393	0.00020604	0.0001803	0.00016372	1374.5	4.2565e-06	3.0824e-06	1369.1	365.61	6.5462e-06	4.7385e-06	420.32	138.95	121.45	42.245	1.2058e-06	52.088	0.00049713	0.00046535	0.00012078	1327.3	5.4638e-06	5.1184e-06	1350.6	366.35	5.4795e-06	5.1462e-06	411.77	140.41	122.11	41.84	4.9071e-06	52.275	245.940	-82.149	-70.844	-84.415	-37.599	250.859	-84.272	-79.712	-31.077	-34.227	-80.147	-76.007	-75.486	-70.818	94.267	-71.315	-8191	255	
6616.856	1	1	0	0	0.13499	0.090606	0.17258	0.019328	0.032785	0.094015	0.21066	0.088423	0.14422	0.13302	0.34959	0.14872	0.21495	0.34132	0.12519	0.12722	-2.2708	-2.6792	-3.0125	-2.8312	-2.6625	-2.9313	-2.9792	-2.8667	-2.7875	-2.7979	-2.8937	-2.8646	-2.9979	-3.0396	-2.4979	-3.1021	55.100	239.341	155.928	39.780	-39.121	61.874	-93.961	203.014	50.966	103.358	228.670	-18.770	252.510	163.555	67.438	-39.194	9.8804e-05	0.00058914	8.6327e-05	1370	3.5431e-06	8.2934e-06	1365.2	367.55	5.2208e-06	2.0247e-06	421.66	139.2	121.33	42.275	2.627e-06	52.553	0.00050091	0.00046985	0.0001241	1347.5	5.4066e-06	5.0726e-06	1352	369.43	5.3437e-06	5.0193e-06	413.16	140.79	121.37	41.545	4.8849e-06	52.246	-93.590	223.509	-58.052	-84.558	127.839	4.695	-84.489	-79.844	-42.445	236.822	-80.221	-76.021	-75.489	-70.801	198.369	-71.465	-8191	255	
6616.953	1	1	0	0	0.22997	0.22226	0.24102	0.1392	0.04251	0.24925	0.10395	0.1556	0.27195	0.25612	0.19442	0.19073	0.14542	0.38013	0.28198	0.14553	-2.4688	-2.5687	-2.9021	-2.7875	-2.9917	-2.9062	-2.8708	-3.0687	-2.7479	-2.5771	-3.2771	-2.7708	-2.6292	-3.0667	-2.7292	-2.8438	183.529	222.763	47.099	135.494	-88.439	-31.899	254.477	172.589	129.063	127.668	201.947	-11.595	-64.674	233.368	-4.275	-51.495	0.00013372	0.00049958	0.00016837	1380	4.9965e-06	1.1408e-05	1364.2	367.52	1.2024e-06	9.9833e-06	421.68	139.41	120.99	42.144	3.1864e-06	52.533	0.0004672	0.00043579	0.00012222	1333.8	4.9263e-06	4.6027e-06	1349.2	366.14	4.8449e-06	4.5266e-06	411.69	139.41	119.88	40.925	4.8492e-06	51.585	197.382	-23.189	80.635	-84.536	87.758	13.349	-84.194	-79.758	146.691	-1.576	-80.439	-76.163	-75.509	-70.949	186.204	-71.410	-8191	255	
6617.049	1	1	0	0	0.20178	0.13606	0.052003	0.32077	0.15691	0.060343	0.26147	0.24382	0.18635	0.16015	0.2076	0.1549	0.33091	0.2174	0.24327	0.24507	-2.4437	-2.8333	-2.8833	-2.875	-2.7438	-3.0187	-2.8792	-2.9021	-3.0187	-2.7875	-3.0479	-2.8708	-2.9479	-3.0708	-2.7604	-3.175	25.219	256.227	11.897	216.899	-91.540	169.017	181.341	255.427	208.279	-42.921	238.204	204.534	224.133	-29.739	-80.148	130.658	0.00014326	0.00019023	0.00010394	1379.6	2.9418e-06	3.2611e-06	1370.2	367.56	2.9648e-06	2.7016e-06	420.16	139.52	121.37	42.349	1.1833e-06	52.429	0.00043521	0.0004089	0.00012405	1314.8	4.7725e-06	4.469e-06	1352.6	365.22	4.78e-06	4.5346e-06	414.49	139.02	120.05	41.07	5.1667e-06	51.588	224.797	-13.617	2.722	-84.361	1.470	-23.757	-84.270	-79.660	-53.800	97.409	-80.302	-76.135	-75.428	-71.022	-79.746	-71.273	-8191	255	
6617.145	1	1	0	0	0.18245	0.11236	0.17823	0.18345	0.13282	0.17301	0.1857	0.14519	0.091736	0.1562	0.038144	0.14875	0.17592	0.3975	0.18301	0.13516	-2.5271	-2.725	-2.9896	-2.6854	-2.675	-2.9958	-2.8333	-3.0687	-3.0604	-2.5708	-3.1104	-3.0354	-2.6521	-3.1396	-2.7	-2.8604	167.598	-17.771	180.303	132.932	-34.676	212.761	197.737	257.006	115.360	94.218	224.799	-63.976	-34.420	-65.555	144.664	33.498	0.00019545	0.00039057	0.00010588	1369.5	5.0325e-06	1.7992e-06	1366.4	367.94	4.3754e-06	6.6164e-06	419.65	139.68	121.46	42.245	7.233e-06	52.328	0.00043733	0.00042291	0.00013135	1311.5	4.7759e-06	4.6421e-06	1358.7	365.35	4.7039e-06	4.7249e-06	416.15	138.99	119.74	41.44	5.2537e-06	51.426	217.207	14.326	-54.030	-84.447	34.618	188.547	-84.312	-79.792	74.830	116.348	-80.254	-75.784	-75.572	-70.628	31.762	-71.392	-8191	255	
6617.241	1	1	0	0	0.1857	0.21323	0.08481	0.20594	0.29982	0.20919	0.23285	0.21601	0.10361	0.17846	0.22553	0.23765	0.22224	0.17784	0.17448	0.13952	-2.8187	-2.6667	-2.9271	-3.0167	-2.5396	-2.9417	-3.0479	-2.7979	-2.9938	-2.6063	-2.7687	-3.0062	-2.7708	-2.925	-2.6646	-2.9292	23.587	-5.620	-53.887	239.461	14.178	-33.113	188.183	175.628	50.972	-52.861	246.851	247.137	226.362	-97.037	256.446	-47.273	8.0983e-05	0.00037025	9.8504e-05	1373.1	5.8762e-06	1.0553e-05	1370.7	369.09	3.8208e-06	2.6407e-06	422.7	140.33	121.45	42.384	4.2021e-06	52.327	0.00042885	0.00044895	0.00013375	1310.4	4.7368e-06	4.9545e-06	1361.5	365.49	4.6525e-06	5.0615e-06	417.95	139.12	119.92	41.885	5.251e-06	51.497	196.294	42.996	174.994	-84.318	50.219	214.355	-84.405	-79.817	60.670	240.235	-80.272	-75.957	-75.602	-70.999	-48.164	-71.378	-8191	255	
6617.337	1	1	0	0	0.085953	0.19256	0.21082	0.23347	0.038495	0.30107	0.12119	0.20594	0.24386	0.21241	0.14494	0.15601	0.2113	0.13481	0.1373	0.16917	-2.3063	-2.5375	-2.95	-2.6521	-2.5875	-3.1771	-2.9042	-2.9458	-3.0125	-2.4458	-3.1875	-2.9625	-2.6604	-3.3875	-2.8167	-2.6167	-24.123	12.846	29.160	46.813	106.738	154.215	237.005	217.824	-29.958	60.758	101.118	192.551	-84.430	198.988	102.829	228.469	0.00016865	0.00056201	0.00029842	1380.8	1.1681e-06	3.5288e-06	1370.1	367.54	2.9595e-06	4.8617e-07	421.91	139.95	121.12	42.297	4.7727e-06	52.461	0.00042615	0.0004762	0.00013185	1306.7	4.701e-06	5.1833e-06	1358.8	365.03	4.6626e-06	5.2475e-06	415.35	138.75	119.99	42.029	5.0648e-06	51.265	220.155	192.500	-76.789	-84.414	112.819	53.166	-84.384	-79.854	-93.164	65.419	-80.418	-76.069	-75.604	-70.756	-4.017	-71.527	-8191	255	
6617.433	1	1	0	0	0.1099	0.13684	0.069666	0.12201	0.027875	0.033889	0.38552	0.15693	0.064226	0.11265	0.092487	0.12025	0.31164	0.020023	0.17778	0.15005	-2.7667	-2.5667	-2.8771	-2.8104	-2.6333	-3.0854	-2.9896	-2.7438	-3.0896	-2.8167	-2.7854	-3.1125	-2.7125	-2.8979	-2.8875	-2.825	147.864	92.334	200.513	69.556	78.609	201.795	256.773	128.188	94.675	145.363	227.098	-79.717	185.023	63.409	142.353	-76.150	0.0003555	0.00073514	0.00012953	1368.9	6.2788e-07	4.5168e-06	1370.5	368.88	4.8275e-06	9.8109e-06	422.16	139.66	121.49	42.515	2.6551e-06	52.661	0.00043156	0.00048643	0.00012797	1295.5	4.8177e-06	5.3097e-06	1355.1	364.65	4.8472e-06	5.3378e-06	415.03	138.27	120.94	42.245	4.9978e-06	51.266	221.568	-26.484	-73.735	-84.394	220.053	76.008	-84.396	-79.868	163.889	-42.923	-80.407	-75.982	-75.614	-70.696	77.110	-71.349	-8191	255	
6617.554	1	1	0	0	0.021564	0.1133	0.13578	0.23006	0.19022	0.22063	0.34374	0.36948	0.15387	0.14177	0.13531	0.10759	0.2657	0.20807	0.19144	0.12018	-2.6479	-2.7542	-2.7438	-2.95	-2.7396	-3.0083	-3.1146	-2.8063	-3.1729	-2.5812	-2.925	-2.9437	-2.6729	-3.0271	-2.7958	-2.5542	-75.242	-0.628	103.428	115.910	-63.122	153.449	149.590	176.286	-77.548	230.682	210.767	223.578	207.513	236.208	247.672	139.364	0.00024655	0.00047538	0.00013458	1379.5	2.9349e-06	7.8423e-06	1370.9	369.03	2.7309e-06	2.9818e-06	422.97	139.85	121.22	42.356	4.3674e-06	52.428	0.00045845	0.00049076	0.00012671	1293.8	5.133e-06	5.2897e-06	1354.4	364.21	5.1047e-06	5.27e-06	414.11	138.01	121.67	42.098	4.8874e-06	51.05	179.824	-33.406	-37.575	-84.151	-93.302	-46.259	-84.250	-79.855	31.184	38.387	-80.397	-76.127	-75.485	-70.942	247.852	-71.656	-8191	255	
6617.626	1	1	0	0	0.10621	0.14655	0.21427	0.1051	0.07654	0.097131	0.096526	0.16042	0.22012	0.20538	0.19697	0.11873	0.29865	0.15294	0.111	0.16903	-2.5958	-2.6104	-2.7583	-2.8521	-2.4542	-3.0021	-2.9042	-2.8417	-2.8229	-2.8229	-2.7333	-3.0229	-2.7354	-2.8646	-2.8625	-2.875	-28.658	-58.495	111.662	150.286	194.981	34.454	-60.744	243.498	43.127	234.084	177.040	247.050	239.488	188.263	-45.860	144.063	0.0002368	0.00071645	0.00024611	1377.1	1.4512e-06	8.0993e-06	1370.3	368.8	7.6209e-06	2.2968e-06	423.41	139.73	121.58	42.348	7.2856e-06	52.657	0.00047481	0.00047308	0.00012341	1290.1	5.2582e-06	5.1038e-06	1351.6	364	5.2397e-06	5.0505e-06	412.12	138.15	121.9	41.779	4.6758e-06	51.302	193.644	-36.405	-56.182	-84.353	200.543	20.622	-84.377	-79.820	212.553	111.630	-80.318	-76.096	-75.496	-70.803	-21.350	-71.555	-8191	255	
6617.746	1	1	0	0	0.30166	0.1271	0.12915	0.10035	0.2044	0.16536	0.10076	0.26616	0.03177	0.31059	0.075476	0.15268	0.2357	0.20958	0.090668	0.22117	-2.4521	-2.7667	-2.4854	-3.0729	-2.5979	-2.5417	-3.1583	-2.9104	-2.9208	-2.7979	-2.7292	-3.0438	-2.7188	-2.8875	-2.9917	-2.5833	14.557	109.087	58.539	170.215	56.991	-17.984	204.399	147.654	64.802	86.343	4.305	209.343	175.151	255.903	118.657	-14.769	0.00017729	0.00069621	0.00017424	1383.9	2.6334e-06	9.2501e-06	1366.1	369.58	7.5708e-06	2.844e-06	423.46	139.81	121.56	42.194	5.3906e-06	52.342	0.00047987	0.00045353	0.00011905	1299.5	5.297e-06	4.9451e-06	1345.8	365.53	5.2237e-06	4.8792e-06	410.66	138.96	121.76	41.645	4.5527e-06	51.549	224.679	-51.810	-71.970	-84.331	236.240	-3.652	-84.305	-79.750	-22.315	-31.306	-80.477	-76.104	-75.579	-70.659	89.082	-71.645	-8191	255	
6617.841	1	1	0	0	0.22208	0.15537	0.19134	0.082073	0.080456	0.096624	0.20129	0.14997	0.20637	0.12668	0.17778	0.25771	0.15771	0.1263	0.11391	0.1532	-2.4792	-2.7479	-2.5333	-2.85	-2.7958	-2.7396	-3.2208	-2.7729	-2.6937	-2.6604	-2.9375	-2.9646	-2.8521	-2.7333	-3.0187	-2.7729	256.130	129.928	110.513	250.975	-93.178	-22.725	262.030	168.819	180.498	-56.037	212.023	-97.357	231.802	243.782	61.219	112.523	0.00024161	0.00034423	3.7646e-05	1370.6	8.3224e-06	3.3926e-06	1370	369.34	2.5848e-06	6.3109e-06	421.67	139.11	121.83	42.372	3.8912e-06	52.363	0.00047405	0.00044385	0.00011548	1311.1	5.1669e-06	4.8033e-06	1344.8	366.85	5.0982e-06	4.7761e-06	409.74	139.57	121.2	41.53	4.5018e-06	51.867	222.932	234.192	-13.584	-84.431	83.689	99.267	-84.329	-79.982	-80.021	19.773	-80.218	-76.219	-75.489	-70.841	-81.448	-71.452	-8191	255	
6617.937	1	1	0	0	0.17197	0.12773	0.28479	0.12841	0.3284	0.3834	0.19678	0.23926	0.10405	0.16829	0.076562	0.074656	0.24332	0.13005	0.36646	0.24256	-2.5458	-2.7667	-2.5125	-3.1083	-2.8521	-2.6979	-3.2292	-2.6875	-3.175	-2.6375	-2.7062	-2.9417	-2.6583	-2.6979	-2.975	-2.5646	-18.271	-95.262	214.066	145.299	102.607	253.024	-45.717	159.878	130.142	148.384	-54.939	221.399	56.481	135.049	258.802	-73.221	0.00021649	0.00043243	0.00011554	1369.4	4.5125e-06	6.6284e-06	1366.8	368.7	6.731e-06	3.0614e-06	424.2	140.16	122.19	42.401	3.8112e-06	52.38	0.00045524	0.00042875	0.00011543	1315.6	4.9913e-06	4.6743e-06	1346.2	367.41	4.9423e-06	4.6411e-06	411.35	140.26	120.8	41.422	4.6528e-06	52.026	195.732	-54.941	202.686	-84.249	-27.046	-3.768	-84.160	-79.659	25.419	38.447	-79.995	-76.090	-75.760	-70.831	181.350	-71.563	-8191	255	
6618.033	1	1	0	0	0.12831	0.28481	0.26569	0.027559	0.088592	0.020583	0.15922	0.12665	0.15219	0.15343	0.24061	0.30489	0.33079	0.025072	0.15768	0.20888	-2.425	-2.9021	-2.5542	-3.0271	-2.8729	-2.6562	-3.1833	-2.7104	-2.6375	-3.0563	-2.5312	-3.1833	-3.0312	-2.6521	-3.0187	-2.8542	254.383	61.719	231.843	154.150	232.042	29.821	224.432	189.648	48.270	159.969	156.504	201.642	213.831	48.145	104.165	179.300	9.4642e-05	0.00091016	0.00010939	1382.8	4.244e-06	4.3001e-06	1372	369.35	5.0929e-06	4.1655e-06	421.43	139.9	121.41	42.418	5.6507e-06	52.345	0.00044824	0.00041987	0.0001215	1327.1	4.9052e-06	4.6168e-06	1352.5	368.09	4.9248e-06	4.5745e-06	414.64	140.13	120.62	41.348	4.9686e-06	51.964	232.987	-67.485	253.292	-84.582	31.261	-19.987	-84.406	-79.754	33.973	71.505	-80.222	-76.176	-75.589	-71.096	234.474	-71.675	-8191	255	
6618.154	1	1	0	0	0.087426	0.13109	0.083324	0.08343	0.076716	0.21921	0.2314	0.14165	0.44342	0.31153	0.21028	0.30368	0.13878	0.22545	0.091441	0.12375	-2.2208	-2.9333	-2.6729	-2.925	-2.8438	-2.7479	-3.35	-2.6917	-2.7562	-3.0833	-2.6958	-2.9542	-2.9479	-2.7104	-3.2208	-2.6854	-67.714	174.516	52.733	108.450	-20.939	259.895	251.862	178.301	169.411	-48.780	204.818	172.829	-97.651	-95.826	-43.784	84.808	0.00014531	0.00050877	6.1621e-05	1376.2	4.5592e-06	3.7874e-06	1369.1	367.43	5.2311e-06	1.8358e-06	420.31	140.07	121.89	42.457	5.7698e-06	52.577	0.00044555	0.0004155	0.00012807	1320.3	4.8093e-06	4.56e-06	1357.4	366.59	4.7643e-06	4.4689e-06	415.28	139.12	120.01	41.221	5.0052e-06	51.499	256.937	220.329	16.329	-84.589	-4.186	138.470	-84.274	-79.751	-37.016	-40.256	-80.328	-75.708	-75.574	-70.990	79.877	-71.434	-8191	255	
6618.250	1	1	0	0	0.33072	0.26931	0.14125	0.15655	0.26933	0.20619	0.1723	0.3651	0.040889	0.078628	0.26722	0.15778	0.16227	0.28716	0.10873	0.056265	-2.2313	-3.0354	-2.5854	-2.9625	-2.9292	-2.6521	-3.0938	-2.8688	-2.7604	-2.95	-2.7458	-2.8042	-3.1354	-2.7208	-2.7583	-2.8458	197.038	221.634	-17.966	82.603	-77.750	-63.954	144.778	253.731	11.722	-83.626	-81.270	142.559	-53.905	-76.849	119.042	166.857	0.00015358	0.00019694	9.4948e-05	1382.6	3.5771e-06	2.605e-06	1369.4	369.05	4.5242e-06	8.2067e-06	422	140.18	121.56	42.312	5.1791e-06	52.428	0.00042165	0.00041092	0.00012841	1305	4.578e-06	4.564e-06	1355.9	365.03	4.5753e-06	4.5647e-06	415.91	138.66	119.44	41.377	5.0442e-06	51.236	205.785	-16.464	-91.184	-84.306	17.028	96.647	-84.277	-79.861	-0.252	171.233	-80.386	-76.264	-75.587	-70.826	-36.552	-71.289	-8191	255	
6618.321	1	1	0	0	0.24252	0.029745	0.16543	0.11882	0.12459	0.10832	0.21245	0.29079	0.14464	0.29158	0.20884	0.047497	0.13399	0.34412	0.33074	0.15039	-2.2708	-3.0042	-2.6188	-2.7896	-2.9688	-2.4833	-2.9813	-2.9042	-2.5312	-3.1271	-2.6792	-2.8167	-2.9729	-2.6688	-3.0479	-2.9167	36.106	99.044	-87.009	254.291	59.775	-32.197	177.347	248.948	127.098	-71.884	109.010	1.427	245.848	146.887	190.268	52.271	0.00015578	0.00025261	0.00018298	1378.3	7.2289e-06	5.9252e-06	1368.2	369.94	2.2633e-06	4.2586e-06	422.06	140.25	121.98	42.419	4.843e-06	52.655	0.0004117	0.00042978	0.00012913	1295.9	4.4478e-06	4.8001e-06	1356.3	364.67	4.4905e-06	4.8458e-06	415.07	138.58	119.09	41.725	4.9593e-06	51.17	237.614	88.305	253.227	-84.174	61.904	151.112	-84.234	-79.835	-59.631	127.599	-80.305	-75.922	-75.535	-71.090	30.550	-71.535	-8191	255	
6618.442	1	1	0	0	0.17803	0.11185	0.23037	0.22824	0.11459	0.055576	0.42908	0.12564	0.066173	0.092307	0.2341	0.23506	0.24737	0.11014	0.36717	0.050346	-2.1479	-2.9458	-2.4896	-2.6875	-3.1396	-2.5438	-3.0375	-3.2229	-2.5604	-3.1521	-2.8146	-2.6625	-3.0312	-2.7021	-2.9729	-2.8646	215.105	165.632	223.139	-84.824	245.495	142.962	205.191	137.903	117.619	44.777	161.917	-76.060	53.932	134.065	-47.012	229.916	0.00020493	0.00035548	0.00022198	1378.5	4.679e-06	3.0317e-06	1371	368.67	2.7805e-06	2.289e-06	423.41	139.79	121.33	42.295	5.4744e-06	52.424	0.00040855	0.0004498	0.00012544	1289	4.4215e-06	4.9804e-06	1354.1	363.47	4.4715e-06	5.0009e-06	413.71	137.82	119.28	41.81	4.769e-06	50.846	208.293	88.803	-73.776	-84.377	112.435	15.860	-84.295	-79.911	25.504	-94.813	-80.187	-75.811	-75.393	-70.876	-19.296	-71.334	-8191	255	
6618.538	1	1	0	0	0.075479	0.3001	0.16681	0.42167	0.10621	0.11464	0.30665	0.16256	0.16017	0.13105	0.21744	0.24475	0.053849	0.090662	0.048353	0.068957	-2.2375	-3.0417	-2.7938	-2.8438	-2.95	-2.8875	-2.9229	-3.2479	-2.6021	-2.9646	-3.0417	-2.5979	-3.0062	-2.8583	-2.675	-2.9417	-65.808	213.843	108.164	237.011	-95.456	204.486	186.252	-47.612	-61.716	113.378	257.113	191.873	231.927	-2.520	83.935	91.540	0.00012475	0.00022504	0.0001833	1378.7	2.121e-06	3.5521e-06	1375.4	368.84	5.8137e-06	5.5212e-06	422.58	139.8	121.21	42.43	4.2714e-06	52.146	0.00041501	0.00045911	0.00012079	1283.1	4.5568e-06	5.0558e-06	1351.6	362.6	4.6804e-06	5.0422e-06	412.02	137.46	119.91	41.846	4.7325e-06	50.656	219.816	9.060	-58.149	-84.200	5.426	48.088	-84.376	-79.774	226.228	57.465	-80.335	-76.038	-75.515	-70.888	-10.587	-71.482	-8191	255	
6618.634	1	1	0	0	0.18983	0.16605	0.098278	0.18631	0.013385	0.28408	0.25129	0.21806	0.089931	0.089791	0.066306	0.41475	0.17352	0.10981	0.15394	0.23462	-2.3583	-2.8708	-2.7771	-2.7333	-3.0062	-2.7771	-3.0104	-3.0646	-2.5417	-2.8771	-2.7812	-2.8	-2.9	-2.7958	-2.6917	-2.9708	232.659	243.871	213.155	211.606	-22.930	124.012	224.047	221.742	248.903	85.847	207.295	222.166	184.820	-15.116	17.726	161.346	0.00024425	0.00095991	0.00018253	1380.9	5.382e-06	6.9826e-06	1366.9	368.39	4.8196e-06	6.459e-06	423.55	139.56	121.34	42.444	1.1731e-06	52.424	0.00044114	0.00046155	0.00012032	1281	4.9081e-06	5.1007e-06	1350.7	362.65	5.0293e-06	5.0623e-06	412.39	137.54	121.23	41.865	4.7239e-06	50.771	206.549	-63.621	261.722	-84.370	214.578	31.849	-84.252	-79.808	103.425	-34.194	-80.438	-75.984	-75.442	-70.708	-23.827	-71.253	-8191	255	
6618.730	1	1	0	0	0.16371	0.10027	0.074403	0.14066	0.1497	0.10739	0.22337	0.26808	0.21243	0.2227	0.099767	0.21583	0.10101	0.13858	0.094845	0.15177	-2.2042	-2.7958	-2.7375	-2.7896	-2.8563	-2.7604	-2.8271	-2.9875	-2.7417	-2.85	-3.0896	-2.825	-2.9771	-2.9396	-2.5812	-3.3021	-12.651	133.473	223.180	-21.757	24.032	-93.524	249.810	-74.401	62.521	96.364	250.909	162.193	194.725	-41.725	-76.010	200.561	0.00023503	0.00046719	0.00010889	1368.6	3.8782e-06	7.6162e-06	1371.6	368.82	7.7267e-06	9.7837e-06	423.49	139.8	121.83	42.408	2.387e-06	52.534	0.00046424	0.00045599	0.00011867	1282	5.0817e-06	4.9276e-06	1350.5	362.82	5.1124e-06	4.8671e-06	410.01	138	121.48	41.603	4.5492e-06	50.948	167.472	199.023	-50.759	-84.288	163.852	35.024	-84.227	-79.787	23.517	-37.344	-80.194	-75.940	-75.454	-70.844	23.691	-71.498	-8191	255	
6618.849	1	1	0	0	0.13827	0.14423	0.32781	0.065095	0.077792	0.067168	0.15575	0.15103	0.049444	0.15706	0.15746	0.1738	0.25149	0.19109	0.076855	0.24015	-2.2188	-2.825	-2.9	-2.6583	-2.8937	-2.8729	-2.7771	-2.9958	-2.7771	-2.7687	-2.8625	-2.8208	-3.0938	-2.6708	-2.6542	-3.1208	82.527	152.825	147.567	27.827	-97.068	234.760	210.662	159.156	-15.024	-33.288	244.773	227.338	237.745	234.165	67.909	220.096	0.00017378	7.6571e-05	0.0001741	1376.8	4.1143e-06	6.4852e-06	1368.2	368.04	3.4708e-06	5.3434e-06	421.18	139.48	121.79	42.18	5.4107e-06	52.355	0.0004708	0.00044028	0.0001145	1292.7	5.1218e-06	4.7926e-06	1345.6	364.17	5.1181e-06	4.7893e-06	408.8	138.74	121.38	41.442	4.4522e-06	51.467	195.508	-22.556	-52.580	-84.459	77.096	-2.138	-84.231	-79.720	24.748	-10.099	-80.104	-76.025	-75.707	-71.044	29.198	-71.583	-8191	255	
6618.921	1	1	0	0	0.027118	0.13027	0.13729	0.02589	0.35116	0.16445	0.33965	0.14137	0.20924	0.31326	0.15919	0.11419	0.25026	0.078009	0.017024	0.25045	-2.2354	-2.75	-2.9583	-2.4458	-2.9667	-2.8792	-2.7625	-3.1937	-2.65	-2.9833	-3.1354	-2.625	-3.0354	-3.1375	-2.6229	-2.9188	240.655	-46.626	249.660	52.656	23.332	157.293	163.205	220.831	220.737	45.805	216.897	141.070	235.296	198.567	99.557	187.004	0.0001955	0.00015048	0.00012458	1370.2	5.766e-06	6.2978e-06	1365.5	367.71	6.7139e-06	2.1339e-06	422.58	139.42	121.42	42.352	2.0969e-06	52.225	0.00046202	0.00043319	0.00011305	1308.1	5.0373e-06	4.7381e-06	1343.3	366.12	5.0312e-06	4.7035e-06	408.59	139.64	120.93	41.349	4.4844e-06	51.663	-84.061	74.425	-95.320	-84.447	89.970	-21.912	-84.188	-79.522	1.241	38.085	-79.984	-76.038	-75.410	-71.057	209.280	-71.412	-8191	255	
6619.017	1	1	0	0	0.099494	0.10469	0.043317	0.048304	0.062438	0.30151	0.36689	0.46396	0.12252	0.313	0.078862	0.31184	0.13136	0.16	0.032418	0.16338	-2.2833	-2.8417	-2.8708	-2.6604	-2.9896	-2.7958	-2.8854	-3.1167	-2.7687	-2.6542	-3.0625	-2.9	-3.0125	-2.8479	-2.5604	-3.3229	19.741	39.856	172.463	67.477	138.137	146.886	189.068	164.211	27.608	-87.943	76.073	-85.870	-57.266	29.858	57.277	-25.812	0.00016311	0.00017924	9.18e-05	1384	4.8669e-06	3.3222e-06	1363.2	366.49	2.881e-06	7.538e-06	419.45	139.49	121.18	42.262	8.3654e-07	52.174	0.00044953	0.0004253	0.00011391	1316.6	4.9005e-06	4.5649e-06	1344.5	366.37	4.8669e-06	4.5757e-06	409.68	139.81	120.38	41.074	4.6235e-06	51.707	198.377	-75.833	87.187	-84.123	7.592	50.109	-84.200	-79.588	75.190	7.428	-80.116	-75.995	-75.543	-70.965	-73.897	-71.407	-8191	255	
6619.113	1	1	0	0	0.25824	0.11334	0.28151	0.12969	0.24616	0.14239	0.3699	0.12055	0.15403	0.2686	0.32352	0.28493	0.25412	0.20744	0.073798	0.15822	-2.2604	-2.6521	-3.1771	-2.7729	-2.6104	-2.65	-2.8271	-3.0375	-2.6562	-2.7062	-2.9896	-2.775	-2.9458	-3.1688	-2.8937	-2.9604	108.953	245.931	24.618	221.799	-90.129	114.847	126.747	225.099	146.597	-96.431	191.855	192.384	-41.533	94.930	-46.870	15.940	0.00027414	0.00029797	0.00012488	1373.2	6.3781e-06	8.7556e-06	1364.5	367.42	8.3152e-06	2.8628e-06	419.62	139.44	121.39	42.246	4.0395e-06	52.284	0.00043689	0.00041144	0.00011798	1314.1	4.762e-06	4.4234e-06	1348.8	366.09	4.7215e-06	4.404e-06	412	139.18	119.94	40.938	4.8369e-06	51.443	245.634	-85.243	56.142	-84.397	86.102	9.091	-84.326	-79.844	-3.446	-30.717	-80.398	-76.228	-75.689	-70.952	92.636	-71.506	-8191	255	
6619.234	1	1	0	0	0.19386	0.057873	0.26781	0.15936	0.27185	0.18005	0.28714	0.33014	0.099368	0.22271	0.094809	0.14101	0.095929	0.21823	0.13901	0.33047	-2.4333	-2.7792	-2.7146	-2.7542	-2.7146	-3.0292	-2.9771	-3.0667	-3.0167	-2.6729	-3.1979	-2.9313	-2.6312	-3.0438	-2.6167	-2.8667	39.880	140.407	210.170	207.924	205.452	241.953	186.125	199.571	95.025	225.182	55.371	197.735	157.032	250.815	200.409	188.165	0.00022715	0.00023374	0.00019788	1381.5	3.2311e-06	4.704e-06	1366.2	367.74	4.5571e-07	4.5941e-06	420.56	139.79	121.37	42.376	2.7949e-06	52.337	0.00042629	0.00040288	0.00012303	1307.1	4.6647e-06	4.3913e-06	1353.3	365.14	4.6383e-06	4.4729e-06	414	138.88	119.75	41.151	5.0805e-06	51.379	215.958	-89.991	31.956	-84.573	168.923	15.021	-84.506	-79.850	104.591	250.414	-80.158	-76.178	-75.721	-71.148	-89.855	-71.545	-8191	255	
6619.330	1	1	0	0	0.13657	0.30655	0.06993	0.049069	0.12658	0.18275	0.1086	0.3984	0.27086	0.11512	0.17282	0.22673	0.26813	0.11608	0.10334	0.1993	-2.5521	-2.55	-3.0438	-2.7875	-2.7417	-3.2146	-3.0396	-2.95	-3.1521	-2.6604	-3.0292	-2.9437	-2.5104	-3.0417	-2.6042	-2.8354	-12.405	82.699	152.196	150.939	247.083	55.425	178.764	243.278	213.812	155.551	192.146	-52.173	-69.259	241.928	10.753	233.623	0.00015862	0.00034197	5.7408e-05	1379	2.0773e-06	3.127e-06	1368	368.15	3.1461e-06	7.0261e-06	423.42	139.48	121.46	42.19	7.2919e-06	52.074	0.00042295	0.00042138	0.00012966	1304.7	4.6757e-06	4.6455e-06	1359	365.21	4.6335e-06	4.7507e-06	416.62	138.73	119.51	41.392	5.1589e-06	51.238	253.949	-75.957	140.014	-84.490	22.806	183.205	-84.151	-79.670	-57.556	56.616	-80.364	-76.131	-75.651	-70.852	50.481	-71.399	-8191	255	
6619.426	1	1	0	0	0.10302	0.15356	0.20268	0.19482	0.12488	0.26311	0.25551	0.1494	0.062029	0.21047	0.27731	0.18767	0.10023	0.12931	0.13225	0.19772	-2.7	-2.7479	-2.9646	-2.5896	-2.5438	-3.0917	-2.8896	-2.8729	-3.0604	-2.4938	-3.1104	-3.0187	-2.6354	-3.1375	-2.6583	-2.8604	147.500	-49.768	202.642	224.730	166.293	206.475	165.384	47.364	32.736	-78.987	204.276	259.877	-23.779	-75.859	-44.583	197.033	0.00013792	0.00036575	0.00014356	1375.2	7.451e-07	3.0455e-06	1369	368.13	3.4066e-06	7.1877e-06	421.97	140.09	121.45	42.075	6.3908e-07	52.35	0.00041601	0.00044433	0.00013029	1300.3	4.5945e-06	4.8924e-06	1357.7	364.59	4.5304e-06	4.9924e-06	415.38	138.59	119.41	41.731	5.0493e-06	51.167	212.606	102.053	-95.857	-84.430	9.667	162.463	-84.157	-79.831	14.317	183.463	-80.054	-76.209	-75.614	-70.991	2.993	-71.557	-8191	255	
6619.522	1	1	0	0	0.21617	0.18417	0.16467	0.1656	0.27444	0.21189	0.17861	0.15936	0.13468	0.13564	0.20826	0.10808	0.22642	0.1952	0.15029	0.21014	-2.3854	-2.5604	-2.9188	-2.9562	-2.7271	-3.05	-2.8563	-2.775	-3.1188	-2.6021	-2.925	-3.0438	-2.6042	-2.8792	-3.0167	-2.7396	-2.890	22.679	-21.030	258.391	-55.565	34.280	230.832	115.098	233.386	138.053	-79.465	107.217	242.177	-76.552	153.480	199.610	0.00019863	0.0005457	8.636e-05	1373.5	5.3783e-06	2.648e-06	1368.1	368.39	2.9865e-06	2.5402e-06	421.92	140.3	121.68	42.322	5.5356e-06	52.529	0.0004135	0.0004661	0.00012731	1290.6	4.5832e-06	5.0641e-06	1353.4	363.89	4.5576e-06	5.1317e-06	413.53	138	119.61	41.884	4.8633e-06	50.994	226.659	65.068	249.253	-84.482	90.032	176.213	-84.462	-79.681	211.414	-78.764	-80.186	-75.871	-75.494	-71.021	14.001	-71.504	-8191	255	
6619.618	1	1	0	0	0.26327	0.0077298	0.10106	0.11877	0.12632	0.11457	0.15803	0.18471	0.2211	0.44037	0.13991	0.12271	0.2156	0.022995	0.13682	0.29665	-2.5604	-2.4521	-2.6833	-3.0125	-2.6979	-2.7875	-2.9979	-2.8438	-2.8312	-2.5938	-2.8812	-3.1083	-2.4667	-3.0083	-2.7875	-2.7417	-36.890	-42.222	-68.528	-19.302	226.703	8.443	198.710	173.704	77.874	146.765	-92.412	33.945	221.391	234.063	68.569	125.319	0.00023338	0.00055306	0.00010825	1368.9	4.1149e-06	6.1333e-06	1368.3	368.43	5.2766e-06	4.6439e-06	421.33	139.52	121.54	42.198	2.2354e-06	52.367	0.00041956	0.00047111	0.00012162	1282	4.6973e-06	5.1107e-06	1349.4	362.49	4.7091e-06	5.118e-06	411.6	137.26	120.34	41.766	4.7415e-06	50.652	199.962	-66.576	-45.961	-84.513	190.707	29.873	-84.563	-80.049	134.341	10.386	-80.294	-75.776	-75.507	-70.814	34.477	-71.476	-8191	255	
6619.715	1	1	0	0	0.073105	0.14371	0.28743	0.13599	0.22888	0.20088	0.38263	0.0739	0.27937	0.16473	0.098503	0.1005	0.2459	0.11959	0.21498	0.29533	-2.5938	-2.7812	-2.625	-3.0833	-2.5708	-2.8458	-3.0854	-2.525	-3.0062	-2.9125	-2.7229	-2.9604	-2.7125	-3.1729	-2.8458	-2.5917	-11.806	-44.608	-14.385	-76.373	14.040	-9.709	225.778	159.254	-88.414	49.222	-29.002	153.602	147.295	-37.195	-27.807	177.132	0.00029306	0.0013683	0.00018949	1377.9	2.8838e-06	9.3067e-06	1365.7	368.25	3.1158e-06	4.3651e-06	422.21	139.83	121.21	42.167	6.8688e-06	52.151	0.00044017	0.00046071	0.00011892	1275.6	4.8922e-06	4.9538e-06	1345.5	361.73	4.9004e-06	4.9102e-06	410.35	136.9	120.9	41.604	4.6024e-06	50.654	200.408	-33.833	-44.451	-84.192	248.368	-22.742	-84.336	-79.914	-81.130	48.530	-80.354	-76.083	-75.618	-71.090	-4.207	-71.715	-8191	255	
6619.835	1	1	0	0	0.060806	0.071863	0.17759	0.15198	0.09479	0.090226	0.46329	0.24097	0.1973	0.058485	0.22751	0.0057985	0.28637	0.29492	0.1184	0.26125	-2.7042	-2.7083	-2.6437	-2.9083	-2.7083	-2.7167	-3.1437	-2.8521	-2.9604	-2.6646	-2.6333	-2.9354	-2.7979	-2.8	-2.7583	-2.7042	200.140	135.536	256.103	82.226	258.187	261.989	210.880	248.242	-54.377	49.818	226.666	247.350	-83.037	-64.311	-95.294	255.510	0.00025722	0.00045325	0.0001632	1372.9	5.6893e-06	7.0164e-06	1366.2	368.43	1.4821e-06	3.6334e-06	422.47	139.46	121.27	42.26	2.6289e-06	51.877	0.00045805	0.00044622	0.00011655	1274.7	5.069e-06	4.8401e-06	1344.2	362.45	5.0419e-06	4.795e-06	408.95	137.52	121.03	41.45	4.4388e-06	50.712	193.111	-90.583	-79.271	-84.312	247.473	14.861	-84.321	-79.584	169.576	68.911	-80.182	-76.070	-75.708	-70.681	-24.283	-71.514	-8191	255	
6619.930	1	1	0	0	0.0035682	0.045223	0.23207	0.1949	0.17657	0.12809	0.32227	0.20482	0.029604	0.25721	0.20703	0.21599	0.44954	0.31587	0.16877	0.12127	-2.7521	-2.75	-2.6667	-3.025	-2.4938	-2.8542	-3.1562	-2.6479	-2.9167	-2.8312	-2.6208	-3.0312	-2.8688	-2.7875	-2.8812	-2.8083	29.744	36.905	164.442	215.435	192.437	175.087	163.674	223.071	70.170	249.015	223.653	-55.771	259.826	191.132	56.382	212.291	0.00014416	0.00025126	0.00016631	1372.1	2.579e-06	5.3669e-06	1371.3	365.99	3.9257e-06	2.3806e-06	422.34	139.07	121.71	42.171	5.1301e-06	52.384	0.00045812	0.00042969	0.00011276	1285.6	5.0371e-06	4.6861e-06	1340.5	363.2	4.998e-06	4.6394e-06	407.14	137.96	120.85	41.313	4.308e-06	51.217	198.956	-49.052	254.324	-84.016	258.897	33.246	-84.267	-79.820	239.288	-68.259	-80.258	-76.113	-75.482	-70.741	-50.734	-71.662	-8191	255	
6620.026	1	1	0	0	0.20586	0.2159	0.1646	0.073847	0.13585	0.10417	0.2443	0.13665	0.091774	0.14488	0.15194	0.17775	0.17775	0.074732	0.15942	0.16589	-2.4667	-2.5417	-2.5187	-3.0479	-2.5917	-2.5812	-3.1333	-2.8125	-2.6396	-2.8438	-2.8125	-2.9583	-2.65	-2.825	-2.9521	-2.525	39.361	-62.647	155.431	210.471	-79.757	-50.629	167.279	214.729	94.534	-96.201	256.937	200.717	12.032	-58.832	6.415	-8.938	0.00016036	0.00079841	0.0001353	1366	3.37e-06	3.573e-06	1367	368.04	5.282e-06	6.5544e-06	421.5	139.6	121.16	42.346	3.7284e-06	52.175	0.00044851	0.0004195	0.00010966	1298.4	4.8679e-06	4.5755e-06	1339.5	365.02	4.8187e-06	4.526e-06	407.16	138.9	120.17	41.237	4.3382e-06	51.478	243.315	-43.330	231.283	-84.183	4.991	-38.807	-84.367	-79.703	15.270	-20.262	-80.280	-75.882	-75.333	-70.888	129.337	-71.707	-8191	255	
6620.146	1	1	0	0	0.21395	0.18267	0.084034	0.11585	0.1657	0.15342	0.26697	0.3063	0.45148	0.05671	0.083647	0.068726	0.19153	0.16139	0.15495	0.24168	-2.5667	-2.85	-2.3604	-2.9104	-2.5896	-2.7604	-3.0312	-2.7854	-2.7146	-2.9146	-2.7021	-2.9917	-2.9042	-2.525	-2.8688	-2.6521	-89.306	39.060	-60.488	78.387	21.610	93.663	190.846	192.349	117.555	62.651	111.170	145.734	239.764	234.683	-82.405	114.809	0.00016429	0.00066006	0.00011073	1362.3	6.2412e-06	7.7212e-06	1363.3	367.66	6.019e-06	6.4431e-06	420.34	139.45	121.62	42.37	7.3838e-06	52.312	0.00043704	0.00040859	0.00011186	1307	4.7527e-06	4.4776e-06	1338.7	365.8	4.6891e-06	4.384e-06	408.69	138.78	119.73	40.993	4.4707e-06	51.403	225.506	-60.516	-9.140	-84.055	27.602	-15.757	-84.340	-79.802	-83.702	-29.797	-80.297	-76.040	-75.309	-70.913	167.898	-71.254	-8191	255	
6620.218	1	1	0	0	0.24001	0.39138	0.036143	0.12517	0.15095	0.038753	0.21588	0.086406	0.2225	0.16259	0.064918	0.22137	0.056764	0.42784	0.1704	0.18219	-2.2333	-3.0542	-2.3896	-2.7979	-2.9417	-2.6875	-3.325	-2.8333	-2.6875	-3.0021	-2.8812	-2.9896	-3.0438	-2.5625	-3.1354	-2.6875	146.828	-50.950	133.047	89.620	46.346	4.340	124.276	200.604	-47.787	242.350	222.324	-76.541	223.062	192.285	19.168	245.468	0.00016898	0.0004654	0.00016045	1378.4	2.7031e-06	5.6515e-06	1365.6	367.45	1.9629e-06	5.6416e-06	422.05	139.56	121.34	42.124	1.1427e-06	52.339	0.00042141	0.00039153	0.00011541	1303.5	4.5842e-06	4.3223e-06	1344	364.58	4.5983e-06	4.2485e-06	411.17	138.58	119.29	40.843	4.7025e-06	51.197	235.850	-11.373	33.545	-84.295	-12.650	51.439	-84.359	-79.752	-85.040	10.192	-80.194	-76.016	-75.635	-70.955	89.504	-71.547	-8191	255	
6620.314	1	1	0	0	0.1689	0.27411	0.20324	0.038611	0.096536	0.12306	0.064037	0.09621	0.18372	0.10075	0.4295	0.040142	0.26444	0.41239	0.26327	0.047301	-2.1583	-2.9729	-2.6917	-2.8146	-2.8125	-2.6708	-2.9688	-2.7354	-2.5938	-2.7875	-2.7854	-2.8917	-2.925	-2.5458	-2.9229	-2.7687	30.652	-72.392	82.826	-78.738	-36.409	182.471	109.889	-53.099	62.065	11.167	247.752	-0.481	23.117	184.253	-22.191	-35.244	3.2656e-05	0.00050866	0.00011155	1368.9	3.8958e-06	2.1698e-06	1364.3	367.89	3.7006e-06	2.3738e-06	423.14	139.48	121.34	42.15	3.0629e-06	52.196	0.00041433	0.00038971	0.00012155	1296.1	4.5093e-06	4.3437e-06	1349.7	364.2	4.5434e-06	4.3476e-06	413.84	138.23	119.26	41.042	4.9421e-06	51.178	180.276	187.659	117.247	-84.453	54.203	-61.533	-84.428	-79.803	58.520	216.068	-80.368	-76.115	-75.586	-71.198	114.114	-71.529	-8191	255	
6620.410	1	1	0	0	0.15806	0.14121	0.14103	0.06073	0.087903	0.21364	0.25983	0.20918	0.072831	0.12537	0.38637	0.09753	0.35292	0.27036	0.10835	0.10062	-2.1521	-2.85	-2.3708	-2.8042	-2.925	-2.4583	-3.1542	-2.9417	-2.7313	-2.8583	-2.8688	-2.9062	-2.8937	-2.7833	-2.9958	-2.6792	-51.781	184.887	186.191	216.247	217.596	36.385	222.972	8.523	-54.720	181.693	219.952	-95.155	253.471	251.445	4.533	80.431	0.00014541	0.00040602	4.6017e-05	1371.4	4.0324e-06	6.8513e-06	1369.6	368.22	5.7522e-07	6.1773e-06	422.82	139.52	121.19	42.295	2.6899e-06	52.329	0.00041446	0.00040499	0.0001262	1293.6	4.4655e-06	4.5143e-06	1354.3	363.61	4.4502e-06	4.533e-06	413.96	138.09	118.77	41.261	4.8869e-06	50.975	183.137	78.618	252.820	-84.506	0.561	133.119	-84.397	-79.787	-25.790	119.520	-80.186	-75.995	-75.533	-70.790	-92.113	-71.315	-8191	255	
6620.531	1	1	0	0	0.081305	0.19349	0.053	0.09591	0.13178	0.21327	0.33979	0.12277	0.10309	0.070196	0.1626	0.25117	0.13702	0.026003	0.21655	0.094376	-2.2292	-3.0875	-2.6063	-2.8479	-2.9875	-2.4792	-3.1771	-2.8167	-2.6833	-3	-2.8021	-2.7354	-3.0271	-2.7354	-2.6604	-2.8854	44.506	257.050	90.650	112.293	17.227	-86.717	173.217	-74.168	-15.526	-89.429	168.413	229.755	253.385	-4.463	21.656	185.662	0.00015898	0.00055916	0.00016048	1378.9	3.4589e-06	1.154e-06	1368.5	368.85	1.5127e-06	2.6107e-06	421.86	139.38	121.43	42.206	7.6459e-06	52.553	0.00040091	0.00042553	0.00012423	1289.5	4.3596e-06	4.7724e-06	1351.9	363.57	4.4108e-06	4.7974e-06	413.47	137.79	118.79	41.578	4.8603e-06	50.949	226.830	45.376	250.887	-84.175	150.861	-74.994	-84.306	-79.844	92.461	203.805	-80.354	-75.974	-75.463	-70.896	-1.170	-71.269	-8191	255	
6620.627	1	1	0	0	0.23192	0.061405	0.20435	0.073651	0.097604	0.14089	0.09957	0.30424	0.23451	0.26082	0.17085	0.038948	0.10435	0.21377	0.16443	0.17504	-2.1667	-2.9229	-2.6042	-2.8458	-2.9688	-2.5375	-3.0729	-3.0458	-2.2854	-3.0625	-2.8438	-2.7792	-3.1646	-2.6583	-2.7708	-3.1021	-97.575	56.508	-46.954	127.549	-55.467	21.305	-86.920	233.376	73.945	110.816	170.989	-22.822	-87.727	177.865	233.876	249.286	0.00021404	0.00038857	0.00019918	1380.3	1.4436e-06	6.1274e-06	1370.6	367.7	6.7905e-06	8.0448e-06	423.28	139.68	120.86	42.271	3.2287e-06	52.175	0.00040443	0.00044912	0.00012284	1285.4	4.4236e-06	4.9809e-06	1352	362.73	4.5057e-06	4.9973e-06	411.93	137.44	119.16	41.762	4.7365e-06	50.705	210.185	249.008	253.441	-84.525	-72.029	-84.984	-84.182	-79.858	206.782	-8.549	-80.355	-76.030	-75.500	-70.910	99.845	-71.524	-8191	255	
6620.723	1	1	0	0	0.22521	0.11103	0.30137	0.16088	0.24494	0.10151	0.14863	0.29508	0.16752	0.033207	0.29026	0.30452	0.12481	0.15043	0.2273	0.12006	-2.05	-2.9229	-2.7854	-2.6417	-2.9958	-2.4	-2.8792	-3.0458	-2.4813	-2.9729	-2.7396	-2.7146	-2.9479	-2.8083	-2.7188	-3.2188	203.368	-35.214	244.091	-33.906	86.697	211.280	102.822	191.727	-30.050	226.588	206.165	182.108	256.605	-20.228	26.807	33.439	0.00028754	0.00028076	0.0001867	1378.9	5.0389e-06	6.9656e-06	1367.1	368.39	4.3731e-06	6.6943e-06	420.32	139.89	121.66	42.205	2.3729e-06	52.447	0.0004186	0.00046112	0.00012	1279.5	4.6101e-06	5.0318e-06	1348.3	362.13	4.699e-06	4.9854e-06	410	137.13	119.96	41.656	4.6499e-06	50.475	190.962	137.824	-17.944	-84.511	-97.160	43.911	-84.418	-79.947	254.335	-63.532	-80.243	-76.065	-75.520	-70.992	-75.342	-71.317	-8191	255	
6620.795	1	1	0	0	0.22473	0.21825	0.17218	0.20901	0.07857	0.19102	0.094449	0.17759	0.13683	0.15384	0.11686	0.28975	0.18286	0.20984	0.14504	0.15851	-2.2604	-2.6688	-2.7583	-2.5333	-3.0292	-2.6083	-3.2229	-3.1479	-2.7083	-2.8292	-2.8646	-2.625	-3.2979	-2.8063	-2.775	-3.1104	16.996	-46.265	179.970	11.744	150.161	-83.054	223.650	242.299	-33.376	-4.630	196.246	234.204	-60.693	42.745	-36.709	-86.242	0.00033865	0.0011704	0.00016817	1368.5	5.6427e-06	1.529e-06	1362.9	367.86	2.0978e-06	3.6119e-06	423.78	140.04	121.16	42.214	3.3066e-06	52.274	0.00043927	0.00045155	0.00011765	1272	4.8456e-06	4.9343e-06	1346.2	361.65	4.9212e-06	4.8774e-06	409.77	137.1	120.71	41.578	4.5523e-06	50.556	195.717	-61.602	-49.605	-84.295	175.060	-13.874	-84.412	-79.792	166.395	22.435	-80.250	-76.096	-75.410	-70.947	42.739	-71.501	-8191	255	
6620.914	1	1	0	0	0.20764	0.31254	0.06257	0.25159	0.33753	0.11149	0.080406	0.27903	0.18748	0.036978	0.19817	0.11815	0.044002	0.22176	0.089123	0.070733	-2.2646	-2.6667	-2.9417	-2.6083	-2.9646	-2.8354	-3.0354	-3.0187	-2.5479	-2.6646	-2.875	-2.5521	-2.975	-2.8854	-2.5083	-3.0625	117.675	-38.046	48.536	239.716	202.588	-90.169	-68.217	227.363	52.606	175.208	169.672	-84.317	-83.535	238.438	58.351	-86.276	0.00016277	0.00030911	0.00021124	1369.2	1.7416e-06	6.6596e-06	1361.9	368.67	3.8039e-06	3.1002e-06	421.37	138.94	121.27	42.386	8.0821e-07	52.271	0.00045356	0.00043923	0.00011464	1277.4	4.9957e-06	4.7743e-06	1342.3	362.24	5.0234e-06	4.7378e-06	408.22	137.32	120.78	41.342	4.3986e-06	50.733	209.566	-83.687	-58.673	-84.520	29.278	16.521	-84.317	-79.945	172.494	-22.636	-80.328	-76.139	-75.479	-71.044	139.419	-71.467	-8191	255	
6621.010	1	1	0	0	0.26424	0.22947	0.12876	0.021442	0.19031	0.13463	0.11446	0.33631	0.18047	0.068955	0.021302	0.22741	0.028219	0.099338	0.17028	0.042516	-2.0875	-2.75	-2.7292	-2.6813	-2.7729	-2.5938	-2.9042	-2.9729	-2.6708	-2.7958	-3.0979	-2.6375	-2.9583	-2.9083	-2.4458	-2.9917	101.236	138.662	37.968	238.115	197.420	59.305	-69.573	219.876	-8.080	252.581	198.566	147.187	242.092	204.971	220.434	120.266	0.00011719	0.00034552	0.00015065	1373.9	4.2902e-06	3.7341e-06	1367.1	367.14	2.0961e-06	4.8662e-06	421.45	139.05	121.62	42.276	3.7544e-06	51.955	0.00045322	0.00042708	0.00011048	1286.6	4.9524e-06	4.6173e-06	1340.2	362.91	4.9343e-06	4.5995e-06	406.36	138.13	120.44	41.186	4.3011e-06	50.979	251.902	9.813	-67.087	-84.260	-28.095	-89.563	-84.370	-79.941	9.051	-58.518	-80.223	-76.094	-75.570	-70.864	36.901	-71.314	-8191	255	
6621.106	1	1	0	0	0.1339	0.1205	0.21201	0.040554	0.26313	0.1576	0.057068	0.19094	0.036853	0.11322	0.10744	0.37781	0.28326	0.14824	0.25418	0.1235	-2.2229	-2.6708	-2.9854	-2.5896	-2.9688	-2.8771	-2.7083	-3.0125	-2.4188	-2.6354	-3.2	-2.6958	-3.0604	-2.8187	-2.5583	-2.9979	19.105	-87.693	158.598	161.749	255.569	-4.787	178.618	151.378	129.414	36.868	225.578	232.204	187.911	-52.463	251.612	-94.264	0.00027036	0.00047152	0.0001485	1375.1	5.1044e-06	4.6123e-06	1362.9	367.29	1.8663e-06	1.2601e-06	422.77	139.14	120.98	42.369	4.1313e-06	52.396	0.00044115	0.00041676	0.0001081	1298	4.8339e-06	4.5067e-06	1338.2	364.17	4.7845e-06	4.5151e-06	405.87	138.59	119.96	41.028	4.3592e-06	51.426	216.777	-80.456	253.063	-84.825	-20.329	51.441	-84.271	-79.639	8.915	95.028	-80.055	-75.967	-75.557	-71.273	155.061	-71.531	-8191	255	
6621.227	1	1	0	0	0.25536	0.23598	0.20193	0.078554	0.19224	0.029854	0.14793	0.2189	0.11786	0.1081	0.23898	0.14106	0.39054	0.18287	0.13177	0.25398	-2.2771	-2.675	-3.0042	-2.6312	-2.8771	-2.6458	-2.9333	-2.9521	-2.6917	-2.6854	-3.0104	-2.6396	-2.8167	-2.8792	-2.6771	-3.1833	124.196	-79.795	259.913	-84.980	192.870	175.969	67.944	208.012	147.997	119.824	231.260	-46.731	157.968	178.005	179.244	171.768	0.00013036	8.439e-05	4.9335e-05	1373.3	5.3753e-06	7.8585e-06	1363.4	368.12	7.3958e-06	4.9799e-06	420	139.37	121.37	42.361	4.0239e-06	52.321	0.00043277	0.00041262	0.00011109	1309.2	4.724e-06	4.4315e-06	1341.6	365.73	4.6975e-06	4.4513e-06	408.04	138.98	119.85	40.941	4.6007e-06	51.526	226.273	178.162	74.287	-84.646	28.239	26.357	-84.403	-79.738	-0.217	43.774	-79.957	-76.095	-75.582	-71.043	71.296	-71.481	-8191	255	
6621.323	1	1	0	0	0.21162	0.18208	0.15397	0.25303	0.22462	0.19656	0.17027	0.38519	0.12435	0.22124	0.19771	0.13953	0.17668	0.14596	0.13526	0.21658	-2.1312	-2.4896	-2.9667	-2.4042	-2.6042	-2.8667	-2.6854	-2.9479	-2.9125	-2.6104	-3.0687	-2.7979	-2.7833	-3.0542	-2.7208	-3.0417	97.511	38.774	99.027	255.969	-92.972	65.238	26.101	232.010	80.892	59.664	145.144	-76.941	154.783	137.266	259.848	10.851	5.9313e-05	0.00054542	0.00016571	1389.7	2.0542e-06	1.6854e-06	1362	368.71	6.182e-06	4.9052e-06	422.4	139.69	121.13	41.948	3.4864e-06	52.268	0.00042653	0.00039991	0.00011804	1309.6	4.6763e-06	4.3321e-06	1347	365.71	4.6415e-06	4.3585e-06	412.21	139	119.72	40.78	4.8276e-06	51.37	224.843	-38.975	37.927	-84.773	8.698	-79.038	-84.305	-79.825	-23.089	15.612	-80.414	-76.213	-75.723	-70.988	195.167	-71.627	-8191	255	
6621.419	1	1	0	0	0.13075	0.16113	0.055635	0.13541	0.32721	0.16324	0.3589	0.084812	0.17513	0.095959	0.086517	0.083635	0.029373	0.10204	0.23083	0.072106	-2.3333	-2.7875	-2.8292	-2.8583	-2.6917	-2.9688	-2.8083	-3.0125	-2.6667	-2.5854	-3.1104	-2.625	-2.625	-2.9917	-2.6188	-2.5917	188.784	131.744	-80.794	63.369	203.859	24.155	225.016	126.595	-69.549	-80.107	-67.353	258.748	208.540	-95.842	135.733	188.861	6.83e-05	0.00067517	8.1766e-05	1372.2	8.6403e-07	5.3918e-06	1367.1	368.12	5.3456e-06	7.5984e-06	422.03	139.75	121.69	42.3	1.8397e-06	52.489	0.00042152	0.00039916	0.0001236	1301.2	4.614e-06	4.3467e-06	1353.9	364.29	4.5435e-06	4.4202e-06	414.32	138.41	119.61	41.019	4.9964e-06	51.23	161.456	47.537	47.183	-84.482	162.389	81.807	-84.580	-79.728	13.392	32.573	-80.358	-76.009	-75.671	-70.931	14.651	-71.372	-8191	255	
6621.515	1	1	0	0	0.08127	0.2355	0.26483	0.19603	0.043001	0.25794	0.32991	0.12172	0.059673	0.26691	0.26261	0.22745	0.28544	0.23254	0.15765	0.23093	-2.4021	-2.6583	-2.8937	-2.8042	-2.5271	-3.0104	-2.675	-2.9479	-2.8458	-2.7104	-2.8625	-2.9479	-2.6917	-3.1937	-2.6625	-2.9021	99.276	-83.513	225.253	242.984	157.357	104.470	222.570	229.267	16.857	24.709	171.983	177.880	244.271	256.363	43.692	203.131	0.000225	0.00026069	8.9167e-05	1365.8	6.8705e-06	5.9234e-06	1367.2	368.64	2.2123e-06	1.7962e-06	421.28	139.61	121.59	42.125	4.3906e-06	52.331	0.00041365	0.00041445	0.0001271	1293.6	4.5387e-06	4.5674e-06	1354.1	364.34	4.461e-06	4.6651e-06	414.16	138.05	119.2	41.311	4.9778e-06	51.062	221.814	72.275	7.912	-84.287	33.396	256.568	-84.450	-79.888	-46.653	261.111	-80.450	-76.322	-75.540	-70.891	55.517	-71.686	-8191	255	
6621.611	1	1	0	0	0.088349	0.20349	0.061581	0.30647	0.19909	0.032325	0.21848	0.053632	0.12739	0.082919	0.074878	0.1372	0.45387	0.14648	0.10493	0.131	-2.4146	-2.5438	-2.9646	-2.8458	-2.7083	-2.8625	-2.7	-2.7896	-3.0167	-2.6958	-3.0458	-2.9146	-2.6771	-3.0062	-2.9479	-2.7292	45.840	183.749	163.765	241.614	44.379	43.869	183.439	164.395	-95.766	141.383	37.318	-17.561	-66.804	253.052	131.952	112.637	0.00022401	5.5872e-05	0.00010581	1370.9	4.642e-06	1.1729e-05	1364.1	368.09	6.0267e-06	4.5273e-06	420.37	139.75	121.1	41.997	8.1599e-06	52.171	0.00040158	0.00043428	0.0001257	1288.1	4.4225e-06	4.8063e-06	1352.8	363.44	4.3725e-06	4.8648e-06	412.18	137.8	118.88	41.511	4.8235e-06	50.836	214.017	73.218	-67.691	-84.592	41.208	159.165	-84.426	-79.779	-3.424	229.764	-80.342	-76.108	-75.416	-70.993	-27.678	-71.650	-8191	255	
6621.708	1	1	0	0	0.10703	0.14166	0.18142	0.11611	0.062251	0.30946	0.08976	0.38788	0.09601	0.095193	0.055455	0.3001	0.28705	0.17768	0.20124	0.20366	-2.5583	-2.4521	-2.9417	-2.6458	-2.6604	-3.2271	-2.7104	-2.825	-2.8521	-2.4292	-2.9458	-3.075	-2.5604	-3.1688	-2.7188	-2.6417	130.875	143.178	95.374	230.628	180.899	101.045	-43.947	196.282	237.035	65.529	-75.607	242.713	202.776	230.638	188.775	259.301	8.2169e-05	0.00054023	0.00024717	1369.6	5.9312e-06	9.5141e-06	1364.4	369.15	4.0338e-06	2.2731e-06	421.35	139.67	121.43	42.238	3.1044e-06	52.321	0.00040008	0.00045042	0.00012135	1280.2	4.4193e-06	4.913e-06	1348.1	362.48	4.3925e-06	4.9559e-06	410.62	137.13	119.15	41.606	4.6636e-06	50.555	174.102	43.267	-77.665	-84.509	143.115	99.841	-84.174	-79.914	81.882	-4.746	-80.280	-76.060	-75.474	-70.909	57.474	-71.326	-8191	255	
6621.826	1	1	0	0	0.21092	0.35618	0.14448	0.37536	0.18406	0.10599	0.22168	0.35353	0.09526	0.033785	0.27812	0.16547	0.10033	0.27464	0.116	0.32583	-2.5833	-2.5958	-2.7667	-3.1375	-2.5917	-2.8854	-2.8042	-2.7542	-2.85	-2.6	-2.9417	-2.8917	-2.6104	-2.9021	-2.6958	-2.6104	18.521	77.539	138.642	-24.574	-27.117	118.198	209.176	237.053	213.693	1.323	216.566	-76.920	172.414	215.185	39.405	61.947	0.00019372	0.00032898	3.5744e-05	1372.3	2.687e-06	8.6571e-06	1365.5	369.43	2.5118e-06	4.6804e-07	420.7	139.47	121.22	42.131	3.4054e-06	52.377	0.00041182	0.00045388	0.00011852	1270.2	4.6032e-06	4.9439e-06	1345.9	361.61	4.6221e-06	4.9198e-06	409.54	136.45	119.93	41.537	4.5604e-06	50.494	188.093	243.377	-42.005	-84.316	120.880	15.141	-84.334	-79.855	148.470	-57.696	-80.145	-75.871	-75.448	-70.781	248.180	-71.597	-8191	255	
6621.923	1	1	0	0	0.16754	0.11318	0.24034	0.37115	0.22134	0.12803	0.092492	0.16055	0.27772	0.21095	0.16754	0.06421	0.11239	0.11141	0.06647	0.27287	-2.5146	-2.6875	-2.4854	-3.3229	-2.5333	-2.8146	-3.1917	-2.8208	-2.9771	-2.825	-2.8146	-3.3042	-2.5771	-3.05	-2.7917	-2.5229	222.298	152.341	24.007	-78.227	59.909	224.413	152.566	-88.574	102.119	194.059	153.410	-95.886	54.281	-44.407	-36.156	57.492	0.00027769	0.00010153	0.00013997	1375.1	5.1645e-06	9.4609e-06	1368	366.96	1.2434e-06	6.475e-06	423.28	139.28	121.36	42.174	9.3184e-06	52.467	0.00043118	0.00044713	0.00011609	1264.4	4.8257e-06	4.8152e-06	1343.1	360.86	4.8168e-06	4.8061e-06	408.87	136.49	120.45	41.397	4.4916e-06	50.48	189.197	202.884	-5.807	-84.675	219.591	30.689	-84.340	-79.850	-84.723	-7.640	-80.224	-76.136	-75.513	-70.859	-13.132	-71.397	-8191	255	
6622.019	1	1	0	0	0.27792	0.18404	0.12366	0.2003	0.060056	0.28003	0.40311	0.24159	0.11003	0.2038	0.19504	0.11212	0.25832	0.11703	0.12332	0.26607	-2.5333	-2.7229	-2.7125	-3.0042	-2.6271	-2.8333	-3.1688	-2.7	-3.0417	-2.8792	-2.8354	-3.1667	-2.6979	-2.9146	-2.8688	-2.6708	155.099	-73.481	215.687	215.287	188.732	93.602	180.557	195.654	-32.926	230.199	228.610	216.856	-87.203	141.653	35.119	254.674	0.00028946	0.00056215	0.00017778	1374.2	1.6669e-06	2.284e-06	1365	368.45	5.9764e-06	5.7404e-06	420.45	139.48	121.11	42.255	5.4555e-06	51.979	0.00044892	0.0004354	0.00011445	1272.1	4.9755e-06	4.7203e-06	1340	362.66	4.9737e-06	4.6813e-06	407.92	137.31	120.71	41.291	4.3722e-06	50.815	192.151	-40.167	-38.861	-84.243	17.653	-13.370	-84.267	-79.684	81.327	26.619	-80.466	-75.946	-75.280	-70.814	-69.072	-71.768	-8191	255	
6622.090	1	1	0	0	0.25631	0.27785	0.32596	0.24412	0.24877	0.19809	0.064804	0.15009	0.080629	0.19296	0.06258	0.13752	0.31825	0.096582	0.071506	0.056412	-2.5333	-2.7146	-2.7146	-3.1896	-2.7979	-2.5146	-3.075	-2.7229	-2.7375	-2.9375	-2.6583	-2.8646	-2.6396	-2.7458	-3.0333	-2.7417	-88.226	221.422	-57.208	221.790	-48.823	-45.577	63.521	-90.708	-95.589	90.551	104.888	-92.859	-70.886	235.239	27.620	197.050	0.00016708	0.00047475	6.0997e-05	1373.6	2.8923e-06	7.3718e-06	1368.3	368.8	6.1001e-06	9.4234e-06	420.7	139.65	121.24	42.203	2.8349e-06	52.521	0.00045481	0.00042673	0.00011111	1286.1	4.9906e-06	4.6097e-06	1337.7	363.92	4.9037e-06	4.5841e-06	406.7	137.99	120.41	41.156	4.2299e-06	51.14	242.890	-82.190	248.181	-84.479	13.650	26.002	-84.289	-79.724	-45.233	-39.989	-80.313	-76.292	-75.508	-70.918	-96.838	-71.662	-8191	255	
6622.211	1	1	0	0	0.01829	0.29848	0.39267	0.18278	0.056473	0.13946	0.24912	0.091051	0.31577	0.081401	0.29722	0.14184	0.18908	0.10396	0.11096	0.25792	-2.4417	-2.825	-2.45	-3.0083	-2.7396	-2.7125	-3.175	-2.9062	-2.9833	-2.7604	-2.4792	-2.9062	-2.8688	-2.6229	-3.1562	-2.525	112.373	162.485	-17.473	217.112	-48.450	178.574	162.187	-90.229	43.610	143.805	200.192	164.060	181.454	-62.553	-14.612	2.538	0.00019575	0.00035056	4.8441e-05	1380.2	4.8394e-06	7.8209e-06	1364.6	369.06	3.1972e-06	6.8745e-06	421.26	140.18	121.8	42.312	3.6556e-06	52.32	0.00043688	0.00040982	0.00010718	1292.6	4.7799e-06	4.4573e-06	1336.5	364.86	4.715e-06	4.4161e-06	406.04	138.48	119.83	41.01	4.2727e-06	51.302	216.273	-81.272	239.747	-84.122	-17.910	-43.814	-84.527	-79.726	-69.231	59.198	-80.477	-76.210	-75.430	-70.915	158.070	-71.448	-8191	255	
6622.307	1	1	0	0	0.077979	0.12668	0.083649	0.053354	0.12288	0.094068	0.14143	0.14865	0.17987	0.19276	0.32309	0.2952	0.16124	0.12259	0.31081	0.095515	-2.4604	-2.8583	-2.55	-2.9292	-2.675	-2.6229	-3.2229	-2.7646	-2.6208	-2.9917	-2.4542	-3.05	-2.6771	-2.6917	-2.8833	-2.7833	42.330	-3.448	198.067	149.984	50.189	186.054	197.649	149.726	230.570	60.151	248.689	217.688	62.739	-83.225	133.876	247.432	0.00014601	0.00094695	1.9332e-05	1371	3.5452e-06	5.1916e-06	1364.6	368.06	4.6477e-06	6.223e-06	420.23	139.3	121.43	42.278	3.7493e-06	52.494	0.00042414	0.00039697	0.0001102	1298.7	4.6166e-06	4.3484e-06	1338.9	365.09	4.6147e-06	4.3206e-06	408.39	138.62	119.55	40.889	4.5142e-06	51.411	-59.829	-59.488	242.703	-84.240	37.663	4.329	-84.356	-79.768	-8.217	-27.898	-80.065	-76.083	-75.533	-70.961	138.927	-71.663	-8191	255	
6622.403	1	1	0	0	0.21551	0.12615	0.23983	0.22961	0.17287	0.1459	0.18941	0.076823	0.16802	0.062019	0.3075	0.32932	0.11152	0.022487	0.054707	0.29218	-2.2167	-3.1042	-2.4896	-2.9979	-2.8688	-2.7188	-3.0833	-2.8125	-2.5	-2.8979	-2.8333	-2.8063	-2.8021	-2.6042	-3.1021	-2.675	197.016	80.088	-30.287	247.021	69.803	115.030	205.229	230.278	236.258	227.734	224.186	-91.977	75.575	76.836	-39.418	191.298	0.00015114	0.00060076	7.4873e-05	1371.3	2.7279e-06	7.5488e-06	1363	368.84	2.4412e-06	4.5556e-06	422.22	139.53	121.8	42.122	3.3733e-06	52.244	0.00042304	0.0003954	0.00011788	1302.5	4.6263e-06	4.329e-06	1346	365.14	4.6015e-06	4.2843e-06	411.49	138.36	119.53	40.806	4.744e-06	51.154	219.075	-5.681	-11.412	-84.545	68.929	30.199	-84.401	-79.884	-4.593	-37.928	-80.029	-76.036	-75.443	-70.590	92.895	-71.375	-8191	255	
6622.500	1	1	0	0	0.048455	0.19196	0.3019	0.11928	0.25625	0.36697	0.15302	0.30313	0.072612	0.062212	0.037386	0.11615	0.2299	0.2678	0.13291	0.27125	-2.45	-2.8708	-2.3604	-2.9292	-2.7542	-2.6396	-3.2104	-2.7646	-2.6188	-2.975	-2.7687	-2.925	-2.975	-2.7917	-2.95	-3.0687	-41.632	210.541	54.252	91.659	104.752	-15.737	242.314	253.320	-89.234	-94.632	61.371	-90.782	-83.653	165.477	227.768	22.187	0.00018682	0.00041059	7.5675e-05	1374.5	2.2047e-06	2.1687e-06	1367	367.79	2.7151e-06	7.7879e-07	421.76	139.81	121.47	42.113	5.322e-06	52.199	0.00041447	0.00039141	0.0001226	1296.8	4.5006e-06	4.3131e-06	1348.3	363.31	4.455e-06	4.3121e-06	412.78	137.97	118.7	40.86	4.7791e-06	50.696	188.180	-78.886	-19.110	-84.240	100.040	195.734	-84.421	-79.898	116.785	166.778	-80.248	-75.850	-75.485	-70.800	-32.718	-71.722	-8191	255	
6622.596	1	1	0	0	0.29724	0.047318	0.20625	0.16863	0.52834	0.2297	0.33611	0.20804	0.2818	0.16733	0.085881	0.16754	0.44414	0.1737	0.15855	0.14704	-2.1937	-3.0042	-2.7042	-2.5438	-3.1	-2.6146	-3.1042	-2.8937	-2.5208	-3.0729	-2.7333	-2.75	-3.0563	-2.4604	-2.8292	-2.9542	59.178	21.392	-81.020	255.908	95.601	156.814	195.223	94.368	-91.213	207.505	-79.994	261.529	246.689	255.589	-66.884	-35.477	0.00011572	0.00077856	0.000153	1375.6	4.0191e-06	9.3528e-06	1365.2	367.68	6.0596e-06	2.754e-06	422.39	139.43	121.14	42.085	4.9148e-06	52.441	0.00039694	0.00039684	0.00012268	1281.4	4.303e-06	4.4368e-06	1348	362.31	4.3017e-06	4.4703e-06	412.36	137.52	118.23	41.123	4.7555e-06	50.706	240.129	125.699	-9.333	-84.608	10.466	167.598	-84.508	-79.824	-28.947	92.005	-80.142	-75.834	-75.525	-70.529	-20.147	-71.407	-8191	255	
6622.692	1	1	0	0	0.23172	0.096912	0.16732	0.086661	0.063972	0.057553	0.21624	0.063442	0.20843	0.051883	0.18519	0.15658	0.11489	0.10826	0.22075	0.085157	-2.1813	-2.9792	-2.6542	-2.6896	-2.9021	-2.6667	-3.0583	-2.8646	-2.5646	-2.8542	-2.8542	-2.8917	-3.0854	-2.7854	-2.825	-3.0708	106.590	218.225	200.996	69.231	71.791	-48.734	221.124	120.782	87.099	105.047	-75.706	213.608	78.974	217.057	28.218	-51.395	0.0001438	0.00063114	8.446e-05	1381.1	2.0906e-06	6.4724e-06	1367.9	366.26	6.1516e-06	9.0754e-07	420.36	139.6	121.59	42.011	5.7583e-06	52.218	0.00038884	0.00041784	0.00012099	1277.4	4.2149e-06	4.6579e-06	1347.4	361.19	4.275e-06	4.6913e-06	410.86	137.15	118.37	41.446	4.7164e-06	50.676	156.242	151.979	-93.137	-84.124	-56.399	191.625	-84.328	-79.735	-38.252	70.241	-80.350	-75.901	-75.557	-71.029	-78.885	-71.452	-8191	255	
6622.788	1	1	0	0	0.087862	0.12638	0.23204	0.10095	0.13671	0.05564	0.22331	0.12767	0.034259	0.057686	0.054149	0.074714	0.20547	0.082043	0.16761	0.020627	-2.0625	-2.9042	-2.5312	-2.7687	-3.0938	-2.6458	-2.9229	-3.1792	-2.4938	-2.9875	-2.9896	-2.7167	-3.2125	-2.875	-2.9562	-3.2021	-84.835	-4.078	-97.722	-76.857	-75.933	58.350	249.327	234.677	113.124	165.994	-90.740	259.829	245.503	165.069	-96.317	79.457	0.00025276	0.00036275	6.4374e-05	1382.1	3.1214e-06	3.9883e-06	1366.2	367.64	5.2348e-06	2.8441e-06	421.04	139.27	120.72	42.005	9.0296e-06	52.243	0.00039558	0.00044028	0.00011936	1276.6	4.3311e-06	4.8981e-06	1342.5	361.2	4.4091e-06	4.8853e-06	409.46	136.82	118.67	41.485	4.5874e-06	50.427	195.905	91.602	-13.797	-84.213	141.401	13.896	-84.243	-79.834	183.251	192.554	-80.424	-76.126	-75.696	-70.981	-68.057	-71.372	-8191	255	
6622.909	1	1	0	0	0.25974	0.025767	0.22422	0.13128	0.070696	0.24051	0.21652	0.24329	0.14184	0.21572	0.16819	0.33039	0.26372	0.20562	0.18314	0.15218	-1.85	-2.8063	-2.6063	-2.5812	-3.0167	-2.5687	-2.8875	-3.1625	-2.6854	-2.9292	-3.075	-2.6375	-3.0187	-2.7375	-2.7229	-2.9125	-39.317	104.789	-76.953	-3.795	-11.202	251.379	-94.778	169.283	-73.240	116.113	-81.652	206.396	175.717	177.492	-5.460	158.278	0.00024569	0.00040877	7.148e-05	1370.1	3.2966e-06	6.4925e-06	1365.9	367.6	5.8152e-06	1.6979e-06	421.73	139.15	121.09	42.168	2.4781e-06	52.368	0.00041199	0.00044662	0.00011646	1266.3	4.5198e-06	4.8985e-06	1342.6	360.09	4.6118e-06	4.8466e-06	409.15	136.48	119.59	41.494	4.5517e-06	50.296	208.752	59.333	-43.766	-84.258	179.276	-45.243	-84.385	-79.915	245.714	23.303	-80.377	-76.065	-75.410	-70.792	-24.115	-71.347	-8191	255	
6623.003	1	1	0	0	0.24798	0.12688	0.050591	0.137	0.13891	0.13128	0.19137	0.26108	0.24061	0.077614	0.32998	0.44368	0.17057	0.19713	0.20112	0.20501	-2.2625	-2.9521	-3.0042	-2.5542	-3.0312	-2.6437	-2.8792	-3.0708	-2.3333	-2.8563	-2.8521	-2.9562	-2.9417	-2.8021	-2.7729	-3.1833	-15.444	249.723	126.776	114.402	47.040	69.013	249.589	166.496	19.679	-5.043	229.585	256.448	228.096	-34.452	109.477	-39.331	0.00024433	0.00041384	0.00021652	1370.8	2.3022e-06	7.6735e-06	1365.9	366.66	4.9382e-06	9.3729e-07	420.22	139.41	121.56	42.24	6.3747e-06	52.057	0.0004333	0.00043913	0.00011423	1261.6	4.764e-06	4.7388e-06	1338	359.84	4.7731e-06	4.6769e-06	407.46	136.27	120.05	41.215	4.3584e-06	50.217	201.635	-61.895	-64.244	-84.363	245.209	-0.991	-84.331	-79.675	169.380	120.941	-80.070	-75.901	-75.533	-70.938	-8.939	-71.536	-8191	255	
6623.099	1	1	0	0	0.18173	0.22196	0.12324	0.24926	0.032815	0.11396	0.10432	0.085874	0.29347	0.21721	0.19318	0.35753	0.50558	0.22416	0.23936	0.12079	-2.0167	-2.9375	-2.7542	-2.6958	-2.8792	-2.8937	-2.8312	-3.0917	-2.5938	-2.8	-2.8854	-2.6667	-2.9292	-2.6854	-2.7417	-3.0625	167.211	150.668	147.502	-76.688	82.588	218.044	112.583	206.968	185.599	-28.878	143.956	165.023	228.249	-82.304	218.137	-30.810	0.00020146	0.0010401	0.00016926	1372.7	2.9483e-06	3.9456e-06	1364.6	366.58	6.1266e-06	5.4373e-06	420.88	138.97	121.53	42.19	5.9597e-06	52.189	0.0004406	0.00042055	0.00010951	1265.7	4.8092e-06	4.5704e-06	1336.2	360.31	4.842e-06	4.5227e-06	405.42	136.66	120.06	41.037	4.215e-06	50.395	168.273	-74.037	235.652	-84.439	156.263	63.345	-84.324	-79.951	-85.595	20.068	-80.274	-75.961	-75.684	-70.944	-4.456	-71.356	-8191	255	
6623.195	1	1	0	0	0.11124	0.12557	0.22964	0.24283	0.24131	0.2407	0.10718	0.07059	0.20565	0.16751	0.017072	0.22145	0.36815	0.24014	0.15894	0.16876	-2.1771	-2.7104	-2.8021	-2.5438	-2.9708	-2.8521	-2.6771	-2.9	-2.5875	-2.6937	-3.0271	-2.7812	-2.8896	-3.0771	-2.325	-3.1229	187.188	-5.229	183.535	209.099	122.904	152.236	-5.391	182.967	20.034	99.083	114.181	211.700	245.445	149.463	92.341	219.710	8.8086e-05	0.0010758	0.00019833	1363.2	7.7711e-07	1.0488e-06	1364.5	366.97	3.8256e-06	8.1568e-06	420.07	139.43	121.45	41.932	3.8036e-06	52.527	0.00043605	0.00040991	0.00010632	1275.7	4.7644e-06	4.4542e-06	1331.6	361.65	4.7554e-06	4.4265e-06	403.82	137.61	119.79	40.823	4.1258e-06	50.803	201.150	-70.988	-70.084	-84.626	51.149	84.848	-84.454	-79.935	-22.879	-47.667	-79.977	-75.797	-75.398	-71.030	-41.261	-71.655	-8191	255	
6623.316	1	1	0	0	0.04382	0.17901	0.27928	0.12746	0.054269	0.14207	0.19856	0.17386	0.20263	0.081564	0.051072	0.14053	0.24814	0.015924	0.11059	0.036815	-2.2938	-2.5187	-2.9229	-2.5708	-2.8021	-2.7854	-2.8083	-2.95	-2.6854	-2.5896	-3.075	-2.5854	-3.0292	-2.9729	-2.6437	-3.0771	30.394	203.965	81.074	226.331	-84.338	-45.558	-90.322	201.833	-66.496	-91.075	205.468	243.245	123.464	258.879	165.066	254.333	1.3938e-05	0.00075208	6.1813e-05	1360.4	5.1741e-06	1.1086e-05	1361.5	366.52	7.142e-06	8.0902e-06	420.06	139.61	121.36	42.114	2.0525e-06	52.138	0.0004239	0.00039955	0.00010372	1284.3	4.6144e-06	4.3181e-06	1330.2	362.5	4.5594e-06	4.2997e-06	403.85	138.06	119.35	40.735	4.1749e-06	50.976	-53.630	-34.913	53.572	-84.573	37.648	51.767	-84.380	-79.666	12.140	-9.086	-80.245	-76.018	-75.579	-70.965	47.228	-71.235	-8191	255	
6623.388	1	1	0	0	0.18023	0.23905	0.073802	0.18988	0.34842	0.2057	0.24972	0.054913	0.074163	0.22422	0.089941	0.058461	0.10021	0.16703	0.34722	0.043913	-2.4437	-2.7625	-2.8688	-2.725	-2.8229	-2.9375	-2.5542	-3.2792	-2.6771	-2.5604	-2.9542	-2.6771	-2.7875	-2.9583	-2.4979	-2.9542	70.885	-12.490	171.257	135.209	22.039	232.203	149.990	137.363	173.728	92.742	-55.696	26.705	-55.110	253.429	-52.595	158.861	0.00016202	0.0004878	9.6031e-05	1364	1.118e-06	4.1241e-06	1362.6	367.54	2.2697e-06	4.0227e-06	420.06	139.37	121.58	42.131	4.1434e-06	52.413	0.00040936	0.00038796	0.00010616	1288.8	4.4811e-06	4.1724e-06	1333.9	363.23	4.4426e-06	4.166e-06	405.66	138.02	118.87	40.582	4.369e-06	50.948	225.030	-66.921	-71.234	-84.411	36.059	-30.139	-84.410	-79.765	-16.961	-33.441	-80.455	-75.950	-75.517	-71.091	204.357	-71.387	-8191	255	
6623.508	1	1	0	0	0.086024	0.21058	0.23622	0.11838	0.13158	0.047835	0.10323	0.19187	0.1929	0.084401	0.24215	0.19191	0.053434	0.12913	0.25879	0.12033	-2.3604	-2.425	-2.9792	-2.6375	-2.6208	-3.1688	-2.825	-3.1083	-2.8667	-2.5229	-2.9562	-2.6312	-2.9875	-3.0708	-2.6104	-3.0979	178.179	168.774	-33.283	128.358	9.948	7.104	229.783	201.261	60.708	85.342	194.068	218.632	227.755	-70.031	-70.226	-33.835	0.00023252	0.00084699	0.00011689	1378.6	2.0453e-06	6.7046e-06	1362.3	368.04	3.2273e-06	6.0826e-06	420.15	139.51	121.59	42.258	3.8095e-06	52.128	0.00039974	0.00037667	0.0001118	1285.9	4.3855e-06	4.081e-06	1338	362.84	4.3544e-06	4.1201e-06	408.44	137.54	118.67	40.589	4.5786e-06	50.745	193.809	-51.096	22.541	-84.540	26.606	29.788	-84.468	-79.786	19.303	53.446	-80.116	-75.849	-75.501	-70.872	128.866	-71.416	-8191	255	
6623.604	1	1	0	0	0.29044	0.26226	0.14427	0.13007	0.21247	0.09768	0.16616	0.037686	0.22553	0.24124	0.17809	0.085908	0.14706	0.22632	0.36864	0.19934	-2.4396	-2.6792	-3.0146	-2.8125	-2.7271	-2.8667	-2.9125	-3.0687	-2.8021	-2.7021	-3.0938	-2.9021	-2.7583	-3.0021	-2.6458	-2.8854	70.369	253.904	197.730	260.109	-59.290	-12.084	172.667	-89.693	93.496	239.636	-83.002	74.259	210.292	238.277	113.397	183.180	0.00017316	0.00055199	8.0833e-05	1374.1	8.4441e-06	3.9935e-06	1367	367.25	4.2339e-06	6.5018e-06	420.43	139.36	120.88	42.189	5.7017e-07	52.346	0.00039427	0.00037616	0.00011584	1276.1	4.2896e-06	4.1104e-06	1342.5	361.76	4.2489e-06	4.1671e-06	409.62	136.99	118.25	40.676	4.6656e-06	50.533	258.430	25.480	64.884	-84.268	45.679	212.337	-84.183	-79.734	96.818	170.385	-80.232	-76.114	-75.680	-70.818	-84.716	-71.673	-8191	255	
6623.701	1	1	0	0	0.22544	0.13661	0.085026	0.12045	0.059088	0.31491	0.21023	0.15692	0.17178	0.16783	0.071916	0.33574	0.072078	0.31992	0.14456	0.086709	-2.3771	-2.5312	-2.9771	-2.7042	-2.6542	-2.8667	-2.8896	-2.8479	-3.0646	-2.6208	-3.1104	-2.9333	-2.7208	-3.1833	-2.6917	-2.8	49.395	28.147	22.948	256.611	-82.537	31.686	224.094	99.537	105.150	13.173	102.730	249.471	99.728	203.616	68.311	246.620	0.00021812	0.00036596	6.1508e-05	1374.7	3.3231e-06	2.6146e-06	1365.4	366.77	2.5129e-06	6.6078e-06	420.92	139.33	121.43	42.217	8.5131e-06	52.12	0.00038304	0.00038883	0.00011813	1271.7	4.1701e-06	4.2775e-06	1342.5	360.76	4.1348e-06	4.3596e-06	409.16	136.62	117.9	40.973	4.5891e-06	50.317	208.988	243.002	-88.263	-84.249	66.209	139.952	-84.360	-79.742	201.474	90.954	-80.278	-75.850	-75.539	-70.814	-6.201	-71.483	-8191	255	
6623.795	1	1	0	0	0.1442	0.18789	0.28867	0.082993	0.14887	0.17375	0.3019	0.0087581	0.16889	0.072865	0.19514	0.13934	0.27122	0.16836	0.1077	0.14952	-2.5563	-2.4667	-2.8896	-2.8604	-2.8187	-2.9875	-2.9354	-2.8146	-3.0917	-2.4417	-3.0021	-2.925	-2.7833	-3.0271	-2.7	-2.7313	91.958	-22.525	61.208	184.730	20.540	-59.040	196.136	117.178	255.126	-74.233	222.363	-85.768	-65.023	-79.569	-72.460	-27.609	0.00021704	0.00060228	0.00011344	1355.2	3.0687e-06	1.4525e-06	1359.2	367.3	1.3156e-06	2.3853e-06	421.37	139.31	121.6	42.076	2.8763e-06	52.384	0.00037242	0.00040765	0.00011612	1264.1	4.0949e-06	4.5037e-06	1340.9	360.72	4.1052e-06	4.6129e-06	409.51	136.45	118.26	41.177	4.532e-06	50.439	205.669	135.487	-72.967	-84.340	106.439	172.850	-84.482	-79.698	-60.701	141.722	-80.080	-76.013	-75.528	-70.819	-10.590	-71.538	-8191	255	
6623.916	1	1	0	0	0.16452	0.15141	0.139	0.17909	0.1119	0.066733	0.15326	0.32093	0.020121	0.22627	0.10799	0.057341	0.067857	0.2082	0.28075	0.14039	-2.5687	-2.6125	-2.8417	-2.75	-2.4167	-2.8833	-2.8708	-2.7271	-2.8896	-2.8312	-2.8375	-3.1229	-2.7542	-3.0938	-2.7833	-2.5938	-54.276	-45.502	129.987	217.856	-55.719	85.151	235.382	-64.630	192.636	-56.457	235.416	139.642	169.502	-62.363	55.153	203.384	0.00019093	0.00065025	0.00021371	1370.9	2.6115e-06	1.4409e-06	1361.6	367.47	3.7895e-06	2.0428e-06	419.88	139.26	120.76	42.101	5.5633e-06	52.511	0.00037885	0.00042851	0.00011414	1259.6	4.1955e-06	4.682e-06	1338.3	359.75	4.2141e-06	4.7108e-06	406.83	136.03	118.39	41.234	4.3923e-06	50.139	193.359	9.901	-71.324	-84.678	194.698	126.390	-84.389	-79.798	198.586	-45.862	-79.933	-76.152	-75.524	-71.025	119.643	-71.568	-8191	255	
6623.987	1	1	0	0	0.20949	0.24066	0.16908	0.27863	0.029398	0.14078	0.48503	0.31068	0.19746	0.23525	0.28828	0.22494	0.18263	0.16454	0.085622	0.25674	-2.6604	-2.4062	-2.7354	-2.9583	-2.675	-2.8146	-2.8	-2.925	-2.8125	-2.5375	-2.8479	-2.9354	-2.7562	-3.0417	-2.9708	-2.5917	152.879	-69.126	46.936	-76.596	86.357	146.778	209.687	193.315	83.415	192.153	200.710	115.804	153.134	-92.772	105.538	221.527	0.00020292	0.00043921	3.4529e-05	1372.3	4.9481e-06	3.4849e-06	1364	367.64	5.3989e-06	6.4404e-06	420.46	140.19	121.35	42.272	5.5854e-07	52.3	0.0003926	0.00042848	0.00011121	1252.5	4.3808e-06	4.6439e-06	1336.1	359.01	4.3764e-06	4.6315e-06	405.89	135.75	119.21	41.127	4.2851e-06	50.005	204.806	234.574	216.127	-84.051	219.080	-38.968	-84.208	-79.836	196.213	-5.818	-80.361	-76.239	-75.494	-71.005	31.485	-71.424	-8191	255	
6624.083	1	1	0	0	0.37303	0.15286	0.078902	0.06707	0.1228	0.20194	0.26151	0.29401	0.124	0.13054	0.23091	0.20683	0.15875	0.067558	0.1245	0.28862	-2.4729	-2.6167	-2.5521	-2.9167	-2.55	-2.9833	-2.925	-2.7417	-2.8333	-2.6688	-2.8375	-2.8625	-2.5875	-2.8708	-2.9125	-2.4521	-82.029	219.363	82.343	157.154	95.476	34.951	193.299	201.221	168.728	54.877	-68.845	243.436	250.591	134.569	237.712	-55.743	0.00019435	0.0008143	2.468e-05	1368.6	2.0491e-06	2.8589e-06	1363.8	367.91	3.1383e-06	4.1168e-07	420.92	139.71	121.7	42.366	7.435e-06	52.39	0.00040937	0.00041754	0.00010893	1247.4	4.5807e-06	4.5409e-06	1334.2	358.98	4.5895e-06	4.5168e-06	405.34	135.95	119.88	41.11	4.2111e-06	50.277	194.926	-67.073	50.713	-84.372	144.457	49.572	-84.311	-79.823	85.830	-9.985	-80.145	-76.173	-75.569	-71.090	9.130	-71.404	-8191	255	
6624.180	1	1	0	0	0.25165	0.12588	0.095348	0.064426	0.090336	0.19748	0.16991	0.11648	0.28023	0.090856	0.25789	0.067452	0.24214	0.021523	0.31526	0.072466	-2.5312	-2.7104	-2.6104	-2.9042	-2.5896	-2.6604	-3.1479	-2.7313	-2.7938	-2.8104	-2.6479	-3.0625	-2.8812	-2.7833	-2.8812	-2.6604	36.679	193.370	191.617	117.488	-62.387	201.572	111.999	122.836	82.436	181.658	176.070	161.331	174.793	127.738	-22.664	114.591	0.00023555	0.00060915	0.00021529	1356.4	1.7304e-06	5.9067e-06	1363.8	367.47	5.2734e-06	9.8727e-06	420.51	139.22	121.43	42.317	1.5638e-06	52.131	0.00042549	0.00041034	0.00010737	1254.7	4.7329e-06	4.4383e-06	1332	360.03	4.708e-06	4.4324e-06	405.02	136.57	120.01	40.988	4.1215e-06	50.481	240.488	-88.058	-54.270	-84.535	-32.544	-29.312	-84.309	-79.994	-28.007	-6.540	-80.190	-76.197	-75.455	-70.782	-6.744	-71.455	-8191	255	
6624.276	1	1	0	0	0.21314	0.094995	0.15276	0.26863	0.077589	0.32309	0.065163	0.38326	0.16277	0.12517	0.055412	0.23419	0.058569	0.074274	0.23181	0.30778	-2.4	-2.6917	-2.6188	-2.9771	-2.825	-2.6688	-3.2083	-2.8375	-3.0354	-2.8063	-2.6312	-3.0875	-2.7812	-2.85	-3.0479	-2.7979	94.803	182.570	115.163	8.366	140.003	17.025	-32.154	153.859	5.458	15.726	-95.828	252.084	222.785	94.018	-49.807	115.180	0.00017441	0.00021351	0.0001495	1370.3	3.2242e-06	3.6956e-06	1362	365.78	6.9505e-06	3.1956e-06	423.12	139.27	121.28	42.353	2.7997e-06	52.086	0.00042662	0.00040079	0.00010435	1269.2	4.6651e-06	4.3683e-06	1329.5	361.23	4.6314e-06	4.3431e-06	404.09	137.38	119.42	40.904	4.048e-06	50.783	245.995	240.578	-9.859	-84.489	-45.767	27.106	-84.432	-79.706	-48.477	-11.104	-80.065	-76.118	-75.617	-71.044	-61.929	-71.590	-8191	255	
6624.396	1	1	0	0	0.13259	0.094625	0.11541	0.37015	0.12527	0.26452	0.22906	0.11278	0.067312	0.2201	0.30117	0.21753	0.18973	0.1618	0.084792	0.25638	-2.4083	-2.7167	-2.6396	-2.8292	-2.5417	-2.6708	-3.1146	-2.6813	-2.9396	-2.8771	-2.5625	-3.0563	-2.5854	-2.6979	-3.1312	-2.5729	-50.839	236.176	172.918	-72.686	104.441	169.966	237.336	136.203	15.420	143.863	174.116	255.192	18.652	36.501	201.556	99.767	0.00010516	0.00035777	0.0001301	1365.2	5.3208e-06	8.0755e-06	1363.6	367.7	1.8231e-06	3.5264e-07	419.58	139.92	120.97	42.235	6.9294e-06	52.226	0.00041698	0.00039322	0.00010372	1281.9	4.5509e-06	4.2702e-06	1330.6	363.04	4.5075e-06	4.2461e-06	404.03	137.79	119.01	40.696	4.092e-06	50.981	199.407	217.705	252.849	-84.377	24.978	-6.218	-84.469	-79.720	38.747	15.134	-80.224	-75.702	-75.556	-70.936	71.686	-71.317	-8191	255	
6624.492	1	1	0	0	0.29927	0.17681	0.25033	0.19332	0.195	0.25056	0.29419	0.16766	0.15698	0.085738	0.064018	0.062024	0.2148	0.099115	0.18624	0.10492	-2.1333	-2.8854	-2.5354	-2.9771	-2.8708	-2.5458	-3.2146	-2.875	-2.7167	-3.0167	-2.6354	-2.9	-2.7646	-2.7354	-2.9396	-2.7646	-94.153	-55.060	-27.332	238.817	43.337	239.795	240.094	227.672	-36.935	133.721	180.515	-49.440	151.646	134.838	214.248	194.883	9.6708e-05	0.00080676	0.00020105	1364.9	3.6657e-06	9.3302e-06	1355.9	366.66	2.6825e-06	4.6567e-06	420.12	139.38	120.97	42.17	2.0867e-06	52.09	0.00040231	0.0003769	0.00010586	1283.5	4.3644e-06	4.1427e-06	1331.5	362.57	4.3552e-06	4.0735e-06	405.77	137.43	118.55	40.53	4.2906e-06	50.844	217.740	-61.966	94.102	-84.434	19.929	30.264	-84.301	-79.905	112.635	-47.834	-80.192	-76.133	-75.566	-71.022	-65.802	-71.545	-8191	255	
6624.589	1	1	0	0	0.2416	0.099806	0.26415	0.15658	0.10217	0.044067	0.25369	0.31707	0.15097	0.058555	0.16282	0.32353	0.049705	0.11712	0.12509	0.20368	-2.4208	-3.1333	-2.6354	-2.8354	-2.7188	-2.7292	-3.1042	-2.9354	-2.7042	-2.9333	-2.5417	-3.125	-2.8146	-2.5625	-2.7917	-2.7583	-3.297	-94.081	-42.736	209.583	-72.735	101.010	231.666	249.459	166.996	229.941	218.733	207.946	22.158	-77.761	-36.737	227.673	0.00016971	0.0003645	8.712e-05	1368.6	2.2656e-06	1.7838e-06	1356.5	368.21	3.7528e-06	2.2827e-06	421.88	138.87	121.44	42.21	1.8549e-06	52.403	0.00039529	0.0003678	0.00011128	1279.6	4.3321e-06	4.0297e-06	1335.1	362.1	4.2929e-06	4.0254e-06	408.18	137.15	118.37	40.549	4.4769e-06	50.722	226.439	-61.142	-21.762	-84.318	103.608	70.258	-84.505	-79.534	-44.176	81.923	-80.325	-76.079	-75.753	-70.809	234.317	-71.500	-8191	255	
6624.685	1	1	0	0	0.022156	0.057365	0.14962	0.11147	0.13915	0.088538	0.23473	0.12707	0.14863	0.03985	0.18597	0.077197	0.4139	0.072009	0.043453	0.10925	-2.2979	-2.7917	-2.4333	-2.9604	-2.825	-2.5625	-3.1021	-2.8458	-2.8167	-2.9938	-2.6875	-2.8125	-2.8958	-2.6271	-2.9375	-2.7938	-4.935	256.482	-2.636	73.408	-20.886	122.388	222.690	-85.484	58.959	-12.550	191.396	252.707	227.079	153.747	78.419	187.859	9.9744e-05	0.00024486	0.00016353	1374.6	4.3179e-06	1.2505e-06	1358	366.5	3.5332e-06	4.4273e-06	421.83	139.92	121.4	42.1	9.2048e-07	52.271	0.00038895	0.00037009	0.00011623	1273.6	4.2499e-06	4.1249e-06	1340.5	361.11	4.2512e-06	4.1367e-06	410.34	137.05	118.19	40.75	4.6255e-06	50.513	223.157	215.748	-26.807	-84.319	-59.489	114.621	-84.476	-79.647	26.915	97.125	-79.996	-76.242	-75.691	-70.664	177.379	-71.152	-8191	255	
6624.781	1	1	0	0	0.24444	0.26152	0.11901	0.30435	0.10137	0.15977	0.24692	0.09731	0.12206	0.1002	0.14008	0.10261	0.35685	0.1285	0.15184	0.098201	-2.3937	-2.9771	-2.7208	-2.7188	-2.9333	-2.5167	-2.9417	-3.0896	-2.5771	-3.1875	-2.6854	-2.7979	-3.0167	-2.5167	-2.8958	-3.075	12.161	1.068	-85.061	-46.075	259.945	237.050	254.614	139.796	38.492	203.703	-50.215	258.316	177.737	222.819	136.366	196.616	0.00016195	0.00061815	0.00012312	1364	7.2318e-06	4.4159e-06	1364.2	366.6	9.4481e-06	4.7437e-06	421.01	139.79	121.67	42.355	5.9242e-06	52.302	0.00038073	0.00038353	0.00011807	1267.3	4.1023e-06	4.2693e-06	1341.2	360.19	4.1094e-06	4.2965e-06	408.98	136.72	117.84	40.973	4.543e-06	50.378	245.273	106.287	-36.558	-84.261	19.252	236.184	-84.274	-79.637	-10.396	197.353	-80.152	-75.999	-75.657	-70.632	43.120	-71.557	-8191	255	
6624.877	1	1	0	0	0.34415	0.18333	0.22399	0.059898	0.086577	0.055518	0.13858	0.20584	0.12193	0.035329	0.09409	0.14317	0.1134	0.10326	0.078717	0.12175	-2.2292	-2.8875	-2.7062	-2.7938	-2.8146	-2.7333	-2.9333	-2.9604	-2.5146	-3.0292	-2.6813	-2.8583	-2.9125	-2.7396	-2.7979	-2.8063	94.554	0.849	214.429	95.193	52.960	1.400	59.915	224.791	139.809	-92.588	-69.465	204.082	124.692	253.799	-66.684	84.915	0.00019023	0.00059515	0.00014164	1368.3	6.4924e-06	4.4415e-06	1361.7	367.91	2.457e-06	4.2731e-06	421.25	139.36	121.78	42.106	3.6864e-06	51.971	0.00037464	0.00040263	0.00011506	1262.4	4.0365e-06	4.4847e-06	1338.4	359.73	4.0397e-06	4.4791e-06	407.59	135.99	117.75	41.055	4.4007e-06	50.042	213.898	93.411	-58.337	-84.464	22.628	229.470	-84.333	-79.641	-82.557	176.802	-80.234	-75.734	-75.550	-70.827	-58.217	-71.498	-8191	255	
6624.996	1	1	0	0	0.45989	0.15276	0.20091	0.020202	0.055929	0.26991	0.23994	0.20504	0.16784	0.055447	0.27563	0.098244	0.14838	0.11553	0.15451	0.16053	-2.0625	-2.8625	-2.7375	-2.4708	-2.9333	-2.5687	-2.9729	-2.9625	-2.5479	-2.9	-2.9688	-2.6208	-2.9938	-2.625	-2.9646	-2.8771	112.023	193.839	155.888	167.681	-34.206	243.156	199.549	198.632	189.787	25.298	192.080	6.326	157.570	237.484	-26.880	222.842	0.00022105	0.00016138	0.00011999	1371.1	1.4767e-06	2.273e-06	1364	367.04	2.3378e-06	2.0747e-06	422.16	139.11	121.61	42.351	2.4244e-06	52.409	0.00037223	0.00041351	0.00011114	1256.1	4.0873e-06	4.5866e-06	1335	358.68	4.1704e-06	4.5663e-06	406.23	135.68	118.14	41.191	4.3038e-06	49.97	206.538	-15.252	-72.911	-84.349	231.893	69.435	-84.356	-79.902	138.508	-5.073	-80.502	-76.191	-75.503	-71.116	-88.997	-71.445	-8191	255	
6625.092	1	1	0	0	0.1715	0.10672	0.069617	0.17294	0.16765	0.33538	0.34357	0.40361	0.14168	0.077885	0.30646	0.27477	0.33559	0.15005	0.078388	0.10814	-2.1021	-2.9771	-2.6146	-2.6521	-2.9917	-2.6437	-2.85	-3.1771	-2.6125	-2.7708	-2.7771	-2.5417	-3.0187	-2.7875	-2.6646	-3.0792	93.726	72.630	71.111	-95.245	161.617	-48.127	221.132	252.923	224.222	-6.865	182.142	-80.347	246.501	-26.106	94.386	185.735	0.00023178	0.00040753	0.00021264	1374.8	1.076e-06	6.9668e-06	1360.5	365.58	4.0568e-06	3.9105e-06	420.97	139.42	120.89	42.291	3.8247e-06	52.202	0.00039036	0.0004175	0.00010892	1247.9	4.3003e-06	4.5603e-06	1332.3	357.77	4.366e-06	4.5452e-06	405.46	135.49	118.87	41.162	4.2595e-06	49.914	189.334	262.111	247.598	-84.428	-18.677	69.126	-84.295	-79.794	184.343	-8.386	-80.368	-76.065	-75.357	-71.150	-18.850	-71.370	-8191	255	
6625.188	1	1	0	0	0.087902	0.10377	0.10103	0.16673	0.28221	0.14796	0.14515	0.16422	0.33825	0.16301	0.26636	0.016159	0.17741	0.19367	0.28124	0.18072	-2.2938	-2.6771	-2.8896	-2.7771	-2.775	-2.7792	-2.8125	-3.2687	-2.5062	-2.8042	-3.0396	-2.6729	-3.1	-2.7708	-2.7396	-3.0625	6.051	154.641	206.669	209.586	-95.822	6.626	250.546	222.823	-14.579	146.916	176.519	242.260	-61.713	118.008	-57.359	-72.882	0.00022513	0.00051193	0.00023453	1372.9	2.3268e-06	4.3396e-06	1358.3	367.44	3.1545e-06	5.2897e-06	420.58	139.27	121.44	42.202	7.3829e-06	52.177	0.00040994	0.00041282	0.00010797	1245.6	4.5096e-06	4.4851e-06	1330.2	358.39	4.5728e-06	4.4648e-06	404.51	135.66	119.26	40.98	4.2241e-06	50.017	199.752	-49.918	-36.342	-84.414	239.278	76.896	-84.273	-79.844	215.405	10.644	-80.154	-76.090	-75.382	-71.137	20.821	-71.557	-8191	255	
6625.284	1	1	0	0	0.20434	0.059835	0.12288	0.2275	0.27013	0.1455	0.1696	0.23314	0.073988	0.16606	0.053266	0.25092	0.21661	0.0327	0.12604	0.10672	-2.3271	-2.7687	-2.7833	-2.4146	-2.8875	-2.5833	-2.7812	-3.1521	-2.5167	-2.7771	-3.1542	-2.4479	-3.0354	-2.6604	-2.3958	-3.1875	210.375	1.758	238.717	-7.431	247.191	18.735	197.035	238.600	99.369	33.120	194.832	190.917	238.921	209.206	128.835	233.951	0.00020354	0.00087549	0.00010738	1367.9	1.7206e-06	8.2421e-06	1360.2	367.56	3.7979e-06	8.8202e-06	420.37	139.15	121.55	42.276	5.0548e-06	52.127	0.00042772	0.00040608	0.00010613	1257.2	4.6563e-06	4.4293e-06	1332.5	359.84	4.7399e-06	4.4385e-06	404.26	136.58	119.96	40.942	4.1766e-06	50.393	167.563	-80.314	-54.936	-84.489	-11.352	-19.490	-84.252	-79.731	54.403	-23.503	-80.124	-76.060	-75.532	-71.036	21.478	-71.889	-8191	255	
#DATA ENDS
