BOXY.EXE: ISS Imagent and Oximeter Data Acquisition Program Version 0.80
Ascii Record File

#ACQ INFORMATION
2  Detector Channels 
16  External MUX Channels 
1  Auxiliary Channels 
5000  Waveform (CCF) Frequency (Hz)
1  Waveforms Skipped 
30  Waveforms Averaged 
1  Cycles Averaged 
16  Acquisitions per Waveform 
10.0806  Updata Rate (Hz) 

#FILE INFORMATION
TRUE -- External MUX Channel results are PARSED.
FALSE -- AC DC and Phase are NOT grouped.
TRUE -- Companion Program Settings File CREATED.
FALSE -- AC data not excluded
FALSE -- DC data not excluded
FALSE -- Phase data not excluded
FALSE -- Auxillary Chn. data not excluded
Tab delimiters

#CALIBRATION STATE
TRUE -- Waveform Calibration Values APPLIED.


#AUX CALIBRATION VALUES
Val Type	aux-1	

Term	1.0000e+00	
Factor	0.0000e+00	


#WF CALIBRATION VALUES
A = Detector Channel
Val Type	A-AC1	A-AC2	A-AC3	A-AC4	A-AC5	A-AC6	A-AC7	A-AC8	A-AC9	A-AC10	A-AC11	A-AC12	A-AC13	A-AC14	A-AC15	A-AC16	A-DC1	A-DC2	A-DC3	A-DC4	A-DC5	A-DC6	A-DC7	A-DC8	A-DC9	A-DC10	A-DC11	A-DC12	A-DC13	A-DC14	A-DC15	A-DC16	A-Ph1	A-Ph2	A-Ph3	A-Ph4	A-Ph5	A-Ph6	A-Ph7	A-Ph8	A-Ph9	A-Ph10	A-Ph11	A-Ph12	A-Ph13	A-Ph14	A-Ph15	A-Ph16	

Term	0.00000e+00	0.00000e+00	0.00000e+00	0.00000e+00	0.00000e+00	0.00000e+00	0.00000e+00	0.00000e+00	0.00000e+00	0.00000e+00	0.00000e+00	0.00000e+00	0.00000e+00	0.00000e+00	0.00000e+00	0.00000e+00	0.00000e+00	0.00000e+00	0.00000e+00	0.00000e+00	0.00000e+00	0.00000e+00	0.00000e+00	0.00000e+00	0.00000e+00	0.00000e+00	0.00000e+00	0.00000e+00	0.00000e+00	0.00000e+00	0.00000e+00	0.00000e+00	0.00000e+00	0.00000e+00	0.00000e+00	0.00000e+00	0.00000e+00	0.00000e+00	0.00000e+00	0.00000e+00	0.00000e+00	0.00000e+00	0.00000e+00	0.00000e+00	0.00000e+00	0.00000e+00	0.00000e+00	0.00000e+00	
Factor	1.00000e+00	1.00000e+00	1.00000e+00	1.00000e+00	1.00000e+00	1.00000e+00	1.00000e+00	1.00000e+00	1.00000e+00	1.00000e+00	1.00000e+00	1.00000e+00	1.00000e+00	1.00000e+00	1.00000e+00	1.00000e+00	1.00000e+00	1.00000e+00	1.00000e+00	1.00000e+00	1.00000e+00	1.00000e+00	1.00000e+00	1.00000e+00	1.00000e+00	1.00000e+00	1.00000e+00	1.00000e+00	1.00000e+00	1.00000e+00	1.00000e+00	1.00000e+00	X	X	X	X	X	X	X	X	X	X	X	X	X	X	X	X	

B = Detector Channel
Val Type	B-AC1	B-AC2	B-AC3	B-AC4	B-AC5	B-AC6	B-AC7	B-AC8	B-AC9	B-AC10	B-AC11	B-AC12	B-AC13	B-AC14	B-AC15	B-AC16	B-DC1	B-DC2	B-DC3	B-DC4	B-DC5	B-DC6	B-DC7	B-DC8	B-DC9	B-DC10	B-DC11	B-DC12	B-DC13	B-DC14	B-DC15	B-DC16	B-Ph1	B-Ph2	B-Ph3	B-Ph4	B-Ph5	B-Ph6	B-Ph7	B-Ph8	B-Ph9	B-Ph10	B-Ph11	B-Ph12	B-Ph13	B-Ph14	B-Ph15	B-Ph16	

Term	0.00000e+00	0.00000e+00	0.00000e+00	0.00000e+00	0.00000e+00	0.00000e+00	0.00000e+00	0.00000e+00	0.00000e+00	0.00000e+00	0.00000e+00	0.00000e+00	0.00000e+00	0.00000e+00	0.00000e+00	0.00000e+00	0.00000e+00	0.00000e+00	0.00000e+00	0.00000e+00	0.00000e+00	0.00000e+00	0.00000e+00	0.00000e+00	0.00000e+00	0.00000e+00	0.00000e+00	0.00000e+00	0.00000e+00	0.00000e+00	0.00000e+00	0.00000e+00	-1.10335e+02	-1.62587e+02	-1.90705e+02	-1.85735e+02	-7.95890e+01	-9.80034e+01	-1.58876e+02	-1.62015e+02	-9.35963e+01	-1.16549e+02	-1.73504e+02	-1.69991e+02	-1.80150e+02	-1.77034e+02	-1.13923e+02	-1.49910e+02	
Factor	1.77319e-05	8.39323e-05	2.32807e-05	6.63806e-01	6.50858e-07	8.58057e-07	1.78611e-01	5.53004e-02	7.65979e-07	9.03384e-07	9.65138e-02	3.13854e-02	2.64622e-02	1.04344e-02	8.22500e-07	1.50170e-02	3.36373e-07	3.38385e-07	9.36488e-08	2.35456e-01	3.72523e-09	3.70374e-09	7.59690e-02	2.46404e-02	3.72491e-09	3.70198e-09	3.96877e-02	1.30564e-02	1.13969e-02	4.37442e-03	3.68760e-09	5.98844e-03	X	X	X	X	X	X	X	X	X	X	X	X	X	X	X	X	



#DISTANCE SETTINGS
A = Detector Channel
A-1	A-2	A-3	A-4	A-5	A-6	A-7	A-8	A-9	A-10	A-11	A-12	A-13	A-14	A-15	A-16	

2.5000e+00	3.0000e+00	2.5000e+00	3.0000e+00	2.0000e+00	3.0000e+00	1.5000e+00	3.0000e+00	3.0000e+00	3.0000e+00	3.0000e+00	3.0000e+00	3.0000e+00	3.0000e+00	1.5000e+00	3.0000e+00	

B = Detector Channel
B-1	B-2	B-3	B-4	B-5	B-6	B-7	B-8	B-9	B-10	B-11	B-12	B-13	B-14	B-15	B-16	

1.0000e+01	1.0000e+01	1.0000e+01	1.4400e+00	1.0000e+01	1.0000e+01	1.5100e+00	1.9400e+00	1.0000e+01	1.0000e+01	1.9900e+00	2.4900e+00	2.4100e+00	2.9000e+00	1.0000e+01	2.9800e+00	




#DATA BEGINS
time	group	step	mark	flag	A-AC1	A-AC2	A-AC3	A-AC4	A-AC5	A-AC6	A-AC7	A-AC8	A-AC9	A-AC10	A-AC11	A-AC12	A-AC13	A-AC14	A-AC15	A-AC16	A-DC1	A-DC2	A-DC3	A-DC4	A-DC5	A-DC6	A-DC7	A-DC8	A-DC9	A-DC10	A-DC11	A-DC12	A-DC13	A-DC14	A-DC15	A-DC16	A-Ph1	A-Ph2	A-Ph3	A-Ph4	A-Ph5	A-Ph6	A-Ph7	A-Ph8	A-Ph9	A-Ph10	A-Ph11	A-Ph12	A-Ph13	A-Ph14	A-Ph15	A-Ph16	B-AC1	B-AC2	B-AC3	B-AC4	B-AC5	B-AC6	B-AC7	B-AC8	B-AC9	B-AC10	B-AC11	B-AC12	B-AC13	B-AC14	B-AC15	B-AC16	B-DC1	B-DC2	B-DC3	B-DC4	B-DC5	B-DC6	B-DC7	B-DC8	B-DC9	B-DC10	B-DC11	B-DC12	B-DC13	B-DC14	B-DC15	B-DC16	B-Ph1	B-Ph2	B-Ph3	B-Ph4	B-Ph5	B-Ph6	B-Ph7	B-Ph8	B-Ph9	B-Ph10	B-Ph11	B-Ph12	B-Ph13	B-Ph14	B-Ph15	B-Ph16	aux-1	digaux	

7159.500	1	1	0	768	0.17797	0.061064	0.077743	0.040806	0.24485	0.23184	0.34199	0.066019	0.10137	0.18652	0.23047	0.11084	0.1589	0.080822	0.098761	0.21489	-2.2646	-2.7417	-2.7083	-2.6083	-3.1875	-2.7333	-2.9333	-3.3458	-2.6146	-3.125	-2.8688	-2.6583	-3.1417	-2.8792	-2.7687	-3.2229	-54.443	42.804	-11.617	-47.124	129.518	-115.011	183.436	198.516	-13.855	162.089	221.857	8.569	-131.014	221.856	204.001	97.221	0.0011774	0.0019796	0.0009984	677.09	1.6774e-05	2.2736e-05	830.29	219.25	3.5439e-05	6.7327e-06	367.19	160.84	98.92	47.699	3.2928e-05	81.74	0.0027311	0.0031531	0.00084569	2438.6	2.9987e-05	3.5435e-05	1389.6	385.59	3.1263e-05	3.5379e-05	645.11	239.24	176.29	80.125	3.301e-05	112.36	194.865	167.652	-96.474	-121.716	202.628	176.733	-123.384	-117.566	196.853	132.003	-118.448	-114.876	-114.426	-108.879	-10.363	-110.133	-8191	255	
7159.596	1	1	0	0	0.16775	0.058672	0.17822	0.043374	0.14648	0.032552	0.21389	0.27736	0.1755	0.20952	0.21919	0.30999	0.077561	0.036871	0.13863	0.18291	-2.1604	-3.0083	-2.9792	-2.4688	-2.9938	-3.0104	-2.7125	-3.2021	-2.7562	-2.8583	-3.1417	-2.6271	-2.9396	-3.0896	-2.6958	-3.2542	53.362	153.002	117.515	124.765	105.415	-127.543	-61.879	161.301	28.625	65.578	-105.514	135.474	-14.742	205.540	-79.303	189.269	0.0010948	0.0017448	0.00062396	681.41	3.3846e-05	1.7478e-05	818.43	217.76	4.7409e-05	2.155e-05	364.81	159.83	98.048	47.602	3.0486e-05	80.777	0.0029485	0.0032696	0.00082674	2413.1	3.2753e-05	3.5934e-05	1377.7	381.36	3.3926e-05	3.5788e-05	639.03	237.03	184.45	79.246	3.2607e-05	111.41	190.091	-47.743	-120.899	-122.657	198.606	-57.437	-123.029	-117.432	183.088	83.680	-118.595	-115.299	-114.301	-108.477	-8.893	-110.773	-8191	255	
7159.693	1	1	0	0	0.35873	0.17114	0.061856	0.15751	0.29723	0.076017	0.16315	0.083545	0.26327	0.23099	0.12097	0.11242	0.058833	0.19373	0.060768	0.35623	-2.4167	-2.8396	-3.0438	-2.6271	-3.1958	-2.9542	-2.7646	-3.1688	-2.6583	-2.9333	-3.2208	-2.8771	-3.2708	-3.0042	-2.7687	-3.1042	192.354	-117.127	175.588	125.369	149.752	55.405	79.326	-11.294	175.434	136.337	156.371	-114.500	-47.097	155.331	58.778	-119.570	0.0010588	0.0015802	0.00098706	643.37	3.1083e-05	3.8502e-05	811.98	215.36	6.8291e-06	3.4876e-05	363.82	157.88	99.39	47.699	9.3822e-06	81.26	0.0031592	0.0032172	0.00081015	2393	3.4922e-05	3.474e-05	1360.1	381.63	3.5804e-05	3.4619e-05	626.15	239.32	190.74	77.896	3.1879e-05	113.44	191.361	-91.321	-135.374	-123.331	199.705	-7.532	-123.547	-117.733	171.561	-11.141	-118.820	-115.185	-114.163	-108.845	-17.985	-110.946	-8191	255	
7159.789	1	1	0	0	0.15423	0.047948	0.23145	0.077442	0.068162	0.21077	0.089635	0.2349	0.081544	0.16789	0.3783	0.14079	0.15596	0.14808	0.12304	0.14652	-2.3375	-2.8479	-2.9917	-2.6521	-2.925	-3.0271	-2.3917	-3.2542	-2.775	-2.8521	-3.125	-2.875	-2.9437	-3.1562	-2.625	-3.1583	-96.925	111.632	223.981	196.172	-54.572	-25.804	-36.321	-100.319	48.111	-50.323	155.649	168.994	-37.797	137.152	-34.936	203.856	0.00087839	0.00043898	0.00061105	657.03	2.152e-05	1.6421e-05	809.45	214.15	1.8055e-05	5.41e-05	362.15	158.18	100.33	47.312	3.6587e-05	82.236	0.003303	0.003128	0.00078509	2480	3.6486e-05	3.3554e-05	1340.9	393.68	3.652e-05	3.3636e-05	615.11	246.31	191.8	76.352	3.0838e-05	117.41	-126.213	223.111	-113.361	-123.833	177.541	55.621	-123.254	-117.855	-37.371	-53.008	-118.700	-115.179	-114.148	-108.267	-29.164	-111.262	-8191	255	
7159.885	1	1	0	0	0.077517	0.35089	0.23334	0.10714	0.067892	0.044511	0.33553	0.17086	0.16109	0.071559	0.36662	0.23995	0.15896	0.044925	0.17325	0.10921	-2.5	-2.8396	-2.9646	-2.6271	-2.7062	-3.1312	-2.4771	-3	-2.9396	-2.5812	-3.1333	-2.6625	-2.6521	-3.1208	-2.5021	-3.1	130.524	37.654	-51.412	56.055	95.373	109.577	-32.807	-129.743	181.925	27.654	192.336	140.826	-135.416	-80.446	112.728	99.621	0.00050275	0.0019883	0.00070969	631.79	2.5971e-05	4.8646e-05	818.13	217.29	2.1346e-05	2.4114e-05	363.66	159.84	101.19	47.654	1.0671e-05	81.734	0.0032609	0.0030323	0.00075901	2620	3.5858e-05	3.2636e-05	1326	410.33	3.5461e-05	3.2919e-05	609.89	253.99	189.26	75.379	3.0797e-05	120.93	-77.231	-77.370	212.908	-125.728	-22.933	-28.704	-123.630	-117.862	-26.111	8.131	-118.536	-115.377	-113.488	-108.398	-129.800	-111.157	-8191	255	
7159.981	1	1	0	0	0.11073	0.28511	0.24749	0.12077	0.06439	0.19821	0.11978	0.13091	0.21439	0.089346	0.40742	0.16112	0.098497	0.26725	0.29163	0.14499	-2.5375	-2.5396	-3.0563	-2.8187	-2.7292	-3.0938	-2.7292	-2.9313	-3.0146	-2.7	-3.1312	-2.9917	-2.6896	-3.2	-2.5563	-3.1063	154.568	-76.848	161.436	151.416	202.849	-30.953	92.442	98.912	173.400	-97.813	173.580	114.688	-78.044	223.479	-112.696	96.737	0.00094899	0.0023643	0.00080937	653.5	5.3912e-06	1.9528e-05	809.77	216.06	3.0341e-05	2.8688e-05	357.97	159.36	99.845	47.049	2.0983e-05	81.497	0.0031545	0.0029703	0.00076679	2733.2	3.4749e-05	3.1289e-05	1336.2	419.53	3.3889e-05	3.1641e-05	617.34	256.27	183.56	72.96	3.1705e-05	121.19	-64.847	-38.352	95.578	-124.181	-73.165	51.032	-123.600	-117.581	31.826	-24.784	-119.885	-115.091	-113.999	-108.518	171.816	-110.925	-8191	255	
7160.102	1	1	0	0	0.1876	0.1975	0.0042062	0.18247	0.2517	0.46075	0.062308	0.19763	0.07616	0.2578	0.10617	0.1863	0.16354	0.18644	0.041345	0.34192	-2.7417	-2.4083	-3.0833	-2.7729	-2.7021	-3.0417	-2.9625	-2.7958	-2.9854	-2.7104	-2.9167	-3.0104	-2.8104	-3.2562	-2.7438	-3.0563	-78.515	-13.571	42.992	-58.313	101.248	-91.379	196.647	-113.677	48.256	7.450	-106.452	182.833	-121.178	-86.848	119.652	196.401	0.00069527	0.0041551	0.00080617	661.57	2.1778e-05	2.6644e-05	816.6	217.92	2.2725e-05	3.015e-05	357.75	160.55	99.568	47.095	2.89e-05	82.164	0.0029693	0.0028106	0.00079451	2692	3.2746e-05	2.9344e-05	1356.5	415.22	3.1746e-05	2.9806e-05	632.39	251.29	178.52	71.169	3.2999e-05	119.41	-64.695	-57.062	69.139	-121.374	18.878	-16.201	-124.275	-117.355	33.010	-0.198	-119.358	-115.280	-113.749	-108.550	173.427	-110.320	-8191	255	
7160.198	1	1	0	0	0.096963	0.092696	0.19295	0.13698	0.23631	0.077902	0.2295	0.079656	0.021839	0.12687	0.13997	0.19371	0.084591	0.1726	0.31972	0.066593	-2.6083	-2.6792	-2.8396	-2.7771	-2.7	-2.9396	-2.8542	-2.9542	-3.2021	-2.5958	-2.9437	-2.925	-2.7583	-3.2062	-2.7104	-2.7292	97.741	-115.417	-81.484	-67.314	-122.520	-45.329	209.854	-54.225	5.081	103.371	-78.208	162.638	123.754	170.149	217.971	163.232	0.00055858	0.002286	0.0010529	681.12	3.519e-05	1.3702e-05	813.83	218.45	2.1666e-05	2.3415e-05	360.27	160.34	100.13	46.722	1.7451e-05	82.853	0.0028333	0.0027034	0.00084081	2595.5	3.1729e-05	2.8721e-05	1397.2	407.88	3.0582e-05	2.9833e-05	655.12	246.2	176.04	71.716	3.4349e-05	117.39	-66.281	-93.536	103.679	-122.317	4.287	177.965	-123.923	-117.260	13.496	160.207	-118.728	-114.603	-113.739	-108.931	149.620	-110.290	-8191	255	
7160.292	1	1	0	0	0.20215	0.076495	0.25375	0.23389	0.11933	0.31481	0.12488	0.19316	0.078862	0.32923	0.18252	0.1902	0.34584	0.42626	0.15614	0.14495	-2.6208	-2.3833	-3.0312	-3.0271	-2.6167	-3.0542	-2.8104	-2.7521	-3.1854	-2.7458	-3	-2.9583	-2.575	-3.0875	-2.9208	-2.7854	-109.040	60.391	163.272	-4.593	-117.537	-5.816	213.495	-118.996	-48.113	-15.269	141.073	61.235	198.510	-121.728	100.559	153.017	0.0002267	0.0025984	0.0002446	671.71	7.6048e-06	9.6531e-06	815.66	219.34	1.1157e-05	2.7926e-05	367.43	161.88	100.88	46.679	3.2677e-05	82.827	0.0027058	0.0027666	0.00087323	2495.6	3.0609e-05	3.0087e-05	1419.6	399.18	2.9536e-05	3.1245e-05	667.36	242.31	173.4	74.386	3.4565e-05	115.84	-134.201	97.135	9.516	-121.854	14.294	217.313	-123.584	-117.290	45.863	134.889	-118.994	-114.856	-114.285	-109.238	-12.621	-110.304	-8191	255	
7160.390	1	1	0	0	0.19667	0.26963	0.074199	0.14108	0.2268	0.10067	0.36022	0.10155	0.051156	0.097429	0.21934	0.27433	0.045041	0.099685	0.21344	0.26557	-2.575	-2.4188	-2.7458	-2.9458	-2.5854	-3.1375	-2.8896	-2.7333	-3.2583	-2.6417	-2.8146	-2.9833	-2.6063	-2.95	-2.5687	-2.6792	-45.361	-25.083	43.198	0.232	167.841	28.346	94.244	172.516	220.417	2.934	203.105	-134.534	147.406	197.164	198.671	92.153	0.00030053	0.0035026	0.0011404	668.98	2.2772e-06	4.6808e-05	825.67	219.18	1.8282e-05	2.4426e-05	366.98	160.85	99.467	47.009	1.0329e-05	81.936	0.0026264	0.0029506	0.00086906	2432.8	2.959e-05	3.2159e-05	1402	393.9	2.8639e-05	3.3205e-05	654.71	237.88	171.2	76.783	3.3196e-05	114.04	-78.451	153.942	-74.953	-123.612	214.508	200.162	-123.218	-116.615	-75.324	159.227	-118.924	-114.956	-114.002	-108.849	-114.927	-110.548	-8191	255	
7160.485	1	1	0	0	0.093314	0.29033	0.18998	0.13451	0.13826	0.20498	0.39088	0.14402	0.33584	0.12917	0.12369	0.17128	0.18563	0.29424	0.21635	0.07835	-2.6417	-2.6229	-2.5396	-2.975	-2.6833	-2.9771	-2.9708	-2.5125	-2.9021	-2.6937	-2.6958	-2.9979	-2.6437	-3.0583	-2.8458	-2.6125	121.697	188.542	177.590	72.593	125.204	87.062	193.463	-128.821	82.262	143.890	210.984	172.603	201.035	182.894	147.474	-13.681	0.0010106	0.0025973	0.00070231	684.85	1.6051e-05	1.5281e-05	826.02	218.36	1.1646e-05	1.5633e-05	365.68	159.93	98.502	47.658	6.7925e-06	82.333	0.0025985	0.003095	0.00083542	2350.8	2.9609e-05	3.3838e-05	1365.1	384.6	2.9078e-05	3.4381e-05	637.52	232.69	173.44	78.039	3.1546e-05	112.04	-129.353	102.766	-73.136	-122.470	175.052	166.196	-123.289	-117.110	163.072	136.724	-118.851	-114.854	-114.394	-108.369	-28.122	-110.610	-8191	255	
7160.581	1	1	0	0	0.2102	0.16866	0.29922	0.017074	0.23565	0.058521	0.060285	0.068374	0.096179	0.086189	0.26807	0.23551	0.11305	0.2018	0.086839	0.35922	-2.6458	-2.8333	-2.7062	-3.1646	-2.5729	-2.9146	-2.8146	-2.6479	-3.0896	-2.7396	-2.6375	-3.1917	-2.675	-2.8854	-2.9417	-2.5896	223.169	-0.161	-53.380	-74.185	131.289	218.736	66.096	175.085	98.607	22.031	182.010	-134.266	160.525	-101.462	-22.120	156.019	0.0011617	0.00058688	0.00031402	686.23	3.7484e-05	4.9469e-06	822.05	218.41	2.6202e-05	5.7371e-06	364.45	159.21	98.866	47.471	1.7413e-05	82.188	0.0027294	0.003162	0.00080551	2271.6	3.1242e-05	3.428e-05	1337.3	378.35	3.1118e-05	3.4129e-05	626.93	229.16	179.63	77.67	3.0483e-05	110.57	199.023	165.000	-121.092	-121.414	189.201	-48.764	-123.764	-117.277	188.357	63.498	-118.536	-114.747	-113.883	-108.309	60.853	-110.500	-8191	255	
7160.701	1	1	0	0	0.11788	0.10737	0.16848	0.22429	0.037362	0.073397	0.15069	0.091442	0.15004	0.10349	0.14433	0.15243	0.10732	0.26486	0.2557	0.072539	-2.6729	-2.7729	-2.4583	-3.2271	-2.5604	-2.7562	-3.0062	-2.6104	-3.1021	-3.0438	-2.9542	-3.1417	-2.6312	-2.6688	-2.9771	-2.8063	-18.914	-87.864	6.011	-114.461	121.820	118.066	108.128	191.948	129.958	167.397	-59.489	171.387	46.362	-123.147	182.868	131.951	0.0012774	0.0029274	0.00084143	649.47	1.64e-05	2.8989e-05	825.99	217.62	3.1066e-05	2.8867e-05	366.87	159.45	99.454	47.844	2.1693e-05	81.836	0.0029066	0.0030484	0.0007801	2227.5	3.3261e-05	3.33e-05	1319.9	376.58	3.3206e-05	3.2823e-05	620.47	230.14	185.68	76.339	2.9411e-05	111.87	181.325	-98.987	-121.090	-123.264	181.642	25.318	-123.296	-117.642	166.416	-31.691	-119.002	-115.296	-114.104	-108.087	53.980	-111.096	-8191	255	
7160.797	1	1	0	0	0.24346	0.16681	0.12662	0.11655	0.24338	0.1759	0.14593	0.18248	0.11397	0.08764	0.39371	0.1602	0.048256	0.098623	0.16235	0.23411	-2.6312	-2.9125	-2.2917	-2.9833	-2.7208	-2.7833	-3.2604	-2.7979	-2.9562	-2.9062	-2.7792	-3.0396	-2.7438	-2.6479	-2.9437	-2.9437	76.488	96.411	80.986	121.878	6.740	-32.435	90.743	165.625	-35.690	-76.704	118.457	187.098	178.788	196.704	-132.166	217.083	0.00046875	0.0039151	0.00039429	634.77	9.0747e-06	3.2538e-05	818.75	216.31	5.0636e-06	1.9598e-05	366.21	157.77	99.89	47.529	1.5939e-05	81.424	0.0030749	0.0029399	0.00076221	2297.8	3.4634e-05	3.2196e-05	1296.1	385.92	3.4381e-05	3.1577e-05	608.68	235.98	187.12	74.895	2.8401e-05	114.31	151.654	-62.825	-100.037	-123.845	-58.843	27.243	-123.253	-118.000	175.448	-72.111	-118.794	-115.091	-113.851	-108.583	-46.579	-111.008	-8191	255	
7160.894	1	1	0	0	0.16735	0.186	0.064197	0.19364	0.24077	0.31914	0.094154	0.13137	0.074035	0.21201	0.19046	0.15108	0.30612	0.12597	0.17563	0.20667	-2.4146	-2.7271	-2.3875	-2.8479	-2.5792	-2.5563	-3.0187	-2.5646	-2.8146	-2.9583	-2.7292	-3.1792	-2.975	-2.6271	-2.8792	-2.7167	165.512	-112.357	98.178	54.027	162.846	30.809	99.835	-108.487	195.309	-14.398	208.815	162.500	50.336	169.233	-125.453	-118.380	0.00049767	0.0020333	0.00053051	626.13	7.2049e-06	8.6206e-06	816.06	215.86	2.1599e-05	2.8512e-05	363.02	157.97	100.01	47.32	8.8125e-06	81.949	0.0030949	0.0028336	0.00073505	2422	3.4087e-05	3.1231e-05	1271.1	397.87	3.3739e-05	3.0343e-05	598.67	243.22	182.94	73.706	2.7992e-05	117.55	-74.000	-36.432	-84.908	-124.307	5.833	-88.843	-123.418	-117.603	-16.078	-34.750	-118.960	-115.201	-113.319	-108.571	-10.337	-110.822	-8191	255	
7160.990	1	1	0	0	0.16058	0.11464	0.20153	0.075248	0.11099	0.0053641	0.37559	0.17522	0.12539	0.032261	0.28627	0.35886	0.24309	0.14573	0.10257	0.20915	-2.2042	-3.0833	-2.4771	-3.0646	-2.9958	-2.6063	-3.2625	-2.8	-2.8333	-2.9854	-2.6708	-2.9646	-2.8458	-2.4562	-2.8542	-2.7354	-108.119	-109.072	108.262	187.418	-17.980	84.139	-109.535	119.691	-46.195	-44.315	-121.931	180.350	190.563	-72.170	138.071	222.110	0.00040772	0.0019185	0.00077296	634.32	2.5246e-05	2.5816e-05	815.65	218.35	9.3882e-06	3.6947e-05	362.89	158.71	100.73	47.348	3.0848e-05	82.326	0.002995	0.0027261	0.00073239	2555.4	3.2699e-05	3.0423e-05	1279	408.69	3.2548e-05	2.9361e-05	606.63	249.38	179.07	72.682	2.9187e-05	119.97	-74.269	-66.988	101.150	-124.536	14.601	-9.244	-123.984	-117.831	-2.308	-28.731	-119.550	-115.375	-113.900	-108.126	173.789	-110.672	-8191	255	
7161.061	1	1	0	0	0.097234	0.087353	0.28991	0.15252	0.1892	0.23694	0.29106	0.15852	0.18417	0.17682	0.035491	0.22474	0.19477	0.12304	0.22139	0.3531	-2.3542	-3.2583	-2.6646	-2.9229	-2.8604	-2.625	-3.0167	-2.7646	-2.5187	-3.1083	-2.7396	-3.0375	-2.9479	-2.6458	-3.0646	-3.0417	212.791	195.248	-95.565	-24.652	23.401	125.714	-133.058	163.837	-68.904	118.948	37.315	-107.243	-106.899	183.028	6.100	142.197	0.0004678	0.0035408	0.00069871	676.32	1.3655e-05	4.4611e-06	818.74	221.52	9.5623e-06	1.9219e-05	362.08	160.85	99.465	47.493	4.5306e-05	83.336	0.0028942	0.0026427	0.00077475	2628.8	3.1592e-05	2.9649e-05	1328	415.04	3.1885e-05	2.8705e-05	635.18	251.9	176.71	72.374	3.1714e-05	119.63	-26.694	-44.779	102.433	-123.922	6.803	-37.017	-124.030	-117.060	17.934	-27.239	-119.246	-115.081	-113.724	-108.516	146.569	-110.215	-8191	255	
7161.182	1	1	0	0	0.060392	0.11736	0.077522	0.21575	0.18741	0.1772	0.16613	0.18521	0.23246	0.26536	0.26745	0.15573	0.061698	0.14996	0.1886	0.12923	-2.1896	-3.1	-2.6604	-2.8438	-3.0187	-2.3875	-3.1396	-3	-2.6708	-3.1479	-2.6167	-2.8917	-2.9292	-2.55	-3.1708	-3.2146	-13.702	-95.588	-46.383	-10.058	221.892	-109.168	223.951	218.113	183.291	122.491	138.851	170.700	61.350	151.658	-72.861	171.739	0.00016869	0.00054464	0.0012988	675.94	1.7417e-05	1.7058e-05	820.72	219.28	1.4484e-05	1.602e-05	360.6	160.72	100.35	46.696	1.2362e-05	82.091	0.0028492	0.0026024	0.00083618	2607.9	3.0944e-05	2.9388e-05	1381	408.26	3.1265e-05	2.8619e-05	656.52	247.59	173.67	72.419	3.376e-05	116.87	121.676	17.524	73.462	-121.373	48.700	-68.086	-124.108	-116.760	-68.178	144.991	-119.357	-114.601	-113.674	-108.613	125.917	-110.362	-8191	255	
7161.278	1	1	0	0	0.23328	0.28915	0.28821	0.099836	0.036619	0.14344	0.17425	0.32418	0.27674	0.11973	0.25248	0.25564	0.21022	0.23426	0.14479	0.22503	-2.2021	-3.0833	-2.8479	-2.6604	-3.1417	-2.7354	-3.1333	-3.1958	-2.6104	-3.1896	-2.8312	-2.7542	-3.0042	-2.7	-2.9354	-3.05	-28.831	-88.938	-17.498	-45.316	112.616	-78.096	153.697	181.419	70.305	-10.978	127.950	138.303	-72.249	200.083	-134.206	132.709	7.5773e-05	0.003444	0.00056157	689.71	2.6394e-05	3.7976e-05	812.18	218.82	3.8381e-06	3.8088e-05	363.71	159.35	99.062	46.559	1.9326e-05	81.483	0.0027852	0.0026564	0.00087135	2523.2	2.9727e-05	3.0108e-05	1405.1	396.3	3.0133e-05	2.9827e-05	661.89	242.02	169.19	73.925	3.4337e-05	114.36	-88.008	127.165	82.879	-120.807	5.895	159.504	-123.547	-117.017	-67.883	168.443	-118.918	-115.152	-113.767	-108.855	-44.521	-110.495	-8191	255	
7161.374	1	1	0	0	0.24715	0.25691	0.1844	0.037818	0.19899	0.21334	0.14717	0.2611	0.20746	0.21504	0.15583	0.22286	0.043093	0.12238	0.091655	0.17668	-2.1917	-3.1146	-2.7958	-2.7375	-3.0958	-2.7042	-3.0417	-3.1688	-2.625	-2.9271	-2.8563	-2.6312	-3.1771	-2.7292	-2.8312	-3.2396	-116.826	19.127	16.334	-9.145	-74.049	157.609	197.715	178.740	162.670	-103.313	57.810	140.721	109.029	119.564	223.344	189.480	0.00047063	0.0045665	0.00068614	653.13	1.9851e-05	3.4318e-05	814.98	219.82	1.4621e-05	1.4604e-05	364.56	159.85	99.491	47.223	2.1948e-05	82.346	0.0026874	0.0028338	0.00087331	2456	2.8799e-05	3.2161e-05	1401.6	388.96	2.9317e-05	3.2053e-05	653.45	238.87	167.48	76.582	3.3344e-05	112.87	-111.989	128.817	-34.392	-121.784	30.706	204.199	-123.220	-117.305	-51.310	177.099	-118.185	-114.704	-113.760	-108.571	-41.882	-110.195	-8191	255	
7161.471	1	1	0	0	0.21285	0.13161	0.11527	0.21729	0.10115	0.18388	0.092023	0.43208	0.16895	0.34618	0.29322	0.028791	0.25303	0.13731	0.014072	0.14573	-2.0083	-2.7854	-2.7583	-2.7125	-3.2396	-2.6562	-2.8729	-3.1458	-2.5521	-2.8396	-2.7812	-2.6312	-2.9917	-2.8167	-2.7646	-3.2042	147.549	-100.974	148.403	158.527	-51.332	-67.726	127.482	140.723	198.664	-134.905	197.290	48.536	135.601	186.377	73.454	-64.653	0.0010366	0.0033967	0.00059563	674.92	4.8886e-06	3.3409e-05	820.75	218.06	2.4594e-05	1.314e-05	366.61	159.58	98.846	47.327	1.5774e-05	82.659	0.0026448	0.0030267	0.00084111	2406.4	2.8792e-05	3.4169e-05	1380.3	383.52	2.9815e-05	3.4161e-05	641.38	236.68	170.68	78.597	3.228e-05	111.61	214.463	117.003	-58.596	-121.483	221.784	192.976	-123.222	-117.308	162.906	188.506	-118.955	-115.081	-114.693	-108.430	-20.644	-110.491	-8191	255	
7161.589	1	1	0	0	0.027539	0.078283	0.25044	0.062982	0.42103	0.16042	0.26115	0.10986	0.24903	0.090367	0.034758	0.023279	0.17902	0.1396	0.034563	0.25452	-2.1083	-2.9458	-2.9229	-2.4542	-2.8854	-2.6375	-2.8167	-3.075	-2.7896	-3.0542	-3.1333	-2.6354	-3.2	-2.8688	-2.5417	-3.2417	60.135	29.028	127.589	-2.629	99.487	198.097	99.641	-68.523	-41.516	50.031	98.908	50.301	-122.383	-79.421	66.995	184.014	0.0010255	0.0026751	0.0008398	684.11	2.5968e-05	1.9211e-05	818.16	218.84	3.3334e-05	5.9611e-07	363.92	158.68	98.655	47.554	1.5281e-05	81.484	0.0027525	0.0031569	0.00080898	2351.2	3.0328e-05	3.4778e-05	1355	375.37	3.1479e-05	3.4446e-05	625.19	232.35	177	78.207	3.1337e-05	109.57	181.278	57.544	-63.099	-122.358	189.542	-55.585	-123.698	-117.138	200.507	-73.570	-118.977	-115.257	-114.604	-108.630	-65.757	-110.524	-8191	255	
7161.663	1	1	0	0	0.15243	0.26221	0.30442	0.14137	0.17806	0.21305	0.23299	0.1923	0.16826	0.26956	0.23326	0.54145	0.049392	0.11847	0.076187	0.16057	-1.925	-2.6667	-2.8937	-2.5792	-3.0208	-2.9188	-2.9188	-3.1833	-2.7979	-2.9708	-3.0417	-2.7771	-3.0563	-2.8479	-2.4938	-3.0958	37.589	-53.941	144.147	211.544	40.610	25.510	164.548	168.869	-20.123	134.713	185.091	111.240	-125.558	188.674	180.055	152.915	0.0011975	0.0045795	0.00051453	653.24	3.275e-05	1.5812e-05	816.55	215.98	1.633e-05	2.7159e-05	363.2	157.78	98.279	47.278	2.5124e-05	80.544	0.0029467	0.0031151	0.00077877	2291.1	3.2456e-05	3.3625e-05	1331.3	369.33	3.3463e-05	3.3292e-05	610.99	230.47	182.92	76.113	3.0281e-05	109.13	180.322	-70.368	198.578	-121.788	197.651	83.164	-123.508	-116.936	112.088	-22.698	-118.456	-114.914	-114.029	-108.443	-13.818	-110.793	-8191	255	
7161.782	1	1	0	0	0.14092	0.35626	0.037063	0.076651	0.33969	0.076817	0.028719	0.084614	0.18795	0.17742	0.056683	0.17757	0.22077	0.2282	0.034477	0.096479	-2.1333	-2.7396	-2.9688	-2.6	-2.9708	-2.8146	-2.7167	-3.2646	-2.6813	-2.8083	-3.2229	-2.7	-2.8042	-2.9	-2.4437	-3.0917	-35.675	-134.217	96.762	155.719	222.000	162.890	140.516	56.275	-21.384	-39.671	60.344	188.764	142.928	151.804	22.281	211.393	0.00091774	0.0032978	0.00072179	647.78	2.4239e-05	2.6984e-05	815.83	215.88	9.4281e-06	1.3365e-05	364.35	158.41	99.76	47.083	2.9491e-05	81.503	0.0030795	0.0029829	0.00074859	2323.5	3.4152e-05	3.217e-05	1311.1	376.63	3.4732e-05	3.2132e-05	600.51	235.58	186.27	74.449	2.9418e-05	112.67	193.144	-47.066	-81.232	-123.442	217.858	-23.106	-123.367	-117.935	18.543	46.018	-118.633	-115.502	-113.899	-108.651	-11.331	-111.160	-8191	255	
7161.878	1	1	0	0	0.18957	0.16469	0.058442	0.30856	0.16912	0.095268	0.21724	0.055232	0.3958	0.049102	0.17736	0.14875	0.21957	0.21882	0.22267	0.25421	-2.3458	-2.6375	-3.1625	-2.7687	-2.8417	-2.9083	-2.4479	-2.8	-2.6875	-2.8208	-3.2521	-2.7229	-2.8458	-3.1417	-2.5521	-3.2208	-130.872	182.504	-110.687	207.023	-9.080	-48.940	-7.628	100.494	160.214	-130.837	157.792	69.720	-29.876	188.256	-82.309	-106.562	0.00031278	0.0023088	0.00045738	633.07	2.4872e-05	3.8588e-05	815.11	217.44	2.3918e-05	2.9635e-05	365.38	157.67	100.31	47.248	7.7985e-06	81.711	0.0031377	0.0028804	0.0007259	2443.5	3.4429e-05	3.1064e-05	1290.3	392.67	3.4369e-05	3.1156e-05	591.6	244.11	184.91	73.463	2.8724e-05	116.87	128.412	189.982	-102.186	-124.675	62.832	-3.510	-123.329	-117.857	52.032	-34.516	-118.842	-115.489	-113.229	-107.949	71.043	-110.808	-8191	255	
7161.974	1	1	0	0	0.20373	0.31816	0.067755	0.27746	0.15183	0.14229	0.21292	0.24693	0.066146	0.1267	0.057554	0.15865	0.21724	0.090212	0.1278	0.19648	-2.3937	-2.7229	-3.0312	-2.6125	-2.6021	-2.7812	-2.6	-3.0375	-3.0271	-2.6271	-3.25	-2.7125	-2.8563	-3.075	-2.5958	-3.0333	-100.066	201.107	78.682	221.131	94.318	168.915	157.440	184.750	-73.679	174.449	44.023	186.954	-2.376	83.843	-69.461	190.574	0.00034244	0.0025128	0.0004975	652.21	2.9247e-05	5.0426e-06	816.08	217.56	2.6316e-05	2.3876e-05	359.25	158.74	100.76	47.232	2.1493e-05	81.671	0.00304	0.0028154	0.00071907	2577.7	3.3349e-05	3.0175e-05	1291.7	407.2	3.2853e-05	3.045e-05	595.85	249.99	180.7	71.995	2.9459e-05	118.64	214.405	-59.522	131.291	-123.659	21.702	207.405	-123.551	-117.394	13.261	37.714	-118.910	-115.252	-113.623	-108.549	157.770	-110.880	-8191	255	
7162.070	1	1	0	0	0.22377	0.14136	0.10327	0.0049688	0.15123	0.073581	0.22569	0.20415	0.0984	0.091654	0.050137	0.066161	0.28932	0.24017	0.35066	0.18812	-2.6104	-2.5187	-3.0354	-2.8937	-2.6396	-3.1125	-2.5771	-2.75	-2.9083	-2.7417	-3.2896	-2.95	-2.7833	-3.1042	-2.4437	-2.725	106.256	67.634	-62.795	150.380	185.065	-85.668	142.214	177.312	-87.303	220.156	26.221	-22.827	217.600	198.358	196.009	195.560	0.00066352	0.0040505	0.00096734	661.85	9.9164e-06	3.3754e-05	811.35	218.67	2.5529e-05	3.7215e-05	360.05	159.21	99.006	46.688	4.3186e-05	81.463	0.0028841	0.0027032	0.00074095	2618	3.1696e-05	2.8676e-05	1317	408.3	3.0919e-05	2.9023e-05	612.52	248.47	175.94	70.266	3.1245e-05	118.17	-94.753	-39.342	118.357	-122.551	46.354	-28.549	-124.272	-117.491	6.921	17.475	-119.012	-114.596	-113.806	-108.420	180.889	-110.619	-8191	255	
7162.191	1	1	0	0	0.28785	0.033353	0.22738	0.21816	0.15519	0.059722	0.16573	0.24832	0.17899	0.22234	0.10061	0.26749	0.23099	0.254	0.20682	0.091585	-2.4375	-2.5062	-2.9729	-2.9583	-2.7417	-3.1562	-2.7292	-2.8125	-3.0375	-2.4833	-2.9146	-3.1271	-2.7479	-3.0729	-2.7104	-3.0292	122.965	16.744	196.146	200.010	100.731	170.074	-123.130	208.355	-8.428	100.289	144.919	-123.731	-117.650	213.933	72.544	-129.639	0.00042793	0.0026518	0.00079137	656.04	1.0174e-05	4.346e-06	816.03	218.08	1.1311e-05	4.0258e-06	362.08	159.06	100.37	47.085	2.057e-05	81.856	0.0027703	0.0026168	0.00079292	2572.4	3.0848e-05	2.7861e-05	1362	403.22	3.0006e-05	2.8489e-05	636.75	244.03	173.23	70.112	3.307e-05	116.47	-76.293	-112.932	70.203	-123.393	-14.945	150.897	-124.273	-117.141	-10.607	160.855	-118.753	-115.113	-113.901	-108.687	163.072	-110.547	-8191	255	
7162.287	1	1	0	0	0.35191	0.23051	0.085306	0.089995	0.095138	0.13431	0.15813	0.19651	0.063761	0.065455	0.20831	0.12391	0.12354	0.1933	0.084526	0.21842	-2.5458	-2.5083	-2.8333	-2.7188	-2.6167	-3.0771	-2.9021	-2.8458	-2.9833	-2.5292	-3.1229	-2.9333	-2.6646	-3.1292	-2.75	-2.7729	-18.968	-79.671	15.329	65.285	106.528	-101.265	191.963	-132.259	170.987	52.636	154.912	178.314	208.580	178.561	161.268	160.912	0.00018012	0.0021345	0.00099745	681.04	3.4258e-05	2.7412e-05	824.39	217.79	2.5745e-05	1.4913e-05	365.84	160.43	99.678	46.549	9.7177e-06	82.119	0.0026724	0.0026469	0.00084535	2486.8	3.0213e-05	2.8695e-05	1401.5	397.73	2.9321e-05	2.9934e-05	659.11	240.77	171.8	72.527	3.4449e-05	115.44	-38.324	129.296	82.992	-121.857	4.155	175.514	-123.720	-117.534	33.138	129.657	-118.805	-114.807	-114.178	-108.317	-70.274	-110.552	-8191	255	
7162.359	1	1	0	0	0.088402	0.09043	0.11904	0.38911	0.35852	0.18486	0.13732	0.22985	0.20987	0.11305	0.088573	0.18609	0.10783	0.10163	0.16208	0.12654	-2.6417	-2.7438	-2.9562	-2.7521	-2.5167	-3.1333	-3.0396	-2.7812	-2.9437	-2.6771	-2.925	-3.15	-2.7958	-3.425	-2.8583	-2.6542	105.729	134.425	65.413	159.590	-34.442	-120.038	-114.522	-86.837	114.587	110.951	214.932	-122.677	158.927	-75.047	121.534	216.462	0.00052093	0.0028752	0.00016082	668.13	1.9364e-05	2.9542e-05	825.24	220.16	1.2939e-05	2.6463e-05	366.72	159.84	100.68	46.886	7.0003e-06	81.486	0.0026183	0.0028346	0.00086944	2429.7	2.9415e-05	3.0897e-05	1405.6	392.71	2.8376e-05	3.2024e-05	658.74	236.85	169.48	75.274	3.3489e-05	113.62	-63.511	133.834	-49.693	-122.949	17.714	169.288	-123.306	-117.145	-45.786	148.873	-118.539	-114.817	-114.158	-108.730	5.539	-110.399	-8191	255	
7162.477	1	1	0	0	0.088225	0.22668	0.12856	0.079376	0.13302	0.12429	0.15442	0.28406	0.31014	0.07588	0.19926	0.28576	0.12007	0.092045	0.2351	0.23156	-2.5458	-2.7062	-2.9292	-2.9167	-2.8208	-2.8729	-3.0479	-2.8146	-3.1792	-2.8396	-2.875	-3.1417	-2.5875	-2.9125	-2.8896	-2.8438	86.689	-116.687	160.320	-15.446	103.206	135.671	161.389	184.919	141.174	35.346	-9.046	131.638	204.359	-74.242	202.337	157.150	0.0005196	0.0040787	0.00043937	662.42	4.6052e-06	3.0573e-05	821.87	219.64	2.9083e-06	2.2081e-05	367.29	158.68	97.912	46.587	3.1903e-05	81.808	0.0025566	0.0030134	0.00084102	2358.4	2.8956e-05	3.2902e-05	1371.9	384.61	2.8137e-05	3.3523e-05	639.32	231.04	169.54	76.699	3.1475e-05	111.38	191.474	87.163	-86.060	-122.986	-133.842	172.489	-122.904	-116.922	-123.476	116.142	-119.135	-114.790	-113.856	-108.160	4.236	-110.570	-8191	255	
7162.574	1	1	0	0	0.052951	0.0229	0.083685	0.0097777	0.25344	0.33368	0.25645	0.24653	0.078806	0.065638	0.16457	0.20162	0.098146	0.18539	0.1114	0.28415	-2.6667	-2.7917	-2.7604	-2.9813	-2.4875	-2.9729	-3.0708	-2.6625	-3.1604	-2.7229	-2.9313	-3.2917	-2.8063	-2.9958	-2.7792	-2.6292	59.228	-117.629	183.393	197.912	66.265	70.723	-113.070	-126.808	141.915	171.851	111.957	139.069	155.565	185.542	-14.818	166.659	0.0012679	0.0023318	0.0003348	672.92	3.3131e-05	1.3095e-05	822.73	217.84	3.818e-05	3.1925e-05	370.81	159.01	98.44	47.153	1.1481e-05	81.733	0.0025942	0.0030916	0.0007984	2259.1	2.989e-05	3.3767e-05	1335.4	376.59	2.9676e-05	3.3905e-05	624.82	227.61	175.46	77.342	3.0284e-05	110.01	205.217	199.843	-124.505	-122.147	185.312	-120.278	-123.726	-117.014	162.070	-81.947	-118.655	-114.953	-114.404	-108.243	51.728	-110.256	-8191	255	
7162.670	1	1	0	0	0.19146	0.18874	0.17267	0.059539	0.044703	0.10499	0.14479	0.48659	0.12727	0.073478	0.15062	0.2905	0.13437	0.39812	0.070699	0.16188	-2.6521	-2.6813	-2.4333	-3.0292	-2.6562	-2.8667	-3.15	-2.4917	-2.9458	-2.925	-2.8438	-3.3396	-2.8229	-2.9375	-2.9917	-2.7333	212.148	140.511	13.379	-16.067	-114.443	-16.667	208.432	-86.851	183.243	55.638	197.441	142.148	40.035	-131.672	74.764	190.753	0.0016311	0.0034064	0.00011562	664.01	3.9099e-05	3.1696e-05	819.86	218.68	4.2599e-05	2.4705e-05	366.61	158.22	99.665	47.813	3.4891e-05	82.465	0.002796	0.0030768	0.0007763	2214.5	3.202e-05	3.3288e-05	1317.3	372.46	3.1976e-05	3.2907e-05	616.54	226.6	181.79	76.121	2.9246e-05	110.2	190.450	-52.175	218.117	-123.309	-123.920	37.795	-123.391	-117.260	175.871	-24.634	-118.584	-115.621	-113.891	-108.498	-1.837	-110.884	-8191	255	
7162.766	1	1	0	0	0.032994	0.24638	0.062639	0.17988	0.14663	0.097747	0.21911	0.11774	0.091936	0.08409	0.11194	0.23916	0.1806	0.15759	0.29396	0.10088	-2.7542	-2.8667	-2.5917	-2.9938	-2.7479	-2.9375	-3.3021	-2.55	-2.7	-2.8479	-2.6729	-3.1	-2.9729	-2.7396	-3.0667	-2.5875	35.630	135.322	177.280	-38.915	36.844	-108.761	178.548	186.922	-42.603	138.294	-89.351	-125.558	171.720	-132.082	168.594	-132.495	0.00067343	0.0038201	0.00076205	644.92	1.9246e-05	2.6791e-05	822.73	217.74	2.3508e-05	2.3617e-05	368.16	159.16	99.637	47.709	6.6327e-06	81.938	0.0029753	0.0029366	0.00075312	2227.8	3.3697e-05	3.1973e-05	1291.5	377	3.341e-05	3.1302e-05	604.37	230.34	184.43	74.185	2.793e-05	112.03	181.158	-75.607	-92.319	-124.093	183.670	2.584	-123.418	-117.549	176.567	-38.044	-118.122	-115.424	-113.941	-108.573	32.704	-110.878	-8191	255	
7162.887	1	1	0	0	0.058924	0.23672	0.35027	0.17438	0.35443	0.16561	0.12252	0.13411	0.18821	0.17453	0.2079	0.17483	0.16415	0.31547	0.26266	0.11961	-2.4771	-2.8875	-2.475	-2.8937	-2.875	-2.6958	-3.3812	-2.7104	-3.0479	-2.9583	-2.5042	-3.125	-2.9896	-2.8458	-3.0125	-2.7833	74.976	161.730	-42.119	-117.421	-10.664	-53.217	130.436	207.338	207.930	204.525	95.859	-69.189	223.123	212.598	218.127	52.514	0.00059874	0.001017	0.0005886	642.03	1.4894e-05	4.6296e-05	817.23	216.69	8.6804e-06	1.6231e-05	362.28	158.25	100.08	47.305	2.0431e-05	82.004	0.0030376	0.0027868	0.0007216	2323.4	3.3751e-05	3.0553e-05	1265.6	387.12	3.3263e-05	2.9836e-05	591.03	236.9	181.56	72.966	2.7161e-05	115.08	217.189	214.298	-99.373	-125.683	24.602	14.461	-123.560	-117.504	62.543	37.477	-118.254	-115.279	-114.270	-108.357	-5.759	-110.766	-8191	255	
7162.958	1	1	0	0	0.20909	0.12424	0.19417	0.038011	0.034465	0.15511	0.14475	0.035912	0.076006	0.11037	0.12515	0.24177	0.12417	0.18131	0.057233	0.22889	-2.4062	-2.9146	-2.5604	-3.2417	-2.9354	-2.6188	-3.1042	-2.9896	-2.8625	-3.1542	-2.6646	-3.0271	-2.9542	-2.6125	-3.0292	-2.8167	117.560	-104.740	17.896	116.598	-84.587	39.320	-125.373	219.229	59.867	84.509	-109.653	201.082	214.525	200.714	55.764	168.189	0.00055771	0.00085349	0.00053254	648.69	2.8266e-05	7.133e-06	815.53	215.09	3.4275e-05	2.5427e-05	364.42	159.24	100.14	47.037	3.3148e-05	82.488	0.0029664	0.0026939	0.00070811	2457.7	3.2521e-05	2.9713e-05	1255.5	399.7	3.215e-05	2.887e-05	592.7	243.81	177.2	71.793	2.7635e-05	117.63	-78.370	171.521	-98.545	-124.865	-19.169	-99.877	-123.889	-117.954	1.889	-5.387	-119.378	-115.572	-113.895	-108.651	119.036	-110.639	-8191	255	
7163.054	1	1	0	0	0.37046	0.088693	0.27395	0.3222	0.17802	0.20471	0.13408	0.32225	0.15141	0.12049	0.2023	0.047087	0.098839	0.16393	0.19413	0.19954	-2.2562	-3.0563	-2.5938	-2.9646	-2.8542	-2.6667	-3.3708	-2.8979	-2.8083	-2.9292	-2.6375	-3.1167	-3.0062	-2.5375	-2.9	-2.7583	-76.487	20.337	211.408	23.512	115.141	-74.823	194.546	184.101	-45.015	-25.315	100.590	82.904	124.025	204.388	-54.607	126.630	0.00057841	0.0023832	0.00052342	650.28	2.3334e-05	4.274e-05	819.04	216.56	1.6713e-05	2.5547e-05	362.37	159.2	100.61	47.147	3.6022e-05	82.622	0.0028396	0.0025891	0.0007267	2547.3	3.0919e-05	2.883e-05	1287.1	406.31	3.0928e-05	2.7948e-05	611.61	247.12	173.15	70.861	2.9613e-05	118.41	-102.983	-63.111	66.338	-124.033	17.252	40.230	-124.609	-117.049	41.417	-1.620	-119.358	-115.116	-113.885	-108.424	160.850	-110.349	-8191	255	
7163.151	1	1	0	0	0.26669	0.084868	0.075647	0.050366	0.082083	0.11191	0.30363	0.28655	0.19713	0.086432	0.26496	0.080229	0.28931	0.28383	0.26696	0.30142	-2.0833	-3	-2.4396	-2.7333	-3.0333	-2.5833	-3.0417	-2.6667	-2.4437	-3.1937	-2.7208	-2.9896	-2.9562	-2.4479	-2.9375	-3.0292	194.295	68.551	188.643	215.376	-73.130	35.176	153.494	111.592	-76.162	220.320	192.575	-77.121	33.558	176.867	221.052	205.658	0.00069988	0.0030842	0.00081539	663.7	1.5604e-05	2.2354e-05	819.53	219.7	1.0919e-05	1.0697e-05	361.65	160.79	100.28	47.277	3.3406e-05	82.871	0.0027624	0.0025081	0.00078079	2545.2	2.9981e-05	2.8162e-05	1335.4	402.88	3.0343e-05	2.7358e-05	636.83	245.19	171.69	70.691	3.2073e-05	116.46	-94.337	-32.036	111.042	-121.987	41.197	-6.954	-123.846	-116.790	81.983	-84.702	-119.255	-115.115	-113.665	-109.098	169.832	-110.075	-8191	255	
7163.271	1	1	0	0	0.07887	0.084031	0.14072	0.16976	0.065784	0.10749	0.24402	0.25086	0.29382	0.11065	0.084791	0.10789	0.25037	0.15544	0.019972	0.17372	-2.3167	-3	-2.8021	-2.9271	-3.2146	-2.6937	-3.0583	-2.9875	-2.5167	-3.15	-2.9	-2.7938	-3.0771	-2.4542	-3.05	-3.1937	194.829	210.598	136.110	2.104	36.638	92.347	143.520	147.927	85.456	-67.684	128.354	213.020	152.460	8.228	-46.506	191.427	0.00038324	0.0007818	0.00045775	668.17	1.3603e-05	6.3533e-06	818.73	219.32	1.0931e-05	2.6219e-05	361.29	157.93	99.258	46.134	2.835e-05	81.094	0.0027296	0.002538	0.00083685	2490.1	2.933e-05	2.8652e-05	1380.5	393.12	2.9564e-05	2.8259e-05	650.05	239.46	167.53	71.777	3.3253e-05	113.4	181.614	196.181	74.459	-122.161	53.120	-113.931	-123.771	-116.866	67.467	155.405	-119.283	-114.593	-113.680	-108.875	151.033	-110.143	-8191	255	
7163.366	1	1	0	0	0.1994	0.17262	0.073915	0.086257	0.11828	0.19185	0.10486	0.17347	0.18826	0.20814	0.087699	0.095189	0.10636	0.20096	0.18274	0.20094	-2.2687	-2.9583	-2.7	-2.6771	-3.2958	-2.5687	-2.7812	-3.0521	-2.625	-3.1375	-2.9688	-2.7104	-2.8875	-2.5021	-2.9208	-3.1396	-90.245	170.953	-48.590	123.229	57.252	183.818	-71.015	-75.924	200.697	0.691	72.793	-105.409	148.938	202.651	62.964	-12.976	0.00029593	0.0019214	0.00053603	672.39	3.1001e-05	5.7968e-05	820.8	217.61	1.0816e-05	3.5724e-05	363.03	158.13	98.979	46.181	3.3381e-05	81.65	0.0026336	0.0026718	0.00085455	2406.1	2.8258e-05	3.0432e-05	1388.4	384.19	2.8693e-05	3.0252e-05	648.01	235.74	164.65	74.244	3.2933e-05	111.75	-107.955	117.728	-117.237	-123.567	-2.129	201.093	-123.449	-116.924	-52.808	185.014	-118.593	-114.798	-113.899	-108.949	-40.888	-110.333	-8191	255	
7163.463	1	1	0	0	0.15164	0.21438	0.17701	0.16517	0.20444	0.086963	0.04809	0.089986	0.22325	0.19819	0.31131	0.45552	0.30636	0.18007	0.20452	0.02532	-2.0521	-3.1333	-3.0146	-2.5708	-3.1604	-2.8229	-2.825	-2.9604	-2.5083	-3.0438	-2.9458	-2.6896	-3.2083	-2.775	-2.7729	-3.2458	206.338	212.498	-99.393	52.877	129.268	168.465	166.729	198.941	-82.299	169.117	-122.660	145.896	140.470	129.714	91.120	148.158	0.00036267	0.0031589	0.00083815	673.3	4.3596e-06	3.2239e-05	818.27	219.34	2.27e-05	2.1719e-05	359.66	157.69	97.62	47.318	2.7722e-05	81.517	0.0025767	0.0028805	0.00083054	2363.8	2.7793e-05	3.2475e-05	1366.6	378.62	2.8554e-05	3.2506e-05	633.3	233.31	165.57	76.76	3.1901e-05	110.24	192.897	112.878	-54.452	-122.980	-85.188	187.675	-123.448	-117.015	173.986	168.522	-118.276	-114.947	-114.163	-108.962	-11.998	-110.388	-8191	255	
7163.558	1	1	0	0	0.084096	0.17697	0.12648	0.062676	0.16459	0.10246	0.080032	0.11515	0.21006	0.30729	0.13763	0.15617	0.17424	0.22936	0.062689	0.12759	-2.3646	-3.0812	-2.8708	-2.4708	-2.9938	-2.8812	-2.8792	-2.9583	-2.5792	-3.0625	-2.8417	-2.7917	-3.2083	-2.8417	-2.6937	-3.3125	175.165	-116.331	125.331	142.234	39.845	113.219	41.965	86.016	-127.769	-91.288	48.355	211.719	177.696	106.516	103.068	-102.540	0.00093211	0.0013288	0.00052764	660.44	3.3721e-05	1.7347e-05	822.15	216.02	4.243e-05	5.5985e-06	366.72	158.67	97.449	46.987	1.5227e-05	81.919	0.0026274	0.0030513	0.00080027	2313.2	2.8774e-05	3.3856e-05	1347	371.27	2.9911e-05	3.3703e-05	620.24	230.32	171.03	77.294	3.0693e-05	108.51	202.976	84.037	-85.220	-123.425	217.213	-126.943	-123.265	-117.186	199.863	179.966	-118.433	-114.558	-114.360	-108.301	-23.327	-110.685	-8191	255	
7163.654	1	1	0	0	0.050199	0.13407	0.38887	0.028996	0.060293	0.21638	0.14579	0.13659	0.046152	0.048638	0.34023	0.17999	0.17392	0.12771	0.22431	0.19464	-2.3583	-2.7917	-2.7354	-2.5792	-2.9917	-2.8229	-2.6229	-3.0479	-2.5333	-2.8937	-3.1396	-2.5938	-3.1208	-2.8083	-2.5125	-3.1083	-65.334	59.112	141.379	211.711	-9.688	-103.811	108.486	-95.558	88.552	-98.744	84.529	136.785	150.176	202.082	120.311	33.643	0.0013779	0.0010536	0.00063747	665.21	2.4865e-05	2.7265e-05	818.15	215.84	3.386e-05	1.6925e-05	362.77	157.17	97.591	47.072	8.2176e-06	80.927	0.0027934	0.0030614	0.00076647	2253.8	3.0867e-05	3.3404e-05	1320.3	364.58	3.1989e-05	3.3059e-05	607.41	227.06	177.67	75.619	3.0009e-05	107.56	196.881	-90.852	-56.419	-121.642	207.129	-13.137	-123.015	-117.200	195.528	-52.178	-118.770	-114.837	-114.044	-108.433	-87.353	-110.679	-8191	255	
7163.750	1	1	0	0	0.11652	0.089382	0.19111	0.20274	0.26922	0.26063	0.13421	0.11255	0.083991	0.22594	0.067189	0.47753	0.18435	0.16394	0.086329	0.30576	-2.4688	-2.8542	-3.025	-2.6688	-2.9146	-2.8042	-2.6792	-3.3521	-2.8854	-2.7542	-3.0354	-2.7646	-2.9854	-3.1208	-2.6521	-3.1167	94.292	64.307	-69.630	116.118	181.573	29.390	147.148	140.337	120.887	58.115	141.148	153.637	140.783	191.654	144.128	190.285	0.00091672	0.0020682	0.00059885	658.26	2.7214e-05	8.4146e-06	813.89	213.3	2.3593e-05	3.003e-05	360.92	155.7	97.812	47.083	1.9574e-05	80.66	0.0029812	0.0029676	0.00074344	2257.9	3.3029e-05	3.1968e-05	1303.1	367.31	3.3611e-05	3.2011e-05	593.7	229.93	182.93	74.034	2.9135e-05	109.69	211.309	-75.955	-93.100	-124.201	-133.283	-21.884	-123.106	-117.690	174.956	41.944	-118.256	-115.644	-114.636	-108.548	-12.605	-110.988	-8191	255	
7163.871	1	1	0	0	0.079785	0.11908	0.060576	0.0854	0.1178	0.25024	0.22915	0.19166	0.17253	0.2286	0.073207	0.064519	0.043596	0.21857	0.099315	0.042331	-2.3583	-2.4958	-2.8937	-2.7292	-3.2646	-2.9938	-2.6125	-2.9479	-2.7042	-2.6333	-3.1562	-2.8396	-2.8229	-2.9	-2.6167	-3.2896	75.035	137.471	204.386	118.460	194.687	172.927	133.328	173.552	115.039	36.570	-67.895	145.993	-27.697	185.620	117.769	220.490	0.00033541	0.0040502	0.00055741	630.33	3.9785e-06	2.1256e-05	815.76	214.73	2.1627e-05	2.8281e-05	363.29	157.67	99.397	47.176	9.1668e-06	80.883	0.0030926	0.0028766	0.00072041	2364.8	3.4203e-05	3.1044e-05	1290.8	383.9	3.429e-05	3.1391e-05	588.95	239.38	184.59	73.41	2.8906e-05	114.11	199.708	-87.427	-95.592	-124.342	-101.884	17.628	-123.714	-118.128	-42.211	-12.368	-118.391	-115.512	-113.617	-108.507	-56.528	-111.122	-8191	255	
7163.967	1	1	0	0	0.11163	0.10297	0.069379	0.1635	0.20699	0.29484	0.078826	0.049395	0.060887	0.18151	0.23268	0.35984	0.36082	0.24397	0.16506	0.18582	-2.4313	-2.6208	-2.9729	-2.8417	-2.9042	-2.9104	-2.6583	-3.0125	-3.0771	-2.7458	-3.0333	-2.9562	-2.9	-3.0333	-2.5062	-3.0646	27.032	-25.044	-51.877	156.163	204.379	18.473	146.693	-116.366	14.221	-84.968	216.685	-127.631	162.530	186.345	41.405	164.838	0.00079984	0.0023585	0.00026847	630.79	2.5278e-05	1.4557e-05	814.64	215.98	2.3265e-05	3.2455e-05	360.22	158.01	99.529	47.048	2.9965e-05	80.816	0.0030683	0.0028422	0.00071225	2521.4	3.3721e-05	3.0343e-05	1283.1	399.69	3.3118e-05	3.0507e-05	586.43	246.31	180.51	71.931	2.8712e-05	117.09	-73.849	-37.111	49.750	-124.384	47.345	54.944	-123.611	-118.074	34.199	-7.281	-118.599	-115.352	-113.964	-108.865	214.452	-110.968	-8191	255	
7164.063	1	1	0	0	0.30631	0.22449	0.23438	0.16054	0.11874	0.12619	0.18355	0.26877	0.24096	0.16473	0.19801	0.2258	0.063644	0.12698	0.11952	0.14026	-2.7313	-2.7292	-3.0354	-2.6354	-2.7875	-2.975	-2.8229	-3.0083	-2.9625	-2.6229	-3.2479	-2.9208	-2.9938	-3.0854	-2.5604	-2.8292	-83.281	70.708	32.405	63.971	-78.726	-39.659	131.489	199.323	-82.039	155.741	17.865	171.059	-108.976	211.152	-85.214	114.790	0.00044451	0.0018096	0.00095169	658.32	2.1098e-05	2.4111e-05	812.16	216.66	3.861e-05	1.5442e-05	354.79	157.31	99.196	46.982	2.2073e-05	80.488	0.0029032	0.0027099	0.00071714	2592.3	3.1946e-05	2.8605e-05	1291.6	404.82	3.0937e-05	2.8735e-05	594.87	246.14	173.78	69.485	2.9527e-05	116.48	-81.355	-45.309	86.014	-123.655	26.111	-5.459	-123.984	-116.875	-30.197	24.153	-119.500	-115.264	-114.126	-108.063	160.646	-110.585	-8191	255	
7164.184	1	1	0	0	0.28171	0.12931	0.077204	0.1819	0.13323	0.15055	0.20848	0.26336	0.22164	0.20773	0.13877	0.067988	0.14231	0.063946	0.065336	0.11659	-2.6854	-2.5729	-3.0917	-3.0396	-2.7271	-3.1625	-2.6917	-2.9458	-3.0687	-2.5833	-3.0938	-2.9083	-2.7583	-3.1833	-2.7417	-2.8792	-100.126	-53.542	-45.569	-84.538	61.830	55.522	55.863	210.115	219.037	138.655	49.390	197.396	209.252	-127.319	-58.517	-84.768	0.00055169	0.0020554	0.001104	674.52	2.1253e-05	5.7277e-06	807.09	216.92	3.5962e-05	1.184e-05	358.36	157.81	98.123	46.624	4.7912e-05	80.875	0.0027105	0.002565	0.00075114	2537.5	3.016e-05	2.7153e-05	1324	399.66	2.9552e-05	2.7781e-05	619	241.99	171.14	68.654	3.1554e-05	114.85	-50.692	-112.170	93.673	-123.632	14.757	53.554	-124.151	-117.075	33.592	-38.307	-119.708	-115.213	-113.556	-108.603	162.544	-110.341	-8191	255	
7164.255	1	1	0	0	0.10127	0.039329	0.13642	0.041868	0.19712	0.066488	0.24795	0.020594	0.16765	0.050276	0.31849	0.076882	0.082695	0.2525	0.11473	0.12263	-2.5229	-2.3479	-2.6896	-3.1333	-2.7667	-3.0917	-2.8604	-2.7625	-2.9042	-2.8104	-3.0708	-3.1208	-2.7542	-2.975	-2.7792	-2.9333	75.412	-42.432	-126.032	-113.154	-48.838	43.089	125.512	100.498	-22.033	4.550	-133.043	-15.870	-2.235	155.592	-82.917	136.990	0.0003305	0.0023482	0.0012437	663.54	8.515e-06	2.8571e-05	809.42	218.07	1.2724e-05	3.3611e-05	362.17	158.6	98.804	46.458	2.2952e-05	81.251	0.0026132	0.0025201	0.00080492	2447.5	2.9184e-05	2.7092e-05	1361.4	391.27	2.8447e-05	2.8131e-05	639.09	237.69	168.64	69.907	3.3044e-05	113.33	-51.838	-114.408	125.162	-121.556	44.610	130.164	-123.748	-116.989	23.882	180.539	-118.634	-114.700	-114.075	-108.577	57.204	-110.496	-8191	255	
7164.352	1	1	0	0	0.1693	0.21393	0.056489	0.12685	0.08503	0.14543	0.10064	0.024677	0.11192	0.12029	0.3468	0.031772	0.39386	0.089865	0.08956	0.11565	-2.3792	-2.6271	-2.9625	-2.8833	-2.5896	-2.9896	-2.8083	-2.6417	-2.9146	-2.6583	-2.8937	-3.1437	-2.6229	-3.1167	-2.6583	-2.9083	23.459	109.574	69.481	55.886	198.199	39.653	212.611	40.526	168.283	-130.005	112.784	-124.088	192.664	217.006	-126.213	-122.656	0.0001664	0.0013942	0.00037289	684.39	1.4602e-05	1.931e-05	818.92	218.94	1.2881e-05	3.9139e-05	364.87	159.42	100.39	46.626	1.3422e-05	81.851	0.0025459	0.0026664	0.00083978	2375.6	2.8677e-05	2.8986e-05	1384.3	385.99	2.7704e-05	3.0245e-05	647.93	234.48	167.35	73.02	3.2936e-05	112.65	-54.884	118.533	-13.027	-123.357	53.422	206.174	-123.278	-117.007	-26.527	186.276	-118.879	-114.969	-113.933	-108.925	-19.152	-110.265	-8191	255	
7164.446	1	1	0	0	0.23573	0.21245	0.1877	0.13484	0.13952	0.085742	0.13465	0.094032	0.012619	0.073539	0.25398	0.13832	0.34396	0.26381	0.19541	0.1267	-2.7917	-2.6312	-2.8083	-2.8812	-2.5667	-2.8021	-2.7188	-2.7146	-3.1771	-2.9208	-2.8104	-2.9979	-2.5146	-3.0812	-3.175	-3.0208	199.235	90.271	-98.856	-10.945	105.614	-85.530	-81.391	222.202	-115.221	-3.432	186.162	181.776	-23.985	-66.326	-65.096	116.735	0.00019492	0.0023857	0.00046095	654.95	1.814e-06	2.7254e-05	823.79	218.73	1.5435e-05	3.3588e-05	366.36	158.42	98.352	46.74	4.3784e-05	81.436	0.00249	0.0028774	0.00083629	2329.5	2.8405e-05	3.177e-05	1376.4	383.34	2.7655e-05	3.2615e-05	639.46	230.79	167.25	75.612	3.1775e-05	110.95	-109.509	151.370	-73.504	-121.834	-76.148	154.231	-123.264	-116.920	-19.965	168.842	-118.422	-115.077	-114.339	-108.310	-36.436	-110.686	-8191	255	
7164.567	1	1	0	0	0.22075	0.23429	0.14948	0.16814	0.17768	0.19519	0.098366	0.13018	0.19899	0.28446	0.21381	0.020016	0.16846	0.212	0.03316	0.16012	-2.7542	-2.8271	-2.7417	-3.0958	-2.35	-2.9854	-3.1229	-2.7062	-3.1104	-2.9271	-2.8833	-3.1354	-2.3375	-3.1354	-3.0375	-2.7313	180.228	93.034	-86.082	147.010	18.570	147.211	-106.210	131.300	68.681	63.339	161.983	194.724	196.563	168.561	23.189	211.783	0.00064071	0.0014846	0.00048514	668.73	2.3803e-05	1.8281e-05	820.37	217.84	1.8899e-05	3.1397e-06	363.24	158.01	97.55	46.893	3.2509e-05	80.707	0.002523	0.0030413	0.00080512	2274	2.9202e-05	3.3458e-05	1346	378.41	2.8969e-05	3.4026e-05	627.8	228.41	172.47	77.179	3.0764e-05	109.86	179.918	128.812	-51.395	-123.065	-130.613	142.772	-123.424	-117.278	165.538	-66.827	-118.362	-115.272	-114.097	-108.831	0.306	-110.278	-8191	255	
7164.663	1	1	0	0	0.23155	0.30437	0.27392	0.15633	0.06513	0.14965	0.17446	0.20564	0.20264	0.027949	0.12992	0.18293	0.16509	0.10001	0.11603	0.076297	-2.8042	-2.7521	-2.5646	-3.1688	-2.5646	-2.7083	-3.2021	-2.7292	-3.1104	-3.0083	-2.6646	-3.1146	-2.8042	-3.0687	-2.9	-2.6708	-25.859	52.110	-35.410	-99.547	-3.457	203.486	206.659	187.131	41.395	-46.671	46.214	119.561	179.950	-75.986	188.065	95.746	0.0012207	0.0024546	0.0004353	676.15	2.4206e-05	2.5714e-05	825.31	217.62	2.6866e-05	4.2071e-05	365.41	158.28	98.182	47.113	2.6658e-05	81.113	0.0027217	0.0031016	0.00078359	2224.9	3.1262e-05	3.3591e-05	1319.8	372.24	3.1129e-05	3.3392e-05	616.39	225.4	179.42	76.446	2.9736e-05	109.14	188.574	-47.064	-84.156	-122.152	181.793	-26.776	-123.318	-117.226	154.130	-3.652	-118.900	-114.886	-113.962	-108.757	-18.605	-110.810	-8191	255	
7164.759	1	1	0	0	0.10609	0.33423	0.064772	0.091359	0.19622	0.052625	0.15989	0.14231	0.049432	0.13403	0.11469	0.20752	0.31889	0.088943	0.21635	0.27158	-2.6208	-2.8208	-2.6875	-3	-2.775	-2.7562	-3.1	-2.6958	-3.1271	-3.0292	-2.8	-3.2687	-2.7333	-2.8229	-3.15	-2.8312	65.217	-91.688	187.916	118.265	-52.632	142.056	113.359	170.830	41.519	12.663	172.475	39.532	193.254	123.034	135.446	107.418	0.0014759	0.002935	0.00033785	666.98	2.6815e-05	4.6944e-05	822.05	218.61	3.2977e-05	2.9511e-05	365.38	157.82	97.724	47.319	1.6927e-05	81.836	0.0029314	0.0029899	0.00076353	2214.6	3.3234e-05	3.2652e-05	1307.3	374.88	3.3302e-05	3.2173e-05	613.13	229.11	185.05	75.485	2.9135e-05	111.73	190.954	-84.195	-77.382	-123.128	-127.109	-1.920	-123.429	-117.661	188.287	-52.288	-118.713	-115.358	-114.572	-108.195	-5.158	-111.089	-8191	255	
7164.831	1	1	0	0	0.17428	0.12594	0.064733	0.12776	0.1944	0.071715	0.083868	0.10649	0.32101	0.029572	0.15459	0.35562	0.30452	0.2668	0.23913	0.040586	-2.6083	-2.7417	-2.6271	-3.2479	-2.8667	-2.7979	-3.3979	-2.5583	-2.8479	-3.0458	-2.5479	-2.9875	-2.9417	-2.8479	-3.2792	-2.8208	2.607	82.234	-123.646	79.180	-107.801	-120.929	65.528	68.881	47.248	144.635	-134.245	171.997	-9.162	221.936	-98.177	-49.764	0.00053417	0.0031212	0.00075548	627.51	1.2288e-05	2.2581e-05	822.03	217.81	6.2286e-06	1.209e-05	363.18	157.81	99.721	47.303	8.8333e-06	80.859	0.0031042	0.0029085	0.00075583	2338.4	3.4826e-05	3.1853e-05	1293.3	389.62	3.4489e-05	3.1367e-05	605.93	237.44	186.22	74.631	2.84e-05	115.21	149.579	-48.994	-118.476	-124.205	106.783	20.087	-123.275	-118.117	161.466	8.039	-118.634	-115.537	-113.686	-108.604	18.150	-111.107	-8191	255	
7164.951	1	1	0	0	0.16018	0.11863	0.36844	0.16399	0.38345	0.44367	0.20897	0.17776	0.27684	0.22975	0.22249	0.24691	0.30609	0.10199	0.2368	0.18034	-2.4688	-2.9625	-2.5271	-2.9562	-2.6708	-2.5979	-2.9542	-2.5604	-2.6583	-3.0542	-2.6417	-3.0021	-2.9833	-2.7313	-3.1625	-3.025	38.372	113.014	-18.723	-82.886	49.420	153.155	204.851	170.188	-63.755	47.885	177.875	111.514	-114.702	122.955	186.717	154.732	0.00037227	0.0015834	0.00060284	627.17	1.5278e-05	9.0789e-06	813.23	216.25	2.9798e-05	3.6201e-05	360.88	157.09	99.436	46.42	2.3709e-05	80.966	0.0031111	0.0028378	0.00074203	2486.2	3.4197e-05	3.1212e-05	1281.1	402.99	3.378e-05	3.0424e-05	600.03	244.65	181.72	73.329	2.8145e-05	117.81	-85.498	-18.589	-21.769	-126.632	19.029	31.334	-123.620	-117.627	19.256	-4.023	-118.991	-115.533	-113.587	-108.327	95.013	-111.005	-8191	255	
7165.047	1	1	0	0	0.062019	0.12155	0.27975	0.21802	0.030352	0.18374	0.15315	0.016229	0.20499	0.035751	0.31095	0.014506	0.086754	0.18302	0.14262	0.19041	-2.4375	-2.9188	-2.2542	-2.8438	-2.9021	-2.7938	-3.2604	-3.0021	-2.975	-3.1937	-2.6208	-2.8812	-3.0229	-2.6208	-3.1458	-2.8563	-87.539	-123.833	59.494	-127.816	52.394	-41.651	-98.992	99.435	56.923	175.127	-133.296	-24.948	38.162	106.167	-21.052	153.712	0.00043758	0.002724	0.00044864	647.78	1.6853e-05	3.6564e-05	819.33	218.91	1.6501e-05	2.8181e-05	362.58	158.68	99.271	47.085	3.3069e-05	81.613	0.0029856	0.0027174	0.00074071	2594.9	3.247e-05	3.01e-05	1290.3	411.66	3.2347e-05	2.935e-05	612.85	249.85	177.7	72.527	3.0009e-05	119.5	-41.823	-19.060	38.122	-123.767	-6.525	-9.229	-123.618	-117.712	14.619	-24.589	-119.504	-115.119	-114.185	-108.066	162.141	-110.874	-8191	255	
7165.143	1	1	0	0	0.048881	0.18112	0.3067	0.29921	0.067191	0.34915	0.17339	0.091342	0.063209	0.10709	0.078827	0.31938	0.10345	0.13748	0.23578	0.12246	-2.1771	-3.0771	-2.7125	-3.0292	-3.0563	-2.5979	-3.2521	-2.825	-2.7896	-3.1	-2.7604	-2.9188	-3.0646	-2.5542	-2.9896	-2.7708	212.336	203.853	-9.475	220.320	-85.568	115.108	184.250	-74.089	181.334	39.853	-50.329	-129.792	8.105	173.191	163.288	111.037	0.00029773	0.002557	0.0012192	681.32	1.2281e-05	2.2833e-05	814.63	217.7	7.7395e-06	1.8295e-05	360.51	159.35	99.261	46.858	3.9142e-05	82.132	0.0028939	0.0026417	0.00079072	2637.6	3.1456e-05	2.934e-05	1338.5	411.65	3.159e-05	2.8443e-05	639.57	249.7	175.65	71.911	3.2521e-05	119.33	-102.716	-46.489	115.258	-124.074	-6.562	-6.176	-123.869	-117.125	-60.945	20.711	-119.004	-115.050	-113.393	-108.161	160.926	-110.278	-8191	255	
7165.264	1	1	0	0	0.094218	0.16602	0.14887	0.11253	0.10703	0.2102	0.071386	0.32398	0.023099	0.091553	0.13815	0.16977	0.26703	0.29227	0.15681	0.17433	-2.0729	-3.025	-2.4333	-2.6271	-3.0396	-2.5708	-3.0396	-2.8458	-2.6042	-3.1583	-2.9417	-3.0625	-2.9938	-2.6729	-3.0167	-2.8583	-50.300	-132.089	-27.427	115.547	23.840	-114.384	211.373	149.297	-126.363	94.179	197.950	151.187	-67.847	-90.136	59.279	189.566	0.00018096	0.0010853	0.00088379	676.33	1.5543e-05	2.5555e-05	825.24	221.7	1.4366e-05	9.5275e-06	363	159.17	99.212	46.501	2.4816e-05	81.725	0.0028736	0.0026277	0.00085637	2606.6	3.0976e-05	2.9707e-05	1398.9	407.4	3.1372e-05	2.9145e-05	664.85	247.07	173.63	73.02	3.4826e-05	117.34	142.101	102.861	84.199	-122.322	35.451	146.831	-123.468	-117.059	-14.065	166.028	-119.275	-114.864	-114.215	-108.646	111.183	-110.177	-8191	255	
7165.358	1	1	0	0	0.20154	0.12207	0.07712	0.14312	0.14882	0.20851	0.12694	0.22065	0.19567	0.29457	0.085711	0.17463	0.20999	0.20673	0.053081	0.20706	-1.9833	-2.8917	-2.7792	-2.7438	-3.0917	-2.7833	-3.0625	-3.0542	-2.7583	-2.9188	-2.8333	-2.6875	-3.0396	-2.775	-2.9604	-3.05	-30.667	152.025	52.113	-11.578	-9.354	-134.234	163.556	-131.891	94.300	195.396	51.445	-119.560	183.816	97.324	32.359	143.228	0.00031422	0.0023393	0.00025323	681.52	9.1678e-06	5.1189e-05	822.84	219.65	2.2023e-05	3.9864e-05	364.7	158.51	98.894	46.385	5.7324e-06	81.526	0.0028421	0.0027652	0.0009048	2570.4	3.0458e-05	3.1549e-05	1436	400.69	3.0778e-05	3.1189e-05	671.94	243.09	169.91	75.329	3.498e-05	114.58	-82.112	129.320	-100.858	-122.607	15.502	185.614	-123.198	-117.046	13.315	146.060	-118.499	-114.932	-114.284	-108.719	37.269	-110.661	-8191	255	
7165.455	1	1	0	0	0.13288	0.088752	0.15663	0.11418	0.2292	0.12149	0.22351	0.24023	0.056846	0.072166	0.2112	0.26128	0.15509	0.18736	0.12889	0.012665	-2.1667	-2.8875	-2.5521	-2.5271	-3.0938	-2.7354	-2.9979	-3.0625	-2.5625	-3.0042	-2.9771	-2.7917	-3.1562	-2.7875	-2.6542	-3.1854	-55.643	160.335	143.750	178.127	163.324	140.662	149.128	180.728	-115.063	155.999	-102.869	216.628	-127.561	217.854	101.852	130.213	0.00050771	0.0042217	0.0011767	674.8	1.8316e-05	2.8206e-05	817.08	219.4	2.3235e-05	3.5135e-05	363.97	159.03	98.602	46.607	4.3045e-05	81.785	0.0027207	0.002932	0.0008786	2476.2	2.8873e-05	3.2864e-05	1399.1	387.96	2.9182e-05	3.2484e-05	646.72	236.4	165.42	76.243	3.2552e-05	111.17	-119.926	119.601	-59.939	-123.980	-55.056	205.046	-123.258	-116.961	-41.097	154.520	-118.557	-115.211	-114.375	-109.187	-20.333	-110.169	-8191	255	
7165.551	1	1	0	0	0.20783	0.1312	0.067522	0.03156	0.10568	0.20855	0.097348	0.075719	0.10912	0.31804	0.21831	0.11542	0.11162	0.19755	0.078825	0.17752	-2.2625	-2.9583	-2.8333	-2.5479	-3.0167	-2.8542	-2.6354	-2.975	-2.3792	-2.7854	-2.9313	-2.8271	-3.2833	-2.9125	-2.7667	-3.3187	63.860	158.924	112.487	-106.435	14.592	-23.487	119.031	154.260	-119.459	-12.332	36.865	139.115	-108.173	170.784	126.146	88.468	0.0013549	0.0019358	0.00026571	662.16	1.8855e-05	1.4104e-05	822.1	218.22	2.8866e-05	2.1334e-05	365.44	159.26	98.213	47.445	1.9208e-05	82.662	0.0026076	0.0029993	0.00081749	2359.9	2.8438e-05	3.3739e-05	1364.5	377.28	2.9648e-05	3.393e-05	633.73	234.73	171.03	78.14	3.162e-05	110.33	223.288	92.300	204.106	-122.357	184.590	116.670	-123.329	-117.350	202.217	123.427	-118.555	-114.982	-114.723	-108.338	-38.066	-110.710	-8191	255	
7165.647	1	1	0	0	0.13919	0.1321	0.1992	0.10655	0.060633	0.074213	0.32234	0.25842	0.099825	0.21681	0.16278	0.20518	0.16673	0.098396	0.2812	0.20328	-2.2042	-2.9458	-2.925	-2.5104	-2.9042	-2.8958	-2.7125	-3.0583	-2.4896	-3.0312	-3.0333	-2.7083	-3.1333	-3.0354	-2.5958	-3.0375	53.554	146.602	184.151	169.073	-121.354	1.451	183.778	151.016	-41.533	144.058	-102.016	165.021	82.836	218.089	110.440	212.909	0.0012635	0.0023776	0.0007389	651.55	3.492e-05	3.7493e-05	828.62	218.63	1.9869e-05	6.7506e-06	369.11	159.39	98.604	47.81	1.1653e-05	82.452	0.0027624	0.0030978	0.00078193	2298.9	3.0368e-05	3.4039e-05	1346.4	371.14	3.1465e-05	3.3851e-05	622.02	232.07	178.23	77.532	3.1135e-05	109.46	195.327	138.369	-57.013	-123.101	215.757	28.381	-123.415	-117.058	195.813	85.179	-119.007	-115.236	-114.671	-108.391	-29.149	-110.266	-8191	255	
7165.743	1	1	0	0	0.29313	0.16824	0.2731	0.20942	0.14705	0.13136	0.20358	0.14152	0.046098	0.058894	0.13925	0.15253	0.28852	0.058846	0.13983	0.12938	-2.3208	-3.0229	-3.125	-2.2833	-3.0146	-2.9042	-2.7104	-3.3021	-2.5792	-2.8625	-3.0583	-2.4875	-2.8063	-3.1437	-2.6854	-3.4083	26.825	167.402	-74.171	105.691	183.847	72.027	151.300	-124.954	-52.814	-127.985	137.101	-61.599	145.674	165.893	105.142	75.976	0.0011733	0.0017287	0.0004749	654.91	3.4788e-05	4.9103e-05	823.36	217.21	2.9669e-05	1.8023e-05	366.45	157.64	99.282	47.565	2.9432e-05	82.048	0.0029855	0.0030768	0.00077243	2294	3.2905e-05	3.3251e-05	1332	370.19	3.3557e-05	3.2732e-05	608.66	230.84	182.71	75.15	2.9636e-05	109.46	195.922	-26.162	-66.237	-123.220	199.056	-4.986	-123.076	-117.887	182.051	-13.461	-118.894	-115.189	-114.247	-107.951	12.321	-110.968	-8191	255	
7165.864	1	1	0	0	0.23305	0.1814	0.029635	0.16724	0.15183	0.13046	0.16664	0.061362	0.080163	0.06682	0.29512	0.30737	0.28532	0.096208	0.20005	0.059691	-2.4833	-2.6875	-2.8646	-2.4875	-2.8083	-2.8958	-2.825	-3.0292	-2.7167	-2.9292	-2.9979	-2.5229	-2.8292	-3.0083	-2.7438	-3.0792	57.604	126.104	-2.988	160.953	14.981	-85.628	-5.389	23.381	152.587	22.305	-126.573	221.715	159.219	70.314	38.632	162.683	0.00081277	0.0030925	0.00046203	643.97	1.7103e-05	3.9231e-05	821.69	217.8	3.5901e-06	4.1996e-06	369.88	158.57	99.957	47.507	3.696e-05	82.662	0.0030467	0.002904	0.0007292	2314.4	3.367e-05	3.1069e-05	1296.8	376.6	3.3658e-05	3.0774e-05	591.7	234.51	182.36	72.739	2.7934e-05	111.7	197.219	-44.246	-106.916	-124.111	187.034	7.984	-123.322	-117.939	46.970	189.394	-118.897	-115.085	-114.073	-108.593	-2.708	-111.231	-8191	255	
7165.960	1	1	0	0	0.15732	0.28406	0.15241	0.257	0.21574	0.26568	0.39375	0.1697	0.13801	0.052679	0.19405	0.11574	0.3387	0.14008	0.051342	0.077733	-2.4688	-2.6021	-3.0625	-2.775	-2.8875	-3.0062	-2.5938	-2.9542	-2.9417	-2.7854	-3.1271	-2.5896	-2.8438	-3.0792	-2.4958	-2.9833	-44.817	-74.939	-14.697	72.910	61.633	203.845	78.719	168.625	-118.145	-26.709	192.890	214.166	186.165	63.400	-133.220	160.892	0.0006566	0.0015765	0.00087703	632.48	1.3774e-05	7.5049e-06	825.72	217.6	1.7585e-05	1.2258e-05	371.33	161.31	100.56	47.514	1.045e-05	83.098	0.0029629	0.0027225	0.00068069	2370.8	3.2428e-05	2.918e-05	1267.7	387.76	3.2144e-05	2.9463e-05	583.59	241.66	179.59	71.587	2.7651e-05	116.25	222.720	-66.423	-93.635	-125.254	54.943	4.572	-123.280	-117.936	29.412	-63.158	-118.728	-116.056	-113.693	-108.019	61.022	-110.882	-8191	255	
7166.056	1	1	0	0	0.10534	0.21642	0.072578	0.18823	0.080649	0.26904	0.087891	0.040469	0.08677	0.011079	0.15395	0.22381	0.25062	0.4908	0.058616	0.2669	-2.4042	-2.2792	-2.9583	-2.8521	-2.9833	-3.0729	-2.5146	-2.8708	-2.925	-2.3771	-3.0687	-3.1688	-2.975	-3.2	-2.7646	-2.975	-86.164	183.701	-15.796	89.792	-81.994	-40.905	-91.934	-41.793	161.312	6.280	73.162	135.141	182.566	-124.632	107.127	192.293	0.00024666	0.0022897	0.00040184	670.09	1.7845e-05	2.8295e-05	838.19	223.51	5.0255e-05	2.3246e-05	370.47	161.34	100.78	48.176	2.5409e-05	83.412	0.0028858	0.0026963	0.00069305	2517.2	3.1777e-05	2.8648e-05	1297.7	405.11	3.1189e-05	2.9021e-05	599.37	248.51	176.83	71.058	2.9111e-05	119.11	-59.488	-46.226	-119.057	-125.033	18.154	-10.637	-124.088	-117.559	-18.352	14.309	-119.341	-114.999	-114.415	-108.461	185.478	-110.923	-8191	255	
7166.128	1	1	0	0	0.051347	0.059356	0.24707	0.089294	0.38248	0.20835	0.34116	0.077503	0.2471	0.098801	0.1274	0.13975	0.089178	0.156	0.31496	0.17062	-2.4979	-2.4021	-2.9583	-2.8229	-2.6333	-3.1104	-2.6625	-2.9688	-2.8458	-2.6271	-3.0771	-2.7833	-2.6917	-3.1354	-2.6583	-2.9771	141.472	-125.128	17.778	94.413	-106.669	-94.064	169.310	152.175	79.244	205.011	50.143	-3.005	-69.612	-98.966	113.529	197.361	0.00024168	0.0026225	0.00076185	664.12	2.2933e-05	3.3411e-05	837.37	222.48	1.1028e-05	1.8509e-06	371.59	161.55	100.62	47.472	4.5047e-05	82.685	0.0027906	0.0026462	0.00073775	2580.4	3.0955e-05	2.7906e-05	1337.5	407.81	3.0211e-05	2.8287e-05	621.74	247.34	174.35	69.892	3.1316e-05	118.17	209.858	-41.517	92.734	-121.851	7.816	30.382	-123.720	-117.340	-80.979	207.909	-119.274	-115.114	-114.064	-108.513	160.669	-110.509	-8191	255	
7166.224	1	1	0	0	0.18245	0.023866	0.1991	0.20287	0.23388	0.15951	0.20124	0.25963	0.098739	0.47138	0.26776	0.11319	0.49338	0.12699	0.32544	0.34067	-2.3792	-2.625	-3.0521	-2.9583	-2.7729	-2.9583	-2.8021	-2.8521	-2.8729	-2.5083	-3.0833	-3.0125	-2.7771	-3.0854	-2.6979	-2.7729	8.022	-40.582	-39.557	-7.480	-37.805	143.925	209.915	116.800	90.095	11.119	185.153	-84.581	218.631	192.301	83.903	223.030	0.00040782	0.0018093	0.0014162	701.7	1.6658e-05	1.1595e-05	830.98	222.71	1.679e-05	1.5685e-05	369.71	159.52	100.5	46.913	1.6919e-05	83.005	0.0027166	0.0025902	0.0007962	2529.9	3.0251e-05	2.7444e-05	1377.1	401.39	2.928e-05	2.8203e-05	642.82	242.41	171.86	70.128	3.2897e-05	116.03	-44.284	-100.977	92.235	-122.616	-8.698	89.398	-124.265	-117.308	23.491	145.959	-119.350	-115.419	-113.747	-108.592	190.493	-110.350	-8191	255	
7166.343	1	1	0	0	0.052819	0.14892	0.050314	0.026049	0.12821	0.065814	0.19997	0.063266	0.11305	0.10799	0.092679	0.21446	0.077577	0.1738	0.024412	0.1015	-2.7188	-2.5417	-3.1104	-3.0167	-2.5854	-3.0104	-2.6854	-2.8083	-3.1562	-2.4771	-2.9479	-3	-2.5854	-3.2917	-2.9313	-2.7438	10.254	-119.332	160.142	115.263	59.484	-32.601	147.829	137.317	131.202	-37.285	212.170	63.861	-96.655	-122.997	58.614	208.178	0.00041171	0.0020952	0.00060129	683.45	1.3121e-05	2.3988e-05	837.02	220.76	1.6723e-05	3.0728e-05	367.09	160.19	100.14	46.981	6.9053e-06	82.845	0.0026183	0.0026393	0.00084081	2447.4	2.9614e-05	2.8749e-05	1410.1	394.75	2.8682e-05	2.9832e-05	656.17	238.25	170.14	72.641	3.3528e-05	114.73	-106.042	123.628	90.160	-123.578	25.216	171.677	-123.508	-117.337	-29.137	161.538	-118.989	-114.966	-113.827	-108.263	-34.267	-110.311	-8191	255	
7166.439	1	1	0	0	0.084436	0.19217	0.18476	0.087009	0.12435	0.19515	0.23172	0.23609	0.14881	0.1285	0.11225	0.097371	0.057405	0.19411	0.10601	0.15034	-2.7396	-2.3979	-2.8146	-2.9625	-2.7167	-3.0208	-2.7042	-2.5583	-3.2042	-2.6875	-2.9375	-2.8458	-2.4771	-3.1396	-2.9104	-2.6	45.874	76.354	-73.298	110.343	-10.416	103.704	68.380	168.564	145.544	147.376	78.391	-53.778	-73.774	5.244	86.236	179.132	0.00077134	0.005206	0.0009929	679.73	1.1839e-05	3.1754e-05	844.34	221.13	8.8138e-06	3.4754e-05	370.14	161.15	99.459	47.406	3.4754e-05	83.041	0.0025468	0.00283	0.00085127	2395	2.9113e-05	3.1161e-05	1407.8	391.4	2.827e-05	3.2227e-05	653.02	236.83	169.61	75.941	3.2826e-05	114.22	223.454	129.387	-130.044	-123.013	27.151	187.116	-123.874	-117.336	-42.772	173.225	-118.670	-114.805	-114.198	-108.992	-23.979	-110.568	-8191	255	
7166.535	1	1	0	0	0.14941	0.13337	0.11515	0.2178	0.21376	0.061297	0.072418	0.2365	0.10851	0.17337	0.06479	0.39622	0.15252	0.048951	0.13128	0.25078	-2.525	-2.6208	-2.9729	-2.9646	-2.6312	-3.0833	-2.8479	-2.6583	-3.1729	-2.7854	-2.7646	-3.2125	-2.4146	-2.9062	-3.0042	-2.5396	203.663	-65.966	-2.211	155.039	110.480	164.373	-115.597	193.851	124.548	158.264	-23.491	142.804	61.775	164.454	199.920	209.208	0.0005131	0.0038436	0.00043097	671.26	1.9043e-05	3.498e-05	833.27	221.09	2.0873e-05	1.7505e-05	373.39	158.6	99.158	47.129	2.5267e-05	82.255	0.0025536	0.0030373	0.00082963	2344.2	2.8982e-05	3.3062e-05	1373	383.81	2.844e-05	3.3594e-05	636.15	231.03	170.45	77.099	3.1185e-05	111.45	197.234	115.718	-19.355	-123.218	205.309	181.308	-123.322	-116.832	205.561	191.310	-118.538	-114.862	-114.068	-108.741	-19.992	-110.460	-8191	255	
7166.633	1	1	0	0	0.14775	0.061696	0.38137	0.13832	0.14308	0.17475	0.12039	0.22477	0.074816	0.071372	0.26954	0.19638	0.026217	0.29161	0.21283	0.033122	-2.6396	-2.8167	-2.5146	-2.9354	-2.7438	-2.8479	-2.8792	-2.7188	-3.1646	-2.6854	-2.7021	-2.9313	-2.6958	-2.7833	-2.9083	-2.7854	144.786	37.773	34.300	175.442	218.775	29.581	43.106	138.875	41.416	222.405	-94.277	-86.676	-34.070	-80.136	128.482	193.853	0.0007568	0.0017537	0.00066094	660.05	3.1659e-05	2.4505e-05	830.94	219.54	3.8984e-05	3.3875e-06	365.59	160.04	98.107	47.609	2.5636e-05	82.292	0.0026448	0.0030957	0.00079546	2256.8	3.0327e-05	3.3797e-05	1338.1	376.56	3.0178e-05	3.3791e-05	623.17	227.05	176.52	77.036	3.0059e-05	109.99	179.855	-6.216	-113.071	-122.689	202.543	60.540	-123.261	-117.220	213.372	-18.986	-118.902	-115.369	-113.909	-108.660	-51.153	-110.609	-8191	255	
7166.727	1	1	0	0	0.09441	0.12048	0.25526	0.090332	0.1774	0.091825	0.056503	0.21537	0.20346	0.094547	0.2099	0.10186	0.17414	0.45536	0.094599	0.074252	-2.6979	-2.6021	-2.6375	-3.2	-2.7042	-2.8771	-3.1437	-2.7167	-2.85	-3.0042	-2.8229	-3.2708	-2.7708	-3.0021	-2.9604	-2.7396	-101.783	-17.901	-97.992	207.916	112.287	14.360	-104.711	147.329	-71.332	-24.431	223.428	126.459	63.947	-127.025	206.933	176.049	0.001365	0.0024339	0.00040976	656.88	2.0727e-05	2.7534e-05	826.81	218.14	2.1726e-05	3.4343e-05	366.2	158.57	98.865	47.374	1.2848e-05	81.531	0.0028456	0.0030581	0.00077696	2228.4	3.2751e-05	3.3435e-05	1328.4	376.5	3.2991e-05	3.3257e-05	623.17	229.12	184.4	76.492	2.9887e-05	111.16	200.088	-35.097	-100.842	-122.783	191.417	3.002	-123.658	-117.729	207.988	-69.338	-118.721	-115.307	-114.368	-108.754	-76.009	-110.579	-8191	255	
7166.823	1	1	0	0	0.18884	0.15794	0.17862	0.076586	0.13292	0.099308	0.21361	0.08526	0.07163	0.070285	0.32074	0.3045	0.20895	0.10988	0.17605	0.094348	-2.6354	-3.0021	-2.4708	-2.9	-2.9729	-2.7333	-3.0729	-2.7958	-2.8396	-2.9354	-2.6167	-3.0333	-2.9229	-2.8042	-2.9	-2.7521	219.585	-58.506	-28.091	15.758	199.710	201.363	103.519	184.134	117.162	-117.135	-128.464	179.039	2.401	185.502	134.789	-27.106	0.00077754	0.0016066	0.00079384	638.91	2.5403e-05	2.1019e-05	831.35	219.47	2.7359e-05	3.7985e-05	370.92	158.74	100.01	47.615	1.4451e-05	82.006	0.0030773	0.0029831	0.00077275	2301.7	3.4795e-05	3.2739e-05	1316.3	387.2	3.4782e-05	3.2344e-05	617.89	236.4	188.6	75.7	2.9169e-05	115.3	194.600	-59.366	-97.458	-124.862	-116.094	-23.575	-123.281	-117.759	123.579	-53.466	-118.702	-115.610	-113.931	-108.908	-108.879	-110.945	-8191	255	
7166.944	1	1	0	0	0.1733	0.15508	0.073323	0.15736	0.41199	0.1767	0.19512	0.15255	0.18303	0.19753	0.17897	0.13378	0.28078	0.075042	0.16481	0.093701	-2.4167	-2.8354	-2.3979	-2.8542	-2.9521	-2.775	-3.15	-2.7167	-2.9146	-3.0542	-2.6479	-3.1646	-2.9979	-2.7021	-3.1875	-2.6813	203.496	-51.047	-83.059	197.315	148.918	-35.984	-71.764	-132.840	-4.550	95.077	193.129	186.021	142.458	157.535	77.448	45.652	0.00023705	0.0041086	0.00049381	652.39	2.0247e-05	2.0209e-05	831.55	216.48	6.4829e-06	3.2093e-05	367.56	158.73	100.22	47.14	1.7339e-05	81.485	0.0031751	0.0029049	0.0007571	2464.1	3.5142e-05	3.2065e-05	1302.5	403.78	3.4757e-05	3.1547e-05	610.38	245.29	186.18	74.912	2.8605e-05	118.48	208.490	-86.736	-37.615	-125.440	57.237	36.508	-123.586	-118.378	203.171	23.239	-119.033	-115.710	-113.838	-108.418	-57.539	-111.095	-8191	255	
7167.040	1	1	0	0	0.1654	0.19234	0.15176	0.1724	0.15363	0.13084	0.16359	0.23357	0.025983	0.085217	0.076959	0.18331	0.11316	0.16844	0.2059	0.24697	-2.4521	-2.8458	-2.6708	-2.9792	-2.8458	-2.6125	-3.2021	-2.7188	-2.8563	-3.1375	-2.7833	-2.9167	-2.9917	-2.5938	-2.9813	-2.9042	-56.446	16.240	198.280	-70.145	218.922	-97.938	77.319	219.312	-6.082	118.302	71.635	168.825	152.369	-120.894	144.151	186.932	0.0003534	0.0019775	0.00038431	648.29	2.5109e-05	2.3545e-05	823.18	219.95	2.784e-05	1.8727e-05	366.35	158.36	100.42	47.219	3.1205e-05	82.063	0.0030807	0.0028183	0.00074726	2591.6	3.3718e-05	3.1107e-05	1298.5	414.47	3.3361e-05	3.0111e-05	611.05	249.79	180.71	73.353	2.9432e-05	120.32	-22.139	-72.656	-44.935	-124.894	3.927	-51.988	-124.001	-117.463	20.427	-20.163	-119.320	-115.702	-113.161	-108.359	195.680	-110.839	-8191	255	
7167.136	1	1	0	0	0.23221	0.15741	0.11528	0.074003	0.15529	0.18998	0.23707	0.097624	0.083285	0.19541	0.24312	0.27189	0.15982	0.18837	0.053599	0.27034	-2.3958	-3.1729	-2.2979	-2.9667	-2.9771	-2.6896	-3.0667	-2.9375	-2.8271	-3.0812	-2.5333	-3.0479	-3.1917	-2.4542	-2.9667	-3.0312	221.206	137.292	85.870	216.814	166.697	-43.598	139.910	103.853	179.121	81.216	-106.924	-51.534	119.402	170.900	37.074	141.716	0.0003076	0.002964	0.00080465	643.22	1.3209e-05	1.3294e-05	823.75	219.61	2.0856e-05	2.4497e-05	362.59	160.53	99.595	47.583	4.1687e-05	82.32	0.0029578	0.0027025	0.00077724	2653.5	3.2193e-05	3.0079e-05	1332.6	417.72	3.2256e-05	2.9174e-05	633.57	252.17	177.75	72.667	3.1669e-05	120.49	-88.254	-65.879	123.673	-121.894	2.712	60.600	-123.655	-117.497	-4.753	34.040	-119.351	-115.136	-114.269	-108.957	150.665	-110.342	-8191	255	
7167.233	1	1	0	0	0.25507	0.23231	0.17325	0.25314	0.031557	0.12393	0.10888	0.14967	0.12753	0.16383	0.33419	0.072079	0.047469	0.19646	0.16892	0.049287	-2.2188	-2.9104	-2.4979	-2.9208	-2.9938	-2.4562	-3.1437	-2.9271	-2.5667	-3.0958	-2.6562	-2.6125	-2.9542	-2.6125	-2.8021	-2.9938	116.061	152.556	-96.068	11.775	-42.020	-48.737	60.142	160.699	145.312	176.358	204.410	91.346	27.324	131.098	-93.124	127.553	0.00041392	0.0019807	0.00052051	683.78	2.9483e-05	7.9531e-06	818.34	220.69	2.906e-05	5.5733e-07	365.98	159.76	100.07	47.16	1.9785e-05	82.932	0.0029066	0.0026379	0.00083699	2641.1	3.1604e-05	2.9711e-05	1388.3	413.82	3.1835e-05	2.9084e-05	661.64	250.23	175.9	73.015	3.4004e-05	118.72	-80.164	-134.890	134.394	-121.284	2.053	217.800	-123.893	-117.186	-17.731	194.736	-118.797	-114.808	-114.110	-108.659	203.030	-110.466	-8191	255	
7167.353	1	1	0	0	0.12017	0.29712	0.070665	0.2612	0.14355	0.11386	0.048373	0.45232	0.20451	0.16374	0.090074	0.23117	0.22266	0.11664	0.22248	0.082125	-2.1271	-2.9938	-2.725	-2.6667	-2.9625	-2.5938	-3.0604	-2.9437	-2.5667	-2.9833	-2.8646	-2.8458	-2.9521	-2.7646	-2.9271	-3.05	182.291	-70.624	133.874	-120.559	203.206	-132.844	157.704	-131.394	198.811	154.055	-34.459	221.390	-122.589	-90.703	56.823	175.572	0.00062472	0.0023816	0.0005869	692.34	1.5406e-05	1.8214e-05	823.88	220.22	1.8965e-05	2.7186e-05	368.42	160.33	100.31	46.919	8.2481e-06	82.473	0.0028392	0.0026916	0.00088008	2564	3.0511e-05	3.0286e-05	1418.3	402.25	3.0656e-05	2.9954e-05	670.5	244.33	171.57	74.152	3.4513e-05	115.79	-91.888	166.960	50.965	-121.480	19.034	205.171	-123.315	-117.311	-70.896	168.324	-118.578	-114.826	-113.992	-108.695	-124.053	-110.480	-8191	255	
7167.425	1	1	0	0	0.24172	0.13324	0.086782	0.064847	0.14496	0.08349	0.021535	0.15111	0.1238	0.18778	0.098961	0.036885	0.14451	0.12474	0.10466	0.39114	-2.0792	-2.9083	-2.8458	-2.675	-3.0396	-2.5208	-2.8854	-3.1208	-2.5125	-3.0563	-2.8271	-2.8187	-3.0438	-2.6833	-2.9042	-3.1083	76.464	-52.910	-97.138	196.927	-111.424	-125.407	-43.677	-97.835	-85.623	-117.794	211.251	17.174	-131.108	-115.560	186.791	152.462	0.00056568	0.0029993	0.00062204	669.29	1.1375e-05	2.9932e-05	823.33	221.11	8.0476e-06	2.5684e-05	365.48	158.55	99.019	47.365	2.6923e-05	82.651	0.0027175	0.0028253	0.00088471	2484.6	2.9316e-05	3.2084e-05	1416	394.25	2.9457e-05	3.2061e-05	660.68	240.36	168.5	76.62	3.3768e-05	113.83	-100.002	104.132	-126.896	-122.489	20.694	213.037	-123.559	-117.529	17.680	174.461	-118.856	-115.306	-114.094	-108.862	-71.168	-111.044	-8191	255	
7167.521	1	1	0	0	0.027447	0.14106	0.15509	0.28284	0.13145	0.30959	0.073538	0.11229	0.13038	0.20592	0.19572	0.062071	0.30985	0.26308	0.29798	0.29564	-2.1229	-2.9521	-2.9813	-2.5354	-3.075	-2.6312	-2.9458	-3.2042	-2.5354	-2.9437	-2.875	-2.6542	-3.0396	-2.7646	-2.7146	-3.1125	62.877	-42.532	-115.568	-121.534	63.620	45.419	108.860	215.752	71.083	166.631	-90.323	45.919	173.798	-114.315	-79.917	184.733	0.00048041	0.0022855	0.00077809	665.53	1.6625e-05	3.1978e-05	824.72	219.98	3.2284e-06	2.1712e-05	365.32	158.97	98.271	47.228	3.0796e-05	82.788	0.0026542	0.0030174	0.00085254	2426.5	2.8962e-05	3.4068e-05	1392.5	387.84	2.9756e-05	3.4021e-05	646.31	237.27	170.13	78.49	3.2524e-05	111.99	-135.409	127.685	-74.922	-121.397	-112.201	195.037	-123.427	-117.459	-5.089	181.200	-118.674	-114.303	-114.446	-108.848	-5.092	-110.267	-8191	255	
7167.640	1	1	0	0	0.17982	0.18873	0.25129	0.28719	0.14517	0.23097	0.086983	0.1641	0.16207	0.082266	0.18669	0.10595	0.10688	0.053888	0.13008	0.20858	-2.0417	-2.7188	-3.0187	-2.7042	-3.1167	-2.5875	-2.7313	-3.2146	-2.6437	-2.9188	-2.9313	-2.4833	-3.2771	-3.0458	-2.9792	-3.1583	-114.636	83.331	-54.789	212.479	-117.561	-73.386	192.107	149.601	176.277	16.050	-73.511	-29.571	-85.631	223.446	-111.013	220.654	0.00091847	0.0010995	0.00033069	685.36	2.5293e-05	2.9333e-05	826.11	220.22	1.7655e-05	8.8941e-06	368.74	160.95	99.586	47.683	3.0935e-05	82.801	0.002738	0.0031347	0.00081208	2356.7	3.0083e-05	3.4727e-05	1365.1	379.67	3.1364e-05	3.4814e-05	635.64	234.91	177.7	79.095	3.1878e-05	111.31	215.539	208.213	-52.254	-122.300	-129.909	-62.003	-123.489	-117.383	185.433	-55.576	-118.591	-115.114	-114.477	-108.556	5.506	-110.368	-8191	255	
7167.736	1	1	0	0	0.1109	0.3138	0.15463	0.19592	0.04953	0.25105	0.24097	0.14967	0.060138	0.17792	0.035803	0.23752	0.16078	0.22532	0.04771	0.31339	-2.0896	-2.8646	-3.0083	-2.5771	-2.9667	-2.7583	-2.8708	-3.2146	-2.7667	-2.6542	-3.2875	-2.7313	-2.95	-2.7938	-2.7604	-3.2	-79.155	190.835	15.701	85.298	-108.125	-84.077	-108.795	200.723	22.830	-47.401	-109.946	140.220	189.166	135.781	127.643	-116.648	0.0010749	0.00025862	0.0011335	669.68	2.3696e-05	2.0475e-05	828.56	220.58	4.1238e-05	3.0731e-05	370.22	159.36	98.971	47.721	8.5e-06	82.561	0.0029574	0.003171	0.00079734	2329.8	3.2794e-05	3.4497e-05	1360.1	378.14	3.3751e-05	3.4239e-05	628.32	233.7	184.55	77.704	3.1222e-05	111.28	171.401	25.655	-37.149	-122.341	201.014	-12.758	-123.389	-117.142	193.561	-5.705	-118.885	-115.236	-114.516	-108.517	-91.768	-110.669	-8191	255	
7167.832	1	1	0	0	0.25844	0.080056	0.045774	0.042519	0.062188	0.20891	0.27364	0.17021	0.17851	0.06182	0.2056	0.24061	0.28736	0.2442	0.11059	0.35926	-2.2604	-2.8729	-2.9562	-2.6208	-2.9437	-2.7438	-2.6167	-3.3688	-2.875	-2.7479	-2.9458	-2.7708	-2.9604	-3.0646	-2.5	-3.0542	214.867	25.889	167.102	-85.669	126.068	130.524	54.663	217.947	107.589	162.512	-99.093	206.963	169.099	61.332	-20.829	136.626	0.00058864	0.0020728	0.00097439	637.77	1.6001e-05	3.0335e-05	820.52	217.36	2.7148e-05	2.2445e-05	369.41	158.08	99.051	47.164	1.5098e-05	81.32	0.0031433	0.0030804	0.00077542	2357.6	3.481e-05	3.3258e-05	1336	382.98	3.532e-05	3.3018e-05	614.59	237.92	188.23	75.668	3.0203e-05	113.15	-115.029	-59.635	-58.056	-124.418	138.468	-0.684	-123.485	-117.741	186.271	0.138	-118.864	-115.219	-114.180	-108.289	-27.873	-111.109	-8191	255	
7167.928	1	1	0	0	0.43567	0.26268	0.078922	0.10487	0.031591	0.36618	0.29642	0.048746	0.24769	0.18043	0.12935	0.23093	0.13014	0.17516	0.20569	0.2354	-2.0938	-2.7125	-3.0896	-2.7208	-2.9062	-3.025	-2.6979	-2.9958	-2.5792	-2.6479	-3.15	-2.975	-2.9417	-3.0687	-2.5833	-3.1375	30.805	26.495	-68.308	-116.150	-18.944	138.952	145.037	59.213	129.894	-135.046	-113.914	218.978	-71.299	213.863	-4.296	184.266	0.00082531	0.0020344	0.0010768	637.98	1.6019e-05	5.2105e-06	823.48	216.99	1.31e-05	1.4683e-05	364.38	159.54	100.49	47.316	7.071e-06	82.303	0.003177	0.0029326	0.00074107	2448.8	3.4825e-05	3.1636e-05	1309.7	394.02	3.4729e-05	3.176e-05	601.52	244.81	186.25	74.387	2.9268e-05	117.23	182.315	-89.942	-79.594	-124.401	53.284	9.852	-123.081	-117.809	-59.826	-120.112	-119.297	-115.658	-114.069	-108.366	52.775	-111.047	-8191	255	
7168.024	1	1	0	0	0.26513	0.38117	0.068336	0.25894	0.28694	0.070175	0.10112	0.1519	0.077748	0.13752	0.11029	0.12082	0.18345	0.19243	0.29794	0.2189	-2.4875	-2.6667	-3.1604	-2.6	-2.7062	-3.1208	-2.7854	-3.0667	-2.975	-2.4792	-2.9292	-2.9313	-2.8792	-3.1667	-2.7083	-3.1125	-103.356	-128.970	52.460	90.806	95.287	120.624	119.723	-38.921	177.765	167.764	-82.197	155.073	-112.260	42.640	-80.245	107.682	3.5163e-05	0.0014133	0.00051279	646.25	2.0894e-05	9.0622e-06	822.25	218.51	2.6758e-05	3.0966e-05	368.59	158.23	100.75	47.779	3.9553e-05	82.546	0.0031114	0.0028787	0.00073105	2603.4	3.4192e-05	3.1007e-05	1311.9	411.51	3.3676e-05	3.107e-05	606.57	251.97	182.73	73.441	2.9812e-05	120.62	-74.740	-30.097	184.071	-123.332	90.471	-1.127	-123.497	-117.777	30.597	0.423	-119.258	-115.327	-113.882	-108.193	166.026	-110.737	-8191	255	
7168.121	1	1	0	0	0.13955	0.047078	0.22413	0.1157	0.32602	0.11702	0.10516	0.26001	0.0568	0.055798	0.13577	0.058808	0.31803	0.070802	0.066709	0.29912	-2.7167	-2.5479	-3.0687	-2.7521	-2.7271	-3.4313	-2.8208	-2.9896	-2.9979	-2.8083	-3.2521	-2.8604	-2.5604	-3.15	-2.5854	-3.075	-44.047	-97.256	38.664	104.048	-113.770	-35.495	97.385	134.237	-123.941	-69.913	-85.206	109.757	-32.625	-114.641	-73.515	166.750	0.00044849	0.0017955	0.0010225	666.58	2.8669e-06	2.6246e-05	821.28	221.85	4.4656e-05	3.9388e-05	366.25	161.42	99.718	47.705	4.5482e-05	83.19	0.0029676	0.0027974	0.00075627	2678.2	3.286e-05	2.9897e-05	1343.7	418.99	3.2346e-05	3.0203e-05	626.64	254.8	180.45	72.382	3.2164e-05	121.61	-38.559	-114.557	90.334	-124.170	62.130	-7.639	-124.268	-116.870	-7.233	-27.402	-119.481	-115.312	-114.021	-108.327	177.231	-110.344	-8191	255	
7168.217	1	1	0	0	0.076481	0.06651	0.12022	0.11028	0.2348	0.098823	0.2058	0.079773	0.04783	0.26692	0.18002	0.18133	0.25743	0.095777	0.22383	0.21563	-2.7167	-2.5021	-2.9125	-2.8292	-2.5646	-3.0167	-2.8958	-2.7917	-2.8708	-2.2833	-3.1167	-3.0146	-2.7646	-3.2396	-2.5417	-2.7646	45.671	94.505	30.229	95.693	217.641	133.747	184.592	-7.495	150.055	214.757	180.785	223.735	211.810	-63.593	178.581	106.161	0.00029415	0.00080022	0.0010659	666.11	9.337e-06	4.591e-06	818.11	219.53	1.0743e-05	1.9924e-05	363.78	159.92	98.905	47.223	1.0627e-05	82.099	0.0028995	0.0027449	0.00081754	2667	3.234e-05	2.9046e-05	1391	414.31	3.1619e-05	2.9688e-05	651.05	250.61	178.1	71.879	3.4302e-05	119.45	171.880	26.359	86.763	-122.363	91.253	-124.721	-124.140	-117.444	35.916	-87.510	-119.662	-115.035	-113.328	-108.531	184.619	-110.539	-8191	255	
7168.313	1	1	0	0	0.15399	0.076077	0.23944	0.060034	0.11206	0.25005	0.33965	0.36966	0.15297	0.20717	0.11476	0.12449	0.063958	0.15188	0.11046	0.20286	-2.6	-2.5458	-2.8958	-2.7604	-2.6354	-3.225	-2.7417	-2.8229	-3.1708	-2.7021	-3.0979	-2.825	-2.6792	-3.1479	-2.7771	-2.7708	-115.141	-102.842	-85.881	17.295	-39.213	144.443	150.255	192.918	187.530	130.062	195.789	171.212	54.723	-74.079	38.043	199.352	0.00049967	0.0027784	0.00036661	692.45	1.8991e-05	1.2487e-05	824.41	219.03	8.4311e-06	1.6664e-05	363.01	159.99	98.704	47.029	1.0578e-06	83.039	0.0028388	0.0027579	0.00087683	2605.8	3.173e-05	2.9915e-05	1428.8	407.54	3.0764e-05	3.0496e-05	665.32	244.96	174	72.986	3.4919e-05	116.52	-60.160	153.963	90.225	-122.418	34.434	164.824	-123.320	-116.882	60.111	143.253	-118.889	-114.842	-113.639	-108.935	14.408	-110.754	-8191	255	
7168.432	1	1	0	0	0.16372	0.10492	0.036295	0.27718	0.095034	0.014519	0.27065	0.24254	0.28457	0.19066	0.1731	0.16951	0.16195	0.14218	0.06581	0.43785	-2.5583	-2.4208	-2.7896	-2.9333	-2.3688	-2.9792	-2.5	-2.6729	-3.0812	-2.7208	-3.0229	-3.0583	-2.5708	-3.0083	-2.8063	-2.7021	-122.351	7.833	-102.845	75.660	-87.209	-134.429	171.197	205.407	176.996	165.787	174.811	22.159	-120.292	164.916	-24.972	187.277	0.00055548	0.0043588	0.00017953	674.09	1.0851e-05	3.7919e-05	819.57	220.23	1.4798e-05	5.0022e-05	365.97	158.94	99.858	46.77	1.0898e-05	82.769	0.0026887	0.0028438	0.0008813	2472.3	3.0174e-05	3.1102e-05	1419.2	397.36	2.9328e-05	3.2353e-05	664.91	241.07	171.5	75.794	3.4392e-05	115.76	-69.449	113.023	166.967	-124.014	57.094	188.231	-123.303	-117.459	5.750	163.625	-118.739	-114.962	-114.194	-108.669	34.143	-110.606	-8191	255	
7168.528	1	1	0	0	0.022515	0.12423	0.10982	0.26197	0.31121	0.043041	0.20197	0.12532	0.068347	0.21552	0.12168	0.37065	0.17811	0.15532	0.19339	0.15798	-2.8812	-2.7812	-2.9083	-2.8896	-2.4437	-3.2479	-2.8458	-2.5833	-3.1333	-2.8104	-2.775	-2.9875	-2.4833	-3.1188	-3.025	-2.6417	-37.720	-39.021	58.541	-66.564	101.010	128.362	-85.059	167.244	89.863	-16.781	-113.962	194.679	192.329	103.360	-58.279	157.961	0.00043094	0.0033359	0.00075246	678.99	7.2033e-06	4.7015e-05	829.18	217.43	3.5555e-05	2.1206e-05	368.21	160.81	98.589	46.937	2.0651e-05	82.098	0.0026322	0.0030653	0.00086906	2430.1	2.9744e-05	3.354e-05	1401	392.83	2.9282e-05	3.4394e-05	654.51	237.81	172.2	78.031	3.3072e-05	113.9	-87.743	120.147	-108.890	-122.482	-49.330	191.222	-122.946	-116.990	202.284	205.048	-118.249	-115.200	-114.349	-108.372	4.501	-110.261	-8191	255	
7168.624	1	1	0	0	0.16651	0.24729	0.11254	0.18779	0.033725	0.18547	0.3272	0.34448	0.18842	0.074598	0.15348	0.20924	0.17906	0.21916	0.28587	0.47414	-2.6521	-2.6229	-2.6917	-2.9042	-2.5729	-3.0375	-3.0354	-2.6375	-2.8812	-2.7562	-2.8146	-3.0229	-2.5521	-2.9292	-3.0729	-2.7458	101.758	-54.858	24.706	-71.579	98.455	-42.234	168.618	194.106	185.175	-15.355	-39.109	-108.910	204.529	161.314	-48.256	158.353	0.00092797	0.00099253	0.00081585	683.19	8.6621e-06	2.6945e-05	818.35	217.15	2.5821e-05	8.2815e-06	364.27	158.24	97.314	47.402	1.9536e-05	81.912	0.0026884	0.0031956	0.00083072	2350.8	3.0555e-05	3.4657e-05	1362.6	383.45	3.0361e-05	3.487e-05	634.06	231.12	175.93	78.292	3.1416e-05	111.3	197.999	178.385	-120.185	-122.782	192.085	220.065	-123.716	-117.597	170.755	-105.686	-118.865	-115.075	-114.293	-108.380	4.561	-110.477	-8191	255	
7168.720	1	1	0	0	0.13448	0.11306	0.076223	0.066976	0.055407	0.26673	0.20033	0.15873	0.026764	0.27923	0.21019	0.27188	0.12798	0.32682	0.15502	0.32675	-2.4021	-2.7313	-2.5021	-3.0583	-2.6083	-2.9083	-3.1354	-2.4083	-2.9125	-2.6396	-2.6479	-3.2062	-2.8125	-2.7687	-2.9917	-2.6646	118.782	106.447	79.331	-54.598	-46.908	87.488	158.569	162.205	-116.539	166.555	-69.569	-82.483	160.497	176.091	84.512	54.787	0.001075	0.0021859	0.00047547	670.63	3.1714e-05	4.2847e-05	822.86	216.09	2.6054e-05	4.5417e-05	362.83	157.73	98.666	46.994	1.1312e-05	81.262	0.0028374	0.0031488	0.00079956	2263	3.2425e-05	3.4205e-05	1334.6	375.85	3.2387e-05	3.3752e-05	621.72	228.17	181.68	76.657	3.0122e-05	110.1	171.158	-54.259	211.238	-124.048	-124.784	-4.113	-123.410	-117.958	187.670	9.465	-118.673	-115.092	-114.263	-108.492	-52.452	-110.775	-8191	255	
7168.816	1	1	0	0	0.14702	0.23017	0.10799	0.20471	0.037769	0.21505	0.25293	0.28475	0.26727	0.10276	0.183	0.025311	0.26341	0.59411	0.09406	0.16422	-2.6167	-2.9604	-2.65	-3.1917	-2.6063	-2.7708	-3.1792	-2.7125	-2.9688	-3.0625	-2.6042	-3.1375	-2.8375	-2.5042	-3.025	-2.4813	-128.292	-135.177	159.058	117.298	106.329	23.791	116.498	164.981	127.511	-103.042	-94.552	-80.424	46.978	194.215	150.424	139.648	0.00045196	0.0039844	0.00080861	651.08	3.5108e-05	3.9018e-05	819.23	216.55	1.2128e-05	3.4215e-05	369.32	157.86	98.557	47.487	2.8369e-05	81.557	0.0029939	0.0029946	0.00076841	2245.6	3.3756e-05	3.2363e-05	1300.9	377.23	3.3587e-05	3.1912e-05	608.85	230.24	184.9	74.885	2.8694e-05	111.94	162.033	-77.928	-122.193	-124.451	211.476	-21.806	-123.325	-117.647	-103.256	-22.161	-119.000	-115.415	-113.872	-108.638	-24.071	-110.827	-8191	255	
7168.913	1	1	0	0	0.12257	0.19954	0.22248	0.085513	0.17402	0.14314	0.27846	0.23765	0.073658	0.15847	0.1517	0.057646	0.07202	0.23403	0.25476	0.10382	-2.4667	-2.9917	-2.3563	-3.0375	-2.8021	-2.525	-3.2062	-2.65	-2.9688	-2.8375	-2.6437	-3.2104	-2.7687	-2.8104	-3.2292	-2.7687	-131.003	15.670	45.174	-108.078	37.607	5.667	213.111	119.780	-71.532	-101.062	179.943	-76.896	153.444	98.478	167.964	-21.629	0.00036888	0.0042666	0.00063769	639.6	1.0673e-05	6.24e-06	823.88	217.37	1.8808e-05	2.0916e-05	362.97	158.31	99.036	47.558	7.3996e-06	81.642	0.00306	0.0028324	0.00073287	2324.7	3.3978e-05	3.0974e-05	1277.2	387.74	3.3587e-05	3.0406e-05	595.85	236.76	182.81	73.388	2.7399e-05	114.98	201.594	-36.803	-114.898	-125.007	68.769	-19.415	-123.331	-118.549	-3.851	-13.140	-118.466	-115.076	-113.961	-108.747	189.416	-111.040	-8191	255	
7169.033	1	1	0	0	0.1838	0.19074	0.090823	0.085108	0.17383	0.08683	0.29332	0.097892	0.27498	0.089576	0.040503	0.37609	0.20301	0.035197	0.27588	0.10318	-2.4833	-3.0521	-2.45	-2.8792	-2.8542	-2.7417	-2.9229	-2.7208	-2.7562	-2.9292	-2.8	-3.0687	-2.8708	-2.7021	-2.9938	-2.9021	-4.168	41.872	-20.584	185.760	-34.343	-59.481	166.676	-127.410	-6.740	115.566	-5.602	202.984	108.704	-76.239	-36.251	124.044	0.00062331	0.002633	0.00036114	609.89	2.6391e-05	3.2552e-05	826.83	217.7	3.0368e-05	3.253e-05	359.56	157.76	98.552	47.031	3.3432e-05	80.598	0.0029931	0.0027243	0.00071552	2455.5	3.2897e-05	3.0215e-05	1265.9	400.49	3.2631e-05	2.9464e-05	591.9	243.35	177.67	71.976	2.7616e-05	116.7	-52.622	-116.284	171.353	-125.710	26.317	0.366	-123.136	-117.922	10.297	-3.079	-118.869	-115.158	-113.518	-108.237	183.229	-110.683	-8191	255	
7169.129	1	1	0	0	0.066626	0.18926	0.24258	0.16888	0.04537	0.23157	0.19068	0.076471	0.21145	0.19209	0.33701	0.2491	0.11584	0.20794	0.095878	0.17084	-2.2604	-3.0687	-2.5187	-2.9146	-2.8187	-2.5104	-3.225	-2.7896	-2.5917	-3.1875	-2.6	-3.0438	-2.9146	-2.6896	-3	-2.8854	-11.914	-43.303	12.017	-43.439	91.393	170.085	-89.066	-4.350	-52.205	143.430	205.585	104.773	199.512	180.695	211.434	150.107	0.00038529	0.0022261	0.00044098	639.82	3.1064e-05	1.4293e-05	814.02	217.61	5.5331e-06	3.3921e-05	358.89	157.75	98.609	46.845	4.3418e-05	81.146	0.0028742	0.0026028	0.00072415	2536.8	3.1076e-05	2.8838e-05	1274.9	403.99	3.0825e-05	2.7997e-05	602.16	244.88	172.38	70.379	2.9112e-05	116.8	-29.091	-115.962	101.275	-123.275	-6.145	-32.980	-123.958	-117.696	62.167	-14.077	-119.411	-114.753	-114.122	-108.724	167.243	-110.175	-8191	255	
7169.225	1	1	0	0	0.26595	0.1502	0.23449	0.25977	0.18883	0.16491	0.2036	0.04043	0.067179	0.23508	0.19651	0.23139	0.10035	0.16538	0.1761	0.070025	-2.3187	-2.9354	-2.5792	-2.9375	-2.9271	-2.6104	-3.1063	-2.9688	-2.7	-3.1208	-3.0083	-2.8812	-3.0792	-2.75	-3.0208	-2.9583	-54.684	143.570	89.045	-70.786	195.683	123.918	-116.635	-22.965	-110.727	20.798	186.024	175.638	90.723	165.501	-52.292	163.169	0.00060773	0.0034624	0.001253	658.51	1.3826e-05	1.4269e-05	811.81	218.92	2.0372e-05	8.844e-06	356.93	159.35	98.413	46.75	4.9153e-05	80.854	0.0027517	0.002506	0.00077053	2536.9	2.996e-05	2.7923e-05	1320.4	400.58	2.9967e-05	2.7084e-05	625.78	242.82	169.77	69.873	3.1365e-05	115.12	-36.788	-60.961	102.176	-123.463	67.761	63.444	-123.769	-117.010	25.705	-8.191	-118.985	-115.058	-113.778	-108.464	159.150	-110.348	-8191	255	
7169.322	1	1	0	0	0.22805	0.13089	0.18046	0.12199	0.27571	0.13386	0.14199	0.19053	0.1921	0.082697	0.10728	0.045937	0.35155	0.28782	0.060081	0.14206	-2.05	-3.0729	-2.5646	-2.6688	-3.1167	-2.5896	-2.9417	-2.8688	-2.525	-3.1479	-2.6813	-2.6104	-3.2417	-2.5938	-2.9792	-3.1437	-97.847	-86.547	127.691	16.610	132.058	193.322	88.893	-131.529	164.199	28.721	8.049	-130.924	-97.808	158.478	126.112	143.264	0.00061983	0.00069364	0.00037737	675.32	1.9328e-05	1.0566e-05	820	219.12	8.7826e-06	2.1638e-05	361.16	159.67	98.537	46.43	4.1057e-06	81.858	0.002701	0.0025005	0.0008248	2480.1	2.927e-05	2.8336e-05	1370.6	394	2.9459e-05	2.7974e-05	647.24	239.72	167.3	71.176	3.2947e-05	113.04	204.908	149.871	-18.156	-122.998	16.856	27.806	-124.002	-116.689	-51.621	157.863	-119.005	-114.790	-113.899	-108.719	-58.171	-110.339	-8191	255	
#DATA ENDS
