BOXY.EXE: ISS Imagent and Oximeter Data Acquisition Program Version 0.80
Ascii Record File

#ACQ INFORMATION
2  Detector Channels 
16  External MUX Channels 
1  Auxiliary Channels 
5000  Waveform (CCF) Frequency (Hz)
1  Waveforms Skipped 
30  Waveforms Averaged 
1  Cycles Averaged 
16  Acquisitions per Waveform 
10.0806  Updata Rate (Hz) 

#FILE INFORMATION
TRUE -- External MUX Channel results are PARSED.
FALSE -- AC DC and Phase are NOT grouped.
TRUE -- Companion Program Settings File CREATED.
FALSE -- AC data not excluded
FALSE -- DC data not excluded
FALSE -- Phase data not excluded
FALSE -- Auxillary Chn. data not excluded
Tab delimiters

#CALIBRATION STATE
TRUE -- Waveform Calibration Values APPLIED.


#AUX CALIBRATION VALUES
Val Type	aux-1	

Term	1.0000e+00	
Factor	0.0000e+00	


#WF CALIBRATION VALUES
A = Detector Channel
Val Type	A-AC1	A-AC2	A-AC3	A-AC4	A-AC5	A-AC6	A-AC7	A-AC8	A-AC9	A-AC10	A-AC11	A-AC12	A-AC13	A-AC14	A-AC15	A-AC16	A-DC1	A-DC2	A-DC3	A-DC4	A-DC5	A-DC6	A-DC7	A-DC8	A-DC9	A-DC10	A-DC11	A-DC12	A-DC13	A-DC14	A-DC15	A-DC16	A-Ph1	A-Ph2	A-Ph3	A-Ph4	A-Ph5	A-Ph6	A-Ph7	A-Ph8	A-Ph9	A-Ph10	A-Ph11	A-Ph12	A-Ph13	A-Ph14	A-Ph15	A-Ph16	

Term	0.00000e+00	0.00000e+00	0.00000e+00	0.00000e+00	0.00000e+00	0.00000e+00	0.00000e+00	0.00000e+00	0.00000e+00	0.00000e+00	0.00000e+00	0.00000e+00	0.00000e+00	0.00000e+00	0.00000e+00	0.00000e+00	0.00000e+00	0.00000e+00	0.00000e+00	0.00000e+00	0.00000e+00	0.00000e+00	0.00000e+00	0.00000e+00	0.00000e+00	0.00000e+00	0.00000e+00	0.00000e+00	0.00000e+00	0.00000e+00	0.00000e+00	0.00000e+00	0.00000e+00	0.00000e+00	0.00000e+00	0.00000e+00	0.00000e+00	0.00000e+00	0.00000e+00	0.00000e+00	0.00000e+00	0.00000e+00	0.00000e+00	0.00000e+00	0.00000e+00	0.00000e+00	0.00000e+00	0.00000e+00	
Factor	1.00000e+00	1.00000e+00	1.00000e+00	1.00000e+00	1.00000e+00	1.00000e+00	1.00000e+00	1.00000e+00	1.00000e+00	1.00000e+00	1.00000e+00	1.00000e+00	1.00000e+00	1.00000e+00	1.00000e+00	1.00000e+00	1.00000e+00	1.00000e+00	1.00000e+00	1.00000e+00	1.00000e+00	1.00000e+00	1.00000e+00	1.00000e+00	1.00000e+00	1.00000e+00	1.00000e+00	1.00000e+00	1.00000e+00	1.00000e+00	1.00000e+00	1.00000e+00	X	X	X	X	X	X	X	X	X	X	X	X	X	X	X	X	

B = Detector Channel
Val Type	B-AC1	B-AC2	B-AC3	B-AC4	B-AC5	B-AC6	B-AC7	B-AC8	B-AC9	B-AC10	B-AC11	B-AC12	B-AC13	B-AC14	B-AC15	B-AC16	B-DC1	B-DC2	B-DC3	B-DC4	B-DC5	B-DC6	B-DC7	B-DC8	B-DC9	B-DC10	B-DC11	B-DC12	B-DC13	B-DC14	B-DC15	B-DC16	B-Ph1	B-Ph2	B-Ph3	B-Ph4	B-Ph5	B-Ph6	B-Ph7	B-Ph8	B-Ph9	B-Ph10	B-Ph11	B-Ph12	B-Ph13	B-Ph14	B-Ph15	B-Ph16	

Term	0.00000e+00	0.00000e+00	0.00000e+00	0.00000e+00	0.00000e+00	0.00000e+00	0.00000e+00	0.00000e+00	0.00000e+00	0.00000e+00	0.00000e+00	0.00000e+00	0.00000e+00	0.00000e+00	0.00000e+00	0.00000e+00	0.00000e+00	0.00000e+00	0.00000e+00	0.00000e+00	0.00000e+00	0.00000e+00	0.00000e+00	0.00000e+00	0.00000e+00	0.00000e+00	0.00000e+00	0.00000e+00	0.00000e+00	0.00000e+00	0.00000e+00	0.00000e+00	-1.74148e+02	-1.27087e+02	-1.30125e+02	-1.81316e+02	-8.55190e+01	-6.66878e+01	-1.57075e+02	-1.62015e+02	-8.14386e+01	-6.69092e+01	-1.71893e+02	-1.70622e+02	-1.79843e+02	-1.76980e+02	-7.36244e+01	-1.49926e+02	
Factor	3.06324e-05	1.62235e-04	4.72445e-05	1.48920e-01	1.49831e-06	1.76165e-06	1.72106e-01	6.28372e-02	1.68338e-06	1.86821e-06	8.65051e-02	2.99025e-02	3.08083e-02	9.61349e-03	1.55958e-06	1.36815e-02	1.62461e-05	2.79970e-05	7.84780e-06	7.48325e-02	2.67660e-07	3.17064e-07	8.15900e-02	3.16269e-02	2.77634e-07	3.15248e-07	4.25007e-02	1.47081e-02	1.57617e-02	4.89367e-03	2.89544e-07	6.76532e-03	X	X	X	X	X	X	X	X	X	X	X	X	X	X	X	X	



#DISTANCE SETTINGS
A = Detector Channel
A-1	A-2	A-3	A-4	A-5	A-6	A-7	A-8	A-9	A-10	A-11	A-12	A-13	A-14	A-15	A-16	

2.5000e+00	3.0000e+00	2.5000e+00	3.0000e+00	2.0000e+00	3.0000e+00	1.5000e+00	3.0000e+00	3.0000e+00	3.0000e+00	3.0000e+00	3.0000e+00	3.0000e+00	3.0000e+00	1.5000e+00	3.0000e+00	

B = Detector Channel
B-1	B-2	B-3	B-4	B-5	B-6	B-7	B-8	B-9	B-10	B-11	B-12	B-13	B-14	B-15	B-16	

1.0000e+01	1.0000e+01	1.0000e+01	1.4400e+00	1.0000e+01	1.0000e+01	1.5100e+00	1.9400e+00	1.0000e+01	1.0000e+01	1.9900e+00	2.4900e+00	2.4100e+00	2.9000e+00	1.0000e+01	2.9800e+00	




#DATA BEGINS
time	group	step	mark	flag	A-AC1	A-AC2	A-AC3	A-AC4	A-AC5	A-AC6	A-AC7	A-AC8	A-AC9	A-AC10	A-AC11	A-AC12	A-AC13	A-AC14	A-AC15	A-AC16	A-DC1	A-DC2	A-DC3	A-DC4	A-DC5	A-DC6	A-DC7	A-DC8	A-DC9	A-DC10	A-DC11	A-DC12	A-DC13	A-DC14	A-DC15	A-DC16	A-Ph1	A-Ph2	A-Ph3	A-Ph4	A-Ph5	A-Ph6	A-Ph7	A-Ph8	A-Ph9	A-Ph10	A-Ph11	A-Ph12	A-Ph13	A-Ph14	A-Ph15	A-Ph16	B-AC1	B-AC2	B-AC3	B-AC4	B-AC5	B-AC6	B-AC7	B-AC8	B-AC9	B-AC10	B-AC11	B-AC12	B-AC13	B-AC14	B-AC15	B-AC16	B-DC1	B-DC2	B-DC3	B-DC4	B-DC5	B-DC6	B-DC7	B-DC8	B-DC9	B-DC10	B-DC11	B-DC12	B-DC13	B-DC14	B-DC15	B-DC16	B-Ph1	B-Ph2	B-Ph3	B-Ph4	B-Ph5	B-Ph6	B-Ph7	B-Ph8	B-Ph9	B-Ph10	B-Ph11	B-Ph12	B-Ph13	B-Ph14	B-Ph15	B-Ph16	aux-1	digaux	

27417.008	1	1	0	512	0.17391	0.046387	0.23042	0.16237	0.18049	0.086592	0.43509	0.21064	0.13071	0.34723	0.15805	0.198	0.28175	0.11548	0.10682	0.19819	-1.4958	-2.2271	-1.9604	-2.1917	-2.4146	-1.9729	-2.2562	-2.2021	-1.8687	-2.3396	-2.125	-2.0687	-2.1771	-2.2021	-2.3063	-2.1396	126.260	-44.077	155.929	122.800	-65.358	170.115	-143.624	189.874	98.196	-68.647	127.193	182.543	83.891	104.313	-39.845	83.237	0.00067248	0.00060243	0.00016567	846.51	3.9314e-06	4.4596e-06	748.38	360.94	5.1727e-06	5.2965e-06	330.33	123.48	148.91	59.312	4.9353e-06	54.499	0.0006427	0.00062235	0.00017947	842.44	6.261e-06	6.8459e-06	745.9	360.27	6.7962e-06	6.8547e-06	330.95	123.99	149.59	59.821	7.1047e-06	55.006	157.805	-85.399	-70.004	-139.015	-25.585	-30.481	-140.007	-135.662	-28.067	-6.752	-137.226	-134.089	-132.603	-127.862	-13.874	-129.598	-8191	255	
27417.104	1	1	0	0	0.18519	0.065599	0.17282	0.1682	0.4282	0.13027	0.19138	0.34365	0.22534	0.22401	0.12258	0.053584	0.10225	0.082617	0.19207	0.22291	-1.3917	-2.3438	-1.9	-2.0417	-2.2896	-1.8792	-2.3146	-2.1396	-1.8604	-2.4604	-2.2458	-2.125	-2.4562	-1.9604	-2.05	-2.3063	-106.520	169.073	153.973	162.618	-111.253	43.261	172.193	159.470	-130.389	-23.449	131.003	-98.884	157.287	135.327	-63.866	103.684	0.00064358	0.00038559	0.0001686	849.58	3.1694e-06	5.3449e-06	742.81	358.92	3.9136e-06	5.7984e-06	327.43	121.64	147.53	58.832	5.0082e-06	53.859	0.0006291	0.00061716	0.00018173	841.35	6.1813e-06	6.9107e-06	740.14	357.91	6.6586e-06	6.4849e-06	326.61	122.02	148.17	59.26	6.9949e-06	54.195	156.989	-70.146	-72.138	-139.190	-10.986	5.284	-140.018	-135.331	-61.106	-8.630	-137.272	-134.251	-132.572	-127.893	-30.591	-129.815	-8191	255	
27417.199	1	1	0	0	0.17882	0.22698	0.21322	0.20904	0.27199	0.15996	0.23078	0.19452	0.25749	0.18482	0.42024	0.05093	0.36899	0.06356	0.13987	0.30033	-1.2771	-2.275	-2.0167	-2.2875	-2.4292	-1.9146	-2.3792	-2.3583	-2.0875	-2.3187	-2.1792	-2.1083	-2.3542	-2.05	-2.0667	-2.4188	134.443	-135.862	129.537	162.166	17.214	15.080	113.009	82.107	-119.325	-37.209	150.954	-121.353	149.557	-120.225	-74.084	112.937	0.00060916	0.00038537	0.00014113	841.71	3.7506e-06	4.347e-06	736.97	357.03	4.7157e-06	3.2803e-06	326.58	120.62	146.63	58.516	4.4426e-06	53.313	0.00061373	0.00059354	0.0001721	834.56	6.1718e-06	6.9067e-06	735.41	355.43	6.7691e-06	6.46e-06	324.75	120.86	146.78	58.763	6.8326e-06	53.74	158.806	-74.860	-64.491	-138.873	-41.075	4.118	-140.204	-135.526	-62.799	37.058	-137.259	-134.223	-132.708	-127.812	-36.387	-129.971	-8191	255	
27417.271	1	1	0	0	0.24467	0.14458	0.28091	0.22171	0.15038	0.18055	0.27642	0.097444	0.030862	0.20873	0.33389	0.11976	0.061089	0.26032	0.24334	0.22538	-1.4521	-2.3646	-2.0583	-2.1396	-2.4771	-1.9792	-2.2021	-2.5208	-2.05	-2.325	-2.2208	-1.8958	-2.4042	-2.1	-1.9771	-2.4792	107.095	2.154	-53.856	-18.791	54.673	10.754	63.273	1.829	154.497	-6.954	109.175	101.005	-97.709	192.905	-31.536	190.979	0.00065696	0.00048519	0.00012372	836.7	4.0355e-06	5.2663e-06	737.07	354.4	5.0587e-06	6.5193e-06	323.38	120.93	146.15	58.126	3.7319e-06	53.463	0.00063438	0.00061494	0.00016665	830.32	6.271e-06	6.8281e-06	732.5	354.07	6.5539e-06	6.5874e-06	323.03	120.8	146.33	58.525	6.7934e-06	53.844	159.933	-80.152	-66.601	-138.917	-42.687	-7.989	-139.975	-135.381	-59.988	-16.225	-137.097	-133.932	-132.686	-127.716	-42.864	-129.578	-8191	255	
27417.393	1	1	0	0	0.089297	0.28812	0.15172	0.047418	0.11789	0.1518	0.38563	0.11684	0.22347	0.031527	0.021712	0.19824	0.072615	0.14538	0.24666	0.36128	-1.4062	-2.1229	-2.1521	-2.0167	-2.3312	-2.1688	-1.9792	-2.5542	-2.0833	-2.2687	-2.2979	-2.1063	-2.3708	-2.2562	-1.9604	-2.4938	37.861	197.353	161.804	32.671	125.036	-0.078	135.961	-75.348	-5.569	27.451	131.039	150.329	-122.991	-23.142	-87.183	101.097	0.00067908	0.00047924	0.00018962	833.02	6.1419e-06	3.5573e-06	735.82	354.15	6.0668e-06	4.7128e-06	325.55	120.69	146.01	58.359	4.2428e-06	53.3	0.00063421	0.00059534	0.00017491	828.09	6.319e-06	6.6313e-06	733.57	354.36	7.1265e-06	6.8488e-06	324.89	121.12	146.47	58.618	6.8447e-06	53.823	158.100	-57.661	-62.647	-138.944	-31.780	4.184	-140.028	-135.538	-58.489	-7.795	-137.157	-134.079	-132.573	-127.829	-32.925	-129.454	-8191	255	
27417.488	1	1	0	0	0.23817	0.20322	0.20397	0.14717	0.16897	0.27116	0.10782	0.25878	0.2391	0.19078	0.21773	0.16015	0.095539	0.30974	0.043674	0.18034	-1.375	-2.0583	-2.1958	-2.1229	-2.5479	-2.2521	-2.2667	-2.4562	-2.1229	-2.275	-2.4479	-1.9125	-2.4917	-2.3292	-1.9271	-2.5563	-3.688	-89.579	168.033	-93.242	34.969	-4.867	-84.483	189.288	41.036	-69.402	150.583	33.547	126.427	199.907	-59.544	68.855	0.00063996	0.00055871	0.00015801	836.13	3.4748e-06	3.0431e-06	732.64	356.63	3.705e-06	6.4627e-06	324.48	120.28	146.89	58.493	3.6769e-06	53.235	0.0006315	0.00062013	0.0001743	831.89	6.3045e-06	6.6161e-06	733.22	355.28	6.9056e-06	6.523e-06	323.71	120.57	146.75	58.739	7.1053e-06	53.631	156.830	-66.883	-68.688	-139.133	-36.953	-22.460	-140.084	-135.503	-64.684	1.456	-137.366	-134.474	-132.655	-127.643	-14.158	-129.865	-8191	255	
27417.584	1	1	0	0	0.22932	0.2217	0.37805	0.2898	0.17804	0.10585	0.41354	0.15633	0.19617	0.25978	0.17378	0.18426	0.17488	0.30842	0.18624	0.088706	-1.4583	-2.1479	-2.1708	-2.05	-2.3063	-2.1688	-2.0125	-2.5292	-2.025	-2.2208	-2.3375	-1.8979	-2.1896	-2.3458	-1.9062	-2.3708	177.370	187.086	130.585	172.345	152.781	72.922	166.457	137.862	32.778	3.028	65.683	196.144	203.167	193.128	-89.161	158.351	0.00067499	0.00051516	0.00013475	832.89	3.7598e-06	5.9331e-06	735.22	356.39	4.3452e-06	5.784e-06	324.4	120.09	146.66	58.275	3.9782e-06	53.214	0.00064284	0.0006276	0.00017353	829.42	6.4088e-06	6.877e-06	730.01	354.64	7.2729e-06	6.8369e-06	323.3	120.41	146.84	58.678	6.7916e-06	53.734	158.001	-46.537	-60.214	-138.932	-29.554	-6.763	-140.182	-135.570	-26.743	-8.500	-137.327	-134.426	-132.538	-127.788	-32.806	-129.642	-8191	255	
27417.680	1	1	0	0	0.2815	0.22775	0.24977	0.27807	0.11221	0.18867	0.26674	0.16101	0.2351	0.28108	0.14893	0.12812	0.28738	0.10322	0.115	0.10866	-1.6042	-1.8896	-2.1896	-2.0979	-2.1063	-2.1792	-2.0021	-2.4854	-1.9896	-2.1125	-2.3896	-2.2292	-2.2521	-2.4375	-1.8125	-2.4104	-133.628	-116.360	48.577	-102.545	180.656	170.854	148.165	4.464	10.737	119.149	-72.289	147.900	-125.925	116.846	-65.616	163.326	0.00065923	0.00053483	0.00014456	840.72	4.9411e-06	4.328e-06	734.14	357.66	5.8287e-06	3.9531e-06	326.33	121.13	147.27	58.686	4.3604e-06	53.402	0.00063472	0.00061214	0.00017402	832.86	6.2783e-06	7.0468e-06	732.91	356.1	6.9542e-06	6.9742e-06	325.81	121.43	147.57	58.927	7.2796e-06	54.029	159.172	-74.613	-65.975	-139.266	-46.320	-2.509	-140.172	-135.563	-53.168	8.428	-137.036	-134.231	-132.621	-127.852	-37.822	-129.379	-8191	255	
27417.799	1	1	0	0	0.031595	0.14083	0.38472	0.18441	0.15429	0.056839	0.43313	0.15422	0.16593	0.33598	0.033331	0.25133	0.33149	0.3238	0.085738	0.15261	-1.6625	-2.0563	-2.4229	-2.0938	-1.9875	-2.3771	-2.1479	-2.4729	-2.2854	-2.0604	-2.4271	-2.1396	-2.15	-2.5604	-1.8792	-2.2771	166.358	59.654	-48.901	203.886	197.632	-7.481	78.071	148.928	154.953	-21.763	115.430	76.811	-97.249	176.300	-142.620	-130.909	0.00072223	0.00042657	0.00014848	839.81	3.7025e-06	3.6915e-06	737.32	358.23	3.6526e-06	4.4247e-06	326.94	122.13	148.46	58.808	4.8953e-06	53.699	0.00064805	0.00063717	0.00017579	834.23	6.2069e-06	6.8598e-06	735.03	357.27	7.038e-06	7.0011e-06	326.51	122.04	148.28	59.237	7.3954e-06	54.304	156.349	-65.080	-53.051	-138.766	-43.920	-14.628	-139.977	-135.806	-45.639	-2.017	-136.988	-134.188	-132.738	-127.586	-25.813	-129.772	-8191	255	
27417.871	1	1	0	0	0.14655	0.146	0.15358	0.20165	0.15322	0.040432	0.2456	0.37475	0.29051	0.18064	0.14904	0.045869	0.25152	0.18998	0.14238	0.31081	-1.7188	-1.9667	-2.2583	-2.2542	-2.2208	-2.1792	-1.9813	-2.3542	-1.9937	-1.8979	-2.3604	-2.2729	-2.1875	-2.375	-1.8958	-2.1208	111.587	33.825	127.764	-138.426	167.755	-86.372	160.391	162.823	-146.773	-141.229	6.915	153.227	133.823	172.940	60.328	193.442	0.00069571	0.00045242	0.00013775	843.6	4.0629e-06	4.4965e-06	740.77	358.54	4.569e-06	6.1302e-06	328.24	122.36	148.47	58.807	4.714e-06	53.74	0.00064243	0.00066598	0.00018168	837.86	6.3162e-06	7.1267e-06	737.27	357.55	6.8726e-06	7.1916e-06	327.33	122.51	148.6	59.382	7.3212e-06	54.358	156.113	-65.829	-58.059	-139.113	-35.178	0.102	-139.868	-135.577	-48.783	-12.344	-137.360	-134.295	-132.493	-127.824	-31.053	-129.598	-8191	255	
27417.969	1	1	0	0	0.090219	0.057902	0.093816	0.41466	0.25177	0.17281	0.083288	0.22606	0.12473	0.16967	0.13163	0.028321	0.27374	0.19462	0.073153	0.21292	-1.7437	-1.9958	-2.3958	-2.1188	-1.8646	-2.4125	-2.0917	-2.3187	-2.1479	-2.1146	-2.4604	-2.2292	-2.1583	-2.3875	-1.9083	-2.1562	141.250	-51.821	117.234	-142.656	-13.869	77.665	-69.397	166.327	75.812	109.182	149.469	66.919	135.764	165.310	5.031	136.714	0.00066418	0.00047664	0.00016034	844.39	4.4198e-06	5.6782e-06	735.05	358.09	5.5149e-06	5.8086e-06	325.23	120.52	148.19	58.742	5.5055e-06	53.643	0.00064023	0.00064731	0.00018052	835.84	6.4551e-06	7.0012e-06	734.39	356.8	6.7766e-06	7.21e-06	325.33	121.11	147.91	59.124	7.1988e-06	54.1	157.638	-92.528	-64.834	-138.920	-38.080	5.902	-139.878	-135.592	-34.943	-4.196	-137.266	-134.300	-132.687	-127.525	-23.215	-129.717	-8191	255	
27418.088	1	1	0	0	0.12123	0.21808	0.15281	0.25888	0.088968	0.11485	0.09693	0.28805	0.10551	0.183	0.20462	0.13079	0.16481	0.34383	0.30232	0.13452	-1.8792	-1.9688	-2.3354	-2.3146	-1.9521	-2.5583	-2.3542	-2.0958	-2.1771	-1.9833	-2.5333	-2.3292	-2.1625	-2.6083	-2.1979	-2.1562	-94.731	169.956	142.212	199.126	-141.421	-59.483	-111.489	170.584	142.061	53.169	152.729	172.406	-80.402	165.969	-137.409	115.889	0.00069497	0.00060783	0.00013044	837.84	5.6954e-06	4.4469e-06	736.56	356.93	4.7208e-06	5.7282e-06	326.59	121.07	147.59	59.116	3.8365e-06	54.067	0.00063871	0.00064988	0.00016902	832.27	6.4495e-06	6.986e-06	733.83	355.92	6.8043e-06	7.1831e-06	325.79	121.22	147.95	59.313	7.1469e-06	54.358	159.405	-72.160	-58.173	-138.835	-38.933	-12.073	-139.945	-135.543	-30.545	2.160	-137.189	-134.290	-132.564	-127.804	-24.104	-129.790	-8191	255	
27418.184	1	1	0	0	0.11917	0.062103	0.26787	0.23259	0.16042	0.23767	0.17585	0.46903	0.2094	0.20897	0.15097	0.089255	0.17164	0.16376	0.15761	0.12643	-1.8208	-2.0583	-2.2979	-2.2771	-1.875	-2.3167	-2.2687	-2.2812	-2.2104	-1.9208	-2.2229	-2.2375	-2.1479	-2.375	-2.0729	-2.1	77.397	-14.063	-75.626	-128.065	195.635	106.592	56.051	170.842	-146.352	-131.327	159.938	86.825	-86.840	-129.925	-68.391	143.751	0.00067268	0.00042647	8.8361e-05	834.77	3.2513e-06	5.2893e-06	737.74	357.01	4.4159e-06	5.6199e-06	325.3	121.76	147.11	59.305	3.966e-06	54.1	0.00062476	0.00063547	0.00017538	832.26	6.522e-06	6.6458e-06	734.14	356.43	6.8749e-06	7.321e-06	325.65	121.89	147.89	59.441	7.0082e-06	54.527	156.683	-57.510	-56.153	-138.918	-27.591	2.348	-140.116	-135.637	-37.346	1.667	-137.157	-134.212	-132.656	-127.641	-38.161	-129.661	-8191	255	
27418.279	1	1	0	0	0.32652	0.099975	0.095004	0.30333	0.022925	0.15833	0.14665	0.24582	0.28858	0.079256	0.26119	0.33057	0.22853	0.026513	0.25057	0.34143	-1.9896	-2.1125	-2.2625	-2.275	-1.85	-2.3896	-2.225	-2.1813	-2.3479	-1.9604	-2.2812	-2.4313	-2.1083	-2.3542	-2.1229	-1.9104	11.687	117.765	-65.583	189.451	88.207	-105.613	110.163	-148.511	173.111	-92.428	32.378	77.256	204.410	19.618	158.133	104.621	0.00068018	0.00027256	0.00013859	838.74	3.797e-06	5.1197e-06	740.5	358.98	4.6487e-06	5.1382e-06	328.16	122.77	148.52	59.505	5.3186e-06	54.391	0.00063255	0.00060439	0.00017214	832.77	6.5225e-06	6.951e-06	737	357.56	6.6239e-06	6.9611e-06	327.89	122.71	148.56	59.721	7.3749e-06	54.951	154.825	-62.259	-80.289	-138.928	-40.045	-2.431	-140.314	-135.519	-17.274	-8.933	-137.107	-134.223	-132.624	-127.802	-36.437	-129.750	-8191	255	
27418.400	1	1	0	0	0.021263	0.21798	0.16069	0.17829	0.078172	0.16107	0.23399	0.14144	0.083001	0.069886	0.20166	0.067539	0.32247	0.33372	0.21408	0.068224	-2.0104	-2.1354	-2.1333	-2.5417	-1.9354	-2.0833	-2.2875	-2.0417	-2.4938	-2.0625	-2	-2.5187	-2.1792	-2.4	-2.15	-1.9667	133.553	30.136	-47.821	111.724	-132.640	-48.378	161.545	159.182	206.239	-113.514	128.009	106.686	132.254	177.290	21.824	166.213	0.00072659	0.00046907	0.00012327	847.43	4.8696e-06	3.9088e-06	742.7	361.03	6.416e-06	5.9445e-06	329.32	122.59	148.9	59.438	5.2751e-06	54.042	0.0006669	0.00064761	0.00017242	839.05	6.9737e-06	7.0646e-06	739.44	359.34	6.8726e-06	7.4307e-06	328.17	122.61	148.86	59.688	7.3001e-06	54.624	157.279	-71.790	-65.487	-139.070	-26.701	-5.249	-140.165	-135.624	-50.212	-7.506	-137.632	-134.423	-132.781	-127.851	-21.962	-129.705	-8191	255	
27418.496	1	1	0	0	0.28313	0.083532	0.091889	0.30324	0.2448	0.10728	0.30958	0.33074	0.13794	0.053614	0.14325	0.037788	0.35727	0.27628	0.13953	0.087344	-1.8542	-2.0083	-1.9438	-2.4813	-2.0021	-2.1354	-2.3417	-2.0542	-2.2229	-2.1813	-1.9562	-2.5187	-2.15	-2.4292	-2.1312	-2.15	4.037	66.056	-53.488	196.868	-65.294	-28.321	194.706	185.560	187.479	-3.130	120.948	93.960	172.997	140.892	133.957	-106.238	0.00066676	0.00048925	0.00021384	843.79	4.3593e-06	5.7569e-06	740.46	360.64	6.1941e-06	5.8841e-06	329.74	122.94	148.72	59.406	3.1945e-06	54.175	0.00065418	0.00063997	0.00018596	836.64	6.7222e-06	7.0586e-06	738.39	359.39	7.023e-06	7.3446e-06	328.32	123.06	149.04	59.662	7.5529e-06	54.726	158.081	-54.235	-71.840	-139.092	-38.855	12.301	-139.853	-135.695	-50.602	-10.295	-137.256	-134.161	-132.510	-127.670	-34.514	-129.473	-8191	255	
27418.568	1	1	0	0	0.37738	0.10966	0.1649	0.29312	0.094255	0.13525	0.32264	0.1929	0.3044	0.033968	0.11972	0.2403	0.24344	0.32841	0.13404	0.16987	-1.9604	-2.1792	-1.7583	-2.4938	-2.0812	-2.2125	-2.3208	-2.0917	-2.3229	-2.35	-2.05	-2.5333	-2.1396	-2.1063	-2.3333	-2.1396	162.809	106.681	103.631	176.840	126.248	-20.684	158.799	130.873	119.511	165.017	-151.054	174.353	165.599	200.209	169.201	53.162	0.00069011	0.00062458	0.00012683	844.44	4.1051e-06	3.4814e-06	742.14	360.33	5.7831e-06	5.8983e-06	329.05	122.71	149.46	59.398	3.9432e-06	54.394	0.00066528	0.00065245	0.00018666	838.71	7.0361e-06	7.4068e-06	739.54	359.34	7.3099e-06	7.6842e-06	329.13	123.23	149.41	59.694	7.7272e-06	54.898	157.269	-58.576	-47.856	-139.051	-61.050	-19.787	-140.144	-135.697	-56.704	-20.181	-137.038	-134.234	-132.669	-127.626	-28.586	-129.725	-8191	255	
27418.689	1	1	0	0	0.34446	0.11023	0.19224	0.26804	0.20594	0.19737	0.12084	0.17995	0.080752	0.17747	0.12019	0.26955	0.21554	0.15888	0.18827	0.32521	-1.9292	-2.1667	-1.9312	-2.4125	-2.1792	-2.1063	-2.3667	-2.1813	-2.3208	-2.3604	-1.8646	-2.55	-2.1104	-2.175	-2.3583	-1.9375	202.581	61.645	127.154	192.291	75.083	-67.296	-60.537	100.497	104.425	-69.129	146.437	-123.707	167.900	192.775	32.404	178.138	0.0007117	0.00032394	0.0001535	842.72	2.9945e-06	4.4918e-06	744.27	359.73	4.3469e-06	4.407e-06	329.67	123.7	149.76	59.122	5.0484e-06	54.45	0.00066443	0.00067449	0.00019731	838.03	6.7885e-06	7.593e-06	741.02	359.61	7.2023e-06	7.7912e-06	329.83	123.82	149.4	59.555	7.5698e-06	55.032	157.797	-54.391	-58.765	-138.909	-41.501	-15.829	-139.892	-135.382	-46.510	-9.451	-137.285	-134.127	-132.826	-127.691	-45.238	-129.605	-8191	255	
27418.783	1	1	0	0	0.18801	0.1419	0.13106	0.21355	0.076858	0.20836	0.084134	0.16011	0.015674	0.21134	0.21977	0.062113	0.4118	0.10514	0.19076	0.29268	-1.6958	-2.4104	-1.8042	-2.5354	-2.2083	-1.7958	-2.4562	-2.0312	-2.1604	-2.3333	-2.0125	-2.3854	-2.1562	-2.1813	-2.4167	-2.225	191.689	30.511	-120.110	154.050	-40.619	38.707	126.081	162.987	151.602	138.421	194.365	-70.723	202.409	-132.424	34.578	173.046	0.00069469	0.0004695	0.00012678	845.8	2.815e-06	3.4987e-06	749.27	361.51	4.3161e-06	5.7488e-06	329.92	122.8	148.4	59.275	4.5744e-06	54.021	0.00067729	0.00070214	0.00019651	840.64	6.9809e-06	7.3559e-06	744	360.74	7.2127e-06	7.3932e-06	329.47	122.99	149	59.62	7.6271e-06	54.681	159.357	-56.408	-76.178	-139.120	-40.003	6.054	-140.118	-135.620	-52.917	-5.698	-137.198	-134.188	-132.560	-127.687	-10.427	-129.656	-8191	255	
27418.879	1	1	0	0	0.26668	0.051178	0.26034	0.38877	0.15645	0.15997	0.23712	0.20637	0.086048	0.19379	0.15876	0.34553	0.26065	0.153	0.081597	0.077154	-1.5667	-2.4771	-1.9604	-2.4	-2.1458	-2.0521	-2.4542	-2.0312	-2.1583	-2.3229	-1.9208	-2.2354	-2.2896	-2.0542	-2.4	-2.2458	132.013	-104.855	166.945	151.167	-44.495	11.277	108.562	85.435	141.124	60.765	82.222	-137.279	-127.713	184.221	52.127	114.495	0.00070375	0.00057063	0.00015153	844.35	4.8196e-06	5.5709e-06	736.99	360.53	6.6946e-06	5.3727e-06	327.03	122.12	148	59.286	5.4144e-06	53.967	0.00067611	0.00067269	0.00019015	838.69	6.8644e-06	7.3552e-06	737.47	358.87	6.9553e-06	7.2816e-06	326.57	122.29	148.37	59.502	7.3309e-06	54.638	156.829	-52.008	-82.477	-139.083	-29.164	16.073	-139.993	-135.494	-60.028	-11.111	-137.001	-134.275	-132.755	-127.797	-42.647	-129.668	-8191	255	
27418.975	1	1	0	0	0.23173	0.24258	0.21969	0.22348	0.272	0.17602	0.33917	0.094194	0.21086	0.28181	0.1517	0.35993	0.17647	0.3676	0.13725	0.38279	-1.6562	-2.2313	-1.9667	-2.2729	-2.2125	-1.9583	-2.45	-2.2604	-2.1146	-2.4979	-2.1188	-2.2396	-2.4021	-2.0542	-2.3729	-2.2479	-35.555	-124.458	178.960	-130.563	-78.734	176.432	122.883	46.349	81.045	-4.630	130.461	111.273	-120.991	198.585	154.841	185.306	0.00070505	0.00039418	0.00017562	840.03	3.3748e-06	6.6939e-06	738.04	359.58	5.0779e-06	7.0139e-06	327.66	122.04	147.31	59.247	4.135e-06	54.45	0.0006578	0.00067554	0.00018271	835.15	6.7054e-06	7.2377e-06	737.8	358.56	7.3145e-06	7.3046e-06	327.55	122.57	148.31	59.442	7.0812e-06	54.824	158.354	-40.588	-70.035	-139.143	-29.969	-2.199	-139.931	-135.706	-59.115	-0.967	-137.135	-134.111	-132.550	-127.612	-28.575	-129.671	-8191	255	
27419.072	1	1	0	0	0.18183	0.30229	0.18026	0.41733	0.1645	0.24691	0.084632	0.36986	0.12178	0.084073	0.17292	0.082012	0.28479	0.27698	0.2803	0.055358	-1.4229	-2.3187	-1.9333	-2.2229	-2.2833	-1.8167	-2.5187	-2.1875	-2.0271	-2.5187	-2.2	-2.2562	-2.35	-2.0479	-2.2854	-2.2792	-127.138	-6.436	-148.743	164.924	-112.929	119.154	-23.151	187.357	80.968	116.262	206.128	-76.207	-143.183	7.074	-15.386	-91.448	0.00067893	0.00044032	0.00017641	841.09	3.2799e-06	5.9466e-06	737.74	359.34	4.8463e-06	4.4953e-06	328.67	122.87	148.11	59.42	4.6523e-06	54.545	0.00066843	0.00066149	0.00018434	834.29	6.6486e-06	7.4992e-06	735.79	358.64	6.8749e-06	6.8192e-06	328.09	122.98	148.34	59.651	7.1541e-06	54.998	156.535	-78.797	-72.401	-138.770	-40.879	-3.220	-139.973	-135.434	-43.080	-16.218	-137.006	-133.993	-132.288	-127.684	-21.651	-129.634	-8191	255	
27419.168	1	1	0	0	0.15585	0.062553	0.057239	0.30052	0.11196	0.28975	0.25185	0.23896	0.10065	0.10538	0.22152	0.17225	0.31549	0.16284	0.19926	0.11735	-1.5229	-2.3458	-1.975	-2.1958	-2.3104	-1.9396	-2.325	-2.2687	-2.0021	-2.525	-2.0938	-2.1917	-2.1729	-2.1375	-2.2333	-2.3083	-34.367	-6.513	92.406	177.583	125.457	66.601	-137.807	181.767	-141.698	-31.948	-151.327	178.134	-143.695	205.702	106.631	192.037	0.00071707	0.0004261	0.00015005	843.34	5.3864e-06	3.9631e-06	742.41	361.66	4.8279e-06	3.5656e-06	331.96	124	149.95	59.737	5.9661e-06	54.705	0.00066328	0.00066353	0.00018138	837.52	6.9826e-06	7.6994e-06	742.39	360.52	7.3579e-06	7.2908e-06	331.76	124.56	150.39	60.079	7.4105e-06	55.29	157.108	-62.240	-80.903	-138.861	-48.073	7.295	-140.128	-135.391	-34.850	-12.693	-137.265	-134.416	-132.821	-127.716	-35.158	-129.724	-8191	255	
27419.264	1	1	0	0	0.20969	0.43132	0.2811	0.21804	0.082918	0.25711	0.093504	0.19726	0.067506	0.15269	0.13734	0.24629	0.15165	0.36064	0.28679	0.42875	-1.5792	-2.3438	-1.85	-2.1229	-2.3208	-1.9458	-2.4479	-2.4354	-1.9417	-2.1562	-2.0583	-2.0708	-2.3042	-2.0229	-2.1417	-2.2229	-16.792	-114.026	-2.209	189.864	-29.932	124.096	145.351	157.239	-49.767	-121.369	75.929	109.424	123.930	146.720	101.799	146.501	0.00070487	0.00044766	0.0001429	848.53	5.9156e-06	4.4369e-06	741.94	361.07	6.0835e-06	3.7338e-06	328.53	122.08	148.29	59.104	5.3456e-06	53.973	0.00070122	0.00066767	0.00019288	842.86	7.0166e-06	7.7621e-06	740.61	360.18	7.2648e-06	7.2205e-06	327.87	122.47	148.51	59.444	7.2488e-06	54.647	157.960	-68.024	-55.557	-138.891	-8.670	-12.848	-140.340	-135.683	-54.975	-14.524	-137.269	-134.069	-132.699	-127.818	-36.588	-129.460	-8191	255	
27419.359	1	1	0	0	0.075784	0.072542	0.29621	0.30278	0.28666	0.23659	0.21643	0.14655	0.076199	0.1652	0.073649	0.27531	0.38505	0.37109	0.095693	0.24098	-1.4104	-2.2646	-2.1229	-2.0729	-2.2292	-2.0604	-2.2854	-2.6375	-1.9937	-2.3729	-2.3542	-2.1646	-2.525	-2.2292	-1.9792	-2.6458	184.015	164.541	149.036	144.626	38.838	126.361	101.585	-139.924	80.082	-71.644	-98.669	99.957	148.299	191.460	-21.627	159.775	0.0006286	0.00040236	0.00011625	840.4	3.8893e-06	5.5584e-06	734.9	358.23	4.6413e-06	6.0622e-06	326.81	121.82	148.13	59.162	4.9017e-06	54.701	0.00068247	0.00063396	0.00018037	835.02	6.5359e-06	7.1888e-06	735.25	357.39	7.1352e-06	6.858e-06	326.25	122.19	148.09	59.492	7.2066e-06	54.91	155.672	-71.410	-69.596	-139.077	-33.139	-2.988	-140.124	-135.518	-43.808	-2.815	-137.249	-134.340	-132.542	-127.761	-18.689	-129.587	-8191	255	
27419.480	1	1	0	0	0.22082	0.1299	0.39753	0.13426	0.062237	0.19998	0.18058	0.13692	0.25206	0.22583	0.33695	0.31487	0.33377	0.10119	0.21223	0.02953	-1.5146	-2.2417	-2.2708	-2.1583	-2.4562	-2.1292	-2.0938	-2.4542	-2.0083	-2.4062	-2.3438	-2.0292	-2.3563	-2.1937	-2.2583	-2.6854	31.937	94.740	-152.062	18.258	196.529	64.200	165.312	203.033	-9.662	62.015	124.372	127.952	-149.660	174.399	-40.643	-61.901	0.00070989	0.00041138	0.00013348	839.14	4.5552e-06	4.2688e-06	736.77	356.03	5.8305e-06	5.3486e-06	327.28	121.8	148.29	59.132	3.4007e-06	54.587	0.00067486	0.00063437	0.00018498	833.83	6.3631e-06	7.5792e-06	734.32	356.71	7.0392e-06	6.9263e-06	326.68	122.2	148.24	59.51	7.3472e-06	55.045	160.141	-69.776	-55.554	-139.029	-38.833	-10.826	-139.954	-135.731	-34.555	2.962	-137.166	-133.924	-132.386	-127.634	-54.734	-129.713	-8191	255	
27419.576	1	1	0	0	0.19833	0.15319	0.10809	0.3156	0.33481	0.10838	0.21434	0.18004	0.13421	0.19466	0.15398	0.18488	0.1147	0.042576	0.13029	0.044473	-1.5458	-2.3417	-2.1042	-2.0104	-2.3937	-2.1521	-2.0563	-2.4167	-2.1417	-2.1229	-2.2	-2.0354	-2.3542	-2.525	-1.9417	-2.4896	166.682	-82.287	36.842	-133.212	-118.614	125.701	64.336	166.591	79.371	-67.370	171.244	161.771	-153.021	-64.212	90.069	122.260	0.00068085	0.00047831	0.00019298	835.3	5.3316e-06	4.3398e-06	738.92	357.56	4.56e-06	3.9781e-06	326.86	122.13	147	59.046	5.2785e-06	54.608	0.00067976	0.00063127	0.00018576	832.89	6.5839e-06	7.5157e-06	735.81	357.03	7.1901e-06	7.1968e-06	326.42	122.45	147.75	59.397	7.2169e-06	55.142	159.368	-81.959	-71.623	-138.881	-14.703	0.856	-139.861	-135.371	-35.423	7.580	-137.339	-133.947	-132.699	-127.657	-29.624	-129.647	-8191	255	
27419.674	1	1	0	0	0.13781	0.12507	0.24382	0.23769	0.17921	0.17512	0.13366	0.21269	0.057653	0.099511	0.35198	0.10846	0.24161	0.44781	0.13585	0.27487	-1.6604	-2.0958	-2.1854	-2.1208	-2.3333	-2.1562	-2.3187	-2.4708	-1.9708	-2.3312	-2.3812	-1.9354	-2.2188	-2.2792	-2.1188	-2.6083	-151.727	-7.540	71.154	100.340	175.489	90.773	127.954	-142.208	90.716	109.168	136.710	-28.799	165.925	146.469	158.502	171.553	0.00070376	0.0004731	0.00014313	835.94	3.8326e-06	4.4199e-06	735.34	358.43	5.4606e-06	5.9594e-06	326.99	121.59	147.88	59.228	5.3291e-06	54.36	0.000651	0.00063997	0.00018014	832.63	6.314e-06	7.124e-06	734.6	357.64	6.9958e-06	7.2028e-06	326.14	121.82	148.16	59.613	7.4467e-06	54.824	155.437	-62.960	-62.601	-138.749	-27.429	13.389	-140.053	-135.552	-39.495	-8.075	-137.228	-134.039	-132.423	-127.719	-9.663	-129.487	-8191	255	
27419.770	1	1	0	0	0.15691	0.08875	0.097306	0.12833	0.074436	0.050782	0.18475	0.30862	0.15761	0.19748	0.22275	0.2309	0.21485	0.24037	0.2247	0.44271	-1.5771	-2.1104	-2.4708	-2.2708	-2.2271	-2.3042	-2.2229	-2.525	-2.2542	-2.0917	-2.5625	-2.1562	-2.3792	-2.5146	-1.8583	-2.4375	-79.393	-72.500	20.053	-92.504	168.410	-123.578	126.268	187.481	-122.533	94.621	65.283	187.459	157.529	143.969	-27.023	49.381	0.00069863	0.00029044	0.00012373	837.95	3.5437e-06	5.135e-06	740.55	359.48	5.9833e-06	4.9782e-06	326.82	122.21	148.79	59.573	4.3313e-06	54.484	0.00066206	0.00065863	0.00017803	833.5	6.5387e-06	7.4193e-06	735.58	357.92	7.0571e-06	7.2303e-06	327.17	122.41	149.05	59.909	7.4202e-06	55.086	155.893	-63.385	-78.938	-139.161	-9.516	-10.182	-140.090	-135.698	-34.155	2.173	-137.062	-134.220	-132.934	-127.836	-20.388	-129.503	-8191	255	
27419.863	1	1	0	0	0.3613	0.20534	0.12704	0.24715	0.13257	0.15089	0.18539	0.1563	0.03381	0.43106	0.29645	0.15526	0.32584	0.40395	0.10977	0.15703	-1.5833	-2.0875	-2.4146	-2.15	-2.0854	-2.2083	-2.0542	-2.4021	-2.1312	-1.9417	-2.3958	-2.1417	-2.4375	-2.4479	-1.8896	-2.6021	-30.058	154.592	-147.526	197.949	55.893	-141.356	127.929	154.819	0.867	197.165	-143.570	-78.514	-99.248	157.463	-120.864	-137.232	0.000686	0.00043531	0.00015651	843.95	3.505e-06	5.0487e-06	742.34	361.39	4.8107e-06	4.9442e-06	329	123	149.61	59.704	4.3688e-06	54.814	0.00066623	0.00065915	0.00017877	838.11	6.6296e-06	7.5164e-06	740.16	359.57	7.3018e-06	7.5187e-06	328.46	123.57	149.56	60.137	7.5601e-06	55.402	157.959	-55.211	-62.208	-139.060	-24.699	-10.553	-139.902	-135.583	-40.130	7.779	-137.003	-134.389	-132.319	-127.714	-26.454	-129.607	-8191	255	
27419.961	1	1	0	0	0.36231	0.38323	0.090409	0.084741	0.025572	0.11206	0.12996	0.25296	0.15304	0.19312	0.12799	0.037792	0.12422	0.3382	0.12881	0.33385	-1.6063	-1.8312	-2.3917	-1.9375	-2.0062	-2.4271	-1.9417	-2.2833	-2.2667	-2.0083	-2.4833	-2.05	-2.1604	-2.5146	-2.0625	-2.2521	25.038	99.325	114.829	84.062	-10.086	42.729	127.347	120.482	74.232	177.281	99.095	144.446	-148.609	187.993	100.289	161.298	0.00073763	0.00059535	0.00016446	846.35	4.6053e-06	6.0339e-06	743.43	361.23	5.7098e-06	4.1995e-06	329.56	123.95	149.52	59.703	4.4482e-06	54.999	0.00069493	0.00071182	0.00019049	840.35	6.9224e-06	7.453e-06	741.94	360.96	7.4909e-06	7.7512e-06	329.74	124.08	149.85	60.157	7.5215e-06	55.573	155.886	-58.403	-66.140	-139.053	-55.722	-9.628	-140.134	-135.278	-37.126	-33.004	-137.256	-134.105	-132.330	-127.346	-39.918	-129.397	-8191	255	
27420.080	1	1	0	0	0.15749	0.094501	0.2326	0.21814	0.32883	0.22096	0.1257	0.38151	0.16734	0.20545	0.035345	0.0965	0.13472	0.1591	0.22406	0.14404	-1.5625	-1.8625	-2.5625	-2.1521	-2.0083	-2.5312	-1.9917	-2.3625	-2.5229	-2.0542	-2.3958	-2.125	-2.2604	-2.4396	-2.0062	-2.3812	101.923	201.237	192.786	122.683	131.256	-66.029	28.969	158.004	-36.991	-92.941	-114.736	62.158	-150.477	183.015	-33.910	120.208	0.00066078	0.0005969	0.00015667	843.78	5.3294e-06	4.5207e-06	743.27	360.89	4.1239e-06	4.2942e-06	329.67	122.86	149.17	59.946	4.0383e-06	54.749	0.00068504	0.00067613	0.00017756	839.98	6.7579e-06	7.2509e-06	741.94	360.27	7.1873e-06	7.3177e-06	328.71	123.05	149.62	60.259	7.1186e-06	55.212	154.783	-67.698	-65.363	-138.928	-36.377	3.703	-140.021	-135.434	-50.657	-8.777	-137.052	-134.008	-132.522	-127.491	-8.571	-129.637	-8191	255	
27420.176	1	1	0	0	0.10639	0.11864	0.1422	0.22364	0.023074	0.13266	0.37993	0.34692	0.26649	0.17664	0.11603	0.35609	0.21166	0.3141	0.4157	0.26169	-1.9042	-1.8125	-2.4729	-2.3	-1.9771	-2.5187	-2.1021	-2.2958	-2.2	-2.2479	-2.4021	-2.2042	-2.0458	-2.6542	-1.9417	-2.25	126.014	-35.671	186.345	140.975	61.641	21.066	96.367	117.436	115.712	5.292	99.996	32.590	189.856	179.774	122.742	135.408	0.00067747	0.00052313	9.7321e-05	843.66	4.4696e-06	6.0776e-06	736.01	358.07	5.1841e-06	5.7617e-06	325.24	121.09	148.47	59.674	4.052e-06	54.507	0.00066244	0.00066289	0.00017494	837.2	6.5738e-06	6.6656e-06	733.76	357.9	6.7176e-06	6.7043e-06	324.78	121.72	148.51	60.048	6.6909e-06	55.174	156.724	-48.267	-57.580	-138.887	-25.988	-16.166	-139.940	-135.453	-17.456	6.059	-137.161	-133.971	-132.653	-127.668	-26.011	-129.733	-8191	255	
27420.273	1	1	0	0	0.36822	0.26274	0.13665	0.24739	0.11636	0.1983	0.25242	0.19817	0.27448	0.12428	0.23172	0.23795	0.10199	0.17909	0.16792	0.055444	-1.875	-1.8667	-2.3229	-2.325	-2.1688	-2.3792	-2.2792	-2.2188	-2.3167	-1.9625	-2.5104	-2.1771	-2.0354	-2.3958	-2.1958	-1.9792	-47.906	-114.436	-63.075	176.214	0.209	155.584	165.794	149.232	64.545	2.745	152.848	156.885	133.592	47.248	-150.656	30.038	0.00067448	0.00063783	0.00017993	841.16	4.4426e-06	4.279e-06	733.9	359.75	5.6333e-06	5.9183e-06	325.46	121.63	148.49	59.75	3.5506e-06	54.875	0.00062432	0.00062801	0.00016729	834.36	6.2253e-06	6.5976e-06	730.82	357.34	6.6042e-06	6.7345e-06	324.85	121.72	148.38	60.101	6.7735e-06	55.315	160.310	-54.886	-60.576	-138.940	-20.845	19.505	-139.893	-135.387	-34.620	-4.636	-137.107	-134.210	-132.116	-127.677	-8.652	-129.581	-8191	255	
27420.369	1	1	0	0	0.1268	0.11878	0.090935	0.070301	0.1029	0.077649	0.13009	0.25752	0.13387	0.20971	0.17669	0.34916	0.23673	0.08498	0.13578	0.18009	-1.7458	-2.1333	-2.2292	-2.2104	-1.9229	-2.55	-2.1979	-2.2062	-2.5125	-2.0062	-2.2021	-2.2854	-1.9375	-2.3563	-2.1688	-2.0042	193.036	20.333	180.626	102.281	180.291	100.573	139.461	123.727	-136.083	192.645	173.177	205.964	190.394	154.029	-94.038	81.503	0.00072762	0.00047438	0.00011722	842.45	4.4931e-06	5.038e-06	734.86	357.2	4.3117e-06	5.4034e-06	325.41	121.44	148.49	59.489	4.2513e-06	54.852	0.00063367	0.00063752	0.00016747	834.34	6.3179e-06	6.445e-06	732.54	356.8	6.3254e-06	6.6754e-06	325.12	122.06	148.74	59.996	7.0275e-06	55.316	157.119	-70.055	-85.481	-138.938	-19.763	-14.997	-139.970	-135.446	-37.136	-3.877	-136.977	-134.071	-132.693	-127.553	-36.038	-129.676	-8191	255	
27420.465	1	1	0	0	0.1931	0.21514	0.096714	0.12691	0.10486	0.28361	0.13524	0.31922	0.11305	0.21749	0.17257	0.16266	0.057338	0.21229	0.12786	0.29991	-1.7604	-1.9771	-2.0563	-2.4104	-1.9667	-2.2687	-2.2229	-1.9792	-2.4208	-2.075	-2.2771	-2.4125	-2.0854	-2.2979	-2.2604	-1.9438	167.309	80.282	162.015	91.631	-101.365	153.702	116.638	170.826	-107.981	77.127	187.004	189.596	-38.856	195.531	135.811	173.420	0.00071854	0.00054855	0.00014381	840.03	5.3579e-06	3.9494e-06	734.22	357.21	4.773e-06	3.8189e-06	326.58	121.88	148.27	59.837	4.4211e-06	54.554	0.00063455	0.00062165	0.00017198	833.89	5.8991e-06	6.4747e-06	731.09	356.18	6.3127e-06	6.4265e-06	325.31	121.8	148.5	60.095	6.8556e-06	55.008	157.067	-61.393	-46.446	-138.787	-16.987	4.294	-140.140	-135.667	-57.623	-8.795	-136.968	-134.144	-132.745	-127.697	-6.363	-129.396	-8191	255	
27420.561	1	1	0	0	0.11426	0.2001	0.12714	0.27133	0.21983	0.23798	0.49432	0.17181	0.13937	0.14918	0.15123	0.23498	0.12022	0.43352	0.18179	0.071331	-1.8396	-2.0271	-2.1271	-2.3104	-1.8354	-2.225	-2.2208	-2.0979	-2.3792	-2.1896	-2.1292	-2.4479	-1.9688	-2.125	-2.4562	-2.2271	86.730	155.010	-8.446	81.408	141.692	-72.030	98.070	144.773	165.596	12.412	147.184	170.474	-76.493	168.892	-13.850	174.703	0.0006845	0.00040384	0.00013078	840.38	3.6847e-06	6.2728e-06	729.48	358.17	5.7042e-06	5.9934e-06	321.73	119.88	147.21	59.144	3.3544e-06	54.017	0.00061475	0.00059709	0.00015926	832.74	5.8863e-06	6.4754e-06	726.54	355.46	6.2751e-06	6.5637e-06	321.29	120.05	147.32	59.533	6.4743e-06	54.426	158.267	-77.301	-74.047	-138.843	-40.336	-16.993	-140.200	-135.512	-47.728	-6.960	-136.819	-133.944	-132.321	-127.760	-25.491	-129.454	-8191	255	
27420.656	1	1	0	0	0.26521	0.33185	0.18981	0.39599	0.067891	0.13292	0.40567	0.25577	0.083066	0.2041	0.27482	0.19015	0.23329	0.16932	0.22305	0.25778	-2.0292	-1.9	-2.0312	-2.4896	-1.9625	-2.2208	-2.1979	-2.0438	-2.3875	-2.1458	-2.1417	-2.2875	-2.1042	-2.2479	-2.3375	-1.9125	-102.181	164.549	-51.434	194.249	-47.165	128.007	96.961	-90.553	-122.182	19.103	113.997	65.716	-105.041	67.271	-87.496	101.586	0.00068443	0.00057313	0.00013436	831.36	3.1863e-06	5.5821e-06	722.69	354.22	6.4238e-06	3.6365e-06	320.18	119.28	145.64	59.006	4.8983e-06	53.601	0.00060419	0.00059651	0.00016358	826.65	5.7407e-06	6.4463e-06	720.24	353.06	5.9813e-06	6.2373e-06	320.05	119.42	146.5	59.186	6.6342e-06	54.203	157.184	-69.593	-76.898	-139.005	-38.851	-19.840	-140.103	-135.489	-32.905	-12.672	-137.157	-134.109	-132.536	-127.765	-53.513	-129.584	-8191	255	
27420.754	1	1	0	0	0.15345	0.32917	0.1931	0.39524	0.1231	0.084928	0.074392	0.17431	0.085356	0.19175	0.23491	0.079172	0.28841	0.10004	0.079077	0.25473	-1.9896	-2.3812	-1.9917	-2.4938	-2.0542	-2.2875	-2.2979	-1.95	-2.2313	-2.2167	-2.0375	-2.4771	-2.0979	-2.2292	-2.3604	-2.0125	-103.613	-123.607	-50.845	177.318	-78.129	-88.513	-100.639	205.462	67.695	147.935	94.818	157.284	180.210	139.371	7.081	-128.301	0.0007013	0.0005049	0.00013701	829.29	4.58e-06	3.8742e-06	719.97	352.51	7.7031e-06	4.1232e-06	319.12	118.54	145.54	58.702	4.9702e-06	53.396	0.00061542	0.00059628	0.0001545	824.25	5.9727e-06	6.1966e-06	718.77	351.56	5.9853e-06	6.1486e-06	318.71	119.05	145.71	58.941	6.0285e-06	54.107	156.398	-76.803	-68.442	-139.056	-23.085	5.817	-139.946	-135.486	-44.761	16.239	-137.049	-133.923	-132.270	-127.786	-35.090	-129.614	-8191	255	
27420.871	1	1	0	0	0.1262	0.14618	0.0438	0.070258	0.32162	0.14932	0.17181	0.29684	0.36894	0.22603	0.054244	0.20416	0.34686	0.2401	0.25385	0.21052	-1.6021	-2.1521	-1.9646	-2.5229	-2.1271	-2.1021	-2.4875	-1.9542	-2.2417	-2.2792	-2.0542	-2.375	-2.1604	-2.125	-2.2542	-2.0792	189.757	-35.498	-1.029	16.009	33.636	177.706	145.991	188.773	174.380	94.257	-126.889	131.054	137.454	144.837	82.111	-98.058	0.00066461	0.00042766	0.00014855	827.86	3.5043e-06	4.7943e-06	719.36	351.57	5.4184e-06	4.3805e-06	319.05	119.13	145.24	58.973	3.8095e-06	53.813	0.00058645	0.00054909	0.00016214	821.01	5.6694e-06	6.2673e-06	717.76	350.48	6.2792e-06	6.28e-06	318.58	119.04	145.72	59.125	6.0967e-06	54.414	155.560	-63.707	-57.598	-139.001	-37.252	2.665	-140.038	-135.350	-50.275	-4.437	-137.108	-133.938	-132.484	-127.518	-24.105	-129.520	-8191	255	
27420.969	1	1	0	0	0.22009	0.53027	0.061304	0.17559	0.13006	0.23829	0.2859	0.30554	0.1779	0.24337	0.21308	0.095844	0.17866	0.23771	0.15564	0.37393	-1.6854	-2.1562	-1.8021	-2.4813	-2.2583	-2.0104	-2.4167	-2.1625	-2.1437	-2.3208	-1.7917	-2.35	-2.4042	-2.0812	-2.3521	-2.2771	91.734	-18.268	-89.502	-2.321	-31.688	-40.480	72.004	-139.919	43.049	-12.016	188.362	105.707	175.925	174.224	153.350	-104.251	0.00070131	0.00034843	0.00014204	830.05	3.8086e-06	4.8766e-06	717.23	352.8	5.0957e-06	4.3836e-06	319.46	118.6	145.12	58.923	4.7832e-06	53.61	0.00061146	0.00054862	0.00016685	823.7	5.777e-06	6.2521e-06	717.44	351.95	6.0802e-06	5.8084e-06	319.26	118.93	145.87	59.368	6.2596e-06	54.297	155.227	-75.338	-63.201	-138.751	-43.486	-23.277	-140.065	-135.359	-48.296	-6.688	-137.092	-134.053	-132.732	-127.698	-34.046	-129.400	-8191	255	
27421.043	1	1	0	0	0.15732	0.031186	0.18856	0.10847	0.065346	0.082484	0.14324	0.32978	0.10463	0.22304	0.069031	0.1973	0.19054	0.34084	0.11006	0.29218	-1.6187	-2.1875	-1.8542	-2.3688	-2.2875	-2.0667	-2.5167	-2.1479	-2.2562	-2.3396	-2.0042	-2.3229	-2.3417	-2.0625	-2.4083	-2.2208	11.537	192.152	184.203	121.891	152.608	61.938	-115.966	147.749	-129.577	-57.955	174.188	133.171	153.528	198.512	203.273	126.280	0.00065708	0.00047984	0.00014564	826.9	4.5801e-06	4.3491e-06	720.52	351.48	6.1324e-06	2.7982e-06	318.47	118.4	145.06	58.906	4.3345e-06	53.699	0.00061001	0.00055644	0.00016014	821.91	5.8835e-06	6.1477e-06	717.57	351.89	6.2161e-06	6.1519e-06	317.41	118.65	145.52	59.232	6.0919e-06	54.236	157.181	-52.762	-55.998	-138.949	-43.628	-8.326	-140.157	-135.241	-54.492	-15.013	-136.968	-133.891	-132.653	-127.421	-33.981	-129.432	-8191	255	
27421.160	1	1	0	0	0.18397	0.08835	0.24579	0.17066	0.027466	0.18948	0.25826	0.15335	0.091862	0.17618	0.11192	0.17635	0.33392	0.087903	0.17319	0.094223	-1.6583	-2.2271	-1.9542	-2.2833	-2.1917	-1.9667	-2.275	-2.2542	-1.9521	-2.4292	-2.0062	-2.4625	-2.3187	-2.1167	-2.3417	-2.2042	158.742	61.563	154.628	149.577	184.390	-5.461	8.816	-112.182	194.034	182.618	-150.496	162.633	180.721	-76.360	-48.005	70.056	0.00069049	0.00053173	0.00015167	826.41	3.7101e-06	6.4466e-06	719.06	353.44	5.1315e-06	5.0963e-06	320.64	119.35	146.55	59.022	5.1852e-06	53.999	0.00059207	0.00052051	0.00017206	820.12	5.6158e-06	6.1147e-06	716.87	352.73	6.2364e-06	5.9726e-06	319.88	119.57	146.42	59.419	6.2741e-06	54.488	158.533	-68.657	-66.873	-138.763	-38.116	4.865	-139.867	-135.569	-50.878	14.536	-137.249	-134.176	-132.727	-127.766	-32.817	-129.628	-8191	255	
27421.258	1	1	0	0	0.33405	0.19387	0.12406	0.086813	0.17397	0.072406	0.13655	0.15221	0.13146	0.27698	0.15486	0.036881	0.27595	0.26891	0.11551	0.3033	-1.4583	-2.3083	-2.0938	-2.4083	-2.4583	-1.95	-2.4188	-2.3083	-2.1229	-2.3312	-2.1083	-2.3229	-2.3917	-1.9813	-2.2438	-2.3917	148.983	154.474	-117.847	167.897	123.113	-16.565	193.477	162.718	134.431	30.189	-133.887	77.989	130.979	184.543	9.016	186.293	0.00070848	0.00058536	0.00014326	830.63	3.9854e-06	4.4944e-06	721.37	353.72	5.0961e-06	6.6139e-06	322.69	119.61	146.95	59.408	3.4893e-06	54.515	0.00060791	0.00054034	0.00016369	823.57	5.6398e-06	6.1273e-06	719.53	352.81	5.9124e-06	6.0094e-06	321.29	120.02	147.03	59.584	6.4339e-06	54.871	158.020	-64.218	-59.494	-138.795	-31.567	0.016	-140.044	-135.646	-51.845	-11.443	-137.207	-133.839	-132.370	-127.611	-28.201	-129.372	-8191	255	
27421.354	1	1	0	0	0.16211	0.071871	0.20496	0.33384	0.1784	0.054505	0.12816	0.23378	0.070185	0.088754	0.24123	0.27817	0.13149	0.31408	0.1842	0.11205	-1.7021	-2.3917	-2.0062	-1.9646	-2.3146	-1.9188	-2.225	-2.4479	-2.0812	-2.2875	-2.0979	-2.1188	-2.5604	-2.0646	-2.2854	-2.3125	90.689	-64.548	76.788	-133.320	-115.165	194.317	159.304	157.894	142.286	27.000	131.445	110.023	169.377	168.114	9.894	46.783	0.00069567	0.0004396	0.00015667	829.08	3.5095e-06	4.5474e-06	725.98	357.35	7.049e-06	4.4601e-06	324.18	120.46	146.76	59.61	3.3598e-06	54.151	0.00061925	0.00055172	0.00017141	825.22	5.8707e-06	6.3241e-06	724.97	354.98	6.4394e-06	5.9785e-06	322.09	120.5	147.08	59.817	6.2801e-06	54.76	159.279	-70.972	-64.841	-138.862	-21.408	-2.628	-139.970	-135.492	-33.753	3.364	-136.929	-133.960	-132.578	-127.671	-21.748	-129.453	-8191	255	
27421.449	1	1	0	0	0.40015	0.19856	0.08776	0.10684	0.084437	0.093349	0.14843	0.03194	0.11692	0.073441	0.15761	0.25988	0.21359	0.12959	0.28158	0.032042	-1.5125	-2.2354	-2.0812	-2.1875	-2.4479	-1.9562	-2.2271	-2.3479	-2.0146	-2.4708	-2.3708	-2.1042	-2.4646	-2.1146	-2.2271	-2.3563	-18.952	-13.110	-82.388	180.824	170.586	-138.866	-118.725	-74.171	177.274	182.142	120.856	-83.191	71.467	157.847	99.787	87.849	0.00068248	0.00038548	0.00014267	829.36	3.2141e-06	4.1151e-06	727	354.32	5.0535e-06	6.8727e-06	320.96	120.21	146.29	59.352	4.3657e-06	54.23	0.00060256	0.00055078	0.00016556	825.99	5.7129e-06	6.4087e-06	723.07	353.46	6.4932e-06	6.3306e-06	321.17	120.05	146.8	59.636	6.601e-06	54.743	158.811	-59.657	-73.868	-138.913	-33.242	-2.671	-139.975	-135.394	-47.213	1.374	-137.229	-134.282	-132.410	-127.600	-18.440	-129.664	-8191	255	
27421.570	1	1	0	0	0.25585	0.081209	0.092442	0.09127	0.23198	0.13743	0.08302	0.42559	0.07208	0.18658	0.078085	0.21458	0.11868	0.34944	0.05765	0.20678	-1.5125	-2.2625	-2.0563	-2.1542	-2.3729	-1.9729	-2.2042	-2.4958	-1.8833	-2.3542	-2.4104	-2.1625	-2.5854	-2.1437	-2.1292	-2.525	-110.461	-25.999	-41.514	79.739	61.114	31.698	-116.410	142.512	179.055	32.308	139.015	143.047	158.852	148.880	-43.687	143.757	0.00069043	0.00049212	0.00013948	831.65	2.9073e-06	4.788e-06	723.85	354.94	5.5117e-06	5.5669e-06	322.97	120.08	147.09	59.377	3.5151e-06	54.557	0.00061356	0.00056274	0.0001691	824.37	5.8523e-06	6.4159e-06	721.96	353.95	6.4573e-06	6.4646e-06	321.48	120.45	147.3	59.678	6.6287e-06	54.898	160.319	-43.054	-78.589	-138.850	-21.185	-8.365	-140.167	-135.545	-37.040	-6.051	-137.131	-134.056	-132.469	-127.652	-18.693	-129.348	-8191	255	
27421.666	1	1	0	0	0.040385	0.12474	0.090989	0.31596	0.32018	0.1541	0.045346	0.072198	0.087869	0.044207	0.19524	0.38721	0.37226	0.20058	0.20595	0.31991	-1.4271	-2.2417	-2.1917	-2.0979	-2.3542	-2.2854	-2.3271	-2.3438	-1.9312	-2.175	-2.4708	-1.9958	-2.6562	-2.3167	-2.1854	-2.6479	134.658	130.552	-31.626	141.522	28.599	-35.773	33.089	-147.491	132.577	-33.679	188.558	206.383	175.065	132.654	-96.559	122.719	0.00067038	0.00065989	0.00016304	826.52	4.9801e-06	6.3367e-06	725.29	355.09	4.9134e-06	4.8057e-06	324.87	121.11	147.73	59.495	6.1089e-06	54.52	0.00063932	0.00061179	0.0001682	825.78	5.9526e-06	6.6795e-06	723.75	354.44	6.728e-06	6.4074e-06	323.38	121.08	147.57	59.79	6.7518e-06	55.07	160.711	-64.145	-78.164	-138.874	-25.000	-7.791	-139.785	-135.361	-46.451	6.818	-137.183	-134.113	-132.373	-127.788	-32.002	-129.442	-8191	255	
27421.762	1	1	0	0	0.2964	0.24631	0.17013	0.067101	0.10678	0.09534	0.2222	0.35732	0.29799	0.27803	0.19441	0.16701	0.066418	0.074207	0.17971	0.19485	-1.7479	-2.1896	-2.1854	-2.1104	-2.4875	-2.175	-1.95	-2.4313	-2.1542	-2.2333	-2.5563	-2.0792	-2.4437	-2.2438	-2.0687	-2.6667	0.354	38.983	64.505	-86.973	153.279	199.552	161.380	133.259	165.282	83.045	121.088	153.749	32.340	174.720	-69.818	187.657	0.00066116	0.00055332	0.00017242	835.24	4.2399e-06	5.7943e-06	729.97	355.94	7.0551e-06	4.9674e-06	324.62	121.53	147.7	59.747	3.4012e-06	54.494	0.00061722	0.0005901	0.0001607	827.82	6.1183e-06	6.6141e-06	727.02	355.2	6.761e-06	6.7076e-06	324.19	121.7	147.92	59.927	6.604e-06	55.098	155.378	-78.191	-61.593	-138.865	-24.878	-10.878	-140.026	-135.471	-55.312	2.682	-137.123	-133.838	-132.641	-127.721	-23.147	-129.343	-8191	255	
27421.857	1	1	0	0	0.091582	0.31629	0.01786	0.17157	0.3343	0.11679	0.23225	0.20132	0.19947	0.17081	0.27223	0.16768	0.1875	0.22617	0.11114	0.29964	-1.5521	-2.1042	-2.3021	-2.175	-2.225	-2.4583	-2.125	-2.3375	-2.05	-2.1125	-2.3583	-2.1354	-2.3563	-2.4354	-1.9458	-2.6729	-67.240	104.343	-127.665	-125.450	-147.226	62.801	149.391	110.331	-113.565	80.686	107.973	166.274	193.779	-65.481	123.447	168.791	0.00067056	0.00036005	0.0001118	834.2	3.5226e-06	3.9833e-06	727.74	354.71	6.0515e-06	5.913e-06	322.09	119.95	147.02	59.053	3.7246e-06	54.404	0.00063218	0.00058304	0.00015679	829.29	6.0547e-06	6.5342e-06	726.31	354.88	6.8049e-06	6.4186e-06	322.36	120.62	147.44	59.463	6.7108e-06	54.883	158.149	-71.308	-49.113	-138.949	-51.653	13.646	-139.946	-135.476	-33.708	2.142	-137.139	-133.971	-132.498	-127.807	-23.654	-129.336	-8191	255	
27421.953	1	1	0	0	0.29214	0.24787	0.11582	0.24939	0.2762	0.27713	0.086912	0.24287	0.12651	0.070272	0.32191	0.21924	0.067153	0.26774	0.25006	0.20978	-1.8667	-2.1208	-2.2938	-2.0583	-2.1979	-2.2812	-2.0854	-2.3333	-2.1083	-2.2354	-2.3167	-2.3125	-2.2562	-2.3063	-1.8875	-2.3583	179.407	-83.679	-152.152	200.956	28.422	157.461	20.199	110.712	-63.871	137.933	156.880	-147.849	-146.930	147.724	-60.413	-139.847	0.0006808	0.00044611	0.00014115	832.17	4.7113e-06	4.276e-06	725.74	354.3	5.4215e-06	4.7145e-06	323.1	120.36	146.42	59.34	3.8592e-06	54.631	0.00062636	0.00059849	0.00016341	826.31	6.198e-06	6.4324e-06	722.85	354.3	6.4614e-06	6.3575e-06	322.55	120.75	147.14	59.551	6.8598e-06	55.065	159.334	-71.695	-53.977	-138.973	-23.420	2.472	-139.973	-135.241	-55.902	-16.870	-137.102	-133.839	-132.361	-127.605	-30.765	-129.360	-8191	255	
27422.049	1	1	0	0	0.24802	0.19867	0.16427	0.15501	0.11086	0.36798	0.11244	0.18584	0.29341	0.25238	0.2561	0.32082	0.15818	0.23922	0.1304	0.20191	-1.7771	-1.9937	-2.3479	-1.9917	-2.3646	-2.2958	-1.9125	-2.3333	-2.1562	-1.9688	-2.3958	-2.0583	-2.2396	-2.4792	-1.9875	-2.4562	-84.097	-8.529	55.819	200.808	-72.618	-91.143	130.645	145.638	201.913	-135.663	141.350	199.329	-84.490	97.478	165.253	122.571	0.00070312	0.00045911	0.00013168	831.44	4.5632e-06	5.7934e-06	728.77	355.48	5.4629e-06	6.1402e-06	323.13	120.69	147.63	59.41	5.4429e-06	55.042	0.00063959	0.00058595	0.00016382	826.29	6.1116e-06	6.5183e-06	725.73	354.96	6.8622e-06	6.5079e-06	322.89	121.1	147.39	59.817	7.092e-06	55.399	157.713	-49.649	-88.684	-139.106	-21.396	-10.687	-140.034	-135.502	-29.263	-13.855	-137.068	-134.124	-132.686	-127.585	-16.555	-129.406	-8191	255	
27422.170	1	1	0	0	0.054968	0.1259	0.077836	0.27344	0.21494	0.10492	0.15074	0.35618	0.091115	0.29938	0.28186	0.1908	0.1697	0.039446	0.095436	0.22476	-1.8854	-1.9292	-2.3771	-2.1125	-2.0792	-2.2625	-2.0604	-2.3375	-2.2687	-1.8042	-2.3854	-2.1	-2.1646	-2.4792	-1.9125	-2.2167	-48.125	95.987	-100.759	147.912	-149.300	-79.447	196.562	189.048	124.725	180.099	-118.519	153.450	123.932	76.052	-67.068	199.578	0.00069779	0.0004894	7.6795e-05	832.56	4.5655e-06	3.4605e-06	726.16	356.42	5.6444e-06	4.9336e-06	323.78	120.87	147.35	59.758	4.8769e-06	54.966	0.00062111	0.00057516	0.00016454	826.46	6.1528e-06	6.4159e-06	725.15	355.4	6.2445e-06	6.3628e-06	323.79	121.55	147.39	60.001	6.8206e-06	55.565	154.845	-66.889	-61.230	-138.894	-31.212	5.961	-139.852	-135.479	-33.835	0.956	-137.007	-133.847	-132.393	-127.415	-32.359	-129.432	-8191	255	
27422.266	1	1	0	0	0.15849	0.15664	0.074831	0.39267	0.095145	0.056649	0.10355	0.4347	0.072391	0.10849	0.14784	0.43465	0.2743	0.14608	0.23932	0.25824	-1.7292	-1.8229	-2.3187	-2.1021	-2.0312	-2.3521	-2.2146	-2.2729	-2.1875	-1.8979	-2.4896	-2.2625	-2.1604	-2.6	-2.0021	-2.4813	36.580	130.270	-83.863	184.066	85.958	-101.699	107.028	178.511	-85.422	137.264	11.145	-148.050	170.301	-80.916	54.758	118.508	0.00069719	0.00030458	0.00019956	833.16	4.8744e-06	4.1411e-06	727.92	356.95	5.0125e-06	4.9992e-06	323.29	121.26	147.34	59.598	2.9474e-06	54.743	0.00061624	0.00057394	0.00015763	828.5	6.0937e-06	6.1973e-06	726.72	355.99	6.2063e-06	6.8205e-06	323.1	121.27	147.78	59.94	6.7621e-06	55.284	156.910	-65.378	-66.649	-138.891	-33.418	-4.619	-139.992	-135.368	-54.380	11.954	-136.720	-133.885	-132.596	-127.592	-30.248	-129.484	-8191	255	
27422.338	1	1	0	0	0.12199	0.07592	0.23685	0.47791	0.27613	0.12278	0.3154	0.3095	0.17162	0.19637	0.08651	0.038673	0.035029	0.05914	0.03233	0.22655	-2.0875	-2.1146	-2.1667	-2.1917	-2.0062	-2.3604	-2.3583	-2.1521	-2.1688	-1.8292	-2.7208	-2.1875	-2.1188	-2.5542	-2.0938	-2.3792	174.512	-142.164	-7.474	144.574	12.845	188.471	-139.423	153.367	-36.142	-42.672	203.577	145.108	-19.991	-92.136	-57.502	194.561	0.0006863	0.00047101	0.0001147	833.08	4.5287e-06	6.1058e-06	726.88	355.95	6.1795e-06	5.7743e-06	322.94	121.66	147.99	59.856	3.8128e-06	55.024	0.00060652	0.00059266	0.00016289	827.57	5.9939e-06	6.3862e-06	724.63	355.41	6.2948e-06	6.6833e-06	324.03	121.76	148.07	60.112	7.0311e-06	55.475	158.358	-57.549	-81.946	-139.002	-54.601	-7.335	-140.132	-135.369	-28.845	3.897	-137.125	-133.920	-132.420	-127.750	-24.770	-129.420	-8191	255	
27422.434	1	1	0	0	0.058872	0.18345	0.22954	0.24456	0.26405	0.26457	0.21458	0.14373	0.046498	0.098728	0.22857	0.16456	0.15794	0.17141	0.27827	0.17849	-1.8625	-1.9729	-2.05	-2.3354	-2.025	-2.3708	-2.2062	-2.1875	-2.3917	-1.8917	-2.4313	-2.2562	-2.0812	-2.4146	-2.0833	-2.2083	84.475	37.837	120.031	98.728	111.898	-11.077	201.441	-147.281	-47.246	186.744	50.336	203.332	-151.854	112.852	-39.226	190.501	0.00069418	0.00045827	0.00010005	836.52	4.7967e-06	3.5014e-06	730.91	357.43	6.2521e-06	6.8803e-06	325.6	121.17	148.2	59.712	3.8935e-06	55.019	0.0006272	0.00061162	0.00016471	829.67	6.2677e-06	6.5025e-06	729.02	356.28	6.1704e-06	6.9854e-06	324.61	121.67	148.6	60.061	6.9044e-06	55.565	156.136	-45.194	-85.138	-138.938	-48.164	-12.371	-139.989	-135.626	-34.956	-14.994	-137.235	-134.081	-132.476	-127.750	-23.558	-129.435	-8191	255	
27422.529	1	1	0	0	0.19717	0.26803	0.033346	0.33599	0.20953	0.19416	0.11086	0.23589	0.22704	0.10461	0.068731	0.072064	0.24138	0.28544	0.17865	0.15177	-1.9979	-1.9604	-2.1063	-2.3271	-1.9271	-2.3646	-2.1604	-2.2438	-2.4104	-1.9792	-2.1521	-2.4542	-1.9771	-2.3833	-2.1125	-2.1646	64.291	13.285	75.480	154.955	113.644	146.076	16.036	133.813	-125.247	-86.494	-20.176	22.294	135.247	125.622	-73.651	15.285	0.00071371	0.00043829	0.00016663	835.8	3.8551e-06	4.223e-06	729.98	356.72	6.3045e-06	5.3373e-06	324.78	122.32	148.47	59.762	4.9798e-06	55.055	0.00063245	0.00059989	0.00016798	830.91	6.6028e-06	6.3268e-06	728.41	356.15	6.3341e-06	6.8737e-06	324.75	122.26	148.54	60.021	6.9726e-06	55.642	154.604	-52.877	-79.020	-139.018	-31.932	1.810	-139.859	-135.481	-28.802	-3.575	-137.035	-134.063	-132.328	-127.723	-23.594	-129.529	-8191	255	
27422.650	1	1	0	0	0.054194	0.1964	0.13753	0.26825	0.26832	0.29874	0.14198	0.07981	0.18426	0.19478	0.34641	0.18876	0.34856	0.037918	0.078849	0.20813	-1.9312	-1.9458	-2.1188	-2.4146	-2.1562	-2.3667	-2.4521	-1.95	-2.5146	-2.0417	-2.0771	-2.5	-2.0146	-2.3354	-2.2354	-2.0875	197.766	183.775	39.538	168.349	184.741	99.252	194.952	-98.190	-1.194	-34.628	144.071	156.235	-149.251	149.279	-7.436	52.099	0.00071082	0.00043854	0.00016737	836.92	5.2222e-06	6.4664e-06	732.77	360.2	4.8369e-06	6.0554e-06	326.96	122.06	148.23	59.647	4.5604e-06	54.722	0.00063404	0.00061168	0.00016441	831.72	6.5348e-06	6.6491e-06	731.37	358.06	6.3954e-06	6.9696e-06	326.24	122.2	148.63	60.002	6.6535e-06	55.416	156.858	-70.902	-77.585	-139.007	-33.466	13.580	-140.184	-135.596	-44.945	-8.046	-136.987	-134.009	-132.471	-127.615	-42.802	-129.313	-8191	255	
27422.744	1	1	0	0	0.16275	0.064584	0.22828	0.12837	0.11156	0.1116	0.29178	0.038931	0.14405	0.093687	0.17137	0.067171	0.20359	0.18192	0.22064	0.19141	-1.9937	-2.0708	-1.9625	-2.4396	-2.0729	-2.3458	-2.3167	-2.1042	-2.1813	-2.1896	-2.1521	-2.4813	-2.1625	-2.2979	-2.4667	-2.0187	-63.750	203.351	205.341	79.559	140.252	-27.242	133.010	171.334	137.291	-39.171	-48.089	-145.125	102.935	170.267	191.615	105.537	0.00069743	0.00051896	0.00015194	834.43	4.2207e-06	3.7925e-06	726.73	356.89	6.5585e-06	3.1906e-06	324.89	120.33	147.83	59.38	4.4164e-06	54.633	0.0006402	0.00061028	0.00017152	830.57	6.3357e-06	6.6531e-06	724.78	355.84	6.3318e-06	6.6925e-06	323.74	121.19	147.8	59.781	6.3766e-06	55.216	154.899	-63.772	-71.845	-139.047	-54.720	14.894	-139.994	-135.481	-53.279	18.182	-137.046	-134.088	-132.545	-127.574	-26.340	-129.403	-8191	255	
27422.842	1	1	0	0	0.08631	0.29257	0.36907	0.19845	0.064034	0.22156	0.15161	0.079043	0.12566	0.15283	0.10504	0.21855	0.23905	0.27916	0.30439	0.19663	-1.7792	-2.2604	-2.0917	-2.5542	-1.9729	-2.3229	-2.4688	-2.0438	-2.3229	-2.3646	-2.0375	-2.5812	-2.1188	-2.2438	-2.4021	-1.9042	45.188	-6.517	174.365	147.472	206.113	145.951	109.432	96.922	-79.678	85.357	-64.479	139.505	180.570	186.454	15.462	165.671	0.00066804	0.00054611	0.00013182	836.3	2.5634e-06	5.5232e-06	729.38	356.72	5.0363e-06	5.6504e-06	323.81	121.79	148.18	59.334	3.276e-06	55.097	0.00063539	0.0006227	0.00017038	830.1	6.5326e-06	6.7277e-06	727.45	356.35	6.5637e-06	6.8606e-06	324.08	122.09	148.28	59.803	6.8381e-06	55.512	156.101	-51.769	-59.571	-138.932	-59.581	18.356	-139.924	-135.450	-38.478	11.025	-137.117	-134.110	-132.512	-127.557	-10.442	-129.527	-8191	255	
27422.939	1	1	0	0	0.13063	0.15916	0.19641	0.21245	0.27909	0.14091	0.10481	0.21889	0.12028	0.16778	0.21928	0.22675	0.25221	0.18508	0.14374	0.18303	-1.9062	-2.2188	-2.0458	-2.5521	-1.9458	-2.0563	-2.3792	-2.0458	-2.2438	-2.2958	-2.0125	-2.275	-2.1708	-2.2146	-2.3312	-1.9833	50.567	-131.753	9.413	182.004	-116.241	180.700	142.589	121.614	2.818	-94.047	159.057	186.836	155.309	181.487	170.375	104.639	0.00068389	0.00047899	0.00012309	835.66	5.157e-06	4.435e-06	732.84	358.44	5.0366e-06	6.1218e-06	325.67	122.36	148.85	59.694	5.9108e-06	55.258	0.00064592	0.00062229	0.00017641	831.92	6.8945e-06	7.0368e-06	731.06	357.8	6.8541e-06	7.0484e-06	326.67	122.7	148.99	60.035	7.1493e-06	55.734	158.460	-72.164	-42.925	-138.898	-40.446	-18.675	-139.812	-135.520	-47.551	1.911	-136.868	-133.800	-132.312	-127.656	-13.240	-129.467	-8191	255	
27423.033	1	1	0	0	0.20445	0.098137	0.051895	0.13238	0.052472	0.078505	0.19177	0.34481	0.16499	0.19514	0.24686	0.19776	0.41877	0.14519	0.036628	0.2269	-1.6646	-2.3063	-1.6958	-2.6042	-2.0187	-2.1	-2.4771	-2.0125	-2.0687	-2.2875	-1.9021	-2.4271	-2.0604	-1.9729	-2.3083	-1.9604	134.979	199.451	-125.348	-151.865	67.157	-56.148	131.116	188.889	-70.590	-71.003	166.123	188.795	145.124	191.038	-117.024	-130.796	0.00071111	0.00052481	0.00015281	840.28	3.6158e-06	5.4988e-06	736.74	360.76	4.8836e-06	5.6749e-06	328.11	123.1	149.66	60.127	3.6547e-06	55.308	0.00066575	0.00064137	0.00017659	835.99	6.8454e-06	7.2271e-06	735.37	359.68	7.0831e-06	7.2225e-06	328.68	123.62	149.75	60.462	7.2923e-06	55.917	156.400	-65.910	-80.358	-138.762	-32.253	-22.568	-139.887	-135.524	-34.737	1.358	-137.212	-133.947	-132.416	-127.626	-21.679	-129.559	-8191	255	
27423.129	1	1	0	0	0.16101	0.16596	0.22553	0.17753	0.19216	0.18363	0.23279	0.33748	0.25254	0.18739	0.28944	0.29563	0.18897	0.14809	0.24925	0.1298	-1.6063	-2.1583	-1.9167	-2.4938	-2.0958	-2.0104	-2.4813	-1.9958	-2.1271	-2.2583	-1.9125	-2.3667	-2.2542	-1.9958	-2.3542	-2.1479	-124.683	173.753	33.169	129.361	-66.555	-102.519	-113.544	110.847	119.499	-151.829	-148.505	186.192	56.448	-149.559	44.952	180.348	0.00072644	0.00053364	0.00014016	846.01	3.8851e-06	4.6261e-06	734.63	361.25	5.505e-06	5.8149e-06	324.82	121.95	148.5	59.682	5.202e-06	54.724	0.00065851	0.00065595	0.00018289	839.78	6.7127e-06	7.305e-06	733.49	359.97	6.8067e-06	7.095e-06	326.29	122.31	149.05	60.029	7.2808e-06	55.427	157.189	-78.745	-64.090	-138.643	-43.923	-2.854	-140.182	-135.341	-50.104	-7.727	-137.146	-134.138	-132.734	-127.676	-33.628	-129.563	-8191	255	
27423.250	1	1	0	0	0.076224	0.16203	0.13889	0.3462	0.20548	0.095651	0.10105	0.28918	0.11769	0.12842	0.29663	0.21422	0.10813	0.18278	0.087187	0.28658	-1.6292	-2.275	-2.0792	-2.2375	-2.2438	-1.9438	-2.225	-2.1333	-1.9583	-2.4625	-2.1271	-2.2313	-2.3583	-2.0104	-2.4583	-2.2188	17.896	82.792	-101.306	103.018	46.319	132.955	135.249	80.348	175.375	35.600	149.873	125.122	112.899	-133.670	73.492	184.475	0.00066337	0.00054401	0.00014804	842.21	4.7311e-06	5.016e-06	732.53	359.28	6.2996e-06	6.2401e-06	325.3	121.86	148.83	59.633	5.6081e-06	54.703	0.00064142	0.00063542	0.00017687	836.78	6.3324e-06	7.2271e-06	731.23	358.6	6.7997e-06	6.8934e-06	325.7	122.16	149.03	60.088	6.9635e-06	55.45	157.390	-63.170	-71.645	-138.805	-19.039	-8.059	-140.174	-135.635	-51.566	2.554	-137.055	-133.990	-132.516	-127.635	-22.265	-129.460	-8191	255	
27423.346	1	1	0	0	0.36477	0.12204	0.07857	0.10387	0.16009	0.054744	0.2225	0.14696	0.14697	0.022963	0.15919	0.1014	0.28656	0.39763	0.26069	0.29191	-1.4875	-2.3042	-2.1271	-2.3083	-2.2917	-1.9125	-2.3896	-2.2062	-2.1	-2.5292	-2.0208	-2.1937	-2.4708	-1.9833	-2.1	-2.2229	-140.863	144.791	116.874	118.883	112.878	145.910	103.780	38.414	19.966	141.002	121.871	-142.750	-116.179	182.410	158.333	-97.591	0.00069887	0.00050388	0.00013123	842.74	4.109e-06	3.8646e-06	731.15	359.43	5.3135e-06	5.8338e-06	326.47	121.77	148.76	59.806	2.8837e-06	55.152	0.00065391	0.00061558	0.00017702	836.38	5.9839e-06	6.8671e-06	729.71	358.25	6.6534e-06	6.8205e-06	325.41	122.05	148.96	59.933	6.8586e-06	55.617	156.680	-61.174	-73.227	-138.953	-25.109	24.283	-139.875	-135.466	-41.123	-1.003	-137.114	-133.957	-132.471	-127.600	-54.654	-129.488	-8191	255	
27423.441	1	1	0	0	0.030822	0.13913	0.15041	0.088251	0.29364	0.11837	0.32666	0.31009	0.10522	0.086393	0.10998	0.23187	0.20546	0.048717	0.2183	0.078366	-1.5458	-2.2333	-2.0021	-2.1021	-2.2854	-2.0896	-2.2646	-2.4083	-2.0875	-2.2458	-2.2125	-2.1021	-2.4958	-1.9937	-2.2125	-2.2646	87.810	22.973	-134.899	64.781	118.805	128.740	86.352	125.380	105.992	98.144	92.032	27.053	197.346	-53.138	192.938	192.430	0.00075657	0.0005899	0.00011124	837.13	2.5569e-06	5.1518e-06	733.38	358.23	5.3713e-06	6.4431e-06	325.85	121.84	148.77	59.903	5.212e-06	55.259	0.00065211	0.00057785	0.00016462	834.37	5.9365e-06	6.8664e-06	730.48	357.3	6.3399e-06	6.5296e-06	325.21	122.01	148.79	60.113	6.6064e-06	55.85	157.343	-54.192	-95.192	-139.107	-31.016	-27.339	-140.089	-135.351	-38.445	-0.703	-137.034	-133.956	-132.482	-127.774	-17.998	-129.667	-8191	255	
27423.562	1	1	0	0	0.12383	0.17243	0.13897	0.14521	0.19806	0.26231	0.087321	0.1315	0.20607	0.16804	0.28885	0.060684	0.15613	0.31208	0.085002	0.08585	-1.3896	-2.3937	-2.1146	-2.2833	-2.2771	-2.0021	-2.3625	-2.2833	-1.8917	-2.2979	-2.2125	-2.1333	-2.4771	-2.1958	-2.1333	-2.5187	106.740	-74.405	163.805	191.424	38.501	191.711	-5.977	129.333	185.891	75.993	174.141	-140.769	-140.145	101.873	-13.150	98.508	0.00068652	0.00043514	0.00017678	844.02	4.5598e-06	4.7901e-06	730.59	359.27	5.9587e-06	4.1137e-06	324.66	121.46	149.04	59.753	5.3511e-06	54.948	0.00063309	0.00058304	0.00015743	836.71	5.7971e-06	6.4073e-06	727.97	357.96	6.2433e-06	6.2347e-06	324.42	121.66	148.87	60.171	6.151e-06	55.384	153.653	-65.203	-78.568	-138.981	-27.639	-6.818	-139.901	-135.493	-47.954	-7.728	-137.267	-134.134	-132.474	-127.672	-38.347	-129.286	-8191	255	
27423.635	1	1	0	0	0.11045	0.019392	0.12556	0.22735	0.15164	0.37011	0.28378	0.37351	0.13611	0.14517	0.22527	0.16687	0.21853	0.24377	0.10485	0.23023	-1.5458	-2.4104	-2.0167	-2.1604	-2.3646	-2.0708	-2.2833	-2.425	-1.7938	-2.3917	-2.1208	-2.1167	-2.4875	-1.9646	-2.3229	-2.3688	-97.851	163.781	177.705	-140.610	186.037	188.207	204.943	170.210	63.940	88.449	173.940	114.223	14.117	126.513	68.416	157.255	0.00066101	0.00045588	0.0001164	835.66	3.6595e-06	6.6171e-06	727.38	357.12	6.0588e-06	5.204e-06	323.02	120.49	148.28	59.697	3.6788e-06	54.567	0.00061945	0.00052687	0.00014646	831.98	5.5372e-06	6.297e-06	722.29	356.05	6.204e-06	5.6948e-06	322.27	120.82	148.11	59.961	6.154e-06	55.143	158.675	-54.087	-81.394	-138.966	-44.290	2.190	-140.178	-135.448	-38.759	-3.711	-137.137	-134.006	-132.378	-127.626	-30.145	-129.398	-8191	255	
27423.730	1	1	0	0	0.25352	0.084265	0.18933	0.1172	0.4304	0.21013	0.074378	0.33483	0.3067	0.2257	0.44631	0.1155	0.31039	0.36195	0.23895	0.225	-1.5521	-2.3771	-2.1917	-2.075	-2.3604	-2.0229	-2.1562	-2.5542	-1.8167	-2.2687	-2.2438	-2.0417	-2.4229	-2.1063	-2.1792	-2.5917	49.350	139.723	58.220	175.634	132.872	43.762	130.831	189.266	-130.422	160.568	160.916	120.925	162.876	88.025	89.305	37.928	0.00071467	0.00038947	0.00012102	836.56	5.3619e-06	7.2652e-06	725.36	357.83	5.4969e-06	4.6917e-06	324.35	120.89	148.53	59.72	4.3172e-06	54.898	0.00060859	0.00053783	0.00015264	830.03	5.564e-06	6.41e-06	723.62	356.38	5.8575e-06	5.6692e-06	323.04	121.02	148.33	60.14	6.1027e-06	55.329	154.973	-61.530	-64.546	-139.079	-45.454	3.632	-140.050	-135.570	-28.498	-9.612	-137.119	-134.114	-132.747	-127.742	-31.993	-129.555	-8191	255	
27423.850	1	1	0	0	0.16165	0.09652	0.10421	0.2851	0.1255	0.11802	0.15723	0.056851	0.14438	0.11605	0.38774	0.2956	0.25627	0.1706	0.067084	0.10931	-1.4417	-2.0938	-2.1271	-2.1229	-2.3688	-2.0812	-2.2354	-2.425	-2.0021	-2.1646	-2.3271	-2.0604	-2.3917	-2.4208	-2.0708	-2.5375	4.233	-18.333	61.057	145.165	-121.793	200.349	54.850	-151.244	201.651	-126.714	184.395	118.959	-68.988	103.593	-146.079	172.111	0.00065653	0.0005285	0.00015166	837.16	4.5907e-06	4.3169e-06	726.18	358.2	5.955e-06	5.665e-06	324.45	121.34	147.4	59.576	4.7259e-06	54.594	0.00061928	0.00051001	0.00014801	831.7	5.5149e-06	6.0156e-06	723.57	356.54	5.9338e-06	5.8689e-06	323.2	121.26	148.13	59.973	6.0129e-06	55.188	158.378	-61.966	-56.959	-138.902	-32.707	-11.752	-140.068	-135.487	-47.643	5.075	-137.212	-133.942	-132.521	-127.622	-29.194	-129.554	-8191	255	
27423.945	1	1	0	0	0.10166	0.21377	0.12536	0.16475	0.088505	0.19014	0.21243	0.25461	0.33466	0.060369	0.094288	0.26041	0.30647	0.18801	0.21459	0.31627	-1.6437	-2.1167	-2.1833	-2.0438	-2.2667	-2.0521	-1.975	-2.3771	-1.9104	-2.1583	-2.4354	-1.8958	-2.1729	-2.3708	-1.9875	-2.6042	82.998	156.989	100.692	-11.830	-146.294	168.521	115.735	149.455	-92.488	-90.527	-104.541	156.275	196.361	202.813	70.105	-145.127	0.00072512	0.00050095	0.00015257	837.24	4.2148e-06	3.1879e-06	729.72	357.84	5.618e-06	5.2065e-06	321.88	119.9	147.51	59.528	3.508e-06	54.409	0.00061607	0.00054524	0.00015383	831.56	5.5032e-06	5.8637e-06	725.93	357.72	5.8546e-06	5.6823e-06	322.54	120.56	148.3	59.758	6.0201e-06	54.682	155.496	-70.130	-78.048	-138.804	-18.719	-13.419	-140.165	-135.554	-38.490	-15.439	-136.909	-133.931	-132.582	-127.788	-32.892	-129.596	-8191	255	
27424.043	1	1	0	0	0.27346	0.20078	0.21946	0.23087	0.37006	0.31511	0.25334	0.18703	0.21349	0.25929	0.39536	0.23141	0.10069	0.13907	0.18872	0.057255	-1.5583	-2.025	-2.1667	-2.1833	-2.3104	-2.3396	-2.1542	-2.3979	-1.9354	-2.1312	-2.5812	-2.1375	-2.2146	-2.3375	-2.15	-2.2854	108.819	103.479	-48.608	159.704	156.088	181.273	82.942	19.197	-147.882	-73.143	112.858	172.494	151.686	-148.493	204.738	-120.534	0.000659	0.00038226	0.0001894	835.31	3.6944e-06	3.61e-06	718.27	355.01	6.1584e-06	5.714e-06	319.85	119.06	146.6	58.903	4.3457e-06	53.984	0.00059647	0.00052629	0.00014751	829.77	5.3047e-06	5.7039e-06	718.57	354.67	5.8621e-06	5.8557e-06	319.5	119.39	146.8	59.228	6.2282e-06	54.297	159.408	-55.292	-68.743	-139.114	-34.855	-2.349	-140.116	-135.508	-55.028	6.759	-136.941	-134.018	-132.319	-127.657	-30.029	-129.705	-8191	255	
27424.139	1	1	0	0	0.0070659	0.051283	0.13121	0.3314	0.13826	0.16383	0.1062	0.30865	0.17718	0.22078	0.16892	0.2062	0.14041	0.20672	0.29454	0.1967	-1.6458	-1.9729	-2.35	-2.3292	-2.2062	-2.3125	-2.0104	-2.5687	-2.0917	-2.05	-2.6208	-2.0604	-2.2979	-2.5438	-1.8521	-2.4542	12.994	82.171	-52.754	144.729	-128.720	-140.121	86.722	145.505	98.873	128.861	-64.953	-9.370	-104.789	-104.192	-40.708	190.089	0.00068756	0.00027917	0.00015765	836.36	2.6568e-06	4.0606e-06	720.38	354.95	4.3937e-06	4.4833e-06	320.87	118.75	146.22	58.775	2.6247e-06	53.785	0.00059166	0.00052588	0.00014337	827.69	5.2846e-06	5.871e-06	718.79	354.53	5.8002e-06	5.5484e-06	318.95	118.94	146.51	59.077	6.0177e-06	54.171	157.871	-80.227	-66.931	-138.967	-37.044	6.551	-140.198	-135.510	-46.598	-16.943	-137.263	-134.061	-132.364	-127.638	-16.148	-129.591	-8191	255	
27424.209	1	1	0	0	0.13767	0.17569	0.068083	0.24964	0.11498	0.13593	0.24264	0.20476	0.078746	0.23697	0.15378	0.24921	0.17798	0.12515	0.18482	0.15892	-1.8167	-2.2646	-2.5375	-2.1667	-2.1271	-2.2687	-2.1167	-2.4625	-2.1729	-2.0125	-2.1771	-2.0563	-2.3854	-2.5375	-1.9021	-2.3792	-51.353	197.194	-134.744	-143.579	-89.031	-112.652	139.936	199.946	140.572	110.683	147.710	-60.314	-108.298	-30.758	38.128	173.994	0.00070352	0.00044432	0.00010716	829.89	5.1374e-06	5.2261e-06	718.74	354.41	4.7876e-06	5.6105e-06	320.22	118.72	146.97	58.613	5.0564e-06	53.745	0.00059204	0.00054472	0.00014051	826.21	5.4887e-06	5.8465e-06	717.62	354.11	5.8211e-06	5.9221e-06	319.22	119.11	146.89	59.061	6.2891e-06	54.311	154.761	-53.608	-58.494	-139.159	-26.423	-11.380	-140.287	-135.461	-46.202	-2.725	-137.046	-133.955	-132.506	-127.823	-15.439	-129.399	-8191	255	
27424.330	1	1	0	0	0.15994	0.092911	0.36383	0.19538	0.13196	0.27006	0.13487	0.19794	0.094908	0.073964	0.15367	0.080615	0.25062	0.17504	0.12841	0.17898	-1.6437	-2.0104	-2.4771	-2.0146	-2.1729	-2.4042	-2.1333	-2.2021	-2.1854	-2.1542	-2.4583	-2.2	-1.925	-2.5104	-2.0062	-2.3417	-113.748	195.234	-18.854	-112.933	-108.960	142.403	128.356	-150.065	156.378	200.651	110.975	196.397	187.630	179.384	58.027	67.232	0.0006688	0.00034983	0.00013185	830.89	3.7167e-06	5.554e-06	721.43	356.42	5.338e-06	5.5089e-06	320.34	119.21	147	59.083	5.0733e-06	53.997	0.00057853	0.00056682	0.00014504	825.35	5.5735e-06	5.8928e-06	719.19	354.46	5.7447e-06	5.792e-06	320.06	119.69	147.22	59.478	6.1311e-06	54.693	157.770	-50.163	-64.717	-139.163	-31.271	13.729	-140.213	-135.432	-49.160	-10.575	-136.909	-133.976	-132.602	-127.805	-13.338	-129.417	-8191	255	
27424.426	1	1	0	0	0.13059	0.083216	0.065648	0.077777	0.23113	0.14315	0.13175	0.25707	0.015628	0.2469	0.14679	0.15986	0.44386	0.31915	0.060297	0.17859	-1.7875	-2.0417	-2.2938	-2.4333	-2.1312	-2.2479	-2.1875	-2.2604	-2.2812	-1.9667	-2.2292	-2.2292	-2.1312	-2.5354	-1.8833	-2.1292	1.716	-34.184	-5.314	-138.072	191.129	51.586	92.260	115.825	-43.538	122.157	193.297	125.948	-98.806	152.288	3.804	-98.173	0.00069709	0.00053083	0.00017518	833.55	4.2684e-06	5.5845e-06	722.11	355.61	4.0799e-06	4.5177e-06	319.95	118.41	146.68	59.059	4.0825e-06	53.708	0.00057806	0.00057645	0.00014422	828.9	5.5127e-06	5.9648e-06	719.05	354.94	5.8621e-06	6.0488e-06	319.22	118.85	146.97	59.322	5.8699e-06	54.244	158.290	-67.021	-53.615	-138.797	-37.637	1.326	-139.997	-135.561	-37.458	-19.884	-137.137	-134.202	-132.512	-127.611	-30.354	-129.460	-8191	255	
27424.521	1	1	0	0	0.19361	0.31985	0.24843	0.15147	0.18566	0.25322	0.28159	0.021806	0.20765	0.087056	0.17038	0.30183	0.28725	0.20727	0.33936	0.012637	-1.8792	-1.9729	-2.2812	-2.3	-1.9792	-2.5042	-2.2146	-2.2625	-2.3229	-1.9875	-2.4521	-2.3271	-2.2438	-2.6479	-2.1813	-2.3083	8.285	124.446	10.791	-149.478	-96.586	-91.659	182.584	-67.381	-84.803	191.192	121.513	-147.655	-122.866	127.934	63.300	-12.206	0.0006544	0.00046115	0.00013367	833.36	5.1424e-06	4.1016e-06	721.56	355.23	5.4815e-06	3.7298e-06	321.31	119.9	147.58	59.16	4.1729e-06	54.012	0.0005807	0.00054623	0.00014473	828.24	5.4959e-06	6.0447e-06	719.82	355.19	5.9905e-06	5.6981e-06	320.36	119.92	147.81	59.444	6.0159e-06	54.497	157.603	-51.878	-63.542	-138.981	-23.492	-25.508	-139.932	-135.680	-50.366	-9.495	-137.091	-134.328	-132.257	-127.654	-44.139	-129.487	-8191	255	
27424.643	1	1	0	0	0.12082	0.17288	0.045428	0.21088	0.092971	0.10411	0.022786	0.21725	0.26401	0.22217	0.33698	0.17879	0.11983	0.34017	0.030743	0.18441	-1.8854	-2.1646	-2.2188	-2.2542	-1.8896	-2.3063	-2.2354	-2.2188	-2.4146	-2.0938	-2.2479	-2.3812	-1.7521	-2.3458	-2.2729	-2.2042	18.417	58.402	108.030	100.899	116.600	88.340	116.502	-148.105	-0.247	-150.610	179.123	114.733	121.337	160.902	143.574	173.221	0.00064893	0.00052848	0.00016159	836.98	4.64e-06	4.4886e-06	723.1	355.57	5.1606e-06	4.5198e-06	320.79	119.57	147.25	58.755	4.2977e-06	54.036	0.00059826	0.00054606	0.00015114	829.54	5.6906e-06	5.8446e-06	719.65	355.39	6.1253e-06	5.8019e-06	320.38	119.68	147.56	59.287	6.224e-06	54.457	158.085	-57.857	-55.912	-138.924	-26.211	-10.968	-140.031	-135.329	-46.983	-3.315	-137.153	-134.130	-132.423	-127.511	-21.810	-129.473	-8191	255	
27424.736	1	1	0	0	0.054234	0.18516	0.27087	0.022923	0.20261	0.33482	0.37322	0.10293	0.067989	0.11736	0.14441	0.091561	0.28481	0.15756	0.23124	0.36165	-1.8354	-1.9979	-2.2542	-2.5083	-1.9792	-2.35	-2.1667	-2.1583	-2.2542	-2.0292	-2.2125	-2.4625	-2.0042	-2.3312	-2.3271	-2.1375	92.558	48.888	116.249	190.594	12.142	-65.766	167.029	97.092	80.862	72.563	178.021	121.975	180.425	1.242	70.555	177.275	0.00065972	0.00044119	0.00015937	835.94	5.0823e-06	5.2511e-06	725.57	355.61	4.991e-06	5.076e-06	321.43	119.73	147.98	59.034	4.902e-06	54.143	0.00059292	0.00056933	0.00014962	829.29	5.8645e-06	6.0685e-06	721.17	355.7	6.0518e-06	6.1664e-06	321.3	120.11	147.53	59.393	6.075e-06	54.691	158.619	-76.435	-74.973	-138.955	-32.099	-29.270	-139.896	-135.704	-36.020	-2.171	-137.319	-134.005	-132.384	-127.593	-26.296	-129.293	-8191	255	
27424.834	1	1	0	0	0.18261	0.20635	0.14338	0.18014	0.085505	0.2192	0.25688	0.25697	0.064308	0.2041	0.18803	0.17376	0.32467	0.20399	0.25773	0.13042	-1.9125	-1.8271	-2.175	-2.4896	-1.875	-2.2042	-2.3979	-2.2833	-2.4792	-2.0833	-2.1	-2.4979	-1.8417	-2.4771	-2.15	-1.8937	-147.709	82.125	122.000	-133.345	-118.071	-40.777	-119.378	168.627	-126.044	3.316	103.973	185.803	138.274	183.798	133.696	21.611	0.00067389	0.00053739	0.00012731	837.69	5.0548e-06	4.8531e-06	726.98	358.2	5.7039e-06	5.6154e-06	321.89	120.15	147.33	59.169	3.905e-06	53.915	0.00060737	0.00056052	0.00015114	832.73	5.8578e-06	6.1193e-06	724.19	356.71	6.1068e-06	6.0134e-06	321.84	120.34	148.15	59.417	6.3754e-06	54.491	156.154	-54.512	-72.822	-139.188	-27.872	7.158	-140.051	-135.455	-34.758	27.893	-136.811	-134.017	-132.383	-127.615	-13.543	-129.741	-8191	255	
27424.932	1	1	0	0	0.16835	0.13171	0.071083	0.052158	0.1562	0.33987	0.15144	0.37512	0.2485	0.33502	0.016082	0.086004	0.41472	0.18974	0.18666	0.24553	-1.8333	-2.1354	-1.8312	-2.3	-1.9167	-2.1604	-2.3937	-2.0042	-2.3458	-2.0396	-2.0583	-2.4229	-2.1667	-2.0312	-2.3521	-1.8292	174.733	-90.979	-6.008	-106.745	12.910	38.915	-59.403	202.460	127.397	-13.999	35.947	13.978	164.688	-69.271	27.223	84.209	0.00072073	0.00057178	0.00018645	835.9	2.2551e-06	2.1932e-06	727.15	358.03	7.1596e-06	5.5592e-06	322.79	119.92	148.33	59.216	4.6842e-06	54.204	0.00059515	0.00056414	0.00016044	833.72	5.6621e-06	6.12e-06	724.32	356.99	5.9159e-06	6.1519e-06	322.45	120.45	148.45	59.486	6.5829e-06	54.619	158.319	-74.905	-60.314	-138.798	-32.628	-4.915	-140.059	-135.522	-52.238	-1.868	-137.055	-134.065	-132.365	-127.672	-23.782	-129.422	-8191	255	
27425.025	1	1	0	0	0.2452	0.16979	0.15209	0.17704	0.19444	0.13293	0.21053	0.18546	0.073277	0.17449	0.19081	0.13867	0.045156	0.062407	0.073084	0.18958	-1.7437	-2.0917	-1.8229	-2.4729	-1.9958	-1.9062	-2.5354	-2.0187	-2.2479	-2.2167	-2	-2.1417	-2.0979	-2.1479	-2.45	-2.1417	34.533	151.364	205.225	-88.832	86.396	202.957	170.989	125.235	78.052	30.155	151.429	-129.257	73.090	-106.114	52.534	-120.477	0.00067558	0.00073457	0.00011594	838.49	4.4531e-06	5.1422e-06	727.93	359.19	5.178e-06	4.5182e-06	322.98	120.4	147.82	59.238	4.1216e-06	54.115	0.00059197	0.00058076	0.00016673	832.82	5.5952e-06	6.3459e-06	724.87	357.37	6.1438e-06	6.2616e-06	323.01	120.77	148.33	59.527	6.6523e-06	54.666	158.465	-66.242	-59.257	-138.906	-50.139	5.003	-140.056	-135.399	-46.173	7.117	-137.052	-134.151	-132.309	-127.593	-23.947	-129.549	-8191	255	
27425.121	1	1	0	0	0.15057	0.13194	0.30136	0.10337	0.023034	0.047059	0.39178	0.31097	0.21491	0.28494	0.22402	0.13858	0.059941	0.14517	0.057119	0.31999	-1.7833	-2.2542	-2.0125	-2.4313	-2.0833	-2.1042	-2.5896	-2.0438	-2.2125	-2.2438	-2.0917	-2.5938	-2.1354	-2.1583	-2.4458	-2.1708	165.262	91.781	8.040	190.130	21.751	186.640	133.218	-138.134	5.603	47.336	90.617	72.514	147.665	166.063	121.113	-143.984	0.0006877	0.00052719	0.00013265	837.92	5.1137e-06	6.4347e-06	729.26	359.25	5.9158e-06	4.6988e-06	323.01	120.39	147.85	59.243	4.9612e-06	54.198	0.00061349	0.00056344	0.0001703	833.68	5.7419e-06	6.4093e-06	726.05	357.51	6.1606e-06	6.3385e-06	323.36	121.1	148.12	59.573	6.5358e-06	54.808	157.279	-76.846	-79.146	-138.997	-18.601	-4.558	-139.863	-135.533	-33.756	12.945	-137.040	-134.106	-132.393	-127.519	-13.661	-129.620	-8191	255	
27425.242	1	1	0	0	0.22365	0.092163	0.13943	0.30016	0.089082	0.18193	0.034095	0.33596	0.34584	0.15631	0.029503	0.22353	0.053666	0.24572	0.32934	0.20768	-1.8854	-2.2979	-1.9417	-2.4917	-2.1521	-2.05	-2.3792	-2.1479	-2.1042	-2.125	-1.95	-2.4167	-2.1875	-2.1542	-2.4458	-2.0646	192.771	150.654	202.395	161.541	-149.408	-12.136	60.681	169.376	47.393	184.035	44.683	136.023	-142.531	172.639	-69.142	-148.135	0.00066639	0.00048917	9.5105e-05	842.59	2.8059e-06	6.4312e-06	730.88	360.13	4.4807e-06	4.2554e-06	325.18	121.03	149.27	59.441	4.8852e-06	54.113	0.00060307	0.0005961	0.00017295	835.18	5.9805e-06	6.5612e-06	728.24	358.79	6.2497e-06	6.4527e-06	325.11	121.27	149.09	59.693	6.5057e-06	54.809	156.863	-78.562	-67.535	-139.018	-38.003	3.119	-139.958	-135.384	-47.354	-16.297	-137.122	-134.201	-132.650	-127.812	-19.946	-129.762	-8191	255	
27425.340	1	1	0	0	0.086514	0.12362	0.080063	0.17218	0.37323	0.10416	0.27281	0.10148	0.12897	0.049561	0.28619	0.14149	0.11202	0.1572	0.23164	0.13542	-1.5667	-2.1979	-2.0187	-2.4208	-2.2333	-2.0271	-2.55	-2.2521	-2.1042	-2.6167	-2.0104	-2.3812	-2.1458	-2.0229	-2.2875	-2.1125	3.520	-123.850	125.430	74.204	56.637	-142.062	95.416	181.652	38.619	55.775	99.350	98.566	-70.585	105.027	197.391	200.502	0.00067719	0.00036284	0.00017511	843.21	5.2442e-06	5.3676e-06	730.4	357.66	5.3498e-06	4.7388e-06	322.73	119.65	148.06	58.79	3.7642e-06	54.215	0.00062206	0.00059727	0.00016922	835.88	5.9292e-06	6.6154e-06	726.6	357.54	6.4099e-06	6.213e-06	322.55	120.18	147.87	59.353	6.4249e-06	54.666	157.477	-65.855	-59.574	-139.034	-31.855	-25.199	-140.145	-135.492	-42.422	4.168	-137.116	-134.039	-132.365	-127.583	-6.124	-129.638	-8191	255	
27425.436	1	1	0	0	0.38743	0.19038	0.14717	0.11184	0.0851	0.045705	0.23038	0.17748	0.23924	0.2854	0.10373	0.16679	0.27055	0.12412	0.097029	0.10832	-1.4646	-2.2792	-1.8917	-2.2438	-2.2313	-1.9042	-2.4521	-2.2646	-1.975	-2.2958	-2.1021	-2.3937	-2.2604	-1.9625	-2.4354	-2.0417	-137.423	-51.835	193.861	-60.421	181.161	-146.114	139.765	88.734	83.608	175.906	114.163	-146.318	145.326	113.476	195.827	122.937	0.00069108	0.00059763	0.00015746	840.6	3.2008e-06	3.6251e-06	726.63	358.64	6.4076e-06	5.4578e-06	324.07	120.58	148.15	59.109	3.7612e-06	54.086	0.00061451	0.00056391	0.00016961	834.6	5.8004e-06	6.6768e-06	726.17	358.05	6.4937e-06	6.4777e-06	323.82	120.72	148.43	59.498	6.4719e-06	54.678	157.332	-80.456	-57.473	-139.173	-27.868	-11.903	-140.283	-135.540	-51.603	-14.928	-137.173	-134.159	-132.699	-127.519	-32.756	-129.434	-8191	255	
27425.508	1	1	0	0	0.27838	0.22002	0.032322	0.17927	0.15461	0.14919	0.15092	0.34753	0.092696	0.25771	0.054762	0.11367	0.10996	0.27471	0.15738	0.25184	-1.2437	-2.3104	-1.975	-2.2208	-2.1	-1.9292	-2.4354	-2.3187	-2.1021	-2.4458	-2.1771	-2.1688	-2.4562	-1.9438	-2.3292	-2.3583	-99.751	-122.718	81.788	-152.402	22.292	-50.305	-137.740	133.773	-16.599	-79.887	193.650	199.650	136.317	115.446	-127.261	185.546	0.00069597	0.00051907	0.00017624	840.29	5.4351e-06	3.4903e-06	732.41	358.89	5.8679e-06	4.7416e-06	325.26	121.09	148.73	59.511	4.2692e-06	54.693	0.00062304	0.00059132	0.00016256	834.38	5.9209e-06	6.5097e-06	728.06	358.41	6.5418e-06	6.4764e-06	324.82	121.44	148.62	59.656	6.6951e-06	54.976	156.204	-61.524	-64.314	-139.047	-38.646	-22.304	-139.986	-135.530	-42.547	-1.365	-137.153	-134.003	-132.381	-127.906	-27.530	-129.796	-8191	255	
27425.627	1	1	0	0	0.19083	0.085963	0.16022	0.26354	0.19384	0.072279	0.14126	0.30236	0.24821	0.079686	0.2752	0.16428	0.403	0.46089	0.13352	0.11657	-1.4958	-2.2625	-1.9667	-2.1958	-2.2708	-1.9937	-2.375	-2.1646	-1.7958	-2.2062	-1.9625	-2.25	-2.3063	-1.8896	-2.2833	-2.425	108.403	-37.964	-60.389	-85.613	141.682	-14.711	160.128	177.718	104.005	2.495	165.260	36.651	134.611	159.561	-138.872	176.022	0.00071015	0.00043218	0.00012595	840.84	3.2946e-06	4.7115e-06	729.72	360.01	6.702e-06	4.3112e-06	326.13	122.28	149.46	59.747	4.662e-06	54.529	0.00064639	0.00061057	0.0001674	835.38	6.1261e-06	6.5844e-06	729.2	359.34	6.8986e-06	6.6445e-06	326.3	122.23	149.62	60.045	6.8773e-06	55.233	157.664	-59.857	-60.966	-138.786	-13.774	-6.142	-140.037	-135.630	-30.967	-17.129	-136.925	-134.050	-132.471	-127.740	-46.843	-129.576	-8191	255	
27425.723	1	1	0	0	0.16331	0.18464	0.23878	0.40492	0.084265	0.20222	0.29624	0.30529	0.20605	0.2168	0.042954	0.054103	0.23756	0.36376	0.21513	0.50299	-1.6083	-2.2313	-1.8687	-2.0563	-2.2521	-1.7604	-2.1688	-2.475	-1.9688	-2.2854	-2.1917	-2.1417	-2.5104	-1.8021	-2.1083	-2.2729	37.074	-55.892	-50.738	-119.121	-35.741	-30.739	-107.705	178.486	205.688	142.525	147.063	50.723	167.832	155.112	1.475	145.749	0.00068672	0.00053923	0.00011439	846.31	3.497e-06	4.6457e-06	736.18	362.18	5.8902e-06	6.2114e-06	325.34	121.54	149.17	59.307	5.3366e-06	54.183	0.00064548	0.00058899	0.00017147	840.31	6.1305e-06	7.0032e-06	731.13	360.53	6.846e-06	6.4902e-06	325.59	121.62	149.33	59.619	6.8489e-06	54.769	158.221	-62.925	-71.736	-139.110	-32.311	-12.865	-139.888	-135.286	-52.256	12.954	-136.916	-134.090	-132.747	-127.665	-29.380	-129.444	-8191	255	
27425.818	1	1	0	0	0.10878	0.2331	0.21741	0.25551	0.21801	0.061925	0.23638	0.26047	0.097654	0.18228	0.109	0.24195	0.15752	0.22795	0.048165	0.13761	-1.4688	-2.2708	-2.0917	-2.1562	-2.4417	-2.1625	-2.2	-2.3479	-1.7188	-2.3146	-2.2667	-2.1521	-2.4646	-1.8937	-2.2208	-2.4521	-136.213	11.763	51.745	-135.309	-44.307	206.226	172.611	202.331	-133.585	97.137	147.121	147.845	164.528	105.443	-35.366	126.945	0.00068286	0.00050571	0.00018526	844.71	3.6753e-06	3.3044e-06	732.53	362.43	2.7698e-06	5.9734e-06	326.8	122.18	149.7	59.349	4.7211e-06	54.203	0.00063756	0.0005947	0.00017988	840	6.2393e-06	6.6663e-06	731.26	361.34	6.9142e-06	6.7003e-06	326.23	122.03	149.59	59.697	7.1656e-06	54.926	158.300	-50.585	-59.720	-138.882	-33.946	-7.318	-139.938	-135.559	-38.071	2.869	-137.125	-134.091	-132.666	-127.626	-14.782	-129.271	-8191	255	
27425.914	1	1	0	0	0.14503	0.099007	0.31847	0.15626	0.28302	0.25239	0.090931	0.32146	0.23708	0.05071	0.07806	0.14941	0.060783	0.17282	0.21355	0.1431	-1.4688	-2.1813	-2.1104	-2.0312	-2.3812	-1.9646	-2.0875	-2.5125	-1.8146	-2.1854	-2.2438	-2.0417	-2.3521	-2.2604	-1.975	-2.4167	-70.320	-34.665	115.848	203.782	107.941	-66.029	-80.211	-119.267	-60.288	79.507	-73.249	91.938	30.481	171.487	142.802	12.751	0.00068118	0.00048857	0.00013893	847.05	4.4786e-06	5.8415e-06	735.44	362.59	5.0202e-06	4.7315e-06	328.21	121.93	149.86	59.445	5.166e-06	54.343	0.00065049	0.00065006	0.00018117	840.82	6.4512e-06	7.241e-06	733.5	362.18	7.215e-06	6.7601e-06	326.97	122.3	149.99	59.716	7.2905e-06	54.936	157.010	-59.757	-67.152	-138.691	-40.172	-12.234	-140.098	-135.571	-38.730	3.421	-136.948	-134.071	-132.769	-127.798	-35.272	-129.540	-8191	255	
27426.035	1	1	0	0	0.11057	0.10892	0.22085	0.17422	0.21781	0.10606	0.28019	0.35078	0.17206	0.17627	0.10806	0.11853	0.26373	0.26545	0.21742	0.12113	-1.5292	-2.1562	-2.2667	-2.0083	-2.1083	-2.2521	-2.1021	-2.5167	-1.9083	-2.1937	-2.3583	-2	-2.2396	-2.1458	-1.7521	-2.4917	-64.794	173.943	53.917	172.012	-99.416	-35.550	164.211	86.606	119.054	-138.879	-55.315	-146.136	-119.561	193.239	-143.421	12.146	0.00072055	0.0004776	0.0001417	845.79	3.9456e-06	3.7403e-06	736.66	362.52	5.4718e-06	5.3509e-06	328.74	122.54	149.16	59.506	5.7158e-06	54.501	0.00064856	0.00064148	0.00017561	840.67	6.5861e-06	7.1927e-06	734.55	361.66	6.9912e-06	7.1325e-06	327.71	122.45	149.59	59.697	7.5649e-06	55.065	158.192	-63.144	-53.496	-138.974	-20.014	-1.333	-140.008	-135.655	-42.855	-18.660	-137.211	-134.067	-132.536	-127.716	-29.045	-129.535	-8191	255	
27426.105	1	1	0	0	0.18409	0.28784	0.26942	0.17367	0.024479	0.28323	0.06241	0.24692	0.26616	0.18341	0.17742	0.28614	0.13216	0.21651	0.10495	0.22958	-1.4813	-1.8833	-2.0708	-1.8896	-2.0646	-2.2375	-2.2542	-2.3875	-2.0146	-2.0833	-2.2562	-2.0979	-2.4875	-2.2938	-2.0104	-2.2667	175.502	86.228	37.544	168.466	172.948	137.484	53.938	98.097	-127.568	160.330	174.955	151.802	119.554	144.235	-72.519	-109.600	0.0006987	0.00051849	0.00013729	852.27	3.6131e-06	5.4271e-06	738.63	364.03	5.05e-06	4.5957e-06	327.67	121.12	149.17	59.059	4.3343e-06	54.184	0.00064778	0.00063734	0.0001719	845.81	6.4132e-06	7.2225e-06	736.4	362.67	7.3191e-06	7.1555e-06	327.15	121.83	149.36	59.435	7.3779e-06	54.65	155.740	-69.190	-58.790	-138.962	-38.435	7.979	-139.958	-135.467	-70.691	-8.962	-137.217	-133.695	-132.503	-127.557	-27.266	-129.434	-8191	255	
27426.201	1	1	0	0	0.26579	0.23019	0.016487	0.17729	0.35412	0.11392	0.11562	0.59731	0.23484	0.13815	0.51498	0.05518	0.23147	0.3568	0.30845	0.14254	-1.4708	-1.7833	-2.325	-2.1479	-2.275	-2.3417	-1.9146	-2.4938	-2.0521	-2.1896	-2.5625	-2.0812	-2.2104	-2.2333	-1.8083	-2.4813	125.212	-73.259	-110.757	-97.079	175.085	107.283	104.057	137.728	-123.124	-133.094	194.846	-139.382	-115.583	-109.861	-50.361	-127.319	0.00068499	0.00057874	0.00017749	846.48	4.5872e-06	4.2869e-06	736.4	361.64	6.0665e-06	5.526e-06	327.52	121.62	149	59.061	4.6581e-06	54.096	0.00067689	0.00066009	0.00018755	841.13	6.6073e-06	7.6294e-06	732.13	361.14	7.3151e-06	7.4077e-06	326.39	121.9	149.42	59.382	8.1036e-06	54.61	157.560	-67.875	-65.325	-138.788	-43.365	-9.140	-139.874	-135.513	-51.698	-6.003	-137.314	-134.065	-132.500	-127.733	-35.724	-129.707	-8191	255	
27426.322	1	1	0	0	0.060198	0.053056	0.10692	0.30435	0.1769	0.11904	0.1458	0.21511	0.092863	0.046063	0.21895	0.068956	0.070409	0.23889	0.18924	0.28958	-1.8	-2.1083	-2.5021	-2.2	-2.2729	-2.2875	-1.7896	-2.3354	-2.2083	-1.9792	-2.525	-2.1354	-2.1437	-2.3917	-1.8208	-2.1146	133.724	206.504	152.234	163.440	146.703	187.185	162.193	160.656	108.482	-91.882	115.453	-48.980	103.863	180.376	-109.474	51.440	0.00068761	0.00046803	0.00013224	849.74	2.9817e-06	4.628e-06	739.87	365.27	4.5945e-06	4.724e-06	331.43	123.5	150.99	58.952	4.3296e-06	54.412	0.00066585	0.00070477	0.00019237	844.59	7.3478e-06	7.8242e-06	738.9	363.84	8.1324e-06	8.7363e-06	330.25	123.69	150.98	59.336	8.927e-06	54.901	156.305	-49.870	-61.542	-138.961	-19.040	-0.028	-139.939	-135.476	-21.111	-10.415	-137.224	-134.062	-132.558	-127.656	-29.747	-129.614	-8191	255	
27426.420	1	1	0	0	0.35357	0.11147	0.12353	0.19319	0.15921	0.1587	0.13404	0.12246	0.13653	0.22101	0.086006	0.20565	0.21933	0.27786	0.21547	0.073796	-1.6229	-1.6708	-2.3083	-2.0604	-2.0875	-2.4271	-2.0438	-2.3771	-2.2	-1.8042	-2.3417	-1.9667	-2.1583	-2.3958	-1.9937	-2.275	49.929	-4.551	104.283	111.672	-61.235	121.940	112.084	115.382	-59.261	-119.975	187.463	108.135	-123.294	168.649	57.806	-56.707	0.00063816	0.00050988	0.00014113	856.69	4.6118e-06	5.957e-06	747.56	367.33	6.1198e-06	5.2667e-06	332.19	124.2	150.36	59.038	6.4284e-06	54.335	0.00074922	0.0008192	0.00022026	850.46	8.2679e-06	9.1097e-06	745.32	366.54	9.0792e-06	9.6518e-06	331.6	124.47	151.07	59.348	9.2003e-06	54.884	158.092	-64.867	-63.397	-138.843	-11.748	0.510	-139.890	-135.461	-43.053	7.991	-137.096	-134.135	-132.588	-127.813	-33.240	-129.524	-8191	255	
27426.516	1	1	0	0	0.12913	0.10159	0.13002	0.29065	0.016737	0.041143	0.10786	0.22961	0.1576	0.050198	0.32747	0.05614	0.13795	0.4672	0.098649	0.043513	-1.7833	-1.8875	-2.4083	-2.1479	-2.1083	-2.5958	-2.1125	-2.3312	-2.3563	-1.8104	-2.3833	-2.0417	-2.1833	-2.4437	-1.95	-2.3042	-19.175	-78.029	-120.517	173.850	135.043	-148.484	143.978	112.262	175.974	174.596	-88.633	82.297	-22.913	174.399	138.712	93.178	0.00067567	0.0006467	0.00017709	852.36	3.8087e-06	4.1872e-06	746.58	367.09	5.5237e-06	5.1582e-06	332.67	124.77	151.6	59.083	4.7211e-06	54.12	0.00075656	0.00083244	0.00022937	847.78	8.4352e-06	9.4122e-06	744.33	366.98	9.1128e-06	9.5323e-06	332.9	125.05	151.75	59.456	9.7884e-06	54.675	154.917	-87.741	-70.726	-138.837	-36.291	-4.615	-139.839	-135.553	-30.850	-3.836	-137.214	-134.187	-132.684	-127.719	-27.666	-129.612	-8191	255	
27426.611	1	1	0	0	0.21536	0.23329	0.24372	0.12861	0.16721	0.090414	0.062606	0.37676	0.053108	0.063513	0.17294	0.14919	0.26121	0.31582	0.25503	0.21415	-1.8937	-1.9708	-2.1792	-1.9979	-1.9312	-2.4542	-2.1354	-2.2854	-2.3146	-2.0771	-2.4792	-2.175	-2.1312	-2.5104	-2.0583	-2.3521	-107.643	124.749	-102.542	40.770	56.467	-63.171	9.653	176.381	141.806	151.344	134.064	194.247	133.200	-146.107	195.673	143.670	0.00067139	0.00066319	0.00015088	852.45	3.4378e-06	6.0953e-06	742.11	366.58	6.1604e-06	5.3646e-06	329.07	122.82	150.69	58.993	5.9904e-06	54.382	0.000783	0.00084755	0.00022765	850.49	8.4107e-06	8.9894e-06	741.08	365.7	8.8883e-06	9.1652e-06	329.84	123.63	150.94	59.247	9.2636e-06	54.605	155.345	-65.492	-72.293	-139.042	-31.031	1.337	-140.092	-135.535	-45.682	-28.900	-137.007	-134.434	-132.670	-127.522	-9.958	-129.596	-8191	255	
27426.732	1	1	0	0	0.10591	0.034724	0.20358	0.16955	0.22811	0.17757	0.30724	0.29564	0.13873	0.17853	0.21286	0.057614	0.21347	0.10612	0.13292	0.31788	-1.8083	-2.15	-2.3708	-2.4396	-2.025	-2.4125	-2.3438	-2.2146	-2.6188	-2.1021	-2.3187	-2.2771	-2.1208	-2.4458	-2.1583	-2.2625	-129.251	-22.672	120.240	148.389	150.558	-9.876	139.846	108.175	97.896	-3.989	-68.040	101.226	134.403	124.021	189.937	76.711	0.00064879	0.00040593	0.00020222	855.48	2.5563e-06	6.9306e-06	742.02	364.29	6.1115e-06	5.6751e-06	329.28	122.83	151.41	59.036	5.5448e-06	54.073	0.00074597	0.0008125	0.00023041	849.93	8.419e-06	8.7563e-06	741.97	365.08	8.4852e-06	9.1225e-06	329.46	123.28	151.22	59.349	8.7177e-06	54.579	157.616	-70.210	-74.230	-139.053	-25.828	0.326	-140.167	-135.351	-48.036	-9.051	-137.000	-134.095	-132.559	-127.754	-29.502	-129.917	-8191	255	
27426.805	1	1	0	0	0.13658	0.22165	0.043137	0.37752	0.21381	0.29418	0.10307	0.18966	0.099172	0.092388	0.18248	0.27751	0.24267	0.34246	0.075221	0.24674	-1.825	-1.8896	-2.1354	-2.4188	-1.8708	-2.3479	-2.1333	-2.1437	-2.4125	-2.15	-2.2396	-2.1146	-1.9542	-2.3292	-2.0854	-1.9375	-12.587	28.854	87.514	165.196	-61.366	12.007	139.503	173.215	157.738	81.692	195.363	167.790	-115.780	113.020	140.641	-86.464	0.00064213	0.00053475	0.00018154	851.44	4.8252e-06	5.8388e-06	744.22	366.53	5.5637e-06	3.6235e-06	330.15	123.08	149.72	58.906	4.734e-06	54.222	0.00071916	0.00077727	0.00021918	848.62	8.2662e-06	8.4557e-06	741.1	364.94	7.9062e-06	8.6503e-06	329.39	123.38	150.76	59.313	8.2164e-06	54.694	159.596	-55.129	-74.394	-138.917	-21.616	-9.837	-139.837	-135.563	-23.404	-13.068	-137.328	-134.194	-132.672	-127.788	-32.418	-129.504	-8191	255	
#DATA ENDS
