BOXY.EXE: ISS Imagent and Oximeter Data Acquisition Program Version 0.80
Ascii Record File

#ACQ INFORMATION
2  Detector Channels 
16  External MUX Channels 
1  Auxiliary Channels 
5000  Waveform (CCF) Frequency (Hz)
1  Waveforms Skipped 
30  Waveforms Averaged 
1  Cycles Averaged 
16  Acquisitions per Waveform 
10.0806  Updata Rate (Hz) 

#FILE INFORMATION
TRUE -- External MUX Channel results are PARSED.
FALSE -- AC DC and Phase are NOT grouped.
TRUE -- Companion Program Settings File CREATED.
FALSE -- AC data not excluded
FALSE -- DC data not excluded
FALSE -- Phase data not excluded
FALSE -- Auxillary Chn. data not excluded
Tab delimiters

#CALIBRATION STATE
TRUE -- Waveform Calibration Values APPLIED.


#AUX CALIBRATION VALUES
Val Type	aux-1	

Term	1.0000e+00	
Factor	0.0000e+00	


#WF CALIBRATION VALUES
A = Detector Channel
Val Type	A-AC1	A-AC2	A-AC3	A-AC4	A-AC5	A-AC6	A-AC7	A-AC8	A-AC9	A-AC10	A-AC11	A-AC12	A-AC13	A-AC14	A-AC15	A-AC16	A-DC1	A-DC2	A-DC3	A-DC4	A-DC5	A-DC6	A-DC7	A-DC8	A-DC9	A-DC10	A-DC11	A-DC12	A-DC13	A-DC14	A-DC15	A-DC16	A-Ph1	A-Ph2	A-Ph3	A-Ph4	A-Ph5	A-Ph6	A-Ph7	A-Ph8	A-Ph9	A-Ph10	A-Ph11	A-Ph12	A-Ph13	A-Ph14	A-Ph15	A-Ph16	

Term	0.00000e+00	0.00000e+00	0.00000e+00	0.00000e+00	0.00000e+00	0.00000e+00	0.00000e+00	0.00000e+00	0.00000e+00	0.00000e+00	0.00000e+00	0.00000e+00	0.00000e+00	0.00000e+00	0.00000e+00	0.00000e+00	0.00000e+00	0.00000e+00	0.00000e+00	0.00000e+00	0.00000e+00	0.00000e+00	0.00000e+00	0.00000e+00	0.00000e+00	0.00000e+00	0.00000e+00	0.00000e+00	0.00000e+00	0.00000e+00	0.00000e+00	0.00000e+00	0.00000e+00	0.00000e+00	0.00000e+00	0.00000e+00	0.00000e+00	0.00000e+00	0.00000e+00	0.00000e+00	0.00000e+00	0.00000e+00	0.00000e+00	0.00000e+00	0.00000e+00	0.00000e+00	0.00000e+00	0.00000e+00	
Factor	1.00000e+00	1.00000e+00	1.00000e+00	1.00000e+00	1.00000e+00	1.00000e+00	1.00000e+00	1.00000e+00	1.00000e+00	1.00000e+00	1.00000e+00	1.00000e+00	1.00000e+00	1.00000e+00	1.00000e+00	1.00000e+00	1.00000e+00	1.00000e+00	1.00000e+00	1.00000e+00	1.00000e+00	1.00000e+00	1.00000e+00	1.00000e+00	1.00000e+00	1.00000e+00	1.00000e+00	1.00000e+00	1.00000e+00	1.00000e+00	1.00000e+00	1.00000e+00	X	X	X	X	X	X	X	X	X	X	X	X	X	X	X	X	

B = Detector Channel
Val Type	B-AC1	B-AC2	B-AC3	B-AC4	B-AC5	B-AC6	B-AC7	B-AC8	B-AC9	B-AC10	B-AC11	B-AC12	B-AC13	B-AC14	B-AC15	B-AC16	B-DC1	B-DC2	B-DC3	B-DC4	B-DC5	B-DC6	B-DC7	B-DC8	B-DC9	B-DC10	B-DC11	B-DC12	B-DC13	B-DC14	B-DC15	B-DC16	B-Ph1	B-Ph2	B-Ph3	B-Ph4	B-Ph5	B-Ph6	B-Ph7	B-Ph8	B-Ph9	B-Ph10	B-Ph11	B-Ph12	B-Ph13	B-Ph14	B-Ph15	B-Ph16	

Term	0.00000e+00	0.00000e+00	0.00000e+00	0.00000e+00	0.00000e+00	0.00000e+00	0.00000e+00	0.00000e+00	0.00000e+00	0.00000e+00	0.00000e+00	0.00000e+00	0.00000e+00	0.00000e+00	0.00000e+00	0.00000e+00	0.00000e+00	0.00000e+00	0.00000e+00	0.00000e+00	0.00000e+00	0.00000e+00	0.00000e+00	0.00000e+00	0.00000e+00	0.00000e+00	0.00000e+00	0.00000e+00	0.00000e+00	0.00000e+00	0.00000e+00	0.00000e+00	2.53724e+01	-1.25825e+02	-1.32423e+02	-1.86157e+02	-5.31231e+01	-7.74207e+01	-1.59021e+02	-1.62015e+02	-9.81342e+01	-6.42266e+01	-1.73719e+02	-1.69925e+02	-1.79918e+02	-1.77120e+02	-6.73402e+01	-1.50188e+02	
Factor	4.43643e-05	1.31752e-04	3.84766e-05	6.00296e-01	1.09162e-06	1.23883e-06	1.58776e-01	4.81384e-02	1.60025e-06	1.38813e-06	8.39062e-02	2.75674e-02	2.39658e-02	9.07276e-03	1.49700e-06	1.30833e-02	1.61200e-06	1.67637e-06	4.65165e-07	2.83808e-01	1.83225e-08	1.83332e-08	7.47258e-02	2.41391e-02	1.82575e-08	1.83873e-08	4.04860e-02	1.32768e-02	1.20086e-02	4.53932e-03	1.82600e-08	6.30792e-03	X	X	X	X	X	X	X	X	X	X	X	X	X	X	X	X	



#DISTANCE SETTINGS
A = Detector Channel
A-1	A-2	A-3	A-4	A-5	A-6	A-7	A-8	A-9	A-10	A-11	A-12	A-13	A-14	A-15	A-16	

2.5000e+00	3.0000e+00	2.5000e+00	3.0000e+00	2.0000e+00	3.0000e+00	1.5000e+00	3.0000e+00	3.0000e+00	3.0000e+00	3.0000e+00	3.0000e+00	3.0000e+00	3.0000e+00	1.5000e+00	3.0000e+00	

B = Detector Channel
B-1	B-2	B-3	B-4	B-5	B-6	B-7	B-8	B-9	B-10	B-11	B-12	B-13	B-14	B-15	B-16	

1.0000e+01	1.0000e+01	1.0000e+01	1.4400e+00	1.0000e+01	1.0000e+01	1.5100e+00	1.9400e+00	1.0000e+01	1.0000e+01	1.9900e+00	2.4900e+00	2.4100e+00	2.9000e+00	1.0000e+01	2.9800e+00	




#DATA BEGINS
time	group	step	mark	flag	A-AC1	A-AC2	A-AC3	A-AC4	A-AC5	A-AC6	A-AC7	A-AC8	A-AC9	A-AC10	A-AC11	A-AC12	A-AC13	A-AC14	A-AC15	A-AC16	A-DC1	A-DC2	A-DC3	A-DC4	A-DC5	A-DC6	A-DC7	A-DC8	A-DC9	A-DC10	A-DC11	A-DC12	A-DC13	A-DC14	A-DC15	A-DC16	A-Ph1	A-Ph2	A-Ph3	A-Ph4	A-Ph5	A-Ph6	A-Ph7	A-Ph8	A-Ph9	A-Ph10	A-Ph11	A-Ph12	A-Ph13	A-Ph14	A-Ph15	A-Ph16	B-AC1	B-AC2	B-AC3	B-AC4	B-AC5	B-AC6	B-AC7	B-AC8	B-AC9	B-AC10	B-AC11	B-AC12	B-AC13	B-AC14	B-AC15	B-AC16	B-DC1	B-DC2	B-DC3	B-DC4	B-DC5	B-DC6	B-DC7	B-DC8	B-DC9	B-DC10	B-DC11	B-DC12	B-DC13	B-DC14	B-DC15	B-DC16	B-Ph1	B-Ph2	B-Ph3	B-Ph4	B-Ph5	B-Ph6	B-Ph7	B-Ph8	B-Ph9	B-Ph10	B-Ph11	B-Ph12	B-Ph13	B-Ph14	B-Ph15	B-Ph16	aux-1	digaux	

1842.674	1	1	0	256	0.31516	0.18898	0.10803	0.31634	0.27632	0.19968	0.27458	0.23024	0.063901	0.066037	0.26526	0.097125	0.11985	0.20043	0.062231	0.065887	-2.3604	-2.8729	-2.6188	-2.9708	-2.6813	-2.7938	-3.0708	-2.8625	-2.8271	-3.0625	-2.7271	-2.9125	-2.9667	-2.725	-2.9979	-3.0375	-74.875	-14.032	26.127	208.676	52.365	18.572	213.949	-91.945	-11.378	-64.504	232.344	-110.289	146.271	173.364	-17.028	-11.359	0.00072013	0.00047536	0.00033723	926.22	1.2288e-05	6.7777e-07	1263.8	285.85	1.6709e-05	1.5434e-05	467.19	157.74	100.06	45.929	1.5643e-05	83.776	0.00075079	0.00066348	0.00018513	845.37	7.9686e-06	7.3302e-06	1049.2	241.49	8.0346e-06	7.0662e-06	392.14	133.08	85.418	38.506	7.6305e-06	70.211	-11.478	-59.633	33.892	-97.088	89.662	-96.070	-97.842	-92.769	-50.531	31.392	-94.654	-89.748	-88.466	-82.659	-55.812	-85.759	-8191	255	
1842.770	1	1	0	0	0.24052	0.16311	0.12528	0.047792	0.092075	0.071217	0.055984	0.12867	0.22415	0.44432	0.10968	0.27253	0.022358	0.32697	0.09086	0.17716	-2.2958	-2.9562	-2.6458	-2.9062	-2.8167	-2.6	-3.0333	-2.7188	-2.7771	-2.8896	-2.9062	-2.8104	-2.9813	-2.7583	-2.9	-3.0438	218.683	186.947	143.969	184.819	246.725	76.266	163.282	177.010	74.517	139.012	-96.331	237.536	108.486	-98.424	-81.221	241.941	0.00057192	0.00048409	0.0003825	945.08	8.0832e-06	1.2557e-05	1257	284.28	1.045e-05	1.7279e-05	469.9	159.8	101.21	45.875	6.7691e-06	85.605	0.0007195	0.00065012	0.00020519	847.19	7.7481e-06	7.2305e-06	1050.1	241.06	7.7276e-06	6.9893e-06	395.14	134.29	85.764	38.753	8.4544e-06	71.345	-8.823	145.965	-96.424	-97.095	-8.232	51.230	-98.209	-92.553	-42.263	74.010	-94.164	-89.583	-88.099	-82.406	-92.945	-85.798	-8191	255	
1842.889	1	1	0	0	0.07728	0.15563	0.13592	0.014851	0.15653	0.29536	0.050238	0.13604	0.32575	0.21456	0.15596	0.23242	0.10999	0.16056	0.31666	0.24001	-2.2	-2.9062	-2.7417	-2.6937	-2.9271	-2.4146	-3.3292	-2.9125	-2.4292	-3.1479	-3.0187	-2.7708	-2.9562	-2.8771	-3.0812	-2.7938	-89.400	45.190	-26.461	-69.532	36.147	-26.654	-90.685	157.806	-67.557	-62.966	136.264	225.574	116.284	234.582	179.174	241.931	0.00085432	0.0010543	0.00018898	937.13	1.9381e-06	6.2453e-06	1268.7	287.15	2.0637e-05	1.1253e-05	474.48	162.6	101.09	46.867	1.3931e-05	86.227	0.00068756	0.00064173	0.00021913	843.62	7.3664e-06	7.285e-06	1059.3	242.49	7.4683e-06	7.3445e-06	400.17	135.84	85.927	39.458	8.8514e-06	72.089	-13.945	-64.417	24.412	-98.212	221.592	184.745	-98.128	-93.120	20.201	154.885	-94.150	-89.915	-88.517	-82.556	39.916	-85.580	-8191	255	
1842.985	1	1	0	0	0.072023	0.14028	0.19223	0.096337	0.032193	0.22154	0.31805	0.41572	0.17692	0.12311	0.13487	0.086511	0.28872	0.096096	0.12857	0.25006	-2.1479	-2.9896	-2.6792	-2.6958	-3.2333	-2.5521	-3.1292	-3	-2.4646	-3.0938	-2.6521	-3.0292	-3.0854	-2.7125	-3.0687	-3.1833	99.092	4.782	-87.922	7.315	81.182	186.192	206.585	-82.341	159.846	-37.892	164.537	145.611	-82.653	32.519	75.729	-109.824	0.0009242	0.00018826	0.00031577	944.62	7.6579e-06	5.2437e-06	1266.3	289.98	9.4211e-06	6.7028e-06	473.81	161.65	101.23	45.681	4.1783e-06	82.87	0.00067499	0.00068992	0.00022749	841.18	7.1626e-06	7.9834e-06	1061.3	242.43	7.1298e-06	7.8519e-06	399.04	135.14	85.762	38.738	8.5692e-06	68.889	-11.776	-107.480	-14.580	-96.999	-30.725	124.663	-97.834	-92.693	-80.416	187.888	-94.053	-89.747	-88.072	-82.698	33.257	-85.818	-8191	255	
1843.081	1	1	0	0	0.22161	0.29378	0.22456	0.21283	0.20591	0.035361	0.21735	0.44449	0.22674	0.20875	0.34048	0.31052	0.011672	0.15991	0.13924	0.20175	-2.2729	-3	-2.8583	-2.6875	-3.0604	-2.5792	-3.05	-2.9479	-2.6958	-2.8854	-2.9104	-2.7271	-3.0563	-2.6146	-2.7729	-3.1375	178.719	210.063	233.657	241.318	151.113	-10.129	155.172	214.430	-107.660	142.048	184.132	214.431	141.893	184.831	-102.482	-104.358	0.00071417	0.00099861	0.0002255	933.45	2.347e-06	3.465e-06	1262.7	285.29	8.7136e-06	1.2627e-05	475.15	157.83	99.947	44.901	7.6012e-06	82.364	0.00065784	0.00074197	0.00021455	826.6	6.9516e-06	8.4313e-06	1052.6	239.73	7.0877e-06	8.429e-06	395.6	132.32	84.952	38.462	8.0259e-06	68.461	-12.667	94.263	-26.846	-97.836	108.758	182.471	-97.823	-92.552	-12.443	146.640	-94.025	-89.828	-87.762	-82.609	65.809	-85.452	-8191	255	
1843.202	1	1	0	0	0.076244	0.28144	0.070857	0.10031	0.20842	0.039108	0.20106	0.037744	0.1004	0.15648	0.27361	0.18394	0.22891	0.13973	0.10657	0.17439	-2.2542	-3.1104	-2.6979	-2.7188	-3.0375	-2.6708	-2.9188	-2.8396	-2.5396	-2.7771	-3.0542	-2.4583	-3.0875	-2.6875	-2.8854	-3.15	-27.525	-40.054	82.845	-81.064	27.185	50.593	182.849	22.574	-9.328	-43.270	-82.985	-70.134	207.903	54.368	0.420	178.900	0.00095124	0.00053146	6.7441e-05	926.71	7.6784e-06	7.9767e-06	1259.3	286.83	1.1464e-05	8.0203e-06	468.65	157.22	100.93	45.637	1.8393e-05	83.398	0.00066765	0.0008106	0.00019939	821.75	7.3718e-06	8.7271e-06	1047.8	239.46	7.6184e-06	8.7974e-06	392.81	131.69	85.427	38.733	7.6581e-06	69.535	-29.668	-53.538	118.949	-97.492	-90.025	83.816	-97.915	-93.100	-94.818	63.218	-94.513	-89.619	-88.056	-82.986	-13.915	-85.749	-8191	255	
1843.273	1	1	0	0	0.094763	0.10449	0.24046	0.084967	0.15689	0.11173	0.23623	0.126	0.085394	0.079961	0.20059	0.278	0.16262	0.1713	0.16759	0.12211	-2.2521	-2.8521	-2.9396	-2.6521	-3.0167	-2.8167	-2.9333	-3.1792	-2.6	-2.9188	-3.1958	-2.5312	-3.0292	-2.8667	-2.7917	-3.1292	103.464	-90.503	-99.049	211.051	182.013	86.551	239.500	145.410	-21.488	-109.948	245.549	218.363	248.080	241.499	-53.607	117.841	0.00070909	0.0019124	0.00040917	928.25	4.6999e-06	1.0108e-05	1257.1	284.1	1.3285e-05	7.3278e-06	472.13	158.74	99.666	45.898	9.2348e-06	85.118	0.00073472	0.0008104	0.0001962	819.22	8.0164e-06	8.8176e-06	1047.2	238.46	8.4567e-06	8.6218e-06	392.97	132.81	85.58	39.078	7.6795e-06	70.697	3.578	-36.296	-45.217	-97.770	-30.132	12.789	-97.801	-92.707	-89.963	222.901	-94.159	-89.520	-88.104	-82.335	-54.235	-85.230	-8191	255	
1843.370	1	1	0	0	0.15651	0.18557	0.11191	0.072378	0.22483	0.2024	0.16235	0.31649	0.13132	0.20969	0.11559	0.19122	0.12707	0.21273	0.24985	0.22412	-2.1729	-2.5667	-2.9354	-2.3854	-2.9458	-2.8458	-2.8063	-3.0542	-2.7729	-2.7542	-3.1063	-2.6875	-3.2062	-2.7604	-2.6896	-3.1562	235.975	-64.114	207.626	-15.478	112.554	71.547	201.702	164.013	-58.449	-36.763	236.204	-103.686	183.839	225.574	-9.177	150.860	0.00088359	0.0010055	0.00016027	932.3	1.1487e-05	1.7833e-05	1277.9	288	4.6742e-06	2.7572e-06	474.97	160	100.44	45.476	1.1278e-05	82.694	0.0007992	0.00078422	0.00019065	824.03	8.875e-06	8.1211e-06	1054	240.91	8.9281e-06	8.0363e-06	393.37	134.27	86.576	38.53	7.3446e-06	69.092	-17.715	-72.871	16.226	-98.009	83.591	-27.932	-97.919	-92.746	214.336	102.548	-94.603	-90.214	-87.873	-82.326	48.163	-85.375	-8191	255	
1843.466	1	1	0	0	0.22497	0.30328	0.19906	0.17101	0.21694	0.3053	0.30944	0.14954	0.13388	0.11645	0.20549	0.088296	0.08402	0.39929	0.15413	0.13763	-2.4	-2.7042	-3.1646	-2.4792	-3.1042	-2.7854	-2.7875	-3.2521	-2.5708	-2.7375	-3.0854	-2.625	-2.7792	-3.0583	-2.5646	-2.9125	-80.265	-96.327	59.309	65.152	92.748	-56.149	183.437	175.605	66.073	71.048	219.061	75.691	-51.694	220.046	201.597	-110.865	0.00097515	0.00033799	0.00022287	931.93	3.2162e-06	3.0195e-06	1263.3	287	3.0226e-06	9.2756e-06	469.74	157.06	99.392	44.823	8.2891e-06	81.747	0.00079016	0.00069692	0.00017747	829.35	8.5872e-06	7.4456e-06	1049.4	241.28	8.4378e-06	7.5083e-06	391.76	132.12	85.363	37.839	7.053e-06	68.257	-36.823	-23.148	-69.556	-97.034	240.580	124.409	-97.931	-92.990	87.972	81.685	-94.178	-90.015	-87.848	-82.892	-2.906	-85.597	-8191	255	
1843.562	1	1	0	0	0.24523	0.21959	0.021147	0.10571	0.14362	0.26942	0.21987	0.32464	0.15149	0.23508	0.29708	0.24713	0.16264	0.31573	0.15645	0.3149	-2.6104	-2.5938	-2.9375	-2.4813	-2.9188	-3.0312	-2.7	-3.225	-2.8292	-2.7729	-2.9062	-3.0021	-2.6958	-3.075	-2.6917	-3.1354	-33.173	-79.785	-102.304	-66.434	22.192	227.694	185.049	230.110	28.186	230.204	245.878	-67.318	-72.010	-85.030	238.383	185.869	0.00077643	0.00073427	0.00018929	923.46	7.1123e-06	7.5974e-06	1264.5	286.77	1.3653e-05	1.0923e-05	469.5	158.04	100.17	45.403	1.1218e-05	83.438	0.00075979	0.00068061	0.00017567	834.09	8.3419e-06	7.1882e-06	1047.5	241.55	8.141e-06	7.3722e-06	391.67	132.74	85.508	38.109	7.2172e-06	69.959	3.806	-6.249	85.560	-97.095	46.421	-27.435	-98.138	-92.603	-13.121	-22.120	-94.079	-89.663	-87.931	-82.575	244.685	-85.525	-8191	255	
1843.681	1	1	0	0	0.2894	0.17846	0.086409	0.094481	0.047451	0.07331	0.19103	0.12051	0.18913	0.14047	0.31413	0.11219	0.067263	0.21927	0.036492	0.21901	-2.45	-2.5812	-3.2167	-2.6521	-2.8958	-2.9354	-2.7646	-3.0125	-2.9208	-2.6333	-3.1583	-2.9208	-2.9458	-3.1021	-2.7125	-2.9562	0.850	104.125	-60.511	-77.828	-47.829	104.285	167.152	-56.643	-57.762	84.347	211.715	178.919	-80.793	214.394	-53.523	-43.542	0.00057992	0.00068847	5.2587e-05	933.95	7.4817e-06	1.1156e-05	1258.4	288.89	2.2958e-05	4.996e-06	478.18	159.91	101.35	45.878	9.2279e-06	85.862	0.00073035	0.0006572	0.00018286	843.31	7.7447e-06	6.9031e-06	1050.5	243.67	7.6127e-06	7.2082e-06	396.76	134.35	85.629	38.687	7.7968e-06	71.482	-22.375	-14.037	-3.358	-97.541	107.650	20.405	-97.841	-92.491	18.642	68.557	-94.338	-89.841	-88.052	-82.575	197.441	-85.521	-8191	255	
1843.777	1	1	0	0	0.14595	0.12243	0.13458	0.19645	0.24187	0.095867	0.17663	0.044793	0.17327	0.1221	0.23973	0.051172	0.30884	0.16388	0.36165	0.21719	-2.4042	-2.5938	-2.8542	-2.7083	-2.575	-3.3063	-2.7875	-3.2	-2.8375	-2.6604	-3.2146	-2.8542	-2.6917	-3.0438	-2.5187	-3.0542	-97.238	210.832	-66.987	73.706	145.353	205.597	171.949	-76.154	-74.517	-96.399	112.180	237.424	-109.157	216.963	154.793	106.065	0.00047654	0.0006039	0.00018769	945.73	7.9284e-06	7.4003e-06	1275.3	288.29	1.5304e-05	5.9363e-06	475.26	161.59	101.57	45.794	9.8821e-06	84.296	0.00069894	0.00063095	0.00020469	851.24	7.4965e-06	6.8501e-06	1060.7	243.01	7.4598e-06	7.1044e-06	398.21	135.57	85.968	38.424	8.5264e-06	70.45	-3.637	-47.237	-92.121	-97.559	212.471	-40.811	-98.280	-92.478	9.012	10.129	-94.350	-89.642	-87.861	-82.123	213.575	-85.250	-8191	255	
1843.873	1	1	0	0	0.083019	0.1633	0.075373	0.22032	0.30226	0.1217	0.1502	0.25261	0.17501	0.14197	0.073353	0.13483	0.23136	0.22854	0.24473	0.37761	-2.5354	-2.5083	-3.0292	-2.7792	-2.7396	-3.15	-2.9729	-2.8375	-3.1229	-2.5187	-3.2167	-2.9437	-2.85	-3.0438	-2.9354	-2.8479	133.617	-76.419	125.638	117.687	1.452	197.397	178.129	188.617	220.553	0.795	208.356	-33.030	-97.133	-67.202	39.750	-99.205	0.00070986	0.0005329	0.00026661	925.77	4.1212e-06	9.3792e-06	1261.8	288.19	1.1418e-05	8.4692e-06	468.64	159.48	100.53	44.88	5.8641e-06	81.963	0.00066749	0.00067337	0.00021818	833.33	7.2671e-06	7.1019e-06	1054.7	241.92	7.13e-06	7.3466e-06	395.83	133.39	85.353	38.04	8.5977e-06	68.474	-10.844	-42.738	-20.584	-96.658	119.992	10.579	-97.828	-92.702	-1.297	22.614	-93.913	-89.826	-87.996	-82.601	206.331	-85.610	-8191	255	
1843.969	1	1	0	0	0.23759	0.13539	0.088431	0.32161	0.21495	0.15908	0.22157	0.13565	0.043916	0.227	0.20211	0.27807	0.040037	0.094264	0.12786	0.28589	-2.7979	-2.3937	-2.9083	-2.8354	-2.5833	-3.1583	-2.9354	-2.8917	-2.9708	-2.6583	-3.2188	-2.8667	-2.8833	-3.1667	-2.8917	-2.8354	94.066	94.101	1.870	-108.803	-38.004	124.727	32.796	225.048	-78.496	191.194	205.348	205.119	-7.144	199.748	22.682	235.388	0.0010292	0.00068478	0.00046275	956.44	3.5533e-06	1.2267e-05	1269.4	286.38	1.0933e-05	3.3909e-06	475.21	161.73	102.31	45.567	9.2671e-06	84.795	0.00063965	0.00070743	0.00021536	830.72	7.1515e-06	7.6712e-06	1056.4	241.88	6.7616e-06	7.9223e-06	398.67	134	85.992	38.916	8.3536e-06	70.499	12.211	-77.265	-77.906	-97.766	4.823	22.801	-97.754	-92.639	22.405	54.376	-94.038	-89.773	-88.512	-82.050	247.982	-85.360	-8191	255	
1844.065	1	1	0	0	0.086077	0.28794	0.26518	0.090784	0.10298	0.11207	0.17896	0.22219	0.30248	0.052186	0.1132	0.23081	0.15449	0.15314	0.14736	0.17072	-2.6229	-2.5667	-2.9104	-3.0146	-2.5646	-3.0042	-2.7292	-2.8312	-3.0146	-2.6979	-2.6458	-3.0042	-2.5354	-2.9938	-2.8479	-2.5938	97.701	213.275	135.250	-74.338	-49.150	23.288	245.908	221.782	172.539	12.307	-39.863	227.414	168.269	-79.618	173.127	227.593	0.0010319	0.00088356	0.00016818	943.51	4.6987e-06	4.3343e-06	1268.3	288.49	1.6071e-06	1.1811e-05	479.53	162.53	102.36	46.507	2.1863e-05	86.159	0.00062808	0.00076609	0.00021076	830.85	7.3004e-06	8.3957e-06	1057.6	242.46	6.9371e-06	8.6857e-06	400.74	135.2	86.952	39.729	8.0393e-06	71.841	-2.028	-93.585	215.882	-97.544	20.583	28.473	-97.874	-92.595	-23.268	200.860	-94.786	-89.868	-87.910	-82.432	52.392	-85.605	-8191	255	
1844.162	1	1	0	0	0.18376	0.14282	0.1564	0.19208	0.095114	0.21752	0.21431	0.23196	0.24904	0.16931	0.28113	0.14424	0.20525	0.16427	0.26908	0.12283	-2.5729	-2.625	-2.7958	-2.9625	-2.5	-2.9104	-2.9375	-2.65	-2.9771	-2.7188	-2.9583	-3.0708	-2.7875	-2.875	-3.0062	-2.7021	-20.573	-69.844	197.138	-99.747	-7.888	19.007	188.368	183.139	-90.951	15.286	188.913	199.442	225.442	-27.315	75.037	249.262	0.00070658	0.0012718	0.00052373	942.28	1.2543e-05	4.4426e-06	1275.8	290.18	5.5266e-06	3.39e-06	480.43	164.22	102.27	46.788	1.766e-05	86.813	0.00068855	0.0008072	0.0002063	826.62	7.7682e-06	9.0878e-06	1057.8	242.97	7.7476e-06	9.0764e-06	400.53	136.49	87.495	39.893	7.6891e-06	71.97	-13.114	-49.666	-24.219	-97.210	238.939	90.507	-97.887	-92.538	-32.492	206.325	-94.268	-89.303	-87.933	-82.349	38.652	-85.660	-8191	255	
1844.282	1	1	0	0	0.030089	0.22349	0.26305	0.06562	0.3536	0.28156	0.024999	0.183	0.22612	0.11019	0.11731	0.26925	0.093527	0.22859	0.078306	0.18349	-2.8438	-2.5979	-2.7708	-3.2271	-2.75	-2.8625	-3.1979	-2.6333	-3.1479	-2.8208	-2.7479	-3.1667	-2.6458	-3	-2.9104	-2.8479	117.556	102.359	228.477	-15.273	-37.834	98.143	140.178	134.681	234.197	-59.352	247.479	-65.842	240.260	-98.426	-92.368	196.021	0.00072659	0.0011974	0.00026036	952.61	6.1136e-06	9.3128e-06	1270.9	288.95	3.8246e-06	6.9959e-06	477.04	162.97	102.28	45.33	9.689e-06	83.339	0.00074545	0.00077638	0.00019168	826.73	8.2191e-06	8.4383e-06	1054.6	242.27	8.1485e-06	8.2875e-06	397.06	135.03	87.54	38.796	7.1865e-06	69.03	-10.129	72.983	73.016	-97.157	-81.171	-9.412	-97.712	-92.656	-106.725	15.651	-94.397	-89.699	-88.151	-82.382	61.134	-85.484	-8191	255	
1844.378	1	1	0	0	0.24033	0.093589	0.18339	0.10373	0.13642	0.24892	0.17294	0.20719	0.050478	0.13139	0.38128	0.24847	0.28328	0.33452	0.14359	0.24687	-2.6521	-2.7208	-2.4333	-3.0542	-2.5708	-2.8458	-3.1	-2.8354	-2.9396	-3.0542	-2.7208	-3.1625	-2.7521	-2.9437	-3.1	-2.6771	226.489	35.869	210.613	15.792	237.503	-48.238	174.095	154.245	91.305	46.418	-72.052	128.361	-102.975	-65.419	209.416	177.811	0.00069164	0.0014828	0.00046884	929.27	5.4971e-07	4.5717e-06	1275.4	291.22	7.1403e-06	1.9117e-05	481.15	162.78	103.83	46.766	1.7968e-05	86.174	0.0007681	0.00072355	0.00018336	822.4	8.4612e-06	7.8581e-06	1054.9	244.11	8.5492e-06	7.4915e-06	400.21	135.83	88.284	39.501	6.8595e-06	71.382	4.726	33.385	13.376	-97.665	39.020	85.650	-97.825	-92.488	122.272	23.906	-94.684	-89.780	-88.224	-82.628	30.923	-85.653	-8191	255	
1844.474	1	1	0	0	0.040243	0.2619	0.13975	0.11655	0.22918	0.069122	0.16873	0.33735	0.15382	0.060154	0.21442	0.20296	0.13713	0.041932	0.032754	0.1171	-2.5146	-2.9458	-2.4625	-3.0625	-2.8104	-2.6333	-3.4333	-2.6937	-2.9271	-2.8063	-2.7521	-3.1792	-2.9292	-2.85	-3.2042	-2.6833	167.408	226.372	-43.082	-53.423	-17.540	-51.141	174.835	163.628	182.580	212.801	222.315	-77.602	-76.830	4.999	-108.179	-76.311	0.00031754	0.0010447	0.00048085	943.73	7.476e-06	3.2335e-06	1274.2	291.93	3.9148e-06	1.2013e-05	481.08	162.78	103.47	47.381	1.7048e-05	87.491	0.00078397	0.00070032	0.00017793	832.52	8.4714e-06	7.5958e-06	1058.6	244.97	8.5211e-06	7.2883e-06	399.43	136.82	88.399	39.941	6.8277e-06	73.032	23.118	-80.869	-64.218	-97.311	31.379	-44.489	-97.795	-92.595	118.006	-53.978	-93.686	-89.707	-88.322	-82.405	152.242	-85.626	-8191	255	
1844.571	1	1	0	0	0.05233	0.20395	0.080207	0.10507	0.14423	0.19531	0.32593	0.16864	0.060837	0.051444	0.26939	0.11577	0.057267	0.13663	0.2287	0.1482	-2.4146	-3.0354	-2.4792	-3.0271	-2.8937	-2.7458	-3.3667	-2.7604	-2.7208	-3.1729	-2.8542	-3.0271	-2.9562	-2.8083	-3.0146	-2.9083	130.103	67.837	149.981	0.219	88.565	106.871	185.668	207.572	136.007	240.131	-99.173	195.459	201.568	123.853	129.553	52.789	0.00038617	0.00028299	0.00040503	936.65	4.1345e-06	1.5443e-05	1282.3	293.9	1.0797e-05	1.5798e-05	484.55	167.21	103.77	48.096	1.0081e-05	88.503	0.00076636	0.00067814	0.00017936	849.63	8.119e-06	7.5525e-06	1064	247.51	8.1449e-06	7.2247e-06	403.26	140.03	88.772	40.396	7.0106e-06	74.212	13.911	-37.195	31.823	-96.919	67.089	87.988	-97.940	-92.576	87.623	121.492	-94.294	-89.823	-88.443	-82.637	-48.356	-85.087	-8191	255	
1844.665	1	1	0	0	0.097922	0.15049	0.11981	0.043361	0.13194	0.14041	0.30737	0.067732	0.13042	0.090125	0.33082	0.26922	0.21482	0.26026	0.19207	0.19377	-2.5521	-2.8979	-2.7604	-3.0979	-2.8187	-2.7958	-3.1875	-2.8458	-2.8688	-3.0938	-2.7125	-3.0708	-2.8438	-2.6813	-3.0375	-3.025	95.844	124.937	244.466	192.632	124.014	29.919	170.834	237.521	203.730	-33.051	201.716	209.546	184.259	179.786	38.387	246.390	0.00058903	0.00032171	7.0892e-05	959.83	6.4274e-06	3.7406e-06	1277.8	293.4	3.3093e-06	1.0493e-05	483.21	165	104.42	47.527	3.3936e-06	85.998	0.00071866	0.00063274	0.00018995	855.21	7.7177e-06	6.9134e-06	1065.2	247.22	7.4904e-06	6.749e-06	402.75	138.98	88.868	39.877	7.6063e-06	71.616	-16.575	1.797	-6.086	-97.408	26.415	35.879	-97.725	-93.125	184.388	-44.248	-94.152	-90.076	-88.139	-82.852	145.146	-85.676	-8191	255	
1844.761	1	1	0	0	0.36325	0.10798	0.19654	0.21282	0.22747	0.14464	0.35238	0.059858	0.091486	0.17185	0.21528	0.15068	0.1291	0.22658	0.083084	0.36577	-2.2667	-3.0875	-2.6792	-2.9	-2.8875	-2.5896	-3.2938	-2.9021	-2.5292	-3.1854	-2.8375	-3.0458	-3.0687	-2.7146	-3.025	-2.9583	-53.219	147.389	-93.749	209.314	-95.457	-8.288	226.209	81.881	228.663	49.953	-62.950	218.521	35.199	229.227	109.616	156.788	0.0010542	0.0010801	0.00033831	948.05	1.3833e-05	4.8256e-06	1277.8	292.83	1.4342e-05	9.5091e-06	486.22	164.86	104.37	47.694	1.1353e-05	87.797	0.00068301	0.00061316	0.00020318	850.37	7.3125e-06	6.9003e-06	1063.8	247.04	7.3358e-06	6.8048e-06	406.24	138.41	88.392	40.375	8.2369e-06	73.15	9.475	-44.374	104.654	-96.876	55.655	180.995	-97.593	-92.573	-38.021	66.778	-94.332	-89.542	-88.218	-82.083	147.522	-85.885	-8191	255	
1844.857	1	1	0	0	0.056196	0.31566	0.10284	0.08405	0.24614	0.13654	0.30583	0.19553	0.15248	0.092925	0.16105	0.29656	0.055655	0.0089206	0.092301	0.12526	-2.325	-3.0875	-2.5708	-2.7292	-3.0854	-2.5812	-2.9354	-3.1208	-2.5396	-3.1292	-2.9708	-2.7479	-3.1875	-2.7458	-2.8146	-2.9104	-15.735	22.053	-91.696	84.316	-35.971	89.059	221.983	231.216	-47.543	1.704	202.097	207.425	23.318	142.106	194.223	-92.281	0.00076601	0.0011662	0.00044491	965.61	7.3278e-06	7.6814e-06	1289.8	295.52	1.8485e-05	1.2784e-05	488.25	167.53	105.2	48.958	1.3187e-05	91.272	0.000658	0.00063525	0.00021289	841.11	6.8371e-06	7.2135e-06	1075.4	248.33	6.9691e-06	7.0596e-06	408.69	139.96	89.25	41.382	8.3397e-06	75.174	30.998	3.266	-56.040	-97.358	101.007	45.737	-98.309	-92.407	-19.727	-72.682	-93.861	-89.907	-87.488	-82.988	-1.589	-85.646	-8191	255	
1844.978	1	1	0	0	0.25904	0.051097	0.19278	0.29646	0.13545	0.098783	0.19648	0.15278	0.12771	0.23805	0.26146	0.41303	0.13075	0.12837	0.2717	0.34938	-2.2021	-2.9375	-2.5729	-3.0167	-3.0062	-2.8688	-3.1458	-2.9646	-2.725	-2.9271	-2.9396	-2.7146	-3.1417	-2.7208	-2.825	-3.0771	85.625	-13.898	166.733	-44.944	-59.228	129.815	142.382	244.008	10.317	40.986	209.701	-83.334	-62.574	-102.779	-80.064	184.647	0.00068682	0.00039133	0.00048722	958.95	1.4475e-05	1.0537e-05	1295.5	300.25	8.1892e-06	8.5378e-06	496.73	172.09	106.32	49.643	2.7463e-05	91.917	0.00062282	0.00067894	0.00021194	841.62	6.5767e-06	7.7426e-06	1079.9	250.18	6.669e-06	7.8245e-06	413.74	142.48	89.895	42.051	8.2443e-06	75.769	-5.322	218.557	-11.863	-96.417	55.115	-54.003	-97.334	-92.448	-28.641	88.061	-94.358	-89.708	-88.663	-82.217	52.999	-85.365	-8191	255	
1845.074	1	1	0	0	0.11626	0.12779	0.04491	0.17931	0.15942	0.046339	0.10096	0.35002	0.21984	0.25881	0.097619	0.13038	0.14115	0.22946	0.16544	0.34391	-2.1896	-3.0354	-2.8417	-2.8083	-2.9646	-2.7333	-3.0875	-3.0229	-2.7417	-3.0125	-2.9583	-2.7938	-3.0938	-2.8417	-2.8021	-3.1417	49.838	-78.700	100.798	-23.235	140.894	8.391	242.421	222.755	107.688	-28.380	152.854	40.412	237.170	155.898	-65.426	216.905	0.0005587	0.0011973	8.6937e-05	966.78	2.6437e-06	5.5174e-06	1299.2	299.84	1.2547e-05	3.231e-06	493.4	168.31	105.92	48.301	8.251e-06	86.929	0.00064141	0.00074826	0.0002029	843.7	6.6857e-06	8.2301e-06	1081.6	250.49	6.8757e-06	8.1972e-06	409.81	140.3	89.68	40.866	7.5627e-06	71.658	11.665	232.018	83.966	-96.875	118.410	-31.030	-97.731	-92.957	14.125	168.960	-94.336	-89.975	-88.163	-82.660	56.675	-85.864	-8191	255	
1845.170	1	1	0	0	0.091344	0.020198	0.22751	0.099433	0.060404	0.20907	0.33734	0.17574	0.12055	0.096966	0.29262	0.21028	0.14931	0.32098	0.0552	0.14422	-2.3333	-3.1021	-2.8375	-2.8688	-3.1333	-2.8208	-2.9542	-3.0917	-2.3937	-3.0167	-3.0146	-2.6417	-3.25	-2.7708	-2.6729	-3.2604	17.680	81.178	-34.241	118.813	184.087	110.351	205.581	137.547	230.113	122.639	187.362	235.850	-96.786	-88.449	32.956	234.924	0.00086247	0.00085849	0.00028993	954.68	4.1518e-06	1.3483e-05	1297.6	297.44	3.6474e-06	1.0931e-05	493.99	164.96	105.81	48.074	6.4773e-06	86.455	0.00066562	0.0007636	0.00018535	831.69	7.1762e-06	8.2313e-06	1072.6	248.09	7.4098e-06	8.2519e-06	408.58	137.96	89.465	40.793	7.1565e-06	71.776	-13.719	-47.142	-56.074	-97.513	186.233	18.608	-97.838	-92.224	78.062	19.886	-94.371	-89.629	-88.343	-82.573	25.572	-85.569	-8191	255	
1845.242	1	1	0	0	0.063749	0.15555	0.074404	0.20971	0.17738	0.12048	0.16101	0.24113	0.26285	0.093126	0.32461	0.32392	0.25251	0.093302	0.17295	0.18128	-2.2188	-2.9792	-3.0687	-2.5667	-3.1896	-2.8021	-2.7729	-3.2146	-2.7313	-2.8021	-3.0812	-2.6833	-3.1083	-2.8417	-2.6188	-3.0396	240.436	222.606	34.941	-90.874	-66.939	-71.232	162.506	101.766	220.691	185.472	-107.804	109.120	233.250	173.425	145.807	227.066	0.00031353	0.0010286	0.00022674	948.98	7.4696e-06	1.5223e-05	1291.6	297.19	1.4567e-05	9.9297e-07	491.24	168.38	105.82	49.134	2.2178e-05	88.748	0.00070721	0.00072496	0.00017794	830.92	7.7329e-06	7.8438e-06	1072.3	247.69	8.1149e-06	7.8848e-06	407.53	139.13	90.33	41.321	6.957e-06	73.704	8.700	26.658	7.913	-98.410	53.113	49.960	-97.873	-92.607	82.516	56.646	-94.125	-89.708	-87.956	-82.407	77.971	-85.627	-8191	255	
1845.363	1	1	0	0	0.092307	0.13811	0.17772	0.23058	0.049526	0.13251	0.072883	0.088611	0.094569	0.2245	0.1834	0.10369	0.30384	0.085249	0.10004	0.25836	-2.3937	-2.6979	-2.8854	-2.7062	-3.1042	-2.8083	-2.6771	-3.0917	-2.6813	-2.9771	-3.3312	-2.8563	-3.1521	-3.1979	-2.4729	-3.2729	-86.843	-30.245	10.309	230.311	142.497	153.503	235.960	43.252	-74.170	239.832	-89.710	-7.220	216.720	205.900	27.067	168.364	0.00074162	0.0013043	0.00029766	934.15	2.1265e-06	1.309e-05	1298.6	298.91	5.9201e-06	1.0074e-05	490.64	168.94	106.05	48.961	1.797e-05	90.448	0.00074988	0.00070141	0.00017258	834.26	8.2864e-06	7.5831e-06	1075.1	249.51	8.3808e-06	7.6085e-06	407.9	140.52	90.513	41.324	6.9487e-06	75.238	-2.535	-33.225	-28.109	-97.448	129.765	52.744	-97.545	-92.446	-19.619	29.650	-94.136	-90.071	-87.914	-82.373	24.057	-85.561	-8191	255	
1845.459	1	1	0	0	0.086818	0.043653	0.2666	0.089295	0.19698	0.14827	0.2909	0.26449	0.064568	0.19017	0.14844	0.26486	0.17526	0.07877	0.072848	0.34948	-2.4708	-2.7042	-3.1458	-2.6333	-2.9375	-3.0979	-2.8583	-3.0333	-2.8021	-2.7229	-3.1813	-2.8229	-2.9271	-3.1417	-2.4062	-3.1854	86.068	222.798	233.599	-85.916	141.304	162.407	190.389	196.179	-53.731	96.608	177.192	-95.078	142.393	231.972	-101.616	173.984	0.0010229	0.001871	0.00025443	955.35	1.1077e-05	7.7041e-06	1289.5	296.8	1.0249e-05	1.2694e-05	490.29	168.43	106.01	48.079	9.7575e-06	86.709	0.00075808	0.00066846	0.00017077	846.92	8.2563e-06	7.088e-06	1072.7	249.33	8.0326e-06	7.1706e-06	406.14	140.7	90.31	40.279	6.6559e-06	72.169	-15.796	-20.401	39.467	-96.796	10.798	66.455	-97.317	-92.554	5.967	64.723	-94.266	-89.677	-87.980	-82.721	10.178	-85.447	-8191	255	
1845.555	1	1	0	0	0.12851	0.15535	0.12414	0.075646	0.19959	0.16919	0.21626	0.3328	0.089991	0.13412	0.17598	0.15534	0.24746	0.24942	0.20424	0.17237	-2.3083	-2.5542	-2.9229	-2.8354	-2.6375	-3.0333	-2.9271	-2.8354	-2.7417	-2.7938	-3.2542	-2.7854	-2.8937	-3.0021	-2.4979	-3.0729	58.611	108.139	49.921	30.238	207.702	-70.614	213.898	177.476	226.051	136.528	166.012	217.818	222.487	223.860	-40.864	186.687	0.00016637	0.00081732	0.00020466	959.32	1.0475e-05	4.1569e-06	1287.2	297.69	1.118e-05	1.5327e-05	484.21	165.68	105.72	48.16	4.2268e-06	87.483	0.00070601	0.00063671	0.00016613	849.65	7.5811e-06	6.6789e-06	1069.4	249.91	7.4175e-06	6.8682e-06	404.2	139.27	89.451	40.35	7.0659e-06	72.983	29.690	29.186	101.668	-97.011	90.719	2.065	-97.737	-92.295	-7.673	19.829	-94.198	-89.784	-88.422	-82.576	-85.334	-85.489	-8191	255	
1845.651	1	1	0	0	0.21335	0.19905	0.25759	0.076849	0.091714	0.095796	0.23202	0.18111	0.24781	0.089444	0.076529	0.13721	0.2951	0.34557	0.30152	0.46474	-2.4146	-2.4229	-3.125	-2.7479	-2.6729	-3.3896	-2.7875	-2.9979	-2.9104	-2.7583	-3.1646	-2.7958	-2.9729	-3.1104	-2.6208	-3.2104	226.720	129.588	-57.252	152.872	161.024	183.334	134.962	191.963	21.556	164.304	217.239	195.870	-97.123	-103.104	-96.250	182.787	0.00085411	0.00040829	0.00029538	932.57	9.9365e-06	7.5308e-06	1289	296.92	2.0384e-05	1.1443e-05	489.43	165.98	104.59	47.953	2.5016e-06	89.503	0.00065064	0.00061522	0.00018138	843.63	7.2467e-06	6.5095e-06	1070.5	248.31	7.2065e-06	6.7433e-06	406.34	139.45	88.813	40.469	7.9395e-06	74.149	8.595	39.359	-9.768	-97.611	37.066	135.147	-97.701	-92.672	-56.011	52.849	-93.934	-90.035	-88.483	-82.398	21.676	-85.707	-8191	255	
1845.770	1	1	0	0	0.024666	0.16086	0.1219	0.19711	0.1766	0.13546	0.1666	0.28439	0.076352	0.1357	0.30542	0.052716	0.15064	0.12238	0.013172	0.25723	-2.7542	-2.5312	-2.9708	-2.7396	-2.7687	-3.175	-2.7917	-2.9437	-2.9833	-2.6375	-3.0396	-2.9708	-2.8125	-3.0896	-2.6521	-2.9083	-105.133	181.093	107.025	212.889	-35.341	-88.698	112.804	-67.010	215.148	5.065	230.393	217.940	14.367	-80.854	160.551	211.177	0.00070493	0.0016842	0.00014184	960.5	1.0428e-05	7.5713e-06	1294.4	294.85	9.766e-06	6.0511e-06	484.78	166.55	104.88	47.983	2.1263e-05	89.154	0.00064742	0.00061434	0.00019964	854.32	7.0959e-06	6.6572e-06	1076.2	247.05	6.8783e-06	6.8523e-06	407.93	139.45	88.49	40.552	8.4157e-06	74.491	6.565	-34.002	140.475	-97.512	64.429	99.056	-97.574	-92.646	-74.477	89.520	-94.510	-89.624	-87.418	-82.551	109.935	-85.516	-8191	255	
1845.843	1	1	0	0	0.089327	0.157	0.33592	0.13797	0.288	0.29643	0.35512	0.16819	0.26604	0.15384	0.23183	0.14141	0.25673	0.055426	0.030839	0.35982	-2.6063	-2.5938	-2.9167	-2.8937	-2.4437	-3.1437	-2.7687	-2.8146	-3.1833	-2.725	-3.1208	-2.9104	-2.5312	-3.1312	-2.7521	-2.675	176.344	140.362	-18.710	-7.230	-27.897	194.749	245.330	195.859	210.223	64.763	230.717	-89.440	-87.598	63.952	-59.506	221.412	0.00072775	0.00063049	0.00027524	956.71	3.2257e-06	1.1494e-05	1294.7	293.41	7.8223e-06	8.14e-06	482.93	167.5	104.35	47.233	2.1898e-06	86.357	0.00063408	0.00065731	0.00021489	842.77	7.0118e-06	7.0014e-06	1077	245.72	6.6207e-06	7.6316e-06	406.52	139.3	88.073	39.848	8.1556e-06	71.59	-19.380	-51.716	-10.846	-97.377	-47.251	-72.344	-98.236	-92.624	130.748	-87.000	-94.640	-89.134	-88.042	-82.398	71.466	-85.325	-8191	255	
1845.962	1	1	0	0	0.007684	0.28939	0.18997	0.24061	0.10518	0.17224	0.15904	0.20514	0.070983	0.22536	0.079268	0.25771	0.36615	0.29044	0.080325	0.28696	-2.4938	-2.6625	-2.8812	-2.8083	-2.5792	-3.2625	-3.1	-2.7833	-3.075	-2.7854	-2.9917	-2.9625	-2.7729	-3.2292	-2.7188	-2.8063	128.023	-70.765	153.136	183.419	6.823	37.139	111.892	205.943	230.278	196.559	37.336	-89.900	235.810	233.541	-70.835	-91.404	0.0008246	0.00057251	0.00020984	951.07	6.0887e-06	8.2261e-06	1279.4	288.07	6.6516e-07	1.4582e-05	481.05	162.47	101.53	46.289	1.9151e-05	84.756	0.00061343	0.00070082	0.00020601	827.72	6.7497e-06	7.6629e-06	1062.2	242.24	6.4826e-06	7.9119e-06	399.66	135.39	85.77	39.151	7.8843e-06	70.436	-9.812	-94.661	-69.166	-96.817	39.851	93.899	-98.022	-92.171	-87.833	205.680	-94.457	-89.501	-88.378	-82.263	95.397	-85.250	-8191	255	
1846.058	1	1	0	0	0.18593	0.054998	0.2801	0.095039	0.23815	0.029739	0.25306	0.13182	0.16952	0.044512	0.42262	0.41696	0.19455	0.31281	0.035843	0.11571	-2.7271	-2.5187	-2.7958	-3.1792	-2.6354	-3.2146	-3.0208	-2.7167	-3.2479	-2.7271	-2.9958	-3.0125	-2.7208	-3.1583	-3.0958	-2.6896	90.324	205.174	213.257	-50.257	121.515	-38.843	150.796	149.171	77.165	73.270	198.420	198.662	-88.225	246.891	-6.197	185.747	0.00078961	0.00061789	0.00047647	924.91	1.0987e-05	1.6216e-05	1276.1	286.56	4.6075e-06	1.1761e-05	475.78	160.74	100.93	46.249	1.1642e-05	86.116	0.00062326	0.00075143	0.00019794	817.01	6.9848e-06	8.3566e-06	1055.8	240.19	6.868e-06	8.4666e-06	396.89	134.83	85.872	39.476	7.39e-06	71.303	-24.299	-42.406	-90.320	-96.307	-70.702	30.443	-97.886	-92.865	155.102	28.152	-93.861	-89.635	-87.999	-82.102	35.083	-85.360	-8191	255	
1846.154	1	1	0	0	0.1882	0.060373	0.17737	0.1096	0.057499	0.27232	0.20002	0.41895	0.38146	0.062235	0.2139	0.19734	0.13455	0.14711	0.10778	0.14723	-2.7458	-2.7687	-2.6396	-3.3625	-2.6937	-3.0479	-3.1375	-2.6937	-2.9813	-2.9854	-2.9208	-2.9896	-2.725	-3.0292	-3.0104	-2.8167	198.412	103.000	211.497	67.573	58.452	153.501	200.958	144.657	30.169	-31.953	208.036	215.598	-78.113	-55.613	161.701	109.794	0.00074385	0.00030456	0.00022755	939.97	4.9348e-06	8.3706e-06	1270.5	287.99	8.9649e-06	8.1661e-06	478.14	162.84	101.62	46.85	2.9421e-06	87.704	0.00065982	0.00076678	0.00018629	813.74	7.6229e-06	8.3956e-06	1054.7	240.92	7.4812e-06	8.3823e-06	398.57	135.45	86.68	39.691	7.0896e-06	72.265	-4.487	31.318	-81.214	-97.121	80.376	33.789	-97.819	-92.445	11.278	-6.633	-94.109	-89.236	-88.843	-82.513	-102.212	-85.299	-8191	255	
1846.251	1	1	0	0	0.031578	0.20084	0.3208	0.15377	0.056153	0.38151	0.20599	0.25547	0.12076	0.18402	0.098213	0.28162	0.19498	0.051535	0.27237	0.14318	-2.4562	-3.0167	-2.5958	-3.0604	-2.8521	-2.9188	-3.0146	-2.775	-2.975	-2.9062	-2.5854	-3.1188	-2.9167	-2.9271	-3.0208	-2.9354	190.194	128.081	229.444	196.290	-100.413	42.556	184.402	205.862	96.733	-107.924	-75.023	-100.154	-63.246	136.567	97.395	142.397	0.00087735	0.00018159	0.00053793	925.88	9.8179e-07	1.4986e-05	1281.3	289.23	2.9666e-06	1.0379e-05	474.32	162.15	101.48	45.659	1.2721e-05	82.481	0.00071297	0.00073158	0.00018283	818.7	8.2777e-06	8.0122e-06	1059.1	241.78	8.1014e-06	7.6826e-06	396.52	135.3	86.436	38.796	6.6316e-06	68.949	-9.023	77.154	5.309	-98.082	-98.304	38.458	-98.103	-92.695	87.291	95.035	-94.647	-89.831	-88.593	-82.604	-103.150	-85.680	-8191	255	
1846.371	1	1	0	0	0.20122	0.11967	0.20446	0.25069	0.29202	0.11603	0.38964	0.13116	0.12983	0.13661	0.16604	0.25732	0.25921	0.29271	0.21251	0.37955	-2.5938	-2.7812	-2.8771	-3.2229	-2.55	-2.7771	-3.3146	-2.7958	-2.8771	-3.1021	-2.7562	-3.0875	-2.9771	-2.8479	-3.0729	-2.6771	-47.752	74.217	-4.755	193.644	176.818	-31.614	226.067	217.715	-100.224	-44.795	-48.070	207.281	-54.175	236.020	-41.365	228.959	0.000641	0.0016022	0.00038126	918.82	6.8507e-06	3.9381e-06	1261.5	284.95	8.9919e-06	1.3798e-05	467.96	158.63	98.873	44.507	9.1538e-07	81.749	0.00075893	0.00068066	0.00017292	812.08	8.2622e-06	7.4115e-06	1046.6	238.83	8.18e-06	7.2817e-06	390.15	132.37	84.699	37.713	6.5861e-06	67.971	10.189	247.748	-15.786	-97.519	14.620	-2.845	-97.734	-92.805	-11.726	41.814	-94.226	-89.581	-87.996	-82.171	-19.758	-85.405	-8191	255	
1846.443	1	1	0	0	0.050404	0.09633	0.1888	0.13139	0.19675	0.11794	0.09401	0.10219	0.34816	0.12084	0.29382	0.34811	0.2014	0.33167	0.2863	0.23039	-2.3396	-2.9229	-2.7354	-2.9729	-3.0729	-2.8917	-3.2021	-2.7604	-2.9667	-2.9771	-2.7854	-3.0604	-2.8312	-2.7979	-2.9417	-2.8167	-20.669	-56.763	210.307	160.768	-32.252	-11.388	30.536	238.986	151.771	-63.064	185.563	-83.417	-107.201	218.934	-5.227	151.301	0.00055829	0.00015979	5.9727e-05	922.15	9.6321e-06	1.1893e-05	1266.1	285.41	2.5899e-06	9.4717e-06	472.63	157.63	100.02	45.26	7.9277e-06	83.175	0.00074786	0.00064905	0.00017383	820.23	8.1351e-06	7.1428e-06	1047.7	239.64	7.9553e-06	7.0126e-06	391.67	132.49	84.891	38.084	6.7014e-06	69.534	14.066	206.543	-53.645	-97.173	14.003	69.717	-97.945	-93.141	26.159	68.311	-94.163	-89.777	-88.197	-82.041	77.292	-85.614	-8191	255	
1846.539	1	1	0	0	0.073387	0.092914	0.22851	0.033002	0.047428	0.188	0.1517	0.079986	0.17756	0.16056	0.12322	0.17669	0.14736	0.26274	0.12278	0.20817	-2.3937	-2.9167	-2.6667	-2.9688	-2.9333	-2.6667	-3.1708	-2.7354	-2.8292	-2.9062	-2.6917	-3.0708	-2.7604	-2.7417	-3.0979	-2.7771	37.842	87.021	238.156	29.838	193.205	-105.093	175.646	190.568	-99.371	6.107	149.147	71.546	-74.019	206.888	45.399	-109.977	0.00074258	0.0012547	0.00016441	938.02	1.0142e-05	7.9496e-06	1267.7	285.36	1.2404e-05	8.3548e-06	474.83	160.78	99.551	45.936	1.0491e-05	86.008	0.00071598	0.00062951	0.00017869	836.69	7.5875e-06	6.8999e-06	1054.4	241.46	7.5747e-06	6.7703e-06	395.07	135.18	85.058	38.808	7.2839e-06	71.883	10.098	20.627	70.328	-97.376	7.550	225.867	-97.875	-92.289	-65.740	-14.669	-94.627	-89.429	-87.946	-82.362	63.603	-85.716	-8191	255	
1846.660	1	1	0	0	0.18396	0.16063	0.1414	0.3123	0.12213	0.31689	0.39577	0.16938	0.11663	0.25109	0.16376	0.26133	0.1408	0.25115	0.053991	0.084504	-2.2083	-3.1125	-2.4083	-2.9146	-2.9771	-2.6333	-3.0312	-2.8854	-2.7083	-3.0687	-2.725	-2.8792	-2.9521	-2.8042	-3.0938	-2.7396	-99.371	124.928	245.814	-103.131	240.092	227.965	205.307	172.655	48.193	222.402	235.576	179.861	-97.424	203.011	-46.657	154.828	0.00092393	0.00084168	0.00014519	923.85	4.0199e-06	1.607e-05	1277.8	287.97	9.4695e-06	4.7061e-06	477.53	163.25	101.95	46.292	1.0345e-05	85.483	0.00067764	0.00061152	0.00019189	840.37	7.3502e-06	7.0488e-06	1063.7	242.72	7.3559e-06	6.6814e-06	399.11	136.96	85.974	39.151	7.9316e-06	71.302	-14.848	-11.911	-88.586	-97.282	167.927	12.535	-97.787	-92.773	162.661	75.974	-94.352	-89.745	-88.083	-82.463	-33.236	-85.104	-8191	255	
1846.754	1	1	0	0	0.059232	0.15585	0.19812	0.23372	0.10861	0.2939	0.085351	0.15153	0.12486	0.043742	0.031936	0.2308	0.39548	0.11179	0.052677	0.45243	-2.5083	-3.1813	-2.6854	-3.025	-2.95	-2.6542	-3.05	-2.8771	-2.6688	-3.1542	-2.7979	-2.9875	-2.925	-2.5979	-2.9396	-2.8333	-15.876	25.716	113.509	212.974	-63.049	-24.644	214.171	192.275	180.747	113.405	190.776	158.330	180.381	-52.735	209.897	151.915	0.00093591	0.00061827	0.00022059	939.84	4.8855e-06	8.9702e-06	1287.7	291.6	7.4642e-06	5.469e-06	477.6	162.1	101.57	45.938	1.2198e-05	83.402	0.00067818	0.00060915	0.00020398	838.07	6.7388e-06	6.7783e-06	1068.5	244.03	6.8973e-06	6.6727e-06	400.06	135.14	85.828	38.78	8.2433e-06	68.848	-0.498	-38.444	-8.332	-97.474	141.038	74.087	-97.829	-93.069	-7.311	119.513	-94.329	-89.968	-87.901	-82.606	22.352	-85.683	-8191	255	
1846.850	1	1	0	0	0.26943	0.20785	0.021339	0.20419	0.17698	0.11566	0.41869	0.2502	0.36373	0.070498	0.24723	0.02865	0.43229	0.014873	0.2277	0.041897	-2.3875	-3.0021	-2.6625	-2.8625	-2.9521	-2.6542	-3.0104	-3.0042	-2.6	-3.0312	-2.9292	-2.8146	-3.1375	-2.5354	-3.0896	-2.9229	-109.569	122.969	247.588	249.066	95.322	106.078	174.341	105.676	-38.924	209.510	225.979	188.707	200.260	72.357	198.812	21.737	0.00055053	0.00051288	0.00014438	948.7	2.0163e-06	8.3414e-06	1275.1	293.29	1.9899e-05	1.7225e-05	483.68	163.25	102.68	46.736	1.2899e-05	85.856	0.00062813	0.00063403	0.00020722	832.97	6.5014e-06	7.066e-06	1065.9	244.52	6.6529e-06	7.2523e-06	402.39	135.91	86.404	39.558	8.0183e-06	71.301	-5.206	-56.226	-65.003	-96.596	244.243	-34.524	-97.662	-92.773	-1.791	89.270	-94.485	-89.205	-88.034	-82.482	-45.912	-85.659	-8191	255	
1846.946	1	1	0	0	0.031436	0.053233	0.066934	0.07255	0.029318	0.086065	0.23842	0.11617	0.25475	0.20404	0.044351	0.066047	0.41236	0.32418	0.094414	0.17314	-1.9813	-3.1646	-2.75	-2.7646	-3.1	-2.4479	-3.0333	-3.1333	-2.6271	-3.0604	-2.9396	-2.7417	-3.1542	-2.7667	-2.6667	-3.3917	246.517	143.404	96.316	-24.758	76.677	78.626	202.887	-85.654	81.641	39.337	-108.532	108.315	231.402	200.282	133.519	207.762	0.00056116	0.00093383	0.00055585	943.98	4.1231e-06	1.042e-05	1293.4	289.62	6.9676e-06	4.7983e-06	483.37	164.93	102.59	47.67	4.2998e-06	88.344	0.00062179	0.00070857	0.00020241	827.17	6.5782e-06	7.9416e-06	1071.8	243.06	6.8034e-06	7.9206e-06	403.94	136.95	86.676	40.234	7.8479e-06	73.036	8.705	227.719	24.700	-97.856	58.146	17.913	-98.261	-92.736	134.780	-82.450	-94.676	-89.472	-88.534	-82.340	69.869	-85.410	-8191	255	
1847.067	1	1	0	0	0.26268	0.10059	0.060642	0.42158	0.048049	0.15133	0.073028	0.14758	0.1416	0.21345	0.061882	0.261	0.11358	0.18819	0.22194	0.26738	-2.1875	-3	-2.8854	-2.4646	-2.9729	-2.6021	-3.0125	-3.0062	-2.5438	-3.0146	-2.9458	-2.4313	-3.0521	-2.7562	-2.6813	-3.0687	227.143	189.747	66.078	-89.199	-50.038	76.224	199.955	224.298	149.582	64.178	125.166	244.483	230.344	239.152	224.899	171.296	0.00090485	0.001594	0.00031171	944.7	2.1103e-06	7.5381e-06	1296.6	292.12	5.8395e-06	9.4977e-06	489.11	166.08	103.98	47.787	7.8614e-06	89.014	0.0006536	0.00075363	0.00019487	827	6.8964e-06	8.4861e-06	1073.9	243.54	7.2578e-06	8.4199e-06	405.11	138.68	87.803	40.606	7.4837e-06	73.644	-11.000	-97.092	15.919	-97.034	167.303	20.664	-97.774	-93.003	6.024	84.585	-94.417	-89.469	-87.809	-82.494	-100.065	-85.554	-8191	255	
1847.139	1	1	0	0	0.14608	0.12734	0.24121	0.16074	0.052384	0.12184	0.046235	0.1528	0.10345	0.16667	0.23707	0.1988	0.020452	0.028147	0.13409	0.50947	-2.1333	-2.9521	-3.0042	-2.3521	-2.9667	-2.65	-2.8438	-3.1833	-2.5292	-2.9771	-2.9688	-2.6562	-3.1771	-2.6021	-2.8979	-3.1625	-23.738	212.759	-105.257	-69.433	212.023	30.227	96.935	-104.590	165.432	192.573	243.018	217.728	212.153	-51.264	194.255	196.712	0.0010404	0.00040538	0.00028962	959.09	9.7143e-06	1.2622e-05	1298.8	291.57	1.0012e-05	9.5222e-06	488.57	166.1	105.42	47.134	2.0526e-05	85.013	0.00068804	0.00077286	0.00018667	830.58	7.5408e-06	8.1843e-06	1074.3	244.66	7.7727e-06	8.0459e-06	405.04	138.84	89.19	39.873	6.8697e-06	70.636	-3.319	42.005	-110.482	-98.237	121.162	144.938	-97.952	-92.563	-43.298	79.009	-94.301	-89.625	-88.021	-82.772	89.740	-86.196	-8191	255	
1847.235	1	1	0	0	0.064579	0.16275	0.039866	0.11875	0.09835	0.3092	0.19662	0.21939	0.18565	0.27092	0.12971	0.12023	0.085464	0.092604	0.21317	0.18783	-2.2979	-2.7083	-2.9708	-2.6604	-2.8146	-2.7354	-2.8	-3.2604	-2.6771	-2.8063	-2.9437	-2.7375	-2.9958	-2.975	-2.6083	-3.0104	-92.389	245.311	86.291	137.169	104.505	233.474	173.275	201.423	177.322	115.515	231.999	-16.109	5.363	-88.622	168.714	104.571	0.00070306	0.00049006	0.00029756	951.88	7.8233e-06	9.6692e-06	1286	291.86	6.4819e-06	1.6448e-05	484.12	164.4	102.29	47.072	6.8319e-06	85.485	0.00071323	0.00071138	0.00016572	823.13	7.834e-06	7.53e-06	1065.2	244.24	8.0708e-06	7.5339e-06	400.51	135.92	87.535	39.421	6.7028e-06	70.786	-31.327	-110.323	-25.424	-97.419	-84.593	39.425	-97.577	-92.709	-44.798	44.941	-94.211	-89.611	-87.903	-82.269	157.276	-85.372	-8191	255	
1847.331	1	1	0	0	0.095441	0.078433	0.16562	0.067093	0.13616	0.1056	0.1286	0.24091	0.07854	0.057277	0.075817	0.075542	0.1785	0.066916	0.11094	0.25707	-2.4667	-2.7	-3	-2.6583	-2.9958	-2.775	-2.8312	-3.1646	-2.7979	-2.7292	-3.2375	-2.7042	-2.9813	-3.0083	-2.5062	-3.0646	123.934	-13.089	107.872	100.229	213.265	-5.975	168.286	-86.440	44.880	-98.086	159.715	-62.371	-73.290	221.661	-23.873	214.163	0.00079522	0.00076152	0.00022126	933.52	7.2941e-06	9.3814e-06	1283.1	291.46	6.5864e-06	1.4612e-05	482.04	163.64	103.8	47.038	1.8717e-05	86.648	0.00073945	0.00067758	0.00016542	829.34	8.0926e-06	7.0178e-06	1065.4	245.06	8.0707e-06	7.065e-06	400.32	136.88	88.082	39.618	6.5896e-06	71.86	12.953	60.502	-59.201	-97.967	233.828	12.093	-98.015	-92.648	-23.064	84.892	-94.893	-89.781	-87.997	-82.102	27.278	-85.591	-8191	255	
1847.452	1	1	0	0	0.10598	0.21574	0.14251	0.22028	0.089201	0.18928	0.32084	0.043547	0.11551	0.081169	0.14751	0.17335	0.16248	0.38555	0.18728	0.27151	-2.3646	-2.5292	-3.1625	-2.6125	-2.8854	-3.0563	-2.6229	-3.2083	-2.8438	-2.5542	-3.0375	-2.7917	-2.8354	-3.0271	-2.6625	-2.8812	84.833	79.530	193.700	-106.986	191.103	-9.604	238.225	-68.389	136.888	-77.944	219.415	147.985	200.359	219.235	198.837	205.311	0.0008004	0.0015409	0.00047455	947.46	1.3847e-05	9.0915e-06	1298.4	292.66	2.6735e-06	8.0522e-06	489.84	165.88	104.05	47.136	6.0721e-06	87.469	0.00071321	0.00063646	0.00016192	840.08	7.8236e-06	6.8943e-06	1072.6	246.7	7.6843e-06	7.057e-06	403.95	138.35	87.969	39.795	6.8967e-06	73.231	-22.346	-2.309	-68.179	-97.537	118.241	66.102	-97.934	-92.904	164.929	34.942	-94.479	-89.608	-88.292	-82.452	22.281	-85.841	-8191	255	
1847.548	1	1	0	0	0.24994	0.23213	0.2838	0.15778	0.16916	0.15126	0.1644	0.2172	0.35991	0.11458	0.3039	0.29909	0.122	0.15279	0.2272	0.38915	-2.5917	-2.3896	-2.9729	-2.7146	-2.6792	-3.1979	-2.8417	-2.9292	-2.8729	-2.6708	-3.0708	-2.7979	-2.6729	-2.9917	-2.6979	-3.1104	180.819	0.405	27.308	-108.849	54.913	203.547	234.497	209.970	229.271	222.507	-89.733	188.683	-87.541	169.313	-104.176	143.121	0.00089479	0.00027965	0.00047787	930.55	1.316e-05	2.6197e-06	1288.3	293.47	5.3255e-06	1.7007e-05	486.19	165.3	103.21	47.349	7.6305e-06	86.117	0.00068551	0.00063156	0.00017336	844.94	7.5351e-06	6.7065e-06	1071	247.28	7.2814e-06	6.9571e-06	405.3	139.03	87.705	39.798	7.4932e-06	71.749	17.672	-26.420	-83.362	-97.711	-32.468	24.709	-97.928	-92.847	194.766	21.358	-94.563	-89.559	-88.347	-82.740	16.909	-85.569	-8191	255	
1847.644	1	1	0	0	0.028176	0.12881	0.11799	0.068191	0.069393	0.24223	0.22894	0.099149	0.098196	0.05741	0.40805	0.1241	0.13146	0.26788	0.092841	0.038752	-2.3187	-2.4625	-3.025	-2.6479	-2.6042	-3.0563	-2.7417	-2.7792	-2.8688	-2.65	-2.9958	-2.9188	-2.6229	-3.0042	-2.6604	-2.85	129.244	-66.627	203.313	28.699	44.419	182.401	155.311	246.858	238.505	29.867	231.162	204.694	124.631	-97.437	20.116	217.116	0.00099378	0.00029146	0.00010529	958.08	9.2815e-06	7.3114e-06	1288.1	292.74	1.1142e-05	8.3792e-06	484.98	163.44	102.82	45.756	6.8431e-06	84.015	0.0006608	0.00060874	0.00019395	846.03	7.2417e-06	6.5665e-06	1069.3	245.79	6.9276e-06	6.7331e-06	405.54	136.71	87.343	38.694	7.8481e-06	69.809	-5.859	-39.703	-84.554	-97.259	44.293	113.789	-97.936	-92.839	-19.122	58.472	-94.399	-89.642	-87.854	-82.592	194.570	-85.422	-8191	255	
1847.740	1	1	0	0	0.06703	0.17962	0.21558	0.21618	0.2057	0.15247	0.049545	0.27349	0.064195	0.23394	0.11408	0.32363	0.29147	0.098244	0.10081	0.1837	-2.4458	-2.7375	-2.8208	-3.0333	-2.425	-2.9625	-2.9542	-2.7917	-2.85	-2.6542	-3.0604	-3.0396	-2.7062	-3.1875	-2.7042	-2.9042	190.819	104.103	53.024	86.658	108.747	60.992	29.800	195.013	100.280	-107.701	-27.325	207.095	-42.968	-110.443	171.057	218.550	0.00059614	0.00103	6.1273e-05	951.63	1.9836e-06	8.4146e-06	1290.8	294.32	1.0256e-05	1.2451e-05	487.72	164.47	103.88	46.787	8.3906e-06	84.616	0.00062991	0.00061202	0.00020072	839.17	6.7471e-06	6.5501e-06	1073.1	246.89	6.654e-06	6.9777e-06	407.4	136.56	87.601	39.46	8.1673e-06	70.372	12.149	-26.572	85.145	-96.589	196.757	27.493	-97.651	-92.689	62.905	80.806	-94.158	-89.648	-88.225	-82.731	193.596	-85.544	-8191	255	
1847.834	1	1	0	0	0.0070264	0.15891	0.092621	0.16064	0.23783	0.14049	0.22094	0.22596	0.18312	0.28817	0.10104	0.11866	0.35636	0.3737	0.13328	0.22806	-2.7104	-2.5479	-2.925	-3.1063	-2.6333	-2.9813	-3.0771	-2.8708	-3.0625	-2.65	-3.1813	-3.0729	-2.6104	-3.2292	-2.9104	-2.7062	86.191	-80.886	181.098	205.887	239.884	111.758	244.994	199.891	-31.830	229.324	-88.183	219.778	-78.282	133.739	70.489	200.344	0.00080467	0.00015921	0.00023045	948.03	9.2404e-06	9.0033e-06	1302.7	296.34	2.7101e-06	1.3606e-05	491.9	165.42	103.89	47.301	7.172e-06	87.31	0.00059843	0.00065014	0.00020492	826.18	6.6041e-06	7.1232e-06	1080.6	247.46	6.3273e-06	7.6595e-06	410.05	137.28	88.005	40.06	8.0032e-06	72.249	-41.904	73.083	-32.557	-97.658	55.659	52.067	-97.827	-92.530	-68.753	-67.644	-94.151	-89.685	-88.327	-82.838	75.790	-85.840	-8191	255	
1847.931	1	1	0	0	0.24375	0.27673	0.19256	0.060326	0.1877	0.081998	0.35601	0.046922	0.081794	0.095565	0.34937	0.16233	0.46125	0.18528	0.23121	0.15799	-2.7479	-2.7354	-2.7708	-2.9188	-2.6833	-2.9125	-2.9875	-2.8792	-3.2	-2.7271	-3.0021	-3.1854	-2.6083	-3.0687	-2.775	-2.7167	220.724	231.793	74.577	214.312	83.883	-26.383	117.850	142.536	31.491	177.175	-89.733	232.164	209.619	197.745	-16.621	205.205	0.00082643	0.00016864	0.00024788	949.11	7.5556e-06	7.9229e-07	1296.6	293.96	6.6659e-06	6.2507e-06	485.06	165.74	104.43	48.133	6.0044e-06	87.489	0.00060472	0.00072329	0.00020232	833.15	6.7914e-06	8.0916e-06	1079.4	246.67	6.7353e-06	8.2698e-06	407.24	138.17	88.254	40.733	7.7213e-06	72.832	-13.687	-30.640	-43.771	-97.397	24.987	40.712	-97.763	-92.913	-99.809	17.847	-94.090	-89.472	-88.707	-82.428	49.086	-85.267	-8191	255	
1848.051	1	1	0	0	0.056151	0.24477	0.18063	0.095369	0.14027	0.29638	0.33989	0.11794	0.044138	0.13309	0.30219	0.20058	0.21586	0.11942	0.089073	0.22911	-2.6937	-2.7646	-2.7438	-3.1583	-2.6333	-2.9354	-3.1312	-2.5854	-3.0646	-2.85	-2.7708	-3.2938	-2.8167	-2.8354	-2.9396	-2.8729	37.430	180.366	229.358	218.661	150.242	-70.270	203.792	50.782	135.722	187.789	197.524	192.664	161.339	185.443	97.976	177.785	0.00090388	0.0009238	0.00052189	940.92	7.1732e-06	1.2544e-05	1305.3	294.12	1.4309e-05	2.1685e-05	491.37	164.3	103.82	46.361	1.3851e-05	83.322	0.00064494	0.0007762	0.00019693	825.93	7.2477e-06	8.4413e-06	1078.8	246.56	7.1866e-06	8.2777e-06	407.65	136.31	88.221	39.264	7.1476e-06	68.991	-15.829	-5.318	-78.996	-97.690	-61.231	6.267	-97.518	-92.823	205.436	34.433	-94.257	-89.605	-88.222	-82.650	-43.207	-85.572	-8191	255	
1848.147	1	1	0	0	0.31198	0.19332	0.22003	0.26141	0.22546	0.019083	0.095923	0.093089	0.16866	0.31639	0.14538	0.22701	0.22822	0.078756	0.19924	0.11824	-2.8354	-2.8771	-2.4792	-2.9729	-2.7042	-2.8271	-3.2375	-2.8833	-2.8667	-2.8917	-2.8021	-3.3063	-2.7604	-3.0062	-3.0042	-2.6562	-99.698	-91.485	93.076	109.540	243.387	242.551	197.503	178.172	13.293	-17.223	156.755	-86.820	73.808	248.350	94.149	124.447	0.00063222	0.0010577	0.0005121	952.92	5.7943e-06	6.1765e-06	1293.5	291.98	4.3286e-06	8.1274e-06	483.71	161.08	101.93	45.672	7.2176e-06	82.185	0.00068557	0.00075113	0.00019003	824.42	7.8475e-06	8.1973e-06	1068.2	244.28	7.8885e-06	7.9316e-06	401.98	134.26	87.256	38.891	7.0499e-06	68.311	-0.150	-28.312	-24.002	-97.789	-67.137	13.566	-97.753	-92.674	-59.573	65.321	-94.364	-89.289	-87.936	-82.669	231.485	-85.766	-8191	255	
1848.244	1	1	0	0	0.24919	0.06318	0.27632	0.072506	0.15639	0.13879	0.2258	0.2137	0.1115	0.083905	0.34116	0.21511	0.14055	0.13465	0.062415	0.21589	-2.6396	-2.8187	-2.4833	-2.8979	-2.875	-2.7958	-3.1167	-2.7438	-2.8521	-2.8104	-2.5583	-3.1583	-2.6375	-2.8083	-3.0375	-2.6646	-37.607	70.108	183.373	50.328	44.809	186.302	149.358	-33.031	172.148	-9.530	214.710	-56.319	-71.683	-72.178	-35.029	167.556	0.00066495	0.0011222	0.00024938	940.02	1.3763e-05	7.1097e-06	1289.4	294.26	7.964e-06	1.9956e-05	483.54	162.19	102.78	46.141	3.4011e-06	82.92	0.00075562	0.00069691	0.00018162	825.57	8.3039e-06	7.8041e-06	1070.9	245.98	8.4148e-06	7.5827e-06	402.39	135.1	87.802	38.96	6.8042e-06	69.31	-0.909	-55.532	-93.447	-97.426	104.071	31.497	-97.939	-93.166	-74.765	-20.259	-94.418	-89.631	-88.454	-82.516	108.947	-85.594	-8191	255	
1848.364	1	1	0	0	0.197	0.045275	0.10821	0.13598	0.18751	0.19463	0.13801	0.043884	0.14139	0.051374	0.037174	0.26491	0.19811	0.20735	0.27569	0.25255	-2.4458	-2.7667	-2.3833	-3.1417	-2.7562	-2.6833	-3.2188	-2.6667	-2.6979	-2.7604	-2.8958	-3.025	-2.7729	-2.7313	-2.8542	-2.8875	-1.448	4.707	92.387	205.159	171.375	75.701	152.682	195.566	239.920	85.801	4.540	201.036	-42.982	218.143	-26.114	245.097	0.0007219	0.00073519	0.00024541	939.02	2.9993e-06	1.7691e-05	1291.8	295.85	1.5186e-05	1.4052e-05	486.55	163.03	103.39	46.403	1.3756e-06	85.065	0.00077729	0.00067693	0.00017758	840.27	8.5773e-06	7.5093e-06	1068.5	247.59	8.5071e-06	7.4594e-06	403.77	136.57	88.163	39.221	6.8535e-06	70.965	-11.013	-6.804	-68.892	-96.829	114.268	55.851	-97.769	-92.798	-6.625	-65.356	-94.254	-89.864	-87.398	-82.644	148.141	-85.388	-8191	255	
1848.436	1	1	0	0	0.18336	0.14574	0.19956	0.077516	0.29852	0.174	0.37938	0.17439	0.12838	0.014962	0.25116	0.36688	0.10017	0.14956	0.10084	0.1944	-2.4521	-2.7229	-2.4688	-3.0104	-2.5375	-2.8083	-3.2104	-2.6542	-2.7938	-3.0229	-2.7854	-3.1208	-2.9104	-2.6521	-3.0271	-2.9271	-51.762	-46.022	73.366	155.028	22.751	213.255	212.235	235.731	-83.349	-75.446	132.980	214.486	93.556	233.570	237.825	178.102	0.00098127	0.00083517	4.1564e-05	948.45	7.1317e-06	6.6314e-06	1300.3	292.4	9.0723e-06	1.3529e-05	485.82	161.31	102.16	45.233	7.4981e-06	80.572	0.00075752	0.00065108	0.00017879	850.21	8.2216e-06	7.2966e-06	1074.2	246.6	7.9694e-06	7.0699e-06	403.07	135.86	86.981	38.233	6.8853e-06	67.655	3.032	-60.309	-56.339	-98.153	44.191	-19.824	-97.774	-92.872	-35.434	76.703	-94.537	-89.790	-88.714	-82.417	-73.678	-85.954	-8191	255	
1848.532	1	1	0	0	0.32481	0.12477	0.29537	0.15166	0.15583	0.072857	0.17962	0.089522	0.20871	0.25645	0.14692	0.20388	0.29567	0.0080032	0.093258	0.11462	-2.4021	-3.1646	-2.5	-2.9188	-2.9896	-2.5417	-3.2313	-2.9917	-2.6458	-2.9938	-2.75	-2.8063	-2.9583	-2.6813	-2.9458	-3.0292	158.522	-48.844	-27.992	73.354	44.778	-67.039	154.508	-26.905	-63.264	207.225	216.203	190.388	140.601	37.189	149.848	175.207	0.00046341	0.00136	0.00023049	943.67	5.017e-06	6.9637e-06	1279.5	291.02	1.4298e-05	1.2162e-05	482.04	158.19	101.03	44.408	8.0651e-06	78.155	0.00071245	0.0006265	0.00018443	847.74	7.5795e-06	6.9759e-06	1065.2	245.28	7.4877e-06	6.7974e-06	401.32	133	85.5	37.418	7.5048e-06	65.892	-27.154	-43.464	102.961	-98.134	-104.052	41.892	-98.256	-92.879	1.641	45.285	-94.115	-90.007	-88.131	-82.794	-69.681	-85.445	-8191	255	
1848.628	1	1	0	0	0.025497	0.11614	0.2838	0.27035	0.12537	0.11632	0.13151	0.12758	0.29605	0.09512	0.126	0.12543	0.16224	0.12041	0.11386	0.16923	-2.2313	-2.8688	-2.6542	-2.9396	-3.0292	-2.6	-3.0542	-2.9667	-2.7229	-3.2313	-2.7042	-2.925	-3.0042	-2.5104	-3.1083	-3.0604	-54.675	105.115	150.895	65.270	228.379	160.827	196.406	50.099	106.523	248.638	133.021	-110.456	97.715	232.689	-99.984	108.497	0.000731	0.0010857	0.00018758	948.75	1.1852e-05	6.0103e-06	1274.4	287.37	6.4691e-06	5.4773e-06	477.91	159.89	100.69	43.959	1.091e-05	79.577	0.0006765	0.00060581	0.00019974	843.63	7.3045e-06	6.8145e-06	1064.8	243.51	7.2431e-06	6.6958e-06	401.18	133.12	85.16	37.412	8.3435e-06	66.674	-22.396	-22.727	69.671	-97.448	34.492	86.854	-97.764	-92.507	10.863	207.606	-94.138	-89.729	-88.307	-82.373	-23.085	-85.927	-8191	255	
1848.747	1	1	0	0	0.16817	0.23402	0.28641	0.08131	0.18578	0.17626	0.2508	0.3514	0.20731	0.12772	0.043085	0.3015	0.13778	0.2238	0.14039	0.14889	-2.2354	-3.0167	-2.5833	-2.6792	-3.0187	-2.7354	-3.0333	-2.8458	-2.6333	-2.9479	-3.0333	-2.7625	-2.8125	-2.575	-2.9062	-2.9188	34.689	157.128	143.576	140.427	87.756	233.637	225.322	164.454	2.905	-79.121	-36.588	235.565	230.091	-90.332	-5.230	148.940	0.00068614	0.00097737	0.00034459	946.9	6.785e-06	1.3563e-05	1290.5	286.83	2.0202e-05	1.0774e-05	475.18	157.35	100.04	44.215	2.6756e-06	81.258	0.00066223	0.00063029	0.00021679	837.99	6.9202e-06	7.2753e-06	1072.6	242.23	7.0596e-06	7.3163e-06	398.99	131.74	84.392	37.58	8.4947e-06	67.338	14.036	-48.622	-75.183	-97.240	69.616	64.494	-97.824	-92.868	-11.031	246.562	-93.887	-89.762	-88.507	-82.628	109.412	-85.592	-8191	255	
1848.843	1	1	0	0	0.1609	0.18224	0.26525	0.067395	0.35616	0.24791	0.20488	0.15205	0.24597	0.028195	0.26602	0.077649	0.10919	0.029536	0.19348	0.16209	-2.1271	-3.0729	-2.7396	-2.6333	-2.9833	-2.5687	-3.1	-3.0792	-2.5938	-2.9188	-2.8833	-2.7042	-3.0729	-2.7313	-2.7562	-3.0875	213.882	-52.172	-91.767	-0.947	167.952	125.659	237.093	192.339	245.336	139.459	198.724	212.896	-73.179	-14.835	226.006	-72.741	0.00058693	0.0013508	0.00017955	932.76	5.3852e-06	2.1202e-06	1284.1	287.08	3.9432e-06	9.6686e-06	475.5	156.95	97.35	42.872	1.7796e-05	77.567	0.00064004	0.00070145	0.00021894	828.17	6.6305e-06	7.8843e-06	1070.7	240.4	6.8494e-06	8.0086e-06	397.76	130.98	82.757	36.724	8.2375e-06	64.519	-9.040	85.272	-95.357	-97.852	181.026	131.078	-97.728	-92.718	-26.098	-18.581	-93.996	-89.771	-88.116	-82.863	1.304	-85.909	-8191	255	
1848.939	1	1	0	0	0.15526	0.073419	0.10585	0.30788	0.31447	0.29979	0.17431	0.4108	0.15075	0.23865	0.38935	0.21181	0.090673	0.056486	0.19093	0.15867	-2.25	-2.9833	-2.5729	-2.5187	-2.9271	-2.575	-2.9562	-3.1667	-2.475	-2.9125	-2.9021	-2.6958	-2.8875	-2.6188	-2.8333	-3.0417	125.226	17.847	-72.111	206.876	-29.662	22.351	200.464	155.126	-75.665	-51.363	-100.071	142.824	242.808	-64.245	171.293	175.066	0.00086668	0.0004209	0.00023533	919.1	2.1277e-06	7.2565e-06	1277.1	280.64	6.1252e-06	6.4457e-06	465.48	148.58	94.2	40.91	5.8329e-06	72.552	0.00064127	0.00074566	0.00020173	819.51	6.7128e-06	8.2828e-06	1061.4	235.11	7.0594e-06	8.291e-06	387.3	124.2	79.987	34.889	7.7009e-06	60.281	-16.074	142.590	-64.921	-97.962	-34.408	-5.123	-97.823	-93.217	101.983	40.841	-94.195	-89.816	-88.043	-82.495	4.268	-85.369	-8191	255	
1849.013	1	1	0	0	0.15684	0.22496	0.088268	0.10037	0.17651	0.21839	0.084328	0.093792	0.22992	0.23665	0.020808	0.047781	0.18217	0.37522	0.067191	0.095009	-1.9979	-2.9	-2.8625	-2.625	-3.0563	-2.7562	-2.9521	-3.1042	-2.7021	-3.0229	-3.0229	-2.8896	-2.9646	-2.775	-3.0187	-3.3417	112.787	32.921	31.861	-61.198	-61.015	144.521	197.379	184.058	243.385	-58.761	77.700	-60.402	245.308	208.373	16.428	200.687	0.00038473	0.00087329	0.00050451	929.17	4.7838e-06	7.6768e-06	1262.7	276.44	4.2275e-06	1.4872e-05	455.24	145.76	92.26	40.339	4.7638e-06	72.295	0.00066997	0.00076686	0.00018962	814.11	7.2572e-06	8.4313e-06	1051.2	230.35	7.437e-06	8.2614e-06	379.41	121.69	78.753	34.398	7.2078e-06	60.073	-48.664	-88.080	-76.294	-97.885	-23.171	40.198	-97.781	-92.983	-63.670	-30.654	-94.313	-89.848	-87.863	-82.589	23.019	-85.891	-8191	255	
1849.132	1	1	0	0	0.37366	0.077097	0.21064	0.29759	0.2208	0.12046	0.20802	0.1782	0.2401	0.068979	0.15481	0.27696	0.33942	0.15938	0.17381	0.28196	-1.9417	-2.9062	-3.0354	-2.7438	-3.0771	-2.7708	-2.9875	-3.0292	-2.7625	-2.7917	-2.975	-2.6	-2.8187	-2.9417	-2.6229	-3.075	163.677	169.479	240.518	-83.783	23.757	233.877	158.756	-110.494	117.303	-64.193	141.002	-96.011	211.113	187.393	-17.462	210.069	0.00073616	0.0012369	0.00039012	928.68	4.8248e-06	7.4321e-06	1268.2	274.7	1.4187e-05	9.9248e-06	454.68	147	92.49	41.006	1.1371e-05	74.4	0.00070936	0.00073827	0.00017719	809.22	7.9883e-06	7.9498e-06	1050.4	230.07	8.1986e-06	7.9188e-06	378.64	122.91	79.241	34.887	6.9998e-06	62.343	-20.042	27.485	17.390	-97.981	246.890	93.257	-97.929	-93.102	7.376	-94.938	-93.931	-89.311	-88.279	-82.051	40.811	-85.659	-8191	255	
1849.228	1	1	0	0	0.3442	0.24577	0.017833	0.293	0.07359	0.23578	0.20122	0.13871	0.45876	0.10325	0.16374	0.095105	0.14198	0.017661	0.097583	0.29151	-2.3229	-2.7396	-2.9917	-2.5062	-2.8563	-2.8896	-2.6667	-3.1333	-2.6229	-2.7938	-3.2479	-2.7979	-2.8396	-2.9896	-2.4917	-3.2479	181.001	153.117	67.365	-41.993	216.100	153.293	228.498	190.317	9.463	245.923	133.353	-104.862	111.351	33.274	-33.503	230.461	0.0005065	0.00074011	9.543e-05	931.48	4.8307e-06	1.2005e-06	1276.5	278.83	8.5937e-06	7.6053e-06	461.81	150.2	93.21	41.794	1.0067e-05	77.645	0.0007546	0.00071041	0.00017386	817.97	8.4471e-06	7.5659e-06	1057.5	233.53	8.6644e-06	7.7768e-06	384.4	126.62	80.57	35.664	7.0742e-06	64.846	15.345	37.390	195.202	-97.296	56.703	175.125	-98.007	-92.984	-85.701	-32.933	-94.781	-89.161	-88.367	-82.345	29.608	-85.285	-8191	255	
1849.324	1	1	0	0	0.26474	0.019905	0.22564	0.080751	0.14455	0.079247	0.3417	0.17108	0.29648	0.02518	0.24544	0.27425	0.080488	0.052049	0.05985	0.178	-2.3771	-2.5917	-2.925	-2.55	-3.0375	-2.9604	-2.6917	-3.075	-2.5875	-2.7958	-3.1104	-2.9542	-2.95	-3.1208	-2.625	-3.1771	-9.056	50.869	162.070	63.153	-106.737	244.051	167.950	236.796	-38.489	73.615	-76.948	231.849	52.492	55.552	-73.881	198.237	0.00075127	0.0013365	0.00027517	924.41	4.1205e-06	1.0486e-05	1272.1	280.25	1.1243e-05	2.497e-06	459.1	148.87	93.173	41.14	6.0461e-06	73.987	0.0007799	0.00069867	0.00017413	836.16	8.6523e-06	7.3955e-06	1060	235.66	8.5287e-06	7.5971e-06	381.69	125.39	80.033	34.737	7.1352e-06	62.405	-11.218	-24.827	-57.681	-97.373	236.523	-0.716	-97.821	-92.717	-32.784	4.223	-94.548	-89.718	-87.848	-82.125	-98.076	-85.184	-8191	255	
1849.445	1	1	0	0	0.24699	0.052584	0.11962	0.44251	0.18828	0.26224	0.13227	0.29494	0.099104	0.024839	0.1496	0.092291	0.2533	0.12874	0.052918	0.024126	-2.2938	-2.7958	-3.0875	-2.7083	-2.8417	-3.0271	-2.7729	-3.0854	-2.9792	-2.8792	-3.2229	-2.9229	-2.6979	-2.9042	-2.7687	-3.1708	198.451	-65.133	43.695	101.933	184.821	-29.987	232.383	205.642	106.526	161.511	210.028	110.816	-101.132	29.222	79.689	152.246	0.00077765	0.00063788	0.00018646	907.7	1.2406e-05	1.2113e-05	1271.2	272.2	5.2743e-06	1.0457e-05	446.57	144	89.622	39.603	5.5012e-06	73.4	0.00075322	0.00069005	0.00017604	834.84	8.2897e-06	7.2793e-06	1051	231.55	8.0543e-06	7.7757e-06	374.6	122.29	77.817	33.898	7.8135e-06	61.934	17.095	-29.501	243.811	-96.445	72.368	4.638	-97.805	-93.037	45.144	41.313	-94.126	-89.676	-88.214	-82.706	28.477	-85.671	-8191	255	
1849.541	1	1	0	0	0.089749	0.083174	0.10178	0.060083	0.16113	0.021591	0.31776	0.21857	0.10107	0.021846	0.15253	0.2667	0.21397	0.11123	0.13203	0.037887	-2.4313	-2.5646	-3.1458	-2.6896	-2.7729	-3.0062	-2.775	-2.9333	-2.8375	-2.5938	-3.1792	-2.8229	-2.7792	-3.0729	-2.5479	-2.8833	53.590	-88.653	-14.430	5.493	233.475	218.428	203.687	234.530	-90.272	-44.793	204.636	154.012	14.934	-42.947	-46.183	1.449	0.00081395	0.0009582	0.00035271	936.52	5.4679e-06	1.5988e-05	1273	275.13	1.2624e-05	4.2175e-06	451.82	148.75	93.274	41.053	9.1468e-06	75.957	0.00073799	0.00067665	0.00019765	848.21	7.8907e-06	7.1716e-06	1058.3	233.45	7.6752e-06	7.2701e-06	381.95	125.04	79.7	34.841	8.2112e-06	63.923	21.111	-76.968	-52.909	-96.723	68.401	6.303	-98.052	-92.966	5.360	113.326	-94.393	-89.662	-87.950	-82.085	42.836	-85.419	-8191	255	
1849.612	1	1	0	0	0.086879	0.13005	0.23169	0.16666	0.28697	0.070874	0.19004	0.10632	0.074362	0.12922	0.1264	0.095965	0.14848	0.13721	0.14787	0.14698	-2.4771	-2.4125	-3.0875	-2.6229	-2.5271	-3.1292	-2.8312	-2.7646	-3.0604	-2.7687	-2.9	-3.0083	-2.7542	-3.1792	-2.7896	-2.875	112.547	7.456	-26.789	151.560	129.044	101.055	94.096	136.816	31.944	84.986	59.563	-66.696	180.430	-102.015	216.731	215.671	0.0005157	0.0015066	0.00044467	936.06	1.2479e-05	3.8511e-06	1290.4	284.59	9.0419e-06	1.0329e-05	465.22	152.74	96.32	43.149	1.1715e-05	78.956	0.00067741	0.00065289	0.0002109	842.31	7.5103e-06	6.992e-06	1073.3	238.56	7.2642e-06	7.2402e-06	391.67	128.4	81.927	36.413	8.7074e-06	66.089	-9.859	-26.847	39.083	-97.918	75.181	238.955	-97.746	-92.993	234.628	-59.092	-94.678	-89.725	-88.437	-82.403	236.124	-85.357	-8191	255	
1849.733	1	1	0	0	0.14055	0.10647	0.20478	0.0287	0.072675	0.11262	0.2618	0.21215	0.0856	0.27068	0.31902	0.38188	0.088728	0.37689	0.1649	0.076535	-2.8375	-2.4313	-3.1229	-2.9	-2.6333	-3.1625	-2.85	-2.8125	-3.0187	-2.7	-2.8958	-2.9521	-2.4896	-3.1271	-2.75	-2.7833	-96.466	236.457	74.697	142.624	119.628	-97.490	193.127	136.057	24.383	53.050	217.091	225.990	-98.948	-53.580	68.073	247.762	0.00071358	0.0010315	0.00018357	955.46	1.13e-05	7.7775e-06	1294.2	284.87	4.0233e-06	9.433e-06	465.04	152.28	95.65	42.61	1.5349e-05	76.641	0.00066115	0.00067427	0.00022439	845.7	7.3087e-06	7.4454e-06	1085.2	239.43	6.9533e-06	7.7252e-06	393.3	128.12	81.785	36.237	8.7297e-06	64.229	8.294	44.354	242.003	-97.251	71.350	-1.742	-97.638	-92.465	243.903	-38.054	-94.193	-89.696	-87.912	-82.526	92.641	-85.438	-8191	255	
1849.827	1	1	0	0	0.19025	0.20963	0.14323	0.3058	0.14148	0.18985	0.24326	0.19376	0.082639	0.16123	0.19069	0.35013	0.12423	0.22427	0.16006	0.16337	-2.4458	-2.6792	-2.8187	-2.9604	-2.5646	-2.9542	-2.9208	-2.575	-3.2438	-2.7208	-3.0583	-2.9979	-2.6792	-3.1437	-2.7708	-2.8542	208.117	55.714	-61.674	213.113	23.906	-108.143	245.726	240.086	-36.780	-105.484	-62.128	212.336	248.314	-103.152	201.379	-16.639	0.00071763	0.00077108	0.00016109	937.8	8.0546e-06	6.423e-06	1291.1	283.87	4.4074e-06	7.9808e-06	462.31	150.11	95.712	42.693	1.9651e-05	77.021	0.00063509	0.00074595	0.00022232	835.8	7.1596e-06	8.2436e-06	1074.9	238.74	7e-06	8.3808e-06	390.27	126.41	81.389	36.499	8.1812e-06	64.557	-30.631	101.158	38.478	-97.119	85.547	151.458	-97.820	-92.779	10.938	176.585	-94.053	-89.647	-87.941	-82.610	13.994	-85.084	-8191	255	
1849.924	1	1	0	0	0.25923	0.14617	0.14475	0.21599	0.20494	0.1943	0.10475	0.16114	0.24125	0.32495	0.16335	0.25513	0.12024	0.37535	0.17104	0.039496	-2.475	-2.7438	-2.7542	-2.9938	-2.4958	-2.9417	-2.8667	-2.6875	-2.9646	-2.8167	-2.7646	-3.0771	-2.5458	-2.9417	-2.9521	-2.7292	-2.369	7.825	-91.089	113.358	36.349	50.081	-108.773	150.532	-27.017	-98.744	-97.798	188.980	112.740	-97.532	61.578	99.657	0.00055232	0.00031579	0.0004321	945.86	7.8748e-06	1.1853e-05	1291.5	284.84	1.695e-05	1.8166e-05	471.46	153.22	96.959	43.441	1.617e-05	79.468	0.00062837	0.00079028	0.00021043	832.62	7.3102e-06	8.7906e-06	1071.5	238.24	7.3056e-06	8.8849e-06	392.07	128.21	82.621	37.3	7.7856e-06	66.424	-6.735	196.875	-32.694	-98.105	81.540	-1.572	-97.869	-92.745	-48.550	73.766	-94.424	-89.594	-88.339	-82.697	65.814	-85.413	-8191	255	
1850.044	1	1	0	0	0.20099	0.037338	0.021634	0.22594	0.054947	0.19392	0.27338	0.15588	0.025843	0.10018	0.25244	0.28079	0.49567	0.048264	0.15584	0.14428	-2.7375	-2.5958	-2.7417	-2.9979	-2.5833	-2.6375	-3.1521	-2.5312	-3.0021	-2.8146	-2.8083	-3.0542	-2.6104	-2.8937	-2.8875	-2.7083	162.183	161.796	141.435	-84.447	-10.768	151.350	143.430	148.379	105.785	20.428	184.864	96.843	-96.685	240.849	-85.472	245.056	0.00055393	0.00088398	0.00030343	930.47	1.6107e-06	2.0911e-05	1298.5	282.29	2.9795e-06	6.6504e-06	469.49	155.85	97.719	44.984	1.6051e-05	83.39	0.00068178	0.0008149	0.00020066	826.77	7.9697e-06	8.8486e-06	1078.1	238.15	7.9773e-06	8.9294e-06	393.42	130.26	83.717	38.263	7.5729e-06	69.236	42.200	15.537	2.818	-97.541	205.887	42.871	-97.808	-92.749	-41.162	25.064	-94.005	-89.584	-88.138	-82.703	40.906	-85.224	-8191	255	
1850.140	1	1	0	0	0.21156	0.12171	0.11715	0.20975	0.19229	0.099697	0.19368	0.24712	0.21989	0.35863	0.17088	0.24651	0.15076	0.15107	0.27513	0.23672	-2.6333	-2.7604	-2.6312	-3.0854	-2.6396	-3.0646	-3.1396	-2.8125	-3.0187	-2.8271	-2.8771	-3.0062	-2.6667	-2.8625	-2.9917	-2.8063	-45.026	-25.527	85.568	167.711	-75.348	-105.654	193.632	237.919	-3.589	-60.897	-102.531	225.536	111.419	-24.929	-77.498	211.479	0.0014566	0.00066488	0.00016374	942.96	1.518e-05	1.1794e-05	1304.3	287.21	1.2152e-05	1.0696e-05	480.65	158.01	99.111	44.683	6.4464e-06	80.684	0.00076979	0.00078782	0.00019796	830.8	8.659e-06	8.5431e-06	1084.5	240.41	8.7753e-06	8.3638e-06	397.84	131.49	84.786	37.907	7.1465e-06	67.429	-3.097	-64.621	163.123	-97.409	-55.052	-25.843	-97.865	-92.659	-84.826	20.197	-94.544	-89.483	-88.061	-82.856	-14.991	-85.895	-8191	255	
1850.236	1	1	0	0	0.13025	0.20064	0.26835	0.22561	0.13469	0.18623	0.14422	0.041681	0.14983	0.3279	0.10036	0.31408	0.23298	0.17396	0.064225	0.36199	-2.6646	-2.8604	-2.5792	-3.1542	-2.7542	-2.7583	-3.3187	-2.5771	-3.0521	-2.9708	-2.7562	-3.0521	-2.8542	-2.7146	-3.0417	-2.7375	-27.772	184.997	-23.609	-80.161	-110.321	44.123	186.075	70.198	-7.049	0.760	-49.711	99.444	-81.060	186.427	214.703	196.670	0.0007156	0.0013593	0.00031824	937.08	4.303e-06	8.1049e-06	1296	289.23	6.3828e-06	1.5165e-05	472.02	157.07	98.701	44.808	7.2857e-06	80.009	0.00081918	0.00073279	0.00018646	833.43	8.84e-06	7.8699e-06	1075.5	241.92	8.7014e-06	7.6314e-06	394.35	131.24	84.721	37.718	6.8159e-06	67.226	15.469	13.693	39.476	-97.414	-24.769	25.473	-97.753	-92.891	-67.808	66.010	-94.104	-89.529	-88.031	-82.630	60.407	-85.971	-8191	255	
1850.308	1	1	0	0	0.054381	0.21323	0.1747	0.32321	0.17582	0.0468	0.261	0.16368	0.078238	0.15315	0.099632	0.099901	0.31686	0.11784	0.13067	0.28925	-2.5271	-2.7375	-2.5687	-2.9437	-2.6583	-2.6188	-3.1167	-2.6479	-2.8271	-2.7271	-2.6729	-3.0563	-2.9917	-2.5729	-3.0187	-2.8292	122.503	99.591	93.024	110.928	-13.700	93.316	125.534	135.381	238.240	28.793	-53.233	203.972	227.214	161.105	172.592	183.697	0.00096405	0.00086103	9.84e-05	954.45	6.9204e-06	7.1045e-07	1300.7	286.53	1.1205e-05	5.854e-06	470.92	155.9	98.341	44.925	1.3868e-05	82.991	0.00079235	0.00068043	0.0001823	850.02	8.4866e-06	7.6822e-06	1078	242.64	8.5854e-06	7.5541e-06	393.77	132.09	84.255	38.12	7.1852e-06	69.549	-14.229	-29.033	-15.651	-97.648	115.530	46.006	-97.799	-92.930	87.174	68.474	-94.627	-89.507	-87.852	-82.902	-58.377	-85.271	-8191	255	
1850.429	1	1	0	0	0.16802	0.16249	0.076572	0.045719	0.099381	0.16682	0.24238	0.082232	0.082238	0.13812	0.13992	0.31874	0.065071	0.31209	0.063064	0.21686	-2.3125	-2.9104	-2.7458	-2.8292	-2.8438	-2.625	-3.2854	-2.9458	-2.7854	-3.0812	-2.7167	-2.9417	-2.7833	-2.7062	-2.9667	-3.025	153.275	226.098	86.715	82.438	57.562	30.998	200.353	201.053	-42.600	244.382	-60.651	-107.062	-36.785	246.348	-104.779	184.902	0.00079618	0.001257	0.0002945	949.93	1.3023e-06	1.3958e-05	1300.9	291.72	1.2755e-05	1.4132e-05	479.9	160.8	100.21	46.301	9.4947e-06	86.642	0.00076258	0.00067129	0.00019267	861.98	8.1919e-06	7.5141e-06	1083.7	245.71	8.066e-06	7.1163e-06	399.27	135.41	85.31	39.124	7.5867e-06	72.248	-4.138	-98.483	32.722	-97.578	89.747	37.664	-97.979	-92.601	12.232	73.518	-94.468	-89.328	-88.102	-82.422	228.107	-85.448	-8191	255	
1850.525	1	1	0	0	0.10183	0.36705	0.10354	0.12155	0.19197	0.17104	0.10348	0.069909	0.25644	0.023605	0.1531	0.092533	0.16222	0.15097	0.43146	0.098137	-2.2438	-2.8479	-2.7938	-2.9708	-2.9375	-2.6708	-3.2604	-2.8083	-2.8833	-2.9771	-2.6667	-3.0021	-3.1292	-2.5792	-3.0438	-2.7375	19.362	104.600	-9.373	-38.307	-96.408	-69.443	182.194	6.652	149.110	35.811	123.355	-6.973	51.973	130.654	145.422	-105.043	0.00069785	0.001351	0.00014946	959.96	2.062e-06	5.5335e-06	1311.7	296.25	3.0012e-06	1.0546e-05	489.1	165.81	104.04	46.909	1.3794e-05	84.562	0.00072343	0.00063387	0.00020205	865.13	7.5451e-06	6.9303e-06	1097.5	249.16	7.6124e-06	6.7143e-06	409.61	138.76	87.798	39.604	8.1056e-06	70.868	44.417	-55.847	-53.067	-97.086	87.102	49.027	-97.932	-92.731	1.712	32.843	-94.343	-89.748	-88.100	-82.552	-3.544	-85.271	-8191	255	
1850.621	1	1	0	0	0.16115	0.081676	0.20267	0.21082	0.22329	0.016308	0.34097	0.07489	0.19381	0.1804	0.34865	0.22954	0.13216	0.17568	0.23872	0.12117	-2.1354	-3.0271	-2.6208	-2.7396	-3.0396	-2.5979	-3.15	-2.9188	-2.4521	-3.0479	-2.7375	-2.7792	-2.8708	-2.8333	-3.1542	-2.9646	-10.408	10.341	91.817	223.220	106.063	122.195	183.596	49.811	149.043	34.870	202.297	156.427	91.040	222.618	234.638	240.012	0.00067209	0.0003751	0.00028346	951.95	9.8798e-06	1.1002e-05	1313.6	295.37	7.7684e-06	9.1708e-06	486.34	162.62	101.24	46.104	8.2137e-06	83.38	0.00067995	0.00061769	0.00021641	854.8	7.337e-06	7.233e-06	1094.3	248.51	7.4427e-06	7.1037e-06	407.33	136.01	86.196	38.795	8.7781e-06	69.798	9.283	219.562	-45.240	-97.150	71.616	28.447	-97.827	-92.546	-94.265	129.749	-94.325	-89.308	-87.565	-82.530	-46.624	-85.406	-8191	255	
1850.715	1	1	0	0	0.15186	0.011338	0.22336	0.17738	0.15903	0.12527	0.20419	0.19569	0.22641	0.094751	0.13239	0.2361	0.10321	0.082084	0.081142	0.19448	-2.1958	-3.1854	-2.7667	-2.6958	-3.0812	-2.6083	-3.0604	-3.1833	-2.5438	-3.1583	-2.9917	-3.1479	-3.05	-2.6729	-3.1937	-2.9896	89.415	212.672	243.162	146.140	149.121	245.346	172.070	-97.940	107.445	-107.386	6.906	201.444	-64.792	238.611	-33.585	230.032	0.00073399	0.00018662	9.6838e-05	953.13	8.8229e-06	8.7549e-06	1316.2	293.78	1.0122e-05	6.3747e-06	483.53	162.02	100.71	46.402	1.32e-05	85.883	0.0006704	0.00067287	0.00022275	849.76	6.8621e-06	7.7143e-06	1093.2	246.1	7.0737e-06	7.6611e-06	405.8	135.66	85.653	39.297	8.6043e-06	71.192	-0.853	84.180	28.217	-97.156	32.463	150.825	-97.720	-92.997	57.028	46.249	-94.265	-89.675	-87.887	-82.414	-33.571	-85.437	-8191	255	
1850.813	1	1	0	0	0.24717	0.021889	0.14697	0.16823	0.25921	0.075014	0.19633	0.18534	0.074025	0.25136	0.22391	0.18845	0.132	0.059985	0.092854	0.38929	-2.075	-3.0792	-2.6375	-2.7229	-3.1083	-2.7479	-3.0042	-3.1146	-2.4354	-2.8083	-2.9688	-2.7375	-3.2188	-2.8667	-2.8167	-3.35	23.527	26.282	212.847	194.029	245.478	168.714	142.893	207.515	-75.810	85.339	219.610	165.103	240.848	-74.031	168.159	164.336	0.00080479	0.0011243	0.00044595	949.74	7.3493e-06	1.0249e-05	1310.7	291.99	1.035e-05	7.7056e-06	488.56	163.89	102.3	47.105	3.937e-06	87.663	0.00066393	0.00075258	0.00021827	843.09	6.9066e-06	8.5318e-06	1093.8	245.23	7.191e-06	8.5916e-06	407.16	136.7	86.418	39.937	8.4415e-06	72.812	5.125	-90.477	19.089	-97.160	107.178	16.785	-97.487	-92.282	-81.775	-54.738	-94.737	-89.520	-87.989	-82.205	-5.388	-85.538	-8191	255	
1850.908	1	1	0	0	0.023987	0.11015	0.091887	0.28212	0.14897	0.20764	0.096072	0.1774	0.065968	0.2864	0.23747	0.070864	0.13786	0.070175	0.19423	0.22002	-2.3479	-2.9938	-2.8646	-2.7604	-2.9354	-2.8125	-3.0854	-3.1021	-2.7687	-3.0396	-2.9688	-2.8583	-3.0458	-2.7854	-2.8021	-2.9125	172.517	205.758	244.598	-65.106	64.201	101.209	142.261	216.011	175.014	-6.629	153.448	247.798	-72.493	186.355	107.847	185.152	0.00093143	0.00033568	0.00052988	958.26	1.165e-06	1.4915e-06	1312.7	294.85	1.3704e-05	1.5046e-05	487.86	165.26	102.63	46.598	5.2185e-06	86.518	0.00069749	0.00081071	0.00021068	848.29	7.4973e-06	9.145e-06	1093.8	246.49	7.9395e-06	9.2559e-06	407.39	137.81	87.438	40.103	8.131e-06	71.998	-18.335	27.746	-70.377	-97.307	-82.102	145.404	-97.673	-93.030	231.550	24.608	-94.491	-89.503	-87.527	-82.139	211.262	-85.449	-8191	255	
1851.004	1	1	0	0	0.3804	0.17517	0.13094	0.11959	0.063504	0.17609	0.12262	0.044662	0.29371	0.18082	0.12417	0.16512	0.049392	0.16424	0.28703	0.24866	-2.1542	-2.9708	-2.8167	-2.4021	-3.0812	-2.7812	-2.7479	-3.1167	-2.7083	-3.0896	-2.9333	-2.6958	-3.1229	-2.8854	-2.6583	-3.2167	37.995	114.329	-21.317	-81.552	170.063	137.132	192.247	-91.962	38.606	124.759	245.148	-57.592	85.760	124.109	-99.435	-104.224	0.00092244	0.00074205	0.00015794	958.79	1.4408e-05	1.1225e-05	1310.2	292.59	1.1363e-05	3.9465e-06	483.8	161.37	101.39	45.453	1.3277e-05	82.648	0.00075423	0.00082494	0.00020026	839.12	8.2076e-06	8.8555e-06	1087.5	244.43	8.5292e-06	8.8492e-06	404.22	135.41	86.777	38.666	7.638e-06	68.709	-1.125	-24.080	51.012	-97.733	-21.396	16.726	-97.677	-92.847	235.773	192.421	-94.054	-89.371	-88.205	-82.625	37.147	-85.699	-8191	255	
1851.125	1	1	0	0	0.10517	0.26779	0.11755	0.21464	0.07484	0.17946	0.090308	0.31689	0.1551	0.1412	0.24859	0.1897	0.38193	0.088606	0.16491	0.35444	-2.3	-2.6417	-3.1021	-2.4021	-2.9188	-2.6958	-2.6146	-3.0812	-2.5771	-2.7542	-2.9396	-2.7583	-3.0771	-2.7979	-2.7604	-2.9708	-74.462	109.276	57.456	95.482	-47.184	111.839	132.174	231.742	-11.600	171.250	56.491	145.165	-107.010	-89.575	53.734	216.482	0.0010983	0.0013629	0.00028947	946.22	1.4979e-05	4.962e-06	1301.9	290.76	4.556e-06	1.7479e-05	477.71	160.04	100.62	45.529	6.1069e-06	83.779	0.00079661	0.00078662	0.00018833	838.38	8.7986e-06	8.4402e-06	1082.7	244.22	8.9303e-06	8.2355e-06	400.76	134.26	86.616	38.744	7.3976e-06	69.768	-16.356	-0.787	-40.459	-97.303	-14.965	215.626	-97.885	-92.775	-68.910	15.280	-94.192	-89.635	-87.921	-82.399	54.489	-85.944	-8191	255	
1851.221	1	1	0	0	0.15577	0.16923	0.16049	0.044358	0.066338	0.21632	0.2653	0.39974	0.17845	0.11848	0.35639	0.19973	0.30568	0.23121	0.20803	0.3061	-2.3479	-2.6958	-2.9292	-2.6625	-2.9667	-2.9771	-2.825	-3.0687	-2.675	-2.675	-3.1937	-2.8479	-3.0604	-2.9458	-2.5917	-2.9896	76.541	16.134	174.444	190.622	-69.744	-25.527	148.846	177.740	82.981	215.616	-101.767	152.306	211.470	100.933	-70.974	210.570	0.0010311	0.002229	0.0003158	950.98	1.0535e-05	5.7966e-06	1314.9	294.82	1.2e-05	8.572e-06	486.42	163.74	101.64	46.448	7.7908e-06	87.48	0.00082867	0.00073385	0.00018171	847.58	8.9053e-06	7.7701e-06	1089.7	247.09	8.8093e-06	7.7413e-06	403.4	137.05	87.644	39.427	7.3329e-06	72.687	32.231	-28.909	-16.943	-97.639	131.479	-3.203	-97.978	-92.236	-61.766	1.925	-94.485	-89.897	-87.832	-82.427	-3.647	-85.368	-8191	255	
1851.317	1	1	0	0	0.28209	0.090534	0.089041	0.10571	0.19208	0.091477	0.23912	0.31155	0.06813	0.064976	0.126	0.14841	0.27136	0.22531	0.11136	0.30529	-2.4125	-2.7	-2.9875	-2.5729	-3.0312	-2.8187	-2.9042	-2.8167	-2.8479	-2.6688	-3.1917	-2.6896	-2.85	-3.0896	-2.7979	-3.0062	-3.653	154.229	-99.108	-104.943	-101.248	116.060	102.696	182.872	64.119	9.294	143.294	242.477	36.166	246.161	44.300	226.631	0.00075994	0.0010927	6.1959e-05	954.43	1.1432e-05	9.6541e-06	1317.5	297.92	9.9012e-06	6.0938e-06	492.14	166.54	104.78	46.851	1.2178e-05	86.254	0.00078064	0.00070257	0.00017665	860.68	8.5211e-06	7.3925e-06	1095.7	250.94	8.4273e-06	7.5808e-06	409.87	140.22	89.066	39.733	7.3712e-06	71.983	-8.731	38.284	-52.287	-96.517	22.902	44.377	-97.482	-92.588	-22.574	75.151	-94.232	-89.609	-88.407	-82.764	221.930	-85.664	-8191	255	
1851.413	1	1	0	0	0.1729	0.16895	0.25978	0.098793	0.21176	0.063232	0.2468	0.30928	0.27894	0.25297	0.22872	0.044118	0.57584	0.036577	0.10792	0.35134	-2.5312	-2.4917	-2.9542	-2.5917	-2.8312	-2.9375	-2.7792	-3.1896	-2.75	-2.6208	-3.0542	-2.9437	-2.7792	-3.2188	-2.525	-2.9667	148.888	-34.947	220.376	137.560	95.162	32.951	165.506	166.757	196.208	43.452	191.899	171.369	-91.180	211.437	-103.647	197.552	0.00066428	0.00032126	0.0004259	963.36	7.7861e-06	1.0273e-05	1310.5	295.99	6.7031e-06	8.1748e-06	491.7	161.46	102.98	46.324	1.6966e-06	82.95	0.00073426	0.00066683	0.00018586	871.96	7.9956e-06	7.005e-06	1092.5	250.23	7.712e-06	7.3558e-06	408.99	136.83	87.321	38.922	7.905e-06	69.57	11.246	64.842	139.799	-97.419	73.961	24.732	-98.006	-92.774	75.884	40.146	-93.982	-89.758	-87.735	-82.423	190.151	-85.775	-8191	255	
1851.534	1	1	0	0	0.12484	0.091436	0.24325	0.22291	0.068206	0.18826	0.29434	0.28787	0.12148	0.17912	0.16042	0.2113	0.32874	0.11277	0.20451	0.30136	-2.35	-2.5312	-2.9	-2.65	-2.6042	-3.1271	-2.8875	-2.9958	-2.9	-2.6833	-3.2125	-2.8042	-2.6396	-3.1458	-2.7583	-2.8146	204.804	215.381	36.523	185.054	243.462	-28.297	232.520	162.334	-11.051	181.868	35.837	118.867	165.387	-94.283	164.809	128.888	0.00088214	0.00017861	0.00020696	949.48	5.5809e-06	1.1005e-05	1315.4	292.58	1.3994e-06	7.0975e-06	486.86	159.66	100.72	46.076	1.8806e-06	84.499	0.00069007	0.00065635	0.00019989	859.93	7.6912e-06	6.8277e-06	1093.2	248.85	7.611e-06	7.2493e-06	406.57	135.5	86.38	38.73	8.8356e-06	70.431	5.416	-31.451	69.197	-97.101	29.820	60.220	-97.892	-92.552	42.549	216.933	-94.151	-89.750	-87.980	-82.379	58.398	-85.596	-8191	255	
1851.605	1	1	0	0	0.22881	0.14533	0.026538	0.32933	0.17016	0.092866	0.086916	0.26348	0.30532	0.084426	0.24041	0.31151	0.3154	0.12633	0.09774	0.17407	-2.5917	-2.5333	-2.9458	-2.8333	-2.7479	-3.0271	-2.7438	-2.8812	-2.7938	-2.5979	-3.0062	-3.0292	-2.5229	-2.9917	-2.6917	-2.9208	114.926	110.453	63.088	169.337	151.552	182.204	143.389	142.042	155.087	71.561	-76.746	133.725	191.025	-68.493	13.455	-35.445	0.00049863	0.00025582	0.00017427	974.81	5.1652e-06	7.1574e-06	1305	292.89	1.314e-05	4.8063e-06	490.07	163.54	103.17	47.089	3.9662e-06	86.389	0.00068623	0.00067979	0.00022707	858.57	7.6329e-06	7.3109e-06	1093.5	247.59	7.3007e-06	7.6017e-06	409.68	136.98	86.815	39.728	8.8895e-06	72.449	-21.660	193.424	-110.625	-97.617	67.504	64.488	-97.967	-92.754	-11.740	223.338	-94.345	-89.725	-87.981	-82.502	223.571	-85.402	-8191	255	
1851.726	1	1	0	0	0.28628	0.24147	0.12972	0.20422	0.022146	0.03363	0.29918	0.21132	0.10966	0.11075	0.31054	0.2651	0.34352	0.20289	0.14803	0.12331	-2.3708	-2.5083	-2.9708	-2.7562	-2.6292	-3.1146	-3.0563	-2.9354	-2.9667	-2.5292	-3.1271	-3.0167	-2.5896	-3.1729	-2.6667	-2.9688	216.796	-91.690	-15.522	114.014	141.998	122.335	241.815	129.126	134.420	-12.262	221.688	163.199	197.661	-96.554	168.028	175.658	0.00057486	0.0006962	0.00042096	967.69	1.213e-05	9.989e-06	1316.5	295.45	1.4575e-05	1.4447e-06	493.33	165.8	103.74	47.424	1.1623e-05	87.834	0.00065445	0.00072995	0.00023009	854.85	7.4501e-06	7.82e-06	1097.8	248.49	7.0566e-06	8.33e-06	412.6	138.57	87.923	40.26	8.6254e-06	73.292	16.949	77.717	48.227	-96.560	60.920	-106.699	-98.072	-92.582	22.344	-34.183	-93.975	-89.709	-87.897	-82.533	-24.741	-85.484	-8191	255	
1851.820	1	1	0	0	0.17551	0.16706	0.049524	0.2333	0.14601	0.14204	0.15293	0.118	0.038095	0.081724	0.17301	0.17942	0.1381	0.073021	0.053264	0.23173	-2.6167	-2.9292	-2.7354	-2.9562	-2.5083	-3.2208	-2.8	-2.9021	-3.0208	-2.7354	-2.9313	-3.1021	-2.7021	-3	-2.7354	-2.8021	-95.185	143.354	41.093	-99.017	166.128	-8.844	185.622	-35.228	157.376	56.052	-29.025	213.884	198.429	-99.104	27.344	153.286	0.0010811	0.00079024	0.00021085	963.92	7.1959e-07	8.35e-06	1314.1	293.65	1.443e-06	1.1493e-05	489.12	161.9	100.8	45.271	5.9475e-06	82.035	0.00066291	0.00079291	0.00021979	844.76	7.391e-06	8.7213e-06	1095.2	247	7.243e-06	8.9584e-06	407.2	135.08	86.12	38.487	7.9361e-06	68.112	5.382	192.460	-83.184	-96.679	47.896	238.649	-98.293	-92.749	209.365	-48.184	-94.273	-89.584	-87.530	-82.211	35.168	-85.601	-8191	255	
1851.916	1	1	0	0	0.13401	0.15558	0.079624	0.21539	0.26287	0.085616	0.022451	0.10259	0.26385	0.082932	0.20691	0.31729	0.12295	0.36677	0.31586	0.24538	-2.7021	-2.5812	-2.8896	-3.0292	-2.5833	-2.7458	-2.8542	-2.7542	-2.7896	-2.7083	-2.9167	-3.0625	-2.8354	-3.1354	-2.8979	-2.8729	124.759	204.037	-14.307	167.776	-2.585	134.188	-99.546	246.487	122.827	-41.666	-47.676	-85.930	-24.417	149.299	136.192	-104.598	0.00086512	4.8119e-05	0.00080544	953.96	4.4703e-06	3.6887e-06	1299.5	291.11	1.4237e-05	1.8645e-05	482.93	159.03	100.2	44.833	3.9324e-06	81.061	0.00066717	0.00080022	0.00020294	834.02	7.5943e-06	8.8256e-06	1082	244.49	7.3814e-06	8.7053e-06	402.84	132.78	85.336	38.098	7.4795e-06	67.524	-13.449	223.419	31.183	-97.767	-67.561	166.624	-97.867	-92.538	-27.653	49.994	-94.404	-89.795	-88.183	-82.480	110.868	-85.325	-8191	255	
1852.013	1	1	0	0	0.10088	0.16247	0.071256	0.23493	0.20816	0.20272	0.19151	0.16481	0.044338	0.16586	0.31774	0.137	0.18667	0.41332	0.12362	0.15699	-2.6854	-2.8625	-2.6729	-3.0604	-2.5083	-3.1042	-2.9688	-2.7167	-2.9062	-2.6083	-2.8458	-2.9333	-2.7583	-2.7396	-3.0667	-2.5062	14.924	140.206	-68.918	212.449	-17.390	70.228	239.660	209.248	39.168	-63.653	-105.517	158.993	-80.867	231.036	182.476	-69.320	0.0010075	0.00076231	0.00010312	951.73	3.703e-06	8.9172e-06	1292.5	289.42	1.4817e-05	1.1688e-05	480.93	159.05	99.224	44.827	1.3187e-05	83.641	0.00071855	0.00079759	0.0001967	829.75	8.2146e-06	8.7389e-06	1079	243.19	8.3962e-06	8.4999e-06	399.34	132.72	85.513	38.388	7.2883e-06	69.287	-31.959	-13.274	227.941	-97.952	21.021	67.961	-97.934	-92.891	-34.961	-28.819	-94.371	-89.485	-87.966	-82.510	88.542	-85.252	-8191	255	
1852.109	1	1	0	0	0.14259	0.15728	0.15743	0.36414	0.32958	0.12589	0.16043	0.10065	0.18232	0.09981	0.16107	0.05694	0.14456	0.23579	0.093763	0.39615	-2.5854	-2.7583	-2.6042	-3.075	-2.7458	-2.8937	-3.0938	-2.7125	-2.9271	-3.0083	-2.6937	-3.2375	-2.6813	-2.8896	-3.0917	-2.6729	-2.012	79.768	119.431	45.452	19.929	71.900	100.549	242.336	-16.513	60.649	217.028	-107.633	211.699	242.229	-27.555	249.529	0.00078463	0.001221	0.00050775	949.92	4.6613e-06	1.656e-05	1302.2	287.54	1.705e-05	7.446e-06	477.98	160.64	100.32	45.532	1.0563e-05	85.758	0.00078706	0.00074975	0.00019072	832.62	8.8154e-06	8.2596e-06	1080.8	242.74	9.003e-06	8.1104e-06	399.72	134.2	86.188	38.749	7.2057e-06	71.348	2.200	-53.046	-99.298	-97.676	191.470	31.659	-98.026	-92.460	11.815	-5.244	-94.530	-89.599	-87.987	-82.722	30.619	-85.425	-8191	255	
1852.205	1	1	0	0	0.1852	0.13472	0.039688	0.22236	0.27516	0.37685	0.35678	0.1529	0.12717	0.2352	0.42605	0.12945	0.18825	0.2423	0.055769	0.21517	-2.7146	-2.4958	-2.5396	-2.9521	-2.7125	-2.7062	-3.3563	-2.7146	-2.8979	-2.9667	-2.6396	-3.2313	-2.8979	-2.7521	-3.1458	-2.7479	-0.174	76.245	-15.904	184.096	177.711	-36.856	169.692	150.129	60.213	34.335	197.667	-69.274	191.137	-97.486	216.820	203.376	0.00056337	0.0011379	0.00022959	946.31	5.8199e-06	2.7503e-06	1307.9	289.98	1.0839e-05	7.5002e-06	481.65	161.08	101.31	45.672	1.665e-05	84.012	0.00083048	0.00073068	0.00019219	848.02	9.0688e-06	8.0844e-06	1083.6	244.49	8.8318e-06	7.7042e-06	400.8	136.19	86.953	38.625	6.9737e-06	70.29	-2.949	-13.564	-109.462	-97.172	208.439	-62.547	-97.733	-93.003	-31.614	-79.653	-93.879	-89.616	-87.945	-82.626	135.200	-85.256	-8191	255	
1852.301	1	1	0	0	0.21748	0.22458	0.17799	0.20433	0.18647	0.26769	0.15745	0.075878	0.20288	0.1158	0.18583	0.14932	0.12657	0.34439	0.14518	0.35179	-2.4771	-2.9625	-2.5687	-3.0563	-2.8625	-2.575	-3.3167	-2.7438	-2.7146	-2.9792	-2.5083	-3.1437	-2.7854	-2.7062	-3.1708	-2.9396	42.348	-18.110	180.374	-0.703	214.524	-48.030	183.272	171.145	211.961	-88.565	166.456	-21.730	228.115	196.652	76.355	228.039	0.0005028	0.00086708	0.00022406	940.03	2.9351e-06	1.4136e-05	1294.2	288.84	1.0702e-05	3.5921e-06	479.34	160.21	99.787	44.672	7.8528e-06	82.938	0.00077915	0.00068007	0.00018539	850.84	8.4226e-06	7.5777e-06	1078.2	244.2	8.2302e-06	7.3638e-06	398.87	134.88	85.303	37.94	7.1425e-06	69.171	23.922	1.332	-75.004	-97.917	99.173	6.336	-97.786	-92.917	35.243	51.053	-94.504	-89.776	-88.204	-82.285	120.185	-85.436	-8191	255	
1852.397	1	1	0	0	0.27575	0.13496	0.27245	0.1227	0.35762	0.19785	0.1835	0.15511	0.38921	0.10401	0.34284	0.14458	0.16615	0.1153	0.11174	0.072707	-2.3583	-2.9479	-2.6208	-2.7646	-2.8063	-2.6708	-3.2208	-2.8438	-2.6771	-3.2208	-2.775	-3.1188	-3.0187	-2.7333	-3.0438	-2.8708	120.004	169.059	-60.537	165.689	78.523	207.748	154.341	203.591	171.444	233.117	205.115	-66.538	-51.318	-94.409	-26.809	-81.806	0.00070003	0.00078592	0.00014797	945.67	7.2148e-06	5.0928e-06	1307.4	286.98	1.7493e-05	1.1586e-05	475.94	158.86	98.674	45.269	9.2501e-06	84.125	0.00072895	0.00065109	0.00019511	857.53	7.9683e-06	7.3991e-06	1082.1	242.87	7.9357e-06	7.1327e-06	399.15	134.54	84.719	38.206	8.2848e-06	70.233	-30.462	128.621	-79.123	-97.511	190.920	12.997	-97.603	-92.631	32.367	-2.644	-94.123	-89.051	-87.489	-82.442	219.091	-85.096	-8191	255	
1852.493	1	1	0	0	0.10836	0.23815	0.20452	0.1899	0.10149	0.21296	0.29954	0.10412	0.18663	0.12215	0.13751	0.16552	0.2689	0.26002	0.23868	0.17051	-2.4354	-3.05	-2.6521	-2.8333	-2.7979	-2.7042	-3.2313	-2.9021	-2.6688	-3.0625	-2.6437	-3.0104	-2.9292	-2.6104	-3	-2.9958	167.660	77.388	68.742	34.545	110.267	106.293	192.902	146.250	38.856	157.199	153.336	216.477	-86.006	198.063	22.946	153.811	0.00064343	0.0011361	0.00011186	950.63	1.6173e-06	3.5907e-06	1300	286.88	1.3572e-05	7.425e-06	472.45	159.67	99.179	45.127	1.4387e-05	84.658	0.00071622	0.00064263	0.00021122	859.64	7.607e-06	7.2796e-06	1083.4	242.54	7.6565e-06	7.1325e-06	399.76	134.91	84.4	38.194	8.9001e-06	70.917	0.821	40.250	50.373	-97.216	233.510	53.982	-98.429	-92.628	-84.568	75.160	-94.389	-89.681	-87.796	-82.527	8.659	-85.525	-8191	255	
#DATA ENDS
