BOXY.EXE: ISS Imagent and Oximeter Data Acquisition Program Version 0.80
Ascii Record File

#ACQ INFORMATION
2  Detector Channels 
16  External MUX Channels 
1  Auxiliary Channels 
5000  Waveform (CCF) Frequency (Hz)
1  Waveforms Skipped 
30  Waveforms Averaged 
1  Cycles Averaged 
16  Acquisitions per Waveform 
10.0806  Updata Rate (Hz) 

#FILE INFORMATION
TRUE -- External MUX Channel results are PARSED.
FALSE -- AC DC and Phase are NOT grouped.
TRUE -- Companion Program Settings File CREATED.
FALSE -- AC data not excluded
FALSE -- DC data not excluded
FALSE -- Phase data not excluded
FALSE -- Auxillary Chn. data not excluded
Tab delimiters

#CALIBRATION STATE
TRUE -- Waveform Calibration Values APPLIED.


#AUX CALIBRATION VALUES
Val Type	aux-1	

Term	1.0000e+00	
Factor	0.0000e+00	


#WF CALIBRATION VALUES
A = Detector Channel
Val Type	A-AC1	A-AC2	A-AC3	A-AC4	A-AC5	A-AC6	A-AC7	A-AC8	A-AC9	A-AC10	A-AC11	A-AC12	A-AC13	A-AC14	A-AC15	A-AC16	A-DC1	A-DC2	A-DC3	A-DC4	A-DC5	A-DC6	A-DC7	A-DC8	A-DC9	A-DC10	A-DC11	A-DC12	A-DC13	A-DC14	A-DC15	A-DC16	A-Ph1	A-Ph2	A-Ph3	A-Ph4	A-Ph5	A-Ph6	A-Ph7	A-Ph8	A-Ph9	A-Ph10	A-Ph11	A-Ph12	A-Ph13	A-Ph14	A-Ph15	A-Ph16	

Term	0.00000e+00	0.00000e+00	0.00000e+00	0.00000e+00	0.00000e+00	0.00000e+00	0.00000e+00	0.00000e+00	0.00000e+00	0.00000e+00	0.00000e+00	0.00000e+00	0.00000e+00	0.00000e+00	0.00000e+00	0.00000e+00	0.00000e+00	0.00000e+00	0.00000e+00	0.00000e+00	0.00000e+00	0.00000e+00	0.00000e+00	0.00000e+00	0.00000e+00	0.00000e+00	0.00000e+00	0.00000e+00	0.00000e+00	0.00000e+00	0.00000e+00	0.00000e+00	0.00000e+00	0.00000e+00	0.00000e+00	0.00000e+00	0.00000e+00	0.00000e+00	0.00000e+00	0.00000e+00	0.00000e+00	0.00000e+00	0.00000e+00	0.00000e+00	0.00000e+00	0.00000e+00	0.00000e+00	0.00000e+00	
Factor	1.00000e+00	1.00000e+00	1.00000e+00	1.00000e+00	1.00000e+00	1.00000e+00	1.00000e+00	1.00000e+00	1.00000e+00	1.00000e+00	1.00000e+00	1.00000e+00	1.00000e+00	1.00000e+00	1.00000e+00	1.00000e+00	1.00000e+00	1.00000e+00	1.00000e+00	1.00000e+00	1.00000e+00	1.00000e+00	1.00000e+00	1.00000e+00	1.00000e+00	1.00000e+00	1.00000e+00	1.00000e+00	1.00000e+00	1.00000e+00	1.00000e+00	1.00000e+00	X	X	X	X	X	X	X	X	X	X	X	X	X	X	X	X	

B = Detector Channel
Val Type	B-AC1	B-AC2	B-AC3	B-AC4	B-AC5	B-AC6	B-AC7	B-AC8	B-AC9	B-AC10	B-AC11	B-AC12	B-AC13	B-AC14	B-AC15	B-AC16	B-DC1	B-DC2	B-DC3	B-DC4	B-DC5	B-DC6	B-DC7	B-DC8	B-DC9	B-DC10	B-DC11	B-DC12	B-DC13	B-DC14	B-DC15	B-DC16	B-Ph1	B-Ph2	B-Ph3	B-Ph4	B-Ph5	B-Ph6	B-Ph7	B-Ph8	B-Ph9	B-Ph10	B-Ph11	B-Ph12	B-Ph13	B-Ph14	B-Ph15	B-Ph16	

Term	0.00000e+00	0.00000e+00	0.00000e+00	0.00000e+00	0.00000e+00	0.00000e+00	0.00000e+00	0.00000e+00	0.00000e+00	0.00000e+00	0.00000e+00	0.00000e+00	0.00000e+00	0.00000e+00	0.00000e+00	0.00000e+00	0.00000e+00	0.00000e+00	0.00000e+00	0.00000e+00	0.00000e+00	0.00000e+00	0.00000e+00	0.00000e+00	0.00000e+00	0.00000e+00	0.00000e+00	0.00000e+00	0.00000e+00	0.00000e+00	0.00000e+00	0.00000e+00	-8.78341e+01	-1.29763e+02	-1.22348e+02	-1.81483e+02	-4.98279e+01	-6.89854e+01	-1.57126e+02	-1.62015e+02	-5.76591e+01	-6.88165e+01	-1.72009e+02	-1.70235e+02	-1.79413e+02	-1.76982e+02	-6.01312e+01	-1.49920e+02	
Factor	1.77355e-05	1.76987e-04	5.28443e-05	1.54970e-01	1.38419e-06	1.88219e-06	1.81523e-01	6.50010e-02	1.26713e-06	1.82042e-06	8.98908e-02	3.02853e-02	2.99964e-02	9.87595e-03	1.55353e-06	1.42067e-02	1.35357e-05	2.64044e-05	7.43121e-06	7.68445e-02	2.53274e-07	2.97136e-07	8.49333e-02	3.23673e-02	2.62873e-07	2.97535e-07	4.35786e-02	1.47918e-02	1.52274e-02	4.96744e-03	2.72784e-07	6.91996e-03	X	X	X	X	X	X	X	X	X	X	X	X	X	X	X	X	



#DISTANCE SETTINGS
A = Detector Channel
A-1	A-2	A-3	A-4	A-5	A-6	A-7	A-8	A-9	A-10	A-11	A-12	A-13	A-14	A-15	A-16	

2.5000e+00	3.0000e+00	2.5000e+00	3.0000e+00	2.0000e+00	3.0000e+00	1.5000e+00	3.0000e+00	3.0000e+00	3.0000e+00	3.0000e+00	3.0000e+00	3.0000e+00	3.0000e+00	1.5000e+00	3.0000e+00	

B = Detector Channel
B-1	B-2	B-3	B-4	B-5	B-6	B-7	B-8	B-9	B-10	B-11	B-12	B-13	B-14	B-15	B-16	

1.0000e+01	1.0000e+01	1.0000e+01	1.4400e+00	1.0000e+01	1.0000e+01	1.5100e+00	1.9400e+00	1.0000e+01	1.0000e+01	1.9900e+00	2.4900e+00	2.4100e+00	2.9000e+00	1.0000e+01	2.9800e+00	




#DATA BEGINS
time	group	step	mark	flag	A-AC1	A-AC2	A-AC3	A-AC4	A-AC5	A-AC6	A-AC7	A-AC8	A-AC9	A-AC10	A-AC11	A-AC12	A-AC13	A-AC14	A-AC15	A-AC16	A-DC1	A-DC2	A-DC3	A-DC4	A-DC5	A-DC6	A-DC7	A-DC8	A-DC9	A-DC10	A-DC11	A-DC12	A-DC13	A-DC14	A-DC15	A-DC16	A-Ph1	A-Ph2	A-Ph3	A-Ph4	A-Ph5	A-Ph6	A-Ph7	A-Ph8	A-Ph9	A-Ph10	A-Ph11	A-Ph12	A-Ph13	A-Ph14	A-Ph15	A-Ph16	B-AC1	B-AC2	B-AC3	B-AC4	B-AC5	B-AC6	B-AC7	B-AC8	B-AC9	B-AC10	B-AC11	B-AC12	B-AC13	B-AC14	B-AC15	B-AC16	B-DC1	B-DC2	B-DC3	B-DC4	B-DC5	B-DC6	B-DC7	B-DC8	B-DC9	B-DC10	B-DC11	B-DC12	B-DC13	B-DC14	B-DC15	B-DC16	B-Ph1	B-Ph2	B-Ph3	B-Ph4	B-Ph5	B-Ph6	B-Ph7	B-Ph8	B-Ph9	B-Ph10	B-Ph11	B-Ph12	B-Ph13	B-Ph14	B-Ph15	B-Ph16	aux-1	digaux	

35090.125	1	1	0	512	0.19734	0.1212	0.066167	0.22868	0.1351	0.040142	0.18574	0.11949	0.064545	0.11102	0.35895	0.32696	0.32718	0.24904	0.32894	0.18732	-1.9833	-2.3625	-2.4396	-2.4	-2.3333	-2.4938	-2.3333	-2.8042	-2.1917	-2.4667	-2.8333	-2.4437	-2.5479	-2.7562	-2.175	-2.6979	274.829	186.119	279.817	399.180	97.238	195.452	358.562	316.509	265.624	260.618	402.938	389.437	376.224	430.598	101.394	116.531	0.00085533	0.00077539	0.00020565	765.87	5.7214e-06	6.1424e-06	675.92	327.24	5.3405e-06	6.1127e-06	346.36	174.38	173.05	94.629	6.7571e-06	98.83	0.00071026	0.00046411	0.00012762	737.38	4.5009e-06	4.865e-06	648.15	316.39	5.1945e-06	5.3104e-06	333.31	169.31	167.74	92.353	5.8353e-06	95.729	212.036	184.065	185.334	105.585	260.657	236.081	104.574	109.430	250.742	255.622	107.309	110.199	112.315	115.306	245.821	112.534	-8191	255	
35090.219	1	1	0	0	0.11253	0.21832	0.14266	0.34795	0.2463	0.25926	0.13765	0.11043	0.04388	0.182	0.23531	0.14232	0.21155	0.3082	0.26108	0.318	-2.15	-2.2396	-2.6167	-2.5292	-2.4125	-2.4917	-2.1271	-2.6521	-2.3937	-2.3229	-2.7	-2.3833	-2.525	-2.7562	-2.3625	-2.4604	294.628	112.589	119.356	378.320	206.493	394.392	385.126	436.390	326.123	324.058	449.218	351.508	347.318	422.365	241.935	398.370	0.00080177	0.00071851	0.00021577	765.3	4.4111e-06	6.666e-06	674.96	327.69	4.9449e-06	6.8166e-06	346.13	175.17	172.83	95.254	7.6424e-06	99.283	0.00069182	0.00047341	0.0001207	737.5	4.6222e-06	4.9213e-06	649.41	317.38	5.1337e-06	5.2967e-06	334.62	170.26	167.97	92.996	5.7074e-06	96.245	213.581	188.737	179.367	105.633	261.525	248.537	104.597	109.573	258.064	237.892	107.175	110.366	112.065	115.398	247.809	112.766	-8191	255	
35090.293	1	1	0	0	0.26117	0.2669	0.29518	0.19997	0.22152	0.092326	0.088419	0.17711	0.17338	0.0099192	0.22161	0.40567	0.10801	0.19143	0.088872	0.14762	-2.1979	-2.1063	-2.7479	-2.5625	-2.2646	-2.5833	-2.4833	-2.5062	-2.4354	-2.0396	-2.6896	-2.5438	-2.425	-2.85	-2.3146	-2.7438	205.603	345.766	310.847	269.965	313.678	339.749	380.768	347.262	400.983	364.157	298.745	384.026	437.897	391.208	265.471	355.830	0.00083666	0.00070658	0.0001928	768.05	6.2056e-06	7.8994e-06	680.85	328.81	6.2262e-06	8.2304e-06	347.92	176.14	174.54	95.622	7.8751e-06	98.606	0.00070786	0.0004689	0.00012474	740.03	4.9351e-06	4.9065e-06	654.13	318.28	5.057e-06	5.4331e-06	335.9	171.09	169.15	93.145	5.9285e-06	95.897	214.904	166.530	181.531	105.850	256.265	228.222	104.447	109.279	254.641	244.561	107.434	110.408	112.347	115.162	242.333	112.883	-8191	255	
35090.414	1	1	0	0	0.12159	0.33406	0.058872	0.22603	0.16089	0.060621	0.17692	0.14101	0.10384	0.11805	0.30828	0.18061	0.1301	0.22154	0.12711	0.26785	-2.2438	-2.1875	-2.5563	-2.5438	-2.475	-2.7	-2.2854	-2.5438	-2.5979	-2.4271	-2.7812	-2.525	-2.2854	-2.9583	-2.475	-2.6583	102.012	242.551	356.802	417.193	108.058	362.918	105.549	398.046	301.063	441.492	372.779	396.850	421.551	439.083	140.245	329.366	0.00084028	0.00075925	0.0002349	769.29	7.0115e-06	8.0126e-06	680.79	329.75	6.0287e-06	8.4741e-06	347.16	174.93	173.98	95.383	6.9816e-06	98.726	0.00071827	0.00046989	0.00012094	739.87	5.0201e-06	5.008e-06	652.79	318.6	5.2284e-06	5.4151e-06	334.36	169.82	168.63	92.886	5.9842e-06	95.7	214.650	165.472	180.579	105.977	264.569	245.739	104.298	109.601	254.471	231.401	107.110	110.338	112.285	115.279	238.044	112.963	-8191	255	
35090.508	1	1	0	0	0.20029	0.065892	0.10967	0.18254	0.31243	0.14387	0.15932	0.15567	0.24399	0.074326	0.2607	0.17862	0.25867	0.19958	0.38532	0.20364	-2.0833	-2.175	-2.6333	-2.5417	-2.275	-2.7313	-2.3708	-2.4688	-2.4792	-2.2458	-2.5542	-2.5917	-2.25	-2.85	-2.4104	-2.5917	408.653	318.039	254.345	439.268	332.311	175.812	174.310	231.228	97.654	133.314	387.809	407.570	439.953	103.295	205.649	391.081	0.00083535	0.00065225	0.00024346	768.21	5.5394e-06	6.9089e-06	682.85	330.04	5.33e-06	6.7521e-06	349.05	176.49	173.67	95.711	8.7489e-06	99.276	0.00071894	0.00045476	0.00012396	740.88	5.0734e-06	4.899e-06	655.54	318.73	5.0499e-06	5.2664e-06	336.3	170.95	168.94	93.052	6.0058e-06	96.268	213.561	173.157	179.669	105.728	243.603	232.930	104.728	109.470	244.050	256.879	107.205	110.328	112.363	115.448	239.869	112.790	-8191	255	
35090.605	1	1	0	0	0.10494	0.13576	0.31586	0.19553	0.054831	0.11738	0.13582	0.10844	0.2857	0.35135	0.2094	0.077912	0.22679	0.17136	0.11382	0.33789	-2.1292	-2.1917	-2.3792	-2.5708	-2.1542	-2.6833	-2.3792	-2.3542	-2.6792	-2.4646	-2.5271	-2.6688	-2.3583	-2.7708	-2.4062	-2.4875	178.894	225.103	438.792	400.355	288.047	110.835	408.487	203.224	268.602	300.261	361.011	395.284	406.641	405.132	357.324	403.375	0.0008489	0.00069532	0.00020918	772.33	4.675e-06	5.6572e-06	684.87	330.92	6.6073e-06	5.8518e-06	348.7	176.11	175.59	95.91	9.1449e-06	100.41	0.00071745	0.00045581	0.00013006	743.01	5.1219e-06	4.756e-06	658.02	319.54	4.988e-06	5.4387e-06	337.78	172.03	170.02	93.442	6.099e-06	97.186	214.978	184.600	187.532	105.912	242.491	228.524	104.791	109.719	245.447	240.882	107.222	110.197	112.098	115.373	251.034	112.813	-8191	255	
35090.723	1	1	0	0	0.11666	0.091308	0.11066	0.40127	0.13294	0.35122	0.24504	0.13138	0.05347	0.078648	0.17461	0.15044	0.025283	0.26372	0.32988	0.25337	-2.2438	-2.1437	-2.5042	-2.6333	-2.1083	-2.6146	-2.4208	-2.475	-2.6875	-2.2583	-2.3812	-2.8438	-2.3542	-2.7458	-2.4729	-2.5979	162.896	418.191	199.636	411.778	176.407	166.923	427.341	399.179	224.453	265.829	153.137	114.917	393.909	393.709	408.493	386.303	0.000873	0.00062686	0.00018595	771.83	6.3223e-06	5.7119e-06	691.92	333.08	6.191e-06	7.467e-06	353.62	179.65	176.79	96.802	8.4219e-06	100.88	0.00072425	0.00047572	0.00012553	744.87	5.0845e-06	4.8576e-06	665.01	321.75	5.1173e-06	5.3482e-06	341.33	174.54	171.66	94.345	5.9217e-06	97.933	211.624	178.142	184.712	105.683	265.129	242.254	104.813	109.567	243.255	226.479	107.062	110.412	112.349	115.405	256.742	112.721	-8191	255	
35090.820	1	1	0	0	0.1452	0.26264	0.26799	0.38675	0.24005	0.07337	0.21168	0.2174	0.1702	0.05255	0.21853	0.16913	0.43061	0.21243	0.17707	0.1756	-2.2833	-2.4042	-2.3333	-2.6521	-2.1063	-2.5521	-2.5896	-2.3583	-2.6375	-2.2062	-2.3583	-2.75	-2.4479	-2.7958	-2.4854	-2.2958	197.949	423.887	402.733	106.015	151.996	115.460	404.096	423.113	407.971	138.483	422.782	402.805	371.391	399.938	156.175	98.033	0.00088497	0.00072221	0.00017331	776.79	6.6009e-06	5.7388e-06	690.87	332.52	5.2993e-06	6.7805e-06	353.68	178.58	176.05	96.827	5.6938e-06	100.42	0.00072814	0.00047445	0.00013427	748.83	5.0676e-06	4.8823e-06	665.77	322.18	4.586e-06	5.6327e-06	340.54	173.52	171.44	94.358	5.9586e-06	97.429	212.006	182.515	183.191	105.830	253.849	239.626	104.615	109.575	245.128	236.751	107.472	110.430	112.506	115.304	239.274	112.668	-8191	255	
35090.914	1	1	0	0	0.19994	0.22786	0.11688	0.27741	0.067401	0.14391	0.14118	0.15758	0.12451	0.23092	0.12441	0.15023	0.25397	0.16854	0.10835	0.43466	-2.0771	-2.3812	-2.4062	-2.8187	-2.2625	-2.5333	-2.5167	-2.3583	-2.4917	-2.4875	-2.4583	-2.7771	-2.3417	-2.7396	-2.5187	-2.4771	315.000	224.105	334.197	406.172	392.631	188.509	300.181	397.911	190.055	91.771	286.181	432.277	412.144	432.402	142.209	393.774	0.00083314	0.00068335	0.00019145	776.21	6.2713e-06	8.2574e-06	693.17	332.76	6.2307e-06	6.625e-06	353.41	177.76	175.99	96.221	7.4231e-06	100.58	0.00071528	0.00049937	0.00013175	748.75	5.1446e-06	5.4153e-06	666.73	321.84	5.2301e-06	5.5063e-06	341.41	173.11	171.24	94.033	5.9944e-06	97.448	213.118	177.058	187.232	105.971	263.922	238.061	104.624	109.410	251.203	253.320	107.480	110.511	112.244	115.329	253.554	112.656	-8191	255	
35091.012	1	1	0	0	0.1739	0.28876	0.17656	0.039706	0.13313	0.29415	0.057524	0.19143	0.10019	0.17851	0.056976	0.23927	0.47042	0.31768	0.23489	0.3642	-2.2729	-2.25	-2.3583	-2.8292	-2.1792	-2.4771	-2.6458	-2.2667	-2.7021	-2.5958	-2.4292	-2.8646	-2.4479	-2.4917	-2.5042	-2.2604	214.315	152.106	260.344	304.803	323.775	354.284	409.333	429.392	170.490	103.240	260.279	101.829	433.040	432.457	308.460	109.749	0.00085937	0.00071915	0.00021494	779.9	5.6686e-06	6.3044e-06	692.88	335.8	6.4986e-06	5.8878e-06	353.72	179.73	176.51	96.761	7.6748e-06	100.95	0.00071847	0.00048562	0.0001369	750.84	5.1652e-06	5.1244e-06	667.96	323.75	5.0291e-06	5.1994e-06	342.55	174.42	171.7	94.533	5.8347e-06	98.108	212.273	183.289	196.414	105.735	273.741	238.402	104.559	109.399	250.112	243.004	107.503	110.353	112.540	115.570	232.683	112.840	-8191	255	
35091.109	1	1	0	0	0.34742	0.064643	0.056127	0.046344	0.084777	0.10081	0.11183	0.17154	0.2216	0.15293	0.22284	0.34789	0.23875	0.56274	0.093368	0.26998	-2.125	-2.5604	-2.2583	-2.6375	-2.3833	-2.4583	-2.7438	-2.2833	-2.4354	-2.4813	-2.3917	-2.8271	-2.4104	-2.6312	-2.675	-2.3583	335.728	254.175	434.444	389.108	325.608	410.376	434.937	373.995	404.471	192.718	366.094	388.222	405.285	424.224	179.506	449.475	0.00088111	0.00065586	0.00022072	782.36	6.1195e-06	5.7477e-06	702.12	333.54	6.2753e-06	7.2251e-06	358.27	181.11	178.71	97.671	6.9256e-06	102.27	0.00074525	0.00049651	0.00014085	753.14	5.1415e-06	5.0488e-06	675.02	324.04	5.1885e-06	5.0879e-06	345.76	176.23	173.41	95.287	5.6381e-06	99.309	213.560	172.361	185.917	105.947	247.326	254.713	104.843	109.457	251.252	241.038	107.339	110.338	112.408	115.391	250.219	112.765	-8191	255	
35091.203	1	1	0	0	0.10607	0.036621	0.25441	0.15892	0.15823	0.088891	0.15467	0.25376	0.030116	0.22732	0.46549	0.32338	0.19165	0.15074	0.12996	0.3071	-2.0708	-2.7583	-2.1667	-2.7604	-2.4896	-2.1833	-2.75	-2.425	-2.4958	-2.4229	-2.2167	-2.5375	-2.5604	-2.4167	-2.7604	-2.5917	317.489	450.126	161.861	357.765	369.166	347.437	238.935	423.614	403.268	400.320	411.117	449.782	427.264	141.313	133.245	408.596	0.00086178	0.00073269	0.00021665	784.87	5.9728e-06	7.884e-06	704.72	336.53	6.5268e-06	4.7715e-06	358.59	180.91	178.34	97.765	9.5742e-06	101.51	0.00072402	0.00048414	0.00013285	756.35	5.1056e-06	5.2674e-06	678.92	326.34	5.4962e-06	5.1343e-06	346.49	176.21	173.26	95.36	5.5023e-06	98.619	213.038	169.580	199.012	105.760	266.877	230.131	104.635	109.241	255.765	224.841	107.017	110.484	112.424	115.422	243.868	112.791	-8191	255	
35091.324	1	1	0	0	0.10645	0.13199	0.15479	0.10785	0.040845	0.18938	0.11735	0.04494	0.13395	0.082192	0.36967	0.10048	0.44078	0.43189	0.36186	0.36609	-2.1271	-2.4938	-2.0917	-2.7333	-2.5125	-2.1875	-2.75	-2.4042	-2.4479	-2.8521	-2.3208	-2.7125	-2.7042	-2.4813	-2.5625	-2.5917	366.649	248.737	243.342	325.454	216.971	259.155	378.692	303.072	311.075	224.593	442.326	391.198	91.785	419.292	222.832	410.756	0.00087429	0.00056833	0.0002175	785.15	6.5312e-06	7.5808e-06	705.11	338.14	7.1103e-06	7.0918e-06	359.77	180.9	178.62	97.825	8.4726e-06	101.5	0.00074317	0.00048359	0.00013325	755.74	5.1167e-06	5.6146e-06	678.41	326.74	5.2662e-06	5.1362e-06	346.86	175.89	173.65	95.467	5.6029e-06	98.721	212.825	167.784	175.180	105.778	260.993	231.506	104.571	109.590	250.605	238.864	107.308	110.282	112.292	115.238	239.457	112.690	-8191	255	
35091.422	1	1	0	0	0.15662	0.1099	0.28681	0.18515	0.12387	0.2377	0.33118	0.18122	0.19789	0.1038	0.48549	0.28665	0.55756	0.17532	0.17378	0.19452	-1.9667	-2.5458	-2.2854	-2.6083	-2.6208	-2.2062	-2.8333	-2.4875	-2.5083	-2.7896	-2.4396	-2.5521	-2.8646	-2.5583	-2.7792	-2.7646	385.862	196.442	398.482	445.440	389.792	107.437	401.611	281.239	107.180	196.422	92.167	332.258	103.388	402.577	184.832	393.772	0.00087478	0.00063046	0.00021482	783.82	5.1919e-06	6.3101e-06	709.24	339.11	5.1014e-06	5.8209e-06	361.71	182.34	179.26	98.129	8.9306e-06	102.84	0.00074139	0.00046725	0.00013133	756.04	4.9209e-06	5.2154e-06	681.41	327.6	5.0116e-06	4.8257e-06	347.81	177.18	174.35	95.766	5.7523e-06	99.345	212.959	165.770	187.311	105.658	263.648	238.287	104.492	109.376	240.779	246.051	107.070	110.424	112.220	115.394	253.898	112.650	-8191	255	
35091.516	1	1	0	0	0.070139	0.24218	0.15907	0.18636	0.31833	0.17345	0.20285	0.12775	0.11093	0.25985	0.13481	0.23025	0.31963	0.35885	0.19443	0.17241	-1.9083	-2.6875	-2.3125	-2.4521	-2.4646	-2.1604	-2.6937	-2.5083	-2.2521	-2.7125	-2.4604	-2.6146	-2.6417	-2.3646	-2.6604	-2.6708	346.537	248.363	100.521	437.125	263.554	436.032	383.221	336.924	286.118	392.660	356.268	397.027	93.273	401.039	372.472	361.719	0.00088823	0.00068262	0.00019166	787.59	6.3207e-06	6.9245e-06	712.18	338.63	4.9614e-06	5.5225e-06	362.45	182.95	179.62	98.583	8.1764e-06	103.26	0.00074847	0.00047566	0.00013763	760	4.8307e-06	5.5824e-06	684.89	328.18	4.9579e-06	5.0283e-06	349.82	178.29	174.97	96.024	5.6313e-06	99.987	213.460	179.374	187.313	105.836	254.251	237.000	104.673	109.811	256.965	222.663	107.470	110.580	112.456	115.402	252.554	112.656	-8191	255	
35091.590	1	1	0	0	0.0784	0.2188	0.19427	0.069238	0.19886	0.085613	0.084945	0.1486	0.11387	0.028301	0.1598	0.23153	0.0084581	0.43285	0.25521	0.40307	-1.8687	-2.7313	-2.3167	-2.5125	-2.8021	-2.0833	-2.7083	-2.4729	-2.1479	-2.6437	-2.4521	-2.4875	-2.6833	-2.6896	-2.6188	-2.7271	265.258	389.605	248.767	433.263	310.220	128.456	212.886	403.524	188.245	193.916	362.800	325.513	123.358	415.375	241.436	367.706	0.00088204	0.00084463	0.00018602	789.61	5.4041e-06	7.1011e-06	719.08	341.43	6.4472e-06	6.1614e-06	366.14	185.37	180.58	99.173	9.3623e-06	103.1	0.00075761	0.00045762	0.00013361	761.81	4.7104e-06	5.5843e-06	691.97	330.79	5.1446e-06	4.9273e-06	352.27	179.78	175.85	96.589	5.9228e-06	100.2	213.913	185.339	163.021	105.592	261.140	233.164	104.509	109.476	249.141	241.802	107.315	110.580	112.107	115.483	242.126	112.893	-8191	255	
35091.684	1	1	0	0	0.3088	0.02688	0.21238	0.32157	0.12195	0.25169	0.13348	0.22985	0.13287	0.28239	0.10191	0.29804	0.1357	0.46874	0.11652	0.12413	-1.7854	-2.6208	-2.3917	-2.4646	-2.7438	-2.3208	-2.6354	-2.5312	-2.2083	-2.4083	-2.5708	-2.3875	-2.7917	-2.3625	-2.575	-2.7042	403.128	369.578	393.805	404.846	215.167	366.301	138.909	434.603	378.524	247.251	314.050	412.739	402.320	429.675	281.196	347.697	0.00088542	0.00080964	0.00019337	790.29	5.2328e-06	6.6919e-06	718.9	341.54	6.1179e-06	5.3891e-06	364.69	183.14	181.72	98.537	7.9542e-06	102.6	0.00075473	0.00046818	0.0001418	761.97	4.6091e-06	5.2686e-06	688.43	330.44	5.0795e-06	5.0104e-06	351.62	178.41	176.08	96.288	5.7268e-06	99.722	211.974	193.943	179.287	105.949	252.219	236.612	104.394	109.528	255.566	244.592	107.150	110.245	112.348	115.663	249.602	112.827	-8191	255	
35091.805	1	1	0	0	0.084321	0.12752	0.081539	0.39846	0.07506	0.13815	0.12334	0.17913	0.14385	0.02397	0.17132	0.21276	0.085611	0.42873	0.14391	0.21885	-1.8271	-2.7375	-2.4771	-2.4771	-2.6583	-2.3583	-2.4625	-2.5958	-2.3	-2.6104	-2.625	-2.4708	-2.8104	-2.5563	-2.4375	-3.0229	427.340	442.699	162.496	360.622	434.139	134.016	303.711	94.169	198.523	379.583	396.343	313.813	428.317	392.400	103.766	110.108	0.00088739	0.00078238	0.00022691	796.3	5.9791e-06	6.7984e-06	718.68	343.36	6.432e-06	6.1698e-06	366.36	185.03	181.53	98.97	9.4716e-06	103.26	0.00075465	0.00048683	0.00013915	764.53	4.5621e-06	5.5589e-06	688.36	331.34	5.1764e-06	4.874e-06	352.14	179.35	176.06	96.515	5.8762e-06	100.1	212.958	183.016	174.215	105.753	264.963	246.724	104.420	109.457	252.428	220.820	107.311	110.457	112.165	115.420	252.392	112.950	-8191	255	
35091.898	1	1	0	0	0.15305	0.23727	0.3287	0.18129	0.23644	0.17164	0.25462	0.23493	0.19151	0.16767	0.066979	0.1354	0.26981	0.36961	0.1208	0.1678	-1.8083	-2.2854	-2.4417	-2.3021	-2.6354	-2.4813	-2.5417	-2.7146	-2.3667	-2.6458	-2.9042	-2.3875	-2.7104	-2.4771	-2.2167	-2.825	92.024	114.082	250.455	382.553	220.689	177.823	121.230	124.981	325.486	150.942	195.168	299.554	407.617	384.307	411.891	415.686	0.00087749	0.0006526	0.00017918	795.82	6.8001e-06	8.9423e-06	720.21	344.33	6.0792e-06	5.6117e-06	367.5	185.58	181.13	99.06	6.4972e-06	103.57	0.00074635	0.00045366	0.00013017	765.37	5.0143e-06	5.8511e-06	694.04	332.5	5.2049e-06	4.993e-06	353.89	179.91	176.14	96.718	5.3983e-06	100.51	212.833	177.722	174.260	105.672	256.118	240.921	104.584	109.426	244.986	228.010	107.067	110.449	112.292	115.394	255.146	112.753	-8191	255	
35091.996	1	1	0	0	0.26357	0.033037	0.49609	0.11656	0.25061	0.21148	0.061186	0.19142	0.16528	0.15331	0.2228	0.27955	0.26599	0.24636	0.038897	0.3853	-1.8896	-2.4396	-2.5438	-2.3438	-2.5896	-2.4479	-2.325	-2.8708	-2.3667	-2.4104	-2.6521	-2.2167	-2.7479	-2.7938	-2.2417	-2.8312	290.530	203.896	117.664	326.869	326.478	341.916	311.291	398.163	263.637	425.608	102.498	362.666	414.250	383.568	282.713	367.037	0.0008943	0.00090511	0.00026538	794.45	6.779e-06	7.6782e-06	726.04	345.42	6.2298e-06	6.9621e-06	372.02	186.15	182.56	99.575	7.9028e-06	104.43	0.0007697	0.00047137	0.0001304	766.34	4.8264e-06	5.471e-06	698.58	333.66	5.0647e-06	4.8833e-06	357.21	181.24	177.24	97.191	5.9001e-06	101.38	213.031	165.730	183.648	105.708	264.053	235.057	104.406	109.570	248.395	224.791	107.288	110.755	112.363	115.428	247.253	112.845	-8191	255	
35092.117	1	1	0	0	0.070297	0.27615	0.20629	0.36084	0.040692	0.13106	0.0743	0.14876	0.24424	0.18461	0.23314	0.2373	0.17273	0.41836	0.077674	0.31278	-1.9771	-2.4833	-2.5875	-2.2979	-2.4333	-2.6688	-2.3812	-2.6667	-2.3896	-2.3625	-2.7875	-2.1	-2.7625	-2.8292	-2.3333	-2.7729	432.064	362.186	262.009	376.822	228.988	134.758	444.373	450.109	135.473	300.968	416.071	374.086	343.428	93.006	315.640	412.473	0.00089672	0.00072866	0.00023017	796.73	5.3853e-06	6.7341e-06	730.13	345.99	5.8304e-06	6.3758e-06	368.68	184.85	182.78	99.316	8.129e-06	103.23	0.00077258	0.00047522	0.00012505	770.16	4.8328e-06	5.276e-06	701.75	334.85	5.2553e-06	5.174e-06	355.99	180.17	177.04	96.845	5.7711e-06	100.11	211.895	174.198	187.629	105.698	254.433	232.678	104.296	109.402	247.454	233.552	107.260	110.448	112.261	115.390	248.705	112.758	-8191	255	
35092.188	1	1	0	0	0.36967	0.26	0.13973	0.44433	0.10595	0.16081	0.077753	0.24213	0.26933	0.058703	0.18885	0.14112	0.17888	0.079024	0.14053	0.13312	-2.0021	-2.4271	-2.4792	-2.425	-2.4479	-2.5812	-2.4292	-2.6562	-2.5458	-2.4333	-2.8333	-2.4021	-2.6188	-2.9583	-2.1771	-2.9	112.826	320.573	227.492	374.990	164.720	152.210	346.284	367.037	228.284	159.543	401.355	143.042	434.054	399.101	291.667	368.348	0.00086133	0.00081025	0.00023284	800.68	5.716e-06	5.6725e-06	724.62	347.64	5.9931e-06	8.162e-06	367.94	184.86	181.94	99.145	8.9051e-06	103.67	0.00074948	0.00046934	0.00012642	769.7	4.7842e-06	5.2915e-06	699.15	335.57	5.1545e-06	4.9695e-06	355.76	179.97	176.81	96.649	5.6665e-06	100.33	212.878	191.122	193.192	105.858	243.909	246.841	104.512	109.334	248.122	241.654	107.325	110.510	112.391	115.345	248.010	112.718	-8191	255	
35092.285	1	1	0	0	0.084066	0.014125	0.12925	0.16187	0.092082	0.063748	0.028086	0.14558	0.21784	0.097649	0.17334	0.27933	0.13111	0.45103	0.43458	0.23268	-2.0625	-2.1937	-2.7687	-2.3958	-2.3417	-2.6271	-2.1146	-2.5375	-2.3979	-2.2417	-2.9583	-2.3229	-2.4896	-2.7062	-2.1896	-2.7979	221.151	137.890	198.603	402.424	102.802	163.742	336.843	96.580	364.395	223.068	190.705	142.763	302.133	428.721	285.461	404.226	0.00086784	0.00072799	0.00017477	800.07	6.4439e-06	7.6663e-06	724.8	344.73	7.8411e-06	6.9866e-06	369.78	186.03	181.91	98.961	6.7265e-06	103.64	0.00074968	0.00047401	0.00012768	768.85	4.9531e-06	5.0569e-06	696.72	334.53	5.223e-06	5.2509e-06	356.08	180.32	176.78	96.727	6.0541e-06	100.5	211.555	174.450	180.076	105.698	253.700	239.153	104.279	109.599	252.633	237.202	107.238	110.652	112.259	115.444	254.381	112.931	-8191	255	
35092.406	1	1	0	0	0.040798	0.10469	0.093243	0.040476	0.17891	0.051871	0.061022	0.16213	0.1082	0.11641	0.17297	0.41716	0.20669	0.30688	0.13459	0.030498	-1.9688	-2.0833	-2.5708	-2.3438	-2.2417	-2.7917	-2.3583	-2.6083	-2.3438	-2.3604	-2.7667	-2.6208	-2.3792	-2.9625	-2.0396	-2.5583	368.965	303.913	270.733	239.389	282.406	283.688	436.106	357.192	150.512	438.768	179.903	442.549	95.018	376.514	157.371	176.322	0.0008837	0.00087008	0.00021183	796.34	6.7786e-06	7.3349e-06	726.08	346.24	6.6898e-06	5.8687e-06	368.74	186.06	182.3	99.172	8.402e-06	104.33	0.00075166	0.00050432	0.00013161	768.71	4.9251e-06	5.0816e-06	701.03	335.12	5.246e-06	5.1796e-06	356.81	181.12	177.01	96.922	6.074e-06	101.23	212.938	174.245	189.714	105.730	264.406	244.412	104.607	109.438	244.237	220.767	107.002	110.603	112.345	115.394	242.327	112.788	-8191	255	
35092.504	1	1	0	0	0.14094	0.19241	0.22589	0.23076	0.2583	0.21775	0.27754	0.21863	0.11891	0.14535	0.25398	0.064574	0.1322	0.27422	0.078881	0.22741	-2.0729	-2.3021	-2.5083	-2.4292	-2.3187	-2.6896	-2.0229	-2.5083	-2.6625	-2.2583	-2.825	-2.6792	-2.4271	-2.7833	-2.2583	-2.6708	357.437	426.730	170.401	216.167	442.982	122.885	405.386	401.485	152.906	291.667	370.107	433.050	384.007	427.807	200.483	407.865	0.00090877	0.00066319	0.00024724	800.65	6.3037e-06	7.3179e-06	729.17	347.28	4.4139e-06	6.3652e-06	371.75	187.07	183.04	99.487	7.8456e-06	103.4	0.00074162	0.00050069	0.00013599	770.6	4.9547e-06	5.211e-06	703.44	336.18	4.9256e-06	5.2713e-06	358.55	181.42	177.57	97.09	6.0427e-06	100.57	213.207	177.104	183.812	105.635	257.581	231.364	104.671	109.699	246.782	253.143	107.436	110.674	112.361	115.425	241.326	112.793	-8191	255	
35092.598	1	1	0	0	0.12823	0.43524	0.29046	0.52036	0.037033	0.27555	0.20993	0.33156	0.33687	0.18516	0.22211	0.031254	0.27323	0.23894	0.23208	0.11792	-2.2062	-2.1875	-2.475	-2.4958	-2.3583	-2.625	-2.3958	-2.3396	-2.5854	-2.2729	-2.575	-2.8479	-2.3271	-2.6979	-2.1375	-2.6271	188.481	134.779	308.205	409.445	94.472	171.248	442.178	412.182	285.960	322.576	414.614	114.067	390.296	420.198	316.534	434.301	0.00088905	0.00064254	0.00021614	795.73	5.7627e-06	6.1116e-06	727.35	345.92	7.5968e-06	7.8824e-06	369.32	185.41	182.03	99.009	7.6415e-06	102.68	0.0007465	0.00053188	0.00013362	768.61	4.9014e-06	5.1522e-06	697.34	335.14	5.2701e-06	5.3098e-06	356.03	180.17	177.23	96.884	6.0592e-06	100.06	213.631	176.979	179.020	105.458	253.806	244.965	104.968	109.699	254.769	249.546	107.217	110.442	112.308	115.360	240.008	112.871	-8191	255	
35092.695	1	1	0	0	0.22129	0.40624	0.21631	0.22086	0.2339	0.025189	0.13956	0.18756	0.12403	0.044489	0.20934	0.24865	0.29049	0.4577	0.34735	0.32103	-2.4	-2.2458	-2.6188	-2.6292	-2.2104	-2.6479	-2.3937	-2.4813	-2.5167	-2.1604	-2.5938	-2.7229	-2.2208	-2.7896	-2.4208	-2.5167	97.985	319.931	449.265	95.512	245.046	287.877	313.861	363.726	139.722	316.098	324.815	107.204	440.580	433.458	312.196	373.985	0.00088776	0.00075792	0.00026711	796.2	6.4513e-06	8.6564e-06	721.36	346.54	5.697e-06	8.106e-06	368.89	185.91	182.45	99.742	7.9417e-06	103.78	0.00074052	0.00054173	0.00013591	767.19	4.9948e-06	5.294e-06	697.33	334.59	5.206e-06	5.3414e-06	356.31	180.47	177.43	97.112	5.9069e-06	100.55	213.171	169.889	174.995	105.778	249.845	236.184	104.644	109.262	252.500	234.365	107.446	110.522	112.503	115.515	247.093	112.825	-8191	255	
35092.812	1	1	0	0	0.05712	0.1008	0.21987	0.37145	0.12463	0.13165	0.11968	0.3845	0.049944	0.11196	0.14288	0.089386	0.12152	0.10844	0.25369	0.29111	-2.2854	-2.125	-2.3688	-2.7687	-2.1708	-2.4979	-2.4792	-2.3396	-2.7729	-2.3312	-2.5625	-2.8208	-2.1708	-2.7521	-2.3312	-2.3917	400.188	158.308	366.456	428.701	445.996	211.932	94.733	403.393	415.792	109.256	107.949	94.837	401.873	359.554	217.506	388.863	0.00087865	0.00082311	0.0002027	798.67	5.4666e-06	7.2805e-06	728.84	347.8	6.6781e-06	8.6281e-06	370.04	188.05	183.07	99.457	7.2431e-06	104.2	0.00073623	0.00051582	0.00012983	768.24	5.0122e-06	5.1182e-06	699.47	336.45	5.1216e-06	5.2069e-06	357.26	181.66	177.71	97.171	5.7188e-06	101.15	212.402	166.478	179.332	105.720	247.840	245.802	104.351	109.457	248.002	230.737	107.338	110.293	112.298	115.343	238.202	112.883	-8191	255	
35092.887	1	1	0	0	0.21691	0.15152	0.027825	0.23437	0.12432	0.10557	0.43137	0.3488	0.12693	0.20735	0.16166	0.2581	0.39631	0.18397	0.13513	0.11409	-2.2396	-2.3333	-2.3187	-2.6979	-2.2313	-2.6729	-2.6625	-2.3312	-2.7313	-2.45	-2.4708	-2.5896	-2.4729	-2.6958	-2.4979	-2.2438	319.666	371.579	352.071	361.068	444.553	318.022	365.102	363.749	121.571	270.185	273.610	397.939	108.899	111.590	403.002	374.673	0.00091055	0.00076717	0.00021911	795.48	7.4324e-06	6.578e-06	735.18	346.73	6.3178e-06	5.5861e-06	372.1	187.67	184.29	100.11	8.3972e-06	104.3	0.00075171	0.00051159	0.00013262	770.11	4.9816e-06	4.9845e-06	704.94	336.26	5.3139e-06	5.0457e-06	359.61	182.3	178.56	97.635	5.7432e-06	101.34	212.693	191.702	189.595	105.781	249.025	244.938	104.579	109.528	255.540	224.343	106.992	110.421	112.554	115.515	252.386	112.686	-8191	255	
35093.004	1	1	0	0	0.12907	0.046062	0.16919	0.15376	0.16288	0.3946	0.15669	0.16461	0.061773	0.29004	0.15025	0.1321	0.20519	0.26425	0.16914	0.27981	-2.1396	-2.2229	-2.3292	-2.6604	-2.2521	-2.5333	-2.7771	-2.2271	-2.7271	-2.5812	-2.4938	-2.9229	-2.4021	-2.7792	-2.2917	-2.3854	184.524	385.250	401.334	127.151	418.466	159.195	351.807	324.428	295.874	240.528	349.286	126.762	123.627	109.311	367.951	422.947	0.00090565	0.00088604	0.00022194	797.35	6.4094e-06	6.7623e-06	733.56	346.86	6.1904e-06	7.4711e-06	370.49	185.58	182.83	99.45	7.9844e-06	103.08	0.00075132	0.0004991	0.00013099	769.44	4.7853e-06	4.9919e-06	702.12	336.87	5.0713e-06	5.2627e-06	357.18	180.06	177.36	97.051	5.4148e-06	100.08	212.524	173.457	176.669	105.653	255.892	235.683	104.604	109.480	254.085	234.101	107.156	110.384	112.188	115.483	247.032	112.678	-8191	255	
35093.102	1	1	0	0	0.12726	0.23867	0.2145	0.26066	0.070764	0.20145	0.25058	0.24733	0.24276	0.39817	0.19625	0.095024	0.22832	0.44395	0.23556	0.18831	-2.0333	-2.1458	-2.2458	-2.5438	-2.3042	-2.3937	-2.6396	-2.2729	-2.5146	-2.4125	-2.3833	-2.7771	-2.3458	-2.6042	-2.5146	-2.3104	133.734	271.355	348.296	101.934	296.643	204.779	384.673	359.455	223.046	361.849	402.281	387.879	107.117	350.438	334.527	430.036	0.0008657	0.00090244	0.00019914	796.46	5.3396e-06	6.6541e-06	727.7	346.96	5.5893e-06	7.9021e-06	370.2	185.33	181.93	98.982	7.4244e-06	102.83	0.00072912	0.00048023	0.00012881	768.52	4.8365e-06	4.5734e-06	697.8	335.65	4.8966e-06	5.006e-06	356.63	179.5	177.13	96.61	5.3767e-06	99.954	212.248	180.416	162.759	105.658	264.742	240.423	104.437	109.549	257.370	241.838	107.142	110.361	112.177	115.352	238.718	112.826	-8191	255	
35093.199	1	1	0	0	0.16369	0.10412	0.053186	0.22463	0.22025	0.039398	0.31105	0.32258	0.13816	0.12829	0.24615	0.076554	0.19063	0.37186	0.19219	0.17024	-1.9667	-2.5021	-2.2812	-2.6333	-2.2958	-2.4646	-2.7042	-2.3333	-2.5271	-2.5042	-2.1437	-2.8375	-2.3854	-2.3083	-2.6917	-2.3812	367.137	185.894	424.835	92.724	289.283	193.622	404.546	364.623	238.379	209.404	422.286	402.981	100.430	373.660	381.201	366.756	0.00087118	0.00070161	0.00022169	801.91	6.4808e-06	7.8778e-06	729.4	345.72	6.8222e-06	5.8657e-06	367.73	184.99	182.33	98.884	7.2421e-06	103.14	0.0007212	0.00047357	0.00013559	770.43	4.5537e-06	4.7666e-06	699.99	335.99	4.936e-06	4.7172e-06	356.56	179.63	177.01	96.496	5.5006e-06	100.08	213.159	174.290	192.622	105.551	248.847	233.653	104.665	109.664	237.378	251.238	107.101	110.385	112.394	115.429	233.455	112.847	-8191	255	
35093.293	1	1	0	0	0.090381	0.36169	0.23694	0.035535	0.033598	0.33802	0.32293	0.42802	0.17505	0.21304	0.2258	0.16874	0.078616	0.32374	0.21857	0.22558	-2.1562	-2.4354	-2.2708	-2.6042	-2.2792	-2.2958	-2.8021	-2.2583	-2.4437	-2.6771	-2.2479	-2.8979	-2.5104	-2.4708	-2.7125	-2.5125	116.193	182.395	421.361	318.388	99.553	212.551	226.530	420.986	111.910	131.120	429.018	400.047	368.649	441.439	246.951	388.590	0.00089551	0.00072163	0.00022114	797.82	7.1892e-06	6.6912e-06	729.88	348.6	5.5954e-06	8.0943e-06	370.66	186.28	182.57	98.821	7.874e-06	103.46	0.0007267	0.0004448	0.00013811	768.68	4.8333e-06	4.7901e-06	701.58	336.38	4.8516e-06	4.8641e-06	358.16	180.42	177.04	96.409	5.5648e-06	100.3	215.102	176.007	175.347	105.811	252.570	229.724	104.649	109.468	262.336	226.021	107.170	110.345	112.433	115.436	245.275	112.850	-8191	255	
35093.414	1	1	0	0	0.30525	0.17207	0.26157	0.11492	0.22761	0.0748	0.10552	0.37002	0.10951	0.22614	0.063641	0.15317	0.2106	0.16519	0.06299	0.17894	-1.9333	-2.5771	-2.0479	-2.7667	-2.5812	-2.2938	-2.7687	-2.4604	-2.3771	-2.8187	-2.5271	-2.7812	-2.65	-2.2396	-2.5542	-2.6792	398.350	161.073	170.427	396.053	139.661	330.643	368.417	447.250	433.112	332.587	171.452	405.762	436.352	358.196	434.857	411.412	0.00088203	0.0006552	0.00022341	800.13	5.6018e-06	7.6952e-06	733.53	346.45	6.8559e-06	6.0171e-06	368.5	184.9	182.08	99.01	8.2199e-06	102.58	0.00073006	0.00043391	0.00013997	771.59	4.7658e-06	4.7814e-06	702.98	336.32	4.7339e-06	4.6409e-06	356.19	179.57	176.9	96.334	5.5489e-06	99.296	212.727	169.322	182.961	105.733	249.505	239.524	104.500	110.008	259.736	222.857	107.010	110.379	112.056	115.248	242.438	112.633	-8191	255	
35093.484	1	1	0	0	0.24872	0.085716	0.19725	0.19336	0.062289	0.071924	0.11799	0.31752	0.12589	0.14877	0.18898	0.28737	0.14375	0.41473	0.042132	0.31808	-1.9562	-2.6854	-2.2042	-2.6083	-2.4917	-2.2833	-2.6813	-2.6083	-2.4583	-2.6729	-2.2854	-2.4562	-2.65	-2.4	-2.75	-2.6813	225.250	164.059	147.993	380.731	111.913	272.653	101.907	423.664	264.564	356.129	405.564	404.157	105.518	367.175	366.836	246.647	0.00087123	0.00075163	0.00030164	796.46	7.7758e-06	5.5258e-06	723.04	347.37	5.6758e-06	6.0933e-06	366.79	184.31	181.33	98.192	7.3247e-06	101.91	0.00071753	0.00043716	0.00014187	767.88	4.7668e-06	5.0204e-06	697.28	336.07	4.8215e-06	4.698e-06	355.26	178.92	176.52	96.011	5.7137e-06	98.996	214.432	164.518	191.220	105.774	253.069	233.968	104.538	109.429	247.276	235.088	107.055	110.471	112.191	115.408	246.462	112.752	-8191	255	
35093.582	1	1	0	0	0.25088	0.10341	0.20807	0.43161	0.12631	0.032856	0.13914	0.11936	0.23304	0.060788	0.079075	0.28153	0.25077	0.046761	0.22824	0.35334	-1.7667	-2.5646	-2.1896	-2.4708	-2.4708	-2.1792	-2.7354	-2.4875	-2.2313	-2.7687	-2.4896	-2.4646	-2.6917	-2.3021	-2.6083	-2.4875	179.970	393.368	363.286	413.128	138.809	218.656	372.845	139.585	253.711	102.431	413.494	102.184	344.892	261.697	269.340	389.947	0.00086536	0.00063219	0.00024252	797.04	5.7923e-06	6.8867e-06	725.2	345.6	5.4838e-06	6.8688e-06	370.49	184	182.26	98.549	8.0684e-06	102.73	0.00072831	0.00046081	0.00014653	767.28	4.7732e-06	4.9455e-06	697.49	334.88	5.0559e-06	4.9843e-06	355.64	179.32	177	96.18	5.554e-06	99.581	212.858	154.981	183.094	105.734	257.958	226.679	104.544	109.499	241.350	219.840	107.223	110.306	112.464	115.334	256.198	112.770	-8191	255	
35093.676	1	1	0	0	0.056301	0.036979	0.21863	0.26627	0.13253	0.14263	0.2095	0.15498	0.17842	0.29696	0.32772	0.26959	0.35146	0.45603	0.19399	0.25773	-1.8354	-2.6396	-2.2687	-2.4083	-2.6542	-2.3438	-2.6479	-2.7042	-2.2792	-2.6813	-2.2271	-2.4667	-2.7771	-2.375	-2.4917	-2.7083	217.278	118.404	364.270	421.480	430.213	188.588	366.260	384.345	125.534	277.132	369.787	382.558	110.832	414.290	403.654	384.596	0.00088473	0.00076371	0.00023096	799.1	7.6142e-06	7.935e-06	727.54	345.53	5.5585e-06	6.5096e-06	369.86	185.29	182.38	98.893	8.6664e-06	103.33	0.00073491	0.00047522	0.00014297	768.37	4.9721e-06	5.2711e-06	700.03	335.07	5.4749e-06	5.0482e-06	357.23	180.4	177.23	96.503	5.7677e-06	100.28	212.564	167.544	191.904	105.662	261.034	234.518	104.258	109.578	265.888	239.734	107.348	110.575	112.402	115.335	248.446	112.929	-8191	255	
35093.773	1	1	0	0	0.25466	0.10873	0.13163	0.35385	0.082372	0.098244	0.30985	0.27752	0.41439	0.13958	0.10472	0.16672	0.13046	0.13101	0.23535	0.16929	-1.6437	-2.6771	-2.2646	-2.3854	-2.7021	-2.275	-2.575	-2.8083	-2.1021	-2.6813	-2.3979	-2.3417	-2.85	-2.5187	-2.4917	-2.7479	375.174	134.555	431.856	362.285	438.540	93.309	439.593	382.235	224.595	109.080	352.486	94.580	439.872	361.081	277.939	329.041	0.00086952	0.00085537	0.00019468	800.47	6.6362e-06	7.7475e-06	732.34	348.45	5.3552e-06	7.2836e-06	371.26	186.14	182.83	99.31	9.0285e-06	103.4	0.00073902	0.00049101	0.00013777	770.09	4.7183e-06	5.1906e-06	703.92	337.3	5.505e-06	5.0773e-06	358.75	181.09	177.78	96.886	5.6432e-06	100.28	212.866	179.846	183.203	105.762	246.506	243.925	104.600	109.445	245.314	238.686	107.225	110.542	112.207	115.323	241.354	112.800	-8191	255	
35093.895	1	1	0	0	0.27564	0.05844	0.19184	0.26117	0.17993	0.076035	0.090168	0.17467	0.18138	0.27131	0.3433	0.22904	0.22959	0.4552	0.21528	0.1475	-1.9146	-2.6562	-2.4896	-2.3125	-2.675	-2.3875	-2.3771	-2.675	-2.2208	-2.4625	-2.525	-2.4	-2.7917	-2.5396	-2.4688	-2.8458	444.394	134.762	375.562	321.012	353.505	288.620	360.188	397.045	224.996	440.846	426.605	377.091	443.665	108.415	381.560	387.554	0.00088357	0.00078607	0.00022008	801.21	5.429e-06	7.0438e-06	725.3	347.51	6.0353e-06	7.3971e-06	369.72	184.69	182.69	98.908	9.4924e-06	102.79	0.00074179	0.00045702	0.00013364	770.01	4.7816e-06	5.1559e-06	699.72	336.64	5.505e-06	4.9664e-06	356.22	179.96	177.34	96.642	5.2716e-06	99.866	212.811	178.783	188.627	105.694	264.441	227.128	104.932	109.390	242.327	228.587	107.435	110.513	112.331	115.431	245.316	112.783	-8191	255	
35093.988	1	1	0	0	0.24978	0.25908	0.1152	0.030692	0.10376	0.061346	0.34482	0.095771	0.13097	0.18176	0.2054	0.25511	0.11238	0.29059	0.18099	0.26068	-1.6833	-2.5292	-2.4375	-2.5146	-2.7229	-2.4562	-2.4229	-2.6646	-2.1333	-2.5958	-2.6458	-2.4021	-2.6937	-2.6354	-2.175	-2.8104	252.683	321.584	177.936	306.098	103.836	146.888	418.858	302.672	243.225	370.964	353.438	135.660	426.056	100.180	366.272	382.654	0.00087922	0.00063078	0.00024073	795.68	6.2911e-06	8.0847e-06	731.01	347.38	6.8606e-06	8.0252e-06	370.39	184.28	181.68	98.801	6.2646e-06	103.14	0.0007382	0.00044943	0.00012758	766.1	4.6391e-06	5.2426e-06	700.77	335.99	5.4634e-06	4.9459e-06	357.19	179.86	176.82	96.465	5.5739e-06	100.17	212.019	175.424	177.432	105.735	254.024	244.045	104.440	109.676	249.632	236.564	107.053	110.484	112.197	115.427	248.008	112.771	-8191	255	
35094.086	1	1	0	0	0.05698	0.08281	0.12602	0.30409	0.049794	0.23745	0.12312	0.28333	0.13113	0.12165	0.059672	0.18793	0.18844	0.43771	0.065269	0.34746	-1.6292	-2.4437	-2.45	-2.1708	-2.5812	-2.3812	-2.5229	-2.7042	-2.3063	-2.3646	-2.8833	-2.3125	-2.6646	-2.6792	-2.1208	-2.675	438.688	125.931	363.922	366.050	436.191	155.369	274.505	417.578	118.927	182.495	344.773	388.590	424.040	103.964	107.479	413.070	0.00088944	0.00072318	0.00026444	797.2	4.4596e-06	6.9941e-06	728.09	348.08	6.7458e-06	5.7595e-06	371.4	186.35	182.05	99.034	8.7743e-06	103.3	0.00075129	0.00045817	0.00013276	769.04	4.6808e-06	5.1454e-06	702.15	336.19	5.752e-06	4.7444e-06	358.39	180.81	177.09	96.742	6.2007e-06	100.4	212.583	187.859	178.579	105.836	258.037	232.505	104.331	109.521	250.495	239.077	107.295	110.383	112.169	115.387	252.042	112.766	-8191	255	
35094.184	1	1	0	0	0.16345	0.082915	0.046855	0.078702	0.19839	0.065238	0.18795	0.11236	0.2533	0.076833	0.15021	0.11774	0.22918	0.20248	0.063074	0.10274	-1.7271	-2.3375	-2.5646	-2.0812	-2.5771	-2.5208	-2.4	-2.7146	-2.4583	-2.3646	-2.7625	-2.2021	-2.6521	-2.7354	-2.4146	-2.9437	297.154	326.940	180.689	308.487	133.160	441.043	299.186	107.017	382.353	374.241	365.579	390.565	111.824	349.502	154.698	354.162	0.00087678	0.00088197	0.00022869	798.56	7.6401e-06	7.5408e-06	733.03	348.35	5.9089e-06	7.2189e-06	373.06	187.68	182.77	99.485	6.4387e-06	103.8	0.00074046	0.00047764	0.00013545	767.55	4.7378e-06	4.9956e-06	703.77	337.32	5.5598e-06	4.9478e-06	360.15	181.98	177.52	96.953	6.3223e-06	100.87	213.623	182.180	186.918	105.648	245.469	237.473	104.405	109.722	249.089	243.241	107.033	110.608	112.421	115.321	257.086	112.787	-8191	255	
35094.277	1	1	0	0	0.14733	0.18979	0.095817	0.17365	0.059758	0.16988	0.079986	0.26627	0.15664	0.2512	0.26994	0.35365	0.3113	0.18642	0.03586	0.14703	-2.0271	-2.1771	-2.6583	-2.2812	-2.5604	-2.4583	-2.3375	-2.8187	-2.4792	-2.45	-2.675	-2.5187	-2.6146	-2.6562	-2.225	-2.8021	317.679	185.643	447.284	92.813	359.898	298.600	401.410	394.774	301.934	290.662	112.625	449.121	380.748	422.621	207.946	94.436	0.000871	0.00079482	0.00022766	798.46	6.578e-06	5.1389e-06	729.72	347.99	7.7611e-06	7.1221e-06	369.83	184.78	182.31	99.226	8.0174e-06	103.13	0.00074785	0.00047214	0.00013604	769.25	4.8096e-06	5.0891e-06	703.13	336.62	5.5461e-06	5.1083e-06	357.3	180.09	177.25	96.642	6.278e-06	100.05	211.456	176.818	189.736	105.898	263.800	237.947	104.689	109.454	246.061	221.431	107.334	110.435	112.456	115.349	248.634	112.632	-8191	255	
35094.375	1	1	0	0	0.14058	0.12439	0.1485	0.40035	0.12293	0.29396	0.20106	0.20912	0.15159	0.20791	0.16934	0.46442	0.1865	0.27503	0.22257	0.15547	-1.8333	-2.1146	-2.5563	-2.2875	-2.3146	-2.5438	-2.3354	-2.7333	-2.3896	-2.4896	-2.8833	-2.3812	-2.4104	-2.6979	-2.1104	-2.8	282.101	441.070	292.369	387.022	387.554	283.239	384.183	419.820	357.460	414.098	355.603	439.038	156.120	417.433	284.501	399.035	0.0008592	0.00062949	0.00024753	795.78	5.6708e-06	7.5848e-06	726.36	345.54	5.5153e-06	8.6026e-06	367.88	184.95	181.42	98.726	1.0321e-05	103.21	0.00072943	0.0004601	0.00013492	767.41	4.7404e-06	5.1733e-06	698.21	335.25	5.2947e-06	5.8862e-06	355.55	179.52	176.54	96.277	6.407e-06	99.964	214.549	181.537	180.175	105.398	249.286	236.761	104.475	109.591	247.170	226.660	107.309	110.290	112.528	115.394	247.127	112.730	-8191	255	
35094.496	1	1	0	0	0.17865	0.094456	0.10753	0.11938	0.040429	0.11077	0.097985	0.11706	0.15312	0.30061	0.060923	0.23982	0.19461	0.45666	0.19169	0.12389	-1.9604	-2.0792	-2.6771	-2.5396	-2.4333	-2.5438	-2.2833	-2.5354	-2.4688	-2.1896	-2.8417	-2.4667	-2.5083	-2.7896	-2.2562	-2.5729	208.413	187.340	269.443	411.024	237.370	184.531	290.559	408.360	366.133	100.559	329.924	105.686	434.995	420.928	177.620	403.246	0.00089205	0.00087496	0.00018593	795.1	5.8386e-06	6.8405e-06	731.05	346	7.0047e-06	6.7455e-06	369.46	185.46	181.06	98.56	8.958e-06	102.94	0.00073285	0.00051071	0.00012766	765.36	4.8323e-06	5.1114e-06	700.24	334.88	5.1288e-06	5.5887e-06	356.9	179.96	176.1	96.171	6.1695e-06	100.05	214.693	176.651	197.625	106.119	249.653	253.633	104.616	109.487	259.827	233.904	107.132	110.544	112.364	115.459	249.142	112.935	-8191	255	
35094.590	1	1	0	0	0.23161	0.18952	0.11655	0.39337	0.10917	0.086949	0.4208	0.21602	0.10906	0.1167	0.21789	0.069772	0.26499	0.31051	0.13551	0.28951	-2.1	-2.2125	-2.65	-2.2896	-2.2667	-2.8417	-2.2938	-2.5792	-2.6542	-2.2354	-2.6542	-2.6208	-2.5146	-2.8583	-2.0771	-2.8	338.385	405.086	170.400	449.366	372.692	124.348	416.366	279.168	355.672	290.304	340.464	347.666	324.919	427.697	145.116	378.213	0.00086912	0.00065912	0.00022414	795.04	6.2805e-06	7.7523e-06	732.88	347.48	5.3538e-06	7.4266e-06	372.28	186.62	181.97	98.926	8.2125e-06	103.76	0.00073928	0.00049244	0.00013714	767.42	4.9425e-06	5.5998e-06	703.48	336	4.9491e-06	5.4647e-06	359.15	181.06	176.99	96.526	6.4349e-06	100.93	213.345	173.943	172.086	105.905	258.305	242.173	104.681	109.592	250.785	236.473	107.227	110.541	112.286	115.527	243.008	112.841	-8191	255	
35094.684	1	1	0	0	0.29622	0.27577	0.23323	0.1542	0.11049	0.077664	0.27824	0.12145	0.042095	0.14886	0.17507	0.21232	0.39713	0.11805	0.11277	0.31747	-2.1063	-2.275	-2.4792	-2.475	-2.1875	-2.5271	-2.3229	-2.5229	-2.6063	-2.125	-2.6229	-2.6979	-2.2958	-2.8792	-2.2896	-2.6437	419.355	212.317	289.263	133.833	148.312	255.856	354.572	112.988	376.596	135.058	400.696	314.763	388.914	439.012	132.856	340.129	0.00089195	0.00087132	0.00030558	796.2	6.6752e-06	6.6534e-06	729.07	348.18	5.9807e-06	7.6912e-06	370.79	186.1	181.85	98.769	7.3414e-06	102.78	0.00074224	0.00050009	0.0001393	768.47	5.3705e-06	5.3398e-06	702.9	336.9	5.5034e-06	5.6866e-06	359.08	180.61	176.76	96.314	6.1604e-06	99.985	212.819	182.470	172.919	105.596	252.560	247.863	104.472	109.499	244.792	230.171	106.864	110.327	112.238	115.452	242.902	112.908	-8191	255	
35094.781	1	1	0	0	0.2374	0.17156	0.20604	0.21221	0.22008	0.067004	0.16941	0.26389	0.19298	0.081282	0.047349	0.28723	0.41189	0.10808	0.19688	0.16166	-2.3187	-2.2458	-2.4458	-2.5438	-2.4021	-2.6521	-2.5292	-2.4771	-2.55	-2.1354	-2.5792	-2.6292	-2.2708	-2.7896	-2.3521	-2.4417	384.955	198.950	354.837	114.695	111.770	147.843	380.144	400.285	132.169	119.244	129.206	367.097	122.874	103.634	385.571	450.404	0.00084216	0.00072457	0.00021834	795.63	5.6901e-06	7.6788e-06	731.38	346.07	5.5186e-06	6.9733e-06	368.59	185.16	182.24	98.588	7.1451e-06	102.84	0.00072501	0.00049376	0.00012766	765.68	5.3472e-06	5.1689e-06	700.42	334.96	5.155e-06	5.4071e-06	356.34	179.4	176.45	96.169	5.795e-06	99.814	214.319	190.533	180.850	106.033	239.618	242.739	104.431	109.437	254.186	227.108	106.954	110.430	112.406	115.576	250.630	112.922	-8191	255	
35094.879	1	1	0	0	0.20346	0.12167	0.10881	0.2641	0.23034	0.26297	0.066913	0.12306	0.1586	0.044013	0.43879	0.07735	0.17512	0.29375	0.2976	0.25463	-2.3458	-2.0833	-2.3979	-2.5833	-2.1896	-2.6208	-2.5354	-2.4229	-2.6229	-2.2167	-2.3271	-2.7188	-2.3021	-2.8	-2.5042	-2.3667	140.926	158.965	160.462	439.956	246.695	132.051	300.881	93.138	157.099	253.834	337.544	95.075	426.354	412.331	243.965	386.355	0.00086995	0.0007824	0.000159	792.17	6.0788e-06	6.9725e-06	725.58	346.88	6.4557e-06	7.4107e-06	370.88	185.8	181.76	98.434	8.8882e-06	103.17	0.00074083	0.00048507	0.00012334	764.03	5.2491e-06	5.0365e-06	698.74	336.15	5.4782e-06	5.5651e-06	357.81	180.17	176.17	96.276	6.0177e-06	100.26	213.807	177.130	180.800	105.680	263.829	246.511	104.750	109.514	244.439	230.000	107.337	110.501	112.228	115.484	242.672	112.848	-8191	255	
35094.973	1	1	0	0	0.033225	0.12344	0.16924	0.30788	0.16523	0.20029	0.039117	0.2109	0.095835	0.30626	0.31533	0.18465	0.059961	0.2993	0.081635	0.31219	-2.1167	-2.3667	-2.3271	-2.6167	-2.2958	-2.6146	-2.5187	-2.4979	-2.7167	-2.3438	-2.3875	-2.7938	-2.3729	-2.8146	-2.6	-2.4792	322.313	307.137	279.162	369.077	200.580	288.499	355.912	435.015	338.163	401.205	123.986	381.450	351.222	450.793	317.861	430.764	0.00087206	0.00069929	0.00022755	791.36	6.1808e-06	8.3575e-06	726.64	344.95	5.6161e-06	8.9616e-06	370.32	186.27	182.21	99.01	7.6193e-06	103.76	0.00074396	0.00049514	0.00013084	763.74	5.2945e-06	5.0092e-06	699.25	334.89	5.1156e-06	5.7431e-06	357.58	180.69	176.89	96.483	5.8262e-06	100.85	212.773	193.217	182.461	105.772	249.173	244.111	104.259	109.430	256.060	240.709	107.333	110.552	112.200	115.232	250.729	113.027	-8191	255	
35095.070	1	1	0	0	0.14036	0.040181	0.19279	0.20188	0.28033	0.21979	0.22857	0.36325	0.18159	0.23899	0.20953	0.10273	0.14245	0.36551	0.12339	0.15385	-2.1292	-2.3208	-2.1417	-2.7354	-2.0438	-2.4292	-2.6354	-2.2958	-2.7583	-2.3125	-2.3063	-2.8333	-2.2375	-2.6729	-2.4833	-2.475	445.613	233.032	362.561	113.063	117.912	325.257	394.444	382.250	302.840	446.515	425.962	415.277	99.989	416.696	450.634	380.262	0.00087468	0.00088365	0.00023268	793.73	5.5552e-06	7.3991e-06	725.2	347.22	6.0062e-06	6.1044e-06	371.23	186.8	182.98	98.836	9.3706e-06	103.62	0.00075309	0.0005046	0.00013472	764.41	5.4343e-06	5.25e-06	697.81	334.96	5.2021e-06	5.3965e-06	358.43	180.89	177.11	96.426	6.0024e-06	100.43	211.997	185.249	169.886	105.766	264.876	236.053	104.347	109.640	252.761	250.621	107.196	110.679	112.281	115.423	251.819	112.829	-8191	255	
35095.191	1	1	0	0	0.10394	0.043991	0.14519	0.18984	0.29612	0.26154	0.45365	0.21384	0.20247	0.12567	0.11506	0.13643	0.20871	0.44115	0.12231	0.2681	-2.0875	-2.2729	-2.2917	-2.7458	-2.1083	-2.4188	-2.5	-2.225	-2.4458	-2.4708	-2.2729	-2.7646	-2.45	-2.4813	-2.5312	-2.3625	183.234	277.754	161.323	96.049	413.784	409.706	308.837	384.679	225.016	448.186	301.200	115.461	366.963	104.578	272.623	383.153	0.00088012	0.00079498	0.00022499	794.15	4.7962e-06	7.0315e-06	721.57	346.83	7.1366e-06	8.576e-06	370.79	184.95	180.7	98.544	8.0225e-06	102.42	0.00074176	0.0004848	0.00013991	765.13	5.2739e-06	4.9869e-06	697.08	334.37	4.9732e-06	5.1368e-06	356.9	179.17	175.57	95.999	5.6188e-06	99.556	212.514	175.741	182.590	105.756	259.497	236.421	104.532	109.495	257.628	239.603	107.207	110.539	112.038	115.301	247.282	112.839	-8191	255	
35095.285	1	1	0	0	0.1023	0.098356	0.11942	0.093013	0.17478	0.061272	0.30283	0.15301	0.072541	0.078967	0.20414	0.38731	0.31242	0.35509	0.38929	0.32708	-2.2229	-2.6479	-2.0792	-2.6688	-2.225	-2.2188	-2.6417	-2.2417	-2.5375	-2.6063	-2.2146	-2.6479	-2.5979	-2.6208	-2.6021	-2.4146	369.559	347.889	398.655	103.447	124.598	214.825	334.680	406.393	114.727	182.934	205.572	373.877	307.977	94.306	301.481	383.994	0.0008589	0.00083407	0.00022039	796.84	6.0864e-06	7.2849e-06	726.8	346.35	6.8806e-06	6.3773e-06	371.17	185.02	181.05	98.464	7.6803e-06	102.32	0.00072055	0.00048474	0.00013782	765.2	5.1974e-06	5.1033e-06	699.13	334.68	4.9814e-06	5.2955e-06	357.78	179.62	175.75	95.886	5.816e-06	99.697	211.685	163.832	172.823	105.881	264.039	240.265	104.529	109.672	241.796	245.168	107.173	110.545	112.447	115.285	251.306	112.851	-8191	255	
35095.359	1	1	0	0	0.21533	0.25838	0.13409	0.064823	0.24439	0.12194	0.13152	0.0042181	0.049426	0.26686	0.248	0.12315	0.38732	0.21942	0.11822	0.35104	-2.0958	-2.4917	-2.3563	-2.7062	-2.3396	-2.2125	-2.7313	-2.2958	-2.3896	-2.7104	-2.3104	-2.7708	-2.4479	-2.2687	-2.6104	-2.4896	143.436	393.369	278.665	270.969	297.590	281.113	165.465	146.943	332.707	327.835	407.067	91.972	203.441	382.044	123.174	422.238	0.00087121	0.00096975	0.00019995	795.87	6.5103e-06	7.3683e-06	730.42	346.73	5.4335e-06	7.9493e-06	370.03	184.42	180.54	98.283	7.0764e-06	102.93	0.00073084	0.00049035	0.00013667	765.99	5.1678e-06	5.3664e-06	700.71	335.52	4.9267e-06	5.4189e-06	357.78	179.84	176.11	95.981	5.7825e-06	100.14	212.412	175.691	195.680	105.798	247.541	234.757	104.283	109.411	253.463	249.725	107.079	110.666	112.332	115.408	251.734	112.735	-8191	255	
35095.453	1	1	0	0	0.15277	0.082709	0.26187	0.19562	0.12577	0.24324	0.11131	0.11278	0.042366	0.28606	0.21806	0.1449	0.28759	0.1334	0.086473	0.28445	-1.9583	-2.4604	-2.2375	-2.5125	-2.3979	-2.3125	-2.7812	-2.3583	-2.2125	-2.5896	-2.3	-2.5312	-2.6562	-2.4667	-2.7438	-2.4625	318.309	396.337	233.023	430.287	267.761	422.660	421.097	175.451	393.293	312.280	360.909	269.434	95.552	369.476	350.517	365.981	0.00083429	0.0008637	0.00019719	792.2	6.8719e-06	5.584e-06	732.09	345.98	5.8109e-06	8.4931e-06	372.63	186.42	182.02	98.782	6.3736e-06	104.25	0.00072258	0.00048678	0.00013591	765.32	4.9483e-06	5.8604e-06	705.15	335.39	5.2635e-06	5.1914e-06	359.48	181.46	176.86	96.531	5.6853e-06	101.1	212.462	180.895	174.953	105.951	261.873	231.011	104.592	109.649	245.457	236.213	107.285	110.719	112.231	115.349	251.241	112.711	-8191	255	
35095.574	1	1	0	0	0.05487	0.18215	0.19472	0.20012	0.19766	0.14493	0.053346	0.20483	0.076099	0.066337	0.1784	0.12078	0.12957	0.18231	0.19059	0.095615	-1.925	-2.6083	-2.1063	-2.6063	-2.4854	-2.3292	-2.6813	-2.3417	-2.3312	-2.5958	-2.1979	-2.7062	-2.3417	-2.4333	-2.5833	-2.6	322.007	349.257	357.768	145.041	184.984	301.302	184.435	110.000	139.264	346.506	366.686	354.252	441.024	439.244	376.197	311.590	0.00088472	0.00070024	0.0002184	798.96	5.6413e-06	6.9989e-06	733.45	347.55	5.1285e-06	5.3529e-06	374.06	186.13	180.74	98.444	7.54e-06	102.61	0.00074937	0.0004958	0.00013537	769.86	5.0787e-06	5.5713e-06	705.83	336.75	5.2996e-06	5.2286e-06	359.9	180.13	176.07	96.143	5.7273e-06	99.707	212.256	175.345	189.036	105.844	252.714	238.232	104.272	109.460	251.588	224.590	107.233	110.504	112.330	115.521	240.569	112.889	-8191	255	
35095.672	1	1	0	0	0.17468	0.097787	0.20038	0.17374	0.25762	0.29231	0.20361	0.30815	0.070536	0.019091	0.16032	0.25907	0.22317	0.16393	0.19979	0.041088	-1.9542	-2.5792	-2.2396	-2.5833	-2.525	-1.9708	-2.6458	-2.6229	-2.2708	-2.5542	-2.4583	-2.4417	-2.7896	-2.3937	-2.6229	-2.6	296.010	295.488	381.049	388.964	450.336	363.454	325.257	366.855	355.194	409.053	168.482	435.767	388.119	134.301	250.169	332.772	0.00087131	0.00068982	0.00026162	793.03	5.6266e-06	6.7953e-06	730.06	347.1	6.8151e-06	6.345e-06	370.78	185	180.7	98.104	8.2839e-06	102.38	0.00074427	0.00048788	0.00013944	766.15	5.162e-06	5.5527e-06	703.87	336.31	5.3768e-06	5.2069e-06	358.74	179.61	175.78	95.775	5.6802e-06	99.457	212.357	176.344	173.968	105.813	262.623	244.125	104.445	109.333	257.761	228.951	106.943	110.346	112.342	115.419	248.812	112.605	-8191	255	
35095.766	1	1	0	0	0.10321	0.037636	0.1308	0.1578	0.23341	0.18141	0.24144	0.33896	0.033446	0.079134	0.19118	0.24358	0.13374	0.25637	0.13691	0.22155	-1.7229	-2.6729	-2.2292	-2.2625	-2.7271	-2.1437	-2.6437	-2.5604	-2.2771	-2.7313	-2.4146	-2.5229	-2.7271	-2.5833	-2.4854	-2.7687	338.157	168.874	368.205	387.546	286.489	166.882	247.299	400.504	398.823	181.478	405.304	376.756	423.518	111.150	119.929	427.721	0.0008959	0.00071069	0.00019109	797.13	4.4994e-06	9.5243e-06	737.24	347.97	7.222e-06	8.445e-06	373.24	185.9	181.35	97.948	7.8262e-06	103.18	0.00077653	0.00047753	0.00012919	767.77	5.0876e-06	5.4054e-06	706.39	336.71	5.3588e-06	5.1467e-06	360.37	180.03	176	95.876	5.7216e-06	99.878	211.196	169.222	174.916	105.803	257.714	253.237	104.656	109.492	256.383	230.670	106.890	110.457	112.352	115.366	245.391	112.830	-8191	255	
35095.887	1	1	0	0	0.07727	0.24658	0.072033	0.19483	0.075346	0.13047	0.10395	0.14721	0.24033	0.23517	0.21813	0.05274	0.22875	0.099151	0.32642	0.32904	-1.8354	-2.6146	-2.3125	-2.5062	-2.55	-2.1271	-2.6	-2.7542	-2.1188	-2.6458	-2.5438	-2.3479	-2.7375	-2.6562	-2.5771	-2.6396	380.115	285.498	440.407	355.533	198.174	243.552	123.738	270.334	267.601	408.187	94.438	382.055	442.200	382.756	355.352	398.022	0.00088416	0.00069165	0.00017327	798.85	5.8433e-06	6.7227e-06	739.23	348.78	5.6657e-06	8.9458e-06	375.46	186.99	181.27	98.23	7.3126e-06	103.33	0.00076626	0.00045614	0.00013184	769.45	4.7795e-06	5.4673e-06	710.85	337.37	5.338e-06	5.1232e-06	362.27	181.29	176.48	96.01	5.966e-06	100.54	213.493	166.284	174.543	105.698	241.624	239.379	104.659	109.508	244.061	246.714	107.221	110.496	112.480	115.462	250.380	112.872	-8191	255	
35095.980	1	1	0	0	0.27915	0.070999	0.086335	0.13786	0.39154	0.023537	0.29696	0.2008	0.22547	0.25006	0.27138	0.12402	0.20704	0.05213	0.30312	0.14336	-1.8229	-2.5854	-2.5021	-2.275	-2.5187	-2.2021	-2.6792	-2.7125	-2.0521	-2.5771	-2.5833	-2.4354	-2.675	-2.3458	-2.3604	-2.8312	160.042	212.792	365.308	351.864	232.842	422.046	432.707	340.982	346.565	157.712	393.584	182.685	122.862	346.420	416.730	98.976	0.00088975	0.00069113	0.00024408	798.11	5.237e-06	7.3385e-06	740.93	348.25	6.4755e-06	5.972e-06	375.62	186.58	182.61	98.794	9.0834e-06	103.53	0.00076017	0.00043529	0.00013963	771.79	4.9552e-06	5.406e-06	713.72	338.06	5.3878e-06	5.0996e-06	362.6	181.62	177.13	96.172	5.9677e-06	100.22	213.590	163.578	191.638	105.761	256.669	231.466	104.402	109.390	253.062	239.245	107.099	110.549	112.420	115.374	252.405	112.875	-8191	255	
35096.055	1	1	0	0	0.14172	0.17996	0.056532	0.031974	0.13796	0.113	0.26509	0.15137	0.069358	0.15936	0.12745	0.18116	0.29129	0.45893	0.42339	0.18253	-1.6417	-2.6146	-2.6271	-2.4042	-2.7812	-2.3292	-2.4042	-2.5042	-2.2979	-2.6542	-2.5312	-2.3333	-2.6375	-2.6063	-2.1562	-2.7354	425.103	417.386	363.601	403.184	429.591	239.634	347.593	417.588	254.226	212.526	362.879	417.555	437.762	97.312	108.773	417.964	0.0008685	0.00073573	0.00024819	801.97	5.8487e-06	6.0381e-06	737.68	349.26	6.6945e-06	6.3935e-06	375.65	185.79	181.08	98.038	8.0619e-06	102.59	0.00074881	0.00045663	0.00013783	769.99	4.5858e-06	5.3967e-06	708.78	338.22	5.0806e-06	4.923e-06	361.45	180.17	176.17	95.767	5.8757e-06	99.469	214.438	170.793	185.942	105.620	247.205	236.921	104.832	109.482	241.334	234.082	107.325	110.558	112.436	115.358	247.023	113.151	-8191	255	
35096.176	1	1	0	0	0.2454	0.1651	0.21982	0.070597	0.11158	0.17348	0.13786	0.10937	0.35125	0.11037	0.26489	0.062316	0.067151	0.47329	0.19298	0.041108	-1.8771	-2.2875	-2.3771	-2.3688	-2.6583	-2.5625	-2.4875	-2.6458	-2.1188	-2.3104	-2.4083	-2.1542	-2.6667	-2.6375	-2.3146	-2.8833	185.030	419.225	218.136	115.472	335.854	283.853	150.462	96.448	214.393	252.118	385.205	436.996	131.748	398.204	231.939	432.687	0.0008557	0.00076118	0.00018814	799.26	6.2742e-06	8.3802e-06	742	349.27	6.2968e-06	5.8571e-06	375.37	185.75	181.17	97.986	8.497e-06	102.76	0.00072969	0.00047638	0.00013509	770.83	4.5563e-06	5.3565e-06	711.47	338.03	5.2301e-06	5.0463e-06	362.23	180.63	176.06	95.867	5.7955e-06	99.822	213.162	175.866	172.354	105.732	237.197	238.103	104.582	109.509	248.327	237.515	107.188	110.357	112.278	115.321	256.429	112.996	-8191	255	
35096.270	1	1	0	0	0.090693	0.05542	0.097181	0.19586	0.2611	0.17516	0.092036	0.24128	0.26899	0.25025	0.15154	0.26249	0.12603	0.18086	0.39374	0.16532	-1.9562	-2.4833	-2.5729	-2.2583	-2.5125	-2.4333	-2.2646	-2.8937	-2.4	-2.4917	-2.8042	-2.2271	-2.7708	-2.6333	-2.3396	-2.7438	351.480	272.009	172.196	438.374	243.217	94.079	344.786	433.170	284.884	258.440	112.842	394.339	124.142	412.623	302.326	135.007	0.00088304	0.00073143	0.0001851	803.49	6.528e-06	7.9628e-06	740.01	349.83	6.2197e-06	6.9322e-06	375.25	186.88	182.07	98.412	9.4533e-06	103.83	0.00074988	0.00047401	0.00013113	770.79	4.4877e-06	5.2754e-06	713.31	338.56	5.0866e-06	4.9007e-06	363.89	181.24	176.56	96.144	5.8632e-06	100.53	212.075	168.526	206.625	105.659	256.391	232.662	104.476	109.436	258.056	229.735	107.206	110.686	112.290	115.352	249.131	112.657	-8191	255	
35096.367	1	1	0	0	0.12423	0.22128	0.17201	0.28046	0.27691	0.25588	0.31537	0.30486	0.22121	0.32521	0.22604	0.1063	0.27379	0.22556	0.20013	0.20944	-1.9604	-2.3771	-2.5938	-2.4188	-2.4938	-2.5	-2.3833	-2.8125	-2.35	-2.3833	-2.7583	-2.4208	-2.5417	-2.6125	-2.1875	-2.7854	100.242	363.498	155.132	399.356	361.343	432.353	414.168	145.164	230.725	208.511	105.359	196.821	411.873	105.506	350.280	348.841	0.00090255	0.00080025	0.00020059	802.65	6.0093e-06	6.6947e-06	745.49	351.76	6.4486e-06	6.2436e-06	377.9	186.85	183.32	98.89	8.4897e-06	103.63	0.00076186	0.00047368	0.00012173	772.38	4.4961e-06	4.9968e-06	719.44	340.01	5.0784e-06	4.9385e-06	366.05	182.14	177.7	96.69	5.5392e-06	100.47	213.034	180.307	187.727	105.785	262.018	236.917	104.503	109.574	234.814	239.435	107.365	110.579	112.272	115.322	256.491	112.679	-8191	255	
35096.488	1	1	0	0	0.079542	0.094958	0.21267	0.36159	0.044212	0.13211	0.33354	0.21759	0.16008	0.023853	0.15169	0.16362	0.11504	0.075299	0.21414	0.25671	-1.8042	-2.0958	-2.5333	-2.2562	-2.6042	-2.6312	-2.2833	-2.4938	-2.3271	-2.2375	-2.8021	-2.4729	-2.3104	-2.6979	-2.2562	-2.8104	313.143	267.159	223.556	388.965	324.328	135.785	345.906	348.252	104.090	243.775	103.087	122.424	419.715	396.391	336.983	385.743	0.00086577	0.00077714	0.00029582	803.07	6.7818e-06	8.0853e-06	737.39	351.84	6.5371e-06	7.4253e-06	376.5	185.86	181.48	98.119	6.9718e-06	102.44	0.00072859	0.00049728	0.00012752	773.21	4.542e-06	4.9411e-06	712.95	339.5	5.063e-06	5.0327e-06	362.8	180.61	176.46	95.722	5.5182e-06	99.342	213.323	181.509	185.735	105.737	260.388	244.001	104.736	109.440	248.082	236.997	107.448	110.637	112.328	115.262	234.768	112.852	-8191	255	
35096.582	1	1	0	0	0.15169	0.1002	0.1802	0.14545	0.33277	0.069685	0.079713	0.21943	0.20352	0.23068	0.18848	0.23286	0.37906	0.52516	0.053015	0.23143	-2.075	-2.2979	-2.6188	-2.3688	-2.1979	-2.7771	-2.5583	-2.5333	-2.825	-2.3104	-2.6521	-2.5271	-2.4854	-2.7875	-2.25	-2.7958	282.972	368.932	423.754	435.787	317.863	142.800	392.402	361.552	205.946	284.848	144.010	422.218	426.517	331.617	293.589	398.847	0.00087789	0.00063297	0.00023196	800.23	6.6199e-06	7.0066e-06	737.15	350.72	6.6468e-06	6.6714e-06	376.45	185.29	180.99	97.931	7.8616e-06	102.53	0.0007353	0.00046455	0.00012895	770.97	4.5748e-06	4.7251e-06	710.71	338.55	5.2219e-06	4.8071e-06	362.54	180.06	175.9	95.423	5.2676e-06	99.252	211.824	186.051	184.281	105.593	242.648	225.724	104.610	109.420	253.014	247.280	107.065	110.547	112.101	115.438	249.449	112.794	-8191	255	
35096.656	1	1	0	0	0.10175	0.050623	0.26366	0.26238	0.30772	0.029917	0.16971	0.16222	0.28536	0.12821	0.32104	0.26272	0.18869	0.16509	0.0965	0.1444	-2.0125	-2.0979	-2.4958	-2.5354	-2.3063	-2.5896	-2.2958	-2.5271	-2.5021	-2.2083	-2.6958	-2.5542	-2.4083	-2.9229	-2.3333	-2.4917	256.475	294.638	139.510	121.436	338.452	115.843	361.054	113.903	104.073	200.147	446.217	153.973	243.768	397.743	354.113	332.074	0.00087228	0.00089794	0.00019764	804.42	5.7784e-06	8.0296e-06	741.97	349.4	5.4548e-06	6.1701e-06	374.05	186.25	182.08	97.615	9.1339e-06	102.41	0.00072179	0.00047055	0.00011771	771.99	4.398e-06	4.7901e-06	714.91	338.05	4.9623e-06	4.8046e-06	362.14	180.28	176.44	95.363	5.3989e-06	99.485	212.303	170.931	186.396	105.657	254.904	244.364	104.550	109.413	251.308	233.667	107.238	110.603	112.246	115.533	254.367	112.829	-8191	255	
35096.750	1	1	0	0	0.12388	0.065736	0.057517	0.093952	0.15939	0.31078	0.087818	0.18184	0.036308	0.21402	0.08558	0.23263	0.19117	0.21053	0.093305	0.26306	-2.1813	-2.1458	-2.4771	-2.5708	-2.2458	-2.5792	-2.4417	-2.4792	-2.4771	-2.1167	-2.5667	-2.4833	-2.3333	-2.8646	-2.5021	-2.5854	117.683	416.911	330.508	404.423	167.736	243.135	336.868	416.984	173.193	151.254	404.735	435.476	397.482	386.600	160.604	394.008	0.00086739	0.00066415	0.00020108	799.26	5.7051e-06	7.4643e-06	742.59	350.3	6.2115e-06	7.0555e-06	375.78	186.9	181.71	98.193	8.1878e-06	103.53	0.00072504	0.00049415	0.00011534	771.95	4.7716e-06	4.6403e-06	714.61	338.45	4.8505e-06	4.9007e-06	364.1	181.23	176.65	95.706	5.7194e-06	100.12	213.156	165.058	183.323	105.658	268.439	225.177	104.660	109.547	250.436	233.093	107.191	110.292	112.316	115.452	248.226	112.803	-8191	255	
35096.871	1	1	0	0	0.10415	0.042106	0.15119	0.22389	0.18936	0.2066	0.38027	0.27223	0.07985	0.21502	0.26766	0.067519	0.21657	0.044608	0.15825	0.36923	-2.1104	-2.1208	-2.3896	-2.5458	-2.1625	-2.4437	-2.4625	-2.3563	-2.6208	-2.0729	-2.6333	-2.6813	-2.3688	-2.8271	-2.2396	-2.4208	330.353	336.748	378.388	364.596	392.441	267.218	355.114	378.384	319.156	92.876	418.812	265.570	417.976	98.017	284.179	354.502	0.0008859	0.00067096	0.00022499	802.78	4.9713e-06	9.2232e-06	741.67	348.69	7.6015e-06	6.4716e-06	378.49	186.12	180.74	97.622	7.7568e-06	101.73	0.00073491	0.00047864	0.00012152	774.46	4.7109e-06	4.6818e-06	715.99	338.02	4.9245e-06	4.7816e-06	363.74	180.7	176.05	95.366	5.8916e-06	98.96	213.660	177.204	185.040	106.025	249.309	225.619	104.243	109.447	260.154	239.451	107.493	110.409	112.407	115.403	241.120	112.885	-8191	255	
35096.969	1	1	0	0	0.10585	0.12526	0.20416	0.17603	0.21451	0.12012	0.045143	0.26357	0.22462	0.17711	0.20994	0.31373	0.068645	0.25964	0.013355	0.20723	-2.3917	-2.0333	-2.225	-2.7062	-2.2458	-2.7062	-2.4542	-2.3563	-2.4833	-2.3271	-2.5229	-2.7083	-2.4917	-2.6417	-2.3646	-2.4229	379.719	154.197	350.228	426.475	445.367	417.118	118.817	387.200	148.486	394.589	431.870	403.753	134.306	127.598	327.044	400.318	0.00083835	0.0006442	0.0002511	800.85	7.3612e-06	5.2997e-06	746.34	350.23	6.3364e-06	7.4169e-06	374.69	185.64	181.13	97.454	5.6054e-06	102.25	0.00069543	0.00047269	0.00013073	773.59	4.8391e-06	4.553e-06	717.64	338.59	4.8434e-06	4.8492e-06	363.67	180.25	175.77	95.153	5.7188e-06	99.08	213.317	181.952	174.107	105.689	255.351	238.072	104.624	109.510	255.601	238.932	107.072	110.527	112.128	115.463	243.623	112.785	-8191	255	
35097.062	1	1	0	0	0.16017	0.28858	0.13122	0.20618	0.16467	0.18168	0.20787	0.30918	0.13067	0.14359	0.26028	0.11901	0.26688	0.19919	0.12631	0.083655	-2.2146	-2.1625	-2.2146	-2.6125	-2.1396	-2.6521	-2.5938	-2.4229	-2.7146	-2.2208	-2.4875	-2.7625	-2.3208	-2.6833	-2.3958	-2.4458	146.743	334.345	377.953	107.629	211.175	296.099	450.681	435.046	344.136	271.982	345.875	287.532	429.580	382.544	329.982	434.775	0.00088841	0.00058301	0.00020819	800.11	6.5161e-06	8.3494e-06	740.52	349.12	6.7451e-06	6.0809e-06	375.38	186.86	181.27	97.899	8.0477e-06	102.64	0.00071954	0.00049151	0.00013045	771.97	4.7821e-06	4.8217e-06	715.54	338.3	4.815e-06	5.1182e-06	363.21	181.07	176.5	95.421	5.6944e-06	99.482	214.135	170.547	187.992	105.623	255.329	245.211	104.660	109.584	255.788	229.041	107.193	110.451	112.315	115.351	255.359	113.006	-8191	255	
35097.160	1	1	0	0	0.21622	0.15635	0.15785	0.17745	0.093771	0.33807	0.20179	0.070905	0.29698	0.12151	0.20117	0.29875	0.28493	0.19243	0.1661	0.21647	-2.2562	-2.375	-2.2979	-2.8187	-2.3417	-2.5438	-2.6833	-2.4062	-2.6813	-2.2271	-2.4083	-2.7792	-2.475	-2.7375	-2.3854	-2.3375	382.140	428.679	292.224	132.568	178.547	376.160	350.827	156.003	435.441	138.093	150.448	210.573	378.365	442.822	427.176	381.523	0.00088379	0.0010519	0.00021662	808.64	6.4153e-06	6.9834e-06	750.78	348.48	6.4709e-06	6.6277e-06	381.36	188.17	182.01	98.538	7.7737e-06	103.24	0.00072055	0.00049475	0.0001295	774.2	4.7362e-06	4.9498e-06	721.21	338.7	4.8998e-06	5.1182e-06	366.97	182.42	177.24	96.091	5.687e-06	100.41	213.703	186.421	194.962	105.866	256.269	254.521	104.410	109.441	259.632	235.617	107.181	110.232	112.495	115.636	245.706	112.757	-8191	255	
35097.281	1	1	0	0	0.35443	0.16164	0.18758	0.18997	0.047415	0.17865	0.23618	0.083926	0.15549	0.18572	0.44336	0.17754	0.15265	0.08764	0.016062	0.15914	-2.2521	-2.4083	-2.5021	-2.7083	-2.3417	-2.5167	-2.6667	-2.2458	-2.7396	-2.3958	-2.35	-2.8396	-2.425	-2.4354	-2.6562	-2.625	435.876	97.139	161.204	292.473	373.504	266.442	422.195	361.459	201.510	400.708	347.736	407.010	407.725	302.418	301.533	385.351	0.00086967	0.00075644	0.00019102	803.82	6.4173e-06	8.6398e-06	746.47	350.52	5.1669e-06	9.0543e-06	378.39	188.72	183.27	98.655	8.4481e-06	102.88	0.00072439	0.0004876	0.00014195	773.5	5.0396e-06	5.1621e-06	718.67	339.45	4.9524e-06	5.2143e-06	366.5	183.12	177.67	96.326	5.9217e-06	100.37	212.889	170.722	181.765	105.599	248.256	243.498	104.813	109.521	245.836	241.582	107.252	110.345	112.247	115.217	242.391	112.982	-8191	255	
35097.352	1	1	0	0	0.22611	0.15817	0.18015	0.35421	0.16596	0.086205	0.024358	0.11346	0.29458	0.33105	0.044246	0.262	0.27385	0.16754	0.19421	0.15275	-2.1125	-2.5687	-2.2188	-2.7854	-2.3292	-2.4417	-2.7292	-2.3833	-2.7021	-2.4833	-2.2354	-2.8958	-2.5	-2.4708	-2.5563	-2.5667	180.405	137.795	291.074	122.277	251.451	344.262	413.272	114.852	98.128	129.906	127.117	444.984	427.464	97.645	448.430	147.527	0.00088146	0.0005502	0.0002606	801.92	6.4335e-06	8.7613e-06	744.18	348.7	5.8616e-06	6.0606e-06	378.1	187.17	182.41	98.279	9.4658e-06	102.76	0.00072865	0.00048766	0.00013964	773.18	5.0998e-06	5.2178e-06	715.76	337.64	5.0307e-06	5.316e-06	363.73	181.8	177.17	95.773	5.4545e-06	99.868	212.186	180.006	183.047	105.708	262.149	236.494	104.578	109.375	243.680	242.691	107.197	110.488	112.416	115.572	249.285	112.711	-8191	255	
35097.445	1	1	0	0	0.16979	0.11683	0.31134	0.13284	0.18635	0.1573	0.15537	0.17592	0.11412	0.093737	0.11842	0.36885	0.16913	0.46161	0.18963	0.25027	-1.925	-2.5625	-2.4208	-2.9292	-2.2812	-2.4688	-2.5458	-2.3125	-2.4125	-2.4792	-2.3396	-2.5687	-2.4938	-2.3812	-2.6	-2.4562	219.549	185.573	111.593	153.662	356.520	261.693	297.972	358.041	432.082	388.237	409.898	98.274	450.331	446.356	415.251	335.860	0.00090543	0.00064705	0.00022625	800.26	5.0987e-06	9.8725e-06	748.52	350.36	6.4951e-06	6.0017e-06	377.81	187.08	182.13	98.584	8.5005e-06	103.02	0.00073911	0.00047599	0.00014367	771.02	4.9241e-06	5.0717e-06	718.32	338.73	5.1583e-06	4.9651e-06	364.95	181.86	176.73	95.846	5.4739e-06	100.22	213.530	167.680	183.600	105.709	262.427	229.725	104.415	109.435	243.299	237.753	106.976	110.450	112.509	115.410	248.297	112.852	-8191	255	
35097.566	1	1	0	0	0.022573	0.091996	0.22558	0.35581	0.13629	0.21473	0.031271	0.34274	0.069389	0.10186	0.2495	0.34944	0.14358	0.10814	0.31373	0.389	-2.0229	-2.4771	-2.0375	-2.6625	-2.45	-2.3042	-2.8917	-2.3771	-2.5292	-2.4792	-2.1937	-2.7708	-2.5896	-2.3396	-2.5958	-2.5146	296.552	232.284	313.812	450.324	209.915	309.822	404.683	435.980	411.612	295.645	352.908	407.149	165.475	96.660	397.933	366.134	0.00084191	0.00071912	0.00023728	800.58	6.5746e-06	6.8929e-06	746.77	350.33	7.1515e-06	6.3107e-06	379.33	188.29	182.57	98.345	9.6257e-06	104.23	0.00072707	0.00047473	0.00014099	771.42	5.0032e-06	5.1733e-06	720.04	338.63	5.2662e-06	5.1815e-06	366.27	182.91	177.37	96.062	5.8671e-06	100.82	214.363	176.272	189.591	105.765	249.886	251.339	104.436	109.424	242.848	238.856	107.393	110.352	112.228	115.631	235.137	112.854	-8191	255	
35097.660	1	1	0	0	0.14952	0.12496	0.22117	0.13842	0.025948	0.17173	0.31453	0.29357	0.20104	0.075668	0.19761	0.25429	0.27092	0.36681	0.24551	0.10503	-2.0646	-2.6875	-2.1354	-2.5229	-2.4396	-2.2521	-2.7562	-2.4938	-2.2271	-2.4625	-2.4708	-2.6271	-2.6521	-2.4396	-2.5062	-2.5542	208.432	100.151	100.523	396.560	446.078	393.626	309.968	386.207	442.247	234.450	106.147	390.254	95.763	414.103	343.548	395.957	0.00088207	0.00086012	0.00020194	803.44	5.5017e-06	6.6377e-06	748.21	351.6	7.159e-06	7.8049e-06	382.05	190.04	183.58	99.103	1.0211e-05	104.75	0.00074737	0.00046807	0.00013548	773.64	4.904e-06	5.0761e-06	724.96	339.75	5.3571e-06	4.9217e-06	369.24	184.74	178.36	96.761	5.6222e-06	101.66	212.105	169.130	180.231	105.688	259.511	228.311	104.559	109.301	248.168	232.553	107.444	110.541	112.341	115.362	243.833	112.961	-8191	255	
35097.758	1	1	0	0	0.058993	0.073211	0.12483	0.21728	0.16112	0.059486	0.23801	0.14397	0.30382	0.16649	0.30431	0.15171	0.34258	0.14246	0.29531	0.20394	-1.875	-2.4417	-2.1979	-2.6229	-2.6813	-2.2125	-2.6688	-2.6604	-2.2021	-2.5146	-2.3333	-2.4667	-2.6542	-2.4667	-2.4958	-2.5583	170.029	323.632	441.993	404.000	164.684	286.895	338.617	364.379	190.187	244.438	116.539	406.922	385.415	91.811	347.069	347.324	0.00090938	0.00072891	0.00027864	804.97	6.9276e-06	7.7134e-06	750.38	350.18	6.6084e-06	7.116e-06	380.47	188.12	182.4	98.567	8.5956e-06	103.62	0.00074954	0.00048117	0.00014085	774.42	4.9045e-06	5.016e-06	720.76	339.35	5.4973e-06	5.1083e-06	367.18	182.92	177.39	96.23	5.6256e-06	100.48	213.833	177.470	184.003	105.939	253.409	227.863	104.634	109.483	251.181	243.503	107.024	110.490	112.502	115.345	246.467	112.829	-8191	255	
35097.855	1	1	0	0	0.24461	0.13236	0.10207	0.17808	0.024269	0.096884	0.24819	0.059228	0.070856	0.059118	0.13998	0.32941	0.28878	0.16405	0.28983	0.3257	-1.6292	-2.7104	-2.2958	-2.5312	-2.3354	-2.2625	-2.6729	-2.6417	-2.2875	-2.5625	-2.4375	-2.5167	-2.5646	-2.425	-2.6042	-2.6479	393.151	239.298	115.610	401.623	323.650	238.030	393.395	428.805	407.248	225.356	259.618	308.821	417.963	401.260	171.504	382.421	0.00088129	0.00053017	0.00018992	800.17	6.3818e-06	6.3774e-06	750.23	349.88	7.2272e-06	6.8251e-06	380.08	187.42	182.95	98.011	7.8321e-06	103.65	0.00074757	0.00044899	0.00014341	771.69	4.8613e-06	5.0049e-06	721.62	338.9	5.4305e-06	4.8932e-06	366.71	182.79	177.13	95.85	5.6199e-06	100.62	213.786	184.722	187.206	105.814	261.438	222.358	104.705	109.506	250.143	233.801	107.261	110.439	112.340	115.428	249.140	112.922	-8191	255	
35097.949	1	1	0	0	0.21611	0.057579	0.1754	0.21872	0.16346	0.20485	0.084219	0.21391	0.12985	0.19978	0.2416	0.3271	0.22745	0.40682	0.22394	0.36652	-1.7625	-2.5271	-2.3708	-2.1896	-2.7875	-2.3396	-2.7854	-2.6146	-2.4542	-2.7042	-2.5646	-2.4313	-2.7938	-2.2938	-2.5917	-2.6667	378.563	425.337	126.554	321.184	369.900	212.312	278.831	413.201	246.093	354.871	377.306	360.824	270.092	407.414	426.083	419.280	0.00091195	0.00062362	0.0001969	801.1	6.6641e-06	7.9979e-06	752.03	350.15	6.5715e-06	5.3018e-06	379.68	189.16	182.73	98.51	9.456e-06	104.31	0.00073711	0.0004662	0.00014172	771.93	4.7067e-06	5.2977e-06	722.48	339	5.3883e-06	4.8765e-06	367.33	183.54	177.27	96.268	6.0234e-06	101.19	212.466	177.761	181.585	105.976	258.784	234.025	104.429	109.449	252.931	230.536	107.167	110.558	112.084	115.512	259.214	112.966	-8191	255	
35098.047	1	1	0	0	0.38639	0.37201	0.2345	0.19139	0.1365	0.18367	0.32487	0.39685	0.088263	0.12505	0.18487	0.20203	0.26846	0.21822	0.17199	0.1693	-1.7771	-2.5229	-2.4667	-2.3187	-2.6312	-2.3792	-2.6896	-2.6479	-2.1229	-2.5646	-2.5208	-2.2625	-2.75	-2.45	-2.1708	-2.8729	350.348	381.897	184.450	327.153	387.118	239.041	431.823	441.828	310.876	117.160	372.387	324.678	112.953	96.088	301.710	412.192	0.00085739	0.00073441	0.00024277	801.16	5.3096e-06	6.5272e-06	751.01	351.37	5.7832e-06	7.5335e-06	383.18	189.84	182.68	98.76	1.0012e-05	104.78	0.00071756	0.00047429	0.00014175	771.83	4.7716e-06	5.2073e-06	722.93	339.09	5.494e-06	5.2707e-06	369.03	184.5	177.48	96.462	5.9728e-06	101.71	214.104	178.554	174.715	105.886	273.232	246.254	104.510	109.459	255.730	224.486	107.245	110.690	112.276	115.433	241.372	112.712	-8191	255	
35098.168	1	1	0	0	0.16062	0.19475	0.14686	0.21744	0.12974	0.34826	0.12429	0.24365	0.20542	0.047757	0.23068	0.26193	0.30973	0.15352	0.1737	0.34975	-1.8375	-2.4417	-2.2875	-2.2292	-2.6271	-2.4813	-2.4583	-2.7771	-2.1979	-2.5479	-2.5729	-2.2979	-2.7458	-2.6458	-2.3375	-2.8896	443.144	233.589	207.529	422.417	446.429	318.083	376.507	356.976	346.971	234.588	390.291	437.489	445.663	423.695	149.908	407.718	0.00089948	0.00089553	0.00021541	800.41	5.2869e-06	6.9479e-06	751.5	351.6	5.0325e-06	8.0609e-06	380.94	189.2	181.98	98.858	8.3204e-06	104.2	0.00074937	0.00049558	0.00013511	772.82	4.6771e-06	5.2649e-06	723.71	339.72	5.7224e-06	5.1486e-06	368.38	183.96	176.98	96.297	5.8507e-06	100.96	213.716	182.683	193.368	105.757	260.362	246.023	104.623	109.695	260.954	247.383	107.293	110.696	112.493	115.431	251.378	112.924	-8191	255	
35098.266	1	1	0	0	0.24414	0.13951	0.1126	0.20199	0.39373	0.38147	0.12209	0.41624	0.14427	0.050064	0.3113	0.14591	0.23185	0.19262	0.37583	0.087749	-1.7917	-2.4417	-2.3521	-2.2792	-2.6063	-2.3708	-2.3521	-2.7	-2.2812	-2.6667	-2.5146	-2.2875	-2.7521	-2.6937	-2.5021	-2.7292	106.178	319.288	141.569	155.494	397.411	153.743	308.782	403.472	326.239	212.587	369.590	112.080	338.153	332.997	309.910	434.882	0.00087908	0.00064342	0.00021611	801.17	6.1192e-06	7.3938e-06	745.54	348.49	5.1363e-06	6.4999e-06	380.28	188.76	182.67	98.574	9.5211e-06	103.73	0.00075831	0.00046813	0.00013485	771.37	4.76e-06	5.4314e-06	717.93	338.25	5.5181e-06	5.2775e-06	367.2	183.15	177.09	96.19	6.253e-06	100.75	213.928	176.300	189.975	105.862	249.567	239.165	104.731	109.673	252.475	227.670	107.331	110.397	112.224	115.402	257.426	112.792	-8191	255	
35098.359	1	1	0	0	0.14941	0.1879	0.19857	0.11588	0.05994	0.14956	0.12628	0.069719	0.10559	0.13433	0.23365	0.23998	0.23897	0.39348	0.091793	0.40245	-1.7	-2.3937	-2.6833	-2.3708	-2.6042	-2.4896	-2.3104	-2.7438	-2.3229	-2.2438	-2.6667	-2.1937	-2.7333	-2.6979	-2.3312	-2.8646	350.321	260.705	274.393	110.671	389.470	356.064	262.001	406.484	331.292	164.608	438.882	436.898	347.398	404.189	112.553	361.033	0.00085927	0.00071531	0.00022378	797.63	6.4553e-06	8.5108e-06	747.4	350.38	6.1136e-06	7.9919e-06	380.9	189.12	181.62	98.608	8.5149e-06	104.29	0.00073719	0.00047088	0.000137	768.99	4.9621e-06	5.4215e-06	718.05	338.09	5.5751e-06	5.3005e-06	366.68	183.59	176.83	96.231	6.0604e-06	101.13	212.405	184.988	177.946	105.794	250.370	222.542	104.984	109.683	249.964	255.888	107.127	110.566	112.327	115.492	246.671	112.780	-8191	255	
35098.457	1	1	0	0	0.21182	0.097763	0.10906	0.13327	0.072491	0.29475	0.21256	0.15229	0.32899	0.18788	0.22738	0.33336	0.2319	0.16163	0.20243	0.30625	-1.7875	-2.3083	-2.6292	-2.2604	-2.5167	-2.3833	-2.3688	-2.7521	-2.2583	-2.5375	-2.8521	-2.3208	-2.6146	-2.7396	-2.1542	-2.8708	189.354	239.523	142.732	390.625	292.170	186.427	433.536	310.453	129.309	350.445	340.670	448.347	432.192	398.986	294.206	388.916	0.00089304	0.00083272	0.00026994	800.18	5.7171e-06	7.8624e-06	750.71	349.26	5.385e-06	6.7447e-06	381.62	190.89	182.72	98.883	6.4843e-06	105.25	0.00075225	0.00047737	0.00013096	770.1	4.8597e-06	5.3057e-06	721.98	338.54	5.4962e-06	5.0234e-06	369.05	185.05	177.85	96.619	5.962e-06	102.01	212.412	182.345	188.049	105.818	253.873	235.355	104.755	109.522	249.201	226.861	107.113	110.455	112.569	115.583	242.771	113.022	-8191	255	
35098.551	1	1	0	0	0.14081	0.15195	0.2317	0.30464	0.064333	0.12237	0.058706	0.10665	0.317	0.019599	0.2067	0.2538	0.16936	0.2078	0.12512	0.49287	-1.8417	-2.1021	-2.6167	-2.2604	-2.4	-2.4396	-2.2562	-2.6354	-2.2396	-2.3375	-2.6396	-2.5375	-2.5021	-2.6667	-2.1688	-2.5687	377.152	418.291	138.506	366.677	273.552	317.691	146.540	344.378	183.258	339.638	393.233	415.138	120.489	358.086	288.486	407.602	0.00090437	0.00069806	0.00022258	801.56	6.1107e-06	6.3757e-06	755.6	351.23	7.5336e-06	5.5072e-06	383.04	190.34	184	99.369	8.6443e-06	104.84	0.00075995	0.00046384	0.00013122	773.7	4.6054e-06	5.0959e-06	725.58	340.15	5.3768e-06	5.3346e-06	370.61	184.92	178.2	96.826	6.0018e-06	101.73	212.625	176.988	194.445	105.842	257.320	260.589	104.854	109.369	248.972	245.273	107.413	110.696	112.474	115.423	238.487	112.778	-8191	255	
35098.648	1	1	0	0	0.18608	0.16115	0.17968	0.092274	0.10085	0.22322	0.091405	0.022269	0.26576	0.13781	0.11726	0.11018	0.066472	0.21451	0.09781	0.33958	-1.9208	-2.25	-2.7854	-2.3187	-2.2667	-2.6437	-2.2979	-2.7583	-2.5938	-2.2812	-2.7667	-2.425	-2.5646	-2.8	-2.2708	-2.6708	181.814	103.255	396.321	117.429	178.241	442.467	442.269	387.435	390.964	328.528	406.613	420.456	196.770	420.485	118.154	415.789	0.00089473	0.00075081	0.00025808	800.23	7.5279e-06	8.4208e-06	751.43	349.61	7.028e-06	7.7541e-06	380.74	188.88	182.09	98.391	6.1818e-06	103.61	0.00074762	0.00048606	0.00013381	772.19	4.9468e-06	4.9869e-06	722.18	338.52	5.3084e-06	5.1263e-06	367.41	183.68	177.18	96.096	6.1621e-06	100.67	212.055	170.757	182.434	105.683	258.344	227.245	104.837	109.374	249.324	248.468	107.583	110.574	112.315	115.352	260.599	112.775	-8191	255	
35098.742	1	1	0	0	0.17871	0.11214	0.13447	0.16342	0.049411	0.056144	0.20969	0.033891	0.16593	0.1682	0.34706	0.21602	0.24998	0.29966	0.16038	0.079413	-2.1583	-2.0604	-2.6063	-2.5062	-2.55	-2.8187	-2.2354	-2.5604	-2.5854	-2.025	-2.7313	-2.5292	-2.5208	-2.85	-2.1854	-2.6437	277.151	431.707	104.540	406.780	275.282	313.564	385.041	270.548	237.703	252.161	353.004	427.671	449.498	368.798	235.425	395.149	0.00089886	0.00075129	0.0001968	798.5	6.6821e-06	8.0396e-06	750.89	349.19	6.4335e-06	7.3021e-06	383.06	189.13	181.73	98.229	6.3636e-06	103.77	0.0007483	0.00049453	0.00013011	770.97	5.0365e-06	4.9287e-06	720.98	338.06	5.0915e-06	5.3308e-06	368.84	183.35	176.9	95.904	6.1666e-06	100.93	212.318	183.591	186.795	105.770	261.481	245.780	105.119	109.590	252.952	239.744	107.163	110.618	112.186	115.458	255.184	112.856	-8191	255	
35098.840	1	1	0	0	0.030215	0.22834	0.18313	0.27022	0.048363	0.081515	0.1166	0.15222	0.18845	0.076868	0.13305	0.35463	0.064671	0.53245	0.15538	0.21116	-2.2792	-2.0812	-2.5479	-2.5563	-2.2479	-2.6667	-2.4375	-2.5146	-2.4958	-2.2458	-2.6771	-2.5521	-2.2938	-2.7229	-2.2208	-2.6667	408.759	284.227	107.509	359.518	159.723	305.698	412.415	322.279	243.268	277.382	157.555	395.219	339.020	411.692	328.289	386.300	0.00086467	0.0008569	0.00018741	803.08	6.157e-06	7.6838e-06	752.88	351.15	6.1698e-06	7.4321e-06	382.38	188.96	182.89	98.786	7.7228e-06	104.99	0.00073434	0.00049596	0.00013421	771.97	5.209e-06	5.164e-06	723.18	339.45	5.0959e-06	5.7096e-06	369.84	184.18	177.29	96.278	6.3672e-06	101.64	213.481	180.197	178.445	105.701	245.833	232.687	104.404	109.321	258.202	222.812	107.152	110.520	112.158	115.423	235.824	112.786	-8191	255	
35098.934	1	1	0	0	0.25006	0.24105	0.28631	0.38381	0.075932	0.24002	0.21546	0.32563	0.057549	0.13488	0.077819	0.25827	0.076882	0.25676	0.10735	0.13747	-2.2313	-2.2333	-2.6604	-2.4604	-2.2292	-2.7062	-2.4542	-2.5958	-2.6396	-2.3958	-2.7479	-2.5625	-2.3708	-3.0333	-2.375	-2.3563	115.730	406.068	353.748	439.364	167.287	323.667	131.408	424.691	187.297	401.511	113.023	375.327	354.940	445.542	339.911	285.120	0.00088436	0.0006842	0.00021459	803.73	6.7081e-06	6.8047e-06	751.07	352.47	6.7001e-06	7.2666e-06	385.73	190.42	183.21	98.866	7.9231e-06	104.98	0.00074596	0.00050972	0.00013342	772.08	5.0639e-06	5.2067e-06	722.95	339.8	5.2629e-06	5.691e-06	371.42	184.9	177.69	96.328	6.0291e-06	101.91	212.735	181.781	183.591	105.623	265.923	239.930	104.545	109.629	259.634	235.329	107.100	110.640	112.163	115.431	239.491	112.916	-8191	255	
35099.055	1	1	0	0	0.13876	0.11008	0.24975	0.15086	0.20894	0.1119	0.24172	0.082028	0.12602	0.1907	0.27963	0.24145	0.21378	0.11657	0.048095	0.47392	-2.2438	-2.2104	-2.3583	-2.7333	-2.2167	-2.6417	-2.4542	-2.3187	-2.5812	-2.2646	-2.5563	-2.6937	-2.2625	-2.8812	-2.4083	-2.4458	282.436	196.066	356.191	360.770	376.763	270.603	366.376	115.183	162.097	281.164	384.911	431.687	132.071	159.811	148.656	391.651	0.00089564	0.00053531	0.0002393	802.35	6.5563e-06	6.6883e-06	752.93	349.79	6.2327e-06	6.7587e-06	379.85	189.5	182.93	99.039	7.0322e-06	104.58	0.00075603	0.00049849	0.00013514	772.89	5.1589e-06	4.9919e-06	724.42	339.35	5.0472e-06	5.4207e-06	368.97	183.47	177.24	96.278	5.8825e-06	101.26	213.350	193.649	184.991	105.867	252.386	238.060	104.418	109.611	262.106	242.465	107.380	110.510	112.285	115.371	249.386	112.724	-8191	255	
35099.152	1	1	0	0	0.19747	0.21439	0.14802	0.26089	0.19951	0.27466	0.39462	0.36507	0.15239	0.077724	0.12027	0.093231	0.13426	0.2195	0.082561	0.23666	-2.3021	-2.3583	-2.4875	-2.5167	-2.1167	-2.55	-2.4625	-2.3917	-2.8187	-2.3292	-2.5354	-2.7896	-2.3271	-2.7458	-2.4958	-2.4167	340.632	226.527	135.120	313.502	401.678	439.566	398.036	381.737	252.488	291.875	332.521	348.580	338.682	415.634	316.382	414.675	0.00088418	0.00074431	0.00022506	797.49	5.3246e-06	8.885e-06	750.48	349.91	5.7998e-06	7.8344e-06	380.48	189.6	181.65	98.274	6.7964e-06	104.24	0.00074889	0.00050124	0.00013144	769.62	5.0992e-06	5.0278e-06	721.2	338.34	4.8966e-06	5.6092e-06	367.95	183.48	176.7	95.831	5.7972e-06	100.8	210.790	177.300	174.610	105.708	251.266	235.166	104.428	109.525	246.598	229.335	107.265	110.255	112.412	115.408	237.083	112.786	-8191	255	
35099.246	1	1	0	0	0.11376	0.29739	0.18594	0.29895	0.26344	0.17093	0.24882	0.0434	0.22746	0.15573	0.22105	0.37497	0.24319	0.38148	0.076933	0.34145	-2.3063	-2.5333	-2.3083	-2.7583	-2.0667	-2.4562	-2.6729	-2.2917	-2.5792	-2.2917	-2.3625	-2.8875	-2.3917	-2.7417	-2.5875	-2.3646	450.426	222.299	383.349	347.530	280.688	364.232	111.248	248.934	136.751	97.423	372.071	423.095	449.420	388.383	391.490	384.139	0.00087639	0.00082897	0.00018909	798.25	7.4837e-06	6.711e-06	746.61	348.95	5.8965e-06	7.3256e-06	380.4	188.45	181.79	98.139	8.359e-06	104.12	0.00073228	0.00050053	0.0001285	768.68	5.4238e-06	5.2457e-06	719.89	337.77	5.2624e-06	5.4437e-06	367.67	183.27	176.67	95.734	5.7768e-06	101.07	213.673	177.768	181.170	105.739	254.685	235.124	104.460	109.575	256.242	231.010	107.287	110.555	112.425	115.504	242.915	112.715	-8191	255	
35099.344	1	1	0	0	0.18023	0.12204	0.094886	0.17229	0.23723	0.11945	0.23326	0.16785	0.14122	0.039814	0.23897	0.14318	0.11819	0.34534	0.07352	0.22216	-2.2583	-2.4938	-2.2854	-2.7979	-2.3104	-2.7062	-2.5479	-2.2292	-2.5208	-2.5187	-2.3312	-2.6729	-2.3479	-2.7792	-2.5625	-2.4333	245.386	291.957	376.976	381.584	305.810	411.581	98.108	325.314	314.613	383.319	355.359	385.469	105.689	440.417	443.449	118.181	0.00086961	0.00074026	0.00021208	795.79	7.6486e-06	7.2085e-06	749.37	348.4	7.0143e-06	6.039e-06	382.71	189.62	181.36	98.365	8.1813e-06	104.3	0.00074207	0.00049745	0.00013257	768.82	5.5008e-06	4.9467e-06	720.44	337.37	5.0137e-06	5.1095e-06	368.64	183.79	176.39	95.908	5.6472e-06	101.56	213.224	190.372	199.061	105.915	252.275	230.678	104.659	109.429	249.292	234.692	107.056	110.601	112.262	115.488	247.070	112.851	-8191	255	
35099.441	1	1	0	0	0.33951	0.15893	0.091391	0.32131	0.37765	0.053448	0.33806	0.090574	0.10771	0.18624	0.07411	0.20986	0.12908	0.31141	0.1353	0.34316	-2.2625	-2.3417	-2.2208	-2.8354	-2.4729	-2.4542	-2.725	-2.2812	-2.7146	-2.4833	-2.4479	-2.8396	-2.4625	-2.7583	-2.7062	-2.5292	249.653	351.664	101.559	381.264	96.865	139.696	442.382	344.829	246.224	364.768	133.301	437.477	299.518	394.067	383.704	414.118	0.00087208	0.00076991	0.00021178	798.25	6.0663e-06	6.8322e-06	748.46	348.53	6.8575e-06	7.9663e-06	382.45	188.64	182.14	98.507	8.0891e-06	103.99	0.00074475	0.00048711	0.00013327	769.13	5.237e-06	4.9721e-06	721.9	338.12	5.1682e-06	5.2069e-06	368.94	183.42	176.7	95.864	5.7927e-06	100.93	210.916	179.852	184.697	105.663	259.461	244.024	104.661	109.568	254.522	235.730	107.256	110.677	112.305	115.421	246.650	112.869	-8191	255	
35099.535	1	1	0	0	0.17738	0.15348	0.017693	0.15481	0.09398	0.10073	0.1196	0.20157	0.18667	0.031639	0.24704	0.091993	0.20749	0.17457	0.1557	0.16583	-2.1333	-2.5042	-2.1333	-2.7708	-2.3937	-2.475	-2.7521	-2.25	-2.4562	-2.5042	-2.1729	-2.7146	-2.6021	-2.5208	-2.4875	-2.3875	360.630	325.231	249.655	392.384	276.723	350.249	365.976	374.487	101.950	333.347	373.161	406.309	121.254	403.495	192.975	118.257	0.00091464	0.00071891	0.00022846	795.88	5.0297e-06	8.0895e-06	742.87	349.88	5.7157e-06	5.5563e-06	379.95	187.29	181.1	97.817	8.7666e-06	103.8	0.00075149	0.00047731	0.00013528	767.95	4.8544e-06	5.0953e-06	715.31	337.42	5.2076e-06	4.8046e-06	366.45	182.42	175.82	95.526	5.8381e-06	100.62	210.939	171.365	189.034	105.896	251.252	242.529	104.435	109.492	238.995	234.079	107.040	110.401	112.365	115.560	245.293	112.812	-8191	255	
35099.656	1	1	0	0	0.16813	0.1039	0.16902	0.12481	0.19524	0.051641	0.3969	0.17448	0.18843	0.29097	0.37381	0.16268	0.17119	0.076241	0.26773	0.37516	-1.8271	-2.3688	-2.1562	-2.6562	-2.4938	-2.3125	-2.875	-2.4417	-2.4729	-2.5375	-2.1146	-2.6958	-2.3979	-2.4813	-2.5	-2.5479	187.174	289.921	208.085	328.329	375.346	377.988	337.681	425.772	119.494	194.322	346.457	104.229	167.310	428.808	431.670	397.426	0.00088605	0.00075958	0.00023116	796.76	6.136e-06	7.9506e-06	744.19	348.06	7.0245e-06	7.8619e-06	379.23	186.18	181.1	97.388	9.9075e-06	103.2	0.00072391	0.00043936	0.00012873	767.32	4.8449e-06	5.3305e-06	715.49	336.18	4.9431e-06	4.8046e-06	366.3	181.68	175.8	95.175	5.6449e-06	100.33	213.771	183.249	178.644	105.575	250.518	234.707	104.455	109.300	255.239	234.265	107.184	110.483	112.363	115.399	247.368	112.989	-8191	255	
35099.754	1	1	0	0	0.097463	0.23939	0.30757	0.27437	0.039385	0.21055	0.13746	0.21015	0.16259	0.2861	0.21031	0.092389	0.18259	0.22673	0.11068	0.22135	-1.95	-2.4354	-2.1646	-2.5479	-2.5854	-2.0458	-2.7479	-2.5021	-2.3333	-2.5854	-2.4125	-2.5208	-2.5812	-2.4854	-2.6479	-2.5167	115.076	416.632	218.178	351.481	328.443	232.693	336.481	372.913	441.877	245.503	420.781	422.053	421.199	446.606	250.831	392.771	0.00088453	0.00076951	0.0002246	797.78	5.7179e-06	6.0852e-06	744.3	348.89	6.5271e-06	5.9984e-06	380.8	187.42	180.66	97.964	8.938e-06	103.38	0.00072154	0.00045113	0.00013067	767.14	4.445e-06	5.1349e-06	715.89	336.95	4.844e-06	4.9763e-06	367.18	182.12	175.22	95.165	5.6733e-06	100.44	212.869	190.951	189.180	105.654	251.187	240.373	104.481	109.399	254.174	244.629	107.186	110.416	112.503	115.314	248.288	112.789	-8191	255	
35099.848	1	1	0	0	0.044627	0.067246	0.083057	0.1428	0.32284	0.075295	0.12339	0.29859	0.15012	0.029456	0.067923	0.38168	0.021013	0.34263	0.24768	0.047499	-1.7667	-2.5896	-2.1667	-2.4354	-2.6	-2.1437	-2.65	-2.1854	-2.3271	-2.7917	-2.2896	-2.7042	-2.6375	-2.3083	-2.5687	-2.7479	369.886	125.709	445.195	148.122	167.245	185.323	407.889	371.970	115.930	353.281	352.102	411.048	450.719	445.036	173.015	293.697	0.00086449	0.0008838	0.00026316	799.82	6.0033e-06	7.0406e-06	751.53	348.76	7.1929e-06	6.0436e-06	383.7	187.81	181.19	97.945	8.8119e-06	103.77	0.00073096	0.00046483	0.00012686	769.65	4.5895e-06	5.3893e-06	722.14	337.15	4.9705e-06	4.8821e-06	369.24	182.94	175.83	95.407	5.4e-06	100.44	213.480	184.703	182.826	105.518	257.923	234.049	104.660	109.439	251.453	244.543	107.099	110.366	112.236	115.522	247.736	112.697	-8191	255	
35099.945	1	1	0	0	0.10797	0.18074	0.095608	0.27161	0.11032	0.074168	0.08047	0.26372	0.033827	0.073747	0.27539	0.14048	0.25096	0.22327	0.068917	0.16775	-1.8375	-2.7417	-2.075	-2.5458	-2.5958	-2.0917	-2.4042	-2.4458	-2.125	-2.6625	-2.4542	-2.4979	-2.7062	-2.3208	-2.6063	-2.7396	387.065	121.799	416.354	165.758	246.701	196.275	273.785	429.578	236.292	344.778	383.111	363.392	413.865	357.237	390.223	397.163	0.00086617	0.00084424	0.00019558	798.78	5.2524e-06	7.122e-06	745.27	345.84	6.4688e-06	7.697e-06	378.16	185.36	179.74	96.891	8.211e-06	102	0.00074449	0.00045592	0.00012565	768.43	4.6175e-06	5.3398e-06	715.42	335.28	5.1523e-06	4.7544e-06	365.07	180.32	174.29	94.406	5.5875e-06	98.834	211.224	181.589	179.007	105.494	253.757	237.636	104.463	109.532	248.035	249.609	107.142	110.358	112.191	115.313	251.963	112.657	-8191	255	
#DATA ENDS
