BOXY.EXE: ISS Imagent and Oximeter Data Acquisition Program Version 0.80
Ascii Record File

#ACQ INFORMATION
2  Detector Channels 
16  External MUX Channels 
1  Auxiliary Channels 
5000  Waveform (CCF) Frequency (Hz)
1  Waveforms Skipped 
30  Waveforms Averaged 
1  Cycles Averaged 
16  Acquisitions per Waveform 
10.0806  Updata Rate (Hz) 

#FILE INFORMATION
TRUE -- External MUX Channel results are PARSED.
FALSE -- AC DC and Phase are NOT grouped.
TRUE -- Companion Program Settings File CREATED.
FALSE -- AC data not excluded
FALSE -- DC data not excluded
FALSE -- Phase data not excluded
FALSE -- Auxillary Chn. data not excluded
Tab delimiters

#CALIBRATION STATE
TRUE -- Waveform Calibration Values APPLIED.


#AUX CALIBRATION VALUES
Val Type	aux-1	

Term	1.0000e+00	
Factor	0.0000e+00	


#WF CALIBRATION VALUES
A = Detector Channel
Val Type	A-AC1	A-AC2	A-AC3	A-AC4	A-AC5	A-AC6	A-AC7	A-AC8	A-AC9	A-AC10	A-AC11	A-AC12	A-AC13	A-AC14	A-AC15	A-AC16	A-DC1	A-DC2	A-DC3	A-DC4	A-DC5	A-DC6	A-DC7	A-DC8	A-DC9	A-DC10	A-DC11	A-DC12	A-DC13	A-DC14	A-DC15	A-DC16	A-Ph1	A-Ph2	A-Ph3	A-Ph4	A-Ph5	A-Ph6	A-Ph7	A-Ph8	A-Ph9	A-Ph10	A-Ph11	A-Ph12	A-Ph13	A-Ph14	A-Ph15	A-Ph16	

Term	0.00000e+00	0.00000e+00	0.00000e+00	0.00000e+00	0.00000e+00	0.00000e+00	0.00000e+00	0.00000e+00	0.00000e+00	0.00000e+00	0.00000e+00	0.00000e+00	0.00000e+00	0.00000e+00	0.00000e+00	0.00000e+00	0.00000e+00	0.00000e+00	0.00000e+00	0.00000e+00	0.00000e+00	0.00000e+00	0.00000e+00	0.00000e+00	0.00000e+00	0.00000e+00	0.00000e+00	0.00000e+00	0.00000e+00	0.00000e+00	0.00000e+00	0.00000e+00	0.00000e+00	0.00000e+00	0.00000e+00	0.00000e+00	0.00000e+00	0.00000e+00	0.00000e+00	0.00000e+00	0.00000e+00	0.00000e+00	0.00000e+00	0.00000e+00	0.00000e+00	0.00000e+00	0.00000e+00	0.00000e+00	
Factor	1.00000e+00	1.00000e+00	1.00000e+00	1.00000e+00	1.00000e+00	1.00000e+00	1.00000e+00	1.00000e+00	1.00000e+00	1.00000e+00	1.00000e+00	1.00000e+00	1.00000e+00	1.00000e+00	1.00000e+00	1.00000e+00	1.00000e+00	1.00000e+00	1.00000e+00	1.00000e+00	1.00000e+00	1.00000e+00	1.00000e+00	1.00000e+00	1.00000e+00	1.00000e+00	1.00000e+00	1.00000e+00	1.00000e+00	1.00000e+00	1.00000e+00	1.00000e+00	X	X	X	X	X	X	X	X	X	X	X	X	X	X	X	X	

B = Detector Channel
Val Type	B-AC1	B-AC2	B-AC3	B-AC4	B-AC5	B-AC6	B-AC7	B-AC8	B-AC9	B-AC10	B-AC11	B-AC12	B-AC13	B-AC14	B-AC15	B-AC16	B-DC1	B-DC2	B-DC3	B-DC4	B-DC5	B-DC6	B-DC7	B-DC8	B-DC9	B-DC10	B-DC11	B-DC12	B-DC13	B-DC14	B-DC15	B-DC16	B-Ph1	B-Ph2	B-Ph3	B-Ph4	B-Ph5	B-Ph6	B-Ph7	B-Ph8	B-Ph9	B-Ph10	B-Ph11	B-Ph12	B-Ph13	B-Ph14	B-Ph15	B-Ph16	

Term	0.00000e+00	0.00000e+00	0.00000e+00	0.00000e+00	0.00000e+00	0.00000e+00	0.00000e+00	0.00000e+00	0.00000e+00	0.00000e+00	0.00000e+00	0.00000e+00	0.00000e+00	0.00000e+00	0.00000e+00	0.00000e+00	0.00000e+00	0.00000e+00	0.00000e+00	0.00000e+00	0.00000e+00	0.00000e+00	0.00000e+00	0.00000e+00	0.00000e+00	0.00000e+00	0.00000e+00	0.00000e+00	0.00000e+00	0.00000e+00	0.00000e+00	0.00000e+00	-1.74148e+02	-1.27087e+02	-1.30125e+02	-1.81316e+02	-8.55190e+01	-6.66878e+01	-1.57075e+02	-1.62015e+02	-8.14386e+01	-6.69092e+01	-1.71893e+02	-1.70622e+02	-1.79843e+02	-1.76980e+02	-7.36244e+01	-1.49926e+02	
Factor	3.06324e-05	1.62235e-04	4.72445e-05	1.48920e-01	1.49831e-06	1.76165e-06	1.72106e-01	6.28372e-02	1.68338e-06	1.86821e-06	8.65051e-02	2.99025e-02	3.08083e-02	9.61349e-03	1.55958e-06	1.36815e-02	1.62461e-05	2.79970e-05	7.84780e-06	7.48325e-02	2.67660e-07	3.17064e-07	8.15900e-02	3.16269e-02	2.77634e-07	3.15248e-07	4.25007e-02	1.47081e-02	1.57617e-02	4.89367e-03	2.89544e-07	6.76532e-03	X	X	X	X	X	X	X	X	X	X	X	X	X	X	X	X	



#DISTANCE SETTINGS
A = Detector Channel
A-1	A-2	A-3	A-4	A-5	A-6	A-7	A-8	A-9	A-10	A-11	A-12	A-13	A-14	A-15	A-16	

2.5000e+00	3.0000e+00	2.5000e+00	3.0000e+00	2.0000e+00	3.0000e+00	1.5000e+00	3.0000e+00	3.0000e+00	3.0000e+00	3.0000e+00	3.0000e+00	3.0000e+00	3.0000e+00	1.5000e+00	3.0000e+00	

B = Detector Channel
B-1	B-2	B-3	B-4	B-5	B-6	B-7	B-8	B-9	B-10	B-11	B-12	B-13	B-14	B-15	B-16	

1.0000e+01	1.0000e+01	1.0000e+01	1.4400e+00	1.0000e+01	1.0000e+01	1.5100e+00	1.9400e+00	1.0000e+01	1.0000e+01	1.9900e+00	2.4900e+00	2.4100e+00	2.9000e+00	1.0000e+01	2.9800e+00	




#DATA BEGINS
time	group	step	mark	flag	A-AC1	A-AC2	A-AC3	A-AC4	A-AC5	A-AC6	A-AC7	A-AC8	A-AC9	A-AC10	A-AC11	A-AC12	A-AC13	A-AC14	A-AC15	A-AC16	A-DC1	A-DC2	A-DC3	A-DC4	A-DC5	A-DC6	A-DC7	A-DC8	A-DC9	A-DC10	A-DC11	A-DC12	A-DC13	A-DC14	A-DC15	A-DC16	A-Ph1	A-Ph2	A-Ph3	A-Ph4	A-Ph5	A-Ph6	A-Ph7	A-Ph8	A-Ph9	A-Ph10	A-Ph11	A-Ph12	A-Ph13	A-Ph14	A-Ph15	A-Ph16	B-AC1	B-AC2	B-AC3	B-AC4	B-AC5	B-AC6	B-AC7	B-AC8	B-AC9	B-AC10	B-AC11	B-AC12	B-AC13	B-AC14	B-AC15	B-AC16	B-DC1	B-DC2	B-DC3	B-DC4	B-DC5	B-DC6	B-DC7	B-DC8	B-DC9	B-DC10	B-DC11	B-DC12	B-DC13	B-DC14	B-DC15	B-DC16	B-Ph1	B-Ph2	B-Ph3	B-Ph4	B-Ph5	B-Ph6	B-Ph7	B-Ph8	B-Ph9	B-Ph10	B-Ph11	B-Ph12	B-Ph13	B-Ph14	B-Ph15	B-Ph16	aux-1	digaux	

28294.668	1	1	0	256	0.17883	0.13974	0.2926	0.15382	0.14994	0.071577	0.1447	0.25764	0.090125	0.085922	0.13928	0.17039	0.21876	0.16458	0.065922	0.54243	-1.75	-1.9292	-2.1604	-2.2958	-2.1792	-2.4771	-2.2438	-2.2604	-2.4146	-1.8625	-2.5396	-2.2229	-1.8875	-2.4646	-1.9937	-2.1875	358.957	177.516	453.415	507.596	391.918	249.686	512.199	464.658	510.583	192.597	363.434	485.046	518.743	429.829	502.580	491.093	0.0006928	0.00041406	0.0001286	949.58	3.375e-06	4.2808e-06	900.51	351.54	5.3394e-06	4.8333e-06	382.28	125.5	116.34	38.493	4.3056e-06	42.903	0.0003409	0.00068663	4.4651e-05	886.67	2.076e-06	1.6032e-06	842.27	329.47	2.1534e-06	1.747e-06	358.25	117.79	109.25	36.424	2.0202e-06	40.622	512.948	282.557	251.153	181.109	291.098	318.414	179.854	185.565	296.283	323.291	183.606	187.203	189.189	193.490	284.963	191.412	-8191	255	
28294.762	1	1	0	0	0.066822	0.18579	0.068249	0.11709	0.38153	0.15471	0.070704	0.039761	0.11571	0.24981	0.11212	0.20715	0.16882	0.042882	0.072317	0.26197	-1.8438	-1.8875	-2.2833	-2.1771	-1.9458	-2.4646	-2.0542	-2.3354	-2.4562	-1.9854	-2.4917	-2.2729	-2.0229	-2.4271	-2.0187	-2.2104	482.636	169.926	290.236	522.717	450.663	409.065	307.408	525.365	435.683	358.758	189.879	431.221	513.456	521.301	238.097	272.841	0.00069713	0.00075496	0.00011461	946.7	3.9321e-06	3.0793e-06	896.55	351.21	5.7551e-06	5.0646e-06	384.59	126.07	115.84	38.29	3.9533e-06	42.939	0.0003432	0.0012417	4.0547e-05	884.96	2.0944e-06	1.471e-06	840.01	329.55	2.1077e-06	1.8146e-06	359.54	117.98	109.43	36.349	1.981e-06	40.639	513.462	306.363	240.196	181.313	284.707	319.608	180.224	185.830	288.702	319.136	183.779	187.102	188.583	193.127	303.273	191.138	-8191	255	
28294.859	1	1	0	0	0.28732	0.24194	0.024873	0.20286	0.10664	0.051658	0.16515	0.18327	0.3271	0.098196	0.082105	0.15594	0.15836	0.30541	0.12452	0.19034	-1.9542	-1.8854	-2.0938	-2.5479	-2.0667	-2.5146	-2.4104	-2.0625	-2.4167	-1.8792	-2.2812	-2.3875	-2.0646	-2.3417	-2.1688	-2.1729	173.975	507.599	406.847	170.491	502.524	292.494	448.110	314.388	445.809	240.240	389.245	476.866	432.527	450.868	441.283	423.688	0.00066461	0.00034609	0.00011751	948.94	4.9258e-06	3.7604e-06	897.7	350.34	6.184e-06	5.6274e-06	384.46	125.99	116.35	38.307	4.869e-06	42.98	0.00032922	0.0006966	4.4226e-05	885.53	2.2099e-06	1.5239e-06	842.54	329.23	2.0695e-06	1.7831e-06	359.66	118.3	109.33	36.412	1.9852e-06	40.748	511.954	276.089	260.799	181.407	295.514	303.621	179.875	185.515	281.880	299.807	183.905	187.134	188.912	193.421	305.885	191.047	-8191	255	
28294.979	1	1	0	0	0.15258	0.072529	0.15027	0.030393	0.23236	0.152	0.1714	0.21494	0.089624	0.36098	0.15289	0.12737	0.14992	0.30819	0.082666	0.29631	-1.9688	-2.05	-2.0896	-2.625	-2.1333	-2.3667	-2.4125	-2.15	-2.2875	-1.9646	-2.1688	-2.5396	-2.15	-2.2979	-2.2188	-2.05	374.615	451.673	236.270	397.881	299.914	405.949	247.002	183.232	470.718	413.309	231.971	284.280	503.040	394.952	478.945	500.411	0.0006448	0.00041331	0.0001243	944.13	5.2055e-06	4.6428e-06	903.27	351.5	5.0618e-06	4.3364e-06	385.04	126.34	117.15	38.484	4.2655e-06	42.689	0.00032276	0.0012196	4.5288e-05	884.53	2.2617e-06	1.6686e-06	840.61	330.39	2.0279e-06	1.6971e-06	361.66	118.69	110.14	36.389	2.0027e-06	40.845	512.874	337.161	250.989	181.326	283.541	311.832	179.729	185.519	301.174	313.543	183.536	186.971	188.600	193.584	294.733	190.974	-8191	255	
28295.074	1	1	0	0	0.24119	0.21852	0.2086	0.09146	0.19031	0.14911	0.36017	0.24554	0.031447	0.27407	0.15293	0.008131	0.16805	0.17554	0.24773	0.22122	-1.9646	-2.1479	-2.1958	-2.3854	-1.9312	-2.2125	-2.2667	-2.0167	-2.525	-2.0292	-2.3125	-2.5792	-2.1521	-2.3604	-2.3187	-1.8479	517.950	524.982	446.360	501.628	431.845	228.667	488.039	526.815	227.139	410.171	328.239	248.557	523.120	190.298	196.574	520.472	0.00064771	0.00027595	0.00011837	947.21	4.3825e-06	4.8168e-06	901.45	353.54	6.103e-06	4.8832e-06	385.07	126.35	116.42	38.142	4.7857e-06	42.723	0.00032306	0.0006966	4.3441e-05	887.61	2.0967e-06	1.6818e-06	840.7	332.11	2.1146e-06	1.7463e-06	360.42	118.38	109.79	36.246	1.832e-06	40.577	511.206	330.425	250.279	181.236	286.510	307.477	179.816	185.395	280.870	305.697	183.802	186.990	188.803	193.726	297.656	191.170	-8191	255	
28295.172	1	1	0	0	0.20747	0.40516	0.1587	0.35057	0.26306	0.16583	0.1737	0.19888	0.2932	0.24019	0.24923	0.012446	0.43858	0.22582	0.016788	0.096244	-1.8417	-2.2667	-1.9521	-2.6562	-2.0833	-2.2021	-2.3021	-1.9104	-2.3854	-2.2604	-2.0333	-2.4875	-2.1292	-2.4208	-2.2042	-2.0083	169.631	429.665	233.108	470.088	499.676	296.525	481.503	476.509	255.967	436.196	420.910	452.492	207.747	385.931	224.529	447.015	0.00070496	0.00064376	6.3796e-05	947.92	4.8983e-06	3.4053e-06	898.25	352.28	5.8557e-06	4.6654e-06	383.42	126.33	116.56	37.883	3.2615e-06	42.443	0.00035809	0.0008962	8.335e-05	885.64	2.1998e-06	1.6415e-06	838.88	330.28	2.0528e-06	1.6872e-06	359.64	118.03	109.37	36.038	1.8006e-06	40.464	513.497	293.164	229.823	181.370	299.946	319.067	180.137	185.286	269.105	321.582	183.811	186.939	188.803	193.507	314.557	191.451	-8191	255	
28295.268	1	1	0	0	0.14368	0.21732	0.16447	0.32681	0.24727	0.25508	0.13033	0.14755	0.25552	0.08348	0.1352	0.17479	0.2748	0.29625	0.28831	0.28869	-1.8354	-2.2896	-1.9979	-2.4833	-2.0125	-2.0563	-2.3979	-2.0167	-2.4604	-2.2583	-2.1063	-2.2667	-2.1646	-2.2917	-2.4854	-2.1646	209.645	314.620	346.456	492.003	400.264	497.844	513.926	198.167	293.537	516.047	446.858	216.929	204.661	489.544	400.641	440.402	0.00071265	0.00049518	6.7982e-05	950.39	3.9568e-06	4.306e-06	896.7	351.67	5.2405e-06	5.6389e-06	384.11	126.31	116.06	37.858	5.3096e-06	42.846	0.00034696	0.00023471	0.00015243	884.41	2.1831e-06	1.6626e-06	838.5	330.23	2.1968e-06	1.6682e-06	360.5	118.29	109.36	36.097	1.9532e-06	40.623	511.461	288.782	196.315	181.510	277.803	297.886	179.923	185.537	286.776	319.054	183.657	187.101	188.813	193.363	300.660	191.361	-8191	255	
28295.340	1	1	0	0	0.040454	0.056476	0.36949	0.21908	0.061697	0.092606	0.19645	0.34316	0.1718	0.12955	0.42112	0.076243	0.37152	0.20029	0.22556	0.067012	-1.8479	-2.1375	-1.9583	-2.4437	-2.1167	-2.0875	-2.4396	-2.1646	-2.2792	-2.4167	-2.0875	-2.5062	-2.0729	-2.0667	-2.4562	-1.9854	175.815	301.940	301.994	397.253	462.293	463.706	423.609	510.314	407.860	229.808	465.572	378.152	487.968	289.636	282.585	416.341	0.00072593	0.00042397	6.6881e-05	952.69	4.7806e-06	4.9195e-06	905.83	354.5	5.448e-06	5.2625e-06	387.77	126.93	116.64	38.252	4.4162e-06	42.823	0.00034743	0.00014751	0.00033409	888.45	2.105e-06	1.6567e-06	842.44	332.23	2.0348e-06	1.6839e-06	363.94	119.08	109.96	36.323	2.0166e-06	40.77	514.944	271.522	371.226	181.332	281.336	310.525	180.037	185.111	275.754	320.778	183.895	186.908	189.092	193.565	297.398	191.182	-8191	255	
28295.461	1	1	0	0	0.098456	0.19058	0.21147	0.34524	0.14171	0.26356	0.20144	0.35207	0.071164	0.15507	0.35151	0.21929	0.15037	0.23603	0.19229	0.22918	-1.6708	-2.2812	-1.9646	-2.4146	-1.9479	-2.0187	-2.5021	-1.9188	-2.0521	-2.3542	-2.0583	-2.3417	-2.2521	-2.0312	-2.4583	-1.9583	217.622	262.741	243.514	406.498	435.119	315.479	171.005	450.742	520.609	431.866	481.614	515.108	316.603	412.225	395.414	358.240	0.00066801	0.00047971	6.983e-05	953.83	4.9566e-06	4.1954e-06	896.63	354.65	5.2208e-06	4.859e-06	387.96	127.19	116.1	38.3	4.1862e-06	42.74	0.00034337	0.00015882	0.00019598	889.58	1.8853e-06	1.7452e-06	841.23	333.03	2.1794e-06	1.4226e-06	362.77	118.86	109.41	36.346	1.8332e-06	40.668	513.059	256.968	280.362	181.460	287.672	313.735	180.151	185.652	283.098	306.986	183.892	187.046	189.002	193.582	305.578	191.103	-8191	255	
28295.557	1	1	0	0	0.089658	0.17588	0.10364	0.17538	0.10843	0.057997	0.086688	0.26061	0.23563	0.069658	0.11025	0.1684	0.25104	0.14208	0.24542	0.28209	-1.5417	-2.4271	-1.9854	-2.275	-2.3271	-2.1188	-2.4917	-2.1979	-2.1167	-2.4062	-2.0292	-2.4979	-2.4125	-2.0208	-2.5458	-2.1917	513.115	253.062	289.894	225.755	399.030	168.338	215.002	456.060	314.008	384.039	522.925	504.050	189.801	504.183	298.637	182.707	0.00069186	0.0004591	4.7304e-05	947.53	5.702e-06	5.1541e-06	895.47	351.7	4.6296e-06	6.1148e-06	386.44	126.19	116.59	38.09	4.7239e-06	42.546	0.00035379	0.00016069	0.00033942	885.96	2.0716e-06	1.8007e-06	838.7	330.09	2.1493e-06	1.5473e-06	361.69	118.48	109.27	36.461	1.8651e-06	40.774	513.149	258.497	319.264	181.491	294.131	323.034	179.790	185.443	276.636	320.479	183.728	186.850	188.957	193.554	298.764	191.508	-8191	255	
28295.652	1	1	0	0	0.28115	0.10824	0.06833	0.16498	0.12589	0.10871	0.17359	0.23758	0.18498	0.28257	0.30428	0.12261	0.15728	0.12253	0.14925	0.11743	-1.6437	-2.3771	-2.1208	-2.35	-2.3333	-2.0042	-2.3917	-2.3417	-1.9646	-2.5167	-2.3083	-2.3125	-2.3625	-2.0521	-2.3063	-2.4625	249.323	211.740	349.636	238.451	220.945	407.245	474.073	391.969	280.711	425.137	454.991	524.484	457.108	371.121	334.650	504.389	0.00067031	0.00044197	0.00010587	944.38	4.499e-06	6.6606e-06	899.13	352.85	1.1134e-05	5.6687e-06	384.54	126.65	116.31	38.236	4.55e-06	43.177	0.00034191	0.00014745	0.00018303	886.06	1.969e-06	1.9513e-06	840.48	331.74	4.5908e-06	1.3976e-06	361.7	118.73	109.32	36.429	1.8483e-06	40.977	512.579	264.865	302.527	181.487	289.975	313.183	179.884	185.582	260.065	323.409	183.497	186.983	188.634	193.600	300.776	190.960	-8191	255	
28295.771	1	1	0	0	0.098187	0.033455	0.23194	0.17877	0.17754	0.10568	0.31135	0.045467	0.15806	0.13993	0.3074	0.041081	0.2568	0.19095	0.043888	0.099269	-1.5938	-2.2896	-2.0208	-2.3104	-2.325	-1.7354	-2.4	-2.3729	-1.9062	-2.4104	-2.2729	-2.0583	-2.2687	-2.0563	-2.3292	-2.4167	323.207	370.787	185.761	251.116	189.286	369.517	422.030	455.174	360.447	227.944	468.963	169.438	461.076	496.542	355.359	404.715	0.00066888	0.00042634	4.1676e-05	945.89	3.5908e-06	4.3066e-06	905.79	353.59	9.4094e-06	4.9576e-06	386.11	127.37	116.13	38.201	5.1555e-06	43.127	0.00034652	0.00014547	0.00033286	886.75	1.9182e-06	1.7749e-06	843.96	331.14	6.5944e-06	1.4639e-06	363.47	119.2	109.48	36.483	1.9194e-06	41.055	512.154	259.251	389.379	181.384	285.821	310.562	180.068	185.492	269.634	306.944	183.707	187.204	188.658	193.531	307.689	191.349	-8191	255	
28295.867	1	1	0	0	0.040045	0.18081	0.21504	0.30631	0.11015	0.29752	0.29931	0.16812	0.16172	0.23034	0.15027	0.25023	0.1924	0.089113	0.069502	0.12277	-1.5438	-2.4188	-2.0375	-2.2354	-2.3063	-1.7896	-2.3854	-2.3271	-1.9688	-2.4146	-2.3479	-2.1875	-2.5729	-2.1396	-2.1417	-2.3312	300.883	341.600	480.772	493.494	292.978	340.598	377.899	200.340	198.956	196.123	435.962	179.923	465.240	252.450	466.803	253.696	0.00069241	0.00043571	5.5575e-05	950.74	4.4062e-06	4.3529e-06	904.81	355.39	1.1863e-05	5.097e-06	388.22	127.44	116.8	38.369	3.4973e-06	42.993	0.00034608	0.00015871	0.00019139	888.75	1.9355e-06	1.7386e-06	844.48	332.18	1.2063e-05	1.5408e-06	363.1	119.25	109.64	36.485	1.8066e-06	40.867	511.974	267.773	258.102	181.391	297.331	323.090	180.160	185.585	269.712	310.551	183.916	187.218	188.526	193.474	298.168	191.443	-8191	255	
28295.941	1	1	0	0	0.082856	0.10922	0.18825	0.076015	0.15196	0.28539	0.13302	0.16043	0.11991	0.11555	0.25641	0.18397	0.2259	0.2347	0.13002	0.12477	-1.5146	-2.5104	-2.25	-2.0396	-2.3688	-2.0396	-2.2417	-2.3708	-1.8771	-2.3021	-2.2542	-2.1667	-2.5292	-2.2229	-2.0563	-2.4604	483.071	198.633	250.269	374.571	429.332	290.014	359.944	458.900	273.436	451.607	470.027	494.606	447.622	454.763	260.333	191.547	0.0006904	0.00047674	0.00010466	950.24	3.6741e-06	4.5698e-06	892.99	351.64	6.8887e-06	4.3971e-06	384.77	126.03	116.32	38.452	4.8249e-06	43.102	0.00034641	0.00016162	0.00021532	886.48	1.9539e-06	1.7544e-06	836.42	329.53	6.85e-06	1.4561e-06	360.52	118.26	108.99	36.558	2.0515e-06	40.952	511.734	250.640	308.054	181.555	287.964	322.444	180.208	185.239	284.522	305.899	183.846	187.037	188.899	193.506	309.327	191.395	-8191	255	
28296.061	1	1	0	0	0.03761	0.17347	0.17094	0.19173	0.096076	0.20529	0.16932	0.1549	0.13216	0.018044	0.31751	0.2119	0.093285	0.046845	0.22442	0.12184	-1.3813	-2.3417	-2.3604	-2.1833	-2.3583	-2.1271	-2.2208	-2.5417	-1.9375	-2.3229	-2.2396	-2.1521	-2.3875	-2.1604	-2.0583	-2.3688	202.165	276.807	347.311	446.275	284.420	223.743	381.491	462.164	295.862	252.724	472.593	501.021	524.468	222.643	305.611	211.744	0.00072219	0.00039549	0.0001104	948.11	3.0118e-06	5.6427e-06	898.26	351.74	1.191e-05	4.5831e-06	385.01	125.97	116.67	38.247	3.75e-06	42.964	0.00036114	0.00014809	4.0531e-05	886.34	1.8201e-06	1.8429e-06	837.99	329.51	1.1998e-05	1.5165e-06	361.44	118.18	109.25	36.35	1.9876e-06	40.865	511.769	245.486	255.953	181.479	276.291	321.878	180.380	185.686	267.467	311.552	183.699	186.881	188.701	193.439	285.988	191.145	-8191	255	
28296.156	1	1	0	0	0.14268	0.24826	0.10477	0.2339	0.18506	0.25726	0.14144	0.23554	0.10028	0.095718	0.16719	0.18273	0.076262	0.21387	0.17886	0.20437	-1.7396	-2.0583	-2.2146	-2.1437	-2.3021	-2.1604	-2.2125	-2.5083	-2.0208	-2.4188	-2.3479	-1.9813	-2.4667	-2.3958	-2.0479	-2.4729	176.689	291.303	434.196	493.221	317.950	214.493	469.019	448.031	456.337	322.406	285.934	387.819	462.166	186.764	519.830	525.715	0.00068369	0.00041793	0.00013532	951.24	4.3635e-06	5.1109e-06	899.68	352.65	7.4339e-06	5.1014e-06	386.8	127.46	116.24	37.905	4.1175e-06	42.962	0.00035474	0.00014745	4.349e-05	890.17	1.8552e-06	1.6032e-06	840.23	330.5	7.4331e-06	1.6531e-06	362.16	119.07	108.99	36.268	5.1919e-06	40.892	513.498	254.292	247.387	181.635	285.010	311.915	180.001	185.665	291.079	313.779	183.403	186.881	189.209	193.850	303.767	191.290	-8191	255	
28296.252	1	1	0	0	0.23661	0.14592	0.18303	0.066373	0.29472	0.10837	0.17599	0.38192	0.50254	0.14578	0.24527	0.090244	0.15547	0.086501	0.12828	0.14143	-1.6708	-2.2458	-2.4125	-2.0875	-2.2771	-2.0875	-1.9458	-2.4	-2.0354	-2.1542	-2.5146	-1.9208	-2.4875	-2.2104	-1.8083	-2.2854	403.147	287.465	423.364	225.243	227.077	244.922	209.243	458.705	521.487	175.336	363.231	392.539	403.963	501.788	295.731	468.613	0.00066807	0.00052181	0.00014101	945.93	4.5781e-06	5.0619e-06	898.16	352.48	1.1341e-05	4.3502e-06	388.7	127.36	116.29	38.189	1.5184e-06	42.991	0.00033941	0.00016396	4.3931e-05	885.89	2.0125e-06	1.7221e-06	840.91	330.51	1.1944e-05	1.7319e-06	363.23	119.49	109.36	36.274	6.9213e-06	40.98	513.226	263.092	259.151	181.474	290.040	326.003	179.841	185.541	277.620	316.043	183.995	186.992	188.610	193.374	264.968	191.302	-8191	255	
28296.371	1	1	0	0	0.28327	0.16882	0.1258	0.158	0.39451	0.1886	0.15106	0.10866	0.27174	0.1772	0.40573	0.11947	0.14062	0.092232	0.15063	0.16996	-1.6562	-2.0979	-2.25	-1.9167	-2.2687	-2.2958	-2.0292	-2.4542	-2.1458	-1.9875	-2.5771	-1.9625	-2.2333	-2.1688	-1.975	-2.3083	497.161	406.536	515.750	249.666	469.166	375.285	402.519	232.091	260.350	509.795	477.656	422.806	204.947	308.939	409.264	493.668	0.0007015	0.00044216	0.00014609	946.61	4.2061e-06	5.9334e-06	895.24	351.66	8.6124e-06	5.0177e-06	384.49	126.14	116.18	38.209	4.7849e-06	42.678	0.0003566	0.00015398	4.21e-05	887.15	1.94e-06	1.66e-06	838.79	330.12	6.9628e-06	1.6065e-06	361.35	118.54	108.99	36.271	1.2297e-05	40.669	515.094	252.966	247.744	181.651	289.435	319.871	180.229	185.461	286.683	327.731	183.784	187.139	188.548	193.807	375.545	190.902	-8191	255	
28296.469	1	1	0	0	0.22374	0.051178	0.018857	0.19272	0.094953	0.063164	0.096178	0.12193	0.32924	0.19493	0.19627	0.11665	0.051489	0.098777	0.12966	0.30469	-1.6479	-2.1042	-2.2271	-2.0854	-2.1646	-2.4021	-1.9312	-2.2271	-2.0479	-2.1375	-2.4917	-2.0146	-2.1667	-2.5604	-1.9146	-2.425	402.893	405.499	346.157	454.964	366.643	367.404	499.255	503.865	443.402	491.347	473.204	219.096	300.882	271.690	379.540	492.762	0.0006979	0.00055192	9.4994e-05	947.06	4.5266e-06	4.592e-06	892.16	352.46	1.0033e-05	7.2094e-06	383.36	126.93	115.93	38.17	2.5001e-06	42.907	0.00035278	0.00016092	3.5953e-05	884.47	1.9857e-06	1.4644e-06	836.48	329.39	7.1583e-06	5.5871e-06	359.99	118.71	109.04	36.238	7.3623e-06	40.836	512.711	265.125	240.114	181.572	285.691	320.734	179.953	185.459	309.334	290.166	183.911	186.901	188.926	193.521	370.092	191.123	-8191	255	
28296.564	1	1	0	0	0.22849	0.19047	0.16591	0.27923	0.083126	0.21666	0.14728	0.30299	0.10369	0.077785	0.13549	0.10864	0.31907	0.17641	0.14009	0.30003	-1.6938	-1.9667	-2.2542	-2.1792	-2.1375	-2.3208	-2.075	-2.3583	-2.3667	-2.2146	-2.3521	-2.1896	-2.2146	-2.4271	-2.0563	-2.3729	321.297	504.758	229.933	518.204	201.918	389.221	474.793	175.438	259.746	325.852	226.067	367.212	440.888	436.073	449.371	461.953	0.00068519	0.00044654	0.00013446	947.58	5.5855e-06	4.9536e-06	899.95	354.62	5.6754e-06	5.3704e-06	388.6	127.26	116.73	38.191	1.2324e-06	43.188	0.00033552	0.00017615	3.7931e-05	888.25	2.0192e-06	1.5681e-06	841.81	331.25	2.1418e-06	7.185e-06	362.49	119.44	109.66	36.275	1.2046e-05	40.906	512.109	258.463	259.487	181.482	293.171	316.286	179.793	185.549	292.206	296.321	183.991	187.012	188.818	193.281	318.635	191.063	-8191	255	
28296.637	1	1	0	0	0.17053	0.092862	0.2061	0.17948	0.19479	0.11788	0.2755	0.19684	0.11879	0.19463	0.11383	0.31699	0.12304	0.13902	0.23027	0.185	-1.9479	-1.9458	-2.3229	-2.1604	-2.0312	-2.5042	-2.25	-2.4813	-2.1333	-2.0438	-2.3979	-2.275	-2.1646	-2.5	-1.7563	-2.1958	485.167	455.590	507.632	201.259	408.777	360.449	412.631	443.032	387.242	177.887	468.277	447.666	333.599	478.660	259.623	490.329	0.0006995	0.00049229	0.00015309	948.03	4.0659e-06	4.1245e-06	904.15	353.39	6.7024e-06	1.1682e-05	389.37	127.08	116.19	38.375	3.185e-06	43.115	0.00034367	0.00015818	4.2182e-05	887.8	2.095e-06	1.512e-06	844.65	331.93	2.1256e-06	1.3036e-05	364.78	119.25	109.24	36.295	7.472e-06	40.974	511.564	251.278	251.775	181.423	294.589	304.964	180.058	185.515	289.978	320.469	183.783	186.548	188.780	193.485	342.945	191.188	-8191	255	
28296.756	1	1	0	0	0.045561	0.1104	0.10927	0.18009	0.2057	0.1035	0.23104	0.33517	0.18682	0.076773	0.17172	0.20855	0.21585	0.27433	0.022154	0.15983	-1.7083	-1.7729	-2.3771	-2.3333	-2.1229	-2.3688	-2.2833	-2.3771	-2.4354	-1.8417	-2.7479	-2.1417	-2.0812	-2.4104	-2.0833	-2.3208	446.880	335.050	231.086	192.444	298.299	527.279	403.841	484.750	496.975	253.894	520.327	378.683	341.033	489.323	361.245	489.472	0.00070809	0.00045201	0.00013312	947.34	5.8575e-06	5.0355e-06	900.86	355.25	4.9454e-06	7.8581e-06	389.63	127.06	116.69	38.45	1.9021e-06	42.921	0.00034127	0.00018081	4.4128e-05	888.26	5.6939e-06	1.6051e-06	842.14	332.78	2.1268e-06	7.3085e-06	365.13	119.24	109.75	36.293	1.2458e-05	40.793	511.921	256.648	245.726	181.403	225.727	308.788	179.787	185.413	284.115	331.460	183.453	186.762	188.920	193.243	373.236	191.245	-8191	255	
28296.852	1	1	0	0	0.2322	0.20722	0.21948	0.33556	0.066901	0.17462	0.12722	0.15597	0.14264	0.16872	0.21979	0.48064	0.18569	0.13164	0.05902	0.096927	-1.9708	-1.8896	-2.4271	-2.4375	-2.2125	-2.4271	-2.3375	-2.2583	-2.4229	-2.0833	-2.1417	-2.4208	-1.95	-2.5438	-2.3958	-2.3438	452.800	316.422	476.198	174.412	357.211	268.556	408.755	515.415	284.542	381.840	487.058	494.979	199.109	519.314	211.328	504.071	0.0007032	0.00060639	0.00015313	950.97	4.4881e-06	3.9574e-06	900.98	355.11	5.9594e-06	1.041e-05	391.44	127.73	116.69	38.15	3.1638e-06	42.807	0.00033714	0.00018554	4.1953e-05	886.68	6.7422e-06	1.4829e-06	843.88	333.46	2.0123e-06	1.2983e-05	365.88	119.54	109.99	36.237	6.9979e-06	40.804	513.574	262.008	254.277	181.423	263.963	320.707	180.154	185.545	278.388	326.465	183.840	187.029	188.863	193.432	294.186	191.062	-8191	255	
28296.947	1	1	0	0	0.049905	0.50027	0.32883	0.37056	0.088768	0.15359	0.21238	0.17083	0.10231	0.14336	0.36721	0.097968	0.097165	0.18215	0.31807	0.30712	-2.1688	-1.9937	-2.2708	-2.6208	-1.8792	-2.3771	-2.1708	-2.1729	-2.5229	-2.1312	-2.4625	-2.4479	-2.1521	-2.4375	-2.1146	-2.0458	452.148	478.888	216.615	490.842	242.292	497.186	421.146	468.694	350.491	340.043	430.712	252.680	475.115	447.515	443.388	444.806	0.00068028	0.00053021	0.00013863	948.79	9.3932e-06	4.3992e-06	904.81	358.52	6.5546e-06	6.4456e-06	389.29	127.53	117.04	38.209	5.0521e-06	42.983	0.00033623	0.00017761	4.3506e-05	889	1.1496e-05	1.5886e-06	843.67	335.9	2.1424e-06	7.4622e-06	365.41	119.43	110.21	36.295	6.1407e-06	40.926	511.579	244.766	249.477	181.373	230.417	317.280	180.138	185.354	287.138	350.339	183.503	186.982	188.515	192.829	368.832	190.983	-8191	255	
28297.045	1	1	0	0	0.38326	0.3656	0.25296	0.24886	0.19755	0.16604	0.24014	0.25779	0.12251	0.114	0.17216	0.26377	0.31677	0.20312	0.12369	0.32438	-1.9125	-2.15	-2.2729	-2.5125	-1.9292	-2.3917	-2.5396	-2.1104	-2.4125	-2.0083	-2.1375	-2.3917	-1.9896	-2.375	-2.1937	-2.1917	301.036	471.159	244.293	467.417	394.186	517.610	429.959	503.078	227.884	168.287	502.990	169.165	499.531	472.924	491.485	487.385	0.00063777	0.00049159	0.00012686	955.13	6.8646e-06	4.5691e-06	900.03	358.09	5.9831e-06	1.2195e-05	392.09	127.63	117.06	38.076	4.7043e-06	42.902	0.00031677	0.00016973	4.1757e-05	891.94	6.808e-06	1.5886e-06	844.74	336.13	1.9053e-06	1.3179e-05	367.23	119.34	109.95	36.152	1.7903e-06	40.712	511.493	258.457	255.431	181.661	267.317	328.724	179.871	185.566	284.021	331.085	183.735	187.181	188.653	193.520	319.900	191.365	-8191	255	
28297.164	1	1	0	0	0.20215	0.17888	0.48106	0.19707	0.30081	0.13972	0.1207	0.085246	0.38305	0.22777	0.39898	0.047903	0.25284	0.37815	0.13937	0.054855	-1.8896	-2.1063	-1.9917	-2.4292	-1.9625	-2.1792	-2.3646	-1.9813	-2.2917	-2.0812	-2.2375	-2.65	-2.1729	-2.3667	-2.3646	-2.0438	353.486	514.540	515.380	196.525	438.365	334.320	433.146	453.720	224.299	181.158	193.657	479.185	502.326	506.603	364.332	411.926	0.00067144	0.00043882	0.00015842	954.2	7.2454e-06	3.5309e-06	906.51	356.72	6.157e-06	7.1272e-06	391.83	127.31	116.87	38.014	4.013e-06	42.524	0.00034039	0.00017743	4.6727e-05	891.92	1.1801e-05	1.51e-06	846.43	334.69	2.0701e-06	6.9919e-06	366.35	119.45	109.85	36.194	1.847e-06	40.914	517.254	250.609	261.883	181.543	262.401	311.963	180.077	185.564	286.285	334.507	183.719	187.372	188.626	193.575	303.040	191.078	-8191	255	
28297.236	1	1	0	0	0.17397	0.15456	0.15264	0.26839	0.2356	0.12932	0.032467	0.16919	0.10473	0.16622	0.21694	0.15512	0.0040579	0.24314	0.21047	0.18411	-1.7646	-1.9375	-2.1021	-2.2917	-1.9854	-2.45	-2.3396	-1.9979	-2.3875	-2.1167	-2.35	-2.4792	-2.0271	-2.4313	-2.4437	-2.0687	265.518	467.946	432.593	447.232	254.271	232.954	182.238	478.005	270.786	339.082	444.402	495.043	221.043	244.291	221.106	286.859	0.00067291	0.00049771	0.00012284	952.18	6.1438e-06	4.3109e-06	900.84	356.71	6.1247e-06	1.1631e-05	386.78	127.29	116.85	38.309	3.7948e-06	42.64	0.00032807	0.00016699	3.9533e-05	886.45	6.6279e-06	1.5563e-06	840.61	333.47	2.1251e-06	5.8111e-06	364.19	118.9	109.79	36.419	1.8211e-06	40.852	513.819	259.577	252.702	181.463	267.348	314.334	180.026	185.515	275.718	353.385	183.825	187.241	188.539	193.573	301.697	190.950	-8191	255	
28297.332	1	1	0	0	0.18194	0.23394	0.24578	0.23715	0.12588	0.16412	0.16456	0.20594	0.12417	0.18144	0.20603	0.09909	0.16467	0.17321	0.11583	0.40212	-1.7625	-2.2313	-1.7667	-2.5583	-2.0438	-2.1875	-2.4313	-1.9167	-2.2417	-2.1729	-1.8625	-2.5167	-2.15	-2.2	-2.4229	-2.1562	426.924	221.585	281.568	181.410	206.067	295.118	460.986	169.644	182.763	495.647	461.744	311.311	486.679	448.053	390.975	466.842	0.00069607	0.00035899	0.00013044	947.83	8.4316e-06	4.9678e-06	893.18	352.81	5.2618e-06	5.8336e-06	387.11	127.32	117.04	38.431	5.7725e-06	43.321	0.00034117	0.00014069	4.5877e-05	885.48	1.1432e-05	1.5615e-06	836.49	330.97	2.1297e-06	1.4587e-06	363.35	119.39	109.51	36.557	1.8078e-06	41.275	514.651	247.536	260.680	181.560	254.703	319.196	180.300	185.631	283.153	333.128	183.603	187.114	188.958	193.836	300.328	191.381	-8191	255	
28297.453	1	1	0	0	0.099038	0.11158	0.11943	0.21623	0.186	0.20652	0.18167	0.27999	0.2154	0.10667	0.21875	0.3155	0.084069	0.12103	0.157	0.11865	-1.8167	-2.2583	-2.0187	-2.2396	-2.0729	-2.0729	-2.5229	-1.9125	-2.1458	-2.3417	-2.1854	-2.5021	-2.2542	-2.1063	-2.3375	-1.8604	173.728	261.667	182.710	447.605	510.633	277.706	413.893	501.198	220.898	444.712	220.386	479.577	257.624	236.812	463.304	509.827	0.00068617	0.00042242	0.00013043	941.8	4.122e-06	4.4497e-06	897.46	355.34	6.2078e-06	4.1821e-06	389.23	126.54	116.13	38.69	4.6346e-06	43.293	0.00033142	0.0001464	4.3424e-05	881.13	6.2002e-06	1.4948e-06	837.81	331.45	2.003e-06	1.4941e-06	365.32	119.29	109.41	36.584	1.8362e-06	41.247	513.990	255.980	264.202	181.319	298.926	311.065	180.392	185.684	293.283	337.609	183.849	186.900	188.822	193.414	300.643	190.833	-8191	255	
28297.549	1	1	0	0	0.21216	0.086718	0.11535	0.21524	0.16234	0.24404	0.1289	0.17191	0.034544	0.21457	0.14014	0.14965	0.24924	0.063716	0.169	0.23598	-1.7458	-2.3708	-2.0083	-2.4104	-2.0938	-1.9458	-2.4521	-2.1604	-2.2562	-2.3021	-2.0396	-2.4417	-2.4146	-1.9021	-2.4729	-2.1667	440.603	478.554	498.602	459.286	451.523	413.143	179.467	521.679	466.262	256.816	481.222	525.730	503.724	189.601	298.307	426.077	0.00073869	0.00056686	0.00013204	941.3	6.6471e-06	7.9596e-06	891.63	352.7	5.7947e-06	5.89e-06	387.75	128.27	116.97	38.351	5.3253e-06	43.316	0.00036046	0.00015422	4.555e-05	881.64	4.8954e-06	7.2225e-06	837.82	330.78	1.9631e-06	1.481e-06	364.72	119.61	109.67	36.561	1.952e-06	41.517	511.159	263.484	263.512	181.466	294.177	273.932	180.081	185.590	283.433	322.554	184.035	187.020	188.767	193.484	297.522	191.137	-8191	255	
28297.645	1	1	0	0	0.11582	0.096072	0.25431	0.23294	0.15596	0.099358	0.43405	0.40603	0.11268	0.27934	0.30094	0.14408	0.24416	0.24412	0.20618	0.29797	-1.8021	-2.3979	-1.8771	-2.4313	-2.2562	-1.8312	-2.6	-2.4562	-2.2792	-2.45	-2.1437	-2.45	-2.3917	-2.0083	-2.5312	-2.2521	233.816	196.215	276.238	522.553	409.357	481.982	482.775	476.462	265.862	422.456	309.052	425.079	472.625	214.506	330.699	418.173	0.00065168	0.00039306	0.00012667	938.98	3.9753e-06	8.2082e-06	889.23	350.5	5.8395e-06	5.2314e-06	384.21	127.27	115.56	38.448	4.5657e-06	43.182	0.00033484	0.00014891	4.4716e-05	878.04	1.8675e-06	7.0375e-06	832.74	328.64	2.1152e-06	1.5454e-06	362.31	118.75	108.48	36.383	1.9924e-06	41.161	511.512	268.457	267.906	181.460	296.037	289.304	180.071	185.639	281.127	293.768	183.718	187.270	189.072	193.440	298.633	191.015	-8191	255	
28297.740	1	1	0	0	0.1514	0.29216	0.15739	0.19089	0.28494	0.20395	0.12446	0.10459	0.15647	0.21812	0.095417	0.17524	0.20843	0.090606	0.21856	0.11193	-1.8062	-2.5021	-2.15	-2.3438	-2.4062	-2.1208	-2.5646	-2.2604	-2.15	-2.5771	-2.2333	-2.3979	-2.4562	-2.0312	-2.2875	-2.2625	260.486	293.490	437.390	510.122	438.222	240.353	261.207	426.202	259.181	500.120	503.174	182.844	204.342	254.909	445.634	203.713	0.00067337	0.00044974	0.00011621	942.34	3.9967e-06	1.0361e-05	891.51	350.08	6.7172e-06	3.9282e-06	385.22	125.92	115.77	38.098	4.77e-06	42.961	0.00033992	0.00014728	4.2313e-05	878.24	1.8614e-06	1.2158e-05	833.19	328.23	2.1702e-06	1.37e-06	361.96	118.56	108.73	36.248	1.9104e-06	40.894	513.371	257.388	259.514	181.420	290.736	290.116	179.986	185.447	279.303	323.544	183.613	187.088	188.576	193.441	304.030	191.245	-8191	255	
28297.836	1	1	0	0	0.1144	0.24727	0.25083	0.41145	0.24481	0.1309	0.2423	0.24337	0.097457	0.26065	0.06903	0.20256	0.14605	0.36847	0.23921	0.16813	-1.7042	-2.4813	-2.0271	-2.1875	-2.4667	-1.9125	-2.5104	-2.175	-1.9479	-2.4146	-2.175	-2.4271	-2.1896	-2.0458	-2.3438	-2.3021	255.702	189.903	500.809	511.995	440.085	390.738	495.160	522.187	466.589	351.862	398.004	173.547	439.659	418.706	264.119	526.045	0.00074507	0.00041726	0.00013089	939.47	4.9919e-06	9.6067e-06	888.29	349.09	6.6286e-06	4.7594e-06	387.04	126.64	115.65	38.227	4.5168e-06	43.19	0.00065292	0.00013724	4.2885e-05	877.04	1.9667e-06	7.311e-06	830.32	327.25	2.3287e-06	1.4232e-06	362.77	118.57	108.8	36.28	1.8326e-06	40.918	509.563	250.025	254.482	181.352	286.369	301.733	180.263	185.591	294.762	317.431	183.502	186.836	188.448	193.603	311.201	191.085	-8191	255	
28297.932	1	1	0	0	0.17312	0.22399	0.17937	0.32284	0.055697	0.25554	0.21715	0.27587	0.12703	0.13253	0.16591	0.072491	0.22481	0.34442	0.16963	0.099226	-1.4792	-2.5167	-2.1063	-2.1437	-2.2417	-2.0438	-2.3208	-2.2188	-1.9188	-2.3479	-2.1583	-2.2938	-2.5896	-2.0104	-2.4021	-2.4271	499.811	285.562	178.218	483.612	272.235	498.115	439.232	469.464	368.457	475.432	436.287	306.294	414.575	476.253	349.883	429.398	0.00065431	0.0004311	0.00013383	939.14	4.0291e-06	8.0545e-06	893.38	349.37	6.5558e-06	4.8351e-06	387.03	126.53	116.22	38.348	4.7784e-06	43.34	0.00062446	0.00013853	4.694e-05	877.01	1.9004e-06	1.2642e-05	833.24	327.88	2.3032e-06	1.4396e-06	361.68	118.91	108.83	36.434	2.0244e-06	41.101	510.327	266.311	247.677	181.590	287.686	301.261	180.104	185.501	282.288	321.512	183.778	187.243	188.895	193.609	309.514	190.993	-8191	255	
28298.053	1	1	0	0	0.1309	0.21967	0.1672	0.27508	0.21023	0.19646	0.096183	0.31711	0.10857	0.11242	0.41785	0.092387	0.21852	0.12598	0.29988	0.30538	-1.4458	-2.4146	-2.0771	-2.2833	-2.3271	-2.0479	-2.3708	-2.5438	-1.9937	-2.4979	-2.2729	-2.0687	-2.3854	-2.2667	-2.3833	-2.3563	411.258	325.283	418.724	193.744	488.533	499.780	383.618	461.810	453.358	181.827	511.651	206.474	525.704	449.107	476.184	496.348	0.00073911	0.00039217	0.00016386	937.17	5.6701e-06	5.7667e-06	893.18	352.38	5.0586e-06	5.1162e-06	386.53	125.86	115.4	38.386	3.9709e-06	43.073	0.00089513	0.00014914	4.3604e-05	879.36	1.8943e-06	7.2456e-06	836.64	329.9	2.2627e-06	1.4403e-06	362.78	119.21	108.86	36.352	1.9086e-06	40.888	503.677	255.361	253.404	181.676	285.908	326.087	180.096	185.628	290.119	314.984	183.759	186.796	188.728	193.174	302.247	190.927	-8191	255	
28298.148	1	1	0	0	0.19298	0.23072	0.22567	0.051974	0.30465	0.19597	0.45602	0.14362	0.29459	0.13534	0.053091	0.11182	0.11051	0.2893	0.082846	0.10291	-1.5312	-2.3292	-2.4271	-2.1562	-2.3083	-2.0625	-2.2125	-2.3958	-1.9188	-2.2812	-2.4583	-2.1125	-2.4667	-2.3021	-2.1667	-2.4083	492.180	474.464	371.159	394.481	478.098	191.572	455.493	204.509	353.891	228.295	251.391	386.402	453.630	524.834	420.831	523.130	0.00078312	0.00040058	0.00010847	938.68	5.1898e-06	1.0284e-05	891.35	352.25	5.8148e-06	5.6475e-06	384.17	126.29	115.66	38.35	4.5759e-06	42.945	0.00066264	0.00013567	4.1986e-05	879.73	1.8959e-06	1.2903e-05	834.91	329.44	2.1517e-06	1.55e-06	361.07	118.95	108.93	36.291	1.9659e-06	40.779	506.650	273.338	260.942	181.447	282.700	318.123	179.897	185.461	290.238	315.466	183.816	187.120	188.631	193.572	294.445	191.218	-8191	255	
28298.244	1	1	0	0	0.033334	0.24112	0.12716	0.31692	0.076655	0.097263	0.17916	0.17836	0.19438	0.1641	0.20993	0.29448	0.12672	0.097389	0.28461	0.24408	-1.6458	-2.1083	-2.1708	-2.1063	-2.375	-2.1562	-2.2708	-2.5375	-2.0542	-2.2917	-2.2729	-2.1208	-2.2854	-2.4292	-2.0167	-2.4062	211.195	408.782	379.620	509.564	384.501	372.073	494.584	486.508	321.767	186.906	171.884	473.012	318.791	175.909	203.706	513.957	0.00071521	0.00048506	0.00016937	939.31	5.15e-06	7.4849e-06	887.88	350.36	6.2114e-06	3.2713e-06	385.42	126.54	115.44	38.249	4.5332e-06	42.929	0.00095504	0.00016186	4.0923e-05	876.56	1.9673e-06	6.3803e-06	832.96	327.68	2.1783e-06	1.3943e-06	360.06	119.3	108.42	36.169	1.8567e-06	40.861	503.020	271.582	255.555	181.488	293.552	314.754	180.140	185.495	289.051	307.374	184.102	186.997	188.448	193.517	288.830	191.054	-8191	255	
28298.342	1	1	0	0	0.10531	0.12631	0.14901	0.098012	0.19293	0.24559	0.1643	0.076403	0.13313	0.25629	0.40997	0.21403	0.062731	0.093493	0.26672	0.06388	-1.6208	-2.1188	-2.3333	-2.0042	-2.3292	-2.2562	-2.2417	-2.4562	-1.9833	-2.1333	-2.475	-1.95	-2.3583	-2.1542	-1.7292	-2.4875	257.316	321.006	432.775	186.587	387.889	290.427	393.353	454.563	277.084	268.076	511.999	462.709	521.300	479.531	480.590	421.015	0.00069867	0.00051296	0.00013353	932.43	4.4788e-06	8.027e-06	890.79	350.12	6.2215e-06	3.964e-06	386.88	126.32	116.25	38.161	4.1125e-06	43.087	0.0006312	0.00016116	4.1299e-05	875.36	1.8513e-06	3.8365e-06	836.73	328.45	2.2592e-06	1.5224e-06	362.15	119.12	108.77	36.232	2.0497e-06	41.065	509.381	268.729	261.632	181.561	275.730	330.728	180.182	185.691	281.682	310.893	183.914	187.163	188.664	193.504	302.228	191.398	-8191	255	
28298.463	1	1	0	0	0.21031	0.082231	0.21288	0.033974	0.11585	0.25517	0.17967	0.17843	0.19046	0.29906	0.11894	0.23874	0.12273	0.26734	0.30197	0.096124	-1.7917	-1.9792	-2.3708	-2.1729	-2.2833	-2.2375	-2.0292	-2.575	-2.1437	-1.9625	-2.4771	-2.15	-2.2125	-2.3458	-1.8813	-2.4667	272.248	450.626	421.319	464.707	257.961	416.853	416.269	174.996	411.328	347.936	465.881	229.831	173.038	469.706	211.048	478.372	0.00077582	0.00045414	0.00016467	934.77	4.2821e-06	4.4537e-06	901.17	349.7	6.4377e-06	4.2833e-06	386.5	127.05	115.72	38.129	4.3406e-06	43.041	0.00094041	0.00015463	4.2476e-05	877.79	1.8664e-06	1.4823e-06	840.38	328.4	2.1667e-06	1.6833e-06	362.65	119.91	108.69	36.149	2.1034e-06	40.917	507.863	253.107	261.547	181.323	287.538	320.732	180.054	185.395	293.697	328.005	183.621	187.013	188.517	193.036	310.922	190.942	-8191	255	
28298.533	1	1	0	0	0.18253	0.099452	0.1895	0.38846	0.10258	0.1506	0.27251	0.10266	0.17609	0.10832	0.096276	0.09331	0.17037	0.23259	0.11034	0.26867	-1.5896	-2.0292	-2.3771	-2.1542	-2.2146	-2.5021	-2.0021	-2.4375	-2.1104	-1.925	-2.6333	-2.175	-2.3792	-2.3937	-2.1188	-2.4625	205.854	275.988	480.347	450.795	422.871	273.483	460.492	459.951	360.402	258.027	500.536	424.893	414.285	202.651	501.177	231.992	0.00070494	0.00041059	0.00015905	935.64	5.0139e-06	5.1607e-06	892.51	349.8	6.2635e-06	4.5934e-06	385.13	126.35	114.78	38.048	5.544e-06	42.774	0.00059234	0.00019365	4.0073e-05	876.61	1.8831e-06	1.5754e-06	836.3	327.99	2.1094e-06	1.5316e-06	360.92	119.1	108.13	36.102	2.0853e-06	40.714	511.790	239.248	248.351	181.338	293.572	307.780	180.098	185.771	283.213	322.861	183.973	187.346	189.162	193.482	292.371	191.223	-8191	255	
28298.629	1	1	0	0	0.043617	0.23748	0.26001	0.16315	0.38386	0.11889	0.13553	0.13188	0.37684	0.18798	0.18717	0.14344	0.13551	0.17165	0.19155	0.25268	-1.8417	-2.0667	-2.5417	-2.2083	-2.1896	-2.4333	-2.1354	-2.5271	-2.0604	-2.3375	-2.5375	-2.2438	-2.2146	-2.5458	-2.1188	-2.3625	299.676	409.412	277.302	194.204	424.697	212.979	210.298	521.494	424.037	170.732	193.232	457.082	359.737	469.213	516.981	171.322	0.000714	0.00049225	0.00015388	942.42	4.846e-06	5.1808e-06	892.57	348.48	6.3485e-06	5.1549e-06	383.23	126.57	115.02	37.997	3.9081e-06	42.72	0.0004292	0.00081611	4.2525e-05	874.61	1.9439e-06	1.4737e-06	834.97	326.48	2.051e-06	1.7411e-06	360.18	119.3	108.06	36.107	1.8664e-06	40.768	513.431	190.322	247.484	181.236	294.671	314.024	179.989	185.535	291.945	323.725	183.882	187.046	188.819	193.267	289.343	191.288	-8191	255	
28298.727	1	1	0	0	0.038641	0.21759	0.15747	0.20333	0.1233	0.18141	0.09148	0.015694	0.1185	0.12592	0.22616	0.10747	0.20291	0.4059	0.065684	0.040887	-1.9958	-1.9	-2.3688	-2.2833	-2.2208	-2.4062	-2.0354	-2.3896	-2.4313	-2.1979	-2.4167	-2.3104	-2.1083	-2.4417	-1.8854	-2.3854	470.407	168.519	381.715	383.194	320.499	176.499	196.254	251.655	447.235	210.202	191.911	181.911	451.862	459.417	473.844	246.610	0.00064908	0.00065834	0.00014161	939.31	3.7956e-06	5.1901e-06	893.53	348.78	5.474e-06	6.2905e-06	384.24	125.81	115.11	37.919	4.383e-06	42.856	0.00032645	0.00066983	4.0956e-05	874.59	1.9745e-06	1.5252e-06	836.43	327.13	2.0406e-06	1.9316e-06	360.09	118.92	107.94	35.935	1.9267e-06	40.881	511.866	221.294	247.082	181.219	291.459	314.407	180.107	185.593	280.403	332.605	183.581	187.004	189.074	193.285	292.597	191.095	-8191	255	
28298.844	1	1	0	0	0.078933	0.095488	0.037815	0.3744	0.04641	0.31555	0.20979	0.10721	0.034987	0.054621	0.33515	0.18504	0.10933	0.22697	0.060611	0.11134	-1.9208	-1.9229	-2.2958	-2.4229	-2.1667	-2.3854	-2.2771	-2.2542	-2.2667	-2.0146	-2.4625	-2.3292	-1.9333	-2.5479	-2.1063	-2.4104	359.294	362.474	305.626	402.419	415.558	423.885	473.420	524.144	384.886	174.373	451.382	460.160	449.623	195.898	424.535	307.138	0.00068095	0.00049485	0.0001383	933.01	5.3652e-06	4.6721e-06	893.63	348.52	6.2117e-06	4.7561e-06	383.91	126.7	115.04	37.959	4.359e-06	43.368	0.00032925	0.0011501	4.1871e-05	873.29	1.998e-06	1.5966e-06	834.32	325.92	2.2297e-06	1.7949e-06	360.66	118.67	108.04	36.053	1.952e-06	41.013	513.885	216.074	267.142	181.570	279.400	318.285	180.272	185.498	279.961	311.604	183.882	187.221	188.782	193.356	310.812	191.195	-8191	255	
28298.941	1	1	0	0	0.069599	0.083065	0.024919	0.10286	0.31952	0.090817	0.15048	0.058626	0.11686	0.14137	0.033625	0.35284	0.38785	0.02175	0.27037	0.29858	-1.9708	-1.9771	-2.3729	-2.4146	-1.9375	-2.3812	-2.0667	-2.2292	-2.5958	-1.9417	-2.3833	-2.3375	-2.1958	-2.5396	-2.0521	-2.1875	469.855	488.042	320.927	252.199	356.629	337.158	478.523	498.579	217.424	438.680	500.439	488.870	493.890	488.190	183.864	419.887	0.00062326	0.00057359	0.00014625	930.04	4.1395e-06	4.4285e-06	888.98	345.12	6.6889e-06	4.6318e-06	381.58	125.61	114.53	37.985	4.5904e-06	42.69	0.00031883	0.00064731	3.8667e-05	871.81	2.0091e-06	1.545e-06	833.47	324.47	1.9753e-06	1.6872e-06	358.04	118.15	107.81	35.991	1.882e-06	40.832	511.037	220.926	247.057	181.323	295.377	317.637	179.970	185.449	288.454	317.035	183.680	186.824	188.815	193.271	301.933	191.402	-8191	255	
28299.037	1	1	0	0	0.096138	0.17718	0.10996	0.093428	0.1782	0.15106	0.12032	0.070627	0.09364	0.20994	0.13589	0.29392	0.4043	0.071805	0.21107	0.10551	-1.9979	-2.1813	-2.175	-2.5187	-1.9667	-2.5667	-2.1979	-2.3396	-2.4021	-2.1833	-2.3229	-2.5312	-1.9667	-2.4396	-2.1271	-2.0375	190.811	370.053	362.169	290.942	201.453	279.562	234.081	190.390	293.922	221.945	435.749	464.739	467.512	247.585	482.812	300.093	0.00073065	0.00060629	0.00015823	934.22	4.6018e-06	3.061e-06	884.85	345.19	4.9098e-06	5.2685e-06	383.06	125.88	113.52	37.73	3.6956e-06	42.998	0.00034746	0.0011593	3.9419e-05	872.06	2.018e-06	1.3964e-06	829.71	324.1	2.0175e-06	1.722e-06	358.63	118	107.65	35.792	1.7674e-06	40.805	512.143	241.902	250.722	181.337	275.158	325.534	180.068	185.677	289.632	322.526	183.466	187.016	189.223	193.479	300.435	191.179	-8191	255	
28299.133	1	1	0	0	0.28893	0.18029	0.22666	0.25916	0.16013	0.1615	0.22672	0.3127	0.21274	0.23376	0.14647	0.2327	0.064239	0.1415	0.22444	0.15562	-1.9562	-1.975	-2.0812	-2.4104	-2.0187	-2.3958	-2.1979	-2.1396	-2.4083	-1.9583	-2.325	-2.5667	-2.1146	-2.4854	-2.3625	-2.0958	470.741	189.130	181.960	474.399	442.380	195.154	414.275	440.349	281.139	300.421	523.154	498.296	467.020	472.340	480.296	244.002	0.00068369	0.00071215	0.00014226	932.37	4.3437e-06	4.4667e-06	887.46	347.24	5.039e-06	4.4471e-06	384.6	125.97	114.04	37.94	5.0576e-06	43.029	0.00033288	0.00064702	4.3277e-05	870.97	2.0543e-06	1.5701e-06	830.74	325.64	1.8995e-06	1.4528e-06	359.73	118.2	107.73	35.928	1.7674e-06	40.899	509.867	230.632	268.235	181.089	283.204	300.849	180.056	185.781	293.148	315.105	183.900	186.992	188.844	193.785	298.515	191.187	-8191	255	
28299.229	1	1	0	0	0.15439	0.15535	0.098419	0.25437	0.15937	0.29616	0.20056	0.07407	0.097321	0.091887	0.16342	0.2412	0.1203	0.21699	0.26048	0.22845	-2.2438	-2.1271	-2.1271	-2.425	-2.2396	-2.2687	-2.3208	-2.1583	-2.3479	-2.1188	-2.3292	-2.4708	-2.2875	-2.2708	-2.3563	-2.0604	313.384	239.367	383.944	481.067	171.812	371.600	423.523	188.473	512.205	396.467	492.064	462.367	410.072	451.911	228.658	440.512	0.000706	0.00088586	0.00011665	935.31	4.0139e-06	5.1279e-06	891.1	347.67	6.2996e-06	4.5405e-06	383.82	125.84	114.34	37.94	4.1134e-06	43.281	0.0003368	0.0011387	3.9975e-05	872.44	2.0008e-06	1.5714e-06	833.29	325.82	2.1546e-06	1.6347e-06	360.62	118.56	108.06	35.992	1.9013e-06	41.049	511.157	233.999	251.075	181.338	281.328	319.557	179.873	185.556	283.779	321.863	183.973	187.053	189.025	193.316	309.691	191.174	-8191	255	
28299.324	1	1	0	0	0.24905	0.22413	0.23125	0.24062	0.1101	0.3306	0.21415	0.089159	0.19475	0.13259	0.1709	0.5212	0.30753	0.14157	0.27367	0.19558	-2.0062	-2.1292	-2.0792	-2.5917	-2.0521	-2.2917	-2.4042	-2.2292	-2.4333	-2.1292	-2.2	-2.5667	-2.1562	-2.3229	-2.3729	-2.075	171.034	454.205	247.331	184.231	309.336	503.135	272.269	503.880	365.672	447.118	422.535	482.736	493.729	287.988	373.970	494.183	0.00071888	0.00065683	0.00019781	932.61	4.8326e-06	5.6551e-06	888.62	347.68	5.5579e-06	4.8712e-06	382.94	126.7	113.8	37.871	4.3076e-06	42.855	0.00035264	0.0004665	7.6385e-05	871.7	2.0024e-06	1.5966e-06	832.51	325.75	1.9087e-06	1.6445e-06	359.55	118.42	107.46	35.944	1.718e-06	40.901	513.010	270.040	228.266	181.403	305.098	320.305	180.024	185.545	279.573	318.800	183.678	187.066	188.707	193.151	304.103	191.131	-8191	255	
28299.422	1	1	0	0	0.31168	0.22988	0.21959	0.27083	0.020616	0.08854	0.072856	0.26934	0.12004	0.079353	0.25015	0.12279	0.14423	0.16229	0.012029	0.11158	-1.7938	-2.1375	-2.0521	-2.4688	-2.0625	-2.1292	-2.5958	-2.0833	-2.1813	-2.4542	-1.9771	-2.7021	-2.0062	-2.1271	-2.4062	-2.125	470.278	393.466	453.143	485.469	305.383	428.317	309.296	389.732	187.301	235.609	481.214	393.260	292.510	221.391	179.987	500.457	0.00069807	0.00063646	0.00019744	930.09	3.6901e-06	4.492e-06	886.05	345.21	6.0466e-06	3.338e-06	381.32	126.4	113.34	38.05	4.0967e-06	43.229	0.00033728	0.00016466	0.00027405	869.45	1.8948e-06	1.5589e-06	830.08	324.11	2.099e-06	1.4843e-06	358.82	118.16	107.7	36.054	1.8609e-06	40.865	512.853	270.904	222.448	181.326	277.431	323.194	179.915	185.642	278.957	316.091	183.725	186.933	188.652	193.341	305.980	191.300	-8191	255	
28299.543	1	1	0	0	0.29584	0.085527	0.30009	0.36016	0.17025	0.020099	0.26345	0.35684	0.10534	0.15673	0.1959	0.1953	0.09366	0.10893	0.24319	0.098967	-1.6146	-2.3667	-1.675	-2.375	-2.1875	-2.3021	-2.6937	-2.1917	-2.325	-2.4417	-2.0708	-2.5417	-2.2792	-2.1083	-2.3958	-2.0146	432.032	493.551	269.841	524.122	331.947	240.593	487.772	455.202	476.746	441.584	491.590	442.594	465.740	423.602	382.401	200.747	0.0006547	0.00045618	0.00018657	929.7	4.1707e-06	4.4901e-06	890.27	344.98	5.7186e-06	4.0242e-06	383.6	126.18	114	37.979	4.1167e-06	43.514	0.00032353	0.00014588	0.00018465	869.89	2.008e-06	1.7062e-06	830.45	325.11	2.0794e-06	1.4134e-06	359.54	118.35	107.27	35.931	1.7843e-06	41.078	512.376	259.800	256.754	181.423	298.948	326.179	179.826	185.627	275.962	313.779	183.716	187.210	188.598	193.292	307.415	191.613	-8191	255	
28299.637	1	1	0	0	0.1371	0.13817	0.25827	0.083848	0.18299	0.32977	0.19771	0.18268	0.15858	0.16213	0.29699	0.0092292	0.064679	0.19192	0.25463	0.22835	-1.8813	-2.325	-1.8083	-2.3646	-2.3375	-1.8333	-2.5354	-2.2229	-2.2188	-2.5042	-2.0687	-2.5083	-2.2062	-2.0812	-2.4333	-2.2062	489.150	434.843	231.104	353.298	440.579	177.581	457.980	473.048	466.507	256.686	390.924	319.260	427.442	450.110	383.583	438.750	0.00071391	0.00042539	0.00019432	932.67	4.366e-06	4.4699e-06	885.63	347.73	5.4261e-06	3.7512e-06	382.66	127.33	113.66	37.643	4.3219e-06	43.411	0.00034134	0.00015422	0.00032918	871.82	2.0069e-06	1.6725e-06	831.37	325.35	1.9776e-06	1.4035e-06	359.16	118.55	107.11	36.054	1.7638e-06	41.234	511.092	270.258	234.680	181.618	279.984	326.071	180.163	185.453	291.960	320.906	183.731	187.166	188.942	193.252	302.868	191.419	-8191	255	
28299.734	1	1	0	0	0.22848	0.18429	0.084407	0.12494	0.2773	0.27101	0.12185	0.34859	0.089129	0.22055	0.29504	0.22552	0.1663	0.21966	0.0063309	0.18588	-1.6938	-2.375	-1.8583	-2.3917	-2.3125	-1.9583	-2.5667	-2.1396	-1.9396	-2.3146	-2.0167	-2.2292	-2.1854	-1.925	-2.4083	-2.3042	420.608	431.150	369.052	291.727	442.015	228.514	425.190	487.914	468.956	525.395	494.422	482.444	436.578	236.390	437.511	512.210	0.0006773	0.00048627	0.00013831	936.75	4.1564e-06	3.8127e-06	887.9	347.18	5.9339e-06	3.3649e-06	384.86	126.92	114.52	38.171	5.0294e-06	43.217	0.000341	0.00013829	0.0001858	873.61	1.9227e-06	1.7392e-06	832.43	325.87	2.1395e-06	1.3359e-06	359.8	118.67	107.42	36.233	1.7463e-06	41.121	512.696	261.938	238.291	181.575	279.166	299.090	179.869	185.597	280.641	332.216	184.036	187.138	188.589	193.412	294.879	191.180	-8191	255	
28299.830	1	1	0	0	0.035873	0.080178	0.19517	0.22318	0.29423	0.059821	0.19224	0.093216	0.27918	0.25898	0.26658	0.10404	0.14294	0.29859	0.15904	0.33256	-1.8458	-2.4562	-2.0354	-2.4333	-2.2979	-2.05	-2.4792	-2.3417	-2.0979	-2.5646	-2.2208	-2.5479	-2.2729	-2.025	-2.2812	-2.3896	288.297	444.320	309.912	515.776	435.652	511.863	452.279	432.057	399.396	400.563	460.901	315.946	494.310	505.567	421.054	527.128	0.00069492	0.00058911	0.00025008	929.46	3.757e-06	5.5439e-06	891.13	345.71	5.18e-06	3.9209e-06	382.38	125.98	114.13	37.74	3.8382e-06	43.008	0.00035474	0.00015183	0.00032127	871.2	1.776e-06	1.7941e-06	831.06	324.17	3.5907e-06	1.3759e-06	359.34	118.14	107.34	36.142	1.8296e-06	40.897	514.308	260.858	257.839	181.386	285.232	321.196	180.031	185.468	277.025	318.781	183.573	187.059	188.870	193.406	292.852	191.245	-8191	255	
28299.926	1	1	0	0	0.29519	0.087863	0.23192	0.27934	0.19604	0.14985	0.37779	0.21961	0.33586	0.18996	0.32999	0.072496	0.32196	0.12205	0.08832	0.20518	-1.5	-2.5812	-2.0646	-2.1771	-2.5458	-2.0333	-2.4208	-2.35	-1.8958	-2.5021	-2.1896	-2.2438	-2.4917	-2.2667	-2.3979	-2.4146	259.823	510.174	410.194	211.804	428.563	210.120	476.232	495.658	192.822	354.965	458.431	194.828	497.688	507.701	195.423	398.702	0.00068815	0.00038582	0.00022582	934.77	3.4769e-06	5.1821e-06	896.82	346.99	4.4659e-06	4.6213e-06	385.27	126.08	114.61	38.011	3.68e-06	43.211	0.00034398	0.00013269	0.0001855	871.43	1.7844e-06	1.6005e-06	831.57	324.82	1.0931e-05	1.4272e-06	359.61	118.39	107.54	36.085	1.6347e-06	41.018	512.208	248.548	258.463	181.597	284.032	322.575	180.249	185.304	274.892	314.527	183.967	186.781	188.871	193.562	300.195	191.348	-8191	255	
28300.021	1	1	0	0	0.11327	0.20981	0.2705	0.31585	0.20697	0.18351	0.16311	0.296	0.18544	0.049937	0.11604	0.19641	0.10262	0.2363	0.17204	0.15637	-1.5375	-2.3271	-2.1646	-2.3833	-2.3937	-1.8375	-2.5271	-2.4146	-2.0271	-2.5396	-2.3333	-2.0479	-2.3896	-2.15	-2.0833	-2.4792	473.620	280.629	342.508	200.708	295.733	462.190	437.351	445.224	369.669	459.084	391.357	525.031	177.653	264.586	393.217	320.999	0.00070543	0.00044426	0.00026423	938.46	5.1077e-06	3.071e-06	893.53	348.38	2.834e-06	4.3294e-06	386.71	126.38	115.02	38.063	4.1173e-06	42.942	0.0003608	0.00013654	0.00032261	874.73	1.8786e-06	1.6434e-06	835.45	326.77	7.3498e-06	1.4009e-06	362.5	118.76	107.87	36.224	2.0063e-06	40.834	514.010	240.916	244.915	181.443	277.109	317.849	180.159	185.341	298.596	337.650	183.879	187.219	188.956	193.057	312.552	191.284	-8191	255	
28300.143	1	1	0	0	0.030983	0.080273	0.10072	0.28848	0.064274	0.14716	0.081467	0.14529	0.32551	0.21672	0.14349	0.29661	0.30932	0.11149	0.12036	0.070964	-1.6938	-2.2667	-2.1312	-2.1646	-2.6021	-2.1646	-2.4292	-2.5396	-1.8771	-2.4896	-2.2667	-2.2562	-2.5458	-2.0417	-2.1854	-2.2917	290.241	335.788	333.665	480.521	221.072	436.697	457.545	348.457	233.623	203.148	209.812	296.203	472.914	488.441	295.676	182.883	0.00073867	0.00038429	0.00018821	939.29	4.3712e-06	4.9541e-06	897.4	351.48	7.3983e-06	4.4271e-06	386.82	126.39	114.79	38.039	5.373e-06	42.945	0.00036506	0.00015083	0.00010902	877.44	1.771e-06	1.6996e-06	838.02	328.88	1.2081e-05	1.4895e-06	363.34	118.82	108.04	36.17	2.0316e-06	40.757	512.457	259.975	263.572	181.505	270.888	313.151	179.888	185.420	351.232	320.936	183.951	186.843	188.674	193.377	309.687	191.065	-8191	255	
28300.238	1	1	0	0	0.23818	0.22212	0.17519	0.3214	0.16284	0.057031	0.17198	0.095188	0.18062	0.085658	0.22658	0.23348	0.33454	0.053334	0.18646	0.2295	-1.3937	-2.3292	-2.4229	-2.1792	-2.3646	-2.0687	-2.2271	-2.4458	-1.9583	-2.2708	-2.2708	-2	-2.6125	-2.2667	-2.1521	-2.4333	466.103	446.092	263.730	474.060	423.863	234.612	443.812	387.949	468.576	258.454	444.806	385.994	256.955	365.384	344.747	317.690	0.00067275	0.00039634	0.00014807	938.66	5.1168e-06	3.5907e-06	894.72	350.03	4.7049e-06	4.8929e-06	385.71	125.46	114.97	37.77	4.1866e-06	42.795	0.00035241	0.00014774	4.1512e-05	880.13	1.8647e-06	1.5497e-06	834.79	327.99	7.3157e-06	1.4902e-06	361.36	118.01	107.74	36.026	1.8458e-06	40.577	513.746	249.263	242.359	181.683	281.358	302.330	179.657	185.415	326.745	324.202	183.963	187.118	188.772	193.112	305.761	191.311	-8191	255	
28300.334	1	1	0	0	0.27257	0.049348	0.22889	0.30483	0.10479	0.10971	0.37917	0.19223	0.094894	0.20558	0.094664	0.13806	0.21927	0.2446	0.21989	0.25729	-1.6333	-2.2771	-2.3542	-2.025	-2.4271	-2.1042	-2.2167	-2.6521	-2.0938	-2.3125	-2.4146	-2.1146	-2.3896	-2.1271	-2.2271	-2.4479	362.178	289.993	310.762	201.148	273.290	320.321	506.764	480.046	504.154	300.659	339.841	492.341	433.589	192.499	329.820	325.391	0.00068369	0.00054132	0.00014784	935.53	4.087e-06	5.4409e-06	891.91	350.8	1.4673e-06	5.4387e-06	385.85	126.11	114.6	37.576	5.3082e-06	42.613	0.00034489	0.00014471	4.2689e-05	877.97	1.8067e-06	1.6501e-06	833.8	328.11	1.1837e-05	1.5664e-06	361.39	117.95	107.58	35.782	3.9788e-06	40.493	514.876	258.916	248.801	181.368	290.027	318.354	179.835	185.551	251.964	337.285	183.626	187.135	189.149	193.342	262.705	191.284	-8191	255	
28300.406	1	1	0	0	0.16685	0.17824	0.17536	0.22019	0.20031	0.26961	0.56021	0.23222	0.16051	0.051512	0.22115	0.10135	0.27331	0.39855	0.21248	0.12403	-1.45	-2.175	-2.4208	-1.9542	-2.1688	-2.1625	-2.1229	-2.5667	-2.1646	-2.3708	-2.4562	-1.9896	-2.6042	-2.4333	-1.9833	-2.5417	432.228	350.195	322.980	482.317	300.654	369.803	463.577	495.519	230.751	296.389	470.096	497.254	490.348	493.818	412.272	461.705	0.00065378	0.00051246	0.00012128	933.38	3.4585e-06	4.6807e-06	890.36	348.06	2.4185e-06	3.9683e-06	386.24	125.54	114.43	37.74	8.6941e-06	42.992	0.00033856	0.00015807	3.8977e-05	876.77	1.8179e-06	1.5206e-06	832.88	327.02	7.3515e-06	1.504e-06	360.54	118.11	107.47	35.818	1.2225e-05	40.717	513.489	248.083	250.720	181.485	296.298	316.632	179.996	185.485	316.752	327.366	183.821	187.190	188.858	193.387	249.363	191.219	-8191	255	
28300.502	1	1	0	0	0.064833	0.12064	0.057212	0.20645	0.26838	0.077342	0.12936	0.19049	0.41771	0.30087	0.19644	0.13003	0.11009	0.25448	0.28017	0.15491	-1.6833	-2.225	-2.2875	-2.0938	-2.3646	-2.3104	-2.2458	-2.4521	-2.0958	-2.1771	-2.6354	-2.0521	-2.4792	-2.4979	-2.0375	-2.4167	336.832	497.467	175.060	195.650	317.042	188.632	459.434	446.925	269.251	369.772	210.742	358.656	179.718	220.798	420.954	497.831	0.0006662	0.00049857	0.00015905	934.41	3.8866e-06	4.5923e-06	887.53	347.92	1.4406e-06	4.198e-06	383.98	126.35	114.06	37.849	5.3194e-06	43.023	0.00034161	0.00015725	4.0236e-05	874.63	1.8045e-06	1.5714e-06	831.73	325.41	1.1857e-05	1.462e-06	360.36	118.67	107.43	35.942	7.1505e-06	41.011	514.107	259.096	253.180	181.399	282.588	317.627	180.063	185.562	455.128	301.742	183.681	187.020	188.782	193.267	281.177	190.965	-8191	255	
28300.621	1	1	0	0	0.26932	0.2785	0.2568	0.35639	0.077893	0.31143	0.11146	0.14939	0.090979	0.090947	0.069389	0.14506	0.14012	0.09341	0.12058	0.11875	-1.7062	-2.0833	-2.35	-2.1542	-2.2188	-2.3958	-2.1146	-2.5021	-2.0729	-2.1083	-2.4875	-2.1813	-2.3292	-2.4313	-2.05	-2.3042	180.247	192.498	519.672	469.101	392.772	363.771	506.977	458.686	297.076	237.828	410.051	463.140	468.410	445.332	280.327	301.222	0.00068332	0.00038736	0.00010883	930.57	3.5521e-06	5.2972e-06	893.47	346.33	3.5311e-06	3.1189e-06	384.03	125.04	114.39	37.562	7.7807e-06	42.946	0.00033179	0.00014757	3.7391e-05	872.78	1.8614e-06	1.4816e-06	831.59	324.62	4.4427e-06	4.0522e-06	358.97	117.7	107.28	35.857	1.1363e-05	40.8	512.450	262.159	253.124	181.385	287.724	314.758	179.897	185.660	295.116	296.263	183.763	187.042	188.699	193.402	271.780	191.312	-8191	255	
28300.719	1	1	0	0	0.1097	0.20897	0.1547	0.017111	0.17535	0.045061	0.26133	0.25145	0.12502	0.23718	0.10385	0.43731	0.36613	0.12486	0.15842	0.25663	-1.7479	-1.95	-2.2938	-2.2292	-2.1542	-2.1417	-2.0583	-2.4813	-2.2313	-2.0854	-2.3958	-2.075	-2.2062	-2.2812	-1.9271	-2.2604	375.434	311.344	511.149	262.055	252.293	520.024	449.660	518.145	244.609	487.956	514.693	195.085	497.623	173.528	454.116	169.611	0.00067667	0.00035651	0.00011268	934.41	3.6673e-06	4.7577e-06	885.07	344.43	6.1863e-06	5.1089e-06	379.75	125.54	113.5	37.732	6.332e-06	42.877	0.00034411	0.00015235	3.9517e-05	871.35	1.8864e-06	1.4684e-06	826.46	322.85	2.0302e-06	1.2308e-05	357.52	117.63	106.84	35.792	7.0039e-06	40.725	512.083	254.769	255.813	181.513	287.639	314.778	179.871	185.413	281.350	386.023	183.899	187.092	189.023	193.250	273.054	191.116	-8191	255	
28300.814	1	1	0	0	0.12776	0.29895	0.16997	0.20057	0.12327	0.29591	0.20051	0.24192	0.079331	0.03096	0.052952	0.1726	0.064753	0.082193	0.078977	0.14491	-1.7875	-2.0167	-2.4188	-2.0375	-1.9542	-2.4958	-2.1021	-2.3229	-2.2667	-1.8292	-2.4458	-2.1292	-2.0687	-2.5479	-1.9458	-2.4771	302.920	225.348	340.485	209.756	263.807	331.506	429.098	516.153	272.792	526.890	447.572	267.313	440.752	293.820	264.425	493.107	0.00066985	0.00039752	0.00011196	928.4	5.2429e-06	3.5742e-06	886.67	345.6	6.1063e-06	7.0218e-07	380.65	126.14	113.81	37.872	8.4809e-06	42.862	0.00033416	0.00015603	3.749e-05	870.23	1.9734e-06	1.5067e-06	828.47	323.11	2.062e-06	6.921e-06	357.83	117.9	106.83	35.865	1.2026e-05	40.76	513.451	263.818	262.456	181.556	284.294	316.396	180.015	185.522	281.730	365.163	183.566	186.960	188.899	193.018	269.831	191.220	-8191	255	
28300.934	1	1	0	0	0.049574	0.1548	0.074213	0.36924	0.081987	0.11214	0.24971	0.19015	0.147	0.28086	0.034744	0.14383	0.57024	0.30112	0.20376	0.0081968	-1.7354	-1.7771	-2.1167	-2.2167	-1.9438	-2.4958	-2.1667	-2.5083	-2.3229	-1.9104	-2.3771	-2.0604	-2.025	-2.5708	-1.9208	-2.2042	223.036	498.457	224.981	471.966	506.597	320.768	416.096	459.106	486.716	287.750	411.597	188.399	174.754	175.204	484.374	267.094	0.00068609	0.00032294	0.0001233	922.69	4.9824e-06	4.3503e-06	881.8	344.25	6.0838e-06	2.6126e-06	378.23	126.33	113.75	37.884	6.2873e-06	43.01	0.00033091	0.00014599	4.1021e-05	864.37	4.379e-06	1.3462e-06	826.49	321.91	1.955e-06	1.217e-05	357.74	117.91	106.81	35.828	6.969e-06	40.869	512.562	264.484	258.799	181.278	286.112	327.442	180.198	185.646	299.241	336.338	183.834	187.124	188.649	193.496	291.478	191.305	-8191	255	
28301.006	1	1	0	0	0.19486	0.066773	0.098083	0.21898	0.2913	0.095884	0.27449	0.098288	0.21037	0.069818	0.53381	0.042376	0.082489	0.15955	0.27697	0.20974	-1.6479	-2	-2.2208	-2.4062	-2.0667	-2.375	-2.1771	-2.1229	-2.3729	-2.1146	-2.3438	-2.4979	-2.0604	-2.4125	-1.9646	-2.2604	460.456	255.932	377.187	524.616	460.315	299.618	391.291	457.333	408.107	457.079	495.243	503.101	354.551	195.403	389.949	219.232	0.00068303	0.00046359	0.00014147	927.08	6.784e-06	4.5537e-06	885.07	345.17	4.9721e-06	9.3482e-07	382.36	126.28	113.9	37.991	5.3375e-06	42.722	0.00033453	0.00017562	4.0809e-05	867.68	1.0784e-05	1.364e-06	828.02	323.07	1.8688e-06	7.0865e-06	358.37	117.95	106.83	35.819	1.0953e-05	40.641	512.542	261.431	248.234	181.499	323.236	305.526	180.420	185.663	279.307	329.642	183.917	187.273	188.551	193.456	307.978	191.285	-8191	255	
28301.102	1	1	0	0	0.12899	0.13757	0.10746	0.31752	0.39741	0.079977	0.39687	0.36721	0.12214	0.22892	0.2114	0.07393	0.077586	0.081855	0.20034	0.29412	-1.9833	-2.0958	-2.1271	-2.2104	-1.8438	-2.3	-2.1	-2.1021	-2.3792	-1.9958	-2.3292	-2.3542	-1.9937	-2.2792	-2.0667	-2.0687	248.494	370.582	445.750	499.994	210.005	356.585	464.868	522.144	239.497	438.796	506.564	430.774	506.640	382.074	391.501	476.221	0.00070341	0.00047412	0.0001327	928.65	6.9907e-06	4.8533e-06	885.75	346.39	5.2088e-06	3.4417e-06	382.31	125.65	113.18	37.598	5.4562e-06	42.914	0.00034631	0.00015853	4.2394e-05	868.74	6.469e-06	1.4149e-06	828.31	323.9	2.0111e-06	1.2135e-05	358.09	117.72	106.64	35.661	3.4619e-06	40.769	512.584	253.290	258.860	181.423	317.453	303.625	180.087	185.728	288.694	243.314	183.667	186.790	188.570	193.713	317.393	191.401	-8191	255	
28301.223	1	1	0	0	0.29807	0.11163	0.051396	0.13823	0.2613	0.048278	0.13171	0.31874	0.023269	0.19732	0.29734	0.12412	0.13188	0.14821	0.1799	0.40483	-2.15	-1.9104	-2.2833	-2.4813	-1.8729	-2.3	-2.4437	-2.0875	-2.3979	-2.0333	-2.0833	-2.4333	-1.925	-2.4042	-2.1167	-1.9896	510.878	240.412	297.442	440.762	400.740	412.526	488.440	232.590	197.085	371.909	479.683	218.444	175.229	224.513	488.012	508.548	0.00066092	0.00046229	0.00012401	924.99	6.8674e-06	4.1914e-06	879.44	347.19	6.1672e-06	2.098e-06	382.53	125.64	114.47	37.555	4.7523e-06	42.884	0.00032215	0.00016227	3.9517e-05	866.9	1.0872e-05	1.3706e-06	826.82	323.33	2.0285e-06	7.1279e-06	358.09	117.93	106.86	35.757	1.8416e-06	40.964	513.092	242.657	247.942	181.555	339.715	325.881	179.956	185.365	287.433	219.832	183.913	187.243	188.648	193.502	306.198	191.200	-8191	255	
28301.318	1	1	0	0	0.16843	0.08634	0.064624	0.20434	0.20964	0.12427	0.5998	0.11007	0.23299	0.19792	0.10228	0.092905	0.17186	0.24552	0.30762	0.10898	-1.8062	-2.0833	-2	-2.5042	-1.9917	-2.3708	-2.3521	-2.0792	-2.3667	-2.0271	-2.0917	-2.4542	-1.9708	-2.425	-2.1354	-2.0438	168.620	285.926	219.908	472.232	405.931	461.616	517.726	379.946	399.450	317.324	488.664	373.698	491.430	480.741	501.297	522.025	0.00069538	0.00045553	0.00013424	928.59	6.3861e-06	4.6878e-06	888.12	345.53	5.9085e-06	3.8504e-06	383.35	125.76	113.06	37.694	5.6894e-06	43.046	0.00034205	0.00016407	4.2852e-05	867.37	6.4238e-06	1.586e-06	828.32	323.16	1.9371e-06	1.1051e-05	359.22	117.92	106.38	35.822	1.955e-06	41.094	514.541	257.256	260.857	181.523	299.256	315.294	179.995	185.632	285.184	366.584	183.789	187.215	188.551	193.215	299.874	191.247	-8191	255	
28301.414	1	1	0	0	0.21739	0.13697	0.1732	0.21511	0.16299	0.32325	0.24449	0.12829	0.29134	0.075197	0.17114	0.12413	0.2909	0.27401	0.29311	0.12151	-1.8125	-2.1042	-1.9458	-2.5521	-2.1167	-2.1937	-2.3063	-2.0771	-2.1667	-2.2062	-2.0729	-2.2708	-2.0292	-2.1271	-2.3333	-2.0979	241.837	433.606	302.759	180.345	501.432	184.933	415.662	460.495	359.754	362.660	470.130	429.601	492.278	483.933	202.207	427.376	0.00070323	0.00037652	0.00015906	929.5	5.2981e-06	4.3059e-06	887.48	342.86	5.2577e-06	4.8498e-06	384.28	126.31	114.19	37.889	4.857e-06	43.588	0.00033244	0.00014086	4.398e-05	866.23	1.0999e-05	1.3806e-06	830.32	322.17	2.0672e-06	3.3094e-06	359.94	118.33	106.99	35.953	1.9605e-06	41.393	512.462	254.424	257.816	181.210	350.038	317.426	180.182	185.591	296.194	311.383	183.955	187.068	188.644	193.383	308.521	191.014	-8191	255	
28301.535	1	1	0	0	0.14345	0.10029	0.099796	0.11128	0.25751	0.16377	0.040043	0.40264	0.1716	0.081424	0.25491	0.38696	0.16297	0.17694	0.29571	0.32366	-1.8083	-2.0833	-1.6812	-2.4562	-1.8083	-2.1229	-2.4042	-1.975	-2.25	-2.2812	-1.7854	-2.3729	-1.7938	-2.0875	-2.225	-2.0646	202.736	440.784	514.205	413.347	413.427	430.205	410.063	508.032	404.891	397.552	512.317	517.650	241.087	274.397	515.035	459.237	0.00066779	0.00044887	0.00012661	929.84	5.412e-06	4.4711e-06	890.06	344.35	5.7731e-06	4.2029e-06	382.87	125.41	113.61	37.659	4.4746e-06	42.99	0.00033352	0.00016197	4.9588e-05	867.5	6.6179e-06	1.5847e-06	829.21	322.58	2.0423e-06	1.4344e-06	360.21	117.95	106.82	35.831	1.7982e-06	41.011	512.147	260.348	251.002	181.341	323.083	324.820	180.178	185.415	289.720	319.341	183.764	187.007	188.616	193.137	306.624	191.155	-8191	255	
28301.631	1	1	0	0	0.27965	0.057937	0.11627	0.34441	0.074464	0.10016	0.17104	0.27615	0.24754	0.18702	0.23522	0.40138	0.29008	0.17686	0.16797	0.070572	-1.7208	-1.9646	-1.9833	-2.3979	-2.1208	-2.0938	-2.5354	-2.0583	-2.3021	-2.3896	-2.0125	-2.3083	-2.1958	-2.0062	-2.375	-1.9917	365.894	525.066	387.981	185.851	205.575	324.223	358.807	474.325	458.189	279.181	422.703	474.331	167.897	307.187	510.413	486.350	0.0006585	0.00042495	0.00010614	923.92	5.4549e-06	4.4958e-06	881.18	343.99	6.4498e-06	5.282e-06	382.49	125.25	114.05	38.068	3.8882e-06	43.254	0.00033118	0.00015235	4.1937e-05	865.1	9.3731e-06	1.6804e-06	826.73	321.99	1.9822e-06	1.4895e-06	359.08	117.96	106.85	35.97	1.7149e-06	41.305	512.523	252.197	274.564	181.280	372.975	315.989	179.939	185.410	295.601	307.043	183.435	187.266	188.800	193.176	297.174	191.049	-8191	255	
28301.703	1	1	0	0	0.1716	0.13898	0.23813	0.22901	0.090946	0.073965	0.22033	0.26107	0.10745	0.10372	0.16958	0.17662	0.059342	0.099719	0.19629	0.037069	-1.8375	-2.3333	-2.0104	-2.5646	-2.2062	-2.1479	-2.6	-2.0479	-2.0771	-2.1937	-2.0438	-2.0583	-2.1562	-2.0479	-2.5917	-2.2188	523.741	322.392	453.438	463.867	448.450	454.663	336.201	474.321	400.967	469.516	266.372	299.664	433.662	186.742	362.361	235.812	0.0006677	0.00041308	0.00013165	927.56	4.9915e-06	2.4492e-06	887.56	343.89	5.1869e-06	4.427e-06	382.75	126.5	113.43	38.076	4.9335e-06	43.336	0.00034127	0.00014366	4.5861e-05	865.62	3.0736e-06	4.7269e-06	828.71	321.78	2.0175e-06	1.3497e-06	360.8	118.51	106.51	35.948	1.7813e-06	41.356	511.419	259.453	249.103	181.207	331.308	292.968	179.780	185.562	285.371	316.526	183.576	186.737	188.778	193.281	285.110	191.193	-8191	255	
28301.822	1	1	0	0	0.16407	0.13869	0.20139	0.15647	0.16028	0.074226	0.14177	0.095009	0.086717	0.30471	0.19364	0.16289	0.24599	0.18366	0.09676	0.26954	-1.6417	-2.3958	-2.1458	-2.4208	-2.3542	-2.075	-2.55	-2.0646	-2.1792	-2.5458	-2.0292	-2.2458	-2.3792	-2.1146	-2.1562	-2.0875	281.834	307.440	333.180	499.559	173.316	519.646	398.880	486.682	504.784	490.011	478.094	210.806	514.263	482.150	410.624	492.218	0.00064098	0.00047203	0.00011797	928.9	3.526e-06	5.8727e-06	893.3	343.55	6.395e-06	4.7503e-06	383.89	126.82	114.29	38.074	3.6261e-06	43.325	0.00031947	0.00015078	4.1871e-05	866.8	1.6924e-06	1.2268e-05	832.77	322.97	2.1679e-06	1.3851e-06	360.65	118.79	107.17	36.076	1.6516e-06	41.474	512.412	251.060	261.579	181.476	279.464	346.525	180.206	185.482	285.180	320.491	183.535	187.384	188.716	193.113	293.506	191.282	-8191	255	
28301.918	1	1	0	0	0.17722	0.34242	0.25907	0.12294	0.23711	0.14849	0.21917	0.16545	0.17506	0.11532	0.12286	0.081937	0.1487	0.12242	0.039644	0.28797	-1.5187	-2.2313	-1.975	-2.4396	-2.3125	-2.0729	-2.4917	-2.2396	-2.1896	-2.4667	-2.1792	-2.2333	-2.4896	-2.1458	-2.4688	-2.3396	174.985	342.116	319.559	227.159	279.287	282.973	470.005	517.759	413.066	513.300	515.934	517.412	182.508	430.837	453.380	169.511	0.00074931	0.00040743	0.00016018	927.64	5.1573e-06	3.8493e-06	887.3	345.43	5.8852e-06	5.0778e-06	383.3	126.12	113.39	38.089	5.1105e-06	43.243	0.00036679	0.00013934	4.2542e-05	866.63	1.8864e-06	7.0712e-06	829.41	323.82	2.18e-06	1.3759e-06	360.05	118.45	106.82	36.034	1.8929e-06	41.082	515.172	261.873	253.661	181.282	285.760	331.166	180.034	185.676	284.198	318.502	183.683	187.048	188.781	193.303	302.074	191.197	-8191	255	
28302.014	1	1	0	0	0.227	0.10995	0.19152	0.31343	0.089426	0.098946	0.082761	0.12494	0.11376	0.060787	0.21797	0.11409	0.12366	0.13633	0.17345	0.17665	-1.4979	-2.4146	-2.0271	-2.2354	-2.4208	-1.9292	-2.3187	-2.2667	-1.9854	-2.45	-2.1979	-2.4146	-2.3792	-2.0292	-2.3417	-2.1479	459.813	509.266	444.584	419.798	417.157	279.722	254.678	512.553	444.724	198.023	526.474	281.406	392.717	475.240	335.089	508.580	0.0006937	0.0004132	0.00011805	923.66	4.3397e-06	6.5908e-06	887.27	343.62	6.0582e-06	5.3281e-06	381.67	125.99	113.92	37.971	4.9091e-06	43.19	0.00052042	0.00014028	4.2476e-05	864.56	1.7415e-06	1.2543e-05	827.65	322.21	2.1268e-06	1.502e-06	359.51	118.26	106.82	35.93	1.8386e-06	41.09	515.305	260.566	247.803	181.367	290.468	393.022	180.260	185.433	274.343	321.269	183.611	187.128	188.530	193.696	294.566	190.853	-8191	255	
28302.109	1	1	0	0	0.12814	0.31195	0.15799	0.26266	0.15077	0.28183	0.1556	0.26419	0.18915	0.13665	0.10215	0.093654	0.20422	0.26157	0.29348	0.041805	-1.4688	-2.3333	-2.1167	-2.3	-2.3604	-1.9375	-2.3771	-2.5354	-2.05	-2.2438	-2.2875	-2.1646	-2.3917	-2.1083	-2.0854	-2.3229	171.554	447.163	522.227	462.506	441.145	444.064	506.608	480.495	418.059	189.434	440.667	413.680	353.147	498.213	168.275	504.330	0.0007313	0.00055657	0.00013847	926.15	3.5347e-06	4.1521e-06	888.2	344.36	7.223e-06	4.7152e-06	381.59	125.59	113.57	37.812	3.5541e-06	43.152	0.00087519	0.00014716	4.5501e-05	864.3	1.9004e-06	7.0461e-06	829.1	322.78	2.2147e-06	1.4797e-06	359.56	118.13	106.71	35.807	1.8241e-06	41.107	516.605	261.928	258.946	181.498	294.133	358.513	180.120	185.369	277.729	323.810	183.815	186.920	188.682	193.513	301.240	190.961	-8191	255	
28302.205	1	1	0	0	0.16298	0.086902	0.29236	0.15404	0.37096	0.12721	0.24759	0.36029	0.16483	0.29271	0.26147	0.12221	0.28765	0.20558	0.07772	0.098521	-1.4813	-2.2188	-2.1104	-2.0563	-2.325	-1.9333	-2.4375	-2.2667	-1.725	-2.2812	-2.1958	-2.0271	-2.4333	-2.2167	-2.2833	-2.4104	348.849	335.192	308.878	519.768	208.016	385.679	471.574	491.633	506.536	502.586	421.763	446.255	404.252	481.866	475.657	479.078	0.00066683	0.00035138	0.00014031	925.06	4.8661e-06	3.333e-06	889.05	344.07	5.5877e-06	6.0093e-06	385.59	126.49	113.33	37.733	4.3627e-06	43.442	0.0006226	0.00013713	4.4569e-05	864.55	1.911e-06	1.2543e-05	829.41	321.71	2.0904e-06	1.4797e-06	360.22	118.65	106.58	35.893	1.8881e-06	41.288	517.510	250.458	250.906	181.366	283.261	395.834	180.064	185.500	283.543	306.304	183.753	187.134	188.878	193.505	297.145	191.160	-8191	255	
28302.303	1	1	0	0	0.13816	0.12146	0.24449	0.085472	0.33564	0.073649	0.10001	0.34456	0.13916	0.188	0.17734	0.31582	0.21962	0.13708	0.023871	0.30939	-1.45	-2.3187	-2.2896	-2.2104	-2.4604	-2.0521	-2.0542	-2.7396	-2.0438	-2.2875	-2.2896	-2.0563	-2.4604	-2.2417	-2.2521	-2.3979	331.121	394.577	484.508	491.000	389.243	298.667	280.093	431.489	494.448	173.340	363.607	523.481	478.560	449.100	280.815	440.448	0.00070307	0.00037593	0.00011966	925.59	3.6013e-06	1.9633e-06	889.1	343.97	6.4807e-06	4.3449e-06	383.56	125.77	113.69	37.842	5.1975e-06	43.3	0.0009238	0.00014383	4.2329e-05	865.76	1.8151e-06	7.4312e-06	830.43	322.34	2.3107e-06	1.4311e-06	359.39	118.92	106.59	35.849	1.943e-06	41.039	520.373	247.957	249.517	181.643	276.034	380.015	180.074	185.382	283.590	315.920	183.627	186.887	188.586	193.474	304.793	191.247	-8191	255	
28302.398	1	1	0	0	0.17391	0.31371	0.083007	0.0052842	0.10954	0.2943	0.19952	0.062459	0.11235	0.090835	0.20136	0.14102	0.33132	0.045022	0.094665	0.4257	-1.6271	-2.2792	-2.2667	-1.9813	-2.2729	-2.2896	-2.2125	-2.4896	-2.1458	-2.1312	-2.4896	-2.1167	-2.4646	-2.2104	-1.9	-2.3521	517.405	394.211	170.885	238.140	342.668	249.743	483.425	419.041	362.714	395.389	492.055	326.322	520.960	473.214	483.285	450.844	0.00064533	0.00048048	0.00011743	924.16	4.4863e-06	3.9713e-06	887.98	343.17	6.9777e-06	4.081e-06	381.32	125.88	113.19	37.54	4.6763e-06	42.843	0.00063553	0.00015218	3.8961e-05	865.02	1.8809e-06	9.3481e-06	828.76	321.67	2.2506e-06	1.4272e-06	358.42	118.25	106.38	35.593	1.9369e-06	40.753	518.097	251.967	241.268	181.442	299.640	378.988	180.146	185.494	287.473	329.889	183.942	187.198	188.999	193.458	309.511	191.301	-8191	255	
28302.494	1	1	0	0	0.20522	0.13327	0.24257	0.16957	0.21704	0.3005	0.29127	0.081135	0.062583	0.086128	0.098501	0.1715	0.25074	0.10281	0.14945	0.36642	-1.5562	-2.35	-2.3937	-2.1042	-2.4313	-2.2	-2.1854	-2.5167	-2.1042	-2.1813	-2.3667	-2.05	-2.4479	-2.25	-2.1771	-2.5938	459.810	342.684	412.173	519.453	209.212	370.065	478.683	484.294	445.473	416.084	504.387	466.618	238.133	485.848	243.387	175.240	0.00066902	0.00048697	9.9993e-05	925.76	4.2315e-06	4.0262e-06	883.47	345.17	5.4575e-06	4.2439e-06	382.3	126.16	114.15	37.621	4.8726e-06	42.975	0.00091875	0.00014961	3.9582e-05	864.77	1.8692e-06	2.2948e-06	830.13	322.15	2.1303e-06	1.4508e-06	358.5	118.65	106.56	35.764	2.1082e-06	40.916	523.204	253.696	253.199	181.323	274.761	359.831	180.367	185.360	277.880	324.225	183.744	186.837	188.779	193.390	308.667	191.254	-8191	255	
28302.615	1	1	0	0	0.24585	0.19509	0.03205	0.29433	0.15503	0.23836	0.16635	0.11014	0.12302	0.15046	0.25018	0.18951	0.071577	0.14996	0.15133	0.20819	-1.6958	-2.025	-2.4146	-2.0958	-2.2562	-2.2104	-2.0583	-2.4479	-2.0771	-2.1229	-2.4354	-2.0333	-2.3563	-2.4	-2.0167	-2.4854	389.169	476.459	281.986	492.719	383.336	338.928	490.261	472.893	306.774	315.844	447.919	196.421	515.087	313.903	329.478	409.570	0.00062878	0.00044886	0.000122	926.6	3.7832e-06	5.2501e-06	889.84	345.24	5.3236e-06	5.3684e-06	380.49	126.19	113.38	37.891	4.8369e-06	43.467	0.00060165	0.00015369	4.0106e-05	865.16	1.7961e-06	1.7683e-06	832.48	322.17	2.0267e-06	1.6478e-06	358.67	118.53	106.55	35.886	2.0455e-06	41.062	516.565	254.832	256.826	181.632	281.428	318.514	179.983	185.329	276.826	303.615	183.785	186.815	188.342	193.340	308.988	191.254	-8191	255	
28302.711	1	1	0	0	0.14106	0.10962	0.14422	0.27394	0.11195	0.16292	0.14593	0.24239	0.099464	0.047986	0.19684	0.16451	0.06786	0.31484	0.072454	0.19253	-1.6792	-2.1771	-2.3333	-2.0875	-2.3146	-2.375	-2.0625	-2.45	-2.1583	-2.3542	-2.6167	-1.9979	-2.2313	-2.2583	-1.9813	-2.4813	174.532	328.628	316.969	461.527	415.915	459.620	465.724	439.214	305.590	394.675	487.470	398.085	260.288	524.341	218.392	510.939	0.00070496	0.00061769	0.00015671	922.89	4.1268e-06	4.091e-06	889.36	343.7	6.6162e-06	4.9304e-06	383.33	126.32	113.45	38.066	4.6082e-06	43.197	0.00073849	0.00030902	3.7244e-05	863.31	1.9941e-06	1.5391e-06	831.2	322.6	2.1129e-06	1.548e-06	360.55	119.09	106.67	35.921	1.9954e-06	40.99	524.888	243.952	243.885	181.418	283.951	312.249	179.883	185.538	278.210	309.439	183.785	187.031	188.684	193.366	304.361	191.002	-8191	255	
28302.807	1	1	0	0	0.11705	0.1852	0.043966	0.21131	0.2118	0.21179	0.39875	0.17517	0.38283	0.12227	0.047889	0.25556	0.25733	0.12707	0.34924	0.051037	-1.7354	-2.2687	-2.4562	-2.2938	-2.3604	-2.2167	-2.0021	-2.5604	-2.2146	-2.1354	-2.5792	-2.1958	-2.4042	-2.3812	-1.9958	-2.3979	448.103	422.196	275.424	406.537	319.160	192.735	454.234	193.402	392.948	281.837	220.798	200.140	180.536	433.136	304.141	483.168	0.00068803	0.00042141	0.00010737	927.96	3.8535e-06	3.6417e-06	883.54	344.85	5.285e-06	4.0909e-06	382.67	126.29	113.64	37.657	4.2052e-06	43.169	0.00036293	0.00052839	3.5021e-05	864.14	1.8067e-06	1.4552e-06	831.91	322.06	1.9301e-06	1.6183e-06	358.35	118.72	106.54	35.725	2.0383e-06	40.899	516.953	256.425	246.768	181.497	280.465	308.681	179.985	185.521	284.116	316.186	183.562	187.099	188.688	193.065	299.585	191.090	-8191	255	
28302.904	1	1	0	0	0.16077	0.10071	0.076516	0.16226	0.083978	0.13088	0.3256	0.2903	0.15923	0.11976	0.3494	0.21399	0.18763	0.31076	0.13094	0.013199	-1.7563	-1.9333	-2.5687	-2.2229	-2.0333	-2.4	-1.9937	-2.2708	-2.2833	-1.9438	-2.5875	-2.2167	-2.2042	-2.4583	-2.1854	-2.3083	513.521	180.088	352.998	443.305	498.158	233.224	174.275	520.257	314.316	176.474	486.983	456.260	464.791	457.984	422.185	495.080	0.00065689	0.000701	0.00012852	927.69	4.1467e-06	4.3086e-06	883.99	344.71	5.0632e-06	5.3171e-06	382.26	125.97	113.11	37.548	4.0745e-06	42.927	0.00032963	0.0011247	3.8422e-05	864.57	1.8502e-06	1.5094e-06	828.05	322.79	1.9573e-06	1.7995e-06	358.61	118.33	106.57	35.686	1.9755e-06	40.819	512.530	306.287	255.765	181.676	284.763	321.371	179.912	185.036	281.471	316.137	183.546	187.003	188.693	193.357	304.918	191.045	-8191	255	
28302.998	1	1	0	0	0.064542	0.15714	0.17471	0.11573	0.081454	0.20988	0.32345	0.2316	0.22733	0.092733	0.13279	0.15897	0.057126	0.10041	0.14031	0.10798	-1.8542	-1.8958	-2.2979	-2.3292	-1.9146	-2.4958	-2.1271	-2.2875	-2.3833	-2.0042	-2.4896	-2.3333	-1.9917	-2.3583	-1.9438	-2.2896	394.906	303.261	368.166	221.532	170.149	327.028	514.981	489.536	378.587	384.496	403.855	213.884	459.236	452.863	455.890	448.070	0.00068191	0.00069995	0.00015375	927.44	3.8004e-06	3.5226e-06	885.25	345.15	5.4773e-06	3.7235e-06	382.79	125.97	113.74	37.56	5.0374e-06	42.955	0.00033426	0.00068039	4.1021e-05	863.55	2.0448e-06	1.4895e-06	830.11	322.46	2.0823e-06	1.5375e-06	358.79	118.06	106.83	35.722	2.0829e-06	40.961	513.113	268.862	239.147	181.268	279.956	310.302	180.094	185.583	285.298	332.061	183.656	187.356	188.697	193.328	308.115	191.153	-8191	255	
28303.094	1	1	0	0	0.22616	0.27809	0.19586	0.34133	0.10787	0.089304	0.19583	0.18997	0.29229	0.20328	0.23414	0.29849	0.25508	0.17798	0.14655	0.16464	-1.7354	-1.7958	-2.2375	-2.3104	-1.9792	-2.1771	-2.1958	-2.2542	-2.2854	-2.1396	-2.4854	-2.3333	-2.1417	-2.3854	-2.0854	-2.275	450.134	268.061	331.192	488.958	455.121	513.879	438.820	462.403	458.487	274.073	390.237	178.642	471.118	524.396	518.195	501.128	0.00068701	0.00093603	0.00012227	925.56	3.0048e-06	3.5211e-06	884.66	343.74	5.8299e-06	5.7657e-06	381.72	126.16	113.54	37.839	3.8265e-06	43.322	0.00034682	0.0011405	3.6558e-05	864.35	1.9645e-06	1.3878e-06	828.94	321.98	2.0591e-06	1.7483e-06	358.22	118.5	106.98	35.777	1.7861e-06	41.088	514.892	292.631	239.668	181.345	274.388	304.119	179.954	185.498	289.636	320.969	183.732	187.043	188.727	193.298	297.241	191.182	-8191	255	
28303.213	1	1	0	0	0.10932	0.34207	0.29775	0.36068	0.065883	0.27136	0.20754	0.084944	0.15533	0.20732	0.24276	0.0371	0.2574	0.21583	0.10269	0.047215	-1.8771	-2.0479	-2.2292	-2.3479	-1.8146	-2.3458	-2.2729	-2.2854	-2.575	-1.9979	-2.2583	-2.3958	-2.0625	-2.4354	-2.1125	-2.0187	460.582	419.681	340.733	417.412	234.362	213.846	470.134	193.856	505.841	496.758	491.401	496.770	175.394	400.210	349.037	522.068	0.00065968	0.00056737	0.00014676	922.76	4.828e-06	4.0603e-06	879.23	343.54	4.7375e-06	3.7873e-06	379.31	125.66	113.97	37.753	5.227e-06	43.036	0.00032743	0.00065828	3.8618e-05	862.58	2.0348e-06	1.5549e-06	826.35	321.93	1.8943e-06	1.5257e-06	357.88	117.88	106.73	35.73	1.9399e-06	40.814	513.343	286.908	256.915	181.277	296.559	305.127	180.001	185.607	282.281	315.335	183.820	187.299	188.772	193.475	305.341	191.209	-8191	255	
28303.309	1	1	0	0	0.24047	0.09492	0.038907	0.31095	0.19144	0.0791	0.36441	0.19189	0.15466	0.080772	0.21003	0.19427	0.12947	0.25204	0.15843	0.208	-1.6812	-1.9167	-2.1708	-2.3417	-2.0062	-2.5	-2.2271	-1.9167	-2.3021	-1.9979	-2.2146	-2.3375	-1.8875	-2.4104	-2.3854	-2.0792	475.655	356.356	467.947	338.375	483.222	311.815	455.372	473.656	376.951	201.379	507.970	452.063	406.173	494.740	224.866	427.104	0.00067797	0.0004716	0.00010292	921.37	3.9497e-06	4.976e-06	885.78	344.26	4.3135e-06	5.1443e-06	381.79	125.53	112.8	37.149	3.4219e-06	42.301	0.00033416	0.0010939	4.1234e-05	861.72	1.9751e-06	1.4539e-06	827.1	322.34	1.8896e-06	1.638e-06	358.33	117.44	106.79	35.326	1.8036e-06	40.286	511.003	333.248	262.593	181.292	286.095	311.655	179.991	185.641	287.612	301.603	183.561	187.273	188.560	193.224	305.757	190.884	-8191	255	
28303.404	1	1	0	0	0.12283	0.18588	0.35358	0.03695	0.22433	0.18676	0.079779	0.24673	0.1782	0.08409	0.211	0.19442	0.1604	0.40965	0.25601	0.2378	-1.9125	-1.975	-2.1271	-2.5875	-2.075	-2.4271	-2.4229	-1.8708	-2.4521	-2.1167	-2.2604	-2.3792	-2.0708	-2.3979	-2.175	-2.0438	307.723	325.318	338.863	377.354	469.729	365.559	365.265	194.093	523.377	333.229	406.247	452.764	187.069	236.879	254.185	351.925	0.00071462	0.00056795	0.00014414	925.09	3.5927e-06	4.0797e-06	886.48	345.05	6.4656e-06	4.5003e-06	381.44	125.31	113.16	37.451	3.1689e-06	42.438	0.00033569	0.00067327	4.004e-05	864.43	1.9439e-06	1.7782e-06	828.34	324.29	1.988e-06	1.5079e-06	358.4	117.53	106.67	35.414	1.8109e-06	40.348	512.864	256.832	253.380	181.254	282.194	308.990	179.915	185.287	283.310	304.240	183.510	186.892	188.691	193.243	304.203	190.964	-8191	255	
28303.502	1	1	0	0	0.38228	0.12772	0.15735	0.12218	0.19998	0.098791	0.18131	0.074399	0.30906	0.14504	0.3389	0.066641	0.17355	0.12921	0.064454	0.15506	-1.9271	-2.0104	-1.9896	-2.5625	-1.9375	-2.4437	-2.5563	-2.0812	-2.3646	-2.3187	-2.1979	-2.5396	-2.1646	-2.3083	-2.2958	-2.025	207.375	323.204	213.449	207.579	512.031	205.421	199.371	433.121	301.485	397.440	470.896	189.217	232.927	195.739	464.417	406.014	0.00066037	0.00067406	0.00010798	928.32	4.9161e-06	5.97e-06	884.33	344.64	5.9921e-06	5.2157e-06	385.14	126.52	113.91	37.498	4.4196e-06	42.68	0.00033257	0.00073533	0.00012684	867.85	2.061e-06	1.6633e-06	829.37	324.43	2.0412e-06	1.571e-06	362	118.21	107.55	35.617	1.8452e-06	40.589	515.058	313.455	254.414	181.410	276.382	317.863	179.869	185.651	278.866	317.149	183.687	186.719	188.723	193.435	309.773	191.345	-8191	255	
28303.598	1	1	0	0	0.27773	0.038325	0.12925	0.33536	0.09621	0.087144	0.35932	0.29353	0.075278	0.16564	0.30955	0.10787	0.10913	0.13971	0.18677	0.22377	-1.8125	-2.2	-1.9917	-2.4583	-2.0958	-2.2083	-2.45	-2.0542	-2.1813	-2.2917	-2.1146	-2.5083	-2.1542	-2.1833	-2.6688	-2.0938	421.269	428.230	477.988	488.264	171.048	271.653	207.362	475.078	432.912	337.330	493.574	439.080	297.676	237.445	233.826	456.723	0.00067974	0.00036408	9.271e-05	935.98	4.4507e-06	4.9617e-06	893.97	348.63	5.6044e-06	4.6816e-06	384.79	125.42	114.38	37.443	4.227e-06	42.456	0.00033805	0.00014576	0.0001813	872.01	2.0521e-06	1.5899e-06	833.54	327.49	2.1754e-06	1.4574e-06	360.84	118.02	107.67	35.537	1.7505e-06	40.329	512.375	245.715	246.757	181.190	301.193	316.920	179.871	185.231	282.953	304.116	183.515	187.016	188.888	193.394	295.502	191.033	-8191	255	
28303.693	1	1	0	0	0.17777	0.14631	0.21727	0.30848	0.23337	0.10282	0.14752	0.06243	0.15047	0.048866	0.20231	0.099498	0.32354	0.15406	0.12023	0.2196	-1.8417	-2.1708	-1.8708	-2.2542	-2.0021	-2.2146	-2.6896	-2.0854	-2.3083	-2.3	-2.0021	-2.2458	-2.2396	-2.1354	-2.4562	-2.0583	261.713	497.014	238.409	440.609	451.714	298.755	457.952	469.841	232.822	385.519	450.556	473.798	523.931	500.284	214.380	511.525	0.00070971	0.00042431	0.00016834	924.26	4.4425e-06	4.1184e-06	881.88	347.19	6.09e-06	3.992e-06	379.45	125.2	113.09	37.536	3.9909e-06	42.235	0.00034581	0.00015603	0.00033016	865.64	2.0102e-06	1.6302e-06	826.25	324.64	2.0632e-06	1.3648e-06	357.6	117.25	106.75	35.496	1.7704e-06	40.099	510.893	257.445	315.303	181.327	283.429	321.236	180.130	185.523	277.181	303.252	183.611	186.917	188.681	193.146	304.242	191.398	-8191	255	
28303.789	1	1	0	0	0.10667	0.25109	0.083321	0.17711	0.17496	0.07305	0.16845	0.18409	0.20729	0.11185	0.27147	0.12303	0.16652	0.31769	0.30398	0.19471	-1.6896	-2.2708	-2.0104	-2.6562	-2.0146	-2.0771	-2.4646	-2.1083	-2.1	-2.375	-2.0958	-2.4417	-2.2125	-1.9271	-2.3625	-2.1271	305.760	492.973	442.215	501.663	254.236	463.186	367.508	349.745	351.786	221.354	468.835	509.185	442.739	172.907	388.354	427.910	0.00068724	0.00047429	0.00017364	920.52	3.9382e-06	4.3553e-06	882.09	344.3	5.6211e-06	5.1912e-06	380.58	124.28	112.54	37.077	3.6349e-06	42.372	0.00034083	0.00014208	0.0001968	860.77	1.8028e-06	1.477e-06	824.6	323.19	1.8931e-06	1.5592e-06	356.56	116.68	105.75	35.34	1.7735e-06	40.217	511.530	254.972	287.447	181.543	284.737	312.941	179.839	185.525	278.584	320.639	183.757	187.044	188.543	192.974	296.290	191.028	-8191	255	
28303.887	1	1	0	0	0.20768	0.081539	0.097522	0.33413	0.36741	0.14261	0.07162	0.038442	0.19214	0.18125	0.19259	0.19305	0.35896	0.058996	0.040319	0.089475	-1.8167	-2.3187	-1.9125	-2.5062	-2.1479	-2.0938	-2.4083	-2.1708	-2.1437	-2.4958	-2.1937	-2.2604	-2.1896	-2.2604	-2.3646	-2.2313	351.509	268.420	366.581	505.033	308.553	335.773	372.228	171.900	247.401	377.402	398.101	507.043	485.729	359.989	347.426	185.010	0.00070378	0.00041444	0.00014372	916.39	4.4584e-06	4.001e-06	879.66	342.26	5.9497e-06	5.7399e-06	378.2	125.16	113.33	37.092	4.851e-06	42.532	0.00033965	0.00012354	0.00031519	858.07	1.8959e-06	1.7531e-06	821.74	320.84	2.1089e-06	1.5756e-06	355.87	117.19	106.08	35.457	1.7879e-06	40.35	513.160	259.382	352.937	181.460	294.187	309.946	179.966	185.461	292.446	312.948	183.843	186.958	188.603	193.469	303.975	191.291	-8191	255	
28304.008	1	1	0	0	0.10155	0.103	0.065795	0.35146	0.2599	0.33337	0.076762	0.18515	0.096734	0.23118	0.33252	0.20322	0.077081	0.17289	0.29268	0.22841	-1.5854	-2.3438	-1.9188	-2.4979	-2.3021	-2.225	-2.45	-2.1667	-2.0479	-2.5687	-2.0667	-2.3479	-2.4562	-2.1667	-2.4958	-2.2771	256.588	293.779	229.355	458.775	276.208	435.379	493.834	524.281	235.659	212.559	189.085	436.122	525.792	442.389	180.492	296.983	0.00069891	0.00050173	6.6617e-05	918.35	3.2961e-06	4.2763e-06	884.88	340.89	1.0173e-05	3.5264e-06	380.78	124.9	112.76	37.421	4.2496e-06	42.098	0.00034195	0.00013929	0.00019263	858.46	1.7811e-06	1.7676e-06	823.37	320.46	5.6984e-06	1.2111e-06	357	117.16	105.85	35.503	1.7318e-06	40.253	513.979	265.091	283.029	181.398	273.473	332.405	179.863	185.377	254.917	307.519	183.644	186.909	188.273	193.159	296.825	191.233	-8191	255	
28304.102	1	1	0	0	0.15493	0.27296	0.16515	0.24525	0.14653	0.37595	0.18585	0.17133	0.13674	0.11624	0.16124	0.080877	0.26241	0.29953	0.058367	0.16779	-1.75	-2.3271	-2.2708	-2.3771	-2.4729	-2.0521	-2.5729	-2.2854	-2.0979	-2.4792	-2.0812	-2.3958	-2.5292	-1.9438	-2.3312	-2.3979	450.286	184.988	500.108	423.534	208.489	388.905	523.634	395.533	269.112	459.333	262.383	215.324	475.631	470.324	400.748	354.833	0.00067933	0.00038179	0.00013875	920.58	3.7026e-06	4.821e-06	873.22	340.27	7.4884e-06	6.5115e-06	379.87	124.69	112.5	37.196	4.4023e-06	42.228	0.00034811	0.00013946	0.00031787	858.83	1.6846e-06	1.6844e-06	819.62	319.97	7.3585e-06	1.5703e-06	355.83	116.82	105.68	35.424	1.8175e-06	40.05	510.274	246.364	325.572	181.383	286.146	323.023	180.107	185.381	273.666	311.379	183.570	187.057	188.065	193.339	315.276	191.075	-8191	255	
28304.176	1	1	0	0	0.13476	0.043024	0.12033	0.19021	0.20009	0.063511	0.16056	0.075521	0.048196	0.092285	0.076268	0.061835	0.11713	0.24673	0.26717	0.16576	-1.6833	-2.4833	-2.1458	-2.0938	-2.3958	-2.1562	-2.4583	-2.5062	-2.0958	-2.55	-2.25	-2.2042	-2.6	-2.0667	-2.2625	-2.5042	351.774	485.791	405.376	397.757	370.143	482.061	487.293	224.405	442.080	319.219	326.415	275.840	440.010	307.374	307.549	446.834	0.00068647	0.00044792	0.00011246	915.12	4.0123e-06	4.798e-06	873.24	339.9	9.0674e-06	4.982e-06	378.78	124.64	112.81	37.243	4.553e-06	42.122	0.00033477	0.00013876	0.00018539	855.09	1.7688e-06	1.8165e-06	817.05	318.59	1.1594e-05	1.3076e-06	354.97	116.65	105.66	35.363	1.9598e-06	40.126	511.087	256.667	291.982	181.262	283.875	310.346	179.856	185.288	251.283	317.794	183.486	186.893	188.578	193.293	311.303	190.679	-8191	255	
28304.295	1	1	0	0	0.15079	0.24942	0.11591	0.2707	0.27064	0.28137	0.14797	0.13293	0.11947	0.098186	0.12385	0.20503	0.18641	0.24871	0.22261	0.26253	-1.5771	-2.3312	-2.0438	-2.2042	-2.5417	-2.0896	-2.2667	-2.3688	-1.8312	-2.4125	-2.35	-2.1688	-2.625	-2.1583	-2.2583	-2.4604	293.221	208.818	378.022	498.744	235.296	404.588	499.724	185.470	490.938	182.590	383.035	380.955	469.036	503.276	371.735	478.570	0.00067612	0.0005492	0.00012244	914.39	4.1263e-06	4.7788e-06	875.31	341.67	1.0193e-05	4.7679e-06	377.91	125.18	113.16	37.261	4.1569e-06	42.399	0.00034097	0.00015183	0.00015253	856.82	1.7827e-06	1.5523e-06	818.72	319.25	7.0386e-06	1.3963e-06	355.16	116.88	105.68	35.436	1.8229e-06	40.244	511.891	248.523	329.024	181.482	298.486	313.425	179.978	185.293	261.291	318.498	183.674	186.683	188.623	193.071	304.400	191.078	-8191	255	
28304.391	1	1	0	0	0.097559	0.19344	0.073062	0.12275	0.21742	0.24736	0.3809	0.22076	0.074468	0.15468	0.29693	0.059242	0.085482	0.14323	0.068107	0.16882	-1.5375	-2.3688	-2.1583	-2.1312	-2.4875	-2.1271	-2.3354	-2.4583	-1.8813	-2.3521	-2.5229	-2.2625	-2.3479	-2.2896	-2.0833	-2.4	171.182	507.613	326.112	318.579	298.305	221.352	514.939	480.431	525.055	497.718	497.342	510.951	430.594	505.115	454.303	405.618	0.000665	0.00039398	0.00012965	909.07	4.1489e-06	4.6182e-06	879.44	339.21	1.1606e-05	5.3657e-06	377.32	123.89	112	37.141	3.8526e-06	42.523	0.0003347	0.00013975	3.7768e-05	854	1.7225e-06	1.6963e-06	819.34	318.05	1.1303e-05	1.4075e-06	354.85	116.72	105.35	35.326	1.8633e-06	40.3	510.751	262.809	255.452	181.487	293.415	313.392	180.448	185.364	266.097	315.433	183.548	186.916	188.646	193.419	295.958	191.245	-8191	255	
28304.486	1	1	0	0	0.34273	0.13429	0.054605	0.31585	0.14742	0.35689	0.19547	0.13014	0.085006	0.33288	0.16442	0.23758	0.069578	0.097681	0.13461	0.12062	-1.4354	-2.2062	-2.4021	-2.0521	-2.4208	-2.2812	-2.125	-2.4625	-2.0833	-2.3104	-2.6354	-1.9375	-2.5354	-2.2313	-2.1937	-2.5729	477.883	345.609	320.637	483.447	249.366	325.169	205.744	235.654	423.887	301.819	197.418	410.719	339.195	322.822	410.646	471.759	0.00069508	0.0004422	0.00011855	916.43	4.3913e-06	4.3416e-06	872.1	339.07	6.5482e-06	4.0439e-06	380.04	124.19	111.93	36.904	5.0705e-06	42.263	0.00034496	0.00014529	4.0334e-05	857.61	1.7972e-06	1.4585e-06	819.06	318.52	6.8205e-06	1.3917e-06	355.1	116.45	105.1	35.181	6.4062e-06	40.048	511.633	265.686	264.113	181.235	286.165	326.991	179.948	185.521	277.941	318.336	183.653	187.122	188.505	193.240	286.490	191.219	-8191	255	
#DATA ENDS
