BOXY.EXE: ISS Imagent and Oximeter Data Acquisition Program Version 0.80
Ascii Record File

#ACQ INFORMATION
2  Detector Channels 
16  External MUX Channels 
1  Auxiliary Channels 
5000  Waveform (CCF) Frequency (Hz)
1  Waveforms Skipped 
30  Waveforms Averaged 
1  Cycles Averaged 
16  Acquisitions per Waveform 
10.0806  Updata Rate (Hz) 

#FILE INFORMATION
TRUE -- External MUX Channel results are PARSED.
FALSE -- AC DC and Phase are NOT grouped.
TRUE -- Companion Program Settings File CREATED.
FALSE -- AC data not excluded
FALSE -- DC data not excluded
FALSE -- Phase data not excluded
FALSE -- Auxillary Chn. data not excluded
Tab delimiters

#CALIBRATION STATE
TRUE -- Waveform Calibration Values APPLIED.


#AUX CALIBRATION VALUES
Val Type	aux-1	

Term	1.0000e+00	
Factor	0.0000e+00	


#WF CALIBRATION VALUES
A = Detector Channel
Val Type	A-AC1	A-AC2	A-AC3	A-AC4	A-AC5	A-AC6	A-AC7	A-AC8	A-AC9	A-AC10	A-AC11	A-AC12	A-AC13	A-AC14	A-AC15	A-AC16	A-DC1	A-DC2	A-DC3	A-DC4	A-DC5	A-DC6	A-DC7	A-DC8	A-DC9	A-DC10	A-DC11	A-DC12	A-DC13	A-DC14	A-DC15	A-DC16	A-Ph1	A-Ph2	A-Ph3	A-Ph4	A-Ph5	A-Ph6	A-Ph7	A-Ph8	A-Ph9	A-Ph10	A-Ph11	A-Ph12	A-Ph13	A-Ph14	A-Ph15	A-Ph16	

Term	0.00000e+00	0.00000e+00	0.00000e+00	0.00000e+00	0.00000e+00	0.00000e+00	0.00000e+00	0.00000e+00	0.00000e+00	0.00000e+00	0.00000e+00	0.00000e+00	0.00000e+00	0.00000e+00	0.00000e+00	0.00000e+00	0.00000e+00	0.00000e+00	0.00000e+00	0.00000e+00	0.00000e+00	0.00000e+00	0.00000e+00	0.00000e+00	0.00000e+00	0.00000e+00	0.00000e+00	0.00000e+00	0.00000e+00	0.00000e+00	0.00000e+00	0.00000e+00	0.00000e+00	0.00000e+00	0.00000e+00	0.00000e+00	0.00000e+00	0.00000e+00	0.00000e+00	0.00000e+00	0.00000e+00	0.00000e+00	0.00000e+00	0.00000e+00	0.00000e+00	0.00000e+00	0.00000e+00	0.00000e+00	
Factor	1.00000e+00	1.00000e+00	1.00000e+00	1.00000e+00	1.00000e+00	1.00000e+00	1.00000e+00	1.00000e+00	1.00000e+00	1.00000e+00	1.00000e+00	1.00000e+00	1.00000e+00	1.00000e+00	1.00000e+00	1.00000e+00	1.00000e+00	1.00000e+00	1.00000e+00	1.00000e+00	1.00000e+00	1.00000e+00	1.00000e+00	1.00000e+00	1.00000e+00	1.00000e+00	1.00000e+00	1.00000e+00	1.00000e+00	1.00000e+00	1.00000e+00	1.00000e+00	X	X	X	X	X	X	X	X	X	X	X	X	X	X	X	X	

B = Detector Channel
Val Type	B-AC1	B-AC2	B-AC3	B-AC4	B-AC5	B-AC6	B-AC7	B-AC8	B-AC9	B-AC10	B-AC11	B-AC12	B-AC13	B-AC14	B-AC15	B-AC16	B-DC1	B-DC2	B-DC3	B-DC4	B-DC5	B-DC6	B-DC7	B-DC8	B-DC9	B-DC10	B-DC11	B-DC12	B-DC13	B-DC14	B-DC15	B-DC16	B-Ph1	B-Ph2	B-Ph3	B-Ph4	B-Ph5	B-Ph6	B-Ph7	B-Ph8	B-Ph9	B-Ph10	B-Ph11	B-Ph12	B-Ph13	B-Ph14	B-Ph15	B-Ph16	

Term	0.00000e+00	0.00000e+00	0.00000e+00	0.00000e+00	0.00000e+00	0.00000e+00	0.00000e+00	0.00000e+00	0.00000e+00	0.00000e+00	0.00000e+00	0.00000e+00	0.00000e+00	0.00000e+00	0.00000e+00	0.00000e+00	0.00000e+00	0.00000e+00	0.00000e+00	0.00000e+00	0.00000e+00	0.00000e+00	0.00000e+00	0.00000e+00	0.00000e+00	0.00000e+00	0.00000e+00	0.00000e+00	0.00000e+00	0.00000e+00	0.00000e+00	0.00000e+00	-1.10335e+02	-1.62587e+02	-1.90705e+02	-1.85735e+02	-7.95890e+01	-9.80034e+01	-1.58876e+02	-1.62015e+02	-9.35963e+01	-1.16549e+02	-1.73504e+02	-1.69991e+02	-1.80150e+02	-1.77034e+02	-1.13923e+02	-1.49910e+02	
Factor	1.77319e-05	8.39323e-05	2.32807e-05	6.63806e-01	6.50858e-07	8.58057e-07	1.78611e-01	5.53004e-02	7.65979e-07	9.03384e-07	9.65138e-02	3.13854e-02	2.64622e-02	1.04344e-02	8.22500e-07	1.50170e-02	3.36373e-07	3.38385e-07	9.36488e-08	2.35456e-01	3.72523e-09	3.70374e-09	7.59690e-02	2.46404e-02	3.72491e-09	3.70198e-09	3.96877e-02	1.30564e-02	1.13969e-02	4.37442e-03	3.68760e-09	5.98844e-03	X	X	X	X	X	X	X	X	X	X	X	X	X	X	X	X	



#DISTANCE SETTINGS
A = Detector Channel
A-1	A-2	A-3	A-4	A-5	A-6	A-7	A-8	A-9	A-10	A-11	A-12	A-13	A-14	A-15	A-16	

2.5000e+00	3.0000e+00	2.5000e+00	3.0000e+00	2.0000e+00	3.0000e+00	1.5000e+00	3.0000e+00	3.0000e+00	3.0000e+00	3.0000e+00	3.0000e+00	3.0000e+00	3.0000e+00	1.5000e+00	3.0000e+00	

B = Detector Channel
B-1	B-2	B-3	B-4	B-5	B-6	B-7	B-8	B-9	B-10	B-11	B-12	B-13	B-14	B-15	B-16	

1.0000e+01	1.0000e+01	1.0000e+01	1.4400e+00	1.0000e+01	1.0000e+01	1.5100e+00	1.9400e+00	1.0000e+01	1.0000e+01	1.9900e+00	2.4900e+00	2.4100e+00	2.9000e+00	1.0000e+01	2.9800e+00	




#DATA BEGINS
time	group	step	mark	flag	A-AC1	A-AC2	A-AC3	A-AC4	A-AC5	A-AC6	A-AC7	A-AC8	A-AC9	A-AC10	A-AC11	A-AC12	A-AC13	A-AC14	A-AC15	A-AC16	A-DC1	A-DC2	A-DC3	A-DC4	A-DC5	A-DC6	A-DC7	A-DC8	A-DC9	A-DC10	A-DC11	A-DC12	A-DC13	A-DC14	A-DC15	A-DC16	A-Ph1	A-Ph2	A-Ph3	A-Ph4	A-Ph5	A-Ph6	A-Ph7	A-Ph8	A-Ph9	A-Ph10	A-Ph11	A-Ph12	A-Ph13	A-Ph14	A-Ph15	A-Ph16	B-AC1	B-AC2	B-AC3	B-AC4	B-AC5	B-AC6	B-AC7	B-AC8	B-AC9	B-AC10	B-AC11	B-AC12	B-AC13	B-AC14	B-AC15	B-AC16	B-DC1	B-DC2	B-DC3	B-DC4	B-DC5	B-DC6	B-DC7	B-DC8	B-DC9	B-DC10	B-DC11	B-DC12	B-DC13	B-DC14	B-DC15	B-DC16	B-Ph1	B-Ph2	B-Ph3	B-Ph4	B-Ph5	B-Ph6	B-Ph7	B-Ph8	B-Ph9	B-Ph10	B-Ph11	B-Ph12	B-Ph13	B-Ph14	B-Ph15	B-Ph16	aux-1	digaux	

7325.403	1	1	0	512	0.29332	0.087308	0.17838	0.10775	0.098077	0.18886	0.16861	0.28116	0.086245	0.14513	0.18297	0.19181	0.18288	0.24999	0.088432	0.28594	-2.3354	-2.7417	-2.4167	-2.7271	-2.4583	-2.6833	-2.9333	-2.3812	-2.7583	-2.8688	-2.5542	-2.9396	-2.525	-2.6083	-2.9375	-2.2854	135.158	-78.666	141.509	37.432	80.735	123.820	94.636	138.964	56.670	131.613	129.480	128.044	-104.976	145.990	-1.015	193.964	0.0003304	0.00011052	6.609e-05	418.49	1.919e-06	7.9683e-07	874.85	140.21	1.2627e-06	1.818e-06	380.86	140.09	52.832	19.136	1.0612e-06	54.752	1.6621e-05	1.1416e-05	2.8926e-06	258	1.2634e-07	1.1738e-07	671.78	106.62	1.3097e-07	1.1519e-07	274.7	102.51	38.345	13.716	1.1433e-07	38.263	-138.088	-54.385	-122.192	-146.978	-21.893	-85.418	-147.002	-141.048	24.241	-54.969	-141.745	-137.488	-137.324	-130.770	-82.143	-132.726	-8191	255	
7325.475	1	1	0	0	0.22671	0.18823	0.16995	0.038339	0.15979	0.11851	0.19037	0.28361	0.18902	0.27056	0.36327	0.17151	0.11718	0.10272	0.10484	0.083982	-2.5167	-2.8354	-2.4396	-2.9708	-2.7021	-2.6708	-2.7958	-2.3583	-2.8375	-2.8187	-2.3292	-2.9146	-2.6646	-2.8979	-2.8563	-2.2417	199.125	135.030	-134.457	-72.059	134.484	-116.889	154.270	143.874	-27.449	64.297	152.555	162.387	114.826	58.026	63.960	-132.096	0.00035744	0.00013127	5.622e-05	415.27	1.7313e-06	6.6477e-07	867.54	140.51	2.8981e-06	1.6978e-06	377.96	140.52	52.263	19.149	1.146e-06	54.219	1.6457e-05	1.0156e-05	2.8865e-06	256.23	1.311e-07	1.1038e-07	668.29	106.81	1.2506e-07	1.1242e-07	273.24	102.43	38.257	13.703	1.0725e-07	38.022	-136.352	-80.783	-103.780	-147.054	-25.282	-89.737	-146.624	-141.400	-67.740	-55.511	-141.733	-137.416	-137.368	-131.938	-31.003	-132.807	-8191	255	
7325.571	1	1	0	0	0.081214	0.16684	0.13264	0.21758	0.13263	0.17483	0.34882	0.1823	0.34377	0.135	0.11495	0.25683	0.30517	0.065276	0.14374	0.28278	-2.4146	-2.8833	-2.2333	-2.8292	-2.6479	-2.6271	-3.1146	-2.5062	-2.4979	-2.9813	-2.5917	-2.9583	-2.6208	-2.2583	-3.0187	-2.7125	-23.809	41.779	-80.161	119.473	-156.479	-39.088	145.895	-80.393	-50.868	-125.097	-35.251	145.391	181.661	10.448	-47.167	158.070	0.00033947	0.00031638	5.7273e-05	414.42	1.7836e-06	1.9277e-06	876.58	141.26	2.1175e-06	1.1537e-06	380.45	140.65	52.346	19.228	2.2185e-06	54.512	1.6196e-05	1.0379e-05	2.8175e-06	256.99	1.3174e-07	1.1011e-07	672.43	107.59	1.2897e-07	1.1067e-07	274.57	102.99	38.288	13.72	1.0405e-07	38.367	-143.774	-81.454	-146.862	-146.556	-21.487	-76.224	-146.985	-141.005	-3.140	-113.922	-141.876	-137.743	-136.787	-131.719	-50.269	-132.742	-8191	255	
7325.667	1	1	0	0	0.12123	0.039172	0.073623	0.14764	0.16988	0.18464	0.1163	0.098645	0.12725	0.31701	0.16485	0.20907	0.25783	0.28232	0.16464	0.38311	-2.1896	-2.9167	-2.2417	-2.7125	-2.6458	-2.2771	-3.0354	-2.7083	-2.5979	-2.7604	-2.5	-2.7812	-2.6125	-2.4833	-3.0354	-2.7854	62.515	-152.978	-39.189	-28.012	1.555	-108.025	128.054	152.695	103.560	108.255	45.033	162.946	129.006	139.125	158.756	-144.526	0.00036086	0.00015802	5.3488e-05	413.84	1.7276e-06	1.3506e-06	873.32	141.87	2.8785e-06	2.8621e-06	382.05	142.02	52.704	19.372	1.2845e-06	54.694	1.6236e-05	1.0086e-05	2.7976e-06	258.48	1.2292e-07	1.1501e-07	672.62	107.91	1.2603e-07	1.0553e-07	276.13	103.83	38.654	13.851	1.1334e-07	38.605	-138.331	-77.709	-133.878	-148.127	32.997	-83.199	-146.541	-141.183	-46.165	-28.469	-141.809	-137.648	-137.023	-131.582	-37.359	-132.692	-8191	255	
7325.788	1	1	0	0	0.17716	0.23612	0.14342	0.06258	0.2199	0.25562	0.14673	0.07198	0.18091	0.18713	0.07468	0.18819	0.23311	0.036465	0.14491	0.14028	-2.0167	-2.7479	-2.425	-2.8063	-2.7479	-2.3229	-2.8104	-2.6104	-2.6063	-2.8271	-2.5146	-2.7458	-2.7646	-2.3042	-2.8312	-2.7625	111.768	-32.376	-117.684	37.183	103.892	-153.561	93.932	-68.222	62.221	-59.097	-140.076	140.271	-6.457	-134.848	95.958	63.839	0.00036857	0.00017687	6.8259e-05	417.13	6.552e-07	1.9482e-06	884.04	142.29	1.62e-06	2.1848e-06	383.67	142.38	52.791	19.032	3.2951e-06	55.367	1.6199e-05	9.8449e-06	3.1008e-06	260	1.1563e-07	1.0739e-07	675.59	107.61	1.2165e-07	1.0467e-07	276.68	103.74	38.523	13.722	1.2566e-07	38.778	-136.310	-115.013	-96.524	-148.301	-36.514	-87.535	-146.580	-140.705	-88.497	-90.710	-141.609	-137.740	-137.097	-131.348	-58.665	-132.479	-8191	255	
7325.884	1	1	0	0	0.19492	0.20518	0.25342	0.08505	0.22574	0.17732	0.036501	0.082931	0.37413	0.1141	0.30955	0.30406	0.166	0.086635	0.28841	0.12394	-1.9	-2.9688	-2.4167	-2.5771	-2.8271	-2.4875	-2.9292	-2.5687	-2.125	-2.9104	-2.3937	-2.625	-2.8688	-2.3292	-2.6958	-2.7125	-68.446	195.416	-150.830	171.547	142.615	103.794	60.353	140.708	-113.736	182.269	94.039	-112.102	174.178	10.623	-96.240	-24.130	0.00033689	0.00016328	5.234e-05	419.65	1.6478e-06	1.743e-06	868.8	139.26	1.7139e-06	1.8742e-06	379.04	139.28	51.444	18.958	1.9871e-06	53.726	1.5629e-05	1.0025e-05	3.0666e-06	259.86	1.1039e-07	1.1208e-07	669.07	106.28	1.183e-07	1.0457e-07	272.95	101.7	37.58	13.508	1.2512e-07	37.762	-135.145	-129.935	-148.896	-147.077	-74.923	-56.348	-146.590	-141.529	-63.623	-62.979	-141.731	-137.841	-137.042	-131.745	-1.963	-132.627	-8191	255	
7325.980	1	1	0	0	0.24753	0.16903	0.088483	0.20673	0.17223	0.06161	0.22069	0.012424	0.38525	0.19833	0.082161	0.38496	0.2	0.25864	0.059826	0.26988	-1.8958	-2.7521	-2.6396	-2.5312	-2.7333	-2.4375	-2.7792	-2.8729	-2.3333	-2.9167	-2.5958	-2.7375	-2.9188	-2.425	-2.8688	-2.7104	-130.524	114.011	119.214	-47.226	-72.853	-127.616	7.951	0.982	-64.561	54.028	163.648	50.101	162.530	161.330	-128.007	172.427	0.00036272	0.00012517	4.475e-05	424.98	1.8112e-06	2.3089e-06	876.42	141.04	2.5432e-06	1.2009e-06	376.27	140.02	51.647	18.976	8.6599e-07	54.139	1.5974e-05	1.0321e-05	3.2291e-06	258.43	1.0554e-07	1.1363e-07	668.09	106.44	1.1915e-07	1.1806e-07	272.77	101.78	37.588	13.575	1.3091e-07	38.101	-138.087	158.826	196.087	-147.841	4.039	-40.524	-146.679	-140.881	-61.791	-2.869	-141.890	-137.360	-136.941	-131.979	-48.165	-132.549	-8191	255	
7326.052	1	1	0	0	0.21511	0.16626	0.050387	0.08155	0.25456	0.12025	0.10363	0.15848	0.15304	0.22223	0.17552	0.15639	0.33794	0.091793	0.097995	0.090289	-2.1583	-2.8771	-2.675	-2.2583	-2.8688	-2.3792	-2.8688	-2.9167	-2.5604	-2.7083	-2.6542	-2.6125	-2.9292	-2.5021	-2.5396	-2.8583	111.734	-117.641	-98.116	165.049	68.616	-92.260	140.285	134.056	157.348	-54.209	152.486	-119.437	131.044	76.713	105.586	149.251	0.00033272	0.00036387	5.2713e-05	426.42	8.9438e-07	2.8013e-06	868.23	140.21	2.6641e-06	3.0742e-06	380.92	141.2	51.634	19.151	2.1756e-06	54.528	1.5082e-05	1.0738e-05	3.2947e-06	258.81	1.0615e-07	1.1576e-07	669.6	106.73	1.1921e-07	1.1492e-07	274.3	102.58	37.829	13.68	1.2309e-07	38.338	-141.467	-91.167	-135.958	-147.818	-5.893	-47.358	-146.631	-140.804	-83.385	-80.921	-142.037	-137.459	-137.224	-131.757	-66.417	-133.079	-8191	255	
7326.171	1	1	0	0	0.17322	0.1981	0.24108	0.23987	0.11527	0.22973	0.18103	0.24387	0.17412	0.11768	0.17567	0.26811	0.11772	0.12397	0.11943	0.080463	-2.1729	-3.0417	-2.7625	-2.4354	-2.6583	-2.475	-2.7271	-2.9562	-2.5625	-2.7729	-2.8646	-2.7083	-3.0187	-2.5208	-2.6979	-2.8479	-39.662	178.451	-70.307	135.294	27.192	62.729	-155.315	-67.698	56.707	93.990	127.503	186.841	111.114	-128.803	61.969	-157.053	0.00028952	0.00018544	7.6101e-05	417.56	4.762e-07	1.1984e-06	865.56	140.97	1.6829e-06	3.5515e-06	381.59	140.87	52.112	19.171	2.5569e-06	54.186	1.4496e-05	1.1687e-05	2.8746e-06	257.83	1.035e-07	1.231e-07	668.93	106.78	1.126e-07	1.2323e-07	274.11	102.86	37.768	13.721	1.1779e-07	38.404	-141.777	-101.832	-124.160	-147.345	-50.115	-19.592	-146.700	-141.197	-97.401	-14.643	-141.642	-137.435	-137.194	-131.412	-84.266	-132.953	-8191	255	
7326.267	1	1	0	0	0.28023	0.15169	0.19044	0.12775	0.21103	0.097847	0.3368	0.04321	0.26844	0.28275	0.16016	0.1477	0.19968	0.20886	0.12103	0.12914	-2.1729	-2.6792	-2.8063	-2.2458	-2.9042	-2.7333	-2.5521	-2.9104	-2.5146	-2.7542	-2.7229	-2.3354	-2.9208	-2.4375	-2.5438	-2.9958	27.217	91.104	127.486	98.413	-87.660	-68.693	71.234	-111.480	57.751	18.196	-129.467	101.210	178.785	21.746	61.703	174.357	0.00033395	0.00038065	5.9208e-05	409.44	2.7674e-06	4.0875e-07	867.52	139.86	2.755e-06	2.7084e-06	378.14	139.24	51.29	18.794	1.373e-06	53.392	1.5195e-05	1.1334e-05	2.9131e-06	255.84	1.1154e-07	1.2526e-07	667.56	105.99	1.2165e-07	1.1933e-07	271.84	101.34	37.305	13.49	1.1194e-07	37.748	-136.064	-83.347	-95.198	-146.862	25.333	-48.351	-146.704	-141.349	-34.709	-74.917	-141.815	-137.340	-137.518	-131.111	-18.309	-132.458	-8191	255	
7326.365	1	1	0	0	0.1067	0.048709	0.17987	0.1276	0.16285	0.20608	0.60605	0.17148	0.20624	0.10415	0.103	0.19623	0.24242	0.032617	0.12779	0.034659	-1.8896	-2.8271	-2.7562	-2.5854	-2.8792	-2.4604	-2.6042	-3.0479	-2.6021	-2.6875	-3.0208	-2.5333	-2.8458	-2.7625	-2.4667	-2.9771	107.553	-36.599	-66.472	-129.091	-29.722	-80.813	84.404	-47.691	60.742	-76.246	66.591	101.015	-112.800	-58.813	198.771	63.541	0.00033108	0.00021032	5.6752e-05	420.66	6.1367e-07	1.3881e-06	864.31	138.28	1.1211e-06	1.6776e-06	374.68	138.19	51.256	18.596	1.7485e-06	54.132	1.5814e-05	1.1472e-05	2.8247e-06	256.43	1.184e-07	1.2729e-07	662.77	105.28	1.3088e-07	1.1989e-07	271.18	101.03	37.462	13.471	1.1269e-07	37.976	-131.331	-110.108	-116.724	-147.266	-102.101	-57.996	-146.582	-141.160	-125.786	-83.398	-142.166	-137.712	-137.602	-131.582	-26.043	-132.898	-8191	255	
7326.484	1	1	0	0	0.06216	0.13845	0.05387	0.22548	0.10007	0.22422	0.49575	0.24892	0.13966	0.2648	0.27858	0.18668	0.033318	0.19036	0.11116	0.18696	-2.1	-2.6208	-2.8708	-2.2188	-2.6792	-2.65	-2.4	-2.8958	-2.3292	-2.4083	-2.7854	-2.4104	-2.6312	-2.65	-2.5062	-2.8625	-57.595	179.226	-106.847	198.999	-7.695	94.016	149.591	-87.421	56.725	102.174	190.307	75.314	-153.442	-124.736	39.281	178.583	0.00034751	0.00011348	1.1103e-05	413.83	2.1823e-06	2.3742e-06	865.09	140.28	1.3917e-06	1.5864e-06	374.25	138.75	51.731	19.029	3.1319e-06	54.334	1.6144e-05	1.0601e-05	2.9072e-06	254.95	1.2048e-07	1.1106e-07	666.5	106.01	1.312e-07	1.1616e-07	271.65	101.83	37.606	13.61	1.0929e-07	38.244	-142.087	-115.331	-138.225	-146.908	-38.657	-44.900	-146.773	-140.647	-67.000	-66.489	-142.070	-137.847	-136.819	-131.043	-49.751	-132.850	-8191	255	
7326.580	1	1	0	0	0.064415	0.22548	0.17084	0.058509	0.16023	0.22505	0.14188	0.23644	0.077612	0.20323	0.41326	0.12937	0.17317	0.17686	0.065291	0.12507	-2	-2.5896	-2.85	-2.4542	-2.7667	-2.9958	-2.5208	-3.0042	-2.5542	-2.4271	-2.8563	-2.5896	-2.6375	-2.7979	-2.3521	-3.0146	-98.446	-138.017	148.463	-77.255	196.578	195.198	170.310	194.778	171.899	-34.002	161.691	-59.541	-122.926	-100.386	-45.071	19.845	0.00032033	0.00014973	7.3677e-05	406.84	2.3147e-06	1.3632e-06	870.52	140.65	1.5038e-06	2.3917e-06	382.38	140.21	51.149	19.079	2.4309e-06	55.013	1.6434e-05	1.0603e-05	2.8298e-06	254.88	1.2695e-07	1.0835e-07	669.68	106.55	1.3556e-07	1.1168e-07	275.36	102.61	37.685	13.693	1.1493e-07	38.559	-136.444	-44.377	-132.284	-145.450	-74.207	-47.998	-146.554	-140.728	-66.565	-21.147	-141.938	-137.296	-137.103	-131.195	-73.770	-132.310	-8191	255	
7326.676	1	1	0	0	0.23398	0.14453	0.20163	0.19346	0.048043	0.031574	0.25506	0.19104	0.31598	0.075149	0.083972	0.28218	0.18107	0.23626	0.16345	0.33417	-2.4104	-2.4271	-2.925	-2.4521	-2.5229	-2.6854	-2.4875	-2.8708	-2.7458	-2.3458	-2.9562	-2.6333	-2.6833	-2.8271	-2.1896	-2.8646	73.639	-39.954	-59.403	8.045	27.609	38.260	124.650	-132.773	124.017	-106.128	-125.267	-139.245	-107.433	2.570	-52.849	131.656	0.00040506	0.0002269	2.9262e-05	414.83	3.2525e-06	2.8101e-06	868.83	140.4	3.7402e-06	1.434e-06	376.82	139.86	51.726	19.07	2.3051e-06	53.9	1.5913e-05	1.0532e-05	2.7195e-06	255.93	1.2093e-07	1.094e-07	666.94	106.58	1.2617e-07	1.1488e-07	272.64	102.27	37.677	13.667	1.1674e-07	38.153	-137.301	-93.248	-103.858	-148.123	-25.725	-61.182	-146.621	-140.682	-50.818	-46.929	-141.930	-137.655	-137.092	-131.383	-64.081	-132.790	-8191	255	
7326.772	1	1	0	0	0.15922	0.19707	0.043361	0.33515	0.14906	0.1222	0.11017	0.070189	0.226	0.31873	0.079711	0.10085	0.13214	0.11436	0.087333	0.052216	-2.4125	-2.4771	-2.6625	-2.2812	-2.4375	-2.8438	-2.5312	-2.8708	-2.6333	-2.3229	-2.8479	-2.4938	-2.6604	-2.9792	-2.4646	-2.6583	-41.810	-149.694	-132.963	-122.372	173.934	192.565	129.573	-134.149	194.186	94.470	-23.400	160.123	102.631	-2.734	17.500	111.422	0.00034181	0.00023145	3.9565e-05	416.9	1.3253e-06	3.6336e-06	858.81	138.85	1.7967e-06	3.3823e-06	380.06	136.99	51.185	18.81	8.7078e-07	53.995	1.6021e-05	1.0001e-05	2.9021e-06	257.82	1.221e-07	1.0081e-07	661.5	105.44	1.1725e-07	1.0853e-07	271.3	100.96	37.519	13.488	1.1633e-07	38.039	-130.128	-90.602	176.897	-147.354	-43.021	-37.210	-146.755	-141.138	-46.038	-58.953	-141.866	-137.683	-136.908	-131.153	10.661	-132.737	-8191	255	
7326.868	1	1	0	0	0.30987	0.21901	0.074793	0.12779	0.1879	0.082449	0.12541	0.09631	0.10748	0.042369	0.065428	0.090327	0.033396	0.25409	0.26722	0.18213	-2.325	-2.4542	-2.7313	-2.4188	-2.3688	-2.975	-2.5104	-2.5917	-2.75	-2.6396	-3.1	-2.775	-2.3688	-2.8771	-2.4958	-2.8771	93.688	-5.629	-45.621	-126.503	-128.459	-130.800	177.312	-38.182	-126.080	-155.512	135.570	-93.022	-145.968	102.971	97.400	131.630	0.00033378	0.00018613	8.5114e-05	407.24	2.6469e-06	9.3108e-07	869.47	140.84	2.2318e-06	2.4797e-06	382.76	139.64	51.023	19.093	3.1346e-06	54.798	1.5541e-05	1.0288e-05	2.9564e-06	255.2	1.1463e-07	1.0182e-07	667.42	106.4	1.1553e-07	1.1204e-07	274.33	102.23	37.756	13.674	1.3581e-07	38.526	-138.191	-76.835	-115.571	-146.665	-16.842	3.303	-146.334	-141.126	-24.163	-49.103	-141.621	-137.645	-137.153	-130.841	-121.475	-132.827	-8191	255	
7326.964	1	1	0	0	0.23979	0.093874	0.20415	0.028026	0.10207	0.096015	0.19401	0.11977	0.14498	0.2799	0.16187	0.22817	0.20007	0.031448	0.26816	0.11315	-2.425	-2.1958	-2.6688	-2.6271	-2.6625	-3.1208	-2.7146	-2.5438	-2.7146	-2.3563	-2.9396	-2.8417	-2.3375	-2.8812	-2.5896	-2.7458	-21.312	-94.458	-152.429	103.591	-138.914	-42.801	188.457	135.572	196.942	-7.016	184.351	159.544	-112.643	-70.848	-96.279	137.416	0.00034124	0.00024836	6.7014e-05	421.18	1.4123e-06	1.2926e-06	865.92	140.75	1.089e-06	2.3607e-07	382.31	140.88	51.204	19.291	1.4757e-06	55.35	1.5077e-05	1.0329e-05	3.3569e-06	258.46	1.1208e-07	1.1417e-07	669.48	107.04	1.1363e-07	1.139e-07	275.76	103.33	37.897	13.791	1.3006e-07	38.838	-136.135	-78.901	192.508	-147.977	-78.257	-39.056	-146.511	-141.374	-95.160	-146.786	-141.730	-137.646	-137.430	-131.437	-53.591	-132.519	-8191	255	
7327.085	1	1	0	0	0.2265	0.10571	0.21506	0.21323	0.2846	0.14545	0.36079	0.087623	0.044151	0.2174	0.12213	0.1226	0.14333	0.21276	0.061842	0.11447	-2.2646	-2.3563	-2.8354	-2.7896	-2.3187	-3.0083	-2.6792	-2.5792	-2.7292	-2.2938	-2.9021	-2.8708	-2.3792	-2.8104	-2.7771	-2.775	113.768	-102.589	176.462	164.035	0.286	105.395	176.619	-56.762	-42.285	13.608	174.316	-136.404	-73.982	111.327	-53.375	2.213	0.00034061	0.00015116	7.6557e-05	411.03	2.7405e-06	2.571e-06	868.27	140.27	1.9623e-06	9.0107e-07	378.12	139.49	52.086	18.938	2.5908e-06	54.259	1.5189e-05	1.0802e-05	3.2463e-06	256.53	1.1054e-07	1.1924e-07	669.88	106.93	1.1314e-07	1.1941e-07	274.04	102.16	37.988	13.649	1.2355e-07	38.193	-134.699	-105.989	-89.649	-147.555	23.531	-82.393	-146.501	-140.817	-22.615	-57.047	-142.048	-137.418	-137.025	-131.121	-53.418	-132.612	-8191	255	
7327.179	1	1	0	0	0.12462	0.1411	0.30727	0.28429	0.074854	0.095138	0.15393	0.085464	0.19482	0.30264	0.29725	0.22877	0.25203	0.20653	0.15531	0.11741	-2.5792	-2.3125	-2.6833	-2.8021	-2.3125	-3.0312	-2.8229	-2.5229	-2.8021	-2.5104	-2.825	-2.95	-2.1583	-2.7583	-2.6083	-2.6312	44.200	51.482	189.747	112.216	180.968	43.208	165.573	162.624	-94.891	105.566	140.391	197.237	16.500	69.746	-72.194	150.350	0.00036281	0.0002371	3.827e-05	411.03	2.1482e-06	1.8956e-06	865.7	139	3.112e-06	2.1721e-06	376.39	138.75	51.519	19.106	2.3549e-06	53.642	1.4578e-05	1.1533e-05	3.0746e-06	255.32	1.133e-07	1.2092e-07	667.82	105.9	1.1077e-07	1.2856e-07	271.25	101.34	37.568	13.649	1.195e-07	37.745	-141.492	-124.677	-102.188	-147.741	-2.063	33.931	-146.595	-141.166	-55.970	-158.192	-142.013	-137.544	-137.282	-131.710	-51.141	-132.891	-8191	255	
7327.275	1	1	0	0	0.22077	0.11378	0.32434	0.19086	0.14331	0.1518	0.29728	0.049457	0.10172	0.077274	0.11235	0.32046	0.23331	0.044202	0.097014	0.15225	-2.4833	-2.3521	-2.7188	-2.85	-2.5354	-2.8271	-2.725	-2.4292	-3.1958	-2.7125	-2.7875	-3.2062	-2.45	-2.7708	-2.7542	-2.4792	180.379	-76.860	-47.789	-14.303	107.153	51.110	126.988	90.379	12.903	132.943	-86.004	193.943	144.334	-59.836	-48.980	-47.226	0.00034767	0.00029373	5.4753e-05	417.53	2.3642e-06	2.9146e-06	868.52	141.21	2.5581e-06	2.7745e-06	379.25	140.17	51.773	18.997	1.1134e-06	54.249	1.4886e-05	1.144e-05	2.8742e-06	255.12	1.1361e-07	1.235e-07	666.98	106.52	1.1533e-07	1.2459e-07	273.22	102.3	37.774	13.695	1.1681e-07	38.088	-135.735	-90.632	-106.770	-146.841	15.614	-63.463	-146.946	-141.034	-92.483	-85.529	-141.986	-137.374	-137.581	-131.345	16.484	-132.824	-8191	255	
7327.347	1	1	0	0	0.17157	0.21301	0.064039	0.27803	0.18665	0.13385	0.36523	0.1302	0.02964	0.10791	0.24639	0.1703	0.26333	0.11125	0.20986	0.27595	-2.4792	-2.4	-2.4792	-2.8833	-2.4625	-2.7625	-2.7792	-2.4083	-2.8542	-2.6521	-2.5125	-2.9458	-2.5	-2.7833	-2.7021	-2.5438	147.259	166.489	57.205	134.971	-75.052	-150.115	164.057	-120.461	-118.187	196.239	157.484	116.263	124.237	56.792	-33.350	154.901	0.00031887	0.00027046	3.7486e-05	416.94	1.9382e-06	2.7956e-06	873.06	140	1.9444e-06	3.9199e-06	381.05	141.13	52.133	19.051	1.4821e-06	54.92	1.5491e-05	1.1406e-05	2.8397e-06	256.96	1.2532e-07	1.1679e-07	671.53	106.4	1.2456e-07	1.2882e-07	274.17	102.94	38.037	13.759	1.1616e-07	38.582	-132.695	-86.395	-117.249	-147.310	-13.202	-83.307	-146.623	-141.139	-36.682	-55.642	-142.088	-137.458	-137.443	-131.355	-78.686	-132.700	-8191	255	
7327.468	1	1	0	0	0.26986	0.091513	0.10535	0.33446	0.24803	0.079536	0.07701	0.12369	0.14204	0.098421	0.35758	0.058933	0.37652	0.12572	0.056129	0.17361	-2.3312	-2.7167	-2.5875	-2.85	-2.4729	-2.4833	-2.8958	-2.4875	-2.8521	-2.9479	-2.5062	-2.7646	-2.625	-2.5583	-2.6729	-2.4458	121.900	187.288	-96.673	-101.091	177.743	-109.378	181.664	-153.080	-144.288	136.437	178.871	115.732	-107.253	-155.135	-117.292	-68.584	0.00039469	0.00026926	7.1709e-05	417.61	2.4996e-06	2.633e-06	879.37	142.04	1.8664e-06	3.7963e-06	380.72	139.86	52.045	18.991	2.5707e-06	53.843	1.6723e-05	1.1365e-05	2.8965e-06	255.67	1.2342e-07	1.2006e-07	674.13	107.16	1.2389e-07	1.1922e-07	274.48	102.34	37.963	13.588	1.0596e-07	38.04	-144.148	-134.094	-110.056	-147.137	-30.095	-28.774	-146.749	-141.007	-99.741	-55.556	-142.056	-137.555	-137.163	-131.627	-103.282	-132.671	-8191	255	
7327.564	1	1	0	0	0.15251	0.12958	0.060514	0.086421	0.028156	0.11177	0.29633	0.20977	0.28871	0.063043	0.32808	0.24348	0.033456	0.11436	0.29612	0.095648	-2.4271	-2.7646	-2.3458	-2.8312	-2.6437	-2.6542	-2.8896	-2.5208	-2.7271	-2.575	-2.5146	-2.9896	-2.5979	-2.5083	-2.9833	-2.6458	103.873	199.145	-74.581	188.308	39.414	157.714	108.359	-88.305	55.977	31.203	137.844	63.434	-91.956	131.731	44.928	-95.675	0.00030713	0.00041036	3.7575e-05	416.61	1.7552e-06	1.7927e-06	867.57	138.95	2.7281e-06	1.835e-06	377.03	138.11	51.031	18.909	2.1569e-06	53.525	1.6161e-05	1.0672e-05	2.876e-06	255.16	1.3914e-07	1.2194e-07	665.78	105.36	1.2679e-07	1.1242e-07	270.25	100.86	37.447	13.475	1.0305e-07	37.639	-140.278	-95.632	-130.486	-147.545	-42.769	-37.269	-146.500	-141.619	-28.429	-52.663	-142.119	-137.317	-137.110	-130.766	-55.708	-132.869	-8191	255	
7327.660	1	1	0	0	0.16351	0.24743	0.081078	0.020399	0.24968	0.17304	0.11277	0.2898	0.20484	0.03558	0.28935	0.36424	0.091948	0.32139	0.089208	0.20043	-2.1688	-2.5667	-2.4458	-2.9542	-2.5979	-2.3917	-2.9292	-2.6271	-2.8625	-2.7875	-2.4437	-2.8917	-2.6604	-2.4229	-2.75	-2.4708	12.049	40.663	-134.073	-56.301	114.805	18.091	-6.980	46.374	-91.502	-17.945	-141.180	176.721	136.766	-154.966	49.423	-139.658	0.0003864	6.2005e-05	3.8895e-05	413.18	2.3391e-06	2.5255e-06	865.06	139.67	2.1858e-06	2.6299e-06	374.68	139.15	51.162	18.773	1.4394e-06	53.537	1.6527e-05	9.9943e-06	2.8243e-06	255.12	1.2084e-07	1.1277e-07	665.12	106.03	1.2631e-07	1.0794e-07	269.99	101.25	37.476	13.507	1.0546e-07	37.839	-136.219	-124.263	-55.372	-148.336	27.686	-53.440	-146.334	-141.088	-69.071	-39.354	-141.651	-137.455	-137.079	-131.879	-15.311	-132.450	-8191	255	
7327.756	1	1	0	0	0.040708	0.11756	0.18326	0.14104	0.19423	0.052447	0.077095	0.11074	0.091662	0.033027	0.28556	0.38122	0.19787	0.16112	0.064217	0.16632	-2.1188	-2.9229	-2.4125	-2.7583	-2.8917	-2.5958	-2.9979	-2.6167	-2.6521	-2.8917	-2.3146	-2.6562	-2.7771	-2.4083	-2.8083	-2.6604	25.299	63.011	-34.036	-147.342	199.910	145.211	35.478	152.382	-107.228	73.527	157.388	146.269	-145.623	-125.391	-118.164	167.174	0.00036006	0.00025143	9.8357e-05	411.88	8.8892e-07	2.7742e-06	868.15	140.25	2.7787e-06	1.4482e-06	380.34	139.46	51.56	19.011	1.655e-06	54.257	1.6285e-05	9.7405e-06	2.8208e-06	255.76	1.1605e-07	1.0972e-07	666.9	105.77	1.2829e-07	1.1052e-07	272.68	102.11	37.672	13.664	1.1103e-07	38.308	-136.388	-105.422	-150.025	-147.366	-28.399	-34.784	-146.767	-141.431	-23.182	-138.614	-141.631	-137.824	-137.194	-131.509	-70.217	-133.206	-8191	255	
7327.877	1	1	0	0	0.39679	0.13392	0.13109	0.082162	0.26703	0.15276	0.3375	0.14611	0.15842	0.031852	0.22865	0.16304	0.10549	0.25733	0.034242	0.13751	-2.1979	-2.7812	-2.3063	-2.6979	-2.825	-2.4854	-2.9313	-2.6583	-2.6813	-2.9896	-2.4979	-2.7896	-2.9646	-2.3771	-2.7729	-2.7021	86.358	41.964	193.686	-85.036	43.322	-25.903	52.843	170.181	-37.818	193.657	111.527	130.542	29.557	124.027	49.222	151.912	0.00033962	0.00035844	4.0012e-05	417.25	2.7215e-06	1.029e-06	875.69	139.67	2.5736e-06	3.3218e-06	375.14	139.26	51.993	19.017	3.1944e-06	54.198	1.5454e-05	9.596e-06	2.7987e-06	257.16	1.1979e-07	1.0935e-07	671.39	105.9	1.1885e-07	1.0507e-07	272.63	102.09	37.759	13.661	1.2048e-07	38.064	-146.442	-95.437	-135.307	-148.398	-31.203	-156.364	-146.659	-141.001	-44.152	-60.524	-142.005	-137.772	-136.981	-131.132	-58.610	-132.865	-8191	255	
7327.949	1	1	0	0	0.20776	0.18702	0.075652	0.16481	0.17555	0.23756	0.24456	0.047542	0.17723	0.11723	0.23292	0.14472	0.13813	0.17262	0.28794	0.23254	-2.2687	-2.9396	-2.4771	-2.6083	-2.8375	-2.3375	-2.7021	-2.8292	-2.4625	-2.9708	-2.7854	-2.6667	-2.7146	-2.2667	-2.975	-2.7938	42.042	-3.807	137.930	2.392	-149.099	-35.698	200.300	1.103	70.232	194.813	64.568	76.793	1.706	106.921	77.051	184.521	0.00034829	0.00040519	2.3779e-05	408.67	2.7679e-08	1.802e-06	863.63	137.77	1.7521e-06	1.5902e-06	377.19	137.8	50.982	18.789	1.8366e-06	53.339	1.6099e-05	9.3084e-06	3.0026e-06	254.28	1.0383e-07	1.0453e-07	662.96	104.8	1.1751e-07	1.0809e-07	270.46	100.96	37.296	13.513	1.2862e-07	37.528	-140.666	-62.353	178.451	-146.643	-89.109	10.286	-146.800	-141.173	-25.025	-67.675	-142.300	-137.626	-137.384	-131.604	-28.042	-132.518	-8191	255	
7328.045	1	1	0	0	0.18678	0.13427	0.20816	0.11015	0.18064	0.37247	0.23932	0.18423	0.15888	0.11181	0.36085	0.14583	0.25204	0.26181	0.15462	0.11561	-2.0625	-2.75	-2.6583	-2.4354	-2.7229	-2.6542	-2.8979	-2.7146	-2.3896	-3	-2.8333	-2.5875	-3.0646	-2.5312	-2.6708	-2.7771	-123.130	39.908	165.725	-66.039	189.609	26.044	103.940	197.135	48.260	-57.925	159.820	24.299	113.886	-104.312	-49.410	150.359	0.00032151	0.00016583	5.2061e-05	414.59	2.0347e-06	2.0232e-06	865.46	138.46	1.2644e-06	3.411e-06	375.79	137.98	50.82	18.857	6.7444e-07	54.196	1.5029e-05	9.9118e-06	3.2424e-06	257.21	1.1253e-07	1.1254e-07	666.05	105.32	1.1758e-07	1.1212e-07	271.67	101.51	37.474	13.553	1.2929e-07	37.874	-141.837	-89.143	164.149	-147.173	-30.703	-149.172	-146.509	-141.014	-63.830	-54.131	-142.190	-137.984	-137.178	-131.321	-97.941	-132.350	-8191	255	
7328.165	1	1	0	0	0.23433	0.11908	0.17593	0.25444	0.078386	0.15919	0.22721	0.3043	0.22301	0.11756	0.27924	0.26676	0.11971	0.22018	0.2698	0.13967	-1.9312	-2.8792	-2.4292	-2.3896	-2.8375	-2.5542	-2.5833	-2.8167	-2.225	-2.8458	-2.7375	-2.7313	-3.0792	-2.5812	-2.6854	-2.6813	14.662	7.094	-91.415	106.723	-83.316	-134.036	104.742	189.449	70.941	127.001	-122.215	173.747	181.806	23.781	118.671	168.716	0.0003695	0.00021341	0.00010428	414.97	1.5534e-06	2.0882e-06	873.88	139.06	8.8125e-07	3.4858e-06	379.74	140.12	51.281	19.064	2.1295e-06	54.237	1.516e-05	1.0099e-05	3.1368e-06	255.21	1.1124e-07	1.2483e-07	667.59	105.68	1.1481e-07	1.1764e-07	273.25	102.47	37.888	13.692	1.269e-07	38.155	-138.266	-138.820	-115.180	-146.976	-10.962	-20.202	-146.510	-141.454	-14.973	-42.104	-141.839	-137.728	-137.275	-131.441	-91.208	-132.621	-8191	255	
7328.260	1	1	0	0	0.067419	0.031888	0.24946	0.057807	0.16685	0.25679	0.094721	0.188	0.090056	0.033774	0.21481	0.13718	0.22354	0.15976	0.071005	0.24038	-2.1937	-2.9813	-2.6937	-2.4229	-2.85	-2.4083	-2.6188	-2.7042	-2.3688	-2.8833	-2.9479	-2.3896	-2.7354	-2.4479	-2.7	-3.0479	114.585	-9.586	108.841	-65.439	86.500	10.492	199.660	-140.394	79.804	-90.220	154.721	-4.026	180.928	-53.728	-51.918	109.313	0.00033398	9.7806e-05	2.014e-05	421.97	1.7352e-06	8.3603e-07	879.56	140.45	1.843e-06	1.3574e-06	382.53	139.86	51.43	19.323	2.3659e-06	54.276	1.5653e-05	1.1563e-05	3.0744e-06	259.43	1.0387e-07	1.2665e-07	673.77	106.51	1.19e-07	1.3059e-07	275.1	102.79	37.536	13.793	1.165e-07	38.358	-137.520	-111.993	104.051	-147.457	-15.543	-118.140	-146.809	-141.299	-70.454	-88.259	-141.991	-137.663	-137.427	-131.487	-56.345	-133.061	-8191	255	
7328.356	1	1	0	0	0.095551	0.2487	0.18442	0.17254	0.13938	0.20562	0.25011	0.18667	0.17118	0.12599	0.015757	0.2979	0.2002	0.27022	0.044851	0.16235	-1.8958	-2.8042	-2.8187	-2.2167	-2.8375	-2.7062	-2.6375	-3.0625	-2.4562	-2.7354	-2.7833	-2.6771	-3.0792	-2.6375	-2.6063	-2.8146	-88.097	-112.992	-158.568	40.629	41.544	152.291	105.973	173.738	118.977	168.535	171.539	126.548	166.836	-46.148	62.070	111.758	0.00036551	0.00024757	5.0157e-05	420.55	1.8564e-06	2.0922e-06	873.82	139.59	1.4202e-06	3.7421e-06	380.93	138.83	51.462	18.811	1.6659e-06	53.799	1.5641e-05	1.1588e-05	2.9497e-06	258.7	1.0954e-07	1.276e-07	668.92	105.78	1.2738e-07	1.3034e-07	272.53	101.62	37.464	13.533	1.1764e-07	37.688	-134.002	-102.279	-110.820	-147.221	-54.160	-72.400	-146.706	-140.976	-33.133	-48.991	-142.310	-137.499	-137.281	-131.209	-24.593	-132.913	-8191	255	
7328.452	1	1	0	0	0.20774	0.28133	0.24448	0.15009	0.13533	0.25344	0.28836	0.27844	0.20641	0.18351	0.1917	0.20157	0.17278	0.24998	0.24046	0.2666	-1.6771	-2.4708	-2.6	-2.4479	-2.9271	-2.7792	-2.7458	-3.0396	-2.5125	-2.5521	-2.7687	-2.4625	-2.7875	-2.675	-2.5521	-3.0563	180.989	39.836	-103.351	-135.812	-21.329	24.901	164.180	-128.582	-8.816	5.686	100.958	196.882	200.438	-52.979	-60.893	166.890	0.00035948	0.00041431	2.4983e-05	405.79	1.5141e-06	1.5204e-06	871.72	137.94	7.8333e-07	2.003e-06	377.87	138.3	51.159	18.9	2.2901e-06	53.605	1.5988e-05	1.1516e-05	2.9501e-06	254.63	1.2e-07	1.2504e-07	668.7	105.27	1.3165e-07	1.2952e-07	271.66	101.48	37.572	13.537	1.1806e-07	37.828	-139.777	-69.316	-110.418	-146.831	-15.720	-30.007	-146.596	-141.228	-28.803	-101.317	-141.615	-137.653	-137.270	-131.763	-73.205	-132.407	-8191	255	
7328.573	1	1	0	0	0.12717	0.18689	0.15288	0.14277	0.086397	0.1854	0.13614	0.056042	0.12785	0.13018	0.14394	0.16198	0.12785	0.097279	0.10347	0.19238	-2.25	-2.5042	-2.6333	-2.4042	-2.6771	-2.7083	-2.6729	-2.9	-2.3875	-2.5292	-2.725	-2.4375	-2.8604	-2.7458	-2.2479	-2.8271	134.035	-103.646	-97.352	-153.226	-148.368	159.755	-106.131	166.857	112.024	-96.411	107.723	186.148	-93.073	-121.214	-49.123	-153.268	0.00032424	0.00026547	4.2975e-05	414.39	4.5463e-07	1.8001e-06	866.55	140.13	1.5079e-06	1.631e-06	379.04	140.53	50.866	19.02	7.5154e-07	53.982	1.67e-05	1.1869e-05	2.7098e-06	256.95	1.3319e-07	1.2464e-07	666.77	105.9	1.3851e-07	1.2325e-07	272.92	102.46	37.592	13.692	1.1816e-07	38.118	-146.020	-104.633	-116.867	-147.050	83.208	-2.693	-146.474	-140.875	-77.021	-85.486	-142.024	-137.949	-137.275	-131.888	-84.184	-132.564	-8191	255	
7328.644	1	1	0	0	0.072065	0.14771	0.18107	0.11973	0.12294	0.10545	0.27629	0.1838	0.06044	0.047008	0.17764	0.31919	0.20492	0.26232	0.088587	0.24673	-2.0479	-2.7604	-2.8937	-2.5583	-2.8688	-2.9125	-2.5312	-2.8271	-2.5875	-2.5062	-2.8937	-2.4917	-2.65	-2.8854	-2.4042	-2.9729	-113.359	-139.997	-100.784	149.607	-61.928	-156.969	125.899	-85.085	114.454	-23.324	154.294	75.952	164.267	-151.969	-157.636	151.543	0.00029795	0.00018297	5.5347e-05	416.76	2.1717e-06	6.3331e-07	871.96	140.56	2.7131e-06	1.6988e-06	377.49	139.71	52.161	18.989	8.8954e-07	54.671	1.6762e-05	1.0751e-05	2.7494e-06	257.04	1.3277e-07	1.1847e-07	671.54	106.53	1.3923e-07	1.1882e-07	274.68	102.67	38.03	13.713	1.127e-07	38.456	-137.858	-106.495	-102.530	-147.354	8.265	-129.057	-146.478	-140.954	-65.255	-55.047	-141.977	-137.510	-137.467	-131.401	-20.728	-132.707	-8191	255	
7328.740	1	1	0	0	0.099788	0.09677	0.16725	0.18737	0.18487	0.068896	0.17964	0.24145	0.21312	0.097793	0.13054	0.039365	0.30869	0.31055	0.05776	0.20226	-2.1312	-2.3875	-2.7333	-2.4646	-2.5312	-2.4792	-2.3104	-2.7521	-2.675	-2.4167	-2.9708	-2.5854	-2.8083	-3.0708	-2.3875	-2.825	-70.313	-13.601	189.150	90.791	9.287	55.382	112.362	94.798	5.893	-105.764	136.148	92.079	83.863	-137.843	17.846	82.247	0.00034245	0.0002675	7.697e-05	421.54	1.4283e-06	1.7558e-06	865.34	140.46	1.6858e-06	2.5738e-06	377.34	139.89	50.856	18.786	2.8464e-06	53.89	1.6941e-05	1.0703e-05	2.6553e-06	259.23	1.2721e-07	1.1708e-07	666.68	106.03	1.3755e-07	1.1257e-07	271.96	102.04	37.287	13.56	1.1679e-07	37.917	-134.046	-59.990	-138.797	-147.890	-41.233	-29.921	-147.098	-140.990	-68.358	-57.605	-142.279	-137.933	-137.537	-131.552	-27.298	-132.792	-8191	255	
7328.861	1	1	0	0	0.10601	0.17276	0.11979	0.38387	0.19502	0.16034	0.31616	0.43158	0.17448	0.13086	0.17516	0.21715	0.035774	0.17985	0.22297	0.22273	-2.2958	-2.4562	-2.6208	-2.6583	-2.4875	-2.8583	-2.2938	-2.6771	-2.8	-2.3958	-3.1271	-2.7333	-2.7021	-2.9854	-2.475	-2.8396	147.966	-19.864	-12.012	190.341	46.048	67.673	146.606	199.812	46.215	199.168	89.258	-135.384	-139.607	92.288	158.611	-105.991	0.0003718	8.2988e-05	3.7448e-05	412.31	1.1264e-06	2.0623e-06	863.64	140.04	3.4336e-06	3.4802e-06	378.18	138.26	51.152	19.058	2.0212e-06	53.615	1.6508e-05	1.014e-05	2.7679e-06	256.6	1.2581e-07	1.1367e-07	666.87	105.21	1.2024e-07	1.1391e-07	270.94	101.09	37.443	13.589	1.1451e-07	37.871	-138.253	-148.202	-75.207	-146.983	-47.577	-34.483	-146.628	-141.348	-87.406	-61.784	-142.557	-137.559	-137.613	-131.750	-43.944	-132.439	-8191	255	
7328.957	1	1	0	0	0.089172	0.042275	0.17195	0.13153	0.26592	0.091737	0.19946	0.070658	0.10795	0.14424	0.074848	0.14435	0.15409	0.15398	0.17796	0.18468	-2.4521	-2.4979	-2.9167	-2.4979	-2.3833	-2.7792	-2.6	-2.7417	-2.9021	-2.5729	-2.8583	-2.5812	-2.5396	-2.9938	-2.4167	-2.7104	25.708	185.730	-132.829	-35.974	-120.125	24.944	186.392	139.492	68.365	-132.913	122.785	-78.130	193.355	94.281	-3.052	72.028	0.00030391	0.00015439	6.6151e-05	420.81	1.2821e-06	2.5269e-06	867.07	138.7	2.0428e-06	9.4606e-07	374.67	138.54	50.879	18.779	1.6165e-06	53.959	1.5386e-05	1.0262e-05	2.9815e-06	256.67	1.1755e-07	1.0107e-07	665.82	105.27	1.2111e-07	1.0818e-07	270.34	101.42	37.194	13.531	1.2682e-07	38.01	-133.009	-138.055	-157.720	-147.960	-25.803	-28.687	-146.721	-141.519	-3.938	-70.231	-141.778	-137.673	-137.416	-131.011	-60.234	-132.313	-8191	255	
7329.053	1	1	0	0	0.18261	0.14334	0.34974	0.18707	0.34264	0.054017	0.28057	0.20356	0.20603	0.12974	0.24427	0.14128	0.10912	0.14515	0.11077	0.19964	-2.575	-2.2438	-2.7417	-2.7042	-2.4688	-2.9917	-2.8208	-2.65	-2.7292	-2.3333	-2.7854	-2.8146	-2.525	-3.0521	-2.6271	-2.6396	45.106	134.472	116.844	171.621	153.385	136.091	-119.588	159.176	189.459	93.622	73.733	-40.795	135.254	-118.386	-132.536	157.580	0.00039667	0.00022283	6.7114e-05	412.98	2.1689e-06	8.5961e-07	861.62	140.23	2.4165e-06	2.412e-06	380.05	140.43	51.93	18.949	2.3576e-06	54.335	1.6306e-05	1.0145e-05	3.1997e-06	256.24	1.205e-07	1.138e-07	664.79	105.49	1.1634e-07	1.1684e-07	273.33	102.51	37.71	13.65	1.3147e-07	38.3	-143.486	-124.755	-82.277	-147.311	-24.175	14.569	-146.645	-140.775	-77.935	-75.985	-140.862	-138.062	-137.373	-131.366	-65.195	-132.476	-8191	255	
7329.150	1	1	0	0	0.12267	0.045597	0.065857	0.16537	0.15007	0.045506	0.38722	0.076501	0.16022	0.061159	0.18633	0.03277	0.052602	0.13639	0.089972	0.1451	-2.3688	-2.4021	-2.4854	-2.8104	-2.5604	-2.9417	-2.7604	-2.7208	-2.9208	-2.6708	-2.7833	-2.9333	-2.5687	-2.7229	-2.7646	-2.7333	-122.527	-62.248	86.397	19.751	87.993	-64.321	114.507	28.191	111.608	170.791	146.096	142.179	-114.379	181.567	114.899	-125.469	0.00036332	0.00012969	7.2479e-05	404.99	1.6139e-06	7.8055e-07	857.97	137.59	1.6834e-06	1.0583e-06	370.67	137.36	50.018	18.669	2.1977e-06	53.513	1.5338e-05	1.1103e-05	3.4285e-06	253.78	1.1121e-07	1.1352e-07	662.05	104	1.1485e-07	1.2259e-07	268.23	100.56	36.672	13.371	1.3754e-07	37.563	-138.908	-106.895	-147.072	-146.324	-31.058	-99.554	-146.560	-141.140	-27.838	-74.575	-142.029	-137.204	-136.771	-131.068	-87.071	-132.923	-8191	255	
7329.244	1	1	0	0	0.11805	0.041089	0.09391	0.17278	0.098916	0.072363	0.10182	0.10058	0.093764	0.11647	0.1345	0.26419	0.19911	0.25794	0.15024	0.10658	-2.4354	-2.475	-2.5	-2.6979	-2.3979	-2.6229	-2.5104	-2.3333	-2.9625	-2.7417	-2.7375	-3.1146	-2.3271	-2.6708	-2.5	-2.5812	118.283	-82.395	8.388	23.659	-14.674	-74.137	-121.973	-96.575	22.665	3.105	-45.044	-157.311	71.342	-157.526	-131.725	65.537	0.00034866	0.00019015	8.5001e-05	407.41	1.8867e-06	1.539e-06	858.77	136.07	1.0685e-06	1.7597e-06	369.41	137.07	49.794	18.624	3.3894e-06	53.742	1.4558e-05	1.1443e-05	3.2428e-06	252.78	1.0819e-07	1.2702e-07	657.57	103.15	1.1136e-07	1.1799e-07	266.63	100.06	36.622	13.357	1.2894e-07	37.606	-140.390	-144.012	-123.556	-147.584	-51.416	-79.897	-146.724	-140.999	-31.016	-21.933	-141.483	-137.648	-137.312	-130.920	-55.255	-132.609	-8191	255	
7329.340	1	1	0	0	0.24732	0.099796	0.1464	0.1963	0.064321	0.34005	0.066047	0.23625	0.084567	0.23759	0.22051	0.17635	0.29272	0.16383	0.19274	0.10412	-2.5	-2.4917	-2.6229	-3.1167	-2.4	-2.7562	-2.7979	-2.4188	-2.9437	-2.6604	-2.7542	-2.8917	-2.5563	-2.7958	-2.7812	-2.3396	189.205	-20.132	-100.619	-61.989	-130.877	76.388	-135.613	83.724	176.711	124.203	-86.226	76.812	144.534	62.130	193.706	123.145	0.00033969	0.00024648	6.9189e-05	406.6	2.3425e-06	3.7926e-06	860.4	138.23	2.217e-06	1.3006e-06	374.23	138.04	50.542	18.661	1.8284e-06	53.547	1.4942e-05	1.2088e-05	3.0725e-06	252.2	1.1575e-07	1.2922e-07	660.33	104.42	1.1398e-07	1.3338e-07	268.87	100.8	36.967	13.458	1.1669e-07	37.795	-144.370	-80.246	191.370	-146.510	-16.828	-56.576	-146.632	-141.022	-56.116	-61.172	-142.020	-137.890	-137.599	-131.594	-44.337	-132.813	-8191	255	
7329.436	1	1	0	0	0.099536	0.28194	0.10059	0.036741	0.26974	0.14203	0.029925	0.09562	0.18756	0.21699	0.073428	0.23229	0.17168	0.13023	0.1447	0.067706	-2.4292	-2.4208	-2.4771	-2.8063	-2.3688	-2.7396	-2.8479	-2.3917	-2.8042	-2.4813	-2.5896	-2.9396	-2.3542	-2.5167	-2.7562	-2.2604	-66.575	-87.613	195.551	-20.172	-119.478	23.314	2.284	193.290	40.211	-145.132	-8.815	-116.234	107.990	138.038	-38.883	111.524	0.0003296	0.0002579	5.9341e-05	409.29	1.1569e-06	5.5388e-07	861.47	137.74	2.3201e-06	3.0832e-06	376.22	140.29	50.533	18.87	1.3733e-06	55.073	1.599e-05	1.2259e-05	3.1035e-06	253.26	1.2545e-07	1.2983e-07	662.15	104.57	1.2714e-07	1.2695e-07	271.15	101.84	37.105	13.566	1.1585e-07	38.423	-142.947	-118.457	-108.436	-148.483	1.378	-42.489	-146.603	-140.687	-72.326	-119.062	-141.531	-137.615	-137.543	-131.090	-121.185	-132.316	-8191	255	
7329.532	1	1	0	0	0.14177	0.11433	0.16248	0.39011	0.13315	0.18757	0.39136	0.058957	0.14846	0.068348	0.11436	0.04133	0.13429	0.038132	0.052436	0.17915	-2.5083	-2.8812	-2.3625	-2.9542	-2.5333	-2.6417	-2.6667	-2.3208	-2.7729	-2.7646	-2.4229	-2.8812	-2.4208	-2.4229	-2.8521	-2.7708	-14.170	-93.891	-86.590	174.219	52.808	-157.033	166.519	166.391	-52.335	184.867	128.664	-78.418	4.443	136.632	180.875	112.266	0.00033729	0.00041859	7.3246e-05	409.42	2.9705e-06	3.2355e-06	866.46	138.19	1.1588e-06	2.5357e-06	377.49	138.92	50.385	18.772	1.3951e-06	53.718	1.6009e-05	1.1263e-05	2.9113e-06	251.59	1.3248e-07	1.232e-07	663.61	104.66	1.3112e-07	1.1876e-07	271.29	101.32	37.063	13.494	1.1637e-07	37.684	-136.876	-116.334	-129.573	-147.067	-9.153	-4.733	-146.518	-140.996	-75.029	-105.316	-141.785	-137.281	-137.136	-131.403	-47.254	-132.794	-8191	255	
7329.653	1	1	0	0	0.11842	0.20119	0.063249	0.18766	0.093501	0.27805	0.19949	0.25846	0.15766	0.24901	0.21279	0.086476	0.14632	0.33792	0.12564	0.18036	-2.4292	-2.6604	-2.4271	-2.7979	-2.5521	-2.6271	-2.7521	-2.3458	-2.8688	-2.6979	-2.4292	-2.8375	-2.5792	-2.7396	-2.9667	-2.3208	-85.729	19.542	98.283	-116.100	159.192	-79.190	69.734	-154.673	136.976	5.040	16.218	75.398	114.399	-54.605	161.628	113.946	0.00033805	0.0001843	8.9167e-05	403.89	7.0272e-07	2.2863e-06	862.55	137.85	1.0262e-06	2.3225e-06	372.43	137.92	50.582	18.703	9.9446e-07	53.101	1.6948e-05	1.1511e-05	3.0356e-06	251.81	1.3588e-07	1.2189e-07	661.24	104.24	1.3061e-07	1.1486e-07	267.51	100.71	37.056	13.367	1.0765e-07	37.384	-137.699	-141.628	-106.100	-146.934	-39.256	-27.053	-147.124	-141.199	190.215	-89.222	-141.476	-137.617	-137.529	-131.778	-40.357	-133.071	-8191	255	
7329.749	1	1	0	0	0.17443	0.35686	0.26097	0.086818	0.045907	0.15763	0.15578	0.035594	0.12692	0.076078	0.21316	0.49323	0.1244	0.10569	0.081058	0.3677	-2.325	-2.7646	-2.5375	-2.675	-2.7375	-2.6021	-3.1917	-2.5104	-2.425	-2.9333	-2.5333	-3.0583	-2.5167	-2.4833	-2.9125	-2.7167	-117.943	124.862	-59.970	-110.060	72.383	-127.625	74.183	125.751	98.922	-128.872	150.829	173.113	-147.363	-142.769	-112.778	159.117	0.00029227	0.00013796	4.2172e-05	407.88	1.5637e-06	1.3923e-06	860.17	137.67	9.1516e-07	3.6349e-06	375.8	139.36	50.399	18.92	1.2381e-06	54.225	1.6696e-05	1.0658e-05	2.7061e-06	252.02	1.2507e-07	1.1732e-07	659.64	104.36	1.3476e-07	1.1863e-07	270.66	101.43	37.29	13.553	1.0706e-07	38.038	-137.204	-79.211	-121.401	-147.258	-32.010	-24.946	-146.023	-141.423	-7.756	-88.212	-142.423	-137.492	-136.977	-131.628	-60.958	-133.025	-8191	255	
7329.845	1	1	0	0	0.059274	0.20706	0.18292	0.11234	0.23217	0.29662	0.12102	0.065518	0.079845	0.047769	0.20209	0.18819	0.18607	0.19169	0.24935	0.27591	-1.9292	-2.9021	-2.4417	-2.5979	-2.6146	-2.5708	-3.0312	-2.4042	-2.5625	-2.9292	-2.5208	-2.6854	-2.6792	-2.4458	-2.9646	-2.5187	-62.083	-5.238	162.038	-56.184	36.009	-129.608	90.018	200.604	91.126	62.689	118.767	-152.578	34.079	-59.432	4.421	-104.661	0.00034694	0.00016939	8.7469e-05	406.63	1.5434e-06	1.1473e-06	868.2	137.85	2.3895e-06	6.1751e-07	378.9	140.07	51.089	18.856	1.7323e-06	54.374	1.601e-05	1.0105e-05	2.8963e-06	254.16	1.2392e-07	1.1054e-07	667.16	104.94	1.2167e-07	1.0915e-07	272.73	102.23	37.598	13.585	1.1094e-07	38.334	-138.772	-82.913	-112.544	-146.949	9.284	1.184	-146.926	-140.867	-102.348	-148.218	-141.955	-137.581	-137.237	-131.516	-34.652	-133.069	-8191	255	
7329.941	1	1	0	0	0.20458	0.21348	0.19657	0.08982	0.31781	0.25677	0.10715	0.22734	0.33646	0.17168	0.14248	0.14672	0.2096	0.11332	0.14673	0.095756	-1.9979	-2.8542	-2.4708	-2.6333	-2.8375	-2.5583	-3.025	-2.5	-2.4229	-2.7667	-2.5542	-2.7958	-2.8396	-2.375	-2.8396	-2.6833	31.471	-64.557	29.710	-92.177	8.159	-68.765	-86.541	146.755	168.879	-97.486	174.143	150.982	134.605	181.485	114.503	-132.864	0.00033149	0.00025287	8.1082e-05	411.04	1.6166e-06	2.2843e-06	870.07	136.95	1.8804e-06	2.2851e-06	377.24	139.27	50.359	18.872	8.6297e-07	53.703	1.6156e-05	1.035e-05	2.9878e-06	254.68	1.2142e-07	1.1185e-07	667.67	104.91	1.2994e-07	1.0828e-07	272.39	101.82	37.155	13.526	1.2262e-07	37.907	-132.097	-65.142	-127.253	-147.247	-17.101	-17.332	-146.788	-141.212	-20.271	-38.297	-141.266	-137.587	-136.501	-131.283	-5.776	-133.101	-8191	255	
7330.038	1	1	0	0	0.28322	0.23134	0.16506	0.18333	0.16747	0.10639	0.16805	0.3692	0.15272	0.056563	0.23406	0.2837	0.042006	0.14035	0.21948	0.17049	-2.1562	-2.8083	-2.1896	-2.4292	-2.5438	-2.1937	-2.8792	-2.7313	-2.475	-2.8604	-2.6917	-2.6479	-2.8771	-2.0917	-2.6521	-2.6271	142.293	-79.098	-137.478	43.316	-20.410	-17.331	151.996	-142.612	-19.325	-85.884	149.613	108.592	-133.232	-0.280	120.078	35.421	0.00035274	0.0003065	7.5117e-05	409.63	9.4154e-07	1.0642e-06	860.39	135.59	2.2423e-06	1.1747e-06	369.21	137.05	50.539	18.417	1.5493e-06	52.831	1.6236e-05	1.0049e-05	3.1025e-06	253.52	1.1269e-07	1.0899e-07	661.89	103.53	1.2264e-07	1.0032e-07	267.02	100.23	36.913	13.344	1.2573e-07	37.087	-145.640	-142.997	180.021	-147.875	109.245	-68.433	-146.702	-141.578	-121.741	-30.627	-141.649	-137.980	-137.260	-131.161	-50.889	-133.006	-8191	255	
7330.134	1	1	0	0	0.19915	0.03831	0.12697	0.19133	0.15543	0.15594	0.33273	0.10536	0.065862	0.047472	0.090937	0.35893	0.28481	0.16189	0.17939	0.14679	-1.8104	-2.5812	-2.5333	-2.5292	-2.975	-2.55	-2.7854	-2.8417	-2.4583	-2.8771	-2.4437	-2.5083	-3.0146	-2.4917	-2.8604	-2.7021	94.331	116.939	-114.500	13.768	-145.235	111.779	158.925	127.803	-44.829	95.413	-87.173	117.246	-68.088	82.763	-137.689	137.387	0.00033754	0.00017806	7.8037e-05	415.15	2.0882e-06	6.864e-07	850.47	136.54	2.003e-06	7.6085e-07	371.72	136.58	50.405	18.734	2.609e-06	53.435	1.5578e-05	1.0056e-05	3.2639e-06	257.12	1.1425e-07	1.1325e-07	657.18	103.63	1.2155e-07	1.1189e-07	267.85	100.22	36.905	13.397	1.305e-07	37.481	-136.844	-107.178	-156.285	-147.019	-38.235	-133.221	-146.902	-141.063	-78.757	-18.138	-142.165	-137.705	-137.444	-131.298	-76.617	-133.086	-8191	255	
7330.254	1	1	0	0	0.18129	0.18331	0.19605	0.13843	0.12542	0.091734	0.11587	0.046823	0.18613	0.33109	0.059082	0.25844	0.11465	0.17608	0.27126	0.10581	-2.025	-2.8563	-2.4229	-2.3833	-2.8625	-2.4208	-2.7625	-2.7083	-2.5125	-2.9208	-2.7771	-2.5667	-3.0854	-2.4875	-2.6813	-2.9771	-114.501	-8.367	-105.089	-25.688	-148.166	-58.185	19.010	-34.732	-13.063	155.077	-114.379	-112.753	-53.691	82.902	-75.330	20.431	0.00035233	0.00011964	0.0001008	409.66	1.1538e-06	3.0744e-06	855.24	135.67	1.0831e-06	2.4775e-06	370.93	137.77	50.72	18.523	2.9828e-07	53.535	1.5099e-05	1.0837e-05	3.3522e-06	253.8	1.0658e-07	1.2028e-07	658.43	103.64	1.1123e-07	1.1761e-07	268	100.72	36.947	13.376	1.2749e-07	37.636	-139.913	-106.889	-109.983	-148.085	-7.223	-46.490	-146.523	-141.539	-43.289	-94.065	-141.738	-137.880	-137.088	-130.973	-44.747	-132.910	-8191	255	
7330.349	1	1	0	0	0.19892	0.15823	0.18247	0.25796	0.24507	0.054642	0.15893	0.073676	0.22985	0.23393	0.16543	0.15075	0.037262	0.12182	0.11595	0.16483	-1.9625	-2.8167	-2.5	-2.325	-2.95	-2.5542	-2.5812	-2.8292	-2.5354	-2.6292	-2.5167	-2.5	-2.8333	-2.5521	-2.4917	-3.0563	196.650	-120.709	-147.332	179.768	168.608	93.541	-136.450	-98.754	128.965	143.610	141.678	143.289	-138.196	-141.831	67.190	83.183	0.00036395	0.000368	7.2192e-05	413.4	1.9369e-06	2.7141e-06	860.51	136.73	1.692e-06	2.5974e-06	372.08	136.76	49.959	18.484	1.4016e-06	53.007	1.4978e-05	1.1023e-05	3.114e-06	252.03	1.0861e-07	1.3083e-07	660.02	103.47	1.1038e-07	1.3006e-07	267.64	99.827	36.737	13.318	1.2179e-07	37.366	-139.985	-122.262	-130.170	-147.970	40.958	-41.029	-146.398	-141.079	-47.802	-60.187	-142.209	-137.493	-137.235	-131.123	-51.577	-132.715	-8191	255	
7330.445	1	1	0	0	0.31759	0.072109	0.18229	0.19256	0.15558	0.052735	0.12385	0.16803	0.30568	0.25099	0.12314	0.14814	0.06634	0.15102	0.056543	0.28928	-1.9396	-2.6667	-2.7	-2.2604	-2.6312	-2.625	-2.6	-2.8833	-2.3208	-2.4813	-2.7875	-2.5458	-2.9021	-2.7021	-2.5187	-3.0062	180.930	14.823	96.911	132.529	176.681	147.154	101.828	-121.770	-33.645	-47.009	46.135	-125.787	170.791	-106.270	49.165	7.974	0.00033488	0.00034893	1.5231e-05	412.99	1.398e-06	2.6191e-06	855.15	134.94	2.6642e-06	3.0458e-06	366.53	134.96	49.531	18.401	2.7129e-06	52.645	1.5402e-05	1.1815e-05	3.0709e-06	251.97	1.1336e-07	1.2709e-07	655	102.12	1.2535e-07	1.2888e-07	264.59	98.819	36.162	13.135	1.2244e-07	36.896	-135.796	-133.372	-78.161	-146.997	-8.925	-8.635	-146.800	-141.302	-112.175	-65.398	-141.926	-137.754	-137.369	-130.980	-101.889	-132.650	-8191	255	
7330.541	1	1	0	0	0.18348	0.11266	0.13501	0.26304	0.12743	0.035494	0.14276	0.072485	0.19059	0.079881	0.14244	0.12303	0.24903	0.29452	0.18248	0.2317	-2.1292	-2.7562	-2.6354	-2.3958	-2.9458	-2.5396	-2.5979	-2.9146	-2.2625	-2.7417	-2.7	-2.4208	-2.8729	-2.7458	-2.4625	-2.9562	-0.253	119.361	-56.689	72.136	-60.915	27.404	24.281	-28.230	83.794	-98.937	144.123	140.306	88.509	-130.950	142.153	91.072	0.00030901	0.00018066	5.3199e-05	402.53	1.5619e-06	2.8292e-06	848.5	134.57	2.1373e-06	2.1198e-06	368.4	135.5	49.728	18.46	1.7185e-06	52.651	1.598e-05	1.1796e-05	2.9094e-06	250.26	1.2878e-07	1.2614e-07	653.08	102.29	1.3522e-07	1.2614e-07	264.98	98.948	36.306	13.15	1.1305e-07	36.921	-140.488	-77.712	-117.317	-147.261	-28.281	-56.532	-146.566	-140.809	-61.532	-69.003	-142.187	-137.514	-137.278	-131.560	-63.268	-132.828	-8191	255	
7330.637	1	1	0	0	0.20763	0.045295	0.1182	0.030235	0.29187	0.04728	0.052362	0.24459	0.16812	0.23145	0.25905	0.22833	0.15758	0.18842	0.26589	0.12556	-2.2167	-2.4521	-2.9167	-2.4437	-2.7083	-2.6271	-2.2729	-2.8271	-2.325	-2.5917	-2.9958	-2.3896	-2.8	-2.8354	-2.2938	-2.8729	134.546	-59.238	142.631	-141.756	-112.953	20.535	-84.574	43.803	171.758	14.215	190.467	169.209	-121.558	-112.770	171.842	167.610	0.00032376	0.0003514	7.5643e-05	404.74	1.1215e-06	2.5045e-06	859.06	135.3	2.771e-06	7.8704e-07	368.26	135.7	49.607	18.442	4.3081e-07	52.992	1.5965e-05	1.0825e-05	2.9371e-06	250.65	1.2582e-07	1.1901e-07	655.84	102.48	1.3542e-07	1.2329e-07	264.67	98.973	36.338	13.187	1.1683e-07	37.226	-144.425	-126.310	-111.023	-147.502	-51.152	-78.733	-146.432	-141.069	-60.055	91.796	-141.748	-137.550	-137.108	-131.422	-130.590	-132.738	-8191	255	
7330.733	1	1	0	0	0.17585	0.14711	0.13798	0.097519	0.13525	0.17842	0.29533	0.07913	0.15938	0.062527	0.24667	0.18554	0.10683	0.21323	0.15609	0.29666	-2.1896	-2.4479	-2.9979	-2.6063	-2.8083	-2.7562	-2.3708	-2.7396	-2.525	-2.525	-2.9	-2.6583	-2.8563	-2.6562	-2.2417	-3.0458	-36.696	-7.499	54.327	28.086	169.590	184.398	133.676	106.004	145.383	68.966	-145.930	166.093	169.076	103.336	-138.592	64.325	0.00029997	0.00016878	7.3108e-05	406.84	2.1228e-06	1.9808e-06	850.45	134.05	1.6986e-06	3.8241e-06	368.07	136.38	49.864	18.223	1.9757e-06	53.362	1.6969e-05	1.0743e-05	2.7825e-06	253.03	1.2865e-07	1.1487e-07	658.46	102.57	1.3499e-07	1.1373e-07	266.44	99.725	36.557	13.162	1.1068e-07	37.388	-137.252	-88.003	-141.214	-147.199	6.221	-59.871	-146.812	-140.984	-30.518	-74.216	-141.724	-137.892	-137.180	-131.463	-34.140	-132.355	-8191	255	
7330.830	1	1	0	0	0.1483	0.11278	0.22564	0.11848	0.025463	0.13656	0.23524	0.13718	0.12572	0.057547	0.090363	0.32372	0.16456	0.1139	0.168	0.2333	-2.2917	-2.5271	-2.8854	-2.375	-2.7896	-2.7604	-2.3875	-2.775	-2.7	-2.5354	-2.9125	-2.6188	-2.5396	-2.8958	-2.3458	-2.5167	34.720	-111.708	-28.779	-133.187	-118.731	-108.153	174.786	165.760	125.711	-59.164	-32.662	109.146	184.592	-124.445	-82.692	-17.338	0.00035102	0.00024497	8.9937e-05	399.65	1.4105e-06	3.5027e-06	841.4	133.77	5.1889e-07	2.2635e-06	364.22	135.92	49.429	18.309	1.629e-06	52.078	1.6294e-05	1.067e-05	2.7137e-06	251.56	1.2695e-07	1.1766e-07	651.77	102	1.2475e-07	1.1812e-07	262.9	99.064	36.228	13.052	1.1791e-07	36.606	-142.288	-73.509	-133.091	-148.012	-27.696	17.416	-146.609	-141.334	-34.000	-93.300	-141.885	-137.409	-137.573	-131.677	-68.770	-132.998	-8191	255	
7330.950	1	1	0	0	0.28903	0.23759	0.20309	0.050914	0.25839	0.095667	0.24549	0.17444	0.20759	0.18521	0.16009	0.11272	0.19976	0.094113	0.31244	0.20609	-2.1375	-2.2375	-2.8667	-2.6854	-2.7417	-3.1646	-2.575	-2.7375	-2.6417	-2.3021	-2.9667	-2.7188	-2.5458	-3.0417	-2.3438	-2.7542	94.449	-107.141	-19.562	113.571	103.049	-97.576	159.307	110.436	85.161	-65.023	37.365	-72.921	42.192	-152.916	-70.115	146.034	0.00031003	0.00030171	4.9863e-05	401.05	2.4737e-06	7.6529e-07	845.3	133.38	5.8483e-07	2.148e-06	363.45	134.01	49.349	18.339	2.8315e-06	52.459	1.6334e-05	1.0434e-05	2.7398e-06	250.57	1.1601e-07	1.0604e-07	650.14	101.58	1.278e-07	1.0535e-07	262.86	98.401	35.994	13.04	1.2091e-07	36.907	-138.613	-115.877	-121.941	-147.816	-24.218	-38.207	-146.808	-140.526	-5.417	-82.882	-141.772	-137.452	-137.486	-131.858	-109.170	-132.814	-8191	255	
7331.046	1	1	0	0	0.01967	0.16614	0.1294	0.12216	0.24486	0.12464	0.063634	0.037499	0.25547	0.24657	0.12118	0.11784	0.1051	0.18284	0.12767	0.11641	-2.2229	-2.1854	-2.7979	-2.6688	-2.5604	-3.0146	-2.5563	-2.5479	-2.7792	-2.3854	-2.7604	-2.8438	-2.4583	-2.8896	-2.5167	-2.5333	156.145	-49.082	-113.796	128.797	-133.680	-70.033	49.318	75.232	160.205	-101.641	3.247	78.861	49.214	62.761	-39.063	-62.552	0.00035006	0.00032088	5.2745e-05	406.04	2.8303e-06	2.2476e-06	847.77	134.1	2.5249e-06	1.6483e-06	365.3	136.5	49.643	18.191	1.4936e-06	53.525	1.563e-05	1.0395e-05	3.0477e-06	253.66	1.2027e-07	1.0886e-07	652.62	101.47	1.2557e-07	1.1301e-07	264.54	99.248	36.387	13.119	1.2871e-07	37.472	-135.571	-116.125	-123.842	-147.099	-6.111	-13.945	-146.592	-141.157	-20.663	-45.374	-141.576	-137.357	-136.782	-131.998	-92.212	-132.555	-8191	255	
7331.118	1	1	0	0	0.16579	0.36269	0.15304	0.18989	0.24004	0.13262	0.3376	0.11363	0.21185	0.21272	0.23757	0.3417	0.20803	0.083269	0.10002	0.13891	-2.2167	-2.1896	-2.5271	-2.5625	-2.6125	-2.9667	-2.7167	-2.7458	-2.8333	-2.4542	-2.875	-2.7042	-2.3521	-2.8396	-2.4667	-2.9938	99.886	102.808	-15.093	-152.788	-72.036	-123.653	113.388	-134.763	152.940	146.860	83.654	-133.281	123.534	47.417	-100.495	13.346	0.00036848	0.00020802	2.0772e-05	403.06	1.1255e-06	1.0564e-06	856.88	134.24	1.6854e-06	2.4198e-06	371.31	137.09	49.922	18.28	1.388e-06	53.438	1.5813e-05	1.0474e-05	3.2689e-06	252.5	1.1797e-07	1.0475e-07	656.14	102.33	1.1872e-07	1.1735e-07	266.66	100.08	36.467	13.195	1.2856e-07	37.522	-135.563	-115.726	74.937	-146.495	-20.112	-73.367	-146.715	-141.666	-77.455	-58.091	-141.841	-137.614	-136.942	-131.279	-8.434	-131.884	-8191	255	
7331.214	1	1	0	0	0.16155	0.29428	0.24913	0.14176	0.36244	0.18406	0.23652	0.31249	0.1383	0.28113	0.03998	0.26577	0.13699	0.11176	0.18054	0.2232	-2.4188	-2.3729	-2.7458	-2.6646	-2.2875	-2.6229	-2.425	-2.5229	-2.8375	-2.5458	-2.8958	-2.9167	-2.5938	-2.8625	-2.7083	-2.5875	75.440	-73.444	159.403	-87.727	180.791	190.897	-137.568	100.791	-73.405	-149.579	186.851	-156.324	80.276	124.484	76.847	181.158	0.00030663	0.00013884	2.7063e-05	411.38	1.0501e-06	6.0442e-07	848.62	134.41	2.6894e-07	1.92e-06	367.57	134.35	48.909	18.072	1.0555e-06	52.408	1.4647e-05	1.0736e-05	3.2202e-06	252.42	1.1613e-07	1.1474e-07	652.15	101.77	1.1054e-07	1.17e-07	264.25	98.701	35.949	13.03	1.2991e-07	36.827	-134.094	-67.105	-119.445	-147.335	-118.406	-43.100	-146.616	-141.391	-104.774	-25.019	-142.127	-137.800	-137.682	-131.022	-62.405	-132.699	-8191	255	
7331.333	1	1	0	0	0.083833	0.067081	0.15779	0.35806	0.091587	0.068236	0.31725	0.14078	0.050021	0.058239	0.13115	0.19059	0.14024	0.24122	0.11583	0.40802	-2.6083	-2.2729	-2.4375	-2.8417	-2.5333	-3.0062	-2.6229	-2.3542	-2.7979	-2.4083	-2.6667	-2.9813	-2.2313	-2.5687	-2.4729	-2.2313	79.859	143.545	70.775	-75.613	59.687	184.784	141.712	191.791	-117.230	154.938	-109.661	144.383	133.837	-82.811	-0.788	155.182	0.0003321	0.0003815	2.6029e-05	403.7	6.1329e-07	2.8679e-06	841.06	132.29	2.5698e-06	2.2044e-06	362.49	136.31	48.979	18.15	6.0431e-07	52.337	1.5491e-05	1.1602e-05	3.2744e-06	248.59	1.1247e-07	1.1308e-07	646.36	100.85	1.1674e-07	1.2899e-07	262.18	98.822	35.973	13.055	1.2939e-07	36.956	-135.370	-93.947	-153.840	-146.652	12.234	-115.069	-146.671	-141.103	-50.589	-59.881	-141.985	-137.996	-137.489	-131.050	-42.805	-132.691	-8191	255	
7331.429	1	1	0	0	0.23511	0.11833	0.059733	0.29812	0.095497	0.29412	0.24485	0.038766	0.2765	0.30673	0.13529	0.064474	0.025132	0.28238	0.0064268	0.20063	-2.2896	-2.5375	-2.6104	-2.8917	-2.3354	-2.7521	-2.7333	-2.5292	-3.0042	-2.6083	-2.5479	-2.775	-2.3146	-2.7938	-2.8083	-2.7812	-95.385	24.179	187.390	5.879	14.567	58.013	-15.861	97.852	137.092	46.936	-100.754	-37.221	121.050	-128.350	69.058	39.407	0.00033023	0.0002397	9.2254e-05	397.72	1.7994e-06	3.6446e-06	850.36	133.68	2.3778e-06	3.404e-06	369.66	135.8	49.484	18.326	2.843e-06	53.337	1.5195e-05	1.2027e-05	3.0984e-06	248.85	1.1957e-07	1.3322e-07	651.41	101.68	1.17e-07	1.3618e-07	266.12	99.247	36.252	13.233	1.2416e-07	37.481	-138.034	-133.596	-123.838	-146.896	1.129	-58.914	-146.653	-141.297	-75.814	-62.629	-141.753	-137.375	-137.634	-131.237	-72.221	-132.279	-8191	255	
7331.525	1	1	0	0	0.14861	0.20194	0.12505	0.11879	0.29612	0.26213	0.070044	0.065378	0.24069	0.23056	0.16124	0.088104	0.026948	0.20954	0.2426	0.10274	-2.4083	-2.4292	-2.4125	-2.9958	-2.3979	-2.7458	-2.9833	-2.3646	-2.6917	-2.375	-2.5438	-2.8458	-2.2854	-2.6021	-2.8646	-2.5604	167.794	163.390	22.694	34.350	106.880	160.769	53.318	95.978	-142.881	-83.983	-150.553	109.669	154.007	142.649	-76.851	-140.989	0.00032655	0.00013378	1.7228e-05	399.57	1.8359e-06	1.196e-06	857.66	135.93	5.3039e-07	4.1725e-06	372.28	137.21	49.905	18.351	2.4261e-06	53.748	1.613e-05	1.2462e-05	2.9827e-06	250.6	1.2656e-07	1.3145e-07	659.47	103.22	1.3032e-07	1.3061e-07	268.82	100.28	36.697	13.321	1.1797e-07	37.885	-132.406	-116.972	-149.690	-147.538	-39.233	-78.237	-146.192	-141.190	175.574	-49.864	-141.812	-137.614	-137.114	-131.526	-33.207	-132.646	-8191	255	
7331.646	1	1	0	0	0.17614	0.36441	0.15043	0.072267	0.173	0.15824	0.18702	0.10234	0.22973	0.040984	0.30366	0.15302	0.26379	0.15758	0.16744	0.24103	-2.5646	-2.7229	-2.5792	-2.9396	-2.5271	-2.6562	-2.9479	-2.3187	-2.9521	-2.7417	-2.3208	-2.8625	-2.2979	-2.7229	-2.9146	-2.5062	-84.357	144.853	192.962	94.168	-128.442	-53.777	136.788	0.979	-65.036	176.124	56.162	160.627	174.122	-141.035	-56.160	-124.893	0.0003142	0.00031833	7.2904e-05	410.36	1.3067e-06	8.0818e-07	854.28	135.23	3.682e-06	2.2058e-06	370.41	136.14	49.422	18.334	2.1509e-06	53.12	1.665e-05	1.1715e-05	3.0436e-06	251.59	1.2386e-07	1.2696e-07	656.08	102.45	1.3242e-07	1.2204e-07	266.57	99.774	36.371	13.183	1.123e-07	37.19	-142.698	-82.647	-133.357	-147.569	-31.543	-84.836	-146.628	-141.076	-24.137	-130.622	-141.929	-137.300	-137.064	-130.915	-32.358	-132.509	-8191	255	
7331.742	1	1	0	0	0.17251	0.092448	0.15155	0.080705	0.21163	0.11694	0.17398	0.073528	0.24802	0.23096	0.16551	0.20405	0.27549	0.18819	0.0047097	0.066957	-2.1708	-2.6458	-2.3312	-2.7146	-2.5229	-2.5375	-2.9042	-2.4792	-2.6604	-2.6312	-2.2708	-2.9208	-2.4167	-2.5792	-2.7896	-2.45	13.283	165.234	-133.439	193.773	131.589	101.487	111.543	87.058	14.677	2.295	-142.450	-16.580	170.378	-122.613	168.244	-128.949	0.00033193	9.6668e-05	9.0761e-05	407.42	8.338e-07	1.7245e-06	842.99	133.45	1.716e-06	2.2734e-06	365.79	135.32	48.955	18.199	3.4467e-06	52.539	1.7326e-05	1.1538e-05	2.9076e-06	252.62	1.3659e-07	1.1905e-07	648.92	101.3	1.3537e-07	1.1809e-07	263.22	98.444	36.012	13.134	1.1845e-07	37.091	-138.752	199.292	-127.795	-148.374	-29.142	-25.395	-146.839	-141.145	4.145	-62.289	-141.190	-137.897	-136.789	-131.733	-36.290	-133.053	-8191	255	
7331.814	1	1	0	0	0.054291	0.26453	0.26242	0.11668	0.12135	0.059385	0.14302	0.11095	0.16814	0.42761	0.25899	0.027571	0.10606	0.20229	0.09981	0.12739	-2.2812	-2.5708	-2.1437	-2.8333	-2.6146	-2.3896	-2.9208	-2.3438	-2.7271	-2.7646	-2.4125	-3.0833	-2.8958	-2.4042	-2.9229	-2.6854	77.332	147.148	-35.111	98.712	-3.135	115.513	126.546	194.374	-144.265	-131.290	192.371	-39.802	168.318	170.228	154.639	151.580	0.00032316	0.00016931	0.00011108	402.91	3.2732e-06	6.2111e-07	843.73	133.54	6.3559e-07	2.2276e-06	367.68	134.52	48.999	18.6	1.1598e-06	53.113	1.7205e-05	1.1193e-05	2.8348e-06	250.01	1.3522e-07	1.1846e-07	647.99	101.36	1.3262e-07	1.1765e-07	263.69	98.605	35.889	13.252	1.1176e-07	37.379	-141.394	-117.812	-140.988	-146.780	-3.371	-105.617	-146.593	-140.916	-5.017	-38.465	-141.902	-137.280	-137.395	-131.142	-31.986	-132.103	-8191	255	
7331.934	1	1	0	0	0.15536	0.096489	0.10136	0.044705	0.33713	0.45084	0.17578	0.13349	0.28955	0.24902	0.30521	0.22551	0.25399	0.1663	0.24421	0.15884	-2.4437	-2.8042	-2.4042	-2.6083	-2.6271	-2.2875	-3.1792	-2.5771	-2.75	-3.1562	-2.4708	-2.7667	-2.5458	-2.45	-2.9062	-2.9708	153.456	167.711	64.979	-9.573	-58.677	-23.426	30.565	151.061	-101.652	-111.079	165.215	-139.907	156.007	94.176	-12.473	156.406	0.00035612	0.0001885	4.1692e-05	402.49	1.6299e-06	8.696e-07	837.73	131.97	1.6157e-06	3.8478e-07	366.69	135.89	49.163	18.341	3.8268e-06	53.777	1.6674e-05	1.0945e-05	2.908e-06	250.03	1.2557e-07	1.1914e-07	645.34	101.5	1.2734e-07	1.177e-07	265.17	99.437	35.981	13.141	1.1289e-07	37.77	-139.736	-62.494	-127.705	-147.307	-26.244	-44.026	-146.800	-141.669	-62.516	-55.981	-141.631	-137.409	-137.244	-131.318	-87.902	-132.703	-8191	255	
7332.031	1	1	0	0	0.093572	0.23293	0.26307	0.18236	0.18827	0.14257	0.26642	0.18411	0.2629	0.21658	0.20091	0.15205	0.29733	0.16372	0.30541	0.11258	-2.2438	-2.8083	-2.25	-2.7687	-2.5062	-2.4417	-3.0021	-2.8354	-2.4188	-2.775	-2.2729	-2.6229	-2.7125	-2.5167	-2.7313	-2.85	58.241	151.094	-96.858	52.725	-128.257	6.981	162.391	115.358	-34.386	-131.121	68.587	-142.099	66.315	65.476	122.290	111.092	0.00033147	0.0003601	3.5001e-05	396.24	1.9532e-06	2.1465e-06	844.32	134.09	1.2628e-06	7.1994e-07	365.93	134.59	48.783	18.2	1.4856e-06	52.442	1.6018e-05	1.0278e-05	3.2069e-06	249.8	1.2343e-07	1.1641e-07	646.96	101.73	1.2707e-07	1.0482e-07	264.09	98.584	35.723	13.067	1.205e-07	37.092	-136.501	-75.343	184.720	-147.090	-87.443	-60.066	-146.790	-141.220	-91.695	48.232	-141.744	-137.679	-136.773	-130.827	-66.680	-133.327	-8191	255	
7332.127	1	1	0	0	0.093444	0.038063	0.16098	0.067285	0.1715	0.2011	0.19488	0.24875	0.16495	0.19615	0.28798	0.274	0.14778	0.083997	0.13858	0.14499	-2.0125	-2.8458	-2.3854	-2.6208	-2.7458	-2.4042	-2.8563	-2.725	-2.6063	-3.0271	-2.4188	-2.5417	-2.7375	-2.4229	-2.6292	-2.6979	136.884	-89.585	85.149	-75.356	-57.676	154.434	102.183	-57.412	181.584	-132.129	-140.141	37.603	83.178	32.421	-59.540	119.068	0.00036008	8.0986e-05	9.619e-05	404.08	1.6134e-06	3.4901e-06	830.15	130.62	2.1514e-06	1.9001e-06	359.02	133.47	48.093	18.064	3.5655e-06	52.588	1.5733e-05	1.0226e-05	3.2603e-06	250.08	1.1958e-07	1.1588e-07	640.58	99.895	1.2289e-07	1.0872e-07	259.58	97.587	35.254	12.942	1.263e-07	36.824	-135.130	-105.073	-145.089	-146.369	4.704	-39.573	-146.630	-141.130	-39.165	-42.512	-141.673	-137.831	-136.891	-131.384	-72.836	-132.947	-8191	255	
7332.246	1	1	0	0	0.16956	0.10221	0.153	0.073536	0.054901	0.058279	0.33407	0.032643	0.22018	0.10715	0.045759	0.066063	0.20997	0.19109	0.30086	0.2711	-2.0104	-2.9271	-2.5042	-2.5375	-2.7667	-2.4708	-2.8875	-2.4396	-2.3417	-2.8083	-2.6583	-2.7146	-2.9208	-2.6375	-2.8208	-2.7354	113.561	176.957	124.760	36.753	196.865	57.656	188.356	-74.504	-0.448	114.548	-48.585	121.387	27.425	-132.100	-51.690	103.160	0.00036035	0.00019166	5.8962e-05	405.48	3.2717e-06	1.2297e-06	835.08	133.27	2.4725e-06	2.0357e-06	364.47	134.01	48.066	18.221	2.3174e-06	52.58	1.5649e-05	1.0405e-05	3.3144e-06	246.8	1.145e-07	1.1826e-07	640.83	100.5	1.2015e-07	1.1911e-07	261.7	97.831	35.376	13.019	1.2955e-07	36.968	-139.763	-112.010	170.200	-147.688	-20.812	51.431	-146.876	-141.273	-95.249	-76.718	-142.159	-137.482	-137.050	-131.482	-99.466	-132.325	-8191	255	
7332.342	1	1	0	0	0.080554	0.065465	0.038077	0.25223	0.13938	0.074338	0.17608	0.091734	0.20894	0.15984	0.17407	0.061461	0.097186	0.06968	0.24802	0.11696	-1.9937	-2.7167	-2.4271	-2.7083	-2.9896	-2.5792	-2.7833	-2.8	-2.2938	-2.7208	-2.6312	-2.5521	-2.9792	-2.525	-2.6792	-2.9583	107.138	185.557	-40.159	176.010	85.251	-47.666	-126.635	-151.150	68.708	-87.005	9.829	186.818	82.733	-12.878	130.192	128.155	0.00035555	0.00014903	6.4478e-05	401.36	1.0143e-06	2.1365e-06	837.53	132.41	2.5119e-06	2.4576e-07	364.67	135.18	49.159	18.383	3.0833e-06	53.032	1.5298e-05	1.0867e-05	3.4084e-06	248.25	1.097e-07	1.2742e-07	645	100.43	1.2298e-07	1.2414e-07	262.99	98.625	35.747	13.199	1.2888e-07	37.434	-137.744	-151.273	-126.134	-148.036	188.697	-62.759	-146.759	-140.621	-71.359	191.784	-141.713	-137.244	-137.018	-131.114	-53.037	-132.519	-8191	255	
7332.413	1	1	0	0	0.094539	0.18195	0.11214	0.2667	0.052129	0.1829	0.14029	0.1426	0.08111	0.17776	0.31741	0.29344	0.08705	0.19834	0.18193	0.22044	-1.9188	-2.6208	-2.3604	-2.2417	-2.9125	-2.6167	-2.8771	-2.9562	-2.3979	-2.7896	-2.7771	-2.2979	-2.7229	-2.5958	-2.6104	-2.7062	172.770	42.687	0.785	162.793	104.877	-151.142	120.348	17.761	143.128	188.431	175.520	117.472	177.409	-53.625	85.227	33.996	0.00030605	0.00013628	7.7674e-05	397.61	1.5652e-06	1.5726e-06	836.18	133.33	1.4796e-06	2.4809e-06	363.93	134.47	48.971	18.238	2.6642e-06	52.712	1.51e-05	1.1201e-05	3.1218e-06	248.97	1.1322e-07	1.2611e-07	644.8	100.77	1.2068e-07	1.307e-07	263.21	98.56	35.76	13.088	1.2829e-07	37.148	-139.463	-101.479	-92.270	-148.057	-25.396	-52.794	-146.365	-141.443	-11.894	21.614	-141.846	-137.990	-137.165	-131.351	-14.412	-132.812	-8191	255	
7332.510	1	1	0	0	0.22424	0.25166	0.2094	0.26349	0.14908	0.15191	0.14941	0.27079	0.12519	0.08584	0.091218	0.14102	0.069358	0.11163	0.044232	0.13814	-2.0125	-2.7146	-2.4562	-2.4333	-2.8667	-2.6	-2.8396	-2.8396	-2.2313	-2.5687	-2.7875	-2.5458	-2.8354	-2.6625	-2.4854	-2.8896	-146.627	-13.307	-52.129	-37.379	181.980	48.460	68.940	1.896	132.741	-70.848	89.254	-126.448	197.918	48.639	22.665	65.025	0.00032831	0.0003911	7.4205e-05	397.19	5.6724e-07	9.7597e-07	833.35	133.14	2.2649e-06	3.5868e-06	362.81	134.35	48.548	18.182	3.2638e-06	52.454	1.6133e-05	1.2099e-05	3.2157e-06	246.81	1.1357e-07	1.3843e-07	643.17	100.65	1.2559e-07	1.3049e-07	261.51	98.283	35.71	12.998	1.2639e-07	36.868	-143.462	-82.747	-141.114	-146.852	-56.724	14.907	-146.156	-141.055	-45.510	-60.749	-141.695	-137.607	-136.914	-131.473	-70.187	-132.680	-8191	255	
7332.630	1	1	0	0	0.21126	0.049936	0.069919	0.077508	0.03924	0.29905	0.1801	0.19434	0.095264	0.026882	0.25268	0.017553	0.14399	0.22426	0.097696	0.24432	-2.0229	-2.6479	-2.6729	-2.35	-2.8937	-2.7667	-2.5729	-2.9021	-2.6042	-2.7104	-2.9542	-2.375	-2.6188	-2.5521	-2.3854	-3.0104	-41.715	-124.491	-8.677	-54.452	131.864	-129.899	-140.399	156.180	-8.749	-97.102	186.284	-128.094	118.264	147.986	78.608	94.507	0.00032437	0.00010596	4.6896e-05	397.81	1.7441e-06	1.3757e-06	841.69	132.99	2.8173e-06	2.3939e-06	364.31	135.42	48.994	18.067	1.9045e-06	52.541	1.5986e-05	1.2551e-05	3.0297e-06	247.54	1.2402e-07	1.3435e-07	645.31	100.98	1.3483e-07	1.3182e-07	262.75	98.545	36.017	13.066	1.2138e-07	37.193	-130.967	-63.814	-112.466	-147.568	-16.499	-64.292	-146.847	-140.736	-49.123	-29.143	-142.022	-138.179	-137.058	-131.128	-112.974	-133.084	-8191	255	
7332.726	1	1	0	0	0.1731	0.10395	0.069648	0.15035	0.24182	0.30172	0.1746	0.10508	0.29948	0.16615	0.12842	0.40239	0.1322	0.040811	0.26362	0.23991	-2.1271	-2.5479	-2.6104	-2.175	-2.9729	-2.8542	-2.6063	-2.9167	-2.4292	-2.3312	-2.9104	-2.5729	-2.7958	-2.6625	-2.3083	-2.9875	84.378	48.699	-136.633	87.354	-91.316	-100.575	157.871	-50.441	-117.227	148.208	-116.783	130.821	133.905	120.067	45.603	-146.977	0.00032007	0.00023799	0.00011099	401.24	1.7534e-06	3.0218e-06	844.38	133.39	4.1074e-07	2.959e-06	366.54	135.46	49.03	18.432	2.719e-06	53.171	1.642e-05	1.163e-05	2.9172e-06	248.51	1.4014e-07	1.259e-07	648.6	101.43	1.3909e-07	1.2011e-07	264.74	98.876	35.982	13.158	1.2305e-07	37.523	-139.982	-137.254	-143.466	-147.203	-19.391	-0.784	-146.819	-140.915	-64.972	-41.738	-141.434	-137.723	-137.826	-131.820	-90.444	-132.640	-8191	255	
7332.822	1	1	0	0	0.33871	0.04762	0.26375	0.053701	0.1312	0.15186	0.13103	0.11366	0.088579	0.033598	0.13069	0.40274	0.043177	0.11012	0.088135	0.15143	-2.0792	-2.375	-2.7583	-2.475	-2.8833	-2.6354	-2.5896	-2.8708	-2.5563	-2.4542	-3.2917	-2.6396	-2.7313	-2.7687	-2.3354	-2.7812	-128.235	152.232	94.984	163.871	35.595	-33.630	179.807	151.113	160.279	-60.294	173.258	116.174	184.130	171.436	37.731	-151.174	0.00034142	0.00012946	7.2644e-05	396.46	7.3752e-07	2.6872e-06	853.37	133.33	2.5602e-06	1.1805e-06	367.34	135.83	49.154	18.305	1.8469e-06	53.021	1.7498e-05	1.0828e-05	2.7687e-06	247.82	1.3392e-07	1.1535e-07	654.2	101.77	1.3833e-07	1.126e-07	264.67	99.122	36.028	13.145	1.1422e-07	37.264	-138.537	192.127	-142.597	-148.184	-1.049	-43.734	-146.407	-141.538	-49.936	-100.787	-141.952	-137.770	-137.006	-131.490	-60.006	-132.085	-8191	255	
7332.919	1	1	0	0	0.34935	0.10366	0.2138	0.19211	0.2691	0.21444	0.031613	0.17663	0.32753	0.16067	0.16859	0.25142	0.17089	0.14254	0.16665	0.13621	-2.0417	-2.4562	-2.9583	-2.3271	-2.6396	-2.7792	-2.425	-3.0604	-2.8542	-2.5229	-2.975	-2.6104	-2.4562	-2.7417	-2.2208	-2.6521	65.037	130.102	161.452	-46.691	-60.559	-112.657	-68.229	98.671	-91.664	180.838	-128.497	-85.249	-135.790	-101.285	60.782	95.038	0.00031823	0.00019482	4.9832e-05	398.8	1.5776e-06	1.9753e-06	845.57	134.43	2.7681e-06	1.8191e-06	367.21	134.77	49.126	18.051	2.1348e-06	52.606	1.7606e-05	1.0834e-05	2.699e-06	247.99	1.3249e-07	1.1809e-07	648.82	101.79	1.3677e-07	1.1348e-07	264.36	98.338	35.89	13.027	1.1501e-07	36.888	-138.770	193.131	176.018	-148.685	-50.718	-34.988	-146.481	-140.865	-22.260	-20.521	-141.772	-137.223	-137.296	-130.916	-47.515	-132.686	-8191	255	
7333.015	1	1	0	0	0.15276	0.25565	0.18622	0.2097	0.042396	0.10445	0.37075	0.094131	0.1203	0.20279	0.27681	0.12121	0.10848	0.066727	0.28353	0.058952	-2.3104	-2.4104	-2.7542	-2.5917	-2.5375	-2.9917	-2.6083	-2.7854	-2.7333	-2.4479	-2.9417	-2.4958	-2.425	-2.8375	-2.4042	-2.7792	161.097	-136.268	-119.396	-137.493	158.403	-90.386	97.540	-54.330	-148.009	81.899	93.956	153.016	65.235	-128.077	17.396	71.450	0.00029333	0.00015732	5.2278e-05	407.54	9.9185e-07	2.2434e-06	850.66	134.18	2.3313e-06	1.0371e-06	363.7	133.91	49.375	18.178	2.1454e-06	52.391	1.6005e-05	1.0808e-05	2.9347e-06	250.7	1.2265e-07	1.1159e-07	654.94	101.76	1.2595e-07	1.0963e-07	262.89	98.252	36.02	13.061	1.2026e-07	36.909	-139.055	-23.137	-129.224	-147.721	11.551	-13.045	-146.732	-141.501	-36.902	-127.390	-142.199	-137.634	-137.771	-130.823	-35.407	-132.850	-8191	255	
7333.111	1	1	0	0	0.1393	0.03473	0.14288	0.061622	0.092951	0.29744	0.086973	0.24655	0.11801	0.22447	0.16524	0.067482	0.07632	0.059424	0.10517	0.3101	-2.2708	-2.05	-2.7687	-2.3604	-2.4708	-2.8833	-2.3187	-2.5646	-2.7208	-2.5208	-2.925	-2.5708	-2.1729	-2.7792	-2.5292	-2.7979	189.599	102.531	122.792	-1.095	-151.177	113.403	23.935	148.549	48.938	50.092	155.234	-16.579	-37.055	-56.996	-3.486	155.436	0.00028981	0.00020553	4.0266e-05	402.98	2.1724e-06	1.1193e-06	845.62	132.25	2.5771e-06	1.369e-06	361.79	133.38	48.821	18.412	2.1113e-06	52.772	1.5344e-05	9.8329e-06	3.0537e-06	250.91	1.2438e-07	1.0765e-07	651.88	100.9	1.2309e-07	1.107e-07	261.27	97.936	35.666	13.072	1.2894e-07	36.986	-145.544	-64.163	172.944	-148.135	-26.228	-64.445	-146.882	-140.922	-43.499	-76.636	-141.473	-137.568	-137.185	-131.595	-130.284	-132.934	-8191	255	
7333.207	1	1	0	0	0.1184	0.10058	0.20581	0.15491	0.21626	0.10019	0.15417	0.28195	0.20314	0.21069	0.21758	0.057504	0.21605	0.27267	0.070877	0.40141	-2.4625	-2.1958	-2.6667	-2.6333	-2.5146	-2.9354	-2.65	-2.6937	-2.7396	-2.4583	-2.6979	-2.5938	-2.2812	-2.8167	-2.6292	-2.6271	109.309	-57.497	7.878	139.467	83.750	116.950	114.211	165.521	-140.149	53.972	-114.083	37.924	154.341	-64.036	65.407	121.857	0.00035104	0.00026423	4.5096e-05	406.82	1.9333e-06	1.0125e-06	852.97	133.81	2.1558e-06	2.9755e-06	364.82	133.37	48.889	18.087	7.7331e-07	52.919	1.5856e-05	1.0551e-05	3.21e-06	249.81	1.1768e-07	1.1351e-07	653.73	101.33	1.2394e-07	1.2095e-07	263	97.886	35.495	13.021	1.2832e-07	37.073	-137.226	-79.091	-114.828	-148.399	-27.977	-40.936	-146.547	-141.218	-116.719	-77.593	-141.753	-137.197	-136.700	-131.375	-79.984	-132.763	-8191	255	
7333.326	1	1	0	0	0.055768	0.12462	0.092339	0.068835	0.078166	0.068508	0.20724	0.19381	0.21279	0.14073	0.12843	0.065849	0.20023	0.12956	0.16548	0.070435	-2.5333	-2.3	-2.7875	-2.7687	-2.4313	-2.6667	-2.5729	-2.4938	-2.8979	-2.4458	-2.7458	-2.6479	-2.2438	-2.9146	-2.6667	-2.5646	35.004	70.606	-74.758	189.829	-133.335	-53.521	174.880	136.061	-61.191	-148.566	173.706	97.763	183.090	-137.490	-68.158	-140.663	0.00033475	0.00021196	5.1881e-05	401.33	1.8488e-06	1.5408e-06	841.7	131.92	3.2513e-06	1.3412e-06	359.52	131.88	47.935	17.941	2.1973e-06	51.789	1.5065e-05	1.1033e-05	3.203e-06	247.63	1.1575e-07	1.1286e-07	645.83	99.944	1.1712e-07	1.2294e-07	258.81	96.594	35.151	12.833	1.3008e-07	36.306	-144.557	-121.837	187.446	-147.347	-14.848	21.386	-146.479	-141.135	-38.571	-104.742	-141.234	-137.525	-137.613	-130.835	-52.606	-132.421	-8191	255	
7333.422	1	1	0	0	0.12535	0.11005	0.077318	0.14431	0.1915	0.16653	0.06758	0.11974	0.1656	0.34989	0.14235	0.1798	0.35596	0.060501	0.089432	0.3242	-2.4229	-2.2104	-2.5396	-2.7604	-2.6208	-2.7771	-2.5854	-2.5687	-2.7812	-2.4833	-2.8104	-2.7854	-2.2729	-2.8979	-2.625	-2.5417	14.063	197.026	23.797	-148.781	43.064	176.707	-145.640	57.891	-13.824	77.118	103.663	110.405	152.066	165.339	-74.547	130.716	0.00035509	0.00012054	3.4387e-05	404.11	1.4045e-07	2.1555e-06	835.4	130.49	1.4603e-06	1.239e-06	357.7	132.36	48.278	17.757	1.1787e-06	51.76	1.5027e-05	1.1033e-05	3.1128e-06	247.76	1.1126e-07	1.2537e-07	643.33	99.336	1.1415e-07	1.2067e-07	258.04	96.647	35.06	12.766	1.273e-07	36.295	-136.938	-106.435	-155.496	-147.436	-76.012	-70.490	-146.281	-140.730	-49.781	-14.808	-141.190	-137.784	-137.392	-131.225	-119.773	-133.030	-8191	255	
7333.518	1	1	0	0	0.25255	0.1647	0.13639	0.073824	0.25246	0.072758	0.34665	0.13274	0.11695	0.28926	0.13468	0.25625	0.13531	0.24112	0.18453	0.094044	-2.3708	-2.3458	-2.6604	-2.8021	-2.2854	-2.725	-2.5521	-2.3875	-2.8042	-2.6146	-2.7146	-2.9646	-2.5	-2.7458	-2.8958	-2.4604	-118.406	105.293	164.695	-109.691	-55.471	142.949	82.837	-12.543	125.199	172.067	194.560	180.374	134.287	149.093	-114.979	-59.263	0.00036403	9.839e-05	4.6391e-05	387.37	1.3437e-07	1.7365e-06	837.76	129.75	3.3082e-06	2.0173e-06	361.72	132.21	47.637	18.049	1.2151e-06	52.275	1.5287e-05	1.1877e-05	3.1501e-06	244.32	1.147e-07	1.3001e-07	642.09	99.135	1.1756e-07	1.2655e-07	258.47	96.871	34.923	12.905	1.2298e-07	36.695	-139.151	-65.728	-107.886	-147.081	-147.538	-98.433	-146.598	-141.208	-21.862	-86.004	-141.850	-137.732	-136.752	-131.606	-22.372	-132.965	-8191	255	
7333.614	1	1	0	0	0.12576	0.15005	0.1702	0.13142	0.22654	0.016608	0.039564	0.072564	0.19193	0.096368	0.1032	0.10367	0.031632	0.33866	0.17324	0.3465	-2.5	-2.5354	-2.5271	-2.8396	-2.3667	-2.7062	-2.8417	-2.4354	-2.9729	-2.6354	-2.4167	-2.8958	-2.4958	-2.7854	-2.7021	-2.6625	-45.690	0.372	-84.166	-99.363	-112.673	-131.330	-63.730	117.763	-10.799	136.775	196.335	107.359	141.345	72.739	125.639	164.372	0.00033436	0.00012808	5.3375e-05	393.67	1.5066e-06	1.4502e-06	833.78	130.88	1.6409e-06	2.1597e-06	357.63	132.68	48.329	18.135	1.5027e-06	52.324	1.539e-05	1.1568e-05	3.0537e-06	245.97	1.2244e-07	1.3219e-07	643.34	99.413	1.2849e-07	1.314e-07	259.27	97.317	35.198	12.955	1.142e-07	36.836	-136.257	-13.811	-125.254	-146.490	-60.718	-47.286	-147.034	-141.153	-113.736	-74.920	-141.699	-137.371	-136.317	-131.321	36.703	-132.727	-8191	255	
7333.711	1	1	0	0	0.05193	0.21431	0.11232	0.19279	0.20673	0.12685	0.23867	0.064928	0.071896	0.1332	0.16407	0.15717	0.22492	0.039017	0.17324	0.086622	-2.3729	-2.4292	-2.5375	-2.6229	-2.325	-2.5792	-2.8583	-2.2979	-2.9021	-2.6521	-2.5146	-3.0438	-2.3979	-2.3604	-2.7812	-2.6583	84.388	-53.649	-139.762	-126.859	45.212	-66.779	150.061	137.001	149.670	58.084	163.915	147.198	-123.933	53.294	94.485	59.533	0.00032399	0.00010693	6.4477e-05	397.47	1.2096e-06	6.7384e-07	830.28	131.3	1.615e-06	2.8837e-06	357.57	131.93	47.319	17.83	1.3652e-06	51.498	1.6404e-05	1.1478e-05	2.8928e-06	244.66	1.2621e-07	1.2717e-07	638.84	98.887	1.3386e-07	1.2191e-07	258.26	96.109	34.682	12.749	1.1167e-07	36.321	-138.386	12.081	-128.108	-147.391	46.706	-131.261	-146.916	-140.756	-118.206	-49.691	-141.966	-137.440	-136.498	-131.086	-70.995	-132.709	-8191	255	
7333.807	1	1	0	0	0.27159	0.033296	0.045943	0.15178	0.08376	0.22352	0.22593	0.16633	0.1015	0.13207	0.45346	0.13365	0.29534	0.11911	0.1459	0.14907	-2.5312	-2.6562	-2.2167	-2.8646	-2.4604	-2.5333	-2.7729	-2.375	-2.5396	-2.7	-2.1688	-2.7833	-2.5438	-2.4688	-2.8396	-2.3354	-70.741	-32.738	109.723	153.520	13.445	133.126	107.888	-0.852	107.697	175.339	184.288	-140.617	138.911	200.022	-146.423	-123.892	0.00039403	0.00024891	6.0153e-05	399.35	2.3957e-06	2.7261e-06	821.91	129.15	3.0204e-06	1.0391e-06	356.25	130.02	47.795	17.631	2.5104e-06	51.485	1.6919e-05	1.1181e-05	2.7135e-06	246.98	1.3262e-07	1.2075e-07	633.48	98.315	1.3679e-07	1.1923e-07	257.23	95.728	34.89	12.683	1.1485e-07	36.2	-147.902	-93.016	-149.308	-146.650	31.910	-58.261	-146.887	-141.621	3.775	-17.664	-141.981	-137.510	-136.961	-131.495	-125.151	-132.961	-8191	255	
7333.927	1	1	0	0	0.23941	0.17359	0.15717	0.16036	0.065435	0.35307	0.074593	0.12849	0.093042	0.10836	0.23911	0.13634	0.12973	0.26846	0.16262	0.19455	-2.3375	-2.8854	-2.2896	-2.8042	-2.6813	-2.4917	-2.95	-2.6875	-2.6708	-2.7771	-2.1833	-2.8479	-2.3625	-2.3083	-3.0062	-2.4292	77.099	-19.809	154.957	-133.952	132.925	101.863	108.450	178.179	189.483	181.893	162.781	-153.751	162.579	199.644	129.117	186.690	0.00035141	0.0002567	8.4477e-05	391.16	1.6222e-06	2.9604e-06	830.63	130.48	1.711e-06	4.1698e-06	356.03	132.37	47.158	17.653	1.0122e-06	51.962	1.6819e-05	1.0288e-05	2.8415e-06	244.99	1.3707e-07	1.2056e-07	637.69	99.059	1.3147e-07	1.1482e-07	257.68	96.835	34.896	12.72	1.0706e-07	36.631	-136.545	-74.522	-151.754	-147.376	-30.049	-110.103	-146.597	-141.320	-31.116	-74.536	-141.492	-138.013	-137.128	-131.713	-81.811	-132.769	-8191	255	
7334.023	1	1	0	0	0.070821	0.11665	0.059618	0.20825	0.13299	0.12278	0.16159	0.14886	0.19877	0.077074	0.19559	0.17056	0.12405	0.17307	0.052294	0.19339	-2.175	-2.7854	-2.4396	-2.6875	-2.6417	-2.2854	-2.9313	-2.4521	-2.4854	-2.9646	-2.475	-2.7062	-2.6917	-2.3083	-2.9708	-2.625	-153.855	7.670	129.113	-36.149	133.793	-50.963	118.277	-95.304	-158.066	106.250	-151.330	109.232	162.433	88.373	165.382	169.198	0.00027709	0.00021956	4.3077e-05	398.65	1.347e-06	3.9164e-06	841.31	132.28	2.1221e-06	8.9155e-07	363.2	132.81	47.616	18.015	1.3559e-06	52.695	1.6353e-05	1.0438e-05	2.89e-06	249.52	1.3189e-07	1.1795e-07	644.23	99.852	1.3516e-07	1.2242e-07	261.67	97.449	35.123	12.907	1.1632e-07	37.02	-138.369	-135.683	-147.694	-147.971	-48.967	-70.975	-146.502	-141.320	-88.106	-35.972	-141.519	-137.545	-136.881	-131.109	-40.490	-132.825	-8191	255	
7334.120	1	1	0	0	0.030465	0.089767	0.082445	0.16736	0.27449	0.18205	0.11751	0.41354	0.20812	0.12428	0.31422	0.23993	0.14077	0.078323	0.18421	0.26425	-2.1854	-2.625	-2.3375	-2.6667	-2.8604	-2.4708	-3.0062	-2.3833	-2.3646	-3.0396	-2.4688	-2.6604	-2.5021	-2.2396	-2.9271	-2.7333	59.575	-94.522	-96.487	-146.078	199.080	142.250	5.437	148.809	63.332	90.947	130.944	94.994	151.094	61.689	-112.724	112.447	0.00034195	0.00031711	6.6544e-05	400.8	1.0995e-06	6.5739e-07	833.6	130.09	1.9603e-06	1.5037e-06	358.35	132.81	47.192	17.813	7.7435e-07	52.506	1.6055e-05	1.0116e-05	3.0873e-06	248.79	1.1996e-07	1.0833e-07	640.45	99	1.239e-07	1.1596e-07	259.47	97.053	34.707	12.808	1.2467e-07	36.731	-139.664	-118.556	-83.493	-147.257	-65.074	17.971	-146.291	-140.662	-73.691	-53.575	-141.685	-137.658	-137.052	-130.836	37.981	-132.462	-8191	255	
7334.214	1	1	0	0	0.29156	0.17443	0.20484	0.17443	0.20144	0.31344	0.19638	0.10986	0.12745	0.14189	0.08179	0.12668	0.21242	0.38029	0.047063	0.17273	-1.9375	-2.7271	-2.3104	-2.7167	-2.9229	-2.5604	-2.7979	-2.5896	-2.3146	-2.6271	-2.5375	-2.6521	-2.7333	-2.5583	-2.8937	-2.6833	112.085	-71.011	-112.643	151.065	-10.816	-77.248	63.276	-68.334	160.109	-94.994	-114.467	-127.659	-61.850	165.559	163.422	189.840	0.00034467	0.00025565	9.2794e-05	395.73	2.223e-06	1.6764e-06	830.83	129.5	2.5737e-06	2.2964e-06	357.17	132.17	46.873	17.6	2.7265e-06	51.854	1.6045e-05	1.0567e-05	3.195e-06	247.64	1.1429e-07	1.1337e-07	638.7	98.288	1.223e-07	1.1434e-07	257.84	96.359	34.471	12.642	1.3005e-07	36.32	-141.413	-52.125	-141.913	-147.770	-22.382	-23.907	-146.847	-141.010	-52.762	-22.415	-141.747	-137.562	-136.932	-130.763	-62.160	-132.939	-8191	255	
7334.287	1	1	0	0	0.13878	0.16173	0.14148	0.13454	0.19516	0.22672	0.13539	0.081501	0.36835	0.059676	0.23168	0.057934	0.11588	0.088449	0.10278	0.23216	-1.9396	-2.7958	-2.5062	-2.5521	-2.9104	-2.3729	-2.7271	-2.7562	-2.4979	-2.8229	-2.575	-2.6375	-2.8208	-2.2833	-2.7812	-2.8979	-92.276	-136.988	179.630	115.092	-116.415	83.181	-138.696	198.739	163.776	130.063	117.006	58.076	133.500	192.266	110.817	-136.717	0.00034302	0.00017379	9.5335e-05	397.63	1.4468e-06	3.2312e-06	836.77	128.86	1.3214e-06	4.136e-06	354.48	131.25	46.666	17.838	9.6903e-07	52.041	1.6187e-05	1.0258e-05	3.394e-06	246.99	1.1499e-07	1.1229e-07	639.83	98.144	1.2038e-07	1.2065e-07	256.11	96.039	34.427	12.716	1.3752e-07	36.51	-140.282	-123.658	-139.306	-147.016	-77.650	-15.282	-146.621	-140.550	-26.553	-48.992	-141.711	-137.767	-136.805	-131.555	-32.778	-133.019	-8191	255	
7334.406	1	1	0	0	0.20059	0.20537	0.14372	0.11877	0.14995	0.1616	0.074257	0.13767	0.060827	0.1078	0.2897	0.1409	0.10819	0.034072	0.20684	0.23889	-2.05	-2.8271	-2.2812	-2.4583	-3.0125	-2.4917	-2.6813	-2.7562	-2.4521	-2.8875	-2.6917	-2.4167	-2.6958	-2.6521	-2.675	-2.8	87.253	199.101	-150.076	134.517	173.739	-43.214	109.814	152.102	-93.395	3.204	167.699	-88.869	174.495	28.134	112.880	-153.911	0.00033363	0.00025884	7.0327e-05	396.61	2.569e-06	9.91e-07	831.81	128.67	1.5439e-06	1.3854e-06	361.06	131.8	47.427	17.82	2.4711e-06	52.884	1.5044e-05	1.117e-05	3.3563e-06	245.75	1.1149e-07	1.2006e-07	639.36	98.64	1.201e-07	1.2e-07	260.13	96.823	34.762	12.757	1.225e-07	36.973	-139.625	-123.218	-127.775	-148.086	-49.572	19.180	-146.508	-141.316	-115.156	-27.145	-141.805	-137.192	-136.863	-131.357	-76.515	-132.344	-8191	255	
7334.502	1	1	0	0	0.1425	0.16327	0.14191	0.15718	0.1952	0.20829	0.084083	0.15913	0.22065	0.077335	0.03363	0.34534	0.11094	0.30045	0.10721	0.096774	-1.9875	-2.6854	-2.6937	-2.3979	-2.875	-2.3875	-2.6229	-2.8521	-2.4396	-2.9771	-2.7792	-2.5604	-2.8021	-2.6813	-2.6833	-2.7292	67.463	-69.849	-14.973	98.398	12.937	116.525	171.171	51.893	-118.967	-93.203	180.000	177.913	-68.664	89.221	-35.414	-137.348	0.00033322	9.4844e-05	8.2472e-05	397.95	2.1245e-06	2.3369e-06	834.33	129.43	2.3106e-06	1.501e-06	358.29	131.81	47.032	17.831	2.0568e-06	52.162	1.4564e-05	1.1686e-05	3.3665e-06	247.03	1.1545e-07	1.2489e-07	642.56	98.875	1.1964e-07	1.2515e-07	259	96.652	34.6	12.838	1.2708e-07	36.718	-136.962	-130.826	-157.872	-147.641	8.880	-73.387	-146.733	-141.184	12.646	-12.829	-141.094	-137.559	-136.863	-130.952	-70.486	-132.474	-8191	255	
7334.599	1	1	0	0	0.26513	0.058616	0.090895	0.28972	0.1622	0.17075	0.32398	0.33026	0.15795	0.13328	0.10377	0.18834	0.11939	0.29469	0.28196	0.14941	-2.1333	-2.7146	-2.5375	-2.3104	-2.9313	-2.5854	-2.5292	-2.8521	-2.5458	-2.7646	-2.6833	-2.4208	-2.7333	-2.4854	-2.4167	-2.7375	184.562	32.548	104.224	28.788	-128.537	7.341	130.913	193.671	-136.513	165.695	155.956	-136.507	181.414	-151.863	-103.738	169.653	0.00036099	0.00017279	6.4114e-05	396.82	2.0694e-06	3.1967e-06	828.57	130.15	2.0878e-06	3.0687e-06	359.07	131.3	47.329	17.786	2.0969e-06	52.123	1.6266e-05	1.2104e-05	3.1866e-06	245.18	1.1856e-07	1.307e-07	639.48	98.551	1.2432e-07	1.2982e-07	259.04	96.57	34.699	12.789	1.2126e-07	36.73	-134.296	-51.163	-129.525	-148.193	24.681	-6.639	-146.880	-141.431	-124.003	-50.419	-141.782	-137.217	-137.868	-130.514	-70.836	-132.222	-8191	255	
7334.695	1	1	0	0	0.20404	0.042356	0.2508	0.066404	0.18793	0.13272	0.22778	0.3761	0.10523	0.13225	0.36011	0.27373	0.092258	0.22345	0.13801	0.3167	-2.075	-2.7125	-2.6583	-2.3208	-2.9042	-2.6229	-2.5583	-2.7292	-2.5229	-2.7104	-2.7396	-2.5333	-2.95	-2.7417	-2.2958	-2.9833	192.258	177.130	-83.742	54.960	27.942	101.416	193.348	150.190	129.458	-41.841	151.265	176.546	154.964	-133.180	198.243	171.302	0.00030907	9.803e-05	4.0029e-05	396.24	2.8576e-06	1.9128e-06	837.41	129.5	2.0723e-06	2.2154e-06	361.26	132.03	47.955	17.919	1.7579e-06	52.197	1.6839e-05	1.1516e-05	3.0178e-06	246.51	1.3188e-07	1.2783e-07	644.31	98.79	1.329e-07	1.3539e-07	258.59	96.641	34.931	12.88	1.1814e-07	36.83	-143.060	10.033	194.134	-147.152	-24.364	-2.259	-146.395	-140.933	-24.955	-49.554	-141.768	-137.700	-137.066	-130.774	-31.603	-132.678	-8191	255	
7334.815	1	1	0	0	0.086851	0.058972	0.087587	0.10459	0.22494	0.19238	0.053424	0.25286	0.14916	0.070112	0.087687	0.18637	0.043428	0.084859	0.32742	0.336	-2.0812	-2.4646	-2.6396	-2.5292	-2.9792	-2.6271	-2.3521	-2.9458	-2.5792	-2.6708	-2.7354	-2.5729	-2.9958	-2.7854	-2.2042	-2.9458	-28.245	-65.450	-51.823	108.006	181.789	-44.164	-148.406	159.133	23.449	197.180	-143.339	24.553	-127.001	155.260	13.788	117.161	0.00035811	7.6825e-05	4.3792e-05	399.9	2.0073e-06	2.2833e-06	837.79	131.07	1.5789e-06	2.9007e-06	358.83	132.76	47.287	18.058	1.9822e-06	52.681	1.7089e-05	1.2023e-05	2.9761e-06	245.83	1.2899e-07	1.2118e-07	643.87	98.858	1.4064e-07	1.2889e-07	258.92	96.861	34.763	12.859	1.1556e-07	37.011	-139.395	-24.685	192.397	-147.126	-41.908	-69.997	-146.376	-140.886	-19.050	-58.923	-141.671	-137.541	-137.201	-131.468	-28.181	-132.564	-8191	255	
7334.912	1	1	0	0	0.26168	0.21282	0.11596	0.18245	0.10813	0.24992	0.22882	0.066327	0.1492	0.12902	0.093964	0.27615	0.15687	0.12495	0.060556	0.19258	-2.4062	-2.5104	-3.0646	-2.325	-2.5396	-2.7667	-2.5104	-2.9021	-2.4	-2.5521	-2.9333	-2.3187	-2.6125	-2.8625	-2.5104	-2.9333	-48.489	164.251	74.713	174.703	-50.901	-80.369	193.444	-89.122	134.056	186.163	-132.764	138.514	75.173	-15.340	93.832	149.625	0.00035697	0.00015673	3.1884e-05	398.87	2.4014e-06	1.9253e-06	836.68	130.37	1.3785e-06	8.0728e-07	358.98	132.35	47.339	17.644	1.9267e-06	52.237	1.7379e-05	1.1041e-05	2.8926e-06	248.48	1.4353e-07	1.2561e-07	642.09	99.182	1.3984e-07	1.2069e-07	258.93	97.014	34.648	12.816	1.1143e-07	36.934	-135.452	-90.982	-106.394	-148.154	9.300	-60.583	-146.868	-141.654	-37.489	197.865	-141.885	-137.291	-136.389	-131.355	-103.086	-132.977	-8191	255	
7335.008	1	1	0	0	0.23352	0.0086503	0.16714	0.080189	0.091196	0.093967	0.14612	0.076391	0.15404	0.1641	0.11705	0.13633	0.071536	0.018175	0.17085	0.25688	-2.0417	-2.5938	-2.9437	-2.3958	-2.6604	-2.6896	-2.3312	-2.7792	-2.6458	-2.4167	-2.8937	-2.4771	-2.2583	-2.7625	-2.5417	-2.8521	31.296	-134.540	142.439	66.021	-20.511	186.010	157.631	-26.818	144.819	92.796	199.540	131.887	194.413	87.670	-69.509	153.630	0.0003175	0.00022365	5.2378e-05	392.53	1.6869e-06	2.2566e-06	830.5	128.57	7.11e-07	3.1855e-06	354.28	129.97	46.16	17.712	1.1894e-06	51.875	1.7025e-05	1.0791e-05	2.8916e-06	244.89	1.2866e-07	1.1995e-07	635.26	97.816	1.3201e-07	1.2328e-07	254.96	95.255	33.905	12.626	1.1701e-07	36.421	-134.503	-107.220	-142.351	-146.699	-25.378	4.089	-146.859	-141.105	66.791	-43.021	-142.124	-137.349	-137.193	-131.619	-71.440	-132.587	-8191	255	
7335.104	1	1	0	0	0.27631	0.10044	0.17581	0.15218	0.11348	0.16889	0.18862	0.0050672	0.19614	0.24589	0.16736	0.217	0.11219	0.38557	0.1146	0.13429	-2.1917	-2.45	-2.9646	-2.3771	-2.4042	-2.825	-2.4792	-2.7417	-2.8625	-2.4458	-2.9979	-2.5438	-2.6771	-2.8187	-2.2604	-2.6604	177.648	92.761	52.291	134.078	91.033	129.397	83.855	75.782	-154.189	-100.033	-60.401	143.035	182.075	143.345	-58.727	53.880	0.0003307	0.00026643	5.1527e-05	405.3	1.7495e-06	2.7055e-06	824.47	127.42	2.5599e-06	8.3886e-07	353.66	129.56	46.399	17.626	1.1565e-06	51.88	1.6529e-05	1.0863e-05	2.8459e-06	247.34	1.2999e-07	1.0958e-07	634.17	96.851	1.2604e-07	1.2257e-07	254.17	94.96	33.855	12.583	1.2782e-07	36.306	-139.651	-113.130	-128.712	-148.021	19.358	15.061	-146.607	-141.384	-59.935	-67.009	-142.025	-137.758	-136.998	-131.099	-99.433	-132.757	-8191	255	
7335.200	1	1	0	0	0.099568	0.12994	0.021964	0.21461	0.086926	0.055323	0.36668	0.12943	0.28588	0.30562	0.17158	0.22703	0.18382	0.19322	0.14735	0.18118	-2.2958	-2.4771	-2.7146	-2.4583	-2.4917	-2.8896	-2.4313	-2.8896	-2.8083	-2.4979	-2.8229	-2.7458	-2.475	-2.9562	-2.4667	-2.7958	-147.887	-58.722	159.079	41.864	-122.487	151.196	181.289	157.473	17.916	146.560	59.768	192.110	147.075	-118.974	174.017	48.067	0.00033519	4.9492e-05	6.7929e-05	391.25	2.3595e-06	2.1747e-06	822.98	128.04	1.307e-06	1.9273e-06	349.54	129.53	46.114	17.565	3.0465e-07	51.793	1.6003e-05	1.046e-05	3.1774e-06	245.06	1.2485e-07	1.1752e-07	633.89	97.084	1.2306e-07	1.133e-07	253.95	95.315	33.899	12.602	1.3005e-07	36.595	-136.095	196.672	-106.423	-147.210	-8.703	-17.411	-146.192	-141.104	-25.153	-83.574	-141.714	-137.292	-137.063	-131.313	191.149	-132.815	-8191	255	
#DATA ENDS
