BOXY.EXE: ISS Imagent and Oximeter Data Acquisition Program Version 0.80
Ascii Record File

#ACQ INFORMATION
2  Detector Channels 
16  External MUX Channels 
1  Auxiliary Channels 
5000  Waveform (CCF) Frequency (Hz)
1  Waveforms Skipped 
30  Waveforms Averaged 
1  Cycles Averaged 
16  Acquisitions per Waveform 
10.0806  Updata Rate (Hz) 

#FILE INFORMATION
TRUE -- External MUX Channel results are PARSED.
FALSE -- AC DC and Phase are NOT grouped.
TRUE -- Companion Program Settings File CREATED.
FALSE -- AC data not excluded
FALSE -- DC data not excluded
FALSE -- Phase data not excluded
FALSE -- Auxillary Chn. data not excluded
Tab delimiters

#CALIBRATION STATE
TRUE -- Waveform Calibration Values APPLIED.


#AUX CALIBRATION VALUES
Val Type	aux-1	

Term	1.0000e+00	
Factor	0.0000e+00	


#WF CALIBRATION VALUES
A = Detector Channel
Val Type	A-AC1	A-AC2	A-AC3	A-AC4	A-AC5	A-AC6	A-AC7	A-AC8	A-AC9	A-AC10	A-AC11	A-AC12	A-AC13	A-AC14	A-AC15	A-AC16	A-DC1	A-DC2	A-DC3	A-DC4	A-DC5	A-DC6	A-DC7	A-DC8	A-DC9	A-DC10	A-DC11	A-DC12	A-DC13	A-DC14	A-DC15	A-DC16	A-Ph1	A-Ph2	A-Ph3	A-Ph4	A-Ph5	A-Ph6	A-Ph7	A-Ph8	A-Ph9	A-Ph10	A-Ph11	A-Ph12	A-Ph13	A-Ph14	A-Ph15	A-Ph16	

Term	0.00000e+00	0.00000e+00	0.00000e+00	0.00000e+00	0.00000e+00	0.00000e+00	0.00000e+00	0.00000e+00	0.00000e+00	0.00000e+00	0.00000e+00	0.00000e+00	0.00000e+00	0.00000e+00	0.00000e+00	0.00000e+00	0.00000e+00	0.00000e+00	0.00000e+00	0.00000e+00	0.00000e+00	0.00000e+00	0.00000e+00	0.00000e+00	0.00000e+00	0.00000e+00	0.00000e+00	0.00000e+00	0.00000e+00	0.00000e+00	0.00000e+00	0.00000e+00	0.00000e+00	0.00000e+00	0.00000e+00	0.00000e+00	0.00000e+00	0.00000e+00	0.00000e+00	0.00000e+00	0.00000e+00	0.00000e+00	0.00000e+00	0.00000e+00	0.00000e+00	0.00000e+00	0.00000e+00	0.00000e+00	
Factor	1.00000e+00	1.00000e+00	1.00000e+00	1.00000e+00	1.00000e+00	1.00000e+00	1.00000e+00	1.00000e+00	1.00000e+00	1.00000e+00	1.00000e+00	1.00000e+00	1.00000e+00	1.00000e+00	1.00000e+00	1.00000e+00	1.00000e+00	1.00000e+00	1.00000e+00	1.00000e+00	1.00000e+00	1.00000e+00	1.00000e+00	1.00000e+00	1.00000e+00	1.00000e+00	1.00000e+00	1.00000e+00	1.00000e+00	1.00000e+00	1.00000e+00	1.00000e+00	X	X	X	X	X	X	X	X	X	X	X	X	X	X	X	X	

B = Detector Channel
Val Type	B-AC1	B-AC2	B-AC3	B-AC4	B-AC5	B-AC6	B-AC7	B-AC8	B-AC9	B-AC10	B-AC11	B-AC12	B-AC13	B-AC14	B-AC15	B-AC16	B-DC1	B-DC2	B-DC3	B-DC4	B-DC5	B-DC6	B-DC7	B-DC8	B-DC9	B-DC10	B-DC11	B-DC12	B-DC13	B-DC14	B-DC15	B-DC16	B-Ph1	B-Ph2	B-Ph3	B-Ph4	B-Ph5	B-Ph6	B-Ph7	B-Ph8	B-Ph9	B-Ph10	B-Ph11	B-Ph12	B-Ph13	B-Ph14	B-Ph15	B-Ph16	

Term	0.00000e+00	0.00000e+00	0.00000e+00	0.00000e+00	0.00000e+00	0.00000e+00	0.00000e+00	0.00000e+00	0.00000e+00	0.00000e+00	0.00000e+00	0.00000e+00	0.00000e+00	0.00000e+00	0.00000e+00	0.00000e+00	0.00000e+00	0.00000e+00	0.00000e+00	0.00000e+00	0.00000e+00	0.00000e+00	0.00000e+00	0.00000e+00	0.00000e+00	0.00000e+00	0.00000e+00	0.00000e+00	0.00000e+00	0.00000e+00	0.00000e+00	0.00000e+00	-5.64756e+01	-1.47905e+02	-1.44937e+02	-1.86522e+02	-8.92632e+01	-5.44903e+01	-1.58969e+02	-1.62015e+02	-6.59647e+01	-7.38087e+01	-1.73753e+02	-1.69919e+02	-1.80448e+02	-1.77370e+02	-4.09621e+01	-1.50374e+02	
Factor	2.12419e-05	8.28046e-05	2.41116e-05	6.97792e-01	9.07386e-07	9.69914e-07	1.84788e-01	5.57895e-02	9.81085e-07	9.63530e-07	9.73165e-02	3.11963e-02	2.75452e-02	1.04083e-02	8.82609e-07	1.50879e-02	5.16863e-07	5.25153e-07	1.46014e-07	2.71606e-01	5.76128e-09	5.76601e-09	8.04995e-02	2.57462e-02	5.77309e-09	5.77174e-09	4.20780e-02	1.35895e-02	1.24038e-02	4.63209e-03	5.77017e-09	6.39012e-03	X	X	X	X	X	X	X	X	X	X	X	X	X	X	X	X	



#DISTANCE SETTINGS
A = Detector Channel
A-1	A-2	A-3	A-4	A-5	A-6	A-7	A-8	A-9	A-10	A-11	A-12	A-13	A-14	A-15	A-16	

2.5000e+00	3.0000e+00	2.5000e+00	3.0000e+00	2.0000e+00	3.0000e+00	1.5000e+00	3.0000e+00	3.0000e+00	3.0000e+00	3.0000e+00	3.0000e+00	3.0000e+00	3.0000e+00	1.5000e+00	3.0000e+00	

B = Detector Channel
B-1	B-2	B-3	B-4	B-5	B-6	B-7	B-8	B-9	B-10	B-11	B-12	B-13	B-14	B-15	B-16	

1.0000e+01	1.0000e+01	1.0000e+01	1.4400e+00	1.0000e+01	1.0000e+01	1.5100e+00	1.9400e+00	1.0000e+01	1.0000e+01	1.9900e+00	2.4900e+00	2.4100e+00	2.9000e+00	1.0000e+01	2.9800e+00	




#DATA BEGINS
time	group	step	mark	flag	A-AC1	A-AC2	A-AC3	A-AC4	A-AC5	A-AC6	A-AC7	A-AC8	A-AC9	A-AC10	A-AC11	A-AC12	A-AC13	A-AC14	A-AC15	A-AC16	A-DC1	A-DC2	A-DC3	A-DC4	A-DC5	A-DC6	A-DC7	A-DC8	A-DC9	A-DC10	A-DC11	A-DC12	A-DC13	A-DC14	A-DC15	A-DC16	A-Ph1	A-Ph2	A-Ph3	A-Ph4	A-Ph5	A-Ph6	A-Ph7	A-Ph8	A-Ph9	A-Ph10	A-Ph11	A-Ph12	A-Ph13	A-Ph14	A-Ph15	A-Ph16	B-AC1	B-AC2	B-AC3	B-AC4	B-AC5	B-AC6	B-AC7	B-AC8	B-AC9	B-AC10	B-AC11	B-AC12	B-AC13	B-AC14	B-AC15	B-AC16	B-DC1	B-DC2	B-DC3	B-DC4	B-DC5	B-DC6	B-DC7	B-DC8	B-DC9	B-DC10	B-DC11	B-DC12	B-DC13	B-DC14	B-DC15	B-DC16	B-Ph1	B-Ph2	B-Ph3	B-Ph4	B-Ph5	B-Ph6	B-Ph7	B-Ph8	B-Ph9	B-Ph10	B-Ph11	B-Ph12	B-Ph13	B-Ph14	B-Ph15	B-Ph16	aux-1	digaux	

701.026	1	1	0	256	0.022517	0.16721	0.13793	0.16371	0.13771	0.076532	0.16793	0.14947	0.11195	0.21089	0.090898	0.34171	0.086719	0.10726	0.32302	0.13822	-2.6271	-3.2458	-3.0646	-3.0375	-3.0958	-3.0917	-3.3292	-3.5208	-2.9667	-3.2771	-3.1833	-2.975	-3.4667	-2.9667	-3.0333	-3.4896	164.264	190.547	340.566	394.260	117.366	207.497	364.088	295.856	244.159	206.205	271.074	97.669	88.905	251.092	243.055	79.743	0.00023573	0.00073323	7.5372e-05	1287.6	4.2864e-06	5.219e-06	1362.7	273.27	2.2375e-06	2.874e-06	336.51	92.789	73.825	21.164	2.7086e-06	29.685	0.0002327	0.00026474	6.9258e-05	1129.7	2.5248e-06	2.9656e-06	1300.2	263.48	2.6509e-06	3.0223e-06	320.81	90.039	71.771	21.597	2.7929e-06	29.081	240.967	128.954	260.924	74.253	209.542	267.749	75.000	81.995	158.114	170.793	81.361	88.342	88.643	94.782	207.145	94.343	-8191	255	
701.122	1	1	0	0	0.16893	0.11542	0.090143	0.19628	0.15543	0.003761	0.052947	0.24583	0.047463	0.17148	0.18014	0.18944	0.16319	0.24715	0.11286	0.16636	-2.5708	-3.2625	-3.1833	-2.8375	-3.5	-3.0687	-3.2479	-3.5938	-3.0625	-3.1437	-3.4375	-3.0125	-3.4208	-3.1437	-3.0271	-3.3375	90.440	121.826	311.265	101.627	377.803	115.680	240.752	360.652	346.115	399.700	310.659	367.965	398.878	161.021	395.113	254.351	0.00031836	0.00018499	0.00015537	1289.9	3.1219e-06	4.9008e-07	1363.3	273.38	5.9639e-06	2.7028e-06	335.92	92.821	74.193	21.217	4.8606e-06	29.765	0.00025991	0.00028735	7.125e-05	1136.7	2.9124e-06	3.2111e-06	1302.2	264.37	3.0554e-06	3.2346e-06	321.26	90.444	72.848	21.618	2.8686e-06	29.256	244.398	70.739	213.953	74.744	194.308	94.980	74.985	81.862	167.402	393.050	81.255	88.164	88.373	94.866	179.888	94.592	-8191	255	
701.194	1	1	0	0	0.12551	0.16586	0.19646	0.13225	0.10454	0.34197	0.22186	0.24303	0.2295	0.18842	0.2298	0.39133	0.096263	0.10263	0.24538	0.10525	-2.4083	-3.1021	-3.2792	-2.8667	-3.2917	-2.9083	-3.1917	-3.2833	-2.8625	-3.2375	-3.2792	-3.0375	-3.3417	-3.1646	-2.8417	-3.4021	316.715	262.828	185.920	158.312	255.788	308.205	415.314	68.591	378.823	295.880	406.646	357.313	364.635	259.012	377.188	135.591	0.00036551	9.8026e-05	0.00010061	1302.1	5.9895e-06	3.7731e-06	1365.6	273.38	9.4154e-06	8.1053e-06	337.54	93.41	73.751	21.343	3.5031e-06	29.866	0.00028701	0.0002841	6.9695e-05	1144.4	3.1162e-06	3.0286e-06	1302.3	264.46	3.169e-06	3.0064e-06	320.12	90.371	72.804	21.474	2.7326e-06	29.34	232.142	358.697	143.155	74.571	172.210	387.204	74.904	81.922	205.824	310.834	81.421	88.661	88.388	95.132	179.438	94.649	-8191	255	
701.290	1	1	0	0	0.12655	0.17175	0.05302	0.01984	0.070245	0.13624	0.23824	0.22377	0.063883	0.10937	0.1168	0.1641	0.26543	0.079038	0.17345	0.15975	-2.6875	-2.9	-3.2792	-2.9146	-3.2562	-3.2208	-2.9583	-3.2521	-2.8688	-3.0687	-3.575	-3.0604	-3.1521	-3.1917	-2.9208	-3.3812	65.305	181.768	305.481	167.544	328.806	123.826	422.760	341.388	345.150	359.184	68.541	287.285	65.438	141.671	261.758	267.104	0.00038712	0.00014189	0.00010996	1297.4	4.3596e-06	8.4129e-06	1364.9	272.98	4.2519e-06	3.4635e-06	338.17	93.029	73.878	21.31	1.9182e-06	29.831	0.0002915	0.0002664	6.7506e-05	1145.1	3.1862e-06	2.8866e-06	1300.7	265.07	3.2454e-06	2.9207e-06	320.58	90.966	73.137	21.443	2.7993e-06	29.676	238.469	80.216	186.659	74.305	71.239	333.155	74.893	81.774	114.578	326.373	81.190	88.708	88.431	94.712	411.384	94.566	-8191	255	
701.411	1	1	0	0	0.16988	0.16012	0.093971	0.17396	0.29287	0.14709	0.30709	0.20403	0.12904	0.24282	0.055744	0.2095	0.10853	0.19677	0.34005	0.16602	-2.65	-2.9271	-3.2979	-3.0229	-3.25	-3.0917	-3.0792	-3.3854	-3.0417	-3.0083	-3.5	-2.9437	-3.1688	-3.5292	-2.9208	-3.2542	105.144	415.541	106.365	238.277	369.639	116.197	351.643	327.958	278.720	248.913	77.149	301.567	316.198	405.017	396.013	317.529	0.00021578	0.00030406	7.7276e-05	1307.6	4.4671e-06	4.0328e-06	1368.9	274.6	2.2158e-06	3.445e-06	337.5	93.684	73.998	21.177	2.2077e-06	29.896	0.00030075	0.00027215	6.9883e-05	1166.6	3.3085e-06	2.9144e-06	1306.7	267.41	3.2375e-06	2.9293e-06	321.23	91.686	73.018	21.392	2.7943e-06	29.922	242.539	129.952	180.224	74.158	96.295	202.691	74.995	81.770	215.142	183.568	81.473	88.284	88.396	94.865	246.052	94.519	-8191	255	
701.507	1	1	0	0	0.14133	0.09587	0.34097	0.18156	0.090904	0.19339	0.256	0.078618	0.13269	0.27405	0.15227	0.11288	0.19715	0.049371	0.17778	0.17902	-2.7104	-2.9792	-3.1646	-3.0187	-3.2708	-3.3083	-3.0521	-3.3396	-3.125	-2.9833	-3.2417	-3.1521	-3.0812	-3.225	-2.8625	-3.3937	63.831	219.242	148.022	73.297	312.639	345.544	319.880	359.388	272.978	263.207	374.156	286.186	96.174	325.329	258.883	264.281	0.00022946	0.00042763	3.7025e-05	1301.2	1.6896e-06	1.5253e-06	1372.1	275.61	1.2149e-06	7.8971e-07	338.51	93.316	73.542	21.2	4.9302e-06	29.828	0.00028155	0.00026135	6.9739e-05	1172.7	3.0876e-06	2.7813e-06	1305.1	268.18	2.9961e-06	2.8424e-06	322.09	92.017	72.631	21.352	3.0638e-06	30.187	240.333	66.308	143.599	74.283	142.352	302.425	74.864	81.547	414.063	298.357	81.253	88.158	88.721	94.881	318.076	94.411	-8191	255	
701.601	1	1	0	0	0.15092	0.17188	0.38422	0.20267	0.18156	0.11547	0.12225	0.28481	0.16551	0.095748	0.20697	0.18829	0.26063	0.19963	0.38649	0.39812	-2.8833	-2.8063	-3.2333	-3.0875	-3.1125	-3.4354	-2.9917	-3.4188	-3.3729	-2.9625	-3.4417	-3.2313	-3.0271	-3.3542	-3.0771	-3.3292	239.794	397.870	329.189	127.530	333.092	125.580	230.710	389.212	202.275	308.937	406.270	349.745	338.629	108.958	354.398	121.519	0.00021236	0.00017901	0.00014667	1309.1	5.0916e-07	5.1559e-06	1376.5	275.97	1.1622e-06	2.0245e-06	339.17	93.717	74.136	21.532	7.0642e-06	30.174	0.00028184	0.00027223	7.9476e-05	1187.8	3.2266e-06	2.9924e-06	1318.4	270.93	3.1999e-06	3.1051e-06	327.39	92.824	73.378	21.686	3.4298e-06	30.404	219.846	136.114	126.126	74.557	257.619	172.783	74.765	81.729	66.023	331.391	81.343	88.466	88.635	94.604	217.494	94.202	-8191	255	
701.699	1	1	0	0	0.16353	0.1481	0.23661	0.13329	0.28578	0.34346	0.23719	0.089282	0.08298	0.028907	0.15156	0.064389	0.14983	0.01975	0.13852	0.28402	-2.8083	-2.8146	-3.275	-3.1229	-2.9375	-3.3479	-3.0938	-3.1646	-3.1875	-3.0604	-3.3271	-3.1875	-3.0458	-3.3042	-2.8875	-3.3438	252.915	122.944	91.208	227.297	408.193	183.483	392.072	376.830	230.202	163.005	305.331	134.135	396.187	170.312	78.460	392.240	0.00032235	0.00048797	0.00012957	1311.8	1.8335e-06	6.2081e-06	1377.3	277.4	2.4228e-06	6.4141e-06	339	93.375	74.126	21.576	7.195e-06	29.937	0.00027962	0.00026949	8.4574e-05	1179	3.0031e-06	2.8173e-06	1320.2	269.66	2.8714e-06	2.8752e-06	326.61	91.652	72.775	21.495	3.3095e-06	29.871	248.382	153.261	142.863	74.979	300.734	247.065	74.732	81.939	236.606	218.061	81.185	88.415	88.597	94.686	197.565	94.317	-8191	255	
701.794	1	1	0	0	0.26085	0.19419	0.24519	0.087319	0.0029386	0.12032	0.061251	0.10111	0.18504	0.12084	0.091053	0.13075	0.31293	0.13344	0.15998	0.16434	-3.0229	-2.9417	-3.3688	-3.3479	-2.8917	-3.2667	-3.1521	-3.2042	-3.2646	-3.0292	-3.4521	-3.3854	-2.95	-3.3021	-3.1125	-3.0583	212.989	85.034	215.047	365.313	301.116	342.478	117.575	77.261	290.199	136.087	259.435	416.516	366.355	232.751	263.021	182.590	0.00035921	0.00038414	9.8842e-06	1301	2.4884e-06	9.7023e-06	1375.7	274.71	3.0112e-06	3.0516e-06	335.45	92.704	73.926	21.346	2.8384e-06	29.769	0.00025253	0.00026018	8.3168e-05	1159	2.7696e-06	2.7809e-06	1314.5	266.84	2.6506e-06	2.8416e-06	323.91	90.575	71.8	21.395	3.1309e-06	29.449	234.630	139.028	148.167	74.406	362.439	259.002	74.772	82.065	126.838	236.949	81.503	88.662	88.646	94.901	400.717	93.845	-8191	255	
701.890	1	1	0	0	0.11476	0.27933	0.18325	0.085413	0.23799	0.13518	0.081141	0.3062	0.15944	0.06569	0.25222	0.21944	0.20234	0.27995	0.11083	0.17411	-3.0146	-2.8083	-3.3187	-3.1562	-2.9854	-3.375	-3.375	-3.1167	-3.375	-2.8521	-3.2062	-3.2375	-2.9125	-3.4396	-3.0542	-3.1688	279.445	297.067	316.018	87.167	152.136	219.168	244.835	363.117	365.202	285.621	147.006	344.245	394.950	329.654	68.510	172.591	0.00026233	0.00038704	6.3644e-05	1288.8	5.0238e-06	3.3847e-06	1371.5	274.15	7.2109e-06	3.3214e-06	336.78	93.168	73.78	21.41	1.8968e-06	29.926	0.00023504	0.00026518	7.9016e-05	1141.9	2.6618e-06	2.9421e-06	1309.1	265.3	2.5951e-06	3.0447e-06	323.92	90.365	71.939	21.618	3.0547e-06	29.525	236.676	162.102	154.565	74.653	205.248	301.308	74.668	81.914	318.668	148.900	81.046	87.940	88.103	94.962	166.226	94.284	-8191	255	
702.010	1	1	0	0	0.10432	0.15357	0.074599	0.19432	0.114	0.12884	0.16389	0.12999	0.24246	0.14524	0.21095	0.27509	0.37765	0.26042	0.25202	0.076661	-3.0125	-2.9479	-3.2313	-3.3875	-3.0438	-3.2542	-3.3875	-3.1146	-3.4417	-3.0917	-3.2896	-3.4146	-3.0042	-3.3542	-3.1104	-2.9167	111.507	118.970	158.680	393.724	107.927	344.555	372.916	404.033	393.228	71.854	414.499	75.643	300.999	372.165	218.744	91.432	0.00035004	0.00029927	5.9853e-05	1292.6	8.3999e-06	3.8169e-06	1373.3	275.4	1.6973e-06	3.7865e-06	339.36	93.156	73.907	21.471	1.6103e-06	29.855	0.0002453	0.00028556	7.6845e-05	1141.4	2.7487e-06	3.1585e-06	1308.2	265.41	2.7062e-06	3.1686e-06	323.31	90.271	72.15	21.801	2.834e-06	29.369	227.492	128.016	64.376	74.449	229.090	189.171	74.839	81.972	201.661	248.723	81.311	88.478	88.346	94.710	292.259	94.285	-8191	255	
702.106	1	1	0	0	0.028753	0.17064	0.087475	0.13931	0.19169	0.06691	0.25087	0.12104	0.085778	0.25489	0.18176	0.10045	0.30054	0.21627	0.1677	0.10101	-3.1958	-3.0563	-3.0833	-3.4042	-2.9229	-3.3125	-3.5792	-2.9167	-3.4667	-3.2104	-3.0375	-3.4583	-3.0583	-3.2313	-3.5687	-2.9688	381.992	408.028	225.063	164.613	155.524	242.869	391.924	101.044	322.414	197.794	363.690	69.918	85.370	264.753	252.577	281.284	0.00033246	0.00072569	4.1625e-05	1297.6	5.116e-06	5.2028e-06	1376	274.78	8.2169e-06	3.6363e-06	340.74	93.605	74.092	21.488	3.1584e-06	29.908	0.00025086	0.0002861	7.1992e-05	1140	2.8199e-06	3.1413e-06	1309.1	265.32	2.8422e-06	3.0951e-06	323.55	90.183	72.715	21.775	2.7228e-06	29.442	238.364	200.219	87.328	74.462	210.213	237.863	74.922	81.776	211.227	139.502	81.323	88.532	88.456	94.556	402.160	94.470	-8191	255	
702.203	1	1	0	0	0.08153	0.29097	0.086872	0.16739	0.37208	0.098556	0.21426	0.13499	0.073039	0.19104	0.06617	0.19118	0.092815	0.15974	0.22877	0.076026	-3.0938	-3.0625	-2.8896	-3.4458	-2.9396	-3.3083	-3.4792	-3.0021	-3.1083	-3.1354	-3.0896	-3.3	-2.9667	-3.125	-3.275	-2.8187	106.968	231.771	281.026	297.322	206.346	129.610	337.455	322.746	377.426	233.332	360.605	398.981	383.602	376.438	111.950	83.981	0.00033575	0.00014879	0.000156	1302.7	2.209e-06	5.0822e-06	1376.4	278.16	7.3523e-06	3.9218e-06	339.68	93.244	74.543	21.474	3.5602e-06	30.04	0.00027345	0.00028331	7.1272e-05	1143.2	3.123e-06	3.1367e-06	1309.6	267.47	3.1626e-06	3.0628e-06	323.53	90.834	73.503	21.777	2.7725e-06	29.738	227.048	105.379	98.839	74.609	224.083	90.213	74.910	81.854	205.884	266.120	81.369	88.705	88.257	94.964	261.237	94.603	-8191	255	
702.299	1	1	0	0	0.37964	0.075046	0.17409	0.02751	0.19968	0.039331	0.43427	0.20851	0.22978	0.14836	0.18139	0.19742	0.25003	0.26207	0.14594	0.22846	-2.8708	-3.1271	-2.9667	-3.5354	-3.1083	-3.075	-3.6125	-3	-3.2938	-3.2167	-3.0771	-3.5042	-3.2687	-3.05	-3.4354	-3.0146	274.690	129.297	268.013	165.198	157.736	81.092	354.557	386.893	186.608	326.631	386.062	371.384	385.128	397.608	132.698	386.502	0.00039583	0.00047233	2.6267e-05	1315	2.8934e-06	3.3282e-06	1382.5	276.46	2.1862e-06	2.9498e-06	339.57	93.264	74.362	21.367	3.4774e-06	30.099	0.00029441	0.00027558	7.1681e-05	1156.3	3.2822e-06	3.0276e-06	1311.7	267.44	3.2885e-06	2.8912e-06	323.18	91.061	73.439	21.594	2.6681e-06	29.773	240.343	278.789	131.600	74.519	358.811	288.015	75.091	81.736	362.780	408.512	81.545	88.447	88.402	95.111	210.371	94.643	-8191	255	
702.419	1	1	0	0	0.21238	0.13707	0.25513	0.18607	0.1807	0.21478	0.37755	0.13501	0.14136	0.11418	0.25508	0.11335	0.16796	0.042161	0.17534	0.13157	-2.7792	-3.2667	-2.8292	-3.3625	-3.2438	-3.1271	-3.725	-3.0917	-3.2938	-3.2812	-2.9958	-3.4479	-3.1896	-3.2146	-3.4104	-3.0833	125.754	104.701	233.830	380.726	392.645	236.967	356.451	151.318	89.343	384.216	415.887	317.962	372.703	193.356	267.268	142.174	0.00032935	0.00013178	3.0528e-05	1308.7	4.5151e-06	3.5698e-06	1372.5	274.74	4.1227e-06	3.4251e-06	337.84	92.742	73.117	21.172	3.1372e-07	29.768	0.0002945	0.00025526	6.8604e-05	1157.9	3.1288e-06	2.8142e-06	1302.5	266.17	3.0446e-06	2.6461e-06	319.39	90.32	71.972	21.149	2.4654e-06	29.379	241.219	368.310	79.678	74.371	179.129	329.933	74.715	81.789	403.551	208.422	81.410	88.726	88.452	94.843	358.925	94.707	-8191	255	
702.491	1	1	0	0	0.13212	0.15548	0.35737	0.13233	0.21211	0.13396	0.24245	0.11343	0.13208	0.16099	0.25745	0.02384	0.10138	0.11013	0.032947	0.20036	-2.8083	-3.2896	-2.8792	-3.3542	-3.2646	-3.0312	-3.4562	-3.1354	-3.1854	-3.2646	-3.0125	-3.3	-3.3021	-2.8979	-3.3292	-3.2125	279.637	68.851	340.588	229.839	69.935	307.570	358.943	358.702	227.752	184.808	315.600	246.345	330.546	397.356	206.466	74.864	0.00027251	0.00031866	0.00014772	1291.6	2.8649e-06	4.6476e-06	1354.5	271.14	3.8884e-06	4.1754e-06	332.06	91.451	72.935	21.027	1.7511e-06	29.608	0.00025828	0.00022612	6.2369e-05	1140.1	2.6738e-06	2.4587e-06	1285.1	261.46	2.5733e-06	2.2886e-06	313.41	88.839	70.315	20.657	2.2257e-06	28.869	262.346	147.533	161.449	74.888	161.895	236.574	74.866	81.814	149.627	190.552	81.412	88.333	88.806	95.392	228.187	94.455	-8191	255	
702.587	1	1	0	0	0.13895	0.15378	0.31407	0.07304	0.22684	0.23471	0.23216	0.16446	0.16732	0.18666	0.25086	0.062273	0.055795	0.18108	0.11138	0.16662	-2.6792	-3.3146	-2.9729	-3.3542	-3.3208	-3.1188	-3.4688	-3.1896	-3.0896	-3.3292	-3.0312	-3.3479	-3.4	-3.0708	-3.4896	-3.0583	215.659	172.485	329.062	245.959	158.785	134.957	359.442	383.931	370.584	92.876	391.678	110.600	263.992	409.833	293.805	189.467	0.00030733	0.00043769	1.6067e-05	1275.7	2.0944e-06	3.5705e-06	1345.8	266.93	3.6194e-06	3.9623e-06	330.63	91.108	71.917	20.672	3.959e-06	29.254	0.00021445	0.0001893	5.647e-05	1116.1	2.1956e-06	2.0903e-06	1272.1	256.47	2.1863e-06	1.96e-06	309.93	87.624	68.795	20.247	2.1955e-06	28.383	249.714	91.400	144.774	74.065	217.858	69.072	74.941	81.988	212.582	195.946	81.745	88.488	88.531	95.335	237.151	94.490	-8191	255	
702.682	1	1	0	0	0.29791	0.20368	0.22889	0.2638	0.17542	0.1413	0.19549	0.075313	0.042669	0.14062	0.18643	0.081267	0.082794	0.24995	0.08125	0.29412	-2.6437	-3.4854	-2.9271	-3.2667	-3.3646	-2.8125	-3.4646	-3.1521	-3.0125	-3.3646	-3.1042	-3.1458	-3.2958	-2.9271	-3.1417	-3.2042	319.637	191.309	73.071	102.966	414.264	286.681	386.683	419.848	127.820	369.418	419.877	107.818	404.409	390.070	410.460	397.112	0.00032496	0.00014314	2.7656e-05	1270.3	3.3048e-06	1.993e-06	1343.5	265	2.8681e-06	2.3526e-06	327.52	90.459	71.702	20.864	4.6272e-06	29.085	0.00019515	0.0001755	5.6797e-05	1099.5	2.0267e-06	2.0031e-06	1269.6	254.43	2.0859e-06	1.9581e-06	309.86	87.018	68.365	20.274	2.3376e-06	28.181	245.698	114.976	80.926	74.209	241.312	217.191	74.870	81.868	230.589	303.300	81.445	88.641	88.556	94.958	243.539	94.989	-8191	255	
702.802	1	1	0	0	0.17142	0.29211	0.2516	0.054923	0.23629	0.11617	0.48877	0.04686	0.12144	0.24358	0.32201	0.23259	0.16902	0.078728	0.18723	0.13635	-2.6521	-3.4229	-2.9646	-3.2104	-3.2917	-3.0333	-3.2875	-3.2687	-2.8917	-3.325	-3.2271	-3.2208	-3.6375	-3.0625	-3.1833	-3.2333	358.249	356.180	378.842	400.620	266.562	208.376	326.527	225.264	171.332	129.334	385.537	94.334	390.927	337.242	255.730	289.721	0.00035662	0.00061937	4.921e-05	1260.2	8.279e-07	3.8789e-06	1340.3	264.17	1.2434e-06	3.0657e-06	329.79	90.527	71.666	20.806	7.1999e-07	29.303	0.0001902	0.00018004	5.9873e-05	1092.6	1.9683e-06	2.05e-06	1269.1	253.64	2.0213e-06	2.0339e-06	309.68	86.714	68.208	20.281	2.3525e-06	28.014	228.341	162.573	220.475	74.697	257.860	271.019	74.982	81.846	128.006	225.845	81.291	88.398	88.597	94.711	237.975	94.786	-8191	255	
702.898	1	1	0	0	0.27151	0.1694	0.11257	0.31558	0.22933	0.012561	0.41805	0.25956	0.0095487	0.14757	0.18333	0.17254	0.080336	0.1693	0.23476	0.18733	-2.6104	-3.4188	-2.9813	-3.0042	-3.4625	-2.95	-3.3708	-3.2917	-2.9562	-3.5083	-3.125	-3.0625	-3.4813	-3.1771	-3.1937	-3.2667	267.949	375.089	72.029	179.779	420.964	410.921	346.189	331.615	245.503	341.662	397.198	205.019	255.324	411.504	294.660	202.248	0.00022432	0.00052667	3.6005e-05	1259.4	4.1899e-06	4.1139e-06	1342.2	264.35	2.5825e-06	5.892e-06	327.55	89.658	71.73	20.703	8.1227e-07	29.081	0.00018286	0.0001898	5.9494e-05	1087.9	1.9224e-06	2.1792e-06	1267.6	252.94	1.9941e-06	2.1686e-06	309.26	86.208	68.205	20.345	2.3099e-06	27.886	243.209	120.371	95.678	74.647	154.407	245.883	75.114	81.843	241.506	210.822	81.417	88.474	88.486	95.013	179.937	95.262	-8191	255	
702.995	1	1	0	0	0.19013	0.15408	0.10199	0.10761	0.19537	0.29379	0.14655	0.11216	0.16414	0.19272	0.054342	0.16436	0.20861	0.14289	0.13943	0.090939	-2.5083	-3.4146	-3.0687	-2.9667	-3.3625	-3.1188	-3.2521	-3.3063	-3.0021	-3.2604	-3.2479	-3.0271	-3.5062	-3.0417	-3.3229	-3.5354	65.665	358.752	125.613	114.408	76.959	171.177	305.076	234.980	189.386	257.917	113.501	68.149	112.694	374.616	308.902	350.319	0.00027486	0.00042086	1.3311e-05	1253.3	4.9326e-06	3.2723e-06	1335.2	263.99	2.5143e-06	3.5547e-06	324.59	90.441	71.677	20.538	9.6565e-07	28.874	0.00018355	0.00020646	5.7072e-05	1082.7	1.9406e-06	2.3249e-06	1264.7	252.19	2.0551e-06	2.3464e-06	307.1	86.438	68.366	20.372	2.2608e-06	27.793	231.853	117.198	391.319	74.571	195.680	273.365	74.935	81.844	246.039	205.224	81.469	88.776	88.902	95.243	225.162	94.691	-8191	255	
703.091	1	1	0	0	0.03167	0.27576	0.13059	0.073588	0.27354	0.21293	0.19372	0.25065	0.14808	0.21943	0.26671	0.1193	0.12916	0.10723	0.24049	0.31126	-2.6125	-3.3292	-3.1708	-3.0062	-3.3292	-2.95	-3.1479	-3.4333	-2.8563	-3.35	-3.3375	-2.8833	-3.3604	-3.1667	-3.0375	-3.4375	292.040	138.885	83.832	300.107	93.677	242.187	421.670	350.837	69.842	405.871	74.746	385.878	310.697	395.931	113.555	232.787	0.00037102	0.0004027	9.7062e-05	1258.6	1.1958e-06	3.0819e-06	1331.7	263.32	5.456e-06	5.0391e-06	326.86	90.284	71.518	20.565	1.3935e-06	28.871	0.00019538	0.00022047	5.517e-05	1084.7	2.0975e-06	2.4365e-06	1260.5	251.43	2.2003e-06	2.4281e-06	306.36	86.034	68.51	20.365	2.1687e-06	27.76	242.339	123.509	121.204	74.651	332.346	231.231	75.118	81.897	217.034	193.958	81.364	88.547	88.771	95.293	247.259	94.898	-8191	255	
703.187	1	1	0	0	0.17271	0.24293	0.13043	0.17979	0.25211	0.1099	0.05311	0.13409	0.18135	0.23528	0.10172	0.091201	0.2709	0.15526	0.18799	0.066349	-2.5938	-3.1583	-3.2292	-2.9917	-3.3312	-3.1729	-3.0354	-3.4333	-2.9375	-3.2687	-3.3354	-2.9542	-3.3146	-3.0292	-3.0438	-3.4604	407.679	325.270	146.035	368.874	218.984	396.303	377.919	148.551	331.624	244.235	81.065	303.262	285.390	94.487	419.964	153.269	0.00032472	0.00049731	9.6604e-06	1263.1	4.9897e-06	2.5186e-06	1329.7	262.9	5.0947e-06	2.3651e-06	324.53	89.879	71.326	20.546	2.8858e-06	28.923	0.00020898	0.00021968	5.3866e-05	1084.1	2.2998e-06	2.3759e-06	1257	251.04	2.3778e-06	2.3732e-06	305.15	85.94	68.788	20.307	2.1548e-06	27.793	237.778	148.747	407.838	74.784	189.590	324.806	74.859	82.031	205.596	251.213	81.433	88.402	88.704	95.397	183.333	94.517	-8191	255	
703.283	1	1	0	0	0.17992	0.057565	0.062687	0.092798	0.2006	0.13525	0.16731	0.33799	0.086782	0.11596	0.33692	0.27128	0.15207	0.081581	0.20998	0.15423	-2.725	-3.2333	-3.2854	-2.9896	-3.5896	-3.1292	-3.0979	-3.3792	-2.9396	-3.25	-3.3292	-3.0458	-3.3708	-3.3042	-3.1729	-3.575	67.737	142.185	398.898	360.768	143.322	109.062	108.357	362.049	292.066	399.889	412.052	400.078	168.214	261.007	362.033	111.446	0.0002701	0.00021252	0.00012425	1264.4	3.1734e-06	2.6614e-06	1329.7	262.55	6.0988e-06	2.3158e-06	323.93	89.959	71.178	20.419	5.6843e-06	28.781	0.00022237	0.00021401	5.1727e-05	1084.1	2.4358e-06	2.2662e-06	1257.2	250.89	2.4635e-06	2.2611e-06	304.03	86.258	68.861	20.164	2.1036e-06	27.773	227.419	270.565	76.100	74.207	142.686	99.282	75.180	82.047	199.747	204.021	81.323	88.746	89.130	95.077	265.206	94.444	-8191	255	
703.379	1	1	0	0	0.35876	0.24313	0.074898	0.27297	0.080153	0.22812	0.15427	0.30148	0.060744	0.14242	0.096304	0.24532	0.14371	0.079704	0.13594	0.11423	-2.6729	-3.1292	-3.3604	-2.9542	-3.3021	-3.3542	-3.1292	-3.6354	-2.9854	-3.1458	-3.4167	-2.9479	-3.3104	-3.1521	-2.925	-3.4062	179.193	244.767	65.555	421.918	286.488	83.562	388.360	374.976	378.762	127.777	202.656	386.712	386.830	271.054	318.487	324.141	0.00024148	0.00040187	6.8293e-05	1263.3	3.8913e-06	2.5426e-06	1329.2	262.42	2.9632e-06	1.0536e-06	324.19	89.579	70.987	20.314	1.9074e-06	28.668	0.00022228	0.0001982	5.0878e-05	1089.9	2.4297e-06	2.1098e-06	1254.7	251.22	2.3928e-06	2.152e-06	303.49	86.236	68.684	20.021	2.0435e-06	27.95	231.917	67.721	327.749	74.755	304.359	138.053	75.068	82.102	232.768	351.674	81.454	88.870	88.609	94.852	184.942	94.739	-8191	255	
703.500	1	1	0	0	0.31807	0.27098	0.060848	0.088328	0.1983	0.018	0.09273	0.14828	0.12762	0.037775	0.14863	0.30184	0.099997	0.25305	0.064995	0.049146	-2.5896	-2.8167	-3.35	-3.1521	-3.125	-3.3438	-3.1229	-3.5354	-3.0771	-3.0125	-3.5187	-3.0896	-3.4333	-3.3896	-2.9292	-3.4562	282.247	170.865	295.343	409.754	91.689	405.590	334.198	368.754	156.782	349.992	251.329	408.092	64.457	361.146	236.828	88.891	0.00024047	0.00031728	0.00017105	1261.1	2.0566e-06	1.4043e-06	1326.4	261.27	4.5528e-06	3.2696e-06	325.02	90.313	70.746	20.468	1.6485e-06	28.656	0.00021426	0.00019363	5.0018e-05	1097.3	2.3223e-06	2.0569e-06	1255	251.5	2.2722e-06	2.094e-06	303.56	86.667	68.202	19.947	2.0793e-06	28.045	253.761	256.618	149.088	74.819	349.068	320.479	74.899	82.167	223.042	235.682	81.422	88.823	88.696	95.205	325.791	94.885	-8191	255	
703.594	1	1	0	0	0.18563	0.21114	0.14249	0.3367	0.090821	0.32733	0.15044	0.15955	0.062601	0.096715	0.20905	0.1862	0.13662	0.26084	0.061145	0.058626	-2.6083	-2.9833	-3.3708	-2.8563	-3.0729	-3.4167	-3.0896	-3.3646	-3.2833	-3.2229	-3.4021	-2.9938	-3.1188	-3.3854	-2.9354	-3.2771	128.520	400.609	119.018	101.507	132.778	258.945	286.600	81.885	181.864	413.611	167.251	310.168	299.766	409.306	376.655	142.970	0.00028254	0.00024615	2.7237e-05	1251.8	4.9139e-07	1.0012e-06	1321.7	260.34	2.5973e-06	2.8883e-06	324.33	89.479	70.787	20.452	3.5162e-06	28.745	0.00019996	0.00018848	5.2206e-05	1093.2	2.1977e-06	1.9607e-06	1251.7	251.12	2.1014e-06	2.022e-06	303.87	86.361	67.973	19.91	2.1524e-06	27.975	235.301	94.969	114.771	74.631	177.034	126.439	74.983	81.957	404.348	218.697	81.722	88.523	88.917	94.843	242.338	94.621	-8191	255	
703.692	1	1	0	0	0.17831	0.0421	0.38247	0.105	0.095316	0.16077	0.22042	0.15973	0.32542	0.054081	0.098445	0.23797	0.13007	0.03943	0.14339	0.093737	-2.7687	-2.9771	-3.3917	-2.9521	-3.1375	-3.4521	-3.1333	-3.3333	-3.2271	-3.1167	-3.4542	-3.1437	-3.1333	-3.5083	-3.0229	-3.2292	383.545	388.809	254.184	338.981	114.764	367.817	379.163	405.640	306.048	94.525	141.727	130.093	106.546	199.015	361.119	142.067	0.00030165	0.00015055	0.00013202	1253.4	2.2394e-06	4.7966e-06	1324.1	259.14	1.7129e-06	2.3839e-06	323.73	89.035	70.673	20.474	1.3821e-06	28.789	0.00018704	0.00017827	5.4145e-05	1088.9	2.0261e-06	1.8809e-06	1252.5	250.06	1.9617e-06	1.9272e-06	304.05	85.536	67.37	19.781	2.1653e-06	27.727	232.919	178.579	158.529	74.512	156.497	180.326	74.911	82.014	253.140	166.836	81.720	88.664	88.634	95.047	242.027	94.984	-8191	255	
703.788	1	1	0	0	0.27354	0.23652	0.15798	0.21604	0.040226	0.096703	0.37428	0.078773	0.1353	0.12858	0.16313	0.12856	0.23086	0.40717	0.063949	0.057859	-2.8854	-2.8125	-3.2833	-3.1958	-3.1479	-3.4875	-3.1646	-3.1042	-3.3312	-2.9146	-3.3667	-3.3021	-3.1208	-3.3667	-3.0312	-3.0458	240.241	375.859	297.724	375.939	78.749	351.019	357.051	173.634	395.431	216.959	293.782	170.494	86.060	404.441	82.691	399.666	0.00030681	0.00032548	8.4397e-05	1239.1	3.6027e-06	5.5481e-06	1308.4	259.37	3.395e-06	3.2882e-06	320.67	89.268	70.041	20.34	4.7733e-06	28.734	0.00017211	0.00017019	5.4391e-05	1072.9	1.8969e-06	1.8454e-06	1244.7	248.05	1.8379e-06	1.9091e-06	302.25	85.068	67.041	19.799	2.186e-06	27.544	237.003	147.525	64.095	74.270	191.132	206.749	74.963	81.916	228.013	181.672	81.303	88.882	88.703	95.306	208.013	94.687	-8191	255	
703.883	1	1	0	0	0.04168	0.16337	0.2273	0.27032	0.24707	0.042686	0.1363	0.12798	0.12997	0.24792	0.14324	0.097876	0.12798	0.19068	0.20156	0.11831	-2.8146	-2.8708	-3.1833	-3.1417	-2.7958	-3.4146	-3.2021	-3.2521	-3.2917	-2.9875	-3.35	-3.1646	-2.8458	-3.2521	-3.0792	-3.0187	378.322	347.536	346.559	292.432	293.309	168.416	361.842	327.641	397.645	422.494	246.058	292.087	246.902	336.462	368.609	87.139	0.00036086	0.00039618	5.5957e-05	1241.7	1.8799e-06	3.8714e-06	1310.2	258.9	3.6109e-06	5.1882e-06	322.07	88.776	70.537	20.439	4.0076e-06	28.7	0.00016577	0.00017759	5.5094e-05	1064.2	1.8501e-06	1.9379e-06	1241.9	246.94	1.7796e-06	1.987e-06	302.16	84.495	66.865	19.835	2.1058e-06	27.393	248.271	136.276	419.606	74.863	117.605	303.612	75.115	82.138	212.691	253.861	81.574	88.923	88.877	95.007	289.816	94.647	-8191	255	
703.979	1	1	0	0	0.20952	0.30008	0.052097	0.091282	0.17978	0.20538	0.31853	0.14159	0.32292	0.10673	0.10562	0.11524	0.2929	0.014006	0.10392	0.16851	-2.8792	-2.9667	-3.3646	-3.2896	-2.8646	-3.2708	-3.1542	-3.0417	-3.4	-2.975	-3.2188	-3.2729	-2.7604	-3.2583	-3.1562	-3.0292	198.173	99.904	366.635	398.055	64.751	199.723	379.086	374.115	367.084	418.338	71.539	242.093	244.196	303.257	353.183	84.869	0.00025961	0.00060827	7.9521e-05	1238.7	2.5729e-06	1.8649e-06	1312.6	257.9	6.015e-06	3.3904e-06	320.06	88.651	70.27	20.531	1.2062e-06	28.582	0.00016343	0.00018845	5.3806e-05	1058.2	1.8478e-06	2.0946e-06	1240.5	246.87	1.8497e-06	2.1706e-06	300.7	84.726	66.916	20.032	2.0908e-06	27.477	238.078	141.384	113.750	74.587	155.253	302.789	74.952	82.407	217.925	203.862	81.600	88.668	88.835	95.509	111.633	94.578	-8191	255	
704.099	1	1	0	0	0.158	0.18356	0.23806	0.15245	0.18545	0.064678	0.4164	0.1026	0.26427	0.2507	0.30507	0.21123	0.2495	0.16142	0.28649	0.057012	-2.7979	-3.0083	-3.35	-3.2542	-2.8521	-3.3646	-3.5333	-3.2562	-3.2396	-3.1833	-3.2354	-3.3604	-2.8521	-3.1437	-3.1625	-2.9688	219.338	97.906	336.906	277.328	394.148	175.707	375.854	325.046	245.635	257.776	276.757	298.056	95.852	275.886	389.300	233.479	0.00036354	0.00021598	8.9331e-06	1250.4	3.2265e-06	2.3294e-06	1309.6	257.96	2.4212e-06	1.822e-06	321.9	89.368	69.997	20.406	3.4777e-06	28.611	0.00017623	0.00020809	5.299e-05	1062.4	1.998e-06	2.3178e-06	1242.2	247.44	2.0192e-06	2.3273e-06	301.85	84.949	67.425	20.117	2.0905e-06	27.575	245.449	90.019	153.998	74.376	110.637	235.034	74.941	81.934	229.273	137.031	81.667	88.442	88.539	95.216	279.678	94.726	-8191	255	
704.196	1	1	0	0	0.065905	0.045733	0.19569	0.098471	0.3737	0.21525	0.23059	0.35406	0.073629	0.1712	0.11063	0.10299	0.26622	0.10946	0.07068	0.15636	-2.8833	-3.1083	-2.95	-3.3125	-3.175	-3.2188	-3.4313	-2.8917	-3.3917	-3.0812	-2.9646	-3.4917	-2.9792	-3.1229	-3.2562	-2.8667	111.410	375.216	409.406	348.162	79.064	340.636	331.797	390.593	366.907	148.331	346.442	80.674	360.489	274.454	373.562	182.259	0.00026006	0.00024697	0.00010396	1254.8	2.8664e-06	1.9022e-06	1313	258.41	3.9254e-06	2.9197e-06	322.26	89.026	70.152	20.329	6.5426e-07	28.548	0.00019661	0.00021444	5.4239e-05	1066.6	2.2398e-06	2.3875e-06	1242.5	247.63	2.2781e-06	2.3365e-06	302.23	84.94	68.083	20.178	2.0768e-06	27.624	235.363	406.964	176.504	74.607	212.604	277.702	74.990	82.090	214.981	248.310	81.370	88.330	88.888	94.879	108.591	94.442	-8191	255	
704.292	1	1	0	0	0.047754	0.11693	0.24253	0.081297	0.099127	0.29178	0.28477	0.18519	0.07381	0.17803	0.25158	0.14346	0.086531	0.22681	0.12986	0.15191	-2.9333	-3.1167	-2.8333	-3.4854	-2.9146	-3.2062	-3.6063	-2.9104	-3.4021	-3.1792	-2.9958	-3.4542	-3.1167	-3.0667	-3.2771	-2.8521	151.173	343.962	310.220	266.346	331.087	160.850	391.001	110.307	290.942	418.447	321.431	366.390	116.769	370.467	331.846	349.057	0.00036429	0.00022365	0.00011976	1246	1.1673e-06	1.7492e-06	1314	260.15	4.2834e-06	3.3628e-06	322.15	89.83	69.999	20.324	7.3657e-07	28.679	0.00021789	0.00021031	5.3986e-05	1069.7	2.4259e-06	2.3381e-06	1243.2	248.51	2.452e-06	2.2702e-06	302.76	85.462	68.406	20.12	2.036e-06	27.683	233.884	380.310	157.698	74.756	331.988	87.969	74.976	82.192	272.935	325.376	81.695	88.437	88.684	95.439	325.760	94.393	-8191	255	
704.363	1	1	0	0	0.20596	0.20808	0.21527	0.21565	0.12704	0.11045	0.15043	0.11796	0.31808	0.085628	0.16728	0.14687	0.31103	0.083157	0.084106	0.055536	-2.8292	-2.9646	-3.1292	-3.3375	-3.2896	-3.0646	-3.6042	-2.925	-3.4125	-3.3438	-3.0604	-3.4396	-3.0354	-3.1229	-3.3917	-3.0625	241.140	63.869	257.366	332.795	388.256	96.660	81.685	323.130	329.553	261.784	418.065	340.643	394.584	167.461	385.308	415.182	0.0002285	0.00014827	2.2021e-05	1239.4	3.637e-06	1.1464e-06	1318.1	259.7	3.5828e-06	3.7816e-06	323.46	89.381	70.667	20.369	1.649e-06	28.725	0.00022738	0.00019922	5.3191e-05	1075.5	2.4773e-06	2.207e-06	1245.1	249.33	2.4697e-06	2.1378e-06	302.89	85.683	68.382	20.01	1.9874e-06	27.885	230.097	202.817	371.418	74.385	155.899	365.722	74.755	81.851	219.483	240.305	81.413	88.679	88.490	94.914	116.247	95.010	-8191	255	
704.484	1	1	0	0	0.11941	0.19007	0.19463	0.0098678	0.31526	0.14687	0.15089	0.15112	0.19183	0.18034	0.2126	0.22889	0.30405	0.19746	0.1352	0.076284	-2.8042	-3.1562	-2.8146	-3.2375	-2.9542	-3.025	-3.4917	-2.9938	-3.2396	-3.3854	-3.0583	-3.4437	-3.2104	-3.2833	-3.2979	-2.9333	335.561	307.536	257.436	126.721	399.449	65.721	69.714	414.863	222.702	355.845	353.695	363.759	348.313	319.967	412.278	349.295	0.00024673	0.00010831	7.8235e-05	1241.1	3.4859e-06	6.583e-07	1313.7	259.82	2.2589e-06	2.387e-06	322.33	89.225	70.182	20.235	2.8552e-06	28.605	0.00022007	0.00018974	5.1556e-05	1082.7	2.3237e-06	2.1248e-06	1243.4	249.75	2.3445e-06	2.0113e-06	302.39	86.007	67.851	19.902	1.9906e-06	27.927	228.363	116.348	154.216	74.350	327.035	195.012	74.649	82.140	408.373	231.871	81.616	88.628	88.914	95.222	235.719	94.581	-8191	255	
704.580	1	1	0	0	0.22044	0.30207	0.32374	0.097807	0.073628	0.23239	0.11606	0.088912	0.26427	0.029752	0.33862	0.22491	0.083212	0.15654	0.012125	0.14338	-2.8917	-3.2833	-2.8708	-3.2729	-3.275	-3.15	-3.4396	-3.0896	-2.9729	-3.4458	-3.0167	-3.1792	-3.3042	-2.7917	-3.2729	-3.1396	231.527	288.867	216.897	291.569	410.185	207.563	391.316	410.844	331.735	109.732	386.632	390.659	135.001	118.476	76.710	200.136	0.00025774	0.00027985	7.8792e-05	1245.2	2.1152e-06	1.3524e-06	1314.6	259.01	5.0445e-06	3.13e-06	321.52	89.056	70.191	20.205	5.8918e-06	28.664	0.00020869	0.00018221	5.257e-05	1088.7	2.1999e-06	2.0509e-06	1243	249.54	2.2035e-06	1.9597e-06	302.38	86.026	67.39	19.855	2.1128e-06	27.925	249.767	161.071	172.086	74.810	192.195	159.877	74.982	81.854	239.144	292.379	81.413	88.677	88.852	95.169	223.494	95.023	-8191	255	
704.675	1	1	0	0	0.079546	0.074407	0.094606	0.049047	0.032425	0.15482	0.22129	0.14966	0.20464	0.22909	0.058412	0.12804	0.060532	0.052324	0.11075	0.22279	-2.425	-3.3417	-2.7958	-3.2958	-3.2604	-3.0479	-3.3958	-3.0854	-2.9979	-3.5354	-2.9917	-3.1625	-3.1437	-2.9875	-3.3479	-3.2104	345.899	408.971	299.824	161.090	228.997	148.246	370.221	303.517	70.254	196.864	81.602	206.996	322.830	357.479	298.022	327.411	0.00029405	0.00025573	0.00014528	1252.6	4.3915e-06	2.3238e-06	1315.5	257.81	8.4986e-07	6.6591e-07	320.87	89.257	69.972	20.339	3.2292e-06	28.717	0.00019717	0.00017661	5.4871e-05	1088	2.0393e-06	1.9923e-06	1245.6	249.25	2.1026e-06	1.9246e-06	303.44	86.041	67.219	19.846	2.2599e-06	27.875	233.855	201.547	120.535	74.610	188.112	237.255	74.807	81.810	265.316	395.180	81.384	88.758	88.738	95.249	215.341	94.500	-8191	255	
704.772	1	1	0	0	0.15195	0.084294	0.15981	0.092338	0.075358	0.034474	0.066067	0.21813	0.17294	0.12106	0.28733	0.043142	0.20757	0.18333	0.26512	0.096528	-2.5729	-3.3292	-2.9854	-3.2208	-3.3396	-3.0167	-3.5187	-3.3354	-2.9062	-3.3771	-3.0563	-3.2042	-3.2083	-2.9875	-3.2062	-3.1896	339.860	306.640	278.234	201.254	64.396	128.623	375.686	372.317	408.558	299.527	355.747	419.486	87.317	298.430	290.390	348.325	0.00034468	0.00043298	5.5001e-05	1238.5	3.5329e-06	4.8547e-06	1306.5	257.64	1.8534e-06	6.1991e-06	320.85	88.83	70.071	20.252	4.5722e-06	28.468	0.00019317	0.00017713	5.9582e-05	1083.6	2.044e-06	2.0597e-06	1248.5	248.99	2.1114e-06	2.0078e-06	304.48	85.823	67.359	19.924	2.4105e-06	27.728	221.127	116.256	125.421	74.509	193.619	206.526	74.875	82.034	300.231	279.122	81.162	88.335	88.751	95.185	249.516	94.524	-8191	255	
704.891	1	1	0	0	0.062376	0.32398	0.1064	0.4291	0.037198	0.32212	0.25518	0.066715	0.18957	0.074418	0.20443	0.095085	0.040143	0.18872	0.19648	0.076441	-2.5396	-3.3187	-3.0021	-3.1417	-3.4125	-3.0125	-3.5792	-3.2917	-2.9	-3.2625	-3.0729	-3.0583	-3.3854	-2.9396	-3.0542	-3.2812	178.335	126.041	179.489	366.443	188.342	291.089	312.105	93.098	359.245	348.563	329.956	414.942	83.102	64.819	170.937	393.740	0.00025365	0.00020671	8.7804e-05	1252.4	2.9285e-06	6.5561e-06	1313.5	258.17	3.3403e-06	5.7961e-06	320.56	88.607	70.096	20.413	1.916e-06	28.395	0.00018964	0.00018769	6.0929e-05	1079.7	1.9894e-06	2.1563e-06	1250.6	248.67	2.0723e-06	2.1604e-06	304.79	85.576	67.342	20.106	2.4278e-06	27.624	212.121	73.828	84.246	74.350	253.007	242.772	74.857	81.648	262.849	195.191	81.181	88.671	88.745	95.234	126.732	94.480	-8191	255	
704.963	1	1	0	0	0.20296	0.10581	0.23673	0.15327	0.24986	0.16414	0.18797	0.21422	0.19796	0.10245	0.082518	0.07621	0.15491	0.10875	0.040969	0.21202	-2.4875	-3.2646	-3.0542	-3.15	-3.1854	-2.9437	-3.5667	-3.4625	-2.8479	-3.3312	-3.15	-3.1333	-3.2708	-2.9813	-3.275	-3.3604	376.051	326.668	242.749	418.250	411.142	371.942	71.695	375.968	189.027	314.184	409.342	125.835	124.211	418.092	407.550	195.603	0.0002938	0.00066009	4.7891e-05	1246.5	4.3152e-06	2.0522e-06	1316.9	257.73	4.0939e-06	5.2908e-06	320.82	88.688	69.9	20.211	3.6214e-06	28.33	0.0001894	0.00020647	6.0293e-05	1076.9	1.9835e-06	2.3218e-06	1251.4	248.23	2.0489e-06	2.281e-06	303.8	85.317	67.193	20.123	2.2777e-06	27.517	239.722	112.593	104.966	74.454	255.040	280.196	75.019	81.923	211.540	201.117	81.336	88.122	88.841	94.803	78.354	94.946	-8191	255	
705.059	1	1	0	0	0.14904	0.42364	0.21792	0.22072	0.2416	0.063176	0.18897	0.20556	0.07723	0.14025	0.079563	0.24996	0.10298	0.10707	0.17001	0.029017	-2.5833	-3.4146	-3.2083	-2.9375	-3.5625	-3.1917	-3.3271	-3.3729	-3.0187	-3.1292	-3.2396	-3.0708	-3.4	-3.0021	-3.2271	-3.4917	266.728	290.504	107.372	204.385	303.645	348.898	346.268	317.497	333.907	148.203	74.508	367.983	379.866	144.724	300.246	262.576	0.0003655	0.00020261	2.2544e-05	1245.4	3.9723e-06	8.4264e-06	1307.6	256.71	2.7817e-06	4.9901e-06	318.68	88.185	69.97	20.094	2.8116e-06	28.439	0.00018732	0.00021375	5.5912e-05	1070.4	1.9904e-06	2.3542e-06	1243.2	247.15	2.0479e-06	2.3573e-06	300.88	84.755	67.111	20.024	2.1206e-06	27.311	230.801	70.483	405.440	74.451	224.587	253.921	74.782	81.825	299.445	215.088	81.389	88.619	88.429	94.729	136.301	94.598	-8191	255	
705.180	1	1	0	0	0.066589	0.049186	0.068455	0.2537	0.037744	0.040365	0.38123	0.34546	0.15066	0.28415	0.057525	0.12591	0.099453	0.17143	0.22689	0.18753	-2.3708	-3.1979	-3.2125	-2.8937	-3.2958	-3.1729	-3.2479	-3.5771	-3.0187	-3.2875	-3.5458	-2.8063	-3.5104	-3.2729	-3.0604	-3.4729	233.552	221.033	169.865	394.304	297.698	190.081	358.785	383.486	188.860	197.845	334.914	79.451	393.281	325.278	367.718	74.379	0.00037489	0.00020935	8.2193e-05	1240	5.5867e-06	4.6652e-06	1305.8	255.75	2.7442e-06	1.3467e-06	318.42	88.095	70.051	20.168	3.8832e-06	28.415	0.00019164	0.00021261	5.2192e-05	1065.3	2.1025e-06	2.3201e-06	1239.4	245.85	2.1729e-06	2.3144e-06	299.68	84.481	67.483	19.942	2.0352e-06	27.214	242.555	251.623	115.259	74.671	171.549	288.476	74.988	82.214	198.032	69.090	81.637	88.775	89.201	95.418	174.041	94.576	-8191	255	
705.276	1	1	0	0	0.28677	0.063699	0.24878	0.37559	0.18421	0.29962	0.19697	0.25845	0.022812	0.078773	0.34477	0.19739	0.11938	0.11139	0.091545	0.14731	-2.5479	-3.3958	-3.2833	-2.7271	-3.5312	-3.2521	-3.1208	-3.3896	-3.0958	-3.2417	-3.3521	-2.9792	-3.375	-3.1312	-3.0292	-3.5146	173.922	104.238	190.008	376.669	312.748	119.772	76.253	329.449	203.034	66.219	420.145	119.170	392.140	289.812	387.786	283.115	0.00029703	0.00016328	4.492e-05	1237.9	6.1451e-06	2.5382e-06	1305.1	256.92	1.0473e-06	3.4317e-06	317.6	88.108	70.02	20.426	3.4631e-06	28.318	0.00020372	0.00020605	5.0517e-05	1062	2.2497e-06	2.2032e-06	1236.6	246.03	2.3034e-06	2.2135e-06	298.9	84.573	67.675	19.879	2.0167e-06	27.256	228.752	131.775	251.993	74.637	194.145	98.905	74.892	82.155	195.956	97.814	81.405	88.736	88.511	95.403	194.165	94.490	-8191	255	
705.372	1	1	0	0	0.14587	0.20053	0.17009	0.074745	0.0096283	0.04003	0.25044	0.12819	0.10655	0.1213	0.052674	0.18861	0.16653	0.19957	0.14677	0.11644	-2.7687	-3.1917	-3.325	-2.8875	-3.3792	-3.0563	-3.1396	-3.3563	-3.1937	-3.1562	-3.4354	-3.1229	-3.3146	-3.1458	-2.7146	-3.2583	367.830	76.508	361.719	305.288	134.538	313.512	390.215	376.052	153.035	245.737	128.062	343.674	359.923	403.183	101.925	323.894	0.00032562	0.00018792	9.2009e-05	1243.5	5.0527e-06	1.9348e-06	1302.3	256.23	1.7686e-06	2.0155e-06	316.91	88.098	69.516	20.153	3.3495e-06	28.345	0.00021492	0.00019722	4.9293e-05	1066.1	2.3471e-06	2.0951e-06	1234	246.01	2.3505e-06	2.0987e-06	298.76	84.659	67.572	19.755	1.996e-06	27.452	251.270	189.328	255.237	74.423	215.076	289.169	74.967	81.857	207.393	363.241	81.242	88.664	88.628	95.040	273.021	94.649	-8191	255	
705.493	1	1	0	0	0.14862	0.20522	0.11609	0.24592	0.095786	0.063298	0.19483	0.31782	0.083279	0.17198	0.31045	0.1214	0.16328	0.14083	0.21394	0.14386	-2.6021	-2.8979	-3.3458	-2.8271	-3.3104	-3.4104	-2.9813	-3.3229	-3.0667	-2.9708	-3.2188	-2.9729	-3.0667	-3.1917	-2.8417	-3.4104	305.228	314.952	321.206	160.825	186.847	296.485	376.370	320.244	202.177	221.104	362.525	307.518	394.315	349.511	204.283	112.905	0.00020893	0.00013023	4.0441e-05	1236.5	1.6927e-06	1.901e-06	1300	256.8	4.8324e-07	2.1691e-06	317.53	88.507	69.674	20.368	1.7952e-06	28.32	0.00021263	0.00019023	4.8435e-05	1071.1	2.2928e-06	2.0198e-06	1232.2	246.52	2.2906e-06	2.0552e-06	298.65	85.074	67.393	19.737	1.9811e-06	27.632	258.367	183.344	314.853	74.479	222.593	155.425	75.070	82.018	321.864	152.098	81.376	89.084	89.133	95.301	254.844	94.855	-8191	255	
705.589	1	1	0	0	0.24931	0.31739	0.17024	0.24479	0.062439	0.11562	0.30263	0.22138	0.10654	0.12657	0.15296	0.079725	0.14224	0.11066	0.18324	0.17603	-2.7	-2.8333	-3.4688	-2.9562	-3.1208	-3.3729	-3.0417	-3.4104	-3.1458	-2.8396	-3.5396	-3.1833	-3.1479	-3.3271	-2.8542	-3.2812	168.030	252.287	288.926	68.643	172.180	101.183	363.224	320.491	173.948	278.207	175.973	193.362	398.762	165.182	259.207	368.804	0.00029366	0.00029775	0.00013159	1235.2	2.1806e-06	3.5465e-06	1302	256.36	6.5374e-06	2.3393e-06	317.13	88.254	69.426	20.19	4.645e-06	28.275	0.00020196	0.00018555	4.8876e-05	1075.4	2.1845e-06	1.9387e-06	1231.1	246.78	2.1252e-06	1.9839e-06	298.39	85.124	66.975	19.616	2.0447e-06	27.634	235.155	222.693	142.644	74.846	150.304	313.040	74.932	82.070	284.185	162.040	81.358	88.470	88.815	95.470	229.741	94.618	-8191	255	
705.661	1	1	0	0	0.068818	0.20854	0.11106	0.19082	0.1619	0.14418	0.24133	0.052593	0.16489	0.091938	0.097075	0.22241	0.16018	0.19921	0.18526	0.14479	-2.8812	-2.8729	-3.2979	-2.8667	-3.1417	-3.5167	-3.1292	-3.3479	-3.1688	-2.7625	-3.0729	-3.2542	-3.0479	-3.3208	-2.8854	-3.1625	156.140	292.025	83.268	68.166	287.993	290.263	385.636	395.737	288.777	187.472	416.719	246.071	405.891	92.356	255.913	380.956	0.00028505	0.00031977	0.00015571	1226.8	1.9817e-06	2.863e-06	1299.7	256.63	5.3739e-06	1.8396e-06	317.57	88.53	69.34	20.21	3.4208e-06	28.216	0.00018931	0.000179	5.158e-05	1073.9	2.0741e-06	1.8908e-06	1230.3	246.91	2.0181e-06	1.948e-06	299.45	85.008	66.744	19.588	2.2116e-06	27.599	230.049	127.602	134.246	74.662	74.656	352.574	75.292	82.167	230.366	98.928	81.675	88.634	88.968	95.134	271.249	94.617	-8191	255	
705.779	1	1	0	0	0.089213	0.095817	0.23807	0.17311	0.17464	0.038224	0.32096	0.075	0.10431	0.078528	0.3274	0.19114	0.14129	0.21793	0.28537	0.060814	-2.8292	-2.8	-3.2521	-3.1771	-2.8792	-3.2917	-3.2438	-3.3208	-3.1792	-2.95	-3.4625	-3.2396	-3.0729	-3.35	-3.0896	-3.1688	334.131	280.308	398.797	158.824	78.476	139.281	379.862	170.142	351.733	252.880	371.522	226.431	387.417	178.404	261.861	335.045	0.0002656	0.00033635	0.00013287	1242.3	1.3079e-06	2.7665e-06	1302.8	256.1	2.6777e-06	3.094e-06	318.88	87.745	69.243	20.119	1.9195e-06	28.353	0.00018517	0.0001783	5.6091e-05	1070.4	2.0645e-06	1.901e-06	1234.1	246.13	1.9823e-06	1.995e-06	300.15	84.375	66.753	19.556	2.3043e-06	27.439	253.086	216.292	194.679	74.787	191.479	142.516	75.093	81.979	196.265	223.244	81.514	88.370	88.801	95.248	240.373	94.662	-8191	255	
705.876	1	1	0	0	0.29121	0.11122	0.2572	0.13203	0.054732	0.28966	0.31894	0.048699	0.24219	0.13711	0.21849	0.18068	0.13957	0.27674	0.087461	0.079119	-2.9562	-2.9479	-3.3396	-3.1479	-2.8375	-3.3771	-3.1375	-3.2542	-3.3937	-2.6917	-3.4042	-3.275	-3.0646	-3.3063	-3.1521	-3.25	146.461	325.461	65.622	317.030	414.321	310.826	347.067	255.902	289.090	273.499	409.925	92.900	383.804	121.471	75.894	218.777	0.00021357	4.7374e-05	2.0786e-05	1232.1	2.872e-06	3.1373e-06	1301.7	255.18	1.7659e-06	4.4858e-06	318.81	87.358	69.617	20.087	4.8986e-06	28.23	0.00017915	0.00018213	5.8209e-05	1061.1	1.9606e-06	1.9818e-06	1232.8	244.57	1.9075e-06	2.0538e-06	300.33	84.252	66.567	19.695	2.2693e-06	27.284	227.015	191.003	304.268	74.775	126.005	243.764	75.024	82.173	267.177	153.121	81.544	88.747	89.035	95.452	193.000	94.867	-8191	255	
705.972	1	1	0	0	0.14968	0.035719	0.1879	0.096235	0.19947	0.24118	0.18938	0.20509	0.11592	0.052682	0.16505	0.19435	0.13329	0.11318	0.039667	0.1988	-3.0625	-2.9875	-3.0917	-3.0729	-2.9625	-3.3063	-3.1708	-3.2208	-3.2417	-3.0792	-3.2104	-3.1708	-2.8979	-3.2542	-3.0938	-3.0583	127.644	365.342	65.864	292.555	172.741	309.580	411.426	386.823	423.604	87.766	390.293	87.920	383.307	302.955	367.822	102.876	0.00027773	0.00033149	7.4968e-05	1228.8	7.6448e-07	4.4343e-06	1300.1	254.08	4.9679e-06	4.5339e-06	315.12	87.491	68.686	19.932	1.4729e-06	28.24	0.00017118	0.0001908	5.7345e-05	1052.6	1.8894e-06	2.0726e-06	1230.2	244.14	1.862e-06	2.1514e-06	299.22	83.843	66.151	19.7	2.1768e-06	27.195	237.621	133.957	404.205	74.340	190.237	185.505	75.119	81.879	226.827	152.933	81.483	88.622	88.930	95.504	76.961	94.772	-8191	255	
706.068	1	1	0	0	0.16383	0.059171	0.060266	0.10423	0.15464	0.18796	0.23052	0.10372	0.2109	0.26591	0.11412	0.10078	0.29023	0.29182	0.0061601	0.2835	-2.9917	-2.9104	-3.2021	-3.2125	-2.9771	-3.4729	-3.2313	-3.0958	-3.3625	-3.0896	-3.1937	-3.4479	-3.0563	-3.275	-3.2354	-3.0979	323.643	364.282	238.864	100.168	199.254	134.949	340.965	77.180	245.137	418.957	417.661	391.205	352.699	398.188	254.611	287.907	0.00031665	0.00034437	3.2381e-05	1222.2	3.9181e-06	2.8208e-06	1293	252.48	4.1991e-06	6.499e-06	313.02	87.391	69.435	19.856	8.3066e-07	28.205	0.00017232	0.00020238	5.4803e-05	1052.3	1.9436e-06	2.2374e-06	1226.7	243.28	1.9331e-06	2.2984e-06	298.06	83.897	66.53	19.835	2.0911e-06	27.149	226.842	140.678	80.487	74.779	237.499	351.358	74.840	82.001	249.733	162.771	81.555	88.446	88.958	95.353	165.770	94.654	-8191	255	
706.189	1	1	0	0	0.024614	0.13142	0.21918	0.096297	0.11508	0.14021	0.29072	0.21148	0.15004	0.25431	0.11839	0.21567	0.24608	0.17717	0.10391	0.14723	-2.9833	-3.0521	-2.9958	-3.2917	-2.8104	-3.2479	-3.4146	-2.9104	-3.3229	-3.1583	-3.0521	-3.3875	-2.8958	-3.1708	-3.2625	-2.8667	387.954	135.181	162.724	79.314	381.028	134.937	398.757	409.913	325.530	385.244	390.399	416.152	420.005	77.164	390.823	86.307	0.00022033	0.00022234	6.0427e-05	1231.6	6.0973e-06	5.9109e-06	1287.8	254.44	6.0393e-06	7.6195e-07	316.16	87.645	68.865	19.945	2.3563e-06	28.209	0.00018349	0.00021106	5.3943e-05	1051.5	2.0931e-06	2.3243e-06	1225.2	243.65	2.0908e-06	2.3133e-06	298.03	83.764	66.832	19.828	2.0257e-06	27.1	234.024	191.423	378.242	74.701	208.075	230.703	75.207	82.195	207.430	353.338	81.396	88.813	88.713	95.235	287.463	94.986	-8191	255	
706.260	1	1	0	0	0.084695	0.1166	0.085328	0.26803	0.2271	0.13511	0.040229	0.24363	0.15816	0.12832	0.33308	0.26708	0.046002	0.11136	0.059599	0.015523	-3.0104	-3.0187	-3.0292	-3.3583	-2.9042	-3.2292	-3.4542	-3.1729	-3.2583	-3.1063	-2.9875	-3.275	-2.9875	-3.2667	-3.175	-2.7646	175.954	96.476	330.148	82.543	403.262	232.816	133.055	383.514	275.547	395.796	390.882	413.559	300.458	360.926	82.060	101.690	0.00032241	0.00020801	4.6047e-05	1226.1	1.1435e-06	3.2937e-06	1290.9	254.45	7.3226e-06	3.6251e-06	315.5	87.484	69.429	20.113	2.4588e-06	27.952	0.00019838	0.00020703	5.1726e-05	1049.7	2.2489e-06	2.2851e-06	1224.4	243.8	2.2564e-06	2.2265e-06	297.51	83.708	66.976	19.8	1.9735e-06	27.116	232.548	213.394	196.377	74.406	227.456	306.923	74.955	82.060	202.692	391.012	81.577	88.830	88.726	95.279	302.195	94.851	-8191	255	
706.356	1	1	0	0	0.21179	0.30852	0.058417	0.22552	0.12101	0.063331	0.26269	0.14677	0.061241	0.13466	0.16214	0.13566	0.24152	0.13433	0.018702	0.064057	-2.7917	-3.0833	-2.9667	-3.4625	-3.0312	-3.3521	-3.5271	-3.1	-3.3229	-3.2	-3.0187	-3.3833	-3.1875	-3.0896	-3.3625	-3.0292	194.569	315.216	312.414	76.754	218.881	136.615	348.723	355.035	213.945	167.783	314.661	398.149	409.365	71.469	362.568	321.631	0.00025416	0.00032039	9.8063e-05	1230.4	2.3192e-06	2.2996e-06	1293.3	254.56	5.8679e-06	7.5468e-07	315.7	87.934	69.286	19.933	2.9959e-06	28.099	0.00021006	0.00019565	5.0697e-05	1050.7	2.3221e-06	2.1545e-06	1223.3	243.76	2.3458e-06	2.0955e-06	296.83	83.971	67.246	19.669	1.9207e-06	27.188	222.594	422.291	187.384	74.618	95.317	353.272	74.958	82.036	186.041	181.716	81.608	89.018	88.878	95.316	178.220	94.518	-8191	255	
706.452	1	1	0	0	0.25085	0.043143	0.062912	0.22075	0.19612	0.1114	0.18875	0.32077	0.18595	0.088212	0.19067	0.033511	0.10554	0.16487	0.19572	0.33147	-2.7792	-3.2479	-2.8542	-3.3167	-3.0563	-3.1979	-3.5438	-3.0708	-3.1896	-3.2438	-2.8604	-3.3438	-3.0312	-3.0104	-3.4333	-3.0125	117.811	408.094	204.346	352.447	379.590	405.088	356.348	381.590	298.762	361.108	392.381	370.356	159.849	380.639	366.403	390.838	0.00030575	0.00021247	5.5674e-05	1219	2.4412e-06	3.5578e-06	1287.8	254.07	6.3068e-06	2.9567e-06	315.65	87.398	68.802	19.822	2.0631e-06	28.134	0.00021412	0.00018564	4.957e-05	1054.4	2.2984e-06	2.0704e-06	1220.6	244.21	2.3401e-06	2.0238e-06	296.34	84.328	66.796	19.581	1.9198e-06	27.398	227.734	247.274	243.041	74.561	170.326	245.544	74.745	82.109	187.136	227.503	81.649	88.763	88.746	95.484	213.850	94.890	-8191	255	
706.571	1	1	0	0	0.25628	0.18694	0.21687	0.036358	0.025607	0.089605	0.16086	0.23392	0.066385	0.043827	0.24095	0.18146	0.1513	0.10937	0.16932	0.30737	-2.8146	-3.1979	-2.975	-3.4042	-3.1125	-3.0729	-3.5979	-3.075	-3.0375	-3.3167	-3.0062	-3.2979	-3.1729	-3.0146	-3.3833	-3.0625	340.320	274.214	406.287	264.680	78.025	309.055	367.850	415.873	353.192	407.509	105.205	305.820	371.765	309.576	158.764	112.962	0.00016044	0.00027508	7.345e-05	1213.6	1.8207e-06	1.9986e-06	1280.8	252.04	2.7263e-06	1.2311e-06	315.58	87.752	68.527	19.917	4.3024e-06	27.849	0.00020969	0.00018194	5.0669e-05	1065.6	2.2441e-06	2.0485e-06	1220.7	244.48	2.2517e-06	1.9848e-06	296.67	84.893	66.748	19.563	2.0174e-06	27.564	242.395	109.095	158.004	74.418	102.683	318.057	74.925	82.059	255.593	128.775	81.572	88.581	88.741	95.493	245.358	95.078	-8191	255	
706.668	1	1	0	0	0.34219	0.12386	0.15526	0.14764	0.15543	0.074119	0.045658	0.052214	0.21298	0.18763	0.214	0.10207	0.023594	0.1076	0.19732	0.06785	-2.7313	-3.3917	-2.9917	-3.4417	-3.2354	-3.0187	-3.4792	-3.2229	-3.0708	-3.4354	-3.0229	-3.2875	-3.1792	-2.9521	-3.3021	-3.1688	248.360	234.629	421.865	82.163	144.842	391.283	363.415	129.369	152.640	422.991	70.525	143.539	320.435	253.271	308.126	365.512	0.0002154	0.00010486	0.00010112	1216.5	1.8228e-06	4.5216e-06	1288.3	253.17	6.5025e-06	3.883e-06	314.92	88.12	68.972	20.109	4.6082e-06	28.054	0.00020104	0.0001793	5.3087e-05	1067.3	2.1226e-06	2.0096e-06	1222.4	245.08	2.1466e-06	1.9629e-06	297.8	84.835	66.612	19.65	2.1877e-06	27.534	248.259	175.662	174.574	74.439	204.382	272.842	74.925	81.966	255.337	336.472	81.493	88.844	88.597	95.185	255.775	94.725	-8191	255	
706.764	1	1	0	0	0.26246	0.017068	0.13717	0.069995	0.18061	0.13411	0.11508	0.21817	0.10171	0.12784	0.045851	0.21616	0.24215	0.15759	0.34656	0.074887	-2.7271	-3.3292	-2.9083	-3.1042	-3.2604	-2.975	-3.6458	-3.2708	-2.9146	-3.4208	-3.0875	-3.1292	-3.1917	-3.0833	-3.375	-3.2729	301.798	72.821	254.724	261.365	136.401	362.602	325.438	361.425	239.015	161.593	114.676	418.425	337.457	145.739	286.640	263.529	0.00026427	0.00022384	1.0272e-05	1214	2.0212e-06	5.1761e-06	1288.8	251.86	3.3645e-06	1.7876e-06	315.83	87.41	69.251	19.97	4.0061e-06	27.996	0.00019412	0.00017709	5.6185e-05	1067	2.0302e-06	1.9785e-06	1226.7	244.2	2.0763e-06	1.9303e-06	299.09	84.605	66.431	19.53	2.2881e-06	27.327	235.197	100.029	420.243	74.227	201.732	227.332	74.971	81.986	301.531	334.457	81.468	88.277	88.784	95.702	244.810	94.898	-8191	255	
706.860	1	1	0	0	0.24622	0.12166	0.12157	0.16396	0.12017	0.1568	0.32548	0.028676	0.21518	0.12063	0.13058	0.10255	0.27231	0.10125	0.33236	0.18461	-2.3833	-3.3333	-2.8812	-3.2625	-3.2625	-2.9229	-3.3229	-3.1688	-2.8604	-3.4917	-3.1271	-3.1354	-3.3333	-2.9167	-3.1771	-3.1542	107.182	349.921	203.208	412.050	348.774	383.242	321.831	74.403	179.923	312.420	382.538	80.612	83.634	77.206	259.491	77.032	0.00026387	0.00025839	8.2792e-05	1223.7	4.0074e-06	5.7472e-06	1292.8	253.47	5.584e-06	4.2968e-06	316.48	87.866	69.465	20.086	4.4303e-06	28.03	0.0001879	0.00017783	5.8711e-05	1065.5	1.9711e-06	2.0258e-06	1229.5	244.17	2.0491e-06	2.0138e-06	299.76	84.432	66.453	19.704	2.3676e-06	27.336	259.579	122.268	95.544	74.670	266.239	181.232	75.037	82.018	232.425	220.587	81.385	88.715	88.987	95.168	289.245	94.792	-8191	255	
706.956	1	1	0	0	0.15896	0.18487	0.17921	0.46611	0.07528	0.14798	0.10662	0.14101	0.11477	0.14466	0.083181	0.1002	0.1364	0.23614	0.12129	0.15927	-2.5792	-3.3792	-3.0396	-2.9167	-3.3979	-3.0083	-3.4729	-3.3917	-2.8083	-3.2854	-3.2062	-3.0875	-3.4729	-3.0958	-3.3312	-3.4708	215.320	91.102	357.172	354.919	120.786	374.490	422.300	117.976	386.008	365.075	86.518	112.639	229.784	382.102	376.474	364.099	0.00032154	0.00014777	0.00013569	1229.8	9.8994e-07	1.6889e-06	1294.4	254	5.2444e-06	6.4646e-06	315.11	87.578	69.161	20.058	4.5525e-06	28.343	0.00018567	0.00018731	5.9641e-05	1059.6	1.9167e-06	2.1592e-06	1229.7	243.57	1.9953e-06	2.1616e-06	299.36	84.171	66.335	19.814	2.3269e-06	27.238	236.853	208.243	184.810	74.361	329.693	97.806	75.037	82.082	256.046	174.116	81.601	88.913	89.012	95.521	189.155	94.431	-8191	255	
707.052	1	1	0	0	0.078798	0.24734	0.069491	0.14763	0.15825	0.039322	0.28362	0.29673	0.14735	0.13825	0.056681	0.22636	0.087731	0.22203	0.20739	0.055395	-2.5458	-3.2958	-3.1917	-3.1583	-3.3458	-3.0042	-3.1833	-3.1333	-2.8583	-3.2771	-3.1271	-2.9917	-3.2604	-2.875	-3.2438	-3.3521	255.986	80.970	349.595	349.327	234.185	205.832	324.105	354.518	220.155	203.404	397.047	335.857	85.475	278.856	151.096	233.843	0.00031062	0.00016304	0.00012885	1225.4	4.0924e-06	4.3756e-06	1299.7	254.41	2.2652e-06	3.3664e-06	317.38	87.872	69.16	19.944	1.9855e-06	28.149	0.00018437	0.00020327	5.7232e-05	1056.7	1.9366e-06	2.2808e-06	1230.7	243.36	2.0282e-06	2.2923e-06	299.25	84.122	66.363	19.873	2.2217e-06	27.159	247.224	420.889	260.715	74.702	185.030	229.389	74.962	82.093	167.116	257.594	81.588	88.576	88.935	95.084	313.943	94.781	-8191	255	
707.173	1	1	0	0	0.20197	0.1786	0.16112	0.24947	0.13852	0.078274	0.036946	0.2976	0.21205	0.12936	0.18036	0.17753	0.1281	0.10453	0.12075	0.052475	-2.6333	-3.1729	-3.0208	-2.9354	-3.1042	-3.0062	-3.0542	-3.475	-2.8229	-3.2354	-3.2458	-2.9146	-3.4042	-3.0812	-3.1521	-3.4813	149.174	337.016	243.241	132.975	373.902	236.169	116.194	362.172	295.438	221.223	150.879	282.934	284.556	78.787	319.394	178.124	0.00035475	0.00042058	3.834e-05	1234.1	5.7492e-06	2.0153e-06	1295.1	255.61	4.297e-06	2.4611e-06	316.82	88.074	69.626	20.135	1.8475e-06	28.108	0.00018774	0.00021512	5.5052e-05	1056.7	2.0255e-06	2.3794e-06	1227.3	243.93	2.1102e-06	2.3822e-06	298.18	84.251	66.735	19.948	2.103e-06	27.143	236.397	145.144	151.625	74.652	232.551	225.015	75.205	81.980	220.688	324.487	81.628	88.902	88.774	95.472	217.725	94.802	-8191	255	
707.269	1	1	0	0	0.17435	0.1545	0.088953	0.17591	0.20499	0.17504	0.18424	0.20405	0.15683	0.075577	0.085921	0.099558	0.26979	0.22149	0.051008	0.083911	-2.4979	-3.3438	-3.2146	-2.9771	-3.3396	-3.1958	-3.2938	-3.5	-3.1188	-3.2229	-3.3187	-2.8958	-3.2979	-3.1958	-2.9229	-3.5229	375.880	93.271	302.831	125.698	88.615	79.115	376.680	73.514	159.907	214.068	377.064	245.312	336.085	396.503	299.114	360.145	0.00048119	0.00013399	9.1583e-05	1226.5	2.0979e-06	3.2369e-06	1292	254.54	3.1657e-06	1.6266e-06	315.36	87.336	69.69	20.1	1.1989e-06	28.305	0.00019769	0.00021199	5.138e-05	1053.2	2.1472e-06	2.2892e-06	1227.3	244.07	2.2051e-06	2.2653e-06	297.7	84.099	67.046	19.854	2.0276e-06	27.058	237.255	363.612	133.509	74.839	153.345	164.532	75.010	82.041	186.922	108.137	81.346	88.567	88.894	95.011	118.851	94.740	-8191	255	
707.365	1	1	0	0	0.081396	0.29518	0.10888	0.34206	0.20282	0.14139	0.094793	0.18505	0.042263	0.12865	0.17975	0.159	0.11953	0.071458	0.11018	0.26086	-2.6229	-3.1125	-3.2542	-3.0479	-3.4104	-3.1333	-3.0292	-3.3812	-2.925	-3.1729	-3.3708	-3.0542	-3.3083	-3.3333	-3.0333	-3.3438	357.926	369.388	301.682	319.560	182.445	380.663	404.750	66.908	100.579	424.159	290.977	416.075	415.321	307.332	139.811	250.176	0.00033142	0.00020547	5.4647e-05	1224.6	3.3624e-06	1.988e-06	1291.5	256	3.2487e-07	1.27e-06	317.25	87.818	69.215	19.856	1.6234e-06	28.379	0.0002076	0.00020167	4.9649e-05	1052.6	2.2389e-06	2.1233e-06	1225.1	244.17	2.2841e-06	2.1257e-06	297.6	84.026	67.127	19.678	1.932e-06	27.18	227.044	400.180	186.473	74.717	207.283	358.325	75.062	82.170	126.780	123.904	81.475	88.692	88.951	95.191	148.028	94.644	-8191	255	
707.461	1	1	0	0	0.10755	0.081609	0.063175	0.045793	0.038113	0.20329	0.25908	0.25548	0.19538	0.20421	0.27537	0.2242	0.041094	0.2039	0.15052	0.3036	-2.8625	-3.2083	-3.2687	-3.0271	-3.4	-3.3521	-2.9354	-3.3271	-3.0687	-3.1583	-3.6083	-3.05	-3.275	-3.2854	-2.9646	-3.2625	146.659	135.715	320.436	182.682	234.672	203.399	368.526	362.477	219.708	376.286	365.329	282.195	264.571	236.488	314.188	368.557	0.00029933	0.00023895	3.0875e-05	1220.8	4.0192e-06	4.67e-06	1285.4	254.21	1.8685e-06	1.3191e-06	314.97	86.884	68.801	19.94	1.2771e-06	28.058	0.00020771	0.0001862	4.7283e-05	1054.5	2.2735e-06	1.9785e-06	1222.2	243.95	2.2568e-06	1.9995e-06	296.68	84.121	66.963	19.549	1.8992e-06	27.253	232.465	317.848	288.839	74.384	175.826	351.732	74.996	81.901	222.130	282.234	81.443	88.591	88.852	95.098	175.131	94.826	-8191	255	
707.557	1	1	0	0	0.21664	0.027006	0.027445	0.21044	0.26193	0.22982	0.36235	0.18036	0.077209	0.11726	0.092514	0.066391	0.12941	0.16463	0.25469	0.13953	-2.7458	-2.9938	-3.4208	-2.9917	-3.2833	-3.2125	-3.1479	-3.4062	-3.2438	-3.0167	-3.4458	-3.0687	-3.2979	-3.4604	-2.8521	-3.6063	351.590	350.545	310.350	257.600	307.095	301.729	378.394	399.478	396.402	263.277	125.411	380.201	263.115	350.045	326.565	315.523	0.00026586	0.00020705	2.0064e-05	1211.7	9.9584e-07	3.4327e-06	1286.7	252.81	3.0903e-06	7.729e-07	317.17	87.929	68.999	19.827	3.7648e-06	28.099	0.00020262	0.00017927	4.6671e-05	1058.5	2.2086e-06	1.9239e-06	1221.5	244.51	2.148e-06	1.9724e-06	296.45	84.458	66.651	19.464	1.9171e-06	27.511	250.938	122.841	247.401	74.014	150.792	163.627	74.868	81.972	236.618	278.578	81.464	88.702	88.633	95.449	222.488	94.633	-8191	255	
707.653	1	1	0	0	0.098058	0.25081	0.075308	0.023846	0.11938	0.12074	0.14254	0.13555	0.24129	0.17637	0.43589	0.18605	0.14038	0.12755	0.081376	0.28751	-2.9167	-2.9333	-3.3688	-3.0771	-3.0062	-3.3833	-3.2167	-3.375	-3.2333	-2.9958	-3.4125	-3.0396	-3.3792	-3.4167	-3.0938	-3.4396	280.395	395.021	276.827	275.687	229.789	312.238	178.158	360.395	350.430	160.603	380.010	90.481	185.308	386.851	356.361	215.212	0.00027927	0.00023437	1.9181e-05	1218.3	2.7536e-06	3.2512e-06	1281.6	252.35	1.5158e-07	1.6876e-06	315.39	87.329	68.972	20.013	3.521e-06	27.885	0.00019103	0.00017611	4.7613e-05	1061	2.0778e-06	1.8677e-06	1219.8	244.39	2.0207e-06	1.8971e-06	296.74	84.518	66.449	19.517	1.9924e-06	27.326	236.941	226.263	292.239	74.519	400.259	178.759	74.976	81.892	148.029	71.429	81.470	88.589	88.613	94.904	262.090	94.813	-8191	255	
707.748	1	1	0	0	0.24722	0.1218	0.1875	0.060006	0.1412	0.23825	0.1934	0.084108	0.14908	0.214	0.29408	0.079102	0.11462	0.094761	0.12991	0.1062	-2.7375	-3.0563	-3.2833	-3.2625	-2.9562	-3.6396	-3.0333	-3.3187	-3.2083	-2.8771	-3.5396	-3.2167	-2.8521	-3.3479	-2.8917	-3.3417	277.867	357.282	412.450	399.335	368.548	319.904	309.705	180.539	325.241	314.579	159.949	238.792	279.095	67.211	228.897	256.452	0.00033397	0.00047659	5.6595e-05	1213	2.6085e-06	2.1374e-07	1288.2	252.79	1.9604e-06	1.7362e-06	316.05	87.508	68.941	19.964	2.634e-06	28.091	0.00018117	0.00017087	5.0236e-05	1060	1.9619e-06	1.8039e-06	1224.2	244.38	1.927e-06	1.842e-06	297.65	84.196	66.045	19.412	2.0893e-06	27.302	234.180	259.187	223.979	74.525	309.907	423.872	74.836	82.196	270.022	205.700	81.264	88.549	88.760	95.467	242.113	94.787	-8191	255	
707.869	1	1	0	0	0.15175	0.15003	0.094626	0.090429	0.15576	0.23128	0.23373	0.26567	0.29977	0.20634	0.085418	0.27366	0.30696	0.26766	0.31057	0.31787	-2.8688	-2.8271	-3.1688	-3.075	-3.0125	-3.4542	-3.0083	-3.2708	-3.3167	-2.9437	-3.3042	-3.1208	-3.1167	-3.4125	-3.0583	-3.2292	240.966	192.622	117.509	65.927	409.075	294.054	309.831	367.845	280.884	213.003	297.460	385.433	374.931	370.506	419.828	330.010	0.00023427	0.00035391	5.0889e-05	1220.1	1.593e-06	1.7503e-06	1288.2	253.95	4.5478e-06	1.2563e-06	316.29	86.989	69.144	19.898	1.2729e-06	27.869	0.00017205	0.00016665	5.3073e-05	1052.7	1.8879e-06	1.7888e-06	1221.9	243.82	1.8461e-06	1.8535e-06	297.91	83.798	65.991	19.437	2.1523e-06	27.088	234.443	162.835	127.771	74.596	249.564	194.079	75.054	81.937	172.478	290.117	81.559	88.799	89.091	95.511	114.127	94.772	-8191	255	
707.965	1	1	0	0	0.049016	0.18742	0.076678	0.18491	0.18728	0.059218	0.42561	0.10485	0.093358	0.1864	0.083231	0.057272	0.15746	0.089171	0.14754	0.24967	-2.9417	-2.7833	-3.2958	-3.2917	-2.9146	-3.4875	-3.1896	-3.1688	-3.375	-3.1521	-3.3646	-3.3083	-2.7979	-3.4396	-3.2562	-3.1708	271.319	351.202	337.667	422.656	114.569	358.354	362.004	345.764	372.699	355.634	360.919	168.954	251.987	373.600	342.840	143.045	0.00018374	0.00044986	0.00019087	1217.3	3.4615e-06	5.6896e-06	1283.8	253.13	1.7742e-06	3.4642e-06	314.23	87.183	68.769	20.068	2.5398e-06	28.17	0.00016679	0.00017178	5.4189e-05	1046.3	1.8084e-06	1.8515e-06	1221.1	242.6	1.7617e-06	1.913e-06	297.34	83.377	65.762	19.483	2.095e-06	26.979	231.095	131.060	159.795	74.451	209.419	239.768	74.979	82.271	263.971	177.088	81.719	88.938	89.083	95.286	170.160	94.994	-8191	255	
708.061	1	1	0	0	0.076756	0.15264	0.050948	0.015127	0.25106	0.10568	0.36717	0.1956	0.10129	0.076782	0.086935	0.195	0.2809	0.0071673	0.23142	0.11288	-3.0938	-2.9479	-3.1625	-3.2938	-3.0021	-3.3333	-3.0792	-3.025	-3.4104	-2.9062	-3.2542	-3.2583	-2.8229	-3.2792	-3.2458	-3.1271	275.733	120.993	381.219	331.892	377.424	367.784	351.803	401.538	332.171	288.812	372.589	284.929	385.437	145.701	373.418	266.058	0.00033733	0.00039217	0.00010449	1214.7	1.5507e-06	6.7636e-06	1283.6	253.69	3.4923e-06	4.2251e-06	314.25	86.969	68.809	19.939	2.2339e-06	28.135	0.00015965	0.0001801	5.2656e-05	1039.4	1.7762e-06	1.9716e-06	1218.6	242.27	1.7416e-06	2.0309e-06	296.23	83.162	65.693	19.618	1.9796e-06	26.955	243.504	144.320	124.173	74.927	276.186	247.080	74.999	81.984	216.102	240.935	81.522	88.835	88.934	95.426	356.546	94.560	-8191	255	
708.132	1	1	0	0	0.14573	0.10528	0.34334	0.092497	0.14189	0.061657	0.45475	0.27759	0.33296	0.14068	0.32309	0.31761	0.25109	0.081497	0.11825	0.22499	-3.0271	-2.8854	-3.1646	-3.4146	-2.9083	-3.2854	-3.3875	-2.9854	-3.3688	-2.9542	-3.2792	-3.2583	-2.9646	-3.1604	-2.95	-2.9104	232.736	250.460	363.245	386.027	391.889	249.791	340.958	337.996	335.975	191.798	123.953	352.556	322.128	86.174	200.245	280.806	0.00038813	0.00041984	3.3247e-05	1212.3	3.3167e-06	6.3722e-06	1282.9	252.81	6.2118e-06	3.2061e-06	315.78	87.418	68.865	20.008	2.7811e-06	28.187	0.00016234	0.00018841	4.9982e-05	1036.4	1.7985e-06	2.07e-06	1216.3	242.09	1.7813e-06	2.0899e-06	295.83	83.094	65.79	19.658	1.8554e-06	26.865	236.533	140.357	274.153	75.134	283.033	254.264	74.952	82.036	275.393	221.469	81.613	88.852	88.944	95.596	413.877	94.907	-8191	255	
708.253	1	1	0	0	0.16834	0.12589	0.072509	0.12512	0.17489	0.21621	0.091018	0.48803	0.22204	0.19515	0.17777	0.13666	0.25572	0.18439	0.18045	0.13436	-2.7875	-2.95	-3.0938	-3.3937	-2.9271	-3.2833	-3.3896	-2.9833	-3.3917	-3.0062	-3.1271	-3.5104	-3.0083	-3.1896	-3.2188	-2.9771	101.055	180.228	252.196	345.647	287.283	113.407	119.286	394.278	300.724	294.061	144.352	333.772	320.571	71.243	177.749	380.971	0.00032501	7.8233e-05	6.9849e-05	1210.1	5.1514e-06	1.9601e-06	1282.7	252.73	5.3512e-06	3.776e-06	313.23	87.47	68.623	19.948	2.9641e-06	28.148	0.00016917	0.0001876	4.6202e-05	1031.1	1.8645e-06	2.0491e-06	1212.3	241.32	1.888e-06	2.0077e-06	294.21	82.974	65.805	19.609	1.7655e-06	26.774	228.637	95.440	330.643	74.538	252.941	93.680	74.963	82.157	272.112	381.540	81.495	88.944	88.948	95.404	233.342	95.019	-8191	255	
708.349	1	1	0	0	0.16903	0.13211	0.027633	0.17325	0.12738	0.30243	0.15474	0.17987	0.14606	0.23533	0.23938	0.056078	0.1075	0.19101	0.26305	0.20133	-2.95	-3.1583	-3.0333	-3.4958	-2.8729	-3.2583	-3.3792	-3.2438	-3.4208	-3.1542	-3.1958	-3.4125	-3.1021	-3.1708	-3.3542	-2.875	235.177	111.909	95.263	346.268	118.265	367.811	353.897	140.374	290.151	367.014	358.089	363.461	97.440	413.514	102.227	106.383	0.00035751	0.00023715	1.207e-05	1223.7	1.3986e-06	4.3649e-06	1278.1	252.77	8.5742e-06	1.3252e-06	314.99	87.53	68.999	20.062	4.7363e-06	28.32	0.00017624	0.00017593	4.4515e-05	1030.9	1.939e-06	1.9286e-06	1209.8	241.06	1.9486e-06	1.869e-06	293.35	82.763	66.044	19.472	1.6668e-06	26.861	248.197	190.425	119.187	74.753	272.031	420.781	75.019	82.362	203.236	381.956	81.882	89.108	88.807	95.636	240.941	95.037	-8191	255	
708.445	1	1	0	0	0.15177	0.13027	0.071766	0.09543	0.21409	0.080383	0.22231	0.063308	0.16623	0.25618	0.090539	0.22959	0.095849	0.18129	0.12429	0.22992	-2.8	-3.1354	-3	-3.325	-3.0104	-3.1375	-3.4792	-3.0438	-3.2271	-3.3167	-3.0771	-3.3167	-2.9542	-3.1896	-3.4021	-3.0958	287.988	214.946	166.610	306.033	106.370	70.747	371.564	86.443	414.478	396.993	372.317	113.191	317.635	299.994	398.157	167.301	0.00034867	0.00027234	7.3181e-05	1213.4	9.4646e-07	3.5188e-07	1281.2	252.39	4.2368e-06	1.7764e-06	314.1	87.127	68.678	19.943	2.1362e-06	27.948	0.00018091	0.0001656	4.3221e-05	1029.2	2.0035e-06	1.819e-06	1206.9	240.65	1.989e-06	1.7782e-06	292.74	83.017	65.922	19.362	1.645e-06	26.827	244.557	150.044	276.590	74.487	240.194	300.451	75.083	82.342	123.510	270.367	81.641	88.681	89.043	95.402	220.893	94.871	-8191	255	
708.542	1	1	0	0	0.048693	0.17482	0.058053	0.042448	0.10633	0.049183	0.21381	0.14066	0.21127	0.35962	0.15737	0.10198	0.15577	0.082302	0.064702	0.21951	-2.8667	-3.3521	-3.0833	-3.4167	-3.1417	-3.2313	-3.3875	-3.0938	-3.2438	-3.2917	-2.9021	-3.3438	-3.1354	-3.0521	-3.2229	-3.0896	398.966	160.023	324.254	81.207	145.244	288.613	373.766	390.250	90.803	321.976	348.505	270.845	386.670	371.743	236.405	375.605	0.00029251	0.00029739	2.4941e-05	1204.6	1.2961e-06	3.8238e-06	1281.8	253.57	4.5061e-06	2.5817e-06	311.9	87.134	68.736	19.932	2.3676e-06	28.133	0.00018522	0.00015931	4.2945e-05	1032.9	1.9766e-06	1.7746e-06	1207.5	241.81	1.9768e-06	1.7168e-06	291.99	83.258	65.816	19.262	1.6554e-06	27.087	244.317	184.570	297.577	74.804	276.793	332.952	75.135	82.270	251.589	387.676	81.692	88.650	89.018	95.589	300.351	95.123	-8191	255	
708.662	1	1	0	0	0.20723	0.15026	0.12874	0.33502	0.12761	0.19348	0.26774	0.025837	0.091069	0.148	0.16534	0.26237	0.26511	0.12349	0.13821	0.14573	-2.9271	-3.0896	-3.0438	-3.2979	-3.0292	-2.925	-3.6771	-3.1979	-3.1188	-3.2458	-3.0146	-3.3417	-3.3104	-2.9125	-3.4333	-3.0312	126.276	84.600	402.039	385.139	270.960	393.766	359.528	172.364	334.756	229.098	376.729	77.233	309.306	385.428	397.908	286.440	0.00020231	5.0959e-05	5.0272e-05	1211.4	2.1047e-06	1.4908e-06	1274.3	252.5	2.3885e-06	1.3302e-06	313.17	87.381	68.127	19.998	3.4106e-06	28.028	0.00017846	0.00015523	4.3411e-05	1040.9	1.8768e-06	1.728e-06	1203.5	241.21	1.8598e-06	1.6902e-06	292.31	83.379	65.355	19.217	1.7127e-06	27.052	229.671	166.189	76.295	74.874	290.380	360.930	75.124	82.326	189.800	181.534	81.608	89.086	88.840	95.277	190.133	95.108	-8191	255	
708.757	1	1	0	0	0.07077	0.16054	0.12872	0.26884	0.18884	0.08071	0.1195	0.024698	0.13024	0.077905	0.17938	0.17955	0.19222	0.093119	0.24346	0.1166	-2.6688	-3.2146	-2.9083	-3.4146	-3.3229	-3.0771	-3.5208	-3.1875	-3.0083	-3.5167	-3.1437	-3.2354	-3.3208	-3.0729	-3.4562	-3	251.906	289.381	256.900	81.497	74.096	224.138	344.654	282.563	143.135	422.605	110.923	311.043	399.676	389.823	82.959	399.725	0.00031759	0.00047659	3.6939e-05	1217.3	9.8026e-07	2.4461e-06	1276.4	252.71	1.6774e-06	8.3852e-07	313.59	87.057	69.045	19.888	5.0659e-06	28.099	0.00017017	0.00015231	4.481e-05	1041.8	1.7757e-06	1.6751e-06	1204.2	240.91	1.7862e-06	1.6294e-06	293.03	83.329	65.194	19.202	1.8215e-06	26.958	239.882	157.414	164.187	75.016	196.339	162.199	75.105	82.267	360.851	72.321	81.538	88.748	88.809	94.944	221.784	94.929	-8191	255	
708.853	1	1	0	0	0.22488	0.4101	0.073722	0.074171	0.094791	0.18154	0.14374	0.27537	0.075307	0.13006	0.23519	0.061615	0.25341	0.13186	0.19061	0.1876	-2.6437	-3.4521	-2.9813	-3.1708	-3.4354	-2.9729	-3.5167	-3.1479	-3.0312	-3.3792	-3.2729	-3.325	-3.1937	-3.0521	-3.3792	-3.1896	302.288	380.141	354.996	244.900	344.686	403.007	99.567	384.176	86.306	147.807	109.315	150.231	94.938	407.595	76.442	365.575	0.00027626	9.2319e-05	0.00012303	1213.1	1.5979e-06	4.2651e-06	1273	251.32	1.7497e-06	2.8996e-06	313.32	86.91	68.665	19.906	2.882e-06	27.952	0.00015908	0.00014565	4.7006e-05	1034.3	1.6616e-06	1.6493e-06	1203.8	240.11	1.7312e-06	1.6217e-06	293.76	82.919	64.937	19.213	1.9565e-06	26.783	251.680	151.965	116.709	74.708	379.701	188.345	75.025	82.263	268.222	168.666	81.783	88.351	88.922	95.650	165.059	94.548	-8191	255	
708.949	1	1	0	0	0.11225	0.10201	0.20438	0.16364	0.05908	0.27694	0.23843	0.26079	0.062594	0.20677	0.14132	0.19581	0.24089	0.012048	0.19369	0.074458	-2.6083	-3.35	-2.7313	-3.1021	-3.3625	-3.1354	-3.5354	-3.2625	-3.1188	-3.3708	-2.9146	-3.1417	-3.2771	-2.9083	-3.2083	-3.2313	218.836	338.764	68.592	285.954	97.876	116.607	386.612	382.967	181.566	384.235	321.818	383.549	364.701	203.450	240.333	284.330	0.00033452	0.00015391	0.00020464	1211.4	2.2641e-06	4.6652e-06	1272.7	250.43	5.3179e-06	3.9149e-06	313.2	86.884	68.408	19.979	2.6682e-06	27.773	0.00015819	0.00015099	4.9827e-05	1032.3	1.644e-06	1.7168e-06	1206	239.51	1.6974e-06	1.7141e-06	294.01	82.873	64.842	19.286	1.9834e-06	26.696	229.600	375.612	151.084	74.691	306.073	240.194	75.159	82.024	170.054	205.171	81.735	89.300	88.686	95.335	275.053	94.773	-8191	255	
709.045	1	1	0	0	0.17965	0.096208	0.029576	0.095871	0.12452	0.10481	0.19861	0.079136	0.10727	0.13609	0.33922	0.14024	0.066193	0.29599	0.14345	0.038065	-2.3812	-3.2396	-3.0583	-3.0854	-3.4333	-2.9625	-3.4646	-3.4042	-3.2375	-3.4688	-3.1479	-3.2042	-3.4437	-2.9542	-3.2771	-3.2646	361.113	86.367	169.207	223.327	247.153	168.290	324.400	320.545	90.995	94.679	400.265	306.001	223.328	390.485	90.871	252.536	0.00024653	0.00041733	3.7919e-05	1205	2.4783e-06	4.309e-06	1270.3	250.28	1.727e-06	1.3754e-06	313.05	86.617	68.729	19.997	3.2862e-07	27.762	0.00015711	0.00016473	5.0725e-05	1026.1	1.6475e-06	1.8517e-06	1205.1	239.51	1.7041e-06	1.8733e-06	294.08	82.7	65.051	19.427	1.9865e-06	26.695	240.232	130.490	318.828	74.956	388.116	258.008	74.881	82.280	242.742	216.573	81.565	88.938	89.190	95.773	69.374	94.892	-8191	255	
709.141	1	1	0	0	0.14188	0.1001	0.31709	0.073847	0.083486	0.14092	0.070669	0.13747	0.14212	0.26426	0.25614	0.13683	0.15691	0.1933	0.044015	0.26363	-2.5125	-3.3792	-2.9875	-2.9458	-3.4042	-3.1312	-3.3875	-3.3771	-2.8354	-3.3521	-3.2938	-2.9792	-3.3229	-3.0062	-3.0667	-3.3208	277.252	394.233	255.475	230.565	372.642	289.994	197.813	414.106	147.445	84.151	332.720	378.090	384.443	402.643	358.174	368.513	0.00027596	0.00024716	7.4592e-05	1204	4.5858e-06	2.3377e-06	1272.6	250.07	2.1253e-06	4.4911e-06	312.31	86.745	68.767	19.781	2.5526e-06	28.094	0.00016111	0.00018044	4.9352e-05	1029.3	1.7128e-06	2.0531e-06	1207.7	239.66	1.7906e-06	2.0577e-06	293.65	82.837	65.343	19.493	1.941e-06	26.763	239.447	137.734	383.762	74.247	208.015	242.999	74.853	81.978	189.942	174.034	81.772	88.729	89.127	95.345	361.063	94.794	-8191	255	
709.262	1	1	0	0	0.16014	0.064267	0.10481	0.21173	0.11657	0.13873	0.21988	0.14295	0.12258	0.30592	0.22537	0.16242	0.23503	0.25053	0.14266	0.21382	-2.6646	-3.3604	-3.1958	-2.8083	-3.2896	-3.1458	-3.2042	-3.4208	-2.8625	-3.1396	-3.3063	-3.0292	-3.2792	-3.0396	-3.0604	-3.4188	322.462	206.783	297.002	129.359	351.708	181.058	361.093	353.812	68.248	369.716	80.927	170.407	157.159	120.753	319.542	410.884	0.00028416	0.00046846	8e-05	1208.1	4.8997e-06	3.787e-06	1276.4	251.55	1.9012e-06	5.6753e-06	314.98	86.561	68.906	20.005	1.3986e-06	28	0.00016884	0.00019225	4.7913e-05	1031.4	1.818e-06	2.117e-06	1207.1	239.82	1.9053e-06	2.1062e-06	293.86	82.909	65.652	19.634	1.879e-06	26.772	226.247	154.055	350.027	74.769	187.608	112.767	75.000	82.186	176.566	219.258	81.657	88.771	88.665	95.298	112.914	94.764	-8191	255	
709.358	1	1	0	0	0.1722	0.21402	0.12647	0.31381	0.078903	0.11035	0.12576	0.37022	0.32507	0.38696	0.05224	0.21337	0.10199	0.32284	0.12277	0.26293	-2.4125	-3.0729	-3.2917	-3.0854	-3.25	-3.1271	-3.2167	-3.65	-2.9271	-3.3333	-3.5125	-2.8979	-3.3	-3.2938	-2.9062	-3.5208	331.737	93.796	130.618	402.978	168.229	395.099	365.654	382.430	115.715	221.569	407.263	105.833	411.145	343.383	111.424	116.659	0.00027726	0.00023457	6.1109e-05	1204.3	4.4567e-06	3.9384e-08	1278.6	252.65	5.1763e-06	4.4955e-06	315.07	87.528	68.675	20.081	1.5885e-06	28.066	0.00018376	0.00019012	4.6448e-05	1031.9	1.9826e-06	2.0696e-06	1209.2	240.64	2.0453e-06	2.0567e-06	294.4	83.03	66.045	19.618	1.8556e-06	26.803	241.701	345.856	161.691	75.133	134.980	221.448	74.970	82.520	246.125	75.037	81.347	88.635	88.509	95.400	228.387	95.286	-8191	255	
709.430	1	1	0	0	0.18048	0.21637	0.18814	0.2072	0.079815	0.25967	0.22916	0.050846	0.069591	0.17854	0.23378	0.10301	0.08007	0.17055	0.21936	0.09999	-2.4708	-3.2687	-3.2896	-2.9667	-3.3729	-3.2104	-3.1958	-3.6375	-3.0062	-3.0938	-3.5021	-2.9604	-3.3563	-3.2333	-2.9562	-3.5312	293.979	338.607	179.346	222.750	342.535	371.554	369.117	399.108	401.476	145.094	361.899	342.962	284.133	274.627	256.339	88.857	0.00026176	0.00029427	6.4234e-05	1215.3	3.4345e-06	4.8287e-06	1276.1	253.44	2.1441e-06	4.0418e-06	313.17	87.219	68.956	19.977	1.8307e-06	28.198	0.0001942	0.00018416	4.5509e-05	1036.2	2.1023e-06	1.9629e-06	1210.1	241.81	2.1328e-06	1.9615e-06	294.1	83.247	66.447	19.495	1.8117e-06	26.987	244.017	165.609	218.347	74.791	267.815	374.866	75.008	82.000	134.080	136.370	81.715	88.875	88.943	95.305	148.401	95.071	-8191	255	
709.526	1	1	0	0	0.063829	0.027133	0.19691	0.27441	0.3122	0.19548	0.29718	0.40672	0.11291	0.20941	0.030613	0.17078	0.12384	0.14094	0.068053	0.19395	-2.6083	-3.0979	-3.3625	-2.9854	-3.2042	-3.2458	-3.0021	-3.5333	-3.1542	-3.1104	-3.5917	-2.8458	-3.1354	-3.2458	-2.9958	-3.2729	417.665	298.788	134.095	312.795	276.946	399.518	315.985	125.619	375.226	285.408	177.473	342.582	356.204	390.109	279.720	329.633	0.00029074	0.00023142	8.2093e-05	1220.2	4.4091e-06	1.9914e-06	1286	254.36	3.0307e-06	2.5078e-06	315.47	88.637	69.487	19.976	2.9804e-06	28.154	0.0001963	0.00017516	4.4698e-05	1044	2.1196e-06	1.8588e-06	1213.9	242.51	2.0757e-06	1.8538e-06	294	83.848	66.468	19.459	1.7485e-06	27.198	234.978	115.995	405.805	74.452	161.359	393.863	74.952	82.395	318.365	262.247	81.449	89.089	88.740	95.782	230.548	94.700	-8191	255	
709.645	1	1	0	0	0.23042	0.15419	0.17006	0.16177	0.19236	0.26141	0.27132	0.019919	0.27637	0.097877	0.21462	0.21375	0.16784	0.063016	0.15666	0.19179	-2.8688	-2.9188	-3.4437	-2.9146	-3.1021	-3.3229	-3.0062	-3.4125	-2.8354	-3.0917	-3.3125	-3.1021	-3.2417	-3.3688	-2.9833	-3.3833	168.297	152.137	332.335	218.666	193.048	277.332	334.510	172.802	137.321	393.579	127.178	405.353	116.752	224.616	348.672	74.268	0.00029919	0.00028309	8.2872e-05	1230.7	1.1203e-06	2.1926e-06	1285.2	254.26	5.9365e-06	2.3237e-06	316.17	87.767	69.225	20.148	2.5681e-06	28.376	0.00018677	0.00016541	4.3226e-05	1050.8	2.0097e-06	1.7617e-06	1214	243.91	1.9686e-06	1.7915e-06	294.98	83.996	66.179	19.429	1.7831e-06	27.315	250.447	117.888	135.155	74.651	289.585	137.561	75.007	82.311	264.692	167.823	81.755	88.745	88.696	95.544	268.294	94.462	-8191	255	
709.741	1	1	0	0	0.15706	0.052057	0.17249	0.13189	0.14511	0.21971	0.11896	0.27291	0.23868	0.29828	0.049381	0.15101	0.29886	0.15511	0.051143	0.19765	-2.8604	-2.8563	-3.1292	-2.9688	-3.2083	-3.4458	-3.1021	-3.3021	-3.1125	-2.9146	-3.5021	-3.1958	-3.1271	-3.2375	-2.9979	-3.2229	172.049	71.193	248.479	295.918	343.576	300.797	422.798	423.605	413.311	149.431	222.264	305.380	247.951	341.991	281.396	330.450	0.0002578	0.00030368	0.00010616	1221.6	3.3675e-06	3.8597e-06	1286.6	255.11	5.0116e-06	3.0845e-06	317.06	88.228	69.318	20.113	4.0406e-06	28.378	0.00017536	0.0001599	4.5256e-05	1054.1	1.8956e-06	1.7098e-06	1216.1	244.43	1.8525e-06	1.7509e-06	295.93	84.308	66.076	19.406	1.8934e-06	27.366	237.602	189.244	128.535	75.189	76.733	239.131	75.279	82.005	353.010	176.158	81.392	88.824	89.246	95.412	200.196	94.888	-8191	255	
709.837	1	1	0	0	0.027704	0.29054	0.071943	0.15566	0.23113	0.15527	0.17705	0.21797	0.085547	0.089449	0.15402	0.15622	0.17756	0.1718	0.22122	0.42708	-2.8271	-2.9104	-3.1979	-3.1896	-3.1063	-3.3812	-3.175	-3.2687	-3.3104	-2.9667	-3.2062	-3.0583	-3.0375	-3.5167	-2.9875	-3.1146	260.353	228.828	143.292	149.867	177.831	368.452	417.063	117.982	172.966	392.833	194.642	422.666	350.114	278.639	331.020	339.783	0.00029393	0.00042674	0.00013874	1231	2.8038e-06	4.8522e-06	1289.4	254.61	3.2353e-06	2.4205e-06	316.72	88.236	69.638	19.957	4.3165e-06	28.416	0.00016704	0.00015846	4.7897e-05	1054.1	1.8298e-06	1.6813e-06	1217.7	244.05	1.7793e-06	1.7457e-06	296.93	84.107	66.097	19.368	2.0079e-06	27.261	223.905	129.120	167.120	74.909	210.235	182.834	75.073	82.267	311.931	145.546	81.723	88.622	89.003	95.417	214.223	94.986	-8191	255	
709.933	1	1	0	0	0.17167	0.12662	0.11766	0.17554	0.23119	0.10152	0.23812	0.23133	0.032076	0.088055	0.23531	0.27241	0.017521	0.088865	0.024521	0.16198	-2.8896	-2.8083	-3.2896	-3.0979	-2.9375	-3.3063	-3.1813	-3.2938	-3.4979	-2.8312	-3.4396	-3.2479	-2.9271	-3.3521	-3.0042	-3.1979	84.940	236.172	253.614	104.006	376.470	235.580	124.413	308.051	372.497	333.660	334.888	65.718	323.850	339.892	169.563	336.609	0.00031771	8.0068e-06	0.00014118	1220.5	6.9193e-07	8.719e-07	1286.5	256.17	1.6505e-06	5.5319e-06	318.36	87.623	69.075	20.225	3.0402e-06	28.287	0.00016437	0.00016131	5.1035e-05	1045.2	1.8213e-06	1.7476e-06	1220.3	243.92	1.7763e-06	1.8061e-06	298.36	83.846	65.852	19.51	2.1325e-06	27.17	233.032	375.518	147.907	74.711	128.374	113.627	75.152	82.377	144.560	219.398	81.551	88.780	89.432	95.588	287.746	94.574	-8191	255	
710.029	1	1	0	0	0.074291	0.18611	0.30953	0.24878	0.10527	0.2845	0.18983	0.18146	0.11016	0.33824	0.0043049	0.31593	0.093022	0.068724	0.20301	0.099729	-2.8708	-2.9854	-3.2542	-3.1479	-2.8833	-3.3688	-3.3729	-3.2625	-3.3479	-2.9313	-3.2687	-3.3646	-2.8604	-3.5542	-2.9646	-3.0458	260.735	371.835	186.401	108.539	404.692	225.981	323.774	67.389	249.957	245.132	339.437	389.011	128.648	227.797	118.966	398.642	0.00028316	0.0001984	0.0001204	1235.6	9.8428e-07	4.9817e-06	1288	254.81	4.9262e-07	5.9423e-06	319.26	88.505	69.534	20.087	2.5103e-06	28.404	0.00016308	0.00017055	5.4098e-05	1048.2	1.7965e-06	1.8913e-06	1220.1	243.44	1.751e-06	1.9522e-06	298.59	83.646	65.779	19.619	2.0619e-06	27.119	247.776	77.078	187.014	75.103	232.651	165.165	75.219	82.175	96.543	234.330	81.625	88.927	88.954	95.426	314.757	94.896	-8191	255	
710.125	1	1	0	0	0.12061	0.17564	0.10311	0.084583	0.19317	0.25281	0.26771	0.063058	0.24488	0.29749	0.18309	0.039562	0.19713	0.16586	0.15984	0.15938	-2.9562	-2.9542	-3.2125	-3.3063	-3.0708	-3.2438	-3.2812	-3.075	-3.5292	-3.0917	-3.2812	-3.1417	-2.8896	-3.3146	-3.0625	-2.9354	214.138	405.808	388.436	201.581	101.488	124.106	366.114	126.010	388.246	183.040	272.484	94.594	117.229	81.877	329.763	386.766	0.00021858	0.00027076	5.0111e-05	1208.2	3.173e-06	6.3512e-07	1289	255.36	4.5194e-06	2.7769e-06	318.05	88.349	69.24	20.248	3.5237e-06	28.274	0.00016026	0.00018475	5.2264e-05	1037.8	1.7909e-06	2.0067e-06	1218.6	243.38	1.7427e-06	2.064e-06	297.77	83.595	65.877	19.701	1.9658e-06	27.023	232.909	144.210	280.853	74.896	204.324	171.836	75.062	82.364	208.268	175.173	81.564	88.892	88.940	95.664	180.802	95.089	-8191	255	
710.222	1	1	0	0	0.12684	0.15063	0.32266	0.2255	0.061102	0.10902	0.071653	0.33597	0.16242	0.16926	0.278	0.14758	0.038272	0.23373	0.20008	0.19056	-3.0729	-2.9667	-3.0646	-3.2979	-2.7979	-3.1937	-3.2729	-2.9229	-3.4583	-3.0333	-3.2146	-3.3792	-2.7729	-3.0979	-3.1771	-2.8333	147.534	151.054	152.544	355.683	421.859	138.479	142.346	353.998	283.740	420.538	147.776	349.096	263.934	324.647	260.132	396.895	0.00035684	0.0005049	1.8481e-05	1222.3	4.8374e-06	1.7717e-06	1286.2	254.88	5.4343e-06	4.4013e-06	316.86	88.001	68.843	20.017	3.3957e-06	28.228	0.00016363	0.00019095	5.0102e-05	1039.2	1.8373e-06	2.0869e-06	1215.4	242.84	1.8286e-06	2.0928e-06	296.4	83.314	65.895	19.666	1.847e-06	26.929	221.819	115.898	72.689	74.871	227.625	160.666	74.990	82.300	252.785	295.949	81.612	89.187	88.890	95.693	293.464	94.699	-8191	255	
710.342	1	1	0	0	0.19214	0.17916	0.10521	0.18937	0.098316	0.069484	0.34163	0.21057	0.074757	0.26585	0.048027	0.18068	0.22534	0.16128	0.03916	0.021089	-3.0646	-2.9604	-3.1667	-3.4521	-2.9688	-3.2875	-3.5229	-2.8812	-3.3208	-3.1562	-2.9	-3.4583	-2.875	-3.2333	-3.3292	-2.9667	196.410	395.197	97.784	91.913	211.818	316.968	325.770	348.176	278.719	102.851	413.792	85.692	108.004	106.427	387.961	408.134	0.00032623	0.00063285	4.6377e-05	1223.7	2.2444e-06	4.2887e-06	1287.9	254.51	7.0066e-06	4.6941e-06	316.38	87.69	69.487	20.116	3.218e-06	28.322	0.00017581	0.00018863	4.7331e-05	1034.3	1.9554e-06	2.0661e-06	1214.6	242.82	1.9451e-06	2.0436e-06	295.71	83.084	66.295	19.663	1.7935e-06	26.868	244.123	139.808	122.955	74.773	284.448	187.255	75.010	82.194	247.988	233.739	81.674	89.010	88.792	95.492	287.663	94.582	-8191	255	
710.438	1	1	0	0	0.29753	0.27456	0.2332	0.16397	0.17563	0.16066	0.29602	0.2561	0.17895	0.19373	0.016068	0.05765	0.11816	0.16988	0.038865	0.22581	-2.8979	-3.2313	-2.9917	-3.4437	-2.975	-3.2125	-3.3563	-3.0938	-3.3146	-3.2958	-3.1521	-3.3979	-3.1458	-3.1479	-3.3271	-2.8958	241.235	196.712	343.967	233.171	274.366	200.546	412.566	398.674	94.875	280.062	397.763	241.411	71.823	228.223	372.304	123.000	0.00026717	0.00012984	5.9949e-05	1218.5	4.9906e-06	2.1574e-06	1281.4	254.7	3.2553e-06	3.3122e-06	315.59	87.503	69.394	20.124	5.0936e-06	28.39	0.00018391	0.00017979	4.5637e-05	1032.3	2.0309e-06	1.9662e-06	1209.3	242.56	2.0497e-06	1.9103e-06	294.92	83.246	66.568	19.568	1.7269e-06	26.973	248.680	99.090	155.495	74.919	160.426	211.952	75.259	82.253	198.369	376.097	81.911	88.995	88.969	95.336	227.596	94.605	-8191	255	
710.535	1	1	0	0	0.16477	0.10909	0.11289	0.022572	0.15882	0.08093	0.11976	0.1703	0.063041	0.22046	0.11806	0.18929	0.061861	0.059534	0.11567	0.13495	-2.8667	-3.1021	-2.8563	-3.4104	-3.1667	-3.2646	-3.5438	-3.05	-3.3688	-3.1437	-2.9792	-3.4833	-3.125	-3.1854	-3.4833	-2.9188	336.458	296.137	415.419	179.107	424.030	413.698	193.086	374.361	388.450	151.448	287.021	358.760	72.249	169.966	185.009	327.753	0.00021526	0.00034313	4.6537e-05	1219.7	6.0162e-07	5.2874e-06	1279.7	255.35	4.0163e-06	2.798e-06	316.42	88.801	69.058	20.082	3.4661e-06	28.396	0.00018825	0.00016888	4.4132e-05	1034.7	2.0669e-06	1.8575e-06	1210.2	242.96	2.0691e-06	1.8056e-06	294.62	83.783	66.289	19.473	1.6975e-06	27.071	240.792	222.280	189.380	75.139	266.742	275.648	75.209	82.229	253.611	320.254	81.802	88.876	88.931	95.305	231.604	95.052	-8191	255	
710.653	1	1	0	0	0.1766	0.039942	0.24654	0.21352	0.2204	0.28875	0.13671	0.22284	0.056518	0.22624	0.10921	0.089385	0.063141	0.12896	0.17944	0.20999	-2.6958	-3.2188	-2.8896	-3.3958	-3.1167	-3.1104	-3.475	-3.1104	-3.1854	-3.2562	-2.9625	-3.375	-3.2354	-2.9271	-3.4417	-2.8771	246.050	259.158	260.995	297.716	212.950	326.028	353.147	266.436	130.677	82.980	196.934	202.817	391.765	152.658	360.673	120.825	0.00025496	0.00028861	5.0692e-05	1217	4.1349e-06	1.0597e-06	1286.3	254.44	3.2184e-06	5.7848e-07	317.44	87.843	69.628	20.108	4.4895e-06	28.254	0.0001862	0.00016071	4.3779e-05	1041.1	1.9902e-06	1.8004e-06	1209.3	243.36	1.9985e-06	1.7428e-06	295.31	83.876	66.298	19.474	1.7074e-06	27.25	242.185	231.412	165.081	74.604	128.606	180.035	75.330	82.324	312.375	417.390	81.849	88.843	88.778	95.268	256.669	94.889	-8191	255	
710.725	1	1	0	0	0.14668	0.066022	0.22678	0.043814	0.13256	0.10977	0.28204	0.019983	0.125	0.12668	0.04187	0.086518	0.191	0.15663	0.19113	0.29005	-2.7583	-3.2771	-2.9667	-3.4792	-3.2417	-2.8521	-3.4292	-3.05	-3.1792	-3.2625	-2.9958	-3.2438	-3.3312	-3.0146	-3.2458	-3.1229	367.182	67.917	379.017	324.957	126.943	404.735	307.765	322.058	341.395	320.501	365.336	70.518	357.524	348.972	194.638	76.911	0.00035649	8.9375e-05	5.0289e-05	1219.8	3.942e-06	5.5513e-06	1286.5	255.22	5.1636e-06	6.4863e-06	316.78	88.116	69.215	20.071	2.3047e-06	28.326	0.00018173	0.00015938	4.5067e-05	1047.2	1.9004e-06	1.7757e-06	1210.4	243.93	1.9215e-06	1.7168e-06	295.1	84.241	66.006	19.446	1.8164e-06	27.299	244.598	390.402	197.004	75.122	323.618	129.793	74.819	82.272	292.819	177.286	81.616	88.883	88.929	95.429	292.864	95.106	-8191	255	
710.821	1	1	0	0	0.19488	0.078155	0.10262	0.29557	0.15506	0.25043	0.29078	0.43478	0.065564	0.309	0.37778	0.073226	0.1532	0.13261	0.16799	0.079455	-2.9083	-3.4021	-3.0458	-3.1667	-3.1813	-2.8708	-3.5604	-3.0958	-3.1583	-3.6688	-3.1729	-3.3417	-3.3625	-2.8917	-3.2458	-3.0312	116.374	235.815	240.617	396.045	76.290	348.889	365.718	418.474	238.720	283.945	76.683	201.337	127.333	316.346	150.910	108.620	0.00024714	0.0001632	3.8844e-05	1224.3	1.4877e-06	1.1732e-06	1287.5	255.07	2.7661e-06	1.2692e-06	316.93	87.895	69.367	20.092	5.5653e-06	28.149	0.00017216	0.00015658	4.763e-05	1050.3	1.8223e-06	1.7692e-06	1214.5	244.29	1.8477e-06	1.6873e-06	296.57	84.009	65.829	19.424	1.9449e-06	27.216	246.348	210.688	419.824	74.886	161.633	402.253	75.151	82.337	231.590	296.333	81.544	88.800	89.147	95.544	276.990	94.998	-8191	255	
#DATA ENDS
