BOXY.EXE: ISS Imagent and Oximeter Data Acquisition Program Version 0.80
Ascii Record File

#ACQ INFORMATION
2  Detector Channels 
16  External MUX Channels 
1  Auxiliary Channels 
5000  Waveform (CCF) Frequency (Hz)
1  Waveforms Skipped 
30  Waveforms Averaged 
1  Cycles Averaged 
16  Acquisitions per Waveform 
10.0806  Updata Rate (Hz) 

#FILE INFORMATION
TRUE -- External MUX Channel results are PARSED.
FALSE -- AC DC and Phase are NOT grouped.
TRUE -- Companion Program Settings File CREATED.
FALSE -- AC data not excluded
FALSE -- DC data not excluded
FALSE -- Phase data not excluded
FALSE -- Auxillary Chn. data not excluded
Tab delimiters

#CALIBRATION STATE
TRUE -- Waveform Calibration Values APPLIED.


#AUX CALIBRATION VALUES
Val Type	aux-1	

Term	1.0000e+00	
Factor	0.0000e+00	


#WF CALIBRATION VALUES
A = Detector Channel
Val Type	A-AC1	A-AC2	A-AC3	A-AC4	A-AC5	A-AC6	A-AC7	A-AC8	A-AC9	A-AC10	A-AC11	A-AC12	A-AC13	A-AC14	A-AC15	A-AC16	A-DC1	A-DC2	A-DC3	A-DC4	A-DC5	A-DC6	A-DC7	A-DC8	A-DC9	A-DC10	A-DC11	A-DC12	A-DC13	A-DC14	A-DC15	A-DC16	A-Ph1	A-Ph2	A-Ph3	A-Ph4	A-Ph5	A-Ph6	A-Ph7	A-Ph8	A-Ph9	A-Ph10	A-Ph11	A-Ph12	A-Ph13	A-Ph14	A-Ph15	A-Ph16	

Term	0.00000e+00	0.00000e+00	0.00000e+00	0.00000e+00	0.00000e+00	0.00000e+00	0.00000e+00	0.00000e+00	0.00000e+00	0.00000e+00	0.00000e+00	0.00000e+00	0.00000e+00	0.00000e+00	0.00000e+00	0.00000e+00	0.00000e+00	0.00000e+00	0.00000e+00	0.00000e+00	0.00000e+00	0.00000e+00	0.00000e+00	0.00000e+00	0.00000e+00	0.00000e+00	0.00000e+00	0.00000e+00	0.00000e+00	0.00000e+00	0.00000e+00	0.00000e+00	0.00000e+00	0.00000e+00	0.00000e+00	0.00000e+00	0.00000e+00	0.00000e+00	0.00000e+00	0.00000e+00	0.00000e+00	0.00000e+00	0.00000e+00	0.00000e+00	0.00000e+00	0.00000e+00	0.00000e+00	0.00000e+00	
Factor	1.00000e+00	1.00000e+00	1.00000e+00	1.00000e+00	1.00000e+00	1.00000e+00	1.00000e+00	1.00000e+00	1.00000e+00	1.00000e+00	1.00000e+00	1.00000e+00	1.00000e+00	1.00000e+00	1.00000e+00	1.00000e+00	1.00000e+00	1.00000e+00	1.00000e+00	1.00000e+00	1.00000e+00	1.00000e+00	1.00000e+00	1.00000e+00	1.00000e+00	1.00000e+00	1.00000e+00	1.00000e+00	1.00000e+00	1.00000e+00	1.00000e+00	1.00000e+00	X	X	X	X	X	X	X	X	X	X	X	X	X	X	X	X	

B = Detector Channel
Val Type	B-AC1	B-AC2	B-AC3	B-AC4	B-AC5	B-AC6	B-AC7	B-AC8	B-AC9	B-AC10	B-AC11	B-AC12	B-AC13	B-AC14	B-AC15	B-AC16	B-DC1	B-DC2	B-DC3	B-DC4	B-DC5	B-DC6	B-DC7	B-DC8	B-DC9	B-DC10	B-DC11	B-DC12	B-DC13	B-DC14	B-DC15	B-DC16	B-Ph1	B-Ph2	B-Ph3	B-Ph4	B-Ph5	B-Ph6	B-Ph7	B-Ph8	B-Ph9	B-Ph10	B-Ph11	B-Ph12	B-Ph13	B-Ph14	B-Ph15	B-Ph16	

Term	0.00000e+00	0.00000e+00	0.00000e+00	0.00000e+00	0.00000e+00	0.00000e+00	0.00000e+00	0.00000e+00	0.00000e+00	0.00000e+00	0.00000e+00	0.00000e+00	0.00000e+00	0.00000e+00	0.00000e+00	0.00000e+00	0.00000e+00	0.00000e+00	0.00000e+00	0.00000e+00	0.00000e+00	0.00000e+00	0.00000e+00	0.00000e+00	0.00000e+00	0.00000e+00	0.00000e+00	0.00000e+00	0.00000e+00	0.00000e+00	0.00000e+00	0.00000e+00	-1.74148e+02	-1.27087e+02	-1.30125e+02	-1.81316e+02	-8.55190e+01	-6.66878e+01	-1.57075e+02	-1.62015e+02	-8.14386e+01	-6.69092e+01	-1.71893e+02	-1.70622e+02	-1.79843e+02	-1.76980e+02	-7.36244e+01	-1.49926e+02	
Factor	3.06324e-05	1.62235e-04	4.72445e-05	1.48920e-01	1.49831e-06	1.76165e-06	1.72106e-01	6.28372e-02	1.68338e-06	1.86821e-06	8.65051e-02	2.99025e-02	3.08083e-02	9.61349e-03	1.55958e-06	1.36815e-02	1.62461e-05	2.79970e-05	7.84780e-06	7.48325e-02	2.67660e-07	3.17064e-07	8.15900e-02	3.16269e-02	2.77634e-07	3.15248e-07	4.25007e-02	1.47081e-02	1.57617e-02	4.89367e-03	2.89544e-07	6.76532e-03	X	X	X	X	X	X	X	X	X	X	X	X	X	X	X	X	



#DISTANCE SETTINGS
A = Detector Channel
A-1	A-2	A-3	A-4	A-5	A-6	A-7	A-8	A-9	A-10	A-11	A-12	A-13	A-14	A-15	A-16	

2.5000e+00	3.0000e+00	2.5000e+00	3.0000e+00	2.0000e+00	3.0000e+00	1.5000e+00	3.0000e+00	3.0000e+00	3.0000e+00	3.0000e+00	3.0000e+00	3.0000e+00	3.0000e+00	1.5000e+00	3.0000e+00	

B = Detector Channel
B-1	B-2	B-3	B-4	B-5	B-6	B-7	B-8	B-9	B-10	B-11	B-12	B-13	B-14	B-15	B-16	

1.0000e+01	1.0000e+01	1.0000e+01	1.4400e+00	1.0000e+01	1.0000e+01	1.5100e+00	1.9400e+00	1.0000e+01	1.0000e+01	1.9900e+00	2.4900e+00	2.4100e+00	2.9000e+00	1.0000e+01	2.9800e+00	




#DATA BEGINS
time	group	step	mark	flag	A-AC1	A-AC2	A-AC3	A-AC4	A-AC5	A-AC6	A-AC7	A-AC8	A-AC9	A-AC10	A-AC11	A-AC12	A-AC13	A-AC14	A-AC15	A-AC16	A-DC1	A-DC2	A-DC3	A-DC4	A-DC5	A-DC6	A-DC7	A-DC8	A-DC9	A-DC10	A-DC11	A-DC12	A-DC13	A-DC14	A-DC15	A-DC16	A-Ph1	A-Ph2	A-Ph3	A-Ph4	A-Ph5	A-Ph6	A-Ph7	A-Ph8	A-Ph9	A-Ph10	A-Ph11	A-Ph12	A-Ph13	A-Ph14	A-Ph15	A-Ph16	B-AC1	B-AC2	B-AC3	B-AC4	B-AC5	B-AC6	B-AC7	B-AC8	B-AC9	B-AC10	B-AC11	B-AC12	B-AC13	B-AC14	B-AC15	B-AC16	B-DC1	B-DC2	B-DC3	B-DC4	B-DC5	B-DC6	B-DC7	B-DC8	B-DC9	B-DC10	B-DC11	B-DC12	B-DC13	B-DC14	B-DC15	B-DC16	B-Ph1	B-Ph2	B-Ph3	B-Ph4	B-Ph5	B-Ph6	B-Ph7	B-Ph8	B-Ph9	B-Ph10	B-Ph11	B-Ph12	B-Ph13	B-Ph14	B-Ph15	B-Ph16	aux-1	digaux	

27036.602	1	1	0	256	0.13276	0.31446	0.038003	0.18831	0.19526	0.13973	0.35352	0.25103	0.17691	0.38284	0.42338	0.31136	0.28365	0.075229	0.3554	0.32218	-2.0667	-2.1688	-2.6417	-2.7479	-2.4667	-2.6958	-2.5042	-2.5	-2.6792	-2.1667	-2.5854	-2.4208	-2.3563	-2.7542	-2.1542	-2.4917	129.847	-2.834	-68.889	167.058	19.030	-129.338	115.536	28.617	-120.184	-37.234	114.977	-161.230	-31.047	130.613	-64.578	125.797	0.0007752	0.00057826	0.00014946	1357.4	3.7271e-06	5.3448e-06	1352.7	370.04	5.3982e-06	6.0988e-06	422.32	142.63	123.76	42.25	4.085e-06	52.59	0.00056185	0.00046533	0.00012177	1378.2	5.0437e-06	4.9204e-06	1375.5	376.86	5.0581e-06	4.7491e-06	431.22	145.72	126.24	43.533	5.0079e-06	54.086	154.780	-78.765	-77.836	-158.667	-65.776	-23.162	-159.159	-154.222	-56.892	-13.513	-154.619	-150.911	-150.484	-145.286	-36.428	-146.032	-8191	255	
27036.697	1	1	0	0	0.083804	0.11387	0.38573	0.053793	0.16514	0.23137	0.21243	0.27841	0.15115	0.24464	0.042347	0.14889	0.19187	0.19181	0.097917	0.023288	-2.0875	-2.2792	-2.45	-2.5521	-2.2542	-2.6813	-2.5021	-2.5021	-2.6208	-2.25	-2.6125	-2.6312	-2.2854	-2.8354	-2.3417	-2.4979	-109.250	-21.887	-86.781	128.685	-52.000	-8.900	146.856	136.214	88.899	160.037	41.673	119.748	-146.371	106.682	82.412	185.947	0.00075908	0.00041828	0.00014759	1351.7	5.3395e-06	5.481e-06	1348.9	369.29	5.8008e-06	5.6826e-06	420.64	142.77	122.92	42.145	2.4708e-06	52.289	0.00053825	0.00044095	0.00011548	1370.8	5.0398e-06	4.7811e-06	1367.9	375.52	4.9251e-06	4.8213e-06	429.93	145.61	125.74	43.34	4.9048e-06	53.879	154.775	-80.353	-82.506	-158.489	-48.964	-21.410	-159.000	-154.277	-53.594	-35.092	-154.838	-150.868	-150.349	-144.924	-40.431	-146.160	-8191	255	
27036.795	1	1	0	0	0.13165	0.19464	0.25996	0.36202	0.10377	0.23517	0.40983	0.20689	0.071105	0.2254	0.24702	0.087202	0.091646	0.15398	0.18624	0.081429	-2.2958	-2.2292	-2.6917	-2.8417	-2.3354	-2.7208	-2.475	-2.4792	-2.8167	-2.3438	-2.55	-2.5958	-2.1708	-2.8646	-2.3542	-2.5229	112.413	-49.023	-157.449	-171.698	112.711	-15.633	145.894	-136.714	-77.855	-96.416	178.128	-150.255	175.758	182.744	-128.662	74.454	0.00074599	0.00054273	0.00012476	1346	4.2058e-06	5.8102e-06	1341.6	366.29	5.6457e-06	5.803e-06	420.45	141.88	122.82	42.28	4.1198e-06	52.135	0.00054225	0.00044959	0.00011927	1366.2	4.9517e-06	4.6787e-06	1364.6	374.06	4.9552e-06	4.8561e-06	428.97	144.94	125.38	43.292	5.1098e-06	53.81	154.711	-80.937	-90.267	-158.618	-68.306	-18.370	-158.926	-154.271	-61.191	-23.924	-154.778	-151.034	-150.476	-144.967	-37.474	-146.116	-8191	255	
27036.889	1	1	0	0	0.071716	0.20696	0.19232	0.39543	0.085649	0.14011	0.084283	0.086101	0.17238	0.075572	0.25621	0.30583	0.27801	0.038678	0.090917	0.29301	-2.2417	-2.1354	-2.5604	-2.8688	-1.9979	-2.675	-2.5625	-2.3667	-2.8542	-2.4208	-2.5625	-2.6875	-2.1104	-2.6979	-2.3625	-2.3729	20.502	110.691	18.870	183.280	-139.383	-115.162	69.671	37.046	151.541	53.482	-80.281	122.280	179.235	-103.061	71.115	130.907	0.00073765	0.0005387	0.00012197	1343	4.0424e-06	5.6798e-06	1340.3	366.97	5.03e-06	5.9107e-06	419.7	141.83	122.86	42.197	5.0147e-06	52.267	0.00053626	0.00043442	0.00011512	1361.5	4.8987e-06	4.7124e-06	1361.1	373.53	4.8308e-06	4.8108e-06	428.31	144.91	125.45	43.275	4.804e-06	53.833	154.651	-74.952	-90.818	-158.500	-69.660	-20.863	-158.822	-154.432	-58.009	-29.291	-154.626	-150.826	-150.329	-145.096	-47.356	-145.909	-8191	255	
27036.984	1	1	0	0	0.1529	0.25273	0.13577	0.3609	0.15013	0.066588	0.34307	0.19402	0.27685	0.20782	0.20493	0.1247	0.1524	0.24076	0.075475	0.29469	-2.1937	-2.2292	-2.4354	-2.8625	-2.1188	-2.5021	-2.5292	-2.5125	-2.6208	-2.3688	-2.6479	-2.7958	-2.3521	-2.5646	-2.5438	-2.3667	112.504	102.489	-147.357	141.927	-62.782	-158.323	136.157	85.646	-140.555	14.578	163.216	-133.463	-124.100	173.634	15.760	127.307	0.00074632	0.00042861	0.00014504	1342.6	4.4532e-06	4.332e-06	1336.8	366.41	6.0761e-06	4.2077e-06	420.55	141.37	122.71	42.128	3.6918e-06	52.115	0.00054073	0.00044229	0.00012238	1362.7	4.848e-06	4.6179e-06	1359.6	373.13	4.7128e-06	4.7353e-06	428.2	144.64	125.19	43.272	4.8667e-06	53.852	155.417	-76.262	-87.453	-158.621	-65.228	-28.594	-159.001	-154.333	-59.836	-11.923	-154.649	-150.899	-150.338	-145.040	-29.833	-146.050	-8191	255	
27037.082	1	1	0	0	0.12547	0.23842	0.33952	0.50469	0.22201	0.2859	0.28109	0.055683	0.27576	0.20412	0.20251	0.022406	0.29992	0.26877	0.24842	0.29585	-2.2083	-2.3833	-2.45	-2.65	-2.3208	-2.6125	-2.7021	-2.2792	-2.5625	-2.4792	-2.5208	-2.7833	-2.2188	-2.7042	-2.4979	-2.2167	-150.087	132.899	-135.917	-169.564	129.111	45.027	115.983	9.499	132.877	117.018	152.673	-69.744	129.879	164.980	25.336	144.735	0.00077454	0.00045746	0.00015691	1340.7	3.6328e-06	5.5096e-06	1342.1	367.18	6.4051e-06	5.3603e-06	418.78	141.97	122.33	42.238	4.9353e-06	52.531	0.0005569	0.00043296	0.00011665	1362.6	4.9796e-06	4.7428e-06	1362.1	373.2	4.8389e-06	4.6827e-06	427.87	145.07	125.32	43.35	4.7926e-06	53.981	155.881	-78.352	-77.353	-158.647	-43.672	-28.295	-158.891	-154.113	-66.697	-30.023	-154.577	-150.853	-150.250	-145.044	-36.476	-145.907	-8191	255	
27037.201	1	1	0	0	0.081506	0.081385	0.076937	0.15533	0.35407	0.14307	0.25622	0.28367	0.20222	0.20553	0.30948	0.1257	0.49244	0.13634	0.14732	0.13959	-2.2958	-2.2333	-2.2229	-2.7896	-2.15	-2.3396	-2.7438	-2.3625	-2.6312	-2.4083	-2.1396	-2.7771	-2.2292	-2.6542	-2.6167	-2.3146	153.262	-54.908	9.555	146.269	131.131	-70.385	-161.128	145.946	-129.345	-4.932	97.965	-105.640	170.163	145.650	121.490	-84.056	0.00078044	0.00057517	0.00011757	1342.1	4.2223e-06	5.6883e-06	1334.7	366.48	5.546e-06	6.4824e-06	419.56	142.01	122.7	42.233	4.5489e-06	52.175	0.00055325	0.00043844	0.00011898	1360.7	5.0443e-06	4.5783e-06	1359.9	372.94	4.6972e-06	4.7596e-06	428.14	144.79	125.39	43.327	4.7823e-06	53.899	154.995	-91.168	-86.629	-158.694	-67.118	-21.807	-158.893	-154.356	-62.178	-16.893	-154.623	-150.744	-150.259	-144.871	-41.470	-146.095	-8191	255	
27037.297	1	1	0	0	0.24558	0.11809	0.16117	0.09977	0.17086	0.1146	0.23764	0.36229	0.21178	0.32435	0.11196	0.21411	0.45008	0.20339	0.37947	0.23927	-2.0125	-2.3521	-2.3667	-2.8271	-2.3438	-2.3396	-2.7812	-2.3312	-2.6104	-2.6896	-2.2375	-2.8646	-2.4583	-2.5687	-2.5563	-2.1667	118.111	160.115	123.720	134.887	104.285	-35.652	91.450	103.938	24.548	170.768	-21.835	165.141	128.280	159.512	112.131	150.779	0.00075914	0.00054464	0.00012373	1341.3	4.7181e-06	4.5894e-06	1336.1	366.16	6.2333e-06	6.4236e-06	418.55	141.57	122.93	42.159	4.6051e-06	52.305	0.00053467	0.00044206	0.00011585	1360.1	4.9367e-06	4.4092e-06	1358	373.35	4.8262e-06	4.5061e-06	427.48	144.75	125.39	43.31	4.7178e-06	53.898	155.471	-77.886	-72.047	-158.643	-72.153	-28.416	-159.006	-154.189	-55.984	-9.264	-154.316	-150.755	-150.457	-145.112	-49.085	-146.014	-8191	255	
27037.395	1	1	0	0	0.11867	0.084927	0.38357	0.28347	0.057822	0.15	0.25025	0.27902	0.24515	0.076858	0.13082	0.33542	0.20096	0.28701	0.14822	0.24727	-2.2083	-2.4167	-2.3292	-2.7375	-2.4729	-2.4	-2.8375	-2.3083	-2.3458	-2.6437	-2.4562	-2.7167	-2.3312	-2.2292	-2.7313	-2.2958	20.672	19.759	-70.996	143.858	31.763	63.276	54.169	156.155	-125.137	-93.200	-12.661	59.832	129.548	184.993	36.044	35.573	0.0007396	0.0003877	0.00014816	1339.9	4.2105e-06	6.209e-06	1336.2	367.24	6.0902e-06	5.294e-06	418.26	141.04	122.33	42.054	4.5109e-06	52.276	0.00054025	0.00042223	0.00011942	1358.4	4.7772e-06	4.7104e-06	1356.6	372.76	4.7736e-06	4.5737e-06	427.12	144.39	124.97	43.197	4.7865e-06	53.855	156.742	-86.773	-74.618	-158.557	-49.740	-14.085	-158.989	-154.324	-52.698	-24.089	-154.768	-150.883	-150.191	-145.007	-37.283	-145.825	-8191	255	
27037.490	1	1	0	0	0.068732	0.066418	0.25071	0.34497	0.19806	0.20552	0.11147	0.10685	0.22551	0.16325	0.12026	0.48201	0.24658	0.40183	0.22103	0.17528	-1.8792	-2.5896	-2.2271	-2.7438	-2.4729	-2.2271	-2.6833	-2.3667	-2.4125	-2.6792	-2.3187	-2.8187	-2.5583	-2.1354	-2.4562	-2.3729	-77.489	-120.063	41.551	153.984	-58.966	31.300	164.626	116.704	-102.896	139.966	148.086	120.731	-140.988	151.942	25.582	140.395	0.00075665	0.00048179	0.00013717	1333.8	4.009e-06	3.8741e-06	1336	365.8	4.8732e-06	5.6508e-06	419.53	141.67	122.7	42.161	4.1727e-06	52.304	0.00054949	0.00042118	0.00011793	1355.1	4.7878e-06	4.5981e-06	1355.6	372.2	4.9257e-06	4.5895e-06	427.42	144.61	125.31	43.264	4.5989e-06	53.915	153.518	-80.078	-98.233	-158.581	-60.376	-4.974	-158.818	-154.295	-57.327	-28.057	-154.611	-150.902	-150.389	-145.020	-46.827	-145.849	-8191	255	
27037.586	1	1	0	0	0.23894	0.21361	0.1574	0.21901	0.19631	0.1389	0.17063	0.05519	0.21589	0.14171	0.079626	0.095229	0.19263	0.058657	0.15683	0.20963	-1.9625	-2.5229	-2.1813	-2.7292	-2.8146	-2.3396	-2.8187	-2.4813	-2.4083	-2.6896	-2.4062	-2.725	-2.8417	-2.3042	-2.6042	-2.5583	144.830	-155.098	-106.489	-156.441	148.275	-130.702	102.789	121.703	15.473	160.494	-42.058	-8.372	-92.252	171.096	65.350	167.189	0.00072227	0.00047135	0.00016048	1335.9	4.4364e-06	4.8363e-06	1331.9	365.42	5.9391e-06	4.7098e-06	418.63	141.35	122.57	42.091	5.0014e-06	52.311	0.00054645	0.00041663	0.00012413	1356.7	4.8904e-06	4.82e-06	1354.4	372.49	4.7828e-06	4.514e-06	427.15	144.69	125.26	43.261	4.8788e-06	53.851	156.285	-80.644	-74.155	-158.546	-62.999	-10.104	-159.118	-154.286	-62.408	-27.286	-154.505	-150.882	-150.353	-145.133	-35.952	-145.829	-8191	255	
27037.682	1	1	0	0	0.10367	0.14712	0.032989	0.11022	0.11724	0.13374	0.12526	0.15697	0.14218	0.13573	0.075602	0.17279	0.18415	0.2607	0.23094	0.22894	-1.8458	-2.4854	-2.1875	-2.4896	-2.4938	-2.1646	-2.7958	-2.7125	-2.225	-2.8646	-2.4229	-2.6958	-2.6542	-2.4083	-2.5958	-2.7354	-72.523	-15.783	182.926	152.339	-93.466	22.809	71.135	101.167	-133.138	135.291	-155.273	94.757	43.205	-125.990	160.499	179.225	0.0007466	0.00044986	0.00013064	1335.1	4.7236e-06	3.4209e-06	1333.6	365.98	5.7541e-06	5.8077e-06	418.36	141.43	122.41	42	4.5608e-06	52.211	0.00053375	0.00041138	0.00012205	1354.4	4.7543e-06	4.7309e-06	1355.7	372.27	4.795e-06	4.5337e-06	427.41	144.63	125.2	43.222	4.8215e-06	53.803	154.477	-89.297	-71.591	-158.533	-56.565	-19.904	-159.185	-154.300	-53.437	-13.844	-154.616	-150.881	-150.239	-145.072	-49.550	-145.821	-8191	255	
27037.777	1	1	0	0	0.19485	0.085696	0.046538	0.45315	0.15747	0.10436	0.070489	0.17415	0.36933	0.090963	0.066209	0.19014	0.18164	0.29729	0.073457	0.17516	-1.875	-2.7208	-2.2562	-2.5396	-2.6458	-2.375	-2.575	-2.4604	-2.3667	-2.6729	-2.4333	-2.4604	-2.7812	-2.2771	-2.4542	-2.5187	65.530	-75.194	-154.656	162.313	27.482	95.564	131.894	100.632	-68.530	-15.901	-61.912	-54.188	175.684	81.531	-162.503	77.760	0.00078909	0.0005229	0.0001223	1333.8	3.3501e-06	4.4727e-06	1331	366.41	4.462e-06	4.1233e-06	417.68	140.92	122.57	41.999	4.364e-06	52.034	0.0005568	0.00042736	0.00012084	1352.4	4.8051e-06	4.8207e-06	1353.1	372.69	4.8592e-06	4.6913e-06	427.14	144.34	125	43.195	4.7075e-06	53.776	153.203	-91.124	-82.214	-158.480	-64.917	-14.310	-158.803	-154.353	-58.612	-28.130	-154.525	-150.992	-150.460	-144.994	-41.510	-145.784	-8191	255	
27037.873	1	1	0	0	0.10982	0.16458	0.30251	0.16353	0.16544	0.071345	0.18772	0.15618	0.09758	0.28458	0.12167	0.21786	0.095046	0.27903	0.29594	0.22246	-1.6979	-2.4688	-2.3479	-2.4104	-2.5	-2.375	-2.5521	-2.5625	-2.1937	-2.5958	-2.6	-2.4479	-2.7521	-2.3771	-2.3417	-2.8229	60.724	-20.459	-18.330	99.661	4.418	183.864	133.009	142.257	159.509	107.871	168.980	92.907	166.178	122.584	174.274	73.516	0.00075943	0.00044873	0.00011669	1331.5	4.4066e-06	4.416e-06	1328.2	365.74	5.3241e-06	4.0617e-06	419.25	141.62	122.54	42.093	5.8751e-06	52.149	0.00055176	0.00041786	0.00011991	1353.3	5.0415e-06	4.8372e-06	1354.2	372.19	5.0304e-06	4.5915e-06	427.15	144.51	125.01	43.205	5.02e-06	53.773	155.836	-111.434	-100.124	-158.478	-47.177	-18.444	-158.899	-154.325	-62.438	-32.543	-154.694	-150.852	-150.612	-145.115	-28.183	-145.701	-8191	255	
27037.992	1	1	0	0	0.15102	0.27438	0.16332	0.52804	0.14482	0.14439	0.22821	0.39167	0.1321	0.21209	0.010566	0.26419	0.15187	0.11992	0.31188	0.024329	-1.6187	-2.6458	-2.3146	-2.1167	-2.6188	-2.2875	-2.5917	-2.775	-2.1729	-2.5771	-2.6167	-2.4354	-2.8417	-2.3688	-2.3	-2.6896	160.141	108.960	-75.125	154.930	31.939	88.155	70.624	142.899	68.961	-89.543	121.406	183.430	-105.674	69.184	124.501	-163.422	0.00077281	0.00042102	0.00017435	1333	4.8856e-06	4.2763e-06	1330.3	365.59	5.8637e-06	5.2168e-06	419.91	141.06	122.2	42.107	4.2845e-06	52.099	0.00055734	0.00041891	0.00011842	1352.5	4.8798e-06	4.8676e-06	1353.8	372.6	5.0107e-06	4.4706e-06	426.79	144.21	124.87	43.224	4.757e-06	53.741	155.834	-75.536	-84.112	-158.675	-55.567	-34.679	-158.924	-154.215	-58.320	-19.350	-154.753	-150.866	-150.285	-144.961	-28.039	-146.037	-8191	255	
27038.090	1	1	0	0	0.1231	0.15732	0.021926	0.19127	0.1222	0.14521	0.33856	0.14097	0.065389	0.14492	0.095385	0.10682	0.18377	0.081226	0.09763	0.094406	-1.7646	-2.6229	-2.3917	-2.3146	-2.7896	-2.6063	-2.375	-2.7479	-2.2604	-2.5646	-2.5271	-2.1875	-2.6896	-2.5312	-2.2625	-2.6854	-91.264	-31.514	-66.500	143.230	-112.172	73.794	113.999	-59.211	-8.687	53.435	28.897	178.648	118.731	-134.876	27.969	-77.439	0.00073788	0.00046461	0.00013859	1331.5	4.4661e-06	4.9489e-06	1332.4	366.77	5.3845e-06	4.9641e-06	417.76	141.01	121.94	42.09	3.9359e-06	52.271	0.00054814	0.00042806	0.0001204	1351	4.698e-06	4.8491e-06	1351.2	371.81	4.9205e-06	4.8318e-06	426.5	144.1	124.88	43.142	4.836e-06	53.783	156.928	-65.082	-99.733	-158.571	-54.391	-10.608	-158.771	-154.286	-62.492	-20.687	-154.630	-150.820	-150.136	-145.167	-42.866	-145.857	-8191	255	
27038.162	1	1	0	0	0.24812	0.078157	0.11616	0.23411	0.12541	0.19037	0.12448	0.20001	0.1965	0.17964	0.29956	0.17371	0.10562	0.1775	0.19449	0.26369	-1.9	-2.3604	-2.5604	-2.5333	-2.6	-2.5312	-2.5042	-2.7521	-2.3125	-2.4688	-2.6146	-2.325	-2.7271	-2.5667	-2.2958	-2.8688	-5.273	-93.690	74.688	126.741	166.169	94.871	120.573	155.671	-77.441	-25.565	60.965	130.923	50.574	169.893	152.497	-137.722	0.00075624	0.00062148	0.00015226	1334	4.1739e-06	4.2285e-06	1329.5	365.93	5.5706e-06	4.6534e-06	416.59	140.93	122.36	42.145	5.1476e-06	52.04	0.00053768	0.0004115	0.00011899	1353.6	4.9188e-06	4.7177e-06	1351.9	372.26	5.0732e-06	4.6066e-06	426.3	144.22	125.1	43.158	4.8336e-06	53.776	155.425	-88.693	-78.072	-158.568	-50.372	-24.567	-159.070	-154.325	-55.004	-23.523	-154.669	-150.835	-150.287	-145.100	-47.327	-145.876	-8191	255	
27038.281	1	1	0	0	0.16719	0.22815	0.48849	0.23183	0.055424	0.087865	0.016894	0.21386	0.056529	0.031899	0.16952	0.017093	0.18796	0.063896	0.048914	0.18037	-1.8583	-2.4562	-2.5792	-2.4625	-2.6771	-2.5354	-2.4375	-2.8083	-2.2708	-2.4562	-2.7479	-2.3312	-2.5771	-2.4896	-2.4562	-2.8021	81.158	-169.048	172.950	154.506	-125.861	-93.574	138.155	128.734	-37.369	-119.869	119.411	159.952	-162.902	30.354	176.173	-124.002	0.00073261	0.00038705	0.00014219	1331	4.937e-06	5.2456e-06	1329.8	365.37	5.6842e-06	4.8432e-06	418.11	141.17	122.62	41.893	3.775e-06	52.067	0.00054039	0.00042544	0.00011561	1352.4	4.713e-06	4.6793e-06	1352.5	372.08	4.8869e-06	4.4851e-06	426.36	144.32	125.02	43.119	5.0145e-06	53.785	154.881	-82.607	-92.131	-158.588	-65.100	-28.868	-159.005	-154.080	-61.119	-23.388	-154.649	-150.977	-150.101	-145.007	-40.799	-145.867	-8191	255	
27038.379	1	1	0	0	0.15299	0.15814	0.34176	0.23845	0.12397	0.127	0.13045	0.21192	0.21014	0.16198	0.15472	0.28486	0.036557	0.1204	0.17335	0.22404	-1.9896	-2.4667	-2.4417	-2.2292	-2.5083	-2.6479	-2.4958	-2.7458	-2.3771	-2.2896	-2.775	-2.3917	-2.6312	-2.6292	-2.1354	-2.6792	171.739	12.860	-4.338	-148.974	-32.929	135.285	99.824	110.686	-22.804	2.164	59.506	136.743	-21.283	-137.882	-163.234	171.248	0.00076827	0.00041382	0.0001886	1337.6	4.885e-06	4.2542e-06	1331.4	366.31	4.4582e-06	4.649e-06	417.08	140.92	122.29	42.152	4.5604e-06	52.18	0.00054969	0.00042322	0.00012254	1353.1	4.9026e-06	4.6959e-06	1353.6	372.69	4.8829e-06	4.6309e-06	426.71	144.18	124.9	43.244	4.7974e-06	53.768	154.796	-89.765	-84.241	-158.512	-58.522	-27.920	-159.076	-154.267	-65.584	-10.535	-154.388	-150.590	-150.220	-145.035	-41.708	-145.741	-8191	255	
27038.475	1	1	0	0	0.20404	0.15391	0.14424	0.27996	0.27299	0.097751	0.19017	0.25668	0.23624	0.1728	0.18989	0.24121	0.097896	0.034046	0.057739	0.040202	-2.2062	-2.2417	-2.6167	-2.4417	-2.3667	-2.6042	-2.4188	-2.75	-2.4146	-2.2313	-2.7396	-2.3875	-2.4875	-2.7875	-2.2	-2.7062	165.002	136.596	-101.145	171.297	-55.809	61.040	100.800	7.087	-112.009	-11.162	161.355	118.092	-22.658	77.608	4.568	-30.432	0.00075093	0.00053169	0.00013531	1334.1	3.6097e-06	4.9301e-06	1325.6	365.41	4.334e-06	4.8232e-06	420.08	141.06	122.48	42.079	4.1748e-06	52.183	0.00054127	0.00043646	0.00011638	1353.2	4.606e-06	4.5961e-06	1351.7	371.65	4.7967e-06	4.6998e-06	427.06	144.39	125.09	43.231	4.9373e-06	53.755	153.836	-72.615	-82.239	-158.570	-65.221	-23.024	-158.867	-154.147	-54.566	-52.935	-154.386	-150.952	-150.245	-145.062	-29.980	-145.970	-8191	255	
27038.596	1	1	0	0	0.08627	0.13539	0.10455	0.33612	0.29531	0.16361	0.14444	0.31261	0.13381	0.038497	0.18772	0.22751	0.069537	0.44057	0.060816	0.21217	-1.9188	-2.2875	-2.5563	-2.4667	-2.3771	-2.4833	-2.3958	-2.7083	-2.4708	-2.3521	-2.6437	-2.3771	-2.3167	-2.5396	-2.4188	-2.5	180.029	-38.701	15.344	106.723	-9.062	118.546	147.640	-161.542	93.242	-153.612	-161.462	-163.310	-60.427	160.144	-66.567	160.407	0.00074705	0.0004414	0.00014971	1330.9	4.036e-06	4.7578e-06	1331.8	366.09	5.6467e-06	6.2521e-06	418.78	141.48	122.27	42.218	4.6412e-06	52.042	0.00053619	0.00043086	0.00011607	1353	4.9511e-06	4.7553e-06	1352.5	371.99	4.8175e-06	4.9606e-06	426.82	144.58	125.08	43.282	4.8788e-06	53.816	154.120	-73.564	-72.461	-158.541	-60.042	-16.640	-159.008	-154.122	-71.598	-23.199	-154.604	-150.958	-150.343	-145.184	-29.011	-145.909	-8191	255	
27038.691	1	1	0	0	0.22548	0.20893	0.16368	0.2292	0.20928	0.18675	0.18207	0.26784	0.14391	0.018604	0.057832	0.17406	0.4201	0.10294	0.075379	0.26781	-2.2354	-2.1	-2.4667	-2.4646	-2.1937	-2.6437	-2.5333	-2.5938	-2.6958	-2.2833	-2.7667	-2.4083	-2.3354	-2.7438	-2.3271	-2.4729	-82.735	-96.217	76.650	173.595	182.054	185.516	148.649	107.178	23.218	-18.235	-146.532	22.381	-141.992	-154.274	-30.301	147.299	0.0007436	0.00049123	0.00013388	1336.8	5.3563e-06	3.6797e-06	1333.7	366.28	4.5471e-06	5.2569e-06	418.22	141.61	122.83	41.996	4.1627e-06	52.144	0.00054499	0.00041313	0.0001214	1354.3	4.969e-06	4.7064e-06	1354.9	372.89	4.8233e-06	4.9185e-06	427.24	144.68	125.06	43.209	4.9156e-06	53.881	156.797	-74.984	-81.671	-158.562	-55.165	-20.420	-159.022	-154.180	-63.577	-23.699	-154.830	-151.010	-150.531	-145.031	-26.061	-145.909	-8191	255	
27038.762	1	1	0	0	0.32756	0.15178	0.19257	0.60001	0.1539	0.23347	0.22177	0.088345	0.054872	0.07051	0.09383	0.34274	0.24878	0.16254	0.17457	0.056051	-1.9479	-2.2604	-2.3146	-2.5917	-2.175	-2.6063	-2.5833	-2.4333	-2.5771	-2.3479	-2.7917	-2.6833	-2.4188	-2.7313	-2.4208	-2.35	156.031	18.646	8.517	165.630	-139.750	-94.020	133.464	37.332	172.219	4.035	160.916	134.138	145.566	77.690	81.150	176.735	0.00074956	0.00040826	0.0001388	1334.7	4.1584e-06	5.0524e-06	1335.5	366.04	6.142e-06	4.9766e-06	419.69	141.75	122.23	42.068	4.841e-06	52.385	0.00053477	0.00043115	0.00011455	1356.8	4.9456e-06	4.6351e-06	1356.3	372.88	4.8048e-06	4.621e-06	427.66	144.69	125.13	43.254	4.8414e-06	53.879	154.521	-77.377	-83.909	-158.609	-62.101	-12.537	-158.959	-154.187	-56.020	-26.275	-154.673	-150.670	-150.441	-145.129	-45.940	-145.777	-8191	255	
27038.883	1	1	0	0	0.23874	0.14718	0.052413	0.080699	0.077426	0.067551	0.42389	0.076159	0.2829	0.13487	0.2157	0.21088	0.2259	0.17419	0.17875	0.044384	-2.2417	-2.2167	-2.6021	-2.6854	-2.2917	-2.7438	-2.5187	-2.5083	-2.6708	-2.3479	-2.8063	-2.8104	-2.3708	-2.8	-2.4188	-2.2292	19.311	25.219	148.540	76.501	23.745	113.590	147.550	-123.433	-49.354	130.348	-120.921	-35.028	-10.154	181.183	-160.995	59.218	0.00072297	0.00053396	0.00014771	1338.7	4.046e-06	4.5558e-06	1335.3	367.43	6.0582e-06	4.0774e-06	419.96	141.37	123.03	42.153	4.9318e-06	52.443	0.00053795	0.00041756	0.00011405	1357.8	4.9517e-06	4.7566e-06	1358	373.35	4.8707e-06	4.7399e-06	428.07	144.67	125.3	43.389	4.8897e-06	53.951	155.904	-76.696	-88.042	-158.697	-52.357	-36.314	-158.890	-154.325	-56.767	-9.473	-154.683	-150.842	-150.258	-145.054	-47.710	-145.874	-8191	255	
27038.977	1	1	0	0	0.12875	0.22475	0.2631	0.082466	0.11378	0.12186	0.30526	0.049477	0.13364	0.3454	0.34846	0.23643	0.15241	0.28483	0.12352	0.041162	-2.0563	-2.3271	-2.2021	-2.6312	-2.1896	-2.5938	-2.6875	-2.3292	-2.7438	-2.3563	-2.3875	-2.8396	-2.2354	-2.5479	-2.3604	-2.3	-3.337	-97.700	-152.382	100.822	-140.950	184.858	-150.225	113.871	116.189	-27.282	143.002	161.033	-100.379	-170.326	-158.105	79.627	0.00073471	0.00052889	0.00013501	1339.4	3.683e-06	6.0573e-06	1334.9	367.04	5.2964e-06	5.6828e-06	419.9	141.81	122.39	42.271	4.7544e-06	52.119	0.00053017	0.00042363	0.00011572	1358.2	4.8368e-06	4.6998e-06	1358.9	373.1	4.7921e-06	4.6256e-06	428.67	145.05	125.28	43.345	4.8058e-06	53.9	157.069	-83.138	-81.245	-158.524	-55.693	-16.493	-158.892	-154.138	-49.211	-30.640	-154.579	-150.832	-150.423	-145.184	-42.692	-145.958	-8191	255	
27039.074	1	1	0	0	0.28527	0.046324	0.059013	0.27453	0.21134	0.089188	0.24722	0.076174	0.16052	0.11221	0.10991	0.27564	0.30367	0.19367	0.24175	0.27835	-2.1979	-2.2229	-2.45	-2.7354	-2.2792	-2.5687	-2.7771	-2.4479	-2.6292	-2.4396	-2.4771	-2.7313	-2.4313	-2.5271	-2.5042	-2.4104	-39.865	-85.390	-116.498	112.542	9.087	77.589	-154.082	-146.180	-42.648	91.269	-8.300	-166.826	170.449	177.837	-62.981	68.310	0.00079132	0.00051225	0.00010606	1339.4	4.4994e-06	3.6817e-06	1331.6	368.87	6.7626e-06	4.2046e-06	419.05	141.2	123.02	42.065	5.2398e-06	52.315	0.00055789	0.00045163	0.00011788	1357.8	4.9891e-06	4.5155e-06	1355.6	373.48	4.8869e-06	4.7248e-06	427.83	144.57	125.23	43.3	4.9379e-06	53.886	155.554	-84.789	-75.276	-158.532	-60.955	-11.417	-158.877	-154.256	-61.287	-18.670	-154.628	-151.088	-150.329	-144.988	-38.495	-145.877	-8191	255	
27039.170	1	1	0	0	0.058957	0.37451	0.18646	0.3584	0.15318	0.20447	0.32682	0.23619	0.14602	0.22396	0.16097	0.17289	0.18077	0.15164	0.12314	0.25343	-2.0938	-2.4375	-2.1604	-2.8708	-2.2646	-2.6729	-2.8167	-2.2479	-2.4313	-2.3396	-2.3563	-2.6604	-2.3333	-2.5021	-2.6396	-2.1729	0.240	93.399	-74.856	153.045	127.021	-91.612	126.317	183.538	-132.933	-94.389	139.031	181.886	166.162	-112.459	-164.159	74.955	0.00072853	0.0005436	0.00015001	1338.9	5.1294e-06	5.5642e-06	1326.6	367.06	6.8393e-06	5.8555e-06	419.27	140.92	122.35	42.223	4.3478e-06	52.061	0.00053379	0.000449	0.00012133	1355.6	5.0772e-06	4.4415e-06	1350.7	373.44	4.8412e-06	4.7176e-06	427.22	144.41	125.17	43.221	4.804e-06	53.702	155.759	-83.954	-95.157	-158.642	-61.308	-27.913	-158.984	-154.107	-63.431	-19.635	-154.483	-151.117	-150.314	-145.195	-40.908	-146.105	-8191	255	
27039.289	1	1	0	0	0.16756	0.10964	0.074008	0.13499	0.1493	0.055504	0.22169	0.10501	0.29079	0.066126	0.35404	0.12817	0.18607	0.27404	0.24045	0.16411	-2.1021	-2.4	-2.3604	-2.8125	-2.3479	-2.4854	-2.9813	-2.3688	-2.3896	-2.4854	-2.3104	-2.8125	-2.375	-2.3292	-2.6167	-2.2104	-47.580	-43.732	43.174	113.255	-111.317	-7.237	105.766	-106.549	-104.902	0.302	152.625	-152.632	155.207	121.236	97.805	135.595	0.00076768	0.00060484	0.00015336	1335.6	4.9312e-06	5.1839e-06	1330.6	367.45	5.3133e-06	4.0255e-06	418.86	141.93	123.14	42.298	4.579e-06	52.364	0.00054279	0.00042736	0.00011862	1351.6	4.8028e-06	4.8022e-06	1352.3	373.43	4.8881e-06	4.5862e-06	427.59	144.91	125.47	43.317	4.7558e-06	54.021	154.918	-72.619	-85.832	-158.621	-50.072	-18.444	-159.117	-154.035	-62.181	-22.550	-154.857	-150.848	-150.404	-145.070	-53.250	-146.001	-8191	255	
27039.387	1	1	0	0	0.12791	0.13302	0.12012	0.34551	0.17032	0.10309	0.21986	0.43985	0.27691	0.093466	0.21759	0.13923	0.22776	0.17185	0.13602	0.12863	-1.95	-2.3125	-1.9667	-2.6521	-2.3063	-2.1458	-2.8104	-2.3542	-2.2875	-2.6562	-2.3271	-2.5708	-2.3458	-2.3292	-2.5312	-2.2396	80.346	-31.986	73.350	144.238	54.816	144.952	128.537	98.864	119.632	60.635	173.094	8.365	-171.087	-152.703	106.389	169.658	0.00078896	0.00044081	0.000146	1332.5	3.6428e-06	6.3251e-06	1333.4	367.19	6.0454e-06	4.4595e-06	420.37	141.35	123.03	42.101	3.7083e-06	52.64	0.000541	0.00042888	0.0001273	1355	4.7995e-06	4.7527e-06	1356.1	373.73	4.7759e-06	4.8246e-06	428.84	144.79	125.37	43.374	4.9584e-06	54.067	153.538	-79.999	-83.922	-158.698	-38.990	-26.502	-159.024	-154.299	-57.844	-31.139	-154.525	-150.728	-150.387	-145.090	-21.169	-146.121	-8191	255	
27039.457	1	1	0	0	0.071715	0.18736	0.059285	0.28284	0.056242	0.15816	0.25822	0.30384	0.20492	0.14297	0.1277	0.1855	0.27193	0.35999	0.072001	0.17772	-1.9688	-2.4437	-2.2333	-2.8396	-2.4688	-2.3187	-2.8667	-2.3792	-2.4625	-2.6833	-2.1229	-2.5396	-2.525	-2.3125	-2.5875	-2.2542	-96.178	-82.920	11.344	153.117	91.369	-12.199	59.876	71.414	-60.299	137.456	94.173	73.818	125.714	149.955	76.725	74.559	0.00077599	0.00047123	0.00013843	1336.4	4.6971e-06	4.8528e-06	1329.8	367.8	6.1403e-06	4.9184e-06	419.22	141.76	123.28	42.221	6.2855e-06	52.378	0.0005457	0.00043477	0.00012985	1356.5	4.9707e-06	4.9033e-06	1355.5	374.16	4.9471e-06	4.8174e-06	428.98	145	125.68	43.399	4.8667e-06	53.999	154.459	-93.754	-93.229	-158.671	-61.426	-21.889	-159.003	-154.396	-52.386	-17.720	-154.769	-150.910	-150.236	-145.157	-41.042	-145.827	-8191	255	
27039.555	1	1	0	0	0.12532	0.15763	0.20019	0.18723	0.39259	0.04795	0.18833	0.361	0.075373	0.19976	0.18219	0.17559	0.099845	0.06163	0.1837	0.089606	-1.9146	-2.5687	-2.0812	-2.8063	-2.45	-2.3167	-2.7229	-2.4354	-2.2583	-2.4458	-2.3229	-2.5	-2.5771	-2.1208	-2.7458	-2.4167	-101.420	175.722	-163.055	178.817	179.771	-156.220	129.950	149.348	68.306	85.705	-121.101	179.941	54.250	-39.746	-100.420	122.489	0.00074953	0.00044809	0.00015059	1336.9	4.312e-06	4.2806e-06	1332.3	368.86	4.8526e-06	5.8713e-06	419.46	142.05	123.23	42.319	4.3266e-06	52.465	0.00055352	0.00043296	0.00012507	1357.7	4.872e-06	4.8141e-06	1356.4	374.01	4.8881e-06	4.6584e-06	428.9	145.13	125.44	43.404	4.7576e-06	54.048	155.073	-78.540	-72.557	-158.710	-58.447	-14.233	-158.966	-154.386	-55.099	-27.165	-154.738	-150.927	-150.361	-145.134	-48.163	-145.966	-8191	255	
27039.676	1	1	0	0	0.075134	0.040426	0.11968	0.23692	0.1317	0.21032	0.21876	0.42593	0.066726	0.10887	0.11173	0.22218	0.35494	0.31864	0.13021	0.38628	-1.7563	-2.6188	-2.2521	-2.7375	-2.4604	-2.3458	-2.7021	-2.4479	-2.4917	-2.7313	-2.3292	-2.5354	-2.6437	-2.2	-2.5854	-2.4917	3.535	24.167	70.912	163.207	-83.223	86.024	48.099	163.248	69.949	-172.154	-163.743	-151.663	-166.061	-144.230	43.740	167.239	0.00073024	0.00049646	0.00015249	1336.6	3.0382e-06	4.6915e-06	1334.1	368.74	5.8869e-06	3.9078e-06	419.61	142.07	122.92	42.257	3.6295e-06	52.557	0.00054083	0.00043454	0.0001238	1358.3	4.9511e-06	4.7837e-06	1359.5	374.28	5.0726e-06	4.7681e-06	428.74	145.24	125.73	43.434	4.6267e-06	54.062	155.937	-79.229	-81.208	-158.736	-65.888	-28.498	-158.940	-154.296	-67.131	-39.973	-154.759	-150.970	-150.240	-145.287	-38.427	-145.913	-8191	255	
27039.771	1	1	0	0	0.12236	0.28394	0.32301	0.45669	0.11704	0.092058	0.27119	0.50141	0.14811	0.14824	0.11151	0.14182	0.23091	0.21848	0.14406	0.33819	-1.8833	-2.5833	-2.2083	-2.6375	-2.6188	-2.4021	-2.6667	-2.4813	-2.1354	-2.675	-2.3729	-2.6104	-2.7646	-2.2833	-2.5438	-2.5563	-42.206	-74.419	88.507	117.473	-71.544	130.737	-151.973	-145.296	-48.862	-112.263	108.246	-142.238	-111.414	123.919	40.660	179.522	0.00077347	0.00055035	0.00014548	1338.7	4.4022e-06	4.062e-06	1336.7	367.23	5.6474e-06	6.5964e-06	418.97	142.65	123.24	42.024	4.5434e-06	52.273	0.00055968	0.00043372	0.00011929	1359.8	4.9852e-06	4.8643e-06	1356.4	373.76	5.0286e-06	4.7044e-06	428.87	145	125.55	43.336	4.8613e-06	53.958	153.694	-86.581	-78.719	-158.630	-59.445	-9.092	-158.922	-154.281	-51.454	-15.255	-154.700	-150.943	-150.430	-145.140	-40.566	-146.074	-8191	255	
27039.865	1	1	0	0	0.1501	0.16322	0.037992	0.049737	0.21336	0.041221	0.31009	0.30886	0.11323	0.075771	0.14451	0.10864	0.081472	0.079586	0.1577	0.40179	-1.9479	-2.5979	-2.1479	-2.2896	-2.6479	-2.2167	-2.6229	-2.6688	-2.4042	-2.6729	-2.5125	-2.2687	-2.6188	-2.3958	-2.5875	-2.5083	176.572	105.249	85.406	-168.497	99.960	97.134	86.848	132.946	-78.951	132.216	135.207	129.125	161.628	45.314	-21.777	99.449	0.00077373	0.00049453	0.00014442	1337.5	4.316e-06	4.8385e-06	1334.5	367.32	6.3548e-06	5.4926e-06	422.33	141.81	123.33	42.383	4.8036e-06	52.374	0.00055789	0.00042071	0.00012475	1357.3	4.834e-06	4.5829e-06	1357.4	374.13	5.0044e-06	4.6887e-06	429.95	144.97	125.78	43.486	4.7322e-06	53.936	155.872	-72.915	-77.351	-158.551	-60.809	-9.347	-159.067	-154.113	-60.402	-18.542	-154.709	-150.835	-150.376	-145.088	-36.902	-145.877	-8191	255	
27039.963	1	1	0	0	0.17849	0.054512	0.1674	0.37594	0.093657	0.27655	0.40356	0.19285	0.2356	0.16149	0.22522	0.20726	0.20258	0.066148	0.1962	0.46752	-1.8229	-2.5	-2.2938	-2.4667	-2.6167	-2.4167	-2.45	-2.6937	-2.1667	-2.6562	-2.6104	-2.4125	-2.6771	-2.2812	-2.1875	-2.7958	82.961	14.349	178.869	168.374	54.209	92.210	108.810	120.805	127.704	148.897	139.334	84.108	90.579	-35.995	-118.832	71.809	0.00074484	0.00052781	0.00015568	1337.9	4.4865e-06	4.8111e-06	1336.7	367.11	5.5401e-06	5.095e-06	420.3	142.05	123.21	42.44	2.9534e-06	52.131	0.00055017	0.00041074	0.00012295	1358.1	4.872e-06	5.0526e-06	1358	373.84	4.9824e-06	4.5652e-06	428.88	145.07	125.65	43.405	4.6653e-06	53.962	155.603	-81.695	-90.834	-158.594	-58.551	-54.721	-159.000	-154.295	-58.032	-25.724	-154.623	-150.834	-150.302	-145.207	-43.795	-146.006	-8191	255	
27040.059	1	1	0	0	0.15975	0.16743	0.19892	0.24373	0.22244	0.27089	0.22964	0.20387	0.28344	0.056382	0.26628	0.28381	0.11644	0.19169	0.068545	0.14116	-1.6	-2.3646	-2.4271	-2.225	-2.4021	-2.2958	-2.6604	-2.7458	-2.2646	-2.4854	-2.6708	-2.3146	-2.55	-2.5104	-2.4458	-2.9208	36.340	38.265	12.015	116.888	-134.008	161.000	145.343	186.128	-145.907	-27.526	100.263	152.923	95.839	106.370	149.285	180.515	0.00076543	0.00045988	0.0001264	1340.9	3.8658e-06	3.1933e-06	1335	366.65	4.7936e-06	6.0178e-06	419.89	141.97	123.1	42.504	4.5458e-06	52.63	0.00055954	0.00040794	0.00012122	1358.2	4.8156e-06	4.569e-06	1358.7	373.87	4.9355e-06	4.5658e-06	429.26	145.17	125.6	43.488	4.8113e-06	54.107	157.767	-71.529	-79.975	-158.544	-63.550	-23.826	-159.075	-154.228	-54.616	-12.926	-154.640	-150.811	-150.364	-144.917	-46.017	-145.873	-8191	255	
27040.156	1	1	0	0	0.14283	0.22253	0.10284	0.1566	0.1647	0.2384	0.1849	0.14998	0.098488	0.22222	0.26507	0.27996	0.17281	0.27172	0.18406	0.13148	-1.8	-2.4188	-2.5458	-2.2583	-2.6813	-2.2562	-2.4771	-2.9396	-2.1396	-2.3958	-2.6875	-2.3021	-2.5333	-2.6562	-2.2771	-2.7833	-59.744	-86.105	170.872	135.239	118.436	15.754	102.867	-130.556	-38.578	114.304	167.903	68.707	93.550	173.331	-141.519	-164.915	0.00071047	0.00048705	0.00013018	1339.9	4.0445e-06	4.56e-06	1334.7	369.53	5.9581e-06	4.7966e-06	420.55	141.81	122.84	42.492	3.0846e-06	52.187	0.00053335	0.00040607	0.00011427	1359.1	4.7459e-06	4.6212e-06	1358.6	374.99	4.9939e-06	4.5317e-06	429.17	145.03	125.64	43.452	4.7853e-06	54.009	153.713	-86.107	-75.510	-158.612	-61.925	-31.126	-159.042	-154.340	-61.030	-27.051	-154.814	-150.928	-150.555	-145.145	-38.824	-145.889	-8191	255	
27040.275	1	1	0	0	0.31608	0.1137	0.16636	0.44732	0.11554	0.11444	0.1342	0.10998	0.26751	0.061345	0.1036	0.26988	0.11748	0.014839	0.34647	0.16709	-1.6938	-2.5021	-2.4875	-2.2875	-2.6437	-2.4333	-2.4979	-2.6583	-2.4792	-2.4708	-2.825	-2.2708	-2.5667	-2.7833	-2.0875	-2.7562	136.704	146.464	15.772	168.477	-122.877	-120.302	-165.571	65.994	43.891	57.363	144.704	113.647	-79.556	120.527	149.098	147.714	0.00074179	0.00051356	0.00015296	1343.8	4.391e-06	4.1512e-06	1334.8	367.89	4.891e-06	3.3271e-06	422.33	142.17	123.31	42.366	4.3636e-06	52.582	0.00054638	0.00042235	0.00012422	1361	4.684e-06	4.6503e-06	1359.3	374.41	4.9083e-06	4.7793e-06	429.13	145.01	125.8	43.468	5.0887e-06	54.115	153.907	-85.006	-82.254	-158.606	-45.943	-20.781	-159.035	-154.436	-56.567	-23.080	-154.645	-151.147	-150.510	-144.908	-33.224	-145.984	-8191	255	
27040.371	1	1	0	0	0.28165	0.23865	0.087414	0.30374	0.20799	0.21376	0.14989	0.24499	0.191	0.33513	0.23025	0.18628	0.078774	0.24739	0.10078	0.23825	-1.9396	-2.1646	-2.5396	-2.3625	-2.4417	-2.6604	-2.4292	-2.8063	-2.2104	-2.2833	-2.8021	-2.4229	-2.5583	-2.7396	-2.1937	-2.8583	82.860	-163.671	112.480	128.437	95.413	138.359	12.029	102.648	163.517	47.564	154.166	-141.792	89.245	-84.867	-100.717	-121.240	0.00078485	0.00048135	0.00013197	1341	4.0778e-06	5.4087e-06	1332.1	367.5	5.9122e-06	4.43e-06	422.04	141.43	122.95	42.213	4.357e-06	52.401	0.00055064	0.00044119	0.00011473	1359.7	4.6801e-06	4.791e-06	1358.9	374.14	4.8181e-06	4.7898e-06	429.78	145.03	125.64	43.383	4.9898e-06	53.927	153.683	-92.329	-95.274	-158.740	-51.523	-24.287	-159.013	-154.229	-52.889	-27.780	-154.521	-150.823	-150.569	-145.118	-48.566	-145.596	-8191	255	
27040.467	1	1	0	0	0.2116	0.16043	0.27198	0.42454	0.088392	0.071345	0.24377	0.099573	0.18672	0.34753	0.12323	0.18402	0.15157	0.28463	0.12849	0.073641	-1.95	-2.1854	-2.5312	-2.5875	-2.3625	-2.6354	-2.5417	-2.8208	-2.3896	-2.3125	-2.7979	-2.4146	-2.5375	-2.575	-2.2417	-2.6604	59.943	124.388	151.157	148.551	143.292	83.313	85.129	59.284	55.304	-134.515	-110.213	159.001	75.176	-132.717	94.467	-84.584	0.00076257	0.00044131	0.00015291	1336.5	4.5715e-06	5.6867e-06	1335.7	367.02	6.6151e-06	5.28e-06	420.91	141.96	123.07	42.241	4.8416e-06	52.408	0.00054638	0.00045787	0.00012198	1358	4.7549e-06	4.6978e-06	1358.8	374.13	5.0067e-06	4.6775e-06	429.84	145.07	125.81	43.438	5.0314e-06	54.045	152.102	-89.644	-83.840	-158.522	-48.904	-24.234	-158.934	-154.348	-57.748	-25.647	-154.584	-150.994	-150.307	-144.965	-48.412	-145.973	-8191	255	
27040.562	1	1	0	0	0.10673	0.1564	0.073263	0.19033	0.22794	0.18	0.25222	0.33952	0.12928	0.1494	0.19234	0.18053	0.23647	0.08846	0.16148	0.094852	-1.9833	-2.1667	-2.5312	-2.4271	-2.3583	-2.4771	-2.3771	-2.6167	-2.4917	-2.1833	-2.8354	-2.4125	-2.4917	-2.8042	-2.1854	-2.6979	58.037	-73.656	11.015	66.128	-67.252	150.998	36.046	156.358	-118.310	-34.253	175.136	135.582	-107.869	32.778	183.480	39.759	0.00079647	0.00050292	0.00014215	1344.9	5.0478e-06	4.3834e-06	1336.3	368.2	7.1376e-06	4.5249e-06	419.34	142.18	123.28	42.35	4.8415e-06	52.273	0.0005547	0.00043955	0.00011593	1361.6	4.7827e-06	4.5935e-06	1360.3	374.68	5.0038e-06	4.8338e-06	428.77	145.1	125.74	43.407	5.0091e-06	53.996	154.133	-70.485	-80.522	-158.568	-63.048	-27.964	-158.954	-154.075	-55.950	-29.117	-154.618	-150.643	-150.667	-145.002	-34.377	-145.922	-8191	255	
27040.658	1	1	0	0	0.255	0.29635	0.15302	0.30303	0.1446	0.14284	0.36301	0.12266	0.1827	0.18992	0.25056	0.19124	0.059431	0.19515	0.12655	0.1902	-2.1042	-2.0208	-2.6	-2.5563	-2.3229	-2.5062	-2.3833	-2.4667	-2.5792	-2.2521	-2.7833	-2.5979	-2.4729	-2.7604	-2.1896	-2.4583	142.822	143.476	85.953	155.530	-123.396	-54.218	139.222	120.729	84.287	138.230	127.732	153.758	-94.515	60.976	162.585	102.912	0.00077057	0.00048151	0.00012074	1340.6	5.0592e-06	2.9678e-06	1342.4	368.55	6.1928e-06	5.7575e-06	421.22	141.83	123.47	42.376	4.6685e-06	52.536	0.00054898	0.00045361	0.00011829	1361.1	4.9294e-06	4.7256e-06	1362.5	375.02	5.0026e-06	4.9034e-06	429.61	144.99	125.88	43.462	5.0019e-06	54.122	154.568	-86.751	-66.152	-158.714	-52.782	-21.043	-158.997	-154.176	-65.114	-31.903	-154.644	-150.939	-150.343	-145.197	-51.893	-145.973	-8191	255	
27040.756	1	1	0	0	0.17445	0.18862	0.068692	0.22618	0.21496	0.24537	0.26514	0.33694	0.35976	0.2449	0.38784	0.24582	0.14941	0.17696	0.14429	0.19822	-2.1833	-2.175	-2.4125	-2.6292	-2.1896	-2.6562	-2.4333	-2.4188	-2.575	-2.3104	-2.5625	-2.4771	-2.3458	-2.6333	-2.5771	-2.3333	87.093	-167.660	4.326	141.374	-109.487	-88.800	151.843	115.564	-53.043	139.091	137.991	177.104	141.904	112.522	-45.988	95.588	0.00076876	0.00042481	0.00015549	1345.4	4.8454e-06	4.2828e-06	1337.1	367.69	5.7253e-06	5.4136e-06	421.02	142.02	123.14	42.31	5.8645e-06	52.455	0.00056124	0.00045244	0.00011337	1364.5	4.9952e-06	4.536e-06	1361.6	374.62	5.0061e-06	4.552e-06	429.61	145.23	125.77	43.459	4.8119e-06	54.072	155.155	-82.046	-80.836	-158.686	-58.111	-31.320	-158.924	-154.107	-50.810	-17.885	-154.616	-150.816	-150.507	-145.122	-45.970	-146.019	-8191	255	
27040.852	1	1	0	0	0.19663	0.12584	0.15403	0.42552	0.1756	0.035157	0.08386	0.24809	0.1126	0.059354	0.095581	0.20286	0.0036839	0.15384	0.26679	0.14319	-2.1667	-2.1896	-2.2938	-2.7104	-2.1979	-2.7271	-2.5187	-2.4313	-2.6604	-2.2917	-2.7042	-2.4188	-2.2562	-2.6333	-2.6167	-2.3167	167.854	22.467	181.851	143.573	-77.442	169.892	13.136	158.841	115.894	-73.002	88.582	84.332	-93.272	125.142	107.049	113.702	0.00075718	0.0006145	0.00010695	1342.5	4.8392e-06	3.4168e-06	1335.4	368.39	5.0907e-06	5.758e-06	420.78	141.75	123.13	42.417	4.5118e-06	52.522	0.00055497	0.00044218	0.0001205	1362.2	5.0114e-06	4.649e-06	1361.1	374.68	5.0795e-06	4.9842e-06	429.16	144.98	125.76	43.468	4.8535e-06	54.062	153.114	-76.697	-78.188	-158.695	-58.398	-15.619	-158.822	-154.147	-51.076	-15.285	-154.497	-150.791	-150.320	-145.056	-30.227	-145.763	-8191	255	
27040.971	1	1	0	0	0.16775	0.10234	0.17431	0.34566	0.20213	0.12418	0.14795	0.37019	0.08714	0.26992	0.021248	0.1849	0.15483	0.21516	0.12387	0.13618	-2.2292	-2.1521	-2.2854	-2.6562	-2.1562	-2.4771	-2.5479	-2.3854	-2.6479	-2.2729	-2.5687	-2.7042	-2.2479	-2.6333	-2.5104	-2.3063	-68.898	-22.283	-7.774	113.693	-99.658	-44.271	-170.392	132.726	-17.638	8.487	80.054	-52.927	-106.378	-14.242	88.316	-168.632	0.00079302	0.00045593	0.00015317	1340.3	3.5779e-06	4.7744e-06	1337.4	367.43	6.8197e-06	5.246e-06	421.08	141.71	122.98	42.613	6.2155e-06	52.418	0.00054303	0.00042847	0.00011595	1360.2	4.8313e-06	4.5069e-06	1359.8	374.64	4.9193e-06	4.5737e-06	429.58	144.91	125.76	43.575	4.9795e-06	54.007	155.362	-87.473	-103.776	-158.525	-49.282	-6.703	-159.037	-154.210	-65.371	-16.829	-154.562	-150.995	-150.298	-144.982	-43.766	-145.957	-8191	255	
27041.066	1	1	0	0	0.29077	0.2815	0.042248	0.19684	0.10346	0.15703	0.3866	0.22753	0.22149	0.11918	0.19974	0.12478	0.23782	0.33654	0.19698	0.20199	-1.9667	-2.2562	-2.3396	-2.8604	-2.1667	-2.4875	-2.7958	-2.2125	-2.7104	-2.3292	-2.5646	-2.7542	-2.2229	-2.475	-2.5042	-2.1562	-69.271	-63.976	133.261	131.096	16.099	-25.242	113.487	104.600	154.418	97.846	164.482	163.384	-170.232	-104.547	-28.701	13.599	0.00073433	0.00060312	0.00013269	1342.2	4.532e-06	4.6498e-06	1335.8	368.85	4.9167e-06	3.952e-06	421.24	142.3	123.46	42.226	5.688e-06	52.356	0.00053646	0.00044323	0.00012097	1361.9	4.9155e-06	4.5419e-06	1358.9	375.11	4.7105e-06	4.644e-06	429.72	145.05	125.82	43.435	4.8698e-06	54.071	156.211	-80.428	-103.089	-158.564	-56.152	-14.662	-159.270	-154.412	-66.582	-32.858	-154.675	-150.937	-150.343	-145.251	-34.523	-145.922	-8191	255	
27041.162	1	1	0	0	0.13699	0.19717	0.23987	0.48797	0.18798	0.22376	0.31539	0.16914	0.21308	0.21816	0.060261	0.10234	0.26443	0.1138	0.26274	0.21001	-2.1583	-2.35	-2.2417	-2.9021	-2.2521	-2.5687	-2.6479	-2.3375	-2.6771	-2.225	-2.3438	-2.6917	-2.2062	-2.5854	-2.3812	-2.4667	-139.438	29.852	-148.193	183.391	-17.399	146.475	-170.292	95.659	174.877	75.776	-17.201	-53.797	-161.275	-120.127	131.409	-163.670	0.00076011	0.00055291	0.00012956	1346	4.9215e-06	3.2391e-06	1338.1	368.13	6.0818e-06	3.8674e-06	421.78	142.08	123.7	42.234	5.0642e-06	52.588	0.00054651	0.00043949	0.00012073	1363.8	4.8547e-06	4.6509e-06	1362.3	375.09	4.6862e-06	4.7057e-06	430.18	145.22	126.02	43.491	4.868e-06	54.121	154.242	-93.719	-90.552	-158.666	-48.993	-25.982	-158.887	-154.298	-70.846	-8.265	-154.678	-150.812	-150.433	-145.191	-45.690	-145.826	-8191	255	
27041.260	1	1	0	0	0.087099	0.14238	0.058499	0.16314	0.14832	0.16555	0.24697	0.34153	0.21826	0.13304	0.40933	0.19099	0.10123	0.093089	0.31858	0.19678	-2.1188	-2.2938	-2.2542	-2.6854	-2.1604	-2.3729	-2.6646	-2.2917	-2.4083	-2.4208	-2.3458	-2.7229	-2.4062	-2.4062	-2.6479	-2.3312	182.373	183.563	-103.026	113.527	90.522	-15.263	176.380	134.427	-47.934	-112.375	175.041	108.679	9.001	107.475	78.791	-166.015	0.00078001	0.00047395	0.00011146	1343.6	4.32e-06	4.7072e-06	1339.2	367.49	6.0742e-06	5.3158e-06	420.79	142.36	123.81	42.164	5.3374e-06	52.501	0.00054841	0.00042176	0.00012149	1363.6	4.9439e-06	4.7434e-06	1362.1	374.88	4.9043e-06	4.5836e-06	429.74	145.32	126.02	43.467	4.9464e-06	54.061	156.058	-83.485	-87.926	-158.646	-50.244	-31.928	-159.086	-154.442	-53.520	-33.389	-154.527	-150.911	-150.369	-145.066	-41.825	-146.040	-8191	255	
27041.355	1	1	0	0	0.1785	0.11539	0.093606	0.31308	0.070237	0.13406	0.31362	0.27788	0.18388	0.091505	0.16681	0.36933	0.20712	0.16753	0.14322	0.36516	-2.0375	-2.3604	-2.2042	-2.8375	-2.2833	-2.3521	-2.7333	-2.3937	-2.3167	-2.5417	-2.3563	-2.8458	-2.3312	-2.2792	-2.4958	-2.2604	147.935	152.264	-66.108	111.362	-15.073	172.350	128.779	-143.175	100.949	42.713	-154.505	128.329	-108.935	102.916	-113.155	136.386	0.0007335	0.00053249	0.00016931	1344.9	4.7029e-06	4.4397e-06	1337.6	369.71	5.2391e-06	3.6518e-06	421.89	142.19	123.73	42.443	5.1662e-06	52.437	0.00053243	0.00042923	0.00011956	1362.9	4.8474e-06	4.8128e-06	1361.4	375.37	4.6538e-06	4.5836e-06	429.74	145.28	126.25	43.526	4.8197e-06	54.087	155.800	-79.943	-87.712	-158.765	-60.156	-16.988	-158.892	-154.389	-64.157	-6.658	-154.889	-150.942	-150.376	-145.040	-31.465	-146.098	-8191	255	
27041.451	1	1	0	0	0.11864	0.20963	0.19498	0.17856	0.073087	0.014315	0.17076	0.077468	0.2082	0.3201	0.31132	0.14626	0.071105	0.14856	0.017988	0.21982	-2.0729	-2.4479	-2.35	-2.7125	-2.3896	-2.1646	-2.8083	-2.3229	-2.6021	-2.4417	-2.2979	-2.5208	-2.4021	-2.2062	-2.5938	-2.325	-95.421	-67.696	-62.916	145.337	120.458	-149.837	111.047	-57.330	-29.657	-147.202	61.171	162.446	-171.362	63.802	110.200	177.296	0.0007841	0.00041081	0.00012018	1342.3	4.6691e-06	5.7083e-06	1339.6	368.28	4.6603e-06	5.1032e-06	420.46	142.78	123.27	42.383	4.2892e-06	52.484	0.00055074	0.00043827	0.00012447	1362.6	4.9194e-06	4.6463e-06	1363.3	375.36	4.9309e-06	4.7248e-06	429.6	145.55	125.77	43.536	4.6448e-06	54.162	154.326	-76.742	-87.099	-158.685	-46.061	-23.124	-158.932	-154.493	-56.671	-18.771	-154.820	-150.968	-150.308	-145.292	-47.470	-145.759	-8191	255	
27041.547	1	1	0	0	0.32027	0.15226	0.18149	0.2854	0.19034	0.10285	0.38059	0.38656	0.30459	0.078199	0.18664	0.14241	0.20775	0.29342	0.17955	0.054194	-1.7354	-2.6083	-2.1	-2.6333	-2.2646	-2.1271	-2.8708	-2.2708	-2.4562	-2.7292	-2.2604	-2.4708	-2.5333	-2.475	-2.5	-2.5271	46.187	178.988	8.967	165.895	187.565	-140.640	99.313	148.140	-77.611	-56.726	-139.438	129.038	162.027	-170.617	57.440	-75.680	0.00074743	0.00044885	0.00012219	1343.7	4.0825e-06	4.6638e-06	1339.1	367.92	5.5331e-06	4.5664e-06	418.44	141.91	123.34	42.269	4.6579e-06	52.341	0.00053754	0.00043629	0.00012316	1363	4.9127e-06	4.7639e-06	1362.2	374.48	4.9725e-06	4.6788e-06	428.56	145.17	125.91	43.472	4.7292e-06	54.079	155.069	-87.318	-75.976	-158.597	-68.350	-18.061	-158.919	-154.417	-70.097	-23.116	-154.688	-150.917	-150.410	-145.232	-41.972	-146.136	-8191	255	
27041.643	1	1	0	0	0.19788	0.12003	0.12684	0.13709	0.064949	0.12349	0.19601	0.2434	0.1877	0.23463	0.3839	0.23312	0.22775	0.14789	0.28973	0.20208	-1.6229	-2.6208	-2.2125	-2.7854	-2.5563	-2.0979	-2.7104	-2.6104	-2.1229	-2.7208	-2.4271	-2.4854	-2.7687	-2.3146	-2.7313	-2.3229	133.648	-57.680	-108.271	132.189	24.067	157.873	142.271	147.521	41.092	-27.305	119.207	136.401	109.035	161.063	138.193	59.411	0.00075784	0.00050544	0.00013195	1341.7	3.6767e-06	4.7626e-06	1338.9	367.94	5.6701e-06	4.9023e-06	420.65	141.99	123.34	42.424	4.9223e-06	52.458	0.00054641	0.00041179	0.00011737	1362.7	5.0565e-06	4.8068e-06	1361.5	374.51	4.8852e-06	4.5435e-06	429.28	144.95	125.77	43.505	4.7087e-06	54.097	154.537	-82.839	-90.737	-158.731	-62.705	-19.831	-159.014	-154.186	-52.492	-8.290	-154.777	-150.834	-150.339	-145.254	-31.067	-146.108	-8191	255	
27041.764	1	1	0	0	0.31057	0.16219	0.19605	0.22358	0.10881	0.13317	0.12518	0.11375	0.052352	0.25473	0.31473	0.23022	0.25015	0.47489	0.15063	0.12545	-1.6667	-2.6813	-2.2792	-2.6042	-2.6083	-2.2292	-2.7917	-2.5083	-2.2542	-2.5812	-2.3937	-2.5292	-2.5812	-2.4042	-2.5521	-2.5563	71.039	-161.536	15.915	-155.290	19.475	-37.530	56.561	119.494	-19.898	111.492	106.594	-167.037	182.739	154.899	67.855	70.377	0.00076729	0.00060253	0.00013897	1342.2	4.4322e-06	4.1794e-06	1340.6	369.3	5.0936e-06	5.3555e-06	421.52	141.76	123.18	42.317	5.113e-06	52.35	0.00054316	0.00041301	0.00011724	1363	4.9874e-06	4.5948e-06	1360.9	375.13	4.9425e-06	4.3872e-06	429.48	144.97	125.96	43.482	4.7431e-06	54.058	155.613	-91.043	-89.764	-158.510	-71.477	-28.360	-159.037	-154.477	-64.390	-25.075	-154.713	-151.090	-150.292	-145.187	-46.280	-146.042	-8191	255	
27041.859	1	1	0	0	0.055289	0.27624	0.10492	0.2447	0.15664	0.18359	0.29272	0.38224	0.19959	0.13396	0.10365	0.12654	0.33227	0.31849	0.15001	0.21684	-1.775	-2.6604	-2.3479	-2.6146	-2.425	-2.0021	-2.6896	-2.4958	-2.0792	-2.6167	-2.6458	-2.3937	-2.6729	-2.2458	-2.4188	-2.5333	114.388	70.271	-13.121	104.396	67.558	-24.153	156.223	161.179	-29.390	-50.870	63.203	133.045	183.497	121.555	105.305	-32.660	0.00078987	0.00053047	0.00016509	1345.1	4.1834e-06	4.6346e-06	1333.5	368.39	5.3281e-06	4.9427e-06	420.63	141.87	123.02	42.277	4.4595e-06	52.402	0.00055233	0.00042958	0.00011862	1363.1	4.8614e-06	4.5928e-06	1359.3	375.02	5.0084e-06	4.4647e-06	429.99	145.04	125.67	43.418	4.6936e-06	54.017	156.031	-94.309	-87.429	-158.564	-61.026	-6.410	-159.009	-154.239	-44.580	-20.046	-154.572	-150.962	-150.318	-145.226	-30.259	-145.814	-8191	255	
27041.955	1	1	0	0	0.11674	0.099264	0.22312	0.39007	0.12087	0.087328	0.19687	0.3604	0.046429	0.23879	0.11248	0.16892	0.21279	0.1467	0.15688	0.16775	-1.6896	-2.2604	-2.3833	-2.6292	-2.6063	-2.1292	-2.4979	-2.5563	-2.1625	-2.4729	-2.5021	-2.4125	-2.8729	-2.175	-2.5062	-2.6271	-124.191	30.917	-85.074	137.576	-38.950	82.909	65.049	171.352	168.043	-23.552	-33.690	97.586	-40.908	166.687	-160.957	40.152	0.00076751	0.00052011	0.00017461	1342.9	5.121e-06	4.2132e-06	1337	367.54	6.4497e-06	4.8194e-06	420.79	141.18	123.29	42.161	4.6819e-06	52.297	0.00054963	0.00040706	0.00012341	1363	4.7599e-06	4.5268e-06	1361.5	374.89	4.8326e-06	4.4397e-06	429.3	144.81	125.75	43.41	4.6737e-06	54.048	157.173	-77.010	-80.764	-158.694	-55.167	-43.297	-159.089	-154.315	-63.840	-20.190	-154.712	-150.938	-150.546	-145.251	-31.418	-145.759	-8191	255	
27042.051	1	1	0	0	0.071274	0.11266	0.10327	0.13605	0.21271	0.10109	0.28965	0.39179	0.11781	0.22826	0.18862	0.23786	0.2179	0.40672	0.16053	0.26358	-1.7771	-2.6	-2.3271	-2.5292	-2.6125	-2.3479	-2.5687	-2.6042	-2.325	-2.5208	-2.625	-2.1979	-2.675	-2.2958	-2.1875	-2.8104	-69.360	12.018	129.188	-167.402	105.314	-38.000	164.156	183.867	-107.796	-169.084	-109.512	-154.135	174.828	-150.076	154.012	167.308	0.0007838	0.00046932	0.00014135	1345.2	4.0139e-06	4.4852e-06	1342.4	368.01	5.2815e-06	6.5944e-06	420.3	141.82	122.53	42.208	3.4454e-06	52.199	0.00055233	0.00041051	0.00011742	1362.5	4.6445e-06	4.5875e-06	1361.5	374.33	4.7163e-06	4.5048e-06	429.09	144.93	125.44	43.408	4.8396e-06	53.956	156.463	-80.226	-71.522	-158.584	-63.579	-25.621	-158.986	-154.227	-67.057	-27.358	-154.701	-151.069	-150.396	-145.095	-31.399	-145.933	-8191	255	
27042.146	1	1	0	0	0.18362	0.21856	0.12563	0.17351	0.15308	0.32466	0.37796	0.18179	0.10904	0.19499	0.10718	0.13135	0.18476	0.11821	0.17402	0.1179	-1.8333	-2.4437	-2.3292	-2.3771	-2.7375	-2.4354	-2.4417	-2.9292	-2.1437	-2.575	-2.4021	-2.3771	-2.4667	-2.4875	-2.3417	-2.6708	167.853	-73.188	53.969	121.270	84.113	127.623	105.925	137.513	-68.530	27.403	175.949	125.598	85.134	-148.617	157.784	170.232	0.0007371	0.00055585	0.00010685	1338.1	3.5576e-06	4.0192e-06	1336	367.95	5.9627e-06	4.9327e-06	422.44	141.82	122.83	42.33	5.941e-06	52.267	0.00053947	0.00041856	0.0001197	1359.5	4.6166e-06	4.5941e-06	1359.4	374.35	4.8314e-06	4.2788e-06	429.38	144.95	125.64	43.422	4.7196e-06	53.946	152.554	-94.127	-79.399	-158.575	-53.706	-24.139	-158.989	-154.181	-61.001	-36.467	-154.538	-150.990	-150.312	-145.138	-33.966	-145.977	-8191	255	
27042.242	1	1	0	0	0.22448	0.11879	0.14125	0.25979	0.12011	0.19534	0.30402	0.16808	0.20577	0.072111	0.27038	0.10606	0.091442	0.1442	0.17266	0.14043	-1.5104	-2.5104	-2.35	-2.3333	-2.5354	-2.4042	-2.5125	-2.8042	-2.1833	-2.4542	-2.6021	-2.0896	-2.6688	-2.4271	-2.2021	-2.5542	113.837	-47.504	119.494	167.685	92.322	60.493	109.438	71.678	14.322	89.211	-155.466	-35.494	-99.380	52.693	-32.849	143.937	0.00078735	0.00056241	0.00013151	1339.2	4.6568e-06	5.9285e-06	1331.7	366.59	5.7179e-06	6.0493e-06	419.11	141.74	122.54	42.127	4.3616e-06	52.238	0.00053622	0.00041739	0.00011497	1359.5	4.6004e-06	4.5486e-06	1357.8	373.86	4.8482e-06	4.3603e-06	427.14	144.89	125.43	43.409	4.7491e-06	53.892	154.891	-85.041	-96.565	-158.606	-62.069	-32.638	-159.082	-154.347	-63.145	-15.491	-154.699	-150.792	-150.325	-145.274	-33.153	-146.074	-8191	255	
27042.363	1	1	0	0	0.077107	0.27235	0.083632	0.21728	0.029683	0.046865	0.32613	0.29946	0.36754	0.022774	0.3846	0.2254	0.086506	0.11167	0.31068	0.071633	-1.8875	-2.3583	-2.5917	-2.3854	-2.3625	-2.6021	-2.3667	-2.6	-2.2833	-2.3896	-2.7479	-2.2896	-2.6146	-2.4854	-2.2167	-2.7708	1.976	-29.001	-126.258	-111.507	-123.708	110.154	87.716	-138.564	-125.098	-4.916	138.915	119.097	131.039	64.307	-53.696	28.290	0.00078042	0.00034868	0.00013361	1338.8	4.9149e-06	5.388e-06	1331.6	367.61	5.8562e-06	4.5335e-06	419.46	141.77	122.64	42.216	5.3256e-06	52.192	0.00054265	0.00040718	0.00011286	1357.9	4.7393e-06	4.394e-06	1356.6	373.76	4.7238e-06	4.4719e-06	428.27	144.59	125.26	43.361	4.6237e-06	53.886	155.942	-86.024	-86.709	-158.690	-75.317	-18.186	-158.967	-154.216	-57.810	-34.994	-154.709	-150.820	-150.258	-145.119	-46.059	-145.847	-8191	255	
27042.461	1	1	0	0	0.18302	0.27184	0.081768	0.25981	0.22989	0.17625	0.35746	0.40955	0.15714	0.32427	0.27024	0.069086	0.23279	0.13907	0.13711	0.12368	-1.7104	-2.2208	-2.45	-2.2958	-2.6063	-2.5396	-2.3667	-2.7938	-2.5375	-2.225	-2.7708	-2.3292	-2.4854	-2.5104	-2.1375	-2.6792	76.828	-96.870	96.220	135.070	-77.506	32.733	-155.420	-159.472	176.239	-47.138	154.683	42.701	-140.061	-119.994	111.624	152.565	0.00074737	0.00048014	0.0001263	1336.4	5.4036e-06	5.2338e-06	1330.1	367.87	5.6856e-06	5.4038e-06	417.57	141.2	122.82	42.088	4.7456e-06	52.437	0.0005282	0.00041366	0.00010902	1356	4.6277e-06	4.4832e-06	1355.5	373.59	4.7556e-06	4.5034e-06	427.37	144.48	125.47	43.365	4.5881e-06	53.935	153.798	-82.885	-73.952	-158.643	-69.744	-13.530	-158.947	-154.186	-56.321	-15.835	-154.778	-150.902	-150.398	-145.141	-43.861	-146.094	-8191	255	
27042.557	1	1	0	0	0.12104	0.37426	0.30816	0.29828	0.085012	0.11812	0.42009	0.14291	0.30044	0.16972	0.23094	0.24224	0.21463	0.35218	0.22772	0.24278	-1.9479	-2.1521	-2.75	-2.4104	-2.5312	-2.4917	-2.3375	-2.6	-2.4583	-2.1104	-2.7792	-2.5896	-2.5375	-2.7521	-2.2833	-2.5542	-33.836	172.362	-113.971	165.476	119.370	25.196	118.345	102.478	-122.377	0.571	-166.851	93.892	144.631	129.485	145.127	145.660	0.00077141	0.00059189	0.00013728	1336.4	3.8743e-06	4.1037e-06	1331.3	367.98	5.45e-06	4.5083e-06	421.92	141.27	122.7	42.209	4.5333e-06	52.432	0.00052546	0.00041342	0.00010801	1355.6	4.572e-06	4.3623e-06	1354.4	374.05	4.7412e-06	4.2847e-06	428.33	144.39	125.31	43.313	4.6834e-06	53.946	154.821	-88.999	-88.957	-158.558	-56.469	-38.440	-159.007	-154.400	-52.900	-13.113	-154.495	-150.864	-150.310	-145.272	-34.828	-146.022	-8191	255	
27042.629	1	1	0	0	0.16084	0.10475	0.097841	0.24584	0.1431	0.20258	0.27678	0.34864	0.024686	0.1178	0.22671	0.2462	0.31421	0.045715	0.15653	0.077012	-1.95	-2.2979	-2.5812	-2.5312	-2.0833	-2.6688	-2.3875	-2.6667	-2.6167	-2.0938	-2.8937	-2.3604	-2.3312	-2.6354	-2.2125	-2.7833	-15.642	144.007	-101.571	122.827	137.833	19.376	139.285	93.059	93.974	101.121	109.847	153.103	121.542	92.147	26.655	122.037	0.00077406	0.00049632	0.00015128	1338.4	4.9248e-06	5.3176e-06	1332.7	368.18	7.1862e-06	4.8e-06	420.52	141.57	123.13	42.248	5.222e-06	52.325	0.00053138	0.00041546	0.00011147	1357.9	4.6238e-06	4.2473e-06	1357.7	373.63	4.6313e-06	4.2558e-06	428.09	144.78	125.38	43.35	4.7316e-06	53.918	155.777	-90.638	-84.646	-158.652	-64.759	-21.448	-158.895	-154.260	-60.974	-25.661	-154.670	-150.895	-150.418	-145.327	-39.689	-145.971	-8191	255	
27042.748	1	1	0	0	0.31548	0.11687	0.18952	0.10951	0.081566	0.29645	0.32333	0.20465	0.16749	0.23916	0.15513	0.11819	0.11834	0.31243	0.10553	0.14155	-1.975	-2.1458	-2.5208	-2.7104	-2.2708	-2.7438	-2.5271	-2.6417	-2.5521	-2.2062	-2.5	-2.6562	-2.3708	-2.6375	-2.3563	-2.4167	-60.241	-148.026	36.539	-64.095	161.772	-119.537	143.505	168.530	93.109	-77.490	97.674	-15.334	35.811	168.474	141.647	1.846	0.00073329	0.00046785	0.00011801	1339.8	4.2113e-06	4.7444e-06	1331.4	367.33	6.1238e-06	3.8795e-06	419.43	141.42	122.82	42.27	4.6692e-06	52.161	0.00052065	0.00039802	0.00010527	1358.5	4.6919e-06	4.1443e-06	1355.8	373.28	4.6741e-06	4.1948e-06	427.65	144.64	125.56	43.418	4.579e-06	53.914	156.294	-90.177	-72.405	-158.608	-53.942	-11.539	-158.830	-154.281	-60.288	-24.240	-154.543	-150.864	-150.274	-144.980	-47.209	-146.144	-8191	255	
27042.844	1	1	0	0	0.0654	0.18297	0.29553	0.079461	0.069527	0.12694	0.14516	0.20002	0.24398	0.24666	0.11186	0.21248	0.10047	0.12205	0.19191	0.076206	-2.1896	-2.0896	-2.5521	-2.6958	-2.2438	-2.4625	-2.4417	-2.3292	-2.6583	-2.2104	-2.6333	-2.725	-2.3438	-2.5646	-2.3833	-2.5229	170.550	15.545	183.409	-131.387	182.767	153.644	124.311	91.468	-34.997	-145.235	-112.738	171.224	-88.649	145.938	-103.640	-109.292	0.00074511	0.00053189	0.00015615	1335.8	4.55e-06	4.8165e-06	1336.4	366.81	5.2435e-06	6.4462e-06	419.91	141.03	122.86	42.168	5.0727e-06	52.239	0.0005236	0.00040129	0.00011455	1356.6	4.8218e-06	4.1952e-06	1357.2	373.4	4.6538e-06	4.4424e-06	427.74	144.5	125.35	43.342	4.6912e-06	53.873	154.978	-94.114	-81.641	-158.682	-67.315	-25.842	-158.993	-154.363	-59.503	-19.433	-154.551	-150.828	-150.153	-145.207	-24.350	-145.906	-8191	255	
27042.939	1	1	0	0	0.14632	0.16629	0.10706	0.35336	0.14658	0.11853	0.22817	0.16783	0.071454	0.30795	0.18113	0.24696	0.2026	0.20069	0.25521	0.16055	-2.2625	-2.2479	-2.4021	-2.7146	-2.2042	-2.6479	-2.6	-2.2667	-2.7083	-2.3729	-2.6417	-2.625	-2.2021	-2.7208	-2.3646	-2.325	-132.073	-38.717	137.913	127.494	159.215	178.455	137.257	114.745	21.080	182.920	-170.527	86.311	42.708	91.011	94.783	113.749	0.00073618	0.00046101	0.00013055	1337.4	4.3478e-06	5.11e-06	1332.1	367.88	5.7634e-06	4.5059e-06	419.75	142.05	123.07	42.299	4.8696e-06	52.517	0.0005103	0.0004115	0.00010758	1357.2	4.6946e-06	4.3359e-06	1356.9	373.74	4.4416e-06	4.3347e-06	427.58	144.57	125.53	43.389	4.5796e-06	53.959	153.225	-75.450	-93.057	-158.479	-79.555	-21.484	-158.996	-154.265	-53.367	-11.372	-154.695	-150.649	-150.375	-144.988	-31.263	-145.837	-8191	255	
27043.037	1	1	0	0	0.099318	0.17179	0.21329	0.087976	0.21505	0.2173	0.16245	0.20457	0.093781	0.2651	0.14468	0.30033	0.29255	0.18492	0.0758	0.094272	-2.2188	-2.1792	-2.4875	-2.8333	-2.2833	-2.6188	-2.8271	-2.4938	-2.5104	-2.3083	-2.6625	-2.6896	-2.4688	-2.7292	-2.3187	-2.1188	104.586	58.592	147.237	103.397	-8.890	134.554	110.848	152.887	76.270	-168.082	157.245	100.790	154.779	123.066	-68.344	74.350	0.00073502	0.00056335	0.0001562	1336	4.7598e-06	4.6151e-06	1331	367.38	5.4899e-06	4.7868e-06	421.16	141.04	123.06	42.278	4.4289e-06	52.263	0.00052035	0.00040275	0.00010714	1354.6	4.6539e-06	4.1397e-06	1354.8	373.5	4.5474e-06	4.244e-06	428.06	144.61	125.44	43.426	4.5163e-06	53.868	156.094	-82.839	-90.734	-158.526	-49.804	-24.840	-159.160	-154.231	-57.077	-28.754	-154.771	-150.703	-150.235	-145.102	-26.993	-145.816	-8191	255	
27043.156	1	1	0	0	0.18682	0.18324	0.21596	0.34047	0.11004	0.051523	0.15305	0.072053	0.2817	0.32364	0.093621	0.29695	0.27366	0.19946	0.093473	0.23905	-2.1521	-2.4083	-2.3312	-2.9146	-2.3625	-2.4479	-2.7438	-2.4688	-2.6	-2.5312	-2.3688	-2.6063	-2.3896	-2.7104	-2.6021	-2.2396	57.093	166.439	-86.851	151.970	-153.960	-163.422	128.505	124.615	29.754	17.217	46.483	154.618	149.105	187.501	-112.589	29.367	0.00075738	0.00049239	0.00018432	1337	4.6008e-06	4.0079e-06	1331.1	366.93	5.4855e-06	6.1715e-06	418.39	141.38	122.89	42.189	4.2779e-06	52.329	0.0005212	0.00039003	0.00011108	1355.4	4.4192e-06	4.0901e-06	1352.8	372.97	4.3456e-06	4.3819e-06	427.1	144.63	125.39	43.358	4.3552e-06	53.941	155.370	-71.181	-88.062	-158.647	-69.358	-19.125	-159.035	-154.379	-62.060	-25.558	-154.619	-150.934	-150.276	-145.011	-43.176	-146.127	-8191	255	
27043.227	1	1	0	0	0.090078	0.17644	0.093828	0.3361	0.1422	0.10181	0.22121	0.13434	0.14311	0.14178	0.072185	0.11664	0.16528	0.15317	0.12996	0.32986	-2.1396	-2.3271	-2.2896	-2.9917	-2.2562	-2.4521	-2.6708	-2.4354	-2.5	-2.4229	-2.3292	-2.7792	-2.4521	-2.3875	-2.6708	-2.2208	-28.859	133.262	83.568	-148.509	-97.984	-120.599	171.563	113.794	6.595	-103.364	147.232	146.315	10.145	169.132	-17.666	-163.210	0.00078342	0.00033926	0.0001744	1330.4	4.3884e-06	4.7239e-06	1327.1	365.88	5.6496e-06	5.354e-06	419.08	141.41	122.65	42.25	4.4365e-06	52.329	0.0005214	0.00039213	0.00011118	1352	4.4158e-06	4.3326e-06	1351	372.52	4.3548e-06	4.3051e-06	426.83	144.42	125.3	43.396	4.3462e-06	53.933	154.359	-83.600	-90.342	-158.672	-44.385	-24.048	-159.140	-154.227	-68.557	-12.542	-154.554	-151.060	-150.224	-145.087	-34.896	-145.839	-8191	255	
27043.322	1	1	0	0	0.21255	0.2431	0.35077	0.37676	0.11596	0.21764	0.12598	0.18471	0.080628	0.22799	0.31282	0.1048	0.10329	0.048449	0.11775	0.2755	-1.9146	-2.4792	-2.2438	-2.8	-2.3229	-2.4125	-2.7125	-2.175	-2.6063	-2.5354	-2.3667	-2.6396	-2.3479	-2.3229	-2.5354	-2.2875	-52.742	86.697	-96.377	177.283	9.023	-124.121	83.577	149.602	90.251	139.689	107.676	-68.911	-61.290	127.761	-116.615	107.768	0.00075953	0.00055849	0.00014942	1335.3	4.0908e-06	4.6596e-06	1331.8	365.94	5.5579e-06	4.8866e-06	417.15	141.36	123.03	42.364	4.37e-06	52.37	0.00050593	0.00039417	0.00010799	1353.1	4.4972e-06	4.3094e-06	1351.8	372.5	4.4179e-06	4.2381e-06	427.14	144.56	125.42	43.399	4.2798e-06	53.956	153.395	-84.039	-76.088	-158.599	-52.609	-20.260	-159.101	-154.355	-49.864	-23.625	-154.752	-150.940	-150.372	-145.293	-25.768	-146.073	-8191	255	
27043.443	1	1	0	0	0.020835	0.14231	0.10476	0.4216	0.17839	0.25454	0.079918	0.15453	0.25119	0.18941	0.1063	0.33807	0.18038	0.22481	0.084876	0.13442	-2.1979	-2.6813	-2.0667	-2.6937	-2.4333	-2.2875	-2.8875	-2.425	-2.3958	-2.3875	-2.2792	-2.6521	-2.5875	-2.3167	-2.4854	-2.2583	76.000	-54.102	104.939	57.769	-68.722	-131.062	165.792	-162.767	-144.579	-121.999	148.273	135.955	140.999	-82.862	159.315	94.763	0.00073496	0.00044512	0.00013656	1335.7	3.6612e-06	5.5393e-06	1329.3	367.52	6.0377e-06	5.9201e-06	418.58	141.41	123.09	42.349	5.0372e-06	52.419	0.00050404	0.00039388	0.00010819	1353.6	4.6456e-06	4.2784e-06	1353.1	372.97	4.5335e-06	4.3294e-06	426.94	144.55	125.5	43.462	4.1489e-06	54.028	155.869	-81.045	-83.433	-158.489	-58.675	-30.680	-159.032	-154.139	-57.609	-14.105	-154.646	-150.956	-150.136	-145.186	-40.256	-145.738	-8191	255	
27043.539	1	1	0	0	0.08303	0.36099	0.20324	0.39136	0.28286	0.37178	0.18525	0.14798	0.23216	0.18934	0.22087	0.17878	0.082727	0.18853	0.36747	0.023588	-1.8729	-2.5312	-2.2854	-2.7292	-2.3958	-2.3333	-2.7833	-2.5333	-2.2875	-2.6562	-2.5208	-2.7021	-2.3	-2.4146	-2.5625	-2.5854	83.369	-158.593	-70.307	134.340	-144.026	-152.237	140.409	70.971	125.704	73.729	109.096	133.754	-6.516	-20.246	-70.188	-162.254	0.00075781	0.00045171	0.00012645	1334.5	4.4837e-06	4.9519e-06	1326.3	365.54	7.0934e-06	5.3662e-06	419.2	141.74	122.5	42.357	4.5751e-06	52.301	0.00051571	0.00037318	0.00010465	1353.2	4.5435e-06	4.03e-06	1351.8	372.46	4.6134e-06	4.0792e-06	427.24	144.83	125.55	43.532	4.2346e-06	54.037	155.873	-73.116	-73.363	-158.454	-49.465	-15.569	-158.939	-154.315	-52.257	-27.806	-154.512	-150.939	-150.260	-144.974	-43.585	-145.710	-8191	255	
27043.637	1	1	0	0	0.15009	0.1145	0.27767	0.29889	0.19599	0.13135	0.14748	0.28757	0.12862	0.233	0.18145	0.13529	0.069715	0.07891	0.084029	0.012171	-1.8542	-2.5604	-2.3	-2.6542	-2.4979	-2.1375	-2.7625	-2.4208	-2.2792	-2.6937	-2.4729	-2.6146	-2.4542	-2.3104	-2.5563	-2.5646	-33.177	-28.687	-94.390	116.756	-150.251	-167.047	87.437	96.372	113.378	-16.992	108.409	140.786	-7.068	185.329	-168.466	-89.957	0.00077142	0.00049331	0.00013133	1333	4.6005e-06	3.8328e-06	1331.4	366.21	6.6068e-06	5.2698e-06	419.21	142.22	122.71	42.346	4.8949e-06	52.629	0.00052343	0.00038006	0.00010969	1354.9	4.3857e-06	4.0505e-06	1354.1	373.04	4.3901e-06	3.9577e-06	427.34	144.96	125.6	43.504	4.2551e-06	54.14	154.297	-80.361	-73.740	-158.519	-75.113	-16.670	-159.131	-154.188	-65.384	-11.440	-154.843	-151.053	-150.272	-145.120	-46.034	-146.019	-8191	255	
27043.758	1	1	0	0	0.18532	0.24266	0.11909	0.32029	0.093486	0.14654	0.35195	0.11467	0.27542	0.11021	0.10024	0.17543	0.15643	0.086776	0.20125	0.066972	-1.8125	-2.5771	-2.2687	-2.6083	-2.5125	-2.1625	-2.8792	-2.6333	-2.1271	-2.6333	-2.4396	-2.3875	-2.7021	-2.3937	-2.4896	-2.4521	-86.640	65.040	-18.177	154.053	-37.389	173.240	136.772	64.112	5.424	-29.403	-136.085	118.650	157.387	139.399	106.814	131.753	0.0007756	0.00058191	0.00013174	1333	3.8449e-06	6.1234e-06	1329.9	366.95	5.6392e-06	6.123e-06	419.3	141.85	123.4	42.386	4.401e-06	52.374	0.0005259	0.00039027	0.00010629	1353.3	4.4192e-06	4.2143e-06	1354.9	373.33	4.2235e-06	4.1009e-06	427.59	145.05	125.96	43.61	4.2008e-06	54.132	154.997	-72.691	-85.290	-158.593	-50.502	-22.289	-158.930	-154.314	-65.365	-17.374	-154.764	-150.719	-150.337	-145.120	-50.630	-146.022	-8191	255	
27043.828	1	1	0	0	0.25942	0.073779	0.079067	0.34837	0.12487	0.2019	0.19407	0.031479	0.21427	0.15685	0.058727	0.049023	0.14245	0.24192	0.15948	0.35161	-1.7104	-2.6021	-2.4188	-2.4771	-2.725	-2.2917	-2.9208	-2.5604	-2.1063	-2.6729	-2.2792	-2.4979	-2.6833	-2.1708	-2.5187	-2.5	-128.512	50.611	3.856	151.313	-98.003	143.430	109.790	135.105	165.483	-85.507	-151.196	141.385	-147.268	174.292	-134.897	151.784	0.00076881	0.0005692	0.00017222	1334.7	4.563e-06	4.8882e-06	1333.8	366.83	5.6986e-06	5.6457e-06	419.14	141.95	123.21	42.352	5.4149e-06	52.616	0.00052935	0.00037598	0.00011137	1354.8	4.2664e-06	4.1919e-06	1355.2	372.79	4.5254e-06	4.2342e-06	427.08	144.89	125.79	43.578	4.2117e-06	54.22	153.458	-85.828	-83.503	-158.713	-58.384	-31.387	-159.021	-154.318	-63.617	-10.405	-154.692	-150.733	-150.546	-145.146	-40.900	-145.912	-8191	255	
27043.926	1	1	0	0	0.10081	0.048609	0.22649	0.3616	0.069279	0.17545	0.16817	0.15083	0.08098	0.1327	0.16104	0.089841	0.33634	0.30594	0.1312	0.097777	-1.7208	-2.7042	-2.475	-2.5438	-2.5854	-2.2271	-2.6958	-2.5792	-2.1958	-2.5333	-2.5979	-2.4333	-2.7167	-2.3937	-2.3312	-2.5625	-122.431	177.349	1.613	159.566	184.513	-49.104	58.005	149.055	-43.985	-92.364	181.621	131.458	162.235	-86.720	-126.692	-24.839	0.00076002	0.00048642	0.00015711	1335.7	4.4581e-06	4.3447e-06	1334.9	367.51	5.8028e-06	5.241e-06	418.47	141.7	123.04	42.375	3.9609e-06	52.865	0.00051297	0.00037598	0.00010802	1353.9	4.2335e-06	4.3002e-06	1354.6	373.07	4.4653e-06	3.9938e-06	426.84	144.93	125.82	43.572	4.3094e-06	54.224	154.612	-79.343	-93.094	-158.698	-62.852	-29.093	-159.042	-154.254	-60.094	-21.772	-154.778	-150.959	-150.243	-145.298	-36.357	-146.040	-8191	255	
27044.045	1	1	0	0	0.13254	0.15374	0.26299	0.24908	0.10719	0.08636	0.37841	0.10509	0.075221	0.30487	0.11601	0.31458	0.20237	0.28994	0.23387	0.18739	-1.7917	-2.5021	-2.2854	-2.4313	-2.5646	-2.1875	-2.3854	-2.6479	-2.3042	-2.4708	-2.4708	-2.2625	-2.7	-2.2833	-2.2375	-2.6312	152.179	-133.062	10.881	-139.444	-73.987	0.074	99.472	165.957	103.407	183.555	-141.244	98.186	147.436	-161.776	82.149	90.549	0.00077089	0.00043808	0.00016283	1334	4.2483e-06	4.3166e-06	1329.9	365.94	5.3254e-06	4.6299e-06	419.68	142.34	123.13	42.446	5.0823e-06	52.517	0.00051334	0.00035685	0.00010895	1353.9	4.2892e-06	4.1681e-06	1354	372.39	4.3797e-06	3.9872e-06	427.37	145.03	125.51	43.624	4.3594e-06	54.14	154.854	-66.524	-71.017	-158.664	-62.076	-15.708	-158.905	-154.465	-59.334	-25.624	-154.646	-150.974	-150.412	-145.137	-43.610	-145.738	-8191	255	
27044.141	1	1	0	0	0.040796	0.11145	0.091442	0.23193	0.1819	0.044785	0.16489	0.11389	0.058789	0.14777	0.10312	0.20675	0.16708	0.47682	0.24785	0.18347	-1.6396	-2.2729	-2.4542	-2.4146	-2.4271	-2.1437	-2.4688	-2.6958	-2.2562	-2.4437	-2.5271	-2.2208	-2.6875	-2.5479	-2.2562	-2.7875	-151.713	-91.699	166.277	107.625	83.460	-110.814	92.365	166.857	26.190	-137.919	114.425	168.357	-169.962	180.561	124.142	141.140	0.00075627	0.0005227	0.00016052	1334.2	4.8433e-06	4.9033e-06	1331	366.61	5.3113e-06	5.4442e-06	417.87	141.61	123.05	42.359	4.6009e-06	52.556	0.00050911	0.00037574	0.00011111	1353.3	4.3205e-06	4.2427e-06	1353.8	372.61	4.3872e-06	4.1534e-06	426.64	144.58	125.5	43.553	4.3033e-06	54.135	154.232	-76.545	-70.892	-158.692	-57.112	-27.363	-158.975	-154.201	-43.163	-17.718	-154.746	-151.113	-150.296	-144.921	-37.997	-146.072	-8191	255	
27044.236	1	1	0	0	0.12651	0.17321	0.16241	0.25607	0.093994	0.12803	0.49232	0.30854	0.29863	0.12581	0.069744	0.29501	0.25062	0.058782	0.28873	0.27802	-1.8021	-2.4562	-2.4583	-2.2375	-2.7021	-2.4042	-2.2875	-2.6771	-2.1521	-2.375	-2.7646	-2.3854	-2.4583	-2.4917	-2.2104	-2.7604	-39.296	-21.397	115.390	178.802	70.797	4.626	123.139	103.612	17.750	140.258	-148.573	185.042	128.498	116.313	116.676	128.040	0.00074533	0.00037404	0.00015472	1334.4	4.2423e-06	4.9992e-06	1325.1	365.77	5.9016e-06	4.637e-06	416.7	141.42	122.72	42.377	4.1017e-06	52.289	0.00052005	0.00037598	0.00010545	1352.1	4.2959e-06	4.359e-06	1351.1	371.66	4.452e-06	4.248e-06	425.96	144.56	125.39	43.401	4.284e-06	53.96	153.169	-80.157	-83.077	-158.581	-48.914	-25.101	-158.834	-154.443	-65.970	-12.703	-154.808	-150.863	-150.347	-145.180	-35.868	-145.872	-8191	255	
27044.332	1	1	0	0	0.27763	0.22895	0.16394	0.18829	0.17693	0.12295	0.44296	0.22974	0.3746	0.20095	0.17784	0.13495	0.3098	0.30625	0.28202	0.037681	-1.7604	-2.1979	-2.575	-2.3167	-2.5938	-2.6688	-2.3604	-2.8771	-2.2396	-2.5062	-2.8667	-2.3604	-2.6167	-2.6708	-2.2146	-2.8479	-169.348	6.707	-24.534	-135.705	156.307	-87.877	111.608	121.334	-88.868	-3.248	104.102	133.791	-142.322	-159.456	14.139	157.006	0.00073971	0.00050679	0.00012268	1333.1	4.2253e-06	5.4004e-06	1327.3	364.32	6.7785e-06	4.4501e-06	417.92	140.35	122.59	42.171	4.4413e-06	52.161	0.00052536	0.00036962	0.00010048	1351.3	4.48e-06	4.1978e-06	1350.3	371.04	4.5746e-06	4.0509e-06	425.38	143.84	125.07	43.222	4.3576e-06	53.794	155.962	-85.297	-82.919	-158.620	-66.486	-23.125	-158.997	-154.212	-67.425	-22.467	-154.601	-150.674	-150.515	-145.141	-36.212	-145.801	-8191	255	
27044.453	1	1	0	0	0.15116	0.11938	0.12161	0.25311	0.063828	0.15911	0.28699	0.25173	0.18278	0.078199	0.15083	0.18255	0.34125	0.1479	0.16359	0.081902	-1.775	-2.2062	-2.3542	-2.4146	-2.4688	-2.5229	-2.3167	-2.8604	-2.4333	-2.275	-2.7729	-2.3667	-2.4896	-2.8604	-2.075	-2.5812	114.644	-44.173	-95.043	69.268	94.919	117.550	-154.874	-95.032	125.994	177.195	65.722	184.288	138.927	-151.281	176.278	-99.552	0.00076049	0.00042574	0.00012128	1333.5	3.6156e-06	4.3306e-06	1324.2	363.61	5.9276e-06	3.9137e-06	414.5	140.03	121.79	41.95	4.5558e-06	51.945	0.0005236	0.00038968	0.00010456	1349.4	4.4052e-06	4.1522e-06	1348.1	370.03	4.5382e-06	4.0739e-06	424.56	143.45	124.41	43.06	4.4282e-06	53.582	156.819	-83.174	-88.361	-158.615	-41.723	-13.000	-158.983	-154.162	-59.415	-25.045	-154.572	-150.747	-150.370	-144.892	-46.371	-146.057	-8191	255	
27044.523	1	1	0	0	0.22182	0.3468	0.26566	0.15564	0.16143	0.29399	0.27956	0.026074	0.093274	0.10443	0.058675	0.28331	0.33825	0.10427	0.40147	0.16667	-1.9604	-2.2833	-2.7667	-2.5125	-2.2938	-2.4271	-2.4583	-2.8104	-2.475	-2.1021	-2.6396	-2.2583	-2.475	-2.6333	-2.1562	-2.5187	-123.548	-47.344	-29.264	176.134	146.183	163.232	181.423	63.550	118.080	141.413	46.635	-170.190	149.842	-148.773	-61.461	119.421	0.00079368	0.00047154	0.00013684	1331.4	4.0232e-06	5.1152e-06	1319.9	365.34	5.573e-06	5.1754e-06	415.6	140.04	122.06	41.794	5.4147e-06	51.945	0.0005303	0.00038508	0.00010099	1347.3	4.3132e-06	4.1443e-06	1345.7	370.14	4.4416e-06	4.093e-06	423.6	143.21	124.46	42.967	4.5054e-06	53.528	155.349	-78.071	-81.757	-158.566	-61.944	-11.846	-158.816	-154.393	-57.499	-20.136	-154.535	-150.827	-150.344	-145.185	-43.039	-146.106	-8191	255	
27044.621	1	1	0	0	0.22065	0.20448	0.31863	0.31302	0.20247	0.287	0.32061	0.19442	0.069053	0.16963	0.060491	0.31255	0.048964	0.1503	0.35139	0.23211	-2.1458	-2.1729	-2.5	-2.4562	-2.3229	-2.65	-2.4229	-2.6792	-2.5062	-2.0771	-2.7479	-2.4938	-2.4375	-2.6604	-2.475	-2.6396	-49.943	6.182	-59.534	126.159	-130.844	-136.879	138.251	-1.679	-136.370	-115.093	-41.462	68.120	-58.406	89.607	-58.378	96.796	0.00076588	0.00057104	0.00014364	1326.1	3.9054e-06	4.4341e-06	1323.6	362.72	5.0276e-06	5.0246e-06	414.75	139.78	121.62	41.606	4.3789e-06	51.439	0.00052566	0.00038251	0.00010518	1346.1	4.4649e-06	3.9587e-06	1344.4	368.71	4.3195e-06	4.1009e-06	422.4	143.07	124.01	42.845	4.5567e-06	53.29	155.308	-89.046	-88.670	-158.686	-56.868	-22.709	-158.898	-154.186	-46.338	-12.294	-154.679	-150.711	-150.287	-144.925	-26.322	-145.931	-8191	255	
27044.717	1	1	0	0	0.3118	0.057366	0.11849	0.24712	0.18452	0.28134	0.26016	0.24771	0.1804	0.11826	0.11713	0.22651	0.39014	0.10568	0.13528	0.072921	-2.1292	-2.125	-2.3937	-2.6542	-2.4979	-2.6417	-2.4979	-2.7271	-2.575	-2.3063	-2.7271	-2.4646	-2.3292	-2.6146	-2.3667	-2.3792	27.658	-115.934	117.579	125.860	-27.539	73.291	131.246	101.405	-133.965	-79.190	-115.594	73.003	-147.872	-61.389	112.246	152.220	0.00073581	0.00050542	0.00015129	1322.8	4.577e-06	5.4811e-06	1318.6	361.94	5.9017e-06	4.5793e-06	415.91	139.87	121.5	41.752	4.6729e-06	52	0.0005082	0.00037965	0.00010819	1343.9	4.5112e-06	4.143e-06	1341.6	368.3	4.3143e-06	4.1534e-06	422.4	142.82	123.85	42.879	4.2376e-06	53.444	157.258	-74.647	-77.968	-158.684	-49.727	-32.155	-158.939	-154.405	-69.218	-21.028	-154.550	-150.780	-150.358	-144.915	-30.653	-145.713	-8191	255	
27044.836	1	1	0	0	0.20798	0.38073	0.26653	0.24665	0.27532	0.34882	0.34131	0.094794	0.16171	0.29152	0.22965	0.17325	0.21942	0.17373	0.041417	0.06574	-2.0708	-2.1646	-2.5521	-2.4562	-2.1625	-2.5583	-2.5521	-2.2021	-2.5667	-2.2771	-2.5938	-2.5875	-2.3688	-2.7812	-2.4521	-2.25	8.730	40.467	133.635	132.946	-25.438	-101.469	116.686	-94.720	-106.027	51.717	163.677	-82.786	161.344	-130.190	60.423	139.674	0.00073647	0.00054543	0.00015169	1320.9	3.8157e-06	4.8244e-06	1315.3	361.56	6.2367e-06	4.7963e-06	413.11	139.64	120.95	41.846	4.5781e-06	51.829	0.00051169	0.00039103	0.00010308	1340.4	4.3707e-06	4.1489e-06	1341.9	367.98	4.3936e-06	4.3714e-06	422.17	142.51	123.6	42.768	4.4282e-06	53.299	154.974	-73.725	-78.198	-158.486	-58.332	-20.840	-159.080	-154.119	-63.154	-26.083	-154.664	-150.726	-150.400	-145.008	-57.114	-146.144	-8191	255	
27044.932	1	1	0	0	0.052367	0.084297	0.18618	0.46571	0.15955	0.14356	0.15562	0.61174	0.18658	0.033492	0.24527	0.21995	0.1291	0.22174	0.18319	0.21522	-2.1771	-2.3312	-2.4271	-2.6375	-2.3083	-2.5687	-2.5167	-2.4667	-2.4688	-2.4104	-2.6125	-2.6688	-2.2	-2.7104	-2.5479	-2.4667	10.338	131.852	109.717	186.867	4.596	-68.437	-151.169	108.262	42.320	153.414	148.146	128.134	139.834	158.742	46.982	115.860	0.0007736	0.00048092	0.00014586	1321.6	4.0131e-06	4.4051e-06	1317.4	361.12	5.3479e-06	4.9446e-06	413.67	139.7	120.93	41.63	4.5749e-06	51.559	0.00051433	0.00037329	0.00010673	1340.2	4.4203e-06	4.1588e-06	1339.8	367.67	4.4283e-06	4.3478e-06	421.18	142.58	123.69	42.755	4.4077e-06	53.289	156.732	-88.574	-75.122	-158.586	-51.687	-18.847	-158.930	-154.242	-46.094	-30.413	-154.498	-150.687	-150.225	-145.137	-45.458	-145.789	-8191	255	
27045.027	1	1	0	0	0.13783	0.11714	0.1403	0.13689	0.061606	0.34355	0.094987	0.11743	0.011979	0.16199	0.11035	0.36616	0.083255	0.1453	0.25387	0.19926	-2.3083	-2.3688	-2.3167	-2.7729	-2.2708	-2.5729	-2.7812	-2.3937	-2.7667	-2.25	-2.5771	-2.8292	-2.2042	-2.6375	-2.4542	-2.2167	110.515	10.386	170.099	14.586	-126.665	155.397	124.785	-133.191	118.894	115.750	146.175	108.442	96.766	93.256	-112.642	1.239	0.0007448	0.00057532	0.00014985	1322.3	5.0607e-06	4.801e-06	1321	360.95	5.8066e-06	4.8985e-06	413.34	139.23	121.26	41.558	4.3382e-06	51.625	0.00051558	0.00040071	0.00010645	1341.8	4.5179e-06	4.3775e-06	1340.1	367.1	4.2808e-06	4.2742e-06	421.96	142.39	123.63	42.743	4.3619e-06	53.156	154.335	-80.383	-85.048	-158.499	-69.091	-13.299	-158.928	-154.188	-53.173	-1.600	-154.646	-151.037	-150.388	-145.083	-39.787	-145.788	-8191	255	
27045.123	1	1	0	0	0.050496	0.17596	0.14607	0.062054	0.18362	0.21955	0.17899	0.17534	0.15161	0.24617	0.097404	0.18851	0.10714	0.010512	0.068607	0.062416	-2.2354	-2.2917	-2.3333	-2.6188	-2.0333	-2.4292	-2.6875	-2.0896	-2.6188	-2.3896	-2.3083	-2.7458	-2.2792	-2.6271	-2.525	-2.2042	-89.380	-0.931	51.757	-170.061	112.932	-31.187	-162.164	177.958	88.909	7.575	-58.342	141.883	69.264	-13.650	-17.476	51.866	0.00075648	0.0005087	0.00014812	1321.6	3.5367e-06	5.4938e-06	1314.8	360.82	4.8664e-06	5.8019e-06	414.56	139.4	121.13	41.813	5.7338e-06	51.757	0.00050884	0.00038741	0.00010194	1338.8	4.4894e-06	4.1146e-06	1338.8	367.62	4.4028e-06	4.2335e-06	422.35	142.49	123.7	42.831	4.3245e-06	53.32	155.261	-84.237	-86.906	-158.521	-74.752	-9.931	-159.000	-154.265	-62.601	-31.679	-154.655	-150.721	-150.357	-145.049	-39.469	-146.027	-8191	255	
27045.221	1	1	0	0	0.14862	0.41816	0.16035	0.29792	0.30235	0.17406	0.23836	0.11612	0.17297	0.16155	0.3055	0.13831	0.17429	0.12599	0.264	0.28986	-2.15	-2.1542	-2.1771	-2.8292	-1.975	-2.5396	-2.6458	-2.1813	-2.4979	-2.25	-2.1937	-2.3979	-2.4021	-2.4333	-2.5458	-2.175	-139.618	63.307	14.690	106.711	-49.857	30.795	90.351	-167.993	-107.157	63.968	133.361	11.195	-170.506	136.493	-141.516	80.356	0.00073796	0.00037067	0.0001265	1321.2	5.0738e-06	4.8127e-06	1312.5	362.28	5.2665e-06	4.1399e-06	412.87	139.02	120.65	41.784	3.7714e-06	51.576	0.00051994	0.0003681	0.00010449	1339.5	4.4052e-06	3.9673e-06	1338.8	367.63	4.3849e-06	4.0365e-06	421.11	142.26	123.59	42.834	4.2913e-06	53.201	155.660	-80.340	-85.801	-158.710	-57.489	-18.894	-159.078	-154.188	-55.575	-23.430	-154.616	-150.744	-150.752	-145.060	-51.046	-145.840	-8191	255	
27045.316	1	1	0	0	0.13035	0.16922	0.12551	0.093226	0.090643	0.10603	0.2261	0.10297	0.22733	0.1474	0.08543	0.1475	0.1201	0.12451	0.26232	0.24087	-1.9771	-2.3937	-2.2292	-2.8271	-2.4562	-2.3521	-2.7604	-2.3125	-2.5625	-2.5187	-2.2562	-2.8125	-2.4646	-2.3896	-2.6042	-2.1458	-94.727	-126.390	-149.251	180.848	29.850	-27.859	81.832	-125.876	119.669	-136.916	121.302	-137.219	-162.741	145.768	133.496	163.952	0.00073541	0.00037776	0.00015443	1321.1	5.0877e-06	4.2561e-06	1316.9	362.22	5.0314e-06	5.219e-06	413.37	139.49	121.42	41.732	3.8636e-06	51.553	0.00050905	0.00037184	0.00010716	1338.2	4.4604e-06	4.1377e-06	1338.3	367.84	4.2247e-06	4.3333e-06	421.68	142.64	123.69	42.84	4.0536e-06	53.234	156.910	-66.463	-83.926	-158.627	-52.366	-32.110	-158.937	-154.242	-53.063	-22.000	-154.709	-150.758	-150.325	-145.013	-40.860	-145.713	-8191	255	
27045.438	1	1	0	0	0.10494	0.089316	0.41454	0.34618	0.36825	0.1046	0.3623	0.25968	0.33366	0.30178	0.2237	0.35397	0.23443	0.079449	0.20092	0.29247	-2.125	-2.4375	-2.1083	-2.8708	-2.3563	-2.35	-2.8833	-2.1917	-2.5187	-2.6208	-2.3917	-2.6583	-2.4729	-2.45	-2.5896	-2.2958	-89.315	-85.859	90.621	185.245	-151.481	4.557	56.706	115.489	-125.075	160.244	163.076	109.239	134.374	80.254	138.731	110.727	0.00077286	0.00045016	0.00014971	1318.5	4.4627e-06	4.6809e-06	1311.8	361.34	5.6011e-06	4.0257e-06	412.47	139.28	120.74	41.743	4.2469e-06	51.472	0.00051317	0.00038228	0.00010761	1336.5	4.6556e-06	4.0881e-06	1336	367.65	4.29e-06	3.9971e-06	420.78	142.36	123.46	42.758	4.1375e-06	53.136	155.854	-83.408	-82.547	-158.611	-56.530	-21.599	-158.926	-154.302	-58.400	-28.298	-154.627	-150.792	-150.390	-144.961	-45.369	-145.858	-8191	255	
27045.533	1	1	0	0	0.20006	0.062311	0.13493	0.24529	0.091346	0.10015	0.12042	0.23718	0.36394	0.073415	0.11822	0.31419	0.27131	0.24578	0.10003	0.18681	-1.9604	-2.4313	-2.1125	-2.7917	-2.5083	-2.3375	-2.7625	-2.4625	-2.3354	-2.4021	-2.3333	-2.6063	-2.5687	-2.3458	-2.6417	-2.5979	116.681	168.732	-153.614	-155.298	164.607	70.232	-108.809	129.565	-137.831	173.669	-161.275	121.534	141.999	163.586	-116.427	123.595	0.00074026	0.00054483	0.00016837	1315	3.7235e-06	5.5337e-06	1314	360.91	5.4344e-06	4.9889e-06	413.59	139.54	121.44	41.532	4.7404e-06	51.778	0.00050488	0.00036682	0.00010653	1335.1	4.2898e-06	4.2302e-06	1335.1	367.35	4.3265e-06	4.0266e-06	421.97	142.66	123.56	42.782	4.1869e-06	53.306	153.577	-83.271	-77.077	-158.646	-49.408	-11.941	-159.097	-154.110	-57.411	-11.540	-154.614	-150.826	-150.373	-145.116	-54.864	-145.907	-8191	255	
27045.629	1	1	0	0	0.19638	0.3363	0.09712	0.070321	0.13294	0.050528	0.32956	0.048696	0.15327	0.19502	0.14592	0.11897	0.036546	0.33929	0.15804	0.2866	-1.8958	-2.6063	-2.0938	-2.7042	-2.6021	-2.4021	-2.8104	-2.5167	-2.2625	-2.7958	-2.2708	-2.5479	-2.6813	-2.2812	-2.5167	-2.4729	-91.727	-85.238	136.427	107.564	128.856	29.280	100.747	80.223	100.144	-32.076	121.681	-159.192	-133.558	89.294	94.760	163.523	0.00076464	0.00041524	0.00014312	1316.5	3.3701e-06	4.8091e-06	1311.3	361.3	6.104e-06	4.3065e-06	413.6	139.63	120.69	41.839	4.7844e-06	51.743	0.00049723	0.00036618	0.00010485	1334.9	4.345e-06	4.2414e-06	1335.2	367.56	4.3467e-06	3.9846e-06	421.58	142.58	123.35	42.876	4.1966e-06	53.302	154.377	-93.954	-83.326	-158.611	-55.099	-13.602	-158.861	-154.492	-57.903	-26.130	-154.671	-150.830	-150.515	-145.009	-52.852	-145.993	-8191	255	
27045.725	1	1	0	0	0.079114	0.25257	0.083862	0.14446	0.19375	0.12961	0.28242	0.32816	0.09232	0.21498	0.35603	0.40413	0.31584	0.14011	0.018238	0.18292	-1.7625	-2.5438	-2.2729	-2.8438	-2.6396	-2.3271	-2.8563	-2.6125	-2.225	-2.7021	-2.3833	-2.5	-2.6562	-2.3167	-2.5354	-2.5396	-3.866	-126.320	99.428	112.033	145.608	53.858	128.460	140.869	129.554	26.972	92.803	85.142	117.942	-129.286	-68.058	117.161	0.00073593	0.00061556	0.00011297	1316.8	4.1833e-06	3.7409e-06	1313.7	362.12	6.0748e-06	4.9064e-06	412.75	139.41	121.17	41.628	5.2549e-06	51.722	0.0005059	0.00036974	0.00010297	1335.6	4.2642e-06	4.0604e-06	1334.9	367.39	4.3589e-06	4.0496e-06	420.83	142.38	123.47	42.799	4.2388e-06	53.26	155.057	-80.548	-86.721	-158.571	-66.308	-13.233	-158.950	-154.155	-57.525	-26.200	-154.736	-150.801	-150.307	-144.947	-41.887	-146.070	-8191	255	
27045.822	1	1	0	0	0.089081	0.10282	0.30727	0.31984	0.25241	0.13007	0.18882	0.22983	0.18497	0.16671	0.3194	0.17698	0.24997	0.076549	0.34962	0.062722	-1.7563	-2.5375	-2.3438	-2.3667	-2.5667	-2.3021	-2.7	-2.6896	-2.2042	-2.8125	-2.4792	-2.5062	-2.6	-2.2	-2.4979	-2.775	21.174	80.234	172.623	-154.976	83.129	184.543	165.493	55.649	-68.398	-19.475	160.034	-68.178	87.488	-169.697	58.181	-12.266	0.00075856	0.00050792	0.00015688	1315.3	5.006e-06	4.5957e-06	1315	360.28	5.6331e-06	4.3686e-06	412.84	139.67	120.9	41.671	3.8645e-06	51.807	0.00051781	0.00037796	0.00010915	1334	4.2524e-06	4.1654e-06	1334	367.21	4.3641e-06	4.0818e-06	421.34	142.56	123.53	42.764	4.1743e-06	53.301	156.199	-82.535	-82.774	-158.659	-56.831	-12.989	-158.987	-154.334	-60.573	-32.915	-154.518	-150.898	-150.372	-145.033	-47.605	-145.716	-8191	255	
27045.918	1	1	0	0	0.17107	0.10634	0.087251	0.21726	0.15985	0.075348	0.23553	0.1882	0.084758	0.25748	0.44831	0.16651	0.28325	0.23232	0.14407	0.096904	-1.8542	-2.7771	-2.3812	-2.5938	-2.4188	-2.2271	-2.65	-2.6	-2.2625	-2.5438	-2.5375	-2.3354	-2.8542	-2.4667	-2.3417	-2.6417	-42.408	144.467	-143.838	150.320	-27.867	-63.414	123.750	144.742	40.734	117.269	179.317	187.669	123.581	132.863	41.905	102.640	0.00074652	0.00043303	0.00014463	1318.2	4.9184e-06	3.9156e-06	1313.9	360.64	5.7576e-06	4.6313e-06	412.29	139.59	120.82	41.844	4.1254e-06	51.612	0.00051554	0.00036816	0.00010773	1336.7	4.2982e-06	4.2606e-06	1335.1	366.86	4.533e-06	3.9885e-06	421.07	142.63	123.62	42.786	4.2334e-06	53.201	153.401	-74.754	-101.989	-158.350	-69.290	-22.409	-158.913	-154.261	-50.714	-15.189	-154.688	-150.866	-150.454	-145.085	-35.863	-145.972	-8191	255	
27046.014	1	1	0	0	0.26706	0.35484	0.068968	0.19601	0.2921	0.27719	0.39558	0.22716	0.36259	0.21827	0.33705	0.10684	0.13	0.017484	0.094159	0.28492	-1.8104	-2.6708	-2.4021	-2.5	-2.6896	-2.3229	-2.5958	-2.7396	-2.1229	-2.6896	-2.5479	-2.3083	-2.65	-2.4042	-2.45	-2.6979	-93.235	32.710	-49.919	103.537	-98.462	13.542	109.389	148.121	-99.269	-66.069	147.822	161.986	168.251	-31.374	-88.072	148.741	0.00073399	0.00044559	0.00017283	1313.5	3.729e-06	5.1896e-06	1310.8	360.4	5.2616e-06	4.9787e-06	414.98	139.2	120.55	41.639	4.1409e-06	51.743	0.0005149	0.00037423	0.0001083	1334.4	4.2452e-06	4.4865e-06	1334.3	366.61	4.4196e-06	3.9459e-06	421.55	142.3	123.21	42.736	4.3395e-06	53.231	155.411	-84.697	-90.920	-158.526	-50.368	-12.774	-158.952	-154.130	-57.805	-13.759	-154.614	-150.775	-150.197	-145.134	-44.362	-145.855	-8191	255	
27046.133	1	1	0	0	0.41263	0.28005	0.090369	0.1481	0.066634	0.20876	0.43757	0.34831	0.2052	0.086558	0.2348	0.23093	0.32901	0.25144	0.11944	0.15039	-1.7062	-2.4083	-2.4875	-2.4521	-2.6604	-2.5125	-2.6604	-2.7896	-2.1125	-2.5396	-2.5812	-2.3688	-2.6729	-2.5667	-2.2333	-2.8167	99.529	-60.501	-111.148	-147.004	-50.378	-139.043	143.290	-158.876	70.782	87.785	-140.457	-107.638	164.888	-144.382	-81.187	151.592	0.00075905	0.00043561	0.00012862	1315.7	4.7884e-06	5.2496e-06	1311.6	359.74	4.2582e-06	5.1427e-06	414.12	138.91	120.65	41.652	4.2647e-06	51.663	0.00052756	0.0003716	0.00010552	1333.7	4.2162e-06	4.2949e-06	1333.4	366.51	4.334e-06	3.9807e-06	421.03	142.41	123.2	42.751	4.322e-06	53.23	156.313	-77.667	-104.434	-158.456	-52.251	-3.026	-158.779	-154.137	-59.843	-33.047	-154.749	-151.120	-150.271	-145.008	-50.748	-146.002	-8191	255	
27046.229	1	1	0	0	0.12627	0.17324	0.29812	0.35472	0.33266	0.11479	0.5193	0.16025	0.037916	0.2878	0.26027	0.49521	0.39577	0.068837	0.2822	0.042797	-2.0312	-2.5021	-2.6979	-2.3312	-2.6292	-2.5792	-2.5833	-2.7562	-2.1917	-2.5292	-2.7292	-2.2812	-2.8771	-2.55	-2.2979	-2.8021	167.866	-88.659	-138.452	150.726	-147.459	123.434	140.072	182.027	-64.058	112.741	-143.549	153.796	-155.781	181.824	101.897	-13.055	0.00074588	0.00039705	0.00011774	1312.9	5.2323e-06	5.716e-06	1311.8	360.28	6.6341e-06	5.0873e-06	413.71	139.18	120.6	41.817	4.2163e-06	52.015	0.00052187	0.0003835	9.9847e-05	1334.3	4.4387e-06	4.0881e-06	1334.6	366.88	4.5058e-06	4.221e-06	421.6	142.48	123.55	42.755	4.3655e-06	53.328	155.400	-81.957	-76.741	-158.507	-53.692	-26.933	-158.776	-154.292	-58.982	-28.987	-154.597	-150.668	-150.359	-145.096	-40.188	-146.013	-8191	255	
27046.324	1	1	0	0	0.26765	0.23602	0.04342	0.24687	0.10749	0.15013	0.17959	0.24805	0.18505	0.22677	0.05247	0.086996	0.26323	0.25	0.13351	0.35665	-1.9146	-2.4792	-2.5583	-2.4813	-2.4583	-2.4479	-2.3521	-2.7896	-2.2646	-2.3375	-2.8229	-2.4542	-2.6167	-2.5208	-2.3021	-2.7979	111.059	-70.459	-152.535	152.066	17.805	-65.738	154.747	92.578	65.567	182.872	-120.081	-124.942	135.561	163.667	-40.187	145.706	0.00078703	0.00047286	0.00013685	1314.6	4.1489e-06	5.2175e-06	1315.7	360.61	5.9075e-06	5.0251e-06	412.49	139.95	120.59	41.769	5.1384e-06	51.507	0.00052157	0.00037423	0.0001064	1334.2	4.403e-06	4.0934e-06	1337	366.96	4.4612e-06	4.1311e-06	421.19	142.57	123.33	42.749	4.3341e-06	53.16	155.015	-83.699	-83.030	-158.700	-66.563	-25.835	-159.034	-154.291	-65.875	-22.234	-154.574	-150.804	-150.509	-145.188	-46.618	-146.021	-8191	255	
27046.396	1	1	0	0	0.079068	0.098542	0.10929	0.14372	0.038264	0.038638	0.30164	0.59177	0.18009	0.20718	0.35355	0.35712	0.23697	0.41803	0.48855	0.18637	-1.8375	-2.1937	-2.5417	-2.2562	-2.5583	-2.4938	-2.1708	-2.7188	-2.3146	-2.4313	-2.8292	-2.3396	-2.5292	-2.725	-2.2083	-2.6312	182.688	-101.482	-0.284	-146.478	167.250	-60.554	-163.291	104.938	14.158	-125.481	126.094	94.548	-146.147	122.471	65.805	73.980	0.00074268	0.00045955	0.00015237	1317.6	4.71e-06	5.524e-06	1308.3	360.68	6.6417e-06	5.8748e-06	413.24	139.23	120.89	41.672	4.7183e-06	51.503	0.00051064	0.00038333	0.00010209	1335.6	4.4794e-06	4.1753e-06	1335.1	366.74	4.4543e-06	4.2631e-06	421.01	142.31	123.61	42.737	4.3769e-06	53.189	154.764	-85.007	-85.662	-158.801	-59.255	-21.502	-158.933	-154.212	-64.793	-28.271	-154.391	-150.826	-150.224	-145.016	-35.378	-145.820	-8191	255	
#DATA ENDS
