BOXY.EXE: ISS Imagent and Oximeter Data Acquisition Program Version 0.80
Ascii Record File

#ACQ INFORMATION
2  Detector Channels 
16  External MUX Channels 
1  Auxiliary Channels 
5000  Waveform (CCF) Frequency (Hz)
1  Waveforms Skipped 
30  Waveforms Averaged 
1  Cycles Averaged 
16  Acquisitions per Waveform 
10.0806  Updata Rate (Hz) 

#FILE INFORMATION
TRUE -- External MUX Channel results are PARSED.
FALSE -- AC DC and Phase are NOT grouped.
TRUE -- Companion Program Settings File CREATED.
FALSE -- AC data not excluded
FALSE -- DC data not excluded
FALSE -- Phase data not excluded
FALSE -- Auxillary Chn. data not excluded
Tab delimiters

#CALIBRATION STATE
TRUE -- Waveform Calibration Values APPLIED.


#AUX CALIBRATION VALUES
Val Type	aux-1	

Term	1.0000e+00	
Factor	0.0000e+00	


#WF CALIBRATION VALUES
A = Detector Channel
Val Type	A-AC1	A-AC2	A-AC3	A-AC4	A-AC5	A-AC6	A-AC7	A-AC8	A-AC9	A-AC10	A-AC11	A-AC12	A-AC13	A-AC14	A-AC15	A-AC16	A-DC1	A-DC2	A-DC3	A-DC4	A-DC5	A-DC6	A-DC7	A-DC8	A-DC9	A-DC10	A-DC11	A-DC12	A-DC13	A-DC14	A-DC15	A-DC16	A-Ph1	A-Ph2	A-Ph3	A-Ph4	A-Ph5	A-Ph6	A-Ph7	A-Ph8	A-Ph9	A-Ph10	A-Ph11	A-Ph12	A-Ph13	A-Ph14	A-Ph15	A-Ph16	

Term	0.00000e+00	0.00000e+00	0.00000e+00	0.00000e+00	0.00000e+00	0.00000e+00	0.00000e+00	0.00000e+00	0.00000e+00	0.00000e+00	0.00000e+00	0.00000e+00	0.00000e+00	0.00000e+00	0.00000e+00	0.00000e+00	0.00000e+00	0.00000e+00	0.00000e+00	0.00000e+00	0.00000e+00	0.00000e+00	0.00000e+00	0.00000e+00	0.00000e+00	0.00000e+00	0.00000e+00	0.00000e+00	0.00000e+00	0.00000e+00	0.00000e+00	0.00000e+00	0.00000e+00	0.00000e+00	0.00000e+00	0.00000e+00	0.00000e+00	0.00000e+00	0.00000e+00	0.00000e+00	0.00000e+00	0.00000e+00	0.00000e+00	0.00000e+00	0.00000e+00	0.00000e+00	0.00000e+00	0.00000e+00	
Factor	1.00000e+00	1.00000e+00	1.00000e+00	1.00000e+00	1.00000e+00	1.00000e+00	1.00000e+00	1.00000e+00	1.00000e+00	1.00000e+00	1.00000e+00	1.00000e+00	1.00000e+00	1.00000e+00	1.00000e+00	1.00000e+00	1.00000e+00	1.00000e+00	1.00000e+00	1.00000e+00	1.00000e+00	1.00000e+00	1.00000e+00	1.00000e+00	1.00000e+00	1.00000e+00	1.00000e+00	1.00000e+00	1.00000e+00	1.00000e+00	1.00000e+00	1.00000e+00	X	X	X	X	X	X	X	X	X	X	X	X	X	X	X	X	

B = Detector Channel
Val Type	B-AC1	B-AC2	B-AC3	B-AC4	B-AC5	B-AC6	B-AC7	B-AC8	B-AC9	B-AC10	B-AC11	B-AC12	B-AC13	B-AC14	B-AC15	B-AC16	B-DC1	B-DC2	B-DC3	B-DC4	B-DC5	B-DC6	B-DC7	B-DC8	B-DC9	B-DC10	B-DC11	B-DC12	B-DC13	B-DC14	B-DC15	B-DC16	B-Ph1	B-Ph2	B-Ph3	B-Ph4	B-Ph5	B-Ph6	B-Ph7	B-Ph8	B-Ph9	B-Ph10	B-Ph11	B-Ph12	B-Ph13	B-Ph14	B-Ph15	B-Ph16	

Term	0.00000e+00	0.00000e+00	0.00000e+00	0.00000e+00	0.00000e+00	0.00000e+00	0.00000e+00	0.00000e+00	0.00000e+00	0.00000e+00	0.00000e+00	0.00000e+00	0.00000e+00	0.00000e+00	0.00000e+00	0.00000e+00	0.00000e+00	0.00000e+00	0.00000e+00	0.00000e+00	0.00000e+00	0.00000e+00	0.00000e+00	0.00000e+00	0.00000e+00	0.00000e+00	0.00000e+00	0.00000e+00	0.00000e+00	0.00000e+00	0.00000e+00	0.00000e+00	-6.55746e+01	-1.32460e+02	-1.24044e+02	-1.81644e+02	-4.96078e+01	-6.09442e+01	-1.57078e+02	-1.62015e+02	-5.27148e+01	-6.58019e+01	-1.71967e+02	-1.70181e+02	-1.79589e+02	-1.77401e+02	-5.55509e+01	-1.50229e+02	
Factor	1.83242e-05	1.60084e-04	4.40432e-05	1.55119e-01	1.49884e-06	1.72698e-06	1.71925e-01	5.85861e-02	1.36267e-06	1.76728e-06	8.00050e-02	2.74382e-02	3.05121e-02	9.14989e-03	1.57629e-06	1.28563e-02	1.07384e-05	1.73561e-05	4.82899e-06	8.05253e-02	1.73972e-07	1.92695e-07	8.40553e-02	3.05412e-02	1.75866e-07	1.93004e-07	4.05408e-02	1.39842e-02	1.61609e-02	4.81515e-03	1.80523e-07	6.55076e-03	X	X	X	X	X	X	X	X	X	X	X	X	X	X	X	X	



#DISTANCE SETTINGS
A = Detector Channel
A-1	A-2	A-3	A-4	A-5	A-6	A-7	A-8	A-9	A-10	A-11	A-12	A-13	A-14	A-15	A-16	

2.5000e+00	3.0000e+00	2.5000e+00	3.0000e+00	2.0000e+00	3.0000e+00	1.5000e+00	3.0000e+00	3.0000e+00	3.0000e+00	3.0000e+00	3.0000e+00	3.0000e+00	3.0000e+00	1.5000e+00	3.0000e+00	

B = Detector Channel
B-1	B-2	B-3	B-4	B-5	B-6	B-7	B-8	B-9	B-10	B-11	B-12	B-13	B-14	B-15	B-16	

1.0000e+01	1.0000e+01	1.0000e+01	1.4400e+00	1.0000e+01	1.0000e+01	1.5100e+00	1.9400e+00	1.0000e+01	1.0000e+01	1.9900e+00	2.4900e+00	2.4100e+00	2.9000e+00	1.0000e+01	2.9800e+00	




#DATA BEGINS
time	group	step	mark	flag	A-AC1	A-AC2	A-AC3	A-AC4	A-AC5	A-AC6	A-AC7	A-AC8	A-AC9	A-AC10	A-AC11	A-AC12	A-AC13	A-AC14	A-AC15	A-AC16	A-DC1	A-DC2	A-DC3	A-DC4	A-DC5	A-DC6	A-DC7	A-DC8	A-DC9	A-DC10	A-DC11	A-DC12	A-DC13	A-DC14	A-DC15	A-DC16	A-Ph1	A-Ph2	A-Ph3	A-Ph4	A-Ph5	A-Ph6	A-Ph7	A-Ph8	A-Ph9	A-Ph10	A-Ph11	A-Ph12	A-Ph13	A-Ph14	A-Ph15	A-Ph16	B-AC1	B-AC2	B-AC3	B-AC4	B-AC5	B-AC6	B-AC7	B-AC8	B-AC9	B-AC10	B-AC11	B-AC12	B-AC13	B-AC14	B-AC15	B-AC16	B-DC1	B-DC2	B-DC3	B-DC4	B-DC5	B-DC6	B-DC7	B-DC8	B-DC9	B-DC10	B-DC11	B-DC12	B-DC13	B-DC14	B-DC15	B-DC16	B-Ph1	B-Ph2	B-Ph3	B-Ph4	B-Ph5	B-Ph6	B-Ph7	B-Ph8	B-Ph9	B-Ph10	B-Ph11	B-Ph12	B-Ph13	B-Ph14	B-Ph15	B-Ph16	aux-1	digaux	

16728.389	1	1	0	256	0.31887	0.12481	0.20962	0.059206	0.27501	0.22257	0.16809	0.16412	0.15223	0.18744	0.16781	0.24074	0.22306	0.16895	0.13565	0.13297	-2.1417	-2.4813	-2.3854	-2.6479	-2.2833	-2.5833	-2.7458	-2.3063	-2.5375	-2.4917	-2.3	-2.7333	-2.2208	-2.6562	-2.9146	-2.3479	460.991	318.140	314.352	387.489	202.930	425.224	411.667	412.441	476.334	434.120	409.411	179.103	438.360	297.190	463.523	476.274	0.00020883	0.00042209	2.9545e-05	477.99	2.1155e-06	4.9394e-06	511.53	125.1	1.765e-06	5.1942e-06	161.4	50.638	34.33	11.912	1.7558e-06	22.979	0.00098455	0.0014578	0.00039737	473.93	1.4513e-05	1.582e-05	505.66	125.17	1.4957e-05	1.5907e-05	161.14	51.097	35.04	12.198	1.5141e-05	23.285	257.753	268.980	240.688	181.125	296.920	318.183	180.150	186.040	386.347	298.358	184.844	188.980	190.512	195.264	349.962	193.223	-8191	255	
16728.484	1	1	0	0	0.19293	0.063776	0.10318	0.24986	0.12603	0.020053	0.13191	0.10161	0.25456	0.23814	0.25763	0.24115	0.12124	0.068686	0.24319	0.23667	-2.275	-2.4375	-2.2854	-2.7229	-2.5687	-2.4604	-2.8229	-2.3729	-2.6292	-2.55	-2.6083	-2.6771	-2.4396	-2.3292	-2.7208	-2.1875	521.616	312.322	202.299	179.290	474.535	174.180	456.759	348.623	189.389	390.472	425.493	466.552	495.420	409.034	373.034	406.155	0.00022565	0.00025101	4.258e-05	482.93	2.4911e-06	5.5706e-06	517.25	126.66	3.3598e-06	4.5469e-06	161.96	51.086	34.674	12.108	6.1073e-06	23.334	0.0009735	0.0014062	0.0003906	478.3	1.397e-05	1.5568e-05	510.52	126.47	1.4403e-05	1.5595e-05	162.29	51.587	35.407	12.398	1.481e-05	23.56	256.122	212.643	237.786	180.898	377.908	415.847	180.362	186.241	368.969	306.733	184.475	189.560	190.800	195.487	311.441	192.693	-8191	255	
16728.605	1	1	0	0	0.2143	0.20676	0.20294	0.27871	0.089735	0.4351	0.27937	0.25424	0.31452	0.25936	0.34937	0.031456	0.14673	0.27421	0.1529	0.27874	-2.0938	-2.5312	-2.1458	-2.6396	-2.4604	-2.3354	-2.6896	-2.3771	-2.525	-2.6604	-2.3312	-2.6375	-2.2896	-2.6125	-2.8312	-2.4062	251.261	244.928	325.409	250.146	490.352	468.140	385.625	453.258	268.854	183.054	178.107	494.702	173.236	172.753	287.366	373.252	0.00024944	0.00012846	0.00013536	486.09	3.0809e-06	3.9567e-06	510.79	126.97	3.8172e-06	2.1957e-06	160.77	50.819	34.609	12.166	3.0987e-06	23.107	0.00096006	0.0013846	0.00037786	479.98	1.4118e-05	1.5203e-05	506.8	126.89	1.4127e-05	1.5483e-05	161.71	51.446	35.618	12.408	1.4552e-05	23.456	270.867	287.161	274.635	180.970	306.953	301.401	180.483	186.121	282.383	455.939	184.595	189.630	190.136	195.676	309.216	192.919	-8191	255	
16728.701	1	1	0	0	0.2081	0.14505	0.17289	0.26404	0.11768	0.070591	0.043332	0.11077	0.062994	0.22487	0.26168	0.13272	0.44043	0.034763	0.035801	0.16994	-2.1604	-2.3896	-2.4417	-2.7188	-2.3417	-2.3354	-2.7729	-2.4021	-2.4917	-2.7083	-2.2125	-2.6792	-2.3208	-2.4125	-2.8479	-2.4688	263.577	455.835	305.419	399.880	212.145	340.587	329.038	241.331	350.982	512.711	472.896	307.812	284.825	523.669	440.794	183.775	0.00019692	0.00014398	7.0062e-05	483.33	4.5642e-06	4.6188e-06	516.04	127.07	2.0018e-06	1.1247e-06	161.68	50.746	34.86	12.075	6.5072e-06	23.014	0.00094762	0.0013881	0.00038782	479.81	1.4162e-05	1.534e-05	508.99	127.17	1.4061e-05	1.5481e-05	162.28	51.237	35.51	12.297	1.4745e-05	23.283	255.928	207.103	302.308	181.095	324.899	311.792	180.056	185.950	363.178	276.701	184.452	189.280	189.747	195.117	342.333	192.925	-8191	255	
16728.799	1	1	0	0	0.11353	0.025956	0.058628	0.17388	0.23956	0.16638	0.26928	0.093385	0.18321	0.10662	0.15343	0.27632	0.058219	0.2784	0.20062	0.17407	-2.0167	-2.4813	-2.3021	-2.5875	-2.5354	-2.5125	-2.8625	-2.3937	-2.4917	-2.5396	-2.3896	-2.4625	-2.6104	-2.3563	-2.6792	-2.5083	356.114	180.576	278.062	450.285	341.044	258.980	415.827	182.916	489.713	374.853	233.511	180.179	404.053	471.692	270.051	407.654	0.00023678	0.00045103	8.6539e-05	480.45	1.8884e-06	3.0937e-06	513.98	125.36	5.1881e-06	3.5746e-06	160.88	50.798	34.468	11.964	6.3384e-07	23.092	0.00094995	0.0013861	0.00039118	476.14	1.3932e-05	1.5799e-05	505.76	125.61	1.4098e-05	1.5805e-05	160.52	50.99	35.267	12.248	1.437e-05	23.377	272.211	241.961	234.592	181.002	468.610	336.702	180.228	185.825	312.316	472.666	184.711	189.186	190.570	196.187	349.662	192.762	-8191	255	
16728.895	1	1	0	0	0.092102	0.057269	0.24101	0.12967	0.097672	0.058442	0.21187	0.15004	0.26607	0.086248	0.32579	0.15398	0.2152	0.15587	0.16011	0.11138	-2.075	-2.6875	-2.1896	-2.6271	-2.5167	-2.2917	-2.4083	-2.4542	-2.2125	-2.7438	-2.1667	-2.65	-2.6354	-2.2667	-2.6063	-2.4583	462.873	351.374	226.399	301.573	386.409	440.817	493.530	402.859	244.588	337.473	453.660	234.602	268.168	200.912	449.120	466.681	0.00025662	0.00030237	2.7579e-05	483.45	5.3688e-06	5.4266e-06	516.34	126.33	1.9236e-06	2.8768e-06	163.44	51.399	34.921	12.119	4.3699e-06	23.387	0.00094048	0.0013602	0.00038075	477.79	1.4059e-05	1.529e-05	510.37	126.67	1.3815e-05	1.5132e-05	163.68	51.92	35.81	12.458	1.4065e-05	23.673	264.229	289.256	504.216	181.290	289.523	291.094	180.273	185.974	301.489	385.408	184.574	189.263	190.648	195.588	418.647	192.835	-8191	255	
16728.990	1	1	0	0	0.10999	0.11694	0.072812	0.21996	0.23093	0.12764	0.14883	0.16963	0.22535	0.1693	0.044528	0.04591	0.25834	0.14685	0.1795	0.25651	-2.0812	-2.6708	-2.4792	-2.7021	-2.6521	-2.2958	-2.6562	-2.3875	-2.3542	-2.7625	-2.3542	-2.5792	-2.5563	-2.2792	-2.6896	-2.5146	228.333	367.755	472.411	465.057	306.406	432.416	172.986	506.991	214.766	471.768	220.232	452.503	168.217	313.209	374.550	350.091	0.00021294	0.00010838	4.5153e-05	493.05	1.5517e-06	3.6266e-06	519.42	128.77	2.5639e-06	5.7499e-06	165.4	51.821	35.704	12.257	3.706e-06	23.36	0.00091536	0.0013391	0.00037669	484.52	1.3582e-05	1.4861e-05	515.98	128.59	1.3324e-05	1.4913e-05	164.61	52.269	36.339	12.577	1.3714e-05	23.656	269.119	187.475	282.267	181.053	383.058	222.293	180.400	186.081	352.501	295.299	184.302	189.380	190.107	195.063	282.996	193.339	-8191	255	
16729.088	1	1	0	0	0.062714	0.10306	0.14946	0.15342	0.26849	0.092989	0.12218	0.15309	0.1684	0.14521	0.1513	0.13733	0.24699	0.18471	0.08926	0.011425	-1.925	-2.7021	-2.6042	-2.4313	-2.7396	-2.1937	-2.7167	-2.5479	-2.3917	-2.7458	-2.3542	-2.5	-2.6542	-2.3917	-2.3896	-2.5125	478.963	486.784	200.264	391.198	385.640	406.465	361.316	279.094	431.917	376.129	202.623	402.272	182.216	250.976	185.767	357.964	0.00023388	0.00017066	0.00015154	488.55	7.8853e-07	3.0617e-06	517.08	127.29	1.7522e-06	8.5251e-07	163.01	50.987	35.624	12.119	2.9355e-06	23.153	0.00091619	0.0012715	0.00035437	482.74	1.3333e-05	1.4274e-05	508.93	127.73	1.3523e-05	1.4518e-05	162.54	51.491	35.824	12.383	1.3441e-05	23.441	265.475	526.826	261.557	180.881	298.879	316.608	180.361	185.966	245.921	329.231	184.920	189.520	190.534	194.833	307.621	192.793	-8191	255	
16729.207	1	1	0	0	0.37576	0.20865	0.23653	0.11018	0.17543	0.25358	0.18722	0.23146	0.40291	0.19071	0.041934	0.092163	0.089936	0.24576	0.30447	0.11955	-1.8271	-2.7479	-2.5062	-2.4313	-2.7188	-2.3375	-2.7042	-2.5167	-2.2875	-2.5542	-2.4521	-2.2833	-2.8083	-2.2979	-2.4375	-2.4	467.835	504.529	452.121	402.208	264.047	302.415	256.824	260.902	293.494	343.141	374.502	317.142	387.259	414.362	362.204	514.878	0.00020689	0.00014486	0.00013747	486.63	3.992e-06	8.3327e-07	515.49	126.61	2.2599e-06	4.0774e-06	162.12	50.799	34.511	12.028	1.2317e-06	23.285	0.00089077	0.0012584	0.00035409	478.47	1.3093e-05	1.3995e-05	508.59	125.95	1.3041e-05	1.4241e-05	161.65	51.127	35.138	12.254	1.3076e-05	23.41	260.138	208.086	218.009	180.819	382.538	288.641	180.197	185.898	343.097	242.323	184.501	189.271	191.013	195.681	331.838	192.949	-8191	255	
16729.303	1	1	0	0	0.20824	0.070503	0.037393	0.1328	0.29358	0.1222	0.19751	0.090235	0.068549	0.13174	0.17126	0.37696	0.056373	0.03234	0.19233	0.13271	-1.8167	-2.5583	-2.5146	-2.2729	-2.6583	-2.4729	-2.6104	-2.8542	-2.2958	-2.6771	-2.6437	-2.5208	-2.6604	-2.3854	-2.4229	-2.8792	464.079	416.196	302.060	355.419	329.324	365.629	184.409	425.737	204.277	201.357	510.446	482.087	362.495	253.649	386.091	211.494	0.0002388	0.00032706	7.4856e-05	485.4	1.6471e-06	3.6769e-06	515.8	127.21	3.0628e-06	1.6287e-06	164.52	51.349	35.279	12.237	4.1236e-06	23.193	0.00088972	0.0012342	0.00034353	480.25	1.2762e-05	1.356e-05	511.97	126.92	1.27e-05	1.4053e-05	163.66	51.788	35.824	12.415	1.2827e-05	23.584	254.486	275.963	260.392	180.448	344.873	361.646	180.199	186.063	316.565	381.124	184.813	189.356	190.172	195.468	290.658	193.599	-8191	255	
16729.398	1	1	0	0	0.18081	0.17661	0.29923	0.13207	0.25123	0.045743	0.088993	0.034885	0.11527	0.077311	0.13425	0.04912	0.19216	0.24016	0.13418	0.13895	-2.1437	-2.7125	-2.4417	-2.3604	-2.7458	-2.6125	-2.5521	-2.7792	-2.3167	-2.5021	-2.7021	-2.1958	-2.8021	-2.4646	-2.3333	-2.8604	516.298	222.371	182.911	336.650	415.040	335.447	288.771	282.429	387.018	326.997	214.336	438.652	410.615	418.653	518.007	335.092	0.00023755	0.00026974	5.6763e-05	489.25	3.5187e-06	1.071e-06	522.08	128.37	4.7654e-06	4.3013e-06	164.26	51.39	35.035	12.184	3.089e-06	23.675	0.00088328	0.0012741	0.0003608	484.22	1.293e-05	1.4243e-05	516.71	127.7	1.3141e-05	1.434e-05	164.42	51.875	35.753	12.468	1.3408e-05	23.844	259.679	222.499	266.194	180.819	503.610	244.097	180.770	185.933	293.190	294.565	184.344	189.605	190.321	195.196	328.748	192.981	-8191	255	
16729.494	1	1	0	0	0.062707	0.067	0.21133	0.36164	0.24056	0.087533	0.082578	0.20196	0.081244	0.1442	0.15283	0.064736	0.13906	0.078121	0.26489	0.1044	-1.8687	-2.5229	-2.4229	-2.3417	-2.4521	-2.6375	-2.4813	-2.7313	-2.3146	-2.5667	-2.7188	-2.2333	-2.6896	-2.4583	-2.3104	-2.8271	277.110	268.113	213.195	458.548	430.667	385.474	472.816	239.826	452.077	365.243	482.312	427.975	474.372	336.873	439.304	432.065	0.00024563	0.00018095	3.8542e-05	488.18	2.7633e-06	4.627e-06	522.28	128.46	2.7939e-06	3.9523e-06	163.28	51.303	35.016	12.306	7.5218e-08	23.354	0.00090775	0.0012868	0.000365	482.92	1.3587e-05	1.4383e-05	514.94	128	1.3439e-05	1.4412e-05	163.49	51.753	35.663	12.476	1.4042e-05	23.615	250.738	274.979	346.133	180.570	300.261	302.853	180.304	185.978	311.605	184.437	184.936	189.669	190.548	195.132	453.906	193.020	-8191	255	
16729.566	1	1	0	0	0.16176	0.070724	0.066647	0.11091	0.064733	0.10583	0.066439	0.080093	0.32073	0.059105	0.29539	0.25194	0.097164	0.093375	0.23824	0.33042	-1.9125	-2.35	-2.5646	-2.3833	-2.6	-2.6083	-2.4188	-2.7271	-2.3729	-2.5583	-2.7313	-2.1979	-2.5229	-2.4375	-2.1146	-2.6208	480.611	277.213	440.155	429.866	304.192	205.473	408.826	242.082	525.708	476.881	489.617	396.383	400.563	324.775	177.194	313.176	0.00024173	0.00013465	9.718e-05	485.34	1.1257e-06	3.1236e-06	516.57	127.58	4.2641e-06	6.1545e-06	162.63	50.866	35.2	12.186	2.2156e-06	23.142	0.00090522	0.0013244	0.00036384	481.15	1.3244e-05	1.4613e-05	510.64	127	1.3834e-05	1.4281e-05	162.72	51.399	35.672	12.346	1.3645e-05	23.336	265.449	294.798	191.283	180.894	216.794	393.548	180.426	185.798	269.901	357.923	184.268	189.169	190.247	195.570	335.947	192.801	-8191	255	
16729.686	1	1	0	0	0.26528	0.082115	0.36372	0.058911	0.25757	0.1624	0.10647	0.078936	0.10976	0.11152	0.093565	0.064473	0.22442	0.23292	0.24011	0.096981	-2.15	-2.2938	-2.5771	-2.3729	-2.5479	-2.6917	-2.3646	-2.7438	-2.4562	-2.575	-2.6937	-2.4958	-2.525	-2.675	-2.4021	-2.7542	365.233	422.202	316.580	527.070	265.578	387.060	401.456	292.589	413.585	273.295	299.619	328.420	510.902	229.826	462.341	292.598	0.00025757	9.1508e-05	0.00011851	481.54	1.8261e-06	4.2658e-06	515.49	126.89	1.2946e-06	3.263e-06	163.11	50.928	35.188	12.072	4.7398e-06	23.193	0.00092525	0.001349	0.00036537	479.12	1.319e-05	1.4758e-05	509.84	126.88	1.3663e-05	1.492e-05	162.76	51.403	35.737	12.37	1.3846e-05	23.51	265.172	338.772	279.242	180.962	188.712	307.418	180.259	186.086	231.083	305.092	184.607	189.267	190.526	195.332	425.760	192.938	-8191	255	
16729.781	1	1	0	0	0.064652	0.10518	0.37665	0.024371	0.066189	0.18471	0.25697	0.078028	0.17442	0.038895	0.20152	0.24671	0.18082	0.28082	0.30462	0.13708	-2.0708	-2.4104	-2.5521	-2.5833	-2.6375	-2.6937	-2.3875	-2.6417	-2.4729	-2.3521	-2.7333	-2.3542	-2.5667	-2.6167	-2.1833	-2.5125	199.310	480.693	190.356	168.566	471.682	176.979	406.370	234.438	368.980	515.962	182.907	468.494	419.324	334.553	484.081	381.040	0.00022092	0.00032353	6.655e-05	488.67	3.4521e-06	3.8969e-06	518.42	128.69	1.72e-06	1.5738e-06	165.17	51.937	35.439	12.153	2.2814e-06	23.554	0.00091355	0.0013472	0.00036698	483.34	1.3162e-05	1.4931e-05	514.25	128.29	1.3492e-05	1.465e-05	165.12	52.166	36.084	12.465	1.3777e-05	23.752	257.862	220.834	335.055	180.735	274.225	287.151	180.421	185.903	313.735	429.554	184.111	189.642	190.784	195.002	311.447	193.146	-8191	255	
16729.879	1	1	0	0	0.154	0.26146	0.16287	0.27556	0.067467	0.1923	0.076608	0.1375	0.29715	0.29	0.069077	0.2668	0.1219	0.11079	0.24807	0.045691	-2.2625	-2.2604	-2.625	-2.6417	-2.5208	-2.5521	-2.5312	-2.5604	-2.4604	-2.3688	-2.8396	-2.5146	-2.3438	-2.575	-2.45	-2.6875	189.694	317.037	273.127	519.356	292.773	206.827	235.327	499.634	317.645	252.343	253.136	198.879	284.182	407.495	470.658	255.428	0.00024602	0.00024795	0.00013704	489.21	2.203e-06	3.3703e-06	523.48	130.03	1.9369e-06	4.1645e-07	165.08	52.415	36.038	12.36	2.733e-06	23.066	0.00091366	0.0012892	0.00036017	485.9	1.3517e-05	1.4794e-05	515.01	129.55	1.3584e-05	1.4668e-05	165.02	52.276	36.543	12.563	1.4215e-05	23.402	262.144	226.515	238.904	180.748	305.294	297.687	180.549	185.950	281.908	259.561	184.671	189.036	190.865	195.433	320.267	192.958	-8191	255	
16729.998	1	1	0	0	0.14507	0.061342	0.094292	0.24946	0.14317	0.11881	0.28714	0.19917	0.10797	0.18433	0.3094	0.15415	0.033026	0.04426	0.032994	0.080088	-2.1583	-2.2917	-2.6792	-2.5979	-2.4229	-2.9292	-2.4646	-2.6208	-2.575	-2.3604	-2.7375	-2.5021	-2.525	-2.4437	-2.525	-2.6521	292.663	469.523	413.765	475.032	202.656	334.407	520.771	474.229	303.938	176.382	497.092	337.571	395.745	240.775	355.822	519.451	0.00021931	0.00042245	0.00014453	489.09	2.2434e-06	1.8273e-06	515.65	128.44	1.8189e-06	2.0277e-06	162.9	50.978	35.041	12.088	2.4548e-06	22.607	0.00091901	0.0013312	0.00036679	484.54	1.3194e-05	1.4851e-05	510.9	128.08	1.3556e-05	1.4842e-05	162.56	51.066	35.682	12.258	1.396e-05	22.946	262.735	256.343	287.194	180.773	294.978	250.451	180.486	186.281	340.497	306.032	184.326	188.980	190.120	195.382	266.595	192.978	-8191	255	
16730.094	1	1	0	0	0.20145	0.30867	0.43193	0.19979	0.17613	0.29239	0.21972	0.22425	0.12787	0.11482	0.19661	0.098489	0.11564	0.14433	0.13018	0.28761	-2.1521	-2.1979	-2.7208	-2.4562	-2.4375	-2.95	-2.6146	-2.45	-2.6396	-2.4979	-2.7938	-2.4813	-2.2583	-2.7667	-2.5021	-2.5417	266.554	321.103	355.169	488.352	318.165	173.626	192.107	477.661	302.835	372.575	452.377	486.182	390.693	488.744	352.702	396.038	0.00023666	0.000228	9.3319e-05	488.11	3.2467e-06	2.3898e-06	508.3	128.25	3.0411e-06	2.212e-06	161.74	50.16	35.335	11.975	6.2776e-06	22.617	0.0009265	0.0013427	0.000359	483.39	1.3497e-05	1.4574e-05	505.49	127.48	1.3267e-05	1.4312e-05	161.09	50.43	35.699	12.198	1.3156e-05	22.881	263.083	245.369	245.786	180.968	274.095	441.877	180.288	185.733	270.164	421.833	183.899	188.966	190.209	195.288	301.266	192.971	-8191	255	
16730.168	1	1	0	0	0.0037454	0.11239	0.19417	0.20762	0.045044	0.17612	0.15476	0.131	0.13726	0.34855	0.16732	0.11722	0.14472	0.11219	0.18083	0.12289	-2.0979	-2.0917	-2.6146	-2.525	-2.3958	-2.7687	-2.3833	-2.4167	-2.9167	-2.4521	-2.6917	-2.5083	-2.3167	-2.7146	-2.6604	-2.5146	525.547	216.660	352.024	446.601	239.007	426.039	430.602	341.678	526.797	497.134	188.694	255.498	329.609	503.452	392.210	198.907	0.00027441	0.00022387	2.7138e-05	489.96	1.3461e-06	5.9844e-06	514.74	127.93	3.2235e-06	5.8474e-06	161.38	50.276	35.308	12.141	2.9489e-06	22.678	0.00088815	0.0012775	0.00035555	483.02	1.315e-05	1.4446e-05	507.11	128.12	1.3121e-05	1.4067e-05	161.84	50.695	35.777	12.269	1.3478e-05	22.939	256.809	282.343	278.677	181.226	242.730	323.081	180.461	185.795	341.996	327.076	184.593	189.370	190.482	195.341	325.167	192.974	-8191	255	
16730.287	1	1	0	0	0.26736	0.32998	0.10388	0.16545	0.08579	0.19281	0.052973	0.22653	0.15578	0.18429	0.1197	0.031686	0.17271	0.15294	0.12619	0.096888	-2.4625	-2.4854	-2.6625	-2.7875	-2.2458	-2.7583	-2.3917	-2.5271	-2.7	-2.4625	-2.5167	-2.7542	-2.2333	-2.7271	-2.45	-2.2667	290.107	415.539	440.952	423.658	403.139	462.892	386.467	248.797	509.322	404.358	432.987	350.748	427.731	376.653	397.366	217.183	0.00023521	0.00025738	0.00012543	486.59	3.3672e-06	3.3375e-06	511.2	127.24	3.3835e-06	2.5607e-06	160.09	49.766	35.041	11.856	8.9338e-07	22.353	0.00089285	0.0012928	0.00035684	480.34	1.3449e-05	1.4568e-05	504.69	126.83	1.3147e-05	1.4628e-05	160.18	50.252	35.382	12.077	1.3533e-05	22.594	258.688	242.732	253.807	180.825	257.734	527.506	180.389	185.790	274.499	296.759	184.338	189.150	190.677	195.895	208.710	192.777	-8191	255	
16730.383	1	1	0	0	0.23265	0.16452	0.37474	0.17845	0.10271	0.2493	0.09797	0.11901	0.26035	0.15298	0.16839	0.33847	0.16983	0.161	0.17282	0.098955	-2.2438	-2.4875	-2.55	-2.7083	-2.375	-2.8042	-2.6083	-2.5208	-2.9208	-2.2687	-2.4208	-2.7396	-2.3708	-2.7417	-2.5604	-2.1979	206.789	361.796	316.628	391.147	384.768	275.563	439.495	262.361	429.960	514.869	509.986	197.406	363.499	245.868	216.604	432.062	0.00026082	0.00034644	8.8308e-05	482.45	1.6923e-06	2.809e-07	503.99	126.59	1.1776e-06	2.68e-06	158.57	49.552	34.235	11.68	5.2443e-06	21.995	0.00091663	0.0013098	0.00036124	477.83	1.3054e-05	1.4503e-05	498.74	125.82	1.3479e-05	1.4244e-05	158.1	49.466	34.949	11.958	1.3288e-05	22.375	259.410	242.594	212.881	180.937	423.430	523.719	180.404	186.228	311.879	328.073	184.443	189.512	190.274	195.362	358.913	192.861	-8191	255	
16730.479	1	1	0	0	0.082487	0.14553	0.066816	0.15974	0.05769	0.10771	0.23904	0.016187	0.17563	0.23108	0.39347	0.18488	0.18703	0.10342	0.14002	0.31599	-2.3042	-2.4958	-2.5458	-2.775	-2.2396	-2.4833	-2.6833	-2.3979	-2.8542	-2.4375	-2.4167	-2.8937	-2.2083	-2.575	-2.6917	-2.275	481.680	256.176	352.643	332.514	371.907	343.133	357.621	331.643	464.626	501.155	169.349	456.822	280.219	450.093	475.283	501.539	0.00022801	0.00015084	0.00010601	478.89	1.7655e-06	2.0914e-06	500.15	125.07	1.2826e-06	4.6408e-06	157.93	49.119	34.439	11.663	1.98e-06	22.281	0.00089124	0.0012934	0.00035981	475.28	1.3305e-05	1.4613e-05	496.63	124.92	1.3243e-05	1.4188e-05	157.93	49.425	34.896	11.934	1.3511e-05	22.441	251.181	309.492	243.418	180.866	378.293	327.229	180.438	185.844	245.667	277.769	184.481	188.902	190.027	195.272	272.722	192.680	-8191	255	
16730.600	1	1	0	0	0.084575	0.036385	0.14021	0.10393	0.23829	0.16777	0.13595	0.24023	0.2941	0.22556	0.1918	0.20005	0.3345	0.045661	0.1438	0.23131	-2.1271	-2.4458	-2.3125	-2.5271	-2.3875	-2.6229	-2.8625	-2.2833	-2.7083	-2.3792	-2.325	-2.8125	-2.3979	-2.4854	-2.5792	-2.3	448.972	360.845	473.244	504.192	337.810	460.277	452.788	332.479	423.951	277.859	269.695	181.463	417.827	419.587	174.020	188.366	0.00020608	0.00038324	0.00014036	485.88	2.1641e-06	3.6127e-06	511.04	127.46	2.9704e-06	1.5957e-06	160.1	49.532	35.381	11.854	5.7228e-06	22.638	0.00089885	0.0013215	0.00034977	480.71	1.2771e-05	1.4381e-05	503.82	127.46	1.3301e-05	1.4228e-05	160.39	50.231	35.598	12.144	1.3637e-05	22.866	263.093	247.062	284.295	180.792	389.127	306.314	180.308	185.659	281.071	202.268	184.561	188.933	190.486	195.004	328.504	192.341	-8191	255	
16730.695	1	1	0	0	0.030897	0.20654	0.13599	0.20642	0.090008	0.19064	0.1195	0.080642	0.11288	0.14991	0.44267	0.26642	0.17787	0.30847	0.20303	0.12128	-2.2771	-2.4708	-2.1646	-2.7938	-2.4854	-2.3625	-2.7625	-2.4667	-2.5812	-2.675	-2.3417	-2.7562	-2.65	-2.5667	-2.8312	-2.3292	333.108	456.096	272.720	522.284	314.394	294.487	241.564	259.768	197.415	510.492	262.775	473.039	285.875	290.308	423.698	440.532	0.00020859	0.00025161	9.9427e-05	485.01	2.3419e-06	3.6024e-06	514.4	127.51	4.3365e-06	4.6122e-06	161.06	50.568	35.066	12.04	2.2419e-06	22.665	0.00090773	0.0013183	0.00037038	481.27	1.3377e-05	1.4784e-05	508.8	127.9	1.3633e-05	1.5014e-05	161.66	50.909	35.837	12.32	1.3863e-05	23.048	259.507	270.802	259.443	180.496	398.437	323.667	180.517	185.667	317.269	314.581	184.621	189.069	189.921	194.974	504.233	192.692	-8191	255	
16730.791	1	1	0	0	0.13849	0.086786	0.074291	0.18246	0.11546	0.21358	0.2043	0.22577	0.13286	0.13481	0.094059	0.049106	0.15468	0.051196	0.098182	0.12127	-2.2125	-2.5646	-2.4646	-2.7917	-2.3375	-2.4542	-2.7271	-2.2479	-2.5208	-2.6792	-2.4437	-2.7667	-2.5292	-2.3458	-2.7438	-2.4292	373.754	489.770	498.422	436.846	384.481	291.457	502.573	368.090	457.902	507.553	234.545	507.898	372.874	484.743	465.869	420.943	0.00020035	0.0002755	0.00012001	484.4	8.8286e-07	3.2258e-06	511.16	128.13	2.3704e-06	3.2517e-06	161.36	50.483	35.045	12.1	4.8737e-06	22.797	0.0009333	0.0013787	0.00037517	480.69	1.3664e-05	1.4927e-05	504.69	127.46	1.3903e-05	1.5033e-05	161.33	50.877	35.692	12.369	1.3828e-05	23.103	268.919	352.226	278.781	181.095	297.394	295.816	180.556	186.193	364.205	419.804	184.440	188.836	190.375	195.289	328.309	193.312	-8191	255	
16730.863	1	1	0	0	0.14124	0.051903	0.14684	0.2595	0.32021	0.09268	0.080198	0.25306	0.12549	0.30663	0.098405	0.24465	0.20218	0.048683	0.10068	0.26139	-2.1146	-2.6833	-2.4437	-2.6646	-2.7792	-2.3208	-2.8521	-2.4375	-2.6021	-2.9062	-2.4	-2.7979	-2.6271	-2.4479	-2.6437	-2.4896	472.352	230.853	222.939	213.109	471.637	192.158	254.726	401.283	343.955	423.187	290.341	210.016	223.115	386.092	202.295	214.636	0.00021897	0.00020177	4.001e-05	488.79	2.7757e-06	1.6197e-06	514.14	128.64	3.0232e-06	4.6062e-06	164.38	50.984	35.46	12.137	1.2652e-06	23.243	0.00090605	0.001351	0.00037388	482.69	1.3589e-05	1.4571e-05	506.55	128.56	1.3531e-05	1.447e-05	162.71	51.299	36.007	12.431	1.3634e-05	23.357	254.992	252.763	241.569	180.618	272.058	382.799	180.442	185.908	316.584	347.859	184.334	189.353	190.180	195.196	359.852	193.119	-8191	255	
16730.982	1	1	0	0	0.16305	0.09562	0.084966	0.19175	0.16872	0.28547	0.3772	0.13897	0.16444	0.096996	0.21153	0.12307	0.25869	0.17944	0.05558	0.1204	-2.2792	-2.6833	-2.3354	-2.7146	-2.6063	-2.225	-2.9917	-2.3854	-2.4437	-2.6396	-2.4792	-2.7167	-2.5292	-2.2917	-2.5667	-2.5417	227.270	246.663	386.850	494.942	172.170	230.896	466.649	346.280	413.500	421.973	500.669	257.933	446.216	464.284	194.767	508.879	0.0002279	0.00033205	0.00010958	491.62	4.2946e-06	2.9931e-06	519.33	127.96	1.0029e-06	2.2993e-06	163.9	51.796	35.432	12.185	1.2963e-06	23.206	0.00091596	0.0013482	0.00036482	485.7	1.3432e-05	1.4503e-05	513.99	128.3	1.3279e-05	1.4497e-05	164.06	51.883	36.167	12.505	1.3507e-05	23.514	255.510	253.936	242.912	181.031	307.834	326.412	180.313	186.089	269.083	232.322	184.806	189.611	190.861	195.480	276.594	192.701	-8191	255	
16731.080	1	1	0	0	0.026211	0.28617	0.018155	0.28336	0.1194	0.22429	0.095846	0.10109	0.17278	0.065871	0.10011	0.19769	0.02918	0.15339	0.23324	0.0093406	-2.0438	-2.7375	-2.3104	-2.6896	-2.6063	-2.2979	-2.7375	-2.6833	-2.5333	-2.8021	-2.3375	-2.4521	-2.5687	-2.3896	-2.8333	-2.7188	468.555	262.792	410.866	465.719	458.850	279.626	375.468	383.113	433.845	443.888	473.526	197.375	469.294	395.433	476.225	343.693	0.00023747	9.0805e-05	5.177e-05	495.93	3.1015e-06	4.3813e-06	522.43	129.97	1.1501e-06	1.8551e-06	165.44	52.49	35.578	12.361	4.526e-06	23.775	0.00090075	0.0013077	0.00037063	489.31	1.3335e-05	1.4778e-05	518.4	129.7	1.3567e-05	1.4387e-05	165.76	52.621	36.483	12.625	1.3642e-05	23.947	253.817	274.527	222.451	181.024	359.977	311.370	180.153	186.154	260.158	299.192	184.358	189.203	190.416	195.307	342.951	192.656	-8191	255	
16731.176	1	1	0	0	0.21248	0.14612	0.22266	0.0091683	0.10974	0.14737	0.092924	0.28732	0.068426	0.3326	0.13269	0.14606	0.070173	0.24686	0.20421	0.094971	-1.9354	-2.6292	-2.3125	-2.4854	-2.7083	-2.4521	-2.6792	-2.725	-2.4792	-2.9688	-2.6375	-2.3792	-2.6958	-2.2542	-2.825	-2.6896	168.004	354.102	172.401	519.026	175.459	327.392	186.189	512.147	463.350	199.194	182.876	204.591	209.824	175.574	464.594	444.595	0.00024925	0.00022863	8.2386e-05	499.98	3.3538e-06	5.9884e-07	524.75	130.94	1.4109e-06	3.1294e-06	165.03	52.266	36.45	12.634	2.5002e-06	23.592	0.00090091	0.0013433	0.00036087	492.55	1.3365e-05	1.4363e-05	521.22	130.67	1.3563e-05	1.4605e-05	165.92	52.648	36.84	12.758	1.3899e-05	23.765	265.486	496.430	184.348	180.715	374.178	247.980	179.988	185.843	400.986	239.326	184.759	188.707	190.033	195.278	361.082	192.855	-8191	255	
16731.295	1	1	0	0	0.26049	0.32909	0.10824	0.20691	0.13556	0.13829	0.25454	0.21385	0.034147	0.087826	0.097788	0.16566	0.33903	0.08384	0.12134	0.21076	-1.9813	-2.7208	-2.6063	-2.6229	-2.7021	-2.2146	-2.6229	-2.5187	-2.3937	-2.5771	-2.325	-2.4562	-2.7313	-2.3396	-2.4	-2.4083	213.204	245.094	287.322	518.357	230.332	467.075	436.513	395.455	182.610	336.752	507.561	291.565	193.743	233.925	512.627	437.468	0.00026317	0.00017169	5.8425e-05	500.17	2.6723e-06	1.2581e-06	528.13	130.7	2.75e-06	3.5422e-06	165.02	52.738	35.926	12.392	2.7426e-06	23.443	0.00090898	0.0013402	0.00036144	492.69	1.3179e-05	1.4382e-05	522.23	131	1.3436e-05	1.4198e-05	165.94	52.657	36.664	12.657	1.3324e-05	23.714	260.695	514.854	343.510	181.104	256.361	301.826	180.383	185.619	288.547	318.293	184.235	189.133	190.245	195.269	329.545	192.893	-8191	255	
16731.391	1	1	0	0	0.11633	0.24606	0.14694	0.33291	0.056573	0.1543	0.39433	0.13538	0.23036	0.059969	0.10508	0.15928	0.24091	0.12044	0.23317	0.13421	-1.8042	-2.5958	-2.625	-2.3729	-2.6833	-2.3854	-2.8083	-2.7125	-2.2812	-2.7292	-2.625	-2.5646	-2.7438	-2.3771	-2.5375	-2.7417	481.849	314.182	237.004	462.708	383.815	168.333	515.346	385.085	444.591	500.151	430.234	242.716	272.779	223.163	429.056	521.614	0.00022799	3.9342e-05	8.8678e-05	495.47	2.3872e-06	4.7962e-06	526.61	130.62	2.8731e-06	4.4359e-06	167.38	52.811	36.238	12.375	3.3215e-06	23.438	0.00090572	0.0012992	0.00035676	491.46	1.2858e-05	1.3874e-05	522.09	130.39	1.3115e-05	1.4279e-05	166.8	52.777	36.651	12.595	1.3207e-05	23.767	262.235	516.812	245.907	181.114	344.599	361.260	180.414	185.650	333.488	335.079	184.237	189.103	190.827	194.864	342.468	192.631	-8191	255	
16731.463	1	1	0	0	0.19749	0.21271	0.026667	0.23726	0.093056	0.12583	0.15095	0.14344	0.19606	0.21267	0.3575	0.1632	0.26138	0.3579	0.11883	0.32073	-1.6604	-2.5917	-2.7562	-2.2396	-2.8104	-2.3396	-2.6188	-2.5917	-2.0979	-2.5187	-2.5042	-2.2625	-2.5917	-2.6	-2.3729	-2.6354	477.791	283.090	508.011	386.475	460.256	400.295	359.395	276.508	307.520	457.172	461.835	280.567	519.499	411.103	420.070	516.123	0.00022596	0.00019934	4.8947e-05	503.22	1.7083e-06	3.2519e-06	536.49	131.95	2.6296e-06	1.7954e-06	170.59	53.114	36.557	12.564	2.9462e-06	23.869	0.0008829	0.0012684	0.00035688	495.69	1.2948e-05	1.3784e-05	530.29	131.63	1.274e-05	1.3933e-05	169.56	53.542	37.193	12.734	1.318e-05	24.13	264.613	444.169	220.521	180.936	381.538	302.458	180.681	185.654	340.784	248.649	184.720	189.029	190.678	194.852	248.667	192.872	-8191	255	
16731.559	1	1	0	0	0.15737	0.47512	0.19516	0.26804	0.14891	0.13229	0.14608	0.2945	0.2645	0.24478	0.52949	0.16436	0.090335	0.19759	0.13434	0.20379	-1.925	-2.625	-2.5271	-2.2417	-2.6458	-2.4958	-2.5187	-2.7729	-2.3271	-2.5354	-2.5187	-2.2	-2.6625	-2.5729	-2.275	-2.725	521.217	294.352	436.883	460.932	425.972	318.274	526.644	350.591	387.241	273.717	476.181	202.085	228.132	477.022	416.015	403.933	0.00021396	0.00017968	0.00010411	505.13	4.0618e-06	3.9767e-06	537.05	133.2	4.0573e-06	4.0504e-06	171.04	53.552	36.837	12.6	3.3751e-06	24.132	0.00085768	0.0012704	0.00036474	499.45	1.2674e-05	1.4168e-05	530.9	133.25	1.2866e-05	1.3472e-05	169.87	53.847	37.298	12.885	1.3405e-05	24.314	262.268	241.769	223.560	181.175	317.682	315.723	180.230	185.586	353.028	316.021	184.759	189.064	190.156	194.746	302.790	192.878	-8191	255	
16731.680	1	1	0	0	0.23451	0.048119	0.14812	0.30778	0.35394	0.088696	0.14502	0.16217	0.3024	0.07234	0.27754	0.092206	0.23483	0.093349	0.036973	0.33196	-1.8333	-2.4437	-2.4167	-2.25	-2.7	-2.5167	-2.3771	-2.4813	-2.4854	-2.3896	-2.6875	-2.2979	-2.6521	-2.5729	-2.2438	-2.6146	235.170	310.590	247.175	245.614	229.418	206.670	320.313	376.206	413.161	510.756	215.498	438.938	467.342	184.960	362.541	466.148	0.00026533	0.00022543	6.9062e-05	506.59	2.7422e-06	1.9374e-06	535.32	133.5	3.2539e-06	2.5333e-06	171.04	53.913	36.873	12.665	1.2317e-06	23.985	0.00088795	0.0012801	0.00036283	500.39	1.2992e-05	1.4384e-05	531.05	132.99	1.3127e-05	1.4191e-05	170.1	53.941	37.489	12.9	1.3716e-05	24.228	261.813	202.486	237.673	180.858	349.341	339.865	180.397	185.961	312.413	249.873	184.120	189.277	190.014	195.576	359.499	192.802	-8191	255	
16731.775	1	1	0	0	0.19379	0.14738	0.050887	0.15983	0.097948	0.086812	0.11745	0.16152	0.13875	0.052622	0.10107	0.17887	0.094538	0.11204	0.20664	0.2103	-1.9896	-2.425	-2.7167	-2.3771	-2.6813	-2.4479	-2.3479	-2.6833	-2.3646	-2.4375	-2.6437	-2.3521	-2.4771	-2.5062	-2.2771	-2.6958	333.255	320.710	465.628	453.111	184.925	229.780	402.576	491.754	476.409	241.597	472.463	179.522	501.047	279.178	171.245	441.354	0.00024555	5.4642e-05	4.8205e-05	508.05	1.7599e-06	1.807e-06	537.74	132.08	3.7683e-06	1.1935e-06	170.45	53.373	36.502	12.669	2.0607e-06	23.854	0.00089505	0.0013045	0.00036836	499.04	1.2916e-05	1.4351e-05	531.62	132.57	1.3287e-05	1.4218e-05	170.22	53.579	37.17	12.868	1.3747e-05	24.016	258.997	371.826	268.880	180.628	352.165	410.129	180.251	185.871	212.543	257.273	184.343	189.030	190.608	195.124	411.613	192.686	-8191	255	
16731.871	1	1	0	0	0.21037	0.054495	0.15532	0.22608	0.03975	0.095881	0.10598	0.14951	0.12525	0.15703	0.26702	0.012691	0.092649	0.12476	0.049466	0.1881	-1.8229	-2.2354	-2.6417	-2.2583	-2.4917	-2.7	-2.2875	-2.7271	-2.5708	-2.4562	-2.5896	-2.4333	-2.5021	-2.5438	-2.2292	-2.8125	352.619	281.584	490.505	402.712	428.471	421.653	199.666	304.033	428.582	476.521	190.577	265.701	391.829	500.398	256.373	471.897	0.00026504	0.00015124	9.3418e-05	509.3	2.6287e-06	2.7277e-06	539.75	134.22	3.1448e-06	4.6109e-06	172.02	53.977	37.326	12.739	1.76e-06	23.977	0.000908	0.00132	0.00036578	502.34	1.3485e-05	1.4844e-05	534.48	133.44	1.3725e-05	1.5052e-05	171.56	54.14	37.721	12.935	1.4415e-05	24.338	265.777	521.172	338.115	181.044	296.523	331.491	180.339	185.811	319.334	337.874	184.249	189.340	189.539	194.658	322.967	192.771	-8191	255	
16731.969	1	1	0	0	0.31195	0.09418	0.14961	0.13013	0.084484	0.13379	0.13015	0.080691	0.20616	0.28372	0.13908	0.12305	0.15129	0.054152	0.099107	0.16746	-2.0292	-2.2	-2.7125	-2.4792	-2.4333	-2.7917	-2.2	-2.575	-2.4958	-2.375	-2.7771	-2.4688	-2.3063	-2.8375	-2.1958	-2.5187	173.021	177.386	306.233	483.596	369.904	411.906	222.792	467.788	167.873	255.555	489.368	179.111	187.568	353.775	306.182	488.390	0.00026129	0.00016424	4.1658e-05	509.72	7.2683e-07	2.6037e-06	546.57	134.66	2.8553e-07	1.9823e-06	173.46	54.694	37.657	13.026	6.123e-06	24.389	0.00093657	0.0013463	0.00039271	505.2	1.3758e-05	1.5271e-05	541.86	134.88	1.4193e-05	1.5405e-05	173.79	54.944	38.339	13.2	1.4729e-05	24.667	261.835	279.616	332.823	181.137	288.418	245.556	180.408	185.543	391.873	419.367	184.189	188.967	189.271	194.969	324.561	192.903	-8191	255	
16732.064	1	1	0	0	0.30658	0.030907	0.073419	0.14735	0.084652	0.1342	0.028503	0.11822	0.0599	0.097427	0.19736	0.2323	0.25577	0.17184	0.13246	0.080815	-2.0729	-2.1042	-2.6542	-2.3812	-2.2354	-2.7771	-2.4208	-2.3729	-2.3604	-2.1104	-2.6937	-2.3542	-2.3771	-2.4958	-2.3083	-2.6146	226.539	259.405	271.118	486.247	444.246	305.718	231.351	381.176	275.722	484.772	350.697	439.752	403.456	406.093	432.976	239.994	0.00020584	0.00016404	0.00014515	520.13	5.0385e-06	3.0981e-06	550.92	138.78	6.8857e-06	3.7241e-06	175.14	55.274	38.83	13.17	3.4937e-06	24.43	0.00095261	0.0013911	0.00038697	512.46	1.3677e-05	1.5248e-05	544.07	137.87	1.4224e-05	1.5648e-05	175.39	55.676	39.326	13.394	1.4787e-05	24.678	273.711	330.080	226.095	180.915	362.053	365.280	180.450	185.883	355.415	329.547	184.573	188.912	189.897	194.924	360.719	192.331	-8191	255	
16732.160	1	1	0	0	0.03957	0.092158	0.18687	0.28181	0.10858	0.2481	0.29173	0.088589	0.15353	0.26507	0.18652	0.22268	0.063064	0.25961	0.22514	0.32157	-2.1312	-2.2375	-2.6417	-2.4104	-2.35	-2.7167	-2.4021	-2.5438	-2.5104	-2.5104	-2.5729	-2.5563	-2.3104	-2.7042	-2.2958	-2.4104	189.393	414.429	499.396	502.387	324.021	250.173	419.417	272.832	343.776	391.460	404.948	452.258	524.892	523.955	222.122	360.176	0.00028603	0.00016086	0.00011433	517.63	1.5098e-06	3.0573e-06	549.77	136.72	3.5855e-06	3.6344e-06	175.14	54.619	38.155	12.875	2.6683e-06	24.467	0.00094845	0.0014157	0.00040082	511.74	1.4178e-05	1.534e-05	544.49	137.02	1.4567e-05	1.5281e-05	174.86	55.239	38.612	13.204	1.4742e-05	24.703	268.744	326.852	283.333	181.018	514.934	420.936	180.249	185.756	464.215	299.529	184.284	188.659	189.796	194.910	346.538	192.335	-8191	255	
16732.279	1	1	0	0	0.21711	0.078315	0.2942	0.18195	0.21201	0.18634	0.12408	0.061337	0.097361	0.094862	0.10313	0.2236	0.22681	0.37767	0.15358	0.15305	-2.1604	-2.1833	-2.5687	-2.4229	-2.4021	-2.6042	-2.2542	-2.3875	-2.7104	-2.3021	-2.7271	-2.375	-2.3958	-2.7396	-2.4083	-2.4479	263.401	484.294	315.080	177.219	359.903	233.117	485.803	275.223	495.331	297.970	410.486	493.256	436.082	254.576	169.061	348.907	0.00020611	0.00034341	9.4632e-05	518.84	3.2215e-06	4.7489e-06	549.26	135.75	1.8621e-06	1.8513e-06	175.98	54.729	37.407	12.96	2.197e-06	24.423	0.00096471	0.0014243	0.00040118	511.7	1.4387e-05	1.5299e-05	543.72	136.32	1.4671e-05	1.508e-05	174.91	55.11	38.198	13.193	1.4689e-05	24.614	264.627	486.199	244.859	181.034	334.729	292.506	180.235	185.686	366.968	371.978	184.188	189.011	190.236	194.639	374.883	192.235	-8191	255	
16732.375	1	1	0	0	0.18498	0.066354	0.056253	0.13433	0.16821	0.21263	0.067725	0.35046	0.10926	0.28459	0.15141	0.20706	0.19873	0.13222	0.16109	0.14192	-2.1875	-2.1375	-2.5312	-2.4417	-2.0917	-2.7396	-2.3333	-2.3625	-2.6375	-2.3729	-2.4188	-2.6917	-2.3646	-2.5875	-2.4146	-2.3417	478.008	176.673	239.824	442.785	212.877	365.989	415.405	484.895	427.031	309.382	314.858	517.700	245.554	186.708	464.140	288.355	0.00023941	0.00040914	0.0001527	518.2	8.3041e-07	1.1051e-06	556.4	138.37	2.4834e-06	1.4147e-06	176.79	55.222	38.13	13.019	5.1747e-06	24.471	0.00095444	0.0013946	0.00037998	513.39	1.4078e-05	1.5077e-05	549.61	137.71	1.4015e-05	1.4912e-05	175.91	55.61	38.712	13.262	1.4e-05	24.739	260.382	267.294	212.530	180.977	259.200	248.654	180.223	185.533	299.472	363.030	184.480	189.274	189.959	194.701	406.078	192.178	-8191	255	
16732.471	1	1	0	0	0.018912	0.047435	0.063653	0.16601	0.076459	0.10508	0.17429	0.30828	0.071909	0.16938	0.06236	0.10008	0.13572	0.18584	0.14471	0.20594	-2.3	-2.4021	-2.3625	-2.4292	-2.1042	-2.6063	-2.6625	-2.2729	-2.5875	-2.2479	-2.5667	-2.5271	-2.1833	-2.6	-2.4437	-2.1792	372.674	414.174	374.838	493.884	278.942	242.252	458.260	477.951	243.114	477.805	167.924	523.354	486.767	272.745	182.571	486.539	0.00024985	0.000333	2.995e-05	518.48	2.8192e-06	3.613e-06	555.35	137.65	2.7046e-06	6.903e-06	174.57	54.735	37.967	12.91	3.2928e-06	24.242	0.00089563	0.0013145	0.00036203	512.25	1.3602e-05	1.4453e-05	545.23	136.74	1.3818e-05	1.4594e-05	174.23	55.101	38.465	13.163	1.3868e-05	24.573	267.940	391.038	189.353	181.050	237.565	283.570	180.443	185.580	288.571	313.779	184.056	188.973	190.204	194.480	329.304	192.550	-8191	255	
16732.566	1	1	0	0	0.23521	0.1781	0.11471	0.088622	0.22081	0.052863	0.18637	0.27507	0.068366	0.10939	0.20821	0.24158	0.15918	0.22012	0.13124	0.12496	-2.2396	-2.3021	-2.4813	-2.7271	-2.4313	-2.6792	-2.6708	-2.3354	-2.7104	-2.6333	-2.2521	-2.7938	-2.4313	-2.5875	-2.6104	-2.4167	289.316	264.924	273.321	494.135	334.531	278.022	484.066	502.854	226.126	259.615	500.179	502.070	193.936	195.824	520.503	237.819	0.0002679	0.00022576	4.6473e-05	514.16	2.0585e-06	5.3739e-06	550.17	136.43	2.7832e-06	3.6386e-06	174.26	55.169	37.598	12.98	1.6724e-06	24.201	0.00091332	0.001319	0.00036724	508.41	1.3305e-05	1.4561e-05	543.98	135.7	1.3426e-05	1.4893e-05	174.07	55.205	38.321	13.157	1.4033e-05	24.491	266.740	284.384	343.853	181.111	318.103	341.229	180.375	186.063	330.773	333.622	184.535	189.013	189.899	194.753	500.397	192.378	-8191	255	
16732.688	1	1	0	0	0.24317	0.29757	0.064334	0.14125	0.07954	0.14165	0.091354	0.07606	0.063731	0.030541	0.23909	0.26412	0.10951	0.050199	0.095791	0.11468	-2.2042	-2.4979	-2.4313	-2.7958	-2.4146	-2.6188	-2.7042	-2.3146	-2.8104	-2.4688	-2.3937	-2.6063	-2.4396	-2.4688	-2.6208	-2.2958	316.928	322.849	348.449	174.496	504.540	373.907	232.882	204.331	202.559	233.016	386.468	339.199	299.796	357.598	463.964	310.420	0.00016898	0.00025345	0.00010226	519.41	1.4605e-06	2.7466e-06	550.78	138.11	1.2574e-06	4.9193e-06	175.66	55.086	37.705	12.931	1.0211e-06	24.126	0.00090815	0.0013071	0.00036617	513.77	1.2902e-05	1.4075e-05	546.35	137.32	1.3061e-05	1.467e-05	175.38	55.288	38.557	13.134	1.3632e-05	24.488	257.501	267.855	314.784	180.774	290.389	365.483	180.416	185.719	324.914	336.639	184.343	188.708	190.431	195.016	308.678	192.835	-8191	255	
16732.760	1	1	0	0	0.20629	0.08113	0.10867	0.090772	0.07519	0.16045	0.14038	0.064023	0.24469	0.25861	0.20175	0.21621	0.064357	0.25489	0.46687	0.17139	-2.4354	-2.5604	-2.4188	-2.9833	-2.3667	-2.4771	-2.7021	-2.3042	-2.6	-2.6625	-2.2708	-2.7062	-2.3667	-2.4271	-2.6708	-2.4375	297.593	321.165	351.540	483.569	384.343	290.185	520.747	322.895	352.901	370.403	214.026	231.163	476.372	286.418	509.491	495.525	0.00023241	0.00031014	0.00011233	521.64	1.5209e-06	4.1977e-06	555.93	138.74	2.385e-06	1.6722e-06	176.34	55.334	37.921	13.009	2.2192e-06	24.626	0.00089578	0.0012812	0.00036506	515.29	1.2974e-05	1.4396e-05	550.08	137.66	1.2872e-05	1.4281e-05	176.3	55.768	38.71	13.289	1.383e-05	24.789	262.158	290.987	230.268	180.869	220.462	334.664	180.387	186.058	363.629	272.320	184.468	189.025	189.871	194.404	322.779	192.277	-8191	255	
16732.855	1	1	0	0	0.1767	0.22033	0.065374	0.18658	0.23377	0.2216	0.11857	0.08598	0.22256	0.14807	0.05467	0.22216	0.11671	0.16031	0.21756	0.12518	-2.1708	-2.5	-2.1312	-2.7812	-2.2667	-2.4292	-2.8021	-2.2104	-2.4938	-2.6146	-2.3646	-2.7438	-2.3271	-2.2875	-2.7479	-2.4021	226.878	257.285	268.734	415.754	256.596	367.616	352.402	411.882	191.073	489.057	364.407	331.098	523.862	189.785	335.000	185.786	0.00022361	0.0001624	6.8695e-05	523.81	1.5251e-06	3.4317e-06	557.72	137.84	4.0153e-06	1.537e-06	179.46	55.751	38.944	13.213	2.5523e-06	24.672	0.0008795	0.001247	0.00035136	516.61	1.2712e-05	1.3869e-05	550.74	138.4	1.2762e-05	1.3682e-05	177.18	55.997	39.137	13.372	1.3009e-05	24.806	259.493	517.800	266.350	180.857	340.547	308.113	180.149	185.731	264.199	312.416	184.344	189.188	190.276	194.609	389.386	192.284	-8191	255	
16732.951	1	1	0	0	0.23566	0.14345	0.071	0.060987	0.083765	0.22325	0.15313	0.17588	0.20623	0.20677	0.088042	0.23523	0.30091	0.21021	0.11108	0.096615	-2.1292	-2.6708	-2.3521	-2.7146	-2.3125	-2.4375	-2.7708	-2.4167	-2.3625	-2.6292	-2.3208	-2.7542	-2.5896	-2.2979	-2.8	-2.2562	271.005	168.734	236.799	440.887	323.690	385.110	334.162	211.169	236.782	484.227	282.059	200.925	211.359	266.743	196.428	443.750	0.00025523	0.00042494	2.8734e-05	520.09	1.6026e-06	2.6114e-06	554.83	138.75	1.4922e-06	2.4664e-06	176.8	55.914	38.548	13.302	2.406e-06	24.513	0.00089348	0.0012408	0.00034706	516.15	1.2646e-05	1.3371e-05	547.84	138.46	1.2764e-05	1.3979e-05	176.07	55.899	39.133	13.394	1.3156e-05	24.742	262.915	518.909	246.164	180.927	301.666	335.638	180.253	185.940	323.869	305.775	184.216	189.073	189.707	194.719	437.824	192.965	-8191	255	
16733.070	1	1	0	0	0.30917	0.18866	0.1679	0.10347	0.25394	0.3149	0.12819	0.1557	0.17439	0.19556	0.21383	0.08085	0.025867	0.21949	0.16466	0.13718	-1.9271	-2.5458	-2.3042	-2.6354	-2.4604	-2.325	-2.7667	-2.3042	-2.4042	-2.6542	-2.1354	-2.4625	-2.4271	-2.2062	-2.6625	-2.5208	438.323	363.317	455.745	449.705	257.636	326.217	384.538	472.231	502.306	523.480	356.837	223.771	405.063	183.474	214.576	175.466	0.00024455	0.00047629	0.00014253	520.99	1.1825e-06	6.3153e-06	550.57	139.09	4.3548e-06	5.4989e-06	176.38	55.781	38.327	13	2.4221e-06	24.375	0.00088811	0.0012397	0.00035154	514.99	1.2667e-05	1.3687e-05	546.76	138.06	1.2631e-05	1.4176e-05	176.04	55.714	38.926	13.262	1.2782e-05	24.541	261.739	262.249	275.415	181.133	379.426	298.083	180.465	185.899	309.453	321.737	184.717	188.877	189.826	195.167	253.418	192.284	-8191	255	
16733.168	1	1	0	0	0.13573	0.15089	0.17099	0.13232	0.26115	0.16956	0.0027182	0.26343	0.20445	0.023011	0.081215	0.11979	0.20874	0.14937	0.12134	0.10463	-1.9708	-2.6146	-2.2417	-2.6167	-2.625	-2.3458	-2.7229	-2.5417	-2.325	-2.8083	-2.4583	-2.6479	-2.7792	-2.2687	-2.8937	-2.5563	193.100	229.587	171.813	225.605	466.162	397.761	336.541	476.596	516.960	412.023	231.850	470.095	428.824	170.887	523.474	517.100	0.00025725	0.00030855	7.8356e-05	523.72	2.6658e-06	5.7023e-07	557.52	138.24	3.7657e-06	3.0232e-06	178.14	56.009	38.401	13.048	1.4234e-06	24.404	0.00087798	0.0012179	0.00035258	515.68	1.3355e-05	1.3799e-05	550.59	137.71	1.2906e-05	1.4026e-05	177.06	55.888	39.06	13.286	1.3323e-05	24.714	245.440	178.622	232.859	180.945	287.226	336.177	180.367	185.783	314.172	307.274	184.196	188.773	189.915	195.297	361.254	192.468	-8191	255	
16733.264	1	1	0	0	0.2494	0.031945	0.089126	0.042972	0.17323	0.042208	0.29944	0.41136	0.15445	0.22942	0.35411	0.37918	0.060755	0.14229	0.1797	0.27225	-1.975	-2.6312	-2.4021	-2.3542	-2.6292	-2.1604	-2.55	-2.4562	-2.2667	-2.7396	-2.2313	-2.4104	-2.4667	-2.2646	-2.6333	-2.4938	189.621	424.439	298.506	415.609	510.914	517.998	329.877	429.268	485.260	459.776	436.619	501.951	195.980	511.350	485.702	521.227	0.00026009	0.00011345	0.00013252	523.6	2.0902e-06	3.394e-06	560.85	139.5	2.3994e-06	6.9333e-06	178.46	56.35	38.73	13.068	2.7703e-06	24.359	0.00090513	0.0012295	0.00034204	517.42	1.2797e-05	1.3427e-05	553.31	138.61	1.2447e-05	1.4395e-05	177.22	56.134	39.142	13.307	1.2875e-05	24.653	259.795	175.833	231.840	180.962	310.431	217.362	180.300	185.519	314.164	320.327	184.240	189.079	190.048	194.557	292.559	192.251	-8191	255	
16733.359	1	1	0	0	0.084961	0.12211	0.12746	0.014432	0.34984	0.073341	0.24757	0.25734	0.03334	0.1223	0.21302	0.14713	0.055246	0.20731	0.097729	0.32667	-1.8354	-2.5396	-2.1458	-2.3417	-2.7188	-2.3417	-2.5979	-2.4979	-2.1917	-2.5521	-2.4042	-2.3729	-2.5312	-2.3833	-2.675	-2.4938	410.381	217.728	188.618	270.189	475.043	524.933	442.396	482.070	197.374	487.413	497.944	474.151	481.926	346.267	434.576	404.806	0.00025105	0.00034014	0.00010062	520.93	2.8587e-06	1.2732e-06	558.1	138.8	2.0432e-06	3.732e-06	175.48	55.324	38.563	12.935	1.8546e-06	23.946	0.00088299	0.0012231	0.00035033	515.74	1.2798e-05	1.3503e-05	547.27	138.02	1.2785e-05	1.3999e-05	174.6	55.059	38.747	13.114	1.2947e-05	24.117	268.580	222.028	251.686	180.746	288.432	373.814	180.310	185.970	307.498	302.504	184.200	189.113	189.777	194.779	463.332	192.372	-8191	255	
16733.455	1	1	0	0	0.2743	0.16466	0.11923	0.16965	0.29388	0.10092	0.16496	0.16941	0.24867	0.27062	0.19343	0.035136	0.23963	0.3682	0.2352	0.16292	-1.9042	-2.7146	-2.3792	-2.3042	-2.8563	-2.1292	-2.5021	-2.4667	-2.2083	-2.6625	-2.3875	-2.2708	-2.6396	-2.5	-2.55	-2.675	316.999	520.463	459.487	433.818	177.380	198.746	417.948	467.637	277.408	273.549	497.132	335.364	177.935	437.379	281.071	427.094	0.00025406	0.00013182	7.2103e-05	520.9	1.1035e-06	3.0963e-06	547.83	137.68	3.8237e-06	3.7403e-06	173.68	54.354	37.762	12.783	9.8784e-07	23.913	0.00087276	0.0012089	0.00034328	513.52	1.2379e-05	1.3434e-05	541.05	136.86	1.25e-05	1.3838e-05	173.44	54.551	38.271	12.97	1.2541e-05	24.007	260.358	296.904	227.356	180.892	451.373	389.395	180.398	185.666	300.443	328.196	184.597	189.457	190.309	195.261	261.687	192.659	-8191	255	
16733.553	1	1	0	0	0.12103	0.070476	0.20639	0.1426	0.34026	0.17994	0.25602	0.21599	0.20373	0.31218	0.060519	0.1451	0.24811	0.11221	0.071539	0.10731	-1.7854	-2.5208	-2.5021	-2.4271	-2.6833	-2.3854	-2.6854	-2.7375	-2.1083	-2.6729	-2.5854	-2.2146	-2.6188	-2.2979	-2.3104	-2.6625	224.273	347.756	439.363	195.847	302.951	372.318	428.552	473.955	509.331	211.212	483.040	169.844	489.257	506.244	398.064	309.892	0.00021833	9.5381e-05	2.472e-05	517.29	7.7451e-07	3.6817e-06	548.95	138.51	3.2225e-06	2.7072e-06	174.09	54.079	37.846	12.869	6.105e-06	23.857	0.00085003	0.0012256	0.00033602	513.24	1.2403e-05	1.3193e-05	543.37	137.59	1.2216e-05	1.2984e-05	173.53	54.373	38.417	13.04	1.2611e-05	24.087	266.753	248.450	430.074	180.766	367.911	339.595	180.324	185.487	325.913	295.795	184.300	188.894	190.870	194.708	348.769	191.829	-8191	255	
16733.648	1	1	0	0	0.19386	0.14808	0.33711	0.057921	0.24604	0.023419	0.23544	0.082378	0.11374	0.40407	0.18736	0.24082	0.17916	0.050711	0.16641	0.10715	-1.8771	-2.5354	-2.5396	-2.4771	-2.7375	-2.5833	-2.6437	-2.9354	-2.4167	-2.5125	-2.5104	-2.3375	-2.7188	-2.4708	-2.3167	-2.7271	189.701	266.761	375.699	466.102	245.695	190.262	457.098	375.890	394.510	473.735	209.280	507.000	246.387	472.024	376.586	382.841	0.00024241	0.00022475	3.3112e-05	518.72	1.7076e-06	3.0909e-06	548.8	137.91	3.9314e-06	5.3605e-06	172.96	54.563	38.475	12.823	4.3972e-06	23.835	0.00083377	0.0011572	0.00032014	513.62	1.1915e-05	1.2977e-05	541.38	137.84	1.1769e-05	1.2916e-05	173.43	54.552	38.637	13.017	1.1883e-05	24.011	265.458	316.258	244.316	180.921	420.873	362.024	180.460	185.884	351.903	317.900	184.265	188.890	190.085	194.525	316.833	192.368	-8191	255	
16733.768	1	1	0	0	0.1475	0.22703	0.21918	0.14798	0.1086	0.25376	0.24599	0.16038	0.211	0.09423	0.10468	0.18531	0.28818	0.040561	0.17933	0.040844	-1.9208	-2.55	-2.5521	-2.2458	-2.7042	-2.5583	-2.4188	-2.8125	-2.5312	-2.4708	-2.6917	-2.2583	-2.7125	-2.5062	-2.3625	-2.8021	239.199	522.597	393.606	207.111	460.000	175.770	423.617	336.237	223.621	470.133	275.918	429.215	505.789	331.941	368.105	272.282	0.00020335	0.00048734	4.7685e-05	516.97	2.2927e-06	8.212e-07	545.08	137.46	3.1933e-06	2.6343e-06	173.49	54.2	38.023	12.831	4.3291e-06	23.649	0.00081088	0.0011343	0.00032012	509.56	1.1691e-05	1.2527e-05	538.62	136.36	1.1746e-05	1.2386e-05	172.38	54.119	38.302	12.929	1.1972e-05	23.836	260.899	281.939	202.305	180.935	302.456	385.149	180.392	185.877	310.567	353.998	183.919	188.974	189.743	194.213	375.121	192.011	-8191	255	
16733.863	1	1	0	0	0.32025	0.179	0.11035	0.22632	0.035105	0.117	0.089723	0.066362	0.16944	0.29688	0.18726	0.18962	0.2155	0.45166	0.15068	0.26519	-1.8375	-2.5125	-2.5917	-2.3771	-2.5438	-2.3021	-2.4292	-2.6604	-2.4271	-2.3312	-2.9083	-2.4208	-2.5854	-2.5417	-2.3708	-2.825	206.750	291.107	180.516	488.232	468.590	232.401	432.051	463.174	292.493	297.604	440.335	318.344	489.304	181.005	461.362	413.488	0.00025853	2.9824e-05	8.5417e-05	516.93	4.4126e-06	2.5056e-06	542.71	136.06	1.2158e-06	2.4003e-06	172.01	53.733	37.608	12.653	4.037e-06	23.579	0.00080167	0.0011084	0.0003128	508.44	1.1682e-05	1.2705e-05	535.2	135.46	1.1362e-05	1.2276e-05	171.37	53.724	38.017	12.764	1.1514e-05	23.678	265.768	292.108	207.929	180.476	289.296	256.351	180.286	185.980	191.124	321.203	183.659	188.941	190.251	194.740	350.232	192.431	-8191	255	
16733.961	1	1	0	0	0.12374	0.2042	0.096452	0.18037	0.30756	0.045291	0.20157	0.13259	0.1066	0.28977	0.09813	0.30739	0.22509	0.12039	0.26676	0.15977	-1.9021	-2.3042	-2.5729	-2.3479	-2.4688	-2.6167	-2.1979	-2.8292	-2.2604	-2.3375	-2.5792	-2.3375	-2.3771	-2.5563	-2.2896	-2.4792	392.779	212.528	179.826	383.980	454.140	245.215	490.164	438.508	483.004	397.643	453.552	178.816	526.545	386.445	193.199	463.938	0.00025094	0.00022298	9.127e-05	512.26	1.0314e-06	3.2976e-06	545.99	137.05	1.5092e-06	4.1823e-06	173.19	53.461	37.826	12.82	4.396e-06	23.666	0.00079404	0.0011191	0.00032036	507.86	1.163e-05	1.2901e-05	537.04	136.04	1.1852e-05	1.2695e-05	171.86	53.896	38.068	12.925	1.1687e-05	23.798	257.616	307.892	298.062	180.558	238.219	292.554	180.072	185.849	309.248	281.671	184.126	188.632	190.211	194.269	255.090	192.085	-8191	255	
16734.057	1	1	0	0	0.033447	0.13381	0.23186	0.18457	0.19361	0.14373	0.14836	0.10674	0.17236	0.12503	0.22771	0.13643	0.21405	0.1261	0.046203	0.25358	-1.9208	-2.2521	-2.4833	-2.2812	-2.5021	-2.4583	-2.3063	-2.4708	-2.5875	-2.1979	-2.75	-2.4396	-2.5729	-2.5042	-2.2229	-2.725	175.529	252.306	214.422	517.150	221.832	351.115	418.586	429.656	212.744	277.308	255.103	485.031	286.251	479.626	519.934	444.199	0.00024767	0.00025749	0.00012808	519.49	2.3372e-06	3.5064e-07	549.8	137.6	2.9308e-06	2.8173e-06	174.91	54.67	38.123	13.029	2.6008e-06	24.234	0.00080813	0.0011288	0.00031267	510.88	1.1372e-05	1.2581e-05	543.01	136.94	1.1498e-05	1.241e-05	174.13	54.997	38.746	13.18	1.2003e-05	24.36	259.763	250.374	266.838	180.938	289.226	358.694	180.272	185.394	363.185	282.546	184.383	188.827	189.991	195.126	508.163	192.263	-8191	255	
16734.152	1	1	0	0	0.18187	0.14012	0.089322	0.39258	0.2858	0.17107	0.16429	0.29904	0.20477	0.24852	0.1862	0.1303	0.19399	0.35646	0.11496	0.19274	-2.1063	-2.2062	-2.7208	-2.2875	-2.3292	-2.5729	-2.4437	-2.5208	-2.5396	-2.2958	-2.8604	-2.5333	-2.3479	-2.6	-2.2062	-2.3604	490.741	220.563	517.773	169.713	264.805	311.104	409.901	387.451	252.537	470.814	440.563	238.336	336.737	173.951	208.943	504.958	0.0002033	0.00028523	8.3621e-05	521.56	5.6901e-07	4.4024e-06	553.66	140.05	1.8696e-06	6.0287e-06	175.95	55.251	38.706	13.341	4.0699e-06	24.569	0.00081871	0.0010989	0.0003107	515.49	1.1375e-05	1.2838e-05	547.62	138.54	1.1549e-05	1.2613e-05	175.53	55.562	39.397	13.425	1.1755e-05	24.647	265.850	249.813	241.889	180.420	335.757	345.028	180.530	185.859	445.127	353.604	184.227	188.746	190.454	194.823	335.464	192.154	-8191	255	
16734.246	1	1	0	0	0.27558	0.26723	0.11431	0.14632	0.29714	0.042359	0.11806	0.2017	0.15632	0.28704	0.14029	0.066062	0.11495	0.20367	0.17582	0.10443	-2.0229	-2.2562	-2.4542	-2.3604	-2.2646	-2.875	-2.3708	-2.4188	-2.6708	-2.1729	-2.6813	-2.3375	-2.475	-2.5396	-2.5062	-2.5604	476.822	373.746	508.919	207.908	407.098	413.014	404.801	259.416	497.113	207.536	435.739	190.753	256.563	236.284	435.849	503.831	0.00022432	0.00029457	4.3002e-05	525.6	7.972e-07	2.6129e-06	551.62	141.81	5.4925e-06	3.7699e-06	177.31	55.788	39.598	13.448	2.0299e-06	24.43	0.00080849	0.0011229	0.00031001	518.64	1.1159e-05	1.2679e-05	544.84	140.7	1.1357e-05	1.2195e-05	176.64	55.927	40.066	13.582	1.1587e-05	24.573	262.759	249.564	407.575	180.485	368.473	361.233	180.238	185.708	330.824	312.099	184.135	188.831	189.692	194.655	279.018	192.205	-8191	255	
16734.367	1	1	0	0	0.27946	0.1725	0.16734	0.11176	0.19004	0.17927	0.1633	0.086892	0.27161	0.30585	0.2491	0.066915	0.15026	0.22907	0.25912	0.12344	-2.1229	-2.1833	-2.575	-2.5167	-2.2708	-2.7521	-2.3375	-2.4208	-2.5396	-2.2979	-2.5521	-2.4583	-2.4646	-2.7354	-2.3354	-2.325	393.594	305.109	488.862	496.749	432.150	444.499	475.455	168.060	167.950	242.163	398.124	506.475	455.367	178.261	234.471	353.281	0.00025766	0.00030988	8.6438e-05	527.63	3.2113e-06	4.3181e-06	553.87	140.99	1.9268e-06	2.9781e-06	178.65	55.824	39.572	13.331	4.7038e-06	24.256	0.00079938	0.001142	0.00031207	520.42	1.1313e-05	1.2792e-05	547.27	140.46	1.1361e-05	1.1947e-05	177.36	56.009	39.735	13.483	1.1652e-05	24.524	264.367	200.865	292.412	180.961	286.645	286.779	180.602	185.788	322.157	347.292	184.484	188.885	189.861	194.335	289.279	192.142	-8191	255	
16734.465	1	1	0	0	0.068095	0.15941	0.093984	0.071722	0.09067	0.28142	0.21204	0.1316	0.24091	0.098801	0.19631	0.16902	0.18693	0.22168	0.13093	0.25876	-2.2292	-2.1312	-2.7208	-2.5792	-2.1958	-2.6708	-2.3146	-2.2188	-2.6	-2.3896	-2.7062	-2.7542	-2.1354	-2.7792	-2.2771	-2.2667	519.698	304.770	199.756	168.098	343.945	332.300	489.235	448.393	207.398	499.900	486.255	184.337	464.039	339.475	310.140	322.988	0.00024294	0.00031645	7.8726e-05	526.59	2.8327e-06	9.6026e-07	556.02	142.19	4.987e-06	6.0888e-07	177.93	55.846	39.785	13.318	3.6098e-06	24.447	0.00080202	0.0011041	0.00030333	520.66	1.1479e-05	1.2392e-05	548.01	141.56	1.1558e-05	1.2412e-05	177.5	56.153	40.262	13.529	1.1463e-05	24.549	260.992	329.590	282.925	180.757	257.627	326.309	180.505	185.697	353.529	333.814	184.599	188.743	189.565	194.463	326.759	192.714	-8191	255	
16734.561	1	1	0	0	0.1597	0.13068	0.13407	0.2566	0.29341	0.11728	0.10713	0.14715	0.33039	0.10465	0.21322	0.11078	0.22751	0.088738	0.12242	0.13707	-2.125	-2.3375	-2.3771	-2.6208	-2.2146	-2.5104	-2.4104	-2.3417	-2.6833	-2.3688	-2.5	-2.6708	-1.9896	-2.6688	-2.4938	-2.1958	183.627	202.573	355.358	486.732	180.974	254.200	500.820	487.858	435.890	283.794	455.710	232.803	358.311	421.584	435.383	443.240	0.00024503	0.00028665	0.0001881	530.53	2.6305e-06	2.4151e-06	558.94	143.98	1.0533e-06	2.1249e-06	180.21	56.976	40.293	13.612	3.0283e-06	24.69	0.00079339	0.0010952	0.00030528	524.38	1.1122e-05	1.1955e-05	550.93	142.74	1.1004e-05	1.1991e-05	178.82	56.873	40.811	13.791	1.125e-05	24.856	257.859	256.989	254.754	180.871	323.645	349.128	180.458	185.515	317.824	260.904	184.229	188.746	190.265	194.247	305.597	192.417	-8191	255	
16734.633	1	1	0	0	0.17513	0.32561	0.16288	0.086835	0.11534	0.12836	0.21931	0.17102	0.13132	0.16296	0.18469	0.18518	0.19152	0.22115	0.077062	0.14361	-2.2729	-2.2333	-2.2646	-2.6333	-2.2958	-2.4938	-2.5396	-2.1354	-2.8688	-2.4396	-2.4208	-2.5792	-2.3292	-2.5354	-2.5125	-2.0062	339.862	298.193	297.642	240.096	478.659	410.576	509.444	204.855	386.103	404.169	500.584	185.661	485.881	416.859	171.861	337.654	0.00024519	0.00034041	6.5391e-05	535.78	2.9576e-06	2.9712e-06	559.71	145.45	2.3209e-06	6.6987e-07	181.08	57.33	41.455	13.928	1.9851e-06	24.691	0.00078712	0.0010944	0.00029784	528.44	1.1015e-05	1.1932e-05	552.42	144.37	1.1358e-05	1.2001e-05	179.68	57.241	41.54	13.979	1.1169e-05	24.809	264.691	270.547	315.607	180.800	279.375	422.871	179.863	185.803	237.230	379.303	184.241	188.589	190.047	194.712	415.588	192.302	-8191	255	
16734.754	1	1	0	0	0.039083	0.25266	0.16897	0.18605	0.23544	0.075333	0.16446	0.24322	0.037699	0.011405	0.20805	0.22739	0.21667	0.15762	0.26919	0.29849	-2.275	-2.3833	-2.1708	-2.7354	-2.3021	-2.5208	-2.5333	-2.2875	-2.4854	-2.4979	-2.3542	-2.7979	-2.1083	-2.5625	-2.6375	-2.325	503.436	465.784	357.354	299.134	189.304	366.563	490.159	488.185	286.438	270.949	425.926	190.581	440.697	209.716	485.038	460.479	0.00024381	0.0004244	3.6255e-05	538.12	1.0999e-06	1.9743e-06	559.29	146.32	2.317e-06	4.0891e-06	180.4	56.84	41.301	13.82	4.8758e-06	24.489	0.00077912	0.0010706	0.00029339	531.74	1.0867e-05	1.1675e-05	551.89	145.75	1.1063e-05	1.1937e-05	180.12	57.037	41.42	13.925	1.1444e-05	24.639	259.379	300.604	233.685	180.743	432.101	335.000	180.212	185.785	331.498	338.096	183.718	188.530	190.409	194.783	369.747	192.560	-8191	255	
16734.850	1	1	0	0	0.18534	0.10758	0.21507	0.21278	0.05577	0.1793	0.21025	0.27452	0.22339	0.24008	0.24765	0.14439	0.060227	0.13746	0.0066364	0.22028	-2.2	-2.5333	-2.2354	-2.7375	-2.1729	-2.4646	-2.6229	-2.3063	-2.55	-2.6104	-2.4458	-2.6312	-2.2646	-2.3937	-2.8063	-2.3042	413.170	479.734	345.590	486.089	234.932	426.555	430.621	420.777	173.524	304.759	414.236	496.938	309.283	263.171	232.450	508.967	0.00026073	0.00026292	6.54e-05	537.88	5.0312e-06	1.5656e-06	562.41	145.24	1.1885e-06	2.6507e-06	180.57	57.108	40.594	13.714	5.5333e-06	24.606	0.00077334	0.0010931	0.00030455	529.82	1.1259e-05	1.2204e-05	552.18	144.16	1.1172e-05	1.2144e-05	179.38	56.942	40.853	13.797	1.1476e-05	24.734	255.140	248.643	201.367	181.043	305.969	326.815	180.041	185.467	298.207	313.166	183.984	188.688	189.744	195.134	321.451	192.086	-8191	255	
16734.945	1	1	0	0	0.18723	0.071626	0.1038	0.23114	0.30129	0.1157	0.045342	0.205	0.078638	0.32428	0.23076	0.12835	0.27443	0.15868	0.25674	0.22081	-2.2792	-2.6063	-2.1	-2.925	-2.3438	-2.5146	-2.7	-2.2208	-2.55	-2.5604	-2.0833	-2.6396	-2.3333	-2.2875	-2.625	-2.3	234.924	340.980	478.837	448.757	216.049	173.747	316.504	476.501	511.144	489.731	388.864	389.138	398.119	449.490	445.153	178.310	0.00024398	0.00010448	0.00011319	539.03	6.0849e-06	5.2055e-06	563.26	146.25	1.4328e-06	5.75e-06	183.15	57.118	40.656	13.699	2.5335e-06	24.834	0.00078285	0.001131	0.00029791	530.48	1.1103e-05	1.2109e-05	556.56	144.71	1.1248e-05	1.2316e-05	181.41	57.271	41.167	13.872	1.1338e-05	24.952	256.599	338.373	242.784	180.704	318.800	358.841	180.431	185.745	328.054	313.832	184.247	188.408	189.963	194.456	393.530	191.812	-8191	255	
16735.041	1	1	0	0	0.16039	0.10179	0.15878	0.19085	0.14961	0.14655	0.17492	0.20932	0.30342	0.27811	0.16697	0.1691	0.27571	0.1831	0.28865	0.058796	-2.2417	-2.5938	-2.1688	-2.7125	-2.2875	-2.3	-2.9437	-2.1833	-2.5771	-2.6479	-2.325	-2.8604	-2.2729	-2.3625	-2.6896	-2.1271	226.149	229.797	350.546	400.939	458.697	264.646	378.706	389.982	449.030	526.645	465.121	266.254	410.144	476.903	288.746	330.901	0.00026302	0.00033875	5.9441e-05	540.51	3.7606e-06	1.796e-06	563.63	147.45	5.6058e-06	1.9893e-06	182.96	57.633	41.345	14.067	2.9963e-06	24.913	0.00078399	0.0011246	0.00029984	532.61	1.0846e-05	1.2078e-05	555.85	146.1	1.1185e-05	1.2082e-05	181.41	57.639	41.611	14.102	1.1206e-05	25.016	258.742	212.893	202.461	180.835	342.513	302.450	180.273	185.644	335.822	278.773	184.140	189.073	190.101	195.081	320.360	192.194	-8191	255	
16735.160	1	1	0	0	0.10612	0.1314	0.084276	0.22472	0.13503	0.024018	0.16424	0.34326	0.19517	0.14245	0.20916	0.18889	0.33765	0.37675	0.16944	0.24076	-1.8646	-2.6167	-2.1417	-2.8	-2.4062	-2.0229	-3.0187	-2.2146	-2.4979	-2.5458	-2.2229	-2.6146	-2.5042	-2.2938	-2.6458	-2.2667	209.940	300.271	441.398	477.976	416.981	351.733	411.546	441.086	273.860	512.837	450.688	181.332	437.644	356.917	442.738	466.103	0.00024443	0.00034664	0.00010387	543.14	3.6243e-06	4.5405e-06	560.54	145.79	8.5538e-07	3.4146e-06	181.59	57.035	40.922	13.625	5.834e-06	24.626	0.00077099	0.0011027	0.00030065	532.13	1.0956e-05	1.2326e-05	554.06	145.18	1.1116e-05	1.2144e-05	180.74	57.105	41.259	13.942	1.1675e-05	24.917	260.716	267.259	278.082	180.981	330.902	279.500	179.997	185.664	501.444	324.342	183.761	188.674	190.303	194.589	300.111	192.648	-8191	255	
16735.232	1	1	0	0	0.10234	0.049448	0.13516	0.25319	0.23359	0.15327	0.11394	0.182	0.24432	0.18769	0.14706	0.23273	0.15378	0.11755	0.26983	0.099454	-1.9833	-2.8042	-2.2979	-2.5958	-2.7042	-2.1208	-2.725	-2.3667	-2.2542	-2.6708	-2.2521	-2.4083	-2.5833	-2.1708	-2.7021	-2.4479	167.925	526.710	192.032	312.533	343.245	402.271	436.136	398.237	476.356	419.662	400.160	477.360	432.418	181.989	475.583	519.589	0.00022324	0.00014349	6.431e-05	534.39	1.8301e-06	3.8235e-06	562.93	143.21	5.192e-06	7.4456e-06	179.9	56.417	39.741	13.476	1.1795e-06	24.393	0.00078319	0.0011443	0.00031566	527.26	1.1229e-05	1.2269e-05	552.16	141.96	1.1518e-05	1.2224e-05	178.92	56.489	40.144	13.621	1.1602e-05	24.739	261.961	255.741	275.459	181.147	330.618	284.672	180.304	185.690	333.796	274.395	184.358	188.621	189.684	194.688	249.993	192.454	-8191	255	
16735.328	1	1	0	0	0.21013	0.12943	0.2263	0.31193	0.044473	0.059045	0.29723	0.26775	0.21734	0.16541	0.29474	0.18847	0.029682	0.20228	0.21974	0.16518	-1.8146	-2.6521	-2.3875	-2.5312	-2.5625	-2.1813	-2.6146	-2.5438	-2.3563	-2.7875	-2.4625	-2.4417	-2.7167	-2.1917	-2.7062	-2.4625	368.811	317.403	374.801	208.492	380.693	499.381	494.869	409.269	308.168	186.234	173.752	198.064	360.568	250.545	284.702	427.032	0.00023057	0.00013489	3.0733e-05	537.36	2.2638e-06	1.8374e-06	568.23	146.84	3.0121e-06	2.3853e-06	183.24	57.688	41.063	13.807	2.6632e-06	25.032	0.00077598	0.0011005	0.00030173	531.38	1.1354e-05	1.2219e-05	560.3	145.54	1.1434e-05	1.2368e-05	182.12	57.616	41.354	13.955	1.1616e-05	25.151	270.226	276.112	330.536	180.933	309.094	285.833	180.392	185.669	322.160	496.879	184.456	188.678	190.311	194.803	302.999	192.203	-8191	255	
16735.447	1	1	0	0	0.30448	0.1771	0.13171	0.091024	0.094642	0.076055	0.16706	0.068562	0.35464	0.090789	0.28122	0.17574	0.2041	0.24006	0.1157	0.09737	-1.8333	-2.675	-2.175	-2.5687	-2.7354	-2.2875	-2.7062	-2.4938	-2.2438	-2.8479	-2.375	-2.2958	-2.7062	-2.3396	-2.7438	-2.5563	402.586	448.969	468.526	368.231	271.892	356.435	507.365	484.445	286.759	421.877	386.611	328.787	237.787	243.943	483.913	470.717	0.00026062	0.00021589	9.7462e-06	538.83	4.0692e-06	2.1949e-06	565.43	144.98	4.3177e-06	2.6919e-06	182.22	57.396	41.305	13.851	2.3796e-06	24.981	0.00080372	0.0011479	0.00031424	531.66	1.1614e-05	1.2749e-05	559.89	144.6	1.1642e-05	1.277e-05	181.86	57.733	41.314	14.018	1.1741e-05	25.161	260.154	288.860	172.264	180.907	345.823	253.804	180.210	185.934	327.054	301.394	184.187	188.687	190.446	194.809	338.667	192.285	-8191	255	
16735.545	1	1	0	0	0.20263	0.45724	0.082648	0.19009	0.035321	0.079457	0.069805	0.13676	0.05737	0.11196	0.28283	0.083427	0.091778	0.23832	0.25625	0.1461	-1.7792	-2.6104	-2.3542	-2.3167	-2.6375	-2.0312	-2.675	-2.4083	-2.3854	-2.7062	-2.3625	-2.3229	-2.6208	-2.3604	-2.4396	-2.6708	501.298	391.427	241.429	462.532	332.597	369.145	428.699	403.479	521.549	180.730	490.791	198.546	499.625	507.300	224.814	512.637	0.00026215	0.00017398	0.0001035	538.93	3.3756e-06	3.4228e-06	563.68	145.45	2.8374e-06	6.7554e-07	181.23	57.096	40.855	13.717	8.7551e-07	24.895	0.00080207	0.0011377	0.00031579	533.58	1.1559e-05	1.259e-05	556.93	144.5	1.157e-05	1.2245e-05	180.84	57.224	41.21	13.921	1.1727e-05	24.962	257.405	242.635	255.556	180.775	289.773	392.864	180.221	185.918	285.994	376.472	184.247	188.546	189.874	194.707	244.746	191.900	-8191	255	
16735.641	1	1	0	0	0.15812	0.17152	0.18331	0.2443	0.27045	0.083194	0.28081	0.19443	0.25551	0.25845	0.089786	0.095709	0.19137	0.16916	0.097927	0.19932	-1.7333	-2.6958	-2.4354	-2.4229	-2.7438	-2.1896	-2.5104	-2.4625	-2.1896	-2.5687	-2.5833	-2.2062	-2.9313	-2.5438	-2.4583	-2.6771	457.764	299.432	171.960	498.101	456.755	421.285	514.716	510.374	483.378	493.012	198.714	170.325	285.547	392.374	258.248	525.785	0.0002021	0.00052255	0.0001236	541.23	2.644e-06	6.7784e-07	561.03	145.29	1.7614e-06	3.6351e-06	180.43	57.212	40.885	13.73	8.3164e-07	24.552	0.00078511	0.0011118	0.00031012	531.65	1.1337e-05	1.2174e-05	556.02	144.68	1.1421e-05	1.1977e-05	180.57	57.265	41.357	13.86	1.1657e-05	24.756	265.889	254.152	225.501	180.875	252.074	356.287	180.477	186.020	248.738	404.498	184.468	188.275	190.609	194.707	259.780	192.248	-8191	255	
16735.762	1	1	0	0	0.26154	0.10688	0.21812	0.17386	0.074959	0.24833	0.12698	0.1731	0.25625	0.21887	0.17144	0.1837	0.13439	0.038465	0.12682	0.10776	-1.8	-2.6312	-2.3167	-2.1333	-2.5979	-2.4458	-2.475	-2.575	-2.2771	-2.625	-2.7146	-2.3063	-2.4604	-2.3792	-2.4375	-2.7333	500.085	318.386	257.571	371.491	513.429	227.720	194.918	204.139	324.401	466.239	315.848	277.818	254.777	443.061	389.247	201.042	0.00023976	0.00022736	9.9441e-05	534.6	2.7423e-06	2.3315e-06	566.67	145.32	3.2144e-06	1.8528e-06	181.64	57.313	40.07	13.695	1.5682e-06	24.755	0.00079659	0.0011182	0.00031477	527.25	1.1344e-05	1.2433e-05	557.15	143.89	1.1408e-05	1.2567e-05	181.17	57.371	40.778	13.837	1.2049e-05	24.949	265.407	332.398	230.663	180.819	319.080	367.073	179.939	185.605	346.207	323.512	184.253	188.707	190.237	194.895	330.456	192.160	-8191	255	
16735.857	1	1	0	0	0.19931	0.011941	0.16651	0.36134	0.16221	0.10117	0.23769	0.06621	0.18504	0.21394	0.19448	0.14386	0.25311	0.26515	0.20523	0.15613	-1.9604	-2.2917	-2.4146	-2.2354	-2.7583	-2.45	-2.4979	-2.6917	-2.3646	-2.5479	-2.35	-2.1813	-2.5521	-2.6146	-2.3312	-2.7458	245.068	386.167	265.647	382.970	317.381	441.275	523.246	410.723	471.492	313.632	337.420	426.995	198.916	506.786	192.315	347.141	0.00024446	9.375e-05	0.00011422	536.93	3.5278e-06	3.7306e-06	569.53	145.79	1.9299e-06	8.6829e-07	184.93	57.806	40.669	13.715	1.9075e-06	24.926	0.00082026	0.0011279	0.00032659	530.13	1.1356e-05	1.2155e-05	561.71	144.73	1.1445e-05	1.2564e-05	182.89	57.88	40.975	13.902	1.1963e-05	25.111	252.893	354.387	252.201	180.771	300.588	349.033	180.327	185.674	215.451	234.926	183.989	188.842	189.788	194.966	269.566	192.065	-8191	255	
16735.930	1	1	0	0	0.082619	0.14883	0.20693	0.18695	0.3274	0.040641	0.14113	0.1135	0.077194	0.096737	0.12484	0.15209	0.17194	0.17967	0.17917	0.31417	-1.7437	-2.5062	-2.5958	-2.3146	-2.4562	-2.3292	-2.4458	-2.7687	-2.15	-2.325	-2.5521	-2.1542	-2.5125	-2.4833	-2.4688	-2.7396	507.022	483.742	382.586	278.260	289.612	458.873	423.704	380.365	319.266	249.303	512.426	426.663	238.895	320.895	341.498	240.441	0.00024294	0.00028725	4.9251e-05	535.61	2.8484e-06	1.586e-06	563.86	144.56	2.6445e-06	1.5922e-06	184.03	57.631	41.066	13.82	3.4154e-06	24.694	0.00080795	0.0011428	0.00032874	528.39	1.1396e-05	1.2515e-05	557.75	144.44	1.1782e-05	1.2803e-05	182.29	57.774	41.323	13.994	1.1914e-05	25.058	259.508	461.406	321.822	180.621	508.623	169.817	180.580	185.301	304.354	360.769	184.409	189.036	189.558	194.479	304.217	192.352	-8191	255	
16736.051	1	1	0	0	0.075727	0.17132	0.24106	0.18672	0.22457	0.20338	0.31119	0.30908	0.12419	0.11342	0.14456	0.21304	0.15769	0.15003	0.14921	0.082912	-1.8333	-2.2771	-2.5479	-2.4396	-2.5458	-2.4354	-2.325	-2.8271	-2.3167	-2.4313	-2.9292	-2.225	-2.4542	-2.5417	-2.1708	-2.6979	332.751	302.715	413.623	473.567	293.284	417.569	464.163	464.407	170.223	171.536	362.089	489.183	463.939	454.738	220.522	396.233	0.00025994	9.0891e-05	0.0001269	538.42	6.0865e-06	1.9717e-06	564.07	144.9	2.6564e-06	3.777e-06	181.91	57.33	41.162	13.772	5.2599e-06	24.679	0.00080654	0.0011518	0.00032666	532.54	1.1435e-05	1.2397e-05	557.13	144.56	1.1576e-05	1.2623e-05	181.16	57.324	41.399	13.916	1.1704e-05	24.848	255.100	208.374	271.183	180.998	329.593	299.872	180.717	185.888	335.720	220.593	184.516	189.253	190.067	194.662	352.198	192.406	-8191	255	
16736.146	1	1	0	0	0.094273	0.089737	0.31532	0.27028	0.17433	0.12204	0.31083	0.12662	0.080528	0.4601	0.072078	0.25035	0.29765	0.023128	0.20511	0.29156	-2.0854	-2.2458	-2.6292	-2.4979	-2.5917	-2.5625	-2.4229	-2.5708	-2.3688	-2.2042	-2.8812	-2.1646	-2.4979	-2.7396	-2.1792	-2.6813	276.486	406.550	467.329	446.107	473.647	246.831	483.331	174.666	185.621	252.757	225.476	296.755	514.661	358.490	342.304	364.796	0.00026231	0.00015511	7.2638e-05	542.19	1.0346e-06	1.7297e-06	565.02	145.98	3.2112e-06	4.7425e-06	182.69	57.427	40.851	13.7	1.9489e-06	24.86	0.0007914	0.0011226	0.00031664	532.03	1.1406e-05	1.226e-05	557.76	144.61	1.1592e-05	1.2335e-05	181.58	57.498	41.072	13.833	1.1901e-05	24.996	256.225	233.345	221.114	180.841	421.855	391.217	180.317	185.431	264.488	291.806	184.200	188.444	189.802	194.411	307.186	192.162	-8191	255	
16736.240	1	1	0	0	0.32224	0.20023	0.10543	0.1626	0.3123	0.066876	0.07525	0.1077	0.28042	0.075156	0.03942	0.2689	0.1376	0.077732	0.14782	0.14646	-2.2271	-2.375	-2.8187	-2.4042	-2.3208	-2.7021	-2.2667	-2.5812	-2.6146	-2.3063	-2.825	-2.5125	-2.4667	-2.7792	-2.4833	-2.675	194.917	511.603	235.061	403.886	282.077	504.601	489.963	360.537	421.217	216.710	451.717	507.893	349.232	307.267	320.714	191.211	0.00026314	0.0002217	5.065e-05	538.9	5.4705e-06	2.752e-06	568.71	146.89	2.6396e-06	2.4315e-06	185.21	57.978	40.762	13.717	3.6723e-06	25.324	0.00080533	0.0011316	0.00032257	531.29	1.1731e-05	1.2849e-05	561.99	144.93	1.166e-05	1.2649e-05	183.61	57.994	41.235	13.941	1.201e-05	25.368	263.950	309.704	459.520	180.692	351.504	408.682	180.218	185.902	298.997	353.864	183.992	188.729	190.179	194.701	354.154	192.214	-8191	255	
16736.336	1	1	0	0	0.33667	0.33891	0.08992	0.045191	0.12852	0.12131	0.22161	0.2187	0.12394	0.10686	0.055357	0.095402	0.21719	0.047555	0.16109	0.16042	-2.0354	-2.2854	-2.7938	-2.3438	-2.3521	-2.775	-2.3083	-2.5583	-2.7708	-2.5021	-2.6521	-2.4667	-2.4167	-2.4188	-2.3208	-2.6271	503.900	435.038	298.983	197.969	223.472	407.240	404.486	372.678	206.062	231.417	395.032	408.519	497.972	418.607	415.970	492.666	0.00023858	0.00027842	7.2925e-05	541.42	3.6209e-06	1.6404e-06	571.34	146.95	1.615e-06	4.3786e-06	184.32	58.095	41.432	13.912	6.5792e-06	25.029	0.00081126	0.0011582	0.00031515	534.31	1.1594e-05	1.2798e-05	564.11	145.57	1.2136e-05	1.2664e-05	183.58	58.073	41.719	14.053	1.1945e-05	25.233	262.268	169.984	301.184	180.985	347.758	167.928	180.380	185.882	173.809	335.789	184.136	189.149	189.653	194.630	311.365	191.778	-8191	255	
16736.457	1	1	0	0	0.039967	0.037447	0.22078	0.2327	0.26403	0.36631	0.24046	0.090613	0.10949	0.071709	0.34482	0.058973	0.13756	0.26346	0.17988	0.049398	-2.0958	-2.1208	-2.5896	-2.3167	-2.3583	-2.8708	-2.3667	-2.5271	-2.65	-2.425	-2.8125	-2.6146	-2.3375	-2.5812	-2.1521	-2.5729	260.096	353.479	213.792	452.347	523.359	479.603	521.684	431.676	379.335	260.644	426.629	443.431	205.630	406.225	378.714	374.818	0.00022464	0.00019364	8.8444e-05	544.61	3.519e-06	3.1411e-06	568.91	145.76	2.1384e-06	1.3567e-06	183.46	57.596	41.423	13.745	2.6392e-06	24.88	0.00082918	0.0011609	0.00032009	535.2	1.2041e-05	1.2847e-05	562.22	145.34	1.2036e-05	1.2745e-05	182.49	57.748	41.419	13.958	1.1934e-05	25.063	263.010	236.139	323.938	180.617	350.666	312.394	180.248	185.742	289.699	251.490	184.527	189.129	190.414	194.688	372.912	192.451	-8191	255	
16736.529	1	1	0	0	0.15791	0.12174	0.093164	0.074136	0.20374	0.13452	0.11544	0.1979	0.11946	0.2355	0.10586	0.14272	0.26981	0.16698	0.17881	0.034436	-2.2167	-2.2854	-2.4646	-2.4833	-2.2854	-2.5958	-2.5354	-2.4062	-2.7271	-2.2229	-2.55	-2.45	-2.2792	-2.6479	-2.2188	-2.5438	202.870	452.710	340.550	272.136	517.374	328.696	475.250	498.744	226.553	394.784	288.021	486.659	467.318	272.987	349.305	391.927	0.00024303	0.00064391	5.9767e-05	541.77	3.5966e-06	4.2851e-06	568.57	144.75	2.7655e-06	3.445e-06	180.82	57.087	40.577	13.52	1.3027e-06	24.672	0.00082138	0.0011568	0.00031899	532.02	1.1791e-05	1.2566e-05	559.67	144.24	1.1895e-05	1.2795e-05	180.56	57.211	40.861	13.695	1.2128e-05	24.753	261.315	257.506	289.595	180.917	320.567	336.942	180.519	185.599	353.770	344.080	184.205	188.896	189.956	194.951	289.531	192.442	-8191	255	
16736.625	1	1	0	0	0.27598	0.10535	0.046273	0.070677	0.27143	0.18299	0.23746	0.12662	0.26747	0.14581	0.077344	0.19793	0.49211	0.30408	0.11889	0.26962	-2.4583	-2.2021	-2.575	-2.525	-2.3979	-2.7125	-2.5208	-2.4	-2.75	-2.2979	-2.6104	-2.7375	-2.2729	-2.5729	-2.5021	-2.3771	423.620	407.525	284.291	355.515	287.731	487.251	451.587	418.341	254.086	505.931	436.594	484.699	500.474	179.254	315.822	509.669	0.00027675	0.00020744	5.0922e-05	538.35	4.0482e-06	2.1958e-06	570.32	144.75	2.0644e-06	1.9625e-06	180.88	56.85	40.378	13.463	4.4493e-06	24.591	0.00082124	0.0011329	0.00031125	529.46	1.1811e-05	1.2456e-05	560.69	144.01	1.1804e-05	1.2695e-05	181.02	56.911	40.687	13.722	1.2224e-05	24.744	264.067	331.874	219.377	180.936	289.401	442.586	180.712	186.129	287.817	275.337	184.389	189.066	190.278	194.290	273.016	192.258	-8191	255	
16736.721	1	1	0	0	0.22011	0.20393	0.085372	0.15405	0.30106	0.30752	0.17649	0.14315	0.17534	0.20524	0.15257	0.04724	0.33633	0.1331	0.14316	0.024032	-2.3104	-2.2	-2.4313	-2.7625	-2.2313	-2.5062	-2.4729	-2.2	-2.7271	-2.3958	-2.4521	-2.7083	-2.0938	-2.7146	-2.475	-2.3021	178.250	448.409	415.944	187.167	230.027	231.720	401.434	398.962	414.168	488.602	462.398	474.488	484.663	435.980	229.620	315.038	0.00025963	0.00040665	0.00010371	535.25	5.348e-06	1.3299e-06	563.38	143.35	2.8859e-06	4.3907e-06	180.37	56.22	40.038	13.37	2.1849e-06	24.323	0.00080869	0.0011435	0.00032153	528	1.1655e-05	1.2481e-05	556.84	142.55	1.1777e-05	1.299e-05	179.8	56.503	40.122	13.526	1.2197e-05	24.421	255.031	258.729	286.791	180.954	342.018	476.094	180.327	186.083	245.728	343.711	184.447	188.805	190.239	194.418	294.280	192.311	-8191	255	
16736.842	1	1	0	0	0.25558	0.1569	0.037478	0.1726	0.0039284	0.080287	0.12595	0.25402	0.074568	0.25602	0.17179	0.033275	0.17694	0.23586	0.13551	0.1229	-2.2396	-2.125	-2.3854	-2.65	-2.2687	-2.55	-2.6417	-2.4208	-2.6229	-2.4396	-2.5167	-2.6396	-2.3458	-2.4854	-2.4938	-2.425	258.576	173.455	197.943	193.319	435.268	467.600	366.615	439.765	292.834	457.968	343.135	434.710	469.650	503.499	435.574	350.300	0.00023007	0.0003062	0.00011657	527.16	3.2617e-06	2.1577e-06	560.59	141.89	3.0446e-06	3.7195e-06	178.58	55.999	39.327	13.331	1.4034e-06	23.919	0.00082305	0.0011514	0.00032082	522.29	1.1702e-05	1.2691e-05	551.25	141.44	1.2048e-05	1.2647e-05	177.17	55.659	39.768	13.39	1.2299e-05	24.073	262.957	318.828	275.762	180.724	327.713	396.409	179.841	185.668	343.123	398.206	184.234	189.059	189.894	194.729	330.992	192.037	-8191	255	
16736.938	1	1	0	0	0.057752	0.097512	0.20895	0.15497	0.15958	0.21557	0.17016	0.17899	0.17826	0.23126	0.068418	0.097546	0.21295	0.16041	0.11557	0.26147	-2.2833	-2.4646	-2.3729	-2.6875	-2.2854	-2.5729	-2.5625	-2.2917	-2.6083	-2.55	-2.4292	-2.7021	-2.2042	-2.625	-2.5687	-2.3312	314.670	268.101	335.122	436.967	475.774	302.330	391.281	286.843	420.756	490.454	473.780	224.845	378.229	448.683	415.234	478.280	0.00019885	0.00010495	1.7177e-05	527.24	1.6666e-06	3.8776e-06	555.38	142.57	3.4337e-06	1.173e-06	177.57	55.063	39.112	13.028	2.2472e-06	23.851	0.00081214	0.0011503	0.00032036	522.08	1.1732e-05	1.2412e-05	548.89	141.39	1.1515e-05	1.2966e-05	176.4	55.142	39.578	13.278	1.2092e-05	23.974	270.178	224.880	404.668	180.846	382.562	265.268	179.927	185.840	301.033	238.939	184.227	189.009	189.853	194.838	278.714	192.046	-8191	255	
16737.033	1	1	0	0	0.21751	0.17384	0.15647	0.10371	0.17702	0.16073	0.078228	0.12566	0.14994	0.10846	0.48271	0.19602	0.1846	0.14639	0.10164	0.20298	-2.2646	-2.3812	-2.2479	-2.8146	-2.2417	-2.5812	-2.7375	-2.1625	-2.5896	-2.3333	-2.4292	-2.6167	-2.4188	-2.5563	-2.7062	-2.2729	440.770	361.507	347.527	426.482	467.301	493.334	306.905	233.348	469.947	188.864	400.328	403.728	465.078	290.001	370.679	436.181	0.00026224	0.00041361	0.00012136	528.97	5.2972e-06	5.6473e-06	558.21	141.02	3.7856e-06	2.5916e-06	177.47	54.75	39.026	13.052	2.7758e-06	23.819	0.00079979	0.0011348	0.00032307	522.6	1.1814e-05	1.2637e-05	548.93	140.42	1.1684e-05	1.3055e-05	176.02	54.896	39.267	13.221	1.2175e-05	23.984	257.329	256.348	297.789	180.674	350.075	274.667	180.060	185.948	315.034	310.852	184.111	189.116	189.764	194.173	280.591	192.420	-8191	255	
16737.131	1	1	0	0	0.17604	0.24342	0.08978	0.035302	0.1611	0.12822	0.11801	0.26932	0.28639	0.1376	0.098232	0.057542	0.11636	0.081132	0.19095	0.036007	-2.2333	-2.4125	-2.3292	-2.7083	-2.5062	-2.4333	-2.7062	-2.2438	-2.5292	-2.7208	-2.3521	-2.775	-2.5625	-2.1792	-2.8417	-2.2	218.879	407.272	526.950	457.886	501.911	509.301	388.645	506.849	284.471	403.302	261.352	343.041	436.725	237.481	379.774	180.940	0.00020825	0.00013267	1.6493e-05	527.39	2.2365e-06	4.7438e-06	555.41	140.34	2.4032e-06	3.9525e-06	178.48	54.967	38.721	13.107	4.0248e-06	24.068	0.00079896	0.001139	0.00032178	521.18	1.1726e-05	1.2905e-05	547.57	139.78	1.1745e-05	1.3039e-05	176.41	55.085	39.252	13.241	1.2112e-05	24.084	255.279	230.379	285.985	180.959	348.853	325.025	180.442	185.545	223.305	337.977	184.271	188.862	190.041	194.379	266.084	192.197	-8191	255	
16737.227	1	1	0	0	0.27477	0.083697	0.17958	0.13722	0.26224	0.34666	0.16785	0.12923	0.11718	0.023688	0.25441	0.13027	0.098895	0.19178	0.16403	0.15717	-2.0667	-2.6708	-2.175	-2.75	-2.5458	-2.4437	-2.7854	-2.2687	-2.3104	-2.9771	-2.3063	-2.7146	-2.5021	-2.2479	-2.6708	-2.4354	391.639	176.793	497.652	521.929	438.426	370.209	433.836	315.579	249.997	426.646	427.703	426.232	248.343	258.401	459.775	358.544	0.00023084	0.00025763	0.00015768	525	3.223e-06	4.5107e-06	550.93	139.87	3.5873e-06	4.9806e-06	177.12	54.41	38.713	12.933	4.9892e-06	23.393	0.00082947	0.0011325	0.00031812	519.33	1.1912e-05	1.2757e-05	544.89	139.16	1.1714e-05	1.2959e-05	175.38	54.494	39.169	13.145	1.2086e-05	23.662	253.032	510.980	246.499	180.719	333.699	246.280	180.533	185.796	383.553	241.373	183.954	188.560	189.636	194.655	326.116	191.975	-8191	255	
16737.322	1	1	0	0	0.084313	0.22429	0.28999	0.099612	0.279	0.15571	0.18192	0.086145	0.30406	0.1281	0.32987	0.21019	0.16085	0.24481	0.097863	0.01051	-2.0917	-2.6333	-2.3479	-2.6146	-2.4667	-2.3271	-2.7938	-2.3979	-2.375	-2.7938	-2.3021	-2.4854	-2.4021	-2.1937	-2.5583	-2.3042	256.965	245.372	461.336	491.059	172.079	389.258	396.831	274.802	472.649	339.336	429.468	463.600	359.092	198.392	229.429	229.786	0.00022425	0.00057884	8.4346e-05	523.29	3.6551e-06	2.9812e-06	551.43	140.26	1.8003e-06	2.0089e-06	174.55	54.194	38.721	12.976	2.8567e-06	23.716	0.00079115	0.0011172	0.0003172	516.72	1.1684e-05	1.2467e-05	541.56	139.36	1.1689e-05	1.2859e-05	173.83	54.446	39.091	13.159	1.1694e-05	23.807	261.921	303.506	214.917	181.011	266.293	317.739	180.309	185.422	344.565	394.160	184.026	188.853	189.710	195.211	323.455	192.326	-8191	255	
16737.441	1	1	0	0	0.26471	0.072761	0.23658	0.15037	0.072878	0.34525	0.064738	0.23932	0.15683	0.15251	0.16117	0.040307	0.19414	0.15404	0.19032	0.014655	-1.8583	-2.6208	-2.15	-2.6167	-2.5458	-2.1583	-2.6	-2.3208	-2.2896	-2.8479	-2.1583	-2.5146	-2.5417	-2.2125	-2.5708	-2.4625	430.457	492.560	455.932	469.520	302.904	331.530	294.002	521.422	230.805	411.910	410.435	444.637	214.909	169.026	496.151	522.774	0.00024567	0.00011995	3.9376e-05	526.71	1.1878e-06	1.413e-06	551.73	140.92	4.0725e-06	2.6446e-06	177.27	55.268	39.369	13.15	4.2896e-06	24.35	0.00079518	0.0010985	0.0003137	518.34	1.1689e-05	1.2594e-05	545.72	140.55	1.1506e-05	1.2623e-05	176.52	55.533	39.812	13.429	1.1587e-05	24.355	257.029	489.144	174.252	181.135	263.431	322.980	180.123	185.512	316.589	361.350	183.843	188.620	189.801	194.737	350.937	192.059	-8191	255	
16737.537	1	1	0	0	0.15868	0.069907	0.1596	0.094394	0.13645	0.11113	0.2253	0.23167	0.19065	0.089492	0.32758	0.1937	0.028862	0.37485	0.27672	0.075172	-1.9208	-2.5729	-2.2354	-2.4833	-2.55	-2.1771	-2.7625	-2.4437	-2.3	-2.4917	-2.4521	-2.2542	-2.5458	-2.3	-2.65	-2.5292	177.783	385.852	180.010	173.433	343.098	345.245	437.203	423.996	262.132	473.932	428.327	323.623	422.537	464.049	459.451	441.326	0.00024875	0.00037012	5.4569e-05	533.78	5.7956e-07	4.2317e-06	560.59	143.76	1.2795e-06	2.8118e-06	181.59	56.914	40.576	13.668	1.9015e-06	24.703	0.00079462	0.001121	0.0003143	525.43	1.1635e-05	1.2235e-05	553.44	142.64	1.1594e-05	1.2497e-05	179.63	56.779	40.741	13.828	1.1567e-05	24.82	257.581	188.230	235.526	180.755	308.389	274.746	180.310	185.531	500.889	252.136	184.436	188.510	189.853	194.478	291.190	192.097	-8191	255	
16737.635	1	1	0	0	0.1594	0.28664	0.20544	0.14321	0.092891	0.20733	0.073658	0.080727	0.17741	0.071159	0.079792	0.15457	0.098242	0.088876	0.12711	0.27013	-1.7	-2.7125	-2.4917	-2.5167	-2.7521	-2.2479	-2.4917	-2.6521	-2.3229	-2.8083	-2.3333	-2.4042	-2.6146	-2.3563	-2.4813	-2.6271	349.645	279.629	203.177	502.854	271.468	428.146	494.760	440.286	265.911	174.866	454.613	323.021	338.374	285.695	233.612	471.638	0.00024402	0.00022802	0.00012343	542.67	5.0365e-06	2.8421e-06	569.2	144.91	3.0206e-06	9.0643e-07	184.02	57.356	40.947	13.893	3.7841e-06	24.944	0.00079663	0.0011193	0.00031479	532.95	1.1655e-05	1.228e-05	558.39	144.27	1.1783e-05	1.2318e-05	181.38	57.181	41.431	14.049	1.1775e-05	24.958	256.405	291.594	265.181	180.860	355.410	315.969	180.396	185.631	247.310	267.229	184.556	188.563	189.928	194.751	311.520	192.293	-8191	255	
16737.730	1	1	0	0	0.13564	0.12767	0.17552	0.29208	0.04111	0.27071	0.090687	0.14438	0.16082	0.30623	0.022503	0.23555	0.043724	0.18286	0.2706	0.17917	-1.8083	-2.5521	-2.4583	-2.2438	-2.7271	-2.3438	-2.7208	-2.5646	-2.2542	-2.7417	-2.2792	-2.3646	-2.8	-2.3417	-2.5917	-2.5208	309.211	272.227	380.927	474.693	256.594	188.005	422.703	446.083	189.360	271.847	369.430	226.852	500.589	190.862	247.974	410.839	0.00026977	0.00056414	9.5691e-05	543.81	3.6231e-06	1.3745e-06	564.55	146.23	4.3393e-06	3.8394e-06	183.03	57.147	40.982	13.852	5.6523e-07	24.704	0.00079556	0.001113	0.00030586	534.13	1.1545e-05	1.232e-05	556.76	145.72	1.1919e-05	1.246e-05	181.27	57.236	41.386	13.95	1.1833e-05	24.839	260.318	285.509	289.839	181.148	355.790	173.217	180.405	185.980	330.295	301.675	184.261	189.126	189.586	194.550	367.923	192.026	-8191	255	
16737.826	1	1	0	0	0.14701	0.15443	0.2609	0.21227	0.28392	0.17214	0.13176	0.13565	0.22402	0.14976	0.18539	0.17167	0.10412	0.21241	0.24365	0.19562	-1.7458	-2.8896	-2.4521	-2.3583	-3.0125	-2.2833	-2.4813	-2.6167	-2.3917	-2.7521	-2.5604	-2.3625	-2.8104	-2.4313	-2.4875	-2.6604	515.021	516.568	430.819	390.575	301.713	283.981	492.582	498.777	492.003	396.447	200.200	191.687	403.239	518.810	429.945	404.049	0.00028149	0.00011692	0.00012856	540.63	2.6783e-06	3.4495e-06	564.69	144.9	1.338e-06	3.8354e-06	182.69	57.26	40.683	13.747	1.5053e-06	24.27	0.0007961	0.0011336	0.00030758	533.13	1.1881e-05	1.2685e-05	556.37	144.48	1.1721e-05	1.254e-05	180.47	56.869	41.112	13.828	1.2082e-05	24.564	258.894	325.720	237.020	180.785	291.080	275.735	180.236	185.805	351.506	376.108	184.078	188.587	189.790	194.873	280.844	191.717	-8191	255	
16737.922	1	1	0	0	0.065602	0.05143	0.15804	0.12161	0.17093	0.1993	0.08068	0.0067293	0.11978	0.39618	0.17774	0.38238	0.070087	0.1624	0.18813	0.11929	-1.8146	-2.5292	-2.5271	-2.3167	-2.7354	-2.5354	-2.4896	-2.5854	-2.2271	-2.6813	-2.6646	-2.3187	-2.6667	-2.4854	-2.5	-2.8292	501.650	213.024	335.931	380.917	220.577	390.284	412.488	190.977	416.341	355.965	485.588	185.318	439.199	494.307	212.481	412.636	0.00023428	0.00037948	0.00010673	542.31	2.7585e-06	4.8388e-06	564.36	144.7	2.1522e-06	5.7937e-06	181.91	56.94	41.153	13.672	1.0821e-06	24.475	0.00082003	0.0011394	0.00032097	533.08	1.1665e-05	1.2597e-05	556.73	144.63	1.1769e-05	1.2808e-05	180.49	57.063	41.196	13.855	1.2052e-05	24.703	247.088	225.932	518.081	180.800	282.593	253.170	180.083	185.750	268.874	332.875	184.036	188.864	189.636	194.672	303.210	191.921	-8191	255	
16738.018	1	1	0	0	0.37198	0.17546	0.098792	0.06755	0.24504	0.38217	0.17901	0.17835	0.19725	0.13959	0.1012	0.16869	0.28189	0.37201	0.11897	0.13166	-1.8667	-2.525	-2.6354	-2.2479	-2.7521	-2.5312	-2.2417	-2.7854	-2.3771	-2.4021	-2.7354	-2.2375	-2.7	-2.3521	-2.2562	-2.6813	373.779	270.566	240.639	226.182	243.374	395.549	485.801	170.327	253.212	299.970	447.185	471.431	488.169	486.272	222.608	400.458	0.00022847	9.0823e-05	9.8713e-05	544.62	1.326e-06	1.5158e-06	567.8	147.69	2.4121e-06	3.7873e-06	183.56	57.494	41.439	13.942	3.3779e-06	24.831	0.00082542	0.0011543	0.00032588	533.28	1.1776e-05	1.3266e-05	558.53	146.11	1.1929e-05	1.2714e-05	182.52	57.626	41.746	14.046	1.2201e-05	25.031	262.875	427.728	219.674	181.234	382.792	369.605	180.458	185.740	401.184	304.744	184.200	188.910	190.875	194.722	310.660	191.955	-8191	255	
16738.113	1	1	0	0	0.19883	0.061793	0.090963	0.12018	0.13103	0.17267	0.24878	0.27311	0.1796	0.1896	0.08498	0.21894	0.24975	0.16975	0.3255	0.23935	-2.0292	-2.6125	-2.5604	-2.3063	-2.625	-2.4688	-2.3542	-2.6458	-2.4646	-2.5354	-2.6854	-2.325	-2.5	-2.7896	-2.3063	-2.5833	221.141	308.213	407.089	320.169	360.799	274.106	413.800	477.946	322.087	475.303	468.508	371.947	287.747	511.183	208.210	315.692	0.00020398	0.00048724	6.415e-05	542.76	1.5065e-06	1.4132e-06	566.07	147.18	3.1102e-06	2.7603e-06	182.05	57.358	41.171	13.896	2.5254e-06	24.769	0.00081997	0.0011844	0.00032332	536.31	1.1716e-05	1.3139e-05	560.55	146.12	1.197e-05	1.3136e-05	182.5	57.766	41.638	14.078	1.2547e-05	25.009	262.448	245.036	386.875	181.061	273.027	354.566	180.378	185.559	405.246	368.969	184.497	188.951	190.115	194.670	348.798	191.826	-8191	255	
16738.232	1	1	0	0	0.18161	0.036298	0.17566	0.23404	0.11934	0.38685	0.11545	0.22456	0.2032	0.062333	0.15148	0.23446	0.1986	0.1028	0.26394	0.29481	-2.1375	-2.4479	-2.5958	-2.2833	-2.475	-2.6542	-2.1646	-2.6875	-2.4042	-2.2542	-2.8833	-2.2771	-2.5333	-2.7167	-2.1354	-2.6625	420.698	444.741	439.950	516.854	258.054	275.095	491.210	490.045	419.299	338.179	321.257	169.674	475.996	471.168	279.221	280.517	0.00024693	0.00035029	7.9952e-05	542.07	3.206e-06	2.3491e-06	565.13	146.54	4.9734e-06	2.0175e-06	183.09	57.361	40.617	13.706	1.6231e-06	24.658	0.00083929	0.0011802	0.00033703	534.44	1.2092e-05	1.3446e-05	560.47	145.57	1.2164e-05	1.3357e-05	181.56	57.282	41.094	13.885	1.2477e-05	24.763	259.800	508.439	249.050	180.947	311.644	265.765	180.313	186.074	329.914	386.238	184.381	188.765	190.574	194.672	395.133	192.249	-8191	255	
#DATA ENDS
