BOXY.EXE: ISS Imagent and Oximeter Data Acquisition Program Version 0.80
Ascii Record File

#ACQ INFORMATION
2  Detector Channels 
16  External MUX Channels 
1  Auxiliary Channels 
5000  Waveform (CCF) Frequency (Hz)
1  Waveforms Skipped 
30  Waveforms Averaged 
1  Cycles Averaged 
16  Acquisitions per Waveform 
10.0806  Updata Rate (Hz) 

#FILE INFORMATION
TRUE -- External MUX Channel results are PARSED.
FALSE -- AC DC and Phase are NOT grouped.
TRUE -- Companion Program Settings File CREATED.
FALSE -- AC data not excluded
FALSE -- DC data not excluded
FALSE -- Phase data not excluded
FALSE -- Auxillary Chn. data not excluded
Tab delimiters

#CALIBRATION STATE
TRUE -- Waveform Calibration Values APPLIED.


#AUX CALIBRATION VALUES
Val Type	aux-1	

Term	1.0000e+00	
Factor	0.0000e+00	


#WF CALIBRATION VALUES
A = Detector Channel
Val Type	A-AC1	A-AC2	A-AC3	A-AC4	A-AC5	A-AC6	A-AC7	A-AC8	A-AC9	A-AC10	A-AC11	A-AC12	A-AC13	A-AC14	A-AC15	A-AC16	A-DC1	A-DC2	A-DC3	A-DC4	A-DC5	A-DC6	A-DC7	A-DC8	A-DC9	A-DC10	A-DC11	A-DC12	A-DC13	A-DC14	A-DC15	A-DC16	A-Ph1	A-Ph2	A-Ph3	A-Ph4	A-Ph5	A-Ph6	A-Ph7	A-Ph8	A-Ph9	A-Ph10	A-Ph11	A-Ph12	A-Ph13	A-Ph14	A-Ph15	A-Ph16	

Term	0.00000e+00	0.00000e+00	0.00000e+00	0.00000e+00	0.00000e+00	0.00000e+00	0.00000e+00	0.00000e+00	0.00000e+00	0.00000e+00	0.00000e+00	0.00000e+00	0.00000e+00	0.00000e+00	0.00000e+00	0.00000e+00	0.00000e+00	0.00000e+00	0.00000e+00	0.00000e+00	0.00000e+00	0.00000e+00	0.00000e+00	0.00000e+00	0.00000e+00	0.00000e+00	0.00000e+00	0.00000e+00	0.00000e+00	0.00000e+00	0.00000e+00	0.00000e+00	0.00000e+00	0.00000e+00	0.00000e+00	0.00000e+00	0.00000e+00	0.00000e+00	0.00000e+00	0.00000e+00	0.00000e+00	0.00000e+00	0.00000e+00	0.00000e+00	0.00000e+00	0.00000e+00	0.00000e+00	0.00000e+00	
Factor	1.00000e+00	1.00000e+00	1.00000e+00	1.00000e+00	1.00000e+00	1.00000e+00	1.00000e+00	1.00000e+00	1.00000e+00	1.00000e+00	1.00000e+00	1.00000e+00	1.00000e+00	1.00000e+00	1.00000e+00	1.00000e+00	1.00000e+00	1.00000e+00	1.00000e+00	1.00000e+00	1.00000e+00	1.00000e+00	1.00000e+00	1.00000e+00	1.00000e+00	1.00000e+00	1.00000e+00	1.00000e+00	1.00000e+00	1.00000e+00	1.00000e+00	1.00000e+00	X	X	X	X	X	X	X	X	X	X	X	X	X	X	X	X	

B = Detector Channel
Val Type	B-AC1	B-AC2	B-AC3	B-AC4	B-AC5	B-AC6	B-AC7	B-AC8	B-AC9	B-AC10	B-AC11	B-AC12	B-AC13	B-AC14	B-AC15	B-AC16	B-DC1	B-DC2	B-DC3	B-DC4	B-DC5	B-DC6	B-DC7	B-DC8	B-DC9	B-DC10	B-DC11	B-DC12	B-DC13	B-DC14	B-DC15	B-DC16	B-Ph1	B-Ph2	B-Ph3	B-Ph4	B-Ph5	B-Ph6	B-Ph7	B-Ph8	B-Ph9	B-Ph10	B-Ph11	B-Ph12	B-Ph13	B-Ph14	B-Ph15	B-Ph16	

Term	0.00000e+00	0.00000e+00	0.00000e+00	0.00000e+00	0.00000e+00	0.00000e+00	0.00000e+00	0.00000e+00	0.00000e+00	0.00000e+00	0.00000e+00	0.00000e+00	0.00000e+00	0.00000e+00	0.00000e+00	0.00000e+00	0.00000e+00	0.00000e+00	0.00000e+00	0.00000e+00	0.00000e+00	0.00000e+00	0.00000e+00	0.00000e+00	0.00000e+00	0.00000e+00	0.00000e+00	0.00000e+00	0.00000e+00	0.00000e+00	0.00000e+00	0.00000e+00	2.53724e+01	-1.25825e+02	-1.32423e+02	-1.86157e+02	-5.31231e+01	-7.74207e+01	-1.59021e+02	-1.62015e+02	-9.81342e+01	-6.42266e+01	-1.73719e+02	-1.69925e+02	-1.79918e+02	-1.77120e+02	-6.73402e+01	-1.50188e+02	
Factor	4.43643e-05	1.31752e-04	3.84766e-05	6.00296e-01	1.09162e-06	1.23883e-06	1.58776e-01	4.81384e-02	1.60025e-06	1.38813e-06	8.39062e-02	2.75674e-02	2.39658e-02	9.07276e-03	1.49700e-06	1.30833e-02	1.61200e-06	1.67637e-06	4.65165e-07	2.83808e-01	1.83225e-08	1.83332e-08	7.47258e-02	2.41391e-02	1.82575e-08	1.83873e-08	4.04860e-02	1.32768e-02	1.20086e-02	4.53932e-03	1.82600e-08	6.30792e-03	X	X	X	X	X	X	X	X	X	X	X	X	X	X	X	X	



#DISTANCE SETTINGS
A = Detector Channel
A-1	A-2	A-3	A-4	A-5	A-6	A-7	A-8	A-9	A-10	A-11	A-12	A-13	A-14	A-15	A-16	

2.5000e+00	3.0000e+00	2.5000e+00	3.0000e+00	2.0000e+00	3.0000e+00	1.5000e+00	3.0000e+00	3.0000e+00	3.0000e+00	3.0000e+00	3.0000e+00	3.0000e+00	3.0000e+00	1.5000e+00	3.0000e+00	

B = Detector Channel
B-1	B-2	B-3	B-4	B-5	B-6	B-7	B-8	B-9	B-10	B-11	B-12	B-13	B-14	B-15	B-16	

1.0000e+01	1.0000e+01	1.0000e+01	1.4400e+00	1.0000e+01	1.0000e+01	1.5100e+00	1.9400e+00	1.0000e+01	1.0000e+01	1.9900e+00	2.4900e+00	2.4100e+00	2.9000e+00	1.0000e+01	2.9800e+00	




#DATA BEGINS
time	group	step	mark	flag	A-AC1	A-AC2	A-AC3	A-AC4	A-AC5	A-AC6	A-AC7	A-AC8	A-AC9	A-AC10	A-AC11	A-AC12	A-AC13	A-AC14	A-AC15	A-AC16	A-DC1	A-DC2	A-DC3	A-DC4	A-DC5	A-DC6	A-DC7	A-DC8	A-DC9	A-DC10	A-DC11	A-DC12	A-DC13	A-DC14	A-DC15	A-DC16	A-Ph1	A-Ph2	A-Ph3	A-Ph4	A-Ph5	A-Ph6	A-Ph7	A-Ph8	A-Ph9	A-Ph10	A-Ph11	A-Ph12	A-Ph13	A-Ph14	A-Ph15	A-Ph16	B-AC1	B-AC2	B-AC3	B-AC4	B-AC5	B-AC6	B-AC7	B-AC8	B-AC9	B-AC10	B-AC11	B-AC12	B-AC13	B-AC14	B-AC15	B-AC16	B-DC1	B-DC2	B-DC3	B-DC4	B-DC5	B-DC6	B-DC7	B-DC8	B-DC9	B-DC10	B-DC11	B-DC12	B-DC13	B-DC14	B-DC15	B-DC16	B-Ph1	B-Ph2	B-Ph3	B-Ph4	B-Ph5	B-Ph6	B-Ph7	B-Ph8	B-Ph9	B-Ph10	B-Ph11	B-Ph12	B-Ph13	B-Ph14	B-Ph15	B-Ph16	aux-1	digaux	

3141.097	1	1	0	512	0.36285	0.28542	0.085253	0.1391	0.1578	0.036938	0.13941	0.17381	0.10213	0.085577	0.2649	0.2047	0.040491	0.1837	0.22059	0.31333	-2.6417	-2.6354	-3.0792	-3.1312	-2.6562	-2.9875	-2.9938	-2.8187	-3.0271	-2.7729	-2.825	-3.1979	-2.7417	-3.0646	-2.8187	-2.6583	139.089	35.084	152.360	105.180	76.893	313.754	41.441	323.275	276.285	321.620	-9.901	300.701	110.709	-6.281	-3.888	-19.676	0.0029588	0.0043799	0.0010902	382.39	1.0499e-05	2.5938e-05	383.97	124.67	7.9291e-05	3.3484e-05	134.66	48.098	47.788	21.796	2.3523e-05	23.169	0.021221	0.023121	0.0061584	3881.6	0.00024665	0.00025105	1344.6	430.11	0.0002431	0.00024911	663.28	210.23	210.42	83.119	0.00023063	102.42	316.411	294.117	-11.819	-10.285	247.461	-1.431	-14.340	-5.708	199.270	82.114	-9.692	-3.012	-0.054	4.466	69.594	-0.177	-8191	255	
3141.218	1	1	0	0	0.078906	0.13469	0.2497	0.19018	0.16868	0.18069	0.1096	0.072058	0.067506	0.08148	0.15098	0.083735	0.25125	0.17083	0.10931	0.1497	-2.6562	-2.7771	-2.6292	-3.0458	-2.6271	-2.9917	-3.1458	-2.6813	-3.0438	-3.1625	-2.7208	-2.875	-2.9229	-3.0312	-2.9479	-2.7438	57.785	45.223	11.988	84.240	64.484	280.734	-19.346	76.639	269.717	112.384	-20.771	-23.179	-9.896	284.932	54.131	237.739	0.0022881	0.0051334	0.0014025	363.81	2.1311e-05	1.8665e-05	379.33	124	7.1661e-05	2.6658e-05	138.17	48.006	47.868	21.886	2.4772e-05	22.875	0.021583	0.022143	0.0059975	3841.7	0.00024944	0.00024363	1307.4	430.64	0.0002473	0.00024031	653.93	214.46	212.35	82.281	0.0002256	105.38	297.753	323.678	330.946	-10.999	163.381	35.295	-13.754	-5.659	178.075	93.345	-9.116	-2.532	-0.979	4.709	102.815	0.235	-8191	255	
3141.312	1	1	0	0	0.035724	0.08884	0.2823	0.073802	0.12058	0.12331	0.19874	0.34436	0.10329	0.17298	0.15758	0.17693	0.12064	0.027281	0.12954	0.1581	-2.6542	-2.825	-2.8042	-3.1958	-2.6104	-2.6937	-3.3417	-2.5958	-3.0208	-2.7896	-2.6125	-3.0271	-2.6937	-2.8333	-3.0917	-2.8104	62.629	140.597	64.925	188.315	39.812	38.920	328.346	314.506	312.470	123.500	262.774	178.687	-6.286	34.517	233.305	279.493	0.00061718	0.0013765	0.00054812	383.29	1.8379e-05	1.4884e-05	385.78	123.94	3.7606e-05	7.4558e-05	135.02	49.365	47.715	22.205	1.2839e-05	23.424	0.022151	0.021942	0.0059526	4020.3	0.00025417	0.00024513	1313.9	451.26	0.00025452	0.00024268	659.74	227.09	215.74	83.43	0.00022949	110.76	223.982	-15.946	265.858	-8.689	35.855	64.952	-13.774	-5.111	43.130	49.699	-9.350	-2.708	-0.498	5.047	94.597	0.732	-8191	255	
3141.386	1	1	0	0	0.27064	0.068349	0.19354	0.10168	0.37313	0.05056	0.12988	0.28143	0.29899	0.093097	0.25589	0.078281	0.21249	0.17249	0.18288	0.21977	-2.7042	-2.9354	-2.7375	-3.1437	-3.1208	-2.7875	-3.2729	-2.7146	-2.8146	-3.1083	-2.8104	-3.1208	-2.9333	-2.5396	-3.1437	-2.8375	259.767	83.129	116.084	12.014	162.245	176.928	238.552	219.373	248.778	268.276	321.404	335.692	335.456	292.904	302.867	254.660	0.00066486	0.0022635	0.0010888	386.89	4.2322e-06	9.8501e-06	378.08	123.6	4.246e-05	5.145e-05	132.07	48.351	47.471	21.872	6.4439e-05	22.809	0.022496	0.022066	0.006054	4270.9	0.00025399	0.00024632	1322.9	463.53	0.00025234	0.00023896	660.08	232.9	211.31	82.234	0.0002323	112.28	192.014	290.909	242.943	-10.035	124.724	190.705	-13.655	-5.883	312.334	42.828	-9.390	-3.173	-1.280	4.593	218.597	0.496	-8191	255	
3141.482	1	1	0	0	0.065282	0.045069	0.097666	0.02043	0.15674	0.093209	0.16371	0.18379	0.020757	0.17258	0.080014	0.37036	0.077862	0.34452	0.10736	0.14675	-2.7292	-3.0833	-2.7333	-3.0021	-3.0042	-2.875	-3.0917	-2.9062	-2.875	-3.2292	-2.6437	-3.2667	-2.825	-2.7438	-2.9104	-2.9229	19.541	195.784	291.635	297.966	81.430	94.925	91.099	-5.651	136.382	172.182	273.755	214.157	133.495	288.611	270.181	318.489	0.00043322	0.0010562	0.0011662	370.15	3.3155e-05	2.9938e-05	367.93	124.44	6.5687e-05	1.7929e-05	133.36	48.135	47.275	21.925	2.6964e-05	23.288	0.0221	0.021566	0.0061535	4367.1	0.00024771	0.00024185	1350.3	466.82	0.00024885	0.00023523	681.66	236.47	208.91	81.529	0.00024523	112.59	191.429	40.752	124.558	-11.567	-3.975	333.184	-13.612	-5.592	44.145	330.684	-7.825	-3.567	-0.997	4.575	282.385	-1.142	-8191	255	
3141.601	1	1	0	0	0.052491	0.093828	0.17614	0.11386	0.13709	0.12443	0.1886	0.26462	0.15328	0.14587	0.2553	0.25701	0.10742	0.038671	0.15663	0.23661	-2.4062	-3.1583	-2.6958	-3	-3.1167	-2.6937	-3.1937	-3.0333	-2.8312	-3.2812	-2.8083	-2.8708	-3.2188	-2.7458	-3.2146	-2.9354	-2.634	106.946	38.222	-17.528	82.240	295.191	298.423	278.626	121.217	256.591	331.635	299.321	48.477	56.710	129.011	-4.955	0.0014351	0.0072766	0.0031102	384.74	1.0048e-05	3.191e-05	376.79	124.18	5.0428e-05	3.3696e-05	133	47.763	47.399	21.535	7.2319e-05	23.184	0.022069	0.021452	0.0064678	4403.1	0.00024684	0.00024177	1417.8	469.46	0.00025244	0.00023789	718.03	239.59	209.97	82.755	0.00026134	112.92	150.512	261.314	134.410	-15.178	329.773	15.498	-13.480	-6.206	40.347	26.248	-8.037	-4.819	-0.271	4.693	247.574	-0.083	-8191	255	
3141.697	1	1	0	0	0.12269	0.15207	0.34246	0.14648	0.32094	0.17327	0.16063	0.15523	0.28741	0.10084	0.15774	0.21744	0.176	0.22165	0.17909	0.020808	-2.1083	-2.9604	-2.5917	-2.9	-3.0833	-2.7458	-3.1188	-3.0125	-2.6562	-3.175	-2.7917	-2.9479	-3.1083	-2.6854	-2.8688	-2.9313	33.578	126.170	203.619	328.157	252.786	334.250	255.005	260.596	323.039	-8.940	-17.162	259.982	307.814	46.780	136.543	-0.467	0.00039655	0.0028488	0.0013137	392.37	4.8723e-05	7.7395e-05	378.89	124.97	8.0154e-05	3.2745e-05	136.6	48.972	47.75	21.375	2.2137e-05	23.288	0.022329	0.022131	0.0068252	4433	0.00024733	0.00025043	1477.4	467.65	0.00025302	0.00024796	738.83	238.74	209.12	85.228	0.00027094	112.06	94.948	178.134	113.039	-17.609	47.946	203.746	-13.462	-6.591	35.172	195.030	-8.406	-4.929	-0.633	5.457	69.307	0.074	-8191	255	
3141.793	1	1	0	0	0.18195	0.1771	0.1488	0.17978	0.10089	0.13637	0.062546	0.16314	0.2095	0.19192	0.16679	0.20106	0.30926	0.11493	0.18103	0.12158	-2.3521	-2.9625	-2.8625	-2.7646	-3.2208	-2.6125	-3.0729	-3.0167	-2.6937	-3.1583	-2.6083	-2.6979	-2.9958	-2.8333	-3.0646	-3.1333	50.703	235.799	279.151	23.432	29.135	121.764	324.264	237.721	38.330	318.323	181.403	-23.528	320.776	226.921	169.545	324.478	0.0010051	0.0041418	0.00092756	385.89	3.6169e-05	5.4959e-05	380.02	122.38	1.3234e-05	5.919e-05	136	47.942	46.852	20.919	2.7375e-05	22.25	0.022145	0.023015	0.0068857	4375.4	0.00024299	0.00025891	1476.4	457.08	0.00024706	0.00025717	726.38	234.59	205	86.953	0.00026817	109.75	150.361	149.875	65.082	-14.031	2.232	205.307	-14.284	-6.618	229.211	210.574	-9.390	-4.976	-0.783	5.780	-2.040	-0.498	-8191	255	
3141.889	1	1	0	0	0.19241	0.069261	0.21536	0.1872	0.1948	0.073202	0.13749	0.18671	0.20568	0.25075	0.13364	0.098445	0.16897	0.20058	0.10252	0.15316	-2.2917	-3.0958	-2.7958	-2.6125	-3.2333	-2.6708	-2.9729	-3.025	-2.6521	-3.125	-2.7604	-2.8708	-3.025	-2.9125	-3.0125	-3.1625	295.280	54.204	21.727	154.963	-7.105	326.101	266.686	221.114	66.545	243.271	-4.096	13.904	42.146	255.521	295.925	253.953	0.00050994	0.0082368	0.0013358	377.76	3.8116e-05	5.8182e-05	385.93	121.85	2.7305e-05	6.2346e-05	134.68	47.302	46.21	21.155	7.1925e-05	22.339	0.021993	0.024125	0.006771	4340.3	0.00024182	0.00026785	1457.2	450.99	0.00024702	0.0002651	707.23	230.35	205.6	87.648	0.00026031	107.08	253.804	138.655	328.908	-13.197	255.048	192.178	-14.393	-6.318	239.246	214.102	-10.301	-4.257	0.905	4.856	2.767	-0.652	-8191	255	
3142.010	1	1	0	0	0.10634	0.27935	0.18577	0.16439	0.1286	0.34675	0.11379	0.08678	0.096206	0.12621	0.099151	0.17646	0.21205	0.27121	0.28002	0.042839	-2.2521	-2.9792	-2.9708	-2.6604	-3.1771	-2.6688	-2.8979	-2.9958	-2.6083	-3.0896	-2.9896	-2.8167	-3.3125	-2.6979	-3.0271	-3.4458	108.509	238.529	29.611	288.650	90.148	176.425	254.769	72.135	48.954	90.991	-22.970	-20.097	-17.016	4.175	115.612	270.090	0.0026712	0.0080846	0.00095629	379.18	5.0452e-05	5.0099e-05	382.32	123.02	8.5502e-05	1.0368e-05	133.98	47.449	46.271	21.312	2.3952e-05	22.585	0.022126	0.02469	0.0066272	4299.9	0.00025075	0.00027421	1462.9	450.21	0.00025838	0.000274	705.26	230.27	214	88.846	0.00026048	106.74	278.791	166.735	-9.388	-14.441	247.110	5.714	-14.445	-5.526	205.434	241.372	-10.675	-4.420	1.436	4.693	234.439	-0.113	-8191	255	
3142.081	1	1	0	0	0.09931	0.070234	0.066688	0.33143	0.23006	0.038299	0.13783	0.11667	0.081784	0.23596	0.19766	0.12422	0.26785	0.196	0.17784	0.079757	-2.0333	-3.1396	-2.9042	-2.625	-3.0521	-2.775	-2.8333	-2.9062	-2.8854	-2.8917	-3.0896	-2.7417	-2.9042	-2.9938	-2.7771	-3.0667	180.178	169.544	99.066	321.276	140.783	17.693	320.833	109.996	336.016	58.671	319.883	147.892	199.548	270.268	188.510	173.845	0.0014236	0.0033176	0.00060818	382.53	7.4946e-05	5.3007e-05	390.43	122.54	6.9491e-05	4.5164e-06	135.4	47.644	46.788	21.179	5.2458e-05	22.123	0.023159	0.024852	0.0065257	4262.9	0.00026277	0.00027173	1455.4	447.71	0.00026843	0.00027184	696.1	228.75	219.93	86.709	0.00025425	105.23	318.390	15.569	1.513	-15.004	232.286	44.053	-14.346	-5.677	174.745	210.850	-10.005	-3.789	1.053	4.138	202.827	-0.245	-8191	255	
3142.177	1	1	0	0	0.062245	0.18469	0.16524	0.090237	0.10476	0.145	0.32428	0.13029	0.18254	0.048916	0.016657	0.20543	0.13296	0.24044	0.082082	0.25712	-2.3771	-2.8937	-3.0792	-2.7917	-3.175	-2.9354	-2.7167	-3.2667	-2.6729	-2.9625	-3.0875	-2.6708	-3.0833	-2.8187	-2.75	-3.0062	193.678	43.033	74.816	154.226	104.791	328.800	325.197	56.003	133.373	34.896	237.448	263.781	111.017	209.231	140.660	321.950	0.00081163	0.0022542	0.0018594	377.86	3.7718e-05	3.1468e-05	379.46	122.08	4.4001e-05	3.759e-05	133.89	46.934	46.188	20.858	3.4933e-05	21.97	0.023429	0.023936	0.0062407	4184.3	0.00026449	0.0002583	1407.1	442.83	0.00026663	0.00026034	669.88	228.75	220.58	83.999	0.00024609	106.56	325.463	29.174	7.289	-12.724	224.036	25.573	-14.174	-5.312	191.651	51.037	-10.347	-2.511	-0.713	4.091	7.323	1.335	-8191	255	
3142.298	1	1	0	0	0.14548	0.22237	0.039812	0.10418	0.16155	0.17972	0.093895	0.047712	0.15606	0.20395	0.066356	0.33945	0.16116	0.021093	0.25105	0.13644	-2.4688	-2.7792	-3.125	-2.8688	-3.0312	-2.9125	-2.7167	-2.9958	-2.8	-2.7562	-3.1146	-2.5687	-3.0458	-3.0229	-2.6063	-3.2021	185.643	290.800	66.380	247.049	267.445	244.155	216.959	29.542	303.003	31.376	-19.646	331.652	326.831	63.509	235.347	239.096	0.0010832	0.0023066	0.00042859	370.53	2.8985e-05	2.7275e-05	385.28	121.7	6.8097e-05	2.5488e-05	131.13	47.245	46.562	21.254	5.3489e-05	22.301	0.023293	0.023313	0.0060682	4273.1	0.00026337	0.0002502	1376.2	453.28	0.00026239	0.00025469	656.46	233.88	218.99	82.952	0.00024333	110.62	54.007	17.013	-16.214	-11.082	93.909	-7.943	-14.521	-4.889	-18.967	104.819	-9.416	-2.705	-1.014	4.924	77.130	0.128	-8191	255	
3142.392	1	1	0	0	0.067386	0.22746	0.16903	0.11421	0.054476	0.1318	0.22661	0.22763	0.20673	0.18846	0.058194	0.16079	0.038759	0.16899	0.18008	0.089188	-2.375	-2.8063	-2.95	-2.5646	-2.9104	-2.9271	-2.7042	-2.9604	-2.8063	-2.8542	-2.9375	-3.1292	-3.1292	-3.0854	-2.9562	-3.275	208.470	-3.788	176.445	299.488	53.548	0.047	197.095	42.887	50.767	-9.006	281.942	96.945	278.896	-13.840	251.387	225.484	0.0012897	0.002607	0.0008437	370.24	4.5132e-05	1.6471e-05	381.37	121.36	7.8771e-05	6.1425e-05	135.45	47.64	46.573	21.42	6.6485e-05	22.479	0.023012	0.023174	0.0060538	4433.2	0.00026208	0.00024799	1383.3	467.35	0.0002569	0.00025246	664.49	239.55	215.89	81.981	0.00024478	113.28	140.429	11.259	66.586	-8.658	99.841	49.183	-13.557	-5.548	325.123	69.745	-8.567	-2.336	-1.082	4.692	169.801	0.869	-8191	255	
3142.489	1	1	0	0	0.14174	0.02893	0.2065	0.2809	0.22433	0.12275	0.33864	0.0098023	0.055978	0.012314	0.037138	0.24996	0.19894	0.12039	0.108	0.12422	-2.7042	-2.8292	-3.0854	-2.5708	-2.8792	-3.0375	-2.4896	-3.1312	-2.975	-2.7708	-3.1271	-2.7833	-2.8708	-2.9854	-2.5938	-3.0083	188.304	257.962	292.163	260.535	2.931	90.899	249.620	51.376	94.975	230.465	179.038	289.430	242.389	324.150	238.907	236.173	0.0002629	0.0033606	0.0013542	389.14	3.4424e-05	2.1158e-05	375.57	122.79	4.4926e-05	3.0939e-05	133.57	47.906	47.141	21.202	6.7933e-05	22.843	0.022306	0.022544	0.0060809	4403.6	0.00025026	0.00023538	1373.9	461.15	0.00024298	0.00023861	660.97	232.13	207.39	78.063	0.00024366	109.42	147.173	1.001	169.892	-13.025	44.708	333.923	-13.576	-5.437	-18.973	333.295	-7.825	-3.487	-0.993	5.508	182.531	-0.166	-8191	255	
3142.609	1	1	0	0	0.098362	0.082694	0.16904	0.14783	0.1862	0.069999	0.26235	0.2262	0.095434	0.11799	0.23266	0.19139	0.097323	0.084332	0.12472	0.10932	-2.4625	-2.5417	-3.2333	-2.8708	-2.9313	-3.1125	-2.7979	-3.1146	-2.9104	-2.8229	-3.1667	-2.9583	-2.9437	-3.1188	-2.6896	-3.225	322.626	95.993	180.035	202.635	173.937	53.211	178.429	-15.815	233.126	286.654	59.351	130.673	205.138	248.938	12.188	75.384	0.00079027	0.003024	0.0012315	374.39	1.4108e-05	1.4279e-05	375.35	124.51	3.5958e-05	4.0704e-05	131.52	48.93	46.949	20.904	5.4523e-05	22.483	0.021116	0.021457	0.0061555	4231.6	0.00024145	0.00022666	1381.2	450.28	0.0002337	0.00023111	668.71	224.47	201.72	76.869	0.00024624	106.73	93.360	-2.654	142.538	-12.378	93.387	251.372	-13.266	-6.211	-21.778	54.423	-7.242	-4.338	-0.837	5.240	175.488	-0.750	-8191	255	
3142.681	1	1	0	0	0.048581	0.15973	0.12067	0.11584	0.10338	0.11333	0.31876	0.22042	0.16043	0.24745	0.20095	0.13206	0.43276	0.16802	0.15669	0.21611	-2.6917	-2.8521	-3.3833	-2.6854	-2.8458	-3.2438	-2.8271	-3.1896	-3.1021	-3.0521	-3.1604	-2.8396	-2.925	-3.1229	-2.8042	-2.9813	17.460	39.883	208.039	55.811	7.614	22.525	52.554	177.956	141.000	334.263	185.910	237.801	2.322	274.027	303.672	128.026	0.00037819	0.0035329	0.00079781	387.58	5.0642e-05	4.4173e-05	379.72	123.75	4.1042e-05	6.2675e-05	134.83	48.257	46.497	21.318	2.9215e-05	23.096	0.02035	0.021095	0.0062715	4127.9	0.00023624	0.00022877	1405	445.09	0.00022992	0.00023661	688.82	222.72	201.29	79.254	0.00025227	106.74	55.805	50.063	120.837	-14.745	39.504	223.987	-13.922	-6.546	-15.123	199.644	-9.016	-3.757	-1.054	5.757	60.979	-1.252	-8191	255	
3142.777	1	1	0	0	0.27842	0.062223	0.052715	0.085026	0.30909	0.15015	0.044172	0.30693	0.0959	0.065698	0.15797	0.15922	0.15771	0.10037	0.17722	0.28166	-2.6396	-2.9542	-2.9313	-3.1125	-2.5896	-3.2271	-3.0396	-2.8187	-2.9104	-2.9271	-2.8375	-2.9062	-2.7167	-2.9979	-2.8625	-2.9792	334.938	164.544	318.579	88.643	147.448	-1.262	217.314	104.506	76.299	28.499	26.229	5.855	-12.743	167.998	91.365	61.096	0.0016599	0.0042946	0.00032069	380.09	3.3809e-05	8.4722e-05	388.8	124.8	4.0754e-05	6.7027e-05	137.74	49.956	47.634	21.753	3.351e-05	23.409	0.020214	0.02203	0.006403	4070.3	0.00023365	0.00023748	1407.4	441.62	0.00022385	0.00024244	682.09	217	196.29	80.486	0.00024022	103.41	175.851	146.385	118.142	-14.407	48.551	201.114	-13.751	-5.942	46.706	186.684	-10.189	-4.166	-0.280	5.418	-16.428	-0.672	-8191	255	
3142.873	1	1	0	0	0.1781	0.12812	0.09378	0.10246	0.38716	0.048116	0.22693	0.25913	0.044859	0.16048	0.17506	0.24399	0.30166	0.073257	0.23823	0.029374	-2.7125	-2.7271	-2.8354	-3.0021	-2.5646	-2.95	-2.7458	-2.9375	-3.0812	-2.6354	-2.9813	-2.8417	-2.7042	-3.1437	-2.8917	-2.5917	289.513	224.553	171.694	210.562	99.280	206.309	288.225	321.991	20.856	158.037	99.339	67.312	324.734	46.393	184.824	284.862	0.0013937	0.0024936	0.00023146	397.59	1.963e-05	8.538e-05	376.99	124	6.2543e-05	1.1889e-05	135.92	49.542	47.346	22.072	3.9292e-05	23.297	0.019155	0.021909	0.0060765	3834.4	0.00022055	0.00023443	1322.6	419.08	0.00021153	0.00023433	639.64	203.5	189.03	78.956	0.00022167	97.823	249.503	148.919	-13.318	-14.816	8.923	192.121	-14.242	-6.096	116.118	279.600	-10.506	-4.419	-0.093	5.198	44.597	-0.627	-8191	255	
3142.994	1	1	0	0	0.25761	0.035113	0.1457	0.1232	0.034009	0.16243	0.16489	0.094717	0.063258	0.12339	0.15395	0.16749	0.15531	0.20212	0.054788	0.049904	-2.8667	-2.775	-2.7646	-2.9167	-2.675	-3.0042	-2.9437	-2.9896	-3.2125	-2.6542	-2.9604	-3.2458	-2.7562	-3.125	-2.9354	-2.5667	331.081	176.171	64.397	269.799	153.759	279.955	312.539	128.455	195.810	284.447	-4.275	306.482	166.999	-23.059	143.756	166.895	0.0018052	0.0029747	0.00054533	385.44	5.2314e-05	3.2642e-05	377.43	123.77	0.00011091	8.5873e-06	136.88	49.285	47.83	22.631	3.9997e-05	24.109	0.018525	0.021042	0.0056575	3581.9	0.00021502	0.00022727	1253.2	401	0.00020888	0.00022596	613.46	195.23	188.21	77.706	0.00020946	94.906	302.260	184.701	270.865	-12.580	230.848	92.437	-14.270	-5.719	195.831	247.441	-9.030	-4.594	0.787	4.392	36.843	0.138	-8191	255	
3143.090	1	1	0	0	0.325	0.076769	0.11828	0.051773	0.2972	0.13034	0.25244	0.27107	0.16596	0.18839	0.10722	0.2264	0.3106	0.22062	0.23313	0.18647	-2.6625	-2.7562	-2.7938	-3.1896	-2.725	-3.1104	-2.9833	-2.7667	-3.1167	-2.5687	-2.7771	-3.1646	-2.7917	-2.8083	-2.9896	-2.6937	66.780	55.357	277.136	123.382	-15.094	143.267	142.193	315.019	330.926	259.448	169.241	106.247	333.240	250.249	159.611	336.471	0.0020887	0.0023444	0.00022806	375.78	4.6948e-05	3.5133e-05	375.53	123.89	4.516e-05	3.094e-05	140.31	50.317	48.614	23.08	1.1967e-05	24.359	0.018584	0.020195	0.0054098	3437	0.00021769	0.000222	1224.2	395.73	0.00021515	0.00021961	607.88	194.1	193.6	77.247	0.00020499	95.021	266.606	288.852	110.361	-13.315	222.207	265.898	-13.959	-5.452	132.880	33.169	-8.644	-3.293	0.538	4.375	74.796	-0.361	-8191	255	
3143.186	1	1	0	0	0.20373	0.29922	0.17126	0.18725	0.1031	0.081325	0.11146	0.10248	0.063891	0.23034	0.12139	0.10206	0.03934	0.23608	0.098971	0.21143	-2.7229	-2.7062	-2.5896	-3.1937	-2.8063	-3.0125	-3.2292	-2.55	-3.175	-3.0208	-2.7458	-3.2792	-2.8333	-3.0125	-3.275	-2.7125	137.956	216.596	154.419	296.490	78.812	193.618	334.182	67.299	237.853	147.436	79.433	50.958	36.404	292.169	-19.369	134.271	0.0015714	0.0014439	0.00094071	360.86	3.3887e-05	3.1533e-05	377.65	123.76	2.6059e-05	4.086e-05	139.29	48.9	48.721	22.481	2.6259e-05	23.688	0.0193	0.019804	0.00538	3484	0.00022457	0.00021958	1211.8	402.02	0.00022352	0.00021762	604.51	199.59	197.29	76.841	0.00020422	97.815	312.544	-3.425	-10.638	-10.952	220.570	43.809	-14.901	-5.037	126.768	27.301	-8.300	-2.364	-0.452	4.425	336.851	0.359	-8191	255	
3143.258	1	1	0	0	0.22353	0.029159	0.036258	0.19685	0.1537	0.136	0.25987	0.14255	0.1419	0.082516	0.11352	0.15746	0.18788	0.18304	0.22843	0.16403	-2.7646	-2.9417	-2.6188	-2.9896	-2.7521	-3.1396	-2.925	-2.5354	-3.2292	-2.8792	-2.7687	-3.3208	-2.8375	-2.7792	-2.9521	-2.8792	193.568	21.887	117.904	183.863	13.916	139.631	323.659	323.828	334.227	104.393	245.545	257.921	78.493	102.840	304.122	149.509	0.00091327	0.0064343	0.00065035	346.43	7.6288e-06	1.2675e-05	368.57	122.23	5.5757e-05	1.8369e-05	134	48.451	48.709	21.987	2.1343e-05	23.501	0.019932	0.019671	0.005334	3649.6	0.00022771	0.00021986	1205.6	415.48	0.00022859	0.0002179	608.5	210.37	199.18	77.551	0.00020765	102.68	102.543	333.262	299.996	-10.193	171.263	26.768	-15.190	-4.809	-22.261	294.347	-9.271	-1.959	-1.071	3.941	94.253	1.022	-8191	255	
3143.378	1	1	0	0	0.099237	0.3258	0.26108	0.46304	0.069798	0.18534	0.21476	0.11188	0.027569	0.11455	0.35915	0.26506	0.38771	0.2968	0.15999	0.23508	-2.5625	-3.0771	-2.6333	-3.0812	-3.1104	-2.8521	-2.9854	-2.8375	-3.0354	-2.8667	-2.8979	-3.0979	-2.8937	-2.6562	-3.1792	-2.6833	200.424	317.249	59.751	62.855	301.183	247.776	101.545	251.174	315.447	303.444	249.338	104.680	-13.693	198.900	211.208	258.528	0.0011582	0.00085946	0.00052626	355.16	4.522e-05	2.4178e-05	370.45	122.66	9.4627e-06	4.4677e-05	136.78	48.743	48.556	22.249	5.034e-05	23.922	0.020422	0.019972	0.0054807	3892	0.00022914	0.00022262	1227.8	431.8	0.00022916	0.00021609	615.77	217.68	196.3	77.162	0.00021124	104.73	92.937	45.876	50.964	-8.837	104.542	18.863	-14.317	-4.874	92.769	21.400	-8.537	-2.640	-0.871	4.021	267.186	-0.159	-8191	255	
3143.473	1	1	0	0	0.26797	0.16155	0.065043	0.16125	0.17419	0.29378	0.26596	0.066682	0.16495	0.05713	0.22002	0.041399	0.081426	0.31963	0.1556	0.22674	-2.4604	-3.0083	-2.7375	-2.9375	-2.8812	-2.8688	-3.0729	-2.8854	-2.9292	-2.9875	-2.5542	-3.2521	-2.8812	-2.5667	-3.0938	-3.0667	64.108	36.037	186.809	177.389	189.416	-20.610	84.243	272.181	330.632	281.371	49.697	134.726	89.795	197.775	114.939	255.884	0.0014207	0.0044638	0.0013429	373.26	3.2465e-05	1.9785e-05	370.13	125.11	2.8492e-05	8.8753e-06	137.6	49.058	48.05	22.348	8.3392e-05	24.778	0.020064	0.019582	0.0055981	4000.6	0.00022484	0.00021963	1257.9	435.12	0.00022486	0.00021161	630.54	219	192.27	75.948	0.00021923	103.69	108.029	309.184	157.699	-8.951	49.275	27.594	-13.688	-5.523	335.343	10.260	-8.646	-3.240	-1.435	4.046	218.140	-0.695	-8191	255	
3143.571	1	1	0	0	0.089493	0.031787	0.10853	0.27152	0.023945	0.11696	0.12946	0.10698	0.19642	0.13642	0.25892	0.10229	0.093497	0.085038	0.12214	0.11109	-2.1167	-2.9042	-2.6604	-3.0854	-3.1063	-2.5625	-2.8896	-2.825	-2.65	-2.9938	-2.5021	-3.0312	-3.1	-2.875	-3.0125	-2.9021	95.698	25.640	312.588	280.048	47.216	249.365	17.352	41.880	98.549	331.723	208.771	185.473	-13.726	156.672	181.324	296.863	0.0010457	0.003337	0.0016065	356.85	2.0166e-05	1.0781e-05	365.06	124.14	5.6792e-06	1.4172e-05	135.58	49.407	48.313	22.374	8.9198e-05	24.147	0.019527	0.01886	0.0056981	3901.3	0.00021544	0.00021088	1275.1	421.1	0.00021629	0.00020466	635.99	213.12	186.55	74.542	0.00022295	100.01	79.857	160.666	159.658	-13.358	41.416	297.306	-12.794	-6.559	-10.866	72.103	-8.394	-3.065	-1.121	4.334	182.053	-1.170	-8191	255	
3143.690	1	1	0	0	0.13042	0.14009	0.1265	0.29799	0.031722	0.24209	0.085039	0.156	0.11158	0.18399	0.11108	0.099218	0.01563	0.19964	0.074267	0.10514	-2.4792	-2.7562	-2.8063	-2.875	-3.0104	-2.7229	-3.1458	-3.0438	-2.7604	-3.1562	-2.6646	-2.8875	-3.075	-2.8792	-3.0229	-2.9729	105.517	213.660	272.385	102.618	108.003	333.467	129.011	40.198	69.372	236.180	183.618	317.693	65.189	265.929	35.580	25.580	0.0014061	0.0040734	0.0011873	370.54	1.1227e-05	3.1969e-05	367.73	123.4	1.0374e-05	5.0109e-05	138.77	49.775	48.273	22.432	2.3583e-05	24.51	0.018901	0.018637	0.0057373	3759	0.00020663	0.00020956	1280.1	408.34	0.00020937	0.00020481	634.08	206.55	180.86	75.181	0.00022337	97.392	88.995	189.951	102.622	-15.420	31.438	239.648	-13.639	-6.528	-0.114	229.236	-9.272	-4.224	-0.915	5.458	162.185	-1.230	-8191	255	
3143.786	1	1	0	0	0.20098	0.033457	0.15244	0.21481	0.27262	0.25271	0.037233	0.051411	0.30944	0.11969	0.10798	0.29403	0.056376	0.25376	0.16197	0.062601	-2.3187	-3.2667	-2.925	-3.0104	-3.1229	-2.5187	-2.9771	-2.9083	-2.5583	-3.2333	-2.9813	-2.875	-3.2708	-2.6771	-2.7875	-2.8458	135.396	249.015	289.122	218.159	218.643	293.567	248.984	79.296	195.669	335.445	177.330	258.169	121.513	321.721	258.104	149.698	0.0010731	0.0040136	0.00063029	373.69	1.4378e-05	6.0279e-05	368.63	125.62	2.8442e-05	5.5044e-05	140.72	50.827	48.404	22.89	2.6261e-05	25.086	0.018356	0.019151	0.0057456	3699.4	0.0002021	0.00021693	1286.2	403.8	0.00020678	0.00021536	633.75	206.55	180.32	77.917	0.00022428	97.286	102.387	173.098	158.054	-13.173	16.951	215.855	-14.209	-6.392	245.659	185.265	-10.018	-3.896	-0.338	5.616	177.240	-1.264	-8191	255	
3143.882	1	1	0	0	0.1839	0.29093	0.21994	0.10642	0.087833	0.12281	0.132	0.12154	0.40907	0.12137	0.14538	0.26344	0.12812	0.05843	0.068516	0.2949	-2.4458	-3.1729	-2.7729	-2.8021	-3.0625	-2.9479	-2.9792	-2.8271	-2.6188	-3.1937	-3.0979	-2.7667	-3.1542	-3	-2.95	-3.0146	71.094	-5.409	-15.620	89.931	304.114	118.486	275.726	78.411	133.346	251.006	306.220	323.110	73.703	287.695	302.137	30.469	0.0020421	0.0044235	0.00078146	375.06	2.372e-05	2.3495e-05	378.53	126.01	6.6375e-05	2.8046e-05	140.73	50.798	48.476	22.251	5.7742e-05	24.217	0.018378	0.020291	0.0056927	3726	0.00020512	0.00022933	1296.9	405.31	0.00021272	0.00022948	632.9	207.95	184.47	80.005	0.00022348	96.092	314.771	107.309	255.409	-13.707	190.282	226.077	-14.330	-6.802	204.488	213.780	-10.723	-4.038	-0.637	5.043	-18.396	-1.421	-8191	255	
3143.978	1	1	0	0	0.27719	0.0032596	0.37223	0.18689	0.14069	0.19296	0.21648	0.1724	0.15797	0.3267	0.26956	0.1103	0.14962	0.28906	0.24624	0.1076	-2.2875	-2.9271	-2.825	-2.5896	-3.1771	-2.7812	-2.8917	-2.8229	-2.5229	-3.2417	-3.0396	-2.6854	-2.9417	-2.8604	-3.1021	-3.1063	215.541	285.953	229.697	213.538	59.790	-11.077	211.746	177.668	32.965	81.184	30.754	54.695	242.946	274.169	225.519	92.109	0.002562	0.00077134	0.0015291	363.35	5.4562e-05	2.1423e-05	372.83	123.65	1.8224e-05	2.3583e-05	138.41	50.159	48.266	22.457	3.5809e-05	24.114	0.019005	0.021009	0.0055894	3678.5	0.00021238	0.00023255	1280.1	399.66	0.00022091	0.00023405	624.63	206.44	192.75	80.558	0.00022321	95.709	315.506	293.175	-12.069	-14.273	232.290	302.938	-13.679	-5.988	119.742	40.988	-10.286	-3.354	0.194	4.674	50.188	-0.741	-8191	255	
3144.074	1	1	0	0	0.030914	0.19057	0.23532	0.1677	0.15292	0.14434	0.041696	0.085941	0.164	0.097987	0.12603	0.1444	0.16084	0.39627	0.26214	0.12683	-2.1417	-3.1042	-3.0396	-2.5792	-2.975	-2.7625	-2.9958	-3.2604	-2.7917	-2.9229	-3.0354	-2.7958	-3.1229	-2.9437	-2.8729	-3.0625	13.984	23.968	209.713	-6.928	264.222	298.573	304.198	128.477	19.423	61.266	8.544	164.743	98.915	202.735	319.218	156.586	0.0022265	0.0030398	0.00076693	369.39	1.6754e-05	1.7907e-05	373.79	124.6	3.5409e-05	3.3169e-05	137.57	50.22	47.83	22.291	4.0737e-05	23.893	0.020013	0.021406	0.0055823	3701.2	0.00022647	0.00023402	1290.1	402.47	0.00023495	0.00023816	629.46	210.28	203.81	81.226	0.00022878	98.789	317.038	-16.431	267.172	-11.540	236.648	55.401	-14.006	-4.758	218.874	61.992	-10.142	-3.603	-0.185	4.314	71.718	0.471	-8191	255	
3144.170	1	1	0	0	0.046042	0.12157	0.24648	0.13859	0.26714	0.24579	0.044516	0.034107	0.20634	0.091025	0.18749	0.097272	0.19897	0.10632	0.073763	0.27171	-2.5125	-2.8271	-3.0812	-2.525	-3.025	-2.9042	-2.9188	-3.2333	-2.65	-2.9938	-3.2417	-2.875	-2.9625	-2.925	-2.8167	-3.0479	33.360	153.860	289.623	283.862	211.389	303.495	-14.302	293.468	11.899	53.640	-13.242	64.055	-21.131	192.206	-15.880	183.666	0.0020087	0.0038789	0.00057807	371.72	2.968e-05	3.6573e-05	379.95	123.8	2.0982e-05	3.8868e-05	139.46	50.438	48.628	22.535	2.8227e-05	24.287	0.021354	0.021704	0.0056506	3837.5	0.00024254	0.00023533	1307.9	416.97	0.00024545	0.0002387	629.21	218.35	210.79	80.765	0.00022849	103.22	268.033	327.566	-14.658	-9.549	218.171	67.088	-14.530	-4.881	240.997	38.157	-10.329	-3.323	-0.330	4.668	37.599	0.446	-8191	255	
3144.291	1	1	0	0	0.29437	0.068406	0.25577	0.17269	0.14689	0.16335	0.14906	0.18821	0.36869	0.26566	0.10015	0.19894	0.37017	0.054661	0.18464	0.11126	-2.3125	-2.9104	-3.1292	-2.7521	-3.0146	-3.1146	-2.7417	-3.2083	-2.8479	-2.7583	-3.1	-2.7042	-2.8937	-3.1875	-2.7292	-3.1583	110.564	317.219	241.478	-5.756	56.580	200.454	-20.397	332.255	266.966	145.252	218.186	204.273	277.634	240.544	29.753	-19.330	0.00047935	0.0044054	0.00068338	359.79	2.6174e-05	4.1457e-05	378.14	123.12	7.875e-06	2.9959e-05	136.74	49.281	48.944	22.12	1.017e-05	23.33	0.021876	0.0217	0.0055875	4004.9	0.00024574	0.00023057	1291	430.66	0.00024256	0.00023418	615.24	222.66	207.97	78.727	0.00022276	105.07	138.189	332.852	79.528	-9.748	-7.036	-19.519	-14.347	-4.693	319.870	90.701	-8.912	-3.237	-1.217	4.281	12.198	0.896	-8191	255	
3144.385	1	1	0	0	0.11249	0.20968	0.16212	0.14653	0.34625	0.062553	0.23935	0.25521	0.12877	0.23064	0.16954	0.12955	0.051747	0.21657	0.14892	0.23034	-2.4771	-2.5833	-3.1125	-2.8354	-2.9667	-3.1083	-2.6917	-3.2083	-2.7875	-2.6167	-3.0958	-2.8854	-3.0604	-3.0604	-2.7521	-3.3229	241.903	130.472	237.176	216.655	247.638	197.869	280.491	291.882	271.144	56.306	37.356	250.202	294.955	256.811	253.978	120.815	0.0014737	0.0040717	6.733e-05	358.74	2.853e-05	2.2493e-05	370.7	123.04	3.1157e-05	6.8581e-05	135.35	49.562	48.135	22.054	4.2008e-05	23.287	0.021198	0.021263	0.005554	4125.6	0.00024251	0.00022795	1298.9	445.52	0.00023977	0.00023447	628.68	230.07	206.72	78.305	0.00023115	109.6	92.708	-12.636	134.529	-9.321	77.922	54.854	-13.124	-5.373	88.529	36.601	-8.193	-2.152	-1.580	4.286	264.487	0.019	-8191	255	
3144.482	1	1	0	0	0.061856	0.14419	0.14874	0.20353	0.15942	0.188	0.14259	0.34192	0.11662	0.064813	0.047528	0.2514	0.055968	0.28303	0.15744	0.12289	-2.3896	-2.6729	-2.9208	-2.9479	-2.8583	-2.9208	-2.6792	-3.0104	-2.925	-2.5563	-3.1875	-3.0187	-2.8812	-3.1625	-2.4771	-3.1333	43.410	30.662	292.494	50.855	13.527	202.832	60.595	315.558	48.916	-17.547	265.225	172.836	242.985	-1.920	82.349	86.183	0.0018637	0.0027062	0.0025015	371.22	3.5707e-05	2.8622e-05	369.07	123.94	3.0841e-05	3.899e-05	133.24	49.57	48.092	22.032	5.775e-05	23.794	0.021027	0.021327	0.0058221	4270.7	0.00024218	0.00022727	1348.2	459.19	0.00023898	0.00023673	665.4	236.18	209.76	79.009	0.00024935	113.25	189.959	-0.170	149.523	-10.087	19.610	15.247	-14.185	-5.384	3.573	13.499	-5.961	-4.763	-0.999	4.867	229.117	-0.724	-8191	255	
3144.555	1	1	0	0	0.25181	0.19199	0.15031	0.11421	0.18258	0.090427	0.067601	0.16021	0.15009	0.21813	0.20795	0.21463	0.36017	0.1744	0.21166	0.066036	-2.525	-2.725	-3.0271	-2.8146	-2.9188	-3.025	-2.6375	-2.9	-3.0667	-2.4188	-2.8563	-2.7979	-2.9083	-2.9771	-2.8	-2.9542	82.999	49.165	256.302	244.951	143.819	113.983	46.303	255.563	82.396	182.500	45.789	164.328	238.958	14.618	53.236	287.742	0.0010223	0.0029575	0.0025421	376.38	1.7695e-05	1.9365e-05	370.31	125.39	4.9486e-05	4.1304e-05	139.27	50.765	48.335	21.943	3.5597e-05	23.541	0.021468	0.021926	0.006333	4356.1	0.00024832	0.00023101	1420.7	464.03	0.00023986	0.00023924	697.32	233.69	209.46	79.493	0.00025706	111.06	105.845	-18.244	129.953	-16.296	151.464	73.486	-13.051	-6.792	63.457	276.938	-7.299	-4.696	-1.203	5.203	237.751	0.510	-8191	255	
3144.674	1	1	0	0	0.17261	0.031518	0.057855	0.062631	0.12306	0.066738	0.11282	0.17816	0.14078	0.12254	0.069328	0.061045	0.1801	0.14442	0.18793	0.26892	-2.5333	-2.7042	-3.1667	-2.8563	-2.5625	-3.1771	-2.8729	-3.0333	-3.1146	-2.5479	-3.2208	-3.1396	-2.9813	-3.0604	-2.7479	-2.9313	204.184	296.276	9.456	209.860	-17.178	302.442	228.844	304.658	142.201	242.889	202.686	171.825	51.583	95.259	231.602	264.124	0.00066063	0.0017054	0.0010826	364.67	1.4022e-05	1.2747e-05	372.38	123.54	3.8553e-05	4.3987e-05	135.22	48.747	47.279	21.738	3.5079e-05	23.528	0.020922	0.021921	0.0065334	4238.5	0.00024325	0.00023437	1433.7	454.01	0.00023363	0.000243	705.82	226.87	205	80.661	0.0002584	108.57	182.138	218.736	132.631	-16.012	65.111	157.027	-14.341	-5.894	23.154	197.234	-8.824	-5.533	-0.453	5.458	30.384	-0.953	-8191	255	
3144.770	1	1	0	0	0.28569	0.12175	0.12776	0.22344	0.026332	0.23551	0.17592	0.13354	0.12578	0.11778	0.073901	0.017419	0.27654	0.14876	0.35125	0.048731	-2.7021	-2.4062	-2.9771	-2.9104	-2.5729	-3.2313	-2.8292	-2.7958	-3.1583	-2.8083	-3.0042	-3.1312	-2.7729	-2.9458	-2.8958	-2.9458	266.210	79.926	119.057	261.969	168.766	5.998	-1.246	164.543	190.728	277.301	0.024	310.934	257.310	186.358	251.663	143.542	0.00092917	0.0058793	0.00099392	379.15	3.0541e-05	4.8984e-05	376.22	123.27	5.0024e-05	5.1655e-05	135.18	49.754	47.292	21.893	4.3881e-05	24.319	0.020323	0.022472	0.0065559	4108.3	0.00023757	0.00024217	1418.4	445.03	0.00022521	0.00024824	694.64	220.38	199.89	82.537	0.00024818	106.49	170.713	191.564	31.815	-13.494	65.386	186.974	-14.890	-5.852	297.595	216.914	-9.833	-4.545	-1.357	5.035	-3.429	-0.631	-8191	255	
3144.866	1	1	0	0	0.14257	0.055126	0.16963	0.0857	0.11756	0.13466	0.23941	0.12121	0.22459	0.22057	0.070646	0.26655	0.068881	0.058305	0.07164	0.21706	-2.6458	-2.7562	-2.8979	-3.0125	-2.6271	-3.3292	-3.0438	-2.6813	-3.0375	-2.7938	-2.9104	-2.8958	-2.6208	-2.9625	-2.8312	-2.6083	82.589	236.718	11.208	102.243	-19.384	6.654	34.810	273.420	29.887	90.625	294.096	284.755	231.832	323.930	250.009	-0.450	0.00065743	0.0039622	0.00047174	366.09	3.3503e-05	4.212e-05	377.97	124.43	5.3404e-05	6.4442e-05	137.35	49.614	48.328	22.106	5.9272e-05	24.269	0.019826	0.022957	0.0063491	3986.6	0.00023338	0.00024992	1383.8	439.77	0.00022647	0.00025453	684.15	217.53	202.65	84.858	0.00024318	105.62	269.920	181.620	285.450	-16.046	275.412	181.025	-15.757	-6.427	174.305	227.529	-9.288	-4.568	0.239	5.286	9.477	-0.152	-8191	255	
3144.962	1	1	0	0	0.16937	0.34256	0.29923	0.1167	0.13905	0.15583	0.088157	0.2827	0.33395	0.10818	0.036088	0.1404	0.17224	0.12797	0.10225	0.15857	-2.7896	-2.7333	-2.6958	-3.0208	-2.7854	-3.1083	-2.8438	-2.6854	-3.1042	-2.9354	-2.9583	-3.1063	-2.65	-3.1167	-2.9875	-2.7208	222.895	-5.507	151.637	2.740	4.139	292.289	-10.412	314.091	177.970	328.417	306.483	297.688	95.075	173.759	195.504	74.506	0.0020409	0.0038913	0.00088708	369.12	6.2152e-05	2.3079e-05	380.32	123.82	9.636e-05	1.1358e-05	135.39	48.737	47.477	21.93	5.1622e-05	23.922	0.020356	0.023344	0.0062525	3914.2	0.00023999	0.00025426	1358.1	432.77	0.00023412	0.00025384	668.67	211.83	205.73	84.103	0.0002341	102.7	284.564	124.322	24.112	-15.994	182.135	126.591	-14.656	-5.900	155.011	77.252	-10.244	-4.142	1.096	4.787	92.870	-0.585	-8191	255	
3145.083	1	1	0	0	0.15338	0.20375	0.13019	0.055017	0.32623	0.11126	0.12366	0.082423	0.12435	0.11885	0.21627	0.2108	0.072456	0.11454	0.18423	0.16859	-2.5687	-2.8563	-2.7042	-3.1479	-2.8354	-2.8667	-2.8917	-2.8271	-2.9062	-2.8729	-2.7208	-2.9875	-2.7896	-2.9313	-2.9104	-2.7271	133.553	14.611	5.684	324.665	-16.069	193.748	93.920	180.877	41.552	265.295	264.993	239.457	225.488	51.641	134.331	1.989	0.0026672	0.0037433	0.0011943	350.6	3.3288e-05	4.9578e-05	371.12	122.79	7.862e-05	2.159e-05	134.61	49.171	47.869	21.708	5.1156e-05	23.094	0.020886	0.022666	0.0060476	3784.2	0.00024386	0.00024657	1311.8	421.9	0.00023913	0.00024326	652.73	208.45	208.11	81.827	0.00022602	101.37	324.431	280.564	327.474	-11.954	193.255	29.147	-13.858	-5.964	167.468	-4.796	-10.601	-3.428	0.305	4.292	-5.504	-0.870	-8191	255	
3145.179	1	1	0	0	0.12488	0.16504	0.080547	0.03309	0.14607	0.05948	0.072276	0.081257	0.10295	0.31404	0.26641	0.22977	0.16357	0.26284	0.081222	0.05203	-2.5187	-2.9667	-2.5917	-3.1104	-2.7396	-2.8417	-3.1875	-2.5583	-3.1854	-2.8312	-2.6854	-3.1146	-2.7417	-2.9146	-2.9792	-2.6521	196.553	115.510	84.152	148.901	328.664	304.114	19.629	64.209	75.073	102.229	294.531	96.383	227.091	285.619	258.768	-4.441	0.001163	0.005644	0.0014083	353.33	3.6711e-05	1.0988e-05	375.87	121.6	3.327e-05	1.9921e-05	137.47	48.385	48.384	22.023	3.2251e-05	23.284	0.021352	0.021711	0.0058568	3771.3	0.00024515	0.0002375	1278.2	423.23	0.00024184	0.00023236	636.95	210.82	207.64	80.074	0.00021727	102.96	259.384	3.535	324.687	-9.172	215.352	294.332	-14.601	-5.774	153.955	310.433	-10.464	-3.324	-1.230	3.563	8.090	0.212	-8191	255	
3145.251	1	1	0	0	0.29932	0.29523	0.137	0.19607	0.1047	0.08256	0.16721	0.095554	0.18659	0.13564	0.050634	0.046073	0.14105	0.094803	0.1922	0.097954	-2.5	-2.7938	-2.7375	-3.15	-2.6979	-2.8146	-3.2375	-2.6312	-3.05	-3.0167	-2.6583	-3.1271	-2.8896	-2.7792	-3.1417	-2.9042	206.174	101.715	193.880	162.586	81.243	143.789	318.892	307.993	267.579	288.488	218.541	78.829	178.942	28.379	238.073	285.881	0.00061787	0.0012098	0.00026145	361.65	3.786e-05	2.3937e-05	373.57	123.28	3.8736e-05	3.9456e-05	138.27	49.51	49.24	22.145	1.431e-05	23.628	0.021333	0.021017	0.0057219	3899.8	0.00024237	0.00023333	1260.7	433.81	0.0002401	0.00022752	626.14	217.41	204.14	79.208	0.00021332	105.16	52.262	59.210	-17.366	-8.692	126.763	39.718	-13.856	-5.441	15.151	152.533	-9.751	-2.528	-1.064	4.272	248.370	1.208	-8191	255	
3145.371	1	1	0	0	0.098777	0.049313	0.15875	0.10571	0.038635	0.075517	0.054472	0.34311	0.15953	0.17004	0.099945	0.16472	0.17537	0.18854	0.11123	0.21262	-2.5229	-2.8958	-2.7896	-2.9167	-2.9229	-2.7396	-3.3729	-2.8104	-3	-3.0271	-2.6875	-3.2167	-2.6937	-2.7062	-3.3021	-2.5833	189.851	177.199	38.784	125.861	269.629	36.408	-8.071	262.940	-19.692	142.542	61.942	216.175	23.583	325.454	16.434	43.659	0.001684	0.0011158	0.00070946	371.08	5.3992e-05	4.3488e-05	365.58	123.42	6.2601e-05	4.2121e-05	137.23	48.972	48.053	21.655	7.2837e-05	23.365	0.020768	0.02028	0.0055614	3940.5	0.0002316	0.00022404	1235.8	431.84	0.00022872	0.00021626	615.75	217.52	195.38	76.249	0.00021089	103.83	262.906	312.009	143.839	-9.778	80.553	48.724	-13.848	-5.740	-4.567	49.538	-8.716	-2.853	-0.574	3.990	163.143	-0.117	-8191	255	
3145.466	1	1	0	0	0.3066	0.20271	0.10661	0.11239	0.029987	0.17594	0.13996	0.07061	0.30013	0.21122	0.09518	0.15684	0.029816	0.34862	0.099541	0.043597	-2.5354	-3.1458	-2.7583	-3.0646	-2.8021	-2.7896	-3.2104	-2.6562	-2.9417	-3.0604	-2.7021	-3.0312	-2.95	-2.5396	-3.0333	-2.8333	309.757	190.398	251.905	127.786	166.612	327.426	110.139	74.344	264.226	-21.929	5.132	287.609	160.665	-3.602	294.368	178.683	0.0014271	0.0022501	0.00069816	364.94	2.6398e-05	5.0478e-05	368.79	123.83	2.0144e-05	2.972e-05	136.71	49.266	47.884	21.926	5.5282e-05	24.305	0.019807	0.019348	0.0055258	3924.2	0.00021983	0.00021469	1241.8	427.59	0.00022011	0.00020759	621.42	215.96	189.7	74.477	0.00021631	102.03	147.267	4.316	197.749	-12.024	86.128	29.278	-12.885	-5.413	11.569	56.535	-8.008	-3.366	-1.463	4.482	199.488	-0.740	-8191	255	
3145.562	1	1	0	0	0.29796	0.066168	0.22106	0.073321	0.18381	0.17061	0.34552	0.047	0.37815	0.25284	0.1894	0.21484	0.30016	0.17811	0.1771	0.1459	-2.2438	-3.0208	-2.5646	-3.0312	-3.1042	-2.7771	-3.1063	-3.0167	-2.8604	-2.9813	-2.7521	-3.0458	-3.0979	-2.5854	-3.1792	-2.7125	221.639	324.798	70.892	110.449	51.076	37.740	27.585	246.349	146.696	67.440	69.059	45.788	65.156	101.608	223.437	305.754	0.00037901	0.0011498	0.00098624	359.4	2.0661e-05	2.6471e-05	372.13	123.29	3.0147e-05	1.6913e-05	137.93	49.707	48.501	22.263	2.5488e-05	24.706	0.019281	0.018691	0.0056809	3869.5	0.00021419	0.00021011	1279	421.11	0.0002161	0.00020498	636.97	212.77	186.73	74.671	0.00022433	100.67	129.520	18.959	70.668	-14.160	45.363	209.905	-12.251	-6.252	-20.663	184.866	-8.185	-4.123	-0.465	5.221	181.236	-1.249	-8191	255	
3145.658	1	1	0	0	0.10886	0.16707	0.098193	0.17471	0.1266	0.29531	0.17769	0.1463	0.10256	0.21123	0.15137	0.32981	0.20308	0.22039	0.093492	0.13109	-2.6333	-3.1	-2.7938	-2.8604	-3.1083	-2.6437	-3.2188	-3.0833	-2.6896	-3.2792	-2.7062	-2.9813	-3.0417	-2.6229	-3.1146	-2.9354	114.636	199.179	200.576	41.306	-4.261	192.592	291.856	329.356	159.337	179.982	117.544	319.070	300.152	59.906	19.242	39.460	0.00096518	0.0041581	0.0012726	369.41	3.9614e-05	5.4572e-05	373.46	125.81	1.2054e-05	3.4288e-05	139.67	50.651	47.979	22.408	6.4062e-05	24.644	0.018944	0.018866	0.0057835	3787.6	0.00020837	0.00021178	1293.7	410.19	0.00021038	0.0002074	637.78	207	180.91	75.024	0.00022242	96.962	34.614	140.148	184.335	-13.303	74.711	225.658	-12.848	-5.949	231.794	221.532	-9.400	-3.386	-1.053	6.360	173.278	-0.942	-8191	255	
3145.779	1	1	0	0	0.14945	0.15174	0.16156	0.10265	0.10874	0.23326	0.28073	0.21943	0.2242	0.10491	0.30524	0.10347	0.16734	0.22182	0.13774	0.080086	-2.3583	-3.2208	-2.8125	-2.7792	-3.2521	-2.6479	-3.0312	-2.975	-2.675	-3.0438	-2.9625	-2.7521	-3.0875	-2.7729	-2.9354	-2.8875	262.560	273.124	-22.813	82.998	299.872	-18.556	185.227	209.892	294.823	288.251	190.821	246.947	240.757	290.349	172.755	197.297	0.001165	0.0046495	0.0010081	368.66	1.0791e-05	4.5746e-05	369.41	123.55	3.3163e-05	4.4857e-05	139.26	50.036	47.593	22.373	3.8478e-05	24.11	0.018186	0.019073	0.0056515	3648.2	0.00019936	0.0002147	1271.9	399.09	0.00020379	0.0002142	624.9	204.74	178.98	76.992	0.00022035	95.452	179.056	155.677	320.367	-13.046	68.624	211.611	-14.190	-6.455	145.950	218.183	-9.867	-3.906	-1.397	5.593	61.184	0.153	-8191	255	
3145.850	1	1	0	0	0.41483	0.11592	0.10112	0.11408	0.13045	0.2638	0.18033	0.12267	0.0787	0.16462	0.16476	0.19289	0.15449	0.33214	0.17077	0.069113	-2.1833	-3.0187	-2.9	-2.7146	-3.1188	-2.9437	-2.925	-3.0417	-2.7	-3.0792	-2.9125	-2.6813	-3.1542	-2.8646	-2.775	-3.1583	145.831	48.682	192.428	329.439	43.779	267.014	225.175	111.259	207.502	125.961	2.609	286.377	37.218	199.666	258.116	289.333	0.001001	0.0036544	0.00074817	367.25	2.547e-05	5.4629e-05	371.21	124.83	6.1561e-05	3.3708e-05	137.66	50.371	47.297	22.33	3.8883e-05	24.337	0.018098	0.020009	0.0055606	3633.2	0.00020019	0.00022294	1261	396.39	0.00020704	0.0002233	616.29	203.57	182.36	78.777	0.00021957	95.078	289.008	150.910	332.365	-13.079	184.218	196.705	-14.217	-6.179	174.821	212.050	-10.223	-3.703	-0.392	5.337	2.021	-1.142	-8191	255	
3145.971	1	1	0	0	0.13283	0.12291	0.15799	0.27152	0.039885	0.15482	0.089334	0.18962	0.1754	0.072363	0.13608	0.19712	0.13384	0.071095	0.20556	0.06282	-2.0687	-3.1813	-2.8312	-2.7479	-3.075	-2.6792	-3	-3.1729	-2.6146	-3.1063	-3.0896	-2.5062	-3.0312	-2.6958	-2.7208	-3.0833	254.910	101.108	179.776	324.208	228.445	100.504	220.646	42.383	135.760	102.693	204.496	300.837	-3.044	5.472	117.281	49.012	0.0021862	0.0022785	0.0014361	371.29	4.3743e-05	6.3496e-06	371.48	123.43	6.388e-05	2.8558e-05	139.31	50.727	47.471	22.626	4.2671e-05	24.196	0.018718	0.020742	0.0055191	3630.1	0.00021067	0.00022939	1265	394.21	0.0002168	0.00022975	616.2	203.58	190.15	79.509	0.00021892	94.994	312.173	244.249	277.325	-13.850	213.312	3.846	-14.339	-5.953	173.951	-8.226	-9.893	-3.731	-0.043	4.432	74.578	-0.540	-8191	255	
3146.067	1	1	0	0	0.20533	0.20357	0.1568	0.091227	0.20308	0.28459	0.080514	0.20125	0.18993	0.15034	0.10486	0.20733	0.32191	0.080076	0.24905	0.23659	-2.0729	-2.9104	-2.8979	-2.6958	-3.0271	-2.8104	-2.9208	-3.0375	-2.8125	-2.8542	-3.1646	-2.6813	-3.0958	-2.9833	-2.5521	-3.0771	151.085	135.141	-12.314	246.775	32.557	91.957	54.227	255.842	140.607	179.183	199.605	147.480	330.068	208.210	-11.541	264.916	0.0021977	0.0033078	0.0011871	359.85	5.0333e-05	1.4572e-05	371.64	121.88	5.0494e-05	3.5607e-05	137.76	50.686	47.375	22.714	4.1893e-05	24.175	0.019657	0.02101	0.0054641	3622.3	0.00022235	0.00022754	1259.6	392.77	0.00022439	0.00022431	598.94	199.87	192.1	76.232	0.0002087	92.256	298.326	329.490	22.265	-11.993	238.368	-4.756	-14.321	-5.640	117.638	19.256	-9.741	-4.287	-0.479	4.150	23.761	0.744	-8191	255	
3146.163	1	1	0	0	0.18912	0.089812	0.25331	0.1157	0.097872	0.031475	0.31316	0.22175	0.057287	0.23767	0.25777	0.14218	0.12295	0.15027	0.15058	0.30507	-2.2375	-2.9042	-3.0854	-2.75	-3.1229	-2.8083	-2.7375	-3.2292	-2.7708	-2.6771	-3.0396	-2.6188	-3.1188	-2.8854	-2.5833	-3.0875	237.236	116.428	183.968	172.664	43.220	313.829	253.616	303.402	109.526	149.848	16.818	264.175	237.122	266.435	215.522	331.366	0.00024572	0.00083081	0.00059872	353.01	2.2699e-05	5.7705e-05	369.22	122.05	2.187e-05	1.6312e-05	138.75	49.594	48.018	22.31	2.7449e-05	23.873	0.019337	0.019607	0.0051296	3491.3	0.00021813	0.00021083	1201.3	386.82	0.00021858	0.00021162	572.77	198.1	189.91	73.454	0.00019962	93.294	276.688	1.772	3.477	-11.021	174.003	88.133	-14.621	-5.478	115.954	154.526	-9.470	-2.388	-0.436	3.878	18.380	0.176	-8191	255	
3146.259	1	1	0	0	0.10259	0.053798	0.14582	0.22044	0.092689	0.073461	0.35216	0.31663	0.28033	0.031759	0.13934	0.05924	0.18077	0.11895	0.078125	0.2024	-2.3646	-2.6625	-3.2687	-2.5938	-2.9729	-3.0125	-2.65	-3.1375	-2.6833	-2.825	-3.2375	-2.6917	-3.1354	-3.1958	-2.7396	-3.225	-17.652	81.576	49.532	312.380	176.473	167.805	214.397	324.183	52.257	106.179	183.563	258.152	84.824	182.126	236.956	229.614	0.0010104	0.0020912	0.0013369	342.94	7.5485e-06	3.3382e-05	366.62	122.54	6.5281e-05	3.8325e-05	137.59	50.509	48.615	22.704	1.4794e-05	24.443	0.018967	0.018968	0.0049218	3566	0.00021667	0.00020539	1184.1	398.88	0.00021759	0.00021205	572.61	207.37	192.73	74.069	0.00020466	99.344	301.267	326.453	27.426	-8.585	202.711	52.681	-13.850	-4.652	16.239	6.120	-8.757	-1.982	-0.505	3.914	46.727	0.992	-8191	255	
3146.378	1	1	0	0	0.18397	0.37639	0.37403	0.12851	0.062409	0.12155	0.24669	0.044466	0.060792	0.14894	0.16096	0.17432	0.16982	0.14572	0.29692	0.090512	-2.4417	-2.5917	-3.1958	-2.7875	-3.0438	-3.1792	-2.8646	-3.1708	-2.7958	-2.8104	-3.0042	-2.9292	-2.9875	-2.9729	-2.7188	-3.0417	336.862	259.418	279.421	175.669	129.953	163.838	250.997	150.847	181.073	322.682	138.122	39.453	-19.805	325.867	142.322	241.816	0.0010623	0.001881	0.0013715	366.55	3.6679e-05	2.5689e-05	369.41	124.24	2.5702e-05	2.9864e-05	139.01	51.42	48.587	22.65	5.8077e-05	24.445	0.019397	0.019545	0.0051062	3822	0.00022254	0.00020936	1223.6	421.25	0.0002199	0.00021558	593.98	217.87	195.27	74.39	0.00021396	103.72	174.248	157.933	102.936	-10.432	45.752	85.088	-14.025	-4.997	24.221	14.238	-8.826	-4.334	-0.973	3.923	234.101	0.359	-8191	255	
3146.452	1	1	0	0	0.31271	0.050348	0.07598	0.047098	0.030871	0.28208	0.25425	0.28081	0.20631	0.11106	0.21108	0.16478	0.23525	0.094728	0.25871	0.22077	-2.6125	-2.5938	-3.0646	-2.7083	-2.9083	-3.0375	-2.5521	-3.0479	-2.9396	-2.6562	-3.2396	-3.0042	-2.8875	-3.1208	-2.7604	-3.2646	-14.195	161.335	54.037	335.272	237.239	35.821	279.476	305.500	206.698	203.985	224.818	208.922	-5.979	228.049	-15.408	83.943	0.0016816	0.0033462	0.0016131	353.78	1.6397e-05	2.8713e-05	364.75	123.12	4.0304e-05	1.4378e-05	134.2	50.222	47.49	22.368	4.9449e-05	23.764	0.019372	0.0197	0.0053947	3961.6	0.00022349	0.00020899	1269.4	432.62	0.00022039	0.00021716	621.91	220.51	195.93	74.329	0.0002293	105.23	146.810	287.221	125.420	-14.475	293.255	82.743	-12.682	-5.169	35.462	171.716	-7.211	-3.326	-1.218	3.988	250.352	-0.098	-8191	255	
3146.546	1	1	0	0	0.10585	0.34684	0.12451	0.055327	0.35512	0.13483	0.077774	0.15634	0.10561	0.036284	0.19174	0.25661	0.22514	0.10469	0.036432	0.16091	-2.4375	-2.4646	-3.1937	-2.7542	-2.7771	-2.9562	-2.8792	-2.8458	-3.0187	-2.5938	-3.075	-2.9167	-2.7521	-3.1229	-2.8958	-2.8896	38.401	84.386	304.296	203.476	-5.525	-15.322	181.761	290.364	17.478	194.236	219.130	236.215	253.255	254.380	173.739	19.868	0.0012077	0.0010278	0.0028808	370.82	7.8549e-06	2.1632e-05	365.48	123.51	3.8942e-05	2.1819e-05	136.82	50.525	48.035	22.124	4.9184e-05	24.376	0.019512	0.019934	0.0058227	4013.1	0.00022769	0.00021233	1330.7	436.2	0.00022126	0.00022091	658.32	220.53	197.23	75.823	0.00024192	106.17	126.780	113.077	153.471	-15.346	312.882	23.205	-13.532	-5.517	23.229	232.157	-8.342	-4.406	-0.379	5.180	207.971	-0.563	-8191	255	
3146.642	1	1	0	0	0.12017	0.23087	0.10313	0.1828	0.15188	0.18399	0.14879	0.15676	0.12364	0.28448	0.13753	0.066045	0.16703	0.043779	0.3131	0.25065	-2.6333	-2.7396	-2.9083	-2.9333	-2.7646	-3.0271	-2.7646	-2.9667	-3.0271	-2.5812	-3.0646	-2.9917	-2.7396	-3.2667	-2.7938	-2.8	224.806	11.082	332.824	136.621	291.815	224.716	110.549	260.843	122.904	293.013	255.264	27.836	281.673	220.968	-15.176	167.563	0.00069546	0.0032525	0.001029	378.77	1.2767e-05	3.283e-05	367.08	123.5	3.7711e-05	6.711e-05	138.98	50.273	48.383	22.177	3.1453e-05	24.142	0.019535	0.020672	0.0061639	3991.4	0.00022883	0.00022241	1380.7	437.29	0.00022009	0.00023128	682.24	219.21	197.74	78.75	0.00024647	105.48	112.025	185.597	149.644	-15.438	56.862	166.983	-13.920	-6.645	312.988	209.545	-8.958	-4.728	-0.617	5.560	34.345	0.217	-8191	255	
3146.761	1	1	0	0	0.036261	0.18138	0.060164	0.22532	0.15225	0.1649	0.19468	0.2732	0.1104	0.17745	0.14356	0.24156	0.19242	0.053622	0.14058	0.22631	-2.7146	-2.6083	-2.9562	-2.9562	-2.6875	-3.1625	-2.9292	-2.8208	-3.1896	-2.8125	-3.0333	-2.9333	-2.6896	-3.0208	-2.7583	-2.7104	334.285	52.261	100.747	30.251	286.738	35.358	-5.647	254.886	68.293	57.654	93.334	260.680	249.368	49.778	-16.650	178.239	0.0012955	0.0037996	0.00056342	372.24	4.3755e-05	5.6157e-05	372.76	124.49	3.8782e-05	5.916e-05	137.52	49.481	48.364	22.031	1.212e-05	24.205	0.019267	0.02147	0.0062527	3905	0.00022483	0.00023098	1365.5	428.98	0.0002141	0.00023616	666.57	211.49	192.03	79.641	0.00023434	102	104.041	146.844	229.552	-13.996	-5.393	249.153	-14.564	-5.611	19.173	224.283	-9.615	-4.330	0.019	6.403	333.123	-0.223	-8191	255	
3146.857	1	1	0	0	0.093556	0.15766	0.18768	0.14237	0.1249	0.10153	0.2118	0.073994	0.17018	0.13429	0.2815	0.23109	0.18147	0.05862	0.21591	0.075746	-2.7708	-2.5312	-2.8875	-2.9479	-2.5312	-3.1708	-2.7583	-2.5917	-3.1229	-2.9979	-2.8937	-2.9542	-2.5271	-3.2958	-2.7958	-2.6833	169.471	192.337	35.181	272.943	300.135	156.327	271.658	265.523	299.208	202.039	132.295	264.968	13.145	-20.643	211.825	268.343	0.0012401	0.0054957	0.00075543	348.5	4.3173e-05	3.0572e-05	368.47	123.66	5.4154e-05	5.2577e-05	137.73	50.086	47.83	21.976	3.7137e-05	24.362	0.018659	0.021621	0.0059615	3736.3	0.00021792	0.00023426	1303.5	416.98	0.00021104	0.00023794	646.64	205.02	191.03	80.393	0.00022468	99.36	13.741	170.857	334.310	-14.480	200.768	158.309	-14.647	-6.833	185.705	176.740	-10.274	-3.977	-0.052	4.194	-15.514	0.171	-8191	255	
3146.953	1	1	0	0	0.31007	0.053337	0.18704	0.21588	0.29827	0.14394	0.10965	0.19316	0.14715	0.1248	0.33684	0.017725	0.058776	0.14047	0.26868	0.21249	-2.7604	-2.7687	-2.7833	-3.0896	-2.8646	-3.05	-2.9979	-2.5146	-3.0729	-2.7375	-2.8917	-3.0542	-2.7396	-3.1333	-2.9875	-2.7167	116.138	34.992	326.549	209.691	320.768	233.355	107.386	29.418	249.496	-0.974	281.629	136.159	284.762	261.159	120.783	267.604	0.0020603	0.0025087	0.0012653	353.97	4.4805e-05	2.0681e-05	372.24	123.14	8.7421e-05	2.7795e-05	138.65	50.378	48.061	22.4	1.9768e-05	24.679	0.018826	0.021578	0.0057291	3606.9	0.00022087	0.00023457	1269.2	407.85	0.00021686	0.00023546	633.21	201.12	196.47	80.321	0.00021781	97.991	311.755	159.145	332.082	-15.495	239.674	305.586	-14.088	-6.057	170.973	48.360	-10.218	-4.643	0.428	4.965	47.781	-0.287	-8191	255	
3147.051	1	1	0	0	0.093976	0.30027	0.081265	0.096483	0.13663	0.11822	0.046148	0.2116	0.14081	0.20511	0.22053	0.18734	0.13594	0.26401	0.27362	0.24208	-2.7125	-2.6083	-2.7812	-2.975	-2.8312	-2.9146	-2.9854	-2.7313	-3.0771	-2.8833	-2.7708	-3.2313	-2.7396	-2.9646	-3.0312	-2.6083	122.687	227.621	324.032	255.663	20.878	153.490	226.908	221.174	124.407	150.003	6.362	320.587	156.927	310.854	153.182	316.670	0.0022769	0.0028155	0.0016568	342.37	3.4329e-05	5.3914e-05	375.43	123.53	6.1267e-05	5.9308e-05	141.91	51.134	48.955	22.917	6.1271e-05	25.134	0.019644	0.021301	0.0056588	3561.5	0.00022962	0.00023255	1254	405.88	0.00022612	0.00022839	623.23	199.4	199.46	78.674	0.00021039	97.184	320.909	-4.951	317.810	-13.771	195.978	56.428	-13.944	-5.589	186.366	51.318	-9.817	-4.152	0.389	4.491	35.237	0.040	-8191	255	
3147.146	1	1	0	0	0.19486	0.064495	0.13674	0.17997	0.2802	0.084015	0.02875	0.15833	0.064393	0.22505	0.11529	0.19517	0.10784	0.083701	0.19224	0.070846	-2.7229	-3.0104	-2.95	-3.0396	-2.7271	-2.7521	-3.2833	-2.6646	-3.0604	-2.9688	-2.775	-3.0979	-2.6958	-3.15	-3.1042	-2.7562	208.171	66.072	324.813	89.040	41.271	194.995	80.001	230.570	224.493	168.446	19.407	0.977	4.900	-9.689	-11.643	239.919	0.001686	0.0027483	0.001823	359.2	2.0284e-05	3.3359e-05	369	124.37	2.9472e-05	7.3394e-05	140.62	49.51	48.868	22.469	3.3924e-05	24.091	0.019813	0.020002	0.0053812	3491.8	0.00022542	0.00021697	1189.2	396.05	0.00021955	0.00021099	589.09	196.39	192.52	74.529	0.00019484	95.551	293.886	12.880	328.609	-10.823	179.872	26.467	-13.968	-4.862	205.205	38.568	-9.728	-2.731	-0.980	4.412	30.015	0.373	-8191	255	
3147.242	1	1	0	0	0.33687	0.28924	0.064002	0.24612	0.10162	0.098646	0.39225	0.17545	0.11322	0.10807	0.29823	0.091847	0.17424	0.21724	0.061635	0.019761	-2.4479	-2.8354	-2.5042	-3.0229	-2.8646	-2.8792	-3.1229	-2.775	-2.9188	-2.9854	-2.65	-3.0583	-2.9333	-2.9208	-2.9938	-2.6729	125.603	38.259	9.020	309.415	268.704	198.383	259.506	134.612	23.283	186.052	263.810	-9.769	296.331	13.290	115.307	165.426	0.00020979	0.0032429	0.001428	353.7	3.7494e-05	2.4803e-05	366.34	122.89	1.9669e-05	1.904e-05	140.14	49.772	48.72	22.257	2.113e-06	24.546	0.019066	0.018662	0.005072	3488.4	0.00021532	0.00020716	1147.7	399.97	0.00021388	0.000202	574.22	200.84	188.24	73.63	0.00019158	98.228	312.686	-9.927	328.358	-9.066	75.501	320.278	-13.276	-5.174	54.312	167.380	-9.521	-1.806	-1.291	4.333	56.286	1.030	-8191	255	
3147.338	1	1	0	0	0.16612	0.35967	0.1784	0.10113	0.078868	0.077313	0.24997	0.25407	0.12851	0.18156	0.11244	0.067537	0.027144	0.24205	0.091585	0.34882	-2.7271	-2.8083	-2.5438	-3.1917	-2.7625	-2.9125	-3.1417	-2.9688	-2.8688	-2.9437	-2.7354	-2.9896	-2.7958	-2.6917	-3.0062	-2.75	215.949	306.294	332.036	223.618	159.442	252.979	96.036	232.517	118.552	230.601	191.079	133.205	23.887	18.700	297.684	210.438	0.00099305	0.0029026	0.00095836	343.86	4.2659e-05	2.1099e-05	367.04	123.27	3.0716e-05	5.7592e-05	139.87	50.597	49.231	22.295	5.8192e-05	24.882	0.018913	0.018426	0.0051144	3663.2	0.00021416	0.0002082	1173.5	416.42	0.00021626	0.00020425	596.75	212.97	190.67	75.12	0.0002051	103.43	77.256	24.918	80.339	-10.814	71.823	32.255	-13.190	-5.469	277.677	71.895	-8.958	-2.492	-1.668	4.331	193.910	-0.127	-8191	255	
3147.459	1	1	0	0	0.21145	0.11781	0.19335	0.053346	0.15997	0.063805	0.10209	0.32527	0.22742	0.11433	0.1344	0.31967	0.092162	0.18084	0.2343	0.072003	-2.5021	-3.1292	-2.675	-3.0646	-3	-2.7188	-3.1854	-2.9125	-2.7208	-3.1813	-2.6917	-3.1729	-2.9167	-2.7958	-2.9292	-2.7583	117.618	204.570	5.601	133.687	311.335	133.171	267.198	195.609	226.970	276.861	260.081	19.078	324.755	303.744	224.782	59.239	0.00072931	0.0041932	0.00084808	363.29	1.8523e-05	2.5042e-05	369.7	125.44	3.1066e-05	6.3763e-05	137.52	51.037	48.308	22.682	7.3783e-05	25.034	0.019348	0.018775	0.0054597	3898.5	0.00021719	0.00021226	1239.9	429.9	0.00022067	0.00020804	630.93	219.24	190.66	75.282	0.00021892	103.58	134.107	-11.990	135.850	-9.816	27.651	217.931	-12.433	-6.066	195.148	75.860	-8.064	-3.216	-1.337	4.500	222.410	-0.361	-8191	255	
3147.555	1	1	0	0	0.091813	0.15365	0.11328	0.0463	0.038543	0.25323	0.086313	0.34592	0.11293	0.1742	0.21637	0.2218	0.052091	0.20547	0.33477	0.10947	-2.2146	-2.9917	-2.7812	-3.0271	-2.9542	-2.6667	-3.1833	-2.9333	-2.9208	-3.2375	-2.8646	-3.0229	-3.1042	-2.6333	-2.8521	-2.7313	224.522	270.987	81.726	-6.821	233.534	309.507	261.931	267.174	322.397	22.769	-14.595	-5.582	19.904	27.508	113.729	36.488	0.00094145	0.0043128	0.0021659	364.49	2.635e-05	9.3354e-06	361.07	122.8	2.3405e-05	4.8497e-05	137.3	51.135	48.413	22.142	3.8903e-05	24.413	0.019371	0.018661	0.0057233	3878.6	0.00021301	0.00021006	1275.5	419.19	0.00021633	0.00020497	641.16	213.27	186.15	74.294	0.00022363	99.854	98.416	332.096	147.363	-14.531	93.483	95.395	-12.804	-5.876	195.043	332.191	-7.241	-4.076	-2.223	5.402	266.298	-0.188	-8191	255	
3147.651	1	1	0	0	0.1759	0.20307	0.017136	0.060264	0.14017	0.19252	0.11099	0.23128	0.11791	0.12254	0.22662	0.083183	0.37634	0.23787	0.19094	0.11375	-2.2292	-3.0646	-2.6792	-2.8312	-3.0229	-2.6667	-3.0646	-2.9	-2.7521	-3.1	-2.9104	-2.6458	-3.0062	-2.6688	-2.9021	-3.0187	-14.972	252.073	90.087	68.432	122.567	80.307	301.704	304.664	84.703	131.616	37.589	301.839	325.895	176.545	294.776	274.352	0.0011632	0.00025727	0.00032418	371.42	2.5069e-05	5.7021e-05	367.24	123.52	2.2438e-05	6.9703e-05	138.31	50.564	48.08	22.295	2.6847e-05	24.783	0.018809	0.01861	0.0057362	3727.6	0.00020371	0.00020861	1275.8	403.76	0.00020639	0.00020414	630.5	205.28	178.97	74.432	0.00022098	96.439	211.826	238.368	222.543	-12.801	16.117	245.580	-14.001	-6.174	277.099	186.369	-9.345	-4.411	-0.835	5.774	162.994	-0.447	-8191	255	
3147.747	1	1	0	0	0.187	0.35147	0.18082	0.20956	0.041642	0.022075	0.10567	0.21699	0.04265	0.11494	0.26259	0.13403	0.3263	0.35664	0.13598	0.067576	-2.2875	-3.2667	-2.6604	-2.9646	-3.1312	-2.7979	-3.1104	-2.9458	-2.7	-3.0708	-2.9938	-2.9646	-3.1125	-2.625	-3.0229	-3.1417	202.369	291.835	-2.070	102.850	52.882	181.001	56.712	321.120	290.893	125.186	-23.415	282.167	-1.035	-11.024	256.049	240.611	0.00029431	0.0054506	0.00083179	367.07	1.8529e-05	6.4128e-05	373.77	124.25	3.133e-05	5.2625e-05	142.45	51.577	48.706	22.679	4.6231e-05	24.97	0.018046	0.018953	0.0056283	3638.2	0.00019856	0.00021462	1273.8	398.23	0.00020321	0.00021419	626.34	204.23	178.12	76.882	0.00021909	95.642	239.873	166.011	309.619	-14.014	307.385	188.604	-13.956	-6.147	321.047	250.559	-9.567	-4.163	-0.681	4.842	27.999	-0.086	-8191	255	
3147.843	1	1	0	0	0.22256	0.058543	0.27717	0.19681	0.13309	0.07062	0.216	0.053208	0.11779	0.052442	0.1998	0.055911	0.2174	0.15522	0.15582	0.082437	-2.2229	-3.2729	-2.7833	-2.9104	-2.9313	-2.7687	-3.1021	-2.8646	-2.8333	-3.3375	-2.7354	-2.8104	-2.9625	-2.7958	-2.9083	-3.2021	50.146	209.419	245.997	27.054	222.898	68.007	141.060	38.200	26.493	234.547	297.707	244.911	321.606	-21.801	305.578	125.728	0.00097836	0.0041548	0.00066183	354.26	3.8053e-05	3.4321e-05	372.45	125.04	1.7923e-05	4.3208e-05	139.62	51.909	47.774	22.598	3.0027e-05	24.721	0.017953	0.019827	0.0054838	3600	0.00019831	0.00022028	1249.4	389.69	0.00020185	0.00021762	603.96	198.99	177.4	76.125	0.00020828	91.423	229.007	165.302	302.241	-14.664	256.032	193.417	-13.841	-6.248	112.483	239.448	-9.049	-3.228	0.350	5.278	-13.698	0.284	-8191	255	
3147.938	1	1	0	0	0.10538	0.14504	0.16041	0.088951	0.17138	0.25291	0.04548	0.28007	0.15999	0.12029	0.15847	0.16096	0.35645	0.12173	0.37255	0.22733	-2.1688	-2.8667	-2.9229	-2.7458	-3.0771	-2.8375	-2.9396	-3.0458	-2.6625	-3.0438	-2.9437	-2.7083	-2.9771	-2.8583	-2.725	-3.225	-20.446	81.697	257.209	250.133	66.109	50.773	95.746	27.685	301.506	212.846	29.604	313.163	-18.292	292.982	164.219	226.353	0.0005962	0.0024466	0.00029833	362.91	4.3983e-05	3.2877e-05	367.45	122.94	5.164e-05	2.2404e-05	139.31	50.453	47.657	22.397	1.8669e-05	24.404	0.017785	0.019589	0.0051796	3421.8	0.00019803	0.00021399	1202	374.82	0.00020178	0.00021239	577.59	191.65	178.94	74.234	0.0002017	89.069	285.234	185.216	43.739	-14.386	242.892	322.896	-13.954	-5.405	161.953	86.355	-9.311	-3.618	1.008	4.234	323.863	0.375	-8191	255	
3148.058	1	1	0	0	0.089421	0.20651	0.1609	0.078326	0.17374	0.13751	0.041837	0.057925	0.25992	0.22169	0.18974	0.11041	0.35872	0.29614	0.071688	0.34729	-2.175	-2.7938	-2.9167	-2.5875	-3.1583	-2.6063	-2.7958	-3.1813	-2.7729	-2.8667	-3.0229	-2.7854	-3.025	-2.7313	-2.8417	-3.1354	153.150	105.909	204.310	110.778	305.015	10.310	7.334	107.161	35.740	145.789	8.485	-8.029	236.119	315.890	21.451	216.295	0.0017574	0.0018907	0.00031866	367.28	5.6946e-05	3.828e-05	369.73	124.46	2.5901e-05	2.9867e-05	140.44	51.197	49.196	22.389	5.9074e-05	24.444	0.018099	0.019263	0.0050138	3360.4	0.00020407	0.00020754	1181.2	370.63	0.00020658	0.00020765	568.42	190.97	182.92	72.94	0.00019852	89.632	272.107	266.963	291.250	-12.473	240.718	56.252	-13.338	-5.071	171.965	28.487	-9.240	-3.472	0.658	4.139	0.256	-0.116	-8191	255	
3148.154	1	1	0	0	0.049607	0.13379	0.12102	0.11173	0.29214	0.018208	0.16982	0.043002	0.19108	0.18394	0.40296	0.25616	0.18457	0.21598	0.25859	0.15895	-2.5896	-3.0021	-3.0354	-2.7417	-2.9854	-2.9104	-2.5354	-3.2333	-2.8979	-2.8625	-3.05	-2.5958	-3.0958	-2.9417	-2.7062	-3.0417	151.032	307.873	172.942	151.434	-11.428	327.522	235.131	4.635	228.675	244.019	265.456	250.304	226.474	322.472	14.571	106.521	0.00072359	0.0021703	0.0016194	355.88	2.427e-05	4.4447e-05	372.05	123.22	2.911e-05	4.1341e-05	142.21	51.669	49.317	22.522	3.4094e-05	24.642	0.018546	0.018828	0.0049167	3399.7	0.00021028	0.00020381	1183.6	379.63	0.00021186	0.00020612	565.43	196.72	187.29	72.025	0.00019488	91.813	8.792	307.653	-10.208	-10.512	264.274	-15.722	-14.217	-5.013	49.343	55.670	-9.948	-2.875	-0.515	4.149	-8.777	1.645	-8191	255	
3148.251	1	1	0	0	0.16101	0.22352	0.011665	0.25783	0.073292	0.16161	0.21813	0.14148	0.07356	0.095198	0.21717	0.1434	0.21253	0.090903	0.23123	0.30629	-2.3208	-2.9062	-3.0708	-2.6521	-2.9625	-3.0667	-2.5812	-3.1208	-2.9104	-2.7625	-3.1021	-2.625	-3.0375	-3.0729	-2.6312	-3.1708	85.483	105.357	-15.585	4.003	-16.914	117.207	213.744	196.703	182.071	314.993	-7.146	192.082	64.424	287.278	17.060	192.309	0.00038032	0.00066927	0.0013378	342.71	2.2519e-05	1.7671e-05	364.91	122.35	3.8036e-05	2.9628e-05	139.83	49.685	48.796	22.211	8.0112e-06	24.331	0.018419	0.018417	0.0047579	3456.5	0.00020733	0.00019573	1148.4	384.33	0.00020369	0.0001991	546.14	197.43	182.36	69.916	0.00018979	92.965	213.564	315.079	327.109	-13.809	183.983	38.173	-13.745	-4.611	324.792	233.043	-9.341	-2.711	-0.426	4.148	150.945	0.545	-8191	255	
3148.347	1	1	0	0	0.098531	0.24642	0.036596	0.036143	0.11838	0.06945	0.082296	0.25447	0.13979	0.10954	0.11019	0.19985	0.19545	0.18846	0.059674	0.18716	-2.4229	-2.8187	-3.1167	-2.8937	-2.9875	-3.1562	-2.7062	-3.0792	-2.8375	-2.6146	-3.2125	-2.6896	-2.9875	-3.0792	-2.6021	-3.1479	206.129	151.086	285.044	203.499	291.824	201.763	224.463	-4.347	259.062	292.505	331.656	313.781	313.563	143.871	245.762	148.189	0.00027812	0.0021449	0.000672	363.07	3.1353e-05	3.5076e-05	358.15	122.8	2.2581e-05	1.0525e-05	139.83	50.917	48.637	22.482	3.025e-05	24.854	0.017743	0.017929	0.0046581	3482.7	0.000201	0.00018847	1135	388.09	0.00019655	0.00019342	547.04	198.71	178.74	68.676	0.00019143	94.824	127.870	225.358	75.449	-11.221	90.725	48.959	-12.995	-4.993	115.687	213.071	-8.682	-2.762	-0.851	4.431	202.479	0.747	-8191	255	
3148.418	1	1	0	0	0.19463	0.1935	0.12354	0.092004	0.075565	0.096124	0.11861	0.20881	0.13225	0.20668	0.1563	0.19807	0.21775	0.10104	0.19261	0.13369	-2.4313	-2.7271	-2.9979	-2.8563	-2.7938	-3.3063	-2.7062	-3.1229	-2.9625	-2.825	-3.0917	-2.7438	-2.7646	-3.2104	-2.6917	-3.0625	212.301	58.700	274.528	184.511	23.125	-19.492	131.457	7.895	102.886	18.197	137.829	210.097	293.772	310.996	285.714	57.485	0.0012112	0.0038049	0.00046783	348.36	1.6535e-05	3.2363e-05	361.04	124.43	5.3131e-05	6.2944e-06	139.78	51.297	48.464	22.651	9.132e-05	24.926	0.017247	0.017578	0.0047953	3528.9	0.0001987	0.00018668	1167.5	395.66	0.00019473	0.00019286	570.22	201.38	179.31	68.633	0.00020047	95.91	134.424	314.796	145.140	-13.996	304.873	30.133	-13.434	-5.452	20.217	298.625	-8.370	-3.566	-0.731	4.589	218.089	-0.685	-8191	255	
3148.539	1	1	0	0	0.092964	0.24687	0.23569	0.19852	0.064928	0.0518	0.016404	0.23356	0.27532	0.37308	0.18655	0.078506	0.21183	0.25425	0.093068	0.20266	-2.5687	-2.6604	-3.025	-2.8417	-2.8354	-3.2104	-2.8854	-2.9354	-2.85	-2.6396	-3.225	-2.9771	-2.8229	-3.175	-2.5646	-2.9083	88.072	145.351	194.310	219.207	241.755	149.991	33.550	-9.439	9.864	237.298	237.568	40.604	326.218	188.899	38.256	200.616	0.0013117	0.0025303	0.0011405	346.07	6.0788e-06	1.9798e-05	370.21	126.22	3.5333e-05	3.2828e-05	141.53	51.8	48.868	22.28	3.8171e-05	25.18	0.017194	0.017592	0.0050884	3523.9	0.00020024	0.00018732	1215.7	398.37	0.00019521	0.00019423	594.16	199.1	178.74	69.067	0.00020747	94.908	66.315	26.779	136.325	-12.764	18.598	-7.480	-12.489	-6.064	44.814	246.036	-8.917	-4.999	-0.609	5.330	207.198	0.746	-8191	255	
3148.635	1	1	0	0	0.14185	0.076731	0.025573	0.17585	0.019112	0.029483	0.084712	0.13691	0.19829	0.051033	0.34652	0.19819	0.12527	0.070435	0.072714	0.33416	-2.5563	-2.7229	-3.0646	-2.7438	-2.7396	-3.1542	-2.9229	-2.7812	-3.1125	-2.6229	-3.1917	-2.7958	-2.7375	-3.1542	-2.7604	-2.9042	176.172	324.263	133.527	284.712	2.536	251.515	63.503	194.077	181.371	273.689	34.244	155.805	86.675	312.980	90.062	229.479	0.0010947	0.0038676	0.00091782	351.27	1.4784e-05	2.8812e-05	363.51	123.64	3.0895e-05	3.6111e-05	138.46	50.117	48.651	22.142	3.5404e-05	24.532	0.016876	0.017801	0.0052558	3452.5	0.00019685	0.0001903	1217.9	390.38	0.00018925	0.00019742	599.7	194.38	175.59	70.275	0.00020833	93.43	234.164	140.979	169.543	-14.611	66.066	162.637	-12.969	-6.301	300.643	164.651	-9.428	-5.015	-0.322	5.720	84.688	-1.450	-8191	255	
3148.731	1	1	0	0	0.1663	0.18307	0.25279	0.1611	0.16025	0.20253	0.054248	0.15371	0.059702	0.15307	0.24169	0.25373	0.25899	0.16491	0.10863	0.25262	-2.6458	-2.7021	-2.9729	-2.9688	-2.6146	-3.0875	-2.8042	-2.7417	-3.1646	-2.8917	-2.9646	-3.075	-2.7396	-3.0021	-2.8937	-2.8375	257.802	137.944	224.075	-17.098	-8.800	307.002	64.417	120.587	302.525	-19.628	263.501	-20.831	286.513	309.652	116.723	287.924	0.00068266	0.0057351	0.00060501	358.09	5.9857e-06	4.577e-05	371.36	122.79	3.1228e-05	5.4244e-05	140.78	50.657	49.354	22.34	2.1035e-05	24.778	0.016499	0.018216	0.0052814	3369.9	0.00019199	0.00019736	1208.1	385.15	0.00018505	0.00020357	596.39	191.89	174.74	72.818	0.00020564	93.632	2.203	134.442	306.033	-13.181	327.746	207.557	-13.178	-5.800	184.528	187.066	-9.206	-4.271	-0.663	5.284	124.447	-1.030	-8191	255	
3148.852	1	1	0	0	0.12023	0.021974	0.23267	0.23735	0.24673	0.11582	0.052226	0.11629	0.27772	0.050432	0.10572	0.13675	0.052275	0.14738	0.19573	0.088871	-2.7354	-2.6771	-3.0229	-2.8979	-2.7917	-3.1354	-2.925	-2.8417	-3.2812	-2.8896	-2.9021	-2.9979	-2.8021	-2.9813	-3.0167	-2.7333	278.884	44.477	82.629	83.414	16.079	1.739	331.446	-22.753	161.824	-19.609	3.179	-4.453	148.012	40.904	299.542	156.929	0.0006617	0.005525	0.00055933	369.43	2.5374e-05	6.6548e-05	370.56	125.05	6.2012e-05	5.8275e-05	142.77	51.657	48.257	22.598	4.6845e-05	25.464	0.016641	0.019232	0.0053108	3373.5	0.00019587	0.00020931	1205.9	387.04	0.00018992	0.00021123	593.94	190.17	176.31	74.39	0.00019861	92.019	325.406	126.148	229.666	-12.260	208.144	206.113	-13.970	-5.570	170.720	184.486	-9.952	-4.682	-0.069	4.871	79.068	-0.764	-8191	255	
3148.946	1	1	0	0	0.071612	0.17025	0.10969	0.034924	0.15146	0.13496	0.34848	0.084429	0.10702	0.10008	0.14286	0.25445	0.12035	0.21648	0.23628	0.33613	-2.7708	-2.7417	-2.8333	-3.1667	-2.6292	-3.0542	-3.075	-2.7854	-3.1833	-3.0312	-2.8333	-3.1354	-2.8125	-2.8979	-3.0354	-2.6521	31.276	279.001	173.116	40.368	52.129	310.290	275.977	313.585	28.774	189.802	-15.782	71.829	254.095	198.587	292.067	318.344	0.0019298	0.0045595	0.001298	357.61	2.3785e-05	1.6397e-05	365.97	123.69	9.0646e-05	1.8124e-05	141.58	51.617	48.671	22.756	1.0131e-05	24.829	0.016755	0.019057	0.0050815	3223.4	0.0001951	0.00020481	1151.6	373.06	0.00018961	0.00020349	569.35	181.46	175.81	72.344	0.00018798	88.316	307.510	74.890	234.420	-13.670	228.168	191.538	-14.733	-5.930	178.303	98.647	-9.926	-2.714	-0.125	4.334	34.558	-0.388	-8191	255	
3149.020	1	1	0	0	0.21362	0.17363	0.16426	0.038573	0.041293	0.099277	0.25686	0.29456	0.16788	0.27003	0.090693	0.099877	0.044506	0.043826	0.26924	0.10301	-2.5083	-2.7375	-2.6479	-2.8542	-2.4437	-2.8812	-2.9917	-2.6833	-2.9562	-2.7896	-2.8292	-3.05	-2.6771	-3.0354	-2.7938	-2.7792	166.167	102.581	-8.088	254.132	329.901	129.268	318.892	318.915	31.760	154.356	216.370	136.132	264.549	-16.538	285.711	173.833	0.0016474	0.0029159	0.00097101	364.18	2.0042e-05	1.7646e-05	367.09	122.6	5.1325e-05	4.2325e-05	140.83	51.081	48.593	22.61	1.5482e-05	24.589	0.016895	0.018122	0.0048678	3097.3	0.00019682	0.00019939	1121.9	366.4	0.00019468	0.00019683	560.72	181.67	179.82	71.572	0.00018544	89.022	291.675	321.251	290.358	-11.282	215.371	36.472	-13.655	-5.609	148.280	-9.583	-9.493	-2.789	-0.335	4.656	80.272	0.154	-8191	255	
3149.139	1	1	0	0	0.14493	0.081682	0.10771	0.070167	0.032157	0.18222	0.1236	0.051446	0.18592	0.14373	0.12607	0.10287	0.17843	0.16214	0.035713	0.053058	-2.5583	-2.7229	-2.7521	-2.7604	-2.6896	-2.9667	-3.1125	-2.7021	-2.8896	-2.9958	-2.6042	-3.1479	-2.7854	-2.9271	-3.1646	-2.6937	291.991	274.261	260.392	0.092	-21.820	-1.168	181.299	91.584	173.070	8.780	186.809	241.254	131.748	259.655	336.182	-20.285	0.00054063	0.0036209	0.00042754	346.67	1.7227e-05	3.8996e-05	365.56	122.46	2.1024e-05	2.9192e-05	141.4	50.812	48.861	22.838	2.7411e-05	24.784	0.017634	0.017865	0.0048518	3171.7	0.00020313	0.00019712	1114.3	373.83	0.00020163	0.00019346	557.25	186.8	182.2	71.449	0.00018289	91.822	302.474	-20.695	263.580	-11.510	139.819	94.845	-14.373	-5.384	26.032	10.846	-10.210	-3.191	-0.995	4.759	83.982	1.139	-8191	255	
3149.235	1	1	0	0	0.16676	0.35223	0.054921	0.22135	0.1621	0.1784	0.065086	0.089867	0.13109	0.010229	0.069773	0.13459	0.20304	0.052098	0.14632	0.13035	-2.7375	-2.7438	-2.8521	-2.8125	-2.9771	-2.6104	-3.0875	-2.7375	-3.0583	-3.1188	-2.6396	-3.1042	-2.8812	-2.8208	-3.05	-2.7	134.117	177.191	232.047	174.785	240.573	74.741	329.138	310.170	22.093	141.830	236.287	312.307	245.529	267.127	323.512	198.628	0.00075626	0.0012128	0.00041188	341.52	1.4917e-05	5.2141e-06	369.47	125.11	2.204e-05	5.764e-05	143.31	51.315	48.623	22.807	4.2677e-05	24.825	0.017963	0.017616	0.0047875	3314.9	0.00020261	0.00019481	1102.5	384.46	0.00020036	0.00019025	550.04	192.11	178.27	70.127	0.00017737	92.601	311.326	20.264	20.705	-10.350	320.272	143.984	-13.689	-4.993	8.260	45.517	-9.072	-2.180	-1.998	4.899	105.471	0.685	-8191	255	
3149.331	1	1	0	0	0.18452	0.10773	0.13574	0.079968	0.026614	0.2365	0.21558	0.090076	0.16155	0.191	0.025776	0.1501	0.040914	0.21531	0.1122	0.24148	-2.5	-2.9167	-2.6417	-3.1688	-2.9875	-2.6125	-3.1479	-2.6854	-2.9167	-3.0687	-2.6833	-3.1229	-2.7667	-2.8583	-2.9396	-2.7542	210.367	192.750	294.273	325.243	108.870	-20.582	312.477	250.568	268.170	56.991	98.500	321.049	216.549	13.935	276.416	110.511	0.00074605	0.0045215	0.00045387	351.9	3.3248e-05	3.1096e-05	360.3	122.98	3.2795e-05	4.4828e-05	138.86	51.32	48.415	22.573	3.2584e-05	25.059	0.01729	0.016813	0.0046432	3338.9	0.00019238	0.00018729	1083.3	382.92	0.00019225	0.00018127	544.99	193.57	172.58	68.445	0.00017995	93.264	183.034	307.867	148.212	-9.717	30.287	88.766	-13.629	-5.331	6.351	22.648	-8.695	-3.749	-0.967	4.372	211.366	-0.456	-8191	255	
3149.452	1	1	0	0	0.075834	0.27711	0.17029	0.030378	0.25741	0.19051	0.19086	0.11792	0.21167	0.20286	0.1769	0.18696	0.24591	0.075031	0.20294	0.12807	-2.4896	-2.8104	-2.6146	-3.1667	-2.8729	-2.6688	-3.1083	-3	-2.9146	-2.9979	-2.8958	-3.0062	-2.8563	-2.6667	-3.2438	-2.8563	197.281	127.648	99.327	135.509	5.644	125.092	165.251	105.477	145.623	147.565	106.789	242.426	-0.398	235.934	43.736	178.230	0.0015221	0.003016	0.0018125	337.96	5.8209e-06	2.2651e-05	358.88	124.89	3.3416e-05	2.576e-05	140.32	51.751	48.751	22.802	6.0655e-05	25.026	0.016905	0.016505	0.00476	3411.1	0.00018808	0.00018547	1116	387.64	0.00019132	0.00017959	565.4	196.95	172.68	68.811	0.00019172	93.959	177.736	-14.910	146.278	-11.916	10.181	62.121	-14.022	-6.156	-15.810	-8.737	-7.762	-3.603	-0.880	4.546	214.756	-1.297	-8191	255	
3149.548	1	1	0	0	0.14581	0.16208	0.084737	0.22367	0.091943	0.089763	0.17966	0.22005	0.1119	0.15612	0.21167	0.17979	0.23676	0.16116	0.138	0.14625	-2.4208	-3.1167	-2.5125	-2.9667	-2.8396	-2.7958	-3.0833	-2.9583	-2.8417	-3.1729	-2.5729	-2.8146	-2.9854	-2.4688	-2.9688	-2.8917	236.072	129.134	-1.877	263.162	29.866	6.904	266.448	29.793	18.841	105.755	6.791	272.576	36.215	123.315	214.625	75.716	0.00073812	0.0030605	0.0014676	351.25	2.4084e-05	2.14e-05	361.42	123.15	3.4248e-05	3.1396e-05	141.13	51.95	48.449	22.663	4.4517e-05	25.637	0.017054	0.016558	0.0050523	3453.3	0.00018883	0.00018679	1166.4	386.37	0.00019224	0.0001821	586.77	195.95	170.61	69.158	0.00019964	92.589	319.482	282.954	146.385	-15.489	39.524	4.889	-13.178	-5.610	335.909	168.809	-8.006	-3.827	-1.158	5.403	219.756	-0.528	-8191	255	
3149.619	1	1	0	0	0.41785	0.10693	0.12293	0.32084	0.1391	0.22995	0.26348	0.14378	0.22401	0.065948	0.17831	0.20538	0.18256	0.11794	0.13606	0.14045	-2.1188	-3.1271	-2.7729	-2.7438	-3.1458	-2.6229	-3.0438	-2.8	-2.5812	-3.1167	-2.8292	-2.9938	-2.9708	-2.7333	-3.0583	-2.8771	261.819	243.629	-13.402	60.245	70.089	300.271	42.046	185.467	-24.141	81.302	314.021	115.762	1.090	-8.912	32.165	169.866	0.00097548	0.0050975	0.00018608	352.47	1.8534e-05	1.0656e-05	367.51	125.08	4.736e-05	4.3607e-05	141.43	50.778	48.585	22.668	3.7112e-05	24.972	0.016787	0.016748	0.0051808	3417.9	0.00018554	0.00019099	1195.1	380.68	0.0001886	0.00018696	589.65	192.74	167.29	70.164	0.00020131	90.485	113.235	152.918	50.282	-16.428	199.629	232.396	-13.547	-6.239	-14.031	227.164	-8.384	-4.020	-0.201	5.138	328.427	-0.435	-8191	255	
3149.716	1	1	0	0	0.20199	0.19591	0.23474	0.21176	0.10038	0.14403	0.16496	0.16237	0.068637	0.24921	0.091566	0.05061	0.1764	0.23981	0.35356	0.26653	-2.2333	-3.0167	-2.8937	-2.9521	-3.0125	-2.7	-3.0083	-2.9917	-2.7896	-3.0125	-2.8937	-2.8396	-3.1125	-2.7729	-2.8125	-2.9437	127.849	102.415	295.056	5.890	0.685	232.964	102.817	52.445	15.845	109.104	-11.101	-6.878	225.628	260.404	224.246	219.295	0.0013183	0.0061452	0.00082637	350.26	2.2297e-05	2.8369e-05	359.79	123.24	4.3572e-05	5.7994e-05	144.02	51.666	48.042	22.577	4.2483e-05	25.081	0.016451	0.017325	0.005142	3339.2	0.00018069	0.00019684	1189.7	373.44	0.00018609	0.00019511	583.02	190.8	166.5	72.21	0.00020028	89.401	92.141	151.872	9.983	-15.446	60.379	203.504	-13.693	-5.888	329.285	220.847	-10.732	-3.833	-0.219	5.147	8.098	-0.138	-8191	255	
3149.834	1	1	0	0	0.31606	0.19157	0.20168	0.14917	0.01953	0.15902	0.20513	0.062329	0.18286	0.39894	0.20054	0.23541	0.12987	0.17884	0.11975	0.12436	-2.3583	-2.9854	-2.8354	-2.7313	-3.0667	-2.8354	-3.1	-3.05	-2.9917	-3.1208	-2.9458	-2.75	-3.0854	-2.8937	-3.0854	-3.1708	46.837	151.112	78.498	43.043	92.352	24.674	308.553	264.560	108.633	273.955	247.009	329.135	80.444	53.272	176.203	330.380	0.00043628	0.0057135	0.0016564	374.22	2.5331e-05	4.178e-06	365.12	124.94	6.5085e-06	1.6728e-05	141.97	51.943	48.104	22.749	3.7704e-05	25.257	0.016489	0.01826	0.0050656	3344.4	0.00018346	0.000205	1184.5	371.81	0.00019015	0.00020557	577.62	191.71	170.99	74.383	0.00020031	89.489	252.139	119.379	321.860	-15.181	192.127	182.640	-14.002	-5.715	250.349	200.651	-10.865	-4.805	0.457	5.088	35.490	-0.447	-8191	255	
3149.931	1	1	0	0	0.13554	0.14239	0.11161	0.028167	0.22122	0.11827	0.18789	0.1006	0.24301	0.10961	0.021898	0.31812	0.10344	0.17444	0.21391	0.25792	-2.3	-2.9292	-2.925	-2.7667	-3.2021	-2.925	-2.8937	-2.9417	-2.6625	-2.9958	-2.9125	-2.675	-3.2521	-2.8542	-2.775	-3.0875	301.009	122.712	321.839	140.528	194.154	18.224	296.643	323.603	214.592	155.914	26.065	8.952	291.943	283.616	275.107	182.631	0.0014522	0.0048302	0.00087955	349.6	3.5e-05	1.6485e-05	372.21	123.77	4.1766e-05	3.4511e-05	143.67	51.4	48.343	22.874	2.5427e-06	25.629	0.017145	0.018953	0.005013	3325.4	0.00019164	0.00020762	1178.2	366.7	0.0001964	0.00020678	568.86	189.42	176.56	73.729	0.00019683	88.321	333.136	127.135	-21.970	-11.350	190.825	326.254	-13.849	-5.902	167.793	109.461	-9.840	-3.214	0.398	4.596	157.409	-1.036	-8191	255	
3150.027	1	1	0	0	0.23522	0.12743	0.17596	0.11161	0.084459	0.13225	0.14192	0.18098	0.31751	0.068027	0.33063	0.1412	0.096378	0.093805	0.056271	0.0075311	-2.3312	-3.0187	-2.9417	-2.7542	-3.2792	-2.8667	-2.7375	-3.0938	-2.6646	-3.0646	-2.9625	-2.6271	-3.0625	-2.9688	-2.725	-2.9313	251.778	23.161	146.937	17.505	192.401	32.445	-3.860	315.171	302.687	288.645	197.075	138.866	55.253	150.734	255.646	263.462	0.0024263	0.0030208	0.00052535	363.39	3.2692e-05	4.0195e-05	369.67	122.91	2.2999e-05	2.2686e-05	139.49	49.938	47.67	22.474	3.1858e-05	24.6	0.017761	0.018817	0.0048904	3281.7	0.00019862	0.00020291	1163.8	364.41	0.00020265	0.00020326	556.93	187.8	180.31	71.78	0.00019373	87.777	306.659	333.120	305.938	-12.102	221.801	44.751	-14.018	-5.532	240.754	22.091	-9.961	-2.836	-0.328	3.974	324.769	-0.548	-8191	255	
3150.123	1	1	0	0	0.23059	0.10288	0.17652	0.12249	0.054172	0.28466	0.050381	0.32146	0.22749	0.022758	0.080439	0.1675	0.29602	0.18604	0.3265	0.12963	-2.2625	-2.6333	-3.0167	-2.7167	-2.8375	-2.8458	-2.8708	-3.1542	-2.6708	-2.8333	-3.0187	-2.65	-2.8729	-2.8625	-2.8771	-3.3104	127.247	234.035	173.079	240.397	10.088	261.578	108.625	20.189	109.829	43.051	26.815	227.019	266.989	5.374	134.163	-16.402	0.0011142	0.0021371	0.00056673	352.39	2.5778e-05	4.1442e-05	367.53	122.93	3.5105e-05	2.1593e-05	137.88	50.862	48.277	22.125	1.6481e-05	24.447	0.018078	0.0184	0.0047849	3318.8	0.00020576	0.00019832	1154.4	370.67	0.00020745	0.00020125	550.87	192.82	184.2	70.977	0.00019315	91.288	334.243	121.165	308.500	-9.870	179.724	33.918	-13.185	-5.277	131.546	108.330	-9.954	-2.432	-1.190	4.214	45.982	0.334	-8191	255	
3150.244	1	1	0	0	0.13845	0.17155	0.16775	0.29565	0.052653	0.17462	0.073609	0.16994	0.21884	0.16144	0.3536	0.11437	0.18331	0.22565	0.28774	0.12028	-2.1937	-2.9646	-2.9229	-2.6375	-2.8312	-2.9771	-2.8396	-3.0583	-2.8854	-2.7771	-3.325	-2.7917	-3.0792	-2.9292	-2.85	-3.1937	281.710	-9.791	249.352	273.355	83.166	34.577	273.148	326.891	25.842	189.974	4.275	-13.840	205.992	0.485	209.411	291.584	0.00060453	0.0033424	0.00085699	344.14	2.2417e-05	7.5567e-06	369.93	122.05	2.5204e-05	3.8422e-06	141.83	51.587	48.6	22.381	1.3788e-05	24.019	0.018332	0.018321	0.0047583	3471.5	0.00020947	0.00019777	1155.5	387.3	0.00020715	0.00020185	552.61	200.12	184.54	70.768	0.00019289	95.092	270.640	76.353	282.611	-7.778	91.613	109.320	-14.147	-5.123	255.895	98.375	-9.088	-1.995	-1.537	4.569	240.917	-0.004	-8191	255	
3150.315	1	1	0	0	0.11368	0.33568	0.12132	0.32698	0.27433	0.026829	0.27314	0.14924	0.035706	0.11088	0.23649	0.21011	0.20349	0.081235	0.047186	0.28937	-2.3167	-2.7458	-3.1271	-2.5729	-2.8625	-2.9313	-2.7833	-3.0708	-2.8708	-2.825	-3.0687	-2.7521	-3.0792	-2.8792	-2.5854	-3.0187	1.961	251.245	282.114	227.872	248.352	203.830	201.701	133.769	65.974	271.594	-13.738	115.546	23.222	85.292	228.834	102.200	0.00037852	0.0024695	0.0009793	356.38	2.3984e-05	1.8147e-05	369.89	121.43	4.8053e-05	7.1466e-05	138.08	51.045	47.824	21.985	7.5719e-05	24.301	0.01822	0.018395	0.0048219	3593.5	0.00020844	0.00019626	1170.3	399.2	0.00020493	0.00020065	562.98	204.23	182.84	69.993	0.00019704	96.568	124.911	-17.438	150.729	-10.589	57.225	57.141	-13.839	-5.250	40.283	47.386	-7.913	-3.361	-0.881	4.510	192.541	-0.050	-8191	255	
3150.411	1	1	0	0	0.070047	0.064843	0.25096	0.28245	0.12343	0.035139	0.10415	0.096148	0.12885	0.32967	0.17696	0.033947	0.23694	0.044466	0.22551	0.060352	-2.3021	-2.7042	-3.0875	-2.8333	-2.9271	-3.1208	-2.5729	-3.1958	-2.8937	-2.6479	-3.0687	-2.8833	-2.8354	-3.1771	-2.6896	-3.0396	105.413	242.722	123.351	242.655	222.732	44.005	211.264	162.151	0.240	166.722	271.140	288.873	56.179	-12.684	219.335	-17.336	0.00045345	0.0042512	0.0017983	348.32	4.4122e-05	2.2561e-05	360.02	121.48	4.55e-05	2.8655e-05	137.82	49.966	47.339	21.564	5.6395e-05	23.734	0.017768	0.018041	0.0049369	3604.7	0.00020212	0.00018971	1174.8	397.12	0.0001979	0.00019528	572.53	201.28	179.38	68.622	0.00020394	95.847	80.824	327.541	132.448	-13.225	22.603	227.549	-13.545	-6.057	44.806	26.496	-8.975	-4.328	0.093	4.792	246.552	-0.419	-8191	255	
3150.532	1	1	0	0	0.20265	0.11263	0.09416	0.18762	0.1791	0.16074	0.12658	0.24582	0.12157	0.15391	0.13411	0.17271	0.088957	0.18018	0.13481	0.10075	-2.7479	-2.5583	-2.9313	-3.0312	-2.8292	-3.0354	-2.9333	-2.8958	-2.9896	-2.6063	-3.15	-2.8896	-2.4521	-3.0687	-2.8021	-2.9437	18.910	209.484	78.686	333.082	183.668	122.136	264.693	316.554	14.607	331.892	248.971	48.978	94.108	274.872	165.592	100.250	0.00043953	0.0018061	0.0016759	355.71	1.0312e-05	1.0403e-05	370.69	122.37	5.1888e-05	3.0275e-05	138.74	50.548	47.498	21.772	3.7577e-05	23.715	0.017472	0.017856	0.0051634	3576.3	0.00020256	0.00018985	1218	397.08	0.00019725	0.00019679	596.86	200.22	179.43	69.053	0.0002116	95.53	210.304	261.122	147.027	-13.319	198.861	141.764	-13.675	-5.927	4.282	303.339	-8.406	-4.382	0.112	5.403	236.501	-0.265	-8191	255	
3150.628	1	1	0	0	0.13198	0.15433	0.18043	0.1723	0.15722	0.13803	0.20729	0.029989	0.063577	0.11697	0.20179	0.1619	0.20053	0.049916	0.35399	0.016231	-2.45	-2.6562	-2.8875	-2.8417	-2.8771	-3.1542	-2.9125	-2.8646	-3.0771	-2.7771	-3.0417	-3.0917	-2.7604	-3.1667	-2.8354	-2.8438	-18.935	49.332	72.270	64.434	54.225	312.077	293.726	132.262	184.746	59.086	274.547	-9.593	253.059	281.198	-15.730	206.911	0.0016426	0.0059895	0.001357	358.78	1.82e-05	4.3031e-05	371.42	122.04	6.4641e-05	4.9362e-05	140.02	50.763	47.537	21.685	4.3759e-05	23.495	0.017354	0.018184	0.0053831	3541	0.00020195	0.00019692	1251	398.12	0.00019656	0.00020467	614.67	199.55	179.87	71.576	0.00021552	95.375	189.071	170.432	194.987	-15.353	-6.504	182.282	-14.094	-5.563	26.957	237.195	-9.853	-4.647	-1.657	6.218	-12.236	-0.301	-8191	255	
3150.724	1	1	0	0	0.062778	0.2341	0.29796	0.052972	0.09367	0.10372	0.15955	0.13266	0.20767	0.1419	0.37544	0.20208	0.32212	0.082788	0.16576	0.02067	-2.6979	-2.7	-2.9396	-2.7854	-2.6063	-3.1354	-2.6729	-2.875	-2.8208	-2.8312	-2.9542	-3.1125	-2.5417	-3.2062	-2.8354	-2.6437	174.365	75.131	217.535	294.039	329.966	123.238	258.474	220.663	253.617	129.144	44.024	195.050	195.082	50.578	285.334	234.030	0.0008564	0.0055853	0.00045838	349.26	7.9921e-06	5.242e-05	372.13	122.22	3.9739e-05	3.8457e-05	136.75	50.237	47.522	21.369	2.1904e-05	23.35	0.017162	0.018911	0.005446	3482.5	0.00019756	0.00020123	1228.8	387.7	0.0001886	0.00020579	596.76	192.18	173.86	71.745	0.00020543	92.151	169.204	181.920	17.865	-14.965	6.714	187.992	-14.521	-6.091	20.337	213.187	-8.896	-4.632	-0.668	5.409	24.456	0.237	-8191	255	
3150.820	1	1	0	0	0.16162	0.31469	0.10522	0.18516	0.15952	0.051277	0.16971	0.15253	0.15009	0.17523	0.18495	0.032251	0.22091	0.076754	0.12254	0.18605	-2.55	-2.5646	-2.7438	-2.7625	-2.6708	-2.8583	-2.8917	-2.7292	-3.0187	-2.8688	-2.8292	-3.0396	-2.6292	-3.25	-2.8854	-2.7438	-20.767	84.242	214.248	61.317	204.084	116.875	316.793	18.686	313.567	160.168	260.560	90.348	115.671	18.179	11.988	16.270	0.00059407	0.0024564	0.00041086	365	3.6244e-05	3.6318e-05	369.08	121.13	1.7329e-05	4.1241e-06	137.71	50.097	46.838	21.301	1.9627e-05	23.697	0.016505	0.018876	0.005213	3340.8	0.00019359	0.00020569	1192.2	381.53	0.00018835	0.00020907	584.71	188.28	173.96	72.341	0.00019734	89.933	14.708	175.792	-1.948	-15.686	246.243	207.522	-14.499	-5.993	178.259	144.821	-9.759	-4.692	0.788	5.553	64.143	-0.742	-8191	255	
3150.915	1	1	0	0	0.16712	0.12697	0.17594	0.019051	0.2071	0.27579	0.17376	0.26279	0.16448	0.13333	0.070891	0.11561	0.15571	0.35521	0.15721	0.15748	-2.7812	-2.8708	-2.8896	-3.1292	-2.5062	-2.9188	-2.7271	-2.675	-3.125	-3.0125	-2.9854	-2.9875	-2.6979	-3.0167	-2.8854	-2.5375	-16.313	-3.085	110.824	87.956	101.210	260.273	322.084	177.288	238.740	279.915	29.037	195.924	31.261	18.863	95.475	249.362	0.00058862	0.0047715	0.00067345	356.05	1.9234e-05	1.2302e-05	370.22	121.55	2.7653e-05	3.3037e-05	139.74	50.707	47.496	21.423	4.1921e-05	24.29	0.016643	0.018841	0.0050342	3230.2	0.00019564	0.00020555	1165.7	374.27	0.00019211	0.00020613	575.81	184.52	178.85	72.947	0.00019552	90.333	257.536	170.513	18.026	-15.009	223.817	127.448	-13.601	-5.711	185.014	183.094	-9.854	-4.974	-0.381	4.131	58.944	-0.438	-8191	255	
#DATA ENDS
