BOXY.EXE: ISS Imagent and Oximeter Data Acquisition Program Version 0.80
Ascii Record File

#ACQ INFORMATION
2  Detector Channels 
16  External MUX Channels 
1  Auxiliary Channels 
5000  Waveform (CCF) Frequency (Hz)
1  Waveforms Skipped 
30  Waveforms Averaged 
1  Cycles Averaged 
16  Acquisitions per Waveform 
10.0806  Updata Rate (Hz) 

#FILE INFORMATION
TRUE -- External MUX Channel results are PARSED.
FALSE -- AC DC and Phase are NOT grouped.
TRUE -- Companion Program Settings File CREATED.
FALSE -- AC data not excluded
FALSE -- DC data not excluded
FALSE -- Phase data not excluded
FALSE -- Auxillary Chn. data not excluded
Tab delimiters

#CALIBRATION STATE
TRUE -- Waveform Calibration Values APPLIED.


#AUX CALIBRATION VALUES
Val Type	aux-1	

Term	1.0000e+00	
Factor	0.0000e+00	


#WF CALIBRATION VALUES
A = Detector Channel
Val Type	A-AC1	A-AC2	A-AC3	A-AC4	A-AC5	A-AC6	A-AC7	A-AC8	A-AC9	A-AC10	A-AC11	A-AC12	A-AC13	A-AC14	A-AC15	A-AC16	A-DC1	A-DC2	A-DC3	A-DC4	A-DC5	A-DC6	A-DC7	A-DC8	A-DC9	A-DC10	A-DC11	A-DC12	A-DC13	A-DC14	A-DC15	A-DC16	A-Ph1	A-Ph2	A-Ph3	A-Ph4	A-Ph5	A-Ph6	A-Ph7	A-Ph8	A-Ph9	A-Ph10	A-Ph11	A-Ph12	A-Ph13	A-Ph14	A-Ph15	A-Ph16	

Term	0.00000e+00	0.00000e+00	0.00000e+00	0.00000e+00	0.00000e+00	0.00000e+00	0.00000e+00	0.00000e+00	0.00000e+00	0.00000e+00	0.00000e+00	0.00000e+00	0.00000e+00	0.00000e+00	0.00000e+00	0.00000e+00	0.00000e+00	0.00000e+00	0.00000e+00	0.00000e+00	0.00000e+00	0.00000e+00	0.00000e+00	0.00000e+00	0.00000e+00	0.00000e+00	0.00000e+00	0.00000e+00	0.00000e+00	0.00000e+00	0.00000e+00	0.00000e+00	0.00000e+00	0.00000e+00	0.00000e+00	0.00000e+00	0.00000e+00	0.00000e+00	0.00000e+00	0.00000e+00	0.00000e+00	0.00000e+00	0.00000e+00	0.00000e+00	0.00000e+00	0.00000e+00	0.00000e+00	0.00000e+00	
Factor	1.00000e+00	1.00000e+00	1.00000e+00	1.00000e+00	1.00000e+00	1.00000e+00	1.00000e+00	1.00000e+00	1.00000e+00	1.00000e+00	1.00000e+00	1.00000e+00	1.00000e+00	1.00000e+00	1.00000e+00	1.00000e+00	1.00000e+00	1.00000e+00	1.00000e+00	1.00000e+00	1.00000e+00	1.00000e+00	1.00000e+00	1.00000e+00	1.00000e+00	1.00000e+00	1.00000e+00	1.00000e+00	1.00000e+00	1.00000e+00	1.00000e+00	1.00000e+00	X	X	X	X	X	X	X	X	X	X	X	X	X	X	X	X	

B = Detector Channel
Val Type	B-AC1	B-AC2	B-AC3	B-AC4	B-AC5	B-AC6	B-AC7	B-AC8	B-AC9	B-AC10	B-AC11	B-AC12	B-AC13	B-AC14	B-AC15	B-AC16	B-DC1	B-DC2	B-DC3	B-DC4	B-DC5	B-DC6	B-DC7	B-DC8	B-DC9	B-DC10	B-DC11	B-DC12	B-DC13	B-DC14	B-DC15	B-DC16	B-Ph1	B-Ph2	B-Ph3	B-Ph4	B-Ph5	B-Ph6	B-Ph7	B-Ph8	B-Ph9	B-Ph10	B-Ph11	B-Ph12	B-Ph13	B-Ph14	B-Ph15	B-Ph16	

Term	0.00000e+00	0.00000e+00	0.00000e+00	0.00000e+00	0.00000e+00	0.00000e+00	0.00000e+00	0.00000e+00	0.00000e+00	0.00000e+00	0.00000e+00	0.00000e+00	0.00000e+00	0.00000e+00	0.00000e+00	0.00000e+00	0.00000e+00	0.00000e+00	0.00000e+00	0.00000e+00	0.00000e+00	0.00000e+00	0.00000e+00	0.00000e+00	0.00000e+00	0.00000e+00	0.00000e+00	0.00000e+00	0.00000e+00	0.00000e+00	0.00000e+00	0.00000e+00	-5.38156e+01	-1.31042e+02	-1.24433e+02	-1.81592e+02	-5.12389e+01	-6.77519e+01	-1.57010e+02	-1.62015e+02	-4.49559e+01	-6.47779e+01	-1.71977e+02	-1.70149e+02	-1.79453e+02	-1.77250e+02	-5.57634e+01	-1.50141e+02	
Factor	2.03653e-05	1.65828e-04	4.62255e-05	1.62462e-01	1.69913e-06	1.87841e-06	1.83249e-01	6.39994e-02	1.44152e-06	1.88062e-06	8.71469e-02	2.95149e-02	3.17034e-02	9.42612e-03	1.54103e-06	1.33165e-02	8.12842e-06	1.10171e-05	3.07108e-06	8.26260e-02	1.14284e-07	1.22168e-07	8.76959e-02	3.26199e-02	1.15569e-07	1.22005e-07	4.32266e-02	1.46927e-02	1.64001e-02	4.85771e-03	1.18033e-07	6.63519e-03	X	X	X	X	X	X	X	X	X	X	X	X	X	X	X	X	



#DISTANCE SETTINGS
A = Detector Channel
A-1	A-2	A-3	A-4	A-5	A-6	A-7	A-8	A-9	A-10	A-11	A-12	A-13	A-14	A-15	A-16	

2.5000e+00	3.0000e+00	2.5000e+00	3.0000e+00	2.0000e+00	3.0000e+00	1.5000e+00	3.0000e+00	3.0000e+00	3.0000e+00	3.0000e+00	3.0000e+00	3.0000e+00	3.0000e+00	1.5000e+00	3.0000e+00	

B = Detector Channel
B-1	B-2	B-3	B-4	B-5	B-6	B-7	B-8	B-9	B-10	B-11	B-12	B-13	B-14	B-15	B-16	

1.0000e+01	1.0000e+01	1.0000e+01	1.4400e+00	1.0000e+01	1.0000e+01	1.5100e+00	1.9400e+00	1.0000e+01	1.0000e+01	1.9900e+00	2.4900e+00	2.4100e+00	2.9000e+00	1.0000e+01	2.9800e+00	




#DATA BEGINS
time	group	step	mark	flag	A-AC1	A-AC2	A-AC3	A-AC4	A-AC5	A-AC6	A-AC7	A-AC8	A-AC9	A-AC10	A-AC11	A-AC12	A-AC13	A-AC14	A-AC15	A-AC16	A-DC1	A-DC2	A-DC3	A-DC4	A-DC5	A-DC6	A-DC7	A-DC8	A-DC9	A-DC10	A-DC11	A-DC12	A-DC13	A-DC14	A-DC15	A-DC16	A-Ph1	A-Ph2	A-Ph3	A-Ph4	A-Ph5	A-Ph6	A-Ph7	A-Ph8	A-Ph9	A-Ph10	A-Ph11	A-Ph12	A-Ph13	A-Ph14	A-Ph15	A-Ph16	B-AC1	B-AC2	B-AC3	B-AC4	B-AC5	B-AC6	B-AC7	B-AC8	B-AC9	B-AC10	B-AC11	B-AC12	B-AC13	B-AC14	B-AC15	B-AC16	B-DC1	B-DC2	B-DC3	B-DC4	B-DC5	B-DC6	B-DC7	B-DC8	B-DC9	B-DC10	B-DC11	B-DC12	B-DC13	B-DC14	B-DC15	B-DC16	B-Ph1	B-Ph2	B-Ph3	B-Ph4	B-Ph5	B-Ph6	B-Ph7	B-Ph8	B-Ph9	B-Ph10	B-Ph11	B-Ph12	B-Ph13	B-Ph14	B-Ph15	B-Ph16	aux-1	digaux	

22047.988	1	1	0	768	0.30425	0.14095	0.043926	0.12237	0.17706	0.096857	0.15045	0.22149	0.22564	0.056731	0.20023	0.31343	0.17725	0.086328	0.15382	0.035321	-1.6083	-2.4938	-2.3458	-2.0167	-2.4604	-2.3438	-2.2062	-2.5208	-2.0438	-2.4417	-2.25	-1.925	-2.3	-2.1562	-2.2104	-2.4104	155.010	488.643	341.779	411.325	173.841	471.750	367.800	333.904	414.085	384.425	174.510	308.768	435.644	228.189	205.663	464.600	0.00038114	0.00047239	8.3859e-05	610.83	3.9011e-06	2.995e-06	706.86	163.74	4.1868e-06	4.7654e-06	231.41	77.416	44.324	15.354	2.5665e-06	33.911	0.00035453	0.00034858	9.5133e-05	599.09	3.5814e-06	3.6246e-06	695.69	161.87	3.7632e-06	3.6388e-06	229.33	76.294	43.442	15.444	3.7645e-06	33.718	261.623	182.054	242.827	144.184	264.882	259.265	143.520	148.277	269.519	266.972	146.547	150.783	151.829	155.409	300.701	153.493	-8191	255	
22048.084	1	1	0	0	0.16459	0.10572	0.098627	0.27585	0.075214	0.080492	0.05335	0.063632	0.32705	0.33226	0.17553	0.15753	0.095922	0.18036	0.14261	0.079361	-1.7396	-2.4188	-2.2833	-2.1333	-2.3979	-2.1375	-2.1771	-2.6375	-2.0833	-2.3542	-2.4229	-2.0896	-2.4625	-2.3667	-1.975	-2.5687	236.896	455.395	245.946	142.895	465.448	146.727	287.550	319.341	348.992	203.040	456.111	447.678	420.710	257.961	489.135	455.289	0.00037398	0.00043412	2.1919e-05	610.44	2.9403e-06	1.7766e-06	712.38	166.88	3.4561e-06	1.6534e-06	234.68	77.188	44.613	15.407	3.3579e-06	33.898	0.0003522	0.00034231	9.2606e-05	599.85	3.5666e-06	3.6765e-06	698.3	164.22	3.5665e-06	3.7878e-06	230.78	76.278	43.941	15.408	3.7948e-06	33.539	261.601	224.442	244.829	144.363	284.569	330.862	143.497	148.290	326.544	316.808	146.851	150.766	151.690	155.327	300.336	153.219	-8191	255	
22048.180	1	1	0	0	0.3763	0.35538	0.14324	0.23982	0.12597	0.17674	0.052966	0.14903	0.31608	0.21707	0.099127	0.21544	0.27667	0.099986	0.095687	0.13581	-1.6979	-2.25	-2.55	-1.9771	-2.3187	-2.5438	-1.9813	-2.4271	-2.1292	-2.2042	-2.4292	-2.025	-2.3042	-2.4062	-2.1667	-2.5375	371.172	386.457	457.651	433.175	444.887	416.861	150.667	156.327	227.607	380.745	370.060	193.093	411.095	325.600	221.480	399.058	0.00041394	0.00019327	5.5816e-05	618.48	1.1286e-06	3.4094e-06	719.94	169.57	4.6642e-06	1.8292e-07	237.44	78.291	44.971	15.819	4.9174e-06	34.253	0.00035939	0.00035516	9.5434e-05	610.53	3.7357e-06	3.7961e-06	707.54	166.55	3.6616e-06	3.6599e-06	233.47	77.191	44.27	15.738	3.837e-06	34.009	258.513	222.270	211.792	144.146	194.575	275.176	143.745	148.314	305.144	392.455	146.774	150.784	151.920	155.449	289.435	153.698	-8191	255	
22048.277	1	1	0	0	0.09083	0.34489	0.082057	0.40486	0.31329	0.22813	0.32701	0.26622	0.058804	0.11685	0.17248	0.14981	0.19171	0.11241	0.17614	0.13752	-1.7333	-2.1333	-2.4667	-2.1854	-2.0667	-2.3125	-2.2125	-2.4083	-2.2	-2.2292	-2.4917	-2.2021	-2.3688	-2.3063	-1.8917	-2.4792	330.816	157.171	359.238	474.525	465.615	296.955	169.548	463.070	141.567	274.988	358.519	287.198	322.068	361.839	450.937	426.048	0.00040737	0.00046199	7.4427e-05	618.56	3.172e-06	3.6561e-06	719.61	167.6	4.6756e-06	2.6496e-06	234.57	77.746	44.124	15.698	4.0192e-06	33.915	0.00037164	0.00033318	9.5626e-05	608.2	3.6652e-06	3.7727e-06	704.44	165.07	3.6823e-06	3.6591e-06	230.8	76.477	43.694	15.607	3.6843e-06	33.617	261.550	215.582	188.005	144.401	256.842	287.579	143.335	148.230	318.311	293.269	146.380	150.605	151.522	155.755	273.621	153.683	-8191	255	
22048.371	1	1	0	0	0.18304	0.05566	0.21497	0.064756	0.11978	0.1859	0.32392	0.27469	0.04382	0.065944	0.037229	0.31738	0.29757	0.24498	0.04165	0.12449	-1.6688	-2.0875	-2.4729	-1.9833	-2.4417	-2.4042	-2.0979	-2.3563	-2.1792	-2.1479	-2.6646	-2.1146	-2.3375	-2.4458	-1.9979	-2.2542	390.934	241.321	444.668	394.856	243.349	406.245	257.346	270.760	176.443	227.435	340.094	422.955	433.169	375.273	253.605	354.122	0.0004188	0.00029488	9.7325e-05	612.21	3.292e-06	2.7432e-06	708.7	165.1	3.3443e-06	2.1011e-06	233.82	76.729	44.367	15.509	2.4325e-06	33.943	0.00036327	0.00032859	9.2555e-05	602.86	3.6723e-06	3.7035e-06	696.63	162.88	3.5901e-06	3.5915e-06	229.12	75.87	43.537	15.505	3.693e-06	33.663	259.099	219.746	187.301	143.926	303.601	287.051	143.899	148.073	274.640	274.731	146.701	150.548	151.767	155.437	292.847	153.672	-8191	255	
22048.467	1	1	0	0	0.20742	0.076687	0.29528	0.0081455	0.11737	0.082259	0.22786	0.15422	0.13648	0.085283	0.029521	0.11443	0.096212	0.085853	0.35599	0.11156	-1.8583	-2.0146	-2.3792	-2.1354	-2.3458	-2.5333	-2.2812	-2.425	-2.4729	-1.8792	-2.5771	-2.2104	-2.1562	-2.5875	-2.1229	-2.5229	391.305	352.576	364.217	486.296	358.686	141.366	460.976	469.436	294.151	282.021	411.675	413.913	394.009	267.014	256.943	472.244	0.00040028	0.00021799	0.00011525	613.38	1.5358e-06	2.4888e-06	707.27	166.33	3.9597e-06	5.3198e-06	232.29	76.936	44.075	15.48	2.8466e-06	33.525	0.00035967	0.00034656	9.0251e-05	601.88	3.6792e-06	3.663e-06	695.48	163.45	3.6e-06	3.7814e-06	229	75.812	43.516	15.478	3.7311e-06	33.402	263.615	160.872	232.812	144.097	283.441	327.326	143.732	148.291	285.125	271.931	146.640	150.710	151.679	155.615	320.217	154.025	-8191	255	
22048.588	1	1	0	0	0.22244	0.047496	0.26538	0.30545	0.19317	0.19828	0.093517	0.12615	0.15559	0.089139	0.15111	0.15238	0.1327	0.2325	0.077973	0.063635	-2.0729	-2.1979	-2.3854	-2.1333	-1.9625	-2.5146	-2.2687	-2.4375	-2.3333	-2.1167	-2.4521	-2.2625	-2.1396	-2.4792	-1.9708	-2.3438	246.070	186.440	427.725	384.102	186.505	208.857	262.772	475.966	448.977	426.692	141.686	485.709	248.840	210.329	158.224	159.494	0.00040245	0.00020832	0.00011303	618.68	2.8842e-06	4.4472e-06	712.12	166.37	5.2758e-06	1.6858e-06	232.92	77.469	44.564	15.523	1.0806e-06	33.962	0.00035961	0.00033953	9.4532e-05	607.85	3.6414e-06	3.6594e-06	700.43	164.78	3.6462e-06	3.7059e-06	230.51	76.342	44.033	15.606	3.7316e-06	33.746	262.127	138.760	217.153	144.014	293.652	275.035	143.291	148.091	299.780	283.839	146.772	150.670	151.535	155.864	248.090	153.415	-8191	255	
22048.684	1	1	0	0	0.2481	0.13727	0.21255	0.16181	0.1309	0.21971	0.16817	0.1751	0.055591	0.41098	0.086474	0.17237	0.21697	0.22695	0.14695	0.18672	-2.0604	-1.9354	-2.3896	-2.2062	-2.1437	-2.5021	-2.1021	-2.25	-2.4167	-2.1333	-2.5667	-2.4083	-1.8813	-2.5479	-2.1646	-2.2562	455.221	317.279	403.257	161.932	218.413	215.788	367.801	408.083	264.267	375.091	323.283	340.055	306.051	309.710	291.326	136.758	0.000366	0.00024811	3.1406e-05	615.63	2.9285e-06	6.9281e-07	713.75	167.85	2.7869e-06	3.9925e-06	232.77	77.392	44.394	15.732	2.4641e-06	33.983	0.00035882	0.00034628	9.6681e-05	607.37	3.8299e-06	3.6722e-06	700.46	165.09	3.7603e-06	3.6785e-06	229.75	76.362	43.792	15.736	3.6529e-06	33.67	265.713	218.757	257.620	144.284	259.898	260.502	143.576	148.114	303.138	243.194	146.725	150.367	151.587	155.655	234.760	153.613	-8191	255	
22048.779	1	1	0	0	0.15333	0.13197	0.16042	0.12159	0.15552	0.10743	0.34671	0.066283	0.38648	0.057694	0.20797	0.17111	0.041492	0.015578	0.0064121	0.15968	-1.9208	-2.1896	-2.2333	-2.4021	-1.9042	-2.4042	-2.2458	-2	-2.3333	-2.1229	-2.3812	-2.3896	-1.9479	-2.4104	-2.1396	-2.2292	425.831	262.551	440.558	422.740	364.488	403.162	161.448	246.336	387.902	338.263	461.914	463.622	136.693	171.568	158.739	443.271	0.00037967	0.0002108	0.0001242	612.61	3.6176e-06	3.0191e-06	709.54	166.74	1.8455e-06	1.7162e-06	232.45	76.585	44.053	15.565	3.544e-06	33.581	0.00036136	0.00034908	9.6458e-05	603.73	3.7654e-06	3.7154e-06	694	163.68	3.6623e-06	3.6787e-06	228.15	75.638	43.303	15.562	3.7045e-06	33.34	267.194	222.663	272.369	144.075	280.447	304.547	143.608	148.076	269.683	286.147	146.775	150.814	151.443	155.663	272.586	153.474	-8191	255	
22048.877	1	1	0	0	0.34039	0.52202	0.3298	0.051869	0.048301	0.24533	0.14411	0.14684	0.1951	0.13992	0.098333	0.17778	0.15547	0.14904	0.10066	0.22236	-2.2042	-2.0396	-2.1479	-2.2896	-2.0125	-2.4333	-2.3896	-2.1229	-2.575	-2.175	-2.3958	-2.4583	-1.9479	-2.6521	-2.3563	-2.2083	332.083	246.257	372.215	400.933	453.828	294.861	139.255	304.475	472.260	361.093	342.345	450.774	243.319	252.971	362.501	486.087	0.00038103	0.00045215	0.00010923	613.39	2.4876e-06	3.6481e-06	700.34	165.79	2.7791e-06	2.154e-07	231.22	75.683	43.879	15.387	3.7251e-06	33.32	0.00035548	0.00033582	9.6195e-05	601.67	3.738e-06	3.6004e-06	691.58	162.53	3.659e-06	3.7984e-06	227.48	75.055	43.197	15.344	3.7102e-06	33.099	261.855	213.834	198.984	144.316	272.281	260.803	143.762	148.211	290.255	255.950	146.959	150.894	151.810	155.638	283.839	153.778	-8191	255	
22048.973	1	1	0	0	0.10508	0.36394	0.082576	0.22039	0.10956	0.32789	0.085082	0.20186	0.16542	0.43726	0.19382	0.13418	0.33701	0.16814	0.13741	0.14767	-2	-2.2396	-2.2646	-2.4875	-2.1458	-2.4083	-2.2729	-2.075	-2.5812	-2.1521	-2.2812	-2.3646	-1.9438	-2.3729	-2.4083	-2.1917	423.221	436.418	152.785	421.272	467.643	254.503	149.400	279.953	393.312	222.426	456.051	265.608	320.064	467.545	347.248	138.811	0.00037307	0.00027388	9.7214e-05	615.32	2.4799e-06	3.4489e-06	710.84	166.16	1.1601e-06	1.9142e-06	231.05	76.671	44.202	15.512	1.6088e-06	33.655	0.00035159	0.00034192	9.5383e-05	605.57	3.688e-06	3.6083e-06	696.87	164.18	3.7317e-06	3.5748e-06	228.54	75.508	43.641	15.432	3.4699e-06	33.277	259.067	216.957	250.123	143.858	263.294	296.934	143.318	148.098	271.778	240.871	146.748	150.738	151.946	155.259	294.691	153.611	-8191	255	
22049.068	1	1	0	0	0.14541	0.29632	0.055906	0.14442	0.052927	0.23731	0.098364	0.26551	0.12054	0.21037	0.20784	0.45354	0.13003	0.11225	0.15666	0.25122	-2.0687	-2.2646	-2.0563	-2.4875	-2.0167	-2.2833	-2.4958	-2.2854	-2.4229	-2.3396	-2.1312	-2.5271	-1.9083	-2.1688	-2.2792	-2.1292	378.915	286.307	154.798	149.109	159.427	195.136	283.937	376.089	379.248	261.554	392.664	468.628	429.682	460.979	163.894	421.153	0.00036679	0.00033925	7.3315e-05	620.65	2.8994e-06	2.9032e-06	710.85	167.06	4.2854e-06	3.5447e-06	231.72	76.357	44.088	15.534	2.5188e-06	33.26	0.00035497	0.00033262	9.345e-05	607.07	3.6321e-06	3.6299e-06	696.95	163.81	3.6758e-06	3.7552e-06	228.1	75.346	43.506	15.466	3.5843e-06	33.066	257.886	203.955	214.598	144.106	288.641	251.335	143.621	148.199	286.734	291.160	146.496	150.817	151.614	155.522	253.218	153.784	-8191	255	
22049.189	1	1	0	0	0.056608	0.041388	0.25171	0.36584	0.14742	0.18648	0.41197	0.19766	0.17646	0.25439	0.21627	0.17039	0.2242	0.21784	0.12127	0.097422	-2.3063	-2.1458	-2.0187	-2.5375	-2.0104	-2.1813	-2.3688	-1.9917	-2.3958	-2.2208	-1.8563	-2.5167	-1.9792	-2.1396	-2.4021	-2.0792	361.539	341.980	385.918	465.747	221.573	358.237	446.307	425.546	299.325	411.045	439.881	179.427	164.599	248.420	298.990	413.011	0.00038756	0.0003669	6.503e-05	614.25	3.2357e-06	4.0595e-06	702.14	164.46	3.1839e-06	1.1493e-06	226.99	74.731	43.022	15.089	2.6285e-06	32.346	0.00036654	0.00033237	9.5722e-05	603.95	3.5607e-06	3.7386e-06	687.1	162.09	3.5814e-06	3.7166e-06	223.27	73.815	42.562	15.083	3.5196e-06	32.251	262.890	255.143	249.286	144.167	303.695	285.343	143.560	147.927	288.508	282.642	146.782	150.711	151.296	155.715	292.598	153.579	-8191	255	
22049.283	1	1	0	0	0.17404	0.1011	0.22008	0.23332	0.11916	0.15763	0.12359	0.12176	0.30276	0.048446	0.20945	0.11951	0.16254	0.082734	0.20822	0.10445	-1.8417	-2.2583	-1.9854	-2.4354	-2.075	-2.0708	-2.6292	-1.9833	-2.2625	-2.4583	-2.1271	-2.6083	-2.2542	-2.0708	-2.4188	-1.9896	383.537	169.402	487.128	333.555	223.860	194.718	221.224	165.963	154.757	378.647	135.041	191.083	400.797	473.277	292.053	190.141	0.0003879	0.00024705	9.6291e-05	608.62	2.8629e-06	2.4229e-06	695.48	161.6	3.4709e-06	2.5549e-06	226.65	73.786	42.473	14.729	1.7064e-06	31.786	0.00034327	0.00032459	9.5453e-05	597.64	3.519e-06	3.6345e-06	681.62	159.18	3.5001e-06	3.6929e-06	221.72	72.596	42.021	14.695	3.421e-06	31.589	262.864	208.132	212.500	144.108	261.376	316.193	143.610	148.378	295.768	224.751	146.450	150.822	151.338	155.865	283.288	153.569	-8191	255	
22049.381	1	1	0	0	0.27334	0.17156	0.23733	0.24177	0.2109	0.42176	0.25036	0.25764	0.12654	0.15003	0.37932	0.17735	0.28472	0.23529	0.36262	0.20469	-1.9438	-2.4938	-2.0479	-2.6021	-2.3063	-2.0833	-2.5854	-2.1375	-2.0396	-2.1979	-1.9125	-2.4208	-2.1375	-1.9208	-2.3896	-2.0292	167.854	238.761	216.604	448.709	378.521	292.963	131.702	338.067	258.326	327.267	346.046	458.936	477.927	417.102	204.471	482.560	0.0003296	0.00021465	6.8897e-05	603.61	2.5259e-06	1.5921e-06	691.73	161.15	2.8539e-06	3.5078e-06	222.38	72.723	42.197	14.505	3.3505e-06	31.564	0.00034194	0.00032429	9.3918e-05	594.26	3.4457e-06	3.6103e-06	678.77	159.26	3.5022e-06	3.5399e-06	220.16	71.893	41.71	14.526	3.5466e-06	31.347	268.106	205.561	215.853	144.042	318.210	299.245	143.431	148.136	276.317	234.902	146.609	150.495	151.521	155.321	252.206	153.664	-8191	255	
22049.477	1	1	0	0	0.28198	0.42807	0.44066	0.11123	0.096635	0.3036	0.066847	0.13041	0.16309	0.24026	0.24136	0.036449	0.10972	0.19872	0.2329	0.18739	-1.6938	-2.3542	-1.7646	-2.3583	-2.0187	-2.0625	-2.45	-2.0333	-2.0875	-2.3875	-1.9333	-2.1688	-2.1396	-1.9688	-2.6063	-2.3042	384.940	238.216	405.473	477.041	169.773	399.094	199.688	320.982	174.506	454.894	446.130	152.253	396.845	327.068	308.989	447.955	0.00034121	0.00032076	8.4501e-05	604.96	1.8332e-06	4.1726e-06	694.34	161.09	2.9805e-06	3.5147e-06	223.62	73.037	42.342	14.54	1.0323e-06	31.501	0.00033443	0.00032248	8.9151e-05	595.09	3.4171e-06	3.4831e-06	679.98	158.87	3.5484e-06	3.5448e-06	220.56	72.196	41.689	14.56	3.4891e-06	31.352	262.765	214.661	205.350	144.133	311.379	289.061	143.431	148.072	312.381	277.137	146.619	150.514	151.287	155.217	347.166	153.371	-8191	255	
22049.549	1	1	0	0	0.17766	0.18595	0.12634	0.1842	0.29046	0.27206	0.045319	0.25612	0.18944	0.021616	0.20799	0.12991	0.35195	0.2163	0.2269	0.11187	-1.6146	-2.5354	-1.9958	-2.3479	-2.2833	-1.9542	-2.5021	-2.35	-1.9583	-2.4625	-1.9958	-2.3312	-2.2625	-2.0146	-2.4375	-2.1125	388.440	290.929	316.661	270.973	227.470	399.739	368.716	222.186	368.841	241.675	223.205	373.236	474.728	410.386	143.904	475.106	0.00041339	0.0002897	8.4393e-05	607.36	5.2043e-06	2.2719e-06	687.36	160.51	2.8751e-06	3.6245e-06	221.5	71.971	42.345	14.174	1.7789e-06	30.751	0.00033973	0.00032721	8.8518e-05	595.16	3.4128e-06	3.52e-06	677.21	158.88	3.568e-06	3.5224e-06	218.08	71.018	41.68	14.246	3.4495e-06	30.541	261.001	229.400	223.114	144.131	326.385	222.519	143.112	148.162	313.311	281.754	146.397	150.751	151.327	155.424	297.885	153.753	-8191	255	
22049.668	1	1	0	0	0.22298	0.077278	0.40348	0.12327	0.12351	0.18819	0.19547	0.18145	0.24999	0.020877	0.53286	0.11872	0.25157	0.14968	0.060865	0.069821	-1.7354	-2.5021	-1.9708	-2.1333	-2.475	-2.0708	-2.4042	-2.2958	-2.0812	-2.5833	-2.0521	-2.1458	-2.4229	-1.9208	-2.2917	-2.3396	227.190	485.270	414.379	219.789	168.395	359.628	369.809	487.232	291.318	353.200	146.272	458.992	453.961	172.591	346.819	320.230	0.00037495	0.00027262	0.00010406	608.4	2.8384e-06	1.9897e-06	688.17	161.45	4.498e-06	2.3996e-06	220.08	71.854	42.476	14.426	4.1145e-06	30.968	0.00034028	0.00031279	8.972e-05	599.47	3.4614e-06	3.5981e-06	675.5	159.12	3.47e-06	3.5567e-06	217.76	70.877	41.784	14.374	3.5528e-06	30.739	259.641	200.603	219.472	143.829	307.754	272.728	143.512	148.392	288.038	286.554	146.891	150.583	151.412	155.551	271.460	153.657	-8191	255	
22049.764	1	1	0	0	0.1458	0.10551	0.20685	0.10508	0.25083	0.16564	0.14236	0.10327	0.0548	0.15979	0.14032	0.15536	0.13301	0.1426	0.18868	0.16713	-1.4229	-2.2979	-2.0729	-2.0729	-2.3729	-1.9208	-2.2687	-2.2917	-1.9	-2.5083	-2.1854	-2.1458	-2.3729	-2.0875	-2.2625	-2.3458	405.211	324.954	371.084	459.753	305.252	419.461	273.426	453.611	333.409	206.968	436.808	395.476	376.515	255.574	213.934	379.558	0.00035038	0.00027976	8.2287e-05	605.32	2.8586e-06	2.0222e-06	685.61	161.15	3.1139e-06	2.8544e-06	223.19	72.891	42.317	14.617	3.0443e-06	31.4	0.00034393	0.0003066	9.029e-05	594.78	3.4861e-06	3.4731e-06	673.82	158.11	3.5121e-06	3.5748e-06	219.2	71.754	41.792	14.595	3.524e-06	31.222	260.735	189.301	224.338	143.883	291.053	265.459	143.398	147.958	324.266	280.776	146.325	150.645	151.479	155.622	324.702	153.394	-8191	255	
22049.861	1	1	0	0	0.24687	0.18835	0.34313	0.030955	0.29468	0.26951	0.12121	0.13686	0.10555	0.10506	0.09064	0.077128	0.16107	0.30096	0.17634	0.04113	-1.7229	-2.2708	-2.1729	-2.2188	-2.4771	-2.1854	-2.3708	-2.4188	-1.8833	-2.6146	-2.2875	-1.8729	-2.3667	-1.9604	-2.1437	-2.3312	220.717	357.855	332.399	461.718	426.846	441.555	279.214	372.493	132.815	141.867	265.207	470.823	142.016	391.348	235.411	460.314	0.00035434	0.00026922	4.9424e-05	605.59	3.7251e-06	2.1035e-06	688.08	160.17	2.5827e-06	3.517e-06	223.68	73.646	42.736	14.866	4.5288e-06	31.874	0.0003418	0.00031344	9.3182e-05	595.15	3.52e-06	3.5162e-06	675.72	159.05	3.5164e-06	3.5173e-06	221.01	72.531	42.312	14.872	3.5321e-06	31.804	260.440	201.149	215.083	144.417	274.002	314.408	143.513	148.201	295.427	258.677	146.909	150.540	151.795	155.308	279.895	153.519	-8191	255	
22049.957	1	1	0	0	0.15549	0.1405	0.13114	0.2562	0.070264	0.20335	0.10121	0.20589	0.2685	0.22795	0.21366	0.025959	0.22834	0.036431	0.16372	0.33186	-1.4417	-2.175	-1.8937	-1.9854	-2.3979	-2.0604	-2.3646	-2.3542	-2.0646	-2.3875	-2.1542	-2.1208	-2.4688	-1.95	-2.1562	-2.4292	362.092	297.633	294.751	403.094	406.547	429.939	330.855	224.637	134.412	277.760	228.648	308.515	355.900	278.429	444.414	364.361	0.00038308	0.00013765	6.5693e-05	609.23	2.6786e-06	5.2501e-07	694.4	163.5	2.3695e-06	2.5617e-06	226.52	74.1	43.145	14.97	1.9465e-06	32.054	0.00035137	0.00033026	9.4519e-05	600.52	3.5333e-06	3.6309e-06	681.83	161.51	3.5956e-06	3.5956e-06	222.56	72.987	42.814	15.003	3.5294e-06	31.742	263.263	150.370	234.902	144.454	269.881	236.921	143.454	148.078	288.530	258.226	146.300	150.452	151.730	155.203	328.207	153.007	-8191	255	
22050.076	1	1	0	0	0.21634	0.099059	0.083606	0.41705	0.19416	0.18527	0.22764	0.21029	0.12514	0.12608	0.1364	0.3878	0.14917	0.1042	0.13824	0.11262	-1.4417	-2.1354	-2.15	-1.8625	-2.4	-2.1188	-2.1937	-2.5521	-2.0042	-2.2542	-2.3063	-1.9333	-2.325	-2.0812	-2.0812	-2.4125	161.224	348.334	133.375	445.875	351.949	436.091	292.742	410.269	338.510	240.185	385.746	311.146	138.935	388.826	472.324	199.254	0.00033577	0.00013795	6.3703e-05	616	8.0421e-07	2.0321e-06	696.69	165.74	2.132e-06	2.28e-06	226.78	74.552	44.322	15.092	3.2328e-06	32.115	0.00034915	0.00031823	9.1909e-05	606.98	3.5376e-06	3.6167e-06	682.63	163.62	3.6549e-06	3.6752e-06	223.74	73.44	43.601	15.113	3.6664e-06	31.87	259.031	244.384	202.519	143.968	340.337	192.611	143.518	148.487	314.040	282.556	146.769	150.245	151.592	155.012	298.077	153.474	-8191	255	
22050.148	1	1	0	0	0.22916	0.047734	0.19691	0.16587	0.090628	0.087476	0.27951	0.083931	0.25897	0.11567	0.15855	0.18562	0.36539	0.091602	0.23247	0.19883	-1.5625	-2.1354	-2.3208	-1.8146	-2.2438	-2.2583	-2.0229	-2.2729	-2.0292	-2.2083	-2.4292	-2.0438	-2.2938	-2.2625	-2.0104	-2.3396	233.134	379.513	408.353	425.364	130.873	405.354	443.599	326.588	303.659	201.883	353.534	479.308	254.023	349.626	271.438	424.610	0.00039602	0.00029321	0.00010234	622.26	2.3e-06	3.8768e-06	700.48	166.52	2.7012e-06	4.0028e-06	226.77	74.132	44.445	15.099	7.898e-07	32.005	0.00034966	0.00033742	9.2651e-05	611.47	3.5373e-06	3.6676e-06	687.65	164.74	3.5655e-06	3.7834e-06	223.92	73.315	43.589	15.153	3.5769e-06	31.938	260.668	227.172	226.925	144.300	283.164	283.542	143.281	148.166	305.875	281.175	146.436	150.476	151.361	155.446	257.023	153.558	-8191	255	
22050.270	1	1	0	0	0.27732	0.31831	0.14441	0.22079	0.23415	0.19492	0.16038	0.30958	0.20088	0.11992	0.15693	0.051419	0.031416	0.20764	0.18877	0.11472	-1.6958	-2.0375	-2.3354	-2.0583	-2.4292	-2.1104	-2.25	-2.1729	-1.9333	-2.0458	-2.4083	-2.0333	-2.1333	-2.2021	-1.9979	-2.3479	420.902	294.296	143.613	407.441	436.961	222.014	374.905	459.677	477.081	147.265	485.247	402.102	337.030	428.136	431.544	308.422	0.00034792	0.00033771	0.00010235	617.93	4.1101e-06	2.9582e-06	700.36	167.39	2.3409e-06	2.3779e-06	228.87	75.266	44.548	15.533	2.2331e-06	32.802	0.00034363	0.00033761	9.4321e-05	610.89	3.5392e-06	3.7485e-06	686.91	164.73	3.6147e-06	3.7186e-06	225.81	74.348	43.863	15.461	3.7158e-06	32.62	265.258	231.832	251.153	144.105	281.669	302.599	143.611	148.410	281.884	308.676	146.673	150.297	151.454	155.141	216.531	153.093	-8191	255	
22050.363	1	1	0	0	0.11185	0.20488	0.25317	0.19676	0.10855	0.16797	0.11814	0.25639	0.26547	0.29606	0.11257	0.31232	0.028435	0.096077	0.044916	0.1519	-1.4625	-1.8875	-2.3438	-2.1708	-2.2458	-2.3583	-2.1104	-2.3688	-2.025	-2.1646	-2.3729	-2.1333	-2.2896	-2.1104	-2.2188	-2.4146	489.296	291.877	200.949	398.147	447.458	330.113	415.592	390.560	297.308	190.767	170.734	489.306	395.067	485.281	355.320	427.763	0.00040747	0.00025628	0.00011255	618.97	3.4986e-06	3.2407e-06	699.09	166.27	3.2458e-06	1.7917e-06	228.01	74.859	44.111	15.448	4.8805e-06	32.528	0.00035714	0.00034764	9.3086e-05	609.36	3.6033e-06	3.8081e-06	689.03	164.39	3.6599e-06	3.8142e-06	224.94	74.109	43.543	15.349	3.7006e-06	32.235	263.375	214.644	196.358	144.118	314.148	307.394	143.397	148.225	314.111	268.026	146.351	150.719	151.581	155.675	285.785	153.556	-8191	255	
22050.461	1	1	0	0	0.048932	0.11255	0.11307	0.30299	0.19737	0.32378	0.0090584	0.1418	0.091362	0.11339	0.37597	0.14872	0.26296	0.059012	0.18754	0.2862	-1.7354	-2.0104	-2.3708	-1.9188	-2.1813	-2.3146	-1.8312	-2.4458	-2.1625	-2.0563	-2.4375	-2.0833	-2.0292	-2.2562	-2.0125	-2.2812	478.926	338.527	171.794	448.212	468.937	171.221	200.414	470.809	410.724	435.907	446.989	455.465	342.078	153.676	203.038	453.109	0.00034872	0.00031907	5.6611e-05	614.63	2.0577e-06	1.84e-06	692.01	165.1	1.5187e-06	2.4182e-06	225.92	73.521	43.672	15.061	2.1153e-06	31.941	0.00035376	0.00034738	9.244e-05	604.89	3.6588e-06	3.6676e-06	682.16	162.47	3.6628e-06	3.6495e-06	222.09	72.754	42.945	15.032	3.6086e-06	31.713	262.627	171.767	281.764	144.204	309.965	272.226	143.551	148.073	284.804	319.513	146.671	150.711	151.606	155.943	311.101	153.503	-8191	255	
22050.557	1	1	0	0	0.14338	0.19861	0.024129	0.36297	0.27313	0.25242	0.068405	0.050787	0.088582	0.13137	0.11416	0.32872	0.10672	0.088884	0.48738	0.30442	-1.7625	-1.8875	-2.3812	-1.9833	-2.1083	-2.5146	-2.1312	-2.2687	-2.225	-2.0792	-2.3458	-2.0687	-1.9917	-2.3521	-1.8563	-2.2792	419.448	243.422	428.710	463.580	375.696	315.170	464.064	364.962	351.415	403.823	340.303	455.878	375.352	387.300	196.435	425.050	0.00040695	0.00028165	8.8003e-05	614.74	4.4345e-06	2.2863e-06	689.56	163.62	4.5645e-06	4.153e-06	225.04	73.272	43.168	14.991	2.8771e-06	31.658	0.00035999	0.00035041	9.1928e-05	604.43	3.5654e-06	3.6885e-06	678.76	161.47	3.6597e-06	3.7486e-06	220.78	72.217	42.564	14.938	3.5939e-06	31.535	261.356	254.388	187.588	144.241	276.779	276.630	143.510	148.257	275.042	302.031	146.474	150.401	151.632	155.069	268.359	153.163	-8191	255	
22050.678	1	1	0	0	0.24674	0.1925	0.067557	0.22779	0.22878	0.13991	0.29042	0.2835	0.051689	0.11349	0.17578	0.19346	0.20879	0.082105	0.18055	0.21681	-1.7437	-1.6958	-2.2854	-2.1333	-2.0396	-2.4146	-2.0021	-2.2729	-2.1917	-2.0396	-2.5229	-2.0896	-1.8958	-2.3187	-1.9958	-2.225	366.761	311.846	190.364	211.653	280.263	390.387	398.346	401.257	321.825	298.883	148.940	416.532	478.157	307.369	283.164	142.679	0.00035274	0.00021752	0.00011715	609.32	4.5213e-06	4.2862e-07	693.66	164.06	5.6959e-07	2.9716e-06	225.78	73.221	43.342	14.796	5.0583e-06	31.693	0.00034597	0.0003472	9.0565e-05	600.81	3.6752e-06	3.777e-06	680.71	161.51	3.638e-06	3.7219e-06	221.92	72.581	42.855	14.886	3.7252e-06	31.537	259.300	170.291	231.407	144.178	304.101	260.854	143.428	147.875	287.323	322.253	146.507	150.554	152.071	155.811	275.527	153.394	-8191	255	
22050.773	1	1	0	0	0.33414	0.31541	0.11032	0.35533	0.041203	0.20084	0.3045	0.057576	0.43022	0.17892	0.10073	0.28904	0.064413	0.17403	0.22619	0.060802	-1.8458	-1.7896	-2.3688	-2.1875	-1.9438	-2.1521	-2.175	-2.0083	-2.45	-1.9583	-2.2958	-2.1292	-1.9958	-2.4188	-2.1854	-2.1729	486.175	225.370	479.666	139.374	490.032	413.372	355.453	412.580	439.357	285.180	387.672	470.969	476.322	391.911	217.643	424.461	0.00035827	0.00023007	5.9942e-05	618.65	5.1645e-06	2.8705e-06	701.22	167.59	3.0812e-06	2.1655e-06	228.52	75.089	44.277	15.375	4.3031e-06	32.537	0.00034326	0.00035041	9.6899e-05	610.16	3.8478e-06	3.7712e-06	689.67	164.81	3.6371e-06	3.6566e-06	225.47	74.143	43.895	15.374	3.7092e-06	32.363	260.190	215.234	208.744	144.134	284.666	294.579	143.474	148.018	281.115	335.684	146.707	150.773	151.557	155.604	285.619	153.871	-8191	255	
22050.846	1	1	0	0	0.091353	0.13522	0.064245	0.1349	0.1592	0.20891	0.20345	0.19968	0.19071	0.22889	0.28768	0.084175	0.064821	0.11658	0.096896	0.2109	-1.9	-1.9146	-2.2542	-2.4021	-2.0812	-2.5542	-2.2812	-2.1063	-2.3792	-2.0875	-2.1688	-2.1583	-2.0708	-2.4313	-2.3125	-2.1667	146.937	413.755	414.067	376.587	155.072	467.914	337.559	134.723	455.462	456.206	465.182	141.773	190.021	205.372	150.553	437.097	0.00037051	0.00030361	8.3029e-05	619.98	6.4788e-06	4.3397e-06	702.34	166.53	3.6958e-06	3.1904e-06	227.27	74.19	44.291	15.095	4.6181e-06	32.086	0.00035701	0.00034428	9.3892e-05	611.58	3.715e-06	3.7198e-06	687.9	165.13	3.6789e-06	3.7677e-06	224.06	73.289	43.559	15.212	3.702e-06	32.044	261.343	185.147	216.213	143.994	297.129	284.247	143.581	148.275	306.121	286.455	146.491	150.354	151.701	155.556	297.820	153.313	-8191	255	
22050.965	1	1	0	0	0.025914	0.13755	0.17746	0.096692	0.23219	0.20242	0.33267	0.26734	0.20353	0.10722	0.19207	0.28565	0.10521	0.46053	0.14807	0.21536	-1.9	-2.0563	-2.1604	-2.3458	-1.9042	-2.4146	-2.2125	-2.0771	-2.4062	-1.8687	-2.1375	-2.5354	-1.8937	-2.2542	-2.15	-2.0458	248.143	450.158	425.420	429.188	176.166	203.629	369.702	448.100	429.238	312.525	276.815	438.894	470.137	427.915	323.813	136.086	0.00037683	0.0002796	0.00011303	617.63	5.0126e-06	4.5437e-06	694.94	164.75	2.484e-06	4.004e-06	224.29	73.494	43.612	15.027	3.5212e-06	32.028	0.00035047	0.00034603	9.5683e-05	607.66	3.6795e-06	3.5533e-06	682.56	162.74	3.4931e-06	3.7613e-06	221.98	72.748	43.193	15.06	3.5771e-06	31.74	259.643	236.529	226.719	143.910	298.716	281.127	143.343	148.369	331.242	268.747	146.492	150.516	151.865	155.741	291.328	153.373	-8191	255	
22051.062	1	1	0	0	0.041864	0.33207	0.29169	0.25974	0.12522	0.37198	0.12867	0.12657	0.21034	0.14521	0.1698	0.11302	0.060436	0.29295	0.20508	0.067078	-1.875	-1.9542	-1.9646	-2.3979	-2.0208	-2.2979	-2.2062	-1.9708	-2.3854	-1.8979	-2.2667	-2.5042	-1.8917	-2.2646	-2.2271	-1.8208	419.898	284.161	447.977	415.084	250.464	467.982	410.882	478.050	490.166	467.843	453.588	468.525	404.980	426.292	194.728	191.005	0.00033897	0.00036367	0.00012039	624.34	2.1582e-06	2.5842e-06	696.78	166.74	2.6587e-06	4.1077e-06	227.33	74.166	44.225	15.071	2.7403e-06	31.997	0.00034883	0.00033896	9.3105e-05	612.74	3.6478e-06	3.7811e-06	685.48	164.38	3.6108e-06	3.7153e-06	223.9	73.041	43.607	15.064	3.7906e-06	31.817	258.625	181.894	200.664	144.359	288.594	254.109	143.350	148.212	307.836	279.771	146.611	150.686	151.618	155.409	258.405	153.199	-8191	255	
22051.158	1	1	0	0	0.22017	0.065242	0.25568	0.2824	0.23636	0.080305	0.19152	0.093285	0.10698	0.094867	0.16782	0.13889	0.24948	0.33316	0.1114	0.46232	-1.8021	-2.0458	-2.025	-2.3958	-2.0625	-2.225	-2.3146	-1.8875	-2.3167	-2.1583	-2.0021	-2.3688	-2.0438	-2.1917	-2	-1.95	426.769	246.674	295.846	474.373	361.108	183.442	141.244	232.720	416.281	476.716	242.838	191.288	167.468	279.793	424.120	410.260	0.00038131	0.00026825	4.4314e-06	626.14	4.188e-06	2.2073e-06	706.74	169.68	4.4865e-06	8.9173e-07	228.82	74.766	44.602	15.337	2.6774e-06	32.286	0.0003489	0.0003545	9.7251e-05	616.8	3.7407e-06	3.7801e-06	693.91	166.77	3.6919e-06	3.7356e-06	226.48	74.183	44.25	15.33	3.7704e-06	32.187	261.155	247.338	141.978	144.163	312.254	256.374	143.691	148.091	303.045	368.897	146.216	150.609	151.771	155.574	308.018	153.573	-8191	255	
22051.252	1	1	0	0	0.052708	0.10256	0.25918	0.14404	0.13672	0.12978	0.13391	0.11243	0.37522	0.2033	0.10881	0.33062	0.35329	0.095851	0.19757	0.05682	-1.8438	-2.2562	-1.8146	-2.3625	-1.9771	-2.2146	-2.4958	-1.9312	-2.2625	-2.2021	-1.8958	-2.4104	-2.0354	-2.0625	-2.3354	-1.9833	356.929	392.876	231.617	220.543	416.873	339.954	418.681	375.643	248.540	335.684	280.810	427.022	472.873	471.222	198.263	383.805	0.00035867	0.00029288	7.108e-05	635.82	3.9114e-06	2.6072e-06	712.78	169.55	2.8473e-06	3.6315e-06	226.73	73.917	43.514	14.838	1.3445e-06	31.071	0.00035672	0.00035285	9.6157e-05	624.09	3.7159e-06	3.7368e-06	696.58	166.74	3.6828e-06	3.788e-06	223.54	72.276	43.143	14.791	3.7505e-06	30.903	261.614	212.196	230.418	144.189	268.193	268.728	143.369	148.043	300.485	263.269	146.510	150.871	151.431	155.400	312.193	153.691	-8191	255	
22051.373	1	1	0	0	0.066553	0.20457	0.06292	0.099607	0.51301	0.14124	0.17524	0.22608	0.017859	0.29832	0.11943	0.15127	0.11686	0.1395	0.072054	0.063014	-1.8167	-2.1042	-1.9438	-2.2833	-1.95	-2.1021	-2.3854	-1.9167	-2.1708	-2.2208	-2.0604	-2.2313	-2.0667	-2.0958	-2.4125	-2.1396	471.566	456.400	206.376	133.595	162.583	185.933	145.601	309.482	330.760	260.691	231.423	480.417	394.280	379.620	199.884	266.252	0.00033725	0.00023211	5.9597e-05	619.08	4.381e-06	3.3211e-06	692.71	164.17	2.5337e-06	3.6678e-06	221.2	70.948	41.586	14.285	2.5278e-06	30.188	0.0003532	0.00035448	9.5498e-05	610.05	3.6166e-06	3.8351e-06	679.48	161.59	3.6696e-06	3.7532e-06	218.29	70.023	41.148	14.309	3.6748e-06	30.278	263.148	269.018	181.011	144.191	290.437	240.069	143.572	147.955	304.824	281.982	146.654	150.262	152.024	155.816	294.807	153.643	-8191	255	
22051.443	1	1	0	0	0.13529	0.19642	0.20863	0.085105	0.19435	0.049286	0.38166	0.12102	0.16478	0.13885	0.31301	0.28084	0.21581	0.096304	0.17297	0.030473	-1.8125	-2.2396	-1.7437	-2.1958	-2.35	-2.0083	-2.4333	-2.025	-1.9917	-2.2854	-1.9958	-2.2542	-2.1125	-1.8583	-2.3812	-2.1813	165.744	255.003	266.042	423.951	384.296	203.957	456.443	326.981	377.973	449.712	406.173	373.515	244.044	421.687	420.110	208.764	0.00035354	0.00044678	6.1205e-05	615.08	2.8764e-06	3.6043e-06	685.98	160.77	3.0164e-06	1.5903e-07	219.34	70.153	40.796	14.005	3.3032e-06	30.547	0.00033931	0.00033386	9.3131e-05	603.04	3.6833e-06	3.7607e-06	673.79	158.24	3.6397e-06	3.788e-06	216.7	69.058	40.467	14.066	3.6944e-06	30.192	259.177	235.509	253.519	144.577	272.797	295.496	143.444	148.139	286.622	290.616	146.455	150.424	151.259	155.788	216.716	153.616	-8191	255	
22051.541	1	1	0	0	0.26269	0.16966	0.081385	0.25863	0.12417	0.055115	0.33732	0.24824	0.061921	0.24963	0.072829	0.19132	0.37339	0.097944	0.23906	0.073898	-1.5708	-2.3646	-2.0375	-2.2708	-2.2313	-1.95	-2.4542	-1.8208	-1.9667	-2.3812	-2.0938	-2.2188	-2.3917	-1.8479	-2.3229	-2.075	405.000	342.510	291.664	413.586	227.724	433.755	397.515	159.023	136.185	394.383	199.259	135.721	440.647	144.223	393.503	208.122	0.00035751	0.00030634	8.8488e-05	611.03	3.7709e-06	5.5278e-06	685.18	159.79	3.616e-06	2.0473e-06	220.09	70.815	41.396	14.28	3.5756e-06	30.876	0.00035088	0.00033352	9.498e-05	601.54	3.7335e-06	3.9392e-06	673.16	157.94	3.8393e-06	3.8785e-06	218.15	69.854	40.851	14.385	3.753e-06	30.915	260.756	202.520	271.566	144.083	244.351	301.345	143.369	148.347	289.622	302.842	146.519	150.705	151.495	155.740	272.790	153.626	-8191	255	
22051.637	1	1	0	0	0.1324	0.43191	0.046417	0.2519	0.25865	0.11248	0.18388	0.32293	0.14009	0.33823	0.1539	0.19245	0.11031	0.038109	0.12101	0.11084	-1.5938	-2.4062	-1.85	-2.3375	-2.1875	-1.9438	-2.4708	-2.2188	-2.1312	-2.3521	-2.2313	-2.1229	-2.2083	-1.8417	-2.2167	-2.25	175.193	224.331	347.666	479.688	345.014	204.948	442.957	406.192	349.627	440.563	480.018	323.581	348.462	265.083	227.565	486.143	0.00037564	0.00013138	0.00010519	616.06	3.7243e-06	4.3017e-06	690.52	161.39	2.4763e-06	3.0336e-06	220.54	71.328	41.973	14.436	2.1026e-06	31.066	0.00035948	0.00034286	9.6035e-05	606.01	3.7169e-06	3.9677e-06	678.93	159.65	3.7733e-06	3.8134e-06	219.32	70.362	41.427	14.531	3.8297e-06	30.865	260.935	279.519	271.936	144.123	286.725	265.658	143.541	148.301	301.303	296.219	146.890	150.179	151.806	155.361	320.009	153.371	-8191	255	
22051.758	1	1	0	0	0.24018	0.25604	0.26465	0.14273	0.35787	0.068946	0.31698	0.1082	0.072918	0.35208	0.061586	0.23292	0.15172	0.028341	0.060393	0.16777	-1.5167	-2.3812	-2.0375	-2.1667	-2.3354	-2.0708	-2.2833	-2.1271	-2.0187	-2.4437	-2.0292	-2.1375	-2.1792	-1.8375	-2.2625	-2.3583	372.129	463.638	288.280	166.254	195.296	320.324	407.447	362.257	140.010	161.252	349.416	279.583	444.318	358.618	144.283	455.594	0.00035858	0.00030818	0.00013746	616	4.7744e-06	3.9673e-06	687.13	162.72	2.6983e-06	2.7736e-06	221.74	71.481	41.952	14.754	3.7906e-06	31.171	0.00036112	0.00034323	9.6701e-05	606.55	3.6561e-06	3.8656e-06	678.02	160.27	3.7791e-06	3.8767e-06	219.33	70.594	41.568	14.762	3.7692e-06	31.113	258.691	214.016	239.696	144.048	264.971	280.402	143.203	148.112	293.796	276.779	146.633	150.679	151.537	155.566	283.089	153.659	-8191	255	
22051.854	1	1	0	0	0.24034	0.093256	0.20011	0.23516	0.082447	0.025253	0.089472	0.35577	0.32354	0.056973	0.12843	0.19449	0.12886	0.12842	0.0735	0.13944	-1.3854	-2.3354	-2.1083	-2.2208	-2.2896	-1.9792	-2.2479	-2.3521	-1.7979	-2.5021	-2.1708	-2.1937	-2.2917	-2.0812	-2.3083	-2.1813	264.262	269.766	424.685	423.246	450.271	284.433	405.433	142.874	267.265	440.051	444.349	421.854	418.768	178.299	192.718	186.625	0.00033317	0.00021368	2.6181e-05	617.84	3.1932e-06	7.0511e-07	693.15	161.21	4.5738e-06	1.3893e-06	222.07	71.683	42.104	14.842	1.706e-06	31.47	0.00036346	0.0003419	9.9676e-05	610.41	3.7714e-06	3.917e-06	679.76	160.67	3.6139e-06	3.7334e-06	220.24	70.891	41.889	14.798	3.8107e-06	31.212	258.340	200.090	314.458	143.945	293.391	243.314	143.472	148.342	285.829	263.731	146.474	150.612	151.895	155.837	282.551	153.973	-8191	255	
22051.949	1	1	0	0	0.12785	0.13851	0.06036	0.38223	0.32513	0.11253	0.23567	0.21008	0.078512	0.34393	0.059103	0.21217	0.18196	0.13075	0.14192	0.13583	-1.4792	-2.3229	-1.9937	-1.9875	-2.4688	-1.9438	-2.1229	-2.2333	-2.0438	-2.4021	-1.9771	-1.9604	-2.3104	-2.0875	-2.0896	-2.3729	361.284	153.410	144.977	415.590	323.566	211.315	462.601	438.081	486.493	249.584	462.816	325.133	207.659	445.018	223.744	490.266	0.00036484	0.00044422	0.00013844	622.18	2.1314e-06	3.1214e-06	695.79	163.89	2.982e-06	8.3256e-07	223.91	72.754	42.436	14.939	2.3968e-06	31.528	0.00036241	0.00035363	9.9087e-05	613.43	3.7485e-06	3.8582e-06	683.39	161.95	3.743e-06	3.7545e-06	221.83	71.623	41.914	14.902	3.8486e-06	31.479	259.588	213.581	210.064	144.185	243.016	264.772	143.497	148.524	296.583	224.206	146.468	150.746	151.400	155.834	287.937	153.431	-8191	255	
22052.047	1	1	0	0	0.18072	0.18115	0.085742	0.046023	0.12784	0.095859	0.14209	0.12222	0.1596	0.14416	0.15651	0.033994	0.12513	0.057519	0.13398	0.11811	-1.25	-2.3812	-2.1104	-1.8875	-2.1479	-2.0062	-2.2292	-2.475	-1.8771	-2.1771	-2.1396	-2.025	-2.5458	-2.0792	-2.2083	-2.2646	453.607	205.743	299.590	327.901	156.007	400.924	473.273	288.776	348.070	266.967	378.418	150.674	262.381	190.098	397.884	393.534	0.00037331	0.00020396	0.00011688	631.07	9.7886e-07	3.4221e-06	704.61	166.67	4.5431e-06	3.9764e-06	229.16	73.319	43.298	15.262	2.0496e-06	31.739	0.00036483	0.00034614	9.8742e-05	620.38	3.8259e-06	3.7791e-06	693.41	165.08	3.7957e-06	3.7468e-06	225.96	72.502	42.974	15.151	3.8378e-06	31.63	260.578	213.452	193.033	143.906	312.676	274.366	143.398	148.155	277.570	318.241	146.633	150.810	151.874	156.000	315.253	153.641	-8191	255	
22052.143	1	1	0	0	0.13325	0.086038	0.097304	0.20605	0.23374	0.051406	0.1144	0.083917	0.1083	0.42819	0.042387	0.080813	0.10665	0.2701	0.16017	0.37735	-1.575	-2.3167	-2.0854	-2.0104	-2.4708	-1.9354	-2.0354	-2.4396	-2.0854	-2.25	-2.2229	-1.8542	-2.3438	-2.0958	-2.1083	-2.5354	159.886	444.338	447.228	177.767	418.180	218.642	450.507	157.951	352.834	410.435	158.364	328.646	404.418	148.927	308.278	455.625	0.00038029	0.00025177	6.8054e-05	639.15	2.7791e-06	3.8575e-06	707.05	169.78	3.5885e-06	5.2905e-06	228.14	72.949	43.603	14.982	1.769e-06	31.269	0.00035055	0.00034158	9.553e-05	626.88	3.6785e-06	3.6953e-06	693.21	167.31	3.8073e-06	3.805e-06	224.27	72.161	43.239	15.041	3.8425e-06	31.131	262.760	242.086	185.883	144.271	243.586	275.810	143.504	148.295	305.628	308.953	146.361	150.768	151.869	155.605	315.585	153.821	-8191	255	
22052.238	1	1	0	0	0.26586	0.1068	0.12308	0.22578	0.12454	0.23433	0.2057	0.26036	0.17823	0.17368	0.11796	0.20153	0.058269	0.27607	0.09109	0.089492	-1.6167	-2.1875	-2.1667	-1.9792	-2.4583	-2.1625	-1.9208	-2.3646	-2.1146	-2.1188	-2.3354	-2.1042	-2.275	-2.2	-1.9792	-2.4208	391.296	329.758	261.087	488.185	423.525	200.909	417.604	170.367	445.842	378.276	217.613	406.905	237.262	168.124	384.075	306.587	0.00037949	0.00017619	9.0505e-05	641.87	3.3213e-06	1.5402e-06	709.65	171.04	2.7764e-06	3.1483e-06	228.44	72.548	43.597	14.691	7.7326e-07	30.778	0.00036773	0.00034314	9.8492e-05	633.93	3.6628e-06	3.8096e-06	696.4	168.81	3.7459e-06	3.6642e-06	224.78	71.483	43.021	14.772	3.5983e-06	30.596	264.846	265.745	244.875	143.865	268.566	470.716	143.828	148.410	323.539	272.648	146.648	150.617	151.736	155.903	213.492	153.840	-8191	255	
22052.357	1	1	0	0	0.25845	0.17949	0.086165	0.2045	0.25628	0.27515	0.21945	0.13554	0.25497	0.10428	0.20508	0.097601	0.22272	0.16332	0.089977	0.23874	-1.5396	-2.0021	-2.1417	-2.0167	-2.2979	-2.075	-2.0292	-2.3187	-2.1292	-2.0312	-2.3604	-1.9875	-2.1771	-2.2313	-2.1208	-2.4417	373.195	423.953	364.681	453.483	328.249	313.522	486.867	435.181	351.057	414.749	437.774	415.024	485.785	480.138	242.809	420.535	0.00037753	0.0003073	3.4096e-05	650	4.2136e-06	5.7519e-07	707.69	172.23	2.7337e-06	3.9311e-06	225.13	72.083	43.461	14.609	2.7725e-06	30.583	0.00034964	0.0003413	9.2081e-05	639.89	3.6354e-06	3.774e-06	697.37	169.37	3.6934e-06	3.7753e-06	222.94	70.892	42.959	14.604	3.7608e-06	30.329	260.610	216.518	235.212	144.127	309.529	320.497	143.215	148.126	279.467	260.091	146.656	150.542	151.786	155.312	231.514	153.807	-8191	255	
22052.453	1	1	0	0	0.079083	0.13036	0.09376	0.12078	0.24626	0.22526	0.16369	0.30986	0.20178	0.086373	0.075482	0.29194	0.31589	0.024249	0.41596	0.1413	-1.5917	-2.0354	-2.2896	-1.9875	-2.3208	-2.2375	-2.0354	-2.3458	-1.9833	-1.8771	-2.3979	-2.0417	-2.1521	-2.1312	-1.9104	-2.25	391.246	168.035	399.998	201.106	445.440	365.801	484.873	445.910	247.671	407.707	325.833	179.457	481.669	439.566	462.391	279.166	0.00033655	0.00045895	2.0553e-05	646.74	4.4132e-06	3.6654e-06	703.44	169.06	1.8656e-06	2.4524e-06	224.87	71.662	42.248	14.48	1.8751e-06	30.773	0.00035169	0.00035094	9.3898e-05	637.38	3.6654e-06	3.7638e-06	693.09	167.06	3.7052e-06	3.6881e-06	221.76	70.571	41.991	14.581	3.7372e-06	30.723	261.841	255.960	224.838	144.089	256.928	270.739	143.194	148.123	250.120	308.539	146.359	150.849	151.699	156.101	315.016	153.650	-8191	255	
22052.549	1	1	0	0	0.19047	0.181	0.042743	0.091185	0.24577	0.14113	0.14718	0.16241	0.095639	0.085175	0.17801	0.26117	0.26317	0.2404	0.23243	0.17718	-1.5187	-1.8813	-2.3917	-1.9042	-2.1167	-2.175	-1.9167	-2.2833	-2.1229	-1.9312	-2.5333	-1.9896	-2.1542	-2.3354	-2.0271	-2.1063	284.312	236.036	416.744	427.718	175.412	276.774	338.840	470.433	300.909	346.666	403.765	468.213	310.016	446.940	270.487	339.085	0.00036303	0.00019567	4.9756e-05	619.23	3.3357e-06	3.2799e-06	687.96	162.7	7.7123e-07	3.2387e-06	220.35	71.195	41.568	14.439	1.5635e-06	30.911	0.00034222	0.00034217	9.4154e-05	611.38	3.5783e-06	3.6327e-06	677.02	160.1	3.6433e-06	3.6413e-06	217.78	69.936	41.164	14.535	3.5725e-06	30.737	261.989	231.189	243.973	144.361	294.764	280.267	143.708	148.227	302.329	301.035	146.896	150.926	151.496	155.919	225.008	153.439	-8191	255	
22052.670	1	1	0	0	0.04715	0.13706	0.11907	0.069422	0.20537	0.068853	0.048011	0.11812	0.14165	0.12821	0.16242	0.14901	0.24194	0.3432	0.039845	0.36279	-1.7313	-2.05	-2.2917	-2.0333	-2.0062	-2.375	-1.8604	-2.1625	-2.1063	-1.8354	-2.3333	-2	-1.7938	-2.3083	-1.8167	-2.025	321.501	362.747	450.070	188.931	309.002	157.738	345.341	457.931	324.293	135.158	399.459	148.505	487.042	161.556	293.170	140.336	0.00035182	0.00012839	7.5108e-05	615.55	9.522e-07	2.5544e-06	688.88	163.03	1.3963e-06	3.1797e-06	220.77	69.831	41.349	14.302	1.8225e-06	30.218	0.00034544	0.00033322	9.1294e-05	609.32	3.5419e-06	3.6167e-06	673.75	160.88	3.6255e-06	3.6724e-06	216.95	69.045	40.915	14.346	3.6602e-06	30.176	262.346	213.780	226.449	144.233	311.830	303.034	143.312	148.353	292.755	326.078	146.599	150.876	152.055	155.925	278.725	153.810	-8191	255	
22052.742	1	1	0	0	0.14351	0.15037	0.033754	0.1602	0.2835	0.2026	0.12219	0.12107	0.031412	0.15499	0.33433	0.1063	0.021704	0.040129	0.17195	0.15695	-1.6979	-1.8875	-2.3479	-2.2104	-2.0979	-2.3146	-1.9438	-2.0938	-2.2917	-1.6708	-2.2438	-2.2313	-1.925	-2.3438	-1.9833	-1.9875	371.048	333.700	296.772	400.542	371.798	340.356	359.706	312.891	284.233	173.626	408.819	385.448	195.973	351.757	384.364	431.335	0.00035773	0.00043761	6.6221e-05	618.44	2.9525e-06	2.1045e-06	684.05	161.37	2.8483e-06	1.0988e-06	217	69.737	40.983	14.519	3.2755e-06	31.102	0.00035169	0.00034024	9.3892e-05	608.73	3.6173e-06	3.8315e-06	671.64	159.12	3.5925e-06	3.6663e-06	215.35	69.02	40.758	14.48	3.6022e-06	30.836	260.003	226.470	205.278	144.035	245.180	273.978	143.511	148.044	284.748	168.931	146.702	150.565	151.658	155.806	286.066	153.103	-8191	255	
22052.838	1	1	0	0	0.11229	0.30158	0.30356	0.21213	0.20261	0.23228	0.15726	0.021752	0.13776	0.16248	0.094936	0.35699	0.051066	0.17824	0.052512	0.1281	-1.9354	-1.8708	-2.0812	-2.0792	-1.9354	-2.3958	-2.1854	-2.1104	-2.3146	-1.8771	-2.2083	-2.2062	-1.7958	-2.2	-2.1729	-2.1833	175.393	212.046	224.769	426.534	475.204	423.396	324.912	263.798	130.275	275.426	289.221	408.767	381.960	175.487	141.904	486.559	0.00035193	0.00031405	2.3726e-05	604.22	4.4721e-06	9.2281e-07	679.77	158.06	4.2464e-06	3.3047e-06	218.5	70.596	41.215	14.707	4.5766e-06	31.577	0.00034688	0.0003354	9.6259e-05	595.37	3.728e-06	3.7551e-06	665.96	156.42	3.6927e-06	3.7298e-06	216.36	69.811	40.537	14.776	3.7918e-06	31.521	263.023	198.287	241.746	143.993	283.768	259.618	143.601	148.111	312.557	274.556	146.745	150.750	152.334	155.878	319.399	153.726	-8191	255	
22052.934	1	1	0	0	0.093898	0.19964	0.23872	0.21247	0.1734	0.14963	0.28844	0.089932	0.27427	0.18412	0.20609	0.03908	0.17528	0.31577	0.23624	0.26805	-1.9375	-1.9083	-2.2375	-2.1875	-1.8396	-2.2458	-2.1708	-2.0042	-2.3083	-1.9479	-2.1813	-2.1208	-1.8854	-2.0062	-2.1417	-1.8667	365.211	421.641	212.676	317.695	411.209	331.862	449.832	463.202	426.697	439.805	416.797	201.109	330.328	472.956	450.835	355.775	0.00036209	5.7081e-05	5.3687e-05	602.8	3.8336e-06	3.3048e-06	679.24	159.94	3.832e-06	5.7707e-06	219.86	71.661	41.386	14.966	4.1123e-06	31.899	0.00035963	0.00035174	9.4237e-05	594.55	3.7307e-06	3.7803e-06	667.79	157.7	3.7158e-06	3.7522e-06	218.19	70.751	41.283	15.016	3.6116e-06	31.686	262.575	310.657	181.271	144.090	262.386	283.042	143.719	148.630	306.625	297.513	146.477	150.995	151.745	155.462	293.140	153.652	-8191	255	
22053.055	1	1	0	0	0.19213	0.22447	0.18438	0.22307	0.35783	0.19604	0.071104	0.37766	0.22076	0.15064	0.29199	0.1675	0.065837	0.19145	0.1077	0.053084	-1.7875	-1.9479	-2.1083	-2.2208	-1.9958	-2.3	-2.0812	-1.9458	-2.3417	-2.1208	-2.1625	-2.3063	-1.7854	-2.2917	-1.9771	-1.9708	408.060	445.082	306.981	431.824	301.274	257.889	285.361	364.951	181.507	183.831	418.317	188.318	440.250	161.442	316.128	235.562	0.00038397	0.00031448	5.4366e-05	615.33	4.7051e-07	2.2494e-06	689.62	162.72	3.0806e-06	1.3449e-06	221.54	71.332	42.276	14.925	1.7823e-06	31.1	0.00035701	0.00034536	9.2747e-05	606.42	3.619e-06	3.775e-06	674.66	161.45	3.6566e-06	3.6703e-06	219.11	70.494	41.962	14.911	3.7475e-06	30.941	262.520	234.340	206.988	144.251	250.103	258.669	143.676	148.454	306.039	263.133	146.558	150.786	151.796	155.400	293.181	153.835	-8191	255	
22053.148	1	1	0	0	0.12621	0.26417	0.12575	0.36582	0.49138	0.18437	0.21501	0.2373	0.1836	0.18374	0.21643	0.09212	0.2543	0.32743	0.21386	0.028297	-1.8312	-1.8	-2.0604	-2.3167	-1.9188	-2.2208	-2.1167	-1.8208	-2.4021	-2.325	-2.175	-2.3042	-1.9688	-2.2667	-2.075	-2.1104	218.606	429.057	417.442	490.200	404.077	254.683	419.919	409.490	414.684	428.155	418.805	367.112	448.374	288.100	377.620	135.483	0.00035795	0.00025499	0.00010743	626.11	7.245e-07	3.5528e-06	691.08	164.94	3.6186e-06	4.2047e-06	223.3	71.484	42.828	14.906	2.0766e-06	31.494	0.00035138	0.00034644	9.679e-05	618.33	3.7559e-06	3.7656e-06	679.16	163.8	3.5773e-06	3.698e-06	221.32	70.998	42.424	15.043	3.8646e-06	31.379	263.473	186.218	218.235	143.928	259.843	256.280	143.546	148.271	261.499	283.033	146.608	150.409	151.733	155.603	260.880	153.726	-8191	255	
22053.244	1	1	0	0	0.12798	0.050319	0.114	0.20795	0.091499	0.36242	0.34866	0.13889	0.15803	0.23165	0.30067	0.25274	0.16311	0.092212	0.087485	0.22157	-1.8521	-2.0458	-1.9771	-2.2479	-2.0292	-2.2062	-2.1813	-1.8979	-2.4708	-2.1063	-1.8854	-2.2979	-1.9229	-2.3479	-2.2042	-1.8833	288.311	271.229	390.779	182.847	332.966	275.951	420.817	336.722	330.964	330.204	403.068	467.978	190.907	197.074	263.646	445.788	0.00036733	0.0002272	9.2548e-05	621.99	4.498e-06	2.9501e-06	692.16	164.79	3.3468e-06	4.5802e-06	222.85	72.152	42.296	15.277	3.6784e-06	32.096	0.00036964	0.00035792	9.3969e-05	615.44	3.7828e-06	3.9056e-06	678.68	162.37	3.7187e-06	3.7989e-06	220.55	71.526	41.923	15.229	3.7805e-06	31.941	263.799	178.168	195.451	143.921	291.221	244.464	143.733	148.195	286.205	242.402	146.189	150.880	151.784	155.594	308.008	153.826	-8191	255	
22053.318	1	1	0	0	0.19469	0.09448	0.2284	0.43117	0.17208	0.066667	0.062997	0.14653	0.1511	0.19612	0.18693	0.23164	0.36622	0.33973	0.30572	0.33317	-1.675	-2.1271	-2.0375	-2.2979	-1.9417	-2.1937	-2.275	-1.8625	-2.125	-2.1167	-1.95	-2.4146	-1.8042	-2.0875	-2.3396	-2.0208	208.526	384.412	428.582	345.901	287.944	319.627	423.546	488.588	278.777	147.734	456.677	455.188	439.383	425.757	150.841	135.233	0.00035374	0.00029463	7.4655e-05	618.69	2.1323e-06	5.0816e-06	686.74	160.92	3.1481e-06	4.3357e-06	220.98	71.414	41.835	14.802	1.4197e-06	31.938	0.00035785	0.00035767	9.8051e-05	605.9	3.858e-06	3.8193e-06	674.85	159.78	3.9657e-06	3.8162e-06	218.68	70.52	41.182	14.941	3.914e-06	31.632	263.774	219.259	185.748	144.294	291.708	254.632	143.447	148.380	289.630	251.346	146.379	150.589	151.873	155.860	323.706	153.593	-8191	255	
22053.438	1	1	0	0	0.051494	0.15283	0.19088	0.14325	0.13612	0.10815	0.069431	0.11655	0.14697	0.1498	0.23512	0.29613	0.1205	0.2556	0.18573	0.25912	-1.8417	-2.1875	-1.8875	-2.2958	-2.0229	-2.0229	-2.3667	-2.0167	-2.1021	-2.0687	-2	-2.3771	-2.1708	-1.9937	-2.4292	-2.0938	452.839	454.485	266.655	415.431	271.968	202.290	471.420	478.116	325.316	473.638	471.157	372.230	356.180	477.073	355.692	392.914	0.0003663	0.00022109	8.883e-05	609.56	3.3077e-06	2.4502e-06	680.6	158.61	3.0277e-06	1.5094e-06	218.22	70.354	41.151	14.688	3.0354e-06	31.051	0.000362	0.00034555	9.8447e-05	600.97	3.7583e-06	3.7801e-06	667.67	157.73	3.7967e-06	3.7034e-06	215.78	69.502	40.708	14.754	3.8535e-06	31.104	263.191	197.819	232.454	144.007	275.279	265.725	143.728	148.400	356.736	329.487	146.806	150.856	151.280	155.817	287.794	153.635	-8191	255	
22053.533	1	1	0	0	0.091828	0.1304	0.27406	0.054682	0.12396	0.098517	0.115	0.22511	0.14054	0.066359	0.22866	0.17775	0.18882	0.11359	0.18949	0.04063	-1.7854	-2.3083	-2	-2.1521	-2.1458	-1.9854	-2.3646	-2.0042	-2.1208	-2.3583	-1.8958	-2.3208	-2.175	-1.9333	-2.1979	-1.8208	226.800	437.174	247.869	201.005	132.617	272.309	360.237	227.136	205.124	171.409	484.366	431.580	169.019	269.385	391.630	424.342	0.00036056	0.00015419	0.00013067	604.8	3.2028e-06	4.3963e-06	676.2	159.76	4.3824e-06	1.1372e-06	219.73	70.359	40.93	14.816	3.3403e-06	31.455	0.00035406	0.00034472	9.8921e-05	596.67	3.733e-06	3.8282e-06	665.15	157.24	3.6867e-06	3.9037e-06	216.72	69.554	40.705	14.807	3.7633e-06	31.303	264.545	230.741	204.093	144.009	251.489	268.927	142.901	148.078	286.560	173.148	146.118	150.864	151.550	155.816	269.315	153.488	-8191	255	
22053.631	1	1	0	0	0.14695	0.16557	0.17925	0.43588	0.059905	0.079386	0.14889	0.24441	0.061579	0.018461	0.24393	0.19168	0.15075	0.020615	0.10553	0.25378	-1.6208	-2.2229	-1.9312	-2.1771	-2.2146	-2.0729	-2.4375	-2.0458	-2.1312	-2.3021	-1.9583	-2.3063	-2.15	-1.9292	-2.3896	-2.1937	421.515	261.138	229.030	430.231	292.412	396.167	388.370	414.909	250.443	152.883	476.627	184.776	155.028	426.120	221.024	373.934	0.00035121	0.00017135	0.00011131	607.08	2.5997e-06	2.1247e-06	678.76	159.16	2.2587e-06	4.5066e-06	220.19	69.947	40.818	14.506	1.5416e-06	31.619	0.00035792	0.00034881	9.64e-05	598.71	3.7109e-06	3.9402e-06	666.76	156.8	3.7415e-06	3.8335e-06	216.78	69.244	40.623	14.678	3.809e-06	31.248	259.728	192.133	203.612	143.987	324.764	253.445	143.249	148.245	306.677	305.376	147.068	150.838	151.712	155.587	312.238	153.411	-8191	255	
22053.750	1	1	0	0	0.19305	0.18013	0.078025	0.11372	0.13218	0.10598	0.18545	0.27732	0.1153	0.20705	0.11536	0.20656	0.060062	0.083167	0.20911	0.12526	-1.5083	-2.2792	-2.0125	-2.45	-2.3458	-1.9062	-2.3458	-2.1375	-1.9646	-2.3396	-2.2021	-2.2292	-1.9917	-1.8875	-2.3729	-2.1708	364.294	425.882	241.527	174.610	178.547	175.392	136.884	153.122	309.648	402.625	182.995	472.605	137.240	407.468	409.644	169.472	0.00037305	0.00026568	9.1336e-05	608.73	4.0431e-06	3.0192e-06	680.5	159.18	2.071e-06	1.8108e-06	221.74	70.466	41.585	14.83	3.3434e-06	31.501	0.0003523	0.00034656	0.00010039	599.28	3.7661e-06	3.9896e-06	670.65	157.49	3.8456e-06	3.8053e-06	218.42	69.986	41.047	14.895	3.8007e-06	31.383	263.185	253.831	238.272	144.078	309.642	317.200	143.654	148.074	270.320	257.298	146.640	150.803	151.849	155.838	294.932	153.659	-8191	255	
22053.846	1	1	0	0	0.30965	0.20849	0.17259	0.2608	0.12277	0.15182	0.048954	0.10258	0.1566	0.19304	0.35624	0.30033	0.038941	0.17295	0.12854	0.14481	-1.6562	-2.3292	-2.0042	-2.3438	-2.3208	-1.8917	-2.3292	-2.1688	-1.8771	-2.3396	-1.9083	-2.1229	-2.1604	-2.2271	-2.2292	-2.3312	229.341	450.907	243.323	198.172	140.290	183.315	174.700	349.796	154.169	208.182	385.830	195.266	150.826	471.691	265.051	443.936	0.00036944	0.00021087	9.2958e-05	625.52	2.106e-06	4.2497e-06	690.9	162.56	1.7821e-06	2.0784e-06	220.96	70.487	41.609	14.851	3.9641e-06	31.478	0.0003681	0.00034821	9.7756e-05	615.13	3.7121e-06	3.9448e-06	678.8	161.46	3.7907e-06	3.775e-06	218.6	69.79	41.362	14.919	3.854e-06	31.294	263.649	167.759	246.880	143.965	250.887	256.568	143.529	148.310	316.630	324.840	146.555	150.685	151.510	155.408	298.398	153.929	-8191	255	
22053.943	1	1	0	0	0.29968	0.13757	0.096632	0.141	0.29407	0.16348	0.066968	0.43537	0.24717	0.15258	0.20973	0.05143	0.15737	0.17728	0.092555	0.27028	-1.5604	-2.3021	-1.9646	-1.9813	-2.5938	-2.1521	-2.0667	-2.3333	-2.0833	-2.3958	-2.0792	-2.0312	-2.3083	-2.0687	-2.1937	-2.1583	348.731	372.139	346.921	158.996	306.456	251.346	394.180	437.182	465.444	187.563	139.017	391.474	152.872	233.203	311.456	386.463	0.00037188	0.00019943	0.00011581	613.85	2.5002e-06	3.6466e-06	680.08	158.46	9.2989e-07	2.8831e-06	218.91	70.11	40.968	14.757	2.6768e-06	31.405	0.00036583	0.00034137	0.00010112	602.34	3.8085e-06	3.9292e-06	665.96	156.72	3.7334e-06	3.8681e-06	216.9	69.413	40.641	14.813	3.7306e-06	31.317	261.194	232.340	237.715	143.867	313.059	297.715	143.710	148.276	325.493	306.623	146.602	150.302	151.823	155.731	286.684	153.798	-8191	255	
22054.039	1	1	0	0	0.13693	0.071072	0.182	0.1811	0.18222	0.1477	0.09361	0.18818	0.25238	0.21247	0.06955	0.11444	0.42799	0.17785	0.18998	0.21277	-1.2958	-2.3187	-2.15	-1.9562	-2.35	-2.0521	-2.3125	-2.2062	-1.9979	-2.3	-2.1396	-1.7812	-2.3333	-1.9854	-2.0583	-2.3083	388.066	151.177	371.532	352.828	152.630	142.585	393.409	382.940	402.197	269.434	295.584	249.897	430.176	169.242	257.619	464.757	0.00038636	0.00020206	5.3719e-05	612.26	3.0783e-06	3.8952e-06	682.85	159.16	1.5603e-06	3.1911e-06	218.28	69.332	40.995	14.625	2.9761e-06	31.215	0.00037447	0.00034598	9.7993e-05	603.77	3.7578e-06	3.9628e-06	670.26	157.41	3.8258e-06	3.7499e-06	216.03	68.984	40.534	14.664	3.9076e-06	31.089	262.227	292.785	257.103	144.230	294.504	268.607	143.701	148.257	265.699	273.806	146.374	150.549	151.911	155.620	324.715	154.244	-8191	255	
22054.135	1	1	0	0	0.13647	0.23749	0.18934	0.20345	0.050713	0.11362	0.31042	0.086483	0.043343	0.15864	0.24601	0.35594	0.28327	0.025804	0.18581	0.1219	-1.5833	-2.2562	-2.1104	-1.9542	-2.2313	-2.0354	-2.1396	-2.3604	-1.7875	-2.3458	-2.1396	-2.0438	-2.3125	-2.1979	-2.1625	-2.4521	272.680	462.205	138.108	417.159	227.306	358.472	452.037	386.180	443.495	423.402	415.460	156.394	340.114	271.886	374.264	258.143	0.00034949	0.00044521	6.4819e-05	616.92	2.4364e-06	2.5059e-06	684.36	159.17	2.9592e-06	3.4026e-06	219.59	69.832	41.104	14.587	2.2753e-06	31.442	0.00037306	0.00034793	9.8652e-05	605.45	3.8178e-06	3.8116e-06	671.05	157.2	3.8576e-06	3.9875e-06	216.58	69.042	40.534	14.648	3.852e-06	31.151	258.003	218.745	251.610	144.294	286.502	337.874	143.601	147.887	250.608	255.767	146.663	151.156	152.090	155.908	261.011	153.723	-8191	255	
22054.229	1	1	0	0	0.049981	0.18273	0.17968	0.096193	0.24155	0.20258	0.38243	0.20506	0.17156	0.22644	0.10139	0.22867	0.17523	0.11855	0.20751	0.17399	-1.4458	-2.2062	-2.1917	-1.9375	-2.4125	-1.8979	-1.9917	-2.5146	-1.975	-2.2542	-2.4625	-2.0521	-2.4979	-1.9583	-1.9896	-2.4021	469.708	181.469	409.100	253.072	433.074	174.703	430.428	409.131	320.982	315.743	402.362	466.650	415.232	278.573	443.442	339.972	0.00037286	0.0003268	3.9686e-05	615.32	2.847e-06	2.7572e-06	684.38	160.14	1.8229e-06	3.3029e-06	219.13	68.89	41.123	14.371	2.5859e-06	30.212	0.00035149	0.00035746	9.6899e-05	608.44	3.6954e-06	3.8827e-06	673.5	158.43	3.8131e-06	3.8874e-06	215.47	68.046	40.39	14.389	3.887e-06	30.204	263.751	225.540	158.350	144.272	256.972	266.679	143.616	148.084	274.166	249.597	146.567	150.728	151.932	155.587	374.968	153.757	-8191	255	
22054.350	1	1	0	0	0.15506	0.35117	0.19647	0.1699	0.17015	0.16208	0.24631	0.14227	0.15011	0.069664	0.26667	0.11372	0.17054	0.080704	0.076788	0.28737	-1.6271	-2.0979	-2.3896	-1.9104	-2.3708	-2.3375	-2.1229	-2.6333	-1.9917	-2.1604	-2.45	-1.8354	-2.2833	-2.2875	-2.0396	-2.3229	244.674	418.634	309.605	447.339	368.781	365.343	417.070	443.571	354.411	292.242	477.658	255.972	172.458	254.966	132.818	433.602	0.00031711	2.9154e-05	6.592e-05	623.23	3.8235e-06	3.5914e-06	684.83	161.21	1.5214e-06	4.3653e-06	215.45	67.609	40.307	14.066	1.2206e-06	29.846	0.00035657	0.00034885	9.6413e-05	614.58	3.7676e-06	3.8559e-06	673.45	159.27	3.7148e-06	3.9329e-06	213.43	66.835	39.946	14.074	3.8474e-06	29.689	258.323	435.852	193.443	144.173	295.513	278.643	143.327	148.633	285.587	269.475	146.570	150.987	151.910	155.842	254.368	153.747	-8191	255	
22054.445	1	1	0	0	0.086388	0.35702	0.14971	0.20819	0.065308	0.15475	0.099849	0.37549	0.05334	0.054919	0.169	0.13414	0.14216	0.25832	0.065923	0.061841	-1.6479	-1.9375	-2.4875	-2	-2.2188	-2.0458	-2.05	-2.3458	-1.9937	-2.0854	-2.5083	-2.1625	-2.15	-2.2229	-2.0833	-2.375	420.888	353.067	322.537	380.079	219.036	251.584	477.465	369.167	238.938	280.495	289.878	393.077	474.125	255.973	226.924	178.859	0.00034378	0.0002438	2.5091e-05	616.52	4.4231e-06	6.394e-06	681.05	158.22	1.1629e-06	3.1913e-06	214.78	67.076	39.682	13.851	4.5658e-06	29.997	0.00035186	0.00034752	9.4359e-05	608.18	3.8683e-06	3.8374e-06	667.81	155.94	3.748e-06	3.8765e-06	212.18	66.241	39.193	13.927	3.8307e-06	29.849	262.053	226.906	224.048	143.913	269.867	236.363	143.597	148.414	241.996	275.062	146.170	150.737	151.249	156.125	306.110	153.478	-8191	255	
22054.543	1	1	0	0	0.14079	0.080579	0.16125	0.16789	0.22707	0.25052	0.163	0.13143	0.078939	0.20262	0.40515	0.18369	0.31968	0.064531	0.2832	0.16796	-1.5312	-1.9562	-2.2646	-2.0146	-2.2208	-2.3167	-1.9813	-2.4542	-2.25	-2.0792	-2.4188	-2.1396	-2.1729	-2.3396	-2.0708	-2.3271	332.672	180.761	317.677	447.881	422.625	260.254	337.159	186.068	424.930	316.291	409.386	225.422	157.622	284.957	281.677	295.474	0.0003258	0.00031478	9.941e-05	617.06	3.2302e-06	3.6001e-06	681.31	158.11	2.5028e-06	2.5278e-06	216.72	67.841	40.294	14.102	2.1329e-06	30.041	0.00035691	0.00035246	9.4525e-05	604.55	3.7911e-06	3.7814e-06	669.6	156.44	3.8099e-06	3.8325e-06	213.97	66.978	39.832	14.121	3.7739e-06	30.097	256.354	191.362	226.095	144.331	284.108	247.387	143.358	148.203	301.801	306.499	146.692	150.683	151.805	155.885	307.629	153.744	-8191	255	
22054.613	1	1	0	0	0.052216	0.23462	0.22741	0.057778	0.14514	0.040047	0.15794	0.11847	0.30916	0.20788	0.23321	0.15301	0.11653	0.1722	0.37946	0.18552	-1.7333	-1.85	-2.4042	-2.2125	-2.0854	-2.4208	-2.0625	-2.1146	-2.0625	-1.8958	-2.3583	-2	-2.0354	-2.4021	-1.9354	-2.375	377.620	462.788	183.078	178.353	400.633	489.112	257.610	164.090	393.944	157.739	471.319	134.430	284.186	174.061	344.220	305.270	0.00035663	0.00019316	0.00014879	621.34	4.0743e-06	2.9507e-06	688.24	160.4	3.3514e-06	1.3449e-06	218.33	68.243	40.318	14.195	2.3449e-06	30.273	0.00035691	0.00035386	9.5479e-05	613.21	3.8735e-06	3.9073e-06	676.96	158.85	3.7695e-06	3.952e-06	215.97	67.433	40.14	14.237	3.9369e-06	30.218	261.813	222.042	251.659	144.312	322.955	290.913	143.349	148.571	306.926	216.567	146.590	150.783	151.824	155.894	302.801	153.856	-8191	255	
22054.734	1	1	0	0	0.26642	0.020726	0.20288	0.25701	0.25751	0.19985	0.32527	0.25991	0.045265	0.045377	0.23776	0.2635	0.15652	0.21956	0.13168	0.12607	-1.7896	-1.9771	-2.1437	-2.0104	-2.0646	-2.2313	-1.9937	-2.3312	-2.1813	-1.95	-2.4188	-2.0792	-2.0417	-2.3167	-1.9479	-2.3271	466.600	458.579	350.279	458.704	426.919	200.945	358.304	332.265	387.885	485.802	217.376	423.122	246.690	138.516	194.521	433.368	0.00036664	0.00050345	9.1162e-05	617.46	4.3549e-06	5.5049e-06	684.46	158.65	2.406e-06	1.9356e-06	215.43	67.749	39.753	14.118	1.331e-06	30.257	0.00035567	0.00035819	9.6042e-05	610.48	3.809e-06	3.9063e-06	671.82	157.37	3.8013e-06	3.9464e-06	213.68	67.048	39.735	14.22	3.8366e-06	30.163	257.172	217.820	197.231	144.163	281.123	295.987	143.278	148.452	295.322	314.210	146.503	150.746	151.812	156.111	299.557	153.303	-8191	255	
22054.830	1	1	0	0	0.23036	0.34175	0.15349	0.36165	0.23413	0.25542	0.098002	0.14921	0.044053	0.071288	0.24005	0.24486	0.38566	0.12404	0.34025	0.16833	-1.9292	-1.9271	-2.2875	-2.0458	-2.05	-2.5792	-2.0854	-2.2083	-2.3792	-1.9979	-2.2188	-2.0708	-2.0583	-2.1729	-2.1542	-2.3271	227.938	324.264	238.935	466.591	217.283	382.930	174.923	298.194	414.370	306.593	161.288	448.711	376.737	416.896	436.966	142.883	0.00035518	0.00024106	3.0524e-05	616.72	5.4159e-06	3.6527e-06	679.93	159.39	2.3949e-06	7.7648e-07	217.49	67.555	40.513	14.143	2.3111e-06	30.212	0.00035955	0.00035188	9.5568e-05	607.71	3.7423e-06	3.901e-06	670.73	157.45	3.8075e-06	3.9827e-06	214.36	67.036	40.027	14.205	3.8039e-06	30.024	265.967	218.778	257.001	144.031	272.235	275.623	143.591	148.500	285.282	259.441	146.594	150.810	151.856	155.881	303.643	153.733	-8191	255	
22054.928	1	1	0	0	0.028879	0.16062	0.16481	0.09137	0.23955	0.20836	0.22174	0.24841	0.09063	0.19385	0.16123	0.27338	0.15748	0.29827	0.1643	0.20333	-1.9979	-2.0417	-2.2271	-2.2667	-2.0271	-2.5083	-2.1813	-2.2521	-2.4125	-1.9188	-2.225	-2.3312	-1.8771	-2.4	-2.0625	-2.2375	436.924	201.331	347.517	141.227	326.399	404.162	425.813	361.259	410.995	163.937	244.469	473.229	470.832	168.130	292.644	246.107	0.00036734	0.00030473	0.0001158	624.22	3.0074e-06	4.9062e-06	688.96	161.91	2.3438e-06	3.0815e-06	216.34	67.833	41.056	14.055	4.0592e-06	30.162	0.00035921	0.00035142	9.6067e-05	615.99	3.8326e-06	3.9206e-06	678.07	160.25	3.7885e-06	3.9563e-06	215.71	67.283	40.5	14.177	3.8238e-06	29.975	260.826	236.764	199.865	144.187	278.964	274.128	143.374	148.075	263.193	291.629	146.566	150.796	151.307	155.588	286.493	153.758	-8191	255	
22055.023	1	1	0	0	0.18162	0.18613	0.27134	0.22886	0.23266	0.14164	0.46754	0.36982	0.33133	0.068344	0.13152	0.1783	0.1204	0.19887	0.030654	0.46827	-1.8646	-1.7042	-2.1979	-2.3896	-1.8167	-2.2562	-2.3229	-2.1042	-2.3396	-2.0375	-2.175	-2.2667	-1.7479	-2.125	-1.925	-2.0062	187.601	410.153	418.660	480.950	418.294	234.641	425.498	434.657	297.456	184.652	306.140	480.899	181.408	326.719	382.393	455.423	0.00032535	0.00014594	6.4975e-05	629.29	2.4424e-06	4.1628e-06	691.93	163.2	2.0891e-06	2.6377e-06	219.04	68.802	41.316	14.387	2.7591e-06	30.607	0.00035501	0.00035264	9.7795e-05	620.49	3.864e-06	3.9404e-06	680.5	161.03	3.731e-06	4.1304e-06	217.5	67.964	40.718	14.468	3.8157e-06	30.661	260.632	242.404	200.451	144.038	304.827	265.096	143.342	148.384	287.298	250.245	146.322	150.764	151.601	155.835	315.400	153.839	-8191	255	
22055.119	1	1	0	0	0.072684	0.23296	0.18603	0.15395	0.16771	0.11947	0.22568	0.16379	0.25393	0.091997	0.30322	0.21692	0.053639	0.13526	0.27818	0.14609	-1.9396	-1.975	-2.0104	-2.2646	-1.9042	-2.2896	-2.4083	-2.1396	-2.3604	-2.0792	-2.1167	-2.2313	-1.8875	-2.0187	-2.1375	-1.8438	140.009	471.323	368.960	289.380	488.784	337.136	360.254	458.010	307.897	251.086	398.917	209.543	197.173	339.026	266.966	428.189	0.00033779	0.0003078	7.2725e-05	625.46	3.0392e-06	4.141e-06	691.5	160.78	2.4465e-06	5.5203e-06	218.65	68.435	41.395	14.409	2.3837e-06	30.311	0.00035843	0.00035491	9.5856e-05	615.82	3.8011e-06	3.8883e-06	674.4	159.66	3.6606e-06	3.79e-06	215.55	67.582	40.558	14.378	3.839e-06	30.266	263.412	226.030	236.109	144.371	276.854	272.536	143.356	148.466	323.982	257.384	146.325	150.695	151.135	155.859	331.918	153.538	-8191	255	
22055.215	1	1	0	0	0.18383	0.23015	0.24343	0.27241	0.25597	0.057357	0.19933	0.33707	0.16161	0.066654	0.26088	0.10225	0.1274	0.12586	0.15065	0.14359	-1.8583	-2.1167	-2.0333	-2.2146	-1.9208	-2.4583	-2.1562	-2.0458	-2.4083	-2.2271	-2.2083	-2.3937	-1.9604	-2.2229	-2.2854	-1.9083	134.645	250.277	167.343	439.319	407.468	199.137	358.061	443.873	378.929	213.624	379.449	483.042	371.889	337.745	474.453	248.576	0.00036938	0.0002315	6.1355e-05	619.1	3.3022e-06	2.2782e-06	683.66	160.62	2.5146e-06	3.202e-06	217	67.968	40.399	14.217	3.5766e-06	30.249	0.0003505	0.00035312	9.7251e-05	613.78	3.7361e-06	3.8353e-06	672.8	158.52	3.6883e-06	3.9222e-06	214.68	67.28	40.2	14.252	3.8073e-06	30.089	263.524	157.760	266.816	144.300	298.399	335.612	143.601	148.708	266.372	252.966	146.663	150.601	151.950	156.110	284.655	153.370	-8191	255	
22055.311	1	1	0	0	0.17417	0.14434	0.063736	0.134	0.12789	0.15971	0.12301	0.12771	0.21292	0.16213	0.19953	0.19495	0.19036	0.084276	0.21332	0.18297	-1.7729	-1.9208	-1.9813	-2.4708	-1.9146	-2.1104	-2.4479	-1.8813	-2.2896	-2.1521	-2.1188	-2.2375	-2.0729	-2.2896	-2.5771	-2.0208	163.376	284.506	307.586	346.526	150.065	233.566	279.910	432.693	406.410	306.006	346.778	480.965	154.581	185.850	247.636	174.403	0.00035381	0.00036771	6.8833e-05	619.75	2.8536e-06	4.8291e-06	680	160.64	2.6811e-06	2.9804e-06	217.94	67.537	40.446	14.038	1.7026e-06	29.853	0.00035416	0.00033813	9.3316e-05	612.55	3.7383e-06	3.8142e-06	671.34	158.82	3.4989e-06	3.7329e-06	215.08	66.805	40.179	14.078	3.7134e-06	29.719	264.548	250.552	244.109	144.071	313.266	272.221	143.798	147.995	295.333	302.777	146.146	151.208	151.644	155.507	259.182	153.470	-8191	255	
22055.430	1	1	0	0	0.27489	0.079756	0.093504	0.13877	0.28984	0.24869	0.055185	0.086997	0.093026	0.10098	0.27026	0.095098	0.048238	0.15541	0.069066	0.15806	-1.9479	-2.2583	-1.9333	-2.4333	-2.2792	-2.3646	-2.5583	-2.0146	-2.4333	-2.3	-1.9062	-2.2854	-2.2	-2.0854	-2.2	-1.8333	263.673	390.818	435.486	348.385	187.345	374.014	320.855	315.958	242.477	286.154	433.608	454.319	449.253	403.578	231.366	400.882	0.00032285	0.0002821	0.00013569	630.43	2.5635e-06	1.0042e-06	687.08	161.43	1.631e-06	3.2404e-06	216.94	68.334	40.774	14.047	5.4216e-06	29.96	0.00034021	0.00034277	9.5715e-05	617.46	3.6273e-06	3.8106e-06	674.1	159.42	3.6414e-06	3.6711e-06	214.86	67.247	40.241	14.086	3.6445e-06	29.817	257.227	214.832	208.468	144.172	303.280	265.561	143.578	148.384	264.198	286.695	146.612	150.632	151.443	156.109	316.454	153.662	-8191	255	
22055.525	1	1	0	0	0.20809	0.1733	0.20649	0.19466	0.14307	0.037809	0.11744	0.16184	0.16845	0.13066	0.2596	0.22301	0.062852	0.18952	0.26543	0.2552	-1.625	-2.1375	-1.85	-2.2958	-2.3292	-2.0125	-2.3937	-1.9729	-2.0146	-2.3354	-1.8354	-2.3229	-2.0938	-1.9396	-2.3312	-1.9479	395.152	488.397	315.949	462.991	207.479	210.148	399.159	487.505	153.468	341.957	278.051	341.243	399.944	167.535	321.292	454.538	0.00033179	0.00030305	4.6354e-05	625.21	3.2686e-06	3.8373e-06	684.43	161.9	2.605e-06	6.0147e-07	216.15	67.346	40.298	13.859	3.6613e-06	29.685	0.00033914	0.00032615	9.3092e-05	616.55	3.68e-06	3.7689e-06	673.27	159.38	3.644e-06	3.7768e-06	213.57	66.603	40.127	14.008	3.5016e-06	29.481	259.975	208.329	175.685	144.011	271.691	309.156	143.328	148.253	325.250	335.760	146.515	150.663	152.028	156.032	310.577	153.539	-8191	255	
22055.623	1	1	0	0	0.27446	0.16226	0.23243	0.30175	0.059987	0.092494	0.15748	0.08666	0.15125	0.028976	0.16109	0.13079	0.090881	0.24272	0.096857	0.12481	-1.65	-2.4	-1.8438	-2.2062	-2.0354	-1.9	-2.3458	-1.9062	-2.2604	-2.2958	-1.9813	-2.3396	-2.0083	-1.875	-2.1479	-2.0417	217.477	481.193	250.846	464.808	148.417	231.556	390.686	142.378	268.642	358.485	250.847	131.654	320.569	401.404	234.912	213.919	0.00034104	0.0002912	7.5564e-05	623.46	4.07e-06	4.4432e-06	682.16	161.09	3.5641e-06	3.3444e-06	216.42	67.577	40.405	14.18	3.4152e-06	30.136	0.00034541	0.00031959	9.4493e-05	614.74	3.5178e-06	3.7651e-06	669.54	159.04	3.709e-06	3.6111e-06	213.18	66.873	40.045	14.154	3.6819e-06	29.899	260.919	217.114	204.589	144.051	279.861	302.408	143.602	148.345	261.019	251.687	146.233	151.044	151.774	155.864	277.376	153.493	-8191	255	
22055.719	1	1	0	0	0.3014	0.2027	0.066072	0.27962	0.14889	0.12613	0.1876	0.17026	0.20603	0.20146	0.20423	0.33489	0.10777	0.21877	0.090981	0.21063	-1.5438	-2.3021	-1.9021	-2.4625	-2.2375	-2.0521	-2.3187	-2.0771	-2.0521	-2.3354	-1.875	-2.0625	-2.0625	-1.8667	-2.3104	-1.9979	204.786	241.770	277.896	466.425	189.893	471.709	470.713	420.477	189.502	448.248	413.850	162.102	380.822	364.579	160.112	464.786	0.00035624	0.00044315	7.1074e-05	620.76	2.9387e-06	2.6443e-06	685.18	161.64	2.4412e-06	2.3183e-06	219.8	68.877	41.196	14.441	1.9604e-06	30.44	0.00034952	0.00033136	9.4353e-05	613.63	3.6092e-06	3.7065e-06	673.24	160.33	3.7659e-06	3.6068e-06	217.08	68.197	40.938	14.535	3.5884e-06	30.383	262.206	213.277	177.373	144.262	296.711	322.362	143.529	148.153	324.375	298.120	146.318	150.962	152.087	155.831	288.946	153.741	-8191	255	
22055.840	1	1	0	0	0.20289	0.151	0.39881	0.16928	0.31942	0.14661	0.068146	0.085447	0.23846	0.084824	0.16075	0.11271	0.19412	0.11066	0.10844	0.25318	-1.4875	-2.2458	-1.9333	-2.3208	-2.2583	-1.8208	-2.2917	-2.0312	-1.9688	-2.35	-1.9979	-2.0792	-2.2771	-1.9083	-2.2812	-2.1167	134.352	245.514	444.490	458.046	167.665	313.208	345.090	401.561	323.053	295.100	348.377	405.458	459.747	232.325	294.597	436.457	0.00033569	0.00027039	8.0979e-05	632.46	3.0389e-06	3.843e-06	689.78	164.11	3.1472e-06	1.9653e-06	221.98	69.889	41.568	14.556	1.9492e-06	30.663	0.00034393	0.00033184	9.4013e-05	622.35	3.7407e-06	3.7722e-06	679.44	162.76	3.6337e-06	3.7321e-06	219.32	69.046	41.489	14.671	3.6071e-06	30.57	260.345	226.092	280.242	144.161	287.396	288.020	143.366	148.653	292.583	280.153	146.448	150.569	151.800	155.947	292.739	153.725	-8191	255	
22055.910	1	1	0	0	0.31031	0.099027	0.23273	0.18535	0.22722	0.15554	0.0051624	0.047389	0.087618	0.14392	0.28175	0.15347	0.16076	0.14234	0.17296	0.15752	-1.5104	-2.1875	-1.7458	-2.3229	-2.2562	-1.7687	-2.2146	-2.2167	-1.9688	-2.4917	-1.9979	-2.1229	-2.2812	-2.0687	-2.3729	-2.4313	158.961	291.412	347.795	403.704	455.562	441.016	450.048	161.802	271.700	323.043	360.512	384.858	285.061	310.345	150.672	243.453	0.00036243	0.00028322	8.2366e-05	637.23	1.3834e-06	3.5363e-06	694.33	165.99	1.7614e-06	2.7862e-06	222.4	70.032	42.629	14.876	3.1442e-06	31.132	0.00036075	0.0003447	9.4417e-05	627.76	3.645e-06	3.8648e-06	684.45	163.72	3.8995e-06	3.7743e-06	219.91	69.382	41.973	14.877	3.72e-06	30.885	262.402	211.656	224.947	144.026	294.814	266.693	143.390	148.392	342.474	272.189	146.658	150.805	151.552	155.788	282.908	153.766	-8191	255	
22056.031	1	1	0	0	0.29241	0.38571	0.19171	0.052213	0.10449	0.14872	0.24544	0.19354	0.27853	0.026101	0.31829	0.27982	0.10517	0.24585	0.13001	0.1382	-1.5	-2.1854	-1.7646	-2.1312	-2.5208	-1.8979	-2.3479	-2.2938	-1.9625	-2.3563	-2.1479	-2.0375	-2.3146	-2.0333	-2.0854	-2.2792	291.313	250.004	303.967	390.903	453.366	433.926	475.460	369.166	449.373	160.911	426.506	377.269	445.735	131.409	169.530	486.656	0.00032887	0.00018332	6.9157e-05	629.54	3.4086e-06	2.3493e-06	694.57	165.28	2.7209e-06	4.5589e-07	222.85	70.415	42.151	14.99	1.0481e-06	31.124	0.00034805	0.00034286	9.5472e-05	621.5	3.7564e-06	3.8328e-06	680.54	163.21	3.7957e-06	3.9057e-06	219.91	69.431	41.769	14.949	3.6905e-06	31.001	261.997	195.581	232.912	143.924	298.383	260.972	143.458	148.255	297.629	373.091	146.773	150.654	151.520	155.724	248.381	153.646	-8191	255	
22056.129	1	1	0	0	0.056055	0.16617	0.24073	0.23199	0.32641	0.21279	0.27004	0.15667	0.22038	0.066998	0.18985	0.21841	0.23847	0.17087	0.062235	0.13883	-1.3833	-2.3396	-2.1646	-2.0792	-2.3958	-1.9188	-2.0687	-2.3229	-1.9792	-2.2625	-2.225	-1.875	-2.4917	-1.925	-2.0708	-2.1125	477.286	393.765	411.742	217.957	288.010	430.468	246.311	468.535	436.705	446.814	369.678	162.488	352.896	224.659	468.102	434.275	0.00036714	0.00030798	0.00010281	633.68	3.2334e-06	3.3059e-06	691.16	164.47	4.1899e-06	3.1135e-06	222.71	70.423	42.286	14.862	1.6914e-06	31.189	0.00036708	0.00034018	9.4532e-05	624.24	3.6821e-06	3.7691e-06	680.84	162.95	3.7712e-06	3.7151e-06	219.96	69.584	41.772	14.928	3.7763e-06	31.053	259.550	189.957	257.575	144.189	288.564	250.026	143.673	148.230	295.313	251.176	146.484	150.771	151.867	156.057	292.804	153.700	-8191	255	
22056.223	1	1	0	0	0.13983	0.08246	0.32831	0.272	0.38769	0.15025	0.08225	0.091328	0.24712	0.15332	0.096535	0.43566	0.12668	0.16917	0.15827	0.15244	-1.6333	-2.0563	-2.2	-2.0438	-2.3312	-1.9417	-2.2146	-2.1979	-1.7542	-2.2771	-2.075	-2.0354	-2.2875	-2.0333	-2.0563	-2.3875	390.608	194.156	399.519	481.269	401.195	195.171	406.142	178.182	341.130	263.340	298.604	408.813	279.993	153.202	216.698	454.668	0.00035154	0.0002912	4.1418e-05	639.02	3.345e-06	2.4074e-06	699.72	167.31	4.0763e-06	6.1842e-06	224.61	71.077	43.328	15.081	3.6734e-06	31.747	0.00035287	0.00033694	9.4084e-05	629.5	3.6e-06	3.8027e-06	686.63	165.43	3.8008e-06	3.7298e-06	222.64	70.532	42.732	15.16	3.8476e-06	31.612	262.682	206.350	204.326	144.181	303.143	251.251	143.363	148.080	277.167	299.177	146.444	150.881	151.371	155.812	244.292	153.570	-8191	255	
22056.318	1	1	0	0	0.12276	0.25865	0.23474	0.21117	0.13429	0.19991	0.14598	0.15335	0.26177	0.10205	0.1076	0.10672	0.17841	0.062037	0.13842	0.076462	-1.5417	-2.0812	-2.1021	-1.8937	-2.3771	-2.0229	-2.0021	-2.3917	-1.9438	-2.1896	-2.3312	-2.0729	-2.4417	-2.1583	-2.0187	-2.4	178.636	410.278	346.401	216.253	485.868	473.032	385.135	423.389	457.923	269.925	444.298	468.140	227.441	378.182	332.138	329.993	0.00038439	0.00047651	6.122e-05	640.1	4.9097e-06	2.4338e-06	701.53	168.35	2.8032e-06	1.534e-06	228.14	73.114	43.716	15.592	3.6953e-06	32.666	0.00035719	0.00034502	9.7756e-05	630.19	3.7552e-06	3.6628e-06	690.78	166.28	3.8759e-06	3.8475e-06	225.66	72.215	43.159	15.685	3.8353e-06	32.456	265.942	205.073	267.411	144.215	287.222	275.015	143.135	148.498	278.655	323.946	146.853	150.749	151.794	155.931	273.749	153.945	-8191	255	
22056.439	1	1	0	0	0.16507	0.22062	0.16228	0.11716	0.26162	0.20574	0.1861	0.19372	0.14776	0.1228	0.16729	0.24338	0.22456	0.13903	0.27911	0.19909	-1.5104	-1.9813	-2.2458	-2.2083	-2.1937	-2.2333	-2.1708	-2.3083	-2.075	-2.2354	-2.2208	-2.1542	-2.2	-2.2062	-2.0458	-2.45	222.408	329.539	303.641	399.454	297.473	285.607	329.879	177.727	214.488	365.478	182.102	268.976	387.160	219.387	172.415	349.827	0.00039818	0.00023319	4.3063e-05	637.37	2.83e-06	2.9593e-06	702.93	168.07	2.3614e-06	8.168e-07	225.99	72.955	43.332	15.752	2.5897e-06	32.626	0.0003617	0.00034523	9.8223e-05	628.41	3.7595e-06	3.8259e-06	687.21	165.46	3.7237e-06	3.8472e-06	223.58	71.779	42.864	15.729	3.7652e-06	32.54	260.605	216.221	208.199	144.347	320.017	243.264	143.375	148.315	279.528	414.126	146.659	150.545	151.558	156.093	249.586	153.426	-8191	255	
22056.512	1	1	0	0	0.21918	0.10635	0.2132	0.27543	0.024186	0.21842	0.25272	0.2478	0.064426	0.232	0.3346	0.067732	0.16643	0.075989	0.26745	0.086778	-1.5458	-2.1125	-2.2042	-2.0708	-2.2771	-2.0687	-1.9813	-2.4708	-2.0375	-2.05	-2.4271	-1.9479	-2.1937	-2.3271	-1.8854	-2.3438	147.567	468.209	453.489	193.027	282.662	324.342	386.086	377.898	141.323	185.387	392.219	263.533	483.409	482.188	205.513	380.836	0.00039103	0.00024589	7.3731e-05	630.1	2.9448e-06	3.7613e-06	696.32	168.07	3.0877e-06	3.8228e-06	225.5	71.958	42.87	15.434	1.335e-06	32.198	0.00036166	0.00033965	9.2919e-05	623.44	3.7585e-06	3.7012e-06	686.43	165.14	3.7155e-06	3.9476e-06	223.98	71.493	42.685	15.529	3.7296e-06	31.968	261.849	167.541	216.444	144.083	261.504	257.497	143.514	148.091	238.105	290.501	146.142	150.594	151.725	156.212	278.916	153.539	-8191	255	
22056.607	1	1	0	0	0.055123	0.071274	0.32818	0.27038	0.056941	0.27654	0.2831	0.18385	0.32602	0.14701	0.26808	0.17205	0.025515	0.27145	0.18976	0.15231	-1.5312	-2.075	-2.2938	-1.9688	-2.1688	-2.2979	-2.1937	-2.3625	-2.1021	-2.1271	-2.2583	-2.1354	-2.1	-2.3542	-1.9417	-2.3521	136.159	423.940	376.918	381.517	258.550	370.749	374.572	460.655	447.985	453.523	216.594	181.454	218.590	399.930	306.261	401.298	0.00038345	0.00041406	0.00014083	644.73	1.9929e-06	4.3998e-06	703.01	169.74	4.2902e-06	3.5597e-06	228.66	71.816	43.704	15.285	3.189e-06	31.754	0.00036615	0.00035376	9.7654e-05	633.97	3.6957e-06	3.8228e-06	692.6	167.62	3.7661e-06	3.878e-06	225.45	71.332	43.256	15.383	3.8747e-06	31.682	266.280	206.855	215.321	144.298	232.112	273.163	143.221	148.236	274.567	290.146	146.534	150.640	151.741	155.993	316.913	153.515	-8191	255	
22056.703	1	1	0	0	0.13301	0.11419	0.16407	0.37089	0.053594	0.16121	0.34744	0.16906	0.049933	0.19082	0.11589	0.26947	0.027325	0.11828	0.075307	0.093202	-1.8104	-2.1292	-2.2625	-1.9396	-2.1271	-2.2354	-1.9708	-2.2792	-2.1333	-1.8021	-2.375	-2.0542	-1.9417	-2.2208	-2.0938	-2.2667	421.395	269.419	248.628	444.300	464.842	148.384	393.623	185.135	320.269	331.618	412.908	240.156	423.302	366.211	394.766	419.126	0.00037469	0.00030792	9.2374e-05	650.41	2.994e-06	1.7897e-06	712.51	172.76	3.1616e-06	3.5899e-06	228.5	72.378	44.22	15.59	3.5505e-06	32.079	0.000361	0.00036366	9.5677e-05	642.81	3.9123e-06	3.9257e-06	699.86	170.35	3.822e-06	3.8688e-06	226.49	71.831	43.831	15.55	3.9379e-06	31.909	260.697	244.494	224.892	144.119	268.521	259.249	143.524	148.428	289.601	249.806	146.302	150.766	151.510	155.817	277.594	153.402	-8191	255	
22056.799	1	1	0	0	0.14597	0.35326	0.24474	0.17342	0.12546	0.17947	0.1776	0.019504	0.14301	0.074909	0.31192	0.12561	0.26635	0.11747	0.18851	0.19731	-1.8292	-2.0021	-2.3	-2.0771	-1.9979	-2.2938	-2.1188	-2.3146	-2.3	-1.9667	-2.4021	-2.1125	-2.0292	-2.2812	-2.0875	-2.3417	204.798	408.288	415.150	136.866	194.767	213.419	132.581	413.130	379.933	422.970	366.325	292.743	314.349	434.051	295.871	186.291	0.0003485	0.00050858	8.4457e-05	650.87	3.1793e-06	4.0464e-06	707.63	170.97	2.5143e-06	3.858e-06	227.24	72.831	44.376	15.416	3.3754e-06	31.799	0.00036072	0.00036306	9.7974e-05	642.11	3.8871e-06	3.8799e-06	697.17	169.19	3.9178e-06	3.9954e-06	225.3	71.638	43.481	15.499	3.9224e-06	31.696	260.609	207.588	233.139	144.335	296.281	305.188	143.246	148.452	238.624	236.787	146.593	150.653	151.636	156.201	270.581	153.705	-8191	255	
22056.920	1	1	0	0	0.11882	0.15479	0.050894	0.10078	0.13214	0.0508	0.29473	0.26391	0.10246	0.23399	0.048597	0.25373	0.10808	0.16786	0.20318	0.15013	-1.8542	-1.9667	-2.3417	-2.1437	-2.0271	-2.3792	-2.0563	-2.3042	-2.2188	-2.0375	-2.175	-2.1771	-1.9229	-2.5292	-2.0875	-2.2708	190.060	436.971	373.019	441.829	159.395	303.595	406.362	309.434	218.438	434.877	392.374	466.788	366.977	142.654	133.942	202.875	0.00036751	0.00040973	6.255e-05	648.61	5.4374e-06	2.5527e-06	704.11	170.96	2.3126e-06	3.3206e-06	227.19	71.315	43.523	15.236	1.8679e-06	31.507	0.00037411	0.00036389	9.9887e-05	637.65	3.883e-06	3.7997e-06	691.62	168.64	3.8964e-06	3.968e-06	224.12	70.71	43.204	15.313	3.8744e-06	31.399	260.021	253.155	195.248	144.167	275.127	333.743	143.349	148.193	270.781	297.289	146.618	150.651	151.416	155.738	308.075	153.786	-8191	255	
22057.016	1	1	0	0	0.10529	0.11362	0.062467	0.19449	0.11325	0.24452	0.032762	0.11742	0.10902	0.20971	0.14861	0.17354	0.16057	0.2096	0.10633	0.10691	-2.0583	-2.0292	-2.3021	-2.375	-1.9771	-2.3563	-2.2229	-2.2771	-2.3417	-1.7979	-2.225	-2.1958	-1.8833	-2.3563	-2.0812	-2.1667	133.056	400.313	458.968	408.380	272.951	210.968	179.121	133.370	171.895	242.431	376.469	461.644	483.756	422.763	201.035	310.374	0.00034904	0.00028236	7.3311e-05	648.58	4.8602e-06	2.9272e-06	705.44	170.58	3.2193e-06	2.6724e-06	226.43	71.286	43.735	15.207	4.0787e-06	31.241	0.00035878	0.00036517	9.6547e-05	639.12	3.8235e-06	3.8542e-06	693.41	168.7	3.8911e-06	3.9756e-06	224.26	70.63	43.311	15.205	3.841e-06	31.183	261.201	196.527	214.788	144.337	287.147	279.427	143.366	148.344	286.370	285.704	146.773	150.500	151.338	155.805	279.658	153.745	-8191	255	
22057.111	1	1	0	0	0.26044	0.077723	0.21882	0.1279	0.057616	0.06203	0.16529	0.21539	0.23196	0.2562	0.22748	0.1205	0.14661	0.10082	0.1226	0.10593	-1.8229	-2.0917	-2.2708	-2.3833	-1.9688	-2.4792	-1.9792	-1.8729	-2.4	-1.8875	-2.1521	-2.3063	-1.9958	-2.2979	-2.2208	-2.0042	420.568	421.756	471.400	443.603	200.483	370.541	485.923	197.736	360.748	467.423	461.088	486.055	489.487	477.729	273.352	484.130	0.00035129	0.00015608	0.00011761	650.64	3.0514e-06	7.9856e-07	709.29	171.05	7.8076e-07	2.5269e-06	227.39	71.718	43.901	15.276	1.1494e-06	31.38	0.00035575	0.00035227	0.00010318	644.25	3.8671e-06	4.0173e-06	698.7	169.87	3.8949e-06	3.9644e-06	225.36	70.674	43.508	15.179	3.8865e-06	31.244	258.420	234.802	253.561	144.046	257.797	299.218	143.095	148.148	219.689	215.381	146.514	150.422	151.740	155.478	306.718	153.314	-8191	255	
22057.207	1	1	0	0	0.097286	0.18318	0.16936	0.15678	0.23662	0.1602	0.23656	0.15149	0.16194	0.2133	0.09648	0.33736	0.11273	0.041619	0.17431	0.15824	-1.925	-2.2146	-1.9979	-2.3	-2.0896	-2.225	-2.0792	-2.05	-2.3583	-2.2208	-2.2479	-2.1396	-1.8667	-2.15	-2.1896	-2.1312	423.621	440.343	474.044	423.979	174.109	224.314	345.456	214.933	208.969	245.655	403.818	299.370	200.806	195.175	230.882	214.982	0.00038292	0.00031119	7.8108e-05	658.88	5.6626e-06	2.1941e-06	716.59	173.14	2.5188e-06	2.6597e-06	228.31	71.415	44.45	15.197	2.5594e-06	31.17	0.00037414	0.00035438	0.00010019	649.5	3.9178e-06	3.9252e-06	703.5	172.18	3.9029e-06	3.9565e-06	226.64	71.08	44.354	15.247	4.0225e-06	31.052	261.481	214.701	267.202	144.150	303.327	296.156	143.374	148.311	292.744	299.173	146.650	150.535	151.872	155.724	297.035	153.614	-8191	255	
22057.305	1	1	0	0	0.31025	0.37433	0.12594	0.30756	0.088879	0.12434	0.21542	0.31582	0.27351	0.28124	0.18614	0.15761	0.048783	0.11933	0.07905	0.25615	-1.7771	-1.8188	-2.0542	-2.3792	-1.8458	-2.2042	-2.15	-2.0042	-2.3833	-2.1729	-2.2146	-2.4938	-1.8875	-2.2125	-2.2646	-1.9521	375.473	348.525	414.333	440.822	427.049	163.302	370.445	327.908	287.129	269.044	255.008	316.974	419.332	429.626	386.773	261.492	0.00038335	0.00024328	9.7754e-05	667.78	3.1802e-06	1.1497e-06	716.02	176.4	2.2761e-06	2.4923e-06	229.36	72.614	44.763	15.256	4.1332e-06	31.395	0.00037313	0.00036822	0.00010243	657.55	3.9214e-06	4.0631e-06	703.81	174.4	3.8757e-06	4.013e-06	227.19	71.528	44.402	15.312	3.8203e-06	31.18	261.154	176.319	215.994	144.006	293.011	302.156	143.623	148.476	275.966	294.493	146.196	150.648	151.299	155.797	285.808	153.528	-8191	255	
22057.400	1	1	0	0	0.17093	0.011056	0.29977	0.073884	0.04339	0.302	0.047621	0.12858	0.10267	0.29749	0.1677	0.28776	0.28667	0.068344	0.08417	0.095339	-1.8312	-2.1833	-1.8146	-2.2542	-1.8813	-2.0375	-2.2438	-2.0083	-2.2646	-2.1833	-2.0479	-2.4375	-1.9438	-2.3583	-2.375	-2.0042	431.422	412.475	162.099	461.142	483.387	163.563	191.077	166.437	451.869	267.291	229.626	426.716	421.186	347.093	149.359	262.215	0.00036813	0.00020288	5.8697e-05	660.38	4.1053e-06	3.038e-06	714.75	175.31	2.3204e-06	3.5481e-06	231.19	72.574	44.935	15.192	2.6081e-06	31.184	0.00036253	0.00035285	0.0001019	648.25	4.0054e-06	3.8816e-06	702.69	173.02	3.7675e-06	3.9497e-06	227.59	71.922	44.42	15.287	3.8066e-06	31.105	259.987	303.197	263.608	143.988	247.451	275.647	143.550	148.268	295.506	245.584	146.880	150.771	151.348	155.455	288.220	153.790	-8191	255	
22057.520	1	1	0	0	0.14195	0.087935	0.031765	0.048952	0.25339	0.1887	0.34981	0.17028	0.26992	0.3085	0.33364	0.06386	0.25018	0.22178	0.11581	0.094843	-1.7521	-2.1271	-1.8104	-2.4583	-1.9604	-2.0979	-2.1292	-2.0938	-2.1625	-2.1896	-1.8792	-2.3792	-2.0833	-1.9417	-2.2958	-1.9583	364.801	212.284	389.812	298.624	388.590	138.230	470.712	377.297	270.334	466.765	197.809	186.818	489.146	300.174	223.545	403.815	0.00038401	0.00037067	3.4378e-05	667.95	1.8282e-06	2.8242e-06	716.51	178.08	3.6827e-06	2.9154e-06	233.33	73.39	46.106	15.432	3.0816e-06	31.469	0.00036906	0.00035989	9.8646e-05	657.8	3.8754e-06	3.9603e-06	707.73	175.82	3.8292e-06	3.9626e-06	230.23	72.462	45.518	15.527	3.8705e-06	31.365	260.428	224.457	254.985	144.174	263.689	246.312	143.553	147.926	258.986	281.979	146.551	151.018	151.385	155.672	319.008	153.432	-8191	255	
22057.615	1	1	0	0	0.027331	0.11988	0.1513	0.25638	0.089937	0.069706	0.24333	0.13147	0.0047494	0.14487	0.28669	0.25128	0.4102	0.13367	0.086083	0.080544	-1.7188	-2.0354	-1.8917	-2.4021	-2	-1.9688	-2.5833	-1.9688	-2.1625	-2.3625	-1.9792	-2.2542	-2.1063	-1.9833	-2.3	-2.0396	223.040	372.753	382.835	430.849	165.650	213.178	416.627	354.423	161.975	416.794	354.832	443.966	457.174	454.365	436.595	412.995	0.00035463	0.0004691	6.4848e-05	673.08	4.0556e-06	2.8022e-06	730.37	181.15	3.8378e-06	2.3909e-06	236.76	74.392	46.94	15.758	2.2973e-06	31.921	0.00036034	0.00036584	9.9951e-05	664.97	3.9161e-06	3.8964e-06	715.89	179.1	3.8472e-06	3.9812e-06	233.18	73.751	46.449	15.866	3.8848e-06	31.811	260.817	219.889	204.159	144.184	283.608	281.263	143.535	148.224	287.035	318.600	146.446	150.676	151.922	155.426	297.565	153.492	-8191	255	
22057.713	1	1	0	0	0.13591	0.12153	0.1182	0.14798	0.12192	0.032574	0.1497	0.27892	0.21299	0.085601	0.068398	0.055683	0.19487	0.070401	0.1208	0.026688	-1.6792	-2.0854	-1.8354	-2.0708	-2.1125	-1.8729	-2.5167	-2.1479	-2.2167	-2.3104	-2.0771	-2.2792	-2.2	-2.075	-2.3312	-2.0938	368.429	279.523	415.853	308.551	163.143	210.161	242.772	441.544	346.828	397.450	319.783	485.446	171.530	277.292	275.741	298.926	0.0003622	0.00036239	9.1919e-05	680.49	3.7986e-06	2.6064e-06	728.71	180.04	2.8489e-06	4.3915e-06	232.28	74.394	46.676	15.852	2.0475e-06	32.072	0.00037167	0.00037369	0.00010245	668.71	3.9704e-06	4.1168e-06	714.41	178.85	3.9823e-06	4.1225e-06	230.86	73.503	46.138	15.87	3.9944e-06	31.941	260.996	257.888	227.943	144.232	303.029	245.734	143.326	148.649	295.466	289.086	146.607	150.743	151.678	155.557	262.798	153.763	-8191	255	
22057.809	1	1	0	0	0.065837	0.18318	0.083159	0.23565	0.20105	0.11224	0.11286	0.15916	0.19082	0.1238	0.20672	0.065328	0.15165	0.080245	0.041475	0.28439	-1.6042	-2.3229	-1.8458	-2.2938	-2.2042	-2.0312	-2.4417	-2.1208	-2	-2.2646	-2.0458	-2.4375	-2.1063	-1.975	-2.4208	-2.1229	460.999	229.768	345.826	418.173	206.401	198.555	410.266	302.584	161.994	450.787	466.139	461.900	136.586	468.352	185.297	206.052	0.0003774	0.0002624	9.5024e-05	667.76	2.5748e-06	2.6228e-06	721.91	179.59	5.0042e-06	3.8951e-06	233.17	74.525	46.48	15.765	2.1899e-06	32.068	0.00038017	0.00036274	0.0001033	660.33	3.8521e-06	4.0593e-06	708.97	177.26	3.9452e-06	3.9337e-06	230.76	73.407	45.996	15.873	3.9226e-06	32.018	266.331	222.986	208.674	144.055	276.070	291.355	143.527	148.241	284.898	274.812	146.760	150.434	151.501	155.594	269.822	153.393	-8191	255	
#DATA ENDS
