BOXY.EXE: ISS Imagent and Oximeter Data Acquisition Program Version 0.80
Ascii Record File

#ACQ INFORMATION
2  Detector Channels 
16  External MUX Channels 
1  Auxiliary Channels 
5000  Waveform (CCF) Frequency (Hz)
1  Waveforms Skipped 
30  Waveforms Averaged 
1  Cycles Averaged 
16  Acquisitions per Waveform 
10.0806  Updata Rate (Hz) 

#FILE INFORMATION
TRUE -- External MUX Channel results are PARSED.
FALSE -- AC DC and Phase are NOT grouped.
TRUE -- Companion Program Settings File CREATED.
FALSE -- AC data not excluded
FALSE -- DC data not excluded
FALSE -- Phase data not excluded
FALSE -- Auxillary Chn. data not excluded
Tab delimiters

#CALIBRATION STATE
TRUE -- Waveform Calibration Values APPLIED.


#AUX CALIBRATION VALUES
Val Type	aux-1	

Term	1.0000e+00	
Factor	0.0000e+00	


#WF CALIBRATION VALUES
A = Detector Channel
Val Type	A-AC1	A-AC2	A-AC3	A-AC4	A-AC5	A-AC6	A-AC7	A-AC8	A-AC9	A-AC10	A-AC11	A-AC12	A-AC13	A-AC14	A-AC15	A-AC16	A-DC1	A-DC2	A-DC3	A-DC4	A-DC5	A-DC6	A-DC7	A-DC8	A-DC9	A-DC10	A-DC11	A-DC12	A-DC13	A-DC14	A-DC15	A-DC16	A-Ph1	A-Ph2	A-Ph3	A-Ph4	A-Ph5	A-Ph6	A-Ph7	A-Ph8	A-Ph9	A-Ph10	A-Ph11	A-Ph12	A-Ph13	A-Ph14	A-Ph15	A-Ph16	

Term	0.00000e+00	0.00000e+00	0.00000e+00	0.00000e+00	0.00000e+00	0.00000e+00	0.00000e+00	0.00000e+00	0.00000e+00	0.00000e+00	0.00000e+00	0.00000e+00	0.00000e+00	0.00000e+00	0.00000e+00	0.00000e+00	0.00000e+00	0.00000e+00	0.00000e+00	0.00000e+00	0.00000e+00	0.00000e+00	0.00000e+00	0.00000e+00	0.00000e+00	0.00000e+00	0.00000e+00	0.00000e+00	0.00000e+00	0.00000e+00	0.00000e+00	0.00000e+00	0.00000e+00	0.00000e+00	0.00000e+00	0.00000e+00	0.00000e+00	0.00000e+00	0.00000e+00	0.00000e+00	0.00000e+00	0.00000e+00	0.00000e+00	0.00000e+00	0.00000e+00	0.00000e+00	0.00000e+00	0.00000e+00	
Factor	1.00000e+00	1.00000e+00	1.00000e+00	1.00000e+00	1.00000e+00	1.00000e+00	1.00000e+00	1.00000e+00	1.00000e+00	1.00000e+00	1.00000e+00	1.00000e+00	1.00000e+00	1.00000e+00	1.00000e+00	1.00000e+00	1.00000e+00	1.00000e+00	1.00000e+00	1.00000e+00	1.00000e+00	1.00000e+00	1.00000e+00	1.00000e+00	1.00000e+00	1.00000e+00	1.00000e+00	1.00000e+00	1.00000e+00	1.00000e+00	1.00000e+00	1.00000e+00	X	X	X	X	X	X	X	X	X	X	X	X	X	X	X	X	

B = Detector Channel
Val Type	B-AC1	B-AC2	B-AC3	B-AC4	B-AC5	B-AC6	B-AC7	B-AC8	B-AC9	B-AC10	B-AC11	B-AC12	B-AC13	B-AC14	B-AC15	B-AC16	B-DC1	B-DC2	B-DC3	B-DC4	B-DC5	B-DC6	B-DC7	B-DC8	B-DC9	B-DC10	B-DC11	B-DC12	B-DC13	B-DC14	B-DC15	B-DC16	B-Ph1	B-Ph2	B-Ph3	B-Ph4	B-Ph5	B-Ph6	B-Ph7	B-Ph8	B-Ph9	B-Ph10	B-Ph11	B-Ph12	B-Ph13	B-Ph14	B-Ph15	B-Ph16	

Term	0.00000e+00	0.00000e+00	0.00000e+00	0.00000e+00	0.00000e+00	0.00000e+00	0.00000e+00	0.00000e+00	0.00000e+00	0.00000e+00	0.00000e+00	0.00000e+00	0.00000e+00	0.00000e+00	0.00000e+00	0.00000e+00	0.00000e+00	0.00000e+00	0.00000e+00	0.00000e+00	0.00000e+00	0.00000e+00	0.00000e+00	0.00000e+00	0.00000e+00	0.00000e+00	0.00000e+00	0.00000e+00	0.00000e+00	0.00000e+00	0.00000e+00	0.00000e+00	2.53724e+01	-1.25825e+02	-1.32423e+02	-1.86157e+02	-5.31231e+01	-7.74207e+01	-1.59021e+02	-1.62015e+02	-9.81342e+01	-6.42266e+01	-1.73719e+02	-1.69925e+02	-1.79918e+02	-1.77120e+02	-6.73402e+01	-1.50188e+02	
Factor	4.43643e-05	1.31752e-04	3.84766e-05	6.00296e-01	1.09162e-06	1.23883e-06	1.58776e-01	4.81384e-02	1.60025e-06	1.38813e-06	8.39062e-02	2.75674e-02	2.39658e-02	9.07276e-03	1.49700e-06	1.30833e-02	1.61200e-06	1.67637e-06	4.65165e-07	2.83808e-01	1.83225e-08	1.83332e-08	7.47258e-02	2.41391e-02	1.82575e-08	1.83873e-08	4.04860e-02	1.32768e-02	1.20086e-02	4.53932e-03	1.82600e-08	6.30792e-03	X	X	X	X	X	X	X	X	X	X	X	X	X	X	X	X	



#DISTANCE SETTINGS
A = Detector Channel
A-1	A-2	A-3	A-4	A-5	A-6	A-7	A-8	A-9	A-10	A-11	A-12	A-13	A-14	A-15	A-16	

2.5000e+00	3.0000e+00	2.5000e+00	3.0000e+00	2.0000e+00	3.0000e+00	1.5000e+00	3.0000e+00	3.0000e+00	3.0000e+00	3.0000e+00	3.0000e+00	3.0000e+00	3.0000e+00	1.5000e+00	3.0000e+00	

B = Detector Channel
B-1	B-2	B-3	B-4	B-5	B-6	B-7	B-8	B-9	B-10	B-11	B-12	B-13	B-14	B-15	B-16	

1.0000e+01	1.0000e+01	1.0000e+01	1.4400e+00	1.0000e+01	1.0000e+01	1.5100e+00	1.9400e+00	1.0000e+01	1.0000e+01	1.9900e+00	2.4900e+00	2.4100e+00	2.9000e+00	1.0000e+01	2.9800e+00	




#DATA BEGINS
time	group	step	mark	flag	A-AC1	A-AC2	A-AC3	A-AC4	A-AC5	A-AC6	A-AC7	A-AC8	A-AC9	A-AC10	A-AC11	A-AC12	A-AC13	A-AC14	A-AC15	A-AC16	A-DC1	A-DC2	A-DC3	A-DC4	A-DC5	A-DC6	A-DC7	A-DC8	A-DC9	A-DC10	A-DC11	A-DC12	A-DC13	A-DC14	A-DC15	A-DC16	A-Ph1	A-Ph2	A-Ph3	A-Ph4	A-Ph5	A-Ph6	A-Ph7	A-Ph8	A-Ph9	A-Ph10	A-Ph11	A-Ph12	A-Ph13	A-Ph14	A-Ph15	A-Ph16	B-AC1	B-AC2	B-AC3	B-AC4	B-AC5	B-AC6	B-AC7	B-AC8	B-AC9	B-AC10	B-AC11	B-AC12	B-AC13	B-AC14	B-AC15	B-AC16	B-DC1	B-DC2	B-DC3	B-DC4	B-DC5	B-DC6	B-DC7	B-DC8	B-DC9	B-DC10	B-DC11	B-DC12	B-DC13	B-DC14	B-DC15	B-DC16	B-Ph1	B-Ph2	B-Ph3	B-Ph4	B-Ph5	B-Ph6	B-Ph7	B-Ph8	B-Ph9	B-Ph10	B-Ph11	B-Ph12	B-Ph13	B-Ph14	B-Ph15	B-Ph16	aux-1	digaux	

1481.523	1	1	0	256	0.093063	0.10073	0.12417	0.092367	0.063883	0.16086	0.42153	0.033279	0.17598	0.16108	0.15655	0.26788	0.36283	0.083608	0.06202	0.16736	-2.3646	-2.675	-2.625	-2.9125	-2.6063	-3.0042	-2.9062	-2.725	-2.9875	-2.9521	-2.9042	-3.2292	-2.5583	-2.9583	-2.9354	-2.5229	171.958	-82.143	249.263	-84.486	70.056	215.372	230.393	-50.663	-21.966	67.007	163.755	200.690	154.986	13.984	25.784	233.486	0.00064265	0.00062077	0.00031295	1295.4	6.2062e-06	8.1794e-06	1299	352.52	1.2322e-05	3.6173e-06	408.23	138.3	119.56	41.324	1.219e-05	51.278	0.0024175	0.0028134	0.00074507	1647.1	2.8611e-05	3.1207e-05	1415	388.72	2.8713e-05	3.1479e-05	468.21	157.22	138.35	48.755	2.8861e-05	60.369	-28.182	-51.619	-22.044	-88.364	137.885	42.924	-88.593	-83.799	185.769	-5.364	-84.397	-79.965	-79.427	-75.055	42.441	-75.564	-8191	255	
1481.644	1	1	0	0	0.19956	0.25171	0.12609	0.15168	0.16692	0.15224	0.13708	0.26859	0.238	0.17402	0.05349	0.1128	0.26624	0.019155	0.046572	0.17065	-2.7271	-2.7354	-2.5125	-3.0708	-2.6729	-2.8646	-3.1104	-2.7062	-2.9958	-2.7667	-2.85	-3.1792	-2.7542	-2.9333	-3.0687	-2.7979	238.830	-47.752	227.573	207.471	193.727	20.519	199.654	220.034	-88.144	108.404	35.183	-78.938	215.427	184.994	-5.061	227.782	0.0011386	0.00095455	7.8558e-05	1295	7.422e-06	1.1821e-05	1298.1	351.17	1.5805e-05	1.7067e-05	408.29	138.38	119.72	41.167	1.747e-05	51.226	0.0026477	0.0028483	0.00074671	1646.6	3.058e-05	3.1209e-05	1415.2	388.23	3.0296e-05	3.0582e-05	466.32	157.13	138.76	48.397	2.7611e-05	60.135	-7.921	-4.044	215.092	-88.544	252.573	13.538	-88.522	-83.848	242.454	46.793	-84.601	-79.899	-79.452	-74.826	14.203	-75.948	-8191	255	
1481.715	1	1	0	0	0.070554	0.10946	0.087263	0.16947	0.099474	0.19566	0.14107	0.33105	0.10267	0.071672	0.18422	0.11765	0.3179	0.28735	0.21434	0.35399	-2.5208	-2.8604	-2.5687	-2.9688	-2.8021	-2.7771	-3.0375	-2.4688	-3.0583	-2.9	-2.6271	-3.0563	-2.6958	-2.8375	-2.975	-2.5896	-35.006	-75.886	-75.923	241.400	14.569	-3.055	171.917	181.195	147.851	239.226	250.734	-3.803	169.365	230.301	1.592	121.837	0.0006063	0.0009919	0.00038976	1289.3	8.6815e-06	1.1707e-05	1302.6	353.46	1.6456e-05	9.6726e-06	406.66	138.27	119.6	41.223	5.5832e-06	51.11	0.0026578	0.0026466	0.00070045	1634.7	3.0131e-05	2.8613e-05	1404.3	387.98	2.9549e-05	2.794e-05	460.67	156.8	137.9	47.81	2.5401e-05	60.035	7.688	-21.446	25.377	-88.524	170.247	-0.828	-88.576	-83.792	-19.117	69.706	-84.242	-80.025	-79.381	-74.983	-25.102	-75.954	-8191	255	
1481.811	1	1	0	0	0.24147	0.28818	0.18616	0.21174	0.22308	0.060033	0.095671	0.13084	0.12467	0.19799	0.17431	0.059325	0.12589	0.17414	0.11374	0.2338	-2.625	-2.8646	-2.6542	-3.2	-2.5833	-2.4437	-3.2896	-2.7833	-2.8187	-2.8896	-2.5083	-3.0771	-2.6479	-2.8688	-2.8958	-2.675	253.482	150.835	234.819	207.079	-12.354	23.310	102.772	169.687	254.973	23.979	186.519	153.014	-64.232	135.091	116.387	103.654	0.00060679	0.0016321	0.00054937	1283.7	8.9912e-06	1.3355e-05	1293.5	352.2	4.8739e-06	7.0488e-06	405.86	137.49	119.29	41.1	6.1293e-06	51.167	0.0025724	0.0024699	0.0006548	1639.9	2.8884e-05	2.7173e-05	1394	387.86	2.8732e-05	2.6792e-05	457.82	157.01	137.18	47.586	2.4803e-05	60.424	-36.948	-52.213	-14.391	-88.103	21.197	21.700	-88.334	-83.658	-38.907	31.481	-84.443	-79.884	-79.230	-74.800	61.538	-75.951	-8191	255	
1481.932	1	1	0	0	0.2654	0.10207	0.16962	0.26224	0.14368	0.18686	0.20086	0.345	0.12613	0.052703	0.36215	0.34447	0.21056	0.32227	0.22303	0.117	-2.45	-2.8979	-2.5708	-2.9521	-2.5687	-2.5979	-3.125	-2.6729	-2.7042	-2.7812	-2.5625	-2.9229	-2.95	-2.5083	-2.9771	-2.6458	13.252	33.436	181.176	175.966	-37.005	188.624	181.275	188.562	223.303	39.664	241.337	227.262	215.883	222.495	-67.140	-5.031	0.00055954	0.00082518	6.8861e-05	1281.6	5.5745e-06	1.2403e-05	1288.8	351.57	8.0407e-06	1.2993e-05	406.47	138.16	119.06	41.402	1.0627e-05	50.99	0.0025035	0.0023981	0.00064157	1651.6	2.7802e-05	2.6412e-05	1387.2	388.55	2.7533e-05	2.5725e-05	456.74	157.45	135.71	47.3	2.4795e-05	60.334	16.409	47.811	241.240	-88.664	69.011	-31.225	-88.457	-83.731	23.791	87.056	-84.370	-80.057	-79.398	-74.952	204.047	-75.486	-8191	255	
1482.027	1	1	0	0	0.27023	0.020872	0.48343	0.29474	0.16572	0.25244	0.23166	0.24489	0.032428	0.13288	0.19725	0.23514	0.10375	0.27841	0.02779	0.37092	-2.3708	-2.9708	-2.4688	-2.8479	-2.8875	-2.3937	-3.2042	-2.8	-2.5917	-2.9083	-2.8833	-2.9375	-2.8812	-2.5354	-2.9854	-2.7812	106.210	16.705	-39.962	-67.497	52.060	21.296	215.386	214.285	46.421	162.937	152.440	198.110	203.132	246.285	7.589	181.504	0.00034177	0.0010925	0.0003181	1275.4	8.2825e-06	7.7196e-06	1283.4	350.8	1.095e-05	1.1326e-05	404.44	137.78	119.22	41.032	4.1925e-06	51.419	0.0023657	0.0022498	0.00063897	1640.3	2.5578e-05	2.4214e-05	1379	385.4	2.4648e-05	2.283e-05	453.23	155.46	133.78	46.465	2.3723e-05	59.442	5.121	-23.707	126.809	-88.136	165.022	52.262	-88.422	-83.800	-100.037	13.143	-84.432	-80.003	-79.358	-74.805	208.579	-75.417	-8191	255	
1482.123	1	1	0	0	0.21696	0.1789	0.096468	0.11174	0.10423	0.045261	0.37374	0.19406	0.18261	0.10891	0.2725	0.11527	0.12427	0.11329	0.14315	0.10368	-2.1479	-2.9125	-2.4792	-2.9208	-2.8958	-2.3063	-3.05	-2.8937	-2.4917	-3.0312	-2.9042	-2.8063	-3.1229	-2.5792	-2.7917	-2.5917	127.872	64.308	144.212	99.470	100.518	-72.900	240.184	-90.854	96.188	-42.816	-28.683	-37.520	246.118	247.989	226.207	4.271	0.00042091	0.00072908	6.5072e-05	1277.9	8.1259e-06	7.5225e-06	1281.7	350.27	1.7706e-05	7.6413e-06	403.8	137.6	118.48	41.248	5.6066e-06	51.049	0.0021214	0.0020226	0.00061807	1602.9	2.3581e-05	2.2671e-05	1380.8	382.91	2.4074e-05	2.2566e-05	457.13	155.25	133.57	46.7	2.6165e-05	59.506	-21.162	-84.561	199.171	-88.340	83.273	45.706	-88.630	-83.747	53.818	117.584	-84.329	-80.018	-79.336	-74.984	224.349	-75.736	-8191	255	
1482.243	1	1	0	0	0.2334	0.10153	0.23733	0.13301	0.14968	0.074347	0.16455	0.19604	0.12422	0.17978	0.064805	0.32061	0.087685	0.19584	0.27565	0.12634	-2.0542	-2.8667	-2.5646	-2.6896	-2.9854	-2.4938	-3.2208	-2.775	-2.4854	-2.8208	-2.9313	-2.7708	-3.0604	-2.55	-2.9146	-3.0271	-43.912	-81.532	31.852	-61.494	157.476	-64.344	126.187	181.382	-76.034	231.838	167.896	-36.474	-90.740	-88.460	41.067	207.262	0.00051904	0.0013461	0.0003407	1284.2	1.3228e-05	7.0388e-06	1285.5	349.88	1.2425e-05	1.6147e-06	405.94	137.67	118.97	40.893	1.1147e-05	51.061	0.0022019	0.0021766	0.00068907	1622.8	2.4659e-05	2.4667e-05	1397.8	384.77	2.533e-05	2.5035e-05	463.5	156.28	134.31	47.251	2.8924e-05	59.873	-32.097	222.103	101.832	-88.377	68.992	173.279	-88.448	-83.785	-70.907	-39.770	-84.270	-79.943	-79.345	-75.163	-39.281	-75.716	-8191	255	
1482.315	1	1	0	0	0.18255	0.12399	0.067688	0.22546	0.19385	0.042384	0.192	0.17258	0.067839	0.09786	0.10929	0.1941	0.31582	0.2529	0.12322	0.14698	-2.1562	-2.9542	-2.7313	-2.7979	-3.0062	-2.4875	-3.1667	-3.0604	-2.6208	-2.8521	-2.8979	-2.9083	-3.1104	-2.6396	-2.8375	-2.9562	-1.648	-68.993	-82.005	213.852	181.197	195.472	195.444	-85.030	-33.617	-71.274	-65.887	242.906	194.721	213.111	247.555	121.531	0.00015496	0.0016123	0.00022164	1289.9	6.5665e-06	7.2608e-06	1290.6	351.3	1.3427e-05	6.1129e-06	406.77	137.24	118.76	40.985	8.1436e-06	50.916	0.0023357	0.0024771	0.00075827	1654.5	2.629e-05	2.8471e-05	1412.3	387.43	2.701e-05	2.9026e-05	468.12	157.41	135.21	48.147	3.0345e-05	60.05	-61.027	123.014	14.460	-88.181	45.265	99.943	-88.605	-83.739	19.681	-45.746	-84.474	-79.822	-79.428	-75.000	230.139	-75.761	-8191	255	
1482.411	1	1	0	0	0.20021	0.17291	0.13677	0.22761	0.25927	0.20752	0.1454	0.089229	0.24158	0.053587	0.2747	0.10702	0.12462	0.12626	0.19466	0.36292	-2.2333	-2.8625	-2.7583	-2.7292	-3.0458	-2.8646	-2.8937	-3.1	-2.5458	-2.8979	-2.8688	-2.7062	-3	-2.7167	-2.7604	-2.9792	92.043	-28.478	81.864	-65.585	167.940	75.844	248.116	3.505	131.849	240.202	-81.201	229.797	-64.906	230.996	-29.660	221.916	0.00040481	0.00075129	0.00053409	1290.6	1.0036e-05	8.4136e-06	1289.8	350.78	1.495e-05	8.2999e-06	407.84	137.34	118.75	40.994	7.289e-06	50.754	0.0023939	0.0027026	0.0007541	1652.5	2.6215e-05	2.9452e-05	1407.8	385.58	2.5936e-05	2.8797e-05	462.69	155.54	134.19	47.702	2.714e-05	58.982	5.547	133.846	7.749	-88.290	132.581	208.680	-88.600	-83.849	-78.800	178.381	-84.366	-80.216	-79.297	-75.027	102.447	-75.592	-8191	255	
1482.532	1	1	0	0	0.11739	0.18909	0.048536	0.16445	0.13556	0.25235	0.37877	0.16049	0.038284	0.24032	0.21173	0.16681	0.095997	0.20692	0.21566	0.21455	-2.0958	-2.9896	-2.7521	-2.4167	-3.0458	-2.6354	-2.7313	-3.1208	-2.6021	-3.1021	-2.9146	-2.5208	-3.0167	-2.6083	-2.5896	-3.1063	35.736	90.432	99.492	88.687	212.363	35.844	166.250	117.947	254.846	13.334	133.635	172.877	224.298	177.848	-15.487	-64.025	0.00078538	0.00074518	0.00022627	1282.5	8.1514e-06	1.1433e-05	1285.3	350.24	1.0447e-05	5.6369e-06	405.1	137.64	118.3	41.068	6.8319e-06	50.655	0.002243	0.0025665	0.00067464	1606.8	2.5134e-05	2.8223e-05	1391.1	382.14	2.5921e-05	2.8602e-05	459.03	154.9	134.96	47.771	2.7038e-05	58.991	-61.343	191.427	-40.070	-88.405	179.146	27.420	-88.483	-83.890	153.861	10.137	-84.367	-79.912	-79.509	-74.942	76.487	-75.654	-8191	255	
1482.628	1	1	0	0	0.38255	0.040082	0.077376	0.17317	0.15714	0.12756	0.079962	0.28341	0.18125	0.20294	0.30818	0.30597	0.20602	0.18034	0.19642	0.15536	-2.1083	-2.5875	-2.85	-2.4979	-2.9437	-2.6042	-2.9542	-2.9958	-2.375	-2.9833	-3.0833	-2.5563	-3.2188	-2.8646	-2.6083	-3.0771	-25.683	-61.296	108.028	166.689	43.226	82.148	133.557	149.809	48.130	237.568	244.372	214.155	223.218	167.264	195.346	236.244	0.00091871	0.0011482	0.00047382	1280.3	1.2713e-05	1.0601e-05	1291.8	350.04	2.1172e-05	1.5321e-05	404.03	137.17	118.61	40.997	1.1714e-05	50.996	0.0024267	0.0026419	0.00067672	1604.2	2.7054e-05	2.8193e-05	1392.3	381.95	2.7185e-05	2.7862e-05	456.16	154.3	135.77	47.37	2.5843e-05	58.625	-22.484	-33.890	-56.261	-88.204	215.031	15.428	-88.396	-83.747	168.308	27.165	-84.510	-79.857	-79.413	-74.787	97.285	-75.658	-8191	255	
1482.724	1	1	0	0	0.11122	0.25305	0.17858	0.12313	0.11678	0.19728	0.212	0.2616	0.093108	0.1907	0.12341	0.17436	0.24675	0.13423	0.14796	0.13293	-2.0104	-2.7125	-2.7854	-2.5125	-2.8312	-2.8396	-2.5917	-3.0792	-2.6104	-2.6271	-3.1917	-2.6146	-3.0396	-2.8667	-2.625	-3.1854	173.001	198.515	-60.533	254.263	236.513	25.953	166.449	235.805	191.006	-2.360	242.382	254.980	250.763	-14.708	221.429	200.457	0.00051557	0.00090392	0.00046572	1282.1	1.283e-06	1.264e-05	1288	350.23	3.9907e-06	2.1817e-06	404.47	137.13	118.47	41.026	3.0426e-06	50.648	0.0024636	0.0024939	0.00064717	1602	2.7838e-05	2.6966e-05	1387.2	382.28	2.8101e-05	2.7045e-05	455.48	154.53	136.23	47.222	2.5106e-05	58.926	-17.097	-68.455	-18.188	-88.216	-30.066	46.076	-88.573	-83.811	230.983	44.231	-84.151	-79.919	-79.412	-75.095	149.748	-75.814	-8191	255	
1482.820	1	1	0	0	0.33578	0.20068	0.098625	0.1587	0.12502	0.13571	0.071373	0.42502	0.25092	0.046331	0.17211	0.064465	0.25315	0.042561	0.1162	0.16443	-2.3604	-2.6708	-2.8646	-2.5062	-2.75	-2.6271	-2.8333	-3.0292	-2.5729	-2.7188	-2.8375	-2.6	-2.725	-2.8542	-2.6354	-3.0271	179.541	143.222	109.950	216.923	181.319	-36.253	226.522	194.244	27.093	217.792	179.681	66.596	245.453	108.443	0.001	201.385	0.00064179	0.00077838	0.00027413	1280.1	8.8145e-06	5.9303e-06	1280.8	350.38	8.4308e-06	7.1436e-06	403.28	136.24	118.87	40.886	1.6001e-05	50.628	0.0024798	0.0024016	0.0006196	1607	2.777e-05	2.5761e-05	1377.8	383.29	2.7483e-05	2.6062e-05	451.87	155.22	135.7	46.955	2.4311e-05	59.366	1.009	-35.657	-59.008	-88.553	72.316	68.501	-88.626	-83.916	-31.459	25.244	-84.026	-79.934	-79.315	-74.761	-0.160	-75.554	-8191	255	
1482.916	1	1	0	0	0.037074	0.2037	0.10917	0.18475	0.047116	0.12167	0.26113	0.10738	0.21008	0.2223	0.041342	0.33021	0.10676	0.062205	0.21981	0.098368	-2.3229	-2.5167	-2.8771	-2.5563	-2.9042	-2.9021	-2.85	-3.0479	-2.6854	-2.525	-3.1729	-2.6333	-2.9083	-2.8729	-2.4938	-2.9604	237.653	127.061	240.785	-82.071	221.239	80.802	142.321	225.006	71.243	-80.467	109.249	157.116	206.582	-16.772	195.005	116.875	0.0002277	0.00039213	0.00014473	1272.1	5.4948e-06	3.0907e-06	1279	349.27	4.9195e-06	1.2635e-05	403.29	136.73	117.9	40.882	8.877e-06	50.818	0.002417	0.0023473	0.00060791	1626.7	2.7009e-05	2.5131e-05	1374.9	384.33	2.6417e-05	2.5403e-05	451.32	155.82	134.83	46.675	2.444e-05	59.681	58.734	86.622	-61.128	-88.355	-25.523	134.839	-88.463	-83.715	6.784	82.305	-84.435	-80.045	-79.261	-74.724	156.276	-75.762	-8191	255	
1483.011	1	1	0	0	0.14912	0.16708	0.07163	0.054732	0.19491	0.10636	0.20766	0.20213	0.15917	0.29654	0.35153	0.14338	0.1497	0.090235	0.14536	0.40626	-2.4292	-2.4146	-2.8937	-2.6104	-2.5521	-2.7687	-2.6417	-2.8729	-2.7542	-2.6125	-3.0542	-2.8083	-2.8	-3.0771	-2.5354	-2.8958	96.991	-88.214	70.081	128.611	67.501	-56.210	162.435	195.913	243.005	114.678	207.218	-64.481	167.666	161.991	11.186	162.298	0.00045539	0.0013273	0.00032791	1272.4	5.2358e-06	1.5668e-05	1277.2	348.77	8.2479e-06	7.9875e-06	403.33	136.86	118.55	40.922	2.5213e-06	50.628	0.0023283	0.0022913	0.00061722	1633.8	2.6319e-05	2.4322e-05	1376.1	384.71	2.559e-05	2.4832e-05	453.87	155.8	134.34	46.479	2.5582e-05	59.615	32.862	-11.566	127.279	-88.528	131.795	65.613	-88.537	-83.747	-57.091	44.073	-84.413	-79.954	-79.418	-74.974	2.381	-75.558	-8191	255	
1483.107	1	1	0	0	0.099787	0.2907	0.25853	0.17681	0.02396	0.31846	0.41735	0.27518	0.10795	0.023473	0.18044	0.20168	0.10496	0.10881	0.18628	0.33061	-2.4646	-2.5812	-2.9188	-2.6437	-2.6542	-3.0979	-2.6854	-3.0958	-2.6708	-2.6063	-2.9979	-2.7438	-2.5812	-3.1375	-2.6104	-2.9396	202.283	253.658	-48.148	5.704	-14.384	133.772	171.683	-100.671	-16.172	201.474	222.103	125.760	164.053	-52.611	160.198	192.931	0.00044264	0.00066608	0.00013072	1271.5	4.1948e-06	1.0662e-05	1278.1	349.36	1.6346e-05	6.308e-06	403.8	136.99	118.16	40.719	7.6793e-06	50.807	0.0022592	0.0022369	0.00065463	1628.1	2.5733e-05	2.3893e-05	1382.9	384.53	2.5156e-05	2.4276e-05	457.33	155.23	133.91	46.36	2.6631e-05	59.413	0.759	-46.098	119.437	-88.382	80.971	17.385	-88.432	-83.789	0.277	15.483	-84.314	-79.914	-79.173	-74.929	-56.302	-75.491	-8191	255	
1483.205	1	1	0	0	0.25207	0.14454	0.095364	0.27548	0.017883	0.13236	0.20507	0.45366	0.094254	0.23482	0.24091	0.12322	0.1542	0.095115	0.045511	0.22572	-2.4583	-2.5104	-2.8312	-2.6312	-2.5875	-3.0708	-2.7708	-2.6854	-2.75	-2.6896	-3.1188	-2.8375	-2.5792	-2.7833	-2.6667	-2.6417	3.019	-95.589	-5.216	63.871	193.723	45.473	154.162	196.597	235.624	149.273	237.395	245.885	255.437	64.128	250.384	214.476	0.00022853	0.00055385	0.00029999	1268.8	9.3724e-06	1.3629e-06	1276.9	347.9	1.0542e-05	9.4937e-06	401.35	136.34	118.18	40.679	5.3962e-06	50.543	0.0022041	0.0022175	0.00068134	1614.3	2.5089e-05	2.3759e-05	1384.3	382.82	2.4315e-05	2.4426e-05	458.05	154.19	133.27	46.47	2.6934e-05	58.849	90.698	-93.716	255.277	-88.237	192.099	151.719	-88.522	-83.762	-2.931	231.908	-84.350	-79.701	-79.208	-74.816	-30.068	-75.694	-8191	255	
1483.324	1	1	0	0	0.12356	0.0040054	0.061659	0.16957	0.19555	0.4096	0.12152	0.13406	0.33923	0.21386	0.18812	0.13498	0.16819	0.13475	0.11169	0.25035	-2.5146	-2.4708	-2.8792	-2.7479	-2.4646	-3.0875	-2.7896	-2.75	-3.075	-2.5938	-3.0125	-2.9292	-2.6625	-3.0729	-2.7313	-2.7146	211.069	-29.458	181.037	-20.234	203.063	-96.506	20.777	254.069	236.633	211.216	183.822	245.166	-48.862	34.553	197.730	179.434	0.00064552	0.001076	5.775e-05	1277	7.1713e-06	6.6209e-06	1276.2	349.86	7.797e-06	7.3015e-06	403.37	136.15	118.42	40.732	1.4347e-05	50.487	0.0021208	0.0022598	0.00068961	1593.9	2.4107e-05	2.4708e-05	1383.8	381.93	2.3372e-05	2.5298e-05	458.23	153.6	132.71	46.744	2.6482e-05	58.658	-7.591	72.553	58.773	-88.153	50.301	187.445	-88.577	-83.652	44.354	184.642	-84.570	-79.977	-79.226	-74.971	18.445	-75.831	-8191	255	
1483.420	1	1	0	0	0.080466	0.059504	0.13328	0.2449	0.20171	0.13138	0.22726	0.22653	0.15505	0.016943	0.28786	0.14475	0.1071	0.087682	0.27481	0.21891	-2.4917	-2.5208	-2.875	-2.9125	-2.5312	-2.9375	-2.9229	-2.7417	-2.975	-2.6167	-2.7854	-2.8521	-2.55	-3.0021	-2.7021	-2.6042	61.319	-29.086	-6.398	80.309	255.844	78.068	222.906	-53.580	133.197	248.904	182.851	146.648	175.477	206.972	12.003	-83.700	0.00046743	0.00085973	7.6028e-05	1276	2.9094e-06	1.459e-05	1275.7	348.47	4.5789e-06	8.9059e-06	402.86	136.43	118.32	40.825	1.1837e-05	50.647	0.002065	0.0023721	0.00067342	1584.4	2.3633e-05	2.5973e-05	1378.9	381.2	2.3051e-05	2.6384e-05	454.62	152.87	132.37	46.905	2.5186e-05	58.298	-5.911	61.893	-2.898	-88.187	90.644	142.362	-88.371	-83.664	144.937	-90.705	-84.289	-79.862	-79.391	-74.646	80.979	-75.411	-8191	255	
1483.516	1	1	0	0	0.26798	0.20591	0.24135	0.25392	0.1396	0.09467	0.10076	0.19129	0.19171	0.13291	0.38485	0.36901	0.11251	0.20136	0.047227	0.048746	-2.4938	-2.5333	-2.7125	-2.9125	-2.5375	-2.925	-2.9146	-2.5917	-3.1521	-2.5896	-2.7521	-3.1229	-2.7	-3.0271	-2.8937	-2.4604	28.558	25.034	99.438	-64.908	173.012	125.398	182.407	217.583	174.361	178.814	214.552	123.791	-98.718	-94.955	-5.802	245.387	0.00049882	0.00088998	0.00019135	1278	2.7585e-06	2.1372e-06	1276.8	350.19	7.8303e-06	1.3635e-05	402.52	136.96	117.63	40.726	2.107e-05	50.47	0.0020436	0.0023897	0.00063949	1562.5	2.3371e-05	2.5974e-05	1371.3	378.79	2.3048e-05	2.6031e-05	451.42	151.97	132.32	46.795	2.3759e-05	57.911	-39.477	-91.906	29.349	-88.326	41.349	0.867	-88.486	-83.613	154.320	31.228	-84.525	-79.764	-79.501	-74.715	37.972	-75.446	-8191	255	
1483.612	1	1	0	0	0.14868	0.3349	0.13211	0.12612	0.12623	0.22282	0.22449	0.30043	0.14431	0.23796	0.34033	0.23137	0.23561	0.16755	0.14472	0.18513	-2.4	-2.6	-2.5896	-3.0396	-2.7313	-2.9437	-3.0687	-2.6771	-3.0708	-2.5938	-2.7396	-2.9792	-2.5708	-2.9437	-2.9625	-2.525	-81.398	170.197	-47.876	129.159	222.186	171.155	188.997	142.437	45.806	57.585	204.629	170.496	-85.906	182.911	201.445	215.532	0.00059981	0.00049478	9.8029e-05	1274.6	1.1992e-05	6.201e-06	1274.2	347.03	1.1708e-05	2.135e-06	399.74	136.1	117.62	40.962	1.1331e-05	50.498	0.0020983	0.0023514	0.00061057	1548.1	2.4253e-05	2.5641e-05	1365.8	377.04	2.4212e-05	2.5644e-05	450.32	151.35	133.4	46.782	2.3893e-05	57.904	-24.278	-44.888	-5.257	-88.151	212.922	53.459	-88.455	-83.823	157.264	87.371	-84.270	-79.929	-79.356	-74.744	25.863	-75.767	-8191	255	
1483.708	1	1	0	0	0.23577	0.065612	0.14215	0.083351	0.074449	0.076371	0.25528	0.27737	0.34504	0.23373	0.42023	0.1139	0.30941	0.15205	0.12506	0.057448	-2.5646	-2.6542	-2.5354	-3.2396	-2.575	-2.7167	-3.0104	-2.8646	-2.9042	-2.7854	-2.6312	-2.9813	-2.8229	-2.7854	-3.0792	-2.6333	191.963	20.999	244.737	13.786	-45.436	24.616	150.478	180.016	85.748	186.671	225.897	-91.633	249.352	246.708	-50.827	18.985	0.00052762	0.0011305	0.00024747	1272.4	2.1651e-06	1.1367e-05	1274.2	347.53	1.3665e-05	9.8394e-06	401.3	136.16	117.86	40.6	6.4653e-06	50.324	0.0022613	0.002355	0.00062022	1559	2.6276e-05	2.6068e-05	1370.2	379.01	2.6711e-05	2.6117e-05	452	152.67	134.91	46.854	2.4357e-05	58.42	-40.438	12.846	145.313	-88.303	144.661	46.017	-88.314	-83.787	113.518	23.985	-84.154	-79.926	-79.419	-74.856	3.114	-75.878	-8191	255	
1483.804	1	1	0	0	0.31165	0.13814	0.18072	0.22424	0.050957	0.17736	0.16843	0.082611	0.33185	0.27039	0.37772	0.054434	0.20437	0.25969	0.27242	0.28166	-2.4771	-2.9021	-2.4292	-3.075	-2.6479	-2.7896	-3.1104	-2.8563	-3.0062	-2.9854	-2.6542	-3.1396	-2.825	-2.6104	-3.1417	-2.6354	-92.793	-13.299	145.854	161.108	167.664	72.498	203.609	-53.578	-8.835	-52.623	210.192	189.785	211.572	219.575	231.207	246.191	0.00030961	0.0010831	0.00045138	1272.1	3.9969e-06	1.1032e-05	1279.2	348.43	1.1118e-05	1.174e-05	402.96	136.45	117.65	40.875	1.1628e-05	50.336	0.0024402	0.0023744	0.00063058	1589.9	2.7677e-05	2.6088e-05	1373.2	381.34	2.7394e-05	2.5676e-05	451.46	154.01	134.67	46.754	2.3591e-05	58.88	-59.664	17.450	-34.610	-88.275	62.948	-24.104	-88.580	-83.855	-17.740	70.153	-84.399	-79.953	-79.342	-74.910	20.163	-75.553	-8191	255	
1483.925	1	1	0	0	0.06136	0.13707	0.22967	0.20235	0.12277	0.097539	0.14012	0.14818	0.13304	0.064776	0.30613	0.18092	0.13757	0.081719	0.22039	0.13779	-2.4688	-2.9229	-2.4104	-3.0708	-2.7979	-2.6208	-3.1375	-2.725	-2.6854	-2.8604	-2.6188	-3.1229	-3.0062	-2.7438	-2.9229	-2.8333	-4.660	35.476	-69.266	-63.553	-57.929	120.845	193.726	157.270	186.947	145.070	142.474	216.216	80.440	73.844	185.413	170.837	0.00032833	0.00091742	0.00013739	1276.4	6.5427e-06	1.1004e-05	1275	348.29	1.9897e-05	3.6508e-06	403.33	136.11	118.16	40.719	6.9184e-06	50.231	0.0024149	0.0023119	0.00061114	1615.1	2.7105e-05	2.5376e-05	1370.1	383.83	2.673e-05	2.5158e-05	451.75	155.13	134.51	46.647	2.3847e-05	59.284	258.132	4.249	70.952	-88.182	48.694	119.058	-88.599	-83.789	4.198	79.388	-84.478	-79.922	-79.456	-74.889	222.154	-75.625	-8191	255	
1484.021	1	1	0	0	0.11704	0.1809	0.23141	0.027007	0.062202	0.1035	0.062255	0.24225	0.13377	0.14335	0.094255	0.24876	0.029109	0.23705	0.089361	0.080264	-2.35	-2.8292	-2.3125	-2.8667	-2.7104	-2.5229	-3.0375	-2.7354	-2.7375	-2.9771	-2.8333	-2.8542	-2.9729	-2.6125	-3.0062	-2.7917	58.738	-31.377	-6.665	210.831	0.695	246.361	242.685	229.426	-75.560	176.217	-54.223	191.115	203.251	-89.274	-95.590	150.840	0.00037694	0.00087485	6.8286e-05	1273.8	4.791e-06	7.7297e-06	1274.5	349.08	2.6961e-06	1.4065e-05	401.15	136.54	117.72	40.54	9.5973e-06	50.363	0.0023632	0.0022708	0.00062332	1632.6	2.6175e-05	2.4844e-05	1373.6	384.81	2.5926e-05	2.4319e-05	452.74	155.43	133.5	46.347	2.4624e-05	59.203	42.597	-21.963	195.042	-88.397	55.433	-41.468	-88.436	-83.586	-58.711	73.892	-84.326	-79.894	-79.585	-74.875	251.741	-75.689	-8191	255	
1484.116	1	1	0	0	0.32617	0.14034	0.23387	0.17182	0.013254	0.3329	0.24884	0.3121	0.27877	0.15898	0.21824	0.12518	0.26889	0.13926	0.042411	0.12371	-2.2771	-2.7854	-2.6937	-3.0812	-2.9521	-2.3979	-3.15	-2.7833	-2.6917	-2.9708	-2.7042	-3.0042	-2.9417	-2.6917	-2.8958	-2.7667	28.386	-49.866	31.801	237.693	227.589	-1.602	227.019	-100.221	132.064	257.360	-45.302	250.039	-93.209	13.508	250.241	249.133	0.00034636	0.0016613	0.00032062	1275.7	8.6925e-06	1.1486e-05	1270.9	348.41	2.8187e-06	1.3712e-05	402.61	136.55	117.55	40.456	1.1486e-05	50.234	0.0022681	0.0021597	0.0006379	1622.1	2.4864e-05	2.3855e-05	1375.4	383.3	2.4911e-05	2.3121e-05	453.85	154.58	132.76	46.023	2.5351e-05	58.63	15.392	9.851	74.528	-87.982	135.235	81.048	-88.499	-83.663	75.990	50.638	-84.305	-80.106	-79.348	-74.765	167.755	-75.734	-8191	255	
1484.212	1	1	0	0	0.12299	0.13657	0.06975	0.19067	0.29101	0.14977	0.20724	0.14598	0.059953	0.14848	0.23931	0.25361	0.22047	0.11836	0.29462	0.1874	-2.3833	-3.0875	-2.4396	-2.8063	-2.7229	-2.3958	-3.1792	-3.0167	-2.4646	-2.8875	-2.775	-2.8812	-2.9813	-2.6396	-2.8542	-2.7958	128.566	-26.790	205.308	-39.237	-3.342	216.655	204.126	192.994	148.288	-69.022	-39.224	148.303	-48.856	165.568	68.060	214.566	0.00047255	0.00051139	0.00014195	1275.3	9.8723e-06	5.4947e-06	1273.6	348.66	1.4958e-05	8.1113e-06	402.48	136.08	117.67	40.55	6.5123e-07	50.304	0.0021734	0.0020878	0.00065523	1603.7	2.3997e-05	2.3259e-05	1376.5	380.8	2.3954e-05	2.2928e-05	455.11	153.23	131.94	46.054	2.5984e-05	58.263	14.225	-34.089	144.730	-88.117	32.822	254.282	-88.613	-83.725	-11.210	189.996	-84.294	-79.913	-79.587	-74.614	42.993	-75.411	-8191	255	
1484.308	1	1	0	0	0.28824	0.24199	0.16791	0.22237	0.085987	0.16547	0.010549	0.085258	0.1105	0.015042	0.12215	0.15246	0.28506	0.39589	0.1996	0.17213	-2.1521	-3	-2.5396	-2.7875	-3.0958	-2.5938	-3	-3.0042	-2.5812	-2.9562	-2.5667	-2.675	-2.9958	-2.7333	-2.9125	-2.6854	-48.850	89.425	83.158	94.780	16.840	-18.640	219.380	93.762	22.932	136.974	13.336	224.666	-36.762	252.823	75.867	186.234	0.00054046	0.00061701	0.00010053	1267.2	5.5899e-06	9.363e-06	1273.9	348.25	7.2421e-06	3.5976e-06	401.97	135.35	118.07	40.317	1.0288e-05	50.353	0.0021058	0.0021238	0.0006618	1580.9	2.2995e-05	2.3736e-05	1376.9	379.34	2.2966e-05	2.3514e-05	453.91	152.36	131.16	46.165	2.5265e-05	57.77	5.006	57.530	38.742	-87.847	29.716	145.395	-88.339	-83.727	19.717	102.556	-84.524	-79.843	-79.061	-74.738	101.255	-75.677	-8191	255	
1484.404	1	1	0	0	0.071041	0.19851	0.040701	0.23033	0.041181	0.24608	0.24501	0.20789	0.15857	0.24714	0.24207	0.33692	0.17782	0.13366	0.34781	0.018235	-1.9312	-2.9188	-2.6271	-2.6229	-2.8896	-2.6083	-3.1625	-2.9521	-2.5708	-2.8958	-2.8187	-2.6125	-3.0583	-2.5917	-2.7771	-2.7687	160.486	15.847	-10.178	106.763	210.927	203.717	210.416	206.562	144.768	-87.173	165.730	216.284	257.500	-20.003	43.742	9.877	0.00056957	0.00030307	0.0001918	1269.8	4.8737e-06	8.4195e-06	1275.9	346.6	6.4673e-06	2.9278e-06	401.79	135.88	117.31	40.591	5.9949e-06	50.104	0.0019982	0.0021943	0.0006374	1567.9	2.1796e-05	2.4358e-05	1371.3	377.03	2.1977e-05	2.4122e-05	450.28	151.73	130.36	46.32	2.3965e-05	57.386	-0.443	180.598	-92.334	-88.323	-6.515	243.618	-88.446	-83.766	-47.533	222.885	-84.430	-80.048	-79.491	-74.660	-10.370	-75.717	-8191	255	
1484.500	1	1	0	0	0.1613	0.040509	0.1096	0.066467	0.22134	0.12853	0.20608	0.25383	0.18896	0.1783	0.23666	0.22791	0.13541	0.19432	0.078472	0.19994	-1.9958	-2.8625	-2.9104	-2.5312	-2.9667	-2.5833	-2.9062	-3.0625	-2.4125	-2.8521	-3.05	-2.6396	-2.9083	-2.775	-2.6375	-3.1542	37.351	-46.071	69.474	170.745	194.003	-45.481	192.587	158.131	-100.698	-32.714	-17.338	-93.989	-71.747	192.017	197.411	188.921	0.00060033	0.00058614	0.00051781	1273.5	8.3599e-06	5.2292e-06	1269.6	346.48	1.4227e-05	6.2565e-06	401.62	136.1	116.96	40.451	9.4386e-06	49.966	0.0019408	0.0022066	0.00059843	1542.1	2.1339e-05	2.4295e-05	1361.1	374.52	2.1611e-05	2.4135e-05	446.68	150.37	130.28	46.118	2.264e-05	56.87	-3.223	73.142	-67.024	-88.335	175.484	-56.468	-88.432	-83.641	236.546	191.282	-84.540	-79.816	-79.222	-74.775	-59.383	-75.499	-8191	255	
1484.621	1	1	0	0	0.15314	0.25723	0.35794	0.23197	0.10676	0.13459	0.22503	0.21929	0.079384	0.10279	0.095597	0.043108	0.1178	0.15516	0.20868	0.1414	-2.0062	-2.7938	-2.7021	-2.4271	-3.0021	-2.7292	-2.775	-3.2604	-2.7292	-2.875	-3.1042	-2.7625	-3.2354	-2.8021	-2.7396	-2.9	35.532	-52.580	-89.846	-99.337	118.700	-74.896	214.736	229.772	169.237	-45.860	243.768	134.186	154.715	40.659	28.450	224.566	0.00089949	0.00092574	0.00031673	1261	2.367e-06	1.269e-05	1270.6	346.21	1.7414e-05	7.7682e-06	399.86	135.85	117.45	40.534	5.0069e-06	50.036	0.0019903	0.0022345	0.00057777	1533	2.2643e-05	2.4586e-05	1358.7	374.07	2.2945e-05	2.4356e-05	445.27	150.3	131.52	46.189	2.2521e-05	56.698	-36.601	-31.591	-7.607	-88.193	17.372	35.904	-88.343	-83.602	193.309	-20.675	-84.395	-79.904	-79.348	-74.827	72.982	-75.405	-8191	255	
1484.717	1	1	0	0	0.24901	0.10097	0.11377	0.093147	0.19744	0.17014	0.20403	0.18865	0.21378	0.093316	0.076083	0.14886	0.12041	0.10848	0.30329	0.26494	-2.0917	-2.6437	-2.7854	-2.5563	-3.0458	-2.7562	-2.6542	-3.0062	-2.6167	-2.625	-2.9104	-2.5979	-3.0521	-2.7521	-2.3	-2.9083	-81.442	-12.796	20.779	233.115	244.065	132.324	138.005	193.855	158.266	37.008	-100.561	70.004	216.799	-27.857	140.535	212.989	0.00077726	0.00062934	0.00013085	1267.5	4.5709e-06	8.6785e-06	1265	347.3	1.5664e-05	9.8014e-06	400.45	135.74	117.17	40.658	6.6068e-06	49.877	0.0020948	0.0021752	0.00056337	1523.7	2.3503e-05	2.3392e-05	1353	373.42	2.3488e-05	2.3302e-05	443.16	150.18	131.69	45.798	2.1645e-05	56.827	-15.710	-8.764	-45.401	-88.118	-86.274	78.610	-88.444	-83.811	113.646	10.857	-84.237	-80.042	-79.090	-74.959	41.216	-75.593	-8191	255	
1484.811	1	1	0	0	0.071302	0.10975	0.11038	0.51428	0.26304	0.071662	0.38753	0.09468	0.1925	0.072449	0.22215	0.084333	0.16555	0.20178	0.12577	0.30958	-2.1771	-2.6958	-2.9333	-2.5333	-2.8771	-2.8542	-2.6542	-3.075	-2.5354	-2.6646	-3.125	-2.5583	-2.9458	-2.8792	-2.5396	-3.0438	18.134	232.668	24.757	146.916	-25.293	13.640	257.834	170.163	-33.114	-18.811	218.468	-36.906	203.640	219.323	129.468	-96.175	0.00056547	0.0017016	0.00029187	1255.5	6.554e-06	1.26e-05	1267.3	346.24	1.1969e-05	7.5792e-06	400.22	135.39	117.47	40.419	1.0461e-05	50.08	0.0021233	0.0020912	0.00053635	1525.7	2.3856e-05	2.254e-05	1347.1	374.09	2.379e-05	2.247e-05	440.3	150.38	131.62	45.513	2.079e-05	57.035	-40.407	-28.478	-48.971	-88.069	-67.659	40.240	-88.291	-83.742	74.516	91.992	-84.522	-80.013	-79.403	-74.747	84.288	-75.605	-8191	255	
1484.885	1	1	0	0	0.038586	0.21329	0.02496	0.1752	0.12069	0.092607	0.19275	0.11834	0.12938	0.23049	0.30935	0.28609	0.080227	0.18045	0.2463	0.21237	-2.1542	-2.5125	-2.9958	-2.6354	-2.7979	-2.8875	-2.8583	-2.9333	-2.7542	-2.6833	-3.1458	-2.7292	-2.6958	-2.9062	-2.5583	-3.0375	-46.983	67.431	62.295	-42.693	80.445	100.325	-85.750	121.355	101.032	228.513	-89.708	155.655	-87.669	176.859	178.893	-62.571	0.00057702	0.00016465	3.2167e-05	1257.2	6.1187e-06	1.1182e-05	1260.3	346.44	1.9016e-05	8.884e-06	401.3	135.42	117.11	40.511	2.8199e-06	50.25	0.0020797	0.0020071	0.00050932	1531.2	2.3047e-05	2.1319e-05	1339.7	374.95	2.2713e-05	2.1523e-05	438.84	150.63	130.86	45.305	2.0414e-05	57.408	12.973	89.768	228.119	-88.350	135.410	54.391	-88.418	-83.680	-19.834	41.802	-84.426	-80.037	-79.385	-74.961	-19.340	-75.864	-8191	255	
1485.004	1	1	0	0	0.25969	0.12964	0.14549	0.10795	0.14966	0.24774	0.40694	0.094585	0.21904	0.25703	0.11067	0.053116	0.24205	0.087825	0.30044	0.35621	-2.4354	-2.5917	-3.0417	-2.6	-2.7333	-2.975	-2.8792	-3.1104	-2.7083	-2.7625	-3.1646	-2.7104	-2.9083	-3.0854	-2.725	-2.8875	133.089	166.836	75.002	220.615	-34.489	149.238	191.402	49.790	136.285	99.439	-86.892	227.207	117.599	237.093	252.321	193.343	0.00046138	0.0011121	0.00011159	1251.8	9.2002e-06	1.1103e-05	1259.6	346.37	9.7585e-06	7.0672e-06	399.27	135.29	116.67	40.658	1.3411e-05	49.921	0.0020034	0.0019612	0.00051843	1550.6	2.2683e-05	2.1092e-05	1343.9	376.08	2.228e-05	2.1373e-05	440.27	151.19	130.43	45.27	2.1219e-05	57.562	-7.008	-21.890	252.140	-88.706	80.692	0.469	-88.486	-83.598	-70.145	-21.631	-84.277	-80.080	-79.507	-75.060	219.477	-75.732	-8191	255	
1485.100	1	1	0	0	0.0397	0.088374	0.077596	0.093708	0.26011	0.11636	0.093807	0.26381	0.13508	0.13558	0.13128	0.41248	0.13941	0.40303	0.13018	0.32926	-2.5479	-2.3542	-2.8417	-2.6458	-2.6917	-3.0229	-2.9396	-2.8125	-2.8479	-2.5479	-3.15	-2.6625	-2.7958	-3.1042	-2.625	-2.8021	-81.988	222.806	-13.813	-14.630	-96.381	-31.406	-62.567	250.271	67.622	170.245	109.700	247.002	-78.480	-85.395	-26.810	-61.749	0.00032405	0.00044008	0.00022346	1254.7	7.5438e-06	6.5196e-06	1262.5	346.32	4.1364e-06	1.0117e-05	399.01	135.3	116.97	40.402	7.5101e-06	50.094	0.0019461	0.0019178	0.00053911	1552.6	2.1919e-05	2.0408e-05	1348.3	376.27	2.1581e-05	2.0803e-05	442.9	151.1	130.31	45.095	2.2525e-05	57.595	-17.223	-87.385	89.606	-88.334	63.394	50.790	-88.533	-83.628	49.087	129.212	-84.246	-79.709	-79.262	-74.718	227.600	-75.664	-8191	255	
1485.196	1	1	0	0	0.031218	0.13498	0.075592	0.037243	0.31096	0.15284	0.22745	0.20175	0.074769	0.22474	0.18086	0.28015	0.18409	0.19866	0.085779	0.24739	-2.4646	-2.4167	-3.1	-2.6437	-2.5979	-2.9667	-2.7521	-2.7438	-2.8833	-2.625	-3.0021	-2.6188	-2.6063	-3.2604	-2.9	-2.8604	-53.107	-70.487	-62.178	-42.815	-7.184	187.832	198.603	146.239	155.610	-98.296	226.381	236.629	204.268	210.838	246.219	199.855	0.0004519	0.00084292	0.00013754	1261.4	7.2702e-06	5.0475e-06	1259.9	345.34	6.6537e-06	4.8604e-06	400.24	135.01	116.82	40.357	1.7586e-06	49.969	0.0019227	0.0018935	0.00057312	1548.5	2.1773e-05	2.0386e-05	1350.7	375.23	2.1214e-05	2.0778e-05	445.57	150.54	129.87	45.151	2.3242e-05	57.288	-5.887	-56.555	106.091	-88.417	26.499	-23.148	-88.614	-83.621	-77.908	58.607	-84.430	-79.849	-79.344	-74.805	-18.511	-75.329	-8191	255	
1485.292	1	1	0	0	0.06535	0.12847	0.091522	0.098856	0.03449	0.10145	0.3098	0.1387	0.23342	0.30129	0.2487	0.10057	0.12943	0.13506	0.24162	0.19852	-2.4458	-2.5438	-2.7313	-2.7354	-2.4062	-2.9229	-2.7958	-2.675	-2.8438	-2.5604	-2.9896	-2.9562	-2.6646	-2.9188	-2.6333	-2.6792	-0.252	9.639	34.329	34.737	129.809	-73.968	186.611	172.595	-89.945	200.778	203.416	-96.753	238.492	229.018	-9.398	73.895	0.00011806	0.00026525	0.00026086	1254.9	4.1814e-06	8.637e-06	1256.9	345.03	1.4654e-05	3.9221e-06	398.82	134.88	116.58	40.384	2.4926e-06	49.957	0.0018615	0.0019071	0.00058852	1525.5	2.0921e-05	2.0658e-05	1348.3	373.15	2.0105e-05	2.0895e-05	444.78	149.04	128.73	45.114	2.2168e-05	56.632	59.119	216.176	-93.405	-88.270	51.370	-16.550	-88.539	-83.682	-21.594	194.693	-84.358	-79.921	-79.461	-74.848	100.837	-75.519	-8191	255	
1485.413	1	1	0	0	0.32823	0.11105	0.11089	0.10868	0.27825	0.08226	0.41615	0.23689	0.4309	0.26574	0.21172	0.090879	0.098616	0.067398	0.12723	0.16351	-2.5062	-2.4167	-2.7188	-3.0646	-2.4146	-2.8792	-2.8604	-2.4583	-2.9	-2.4938	-2.8375	-2.8229	-2.65	-2.9708	-2.7542	-2.7104	78.920	242.535	77.914	-87.074	146.522	-95.703	200.005	182.437	239.922	214.466	198.747	229.025	-32.355	24.822	162.210	256.905	0.00053303	0.00046952	0.00014565	1246.6	7.1052e-06	8.7594e-06	1251.6	344.31	1.0255e-05	2.4725e-06	397.73	134.7	116.19	40.291	1.1138e-05	49.702	0.0017122	0.0018906	0.0005537	1494.3	1.9139e-05	2.0489e-05	1336.4	369.65	1.843e-05	2.0642e-05	438.94	147.68	127.42	44.963	2.0296e-05	55.916	13.999	-0.736	-49.665	-88.264	56.931	166.953	-88.324	-83.573	255.578	214.465	-84.306	-80.131	-79.167	-74.715	-19.056	-75.659	-8191	255	
1485.484	1	1	0	0	0.16413	0.39639	0.21551	0.14381	0.097108	0.14584	0.45065	0.32646	0.32474	0.17292	0.19044	0.090648	0.22458	0.20173	0.1973	0.046955	-2.575	-2.5938	-2.5	-2.8312	-2.7021	-2.9917	-2.8125	-2.5312	-3.0708	-2.7271	-2.9354	-2.9667	-2.5833	-3.125	-2.95	-2.675	40.495	11.041	138.984	-73.093	168.400	-68.821	196.482	-86.839	-73.305	131.055	-87.152	-81.191	111.318	-5.818	-79.035	216.220	0.00080359	0.00021806	0.00015676	1248.8	8.3706e-06	1.5062e-06	1248.6	344.13	4.247e-06	5.2689e-06	398.55	134.75	116.31	40.152	4.7775e-06	49.859	0.0015996	0.0018671	0.00050951	1468.6	1.8249e-05	2.0274e-05	1326.4	367.51	1.7909e-05	2.0555e-05	436.12	146.92	127.41	45.072	1.9236e-05	55.636	-4.307	176.232	46.963	-88.255	78.366	-21.313	-88.367	-83.759	191.841	97.312	-84.198	-79.643	-79.215	-74.545	17.801	-75.273	-8191	255	
1485.605	1	1	0	0	0.082951	0.22546	0.089066	0.079981	0.18705	0.17773	0.16784	0.096473	0.28603	0.19732	0.067031	0.082829	0.2026	0.4302	0.27317	0.21276	-2.4917	-2.7208	-2.5354	-3.0583	-2.3917	-2.8792	-3.0604	-2.6125	-3.1375	-2.7417	-2.6958	-2.9854	-2.5375	-2.8542	-2.7562	-2.5979	-36.694	243.404	66.084	-89.243	84.147	-61.803	-82.100	198.199	243.853	156.436	159.759	206.899	144.189	240.693	-17.758	197.073	0.00086405	0.00030769	0.00038349	1244.4	6.6963e-06	5.3198e-06	1247.3	343.48	6.1112e-06	1.0013e-05	397.64	134.19	116.31	40.378	7.206e-06	49.936	0.0016347	0.0018643	0.00048559	1452.4	1.87e-05	2.0361e-05	1321.1	366.35	1.8674e-05	2.0441e-05	434.69	146.21	128.16	45.048	1.8794e-05	55.675	-10.332	175.815	-62.692	-88.178	-63.115	-49.569	-88.254	-83.581	148.449	46.835	-84.138	-79.942	-79.261	-74.762	89.535	-75.463	-8191	255	
1485.701	1	1	0	0	0.12614	0.27417	0.1826	0.19655	0.075602	0.1313	0.2202	0.093871	0.053921	0.22458	0.10664	0.26	0.17516	0.12956	0.094439	0.17062	-2.4813	-2.5979	-2.5729	-2.9062	-2.4271	-2.9125	-3.0792	-2.5875	-2.8458	-2.7125	-2.5167	-3.0917	-2.5771	-2.7521	-2.8667	-2.5375	105.732	87.124	197.345	218.796	77.025	253.975	210.557	243.954	-21.067	194.860	125.660	239.902	-34.338	203.111	-89.594	170.213	0.00069514	0.00077667	9.7304e-05	1250.6	5.0671e-07	6.31e-06	1251.2	344.25	1.3931e-05	8.7395e-06	397.9	134.53	116.8	40.463	5.1888e-06	50.067	0.0017377	0.001869	0.00048474	1452	1.997e-05	2.0142e-05	1322.5	366.84	1.992e-05	2.0039e-05	434.1	146.44	128.89	45.052	1.8596e-05	55.811	-47.638	-21.087	-61.222	-88.302	-8.432	44.813	-88.225	-83.608	210.381	19.700	-84.184	-79.938	-79.214	-74.821	78.161	-75.670	-8191	255	
1485.796	1	1	0	0	0.064446	0.032689	0.29566	0.10212	0.20643	0.22837	0.18917	0.38421	0.22319	0.081384	0.29883	0.10278	0.12141	0.040987	0.23908	0.16065	-2.2542	-2.7667	-2.5187	-3.05	-2.6437	-2.7229	-3.0938	-2.7125	-3.0875	-2.8812	-2.5687	-3.0958	-2.6937	-2.8146	-2.9938	-2.7625	15.103	256.272	147.032	-68.810	10.613	245.053	249.180	-86.169	3.242	-28.342	-97.882	229.607	-7.055	64.277	-86.424	-63.273	0.00043978	0.00090664	0.00010236	1240.7	2.3539e-06	1.2878e-05	1251.1	343.52	7.2713e-06	1.1821e-05	397.29	134.45	117.16	40.613	9.9821e-06	50.128	0.0018383	0.0018203	0.00048209	1462.7	2.1019e-05	2.0054e-05	1322	367.95	2.1007e-05	1.9906e-05	434.98	147.9	129.56	45.045	1.8543e-05	56.406	-24.010	52.040	-91.956	-88.731	150.510	-20.328	-88.430	-83.869	109.086	22.656	-84.231	-79.901	-79.444	-74.687	72.898	-75.642	-8191	255	
1485.892	1	1	0	0	0.13365	0.088329	0.2535	0.041449	0.20408	0.26661	0.34104	0.34124	0.20588	0.052297	0.28691	0.36032	0.23884	0.19701	0.15557	0.087872	-2.4771	-2.7938	-2.5563	-2.9729	-2.6792	-2.5563	-3.0083	-2.6417	-2.875	-2.7792	-2.6229	-3.0125	-2.7313	-2.5438	-3.1104	-2.6562	154.584	57.827	-12.541	54.925	142.282	-40.859	216.723	207.749	137.483	144.826	163.012	203.416	40.472	231.984	47.970	208.671	0.00024683	0.00087261	5.9346e-05	1251	4.2649e-06	3.9785e-06	1254.5	344.67	1.2896e-05	1.2213e-05	397.25	135.32	116.76	40.472	4.613e-06	49.989	0.001908	0.0018166	0.00048581	1490.3	2.1601e-05	2.0409e-05	1327.6	371.31	2.1662e-05	2.0442e-05	436.62	149.67	130.1	45.316	1.9479e-05	57.141	-49.392	-53.588	229.834	-88.360	133.454	247.393	-88.400	-83.659	-26.084	17.403	-84.083	-80.005	-79.457	-74.917	181.837	-75.521	-8191	255	
1486.012	1	1	0	0	0.29033	0.24586	0.18583	0.18933	0.14385	0.095923	0.14894	0.32307	0.20243	0.11657	0.12149	0.20065	0.13395	0.098608	0.080937	0.047409	-2.3729	-2.9042	-2.5667	-3.0146	-2.7708	-2.6833	-3.0667	-2.7917	-2.6667	-3	-2.6063	-2.95	-2.8917	-2.6188	-2.875	-2.6208	124.583	-21.922	196.730	-86.796	173.543	22.832	191.287	257.961	63.545	-0.083	147.748	-93.134	-57.906	-88.813	-33.869	194.096	0.00043764	0.0014921	0.00026002	1248.4	6.0514e-06	3.675e-06	1257.6	345.3	1.3789e-05	6.9174e-06	397.95	135.74	116.65	40.354	3.1175e-06	50.189	0.0019813	0.0019032	0.00051321	1530.1	2.2291e-05	2.1224e-05	1334.8	374.72	2.2194e-05	2.096e-05	439.95	151.48	130.01	45.328	2.0893e-05	57.713	-11.702	-30.520	62.026	-88.309	57.202	58.297	-88.511	-83.790	53.676	57.333	-84.280	-79.830	-79.323	-74.897	106.228	-75.449	-8191	255	
1486.084	1	1	0	0	0.10813	0.068189	0.3001	0.043181	0.17095	0.15685	0.39957	0.28226	0.18396	0.2778	0.12174	0.10893	0.065625	0.14886	0.17036	0.41852	-2.1396	-3.0167	-2.5208	-2.825	-2.8354	-2.7396	-3.1063	-2.6979	-2.6542	-2.9521	-2.5271	-2.7375	-2.8771	-2.7771	-2.8937	-2.7604	-21.126	231.135	129.971	252.470	-15.638	47.352	205.357	184.915	148.830	36.702	203.298	194.509	204.842	-60.272	17.250	187.432	0.00061984	0.0004506	0.00018696	1253.5	5.6234e-06	6.8446e-06	1253.1	344.95	1.5484e-05	1.4298e-05	398.95	135.11	116.42	40.33	9.5958e-06	50.038	0.0019864	0.0019087	0.0005454	1548.1	2.2083e-05	2.1183e-05	1339.4	375.64	2.2225e-05	2.0857e-05	443.64	151.41	129.98	45.299	2.259e-05	57.72	7.793	8.145	1.372	-88.585	34.725	28.839	-88.485	-83.372	-3.356	-8.925	-84.194	-79.963	-79.440	-74.840	222.357	-75.688	-8191	255	
1486.180	1	1	0	0	0.11002	0.14441	0.26001	0.095185	0.10165	0.16091	0.20737	0.15277	0.098594	0.13541	0.26179	0.13508	0.36838	0.05363	0.080334	0.32803	-2.2062	-2.8187	-2.4313	-2.7771	-3.0479	-2.3979	-3.1	-2.7229	-2.7229	-2.9917	-2.7792	-2.8063	-2.8979	-2.6167	-3.0083	-2.7479	-89.128	-75.425	205.385	133.922	97.139	219.328	169.252	159.535	-83.749	-46.433	180.084	71.790	231.152	170.837	-27.235	49.013	0.00043143	0.0010789	0.00020012	1254.1	8.3708e-06	1.352e-06	1255.6	344.56	1.0053e-05	2.943e-06	398.03	134.38	116.28	40.272	9.8895e-06	49.78	0.0020299	0.0019299	0.00059871	1562.9	2.281e-05	2.186e-05	1352.1	376.21	2.2983e-05	2.1834e-05	448.85	151.71	130.52	45.502	2.4764e-05	57.712	-20.826	72.262	-21.170	-88.051	53.575	228.855	-88.276	-83.518	23.494	-31.443	-84.516	-79.657	-79.291	-74.783	243.036	-75.281	-8191	255	
1486.301	1	1	0	0	0.027267	0.079979	0.25951	0.23825	0.053536	0.053603	0.32184	0.065202	0.17512	0.20253	0.30369	0.22508	0.26456	0.24657	0.15222	0.13578	-2.1417	-3.0375	-2.5792	-2.8354	-3.0229	-2.4229	-3.1708	-2.8	-2.5417	-3.0708	-2.7625	-2.6188	-3.1063	-2.5292	-2.8104	-2.8479	85.423	139.251	50.603	203.792	153.263	100.085	198.620	165.803	61.509	196.793	239.667	250.167	-59.284	-82.936	-36.452	164.152	0.0003005	0.00035516	0.00031581	1258.1	7.4112e-06	5.7598e-06	1262.3	345.52	7.3685e-06	7.5136e-06	399.31	135.49	116.73	40.182	4.636e-06	49.926	0.0020586	0.0020219	0.0006383	1563.1	2.2574e-05	2.2646e-05	1359.6	375.78	2.2679e-05	2.2836e-05	451.15	151.61	130.14	45.7	2.5539e-05	57.502	7.430	175.170	70.592	-87.777	-5.446	111.540	-88.509	-83.849	-29.145	143.994	-84.346	-79.963	-79.370	-74.912	41.984	-75.946	-8191	255	
1486.395	1	1	0	0	0.1362	0.10552	0.16616	0.15679	0.30226	0.18093	0.13862	0.12562	0.19999	0.26316	0.28914	0.16193	0.10551	0.12667	0.28256	0.084367	-2.0271	-2.95	-2.5958	-2.7562	-2.8708	-2.6167	-3.0938	-3.2396	-2.4562	-2.9562	-2.6021	-2.8271	-2.9354	-2.6562	-2.7667	-3.0125	-93.661	43.173	-10.089	69.611	-27.433	24.661	177.774	221.575	97.939	-56.384	200.432	187.853	92.007	179.544	-91.669	-38.989	0.00019222	0.00083679	0.00020591	1254	4.3231e-06	7.408e-06	1259.5	344.97	4.0987e-06	5.3758e-06	399.66	135.44	116.53	40.251	9.6453e-06	49.798	0.0020321	0.0021539	0.00064828	1558.1	2.2302e-05	2.41e-05	1362.4	375.93	2.2433e-05	2.442e-05	450.09	151.32	130.07	46.114	2.5075e-05	57.345	-34.429	114.598	-55.643	-88.482	3.388	116.725	-88.272	-83.634	-83.879	185.729	-84.213	-79.835	-79.331	-74.831	-21.414	-75.742	-8191	255	
1486.491	1	1	0	0	0.26903	0.16622	0.084658	0.10612	0.1541	0.28522	0.3398	0.26746	0.24648	0.13268	0.1776	0.17958	0.29583	0.26726	0.23495	0.26471	-2.1604	-2.8812	-2.5917	-2.725	-2.8625	-2.6063	-2.9521	-3.0354	-2.4396	-2.8604	-2.8875	-2.4542	-3.0896	-2.6896	-2.625	-2.8229	-15.693	-59.644	198.706	196.829	87.368	-48.039	171.713	252.624	49.133	-1.041	49.484	228.311	-101.625	189.137	-43.678	205.164	0.00030499	0.00043372	0.00021726	1260.4	2.8223e-06	2.0704e-06	1258.9	345.27	3.9104e-06	7.1021e-06	399.81	134.63	116.11	40.279	6.178e-06	49.976	0.0020027	0.0022674	0.00063094	1551.8	2.1951e-05	2.5002e-05	1355.7	374.82	2.2282e-05	2.4977e-05	447.39	150.73	129.83	46.146	2.3866e-05	56.938	-29.325	176.036	-11.202	-88.265	241.510	19.458	-88.614	-83.659	77.757	-90.984	-84.184	-79.934	-79.395	-74.680	65.060	-75.495	-8191	255	
1486.588	1	1	0	0	0.22628	0.16318	0.14342	0.16008	0.21577	0.20032	0.24035	0.2045	0.26535	0.14467	0.036102	0.38735	0.088704	0.041696	0.14596	0.037631	-2.0208	-2.8417	-2.6458	-2.5167	-2.9458	-2.4854	-2.8896	-3.1125	-2.4083	-2.8667	-2.8583	-2.5083	-2.9229	-2.4562	-2.5625	-2.9917	172.238	-63.803	223.199	163.035	-99.533	-55.453	187.781	221.812	-51.309	-38.494	-33.334	206.704	210.524	96.942	-61.909	-47.277	0.00060632	0.00036308	0.0003572	1263	7.1691e-06	2.8471e-06	1263.5	345.23	1.9565e-05	8.4827e-06	400.62	135.17	116.28	40.312	1.6201e-05	49.783	0.002009	0.0022904	0.00059914	1535.8	2.2599e-05	2.5162e-05	1352.5	373.3	2.2873e-05	2.4922e-05	446.21	150.06	130.51	46.055	2.3052e-05	56.694	-20.798	95.359	-38.945	-88.229	205.233	-68.720	-88.412	-83.783	243.124	13.249	-84.476	-79.971	-79.098	-74.736	54.025	-75.702	-8191	255	
1486.684	1	1	0	0	0.13282	0.062197	0.1671	0.13115	0.18411	0.22515	0.33077	0.32527	0.31395	0.097803	0.094916	0.35463	0.21096	0.16013	0.092791	0.075148	-2.0646	-2.7458	-2.7625	-2.5771	-3.0438	-2.7292	-2.825	-3.0917	-2.6417	-2.8792	-3.0417	-2.7021	-2.8812	-2.8292	-2.6125	-3.1375	118.580	151.382	244.563	74.440	222.010	49.378	236.513	233.539	45.208	-22.590	-34.982	211.364	222.703	176.348	0.105	251.248	0.00090443	0.00035352	0.00016537	1258.4	2.2538e-06	1.1124e-05	1262.6	344.87	1.016e-05	6.0863e-06	400.81	135.34	116.23	40.246	5.1295e-06	50.115	0.0020803	0.0022309	0.00057267	1520.6	2.3347e-05	2.3949e-05	1346.2	372.11	2.3284e-05	2.3686e-05	443.23	149.43	130.96	45.682	2.1892e-05	56.523	-10.775	-4.566	44.416	-88.267	252.448	18.202	-88.322	-83.888	197.738	19.956	-84.102	-79.634	-79.090	-74.760	172.054	-75.834	-8191	255	
1486.780	1	1	0	0	0.24707	0.18193	0.16575	0.41409	0.17772	0.2649	0.29973	0.18704	0.10431	0.014854	0.40034	0.039731	0.15334	0.24687	0.1809	0.28164	-2.2958	-2.7792	-3.0083	-2.5208	-2.8896	-2.6604	-2.675	-3.1646	-2.7313	-2.6333	-3.0479	-2.4854	-2.9292	-2.8583	-2.5021	-3.0917	28.107	114.742	-69.481	182.322	168.390	-73.711	208.413	211.243	221.354	151.215	210.020	198.347	224.125	189.679	-39.508	241.876	0.00076722	0.0013028	9.0341e-05	1246.7	1.2474e-06	6.6962e-06	1258.2	345.4	1.0746e-05	4.1332e-06	399.95	134.93	116.51	40.3	4.5985e-06	49.966	0.0020976	0.0021026	0.00054273	1513.6	2.3475e-05	2.251e-05	1343	372.44	2.365e-05	2.2411e-05	440.42	149.45	131	45.393	2.0904e-05	56.792	-24.297	-64.231	166.658	-88.048	1.124	-72.913	-88.376	-83.620	198.138	188.358	-84.256	-79.992	-79.202	-74.680	30.551	-75.540	-8191	255	
1486.876	1	1	0	0	0.059457	0.21571	0.17866	0.16797	0.22851	0.2347	0.22175	0.20488	0.14776	0.20797	0.080437	0.20259	0.10895	0.35821	0.32829	0.07752	-2.0979	-2.6396	-3.0604	-2.4979	-2.9333	-2.9354	-2.7479	-2.8521	-2.6396	-2.8229	-2.9625	-2.7875	-2.9104	-2.9729	-2.6688	-2.9604	227.710	87.709	16.327	-45.051	52.727	215.637	201.109	129.989	154.725	-31.353	-25.554	223.119	231.212	243.612	3.479	184.516	0.00037101	0.0013405	0.00036318	1250	1.0429e-05	1.0371e-05	1264	345.15	4.5476e-06	7.9312e-06	398.45	134.89	116.74	40.19	3.931e-06	50.058	0.0020803	0.0020049	0.00051754	1524	2.3243e-05	2.1482e-05	1340.1	373.74	2.2785e-05	2.1467e-05	438.56	150.04	130.74	45.108	2.0031e-05	56.987	14.061	14.585	32.463	-88.084	60.221	56.669	-88.361	-83.783	70.336	23.127	-84.420	-79.878	-79.164	-74.716	75.610	-75.553	-8191	255	
1486.972	1	1	0	0	0.1641	0.30141	0.31353	0.26324	0.18789	0.1157	0.097588	0.25969	0.094941	0.19868	0.03874	0.086577	0.11445	0.2375	0.11146	0.17321	-2.2625	-2.5312	-3.0146	-2.6354	-2.6771	-2.9062	-2.6271	-3.15	-2.7146	-2.55	-2.9021	-2.6167	-2.6208	-2.9375	-2.6437	-3.0625	-5.317	-6.142	31.860	194.946	-55.882	98.868	200.102	198.618	61.690	29.254	224.600	224.770	-97.422	151.385	-68.599	251.788	0.0003702	0.00069323	0.00032858	1255.2	8.6373e-06	3.1475e-06	1259.1	345.29	8.2016e-06	9.9915e-06	397.67	134.49	116.5	40.429	4.8133e-06	49.991	0.0019867	0.00193	0.00050141	1537	2.198e-05	2.0665e-05	1336.8	373.93	2.1741e-05	2.0628e-05	437.82	150.44	129.9	44.993	1.9978e-05	57.182	12.335	59.132	-9.946	-88.431	50.877	28.249	-88.496	-83.687	13.863	15.112	-84.371	-79.767	-79.081	-74.882	241.392	-75.535	-8191	255	
1487.093	1	1	0	0	0.065391	0.097557	0.22558	0.45571	0.27719	0.1436	0.051212	0.20286	0.080929	0.16489	0.096734	0.060414	0.17374	0.27131	0.12795	0.26741	-2.175	-2.5146	-2.8104	-2.7396	-2.7875	-3.05	-2.6125	-2.9833	-2.9188	-2.5604	-3.1063	-2.7583	-2.5583	-3.0396	-2.4458	-2.8937	203.408	256.464	188.034	249.388	251.277	141.493	-23.936	-65.374	-3.412	195.875	-93.088	-80.953	202.854	204.255	50.189	228.449	0.00046015	0.0012547	7.7179e-05	1257.9	4.1365e-06	7.9856e-06	1258.7	346.96	1.8854e-05	4.9398e-06	398.16	135.4	116.74	40.395	3.4162e-06	50.218	0.0018882	0.0018464	0.00050883	1535.2	2.1115e-05	1.9629e-05	1338.8	374.85	2.0713e-05	1.983e-05	439.19	150.27	129.22	44.768	2.0712e-05	57.034	40.566	-47.761	171.709	-88.604	105.718	50.279	-88.365	-83.587	-18.586	16.788	-84.376	-79.984	-79.350	-74.893	216.405	-75.543	-8191	255	
1487.189	1	1	0	0	0.10857	0.065176	0.064555	0.26193	0.39106	0.012354	0.32611	0.15443	0.21	0.22457	0.13905	0.17348	0.25081	0.080128	0.15894	0.31872	-2.2417	-2.4896	-2.8563	-2.6417	-2.5604	-2.9938	-2.7417	-3.05	-2.9604	-2.4979	-2.9771	-2.8812	-2.5792	-3.0438	-2.5667	-2.9188	118.273	244.846	-18.756	231.592	-0.955	-32.825	174.872	-71.699	77.787	203.546	167.780	-79.947	-41.917	21.782	115.921	236.954	0.00060479	0.00023285	0.00030899	1246.8	7.9738e-06	1.5414e-06	1257.3	347.08	8.1018e-06	5.3969e-06	398.84	135.02	116.78	40.248	1.3034e-05	49.956	0.0018238	0.0017772	0.00053113	1527.9	2.0514e-05	1.9149e-05	1342.8	374.11	2.0187e-05	1.9399e-05	441.89	149.69	129.04	44.644	2.1672e-05	56.78	-30.828	-49.323	109.900	-88.406	85.863	-12.641	-88.593	-83.591	74.948	-88.750	-84.482	-79.868	-79.360	-74.708	173.342	-75.204	-8191	255	
1487.285	1	1	0	0	0.055489	0.1316	0.1754	0.17237	0.22732	0.10924	0.17356	0.2542	0.22522	0.029789	0.276	0.14798	0.21508	0.28001	0.065533	0.31236	-2.4938	-2.6375	-2.8854	-2.8729	-2.5333	-2.9813	-2.7896	-2.7625	-3.0021	-2.4896	-2.9938	-2.8354	-2.8354	-2.9729	-2.5375	-2.7458	70.904	-26.255	172.257	-40.025	94.259	229.259	255.302	151.979	-64.928	-78.220	217.975	188.836	187.141	-93.157	14.826	-85.683	0.0001626	0.00030594	3.9078e-05	1256.8	1.3495e-05	6.7242e-06	1257.8	346.56	4.6822e-06	6.0827e-06	399.84	135.07	116.7	40.407	6.0729e-06	49.907	0.0017825	0.0017806	0.00055379	1513.6	2.0174e-05	1.9534e-05	1346	372.89	1.978e-05	2.0015e-05	443.91	149.15	128.8	44.937	2.2417e-05	56.651	-25.642	-58.128	64.049	-88.160	46.257	-82.033	-88.398	-83.799	164.308	86.520	-84.354	-79.724	-79.385	-74.897	58.576	-75.645	-8191	255	
1487.381	1	1	0	0	0.20699	0.11448	0.1163	0.12341	0.18144	0.3052	0.043177	0.22735	0.23173	0.2022	0.13679	0.14915	0.19946	0.12727	0.28367	0.29172	-2.5375	-2.4833	-2.9979	-2.7417	-2.55	-3.0083	-2.9875	-2.7958	-3.0417	-2.4062	-2.9875	-3.0292	-2.7208	-3.0604	-2.725	-2.6562	-26.600	-52.554	-78.055	202.010	6.705	255.838	65.320	-89.521	253.949	251.161	185.008	143.700	155.288	223.532	-95.321	134.401	0.00039335	0.00065765	0.00015585	1255.8	3.6198e-06	3.065e-06	1258.9	345.87	4.3621e-06	1.1601e-05	400.28	134.93	117.02	40.189	1.4135e-05	49.987	0.001753	0.001886	0.00057116	1510	1.9939e-05	2.0807e-05	1347	372.55	1.9508e-05	2.1451e-05	444.3	149.19	128.8	45.303	2.2248e-05	56.663	-38.929	181.688	-31.112	-88.225	170.734	205.531	-88.492	-83.669	64.876	52.718	-84.046	-79.928	-79.522	-74.588	23.844	-75.463	-8191	255	
1487.476	1	1	0	0	0.066955	0.19067	0.18911	0.11379	0.033504	0.086111	0.24645	0.19773	0.20292	0.18742	0.11809	0.26337	0.031362	0.19709	0.33481	0.18265	-2.4833	-2.4375	-2.7646	-2.8708	-2.3208	-2.9062	-2.8833	-2.7146	-3.0563	-2.5187	-2.8458	-2.9792	-2.5708	-2.8688	-2.7479	-2.8333	-47.483	159.151	234.337	59.510	143.151	158.282	197.056	188.550	127.323	84.548	167.831	161.874	241.216	156.045	-7.915	-44.128	0.00086511	0.00029524	0.00025013	1251.4	7.2146e-06	4.8929e-06	1255.7	347.39	2.6071e-06	1.4832e-05	398.83	135.36	116.82	40.42	1.4766e-05	49.963	0.0017352	0.0020027	0.00056352	1505.3	1.9754e-05	2.1827e-05	1345.1	372.61	1.9509e-05	2.2397e-05	442.6	148.81	128.79	45.589	2.1423e-05	56.477	-6.530	196.750	-33.737	-88.283	-15.585	-51.607	-88.433	-83.426	71.315	50.889	-84.399	-79.846	-79.275	-75.009	42.394	-75.523	-8191	255	
1487.572	1	1	0	0	0.11264	0.3232	0.30908	0.15674	0.12148	0.14071	0.32609	0.13421	0.15481	0.11512	0.092899	0.18219	0.18282	0.12969	0.11809	0.1554	-2.575	-2.5812	-2.8146	-2.8708	-2.5229	-2.8833	-2.9896	-2.7542	-3.175	-2.8875	-2.7062	-3.1125	-2.5438	-2.9375	-2.6771	-2.5062	239.012	14.385	126.027	26.461	-60.264	189.206	234.431	256.832	63.724	43.377	247.068	224.320	215.796	235.328	234.333	28.402	0.0006994	0.001068	0.00022424	1257.2	6.3699e-06	1.9325e-06	1259.9	345.69	1.6236e-05	5.4684e-06	398.82	134.96	116.56	40.277	1.2335e-05	49.783	0.0017605	0.0020512	0.00054187	1498	2.0211e-05	2.2345e-05	1340.7	371.08	2.0052e-05	2.2465e-05	440.4	147.99	129.12	45.511	2.0658e-05	56.127	-25.471	99.614	7.796	-88.162	204.770	-98.701	-88.318	-83.641	189.419	123.321	-84.009	-80.024	-79.201	-74.757	95.793	-75.355	-8191	255	
1487.692	1	1	0	0	0.11602	0.21506	0.19732	0.11934	0.035197	0.12939	0.1678	0.28855	0.37634	0.1008	0.43412	0.23387	0.13489	0.097167	0.039782	0.11157	-2.7583	-2.6271	-2.6813	-2.9354	-2.55	-3	-3.1521	-2.6521	-2.9188	-2.7125	-2.7938	-2.9854	-2.5021	-2.8229	-3.0375	-2.8708	187.751	127.638	-37.086	93.230	-39.667	217.817	213.104	220.970	247.312	54.308	-85.525	221.071	232.835	74.952	120.648	25.019	0.00070181	0.0011704	0.00028044	1259.6	7.9608e-06	5.9943e-06	1258.5	346.6	1.1916e-05	1.4196e-05	400.77	134.79	116.31	40.32	1.1656e-05	49.89	0.0018441	0.002029	0.00052655	1486.7	2.1218e-05	2.1999e-05	1337.1	370.73	2.1255e-05	2.1994e-05	440.03	147.86	129.78	45.389	2.0215e-05	56.076	5.129	20.227	21.767	-87.985	-91.407	49.509	-88.518	-83.766	177.429	54.344	-84.217	-80.133	-79.199	-74.894	44.407	-75.238	-8191	255	
1487.789	1	1	0	0	0.039709	0.086222	0.1465	0.21637	0.13351	0.31761	0.20588	0.14571	0.18306	0.079446	0.24852	0.14154	0.15145	0.26059	0.23545	0.14503	-2.5979	-2.8229	-2.4062	-3.0354	-2.6396	-2.7687	-3.225	-2.6312	-2.7896	-2.8104	-2.6479	-3.0979	-2.625	-2.9604	-2.8937	-2.5771	-0.095	168.564	175.162	210.271	-44.222	-10.722	169.535	183.637	-54.532	47.425	219.858	199.376	117.569	204.676	82.767	229.752	0.00010877	0.0013183	0.00030454	1251.3	5.17e-06	1.0887e-05	1260.7	344.82	6.0272e-06	9.8856e-06	399.25	134.9	117.2	40.197	3.4357e-06	50.204	0.001934	0.0019806	0.00051998	1486.6	2.2315e-05	2.1517e-05	1336.5	370.68	2.2101e-05	2.1306e-05	438.65	148.4	130.4	45.199	1.9582e-05	56.46	5.382	-14.073	-29.232	-88.174	227.619	-16.253	-88.282	-83.746	75.768	39.220	-84.172	-79.617	-79.371	-74.912	43.670	-75.277	-8191	255	
1487.885	1	1	0	0	0.04508	0.18266	0.12909	0.11951	0.2452	0.0092129	0.1098	0.040075	0.22532	0.097062	0.3023	0.34277	0.27199	0.028132	0.10777	0.083972	-2.5687	-2.8646	-2.3875	-2.7812	-2.75	-2.5563	-3.2083	-2.6312	-2.7438	-2.7729	-2.6688	-3.0604	-2.8208	-2.6542	-3.2	-2.5958	20.961	205.760	-7.764	191.379	-9.076	-55.648	219.976	-6.450	8.511	32.297	224.245	243.293	178.664	-38.024	-56.362	-43.956	0.00079053	0.00055234	0.00026581	1252	6.1854e-06	1.0596e-05	1260.8	345.52	3.5518e-06	4.1635e-06	399.18	135.24	116.23	40.189	8.7677e-06	49.834	0.0019699	0.0019002	0.00050188	1497.2	2.223e-05	2.0724e-05	1332.9	372.08	2.2021e-05	2.0762e-05	437.08	148.94	129.77	45.033	1.9057e-05	56.7	-28.574	-33.332	-13.995	-88.424	38.042	85.238	-88.487	-83.752	-34.533	22.117	-84.224	-79.863	-79.069	-74.758	-15.913	-75.498	-8191	255	
1487.981	1	1	0	0	0.28022	0.1823	0.11171	0.16729	0.24164	0.14085	0.25716	0.18032	0.084607	0.24721	0.13109	0.21032	0.10994	0.22827	0.17351	0.31207	-2.5458	-2.85	-2.3792	-2.8375	-2.6854	-2.8167	-3.0583	-2.8125	-2.7542	-2.8979	-2.5083	-3.0812	-2.9521	-2.6375	-2.9104	-2.7542	52.097	91.183	71.547	-62.162	77.796	-71.099	228.346	209.527	-90.159	24.054	217.587	236.413	-54.646	162.503	245.362	-77.208	0.00038249	0.00035702	0.00017034	1244.2	1.1371e-05	8.6476e-07	1258.5	345.83	9.8893e-06	5.177e-06	398.32	134.93	116.23	40.197	4.394e-06	49.974	0.0019348	0.001853	0.00048923	1514.2	2.1579e-05	2.0271e-05	1329.8	373.64	2.1464e-05	2.0189e-05	437.23	149.58	129.32	44.916	1.923e-05	57.087	-37.836	-35.449	-76.932	-88.496	81.166	-36.429	-88.537	-83.805	-59.939	-1.019	-84.105	-79.988	-79.053	-74.577	70.879	-75.496	-8191	255	
1488.077	1	1	0	0	0.32889	0.31219	0.22973	0.21767	0.22683	0.18731	0.18012	0.32612	0.29015	0.20156	0.070676	0.16628	0.18669	0.2384	0.11545	0.11447	-2.25	-2.9458	-2.5375	-2.8271	-2.6542	-2.5354	-3.1667	-2.7479	-2.5292	-3.0563	-2.6292	-3.0104	-2.9417	-2.6354	-2.875	-2.6583	-75.969	-19.971	-3.333	-71.511	65.530	-26.379	190.538	251.195	255.702	81.706	-54.443	256.088	-95.087	239.593	113.418	-100.360	0.00039689	0.00097248	8.4158e-05	1251.6	2.8422e-06	7.1308e-06	1255.3	345.05	3.6064e-06	9.057e-06	398.45	134.54	116.26	40.59	1.2616e-05	50.045	0.0018886	0.0018215	0.00050359	1527.2	2.0945e-05	1.99e-05	1331.8	373.74	2.0793e-05	1.9593e-05	438.48	149.94	128.83	44.873	2.0197e-05	57.071	-29.229	-23.110	137.143	-88.329	69.666	57.680	-88.418	-83.637	-14.258	59.281	-84.195	-79.836	-79.398	-74.828	229.206	-75.509	-8191	255	
1488.173	1	1	0	0	0.19871	0.057739	0.060114	0.11276	0.12344	0.058337	0.13447	0.32992	0.17423	0.1363	0.12981	0.030119	0.15918	0.2038	0.10878	0.26749	-2.0979	-2.7896	-2.5042	-3.0062	-2.8375	-2.6854	-3.2583	-2.8354	-2.675	-3.15	-2.5833	-2.8083	-3.025	-2.6354	-2.8292	-2.7958	248.443	13.784	241.108	-65.320	-10.662	45.846	244.755	182.961	133.462	-17.372	138.633	105.459	-76.014	245.673	54.445	253.379	0.00038047	0.00087502	0.00023876	1252	6.0816e-06	3.6073e-06	1253.3	344.95	9.574e-06	5.0566e-06	397.15	134.62	116.25	40.403	2.5242e-06	49.689	0.0018272	0.0017609	0.00052867	1523.4	2.0459e-05	1.9419e-05	1337.3	373.64	2.0409e-05	1.9117e-05	440.84	149.42	128.81	44.807	2.1382e-05	56.735	-6.731	-2.940	137.926	-88.520	167.824	-41.096	-88.522	-83.702	-52.906	2.855	-84.225	-79.708	-79.392	-74.626	258.079	-75.512	-8191	255	
1488.269	1	1	0	0	0.11473	0.18411	0.31766	0.19409	0.10115	0.18781	0.18881	0.11027	0.14225	0.18798	0.10988	0.16484	0.28007	0.29028	0.12731	0.13197	-2.1625	-2.8667	-2.5771	-2.8292	-2.8854	-2.5563	-3.0729	-2.7771	-2.4333	-3.0312	-2.8646	-2.6458	-3.0583	-2.75	-2.825	-2.7083	51.862	116.301	185.951	192.792	-11.982	-99.677	169.475	211.705	26.803	-38.897	202.625	-51.462	-82.318	187.496	-1.735	188.307	0.00053646	0.00070705	0.00026602	1254.9	4.9912e-06	2.5274e-06	1256.1	345.74	1.1806e-06	9.931e-06	397.3	134.85	116.42	40.06	1.2043e-05	49.986	0.0018062	0.0017587	0.00055244	1516.7	2.0005e-05	1.9473e-05	1340.3	372.07	1.9898e-05	1.9547e-05	442.24	149	128.15	44.853	2.1962e-05	56.498	0.320	81.425	-18.366	-88.416	29.749	150.150	-88.570	-83.641	238.823	157.001	-84.134	-79.705	-79.077	-74.969	103.937	-75.471	-8191	255	
1488.365	1	1	0	0	0.15481	0.25733	0.16571	0.07103	0.3287	0.33144	0.15212	0.087773	0.096645	0.083676	0.11511	0.18064	0.088764	0.30568	0.17444	0.35494	-2.0375	-2.9313	-2.6375	-2.5083	-2.9062	-2.6229	-3.1979	-2.8792	-2.5958	-3.1229	-2.8063	-2.6625	-3.0896	-2.6125	-2.9396	-2.8646	193.990	258.188	-92.322	50.529	173.284	106.546	209.908	203.989	-63.703	180.182	160.304	142.712	233.897	-53.745	247.863	225.006	0.00058062	0.00064246	0.00019947	1250.6	8.472e-06	1.1462e-05	1254.9	344.56	1.3574e-05	5.3346e-06	398	134.75	116.36	40.125	3.888e-06	49.837	0.0017624	0.0018299	0.0005635	1503.7	1.9423e-05	2.0492e-05	1340.2	370.96	1.9585e-05	2.0726e-05	442.13	148.71	127.88	45.13	2.1941e-05	56.256	0.255	115.157	-51.088	-88.115	72.883	237.477	-88.445	-83.592	-43.150	121.152	-84.515	-79.729	-79.641	-74.971	233.844	-75.295	-8191	255	
1488.484	1	1	0	0	0.19268	0.11414	0.10676	0.27131	0.18761	0.10102	0.17783	0.022743	0.20652	0.15667	0.20043	0.2197	0.01431	0.31794	0.20631	0.22865	-2.0333	-2.8063	-2.7146	-2.6875	-3.1063	-2.5187	-2.9125	-3.0833	-2.6708	-2.9646	-3	-2.6917	-2.9667	-2.8187	-2.7354	-2.8771	-3.244	-40.774	201.846	-38.090	40.124	100.499	187.854	-59.128	82.485	48.207	112.756	199.910	150.484	152.362	74.385	153.075	0.00061775	0.00084947	0.00039114	1249.9	4.1364e-06	1.0698e-05	1255.3	344.45	4.8448e-06	1.0123e-05	399.01	134.62	116.12	40.098	1.5394e-05	49.812	0.0017394	0.0019297	0.00055526	1501.8	1.9232e-05	2.1778e-05	1338.8	370.71	1.9354e-05	2.1859e-05	440.76	148.34	127.9	45.372	2.1263e-05	56.101	4.984	44.953	-16.326	-88.154	36.473	244.884	-88.398	-83.742	70.369	45.190	-84.256	-79.770	-79.303	-74.628	76.061	-75.676	-8191	255	
1488.580	1	1	0	0	0.2156	0.17093	0.13118	0.19138	0.15991	0.16369	0.14296	0.36074	0.098459	0.02711	0.087853	0.13782	0.16884	0.13435	0.19143	0.073001	-1.9479	-2.9125	-2.6437	-2.5187	-2.8688	-2.6208	-2.8396	-3.175	-2.4542	-2.8375	-2.9625	-2.4771	-2.9917	-2.7	-2.4979	-3.0854	-4.573	187.960	-77.664	-73.117	160.945	-28.162	171.500	207.286	146.562	182.383	173.295	223.991	251.062	-100.099	44.969	177.928	0.00054832	0.00040726	0.00021503	1251.5	4.1382e-06	7.0083e-06	1252	345.15	7.0098e-07	5.42e-06	399.67	134.44	115.9	40.297	9.9779e-06	49.798	0.0017644	0.0020195	0.00053921	1494	1.977e-05	2.2253e-05	1336.6	369.89	2.0079e-05	2.225e-05	439.58	147.83	128.42	45.417	2.0745e-05	55.969	-37.490	21.151	0.023	-88.578	155.088	-101.583	-88.377	-83.611	-53.604	41.489	-84.465	-79.726	-79.340	-74.896	-7.732	-75.246	-8191	255	
1488.654	1	1	0	0	0.24414	0.1441	0.2046	0.13012	0.16563	0.18643	0.16083	0.28996	0.24346	0.028037	0.15309	0.10246	0.12132	0.28038	0.16352	0.29754	-2.1896	-2.6792	-2.7896	-2.5104	-2.7812	-2.7417	-2.8063	-2.975	-2.5271	-2.8042	-3.0438	-2.6188	-2.9875	-2.7062	-2.5104	-3.1042	210.477	-24.743	155.799	-63.259	214.015	-16.975	114.525	-82.392	169.010	-76.390	176.533	-97.265	167.444	-97.492	-15.165	230.660	0.00048847	0.00099856	0.0003838	1250.1	7.264e-06	1.1528e-05	1253.4	344.21	5.658e-06	2.0798e-06	398.95	134.71	115.8	40.351	7.3531e-06	50.024	0.0018341	0.0020257	0.00052088	1483.5	2.0611e-05	2.194e-05	1332.1	369.06	2.1063e-05	2.181e-05	438.19	147.5	129.06	45.288	2.0225e-05	55.884	-64.973	-5.757	-44.947	-88.355	-84.180	32.043	-88.254	-83.613	-1.241	180.154	-84.218	-79.837	-79.420	-74.619	33.121	-75.543	-8191	255	
1488.773	1	1	0	0	0.18662	0.1246	0.052602	0.24941	0.12633	0.32752	0.1476	0.19614	0.25202	0.075455	0.30089	0.28533	0.17465	0.31152	0.033785	0.03787	-2.2438	-2.7479	-2.7646	-2.6479	-3.0062	-2.8542	-2.9813	-3.2625	-2.7646	-2.7271	-3	-2.5875	-2.9792	-2.8375	-2.5083	-3.0271	-75.690	231.206	-2.050	-67.277	-18.311	-93.011	154.226	217.853	53.135	-46.563	211.107	227.249	-31.152	163.404	92.881	-22.241	0.00075571	0.0013918	0.0001041	1243.7	5.5014e-06	1.1004e-05	1252.8	345.05	1.3356e-05	7.7271e-06	398.75	135.31	116.36	40.143	1.5549e-05	49.774	0.0019215	0.0019604	0.00050766	1482.7	2.1674e-05	2.1308e-05	1330.5	369.41	2.1858e-05	2.1301e-05	437.29	148.09	129.71	45.131	1.9828e-05	56.008	-23.470	-53.759	44.308	-87.902	253.820	42.712	-88.437	-83.657	108.416	83.535	-84.414	-79.903	-79.369	-74.637	20.345	-75.497	-8191	255	
1488.869	1	1	0	0	0.097867	0.05504	0.25288	0.17193	0.12292	0.23693	0.22794	0.11645	0.039255	0.17525	0.22583	0.26125	0.16429	0.15451	0.12281	0.21308	-2.2146	-2.7583	-2.8521	-2.5417	-2.6333	-2.6312	-2.6562	-3.0229	-2.6729	-2.375	-3.2042	-2.5938	-2.9896	-3.0917	-2.425	-2.9771	-70.679	132.084	-92.652	-43.148	11.124	219.362	170.299	-91.665	142.678	223.484	-88.390	254.578	-53.545	154.295	175.297	192.575	0.00016986	0.0011591	3.2727e-05	1242.9	1.0101e-05	6.2439e-06	1250.1	345.07	5.3877e-06	4.7233e-06	398.44	134.03	116.49	40.251	1.2289e-05	49.636	0.001975	0.0019203	0.00049813	1492.6	2.2128e-05	2.0685e-05	1327.6	370.91	2.2013e-05	2.0696e-05	435.9	148.57	129.62	44.973	1.9423e-05	56.426	-30.965	-44.274	-86.437	-88.363	90.623	49.818	-88.374	-83.582	1.034	20.891	-84.432	-80.067	-79.339	-74.727	80.119	-75.590	-8191	255	
1488.965	1	1	0	0	0.13846	0.24611	0.20741	0.12819	0.31593	0.029034	0.22441	0.11666	0.062943	0.16343	0.046833	0.052712	0.12964	0.23551	0.066149	0.087203	-2.1979	-2.4313	-2.9062	-2.5771	-2.7375	-2.9146	-2.8417	-3.2062	-2.8667	-2.5396	-3.1167	-2.4646	-2.8646	-2.9771	-2.5833	-3.0792	-76.640	-37.845	134.199	205.615	-2.896	165.482	160.418	38.523	-60.649	35.575	249.560	-99.361	-60.603	199.215	-84.987	7.441	0.00047503	0.0013716	0.00029054	1252.1	1.0833e-05	5.5837e-06	1251.6	342.94	1.3333e-05	1.6131e-05	398.02	134.72	116.01	40.155	2.9892e-06	49.772	0.0019469	0.0018801	0.00048649	1513.2	2.1787e-05	2.029e-05	1327.4	372.09	2.1468e-05	2.0374e-05	435.27	149.57	129.24	44.799	1.9465e-05	56.839	21.067	-1.062	-17.754	-88.596	80.436	90.200	-88.327	-83.542	9.849	35.854	-84.255	-79.565	-79.393	-74.998	181.710	-75.685	-8191	255	
1489.086	1	1	0	0	0.16062	0.16844	0.06374	0.088569	0.16644	0.048746	0.33916	0.12577	0.18848	0.088037	0.24007	0.21672	0.018796	0.0064412	0.36324	0.049652	-2.3167	-2.6688	-3.025	-2.6437	-2.6708	-3.1	-2.5687	-3.0479	-2.8937	-2.625	-2.9437	-2.9354	-2.7625	-3.1208	-2.5646	-2.9917	45.577	112.248	13.962	167.539	126.553	-44.503	221.297	176.735	200.646	-45.534	225.233	-45.996	16.799	-62.146	184.283	240.779	0.00028677	0.00074963	0.00014922	1253.2	7.5759e-06	7.1446e-06	1247.4	345.04	1.5694e-05	8.8859e-06	398.09	134.97	116.05	40.266	6.9465e-06	49.74	0.0018879	0.0018308	0.00049328	1523	2.1074e-05	1.9711e-05	1329.5	373.11	2.0688e-05	1.9884e-05	437	149.89	128.69	44.702	2.0268e-05	56.905	-15.803	33.059	-85.656	-88.118	39.076	47.340	-88.311	-83.638	-42.875	87.987	-84.557	-79.902	-79.225	-74.533	168.893	-75.553	-8191	255	
1489.182	1	1	0	0	0.16579	0.12714	0.20341	0.071175	0.09029	0.077571	0.26842	0.22373	0.070252	0.033408	0.1872	0.28513	0.071414	0.17134	0.37548	0.15753	-2.4979	-2.4229	-3.0229	-2.625	-2.6146	-2.8854	-2.575	-2.9146	-2.8708	-2.3896	-3.1021	-2.8667	-2.7354	-3.0958	-2.7313	-2.8312	189.095	243.080	-17.915	-81.343	146.507	230.934	221.556	217.820	98.007	-11.657	-82.307	24.053	8.814	149.820	23.223	236.144	0.00036515	0.0010245	0.00023866	1245.6	1.9961e-06	1.1108e-05	1251.6	344.98	8.9134e-06	8.3861e-06	399.27	135.15	115.85	40.327	9.2214e-06	49.711	0.0018409	0.0017887	0.00051624	1521.8	2.0606e-05	1.9231e-05	1333.4	372.75	2.0184e-05	1.9357e-05	439.59	149.42	128.44	44.611	2.1302e-05	56.595	36.412	13.825	50.897	-88.257	183.792	100.976	-88.373	-83.589	-47.239	4.186	-84.557	-79.837	-79.204	-74.801	73.051	-75.499	-8191	255	
1489.254	1	1	0	0	0.20272	0.24702	0.046124	0.1945	0.084644	0.16375	0.23113	0.14418	0.12753	0.10849	0.38314	0.067199	0.11755	0.12677	0.067681	0.10082	-2.4833	-2.5312	-2.775	-2.6854	-2.6667	-3.0812	-2.8854	-2.8417	-2.9521	-2.5479	-2.8708	-2.9646	-2.65	-3.0479	-2.5417	-2.5812	257.260	-71.440	-49.083	192.123	97.890	198.416	238.964	-57.478	147.382	54.959	182.603	232.980	-66.703	164.854	26.433	108.223	0.00056522	4.6416e-05	0.00018945	1251	5.5925e-06	8.5799e-06	1251.8	345.16	1.1178e-05	5.8692e-06	400.33	134.46	116.36	40.387	1.2909e-05	49.815	0.0017835	0.0017646	0.00054482	1511.1	1.9993e-05	1.8965e-05	1340.2	371.81	1.9694e-05	1.9474e-05	443.02	148.81	128.35	44.74	2.175e-05	56.504	-10.314	-0.937	-79.090	-88.219	34.255	35.283	-88.317	-83.795	244.334	-3.046	-84.407	-79.761	-79.301	-74.670	61.328	-75.478	-8191	255	
1489.374	1	1	0	0	0.20829	0.12388	0.099998	0.14473	0.095585	0.10944	0.10213	0.04726	0.21871	0.0048385	0.22086	0.21668	0.10799	0.12939	0.12223	0.1358	-2.4813	-2.4896	-2.8271	-2.6708	-2.5542	-2.9479	-2.9208	-2.7229	-2.9854	-2.5312	-2.8417	-2.9437	-2.5604	-3.1042	-2.5687	-2.6063	58.265	-78.924	-94.601	-20.751	222.674	116.238	-29.583	230.546	47.400	73.736	233.600	237.972	-76.793	-87.717	3.097	145.559	0.00054803	0.00091349	9.1249e-05	1248.6	2.1922e-06	9.0153e-06	1250.1	345.43	1.4362e-05	5.4149e-06	397.45	134.91	116.7	40.241	7.8267e-06	49.795	0.001723	0.0018123	0.00055571	1499.7	1.9564e-05	1.9811e-05	1339.1	371.04	1.8957e-05	2.0202e-05	440.82	148.34	128.02	44.944	2.1449e-05	56.277	-22.073	194.354	77.867	-88.021	5.831	185.365	-88.537	-83.488	-8.869	164.551	-84.366	-79.808	-79.394	-74.700	31.976	-75.451	-8191	255	
1489.469	1	1	0	0	0.056694	0.21286	0.22574	0.24978	0.30886	0.18392	0.39677	0.17161	0.13183	0.10769	0.11307	0.16209	0.18339	0.083329	0.041782	0.020125	-2.5875	-2.4479	-2.7396	-2.9396	-2.55	-2.9583	-2.8	-2.6833	-2.9854	-2.5812	-2.7896	-3.0833	-2.5812	-3.0438	-2.7083	-2.6562	173.566	104.064	-4.849	168.946	-50.533	54.758	151.074	245.855	169.767	-25.697	163.376	221.158	197.004	228.470	-100.866	231.063	0.0006321	0.00053034	0.00011728	1248.3	1.41e-06	2.4372e-06	1253.2	344.82	1.2566e-05	4.604e-06	397.37	135	116.37	40.08	1.3517e-05	49.812	0.0016578	0.0018976	0.00054441	1489.8	1.8843e-05	2.0645e-05	1334.4	370.23	1.8564e-05	2.1127e-05	439.5	147.91	127.69	45.152	2.0467e-05	55.964	5.851	48.279	-58.044	-88.134	27.591	200.834	-88.341	-83.700	-22.519	177.042	-84.241	-79.796	-79.416	-74.729	89.071	-75.682	-8191	255	
1489.565	1	1	0	0	0.1172	0.045112	0.18142	0.17771	0.05161	0.027487	0.33847	0.14925	0.18616	0.067328	0.14983	0.22411	0.32947	0.22111	0.26009	0.046991	-2.4479	-2.4917	-2.8229	-2.8729	-2.3458	-2.875	-2.7875	-2.6583	-3.0583	-2.6583	-2.8271	-3.2438	-2.5646	-2.9729	-2.925	-2.5271	239.175	211.057	107.998	183.432	253.021	53.257	177.555	-15.148	10.091	-45.676	-26.701	205.062	241.590	-30.244	-78.366	-81.165	0.0005635	0.0009033	0.00017717	1260.3	1.7276e-06	8.4972e-06	1246.4	345.28	5.092e-06	5.4718e-06	398.24	134.21	116.25	40.209	2.4519e-06	50.067	0.0016604	0.0019424	0.00052061	1480.4	1.9015e-05	2.1208e-05	1329.6	369.54	1.8881e-05	2.1498e-05	437.69	147.14	128.03	45.235	1.995e-05	55.9	-23.441	-4.544	83.827	-88.143	224.648	108.877	-88.437	-83.785	-28.834	83.911	-84.383	-80.056	-79.267	-74.744	42.608	-75.639	-8191	255	
1489.661	1	1	0	0	0.12763	0.081269	0.2451	0.28939	0.13732	0.055921	0.29136	0.3977	0.16887	0.14558	0.25202	0.25792	0.060175	0.25006	0.32702	0.20702	-2.6042	-2.7375	-2.7083	-2.9188	-2.4667	-2.7667	-2.9958	-2.5896	-2.9917	-2.6354	-2.8667	-3.0979	-2.7104	-2.8958	-2.8833	-2.5083	148.993	79.193	-51.383	197.214	34.045	43.772	196.522	239.197	-97.601	221.777	211.512	203.695	-100.045	164.375	46.460	-88.934	0.00068627	0.00021435	0.00026023	1248.4	4.1335e-06	1.6295e-05	1249.8	345.81	4.5254e-06	3.8e-06	401.09	134.88	115.89	40.198	1.075e-05	50.021	0.0017437	0.0019643	0.00050786	1469.2	2.0078e-05	2.1285e-05	1329.1	368.63	2.0067e-05	2.1208e-05	438.19	147.17	128.67	45.179	1.9538e-05	55.854	-14.270	226.661	-76.766	-88.459	217.036	70.398	-88.246	-83.789	-81.794	6.658	-84.329	-80.199	-79.393	-74.990	32.453	-75.465	-8191	255	
1489.781	1	1	0	0	0.23503	0.13465	0.21995	0.13599	0.30322	0.14214	0.27695	0.15861	0.16025	0.15169	0.12488	0.12398	0.24714	0.13834	0.064698	0.27291	-2.5333	-2.6979	-2.6208	-3.1625	-2.4208	-2.7208	-2.9833	-2.6896	-2.9104	-2.7354	-2.8063	-3.0229	-2.7583	-2.7729	-2.8708	-2.625	-99.392	-69.171	145.740	-20.836	126.710	34.188	182.886	228.525	29.742	-51.962	242.140	56.555	183.177	189.111	0.685	190.642	0.00071933	9.1503e-05	0.00015746	1252.8	1.5934e-06	6.1268e-06	1254.3	344.95	4.4552e-06	9.2117e-06	399.65	134.69	116.44	40.295	1.1072e-05	49.574	0.0018417	0.0019187	0.00050077	1471.3	2.1075e-05	2.0803e-05	1329.1	368.94	2.1031e-05	2.055e-05	436.36	147.27	129.44	45.038	1.8903e-05	55.89	-47.946	131.013	-17.248	-88.108	127.202	87.411	-88.488	-83.675	213.758	55.091	-84.122	-79.910	-79.325	-74.759	68.756	-75.746	-8191	255	
1489.878	1	1	0	0	0.17021	0.073969	0.45435	0.028416	0.2078	0.22957	0.1441	0.37423	0.044129	0.037502	0.05672	0.30165	0.063591	0.18747	0.12661	0.31061	-2.4292	-2.725	-2.5021	-3.1979	-2.5521	-2.6396	-3.1896	-2.6854	-2.9125	-2.8292	-2.5479	-2.9979	-2.6333	-2.6292	-3.0187	-2.6479	218.471	168.105	-77.893	151.478	114.315	41.962	247.426	214.633	92.352	37.859	153.351	-47.372	139.835	150.562	130.926	185.803	0.00056851	0.0013352	0.00022513	1247.6	7.5571e-06	4.7328e-06	1252.8	344.5	9.0292e-06	1.172e-05	400.06	135.2	116.52	40.189	4.6801e-06	49.876	0.0019056	0.0018486	0.00048827	1478.1	2.1617e-05	2.029e-05	1327.1	370.44	2.1474e-05	2.009e-05	436.36	148.12	129.44	44.898	1.8602e-05	56.328	-27.821	34.370	-32.186	-88.505	26.289	46.091	-88.252	-83.450	35.238	56.291	-84.523	-79.881	-79.173	-74.610	-2.292	-75.624	-8191	255	
1489.949	1	1	0	0	0.07028	0.094835	0.17412	0.063568	0.12788	0.12208	0.28701	0.32239	0.37512	0.3252	0.31212	0.1305	0.25013	0.34338	0.09733	0.11677	-2.3208	-2.7729	-2.4813	-3.0604	-2.6208	-2.7062	-3.1708	-2.7833	-2.8292	-2.8438	-2.5208	-3.1396	-2.8125	-2.6354	-2.8833	-2.7438	99.023	-16.489	20.707	18.015	-80.782	5.983	116.202	-77.370	245.767	-3.934	224.064	-3.202	-86.615	209.485	129.400	35.008	0.00057454	0.0010852	0.00017659	1248.5	5.6968e-06	1.0345e-05	1254.6	345.58	7.2545e-06	1.1475e-05	399.66	134.98	116.56	40.323	2.9495e-06	49.914	0.0018902	0.0018162	0.00047848	1498.4	2.1166e-05	1.9917e-05	1324.7	372.17	2.0869e-05	1.9721e-05	435.48	149.11	128.93	44.846	1.8442e-05	56.711	-1.866	11.531	27.294	-88.028	54.176	0.704	-88.456	-83.839	211.549	53.777	-84.280	-79.826	-79.284	-74.751	88.848	-75.621	-8191	255	
1490.045	1	1	0	0	0.2643	0.15066	0.14526	0.12174	0.20104	0.21173	0.28454	0.26942	0.235	0.40825	0.15858	0.19705	0.17412	0.11461	0.1255	0.091783	-2.2958	-2.9542	-2.4437	-2.9	-2.8146	-2.55	-3.075	-2.8417	-2.7	-3.0896	-2.6896	-3.15	-2.9646	-2.5958	-2.9875	-2.6937	137.257	-84.470	-30.245	-67.354	-26.289	71.959	198.179	158.154	43.118	5.541	127.296	-81.094	-82.693	207.690	-70.433	145.922	0.00067366	0.0010879	3.2953e-05	1252	9.0907e-06	1.5088e-05	1254.1	345.64	1.1708e-05	1.6372e-05	399.07	135.01	116.27	40.322	6.5927e-06	49.711	0.0018378	0.001751	0.0004829	1508.8	2.0469e-05	1.9308e-05	1325.9	372.73	2.0221e-05	1.9038e-05	436.25	149.47	128.61	44.631	1.9271e-05	56.666	-9.281	-28.321	20.201	-88.219	79.929	4.273	-88.431	-83.655	32.087	45.982	-84.359	-79.775	-79.495	-75.063	184.387	-75.424	-8191	255	
1490.166	1	1	0	0	0.27173	0.31514	0.13978	0.17408	0.15758	0.09302	0.37995	0.31828	0.30922	0.25216	0.082181	0.23356	0.31849	0.38572	0.14981	0.12596	-2.3146	-2.9354	-2.3979	-2.8521	-2.7687	-2.4729	-3.1979	-2.7021	-2.6104	-3.1292	-2.5146	-2.8896	-3.0563	-2.5083	-3.0062	-2.7771	-90.084	-95.761	147.331	-86.937	256.067	171.279	190.168	199.362	144.350	6.993	238.685	203.343	228.704	187.279	13.772	-77.127	0.00037943	0.0012684	9.3663e-05	1246.1	7.653e-06	1.0489e-05	1249.2	345.83	1.1089e-05	5.017e-06	399.74	135.32	116.27	40.302	7.6231e-06	50.066	0.0017798	0.0017109	0.00050302	1511.2	1.9737e-05	1.8765e-05	1331	373.06	1.9699e-05	1.854e-05	439.35	149.14	128.31	44.599	2.0256e-05	56.583	-8.668	-27.387	166.360	-88.011	95.258	22.929	-88.198	-83.644	43.919	37.532	-84.354	-79.752	-79.322	-74.673	205.877	-75.621	-8191	255	
1490.262	1	1	0	0	0.31023	0.19264	0.12976	0.24538	0.46487	0.25133	0.18253	0.40807	0.084296	0.16007	0.039241	0.12626	0.13939	0.13515	0.11656	0.074943	-2.0542	-2.9604	-2.4729	-2.8271	-2.7458	-2.6625	-3.0646	-2.8875	-2.5354	-3.0438	-2.5583	-2.9708	-3.0354	-2.5917	-2.9	-2.8896	56.077	37.233	228.168	100.115	39.851	254.032	169.219	246.345	254.251	31.034	-79.629	15.620	222.782	-57.772	17.741	-84.090	0.0005069	0.00048068	9.8577e-05	1246	1.2064e-05	5.6725e-06	1257.7	345.33	8.5498e-06	7.2428e-06	398.61	134.86	116.91	40.28	4.4581e-06	50.047	0.0017467	0.0016831	0.00052859	1503.6	1.936e-05	1.8689e-05	1336.7	371.85	1.9224e-05	1.8523e-05	440.97	148.57	128.01	44.583	2.0957e-05	56.37	-38.831	-32.788	61.228	-88.349	106.877	-3.686	-88.339	-83.831	6.018	95.039	-84.250	-79.961	-79.426	-74.857	35.234	-75.380	-8191	255	
1490.358	1	1	0	0	0.1704	0.30711	0.1222	0.20144	0.17284	0.13916	0.09445	0.068979	0.11596	0.19045	0.048243	0.12832	0.088953	0.13489	0.132	0.13602	-2.0271	-2.7583	-2.625	-2.8	-2.9458	-2.5104	-2.9458	-3.0375	-2.6292	-3.0917	-2.7062	-2.7021	-3.1792	-2.7833	-2.725	-2.9771	185.881	211.456	108.232	248.070	147.494	105.794	217.866	-84.579	-65.260	-25.250	-86.915	124.232	-98.573	171.057	125.352	221.330	0.00071898	0.00054372	0.00014474	1247.1	5.5886e-06	9.5094e-07	1250.5	345.14	1.0845e-06	3.7253e-06	398.85	134.68	116.1	40.111	6.8634e-06	49.967	0.001698	0.0017161	0.00053853	1489.8	1.8655e-05	1.9142e-05	1335.8	370.18	1.8645e-05	1.9253e-05	441.06	148.04	127.44	44.796	2.0868e-05	56.119	-28.411	90.421	-74.600	-88.311	4.660	252.023	-88.459	-83.634	10.391	-42.019	-83.957	-79.675	-79.253	-74.683	41.821	-75.432	-8191	255	
1490.455	1	1	0	0	0.11667	0.11065	0.29194	0.036244	0.32116	0.054212	0.072983	0.27206	0.19217	0.1517	0.091365	0.18208	0.23081	0.36635	0.10901	0.14105	-2.0271	-2.8438	-2.7583	-2.6437	-2.8979	-2.8104	-3.0604	-2.925	-2.2812	-3.1333	-2.9167	-2.625	-3.2646	-2.6792	-2.7938	-3.0667	98.949	243.499	203.561	165.094	-69.415	230.994	84.026	180.390	215.162	74.589	169.207	240.627	-92.988	210.103	3.772	185.349	0.00050603	0.00058273	0.00010178	1252.2	7.6663e-06	4.5386e-06	1254.4	344.57	9.6792e-06	8.5796e-06	399.76	134.86	115.89	40.178	1.4725e-05	50.132	0.0016464	0.0017961	0.00052769	1483.9	1.8058e-05	2.0032e-05	1334.8	369.3	1.8209e-05	2.0121e-05	439.16	147.86	127.04	45.066	2.0154e-05	55.954	-11.143	175.829	-35.020	-88.626	43.863	-81.524	-88.390	-83.691	-62.655	75.537	-84.528	-79.890	-79.328	-74.479	43.836	-75.478	-8191	255	
1490.549	1	1	0	0	0.13627	0.14649	0.1446	0.087267	0.20046	0.10215	0.37618	0.15475	0.061398	0.19872	0.21303	0.063297	0.16807	0.050216	0.082111	0.071622	-2.2167	-2.8208	-2.5958	-2.4542	-2.9437	-2.6562	-2.8917	-3.1063	-2.4062	-3.0396	-3.0563	-2.425	-3.1271	-2.6917	-2.6167	-3.2583	-77.950	183.952	-44.995	196.249	-53.719	97.653	226.309	257.580	41.750	-34.037	237.496	-91.161	243.987	167.219	18.508	-62.916	0.00040484	0.00026855	0.00014435	1258.7	5.0823e-06	6.9714e-06	1259.7	345.21	1.2086e-05	9.1206e-06	401.19	134.98	116.5	40.456	9.2065e-06	50.068	0.0016331	0.0018853	0.00051104	1476.9	1.8196e-05	2.0899e-05	1332.4	368.92	1.8695e-05	2.082e-05	437.86	147.24	127.84	45.184	1.9526e-05	55.73	-5.602	253.277	-1.034	-88.442	156.601	-69.726	-88.299	-83.606	188.124	-32.095	-84.209	-79.672	-79.257	-74.783	104.815	-75.500	-8191	255	
1490.647	1	1	0	0	0.094059	0.27679	0.075731	0.10839	0.15113	0.019892	0.21598	0.16053	0.01737	0.25873	0.16958	0.22354	0.10549	0.14342	0.32277	0.21178	-2.0563	-2.9417	-2.7062	-2.6229	-2.9688	-2.7583	-2.5521	-3.1521	-2.4688	-2.8625	-2.9333	-2.6729	-2.9813	-2.925	-2.675	-3.1312	132.572	-25.564	-95.803	58.133	193.209	161.376	196.904	140.077	38.608	143.253	180.937	201.662	45.321	-35.507	249.247	207.698	0.00039814	0.00042798	0.00011147	1250.5	9.397e-06	9.1962e-06	1254.6	344.23	1.8921e-06	4.4372e-06	399.83	134.62	116.87	40.375	1.0093e-05	49.994	0.0017026	0.001897	0.00049312	1466.7	1.9143e-05	2.0827e-05	1330	367.58	1.9498e-05	2.0743e-05	436.86	146.85	128.3	45.084	1.9205e-05	55.569	-31.021	68.503	-30.812	-88.670	156.506	-2.404	-88.345	-83.712	111.291	59.293	-84.449	-80.094	-79.249	-74.936	158.352	-75.618	-8191	255	
1490.766	1	1	0	0	0.13917	0.055831	0.15683	0.19173	0.39729	0.14235	0.23733	0.26003	0.044907	0.13488	0.024633	0.099565	0.142	0.02803	0.059601	0.17906	-1.9542	-2.6771	-2.7438	-2.3875	-2.8917	-2.5187	-2.8833	-3.1167	-2.4896	-2.775	-3.0583	-2.7062	-2.875	-2.8063	-2.6021	-3.125	51.921	-100.314	-88.381	36.986	0.090	-46.250	204.173	149.089	-97.159	172.283	164.894	130.695	233.539	-82.601	206.636	30.504	0.00065335	0.00011737	0.00020198	1242.2	2.0039e-06	7.1158e-06	1249.5	345.98	1.2282e-05	1.0553e-05	399.09	134.36	116.37	40.391	3.9679e-06	49.835	0.0017929	0.001862	0.00048185	1461.7	1.9946e-05	1.9981e-05	1326.1	368.27	2.0276e-05	1.9954e-05	435.19	147	128.78	44.846	1.851e-05	55.615	-28.773	-47.527	8.620	-88.254	147.042	61.877	-88.279	-83.657	203.234	43.195	-84.167	-79.751	-79.309	-74.888	-10.996	-75.435	-8191	255	
1490.862	1	1	0	0	0.10815	0.093912	0.081865	0.041332	0.021859	0.2931	0.090543	0.27657	0.069945	0.11781	0.30321	0.19247	0.068999	0.34165	0.20774	0.21759	-2.05	-2.6896	-3.0062	-2.4396	-2.7917	-2.85	-2.8063	-3.0854	-2.65	-2.7021	-2.9792	-2.5042	-2.7708	-2.9333	-2.5104	-2.9396	5.704	163.063	74.928	10.256	64.352	-51.620	114.644	173.910	232.285	174.512	175.961	208.765	-100.110	257.225	57.031	107.445	0.00042056	0.00045441	0.00032831	1250.9	2.9354e-06	6.92e-06	1254.8	345.25	9.5315e-06	8.4199e-06	398.96	134.92	116.34	40.075	3.0945e-06	49.996	0.001837	0.0017922	0.00046607	1470.8	2.057e-05	1.9395e-05	1325	368.85	2.0604e-05	1.9354e-05	433.54	147.58	128.99	44.66	1.8054e-05	55.994	-4.114	-59.246	24.197	-88.451	2.772	1.510	-88.440	-83.615	7.248	77.201	-84.625	-80.170	-79.459	-74.720	46.571	-75.537	-8191	255	
1490.958	1	1	0	0	0.19199	0.113	0.26069	0.4098	0.14832	0.23336	0.14417	0.11434	0.27283	0.08411	0.20342	0.094146	0.070641	0.16778	0.10519	0.16542	-2.3042	-2.6708	-2.8333	-2.6104	-2.7458	-2.7812	-2.6562	-3.1167	-2.6417	-2.4333	-3.125	-2.5229	-2.8021	-2.8917	-2.5458	-2.8958	-14.692	88.870	72.382	232.539	249.196	162.724	252.905	150.932	124.882	237.710	65.133	69.518	239.603	254.286	175.506	233.462	0.0003052	0.00029176	0.00011496	1248.5	2.1835e-06	6.4976e-06	1251.6	345.1	4.9143e-06	8.4685e-06	399.95	135.23	116.2	40.278	5.1994e-06	49.988	0.0018151	0.0017522	0.00045036	1485.4	2.0214e-05	1.9043e-05	1323.3	370.48	2.0097e-05	1.9003e-05	433.3	148.54	128.45	44.573	1.7925e-05	56.344	1.235	28.997	-71.172	-88.469	-9.310	-74.767	-88.327	-83.659	-3.069	8.215	-84.165	-80.091	-79.208	-74.706	-21.458	-75.532	-8191	255	
1491.054	1	1	0	0	0.26202	0.084067	0.14415	0.1885	0.11544	0.073444	0.2166	0.25821	0.16998	0.27637	0.10102	0.23543	0.077125	0.23695	0.10272	0.16232	-2.1167	-2.5333	-2.7979	-2.5292	-2.6396	-2.9708	-2.5938	-3.0375	-2.7458	-2.6354	-3.125	-2.85	-2.7854	-2.9083	-2.5229	-2.9167	57.455	118.250	232.575	195.491	35.352	6.010	190.707	-87.643	44.952	141.500	118.688	11.898	225.906	219.548	107.220	177.248	0.00039286	0.00093037	0.00014278	1249.4	6.5496e-07	4.7073e-06	1251.4	344.44	3.0435e-06	7.5218e-06	398.55	135.03	116.81	40.222	1.0423e-05	50.044	0.001768	0.0017114	0.00045302	1496.9	1.9817e-05	1.8414e-05	1324.6	371.02	1.9453e-05	1.8449e-05	433.97	148.95	128.37	44.462	1.8388e-05	56.421	19.677	-32.957	189.328	-88.408	184.823	-0.545	-88.368	-83.647	103.032	75.850	-84.287	-79.905	-79.195	-74.768	77.091	-75.536	-8191	255	
1491.175	1	1	0	0	0.12655	0.1107	0.25198	0.04744	0.24147	0.098184	0.17895	0.12376	0.13025	0.11557	0.27125	0.2055	0.2222	0.095122	0.26279	0.18034	-2.2917	-2.5604	-2.9833	-2.5687	-2.6542	-2.9604	-2.575	-3.275	-2.9958	-2.475	-2.975	-2.9271	-2.7125	-3.0438	-2.7083	-2.8708	252.831	74.824	-94.437	-20.191	120.221	188.632	-40.120	189.324	128.883	-22.030	-89.688	212.177	248.115	146.933	111.834	84.579	0.00049502	0.0015812	7.7961e-05	1251.3	1.1817e-06	2.9202e-06	1259	345.2	5.9177e-06	2.8099e-06	398.01	135.01	116.53	40.118	6.5717e-06	50.047	0.0017051	0.00166	0.00047083	1496.1	1.8997e-05	1.7774e-05	1327.2	371.13	1.8742e-05	1.7862e-05	436.41	148.47	127.86	44.287	1.9457e-05	56.315	-5.647	-14.723	-91.537	-88.224	-13.097	-48.269	-88.377	-83.688	-69.047	77.215	-84.231	-79.630	-79.116	-74.751	172.444	-75.481	-8191	255	
1491.246	1	1	0	0	0.4151	0.08995	0.12729	0.1082	0.048789	0.28146	0.40838	0.16045	0.25071	0.28221	0.093023	0.23643	0.10495	0.09541	0.046563	0.126	-2.4146	-2.4562	-2.8354	-2.6583	-2.5729	-2.8833	-2.7313	-2.9292	-2.8896	-2.4396	-2.9521	-2.6979	-2.5292	-2.9667	-2.6	-2.9562	-99.487	62.657	-50.883	23.884	45.587	205.297	173.138	196.572	230.049	-62.484	-100.296	142.357	258.259	230.734	31.377	238.516	0.00038729	0.000852	0.00012992	1249.9	2.8121e-06	5.5601e-06	1254	345.49	4.2747e-06	1.9003e-06	398.93	134.92	116.46	40.29	8.6836e-06	50.185	0.0016567	0.0016187	0.00049572	1491.2	1.8601e-05	1.7618e-05	1332.1	370.93	1.8441e-05	1.7917e-05	438.73	148.08	127.63	44.491	2.0269e-05	56.166	-12.704	-29.075	34.862	-88.305	-23.031	-36.707	-88.477	-83.704	0.582	133.431	-84.188	-79.925	-79.330	-75.037	177.612	-75.406	-8191	255	
1491.343	1	1	0	0	0.078603	0.16781	0.18147	0.15133	0.11876	0.069379	0.16321	0.1274	0.077832	0.14775	0.071707	0.078354	0.3248	0.13618	0.22185	0.16865	-2.3646	-2.3396	-2.9729	-2.7792	-2.5146	-3.1083	-2.8958	-2.8583	-3.0021	-2.5875	-2.9375	-2.9792	-2.5792	-3.0875	-2.6396	-2.7917	129.687	48.798	124.178	88.095	60.392	197.091	-79.041	137.178	26.031	196.553	250.437	228.132	-90.420	0.808	202.161	140.961	0.00023799	0.00043385	3.9255e-05	1260.7	1.7613e-06	1.2843e-05	1251	345.03	2.3368e-06	1.1656e-05	400.02	135.07	116.2	40.155	5.8108e-06	50.078	0.0016258	0.0016773	0.00051676	1484.2	1.8429e-05	1.8282e-05	1335.6	369.76	1.7918e-05	1.8699e-05	439.75	147.65	127.21	44.578	2.0078e-05	55.959	118.235	143.121	172.612	-88.379	-25.337	93.355	-88.355	-83.523	32.333	180.155	-84.338	-80.045	-79.059	-74.734	-37.400	-75.395	-8191	255	
#DATA ENDS
