BOXY.EXE: ISS Imagent and Oximeter Data Acquisition Program Version 0.80
Ascii Record File

#ACQ INFORMATION
2  Detector Channels 
16  External MUX Channels 
1  Auxiliary Channels 
5000  Waveform (CCF) Frequency (Hz)
1  Waveforms Skipped 
30  Waveforms Averaged 
1  Cycles Averaged 
16  Acquisitions per Waveform 
10.0806  Updata Rate (Hz) 

#FILE INFORMATION
TRUE -- External MUX Channel results are PARSED.
FALSE -- AC DC and Phase are NOT grouped.
TRUE -- Companion Program Settings File CREATED.
FALSE -- AC data not excluded
FALSE -- DC data not excluded
FALSE -- Phase data not excluded
FALSE -- Auxillary Chn. data not excluded
Tab delimiters

#CALIBRATION STATE
TRUE -- Waveform Calibration Values APPLIED.


#AUX CALIBRATION VALUES
Val Type	aux-1	

Term	1.0000e+00	
Factor	0.0000e+00	


#WF CALIBRATION VALUES
A = Detector Channel
Val Type	A-AC1	A-AC2	A-AC3	A-AC4	A-AC5	A-AC6	A-AC7	A-AC8	A-AC9	A-AC10	A-AC11	A-AC12	A-AC13	A-AC14	A-AC15	A-AC16	A-DC1	A-DC2	A-DC3	A-DC4	A-DC5	A-DC6	A-DC7	A-DC8	A-DC9	A-DC10	A-DC11	A-DC12	A-DC13	A-DC14	A-DC15	A-DC16	A-Ph1	A-Ph2	A-Ph3	A-Ph4	A-Ph5	A-Ph6	A-Ph7	A-Ph8	A-Ph9	A-Ph10	A-Ph11	A-Ph12	A-Ph13	A-Ph14	A-Ph15	A-Ph16	

Term	0.00000e+00	0.00000e+00	0.00000e+00	0.00000e+00	0.00000e+00	0.00000e+00	0.00000e+00	0.00000e+00	0.00000e+00	0.00000e+00	0.00000e+00	0.00000e+00	0.00000e+00	0.00000e+00	0.00000e+00	0.00000e+00	0.00000e+00	0.00000e+00	0.00000e+00	0.00000e+00	0.00000e+00	0.00000e+00	0.00000e+00	0.00000e+00	0.00000e+00	0.00000e+00	0.00000e+00	0.00000e+00	0.00000e+00	0.00000e+00	0.00000e+00	0.00000e+00	0.00000e+00	0.00000e+00	0.00000e+00	0.00000e+00	0.00000e+00	0.00000e+00	0.00000e+00	0.00000e+00	0.00000e+00	0.00000e+00	0.00000e+00	0.00000e+00	0.00000e+00	0.00000e+00	0.00000e+00	0.00000e+00	
Factor	1.00000e+00	1.00000e+00	1.00000e+00	1.00000e+00	1.00000e+00	1.00000e+00	1.00000e+00	1.00000e+00	1.00000e+00	1.00000e+00	1.00000e+00	1.00000e+00	1.00000e+00	1.00000e+00	1.00000e+00	1.00000e+00	1.00000e+00	1.00000e+00	1.00000e+00	1.00000e+00	1.00000e+00	1.00000e+00	1.00000e+00	1.00000e+00	1.00000e+00	1.00000e+00	1.00000e+00	1.00000e+00	1.00000e+00	1.00000e+00	1.00000e+00	1.00000e+00	X	X	X	X	X	X	X	X	X	X	X	X	X	X	X	X	

B = Detector Channel
Val Type	B-AC1	B-AC2	B-AC3	B-AC4	B-AC5	B-AC6	B-AC7	B-AC8	B-AC9	B-AC10	B-AC11	B-AC12	B-AC13	B-AC14	B-AC15	B-AC16	B-DC1	B-DC2	B-DC3	B-DC4	B-DC5	B-DC6	B-DC7	B-DC8	B-DC9	B-DC10	B-DC11	B-DC12	B-DC13	B-DC14	B-DC15	B-DC16	B-Ph1	B-Ph2	B-Ph3	B-Ph4	B-Ph5	B-Ph6	B-Ph7	B-Ph8	B-Ph9	B-Ph10	B-Ph11	B-Ph12	B-Ph13	B-Ph14	B-Ph15	B-Ph16	

Term	0.00000e+00	0.00000e+00	0.00000e+00	0.00000e+00	0.00000e+00	0.00000e+00	0.00000e+00	0.00000e+00	0.00000e+00	0.00000e+00	0.00000e+00	0.00000e+00	0.00000e+00	0.00000e+00	0.00000e+00	0.00000e+00	0.00000e+00	0.00000e+00	0.00000e+00	0.00000e+00	0.00000e+00	0.00000e+00	0.00000e+00	0.00000e+00	0.00000e+00	0.00000e+00	0.00000e+00	0.00000e+00	0.00000e+00	0.00000e+00	0.00000e+00	0.00000e+00	-5.38156e+01	-1.31042e+02	-1.24433e+02	-1.81592e+02	-5.12389e+01	-6.77519e+01	-1.57010e+02	-1.62015e+02	-4.49559e+01	-6.47779e+01	-1.71977e+02	-1.70149e+02	-1.79453e+02	-1.77250e+02	-5.57634e+01	-1.50141e+02	
Factor	2.03653e-05	1.65828e-04	4.62255e-05	1.62462e-01	1.69913e-06	1.87841e-06	1.83249e-01	6.39994e-02	1.44152e-06	1.88062e-06	8.71469e-02	2.95149e-02	3.17034e-02	9.42612e-03	1.54103e-06	1.33165e-02	8.12842e-06	1.10171e-05	3.07108e-06	8.26260e-02	1.14284e-07	1.22168e-07	8.76959e-02	3.26199e-02	1.15569e-07	1.22005e-07	4.32266e-02	1.46927e-02	1.64001e-02	4.85771e-03	1.18033e-07	6.63519e-03	X	X	X	X	X	X	X	X	X	X	X	X	X	X	X	X	



#DISTANCE SETTINGS
A = Detector Channel
A-1	A-2	A-3	A-4	A-5	A-6	A-7	A-8	A-9	A-10	A-11	A-12	A-13	A-14	A-15	A-16	

2.5000e+00	3.0000e+00	2.5000e+00	3.0000e+00	2.0000e+00	3.0000e+00	1.5000e+00	3.0000e+00	3.0000e+00	3.0000e+00	3.0000e+00	3.0000e+00	3.0000e+00	3.0000e+00	1.5000e+00	3.0000e+00	

B = Detector Channel
B-1	B-2	B-3	B-4	B-5	B-6	B-7	B-8	B-9	B-10	B-11	B-12	B-13	B-14	B-15	B-16	

1.0000e+01	1.0000e+01	1.0000e+01	1.4400e+00	1.0000e+01	1.0000e+01	1.5100e+00	1.9400e+00	1.0000e+01	1.0000e+01	1.9900e+00	2.4900e+00	2.4100e+00	2.9000e+00	1.0000e+01	2.9800e+00	




#DATA BEGINS
time	group	step	mark	flag	A-AC1	A-AC2	A-AC3	A-AC4	A-AC5	A-AC6	A-AC7	A-AC8	A-AC9	A-AC10	A-AC11	A-AC12	A-AC13	A-AC14	A-AC15	A-AC16	A-DC1	A-DC2	A-DC3	A-DC4	A-DC5	A-DC6	A-DC7	A-DC8	A-DC9	A-DC10	A-DC11	A-DC12	A-DC13	A-DC14	A-DC15	A-DC16	A-Ph1	A-Ph2	A-Ph3	A-Ph4	A-Ph5	A-Ph6	A-Ph7	A-Ph8	A-Ph9	A-Ph10	A-Ph11	A-Ph12	A-Ph13	A-Ph14	A-Ph15	A-Ph16	B-AC1	B-AC2	B-AC3	B-AC4	B-AC5	B-AC6	B-AC7	B-AC8	B-AC9	B-AC10	B-AC11	B-AC12	B-AC13	B-AC14	B-AC15	B-AC16	B-DC1	B-DC2	B-DC3	B-DC4	B-DC5	B-DC6	B-DC7	B-DC8	B-DC9	B-DC10	B-DC11	B-DC12	B-DC13	B-DC14	B-DC15	B-DC16	B-Ph1	B-Ph2	B-Ph3	B-Ph4	B-Ph5	B-Ph6	B-Ph7	B-Ph8	B-Ph9	B-Ph10	B-Ph11	B-Ph12	B-Ph13	B-Ph14	B-Ph15	B-Ph16	aux-1	digaux	

21784.191	1	1	0	256	0.18589	0.24836	0.29072	0.16063	0.13651	0.010882	0.26008	0.17417	0.13026	0.2238	0.1414	0.32208	0.10048	0.118	0.18452	0.12829	-1.9104	-2.1229	-2.6625	-2.4417	-2.3375	-2.6271	-2.4021	-2.4771	-2.45	-2.2875	-2.6604	-2.3104	-2.2938	-2.6188	-2.1125	-2.4646	122.895	30.517	-23.710	164.997	6.522	-13.287	44.625	81.055	166.040	131.413	52.282	158.581	162.366	-34.768	5.862	-77.137	0.00018034	0.00032414	6.7412e-05	1085	1.9008e-06	2.9198e-06	1153.4	232.26	1.5167e-06	2.3041e-06	293.17	83.225	65.115	18.846	2.714e-06	26.842	0.00013556	9.8052e-05	2.6309e-05	1071.7	1.2345e-06	9.8753e-07	1142.4	231.67	1.1237e-06	9.641e-07	291.31	83.939	65.161	19.068	1.0822e-06	27.156	-78.988	-76.068	-46.439	-133.836	-5.797	7.760	-133.337	-126.456	-19.847	17.870	-126.859	-120.167	-120.104	-112.811	8.680	-113.404	-8191	255	
21784.309	1	1	0	0	0.028025	0.18836	0.17254	0.17575	0.20389	0.21014	0.056268	0.15713	0.12924	0.29287	0.16291	0.018423	0.2017	0.071132	0.32618	0.027728	-2.1042	-2.2062	-2.675	-2.55	-2.3354	-2.6375	-2.3333	-2.5417	-2.4479	-2.2271	-2.5687	-2.3417	-2.1	-2.7438	-2.2917	-2.375	-82.651	-73.450	122.297	195.231	-9.059	72.848	-108.702	83.439	22.736	-32.486	24.806	-93.708	176.566	111.805	-45.826	144.880	0.00019461	0.00025261	0.00010792	1080.1	2.6803e-06	3.4351e-06	1159.2	233.43	2.1593e-06	3.321e-06	294.17	83.324	64.685	18.855	2.3301e-06	26.831	0.00013005	9.0111e-05	2.3231e-05	1067.4	1.1867e-06	9.0506e-07	1143.6	231.81	1.101e-06	9.6689e-07	291.48	83.842	64.972	19.056	1.0682e-06	27.148	-79.390	-73.212	-38.417	-133.550	-8.199	11.499	-133.704	-126.530	15.891	-10.885	-126.940	-119.789	-119.933	-112.770	16.372	-113.274	-8191	255	
21784.406	1	1	0	0	0.13019	0.077712	0.25033	0.1734	0.025282	0.12344	0.14416	0.15955	0.11623	0.3441	0.067812	0.10339	0.12713	0.17049	0.25813	0.14229	-2.1979	-2.1458	-2.5771	-2.6896	-2.2708	-2.6229	-2.4125	-2.3417	-2.6562	-2.1646	-2.5563	-2.4708	-2.3521	-2.5729	-2.3104	-2.4521	-19.698	171.464	194.934	168.127	36.110	17.903	155.282	-128.103	186.446	106.144	110.229	164.605	113.714	114.762	32.308	-137.548	0.00018674	0.0002603	4.9553e-05	1083.6	2.2063e-06	2.5506e-06	1152	231.9	2.3168e-06	2.7787e-06	291.05	82.698	64.52	18.703	1.8872e-06	26.608	0.00013696	9.8259e-05	2.4805e-05	1066.9	1.249e-06	1.031e-06	1139.3	231.15	1.108e-06	1.0391e-06	289.76	83.094	64.37	18.897	1.1555e-06	26.896	-75.412	-47.626	-50.590	-133.612	-20.831	19.717	-133.499	-126.581	16.737	12.957	-126.826	-120.331	-119.938	-112.810	41.173	-112.818	-8191	255	
21784.502	1	1	0	0	0.11705	0.14338	0.22452	0.2316	0.091689	0.16047	0.36396	0.094679	0.15676	0.20909	0.11962	0.1516	0.074302	0.048261	0.24362	0.26356	-2.0729	-2.2438	-2.5563	-2.6771	-2.3229	-2.6583	-2.5146	-2.4021	-2.6021	-2.2417	-2.5604	-2.525	-2.1646	-2.5854	-2.3625	-2.2229	-77.575	194.900	-98.310	165.533	-124.101	212.473	153.668	-130.995	-137.507	138.770	119.649	151.040	205.769	-76.889	-114.125	153.421	0.00018801	0.00027919	6.8968e-05	1084.2	2.0206e-06	2.4546e-06	1152.4	230.96	2.6089e-06	4.8869e-06	290.36	82.528	64.208	18.837	2.1163e-06	26.511	0.00012828	9.4862e-05	2.4581e-05	1065.5	1.225e-06	1.0125e-06	1136	229.5	1.083e-06	1.0185e-06	288.71	82.736	64.316	18.853	1.0707e-06	26.786	-79.821	-56.286	-65.617	-133.510	13.219	9.892	-133.380	-126.561	16.241	12.346	-126.973	-120.274	-119.794	-112.999	16.541	-113.364	-8191	255	
21784.598	1	1	0	0	0.11627	0.19825	0.23253	0.10521	0.32514	0.11824	0.15305	0.066426	0.065726	0.034157	0.14825	0.074961	0.10115	0.08582	0.076452	0.14591	-2.2083	-2.2854	-2.45	-2.5938	-2.1292	-2.5708	-2.5083	-2.2604	-2.5312	-2.1979	-2.5958	-2.6	-2.1688	-2.525	-2.375	-2.1312	-20.935	-18.740	148.726	119.626	194.508	-28.494	79.241	42.375	-54.003	63.479	111.661	123.234	-107.366	85.770	-65.527	139.568	0.00019938	0.00023321	8.8257e-05	1078.8	2.6858e-06	3.2445e-06	1145.6	230.77	2.6027e-06	3.9597e-06	290.25	82.176	63.806	18.584	2.9613e-06	26.534	0.00013033	9.3599e-05	2.7115e-05	1063	1.2147e-06	9.1448e-07	1130.6	229.27	1.0485e-06	1.0124e-06	287.86	82.568	63.883	18.832	1.0817e-06	26.821	-79.899	-41.804	-42.285	-133.527	1.092	8.156	-133.549	-126.680	-14.867	6.202	-126.558	-120.076	-119.749	-112.610	12.103	-112.956	-8191	255	
21784.693	1	1	0	0	0.2747	0.45718	0.26313	0.087679	0.038133	0.07722	0.12043	0.19743	0.26195	0.11855	0.1214	0.2739	0.12865	0.038537	0.11528	0.30118	-2.1417	-2.2125	-2.25	-2.6896	-2.0542	-2.4333	-2.5875	-2.1813	-2.65	-2.1792	-2.4604	-2.6271	-2.1479	-2.5375	-2.5646	-2.2396	92.967	-123.563	-77.275	52.254	-138.366	41.516	157.852	120.433	55.551	35.161	209.516	133.722	187.791	39.623	193.460	-65.853	0.00016535	0.00039017	6.1172e-05	1073.2	2.7768e-06	2.996e-06	1144.1	231.31	2.7899e-06	3.4426e-06	289.01	82.751	64.138	18.725	2.7094e-06	26.608	0.00012467	8.7058e-05	2.6034e-05	1058.9	1.2305e-06	9.2975e-07	1129.5	229.13	1.0854e-06	9.4402e-07	288.06	82.865	64.223	18.848	1.0028e-06	26.893	-78.054	-57.449	-63.438	-133.708	-4.814	28.951	-133.713	-126.327	-7.226	-2.094	-126.773	-120.551	-119.508	-112.719	1.365	-113.361	-8191	255	
21784.789	1	1	0	0	0.3037	0.05396	0.19264	0.17172	0.33515	0.21621	0.070977	0.11683	0.18617	0.077624	0.14102	0.26661	0.077185	0.10406	0.16641	0.046562	-2.1833	-2.2104	-2.2062	-2.7854	-2.3312	-2.4375	-2.6167	-2.1937	-2.5979	-2.2229	-2.4729	-2.7188	-2.2208	-2.6813	-2.4313	-2.1771	147.502	145.760	-73.371	202.077	-100.712	-123.550	161.943	-14.350	138.292	63.890	75.749	206.412	-24.427	182.757	202.618	74.053	0.00019358	0.00030677	6.8046e-05	1080.8	1.7818e-06	2.9541e-06	1153	231.92	1.6505e-06	4.0699e-06	291.06	82.506	64.805	18.714	2.577e-06	26.737	0.00013292	9.4036e-05	2.5164e-05	1062.9	1.1459e-06	9.2593e-07	1134	230.09	1.0943e-06	1.0065e-06	288.93	82.999	64.527	18.947	9.6836e-07	27.062	-77.552	-71.464	-46.243	-133.606	-7.856	-0.862	-133.452	-126.885	-16.533	9.186	-126.801	-120.089	-119.687	-112.995	1.961	-113.223	-8191	255	
21784.887	1	1	0	0	0.3343	0.26817	0.13965	0.25825	0.21471	0.31473	0.37426	0.22542	0.21277	0.34112	0.084618	0.10017	0.094146	0.29262	0.070191	0.28531	-2.0521	-2.5146	-2.3104	-2.7042	-2.2271	-2.3312	-2.6417	-2.2708	-2.4667	-2.2604	-2.1833	-2.6021	-2.1417	-2.4792	-2.6188	-2.2042	177.514	73.980	-91.475	108.924	158.249	201.902	152.822	-135.409	197.158	65.339	187.846	109.920	119.939	-89.854	165.417	73.671	0.00018025	0.00029761	6.1904e-05	1082.5	3.1015e-06	2.9333e-06	1146.4	231.63	2.7105e-06	2.0714e-06	292.59	83.376	65.258	18.841	1.5919e-06	26.673	0.00012215	8.5474e-05	2.1594e-05	1066.7	1.1452e-06	9.0837e-07	1135.4	230.04	1.0006e-06	8.6446e-07	289.41	83.253	64.78	18.949	9.0492e-07	27.009	-78.456	-78.856	-47.689	-133.622	-11.497	10.585	-133.412	-126.256	-12.699	-15.883	-126.596	-120.117	-120.332	-112.631	21.696	-113.492	-8191	255	
21784.982	1	1	0	0	0.15711	0.12433	0.084465	0.22499	0.18469	0.096486	0.27565	0.28051	0.23927	0.077973	0.2264	0.21676	0.18685	0.24396	0.22126	0.048518	-2.1833	-2.4667	-1.9792	-2.5542	-2.3438	-2.2521	-2.6396	-2.3396	-2.3458	-2.4458	-2.3646	-2.7208	-2.2583	-2.2083	-2.6917	-2.1833	-140.308	61.199	-11.113	129.703	103.223	151.231	92.707	21.795	-111.919	-7.804	92.086	144.075	139.413	180.565	181.141	-19.876	0.00019854	0.00031895	7.1455e-05	1086.9	2.4168e-06	2.0172e-06	1155.2	231.72	2.2728e-06	3.1306e-06	292	82.615	64.495	18.875	2.0374e-06	26.498	0.00012658	7.9507e-05	2.4332e-05	1069.5	1.1633e-06	9.7327e-07	1139.5	230.33	1.018e-06	8.7259e-07	289.23	83.218	64.608	18.968	9.0861e-07	26.964	-78.272	-52.744	-57.002	-133.623	12.377	-43.011	-133.655	-126.356	2.160	-8.510	-126.742	-119.985	-119.814	-113.112	14.581	-113.269	-8191	255	
21785.102	1	1	0	0	0.21669	0.37915	0.12174	0.28725	0.10316	0.11223	0.099539	0.22969	0.27015	0.08109	0.14208	0.1018	0.37368	0.025123	0.22577	0.0859	-1.9396	-2.5042	-2.2667	-2.6833	-2.45	-2.2729	-2.8396	-2.3208	-2.4083	-2.6312	-2.2833	-2.525	-2.3063	-2.1562	-2.6042	-2.3688	-99.217	-117.625	-36.811	208.380	-28.548	10.402	121.247	191.011	-99.511	162.196	-92.564	30.294	148.005	-36.107	-12.128	194.687	0.00018607	0.00030818	0.00010698	1085.3	1.6817e-06	4.1324e-06	1150.5	231.38	3.1754e-06	2.3044e-06	292.14	82.527	64.419	18.811	2.0008e-06	26.739	0.00012679	8.5107e-05	2.3417e-05	1068	1.1145e-06	9.6055e-07	1137.5	229.82	1.0628e-06	9.0767e-07	289.27	83.065	64.44	18.962	9.723e-07	26.941	-82.500	-69.712	-73.166	-133.683	-9.313	20.435	-133.554	-126.694	-2.018	13.559	-126.764	-120.122	-119.932	-112.555	44.235	-113.149	-8191	255	
21785.197	1	1	0	0	0.10655	0.19977	0.071881	0.16186	0.12939	0.063859	0.14884	0.18296	0.096008	0.20395	0.30178	0.25873	0.22453	0.19721	0.17835	0.04226	-1.8604	-2.6771	-2.0125	-2.7292	-2.6479	-2.3208	-2.8458	-2.3354	-2.275	-2.4708	-2.375	-2.6146	-2.5833	-2.2729	-2.5333	-2.3729	14.912	123.362	200.995	207.739	35.473	-110.025	-75.008	158.422	69.259	142.313	-112.762	213.301	118.779	81.565	-74.193	127.263	0.00017828	0.00024802	8.1125e-05	1081.4	2.3709e-06	2.2896e-06	1150	230.52	2.608e-06	3.1506e-06	292.06	82.531	64.8	18.611	2.5401e-06	26.291	0.00012704	8.5153e-05	2.5644e-05	1064.7	1.1376e-06	9.4655e-07	1132.2	229.33	1.0993e-06	8.6319e-07	288.1	82.611	64.301	18.735	9.3541e-07	26.738	-79.820	-54.799	-35.294	-133.651	12.773	19.683	-133.372	-126.493	11.838	18.836	-126.937	-120.271	-119.800	-112.642	5.931	-112.971	-8191	255	
21785.271	1	1	0	0	0.12486	0.20277	0.079662	0.22181	0.20788	0.31269	0.16881	0.24874	0.21949	0.19942	0.29597	0.35684	0.052004	0.12483	0.056119	0.025102	-1.8188	-2.7062	-2.2604	-2.7313	-2.4667	-2.2667	-2.7417	-2.5271	-2.3063	-2.6604	-2.2792	-2.5458	-2.3688	-2.1833	-2.4646	-2.4042	95.005	165.897	-49.499	142.150	-11.858	-71.442	183.825	189.889	81.180	-48.060	-144.075	190.065	161.019	86.801	-99.583	111.138	0.00018589	0.00026997	8.6509e-05	1079	1.8341e-06	2.1943e-06	1140.6	231.04	2.6786e-06	3.0976e-06	289.39	81.874	63.996	18.582	3.3362e-06	26.531	0.00012719	7.6913e-05	2.3212e-05	1061.5	1.0481e-06	8.7147e-07	1129.6	229.19	1.0724e-06	9.2292e-07	287.51	82.378	64.111	18.793	9.7328e-07	26.724	-77.793	-46.870	-57.240	-133.662	-3.345	15.188	-133.444	-126.701	18.133	-6.065	-126.912	-120.442	-119.586	-112.817	-4.961	-112.974	-8191	255	
21785.391	1	1	0	0	0.1982	0.048673	0.17316	0.15482	0.10764	0.089465	0.26143	0.031051	0.20839	0.067633	0.19772	0.1257	0.089367	0.10065	0.097429	0.11798	-1.7437	-2.5104	-2.2396	-2.6188	-2.4104	-2.3438	-2.7104	-2.3333	-2.1229	-2.6479	-2.0229	-2.4062	-2.6833	-2.1708	-2.5646	-2.6125	-103.866	103.062	-60.447	150.451	-135.943	181.184	127.319	-53.392	-0.143	-0.537	182.930	-80.887	180.115	209.494	123.733	-19.781	0.00018567	0.00036355	4.9898e-05	1069.7	9.7197e-07	2.8317e-06	1145.5	231.05	2.4897e-06	3.6358e-06	291.29	81.563	64.297	18.648	2.4403e-06	26.444	0.00013087	8.4028e-05	2.3699e-05	1058.4	1.0774e-06	9.3688e-07	1130.1	229.28	1.1063e-06	8.7895e-07	287.73	82.438	64.087	18.798	9.3074e-07	26.703	-76.833	-49.086	-61.436	-133.776	-12.710	-26.791	-133.382	-126.539	18.357	5.788	-126.794	-120.193	-119.899	-113.017	15.257	-113.434	-8191	255	
21785.486	1	1	0	0	0.14473	0.20564	0.091326	0.40358	0.060466	0.17952	0.22313	0.29062	0.15409	0.094582	0.07474	0.13629	0.15659	0.18089	0.23557	0.057892	-1.8708	-2.6521	-2.3	-2.6354	-2.5687	-2.0771	-2.775	-2.4667	-2.2229	-2.7417	-2.3521	-2.3042	-2.65	-2.1667	-2.6	-2.3896	60.002	159.146	121.674	166.718	16.978	-55.239	110.329	182.305	-94.141	-113.267	-112.872	130.707	79.381	-115.529	20.857	98.557	0.00016863	0.00029662	6.1425e-05	1075.5	2.675e-06	3.0524e-06	1144.4	229.96	2.2522e-06	3.1508e-06	288.25	81.64	63.895	18.669	1.9452e-06	26.336	0.00012794	8.031e-05	2.2259e-05	1059.9	1.1326e-06	9.0303e-07	1128.6	228.21	1.088e-06	8.7666e-07	286.91	82.133	63.872	18.758	9.782e-07	26.585	-77.798	-61.454	-56.903	-133.429	2.852	-2.400	-133.680	-126.856	-8.386	19.736	-126.781	-120.518	-119.927	-113.039	-9.440	-113.229	-8191	255	
21785.582	1	1	0	0	0.16739	0.26232	0.21222	0.21061	0.18264	0.27533	0.10207	0.094977	0.084029	0.14711	0.15896	0.067681	0.080483	0.17751	0.24784	0.3379	-1.7458	-2.4708	-2.0938	-2.4333	-2.5479	-2.2729	-2.6292	-2.5604	-2.0312	-2.5438	-2.3667	-2.3271	-2.6125	-2.2875	-2.2729	-2.4417	-130.948	-127.404	-96.307	102.403	95.324	50.415	6.203	91.832	169.289	105.800	63.268	-86.267	68.417	176.759	149.032	152.142	0.00019283	0.00027167	9.6693e-05	1070.2	1.9867e-06	2.6517e-06	1133.2	228.26	1.9302e-06	2.5662e-06	287.65	81.614	63.452	18.467	2.0946e-06	26.381	0.0001306	9.1075e-05	2.4613e-05	1054.3	1.1962e-06	8.8063e-07	1119.4	227.23	1.1013e-06	9.4783e-07	284.98	82.063	63.58	18.677	1.0389e-06	26.615	-74.510	-58.309	-62.442	-133.682	0.134	3.327	-133.480	-126.475	-1.099	10.303	-126.831	-120.207	-119.677	-113.028	-4.533	-113.638	-8191	255	
21785.703	1	1	0	0	0.37562	0.19574	0.14466	0.14269	0.084219	0.1672	0.27108	0.16726	0.34289	0.25911	0.18879	0.16658	0.0455	0.16203	0.096215	0.1613	-1.5833	-2.5687	-2.3042	-2.4771	-2.5417	-2.2208	-2.7479	-2.6437	-2.1688	-2.2958	-2.5	-2.1646	-2.6875	-2.4062	-2.3604	-2.6979	-10.678	197.990	84.725	-104.603	87.795	-110.693	179.931	8.240	112.853	213.976	-118.478	-134.660	-126.314	26.696	-96.843	-112.334	0.00018803	0.00026571	8.8186e-05	1063.5	1.5413e-06	3.0231e-06	1133.7	228.29	3.1964e-06	2.5184e-06	287.89	81.992	63.82	18.626	2.5334e-06	26.289	0.00012716	8.2881e-05	2.3993e-05	1049.3	1.0886e-06	9.3255e-07	1121.2	227.06	1.0794e-06	9.4351e-07	285.63	82.529	63.934	18.781	1.0163e-06	26.638	-80.723	-59.447	-29.615	-133.696	-17.530	40.682	-133.596	-126.389	-1.041	7.338	-126.432	-120.392	-120.194	-112.743	13.854	-113.731	-8191	255	
21785.799	1	1	0	0	0.18089	0.21097	0.051806	0.23044	0.14527	0.16101	0.19777	0.25007	0.16108	0.07226	0.083179	0.3273	0.22377	0.23464	0.16367	0.06541	-1.9688	-2.3937	-2.3083	-2.2792	-2.5542	-2.3187	-2.5792	-2.5646	-2.2667	-2.5292	-2.4979	-2.1521	-2.65	-2.5062	-2.2396	-2.6583	113.241	66.435	-131.783	159.227	167.351	94.086	71.307	-142.812	-46.638	-27.325	167.161	-17.779	-133.255	173.527	-48.397	166.631	0.00018387	0.00036498	8.3517e-05	1066.3	1.508e-06	2.7678e-06	1133.5	229.76	1.8788e-06	3.4099e-06	288.31	81.55	63.468	18.477	2.3478e-06	26.284	0.0001284	9.1442e-05	2.446e-05	1052	1.1224e-06	9.5189e-07	1120.5	227.42	1.1362e-06	9.7248e-07	285.6	81.905	63.633	18.688	1.0967e-06	26.594	-82.898	-51.126	-56.089	-133.801	-29.979	-15.701	-133.412	-126.505	-9.223	-1.455	-126.981	-120.061	-120.243	-112.886	21.416	-113.173	-8191	255	
21785.871	1	1	0	0	0.29232	0.22506	0.089587	0.21513	0.13837	0.29274	0.30496	0.14563	0.17425	0.097498	0.30302	0.083015	0.1513	0.13963	0.17628	0.16868	-1.6229	-2.6042	-2.5458	-2.4083	-2.4708	-2.3375	-2.2687	-2.7625	-2.2729	-2.3979	-2.4917	-2.175	-2.5312	-2.5854	-2.2562	-2.7583	182.787	-90.928	167.893	200.371	-4.484	-114.937	101.297	204.471	215.127	125.290	-67.796	111.876	39.257	104.774	-78.224	-47.632	0.00017619	0.00025625	0.00010311	1063.1	2.8544e-06	2.2335e-06	1130.7	228.23	2.4462e-06	2.847e-06	287.3	81.405	63.422	18.545	2.4995e-06	26.282	0.00013632	9.5504e-05	2.8056e-05	1052.6	1.2745e-06	1.1316e-06	1120.8	227.11	1.2691e-06	1.1321e-06	285.52	81.912	63.618	18.676	1.185e-06	26.564	-79.774	-58.722	-52.448	-133.610	-16.217	18.644	-133.482	-126.585	-11.258	21.863	-126.813	-120.335	-119.771	-112.851	49.177	-113.948	-8191	255	
21785.990	1	1	0	0	0.10111	0.18838	0.13827	0.12486	0.12302	0.074774	0.38097	0.26001	0.15861	0.23328	0.12312	0.019261	0.25277	0.17303	0.19501	0.13239	-1.8062	-2.2271	-2.4479	-2.1917	-2.5625	-2.5417	-2.3438	-2.5417	-2.1937	-2.35	-2.5896	-2.2188	-2.5708	-2.5146	-2.1437	-2.6688	122.875	-47.500	-94.577	210.883	1.222	50.434	134.932	86.647	-42.409	-12.236	164.569	-136.568	-120.782	158.026	179.080	160.765	0.00019125	0.00031341	4.1359e-05	1074.2	2.4444e-06	3.2872e-06	1138.2	228.9	2.1676e-06	3.2473e-06	288.18	81.919	64.181	18.403	1.9809e-06	26.39	0.00014265	0.00010464	2.778e-05	1058.2	1.2274e-06	1.1588e-06	1124.9	227.38	1.2058e-06	1.0673e-06	285.89	81.96	63.878	18.693	1.156e-06	26.648	-80.198	-58.891	-57.552	-133.593	-11.550	-2.959	-133.407	-126.780	3.817	8.520	-126.801	-120.209	-119.885	-112.966	11.101	-113.533	-8191	255	
21786.088	1	1	0	0	0.090299	0.19238	0.11358	0.10673	0.078328	0.044639	0.21063	0.41614	0.11084	0.1208	0.16428	0.082568	0.11923	0.18613	0.20294	0.17578	-1.9792	-2.25	-2.5271	-2.4479	-2.5583	-2.4938	-2.4083	-2.5812	-2.4521	-2.1979	-2.6542	-2.15	-2.4229	-2.7562	-2.0417	-2.7396	-28.022	62.885	175.626	186.993	140.660	-42.716	130.125	91.401	212.972	-36.925	177.908	-8.755	134.669	142.555	-77.910	181.255	0.00020014	0.00029969	9.0958e-05	1073.2	2.7932e-06	4.0401e-06	1137.8	229.17	1.8029e-06	4.0134e-06	286.86	82.184	64.028	18.525	2.1521e-06	26.625	0.00013486	0.00010179	2.7403e-05	1059.1	1.2055e-06	1.0906e-06	1126.9	227.56	1.1757e-06	1.0881e-06	285.99	82.522	64.04	18.789	1.1267e-06	26.819	-83.154	-54.950	-51.897	-133.293	-6.791	-18.777	-133.394	-126.440	-8.670	-2.814	-127.197	-119.936	-120.033	-112.833	34.583	-113.537	-8191	255	
21786.184	1	1	0	0	0.16954	0.19545	0.15755	0.02117	0.18814	0.27428	0.061892	0.21867	0.10361	0.18922	0.24084	0.28403	0.15793	0.10725	0.20306	0.18847	-2.0146	-2.2521	-2.5979	-2.3917	-2.5292	-2.4979	-2.2812	-2.5104	-2.5208	-2.1813	-2.7333	-2.4104	-2.2146	-2.5375	-2.1854	-2.6417	-6.084	61.502	-72.186	45.546	-4.133	74.074	124.911	143.176	175.774	-59.370	213.870	-103.421	189.968	126.233	18.705	-106.842	0.00019826	0.00025381	7.5338e-05	1076.3	2.5191e-06	2.4536e-06	1144	229.33	3.0972e-06	3.2355e-06	289	81.784	64.57	18.798	2.7539e-06	26.686	0.00013856	9.9842e-05	2.4466e-05	1058.7	1.2555e-06	1.001e-06	1129.5	228.02	1.2311e-06	1.0403e-06	286.51	82.578	64.252	18.945	1.1024e-06	26.94	-78.692	-54.426	-48.928	-133.467	6.466	-1.064	-133.388	-126.517	-25.718	-0.085	-126.957	-120.643	-119.906	-112.658	5.816	-113.458	-8191	255	
21786.279	1	1	0	0	0.22519	0.14927	0.016908	0.088932	0.027282	0.21527	0.19304	0.18636	0.22109	0.28573	0.34929	0.12861	0.3608	0.20606	0.18827	0.31751	-1.9542	-2.1729	-2.5938	-2.4562	-2.3604	-2.5979	-2.3229	-2.5333	-2.4958	-2.3187	-2.7354	-2.6125	-2.3187	-2.5271	-2.0375	-2.4729	35.489	-114.227	-98.470	-47.102	-97.310	-130.549	209.832	-40.629	47.405	79.050	160.434	116.534	-124.724	138.588	89.608	-129.543	0.00019679	0.0004223	9.2037e-05	1075.2	2.5969e-06	2.2895e-06	1148.4	230.42	2.5942e-06	2.1328e-06	290.46	82.21	64.393	18.627	1.2803e-06	26.49	0.00013778	9.9911e-05	2.5247e-05	1058.9	1.1188e-06	9.4299e-07	1128.6	228.83	1.1497e-06	9.8596e-07	287.4	82.62	64.23	18.869	1.0089e-06	26.822	-80.044	-47.003	-45.711	-133.467	18.391	-6.645	-133.414	-126.401	-3.971	10.152	-126.702	-120.261	-119.904	-112.888	-4.245	-113.042	-8191	255	
21786.398	1	1	0	0	0.1792	0.13544	0.08631	0.27476	0.15906	0.3125	0.085539	0.12891	0.29234	0.27869	0.11781	0.034004	0.40092	0.20378	0.047908	0.24917	-1.9771	-2.0667	-2.5354	-2.5208	-2.3521	-2.5479	-2.3812	-2.4688	-2.4729	-2.1917	-2.6792	-2.4354	-2.2542	-2.6292	-2.2625	-2.5417	133.759	-78.096	-125.787	-109.289	166.845	45.849	-35.782	211.963	148.645	114.714	28.188	136.473	-125.682	148.556	31.505	7.248	0.00017972	0.00034584	6.3117e-05	1073.3	2.797e-06	3.5144e-06	1140.4	229.6	1.8947e-06	3.5105e-06	289.19	82.735	64.574	18.817	1.4429e-06	26.65	0.00012716	9.5459e-05	2.3705e-05	1057.7	1.2312e-06	8.9259e-07	1126.8	228.4	1.0695e-06	9.8723e-07	287.33	82.803	64.505	18.93	9.6639e-07	26.928	-82.728	-54.736	-48.078	-133.668	-11.392	18.009	-133.489	-126.437	-39.270	13.563	-126.692	-120.249	-119.931	-112.427	-6.240	-113.450	-8191	255	
21786.494	1	1	0	0	0.23014	0.29657	0.053175	0.18455	0.092677	0.11935	0.13301	0.076596	0.15532	0.078235	0.31754	0.31051	0.013123	0.31979	0.20607	0.16871	-2.3146	-2.1729	-2.4417	-2.4625	-2.2062	-2.425	-2.4688	-2.5354	-2.5729	-2.2313	-2.5625	-2.6312	-2.275	-2.6583	-2.3229	-2.4313	155.910	137.216	29.954	96.223	167.886	179.134	10.305	38.537	-90.074	-72.409	193.183	205.886	-54.007	-112.240	-117.875	-110.798	0.00016724	0.000309	6.4659e-05	1072.2	2.1326e-06	3.1533e-06	1143.7	229.62	3.26e-06	4.0216e-06	288.8	82.009	64.147	18.741	3.7213e-06	26.617	0.00012862	8.9698e-05	2.4588e-05	1056.8	1.1931e-06	8.8368e-07	1127.2	228.16	1.0856e-06	9.4808e-07	286.66	82.687	64.236	18.945	1.0436e-06	26.949	-79.151	-59.019	-55.221	-133.627	-2.853	6.805	-133.519	-126.425	-8.770	1.858	-126.816	-120.095	-119.789	-113.050	4.434	-113.336	-8191	255	
21786.566	1	1	0	0	0.15689	0.084509	0.11107	0.23144	0.13896	0.11178	0.25642	0.10387	0.18233	0.17408	0.085452	0.067453	0.10055	0.27446	0.14914	0.091708	-2.1917	-2.1354	-2.4958	-2.6375	-2.1396	-2.6021	-2.525	-2.4208	-2.7083	-2.1625	-2.5729	-2.4188	-2.1583	-2.4708	-2.5083	-2.1437	169.714	72.857	72.450	137.580	15.705	-142.921	140.139	124.889	12.216	133.883	-124.304	-141.982	74.897	155.426	-136.683	-129.234	0.00017016	0.00035382	5.0402e-05	1074.5	2.8016e-06	3.3445e-06	1141.7	230.27	2.5996e-06	2.329e-06	287.8	83.11	64.502	18.916	2.545e-06	26.723	0.00011845	8.9904e-05	2.3014e-05	1056.4	1.2176e-06	9.0455e-07	1126.4	228.3	1.0505e-06	9.219e-07	286.56	82.841	64.264	18.91	9.6123e-07	26.943	-80.463	-45.221	-47.824	-133.517	-9.407	-0.077	-133.402	-126.509	21.326	18.737	-126.978	-120.190	-119.800	-112.846	-15.021	-113.460	-8191	255	
21786.662	1	1	0	0	0.29741	0.20344	0.068112	0.1838	0.1227	0.25414	0.23205	0.20198	0.15991	0.10332	0.21877	0.076617	0.0032903	0.13672	0.33378	0.051106	-2.0646	-2.2438	-2.45	-2.6375	-2.1375	-2.5354	-2.6375	-2.225	-2.7146	-2.3479	-2.3521	-2.5854	-2.1729	-2.4938	-2.3708	-2.3875	-30.360	45.480	70.257	121.484	-106.368	61.055	139.903	195.338	26.101	-28.964	167.368	131.954	190.619	-100.542	150.800	197.076	0.00020022	0.00027554	7.8431e-05	1074.7	2.7949e-06	3.7024e-06	1139.2	231.18	2.9341e-06	3.2648e-06	286.75	82.716	64.386	18.757	2.4973e-06	26.668	0.00012242	9.073e-05	2.4153e-05	1055.5	1.0686e-06	8.6714e-07	1125.1	228.24	1.0529e-06	8.9521e-07	285.76	82.717	64.282	18.908	9.9984e-07	26.953	-83.564	-59.293	-63.600	-133.540	2.204	15.556	-133.197	-126.355	-10.445	7.819	-126.809	-120.024	-119.455	-112.538	18.223	-113.214	-8191	255	
21786.783	1	1	0	0	0.052772	0.23886	0.15597	0.12349	0.10492	0.1074	0.26803	0.1138	0.1689	0.18279	0.10695	0.074549	0.24855	0.10361	0.096752	0.2314	-2.3438	-2.1417	-2.2354	-2.5917	-2.0896	-2.4271	-2.6021	-2.2458	-2.6833	-2.2562	-2.3979	-2.6458	-2.1667	-2.2292	-2.5583	-2.2146	105.010	77.668	99.145	197.524	-78.181	54.151	-34.913	210.397	-38.806	106.375	85.842	126.219	180.741	-24.198	125.305	-132.270	0.00019209	0.00028149	8.5662e-05	1074.8	2.3062e-06	2.2112e-06	1140.6	230.1	1.7584e-06	2.4654e-06	287.77	81.936	64.622	18.743	2.1934e-06	26.636	0.00012809	8.5199e-05	2.4978e-05	1055.8	1.2171e-06	8.987e-07	1125.6	227.99	9.5874e-07	9.4452e-07	286.43	82.502	64.2	18.89	9.8385e-07	26.856	-76.730	-29.704	-55.795	-133.545	-3.228	-17.097	-133.469	-126.628	9.269	11.685	-126.979	-120.302	-119.898	-112.718	25.410	-113.288	-8191	255	
21786.879	1	1	0	0	0.34587	0.19736	0.36488	0.12837	0.24529	0.074341	0.23147	0.13877	0.12809	0.16068	0.078867	0.21488	0.14549	0.24507	0.20655	0.1646	-2.1583	-2.0771	-2.0667	-2.5667	-2.325	-2.5042	-2.6729	-1.9896	-2.4625	-2.2708	-2.3333	-2.7354	-2.4958	-2.3979	-2.55	-2.1708	96.556	51.864	87.956	161.793	138.893	89.001	66.092	-82.957	-2.116	0.237	-85.615	212.282	66.877	38.507	32.788	197.120	0.00018045	0.00020556	9.879e-05	1073.6	1.5968e-06	3.4847e-06	1144.1	229.27	2.1601e-06	2.3051e-06	288.41	82.336	64.024	18.756	2.9762e-06	26.802	0.00012626	8.2513e-05	2.7102e-05	1056.1	1.2238e-06	1.026e-06	1126.3	227.84	1.1326e-06	1.0297e-06	286.24	82.481	64.126	18.875	1.0335e-06	26.87	-81.932	-31.785	-52.942	-133.452	-10.144	6.338	-133.521	-126.122	3.532	6.234	-126.561	-120.121	-119.667	-112.772	-21.020	-113.430	-8191	255	
21786.975	1	1	0	0	0.19986	0.14253	0.12366	0.46853	0.37205	0.026601	0.19914	0.17371	0.10322	0.27614	0.19733	0.26954	0.11976	0.22564	0.2308	0.16721	-2.1375	-2.4042	-2.2083	-2.6958	-2.1458	-2.5021	-2.6083	-2.1083	-2.5354	-2.3688	-2.4021	-2.7083	-2.2146	-2.4979	-2.475	-2.1917	-12.128	-25.824	186.772	169.008	-82.002	30.774	150.677	110.574	162.008	101.627	62.909	136.258	-3.983	-135.210	79.495	182.970	0.00019333	0.00033353	8.2419e-05	1075.3	2.4041e-06	3.167e-06	1142.5	229.91	1.837e-06	3.2886e-06	288.55	82.365	64.413	18.825	2.3163e-06	26.79	0.0001307	9.4472e-05	2.5874e-05	1056.9	1.255e-06	9.2873e-07	1125.3	227.8	1.0967e-06	9.5952e-07	286.95	82.588	64.251	18.896	9.7254e-07	26.983	-77.614	-49.147	-53.604	-133.515	11.540	-5.008	-133.393	-126.605	-9.784	7.110	-126.860	-120.310	-119.896	-112.670	23.608	-113.046	-8191	255	
21787.072	1	1	0	0	0.15124	0.18881	0.22344	0.1919	0.074772	0.062383	0.1895	0.096782	0.1766	0.11772	0.042522	0.065628	0.097162	0.099795	0.15342	0.098251	-2.1562	-2.2521	-2.1854	-2.6125	-2.2562	-2.2792	-2.8312	-2.2833	-2.4271	-2.5125	-2.3333	-2.4375	-2.2917	-2.1667	-2.7396	-2.4792	35.496	-63.345	169.803	-122.339	41.062	-71.356	166.059	155.427	39.624	13.203	-37.992	72.398	13.665	-33.591	-48.973	-32.433	0.00018908	0.00027844	9.7238e-05	1073.9	3.6579e-06	3.3896e-06	1143.8	229.94	2.793e-06	2.7478e-06	289.24	82.373	64.011	18.667	2.4013e-06	26.713	0.0001286	9.2314e-05	2.4537e-05	1057.8	1.1771e-06	9.4299e-07	1125.8	228.54	1.0731e-06	8.5099e-07	287.77	82.65	64.337	18.868	9.5016e-07	26.887	-73.277	-57.459	-47.525	-133.640	2.244	-3.055	-133.507	-126.595	13.147	22.971	-126.913	-120.298	-119.410	-112.838	1.363	-113.110	-8191	255	
21787.168	1	1	0	0	0.15225	0.16975	0.15489	0.16202	0.27238	0.24327	0.24182	0.19432	0.14989	0.25475	0.2988	0.15574	0.18337	0.1646	0.16288	0.03408	-2.0312	-2.4146	-2.1167	-2.7083	-2.2062	-2.3833	-2.7875	-2.2708	-2.3229	-2.6917	-2.1333	-2.525	-2.5062	-2.4146	-2.6083	-2.3292	-50.061	190.975	-115.676	132.429	-30.361	182.403	156.123	175.528	-58.452	48.831	195.264	210.448	129.320	-123.114	92.283	75.076	0.00019334	0.00030558	9.8487e-05	1074.9	3.4919e-06	3.5702e-06	1139.5	230.6	2.0338e-06	3.7195e-06	288.01	82.37	64.391	18.76	1.9833e-06	26.601	0.00012353	8.4464e-05	2.5951e-05	1057.6	1.2514e-06	9.3917e-07	1125.5	228.65	1.0969e-06	1.003e-06	286.37	82.599	64.274	18.89	9.8115e-07	26.896	-79.697	-44.802	-57.453	-133.868	7.543	18.975	-133.509	-126.136	-2.459	26.174	-126.556	-120.137	-119.747	-113.029	-1.915	-113.363	-8191	255	
21787.264	1	1	0	0	0.25604	0.37666	0.12137	0.13862	0.25025	0.13784	0.2729	0.33753	0.22978	0.24814	0.13857	0.14245	0.25542	0.16374	0.18083	0.13799	-2.0062	-2.4667	-2.1229	-2.6688	-2.3271	-2.2083	-2.8229	-2.3479	-2.3146	-2.5583	-2.1146	-2.5812	-2.3479	-2.3875	-2.5875	-2.3021	208.289	-112.183	56.032	187.181	-14.813	-6.463	102.317	48.002	37.410	78.755	102.600	-143.172	180.329	167.520	-109.835	213.551	0.00019288	0.00030937	6.8112e-05	1070.9	4.1536e-06	2.9856e-06	1137.8	230.47	1.3756e-06	1.9152e-06	286.33	82.538	64.26	18.74	1.8882e-06	26.85	0.00013309	9.0317e-05	2.604e-05	1055.3	1.1531e-06	1.0066e-06	1125.5	228.36	1.1246e-06	9.4554e-07	286.22	82.679	64.162	18.903	1.005e-06	26.921	-83.171	-51.168	-57.598	-133.388	8.548	10.169	-133.466	-126.621	3.315	-6.423	-126.847	-120.221	-119.607	-112.606	13.806	-113.508	-8191	255	
21787.383	1	1	0	0	0.026265	0.21194	0.082687	0.27471	0.10224	0.15483	0.16005	0.1282	0.046293	0.28753	0.14465	0.070693	0.14545	0.05306	0.2057	0.029677	-1.8687	-2.4521	-2.0771	-2.4562	-2.4458	-1.9562	-2.5958	-2.35	-2.25	-2.425	-2.1958	-2.4292	-2.3771	-2.2313	-2.6854	-2.3979	-73.111	77.974	34.672	132.228	34.998	151.720	152.644	-83.738	38.724	200.633	152.793	-81.775	-138.492	-23.975	-90.468	27.275	0.00018435	0.0003233	0.00010154	1075.5	3.5043e-06	3.5353e-06	1136	230.57	1.8266e-06	2.6571e-06	289.67	82.53	64.344	18.772	2.112e-06	26.576	0.00013153	8.9239e-05	2.6104e-05	1055.9	1.1802e-06	9.3815e-07	1123.3	228.45	1.1109e-06	1.0065e-06	286.35	82.739	64.268	18.871	9.8041e-07	26.901	-83.652	-50.322	-36.725	-133.380	-1.929	9.491	-133.272	-126.392	3.611	-16.304	-126.727	-120.411	-119.950	-112.743	-6.925	-113.491	-8191	255	
21787.479	1	1	0	0	0.14854	0.089627	0.20134	0.35009	0.11918	0.065604	0.1659	0.52721	0.064002	0.33542	0.2489	0.21784	0.056828	0.082226	0.23421	0.06801	-1.9083	-2.7146	-2.0729	-2.5771	-2.6042	-2.3375	-2.5438	-2.5646	-2.2333	-2.6979	-2.3688	-2.5563	-2.4979	-2.2313	-2.4167	-2.4938	-105.829	81.641	91.742	144.193	38.349	202.024	-80.799	170.990	47.648	-119.382	-140.185	38.364	-99.122	70.350	45.110	142.236	0.0002121	0.00038495	7.2557e-05	1073.3	2.3911e-06	3.2055e-06	1142.1	229.39	2.7904e-06	2.7143e-06	288.97	82.729	64.196	18.758	1.2888e-06	26.576	0.00013441	9.0845e-05	2.5631e-05	1055.7	1.1964e-06	9.8676e-07	1124.2	227.7	1.1297e-06	9.4097e-07	286.81	82.711	64.193	18.923	9.4107e-07	26.921	-74.012	-45.106	-45.298	-133.451	12.416	-6.088	-133.486	-126.588	12.570	24.212	-126.681	-120.177	-119.636	-112.654	-4.167	-113.258	-8191	255	
21787.574	1	1	0	0	0.073693	0.12457	0.26746	0.033924	0.37975	0.073834	0.19532	0.31254	0.15906	0.3178	0.24323	0.2064	0.12281	0.04381	0.1639	0.27745	-2.0146	-2.4688	-2.2354	-2.3979	-2.5708	-2.3438	-2.6312	-2.4292	-2.1312	-2.5	-2.3187	-2.5917	-2.5917	-2.3083	-2.3104	-2.5187	20.118	-40.977	202.215	-70.605	203.929	131.337	189.955	146.591	-98.017	7.606	123.717	201.806	99.032	-114.873	137.374	213.633	0.00017602	0.00023781	6.7908e-05	1071.2	2.206e-06	2.0902e-06	1137	230.01	1.9849e-06	3.3841e-06	289.55	82.576	63.972	18.835	2.6114e-06	26.66	0.00013038	8.2559e-05	2.3865e-05	1053.7	1.1209e-06	9.2441e-07	1124.1	227.94	1.1133e-06	9.4961e-07	287.09	82.723	64.216	18.901	1.0239e-06	26.845	-80.279	-59.662	-61.462	-133.492	-5.695	-5.412	-133.646	-126.383	49.832	11.313	-126.321	-120.321	-119.945	-112.932	24.413	-113.502	-8191	255	
21787.672	1	1	0	0	0.094424	0.067406	0.31326	0.13625	0.020645	0.28004	0.29982	0.11613	0.20777	0.2113	0.3118	0.085877	0.16522	0.091339	0.034656	0.20331	-1.7542	-2.7417	-2.4979	-2.3729	-2.5938	-2.1604	-2.6	-2.4146	-2.1667	-2.6	-2.4417	-2.2833	-2.5812	-2.3229	-2.5292	-2.6583	158.324	77.550	-86.275	123.786	163.027	143.020	169.888	-95.409	88.510	66.264	-61.016	164.604	18.700	-15.370	126.804	103.999	0.00017518	0.0002135	9.7767e-05	1070.4	2.1385e-06	2.5805e-06	1133.7	230.73	2.146e-06	2.2454e-06	289.12	82.272	64.405	18.805	4.0927e-06	26.563	0.00013044	8.8252e-05	2.4844e-05	1052.7	1.17e-06	9.7658e-07	1122.7	227.87	1.1018e-06	9.0792e-07	286.56	82.529	64.264	18.835	1.0933e-06	26.898	-75.373	-56.130	-42.378	-133.591	-0.423	4.978	-133.472	-126.271	26.095	18.356	-127.104	-120.092	-119.998	-112.755	19.493	-113.781	-8191	255	
21787.793	1	1	0	0	0.18774	0.13434	0.13302	0.1744	0.25331	0.12548	0.18288	0.15825	0.1769	0.12455	0.13529	0.12051	0.21461	0.019167	0.12975	0.019822	-1.8667	-2.4958	-2.2375	-2.4604	-2.6479	-2.2896	-2.6229	-2.5521	-2.1521	-2.5354	-2.55	-2.2292	-2.6333	-2.3208	-2.3354	-2.5896	67.678	197.966	193.162	213.814	-35.523	-32.465	152.045	122.361	106.031	-22.980	126.971	-136.131	175.931	13.364	52.723	160.962	0.00019489	0.00028694	5.8094e-05	1068.8	2.6069e-06	3.066e-06	1138.1	230.36	2.4665e-06	3.615e-06	289.32	82.058	63.864	18.705	1.9174e-06	26.526	0.00012963	8.0425e-05	2.2835e-05	1053.6	1.1693e-06	9.7964e-07	1122.3	227.77	1.0842e-06	9.463e-07	287.33	82.402	64.143	18.871	9.7156e-07	26.9	-78.796	-61.786	-52.609	-133.756	-13.822	11.395	-133.423	-126.396	4.219	-9.913	-126.411	-120.047	-119.547	-112.882	6.255	-113.547	-8191	255	
21787.863	1	1	0	0	0.19643	0.18058	0.30626	0.06498	0.13905	0.018487	0.30395	0.067963	0.24872	0.13283	0.18296	0.17	0.11873	0.18647	0.068647	0.12699	-1.7875	-2.3521	-2.2646	-2.25	-2.5438	-2.3729	-2.4208	-2.7042	-2.2562	-2.5104	-2.5396	-2.2354	-2.7062	-2.3396	-2.4354	-2.7354	-103.994	186.615	38.822	81.697	130.393	43.560	211.918	166.311	135.542	16.097	-43.192	177.733	-21.062	53.358	-93.962	-92.427	0.00018814	0.00027772	5.5869e-05	1067.8	3.3228e-06	3.3473e-06	1141.8	229.82	1.6633e-06	3.7591e-06	287.54	82.884	64.276	18.874	2.5042e-06	26.816	0.00012956	8.894e-05	2.3731e-05	1053	1.0836e-06	9.3713e-07	1124.7	228.2	1.068e-06	9.0081e-07	285.89	82.915	64.224	18.949	1.0225e-06	26.898	-78.036	-65.310	-60.778	-133.425	-26.399	-3.880	-133.374	-126.253	-0.167	30.933	-126.581	-120.192	-119.768	-112.568	5.408	-113.425	-8191	255	
21787.961	1	1	0	0	0.0778	0.301	0.11792	0.23785	0.057339	0.13193	0.1061	0.05607	0.09946	0.15038	0.10074	0.14771	0.14952	0.079282	0.085635	0.14267	-1.8125	-2.3729	-2.4479	-2.2292	-2.5292	-2.4229	-2.3646	-2.7167	-2.1542	-2.3646	-2.5583	-2.2479	-2.6458	-2.4896	-2.2125	-2.7396	207.433	-129.184	-63.399	213.366	170.272	84.002	-46.825	176.663	12.082	-58.984	34.966	-52.297	-63.718	-122.481	5.376	-128.827	0.00021241	0.0004004	0.000105	1071.1	2.1116e-06	1.5402e-06	1132.9	229.69	3.1239e-06	3.2569e-06	288.91	82.169	64.465	18.694	2.5927e-06	26.799	0.00013459	9.2108e-05	2.4594e-05	1053.4	1.1369e-06	9.3815e-07	1121.3	227.91	1.122e-06	9.6257e-07	286.59	82.636	64.328	18.882	9.6492e-07	26.971	-78.998	-58.504	-50.661	-133.785	37.753	2.286	-133.308	-126.884	2.200	-3.322	-126.886	-120.475	-119.446	-112.931	14.954	-113.493	-8191	255	
21788.057	1	1	0	0	0.20746	0.12361	0.15215	0.056499	0.19005	0.1518	0.20789	0.21006	0.070121	0.1567	0.041342	0.13593	0.12234	0.018609	0.13931	0.20609	-1.8375	-2.5021	-2.6396	-2.3688	-2.6125	-2.2417	-2.2458	-2.6771	-2.3479	-2.3583	-2.6229	-2.2729	-2.625	-2.2875	-2.2604	-2.5708	-0.026	92.515	-90.281	168.168	0.376	-119.826	162.070	-120.047	189.956	-126.070	-50.727	197.175	-112.115	151.824	160.486	151.869	0.00018757	0.00025466	8.4606e-05	1066.8	2.2579e-06	3.5727e-06	1135.3	230.14	2.0581e-06	2.6528e-06	288.34	82.525	64.104	18.7	2.5893e-06	26.631	0.00013324	8.7379e-05	2.4607e-05	1051.7	1.1167e-06	9.6946e-07	1120.2	228.38	1.0762e-06	9.3664e-07	286.53	82.722	64.212	18.85	1.0429e-06	26.8	-79.417	-39.887	-34.105	-133.518	-12.384	18.573	-133.262	-126.677	-14.935	25.829	-126.670	-119.897	-119.669	-112.405	3.670	-113.537	-8191	255	
21788.176	1	1	0	0	0.16315	0.039039	0.23697	0.16252	0.05027	0.15372	0.20267	0.20865	0.27804	0.12652	0.13087	0.10737	0.11509	0.2258	0.035323	0.091673	-1.8521	-2.4333	-2.4917	-2.2479	-2.4083	-2.4146	-2.3375	-2.8417	-2.2146	-2.4938	-2.6437	-2.2396	-2.4625	-2.6479	-2.0792	-2.6708	126.178	175.348	122.026	109.163	169.681	60.459	206.266	-128.447	-24.519	189.276	68.828	3.361	-81.037	139.118	-90.780	91.703	0.00018171	0.0003667	6.8061e-05	1064.1	2.1805e-06	2.6994e-06	1136.5	229.5	1.0611e-06	2.4033e-06	287.2	82.856	64.075	18.637	2.8053e-06	26.653	0.0001276	8.917e-05	2.446e-05	1051.2	1.1417e-06	9.4146e-07	1121.1	227.74	1.0731e-06	9.5952e-07	286.47	82.704	64.18	18.892	1.0161e-06	26.891	-80.474	-74.592	-53.322	-133.554	4.557	11.517	-133.640	-126.338	9.209	5.457	-126.955	-120.233	-119.586	-112.790	16.407	-113.593	-8191	255	
21788.271	1	1	0	0	0.041893	0.25703	0.1214	0.2959	0.12353	0.2304	0.27206	0.12854	0.10103	0.11044	0.15773	0.068629	0.10183	0.15118	0.19746	0.14527	-2	-1.9521	-2.4604	-2.4021	-2.4792	-2.5604	-2.2583	-2.5208	-2.3021	-2.2104	-2.6208	-2.4188	-2.4771	-2.5875	-2.0667	-2.4833	118.824	-54.601	-40.853	163.673	212.497	-122.524	104.182	155.706	128.858	168.422	200.201	-136.007	27.809	155.101	178.444	29.895	0.00018272	0.00026311	8.1151e-05	1066.7	2.2958e-06	3.2612e-06	1136.7	230.2	2.2029e-06	3.1087e-06	288.59	82.788	64.268	18.576	2.6704e-06	26.5	0.00012714	8.7425e-05	2.3622e-05	1051.2	1.1574e-06	8.8597e-07	1121.3	227.95	1.0854e-06	9.4783e-07	286.39	82.69	64.201	18.825	1.0561e-06	26.882	-75.448	-51.835	-48.810	-133.443	3.199	7.068	-133.412	-126.593	-2.091	12.406	-127.033	-120.098	-119.641	-112.728	9.750	-113.222	-8191	255	
21788.367	1	1	0	0	0.069611	0.34008	0.12131	0.24202	0.059135	0.23444	0.19129	0.097269	0.19144	0.12629	0.093063	0.24197	0.1785	0.11776	0.205	0.1455	-2.0396	-2.3563	-2.6125	-2.15	-2.35	-2.5833	-2.3583	-2.5229	-2.4229	-2.0979	-2.75	-2.1562	-2.4562	-2.6292	-2.0417	-2.6917	-110.629	-74.270	-68.784	138.106	121.450	-47.812	118.354	202.332	22.643	175.333	105.235	107.507	-91.822	137.028	-101.251	53.796	0.00018168	0.00029148	5.5901e-05	1068.2	4.8376e-07	4.1775e-06	1139.7	230.96	2.0148e-06	2.8518e-06	290.48	82.323	63.792	18.692	2.1721e-06	26.635	0.00012802	9.158e-05	2.3737e-05	1051.6	1.1443e-06	9.3128e-07	1121	227.84	1.1145e-06	9.5393e-07	286.84	82.513	64.072	18.866	1.003e-06	26.895	-80.515	-56.851	-55.405	-133.417	23.760	1.995	-133.341	-126.616	0.670	20.267	-126.497	-120.242	-119.984	-112.601	29.598	-113.076	-8191	255	
21788.463	1	1	0	0	0.15502	0.10955	0.12915	0.24826	0.35294	0.17468	0.10799	0.39593	0.21364	0.12448	0.10592	0.10667	0.39028	0.11699	0.28468	0.10431	-2.05	-1.9896	-2.6208	-2.5125	-2.15	-2.6604	-2.2854	-2.6333	-2.4771	-2.2604	-2.5771	-2.4396	-2.3812	-2.675	-2.2062	-2.5104	-89.967	203.569	44.854	-140.244	143.169	-127.805	151.195	118.715	76.601	-69.362	153.054	195.721	-140.333	-27.404	-20.354	116.140	0.00020582	0.00040009	7.1489e-05	1070.3	3.7667e-06	3.8691e-06	1138.7	228.65	2.4897e-06	3.8334e-06	288.93	82.622	64.115	18.782	2.0686e-06	26.705	0.00012567	9.4081e-05	2.3059e-05	1051.9	1.2176e-06	8.9768e-07	1121.3	227.79	1.0928e-06	1.0597e-06	286.61	82.712	64.183	18.87	9.8656e-07	26.876	-78.084	-33.673	-48.308	-133.447	-6.991	23.619	-133.364	-126.808	14.094	19.020	-126.787	-120.007	-119.893	-112.896	18.657	-113.112	-8191	255	
21788.559	1	1	0	0	0.18574	0.15416	0.13314	0.14964	0.21759	0.090796	0.15629	0.13273	0.084167	0.23889	0.19557	0.070237	0.096971	0.27893	0.2487	0.10863	-2.0375	-2.0125	-2.5667	-2.5833	-2.2	-2.6375	-2.5771	-2.45	-2.575	-2.1	-2.4542	-2.2417	-2.2542	-2.6354	-2.2042	-2.2687	35.129	-108.432	-81.924	112.025	-103.941	177.229	176.295	82.560	149.111	59.471	-92.524	205.826	-98.522	-124.479	176.121	81.728	0.00018826	0.00031896	7.4073e-05	1070.7	2.7713e-06	1.8822e-06	1134.3	230.94	2.9626e-06	2.7883e-06	289.21	82.367	63.902	18.73	3.2078e-06	26.644	0.00012105	9.741e-05	2.254e-05	1052.2	1.2362e-06	9.0506e-07	1120.4	228.46	1.1145e-06	9.6333e-07	286.34	82.673	64.054	18.871	1.0065e-06	26.824	-80.824	-56.901	-61.160	-133.473	21.443	-11.536	-133.563	-126.442	9.735	-2.835	-126.770	-120.114	-119.744	-112.735	28.014	-113.353	-8191	255	
21788.654	1	1	0	0	0.10118	0.18034	0.13443	0.16936	0.13465	0.36385	0.30751	0.020691	0.17434	0.14572	0.12576	0.042696	0.1473	0.086075	0.26806	0.20901	-2.0375	-2.4146	-2.4521	-2.4896	-2.0458	-2.5854	-2.3708	-2.5563	-2.5917	-2.1583	-2.6562	-2.4979	-2.1458	-2.5062	-2.3917	-2.3438	113.267	72.881	-77.209	195.468	182.064	164.289	-136.519	16.895	84.483	98.949	91.368	2.147	180.780	211.636	-139.494	-136.777	0.00017805	0.00023209	8.8319e-05	1068.5	1.7286e-06	2.3808e-06	1136.1	229.42	2.1666e-06	3.7133e-06	289.63	81.923	64.227	18.684	2.7042e-06	26.824	0.00013259	9.1121e-05	2.4287e-05	1050	1.1997e-06	8.6027e-07	1119.6	227.92	1.0317e-06	9.2572e-07	286.39	82.472	64.159	18.863	9.9467e-07	26.874	-79.592	-50.881	-53.499	-133.462	-0.136	-5.525	-133.385	-126.441	-26.948	29.291	-126.758	-120.569	-119.663	-113.054	9.606	-113.075	-8191	255	
21788.752	1	1	0	0	0.17462	0.10933	0.15303	0.085228	0.16118	0.11537	0.5949	0.31346	0.14855	0.30034	0.165	0.2221	0.19876	0.099937	0.048784	0.22077	-2.2687	-2.1958	-2.5187	-2.5104	-2.1583	-2.7021	-2.4333	-2.2667	-2.5521	-2.2167	-2.675	-2.5792	-2.0208	-2.7771	-2.4208	-2.3604	66.538	-31.608	52.216	140.834	-85.910	156.950	180.278	124.124	-106.888	146.501	170.246	104.704	136.270	-21.216	-27.407	-53.828	0.00019269	0.00028546	8.6121e-05	1067.2	1.6171e-06	2.9108e-06	1130.4	230.45	2.8091e-06	2.1032e-06	288.55	82.718	64.339	18.806	1.1254e-06	26.673	0.00012513	9.3485e-05	2.4991e-05	1049.2	1.1576e-06	8.9743e-07	1116.5	228.11	1.0211e-06	9.2953e-07	286.52	82.674	64.079	18.903	1.0131e-06	26.903	-81.014	-29.460	-37.945	-133.766	-57.779	-15.958	-133.100	-126.591	33.299	32.425	-127.145	-120.332	-119.902	-113.029	11.992	-113.383	-8191	255	
21788.871	1	1	0	0	0.32061	0.37004	0.081421	0.12054	0.061568	0.063111	0.14944	0.036764	0.083802	0.078507	0.12622	0.092351	0.13461	0.22704	0.29036	0.17501	-2.1875	-2.2479	-2.5687	-2.6167	-2.3583	-2.5667	-2.6354	-2.1729	-2.5104	-2.2292	-2.35	-2.8333	-2.4229	-2.5542	-2.4188	-2.1979	-44.022	-101.116	134.468	197.700	52.703	99.579	126.239	-107.310	142.259	119.939	0.902	130.202	152.706	-124.177	-141.088	134.966	0.00016599	0.00029075	7.9998e-05	1065.6	2.6951e-06	2.6436e-06	1136.6	231.34	1.665e-06	3.0639e-06	289.72	82.194	64.129	18.718	3.2091e-06	26.726	0.00013	9.5711e-05	2.288e-05	1049.8	1.2047e-06	9.351e-07	1120.3	228.5	1.0115e-06	9.6054e-07	286.15	82.388	64.105	18.864	9.6516e-07	26.866	-75.866	-60.918	-46.154	-133.598	-6.871	-14.188	-133.470	-126.573	-21.014	16.871	-126.803	-120.471	-119.637	-112.736	-1.291	-113.390	-8191	255	
21788.969	1	1	0	0	0.076258	0.11392	0.078678	0.13195	0.19981	0.24417	0.45985	0.1629	0.034798	0.22645	0.089858	0.10877	0.20677	0.11844	0.090348	0.24184	-2.1917	-2.2146	-2.3563	-2.8104	-2.1375	-2.4062	-2.6562	-2.2833	-2.6521	-2.5125	-2.4146	-2.7271	-2.2188	-2.4854	-2.4417	-2.1604	40.966	45.809	35.612	121.446	-134.005	-29.931	111.238	117.492	-107.391	-1.250	157.899	188.663	181.437	178.828	8.656	-52.704	0.0001912	0.000251	8.6356e-05	1068.6	1.8035e-06	2.8893e-06	1133.6	230.46	1.7587e-06	3.1091e-06	288.8	82.524	64.098	18.888	2.4886e-06	26.478	0.00012914	8.7402e-05	2.3852e-05	1050.9	1.2281e-06	9.5749e-07	1120.1	228.08	1.0613e-06	9.979e-07	286.67	82.596	64.107	18.898	1.018e-06	26.79	-82.774	-49.215	-46.603	-133.597	24.940	20.602	-133.380	-126.273	-0.763	23.547	-126.559	-120.046	-119.510	-112.644	4.500	-113.087	-8191	255	
21789.064	1	1	0	0	0.15792	0.16926	0.20326	0.30612	0.089468	0.11339	0.14372	0.28116	0.05159	0.11555	0.13492	0.1278	0.13324	0.2479	0.12987	0.028707	-2.1729	-2.3792	-2.2313	-2.8604	-2.2708	-2.4938	-2.85	-2.2354	-2.4354	-2.2313	-2.3312	-2.5833	-2.1271	-2.4583	-2.575	-2.2812	-22.760	57.707	-97.175	176.082	167.727	-75.903	150.451	214.532	99.573	-9.696	164.490	102.896	189.956	143.483	-69.087	163.779	0.00020466	0.00028457	6.7848e-05	1066	1.8352e-06	2.6895e-06	1135	228.17	1.8573e-06	2.6619e-06	289.84	82.234	64.197	18.731	1.5429e-06	26.708	0.00013007	8.6415e-05	2.4517e-05	1050.1	1.1602e-06	9.0175e-07	1120.2	227.64	1.0428e-06	8.7437e-07	286.38	82.49	63.892	18.843	1.0446e-06	26.883	-76.818	-56.641	-47.710	-133.599	-4.590	2.743	-133.401	-126.344	19.141	26.157	-126.732	-120.262	-119.788	-112.554	17.175	-113.310	-8191	255	
21789.160	1	1	0	0	0.19631	0.22407	0.02152	0.27101	0.23984	0.037468	0.25263	0.23931	0.24031	0.20859	0.33964	0.15775	0.088009	0.18789	0.327	0.16219	-2.0687	-2.3312	-2.0917	-2.7438	-2.2104	-2.3688	-2.6771	-2.1458	-2.4188	-2.4625	-2.2917	-2.7167	-2.2354	-2.3333	-2.5833	-2.3208	-64.322	69.156	195.891	196.536	17.919	18.347	168.232	145.847	82.766	155.637	186.826	-65.390	105.376	205.263	-40.389	206.614	0.00019172	0.0004292	8.3725e-05	1066.9	1.5294e-06	3.1137e-06	1132.8	228.96	3.0227e-06	3.0028e-06	287.4	81.975	63.993	18.645	2.3715e-06	26.648	0.00012757	9.3462e-05	2.4575e-05	1049.7	1.1802e-06	9.7175e-07	1118.2	227.53	1.1071e-06	9.402e-07	285.81	82.342	64.132	18.84	9.5754e-07	26.834	-82.976	-64.504	-58.266	-133.461	-13.658	7.798	-133.253	-126.555	8.306	6.010	-126.697	-120.443	-119.806	-112.535	4.644	-113.379	-8191	255	
21789.256	1	1	0	0	0.12912	0.37756	0.059101	0.37876	0.093814	0.040224	0.16649	0.2886	0.32602	0.082327	0.17054	0.25799	0.06494	0.18468	0.24204	0.17143	-2.1146	-2.3604	-2.2229	-2.6417	-2.3521	-2.2083	-2.6625	-2.3812	-2.4229	-2.6375	-2.2729	-2.6271	-2.525	-2.2896	-2.6542	-2.3646	215.320	211.667	139.523	156.655	-98.536	-114.064	127.500	202.140	-141.104	79.200	98.231	18.092	153.555	-66.765	-41.674	-113.315	0.00020082	0.00029944	8.0181e-05	1066	2.2834e-06	2.8471e-06	1132.7	231.04	1.7378e-06	4.0114e-06	288.43	82.201	64.432	18.684	2.0981e-06	26.666	0.00013121	8.3822e-05	2.4793e-05	1048.9	1.1995e-06	1.0048e-06	1119.1	227.92	1.0276e-06	9.2292e-07	286.57	82.421	64.284	18.873	9.9861e-07	26.878	-73.994	-59.760	-44.649	-133.585	-15.343	14.575	-133.345	-126.663	-6.465	25.896	-126.908	-119.956	-119.774	-112.591	5.446	-113.325	-8191	255	
21789.352	1	1	0	0	0.24143	0.27406	0.20054	0.065622	0.16482	0.10114	0.078311	0.10975	0.11947	0.18629	0.14426	0.088347	0.13239	0.35107	0.31593	0.30894	-2.0458	-2.4771	-2.0917	-2.7812	-2.3896	-2.1833	-2.7271	-2.2667	-2.4667	-2.6375	-2.2687	-2.6896	-2.6437	-2.4083	-2.4458	-2.3688	137.930	-37.098	110.707	99.819	-107.014	170.359	-6.397	193.851	-47.040	0.900	148.193	-75.372	80.124	-111.553	167.474	-106.568	0.00018914	0.00036228	8.4754e-05	1067.1	2.3239e-06	4.633e-06	1133.8	228.66	2.8618e-06	4.2327e-06	288.81	82.042	63.853	18.806	2.5387e-06	26.684	0.00013019	8.917e-05	2.5074e-05	1049.4	1.1783e-06	1.0107e-06	1118.6	227.42	1.0673e-06	8.914e-07	286.44	82.55	64.072	18.918	9.1623e-07	26.911	-81.311	-65.441	-20.185	-133.652	32.061	-2.371	-133.639	-126.476	-19.290	18.034	-127.117	-120.236	-119.872	-112.508	12.014	-113.469	-8191	255	
21789.473	1	1	0	0	0.17514	0.22245	0.068794	0.32828	0.40538	0.26031	0.07908	0.21517	0.17909	0.23777	0.11156	0.076974	0.11704	0.15914	0.09561	0.085432	-2.1479	-2.6312	-2.2083	-2.8187	-2.5208	-2.3812	-2.6458	-2.6063	-2.4271	-2.7375	-2.4313	-2.5604	-2.3271	-2.3354	-2.6833	-2.3583	27.000	140.147	196.442	149.938	78.727	-127.876	105.760	-41.063	-91.722	45.964	-26.297	-91.536	57.884	28.616	115.013	127.276	0.00018773	0.00024428	9.1516e-05	1072.3	2.658e-06	2.4147e-06	1126.8	229.42	2.0559e-06	2.5856e-06	289.52	82.264	64.256	18.741	2.2973e-06	26.526	0.0001285	8.8458e-05	2.4575e-05	1051	1.2033e-06	1.0155e-06	1119.6	227.82	1.1538e-06	9.3919e-07	286.43	82.548	64.14	18.866	9.9443e-07	26.775	-81.628	-60.713	-50.605	-133.763	-40.930	18.453	-133.428	-126.392	-13.503	24.949	-127.066	-119.985	-119.850	-113.144	54.214	-113.690	-8191	255	
21789.568	1	1	0	0	0.025797	0.12593	0.23292	0.14868	0.14882	0.1175	0.25826	0.17853	0.12416	0.11937	0.064621	0.015559	0.17597	0.21513	0.18625	0.18653	-1.75	-2.5125	-2.2917	-2.5208	-2.6458	-2.1604	-2.7042	-2.4458	-2.1896	-2.6562	-2.3333	-2.4562	-2.3667	-2.2229	-2.5958	-2.5458	122.962	153.292	-123.667	164.835	-55.216	136.347	175.442	146.352	59.678	136.927	-59.716	-122.818	-77.311	131.458	-57.222	130.605	0.00018993	0.00031249	6.8724e-05	1066.8	2.4694e-06	2.3491e-06	1136.5	228.86	1.522e-06	4.7301e-06	287.8	82.201	64.198	18.725	1.8918e-06	26.551	0.00013276	8.6094e-05	2.6008e-05	1049.7	1.2276e-06	9.3739e-07	1119	227.57	1.095e-06	9.125e-07	286.51	82.47	64.182	18.839	1.0222e-06	26.811	-80.279	-70.913	-58.141	-133.599	-2.235	3.938	-133.416	-126.386	1.735	21.135	-126.948	-120.325	-119.356	-112.834	2.971	-113.745	-8191	255	
21789.664	1	1	0	0	0.17618	0.23491	0.051834	0.24464	0.13284	0.14275	0.074306	0.12666	0.14989	0.26591	0.1653	0.093647	0.14838	0.064748	0.2235	0.11584	-2.0979	-2.6521	-2.2542	-2.5021	-2.5458	-2.1125	-2.7521	-2.4458	-2.3792	-2.7938	-2.4375	-2.3688	-2.75	-2.2	-2.4625	-2.5625	-110.814	-73.341	149.917	153.024	167.512	137.300	-78.718	25.446	-96.602	-91.975	117.431	-102.423	167.297	59.516	-35.041	186.818	0.00021092	0.00032602	5.9624e-05	1067.5	2.1479e-06	2.2752e-06	1131.8	228.99	2.9924e-06	2.5743e-06	287.51	82.029	64.005	18.663	1.8205e-06	26.542	0.00013087	8.5474e-05	2.3922e-05	1049.4	1.1212e-06	9.44e-07	1119.8	227.65	1.1663e-06	9.43e-07	286.31	82.454	64.064	18.819	1.0249e-06	26.792	-80.806	-50.820	-44.495	-133.535	5.093	24.808	-133.440	-126.468	-2.799	-4.070	-126.981	-120.238	-119.950	-112.611	14.469	-113.507	-8191	255	
21789.736	1	1	0	0	0.15661	0.11216	0.077134	0.093515	0.17524	0.096942	0.32105	0.12978	0.22014	0.097743	0.2482	0.087521	0.14267	0.30008	0.20771	0.2593	-1.8021	-2.5729	-2.5208	-2.3896	-2.6417	-2.4	-2.7354	-2.5	-2.2583	-2.5812	-2.4125	-2.4271	-2.525	-2.1688	-2.4646	-2.6562	52.232	6.528	176.952	81.413	181.536	-42.925	155.125	209.102	146.644	136.459	180.205	208.565	-73.224	178.675	-24.986	-23.831	0.0001875	0.00024315	8.6687e-05	1063.6	1.8624e-06	2.1181e-06	1134.8	229.37	3.2173e-06	2.6387e-06	288.36	82.35	64.227	18.695	1.8622e-06	26.42	0.00013339	8.9652e-05	2.4959e-05	1048.7	1.1293e-06	9.3484e-07	1119.1	227.42	1.147e-06	9.1758e-07	285.71	82.589	64.09	18.844	9.8139e-07	26.818	-78.918	-73.820	-38.922	-133.532	9.973	-6.595	-133.431	-126.648	0.264	19.764	-126.868	-120.173	-120.143	-112.722	29.297	-113.213	-8191	255	
21789.855	1	1	0	0	0.24904	0.26072	0.074689	0.023482	0.17437	0.059088	0.36667	0.049943	0.10591	0.059815	0.1247	0.095891	0.21985	0.21651	0.24791	0.12277	-1.7	-2.5125	-2.3812	-2.4	-2.6833	-2.0583	-2.4604	-2.8396	-2.1688	-2.5333	-2.5917	-2.2771	-2.6875	-2.2062	-2.5583	-2.5104	-138.570	74.196	-87.489	202.472	-109.578	-73.145	198.022	-107.419	65.851	-27.205	-120.964	129.769	73.104	-99.065	26.421	-77.117	0.00019498	0.00011927	5.1174e-05	1064.2	1.6864e-06	2.5901e-06	1134	230.07	2.3397e-06	3.6979e-06	287.7	82.142	64.235	18.719	2.142e-06	26.637	0.00013212	8.9858e-05	2.5272e-05	1049.7	1.2076e-06	9.8345e-07	1119.9	227.72	1.2029e-06	9.5698e-07	286.3	82.296	64.083	18.828	1.0308e-06	26.843	-79.114	-47.792	-42.649	-133.250	-1.720	-12.629	-133.444	-126.264	11.072	8.133	-127.035	-120.065	-119.779	-112.677	5.997	-113.495	-8191	255	
21789.953	1	1	0	0	0.23624	0.14714	0.20054	0.35645	0.15179	0.29811	0.090805	0.28495	0.23328	0.19637	0.068822	0.16726	0.24673	0.059249	0.10953	0.091559	-1.7729	-2.5	-2.3375	-2.4167	-2.6458	-2.4271	-2.5021	-2.6354	-2.2229	-2.6063	-2.5563	-2.2542	-2.7729	-2.425	-2.5271	-2.6875	133.206	40.930	-30.516	-142.165	31.039	-122.587	195.012	156.044	140.619	108.108	80.030	161.735	190.479	102.923	163.541	20.848	0.00018381	0.0002263	7.0562e-05	1067.3	1.7516e-06	4.0441e-06	1134.9	228.49	2.3688e-06	2.8665e-06	288.1	82.126	64.178	18.615	1.9867e-06	26.586	0.00013536	8.6851e-05	2.4754e-05	1051	1.1217e-06	9.3433e-07	1119.1	227.35	1.1593e-06	9.5876e-07	286.44	82.364	64.038	18.798	1.0466e-06	26.787	-77.974	-73.044	-32.222	-133.335	-11.646	28.031	-133.531	-126.307	6.369	9.541	-126.672	-120.457	-119.583	-112.651	19.872	-113.342	-8191	255	
21790.049	1	1	0	0	0.19967	0.2928	0.19814	0.29129	0.34955	0.061718	0.21939	0.10609	0.22349	0.17316	0.28937	0.11615	0.071671	0.044052	0.20316	0.12181	-2.0292	-2.3812	-2.3438	-2.3708	-2.7042	-2.4083	-2.5146	-2.6958	-2.1	-2.6625	-2.5417	-2.0021	-2.5667	-2.3042	-2.1521	-2.5708	-127.793	166.205	-113.598	142.372	70.834	55.665	-115.641	-97.331	-90.205	65.755	146.450	-109.060	47.988	163.207	60.103	215.418	0.00018466	0.00027175	6.2698e-05	1060.3	3.3328e-06	3.0549e-06	1137.4	229.79	2.0552e-06	2.7865e-06	288.16	82.308	63.975	18.799	2.7698e-06	26.642	0.00013259	9.1144e-05	2.7032e-05	1048.3	1.1314e-06	9.6029e-07	1119.7	227.52	1.1073e-06	9.2851e-07	285.92	82.431	63.959	18.844	1.1085e-06	26.8	-80.330	-53.382	-36.789	-133.538	4.990	-1.017	-133.185	-126.554	4.427	-8.619	-126.898	-120.242	-119.727	-112.819	35.213	-113.263	-8191	255	
21790.145	1	1	0	0	0.40924	0.23016	0.1562	0.21714	0.032059	0.17615	0.40934	0.17209	0.35733	0.064921	0.02274	0.3846	0.076785	0.19412	0.23057	0.16446	-1.8625	-2.3729	-2.5208	-2.3458	-2.6604	-2.3021	-2.3812	-2.5792	-2.3354	-2.5563	-2.5958	-2.225	-2.5062	-2.5375	-2.1437	-2.6104	-39.629	213.123	24.806	159.185	182.995	57.937	150.629	193.508	-30.146	-128.029	-70.640	179.819	-64.779	-133.016	211.529	83.877	0.00017676	0.00023396	9.031e-05	1065.9	2.3335e-06	2.1861e-06	1131.6	229.42	2.2394e-06	2.3258e-06	288.73	82.264	64.259	18.745	2.5573e-06	26.343	0.00012968	9.2865e-05	2.5771e-05	1049.5	1.1667e-06	1.0036e-06	1118.6	227.76	1.0919e-06	1.0472e-06	286.15	82.353	64.138	18.822	1.0493e-06	26.726	-79.369	-46.560	-55.930	-133.586	2.781	20.683	-133.473	-126.533	-2.134	0.695	-126.668	-120.548	-119.893	-112.711	6.344	-113.154	-8191	255	
21790.264	1	1	0	0	0.076636	0.11728	0.20252	0.19759	0.17246	0.23494	0.22252	0.26741	0.13785	0.16055	0.20721	0.20489	0.24509	0.18007	0.25947	0.049561	-1.6958	-2.3792	-2.3104	-2.4083	-2.5354	-2.4354	-2.4813	-2.6125	-2.375	-2.275	-2.6583	-2.25	-2.5083	-2.625	-2.0292	-2.7125	-31.791	-54.511	23.621	87.511	158.133	-130.785	-57.163	-111.408	-42.427	19.359	-59.329	-19.493	-32.514	175.598	184.667	-98.789	0.00020543	0.0002662	6.7171e-05	1060.9	1.739e-06	2.6824e-06	1130.3	228.85	1.9557e-06	2.1521e-06	288.39	81.818	64.296	18.784	2.3994e-06	26.593	0.00013497	9.2406e-05	2.3954e-05	1046.3	1.244e-06	9.6946e-07	1117.2	227.27	1.088e-06	1.0365e-06	285.72	82.268	64.125	18.868	1.049e-06	26.784	-77.406	-72.546	-40.554	-133.793	1.285	4.806	-133.416	-126.430	12.173	-2.059	-126.985	-120.275	-119.785	-112.550	18.072	-112.880	-8191	255	
21790.338	1	1	0	0	0.13303	0.19771	0.192	0.12418	0.22794	0.21822	0.19231	0.090973	0.20412	0.14018	0.091835	0.38823	0.262	0.22398	0.15537	0.25291	-1.8333	-2.2146	-2.6146	-2.4729	-2.4229	-2.4437	-2.2792	-2.3625	-2.2812	-2.3125	-2.6917	-2.1146	-2.6354	-2.5833	-2.2125	-2.5146	150.384	-125.834	99.736	-54.300	-21.796	96.604	-35.898	154.542	174.902	45.434	81.747	-118.875	197.466	-35.547	-44.199	188.947	0.00019751	0.00025922	0.00010787	1060.2	2.9866e-06	2.2575e-06	1134.3	229.76	3.8398e-06	2.554e-06	287.62	81.995	63.652	18.561	2.8789e-06	26.462	0.00013408	9.6147e-05	2.5311e-05	1046.1	1.2083e-06	9.6666e-07	1117.4	227.53	1.1533e-06	1.0398e-06	285.47	82.183	63.703	18.739	1.0748e-06	26.709	-83.741	-58.525	-41.755	-133.527	-12.571	-15.985	-133.401	-126.300	6.695	-6.938	-126.923	-120.149	-119.574	-112.751	-2.461	-113.613	-8191	255	
21790.434	1	1	0	0	0.079285	0.23229	0.3843	0.35205	0.27619	0.26268	0.17533	0.15911	0.1708	0.19294	0.032217	0.23227	0.07105	0.19264	0.12288	0.27826	-2.125	-2.25	-2.5167	-2.2729	-2.2021	-2.3271	-2.3063	-2.6396	-2.5229	-2.2875	-2.8396	-2.2854	-2.2875	-2.6667	-2.1333	-2.575	51.036	14.499	163.205	201.724	59.540	152.234	108.826	-119.125	54.336	51.566	142.713	206.829	-144.259	105.233	3.535	189.937	0.00018356	0.00035986	7.2459e-05	1057.6	2.0317e-06	4.1482e-06	1127.2	228.74	3.7813e-06	3.0148e-06	288.27	81.922	63.55	18.689	3.0313e-06	26.442	0.00013351	9.6514e-05	2.4012e-05	1044.7	1.1574e-06	1.0112e-06	1114.8	226.81	1.1018e-06	1.0142e-06	285.22	82.079	63.763	18.808	1.081e-06	26.688	-74.232	-64.684	-61.434	-133.328	8.152	1.868	-133.414	-126.681	-5.850	-1.255	-126.772	-120.088	-119.884	-112.325	15.361	-113.615	-8191	255	
21790.553	1	1	0	0	0.086864	0.20976	0.2581	0.031128	0.04415	0.089514	0.18281	0.42369	0.079294	0.064107	0.052671	0.089524	0.33721	0.32805	0.24294	0.1578	-1.9354	-2.1688	-2.6125	-2.3917	-2.2625	-2.6688	-2.3333	-2.5854	-2.3833	-2.1312	-2.6625	-2.2875	-2.2729	-2.7083	-2.1937	-2.6104	-15.145	172.356	141.535	202.990	213.276	133.421	110.411	213.018	-51.407	-94.852	-7.728	6.214	119.636	77.724	185.103	179.334	0.00016317	0.00029429	4.7233e-05	1059.9	2.8182e-06	2.4825e-06	1130.1	228.34	2.2721e-06	3.8991e-06	287.55	81.588	63.888	18.684	3.2713e-06	26.496	0.00012845	9.1626e-05	2.3519e-05	1044.1	1.1614e-06	9.384e-07	1114.3	226.98	1.0981e-06	9.9511e-07	285.64	82.134	63.916	18.792	1.0884e-06	26.671	-78.187	-55.272	-67.415	-133.721	-21.183	-3.245	-133.330	-126.642	2.409	18.426	-127.005	-120.016	-119.973	-112.842	2.946	-113.135	-8191	255	
21790.648	1	1	0	0	0.068178	0.26035	0.22336	0.20531	0.27981	0.16267	0.34193	0.2197	0.25828	0.042458	0.28888	0.14213	0.12412	0.25757	0.1048	0.11268	-2.0896	-1.9229	-2.4208	-2.4333	-2.3104	-2.5438	-2.3646	-2.5479	-2.4313	-2.0583	-2.5604	-2.5104	-2.2271	-2.7708	-2.2771	-2.3167	187.513	-15.770	-60.917	175.754	87.947	-109.167	169.611	149.894	-80.573	62.777	183.836	-92.664	-100.010	63.089	106.294	18.234	0.00016603	0.0002733	6.437e-05	1064.6	1.6822e-06	2.2844e-06	1124.9	229.08	2.1607e-06	3.341e-06	287.28	81.477	63.917	18.609	2.4105e-06	26.67	0.00012926	9.2314e-05	2.2886e-05	1046.9	1.1771e-06	8.7427e-07	1113.8	227.22	1.0526e-06	9.5876e-07	285.38	82.136	63.898	18.728	1.0202e-06	26.758	-81.053	-61.101	-62.170	-133.604	2.375	-13.760	-133.334	-126.534	-1.194	6.166	-126.507	-119.999	-119.572	-112.891	3.631	-113.366	-8191	255	
21790.744	1	1	0	0	0.14178	0.091026	0.13044	0.24771	0.099196	0.22713	0.134	0.19517	0.10593	0.096153	0.18589	0.1441	0.21126	0.12306	0.039854	0.088363	-1.9833	-2.1292	-2.4792	-2.5521	-2.2	-2.5604	-2.4146	-2.3646	-2.5563	-2.2208	-2.5333	-2.3667	-2.2167	-2.6937	-2.4125	-2.425	-106.316	100.055	65.938	160.919	10.498	-98.920	146.339	175.110	72.924	-130.576	175.791	153.316	-119.601	-102.739	48.800	34.106	0.0002185	0.00027028	9.4876e-05	1059.2	2.0757e-06	4.172e-06	1126.9	228.62	2.162e-06	3.4361e-06	288.56	81.255	63.968	18.583	1.3796e-06	26.473	0.00013	8.6324e-05	2.3686e-05	1043.5	1.2002e-06	8.9743e-07	1114.6	226.83	1.0714e-06	9.5266e-07	285.94	82.108	63.926	18.778	9.7451e-07	26.748	-80.264	-43.653	-61.038	-133.381	12.863	0.941	-133.519	-126.300	4.666	0.638	-126.693	-120.395	-119.664	-113.104	25.435	-113.385	-8191	255	
21790.865	1	1	0	0	0.30392	0.22915	0.10419	0.22231	0.011843	0.076497	0.12746	0.19496	0.13256	0.27319	0.089419	0.27947	0.41603	0.068065	0.042907	0.15238	-2.125	-2.1063	-2.3375	-2.6375	-2.2708	-2.3958	-2.3292	-2.2792	-2.5917	-2.1292	-2.5458	-2.6	-2.2812	-2.6479	-2.5521	-2.5271	-11.893	-114.303	198.773	152.687	186.693	-11.378	-128.807	55.283	51.593	-112.175	156.664	174.963	173.295	-116.803	-22.298	-33.858	0.00018997	0.0002069	9.2939e-05	1054.4	2.8263e-06	2.309e-06	1125.3	227.05	2.5012e-06	3.5329e-06	285.95	81.768	63.637	18.527	1.8438e-06	26.573	0.00012648	8.8183e-05	2.4313e-05	1043	1.2217e-06	9.0175e-07	1114.4	226.53	1.1008e-06	9.7909e-07	284.71	82.194	63.907	18.759	9.6074e-07	26.845	-78.376	-47.682	-22.542	-133.637	-2.102	-25.052	-133.556	-126.548	-21.557	11.195	-126.533	-120.248	-120.060	-112.403	3.183	-113.468	-8191	255	
21790.961	1	1	0	0	0.13491	0.36593	0.13701	0.14504	0.12547	0.26281	0.089417	0.1659	0.17882	0.08085	0.32612	0.15853	0.094088	0.076112	0.018059	0.19276	-2.2229	-2.1688	-2.3854	-2.6625	-1.9875	-2.5896	-2.6188	-2.2875	-2.6396	-2.2792	-2.5354	-2.7125	-2.1625	-2.6813	-2.5083	-2.3937	198.329	148.792	-26.442	-129.773	-41.057	156.605	-115.487	168.862	39.248	-1.018	-136.989	-69.607	153.399	196.885	191.484	36.213	0.00019658	0.00026526	7.6416e-05	1051.3	2.4573e-06	2.5591e-06	1122.5	227.31	2.1171e-06	3.6867e-06	287.82	81.703	63.727	18.549	2.3656e-06	26.257	0.0001269	8.552e-05	2.3839e-05	1042.7	1.1736e-06	9.6004e-07	1114.2	226.72	1.0269e-06	9.2165e-07	285.42	82.262	63.749	18.724	1.051e-06	26.784	-79.097	-59.088	-48.147	-133.513	5.085	20.695	-133.552	-126.624	-2.146	-2.887	-127.044	-120.341	-119.813	-112.725	12.893	-113.054	-8191	255	
21791.033	1	1	0	0	0.39838	0.14223	0.14351	0.20311	0.074599	0.2064	0.25678	0.30001	0.17946	0.10669	0.31693	0.075145	0.28497	0.14208	0.25563	0.13319	-2.1354	-2.2083	-2.1646	-2.6937	-2.1167	-2.4562	-2.5563	-2.3417	-2.5354	-2.1458	-2.4354	-2.6708	-2.2562	-2.5187	-2.4896	-2.175	1.607	-38.776	-131.583	204.597	-80.563	-132.308	146.887	137.205	30.092	139.163	-34.364	66.617	186.650	160.738	44.555	24.677	0.00016189	0.00016416	8.4995e-05	1063.6	2.3895e-06	2.1387e-06	1125.7	227.48	2.7052e-06	2.7834e-06	285.82	81.724	63.679	18.643	3.0952e-06	26.128	0.00012616	8.2973e-05	2.4645e-05	1046.3	1.1283e-06	9.1473e-07	1113.5	227.02	1.0302e-06	9.9943e-07	285.15	82.278	63.839	18.814	9.8139e-07	26.783	-73.539	-65.929	-37.623	-133.590	-0.278	-11.247	-133.683	-126.510	1.949	24.008	-126.885	-120.214	-119.749	-112.994	14.558	-113.576	-8191	255	
21791.154	1	1	0	0	0.17517	0.10208	0.15983	0.26533	0.17728	0.1191	0.3281	0.34332	0.11547	0.12603	0.004656	0.27566	0.14651	0.12472	0.27575	0.18707	-1.9667	-2.3542	-2.2417	-2.7021	-2.3042	-2.475	-2.525	-2.1146	-2.475	-2.3375	-2.3208	-2.525	-2.1312	-2.3896	-2.4417	-2.2	-27.466	-141.358	-73.721	-134.400	192.400	189.859	119.146	-103.229	95.113	200.866	43.939	-120.983	-51.928	-48.448	104.342	184.894	0.0001999	0.0003035	9.9814e-05	1054.6	1.7507e-06	2.4249e-06	1123.3	226.18	2.6887e-06	3.1376e-06	287.91	81.158	64.026	18.457	3.1946e-06	26.445	0.00012606	8.6438e-05	2.4063e-05	1044.3	1.1414e-06	8.6638e-07	1113	226.24	1.0526e-06	9.2851e-07	285.63	82.019	63.935	18.758	1.0289e-06	26.788	-83.367	-55.309	-44.792	-133.659	-3.554	-10.258	-133.679	-126.628	7.155	-22.804	-126.625	-120.466	-120.039	-112.749	11.783	-113.521	-8191	255	
21791.248	1	1	0	0	0.2746	0.12615	0.11202	0.24708	0.16315	0.10384	0.36326	0.31639	0.062299	0.19761	0.16319	0.14956	0.3052	0.17794	0.2388	0.18479	-2.2	-2.4292	-2.2479	-2.6	-2.3896	-2.3958	-2.6917	-2.1688	-2.4396	-2.5521	-2.3271	-2.5375	-2.1896	-2.2042	-2.5708	-2.2792	61.670	197.074	-97.507	154.428	45.248	-4.659	136.216	64.205	-114.580	-12.541	167.652	113.058	-108.340	137.372	183.188	-102.414	0.00018496	0.0001723	5.9833e-05	1053.5	2.2839e-06	2.4603e-06	1121.4	225.79	1.7539e-06	2.2004e-06	285.29	81.702	63.912	18.591	2.8757e-06	26.323	0.00012841	8.6806e-05	2.4741e-05	1043.1	1.1955e-06	9.4579e-07	1114.7	226.23	1.0615e-06	8.6319e-07	285.48	82.315	63.902	18.781	9.8262e-07	26.712	-80.215	-89.103	-51.397	-133.516	29.884	24.023	-133.385	-126.671	38.821	-20.003	-126.749	-120.296	-119.773	-112.795	17.893	-113.683	-8191	255	
21791.344	1	1	0	0	0.1575	0.088705	0.20753	0.30181	0.29189	0.24363	0.16945	0.19888	0.10178	0.077726	0.16567	0.14209	0.098213	0.17137	0.15979	0.13883	-1.8896	-2.2562	-2.1646	-2.7521	-2.2896	-2.3729	-2.9062	-2.1667	-2.4833	-2.5896	-2.1396	-2.6625	-2.4583	-2.3521	-2.6271	-2.3604	158.899	-135.876	-9.899	-107.660	-62.799	189.735	19.011	-102.518	-142.627	-8.747	-95.609	188.905	6.475	-53.819	86.339	-88.810	0.00019938	0.00035537	6.2853e-05	1053.9	2.2305e-06	3.2616e-06	1121.1	228.52	2.9376e-06	3.4611e-06	286.45	81.29	63.574	18.549	2.3632e-06	26.375	0.00012735	9.6423e-05	2.3359e-05	1043.4	1.1733e-06	1.0005e-06	1115	226.9	1.1232e-06	8.9445e-07	285.53	82.182	63.853	18.835	9.9025e-07	26.786	-77.299	-69.257	-63.509	-133.681	-12.765	28.640	-133.391	-126.814	11.508	27.032	-127.224	-120.290	-120.010	-113.086	-16.419	-113.591	-8191	255	
21791.439	1	1	0	0	0.16501	0.11734	0.10869	0.17412	0.023729	0.12094	0.10255	0.13953	0.17086	0.27582	0.1999	0.20313	0.22199	0.034713	0.04957	0.062065	-2.1104	-2.3417	-2.1437	-2.5146	-2.2542	-2.2562	-2.675	-2.2333	-2.4188	-2.5042	-2.1958	-2.6688	-2.4521	-2.1667	-2.4854	-2.4333	139.555	138.282	21.700	-111.932	-72.416	21.545	175.817	112.642	-107.150	-129.150	85.379	124.650	211.422	137.819	-44.152	200.241	0.0001881	0.00045974	7.5617e-05	1052.4	2.6746e-06	3.4248e-06	1118.6	228.14	3.6396e-06	2.516e-06	285.63	80.996	63.3	18.609	2.0451e-06	26.268	0.00013068	8.8458e-05	2.5215e-05	1043.7	1.1774e-06	9.9847e-07	1114.1	227.36	1.0798e-06	8.2989e-07	285.4	82.098	63.845	18.863	9.4992e-07	26.771	-76.408	-63.418	-42.751	-133.716	-3.277	-0.899	-133.610	-126.819	10.280	28.740	-126.956	-120.597	-120.075	-112.546	-14.109	-113.560	-8191	255	
21791.561	1	1	0	0	0.40318	0.20488	0.12411	0.282	0.30487	0.15483	0.33722	0.28524	0.11233	0.098592	0.1075	0.27621	0.099674	0.1809	0.138	0.13397	-2.0125	-2.5125	-2.0708	-2.5333	-2.4104	-2.3021	-2.7438	-2.2104	-2.2354	-2.7208	-2.1375	-2.6125	-2.6021	-2.3521	-2.7229	-2.2667	109.134	-18.045	147.869	191.343	138.524	-12.699	116.350	132.015	130.018	-130.509	189.641	202.561	50.363	-122.266	-26.442	-77.430	0.00018091	0.00029875	9.077e-05	1054.6	2.3297e-06	2.9364e-06	1128.2	228.29	2.5719e-06	2.608e-06	286.08	82.027	64.002	18.74	2.0738e-06	26.528	0.00012999	8.3202e-05	2.4914e-05	1045.5	1.154e-06	9.6716e-07	1118.3	227.69	1.0953e-06	8.6598e-07	286.26	82.445	63.994	18.906	9.5902e-07	26.8	-79.109	-36.439	-31.543	-133.885	-19.100	-2.110	-133.817	-126.603	1.226	10.420	-126.937	-120.380	-119.953	-113.088	5.614	-113.487	-8191	255	
21791.633	1	1	0	0	0.084652	0.1639	0.13173	0.14865	0.01378	0.28949	0.23226	0.10917	0.092927	0.11755	0.28125	0.34469	0.26118	0.086986	0.090296	0.071637	-1.9583	-2.6542	-2.2313	-2.6458	-2.7062	-2.3854	-2.7729	-2.35	-2.2792	-2.8	-2.4417	-2.6583	-2.5229	-2.15	-2.5625	-2.6167	130.713	95.589	-43.165	192.299	-133.609	125.579	179.621	192.151	94.048	-108.648	189.882	148.375	205.378	148.917	183.122	4.887	0.00019041	0.00022059	8.0298e-05	1058	3.8178e-06	3.8307e-06	1130.4	227.36	2.9557e-06	2.3646e-06	286.98	81.714	63.986	18.684	3.0398e-06	26.583	0.00012674	7.8635e-05	2.4569e-05	1045.6	1.1519e-06	9.6691e-07	1117.6	227.35	1.1275e-06	8.8454e-07	285.85	82.396	64.286	18.871	9.7574e-07	26.895	-82.265	-81.265	-53.662	-133.781	-13.653	23.452	-133.787	-126.289	0.759	10.400	-126.944	-120.365	-120.088	-112.988	8.122	-113.252	-8191	255	
21791.729	1	1	0	0	0.1517	0.14425	0.11095	0.17098	0.16554	0.098028	0.29045	0.11614	0.16328	0.15388	0.16537	0.026853	0.13461	0.10823	0.10114	0.074972	-1.9333	-2.3583	-2.3042	-2.4542	-2.5354	-2.0896	-2.8979	-2.3937	-2.1125	-2.7979	-2.3937	-2.2396	-2.6667	-2.0833	-2.5604	-2.4188	-86.620	-42.164	-42.463	-138.480	97.481	-141.095	195.364	-45.394	182.173	-87.081	14.048	98.152	96.637	-22.109	94.735	94.684	0.00018504	0.00032165	6.683e-05	1059.7	2.2705e-06	2.6117e-06	1125.6	228.56	2.6936e-06	2.1931e-06	286.02	81.119	63.778	18.796	2.9602e-06	26.581	0.00012899	8.4235e-05	2.407e-05	1047.8	1.1528e-06	9.2212e-07	1117.3	227.3	1.1285e-06	9.1123e-07	285.77	82.266	64.024	18.887	9.8926e-07	26.835	-78.475	-57.291	-37.312	-133.691	-10.211	19.139	-133.490	-126.689	24.789	24.976	-127.079	-120.248	-119.734	-113.045	19.114	-113.614	-8191	255	
21791.824	1	1	0	0	0.28088	0.20161	0.15259	0.44409	0.13659	0.19966	0.26379	0.11372	0.061909	0.13914	0.2624	0.2088	0.056767	0.086246	0.16109	0.13805	-1.8375	-2.5708	-2.2333	-2.5542	-2.6333	-2.1833	-2.5542	-2.4458	-2.2979	-2.525	-2.3521	-2.4083	-2.6625	-2.2771	-2.4542	-2.4813	127.503	214.221	-59.912	184.857	96.270	-79.470	113.808	185.505	-35.935	113.552	-84.662	15.535	-11.731	-36.054	70.073	-105.865	0.00018341	0.0001853	5.0393e-05	1058.8	2.361e-06	4.2776e-06	1128.3	228.83	1.605e-06	3.7393e-06	285.46	81.363	63.154	18.481	3.1465e-06	26.313	0.0001297	8.3317e-05	2.4447e-05	1044.5	1.0981e-06	1.0013e-06	1116	227.15	1.0936e-06	1.0294e-06	285.45	82.208	63.679	18.738	1.005e-06	26.689	-73.790	-46.653	-33.333	-133.873	11.852	27.490	-133.286	-126.656	23.449	1.781	-126.884	-120.034	-120.334	-112.649	-9.529	-113.517	-8191	255	
21791.945	1	1	0	0	0.24792	0.17281	0.076664	0.18041	0.119	0.048066	0.18067	0.10082	0.050555	0.042292	0.20248	0.35284	0.13585	0.24649	0.026598	0.40074	-1.7	-2.6479	-2.3125	-2.4271	-2.7125	-2.1771	-2.6583	-2.6229	-2.075	-2.6354	-2.4854	-2.1167	-2.6854	-2.3479	-2.3646	-2.6646	-108.003	-142.787	-42.538	-142.598	-57.318	160.196	174.634	107.202	154.562	175.534	-102.737	164.812	28.017	-16.407	-68.964	-109.811	0.00018814	0.00028975	7.0959e-05	1060	1.2459e-06	3.8303e-06	1123.5	226.13	2.2972e-06	1.562e-06	286.85	81.412	63.488	18.546	2.0949e-06	26.451	0.00012904	8.6117e-05	2.5324e-05	1046	1.1659e-06	9.7989e-07	1115.3	226.53	1.121e-06	8.7996e-07	285.6	82.196	63.722	18.778	9.9295e-07	26.804	-79.168	-54.275	-12.783	-133.559	15.033	30.544	-133.345	-126.656	2.353	0.439	-126.834	-120.478	-119.860	-113.288	-12.404	-113.267	-8191	255	
21792.043	1	1	0	0	0.13466	0.12732	0.14898	0.058552	0.24058	0.30116	0.17361	0.17031	0.19772	0.16351	0.13838	0.10278	0.15026	0.053977	0.049052	0.20512	-1.7771	-2.3917	-2.4021	-2.3063	-2.6312	-2.2375	-2.4813	-2.5833	-2.2229	-2.6333	-2.6104	-2.2979	-2.6542	-2.3937	-2.3563	-2.5875	-128.994	-142.127	-132.114	-116.715	-29.532	94.701	147.728	-68.171	-107.192	158.076	144.304	-114.191	153.309	-111.717	77.076	-94.148	0.00018649	0.00026669	9.712e-05	1054.2	3.2082e-06	2.2282e-06	1124.7	228.36	2.3416e-06	3.5995e-06	287.21	81.339	63.788	18.585	1.8465e-06	26.349	0.00012897	9.018e-05	2.5644e-05	1044.4	1.1833e-06	9.5164e-07	1114.7	226.79	1.1205e-06	9.8113e-07	285.42	82.348	63.951	18.766	1.0126e-06	26.732	-76.852	-83.412	-62.478	-133.507	-14.798	27.079	-133.502	-126.590	0.160	6.868	-127.044	-120.324	-119.984	-112.926	21.145	-113.306	-8191	255	
21792.139	1	1	0	0	0.18845	0.22868	0.12014	0.1253	0.21538	0.21892	0.14266	0.14288	0.061552	0.26954	0.23378	0.093994	0.19268	0.11821	0.21418	0.13259	-1.7687	-2.4125	-2.4396	-2.1729	-2.6104	-2.2854	-2.2125	-2.6604	-2.2458	-2.4938	-2.5146	-2.3271	-2.4208	-2.4229	-2.2729	-2.7146	-77.644	-134.512	113.333	-117.089	187.289	68.213	143.437	41.744	171.134	90.324	156.623	204.240	188.382	45.480	-60.929	-130.468	0.00020128	0.00015652	7.9033e-05	1060	2.1235e-06	3.786e-06	1126	227.21	3.2133e-06	3.9266e-06	286.37	81.433	63.786	18.47	1.9392e-06	26.389	0.00013503	9.1098e-05	2.43e-05	1045.9	1.145e-06	9.8015e-07	1116.2	227.04	1.1574e-06	9.8875e-07	285.56	82.387	64.013	18.772	1.0217e-06	26.755	-76.184	-67.840	-52.889	-133.791	5.381	10.986	-133.352	-126.623	11.942	15.033	-126.852	-120.573	-119.698	-112.851	16.200	-113.614	-8191	255	
21792.234	1	1	0	0	0.12673	0.059528	0.21729	0.33011	0.099014	0.16558	0.14373	0.26062	0.20196	0.16105	0.051542	0.11134	0.12537	0.035932	0.082047	0.20711	-1.8104	-2.4583	-2.5417	-2.1479	-2.3292	-2.4229	-2.3146	-2.6354	-2.2812	-2.5396	-2.6354	-2.3167	-2.5854	-2.5333	-2.1917	-2.5708	-26.853	-56.962	133.640	-132.654	-21.033	-139.484	135.365	207.807	59.003	189.905	110.067	93.157	117.362	133.661	-130.125	139.000	0.00021042	0.00016854	6.4066e-05	1053.2	2.006e-06	3.282e-06	1121.4	227.49	3.1967e-06	1.9463e-06	287.71	81.509	63.672	18.597	3.9181e-06	26.472	0.00012731	9.0065e-05	2.5157e-05	1045.5	1.1167e-06	9.2568e-07	1113.5	226.72	1.1104e-06	9.3283e-07	286.2	82.34	63.91	18.835	1.0289e-06	26.741	-82.515	-37.552	-54.499	-133.588	31.151	8.512	-133.560	-126.590	-6.510	12.495	-127.039	-120.183	-119.915	-113.007	10.799	-113.513	-8191	255	
21792.328	1	1	0	0	0.077843	0.12103	0.1011	0.035911	0.19272	0.17458	0.26021	0.094007	0.13219	0.33152	0.13488	0.20877	0.16532	0.20343	0.35828	0.033129	-1.925	-2.2375	-2.6167	-2.2083	-2.5521	-2.6146	-2.4625	-2.7521	-2.275	-2.2479	-2.5438	-2.275	-2.4	-2.6333	-2.2042	-2.7333	184.597	128.822	113.611	58.387	-85.797	85.910	-123.394	-92.398	-130.109	45.876	169.660	202.355	-85.816	116.062	8.330	16.550	0.00019516	0.00030718	8.3213e-05	1056.4	1.8707e-06	3.5754e-06	1121.4	226.68	2.2889e-06	3.3489e-06	285.55	81.125	63.67	18.64	2.1922e-06	26.489	0.00012831	8.9032e-05	2.3628e-05	1044.5	1.0843e-06	8.4525e-07	1113.8	226.94	1.0914e-06	9.4173e-07	285.49	82.282	63.887	18.818	9.4721e-07	26.86	-74.682	-42.392	-41.163	-133.684	31.312	17.680	-133.486	-126.381	13.719	12.304	-127.024	-120.187	-120.095	-112.684	-4.613	-113.342	-8191	255	
21792.426	1	1	0	0	0.12544	0.17656	0.17594	0.09836	0.11131	0.079967	0.069616	0.072316	0.25846	0.26506	0.27467	0.037521	0.0175	0.27406	0.20362	0.046733	-1.9167	-2.3458	-2.6458	-2.3021	-2.4333	-2.4854	-2.2208	-2.4688	-2.4104	-2.2917	-2.7917	-2.2875	-2.4271	-2.525	-2.3	-2.5792	-129.043	-65.985	213.312	146.396	44.120	11.006	107.713	46.799	44.132	-86.376	193.619	-55.751	194.137	201.901	-134.421	165.267	0.00018608	0.00031952	8.6164e-05	1053.6	2.5708e-06	4.1196e-06	1122.5	228.33	1.4496e-06	2.8793e-06	287.55	81.953	63.868	18.762	2.0197e-06	26.484	0.00012811	9.057e-05	2.5125e-05	1044.8	1.1376e-06	9.1881e-07	1114.3	226.86	1.063e-06	9.2241e-07	286.24	82.575	64.103	18.853	9.6443e-07	26.845	-82.579	-65.214	-45.944	-133.622	-13.900	3.519	-133.543	-126.582	20.068	11.136	-126.939	-120.053	-119.737	-113.020	14.677	-113.341	-8191	255	
21792.545	1	1	0	0	0.30872	0.10161	0.19278	0.24945	0.27903	0.13647	0.33533	0.11296	0.13551	0.12628	0.10044	0.076379	0.23128	0.10137	0.10898	0.29496	-2.0167	-2.2708	-2.5167	-2.3979	-2.5479	-2.6667	-2.1042	-2.6271	-2.2229	-2.3333	-2.5646	-2.3479	-2.45	-2.4792	-2.1979	-2.5729	205.720	38.972	-81.903	187.278	-110.455	73.804	-130.962	155.059	149.334	139.225	151.199	199.357	95.159	-81.033	83.491	34.755	0.00018472	0.00033291	9.3492e-05	1051.4	2.3788e-06	2.4454e-06	1123.8	227.76	1.2823e-06	2.74e-06	285.58	81.42	63.557	18.554	1.8885e-06	26.529	0.00012535	8.2376e-05	2.4038e-05	1042.3	1.0947e-06	8.7121e-07	1114.3	227.47	1.0228e-06	9.3004e-07	285.64	82.313	63.969	18.849	9.7131e-07	26.776	-78.502	-42.661	-51.295	-133.676	9.355	18.375	-133.541	-126.546	44.899	20.167	-126.804	-120.453	-119.646	-113.089	-0.356	-113.168	-8191	255	
21792.641	1	1	0	0	0.21896	0.27756	0.097364	0.2806	0.040759	0.34292	0.12708	0.090562	0.21756	0.090527	0.019134	0.15047	0.24694	0.22809	0.14649	0.15199	-2.0292	-2.1604	-2.6437	-2.2917	-2.3438	-2.5854	-2.1708	-2.4729	-2.5417	-2.2625	-2.7313	-2.3479	-2.4271	-2.5979	-2.1562	-2.4062	-134.077	183.615	70.087	210.977	65.100	-34.522	168.890	63.879	90.027	187.935	106.315	99.292	98.986	115.874	209.530	140.638	0.00020338	0.00031422	9.7924e-05	1055.6	3.001e-06	2.0659e-06	1123.7	229.16	1.7016e-06	2.6713e-06	287.08	81.533	63.837	18.795	2.9903e-06	26.453	0.00012968	8.9101e-05	2.2675e-05	1045.5	1.1617e-06	9.5062e-07	1114.2	227.6	1.0478e-06	8.9648e-07	285.81	82.437	64.081	18.892	1.0252e-06	26.819	-78.577	-62.401	-34.425	-133.870	-14.365	8.255	-133.617	-126.696	25.180	26.452	-126.556	-120.082	-119.767	-112.910	3.101	-113.386	-8191	255	
21792.736	1	1	0	0	0.22872	0.05255	0.099275	0.07036	0.17846	0.038256	0.19057	0.092282	0.093582	0.14759	0.37688	0.2675	0.32756	0.16422	0.03935	0.12013	-2.0104	-1.9208	-2.5104	-2.4	-2.4667	-2.4313	-2.3771	-2.5083	-2.4667	-2.2021	-2.6083	-2.2646	-2.2562	-2.6271	-2.1667	-2.5083	-8.790	-40.589	-67.856	144.378	165.848	-10.706	-114.105	156.328	23.895	188.308	-103.682	-81.717	99.170	116.268	138.619	147.247	0.00019431	0.00021436	6.5607e-05	1057.4	1.811e-06	2.6019e-06	1127.4	227.75	1.8966e-06	2.8078e-06	285.42	81.778	63.758	18.673	2.1158e-06	26.488	0.00012846	9.1763e-05	2.2944e-05	1046.3	1.1517e-06	9.0481e-07	1115.1	227.43	1.1046e-06	1.0307e-06	285.57	82.517	64.022	18.864	1.0286e-06	26.829	-74.854	-42.455	-50.799	-133.802	-21.186	-1.748	-133.600	-126.511	6.883	21.732	-126.873	-120.413	-119.738	-112.385	15.399	-113.755	-8191	255	
21792.855	1	1	0	0	0.050537	0.07517	0.26647	0.20396	0.065384	0.068113	0.12244	0.2164	0.14505	0.16393	0.026933	0.16803	0.010435	0.089951	0.21448	0.099912	-2.15	-2.1396	-2.4771	-2.5354	-2.4437	-2.8208	-2.4604	-2.4667	-2.3667	-2.2354	-2.4854	-2.6521	-2.2188	-2.5167	-2.3208	-2.3812	-19.157	-33.355	125.523	165.840	98.988	175.238	188.797	150.882	182.536	101.998	198.222	-40.186	-27.737	167.384	73.552	128.401	0.00020837	0.00031941	8.7304e-05	1059	2.7626e-06	2.4648e-06	1122.3	227.42	3.5507e-06	3.9856e-06	289.48	81.281	63.684	18.612	1.3249e-06	26.397	0.00012902	8.2881e-05	2.3391e-05	1046.7	1.1902e-06	9.3815e-07	1114.9	227.16	1.0673e-06	9.6206e-07	286.53	82.413	64.105	18.848	9.659e-07	26.836	-78.008	-36.053	-50.821	-133.564	16.512	-12.388	-133.493	-126.398	-23.675	2.292	-126.837	-120.305	-119.796	-112.745	27.260	-113.542	-8191	255	
21792.928	1	1	0	0	0.20216	0.18485	0.085257	0.27035	0.19908	0.095333	0.25313	0.098277	0.075036	0.25199	0.1395	0.12701	0.17896	0.20861	0.15098	0.15358	-2.1958	-2.0563	-2.5208	-2.3646	-2.175	-2.5083	-2.6146	-2.3542	-2.4771	-2.3167	-2.3625	-2.4688	-2.3771	-2.6708	-2.6229	-2.2542	-65.771	85.519	-65.162	182.781	79.823	-57.445	141.686	-116.944	-61.556	92.922	169.926	139.734	-9.154	-119.314	33.907	-91.635	0.00019657	0.00034845	6.8051e-05	1058.6	2.3442e-06	3.1361e-06	1123.4	228.13	2.884e-06	2.9879e-06	287.39	81.678	64.028	18.567	2.9166e-06	26.464	0.00013109	8.9101e-05	2.4543e-05	1046.6	1.1862e-06	8.7808e-07	1115.7	227.22	1.1051e-06	9.0564e-07	286.22	82.59	64.108	18.878	1.0225e-06	26.88	-80.841	-41.690	-41.895	-133.512	-10.677	0.231	-133.474	-126.607	11.096	6.049	-127.015	-120.451	-119.836	-113.195	1.465	-113.713	-8191	255	
21793.023	1	1	0	0	0.39599	0.029876	0.20677	0.30287	0.20204	0.16278	0.3068	0.14347	0.18116	0.096728	0.30508	0.11587	0.10063	0.33837	0.27735	0.23895	-2.2562	-2.3458	-2.4396	-2.6542	-2.1542	-2.4542	-2.5563	-2.3042	-2.6729	-2.2021	-2.3583	-2.7375	-1.9458	-2.5479	-2.4917	-2.2917	22.189	-141.545	-35.224	132.433	27.600	207.857	138.756	209.810	26.827	200.467	127.328	193.399	205.331	-59.335	-142.124	134.476	0.00019107	0.00033123	0.00010766	1057.2	1.8034e-06	3.6087e-06	1123.5	228.45	2.3946e-06	2.5603e-06	289.18	81.743	64.446	18.606	2.2364e-06	26.429	0.00012726	8.5704e-05	2.3878e-05	1046.5	1.1228e-06	9.5877e-07	1117	227.53	1.0912e-06	9.6486e-07	287.08	82.607	64.264	18.877	9.3e-07	26.89	-80.070	-50.304	-42.659	-133.677	-7.113	11.558	-133.641	-126.763	15.156	28.462	-126.614	-120.530	-119.939	-112.915	32.759	-113.696	-8191	255	
21793.119	1	1	0	0	0.15532	0.29252	0.1453	0.15061	0.14559	0.2504	0.10233	0.10294	0.11041	0.027949	0.040666	0.15699	0.23648	0.055016	0.14679	0.22815	-2.2062	-2.3042	-2.3021	-2.6625	-2.0125	-2.6479	-2.5021	-2.2938	-2.6521	-2.1896	-2.2833	-2.7375	-2.2021	-2.5271	-2.4208	-2.3104	-89.881	17.054	148.588	174.999	194.427	-5.065	-57.883	73.876	-105.641	-31.846	206.753	121.601	-45.956	17.826	-43.731	14.993	0.0001879	0.00032426	0.00011165	1056.1	2.889e-06	2.4953e-06	1123.8	228.3	1.6169e-06	2.53e-06	288.12	81.764	63.96	18.609	2.0454e-06	26.398	0.00012533	8.7173e-05	2.4095e-05	1044.6	1.2095e-06	9.239e-07	1117.2	228.03	1.0329e-06	9.1428e-07	286.64	82.487	64.214	18.848	1.0207e-06	26.794	-80.668	-50.939	-49.929	-133.651	-3.176	24.972	-133.644	-126.582	15.209	-11.575	-127.032	-120.408	-120.020	-113.011	0.122	-113.541	-8191	255	
21793.217	1	1	0	0	0.13397	0.06329	0.37112	0.081696	0.28439	0.12032	0.11401	0.24614	0.069636	0.25603	0.071876	0.32671	0.14252	0.26568	0.18792	0.17946	-2.225	-2.1792	-2.2521	-2.7854	-2.225	-2.4896	-2.7646	-2.0542	-2.4875	-2.2417	-2.2417	-2.5979	-2.4292	-2.4083	-2.5	-2.4313	71.626	-37.446	182.842	119.296	-82.583	-11.610	46.197	200.178	176.201	181.352	-123.633	-138.076	-8.273	-106.474	-29.350	111.311	0.00021323	0.00030387	7.4429e-05	1060.1	2.9031e-06	2.7869e-06	1117.8	227.66	3.1771e-06	3.5574e-06	285.74	81.788	64.007	18.571	2.979e-06	26.447	0.00012873	8.5176e-05	2.5125e-05	1047.6	1.2021e-06	9.86e-07	1115.9	227.68	1.1138e-06	9.1402e-07	285.78	82.496	63.992	18.839	9.4303e-07	26.893	-80.302	-56.139	-50.107	-133.672	23.000	-18.187	-133.721	-126.299	1.746	10.123	-126.938	-120.280	-119.651	-112.831	1.652	-113.249	-8191	255	
21793.338	1	1	0	0	0.17807	0.1572	0.19093	0.20758	0.17615	0.13162	0.14323	0.20765	0.21423	0.16996	0.16035	0.32389	0.18617	0.31268	0.033895	0.11207	-2.1354	-2.3229	-2.225	-2.7542	-2.1458	-2.1958	-2.7854	-2.2562	-2.6604	-2.5896	-2.1875	-2.7729	-2.2896	-2.3729	-2.8083	-2.3646	-124.637	37.058	77.918	205.452	-76.033	-21.140	180.252	-127.816	-93.793	186.319	35.322	-119.128	164.940	182.038	114.871	97.164	0.00020745	0.0004008	7.4244e-05	1059.9	3.387e-06	3.4543e-06	1123.1	228.27	1.9785e-06	2.42e-06	288.09	82.064	63.44	18.537	2.2609e-06	26.528	0.00013073	9.158e-05	2.3014e-05	1046.2	1.1905e-06	9.4146e-07	1115	227.63	1.0433e-06	9.2165e-07	286.66	82.71	63.969	18.848	9.6123e-07	26.814	-76.754	-71.896	-65.446	-133.873	-6.955	12.493	-133.670	-126.669	-6.566	40.777	-126.843	-120.304	-119.804	-112.614	17.541	-113.688	-8191	255	
21793.434	1	1	0	0	0.11026	0.19348	0.21673	0.29899	0.13598	0.19974	0.39418	0.071763	0.16778	0.25973	0.12319	0.15624	0.27135	0.083814	0.2758	0.066853	-1.9583	-2.4188	-2.1042	-2.6729	-2.3063	-2.15	-2.6604	-2.2458	-2.4646	-2.5354	-2.2125	-2.6771	-2.2479	-2.3812	-2.4562	-2.3125	-126.684	156.873	2.272	-133.764	68.109	-99.558	148.617	21.587	-66.861	-84.028	137.286	-108.540	207.029	-121.537	129.129	-9.254	0.00016885	0.00028508	7.543e-05	1063.2	1.6476e-06	4.6103e-06	1128.1	229.28	1.8224e-06	2.381e-06	285.99	81.925	63.83	18.593	1.731e-06	26.466	0.00013212	9.0455e-05	2.6296e-05	1046.7	1.0974e-06	9.468e-07	1116.4	227.63	1.1013e-06	9.9485e-07	285.99	82.497	64.173	18.838	1.0001e-06	26.838	-74.237	-67.325	-45.872	-133.663	-31.691	6.338	-133.408	-126.443	-7.106	23.874	-127.056	-120.421	-119.978	-112.637	-4.182	-113.550	-8191	255	
21793.506	1	1	0	0	0.062513	0.25233	0.21805	0.20794	0.2243	0.23574	0.14743	0.12509	0.1953	0.19696	0.19048	0.36075	0.20566	0.19122	0.024332	0.18034	-1.9312	-2.5062	-1.9208	-2.6396	-2.3625	-2.2875	-2.6688	-2.2333	-2.5312	-2.475	-2.2188	-2.5042	-2.4521	-2.3521	-2.5792	-2.2646	156.729	36.330	-72.752	157.578	36.518	-89.649	-135.416	-55.175	-142.851	-35.467	6.351	109.431	-63.176	189.573	97.556	186.667	0.00020598	0.00018703	8.3536e-05	1060.8	2.8142e-06	2.3137e-06	1125.9	228.43	1.9965e-06	4.0459e-06	286.03	81.411	63.502	18.613	2.7113e-06	26.539	0.00012663	8.5428e-05	2.4697e-05	1047.1	1.1686e-06	9.3535e-07	1116.3	227.63	1.0603e-06	8.9394e-07	285.91	82.491	64.081	18.861	9.7574e-07	26.856	-78.048	-49.018	-52.142	-133.731	-33.542	17.859	-133.722	-126.501	-2.760	6.010	-126.582	-120.174	-119.653	-112.856	9.287	-113.528	-8191	255	
21793.625	1	1	0	0	0.4413	0.18984	0.11805	0.43975	0.21672	0.074452	0.21237	0.05033	0.1679	0.037793	0.32161	0.15405	0.087128	0.055386	0.18474	0.099077	-2	-2.6	-2.2521	-2.65	-2.4167	-2.1979	-2.7646	-2.2771	-2.4146	-2.575	-2.2833	-2.6125	-2.3792	-2.2625	-2.6521	-2.4417	29.395	-124.147	5.975	-140.779	39.657	173.693	183.554	104.196	180.172	160.633	152.268	175.859	-125.955	145.553	-83.882	-122.351	0.00017992	0.00028563	0.00010346	1056.4	2.1152e-06	2.2611e-06	1126.4	228.49	2.593e-06	3.1351e-06	288.47	81.768	63.874	18.675	1.999e-06	26.588	0.00012968	8.3202e-05	2.4575e-05	1045.3	1.0945e-06	8.8546e-07	1117.1	227.47	1.0849e-06	9.2292e-07	287.1	82.633	64.152	18.908	9.6344e-07	26.864	-79.669	-65.357	-55.102	-133.755	-3.928	36.402	-133.496	-126.624	10.887	55.518	-126.890	-120.243	-120.110	-112.328	-4.658	-113.017	-8191	255	
21793.721	1	1	0	0	0.18925	0.17706	0.18548	0.24244	0.078501	0.073029	0.21624	0.1198	0.10072	0.063689	0.23932	0.068612	0.11384	0.17025	0.075256	0.11034	-2.0521	-2.5187	-2.125	-2.6604	-2.6063	-2.3396	-2.7792	-2.5438	-2.4854	-2.9542	-2.3917	-2.4104	-2.4771	-2.2792	-2.5479	-2.325	207.138	-21.597	137.354	-97.368	-141.355	33.643	114.047	190.449	33.526	101.212	210.465	209.780	48.337	39.856	15.949	46.153	0.00018831	0.00034692	9.7997e-05	1059.4	2.9605e-06	2.5982e-06	1123.9	228.26	1.9684e-06	3.3721e-06	288.74	81.923	64.025	18.693	2.2522e-06	26.425	0.00012907	8.8619e-05	2.5311e-05	1047	1.1007e-06	8.4398e-07	1115.9	228.25	1.0666e-06	8.7056e-07	286.45	82.741	64.147	18.857	9.5779e-07	26.886	-79.823	-45.734	-50.766	-133.558	-20.699	9.218	-133.756	-126.627	-2.059	-9.199	-126.804	-120.159	-119.845	-112.788	7.911	-113.413	-8191	255	
21793.818	1	1	0	0	0.21174	0.23396	0.048011	0.27046	0.20393	0.20843	0.30209	0.16476	0.092961	0.077783	0.1883	0.098276	0.10753	0.22129	0.19973	0.027086	-1.7062	-2.7208	-2.2687	-2.5958	-2.5396	-2.2687	-2.8333	-2.475	-2.275	-2.6229	-2.4917	-2.5125	-2.7604	-2.3979	-2.5687	-2.7042	27.203	24.791	6.549	190.731	41.123	22.250	172.557	57.198	123.867	-133.924	173.292	33.268	58.268	63.203	-65.186	89.484	0.00018125	0.00035362	6.7828e-05	1058.9	1.5826e-06	3.349e-06	1126	229.48	1.9685e-06	3.2969e-06	289.02	82.021	63.909	18.763	2.4549e-06	26.42	0.0001285	7.9117e-05	2.2841e-05	1047	1.1278e-06	9.6055e-07	1117.4	228.03	1.077e-06	9.1351e-07	287.15	82.714	64.115	18.921	9.9959e-07	26.836	-76.333	-66.209	-44.471	-133.448	19.852	7.159	-133.624	-126.568	22.496	1.696	-126.784	-120.358	-120.081	-112.669	43.724	-113.359	-8191	255	
21793.938	1	1	0	0	0.33319	0.10747	0.093083	0.13478	0.26797	0.096304	0.49796	0.21599	0.27524	0.13276	0.14376	0.14623	0.08232	0.38219	0.20062	0.1286	-1.8458	-2.6167	-2.2792	-2.4083	-2.5187	-2.1271	-2.5458	-2.3875	-2.3229	-2.775	-2.475	-2.1396	-2.6562	-2.25	-2.4625	-2.575	-50.624	40.887	83.281	140.480	-17.880	75.282	150.157	130.986	-26.010	120.767	127.870	185.716	-133.461	148.816	160.170	-97.672	0.00019681	0.00041599	0.00010945	1064.5	2.4422e-06	2.354e-06	1131.4	227.7	2.3725e-06	3.1054e-06	288.1	81.892	64.267	18.771	1.8128e-06	26.606	0.00013072	8.3041e-05	2.6155e-05	1049.2	1.0962e-06	8.9514e-07	1119.4	227.78	1.0387e-06	8.7768e-07	286.62	82.765	64.342	18.892	9.0811e-07	26.899	-75.889	-71.491	-33.340	-133.631	12.749	-10.082	-133.561	-126.497	-9.738	4.197	-127.034	-120.237	-120.138	-112.955	-16.300	-113.279	-8191	255	
21794.033	1	1	0	0	0.3742	0.052663	0.26394	0.29599	0.25382	0.22064	0.41065	0.26847	0.14452	0.24628	0.26111	0.071614	0.13388	0.15265	0.23073	0.16494	-1.6063	-2.5708	-2.2458	-2.2354	-2.5438	-2.2083	-2.4417	-2.3854	-2.1437	-2.6229	-2.5354	-2.325	-2.7208	-2.2396	-2.4104	-2.4125	-30.890	-90.187	147.396	209.960	-84.336	-134.068	132.702	145.760	-109.341	-92.041	-122.203	-83.043	133.382	194.618	187.999	-62.822	0.00020308	0.00015366	5.8915e-05	1059.5	1.7984e-06	3.5168e-06	1130.3	229.04	2.5458e-06	2.0237e-06	288.61	82.057	64.374	18.781	3.0537e-06	26.647	0.00013329	8.6415e-05	2.3206e-05	1047.9	1.0767e-06	9.4986e-07	1118.8	228.1	1.1511e-06	9.2495e-07	287.08	82.864	64.497	18.951	9.6197e-07	26.974	-74.249	-70.683	-73.007	-133.629	-18.263	3.795	-133.457	-126.525	10.336	-13.052	-126.871	-120.295	-119.805	-113.002	17.705	-113.323	-8191	255	
#DATA ENDS
