BOXY.EXE: ISS Imagent and Oximeter Data Acquisition Program Version 0.80
Ascii Record File

#ACQ INFORMATION
2  Detector Channels 
16  External MUX Channels 
1  Auxiliary Channels 
5000  Waveform (CCF) Frequency (Hz)
1  Waveforms Skipped 
30  Waveforms Averaged 
1  Cycles Averaged 
16  Acquisitions per Waveform 
10.0806  Updata Rate (Hz) 

#FILE INFORMATION
TRUE -- External MUX Channel results are PARSED.
FALSE -- AC DC and Phase are NOT grouped.
TRUE -- Companion Program Settings File CREATED.
FALSE -- AC data not excluded
FALSE -- DC data not excluded
FALSE -- Phase data not excluded
FALSE -- Auxillary Chn. data not excluded
Tab delimiters

#CALIBRATION STATE
TRUE -- Waveform Calibration Values APPLIED.


#AUX CALIBRATION VALUES
Val Type	aux-1	

Term	1.0000e+00	
Factor	0.0000e+00	


#WF CALIBRATION VALUES
A = Detector Channel
Val Type	A-AC1	A-AC2	A-AC3	A-AC4	A-AC5	A-AC6	A-AC7	A-AC8	A-AC9	A-AC10	A-AC11	A-AC12	A-AC13	A-AC14	A-AC15	A-AC16	A-DC1	A-DC2	A-DC3	A-DC4	A-DC5	A-DC6	A-DC7	A-DC8	A-DC9	A-DC10	A-DC11	A-DC12	A-DC13	A-DC14	A-DC15	A-DC16	A-Ph1	A-Ph2	A-Ph3	A-Ph4	A-Ph5	A-Ph6	A-Ph7	A-Ph8	A-Ph9	A-Ph10	A-Ph11	A-Ph12	A-Ph13	A-Ph14	A-Ph15	A-Ph16	

Term	0.00000e+00	0.00000e+00	0.00000e+00	0.00000e+00	0.00000e+00	0.00000e+00	0.00000e+00	0.00000e+00	0.00000e+00	0.00000e+00	0.00000e+00	0.00000e+00	0.00000e+00	0.00000e+00	0.00000e+00	0.00000e+00	0.00000e+00	0.00000e+00	0.00000e+00	0.00000e+00	0.00000e+00	0.00000e+00	0.00000e+00	0.00000e+00	0.00000e+00	0.00000e+00	0.00000e+00	0.00000e+00	0.00000e+00	0.00000e+00	0.00000e+00	0.00000e+00	0.00000e+00	0.00000e+00	0.00000e+00	0.00000e+00	0.00000e+00	0.00000e+00	0.00000e+00	0.00000e+00	0.00000e+00	0.00000e+00	0.00000e+00	0.00000e+00	0.00000e+00	0.00000e+00	0.00000e+00	0.00000e+00	
Factor	1.00000e+00	1.00000e+00	1.00000e+00	1.00000e+00	1.00000e+00	1.00000e+00	1.00000e+00	1.00000e+00	1.00000e+00	1.00000e+00	1.00000e+00	1.00000e+00	1.00000e+00	1.00000e+00	1.00000e+00	1.00000e+00	1.00000e+00	1.00000e+00	1.00000e+00	1.00000e+00	1.00000e+00	1.00000e+00	1.00000e+00	1.00000e+00	1.00000e+00	1.00000e+00	1.00000e+00	1.00000e+00	1.00000e+00	1.00000e+00	1.00000e+00	1.00000e+00	X	X	X	X	X	X	X	X	X	X	X	X	X	X	X	X	

B = Detector Channel
Val Type	B-AC1	B-AC2	B-AC3	B-AC4	B-AC5	B-AC6	B-AC7	B-AC8	B-AC9	B-AC10	B-AC11	B-AC12	B-AC13	B-AC14	B-AC15	B-AC16	B-DC1	B-DC2	B-DC3	B-DC4	B-DC5	B-DC6	B-DC7	B-DC8	B-DC9	B-DC10	B-DC11	B-DC12	B-DC13	B-DC14	B-DC15	B-DC16	B-Ph1	B-Ph2	B-Ph3	B-Ph4	B-Ph5	B-Ph6	B-Ph7	B-Ph8	B-Ph9	B-Ph10	B-Ph11	B-Ph12	B-Ph13	B-Ph14	B-Ph15	B-Ph16	

Term	0.00000e+00	0.00000e+00	0.00000e+00	0.00000e+00	0.00000e+00	0.00000e+00	0.00000e+00	0.00000e+00	0.00000e+00	0.00000e+00	0.00000e+00	0.00000e+00	0.00000e+00	0.00000e+00	0.00000e+00	0.00000e+00	0.00000e+00	0.00000e+00	0.00000e+00	0.00000e+00	0.00000e+00	0.00000e+00	0.00000e+00	0.00000e+00	0.00000e+00	0.00000e+00	0.00000e+00	0.00000e+00	0.00000e+00	0.00000e+00	0.00000e+00	0.00000e+00	-8.78341e+01	-1.29763e+02	-1.22348e+02	-1.81483e+02	-4.98279e+01	-6.89854e+01	-1.57126e+02	-1.62015e+02	-5.76591e+01	-6.88165e+01	-1.72009e+02	-1.70235e+02	-1.79413e+02	-1.76982e+02	-6.01312e+01	-1.49920e+02	
Factor	1.77355e-05	1.76987e-04	5.28443e-05	1.54970e-01	1.38419e-06	1.88219e-06	1.81523e-01	6.50010e-02	1.26713e-06	1.82042e-06	8.98908e-02	3.02853e-02	2.99964e-02	9.87595e-03	1.55353e-06	1.42067e-02	1.35357e-05	2.64044e-05	7.43121e-06	7.68445e-02	2.53274e-07	2.97136e-07	8.49333e-02	3.23673e-02	2.62873e-07	2.97535e-07	4.35786e-02	1.47918e-02	1.52274e-02	4.96744e-03	2.72784e-07	6.91996e-03	X	X	X	X	X	X	X	X	X	X	X	X	X	X	X	X	



#DISTANCE SETTINGS
A = Detector Channel
A-1	A-2	A-3	A-4	A-5	A-6	A-7	A-8	A-9	A-10	A-11	A-12	A-13	A-14	A-15	A-16	

2.5000e+00	3.0000e+00	2.5000e+00	3.0000e+00	2.0000e+00	3.0000e+00	1.5000e+00	3.0000e+00	3.0000e+00	3.0000e+00	3.0000e+00	3.0000e+00	3.0000e+00	3.0000e+00	1.5000e+00	3.0000e+00	

B = Detector Channel
B-1	B-2	B-3	B-4	B-5	B-6	B-7	B-8	B-9	B-10	B-11	B-12	B-13	B-14	B-15	B-16	

1.0000e+01	1.0000e+01	1.0000e+01	1.4400e+00	1.0000e+01	1.0000e+01	1.5100e+00	1.9400e+00	1.0000e+01	1.0000e+01	1.9900e+00	2.4900e+00	2.4100e+00	2.9000e+00	1.0000e+01	2.9800e+00	




#DATA BEGINS
time	group	step	mark	flag	A-AC1	A-AC2	A-AC3	A-AC4	A-AC5	A-AC6	A-AC7	A-AC8	A-AC9	A-AC10	A-AC11	A-AC12	A-AC13	A-AC14	A-AC15	A-AC16	A-DC1	A-DC2	A-DC3	A-DC4	A-DC5	A-DC6	A-DC7	A-DC8	A-DC9	A-DC10	A-DC11	A-DC12	A-DC13	A-DC14	A-DC15	A-DC16	A-Ph1	A-Ph2	A-Ph3	A-Ph4	A-Ph5	A-Ph6	A-Ph7	A-Ph8	A-Ph9	A-Ph10	A-Ph11	A-Ph12	A-Ph13	A-Ph14	A-Ph15	A-Ph16	B-AC1	B-AC2	B-AC3	B-AC4	B-AC5	B-AC6	B-AC7	B-AC8	B-AC9	B-AC10	B-AC11	B-AC12	B-AC13	B-AC14	B-AC15	B-AC16	B-DC1	B-DC2	B-DC3	B-DC4	B-DC5	B-DC6	B-DC7	B-DC8	B-DC9	B-DC10	B-DC11	B-DC12	B-DC13	B-DC14	B-DC15	B-DC16	B-Ph1	B-Ph2	B-Ph3	B-Ph4	B-Ph5	B-Ph6	B-Ph7	B-Ph8	B-Ph9	B-Ph10	B-Ph11	B-Ph12	B-Ph13	B-Ph14	B-Ph15	B-Ph16	aux-1	digaux	

34513.832	1	1	0	256	0.066602	0.35639	0.14955	0.40924	0.11477	0.16384	0.058415	0.22317	0.13082	0.16168	0.26589	0.079125	0.26195	0.16755	0.14957	0.15007	-1.8167	-2.2896	-2.5333	-2.3771	-2.4208	-2.3521	-2.3167	-2.5687	-2.3083	-2.3354	-2.7938	-2.2021	-2.4688	-2.4104	-2.2062	-2.8271	113.933	38.595	131.606	241.894	81.674	158.636	-80.831	229.753	210.432	249.229	232.853	207.413	-84.142	167.626	163.869	230.700	0.00015525	0.00065454	0.000203	1311	3.5096e-06	5.3199e-06	1309.8	363.51	1.4933e-06	4.6244e-06	420.85	139.11	120.42	42.087	2.4183e-06	52.884	0.00035029	0.00036713	0.00010384	1314.3	4.1927e-06	4.0256e-06	1319.8	367.91	4.2481e-06	3.7663e-06	423.54	142.26	123.01	42.894	3.865e-06	53.897	217.412	-1.428	15.974	-71.443	84.835	58.126	-71.454	-67.064	63.941	60.181	-67.424	-62.889	-62.455	-58.039	82.601	-58.796	-8191	255	
34513.926	1	1	0	0	0.25997	0.057651	0.28047	0.16198	0.41354	0.08022	0.33205	0.27166	0.063848	0.13719	0.14432	0.39125	0.2473	0.27337	0.20713	0.23592	-1.9667	-2.25	-2.5021	-2.4771	-2.4917	-2.3875	-2.1479	-2.5083	-2.4208	-2.3354	-2.6792	-2.3396	-2.3604	-2.5062	-2.0104	-2.6604	152.360	-4.924	53.087	162.138	219.707	134.664	246.904	-76.282	-24.426	-46.993	232.900	234.047	224.477	257.309	48.155	199.774	0.00015827	0.0004694	0.00014174	1303.5	2.1048e-06	3.4126e-06	1311.6	363.29	1.9955e-06	4.6758e-06	419.09	139.1	120.39	42.098	3.4587e-06	52.961	0.00035452	0.00035723	9.7117e-05	1307.2	4.1131e-06	3.7241e-06	1318	367.27	4.2323e-06	3.8023e-06	423.37	142.31	123.1	42.879	3.9855e-06	53.863	218.314	3.859	11.168	-71.531	70.485	75.997	-71.342	-66.907	59.968	63.191	-67.480	-62.959	-62.438	-58.272	50.514	-58.710	-8191	255	
34514.023	1	1	0	0	0.096333	0.16617	0.095522	0.491	0.31995	0.39044	0.16881	0.36131	0.221	0.19366	0.15505	0.10017	0.14021	0.024133	0.11436	0.33948	-1.8625	-2.2583	-2.4458	-2.3688	-2.4583	-2.3229	-2.3146	-2.5958	-2.1667	-2.2208	-2.8229	-2.3583	-2.3417	-2.6708	-2.2229	-2.5708	105.484	153.177	127.288	206.438	-48.887	-30.500	-82.575	183.296	172.883	159.612	223.687	37.754	-47.153	201.916	31.013	273.726	0.00016966	0.00055274	0.00014287	1298.3	2.6834e-06	4.9536e-06	1304.5	362.65	1.2133e-06	4.8932e-06	419.43	138.73	120.2	42.077	2.8472e-06	52.92	0.00034254	0.0003443	9.4655e-05	1302.9	4.1088e-06	3.7421e-06	1313.7	367.22	4.0362e-06	3.77e-06	423.09	141.89	122.81	42.792	4.1236e-06	53.793	219.755	19.511	15.635	-71.598	78.374	47.143	-71.508	-66.783	54.700	75.672	-67.704	-62.934	-62.600	-58.025	94.566	-58.715	-8191	255	
34514.141	1	1	0	0	0.29326	0.19151	0.098487	0.21039	0.26741	0.26439	0.12273	0.044757	0.11186	0.25427	0.038674	0.37681	0.34706	0.22949	0.10059	0.17847	-2.0187	-2.1458	-2.6312	-2.475	-2.4437	-2.4271	-2.375	-2.6729	-2.6083	-2.2208	-2.6188	-2.425	-2.4938	-2.5396	-2.1562	-2.5583	35.679	96.891	165.945	165.238	254.675	185.672	182.294	186.001	-72.473	-55.054	99.978	228.798	199.060	216.598	189.727	221.547	0.00014442	0.00051746	0.00014986	1298.7	2.3237e-06	5.2494e-06	1304.1	362.18	1.951e-06	4.788e-06	418.43	138.78	119.97	41.813	3.3447e-06	52.883	0.00035241	0.0003767	9.9996e-05	1303	4.0102e-06	3.791e-06	1312.8	366.82	4.1041e-06	3.9541e-06	422.61	142.05	122.77	42.72	4.2674e-06	53.791	218.781	-0.786	9.582	-71.527	79.632	70.530	-71.621	-66.945	59.528	66.615	-67.218	-62.916	-62.438	-58.073	71.730	-58.755	-8191	255	
34514.238	1	1	0	0	0.058759	0.16322	0.080613	0.36135	0.049295	0.15575	0.21316	0.17331	0.1756	0.092102	0.29039	0.055318	0.086743	0.14393	0.2881	0.2544	-2.0021	-2.0146	-2.3229	-2.5229	-2.4208	-2.4667	-2.4458	-2.5958	-2.5792	-2.1562	-2.4979	-2.425	-2.2917	-2.7625	-2.3187	-2.3875	223.000	260.000	213.674	257.669	-46.549	231.260	217.193	-72.899	247.897	2.044	243.853	219.198	237.228	-80.146	178.644	251.335	0.000146	0.00054009	0.00012637	1299.6	2.1912e-06	5.7169e-06	1311.1	364.26	1.5495e-06	3.5318e-06	419.96	138.64	120.45	42.137	3.3036e-06	52.917	0.00034863	0.00037637	0.00010419	1306.9	4.1864e-06	4.0305e-06	1319	368.22	4.2076e-06	4.0843e-06	423.86	141.99	123.07	42.834	4.3663e-06	53.819	229.243	20.827	16.958	-71.430	91.336	74.221	-71.534	-67.069	60.695	62.605	-67.496	-63.057	-62.326	-57.902	66.238	-58.814	-8191	255	
34514.332	1	1	0	0	0.23644	0.17099	0.10994	0.11818	0.093033	0.017211	0.25359	0.26946	0.13419	0.18585	0.27125	0.011537	0.25201	0.1307	0.1526	0.062608	-1.925	-2.3	-2.4813	-2.6104	-2.2333	-2.8375	-2.4708	-2.5667	-2.5958	-2.025	-2.6417	-2.4521	-2.2167	-2.5938	-2.3271	-2.5208	176.199	95.987	-15.095	-55.489	87.637	9.093	244.113	220.454	-6.863	112.901	224.514	11.460	-67.005	97.977	173.301	136.284	0.00015829	0.00049499	0.00017591	1310.5	3.3784e-06	5.1724e-06	1312.5	362.47	2.091e-06	4.3403e-06	418.89	139.11	120.09	41.977	3.6594e-06	53.158	0.00034846	0.00038908	0.00010476	1315.1	4.2138e-06	4.0831e-06	1324.7	368.1	4.074e-06	3.9597e-06	423.36	142.26	122.9	42.789	4.2037e-06	53.821	221.763	1.179	11.550	-71.538	99.762	51.206	-71.486	-66.693	57.893	59.782	-67.570	-62.916	-62.642	-58.104	63.288	-58.506	-8191	255	
34514.453	1	1	0	0	0.049468	0.018642	0.18068	0.28198	0.13393	0.041414	0.23143	0.13582	0.25096	0.17275	0.30239	0.16202	0.28821	0.14723	0.028531	0.31863	-2.1083	-2.1979	-2.4396	-2.6729	-2.1937	-2.7292	-2.4979	-2.4958	-2.7354	-2.3896	-2.6646	-2.6792	-2.1521	-2.7604	-2.4708	-2.3792	154.183	-63.478	-60.947	191.087	108.639	159.112	149.488	206.945	93.510	148.683	256.178	180.694	242.512	213.501	-0.976	235.121	0.00015638	0.00046978	0.00012747	1304.6	2.3866e-06	5.1065e-06	1305.7	363.69	1.3141e-06	5.245e-06	419.2	138.5	119.22	41.714	3.0513e-06	52.638	0.00035184	0.0003734	9.8293e-05	1311.1	4.1584e-06	3.8826e-06	1317.5	367.59	4.0203e-06	4.0868e-06	422.52	141.88	122.44	42.631	3.9474e-06	53.563	220.999	27.302	4.998	-71.725	88.139	64.735	-71.631	-66.826	45.228	65.711	-67.425	-62.990	-62.450	-57.983	60.280	-58.762	-8191	255	
34514.523	1	1	0	0	0.24201	0.17414	0.15522	0.29628	0.33847	0.044302	0.17269	0.092236	0.023678	0.14718	0.30962	0.22137	0.1018	0.31388	0.060791	0.17675	-2.1042	-2.1458	-2.3583	-2.7083	-2.0583	-2.675	-2.6271	-2.3021	-2.6729	-2.3979	-2.6208	-2.5771	-2.3354	-2.7875	-2.4771	-2.4062	116.702	81.022	49.303	-76.435	264.849	181.146	238.950	142.502	52.894	131.478	225.622	-58.705	-59.148	257.317	39.673	-56.758	0.00014303	0.00051374	0.00013234	1300	2.5296e-06	5.4814e-06	1303.4	361.77	2.0288e-06	5.5591e-06	418.87	138.13	119.48	41.871	2.7739e-06	52.88	0.00034981	0.00036196	9.5956e-05	1304.5	4.0935e-06	3.8851e-06	1313.4	366.1	4.0115e-06	4.1413e-06	421.86	141.26	122.22	42.501	3.9662e-06	53.602	222.478	2.581	26.102	-71.581	97.224	64.812	-71.430	-66.817	59.393	66.854	-67.511	-62.775	-62.612	-57.984	72.632	-58.331	-8191	255	
34514.621	1	1	0	0	0.076856	0.1955	0.11951	0.48486	0.054103	0.25162	0.10641	0.25021	0.17049	0.19427	0.043472	0.41474	0.047043	0.20246	0.075104	0.15094	-2.3854	-2.1604	-2.4646	-2.6542	-2.3646	-2.4958	-2.6146	-2.3563	-2.6688	-2.4688	-2.6167	-2.4979	-2.2687	-2.4979	-2.4958	-2.1917	184.427	-78.204	-27.486	246.925	52.433	176.852	266.688	224.329	38.772	-37.329	220.671	257.229	261.786	240.878	-42.287	47.542	0.00014894	0.00050262	0.00019092	1294.9	2.6734e-06	5.5423e-06	1303.7	361.59	2.2762e-06	3.9169e-06	417.09	137.96	119.06	41.654	4.217e-06	52.596	0.0003477	0.00037615	0.00010004	1301.5	4.3368e-06	3.9228e-06	1311.4	365.74	4.1632e-06	3.9907e-06	420.89	141.18	121.88	42.414	4.1145e-06	53.409	219.909	-4.334	8.548	-71.486	79.624	71.735	-71.447	-66.811	47.722	69.309	-67.490	-62.800	-62.382	-57.999	75.829	-58.506	-8191	255	
34514.742	1	1	0	0	0.18318	0.056308	0.082142	0.19256	0.29668	0.098037	0.2074	0.31992	0.091417	0.1564	0.30285	0.31236	0.21339	0.095116	0.11603	0.30727	-2.2542	-2.3708	-2.2167	-2.7417	-2.1729	-2.5812	-2.5812	-2.3208	-2.6562	-2.375	-2.6042	-2.7167	-2.3937	-2.5792	-2.6688	-2.2583	-41.826	-44.196	87.954	218.408	167.410	232.973	150.977	155.271	165.772	95.038	269.458	250.738	-23.677	215.711	126.213	190.728	0.00016373	0.00048661	0.00015812	1290.8	2.8535e-06	5.5294e-06	1298	359.94	3.0177e-06	6.0749e-06	414.57	137.43	118.59	41.456	2.2784e-06	52.434	0.00035004	0.00039711	9.9981e-05	1295.3	4.3621e-06	4.2094e-06	1307.1	364.37	4.3314e-06	4.2795e-06	420.11	140.57	121.24	42.192	4.4947e-06	53.249	223.668	-5.066	10.993	-71.526	62.924	64.642	-71.435	-66.909	39.734	45.344	-67.363	-62.990	-62.380	-57.735	48.049	-58.669	-8191	255	
34514.840	1	1	0	0	0.072277	0.18485	0.13647	0.1376	0.15111	0.18316	0.14714	0.14671	0.16396	0.15386	0.183	0.097336	0.12199	0.35264	0.13616	0.258	-2.1	-2.3063	-2.4375	-2.8063	-2.2833	-2.575	-2.8125	-2.1792	-2.5625	-2.5312	-2.4021	-2.7417	-2.4083	-2.3438	-2.4667	-2.3292	117.683	-64.036	-43.866	209.933	9.382	267.191	174.425	-20.715	273.704	25.014	270.254	-71.386	-36.791	-61.555	-38.106	228.295	0.00016242	0.00046904	0.00014022	1289.9	2.86e-06	4.3358e-06	1295.6	359.27	2.4637e-06	4.5088e-06	415.25	137.27	118.83	41.25	3.2784e-06	52.446	0.00035582	0.0004129	0.00011285	1295.6	4.6217e-06	4.2559e-06	1306	364.59	4.6852e-06	4.4153e-06	420.15	140.49	121.18	42.063	4.5384e-06	53.251	227.026	16.154	17.756	-71.516	84.704	73.411	-71.601	-66.804	72.659	62.772	-67.582	-63.064	-62.278	-57.886	86.150	-58.649	-8191	255	
34514.934	1	1	0	0	0.26262	0.31643	0.073961	0.17526	0.18775	0.15511	0.22763	0.29	0.06636	0.16814	0.177	0.25274	0.16126	0.076554	0.2389	0.11616	-2.0979	-2.5187	-2.0042	-2.7896	-2.4875	-2.3208	-2.6542	-2.4	-2.6667	-2.4333	-2.3	-2.6542	-2.4938	-2.5229	-2.6354	-2.2146	267.280	-20.526	216.770	191.290	134.863	250.869	137.111	190.730	-28.340	86.371	83.210	-33.539	-58.458	-81.918	62.953	13.451	0.00014551	0.00046902	0.00013416	1293.1	2.8698e-06	4.9857e-06	1295.4	361.02	2.7094e-06	5.4063e-06	414.41	137.09	118.39	41.265	3.5758e-06	52.365	0.0003647	0.00041064	0.0001169	1296.6	4.6766e-06	4.3828e-06	1305.8	364.78	4.5559e-06	4.538e-06	420.05	140.27	121.06	42.025	4.7226e-06	53.197	220.488	-6.561	18.189	-71.480	105.164	53.398	-71.513	-67.077	79.899	73.005	-67.663	-62.980	-62.529	-58.120	63.914	-58.664	-8191	255	
34515.031	1	1	0	0	0.040252	0.21848	0.046952	0.022274	0.087084	0.093857	0.22609	0.31503	0.23865	0.20155	0.077613	0.25966	0.32135	0.14147	0.075235	0.17462	-1.9042	-2.4729	-2.1813	-2.8583	-2.2542	-2.3312	-2.6729	-2.375	-2.3187	-2.6125	-2.225	-2.5021	-2.4313	-2.5667	-2.5896	-2.3583	66.275	187.783	117.952	141.200	154.802	-74.445	187.524	193.544	-76.185	-5.346	254.654	204.768	245.007	212.998	266.816	186.983	0.00015408	0.00050509	0.00013208	1290.1	2.5796e-06	5.5135e-06	1294	358.6	1.0486e-06	4.3886e-06	415.78	136.7	118.19	41.189	3.2775e-06	52.357	0.00035929	0.00041416	0.00011302	1296.4	4.5362e-06	4.3085e-06	1304.5	363.73	4.5313e-06	4.3e-06	420.04	139.91	120.95	41.941	4.5788e-06	53.206	220.079	0.385	16.785	-71.559	83.302	59.975	-71.484	-66.975	134.053	88.888	-67.560	-62.926	-62.310	-57.892	95.543	-58.734	-8191	255	
34515.102	1	1	0	0	0.063585	0.13852	0.25636	0.18682	0.20766	0.21171	0.14015	0.26689	0.23153	0.24024	0.12522	0.29152	0.15966	0.20684	0.15777	0.10503	-1.9583	-2.5208	-1.9042	-2.8688	-2.4354	-2.2687	-2.6792	-2.3667	-2.2938	-2.6	-2.2542	-2.6208	-2.3854	-2.075	-2.5208	-2.4521	231.704	106.157	176.303	-67.904	49.229	262.611	-70.319	220.189	245.138	230.552	198.607	-75.834	-15.828	232.430	267.904	81.900	0.00015613	0.00048597	0.00018178	1286.2	3.621e-06	4.5253e-06	1293.7	359.45	1.9035e-06	5.2003e-06	415.3	136.49	118.18	41.346	3.6753e-06	52.216	0.00035949	0.00039711	0.00011405	1290.2	4.5378e-06	4.3976e-06	1302.4	363.7	4.4968e-06	4.4035e-06	419.45	139.71	120.72	41.969	4.5509e-06	53.206	229.060	7.261	21.746	-71.585	85.323	66.558	-71.454	-66.745	75.480	74.299	-67.328	-62.876	-62.312	-57.681	54.204	-58.596	-8191	255	
34515.223	1	1	0	0	0.057365	0.20589	0.36684	0.44466	0.20853	0.082958	0.25497	0.16437	0.083536	0.036888	0.14581	0.095121	0.14494	0.1465	0.16923	0.12047	-1.7938	-2.5917	-2.1208	-2.7625	-2.4437	-2.0458	-2.7375	-2.3771	-2.125	-2.6521	-2.3	-2.4521	-2.4938	-2.2208	-2.4896	-2.3458	-82.718	-67.846	274.215	-23.670	129.300	-61.368	-28.017	181.009	208.830	-41.928	213.592	-52.335	18.936	-72.051	2.088	-68.567	0.0001622	0.00046514	0.00016298	1285	2.2945e-06	4.6679e-06	1292.6	358.09	1.8033e-06	4.9998e-06	415.76	136.48	117.69	41.061	3.6816e-06	52.321	0.00036642	0.00040212	0.0001159	1290.6	4.4238e-06	4.4707e-06	1301	363.03	4.4371e-06	4.3862e-06	419.94	139.8	120.83	41.961	4.4572e-06	53.191	229.218	5.016	20.604	-71.427	91.270	62.608	-71.472	-66.973	71.991	60.578	-67.674	-62.871	-62.343	-57.985	71.121	-58.606	-8191	255	
34515.316	1	1	0	0	0.31547	0.12411	0.057796	0.26143	0.13459	0.10387	0.21478	0.3213	0.14959	0.10267	0.09522	0.095089	0.10793	0.13864	0.067616	0.29808	-1.8188	-2.5563	-2.3104	-2.5417	-2.5125	-2.1521	-2.5062	-2.5521	-2.2854	-2.4729	-2.3583	-2.4417	-2.6	-2.2604	-2.6042	-2.6167	-63.010	-43.053	73.573	224.369	58.107	-51.707	237.985	199.034	-77.497	88.010	182.283	23.264	145.096	206.495	19.399	-40.226	0.00013677	0.00049005	0.00015968	1284.3	3.2129e-06	3.1755e-06	1293.1	358.81	1.47e-06	5.1798e-06	417.43	136.5	117.88	41.126	2.6799e-06	52.568	0.00036011	0.00040877	0.0001136	1291.1	4.5162e-06	4.4187e-06	1301.9	363.56	4.5565e-06	4.4618e-06	420.4	139.96	120.76	41.88	4.5407e-06	53.2	220.268	1.354	4.745	-71.444	99.186	53.861	-71.493	-66.840	67.836	69.102	-67.211	-62.843	-62.432	-57.978	72.529	-58.409	-8191	255	
34515.414	1	1	0	0	0.096524	0.2408	0.2247	0.24795	0.1001	0.21322	0.12369	0.30214	0.074289	0.14424	0.099762	0.32254	0.18345	0.27747	0.19886	0.29131	-2.0563	-2.6167	-2.1042	-2.4708	-2.55	-2.0625	-2.6937	-2.4896	-2.0896	-2.5271	-2.3146	-2.2604	-2.7625	-2.2812	-2.4688	-2.6104	180.957	164.682	-47.853	255.480	219.674	96.103	85.621	-64.652	126.595	202.102	8.837	144.490	-47.656	237.910	-15.553	188.448	0.00015012	0.00051662	0.00018832	1284.2	2.7547e-06	4.3058e-06	1294.1	359.82	1.925e-06	5.2319e-06	414.73	136.7	117.72	41.122	3.4458e-06	52.393	0.00036555	0.00041075	0.000118	1291.2	4.618e-06	4.4998e-06	1302.8	363.9	4.5745e-06	4.5182e-06	419.66	140.07	120.68	42.04	4.3185e-06	53.175	218.298	2.680	22.738	-71.607	66.809	63.541	-71.500	-66.797	85.206	54.712	-67.260	-62.879	-62.311	-57.898	67.474	-58.365	-8191	255	
34515.535	1	1	0	0	0.05872	0.21911	0.16069	0.24641	0.043156	0.11058	0.13897	0.1565	0.14869	0.13101	0.17629	0.38147	0.11092	0.15537	0.20217	0.14587	-1.7313	-2.625	-2.3187	-2.5062	-2.5917	-2.2583	-2.5083	-2.6937	-2.0958	-2.3604	-2.3854	-2.2479	-2.6979	-2.3625	-2.4042	-2.5563	-0.806	25.351	216.084	-56.809	209.936	146.550	152.089	116.035	257.680	35.371	196.348	227.117	243.576	235.206	42.263	238.227	0.00015632	0.0005836	9.3916e-05	1290.8	3.2233e-06	5.551e-06	1296.7	359.09	2.2581e-06	3.2051e-06	416.47	136.74	118.44	41.354	3.5045e-06	52.354	0.00036366	0.00038886	0.00010942	1295.4	4.4613e-06	4.3871e-06	1305.1	363.63	4.6457e-06	4.2411e-06	420.65	140.06	120.92	42.098	4.264e-06	53.186	224.648	-2.187	7.619	-71.708	78.840	56.880	-71.403	-66.877	56.797	56.990	-67.306	-63.090	-62.528	-57.915	64.116	-58.557	-8191	255	
34515.629	1	1	0	0	0.16313	0.16386	0.17633	0.21555	0.14669	0.29296	0.20637	0.065479	0.01899	0.4543	0.065687	0.08765	0.093505	0.16576	0.16443	0.070736	-1.8354	-2.6	-2.1833	-2.3083	-2.7167	-2.1375	-2.5542	-2.5604	-2.1813	-2.5792	-2.6458	-2.3354	-2.4896	-2.2583	-2.3354	-2.625	70.372	-76.398	72.362	253.748	181.177	18.062	247.632	217.261	157.516	89.556	254.501	217.164	69.712	-76.058	172.297	124.705	0.00015354	0.00050257	0.00016881	1285.2	2.4048e-06	4.6291e-06	1298.4	359.23	1.8791e-06	5.5936e-06	416.4	136.62	118.45	41.312	3.5843e-06	52.287	0.00037046	0.00039321	0.00011218	1294.6	4.4508e-06	4.3171e-06	1306.1	364.3	4.7098e-06	4.189e-06	420.73	140.24	121.33	42.144	4.4845e-06	53.205	226.815	2.915	10.601	-71.587	102.231	56.818	-71.375	-66.935	47.675	67.889	-67.357	-62.577	-62.236	-57.945	67.993	-58.514	-8191	255	
34515.727	1	1	0	0	0.19806	0.019262	0.046648	0.28122	0.059856	0.17591	0.24733	0.10793	0.10188	0.078247	0.26014	0.1021	0.22634	0.12767	0.21822	0.14826	-1.8021	-2.3333	-2.4646	-2.6354	-2.7021	-2.3	-2.5438	-2.7167	-2.2313	-2.4479	-2.6792	-2.3979	-2.9167	-2.3917	-2.2208	-2.7417	70.783	9.031	88.034	153.348	258.194	215.083	227.514	23.966	208.716	-2.762	197.122	227.440	-80.458	-35.898	-31.204	219.978	0.00016023	0.00052194	0.00014514	1293.5	2.5597e-06	5.3148e-06	1299.8	360.64	1.6186e-06	3.8084e-06	418.99	137.38	118.79	41.354	2.6497e-06	52.199	0.00037212	0.00036768	0.00010942	1296.8	4.4756e-06	4.4954e-06	1308.4	365.54	4.6255e-06	4.2349e-06	422.04	140.41	121.32	42.17	4.5208e-06	53.216	222.454	-2.751	11.390	-71.613	88.823	60.053	-71.478	-66.918	77.480	66.038	-67.648	-62.961	-62.532	-57.956	72.748	-58.684	-8191	255	
34515.820	1	1	0	0	0.33122	0.17757	0.15666	0.19951	0.21791	0.19165	0.07095	0.20202	0.14589	0.12135	0.28964	0.16319	0.096627	0.049494	0.42648	0.17022	-1.8333	-2.3479	-2.4854	-2.4313	-2.5354	-2.3625	-2.3458	-2.825	-2.3083	-2.4521	-2.5917	-2.2542	-2.7083	-2.4604	-2.2583	-2.8271	-19.481	222.868	77.966	221.006	7.521	-79.024	34.614	218.266	203.282	48.389	173.941	121.320	160.100	212.363	227.381	195.855	0.00014271	0.00051782	0.00015723	1293.1	3.3194e-06	5.5219e-06	1297.8	362.55	1.787e-06	4.2815e-06	417.56	137.21	118.9	41.33	3.0915e-06	52.525	0.00036989	0.00039513	0.00011936	1296.5	4.4571e-06	4.3097e-06	1308.6	365.36	4.6003e-06	4.3694e-06	421.31	140.49	121.34	42.171	4.7828e-06	53.325	220.628	3.626	17.904	-71.548	111.317	75.118	-71.350	-66.802	99.125	65.841	-67.458	-63.005	-62.713	-57.941	77.496	-58.593	-8191	255	
34515.918	1	1	0	0	0.085393	0.21999	0.29044	0.24838	0.022345	0.072497	0.30531	0.30706	0.19353	0.21365	0.21045	0.11782	0.20253	0.21987	0.021748	0.13234	-1.8542	-2.35	-2.6417	-2.3125	-2.6208	-2.2521	-2.2896	-2.8417	-2.3354	-2.4583	-2.8292	-2.1958	-2.4583	-2.5438	-2.3292	-2.8125	192.713	-50.847	135.923	255.346	141.405	174.228	265.414	-66.241	-43.498	222.892	217.057	211.928	233.121	207.545	137.384	-3.190	0.0001604	0.00038023	0.00015347	1292.9	2.5687e-06	4.4078e-06	1300.6	362.91	1.9964e-06	3.0177e-06	417.28	136.95	118.68	41.363	3.1488e-06	52.481	0.00036727	0.00040509	0.00011569	1299.4	4.4729e-06	4.47e-06	1309.4	365.54	4.5559e-06	4.4599e-06	422.08	140.49	121.44	42.178	4.5691e-06	53.268	222.940	-0.298	12.002	-71.605	71.321	79.214	-71.584	-66.897	57.325	81.146	-67.455	-62.745	-62.373	-58.015	58.358	-58.450	-8191	255	
34516.016	1	1	0	0	0.32512	0.11581	0.061473	0.37374	0.35781	0.17667	0.043375	0.33216	0.32365	0.11014	0.1383	0.25059	0.29492	0.15909	0.071328	0.14872	-2.0104	-2.1229	-2.5792	-2.2833	-2.6521	-2.4583	-2.375	-2.8333	-2.4542	-2.4771	-2.5833	-2.4833	-2.5958	-2.6604	-2.2875	-2.675	134.402	26.731	232.787	192.258	166.836	38.529	-32.260	234.598	80.287	-2.902	235.224	207.879	253.455	-67.894	-7.043	-26.692	0.00013869	0.00058535	0.00015695	1297.4	1.7825e-06	3.9433e-06	1304.7	360.9	2.5632e-06	5.2865e-06	418.6	136.92	119.05	41.318	3.0843e-06	52.305	0.00036408	0.00040113	0.00011443	1301.9	4.4898e-06	4.3561e-06	1313	365.84	4.6737e-06	4.5405e-06	422.51	140.54	121.57	42.23	4.6544e-06	53.345	227.077	4.309	19.361	-71.580	58.747	77.129	-71.502	-67.003	64.257	75.203	-67.498	-62.966	-62.429	-57.932	62.157	-58.562	-8191	255	
34516.137	1	1	0	0	0.28383	0.15826	0.13298	0.42698	0.28851	0.071953	0.1838	0.19021	0.2162	0.28253	0.18323	0.35918	0.24706	0.051038	0.23857	0.13916	-1.9417	-2.3208	-2.6854	-2.4688	-2.5708	-2.5354	-2.2625	-2.6937	-2.4771	-2.3771	-2.8042	-2.2062	-2.5542	-2.7354	-2.1292	-2.7771	115.100	-42.469	27.776	205.964	-78.264	-60.384	216.590	191.434	-35.451	110.560	46.494	250.721	-46.876	-21.879	95.002	97.177	0.0001476	0.00052332	0.00013266	1301	2.2795e-06	4.85e-06	1306.5	360.94	2.1607e-06	4.7275e-06	418.44	137.5	119.2	41.46	3.0554e-06	52.514	0.00037099	0.00040454	0.00011521	1302.7	4.4075e-06	4.4589e-06	1311.6	365.37	4.5767e-06	4.4432e-06	422.94	140.75	121.77	42.213	4.6885e-06	53.391	230.370	10.780	10.917	-71.519	92.256	55.229	-71.549	-66.821	70.772	64.850	-67.432	-62.928	-62.394	-57.810	79.983	-58.606	-8191	255	
34516.230	1	1	0	0	0.36683	0.34241	0.082322	0.17035	0.17816	0.18817	0.076494	0.11324	0.18605	0.23624	0.14804	0.31277	0.13947	0.15848	0.10289	0.10085	-2.075	-2.2062	-2.6188	-2.5646	-2.3229	-2.7042	-2.3792	-2.6167	-2.5312	-2.3187	-2.75	-2.2729	-2.4583	-2.6042	-2.1688	-2.5771	131.354	213.548	219.893	240.188	-12.444	-67.444	269.365	226.122	186.473	171.653	254.048	178.878	-69.296	258.988	216.455	194.664	0.00014818	0.00056616	0.00012646	1295.4	1.9207e-06	3.7919e-06	1307.3	362.3	1.2171e-06	5.5041e-06	420.75	137.33	118.85	41.465	3.4155e-06	52.59	0.00037271	0.00043254	0.00011932	1302	4.5837e-06	4.5406e-06	1314.4	366.31	4.8013e-06	4.91e-06	423.53	140.81	121.61	42.236	4.8794e-06	53.392	230.052	0.701	2.271	-71.572	43.436	55.481	-71.405	-67.067	40.384	44.469	-67.407	-62.931	-62.569	-57.783	72.209	-58.431	-8191	255	
34516.324	1	1	0	0	0.19654	0.077213	0.24471	0.1503	0.17884	0.32296	0.16829	0.41706	0.14138	0.072956	0.19442	0.15924	0.14123	0.30662	0.024603	0.16159	-2.1875	-2.1021	-2.5542	-2.4854	-2.325	-2.5	-2.3583	-2.6188	-2.6208	-2.2104	-2.6646	-2.5062	-2.2562	-2.5396	-2.2708	-2.5542	105.028	24.737	86.944	-75.373	-39.936	-53.073	243.126	228.174	103.716	268.608	145.539	-29.559	-84.426	-82.498	-23.555	95.014	0.0001525	0.00038029	0.00014131	1300.6	2.4809e-06	6.1813e-06	1302.9	362.25	1.7354e-06	4.7653e-06	419.38	137.9	119.34	41.614	3.6616e-06	52.639	0.00038179	0.00044827	0.00011515	1306.7	4.8338e-06	4.9473e-06	1316	367.45	4.9568e-06	4.7203e-06	423.85	141.17	121.87	42.402	4.8794e-06	53.492	223.811	13.346	19.513	-71.564	81.284	55.505	-71.421	-66.879	61.424	80.130	-67.555	-62.869	-62.396	-57.830	65.571	-58.644	-8191	255	
34516.398	1	1	0	0	0.26181	0.1382	0.21557	0.12495	0.17172	0.11846	0.38408	0.28633	0.29146	0.16133	0.28276	0.12439	0.18741	0.15753	0.13524	0.081551	-2.0479	-2.2708	-2.6208	-2.6375	-2.2125	-2.7271	-2.5042	-2.5812	-2.3979	-2.2604	-2.6688	-2.5979	-2.3917	-2.8375	-2.1792	-2.4646	57.022	202.788	240.540	212.565	243.783	102.152	177.661	95.175	271.413	-11.221	199.138	252.566	258.871	265.715	154.098	119.544	0.00014087	0.00043264	0.00014605	1301.7	2.2953e-06	5.3342e-06	1315.6	363.19	1.6829e-06	5.4134e-06	420.97	138.17	119.69	41.625	2.9651e-06	52.677	0.00038512	0.00045185	0.00011786	1309.6	4.9082e-06	4.7969e-06	1322.3	368.42	4.8736e-06	4.9354e-06	425.08	141.49	122.18	42.465	4.8476e-06	53.586	228.798	4.651	4.048	-71.508	59.409	55.040	-71.494	-67.050	97.235	66.017	-67.434	-63.104	-62.711	-57.833	67.886	-58.634	-8191	255	
34516.520	1	1	0	0	0.087378	0.15136	0.10678	0.51466	0.031269	0.12246	0.085557	0.078229	0.088688	0.12762	0.19609	0.173	0.16256	0.16496	0.22427	0.30004	-2.2583	-2.1667	-2.5396	-2.4313	-2.2375	-2.6854	-2.4813	-2.4729	-2.5042	-2.2146	-2.5542	-2.7	-2.1979	-2.6792	-2.2417	-2.2562	-32.367	170.342	216.942	213.145	133.853	181.699	-77.824	-78.825	65.265	-84.043	-25.979	252.781	268.954	146.731	-32.994	166.303	0.00014046	0.0004753	0.00016073	1313.3	1.4487e-06	5.1308e-06	1310.5	364.62	2.1907e-06	4.4153e-06	421.34	138.18	119.81	41.751	2.7454e-06	52.869	0.00039087	0.00045966	0.00011707	1316.5	5.027e-06	4.7443e-06	1322.7	369.3	4.8703e-06	4.7252e-06	425.56	141.59	122.35	42.512	4.809e-06	53.69	224.520	6.491	22.946	-71.643	64.839	55.293	-71.764	-66.938	67.899	94.964	-67.550	-62.896	-62.614	-58.178	64.293	-59.059	-8191	255	
34516.613	1	1	0	0	0.083607	0.17145	0.15119	0.36968	0.20361	0.074744	0.10985	0.30563	0.1551	0.21485	0.18357	0.211	0.22707	0.079759	0.071729	0.27481	-2.1021	-2.0875	-2.3958	-2.5438	-2.1562	-2.6125	-2.6021	-2.3854	-2.7646	-2.3625	-2.4771	-2.6417	-2.4625	-2.5125	-2.6	-2.4313	-50.866	153.645	160.188	238.569	253.888	2.893	250.722	189.902	190.505	124.983	203.988	-49.129	117.025	191.602	67.963	184.705	0.00014785	0.00043595	0.00015368	1311.8	3.1064e-06	4.2922e-06	1316	364.17	2.1522e-06	6.9494e-06	421.65	138.26	119.96	41.744	4.5376e-06	52.844	0.00039925	0.00045262	0.0001211	1319	4.9573e-06	4.644e-06	1327.7	369.24	4.8971e-06	4.7829e-06	425.99	141.72	122.61	42.512	4.7106e-06	53.674	222.431	1.277	16.642	-71.783	80.009	71.444	-71.408	-66.826	76.567	80.623	-67.235	-62.957	-62.462	-58.079	76.705	-58.502	-8191	255	
34516.711	1	1	0	0	0.24054	0.12934	0.16842	0.14058	0.15226	0.12756	0.28597	0.34742	0.1464	0.1458	0.32914	0.25121	0.2367	0.33423	0.26989	0.14209	-2.2208	-2.325	-2.5	-2.75	-2.2812	-2.6333	-2.6188	-2.4125	-2.6417	-2.3542	-2.4938	-2.7708	-2.2958	-2.6104	-2.3458	-2.3417	65.465	203.457	176.792	109.005	-9.392	61.628	245.056	212.728	-54.027	124.860	-69.194	-22.093	215.328	226.898	191.495	100.192	0.00015815	0.00045801	0.00012825	1307.8	2.5868e-06	4.219e-06	1313.3	364.12	2.4277e-06	3.9304e-06	422.1	138.38	119.77	41.427	3.7801e-06	52.487	0.00036284	0.00040366	0.00011343	1313.9	4.58e-06	4.077e-06	1322.6	368.33	4.4245e-06	4.3577e-06	424.63	141.5	122.36	42.384	4.5612e-06	53.473	225.040	10.229	14.489	-71.610	83.367	70.323	-71.594	-66.918	63.857	58.675	-67.484	-62.885	-62.505	-58.125	86.344	-58.549	-8191	255	
34516.809	1	1	0	0	0.14241	0.095959	0.34948	0.1749	0.11514	0.12695	0.10669	0.2904	0.10624	0.03929	0.1027	0.081675	0.17918	0.13949	0.02547	0.016837	-2.2979	-2.1875	-2.1854	-2.6208	-2.3646	-2.4292	-2.5729	-2.2646	-2.5187	-2.3854	-2.4208	-2.9625	-2.3312	-2.4583	-2.5104	-2.3438	-60.532	64.763	178.138	-32.448	271.907	224.666	81.128	211.279	257.063	92.032	127.914	245.638	202.774	240.456	266.315	59.032	0.00015662	0.00052083	0.00013827	1301	2.6014e-06	3.0399e-06	1311.5	363.2	1.8715e-06	4.8216e-06	419.07	137.61	119.59	41.661	3.563e-06	52.584	0.00035354	0.00039216	0.00010972	1310.7	4.6196e-06	4.2323e-06	1320.6	368.05	4.5192e-06	4.2857e-06	423.85	141.27	122.08	42.432	4.4646e-06	53.404	224.885	-1.051	12.195	-71.652	89.404	63.271	-71.375	-66.944	79.455	62.927	-67.389	-62.973	-62.452	-57.971	73.061	-58.694	-8191	255	
34516.926	1	1	0	0	0.3651	0.20339	0.13297	0.4451	0.1289	0.1813	0.16802	0.35591	0.31531	0.0094269	0.18514	0.066445	0.10886	0.15643	0.035565	0.13954	-2.1813	-2.4292	-2.2667	-2.8396	-2.2146	-2.5375	-2.6667	-2.2729	-2.525	-2.3521	-2.2833	-2.725	-2.2917	-2.4167	-2.4917	-2.425	211.950	158.567	66.784	227.867	259.679	102.487	224.559	161.637	108.745	260.075	229.557	-68.842	-82.554	-69.001	186.232	-31.500	0.0001634	0.00046389	0.00013663	1305.9	2.7465e-06	6.0213e-06	1316.8	364.36	1.5714e-06	4.9837e-06	420.63	138.07	119.47	41.674	3.7635e-06	52.675	0.00036047	0.00039321	0.00011382	1311.8	4.5478e-06	4.1952e-06	1322.6	369.12	4.4984e-06	4.6099e-06	424.65	141.46	122.25	42.482	4.7123e-06	53.569	226.943	9.153	14.705	-71.670	111.649	72.631	-71.356	-66.957	80.168	67.733	-67.441	-62.857	-62.560	-57.966	62.246	-58.461	-8191	255	
34517.000	1	1	0	0	0.24134	0.081866	0.27425	0.0946	0.14935	0.041469	0.17283	0.16289	0.17426	0.17788	0.14505	0.17936	0.30624	0.18235	0.15642	0.081208	-2.1896	-2.3875	-2.2438	-2.7938	-2.3063	-2.4542	-2.7583	-2.3229	-2.4083	-2.4313	-2.3542	-2.7938	-2.3792	-2.3354	-2.6125	-2.3854	100.921	83.665	81.328	181.360	112.780	31.854	217.444	102.442	63.782	-53.080	245.594	273.622	187.354	139.223	76.850	248.433	0.00015719	0.00047212	0.00012606	1308.7	3.478e-06	4.8273e-06	1316	364.21	1.8033e-06	5.9572e-06	418.8	138.31	119.97	41.648	2.9521e-06	52.699	0.00036989	0.00042759	0.00012043	1313.8	4.7404e-06	4.496e-06	1324.7	368.65	4.5855e-06	4.5424e-06	424.63	141.69	122.46	42.512	4.5907e-06	53.594	227.860	0.052	2.869	-71.638	72.514	71.372	-71.584	-66.895	91.695	62.790	-67.511	-62.840	-62.482	-58.082	78.637	-58.493	-8191	255	
34517.094	1	1	0	0	0.062589	0.058023	0.33758	0.12424	0.23346	0.29883	0.2984	0.31255	0.070699	0.18598	0.15917	0.23685	0.22415	0.14232	0.39388	0.15816	-2.0563	-2.525	-2.0208	-2.8	-2.2896	-2.3042	-2.6229	-2.4	-2.3708	-2.4625	-2.3375	-2.6354	-2.2708	-2.4146	-2.5438	-2.4021	224.785	-51.586	145.364	257.558	115.095	-26.754	265.738	253.515	82.627	94.923	184.951	158.956	253.717	192.135	217.067	-17.801	0.0001502	0.00050953	0.00015063	1306.9	3.3098e-06	4.2294e-06	1317.7	365.64	1.1471e-06	5.1094e-06	422.32	138.51	120.37	41.806	3.0583e-06	52.736	0.00036016	0.00042154	0.00011652	1314.4	4.5114e-06	4.6428e-06	1325.7	369.8	4.6134e-06	4.5027e-06	425.79	141.75	122.62	42.58	4.585e-06	53.638	227.554	-2.802	2.088	-71.612	92.650	53.773	-71.527	-66.965	68.538	55.912	-67.391	-63.074	-62.641	-57.985	74.261	-58.432	-8191	255	
34517.215	1	1	0	0	0.22242	0.35459	0.14807	0.11703	0.13503	0.092077	0.010175	0.20929	0.18224	0.33855	0.22642	0.22692	0.28932	0.26975	0.17962	0.28882	-1.9917	-2.45	-2.0917	-2.6	-2.4521	-2.3063	-2.7438	-2.3271	-2.4646	-2.5812	-2.6042	-2.6125	-2.3833	-2.2729	-2.6208	-2.3229	208.730	182.626	-50.066	272.937	217.136	0.071	180.733	223.645	261.204	44.171	102.689	247.352	139.072	237.431	45.955	206.882	0.00015678	0.00061105	0.0001424	1310.8	2.4466e-06	5.3702e-06	1316	366.18	2.1531e-06	7.1128e-06	420.95	138.11	120.1	41.939	3.2198e-06	52.703	0.0003711	0.00041317	0.00011723	1316.2	4.8111e-06	4.6935e-06	1326.6	370.25	4.6934e-06	4.6694e-06	425.5	141.56	122.89	42.682	4.5208e-06	53.592	222.065	-5.108	20.284	-71.578	82.100	79.240	-71.475	-67.153	63.763	61.441	-67.450	-62.994	-62.620	-57.821	70.021	-58.589	-8191	255	
34517.309	1	1	0	0	0.33592	0.16358	0.12485	0.16063	0.063881	0.24251	0.16706	0.23734	0.16199	0.19156	0.084595	0.26125	0.22623	0.1363	0.19987	0.22377	-1.8104	-2.4813	-2.0896	-2.675	-2.4437	-2.2271	-2.7146	-2.3521	-2.1854	-2.5438	-2.1396	-2.4417	-2.5438	-2.2313	-2.5979	-2.4542	212.237	-83.657	236.551	72.749	-45.690	36.911	213.607	181.449	220.761	-8.680	147.391	-67.315	216.682	202.530	211.206	269.198	0.0001469	0.00041526	0.00013409	1315.1	2.9727e-06	4.759e-06	1321.6	366.3	2.0334e-06	5.5691e-06	422.16	138.98	119.8	41.799	3.2147e-06	52.849	0.00038021	0.0004151	0.00011944	1320.3	4.5595e-06	4.5412e-06	1331.5	370.46	4.7903e-06	4.6062e-06	426.22	141.97	122.68	42.634	4.5061e-06	53.669	216.070	-10.466	15.546	-71.685	108.438	75.396	-71.537	-66.992	83.124	54.934	-67.389	-62.879	-62.820	-58.076	77.370	-58.691	-8191	255	
34517.406	1	1	0	0	0.31461	0.16446	0.1824	0.24429	0.17499	0.11309	0.093365	0.23361	0.10734	0.15098	0.067095	0.041061	0.14595	0.29228	0.17575	0.10801	-1.7958	-2.5146	-2.2208	-2.7	-2.5667	-2.0833	-2.7271	-2.3688	-2.1667	-2.7875	-2.4021	-2.3917	-2.6208	-2.2229	-2.6604	-2.3812	23.346	14.601	84.447	-72.140	-16.333	269.764	263.581	-70.622	-68.315	92.113	94.172	143.035	181.206	154.336	96.399	26.066	0.00014957	0.00043917	0.00017961	1315.2	2.8637e-06	4.9112e-06	1320.7	365.61	2.2833e-06	5.6871e-06	422.81	138.46	120.38	41.838	4.019e-06	52.689	0.00037305	0.00040421	0.00011752	1320.5	4.6481e-06	4.6458e-06	1330.3	370.23	4.8659e-06	4.4903e-06	426.32	142.05	123.12	42.688	4.2486e-06	53.615	221.893	-6.253	7.181	-71.480	72.657	74.808	-71.466	-67.025	81.432	62.753	-67.359	-63.017	-62.376	-57.847	61.844	-58.468	-8191	255	
34517.504	1	1	0	0	0.23706	0.073885	0.12038	0.21413	0.17802	0.12644	0.091028	0.27905	0.072619	0.27442	0.18546	0.27985	0.12432	0.086751	0.29779	0.11211	-1.8396	-2.6	-2.2062	-2.5062	-2.5854	-2.2333	-2.6896	-2.5208	-2.2042	-2.5062	-2.4854	-2.4833	-2.8417	-2.3979	-2.475	-2.6688	-58.271	-14.188	-13.859	-34.708	81.455	118.615	50.618	216.570	44.644	218.466	267.495	268.412	171.079	198.967	157.466	235.167	0.0001477	0.00043462	0.00016173	1314.5	2.8744e-06	5.0652e-06	1320.6	366.93	2.5778e-06	5.0485e-06	421.99	139.14	119.82	41.823	4.4756e-06	52.865	0.00038532	0.00040806	0.00011591	1320.6	4.5051e-06	4.4775e-06	1329.8	370.76	4.8527e-06	4.3409e-06	426.52	142.27	122.92	42.684	4.5038e-06	53.75	223.203	-5.807	27.756	-71.595	74.446	71.775	-71.436	-66.902	65.065	63.001	-67.552	-62.839	-62.550	-58.266	91.702	-58.686	-8191	255	
34517.621	1	1	0	0	0.19635	0.096312	0.21649	0.13378	0.20233	0.091228	0.13159	0.14688	0.25637	0.2235	0.12612	0.050809	0.17438	0.3042	0.22208	0.15362	-1.7812	-2.5521	-2.3521	-2.5104	-2.4208	-2.2896	-2.6604	-2.5271	-2.0542	-2.5687	-2.7104	-2.3458	-2.8063	-2.3208	-2.525	-2.575	244.930	179.435	56.403	266.963	73.381	-50.306	-76.725	199.113	-19.779	218.430	165.695	112.899	103.717	-84.342	6.474	235.111	0.00014941	0.00051947	0.00012716	1315.2	2.906e-06	5.4089e-06	1320.4	365.75	2.1129e-06	5.0435e-06	422.21	139.22	121.03	41.783	2.6538e-06	52.791	0.00038035	0.00039436	0.00011638	1321.7	4.6745e-06	4.415e-06	1331	370.67	4.6326e-06	4.3917e-06	426.5	142.46	123.29	42.651	4.5339e-06	53.673	218.056	12.556	8.476	-71.579	81.296	61.275	-71.371	-67.061	47.877	77.299	-67.510	-63.287	-62.772	-58.303	61.529	-58.599	-8191	255	
34517.695	1	1	0	0	0.28249	0.061575	0.1943	0.20913	0.08311	0.24374	0.23143	0.36244	0.18961	0.099831	0.14997	0.19367	0.23473	0.36832	0.19246	0.33645	-1.8188	-2.5083	-2.275	-2.3833	-2.5542	-2.1229	-2.4729	-2.6937	-2.1229	-2.3688	-2.4208	-2.3	-2.6333	-2.3417	-2.4083	-2.7292	263.482	199.084	113.692	177.651	224.410	84.037	154.946	138.762	257.702	140.586	-81.007	-34.244	217.003	235.933	178.924	231.080	0.00015451	0.00054525	0.00013748	1319.9	2.5543e-06	4.1104e-06	1325.8	365.56	2.0261e-06	5.2621e-06	423.61	139.3	120.73	42.117	4.7102e-06	52.82	0.00037517	0.00040421	0.00012006	1323.3	4.531e-06	4.5728e-06	1332.9	370.65	4.6873e-06	4.2374e-06	427.33	142.41	123.29	42.805	4.5669e-06	53.731	216.971	0.600	13.350	-71.713	86.917	51.270	-71.657	-67.067	82.478	70.795	-67.527	-62.915	-62.612	-58.077	69.669	-58.680	-8191	255	
34517.816	1	1	0	0	0.21164	0.11564	0.12463	0.26899	0.14042	0.18872	0.50819	0.37687	0.3214	0.12799	0.11894	0.4288	0.11348	0.12552	0.17486	0.053033	-1.7854	-2.3604	-2.3042	-2.3854	-2.7438	-2.2375	-2.4813	-2.7229	-2.125	-2.3167	-2.5354	-2.2062	-2.4833	-2.4021	-2.35	-2.5062	164.371	24.050	-67.713	238.280	257.496	49.062	267.796	-78.623	-24.802	202.175	-57.371	-80.308	123.672	195.086	143.721	121.512	0.00014192	0.00063866	0.00014445	1317.5	3.0669e-06	4.2469e-06	1327.7	365.67	2.0472e-06	4.8115e-06	421.86	138.5	121.25	41.995	2.9159e-06	52.648	0.00037652	0.00041851	0.00011769	1325.7	4.637e-06	4.4818e-06	1335.3	371.03	4.8035e-06	4.4736e-06	426.45	142.44	123.59	42.792	4.7862e-06	53.593	225.220	2.065	9.065	-71.517	97.990	70.611	-71.391	-66.988	69.189	63.392	-67.520	-62.956	-62.595	-57.952	67.923	-58.707	-8191	255	
34517.910	1	1	0	0	0.15687	0.25413	0.13404	0.27506	0.25288	0.27665	0.17146	0.29843	0.19928	0.086331	0.24052	0.14417	0.11156	0.040077	0.16046	0.10352	-1.8292	-2.3958	-2.4083	-2.3646	-2.5792	-2.4354	-2.5062	-2.5542	-2.1667	-2.3354	-2.6958	-2.1937	-2.7375	-2.3917	-2.2292	-2.7417	-41.175	174.655	242.237	260.062	79.998	219.657	100.037	216.749	40.913	82.500	258.207	197.442	126.011	142.988	-64.339	232.649	0.00016015	0.0004496	0.00012816	1323.3	2.3933e-06	3.8438e-06	1328.5	368.09	1.9209e-06	5.2743e-06	422.57	139.22	120.39	42.111	2.643e-06	52.643	0.00037697	0.00041416	0.00011912	1327.8	4.6091e-06	4.631e-06	1335.9	371.62	4.8675e-06	4.6533e-06	426.76	142.84	123.26	42.798	4.8351e-06	53.758	218.070	-5.097	0.158	-71.558	72.232	64.137	-71.525	-67.006	47.232	68.280	-67.434	-62.999	-62.600	-58.018	67.294	-58.752	-8191	255	
34518.008	1	1	0	0	0.13129	0.082718	0.01499	0.073184	0.033168	0.051415	0.48566	0.18644	0.35176	0.4154	0.21248	0.30193	0.15267	0.25459	0.099265	0.31771	-1.7	-2.3542	-2.5479	-2.2104	-2.4542	-2.4542	-2.3792	-2.6354	-2.1229	-2.4417	-2.5687	-2.2167	-2.4125	-2.475	-2.2021	-2.7812	96.844	136.203	231.764	-37.221	-61.809	257.222	186.242	256.146	153.528	-25.677	88.915	-41.015	228.836	28.621	-37.667	241.839	0.00015693	0.00055787	0.00010482	1325.4	2.7896e-06	5.0919e-06	1326.6	368.22	2.659e-06	4.6274e-06	424.4	139.56	121.16	42.118	4.2561e-06	52.846	0.00038165	0.00043287	0.00011936	1329.7	4.6033e-06	4.8687e-06	1337.2	371.9	4.9305e-06	4.7413e-06	427.44	142.79	123.79	42.859	4.8737e-06	53.726	223.831	7.438	23.322	-71.583	105.839	47.114	-71.571	-66.851	80.987	45.030	-67.446	-62.845	-62.341	-58.246	76.568	-58.678	-8191	255	
34518.105	1	1	0	0	0.1248	0.21694	0.14049	0.55957	0.016798	0.047484	0.29081	0.18204	0.29374	0.18911	0.2422	0.17417	0.14943	0.22611	0.20072	0.097057	-1.9396	-2.4562	-2.5667	-2.4167	-2.3625	-2.4625	-2.2146	-2.7667	-2.3146	-2.3208	-2.6063	-2.2604	-2.5062	-2.4167	-2.0125	-2.8229	157.197	104.726	223.392	192.846	261.420	-69.234	-76.401	203.421	235.735	138.083	-75.383	266.261	47.404	-36.935	266.228	188.538	0.00013602	0.00065406	0.00017064	1326.5	2.292e-06	5.4218e-06	1333.4	366.82	2.0924e-06	3.8969e-06	424.18	139.2	120.89	41.873	3.6133e-06	52.835	0.00039417	0.00043589	0.00011415	1330.6	4.7526e-06	4.8105e-06	1338.7	371.46	4.9606e-06	4.7283e-06	427.14	142.58	123.45	42.744	4.83e-06	53.775	222.305	0.205	15.397	-71.610	68.759	62.450	-71.600	-66.867	91.781	64.007	-67.722	-63.202	-62.348	-58.094	71.103	-58.696	-8191	255	
34518.223	1	1	0	0	0.21414	0.18532	0.042388	0.096154	0.11112	0.22563	0.34052	0.22635	0.1349	0.14397	0.53136	0.13831	0.31808	0.16865	0.25124	0.11476	-1.9479	-2.3583	-2.7333	-2.1271	-2.4542	-2.425	-2.3521	-2.5271	-2.4458	-2.3896	-2.7146	-2.5604	-2.5354	-2.8958	-2.3063	-2.6354	155.838	208.306	-39.343	220.048	66.990	265.246	184.429	134.468	94.130	99.458	238.248	161.229	231.596	251.274	-71.494	168.148	0.00016363	0.00044619	0.00016491	1322.5	2.2887e-06	5.8401e-06	1327.7	368	2.0571e-06	5.2911e-06	421.5	139.02	121.2	41.954	3.4165e-06	52.895	0.00038512	0.00043138	0.00011473	1328.5	4.7431e-06	4.7529e-06	1337.1	372.05	4.8221e-06	4.6081e-06	427.03	142.22	123.52	42.746	4.7322e-06	53.801	224.290	19.075	-7.306	-71.568	80.933	72.056	-71.508	-67.017	62.146	59.043	-67.392	-63.168	-62.542	-58.080	85.902	-58.433	-8191	255	
34518.293	1	1	0	0	0.19463	0.14046	0.068188	0.25106	0.058245	0.19035	0.24215	0.21979	0.27351	0.16613	0.19641	0.15246	0.24605	0.29385	0.22277	0.11199	-1.9813	-2.2313	-2.5583	-2.3812	-2.4417	-2.6	-2.5438	-2.7271	-2.5687	-1.9771	-2.8146	-2.4271	-2.4125	-2.5333	-2.1792	-2.6979	270.049	258.258	117.793	224.426	-54.089	90.909	180.603	264.489	82.223	-36.944	185.584	199.797	251.624	-53.154	106.845	241.734	0.00016692	0.00041717	0.000159	1323.8	2.3177e-06	5.7222e-06	1324.8	366.03	1.4503e-06	5.1685e-06	423.44	138.97	120.8	41.979	3.1902e-06	52.655	0.00038151	0.00043199	0.00011531	1329.2	4.656e-06	4.7907e-06	1337	370.78	4.8412e-06	4.6645e-06	426.45	142.5	123.42	42.727	4.6294e-06	53.722	224.870	-11.127	23.464	-71.562	86.154	62.233	-71.647	-67.002	56.517	73.057	-67.360	-62.955	-62.629	-58.103	76.942	-58.819	-8191	255	
34518.391	1	1	0	0	0.14866	0.13688	0.25063	0.1108	0.16007	0.13562	0.14626	0.3204	0.090284	0.21015	0.055616	0.14104	0.091742	0.10156	0.11516	0.24837	-1.8417	-2.1104	-2.4729	-2.3604	-2.1792	-2.6833	-2.5438	-2.5646	-2.4708	-2.0854	-2.7687	-2.4437	-2.3729	-2.5896	-2.1188	-2.4688	182.622	-41.532	43.844	217.934	267.350	-28.200	79.496	202.924	263.522	223.146	51.983	103.417	179.792	188.942	117.049	249.900	0.00013841	0.00051617	0.00013499	1318.2	2.9156e-06	4.328e-06	1324.5	366.09	2.6608e-06	5.4379e-06	424.04	138.85	120.4	41.748	1.8526e-06	52.866	0.00038337	0.00044392	0.00011294	1325.9	4.6455e-06	4.4199e-06	1334.2	370.6	4.8347e-06	4.6682e-06	425.64	142.32	123.04	42.621	4.5509e-06	53.746	225.094	2.753	6.382	-71.639	101.597	55.254	-71.571	-67.000	52.601	59.536	-67.545	-62.957	-62.598	-58.076	70.134	-58.654	-8191	255	
34518.488	1	1	0	0	0.099721	0.050371	0.20831	0.22316	0.10508	0.013099	0.11174	0.20336	0.065795	0.17816	0.093689	0.10021	0.14762	0.18035	0.081108	0.24676	-2.0583	-2.1312	-2.7292	-2.675	-2.2125	-2.5208	-2.35	-2.5917	-2.4708	-2.1354	-2.75	-2.6813	-2.2521	-2.7708	-2.2979	-2.4813	201.630	102.320	177.312	222.975	25.111	23.137	226.736	262.679	133.932	128.396	144.156	168.897	146.479	178.038	43.657	206.560	0.00014528	0.0005566	0.000147	1315.3	2.8654e-06	4.1415e-06	1319.4	365.19	2.1728e-06	5.631e-06	422.08	138.51	120.04	41.636	3.4238e-06	52.646	0.00038306	0.00041983	0.00011439	1321.4	4.8935e-06	4.5344e-06	1331.8	370.26	4.8347e-06	4.4723e-06	426.02	142.25	123.08	42.624	4.8533e-06	53.683	223.833	-1.869	17.119	-71.467	72.175	71.563	-71.667	-66.920	63.235	64.174	-67.348	-63.086	-62.637	-57.994	77.078	-58.797	-8191	255	
34518.582	1	1	0	0	0.079242	0.26786	0.2365	0.042331	0.20261	0.15537	0.25445	0.094537	0.070652	0.09022	0.13418	0.23958	0.12659	0.098703	0.091963	0.21479	-2.1	-2.2604	-2.3979	-2.6354	-2.2125	-2.6063	-2.7	-2.5917	-2.4271	-2.2125	-2.6583	-2.5604	-2.2479	-2.9083	-2.2625	-2.4396	274.865	132.678	-30.695	-73.885	-0.159	200.235	170.471	241.611	31.525	193.289	2.204	53.847	-31.253	231.991	227.374	252.489	0.0001465	0.00062079	0.00014467	1319.1	1.9779e-06	4.6403e-06	1324.2	364.58	1.7547e-06	4.2815e-06	422.58	138.82	120.36	41.842	3.339e-06	52.585	0.00037502	0.00043155	0.00011653	1324.1	4.8148e-06	4.592e-06	1332.7	370.43	4.8204e-06	4.8157e-06	426.24	142.3	123.18	42.689	4.8504e-06	53.673	218.951	0.071	6.058	-71.635	92.391	62.358	-71.545	-67.045	53.826	77.836	-67.636	-62.885	-62.642	-58.218	76.364	-58.597	-8191	255	
34518.703	1	1	0	0	0.22065	0.13417	0.05397	0.087485	0.19322	0.12573	0.28355	0.078607	0.12843	0.06182	0.18709	0.25028	0.03406	0.092894	0.1065	0.21351	-2.2146	-2.2354	-2.5229	-2.6125	-2.2292	-2.6833	-2.4771	-2.4396	-2.6333	-2.2521	-2.6396	-2.6771	-2.1958	-2.6833	-2.5729	-2.5271	129.825	122.061	9.566	206.259	260.039	115.217	233.160	157.047	56.233	120.742	-81.012	207.631	176.736	274.066	262.876	245.608	0.00015027	0.00053968	0.00011732	1318.9	2.6049e-06	5.7791e-06	1320.3	368.09	2.5712e-06	4.9512e-06	422.92	139.29	120.53	41.958	3.3862e-06	52.915	0.00038064	0.00044271	0.00012503	1324.5	4.9468e-06	4.6291e-06	1333.3	371.25	4.8451e-06	4.6614e-06	426.57	142.34	123.19	42.708	4.7965e-06	53.721	221.032	14.503	13.482	-71.483	80.489	64.537	-71.609	-66.998	84.623	62.329	-67.312	-62.859	-62.361	-58.074	76.330	-58.710	-8191	255	
34518.801	1	1	0	0	0.18709	0.018484	0.060439	0.33122	0.3457	0.027549	0.168	0.2421	0.11068	0.41155	0.21816	0.15326	0.15764	0.25562	0.21043	0.24593	-2.1854	-2.2042	-2.5167	-2.5604	-2.15	-2.6396	-2.4479	-2.2771	-2.5708	-2.3854	-2.55	-2.8729	-2.3271	-2.6354	-2.4729	-2.3438	209.231	64.333	-14.786	261.715	234.162	33.821	261.085	170.854	241.150	-46.810	229.951	18.035	188.252	243.383	6.172	257.999	0.00015259	0.00040683	0.00015111	1319.3	2.9614e-06	5.9967e-06	1321.8	365.66	2.5461e-06	4.3817e-06	422.27	138.89	120.54	41.954	3.185e-06	52.77	0.00037658	0.00041746	0.00012263	1325.8	4.8449e-06	4.5567e-06	1332.2	370.52	4.6326e-06	4.6998e-06	426.49	142.24	123.28	42.739	4.8317e-06	53.699	223.569	6.571	16.661	-71.564	70.488	56.763	-71.518	-66.829	70.459	59.690	-67.733	-62.976	-62.334	-57.912	73.960	-58.661	-8191	255	
34518.895	1	1	0	0	0.051964	0.13	0.16969	0.15822	0.018013	0.28177	0.13342	0.17224	0.14819	0.11791	0.30453	0.12353	0.18659	0.35001	0.35135	0.11926	-2.1708	-2.3125	-2.3292	-2.6167	-2.0458	-2.5646	-2.6833	-2.4271	-2.5854	-2.3583	-2.3979	-2.7521	-2.3979	-2.4729	-2.6917	-2.175	183.304	243.590	65.341	185.707	9.888	154.740	14.833	202.600	265.770	87.838	232.079	-54.322	-57.288	-80.578	202.784	-9.184	0.00015412	0.00052584	0.00010868	1317.9	3.271e-06	5.5824e-06	1321.8	366.12	2.6378e-06	4.229e-06	422.37	139.96	120.51	41.905	3.2417e-06	52.718	0.00038112	0.00041978	0.00011477	1324.1	4.7747e-06	4.5208e-06	1333.4	370.79	4.6578e-06	4.5579e-06	426.88	142.6	123.45	42.782	4.6805e-06	53.685	220.677	0.680	16.792	-71.631	87.057	51.405	-71.385	-66.977	72.849	53.423	-67.366	-62.973	-62.679	-57.890	73.323	-58.361	-8191	255	
34518.992	1	1	0	0	0.23779	0.071738	0.10185	0.54452	0.11174	0.22772	0.27828	0.1835	0.11889	0.032028	0.09237	0.25134	0.31879	0.086199	0.19055	0.18576	-2.1271	-2.1208	-2.2625	-2.7687	-2.3812	-2.3333	-2.8937	-2.1479	-2.8229	-2.3146	-2.4479	-2.5521	-2.3792	-2.3521	-2.7188	-2.1625	-74.328	164.915	232.382	259.105	5.317	30.974	207.803	235.975	43.216	106.066	-64.484	-16.449	239.774	220.171	264.855	179.147	0.00015596	0.00049457	0.00015364	1319.6	2.3756e-06	5.2561e-06	1324.1	366.54	8.6174e-07	5.1776e-06	423.95	138.61	120.57	42.059	3.5772e-06	52.588	0.0003702	0.00042176	0.00011833	1325.2	4.6629e-06	4.4459e-06	1333.6	371.01	4.574e-06	4.4884e-06	427.7	142.58	123.28	42.83	4.6334e-06	53.597	226.554	14.500	-0.030	-71.587	55.566	87.693	-71.449	-66.810	28.078	65.780	-67.455	-63.063	-62.788	-58.122	60.320	-58.613	-8191	255	
34519.090	1	1	0	0	0.19806	0.21328	0.18918	0.088243	0.14226	0.039541	0.35966	0.2271	0.18836	0.069062	0.10018	0.22766	0.34821	0.11017	0.12374	0.11149	-2.275	-2.5312	-2.3167	-2.8354	-2.3083	-2.4229	-2.7604	-2.3229	-2.575	-2.475	-2.3646	-2.8792	-2.375	-2.3604	-2.5354	-2.4083	160.334	-10.544	217.033	141.774	-75.315	37.633	259.473	-47.500	268.733	9.745	246.948	232.727	173.825	-6.221	85.137	145.745	0.00016804	0.00050445	0.00016252	1323.9	2.448e-06	3.3677e-06	1322.8	366.52	2.1197e-06	4.6608e-06	422.5	139.03	120.68	42.036	4.1453e-06	52.93	0.00036862	0.00042654	0.00011792	1325.8	4.9051e-06	4.4837e-06	1334.8	371.07	4.5882e-06	4.6409e-06	426.66	142.75	123.34	42.803	4.5339e-06	53.743	222.614	10.333	13.821	-71.470	72.220	69.069	-71.598	-66.908	60.254	63.189	-67.607	-62.938	-62.557	-58.166	64.771	-58.496	-8191	255	
34519.184	1	1	0	0	0.12143	0.055684	0.1866	0.2738	0.27902	0.21298	0.23665	0.17091	0.10061	0.080454	0.24488	0.077191	0.23093	0.22957	0.080379	0.20045	-2.2021	-2.6333	-2.3333	-2.7208	-2.3583	-2.1813	-2.7021	-2.3771	-2.4479	-2.8125	-2.3917	-2.775	-2.6333	-2.45	-2.6562	-2.3604	-40.674	188.096	-32.350	170.563	-36.656	-70.175	265.525	-53.520	-83.875	266.207	215.019	260.869	213.172	-10.220	43.723	264.392	0.00015372	0.00070234	0.00018805	1324.3	2.6832e-06	5.4626e-06	1325.9	367.44	2.6283e-06	4.9041e-06	424.73	138.99	121.12	42.09	3.7665e-06	52.964	0.00037982	0.00042346	0.00011215	1326.6	4.7721e-06	4.5617e-06	1335.7	371.39	4.6151e-06	4.3663e-06	428.18	142.59	123.64	42.875	4.4839e-06	53.715	227.609	1.685	7.672	-71.645	93.661	65.995	-71.543	-66.889	61.672	62.696	-67.628	-62.799	-62.580	-58.049	74.191	-58.340	-8191	255	
34519.305	1	1	0	0	0.13523	0.22615	0.058021	0.14269	0.065942	0.072661	0.23835	0.16119	0.20171	0.083088	0.15854	0.29623	0.17042	0.16069	0.33486	0.042399	-1.9958	-2.4979	-2.0583	-2.6354	-2.4562	-2.3625	-2.8542	-2.5729	-2.3229	-2.4958	-2.2542	-2.4938	-2.5458	-2.2188	-2.6208	-2.4021	216.666	247.796	101.863	247.014	43.013	24.509	228.139	-16.981	269.724	170.072	85.677	259.537	229.949	104.696	117.005	86.373	0.00015332	0.000437	0.00015342	1324.6	2.6326e-06	6.0349e-06	1328.1	366.33	2.2084e-06	5.063e-06	422.56	138.92	121.34	42.036	2.8502e-06	52.7	0.00037023	0.00038947	0.00011066	1326.5	4.6745e-06	4.4242e-06	1335.6	371.08	4.7246e-06	4.3967e-06	426.88	142.57	123.79	42.853	4.3134e-06	53.713	222.027	7.295	15.732	-71.679	85.482	56.892	-71.561	-66.699	30.086	67.490	-67.447	-62.806	-62.485	-58.157	50.628	-58.700	-8191	255	
34519.398	1	1	0	0	0.15877	0.25229	0.13985	0.1898	0.40004	0.1466	0.078987	0.24865	0.24983	0.063813	0.19783	0.22821	0.099355	0.3926	0.19833	0.072626	-1.8563	-2.5771	-2.1729	-2.7229	-2.4188	-2.4104	-2.8792	-2.5458	-2.3604	-2.7	-2.5438	-2.6354	-2.6354	-2.0042	-2.5646	-2.3292	183.669	228.891	-13.896	-71.227	152.808	-27.862	192.494	238.614	151.622	205.309	187.030	240.274	-38.709	266.036	204.495	128.967	0.00015174	0.0005052	0.00013058	1316.6	1.9844e-06	5.0167e-06	1325.4	365.27	1.7656e-06	4.3228e-06	424.39	139.59	120.74	42.06	2.9496e-06	52.875	0.00036504	0.00039051	0.00011306	1326	4.4392e-06	4.1921e-06	1335.2	370.26	4.3993e-06	4.2851e-06	427.46	142.74	123.6	42.885	4.3089e-06	53.829	222.105	-0.099	2.261	-71.603	92.582	68.824	-71.474	-67.041	63.950	60.906	-67.278	-62.900	-62.354	-57.949	51.676	-58.717	-8191	255	
34519.496	1	1	0	0	0.11328	0.013208	0.17242	0.3728	0.042844	0.16884	0.20613	0.16208	0.29722	0.15136	0.029773	0.14185	0.20568	0.17898	0.14737	0.2322	-1.7958	-2.6271	-2.2	-2.4979	-2.5833	-2.4271	-2.6063	-2.4062	-2.2792	-2.7	-2.3417	-2.5979	-2.575	-2.4104	-2.5083	-2.5208	182.042	15.836	-34.077	210.184	173.241	-62.592	217.631	192.070	32.349	-68.674	-26.490	238.477	134.187	-80.850	-54.162	131.209	0.00015289	0.0004705	0.00012105	1317.3	2.468e-06	6.1935e-06	1326.7	365.46	1.7543e-06	5.6343e-06	422.02	139.36	121.11	42.07	3.8442e-06	52.729	0.00036256	0.00038308	0.00011139	1323.9	4.3901e-06	4.298e-06	1335.1	370.57	4.4831e-06	4.1463e-06	425.95	142.78	123.78	42.9	4.3958e-06	53.747	222.726	5.309	-5.977	-71.624	85.175	80.526	-71.590	-66.828	27.457	64.416	-67.420	-62.979	-62.663	-58.103	87.525	-58.767	-8191	255	
34519.594	1	1	0	0	0.29966	0.046158	0.14368	0.30721	0.1197	0.124	0.36952	0.29609	0.26192	0.40144	0.29191	0.099586	0.22849	0.1133	0.26903	0.29142	-1.7687	-2.6708	-2.1854	-2.6208	-2.6479	-2.15	-2.8375	-2.5312	-2.4062	-2.6458	-2.3479	-2.3979	-2.7417	-2.4125	-2.3167	-2.4125	265.406	141.675	102.571	213.200	168.959	-9.483	181.994	173.122	114.825	273.482	204.033	269.489	-23.493	83.724	237.850	213.666	0.00015192	0.00060455	0.00017736	1318.4	3.8473e-06	4.7972e-06	1326.7	365.71	1.4851e-06	3.482e-06	421.84	139.09	121.39	42.015	3.2722e-06	52.691	0.00035901	0.0004036	0.00011438	1324.2	4.2814e-06	4.2843e-06	1335.4	370.17	4.3067e-06	4.0998e-06	426.74	142.69	123.84	42.818	4.2236e-06	53.778	225.219	4.100	14.528	-71.571	82.697	67.259	-71.456	-66.983	47.543	58.425	-67.595	-62.978	-62.593	-58.220	83.107	-58.451	-8191	255	
34519.688	1	1	0	0	0.070881	0.17846	0.08657	0.16625	0.065669	0.074784	0.37359	0.084749	0.10185	0.20583	0.13257	0.28863	0.3333	0.14833	0.13801	0.099978	-1.7708	-2.5958	-2.4646	-2.4542	-2.4979	-2.2833	-2.7333	-2.6979	-2.2687	-2.6083	-2.5292	-2.4667	-2.7792	-2.2542	-2.6396	-2.7438	215.369	133.896	-22.896	-59.881	113.062	122.822	218.154	206.276	-5.370	23.515	260.757	196.753	219.102	-58.198	1.911	176.684	0.00016088	0.00045873	0.00013163	1321.7	3.3118e-06	4.7111e-06	1321.6	364.98	2.6231e-06	4.7175e-06	422.26	139.33	120.85	42.104	4.1908e-06	53.003	0.00034869	0.00038809	0.00011237	1325.7	4.3927e-06	4.254e-06	1334	369.76	4.4935e-06	4.1618e-06	426.32	142.82	123.58	42.845	4.302e-06	53.759	223.389	5.084	2.752	-71.580	88.116	54.345	-71.462	-67.038	53.691	60.624	-67.498	-63.039	-62.491	-57.945	53.813	-58.645	-8191	255	
34519.785	1	1	0	0	0.077014	0.053158	0.11025	0.039036	0.11801	0.089175	0.094257	0.34527	0.089834	0.26532	0.36431	0.22623	0.27326	0.30133	0.23882	0.093689	-1.8729	-2.7729	-2.4833	-2.4667	-2.5438	-2.2583	-2.7125	-2.5396	-2.0479	-2.5542	-2.5333	-2.2771	-2.6021	-2.3792	-2.2771	-2.4083	176.791	228.500	68.327	-23.837	100.194	72.709	-38.667	233.085	249.056	189.130	233.155	247.960	240.408	204.680	42.389	172.989	0.00014587	0.00044809	0.00016279	1318.9	1.8569e-06	4.3738e-06	1323	365.16	2.4382e-06	5.4572e-06	423.14	139.48	120.77	42.05	3.4518e-06	52.658	0.0003603	0.00038396	0.00011308	1323.3	4.2123e-06	4.1587e-06	1334.2	369.97	4.5033e-06	4.1667e-06	426.52	142.91	123.55	42.924	4.3839e-06	53.71	219.553	10.248	11.691	-71.485	79.096	80.745	-71.516	-66.869	73.625	67.660	-67.308	-63.104	-62.242	-57.889	44.133	-58.639	-8191	255	
34519.902	1	1	0	0	0.18032	0.18889	0.21736	0.15301	0.18589	0.11093	0.33097	0.072889	0.046032	0.24616	0.15767	0.25533	0.21147	0.19442	0.22662	0.17191	-1.65	-2.3583	-2.4167	-2.4625	-2.5479	-2.3625	-2.6292	-2.8125	-2.225	-2.6146	-2.5021	-2.35	-2.8187	-2.4542	-2.3917	-2.7292	-77.100	254.386	202.129	252.693	189.270	241.847	241.106	-13.958	-81.755	248.474	202.372	-68.521	-23.682	265.351	40.183	253.776	0.00015449	0.00045754	0.00019213	1318	2.5357e-06	5.0897e-06	1325.8	365.19	2.2938e-06	4.8995e-06	423.54	138.89	121	42.209	3.3291e-06	52.849	0.00036149	0.00038248	0.00011007	1325.9	4.227e-06	4.3215e-06	1335.7	369.44	4.511e-06	4.1215e-06	426.55	142.68	123.71	42.936	4.2566e-06	53.753	224.640	10.130	18.807	-71.652	86.956	77.425	-71.261	-66.981	79.122	51.118	-67.417	-62.878	-62.678	-57.898	59.485	-58.604	-8191	255	
34520.000	1	1	0	0	0.15486	0.27176	0.087241	0.28558	0.042807	0.15526	0.2566	0.33129	0.18407	0.10468	0.12046	0.1216	0.049232	0.48069	0.080535	0.036559	-1.8521	-2.6042	-2.4167	-2.3521	-2.6917	-2.5479	-2.5146	-2.8646	-2.3125	-2.5	-2.5917	-2.0646	-2.5396	-2.5729	-2.3708	-2.7604	195.455	69.413	264.957	161.997	244.956	258.392	181.600	191.850	-36.245	90.311	-83.641	-72.727	158.514	-69.422	28.116	55.663	0.00014045	0.00056369	0.00015583	1321.4	2.6611e-06	4.4597e-06	1329.5	365.66	1.4882e-06	5.6419e-06	420.89	139.17	120.21	42.014	2.8946e-06	53.012	0.00035616	0.0003761	0.00010924	1327.1	4.2075e-06	4.3258e-06	1336	369.85	4.4048e-06	4.0886e-06	425.89	142.81	123.55	42.88	4.2299e-06	53.786	221.790	-1.011	13.359	-71.776	72.031	70.790	-71.537	-66.968	67.789	67.823	-67.258	-63.140	-62.619	-58.073	68.695	-58.680	-8191	255	
34520.094	1	1	0	0	0.08646	0.1782	0.25463	0.27788	0.40454	0.25825	0.30809	0.27973	0.13436	0.094959	0.24525	0.55456	0.43715	0.079122	0.091818	0.056048	-1.8396	-2.2687	-2.3833	-2.4667	-2.7313	-2.4708	-2.4792	-2.6708	-2.275	-2.5667	-2.6604	-2.2417	-2.5563	-2.4	-2.2958	-2.7271	18.717	89.559	157.854	210.868	64.214	-77.869	235.047	255.933	-33.050	-31.441	200.567	-55.448	-34.043	-15.584	252.555	263.359	0.00016023	0.00058986	0.00015041	1320.7	2.6191e-06	5.2934e-06	1325.6	365.44	1.8734e-06	4.8624e-06	422.36	138.95	121.68	42.079	4.3468e-06	52.95	0.00035765	0.00036713	0.00010216	1326.2	4.3743e-06	4.2187e-06	1335.4	369.83	4.3571e-06	4.0731e-06	426.23	142.58	123.68	42.842	4.2884e-06	53.779	223.238	18.429	3.055	-71.681	91.033	86.233	-71.526	-66.909	62.125	57.651	-67.344	-62.907	-62.287	-58.251	68.954	-58.395	-8191	255	
34520.168	1	1	0	0	0.10988	0.084799	0.14811	0.11654	0.12489	0.1744	0.27138	0.39949	0.17642	0.28666	0.064985	0.16188	0.23203	0.28648	0.12043	0.15016	-1.9583	-2.2271	-2.6229	-2.5021	-2.5458	-2.5479	-2.4729	-2.7417	-2.275	-2.4708	-2.7333	-2.4083	-2.6771	-2.6188	-2.2417	-2.7479	-27.523	102.701	239.796	245.770	-27.016	74.187	249.933	221.479	-26.041	143.935	61.743	257.388	134.571	262.723	21.314	-9.355	0.0001563	0.0006257	0.00016683	1319.9	3.5488e-06	4.0336e-06	1328.1	365.46	2.3213e-06	4.1975e-06	419.85	139.3	121.33	42.282	3.2454e-06	52.965	0.00035791	0.00039161	0.00010391	1325.6	4.3595e-06	3.9959e-06	1337.3	369.83	4.3724e-06	4.3031e-06	425.78	142.96	123.8	42.941	4.277e-06	53.83	224.849	11.478	3.284	-71.608	82.383	64.293	-71.389	-66.917	54.023	55.810	-67.430	-62.985	-62.473	-58.145	90.089	-58.711	-8191	255	
34520.266	1	1	0	0	0.10244	0.082368	0.070461	0.47269	0.17435	0.20673	0.37169	0.063549	0.12598	0.098476	0.12867	0.23381	0.39723	0.07959	0.20905	0.1734	-1.7146	-2.2292	-2.6604	-2.3187	-2.3854	-2.675	-2.4062	-2.9375	-2.3833	-2.5083	-2.7229	-2.5542	-2.5042	-2.5521	-2.1875	-2.7104	66.658	114.573	-32.546	248.489	163.077	199.879	249.031	-82.506	-73.544	188.457	-49.785	241.891	241.352	-58.585	253.682	-31.341	0.00014965	0.00046084	0.00017258	1319.1	2.6713e-06	4.1854e-06	1323.8	365.49	1.0045e-06	4.5887e-06	422.28	139.86	120.86	42.139	3.4898e-06	52.792	0.0003642	0.00037819	0.00010546	1326.8	4.3553e-06	4.02e-06	1333.7	369.67	4.3719e-06	4.2101e-06	426.89	143.08	123.69	42.857	4.3304e-06	53.798	217.576	-6.036	8.516	-71.770	85.149	64.067	-71.360	-67.007	58.813	59.121	-67.502	-62.864	-62.405	-57.935	89.497	-58.876	-8191	255	
34520.383	1	1	0	0	0.091905	0.23767	0.21911	0.45877	0.13562	0.093493	0.08274	0.066545	0.34098	0.073923	0.087058	0.051803	0.32956	0.22653	0.036291	0.15242	-2.0292	-2.2354	-2.6354	-2.3563	-2.5687	-2.6708	-2.2875	-2.6146	-2.5896	-2.2146	-2.7396	-2.5125	-2.2958	-2.8292	-2.3812	-2.5708	58.247	-79.167	118.419	265.471	16.147	-36.948	272.314	199.724	59.585	45.101	-66.518	213.568	-31.479	224.817	142.516	169.014	0.00015478	0.00058507	0.00015937	1322.5	2.713e-06	4.7377e-06	1325.3	364.9	2.3742e-06	4.6275e-06	422.29	139.41	121.19	41.934	3.3396e-06	52.88	0.00035503	0.00038072	0.00010154	1326.9	4.1584e-06	3.9005e-06	1334.8	369.42	4.3319e-06	4.057e-06	426.38	142.66	123.72	42.905	4.1389e-06	53.799	225.657	6.545	19.846	-71.730	87.299	77.761	-71.489	-66.768	65.721	44.391	-67.343	-63.155	-62.595	-57.938	64.438	-58.563	-8191	255	
34520.480	1	1	0	0	0.29314	0.097461	0.11373	0.22887	0.2603	0.14898	0.33907	0.23085	0.040756	0.039053	0.074804	0.1034	0.18406	0.2903	0.13134	0.15839	-1.9479	-2.1146	-2.5229	-2.6375	-2.3229	-2.5208	-2.5146	-2.6792	-2.4792	-2.2708	-2.7042	-2.45	-2.3667	-2.7917	-2.2979	-2.4979	141.477	-34.014	211.092	171.915	232.354	-68.251	-68.908	-62.132	163.928	227.088	48.316	253.035	67.183	9.310	68.236	-59.272	0.0001621	0.00050975	0.00018217	1321.4	3.2291e-06	5.0124e-06	1323.8	366.98	2.8992e-06	2.8788e-06	423.9	139.96	120.86	42.107	3.2876e-06	52.974	0.00035472	0.00037368	0.00010594	1324.2	4.1347e-06	4.0268e-06	1333.7	370.29	4.2202e-06	4.2312e-06	426.6	142.87	123.5	42.873	4.2679e-06	53.794	224.057	2.094	10.246	-71.454	89.081	84.733	-71.479	-66.924	50.264	59.391	-67.495	-62.881	-62.681	-58.082	79.416	-58.651	-8191	255	
34520.574	1	1	0	0	0.18051	0.13667	0.077224	0.39067	0.32491	0.11858	0.064354	0.26546	0.32388	0.03337	0.13447	0.14189	0.28605	0.27094	0.2442	0.18142	-2.0042	-2.0833	-2.7583	-2.3688	-2.2958	-2.8083	-2.4375	-2.4583	-2.6792	-2.0542	-2.6646	-2.5458	-2.1479	-2.825	-2.5208	-2.4667	205.123	-29.029	-12.771	256.927	-34.759	102.809	3.840	-82.600	62.437	81.055	241.392	-23.183	268.265	-44.449	103.514	234.473	0.00015424	0.00056571	0.00013384	1321.3	3.185e-06	3.8249e-06	1324.5	364.54	2.5754e-06	4.2618e-06	422.56	138.98	121.02	42.151	3.5987e-06	52.835	0.00034773	0.00038259	0.00010148	1324.2	4.3215e-06	4.1166e-06	1333.2	369.3	4.2366e-06	4.1147e-06	425.9	142.72	123.52	42.891	4.2958e-06	53.881	224.037	6.421	8.544	-71.610	88.140	94.487	-71.643	-66.879	41.660	56.259	-67.598	-63.155	-62.473	-58.037	72.899	-58.586	-8191	255	
34520.695	1	1	0	0	0.18563	0.33104	0.038451	0.16128	0.10543	0.13877	0.39296	0.17155	0.063459	0.19668	0.28623	0.20842	0.03213	0.073288	0.088947	0.10616	-2.0104	-2.1333	-2.6042	-2.8271	-2.4417	-2.5187	-2.5042	-2.3563	-2.4917	-2.1542	-2.6396	-2.4396	-2.3229	-2.5438	-2.3292	-2.2917	117.282	133.453	49.319	-10.627	-1.680	131.737	169.652	205.944	242.119	233.987	202.743	236.502	55.795	-66.179	213.572	256.122	0.00014982	0.00049402	9.9026e-05	1316.5	2.0702e-06	4.032e-06	1323	365.7	1.857e-06	4.0237e-06	421.92	139.43	121.18	42.039	3.166e-06	52.895	0.00035489	0.0003783	0.00010292	1321.9	4.303e-06	4.0243e-06	1333.2	369.69	4.2591e-06	4.1897e-06	426.82	142.96	123.68	42.884	4.1895e-06	53.807	220.395	11.749	8.947	-71.527	96.772	57.164	-71.577	-66.914	70.425	87.075	-67.491	-63.050	-62.543	-58.073	82.736	-58.463	-8191	255	
34520.793	1	1	0	0	0.10979	0.15503	0.21086	0.27959	0.16131	0.15964	0.14919	0.07823	0.078659	0.36017	0.17772	0.16973	0.2453	0.14263	0.40769	0.055345	-2.1667	-2.1437	-2.3604	-2.6479	-2.2396	-2.5312	-2.575	-2.2979	-2.6854	-2.3604	-2.4958	-2.6208	-2.1521	-2.3688	-2.3896	-2.225	-23.918	83.396	-19.073	-59.595	176.003	233.414	106.532	56.377	239.298	-24.975	-67.162	147.422	213.268	19.684	72.253	222.867	0.00015128	0.00053182	0.00011751	1318.3	3.3726e-06	4.3861e-06	1321.1	365.99	2.9841e-06	4.2231e-06	421.06	138.99	120.48	42.012	2.9692e-06	53.041	0.00035359	0.00037736	9.9114e-05	1323.9	4.3421e-06	3.9853e-06	1331.7	369.53	4.1392e-06	4.0793e-06	426.31	142.55	123.48	42.827	4.1509e-06	53.862	224.546	-6.667	30.891	-71.531	116.066	63.225	-71.487	-66.863	65.848	79.004	-67.482	-62.809	-62.584	-58.157	83.473	-58.407	-8191	255	
34520.863	1	1	0	0	0.24466	0.23508	0.090243	0.3243	0.17259	0.06355	0.20578	0.2874	0.15536	0.04189	0.28904	0.082026	0.064546	0.25913	0.065989	0.20425	-2.1063	-2.1521	-2.3521	-2.8271	-2.3458	-2.5542	-2.8	-2.2375	-2.7208	-2.3958	-2.4938	-2.6583	-2.2938	-2.6688	-2.5354	-2.3937	-82.620	231.119	5.157	243.264	109.334	120.052	257.115	229.408	267.093	17.578	240.791	64.547	243.453	162.947	156.673	271.186	0.00014949	0.00051605	0.00012444	1319.9	1.6457e-06	3.6505e-06	1323.6	365.66	1.836e-06	5.7358e-06	422.27	139.4	121	42.137	4.0991e-06	53.143	0.00034547	0.0003827	9.9176e-05	1323.6	4.2677e-06	4.0386e-06	1333.8	369.6	4.2191e-06	4.2517e-06	426.26	142.65	123.48	42.894	4.1031e-06	53.841	225.474	7.919	9.675	-71.485	53.482	58.553	-71.596	-67.059	49.506	76.130	-67.294	-62.955	-62.568	-57.963	65.548	-58.614	-8191	255	
34520.984	1	1	0	0	0.24107	0.15456	0.32903	0.30271	0.13151	0.36126	0.3859	0.099972	0.2245	0.23693	0.34277	0.056188	0.066474	0.10428	0.090955	0.12137	-2.2938	-2.2188	-2.4667	-2.8208	-2.1708	-2.5854	-2.6917	-2.5354	-2.6937	-2.4229	-2.4646	-2.7313	-2.3229	-2.55	-2.4479	-2.3229	228.427	148.329	-77.236	200.651	-56.982	-10.323	207.823	230.967	84.944	-43.882	202.468	9.921	169.105	223.262	93.927	-38.346	0.0001549	0.00041571	0.00011935	1315.3	2.2598e-06	5.2216e-06	1325	364.35	1.2252e-06	5.1617e-06	422.19	139.74	120.68	42.18	3.4845e-06	53.08	0.00035396	0.0003904	0.00010425	1321.9	4.2904e-06	4.0485e-06	1334.3	369.45	4.0576e-06	3.9864e-06	426.37	142.91	123.68	42.905	4.048e-06	53.808	220.131	8.657	26.019	-71.613	88.869	62.665	-71.607	-67.064	80.447	63.974	-67.550	-62.989	-62.453	-58.044	76.513	-58.679	-8191	255	
34521.082	1	1	0	0	0.077871	0.13804	0.16344	0.16103	0.25414	0.060143	0.21165	0.15662	0.2576	0.10435	0.22916	0.29301	0.13042	0.16069	0.03055	0.2366	-2.0458	-2.4583	-2.4	-2.7979	-2.2	-2.4333	-2.5521	-2.3146	-2.7229	-2.4875	-2.3979	-2.8479	-2.3521	-2.4646	-2.7583	-2.1604	-66.710	256.270	232.839	-34.200	122.884	168.429	229.425	183.916	228.677	84.246	250.799	256.225	252.896	6.871	121.382	10.758	0.00015069	0.00045168	0.00013862	1316.9	3.2228e-06	4.4968e-06	1321.5	364.66	2.0518e-06	4.7086e-06	422.74	139.17	120.89	42.095	4.1582e-06	52.936	0.00035179	0.00037698	0.00010295	1322.1	4.2819e-06	3.968e-06	1331	369.41	4.258e-06	4.0601e-06	425.87	142.54	123.62	42.901	4.202e-06	53.795	221.904	1.687	-1.517	-71.751	93.300	64.463	-71.640	-66.941	59.159	71.384	-67.370	-62.738	-62.409	-57.989	67.236	-58.726	-8191	255	
34521.176	1	1	0	0	0.094649	0.2501	0.14437	0.30099	0.092431	0.32772	0.28249	0.24567	0.25535	0.076495	0.10697	0.079981	0.11566	0.17362	0.14728	0.051933	-2.0667	-2.4396	-2.2125	-2.7104	-2.2021	-2.3854	-2.8333	-2.4458	-2.4667	-2.5792	-2.3208	-2.8604	-2.275	-2.275	-2.7438	-2.2438	6.627	165.614	-23.756	231.710	206.020	211.780	261.157	110.358	102.668	188.164	15.554	274.549	180.374	224.127	-59.800	271.243	0.00016965	0.00052386	0.00015945	1321.8	2.9366e-06	4.682e-06	1322	365.16	2.3292e-06	3.335e-06	422.49	139.17	120.96	42.049	3.758e-06	52.846	0.0003486	0.00036873	0.00010545	1325	4.2898e-06	4.1172e-06	1332.7	369.41	4.3582e-06	3.9343e-06	426.28	142.75	123.62	42.858	4.1378e-06	53.782	220.425	5.499	12.526	-71.620	76.348	79.602	-71.559	-66.887	42.942	71.835	-67.313	-62.995	-62.578	-58.025	61.198	-58.690	-8191	255	
34521.297	1	1	0	0	0.18666	0.16971	0.10906	0.37318	0.15567	0.10672	0.11747	0.12418	0.19564	0.13304	0.063462	0.33622	0.22652	0.17104	0.11218	0.11092	-2.0771	-2.5062	-2.1021	-2.7979	-2.2208	-2.1312	-2.775	-2.5125	-2.4667	-2.4188	-2.4354	-2.8271	-2.5687	-2.5583	-2.6604	-2.525	-38.217	62.440	-22.371	235.971	242.616	86.371	164.415	-79.509	41.790	244.154	135.586	214.328	-82.921	268.280	104.581	107.782	0.00014636	0.00049234	0.00015763	1317.4	2.6968e-06	5.7553e-06	1322	364.22	1.9158e-06	4.4729e-06	420.37	139.09	121.27	41.911	2.923e-06	53.175	0.00034499	0.00035783	0.00010766	1323.9	4.4112e-06	3.8727e-06	1333.6	369.03	4.2722e-06	3.9244e-06	425.48	142.71	123.52	42.848	4.2702e-06	53.889	224.365	12.903	11.638	-71.428	98.567	68.170	-71.812	-66.882	64.686	74.677	-67.637	-62.868	-62.599	-58.004	98.699	-58.607	-8191	255	
34521.391	1	1	0	0	0.063845	0.1318	0.1774	0.25483	0.036563	0.097468	0.068721	0.057442	0.027872	0.20831	0.3078	0.076882	0.17932	0.085252	0.20742	0.26722	-2.1792	-2.5812	-2.1542	-2.7042	-2.4167	-2.2938	-2.8229	-2.4292	-2.475	-2.7458	-2.2271	-2.7313	-2.5354	-2.4604	-2.7313	-2.5563	106.426	134.228	272.936	237.262	-31.627	-83.860	-67.577	76.852	147.399	104.060	148.883	72.029	192.777	204.169	223.854	248.903	0.00015353	0.00045538	0.00011201	1315.4	2.5474e-06	5.3033e-06	1321.2	365.46	2.8703e-06	5.3119e-06	422.16	139.14	120.33	42.18	4.7171e-06	52.874	0.00035122	0.00037032	0.00010439	1324.3	4.122e-06	4.1543e-06	1334.2	370.01	4.2651e-06	4.0031e-06	426.25	142.81	123.42	42.864	4.2452e-06	53.791	221.526	1.208	8.964	-71.623	94.315	80.591	-71.530	-66.683	70.970	64.424	-67.389	-63.014	-62.671	-58.139	74.982	-58.606	-8191	255	
34521.465	1	1	0	0	0.10264	0.13418	0.21917	0.19339	0.079124	0.071126	0.18654	0.36308	0.22178	0.26193	0.14829	0.30476	0.33379	0.16898	0.12598	0.15926	-1.8125	-2.5521	-2.3063	-2.7771	-2.5125	-2.3167	-2.8646	-2.6083	-2.275	-2.6271	-2.3417	-2.6083	-2.5729	-2.35	-2.5354	-2.3958	52.215	117.754	77.058	234.075	-72.592	-12.341	173.770	166.705	85.034	245.243	-32.814	77.353	181.217	-23.643	259.073	-52.451	0.00014334	0.00057966	0.00016067	1317.1	2.8648e-06	5.0428e-06	1328.7	364.87	1.9034e-06	5.1237e-06	420.88	139.73	120.83	42.116	4.294e-06	52.872	0.00034601	0.00038792	0.00010662	1324.5	4.1843e-06	4.1834e-06	1335.1	369.32	4.1545e-06	4.0781e-06	426.27	142.75	123.67	42.877	4.1924e-06	53.78	228.350	-11.536	-2.788	-71.654	80.771	64.277	-71.688	-66.922	74.733	59.019	-67.347	-62.966	-62.473	-58.082	78.995	-58.761	-8191	255	
34521.559	1	1	0	0	0.086875	0.11457	0.37612	0.17757	0.21786	0.17748	0.54152	0.18812	0.25403	0.26102	0.22921	0.21916	0.10847	0.23497	0.037498	0.063897	-1.7563	-2.7354	-2.3312	-2.5333	-2.725	-2.1688	-2.8667	-2.3271	-2.2542	-2.6729	-2.3125	-2.5229	-2.5979	-2.3354	-2.6604	-2.5229	78.671	178.020	-19.587	198.305	51.062	273.266	192.046	263.480	-22.167	143.183	210.421	128.510	156.416	95.508	46.565	192.115	0.00014515	0.0004604	0.00016154	1319.1	2.623e-06	3.8301e-06	1325.2	366.33	2.6782e-06	4.2738e-06	420.74	139.28	120.96	42.157	3.0156e-06	52.999	0.00035204	0.00036928	0.00010902	1325	4.2138e-06	4.1228e-06	1334.1	369.51	4.2262e-06	4.0291e-06	426.02	142.85	123.69	42.909	4.1134e-06	53.826	224.723	9.600	17.686	-71.552	95.382	65.787	-71.657	-67.073	37.936	71.520	-67.512	-62.755	-62.558	-57.807	62.507	-58.623	-8191	255	
34521.680	1	1	0	0	0.077872	0.48315	0.028773	0.28872	0.30321	0.26883	0.207	0.069891	0.086684	0.06126	0.19174	0.15288	0.11709	0.15126	0.13441	0.17579	-1.8833	-2.6813	-2.2479	-2.6583	-2.5875	-2.3229	-2.8063	-2.35	-2.3021	-2.7583	-2.425	-2.4437	-2.5479	-2.2896	-2.3604	-2.5062	71.023	257.129	42.131	-40.254	238.729	137.225	18.487	59.166	20.620	37.169	193.842	-2.731	232.495	-36.430	94.729	262.087	0.00015352	0.00047782	0.00014402	1319.7	2.7458e-06	5.0469e-06	1322.2	363.66	1.5595e-06	5.9282e-06	422.35	139.97	121.44	42.178	3.7152e-06	53.009	0.00035472	0.00036779	0.00010193	1324.5	4.2255e-06	4.0745e-06	1333.4	369.13	4.3149e-06	3.9616e-06	426.89	142.99	123.76	42.874	3.9468e-06	53.858	228.319	8.474	20.543	-71.500	71.650	72.398	-71.537	-67.009	86.876	50.973	-67.244	-62.853	-62.464	-58.162	63.134	-58.628	-8191	255	
34521.777	1	1	0	0	0.14532	0.10318	0.16937	0.16584	0.052971	0.19668	0.13279	0.22815	0.10036	0.11684	0.29132	0.2541	0.30377	0.10422	0.24896	0.088275	-1.6708	-2.6437	-2.2729	-2.5979	-2.4646	-2.3	-2.6875	-2.8	-2.2208	-2.5667	-2.5208	-2.7417	-2.8771	-2.1271	-2.3	-2.5604	82.546	161.177	99.387	215.370	192.337	146.041	30.497	198.206	17.970	73.778	231.324	-40.839	197.531	240.892	263.639	210.154	0.000154	0.00051229	0.00014738	1317.5	2.1572e-06	5.4841e-06	1327.4	364.98	2.7772e-06	4.8755e-06	424.44	139.81	120.24	42.064	3.7967e-06	52.842	0.00034905	0.00036988	0.00010408	1325.2	4.2745e-06	4.1921e-06	1336.2	369.44	4.2804e-06	3.9299e-06	426.75	142.88	123.46	42.846	4.1043e-06	53.816	228.612	11.283	25.740	-71.609	93.520	56.987	-71.845	-66.900	70.397	48.092	-67.519	-63.100	-62.527	-58.033	62.260	-58.542	-8191	255	
34521.871	1	1	0	0	0.079475	0.45315	0.2888	0.31002	0.13746	0.15481	0.17439	0.20564	0.14236	0.29938	0.16603	0.217	0.14846	0.21214	0.13152	0.33466	-1.5125	-2.5729	-2.2979	-2.4688	-2.7396	-2.4062	-2.5375	-2.4833	-2.3312	-2.7	-2.5104	-2.2229	-2.6292	-2.3729	-2.5187	-2.7562	36.503	13.535	0.486	206.496	253.845	-27.150	223.553	207.191	-39.931	196.539	243.399	235.914	-36.311	192.179	17.689	243.784	0.00015235	0.00044397	0.00013864	1319.4	2.6036e-06	5.0004e-06	1328.2	365.47	2.6175e-06	4.6418e-06	422.91	139.61	121.19	42.161	3.1081e-06	52.665	0.00036293	0.00036873	0.00010473	1326.1	4.3035e-06	4.077e-06	1336.7	369.45	4.4694e-06	4.0167e-06	426	142.74	123.65	42.871	4.1122e-06	53.672	226.344	-12.970	13.890	-71.619	102.093	52.250	-71.372	-67.049	63.720	51.479	-67.728	-62.760	-62.650	-57.981	61.674	-58.605	-8191	255	
34521.969	1	1	0	0	0.03944	0.20087	0.25579	0.35352	0.33462	0.080514	0.052814	0.12806	0.036693	0.20518	0.14139	0.21053	0.13214	0.067972	0.026977	0.19836	-1.75	-2.425	-2.3625	-2.3563	-2.7	-2.4042	-2.5021	-2.7	-2.2208	-2.4875	-2.5812	-2.3187	-2.6458	-2.4229	-2.3521	-2.7771	171.925	-55.765	109.142	255.396	259.715	-66.945	202.809	204.462	-35.109	87.588	-23.812	135.300	233.587	-25.629	98.145	14.316	0.0001559	0.00045084	0.0001301	1319.9	2.5486e-06	5.0137e-06	1330.2	364.93	2.6676e-06	5.5825e-06	420.56	139.48	120.99	42.074	3.4221e-06	53.001	0.00036019	0.00035563	9.9718e-05	1325.2	4.1247e-06	4.233e-06	1336.9	369.64	4.2958e-06	3.8742e-06	426.04	142.81	123.65	42.866	4.2287e-06	53.819	220.113	11.837	-5.857	-71.578	88.925	60.479	-71.538	-66.928	52.436	63.779	-67.513	-63.178	-62.580	-57.992	85.423	-58.565	-8191	255	
34522.090	1	1	0	0	0.11795	0.074045	0.042939	0.31554	0.20715	0.21882	0.27672	0.37637	0.12386	0.19317	0.10314	0.25206	0.043022	0.12483	0.13321	0.26291	-1.8083	-2.45	-2.525	-2.5417	-2.7354	-2.3042	-2.4292	-2.7583	-2.2313	-2.4625	-2.7521	-2.2938	-2.8104	-2.5771	-2.3104	-2.75	-29.945	150.045	239.535	265.696	169.440	151.284	191.027	255.577	9.746	-46.398	267.278	170.837	258.128	253.029	216.022	196.794	0.00013999	0.00056248	0.00015465	1322.8	3.0164e-06	5.2965e-06	1326.6	366.53	3.1455e-06	4.6878e-06	422.78	139.14	121.45	42.034	3.5367e-06	52.774	0.00035774	0.00037065	0.00010616	1325.9	4.1948e-06	3.9432e-06	1335.8	370.1	4.3243e-06	3.9851e-06	426.5	142.75	123.84	42.861	4.1742e-06	53.727	222.942	6.116	14.753	-71.753	70.882	73.582	-71.527	-66.930	73.095	48.512	-67.243	-62.969	-62.659	-57.835	72.715	-58.874	-8191	255	
34522.160	1	1	0	0	0.16814	0.15678	0.089502	0.11325	0.17264	0.1569	0.35654	0.15328	0.12507	0.33693	0.15629	0.43763	0.14665	0.15951	0.23079	0.36756	-1.8625	-2.3896	-2.6417	-2.2604	-2.5542	-2.4854	-2.5167	-2.7542	-2.1542	-2.4479	-2.6229	-2.3271	-2.7062	-2.5083	-2.2229	-2.825	78.179	67.499	142.283	152.839	248.426	236.147	119.637	171.858	208.552	208.402	23.857	208.938	253.791	227.266	135.767	227.431	0.00014665	0.00042277	0.0001344	1319.9	2.4825e-06	4.4871e-06	1328.3	366.07	2.0026e-06	3.6164e-06	421.79	139.56	120.98	42.283	3.9738e-06	52.995	0.00035633	0.00036009	0.00010695	1326.5	4.1294e-06	4.0441e-06	1336.7	370.35	4.2076e-06	4.0025e-06	426.7	142.92	123.59	42.944	4.36e-06	53.846	222.433	1.948	6.354	-71.498	115.539	63.438	-71.499	-67.028	64.801	77.411	-67.575	-62.975	-62.688	-58.101	68.180	-58.513	-8191	255	
34522.258	1	1	0	0	0.043719	0.12985	0.092478	0.16431	0.24289	0.16247	0.1511	0.3025	0.35192	0.25506	0.14025	0.21048	0.098735	0.10052	0.13535	0.231	-1.9312	-2.3396	-2.4979	-2.2333	-2.6875	-2.6771	-2.4	-2.7854	-2.4396	-2.3625	-2.85	-2.3458	-2.5687	-2.4729	-2.2771	-2.7896	263.209	138.217	255.178	178.477	64.181	-78.539	211.391	-73.787	250.557	20.987	256.732	268.908	161.355	129.724	213.358	266.629	0.00016322	0.00051025	0.00012231	1323.2	2.105e-06	4.5496e-06	1329.2	365.12	2.5022e-06	4.8192e-06	422.65	139.76	121.16	42.076	3.3194e-06	52.995	0.00035579	0.00037549	0.00010207	1328.2	4.1716e-06	4.0528e-06	1337.9	369.8	4.3927e-06	4.093e-06	426.57	143.01	123.9	42.944	4.1634e-06	53.824	225.911	-4.562	1.063	-71.653	103.595	65.745	-71.507	-66.783	66.841	75.662	-67.594	-63.002	-62.422	-57.845	84.932	-58.646	-8191	255	
34522.375	1	1	0	0	0.13769	0.16398	0.23172	0.29053	0.20087	0.26242	0.2267	0.033671	0.3229	0.356	0.31461	0.060546	0.33893	0.21501	0.044952	0.11108	-1.8208	-2.2938	-2.4771	-2.475	-2.3625	-2.625	-2.3375	-2.75	-2.6083	-2.1083	-3.0104	-2.4583	-2.4646	-2.5104	-2.2625	-2.7208	261.145	95.099	221.435	188.363	233.097	-60.031	212.095	128.386	16.623	11.574	199.741	212.447	230.657	224.436	58.998	217.831	0.00015412	0.00054429	0.00012882	1324.1	2.6003e-06	4.2891e-06	1330.3	366.53	2.7286e-06	4.5218e-06	423.86	139.78	121.05	42.136	3.6755e-06	52.966	0.00035458	0.00037313	0.00010634	1329.3	4.0993e-06	4.0751e-06	1337.9	370.44	4.3171e-06	4.1357e-06	426.95	142.93	123.68	42.886	4.3316e-06	53.903	226.958	3.452	8.986	-71.656	91.429	67.893	-71.456	-66.796	61.958	45.488	-67.420	-62.871	-62.474	-58.044	90.452	-58.686	-8191	255	
34522.473	1	1	0	0	0.051909	0.21366	0.037923	0.25969	0.37209	0.11423	0.11692	0.21022	0.2728	0.088443	0.11268	0.25265	0.28392	0.26671	0.072886	0.034028	-2.0333	-2.2687	-2.7146	-2.5979	-2.3958	-2.5771	-2.6042	-2.6854	-2.5354	-2.0125	-2.6896	-2.4521	-2.4542	-2.5792	-2.4375	-2.5146	20.783	30.430	7.626	239.004	-79.619	-59.043	247.028	-8.369	21.916	162.057	206.014	-28.953	-2.308	240.727	-34.368	158.557	0.00014108	0.00043212	0.00013046	1323.9	2.9686e-06	5.2099e-06	1332.1	365.1	2.4326e-06	5.0535e-06	422.05	139.9	121.36	42.01	3.6325e-06	53.053	0.00034761	0.00035299	0.00010308	1329.8	4.3706e-06	3.9705e-06	1338.9	369.79	4.1868e-06	4.1822e-06	426.41	142.98	123.99	42.83	4.2941e-06	53.911	223.574	21.710	20.289	-71.585	88.681	69.458	-71.615	-66.865	46.788	62.646	-67.557	-62.983	-62.557	-58.062	88.972	-58.617	-8191	255	
34522.570	1	1	0	0	0.137	0.083871	0.035218	0.17636	0.30935	0.15747	0.105	0.33622	0.013113	0.35456	0.35896	0.15556	0.19169	0.24616	0.2065	0.30626	-2.1396	-2.1833	-2.6354	-2.6125	-2.2875	-2.7354	-2.3729	-2.7167	-2.4604	-2.0708	-2.7313	-2.4542	-2.3	-2.7833	-2.2271	-2.6479	142.123	48.174	23.521	-71.124	194.157	68.427	216.504	175.146	-19.338	151.413	254.700	233.429	239.966	241.004	-75.921	198.748	0.00014982	0.00044962	0.00012276	1320.8	2.8004e-06	6.2987e-06	1330.3	365.73	3.1353e-06	4.9689e-06	424.61	139.41	120.82	42.34	2.9449e-06	52.931	0.00035506	0.00037126	9.9857e-05	1329	4.3352e-06	4.064e-06	1340	370.15	4.3965e-06	4.1023e-06	426.92	142.9	123.77	43.018	4.2537e-06	53.774	224.063	-4.529	10.688	-71.589	97.843	62.548	-71.574	-67.019	65.402	63.190	-67.342	-62.892	-62.505	-57.755	74.952	-58.734	-8191	255	
34522.664	1	1	0	0	0.099429	0.13043	0.07453	0.2569	0.070149	0.049362	0.17619	0.090147	0.043396	0.12944	0.082094	0.023573	0.17422	0.33666	0.21003	0.21975	-2.0104	-2.4458	-2.5375	-2.4125	-2.1354	-2.6833	-2.2771	-2.5146	-2.4062	-2.4167	-2.6562	-2.5521	-2.275	-3.0187	-2.2333	-2.5479	183.215	185.688	105.540	245.783	35.985	111.763	223.640	160.890	54.049	246.253	-58.687	177.564	41.433	254.684	-81.064	86.140	0.00014258	0.00038532	0.000142	1324.4	1.9205e-06	4.4549e-06	1327.7	366.56	1.7944e-06	5.5922e-06	422.69	140.07	120.97	42.192	3.6203e-06	53.046	0.00035255	0.00038847	0.00010147	1329.4	4.3136e-06	4.033e-06	1336	370.47	4.2377e-06	4.1686e-06	427.02	143.11	123.72	42.921	4.2691e-06	53.962	224.225	-10.470	17.760	-71.724	66.669	62.660	-71.472	-67.118	51.269	63.182	-67.489	-62.936	-62.703	-58.015	77.896	-58.562	-8191	255	
34522.762	1	1	0	0	0.13413	0.28301	0.28306	0.37216	0.19823	0.30016	0.11483	0.14537	0.14857	0.26648	0.21963	0.17144	0.3073	0.29556	0.062673	0.27544	-1.9625	-2.0938	-2.4458	-2.5479	-2.0563	-2.7229	-2.1417	-2.4708	-2.5042	-2.2604	-2.6937	-2.5583	-2.2604	-2.6083	-2.0958	-2.3438	28.358	-73.359	-61.842	235.539	-72.580	265.596	239.308	216.495	-0.774	238.648	168.180	76.311	256.231	-55.099	154.897	209.998	0.0001534	0.00052014	0.00011167	1323	2.1752e-06	4.4943e-06	1325.2	365.65	1.901e-06	4.1655e-06	423.29	139.9	121.38	42.158	3.9838e-06	52.837	0.00036422	0.0003728	9.9176e-05	1327.7	4.1679e-06	3.9624e-06	1336.3	369.99	4.1315e-06	4.0607e-06	426.85	143.16	123.93	42.903	4.1901e-06	53.876	227.746	7.789	10.624	-71.563	83.274	66.313	-71.435	-66.875	68.939	60.685	-67.250	-63.026	-62.644	-58.032	52.693	-58.580	-8191	255	
34522.855	1	1	0	0	0.21489	0.26686	0.17135	0.19384	0.20202	0.37407	0.17279	0.11273	0.0098969	0.1006	0.17538	0.04827	0.15628	0.27859	0.41432	0.27334	-2.0792	-2.1312	-2.2604	-2.5354	-2.0917	-2.65	-2.5479	-2.4792	-2.5021	-2.1875	-2.6917	-2.6125	-2.2917	-2.6479	-2.1958	-2.4375	231.985	141.667	-50.547	207.288	147.301	154.173	124.351	178.101	245.052	-4.828	246.582	265.832	-44.182	241.348	240.115	249.054	0.00013247	0.00049815	0.00015679	1322.9	2.8861e-06	6.2229e-06	1327	365.88	2.1604e-06	4.8442e-06	422.87	139.8	121.49	42.161	3.5492e-06	53.118	0.00034922	0.00038336	0.00010206	1328.7	4.2898e-06	4.0274e-06	1337.4	370.84	4.1008e-06	4.0589e-06	427.33	143.12	124.04	42.946	4.1452e-06	53.955	224.415	10.903	29.942	-71.635	66.032	73.221	-71.636	-67.061	76.668	52.323	-67.393	-62.835	-62.295	-58.026	73.756	-58.571	-8191	255	
34522.977	1	1	0	0	0.12692	0.20897	0.20375	0.25028	0.026712	0.17747	0.28098	0.17882	0.15936	0.12716	0.1386	0.13047	0.22623	0.068694	0.075036	0.030555	-2.2687	-2.1667	-2.3125	-2.6521	-2.2208	-2.5563	-2.4083	-2.4021	-2.5646	-2.4521	-2.4521	-2.7917	-2.1042	-2.7792	-2.4625	-2.3021	132.632	89.753	69.123	238.424	163.739	-70.117	215.049	200.164	53.327	21.758	231.649	-72.273	-40.721	73.665	-30.440	59.586	0.00014013	0.00055232	0.00017622	1326.2	3.0464e-06	4.3043e-06	1326.2	366.14	2.7376e-06	4.5e-06	423.68	139.06	121.07	42.128	2.9059e-06	53.059	0.00034164	0.00036257	9.9145e-05	1329.6	4.188e-06	3.8912e-06	1337.4	370.16	4.189e-06	3.8029e-06	427.48	142.9	123.86	42.944	4.2907e-06	53.865	223.548	-2.516	20.173	-71.508	88.048	66.434	-71.586	-66.933	62.356	76.693	-67.455	-63.155	-62.445	-57.925	82.104	-58.663	-8191	255	
34523.074	1	1	0	0	0.083152	0.10983	0.13122	0.17756	0.16523	0.37949	0.24823	0.22609	0.087974	0.078129	0.15387	0.41264	0.013407	0.24331	0.12776	0.24641	-2.0687	-2.2292	-2.5875	-2.7896	-2.1854	-2.35	-2.6125	-2.2562	-2.4833	-2.5625	-2.4833	-2.6542	-2.2396	-2.4437	-2.5062	-2.2875	239.246	49.183	111.202	-7.777	-72.337	218.650	178.117	191.702	227.560	224.424	170.439	-82.805	-6.594	260.220	163.107	223.855	0.00015864	0.00050127	0.00012991	1324.7	3.4303e-06	5.7089e-06	1328.6	366.96	1.9363e-06	4.7277e-06	425.13	139.96	120.94	42.244	3.6706e-06	52.944	0.00034874	0.00035613	9.9733e-05	1330.4	4.3436e-06	3.8331e-06	1338.8	370.5	4.1424e-06	4.1178e-06	427.7	143.15	123.86	43.016	4.0491e-06	53.95	225.183	5.608	4.606	-71.606	91.550	69.932	-71.543	-66.919	59.066	68.395	-67.448	-63.017	-62.482	-57.942	69.570	-58.735	-8191	255	
34523.168	1	1	0	0	0.1129	0.11801	0.14514	0.23715	0.1224	0.25881	0.35729	0.24153	0.15164	0.064627	0.13579	0.18165	0.24904	0.34216	0.10764	0.14744	-2.1667	-2.2917	-2.3917	-2.625	-2.2479	-2.5	-2.5917	-2.3458	-2.7167	-2.3187	-2.2021	-2.7625	-2.2354	-2.2729	-2.5604	-2.1042	224.368	-39.223	-32.515	263.775	46.947	147.587	204.375	-81.904	265.106	257.958	-80.724	-7.498	220.248	-67.156	92.835	244.354	0.00015354	0.00051968	0.00013482	1320.8	2.5446e-06	3.9584e-06	1330	365.89	2.086e-06	4.3518e-06	422.57	139.83	121.72	42.221	3.7347e-06	52.969	0.00035058	0.00036202	0.00010554	1327.7	4.1896e-06	3.9259e-06	1336.3	370.48	4.0022e-06	4.0018e-06	427.12	143.24	123.93	42.949	4.1867e-06	53.854	221.457	-9.496	8.113	-71.786	90.613	81.132	-71.661	-66.759	78.446	55.094	-67.430	-62.759	-62.551	-58.050	73.658	-58.549	-8191	255	
34523.266	1	1	0	0	0.083681	0.26588	0.18248	0.21233	0.15553	0.083656	0.34832	0.15837	0.1001	0.13445	0.19696	0.11058	0.054827	0.20012	0.34801	0.1787	-2.2542	-2.3875	-2.0167	-2.6479	-2.2708	-2.3688	-2.7104	-2.2271	-2.3542	-2.3333	-2.1896	-2.75	-2.3438	-2.5187	-2.6458	-2.1646	44.999	259.658	160.138	262.675	232.238	230.428	195.160	271.667	-49.353	158.924	193.854	-37.328	-35.715	259.528	54.599	195.225	0.0001604	0.00054694	0.0001603	1319.6	2.5984e-06	5.8814e-06	1328.8	365.91	1.6126e-06	4.6036e-06	424.64	140.13	121.45	42.299	2.9129e-06	52.94	0.00035261	0.00037329	0.00010241	1326.6	4.2239e-06	4.0813e-06	1336.6	370.21	4.0696e-06	3.9535e-06	427.57	143.13	123.96	43	4.223e-06	53.891	227.018	3.210	22.831	-71.473	63.916	66.802	-71.552	-66.982	64.434	69.329	-67.472	-62.815	-62.428	-57.999	66.526	-58.788	-8191	255	
34523.359	1	1	0	0	0.28126	0.28191	0.4807	0.37453	0.32016	0.066752	0.42504	0.33045	0.095326	0.15675	0.21651	0.16094	0.14571	0.16122	0.14584	0.25653	-1.8958	-2.4	-2.0229	-2.7438	-2.175	-2.3292	-2.6417	-2.2	-2.475	-2.4917	-2.1437	-2.65	-2.2562	-2.3021	-2.6583	-2.3125	236.330	154.872	-61.772	256.537	199.054	-50.145	162.052	243.216	-31.534	-36.937	210.053	245.923	213.341	243.145	194.679	-43.197	0.00015603	0.00053769	0.00012971	1320	3.1828e-06	4.8507e-06	1332	365.81	1.7597e-06	3.8427e-06	422.83	139.71	121.09	42.319	2.9354e-06	53.023	0.00033645	0.00037258	0.0001047	1328.3	4.1474e-06	3.9358e-06	1337.7	370.3	4.0176e-06	4.1041e-06	427.39	143.03	123.67	42.967	4.0304e-06	53.908	227.130	7.231	14.681	-71.758	85.138	60.836	-71.637	-66.970	67.021	47.149	-67.352	-63.078	-62.604	-57.910	67.867	-58.375	-8191	255	
34523.457	1	1	0	0	0.32567	0.041854	0.23485	0.057358	0.11498	0.098887	0.15495	0.15467	0.047624	0.20539	0.22274	0.2218	0.21898	0.26906	0.098108	0.20262	-2.0396	-2.5062	-1.9813	-2.8125	-2.3167	-2.2042	-2.9375	-2.3208	-2.3688	-2.5458	-2.3312	-2.7021	-2.2854	-2.3125	-2.5958	-2.3521	-14.609	182.411	-47.513	207.977	60.567	271.529	187.425	-68.274	105.195	33.037	150.914	247.219	203.880	226.274	221.688	193.014	0.00014532	0.00044148	0.00014037	1318.9	1.9407e-06	5.5466e-06	1323.1	365.42	2.0951e-06	4.6609e-06	422.27	139.47	121.43	42.155	3.1623e-06	53.016	0.00035461	0.00035761	0.00010091	1326.5	4.1173e-06	3.877e-06	1336.6	370.19	4.2109e-06	3.943e-06	426.52	143.18	123.85	42.962	3.9656e-06	53.891	220.291	9.337	17.431	-71.587	96.667	48.778	-71.411	-66.947	65.658	67.735	-67.346	-62.838	-62.684	-57.972	58.500	-58.819	-8191	255	
34523.555	1	1	0	0	0.12792	0.15501	0.17159	0.19397	0.24582	0.051691	0.1248	0.18896	0.12215	0.30889	0.14518	0.1396	0.042494	0.2097	0.10445	0.13392	-1.8312	-2.4271	-2.0083	-2.6083	-2.2417	-2.1208	-2.8833	-2.45	-2.2396	-2.4667	-2.2354	-2.5833	-2.3792	-2.3042	-2.4396	-2.4417	153.637	217.628	23.643	217.692	56.587	259.823	234.491	245.031	-83.771	136.507	221.302	207.346	144.332	267.809	-13.538	2.367	0.00014186	0.00048176	0.00011587	1322.6	3.1419e-06	4.1653e-06	1323.5	367.17	1.9408e-06	5.4853e-06	423.07	139.59	121.37	42.12	2.6575e-06	52.955	0.00033628	0.00036647	0.00010249	1328.2	4.2233e-06	4.0813e-06	1334	369.93	4.1539e-06	3.8897e-06	427.13	142.96	123.93	42.966	3.8508e-06	53.891	229.082	11.634	10.660	-71.622	99.845	73.078	-71.496	-66.987	46.765	70.294	-67.534	-62.921	-62.491	-57.784	75.247	-58.490	-8191	255	
34523.648	1	1	0	0	0.11238	0.27718	0.081162	0.20868	0.099135	0.095817	0.13989	0.3829	0.39675	0.1079	0.1919	0.14331	0.057556	0.21752	0.14598	0.20501	-1.8125	-2.3958	-2.1896	-2.5708	-2.3646	-2.1875	-2.7333	-2.4125	-2.1708	-2.6167	-2.2604	-2.4458	-2.6667	-2.2604	-2.4958	-2.5396	91.559	-83.066	145.701	235.570	100.063	186.135	124.447	219.505	-29.011	133.151	108.461	-76.588	57.725	-63.136	64.627	185.494	0.00015372	0.00059304	0.00014741	1326.1	3.2655e-06	4.4489e-06	1327.9	365.67	2.5742e-06	4.5803e-06	422.53	139.8	121.19	42.123	4.2883e-06	53.012	0.00034787	0.00037357	0.00010096	1328.2	4.3041e-06	4.0497e-06	1338.5	370.11	4.2125e-06	3.987e-06	427.09	143.17	123.99	42.989	4.1179e-06	53.819	218.097	-6.866	10.372	-71.718	90.083	66.671	-71.443	-67.131	75.944	71.635	-67.413	-62.849	-62.598	-57.887	89.240	-58.683	-8191	255	
#DATA ENDS
