BOXY.EXE: ISS Imagent and Oximeter Data Acquisition Program Version 0.80
Ascii Record File

#ACQ INFORMATION
2  Detector Channels 
16  External MUX Channels 
1  Auxiliary Channels 
5000  Waveform (CCF) Frequency (Hz)
1  Waveforms Skipped 
30  Waveforms Averaged 
1  Cycles Averaged 
16  Acquisitions per Waveform 
10.0806  Updata Rate (Hz) 

#FILE INFORMATION
TRUE -- External MUX Channel results are PARSED.
FALSE -- AC DC and Phase are NOT grouped.
TRUE -- Companion Program Settings File CREATED.
FALSE -- AC data not excluded
FALSE -- DC data not excluded
FALSE -- Phase data not excluded
FALSE -- Auxillary Chn. data not excluded
Tab delimiters

#CALIBRATION STATE
TRUE -- Waveform Calibration Values APPLIED.


#AUX CALIBRATION VALUES
Val Type	aux-1	

Term	1.0000e+00	
Factor	0.0000e+00	


#WF CALIBRATION VALUES
A = Detector Channel
Val Type	A-AC1	A-AC2	A-AC3	A-AC4	A-AC5	A-AC6	A-AC7	A-AC8	A-AC9	A-AC10	A-AC11	A-AC12	A-AC13	A-AC14	A-AC15	A-AC16	A-DC1	A-DC2	A-DC3	A-DC4	A-DC5	A-DC6	A-DC7	A-DC8	A-DC9	A-DC10	A-DC11	A-DC12	A-DC13	A-DC14	A-DC15	A-DC16	A-Ph1	A-Ph2	A-Ph3	A-Ph4	A-Ph5	A-Ph6	A-Ph7	A-Ph8	A-Ph9	A-Ph10	A-Ph11	A-Ph12	A-Ph13	A-Ph14	A-Ph15	A-Ph16	

Term	0.00000e+00	0.00000e+00	0.00000e+00	0.00000e+00	0.00000e+00	0.00000e+00	0.00000e+00	0.00000e+00	0.00000e+00	0.00000e+00	0.00000e+00	0.00000e+00	0.00000e+00	0.00000e+00	0.00000e+00	0.00000e+00	0.00000e+00	0.00000e+00	0.00000e+00	0.00000e+00	0.00000e+00	0.00000e+00	0.00000e+00	0.00000e+00	0.00000e+00	0.00000e+00	0.00000e+00	0.00000e+00	0.00000e+00	0.00000e+00	0.00000e+00	0.00000e+00	0.00000e+00	0.00000e+00	0.00000e+00	0.00000e+00	0.00000e+00	0.00000e+00	0.00000e+00	0.00000e+00	0.00000e+00	0.00000e+00	0.00000e+00	0.00000e+00	0.00000e+00	0.00000e+00	0.00000e+00	0.00000e+00	
Factor	1.00000e+00	1.00000e+00	1.00000e+00	1.00000e+00	1.00000e+00	1.00000e+00	1.00000e+00	1.00000e+00	1.00000e+00	1.00000e+00	1.00000e+00	1.00000e+00	1.00000e+00	1.00000e+00	1.00000e+00	1.00000e+00	1.00000e+00	1.00000e+00	1.00000e+00	1.00000e+00	1.00000e+00	1.00000e+00	1.00000e+00	1.00000e+00	1.00000e+00	1.00000e+00	1.00000e+00	1.00000e+00	1.00000e+00	1.00000e+00	1.00000e+00	1.00000e+00	X	X	X	X	X	X	X	X	X	X	X	X	X	X	X	X	

B = Detector Channel
Val Type	B-AC1	B-AC2	B-AC3	B-AC4	B-AC5	B-AC6	B-AC7	B-AC8	B-AC9	B-AC10	B-AC11	B-AC12	B-AC13	B-AC14	B-AC15	B-AC16	B-DC1	B-DC2	B-DC3	B-DC4	B-DC5	B-DC6	B-DC7	B-DC8	B-DC9	B-DC10	B-DC11	B-DC12	B-DC13	B-DC14	B-DC15	B-DC16	B-Ph1	B-Ph2	B-Ph3	B-Ph4	B-Ph5	B-Ph6	B-Ph7	B-Ph8	B-Ph9	B-Ph10	B-Ph11	B-Ph12	B-Ph13	B-Ph14	B-Ph15	B-Ph16	

Term	0.00000e+00	0.00000e+00	0.00000e+00	0.00000e+00	0.00000e+00	0.00000e+00	0.00000e+00	0.00000e+00	0.00000e+00	0.00000e+00	0.00000e+00	0.00000e+00	0.00000e+00	0.00000e+00	0.00000e+00	0.00000e+00	0.00000e+00	0.00000e+00	0.00000e+00	0.00000e+00	0.00000e+00	0.00000e+00	0.00000e+00	0.00000e+00	0.00000e+00	0.00000e+00	0.00000e+00	0.00000e+00	0.00000e+00	0.00000e+00	0.00000e+00	0.00000e+00	-6.55746e+01	-1.32460e+02	-1.24044e+02	-1.81644e+02	-4.96078e+01	-6.09442e+01	-1.57078e+02	-1.62015e+02	-5.27148e+01	-6.58019e+01	-1.71967e+02	-1.70181e+02	-1.79589e+02	-1.77401e+02	-5.55509e+01	-1.50229e+02	
Factor	1.83242e-05	1.60084e-04	4.40432e-05	1.55119e-01	1.49884e-06	1.72698e-06	1.71925e-01	5.85861e-02	1.36267e-06	1.76728e-06	8.00050e-02	2.74382e-02	3.05121e-02	9.14989e-03	1.57629e-06	1.28563e-02	1.07384e-05	1.73561e-05	4.82899e-06	8.05253e-02	1.73972e-07	1.92695e-07	8.40553e-02	3.05412e-02	1.75866e-07	1.93004e-07	4.05408e-02	1.39842e-02	1.61609e-02	4.81515e-03	1.80523e-07	6.55076e-03	X	X	X	X	X	X	X	X	X	X	X	X	X	X	X	X	



#DISTANCE SETTINGS
A = Detector Channel
A-1	A-2	A-3	A-4	A-5	A-6	A-7	A-8	A-9	A-10	A-11	A-12	A-13	A-14	A-15	A-16	

2.5000e+00	3.0000e+00	2.5000e+00	3.0000e+00	2.0000e+00	3.0000e+00	1.5000e+00	3.0000e+00	3.0000e+00	3.0000e+00	3.0000e+00	3.0000e+00	3.0000e+00	3.0000e+00	1.5000e+00	3.0000e+00	

B = Detector Channel
B-1	B-2	B-3	B-4	B-5	B-6	B-7	B-8	B-9	B-10	B-11	B-12	B-13	B-14	B-15	B-16	

1.0000e+01	1.0000e+01	1.0000e+01	1.4400e+00	1.0000e+01	1.0000e+01	1.5100e+00	1.9400e+00	1.0000e+01	1.0000e+01	1.9900e+00	2.4900e+00	2.4100e+00	2.9000e+00	1.0000e+01	2.9800e+00	




#DATA BEGINS
time	group	step	mark	flag	A-AC1	A-AC2	A-AC3	A-AC4	A-AC5	A-AC6	A-AC7	A-AC8	A-AC9	A-AC10	A-AC11	A-AC12	A-AC13	A-AC14	A-AC15	A-AC16	A-DC1	A-DC2	A-DC3	A-DC4	A-DC5	A-DC6	A-DC7	A-DC8	A-DC9	A-DC10	A-DC11	A-DC12	A-DC13	A-DC14	A-DC15	A-DC16	A-Ph1	A-Ph2	A-Ph3	A-Ph4	A-Ph5	A-Ph6	A-Ph7	A-Ph8	A-Ph9	A-Ph10	A-Ph11	A-Ph12	A-Ph13	A-Ph14	A-Ph15	A-Ph16	B-AC1	B-AC2	B-AC3	B-AC4	B-AC5	B-AC6	B-AC7	B-AC8	B-AC9	B-AC10	B-AC11	B-AC12	B-AC13	B-AC14	B-AC15	B-AC16	B-DC1	B-DC2	B-DC3	B-DC4	B-DC5	B-DC6	B-DC7	B-DC8	B-DC9	B-DC10	B-DC11	B-DC12	B-DC13	B-DC14	B-DC15	B-DC16	B-Ph1	B-Ph2	B-Ph3	B-Ph4	B-Ph5	B-Ph6	B-Ph7	B-Ph8	B-Ph9	B-Ph10	B-Ph11	B-Ph12	B-Ph13	B-Ph14	B-Ph15	B-Ph16	aux-1	digaux	

16711.439	1	1	0	256	0.30789	0.068114	0.15744	0.062596	0.029782	0.084007	0.16217	0.2429	0.075302	0.11452	0.073777	0.09172	0.21779	0.10404	0.38462	0.13943	-2.1188	-2.5271	-2.3917	-2.6875	-2.3542	-2.4292	-2.6146	-2.3604	-2.6333	-2.675	-2.1708	-2.6146	-2.4458	-2.4167	-2.6958	-2.525	269.059	427.368	497.277	243.466	246.976	316.578	387.874	450.609	400.822	394.624	475.785	349.079	417.994	394.351	445.581	401.810	0.00016608	0.00044744	7.8696e-05	457.77	2.1867e-06	2.7838e-06	521.11	108.69	1.9113e-06	2.2813e-06	151.77	48.625	29.183	11.04	3.5155e-06	23.3	0.0011148	0.0016296	0.0004557	454.29	1.6631e-05	1.8336e-05	516.91	109.81	1.7419e-05	1.8563e-05	152.67	49.252	30.178	11.367	1.7655e-05	23.855	262.462	470.196	318.042	180.637	384.734	350.949	180.591	186.116	351.293	291.196	185.169	190.175	190.511	196.053	318.862	193.111	-8191	255	
16711.535	1	1	0	0	0.23818	0.18135	0.097396	0.1152	0.10113	0.059015	0.043198	0.15728	0.14651	0.21639	0.054424	0.050261	0.29576	0.36049	0.19799	0.1479	-2.1208	-2.5625	-2.1312	-2.7521	-2.6312	-2.3854	-2.7646	-2.4458	-2.5208	-2.6813	-2.2	-2.5646	-2.3812	-2.3417	-2.6542	-2.3729	462.910	306.377	338.109	469.953	180.537	374.597	492.425	430.435	294.340	502.188	303.897	344.523	378.790	291.072	518.906	394.221	0.00023591	0.00051341	0.00012078	453.91	2.1722e-06	2.704e-06	524.14	107.52	4.6867e-06	2.8872e-06	151.76	48.855	29.278	11.119	3.0834e-06	23.649	0.001159	0.0017014	0.00046356	450.19	1.6733e-05	1.8553e-05	521.07	108.81	1.7412e-05	1.84e-05	153.56	49.468	30.354	11.369	1.7554e-05	24.032	250.263	319.540	268.682	180.714	316.064	303.424	180.491	185.508	376.489	477.810	184.418	189.735	190.583	196.272	457.386	193.757	-8191	255	
16711.631	1	1	0	0	0.19375	0.27362	0.33112	0.12501	0.1322	0.29069	0.12436	0.12994	0.062588	0.41484	0.2373	0.15309	0.024505	0.21915	0.094443	0.047063	-1.9292	-2.5771	-2.0479	-2.6042	-2.625	-2.3104	-2.8104	-2.3812	-2.4229	-2.6417	-2.1896	-2.5958	-2.4208	-2.4813	-2.6771	-2.5146	297.768	475.429	211.014	509.685	526.202	224.703	390.361	413.269	181.572	199.610	500.697	432.996	268.318	402.317	314.445	392.878	0.00023495	0.00034684	8.3523e-05	454.73	2.631e-06	3.029e-06	530.43	110.11	1.7377e-06	1.9728e-06	154.82	49.158	29.487	11.141	3.7425e-06	23.62	0.0011364	0.0016687	0.00047139	454.68	1.6831e-05	1.8408e-05	527.45	110.5	1.7202e-05	1.8595e-05	155.81	50.005	30.59	11.509	1.7388e-05	24.182	260.733	268.471	316.047	181.173	338.543	174.884	180.649	185.879	257.303	284.305	184.612	189.849	191.089	196.112	325.484	193.027	-8191	255	
16711.729	1	1	0	0	0.17235	0.10665	0.042082	0.30776	0.31096	0.13164	0.072813	0.17894	0.11968	0.2107	0.19646	0.36505	0.10525	0.027122	0.19364	0.076616	-1.9729	-2.7604	-2.1083	-2.6667	-2.45	-2.1813	-2.6625	-2.3688	-2.2167	-2.6688	-2.2667	-2.4875	-2.6646	-2.3667	-2.6833	-2.4542	506.993	375.868	240.391	515.570	395.795	407.691	462.136	384.121	481.349	208.190	493.274	207.594	229.527	495.806	269.440	382.184	0.00023563	0.00034884	5.6729e-05	458.59	3.1752e-06	3.9641e-06	525.93	109.58	8.506e-07	1.08e-06	154.21	48.941	29.697	11.177	4.9024e-06	23.731	0.0011482	0.0016766	0.00046344	455.06	1.7091e-05	1.8399e-05	524.82	110.4	1.7338e-05	1.8747e-05	154.91	49.901	30.721	11.522	1.7604e-05	24.172	260.389	373.099	197.833	180.825	351.259	433.270	180.439	185.712	379.683	249.249	184.518	190.140	191.281	195.507	333.855	193.375	-8191	255	
16711.822	1	1	0	0	0.026893	0.39554	0.20077	0.19666	0.1556	0.1559	0.12827	0.14012	0.39076	0.038941	0.16158	0.27413	0.2271	0.095631	0.16877	0.28387	-1.9646	-2.5875	-2.1729	-2.4833	-2.5875	-2.2313	-2.4875	-2.4729	-2.3896	-2.6354	-2.2146	-2.5417	-2.6937	-2.0604	-2.65	-2.5958	410.688	260.395	511.640	377.023	216.279	358.992	263.480	518.744	429.842	400.458	210.008	174.252	444.044	201.686	450.478	468.930	0.00027648	0.00046201	0.00013531	456.85	1.2289e-06	3.2581e-06	531.24	109.69	1.801e-06	1.228e-06	152.5	48.94	29.78	11.028	2.0938e-06	23.385	0.0011506	0.0016888	0.00047081	453.82	1.6784e-05	1.8827e-05	525.34	110.3	1.694e-05	1.8265e-05	154.86	49.661	30.625	11.364	1.7933e-05	23.858	257.003	219.976	284.835	180.963	271.720	298.502	180.097	186.053	291.114	357.339	184.944	189.876	190.533	196.233	353.746	193.212	-8191	255	
16711.920	1	1	0	0	0.14603	0.1577	0.13927	0.21052	0.22601	0.052756	0.1187	0.35786	0.11139	0.093766	0.1754	0.16472	0.25978	0.19499	0.32537	0.24533	-1.7896	-2.5354	-2.5125	-2.4167	-2.7271	-2.2229	-2.3917	-2.5271	-2.4854	-2.6104	-2.6354	-2.3417	-2.7083	-2.2958	-2.5292	-2.5958	441.461	431.764	503.389	484.430	479.410	368.898	182.975	448.094	309.641	522.936	226.107	490.557	493.318	389.336	424.005	277.781	0.00022405	0.00048551	0.00010877	459.4	2.5561e-06	4.4321e-06	528.28	108.9	1.5981e-06	6.1729e-06	153.08	48.602	29.335	10.967	4.4576e-06	23.505	0.0011125	0.0016723	0.00047961	455.81	1.6879e-05	1.8875e-05	525.03	109.85	1.7796e-05	1.9148e-05	153.81	49.486	30.342	11.346	1.7724e-05	23.949	266.740	307.280	273.871	181.076	351.104	271.777	180.612	185.872	294.585	330.080	184.629	189.803	191.028	195.799	316.933	193.261	-8191	255	
16712.016	1	1	0	0	0.15598	0.02334	0.062057	0.26912	0.15313	0.08146	0.1597	0.086021	0.099296	0.23011	0.31725	0.16024	0.20327	0.22713	0.15894	0.26901	-1.7563	-2.6521	-2.3792	-2.4521	-2.7542	-2.3312	-2.7167	-2.5479	-2.3375	-2.7292	-2.3583	-2.5292	-2.75	-2.1375	-2.5667	-2.6188	333.671	512.271	324.878	196.487	268.537	333.768	477.432	435.884	406.562	239.399	456.328	431.436	344.832	183.514	382.221	488.762	0.00022764	0.00061911	5.5036e-05	455.44	2.796e-06	1.3876e-06	531.08	108.04	2.5385e-06	6.4907e-06	153.5	48.785	29.493	11.083	3.834e-06	23.786	0.0011712	0.0017181	0.00047072	452.88	1.755e-05	1.9206e-05	527.38	109.86	1.7448e-05	1.9349e-05	155.05	49.8	30.5	11.438	1.8878e-05	24.276	258.210	269.859	279.526	180.635	272.872	392.204	180.463	185.424	366.224	261.869	184.615	190.293	191.107	195.938	220.065	193.336	-8191	255	
16712.137	1	1	0	0	0.12667	0.11912	0.20089	0.31345	0.1484	0.1807	0.41502	0.22193	0.22074	0.19211	0.20361	0.059633	0.22189	0.20148	0.053236	0.12936	-1.975	-2.6833	-2.3646	-2.2812	-2.575	-2.4167	-2.625	-2.725	-2.1542	-2.5896	-2.4958	-2.25	-2.5771	-2.3333	-2.575	-2.6771	195.547	520.824	453.119	510.802	285.868	516.481	496.588	205.823	386.156	471.463	237.783	343.634	274.804	454.923	246.579	487.407	0.00023714	0.0003338	0.00023677	456.11	3.3536e-06	4.1003e-06	533.3	109.74	2.3773e-06	2.3801e-06	153.72	49.588	29.687	11.179	2.962e-06	24.019	0.0011619	0.0017252	0.00047649	453.44	1.7308e-05	1.9379e-05	528.83	110.25	1.7811e-05	1.9547e-05	155.8	50.267	30.691	11.505	1.8204e-05	24.419	248.803	209.698	198.025	181.034	383.429	385.632	180.325	185.320	330.952	269.202	184.553	189.845	190.798	195.879	291.548	193.769	-8191	255	
16712.232	1	1	0	0	0.15409	0.16672	0.028311	0.22347	0.26343	0.18703	0.10706	0.11661	0.25388	0.2318	0.10057	0.15888	0.099975	0.18755	0.1619	0.29817	-1.9062	-2.6396	-2.5167	-2.3792	-2.6917	-2.2146	-2.5625	-2.6458	-2.3	-2.6896	-2.5938	-2.3229	-2.7479	-2.3625	-2.3208	-2.8125	335.491	222.991	396.748	519.138	224.709	474.709	425.041	462.640	411.490	407.934	247.003	335.480	501.805	284.909	418.666	480.924	0.00024647	0.00051264	8.1351e-05	457.03	1.9902e-06	4.1038e-06	532.99	109.24	6.1533e-06	6.1853e-06	155.03	49.804	29.769	11.14	4.2141e-06	23.659	0.0011685	0.0017104	0.00047922	455.17	1.775e-05	1.903e-05	527.64	110.13	1.7674e-05	1.9575e-05	155.32	50.285	30.699	11.517	1.8044e-05	24.15	254.883	238.673	359.171	180.713	221.939	328.338	180.291	186.210	302.904	302.637	184.270	190.070	190.602	195.889	277.077	193.268	-8191	255	
16712.328	1	1	0	0	0.099448	0.19495	0.18662	0.12114	0.20712	0.152	0.33048	0.060961	0.3633	0.21459	0.082765	0.25944	0.20633	0.22443	0.25309	0.16022	-2.0896	-2.5458	-2.4646	-2.3792	-2.6479	-2.4938	-2.4313	-2.8083	-2.1625	-2.4938	-2.4979	-2.2542	-2.6813	-2.5792	-2.5833	-2.9062	259.959	215.136	309.352	243.071	213.819	368.245	403.051	499.017	369.559	202.655	234.221	190.295	250.327	493.188	365.193	483.657	0.0002481	0.00042401	4.8569e-05	460.02	3.9233e-06	1.5747e-06	532.6	109.18	4.4112e-06	8.1831e-07	155.05	48.63	29.279	10.959	3.2571e-06	23.491	0.001148	0.0017314	0.00048411	456	1.7465e-05	1.8932e-05	529.32	109.93	1.7724e-05	1.9397e-05	155.28	49.74	30.491	11.359	1.8118e-05	24.028	265.978	519.932	241.139	181.218	277.460	469.607	180.762	185.503	316.280	474.243	184.502	189.825	190.270	196.344	354.844	193.183	-8191	255	
16712.400	1	1	0	0	0.16059	0.3739	0.12824	0.12071	0.098279	0.17413	0.072968	0.20097	0.26759	0.27094	0.14782	0.15255	0.29945	0.1889	0.13435	0.23636	-1.8146	-2.5667	-2.7938	-2.3042	-2.5229	-2.5125	-2.3229	-2.7188	-2.3646	-2.5187	-2.7333	-2.1188	-2.6437	-2.5229	-2.3937	-2.7896	304.896	478.015	186.221	473.141	232.804	509.523	408.441	420.414	428.480	300.667	524.774	269.256	417.816	228.398	514.990	186.460	0.00020567	0.0005274	2.0025e-05	458.55	4.1555e-06	4.7276e-06	532.78	109.73	5.1703e-06	1.0394e-06	155	49.541	29.368	11.087	5.6038e-06	23.991	0.0011709	0.0017203	0.00047998	456.12	1.7516e-05	1.9196e-05	532.16	110.41	1.7241e-05	1.9127e-05	156.28	50.369	30.678	11.437	1.8141e-05	24.253	252.435	237.539	259.168	180.477	325.953	309.052	180.423	185.843	345.547	514.573	184.179	189.755	191.742	195.606	321.162	192.725	-8191	255	
16712.521	1	1	0	0	0.088883	0.06271	0.05021	0.064895	0.1669	0.20748	0.1034	0.082059	0.12981	0.2929	0.068411	0.12284	0.19688	0.1582	0.13477	0.072005	-2.0938	-2.45	-2.6896	-2.275	-2.6875	-2.5542	-2.3292	-2.6729	-2.45	-2.3417	-2.7125	-2.3979	-2.55	-2.6333	-2.2354	-2.5729	465.088	361.559	288.937	182.424	504.690	443.285	318.487	199.513	368.729	514.310	390.260	412.975	364.965	520.390	246.523	321.846	0.00026642	0.0002968	0.00017407	462.72	1.9629e-06	3.0773e-06	539.36	110.24	2.5203e-06	6.5482e-07	156.14	50.233	29.798	11.261	2.6379e-06	24.209	0.0011573	0.0016848	0.00048442	458.49	1.7215e-05	1.8696e-05	534.59	110.8	1.76e-05	1.949e-05	156.77	50.695	30.816	11.552	1.8035e-05	24.587	260.357	264.301	363.952	180.915	309.857	268.980	180.452	186.064	254.389	332.774	184.566	189.837	190.661	195.732	401.319	193.591	-8191	255	
16712.617	1	1	0	0	0.23715	0.14788	0.14021	0.26034	0.06768	0.13593	0.19788	0.21372	0.076808	0.19069	0.25642	0.22211	0.049218	0.067683	0.17156	0.28206	-1.95	-2.1813	-2.5521	-2.225	-2.4188	-2.3563	-2.2042	-2.5062	-2.4375	-2.3812	-2.7583	-2.2458	-2.3125	-2.6	-2.3417	-2.6875	272.587	360.271	236.450	469.681	519.893	492.240	375.103	279.318	308.316	444.141	477.199	380.474	346.156	470.295	455.041	424.344	0.00024358	0.0001217	2.5037e-05	456.51	3.0693e-06	2.0811e-06	535.12	109.79	4.3588e-06	3.7543e-06	154.33	50.076	29.828	11.144	5.405e-06	23.88	0.0011809	0.0017147	0.00047498	454.71	1.8214e-05	1.9487e-05	532.57	110.29	1.7761e-05	1.9192e-05	156.05	50.491	30.761	11.58	1.8168e-05	24.375	258.994	358.862	299.043	180.959	376.038	192.906	180.491	185.983	303.978	348.817	184.451	189.581	190.117	195.918	270.253	193.350	-8191	255	
16712.711	1	1	0	0	0.27207	0.043667	0.054772	0.22562	0.12384	0.20281	0.30977	0.01879	0.21088	0.23247	0.23404	0.07252	0.25018	0.17388	0.1342	0.23239	-2.1208	-2.2812	-2.7604	-2.275	-2.4625	-2.725	-2.1833	-2.5208	-2.4521	-2.3063	-2.6229	-2.2812	-2.5292	-2.65	-1.9937	-2.5687	441.365	299.735	351.893	494.790	394.086	293.720	416.873	308.695	223.458	221.140	217.590	525.936	345.589	173.664	194.296	372.512	0.0002332	0.00026625	0.00014187	456.27	3.9935e-06	4.9287e-06	533.87	109.85	2.3929e-06	4.5754e-06	155.35	49.546	29.143	11.107	3.9082e-06	24.013	0.001168	0.0017222	0.0004798	454.64	1.7873e-05	1.921e-05	531	110.25	1.7691e-05	1.9262e-05	156	50.142	30.495	11.474	1.78e-05	24.261	257.015	229.234	245.088	181.072	289.396	350.540	180.680	185.839	374.082	328.128	184.808	189.252	191.166	195.365	377.601	193.600	-8191	255	
16712.809	1	1	0	0	0.13695	0.10002	0.21709	0.25806	0.15276	0.18043	0.27603	0.13503	0.19709	0.24027	0.07943	0.10133	0.030051	0.3257	0.069761	0.037855	-2.225	-2.1479	-2.5625	-2.3312	-2.2938	-2.7333	-2.3187	-2.3854	-2.6583	-2.3042	-2.6042	-2.3104	-2.35	-2.6646	-2.2979	-2.5458	346.521	409.107	329.143	180.104	276.715	413.374	408.709	366.293	385.392	367.359	294.147	292.617	350.301	177.308	395.867	285.904	0.00027046	0.00032402	2.8887e-05	458.63	2.8093e-06	3.6684e-06	537.86	109.44	3.8082e-06	3.9536e-06	155.94	49.668	29.521	11.07	4.4124e-06	24.028	0.0011561	0.0017241	0.00046836	454.91	1.7693e-05	1.8792e-05	533.31	110.29	1.7556e-05	1.9175e-05	156.83	50.393	30.662	11.491	1.8073e-05	24.369	247.987	225.169	228.415	180.595	349.602	412.457	180.273	186.047	352.274	455.734	184.468	189.855	190.696	195.924	328.660	193.228	-8191	255	
16712.928	1	1	0	0	0.1073	0.062351	0.36503	0.11431	0.18059	0.18362	0.19745	0.17897	0.29955	0.20107	0.14821	0.0050433	0.014874	0.17494	0.13401	0.083567	-2.0563	-2.1875	-2.5333	-2.4417	-2.2062	-2.5687	-2.4125	-2.4479	-2.5104	-2.2729	-2.575	-2.5167	-2.1688	-2.6479	-2.3917	-2.375	365.866	206.118	446.467	338.380	460.602	372.704	481.235	441.114	261.568	450.531	368.569	383.312	218.985	337.318	401.629	405.129	0.00022652	0.00055674	0.00010108	460.1	2.4034e-06	4.1534e-06	540.43	109.14	2.3454e-06	4.5551e-06	156.68	50.096	29.924	11.319	4.6771e-06	24.218	0.001166	0.0016985	0.00047584	456.93	1.7746e-05	1.8992e-05	535.92	110.49	1.7305e-05	1.9073e-05	157.87	50.998	30.894	11.634	1.7705e-05	24.673	266.240	271.990	263.681	180.800	388.379	281.684	180.183	185.612	254.594	330.271	184.553	190.065	191.021	196.202	399.297	193.206	-8191	255	
16713.000	1	1	0	0	0.27629	0.079208	0.12877	0.18891	0.072209	0.006163	0.11403	0.28636	0.23155	0.11317	0.24245	0.03283	0.20073	0.28551	0.20894	0.10603	-2.1937	-2.2979	-2.4417	-2.3792	-2.3354	-2.7021	-2.4125	-2.3167	-2.7625	-2.2042	-2.5146	-2.4292	-2.2542	-2.5104	-2.5083	-2.3125	331.650	379.206	523.023	387.513	260.294	353.726	475.155	196.472	426.607	515.278	387.178	206.156	515.849	256.134	510.698	358.599	0.00019721	0.00014971	0.00017585	460.44	2.517e-06	2.5027e-06	543.35	110.96	3.2616e-06	2.5274e-06	157.59	50.309	30.259	11.276	1.6237e-06	24.11	0.0011519	0.0016964	0.00046675	457.31	1.7216e-05	1.8884e-05	538.24	111.95	1.6993e-05	1.8539e-05	158.59	51.093	31.298	11.633	1.6998e-05	24.451	266.686	263.648	288.236	180.666	346.670	321.576	180.666	186.052	344.854	401.170	184.979	189.426	190.595	195.826	234.405	192.942	-8191	255	
16713.121	1	1	0	0	0.067536	0.077333	0.18126	0.21329	0.23584	0.067732	0.070457	0.049882	0.12336	0.11672	0.12384	0.10397	0.14192	0.1321	0.14523	0.25218	-2.1542	-2.2458	-2.5958	-2.4604	-2.2354	-2.8021	-2.5146	-2.2875	-2.7438	-2.2729	-2.5312	-2.6021	-2.3375	-2.6542	-2.4708	-2.4167	326.481	250.381	297.587	451.178	356.290	363.115	402.913	460.930	379.705	392.951	501.413	403.785	266.807	362.931	176.057	450.886	0.00026552	0.000242	0.00012134	465.99	6.7887e-07	5.32e-06	539.42	110.56	3.2325e-06	2.6976e-06	157.83	50.35	29.992	11.138	2.7296e-06	23.872	0.0011366	0.0016293	0.00045583	460.75	1.6217e-05	1.7825e-05	536.14	112.07	1.6529e-05	1.8251e-05	158.33	50.763	31.076	11.5	1.702e-05	24.175	261.359	319.184	321.490	180.721	509.427	527.995	180.227	186.078	312.346	257.173	184.529	189.683	190.907	195.429	342.905	193.202	-8191	255	
16713.217	1	1	0	0	0.19291	0.21144	0.041868	0.41669	0.060942	0.18592	0.14545	0.21384	0.15073	0.26958	0.21462	0.15117	0.23151	0.15173	0.40015	0.19244	-2.3604	-2.3354	-2.4896	-2.5354	-2.3354	-2.5333	-2.4833	-2.4313	-2.4458	-2.4	-2.4729	-2.6833	-2.225	-2.5417	-2.5125	-2.3771	268.267	265.141	392.819	401.973	317.362	273.463	505.278	206.317	507.138	173.321	480.336	233.320	342.486	464.238	458.674	294.452	0.00021497	0.00038875	0.00013808	459.97	3.2787e-06	7.8544e-06	533.9	110.55	2.8601e-06	5.762e-07	156.63	49.522	29.975	11.079	1.3651e-06	23.417	0.0010959	0.0016337	0.00045074	458.23	1.661e-05	1.8446e-05	532.07	111.42	1.6585e-05	1.812e-05	157.1	50.265	30.885	11.407	1.6657e-05	23.917	252.523	188.763	210.669	180.669	363.455	310.068	180.390	185.967	296.095	235.238	185.069	189.421	190.264	195.105	341.193	192.865	-8191	255	
16713.312	1	1	0	0	0.13149	0.218	0.26531	0.15939	0.26266	0.21571	0.33193	0.046551	0.15057	0.12239	0.20359	0.13987	0.098871	0.12211	0.12664	0.35602	-2.0125	-2.3375	-2.5729	-2.5417	-2.3125	-2.5917	-2.5042	-2.3458	-2.85	-2.4188	-2.5854	-2.6521	-2.2479	-2.6875	-2.7083	-2.2917	526.626	405.366	479.415	497.085	424.158	248.971	439.804	203.254	461.566	494.014	219.884	393.781	397.689	480.803	314.960	222.136	0.00019571	0.00019596	3.8048e-05	463.61	2.5595e-06	2.913e-06	536.08	110.21	2.411e-06	5.2847e-06	156.05	49.597	29.972	11.189	4.9986e-06	23.563	0.0011028	0.0016302	0.00045237	458.87	1.6489e-05	1.7819e-05	531.29	111.11	1.6219e-05	1.7806e-05	156.93	50.362	31.011	11.475	1.6558e-05	24.013	261.111	421.524	234.685	180.465	284.694	289.464	180.431	185.887	367.441	327.207	184.712	189.886	190.238	195.412	339.863	193.649	-8191	255	
16713.408	1	1	0	0	0.080625	0.21704	0.11455	0.14588	0.18939	0.046235	0.18543	0.18283	0.15241	0.029849	0.12977	0.077249	0.22218	0.23585	0.1392	0.14077	-2.1646	-2.7167	-2.2812	-2.7208	-2.3646	-2.5354	-2.7521	-2.3521	-2.65	-2.4167	-2.2208	-2.8396	-2.225	-2.4458	-2.6937	-2.3396	298.842	337.741	389.231	464.682	427.855	512.705	462.578	448.027	524.011	325.092	212.723	399.597	267.798	499.493	181.631	420.276	0.00022962	0.00045725	8.6445e-05	463.62	2.7438e-06	2.2954e-06	538.99	110.98	5.7223e-06	2.6192e-06	156.02	49.488	29.831	11.058	1.7677e-06	23.484	0.001098	0.0016109	0.00045089	460.38	1.6228e-05	1.8306e-05	533.21	111.52	1.6201e-05	1.7416e-05	156.73	50.285	30.791	11.322	1.6815e-05	23.769	263.564	209.225	281.496	180.710	338.285	354.215	180.314	185.852	323.897	285.201	184.860	189.453	190.651	195.509	338.449	193.293	-8191	255	
16713.529	1	1	0	0	0.087895	0.26439	0.21143	0.079755	0.25445	0.26652	0.45113	0.27607	0.10644	0.053269	0.2337	0.053024	0.24439	0.41568	0.14525	0.20394	-2.1875	-2.3	-2.3208	-2.7042	-2.35	-2.4458	-2.5938	-2.2542	-2.4083	-2.6312	-2.2875	-2.7542	-2.1208	-2.3896	-2.5896	-2.2021	458.630	334.507	169.174	374.220	276.785	264.059	182.469	425.739	485.103	385.561	391.611	281.703	502.749	434.041	451.954	230.187	0.00024001	0.00022379	3.2135e-05	457.57	1.4878e-06	1.2263e-06	531	108.38	3.5189e-06	4.5738e-06	153.81	48.671	29.475	10.793	9.9327e-07	23.308	0.0011081	0.0016279	0.00045187	453.34	1.6357e-05	1.8031e-05	525.31	109.43	1.6567e-05	1.7846e-05	154.05	49.608	30.554	11.192	1.6933e-05	23.543	267.580	273.002	223.600	180.248	361.711	494.353	179.990	186.025	318.315	346.904	184.380	189.198	190.242	195.962	405.371	193.118	-8191	255	
16713.623	1	1	0	0	0.10317	0.11067	0.18015	0.13998	0.17478	0.16927	0.042197	0.084956	0.18113	0.39622	0.066295	0.18261	0.12731	0.1179	0.13226	0.13967	-2.0667	-2.5438	-2.0646	-2.7104	-2.3979	-2.3625	-2.6271	-2.0521	-2.525	-2.5187	-2.3167	-2.6708	-2.3937	-2.4417	-2.5771	-2.3708	440.247	336.872	179.044	186.458	281.146	385.165	516.475	513.858	482.255	234.874	502.395	195.024	302.480	284.645	175.730	456.223	0.00020132	0.00036214	4.2945e-05	454.82	3.6081e-06	4.2207e-06	526.98	107.24	2.4808e-06	2.9253e-06	153.59	48.797	29.474	10.848	6.1227e-07	23.321	0.0010926	0.0016092	0.00045046	454.19	1.6219e-05	1.8426e-05	524.71	109	1.6723e-05	1.7942e-05	154.21	49.455	30.386	11.24	1.6878e-05	23.678	250.600	223.824	456.523	180.719	305.692	331.347	180.168	185.508	363.799	242.619	184.354	189.882	190.845	195.435	416.878	193.331	-8191	255	
16713.697	1	1	0	0	0.18406	0.19509	0.13819	0.16954	0.26169	0.16415	0.36551	0.11136	0.21878	0.10888	0.10281	0.18121	0.22848	0.12862	0.14969	0.33751	-2.2229	-2.6104	-2.1542	-2.5854	-2.3479	-2.3937	-2.7708	-2.3375	-2.4167	-2.5042	-2.2042	-2.6625	-2.3542	-2.2854	-2.6729	-2.2417	181.692	383.281	212.145	183.809	451.991	182.286	422.273	509.532	437.149	275.981	202.418	237.364	264.664	515.869	477.790	425.539	0.00019405	0.00021785	0.00010842	456.25	1.4845e-06	3.2656e-06	526.87	108.41	1.5606e-06	2.4274e-06	152.7	49.149	29.199	10.84	4.4902e-06	23.429	0.0011057	0.0016269	0.0004443	453.23	1.6232e-05	1.7634e-05	522.94	109.18	1.6605e-05	1.781e-05	154.17	49.934	30.302	11.22	1.6929e-05	23.782	262.700	206.896	308.539	180.700	255.557	300.499	180.132	185.576	294.168	316.470	184.273	189.328	190.212	195.564	397.549	192.858	-8191	255	
16713.816	1	1	0	0	0.25186	0.23576	0.11513	0.10711	0.10911	0.10184	0.10401	0.18106	0.11585	0.24811	0.20785	0.29059	0.15643	0.038016	0.16827	0.15908	-1.8687	-2.5771	-2.0563	-2.4354	-2.5167	-2.3646	-2.65	-2.5187	-2.2604	-2.6875	-2.3167	-2.6708	-2.375	-2.1104	-2.9375	-2.2958	340.896	293.507	402.055	389.879	488.294	354.644	496.218	238.197	210.311	418.916	433.941	419.557	491.863	310.241	273.508	480.036	0.00025191	0.00019447	8.3183e-05	456.57	2.1937e-06	1.3603e-06	531.3	108.92	2.0254e-06	4.5507e-06	155.3	49.707	29.93	10.88	5.1431e-07	23.033	0.0010923	0.0015958	0.00044368	453.96	1.6061e-05	1.775e-05	526.98	109.69	1.6504e-05	1.7821e-05	155.98	50.128	30.765	11.267	1.6444e-05	23.627	270.599	314.002	218.033	180.898	335.394	257.330	180.300	185.795	378.473	294.047	184.161	189.640	190.998	194.804	329.935	192.843	-8191	255	
16713.912	1	1	0	0	0.19555	0.16394	0.18343	0.20899	0.10424	0.083594	0.088176	0.12969	0.1072	0.20735	0.1564	0.2009	0.092824	0.26083	0.032953	0.29825	-1.8104	-2.7687	-2.1375	-2.5875	-2.4521	-2.2354	-2.6167	-2.6562	-2.4313	-2.6167	-2.2708	-2.3438	-2.5604	-2.2708	-2.7146	-2.5333	498.690	364.400	262.791	196.648	451.641	383.354	414.342	346.559	293.683	174.430	437.472	443.209	279.204	439.902	510.608	394.289	0.00025859	0.00062364	1.6955e-05	460.71	5.2598e-06	4.2365e-06	531.01	109.94	1.7866e-06	2.7471e-06	154.59	49.615	29.713	10.909	1.985e-06	23.37	0.0011161	0.0015995	0.00044153	455.38	1.596e-05	1.7808e-05	526.23	110.43	1.638e-05	1.7888e-05	155.6	50.173	30.702	11.293	1.6915e-05	23.824	264.923	521.016	519.883	180.366	352.402	336.017	180.234	185.762	516.364	372.542	184.554	189.397	190.646	195.825	285.268	193.158	-8191	255	
16714.010	1	1	0	0	0.26638	0.24071	0.16238	0.17116	0.22965	0.12091	0.17368	0.2018	0.22655	0.36824	0.098942	0.12435	0.16694	0.2056	0.0811	0.20755	-1.7208	-2.8	-2.4104	-2.4708	-2.4917	-2.2542	-2.8021	-2.4958	-2.1146	-2.6542	-2.6708	-2.4938	-2.5021	-2.3104	-2.6292	-2.6146	512.064	176.500	350.201	174.035	243.160	524.943	444.372	353.357	222.138	371.629	257.803	353.634	372.340	448.050	367.813	206.284	0.00022053	0.00031467	2.4193e-05	457.3	2.5795e-06	3.9929e-06	530.86	108.16	2.0612e-06	5.3534e-06	154.53	49.444	30.01	11.18	4.9486e-06	24.029	0.001139	0.0016297	0.00046103	454.98	1.6544e-05	1.8471e-05	528.28	109.43	1.6633e-05	1.8294e-05	156.1	50.517	30.94	11.506	1.7034e-05	24.268	271.437	497.104	308.272	180.596	284.265	302.983	179.930	185.946	317.479	323.487	184.373	189.283	190.744	195.849	309.049	192.968	-8191	255	
16714.105	1	1	0	0	0.1953	0.052063	0.2518	0.25109	0.1747	0.11463	0.22713	0.12853	0.19902	0.13407	0.092203	0.091877	0.11939	0.064503	0.11974	0.24316	-1.7021	-2.5125	-2.3104	-2.5542	-2.5458	-2.2396	-2.6167	-2.5062	-2.3354	-2.7583	-2.4813	-2.5812	-2.5729	-2.2562	-2.6208	-2.65	366.135	488.810	400.169	411.728	488.349	356.289	376.277	275.933	417.306	242.828	192.420	192.613	482.608	210.367	240.030	424.355	0.00022043	0.00036421	0.00012985	462.8	4.3377e-06	2.0759e-06	539.46	109.85	5.2562e-06	3.3692e-06	157.94	50.333	30.274	11.348	2.7244e-06	24.303	0.0011682	0.001648	0.00045347	459.78	1.6923e-05	1.8371e-05	533.72	110.98	1.6749e-05	1.8527e-05	158.62	51.292	31.273	11.63	1.7207e-05	24.541	262.178	211.797	270.591	180.898	348.733	343.140	180.088	185.696	372.225	275.791	185.011	189.482	190.578	195.555	353.096	192.503	-8191	255	
16714.225	1	1	0	0	0.3799	0.24496	0.24378	0.21139	0.028656	0.23698	0.093706	0.12172	0.23765	0.18681	0.27931	0.13101	0.19734	0.045039	0.32301	0.1316	-1.8	-2.7354	-2.5646	-2.3646	-2.7062	-2.2875	-2.5271	-2.5062	-2.2646	-2.4771	-2.45	-2.3292	-2.7479	-2.5104	-2.4792	-2.6625	260.024	240.787	338.424	478.450	253.256	271.819	485.101	313.693	505.637	504.122	297.324	344.123	365.241	511.563	172.262	269.058	0.00020606	0.00031668	0.00014877	464.14	2.6486e-06	3.317e-06	546.1	111.2	2.172e-06	5.2546e-06	159.69	51.829	30.556	11.349	1.495e-06	24.326	0.0011214	0.0016681	0.00046404	461.87	1.6626e-05	1.7971e-05	542.02	112.35	1.7045e-05	1.8184e-05	160.59	52.143	31.681	11.731	1.7203e-05	24.706	253.400	174.189	232.420	180.835	211.606	418.546	180.298	185.952	265.125	282.064	184.364	190.339	190.451	195.326	389.458	193.252	-8191	255	
16714.297	1	1	0	0	0.16808	0.18108	0.23306	0.16885	0.28289	0.17749	0.14742	0.087962	0.054476	0.30633	0.24855	0.11249	0.22134	0.1093	0.32173	0.26213	-1.8542	-2.6542	-2.3708	-2.2625	-2.75	-2.1833	-2.4396	-2.4562	-2.1979	-2.5896	-2.2313	-2.1146	-2.6271	-2.3375	-2.3438	-2.5938	309.405	307.810	478.441	403.492	175.822	306.843	357.397	526.394	522.559	275.462	402.113	524.051	390.179	410.144	272.647	374.819	0.00018592	0.00018143	0.00014251	468.38	2.7962e-06	3.6687e-06	548.32	114.59	3.9807e-06	2.3277e-06	160.24	51.106	30.708	11.459	2.6444e-06	24.21	0.001152	0.0016885	0.00046126	465.84	1.6754e-05	1.848e-05	544.71	114.09	1.6989e-05	1.8044e-05	161.03	52.017	31.848	11.821	1.7342e-05	24.66	259.777	250.861	279.498	180.703	347.907	304.613	180.344	185.587	328.474	345.078	184.715	189.312	190.271	195.778	329.206	192.775	-8191	255	
16714.393	1	1	0	0	0.35305	0.10247	0.056319	0.52193	0.052884	0.21868	0.21508	0.27346	0.4213	0.19564	0.028596	0.097607	0.089619	0.24886	0.13603	0.15065	-2.0396	-2.5792	-2.5	-2.2583	-2.8417	-2.5104	-2.3937	-2.7458	-2.1125	-2.5979	-2.5312	-2.0812	-2.6146	-2.4042	-2.3979	-2.7333	372.150	432.497	245.325	486.322	446.279	340.039	502.006	338.766	512.182	193.877	223.841	223.150	440.713	211.682	196.354	267.547	0.00026552	0.00038488	6.7481e-05	470.93	2.7543e-06	1.5589e-06	546.4	113.38	4.0773e-06	1.3965e-06	161.06	50.689	30.765	11.281	3.0117e-06	24.132	0.0011371	0.0016835	0.00046223	467	1.6635e-05	1.8704e-05	543.62	113.49	1.6901e-05	1.8384e-05	161.1	51.847	32.092	11.683	1.7287e-05	24.548	259.940	249.038	292.265	180.573	343.054	251.235	180.180	185.842	286.149	369.273	184.292	189.642	190.738	195.742	287.151	193.187	-8191	255	
16714.488	1	1	0	0	0.14829	0.058328	0.027523	0.17543	0.097376	0.1643	0.26535	0.33812	0.26567	0.04576	0.12275	0.224	0.023566	0.21249	0.07289	0.071843	-1.8729	-2.6042	-2.6833	-2.4062	-2.4375	-2.4313	-2.2771	-2.6979	-2.4208	-2.45	-2.5896	-2.3396	-2.5917	-2.5312	-2.3458	-2.7521	247.256	509.622	245.848	515.155	256.846	441.876	507.575	478.672	471.621	342.949	526.737	385.419	201.817	188.264	388.320	322.520	0.0001796	0.00023843	5.2172e-05	471.83	5.2978e-06	2.1474e-06	544.72	113.81	3.3062e-06	2.7913e-06	161.39	51.429	30.832	11.256	3.8415e-06	24.224	0.0010969	0.0016961	0.0004537	468.34	1.6394e-05	1.8337e-05	543.32	113.98	1.6991e-05	1.8109e-05	160.99	51.866	31.93	11.615	1.7147e-05	24.444	258.602	243.654	323.952	180.692	315.635	315.672	180.265	185.918	271.514	303.557	184.354	189.681	190.534	195.176	307.231	193.224	-8191	255	
16714.607	1	1	0	0	0.2204	0.15507	0.18729	0.13529	0.20614	0.13799	0.13297	0.11283	0.030677	0.21775	0.16904	0.1318	0.30531	0.072754	0.19281	0.095098	-1.7833	-2.3729	-2.5458	-2.2167	-2.5146	-2.5083	-2.2917	-2.5833	-2.2667	-2.3333	-2.7375	-2.3312	-2.5	-2.6479	-2.3854	-2.6	388.625	482.051	188.367	480.528	485.862	171.417	485.706	451.305	509.362	188.284	325.168	439.332	368.963	451.317	365.845	283.879	0.00023353	0.0002637	0.00010168	473.09	2.5838e-06	4.1773e-06	554.01	114.02	2.1326e-06	2.4146e-06	161.23	51.402	30.97	11.464	4.6182e-06	24.195	0.0011155	0.0016591	0.0004588	469.06	1.6761e-05	1.8202e-05	548.5	114.7	1.659e-05	1.8417e-05	162.61	52.198	32.066	11.766	1.742e-05	24.635	254.060	512.296	185.957	180.913	303.293	369.441	180.253	185.634	355.564	505.884	184.684	189.585	190.293	195.382	350.667	192.481	-8191	255	
16714.703	1	1	0	0	0.1047	0.10806	0.059043	0.10582	0.073191	0.29216	0.18709	0.077276	0.25624	0.031071	0.084257	0.17687	0.15369	0.1449	0.10621	0.22312	-2.0104	-2.3	-2.6813	-2.4208	-2.4375	-2.5771	-2.3229	-2.8833	-2.2917	-2.4292	-2.6	-2.1917	-2.4104	-2.4917	-2.2583	-2.5292	334.279	355.871	390.890	329.974	227.637	370.145	367.337	399.535	457.242	519.969	329.137	443.944	526.820	197.821	518.215	325.594	0.00029351	0.00018881	7.4885e-05	478.52	1.1318e-06	2.8066e-06	560.57	114.92	3.3301e-06	1.1192e-06	164.28	52.462	31.657	11.643	3.6913e-06	24.365	0.0011105	0.0016719	0.00045262	474.15	1.6656e-05	1.8133e-05	553.77	115.67	1.6982e-05	1.8727e-05	164.2	52.843	32.579	11.913	1.7638e-05	24.82	255.417	199.143	305.545	180.977	448.456	336.088	180.514	185.709	325.205	171.481	184.519	189.489	190.845	195.637	279.514	192.749	-8191	255	
16714.803	1	1	0	0	0.10846	0.043238	0.13398	0.20273	0.065623	0.12866	0.23959	0.31921	0.1337	0.12922	0.27836	0.20449	0.21906	0.31937	0.029354	0.19289	-2.0542	-2.2542	-2.7313	-2.3292	-2.5375	-2.7625	-2.1979	-2.5687	-2.5146	-2.2917	-2.7125	-2.3458	-2.4729	-2.6813	-2.4333	-2.6083	455.020	496.355	405.656	493.161	411.138	431.571	509.042	458.312	454.365	185.155	204.067	469.825	501.134	428.627	360.335	494.085	0.00023094	0.0002701	4.2953e-05	478.65	6.1976e-06	3.36e-06	557.68	115.06	4.1108e-06	5.2527e-06	164.69	51.696	31.427	11.505	3.2668e-06	24.423	0.0011254	0.0016788	0.00045884	473.08	1.6779e-05	1.8278e-05	550.25	115.34	1.6653e-05	1.8229e-05	163.58	52.393	32.355	11.833	1.7251e-05	24.766	262.985	217.292	280.362	180.557	233.305	215.649	180.268	185.725	459.266	362.793	184.125	189.320	190.097	195.126	358.239	192.750	-8191	255	
16714.922	1	1	0	0	0.26015	0.12542	0.19132	0.105	0.091699	0.19911	0.26947	0.15468	0.11285	0.2716	0.23157	0.17119	0.17449	0.078492	0.13793	0.073883	-2.1188	-2.2	-2.5896	-2.3521	-2.3458	-2.7021	-2.3146	-2.4625	-2.5312	-2.2188	-2.7438	-2.5042	-2.3583	-2.6937	-2.35	-2.6479	321.778	447.001	463.558	175.294	327.059	420.525	412.547	418.856	436.893	351.585	449.596	476.136	255.120	218.528	402.827	176.174	0.00028984	3.1934e-05	3.4704e-05	473.05	3.6884e-06	3.342e-06	549.54	115.09	2.0788e-06	2.1152e-06	161.5	50.805	31.325	11.252	1.2974e-06	24.236	0.0011242	0.001646	0.00046863	471.06	1.6648e-05	1.7861e-05	546.31	115.34	1.6759e-05	1.8298e-05	162.58	52.009	32.12	11.708	1.7309e-05	24.565	258.578	284.335	328.578	180.622	262.439	332.343	179.966	185.615	301.685	215.691	184.597	189.305	190.562	195.252	422.319	192.797	-8191	255	
16714.992	1	1	0	0	0.29019	0.13843	0.062778	0.10967	0.074467	0.3236	0.21921	0.1715	0.14547	0.25203	0.048586	0.23457	0.046226	0.066349	0.20932	0.21208	-2.1083	-2.2354	-2.5021	-2.2979	-2.2979	-2.7438	-2.3958	-2.425	-2.6167	-2.325	-2.6104	-2.4896	-2.3292	-2.7458	-2.2521	-2.4521	382.749	258.879	215.100	281.240	335.973	180.040	460.473	486.639	524.125	376.583	245.673	438.761	385.782	276.815	179.160	204.007	0.00024992	0.00037496	9.8865e-05	474.19	2.6986e-06	2.4139e-06	555.81	115.35	3.0017e-06	1.5044e-06	163.62	51.808	31.367	11.548	2.6272e-06	24.272	0.0010838	0.0016341	0.00044996	471.79	1.6521e-05	1.8033e-05	549.46	115.89	1.6832e-05	1.7848e-05	163.79	52.767	32.543	11.807	1.646e-05	24.647	259.940	288.610	225.587	180.856	335.732	398.288	179.983	185.932	270.156	238.872	184.306	189.630	191.033	195.446	387.287	192.906	-8191	255	
16715.090	1	1	0	0	0.21714	0.083485	0.43264	0.1135	0.13367	0.062799	0.11963	0.02957	0.2418	0.078411	0.14944	0.27281	0.12029	0.23319	0.22319	0.34484	-2.0958	-2.3792	-2.5687	-2.4125	-2.2	-2.7167	-2.2833	-2.5625	-2.5062	-2.1979	-2.7396	-2.5333	-2.4667	-2.6771	-2.1958	-2.425	206.624	267.152	301.161	267.504	390.598	235.999	527.896	246.029	449.401	524.552	383.805	435.046	309.682	244.751	203.975	466.800	0.00026373	0.00025975	5.4061e-05	478.27	4.322e-06	2.9541e-06	562.78	116.87	1.7336e-06	5.5406e-06	165.78	52.886	31.996	11.646	1.0324e-06	24.447	0.0010869	0.0016434	0.00044821	476.68	1.6444e-05	1.764e-05	555.76	117.59	1.6556e-05	1.7936e-05	166.36	53.403	33.079	11.979	1.6493e-05	24.771	259.389	273.677	245.090	180.528	299.044	257.337	180.437	185.938	253.808	257.402	184.359	189.217	190.446	195.518	208.676	192.849	-8191	255	
16715.211	1	1	0	0	0.117	0.10284	0.4028	0.41235	0.19221	0.29305	0.37825	0.17411	0.052867	0.13183	0.19653	0.25467	0.12529	0.15227	0.069905	0.03795	-2.0896	-2.1333	-2.4104	-2.4333	-2.2313	-2.8125	-2.3063	-2.4979	-2.6896	-2.3021	-2.3354	-2.5146	-2.3312	-2.4771	-2.5875	-2.3354	202.179	334.836	523.545	497.958	328.423	198.694	434.170	364.074	378.223	305.972	474.665	211.252	360.779	303.723	288.430	201.072	0.00028597	0.00035366	3.3266e-05	489.92	4.4527e-06	2.7529e-06	561.21	119.57	3.8431e-06	4.2572e-06	167.11	53.062	32.59	11.617	1.5109e-06	24.322	0.0010924	0.0015668	0.00044769	484.21	1.605e-05	1.7429e-05	556.05	119.96	1.5997e-05	1.7894e-05	166.77	53.563	33.356	12.006	1.675e-05	24.775	260.817	334.746	182.281	181.092	336.238	307.022	180.509	185.669	354.095	366.442	184.451	189.160	190.100	195.371	202.778	192.929	-8191	255	
16715.307	1	1	0	0	0.070335	0.17595	0.28188	0.21862	0.16317	0.30755	0.22563	0.27198	0.27409	0.16005	0.2312	0.17345	0.17581	0.10549	0.027387	0.1819	-2.3292	-2.3063	-2.6312	-2.6833	-2.325	-2.5	-2.4042	-2.2812	-2.6521	-2.2375	-2.4771	-2.65	-2.025	-2.7167	-2.4958	-2.3187	508.939	347.549	271.809	190.393	415.203	196.777	495.671	321.700	398.698	422.655	428.750	231.133	295.124	390.190	419.305	381.602	0.00025805	0.00012488	2.1675e-05	486.1	4.077e-06	5.2205e-06	561.07	117.9	2.7526e-06	6.4003e-06	166.17	52.23	32.346	11.639	9.2394e-07	24.084	0.0010784	0.0015905	0.00045874	482.53	1.6169e-05	1.804e-05	554.27	118.94	1.6482e-05	1.7771e-05	166.3	53.176	33.193	11.967	1.7102e-05	24.547	254.564	267.944	527.609	180.841	316.673	320.364	180.489	185.639	320.151	238.733	184.402	189.664	189.948	195.341	480.362	192.354	-8191	255	
16715.402	1	1	0	0	0.39284	0.11317	0.12474	0.1593	0.069644	0.10895	0.062817	0.10929	0.17355	0.033139	0.18904	0.15445	0.3167	0.082827	0.22541	0.23395	-2.2	-2.4104	-2.4042	-2.4604	-2.1333	-2.6375	-2.6229	-2.4167	-2.6833	-2.3688	-2.4208	-2.6646	-2.4229	-2.7854	-2.4896	-2.3583	248.189	282.726	350.728	374.638	411.341	173.707	389.139	480.832	236.824	465.080	316.073	260.162	440.997	216.722	513.371	292.771	0.00022828	0.00042425	2.6445e-05	485.08	9.554e-07	5.7618e-06	558.55	118.46	2.855e-06	1.3168e-06	166.04	52.701	32.079	11.509	2.4996e-06	24.154	0.0011104	0.0016239	0.00044667	481.1	1.6568e-05	1.7545e-05	553.05	118.61	1.638e-05	1.7667e-05	165.92	53.044	33.044	11.878	1.6385e-05	24.508	256.080	249.072	292.340	180.579	213.676	304.213	180.092	185.388	243.851	359.574	184.246	189.412	190.519	195.322	344.326	193.070	-8191	255	
16715.523	1	1	0	0	0.25107	0.045926	0.1025	0.08496	0.20648	0.23997	0.15769	0.36209	0.2521	0.040638	0.18446	0.19878	0.039557	0.33269	0.20859	0.11014	-2.2833	-2.5167	-2.4813	-2.6333	-2.4583	-2.5187	-2.5563	-2.2271	-2.5375	-2.3479	-2.2417	-2.9	-2.3896	-2.4917	-2.7042	-2.2333	184.946	483.159	451.101	519.796	385.315	311.106	273.235	167.963	192.179	276.450	400.437	330.659	310.481	210.714	343.616	236.117	0.00027109	0.00034202	0.0001489	489.87	2.9628e-06	2.9982e-06	562.88	119.99	4.9805e-06	4.3649e-06	166.86	52.86	32.487	11.653	6.0776e-06	24.207	0.0010726	0.0015807	0.00045832	482.97	1.6053e-05	1.7292e-05	557.11	120.06	1.6559e-05	1.7485e-05	166.76	53.367	33.366	11.985	1.6719e-05	24.716	267.230	214.440	291.103	180.844	367.753	237.558	180.048	185.938	315.002	353.646	184.421	189.372	190.354	195.560	370.193	192.857	-8191	255	
16715.594	1	1	0	0	0.25817	0.075964	0.17509	0.2951	0.10298	0.2151	0.1221	0.052349	0.083238	0.25295	0.11244	0.31289	0.1472	0.22862	0.27166	0.19266	-2.1146	-2.3771	-2.1729	-2.7083	-2.0812	-2.4917	-2.6562	-2.3333	-2.5521	-2.4125	-2.4854	-2.7104	-2.2313	-2.2875	-2.6312	-2.3521	267.186	380.134	355.687	488.599	224.102	300.049	442.693	333.815	464.029	450.685	473.896	214.227	326.879	527.286	230.024	226.770	0.00027735	0.00037695	0.00015958	487.6	1.5929e-06	3.6567e-06	561.64	119.51	1.9835e-06	2.0594e-06	166.71	53.222	32.658	11.705	1.6767e-06	24.481	0.0010725	0.0016102	0.00045505	483.56	1.6079e-05	1.7942e-05	556.67	119.9	1.6446e-05	1.7766e-05	166.96	53.703	33.526	12.078	1.6918e-05	24.799	265.160	243.948	253.940	180.782	380.154	273.250	180.424	186.074	493.630	240.727	184.425	189.256	190.275	195.303	447.377	192.313	-8191	255	
16715.689	1	1	0	0	0.19775	0.11205	0.039721	0.098616	0.12096	0.076249	0.14617	0.10247	0.23955	0.3687	0.27822	0.32705	0.1874	0.19712	0.028164	0.060094	-2.1208	-2.3667	-2.2938	-2.6063	-2.3271	-2.4833	-2.725	-2.3125	-2.4333	-2.6667	-2.3	-2.6771	-2.3542	-2.4375	-2.7042	-2.4167	471.326	488.053	181.959	369.740	263.663	487.590	382.479	457.960	412.813	220.733	512.691	203.110	416.459	208.879	222.430	188.881	0.00026031	0.00011345	6.7065e-05	486.48	3.3285e-07	3.3027e-06	560.03	120.2	2.237e-06	8.0064e-06	166.18	53	32.85	11.708	1.3505e-06	23.997	0.0010733	0.0015867	0.00043928	482.41	1.6569e-05	1.7942e-05	556.25	120.28	1.6356e-05	1.7811e-05	167.37	53.255	33.5	12.01	1.6267e-05	24.459	257.874	251.344	331.943	180.630	273.367	407.650	180.445	185.633	356.395	296.964	184.332	189.473	189.930	195.288	325.895	192.470	-8191	255	
16715.785	1	1	0	0	0.27878	0.1264	0.24772	0.12374	0.20857	0.12213	0.1675	0.24538	0.096035	0.15787	0.13444	0.18959	0.40044	0.40565	0.097493	0.14123	-2.125	-2.5	-2.2125	-2.6708	-2.4896	-2.2708	-2.8708	-2.3583	-2.5896	-2.6167	-2.2375	-2.5771	-2.3438	-2.4021	-2.7562	-2.3729	181.709	300.323	398.799	186.422	499.423	375.576	317.638	505.233	184.978	428.579	496.040	424.707	451.092	193.359	413.180	276.161	0.00023055	0.00023036	0.00018376	490.83	3.6634e-06	1.5625e-06	556.05	119.85	3.9032e-06	3.451e-06	165.79	52.17	32.199	11.479	3.5853e-06	23.879	0.0010782	0.0016003	0.0004438	484.54	1.6117e-05	1.7768e-05	551.72	119.57	1.6327e-05	1.7757e-05	165.48	52.72	33.121	11.859	1.6473e-05	24.341	271.529	269.081	248.947	180.697	311.441	345.289	180.379	185.455	236.597	393.815	184.659	189.362	190.440	195.619	342.149	193.183	-8191	255	
16715.904	1	1	0	0	0.17592	0.12433	0.082613	0.18934	0.030157	0.16094	0.33391	0.21357	0.19817	0.4306	0.18992	0.17591	0.31345	0.16123	0.3962	0.03141	-2.0646	-2.5083	-2.2604	-2.7771	-2.5292	-2.2938	-2.6188	-2.325	-2.5229	-2.5646	-2.25	-2.6583	-2.5708	-2.4292	-2.7167	-2.3583	308.696	171.574	485.289	500.529	408.032	212.269	407.693	169.679	308.936	421.020	277.243	452.020	458.637	269.203	278.524	194.038	0.00027008	0.00046162	0.00010914	484.55	6.8896e-06	6.4713e-06	559.66	119.59	2.3586e-06	2.6956e-06	165.46	52.745	32.658	11.605	4.7415e-06	23.988	0.0011074	0.0015744	0.00043975	483.12	1.6295e-05	1.7304e-05	554.42	119.97	1.6285e-05	1.769e-05	166.71	53.239	33.41	11.972	1.687e-05	24.547	258.067	362.975	253.503	180.759	322.595	333.429	180.150	185.874	362.879	272.589	184.491	189.128	189.975	195.534	326.323	192.912	-8191	255	
16716.002	1	1	0	0	0.073546	0.10403	0.3664	0.19879	0.1912	0.035753	0.24488	0.28906	0.031434	0.26373	0.1562	0.0662	0.15385	0.16547	0.11028	0.26304	-2.0417	-2.5958	-2.3229	-2.5729	-2.4813	-2.3167	-2.8542	-2.3604	-2.3812	-2.85	-2.3979	-2.6708	-2.7729	-2.1417	-2.8104	-2.5312	306.306	353.676	497.483	189.885	337.546	356.042	438.506	432.852	525.761	289.450	308.658	363.553	526.766	210.905	210.384	217.966	0.00021829	5.2917e-05	4.5596e-05	488.76	4.6544e-06	4.1223e-06	566.07	121.67	2.6989e-06	5.0484e-06	167.78	53.28	33.028	11.799	1.363e-06	24.067	0.001071	0.0015759	0.00044394	486.15	1.5588e-05	1.7254e-05	559.11	121.89	1.6383e-05	1.7398e-05	168.3	53.562	33.8	12.112	1.6681e-05	24.568	262.552	249.130	179.711	180.628	487.822	367.465	180.420	185.704	332.264	283.025	184.221	189.388	190.544	194.710	359.511	193.164	-8191	255	
16716.098	1	1	0	0	0.10933	0.11519	0.032994	0.14302	0.16583	0.18004	0.17618	0.17228	0.17377	0.17003	0.1989	0.21101	0.3469	0.27786	0.10236	0.16499	-1.8479	-2.8646	-2.1729	-2.5146	-2.4646	-2.2292	-2.6688	-2.6604	-2.1708	-2.8042	-2.1958	-2.4083	-2.6063	-2.4562	-2.4833	-2.6208	239.968	361.853	392.665	508.388	444.405	463.613	254.838	506.459	298.486	389.532	386.627	402.300	171.758	209.658	344.031	243.480	0.00025197	0.00034283	0.00013987	491.81	1.4712e-06	5.8658e-06	559.7	119.64	7.2112e-06	2.0644e-06	165.89	52.697	32.868	11.602	1.5037e-06	24.134	0.0010761	0.0015585	0.00044331	486.51	1.6127e-05	1.7572e-05	554.16	120.25	1.6278e-05	1.7643e-05	166.24	53.14	33.618	12.026	1.6422e-05	24.458	267.936	488.216	243.576	180.701	274.767	340.568	180.626	185.174	342.785	284.067	184.344	189.196	190.242	195.402	379.983	192.743	-8191	255	
16716.170	1	1	0	0	0.3241	0.178	0.24084	0.28378	0.3836	0.23081	0.064155	0.14602	0.26135	0.22387	0.18544	0.031461	0.17925	0.075444	0.10295	0.10819	-1.7146	-2.6292	-2.3271	-2.5646	-2.6333	-2.3271	-2.6333	-2.3646	-2.4729	-2.875	-2.3979	-2.4813	-2.5958	-2.1729	-2.5583	-2.7167	180.823	249.027	419.629	226.466	241.247	168.937	364.660	451.103	417.309	382.225	427.966	242.159	215.150	211.275	219.456	488.425	0.00018232	1.4405e-05	0.00011411	489.29	1.2201e-06	4.3159e-06	558.55	118.71	2.394e-06	5.3615e-06	165.6	52.375	32.184	11.561	4.5688e-06	23.985	0.0010707	0.0015606	0.00043851	483.42	1.5886e-05	1.7447e-05	552.01	119.46	1.6284e-05	1.8163e-05	166	52.801	33.029	11.867	1.6997e-05	24.309	257.744	234.275	232.148	180.561	352.106	269.962	180.206	185.558	364.463	423.356	184.313	189.229	190.234	194.942	293.705	192.653	-8191	255	
16716.289	1	1	0	0	0.21063	0.28231	0.21373	0.052308	0.11551	0.12287	0.09966	0.063596	0.13653	0.13561	0.14246	0.24165	0.069901	0.28238	0.073603	0.13387	-1.8854	-2.7271	-2.3333	-2.2979	-2.6437	-2.3729	-2.6437	-2.5604	-2.2729	-2.425	-2.4208	-2.3063	-2.6813	-2.0958	-2.4229	-2.6021	512.110	464.695	235.898	361.616	326.334	236.268	353.511	356.437	300.016	329.610	405.088	440.003	253.820	475.316	238.044	517.444	0.00026312	0.00065705	0.00010933	484.01	4.4108e-06	2.5896e-06	559.21	118.46	3.6136e-06	1.4492e-06	164.95	52.469	32.373	11.569	3.6581e-06	24.191	0.0010946	0.0015878	0.00044343	479.87	1.6401e-05	1.7321e-05	551.87	118.69	1.6406e-05	1.7873e-05	165.21	52.852	33.184	11.896	1.731e-05	24.47	253.762	272.330	219.455	180.724	313.543	448.822	180.012	185.814	380.233	350.974	184.097	189.631	190.454	195.133	405.087	192.927	-8191	255	
16716.387	1	1	0	0	0.19788	0.27097	0.21015	0.10849	0.088428	0.21268	0.086976	0.051705	0.22865	0.18634	0.27715	0.1333	0.17187	0.23005	0.27068	0.19899	-1.9188	-2.6833	-2.3812	-2.3312	-2.7021	-2.2104	-2.6146	-2.5438	-2.3729	-2.525	-2.4333	-2.1917	-2.5896	-2.4833	-2.5604	-2.5646	432.993	386.555	391.435	303.878	277.724	398.930	260.657	293.807	460.115	184.174	454.311	518.889	295.062	437.332	484.336	501.561	0.00023828	0.00017032	2.5862e-05	489.77	2.4918e-06	1.165e-06	562.88	118.07	2.5181e-06	2.0186e-06	164.81	52.65	32.641	11.665	1.133e-06	24.221	0.0011029	0.0016097	0.00045973	484.97	1.6344e-05	1.7949e-05	556.96	119.73	1.661e-05	1.8614e-05	166.31	53.238	33.42	12.019	1.7053e-05	24.547	255.576	477.512	285.559	180.886	372.827	495.339	180.480	185.723	298.144	226.987	184.485	189.222	190.247	194.798	520.506	192.789	-8191	255	
16716.482	1	1	0	0	0.20466	0.35399	0.16169	0.19192	0.12187	0.22898	0.16537	0.021148	0.2993	0.025775	0.083942	0.15742	0.074175	0.041588	0.17748	0.18944	-1.7667	-2.6271	-2.4688	-2.1958	-2.5625	-2.3146	-2.3708	-2.8021	-2.0833	-2.7146	-2.5146	-2.3	-2.8479	-2.5729	-2.3937	-2.7771	447.985	312.211	366.669	248.804	280.440	431.190	387.041	452.738	488.332	492.611	461.193	252.038	208.908	422.974	264.672	196.188	0.00022296	0.00012129	0.00015937	485.25	3.061e-06	5.6756e-07	557.88	120.08	3.3814e-06	4.2141e-06	164.54	52.093	32.39	11.708	1.998e-06	23.649	0.0011016	0.0016161	0.00044814	483.28	1.6749e-05	1.764e-05	550.69	119.88	1.6466e-05	1.8094e-05	164.98	52.523	33.272	11.941	1.6973e-05	24.142	260.367	221.713	225.415	180.758	310.597	358.325	180.252	185.360	369.013	311.451	184.697	189.321	190.046	195.173	327.899	192.912	-8191	255	
16716.604	1	1	0	0	0.14161	0.2262	0.1617	0.20745	0.12872	0.27378	0.21147	0.15866	0.088044	0.14142	0.16858	0.10607	0.069167	0.090612	0.29875	0.17872	-1.8854	-2.5354	-2.5062	-2.2417	-2.6375	-2.5687	-2.1937	-2.7708	-2.1396	-2.4813	-2.5229	-2.0792	-2.4146	-2.2417	-2.2	-2.5812	284.259	239.023	369.646	448.482	447.320	380.216	447.287	182.268	361.737	174.588	511.974	232.065	185.954	314.990	373.169	514.929	0.00022477	0.00043246	0.00010134	482.61	2.9237e-06	1.8262e-06	548.25	117.95	1.5958e-06	1.8611e-06	162.32	50.661	31.398	11.34	2.4118e-06	23.454	0.0011052	0.0015896	0.00045271	479.91	1.6595e-05	1.7769e-05	544.71	117.81	1.6574e-05	1.8171e-05	162.66	51.555	32.499	11.66	1.6925e-05	23.81	259.756	219.616	179.622	180.868	261.148	250.354	180.206	186.046	324.896	362.913	184.574	189.521	190.080	195.149	356.950	192.908	-8191	255	
16716.697	1	1	0	0	0.16563	0.15536	0.071377	0.10655	0.10642	0.073111	0.062127	0.055727	0.046846	0.048726	0.11899	0.19136	0.22819	0.12374	0.2646	0.064291	-1.8229	-2.2188	-2.5979	-2.1146	-2.4375	-2.2687	-2.4271	-2.7042	-2.3271	-2.3521	-2.4021	-2.1646	-2.5687	-2.4938	-2.3396	-2.7125	469.931	399.250	357.508	452.420	363.389	181.738	375.527	297.809	290.184	459.840	331.405	200.985	368.439	210.420	520.500	501.689	0.00023013	0.00048425	3.8205e-05	481.04	2.0115e-06	3.9146e-07	550.6	117.51	2.2729e-06	3.8391e-06	161.82	50.735	31.675	11.445	4.0235e-06	23.498	0.0010963	0.0016143	0.00043579	476.59	1.7009e-05	1.7756e-05	545.28	117.76	1.6681e-05	1.8145e-05	162.48	51.608	32.686	11.741	1.6884e-05	23.943	261.106	304.706	266.560	180.747	294.450	207.912	180.030	185.379	265.265	359.443	184.462	189.606	190.067	195.077	185.861	193.075	-8191	255	
16716.793	1	1	0	0	0.073963	0.17079	0.17959	0.3018	0.20257	0.1552	0.19824	0.051352	0.074365	0.22352	0.11353	0.16579	0.21024	0.23231	0.1008	0.20358	-1.8083	-2.5563	-2.5771	-2.3792	-2.5229	-2.5167	-2.325	-2.6021	-2.2833	-2.2104	-2.7896	-2.2708	-2.2646	-2.6292	-2.4437	-2.7083	190.389	283.498	316.438	506.325	356.911	353.182	381.394	348.172	497.502	191.780	332.225	484.978	447.520	196.910	369.317	180.064	0.00021824	0.00034194	0.00013956	482.28	2.0019e-06	4.0293e-06	551.98	116.93	9.12e-06	4.9494e-06	163.23	51.526	31.451	11.352	3.5314e-06	23.378	0.0011016	0.0016433	0.00045711	477.93	1.6986e-05	1.8094e-05	546.77	117.79	1.6892e-05	1.8677e-05	163	51.788	32.493	11.688	1.6786e-05	23.811	259.405	171.135	259.199	180.481	237.988	219.593	180.267	185.879	349.260	326.471	184.350	189.151	189.704	195.589	361.123	192.859	-8191	255	
16716.891	1	1	0	0	0.17644	0.10369	0.32358	0.18201	0.0465	0.14396	0.084131	0.11105	0.37839	0.18962	0.070995	0.047794	0.050994	0.21117	0.15975	0.027115	-1.9292	-2.2208	-2.6937	-2.35	-2.3229	-2.6146	-2.2625	-2.7833	-2.275	-2.2979	-2.6937	-2.4167	-2.3521	-2.4354	-2.2729	-2.5854	246.143	281.328	384.475	228.401	212.910	239.063	452.459	179.865	194.376	276.309	179.181	473.305	332.309	469.421	210.509	410.961	0.00026831	0.00043189	2.9591e-05	480.14	4.0319e-06	3.0934e-06	544.62	116.77	1.9997e-06	2.3887e-06	160.92	50.291	31.25	11.077	3.4054e-06	23.094	0.0011182	0.0016404	0.00045583	475.23	1.7056e-05	1.7996e-05	540.43	117.02	1.6967e-05	1.8451e-05	161.05	50.871	32.34	11.467	1.7132e-05	23.428	258.463	241.211	316.959	180.642	303.840	374.906	180.165	185.856	301.907	489.516	184.685	189.319	190.307	195.456	363.156	192.908	-8191	255	
16716.986	1	1	0	0	0.10505	0.16839	0.1194	0.3547	0.090022	0.092537	0.21582	0.11869	0.13976	0.24436	0.2269	0.10267	0.12501	0.41765	0.2015	0.17369	-1.7604	-2.2854	-2.7313	-2.2979	-2.4292	-2.5479	-2.2062	-2.5458	-2.5083	-2.1604	-2.575	-2.2104	-2.375	-2.6312	-2.1479	-2.4396	481.670	225.827	318.056	514.897	516.195	239.421	519.332	408.051	392.671	233.117	342.750	484.202	357.569	445.408	238.713	322.366	0.00021045	0.00032531	0.00014624	476.99	2.408e-06	2.48e-06	536.85	115.51	3.575e-06	4.4326e-06	157.25	49.778	30.919	11.11	2.2995e-06	22.806	0.0010894	0.0016315	0.00044683	470.51	1.6517e-05	1.8059e-05	531.03	115.55	1.6484e-05	1.7856e-05	158.29	50.288	31.887	11.41	1.6608e-05	23.23	263.787	245.313	304.331	180.906	414.835	463.917	180.275	185.493	317.205	401.533	184.550	189.079	189.633	195.140	343.341	192.628	-8191	255	
16717.082	1	1	0	0	0.044141	0.079545	0.15682	0.18477	0.11827	0.17213	0.14215	0.20139	0.16277	0.13794	0.14454	0.10381	0.25748	0.07364	0.35621	0.080491	-2.125	-2.2458	-2.5458	-2.3771	-2.1875	-2.65	-2.1083	-2.4	-2.4813	-2.3229	-2.6396	-2.6354	-2.3458	-2.6417	-2.1833	-2.5104	190.944	375.674	408.480	179.031	352.698	257.049	476.310	169.857	186.982	172.841	387.431	453.739	332.119	521.611	513.986	294.494	0.00019413	0.00030265	0.00011388	474.61	1.7783e-06	3.2287e-06	539.12	115.38	2.1361e-06	3.1319e-06	158.96	49.926	31.081	11.009	1.3107e-06	22.946	0.0011135	0.0015943	0.00044284	471.07	1.6552e-05	1.7533e-05	534.16	115.69	1.6593e-05	1.7909e-05	159.02	50.487	32.068	11.392	1.665e-05	23.32	269.698	269.305	520.327	180.568	349.336	280.111	179.794	185.527	324.680	308.153	184.256	188.791	190.399	195.483	322.266	192.677	-8191	255	
16717.203	1	1	0	0	0.13598	0.31516	0.11927	0.1748	0.23976	0.064648	0.1737	0.08934	0.27657	0.067346	0.098308	0.16813	0.20969	0.13085	0.20923	0.28459	-2.2	-2.1396	-2.5042	-2.4229	-2.2042	-2.5792	-2.3042	-2.4521	-2.5187	-2.1729	-2.4958	-2.4688	-2.3396	-2.7271	-2.4125	-2.5875	177.373	333.458	208.461	518.381	522.715	272.179	306.105	394.571	405.641	504.474	205.185	225.972	463.536	495.649	445.203	390.619	0.00020796	0.00015686	4.7567e-05	477.52	7.2333e-06	3.0498e-06	542.47	116.73	1.5975e-06	5.2545e-06	159.89	50.276	31.512	11.23	2.7849e-06	23.263	0.0010842	0.0016036	0.00044409	473.07	1.6036e-05	1.7356e-05	536.19	117.24	1.6057e-05	1.8005e-05	160.54	50.958	32.389	11.569	1.6747e-05	23.568	274.285	422.536	269.238	180.457	351.186	230.918	180.011	185.512	393.069	300.887	184.511	189.238	190.426	195.578	396.708	192.288	-8191	255	
16717.299	1	1	0	0	0.087367	0.08156	0.095249	0.32654	0.30679	0.15535	0.47291	0.36495	0.097933	0.15802	0.37826	0.35302	0.096697	0.052043	0.034959	0.17392	-2.1792	-2.2792	-2.6479	-2.4938	-2.2375	-2.7583	-2.3958	-2.4833	-2.7396	-2.2646	-2.5438	-2.7458	-2.2021	-2.8958	-2.4437	-2.3375	360.199	167.520	462.023	350.485	354.379	380.177	437.551	171.875	236.611	497.442	170.916	440.362	455.040	319.568	438.918	365.596	0.00025029	0.00013982	3.5432e-05	476.73	5.1288e-06	2.3557e-06	539.67	116.58	1.5315e-06	4.7081e-06	160.76	51.392	31.803	11.396	2.4308e-06	23.409	0.0010945	0.0015868	0.00045248	473.31	1.6309e-05	1.8864e-05	537.51	117.24	1.6484e-05	1.7998e-05	162.17	51.745	32.848	11.692	1.7134e-05	23.844	259.228	192.113	367.667	180.460	297.586	343.782	180.017	185.199	350.988	301.421	183.995	189.516	190.460	195.163	321.349	192.819	-8191	255	
16717.395	1	1	0	0	0.26304	0.22121	0.28816	0.20038	0.19298	0.072235	0.19135	0.18387	0.16188	0.29846	0.1916	0.15114	0.38783	0.28726	0.12147	0.19012	-2.425	-2.0792	-2.5479	-2.5917	-2.3292	-2.4521	-2.4604	-2.3604	-2.5604	-2.3229	-2.6604	-2.5917	-2.1417	-2.5729	-2.4833	-2.2646	427.029	459.272	296.453	453.224	300.497	274.984	390.537	463.253	201.393	212.561	404.976	421.868	460.622	168.879	342.230	188.004	0.00023672	0.00041773	6.859e-05	481.2	6.4293e-06	9.7359e-07	543.9	117.34	2.6162e-06	3.8741e-06	162.78	51.521	32.081	11.44	3.2771e-06	23.574	0.0011236	0.0016381	0.00045061	476.86	1.6647e-05	1.8462e-05	538.48	118.08	1.6645e-05	1.8136e-05	162.76	52.115	32.899	11.814	1.7343e-05	24.069	269.913	298.274	214.641	180.679	316.523	471.878	180.117	185.642	343.785	346.718	184.168	189.394	189.970	195.282	223.123	192.818	-8191	255	
16717.467	1	1	0	0	0.1822	0.12629	0.16775	0.18607	0.065352	0.28143	0.10152	0.076382	0.051841	0.19362	0.034646	0.055181	0.31506	0.19712	0.03745	0.0094971	-2.25	-2.2812	-2.3417	-2.55	-2.2625	-2.5458	-2.6917	-2.4542	-2.6625	-2.2833	-2.5208	-2.5896	-2.1458	-2.575	-2.5979	-2.2104	463.386	368.518	283.934	427.696	297.737	199.188	445.850	427.122	488.187	277.212	273.161	416.939	319.754	297.547	333.640	404.704	0.00020676	0.00063856	3.8179e-05	485.92	1.9786e-06	1.6533e-06	551.17	120.24	3.6667e-06	2.6942e-06	164.79	51.997	32.62	11.628	4.7991e-06	23.892	0.00111	0.0016441	0.00045166	480.38	1.6681e-05	1.8115e-05	546.74	120.98	1.6149e-05	1.7845e-05	165.34	52.227	33.557	11.952	1.7051e-05	24.156	261.904	272.914	255.455	180.523	208.804	251.092	180.243	185.836	327.712	237.779	184.599	189.293	190.449	194.986	275.843	192.304	-8191	255	
16717.588	1	1	0	0	0.23195	0.1422	0.023464	0.31489	0.20975	0.10825	0.042264	0.10883	0.14845	0.096067	0.068735	0.33541	0.22154	0.3183	0.14899	0.3048	-2.2729	-2.2771	-2.3688	-2.5604	-2.2	-2.6708	-2.6	-2.3812	-2.65	-2.4146	-2.4042	-2.8167	-2.3063	-2.5708	-2.5479	-2.2917	388.308	417.960	418.377	214.914	483.454	283.446	259.548	333.065	466.299	423.333	210.696	496.540	282.090	178.388	209.773	295.976	0.00026891	0.00027746	0.00014138	485.29	2.461e-06	8.5836e-07	553.46	119.7	3.5474e-06	1.1829e-06	164.54	51.932	32.373	11.639	2.2209e-06	24.042	0.0011202	0.0016593	0.00046956	482.56	1.6723e-05	1.849e-05	549.64	119.67	1.6927e-05	1.8616e-05	165.56	52.949	33.37	11.963	1.7573e-05	24.362	254.298	298.973	190.669	180.716	285.516	389.834	180.064	185.558	374.841	328.810	185.036	189.078	190.988	194.855	396.482	192.585	-8191	255	
16717.682	1	1	0	0	0.14145	0.091265	0.13193	0.096979	0.12603	0.1666	0.078312	0.025551	0.24162	0.23433	0.12961	0.19409	0.05644	0.12157	0.27463	0.45834	-2.2042	-2.4667	-2.2375	-2.7438	-2.3312	-2.4958	-2.5896	-2.0625	-2.8021	-2.5583	-2.2125	-2.3958	-2.2604	-2.2917	-2.5375	-2.1958	206.274	224.897	368.844	175.293	514.718	418.934	457.142	430.333	191.837	171.013	381.644	240.361	266.355	279.509	499.769	266.840	0.00021365	0.00030965	0.00022449	488.21	1.6148e-06	3.2097e-06	560.37	119.62	7.1668e-06	1.2982e-06	166.65	52.803	32.802	11.929	1.5172e-06	24.141	0.0011538	0.0016902	0.00046439	485.67	1.7295e-05	1.9056e-05	556.04	120.84	1.7485e-05	1.8915e-05	167.88	53.654	33.905	12.191	1.7581e-05	24.667	262.508	233.454	298.548	180.556	326.839	394.480	180.139	186.015	327.142	512.380	184.260	189.016	190.290	195.014	426.340	192.757	-8191	255	
16717.777	1	1	0	0	0.12299	0.11489	0.2185	0.049303	0.18734	0.12802	0.16273	0.11466	0.26405	0.25075	0.15423	0.16154	0.056243	0.32631	0.24578	0.069562	-2.1063	-2.4271	-2.3708	-2.6625	-2.3854	-2.4375	-2.7542	-2.2042	-2.4854	-2.3688	-2.3	-2.6146	-2.2729	-2.3146	-2.575	-2.2021	475.306	497.266	269.715	168.443	343.173	211.597	231.843	498.450	173.906	361.383	488.099	384.136	337.138	363.842	196.299	243.888	0.00027348	0.0001309	0.00011843	493.3	3.8288e-06	4.6591e-07	564.48	121.33	4.0848e-06	1.7474e-06	166.88	53.596	33.073	11.836	2.9345e-06	24.121	0.0011962	0.0017252	0.0004747	489.04	1.7486e-05	1.9616e-05	559.89	122.46	1.7517e-05	1.9206e-05	168	53.925	34.255	12.208	1.8067e-05	24.612	256.899	414.576	271.514	180.558	329.994	367.183	180.339	185.645	356.479	211.666	184.307	189.163	190.978	195.027	336.991	192.542	-8191	255	
16717.873	1	1	0	0	0.18481	0.18695	0.088203	0.22769	0.19847	0.12207	0.17217	0.14453	0.075175	0.11585	0.23657	0.26203	0.067944	0.31507	0.11713	0.29522	-1.9	-2.4521	-2.0438	-2.6042	-2.4104	-2.1896	-2.675	-2.3042	-2.6	-2.4688	-2.1	-2.6937	-2.4854	-2.3187	-2.6125	-2.3312	357.621	347.687	202.481	523.364	429.306	418.229	399.681	519.995	462.674	372.465	170.303	483.013	500.940	497.210	360.662	246.200	0.00023001	0.0001835	5.5573e-05	489.96	3.641e-06	1.6287e-06	558.22	120.86	1.2526e-06	5.9697e-06	164.53	52.405	32.409	11.639	2.5002e-06	23.798	0.001182	0.0017876	0.00048802	487.33	1.7877e-05	2.0271e-05	554.92	121.35	1.7999e-05	1.992e-05	166.68	53.176	33.646	12.036	1.8513e-05	24.389	260.425	317.489	228.773	180.638	322.181	408.543	180.005	185.924	172.571	333.706	184.069	189.118	190.344	195.115	359.898	192.659	-8191	255	
16717.971	1	1	0	0	0.085728	0.1029	0.047112	0.10804	0.16242	0.30484	0.079755	0.10524	0.064988	0.22553	0.34646	0.018674	0.16635	0.20641	0.36518	0.2139	-1.9833	-2.5542	-2.1708	-2.6292	-2.4417	-2.1375	-2.6667	-2.3521	-2.3417	-2.5271	-2.0438	-2.5208	-2.4875	-2.2458	-2.5375	-2.2583	456.798	259.917	380.536	369.157	281.683	286.148	319.992	523.868	266.761	311.497	291.191	172.589	419.784	240.655	327.607	190.284	0.00026346	0.00027424	3.7059e-05	489.57	3.9686e-06	8.3987e-07	559.16	118.89	3.521e-06	3.2e-06	165.34	52.102	32.682	11.671	5.4701e-06	23.923	0.0012177	0.0018088	0.00049516	484.61	1.7782e-05	1.9956e-05	554.64	119.7	1.8145e-05	2.0098e-05	166.14	53.324	33.559	12.059	1.882e-05	24.557	270.502	386.535	283.929	180.479	281.472	435.976	180.275	185.631	294.249	355.739	184.336	189.130	190.394	195.039	330.209	192.731	-8191	255	
16718.092	1	1	0	0	0.12201	0.15894	0.10073	0.22202	0.20316	0.15094	0.096463	0.18728	0.18039	0.20278	0.20674	0.23092	0.28706	0.11072	0.091	0.23276	-2.0333	-2.6479	-2.2417	-2.4437	-2.5833	-2.275	-2.9396	-2.3042	-2.4729	-2.6229	-2.3208	-2.4917	-2.4396	-2.1813	-2.5438	-2.2729	336.547	177.607	362.057	180.937	520.979	481.848	348.499	254.139	520.381	203.659	185.559	201.702	267.207	322.642	308.917	383.563	0.00027219	0.00031853	0.000115	494.43	6.5465e-06	2.022e-06	566.44	120.95	4.1195e-06	7.6827e-07	169.11	53.633	33.292	11.944	4.9905e-06	24.498	0.0012202	0.0017976	0.00051167	488.76	1.8394e-05	2.0166e-05	561.98	121.77	1.8518e-05	1.9939e-05	169.67	54.101	34.179	12.244	1.912e-05	24.789	259.377	314.883	272.813	180.447	297.502	441.839	179.900	185.670	364.559	306.364	184.174	189.408	190.181	195.381	358.906	192.833	-8191	255	
16718.162	1	1	0	0	0.3519	0.30497	0.17489	0.055534	0.27388	0.16044	0.1625	0.2195	0.036744	0.18044	0.36705	0.1238	0.16877	0.075136	0.13088	0.179	-1.6437	-2.5312	-2.2958	-2.5687	-2.3958	-2.4333	-2.6	-2.2896	-2.4083	-2.5458	-2.3479	-2.5125	-2.5062	-2.0917	-2.3917	-2.3375	526.528	308.388	225.824	168.657	281.322	273.473	413.920	454.219	170.224	359.242	180.569	243.106	211.337	436.827	477.966	183.515	0.00024279	0.00037772	5.5976e-05	496.44	3.6286e-06	5.39e-06	569.76	122.82	2.6718e-06	3.8552e-06	169.24	53.783	33.564	11.941	2.7432e-06	24.31	0.0012534	0.0018013	0.00051113	493.8	1.8553e-05	2.0569e-05	565.65	122.94	1.8922e-05	2.0068e-05	170.47	54.819	34.617	12.378	1.9334e-05	24.859	254.908	269.430	278.740	180.851	235.774	311.025	180.227	185.245	344.362	345.238	184.336	189.012	190.016	195.173	391.409	192.496	-8191	255	
16718.283	1	1	0	0	0.15824	0.2244	0.44523	0.043953	0.2377	0.17112	0.059869	0.17502	0.19333	0.14461	0.12976	0.17477	0.13316	0.17671	0.037036	0.13992	-1.8542	-2.6333	-2.3146	-2.5458	-2.5812	-2.1792	-2.5292	-2.5625	-2.2812	-2.7687	-2.3312	-2.4146	-2.5792	-2.3146	-2.6188	-2.4	291.337	390.470	217.200	246.794	339.357	187.853	197.455	414.723	345.886	518.843	217.693	343.014	309.389	433.856	259.248	526.020	0.0002617	0.00018063	2.8051e-05	498.78	5.4075e-06	7.1123e-07	566.42	122.04	1.4554e-06	5.884e-06	167.27	53.821	33.42	11.825	3.7593e-06	24.333	0.0012379	0.001861	0.0005148	494.57	1.8468e-05	2.0865e-05	563.23	122.7	1.9035e-05	2.0749e-05	168.99	54.44	34.286	12.29	1.9026e-05	24.738	259.272	237.391	248.447	180.510	295.774	241.244	180.253	185.841	229.951	295.330	184.311	189.490	190.954	195.332	394.470	192.037	-8191	255	
16718.379	1	1	0	0	0.10428	0.1209	0.084931	0.30349	0.13964	0.13186	0.13187	0.21028	0.16678	0.08971	0.11343	0.30404	0.026211	0.066663	0.34016	0.24035	-1.8646	-2.4646	-2.2417	-2.2604	-2.4583	-2.3042	-2.5812	-2.5625	-2.2687	-2.6604	-2.1917	-2.2729	-2.6583	-2.1979	-2.5396	-2.5833	173.661	245.526	318.377	437.019	482.702	221.032	172.067	339.446	412.217	489.406	184.073	318.546	446.911	509.508	473.581	206.072	0.00021039	0.00045883	5.2257e-05	494.18	3.3172e-06	2.556e-06	565.2	120.74	2.0369e-06	7.5341e-06	166.21	53	32.728	11.74	2.1517e-06	24.171	0.0012499	0.0018949	0.00052046	490.4	1.849e-05	2.064e-05	560.27	121.55	1.8802e-05	2.0961e-05	167.64	53.769	33.856	12.11	1.9146e-05	24.599	255.690	229.171	306.707	180.547	280.924	305.084	180.252	185.891	398.903	364.363	184.245	189.181	190.657	195.312	298.518	192.620	-8191	255	
16718.475	1	1	0	0	0.17661	0.17188	0.095223	0.3126	0.42486	0.27581	0.22017	0.080003	0.15084	0.00081473	0.0094475	0.075461	0.088268	0.12949	0.0094233	0.2999	-1.6875	-2.6792	-2.3208	-2.1562	-2.7188	-2.1958	-2.5354	-2.6458	-2.2667	-2.6208	-2.2917	-2.2979	-2.7875	-2.2729	-2.3625	-2.6188	297.952	315.409	204.418	227.385	339.533	254.417	386.344	313.535	392.070	180.000	337.023	263.060	188.474	440.882	421.906	254.081	0.00027799	0.00016234	0.00013326	490.15	3.3737e-06	6.1221e-06	568.52	120.98	4.2505e-06	6.9338e-07	167.82	53.368	33.213	11.825	2.8868e-06	24.452	0.001265	0.0019084	0.00051331	488.23	1.882e-05	2.0581e-05	563.7	121.68	1.9058e-05	2.039e-05	169	54.255	34.242	12.195	1.9515e-05	24.863	257.073	289.166	225.666	181.050	259.472	350.334	180.020	185.363	308.957	298.720	184.010	189.085	190.644	195.810	520.365	192.206	-8191	255	
16718.570	1	1	0	0	0.15644	0.075298	0.080798	0.078825	0.16362	0.17304	0.065461	0.12989	0.23375	0.069606	0.12871	0.073729	0.078896	0.20874	0.29431	0.12965	-1.7042	-2.5812	-2.3146	-2.3229	-2.6792	-2.4062	-2.4688	-2.5042	-2.3396	-2.5812	-2.5583	-2.0958	-2.6042	-2.3854	-2.3604	-2.5542	485.768	375.043	425.793	282.005	254.541	184.267	192.743	509.244	335.077	297.809	288.583	307.325	290.805	379.016	249.866	200.477	0.00020477	0.00028393	0.00013565	493.47	9.3343e-07	5.2192e-06	572.18	121.34	2.9229e-06	2.8924e-06	169.83	54.448	33.273	11.862	1.4306e-06	24.554	0.0012781	0.0019022	0.0005189	491.85	1.8446e-05	2.0811e-05	566.59	122.78	1.9198e-05	2.0641e-05	170.83	54.905	34.531	12.326	1.9286e-05	25.036	258.679	210.919	253.891	180.511	428.655	296.494	180.307	185.628	311.884	319.097	184.920	189.550	190.376	195.170	254.000	191.918	-8191	255	
16718.689	1	1	0	0	0.45264	0.1657	0.088743	0.11262	0.20826	0.19827	0.15611	0.17653	0.21199	0.085151	0.16007	0.10533	0.20511	0.20484	0.34408	0.27408	-1.8563	-2.5479	-2.4062	-2.2917	-2.625	-2.375	-2.4375	-2.75	-2.2271	-2.4437	-2.675	-2.3479	-2.4562	-2.5687	-2.3375	-2.5708	361.259	388.783	224.916	230.984	415.128	464.185	202.399	500.258	185.485	427.167	186.189	465.941	341.670	376.593	209.317	236.772	0.00022628	0.00040413	0.00016168	498.1	3.7137e-06	1.1782e-06	574.98	122.65	2.7483e-06	5.5677e-06	168.1	54.065	33.164	11.902	4.1985e-06	24.344	0.0012759	0.0019044	0.00051854	494.64	1.9001e-05	2.0911e-05	568.24	123.17	1.9002e-05	2.0629e-05	170.1	54.63	34.43	12.334	1.9559e-05	24.962	267.545	253.211	236.789	180.725	298.105	350.966	180.133	185.828	259.552	225.679	184.292	189.324	190.144	194.957	312.156	192.514	-8191	255	
16718.762	1	1	0	0	0.092623	0.21499	0.23937	0.11629	0.22684	0.2013	0.1571	0.12966	0.29191	0.18294	0.23107	0.14714	0.17839	0.052109	0.024291	0.063461	-1.8188	-2.4771	-2.4313	-2.0875	-2.6521	-2.3667	-2.1854	-2.4083	-2.3333	-2.3937	-2.5604	-2.0438	-2.4333	-2.4188	-2.1	-2.5958	484.395	441.795	438.355	496.191	215.632	204.137	297.700	176.312	504.626	443.822	389.953	212.293	525.027	514.827	454.589	196.286	0.00024789	0.00021339	4.7782e-05	492.66	3.8296e-06	3.3868e-06	565.13	120.28	7.8218e-07	1.9957e-06	167.35	53.057	32.354	11.889	1.0065e-06	24.301	0.001293	0.0019412	0.00052244	490.74	1.9387e-05	2.0802e-05	562.85	121.3	1.949e-05	2.1322e-05	169.09	54.071	33.972	12.2	2e-05	24.699	263.205	263.421	272.182	180.808	327.046	213.884	180.479	185.408	196.720	405.128	184.660	189.317	190.326	195.142	219.444	192.042	-8191	255	
16718.857	1	1	0	0	0.099388	0.11971	0.11467	0.24393	0.056521	0.20528	0.24066	0.031246	0.3411	0.14866	0.10304	0.13183	0.22104	0.18298	0.23632	0.20628	-1.8729	-2.0625	-2.6729	-2.2146	-2.575	-2.4	-2.2167	-2.5208	-2.2958	-2.4583	-2.7313	-1.9458	-2.5021	-2.3917	-2.2542	-2.7625	406.729	393.510	474.007	401.302	284.711	426.530	350.473	524.689	486.971	449.555	330.788	448.952	498.722	337.830	382.563	444.692	0.00028685	0.00034971	5.8006e-05	491.09	2.2717e-06	2.8306e-06	569.37	119.87	2.8228e-06	3.2525e-06	167.72	53.368	33.317	11.812	2.3033e-06	24.307	0.0012903	0.0019036	0.00052832	487.95	1.904e-05	2.1258e-05	564.04	120.86	1.9478e-05	2.1224e-05	169.1	54.3	34.362	12.188	2.0147e-05	24.837	262.883	349.307	272.361	181.065	279.974	436.568	179.997	185.257	305.845	341.388	184.333	189.255	190.654	194.783	372.589	192.487	-8191	255	
16718.979	1	1	0	0	0.23964	0.073019	0.15725	0.22224	0.082465	0.09533	0.10799	0.26149	0.15778	0.19194	0.11606	0.21176	0.013137	0.18297	0.12794	0.27239	-1.7667	-2.25	-2.5812	-2.3	-2.5708	-2.5708	-2.2458	-2.7062	-2.1792	-2.4271	-2.7521	-2.3146	-2.6	-2.5583	-2.0687	-2.6521	196.125	415.980	247.946	459.292	418.909	418.489	207.446	512.301	170.326	340.243	173.331	329.321	179.822	454.267	400.336	304.049	0.0002957	0.0003348	0.0001236	495.11	1.1898e-06	4.2912e-06	572.22	121.14	2.1452e-06	2.162e-06	169.81	53.978	33.01	11.99	3.6885e-06	24.464	0.0012976	0.0019292	0.00053881	492.53	1.9374e-05	2.1192e-05	568.82	122.05	1.9955e-05	2.1569e-05	170.93	54.706	34.404	12.355	2.0252e-05	25.076	254.034	218.032	297.704	180.996	463.412	277.086	179.957	185.787	305.577	323.881	184.023	189.406	190.249	194.922	334.667	192.724	-8191	255	
16719.074	1	1	0	0	0.049127	0.32545	0.14363	0.18758	0.11041	0.019803	0.23781	0.14666	0.14451	0.17465	0.24258	0.15485	0.27809	0.21849	0.068363	0.10329	-2.0854	-2.0938	-2.7229	-2.2646	-2.4917	-2.6979	-2.2188	-2.6646	-2.5417	-2.2521	-2.7458	-2.2542	-2.3021	-2.5021	-2.3438	-2.4562	415.560	344.721	469.270	337.893	428.923	238.082	180.378	499.676	316.111	322.743	526.413	374.653	516.977	517.937	232.114	328.291	0.0002328	0.00057547	3.0414e-05	494.97	3.6264e-07	1.8207e-06	572.38	121.68	4.1217e-06	2.0953e-06	170.38	54.139	33.586	12.027	9.8869e-06	24.484	0.0012933	0.0019221	0.00053587	493.36	1.8777e-05	2.1208e-05	568.1	122.74	1.9106e-05	2.1274e-05	170.99	54.825	34.662	12.366	1.982e-05	24.903	264.621	261.331	277.436	180.593	389.395	453.507	180.324	185.869	283.730	502.075	184.137	189.262	190.416	195.122	337.738	192.608	-8191	255	
16719.172	1	1	0	0	0.17809	0.31301	0.072521	0.20523	0.25391	0.27177	0.033416	0.29541	0.051921	0.29104	0.053319	0.14211	0.17703	0.088155	0.2143	0.22156	-2.0708	-2.1437	-2.7833	-2.3063	-2.2083	-2.6771	-2.1708	-2.5417	-2.4271	-2.1958	-2.6396	-2.3646	-2.2667	-2.5438	-2.0292	-2.6625	374.195	455.695	507.813	392.949	308.015	376.886	396.332	508.345	261.298	193.366	246.971	360.685	405.792	495.261	196.313	419.341	0.00021435	0.00014508	0.00013386	496.57	4.1499e-06	4.1016e-06	570.78	121.41	1.4484e-06	4.1853e-06	168.65	53.261	33.115	11.863	5.9168e-06	24.408	0.0012961	0.0018984	0.00052918	493.7	1.9417e-05	2.0723e-05	566.04	122.59	1.961e-05	2.0961e-05	169.52	54.255	34.251	12.273	1.9931e-05	24.85	258.155	214.043	234.725	180.331	319.190	279.998	180.182	185.665	483.990	317.024	184.082	189.152	190.405	195.165	347.391	192.480	-8191	255	
16719.268	1	1	0	0	0.19355	0.11818	0.15359	0.094046	0.080354	0.14546	0.074384	0.35923	0.13319	0.26782	0.2085	0.14834	0.1479	0.42111	0.073726	0.18394	-2.2833	-2.2583	-2.5729	-2.4771	-2.4271	-2.6646	-2.1854	-2.4	-2.5646	-2.1583	-2.5229	-2.2833	-2.3354	-2.6958	-2.2292	-2.3625	504.213	436.174	408.241	337.763	338.124	201.129	387.727	454.083	200.101	408.103	410.060	173.240	400.827	322.187	338.824	443.817	0.00025657	0.00068195	9.7141e-05	490.11	8.8206e-06	4.9543e-06	569.32	120.11	3.0128e-06	2.3401e-06	167.72	53.342	33.075	11.652	1.7654e-06	24.23	0.0012899	0.001899	0.00053504	489.14	1.9544e-05	2.1345e-05	562.7	120.79	1.9454e-05	2.122e-05	168.6	54.084	33.946	12.142	2.022e-05	24.76	262.283	302.578	187.020	180.531	348.989	365.874	179.866	185.382	442.162	262.618	184.460	189.371	190.168	194.892	318.607	192.493	-8191	255	
16719.363	1	1	0	0	0.26562	0.12086	0.065056	0.16516	0.25175	0.13062	0.20421	0.18125	0.063327	0.25881	0.047939	0.20968	0.12819	0.42326	0.16852	0.2539	-2	-2.1396	-2.5104	-2.4771	-2.4313	-2.5458	-2.1396	-2.3292	-2.5479	-2.4854	-2.5458	-2.4729	-2.25	-2.4521	-2.3208	-2.2979	355.238	245.312	187.223	346.564	297.191	488.990	499.710	511.874	416.407	392.748	442.854	372.783	477.140	374.399	330.075	392.350	0.0002688	0.00039988	0.00013306	493.47	2.4982e-06	4.1633e-06	570.06	120.06	2.5825e-06	1.4052e-06	168.22	53.635	33.095	11.812	4.666e-07	24.531	0.0012864	0.00193	0.00053682	490.06	1.9182e-05	2.1277e-05	566	121.13	1.9529e-05	2.1658e-05	169.83	54.575	34.16	12.254	1.9832e-05	25.073	248.273	265.572	290.998	180.843	238.100	297.101	180.314	185.571	292.605	214.621	184.524	188.813	190.206	195.208	465.301	192.888	-8191	255	
16719.459	1	1	0	0	0.178	0.11006	0.2117	0.025087	0.17549	0.13635	0.25033	0.42829	0.24291	0.25396	0.24593	0.077936	0.23497	0.24474	0.099157	0.091369	-2.1937	-2.1146	-2.3604	-2.4396	-2.2604	-2.6729	-2.3875	-2.3563	-2.6167	-2.2562	-2.4333	-2.6625	-2.0875	-2.5896	-2.3458	-2.3479	261.792	376.006	274.573	478.466	334.380	320.981	378.877	449.236	296.940	410.817	338.373	184.283	216.078	244.607	490.768	376.486	0.00023229	0.00061971	2.396e-05	491.68	8.0323e-06	3.2541e-06	569.72	120.77	1.7459e-06	1.2131e-06	167.39	53.893	33.019	11.991	1.9767e-06	24.674	0.0013065	0.0019449	0.00054615	490.75	1.9433e-05	2.1633e-05	566.91	121.8	1.983e-05	2.1395e-05	169.17	54.675	34.304	12.338	2.0448e-05	25.058	249.208	249.500	522.574	180.813	327.174	366.790	180.335	185.410	311.537	195.404	184.325	189.518	190.061	194.962	281.857	192.149	-8191	255	
16719.557	1	1	0	0	0.10698	0.22782	0.20141	0.0822	0.18879	0.063207	0.19862	0.28494	0.059458	0.1964	0.27402	0.2705	0.17955	0.1825	0.15828	0.065821	-2.3312	-2.3625	-2.45	-2.7146	-2.2583	-2.55	-2.3042	-2.2833	-2.6875	-2.2417	-2.6188	-2.5375	-2.1875	-2.7021	-2.3479	-2.4062	215.564	479.154	452.307	476.213	345.231	264.384	480.566	415.361	275.132	245.961	179.095	221.639	177.207	186.398	412.471	196.730	0.00023463	0.00011795	8.2799e-05	492.93	2.6087e-06	1.2063e-06	568.64	121.21	4.4205e-06	5.5963e-06	167.3	53.557	32.909	11.825	3.7017e-06	24.422	0.0012874	0.0019393	0.00055036	490.29	1.9457e-05	2.0964e-05	563.59	121.85	1.9713e-05	2.0874e-05	168.71	54.092	34.122	12.255	2.0032e-05	24.891	266.241	338.171	232.370	181.010	310.752	324.325	180.179	185.538	243.873	521.252	184.403	189.263	190.473	194.801	435.787	192.254	-8191	255	
16719.652	1	1	0	0	0.17609	0.18486	0.10817	0.28086	0.14777	0.011994	0.29048	0.18587	0.11783	0.12016	0.1276	0.26841	0.13385	0.25243	0.33343	0.16238	-2.1688	-2.2208	-2.3625	-2.6229	-2.0438	-2.6646	-2.4979	-2.2146	-2.6521	-2.2417	-2.4479	-2.5438	-2.0312	-2.5333	-2.3354	-2.2833	381.333	211.187	271.066	491.935	319.409	410.210	195.392	473.981	429.416	245.317	478.895	303.863	526.543	477.844	507.098	210.957	0.00025932	0.00031966	3.1766e-05	490.18	5.6457e-06	7.6766e-06	562.34	119.5	6.7416e-06	1.975e-06	166.23	53.132	32.741	11.848	1.8794e-06	24.155	0.0012769	0.0018827	0.00052713	488.47	1.9543e-05	2.0933e-05	560.43	121.07	1.9827e-05	2.0925e-05	168.2	53.799	33.879	12.162	1.9837e-05	24.623	268.222	240.656	484.051	180.925	315.822	341.202	180.504	185.708	316.413	281.206	184.095	189.008	190.394	194.834	335.164	192.777	-8191	255	
16719.771	1	1	0	0	0.13242	0.11785	0.143	0.15185	0.054354	0.15312	0.10243	0.32886	0.19907	0.13395	0.045555	0.087183	0.17496	0.10452	0.18633	0.17528	-2.2146	-2.2375	-2.2875	-2.6188	-2.1562	-2.4125	-2.6542	-2.1771	-2.6271	-2.1583	-2.3063	-2.5	-2.2604	-2.4417	-2.3604	-2.2479	216.829	323.932	519.413	521.476	415.728	513.831	402.834	507.532	203.392	423.873	354.403	180.534	437.629	240.630	338.620	319.072	0.00026855	0.00043769	0.00014292	487.65	5.0566e-06	3.6984e-06	567.14	120	1.7487e-06	4.7024e-06	167.01	53.538	32.839	11.798	2.9342e-06	24.484	0.0012502	0.0018826	0.00052817	485.67	1.9022e-05	2.0866e-05	561.52	121.18	1.96e-05	2.0927e-05	168.52	54.232	34.072	12.176	1.9447e-05	24.851	279.482	278.418	234.956	180.503	241.227	303.286	179.903	185.688	328.580	218.536	184.741	188.766	190.146	195.114	296.922	192.525	-8191	255	
16719.867	1	1	0	0	0.12445	0.21665	0.065167	0.17032	0.15956	0.1638	0.11866	0.29185	0.081298	0.076587	0.1608	0.36461	0.031966	0.11739	0.17972	0.16452	-2.1292	-2.2875	-2.1958	-2.7271	-2.1979	-2.2938	-2.5292	-2.2229	-2.5583	-2.5146	-2.3125	-2.5917	-2.3208	-2.3688	-2.5646	-2.1208	402.758	398.647	171.876	507.989	268.736	176.052	254.658	456.156	359.655	477.697	283.194	426.866	516.866	323.523	466.840	398.276	0.00025459	0.00023033	0.00011509	493.07	2.7742e-06	9.9173e-07	567.31	121.24	2.7822e-06	9.261e-07	168.39	53.322	33.327	11.932	7.3027e-06	24.346	0.0012448	0.001888	0.00052556	489.11	1.9483e-05	2.0641e-05	563.4	122.05	1.9301e-05	2.0869e-05	169.75	54.293	34.372	12.271	1.9561e-05	24.901	258.850	205.563	266.332	180.987	324.437	235.976	180.081	185.564	335.227	338.569	184.678	189.224	190.316	194.937	276.587	192.466	-8191	255	
16719.963	1	1	0	0	0.17794	0.11321	0.12032	0.39022	0.14883	0.080302	0.32679	0.18953	0.31275	0.26561	0.25144	0.07759	0.06402	0.051855	0.17382	0.11334	-2.0771	-2.5187	-2.2958	-2.6667	-2.4292	-2.5229	-2.7854	-2.1958	-2.5333	-2.4979	-2.2938	-2.5875	-2.4583	-2.4583	-2.5979	-2.3187	215.996	359.773	312.492	180.485	415.200	354.170	476.281	349.442	431.965	236.938	199.584	218.325	421.581	445.178	491.698	524.782	0.0002258	0.00016342	3.1398e-05	494.16	4.722e-06	4.1937e-07	563.61	121.13	6.5001e-06	4.3602e-06	167.02	52.999	32.577	11.684	4.7851e-06	23.863	0.0012453	0.0018792	0.00051641	489.4	1.8924e-05	2.0887e-05	559.08	121.76	1.9324e-05	2.0918e-05	168.34	53.882	34.059	12.103	1.9464e-05	24.372	252.997	451.067	214.761	180.746	195.294	386.126	180.284	185.690	330.259	335.043	184.169	189.389	190.261	195.209	322.880	192.306	-8191	255	
16720.059	1	1	0	0	0.16826	0.35797	0.15778	0.037158	0.31397	0.067152	0.17718	0.10767	0.12536	0.11541	0.16076	0.081768	0.11641	0.070254	0.097439	0.24662	-2.0646	-2.3771	-2.2896	-2.8604	-2.4021	-2.3312	-2.5917	-2.3625	-2.5187	-2.6042	-2.4562	-2.5458	-2.325	-2.3854	-2.6021	-2.2583	441.097	345.431	386.030	416.266	502.891	397.344	465.613	273.928	319.763	229.892	373.247	466.351	255.721	370.020	266.052	501.703	0.00025897	0.00049786	0.00010044	488.07	3.4427e-06	4.1922e-06	558.28	119.7	2.1226e-06	6.0689e-06	164.54	52.466	33.405	11.616	6.5221e-06	23.926	0.0012296	0.0018239	0.00051244	485.88	1.8428e-05	2.0698e-05	553.68	121.46	1.8912e-05	2.0328e-05	166.06	53.123	34.021	12.043	1.9272e-05	24.213	258.675	265.315	394.261	180.685	320.479	337.754	179.987	185.669	225.117	383.492	184.323	189.438	189.726	195.000	376.823	192.559	-8191	255	
16720.154	1	1	0	0	0.1883	0.1316	0.21015	0.16865	0.17725	0.31241	0.31588	0.11517	0.11827	0.17972	0.1357	0.060861	0.34385	0.065535	0.070771	0.15228	-1.9312	-2.6042	-1.9333	-2.5208	-2.4229	-2.2792	-2.6063	-2.2479	-2.4604	-2.6479	-2.2792	-2.55	-2.4375	-2.1375	-2.7938	-2.3354	522.450	216.937	452.883	525.820	182.619	275.785	455.266	467.574	480.972	313.061	272.244	360.222	447.512	387.939	184.508	447.125	0.00021023	0.00032375	3.2787e-05	492.09	3.9547e-06	1.8856e-06	555.62	121.68	1.8579e-07	1.9948e-06	167.7	52.539	33.171	11.761	6.7215e-06	23.772	0.0012178	0.0018028	0.00051127	485.99	1.7862e-05	1.9704e-05	551.99	122.29	1.7906e-05	1.9487e-05	167.92	53.214	34.217	12.142	1.8596e-05	24.309	267.791	462.142	290.080	180.924	304.243	362.702	180.382	185.394	254.250	254.915	184.360	189.308	190.168	194.923	255.033	192.373	-8191	255	
16720.252	1	1	0	0	0.11273	0.29428	0.39037	0.086352	0.1149	0.061422	0.13487	0.14068	0.19725	0.1058	0.15234	0.15993	0.25382	0.23152	0.073073	0.3729	-1.9167	-2.4104	-2.1875	-2.6604	-2.5312	-2.2042	-2.6771	-2.4042	-2.3479	-2.6667	-2.1229	-2.4229	-2.5187	-2.1063	-2.6542	-2.2854	248.879	360.484	433.174	248.143	310.697	349.193	491.322	318.841	482.210	320.366	215.276	405.040	275.294	460.269	205.036	409.235	0.00023565	0.00016072	4.9616e-05	494.37	1.0952e-06	4.3438e-06	560.73	121.93	5.8815e-06	4.774e-06	166.87	53.15	33.323	11.805	2.6016e-06	23.823	0.0011927	0.0017349	0.00049902	490.81	1.7881e-05	1.9306e-05	555.86	123.05	1.8113e-05	1.9666e-05	168.34	53.64	34.418	12.127	1.8577e-05	24.23	249.009	233.971	526.046	180.787	255.851	295.649	179.735	185.284	320.213	334.753	184.063	189.080	190.373	195.155	298.993	192.186	-8191	255	
16720.371	1	1	0	0	0.22105	0.19111	0.22958	0.14564	0.11255	0.071523	0.065548	0.32406	0.14699	0.29571	0.21743	0.060894	0.17835	0.18816	0.056444	0.28331	-1.8479	-2.6917	-2.125	-2.4938	-2.5542	-2.1667	-2.6604	-2.4417	-2.3292	-2.6979	-2.3937	-2.4458	-2.4146	-2.1833	-2.7375	-2.2979	216.517	361.615	411.605	471.261	272.452	271.323	355.033	466.574	502.872	466.835	406.616	493.335	373.754	429.164	483.216	304.331	0.00019775	0.00033288	4.596e-05	493.88	4.8997e-06	3.0024e-06	553.84	121.89	2.5359e-06	1.5554e-06	164.98	52.377	33.131	11.677	1.7294e-06	23.553	0.001184	0.0017358	0.00047856	488.31	1.7541e-05	1.9587e-05	549.98	122.6	1.7889e-05	1.972e-05	166.19	52.692	34.097	12.025	1.7932e-05	23.89	256.094	295.953	270.742	180.618	327.488	258.466	180.123	185.435	246.112	374.945	184.187	188.759	190.900	195.102	309.098	192.184	-8191	255	
16720.469	1	1	0	0	0.14866	0.11212	0.33894	0.26344	0.097348	0.18074	0.41806	0.48867	0.31932	0.13104	0.10078	0.070106	0.19842	0.22407	0.28509	0.20326	-1.7604	-2.4062	-2.325	-2.4375	-2.3583	-2.2833	-2.6375	-2.4958	-2.2333	-2.625	-2.5146	-2.575	-2.5563	-2.2667	-2.5625	-2.5583	315.167	323.926	220.576	495.339	431.896	455.281	415.475	468.783	423.124	499.525	398.027	249.905	439.029	254.972	478.988	522.213	0.00025089	0.00013076	6.6926e-05	488.46	4.9061e-06	1.0646e-06	549.19	120.29	4.5159e-06	4.8864e-06	164.66	51.397	32.76	11.57	6.4647e-06	23.34	0.0011807	0.0017425	0.00048907	484.49	1.7704e-05	1.8937e-05	543	121.1	1.7718e-05	1.9174e-05	164.99	52.322	33.828	11.925	1.8268e-05	23.786	252.750	240.074	189.833	180.837	351.796	487.466	180.106	185.713	316.604	304.257	184.252	189.200	190.403	194.643	327.090	192.209	-8191	255	
16720.564	1	1	0	0	0.15196	0.24184	0.12226	0.29764	0.091203	0.13296	0.075184	0.27781	0.14242	0.12985	0.34309	0.34245	0.37659	0.2096	0.084805	0.24317	-1.8104	-2.6375	-2.5104	-2.5708	-2.7438	-2.3583	-2.6417	-2.6063	-2.1375	-2.5792	-2.2542	-2.3875	-2.6208	-2.3146	-2.4104	-2.6875	353.848	305.647	479.264	467.853	350.099	491.667	350.379	459.641	357.110	271.671	447.760	479.824	314.531	519.805	490.666	180.476	0.00022763	0.00033621	0.00012824	487.69	2.9587e-06	5.7252e-06	554.35	121.69	3.4706e-06	2.6631e-06	165.01	52.875	33.119	11.717	1.803e-06	23.937	0.0011639	0.0017214	0.00048281	485.79	1.7464e-05	1.9164e-05	548.45	122.65	1.7838e-05	1.9241e-05	166.33	53.275	34.264	12.143	1.8284e-05	24.167	267.561	474.339	229.398	180.524	226.063	329.332	180.161	185.876	270.331	434.499	184.102	189.122	190.049	195.009	281.677	192.649	-8191	255	
16720.658	1	1	0	0	0.10304	0.18103	0.1486	0.26991	0.23396	0.018172	0.18845	0.2361	0.12083	0.24236	0.26823	0.20937	0.054181	0.13124	0.23583	0.13667	-1.7417	-2.5875	-2.4208	-2.6	-2.5667	-2.3354	-2.5229	-2.8937	-2.2396	-2.7	-2.3667	-2.2854	-2.6708	-2.2479	-2.4	-2.6708	230.487	473.583	480.216	387.213	338.537	277.671	253.878	459.759	438.390	249.067	184.282	350.786	230.656	462.476	457.737	177.449	0.0002371	0.00031211	0.00010369	494.41	6.9974e-07	4.8891e-06	561.55	123.91	4.7217e-06	4.9337e-06	169.87	53.949	33.655	12.079	4.3513e-06	24.28	0.0011568	0.0017195	0.00047504	489.31	1.7509e-05	1.8838e-05	554.69	123.95	1.7855e-05	1.9731e-05	169.76	54.474	34.92	12.414	1.8328e-05	24.712	256.957	306.502	304.060	180.618	328.515	408.929	180.072	185.284	339.925	363.640	183.973	189.327	189.798	195.134	322.476	192.406	-8191	255	
16720.756	1	1	0	0	0.22872	0.079909	0.24884	0.23199	0.16944	0.2887	0.15054	0.19789	0.10252	0.046583	0.096052	0.36425	0.086164	0.050879	0.071852	0.11056	-1.8937	-2.4938	-2.4542	-2.4	-2.6875	-2.3729	-2.3854	-2.6646	-2.1312	-2.3812	-2.5146	-2.3208	-2.4708	-2.3187	-2.4292	-2.4542	355.438	331.515	265.857	469.278	381.294	170.150	170.148	478.892	507.875	470.808	218.724	317.785	265.600	307.439	393.493	526.517	0.00027911	0.00038823	0.00012309	495.84	3.5445e-06	2.9623e-06	564.56	122.54	3.8037e-06	6.1828e-06	169.2	53.812	34.074	12.085	5.6218e-06	24.633	0.0011938	0.0017638	0.00048073	491.94	1.8196e-05	1.9334e-05	558.38	123.73	1.7863e-05	1.9647e-05	170.15	54.419	35.149	12.498	1.8228e-05	24.886	249.887	229.505	283.583	180.572	286.736	256.478	180.175	185.480	252.688	366.050	183.819	188.874	190.666	194.920	276.892	192.308	-8191	255	
16720.852	1	1	0	0	0.1961	0.045113	0.28806	0.22561	0.26232	0.21663	0.19311	0.068941	0.18714	0.11261	0.14783	0.11113	0.14199	0.47606	0.22738	0.094601	-1.8312	-2.4188	-2.4833	-2.2062	-2.6937	-2.5021	-2.4542	-2.5	-2.25	-2.4188	-2.55	-2.1958	-2.7229	-2.3042	-2.2792	-2.7292	192.475	502.091	390.009	516.433	298.631	445.276	218.125	358.358	441.943	370.700	435.207	456.905	405.109	492.666	454.332	488.416	0.00025847	0.00022039	4.5152e-05	494.34	2.3235e-06	4.7267e-06	560.77	123.81	3.3783e-06	8.1277e-06	168.59	53.747	34.036	12.125	2.3869e-06	24.452	0.0011847	0.0017247	0.00048645	492.78	1.768e-05	1.8742e-05	556.17	124.84	1.7616e-05	1.9304e-05	169.7	54.442	34.997	12.499	1.7948e-05	24.869	262.410	197.805	362.294	180.753	320.939	322.852	180.106	185.599	290.085	302.297	184.415	188.747	190.330	195.123	354.588	192.167	-8191	255	
16720.947	1	1	0	0	0.079654	0.18653	0.27256	0.18941	0.14379	0.4099	0.23154	0.15023	0.098396	0.10698	0.11411	0.22168	0.31972	0.040718	0.040171	0.19977	-1.9042	-2.4646	-2.6229	-2.1896	-2.5687	-2.5604	-2.3688	-2.6771	-2.3688	-2.4417	-2.6229	-2.2896	-2.7292	-2.5792	-2.1312	-2.5917	276.458	485.175	360.447	496.598	314.754	500.168	481.650	323.586	516.240	390.632	229.933	494.417	392.368	185.084	336.375	463.361	0.00030706	0.00040687	3.2888e-05	494.53	3.2698e-06	4.4912e-06	561.67	124.6	6.3328e-07	3.7382e-06	170.04	53.82	34.455	12.113	4.2294e-06	24.47	0.001178	0.0017461	0.00047904	489.68	1.7975e-05	1.9526e-05	559.29	124.66	1.7874e-05	1.9986e-05	170.79	54.551	35.114	12.471	1.829e-05	24.833	256.725	311.137	437.469	180.702	379.885	325.923	180.016	185.599	470.932	220.962	184.109	188.604	190.366	194.523	250.268	192.149	-8191	255	
16721.068	1	1	0	0	0.094108	0.28757	0.21919	0.12789	0.2191	0.071123	0.16258	0.034359	0.084869	0.172	0.30321	0.28535	0.2354	0.15265	0.018049	0.21748	-2.0542	-2.3979	-2.6604	-2.1229	-2.5146	-2.5646	-2.2521	-2.5333	-2.2458	-2.4125	-2.7146	-2.3583	-2.4771	-2.5542	-2.2542	-2.5875	356.651	438.758	378.431	361.167	388.259	515.256	458.975	201.264	246.276	505.785	454.294	483.312	295.002	404.769	179.490	409.893	0.00024975	0.00039442	4.8077e-05	495.29	2.5593e-06	2.0792e-06	564.04	123.69	1.151e-06	4.3499e-06	170.43	54.161	33.898	12.169	6.1863e-07	24.5	0.0011816	0.00174	0.0004834	491.79	1.7868e-05	1.9176e-05	560.35	123.85	1.7973e-05	1.9711e-05	170.71	54.892	35.037	12.494	1.8352e-05	24.954	258.784	318.419	271.793	180.848	382.512	269.720	179.757	185.513	178.516	235.605	184.288	189.170	190.368	194.623	230.607	192.539	-8191	255	
16721.164	1	1	0	0	0.13627	0.13515	0.10147	0.13043	0.085124	0.11233	0.06909	0.12399	0.25886	0.067348	0.21746	0.10358	0.21991	0.13439	0.158	0.11155	-2.0229	-2.3125	-2.625	-2.1458	-2.5438	-2.6104	-2.1167	-2.5938	-2.5208	-2.3229	-2.5875	-2.1979	-2.6021	-2.3792	-2.2	-2.8833	450.838	219.042	241.742	198.008	369.506	412.570	315.348	372.687	350.559	191.661	222.812	364.818	376.036	199.867	239.068	205.224	0.00026695	0.00012999	0.00012765	498.96	9.3119e-07	1.7548e-06	570.29	125.99	9.2115e-07	2.7008e-06	172.68	54.997	34.402	12.315	4.0346e-06	24.708	0.0011779	0.0017623	0.00048867	495.44	1.7682e-05	1.9049e-05	564.18	125.91	1.7656e-05	1.9214e-05	172.86	55.465	35.577	12.624	1.8154e-05	25.127	255.709	277.691	232.393	180.758	222.770	335.754	179.927	185.699	419.863	281.794	184.454	188.863	189.255	194.986	315.207	192.632	-8191	255	
16721.260	1	1	0	0	0.13679	0.15512	0.073856	0.23112	0.076168	0.063396	0.4207	0.1421	0.057236	0.23614	0.089615	0.10789	0.059069	0.085977	0.096211	0.073409	-2.0812	-2.4437	-2.7125	-2.3333	-2.6208	-2.6937	-2.3292	-2.4917	-2.4062	-2.2083	-2.6813	-2.3646	-2.3625	-2.6771	-2.1521	-2.5396	240.032	303.843	497.675	194.808	271.422	465.405	482.790	219.100	473.792	348.388	256.170	510.254	299.868	431.299	178.730	226.773	0.00027638	0.00034379	0.00010676	499.02	2.3611e-06	3.9779e-06	567.18	124.87	2.4925e-06	3.1134e-06	172.17	54.807	34.647	12.339	8.1804e-07	24.393	0.0011628	0.0017447	0.00048705	496.13	1.7649e-05	1.9405e-05	564.6	125.85	1.7612e-05	1.9345e-05	172.4	55.296	35.691	12.621	1.8115e-05	24.89	264.341	278.273	298.190	180.555	374.962	262.695	180.113	185.811	328.289	358.609	184.256	188.932	190.183	195.097	251.151	192.459	-8191	255	
#DATA ENDS
