BOXY.EXE: ISS Imagent and Oximeter Data Acquisition Program Version 0.80
Ascii Record File

#ACQ INFORMATION
2  Detector Channels 
16  External MUX Channels 
1  Auxiliary Channels 
5000  Waveform (CCF) Frequency (Hz)
1  Waveforms Skipped 
30  Waveforms Averaged 
1  Cycles Averaged 
16  Acquisitions per Waveform 
10.0806  Updata Rate (Hz) 

#FILE INFORMATION
TRUE -- External MUX Channel results are PARSED.
FALSE -- AC DC and Phase are NOT grouped.
TRUE -- Companion Program Settings File CREATED.
FALSE -- AC data not excluded
FALSE -- DC data not excluded
FALSE -- Phase data not excluded
FALSE -- Auxillary Chn. data not excluded
Tab delimiters

#CALIBRATION STATE
TRUE -- Waveform Calibration Values APPLIED.


#AUX CALIBRATION VALUES
Val Type	aux-1	

Term	1.0000e+00	
Factor	0.0000e+00	


#WF CALIBRATION VALUES
A = Detector Channel
Val Type	A-AC1	A-AC2	A-AC3	A-AC4	A-AC5	A-AC6	A-AC7	A-AC8	A-AC9	A-AC10	A-AC11	A-AC12	A-AC13	A-AC14	A-AC15	A-AC16	A-DC1	A-DC2	A-DC3	A-DC4	A-DC5	A-DC6	A-DC7	A-DC8	A-DC9	A-DC10	A-DC11	A-DC12	A-DC13	A-DC14	A-DC15	A-DC16	A-Ph1	A-Ph2	A-Ph3	A-Ph4	A-Ph5	A-Ph6	A-Ph7	A-Ph8	A-Ph9	A-Ph10	A-Ph11	A-Ph12	A-Ph13	A-Ph14	A-Ph15	A-Ph16	

Term	0.00000e+00	0.00000e+00	0.00000e+00	0.00000e+00	0.00000e+00	0.00000e+00	0.00000e+00	0.00000e+00	0.00000e+00	0.00000e+00	0.00000e+00	0.00000e+00	0.00000e+00	0.00000e+00	0.00000e+00	0.00000e+00	0.00000e+00	0.00000e+00	0.00000e+00	0.00000e+00	0.00000e+00	0.00000e+00	0.00000e+00	0.00000e+00	0.00000e+00	0.00000e+00	0.00000e+00	0.00000e+00	0.00000e+00	0.00000e+00	0.00000e+00	0.00000e+00	0.00000e+00	0.00000e+00	0.00000e+00	0.00000e+00	0.00000e+00	0.00000e+00	0.00000e+00	0.00000e+00	0.00000e+00	0.00000e+00	0.00000e+00	0.00000e+00	0.00000e+00	0.00000e+00	0.00000e+00	0.00000e+00	
Factor	1.00000e+00	1.00000e+00	1.00000e+00	1.00000e+00	1.00000e+00	1.00000e+00	1.00000e+00	1.00000e+00	1.00000e+00	1.00000e+00	1.00000e+00	1.00000e+00	1.00000e+00	1.00000e+00	1.00000e+00	1.00000e+00	1.00000e+00	1.00000e+00	1.00000e+00	1.00000e+00	1.00000e+00	1.00000e+00	1.00000e+00	1.00000e+00	1.00000e+00	1.00000e+00	1.00000e+00	1.00000e+00	1.00000e+00	1.00000e+00	1.00000e+00	1.00000e+00	X	X	X	X	X	X	X	X	X	X	X	X	X	X	X	X	

B = Detector Channel
Val Type	B-AC1	B-AC2	B-AC3	B-AC4	B-AC5	B-AC6	B-AC7	B-AC8	B-AC9	B-AC10	B-AC11	B-AC12	B-AC13	B-AC14	B-AC15	B-AC16	B-DC1	B-DC2	B-DC3	B-DC4	B-DC5	B-DC6	B-DC7	B-DC8	B-DC9	B-DC10	B-DC11	B-DC12	B-DC13	B-DC14	B-DC15	B-DC16	B-Ph1	B-Ph2	B-Ph3	B-Ph4	B-Ph5	B-Ph6	B-Ph7	B-Ph8	B-Ph9	B-Ph10	B-Ph11	B-Ph12	B-Ph13	B-Ph14	B-Ph15	B-Ph16	

Term	0.00000e+00	0.00000e+00	0.00000e+00	0.00000e+00	0.00000e+00	0.00000e+00	0.00000e+00	0.00000e+00	0.00000e+00	0.00000e+00	0.00000e+00	0.00000e+00	0.00000e+00	0.00000e+00	0.00000e+00	0.00000e+00	0.00000e+00	0.00000e+00	0.00000e+00	0.00000e+00	0.00000e+00	0.00000e+00	0.00000e+00	0.00000e+00	0.00000e+00	0.00000e+00	0.00000e+00	0.00000e+00	0.00000e+00	0.00000e+00	0.00000e+00	0.00000e+00	2.53724e+01	-1.25825e+02	-1.32423e+02	-1.86157e+02	-5.31231e+01	-7.74207e+01	-1.59021e+02	-1.62015e+02	-9.81342e+01	-6.42266e+01	-1.73719e+02	-1.69925e+02	-1.79918e+02	-1.77120e+02	-6.73402e+01	-1.50188e+02	
Factor	4.43643e-05	1.31752e-04	3.84766e-05	6.00296e-01	1.09162e-06	1.23883e-06	1.58776e-01	4.81384e-02	1.60025e-06	1.38813e-06	8.39062e-02	2.75674e-02	2.39658e-02	9.07276e-03	1.49700e-06	1.30833e-02	1.61200e-06	1.67637e-06	4.65165e-07	2.83808e-01	1.83225e-08	1.83332e-08	7.47258e-02	2.41391e-02	1.82575e-08	1.83873e-08	4.04860e-02	1.32768e-02	1.20086e-02	4.53932e-03	1.82600e-08	6.30792e-03	X	X	X	X	X	X	X	X	X	X	X	X	X	X	X	X	



#DISTANCE SETTINGS
A = Detector Channel
A-1	A-2	A-3	A-4	A-5	A-6	A-7	A-8	A-9	A-10	A-11	A-12	A-13	A-14	A-15	A-16	

2.5000e+00	3.0000e+00	2.5000e+00	3.0000e+00	2.0000e+00	3.0000e+00	1.5000e+00	3.0000e+00	3.0000e+00	3.0000e+00	3.0000e+00	3.0000e+00	3.0000e+00	3.0000e+00	1.5000e+00	3.0000e+00	

B = Detector Channel
B-1	B-2	B-3	B-4	B-5	B-6	B-7	B-8	B-9	B-10	B-11	B-12	B-13	B-14	B-15	B-16	

1.0000e+01	1.0000e+01	1.0000e+01	1.4400e+00	1.0000e+01	1.0000e+01	1.5100e+00	1.9400e+00	1.0000e+01	1.0000e+01	1.9900e+00	2.4900e+00	2.4100e+00	2.9000e+00	1.0000e+01	2.9800e+00	




#DATA BEGINS
time	group	step	mark	flag	A-AC1	A-AC2	A-AC3	A-AC4	A-AC5	A-AC6	A-AC7	A-AC8	A-AC9	A-AC10	A-AC11	A-AC12	A-AC13	A-AC14	A-AC15	A-AC16	A-DC1	A-DC2	A-DC3	A-DC4	A-DC5	A-DC6	A-DC7	A-DC8	A-DC9	A-DC10	A-DC11	A-DC12	A-DC13	A-DC14	A-DC15	A-DC16	A-Ph1	A-Ph2	A-Ph3	A-Ph4	A-Ph5	A-Ph6	A-Ph7	A-Ph8	A-Ph9	A-Ph10	A-Ph11	A-Ph12	A-Ph13	A-Ph14	A-Ph15	A-Ph16	B-AC1	B-AC2	B-AC3	B-AC4	B-AC5	B-AC6	B-AC7	B-AC8	B-AC9	B-AC10	B-AC11	B-AC12	B-AC13	B-AC14	B-AC15	B-AC16	B-DC1	B-DC2	B-DC3	B-DC4	B-DC5	B-DC6	B-DC7	B-DC8	B-DC9	B-DC10	B-DC11	B-DC12	B-DC13	B-DC14	B-DC15	B-DC16	B-Ph1	B-Ph2	B-Ph3	B-Ph4	B-Ph5	B-Ph6	B-Ph7	B-Ph8	B-Ph9	B-Ph10	B-Ph11	B-Ph12	B-Ph13	B-Ph14	B-Ph15	B-Ph16	aux-1	digaux	

3165.350	1	1	0	768	0.037366	0.097422	0.23528	0.14489	0.23199	0.33205	0.12008	0.35548	0.23661	0.18752	0.20583	0.044844	0.032551	0.13712	0.22105	0.14011	-2.2979	-3.2313	-2.6625	-2.9083	-2.9188	-2.7333	-3.0583	-2.8917	-2.8583	-3.0125	-2.8104	-2.9417	-2.8542	-2.8937	-2.875	-2.9375	188.972	427.115	373.063	171.453	412.136	205.224	185.945	510.647	472.675	291.556	350.357	215.852	443.369	220.918	291.467	474.929	0.00058791	0.00069936	5.9175e-05	273.18	9.1991e-06	1.1429e-05	263.29	89.987	1.8763e-05	1.0649e-05	106.23	38.535	35.039	18.074	1.2711e-05	20.48	0.0049577	0.0047374	0.0014357	1140.4	5.5829e-05	5.1984e-05	489.04	163.19	5.4931e-05	5.1833e-05	227.75	78.811	70.07	30.769	5.6813e-05	39.434	337.867	225.489	264.294	175.168	308.072	167.154	172.531	180.158	314.712	267.402	176.421	181.286	184.658	190.016	310.639	185.502	-8191	255	
3165.446	1	1	0	0	0.16248	0.17818	0.14348	0.17354	0.16002	0.1656	0.088237	0.14486	0.34377	0.11075	0.19031	0.13204	0.15808	0.058294	0.16964	0.12916	-2.1604	-2.9208	-2.7583	-2.6979	-3	-2.6167	-3.1333	-2.6854	-2.7313	-3.0917	-2.9354	-2.7458	-3.05	-2.8042	-3.1104	-2.9271	466.120	182.871	394.258	247.210	406.814	473.200	420.074	401.828	502.650	292.691	425.271	310.954	475.528	491.155	379.189	368.923	0.0003613	0.00085154	0.00035932	269.91	1.3865e-05	9.4987e-06	258.62	87.471	2.2584e-05	1.6082e-05	100.21	36.827	33.868	17.633	3.3881e-06	19.717	0.0047141	0.00474	0.0014298	1105.8	5.1672e-05	5.1799e-05	478.58	157.32	5.0528e-05	5.1762e-05	219.1	74.732	65.902	30.281	5.4532e-05	38.071	439.794	504.359	220.470	174.269	430.845	177.214	173.050	179.886	369.972	256.273	177.188	181.873	184.904	189.063	355.211	186.051	-8191	255	
3165.542	1	1	0	0	0.024032	0.089005	0.30336	0.035524	0.17741	0.21552	0.14137	0.16864	0.10599	0.15385	0.31611	0.15471	0.22569	0.17013	0.074121	0.088858	-2.4354	-3.0521	-2.675	-2.6437	-3.0292	-2.7229	-2.9104	-2.9583	-2.8021	-3.0583	-2.9125	-2.7583	-3.0458	-2.5417	-2.8958	-2.85	326.949	254.903	441.950	373.582	185.324	169.132	320.769	445.263	435.786	277.240	384.449	317.261	481.789	504.846	411.015	492.884	0.0003084	0.0011163	0.0001705	274.17	3.507e-06	1.0143e-05	258.3	87.571	1.491e-05	1.1097e-05	102.37	36.937	34.592	17.658	6.8304e-06	20.057	0.0044237	0.004856	0.0014037	1094.3	4.9842e-05	5.3811e-05	476.68	157.51	4.9481e-05	5.4092e-05	220.48	75.205	66.279	31.213	5.488e-05	38.261	431.274	453.535	188.113	173.821	186.302	486.579	173.120	180.211	201.769	221.296	176.757	182.323	184.810	189.635	216.506	185.502	-8191	255	
3165.638	1	1	0	0	0.22659	0.14929	0.24472	0.037774	0.10946	0.10186	0.10362	0.029247	0.09088	0.12647	0.047894	0.068514	0.22398	0.094835	0.13866	0.26922	-2.175	-2.95	-2.7083	-2.6917	-3.1667	-2.4458	-2.8812	-2.8667	-2.6021	-2.9896	-2.6979	-2.6437	-2.8875	-2.8583	-2.8104	-3.1396	232.000	346.800	495.939	200.214	440.145	230.814	420.729	468.445	330.122	272.138	226.219	218.451	172.622	317.392	341.726	480.027	0.00075682	0.0011455	7.6924e-05	276.73	3.4853e-06	9.1336e-06	261.41	88.754	2.5722e-05	1.8587e-05	103.43	38.017	35.361	17.956	2.0201e-05	20.384	0.0044765	0.0050911	0.0014113	1085	5.0616e-05	5.5741e-05	481.41	156.73	5.1028e-05	5.5595e-05	222.4	74.743	67.794	31.555	5.415e-05	37.752	346.660	432.196	282.738	174.478	368.721	445.034	172.833	180.556	183.782	299.268	176.711	182.350	184.024	189.814	309.162	186.105	-8191	255	
3165.734	1	1	0	0	0.03454	0.27461	0.13122	0.078403	0.17707	0.22351	0.14639	0.17889	0.12564	0.24044	0.094726	0.12681	0.32514	0.09502	0.15982	0.34414	-2.1583	-2.95	-3.0104	-2.6188	-3.1042	-2.5875	-3.1229	-2.9958	-2.6771	-2.8417	-2.9271	-2.4292	-2.8812	-2.7625	-2.5312	-3.0625	462.671	426.301	278.351	328.867	211.871	516.661	221.205	171.419	179.129	170.613	280.462	334.962	329.358	374.583	247.568	192.272	0.00095644	0.0016939	0.00028025	273.67	1.9095e-05	3.623e-06	262.51	88.972	1.366e-06	2.0802e-05	104.49	37.697	34.19	18.018	2.6401e-06	20.161	0.0045905	0.0050457	0.0013803	1044.5	5.246e-05	5.5172e-05	482.67	154.08	5.2788e-05	5.4753e-05	219.62	72.382	67.478	30.847	5.1479e-05	36.067	319.759	320.321	301.698	174.124	205.445	279.563	172.480	180.157	464.340	333.509	177.339	182.114	184.189	189.814	170.693	185.509	-8191	255	
3165.830	1	1	0	0	0.135	0.26108	0.21068	0.25601	0.086386	0.18727	0.052393	0.027497	0.20714	0.10606	0.086471	0.12197	0.11137	0.20733	0.18707	0.31926	-2.2583	-2.8292	-2.9062	-2.4062	-2.9396	-2.4021	-2.625	-3.0062	-2.5687	-2.9167	-2.9542	-2.6188	-2.9208	-2.9	-2.6	-3.1729	418.231	197.941	493.686	390.631	220.739	350.624	519.835	238.699	316.805	179.176	259.310	309.131	393.311	185.974	476.668	404.784	0.00084576	0.00086156	0.00076274	264.99	1.1193e-05	1.4179e-05	258.35	87.066	1.3198e-05	1.2554e-05	100.4	37.069	33.736	17.779	1.4984e-05	20.038	0.004513	0.004716	0.0012777	974.72	5.0799e-05	5.1204e-05	456.44	146.94	5.1302e-05	5.1656e-05	208.6	70.325	67.434	30.371	4.9346e-05	36.198	336.749	388.592	299.354	174.077	348.383	248.305	172.768	180.490	284.142	299.636	177.519	182.041	183.825	190.247	320.203	185.263	-8191	255	
3165.951	1	1	0	0	0.23445	0.051072	0.15224	0.20018	0.19814	0.11668	0.10453	0.15954	0.29199	0.27691	0.1999	0.10528	0.12382	0.19657	0.14842	0.16574	-2.1063	-2.8396	-2.7062	-2.6104	-2.8917	-2.7604	-2.5792	-2.8583	-2.6854	-2.6667	-2.9688	-2.625	-2.9375	-2.8542	-2.6479	-3.0417	359.641	492.100	303.837	360.654	201.998	392.083	481.552	476.080	260.291	162.523	344.094	480.482	514.711	168.376	226.061	505.709	0.00076057	0.00091789	0.00021624	276.72	5.3486e-06	5.7168e-06	259.06	87.911	2.1985e-05	1.5609e-05	101.51	38.026	34.53	18.027	4.2385e-06	20.461	0.0046297	0.0047304	0.0012487	1005.5	5.2424e-05	5.1653e-05	453.47	151.53	5.2634e-05	5.2334e-05	207.41	73.307	68.525	30.74	4.8367e-05	37.593	287.763	445.847	438.227	174.734	459.037	521.913	172.939	179.938	312.161	335.549	177.307	181.832	184.162	189.741	291.158	185.286	-8191	255	
3166.045	1	1	0	0	0.045989	0.10125	0.081154	0.11392	0.39828	0.11756	0.37777	0.38	0.1338	0.20847	0.025893	0.25011	0.10858	0.20608	0.26584	0.070332	-2.2854	-2.8354	-3.0375	-2.5542	-2.8979	-2.9	-2.5542	-2.9521	-2.9062	-2.8688	-3.1229	-2.7896	-2.8521	-3.05	-2.7396	-3.025	340.168	467.906	492.116	310.710	370.151	296.710	183.986	498.556	239.746	506.241	409.446	174.199	191.620	416.529	466.376	515.822	0.0011421	0.0019542	0.00012694	275.29	5.5855e-06	1.0338e-05	263.53	88.266	5.8918e-06	8.6052e-06	104.27	38.916	35.004	18.306	2.1053e-05	20.89	0.0047023	0.0048125	0.0012329	1061.4	5.3547e-05	5.2813e-05	457.34	156.81	5.3777e-05	5.3083e-05	209.92	76.791	69.716	31.039	4.9149e-05	38.95	350.326	256.727	299.007	172.971	314.020	408.218	173.395	180.367	405.637	486.560	177.805	181.784	184.404	190.317	204.584	185.884	-8191	255	
3166.142	1	1	0	0	0.20262	0.20427	0.11815	0.41776	0.13474	0.19947	0.15677	0.11542	0.22745	0.098047	0.079516	0.089235	0.19959	0.067042	0.35561	0.16124	-2.55	-2.6229	-3.1542	-2.5104	-2.8688	-3.0417	-2.6188	-3.0938	-2.6792	-2.6771	-3.0938	-2.4771	-2.8042	-3.1354	-2.3292	-2.9562	430.182	475.635	513.289	458.337	314.671	396.947	442.225	504.622	374.054	259.617	405.209	233.566	193.886	272.788	233.631	231.029	0.00037066	7.8467e-05	0.00027243	274.09	9.4271e-06	1.8068e-05	261.23	88.119	6.222e-06	5.3362e-06	101.77	37.061	33.921	17.864	2.0234e-05	20.042	0.0047702	0.0047836	0.00125	1091.9	5.3286e-05	5.0647e-05	456.76	156.93	5.2369e-05	5.0169e-05	207.48	74.833	67.763	29.853	4.9578e-05	38.062	322.668	298.139	473.423	175.137	298.298	392.201	172.059	179.829	472.473	263.841	176.176	182.402	185.114	190.084	203.166	185.966	-8191	255	
3166.238	1	1	0	0	0.080417	0.02118	0.12888	0.16254	0.23369	0.07685	0.11744	0.22652	0.28741	0.092619	0.10612	0.088969	0.094167	0.15677	0.16737	0.3995	-2.5271	-2.5875	-2.8438	-2.6708	-2.6562	-3.1229	-2.6333	-2.7667	-2.8208	-2.6937	-2.9771	-2.7167	-2.7354	-2.9917	-2.65	-2.8521	219.666	223.855	285.758	303.396	337.995	260.490	521.063	474.196	486.349	489.504	312.608	494.992	391.761	234.236	202.852	292.679	0.00062644	0.0011662	0.00027704	269.96	4.2846e-06	7.0258e-06	260.58	87.972	1.6753e-05	7.5868e-06	102.62	37.371	34.257	17.865	1.3953e-05	20.473	0.0046461	0.004482	0.0012775	1083.3	5.2595e-05	4.8768e-05	463.49	156.94	5.2768e-05	4.9044e-05	214.56	75.213	68.115	29.679	5.2367e-05	38.221	333.944	314.650	192.938	174.691	221.980	327.044	172.547	180.131	442.519	188.436	176.779	181.426	184.453	189.588	251.435	186.237	-8191	255	
3166.334	1	1	0	0	0.10929	0.22492	0.39951	0.069057	0.014067	0.14708	0.19838	0.30217	0.17951	0.16676	0.042944	0.10616	0.10258	0.16884	0.184	0.20768	-2.6479	-2.6625	-2.9167	-2.6083	-2.8563	-2.9083	-2.6354	-2.8979	-3.0458	-2.575	-2.9292	-2.6542	-2.6333	-2.9229	-2.6896	-2.8646	333.022	234.491	372.833	370.919	289.839	205.074	502.357	198.886	288.880	263.006	299.234	520.389	257.847	407.124	263.241	227.258	0.00066687	0.0018912	0.00041785	269.01	8.4288e-06	1.151e-05	260.61	88.555	1.0378e-05	8.8664e-06	101.91	38.373	34.747	18.007	9.9903e-06	20.757	0.0045906	0.0044049	0.001325	1070	5.1377e-05	4.787e-05	470.65	156.31	5.0963e-05	4.8539e-05	217.87	75.709	67.526	29.949	5.386e-05	38.702	384.863	296.136	202.696	172.456	433.318	320.756	172.661	180.178	320.094	203.626	176.409	182.331	184.650	189.536	299.460	185.307	-8191	255	
3166.430	1	1	0	0	0.05174	0.092803	0.049322	0.070083	0.23569	0.047795	0.022602	0.22154	0.16174	0.048712	0.12509	0.18573	0.055492	0.17372	0.084537	0.10053	-2.7521	-2.5875	-2.8438	-2.7313	-2.7958	-3.1	-2.7938	-2.8583	-3.0292	-2.7438	-2.8333	-2.9271	-2.5396	-3.05	-2.6646	-2.8083	507.781	466.354	356.172	232.146	319.555	178.605	465.125	473.427	437.790	331.296	436.355	195.750	451.522	262.251	264.737	306.727	0.00037605	0.0010761	0.00037721	269.8	1.3747e-05	9.6287e-06	265.88	90.222	1.4962e-05	1.4857e-05	105.28	39.395	35.449	18.15	1.2659e-05	20.874	0.0045044	0.0046164	0.0013889	1094.7	5.1439e-05	5.1341e-05	486.29	160.12	5.0362e-05	5.1934e-05	223.37	77.308	66.854	30.712	5.2913e-05	38.281	447.426	519.721	381.757	175.966	350.831	265.888	172.339	180.110	359.296	305.404	176.218	182.524	184.893	189.361	173.258	185.841	-8191	255	
3166.551	1	1	0	0	0.042681	0.22937	0.073797	0.22034	0.11574	0.33722	0.26827	0.14338	0.15147	0.15463	0.16821	0.33237	0.08487	0.11679	0.13282	0.068642	-2.6063	-2.6042	-2.9208	-3.0021	-2.5375	-3.0646	-2.8979	-2.6688	-3.2271	-2.5792	-2.7438	-2.7604	-2.6562	-3.0396	-2.9167	-2.6083	273.087	357.113	445.625	476.579	186.666	412.642	229.183	488.927	355.728	402.309	436.892	184.851	411.770	482.945	245.373	395.813	0.00041273	0.0011632	0.00010936	275.96	2.4132e-06	1.165e-05	257.66	87.91	1.1652e-05	1.2868e-05	101.64	37.493	34.163	17.811	2.395e-06	19.996	0.0041991	0.0046288	0.001323	1050.6	4.7653e-05	5.1368e-05	469.48	154.64	4.7467e-05	5.2273e-05	215.31	73.491	64.6	30.58	5.2176e-05	37.321	393.356	183.863	488.459	173.829	188.669	506.439	173.031	180.214	306.813	236.562	177.542	182.388	183.974	189.427	358.215	185.673	-8191	255	
3166.647	1	1	0	0	0.074903	0.29123	0.12711	0.22159	0.045198	0.11632	0.18219	0.16744	0.15961	0.10906	0.23431	0.14432	0.12073	0.24136	0.12877	0.14679	-2.6208	-2.7125	-2.8021	-2.9688	-2.7646	-3.0708	-2.7479	-2.7062	-2.9396	-2.7854	-2.7542	-3.1271	-2.4521	-3.0187	-2.7229	-2.6479	357.829	183.224	453.115	517.206	303.824	192.653	449.799	454.679	393.844	226.357	400.626	474.402	426.926	374.648	518.503	246.117	0.00068334	0.00028183	4.5635e-05	272.9	1.2006e-05	1.0711e-05	258.45	87.921	2.8286e-05	1.5689e-05	102.47	38.429	34.874	18.289	5.2673e-06	20.654	0.0041964	0.004802	0.0013215	1028.6	4.8363e-05	5.2738e-05	467.85	152.88	4.8518e-05	5.347e-05	216.18	72.999	66.433	31.154	5.2815e-05	37.396	347.574	391.656	328.964	174.692	286.579	445.864	172.796	180.667	204.685	180.970	177.641	181.714	184.016	189.434	493.905	186.195	-8191	255	
3166.743	1	1	0	0	0.1191	0.16601	0.075161	0.2079	0.10209	0.18941	0.2069	0.10651	0.17337	0.12207	0.21285	0.060956	0.073458	0.22477	0.31529	0.19238	-2.5854	-2.7208	-2.5604	-2.9896	-2.7229	-2.9875	-2.8792	-2.5917	-3.1813	-2.8708	-2.6	-3.0917	-2.6021	-2.7188	-2.9917	-2.4292	432.376	306.484	468.197	192.986	392.103	266.225	505.278	328.448	233.151	317.230	198.020	185.784	332.412	514.963	285.003	212.674	0.00092826	0.0010272	0.00010217	273.49	1.8799e-05	1.5074e-05	261.54	89.315	2.1203e-05	1.613e-05	103.77	38.751	35.248	18.321	1.4828e-05	21.301	0.0044647	0.004933	0.0013462	1014.6	5.0923e-05	5.3225e-05	471.27	150.82	5.0613e-05	5.3175e-05	216.52	72.583	68.412	31.256	5.2031e-05	37.303	342.608	277.271	446.865	174.792	243.979	338.204	173.260	180.245	180.716	271.147	177.392	181.887	184.294	189.739	473.772	185.194	-8191	255	
3166.839	1	1	0	0	0.1825	0.26208	0.09301	0.13988	0.032872	0.25133	0.13813	0.14917	0.28662	0.16728	0.019131	0.22244	0.1502	0.2972	0.09707	0.37118	-2.6875	-2.7	-2.6146	-2.7313	-2.4583	-3.0167	-2.9	-2.4583	-3.1354	-2.7938	-2.75	-2.9104	-2.6646	-2.7104	-3.0708	-2.8292	493.982	453.847	187.874	292.421	442.983	454.758	278.065	242.498	219.556	391.228	464.292	483.031	476.716	174.075	444.713	492.852	0.0010481	0.00096668	0.00075092	269.55	1.5247e-05	1.9958e-05	265.26	89.351	1.607e-05	7.8348e-06	103.24	38.275	34.307	18.075	2.355e-05	20.723	0.0046117	0.0048384	0.0013088	996.41	5.2611e-05	5.2255e-05	467.27	150.59	5.1615e-05	5.1538e-05	210.33	70.94	67.27	30.432	4.8346e-05	36.336	322.714	304.026	289.934	174.616	249.292	337.983	172.889	179.749	460.194	252.887	177.035	182.451	184.249	189.689	427.820	185.170	-8191	255	
3166.935	1	1	0	0	0.073422	0.12134	0.18541	0.19255	0.052161	0.060974	0.18701	0.1091	0.25169	0.17843	0.07768	0.085988	0.18735	0.12258	0.08863	0.31113	-2.425	-2.8208	-2.725	-3.0854	-2.6813	-2.8542	-3.0896	-2.6104	-2.9208	-2.8583	-2.6896	-3.0125	-2.8146	-2.8333	-2.9375	-2.6271	439.796	361.555	386.099	355.651	432.839	220.674	496.875	170.986	173.766	365.385	188.839	253.883	462.761	335.339	307.808	380.095	0.00039234	0.00087866	0.00014843	265.37	5.2291e-06	1.1264e-05	256.07	87.088	2.5259e-06	1.1225e-05	100.31	37.022	34.377	18.139	1.8643e-05	20.575	0.0044846	0.0045933	0.0012016	971.59	5.0272e-05	4.929e-05	440.67	147.63	4.9706e-05	4.9523e-05	200.08	70.773	66.421	30.156	4.5913e-05	36.972	368.958	479.611	397.535	174.295	414.438	384.471	172.653	180.075	231.608	227.376	177.000	181.424	184.857	189.617	201.066	185.413	-8191	255	
3167.030	1	1	0	0	0.14324	0.034257	0.032207	0.13471	0.11825	0.062289	0.32761	0.19517	0.26532	0.12862	0.32179	0.10513	0.32519	0.18779	0.18803	0.078373	-2.5667	-2.8167	-2.7375	-3.0208	-2.5521	-2.7396	-2.9521	-2.7771	-2.6625	-2.9729	-2.6146	-2.8958	-2.5104	-2.7188	-2.8833	-2.8937	404.686	353.161	482.054	493.273	408.489	265.168	213.606	435.521	409.391	459.150	193.936	473.932	194.560	425.485	435.141	381.355	0.00027387	0.00057147	0.00021815	278.55	9.3601e-06	8.8513e-06	260.27	87.863	1.7651e-05	8.2736e-06	102.16	38.13	34.707	18.294	1.0578e-05	21.052	0.0044596	0.0045556	0.0011607	1009.9	5.0532e-05	4.9757e-05	440.63	152.2	5.033e-05	4.9792e-05	201.86	73.838	67.403	30.395	4.6441e-05	38.269	347.330	313.755	389.724	174.703	483.467	387.874	172.457	179.819	259.598	367.919	177.684	181.409	184.803	189.801	273.060	185.286	-8191	255	
3167.126	1	1	0	0	0.036829	0.053933	0.10405	0.073859	0.073751	0.040556	0.13748	0.42619	0.12075	0.09209	0.31386	0.12995	0.2243	0.10318	0.021834	0.081427	-2.4146	-2.9729	-2.5583	-3.0104	-2.8333	-2.6646	-3.0812	-2.5708	-2.9625	-2.8312	-2.5938	-3.0833	-2.7812	-2.6542	-3.0042	-2.7479	181.675	317.545	280.956	254.446	181.487	475.297	476.825	427.601	196.553	238.668	188.440	387.428	249.430	349.540	437.096	475.487	0.00063021	0.00045679	0.00024397	272.81	1.5378e-05	1.7338e-05	262.42	89.339	7.085e-06	1.9834e-05	104.96	39.578	35.621	18.373	9.426e-06	21.352	0.0045305	0.0045937	0.0012171	1070.3	5.2444e-05	5.0832e-05	457.2	158.53	5.2728e-05	5.0421e-05	211.65	77.261	69.147	30.524	4.9071e-05	39.072	361.732	432.130	179.068	173.337	404.372	400.605	172.236	180.114	450.670	421.384	176.329	182.113	184.624	190.288	518.862	185.397	-8191	255	
3167.222	1	1	0	0	0.18296	0.25435	0.24599	0.18436	0.14029	0.18884	0.31199	0.29919	0.11657	0.042441	0.068065	0.13269	0.32673	0.043087	0.083401	0.37192	-2.2458	-3.0583	-2.5979	-2.7375	-3.0312	-2.5479	-3.1437	-2.5479	-2.7458	-3.1667	-2.875	-2.9125	-2.9688	-2.7521	-2.9646	-2.7792	442.289	501.345	235.665	229.739	440.834	367.288	246.573	321.638	385.431	456.139	488.279	243.882	456.669	427.960	493.346	413.209	0.00093637	0.0011931	0.00051783	262.84	5.8175e-06	1.0992e-05	260.84	88.371	9.6463e-06	1.1688e-05	101.72	37.289	34.155	17.962	1.5105e-05	20.363	0.0045747	0.0044106	0.0012534	1052.6	5.0784e-05	4.713e-05	455.03	154.23	5.0269e-05	4.6766e-05	208.94	73.373	66.374	29.192	4.9354e-05	37.476	325.700	330.493	162.140	175.255	396.871	344.000	171.923	179.187	208.621	391.304	177.014	181.547	184.658	189.783	199.105	185.702	-8191	255	
3167.318	1	1	0	0	0.24395	0.26917	0.10813	0.13362	0.43544	0.26444	0.1516	0.17872	0.10658	0.15622	0.18173	0.24174	0.31477	0.25913	0.084431	0.0095686	-2.2542	-2.9667	-2.6542	-2.7917	-3.0167	-2.5958	-2.9854	-2.9437	-2.6437	-3.175	-2.7396	-2.8896	-3.0896	-2.7875	-3.1729	-3.0521	238.087	162.294	363.768	394.775	308.093	388.408	187.666	419.595	489.668	517.646	325.260	509.625	468.328	465.898	419.240	356.251	0.00049287	0.00054817	0.00035683	276.24	2.1932e-05	1.2069e-05	257.9	87.536	7.3903e-06	9.5272e-06	102.65	37.952	34.762	18.132	2.7031e-06	20.73	0.0043865	0.0042086	0.0012805	1043	4.9754e-05	4.6718e-05	462.92	153.85	4.956e-05	4.6979e-05	214.45	74.199	66.032	29.621	5.1251e-05	37.777	340.785	401.691	184.547	173.068	437.775	500.349	172.315	180.211	369.196	315.821	176.726	182.302	184.469	190.102	213.312	185.611	-8191	255	
3167.439	1	1	0	0	0.11022	0.14952	0.14799	0.13195	0.31649	0.20908	0.34153	0.030583	0.16338	0.2033	0.2066	0.060641	0.2065	0.26589	0.1234	0.13502	-2.4188	-3.0583	-2.775	-2.7625	-2.9208	-2.9146	-2.8979	-2.8854	-2.6188	-2.9125	-2.7958	-2.7646	-3.0417	-2.9917	-2.8021	-2.9688	209.287	269.495	488.431	460.131	268.847	420.321	475.517	162.691	307.902	258.054	321.014	487.289	360.343	458.231	514.075	274.261	0.00056565	0.0014885	0.0003132	267.65	1.5494e-05	2.3155e-05	262.28	88.238	1.3702e-05	2.6888e-05	103.22	38.766	35.056	18.333	2.9631e-06	20.889	0.0042696	0.0043515	0.0013072	1043.9	4.8119e-05	4.8296e-05	468.77	154.58	4.7583e-05	4.9144e-05	216.42	74.971	65.352	30.451	5.1713e-05	38.332	334.992	484.233	390.207	173.284	440.988	215.196	172.955	180.060	344.869	247.400	177.143	181.895	184.341	189.210	327.116	185.615	-8191	255	
3167.510	1	1	0	0	0.10785	0.19777	0.17917	0.14391	0.16984	0.067554	0.061503	0.11876	0.07268	0.1992	0.079279	0.066281	0.12115	0.11951	0.13456	0.15542	-2.2479	-2.8875	-2.6562	-2.7125	-3.1167	-2.5625	-3.0146	-2.9062	-2.7812	-3.0438	-2.8375	-2.6479	-3.2229	-2.7396	-2.9313	-2.8625	237.378	240.106	217.961	188.113	485.973	486.414	348.254	288.607	451.097	490.871	364.174	368.301	485.495	371.003	262.019	347.800	0.00035702	0.0017268	0.00035871	278.96	1.0874e-05	7.7428e-06	263.51	88.907	1.3962e-05	7.9183e-06	105.29	39.071	35.089	18.451	7.0224e-06	20.68	0.0041797	0.0045891	0.0013173	1049.7	4.6905e-05	5.0872e-05	470.25	154.74	4.6975e-05	5.1361e-05	216.5	74.722	65.011	30.723	5.0629e-05	37.283	448.228	168.265	183.338	175.301	347.807	234.150	172.594	180.270	419.416	458.764	177.985	182.388	184.595	189.607	500.669	186.201	-8191	255	
3167.631	1	1	0	0	0.033513	0.19319	0.11172	0.2154	0.20838	0.19354	0.11101	0.14799	0.24947	0.27982	0.079271	0.25384	0.089427	0.031547	0.23481	0.24511	-2.1729	-3.025	-2.875	-2.6167	-3.1333	-2.7229	-2.7354	-3.0083	-2.5771	-3.0938	-2.7583	-2.5646	-3.0833	-2.6875	-2.7667	-3.1771	364.090	489.694	486.430	201.604	332.879	347.756	509.877	223.159	513.099	444.228	397.899	492.270	197.129	182.164	221.263	412.220	0.00033073	0.0016013	0.00022795	267.88	6.8276e-06	1.1694e-05	257.12	87.279	1.6225e-05	8.4363e-06	101.76	37.169	34.383	17.988	2.6959e-05	20.591	0.0040585	0.0045871	0.0012732	993.51	4.5548e-05	4.9975e-05	453.82	147.77	4.5907e-05	4.9906e-05	207.48	70.02	63.777	30.193	4.9144e-05	36.189	347.703	470.308	334.719	175.113	175.979	282.400	173.082	180.203	496.135	387.231	176.934	182.634	184.369	189.706	242.505	186.226	-8191	255	
3167.727	1	1	0	0	0.088536	0.41496	0.16588	0.236	0.18352	0.083204	0.1447	0.12302	0.20007	0.26935	0.36912	0.34337	0.084161	0.29061	0.31189	0.15762	-2.3042	-2.8958	-2.8521	-2.7083	-3.0687	-2.8646	-2.7458	-3.2396	-2.6188	-2.8417	-3.0729	-2.6125	-3.1	-2.6604	-2.7	-3.0167	255.648	427.016	322.297	357.939	475.113	250.521	421.961	432.242	435.927	332.474	472.789	353.513	288.285	171.651	469.428	477.353	0.00097589	0.00020075	0.00022019	263.87	8.5481e-06	8.7384e-06	263.34	88.065	2.2896e-05	5.8301e-06	102.17	38.295	34.83	18.281	1.3038e-05	20.878	0.004187	0.0046038	0.0012658	963.6	4.769e-05	4.9938e-05	456.37	145.63	4.7702e-05	4.9188e-05	207.51	69.623	65.441	30.212	4.8611e-05	35.94	337.308	482.056	329.916	174.212	347.948	198.386	173.032	180.256	217.350	387.085	177.146	181.694	184.025	189.358	415.702	185.875	-8191	255	
3167.823	1	1	0	0	0.057937	0.099663	0.090313	0.029173	0.093301	0.12229	0.22845	0.30832	0.199	0.090132	0.23011	0.27364	0.0050218	0.14917	0.12464	0.22312	-2.1708	-2.825	-2.8792	-2.675	-2.9146	-2.7542	-2.6937	-3.0062	-2.6958	-2.9729	-2.8667	-2.8417	-2.8167	-2.95	-2.7021	-3.1146	170.349	170.304	330.104	291.955	271.622	483.796	491.960	436.811	409.481	162.372	464.476	388.959	386.581	423.102	172.808	449.962	0.0011203	0.00047746	0.00059184	271.05	6.3934e-06	7.661e-06	261.81	89.071	3.5423e-06	7.906e-06	104.66	39.358	35.255	18.276	1.0112e-05	21.464	0.0043375	0.0045461	0.0012429	954.52	4.949e-05	4.9894e-05	456.17	146.93	4.9896e-05	4.9508e-05	207.49	71.285	66.946	30.284	4.6498e-05	36.508	354.446	296.402	337.168	173.450	202.620	279.297	173.208	179.534	292.261	501.229	177.519	181.354	184.428	189.823	349.928	185.253	-8191	255	
3167.919	1	1	0	0	0.20738	0.10342	0.26384	0.14886	0.24612	0.12886	0.21706	0.2269	0.19659	0.054779	0.15345	0.17707	0.11753	0.055481	0.28387	0.30661	-2.1417	-2.9437	-2.9167	-2.5312	-3.3125	-2.9792	-2.7438	-2.9938	-2.7458	-2.7812	-3.2146	-2.5062	-3.0438	-2.7833	-2.7938	-3.1521	222.919	457.506	468.393	333.053	391.950	397.746	424.802	412.654	504.425	245.587	200.110	217.180	361.669	336.503	254.270	186.930	0.00018414	0.00093802	0.0001459	270.48	9.3489e-06	1.4675e-05	266.2	89.035	7.3154e-06	7.9127e-06	102.36	37.692	34.146	18.15	1.9226e-06	20.626	0.0043662	0.0044482	0.0011791	971.02	4.9343e-05	4.8525e-05	445.31	147.05	4.7793e-05	4.7251e-05	196.22	69.204	64.176	29.357	4.2524e-05	35.753	356.090	295.465	424.354	172.914	271.833	272.711	173.422	180.279	205.557	313.684	177.525	182.048	184.386	189.967	300.368	185.391	-8191	255	
3168.038	1	1	0	0	0.033048	0.17727	0.13074	0.18876	0.18633	0.14828	0.23559	0.096435	0.16618	0.20949	0.20076	0.05956	0.1787	0.068072	0.016212	0.033995	-2.4083	-2.6479	-3.1771	-2.5417	-3.075	-2.975	-2.7271	-3.0958	-2.8375	-2.6354	-3.1729	-2.7542	-3.0125	-3.0312	-2.6417	-3.2896	256.740	189.641	492.673	392.428	326.194	508.934	496.875	520.868	360.333	398.673	180.668	475.948	468.561	398.041	192.229	296.121	0.00030314	0.0016859	0.00047323	270.02	6.8888e-06	1.4285e-05	257.82	88.458	8.1175e-06	1.581e-05	102.79	37.957	34.525	18.139	4.8321e-06	20.839	0.0041391	0.0042202	0.0010769	959.3	4.6408e-05	4.6171e-05	428.15	146.68	4.6914e-05	4.6398e-05	194.76	70.874	64.515	29.319	4.3044e-05	36.64	335.897	306.298	201.575	173.215	249.454	389.680	172.455	180.094	464.143	455.001	176.368	181.818	184.329	189.849	282.754	185.257	-8191	255	
3168.135	1	1	0	0	0.20799	0.095917	0.078122	0.11312	0.15635	0.23832	0.076469	0.016986	0.084026	0.23173	0.19316	0.22598	0.073109	0.24718	0.12679	0.14085	-2.3833	-2.5042	-3.0354	-2.875	-2.7062	-3.2042	-2.6917	-3.0771	-2.775	-2.7896	-3.1688	-2.9604	-2.7729	-3.2354	-2.6396	-3.0312	276.664	199.707	173.975	283.636	500.806	292.428	492.382	294.516	327.694	318.091	246.700	491.018	489.769	428.484	222.429	207.520	0.0003684	0.00080634	0.00038861	275.31	1.2098e-05	1.3266e-05	266.59	88.24	7.5504e-06	2.0111e-05	105.58	39.136	34.917	18.189	7.9449e-06	21.164	0.0041621	0.0041729	0.0010967	991.58	4.7133e-05	4.5396e-05	438.65	149.84	4.7025e-05	4.5222e-05	200.3	73.015	65.558	29.28	4.5362e-05	37.448	385.277	247.229	168.983	173.883	300.372	426.188	172.327	180.109	213.355	381.111	176.722	181.569	184.434	189.698	213.796	186.066	-8191	255	
3168.206	1	1	0	0	0.07092	0.031597	0.10569	0.38224	0.07292	0.12434	0.12384	0.28432	0.015872	0.18072	0.049102	0.12393	0.15416	0.16263	0.079939	0.13136	-2.5625	-2.7396	-3.0375	-2.7458	-2.7771	-3.3312	-2.5396	-2.9417	-2.9417	-2.8312	-3.1354	-2.8417	-2.5938	-3.2	-2.7417	-3.0646	271.931	392.053	202.112	189.559	358.460	482.358	492.243	261.471	430.206	375.322	500.180	429.922	502.315	256.299	318.453	282.249	0.00050968	0.0020372	0.00042951	271.56	7.1516e-06	1.0693e-05	267	89.117	9.9149e-06	8.8546e-06	107.26	39.615	35.377	18.63	1.8538e-05	21.646	0.0042365	0.0040893	0.0011693	1009.5	4.8081e-05	4.4377e-05	452.62	151.91	4.7497e-05	4.4101e-05	207.02	73.906	65.966	29.125	4.7536e-05	37.615	355.877	343.428	167.091	173.915	498.408	369.091	172.181	179.804	305.103	403.988	176.809	182.427	184.638	189.661	249.247	185.315	-8191	255	
3168.327	1	1	0	0	0.085123	0.12042	0.057212	0.11632	0.22977	0.13123	0.14015	0.36919	0.13444	0.15568	0.13276	0.17548	0.11319	0.17722	0.15185	0.070635	-2.3854	-2.7021	-2.95	-2.9354	-2.7188	-3.0563	-2.7438	-2.6979	-3.0396	-2.5062	-3.0646	-2.7313	-2.8542	-3.0833	-2.8917	-2.8438	344.676	366.674	305.714	385.918	318.097	196.875	423.941	469.133	314.152	456.954	390.745	378.420	337.130	194.344	375.727	238.256	0.0010714	0.0017328	0.00026857	263.52	1.3924e-05	7.4418e-06	261.14	87.99	2.5052e-05	6.4209e-06	102.17	37.641	34.125	18.074	8.2055e-06	20.893	0.0041978	0.0040153	0.0012119	998.53	4.6871e-05	4.3804e-05	453.3	149.48	4.627e-05	4.4171e-05	205.51	70.975	63.368	28.695	4.7735e-05	36.621	371.727	344.356	522.032	175.829	212.643	201.603	172.662	180.392	336.178	192.521	176.262	182.508	185.041	189.886	477.574	184.863	-8191	255	
3168.423	1	1	0	0	0.039889	0.23597	0.22987	0.14168	0.23144	0.034337	0.093052	0.060507	0.10351	0.13572	0.041887	0.014713	0.22786	0.18455	0.20689	0.13134	-2.7562	-2.5	-2.9813	-2.8896	-2.6583	-3.1875	-2.8563	-2.7896	-3.2188	-2.7167	-2.9917	-2.825	-2.8042	-3.1562	-2.8521	-2.8042	285.886	231.938	315.074	464.428	169.332	430.155	172.240	183.441	498.086	398.618	341.208	474.543	490.329	364.363	229.594	479.837	0.00051607	0.0022544	0.00046944	267.66	1.6712e-05	2.0568e-05	261.1	87.685	2.8223e-06	1.3445e-05	103.7	38.042	34.676	18.193	9.7321e-06	21.235	0.0039794	0.004076	0.0012142	987.78	4.4793e-05	4.5029e-05	454.51	149.52	4.4472e-05	4.643e-05	208.51	72.466	63.408	29.665	4.9131e-05	37.331	368.024	212.843	439.135	175.838	422.691	208.041	173.074	180.091	467.365	244.424	176.814	181.907	185.043	189.647	358.394	186.028	-8191	255	
3168.519	1	1	0	0	0.087862	0.31071	0.24197	0.23045	0.14795	0.16034	0.1106	0.16791	0.1846	0.1747	0.05882	0.062522	0.21156	0.10269	0.048983	0.26231	-2.7292	-2.6021	-2.8104	-2.8417	-2.575	-2.9	-2.7417	-2.9208	-3.075	-2.6271	-2.95	-3.0687	-2.6354	-3.0479	-2.8625	-2.9771	373.426	397.936	464.582	494.705	439.149	217.048	270.194	165.978	292.161	467.186	216.816	479.304	496.287	466.181	487.046	469.684	0.00015939	0.00049643	0.00025783	277.07	4.0779e-06	1.4519e-05	262.67	87.552	9.0626e-06	1.4876e-05	104.03	38.929	35.039	18.354	5.1972e-06	21.111	0.0039565	0.0043534	0.0012427	1008	4.462e-05	4.8032e-05	461.97	151.38	4.4806e-05	4.9358e-05	212.07	73.585	64.289	30.587	5.0545e-05	37.776	456.112	296.044	340.134	174.964	360.925	186.958	172.253	180.383	204.398	259.443	176.925	182.308	184.700	189.479	290.191	185.637	-8191	255	
3168.615	1	1	0	0	0.067139	0.22564	0.19315	0.1446	0.063955	0.11835	0.22261	0.19475	0.23663	0.16431	0.19949	0.082763	0.16123	0.29605	0.15698	0.20815	-2.5708	-2.7104	-2.9021	-3.1292	-2.5563	-3.1917	-2.6958	-2.7083	-2.8646	-2.9479	-2.6667	-2.9	-2.75	-2.9062	-2.8854	-2.8646	481.798	224.176	231.360	184.630	335.582	518.315	476.449	413.278	460.275	437.442	272.212	415.948	318.918	503.894	290.909	253.998	0.0011909	0.0012809	0.00017713	270.88	1.1161e-05	3.1017e-06	268.55	89.439	1.648e-05	1.2471e-05	104.89	38.639	34.769	18.11	1.6102e-05	20.617	0.004117	0.0046913	0.0012903	1014.6	4.7257e-05	5.1592e-05	472.67	152.67	4.7698e-05	5.2238e-05	215.46	72.685	65.678	30.695	5.1248e-05	36.861	332.136	510.919	203.184	174.595	215.263	163.590	172.481	180.628	489.206	236.059	176.617	182.763	184.100	189.814	180.995	185.751	-8191	255	
3168.736	1	1	0	0	0.11783	0.17055	0.33083	0.21533	0.11513	0.024798	0.34909	0.051886	0.26981	0.13374	0.19253	0.17802	0.036761	0.076926	0.19154	0.046858	-2.7812	-2.6104	-2.7771	-2.9458	-2.6125	-2.975	-3.0792	-2.6042	-3.1083	-2.8333	-2.7271	-3.1646	-2.6312	-2.8917	-2.9354	-2.5146	401.146	327.043	375.215	247.663	317.348	406.328	495.454	173.318	493.914	496.253	520.950	426.976	198.307	256.647	481.592	199.529	0.00080964	0.0014548	0.00045066	267.95	8.1334e-06	1.6036e-05	261.79	88.183	4.3937e-06	1.1954e-05	102	37.344	34.858	18.047	1.1306e-05	20.594	0.0043364	0.0047765	0.0013086	991.92	4.9883e-05	5.225e-05	466.99	149.39	5.0172e-05	5.2484e-05	213.46	70.943	67.276	30.725	5.1711e-05	36.678	336.551	304.306	251.013	175.658	509.808	312.136	172.966	180.228	454.635	325.641	177.756	181.900	183.502	189.855	329.500	185.602	-8191	255	
3168.808	1	1	0	0	0.18034	0.16237	0.33813	0.23327	0.1449	0.36669	0.10391	0.060933	0.11821	0.10859	0.12781	0.13173	0.11096	0.1526	0.22211	0.13177	-2.6937	-2.775	-2.4562	-3.0229	-2.5458	-2.9396	-3.0771	-2.5042	-3.1104	-2.6875	-2.6333	-3.0833	-2.6708	-2.8646	-3.1333	-2.6354	460.314	222.243	489.333	422.683	368.284	398.898	269.651	240.469	449.544	203.061	332.739	167.072	352.956	469.526	453.939	411.441	0.00094795	0.0012185	0.00026442	275.66	1.4264e-05	6.2669e-06	264.67	89.194	1.2909e-05	1.2276e-05	103.17	38.599	34.92	18.242	1.7467e-05	21.021	0.0046135	0.0048543	0.0013126	1002.9	5.2824e-05	5.2651e-05	467.55	150.44	5.1609e-05	5.1665e-05	210.96	71.675	68.074	30.709	4.893e-05	37.118	361.273	502.178	272.701	174.188	224.942	482.269	173.219	180.047	412.014	356.842	177.032	181.666	184.445	189.789	411.593	184.897	-8191	255	
3168.904	1	1	0	0	0.20329	0.11482	0.20566	0.27345	0.19709	0.077809	0.35934	0.16796	0.25836	0.19984	0.29166	0.12505	0.29831	0.080769	0.096151	0.036978	-2.5917	-2.7792	-2.7417	-2.9125	-2.7167	-2.8542	-2.975	-2.6562	-2.8375	-2.9437	-2.5771	-3.0417	-2.95	-2.6625	-3.1521	-2.6312	508.364	293.797	282.873	284.920	415.918	496.774	360.794	493.711	375.392	215.217	197.073	192.301	453.150	405.534	354.375	383.405	0.0012569	0.0010054	0.00056447	282.3	1.1705e-05	7.437e-06	265.11	89.26	6.952e-06	9.583e-06	105.59	39.788	35.364	18.527	2.2729e-05	21.41	0.004602	0.0047274	0.0012427	1015	5.2893e-05	5.2236e-05	459.7	153.12	5.1992e-05	5.1795e-05	208.49	74.181	68.49	30.868	4.6912e-05	38.177	336.881	406.494	323.962	171.603	299.662	420.204	172.863	180.118	291.149	437.584	177.513	182.287	184.362	189.237	406.195	186.281	-8191	255	
3169.000	1	1	0	0	0.19205	0.13137	0.17057	0.042251	0.040989	0.20108	0.067138	0.10306	0.02843	0.018265	0.17329	0.039356	0.24106	0.28125	0.094945	0.02863	-2.7125	-2.8833	-2.7167	-2.9542	-2.7125	-2.6375	-2.9688	-2.7542	-2.8917	-3.0146	-2.5521	-2.8312	-2.7521	-2.6937	-3.1042	-2.6833	283.278	453.677	494.688	197.899	389.066	427.814	202.634	426.025	323.890	390.851	182.322	442.868	442.994	221.786	307.753	162.379	0.00054799	0.0012841	0.00029097	276.65	6.2506e-06	3.4776e-05	264.17	87.831	6.2755e-06	1.502e-05	102.71	37.963	34.338	17.953	2.148e-05	20.519	0.0045964	0.0047413	0.0012067	1047.7	5.2515e-05	5.1221e-05	450.81	154.63	5.1354e-05	5.1091e-05	203.63	73.741	67.377	30.236	4.7165e-05	38.066	386.676	292.901	162.514	174.350	306.896	393.646	172.490	180.036	451.074	418.556	176.943	181.416	184.619	189.951	210.816	185.613	-8191	255	
3169.119	1	1	0	0	0.10445	0.085423	0.25867	0.18071	0.10024	0.19011	0.14754	0.16684	0.027593	0.044375	0.12801	0.15842	0.10115	0.15449	0.070933	0.07405	-2.4562	-3	-2.5104	-3.0687	-2.7667	-2.4583	-3.1292	-2.7771	-2.6813	-2.8792	-2.625	-2.7958	-2.9021	-2.6813	-2.8583	-2.6958	188.182	170.702	443.085	417.564	250.146	191.307	245.229	394.462	228.278	245.834	512.575	519.060	459.580	263.678	341.509	500.273	0.0012402	0.0031427	0.00061492	273.52	3.1332e-06	1.0634e-05	259.7	88	1.3083e-05	1.8928e-05	103.05	37.52	34.296	18.006	9.261e-06	20.721	0.0045977	0.0046357	0.0012262	1072.5	5.301e-05	5.0957e-05	455.68	157.22	5.2623e-05	5.0251e-05	209.57	75.306	68.197	30.057	5.0158e-05	38.905	349.720	305.295	482.499	174.040	247.675	359.030	173.114	179.804	196.226	332.447	177.185	182.235	184.546	190.281	281.058	186.150	-8191	255	
3169.215	1	1	0	0	0.28072	0.26059	0.043748	0.11251	0.21906	0.14647	0.04395	0.10087	0.14769	0.099793	0.045397	0.14171	0.26399	0.24775	0.41096	0.24024	-2.4229	-2.8312	-2.5458	-2.8479	-2.9271	-2.4896	-2.9625	-2.8563	-2.6625	-2.9	-2.6604	-2.9354	-3	-2.5208	-2.8875	-2.7167	372.301	420.637	508.253	414.563	429.784	166.360	259.576	227.589	474.607	386.135	424.812	166.979	444.782	200.359	338.760	460.928	0.00062898	0.00072817	0.00024225	274.18	8.2568e-06	8.6015e-06	263.73	89.052	1.4749e-05	2.003e-05	102.77	38.704	34.867	18.192	1.7571e-06	21.127	0.0046914	0.0045699	0.0013154	1094.4	5.4294e-05	5.0198e-05	473.9	160.11	5.4179e-05	5.0001e-05	219.47	76.952	69.402	30.234	5.3387e-05	39.357	318.109	366.046	177.141	173.245	358.856	312.019	172.407	179.635	247.642	369.494	176.178	182.128	184.572	189.614	457.434	185.758	-8191	255	
3169.311	1	1	0	0	0.32195	0.15075	0.24103	0.10773	0.12558	0.34567	0.019433	0.30285	0.069902	0.19114	0.065319	0.26625	0.035009	0.24637	0.32903	0.047685	-2.1042	-3.25	-2.5458	-2.6937	-2.9479	-2.6083	-2.9771	-2.6479	-2.75	-3.0667	-2.8167	-2.675	-3.0625	-2.4875	-2.9729	-2.8375	366.186	221.292	460.609	227.277	320.173	420.259	238.754	485.009	519.348	457.319	201.369	250.111	265.163	204.451	184.196	174.897	0.00047583	0.00072843	0.00017295	273.85	2.3298e-06	7.8647e-06	268.06	90.186	1.0917e-05	1.4585e-05	105.37	39.46	35.381	18.341	9.304e-06	20.934	0.0047525	0.004571	0.0013887	1104.6	5.4045e-05	5.0657e-05	486.24	161.15	5.3427e-05	5.0866e-05	225.81	78.014	68.81	30.499	5.3842e-05	38.867	385.566	238.889	467.292	174.522	271.679	442.580	172.386	180.230	297.662	235.814	176.892	182.757	184.994	189.406	250.202	185.167	-8191	255	
3169.407	1	1	0	0	0.044376	0.28445	0.2088	0.042134	0.12981	0.11451	0.09511	0.10622	0.088719	0.13394	0.063302	0.27484	0.08638	0.1237	0.22301	0.12525	-2.3312	-2.9604	-2.6229	-2.6813	-2.9	-2.4625	-2.8854	-2.7083	-2.5292	-2.9562	-2.7667	-2.7604	-2.825	-2.5917	-2.8625	-2.7313	245.557	335.911	365.140	191.506	401.740	329.427	227.477	431.527	439.199	360.305	521.812	407.201	311.012	417.165	177.565	224.705	0.00038942	0.0017517	0.00025186	267.31	1.3849e-05	1.1673e-05	258.66	87.613	7.7909e-06	1.5798e-05	103.02	37.332	34.419	17.934	1.821e-05	20.414	0.0044409	0.0045005	0.001349	1053.1	4.8842e-05	4.9331e-05	468.56	154.67	4.8077e-05	4.9635e-05	216.31	73.95	64.946	30.242	5.24e-05	38.028	316.899	508.522	457.985	173.467	356.477	276.317	172.619	180.431	414.759	279.689	176.890	182.261	184.966	189.632	315.235	185.953	-8191	255	
3169.503	1	1	0	0	0.062511	0.20798	0.28709	0.20165	0.14654	0.051944	0.18386	0.20214	0.14132	0.21253	0.084653	0.34711	0.12285	0.36507	0.060208	0.15037	-2.2104	-2.9479	-2.5458	-2.7938	-3.0083	-2.5542	-3.0938	-2.8021	-2.525	-3.1708	-2.6833	-2.8688	-3.1688	-2.6021	-2.9833	-2.8833	507.320	477.779	398.425	230.351	185.243	353.379	319.558	391.446	297.095	375.976	472.791	179.012	413.202	415.197	446.158	418.848	0.00059626	0.0010689	0.00018476	272.06	6.2695e-06	2.1094e-06	263.6	88.693	2.3363e-05	2.9252e-05	103.14	38.481	34.783	18.008	1.3196e-05	20.707	0.0042263	0.0046599	0.0013378	1052	4.7336e-05	5.1298e-05	467.85	154.39	4.6884e-05	5.1096e-05	215.16	73.692	64.523	30.701	5.1649e-05	37.893	370.279	223.889	353.190	174.231	510.529	312.055	172.971	180.353	243.956	203.847	176.612	182.252	184.563	189.058	431.619	185.751	-8191	255	
3169.599	1	1	0	0	0.15384	0.15337	0.1675	0.38493	0.083644	0.2137	0.21041	0.13287	0.17394	0.1868	0.17885	0.072902	0.40914	0.21377	0.024436	0.13715	-2.2	-2.9771	-2.7104	-2.6875	-2.9125	-2.8729	-2.8333	-2.8875	-2.6813	-2.9667	-2.8104	-2.6854	-2.9646	-2.7333	-2.85	-3.0292	315.504	251.338	264.620	406.718	367.706	453.026	411.958	390.682	221.730	510.105	379.808	166.269	495.860	452.751	221.188	480.104	0.00075069	0.00053333	0.00015085	270.21	1.1734e-05	9.1857e-06	266.98	88.832	3.791e-05	7.4813e-06	105.1	38.858	35.675	18.409	8.9012e-06	21.079	0.0042508	0.0048175	0.0013406	1043.6	4.896e-05	5.3628e-05	475.71	154.54	4.9335e-05	5.3495e-05	219.41	74.203	66.935	31.28	5.2135e-05	37.556	316.393	412.396	267.491	176.200	241.966	226.954	172.871	180.579	184.015	270.043	177.033	182.015	184.375	189.449	307.914	186.173	-8191	255	
3169.720	1	1	0	0	0.14775	0.053696	0.16233	0.16368	0.01744	0.13713	0.42954	0.27176	0.11422	0.17648	0.18023	0.32992	0.26844	0.1342	0.25168	0.34392	-2.1417	-2.9104	-2.7917	-2.6875	-2.9896	-2.8896	-2.8042	-2.9542	-2.7292	-2.7646	-3.0812	-2.6333	-3.0667	-2.7729	-2.8042	-3.0792	179.377	394.894	223.509	200.818	478.535	457.977	441.573	502.103	206.891	453.488	455.476	483.635	188.192	197.294	165.014	172.703	0.00080501	0.0015679	0.00028975	268.11	9.1894e-06	6.5462e-06	264.86	88.915	2.0146e-05	1.3991e-05	102.56	37.898	34.294	18.05	1.4931e-05	20.757	0.0044183	0.0048364	0.0013389	1010	5.069e-05	5.3217e-05	476.1	151.02	5.0843e-05	5.2525e-05	214.92	71.311	66.871	30.668	5.088e-05	36.34	347.733	186.145	336.450	174.498	290.258	284.809	172.740	180.572	184.250	481.301	176.524	182.306	184.258	189.927	325.660	185.515	-8191	255	
3169.816	1	1	0	0	0.16499	0.31605	0.087058	0.086584	0.32372	0.17711	0.14981	0.074163	0.12931	0.025009	0.16242	0.18612	0.2711	0.087922	0.099587	0.13238	-2.35	-2.7833	-2.7417	-2.5979	-2.9042	-2.9458	-2.5187	-3.1646	-2.8104	-3.0938	-2.9938	-2.6771	-2.8167	-2.8125	-2.7604	-3.0438	180.452	329.519	180.356	222.721	492.552	173.007	460.401	390.021	326.382	444.305	509.790	183.877	229.211	242.729	447.276	402.087	0.00072966	0.00051509	0.00032588	269.57	5.3808e-06	1.4482e-05	260.36	88.334	8.2652e-06	1.9599e-05	102.53	37.545	34.111	18.008	1.0276e-05	20.765	0.0045039	0.0047004	0.0012728	974.19	5.0997e-05	5.1517e-05	459.05	148.45	5.1556e-05	5.1762e-05	209.72	71.211	67.246	30.431	4.8544e-05	36.377	344.261	448.961	332.781	172.967	373.090	165.881	173.579	180.289	520.653	338.794	177.018	181.542	184.821	189.629	353.959	185.507	-8191	255	
3169.912	1	1	0	0	0.17343	0.11604	0.2198	0.059584	0.16974	0.032215	0.05106	0.27547	0.19516	0.38227	0.17806	0.22157	0.21876	0.26342	0.051229	0.28878	-2.4	-2.7729	-3.1292	-2.75	-2.7021	-2.7708	-2.5521	-3.0521	-2.8375	-2.6625	-3.0208	-2.6625	-2.8521	-2.9125	-2.5021	-3.1083	379.599	468.669	228.316	185.228	239.536	359.453	271.494	294.240	304.954	270.556	438.768	518.401	512.464	202.888	424.555	376.282	0.0007127	0.0010289	0.0005024	273.61	1.1284e-05	1.2724e-06	259.78	88.908	1.3628e-05	5.4538e-06	103.5	38.372	34.44	18.102	1.869e-05	20.937	0.0045122	0.0046238	0.0012129	991.03	5.1049e-05	5.0583e-05	451.3	150.76	5.1045e-05	5.0849e-05	204.92	72.785	67.333	30.515	4.6744e-05	37.53	394.629	344.637	344.934	172.658	396.988	378.372	172.525	180.297	313.466	320.547	177.468	182.008	184.716	189.632	407.932	184.890	-8191	255	
3170.031	1	1	0	0	0.1355	0.29246	0.17489	0.11107	0.25598	0.20339	0.13789	0.11905	0.03701	0.077538	0.22513	0.054237	0.3298	0.065753	0.41386	0.060395	-2.2792	-2.6375	-3.0271	-2.5875	-2.7	-3.0667	-2.5021	-3.1604	-2.5604	-2.7979	-3.0771	-2.6437	-2.875	-2.8854	-2.6854	-3.0062	441.059	211.258	164.142	280.926	491.481	290.905	440.730	499.786	372.708	201.488	192.775	503.039	440.484	477.390	428.068	170.183	0.00067089	0.0010675	0.00016324	272	3.6667e-06	1.9146e-05	265.99	89.065	2.816e-05	2.199e-05	104.21	39.114	34.95	18.295	1.2505e-05	21.198	0.004525	0.0046571	0.0011848	1035	5.1354e-05	5.1085e-05	452.22	154.84	5.1632e-05	5.1402e-05	207.35	75.83	68.512	30.701	4.7726e-05	38.696	329.777	308.958	220.013	172.929	519.022	362.640	172.528	180.422	340.132	452.014	176.591	181.884	184.186	190.226	305.235	185.454	-8191	255	
3170.103	1	1	0	0	0.18673	0.18156	0.197	0.031126	0.18305	0.19013	0.050226	0.16082	0.034779	0.1162	0.17834	0.16485	0.10601	0.14428	0.15322	0.15	-2.3708	-2.5958	-2.9667	-2.725	-2.775	-3.1021	-2.6	-2.9354	-2.9458	-2.6937	-3.05	-2.7625	-2.65	-3.0021	-2.6104	-2.8958	445.778	372.856	360.222	164.694	284.248	279.059	164.595	512.660	207.999	198.163	457.238	478.543	447.461	336.055	185.529	480.504	0.0004066	0.0011546	5.2374e-06	266.68	6.3179e-06	1.2996e-05	259.97	87.141	2.1524e-05	8.5813e-06	103.35	37.332	33.909	17.838	2.0551e-05	20.476	0.0046091	0.0045691	0.0012015	1048.2	5.0428e-05	4.8273e-05	446.11	152.93	4.9859e-05	4.7682e-05	202.76	72.881	65.932	29.255	4.7509e-05	37.342	330.214	331.617	365.675	173.285	227.780	341.476	172.777	179.996	477.896	396.716	176.107	181.991	184.486	189.845	234.015	185.532	-8191	255	
3170.199	1	1	0	0	0.21407	0.27789	0.099227	0.18956	0.12325	0.1865	0.1332	0.24547	0.088792	0.188	0.08211	0.091334	0.12269	0.14272	0.3285	0.15212	-2.5125	-2.675	-2.9125	-2.6	-2.9	-3.0917	-2.8708	-3.1125	-2.6958	-2.6937	-2.8896	-2.6021	-2.8375	-3.0938	-2.7438	-2.8417	405.410	352.158	348.729	277.347	213.521	236.805	367.391	469.303	299.547	212.956	408.153	162.821	280.540	455.019	329.897	457.663	0.00059859	0.001514	0.00032584	268.93	7.595e-06	1.1544e-05	259.65	87.585	1.2261e-05	6.7193e-06	102.09	37.546	34.323	17.981	1.4503e-05	20.721	0.0044567	0.0042978	0.0012308	1038.9	5.0243e-05	4.6267e-05	452.13	151.68	4.9e-05	4.528e-05	205.08	72.083	64.97	28.652	4.7418e-05	36.849	337.168	331.992	485.369	173.580	340.934	446.865	172.581	180.110	479.591	279.328	175.982	182.080	184.520	189.407	273.378	186.110	-8191	255	
3170.295	1	1	0	0	0.16287	0.11318	0.094784	0.10008	0.095295	0.25229	0.24139	0.18001	0.12254	0.17009	0.15642	0.15911	0.064048	0.27752	0.18324	0.21518	-2.4354	-2.5167	-3.2083	-2.7271	-2.5583	-2.95	-2.7646	-2.6167	-3.0854	-2.5687	-2.9313	-2.7271	-2.8375	-2.8333	-2.6208	-2.6604	445.612	460.735	351.767	444.812	357.606	222.106	424.215	490.604	236.020	412.461	322.123	211.309	403.483	229.675	479.268	229.571	0.00067166	0.00089844	0.00036499	271.7	1.0971e-05	1.68e-05	262.63	88.677	8.4346e-06	8.1681e-06	103.89	38.578	34.971	18.242	1.558e-05	21.227	0.0041774	0.0039889	0.0012006	990.9	4.6474e-05	4.3413e-05	450.5	149.07	4.5523e-05	4.3641e-05	205.74	71.804	63.731	28.9	4.794e-05	37.129	338.394	269.146	230.787	174.565	458.056	223.065	172.895	180.231	193.933	172.554	177.078	181.867	184.715	189.499	284.952	185.918	-8191	255	
3170.416	1	1	0	0	0.1534	0.22025	0.252	0.19628	0.27931	0.11991	0.3431	0.10395	0.13488	0.18675	0.21675	0.30239	0.19143	0.15784	0.16073	0.13154	-2.6208	-2.4729	-3.05	-2.7354	-2.6729	-2.8812	-2.8146	-2.8229	-2.9437	-2.5312	-2.9646	-3.0167	-2.5208	-2.8271	-2.7333	-2.6937	169.803	381.805	456.745	370.066	462.044	231.111	416.192	476.513	418.396	367.904	335.791	403.601	474.521	274.762	301.160	399.037	0.00038092	0.00096218	0.0001337	270.92	7.8025e-06	1.3558e-05	265.38	89.144	1.9917e-05	9.659e-06	104.09	38.633	34.703	18.117	5.9788e-06	20.743	0.0040073	0.0041048	0.001224	993.88	4.4849e-05	4.5055e-05	455.31	150.09	4.4289e-05	4.5897e-05	208.21	72.261	62.444	29.26	4.7642e-05	36.588	502.083	426.395	387.093	172.419	354.006	174.530	172.736	180.197	343.089	412.115	177.030	181.630	184.857	189.340	405.801	185.891	-8191	255	
3170.512	1	1	0	0	0.30732	0.05261	0.21508	0.11419	0.16566	0.1675	0.27036	0.029152	0.18152	0.47129	0.19493	0.27609	0.082515	0.17335	0.086265	0.08503	-2.5292	-2.65	-3.025	-3.0229	-2.5687	-3.1	-2.8688	-2.7917	-3.075	-2.7313	-3	-2.9146	-2.65	-2.9229	-2.7042	-2.9521	413.605	210.712	389.641	430.129	477.395	504.258	259.330	478.291	424.767	467.487	255.551	221.362	220.795	487.601	460.005	229.249	0.00037019	0.00092976	0.00031243	269.38	1.4747e-05	2.0109e-05	260.18	86.845	2.6977e-05	4.5996e-06	100.63	37.6	34.089	17.916	1.7627e-05	20.453	0.0038195	0.0042345	0.0012044	976.27	4.296e-05	4.6089e-05	445.64	146.16	4.201e-05	4.6217e-05	200.54	69.081	60.777	29.037	4.5798e-05	35.586	342.966	505.790	321.199	176.323	332.712	236.441	172.600	180.228	267.056	474.674	177.185	182.369	184.351	189.247	289.096	186.093	-8191	255	
3170.608	1	1	0	0	0.1979	0.061774	0.026789	0.22798	0.23611	0.24374	0.055288	0.20314	0.11717	0.28763	0.093386	0.062085	0.10248	0.06602	0.25039	0.093478	-2.5438	-2.6083	-2.7396	-3.0667	-2.5917	-3.2667	-2.8688	-2.4396	-3.2062	-2.7167	-2.9979	-3.1042	-2.7604	-3.0917	-2.8104	-2.5979	425.537	355.284	197.223	394.159	285.798	197.525	484.390	520.684	281.854	484.896	266.304	245.696	518.299	175.536	316.236	268.406	0.0010884	0.0010626	0.00022753	264.13	8.0399e-06	7.8455e-06	260.4	87.377	4.2667e-06	1.1233e-05	103.32	38.238	34.027	18.159	2.235e-05	20.873	0.0037228	0.0042217	0.0011681	937.08	4.2788e-05	4.6419e-05	443.29	143.89	4.2387e-05	4.6234e-05	201.09	67.969	61.563	29.109	4.4792e-05	34.946	339.176	163.949	251.765	174.737	269.214	459.652	172.509	180.289	177.862	450.963	176.654	182.530	184.095	189.931	305.403	186.378	-8191	255	
3170.680	1	1	0	0	0.14873	0.12261	0.20564	0.19452	0.10053	0.11701	0.027479	0.037215	0.1978	0.22699	0.17874	0.11581	0.23299	0.052123	0.16882	0.18427	-2.5854	-2.8479	-2.7271	-2.7167	-2.7292	-2.8875	-3.075	-2.6312	-3.0771	-2.5812	-2.8208	-3.1	-2.6396	-2.9813	-3.0062	-2.5875	370.639	505.771	373.773	295.506	449.787	263.268	183.312	369.358	434.719	490.855	489.083	318.143	459.170	302.593	230.270	430.230	0.00094305	0.0016915	0.00029738	273.33	7.3253e-06	2.9362e-06	263.77	87.511	2.4769e-05	1.2625e-05	104.34	39.355	34.721	18.247	2.0748e-05	21.451	0.0037725	0.0041413	0.0011375	895.36	4.3634e-05	4.542e-05	442.96	141.36	4.3892e-05	4.5864e-05	201.68	68.225	63.248	29.321	4.4301e-05	35.065	352.229	308.122	380.855	174.812	328.145	388.613	173.489	180.274	212.685	472.687	177.116	181.725	184.275	189.815	173.911	186.152	-8191	255	
3170.800	1	1	0	0	0.15039	0.16937	0.20262	0.17521	0.15008	0.12604	0.13301	0.11056	0.21703	0.18379	0.22206	0.073884	0.14477	0.037359	0.12724	0.15604	-2.55	-2.6521	-2.5458	-2.9208	-2.7146	-2.7833	-3.1854	-2.5396	-3.0042	-2.8542	-2.7167	-3.0479	-2.7667	-2.9375	-3.0292	-2.7271	238.057	208.120	205.532	220.054	197.958	368.072	220.052	488.723	307.803	271.907	162.906	247.807	498.199	238.810	328.253	259.793	0.00082862	0.00065483	0.00052366	274.05	9.1378e-06	4.0714e-06	262.3	88.072	1.2787e-05	4.6552e-06	103.46	38.223	34.054	18.135	9.0608e-06	20.881	0.0039102	0.0041075	0.0011125	884.47	4.4447e-05	4.4253e-05	435.38	139.95	4.3914e-05	4.4143e-05	193.79	65.782	62.252	28.536	4.11e-05	34.255	350.744	227.956	311.115	173.625	289.643	428.275	173.092	179.868	196.986	218.026	177.333	182.280	184.720	189.861	432.778	185.554	-8191	255	
3170.897	1	1	0	0	0.05374	0.15023	0.21918	0.21099	0.083722	0.11736	0.14805	0.18283	0.11462	0.17034	0.069971	0.10961	0.082592	0.084335	0.16589	0.083755	-2.5979	-2.8187	-2.5854	-3.0146	-2.6375	-2.7792	-3.1063	-2.6104	-3.0208	-2.9208	-2.6833	-3.025	-2.8208	-2.7833	-3.1479	-2.6813	261.043	323.038	199.409	494.070	318.153	270.916	451.058	491.052	457.547	521.013	187.311	215.637	298.506	318.899	509.508	182.211	0.00019445	0.0011063	0.00025154	260.93	7.4299e-06	5.902e-06	258.31	87.671	7.1236e-06	3.6135e-06	102.74	38.101	34.225	18.12	1.6172e-05	21.169	0.0038405	0.0039353	0.0010383	876.79	4.3689e-05	4.3086e-05	418.8	140.03	4.3422e-05	4.3398e-05	188.83	67.238	62.175	28.563	3.9697e-05	35.263	321.830	208.493	286.588	173.010	443.147	502.267	172.869	179.879	181.758	216.786	177.299	181.402	184.910	190.042	374.662	185.734	-8191	255	
3170.993	1	1	0	0	0.031777	0.1058	0.1152	0.11376	0.27415	0.24263	0.20794	0.16458	0.092197	0.17916	0.088366	0.21157	0.15836	0.099353	0.19194	0.079702	-2.5104	-2.7208	-2.5375	-3.1042	-2.6771	-2.8083	-2.9896	-2.4271	-3.0021	-2.8875	-2.7042	-2.7958	-2.8937	-2.6875	-2.9229	-2.7396	262.869	488.336	418.576	273.291	473.877	475.087	437.365	458.881	221.038	448.429	432.658	168.196	392.915	477.459	487.362	317.294	0.0006336	0.00037646	0.00044226	270.58	9.1405e-06	1.5005e-05	264.44	87.552	7.2975e-06	1.2148e-05	104.36	39.176	35.157	18.258	1.4067e-05	21.548	0.0038531	0.0039577	0.0010144	911.26	4.3702e-05	4.2897e-05	419.29	143.26	4.2909e-05	4.2305e-05	188.95	69.113	62.449	28.551	3.9589e-05	36.145	322.325	272.533	244.701	172.280	495.900	390.056	172.482	180.284	175.886	394.759	177.390	181.689	184.528	189.286	432.456	185.626	-8191	255	
3171.112	1	1	0	0	0.19412	0.097405	0.17563	0.12913	0.10846	0.20252	0.12095	0.27558	0.13553	0.21285	0.15642	0.19795	0.2192	0.23643	0.1596	0.21613	-2.4021	-2.7646	-2.7146	-2.9146	-2.9729	-2.5792	-3.0438	-2.6167	-3.0812	-3.1375	-2.6479	-2.9896	-2.9938	-2.5187	-3.0687	-2.8333	428.225	358.926	458.569	166.203	273.608	303.095	171.841	429.464	328.791	293.851	281.666	309.784	337.159	342.378	492.618	494.617	0.0004687	0.0012585	0.00043342	271.65	4.745e-06	1.1169e-05	270.72	89.298	1.8364e-05	1.8438e-05	106.79	39.893	35.261	18.562	2.512e-05	21.722	0.0038679	0.003878	0.0010311	938.84	4.428e-05	4.2373e-05	430.27	146.51	4.4062e-05	4.1899e-05	196.64	71.418	63.417	28.529	4.1368e-05	36.426	354.558	328.305	466.335	172.701	227.967	385.586	172.444	180.013	369.319	362.210	177.018	182.032	184.729	189.637	170.834	185.455	-8191	255	
3171.208	1	1	0	0	0.19162	0.15805	0.19634	0.20942	0.11251	0.19326	0.096157	0.10991	0.30131	0.26602	0.23293	0.061748	0.0081371	0.090355	0.18874	0.18525	-2.5896	-2.8875	-2.5812	-2.9854	-3.0167	-2.5708	-3.1917	-2.5104	-2.8812	-3.0687	-2.7875	-2.8979	-2.8104	-2.6417	-3.1167	-2.6875	271.943	403.623	371.007	192.822	430.335	186.122	432.138	398.512	490.547	447.600	457.618	414.010	244.017	273.326	426.743	224.180	0.00080887	0.0015187	0.00019453	265.74	1.1241e-05	1.1823e-05	262.27	87.238	2.7961e-07	7.6521e-06	102.22	38.207	34.277	18.059	8.3206e-06	20.964	0.0038198	0.0036675	0.0010555	919.99	4.2908e-05	3.9703e-05	427.1	142.97	4.2798e-05	3.941e-05	194.19	68.395	61.461	27.661	4.2445e-05	35.503	340.353	384.595	432.629	174.485	386.191	357.444	172.533	180.490	409.191	420.488	176.829	181.832	184.420	189.432	265.647	185.269	-8191	255	
3171.304	1	1	0	0	0.25677	0.13142	0.21121	0.026984	0.11604	0.14213	0.16752	0.081432	0.14063	0.15143	0.12754	0.20442	0.10322	0.29241	0.23711	0.19329	-2.1542	-3.1083	-2.5062	-2.7792	-2.9396	-2.7438	-2.725	-2.8125	-2.6417	-3.0396	-2.6167	-2.725	-3.0458	-2.6042	-2.8833	-2.8271	444.328	303.751	384.662	503.674	190.634	176.918	292.868	394.629	489.754	451.269	240.497	430.621	514.841	501.190	404.349	198.003	0.00072636	0.0010505	0.00016163	273.01	4.6148e-06	1.9088e-06	261.79	87.687	1.4733e-05	2.3257e-05	105	39.029	34.754	18.545	7.5772e-06	21.162	0.0037271	0.0035883	0.0010852	916.55	4.1821e-05	3.9215e-05	434.11	143.31	4.1562e-05	3.9726e-05	198.16	69.07	60.926	28.162	4.3671e-05	35.916	351.629	175.829	470.814	174.874	457.632	177.514	173.139	179.775	360.096	204.307	177.088	181.776	184.785	189.734	394.515	185.395	-8191	255	
3171.400	1	1	0	0	0.13842	0.18544	0.032253	0.22185	0.32641	0.20493	0.15628	0.20049	0.21944	0.16616	0.023673	0.062304	0.19096	0.073458	0.07422	0.060994	-2.2667	-3.0271	-2.6417	-2.8604	-3.0042	-2.65	-2.9	-2.9396	-2.4854	-3.1104	-2.775	-2.8833	-2.9833	-2.7583	-2.8104	-2.8146	347.332	416.387	210.857	220.486	220.466	488.996	275.359	344.606	272.304	241.683	221.774	346.002	282.698	218.204	218.891	176.541	0.0002513	0.0011922	0.00045938	269.84	2.147e-05	6.1618e-06	266.7	88.165	9.2219e-06	2.8659e-05	106.12	39.872	35.405	18.485	1.3612e-05	22.065	0.0036521	0.0037485	0.0011268	933.74	4.1304e-05	4.1992e-05	443.39	145.8	4.1083e-05	4.2528e-05	203.02	70.88	61.134	29.047	4.45e-05	36.632	426.284	467.781	365.933	174.108	419.404	200.810	172.994	179.786	289.712	218.883	177.381	181.794	184.429	189.288	332.959	185.862	-8191	255	
3171.496	1	1	0	0	0.099386	0.12035	0.076433	0.27144	0.088423	0.18985	0.058736	0.12987	0.114	0.23588	0.22952	0.10084	0.15967	0.087401	0.28426	0.1048	-2.0708	-2.8854	-2.6833	-2.6667	-3.1063	-2.4813	-2.8375	-2.8792	-2.5854	-3.15	-2.9667	-2.7625	-3.1667	-2.7104	-2.6917	-3	217.380	421.107	363.733	310.465	423.106	394.899	276.267	312.246	324.774	450.696	444.358	251.250	322.292	452.622	324.939	330.932	0.00047196	0.00060779	7.6726e-05	274.37	4.2414e-06	7.2651e-06	270.21	89.555	1.8874e-05	8.2406e-06	105.01	39.266	34.188	18.405	2.2852e-05	21.628	0.0035869	0.0039651	0.0011348	940.08	4.0747e-05	4.4372e-05	447.83	146.26	4.0327e-05	4.3946e-05	200.27	69.032	59.627	28.903	4.3233e-05	35.389	344.726	475.288	510.593	174.728	388.700	207.529	172.654	180.030	242.474	222.062	177.259	181.719	184.476	189.076	404.764	185.753	-8191	255	
3171.592	1	1	0	0	0.15327	0.14338	0.1557	0.058513	0.25521	0.12231	0.04767	0.22643	0.17414	0.14798	0.050255	0.10909	0.13689	0.11937	0.15228	0.078072	-2.3396	-2.9562	-2.6958	-2.7167	-2.8521	-2.8333	-2.6937	-3.1104	-2.5292	-3.0333	-2.8187	-2.6937	-3.0438	-2.7167	-2.6792	-3.0292	259.520	486.476	228.037	431.343	219.990	354.407	181.515	465.673	516.530	456.382	411.497	345.396	226.458	470.552	390.240	434.405	0.0011033	0.0013652	0.00013488	261.13	7.5052e-06	6.5524e-06	262.48	88.279	2.0034e-05	1.1953e-05	104.32	38.29	34.508	18.387	1.0994e-05	21.298	0.003512	0.0039735	0.0010944	891.2	4.0107e-05	4.4033e-05	433.72	141.17	4.0613e-05	4.4287e-05	197.4	67.103	60.665	28.987	4.3319e-05	34.695	347.706	496.355	442.316	175.183	300.314	167.116	172.621	179.807	326.389	478.472	176.684	182.793	184.406	189.408	199.967	185.810	-8191	255	
3171.713	1	1	0	0	0.20908	0.10657	0.1013	0.047025	0.10399	0.20326	0.2263	0.066659	0.12182	0.27392	0.16093	0.19682	0.11724	0.2429	0.16333	0.079205	-2.2167	-2.8396	-2.9375	-2.425	-2.8937	-2.775	-2.5396	-2.9417	-2.5687	-2.8875	-3.0146	-2.5479	-2.9417	-2.8125	-2.4875	-3.1792	455.936	247.728	371.421	403.606	310.530	279.574	378.181	249.894	321.934	228.222	424.792	223.720	190.019	521.698	409.106	515.582	0.00096822	0.0016639	0.00028329	276.55	1.2502e-05	3.0402e-06	264.89	88.538	1.4579e-05	3.4283e-06	105.82	39.308	35.46	18.526	6.423e-06	21.539	0.0036808	0.0040157	0.0011011	876.56	4.2161e-05	4.4325e-05	439.14	139.79	4.3199e-05	4.4837e-05	200.7	67.989	63.426	29.496	4.4674e-05	35.39	350.027	470.050	514.885	174.217	220.805	452.436	173.053	180.362	168.040	328.977	177.080	181.792	183.710	189.602	394.122	185.480	-8191	255	
3171.809	1	1	0	0	0.18231	0.12931	0.25829	0.14752	0.10214	0.16517	0.13874	0.099252	0.22248	0.058603	0.24617	0.18872	0.065943	0.28975	0.11369	0.22765	-2.1667	-2.7729	-2.9813	-2.5333	-3.0458	-2.8063	-2.6	-3.0812	-2.6875	-2.9354	-2.95	-2.7792	-2.9479	-2.8875	-2.5875	-3.0458	188.519	384.727	343.059	517.976	415.430	466.148	209.076	280.086	415.572	239.440	440.138	421.678	470.000	357.024	396.424	169.917	0.00072706	0.00064508	0.0005567	271.98	8.1027e-06	1.8238e-05	268.89	89.928	5.037e-06	1.3535e-05	108.21	40.389	35.575	18.815	1.1588e-05	22.033	0.0040068	0.0041709	0.0011288	900.01	4.5391e-05	4.5627e-05	444.03	143.07	4.5799e-05	4.5878e-05	202	70.042	65.275	29.991	4.433e-05	36.499	307.951	415.461	326.030	173.401	266.707	269.718	173.173	179.580	371.932	312.892	177.650	181.770	184.569	189.637	394.084	185.587	-8191	255	
3171.905	1	1	0	0	0.1795	0.13739	0.16502	0.087169	0.042379	0.044076	0.4	0.060921	0.090274	0.0561	0.08188	0.040888	0.07232	0.24353	0.12891	0.13106	-2.2042	-2.5979	-2.8812	-2.4813	-3.0563	-2.7292	-2.6396	-2.9667	-2.7042	-3.0667	-2.8917	-2.5938	-2.9313	-2.8604	-2.2833	-2.9979	477.504	379.002	262.745	217.018	495.431	181.890	177.695	375.991	210.406	394.817	454.551	263.273	230.067	231.676	451.246	401.756	0.0001886	0.0007797	0.0006926	270.14	1.6847e-05	1.6047e-05	266.94	89.18	3.5709e-06	6.9173e-06	103.42	38.514	34.6	18.343	9.951e-06	21.317	0.0041533	0.0042523	0.0011089	931.01	4.6418e-05	4.5677e-05	434.31	143.93	4.5363e-05	4.5138e-05	193.33	69.071	63.416	29.145	4.1161e-05	35.922	341.683	338.417	312.506	174.243	365.128	318.767	172.736	180.331	491.328	215.778	177.279	181.524	184.251	190.038	308.302	185.291	-8191	255	
3171.977	1	1	0	0	0.23197	0.10582	0.22751	0.18173	0.083318	0.12627	0.29676	0.16155	0.1039	0.13278	0.097978	0.18147	0.12957	0.1934	0.21779	0.26373	-2.2542	-2.7896	-2.8937	-2.7979	-2.8604	-2.9521	-2.65	-3.0833	-2.7875	-2.7438	-2.8396	-2.7083	-2.8021	-2.9938	-2.7854	-2.9813	289.609	277.514	291.601	358.385	191.517	199.366	446.389	174.019	288.480	487.710	182.973	238.524	278.470	190.525	317.964	277.741	0.00053345	0.00029266	0.00037758	272.39	3.5083e-06	1.2339e-05	261.86	89.306	1.1714e-05	8.1068e-06	104.94	38.528	34.907	18.457	1.9384e-05	21.641	0.0040176	0.0041023	0.0010511	943.96	4.5491e-05	4.5037e-05	427.74	146.34	4.5605e-05	4.4955e-05	193.82	70.665	63.979	29.116	4.1613e-05	36.685	333.293	408.127	418.181	173.054	457.037	342.213	172.777	179.732	299.497	251.193	177.897	181.633	184.868	189.853	304.163	185.885	-8191	255	
3172.096	1	1	0	0	0.16942	0.036509	0.12541	0.19047	0.18612	0.03004	0.2445	0.32713	0.15262	0.15396	0.11383	0.06742	0.15343	0.19447	0.14323	0.2486	-2.2271	-2.6063	-2.8521	-2.6896	-2.8396	-2.9792	-2.5417	-3.0438	-2.6417	-2.5875	-3.0542	-2.6875	-2.7646	-3.0875	-2.7167	-2.8417	476.671	279.555	455.923	460.070	176.737	473.393	414.503	489.526	327.470	342.108	167.537	166.180	199.694	200.244	318.870	162.435	0.00061306	0.0011682	0.00037534	267.72	1.0158e-05	7.4926e-06	267.72	89.328	1.8209e-05	6.9788e-06	106.26	39.444	35.399	18.494	1.5584e-05	21.69	0.0040048	0.0040208	0.0010689	968.23	4.5531e-05	4.3703e-05	435.94	148.38	4.556e-05	4.3299e-05	198.6	72.143	64.358	28.886	4.3706e-05	37.289	333.554	246.670	440.253	172.488	498.821	355.594	172.409	179.619	257.680	354.963	176.922	181.501	184.775	189.647	187.090	185.572	-8191	255	
3172.192	1	1	0	0	0.15358	0.19352	0.11856	0.066748	0.10483	0.16615	0.24118	0.030831	0.10796	0.24322	0.11248	0.17767	0.075558	0.12762	0.185	0.23451	-2.3521	-2.1917	-3.0167	-2.6792	-2.7229	-3.0563	-2.5687	-2.925	-2.7583	-2.5479	-3.0833	-2.6	-2.7188	-3.1021	-2.6896	-2.8021	513.109	510.455	218.788	350.454	400.209	275.518	308.367	366.347	201.750	311.956	212.212	172.283	183.933	169.663	205.949	337.992	0.00038365	0.0013796	0.00029571	265.59	1.0274e-05	3.2709e-06	268.1	90.489	8.9273e-06	1.3969e-05	108.4	39.795	35.419	18.604	1.1084e-05	21.592	0.004081	0.0039516	0.0011407	985.17	4.668e-05	4.3081e-05	449.76	150.83	4.6449e-05	4.317e-05	206.81	73.273	65.062	28.832	4.5802e-05	36.951	372.761	345.509	459.763	175.217	435.610	449.102	172.126	179.960	335.315	449.784	176.296	182.081	184.864	189.915	253.682	185.514	-8191	255	
3172.288	1	1	0	0	0.043153	0.36966	0.057486	0.16384	0.24103	0.14201	0.16414	0.24688	0.17038	0.16278	0.11219	0.092193	0.32652	0.15008	0.22887	0.19663	-2.6396	-2.5167	-3.0833	-2.8208	-2.6333	-3.1813	-2.7375	-2.8438	-2.9521	-2.4854	-2.9729	-2.5938	-2.7271	-3.0812	-2.8167	-2.9646	425.935	520.750	162.387	229.714	489.262	272.245	210.878	473.806	312.617	261.476	187.211	265.592	442.005	491.419	392.388	442.308	0.00055689	0.00017384	0.00048195	265.19	1.1051e-05	1.4949e-05	265.4	88.335	1.6195e-05	1.1895e-05	104.75	38.033	34.183	18.167	8.3125e-06	21.19	0.0039997	0.0038448	0.0011585	961.98	4.4756e-05	4.1864e-05	445.39	147.22	4.4197e-05	4.2415e-05	203.16	70.468	62.261	28.551	4.641e-05	36.554	346.082	350.009	381.034	174.561	407.208	243.996	172.289	180.339	277.731	308.662	176.817	181.723	184.867	189.185	171.876	185.727	-8191	255	
3172.384	1	1	0	0	0.1014	0.13414	0.11891	0.073627	0.07335	0.079355	0.088907	0.11034	0.30569	0.091639	0.086527	0.28673	0.21776	0.10526	0.15735	0.42274	-2.5938	-2.6792	-2.8812	-2.5687	-2.6896	-3.0563	-2.6396	-3.0312	-2.8958	-2.4146	-2.85	-2.7375	-2.6396	-2.9437	-2.6437	-2.7812	345.072	211.899	268.980	471.132	443.007	314.486	361.408	219.376	292.301	419.710	412.760	437.677	378.758	469.464	198.926	462.214	0.00032476	0.0017767	0.00021157	275.42	7.9396e-06	1.5264e-05	261.72	88.231	1.8249e-05	4.9267e-06	105.43	38.717	35.264	18.402	9.7905e-06	21.507	0.0038525	0.003977	0.0011834	966.8	4.3623e-05	4.4159e-05	451.4	148.37	4.3167e-05	4.5393e-05	207.11	72.041	62.722	29.43	4.7475e-05	37.289	343.059	197.503	311.558	173.736	406.175	281.878	173.056	180.162	338.644	166.725	176.763	181.997	184.686	189.205	377.233	186.239	-8191	255	
3172.505	1	1	0	0	0.14814	0.19169	0.12504	0.14658	0.11197	0.092156	0.1452	0.12973	0.05784	0.15664	0.18665	0.18462	0.10109	0.18926	0.17362	0.085633	-2.4813	-3.0167	-2.9021	-2.8333	-2.5354	-2.9625	-2.8854	-2.7958	-2.8937	-2.6146	-2.8979	-2.9333	-2.5792	-3.0875	-2.7125	-2.6188	279.400	407.076	247.360	362.025	371.441	486.011	465.824	267.881	278.721	519.205	462.522	515.764	369.183	428.622	163.709	176.730	0.0001466	0.00059822	0.00060974	267.79	7.988e-06	9.5648e-06	267.55	89.432	1.8867e-05	1.2205e-05	107.2	39.684	35.24	18.512	2.094e-05	21.683	0.0038155	0.0042496	0.0012012	974.45	4.289e-05	4.6636e-05	455.14	149.73	4.3293e-05	4.7896e-05	209.86	72.985	63.688	30.334	4.8273e-05	37.563	382.992	429.651	166.089	174.896	428.602	228.166	172.763	180.631	387.909	518.386	176.678	181.977	184.187	189.293	507.674	185.945	-8191	255	
3172.577	1	1	0	0	0.17698	0.2891	0.31899	0.30947	0.11044	0.12887	0.20196	0.17534	0.2868	0.15335	0.12438	0.19464	0.22509	0.060114	0.064642	0.080803	-2.3646	-2.5875	-2.8187	-2.7229	-2.4667	-2.9646	-2.8063	-2.8083	-2.9667	-2.8354	-2.9208	-3.0667	-2.6354	-3.0521	-3.075	-2.6625	460.209	375.144	307.972	287.400	209.831	518.178	481.010	405.682	238.139	258.852	280.202	406.630	211.582	176.043	468.354	242.062	0.00085121	0.00059008	0.00037566	263.68	8.0402e-06	4.9318e-06	267.63	88.344	1.49e-05	5.6334e-06	106.35	38.675	34.693	18.135	9.0016e-06	21.239	0.0039149	0.0044444	0.0012262	973.03	4.487e-05	4.8647e-05	460.6	148.13	4.4246e-05	4.8169e-05	206.35	69.821	62.939	29.735	4.6679e-05	35.883	357.556	171.426	283.459	176.324	177.385	304.518	172.677	180.122	233.266	508.266	177.228	182.420	184.784	189.823	334.983	185.937	-8191	255	
3172.673	1	1	0	0	0.080244	0.15616	0.25417	0.10187	0.1245	0.36551	0.052963	0.18927	0.18622	0.27041	0.035824	0.036993	0.15608	0.10751	0.16991	0.09011	-2.6604	-2.7458	-2.5146	-2.9729	-2.5396	-2.8521	-3.0187	-2.5604	-2.9021	-2.5812	-2.8333	-2.9771	-2.5917	-2.8271	-2.9229	-2.3958	414.687	405.667	353.536	299.523	462.843	474.935	329.414	192.295	292.479	231.818	517.294	485.177	474.016	290.241	449.847	452.931	0.00076817	0.00075202	9.2447e-05	263.21	8.5729e-06	9.1212e-06	264.18	88.103	2.2874e-05	1.3704e-05	103.82	38.453	34.375	18.225	4.5757e-06	21.144	0.0039728	0.0043624	0.0011976	923.53	4.5896e-05	4.7921e-05	450.7	144.03	4.6095e-05	4.7766e-05	205.37	68.286	64.168	29.621	4.6027e-05	35.515	322.805	311.180	353.779	175.586	235.526	381.186	172.754	179.990	518.729	470.685	177.256	182.261	184.491	189.738	305.164	185.259	-8191	255	
3172.793	1	1	0	0	0.15383	0.052324	0.17369	0.16058	0.081688	0.22584	0.33033	0.099549	0.16823	0.13838	0.15489	0.04908	0.054831	0.27342	0.16246	0.24644	-2.575	-2.7479	-2.7229	-2.9417	-2.5708	-2.7562	-2.8979	-2.6333	-2.9688	-2.7542	-2.8667	-3.0979	-2.5917	-2.8187	-3.0187	-2.6937	294.488	223.825	336.785	373.442	339.960	202.446	514.690	384.225	387.410	244.078	511.924	519.123	193.924	445.843	450.265	410.556	0.0003279	0.0014729	0.0002794	273	8.9943e-06	2.0132e-05	268.27	89.176	1.726e-05	6.981e-06	105.87	39.334	34.291	18.379	2.0435e-05	21.445	0.0041165	0.0043141	0.0011758	920.2	4.7123e-05	4.7413e-05	448.16	144.96	4.7461e-05	4.7664e-05	204.47	69.951	65.816	29.971	4.5703e-05	36.536	360.343	220.769	245.122	172.726	306.001	222.996	173.003	180.079	442.186	519.274	177.512	182.047	184.623	189.200	420.398	185.919	-8191	255	
3172.890	1	1	0	0	0.10985	0.092698	0.065903	0.24562	0.14139	0.33317	0.016285	0.26115	0.041457	0.019361	0.079889	0.043175	0.070861	0.10931	0.16938	0.07139	-2.4125	-2.8333	-2.4667	-2.9917	-2.8979	-2.6688	-2.9	-2.6646	-2.8771	-2.7792	-2.6625	-2.8833	-2.7521	-2.8083	-2.9667	-2.5583	496.224	446.302	255.121	233.159	288.928	246.450	229.822	502.084	380.697	322.644	414.147	198.329	402.912	460.881	304.743	321.774	0.00022355	0.00123	0.00018114	275.99	1.1858e-05	8.4889e-06	265.66	89.838	1.3779e-05	8.8716e-06	106.3	40.196	35.444	18.446	2.2087e-05	21.735	0.0042962	0.00443	0.001165	961.03	4.9157e-05	4.8633e-05	446.79	149.41	4.8799e-05	4.8394e-05	203.54	72.69	66.814	30.295	4.4213e-05	37.581	340.230	255.893	460.279	172.773	278.097	181.883	173.116	179.735	330.709	314.724	178.048	182.064	184.611	189.445	330.665	185.533	-8191	255	
3172.984	1	1	0	0	0.071753	0.039572	0.05899	0.15715	0.1535	0.26123	0.12117	0.28202	0.23148	0.37359	0.0865	0.22014	0.11144	0.14149	0.086987	0.037882	-2.4292	-2.875	-2.6375	-2.8583	-2.9708	-2.8354	-3.0563	-2.5521	-2.8271	-2.8729	-2.5354	-2.9646	-2.7062	-2.7229	-3.0292	-2.8688	479.060	508.318	198.718	311.833	425.542	393.622	426.530	425.208	461.643	466.405	398.809	412.411	504.285	439.245	514.538	180.928	0.00084567	0.00068179	0.00040999	269.76	2.343e-05	6.1402e-06	263.12	88.193	1.2218e-05	9.3971e-06	103.59	38.215	34.542	18.089	1.4154e-05	20.949	0.0043041	0.0044053	0.0011273	987.64	4.8455e-05	4.7872e-05	437.18	150	4.8172e-05	4.7721e-05	198.62	71.623	65.078	29.444	4.3344e-05	36.937	347.001	426.632	297.180	172.079	377.088	291.732	172.612	179.965	363.721	388.882	177.059	181.885	184.396	189.738	246.176	185.123	-8191	255	
3173.082	1	1	0	0	0.22532	0.082528	0.22953	0.31246	0.27066	0.19372	0.15701	0.10095	0.099722	0.11645	0.074872	0.15478	0.27698	0.11478	0.18289	0.052258	-2.3542	-2.9729	-2.5938	-2.8396	-2.7188	-2.5938	-3.0667	-2.8729	-2.6708	-3.1063	-2.5062	-2.9708	-2.7812	-2.5875	-2.8833	-2.8229	218.729	426.076	254.228	275.766	271.025	196.217	477.087	457.674	164.854	199.902	446.490	265.780	323.378	425.171	418.482	254.196	0.00059142	0.0032469	0.00056964	265.79	6.7023e-06	1.0771e-05	265.32	88.605	1.0937e-05	9.9075e-06	104.29	38.085	34.625	18.331	2.5582e-05	20.966	0.0041846	0.0041665	0.0011105	984.21	4.6843e-05	4.5053e-05	435.82	149.24	4.6258e-05	4.4034e-05	198.44	71.223	64	28.717	4.3563e-05	36.717	287.061	303.997	190.116	173.159	438.255	398.176	172.813	180.365	416.511	398.009	176.827	181.906	185.189	189.514	239.158	185.965	-8191	255	
3173.201	1	1	0	0	0.033155	0.10958	0.1702	0.098792	0.19686	0.034887	0.13384	0.091421	0.18026	0.12815	0.10227	0.24079	0.10664	0.14606	0.19698	0.10583	-2.2229	-3.0729	-2.8021	-2.8771	-2.8646	-2.5708	-2.9354	-2.7458	-2.5542	-2.9229	-2.7625	-2.9688	-2.9875	-2.7417	-2.95	-2.7375	446.757	197.196	226.793	228.001	383.034	428.102	192.757	319.058	240.346	237.755	467.376	479.379	171.533	481.489	478.233	227.092	0.00041918	0.0022174	0.00017849	272.38	1.0731e-05	6.4551e-06	264.53	88.522	9.2315e-06	7.8696e-06	106.34	38.791	35.084	18.236	1.504e-05	21.382	0.0040604	0.003896	0.0011219	965.26	4.5631e-05	4.2309e-05	440.68	147.91	4.5299e-05	4.1968e-05	202.3	71.21	63.705	28.365	4.521e-05	36.769	383.686	379.853	204.209	175.435	421.070	198.192	171.594	180.179	329.074	346.412	176.827	181.853	184.197	189.645	240.367	186.047	-8191	255	
3173.272	1	1	0	0	0.20535	0.2083	0.081505	0.1673	0.34037	0.15282	0.41027	0.19627	0.18378	0.27487	0.11602	0.17635	0.2726	0.23558	0.1061	0.22443	-2.3083	-2.9917	-2.6	-2.7625	-3.0979	-2.7208	-3.0312	-2.6958	-2.5729	-2.8708	-2.7104	-2.8667	-2.8104	-2.6271	-2.9688	-2.7625	293.507	409.169	294.014	349.496	435.042	395.883	458.672	256.075	445.570	482.555	390.874	399.925	515.906	499.625	508.964	174.050	0.00050614	0.00095997	0.00031829	271.18	7.3714e-06	6.0948e-06	269.16	90.261	3.4069e-06	6.2028e-06	106.07	39.328	34.879	18.07	8.8248e-06	21.033	0.004009	0.0038291	0.0011729	965.75	4.4899e-05	4.2013e-05	450.62	148.57	4.4393e-05	4.2453e-05	206.29	71.542	62.574	28.423	4.569e-05	36.243	353.599	219.881	179.297	173.761	494.919	227.875	173.067	180.088	318.371	336.834	177.335	182.175	184.940	189.437	413.370	185.743	-8191	255	
3173.393	1	1	0	0	0.021606	0.26154	0.09529	0.32149	0.18895	0.28084	0.057018	0.14793	0.14399	0.086173	0.021733	0.19058	0.10478	0.27032	0.23371	0.063963	-2.2875	-3.0812	-2.4417	-2.7771	-3.0229	-2.5792	-3.0438	-2.8375	-2.7146	-3.0187	-2.7562	-2.5563	-3.0354	-2.6667	-2.8896	-2.8812	410.173	507.286	291.102	493.774	184.466	399.785	240.739	513.564	282.624	333.419	501.740	395.736	242.752	365.253	403.024	184.247	0.00041483	0.001974	0.00032279	266.76	8.1895e-06	2.3826e-06	262.05	87.578	5.9349e-06	1.4028e-05	101.93	37.95	33.723	18.058	4.7831e-06	21.001	0.0037857	0.0038653	0.0011571	943.17	4.1546e-05	4.2063e-05	438.44	144.07	4.067e-05	4.2007e-05	197.5	68.663	59.377	28.254	4.3586e-05	35.471	433.193	168.057	360.434	172.671	354.338	239.224	172.539	179.377	417.572	192.117	177.044	182.011	185.021	189.487	450.947	185.606	-8191	255	
3173.489	1	1	0	0	0.064734	0.15818	0.18615	0.16661	0.37817	0.071115	0.22617	0.14207	0.092635	0.11062	0.043329	0.24515	0.34726	0.18862	0.21843	0.13002	-2.3667	-2.9646	-2.7625	-2.6729	-2.8937	-2.6958	-2.8021	-3.0479	-2.6688	-2.8896	-2.8833	-2.7021	-3.0062	-2.6979	-2.75	-2.8979	312.697	198.243	305.158	223.182	391.663	490.342	398.971	382.409	504.020	424.207	510.362	168.007	431.972	497.828	410.086	398.787	0.000855	0.00093561	0.0002614	267.62	7.3766e-06	6.8664e-06	263.09	88.734	1.2447e-05	3.3026e-06	103.53	38.775	34.58	18.253	9.4436e-06	21.372	0.003521	0.0038975	0.0011107	916.91	3.9376e-05	4.256e-05	435.62	142.12	3.8592e-05	4.2229e-05	195.35	67.345	58.502	28.265	4.1235e-05	34.683	374.799	181.674	316.022	174.537	197.294	168.983	172.817	181.005	520.634	323.375	177.311	182.095	184.490	189.795	491.299	186.106	-8191	255	
3173.585	1	1	0	0	0.11645	0.28579	0.066308	0.2752	0.037724	0.24706	0.045401	0.22404	0.18215	0.11106	0.095044	0.021407	0.022498	0.021414	0.067454	0.18859	-2.0146	-2.8688	-2.6833	-2.6542	-2.8042	-2.8021	-2.8896	-2.8354	-2.7167	-2.7604	-2.875	-2.5083	-2.9375	-2.6958	-2.7729	-3.0875	514.478	471.063	163.327	459.002	428.027	214.756	340.213	430.291	302.933	487.307	488.967	384.251	343.661	401.892	323.607	221.339	0.00088849	0.00071519	0.00024137	264.83	2.2332e-05	6.2352e-06	264.87	88.679	1.2631e-05	5.1409e-06	105.93	39.792	35.081	18.536	8.5607e-06	21.607	0.0033683	0.0037953	0.0010536	869.83	3.8825e-05	4.2576e-05	433.56	140.18	3.963e-05	4.2882e-05	197.25	67.752	60.344	28.805	4.237e-05	34.799	353.622	199.326	338.679	174.490	239.749	326.338	172.487	180.135	495.822	302.685	176.998	182.282	183.661	189.485	516.205	185.718	-8191	255	
3173.681	1	1	0	0	0.15942	0.066006	0.10857	0.1392	0.15701	0.1007	0.15331	0.25684	0.25526	0.13539	0.14762	0.1186	0.40142	0.16316	0.33344	0.085583	-2.4396	-2.8104	-2.8063	-2.6458	-2.9792	-2.6333	-2.9083	-3.0229	-2.5625	-2.9104	-2.8854	-2.5625	-2.8042	-2.6813	-2.7083	-3.1437	205.310	429.904	219.221	307.169	346.407	303.436	483.006	482.231	370.623	455.557	333.967	437.805	385.650	467.735	480.337	197.547	0.001035	0.00018801	0.00037316	268.14	5.0892e-06	9.5046e-06	268.29	87.921	7.9554e-06	1.1007e-05	103.66	38.119	34.068	17.972	1.6326e-05	21.242	0.0036179	0.003943	0.00109	872.28	4.1996e-05	4.371e-05	437.91	138.86	4.1854e-05	4.3118e-05	194.92	65.283	60.406	28.193	4.1074e-05	33.58	321.631	325.397	401.461	174.446	259.587	269.130	172.818	180.134	508.895	443.081	177.153	181.664	184.126	189.715	400.768	185.122	-8191	255	
3173.802	1	1	0	0	0.090275	0.4118	0.27975	0.061069	0.17717	0.14993	0.24656	0.12384	0.14939	0.08159	0.088742	0.29487	0.15281	0.12662	0.08073	0.058585	-2.3	-2.6521	-2.9229	-2.6813	-2.9354	-2.6771	-2.6437	-2.8625	-2.6375	-2.9271	-2.9875	-2.4896	-3.0396	-2.6625	-2.725	-3.0354	351.276	179.889	191.816	352.045	457.446	347.924	376.577	473.239	374.135	515.779	261.240	398.055	356.059	423.675	436.070	419.660	0.00091243	0.0010669	0.00019083	266.04	6.8637e-06	8.8007e-06	266.2	87.366	2.7719e-05	6.3352e-06	104.45	38.166	34.397	18.164	2.7519e-05	21.393	0.003659	0.003821	0.0010362	842.66	4.2119e-05	4.2414e-05	426.41	137.56	4.2477e-05	4.2434e-05	191.71	65.845	61.379	28.314	3.9423e-05	34.045	354.197	434.323	230.735	173.355	514.965	376.419	172.771	179.615	204.200	165.416	177.024	181.709	184.083	189.617	407.842	185.175	-8191	255	
3173.874	1	1	0	0	0.10109	0.19433	0.19972	0.2223	0.014136	0.09291	0.1295	0.16884	0.26179	0.064683	0.075443	0.17883	0.25494	0.058808	0.061382	0.14914	-2.275	-2.6688	-3.0729	-2.6458	-3.0271	-3.0083	-2.5833	-3.0687	-2.675	-2.7354	-3.0125	-2.6604	-2.8604	-2.8833	-2.5667	-3.1208	449.754	484.733	257.897	507.189	519.138	368.188	409.072	392.618	496.171	386.751	290.346	279.222	427.252	368.022	446.163	446.190	0.0004908	0.00035153	0.00036256	275	7.0941e-06	1.2153e-05	267.35	88.721	1.6476e-05	1.0831e-06	104.61	39.54	34.999	18.384	9.4711e-07	21.574	0.0036896	0.0037703	0.00098518	854.64	4.1809e-05	4.1559e-05	419.69	139.48	4.2336e-05	4.2313e-05	189.86	68.459	62.242	28.683	3.9049e-05	35.376	370.261	273.078	314.747	171.942	409.575	321.948	172.782	179.948	357.986	460.271	177.192	181.676	184.382	189.314	380.801	184.699	-8191	255	
3173.970	1	1	0	0	0.22798	0.038015	0.046119	0.27432	0.14773	0.18829	0.24464	0.14398	0.21414	0.1587	0.13966	0.12318	0.21468	0.036626	0.213	0.21446	-2.1562	-2.6854	-2.9417	-2.6188	-2.8167	-2.8542	-2.7479	-3.0083	-2.75	-2.7521	-2.8729	-2.5354	-2.775	-3.0167	-2.6208	-2.925	244.705	406.790	266.908	521.456	506.596	237.650	412.941	165.257	408.889	198.817	497.951	323.903	500.227	377.579	486.311	199.845	0.0009875	0.00063655	0.00043317	273.14	2.6413e-06	9.5828e-06	269.26	89.313	3.6674e-06	1.5923e-05	107.44	40.971	35.768	18.694	8.7985e-06	22.057	0.0037633	0.0038421	0.00097618	898.27	4.2084e-05	4.1695e-05	421.44	142.88	4.2123e-05	4.1621e-05	190.29	70.231	62.743	28.679	3.9303e-05	36.132	350.559	410.987	470.785	172.780	385.319	308.173	172.597	180.064	457.348	367.290	177.321	182.205	184.569	189.790	460.098	186.020	-8191	255	
3174.066	1	1	0	0	0.23433	0.32333	0.21446	0.10926	0.32955	0.20997	0.078684	0.093967	0.17859	0.19025	0.21389	0.25707	0.23116	0.23848	0.19922	0.014256	-2.2521	-2.6646	-2.9625	-2.6292	-2.8812	-2.9729	-2.55	-2.9917	-2.8167	-2.5875	-3.1208	-2.5812	-2.7938	-3.0458	-2.6979	-2.9646	169.154	324.866	479.921	249.721	241.226	208.039	375.336	234.670	332.861	163.427	411.468	454.970	351.142	418.182	412.980	488.207	0.00065552	0.00094123	0.00040198	275.31	4.2416e-06	6.2711e-06	264.92	87.314	1.4486e-05	8.5114e-06	105.19	38.186	34.372	18.097	1.41e-05	21.38	0.0037473	0.0037268	0.00097956	902.14	4.1195e-05	3.9268e-05	415.24	140.41	4.0839e-05	3.8736e-05	186.93	67.326	60.13	27.341	3.9176e-05	35.163	325.734	290.339	499.233	175.588	347.496	394.719	172.436	179.902	183.212	416.682	175.949	182.160	184.159	189.804	261.946	185.469	-8191	255	
3174.162	1	1	0	0	0.23934	0.24099	0.14712	0.24097	0.17803	0.20389	0.21934	0.26249	0.23896	0.076227	0.1606	0.14027	0.20192	0.10276	0.2022	0.098744	-2.3917	-2.5438	-3.0396	-2.6854	-2.6979	-2.9125	-2.7896	-2.9313	-3.0104	-2.5708	-3.0687	-2.8583	-2.45	-3.0646	-2.6375	-2.6937	434.875	285.001	469.907	203.185	245.556	204.173	444.158	521.541	446.671	358.667	429.931	463.774	504.750	485.175	299.700	275.592	0.00061293	0.00024631	0.00021262	268.29	6.3847e-06	1.1629e-05	264.63	88.233	7.4408e-06	6.326e-06	105.97	39.173	34.533	18.476	6.5341e-06	21.548	0.0036625	0.0035274	0.0010156	903.88	4.1533e-05	3.8323e-05	425.75	142.19	4.13e-05	3.8084e-05	193.19	68.309	60.678	27.411	4.1177e-05	35.442	335.331	267.145	207.939	174.430	364.526	427.868	172.686	180.330	333.275	278.497	176.988	182.006	184.235	189.460	299.039	185.523	-8191	255	
3174.281	1	1	0	0	0.13367	0.19006	0.12302	0.18265	0.23745	0.22755	0.24644	0.071621	0.05842	0.079017	0.22733	0.22528	0.11434	0.17835	0.17494	0.24738	-2.5542	-2.5167	-3.0354	-2.8708	-2.6958	-3.2125	-2.6875	-2.7188	-2.9562	-2.5875	-3.0771	-2.65	-2.6854	-2.9375	-2.7021	-2.8146	287.494	187.269	298.043	484.285	189.733	263.294	254.844	413.782	394.135	310.795	400.624	276.299	366.150	224.855	298.571	409.934	0.0005528	0.00094008	0.00059541	261.53	5.5089e-06	5.4508e-06	270.21	88.963	9.1955e-06	1.4461e-05	107.86	39.933	35.541	18.398	1.2921e-05	21.972	0.0036227	0.0035008	0.0010647	906.87	4.1517e-05	3.8773e-05	438.46	143.93	4.1131e-05	3.9678e-05	199.7	70.004	61.432	28.14	4.3494e-05	36.24	366.975	467.824	199.996	174.037	395.051	319.068	172.652	180.257	301.574	200.878	177.642	181.924	184.268	189.610	498.479	185.548	-8191	255	
3174.377	1	1	0	0	0.25775	0.18564	0.067029	0.11976	0.24449	0.31678	0.13974	0.17182	0.11395	0.03113	0.093707	0.040948	0.18281	0.081734	0.25324	0.19752	-2.5687	-2.5958	-3.0667	-2.7062	-2.8083	-2.8604	-2.8042	-2.6229	-2.9208	-2.5146	-2.9458	-2.6896	-2.7917	-2.8417	-2.6458	-2.7729	451.369	202.608	427.128	470.814	490.164	304.448	448.007	171.579	415.064	278.870	497.747	356.869	178.138	177.980	307.873	436.291	0.00067795	0.0015354	0.00039554	276.14	1.2563e-05	2.3523e-06	271.99	89.916	1.6011e-05	1.5427e-05	108.86	39.961	35.155	18.26	1.9403e-05	21.476	0.0035896	0.0037332	0.0011051	922.8	4.0549e-05	4.1168e-05	447.05	146.16	4.0422e-05	4.1915e-05	201.57	69.791	59.893	28.299	4.2721e-05	35.597	391.874	201.099	185.535	174.374	410.121	411.396	172.803	179.999	372.599	225.364	176.802	181.136	184.334	189.002	483.342	185.804	-8191	255	
3174.473	1	1	0	0	0.1345	0.21449	0.25057	0.19695	0.28584	0.04218	0.49824	0.1889	0.036062	0.16525	0.10511	0.38858	0.068517	0.11906	0.14485	0.22993	-2.65	-2.4979	-2.85	-2.9083	-2.625	-2.7271	-2.8458	-2.4417	-3.0375	-2.6208	-2.9813	-2.9604	-2.6208	-2.9542	-2.7271	-2.7562	218.118	392.871	315.655	486.161	248.189	184.891	496.474	172.766	183.410	178.142	237.341	266.346	324.642	249.293	172.347	390.478	0.00069342	0.001669	0.00036745	276.95	7.4729e-06	2.7359e-05	266.12	87.513	4.2876e-06	4.555e-06	105.34	38.624	34.692	18.309	1.7323e-05	21.226	0.0034404	0.0038214	0.0010826	901.81	3.8802e-05	4.1937e-05	434.67	141.96	3.889e-05	4.2844e-05	197.39	68.206	59.701	28.677	4.321e-05	35.336	387.860	491.168	274.448	175.409	203.194	235.375	172.938	180.652	286.563	372.001	176.712	181.980	183.761	188.935	452.644	185.810	-8191	255	
3174.570	1	1	0	0	0.30875	0.36556	0.090691	0.29355	0.21435	0.083922	0.13046	0.072502	0.086522	0.14561	0.16567	0.1948	0.14555	0.42399	0.21519	0.035924	-2.5	-2.6437	-2.7375	-2.9813	-2.6021	-2.8729	-2.6937	-2.5104	-2.8563	-2.7771	-2.7104	-3.0563	-2.5833	-3.0687	-2.7792	-2.6312	483.209	292.007	374.012	257.857	396.497	310.148	496.863	457.601	496.131	365.618	496.687	342.987	487.339	482.754	326.181	209.166	0.00063611	0.00073687	0.00016743	268.49	1.4032e-05	1.2365e-05	267.93	88.16	1.6407e-05	6.7928e-06	107.12	39.711	34.906	18.505	7.3663e-06	21.57	0.003496	0.0039819	0.0010911	892.07	4.0138e-05	4.3565e-05	438.99	141.44	4.0327e-05	4.4305e-05	199.86	68.308	61.352	29.166	4.3429e-05	35.196	320.975	198.461	390.297	175.429	264.649	184.726	172.875	180.320	163.884	300.166	177.078	182.621	183.648	189.588	347.926	185.401	-8191	255	
3174.666	1	1	0	0	0.299	0.20217	0.15395	0.14723	0.30186	0.21622	0.14273	0.32183	0.11104	0.14379	0.22044	0.19303	0.069396	0.11363	0.11584	0.17662	-2.6542	-2.5875	-2.6771	-3.0625	-2.7042	-3.0958	-2.9729	-2.7208	-2.8708	-2.8146	-2.525	-3.125	-2.5583	-2.9375	-2.7271	-2.6875	399.658	324.187	406.816	374.679	367.396	505.189	171.961	418.252	274.440	263.143	211.364	365.404	308.507	463.513	471.948	270.791	0.00072449	0.00085573	0.00042941	277.34	4.5096e-06	8.5894e-06	270.34	89.575	2.9498e-05	7.3931e-06	108.24	40.313	35.887	18.88	1.3063e-05	22.093	0.0036746	0.0040552	0.0011075	874.98	4.2373e-05	4.4246e-05	443.42	141.41	4.2863e-05	4.4413e-05	202.49	68.499	63.455	29.404	4.3361e-05	35.565	345.415	239.557	297.265	175.705	241.633	304.344	172.804	180.569	163.850	368.867	177.764	182.113	184.740	189.636	471.244	185.130	-8191	255	
3174.762	1	1	0	0	0.027731	0.25255	0.087076	0.05539	0.053691	0.33773	0.026996	0.1467	0.1176	0.3374	0.08723	0.06471	0.16895	0.30818	0.031712	0.26292	-2.6562	-2.7354	-2.6813	-2.8917	-2.6583	-2.9333	-2.9333	-2.8667	-3.0417	-2.8229	-2.7375	-2.9417	-2.7812	-2.7771	-3.0479	-2.6729	388.110	483.241	177.404	193.008	377.875	185.531	207.989	472.278	479.814	519.045	356.936	393.629	388.616	192.380	351.523	398.275	0.00079348	0.0010263	0.00064072	272.04	6.5224e-06	1.4041e-05	269.94	89.764	2.3253e-06	5.344e-06	106.67	39.078	34.633	18.317	2.4838e-05	21.289	0.0038957	0.0040902	0.0011084	880.84	4.4338e-05	4.4148e-05	439.19	141.24	4.3737e-05	4.373e-05	195.74	66.896	62.511	28.692	4.0599e-05	34.828	328.862	317.652	387.239	174.176	230.600	360.622	173.145	180.192	197.125	506.300	177.174	181.703	184.450	188.975	415.601	185.347	-8191	255	
3174.882	1	1	0	0	0.23835	0.066853	0.16885	0.12879	0.24131	0.10401	0.12868	0.15883	0.16224	0.16285	0.18742	0.089487	0.30179	0.2671	0.099379	0.12277	-2.8146	-2.7396	-2.6104	-2.9354	-2.7083	-2.85	-3.0167	-2.3187	-2.9271	-2.9167	-2.5146	-3.0646	-2.6562	-2.7354	-3.0125	-2.6271	247.531	420.352	246.440	460.413	271.090	494.156	290.210	188.642	181.431	467.387	515.965	413.657	432.948	457.510	322.772	382.399	0.00051871	0.00071796	0.000184	270.94	5.906e-06	7.7649e-06	265.66	89.593	1.2551e-05	8.1581e-06	106.92	39.589	35.253	18.303	8.4627e-06	21.689	0.0038406	0.0039303	0.0010303	878.26	4.3777e-05	4.3168e-05	427.11	141.93	4.3715e-05	4.3475e-05	192.67	68.629	62.963	28.802	3.96e-05	35.828	335.019	325.548	311.024	172.769	203.840	235.576	172.846	180.281	298.218	371.986	177.469	181.874	184.194	189.614	254.109	184.737	-8191	255	
3174.977	1	1	0	0	0.0098084	0.20752	0.14688	0.11991	0.09371	0.024558	0.208	0.21559	0.28308	0.11491	0.22223	0.085733	0.31422	0.13412	0.43993	0.053239	-2.475	-2.7792	-2.6437	-3.1417	-2.6021	-2.8146	-2.8396	-2.7938	-2.6146	-2.8896	-2.4437	-2.9313	-2.7271	-2.6437	-2.7458	-2.6583	511.662	298.918	206.507	383.240	394.283	288.143	460.641	449.808	374.351	315.989	436.364	316.320	326.175	191.988	521.591	426.994	0.00032884	0.00064241	9.2256e-05	274.8	7.3813e-06	6.4152e-06	271.27	89.357	1.5594e-05	1.8275e-05	108.9	39.848	35.483	18.469	2.1258e-05	22.148	0.0038804	0.0039639	0.001014	923.31	4.4468e-05	4.3621e-05	429.45	145.83	4.4352e-05	4.3734e-05	194.95	71.127	63.926	29.052	4.0667e-05	37.116	363.471	471.229	368.855	173.989	346.370	322.482	172.927	180.420	345.832	388.141	176.859	181.561	184.194	190.049	266.271	185.853	-8191	255	
3175.073	1	1	0	0	0.23131	0.19464	0.1696	0.45299	0.16329	0.15764	0.16911	0.086628	0.10689	0.28311	0.20447	0.10977	0.054714	0.12813	0.19836	0.17716	-2.4479	-2.9333	-2.6792	-2.8833	-2.7562	-2.6333	-2.9854	-2.6063	-2.8583	-3.1396	-2.6229	-3.1104	-2.7417	-2.725	-2.9813	-2.7646	305.315	521.353	447.757	231.059	289.969	505.597	374.965	323.962	446.950	406.324	427.012	180.247	497.228	422.090	385.385	501.908	0.00038962	0.00079225	0.00049768	272.29	7.3497e-06	5.9552e-06	272.13	90.716	1.6709e-05	1.4416e-05	110.1	41.22	35.681	18.672	2.4776e-05	21.886	0.00396	0.0039646	0.0010639	958.65	4.5301e-05	4.3308e-05	439.78	149.58	4.5386e-05	4.3084e-05	201.76	73.113	64.564	28.938	4.2584e-05	37.127	313.385	334.436	202.719	175.753	329.884	458.307	173.038	180.205	515.533	334.403	176.662	182.384	184.809	190.033	222.459	185.412	-8191	255	
3175.169	1	1	0	0	0.17843	0.1875	0.12415	0.065845	0.19064	0.16585	0.077166	0.056773	0.095463	0.073297	0.18246	0.24042	0.29867	0.024491	0.26307	0.11474	-2.1292	-2.9562	-2.5708	-2.9583	-3	-2.4479	-3.0062	-2.8979	-2.8479	-3.1542	-2.7792	-2.8125	-2.9896	-2.7146	-2.9625	-2.9042	409.848	398.806	365.116	221.718	308.284	403.903	407.259	309.454	338.545	247.456	382.839	388.271	251.930	433.436	442.343	504.144	0.00051687	0.0016318	0.00038723	269.04	4.8136e-06	3.3528e-06	265.55	88.273	2.0649e-05	1.2865e-05	106.78	38.624	34.506	18.215	1.7193e-05	21.344	0.0039399	0.0037482	0.00109	948.23	4.4233e-05	4.0894e-05	437.06	146.01	4.3961e-05	4.0363e-05	199.16	69.979	62.624	28.025	4.343e-05	36.237	360.573	340.275	165.069	173.864	249.163	423.363	172.694	179.815	363.868	282.180	176.480	182.461	184.746	189.527	193.623	185.771	-8191	255	
#DATA ENDS
