BOXY.EXE: ISS Imagent and Oximeter Data Acquisition Program Version 0.80
Ascii Record File

#ACQ INFORMATION
2  Detector Channels 
16  External MUX Channels 
1  Auxiliary Channels 
5000  Waveform (CCF) Frequency (Hz)
1  Waveforms Skipped 
30  Waveforms Averaged 
1  Cycles Averaged 
16  Acquisitions per Waveform 
10.0806  Updata Rate (Hz) 

#FILE INFORMATION
TRUE -- External MUX Channel results are PARSED.
FALSE -- AC DC and Phase are NOT grouped.
TRUE -- Companion Program Settings File CREATED.
FALSE -- AC data not excluded
FALSE -- DC data not excluded
FALSE -- Phase data not excluded
FALSE -- Auxillary Chn. data not excluded
Tab delimiters

#CALIBRATION STATE
TRUE -- Waveform Calibration Values APPLIED.


#AUX CALIBRATION VALUES
Val Type	aux-1	

Term	1.0000e+00	
Factor	0.0000e+00	


#WF CALIBRATION VALUES
A = Detector Channel
Val Type	A-AC1	A-AC2	A-AC3	A-AC4	A-AC5	A-AC6	A-AC7	A-AC8	A-AC9	A-AC10	A-AC11	A-AC12	A-AC13	A-AC14	A-AC15	A-AC16	A-DC1	A-DC2	A-DC3	A-DC4	A-DC5	A-DC6	A-DC7	A-DC8	A-DC9	A-DC10	A-DC11	A-DC12	A-DC13	A-DC14	A-DC15	A-DC16	A-Ph1	A-Ph2	A-Ph3	A-Ph4	A-Ph5	A-Ph6	A-Ph7	A-Ph8	A-Ph9	A-Ph10	A-Ph11	A-Ph12	A-Ph13	A-Ph14	A-Ph15	A-Ph16	

Term	0.00000e+00	0.00000e+00	0.00000e+00	0.00000e+00	0.00000e+00	0.00000e+00	0.00000e+00	0.00000e+00	0.00000e+00	0.00000e+00	0.00000e+00	0.00000e+00	0.00000e+00	0.00000e+00	0.00000e+00	0.00000e+00	0.00000e+00	0.00000e+00	0.00000e+00	0.00000e+00	0.00000e+00	0.00000e+00	0.00000e+00	0.00000e+00	0.00000e+00	0.00000e+00	0.00000e+00	0.00000e+00	0.00000e+00	0.00000e+00	0.00000e+00	0.00000e+00	0.00000e+00	0.00000e+00	0.00000e+00	0.00000e+00	0.00000e+00	0.00000e+00	0.00000e+00	0.00000e+00	0.00000e+00	0.00000e+00	0.00000e+00	0.00000e+00	0.00000e+00	0.00000e+00	0.00000e+00	0.00000e+00	
Factor	1.00000e+00	1.00000e+00	1.00000e+00	1.00000e+00	1.00000e+00	1.00000e+00	1.00000e+00	1.00000e+00	1.00000e+00	1.00000e+00	1.00000e+00	1.00000e+00	1.00000e+00	1.00000e+00	1.00000e+00	1.00000e+00	1.00000e+00	1.00000e+00	1.00000e+00	1.00000e+00	1.00000e+00	1.00000e+00	1.00000e+00	1.00000e+00	1.00000e+00	1.00000e+00	1.00000e+00	1.00000e+00	1.00000e+00	1.00000e+00	1.00000e+00	1.00000e+00	X	X	X	X	X	X	X	X	X	X	X	X	X	X	X	X	

B = Detector Channel
Val Type	B-AC1	B-AC2	B-AC3	B-AC4	B-AC5	B-AC6	B-AC7	B-AC8	B-AC9	B-AC10	B-AC11	B-AC12	B-AC13	B-AC14	B-AC15	B-AC16	B-DC1	B-DC2	B-DC3	B-DC4	B-DC5	B-DC6	B-DC7	B-DC8	B-DC9	B-DC10	B-DC11	B-DC12	B-DC13	B-DC14	B-DC15	B-DC16	B-Ph1	B-Ph2	B-Ph3	B-Ph4	B-Ph5	B-Ph6	B-Ph7	B-Ph8	B-Ph9	B-Ph10	B-Ph11	B-Ph12	B-Ph13	B-Ph14	B-Ph15	B-Ph16	

Term	0.00000e+00	0.00000e+00	0.00000e+00	0.00000e+00	0.00000e+00	0.00000e+00	0.00000e+00	0.00000e+00	0.00000e+00	0.00000e+00	0.00000e+00	0.00000e+00	0.00000e+00	0.00000e+00	0.00000e+00	0.00000e+00	0.00000e+00	0.00000e+00	0.00000e+00	0.00000e+00	0.00000e+00	0.00000e+00	0.00000e+00	0.00000e+00	0.00000e+00	0.00000e+00	0.00000e+00	0.00000e+00	0.00000e+00	0.00000e+00	0.00000e+00	0.00000e+00	-8.78341e+01	-1.29763e+02	-1.22348e+02	-1.81483e+02	-4.98279e+01	-6.89854e+01	-1.57126e+02	-1.62015e+02	-5.76591e+01	-6.88165e+01	-1.72009e+02	-1.70235e+02	-1.79413e+02	-1.76982e+02	-6.01312e+01	-1.49920e+02	
Factor	1.77355e-05	1.76987e-04	5.28443e-05	1.54970e-01	1.38419e-06	1.88219e-06	1.81523e-01	6.50010e-02	1.26713e-06	1.82042e-06	8.98908e-02	3.02853e-02	2.99964e-02	9.87595e-03	1.55353e-06	1.42067e-02	1.35357e-05	2.64044e-05	7.43121e-06	7.68445e-02	2.53274e-07	2.97136e-07	8.49333e-02	3.23673e-02	2.62873e-07	2.97535e-07	4.35786e-02	1.47918e-02	1.52274e-02	4.96744e-03	2.72784e-07	6.91996e-03	X	X	X	X	X	X	X	X	X	X	X	X	X	X	X	X	



#DISTANCE SETTINGS
A = Detector Channel
A-1	A-2	A-3	A-4	A-5	A-6	A-7	A-8	A-9	A-10	A-11	A-12	A-13	A-14	A-15	A-16	

2.5000e+00	3.0000e+00	2.5000e+00	3.0000e+00	2.0000e+00	3.0000e+00	1.5000e+00	3.0000e+00	3.0000e+00	3.0000e+00	3.0000e+00	3.0000e+00	3.0000e+00	3.0000e+00	1.5000e+00	3.0000e+00	

B = Detector Channel
B-1	B-2	B-3	B-4	B-5	B-6	B-7	B-8	B-9	B-10	B-11	B-12	B-13	B-14	B-15	B-16	

1.0000e+01	1.0000e+01	1.0000e+01	1.4400e+00	1.0000e+01	1.0000e+01	1.5100e+00	1.9400e+00	1.0000e+01	1.0000e+01	1.9900e+00	2.4900e+00	2.4100e+00	2.9000e+00	1.0000e+01	2.9800e+00	




#DATA BEGINS
time	group	step	mark	flag	A-AC1	A-AC2	A-AC3	A-AC4	A-AC5	A-AC6	A-AC7	A-AC8	A-AC9	A-AC10	A-AC11	A-AC12	A-AC13	A-AC14	A-AC15	A-AC16	A-DC1	A-DC2	A-DC3	A-DC4	A-DC5	A-DC6	A-DC7	A-DC8	A-DC9	A-DC10	A-DC11	A-DC12	A-DC13	A-DC14	A-DC15	A-DC16	A-Ph1	A-Ph2	A-Ph3	A-Ph4	A-Ph5	A-Ph6	A-Ph7	A-Ph8	A-Ph9	A-Ph10	A-Ph11	A-Ph12	A-Ph13	A-Ph14	A-Ph15	A-Ph16	B-AC1	B-AC2	B-AC3	B-AC4	B-AC5	B-AC6	B-AC7	B-AC8	B-AC9	B-AC10	B-AC11	B-AC12	B-AC13	B-AC14	B-AC15	B-AC16	B-DC1	B-DC2	B-DC3	B-DC4	B-DC5	B-DC6	B-DC7	B-DC8	B-DC9	B-DC10	B-DC11	B-DC12	B-DC13	B-DC14	B-DC15	B-DC16	B-Ph1	B-Ph2	B-Ph3	B-Ph4	B-Ph5	B-Ph6	B-Ph7	B-Ph8	B-Ph9	B-Ph10	B-Ph11	B-Ph12	B-Ph13	B-Ph14	B-Ph15	B-Ph16	aux-1	digaux	

34590.031	1	1	0	256	0.28944	0.31159	0.023248	0.4181	0.17388	0.037559	0.33694	0.14935	0.10078	0.094796	0.32813	0.16774	0.052802	0.1301	0.084553	0.084576	-1.8292	-2.3688	-2.1104	-2.5625	-1.9062	-2.1125	-2.5729	-2.1688	-2.275	-2.5208	-2.1667	-2.5167	-2.2812	-2.0375	-2.4313	-2.1417	126.916	-28.764	-15.998	230.829	88.250	176.429	219.622	83.160	229.164	163.229	238.801	153.380	12.382	253.767	-78.421	-19.921	6.898e-05	0.00027705	0.00010714	1212.3	1.777e-06	3.1164e-06	1285.2	254.6	9.3047e-07	2.3529e-06	320.51	90.228	70.266	20.541	2.5e-06	29.096	0.00015231	0.00013631	3.8023e-05	1185.9	2.0177e-06	1.5012e-06	1259.3	251.91	1.6901e-06	1.4554e-06	316.71	90.304	70.584	20.623	1.3264e-06	29.297	209.173	-4.386	20.446	-69.726	122.901	58.417	-69.592	-62.745	53.032	79.065	-63.060	-56.069	-55.853	-49.049	75.478	-49.179	-8191	255	
34590.152	1	1	0	0	0.27694	0.097442	0.18252	0.18696	0.28809	0.17981	0.12329	0.090104	0.059204	0.093747	0.23676	0.23548	0.15201	0.2492	0.1971	0.22287	-1.8958	-2.5292	-2.0062	-2.575	-2.1562	-2.2646	-2.7625	-2.3729	-2.4542	-2.4875	-2.05	-2.6896	-2.325	-2.1937	-2.5104	-2.1813	86.388	53.288	114.273	128.348	33.447	148.228	79.111	211.931	-38.958	166.576	162.965	227.083	241.658	266.363	224.402	268.859	6.6868e-05	0.00027726	0.00011194	1208.3	9.2327e-07	2.1094e-06	1276.4	253.43	9.4252e-07	2.7185e-06	320.51	89.996	70.487	20.551	2.71e-06	29.334	0.0001551	0.000117	3.7621e-05	1176.6	1.8394e-06	1.3687e-06	1251.6	251.25	1.7005e-06	1.1368e-06	316.01	90.267	70.679	20.646	1.4213e-06	29.333	204.482	19.438	28.347	-69.768	126.850	88.487	-69.450	-62.759	78.532	68.553	-62.703	-56.315	-55.908	-48.842	61.512	-49.907	-8191	255	
34590.246	1	1	0	0	0.27333	0.12083	0.34615	0.17342	0.22775	0.25681	0.091251	0.20671	0.0684	0.32533	0.1629	0.19867	0.065942	0.097935	0.17361	0.15768	-1.7479	-2.4688	-2.2229	-2.6854	-2.3979	-2.15	-2.5979	-2.1521	-2.2604	-2.5	-2.1792	-2.7125	-2.4562	-2.1125	-2.5833	-2.375	249.784	-3.897	44.097	258.937	5.895	151.834	227.655	211.560	-0.755	250.608	171.869	79.689	-60.817	76.650	121.533	269.573	4.4236e-05	0.00025235	0.00010912	1204.5	9.8445e-07	2.4694e-06	1273	253.38	1.3934e-06	2.5896e-06	321.26	89.753	70.401	20.597	2.6276e-06	29.146	0.0001589	0.00011755	3.4679e-05	1174	1.7328e-06	1.3619e-06	1249.8	250.52	1.8067e-06	1.3408e-06	315.67	90.034	70.614	20.628	1.4492e-06	29.26	213.553	16.766	23.061	-69.687	64.397	67.081	-69.564	-62.849	83.282	76.669	-63.012	-56.521	-55.901	-49.178	55.827	-49.374	-8191	255	
34590.344	1	1	0	0	0.12803	0.11078	0.10775	0.19807	0.35463	0.051098	0.40132	0.10522	0.19509	0.21555	0.11864	0.11052	0.15875	0.12929	0.06762	0.093896	-1.6604	-2.4729	-2.1063	-2.6167	-2.2917	-2.2354	-2.7646	-2.2854	-2.1854	-2.4792	-2.4313	-2.5417	-2.3792	-1.9937	-2.4271	-2.3917	9.333	-33.187	-25.678	275.706	0.186	-53.955	-67.515	224.784	278.893	-68.508	212.442	-50.925	20.315	-79.196	168.784	-26.267	8.4888e-05	0.00028322	0.00011476	1206.2	1.4076e-06	3.1595e-06	1277.6	254.52	9.7057e-07	3.5181e-06	322.67	89.757	71.026	20.579	2.6028e-06	29.179	0.00015405	0.00012537	3.7806e-05	1175.4	1.861e-06	1.4399e-06	1252.2	251.34	1.6588e-06	1.2937e-06	316.76	90.312	70.817	20.608	1.4446e-06	29.299	214.901	-2.040	8.853	-69.746	44.859	58.452	-69.490	-62.962	83.540	70.177	-62.954	-56.471	-56.069	-48.852	58.566	-49.453	-8191	255	
34590.441	1	1	0	0	0.078056	0.013676	0.21853	0.16558	0.21645	0.092636	0.24909	0.037329	0.12917	0.10008	0.34536	0.14517	0.036173	0.021763	0.037169	0.24594	-1.6833	-2.5125	-1.9562	-2.3979	-2.4917	-2.1833	-2.3917	-2.4146	-2.1667	-2.6021	-2.1833	-2.2687	-2.6188	-1.9917	-2.5583	-2.4521	-62.064	107.361	209.726	207.453	243.614	127.414	136.633	109.675	157.546	133.578	264.129	173.698	104.802	244.374	51.593	-79.188	6.3248e-05	0.00025106	0.00010672	1206.8	7.3294e-07	3.3131e-06	1282.7	254.8	1.2869e-06	3.1302e-06	321.25	90.26	70.75	20.705	2.5597e-06	29.421	0.00015634	0.00011755	3.3518e-05	1179	1.7882e-06	1.4374e-06	1257.7	251.65	1.8407e-06	1.1994e-06	316.44	90.607	70.938	20.73	1.5367e-06	29.492	214.541	23.034	19.041	-69.688	147.649	79.512	-69.365	-62.799	77.887	70.226	-62.921	-56.355	-55.883	-49.531	77.992	-49.630	-8191	255	
34590.562	1	1	0	0	0.13308	0.1412	0.15895	0.24629	0.16049	0.1375	0.45847	0.31925	0.10205	0.17018	0.083932	0.14003	0.37842	0.11466	0.24172	0.047957	-1.7479	-2.3854	-2.0479	-2.5438	-2.4771	-1.9479	-2.6208	-2.4229	-2.1188	-2.5771	-2.3312	-2.1917	-2.6396	-2.05	-2.3	-2.3292	12.622	131.677	13.854	245.347	29.300	58.601	217.863	229.004	41.636	-10.099	-40.629	230.956	215.639	255.893	224.256	-38.397	6.7763e-05	0.00032636	0.00013542	1221.2	6.6035e-07	3.2078e-06	1301.1	256.89	1.643e-06	2.6224e-06	324.84	91.056	72.079	21.027	2.032e-06	29.649	0.00016116	0.00012416	4.1553e-05	1192.1	1.947e-06	1.5624e-06	1274.6	253.85	2.12e-06	1.466e-06	320.02	91.555	71.881	20.961	1.51e-06	29.715	214.924	-0.039	15.997	-69.702	77.054	69.469	-69.564	-62.892	200.332	73.373	-63.189	-56.373	-56.281	-49.214	91.878	-49.474	-8191	255	
34590.656	1	1	0	0	0.33251	0.10184	0.49375	0.32663	0.14419	0.21632	0.16795	0.17919	0.29948	0.17163	0.38473	0.18627	0.16202	0.30015	0.29207	0.091009	-1.5521	-2.4229	-2.2604	-2.2188	-2.4771	-2.0021	-2.5021	-2.4688	-2.2458	-2.5021	-2.2562	-2.1437	-2.475	-2.2042	-2.55	-2.5292	197.861	17.283	83.485	227.227	241.161	-55.661	194.366	167.034	123.394	101.128	263.040	171.037	276.144	278.373	130.353	204.439	7.094e-05	0.00041977	0.00011761	1236.7	1.1813e-06	4.3344e-06	1308.3	259.63	1.2531e-06	2.503e-06	324.5	90.452	71.73	20.987	1.8615e-06	29.442	0.0001624	0.00014869	3.985e-05	1203.6	1.9787e-06	1.6825e-06	1280.8	255.38	1.9064e-06	1.3724e-06	320.59	91.404	71.685	20.943	1.5071e-06	29.607	212.678	6.704	21.391	-69.780	105.407	73.669	-69.488	-62.787	64.926	44.390	-63.036	-56.437	-55.834	-49.368	93.775	-49.733	-8191	255	
34590.730	1	1	0	0	0.12695	0.26819	0.14555	0.23271	0.15144	0.15039	0.49492	0.059832	0.25784	0.13337	0.12175	0.34072	0.2155	0.20139	0.0080969	0.21822	-1.7854	-2.3604	-2.3604	-2.4521	-2.6708	-2.0708	-2.4979	-2.4583	-2.1146	-2.6167	-2.4708	-2.2062	-2.6063	-2.125	-2.1854	-2.7	143.098	268.506	-60.618	150.051	55.140	128.181	194.106	158.158	-80.044	-59.428	206.188	272.779	-70.929	214.612	23.838	274.966	7.8566e-05	0.00043622	0.00011427	1229.5	1.6199e-06	3.4589e-06	1298.2	258.26	1.8142e-06	4.055e-06	323.76	91.233	71.239	20.709	2.3728e-06	29.332	0.00016454	0.00013576	3.8658e-05	1196.8	1.8658e-06	1.5197e-06	1273.5	254.69	1.8193e-06	1.3736e-06	319.17	91.132	71.312	20.792	1.5293e-06	29.475	213.177	6.128	10.515	-69.800	93.766	57.756	-69.503	-62.978	70.797	74.603	-63.119	-55.940	-56.205	-49.377	78.800	-49.518	-8191	255	
34590.824	1	1	0	0	0.21775	0.036558	0.1792	0.32239	0.17809	0.21348	0.22079	0.23473	0.15547	0.3494	0.14269	0.13145	0.14206	0.10704	0.10194	0.070309	-1.6896	-2.3729	-2.4313	-2.2667	-2.5375	-2.2958	-2.5167	-2.7104	-2.1625	-2.5	-2.4708	-2.0875	-2.5521	-2.2042	-2.2479	-2.4562	179.030	198.275	245.358	-77.368	102.360	57.446	162.861	219.026	211.709	6.064	37.682	2.988	248.488	120.953	-23.316	89.216	6.7484e-05	0.00036089	0.00011522	1222.4	1.3897e-06	3.5188e-06	1295.1	256.58	1.0368e-06	3.1995e-06	322.44	90.639	70.971	20.644	2.6899e-06	29.217	0.00015947	0.00013109	3.5221e-05	1190.6	1.8653e-06	1.4851e-06	1266.2	253.6	1.7864e-06	1.5026e-06	317.86	90.531	71.214	20.691	1.5998e-06	29.319	218.752	6.561	27.851	-69.874	111.130	63.373	-69.561	-62.846	62.080	65.261	-62.752	-56.595	-55.825	-49.428	74.726	-49.791	-8191	255	
34590.945	1	1	0	0	0.20083	0.16639	0.036958	0.33373	0.20204	0.21741	0.37676	0.13549	0.06201	0.1177	0.19301	0.12946	0.091377	0.20969	0.11532	0.28164	-1.7771	-2.3708	-2.3396	-2.1458	-2.5354	-2.25	-2.2271	-2.5625	-2.0563	-2.1688	-2.5208	-2.1521	-2.6167	-2.4208	-2.1292	-2.4521	-36.342	200.125	-68.057	193.072	271.641	264.264	213.070	239.630	206.184	78.263	167.252	191.917	252.819	53.111	141.607	-65.566	6.7413e-05	0.00033164	8e-05	1216.9	1.2716e-06	4.2967e-06	1287.3	256.3	1.7046e-06	3.2459e-06	320.98	90.435	70.86	20.571	2.8927e-06	29.208	0.00016299	0.00013461	3.4617e-05	1186.3	1.794e-06	1.417e-06	1262	252.63	1.7519e-06	1.4908e-06	316.27	90.271	70.798	20.608	1.4622e-06	29.27	216.685	13.471	12.848	-69.687	118.333	59.054	-69.546	-62.573	66.660	77.887	-63.060	-56.553	-56.011	-49.387	61.180	-49.657	-8191	255	
34591.043	1	1	0	0	0.21031	0.12087	0.077649	0.11848	0.070463	0.21711	0.019234	0.27083	0.3235	0.088928	0.31433	0.17425	0.34335	0.18234	0.076271	0.16461	-1.7604	-2.3563	-2.3937	-2.275	-2.4833	-2.3208	-2.2521	-2.5021	-2.1604	-2.2562	-2.5979	-2.2771	-2.3937	-2.3646	-2.0667	-2.6292	-27.424	256.027	-24.951	195.424	201.607	31.055	166.729	0.856	-60.852	100.482	260.682	70.589	196.385	171.385	198.283	168.438	6.6641e-05	0.00031352	7.7012e-05	1204.9	1.232e-06	4.056e-06	1279.1	253.86	1.3576e-06	3.4077e-06	319.27	89.229	70.246	20.564	2.6075e-06	29.327	0.00015563	0.00012993	3.3657e-05	1178.3	1.8568e-06	1.2963e-06	1255.4	251.07	1.6342e-06	1.3761e-06	315.62	89.752	70.504	20.558	1.5412e-06	29.255	212.231	-2.807	12.575	-69.761	105.127	74.734	-69.521	-62.423	84.014	73.628	-63.252	-56.117	-55.970	-49.223	67.992	-49.500	-8191	255	
34591.137	1	1	0	0	0.26755	0.29997	0.28319	0.27067	0.081503	0.17758	0.10446	0.028185	0.20726	0.2945	0.27252	0.21854	0.30346	0.24781	0.23831	0.061605	-1.8979	-2.2313	-2.5042	-2.1688	-2.3396	-2.4208	-2.175	-2.7417	-2.2812	-2.3146	-2.5771	-2.0438	-2.3958	-2.4271	-2.1229	-2.4417	159.745	122.903	25.007	263.614	112.954	245.752	250.914	193.063	194.399	-19.773	150.573	-61.826	189.457	127.094	212.940	46.440	7.6317e-05	0.00031021	8.5411e-05	1211.6	1.9014e-06	3.2314e-06	1276.7	252.87	1.5112e-06	2.6002e-06	320.66	89.859	70.711	20.524	2.7278e-06	28.959	0.00014698	0.00011442	3.1149e-05	1179.2	1.9164e-06	1.2393e-06	1252.6	251.13	1.6424e-06	1.3042e-06	315.11	89.914	70.541	20.53	1.4816e-06	29.156	217.011	14.829	10.087	-69.675	102.964	78.056	-69.581	-62.600	65.372	60.742	-62.925	-56.045	-55.715	-49.172	89.466	-49.693	-8191	255	
34591.234	1	1	0	0	0.11212	0.096968	0.21119	0.15901	0.046418	0.11873	0.3713	0.12881	0.16886	0.062977	0.12427	0.27488	0.33348	0.05285	0.21208	0.049095	-1.9104	-2.1792	-2.4208	-2.4479	-2.3771	-2.3833	-2.1479	-2.575	-2.3625	-2.2188	-2.675	-2.2458	-2.1583	-2.4875	-2.0625	-2.4146	-49.154	212.970	-9.871	275.529	257.486	23.353	227.992	-32.611	-13.990	17.263	138.906	274.181	153.052	253.709	90.780	68.869	7.9909e-05	0.00038025	0.00011485	1209.5	2.2922e-06	2.9795e-06	1280.1	254.15	1.651e-06	3.1436e-06	320.2	89.236	70.536	20.538	2.7721e-06	29.148	0.00014799	0.00013015	3.4586e-05	1179.1	1.9064e-06	1.1273e-06	1254.7	251	1.6232e-06	1.386e-06	315.61	89.823	70.667	20.608	1.481e-06	29.231	213.334	17.319	10.412	-69.856	96.014	51.268	-69.495	-62.581	87.867	66.172	-62.939	-56.203	-55.949	-49.291	87.371	-49.341	-8191	255	
34591.328	1	1	0	0	0.21266	0.21284	0.12062	0.17548	0.13343	0.20664	0.34613	0.19922	0.19882	0.25534	0.10063	0.19005	0.14411	0.22608	0.24569	0.25311	-1.8875	-2.2333	-2.4479	-2.3438	-2.2458	-2.5104	-2.2708	-2.5187	-2.3479	-1.975	-2.4813	-2.2958	-2.3708	-2.6729	-2.0292	-2.3583	158.457	219.771	248.420	216.538	-51.004	54.594	226.257	81.200	22.998	-72.686	81.067	193.821	244.717	212.103	159.520	197.266	7.1397e-05	0.00026271	0.00010238	1205.3	1.2849e-06	3.5383e-06	1283.6	253.2	9.2073e-07	3.0009e-06	319.42	90.063	70.799	20.554	2.3158e-06	29.217	0.00015527	0.00012784	3.2001e-05	1180	1.7877e-06	1.2535e-06	1256.2	250.71	1.563e-06	1.2565e-06	315.63	90.05	70.62	20.623	1.4838e-06	29.294	223.738	-8.218	18.650	-69.813	82.010	70.563	-69.632	-62.769	72.207	85.544	-63.063	-56.521	-55.985	-49.173	71.247	-49.739	-8191	255	
34591.426	1	1	0	0	0.0072767	0.15151	0.21205	0.23472	0.10096	0.16437	0.34238	0.31528	0.085825	0.20078	0.21463	0.11377	0.16229	0.38402	0.18881	0.13003	-2.0083	-2.1396	-2.4125	-2.3771	-2.2333	-2.6354	-2.3833	-2.4146	-2.4583	-2.1646	-2.7438	-2.4354	-2.0917	-2.4979	-2.0792	-2.375	76.343	72.858	134.111	192.426	9.138	-60.284	157.097	-22.045	275.551	279.193	243.245	271.666	-70.654	231.219	185.869	227.798	7.0791e-05	0.00031685	7.4931e-05	1208.3	1.7094e-06	3.5619e-06	1281	254.29	1.7886e-06	3.333e-06	318.37	89.239	70.631	20.548	2.7099e-06	29.091	0.0001487	0.0001153	3.1149e-05	1179.6	1.8452e-06	1.1675e-06	1255.4	250.74	1.603e-06	1.254e-06	314.34	89.814	70.751	20.598	1.4372e-06	29.235	215.183	12.210	3.102	-69.613	107.225	63.532	-69.441	-62.324	67.421	75.518	-62.880	-56.352	-56.048	-49.439	79.235	-49.683	-8191	255	
34591.547	1	1	0	0	0.075502	0.052958	0.12466	0.18925	0.10996	0.30829	0.18729	0.25685	0.16561	0.025102	0.12435	0.28479	0.2649	0.10575	0.24983	0.097445	-2.1688	-1.925	-2.5312	-2.4625	-2.0021	-2.65	-2.2792	-2.7146	-2.5271	-2.0812	-2.6	-2.55	-2.0896	-2.6583	-2.4979	-2.2792	-35.097	-25.583	8.880	249.505	-16.356	137.041	146.179	228.532	-52.424	124.910	-60.188	115.890	173.964	-76.494	168.131	146.329	6.3888e-05	0.00032019	0.00010645	1204.6	1.6456e-06	4.0967e-06	1277.5	253.64	1.1132e-06	3.1382e-06	319.02	89.191	70.144	20.673	2.5312e-06	29.415	0.00014762	0.00012768	3.1614e-05	1176.3	1.8858e-06	1.1037e-06	1251.9	250.58	1.5011e-06	1.2819e-06	314.52	89.735	70.39	20.616	1.502e-06	29.381	208.984	23.678	14.361	-69.899	121.719	72.191	-69.440	-62.658	97.480	69.301	-62.909	-56.475	-56.041	-49.208	70.940	-49.524	-8191	255	
34591.641	1	1	0	0	0.10705	0.13607	0.16688	0.19784	0.12904	0.30391	0.3213	0.2604	0.072373	0.10686	0.35273	0.13423	0.021539	0.1452	0.09896	0.32552	-2.25	-2.2313	-2.2604	-2.6583	-2.1	-2.4604	-2.4917	-2.4062	-2.5917	-2.2375	-2.4917	-2.4646	-2.1562	-2.6792	-2.375	-2.1833	244.381	159.444	137.850	222.853	50.519	-15.820	217.860	231.224	130.918	-30.221	245.258	251.054	-39.526	2.294	31.705	9.429	6.9511e-05	0.00028082	8.0353e-05	1203.6	1.7856e-06	3.8838e-06	1276.5	253.49	1.8143e-06	3.7502e-06	320.02	89.606	70.395	20.58	2.1025e-06	29.188	0.00014903	0.00012003	3.1985e-05	1175.7	1.9676e-06	1.2325e-06	1252.4	250.12	1.5126e-06	1.4325e-06	314.98	89.855	70.466	20.565	1.4605e-06	29.235	216.200	9.804	28.223	-69.646	95.980	70.460	-69.495	-62.850	82.252	71.237	-62.399	-56.524	-55.798	-49.185	79.643	-49.217	-8191	255	
34591.738	1	1	0	0	0.19064	0.14253	0.3317	0.29087	0.043488	0.16864	0.13367	0.12738	0.19371	0.1219	0.13504	0.13106	0.12875	0.081394	0.10458	0.25884	-2.225	-2	-2.3937	-2.6292	-2.1604	-2.5354	-2.5167	-2.3208	-2.6583	-2.1229	-2.3354	-2.5458	-2.2583	-2.6167	-2.4479	-2.2938	272.730	88.002	27.408	190.851	-2.337	29.217	229.978	261.448	168.283	159.025	169.210	87.853	18.490	213.417	93.435	-21.087	7.399e-05	0.00042455	8.376e-05	1201.4	1.066e-06	3.4347e-06	1274.3	252.37	1.3201e-06	2.0954e-06	319.6	89.159	70.172	20.534	2.4343e-06	29.435	0.00014004	0.00012361	3.0236e-05	1174.8	1.784e-06	1.2164e-06	1251.1	249.58	1.5044e-06	1.2168e-06	314.58	89.547	70.298	20.583	1.3003e-06	29.303	211.038	2.745	22.526	-69.745	106.119	54.592	-69.516	-62.573	54.828	92.246	-62.906	-56.275	-55.907	-48.766	85.121	-49.313	-8191	255	
34591.836	1	1	0	0	0.31268	0.13309	0.17295	0.36926	0.30045	0.1811	0.35232	0.30637	0.088692	0.083358	0.17278	0.13473	0.13657	0.13548	0.1993	0.091616	-2.1229	-2.3542	-2.3708	-2.7062	-2.2417	-2.3958	-2.4542	-2.1042	-2.5646	-2.1458	-2.2667	-2.55	-2.3604	-2.4146	-2.5917	-2.2646	49.074	196.475	-40.193	266.253	236.095	185.956	152.574	210.657	166.999	61.684	242.685	153.014	47.171	-70.882	140.504	250.733	6.6661e-05	0.00031161	0.00010637	1202.7	1.5196e-06	4.0109e-06	1279.9	253.3	8.5607e-07	4.1717e-06	318.42	89.364	70.264	20.569	2.3522e-06	29.146	0.00014097	0.00011343	3.519e-05	1172.3	1.822e-06	1.1824e-06	1250.1	250.54	1.4852e-06	1.249e-06	313.99	89.814	70.508	20.574	1.3764e-06	29.21	212.578	7.413	6.831	-69.607	129.822	73.611	-69.626	-62.487	67.272	67.393	-62.576	-56.195	-56.003	-49.174	84.829	-49.417	-8191	255	
34591.953	1	1	0	0	0.10156	0.15673	0.066676	0.39645	0.16837	0.13926	0.16389	0.14113	0.14636	0.045837	0.21169	0.32805	0.049137	0.22194	0.037279	0.31589	-2.0729	-2.3354	-2.1021	-2.5958	-2.1312	-2.325	-2.6521	-2.2958	-2.6	-2.2313	-2.2729	-2.6125	-2.2021	-2.4208	-2.5875	-2.1771	42.848	93.756	135.256	239.871	-75.420	198.005	179.461	273.053	41.542	237.661	206.744	243.021	-9.767	87.965	-30.530	265.842	8.0765e-05	0.00040456	8.523e-05	1202.2	7.9838e-07	3.6723e-06	1277.3	252.92	1.3919e-06	3.1258e-06	319.79	89.251	70.452	20.477	2.4615e-06	29.157	0.00014283	0.00012311	3.0994e-05	1174.7	1.6943e-06	1.204e-06	1252.2	249.84	1.5011e-06	1.2676e-06	314.51	89.524	70.407	20.532	1.3383e-06	29.126	209.364	12.579	4.941	-69.765	84.338	65.930	-69.487	-62.532	80.537	53.312	-62.896	-56.145	-56.199	-49.180	64.267	-49.733	-8191	255	
34592.027	1	1	0	0	0.16803	0.044741	0.13879	0.26795	0.039144	0.022261	0.14506	0.17679	0.19216	0.17759	0.1382	0.21142	0.14139	0.27955	0.10863	0.10212	-2.2	-2.0833	-2.4021	-2.8333	-2.3896	-2.4375	-2.6562	-2.3063	-2.45	-2.3292	-2.3646	-2.8021	-2.3438	-2.3187	-2.6813	-2.2646	-35.462	230.036	-80.389	215.928	13.386	-35.221	123.136	202.879	131.304	253.965	-46.122	248.371	143.690	126.207	-20.058	170.519	7.6181e-05	0.00030254	6.4809e-05	1208.8	1.991e-06	2.287e-06	1281.1	253.41	1.8385e-06	2.8964e-06	319.08	89.125	70.613	20.449	2.0302e-06	29.011	0.00014359	0.0001202	3.3905e-05	1176.8	1.9249e-06	1.3049e-06	1257.1	250.49	1.6024e-06	1.3135e-06	315.2	89.876	70.555	20.545	1.4787e-06	29.166	220.272	27.671	-1.321	-69.612	107.050	76.771	-69.435	-62.740	64.651	75.005	-63.004	-56.179	-56.017	-49.176	86.792	-49.702	-8191	255	
34592.121	1	1	0	0	0.16228	0.12451	0.17432	0.21947	0.21069	0.36844	0.21616	0.32351	0.10399	0.20587	0.48712	0.17463	0.037676	0.26517	0.18655	0.04226	-2.1229	-2.5229	-2.0979	-2.8729	-2.4083	-2.4542	-2.7646	-2.3271	-2.5438	-2.6396	-2.1729	-2.3979	-2.3187	-2.1854	-2.4437	-2.1333	199.940	76.625	22.434	241.482	112.043	27.493	187.638	174.840	9.058	2.854	203.510	172.567	275.797	30.385	27.994	206.328	6.5738e-05	0.00031797	0.00011865	1213.9	2.2459e-06	3.057e-06	1289.9	255.96	1.6359e-06	2.6905e-06	321.79	89.867	71.171	20.514	2.9618e-06	29.405	0.00015795	0.00012922	3.8162e-05	1185.9	1.9217e-06	1.3897e-06	1264.7	252.12	1.73e-06	1.3408e-06	317.07	90.267	71.057	20.601	1.5344e-06	29.347	208.811	-4.243	7.637	-69.765	94.098	55.537	-69.563	-62.805	71.196	69.543	-62.996	-56.348	-56.122	-49.582	70.664	-49.758	-8191	255	
34592.242	1	1	0	0	0.2728	0.079484	0.18037	0.40749	0.34544	0.21421	0.27707	0.16732	0.2446	0.15752	0.12179	0.19599	0.27648	0.32259	0.06252	0.10729	-1.9146	-2.4771	-2.0833	-2.9562	-2.4167	-2.2375	-2.7	-2.1333	-2.2875	-2.5	-2.3667	-2.6083	-2.5083	-2.1792	-2.6	-2.4333	244.339	187.495	253.582	236.394	103.352	202.144	170.705	227.166	223.460	182.281	229.685	213.446	174.185	198.422	235.018	65.434	8.5997e-05	0.00037158	0.00010098	1230.7	2.0356e-06	2.7743e-06	1298.2	257.1	1.3215e-06	3.5182e-06	325.21	90.095	70.982	20.747	2.0598e-06	29.271	0.00016564	0.00013945	3.8735e-05	1197.2	2.1143e-06	1.5389e-06	1273.3	253.76	1.7519e-06	1.5447e-06	318.73	90.586	71.093	20.701	1.4952e-06	29.345	216.139	16.815	16.263	-69.890	118.386	67.091	-69.685	-62.661	81.774	77.139	-62.878	-56.331	-55.896	-49.402	73.961	-49.442	-8191	255	
34592.336	1	1	0	0	0.015768	0.23697	0.023573	0.26686	0.26205	0.09403	0.20734	0.098103	0.11049	0.26907	0.27439	0.068755	0.1838	0.24852	0.20905	0.27768	-1.9688	-2.4688	-2.1167	-2.6292	-2.5	-2.175	-2.8333	-2.2938	-2.3417	-2.6813	-2.2438	-2.5667	-2.3375	-2.35	-2.7125	-2.3271	232.412	264.487	43.811	199.099	144.390	154.299	206.133	-22.432	220.570	51.056	91.004	-32.470	-1.730	-60.489	-22.908	216.730	7.3442e-05	0.00035389	8.8929e-05	1228.7	1.7087e-06	3.4755e-06	1302.1	256.92	1.1485e-06	2.9691e-06	324.35	90.417	71.676	20.581	3.3685e-06	29.44	0.00016381	0.00013857	4.0485e-05	1200.7	2.013e-06	1.5296e-06	1276.7	254	1.9343e-06	1.5335e-06	319.36	90.769	71.319	20.684	1.5196e-06	29.449	203.475	6.448	31.144	-69.874	109.870	78.479	-69.544	-62.634	61.537	56.342	-62.868	-56.351	-56.178	-49.261	81.706	-49.465	-8191	255	
34592.434	1	1	0	0	0.012984	0.17155	0.34175	0.090198	0.17309	0.19791	0.25577	0.12939	0.12697	0.18378	0.27689	0.20134	0.22766	0.17096	0.12013	0.13217	-1.8771	-2.5104	-2.1208	-2.6417	-2.4667	-2.3417	-2.5833	-2.3229	-2.2458	-2.5917	-2.3563	-2.4792	-2.5604	-2.1146	-2.5312	-2.3917	65.012	63.589	-0.136	244.641	154.619	261.404	155.354	220.579	16.544	-76.139	-58.264	-32.812	127.131	50.670	142.030	268.043	7.1561e-05	0.00040327	6.5835e-05	1234.9	6.5841e-07	3.573e-06	1309.2	258.08	8.69e-07	3.5947e-06	323.17	90.486	71.979	20.625	2.3644e-06	29.203	0.00016172	0.00014242	4.0763e-05	1206	2.0046e-06	1.6398e-06	1281.5	254.79	1.9518e-06	1.5497e-06	319.34	90.763	71.659	20.73	1.6231e-06	29.367	208.084	5.516	-1.259	-69.764	160.170	70.580	-69.538	-62.977	61.584	68.516	-63.007	-56.535	-56.406	-49.460	77.024	-49.826	-8191	255	
34592.527	1	1	0	0	0.10624	0.21264	0.080535	0.10255	0.050014	0.18364	0.42505	0.28704	0.15267	0.16678	0.14598	0.38607	0.178	0.12766	0.1311	0.13706	-1.8563	-2.6208	-2.1375	-2.4729	-2.4875	-2.1917	-2.7313	-2.4646	-2.1542	-2.4188	-2.2812	-2.4917	-2.4396	-2.0771	-2.5229	-2.4562	95.463	40.712	17.665	252.741	36.055	-43.540	220.736	273.402	155.891	178.255	189.611	267.278	120.438	275.948	-56.621	51.914	6.8797e-05	0.00038995	9.1259e-05	1241	1.6322e-06	3.0198e-06	1311.2	258.25	1.5981e-06	2.2679e-06	324.44	90.22	71.791	20.748	2.5043e-06	29.495	0.00017001	0.00015166	4.2157e-05	1210.1	2.0077e-06	1.6231e-06	1283.5	254.99	1.977e-06	1.4492e-06	320.66	90.951	71.701	20.772	1.6827e-06	29.561	217.128	19.861	22.684	-69.901	108.885	51.949	-69.542	-62.593	104.053	89.255	-62.909	-56.508	-55.974	-49.301	63.061	-49.201	-8191	255	
34592.625	1	1	0	0	0.1888	0.24629	0.089486	0.12509	0.066043	0.010862	0.21868	0.1362	0.087183	0.33512	0.1605	0.22405	0.098975	0.073778	0.30113	0.20237	-1.7708	-2.475	-2.2062	-2.5042	-2.5812	-2.1917	-2.6708	-2.4938	-2.3646	-2.5667	-2.3792	-2.2938	-2.5187	-2.25	-2.4562	-2.5563	-45.371	178.019	110.344	231.736	73.911	66.350	164.818	18.541	-35.402	155.385	256.103	275.745	136.095	159.432	253.336	24.543	6.7868e-05	0.00032597	0.00010169	1243.4	1.1113e-06	3.7226e-06	1315.5	258.5	2.1842e-06	3.1406e-06	324	90.808	71.928	20.752	2.1182e-06	29.521	0.00016925	0.00013873	4.4696e-05	1212.9	1.9824e-06	1.6893e-06	1289.9	256.01	1.9852e-06	1.5707e-06	320.77	91.283	71.897	20.843	1.7543e-06	29.604	211.864	1.693	9.039	-69.990	100.587	58.797	-69.622	-62.833	99.993	75.479	-62.922	-56.043	-56.114	-49.307	90.356	-49.308	-8191	255	
34592.723	1	1	0	0	0.16431	0.12286	0.21483	0.06058	0.16346	0.19347	0.18536	0.24949	0.10531	0.17593	0.18661	0.1246	0.15544	0.23741	0.24397	0.16185	-1.6	-2.5417	-2.2271	-2.4042	-2.5396	-2.275	-2.6208	-2.5625	-2.275	-2.6292	-2.5646	-2.2083	-2.575	-2.1167	-2.125	-2.4333	94.013	253.814	268.447	247.111	209.311	-24.639	216.969	-44.905	248.863	164.265	242.124	22.298	23.721	176.682	190.530	257.353	7.9765e-05	0.00043322	5.6985e-05	1246.5	1.7226e-06	3.6235e-06	1322.7	260.35	1.6835e-06	3.0566e-06	325.96	90.589	71.789	20.797	3.4516e-06	29.514	0.00017458	0.00015925	4.194e-05	1216.1	2.0362e-06	1.6968e-06	1294.7	256.6	2.0323e-06	1.6191e-06	321.4	91.182	71.709	20.814	1.7538e-06	29.566	215.168	11.216	10.741	-69.800	106.243	59.982	-69.585	-63.010	88.337	65.638	-63.179	-56.412	-56.404	-49.439	79.702	-49.639	-8191	255	
34592.816	1	1	0	0	0.19955	0.39503	0.15218	0.32781	0.16905	0.172	0.30774	0.096574	0.055149	0.049916	0.076283	0.10629	0.10615	0.16823	0.33215	0.18239	-1.6521	-2.5396	-2.3646	-2.3542	-2.6479	-2.1146	-2.3167	-2.3354	-2.0208	-2.5333	-2.2875	-2.2333	-2.5417	-2.3792	-2.1375	-2.5729	33.189	58.449	19.021	268.092	-17.344	-56.887	198.385	-7.383	-79.694	68.532	227.213	233.920	194.263	171.685	203.299	264.376	6.5923e-05	0.00035211	0.00010578	1246.1	1.0136e-06	3.4789e-06	1319.2	258.68	1.173e-06	2.4431e-06	327.84	91.205	71.97	20.716	3.5392e-06	29.631	0.00017712	0.00013917	4.3689e-05	1215.8	2.0621e-06	1.7698e-06	1291.9	256.05	1.9737e-06	1.5633e-06	321.22	91.368	71.832	20.748	1.7884e-06	29.56	210.621	2.246	21.242	-69.846	100.566	70.554	-69.539	-62.764	62.675	69.903	-62.890	-56.178	-56.253	-49.285	82.581	-49.450	-8191	255	
34592.914	1	1	0	0	0.07548	0.14829	0.19569	0.26164	0.096441	0.11208	0.087611	0.070274	0.083286	0.080775	0.33881	0.20343	0.17358	0.16499	0.066301	0.039783	-1.6208	-2.4375	-2.4896	-2.2417	-2.5229	-2.1688	-2.6167	-2.6104	-2.2375	-2.4229	-2.5833	-2.2521	-2.7229	-2.4667	-2.2	-2.7146	5.216	100.836	150.894	-46.168	-51.093	154.276	195.109	184.374	-7.852	95.485	-2.078	175.268	-42.884	145.541	259.382	201.419	7.3163e-05	0.00034259	7.5182e-05	1241.4	1.371e-06	3.5658e-06	1314.3	257.79	1.6643e-06	3.2814e-06	326.3	90.54	71.758	20.904	1.9993e-06	29.71	0.00016477	0.00014682	3.8611e-05	1210.4	2.0621e-06	1.5532e-06	1288.4	255.47	1.8812e-06	1.5639e-06	320.77	91.101	71.61	20.822	1.693e-06	29.536	212.947	10.489	10.161	-69.860	112.487	65.379	-69.719	-62.694	41.455	75.470	-63.206	-56.155	-55.927	-49.411	79.128	-49.310	-8191	255	
34593.035	1	1	0	0	0.066701	0.17953	0.10167	0.17306	0.071886	0.13222	0.31362	0.29093	0.24421	0.15988	0.1601	0.10764	0.42698	0.090991	0.06259	0.25805	-1.8438	-2.1771	-2.4833	-2.3812	-2.5458	-2.3146	-2.325	-2.5958	-2.1229	-2.3854	-2.5521	-2.2625	-2.4875	-2.3542	-2.1792	-2.6458	-24.997	168.459	127.475	93.557	277.616	-17.864	225.571	253.287	1.019	204.324	-12.057	220.810	234.627	156.301	140.705	42.082	7.6055e-05	0.00035196	8.9127e-05	1238.1	1.506e-06	3.444e-06	1307.1	258.6	1.6032e-06	2.7324e-06	323.11	90.147	71.193	20.624	2.2306e-06	29.407	0.00017286	0.000151	4.0299e-05	1210	2.0837e-06	1.6324e-06	1283.3	255.24	1.8533e-06	1.5726e-06	319.94	90.58	71.405	20.675	1.7384e-06	29.398	212.437	16.738	17.726	-69.839	92.554	75.282	-69.563	-62.577	107.935	69.207	-63.179	-56.557	-55.817	-49.295	80.334	-49.512	-8191	255	
34593.133	1	1	0	0	0.24988	0.21594	0.19146	0.35554	0.239	0.052108	0.24104	0.20698	0.13459	0.098504	0.078306	0.11089	0.21095	0.1644	0.19918	0.18732	-1.725	-2.3229	-2.3833	-2.2771	-2.5229	-2.3417	-2.3208	-2.5833	-2.2125	-2.2042	-2.5646	-2.425	-2.4938	-2.5062	-2.1312	-2.5396	50.368	9.522	196.403	-63.437	-74.974	147.914	-64.677	4.530	223.069	15.531	120.371	165.285	-32.736	41.189	159.482	265.131	8.2127e-05	0.00022417	0.00010794	1232.9	1.2618e-06	3.4921e-06	1308.3	257.35	1.258e-06	2.6063e-06	323.81	90.375	71.276	20.619	2.0755e-06	29.397	0.00016291	0.00014176	3.4586e-05	1203	2.0114e-06	1.599e-06	1280.8	254.55	1.9349e-06	1.5714e-06	320	90.842	71.225	20.646	1.7521e-06	29.45	213.054	12.136	22.318	-69.700	79.191	85.927	-69.631	-62.767	63.495	70.257	-63.055	-56.502	-55.996	-49.279	102.503	-49.764	-8191	255	
34593.227	1	1	0	0	0.037299	0.14107	0.27742	0.0872	0.057623	0.25607	0.14354	0.20106	0.065434	0.17085	0.017109	0.15846	0.028627	0.11234	0.091105	0.25487	-1.9062	-2.1417	-2.5604	-2.2979	-2.3583	-2.5917	-2.3063	-2.5042	-2.425	-2.2896	-2.7667	-2.3771	-2.4667	-2.6479	-2.0958	-2.4938	-56.005	70.140	64.211	252.904	165.380	250.790	193.748	264.391	250.519	231.060	54.688	210.077	222.513	80.324	42.480	90.652	7.2224e-05	0.00027848	0.00011651	1230.4	1.7247e-06	3.8663e-06	1306.8	257.68	1.6279e-06	2.7884e-06	323.41	90.639	71.004	20.651	3.8262e-06	29.203	0.00016587	0.00014225	3.8286e-05	1201.8	1.9407e-06	1.4826e-06	1279.8	254.51	1.8034e-06	1.5224e-06	319.05	90.603	71.171	20.617	1.7362e-06	29.332	205.256	9.070	16.357	-69.746	112.145	72.527	-69.590	-62.408	81.005	73.620	-62.841	-56.130	-55.849	-49.251	75.695	-49.613	-8191	255	
34593.324	1	1	0	0	0.13851	0.026635	0.077864	0.27455	0.36535	0.18233	0.37642	0.05561	0.15132	0.055479	0.25996	0.19035	0.24846	0.081534	0.14638	0.13272	-1.875	-2.1667	-2.5417	-2.325	-2.3646	-2.6437	-2.4062	-2.4979	-2.525	-2.2396	-2.8458	-2.2229	-2.3917	-2.3917	-2.0021	-2.5979	236.062	240.379	95.754	231.681	1.281	7.638	216.930	241.181	104.667	205.485	252.673	131.814	209.591	257.858	-70.995	250.957	6.9838e-05	0.00037052	9.4841e-05	1229.3	1.7819e-06	2.9707e-06	1304.2	257	7.4745e-07	3.9602e-06	323.47	90.034	71.033	20.511	1.8749e-06	29.247	0.00016528	0.00014792	3.8209e-05	1200	1.9988e-06	1.5674e-06	1276.8	254.13	1.7426e-06	1.6222e-06	318.69	90.443	71.116	20.576	1.7276e-06	29.281	211.716	22.249	15.151	-69.731	80.511	65.946	-69.558	-62.810	61.514	68.406	-62.770	-56.439	-55.974	-49.157	85.182	-49.486	-8191	255	
34593.418	1	1	0	0	0.29428	0.10527	0.080843	0.17406	0.14194	0.12789	0.075871	0.32592	0.19145	0.16308	0.21446	0.23961	0.25568	0.17008	0.31526	0.087568	-2.0917	-2.0979	-2.6312	-2.4021	-2.0542	-2.525	-2.3333	-2.5521	-2.3396	-2.1104	-2.7333	-2.5542	-2.2375	-2.475	-2.0479	-2.4146	110.533	243.808	155.533	-5.033	-14.964	92.291	5.191	-61.305	166.222	274.853	31.900	192.321	277.295	144.933	268.011	170.048	7.2678e-05	0.0003017	8.9053e-05	1226	1.4933e-06	3.002e-06	1303.2	256.67	1.2919e-06	3.0252e-06	322.86	90.443	71.352	20.608	2.2526e-06	29.084	0.00016697	0.00014071	4.0655e-05	1197.3	1.9966e-06	1.3353e-06	1273.5	253.36	1.6988e-06	1.541e-06	317.85	90.369	71.215	20.525	1.6691e-06	29.235	216.214	15.220	4.423	-69.776	113.738	65.412	-69.390	-62.848	85.411	67.010	-63.130	-56.270	-56.244	-49.159	70.398	-49.623	-8191	255	
34593.516	1	1	0	0	0.15366	0.10233	0.20225	0.27498	0.12644	0.014305	0.046589	0.13589	0.078506	0.24936	0.1012	0.18876	0.16334	0.12342	0.1363	0.14704	-2.1063	-2	-2.5354	-2.4125	-2.0979	-2.7375	-2.2208	-2.5333	-2.4938	-2.2938	-2.625	-2.4229	-2.4	-2.5125	-2.3063	-2.5646	149.772	224.212	-66.204	171.503	213.341	19.997	248.746	-19.618	16.851	-7.249	-59.774	-49.232	144.257	71.381	61.995	170.139	6.3125e-05	0.00024039	9.7743e-05	1221.9	1.4578e-06	3.2032e-06	1295.8	254.85	2.1816e-06	2.0719e-06	322.39	90.315	71.185	20.496	2.87e-06	29.106	0.00015823	0.00014143	3.5902e-05	1192.4	1.9149e-06	1.3086e-06	1269.4	252.91	1.7289e-06	1.3482e-06	317.1	90.305	70.871	20.52	1.5901e-06	29.178	208.841	9.295	26.673	-69.806	99.034	56.248	-69.546	-62.905	92.657	66.002	-62.787	-56.147	-56.113	-49.625	87.216	-49.270	-8191	255	
34593.633	1	1	0	0	0.13257	0.060558	0.092493	0.14026	0.14116	0.21172	0.027494	0.18404	0.23615	0.047387	0.11974	0.18733	0.14262	0.36261	0.11989	0.22468	-2.2854	-2.0625	-2.3625	-2.7375	-2.1979	-2.6125	-2.6229	-2.5375	-2.5208	-2.275	-2.5104	-2.4958	-2.325	-2.5458	-2.2396	-2.3458	-53.926	-51.922	-38.778	192.840	75.197	-6.552	237.675	216.211	-38.214	190.841	29.652	152.527	240.989	208.662	-39.798	237.888	7.0259e-05	0.00028417	0.00011046	1221.2	1.6858e-06	3.1794e-06	1291.3	257.45	1.3246e-06	3.684e-06	321.65	89.47	70.949	20.397	1.8411e-06	29.134	0.0001496	0.00013884	3.6382e-05	1191.6	1.9101e-06	1.2783e-06	1265.7	252.58	1.7339e-06	1.5075e-06	317.03	89.992	70.741	20.494	1.5776e-06	29.206	204.301	23.223	6.017	-69.844	102.073	72.913	-69.484	-62.662	69.525	54.383	-63.218	-56.247	-56.245	-48.719	89.196	-48.938	-8191	255	
34593.730	1	1	0	0	0.038822	0.30853	0.34434	0.40067	0.030524	0.096911	0.33301	0.12925	0.18836	0.05387	0.085666	0.083534	0.24269	0.036201	0.11239	0.069691	-2.1437	-2.1229	-2.2792	-2.4875	-1.9667	-2.7229	-2.5083	-2.3	-2.6	-2.1917	-2.5583	-2.5271	-2.1854	-2.6042	-2.2417	-2.2479	224.908	18.772	272.597	259.268	55.932	226.048	178.096	195.403	-19.194	67.915	81.668	17.034	262.745	270.302	-68.404	251.180	7.1203e-05	0.00027971	0.00012853	1217.4	1.9737e-06	3.0552e-06	1293.8	255.37	1.79e-06	2.9213e-06	322.15	89.848	70.748	20.363	2.0213e-06	29.117	0.00014819	0.00013494	3.7806e-05	1189.2	1.8953e-06	1.3377e-06	1265.1	251.78	1.5783e-06	1.4337e-06	316.78	89.88	70.613	20.45	1.4321e-06	29.078	205.559	24.287	30.907	-69.787	103.977	66.302	-69.558	-62.750	84.691	74.347	-62.759	-55.973	-56.041	-49.300	81.572	-49.583	-8191	255	
34593.828	1	1	0	0	0.098945	0.080917	0.062381	0.28863	0.14708	0.13287	0.1783	0.27076	0.050872	0.14857	0.12207	0.15206	0.28271	0.20899	0.044844	0.095429	-2.1083	-2.1146	-2.4125	-2.8083	-2.2625	-2.45	-2.5542	-2.1833	-2.5938	-2.3354	-2.3063	-2.6437	-2.175	-2.5708	-2.4188	-1.9688	160.216	229.438	138.289	262.493	61.731	193.103	238.236	160.008	60.073	-3.068	277.586	149.227	162.924	47.518	-25.029	-78.327	7.5964e-05	0.00033614	9.3438e-05	1219.8	1.326e-06	2.9467e-06	1294	254.87	1.5791e-06	3.3938e-06	319.03	89.438	70.551	20.391	2.3559e-06	28.941	0.00014934	0.00015051	3.7682e-05	1189.5	1.9708e-06	1.3111e-06	1265.2	251.98	1.6156e-06	1.4003e-06	315.7	89.83	70.664	20.432	1.4878e-06	29.089	214.889	12.917	33.763	-69.894	91.081	60.634	-69.549	-62.926	61.767	57.240	-62.974	-56.394	-55.848	-49.312	83.251	-49.444	-8191	255	
34593.922	1	1	0	0	0.19631	0.38854	0.16601	0.20428	0.12001	0.067424	0.21411	0.069151	0.31327	0.1762	0.12363	0.10222	0.20687	0.055801	0.22054	0.15814	-2.1771	-2.2833	-2.1792	-2.5542	-2.15	-2.3792	-2.4667	-2.3417	-2.65	-2.2417	-2.2938	-2.7354	-2.2667	-2.5458	-2.5312	-2.0333	183.237	186.887	38.517	267.463	-17.655	147.495	235.469	275.747	248.464	227.774	105.416	271.613	-54.787	266.909	146.748	86.476	6.9508e-05	0.00029122	0.0001046	1217.5	2.1778e-06	2.7637e-06	1291.9	253.71	1.2613e-06	3.5631e-06	321.21	89.493	70.122	20.511	2.0052e-06	29.35	0.00014723	0.00013021	3.6521e-05	1188.5	1.9428e-06	1.3297e-06	1265.9	251.08	1.7218e-06	1.3959e-06	316.1	89.792	70.538	20.465	1.4105e-06	29.211	225.424	21.730	16.242	-69.848	86.743	72.903	-69.760	-62.632	94.637	69.726	-62.951	-56.329	-56.203	-49.066	89.455	-49.482	-8191	255	
34594.020	1	1	0	0	0.18322	0.1552	0.23721	0.069529	0.17263	0.18449	0.32902	0.19632	0.29164	0.17618	0.051383	0.17268	0.045718	0.12197	0.19219	0.20359	-2.225	-2.0667	-2.1937	-2.6979	-2.2708	-2.4313	-2.7	-2.3104	-2.5229	-2.3625	-2.2292	-2.5833	-2.3146	-2.4437	-2.4979	-2	75.850	-33.607	180.320	22.622	19.170	12.417	236.755	-79.483	-46.662	38.512	148.944	-7.888	219.768	197.774	-36.428	220.705	6.4122e-05	0.00025031	9.4637e-05	1216.6	9.5208e-07	2.8349e-06	1290.6	254.42	1.6718e-06	2.661e-06	320.57	89.353	70.788	20.384	2.523e-06	29.125	0.00014754	0.00013032	3.5639e-05	1187.8	1.9835e-06	1.3866e-06	1264.9	251.3	1.6506e-06	1.5317e-06	315.8	89.877	70.651	20.414	1.3605e-06	29.119	214.525	25.023	4.544	-69.692	150.257	68.937	-69.299	-62.792	77.333	69.872	-63.063	-55.913	-55.975	-49.043	82.838	-49.412	-8191	255	
34594.113	1	1	0	0	0.12477	0.060733	0.18142	0.18505	0.083743	0.24791	0.14044	0.06674	0.083228	0.15919	0.19324	0.30107	0.11979	0.19794	0.14063	0.15107	-1.9167	-2.2958	-2.0125	-2.6958	-2.1312	-2.1167	-2.7375	-2.1979	-2.3729	-2.3312	-2.1875	-2.4792	-2.375	-2.3708	-2.6229	-2.1688	5.624	130.448	-45.689	-26.222	167.648	103.430	199.516	179.450	-15.150	7.364	233.909	217.444	-22.954	257.429	137.254	253.704	7.8976e-05	0.00038012	9.9872e-05	1214.4	1.0926e-06	2.9617e-06	1285.2	253.45	1.548e-06	2.6818e-06	320.34	89.417	69.986	20.427	2.6734e-06	28.877	0.00014774	0.00013279	3.6367e-05	1184.6	1.9296e-06	1.443e-06	1260.3	251.15	1.7437e-06	1.3501e-06	315.54	89.746	70.283	20.409	1.3577e-06	29.024	222.836	22.224	31.216	-69.682	68.072	74.418	-69.395	-62.668	95.860	56.556	-62.850	-56.283	-55.813	-49.182	77.045	-49.506	-8191	255	
34594.211	1	1	0	0	0.12687	0.089071	0.16115	0.23136	0.13929	0.064902	0.13547	0.12626	0.077519	0.20482	0.21252	0.082549	0.095127	0.21702	0.16517	0.040354	-2.0125	-2.4792	-2.0521	-2.5812	-2.1937	-2.3042	-2.8146	-2.3292	-2.6104	-2.6042	-2.375	-2.6083	-2.3333	-2.1521	-2.6417	-2.0083	-20.249	-19.113	18.352	237.614	50.488	184.987	209.718	149.164	10.451	209.881	219.770	214.628	-16.717	-72.544	-23.844	268.192	6.768e-05	0.00031621	7.1151e-05	1213.4	1.7026e-06	2.8956e-06	1290.2	255.09	1.6501e-06	3.1405e-06	318.98	89.34	70.588	20.385	2.5778e-06	29.031	0.00015828	0.00012542	3.6537e-05	1184.1	1.898e-06	1.3526e-06	1261.1	250.9	1.6539e-06	1.4034e-06	314.76	89.65	70.412	20.42	1.4429e-06	29.115	216.610	10.683	4.703	-69.721	87.498	59.453	-69.456	-62.672	84.814	59.279	-62.979	-56.122	-55.932	-49.262	98.732	-49.428	-8191	255	
34594.309	1	1	0	0	0.092595	0.044123	0.12579	0.15431	0.29035	0.25972	0.12831	0.40947	0.34387	0.29523	0.28016	0.050203	0.44133	0.098461	0.15165	0.20645	-1.9917	-2.5229	-2.0125	-2.7229	-2.3375	-2.2042	-2.5333	-2.2083	-2.3875	-2.6917	-2.0771	-2.5146	-2.5583	-2.2583	-2.5771	-2.275	59.739	138.647	67.240	231.777	-72.365	186.346	237.844	-73.782	170.042	-64.006	222.189	14.994	-50.103	222.705	-52.968	-49.285	7.7453e-05	0.00035817	9.4821e-05	1210.7	1.4523e-06	2.7991e-06	1286.1	253.52	1.6864e-06	3.0834e-06	319.58	89.183	70.174	20.39	2.2288e-06	28.906	0.00015501	0.00012526	3.8162e-05	1183.5	1.8726e-06	1.3736e-06	1259.4	251.07	1.7043e-06	1.3023e-06	315.26	89.663	70.368	20.455	1.4622e-06	28.989	208.690	25.594	23.845	-69.710	86.271	77.272	-69.508	-62.645	71.856	74.661	-62.909	-56.315	-56.098	-49.067	81.241	-49.378	-8191	255	
34594.426	1	1	0	0	0.015556	0.109	0.12676	0.23407	0.061396	0.2571	0.23776	0.14336	0.15371	0.07994	0.2072	0.22871	0.16484	0.13836	0.14154	0.21757	-1.8167	-2.4354	-1.9917	-2.6708	-2.4521	-2.2188	-2.6396	-2.2812	-2.2021	-2.6417	-2.3	-2.425	-2.5479	-2.1104	-2.425	-2.4	-22.357	58.894	-13.802	-66.312	-61.643	236.454	-56.361	179.307	183.521	150.641	268.893	259.096	268.638	16.002	124.884	57.637	7.1215e-05	0.00031231	9.0482e-05	1214.3	1.439e-06	3.6749e-06	1287.7	254.01	1.195e-06	2.7705e-06	319.37	89.42	70.485	20.481	1.6752e-06	29	0.00016268	0.00012482	3.2589e-05	1183.8	1.8489e-06	1.3866e-06	1260.6	250.92	1.7278e-06	1.2955e-06	314.91	89.889	70.434	20.4	1.3759e-06	29.104	209.946	25.827	7.744	-69.664	90.371	81.952	-69.718	-62.955	60.010	72.350	-62.749	-56.588	-56.169	-49.060	76.669	-49.344	-8191	255	
34594.496	1	1	0	0	0.051816	0.20527	0.31775	0.18496	0.043816	0.10625	0.030615	0.26105	0.37099	0.22368	0.1935	0.35833	0.15053	0.21556	0.096568	0.24196	-1.6833	-2.3396	-2.3438	-2.6375	-2.4667	-2.1229	-2.5896	-2.2438	-2.3042	-2.6521	-2.3292	-2.4917	-2.5417	-2.0604	-2.4167	-2.4062	181.544	-50.310	28.337	173.659	-34.346	156.025	38.918	181.588	98.057	238.379	276.751	242.912	252.796	-78.403	66.850	200.556	7.6154e-05	0.00025661	0.00010046	1213.5	1.8846e-06	3.0698e-06	1284.1	253.94	1.0893e-06	2.9211e-06	321.33	88.927	70.267	20.345	1.9167e-06	29.078	0.00015177	0.00011535	3.4849e-05	1184.5	1.8695e-06	1.4393e-06	1259.6	250.87	1.7662e-06	1.2354e-06	315.42	89.692	70.428	20.443	1.3753e-06	29.073	213.686	2.414	22.796	-69.654	111.919	72.925	-69.578	-62.838	99.084	85.917	-63.079	-56.555	-56.361	-49.144	85.774	-49.446	-8191	255	
34594.598	1	1	0	0	0.085307	0.14017	0.26576	0.27986	0.28172	0.16638	0.17562	0.12769	0.12681	0.20054	0.083966	0.11921	0.06918	0.30235	0.11588	0.13124	-1.7062	-2.5375	-2.1875	-2.5292	-2.4333	-2.0646	-2.6063	-2.6688	-2.2438	-2.6	-2.3604	-2.3875	-2.5854	-2.2167	-2.4688	-2.3104	-46.656	84.554	192.777	238.947	179.232	125.591	206.685	-17.571	134.037	164.152	77.660	273.348	254.698	-75.650	256.306	178.081	7.4461e-05	0.00041694	7.736e-05	1215.6	1.6919e-06	2.2e-06	1282.5	255.88	8.9601e-07	3.2158e-06	320.6	89.253	70.782	20.387	1.5863e-06	28.843	0.00015896	0.00012999	3.5809e-05	1183.8	1.7961e-06	1.5234e-06	1259.2	250.99	1.638e-06	1.3061e-06	314.98	89.737	70.581	20.404	1.5077e-06	29.054	219.056	13.777	15.280	-69.610	82.984	54.197	-69.679	-62.820	65.684	73.644	-62.755	-56.066	-55.823	-49.082	97.122	-49.765	-8191	255	
34594.715	1	1	0	0	0.035478	0.082047	0.17504	0.10625	0.095595	0.19214	0.32981	0.08386	0.15532	0.075108	0.17996	0.26734	0.20593	0.17461	0.151	0.01907	-1.6458	-2.4729	-2.1229	-2.2854	-2.6813	-2.2417	-2.6167	-2.5417	-2.2208	-2.55	-2.4417	-2.1083	-2.4625	-2.2271	-2.5417	-2.5125	-61.126	151.563	-72.683	164.785	243.550	113.898	219.397	62.547	-27.971	204.217	127.145	-12.170	-26.090	222.226	-71.206	125.375	6.5765e-05	0.00039491	9.6988e-05	1208	1.1357e-06	2.9307e-06	1287.1	253.97	1.609e-06	2.9427e-06	319.23	88.901	70.733	20.403	2.9583e-06	28.999	0.00015434	0.00012262	3.6165e-05	1181.9	1.8204e-06	1.3823e-06	1259.8	250.57	1.6753e-06	1.2428e-06	314.76	89.468	70.484	20.42	1.5299e-06	28.989	222.401	0.313	15.318	-69.807	96.609	69.533	-69.473	-62.668	68.934	46.528	-63.026	-56.174	-55.904	-49.284	70.741	-49.339	-8191	255	
34594.812	1	1	0	0	0.12834	0.044356	0.15729	0.23537	0.42035	0.30677	0.11846	0.19893	0.22077	0.17397	0.28916	0.119	0.10625	0.074451	0.30389	0.082247	-1.7167	-2.4625	-2.2396	-2.3271	-2.5833	-2.3438	-2.5333	-2.5917	-1.9458	-2.5792	-2.4792	-2.1458	-2.5271	-2.2375	-2.325	-2.7062	254.371	168.982	185.583	179.418	142.637	-12.526	253.456	123.188	101.078	237.291	215.614	251.790	141.077	236.349	251.586	11.308	6.8661e-05	0.0003628	9.2883e-05	1209.6	1.5801e-06	3.6026e-06	1284.7	253.62	1.2979e-06	3.1413e-06	319.43	89.474	70.137	20.534	1.8746e-06	29.151	0.00016023	0.00013197	3.7822e-05	1181	1.8093e-06	1.4758e-06	1259.5	250.27	1.7037e-06	1.2707e-06	314.81	89.715	70.378	20.44	1.4293e-06	29.089	209.744	-1.309	20.261	-70.017	95.900	80.154	-69.575	-62.714	98.133	71.313	-62.966	-56.219	-55.959	-49.572	99.275	-49.058	-8191	255	
34594.906	1	1	0	0	0.36995	0.099312	0.27595	0.39396	0.12103	0.22623	0.22859	0.26831	0.16272	0.024857	0.034813	0.28	0.068884	0.10816	0.10153	0.18526	-1.6125	-2.5333	-2.5146	-2.2958	-2.6063	-2.2396	-2.5896	-2.6688	-2.1375	-2.5479	-2.6146	-2.3667	-2.5604	-2.4167	-2.2021	-2.625	270.928	-46.172	-70.666	253.220	166.864	129.936	244.544	97.119	108.751	197.287	238.074	-61.574	196.267	75.668	-77.934	7.811	7.4549e-05	0.00037586	0.00012	1210.1	1.5801e-06	2.9699e-06	1281.5	253.23	1.0781e-06	2.7168e-06	319.69	88.717	70.601	20.378	2.8298e-06	29.001	0.00015456	0.00012124	3.4184e-05	1181.5	1.794e-06	1.3557e-06	1257.4	250.14	1.6709e-06	1.2404e-06	314.62	89.287	70.45	20.405	1.5094e-06	28.986	214.180	7.193	9.829	-69.779	110.546	66.015	-69.644	-62.665	8.686	64.884	-62.718	-56.008	-55.813	-49.198	80.693	-49.439	-8191	255	
34595.027	1	1	0	0	0.15873	0.26195	0.14688	0.029582	0.066077	0.21917	0.26982	0.25758	0.14499	0.16773	0.078524	0.097729	0.062461	0.11497	0.23542	0.23622	-1.8062	-2.525	-2.3396	-2.3208	-2.6688	-2.3229	-2.4271	-2.6021	-2.1875	-2.3563	-2.4521	-2.0792	-2.3958	-2.4333	-2.2542	-2.6771	43.212	58.641	238.313	-44.216	10.977	221.338	166.895	273.224	235.372	72.368	-54.916	70.053	87.424	279.091	125.069	166.949	6.8924e-05	0.00025505	0.0001104	1209.5	1.939e-06	3.3777e-06	1283.3	252.02	1.3845e-06	2.528e-06	319.45	89.343	70.269	20.296	2.0811e-06	28.953	0.00015575	0.00011557	3.4586e-05	1179.5	1.8568e-06	1.3904e-06	1257	249.76	1.7021e-06	1.3265e-06	314.83	89.589	70.149	20.356	1.352e-06	28.995	219.265	25.034	23.940	-69.656	106.565	63.490	-69.419	-62.871	70.868	56.328	-63.076	-56.003	-55.716	-49.342	94.746	-49.697	-8191	255	
34595.125	1	1	0	0	0.1845	0.16857	0.23797	0.39908	0.17973	0.27057	0.0749	0.27094	0.098145	0.27361	0.044468	0.1997	0.15178	0.19938	0.24603	0.15307	-1.7479	-2.2229	-2.4083	-2.2875	-2.3167	-2.3354	-2.2021	-2.6604	-2.1375	-2.2146	-2.4458	-2.2625	-2.4333	-2.3875	-2.3083	-2.5896	26.726	217.766	-64.242	249.605	87.930	276.421	7.828	184.111	29.439	200.614	158.897	194.218	37.538	114.012	202.296	-76.798	7.3764e-05	0.00038481	9.9368e-05	1207.5	1.9933e-06	4.1883e-06	1277.1	254.04	1.0364e-06	3.2491e-06	317.67	88.782	69.718	20.303	3.0741e-06	28.815	0.00015216	0.0001345	3.2991e-05	1178.4	1.9497e-06	1.3024e-06	1254.7	249.96	1.701e-06	1.3067e-06	313.7	89.405	70.125	20.295	1.5032e-06	28.947	216.422	9.603	11.952	-69.613	98.729	60.445	-69.467	-62.658	92.502	59.476	-63.029	-56.319	-56.088	-49.227	96.600	-49.445	-8191	255	
34595.195	1	1	0	0	0.31244	0.11982	0.097926	0.45225	0.043826	0.16868	0.13966	0.15992	0.17267	0.35507	0.10727	0.14196	0.063327	0.17429	0.091703	0.16603	-1.9354	-2.0896	-2.6042	-2.1958	-2.2458	-2.4521	-2.5021	-2.6083	-2.4729	-2.2667	-2.6417	-2.1688	-2.4437	-2.3729	-2.0542	-2.7604	226.827	148.536	0.267	251.933	47.508	250.794	173.999	-79.465	196.514	68.697	185.006	-19.303	38.844	73.887	-66.377	20.030	7.7653e-05	0.00026423	0.00011468	1201.6	1.5751e-06	2.4458e-06	1278.8	253.51	1.1304e-06	2.7464e-06	316.73	88.882	69.87	20.349	2.2298e-06	28.908	0.00014988	0.0001318	3.2558e-05	1173.9	1.8658e-06	1.1384e-06	1249.7	249.3	1.5975e-06	1.3098e-06	313.26	89.183	70.016	20.336	1.5674e-06	28.95	217.412	18.423	17.733	-69.696	70.471	76.295	-69.517	-62.575	80.240	77.328	-63.012	-56.172	-56.141	-49.428	65.130	-49.224	-8191	255	
34595.316	1	1	0	0	0.15661	0.1363	0.036935	0.27834	0.22586	0.28189	0.25704	0.39913	0.33934	0.069082	0.11682	0.098631	0.2426	0.081295	0.13061	0.097684	-1.8208	-2.1937	-2.5042	-2.425	-2.3	-2.5208	-2.1333	-2.6125	-2.3104	-2.3625	-2.4604	-2.1	-2.3708	-2.45	-2.2021	-2.5354	159.068	74.786	255.099	170.932	127.450	141.362	203.949	209.573	203.346	171.799	226.656	113.129	63.660	71.938	275.079	130.814	7.2722e-05	0.00032632	0.0001171	1200.6	1.6768e-06	1.8381e-06	1277.4	252.13	1.4229e-06	2.1699e-06	317.71	88.549	69.688	20.269	2.5615e-06	28.829	0.00014689	0.00012262	3.3704e-05	1173.7	1.7893e-06	1.1743e-06	1249	248.62	1.6205e-06	1.2837e-06	312.6	88.898	69.879	20.305	1.6555e-06	28.842	213.166	4.637	12.872	-69.674	100.482	92.063	-69.479	-62.826	94.086	88.771	-62.566	-56.176	-56.105	-49.379	83.609	-49.535	-8191	255	
34595.410	1	1	0	0	0.25285	0.1192	0.088759	0.069246	0.15236	0.23759	0.092277	0.097645	0.15678	0.14237	0.16604	0.46798	0.1271	0.15221	0.051883	0.045536	-1.925	-2.1479	-2.3854	-2.3667	-2.4813	-2.5187	-2.2812	-2.3563	-2.225	-2.1458	-2.6312	-2.0938	-2.3625	-2.4208	-2.1479	-2.4771	-73.435	11.093	183.179	242.166	65.226	202.049	274.109	261.911	1.017	237.316	233.052	188.346	-33.153	212.521	200.089	207.145	8.143e-05	0.00034643	9.8378e-05	1200.2	1.5102e-06	3.6553e-06	1274.3	252.49	1.5428e-06	3.5473e-06	317.57	88.757	69.664	20.347	3.3831e-06	28.69	0.00014963	0.00012757	3.1846e-05	1171.6	1.7998e-06	1.2362e-06	1250	249.09	1.6643e-06	1.3817e-06	312.95	89.256	69.926	20.319	1.4969e-06	28.829	216.041	3.684	28.748	-69.823	73.650	61.862	-69.280	-62.583	90.083	71.102	-62.765	-56.150	-55.884	-49.175	86.850	-49.661	-8191	255	
34595.508	1	1	0	0	0.082057	0.20174	0.13566	0.39316	0.26407	0.062044	0.099232	0.39543	0.093891	0.094504	0.1183	0.040595	0.40705	0.19443	0.12455	0.061923	-1.9917	-2.2	-2.6937	-2.4896	-2.0292	-2.5312	-2.4062	-2.4958	-2.4667	-2.2521	-2.6167	-2.3708	-1.95	-2.6146	-2.0875	-2.2729	17.456	19.117	120.082	-79.468	145.069	-78.257	86.369	243.829	123.835	254.381	-14.373	73.437	205.229	99.563	171.642	222.142	6.4581e-05	0.00025874	0.00012713	1199.1	1.601e-06	4.3071e-06	1274	250.54	1.6094e-06	2.7509e-06	316.45	88.672	70.092	20.389	2.0133e-06	28.631	0.00014272	0.00014049	3.5345e-05	1172.1	1.974e-06	1.2486e-06	1250.2	248.25	1.6221e-06	1.3011e-06	312.68	88.948	70.043	20.332	1.369e-06	28.795	221.307	10.091	15.945	-69.724	93.934	67.961	-69.471	-62.873	69.863	65.880	-62.701	-56.340	-55.918	-49.277	78.643	-49.732	-8191	255	
34595.602	1	1	0	0	0.048133	0.058879	0.26442	0.42016	0.22125	0.24885	0.15771	0.16072	0.1862	0.12456	0.12816	0.12958	0.47228	0.12895	0.15795	0.20435	-1.9521	-2.05	-2.5042	-2.4458	-2.0771	-2.5083	-2.3271	-2.5292	-2.5021	-2.2687	-2.5583	-2.2479	-2.2979	-2.6083	-2.1375	-2.2375	-21.142	169.691	3.202	263.366	13.156	241.316	225.658	155.802	-73.492	-61.276	262.738	224.080	173.007	9.173	146.300	211.892	6.6216e-05	0.0003587	0.00010241	1204.6	1.1191e-06	3.6494e-06	1276.9	250.91	1.0907e-06	3.1e-06	315.96	88.544	69.648	20.215	2.4308e-06	28.994	0.00014351	0.00013923	3.3471e-05	1172	1.9133e-06	1.2418e-06	1249.4	248.37	1.609e-06	1.3928e-06	312.14	89.069	69.93	20.276	1.4935e-06	28.95	210.553	23.539	24.247	-69.766	110.925	64.447	-69.274	-62.659	117.263	53.327	-63.004	-55.973	-55.849	-49.365	94.221	-49.230	-8191	255	
34595.723	1	1	0	0	0.20145	0.19834	0.14343	0.24754	0.056413	0.17206	0.014231	0.27734	0.020796	0.28554	0.046721	0.24975	0.22045	0.37852	0.18427	0.16341	-2.0896	-2.1167	-2.4375	-2.6208	-2.2833	-2.4958	-2.35	-2.2687	-2.5938	-2.0812	-2.4271	-2.6188	-2.1146	-2.4417	-2.2083	-2.2104	-20.850	188.894	262.846	235.153	21.121	210.902	-29.670	-71.354	85.216	245.352	239.047	162.038	225.375	-43.612	128.151	247.150	7.6772e-05	0.00028526	7.5571e-05	1202.7	2.0583e-06	4.3633e-06	1273.2	251.47	1.0988e-06	2.5953e-06	318.05	88.847	70.247	20.28	2.2902e-06	28.761	0.00014311	0.00013131	3.6041e-05	1171.8	1.8415e-06	1.4331e-06	1247.7	248.39	1.5279e-06	1.4034e-06	312.7	89.166	70.052	20.297	1.3759e-06	28.875	209.693	-1.031	30.628	-69.929	106.221	65.572	-69.481	-62.553	83.730	53.627	-62.747	-56.166	-55.890	-49.317	73.472	-49.441	-8191	255	
34595.797	1	1	0	0	0.086404	0.27356	0.11269	0.060121	0.11645	0.23369	0.15436	0.24002	0.1789	0.24416	0.16001	0.061697	0.21522	0.05628	0.072102	0.083331	-2.025	-2.0646	-2.2917	-2.4583	-1.9688	-2.6813	-2.55	-2.3	-2.6063	-2.1208	-2.3667	-2.6021	-2.0708	-2.4896	-2.4313	-2.0917	-28.233	252.883	125.375	266.712	60.804	-14.387	269.965	197.928	238.528	-78.784	238.509	217.288	4.823	191.612	226.752	267.591	6.6992e-05	0.00033825	0.00011129	1201.5	1.9657e-06	3.3743e-06	1270.4	251.12	1.8346e-06	2.519e-06	316.26	88.936	69.672	20.226	3.1348e-06	28.978	0.00014664	0.00012289	3.3084e-05	1172.2	1.8468e-06	1.3111e-06	1245.5	248.32	1.6019e-06	1.3042e-06	312.24	89.076	69.912	20.254	1.431e-06	28.895	216.435	30.654	26.844	-69.701	78.880	74.177	-69.418	-62.621	72.660	78.519	-62.768	-56.177	-56.340	-49.351	101.359	-49.310	-8191	255	
34595.891	1	1	0	0	0.35809	0.055118	0.22742	0.11894	0.23605	0.19921	0.34245	0.19793	0.17032	0.30934	0.10641	0.22412	0.082805	0.092414	0.05202	0.11551	-1.9312	-2.0271	-2.2146	-2.7979	-2.2333	-2.7333	-2.3375	-2.2	-2.4771	-2.3854	-2.3625	-2.6688	-2.2042	-2.5583	-2.625	-2.1604	199.769	261.114	276.557	-6.909	56.226	141.920	190.196	217.130	14.430	22.307	169.316	177.049	211.885	-76.135	-6.934	201.836	7.6486e-05	0.00029999	8.8035e-05	1195.5	9.6995e-07	3.0113e-06	1270.7	251.71	9.6284e-07	3.2029e-06	315.21	88.705	70.139	20.024	2.951e-06	28.795	0.00014376	0.00012625	3.2186e-05	1170.1	1.8853e-06	1.1341e-06	1247.4	248.34	1.4392e-06	1.3166e-06	311.7	88.925	69.923	20.197	1.4776e-06	28.865	214.887	1.675	34.094	-69.762	85.325	73.693	-69.544	-62.466	56.658	64.376	-62.845	-56.014	-56.146	-49.387	94.375	-49.195	-8191	255	
34595.988	1	1	0	0	0.1235	0.3455	0.20999	0.18531	0.24664	0.34753	0.43316	0.15181	0.069454	0.2274	0.41552	0.11281	0.12246	0.073486	0.078177	0.33931	-1.8583	-2.1083	-2.3438	-2.7729	-2.1521	-2.5062	-2.7292	-2.1083	-2.4521	-2.3396	-2.3521	-2.7375	-2.1708	-2.3792	-2.4813	-2.0687	74.041	35.393	212.979	216.900	88.291	178.938	220.799	219.156	-1.643	166.924	276.883	191.631	158.130	-6.181	209.202	264.143	7.1182e-05	0.00031716	0.00011678	1197	1.3006e-06	2.2757e-06	1270.9	251.27	1.3664e-06	3.4557e-06	316.25	88.508	70.005	20.183	2.4904e-06	28.904	0.00015053	0.00012014	3.8085e-05	1167.8	1.8278e-06	1.1335e-06	1246.6	247.77	1.5581e-06	1.2323e-06	311.74	88.919	69.808	20.222	1.3992e-06	28.854	211.925	11.686	10.283	-69.707	116.863	67.225	-69.449	-62.403	63.784	78.440	-63.011	-56.061	-55.792	-49.520	84.990	-49.440	-8191	255	
34596.109	1	1	0	0	0.28232	0.054237	0.13588	0.4001	0.094894	0.28322	0.092274	0.050085	0.16121	0.10823	0.23192	0.092481	0.35653	0.39497	0.28211	0.09342	-2.2917	-2.3271	-2.3333	-2.8771	-2.0333	-2.4646	-2.6917	-2.0958	-2.4646	-2.4313	-2.3563	-2.5667	-2.2562	-2.3104	-2.5396	-2.125	27.999	145.422	62.272	204.038	102.963	244.314	96.153	238.346	247.590	106.485	194.598	244.390	-48.249	-77.739	-36.707	134.722	6.5419e-05	0.00036016	0.00010736	1197.3	2.1255e-06	3.1855e-06	1269.3	250.37	1.3716e-06	3.4811e-06	315.85	88.678	69.985	20.146	2.6483e-06	28.764	0.00014777	0.00012091	3.5763e-05	1167	1.7265e-06	1.2195e-06	1244	247.25	1.592e-06	1.1808e-06	311.81	88.86	69.824	20.212	1.419e-06	28.79	215.112	10.128	26.214	-69.667	97.565	68.798	-69.589	-62.466	73.555	75.302	-62.809	-55.939	-55.975	-49.771	73.989	-49.495	-8191	255	
34596.203	1	1	0	0	0.35614	0.16604	0.22015	0.26522	0.12978	0.33937	0.27304	0.1791	0.30887	0.3596	0.079461	0.099329	0.14498	0.10058	0.10678	0.43223	-1.9688	-2.6437	-2.0938	-2.7542	-2.3375	-2.2854	-2.6188	-2.2729	-2.3583	-2.5375	-2.1958	-2.5396	-2.1688	-2.2438	-2.5021	-2.2417	109.041	104.810	218.602	227.481	-41.735	183.587	-29.628	260.959	-3.664	79.560	210.002	273.113	261.871	135.683	144.343	-36.980	7.3554e-05	0.0003437	8.2471e-05	1190.9	1.744e-06	2.4935e-06	1268.2	249.98	1.0843e-06	3.011e-06	314.54	88.888	69.763	20.058	2.4074e-06	28.642	0.00014731	0.0001197	3.7156e-05	1162.5	1.8315e-06	1.2145e-06	1240.8	246.88	1.5915e-06	1.2001e-06	311.09	88.774	69.756	20.186	1.2753e-06	28.762	216.007	29.016	20.252	-69.650	92.174	94.470	-69.276	-62.884	64.114	63.749	-62.859	-56.388	-55.942	-48.886	73.636	-49.229	-8191	255	
34596.297	1	1	0	0	0.20847	0.093033	0.19832	0.17425	0.045124	0.11714	0.17947	0.17591	0.091407	0.13411	0.54273	0.17622	0.17087	0.34637	0.11869	0.1266	-1.925	-2.4854	-2.1896	-2.6396	-2.3458	-1.9917	-2.7125	-2.1646	-2.4667	-2.4729	-2.1521	-2.5833	-2.2854	-2.1813	-2.6083	-2.1146	-67.752	53.126	-78.128	167.963	9.350	124.969	189.221	179.378	-44.299	-47.696	-69.741	-28.555	197.807	209.204	181.606	156.844	6.5586e-05	0.00036446	9.0409e-05	1187.7	1.3219e-06	3.9422e-06	1264.8	250.98	6.139e-07	2.6436e-06	315.01	88.563	69.854	20.219	1.6918e-06	28.646	0.00013962	0.00011205	3.649e-05	1160.5	1.6864e-06	1.217e-06	1237.7	247.03	1.3998e-06	1.1715e-06	310.33	88.732	69.734	20.219	1.2724e-06	28.715	210.986	1.095	10.782	-69.733	114.319	68.831	-69.422	-62.554	43.876	63.147	-62.647	-56.186	-55.805	-48.854	74.607	-49.365	-8191	255	
34596.395	1	1	0	0	0.084112	0.16286	0.11285	0.28422	0.1656	0.053242	0.23702	0.070889	0.18029	0.1371	0.11542	0.073889	0.1408	0.14578	0.16685	0.1567	-1.7062	-2.3812	-2.0958	-2.6333	-2.4917	-2.1083	-2.6208	-2.375	-2.3292	-2.5104	-2.3771	-2.6396	-2.4104	-2.0771	-2.5771	-2.3208	182.908	81.666	-40.985	246.164	40.717	4.647	224.489	-64.481	2.807	82.311	77.304	176.617	122.936	240.512	-38.760	271.882	7.575e-05	0.00043134	0.000105	1187.1	1.6085e-06	1.5878e-06	1261.8	250.36	1.1743e-06	1.951e-06	315.47	88.175	69.631	20.101	1.9458e-06	28.772	0.00014777	0.00011403	3.5979e-05	1159.2	1.7291e-06	1.1972e-06	1236.6	246.92	1.5893e-06	1.1114e-06	310.66	88.629	69.527	20.196	1.3139e-06	28.78	208.127	11.241	15.672	-69.540	90.704	65.631	-69.430	-62.453	66.972	46.941	-63.030	-55.882	-56.186	-49.288	85.090	-49.573	-8191	255	
34596.492	1	1	0	0	0.15387	0.28978	0.038894	0.16774	0.093297	0.1104	0.18208	0.1468	0.18263	0.15238	0.19241	0.068315	0.20024	0.020158	0.11504	0.031712	-1.7333	-2.3729	-2.1667	-2.5417	-2.4146	-2.2375	-2.7458	-2.2667	-2.325	-2.5167	-2.2938	-2.4188	-2.6188	-2.0021	-2.6813	-2.3146	124.848	147.968	202.457	264.172	271.386	-66.559	275.092	160.902	-50.092	273.621	-66.799	-71.356	110.606	91.655	231.949	-30.714	7.6051e-05	0.00029046	0.00010656	1189.5	1.9773e-06	3.9336e-06	1264.7	250.55	1.5441e-06	2.6494e-06	314.44	88.706	69.566	20.275	1.8553e-06	28.615	0.00015002	0.00010452	3.4385e-05	1161.1	1.737e-06	1.3204e-06	1237.1	246.57	1.5745e-06	1.0773e-06	310.28	88.788	69.621	20.234	1.0951e-06	28.722	209.964	20.104	8.364	-69.558	89.353	61.029	-69.242	-62.609	66.410	70.707	-62.729	-56.196	-56.338	-49.076	76.602	-49.363	-8191	255	
34596.586	1	1	0	0	0.05143	0.12262	0.24958	0.13899	0.073222	0.085803	0.27453	0.11435	0.24047	0.09013	0.27087	0.10759	0.077221	0.20548	0.068956	0.24348	-1.9083	-2.6354	-2.2458	-2.5062	-2.3854	-2.1688	-2.6979	-2.4833	-2.2646	-2.5875	-2.2708	-2.3896	-2.6083	-1.9792	-2.4083	-2.3875	-54.476	260.979	174.114	253.958	-31.786	115.753	217.715	147.505	249.587	135.973	276.830	-22.250	125.143	-73.183	-53.471	-75.573	6.1574e-05	0.00036	0.00011701	1183.5	1.1153e-06	3.2304e-06	1253.5	248.94	1.8283e-06	3.3922e-06	314.92	87.966	69.6	20.156	1.9771e-06	28.725	0.00014988	0.00011183	3.2094e-05	1156.3	1.6811e-06	1.3712e-06	1232.4	246.37	1.6123e-06	1.2038e-06	309.88	88.58	69.367	20.161	1.3094e-06	28.693	214.108	11.797	-1.087	-69.716	57.901	61.144	-69.497	-62.866	71.754	76.408	-62.763	-56.161	-56.092	-49.089	86.260	-49.356	-8191	255	
34596.707	1	1	0	0	0.18057	0.31735	0.069456	0.19893	0.23564	0.14568	0.14602	0.22362	0.26273	0.11242	0.23969	0.42732	0.12333	0.23963	0.041664	0.20547	-1.9646	-2.5792	-2.2979	-2.4292	-2.4938	-2.1979	-2.5896	-2.4333	-2.175	-2.6104	-2.4229	-2.4333	-2.5375	-2.2083	-2.25	-2.5979	56.643	-74.282	275.625	238.413	243.642	0.334	-32.922	42.210	232.886	276.893	229.869	264.267	22.922	240.913	120.590	-19.287	7.1721e-05	0.00034797	6.0265e-05	1181.6	1.674e-06	3.6671e-06	1260.8	249.51	1.7125e-06	2.9796e-06	314.11	88.034	69.458	20.193	2.4557e-06	28.583	0.0001476	0.00011381	3.2914e-05	1153	1.6985e-06	1.2591e-06	1231.8	245.83	1.6594e-06	1.1449e-06	309.2	88.575	69.384	20.185	1.2684e-06	28.63	215.734	9.333	27.033	-69.761	86.128	76.956	-69.545	-62.599	62.637	71.742	-63.188	-56.143	-55.896	-49.190	80.333	-49.763	-8191	255	
34596.805	1	1	0	0	0.28669	0.22202	0.15106	0.27111	0.22109	0.35341	0.35868	0.21988	0.11195	0.084545	0.066918	0.021076	0.13243	0.13601	0.22727	0.088306	-1.7667	-2.4583	-2.4229	-2.4688	-2.4771	-2.3125	-2.5875	-2.3604	-2.0458	-2.5333	-2.5375	-2.1688	-2.5729	-2.2229	-2.4104	-2.6083	29.677	227.528	118.304	254.873	-10.425	33.437	224.874	140.964	-49.675	58.030	142.507	226.835	-26.359	266.215	165.103	250.190	6.9015e-05	0.00034769	8.2659e-05	1183.6	1.7482e-06	3.8271e-06	1257	250.34	1.7916e-06	3.919e-06	314.49	88.182	69.461	20.156	2.1796e-06	28.684	0.00015388	0.00010644	2.9322e-05	1153.6	1.7122e-06	1.2306e-06	1231.2	246.02	1.6046e-06	1.1926e-06	309.29	88.566	69.568	20.187	1.3662e-06	28.722	206.776	13.827	36.933	-69.687	89.112	71.694	-69.445	-62.461	79.629	67.431	-62.876	-56.420	-56.096	-49.359	79.787	-49.128	-8191	255	
34596.898	1	1	0	0	0.3306	0.24102	0.080588	0.23792	0.13825	0.10534	0.27401	0.38156	0.046182	0.26545	0.41517	0.19409	0.12475	0.1882	0.14574	0.015923	-1.75	-2.4854	-2.3	-2.3	-2.5792	-2.2146	-2.4542	-2.6104	-2.2708	-2.5125	-2.5833	-2.4437	-2.6792	-2.3729	-2.3563	-2.7812	84.438	39.792	212.939	199.712	2.800	115.207	214.214	-63.914	200.069	-71.072	158.651	215.904	161.775	56.528	-12.098	151.587	6.6712e-05	0.00035894	0.00010605	1184.3	9.0275e-07	2.6573e-06	1259.1	248.61	1.3082e-06	2.9146e-06	312.63	88.215	69.525	20.154	2.3718e-06	29.005	0.00014833	0.00010512	3.3146e-05	1154.3	1.6104e-06	1.1836e-06	1231.5	245.68	1.5553e-06	1.1728e-06	309.41	88.5	69.377	20.202	1.2736e-06	28.801	212.178	9.823	20.019	-69.667	109.053	90.751	-69.368	-62.393	59.923	78.007	-63.043	-56.160	-56.020	-49.290	66.810	-49.605	-8191	255	
34596.996	1	1	0	0	0.18327	0.065025	0.081356	0.19044	0.23199	0.26346	0.13564	0.29621	0.086682	0.19965	0.19765	0.10025	0.089707	0.11372	0.18454	0.11585	-1.5562	-2.5104	-2.3688	-2.45	-2.6979	-2.3458	-2.4313	-2.6063	-2.2708	-2.45	-2.4479	-2.0812	-2.5979	-2.2812	-2.3521	-2.6729	133.041	158.497	162.192	239.301	-26.348	244.396	2.809	-34.107	-52.598	-14.568	-23.279	219.607	98.772	-39.789	-55.815	226.384	6.9829e-05	0.00040858	8.313e-05	1186.6	1.0332e-06	3.5701e-06	1261.8	249.55	1.0493e-06	2.1551e-06	314.9	88.098	69.57	20.244	1.8599e-06	28.873	0.00014633	0.00011794	3.1381e-05	1157	1.5534e-06	1.2201e-06	1234.8	246.08	1.6566e-06	1.1839e-06	310.19	88.672	69.63	20.236	1.2969e-06	28.791	226.543	8.668	16.590	-69.758	77.232	72.117	-69.414	-62.429	89.870	55.279	-62.733	-56.133	-55.839	-49.209	82.345	-49.369	-8191	255	
34597.094	1	1	0	0	0.18316	0.068391	0.13452	0.093446	0.10211	0.16458	0.25867	0.10749	0.37748	0.14434	0.32968	0.19111	0.049793	0.32697	0.18411	0.18688	-1.8958	-2.475	-2.4813	-2.2521	-2.5229	-2.3417	-2.4167	-2.5854	-1.9104	-2.3667	-2.6396	-2.3792	-2.5229	-2.4771	-2.3354	-2.7479	56.458	-26.160	265.184	-34.370	167.673	-18.141	223.978	147.180	168.863	73.691	-12.096	268.857	35.909	256.750	-47.389	272.097	6.7117e-05	0.00035179	8.117e-05	1184.3	1.1405e-06	3.9803e-06	1254.9	248.65	1.3697e-06	3.9917e-06	313.25	88.392	69.442	20.251	2.224e-06	28.6	0.00014683	0.00010853	3.0762e-05	1155.6	1.6964e-06	1.1495e-06	1231	245.74	1.5767e-06	1.1083e-06	309.38	88.608	69.576	20.251	1.398e-06	28.746	208.746	4.779	40.839	-69.670	64.210	68.355	-69.389	-62.649	74.995	62.669	-62.817	-56.123	-55.785	-48.986	109.968	-49.534	-8191	255	
34597.188	1	1	0	0	0.12297	0.21585	0.14982	0.3371	0.14494	0.0094319	0.35297	0.25607	0.20683	0.15984	0.15677	0.071135	0.16011	0.069349	0.051006	0.113	-1.8062	-2.2833	-2.6312	-2.4292	-2.35	-2.4896	-2.3208	-2.6937	-2.3271	-2.2375	-2.6063	-2.4292	-2.6688	-2.6063	-2.3229	-2.5729	102.959	85.934	147.281	230.355	183.979	179.732	196.591	220.119	215.795	229.649	237.923	85.858	-46.678	87.438	-8.374	126.192	6.8469e-05	0.00036037	6.8633e-05	1183.8	1.5195e-06	3.7187e-06	1251.7	246.93	1.2127e-06	3.5177e-06	312.96	88.52	69.459	20.232	3.1863e-06	28.797	0.00014478	0.00010776	2.6969e-05	1154.7	1.6558e-06	1.1081e-06	1231.3	245.27	1.5071e-06	1.2521e-06	308.82	88.608	69.533	20.227	1.4196e-06	28.806	219.384	-0.858	6.170	-69.602	82.808	82.508	-69.250	-62.463	63.245	80.254	-62.731	-56.225	-55.692	-49.215	83.481	-49.818	-8191	255	
34597.285	1	1	0	0	0.2652	0.084065	0.10319	0.056568	0.17383	0.17192	0.22752	0.091364	0.17238	0.13917	0.085691	0.2001	0.30483	0.13049	0.27525	0.27209	-1.9271	-2.2146	-2.7021	-2.2729	-2.3187	-2.5229	-2.2958	-2.5333	-2.475	-2.4313	-2.6042	-2.1917	-2.4688	-2.3521	-2.0687	-2.6625	-6.902	49.837	169.695	100.087	-49.569	178.892	182.853	196.207	137.818	140.849	190.811	122.036	145.562	225.381	-77.152	225.144	7.4701e-05	0.00027455	0.00012458	1182	1.748e-06	3.4214e-06	1254.1	250.15	1.3656e-06	2.9931e-06	314.95	88.349	69.146	20.21	2.2845e-06	28.637	0.00014354	0.00011623	2.9864e-05	1154	1.7434e-06	1.2294e-06	1230.6	246.55	1.5263e-06	1.2527e-06	309.66	88.555	69.238	20.241	1.3679e-06	28.727	214.665	3.145	19.459	-69.629	83.558	72.240	-69.516	-62.720	83.751	61.266	-62.860	-56.142	-56.048	-48.943	89.038	-49.477	-8191	255	
34597.402	1	1	0	0	0.14209	0.33498	0.27266	0.22531	0.26643	0.3273	0.37508	0.18858	0.10712	0.14855	0.13085	0.08708	0.18216	0.059241	0.28824	0.1587	-1.925	-2.1437	-2.5458	-2.2042	-2.1583	-2.6063	-2.2021	-2.7208	-2.2875	-2.2708	-2.6562	-2.4125	-2.4313	-2.5021	-2.0687	-2.5375	-78.768	226.113	-49.629	197.522	180.236	56.963	232.203	-36.437	127.369	157.743	13.280	-16.506	179.138	215.410	160.448	143.683	5.4945e-05	0.00042617	0.0001363	1184.5	1.4689e-06	4.5042e-06	1254.2	248.36	1.6288e-06	3.5827e-06	313.9	88.205	69.399	20.251	2.0637e-06	28.775	0.00014379	0.00013725	3.0716e-05	1153.2	1.8167e-06	1.261e-06	1229	245.59	1.5822e-06	1.3141e-06	309.59	88.487	69.415	20.248	1.377e-06	28.777	210.292	6.837	7.623	-69.644	92.332	80.461	-69.426	-62.545	69.142	64.207	-63.070	-56.179	-55.759	-49.215	93.985	-49.448	-8191	255	
34597.500	1	1	0	0	0.32513	0.15029	0.07614	0.30107	0.20344	0.18602	0.30719	0.056764	0.21035	0.1775	0.14784	0.16579	0.2031	0.1148	0.13454	0.12861	-1.9	-2.0854	-2.5958	-2.2958	-2.2687	-2.4875	-2.3271	-2.4479	-2.3438	-2.1458	-2.7271	-2.4083	-2.2562	-2.7667	-2.2938	-2.5625	13.245	135.699	72.173	174.544	-19.706	33.404	206.024	217.576	269.116	-40.822	265.130	203.530	46.465	78.246	150.708	17.812	7.308e-05	0.00023249	7.8062e-05	1181.9	2.5988e-06	3.4752e-06	1257.3	248.89	8.1518e-07	2.1839e-06	312.4	88.444	69.525	20.312	1.6252e-06	28.785	0.00014359	0.00011425	2.8068e-05	1154.1	1.8536e-06	1.1248e-06	1231.3	245.74	1.5225e-06	1.2806e-06	308.92	88.616	69.582	20.297	1.2417e-06	28.789	217.591	5.383	8.222	-69.969	94.424	68.287	-69.245	-62.585	83.020	45.054	-62.769	-56.160	-55.912	-48.874	65.251	-49.479	-8191	255	
34597.598	1	1	0	0	0.24881	0.14123	0.19629	0.21153	0.25319	0.2543	0.14367	0.25045	0.20831	0.14271	0.057269	0.17328	0.14325	0.20403	0.29049	0.12637	-2.15	-2.0375	-2.4354	-2.4146	-2.1937	-2.6896	-2.4771	-2.4667	-2.3896	-2.1917	-2.5438	-2.3187	-2.1833	-2.4875	-2.025	-2.2438	-49.191	1.794	137.220	-43.132	9.811	123.836	142.078	-79.772	67.739	-26.708	-22.393	168.450	256.483	201.983	-66.798	157.501	6.9907e-05	0.00035263	9.3716e-05	1181.5	1.4044e-06	2.9403e-06	1255.6	249.05	8.4442e-07	2.5343e-06	315.8	88.105	69.455	20.3	1.7162e-06	28.757	0.00014105	0.00012531	3.0298e-05	1154.2	1.7713e-06	1.2257e-06	1231.2	245.73	1.5729e-06	1.3178e-06	310.13	88.561	69.472	20.247	1.3724e-06	28.849	205.514	28.415	18.392	-69.679	98.119	79.870	-69.623	-62.672	118.687	67.302	-62.737	-56.341	-55.992	-49.509	79.704	-49.212	-8191	255	
34597.668	1	1	0	0	0.195	0.21265	0.13116	0.39232	0.16809	0.10021	0.2306	0.11061	0.12342	0.35543	0.15034	0.22661	0.24205	0.18451	0.21187	0.2532	-2.0187	-1.9167	-2.4021	-2.4729	-2.2375	-2.6063	-2.2729	-2.2417	-2.4562	-1.9646	-2.6562	-2.6208	-1.9937	-2.5729	-2.3604	-2.3375	-32.758	253.213	187.542	211.253	29.965	77.593	95.061	193.713	244.790	112.681	234.244	187.898	181.722	183.196	90.485	178.836	6.9045e-05	0.0002213	9.6783e-05	1186.3	1.9364e-06	3.0284e-06	1256.9	248.21	8.7861e-07	2.6415e-06	314.1	88.008	69.446	20.487	1.8537e-06	28.608	0.00014982	0.00011194	3.1521e-05	1155.7	1.8415e-06	1.178e-06	1231.5	245.87	1.5055e-06	1.4071e-06	309.5	88.65	69.413	20.309	1.3349e-06	28.734	213.772	19.851	29.739	-69.808	99.495	51.376	-69.532	-62.603	69.586	99.253	-62.758	-55.980	-56.062	-49.237	70.358	-49.328	-8191	255	
34597.789	1	1	0	0	0.21946	0.16483	0.11478	0.18454	0.029858	0.20779	0.23177	0.12593	0.31261	0.12931	0.090116	0.19347	0.42359	0.11869	0.1432	0.13505	-2.0396	-2.2146	-2.4292	-2.5167	-2.0187	-2.3979	-2.5646	-2.2167	-2.525	-2.3271	-2.3229	-2.4292	-2.1312	-2.3917	-2.2229	-2.2125	-44.082	66.508	106.298	206.164	75.998	28.940	199.014	240.465	261.429	-47.856	185.313	216.274	173.258	23.417	92.700	200.267	6.6566e-05	0.00035587	0.0001163	1185.4	1.5751e-06	3.9255e-06	1258.8	249.3	2.3196e-06	2.8545e-06	314.72	87.408	69.306	20.371	2.5217e-06	28.775	0.00014072	0.00012366	3.4911e-05	1156.2	1.8637e-06	1.3055e-06	1234.6	245.79	1.6413e-06	1.3054e-06	309.73	88.383	69.446	20.259	1.3293e-06	28.803	222.027	14.449	23.093	-69.715	105.622	55.006	-69.535	-62.295	84.477	53.897	-63.108	-56.065	-55.840	-49.286	82.246	-49.280	-8191	255	
34597.883	1	1	0	0	0.32376	0.16	0.066715	0.25512	0.28215	0.2471	0.27081	0.19682	0.10725	0.26167	0.11878	0.16001	0.22965	0.085262	0.18342	0.14713	-2.0187	-2.0208	-2.2854	-2.6792	-2.1542	-2.5125	-2.7104	-2.2667	-2.5687	-2.2417	-2.725	-2.5958	-2.15	-2.4396	-2.4271	-2.1562	-14.585	199.242	195.176	271.137	249.816	83.662	188.912	199.137	51.585	150.150	-75.617	-6.355	13.365	241.473	-50.604	257.391	7.9465e-05	0.00033187	0.00012259	1191.5	1.4962e-06	4.1046e-06	1263.7	250.19	1.61e-06	2.6429e-06	313.61	88.406	68.968	19.966	2.559e-06	28.655	0.0001474	0.00012641	3.3502e-05	1158.4	1.9903e-06	1.2096e-06	1235	246.48	1.5378e-06	1.2862e-06	309.46	88.493	69.31	20.158	1.4003e-06	28.788	221.389	9.549	13.440	-69.727	93.842	59.345	-69.333	-62.840	98.301	79.152	-62.843	-56.247	-56.098	-48.988	93.823	-49.439	-8191	255	
34597.980	1	1	0	0	0.10084	0.1956	0.12816	0.18082	0.082596	0.11958	0.20774	0.2222	0.18985	0.32405	0.071286	0.15223	0.21358	0.14986	0.071683	0.10283	-2.0583	-2.0458	-2.0521	-2.7042	-2.1292	-2.3375	-2.8104	-2.2062	-2.5771	-2.3896	-2.3604	-2.6292	-2.0479	-2.4437	-2.375	-2.0542	155.495	251.786	163.692	-41.274	133.928	111.591	184.707	-68.293	107.608	254.868	259.190	98.401	170.044	138.914	248.844	244.532	7.9555e-05	0.00036156	8.4025e-05	1189	1.2349e-06	3.6297e-06	1263.2	250.18	1.3242e-06	2.4248e-06	316.04	88.391	69.487	20.323	2.7398e-06	28.82	0.00014526	0.00012581	3.2558e-05	1159.2	1.889e-06	1.1867e-06	1235.9	246.87	1.6035e-06	1.1895e-06	310.8	88.659	69.579	20.272	1.435e-06	28.82	215.308	14.688	28.859	-69.785	83.568	84.386	-69.395	-62.732	76.233	62.887	-63.042	-56.156	-55.804	-49.100	93.235	-49.532	-8191	255	
34598.074	1	1	0	0	0.14467	0.26975	0.22351	0.34845	0.046229	0.13343	0.25009	0.1857	0.1552	0.2383	0.12226	0.1669	0.14988	0.1611	0.38463	0.25061	-2.1646	-2.2687	-2.3312	-2.7167	-2.1354	-2.5625	-2.6312	-2.1188	-2.5604	-2.3563	-2.2771	-2.5708	-2.4354	-2.3688	-2.5	-2.2729	116.891	48.546	133.047	223.569	-0.223	214.744	236.675	191.059	277.232	58.672	74.955	39.304	217.997	3.836	204.313	31.443	7.7887e-05	0.00026	0.00010014	1187.8	1.4055e-06	3.665e-06	1267.2	250.51	1.1543e-06	3.2575e-06	315.6	88.16	69.58	20.225	1.644e-06	28.852	0.00015377	0.00012003	3.4664e-05	1161.2	1.8695e-06	1.3093e-06	1240.4	247.54	1.6156e-06	1.3848e-06	310.77	88.777	69.631	20.204	1.3514e-06	28.822	213.982	15.524	14.777	-69.860	94.923	70.182	-69.434	-62.733	59.264	72.992	-62.884	-56.187	-56.313	-48.736	71.672	-49.443	-8191	255	
34598.195	1	1	0	0	0.088009	0.23492	0.25885	0.44266	0.1076	0.1476	0.13787	0.19804	0.28171	0.099651	0.10621	0.1053	0.14608	0.20311	0.17962	0.26536	-2.1125	-2.4479	-1.9833	-2.5771	-2.3021	-2.3542	-2.6167	-2.175	-2.5333	-2.3063	-2.1542	-2.8	-2.1646	-2.3063	-2.4813	-2.0521	95.977	53.110	250.309	236.835	-67.036	-52.138	183.511	242.683	170.555	35.663	-28.634	-66.451	174.963	-64.727	144.265	236.499	6.2277e-05	0.0002893	8.421e-05	1189.1	1.1959e-06	2.9036e-06	1268.7	249.66	1.2963e-06	3.127e-06	315.21	88.072	69.526	20.168	2.5483e-06	28.768	0.00014229	0.00013549	3.5887e-05	1164.7	1.9597e-06	1.4324e-06	1243.2	247.76	1.6336e-06	1.4424e-06	311.38	88.709	69.753	20.27	1.4281e-06	28.825	218.542	21.478	2.772	-69.901	89.321	90.913	-69.571	-62.437	92.230	74.874	-63.279	-56.196	-55.892	-49.087	78.242	-49.662	-8191	255	
34598.289	1	1	0	0	0.17558	0.14756	0.14691	0.25405	0.042007	0.16268	0.20251	0.30561	0.25839	0.65773	0.13735	0.28291	0.1113	0.28806	0.18027	0.2047	-2.0062	-2.3729	-2.0938	-2.6042	-2.1125	-2.3396	-2.6833	-2.1	-2.3667	-2.3229	-2.1208	-2.5583	-2.3583	-2.2792	-2.5167	-2.0542	190.304	265.037	-65.234	243.022	34.118	22.672	20.345	165.426	-75.125	75.806	229.219	214.807	205.824	271.807	184.810	-74.005	7.2834e-05	0.00037823	0.00010921	1199.5	1.4549e-06	2.4869e-06	1277.2	252.53	1.8008e-06	3.2149e-06	317.56	87.9	70.009	20.258	2.0113e-06	28.782	0.00015087	0.0001318	4.0578e-05	1170.2	1.9133e-06	1.568e-06	1248.3	248.76	1.7925e-06	1.484e-06	313.39	88.94	70.015	20.301	1.4327e-06	28.903	216.462	13.045	18.131	-69.868	92.073	83.240	-69.540	-62.555	118.686	100.499	-62.858	-56.141	-56.105	-49.513	60.807	-49.859	-8191	255	
34598.391	1	1	0	0	0.20973	0.1768	0.29477	0.27164	0.32344	0.1243	0.085592	0.12934	0.23658	0.20741	0.09704	0.079201	0.20401	0.21822	0.090163	0.35323	-2.0396	-2.2438	-1.9417	-2.7104	-2.3292	-2.1958	-2.6708	-2.3063	-2.2854	-2.5	-2.0438	-2.5458	-2.3021	-2.3542	-2.5896	-2.2771	112.892	35.824	-38.034	237.710	254.459	45.119	140.776	-52.367	148.641	185.921	210.447	62.017	190.683	161.555	-28.438	233.213	7.0544e-05	0.00042004	7.494e-05	1209.4	8.3101e-07	3.9128e-06	1280.7	253.54	8.4106e-07	2.4002e-06	317.85	88.92	70.683	20.304	2.0572e-06	29.01	0.00016116	0.00013967	4.0841e-05	1177.1	2.0172e-06	1.6342e-06	1255.9	249.73	1.7404e-06	1.4406e-06	313.88	89.249	70.471	20.34	1.4105e-06	29.005	210.836	9.284	23.693	-69.959	92.803	76.505	-69.908	-62.536	95.669	69.816	-62.869	-56.301	-55.932	-49.546	69.563	-49.529	-8191	255	
34598.484	1	1	0	0	0.23614	0.16973	0.07593	0.14553	0.37799	0.18795	0.46756	0.17657	0.037873	0.2168	0.43325	0.089553	0.11288	0.12378	0.24147	0.18629	-1.9833	-2.5167	-2.0708	-2.7083	-2.2979	-2.0896	-2.5792	-2.25	-2.1146	-2.6437	-2.0271	-2.3646	-2.3958	-2.1354	-2.5208	-2.1958	2.460	208.026	-45.072	156.956	35.644	53.781	202.931	143.283	59.729	-38.500	242.356	-18.770	190.900	225.922	-57.876	13.109	6.9358e-05	0.00030118	0.00010433	1207.8	1.821e-06	2.293e-06	1282.1	254.63	1.2683e-06	2.8017e-06	319.64	88.636	70.537	20.462	1.4631e-06	28.942	0.00016404	0.00013714	4.1321e-05	1182.1	2.1053e-06	1.4597e-06	1258.4	250.49	1.8845e-06	1.3017e-06	314.44	89.36	70.427	20.409	1.4185e-06	28.933	212.112	17.281	8.183	-69.582	100.102	89.474	-69.528	-62.751	60.488	75.967	-63.004	-56.405	-55.997	-49.054	74.138	-49.311	-8191	255	
34598.578	1	1	0	0	0.18495	0.27996	0.23124	0.28755	0.19666	0.1375	0.15374	0.023348	0.055914	0.086045	0.081127	0.32181	0.32994	0.20123	0.17229	0.17684	-1.5958	-2.5875	-2.1083	-2.5771	-2.3542	-2.1896	-2.5875	-2.2708	-2.2333	-2.4729	-2.1229	-2.3854	-2.3937	-2.0792	-2.3854	-2.2167	145.586	235.581	58.680	190.867	142.744	252.237	162.554	211.835	-40.222	106.480	229.704	243.756	273.725	137.125	143.599	262.377	6.3764e-05	0.00036139	8.3023e-05	1214.4	2.0215e-06	3.23e-06	1276.6	253	1.2428e-06	3.1083e-06	317.42	88.899	69.906	20.458	3.0112e-06	29.076	0.00015651	0.00013488	3.8549e-05	1180.8	1.9307e-06	1.4943e-06	1254.4	250.02	1.9507e-06	1.4796e-06	313.77	89.331	70.155	20.374	1.6509e-06	28.994	214.205	16.955	15.514	-69.756	105.413	60.095	-69.637	-62.663	55.056	77.579	-62.971	-56.342	-55.882	-49.134	97.704	-49.427	-8191	255	
34598.676	1	1	0	0	0.051902	0.025493	0.22101	0.2326	0.1975	0.040103	0.22533	0.094712	0.12176	0.2966	0.25309	0.34267	0.29053	0.20035	0.19537	0.19543	-1.8875	-2.4417	-2.1104	-2.4875	-2.4437	-2.175	-2.5854	-2.3771	-2.1667	-2.5292	-2.45	-2.3312	-2.45	-2.1021	-2.3812	-2.3771	81.588	176.771	271.042	223.525	16.842	204.918	238.269	94.139	137.648	240.260	234.526	271.479	179.604	193.190	76.491	179.470	7.5949e-05	0.00040671	8.8491e-05	1204.8	1.657e-06	2.6292e-06	1287.9	254.04	1.1412e-06	3.3704e-06	317.33	88.537	70.7	20.379	2.3794e-06	28.723	0.00016009	0.00013318	3.7837e-05	1179	1.9824e-06	1.4783e-06	1256.8	250.36	1.7081e-06	1.3532e-06	313.5	89.252	70.352	20.36	1.5185e-06	28.916	214.994	3.824	-11.114	-69.800	88.723	61.538	-69.544	-62.748	90.854	64.128	-62.967	-56.258	-56.354	-49.289	100.530	-49.488	-8191	255	
34598.797	1	1	0	0	0.080898	0.17238	0.017022	0.13164	0.098067	0.23369	0.46199	0.1002	0.15834	0.091848	0.26751	0.11315	0.12877	0.31	0.18107	0.22296	-1.8542	-2.6271	-2.0021	-2.5792	-2.4917	-2.0125	-2.6833	-2.6271	-2.0646	-2.5375	-2.2875	-2.2396	-2.7083	-2.0354	-2.2833	-2.4833	190.609	13.935	-16.080	231.250	252.542	87.482	268.411	262.419	243.899	3.238	91.398	231.608	80.107	84.793	-52.636	228.927	7.0317e-05	0.00032844	9.4815e-05	1208.1	1.2546e-06	3.7653e-06	1283.2	252.13	1.0962e-06	3.2609e-06	318.67	89.581	70.296	20.307	2.8061e-06	28.682	0.00016232	0.00012487	3.9695e-05	1178.1	1.8463e-06	1.4851e-06	1255.6	249.82	1.7465e-06	1.3556e-06	314.27	89.443	70.33	20.305	1.5827e-06	28.865	221.263	18.576	10.735	-69.669	111.403	63.047	-69.467	-62.870	75.104	70.844	-62.728	-56.232	-56.041	-49.103	76.407	-49.419	-8191	255	
34598.895	1	1	0	0	0.30461	0.17369	0.20935	0.39339	0.18052	0.14844	0.19276	0.11209	0.1419	0.31987	0.28906	0.17162	0.066706	0.35411	0.25403	0.4505	-1.4729	-2.4437	-2.2021	-2.3667	-2.6167	-2.3521	-2.5729	-2.4833	-1.8896	-2.6188	-2.275	-2.1604	-2.6083	-2.1854	-2.2438	-2.5333	-25.365	245.463	-64.002	274.603	134.365	84.361	258.674	-44.219	-20.962	-48.585	246.204	-62.359	72.255	217.750	247.848	237.585	6.2178e-05	0.00036293	9.1865e-05	1209.4	1.6919e-06	3.721e-06	1276.7	252.29	1.5604e-06	2.7386e-06	318	88.444	70.156	20.332	2.6656e-06	29.006	0.00015673	0.00011777	3.7435e-05	1179.1	1.8964e-06	1.4801e-06	1251.7	249.55	1.8303e-06	1.2329e-06	313.64	89.119	70.114	20.314	1.506e-06	29.024	212.153	29.238	-2.587	-69.661	92.106	64.788	-69.542	-62.798	77.144	61.956	-63.105	-56.512	-56.040	-49.327	76.953	-49.330	-8191	255	
34598.965	1	1	0	0	0.056396	0.10417	0.32054	0.1633	0.24953	0.25735	0.36482	0.20766	0.28465	0.16788	0.082337	0.1864	0.044186	0.20707	0.10633	0.1118	-1.8208	-2.4021	-2.3417	-2.3271	-2.5042	-2.3292	-2.4333	-2.5583	-2.2417	-2.2625	-2.4792	-2.0521	-2.5479	-2.2062	-2.1729	-2.5917	-75.847	-64.196	52.279	192.671	-22.608	-47.571	241.037	231.890	145.259	122.891	217.376	274.528	-49.739	226.165	270.079	7.812	6.7487e-05	0.00040604	0.00011724	1204.9	1.963e-06	2.4717e-06	1278	252.81	1.5646e-06	3.2591e-06	316.76	88.403	70.335	20.318	2.0958e-06	28.893	0.00015778	0.00012388	3.7837e-05	1176	1.8004e-06	1.3749e-06	1251.1	249.22	1.8434e-06	1.3377e-06	312.57	89.156	70.155	20.315	1.4702e-06	28.857	214.480	20.266	18.624	-69.617	98.966	77.928	-69.458	-62.786	51.693	60.586	-63.019	-56.178	-56.147	-49.319	75.758	-49.495	-8191	255	
34599.086	1	1	0	0	0.14333	0.18842	0.19147	0.25446	0.081466	0.048351	0.31881	0.048614	0.098763	0.10758	0.086944	0.24511	0.23979	0.11585	0.22521	0.042451	-1.6104	-2.3563	-2.5021	-2.2812	-2.4875	-2.2	-2.525	-2.5396	-2.1917	-2.3396	-2.3896	-2.0375	-2.4417	-2.3458	-2.1667	-2.5667	38.364	199.300	262.837	229.596	32.995	16.504	234.002	253.764	171.777	-21.081	151.477	231.835	175.556	-62.702	3.994	41.362	8.1937e-05	0.00027823	6.8039e-05	1201.1	9.4769e-07	3.712e-06	1279	253.33	1.4862e-06	2.0952e-06	316.12	88.978	69.599	20.446	2.4581e-06	28.629	0.00015383	0.00012608	3.5004e-05	1174.5	1.7692e-06	1.5148e-06	1252.2	249.49	1.7618e-06	1.2199e-06	312.43	89.099	69.813	20.332	1.6026e-06	28.827	209.135	-4.450	50.768	-69.643	119.862	88.602	-69.502	-62.757	79.773	58.349	-63.090	-56.265	-55.906	-49.348	75.527	-49.570	-8191	255	
34599.180	1	1	0	0	0.17315	0.0364	0.068808	0.27889	0.20124	0.034806	0.20691	0.18949	0.032347	0.10861	0.17352	0.1979	0.16465	0.14525	0.11879	0.26102	-1.6979	-2.1667	-2.4167	-2.3937	-2.5208	-2.3479	-2.3125	-2.7562	-2.1396	-2.2	-2.5187	-2.1292	-2.4938	-2.3563	-2.1521	-2.5646	2.064	148.815	231.280	228.731	203.628	119.207	193.823	67.446	83.235	167.440	266.757	-61.509	-76.320	-58.368	140.838	194.134	6.019e-05	0.0002568	8.8472e-05	1204.1	1.5404e-06	3.2211e-06	1274.9	251.79	1.7663e-06	3.1875e-06	317.64	88.601	69.771	20.241	2.1018e-06	28.744	0.00015795	0.00012817	3.4013e-05	1172.7	1.9001e-06	1.4207e-06	1248	248.69	1.7602e-06	1.3711e-06	312.84	89.096	69.959	20.266	1.4333e-06	28.833	215.251	-0.890	29.322	-69.823	118.863	61.111	-69.571	-62.716	72.807	76.897	-62.840	-56.054	-56.102	-49.110	73.811	-49.453	-8191	255	
34599.277	1	1	0	0	0.14164	0.26463	0.30294	0.051688	0.098645	0.17993	0.40239	0.15263	0.18849	0.091153	0.065686	0.44243	0.12794	0.43877	0.23563	0.19114	-1.6646	-2.2271	-2.4542	-2.1542	-2.3937	-2.4958	-2.2292	-2.6896	-2.2354	-2.0812	-2.7771	-2.0312	-2.4542	-2.4646	-2.0208	-2.5479	234.050	230.040	-39.920	244.920	-13.318	10.782	198.606	206.506	-54.570	-66.634	-10.186	242.861	127.872	177.547	179.067	174.241	7.9853e-05	0.0003376	4.5966e-05	1197.6	2.1893e-06	3.5462e-06	1273.4	250.52	1.3559e-06	2.4955e-06	317.19	89.143	69.811	20.142	2.1801e-06	28.842	0.00015617	0.00013384	3.0623e-05	1168.8	1.8901e-06	1.2275e-06	1247.9	248.28	1.6643e-06	1.3395e-06	312.39	89.136	69.802	20.236	1.5151e-06	28.75	215.300	10.652	-10.689	-69.721	113.116	71.471	-69.585	-62.630	83.092	78.692	-63.065	-56.531	-56.077	-49.317	94.265	-49.258	-8191	255	
34599.371	1	1	0	0	0.13347	0.26428	0.10935	0.21967	0.18317	0.091807	0.16745	0.053773	0.14823	0.25664	0.13307	0.26251	0.098141	0.034963	0.090792	0.05654	-1.9104	-2.1854	-2.6229	-2.4833	-2.2917	-2.4167	-2.2625	-2.55	-2.4062	-2.2062	-2.6646	-2.2396	-2.4792	-2.5229	-2.2438	-2.3646	26.745	29.690	40.348	260.770	172.322	17.157	199.911	213.793	73.320	271.989	225.337	196.408	46.983	-0.273	148.060	195.452	6.8427e-05	0.00035286	8.8529e-05	1197.3	1.9613e-06	3.3241e-06	1270.2	250.32	1.6016e-06	3.1665e-06	317.08	88.901	70.413	20.22	2.3577e-06	28.766	0.00015264	0.00012751	3.3487e-05	1168.6	1.8304e-06	1.2925e-06	1245.4	248.23	1.7388e-06	1.3662e-06	312.69	88.914	70.016	20.214	1.5588e-06	28.822	218.364	2.405	16.629	-69.649	89.911	84.710	-69.465	-62.653	56.140	72.661	-62.762	-56.103	-56.014	-49.024	97.311	-49.274	-8191	255	
34599.469	1	1	0	0	0.23699	0.17575	0.07516	0.19371	0.13282	0.148	0.33253	0.038633	0.059048	0.17305	0.18521	0.071959	0.24993	0.33196	0.093971	0.19526	-1.925	-2.1375	-2.7062	-2.3083	-2.3979	-2.4562	-2.2438	-2.6188	-2.3083	-2.0729	-2.4729	-2.2708	-2.1875	-2.6312	-1.9958	-2.5042	93.700	-2.345	-43.507	52.945	-22.310	227.814	187.441	229.111	239.950	-65.127	265.261	222.487	223.571	-64.158	115.859	19.576	7.402e-05	0.00033177	6.8957e-05	1191.3	1.2764e-06	2.7226e-06	1263	250.4	1.803e-06	3.3961e-06	316.69	88.264	69.833	20.355	2.3177e-06	28.693	0.00016192	0.00012383	2.8332e-05	1166	1.7444e-06	1.2399e-06	1241.7	247.74	1.7311e-06	1.3656e-06	312.05	88.772	69.64	20.232	1.4804e-06	28.763	222.105	0.057	17.508	-69.758	123.182	97.406	-69.397	-62.476	73.533	74.253	-62.834	-56.146	-55.932	-49.014	99.045	-49.435	-8191	255	
34599.562	1	1	0	0	0.10311	0.094349	0.11725	0.23986	0.22145	0.29904	0.39762	0.21396	0.099965	0.35278	0.23028	0.22342	0.23147	0.20039	0.33289	0.16874	-1.9146	-2.3354	-2.5062	-2.4208	-2.0792	-2.4896	-2.2354	-2.6688	-2.3646	-2.1688	-2.7354	-2.3646	-2.2646	-2.4813	-2.0438	-2.4375	277.550	-19.527	104.020	275.215	182.961	134.672	206.332	258.361	269.503	-3.299	-48.224	119.714	89.474	-70.113	-29.037	-19.860	8.1097e-05	0.00029074	8.3007e-05	1195.1	1.4962e-06	3.4224e-06	1259.9	250.81	1.449e-06	3.3585e-06	314.63	88.754	70.093	20.142	2.3498e-06	28.527	0.00015276	0.00013131	3.0452e-05	1164.8	1.9323e-06	1.1966e-06	1240.6	247.65	1.6298e-06	1.4548e-06	310.85	88.923	69.869	20.134	1.4628e-06	28.679	211.632	9.302	14.192	-69.702	127.371	72.799	-69.370	-62.428	74.210	79.326	-62.906	-56.183	-56.000	-49.170	81.412	-49.573	-8191	255	
34599.660	1	1	0	0	0.14317	0.15121	0.062082	0.24092	0.19618	0.20831	0.28141	0.14859	0.12252	0.068918	0.16274	0.27294	0.20554	0.1039	0.045158	0.19397	-1.8896	-1.9667	-2.4146	-2.3417	-2.1479	-2.7104	-2.3354	-2.5479	-2.3854	-2.0104	-2.6188	-2.1729	-2.1354	-2.5479	-1.925	-2.3604	17.573	18.416	-19.581	258.785	122.309	-27.893	2.858	193.938	-20.468	67.557	176.519	181.983	17.672	156.316	47.012	-63.732	5.2691e-05	0.00026032	0.0001164	1188.4	2.2515e-06	4.1163e-06	1259.3	250.21	1.0497e-06	3.4758e-06	316.38	87.592	69.638	20.116	2.4011e-06	28.571	0.00014114	0.00013175	3.2279e-05	1163.3	1.8705e-06	1.2554e-06	1238.1	247.25	1.5789e-06	1.4139e-06	310.54	88.484	69.667	20.156	1.4577e-06	28.702	201.545	0.566	14.662	-69.739	117.672	71.372	-69.547	-62.808	52.102	68.983	-62.874	-56.561	-55.858	-49.110	64.544	-49.285	-8191	255	
34599.758	1	1	0	0	0.12711	0.10372	0.11079	0.14323	0.049184	0.087514	0.082869	0.14135	0.20947	0.13309	0.40021	0.041275	0.31377	0.15322	0.2276	0.17197	-2.0146	-1.9458	-2.5167	-2.3833	-2.2104	-2.5771	-2.4479	-2.1979	-2.4188	-2.0979	-2.4062	-2.4271	-2.1833	-2.3063	-2.2458	-2.1521	182.153	-77.858	217.192	171.284	39.819	220.240	126.417	230.969	25.963	104.013	255.634	172.646	194.863	209.518	62.397	37.916	7.7038e-05	0.00032674	0.00010021	1192.6	1.3156e-06	3.3453e-06	1258.8	248.76	1.4619e-06	2.8172e-06	316.03	88.319	69.773	20.041	2.4123e-06	28.779	0.00014562	0.00012548	3.3115e-05	1161.4	1.7302e-06	1.2325e-06	1237.6	246.92	1.6851e-06	1.2732e-06	310.85	88.482	69.627	20.137	1.5316e-06	28.738	207.762	10.668	22.507	-69.604	82.467	79.970	-69.438	-62.686	63.597	74.998	-62.682	-56.507	-56.016	-49.195	75.351	-49.339	-8191	255	
34599.879	1	1	0	0	0.10489	0.14157	0.25368	0.40983	0.14869	0.27711	0.14138	0.38649	0.20286	0.098381	0.45349	0.16421	0.40194	0.13846	0.12793	0.15669	-1.8667	-2.05	-2.4583	-2.5604	-2.0271	-2.4667	-2.3521	-2.1792	-2.6063	-2.2792	-2.4437	-2.5396	-2.0875	-2.5563	-2.2958	-2.1729	187.650	-51.737	271.994	236.227	-56.714	-10.621	24.892	266.563	87.894	113.921	214.750	84.416	184.750	78.692	245.609	223.999	6.3755e-05	0.00039081	6.6415e-05	1191.2	1.9616e-06	3.6981e-06	1260.3	250.04	1.9898e-06	3.5526e-06	315.72	88.167	69.204	20.186	2.0779e-06	28.678	0.00015301	0.00013059	3.3688e-05	1160.5	1.7988e-06	1.1749e-06	1238.1	247.12	1.621e-06	1.3984e-06	310.96	88.475	69.551	20.158	1.4367e-06	28.744	210.650	14.440	22.645	-69.512	67.153	75.185	-69.520	-62.553	53.179	72.068	-62.929	-56.374	-56.103	-49.114	88.827	-49.250	-8191	255	
#DATA ENDS
