BOXY.EXE: ISS Imagent and Oximeter Data Acquisition Program Version 0.80
Ascii Record File

#ACQ INFORMATION
2  Detector Channels 
16  External MUX Channels 
1  Auxiliary Channels 
5000  Waveform (CCF) Frequency (Hz)
1  Waveforms Skipped 
30  Waveforms Averaged 
1  Cycles Averaged 
16  Acquisitions per Waveform 
10.0806  Updata Rate (Hz) 

#FILE INFORMATION
TRUE -- External MUX Channel results are PARSED.
FALSE -- AC DC and Phase are NOT grouped.
TRUE -- Companion Program Settings File CREATED.
FALSE -- AC data not excluded
FALSE -- DC data not excluded
FALSE -- Phase data not excluded
FALSE -- Auxillary Chn. data not excluded
Tab delimiters

#CALIBRATION STATE
TRUE -- Waveform Calibration Values APPLIED.


#AUX CALIBRATION VALUES
Val Type	aux-1	

Term	1.0000e+00	
Factor	0.0000e+00	


#WF CALIBRATION VALUES
A = Detector Channel
Val Type	A-AC1	A-AC2	A-AC3	A-AC4	A-AC5	A-AC6	A-AC7	A-AC8	A-AC9	A-AC10	A-AC11	A-AC12	A-AC13	A-AC14	A-AC15	A-AC16	A-DC1	A-DC2	A-DC3	A-DC4	A-DC5	A-DC6	A-DC7	A-DC8	A-DC9	A-DC10	A-DC11	A-DC12	A-DC13	A-DC14	A-DC15	A-DC16	A-Ph1	A-Ph2	A-Ph3	A-Ph4	A-Ph5	A-Ph6	A-Ph7	A-Ph8	A-Ph9	A-Ph10	A-Ph11	A-Ph12	A-Ph13	A-Ph14	A-Ph15	A-Ph16	

Term	0.00000e+00	0.00000e+00	0.00000e+00	0.00000e+00	0.00000e+00	0.00000e+00	0.00000e+00	0.00000e+00	0.00000e+00	0.00000e+00	0.00000e+00	0.00000e+00	0.00000e+00	0.00000e+00	0.00000e+00	0.00000e+00	0.00000e+00	0.00000e+00	0.00000e+00	0.00000e+00	0.00000e+00	0.00000e+00	0.00000e+00	0.00000e+00	0.00000e+00	0.00000e+00	0.00000e+00	0.00000e+00	0.00000e+00	0.00000e+00	0.00000e+00	0.00000e+00	0.00000e+00	0.00000e+00	0.00000e+00	0.00000e+00	0.00000e+00	0.00000e+00	0.00000e+00	0.00000e+00	0.00000e+00	0.00000e+00	0.00000e+00	0.00000e+00	0.00000e+00	0.00000e+00	0.00000e+00	0.00000e+00	
Factor	1.00000e+00	1.00000e+00	1.00000e+00	1.00000e+00	1.00000e+00	1.00000e+00	1.00000e+00	1.00000e+00	1.00000e+00	1.00000e+00	1.00000e+00	1.00000e+00	1.00000e+00	1.00000e+00	1.00000e+00	1.00000e+00	1.00000e+00	1.00000e+00	1.00000e+00	1.00000e+00	1.00000e+00	1.00000e+00	1.00000e+00	1.00000e+00	1.00000e+00	1.00000e+00	1.00000e+00	1.00000e+00	1.00000e+00	1.00000e+00	1.00000e+00	1.00000e+00	X	X	X	X	X	X	X	X	X	X	X	X	X	X	X	X	

B = Detector Channel
Val Type	B-AC1	B-AC2	B-AC3	B-AC4	B-AC5	B-AC6	B-AC7	B-AC8	B-AC9	B-AC10	B-AC11	B-AC12	B-AC13	B-AC14	B-AC15	B-AC16	B-DC1	B-DC2	B-DC3	B-DC4	B-DC5	B-DC6	B-DC7	B-DC8	B-DC9	B-DC10	B-DC11	B-DC12	B-DC13	B-DC14	B-DC15	B-DC16	B-Ph1	B-Ph2	B-Ph3	B-Ph4	B-Ph5	B-Ph6	B-Ph7	B-Ph8	B-Ph9	B-Ph10	B-Ph11	B-Ph12	B-Ph13	B-Ph14	B-Ph15	B-Ph16	

Term	0.00000e+00	0.00000e+00	0.00000e+00	0.00000e+00	0.00000e+00	0.00000e+00	0.00000e+00	0.00000e+00	0.00000e+00	0.00000e+00	0.00000e+00	0.00000e+00	0.00000e+00	0.00000e+00	0.00000e+00	0.00000e+00	0.00000e+00	0.00000e+00	0.00000e+00	0.00000e+00	0.00000e+00	0.00000e+00	0.00000e+00	0.00000e+00	0.00000e+00	0.00000e+00	0.00000e+00	0.00000e+00	0.00000e+00	0.00000e+00	0.00000e+00	0.00000e+00	-8.78341e+01	-1.29763e+02	-1.22348e+02	-1.81483e+02	-4.98279e+01	-6.89854e+01	-1.57126e+02	-1.62015e+02	-5.76591e+01	-6.88165e+01	-1.72009e+02	-1.70235e+02	-1.79413e+02	-1.76982e+02	-6.01312e+01	-1.49920e+02	
Factor	1.77355e-05	1.76987e-04	5.28443e-05	1.54970e-01	1.38419e-06	1.88219e-06	1.81523e-01	6.50010e-02	1.26713e-06	1.82042e-06	8.98908e-02	3.02853e-02	2.99964e-02	9.87595e-03	1.55353e-06	1.42067e-02	1.35357e-05	2.64044e-05	7.43121e-06	7.68445e-02	2.53274e-07	2.97136e-07	8.49333e-02	3.23673e-02	2.62873e-07	2.97535e-07	4.35786e-02	1.47918e-02	1.52274e-02	4.96744e-03	2.72784e-07	6.91996e-03	X	X	X	X	X	X	X	X	X	X	X	X	X	X	X	X	



#DISTANCE SETTINGS
A = Detector Channel
A-1	A-2	A-3	A-4	A-5	A-6	A-7	A-8	A-9	A-10	A-11	A-12	A-13	A-14	A-15	A-16	

2.5000e+00	3.0000e+00	2.5000e+00	3.0000e+00	2.0000e+00	3.0000e+00	1.5000e+00	3.0000e+00	3.0000e+00	3.0000e+00	3.0000e+00	3.0000e+00	3.0000e+00	3.0000e+00	1.5000e+00	3.0000e+00	

B = Detector Channel
B-1	B-2	B-3	B-4	B-5	B-6	B-7	B-8	B-9	B-10	B-11	B-12	B-13	B-14	B-15	B-16	

1.0000e+01	1.0000e+01	1.0000e+01	1.4400e+00	1.0000e+01	1.0000e+01	1.5100e+00	1.9400e+00	1.0000e+01	1.0000e+01	1.9900e+00	2.4900e+00	2.4100e+00	2.9000e+00	1.0000e+01	2.9800e+00	




#DATA BEGINS
time	group	step	mark	flag	A-AC1	A-AC2	A-AC3	A-AC4	A-AC5	A-AC6	A-AC7	A-AC8	A-AC9	A-AC10	A-AC11	A-AC12	A-AC13	A-AC14	A-AC15	A-AC16	A-DC1	A-DC2	A-DC3	A-DC4	A-DC5	A-DC6	A-DC7	A-DC8	A-DC9	A-DC10	A-DC11	A-DC12	A-DC13	A-DC14	A-DC15	A-DC16	A-Ph1	A-Ph2	A-Ph3	A-Ph4	A-Ph5	A-Ph6	A-Ph7	A-Ph8	A-Ph9	A-Ph10	A-Ph11	A-Ph12	A-Ph13	A-Ph14	A-Ph15	A-Ph16	B-AC1	B-AC2	B-AC3	B-AC4	B-AC5	B-AC6	B-AC7	B-AC8	B-AC9	B-AC10	B-AC11	B-AC12	B-AC13	B-AC14	B-AC15	B-AC16	B-DC1	B-DC2	B-DC3	B-DC4	B-DC5	B-DC6	B-DC7	B-DC8	B-DC9	B-DC10	B-DC11	B-DC12	B-DC13	B-DC14	B-DC15	B-DC16	B-Ph1	B-Ph2	B-Ph3	B-Ph4	B-Ph5	B-Ph6	B-Ph7	B-Ph8	B-Ph9	B-Ph10	B-Ph11	B-Ph12	B-Ph13	B-Ph14	B-Ph15	B-Ph16	aux-1	digaux	

35175.730	1	1	0	512	0.12128	0.049842	0.41761	0.19921	0.3836	0.18951	0.17662	0.194	0.13869	0.1811	0.39582	0.24901	0.31644	0.56962	0.15198	0.20834	-2.0771	-2.5042	-2.025	-2.775	-2.3125	-2.3021	-2.5729	-2.2687	-2.6458	-2.6646	-2.425	-2.7083	-2.4458	-2.6729	-2.5958	-2.2812	380.236	319.474	192.859	472.002	505.601	489.445	344.363	493.493	168.376	480.147	345.429	203.784	489.323	465.997	284.126	479.089	0.00069797	0.00057322	0.00018911	709.75	4.8291e-06	6.2499e-06	597.82	297.64	5.3326e-06	5.5601e-06	273.63	139.77	156.74	82.001	5.4717e-06	73.438	0.00053906	0.00033704	8.9716e-05	708.97	3.9827e-06	3.5669e-06	594.46	297.6	3.7613e-06	3.8456e-06	272.3	140.14	157.4	82.652	4.0497e-06	73.828	235.645	266.265	261.364	180.147	333.693	304.817	178.731	184.052	309.578	319.212	181.809	184.526	186.714	190.569	311.071	187.474	-8191	255	
35175.824	1	1	0	0	0.32048	0.15443	0.23711	0.24119	0.10889	0.23858	0.15128	0.26445	0.25321	0.17762	0.069657	0.26514	0.099313	0.095585	0.21079	0.17918	-2.2188	-2.3688	-2.1542	-2.6875	-2.1708	-2.35	-2.7229	-2.3979	-2.4146	-2.4625	-2.1667	-2.8521	-2.6437	-2.5542	-2.7188	-2.4688	212.602	379.049	351.136	461.532	427.634	453.308	425.348	433.964	216.951	471.506	211.845	168.299	244.024	497.348	186.794	467.242	0.0006904	0.00061206	0.0001567	714	4.4963e-06	5.734e-06	599.13	299.08	4.5328e-06	7.3911e-06	274.21	140.83	157.47	82.418	6.2217e-06	74.181	0.00053742	0.00033594	9.3091e-05	710.22	3.9067e-06	3.4579e-06	594.82	298.56	3.7503e-06	3.8909e-06	273.75	141.28	158.19	83.225	4.0469e-06	74.677	235.171	243.685	251.866	180.238	331.801	323.168	178.621	184.012	301.645	303.961	181.206	184.553	186.618	190.288	309.325	187.491	-8191	255	
35175.945	1	1	0	0	0.27673	0.23388	0.090846	0.096028	0.3512	0.28341	0.27822	0.16278	0.13732	0.21567	0.081877	0.14161	0.18435	0.13587	0.17809	0.16656	-2.0521	-2.5792	-2.3042	-2.6396	-2.5938	-2.3708	-2.5812	-2.35	-2.45	-2.5354	-2.2375	-2.4875	-2.4688	-2.3979	-2.7583	-2.5021	377.990	522.141	335.276	371.048	172.323	335.500	453.255	454.682	427.013	252.491	230.894	494.045	228.660	426.647	358.142	452.729	0.0006815	0.00064371	0.00017407	712.64	4.7804e-06	6.1178e-06	595.96	296.56	4.7031e-06	6.6782e-06	273.15	140.11	157.05	83.004	6.9074e-06	74.105	0.00054653	0.00033836	9.9888e-05	710.7	3.7806e-06	3.5588e-06	594.14	297.95	3.7054e-06	3.5122e-06	273.26	141.19	158.27	83.491	4.1497e-06	74.456	236.094	252.307	268.048	180.093	326.466	309.107	178.453	183.979	322.373	305.470	181.635	184.658	186.717	190.332	294.588	187.232	-8191	255	
35176.043	1	1	0	0	0.081584	0.12725	0.047469	0.097954	0.16438	0.19423	0.22526	0.34173	0.14768	0.22362	0.079594	0.020127	0.20658	0.44755	0.19367	0.30181	-1.8479	-2.6063	-2.1021	-2.725	-2.6167	-2.1729	-2.8187	-2.5292	-2.475	-2.6375	-2.3146	-2.8333	-2.4437	-2.4646	-2.5542	-2.4083	170.998	178.593	511.090	491.839	249.047	271.345	453.331	504.983	393.439	522.797	487.805	515.369	498.759	183.617	300.357	450.892	0.00064582	0.00058192	0.00019052	713.42	5.0902e-06	4.5526e-06	592.18	296.96	5.0919e-06	5.6347e-06	271.39	140.02	157.15	82.511	5.4077e-06	73.996	0.00052262	0.0003229	9.4547e-05	709.7	3.8535e-06	3.2091e-06	591.11	297.72	3.5263e-06	3.4886e-06	272.12	140.66	158.03	83.292	4.2526e-06	74.281	235.448	240.274	261.600	180.191	330.884	318.868	178.658	184.098	319.981	325.691	181.443	184.627	186.805	190.510	294.479	187.110	-8191	255	
35176.141	1	1	0	0	0.17739	0.007631	0.14021	0.33187	0.12086	0.29061	0.14923	0.17058	0.23532	0.14147	0.083255	0.28005	0.20949	0.42023	0.082898	0.095623	-1.8375	-2.4354	-2.2062	-2.6	-2.4208	-2.2479	-2.7	-2.5167	-2.2042	-2.675	-2.4813	-2.6542	-2.5292	-2.4125	-2.5771	-2.4813	293.036	217.185	507.336	464.634	467.536	336.258	488.166	171.190	500.903	194.252	298.237	500.177	450.610	487.098	243.493	184.453	0.00070369	0.00058385	0.00015484	711.04	4.2867e-06	5.9041e-06	594.54	296.45	5.0269e-06	5.0441e-06	274.29	139.53	156.48	82.348	7.3401e-06	73.693	0.00055592	0.00032417	9.9671e-05	708.1	3.464e-06	3.8683e-06	591.38	297.3	3.6977e-06	3.5462e-06	272.59	140.41	157.67	83.046	4.2549e-06	74.113	235.045	244.125	261.952	180.342	323.543	310.873	178.652	184.034	311.455	310.294	181.311	184.342	186.823	190.459	302.284	187.097	-8191	255	
35176.211	1	1	0	0	0.21779	0.17793	0.086774	0.26594	0.038746	0.16475	0.24983	0.19141	0.11135	0.20964	0.2223	0.10984	0.06828	0.07226	0.15057	0.077825	-1.7375	-2.7042	-2.1729	-2.3208	-2.6312	-2.3729	-2.5625	-2.65	-2.1667	-2.6521	-2.2771	-2.6229	-2.7167	-2.25	-2.6292	-2.8208	312.455	446.264	174.692	440.304	167.227	502.467	200.186	458.448	517.560	339.734	500.809	412.143	237.428	502.863	176.441	501.086	0.00068759	0.00051881	0.00018547	711.97	4.8572e-06	5.5265e-06	594.47	296.19	5.1344e-06	5.1541e-06	272.5	139.2	156.64	82.172	5.2208e-06	73.727	0.00053697	0.0003415	9.6652e-05	709.67	3.454e-06	3.7972e-06	590.51	296.43	3.6052e-06	3.4979e-06	271.92	140.12	157.32	82.855	4.0241e-06	74.178	235.227	243.840	254.159	180.332	319.950	306.169	178.886	184.017	304.973	303.226	181.461	184.528	186.633	190.450	296.894	187.116	-8191	255	
35176.332	1	1	0	0	0.15807	0.06651	0.078196	0.019867	0.032116	0.24627	0.10865	0.12349	0.41541	0.070564	0.2073	0.12567	0.20348	0.30741	0.26849	0.32899	-1.8563	-2.6833	-2.3208	-2.4271	-2.8583	-2.2938	-2.5333	-2.6729	-2.2938	-2.5792	-2.4542	-2.5521	-2.7792	-2.2562	-2.6375	-2.8396	488.501	429.203	418.593	415.909	331.060	284.522	501.227	417.818	367.026	289.928	478.991	198.937	382.109	169.543	491.151	440.427	0.00066291	0.00057637	0.00012187	711.66	4.7054e-06	5.4365e-06	594.59	295.11	4.6799e-06	5.9808e-06	273.08	139.68	156.37	82.418	4.7856e-06	73.756	0.00053066	0.00032813	9.5166e-05	708.42	3.3337e-06	3.9358e-06	590.54	295.78	3.8456e-06	3.6783e-06	271.98	140.1	156.99	83.058	4.0116e-06	74.267	234.899	245.151	263.223	180.511	322.395	298.013	178.398	184.030	308.520	308.166	181.573	184.563	187.029	190.568	303.460	187.478	-8191	255	
35176.426	1	1	0	0	0.22994	0.064612	0.087475	0.21378	0.074449	0.19287	0.16175	0.21969	0.019087	0.13366	0.077759	0.086652	0.12727	0.35232	0.18148	0.24498	-1.6562	-2.6167	-2.5229	-2.2313	-2.7375	-2.4208	-2.7146	-2.625	-2.2833	-2.5833	-2.45	-2.1896	-2.725	-2.6229	-2.425	-2.8438	188.069	174.427	512.862	502.695	416.268	497.014	510.655	460.392	240.094	234.486	447.567	452.716	464.743	487.201	288.848	460.481	0.00068348	0.00065112	0.00016105	708.39	4.7022e-06	5.6959e-06	587.84	294.75	5.0329e-06	5.4906e-06	270.54	138.89	155.73	82.247	5.2884e-06	73.541	0.00054777	0.00035679	9.4763e-05	706.56	3.4746e-06	3.8937e-06	586.07	294.73	3.7618e-06	3.633e-06	270.25	139.2	156.6	82.927	4.0878e-06	73.708	235.076	252.824	250.822	180.318	319.546	317.035	178.756	184.223	305.616	312.720	181.808	184.419	186.714	190.374	303.635	187.044	-8191	255	
35176.523	1	1	0	0	0.31882	0.18435	0.2379	0.28115	0.11295	0.28005	0.21197	0.20848	0.19088	0.16328	0.23913	0.38045	0.16303	0.26679	0.12377	0.27912	-1.775	-2.6646	-2.3563	-2.3958	-2.6979	-2.2917	-2.3458	-2.8271	-2.3854	-2.525	-2.4771	-2.4667	-2.6854	-2.5542	-2.3542	-2.6792	273.449	259.362	503.826	494.940	409.520	219.763	414.301	429.544	202.997	205.185	450.167	502.559	202.484	467.203	370.975	514.048	0.00068884	0.00046418	0.00015686	711.49	3.6637e-06	5.4712e-06	589.26	293.22	5.4413e-06	6.3506e-06	270.65	138.2	155.06	82.121	6.1746e-06	73.249	0.00056159	0.00032824	9.3556e-05	706.7	3.472e-06	3.8776e-06	584.66	293.91	3.9037e-06	3.4694e-06	269.93	139.03	156.33	82.703	4.098e-06	73.572	235.428	255.189	254.281	180.177	318.225	320.569	178.678	183.880	331.149	310.236	181.251	184.609	186.717	190.206	308.683	187.224	-8191	255	
35176.645	1	1	0	0	0.3314	0.056449	0.29711	0.35025	0.1531	0.11199	0.18117	0.27781	0.19551	0.265	0.057273	0.05515	0.30601	0.094366	0.15495	0.046244	-1.9438	-2.6437	-2.4729	-2.3063	-2.75	-2.4313	-2.5917	-2.7896	-2.3646	-2.4313	-2.7188	-2.4104	-2.6292	-2.6583	-2.2708	-2.8063	313.868	263.575	381.498	463.209	428.096	242.074	468.166	427.377	180.405	201.566	459.135	446.334	508.632	204.348	287.982	379.254	0.00068365	0.00043253	0.00017148	707.47	5.2416e-06	4.5603e-06	585.13	292.36	4.6106e-06	5.4131e-06	268.55	137.8	155.21	81.993	5.103e-06	72.998	0.00055846	0.00029545	8.3044e-05	705.14	3.4213e-06	3.7767e-06	581.96	292.98	3.7596e-06	3.3076e-06	268.99	138.59	155.82	82.478	3.9537e-06	73.414	233.673	250.699	268.069	180.249	322.620	315.430	178.697	184.099	322.313	325.708	181.654	184.353	186.648	190.312	307.384	187.329	-8191	255	
35176.738	1	1	0	0	0.33446	0.1598	0.14922	0.19981	0.024356	0.12512	0.30095	0.095012	0.10167	0.25036	0.034468	0.2948	0.16908	0.12627	0.057813	0.32771	-1.8854	-2.3771	-2.3917	-2.3604	-2.5229	-2.5292	-2.4333	-2.8083	-2.2792	-2.5312	-2.6083	-2.2438	-2.7812	-2.7042	-2.2812	-2.7062	400.199	523.389	375.943	461.148	216.452	226.794	502.063	513.978	190.929	424.721	195.752	456.960	277.587	230.603	315.487	359.018	0.00069127	0.00051688	0.00018237	708.26	4.1379e-06	5.5969e-06	585.5	292.11	5.2467e-06	5.9526e-06	268.25	137.3	154.55	81.088	6.1204e-06	72.546	0.00054727	0.00029507	8.6341e-05	704.95	3.3437e-06	3.7043e-06	583.04	291.56	3.7936e-06	3.2028e-06	267.58	137.91	155	81.871	3.848e-06	72.857	235.069	247.683	249.899	180.281	339.950	316.926	178.616	183.980	313.308	307.150	181.691	184.470	186.494	190.230	291.691	187.334	-8191	255	
35176.836	1	1	0	0	0.11721	0.057156	0.30516	0.090992	0.21318	0.038737	0.27796	0.23166	0.1167	0.17852	0.19694	0.12277	0.054582	0.28215	0.17668	0.24565	-2.0625	-2.3396	-2.7083	-2.3937	-2.5563	-2.4208	-2.3292	-2.6688	-2.3625	-2.3771	-2.6667	-2.3521	-2.6167	-2.6625	-2.2438	-2.6771	210.249	193.154	361.889	470.669	484.473	456.971	449.184	354.480	177.567	355.890	263.768	409.863	251.711	418.834	472.586	479.805	0.00068674	0.00052767	0.00014625	713.84	4.2683e-06	4.9065e-06	586.56	291.55	5.2898e-06	5.133e-06	267.09	135.04	151.89	80.362	6.0695e-06	71.012	0.00055979	0.00029886	8.4933e-05	707.78	3.1554e-06	3.5056e-06	582.09	291.22	3.5663e-06	3.2115e-06	265.88	135.72	153.34	81.038	4.0497e-06	71.447	234.764	249.377	254.653	180.333	324.531	311.141	178.626	183.885	303.671	317.609	181.623	184.564	186.721	190.241	306.107	187.336	-8191	255	
35176.930	1	1	0	0	0.3314	0.26678	0.13673	0.32752	0.15349	0.064683	0.12008	0.11846	0.33494	0.31539	0.041368	0.15667	0.21369	0.28333	0.15779	0.18474	-1.9917	-2.2333	-2.7417	-2.4437	-2.4542	-2.4979	-2.2792	-2.9146	-2.5958	-2.3104	-2.7271	-2.4146	-2.475	-2.7313	-2.1958	-2.8187	173.848	357.091	226.561	236.576	323.505	256.601	254.545	492.305	519.881	311.154	239.934	506.943	503.191	488.068	228.585	404.898	0.00065084	0.00042375	0.00017693	702.31	4.4002e-06	6.3559e-06	576.47	287.03	4.2685e-06	6.407e-06	263.03	134.27	151.89	79.848	5.3682e-06	70.561	0.00052849	0.00028671	8.5041e-05	698.22	3.0472e-06	3.3508e-06	574.2	287.23	3.3872e-06	3.1966e-06	262.98	134.65	152.56	80.44	4.0594e-06	70.923	235.083	252.059	268.203	180.193	320.111	321.705	178.532	183.962	320.161	315.978	181.479	184.627	186.606	190.170	302.291	186.933	-8191	255	
35177.027	1	1	0	0	0.067471	0.25183	0.055982	0.036774	0.1191	0.22307	0.22461	0.08444	0.11512	0.20818	0.15879	0.16567	0.081424	0.24839	0.089877	0.074833	-2.0896	-2.2375	-2.8021	-2.3333	-2.4146	-2.6083	-2.2938	-2.6833	-2.4896	-2.2604	-2.85	-2.5104	-2.4208	-2.7417	-2.2313	-2.4271	317.639	517.162	483.300	202.774	357.207	213.946	428.109	510.835	317.331	494.082	500.662	501.974	246.674	475.067	425.578	454.899	0.00062769	0.00054102	0.00015916	698.96	4.5016e-06	4.2677e-06	569.05	284.88	4.047e-06	5.2174e-06	261.74	133	150.55	79.267	5.6067e-06	70.083	0.00051188	0.00031091	9.0909e-05	696.81	3.0308e-06	3.3385e-06	569.04	284.95	3.4108e-06	3.4421e-06	260.96	133.67	151.49	80.07	4.2134e-06	70.459	235.708	265.245	256.331	180.209	324.738	321.714	178.508	183.968	305.032	299.990	181.413	184.047	186.754	190.116	312.374	187.014	-8191	255	
35177.121	1	1	0	0	0.012488	0.058631	0.032919	0.32529	0.051274	0.17862	0.20733	0.1298	0.22624	0.080586	0.085761	0.24828	0.14424	0.14051	0.10185	0.14584	-2.0708	-2.2062	-2.6833	-2.3271	-2.2375	-2.8125	-2.4688	-2.5167	-2.4396	-2.2646	-2.7646	-2.3375	-2.3604	-2.7604	-2.2583	-2.5229	448.321	453.517	499.007	512.630	210.216	303.821	463.102	444.528	306.735	258.593	312.355	227.468	459.481	203.938	404.109	351.122	0.00064222	0.00063968	0.00013117	690.16	4.8249e-06	5.1513e-06	564.94	281.06	4.9741e-06	4.3592e-06	258.44	132.41	149.5	79.173	5.9513e-06	70.137	0.00050632	0.00031944	8.6016e-05	688.44	3.1965e-06	3.2951e-06	564.11	281.76	3.31e-06	3.3113e-06	258.89	132.75	150.45	79.757	4.0327e-06	70.271	236.495	252.810	253.479	180.210	322.452	313.762	178.336	183.969	310.070	307.893	181.403	184.525	186.525	190.076	302.665	186.893	-8191	255	
35177.242	1	1	0	0	0.15471	0.058167	0.15753	0.37883	0.026054	0.070659	0.22374	0.081312	0.14489	0.11235	0.13915	0.1407	0.11208	0.4339	0.11272	0.13327	-2.15	-2.225	-2.5812	-2.4792	-2.2375	-2.7438	-2.3583	-2.6208	-2.4104	-2.2146	-2.6625	-2.6208	-2.3875	-2.7562	-2.2417	-2.6458	400.850	286.520	368.258	169.427	525.691	316.006	492.669	480.064	378.360	193.508	390.656	359.005	514.476	514.679	288.374	179.237	0.00063591	0.00048704	0.00013323	691.12	4.1844e-06	5.5645e-06	566.04	280.59	4.1575e-06	5.3898e-06	258.83	132	149.53	79.235	5.5764e-06	69.839	0.0005022	0.00032896	8.6341e-05	687.57	3.186e-06	3.5013e-06	562.35	280.4	3.241e-06	3.5332e-06	258.01	132.62	150.52	79.905	3.9838e-06	70.044	235.304	252.437	268.433	180.391	311.503	301.258	178.503	183.820	295.029	312.439	181.182	184.214	186.527	190.157	305.077	186.956	-8191	255	
35177.340	1	1	0	0	0.090309	0.096653	0.13113	0.16259	0.42331	0.21845	0.066583	0.16812	0.17548	0.070143	0.056326	0.053639	0.10182	0.33693	0.13603	0.20822	-2.1771	-2.3146	-2.3396	-2.4896	-2.0479	-2.7771	-2.4625	-2.3271	-2.6083	-2.2417	-2.5792	-2.4333	-2.325	-2.6521	-2.1917	-2.4604	343.413	238.221	264.190	493.044	378.007	259.746	494.095	378.252	264.160	251.654	360.169	519.691	483.713	439.605	493.243	431.405	0.00064786	0.00052381	0.0001737	686.45	4.2327e-06	4.5773e-06	555.49	279.35	4.6062e-06	5.2197e-06	255.05	130.88	149.47	78.725	6.5739e-06	68.821	0.00051769	0.00035118	8.2781e-05	684.3	3.2878e-06	3.2382e-06	555.53	278.68	3.5198e-06	3.3925e-06	255.02	131.1	149.72	79.335	4.0724e-06	69.247	234.131	245.576	280.149	180.072	319.523	310.993	178.453	183.671	293.146	302.458	180.993	184.219	186.773	190.281	311.196	187.008	-8191	255	
35177.438	1	1	0	0	0.15513	0.12036	0.098739	0.29999	0.19512	0.1121	0.24495	0.10808	0.18707	0.063558	0.14032	0.17152	0.076737	0.53147	0.067786	0.097924	-1.9979	-2.1437	-2.6333	-2.6292	-2.0208	-2.5875	-2.6	-2.2667	-2.6312	-2.3104	-2.6271	-2.6854	-2.3083	-2.8396	-2.4458	-2.2354	324.225	293.749	326.861	521.318	175.918	353.425	484.721	435.624	395.040	447.798	411.206	392.181	194.345	493.696	208.075	475.166	0.00066116	0.00066123	0.00013586	683.03	3.7926e-06	5.3368e-06	554.79	276.17	3.9628e-06	4.4869e-06	253.94	129.72	148.29	78.107	5.8483e-06	68.206	0.00052237	0.00033259	8.3245e-05	680.57	3.2968e-06	3.3007e-06	554.01	276.44	3.4754e-06	3.4e-06	252.97	130.17	148.54	78.767	4.0213e-06	68.699	235.980	251.319	259.013	180.131	316.006	304.547	178.601	184.067	314.035	307.291	181.140	184.305	186.656	190.304	306.926	187.011	-8191	255	
35177.508	1	1	0	0	0.22148	0.22376	0.22011	0.13065	0.13925	0.063206	0.057237	0.14017	0.13692	0.16784	0.16906	0.11872	0.27122	0.37192	0.33315	0.16662	-2.0958	-2.1125	-2.6	-2.7354	-2.3542	-2.6813	-2.4042	-2.2812	-2.6396	-2.3771	-2.4271	-2.6042	-2.3167	-2.7062	-2.2979	-2.3833	211.768	209.146	314.587	433.637	477.623	224.642	197.947	483.121	321.799	469.831	461.667	167.415	216.522	488.828	226.985	253.830	0.00062404	0.00054781	0.00017567	680.62	5.0755e-06	5.6343e-06	557.63	275.29	3.8016e-06	5.56e-06	252.23	129.21	147.52	78.065	5.5594e-06	68.203	0.00050175	0.00035206	8.8555e-05	679.58	3.4704e-06	3.3663e-06	552.56	275.26	3.5061e-06	3.4638e-06	252.11	129.76	148.37	78.743	3.9878e-06	68.905	235.658	248.406	253.354	180.331	330.768	305.634	178.616	183.968	319.069	306.808	181.159	184.220	186.687	190.259	313.474	187.059	-8191	255	
35177.605	1	1	0	0	0.038175	0.35165	0.20748	0.24019	0.11891	0.106	0.19763	0.18544	0.070881	0.16388	0.13618	0.27947	0.18286	0.16136	0.16415	0.25197	-2.0458	-2.2667	-2.2729	-2.8312	-2.0854	-2.45	-2.7375	-2.2729	-2.3479	-2.5	-2.4292	-2.8354	-2.1937	-2.5583	-2.6458	-2.3125	519.011	276.050	310.398	194.885	456.736	373.659	509.761	194.832	422.055	333.815	178.804	350.484	196.146	277.479	454.845	175.332	0.00063834	0.0005826	0.00014283	684.9	3.924e-06	5.4866e-06	554.84	276.56	4.4839e-06	4.9462e-06	252.33	129.51	148.06	78.221	5.4308e-06	68.88	0.00049885	0.00035112	8.4468e-05	682.09	3.4952e-06	3.2642e-06	554.11	276.15	3.5679e-06	3.3962e-06	253.35	130.37	148.95	79.046	3.9923e-06	69.295	235.375	254.019	253.534	180.101	336.424	319.843	178.732	183.812	304.494	301.567	181.166	184.312	186.359	190.241	306.644	187.014	-8191	255	
35177.723	1	1	0	0	0.13536	0.1301	0.14991	0.1335	0.11738	0.14549	0.16422	0.19066	0.14752	0.13162	0.18575	0.2073	0.079266	0.084719	0.26406	0.16395	-2.1833	-2.3854	-2.3146	-2.9146	-2.2583	-2.3521	-2.6437	-2.3438	-2.4938	-2.5	-2.3625	-2.7208	-2.3917	-2.6229	-2.6354	-2.2833	437.813	503.697	406.932	193.415	282.062	473.564	517.853	193.444	426.515	478.243	478.624	424.409	441.631	208.084	510.813	520.617	0.00061804	0.00054697	0.00016337	686.05	3.7852e-06	5.4257e-06	554.63	275.28	5.8701e-06	4.347e-06	251.93	129.28	148	78.59	4.8406e-06	68.702	0.00050908	0.00033512	8.936e-05	681.94	3.3342e-06	3.2338e-06	551.96	275.48	3.6687e-06	3.1768e-06	252.29	129.9	148.61	78.988	4.019e-06	68.878	234.300	261.532	251.530	179.958	324.243	314.218	178.407	183.739	311.578	314.777	181.263	184.307	186.495	190.203	303.783	187.120	-8191	255	
35177.820	1	1	0	0	0.24222	0.33868	0.077211	0.12701	0.16577	0.037156	0.1655	0.13666	0.070298	0.036868	0.22934	0.25615	0.12591	0.21087	0.051736	0.16316	-2.1021	-2.5521	-2.1458	-2.7625	-2.2875	-2.5812	-2.7125	-2.3292	-2.6104	-2.5396	-2.2417	-2.8479	-2.4771	-2.6437	-2.6917	-2.325	499.544	289.247	435.342	196.238	374.433	416.095	444.751	445.797	266.554	470.672	271.754	508.284	506.969	191.181	178.786	175.295	0.0006297	0.00059416	0.00016018	681.84	4.0853e-06	5.0274e-06	550.41	274.49	3.5887e-06	4.8814e-06	251.19	128.24	147.08	77.932	6.317e-06	67.75	0.00049859	0.00033237	9.2828e-05	679.99	3.2361e-06	3.2047e-06	548.87	274.8	3.4064e-06	3.3776e-06	250.9	128.94	147.77	78.391	3.9991e-06	68.164	235.545	240.682	262.346	180.125	318.847	315.004	178.621	184.177	313.942	323.036	181.259	184.497	186.523	189.994	300.314	186.937	-8191	255	
35177.914	1	1	0	0	0.18528	0.078813	0.18225	0.047713	0.12522	0.16674	0.19216	0.32537	0.14771	0.31195	0.11143	0.20046	0.29919	0.32917	0.18263	0.30213	-2.0979	-2.5521	-2.3063	-2.7833	-2.3875	-2.5125	-2.8542	-2.3917	-2.4833	-2.5979	-2.3542	-2.6063	-2.4375	-2.3771	-2.6417	-2.4542	210.775	485.064	342.605	474.078	286.339	441.239	456.456	486.906	383.761	255.992	451.435	488.100	174.136	180.736	258.791	525.385	0.00059348	0.00063426	0.00018148	678.88	3.9287e-06	5.5086e-06	551.27	273.12	4.4604e-06	5.6539e-06	251.5	128.52	146.96	77.901	5.4305e-06	68.321	0.00049126	0.00031306	9.498e-05	677.62	3.1517e-06	3.4443e-06	549.61	274.14	3.304e-06	3.4254e-06	250.97	129.04	147.8	78.508	3.9145e-06	68.616	235.362	251.075	251.536	180.071	317.506	324.332	178.587	183.986	313.327	313.191	181.044	184.156	186.526	190.264	313.756	186.991	-8191	255	
35178.035	1	1	0	0	0.14432	0.20404	0.19417	0.057904	0.14772	0.32723	0.26546	0.053108	0.11718	0.19021	0.2372	0.11355	0.17033	0.34063	0.070766	0.11913	-2.0583	-2.6104	-2.1708	-2.7458	-2.3187	-2.4354	-2.9042	-2.4792	-2.5167	-2.6021	-2.2812	-2.8104	-2.4938	-2.3688	-2.7313	-2.4271	409.944	498.738	245.600	516.729	447.252	386.418	498.538	457.379	439.589	456.363	183.791	201.832	447.812	452.784	418.538	348.924	0.00061692	0.00047918	0.00016735	683.83	3.3284e-06	5.0301e-06	555.06	276.22	4.3679e-06	4.5434e-06	253.03	128.91	148.24	78.507	5.7519e-06	68.976	0.00049067	0.00031449	9.4284e-05	681.92	3.2741e-06	3.3867e-06	554.25	275.83	3.4885e-06	3.3107e-06	253.18	129.97	148.85	79.147	4.0315e-06	69.211	235.501	251.838	262.720	180.250	325.302	298.408	178.713	183.888	309.287	308.690	181.546	184.123	186.494	190.166	295.141	187.076	-8191	255	
35178.105	1	1	0	0	0.25881	0.20227	0.13845	0.13522	0.12596	0.10532	0.10776	0.11355	0.062428	0.062328	0.25463	0.18937	0.26712	0.21145	0.26653	0.11321	-1.7	-2.4958	-2.5	-2.5875	-2.4729	-2.1937	-2.6813	-2.35	-2.3208	-2.7708	-2.4562	-2.6083	-2.6458	-2.1729	-2.7062	-2.5375	339.566	430.642	395.089	399.849	439.336	491.845	467.266	466.009	392.126	435.714	187.076	514.123	391.704	185.820	234.910	474.698	0.00063414	0.00063847	0.00017696	690.2	4.0258e-06	4.9892e-06	560.79	276.6	5.5411e-06	6.0935e-06	255.44	130.67	149.13	78.712	5.5184e-06	68.455	0.00049498	0.00033369	9.9408e-05	687.71	3.3696e-06	3.6424e-06	559.73	277.74	3.6205e-06	3.5239e-06	254.87	131.05	149.72	79.241	3.973e-06	69.027	235.491	254.980	264.036	180.095	325.341	318.230	178.500	183.913	319.803	309.087	181.220	184.247	186.514	190.319	305.376	187.113	-8191	255	
35178.203	1	1	0	0	0.25751	0.0048005	0.21051	0.24309	0.16638	0.26788	0.15838	0.33568	0.11682	0.19398	0.12441	0.10678	0.096104	0.21277	0.18278	0.27364	-1.8875	-2.6708	-2.1375	-2.4771	-2.5229	-2.1208	-2.7542	-2.5812	-2.4104	-2.5917	-2.3729	-2.6292	-2.6521	-2.3542	-2.5958	-2.6583	460.473	436.235	190.336	489.551	298.506	310.686	452.326	484.993	268.023	232.309	167.732	409.122	208.461	481.178	496.036	432.629	0.00064453	0.00056256	0.00013608	688.17	3.4787e-06	5.9407e-06	559.08	277.66	3.632e-06	3.8642e-06	252.05	129.21	147.97	78.194	5.3295e-06	68.559	0.00050725	0.0003245	9.3262e-05	683.71	3.349e-06	3.4957e-06	556.21	277.01	3.5099e-06	3.3008e-06	252.51	129.74	148.63	78.911	3.8014e-06	68.749	234.878	260.059	277.689	180.085	329.568	322.205	178.255	183.730	310.332	307.928	181.181	184.401	186.528	190.275	304.053	187.186	-8191	255	
35178.324	1	1	0	0	0.21556	0.18799	0.20219	0.20619	0.2334	0.059185	0.094265	0.13592	0.099973	0.23674	0.032707	0.25412	0.13308	0.30967	0.12062	0.17009	-1.8146	-2.6167	-2.3604	-2.45	-2.5938	-2.2167	-2.6729	-2.6188	-2.3104	-2.7021	-2.4479	-2.3521	-2.8438	-2.4417	-2.4854	-2.5958	285.010	400.369	358.750	499.175	328.860	345.633	495.037	364.846	185.696	273.777	465.125	178.980	230.204	498.936	413.350	495.232	0.00063431	0.00043681	0.00015955	682.28	3.9747e-06	6.852e-06	557.8	275.1	4.7482e-06	4.3239e-06	253.49	128.98	148.32	78.082	3.7133e-06	68.461	0.00050446	0.00031207	9.1543e-05	680.59	3.2683e-06	3.4691e-06	554.91	275.7	3.6463e-06	3.2729e-06	252.73	129.69	148.76	78.831	3.7661e-06	68.999	234.375	254.891	264.544	180.208	331.693	308.288	178.357	183.900	307.625	308.099	181.193	184.292	186.490	190.172	302.280	186.980	-8191	255	
35178.422	1	1	0	0	0.19057	0.11134	0.14013	0.33372	0.1364	0.10206	0.1629	0.44798	0.28399	0.11918	0.071658	0.41359	0.2203	0.1916	0.16693	0.29191	-1.6313	-2.4271	-2.4458	-2.3208	-2.5312	-2.2354	-2.5396	-2.7333	-2.3375	-2.525	-2.4479	-2.4437	-2.6417	-2.4938	-2.5792	-2.6625	493.352	435.187	466.785	469.694	300.808	433.680	403.310	462.592	171.327	254.991	440.479	292.830	420.113	482.104	451.761	416.320	0.00063297	0.0005918	0.00014884	686.32	4.7698e-06	7.1341e-06	561.39	276.77	4.1175e-06	3.6971e-06	254.63	130.29	148.83	79.138	7.3668e-06	69.161	0.0005081	0.00031322	9.2627e-05	683.74	3.2968e-06	3.6591e-06	558.14	277.81	3.8577e-06	3.2692e-06	254.78	131.15	149.88	79.697	3.9963e-06	69.732	236.246	260.407	248.974	179.981	330.976	303.233	178.618	184.104	301.137	314.205	181.139	184.300	186.430	190.125	296.069	187.149	-8191	255	
35178.516	1	1	0	0	0.083952	0.06982	0.076634	0.24384	0.19161	0.23803	0.32551	0.090042	0.11237	0.071457	0.17338	0.18052	0.23324	0.27921	0.382	0.13232	-1.8646	-2.625	-2.3312	-2.5604	-2.7604	-2.2167	-2.4292	-2.6208	-2.3667	-2.6292	-2.5042	-2.6104	-2.7146	-2.4875	-2.4062	-2.7938	430.131	431.410	513.178	471.164	238.513	397.142	477.463	508.408	404.474	251.781	351.010	293.982	428.610	514.809	323.026	453.168	0.0006318	0.0005706	0.00014052	692.91	4.2741e-06	5.5906e-06	562.65	277.77	5.386e-06	5.3183e-06	255.07	131.37	149.67	79.266	5.0029e-06	69.475	0.00051472	0.00030998	9.1327e-05	686.21	3.3437e-06	3.4257e-06	560.03	278.67	4.0291e-06	3.1415e-06	255.32	131.91	150.36	79.812	3.9559e-06	69.88	234.550	245.360	256.916	180.181	319.304	308.309	178.582	183.994	311.286	300.378	181.233	184.400	186.726	190.255	303.982	187.148	-8191	255	
35178.613	1	1	0	0	0.10796	0.042284	0.32137	0.25077	0.26982	0.19058	0.21673	0.21411	0.055354	0.024509	0.2058	0.083328	0.20719	0.21419	0.14885	0.17718	-1.8188	-2.5146	-2.2708	-2.2083	-2.5062	-2.3604	-2.4562	-2.8042	-2.4521	-2.6312	-2.6354	-2.2958	-2.7521	-2.5438	-2.3479	-2.775	259.555	358.321	189.017	408.416	258.594	423.135	521.780	403.177	440.068	257.526	175.479	180.411	428.993	465.622	308.176	517.996	0.00065615	0.00046151	0.00014492	687.29	3.3736e-06	4.1034e-06	558.3	275.4	3.8728e-06	4.954e-06	254.13	129.41	149.22	78.829	6.231e-06	68.826	0.00052899	0.00029953	9.6234e-05	684.05	3.3269e-06	3.3304e-06	557.18	276.97	3.8204e-06	3.1161e-06	253.67	130.42	149.73	79.408	4.0412e-06	69.185	236.166	264.001	258.462	180.259	328.655	313.635	178.581	183.931	303.378	301.828	181.325	184.348	186.591	190.616	299.586	186.858	-8191	255	
35178.730	1	1	0	0	0.41845	0.21444	0.20723	0.017577	0.18882	0.17276	0.046334	0.14505	0.12372	0.17955	0.2474	0.21702	0.07967	0.30499	0.24131	0.23738	-1.6938	-2.4333	-2.5583	-2.3917	-2.6604	-2.4646	-2.4021	-2.7917	-2.4146	-2.5083	-2.6479	-2.2646	-2.7271	-2.5792	-2.325	-2.9625	239.421	485.182	401.006	494.984	441.049	484.200	227.476	415.529	453.415	341.869	461.482	493.143	212.260	460.322	488.286	396.750	0.00064212	0.00052006	0.00016052	682.94	4.757e-06	5.9275e-06	557.3	275.45	4.3651e-06	4.9162e-06	253.66	128.82	147.51	78.205	5.7607e-06	68.205	0.00051512	0.00030365	9.7504e-05	681.33	3.2989e-06	3.4548e-06	555.74	275.9	3.7881e-06	3.1303e-06	252.44	129.31	148.49	78.633	4.1901e-06	68.591	235.663	246.807	259.270	180.271	329.342	314.179	178.488	183.861	311.787	312.391	180.996	184.358	186.628	190.171	306.684	187.095	-8191	255	
35178.805	1	1	0	0	0.14648	0.12204	0.10784	0.50603	0.086411	0.024432	0.14232	0.19032	0.31184	0.19434	0.16518	0.14502	0.2395	0.36104	0.20605	0.23465	-1.9167	-2.4354	-2.4042	-2.1854	-2.575	-2.3771	-2.4646	-2.5938	-2.3375	-2.2687	-2.5646	-2.2438	-2.5979	-2.4854	-2.3021	-2.8917	293.164	355.798	463.835	443.494	455.633	349.066	344.728	479.724	180.077	191.840	485.393	469.946	518.811	171.923	204.764	414.257	0.00062539	0.00049319	0.00010382	683.34	3.9804e-06	4.8302e-06	559.66	276.46	4.9275e-06	4.187e-06	253.67	130.07	148.26	78.605	4.9066e-06	69.086	0.0005114	0.00028253	8.9453e-05	679.45	3.1221e-06	3.4028e-06	556.39	276.6	3.8872e-06	3.3752e-06	253.56	130.64	149.4	79.149	4.106e-06	69.486	236.713	256.771	255.158	180.247	333.849	317.506	178.596	184.209	304.692	319.596	181.404	184.417	186.688	190.372	293.912	187.095	-8191	255	
35178.902	1	1	0	0	0.027509	0.29591	0.056208	0.084757	0.089574	0.080855	0.23108	0.21665	0.20087	0.1589	0.14933	0.25984	0.054588	0.083138	0.065024	0.21053	-1.8917	-2.275	-2.8	-2.375	-2.4062	-2.6312	-2.0354	-2.6458	-2.2313	-2.3667	-2.8604	-2.425	-2.6729	-2.6042	-2.2333	-2.9396	335.980	202.150	492.529	516.057	169.177	184.198	341.161	250.494	193.464	418.391	191.436	463.822	525.214	238.136	324.800	421.255	0.00065706	0.00055765	0.00016007	687.22	4.2337e-06	4.8167e-06	564.46	278.07	5.2353e-06	4.8042e-06	255.62	130.21	148.59	78.623	5.4872e-06	69.535	0.00051966	0.00034018	8.8989e-05	684.61	3.0963e-06	3.5799e-06	559.73	277.99	3.8259e-06	3.4985e-06	255.3	131.02	149.67	79.393	4.2105e-06	69.747	235.187	242.190	255.112	180.443	327.371	315.726	178.699	183.846	316.900	315.582	181.309	184.335	186.653	190.153	296.819	187.240	-8191	255	
35179.020	1	1	0	0	0.15842	0.12344	0.20017	0.20309	0.28981	0.18936	0.16251	0.131	0.061391	0.2471	0.049868	0.077136	0.13094	0.34483	0.089949	0.13171	-1.9333	-2.2396	-2.6375	-2.2208	-2.5938	-2.4958	-2.3354	-2.6208	-2.3917	-2.2188	-2.8563	-2.4313	-2.5438	-2.7313	-2.1125	-2.8271	304.047	496.848	215.127	515.683	444.229	308.349	416.236	434.557	525.862	451.850	521.780	251.263	524.346	502.352	474.995	409.285	0.00061947	0.00048645	0.00016692	690.03	2.3455e-06	4.6552e-06	565.64	277.56	4.2908e-06	7.5773e-06	254.92	130.21	148.96	78.682	5.172e-06	68.623	0.0005072	0.00031955	9.1698e-05	685.91	3.2651e-06	3.5873e-06	560.66	277.93	3.7925e-06	3.8363e-06	254.29	130.67	149.64	79.319	4.3827e-06	69.109	235.041	238.937	270.123	180.205	320.745	325.050	178.571	183.902	305.012	302.026	181.287	184.405	186.666	190.436	307.960	187.113	-8191	255	
35179.117	1	1	0	0	0.1469	0.15245	0.18325	0.26123	0.3163	0.27218	0.22676	0.092377	0.10709	0.13693	0.11341	0.27572	0.20303	0.34337	0.084523	0.13654	-2.0583	-2.175	-2.8312	-2.3604	-2.5875	-2.7521	-2.2875	-2.4521	-2.5167	-2.25	-2.7708	-2.3146	-2.4208	-2.6063	-2.3271	-2.5938	413.672	315.957	519.877	438.007	426.189	227.724	504.520	412.333	222.500	415.237	459.562	456.278	521.196	513.101	200.088	473.613	0.00064468	0.00055833	0.00018156	686.7	4.6421e-06	6.0481e-06	559.88	276.1	4.7551e-06	5.5801e-06	252.87	129.25	148.2	77.984	5.7941e-06	68.653	0.00051695	0.00033814	8.9871e-05	682.93	3.5005e-06	3.6746e-06	556.49	277.09	3.9699e-06	3.5729e-06	252.44	129.66	148.99	78.822	4.206e-06	68.759	235.768	242.268	266.118	180.459	323.816	307.720	178.684	183.597	311.250	307.036	181.370	184.162	186.494	190.152	312.092	187.198	-8191	255	
35179.211	1	1	0	0	0.19302	0.1965	0.22215	0.10651	0.091949	0.11422	0.18207	0.30789	0.13763	0.21533	0.16173	0.040228	0.084935	0.13033	0.064434	0.089205	-2.0729	-2.0938	-2.5625	-2.6646	-2.5271	-2.8667	-2.4188	-2.5812	-2.6625	-2.3854	-2.7458	-2.4354	-2.3333	-2.8729	-2.3417	-2.5604	178.585	459.369	343.218	523.861	480.059	456.725	434.490	172.893	279.079	345.231	497.304	515.721	172.037	503.448	484.333	291.474	0.00065195	0.00039243	0.00014364	686.09	3.7211e-06	6.601e-06	558.71	276.65	4.086e-06	4.4615e-06	252.97	129.51	148.67	78.457	5.0124e-06	68.835	0.0005282	0.00032813	8.1604e-05	681.71	3.3675e-06	3.4548e-06	555.53	276.24	3.7333e-06	3.6491e-06	252.54	130.26	149.29	79.177	4.4498e-06	69.232	234.606	242.464	265.593	180.042	326.312	307.094	178.310	183.976	311.518	314.017	181.391	184.178	186.657	190.171	302.427	186.937	-8191	255	
35179.309	1	1	0	0	0.21854	0.20897	0.29167	0.21122	0.16818	0.22659	0.20413	0.053248	0.1202	0.2458	0.097461	0.35846	0.43799	0.18754	0.014114	0.025352	-2.0917	-2.0708	-2.6688	-2.525	-2.3375	-2.7104	-2.4437	-2.5438	-2.5563	-2.1375	-2.5792	-2.4958	-2.2021	-2.7958	-2.2083	-2.5292	226.658	216.695	411.316	283.525	195.237	363.323	443.688	273.821	413.194	224.715	253.850	512.171	470.882	484.765	211.150	509.935	0.0006304	0.0005682	0.00015345	689.63	3.8042e-06	5.9536e-06	563.85	278.16	3.0616e-06	4.6936e-06	254.16	130.46	149.53	79.25	5.9635e-06	68.961	0.00051859	0.00033655	8.3802e-05	686.62	3.4577e-06	3.4474e-06	559.78	278.97	3.6342e-06	3.7558e-06	254.78	131.19	150.21	79.735	4.2094e-06	69.58	236.584	244.980	250.782	180.045	313.082	313.092	178.632	183.917	304.599	312.992	181.330	184.431	186.833	190.169	317.192	187.342	-8191	255	
35179.402	1	1	0	0	0.057235	0.14686	0.082219	0.046694	0.12174	0.23873	0.12415	0.30685	0.054557	0.23312	0.27768	0.19653	0.16978	0.19215	0.1198	0.23314	-2.1979	-2.1271	-2.475	-2.6417	-2.2687	-2.6396	-2.5625	-2.4583	-2.6417	-2.4062	-2.6167	-2.6146	-2.5021	-2.7396	-2.3375	-2.5187	244.389	244.495	460.049	524.711	175.094	185.962	403.344	421.866	419.946	232.442	422.978	454.553	464.039	256.162	302.248	386.872	0.00065925	0.00054036	0.00016971	687.61	4.0046e-06	6.0819e-06	564.43	277.82	4.0005e-06	5.7747e-06	254.39	130.71	148.94	78.869	5.9339e-06	69.173	0.00053554	0.00033077	8.5861e-05	684.59	3.5691e-06	3.383e-06	559.9	278.44	3.5663e-06	3.5469e-06	254.72	131.2	149.95	79.537	4.2014e-06	69.414	234.441	259.834	255.800	180.216	322.291	307.307	178.502	183.886	311.275	308.047	181.301	184.467	186.562	190.118	307.555	187.177	-8191	255	
35179.500	1	1	0	0	0.18347	0.29482	0.19392	0.16799	0.10283	0.1912	0.26183	0.16561	0.34714	0.21786	0.10614	0.088203	0.10892	0.20145	0.2042	0.28408	-2.1562	-2.2	-2.4333	-2.4062	-2.1625	-2.7083	-2.5687	-2.4167	-2.6542	-2.4083	-2.5542	-2.6542	-2.2375	-2.7792	-2.4021	-2.4354	340.868	417.385	233.247	427.868	498.155	312.051	423.251	463.716	229.518	321.106	356.173	187.259	458.095	478.963	425.839	514.564	0.00065901	0.00050879	0.00016824	687.2	4.4129e-06	5.3529e-06	559.5	277.85	4.2191e-06	7.3137e-06	253.06	129.7	149.1	78.958	7.1748e-06	68.671	0.00051487	0.00031834	8.2161e-05	684.53	3.4836e-06	2.959e-06	557.15	278.45	3.5e-06	3.6293e-06	253.17	130.66	150.15	79.678	4.2418e-06	69.158	235.577	243.683	258.545	180.005	326.528	327.438	178.398	183.929	313.605	316.964	181.337	184.394	186.627	190.221	299.648	187.041	-8191	255	
35179.598	1	1	0	0	0.22041	0.32551	0.15545	0.17286	0.087642	0.23968	0.08448	0.034984	0.23165	0.21178	0.3098	0.27878	0.21383	0.21195	0.027177	0.43545	-2.1958	-2.3812	-2.4375	-2.6583	-2.1917	-2.7979	-2.6729	-2.3	-2.7062	-2.3479	-2.2854	-2.575	-2.5187	-2.5979	-2.5708	-2.3771	480.812	480.422	413.161	212.303	511.702	328.483	465.477	371.648	225.060	328.555	337.858	492.828	516.634	420.014	191.404	435.636	0.000617	0.00059196	0.00012906	688.65	4.006e-06	5.0783e-06	560.81	277.32	5.1964e-06	4.8274e-06	253.23	129.88	148.89	78.904	4.4941e-06	68.961	0.00049259	0.00029909	8.9484e-05	682.84	3.3923e-06	3.2388e-06	557.04	277.86	3.436e-06	3.5221e-06	253.21	130.34	149.75	79.424	4.2713e-06	69.195	235.800	249.706	255.581	180.138	316.954	305.496	178.593	183.953	314.563	311.029	181.474	184.396	186.648	190.185	297.261	187.155	-8191	255	
35179.691	1	1	0	0	0.18037	0.070037	0.17479	0.25741	0.14025	0.098032	0.060181	0.38547	0.10034	0.071902	0.13523	0.15298	0.1883	0.3696	0.25268	0.35535	-2.25	-2.1958	-2.2479	-2.5583	-2.2646	-2.5354	-2.6521	-2.3396	-2.7146	-2.4833	-2.5438	-2.6583	-2.2021	-2.9104	-2.6354	-2.4417	365.815	500.752	449.150	458.275	244.188	325.832	369.988	421.586	220.425	362.704	243.650	390.952	439.442	525.380	494.555	481.290	0.0006537	0.00042406	0.00015867	688.88	3.7931e-06	6.1204e-06	563.6	279.5	4.6556e-06	5.8562e-06	257.11	131.57	150.84	79.543	4.7727e-06	69.569	0.00049747	0.00031993	8.7719e-05	686.93	3.4962e-06	3.2258e-06	561.33	280.4	3.3215e-06	3.6275e-06	256.65	132.11	151.56	80.299	4.2497e-06	70.132	236.210	266.711	267.276	179.965	317.273	312.619	178.596	184.152	311.638	308.175	181.472	184.193	186.664	190.344	294.918	187.125	-8191	255	
35179.812	1	1	0	0	0.17546	0.22252	0.13272	0.10118	0.27022	0.11914	0.19158	0.043981	0.14806	0.21996	0.1117	0.053537	0.14844	0.23588	0.12837	0.22925	-2.3479	-2.3521	-2.3583	-2.7875	-2.2354	-2.4813	-2.6688	-2.4083	-2.575	-2.2979	-2.1813	-2.8	-2.3875	-2.6792	-2.5875	-2.3417	223.756	508.169	384.641	344.378	167.113	281.320	506.490	272.871	356.754	313.746	258.218	458.827	379.274	475.848	182.436	183.102	0.00064853	0.00055835	0.00016976	693.13	3.9295e-06	5.3107e-06	568.25	281.18	4.1982e-06	6.0582e-06	257.28	131.54	150.36	79.816	5.4177e-06	69.931	0.0005015	0.00033864	9.1187e-05	689.82	3.5986e-06	3.4715e-06	564.52	281.17	3.2832e-06	3.9082e-06	257.54	132.34	151.56	80.437	3.9338e-06	70.241	234.626	249.130	264.900	180.238	317.812	306.734	178.650	183.978	311.216	313.925	181.288	184.367	186.838	190.150	295.909	187.256	-8191	255	
35179.906	1	1	0	0	0.13245	0.1899	0.27434	0.08022	0.20599	0.20243	0.11907	0.18605	0.31465	0.36445	0.062949	0.22636	0.21017	0.019903	0.18692	0.38534	-2	-2.5312	-2.1083	-2.7708	-2.1417	-2.4458	-2.6229	-2.1688	-2.4771	-2.3854	-2.3417	-2.6208	-2.3958	-2.5417	-2.5625	-2.2167	394.052	485.138	467.595	509.573	400.522	264.348	372.341	166.121	228.980	466.590	284.929	192.522	379.323	496.694	468.966	480.341	0.0006533	0.00061476	0.00015349	694.67	4.482e-06	6.7017e-06	565.92	280.36	5.2554e-06	5.8096e-06	257.4	130.85	150.34	79.686	5.5074e-06	69.237	0.00050093	0.00033127	8.5474e-05	690.11	3.4329e-06	3.2877e-06	561.45	280.28	3.3171e-06	3.5729e-06	255.83	131.3	151.02	80.181	3.9372e-06	69.612	234.767	257.641	259.128	180.222	325.842	307.168	178.487	184.014	303.842	315.386	181.258	184.350	186.610	190.149	306.548	187.063	-8191	255	
35180.004	1	1	0	0	0.073699	0.33448	0.10501	0.060026	0.14564	0.2661	0.076919	0.14144	0.15831	0.10158	0.072617	0.27766	0.20253	0.21694	0.056722	0.13401	-2.1	-2.3917	-2.2479	-2.575	-2.5542	-2.2667	-2.7875	-2.1417	-2.3271	-2.5542	-2.3042	-2.7146	-2.4542	-2.5208	-2.6229	-2.5271	343.010	520.964	253.219	516.358	454.116	309.244	515.848	428.288	263.601	340.660	460.087	400.314	485.129	425.013	249.686	261.824	0.00062311	0.00051176	0.00015847	691.38	4.0308e-06	4.6891e-06	559.84	279.33	4.3196e-06	5.3074e-06	254.46	129.96	149.98	78.558	5.4981e-06	68.672	0.00049924	0.00031845	9.1466e-05	687.72	3.4741e-06	3.297e-06	558.65	279.8	3.3664e-06	3.4805e-06	254.16	130.12	150.04	79.215	3.8156e-06	68.778	234.043	262.748	262.394	180.295	322.574	322.743	178.614	184.058	303.247	319.531	181.522	184.238	186.484	190.413	288.757	187.114	-8191	255	
35180.102	1	1	0	0	0.15492	0.25989	0.20025	0.2228	0.084448	0.21622	0.269	0.19822	0.29284	0.12533	0.047147	0.12721	0.0080862	0.22924	0.21948	0.28044	-2.0521	-2.5021	-2.2271	-2.6229	-2.3521	-2.4146	-2.7938	-2.3229	-2.4667	-2.6292	-2.3563	-2.6833	-2.3937	-2.4979	-2.8208	-2.45	493.617	511.593	274.685	508.603	331.827	337.965	468.053	198.541	212.916	334.865	441.585	389.482	414.422	167.549	211.651	411.929	0.00062404	0.00051176	0.0001376	687.05	5.5723e-06	4.5087e-06	561.16	277.38	4.5653e-06	5.2268e-06	252.41	128.9	148.39	78.03	6.7941e-06	68.1	0.00049518	0.00030508	8.3508e-05	684.92	3.539e-06	3.2419e-06	556.59	277.51	3.35e-06	3.2574e-06	252.58	129.4	148.96	78.713	3.7224e-06	68.419	234.268	259.372	272.656	180.249	318.244	307.034	178.809	183.789	300.931	314.054	181.403	184.251	186.779	190.180	304.132	187.142	-8191	255	
35180.195	1	1	0	0	0.098535	0.1212	0.13049	0.20197	0.069969	0.16089	0.20278	0.18278	0.048852	0.1309	0.058208	0.23742	0.23381	0.086388	0.059902	0.19682	-1.9958	-2.3521	-2.1937	-2.7	-2.4	-2.3479	-2.8375	-2.3917	-2.2042	-2.5062	-2.2354	-2.5958	-2.5167	-2.4792	-2.6958	-2.5271	220.015	346.748	290.413	475.409	236.826	175.751	170.019	189.046	226.964	358.486	477.503	448.939	179.639	501.963	351.223	402.234	0.00065383	0.00053141	0.00015374	685.36	4.4089e-06	4.6738e-06	556.21	276.95	3.93e-06	5.0229e-06	251.01	128.46	147.53	77.838	5.8304e-06	67.694	0.00050539	0.00031064	8.3028e-05	683.76	3.4883e-06	3.1781e-06	554.15	277.01	3.3609e-06	3.1123e-06	251.24	128.92	148.39	78.442	3.6644e-06	68.026	234.793	253.843	260.830	180.127	317.222	299.897	178.282	183.823	319.177	309.188	181.318	184.445	186.718	190.198	304.466	186.998	-8191	255	
35180.293	1	1	0	0	0.083476	0.14649	0.048313	0.37313	0.10683	0.1601	0.084392	0.20262	0.15943	0.17661	0.19301	0.11284	0.31525	0.051259	0.022278	0.052355	-2.0958	-2.5458	-2.1896	-2.5792	-2.5625	-2.1562	-2.7542	-2.5208	-2.1604	-2.5938	-2.4292	-2.6625	-2.6688	-2.2833	-2.6083	-2.5104	500.847	381.560	373.313	470.854	468.448	197.867	251.961	490.431	250.883	335.325	205.634	447.878	509.577	212.488	484.579	334.177	0.00063099	0.00053717	0.00016132	686.55	4.496e-06	5.1354e-06	552.23	273.82	4.331e-06	4.128e-06	249.53	126.01	146.15	76.682	6.2657e-06	66.158	0.00049938	0.00028495	8.4143e-05	681.62	3.1844e-06	3.279e-06	550.13	275.02	3.3127e-06	3.0473e-06	248.89	126.97	146.88	77.394	3.6542e-06	66.566	234.591	261.194	261.325	180.446	314.945	323.505	178.530	184.006	311.456	305.344	180.946	184.214	186.320	190.274	301.288	186.896	-8191	255	
35180.414	1	1	0	0	0.24954	0.087757	0.043306	0.20327	0.10872	0.13463	0.27912	0.27614	0.24014	0.15929	0.35665	0.16886	0.05789	0.038961	0.088778	0.23421	-1.7396	-2.7646	-2.3125	-2.4979	-2.5542	-2.1771	-2.65	-2.4729	-2.1771	-2.6792	-2.3271	-2.5312	-2.5625	-2.1625	-2.5542	-2.5167	246.022	514.385	324.343	479.146	515.878	330.780	387.540	168.481	253.772	513.443	519.060	366.565	361.064	510.429	480.624	453.954	0.00060138	0.00060376	0.00016701	679.48	3.7243e-06	5.0774e-06	548.61	272.28	4.5442e-06	4.1956e-06	246.56	124.6	144.6	75.886	5.8131e-06	65.234	0.00048621	0.00027763	8.4747e-05	675.71	3.0799e-06	3.2945e-06	544.34	273.01	3.3894e-06	2.8663e-06	245.94	125.17	145.32	76.454	3.7332e-06	65.61	234.682	263.937	258.888	180.253	317.715	310.768	178.453	183.716	305.793	322.533	181.258	184.230	186.518	190.045	305.367	187.049	-8191	255	
35180.508	1	1	0	0	0.13198	0.15423	0.089424	0.022186	0.035458	0.083239	0.19305	0.040884	0.16652	0.12375	0.27182	0.24607	0.12697	0.1717	0.091228	0.32867	-1.9271	-2.4813	-2.2708	-2.5708	-2.5729	-2.2062	-2.7	-2.5625	-2.2479	-2.6854	-2.4542	-2.5792	-2.7792	-2.4958	-2.5896	-2.5354	364.186	210.515	215.577	350.557	305.369	438.887	433.741	450.122	183.396	388.031	479.514	421.995	449.465	179.138	508.087	181.255	0.00061261	0.00053449	0.00017155	676.82	3.6629e-06	5.1623e-06	545.71	270.08	4.9087e-06	4.5302e-06	244.99	123.25	143.44	75.194	5.452e-06	65.154	0.00048997	0.00027615	8.7069e-05	672.88	2.9137e-06	3.3044e-06	541.98	270.63	3.2865e-06	2.8632e-06	244.26	124.27	144.26	75.838	3.5945e-06	65.517	236.450	255.795	251.270	180.346	330.433	313.237	178.327	183.957	300.746	317.673	180.992	184.070	186.593	190.071	292.737	186.977	-8191	255	
35180.605	1	1	0	0	0.2182	0.22113	0.42332	0.10793	0.19532	0.13142	0.29688	0.17749	0.12755	0.16006	0.17994	0.26349	0.070157	0.32343	0.23103	0.20393	-1.7437	-2.4708	-2.1917	-2.3063	-2.5167	-2.3104	-2.5479	-2.5604	-2.05	-2.6104	-2.3729	-2.3958	-2.7458	-2.3917	-2.4188	-2.6437	475.143	301.251	274.643	269.819	483.037	366.878	337.870	461.200	469.936	328.696	512.627	503.942	444.053	243.470	466.699	436.867	0.00060388	0.00053385	0.00013613	676.98	4.7362e-06	4.9375e-06	543.78	271.21	3.8752e-06	5.3629e-06	245.43	124.73	143.96	76.007	5.4441e-06	65.745	0.00048991	0.00028077	9.0754e-05	673.96	2.9622e-06	3.2728e-06	543.4	271.63	3.2087e-06	3.1805e-06	245.24	125.32	145.28	76.536	3.8485e-06	66.151	236.283	248.184	261.145	180.304	322.316	320.036	178.443	183.794	306.965	308.418	181.267	184.207	186.540	190.217	301.130	186.870	-8191	255	
35180.699	1	1	0	0	0.017727	0.036751	0.20014	0.33095	0.18177	0.26496	0.23454	0.13637	0.3391	0.079723	0.14931	0.2173	0.26093	0.11648	0.28438	0.22204	-1.4292	-2.6083	-2.4667	-2.4354	-2.5958	-2.2854	-2.5646	-2.7771	-2.2583	-2.4896	-2.7188	-2.2125	-2.8375	-2.4521	-2.2792	-2.5729	403.816	188.355	416.834	514.277	293.126	382.502	482.220	196.478	405.965	418.051	519.849	199.159	227.620	472.417	422.369	171.822	0.00059555	0.0004594	0.00014109	680.93	3.7575e-06	4.409e-06	550.21	272.73	4.305e-06	5.3203e-06	247.28	125.71	145.37	76.28	6.0423e-06	65.969	0.00050006	0.00030646	8.4762e-05	677.29	3.0261e-06	3.7142e-06	547.24	273.35	3.2941e-06	3.2165e-06	246.95	126.11	146.22	76.873	3.8849e-06	66.157	233.993	251.739	265.107	180.311	317.674	300.165	178.611	184.132	310.200	306.203	181.330	184.286	186.527	190.364	311.756	187.100	-8191	255	
35180.797	1	1	0	0	0.068358	0.39136	0.21504	0.29862	0.10069	0.16127	0.061223	0.20124	0.16494	0.094589	0.24753	0.28399	0.16273	0.19259	0.24838	0.11711	-1.7625	-2.2167	-2.5042	-2.3125	-2.5438	-2.3104	-2.5458	-2.8312	-2.1646	-2.6708	-2.8583	-2.2188	-2.7292	-2.6417	-2.1292	-2.7458	435.859	445.741	325.565	504.226	223.453	351.938	452.892	430.293	216.768	343.136	483.695	512.028	181.273	495.955	512.762	421.533	0.00061932	0.00053932	0.00015702	679.22	4.6129e-06	6.6544e-06	548.6	271.36	4.3448e-06	5.4332e-06	245.07	124.55	144.84	75.686	5.8649e-06	65.187	0.00049445	0.00031229	8.4499e-05	675.87	2.9095e-06	3.7297e-06	545.42	271.67	3.4759e-06	3.2214e-06	245.12	125.04	145.2	76.324	3.8474e-06	65.505	235.450	255.200	252.834	180.140	328.345	317.239	178.582	183.924	322.816	305.887	181.215	184.307	186.550	190.144	301.331	186.841	-8191	255	
35180.891	1	1	0	0	0.37888	0.058426	0.22731	0.053527	0.10888	0.15895	0.31513	0.021467	0.22169	0.28906	0.047674	0.20808	0.23748	0.090397	0.11327	0.18005	-1.7354	-2.5896	-2.5062	-2.3187	-2.5417	-2.5479	-2.3042	-2.7042	-2.4917	-2.4167	-2.6979	-2.2729	-2.7896	-2.6854	-2.2042	-2.6937	184.044	293.338	396.655	471.697	358.545	200.418	490.020	341.718	258.111	477.117	339.990	456.877	453.292	310.629	268.692	434.567	0.00060354	0.00060555	0.00016314	680.61	3.8814e-06	3.5359e-06	546.7	272.34	4.132e-06	4.7301e-06	244.23	124.09	143.88	75.668	4.9711e-06	64.914	0.00049451	0.00031086	8.6109e-05	675.92	3.157e-06	3.7371e-06	543.96	271.72	3.5493e-06	3.369e-06	243.61	124.37	144.7	76.049	3.9071e-06	65.328	235.540	255.468	248.952	179.980	311.180	308.103	178.210	183.983	306.727	304.647	181.172	184.172	186.447	190.226	301.541	187.154	-8191	255	
35180.988	1	1	0	0	0.40765	0.17621	0.10956	0.20103	0.28856	0.26919	0.13965	0.16925	0.05075	0.11412	0.2773	0.19603	0.12222	0.10671	0.13961	0.027507	-1.85	-2.3792	-2.6604	-2.2625	-2.5604	-2.5208	-2.3688	-2.7	-2.3312	-2.2958	-2.7687	-2.2979	-2.5979	-2.5833	-2.2292	-2.6271	199.202	351.491	450.820	314.449	425.761	191.677	219.157	431.574	282.268	169.621	282.670	493.860	198.202	473.940	316.331	491.288	0.00058871	0.00047822	0.00014309	679.58	4.186e-06	5.6983e-06	546.55	271.51	4.3503e-06	5.1622e-06	244.58	124.8	145	76.342	5.211e-06	65.815	0.00049998	0.00030706	8.3044e-05	675.82	3.2113e-06	3.6517e-06	544.09	272.67	3.6534e-06	3.4396e-06	244.86	125.45	145.98	76.866	3.9292e-06	66.042	236.797	259.970	253.769	180.091	326.695	311.815	178.307	183.854	296.539	319.960	181.053	184.188	186.610	190.173	298.791	186.999	-8191	255	
35181.109	1	1	0	0	0.20433	0.12215	0.38732	0.22621	0.14519	0.22307	0.34104	0.31675	0.20565	0.092555	0.18009	0.18906	0.24113	0.36547	0.20608	0.063816	-1.8312	-2.3271	-2.6354	-2.5208	-2.5354	-2.6562	-2.3729	-2.6521	-2.5438	-2.3729	-2.6792	-2.3354	-2.5125	-2.6583	-2.1	-2.6646	417.066	378.598	217.647	483.554	222.119	443.276	442.083	470.542	308.876	386.149	413.509	434.545	459.025	469.268	509.782	216.720	0.00060307	0.00051606	0.00014359	682.04	3.8695e-06	4.9824e-06	553.95	273.95	4.8051e-06	4.6416e-06	249.56	126.24	146.77	76.722	4.7667e-06	66.602	0.00050282	0.00030525	8.3911e-05	680.39	3.2899e-06	3.3892e-06	552.15	275.22	3.8051e-06	3.2084e-06	248.85	126.68	147.28	77.493	3.9281e-06	66.809	233.400	258.664	251.265	180.294	315.863	321.260	178.556	183.980	304.384	307.282	180.976	184.417	186.516	190.274	303.199	187.125	-8191	255	
35181.203	1	1	0	0	0.12497	0.18429	0.23692	0.10724	0.059395	0.073429	0.13149	0.1827	0.22967	0.11444	0.20717	0.10253	0.087732	0.36087	0.42934	0.15093	-1.9625	-2.2479	-2.6417	-2.4188	-2.4896	-2.525	-2.3958	-2.7479	-2.4417	-2.3417	-2.6896	-2.2729	-2.65	-2.8646	-2.2438	-2.6896	172.849	477.921	317.231	208.871	231.355	362.803	413.178	169.693	306.684	363.893	503.817	346.790	493.165	477.450	440.637	468.879	0.00061112	0.00047026	0.00014476	689.12	4.8328e-06	4.9208e-06	557.42	276.14	4.2892e-06	5.6949e-06	249.55	125.83	145.37	76.206	6.7629e-06	65.778	0.00051557	0.00031108	8.3508e-05	684.62	3.359e-06	3.3329e-06	553.22	276.12	3.6359e-06	3.3219e-06	248.18	126.05	146.47	76.967	3.8724e-06	66.018	234.642	267.621	254.527	180.108	328.183	320.596	178.489	183.895	309.777	315.202	181.564	184.447	186.540	190.371	300.392	187.089	-8191	255	
35181.277	1	1	0	0	0.1495	0.08574	0.11161	0.2207	0.11121	0.12666	0.33484	0.10576	0.21424	0.30993	0.28865	0.10297	0.16788	0.29148	0.13196	0.34616	-1.9521	-2.0583	-2.5563	-2.4354	-2.3646	-2.5354	-2.4229	-2.6188	-2.4313	-2.2271	-2.6875	-2.3396	-2.3333	-2.75	-2.1	-2.3771	250.382	178.915	330.748	437.759	194.217	357.568	510.613	456.591	352.552	487.568	194.745	304.137	312.596	493.692	481.492	507.608	0.00061778	0.00041877	0.00017515	684.54	2.7171e-06	5.1363e-06	553.75	273.87	3.5785e-06	5.6349e-06	247.06	125.24	145.24	76.123	5.6347e-06	65.772	0.00050257	0.00030151	8.2316e-05	682.46	3.101e-06	3.2146e-06	551.5	274.79	3.31e-06	3.1762e-06	247.69	125.85	146.34	76.958	3.8872e-06	66.147	234.808	254.839	262.044	180.184	313.863	318.848	178.371	183.876	301.035	309.512	181.370	184.210	186.491	190.260	298.253	187.075	-8191	255	
35181.371	1	1	0	0	0.07897	0.28966	0.09071	0.13886	0.13902	0.14627	0.15782	0.20238	0.088502	0.31884	0.22946	0.30963	0.19871	0.38591	0.18089	0.2586	-1.9917	-2.2479	-2.4562	-2.475	-2.2313	-2.6333	-2.1979	-2.4562	-2.6813	-2.2	-2.6979	-2.3979	-2.375	-2.8083	-2.2917	-2.6146	226.800	396.409	232.240	444.027	495.022	332.471	402.819	497.589	381.410	321.994	379.396	503.406	293.426	512.747	197.948	508.047	0.00060731	0.00052556	0.00017846	687.45	3.5034e-06	3.999e-06	555.15	277.29	5.7887e-06	5.3961e-06	250.52	125.47	146.5	77.16	5.6819e-06	66.521	0.00048345	0.0003278	8.3756e-05	685.73	3.034e-06	3.0785e-06	553.61	276.76	3.4924e-06	3.3243e-06	249.58	126.5	147.16	77.635	4.1423e-06	66.847	235.860	249.833	256.310	179.987	330.555	320.886	178.717	183.797	315.448	317.618	181.484	184.353	186.740	190.282	299.154	186.984	-8191	255	
35181.492	1	1	0	0	0.12399	0.15776	0.20683	0.25068	0.18233	0.17539	0.3448	0.1413	0.1988	0.18796	0.16002	0.07859	0.22856	0.18262	0.21065	0.29248	-2.2646	-2.2771	-2.4042	-2.5458	-2.1417	-2.6458	-2.4062	-2.45	-2.5083	-2.2583	-2.5312	-2.5479	-2.2854	-2.6396	-2.2125	-2.3063	414.164	483.548	477.950	435.574	198.572	372.520	448.248	466.383	174.156	340.413	378.770	404.834	491.476	187.578	522.003	433.881	0.00060177	0.00057743	0.00019992	692.96	4.8274e-06	4.8673e-06	559.74	277.3	4.2878e-06	3.6236e-06	251.26	127.77	148.43	77.606	6.7856e-06	67.697	0.00048619	0.00033792	8.6109e-05	689	3.3094e-06	3.0574e-06	556.71	277.93	3.3429e-06	3.2605e-06	251.48	128.47	149.14	78.47	4.2054e-06	68.007	234.544	238.772	253.658	180.135	323.554	320.180	178.628	184.230	319.307	307.041	181.752	183.988	186.556	190.315	300.616	186.974	-8191	255	
35181.590	1	1	0	0	0.29674	0.19687	0.1097	0.39742	0.10736	0.18019	0.079107	0.328	0.33116	0.12741	0.26938	0.14409	0.15993	0.18246	0.060489	0.25849	-2.2333	-2.2562	-2.5792	-2.5396	-2.0833	-2.625	-2.4833	-2.2292	-2.6896	-2.1958	-2.3854	-2.5854	-2.1083	-2.65	-2.4604	-2.3083	371.436	468.102	172.888	494.059	174.101	360.348	336.640	484.859	506.604	338.693	196.036	376.919	288.908	170.433	330.208	483.463	0.00062836	0.00037182	0.00019306	695.86	4.3605e-06	6.4815e-06	562.17	279.29	4.4895e-06	5.6423e-06	254.46	129.15	148.73	78.464	5.4437e-06	67.977	0.00048934	0.00033347	9.097e-05	692.53	3.2963e-06	3.2889e-06	561.2	279.95	3.4168e-06	3.4898e-06	253.43	129.16	149.38	78.928	4.1065e-06	68.082	235.063	257.988	255.390	180.328	320.008	305.289	178.557	183.891	320.830	309.636	181.236	184.355	186.562	190.313	303.717	187.096	-8191	255	
35181.688	1	1	0	0	0.26909	0.098999	0.1182	0.26982	0.080916	0.091943	0.13772	0.16741	0.13727	0.30373	0.10189	0.3059	0.22846	0.31132	0.23662	0.058668	-2.0229	-2.0417	-2.4208	-2.6188	-2.1583	-2.5667	-2.4125	-2.2687	-2.6229	-2.2521	-2.6042	-2.7333	-2.325	-2.6354	-2.5125	-2.3833	355.674	357.555	342.991	461.975	231.181	381.381	418.030	513.095	201.214	311.179	185.757	185.517	182.881	517.406	290.301	503.322	0.0006209	0.00056441	0.00015302	693.78	3.7916e-06	5.4258e-06	559.44	278.11	5.4634e-06	5.6809e-06	250.95	127.61	148.26	77.889	4.6464e-06	67.22	0.00049482	0.00035585	8.9732e-05	689.94	3.2224e-06	3.4109e-06	556.09	277.85	3.5165e-06	3.7155e-06	250.67	128.12	148.69	78.471	4.1128e-06	67.564	235.931	259.075	245.996	179.979	322.572	311.087	178.400	183.825	315.150	316.129	181.387	184.266	186.532	190.332	312.022	187.004	-8191	255	
35181.805	1	1	0	0	0.12968	0.20187	0.082359	0.12701	0.07781	0.20245	0.092302	0.23893	0.14987	0.1027	0.37912	0.19547	0.25987	0.10262	0.35717	0.13418	-2.35	-2.3146	-2.425	-2.8625	-2.3479	-2.3979	-2.7542	-2.3479	-2.4833	-2.4188	-2.4062	-2.775	-2.1792	-2.4333	-2.5604	-2.2875	428.304	233.362	408.392	512.750	462.204	452.487	402.255	420.902	493.518	389.998	465.039	184.064	490.333	453.168	335.677	361.215	0.0006021	0.0003621	0.00013056	691.13	3.8768e-06	5.1071e-06	557.72	277.04	5.4167e-06	5.3595e-06	250.06	128.52	147.42	77.802	5.5892e-06	67.335	0.00048393	0.00034793	8.7023e-05	687.14	3.3849e-06	3.375e-06	555.56	277.08	3.58e-06	3.5363e-06	250.25	128.34	148.54	78.344	3.9872e-06	67.783	233.671	233.814	274.372	180.248	322.774	305.507	178.345	183.795	313.232	302.298	181.135	184.268	186.566	190.225	299.062	187.006	-8191	255	
35181.902	1	1	0	0	0.10638	0.17167	0.26609	0.035104	0.24513	0.23992	0.16847	0.17324	0.21736	0.14217	0.19942	0.24288	0.18738	0.32055	0.11132	0.33491	-2.3187	-2.3167	-2.2792	-2.7792	-2.3604	-2.4646	-2.5042	-2.1604	-2.6729	-2.3458	-2.2479	-2.8333	-2.3438	-2.7875	-2.6021	-2.2646	338.985	346.490	266.010	470.255	196.888	406.507	459.277	501.969	365.160	230.432	496.200	439.657	504.272	484.957	254.105	509.049	0.00063394	0.00060389	0.00013747	689.66	3.6932e-06	5.0989e-06	556.66	276.82	4.7846e-06	4.9555e-06	252.2	129.27	149.14	78.486	5.2894e-06	68.535	0.00050711	0.00035288	8.7534e-05	687.37	3.3759e-06	3.3347e-06	557.03	277.55	3.6205e-06	3.5921e-06	252.43	129.56	150.05	79.249	3.8929e-06	68.782	234.247	247.216	235.195	180.312	327.780	303.397	178.488	183.952	308.067	311.488	181.225	184.198	186.721	190.218	305.393	187.005	-8191	255	
35181.973	1	1	0	0	0.088188	0.17981	0.072294	0.32838	0.1398	0.17574	0.14695	0.05473	0.042595	0.10077	0.16898	0.062405	0.078362	0.11252	0.19614	0.3332	-2.3021	-2.4396	-2.1937	-2.7479	-2.0896	-2.3812	-2.5	-2.5187	-2.5042	-2.4437	-2.45	-2.7208	-2.425	-2.7083	-2.5729	-2.3396	312.097	349.264	467.513	170.354	510.673	444.416	390.447	310.498	489.086	439.166	249.946	360.812	342.736	237.745	318.525	461.490	0.00062115	0.00055541	0.00016861	696.15	4.9402e-06	3.9508e-06	562.23	278.61	4.0995e-06	4.1891e-06	255.31	129.59	149.81	78.964	5.574e-06	68.689	0.00049659	0.00036268	8.6868e-05	691.2	3.5253e-06	3.3199e-06	561.35	279.12	3.5532e-06	3.5456e-06	254.89	130.39	150.67	79.656	3.8582e-06	69.143	235.080	252.971	263.015	180.177	324.538	317.078	178.389	184.164	292.065	314.113	181.294	184.340	186.710	190.186	302.761	187.166	-8191	255	
35182.094	1	1	0	0	0.13794	0.15721	0.07817	0.046413	0.21418	0.045388	0.15654	0.22987	0.13174	0.21706	0.050182	0.0741	0.054922	0.32966	0.083447	0.10507	-2.1542	-2.4854	-2.125	-2.8042	-2.2021	-2.3875	-2.8187	-2.4604	-2.4375	-2.5208	-1.9896	-2.8125	-2.5292	-2.5896	-2.5208	-2.3917	304.065	219.948	315.871	339.035	271.090	362.681	518.333	509.266	425.379	521.795	199.157	506.978	497.334	449.319	337.472	388.367	0.00062551	0.00056463	0.00017351	693.83	3.8725e-06	4.8482e-06	561.99	278.99	4.4218e-06	4.7222e-06	255.14	129.15	150.16	78.885	5.7808e-06	68.142	0.00050178	0.00033759	9.1574e-05	690.38	3.4841e-06	3.4548e-06	560.09	279.31	3.6676e-06	3.3051e-06	253.73	129.74	150.73	79.527	3.7326e-06	68.622	235.460	248.134	248.061	180.083	326.575	314.017	178.541	184.078	307.060	305.952	181.187	184.330	186.751	190.155	317.813	187.255	-8191	255	
35182.188	1	1	0	0	0.28114	0.14509	0.35009	0.21402	0.015825	0.30816	0.21087	0.19613	0.11519	0.12435	0.083845	0.42003	0.20297	0.15288	0.22608	0.13484	-2.2062	-2.5042	-2.2229	-2.6458	-2.2396	-2.1729	-2.8146	-2.4479	-2.4792	-2.7104	-2.2208	-2.7167	-2.6583	-2.3542	-2.6396	-2.3667	366.212	297.596	414.613	206.504	402.976	519.865	178.985	174.359	432.441	206.368	493.042	463.833	244.258	202.442	317.290	507.159	0.00065072	0.00048587	0.00011021	693.46	4.1979e-06	5.0443e-06	559.98	279.41	4.1805e-06	6.0958e-06	255.72	129.29	148.99	78.928	5.2909e-06	68.627	0.00051326	0.00030767	9.1481e-05	688.58	3.4398e-06	3.3248e-06	558.59	279.23	3.5143e-06	3.1966e-06	253.74	130.03	150.29	79.588	3.7434e-06	68.914	235.586	261.899	257.546	180.186	328.699	306.731	178.467	184.001	323.918	316.146	181.370	184.435	186.566	190.340	305.886	187.226	-8191	255	
35182.285	1	1	0	0	0.16071	0.036316	0.12495	0.33882	0.11093	0.070212	0.23583	0.41982	0.16701	0.11456	0.3517	0.31445	0.25955	0.13956	0.076377	0.14319	-1.7083	-2.4437	-2.2188	-2.7417	-2.6396	-2.2938	-2.5687	-2.375	-2.4688	-2.775	-2.3937	-2.5563	-2.6479	-2.4042	-2.5312	-2.3563	185.613	370.056	388.611	443.469	493.566	393.383	498.163	520.363	441.483	232.298	509.232	465.748	514.863	459.117	325.013	480.980	0.00062751	0.00056922	0.00014123	692.04	4.3707e-06	6.469e-06	562.97	280.93	4.5397e-06	4.7611e-06	255.42	130.61	151.54	79.816	4.775e-06	69.396	0.00050776	0.00030431	9.3711e-05	690.21	3.2604e-06	3.3954e-06	561.2	280.78	3.3681e-06	3.1185e-06	255.34	131.4	151.83	80.343	4.0185e-06	69.857	233.890	251.964	245.668	180.333	328.034	305.786	178.532	184.121	314.208	313.584	181.247	184.205	186.496	190.284	302.166	187.065	-8191	255	
35182.406	1	1	0	0	0.23499	0.26056	0.19699	0.19643	0.11536	0.14365	0.25962	0.14677	0.22872	0.11602	0.049296	0.28363	0.21644	0.28212	0.27735	0.32632	-2.0333	-2.5396	-2.2396	-2.5604	-2.6	-2.3333	-2.6958	-2.4792	-2.2583	-2.65	-2.5229	-2.6833	-2.7271	-2.2771	-2.3042	-2.5667	319.233	211.258	416.461	454.131	224.062	510.761	381.798	513.654	245.463	243.725	515.845	455.471	503.030	477.095	315.311	412.508	0.00065454	0.00054222	0.0001403	700.12	4.135e-06	6.3605e-06	569.71	282.92	4.2097e-06	5.5142e-06	258.52	132.09	151.67	80.376	5.3555e-06	70.583	0.00051083	0.00030074	9.6312e-05	697.12	3.4181e-06	3.2574e-06	567.41	283.73	3.4518e-06	3.2803e-06	258.17	132.58	152.55	80.985	4.0582e-06	70.619	235.985	262.975	241.374	180.085	335.273	316.296	178.427	183.981	293.872	322.066	181.233	184.289	186.648	190.248	311.889	187.169	-8191	255	
35182.504	1	1	0	0	0.11849	0.11357	0.36165	0.18898	0.20119	0.21132	0.10923	0.23196	0.21312	0.21619	0.25389	0.31841	0.24066	0.15393	0.17347	0.15099	-1.8312	-2.6854	-2.2354	-2.6125	-2.4354	-2.0667	-2.7521	-2.4083	-2.3042	-2.5958	-2.4958	-2.4833	-2.6646	-2.2625	-2.4708	-2.5521	205.272	368.141	353.367	189.902	355.179	466.505	498.446	484.611	282.202	175.224	384.956	485.727	500.238	496.091	331.600	250.486	0.00065677	0.00052254	0.00017364	704.34	4.9709e-06	6.1247e-06	570.63	283.8	4.9135e-06	4.2875e-06	259.3	132.18	152.68	80.496	5.9102e-06	69.901	0.00051557	0.00031916	0.0001001	701.38	3.2519e-06	3.4177e-06	570.07	285.01	3.408e-06	3.3126e-06	258.27	132.71	153.06	81.132	4.106e-06	70.273	233.885	255.213	245.889	180.001	322.635	309.389	178.597	183.954	316.716	314.594	181.462	184.486	186.514	190.508	303.862	187.070	-8191	255	
35182.574	1	1	0	0	0.14769	0.19921	0.17757	0.21548	0.033677	0.41595	0.082683	0.20024	0.10907	0.044203	0.11861	0.17986	0.055124	0.13835	0.044339	0.072114	-1.6708	-2.4667	-2.4437	-2.3958	-2.5792	-2.225	-2.4792	-2.4146	-2.2208	-2.5354	-2.2979	-2.3479	-2.6542	-2.4458	-2.475	-2.5521	492.622	273.571	274.033	434.151	255.928	508.550	478.759	420.504	406.303	500.673	444.235	489.408	483.465	425.867	170.327	174.272	0.0006306	0.00056924	0.00014525	700.98	3.8106e-06	6.0689e-06	569.4	285.04	4.032e-06	5.2627e-06	256.8	131.95	152.34	80.469	6.0271e-06	69.631	0.00050861	0.00032411	9.6544e-05	699.83	3.2039e-06	3.5514e-06	568.94	285.51	3.6161e-06	3.4117e-06	257.96	132.47	153.43	81.101	3.9832e-06	70.213	234.663	253.471	262.003	180.252	321.323	312.029	178.856	184.123	307.790	293.290	181.279	184.135	186.707	190.226	296.681	187.217	-8191	255	
35182.672	1	1	0	0	0.29742	0.16308	0.22011	0.21396	0.21139	0.071267	0.071839	0.22083	0.095789	0.022014	0.2517	0.2157	0.22331	0.092409	0.052732	0.093449	-1.9875	-2.3896	-2.3396	-2.25	-2.7583	-2.3229	-2.7417	-2.6104	-2.2833	-2.7604	-2.4833	-2.4813	-2.7687	-2.5458	-2.3438	-2.825	443.306	317.814	171.694	428.257	373.006	510.861	385.108	429.831	357.162	418.761	461.613	489.737	523.389	172.620	458.878	382.871	0.00063048	0.00056131	0.00017459	704.11	3.3574e-06	6.0015e-06	569.9	284.29	5.2423e-06	6.0107e-06	258.62	131.36	152.19	80.35	5.3241e-06	70.086	0.00050091	0.00031553	9.6575e-05	699.92	3.2577e-06	3.448e-06	567.27	284.96	3.8965e-06	3.4582e-06	257.93	132.38	153.37	81.07	3.8531e-06	70.49	235.793	247.440	261.219	180.208	318.855	321.314	178.589	184.018	311.054	312.618	181.480	184.251	186.639	190.199	297.381	187.173	-8191	255	
35182.789	1	1	0	0	0.26429	0.22923	0.062082	0.24437	0.10353	0.13219	0.036135	0.19863	0.22021	0.27786	0.09081	0.20449	0.22453	0.44709	0.12861	0.15794	-1.7125	-2.3833	-2.5646	-2.5604	-2.6708	-2.3187	-2.4729	-2.7583	-2.3146	-2.4354	-2.6979	-2.2604	-2.7375	-2.6854	-2.4208	-2.7896	322.301	250.049	443.162	513.608	349.490	188.813	491.888	237.014	253.783	455.852	509.773	432.008	525.650	479.400	312.660	472.047	0.00063811	0.0006209	0.00014542	703.62	4.2903e-06	5.6135e-06	569.1	285.77	5.4164e-06	4.5111e-06	260.41	132.62	153.04	80.826	5.8592e-06	70.766	0.00051921	0.00034056	9.4547e-05	701.25	3.3121e-06	3.5663e-06	570.15	285.66	4.0647e-06	3.4434e-06	259.22	133.61	153.88	81.439	4.1224e-06	71.206	235.192	249.449	246.750	180.072	312.769	316.433	178.665	183.727	313.221	313.605	181.468	184.773	186.579	190.278	306.055	187.080	-8191	255	
35182.887	1	1	0	0	0.23183	0.060992	0.13285	0.13218	0.44754	0.099414	0.069372	0.17502	0.23255	0.11563	0.28751	0.23703	0.19457	0.26841	0.11534	0.21946	-1.7542	-2.4396	-2.5146	-2.2833	-2.5687	-2.2542	-2.4396	-2.875	-2.3167	-2.5521	-2.5208	-2.4021	-2.8063	-2.5187	-2.4417	-3.0187	432.446	374.339	413.471	232.499	240.915	267.554	462.893	189.886	429.508	488.249	197.788	194.230	477.557	173.544	195.993	440.868	0.00065493	0.00045616	0.00015318	707.39	4.328e-06	6.0498e-06	578.79	287.06	4.6951e-06	4.7525e-06	260.76	134.36	153.87	81.413	6.0457e-06	70.604	0.00052874	0.00031735	9.4299e-05	704.45	3.3791e-06	3.5923e-06	575.53	287.34	4.2005e-06	3.5438e-06	261.02	134.45	154.72	81.956	4.0173e-06	71.08	235.044	262.792	258.785	180.241	320.185	310.539	178.647	183.989	310.821	313.839	181.354	184.626	186.654	190.202	310.260	186.951	-8191	255	
35182.980	1	1	0	0	0.19292	0.10799	0.058268	0.24561	0.13061	0.2052	0.17612	0.13703	0.43315	0.11273	0.23246	0.10198	0.028065	0.030535	0.086468	0.15226	-1.7521	-2.4271	-2.4771	-2.2479	-2.7771	-2.4313	-2.3417	-2.7708	-2.1104	-2.5333	-2.5875	-2.4708	-2.625	-2.6583	-2.3021	-2.825	202.424	261.708	199.071	170.052	402.772	501.355	418.329	523.504	511.794	377.343	479.492	491.341	359.909	478.956	292.454	216.477	0.00064847	0.00052038	0.0001457	709.57	4.1207e-06	5.921e-06	576.76	287.1	4.5114e-06	5.1304e-06	259.79	132.49	153.14	81.069	5.0848e-06	70.355	0.00052784	0.00031163	8.5691e-05	705.91	3.3168e-06	3.5607e-06	572.75	287.59	3.9606e-06	3.3993e-06	259.42	133.37	154.24	81.635	3.8571e-06	70.692	235.136	248.713	253.154	180.475	322.559	308.720	178.718	184.201	310.191	312.352	181.288	184.391	186.712	190.124	311.481	187.381	-8191	255	
35183.078	1	1	0	0	0.28675	0.047434	0.057398	0.34103	0.12367	0.13633	0.11796	0.23023	0.075866	0.1547	0.05003	0.24007	0.15655	0.21382	0.045185	0.17102	-1.825	-2.3125	-2.5167	-2.4083	-2.5354	-2.6229	-2.2646	-2.7729	-2.4375	-2.4062	-2.7792	-2.4437	-2.6333	-2.7917	-2.3792	-2.8771	319.485	179.113	382.243	198.354	401.105	427.246	510.464	508.988	222.518	446.058	368.078	447.192	516.654	487.131	253.376	427.665	0.00062275	0.00060453	0.00016762	705.47	4.7233e-06	4.5948e-06	572.58	286.36	4.0635e-06	4.429e-06	258.17	132.04	152.96	80.493	6.0978e-06	69.929	0.00051427	0.00031713	8.8323e-05	703.51	3.5543e-06	3.3341e-06	570.25	286.99	3.8922e-06	3.2481e-06	258.5	132.98	153.73	81.24	4.3032e-06	70.473	235.626	255.660	260.139	180.325	315.497	318.036	178.846	184.107	308.746	308.546	181.072	184.590	186.407	190.317	303.201	187.392	-8191	255	
35183.199	1	1	0	0	0.076282	0.039401	0.18206	0.28444	0.21509	0.061205	0.31646	0.21526	0.18555	0.25892	0.39427	0.093996	0.35404	0.099361	0.28584	0.22076	-2.0646	-2.2771	-2.6167	-2.2854	-2.5333	-2.6833	-2.2292	-2.7833	-2.3563	-2.4229	-2.6979	-2.3958	-2.4021	-2.7667	-2.2354	-2.6208	523.830	495.582	375.195	488.704	219.122	333.423	364.422	519.812	516.042	393.389	459.923	182.269	510.209	393.208	360.828	451.802	0.00062913	0.00052105	0.00018861	705.47	4.1605e-06	4.974e-06	574.56	285.63	4.8345e-06	3.0719e-06	260.32	132.79	152.33	80.989	5.8479e-06	70.735	0.00051794	0.00030547	8.9097e-05	701.84	3.2857e-06	3.3508e-06	569.4	286.45	3.9113e-06	3.346e-06	259.13	133.26	153.65	81.387	4.4316e-06	70.828	236.329	250.035	260.392	180.059	329.460	317.318	178.639	183.934	310.913	312.263	181.617	184.504	186.742	190.286	296.560	187.180	-8191	255	
35183.270	1	1	0	0	0.1516	0.32801	0.24957	0.14157	0.088807	0.080512	0.061387	0.12728	0.35018	0.33471	0.25347	0.12916	0.3529	0.24427	0.24856	0.13746	-1.9271	-2.1937	-2.6521	-2.45	-2.3396	-2.5292	-2.1542	-2.4396	-2.4729	-2.2646	-3	-2.4521	-2.5771	-2.85	-2.325	-2.6312	281.751	207.063	275.572	483.132	435.879	255.274	392.569	413.898	434.689	454.197	257.622	516.138	482.280	478.970	395.467	428.827	0.00063959	0.00061656	0.00015315	706.4	4.3721e-06	5.45e-06	575.96	286.93	5.0969e-06	5.7798e-06	260.72	132.95	153.92	81.016	5.1284e-06	70.632	0.00051151	0.00032048	8.597e-05	703.74	3.3031e-06	3.3415e-06	571.87	287.52	3.6479e-06	3.39e-06	260.48	133.8	154.47	81.735	4.4947e-06	71.094	233.532	237.708	264.595	180.321	330.150	315.790	178.687	184.160	313.637	315.571	181.416	184.225	186.792	190.204	305.707	187.289	-8191	255	
35183.367	1	1	0	0	0.10658	0.072348	0.3326	0.04276	0.21755	0.22032	0.38807	0.18023	0.084826	0.084524	0.21075	0.21261	0.39618	0.20741	0.18305	0.17696	-2.1083	-2.3271	-2.6333	-2.3958	-2.3292	-2.8208	-2.2438	-2.7354	-2.4708	-2.2583	-2.6979	-2.525	-2.3833	-2.8125	-2.3083	-2.5125	422.585	382.866	268.595	460.081	213.274	425.929	507.019	339.599	186.969	312.315	501.316	413.347	490.199	438.202	439.968	520.017	0.00066217	0.00050326	0.0001686	706.51	3.1446e-06	4.7977e-06	571.4	286.4	4.5897e-06	6.5459e-06	258.18	131.94	152.55	80.349	5.8663e-06	69.406	0.00052003	0.00031933	8.7177e-05	702.49	3.1406e-06	3.2456e-06	567.84	286.58	3.4738e-06	3.532e-06	257.62	132.45	153.6	80.975	4.2713e-06	69.744	236.096	256.758	269.794	180.230	321.283	324.837	178.669	184.142	312.562	322.560	181.398	184.190	186.621	190.191	317.731	187.060	-8191	255	
35183.484	1	1	0	0	0.24734	0.24059	0.17792	0.15067	0.15411	0.15903	0.13204	0.080702	0.24352	0.21145	0.13171	0.17747	0.41142	0.10669	0.25247	0.2329	-2.1521	-2.3	-2.5687	-2.3271	-2.3542	-2.8688	-2.4125	-2.625	-2.7771	-2.3604	-2.8917	-2.6063	-2.3604	-3.0583	-2.4125	-2.8667	287.264	446.977	413.873	222.184	418.029	374.278	468.562	475.915	459.611	460.328	520.136	206.128	523.393	398.425	458.027	496.074	0.00062972	0.00048309	0.00016752	698.98	5.6393e-06	5.3666e-06	565.27	284.17	4.1128e-06	3.6557e-06	256.11	130.3	151.26	79.149	6.5263e-06	68.478	0.00050184	0.00032521	8.5877e-05	696.88	3.4635e-06	3.3719e-06	563.2	284.59	3.373e-06	3.6101e-06	256	130.72	152.04	79.966	4.223e-06	68.947	233.822	253.616	255.043	180.344	324.897	317.153	178.432	183.831	315.368	307.533	181.291	184.548	186.589	190.232	294.544	187.287	-8191	255	
35183.582	1	1	0	0	0.18466	0.072465	0.2505	0.14622	0.13562	0.16467	0.24753	0.34018	0.18478	0.11116	0.34084	0.014043	0.20232	0.165	0.23726	0.1972	-2.2062	-2.2625	-2.4375	-2.6104	-2.2896	-2.6	-2.4917	-2.5708	-2.6979	-2.3354	-2.725	-2.6625	-2.4208	-2.775	-2.3458	-2.5	389.806	234.252	462.661	167.248	518.201	290.672	476.595	434.896	253.955	351.456	402.714	431.812	523.706	472.762	406.892	409.118	0.00065294	0.00057965	0.00019092	698.32	3.5772e-06	4.5534e-06	561.59	281.24	4.034e-06	5.1615e-06	253.94	128.78	150.11	78.651	5.0371e-06	68.033	0.00050796	0.00032527	8.5784e-05	694.15	3.2699e-06	3.2536e-06	559.89	282.35	3.3566e-06	3.6888e-06	253.27	129.52	150.69	79.292	4.1838e-06	68.469	235.374	250.218	264.036	180.187	312.667	313.804	178.306	184.065	314.559	304.222	181.114	184.358	186.472	190.147	306.964	186.996	-8191	255	
35183.680	1	1	0	0	0.28513	0.22685	0.24689	0.14827	0.066995	0.13255	0.18267	0.3825	0.29632	0.16817	0.15934	0.216	0.20662	0.13981	0.12808	0.07174	-2.0479	-2.0333	-2.6437	-2.7167	-2.2687	-2.6479	-2.3021	-2.3208	-2.8063	-2.1917	-2.4625	-2.4958	-2.2417	-2.6583	-2.1312	-2.4292	480.970	175.844	374.793	474.433	399.360	377.200	407.254	462.147	362.416	247.259	183.171	498.398	464.726	201.904	436.699	430.790	0.00062198	0.00061356	0.00017763	692.32	4.2822e-06	5.0159e-06	559.71	281.02	4.2067e-06	5.7673e-06	254.13	129.09	149.55	78.495	4.5534e-06	68.378	0.00049885	0.00031377	8.4793e-05	692.42	3.387e-06	3.4233e-06	558.63	281.82	3.523e-06	3.5834e-06	253.46	129.73	150.47	79.375	4.1099e-06	68.569	234.255	262.270	267.242	180.046	318.926	308.694	178.538	183.941	330.091	302.606	181.308	184.568	186.609	190.122	309.627	187.196	-8191	255	
35183.773	1	1	0	0	0.011558	0.093344	0.085975	0.4097	0.091529	0.30621	0.34	0.16559	0.12911	0.099415	0.059123	0.29607	0.27535	0.14268	0.19352	0.2004	-2.2562	-2.2292	-2.3271	-2.6208	-2.2604	-2.6417	-2.5667	-2.4646	-2.7313	-2.3896	-2.4729	-2.8563	-2.3042	-2.7604	-2.4896	-2.375	262.007	287.888	430.319	471.889	470.908	413.035	462.784	194.411	482.741	516.647	326.175	499.427	176.921	452.708	336.040	481.178	0.00065354	0.00060195	0.00015867	697.82	3.9553e-06	5.0904e-06	560.34	280.84	4.3377e-06	5.9187e-06	252.1	128.27	149.51	78.465	5.8877e-06	67.307	0.00050302	0.00032565	8.5443e-05	693.39	3.6704e-06	3.1329e-06	557.84	281.51	3.528e-06	3.6306e-06	251.72	128.87	150.26	79.003	4.0611e-06	67.794	235.117	257.421	264.200	180.255	324.510	321.094	178.475	183.883	317.372	312.276	181.253	184.556	186.800	190.253	301.695	186.884	-8191	255	
35183.867	1	1	0	0	0.20853	0.23082	0.10468	0.13126	0.18666	0.20532	0.31683	0.30849	0.083311	0.041775	0.22123	0.18674	0.21328	0.13154	0.10307	0.05194	-2.1937	-2.3479	-2.4188	-2.6562	-2.2313	-2.4646	-2.625	-2.2958	-2.4479	-2.4021	-2.5938	-2.7729	-2.2687	-2.8146	-2.5208	-2.3896	423.331	170.394	269.699	454.424	377.514	333.777	506.536	466.120	512.758	229.666	445.418	176.001	444.396	185.922	208.781	221.939	0.0006332	0.00054589	0.00015843	690.49	3.6188e-06	5.6548e-06	551.02	278.83	4.9751e-06	5.7668e-06	249.93	126.83	148.03	77.949	4.935e-06	67.098	0.00049761	0.00031284	7.8291e-05	686.75	3.4382e-06	3.1738e-06	548.72	278.91	3.4628e-06	3.5233e-06	249.07	127.58	148.94	78.464	3.815e-06	67.379	236.153	264.020	255.536	180.175	300.573	303.869	178.538	183.833	315.160	317.340	181.440	184.264	186.600	190.087	299.419	187.010	-8191	255	
35183.965	1	1	0	0	0.3608	0.13168	0.22083	0.14282	0.087686	0.057028	0.26015	0.25737	0.16699	0.12971	0.17049	0.16619	0.1753	0.24007	0.067734	0.097571	-2.1063	-2.375	-2.5583	-2.7812	-2.2062	-2.2771	-2.6271	-2.3625	-2.7896	-2.4875	-2.5	-2.7917	-2.3688	-2.4354	-2.6292	-2.3312	307.487	465.717	218.301	477.834	370.435	453.689	457.077	459.551	416.821	460.822	469.947	424.876	184.181	481.790	336.280	410.962	0.00062832	0.0006154	0.00012273	685.76	5.0988e-06	5.4713e-06	550.28	276.2	3.981e-06	6.1337e-06	248.26	126.07	148.22	77.841	5.4591e-06	67.389	0.00051072	0.00031938	8.213e-05	683.19	3.6566e-06	3.1236e-06	547.4	277.83	3.3385e-06	3.4557e-06	248.22	126.96	148.48	78.329	3.8661e-06	67.418	234.349	254.769	260.837	180.197	321.186	315.064	178.628	184.001	315.844	295.772	181.249	184.311	186.599	190.037	296.927	187.027	-8191	255	
35184.086	1	1	0	0	0.13993	0.17948	0.32031	0.085637	0.21324	0.13832	0.27929	0.24785	0.27188	0.091537	0.02265	0.071466	0.2547	0.12967	0.11647	0.072602	-2.3312	-2.4125	-2.2542	-2.8979	-2.4271	-2.3792	-2.6688	-2.575	-2.5604	-2.3646	-2.3	-2.6708	-2.2917	-2.5	-2.5375	-2.2229	171.566	443.603	300.554	306.510	519.499	328.834	192.789	490.121	392.415	229.601	331.853	515.124	501.990	517.158	250.537	385.099	0.00060939	0.00040994	0.00017766	686.46	4.5358e-06	3.9979e-06	550.82	278.18	4.8377e-06	5.5276e-06	251.2	128.3	148.21	78.347	6.0514e-06	67.921	0.00048303	0.00028874	8.9871e-05	684.63	3.453e-06	3.2295e-06	550.65	279.32	3.4601e-06	3.4006e-06	250.78	128.51	149.64	78.996	4.0537e-06	68.184	234.865	246.433	260.024	180.162	320.255	293.635	178.604	184.154	314.316	314.007	181.707	184.616	186.459	190.117	306.577	187.070	-8191	255	
35184.184	1	1	0	0	0.11227	0.2432	0.11928	0.33375	0.43989	0.085372	0.15432	0.11849	0.041464	0.064512	0.12229	0.37152	0.10193	0.10869	0.17301	0.026134	-2.175	-2.4437	-2.3396	-2.6771	-2.4479	-2.1729	-2.8125	-2.3042	-2.55	-2.6104	-2.1813	-2.6479	-2.5833	-2.6	-2.6104	-2.2812	273.164	279.855	253.930	518.320	249.843	454.331	412.455	450.947	328.986	410.551	192.025	489.187	255.310	490.583	213.932	482.672	0.00062634	0.00040799	0.00017623	691.24	4.0887e-06	5.9759e-06	556.62	279.73	4.3131e-06	5.8579e-06	253.31	129.35	149.31	78.956	5.7803e-06	68.401	0.00049789	0.00030244	8.8865e-05	689.89	3.5342e-06	3.2239e-06	556.11	281.29	3.4497e-06	3.5029e-06	252.96	129.64	150.56	79.566	3.8735e-06	68.659	236.087	255.447	260.175	180.442	316.615	308.622	178.573	184.126	309.461	317.222	181.215	184.144	186.481	190.228	313.565	187.296	-8191	255	
35184.277	1	1	0	0	0.23279	0.17828	0.19687	0.081502	0.061173	0.10556	0.31068	0.20164	0.28022	0.23472	0.017311	0.1557	0.17335	0.20468	0.22103	0.41004	-2.1021	-2.5187	-2.1958	-2.8479	-2.5792	-2.1729	-2.7021	-2.5208	-2.5521	-2.475	-2.3354	-2.7438	-2.6729	-2.3771	-2.6708	-2.4292	236.329	500.981	199.458	197.507	427.747	353.997	231.989	506.783	203.658	208.145	208.782	509.954	192.893	222.132	203.466	420.361	0.00062149	0.00047673	0.00015085	691.69	4.4479e-06	5.7427e-06	557.26	280.15	4.3934e-06	4.794e-06	253.46	128.47	149.56	79.04	6.4678e-06	67.773	0.00048746	0.00030437	8.8122e-05	690.34	3.3965e-06	3.4598e-06	555.19	281.38	3.4256e-06	3.4279e-06	252.58	129.03	150.76	79.597	4.0094e-06	68.322	235.731	257.423	244.104	180.039	313.278	298.017	178.443	184.038	307.226	314.106	181.257	184.293	186.637	190.200	305.300	187.210	-8191	255	
35184.375	1	1	0	0	0.31785	0.052669	0.05924	0.18992	0.36178	0.24116	0.20191	0.29872	0.064806	0.24115	0.11721	0.13829	0.30432	0.1704	0.22207	0.071916	-2.1417	-2.5458	-2.0417	-2.625	-2.5229	-2.2417	-2.975	-2.2604	-2.4333	-2.7375	-2.3458	-2.5812	-2.5312	-2.4375	-2.8396	-2.4354	401.438	287.387	174.684	250.300	166.415	222.558	499.431	448.440	370.347	293.788	428.075	456.702	488.810	483.847	167.965	214.762	0.00064241	0.00053028	0.00012456	691.09	4.036e-06	4.9281e-06	555.7	280.49	4.2187e-06	4.2733e-06	252.25	128.46	149.64	78.733	5.7786e-06	67.886	0.00049676	0.00032164	8.693e-05	689.19	3.3991e-06	3.422e-06	553.73	280.63	3.2755e-06	3.3411e-06	251.66	129.1	150.39	79.454	3.9213e-06	68.376	235.616	245.438	261.577	180.176	334.498	304.760	178.520	184.025	299.027	307.640	181.588	184.063	186.536	190.389	309.770	187.110	-8191	255	
35184.445	1	1	0	0	0.23444	0.17497	0.10786	0.15239	0.19221	0.16663	0.22539	0.031734	0.21278	0.053302	0.2824	0.35491	0.16271	0.43882	0.11545	0.079699	-1.9125	-2.7958	-2.05	-2.7125	-2.5479	-2.2729	-2.6125	-2.4208	-2.4125	-2.6937	-2.2812	-2.6521	-2.7188	-2.2771	-2.6813	-2.4417	227.400	369.526	338.784	466.097	387.648	416.797	394.534	489.475	182.025	260.792	382.650	269.750	250.854	181.472	182.166	316.953	0.00061346	0.0004826	0.00017249	694.73	3.7934e-06	5.5559e-06	560.23	281.84	4.3835e-06	4.6949e-06	254.3	129.6	150.36	79.101	5.6764e-06	68.644	0.00049611	0.00032208	9.1837e-05	692.53	3.2978e-06	3.7817e-06	557.26	282.2	3.5893e-06	3.4657e-06	253.83	129.96	151.37	79.87	3.9679e-06	68.946	234.075	252.723	254.126	180.280	328.541	313.928	178.658	183.879	308.829	314.854	181.105	184.050	186.796	190.300	297.186	187.137	-8191	255	
35184.566	1	1	0	0	0.15974	0.11824	0.20255	0.22224	0.20905	0.28426	0.038987	0.22565	0.082113	0.11425	0.11935	0.071939	0.12913	0.15235	0.24042	0.14566	-1.6917	-2.6104	-2.2417	-2.4667	-2.5479	-2.2875	-2.6437	-2.4813	-2.2313	-2.6271	-2.3875	-2.4917	-2.65	-2.3646	-2.5292	-2.5917	202.147	234.156	493.198	514.252	314.094	310.512	454.001	446.229	354.307	423.855	275.289	520.044	486.185	467.676	221.750	471.965	0.00062699	0.00043226	0.00017898	696.36	4.5605e-06	4.23e-06	564.22	282.52	4.9349e-06	5.9212e-06	256.65	131.55	151.77	80.081	6.6711e-06	69.388	0.00051049	0.00030833	8.8447e-05	695.47	3.2414e-06	3.7798e-06	561.53	283.79	3.7552e-06	3.527e-06	257.02	131.71	152.59	80.765	3.9514e-06	69.833	234.867	256.748	263.853	180.343	320.189	318.922	178.590	184.092	311.285	324.992	181.408	184.236	186.618	190.287	317.437	187.093	-8191	255	
35184.664	1	1	0	0	0.057096	0.02419	0.13417	0.17392	0.16371	0.18133	0.095566	0.11708	0.19068	0.39332	0.010885	0.3487	0.23289	0.41909	0.19886	0.33523	-1.8188	-2.5646	-2.3083	-2.5292	-2.3958	-2.5187	-2.725	-2.6229	-2.2125	-2.7417	-2.4583	-2.3833	-2.6771	-2.4792	-2.6188	-2.6167	350.540	426.266	243.365	507.895	370.323	353.009	186.637	457.743	495.991	477.220	374.860	468.785	217.304	490.338	279.582	506.607	0.00067714	0.000597	0.00019356	707.06	4.6145e-06	6.5887e-06	569.02	284.98	4.3039e-06	5.4803e-06	258.04	131.07	151.09	79.668	4.827e-06	69.084	0.00052411	0.00033292	9.3695e-05	702.14	3.5374e-06	3.8145e-06	566.64	285.47	3.833e-06	3.4086e-06	257.03	131.34	152.13	80.426	3.8036e-06	69.403	235.708	259.594	255.854	180.187	324.137	310.517	178.569	183.932	313.071	306.630	181.261	184.316	186.611	190.344	305.561	187.048	-8191	255	
35184.758	1	1	0	0	0.16226	0.10129	0.13536	0.24352	0.17385	0.075988	0.22473	0.25482	0.18833	0.043945	0.3169	0.15698	0.042967	0.17253	0.37152	0.33432	-1.7542	-2.5542	-2.3958	-2.3271	-2.5146	-2.2687	-2.5625	-2.6854	-2.35	-2.4688	-2.4792	-2.55	-2.7979	-2.4792	-2.5479	-2.6688	169.602	360.904	492.794	231.449	356.342	191.164	433.486	461.521	357.006	251.599	487.137	422.179	258.815	518.814	336.240	361.066	0.00060863	0.00059	0.00015525	700.26	5.1271e-06	4.9738e-06	566.63	284.71	4.5053e-06	4.8014e-06	258.23	130.18	151.49	79.931	4.9452e-06	69.142	0.00051701	0.00030233	8.5351e-05	699.28	3.4952e-06	3.6529e-06	564.11	284.91	3.7837e-06	3.2778e-06	256.77	131.09	152.51	80.554	3.9332e-06	69.51	234.179	242.298	258.124	180.377	328.077	319.319	178.589	184.070	324.695	306.355	181.218	184.420	186.815	190.406	297.328	187.086	-8191	255	
35184.855	1	1	0	0	0.10014	0.089062	0.020591	0.14872	0.17218	0.04085	0.12995	0.24184	0.17452	0.1455	0.092308	0.02457	0.19577	0.26282	0.22	0.34103	-1.8208	-2.6146	-2.4708	-2.3771	-2.6937	-2.3229	-2.5187	-2.6208	-2.1771	-2.6521	-2.4875	-2.2062	-2.5854	-2.5604	-2.3854	-2.7438	325.633	499.065	322.444	475.092	391.597	475.754	310.511	445.170	488.288	425.685	487.612	488.112	456.402	517.143	322.603	487.995	0.00062732	0.00071476	0.00018722	701.09	4.5511e-06	3.952e-06	567.43	283.61	5.1355e-06	5.9197e-06	258.24	130.65	152.07	79.999	5.2628e-06	69.318	0.00052223	0.0003047	8.7564e-05	699.38	3.4519e-06	3.5836e-06	564.38	284.45	3.7377e-06	3.3274e-06	257.51	131.49	152.84	80.653	4.0679e-06	69.668	234.601	249.475	262.969	180.273	324.147	293.323	178.594	184.147	322.401	300.171	181.430	184.326	186.451	190.115	287.901	186.961	-8191	255	
35184.973	1	1	0	0	0.28385	0.24134	0.22395	0.14301	0.20093	0.2006	0.10157	0.17651	0.14509	0.10919	0.19329	0.26567	0.17893	0.23197	0.095151	0.1032	-1.7729	-2.3729	-2.6792	-2.3729	-2.7	-2.45	-2.6125	-2.8729	-2.2583	-2.6042	-2.5979	-2.2854	-2.7792	-2.5854	-2.3792	-2.8979	338.242	357.185	181.587	190.099	234.125	516.145	497.345	447.689	504.751	427.778	210.776	462.750	458.263	508.289	417.448	292.122	0.00066554	0.00052745	0.00016833	706.16	4.6689e-06	5.246e-06	570.58	284.6	4.0649e-06	4.7214e-06	259.46	132.36	152.78	80.732	5.5679e-06	70.113	0.00053819	0.00032268	9.4407e-05	701.77	3.2963e-06	3.6795e-06	567.67	285.79	3.6408e-06	3.1359e-06	259.02	132.94	153.68	81.417	4.1975e-06	70.668	235.138	258.027	258.210	180.217	329.725	314.565	178.438	184.149	316.611	301.557	181.526	184.425	186.669	190.250	310.795	187.343	-8191	255	
35185.070	1	1	0	0	0.13661	0.11485	0.083567	0.11727	0.12233	0.1264	0.22456	0.10963	0.21183	0.3045	0.045526	0.16845	0.22695	0.2437	0.073513	0.11038	-1.8854	-2.4083	-2.4333	-2.4021	-2.5812	-2.5187	-2.5312	-2.7854	-2.2062	-2.4521	-2.6854	-2.4042	-2.5667	-2.7333	-2.1167	-2.8167	241.726	297.924	464.981	474.793	238.460	178.033	208.036	383.369	480.888	276.770	330.676	477.356	417.953	212.910	391.341	357.934	0.00066647	0.00048873	0.00017065	709.48	3.7152e-06	4.3688e-06	575.69	287.14	4.585e-06	4.9094e-06	261.12	133.32	153.85	81.25	7.2319e-06	70.316	0.00054676	0.00031702	9.3773e-05	707.24	3.3179e-06	3.6956e-06	573.19	288.06	3.6364e-06	3.3485e-06	261.71	133.91	154.78	82.052	4.3907e-06	70.86	235.721	256.046	253.085	180.241	319.978	309.823	178.798	184.053	316.891	312.241	181.288	184.340	186.794	190.263	299.022	187.309	-8191	255	
35185.164	1	1	0	0	0.021491	0.14912	0.097777	0.4161	0.046181	0.098868	0.23706	0.45631	0.12795	0.093862	0.12469	0.22506	0.18729	0.20333	0.14143	0.16089	-1.9896	-2.3708	-2.5458	-2.4188	-2.6875	-2.5292	-2.3271	-2.6958	-2.2938	-2.3396	-2.7313	-2.2062	-2.6917	-2.7438	-2.2146	-2.6271	290.515	311.100	212.129	409.301	324.770	210.987	444.641	469.971	237.392	361.661	452.484	170.073	203.988	499.807	253.314	402.007	0.00065229	0.00054299	0.00015116	709.29	5.0658e-06	5.3246e-06	572.86	288	4.111e-06	4.4088e-06	257.92	131.84	153.11	80.77	6.1021e-06	69.788	0.00052245	0.00033088	9.5723e-05	704.87	3.282e-06	3.661e-06	569.93	287.87	3.4885e-06	3.3343e-06	259.02	132.75	154.05	81.512	4.3429e-06	70.408	234.702	240.157	267.028	180.144	327.600	310.279	178.764	183.766	307.532	309.396	181.472	184.284	186.698	190.245	307.775	187.147	-8191	255	
35185.262	1	1	0	0	0.31178	0.10146	0.32095	0.22595	0.18669	0.11021	0.22737	0.25291	0.14837	0.10907	0.092826	0.23421	0.3459	0.30338	0.18098	0.28987	-1.9708	-2.5021	-2.5708	-2.2479	-2.5187	-2.5687	-2.4875	-2.7375	-2.4208	-2.5312	-2.9208	-2.3583	-2.5625	-2.7042	-2.2292	-2.6083	493.828	290.422	357.663	458.752	191.365	473.151	193.413	506.255	229.090	401.069	205.587	443.319	178.871	179.495	239.729	476.730	0.00065775	0.00049178	0.000172	704.72	4.2073e-06	5.1169e-06	567.56	286.41	4.3862e-06	5.7841e-06	257.41	131.96	153.1	81.013	6.3014e-06	69.864	0.00053043	0.00032147	9.2797e-05	701.99	3.0936e-06	3.5489e-06	567.29	287.05	3.5274e-06	3.6684e-06	258.45	132.61	153.76	81.506	4.2628e-06	70.316	235.474	250.967	272.187	180.204	329.171	312.610	178.527	184.055	300.216	312.459	181.240	184.448	186.486	190.322	312.559	186.958	-8191	255	
35185.359	1	1	0	0	0.11416	0.06097	0.063301	0.17399	0.071772	0.23009	0.13593	0.087026	0.27271	0.36759	0.029622	0.074547	0.16877	0.19566	0.076113	0.14792	-1.9604	-2.2083	-2.6	-2.3458	-2.3729	-2.3875	-2.2354	-2.7646	-2.3458	-2.2854	-2.6771	-2.3354	-2.4062	-2.8083	-2.0271	-2.6458	489.457	343.309	277.561	197.778	319.243	482.925	523.589	470.606	459.711	495.929	344.415	415.804	417.590	514.493	338.948	187.289	0.0006564	0.00059941	0.00014671	707.37	4.5582e-06	4.8876e-06	574.11	287.53	4.6312e-06	5.8457e-06	260.63	133.22	153.8	81.238	5.2302e-06	70.603	0.00052956	0.00034293	9.0305e-05	705.22	3.3237e-06	3.5316e-06	572.14	288.06	3.6172e-06	3.5208e-06	260.74	133.56	154.48	81.903	4.1639e-06	71.07	236.490	251.840	258.511	179.933	313.106	313.141	178.540	183.989	308.901	311.914	181.295	184.340	186.760	190.206	296.601	187.078	-8191	255	
35185.453	1	1	0	0	0.16276	0.19458	0.22362	0.25504	0.17009	0.1542	0.46993	0.21753	0.18008	0.093243	0.12126	0.22509	0.16941	0.066576	0.25628	0.17053	-2.1271	-2.1104	-2.6813	-2.5062	-2.3396	-2.6063	-2.1875	-2.5187	-2.5729	-2.2896	-2.4938	-2.5708	-2.2896	-2.775	-2.0979	-2.7375	293.594	203.800	378.268	176.446	289.695	329.974	486.345	377.269	253.014	221.570	168.185	490.329	513.186	412.388	350.476	520.783	0.0006653	0.00054971	0.0001426	712.57	4.1641e-06	6.284e-06	577.23	288.84	4.8397e-06	5.1797e-06	261.34	133.55	154.2	81.783	6.4448e-06	71.321	0.00053996	0.00033853	8.5536e-05	709.57	3.3854e-06	3.5458e-06	577.6	289.43	3.7372e-06	3.465e-06	262.06	134.33	155.2	82.389	4.0156e-06	71.698	235.021	244.248	259.275	180.049	312.648	301.916	178.647	184.208	308.300	309.704	181.390	184.355	186.719	190.257	306.619	187.231	-8191	255	
35185.574	1	1	0	0	0.13021	0.10968	0.12323	0.19743	0.075182	0.086112	0.14712	0.27414	0.072251	0.084143	0.25039	0.12856	0.01936	0.3937	0.080682	0.3182	-2.2979	-2.2292	-2.5042	-2.5792	-2.2771	-2.5646	-2.5042	-2.5021	-2.3708	-2.2125	-2.4938	-2.7271	-2.6208	-2.7812	-2.3021	-2.6688	502.072	349.669	340.623	476.547	280.245	320.059	513.441	186.934	277.111	477.915	187.493	172.057	373.985	168.140	402.597	236.431	0.00065978	0.00055003	0.00014357	715.75	5.152e-06	5.201e-06	576.96	288.98	4.0796e-06	5.412e-06	262.63	133.63	154.96	82.198	5.3037e-06	70.672	0.0005231	0.00036713	8.8679e-05	713.19	3.5501e-06	3.5062e-06	577.1	290.53	3.8615e-06	3.6721e-06	262.72	134.51	155.78	82.748	4.106e-06	71.267	235.251	236.401	250.855	180.053	328.754	312.893	178.555	184.073	308.368	302.687	181.385	184.221	186.816	190.447	305.933	187.046	-8191	255	
#DATA ENDS
