BOXY.EXE: ISS Imagent and Oximeter Data Acquisition Program Version 0.80
Ascii Record File

#ACQ INFORMATION
2  Detector Channels 
16  External MUX Channels 
1  Auxiliary Channels 
5000  Waveform (CCF) Frequency (Hz)
1  Waveforms Skipped 
30  Waveforms Averaged 
1  Cycles Averaged 
16  Acquisitions per Waveform 
10.0806  Updata Rate (Hz) 

#FILE INFORMATION
TRUE -- External MUX Channel results are PARSED.
FALSE -- AC DC and Phase are NOT grouped.
TRUE -- Companion Program Settings File CREATED.
FALSE -- AC data not excluded
FALSE -- DC data not excluded
FALSE -- Phase data not excluded
FALSE -- Auxillary Chn. data not excluded
Tab delimiters

#CALIBRATION STATE
TRUE -- Waveform Calibration Values APPLIED.


#AUX CALIBRATION VALUES
Val Type	aux-1	

Term	1.0000e+00	
Factor	0.0000e+00	


#WF CALIBRATION VALUES
A = Detector Channel
Val Type	A-AC1	A-AC2	A-AC3	A-AC4	A-AC5	A-AC6	A-AC7	A-AC8	A-AC9	A-AC10	A-AC11	A-AC12	A-AC13	A-AC14	A-AC15	A-AC16	A-DC1	A-DC2	A-DC3	A-DC4	A-DC5	A-DC6	A-DC7	A-DC8	A-DC9	A-DC10	A-DC11	A-DC12	A-DC13	A-DC14	A-DC15	A-DC16	A-Ph1	A-Ph2	A-Ph3	A-Ph4	A-Ph5	A-Ph6	A-Ph7	A-Ph8	A-Ph9	A-Ph10	A-Ph11	A-Ph12	A-Ph13	A-Ph14	A-Ph15	A-Ph16	

Term	0.00000e+00	0.00000e+00	0.00000e+00	0.00000e+00	0.00000e+00	0.00000e+00	0.00000e+00	0.00000e+00	0.00000e+00	0.00000e+00	0.00000e+00	0.00000e+00	0.00000e+00	0.00000e+00	0.00000e+00	0.00000e+00	0.00000e+00	0.00000e+00	0.00000e+00	0.00000e+00	0.00000e+00	0.00000e+00	0.00000e+00	0.00000e+00	0.00000e+00	0.00000e+00	0.00000e+00	0.00000e+00	0.00000e+00	0.00000e+00	0.00000e+00	0.00000e+00	0.00000e+00	0.00000e+00	0.00000e+00	0.00000e+00	0.00000e+00	0.00000e+00	0.00000e+00	0.00000e+00	0.00000e+00	0.00000e+00	0.00000e+00	0.00000e+00	0.00000e+00	0.00000e+00	0.00000e+00	0.00000e+00	
Factor	1.00000e+00	1.00000e+00	1.00000e+00	1.00000e+00	1.00000e+00	1.00000e+00	1.00000e+00	1.00000e+00	1.00000e+00	1.00000e+00	1.00000e+00	1.00000e+00	1.00000e+00	1.00000e+00	1.00000e+00	1.00000e+00	1.00000e+00	1.00000e+00	1.00000e+00	1.00000e+00	1.00000e+00	1.00000e+00	1.00000e+00	1.00000e+00	1.00000e+00	1.00000e+00	1.00000e+00	1.00000e+00	1.00000e+00	1.00000e+00	1.00000e+00	1.00000e+00	X	X	X	X	X	X	X	X	X	X	X	X	X	X	X	X	

B = Detector Channel
Val Type	B-AC1	B-AC2	B-AC3	B-AC4	B-AC5	B-AC6	B-AC7	B-AC8	B-AC9	B-AC10	B-AC11	B-AC12	B-AC13	B-AC14	B-AC15	B-AC16	B-DC1	B-DC2	B-DC3	B-DC4	B-DC5	B-DC6	B-DC7	B-DC8	B-DC9	B-DC10	B-DC11	B-DC12	B-DC13	B-DC14	B-DC15	B-DC16	B-Ph1	B-Ph2	B-Ph3	B-Ph4	B-Ph5	B-Ph6	B-Ph7	B-Ph8	B-Ph9	B-Ph10	B-Ph11	B-Ph12	B-Ph13	B-Ph14	B-Ph15	B-Ph16	

Term	0.00000e+00	0.00000e+00	0.00000e+00	0.00000e+00	0.00000e+00	0.00000e+00	0.00000e+00	0.00000e+00	0.00000e+00	0.00000e+00	0.00000e+00	0.00000e+00	0.00000e+00	0.00000e+00	0.00000e+00	0.00000e+00	0.00000e+00	0.00000e+00	0.00000e+00	0.00000e+00	0.00000e+00	0.00000e+00	0.00000e+00	0.00000e+00	0.00000e+00	0.00000e+00	0.00000e+00	0.00000e+00	0.00000e+00	0.00000e+00	0.00000e+00	0.00000e+00	-1.74148e+02	-1.27087e+02	-1.30125e+02	-1.81316e+02	-8.55190e+01	-6.66878e+01	-1.57075e+02	-1.62015e+02	-8.14386e+01	-6.69092e+01	-1.71893e+02	-1.70622e+02	-1.79843e+02	-1.76980e+02	-7.36244e+01	-1.49926e+02	
Factor	3.06324e-05	1.62235e-04	4.72445e-05	1.48920e-01	1.49831e-06	1.76165e-06	1.72106e-01	6.28372e-02	1.68338e-06	1.86821e-06	8.65051e-02	2.99025e-02	3.08083e-02	9.61349e-03	1.55958e-06	1.36815e-02	1.62461e-05	2.79970e-05	7.84780e-06	7.48325e-02	2.67660e-07	3.17064e-07	8.15900e-02	3.16269e-02	2.77634e-07	3.15248e-07	4.25007e-02	1.47081e-02	1.57617e-02	4.89367e-03	2.89544e-07	6.76532e-03	X	X	X	X	X	X	X	X	X	X	X	X	X	X	X	X	



#DISTANCE SETTINGS
A = Detector Channel
A-1	A-2	A-3	A-4	A-5	A-6	A-7	A-8	A-9	A-10	A-11	A-12	A-13	A-14	A-15	A-16	

2.5000e+00	3.0000e+00	2.5000e+00	3.0000e+00	2.0000e+00	3.0000e+00	1.5000e+00	3.0000e+00	3.0000e+00	3.0000e+00	3.0000e+00	3.0000e+00	3.0000e+00	3.0000e+00	1.5000e+00	3.0000e+00	

B = Detector Channel
B-1	B-2	B-3	B-4	B-5	B-6	B-7	B-8	B-9	B-10	B-11	B-12	B-13	B-14	B-15	B-16	

1.0000e+01	1.0000e+01	1.0000e+01	1.4400e+00	1.0000e+01	1.0000e+01	1.5100e+00	1.9400e+00	1.0000e+01	1.0000e+01	1.9900e+00	2.4900e+00	2.4100e+00	2.9000e+00	1.0000e+01	2.9800e+00	




#DATA BEGINS
time	group	step	mark	flag	A-AC1	A-AC2	A-AC3	A-AC4	A-AC5	A-AC6	A-AC7	A-AC8	A-AC9	A-AC10	A-AC11	A-AC12	A-AC13	A-AC14	A-AC15	A-AC16	A-DC1	A-DC2	A-DC3	A-DC4	A-DC5	A-DC6	A-DC7	A-DC8	A-DC9	A-DC10	A-DC11	A-DC12	A-DC13	A-DC14	A-DC15	A-DC16	A-Ph1	A-Ph2	A-Ph3	A-Ph4	A-Ph5	A-Ph6	A-Ph7	A-Ph8	A-Ph9	A-Ph10	A-Ph11	A-Ph12	A-Ph13	A-Ph14	A-Ph15	A-Ph16	B-AC1	B-AC2	B-AC3	B-AC4	B-AC5	B-AC6	B-AC7	B-AC8	B-AC9	B-AC10	B-AC11	B-AC12	B-AC13	B-AC14	B-AC15	B-AC16	B-DC1	B-DC2	B-DC3	B-DC4	B-DC5	B-DC6	B-DC7	B-DC8	B-DC9	B-DC10	B-DC11	B-DC12	B-DC13	B-DC14	B-DC15	B-DC16	B-Ph1	B-Ph2	B-Ph3	B-Ph4	B-Ph5	B-Ph6	B-Ph7	B-Ph8	B-Ph9	B-Ph10	B-Ph11	B-Ph12	B-Ph13	B-Ph14	B-Ph15	B-Ph16	aux-1	digaux	

28278.701	1	1	0	512	0.26245	0.093549	0.26186	0.22349	0.13497	0.32122	0.10499	0.19733	0.27262	0.11073	0.12747	0.27304	0.12564	0.23433	0.13247	0.19536	-1.8	-2.1417	-1.8875	-2.5625	-1.9896	-2.0646	-2.625	-2.0646	-1.9833	-2.1792	-2.0687	-2.375	-2.0771	-1.8958	-2.4938	-1.8479	418.423	173.498	193.497	388.180	405.529	355.737	457.343	208.202	325.448	437.937	494.509	250.860	440.122	527.060	349.608	519.967	0.00069486	0.00032417	0.00010115	970.18	4.7949e-06	4.3215e-06	897.01	345.36	5.9669e-06	5.4654e-06	368.09	120.23	115.78	38.666	3.9728e-06	43.361	0.0003369	0.00014669	0.0003104	907.51	1.9718e-06	1.7029e-06	838.76	323.43	2.0441e-06	1.4515e-06	344.41	113.15	109.09	36.805	1.8103e-06	41.361	512.480	264.321	189.288	181.757	292.036	321.111	180.274	185.951	283.406	305.855	184.002	187.589	189.108	193.848	295.595	191.895	-8191	255	
28278.773	1	1	0	0	0.04411	0.12652	0.14949	0.36268	0.092157	0.18439	0.26366	0.25862	0.1907	0.24205	0.25388	0.099838	0.098849	0.18454	0.28136	0.45842	-1.7917	-2.3479	-1.8021	-2.3625	-2.0896	-1.8917	-2.4521	-2.0146	-2.0979	-2.3729	-2.0542	-2.3354	-2.2583	-2.1042	-2.3812	-2.2833	406.206	186.356	216.988	173.274	179.911	478.262	489.068	527.531	253.241	413.606	467.439	423.317	368.661	476.844	419.708	493.759	0.00071769	0.00049954	0.00010353	972.27	3.5483e-06	5.4947e-06	894.73	344.91	4.9455e-06	4.2399e-06	364.35	119.53	114.08	38.436	4.4095e-06	42.928	0.00035027	0.00013258	0.00017519	908.78	1.9154e-06	1.6355e-06	835.91	323.76	2.0169e-06	1.374e-06	342.25	112.25	107.85	36.697	1.7535e-06	40.975	513.524	258.650	218.373	181.486	296.293	318.584	180.103	186.004	285.373	319.116	184.010	187.261	189.078	194.362	299.661	191.803	-8191	255	
28278.895	1	1	0	0	0.18778	0.042524	0.12598	0.025153	0.32719	0.075294	0.070887	0.096855	0.14362	0.13535	0.046012	0.1295	0.15983	0.082221	0.073727	0.31031	-1.5938	-2.5104	-2.0229	-2.3458	-2.0854	-1.9604	-2.4604	-2.275	-2.0958	-2.2375	-2.0917	-2.2229	-2.2708	-2.0125	-2.2896	-2.0667	309.629	335.989	436.065	489.884	237.885	502.242	384.144	415.544	446.677	222.326	497.754	417.276	463.256	208.240	397.985	472.777	0.00070206	0.00041182	9.9103e-05	970.19	5.2227e-06	5.3932e-06	895.97	342.5	6.2088e-06	3.7895e-06	363.78	119.07	113.59	38.543	4.2572e-06	43.153	0.00034513	0.00013806	0.00032047	906.39	1.892e-06	1.8727e-06	835.98	321.43	2.1447e-06	1.4672e-06	340.36	112.07	107.4	36.764	1.8181e-06	40.995	512.000	272.598	201.304	181.645	274.861	311.377	180.284	185.880	292.519	315.300	184.381	187.607	189.243	194.054	307.853	191.630	-8191	255	
28278.990	1	1	0	0	0.13659	0.43557	0.41677	0.19357	0.19723	0.19504	0.19459	0.23934	0.11554	0.18016	0.090035	0.20164	0.15149	0.26716	0.22029	0.12466	-1.5063	-2.4646	-1.9688	-2.2125	-2.4625	-1.8396	-2.2062	-2.3375	-1.9583	-2.2958	-1.9438	-2.1375	-2.3792	-1.9417	-2.4396	-2.1917	258.564	455.620	202.739	494.940	456.493	337.098	468.774	478.150	439.275	450.317	200.914	452.998	255.421	445.792	322.552	427.115	0.00069607	0.00038231	9.1433e-05	970.74	5.118e-06	4.3238e-06	893.29	341.33	5.482e-06	3.8308e-06	364.69	120.1	114.89	38.511	4.4668e-06	43.669	0.00035088	0.00013783	0.00016946	905.53	1.7911e-06	1.7716e-06	835.16	321.54	2.1216e-06	1.3799e-06	341.69	112.43	107.67	36.62	1.7759e-06	41.243	511.999	243.456	213.700	181.225	298.658	316.474	179.894	186.036	293.049	318.872	184.377	187.619	189.355	194.126	297.023	191.888	-8191	255	
28279.086	1	1	0	0	0.12904	0.14997	0.12544	0.21255	0.20455	0.1514	0.062569	0.23044	0.21016	0.08046	0.17653	0.16076	0.075076	0.043314	0.1775	0.16196	-1.4562	-2.2979	-2.0229	-2.3125	-2.4958	-1.875	-2.3479	-2.2396	-1.7167	-2.3125	-2.0917	-2.0312	-2.275	-1.7979	-2.3917	-2.3104	436.807	401.753	190.574	276.415	381.354	236.081	279.635	470.029	499.133	248.518	455.181	198.955	268.985	173.541	438.534	488.097	0.00066616	0.00043062	0.0001439	970.38	4.7211e-06	4.455e-06	898.31	343.22	7.5023e-06	4.3885e-06	366.09	119.78	114.48	38.726	4.4095e-06	43.668	0.00033877	0.00014098	0.0003155	906.69	1.7783e-06	1.6553e-06	838.49	321.77	4.4132e-06	1.5513e-06	343.77	112.65	107.96	36.91	1.9086e-06	41.419	511.985	247.190	524.044	181.637	281.083	318.687	180.180	185.834	286.245	323.490	184.095	187.109	189.525	194.329	308.385	191.786	-8191	255	
28279.184	1	1	0	0	0.24687	0.13288	0.20794	0.18566	0.074288	0.25477	0.067505	0.25588	0.046653	0.11507	0.16264	0.19762	0.18865	0.20612	0.085465	0.24335	-1.3	-2.2125	-2.1437	-2.1312	-2.4708	-1.9917	-2.2167	-2.2146	-1.9562	-2.3563	-2.3333	-1.9646	-2.5521	-2.1229	-2.2625	-2.3187	403.429	236.001	331.268	518.605	211.260	433.300	345.729	396.672	389.321	439.384	380.831	482.031	449.953	315.282	510.006	420.861	0.00066922	0.00044559	0.00016641	970.68	4.0513e-06	3.9495e-06	891.7	343.35	9.5312e-06	4.9144e-06	364.93	119.89	115.37	38.52	5.0139e-06	43.189	0.00033907	0.00013899	0.00017169	907.89	1.8117e-06	1.724e-06	838.27	321.82	1.1427e-05	1.6196e-06	342.22	112.47	107.99	36.734	2.0166e-06	41.127	512.061	269.237	198.946	181.658	286.854	311.274	179.854	185.840	298.512	315.557	183.886	187.531	189.465	194.008	302.915	191.503	-8191	255	
28279.301	1	1	0	0	0.1225	0.36306	0.047073	0.49088	0.37937	0.40116	0.18993	0.19798	0.22537	0.22505	0.052988	0.1408	0.3773	0.18101	0.17436	0.19479	-1.4813	-2.4229	-2.0354	-1.9604	-2.4396	-1.9	-2.1063	-2.5229	-1.9813	-2.3021	-2.3812	-1.8396	-2.4958	-2.0479	-2.0563	-2.2021	455.719	441.571	349.378	184.328	216.433	305.658	203.901	416.909	507.844	421.720	465.875	501.140	512.832	517.079	194.306	484.981	0.00067474	0.00047315	0.00017005	968.4	3.6302e-06	4.5924e-06	893.99	341.76	7.1403e-06	4.8235e-06	363.18	119.14	114.28	38.601	5.506e-06	43.068	0.00034621	0.00013684	0.00029065	904.73	1.8195e-06	1.7254e-06	836.57	320.96	6.6482e-06	1.4377e-06	341.45	112.05	107.41	36.796	1.9888e-06	41.135	512.562	255.078	255.316	181.477	294.683	319.282	180.257	185.835	293.401	315.072	183.669	187.545	189.152	193.645	311.183	191.700	-8191	255	
28279.398	1	1	0	0	0.086451	0.15293	0.26376	0.47671	0.32251	0.15065	0.40496	0.2381	0.21239	0.2505	0.095405	0.14889	0.26218	0.2032	0.13934	0.098899	-1.5833	-2.0396	-2.0542	-2.0687	-2.1604	-1.9417	-2.175	-2.2979	-2.0396	-2.1896	-2.175	-2.0417	-2.2188	-2.1521	-1.9771	-2.3917	379.648	279.274	487.730	474.742	356.003	430.226	399.283	174.463	430.162	273.174	419.197	451.265	480.856	259.739	455.812	323.749	0.00067387	0.00042064	0.00012752	965	3.7995e-06	4.779e-06	894.63	342.56	1.0405e-05	6.1382e-06	365.1	119.78	114.81	38.626	3.6103e-06	43.198	0.00035119	0.00014401	7.9949e-05	904.4	1.8725e-06	1.7696e-06	835.83	320.85	1.1843e-05	1.6156e-06	342.83	112.48	107.62	36.657	1.943e-06	41.19	512.696	255.644	247.331	181.678	290.085	328.485	180.162	185.833	289.416	314.700	184.181	187.446	189.169	193.837	302.606	192.007	-8191	255	
28279.469	1	1	0	0	0.13873	0.1957	0.37741	0.24447	0.1327	0.10594	0.088511	0.22305	0.10796	0.18879	0.34615	0.26764	0.14393	0.18947	0.42289	0.15892	-1.4125	-2.0563	-2.0896	-1.8229	-2.275	-2.1562	-2.1312	-2.1937	-2.0542	-2.2687	-2.3604	-1.9104	-2.2667	-2.1104	-1.8771	-2.4083	505.273	329.922	184.404	169.743	240.106	264.540	496.302	452.025	431.594	401.352	209.072	391.086	195.607	487.168	433.044	221.510	0.00070337	0.0004193	0.00013116	969.69	3.7743e-06	4.1614e-06	895.41	342.54	5.8286e-06	4.8892e-06	366.25	119.96	114.43	38.399	3.87e-06	43.38	0.00035447	0.00014681	3.677e-05	911.26	1.8396e-06	1.4559e-06	837.12	321.36	6.879e-06	1.5355e-06	342.77	112.82	107.56	36.651	1.9997e-06	41.225	511.686	251.395	252.586	181.811	283.085	315.236	180.141	186.071	295.696	316.484	184.219	187.726	189.705	194.017	300.840	191.849	-8191	255	
28279.590	1	1	0	0	0.057113	0.17248	0.10322	0.055109	0.12155	0.16592	0.24014	0.13829	0.18227	0.13958	0.092148	0.3695	0.18385	0.12538	0.20406	0.17422	-1.4375	-1.9458	-2.3729	-2.2042	-2.3333	-2.0938	-2.0167	-2.4062	-2.0271	-1.8396	-2.4417	-1.9021	-2.0812	-2.3167	-1.7458	-2.3375	465.609	464.981	286.112	215.823	209.381	525.198	471.687	279.334	205.491	423.418	479.277	502.702	180.585	335.702	474.871	421.003	0.00067353	0.00041332	0.00011629	972.26	3.3196e-06	5.1371e-06	900.86	342.15	8.8936e-06	5.74e-06	365.42	120.5	114.63	38.461	3.6064e-06	43.004	0.00033562	0.00014273	3.834e-05	910.51	1.795e-06	1.7174e-06	839.93	321.04	1.1381e-05	1.4758e-06	343.27	113.01	107.61	36.512	4.6436e-06	40.944	514.148	260.562	248.395	181.419	283.044	320.468	180.141	185.781	327.593	313.207	184.033	187.323	189.440	194.020	279.826	191.727	-8191	255	
28279.686	1	1	0	0	0.11411	0.23223	0.038745	0.061789	0.3011	0.20166	0.15343	0.040003	0.17393	0.28895	0.31048	0.50193	0.090368	0.10729	0.24362	0.2426	-1.5396	-1.85	-2.3521	-2.0021	-2.2812	-2.1125	-1.9396	-2.4104	-1.975	-2.0187	-2.3083	-2.0583	-2.0729	-2.2438	-1.8167	-2.3604	217.248	350.004	425.256	430.694	448.476	228.714	193.533	346.196	373.858	512.907	480.891	490.909	433.262	448.692	325.126	354.631	0.00066768	0.00039652	0.00012887	970.4	4.0812e-06	4.3754e-06	894.86	342.59	7.2027e-06	4.6703e-06	364.87	120.15	113.69	38.621	1.2842e-06	43.174	0.00033789	0.00015171	3.762e-05	908.36	1.7387e-06	1.5179e-06	836.91	321.51	6.706e-06	1.5631e-06	342.1	112.43	107.33	36.506	1.2111e-05	40.961	512.246	262.779	262.748	181.377	279.128	322.686	180.317	186.133	307.689	337.114	184.079	187.661	189.251	193.894	453.892	192.145	-8191	255	
28279.781	1	1	0	0	0.11605	0.13001	0.1564	0.071491	0.045127	0.1112	0.15585	0.012376	0.25314	0.28857	0.071479	0.061782	0.076223	0.18892	0.20143	0.27395	-1.6313	-1.9792	-2.4229	-2.1562	-2.125	-2.3812	-2.0708	-2.3063	-2.1833	-2.0708	-2.3812	-2.0771	-2.0854	-2.3688	-1.8813	-2.2833	229.236	422.286	470.491	199.020	490.555	477.001	373.438	186.083	428.955	356.543	252.721	438.188	221.072	380.707	177.710	502.526	0.00068433	0.00052399	0.00011389	970.68	4.8143e-06	4.1694e-06	900.29	342.58	8.3488e-06	5.331e-06	366.3	119.56	114.47	38.29	3.5797e-06	43.11	0.00033518	0.00016157	3.7277e-05	907.94	1.9416e-06	1.401e-06	839.03	320.9	1.0013e-05	1.6137e-06	342.79	112.18	107.35	36.445	6.724e-06	40.983	513.306	259.984	246.515	181.476	283.140	312.997	180.428	185.901	323.261	309.990	184.138	187.502	189.322	193.950	286.754	191.849	-8191	255	
28279.879	1	1	0	0	0.096863	0.070707	0.4878	0.01409	0.058444	0.10911	0.030829	0.25169	0.21487	0.011228	0.30977	0.26095	0.20494	0.10451	0.016024	0.47517	-1.6271	-2.0938	-2.4625	-2.3	-1.8979	-2.1813	-1.9083	-2.4292	-2.2188	-1.9833	-2.4229	-2.1521	-2.1354	-2.4146	-1.9479	-2.225	478.892	242.715	382.882	392.683	486.121	341.746	325.160	462.299	455.409	439.975	501.187	497.381	513.202	416.443	499.752	451.723	0.00070303	0.00047275	0.00013392	966.07	5.2473e-06	4.7785e-06	893.57	342.82	7.1815e-06	6.8112e-06	367.31	120.58	114.13	38.298	1.1051e-06	42.932	0.0003434	0.00015801	3.6754e-05	909.79	1.9283e-06	1.5312e-06	837.62	321.46	3.0598e-06	5.0118e-06	343.41	112.96	107.23	36.411	1.2015e-05	40.949	512.491	251.615	260.334	181.454	287.485	315.381	180.134	185.728	300.616	312.330	184.248	187.928	189.272	194.074	263.692	191.612	-8191	255	
28279.996	1	1	0	0	0.36721	0.10386	0.14094	0.0599	0.23435	0.27014	0.33448	0.30394	0.081317	0.15501	0.1592	0.14961	0.33385	0.23471	0.14686	0.24918	-1.9813	-2.0979	-2.3208	-2.1937	-2.2854	-2.5375	-2.0958	-2.1937	-2.1542	-1.8625	-2.325	-2.2958	-1.925	-2.4458	-2.0771	-2.1146	382.692	295.456	391.539	517.437	254.264	410.189	192.716	492.691	523.537	476.341	502.720	435.336	169.856	466.017	521.237	404.862	0.00070809	0.00050078	0.00015996	971.46	4.7751e-06	4.7379e-06	902.99	346.09	5.2135e-06	7.1636e-06	366.43	119.86	114.92	38.541	2.931e-06	43.169	0.00034083	0.00015206	4.1119e-05	910.37	2.0961e-06	1.4479e-06	842.97	323.74	1.9712e-06	1.2546e-05	345.05	113.01	108.02	36.425	6.7228e-06	40.994	513.127	255.594	262.356	181.232	282.915	322.944	180.157	186.020	273.214	359.843	183.905	187.534	189.298	193.995	309.274	191.585	-8191	255	
28280.070	1	1	0	0	0.17169	0.17829	0.19676	0.13518	0.30706	0.11515	0.35516	0.053749	0.1137	0.36206	0.038255	0.32061	0.18413	0.092535	0.18146	0.032993	-1.6812	-1.9083	-2.1312	-2.1104	-1.9062	-2.1833	-1.9312	-2.1312	-2.2708	-1.975	-2.1625	-2.2333	-1.7812	-2.4938	-2.0042	-1.9833	314.706	431.923	479.446	183.123	410.401	202.936	483.895	233.859	278.116	287.570	215.830	480.258	485.724	486.244	362.911	361.872	0.00066093	0.00060318	0.00014365	980.31	7.346e-06	5.2859e-06	901.48	345.37	6.2188e-06	6.1824e-06	367.35	119.6	114.98	38.169	3.2225e-06	42.727	0.00033173	0.00016775	4.004e-05	916.9	2.7357e-06	1.4308e-06	841.14	324.63	2.0609e-06	6.7463e-06	344.58	112.33	108.12	36.342	1.2322e-05	40.499	513.493	258.677	250.682	181.336	260.688	305.075	179.930	185.753	286.718	351.790	183.821	187.466	189.432	194.117	174.242	191.708	-8191	255	
28280.168	1	1	0	0	0.2632	0.19348	0.26854	0.30555	0.19201	0.16796	0.22858	0.31959	0.29038	0.04218	0.2047	0.11766	0.14567	0.21391	0.036848	0.10169	-1.7729	-1.7958	-2.2271	-2.3375	-1.9021	-2.1646	-1.9042	-1.9562	-2.2812	-1.9438	-2.1375	-2.3333	-1.825	-2.2917	-2.2917	-2.0021	338.692	510.373	389.569	498.558	257.693	302.269	221.142	508.262	455.378	248.444	505.546	481.888	257.193	506.204	174.551	443.424	0.00069552	0.00044964	0.00011837	977.86	5.0317e-06	4.2554e-06	902.2	347.09	5.4179e-06	9.0505e-06	367.42	119.86	115.54	38.019	4.1857e-06	42.435	0.00033921	0.00015626	3.9664e-05	915.42	4.9517e-06	1.4393e-06	844.37	324.85	2.0285e-06	1.2773e-05	344.67	112.38	108.32	36.262	6.9484e-06	40.491	513.016	262.436	249.063	181.583	273.243	313.940	179.929	185.982	286.807	368.476	183.777	187.478	189.008	194.192	312.534	191.299	-8191	255	
28280.264	1	1	0	0	0.1702	0.1795	0.055084	0.21123	0.090619	0.11615	0.11383	0.14169	0.16326	0.044135	0.46132	0.29917	0.12883	0.067362	0.11588	0.10852	-1.9604	-1.8188	-2.075	-2.3708	-1.9042	-2.1437	-2.2792	-2.0604	-2.3875	-1.9208	-2.125	-2.1063	-1.7771	-2.3875	-2.2417	-1.925	445.301	454.800	304.521	501.322	252.967	518.825	181.809	507.273	517.345	345.841	194.821	496.749	224.071	339.809	317.095	522.583	0.0006483	0.00035573	0.00015257	983.37	9.6528e-06	5.4812e-06	904.43	348.26	6.1039e-06	6.3562e-06	369.99	119.87	115.65	38.173	2.649e-06	42.856	0.00031423	0.00015317	4.0825e-05	916.62	1.1537e-05	1.5179e-06	845.29	325.95	2.0828e-06	7.0149e-06	347.68	112.62	108.67	36.37	9.7805e-06	40.702	514.201	277.721	254.838	181.417	288.570	312.036	180.137	185.863	288.172	335.132	184.069	187.108	189.307	193.940	325.583	191.666	-8191	255	
28280.383	1	1	0	0	0.059729	0.13061	0.095691	0.28286	0.29132	0.15	0.20616	0.24793	0.1505	0.29789	0.30017	0.13518	0.092215	0.278	0.073221	0.3664	-1.7771	-2.0146	-1.9875	-2.3896	-1.6854	-2.0979	-2.3292	-2.0312	-2.2562	-1.9167	-2.2125	-2.3417	-1.9104	-2.2375	-2.0625	-1.8813	207.519	463.481	301.017	415.454	436.700	443.353	438.400	496.561	506.294	182.751	431.704	255.075	308.025	243.789	512.004	464.619	0.00064369	0.00052023	0.00014366	987.25	6.6175e-06	4.1212e-06	907.87	349.61	5.7508e-06	7.5466e-06	372.69	120.75	116.09	38.427	3.9974e-06	42.823	0.00032076	0.00015859	4.7348e-05	919.41	6.6184e-06	1.5041e-06	848.68	327.79	1.9839e-06	1.2898e-05	348.71	113.02	109.09	36.49	2.6312e-06	40.791	511.717	264.786	244.044	181.165	286.412	326.320	179.899	185.851	287.630	376.243	183.831	187.363	189.183	194.059	323.271	191.543	-8191	255	
28280.479	1	1	0	0	0.18104	0.20596	0.17983	0.3473	0.072028	0.11441	0.14144	0.048207	0.090535	0.21358	0.13327	0.21231	0.22524	0.23034	0.079539	0.11306	-1.9375	-2.1458	-1.9042	-2.4375	-1.7583	-2.0396	-2.3125	-2.0229	-2.2604	-2.1583	-2.0187	-2.3729	-2.1896	-2.2521	-2.2	-1.95	338.365	507.972	183.273	188.740	232.100	483.601	432.343	274.675	245.796	177.630	505.643	495.683	524.475	472.490	490.717	463.379	0.0006884	0.00050919	0.00012107	979.73	9.5881e-06	4.0019e-06	902.01	347.34	6.9795e-06	5.8692e-06	368.18	120.21	115.47	38.41	4.3299e-06	42.526	0.00033071	0.00016448	4.3359e-05	919.69	1.1852e-05	1.5932e-06	845.25	325.96	2.0418e-06	6.9749e-06	345.63	112.78	108.49	36.495	1.8458e-06	40.876	512.691	257.281	256.838	181.421	279.421	318.224	179.893	186.008	284.607	350.000	184.130	187.349	189.193	193.865	293.651	191.928	-8191	255	
28280.574	1	1	0	0	0.28383	0.12093	0.18465	0.19301	0.11901	0.27301	0.37617	0.10682	0.15403	0.24125	0.077017	0.15519	0.3916	0.039319	0.16134	0.15989	-1.9896	-2.1833	-1.8896	-2.5729	-2.0979	-2.1271	-2.4583	-1.8271	-2.3333	-2.2417	-2.0479	-2.4625	-2.1479	-2.2667	-2.3792	-1.8896	470.037	498.998	403.122	500.013	482.358	486.069	473.986	400.857	484.833	390.170	226.947	377.253	522.552	475.891	224.933	242.891	0.00064026	0.00053964	0.00013474	975.45	4.4812e-06	3.627e-06	898.01	345.9	5.0093e-06	9.077e-06	364.89	120.09	114.5	38.301	5.2244e-06	43.253	0.00033379	0.00015999	4.0367e-05	913.12	6.3458e-06	1.4374e-06	840.15	323.69	2.0256e-06	9.7287e-06	343.41	112.64	108.07	36.487	1.8615e-06	41.006	511.829	253.853	250.596	181.527	292.117	313.074	180.169	186.049	287.349	350.522	184.028	187.222	189.343	193.979	291.734	191.607	-8191	255	
28280.695	1	1	0	0	0.049166	0.28791	0.10482	0.18348	0.18078	0.2718	0.31825	0.14161	0.1279	0.10199	0.20251	0.22139	0.35755	0.11609	0.22852	0.043674	-1.8563	-2.0438	-1.7646	-2.4771	-2.1625	-1.9813	-2.3542	-1.9667	-2.1208	-2.1771	-1.9417	-2.4208	-2.0125	-2.0396	-2.4562	-1.85	246.878	208.434	392.230	484.534	299.849	505.011	509.144	406.813	484.317	214.803	173.371	450.599	348.667	433.060	351.568	450.017	0.0006827	0.00049019	0.00012947	974.56	7.1009e-06	4.179e-06	898.18	344.9	5.7997e-06	5.8052e-06	365.33	119.17	114.77	38.351	4.1229e-06	42.989	0.00034161	0.00015882	4.1969e-05	911.19	1.1266e-05	1.5866e-06	839.9	322.95	1.9891e-06	1.9545e-06	343.89	112.24	107.58	36.346	1.7584e-06	41.117	511.959	258.731	253.427	181.731	289.702	315.079	179.971	185.816	292.743	351.688	184.021	187.592	189.345	193.618	302.216	191.783	-8191	255	
28280.766	1	1	0	0	0.21145	0.14596	0.11285	0.32213	0.15249	0.12745	0.31442	0.20188	0.14233	0.059455	0.118	0.19485	0.14204	0.087364	0.24559	0.18051	-1.8854	-2.1396	-1.9062	-2.4521	-2.0854	-2.0771	-2.3688	-1.9646	-2.1063	-2.2104	-1.8937	-2.2271	-2.2292	-1.9688	-2.35	-2.1396	296.469	404.270	281.488	503.844	206.764	311.474	469.485	502.655	445.667	371.784	431.469	242.535	523.542	207.886	263.797	483.601	0.00064893	0.0004567	0.00011098	976.78	8.3847e-06	4.2636e-06	896.8	346.82	6.255e-06	4.8461e-06	366.27	120.48	114.12	38.392	4.0906e-06	42.957	0.00032577	0.00014103	4.0923e-05	911.36	6.6296e-06	1.4961e-06	840.03	323.25	2.0071e-06	1.418e-06	346.41	112.69	107.68	36.436	1.8e-06	41.131	511.123	260.243	256.898	181.513	295.464	313.587	180.147	185.812	285.957	318.655	184.098	187.525	189.398	193.994	298.408	191.774	-8191	255	
28280.863	1	1	0	0	0.075549	0.075318	0.1195	0.21522	0.019376	0.25638	0.25636	0.26797	0.16227	0.099614	0.33148	0.15449	0.48651	0.042439	0.2906	0.29865	-1.45	-2.2	-1.7792	-2.3083	-2.2583	-1.7958	-2.2188	-2.175	-2.0083	-2.3979	-1.8937	-2.3396	-2.1375	-2.0021	-2.3458	-2.1333	432.471	247.810	504.478	212.435	461.485	490.795	496.907	435.221	261.180	519.215	467.438	409.384	420.733	325.632	316.609	403.075	0.00068842	0.00046086	0.00010922	973.3	7.6914e-06	5.9797e-06	903.22	344.41	6.0577e-06	5.6881e-06	369.06	120.64	114.89	38.329	5.5134e-06	42.763	0.00032865	0.00013859	4.1463e-05	910.76	8.2891e-06	3.6456e-06	843.45	323.46	2.1025e-06	1.5441e-06	345.82	112.82	108.17	36.35	1.8356e-06	40.908	513.102	257.280	262.204	181.475	325.114	296.518	180.049	185.703	287.035	311.330	183.769	187.445	189.379	194.043	297.656	191.705	-8191	255	
28280.982	1	1	0	0	0.05471	0.050938	0.28499	0.34817	0.16247	0.12722	0.20918	0.34113	0.064251	0.10328	0.12859	0.23683	0.15355	0.24373	0.063792	0.06929	-1.8354	-2.4417	-1.7708	-2.3271	-2.2438	-2.0125	-2.5708	-2.1917	-2.0479	-2.3688	-1.8917	-2.0958	-2.2417	-1.8604	-2.4313	-2.0854	267.959	238.300	369.432	184.398	181.970	335.629	508.438	502.694	457.336	197.767	451.732	448.258	228.529	495.623	467.152	414.096	0.00065592	0.00054155	0.00013763	974.12	5.102e-06	5.913e-06	902.94	345.43	5.6263e-06	5.4532e-06	367.33	120.05	115.04	38.408	5.4971e-06	42.672	0.00032861	0.00014529	4.2149e-05	912.21	1.9522e-06	5.7963e-06	842.43	323.86	2.1013e-06	1.5362e-06	345.41	112.45	107.91	36.377	1.9019e-06	40.729	510.476	244.560	258.445	181.383	306.853	312.646	180.051	185.990	293.460	300.352	183.667	187.421	189.353	193.762	303.927	191.418	-8191	255	
28281.078	1	1	0	0	0.098765	0.17326	0.063625	0.11212	0.19755	0.10096	0.088924	0.052226	0.20171	0.13323	0.29843	0.26458	0.10201	0.28104	0.19917	0.38672	-1.6125	-2.1813	-2.0542	-2.2125	-2.3396	-1.8854	-2.3917	-2.1792	-2.1625	-2.5312	-2.1292	-2.2229	-2.3542	-1.9792	-2.1479	-2.1375	378.203	320.170	328.401	486.231	215.413	369.629	445.251	178.969	168.253	448.319	421.889	263.927	417.554	324.392	359.729	232.858	0.0006996	0.00058437	0.00013207	975.67	5.3747e-06	9.4899e-06	898.15	346.17	5.9935e-06	4.3199e-06	364.41	119.64	114.97	38.097	4.8877e-06	42.778	0.00034503	0.0001366	4.5697e-05	911.94	1.8926e-06	1.3315e-05	842.44	323.92	2.1731e-06	1.4495e-06	344.63	112.57	107.75	36.298	1.7855e-06	40.852	513.662	263.422	261.909	181.408	297.351	314.905	180.008	185.809	292.232	324.334	184.030	187.311	189.194	194.228	283.622	191.423	-8191	255	
28281.174	1	1	0	0	0.14446	0.15547	0.10852	0.1677	0.23511	0.14948	0.04786	0.29944	0.11663	0.085903	0.19321	0.07108	0.40285	0.037408	0.047775	0.41659	-1.6667	-2.3042	-1.9958	-2.1833	-2.4646	-1.9146	-2.2979	-2.2479	-1.8417	-2.1229	-2.2062	-2.2833	-2.3771	-2.0854	-2.2042	-2.3729	487.874	177.228	226.793	170.390	264.260	449.274	516.672	464.603	416.058	438.226	519.573	210.640	393.215	387.655	257.276	522.109	0.00075019	0.00049917	0.00015143	969.19	3.6413e-06	5.3487e-06	898.44	344.33	6.7495e-06	3.4108e-06	366.07	119.82	114.05	38.446	4.3143e-06	43.038	0.00047652	0.00014115	4.6073e-05	908.02	1.8714e-06	7.0388e-06	842.16	321.9	2.2344e-06	1.4475e-06	345.52	112.77	107.38	36.385	1.8139e-06	41.015	506.563	262.131	250.144	181.492	284.079	324.826	180.549	185.886	292.197	312.944	184.014	187.585	189.184	194.056	303.762	191.590	-8191	255	
28281.295	1	1	0	0	0.24823	0.20338	0.2594	0.28005	0.15514	0.13186	0.072478	0.30071	0.20669	0.15796	0.13092	0.17713	0.18518	0.10834	0.24458	0.25068	-1.3813	-2.4271	-1.9208	-2.0729	-2.3896	-1.9188	-2.2875	-2.1417	-2.0708	-2.0708	-2.2812	-1.9208	-2.3812	-1.9458	-2.2062	-2.4562	435.204	299.198	342.519	505.026	290.260	330.393	443.034	209.811	384.136	175.146	420.529	485.725	169.384	504.444	220.475	459.694	0.00070665	0.00044926	0.00013061	968.35	4.6953e-06	6.8039e-06	900.28	342.72	6.2816e-06	4.5448e-06	366.34	120.45	114.61	38.293	3.9467e-06	43.068	0.00058154	0.00013468	4.5615e-05	906.94	1.9433e-06	1.3136e-05	841.79	320.91	2.0967e-06	1.4258e-06	344.96	112.98	107.47	36.31	1.7373e-06	40.911	509.080	258.466	247.397	181.410	292.383	330.250	179.815	185.774	281.842	323.914	183.886	187.370	189.411	194.246	310.088	191.782	-8191	255	
28281.365	1	1	0	0	0.1106	0.10878	0.11313	0.39099	0.21804	0.17116	0.17163	0.35369	0.13654	0.1056	0.23576	0.1457	0.24075	0.092737	0.24851	0.129	-1.4458	-2.225	-2.1208	-1.9958	-2.1667	-2.2125	-2.2229	-2.3812	-1.9833	-2.0604	-2.2958	-2.0312	-2.4562	-2.0687	-2.0771	-2.325	295.896	460.809	213.917	458.697	307.223	415.501	465.143	459.774	415.084	420.143	174.516	431.732	520.469	483.427	360.032	432.483	0.00077317	0.00036048	0.00012553	961.09	4.8734e-06	8.818e-06	894.13	343.48	6.03e-06	4.9214e-06	366.64	119.69	114.08	38.284	4.6e-06	43.034	0.0009088	0.00014605	3.9697e-05	903.03	1.9143e-06	7.0844e-06	838.37	320.45	2.2853e-06	1.5539e-06	343.71	112.57	107.18	36.273	1.9804e-06	40.862	510.533	266.602	239.537	181.491	284.309	335.664	179.651	185.917	285.139	311.898	184.099	187.358	189.294	194.070	307.814	191.523	-8191	255	
28281.463	1	1	0	0	0.10059	0.12916	0.065707	0.20386	0.22388	0.22774	0.13116	0.3019	0.14429	0.18113	0.14184	0.1784	0.13142	0.15385	0.18298	0.071338	-1.3146	-2.1292	-2.0938	-1.9688	-2.3854	-2.0333	-2.1375	-2.3333	-2.0083	-2.1917	-2.3292	-1.8792	-2.3792	-2.1354	-1.8646	-2.4354	447.712	203.962	499.475	438.825	262.383	249.677	292.631	399.314	390.178	413.140	435.620	489.063	202.837	188.786	527.137	415.623	0.00069512	0.00047209	0.00010299	970.27	4.0562e-06	1.2998e-05	899.81	344.2	7.3687e-06	4.5332e-06	365.14	119.65	114.11	38.27	4.5761e-06	42.905	0.00060314	0.00014728	3.8634e-05	906.45	1.877e-06	1.3066e-05	839.76	321.05	2.2778e-06	1.5559e-06	343.05	112.94	107.33	36.299	1.9888e-06	40.966	512.819	265.484	255.949	181.628	285.645	345.177	179.984	185.500	289.416	323.497	184.124	187.181	189.224	193.928	305.726	191.567	-8191	255	
28281.559	1	1	0	0	0.080656	0.19379	0.19953	0.21458	0.24075	0.1005	0.30498	0.070213	0.37989	0.14248	0.23294	0.2367	0.059291	0.15013	0.13067	0.23945	-1.6583	-2.2687	-2.2396	-2.0938	-2.2188	-2.0333	-2.1146	-2.3688	-1.9104	-2.0312	-2.4354	-2.0104	-2.3271	-2.1792	-2.0458	-2.3625	478.749	504.946	288.547	221.776	208.849	290.178	453.626	214.730	434.941	470.434	480.651	424.539	498.301	512.395	350.832	499.809	0.00082228	0.00037989	0.00013012	970.54	4.2875e-06	6.6599e-06	902.27	344.23	5.4402e-06	4.6828e-06	367.91	120.55	114.49	38.478	4.3716e-06	43.212	0.00092237	0.00015148	3.7833e-05	908.42	1.7911e-06	7.0487e-06	842.41	322.23	2.1008e-06	1.5165e-06	345.37	113.5	107.7	36.458	1.9261e-06	41.092	507.628	252.787	253.434	181.482	295.548	336.401	180.337	185.832	282.415	310.618	183.953	187.509	189.211	194.067	307.174	191.785	-8191	255	
28281.654	1	1	0	0	0.36661	0.14463	0.32416	0.29191	0.096665	0.2403	0.324	0.17306	0.19388	0.21522	0.15517	0.18353	0.19848	0.074248	0.32759	0.021431	-1.4604	-1.9937	-2.3229	-2.0125	-2.0604	-2.1896	-1.9062	-2.3292	-2.0729	-2.0708	-2.4396	-1.9271	-2.3854	-2.1333	-1.9875	-2.3417	525.968	323.430	197.143	370.053	402.246	297.654	460.771	450.749	319.499	435.055	217.840	225.205	450.593	237.920	438.433	513.216	0.00073288	0.00054071	0.00013032	972.72	4.4139e-06	1.0755e-05	907.04	346.06	4.6715e-06	5.1635e-06	368.89	120.96	114.43	38.51	5.1138e-06	43.323	0.00062507	0.00016005	3.798e-05	908.77	1.9534e-06	7.4708e-06	847.24	323.56	1.9805e-06	1.6314e-06	347.34	113.73	107.87	36.567	1.9695e-06	41.214	509.905	273.358	258.489	181.307	291.613	359.170	180.064	186.031	274.762	311.543	184.118	187.311	189.279	193.896	296.721	191.878	-8191	255	
28281.775	1	1	0	0	0.035831	0.050323	0.27229	0.1544	0.038407	0.34534	0.17577	0.17528	0.26297	0.18775	0.29529	0.015213	0.17123	0.18163	0.2158	0.16289	-1.6417	-1.7583	-2.4396	-2.0542	-2.1854	-2.0792	-1.9396	-2.4021	-1.9625	-2.0417	-2.3208	-1.9646	-2.2917	-2.2667	-1.7792	-2.3187	497.501	299.925	354.905	195.736	318.664	486.194	509.951	172.795	492.763	384.775	445.968	204.932	390.380	196.426	510.692	389.752	0.00081796	0.00045603	0.0001088	971.96	4.2693e-06	4.4493e-06	898.49	344.98	6.7749e-06	4.3538e-06	369.43	120.4	114.17	38.389	4.4735e-06	43.185	0.00094123	0.00014663	3.4988e-05	907.79	2.0164e-06	1.6547e-06	844.98	323.08	2.1592e-06	1.6399e-06	345.45	113.45	107.64	36.458	1.8489e-06	40.941	514.542	257.839	249.893	181.545	293.843	313.514	180.127	185.820	287.037	333.043	183.546	187.847	189.222	194.464	313.609	191.840	-8191	255	
28281.871	1	1	0	0	0.21273	0.10799	0.10333	0.11674	0.26338	0.14094	0.044405	0.17269	0.053337	0.18899	0.18433	0.14278	0.12978	0.49601	0.10015	0.36849	-1.7	-1.9292	-2.3083	-2.0625	-1.9958	-2.2604	-1.9792	-2.4146	-2.1542	-1.9354	-2.325	-2.1917	-2.1896	-2.1583	-1.9167	-2.1208	381.997	525.615	410.012	497.787	431.052	273.731	296.182	398.786	174.560	337.887	275.725	517.454	474.335	171.255	316.415	193.858	0.00073036	0.00042282	0.00014134	968.66	4.0085e-06	3.9891e-06	903.34	345.91	5.4772e-06	3.9966e-06	368.18	121.05	114.68	38.467	3.901e-06	43.04	0.0006004	0.0001527	3.8847e-05	907.05	1.8496e-06	1.2947e-06	845.27	323.68	2.0273e-06	1.5907e-06	345.05	113.44	107.83	36.463	1.8151e-06	40.88	512.883	249.717	252.079	181.517	278.289	319.583	180.191	185.685	284.701	316.289	183.848	187.419	188.970	193.764	301.620	191.670	-8191	255	
28281.943	1	1	0	0	0.16374	0.21291	0.18285	0.20745	0.16175	0.2437	0.31443	0.24018	0.059456	0.40826	0.14589	0.19015	0.31643	0.041745	0.1249	0.12843	-1.6958	-1.9292	-2.3583	-2.2292	-2.0146	-2.2521	-1.9375	-2.3229	-2.15	-1.8833	-2.3917	-2.0708	-2.1396	-2.3563	-2.0229	-2.3375	510.994	398.348	264.353	418.371	269.854	388.164	474.423	473.696	176.295	436.014	509.261	175.324	460.602	350.713	300.643	203.122	0.00068598	0.00080479	0.00011522	973.06	4.5477e-06	5.7776e-06	903.72	344.28	5.6471e-06	3.9098e-06	367	120.3	113.84	38.35	4.8137e-06	43.078	0.00062358	0.00053579	3.8356e-05	909.34	2.0247e-06	1.5615e-06	845	322.84	1.988e-06	1.6885e-06	346.23	113.83	107.42	36.34	2.0123e-06	40.96	515.336	225.598	252.603	181.553	274.913	301.820	180.212	185.902	291.583	307.127	183.902	187.134	189.130	193.959	299.992	191.823	-8191	255	
28282.064	1	1	0	0	0.30682	0.17475	0.21279	0.21249	0.18474	0.15393	0.15353	0.17825	0.17912	0.19026	0.21254	0.19579	0.3386	0.2441	0.12725	0.17726	-1.7333	-1.9521	-2.25	-2.1854	-2.1417	-2.3812	-2.1521	-2.2062	-2.2854	-1.7625	-2.2229	-2.1646	-1.9333	-2.3771	-1.9292	-2.3396	410.464	265.668	496.433	523.573	244.206	333.526	429.581	522.492	411.279	400.999	245.037	494.639	491.284	181.287	409.608	376.327	0.00070509	0.00054067	0.00014301	968.39	4.6761e-06	4.7292e-06	904.72	343.85	5.8113e-06	5.2033e-06	369.05	121.09	114.13	38.308	4.519e-06	42.947	0.00033812	0.00062754	4.3147e-05	906.42	1.993e-06	1.4684e-06	847.77	322.69	2.0076e-06	1.701e-06	346.58	113.52	107.41	36.311	1.9924e-06	41.052	511.320	243.202	240.376	181.673	283.580	304.971	180.185	185.661	286.732	308.390	183.915	187.277	188.967	193.951	293.336	191.763	-8191	255	
28282.160	1	1	0	0	0.20594	0.10473	0.27356	0.19245	0.073837	0.12832	0.18638	0.30861	0.12766	0.18085	0.26196	0.1081	0.29575	0.32567	0.22928	0.18616	-1.6812	-1.8396	-2.3729	-2.2792	-1.8458	-2.3896	-2.1146	-2.0687	-2.3312	-2.0062	-2.1437	-2.2396	-1.8958	-2.3438	-2.1354	-2.0812	453.354	339.207	366.598	410.750	320.711	207.094	316.219	466.879	485.365	351.729	473.804	299.334	168.767	452.617	349.323	456.511	0.00069634	0.0010541	0.00011451	974.05	3.5491e-06	4.9244e-06	904.19	345.82	4.1011e-06	4.8003e-06	372.18	120.92	114.52	38.136	5.0174e-06	43.076	0.00033308	0.0011564	3.8029e-05	909.72	1.9394e-06	1.4948e-06	847.61	323.77	1.8746e-06	1.6899e-06	347.92	113.73	108.2	36.303	2.0159e-06	40.904	511.600	243.952	260.372	181.263	287.940	317.867	179.890	185.736	287.234	309.815	184.063	187.186	188.901	193.517	305.650	191.722	-8191	255	
28282.256	1	1	0	0	0.2651	0.16237	0.27402	0.24968	0.20845	0.11244	0.1257	0.27505	0.11901	0.14782	0.075923	0.37349	0.24551	0.19889	0.093584	0.27064	-1.8813	-1.8438	-2.2146	-2.3125	-1.8792	-2.4146	-2.0604	-2.0521	-2.3021	-1.9688	-1.9729	-2.2146	-2.0042	-2.2562	-2.2104	-2.1208	208.689	516.674	488.636	456.802	185.814	220.739	438.465	180.289	395.843	404.731	168.203	429.616	187.318	257.491	171.360	511.865	0.00069938	0.00088457	0.00011321	977.8	4.3518e-06	5.0204e-06	905.07	346.75	5.1718e-06	4.4146e-06	372.06	121.24	115	38.362	3.7617e-06	42.735	0.00034208	0.00065064	4.1413e-05	911.87	2.1614e-06	1.4559e-06	848.08	324.72	1.9001e-06	1.4593e-06	347.44	113.38	108.22	36.361	1.8603e-06	40.897	513.849	262.954	253.035	181.460	284.724	321.635	179.993	185.788	289.225	321.564	184.199	187.442	189.410	194.040	286.906	191.202	-8191	255	
28282.375	1	1	0	0	0.32942	0.1593	0.15032	0.24492	0.25893	0.16685	0.31728	0.07907	0.3067	0.066102	0.20659	0.12153	0.1852	0.17343	0.11613	0.076818	-1.9021	-1.6854	-2.0458	-2.3479	-1.8833	-2.2562	-2.2375	-2.0854	-2.3396	-2.0354	-2.2542	-2.3104	-2.1104	-2.3708	-2.2	-2.0812	338.142	219.477	293.652	192.236	377.039	257.024	509.130	433.256	492.798	495.498	471.376	500.174	320.259	497.080	440.819	368.101	0.0007098	0.00085952	0.00013209	970.35	3.4812e-06	4.5731e-06	898.27	342.63	6.5898e-06	3.8245e-06	368.36	120.55	113.83	38.432	3.5116e-06	43.228	0.00033924	0.0011473	3.9288e-05	906.3	1.9188e-06	1.4664e-06	843.19	321.52	1.8463e-06	1.5848e-06	344.77	113.07	107.76	36.265	1.7089e-06	40.991	512.174	254.386	262.322	181.360	282.527	310.504	180.130	185.642	284.914	335.117	183.779	187.247	188.933	193.800	298.877	191.522	-8191	255	
28282.471	1	1	0	0	0.24327	0.17504	0.13712	0.35302	0.14098	0.069664	0.13893	0.21003	0.16037	0.097497	0.1095	0.090405	0.20144	0.17008	0.24604	0.22485	-1.8146	-1.9562	-2	-2.4	-1.8875	-2.1625	-2.2792	-1.9021	-2.3542	-2.0229	-2.1417	-2.4688	-2.0125	-2.35	-2.3104	-1.9854	342.706	324.770	288.878	456.085	489.221	234.038	454.951	185.985	409.663	461.787	189.647	385.251	455.340	235.920	190.152	521.571	0.00069319	0.00084499	0.00013313	966.34	5.2385e-06	3.9376e-06	903.03	344.19	5.1775e-06	5.1595e-06	370.09	121.02	115	38.476	4.246e-06	43.42	0.00033284	0.00062964	4.071e-05	904.6	2.0058e-06	1.4684e-06	846.33	323.25	2.014e-06	1.6682e-06	347.22	113.68	108.13	36.522	1.8627e-06	41.203	511.913	240.649	258.006	181.480	282.695	322.053	180.217	185.730	281.725	313.009	183.981	187.556	189.153	193.672	300.224	191.196	-8191	255	
28282.566	1	1	0	0	0.17162	0.31449	0.10766	0.29298	0.20945	0.11111	0.27535	0.040925	0.18298	0.17643	0.20124	0.076448	0.089018	0.036428	0.10084	0.12849	-1.9104	-2.1083	-2.1146	-2.5312	-1.8229	-2.0167	-2.5042	-1.8917	-2.4062	-2.2021	-2.1396	-2.4604	-1.8917	-1.9896	-2.15	-1.9771	172.359	401.663	496.308	470.452	183.350	273.080	425.295	520.500	289.617	268.115	475.143	474.906	270.785	315.728	483.787	234.613	0.00070585	0.00086818	0.00014894	972.16	4.1462e-06	3.8346e-06	899.88	345.21	6.4718e-06	5.8811e-06	370.36	121.7	114.79	38.386	4.6145e-06	43.479	0.00032787	0.0011411	4.4422e-05	909.23	1.9745e-06	1.4565e-06	844.21	324.4	2.0805e-06	1.6347e-06	348.08	113.77	108.42	36.461	1.8024e-06	41.187	511.374	285.466	262.078	181.432	287.122	324.303	180.044	185.904	285.368	323.079	184.176	187.257	189.400	193.617	311.446	191.644	-8191	255	
28282.662	1	1	0	0	0.246	0.12016	0.32514	0.21438	0.059958	0.034195	0.44535	0.53105	0.040753	0.26474	0.27324	0.087051	0.17173	0.14191	0.21431	0.17802	-1.7708	-2.1125	-2.0292	-2.5771	-1.8604	-2.1729	-2.3229	-2.1479	-2.1937	-2.1188	-1.9625	-2.4958	-2.0062	-2.2188	-2.3458	-1.85	221.823	301.494	438.951	514.623	260.145	309.809	433.135	487.342	369.112	350.035	349.805	349.505	410.514	178.505	180.413	276.107	0.00067062	0.00070448	0.00013243	968.93	3.9345e-06	4.014e-06	903.21	345.18	4.959e-06	3.9296e-06	369.29	121.27	114.86	38.224	4.4628e-06	43.135	0.00033728	0.00063722	4.4177e-05	905.65	2.0788e-06	1.6441e-06	843.57	324.3	1.863e-06	1.5776e-06	346.41	113.32	107.97	36.311	1.7077e-06	40.992	512.316	274.410	252.337	181.379	289.308	308.299	180.051	185.942	280.526	329.711	183.943	187.166	189.041	193.768	301.784	191.497	-8191	255	
28282.760	1	1	0	0	0.17911	0.20134	0.2012	0.30319	0.039349	0.19628	0.18237	0.34475	0.073875	0.13197	0.11276	0.23069	0.11635	0.068677	0.16204	0.4004	-1.6958	-2.2104	-1.7792	-2.4146	-2.0917	-2.1146	-2.5687	-2.0417	-2.1354	-2.1396	-1.9375	-2.4167	-2.1167	-2.0187	-2.4	-1.9438	394.933	277.561	312.582	511.065	247.919	262.840	465.819	469.186	525.297	447.541	381.095	431.358	469.808	350.251	287.306	477.641	0.00063167	0.00075616	0.00017416	969.23	4.5176e-06	3.6663e-06	905.8	345.68	6.6655e-06	4.1751e-06	369.51	121.11	114.42	38.236	4.9677e-06	42.984	0.00031135	0.00049747	0.00018115	906.98	1.9127e-06	1.5549e-06	843.9	324.07	2.1146e-06	1.3707e-06	346.82	113.41	108.46	36.245	1.8537e-06	40.985	512.157	286.294	251.685	181.340	293.339	328.327	179.829	185.598	284.769	316.877	184.160	187.176	188.861	193.924	312.701	191.518	-8191	255	
28282.855	1	1	0	0	0.20872	0.15266	0.14823	0.18701	0.28127	0.13926	0.141	0.14194	0.039972	0.2212	0.14395	0.25713	0.21616	0.15959	0.035247	0.16487	-1.55	-2.3521	-2.0646	-2.5	-2.0583	-1.9771	-2.4729	-1.9646	-2.0958	-2.3792	-1.8792	-2.1229	-2.05	-1.9604	-2.3979	-2.0271	370.943	278.272	383.703	176.708	192.403	403.621	481.343	527.354	178.227	250.646	318.724	473.932	495.129	430.088	428.209	465.983	0.0006871	0.00044488	0.00021128	973.5	4.3301e-06	4.05e-06	900.79	345.31	5.521e-06	5.2058e-06	369.85	121.2	114.88	38.32	4.6131e-06	43.257	0.00033707	0.00013503	0.00017868	908.05	2.0102e-06	1.582e-06	843.69	324.69	1.9712e-06	1.4022e-06	347.4	113.53	108.1	36.345	1.8163e-06	41.066	512.015	249.933	262.488	181.428	281.720	309.473	180.186	185.972	272.786	314.821	183.837	187.692	189.291	193.882	296.390	191.588	-8191	255	
28282.951	1	1	0	0	0.087745	0.21873	0.14151	0.20819	0.17497	0.2289	0.20668	0.20714	0.22088	0.06219	0.1462	0.25305	0.17305	0.26282	0.15584	0.1875	-1.4937	-2.2792	-1.9833	-2.4104	-2.1625	-2.0333	-2.5417	-2.3604	-1.9896	-2.3917	-2.1375	-2.3563	-2.0667	-1.9438	-2.2417	-2.025	322.709	403.709	497.835	447.260	281.518	318.673	514.189	435.375	231.251	487.414	489.981	175.972	242.220	444.032	459.617	222.255	0.00071405	0.00047678	0.00031798	969.28	4.0815e-06	4.1647e-06	908.36	345.57	5.5075e-06	4.9408e-06	370.49	121.84	114.02	38.342	4.6631e-06	43.316	0.00034361	0.00014733	0.0003248	907.53	1.955e-06	1.4354e-06	846.66	324.55	1.9851e-06	1.3667e-06	348.1	114.07	107.79	36.444	1.7885e-06	41.105	513.650	256.252	268.024	181.527	285.392	332.397	180.137	185.842	288.459	322.996	184.121	187.621	189.256	193.641	299.695	191.706	-8191	255	
28283.070	1	1	0	0	0.18373	0.12726	0.15149	0.14218	0.06496	0.088244	0.091014	0.13257	0.21549	0.23442	0.26968	0.24559	0.2863	0.21839	0.38107	0.069755	-1.6396	-2.2708	-1.9208	-2.2125	-2.0938	-1.9208	-2.5854	-2.25	-2.125	-2.3271	-1.925	-2.1979	-2.2833	-1.925	-2.1562	-2.1542	470.970	298.640	429.555	508.430	384.441	390.642	274.937	194.339	490.569	369.295	497.263	515.259	435.257	354.668	417.246	502.811	0.00068127	0.00034084	7.431e-05	971.34	4.7602e-06	4.8136e-06	906.38	344.29	6.2479e-06	3.8448e-06	367.91	121.27	114.27	38.325	4.5044e-06	43.02	0.00033802	0.00013036	0.00018181	908.26	1.8602e-06	1.7273e-06	845.21	324.43	2.0626e-06	1.3168e-06	346.67	113.41	107.65	36.393	1.8012e-06	40.87	512.681	235.770	269.037	181.535	285.335	323.750	180.141	185.740	281.529	314.641	183.787	187.178	188.902	193.709	302.057	191.362	-8191	255	
28283.168	1	1	0	0	0.39497	0.13471	0.1128	0.1647	0.061218	0.11425	0.18242	0.23576	0.21242	0.20608	0.27326	0.21671	0.14616	0.17304	0.17214	0.30992	-1.5562	-2.3937	-1.9458	-2.2104	-2.2208	-1.9438	-2.4042	-2.2854	-2.1104	-2.3708	-2.1021	-2.1146	-2.3771	-2.0771	-2.2938	-2.0979	444.323	423.939	196.013	252.763	286.842	407.551	174.517	471.229	175.541	453.392	473.592	437.359	226.833	226.000	268.032	492.539	0.00065112	0.00047659	0.00025051	968.09	4.4265e-06	4.3416e-06	901.21	342.51	6.1736e-06	4.9546e-06	368.26	120.46	113.95	38.036	3.8335e-06	42.792	0.00032973	0.00014203	0.00032218	906.29	1.747e-06	1.8509e-06	842.62	323.16	2.0938e-06	1.2761e-06	346.31	113.12	107.37	36.362	1.7964e-06	40.701	511.161	267.943	263.228	181.367	284.340	308.431	180.341	185.951	281.908	298.358	183.573	187.153	188.883	194.019	309.676	191.513	-8191	255	
28283.240	1	1	0	0	0.31366	0.19221	0.16471	0.3326	0.22179	0.38073	0.030399	0.094329	0.031663	0.11349	0.034387	0.38637	0.23365	0.07541	0.15346	0.40679	-1.4646	-2.2	-1.9854	-2.1875	-2.1688	-1.8583	-2.2542	-2.1271	-1.8813	-2.2229	-1.9896	-2.1542	-2.5438	-1.9438	-2.3063	-2.2208	234.001	317.216	510.960	476.200	179.817	496.094	194.038	271.316	272.180	415.958	373.031	454.979	300.260	466.158	265.520	496.029	0.00066254	0.00052485	0.00019821	967.5	4.722e-06	4.5732e-06	901.24	346.26	4.6806e-06	4.9402e-06	369.31	120.13	114.92	38.102	5.643e-06	42.563	0.00033704	0.0001387	0.00018045	906.78	1.8742e-06	1.5424e-06	846.03	324.37	7.8432e-06	1.4836e-06	347.37	113.29	107.8	36.251	1.8277e-06	40.606	513.189	252.280	281.459	181.258	274.362	315.290	180.291	185.882	244.078	315.376	183.700	187.446	189.030	193.690	300.473	191.245	-8191	255	
28283.336	1	1	0	0	0.22873	0.46206	0.149	0.19262	0.052528	0.31342	0.27079	0.34239	0.089237	0.1184	0.20117	0.24748	0.27214	0.24936	0.20525	0.25139	-1.3458	-2.2104	-1.8292	-2.1688	-2.2188	-2.025	-2.1188	-2.1854	-1.9792	-2.4292	-2.075	-2.0354	-2.4896	-1.9813	-2.125	-2.3021	463.712	216.642	270.767	525.916	465.027	218.206	401.062	186.417	207.728	212.122	189.887	427.638	474.658	490.881	292.826	512.287	0.00065991	0.00047327	0.00018732	971.65	4.0853e-06	5.2758e-06	905.8	347.96	3.9981e-06	4.0371e-06	373.15	121.07	115.04	37.949	5.0105e-06	42.599	0.00034113	0.00015148	0.00032501	909.42	1.7627e-06	1.7742e-06	848.66	326.1	7.3978e-06	1.4409e-06	349.51	113.47	108.27	36.246	1.7976e-06	40.625	512.268	245.152	283.526	181.328	273.936	324.928	179.957	185.858	286.919	327.523	184.063	187.230	189.075	193.842	293.009	191.638	-8191	255	
28283.455	1	1	0	0	0.17383	0.14115	0.089614	0.05596	0.33008	0.048716	0.20899	0.16193	0.22013	0.23602	0.089426	0.24535	0.048023	0.30825	0.1718	0.23363	-1.5396	-2.4	-2.0625	-2.1896	-2.4271	-2.1604	-2.1562	-2.4688	-1.8604	-2.1312	-2.4375	-2.1625	-2.2062	-1.9833	-2.0292	-2.2375	420.840	171.940	374.596	516.954	241.932	252.754	461.910	443.267	217.808	524.586	502.654	435.513	343.948	441.935	465.112	207.814	0.00062726	0.00047288	0.00023615	975	4.3098e-06	4.662e-06	908.98	349.53	3.6886e-06	4.8571e-06	374.86	120.44	115.59	37.792	4.9813e-06	42.402	0.00032946	0.00016092	0.00015753	912.52	1.8625e-06	1.8e-06	850.49	327.64	1.2101e-05	1.4409e-06	350.49	113.16	108.67	36.008	1.908e-06	40.138	512.037	256.381	259.818	181.412	283.641	311.459	180.277	185.706	191.283	321.715	183.754	187.274	189.073	193.591	290.782	191.792	-8191	255	
28283.551	1	1	0	0	0.071105	0.11578	0.29206	0.10267	0.16108	0.13596	0.04589	0.10883	0.1115	0.12514	0.37204	0.14031	0.20918	0.30004	0.26277	0.1483	-1.4292	-1.9875	-2.2958	-2.0229	-2.2667	-2.0229	-2.0125	-2.55	-1.9354	-2.3917	-2.2812	-2.0021	-2.2396	-2.0062	-1.9854	-2.3937	211.101	394.953	275.447	228.336	478.235	490.500	351.171	415.088	231.748	449.920	482.685	507.215	439.736	505.042	477.686	431.403	0.00062956	0.00047708	0.00027592	977.01	3.7318e-06	4.5484e-06	906.83	348.72	4.5578e-06	5.1959e-06	371.46	120.87	115.22	37.824	5.6245e-06	42.135	0.00032848	0.00015206	0.00010459	915.68	1.732e-06	1.588e-06	848.76	326.53	7.1126e-06	1.5762e-06	349.06	113.04	108.27	35.994	1.9979e-06	39.891	512.057	257.359	293.870	181.452	284.812	324.208	180.242	185.373	244.812	315.570	183.659	187.169	189.065	193.555	299.595	191.100	-8191	255	
28283.646	1	1	0	0	0.13269	0.10391	0.41885	0.31496	0.2475	0.12254	0.20291	0.099814	0.052898	0.037872	0.1097	0.18601	0.21022	0.19598	0.23744	0.11627	-1.4062	-2.1625	-2.3187	-1.9333	-2.3021	-2.0896	-2.1083	-2.3354	-2.0104	-2.1167	-2.5333	-1.9604	-2.1813	-2.3187	-1.9125	-2.5333	226.637	197.821	350.940	490.981	301.079	197.739	375.358	525.104	181.046	263.047	343.259	429.511	513.741	456.066	206.600	358.324	0.00067555	0.00045843	0.00015845	976.86	3.7794e-06	3.3574e-06	907.41	350.2	2.4128e-06	3.7765e-06	373.59	120.54	115.28	37.81	6.2283e-06	42.049	0.00034767	0.00015964	4.2607e-05	914.1	1.747e-06	1.5549e-06	849.83	327.42	1.2112e-05	1.412e-06	349.91	112.62	107.89	35.929	2.2476e-06	39.927	516.152	252.923	252.809	181.565	271.736	327.054	179.873	185.538	227.282	319.260	183.525	187.034	188.917	193.533	281.554	191.413	-8191	255	
28283.744	1	1	0	0	0.20223	0.10142	0.069705	0.1298	0.12642	0.17199	0.39093	0.28989	0.18544	0.20829	0.14446	0.23422	0.067749	0.11997	0.25373	0.23906	-1.5396	-2.1604	-2.0979	-1.9083	-2.4	-2.1104	-2.0125	-2.4917	-2.0208	-2.0167	-2.3708	-2.0687	-2.2687	-2.1562	-2.1229	-2.3146	467.029	520.501	386.414	180.583	353.445	449.133	445.626	509.333	334.269	472.396	456.060	520.345	504.629	346.619	197.182	461.343	0.00065586	0.00044861	0.00012231	974.42	4.8994e-06	4.8011e-06	908.27	347.41	5.1329e-06	4.5742e-06	371.74	120.76	115.49	37.731	4.4553e-06	42.395	0.00033704	0.00014938	3.4727e-05	915.49	1.9584e-06	1.4948e-06	848.71	325.54	7.1745e-06	1.5953e-06	349	113.14	108.03	35.814	8.5578e-06	40.195	515.306	255.155	249.249	181.504	277.713	307.801	180.199	185.476	258.967	311.272	184.033	187.109	189.058	193.767	283.481	191.412	-8191	255	
28283.863	1	1	0	0	0.15123	0.2341	0.25504	0.25893	0.16642	0.14946	0.18857	0.083643	0.12568	0.039739	0.12519	0.38777	0.17343	0.21106	0.17438	0.18058	-1.7125	-2.0687	-2.1937	-2.2438	-2.1542	-2.3771	-2.0167	-2.4083	-2.2646	-2.1229	-2.4792	-2.1271	-2.2458	-2.4	-1.8146	-2.4125	451.108	469.162	513.699	519.366	187.971	265.367	519.308	442.141	214.252	494.130	208.562	520.922	265.485	419.838	258.323	516.460	0.00063468	0.00049681	0.00015753	972.41	4.3413e-06	5.0951e-06	912.42	346.81	5.1402e-06	4.4877e-06	371.77	120.13	114.27	37.944	7.2422e-06	42.281	0.0003237	0.00015212	4.0433e-05	913.17	1.8669e-06	1.5681e-06	850.72	324.86	1.1836e-05	1.6308e-06	348.57	112.89	107.72	35.842	6.9828e-06	40.22	514.909	256.726	233.183	181.229	293.707	320.352	180.100	185.851	238.076	310.330	183.864	187.265	189.005	193.724	302.944	191.654	-8191	255	
28283.936	1	1	0	0	0.30213	0.38088	0.17769	0.022168	0.031434	0.25974	0.094405	0.17308	0.19639	0.14867	0.26443	0.14165	0.102	0.17527	0.3126	0.24034	-1.6521	-1.8896	-2.3396	-1.9583	-2.1979	-2.1937	-1.9229	-2.3187	-2.3125	-1.8687	-2.3958	-2.1458	-2.1542	-2.4271	-1.9479	-2.3812	187.734	525.796	416.275	405.638	300.070	469.255	460.035	265.546	468.051	443.178	404.316	469.826	360.887	429.666	521.549	362.223	0.00067435	0.00052703	0.00016735	972.79	4.0939e-06	4.1483e-06	906.93	345.83	5.9872e-06	4.2217e-06	369.53	120.15	114.61	37.728	1.0768e-05	42.244	0.0003432	0.00016279	4.1642e-05	912.79	1.8022e-06	1.3872e-06	846.53	323.88	5.6522e-06	1.9499e-06	346.37	112.8	107.62	35.843	1.2255e-05	40.077	512.092	252.011	249.299	181.546	289.328	318.411	180.009	185.522	286.469	276.543	183.773	187.290	189.079	193.503	290.696	191.760	-8191	255	
28284.057	1	1	0	0	0.072035	0.20126	0.33191	0.25793	0.5003	0.13972	0.2807	0.29264	0.1317	0.17176	0.16449	0.4421	0.19645	0.14408	0.19551	0.092419	-1.725	-2.0729	-2.4479	-2.2792	-2.0083	-2.1521	-2.0812	-2.3083	-1.9042	-1.8583	-2.2479	-2.0896	-1.8625	-2.2958	-2.0292	-2.3563	353.057	191.919	417.322	500.351	490.331	404.589	457.294	486.414	208.051	411.454	168.700	517.902	469.274	252.218	289.892	487.240	0.00068234	0.00044536	0.00015864	969.63	3.5054e-06	4.1413e-06	904.63	346.47	3.4599e-06	8.0116e-06	369.63	120.01	114.6	37.629	6.7196e-06	42.633	0.00033203	0.00015346	3.9075e-05	908.22	1.9054e-06	1.337e-06	845.49	324.2	3.2252e-06	9.4161e-06	346.97	112.69	107.52	35.776	6.5521e-06	40.29	513.820	265.136	243.560	181.222	276.859	327.690	179.988	185.693	285.248	266.445	184.027	187.248	189.182	193.965	308.568	191.440	-8191	255	
28284.152	1	1	0	0	0.1186	0.14206	0.41371	0.07051	0.16274	0.075158	0.26564	0.12978	0.21152	0.19416	0.13273	0.18906	0.063441	0.28412	0.072245	0.13202	-1.5708	-1.6938	-2.3	-2.1063	-1.9729	-2.4208	-2.1688	-2.2646	-2.3833	-2.0479	-2.6125	-2.2021	-1.9521	-2.3937	-1.9833	-2.1208	405.847	196.645	442.865	227.565	430.325	325.835	170.910	443.158	473.556	461.981	455.173	416.047	178.807	515.709	205.140	261.138	0.00065967	0.00042618	0.00013078	963.21	4.8416e-06	4.0559e-06	900.99	344.18	5.3918e-06	2.7146e-06	372.67	120.6	114.3	37.815	8.0475e-06	42.482	0.00033156	0.00016629	4.1037e-05	906.85	2.0705e-06	1.3515e-06	844.6	323.79	1.8902e-06	7.0576e-06	347.72	113.39	107.77	35.832	1.1904e-05	40.422	513.822	261.054	260.555	181.482	279.013	316.681	179.907	185.662	280.649	294.110	183.852	187.245	189.275	193.632	317.270	191.394	-8191	255	
28284.246	1	1	0	0	0.10549	0.11316	0.11768	0.21922	0.26774	0.17065	0.18139	0.32462	0.38527	0.23917	0.10465	0.12474	0.31343	0.20678	0.098566	0.071743	-1.7833	-1.7625	-2.1688	-2.3167	-1.9375	-2.4167	-2.2438	-2.3292	-2.275	-1.8854	-2.4375	-2.1771	-1.9521	-2.4708	-1.9604	-2.1604	384.613	290.119	168.835	496.169	289.757	229.019	480.742	518.993	198.700	439.197	520.909	253.411	516.973	475.498	249.204	457.915	0.00067973	0.00047112	0.00012101	971.98	3.1216e-06	4.0389e-06	904.3	345.45	3.8264e-06	6.6477e-06	373.65	120.91	114.07	37.924	6.734e-06	42.91	0.00033694	0.00016833	3.7179e-05	907.87	2.5918e-06	1.2583e-06	845.94	323.79	1.8578e-06	1.3236e-05	349.24	113.58	107.55	35.929	6.6927e-06	40.665	514.818	253.356	258.741	181.678	274.592	307.117	180.064	185.586	296.650	285.282	183.816	187.151	189.061	193.770	289.977	191.596	-8191	255	
28284.346	1	1	0	0	0.14795	0.21846	0.41609	0.17673	0.075685	0.16388	0.14486	0.21472	0.28088	0.061107	0.26883	0.38133	0.23891	0.088064	0.26218	0.05213	-1.8125	-1.8021	-2.2062	-2.3792	-1.9375	-2.2146	-2.2604	-2.0187	-2.425	-2.1167	-2.1625	-2.3729	-1.95	-2.2875	-2.1458	-2.0438	388.775	360.562	507.041	524.334	238.795	280.718	471.851	462.312	427.685	511.310	507.537	190.064	179.948	463.112	298.225	394.585	0.00068655	0.00047663	0.00014471	968.63	3.1278e-06	3.691e-06	908.37	346.52	7.1734e-06	5.4116e-06	372.2	120.73	114.17	37.879	9.9542e-06	42.77	0.00033162	0.00015579	4.1691e-05	906.89	9.067e-06	1.44e-06	848.44	324.84	2.058e-06	7.0366e-06	348.47	113.44	107.42	35.936	1.1854e-05	40.529	511.996	256.203	246.597	181.418	253.521	324.788	180.398	185.806	288.116	297.334	183.879	187.140	189.046	193.862	304.798	191.902	-8191	255	
28284.465	1	1	0	0	0.094702	0.14949	0.15537	0.016241	0.09689	0.27182	0.30023	0.28347	0.31836	0.29518	0.17238	0.11466	0.15986	0.078142	0.19054	0.053516	-1.8542	-1.6208	-2.0583	-2.4854	-1.9688	-2.4458	-2.2208	-2.1708	-2.2979	-1.9875	-2.0667	-2.2833	-2.0271	-2.3021	-2.1708	-2.0896	184.260	399.907	194.388	428.028	355.909	498.152	488.617	492.108	325.473	479.484	477.036	183.719	460.464	483.279	340.207	464.126	0.00065709	0.00044712	0.00011899	966.3	1.9179e-06	4.378e-06	903.59	344.8	6.1722e-06	4.2847e-06	371.27	121.28	114.52	37.642	4.5889e-06	42.713	0.00031768	0.00015509	3.7751e-05	906.15	6.7606e-06	1.4578e-06	847.18	323.55	2.0337e-06	1.2454e-05	348.72	113.4	107.81	35.888	5.2112e-06	40.501	512.429	260.338	245.558	181.664	312.020	316.093	180.238	185.435	287.389	268.187	183.788	187.241	188.981	193.890	325.144	191.586	-8191	255	
28284.535	1	1	0	0	0.15524	0.14067	0.082685	0.39578	0.095005	0.15459	0.20978	0.29994	0.04455	0.13787	0.12844	0.023899	0.27839	0.16729	0.2307	0.25701	-1.9771	-1.8125	-2.0687	-2.2979	-1.8875	-2.3667	-2.4958	-1.8646	-2.2167	-2.1125	-2.1896	-2.4021	-1.9875	-2.4125	-2.0833	-2.1021	487.712	309.317	435.015	498.462	334.334	432.572	494.530	478.824	296.048	205.292	523.677	478.221	480.725	208.795	226.554	502.895	0.00066429	0.00046977	0.00017376	965.7	3.1887e-06	3.5456e-06	907.35	345.83	5.8201e-06	4.4379e-06	371.63	121.05	114.55	37.749	7.7892e-06	42.574	0.00033748	0.00015812	4.1495e-05	905.86	1.1303e-05	1.551e-06	848.82	323.91	2.0539e-06	7.2001e-06	348.68	113.55	107.42	35.909	2.221e-06	40.804	512.324	248.862	259.043	181.359	378.767	305.740	179.957	185.714	294.033	266.034	183.690	187.337	188.816	193.764	328.948	191.611	-8191	255	
28284.633	1	1	0	0	0.13399	0.18856	0.096247	0.41421	0.25527	0.20818	0.25254	0.11288	0.40004	0.12107	0.0049895	0.18573	0.12318	0.080752	0.18085	0.26146	-1.9958	-2.1292	-2.1708	-2.3167	-2.0312	-2.2292	-2.2583	-1.9792	-2.225	-1.9771	-1.9312	-2.2875	-1.9417	-2.0125	-2.2896	-1.8583	396.730	173.934	393.250	491.669	212.416	356.856	415.797	410.307	328.091	327.115	249.692	386.118	177.831	483.785	386.401	357.775	0.00069016	0.00044336	0.00014249	969.72	3.0549e-06	4.3994e-06	906.99	346.24	4.8601e-06	7.2691e-06	372.32	122.09	115.16	38.029	5.2159e-06	42.771	0.00033995	0.00015066	4.1446e-05	907.73	6.6129e-06	1.4625e-06	848.51	324.86	1.9897e-06	1.2659e-05	350.15	114.18	107.89	36.047	1.8326e-06	40.891	512.682	254.441	256.191	181.245	282.296	326.875	180.232	185.619	302.731	283.268	184.118	187.493	188.761	193.930	295.831	191.640	-8191	255	
28284.752	1	1	0	0	0.1043	0.065654	0.1232	0.20792	0.080353	0.031544	0.15779	0.18294	0.070082	0.29639	0.24319	0.26196	0.24889	0.10437	0.045586	0.28668	-1.7083	-1.8958	-1.9312	-2.4583	-1.9438	-2.2458	-2.4938	-1.9188	-2.1542	-2.1479	-2.0833	-2.3979	-1.975	-2.1042	-2.4333	-2.1083	256.013	191.380	508.150	525.493	416.788	206.856	391.833	486.965	295.019	437.431	497.452	495.675	256.774	274.728	245.346	204.144	0.00069401	0.00035407	0.00013574	970.66	1.8726e-07	3.9413e-06	912.38	347.81	4.4046e-06	6.3026e-06	374.93	122.1	115.06	37.887	4.3716e-06	42.931	0.00033305	0.00014833	4.0253e-05	909.65	1.1676e-05	1.5966e-06	851.4	325.4	1.951e-06	4.7425e-06	351.25	114.27	108.13	36.06	1.7373e-06	40.884	513.366	254.408	252.300	181.473	387.133	321.554	180.030	185.684	293.122	303.416	183.630	187.456	189.134	193.630	299.203	191.513	-8191	255	
28284.848	1	1	0	0	0.14567	0.31704	0.1951	0.27453	0.02779	0.35393	0.078801	0.19849	0.11345	0.3021	0.21534	0.093746	0.21919	0.11889	0.18648	0.22583	-1.9833	-2.1333	-1.8771	-2.3854	-1.9583	-2.0458	-2.2583	-2.0417	-1.9312	-2.0271	-2.1271	-2.2771	-1.9104	-2.0062	-2.2896	-2.0458	326.353	387.310	274.642	524.029	331.372	234.723	440.112	399.674	347.437	521.994	385.193	174.986	497.597	222.760	168.375	290.988	0.00069515	0.0004885	0.00011475	967.04	8.8531e-07	3.9967e-06	905.74	346.62	6.2874e-06	6.3599e-06	373.82	121.45	114.41	38.065	4.208e-06	42.627	0.00034015	0.00014261	3.937e-05	906.28	6.4908e-06	1.5358e-06	848.48	324.4	2.062e-06	1.6774e-06	351.48	113.81	107.7	36.082	1.8664e-06	40.715	512.343	269.413	263.562	181.348	210.980	325.143	179.902	185.735	283.418	324.804	183.608	187.457	188.999	193.936	297.543	191.597	-8191	255	
28284.945	1	1	0	0	0.12293	0.28077	0.13056	0.091623	0.080658	0.25285	0.17481	0.24148	0.19339	0.15322	0.037085	0.061747	0.097761	0.16362	0.18186	0.082017	-1.8042	-2.1	-1.6562	-2.4458	-2.0604	-1.9708	-2.3458	-2.0563	-2.1729	-2.1063	-1.9937	-2.3937	-2.25	-2.1229	-2.5	-2.0104	348.367	450.324	389.636	421.162	487.645	331.983	435.844	469.011	463.118	433.917	227.183	432.168	317.758	442.634	390.375	527.842	0.00068836	0.00045017	0.00012753	972.69	1.2757e-06	3.6982e-06	906.66	345	6.3438e-06	4.2685e-06	372.66	121.43	114.29	38.234	4.3049e-06	42.763	0.00033731	0.00013707	4.349e-05	906.82	1.131e-05	1.4961e-06	848.91	323.69	1.9706e-06	1.4291e-06	349.84	113.75	107.24	36.084	1.7361e-06	40.97	513.603	262.033	252.479	181.584	445.770	306.732	180.008	185.858	286.100	329.170	183.742	187.359	189.123	193.978	301.165	191.778	-8191	255	
28285.041	1	1	0	0	0.22298	0.28217	0.079445	0.17705	0.14998	0.13424	0.1206	0.2554	0.32077	0.20346	0.23837	0.13639	0.054068	0.28072	0.16505	0.059293	-1.8292	-2.2313	-1.9083	-2.2208	-2.1875	-1.9375	-2.4729	-2.0292	-2.1479	-2.4333	-2.1021	-2.2792	-2.1688	-1.9354	-2.4625	-2.1875	508.027	167.908	526.582	168.305	491.276	195.154	416.950	381.560	257.073	205.009	497.416	176.863	295.314	505.177	433.002	259.874	0.00070174	0.00043395	0.00015547	968.13	2.8081e-06	3.7957e-06	909.97	345.44	5.6325e-06	4.4981e-06	373.2	122.36	114.27	37.965	4.8804e-06	43.28	0.00034181	0.00015183	4.4765e-05	904.33	4.7588e-06	2.9401e-06	851.22	324.36	2.1054e-06	1.5552e-06	350.9	114.39	107.61	36.013	1.8639e-06	41.04	513.473	258.765	257.395	181.581	323.954	296.887	179.980	185.450	293.057	325.450	183.608	187.455	189.144	193.795	299.782	191.241	-8191	255	
28285.137	1	1	0	0	0.13397	0.25198	0.059264	0.19901	0.19271	0.34108	0.39622	0.25483	0.1192	0.3222	0.16276	0.12182	0.24265	0.2239	0.10089	0.21106	-1.6938	-2.3417	-1.9646	-2.3958	-2.2833	-1.9583	-2.4813	-2.2042	-2.1854	-2.3542	-2.2354	-2.0708	-2.25	-1.9292	-2.35	-2.0896	406.180	407.456	462.506	503.928	200.790	401.710	194.993	417.379	445.385	486.157	499.386	293.003	428.413	447.223	427.762	245.817	0.00069646	0.00056439	0.00013833	972.03	4.3972e-06	5.0196e-06	911.98	345.92	6.5167e-06	4.8765e-06	373.92	122.06	114.62	38.228	5.3485e-06	43.208	0.00034699	0.00016693	4.7496e-05	906.53	1.9439e-06	1.1915e-05	852.28	324.19	2.1563e-06	1.4455e-06	351.8	114.66	107.58	36.126	1.8338e-06	41.134	512.549	255.938	240.934	181.479	286.815	232.243	180.150	185.489	281.479	310.318	183.814	187.483	189.010	193.805	310.076	191.288	-8191	255	
28285.232	1	1	0	0	0.19282	0.14475	0.026098	0.28237	0.062967	0.1426	0.056027	0.30117	0.071906	0.23945	0.099049	0.25959	0.24304	0.15897	0.051702	0.30455	-1.55	-2.2833	-1.9062	-2.2208	-2.2208	-2.0229	-2.4437	-2.3146	-2.0583	-2.3167	-2.1292	-2.3312	-2.4208	-2.1458	-2.0792	-2.2438	453.000	195.759	381.646	171.851	177.566	315.639	506.772	454.453	304.923	479.388	489.786	523.830	436.491	188.680	208.217	423.481	0.00066511	0.00048397	0.00013476	969.74	4.7925e-06	3.4468e-06	911.52	346.44	4.512e-06	4.7106e-06	371.43	121.48	114.51	38.104	4.8652e-06	43.035	0.00033965	0.00014121	4.5501e-05	907.28	1.8931e-06	6.9146e-06	849.42	323.67	2.1384e-06	1.261e-06	350.06	113.87	107.61	36.079	1.8296e-06	40.938	513.291	268.075	256.527	181.392	272.970	291.552	179.741	185.500	285.301	323.388	183.840	186.972	189.037	193.768	301.107	191.419	-8191	255	
28285.326	1	1	0	0	0.1437	0.26799	0.10344	0.095767	0.11066	0.26093	0.1185	0.12122	0.095825	0.17851	0.26357	0.28222	0.12488	0.10245	0.13997	0.084941	-1.5187	-2.3375	-2.0125	-2.3396	-2.2375	-1.8875	-2.1854	-2.3458	-1.9667	-2.2917	-2.2104	-2.1417	-2.4875	-1.9583	-2.3667	-2.3417	329.754	169.210	400.203	273.326	366.519	502.676	468.404	491.342	195.836	246.304	417.239	482.314	522.079	184.932	439.173	184.987	0.00067321	0.00034287	0.00014622	969.79	3.7357e-06	1.7244e-06	908.71	345.19	6.0941e-06	4.953e-06	373.48	122.12	114.32	37.939	4.0419e-06	43.07	0.00043089	0.00013724	4.797e-05	904.77	1.8641e-06	1.2451e-05	848.75	323.97	2.1025e-06	1.3615e-06	350.53	114.46	107.64	36.089	1.686e-06	40.855	514.695	264.699	262.136	181.704	273.553	274.089	180.091	185.601	286.965	324.513	183.675	187.417	189.272	193.747	286.414	191.446	-8191	255	
28285.426	1	1	0	0	0.22245	0.41495	0.25695	0.1432	0.11896	0.21426	0.26369	0.13197	0.081844	0.10501	0.42534	0.1294	0.089032	0.18012	0.22406	0.068237	-1.4771	-2.1833	-1.8875	-2.1562	-2.3042	-2.0833	-2.2646	-2.3042	-1.9312	-2.3625	-2.3792	-2.1146	-2.3208	-2.0875	-2.1063	-2.1792	220.953	371.768	172.409	454.401	272.336	212.359	413.562	482.007	425.117	400.420	514.855	264.914	467.949	498.562	502.453	434.189	0.00066736	0.00053718	0.00012853	968.51	4.228e-06	3.6178e-06	910.69	346.84	5.2905e-06	5.3015e-06	374.88	122.38	114.57	38.264	4.1831e-06	43.208	0.00088355	0.00015358	4.2362e-05	907.55	1.8045e-06	6.9463e-06	852.46	325.12	2.1355e-06	1.479e-06	352.96	114.8	108.06	36.208	1.8959e-06	41.054	515.008	249.228	256.284	181.540	281.490	280.453	180.036	185.473	275.600	310.307	183.674	187.207	189.027	193.566	301.427	191.520	-8191	255	
28285.545	1	1	0	0	0.34353	0.24509	0.057734	0.18987	0.19652	0.064014	0.31781	0.082808	0.28705	0.20035	0.094507	0.079818	0.17711	0.29177	0.097479	0.24073	-1.5125	-2.0271	-2.1167	-2.1792	-2.275	-1.9188	-2.2958	-2.3875	-1.9333	-2.3208	-2.225	-1.9271	-2.5083	-2.0625	-1.9562	-2.4417	282.022	172.861	281.448	471.050	464.043	393.661	485.796	237.591	374.038	504.702	240.249	304.283	411.417	502.527	452.834	446.567	0.00063738	0.00043006	0.00014343	970.02	4.5961e-06	4.3342e-06	915.31	348.1	6.8778e-06	5.7587e-06	375.15	123.57	115.53	38.456	4.9415e-06	43.062	0.00065062	0.00012744	4.2362e-05	908.25	1.8731e-06	1.3089e-05	853.57	325.62	2.1765e-06	1.5125e-06	352.85	115.61	108.3	36.323	1.9315e-06	41.16	512.627	241.497	265.851	181.560	279.287	193.855	179.888	185.488	279.787	309.912	183.997	187.357	188.881	193.973	302.454	191.564	-8191	255	
28285.639	1	1	0	0	0.27253	0.33269	0.10604	0.09609	0.27844	0.16047	0.25264	0.18371	0.21012	0.093997	0.11549	0.005472	0.28487	0.1295	0.10067	0.13403	-1.4188	-2.1583	-2.125	-2.0396	-2.4375	-1.8958	-2.0542	-2.4854	-2.1083	-2.2167	-2.2833	-1.9729	-2.3292	-2.1583	-2.025	-2.475	393.673	510.085	520.096	281.012	456.180	428.814	375.626	452.082	209.734	498.247	422.113	334.658	210.501	515.693	493.747	282.406	0.00067813	0.00049212	0.00016176	967.35	4.2712e-06	4.4088e-06	912.83	345.55	5.9567e-06	5.3396e-06	374.57	123.1	114.35	38.346	5.5123e-06	43.082	0.00092484	0.0001457	4.0547e-05	908.09	1.8915e-06	6.875e-06	850.93	324.98	2.2344e-06	1.4895e-06	351.4	115.32	107.79	36.398	1.8084e-06	41.042	515.081	251.672	263.675	181.473	294.064	262.727	180.133	185.749	273.213	315.899	184.081	186.912	188.981	193.531	316.310	191.358	-8191	255	
28285.736	1	1	0	0	0.082467	0.19259	0.33898	0.17548	0.012237	0.10649	0.054824	0.35072	0.23479	0.08527	0.11093	0.054947	0.24664	0.14194	0.062698	0.055877	-1.5125	-2.0542	-2.2854	-1.9854	-2.3417	-1.9708	-2.1479	-2.3438	-1.9438	-2.1667	-2.425	-1.9375	-2.3979	-2.2062	-1.7437	-2.25	464.076	271.918	183.902	184.337	202.174	400.959	512.473	458.047	433.209	504.188	449.318	405.923	447.226	466.602	352.329	171.880	0.00063839	0.0003934	0.00013537	968.59	5.3426e-06	6.5932e-07	907.79	347.63	5.0024e-06	3.5148e-06	376.65	122.41	115.09	38.338	4.7638e-06	43.252	0.00061336	0.00015737	3.9844e-05	906.66	1.834e-06	1.2663e-05	847.88	325.62	2.04e-06	1.4081e-06	351.24	115.01	108.14	36.354	1.905e-06	40.987	514.344	261.748	269.762	181.470	285.193	242.806	179.870	185.572	286.751	328.613	183.678	187.223	188.925	193.726	304.572	192.009	-8191	255	
28285.830	1	1	0	0	0.25107	0.11107	0.24078	0.16135	0.11638	0.071596	0.10502	0.14052	0.10568	0.090399	0.19176	0.045438	0.40428	0.28427	0.036422	0.12024	-1.5187	-2.1396	-2.175	-1.8854	-2.2229	-2.3917	-2.2083	-2.4	-2.0354	-2.1542	-2.4688	-2.1083	-2.2583	-2.2979	-1.9375	-2.4396	425.175	264.213	419.509	471.460	366.132	232.938	445.573	501.434	170.262	439.419	194.340	289.090	180.195	477.131	480.276	450.855	0.00057098	0.00046478	0.00013387	970.03	4.9436e-06	4.3919e-06	913.1	347.03	6.0817e-06	5.1359e-06	375.45	123.03	115.14	38.268	4.0421e-06	42.989	0.00090559	0.00015107	3.7833e-05	906.91	1.911e-06	3.8834e-06	852.52	325.59	2.1129e-06	1.4488e-06	352.02	115.58	108.08	36.321	1.9194e-06	41.087	518.800	248.526	245.586	181.499	283.192	313.676	179.885	185.568	282.306	314.366	183.895	187.267	189.148	193.587	303.749	191.339	-8191	255	
28285.928	1	1	0	0	0.19688	0.18375	0.10986	0.16288	0.19303	0.30499	0.12213	0.18835	0.31522	0.30754	0.14648	0.25422	0.10919	0.091308	0.24287	0.14089	-1.5604	-2.1417	-2.3063	-2.0375	-2.1104	-2.3438	-1.8521	-2.5667	-2.1396	-2.0333	-2.6333	-2.0146	-2.25	-2.1312	-2.0396	-2.4146	294.709	431.464	441.932	494.886	360.888	177.906	173.292	318.828	248.274	348.120	184.002	506.620	174.631	339.015	381.223	182.620	0.00067882	0.00046862	0.00012693	968.87	4.8871e-06	4.7843e-06	911.43	348.27	5.4969e-06	4.8266e-06	377.08	123.25	115.51	38.318	3.1872e-06	43.685	0.00062084	0.00015381	3.6002e-05	906.22	1.8982e-06	1.4202e-06	855.99	325.97	1.9747e-06	1.4823e-06	353.51	115.7	108.22	36.364	1.9399e-06	41.33	516.779	254.354	265.951	181.549	282.837	316.701	180.060	185.614	276.983	329.093	183.811	187.444	189.054	193.621	288.637	191.715	-8191	255	
28286.049	1	1	0	0	0.15397	0.22677	0.0048018	0.37361	0.23533	0.019951	0.42916	0.19348	0.052108	0.37671	0.26161	0.10135	0.071027	0.19354	0.22116	0.11833	-1.6604	-1.8771	-2.4854	-2.1542	-2.2583	-2.1729	-2.0958	-2.4542	-2.0146	-2.0521	-2.4854	-1.9937	-2.25	-2.25	-1.9208	-2.3375	335.945	376.495	316.927	439.125	408.756	286.579	470.237	509.387	203.897	394.492	426.222	428.792	234.085	190.721	352.053	454.474	0.0006109	0.00045017	0.00014948	971.71	4.8625e-06	5.2074e-06	912.69	348.82	6.1058e-06	4.5719e-06	375.48	122.45	115.48	38.35	3.6583e-06	43.195	0.00092417	0.00015591	4.0612e-05	907.81	1.8753e-06	1.4592e-06	855.48	325.94	2.0747e-06	1.479e-06	352.65	115.61	108.41	36.37	1.835e-06	41.018	514.238	255.711	269.970	181.598	284.291	315.199	180.076	185.793	287.805	320.364	183.929	187.240	188.923	193.779	307.699	191.229	-8191	255	
28286.145	1	1	0	0	0.17806	0.16059	0.043424	0.33384	0.063138	0.31311	0.19361	0.23624	0.12642	0.11783	0.17464	0.26534	0.081587	0.10289	0.17557	0.059207	-1.75	-1.9771	-2.2146	-2.15	-2.1	-2.3333	-2.0208	-2.2229	-2.2375	-1.8479	-2.4333	-2.1875	-1.9958	-2.4396	-2.0583	-2.1917	209.852	445.057	402.680	506.389	257.444	413.851	471.688	484.280	237.107	337.273	459.011	490.738	299.511	499.372	271.606	282.688	0.0006208	0.00039707	0.00012262	971.24	4.273e-06	5.5706e-06	910.07	346.75	5.0125e-06	4.6278e-06	374.11	122.89	114.49	38.189	3.9511e-06	42.862	0.00046112	0.00037143	3.8405e-05	905.62	1.9879e-06	1.5655e-06	854.51	324.73	2.0082e-06	1.7266e-06	350.58	115.21	107.87	36.292	2.0105e-06	40.909	513.347	258.603	257.844	181.520	293.400	308.311	180.184	185.825	286.782	315.352	183.793	187.007	188.946	193.605	297.449	191.248	-8191	255	
28286.240	1	1	0	0	0.33208	0.20328	0.11606	0.26643	0.19743	0.10438	0.090676	0.10362	0.26496	0.22273	0.18542	0.099529	0.1532	0.077677	0.19405	0.2226	-1.95	-1.7604	-2.1125	-2.0875	-2.0979	-2.5104	-2.0187	-2.3375	-2.2958	-1.9937	-2.2125	-2.1979	-2.2	-2.4938	-1.8917	-2.15	387.685	197.151	426.254	525.366	300.038	437.461	481.686	426.013	443.323	310.536	290.634	230.085	486.703	518.878	313.858	477.019	0.00067208	0.00063528	0.0001352	970.09	5.1422e-06	4.0755e-06	907.47	346.91	5.5976e-06	4.9737e-06	376.45	122.72	115.13	38.458	4.8772e-06	42.948	0.00033501	0.0011504	3.6084e-05	905.96	2.0716e-06	1.5265e-06	852.04	325.3	1.9689e-06	1.7588e-06	351.74	115.48	108.17	36.37	1.9822e-06	41.006	513.122	303.490	257.157	181.310	274.328	312.754	180.087	185.695	286.150	321.658	183.840	187.226	188.914	193.792	299.446	191.216	-8191	255	
28286.336	1	1	0	0	0.074471	0.33533	0.1937	0.0977	0.17428	0.32091	0.27367	0.1976	0.36107	0.21801	0.39048	0.09	0.19264	0.13558	0.08669	0.24513	-2.0083	-1.875	-2.4125	-2.1479	-2.0229	-2.2354	-2.1875	-2.1333	-2.3125	-1.7563	-2.5354	-2.1021	-2.15	-2.6583	-2.1458	-2.0125	206.405	201.759	452.069	492.104	221.073	407.890	456.210	441.979	254.628	368.852	462.790	485.247	224.140	483.150	285.695	242.622	0.00065977	0.00027932	0.00013839	968.58	3.5683e-06	3.9892e-06	917.3	348.1	5.7693e-06	5.3754e-06	376.95	123.54	114.69	38.43	4.9317e-06	43.182	0.00033091	0.00062602	3.8307e-05	907.95	1.8909e-06	1.4083e-06	858.37	326.05	1.9828e-06	1.7332e-06	353.37	115.81	108.29	36.443	2.0672e-06	41.279	513.237	270.858	247.307	181.348	283.814	318.787	180.068	186.062	274.380	319.921	183.529	187.176	189.257	194.182	295.580	191.670	-8191	255	
28286.408	1	1	0	0	0.065376	0.11478	0.22771	0.19604	0.19747	0.10904	0.18488	0.48235	0.099333	0.24815	0.033533	0.23273	0.11223	0.073581	0.14403	0.18121	-1.8417	-1.9229	-2.2167	-2.1542	-1.8083	-2.2438	-2.1021	-2.2938	-2.5542	-1.9167	-2.1667	-2.3021	-1.8854	-2.1917	-1.9667	-1.9458	435.718	296.568	413.566	485.997	223.644	429.348	514.953	499.676	340.880	233.770	441.047	168.525	474.415	209.627	216.414	297.608	0.0006986	0.00037609	0.00014029	968.04	4.1335e-06	4.3681e-06	916.38	349.92	5.5143e-06	4.0002e-06	379.6	123.66	115.75	38.377	3.725e-06	43.24	0.00034015	0.0012007	4.076e-05	907.63	2.0108e-06	1.4136e-06	857.98	327.82	1.9862e-06	1.5309e-06	355.02	115.78	109.36	36.431	1.7729e-06	41.161	511.672	367.033	262.911	181.601	277.676	326.574	180.039	185.567	281.476	325.821	183.741	187.536	188.877	193.782	303.165	191.656	-8191	255	
28286.527	1	1	0	0	0.14783	0.12922	0.17479	0.32512	0.18668	0.035243	0.23573	0.22401	0.039231	0.019364	0.16231	0.09492	0.023291	0.17552	0.12962	0.12828	-1.9438	-1.9146	-2.2896	-2.5187	-1.9896	-2.4271	-2.2188	-2.0875	-2.3521	-1.975	-2.1333	-2.325	-2.0438	-2.2396	-2.3354	-2.1458	419.084	238.752	431.950	222.608	317.137	401.264	211.044	484.046	411.131	300.070	184.538	475.492	246.331	525.479	442.338	423.074	0.00065469	5.1963e-05	0.00012336	971.08	4.3052e-06	5.1203e-06	917.05	349.18	4.8135e-06	5.306e-06	377.72	122.72	115.68	38.153	5.2565e-06	42.947	0.00032255	0.00064825	4.2738e-05	908.96	2.0376e-06	1.4519e-06	858.04	327.4	1.9405e-06	1.5651e-06	353.06	115.11	108.78	36.296	1.9309e-06	40.852	513.776	364.763	259.498	181.381	291.869	317.675	180.209	185.524	282.260	312.744	183.725	187.030	189.049	193.744	311.910	191.705	-8191	255	
28286.625	1	1	0	0	0.12074	0.12619	0.077201	0.27158	0.081554	0.19303	0.38459	0.19712	0.12402	0.36789	0.23166	0.083809	0.34202	0.17524	0.19624	0.30121	-1.8917	-2.0292	-2.1646	-2.5104	-2.0854	-2.2646	-2.3542	-2.1167	-2.4875	-2.0729	-2.35	-2.4104	-2.0375	-2.1562	-2.1542	-2.0563	314.931	314.929	283.879	169.186	249.624	458.667	452.239	520.010	384.469	208.875	361.158	245.987	169.412	473.634	268.508	417.429	0.00070795	0.00047204	0.00014689	972.58	4.419e-06	5.5421e-06	918.17	349.44	4.4402e-06	4.788e-06	376.23	122.8	115.08	38.076	5.107e-06	42.952	0.00033714	0.001153	4.2362e-05	908.79	1.9974e-06	1.58e-06	853.87	327.56	1.8758e-06	1.6275e-06	353.71	114.98	108.79	36.17	1.8332e-06	40.728	510.627	340.249	252.678	181.690	305.974	321.338	180.181	185.537	285.163	304.017	183.628	187.123	188.829	193.660	301.212	191.288	-8191	255	
28286.719	1	1	0	0	0.10028	0.25012	0.17164	0.10017	0.1072	0.17034	0.15484	0.26533	0.12929	0.12105	0.29476	0.16848	0.1756	0.15092	0.11944	0.20278	-1.9229	-2.1688	-2.1688	-2.4188	-1.9333	-2.2125	-2.3354	-1.9937	-2.3021	-2.0312	-2.1292	-2.4396	-2.1417	-2.2	-2.3312	-1.9583	179.460	256.548	353.812	457.236	522.059	209.626	478.996	465.697	317.275	200.703	497.519	443.068	505.848	490.054	410.138	422.013	0.00066191	0.00029805	0.0001246	975.05	5.0217e-06	3.9258e-06	920.51	350.79	5.4975e-06	4.0718e-06	377.98	123.43	115.52	37.968	4.7262e-06	42.601	0.0003235	0.00064049	4.0563e-05	912.22	2.119e-06	1.44e-06	857.05	330.45	2.025e-06	1.6859e-06	355.8	115.32	108.88	36.122	1.8127e-06	40.659	510.905	229.654	253.675	181.493	298.385	312.055	180.013	185.635	292.311	310.940	183.818	187.409	189.002	193.776	299.991	191.706	-8191	255	
28286.840	1	1	0	0	0.1226	0.10243	0.1242	0.19611	0.13318	0.10332	0.10315	0.1554	0.053612	0.13715	0.1004	0.083627	0.055045	0.1731	0.16033	0.20563	-1.8771	-2.2771	-1.9312	-2.6354	-2.0292	-2.2396	-2.2375	-1.8438	-2.3042	-2.0292	-1.9854	-2.4833	-1.9521	-2.1521	-2.1625	-1.9729	266.439	168.635	297.388	432.417	351.498	400.091	521.453	509.682	191.069	316.301	489.697	473.136	494.991	320.075	450.778	191.845	0.0006888	0.00022225	0.00014121	981.13	3.8507e-06	3.8553e-06	920.97	353.16	4.4348e-06	4.3812e-06	380	122.96	116.64	38.003	3.8775e-06	43.11	0.00034283	0.001083	4.1528e-05	915.26	1.9311e-06	1.4459e-06	861.97	332.2	1.9053e-06	1.6393e-06	357.68	115.76	109.74	36.113	1.7186e-06	40.745	511.998	365.608	250.007	181.562	274.460	322.002	179.980	185.618	284.667	324.011	183.989	187.244	189.165	193.754	296.865	191.283	-8191	255	
28286.936	1	1	0	0	0.061784	0.16434	0.2524	0.18948	0.30676	0.16459	0.15785	0.25103	0.33008	0.088065	0.21952	0.10613	0.37007	0.34857	0.26615	0.18632	-1.7292	-2.1833	-1.8958	-2.4292	-2.0083	-2.0104	-2.575	-2.275	-2.275	-2.4083	-2.125	-2.4708	-2.1396	-2.3438	-2.4667	-1.9854	263.959	430.594	461.303	218.755	331.162	375.654	491.260	441.999	334.128	497.028	210.008	443.404	200.570	521.008	205.489	467.317	0.00064958	0.00037284	8.6766e-05	980.36	4.1027e-06	4.9857e-06	917.22	353.67	4.2097e-06	5.2799e-06	379.13	122.38	115.4	38.177	4.4679e-06	42.421	0.00032956	0.00026072	0.00012339	917.7	1.9762e-06	1.586e-06	857.55	332.4	1.8972e-06	1.6235e-06	355.83	115.08	109.02	36.11	1.8241e-06	40.286	512.870	290.174	218.782	181.396	278.956	322.938	180.092	185.584	289.213	319.260	183.681	187.230	188.829	193.452	300.946	191.523	-8191	255	
28287.031	1	1	0	0	0.24032	0.14819	0.31119	0.31034	0.22006	0.11606	0.30793	0.34754	0.077128	0.22513	0.056928	0.16683	0.23585	0.26373	0.10331	0.18244	-1.7458	-2.2313	-1.85	-2.4104	-2.0396	-1.9479	-2.3917	-2.0875	-2.1417	-2.1833	-1.9854	-2.3354	-2.1188	-2.0687	-2.2583	-1.9688	431.688	247.366	444.695	180.229	286.177	182.272	460.573	455.021	420.952	385.009	210.806	488.847	476.621	476.610	424.101	469.920	0.00068035	0.00044521	9.9518e-05	975.21	2.6735e-06	4.3538e-06	911.15	352.58	5.7674e-06	4.8095e-06	379.75	122.83	115.54	37.917	5.4334e-06	42.289	0.00033406	0.00014331	0.00033154	912.56	1.868e-06	1.6441e-06	856.29	331.41	2.1719e-06	1.4587e-06	356.23	115.04	109.39	36.051	1.8042e-06	40.282	513.171	257.388	466.574	181.519	280.068	314.798	179.965	185.684	292.001	316.607	183.268	186.960	189.271	193.604	297.468	191.121	-8191	255	
28287.129	1	1	0	0	0.29926	0.11727	0.19993	0.19015	0.077616	0.22043	0.29109	0.24036	0.077731	0.17688	0.14907	0.060544	0.24221	0.26728	0.07916	0.053619	-1.5688	-2.3854	-1.8979	-2.2562	-2.4583	-1.85	-2.5979	-2.2146	-2.2021	-2.3479	-1.9208	-2.3104	-2.1979	-1.9083	-2.3167	-1.9792	179.508	402.044	189.484	168.687	358.741	264.683	487.780	174.010	214.457	417.946	487.688	206.171	406.611	440.536	349.095	459.234	0.00073415	0.00044799	4.8394e-05	980.62	3.822e-06	4.9761e-06	914.97	355.12	4.71e-06	4.3712e-06	380	123.6	116.71	38.287	3.5491e-06	42.911	0.00035674	0.00014488	0.00018939	916.21	1.9283e-06	1.7769e-06	857.13	333.52	2.1083e-06	1.4751e-06	357.25	115.85	109.6	36.302	1.8e-06	40.61	512.423	253.928	311.242	181.299	285.530	318.861	180.008	185.570	281.415	323.124	183.625	187.301	188.774	193.464	313.001	191.369	-8191	255	
28287.225	1	1	0	0	0.27743	0.15143	0.29274	0.26188	0.15294	0.1563	0.086181	0.22471	0.33366	0.091668	0.11973	0.14732	0.34626	0.16529	0.32075	0.26823	-1.7062	-2.3646	-1.9792	-2.3958	-2.2396	-1.9208	-2.4792	-2.1708	-2.0667	-2.4833	-1.95	-2.2604	-2.3708	-1.9396	-2.2542	-2.1312	264.549	498.644	214.724	497.952	249.648	270.763	217.694	259.339	321.240	486.800	258.733	333.918	473.723	484.111	409.414	430.602	0.00068879	0.00039508	0.00011373	977.25	3.9168e-06	3.9086e-06	920.36	356.31	5.099e-06	5.206e-06	383.69	123.5	117.68	38.287	4.6609e-06	43.03	0.00034455	0.0001457	0.00034316	916.89	1.8034e-06	1.6045e-06	861.74	335.08	2.0487e-06	1.3345e-06	359.47	116.18	109.97	36.604	1.7361e-06	40.88	514.033	249.845	219.591	181.449	287.760	334.369	179.930	185.525	288.708	302.299	183.878	187.008	188.856	193.412	297.202	191.340	-8191	255	
28287.320	1	1	0	0	0.046242	0.087775	0.11407	0.11252	0.14784	0.087819	0.26237	0.022682	0.21059	0.17392	0.34906	0.21385	0.25401	0.064218	0.12302	0.14053	-1.6417	-2.3333	-1.9729	-2.3042	-2.1979	-2.0292	-2.325	-2.1688	-1.9896	-2.25	-2.025	-2.3333	-2.3688	-2.0458	-2.3083	-2.1708	304.773	486.025	178.386	480.134	199.883	229.404	317.116	487.850	344.421	441.159	509.609	459.916	468.519	514.493	527.668	231.321	0.0007002	0.00054581	0.00010297	984.07	4.8415e-06	4.9377e-06	919.67	353	8.7583e-06	4.829e-06	380.39	123.59	116.09	38.16	4.2291e-06	42.968	0.00035251	0.00015089	0.00018933	919.59	1.8853e-06	1.802e-06	859.02	332.68	2.5681e-06	1.483e-06	356.47	115.81	109.22	36.423	1.7735e-06	40.614	513.770	252.072	224.162	181.113	279.709	313.778	180.163	185.691	257.103	310.815	183.947	187.511	188.974	193.762	296.098	191.178	-8191	255	
28287.418	1	1	0	0	0.19372	0.32206	0.15335	0.098076	0.18994	0.13739	0.040527	0.18673	0.14505	0.2321	0.07492	0.27325	0.2282	0.18557	0.19507	0.26141	-1.6354	-2.4313	-1.9125	-2.1771	-2.2083	-1.9083	-2.4854	-2.2979	-2.1229	-2.325	-2.2229	-2.0708	-2.5104	-2.0563	-2.0563	-2.2979	440.489	471.284	178.358	520.650	476.302	422.116	395.715	378.566	177.361	208.598	223.471	414.338	526.710	216.775	406.939	448.370	0.00068	0.00049531	7.4758e-05	974.14	4.1851e-06	4.1583e-06	912.3	351.55	7.0127e-06	4.1664e-06	377.19	122.96	115.77	38.304	4.5612e-06	42.777	0.00034239	0.00015742	0.00033294	910.51	1.9372e-06	1.7207e-06	851.09	329.66	5.4104e-06	1.4193e-06	354.71	115.21	109.03	36.538	1.829e-06	40.624	512.746	256.847	254.981	181.406	276.736	328.011	180.306	185.643	270.381	326.178	183.425	187.040	189.013	193.667	301.662	191.280	-8191	255	
28287.537	1	1	0	0	0.065045	0.20896	0.10822	0.16318	0.099311	0.10969	0.17052	0.22122	0.10297	0.093848	0.14418	0.46954	0.18556	0.29288	0.27302	0.098072	-1.6854	-2.1667	-2.0458	-2.0438	-2.4042	-1.9042	-2.2167	-2.3521	-1.7729	-2.2104	-2.0812	-1.8979	-2.4688	-1.8687	-2.1708	-2.3375	272.215	519.539	441.502	513.319	185.170	407.858	416.078	499.602	255.749	269.012	438.915	434.030	432.969	421.119	252.505	384.288	0.00068339	0.00053412	7.6908e-05	978.19	3.9006e-06	3.8987e-06	916.83	351.66	9.8705e-06	5.2619e-06	379.73	123.98	116.59	38.257	4.3274e-06	42.807	0.00034036	0.0001492	0.00018689	910.77	1.9344e-06	1.759e-06	855.65	329.59	1.2178e-05	1.4416e-06	355.49	115.99	109.28	36.483	1.9092e-06	40.718	513.562	260.232	246.127	181.556	287.950	329.412	179.979	185.350	272.864	311.028	183.541	186.906	188.936	193.750	299.002	191.282	-8191	255	
28287.633	1	1	0	0	0.046709	0.28141	0.21844	0.10824	0.12243	0.37097	0.039859	0.11589	0.17174	0.26872	0.36317	0.44267	0.27261	0.20473	0.099747	0.22042	-1.3375	-2.1375	-2.3125	-1.8896	-2.4646	-2.0417	-2.3	-2.3458	-1.8854	-2.2708	-2.2958	-1.9646	-2.2479	-2.0187	-2.0479	-2.4271	389.452	259.795	339.500	482.831	278.007	260.430	243.868	482.473	200.186	228.249	482.289	203.043	218.254	416.469	487.250	513.562	0.00069398	0.00037796	0.00014826	974.28	4.5475e-06	5.0619e-06	914.08	355.59	7.9789e-06	5.2987e-06	384.13	124.39	117.69	38.181	4.361e-06	42.596	0.00035166	0.00013456	0.00025654	912.76	1.7247e-06	1.7881e-06	856.05	332.79	7.1277e-06	1.4252e-06	358.21	116.6	110.21	36.591	1.9683e-06	40.629	512.352	262.959	227.200	181.364	275.564	325.648	180.128	185.481	283.445	324.146	183.712	187.092	188.713	193.614	293.857	191.339	-8191	255	
28287.729	1	1	0	0	0.25521	0.31151	0.12795	0.22661	0.094594	0.16498	0.17415	0.19283	0.14632	0.039173	0.26032	0.047606	0.14879	0.30283	0.13683	0.14488	-1.2479	-2.1063	-2.2667	-2.0208	-2.4437	-1.8125	-2.1542	-2.375	-2.0875	-2.4125	-2.2542	-1.9146	-2.4375	-2.0479	-2.1458	-2.3354	376.864	420.296	523.239	501.533	272.589	384.331	410.394	169.988	303.175	508.460	498.942	207.840	414.314	516.156	183.576	275.173	0.00069968	0.00048458	0.00013977	978.37	4.4584e-06	4.2379e-06	923.03	356.55	9.7739e-06	5.1403e-06	382.53	124.32	116.89	38.505	4.7035e-06	42.432	0.00034432	0.00016005	6.2341e-05	916.74	1.906e-06	1.6269e-06	860.73	334.63	1.245e-05	1.5066e-06	359.81	116.75	110.31	36.612	2.0141e-06	40.489	514.018	256.432	258.465	181.163	288.833	317.295	180.066	185.727	297.847	315.168	183.603	187.014	189.017	193.830	302.242	191.187	-8191	255	
28287.824	1	1	0	0	0.10562	0.29641	0.087141	0.11348	0.082582	0.24135	0.27997	0.15568	0.20316	0.11791	0.13504	0.16844	0.13823	0.075419	0.24733	0.16277	-1.3979	-2.1021	-2.2521	-2.0979	-2.3708	-2.2396	-2.0479	-2.4938	-1.9271	-2.2958	-2.1917	-1.925	-2.3729	-2.2	-1.9312	-2.3875	354.240	234.045	185.574	300.726	477.025	239.061	483.580	462.314	526.690	264.675	525.566	402.607	383.600	269.896	265.829	470.062	0.00068974	0.00049608	0.00013763	976.02	4.3515e-06	5.0293e-06	914.87	355.84	7.7929e-06	6.1431e-06	380.67	122.99	117.12	38.221	3.159e-06	42.84	0.00034831	0.00015952	4.2852e-05	916.36	1.9149e-06	1.6368e-06	855.05	332.82	7.3712e-06	1.4968e-06	357.26	115.79	109.7	36.399	3.4625e-06	40.494	511.626	259.333	260.224	181.535	286.501	320.865	180.210	185.472	308.756	304.611	183.744	187.215	189.017	193.478	280.564	190.975	-8191	255	
28287.920	1	1	0	0	0.44128	0.059579	0.048307	0.20179	0.2091	0.098069	0.15479	0.22276	0.14913	0.21788	0.13569	0.21174	0.20792	0.25861	0.43927	0.20593	-1.5833	-1.9292	-2.3417	-2.0583	-2.3104	-2.1167	-1.8708	-2.3896	-2.0312	-2.0333	-2.4437	-2.1104	-2.2562	-2.1208	-1.7208	-2.5542	329.197	194.158	497.578	510.112	193.986	378.572	440.437	451.856	281.062	495.009	470.016	490.239	201.306	181.015	235.764	194.688	0.00073408	0.00035301	0.00014323	974.15	5.306e-06	3.7602e-06	910.98	353.23	8.4586e-06	4.8772e-06	379.28	123.51	116.23	38.299	2.8554e-06	42.251	0.00035884	0.00015457	4.1839e-05	913.89	1.8619e-06	1.5979e-06	852.65	331.24	1.2184e-05	1.7161e-06	356.7	115.94	109.28	36.322	6.2909e-06	40.348	514.809	268.900	247.265	181.375	285.400	325.220	179.934	185.621	324.511	321.688	183.812	186.958	188.912	193.641	278.007	191.420	-8191	255	
28288.016	1	1	0	0	0.30372	0.37343	0.32125	0.34452	0.1519	0.15693	0.37428	0.31624	0.278	0.32442	0.16119	0.061796	0.13135	0.1915	0.18615	0.13457	-1.5229	-2.1104	-2.3146	-2.0312	-2.2208	-2.3854	-2.0542	-2.4146	-2.1167	-2.0979	-2.6417	-1.9604	-2.0625	-2.1813	-1.9354	-2.225	386.639	188.945	401.530	481.318	459.243	198.488	455.387	502.529	417.486	226.829	388.212	325.619	257.303	453.135	358.903	426.117	0.00067709	0.00048464	0.00011755	977.9	3.399e-06	4.3763e-06	916.82	355.08	7.1568e-06	4.9574e-06	381.98	123.99	116.23	38.255	3.8228e-06	42.49	0.00033657	0.00014634	4.1021e-05	915.18	1.8641e-06	1.5305e-06	855.64	332.46	7.0889e-06	1.5861e-06	357.61	116.18	109.42	36.247	1.2775e-05	40.4	511.623	243.300	239.372	181.287	277.886	315.310	179.955	185.597	290.048	310.757	183.594	187.047	188.873	193.520	387.300	191.064	-8191	255	
28288.137	1	1	0	0	0.080906	0.040936	0.14766	0.20542	0.077975	0.30293	0.26954	0.13454	0.23283	0.1217	0.12829	0.039461	0.23101	0.22818	0.36974	0.055918	-1.7583	-1.9104	-2.2021	-1.9771	-2.2792	-2.4062	-2.0312	-2.4104	-2.0292	-1.875	-2.3979	-2.0563	-2.2021	-2.4479	-1.9438	-2.2875	395.709	179.793	229.781	414.929	405.907	467.424	435.906	495.020	419.637	381.196	418.358	387.218	478.257	177.608	233.635	343.528	0.00067367	0.00048723	0.0001041	968.94	3.9604e-06	4.7642e-06	911.18	353.39	1.0155e-05	6.916e-06	381.52	123.57	116.78	37.865	1.4846e-06	42.425	0.00033629	0.0001597	3.9631e-05	909.4	1.8563e-06	1.6236e-06	854.31	330.93	9.277e-06	3.4257e-06	357.73	116.06	109.35	36.062	7.3454e-06	40.33	512.729	266.403	258.981	181.306	297.053	317.570	180.060	185.304	332.499	295.762	183.639	187.193	188.875	193.654	264.580	191.372	-8191	255	
28288.232	1	1	0	0	0.13885	0.14859	0.13856	0.20933	0.17186	0.27307	0.11324	0.1954	0.20029	0.18224	0.29389	0.25951	0.13144	0.22567	0.151	0.26669	-1.7375	-2.0604	-2.2833	-2.1583	-1.9542	-2.3979	-1.9792	-2.3417	-2.1688	-1.6979	-2.2458	-2.0125	-1.9188	-2.3042	-1.8125	-2.1417	371.972	374.883	425.549	439.033	495.170	474.787	485.329	450.360	176.639	399.303	506.000	211.485	389.545	424.117	274.777	455.598	0.00072927	0.00042717	0.00013182	968.34	4.7015e-06	4.9049e-06	910.17	353	7.1005e-06	7.3977e-06	378.71	123.11	115.86	38.187	1.5535e-06	42.502	0.00034283	0.00016413	3.8585e-05	909.93	1.9377e-06	1.4777e-06	850.4	330.16	2.39e-06	6.1861e-06	355.65	115.57	108.87	36.097	1.2471e-05	40.15	510.936	266.269	249.365	181.348	272.334	314.214	179.973	185.808	316.437	335.309	183.813	187.059	188.890	193.679	306.900	191.275	-8191	255	
28288.305	1	1	0	0	0.11217	0.1337	0.31327	0.48027	0.27788	0.088303	0.18618	0.095142	0.11689	0.07319	0.12397	0.19729	0.1786	0.17565	0.13678	0.14728	-1.8042	-1.9438	-2.1375	-2.2208	-1.9688	-2.3646	-2.0375	-2.4125	-2.2271	-1.9708	-2.1625	-2.1063	-1.9646	-2.2542	-1.9771	-2.1875	289.216	391.934	257.385	476.128	458.038	218.413	489.480	507.198	272.896	338.592	267.815	447.915	382.513	215.964	393.954	422.420	0.00067895	0.00050195	0.00015862	969.46	4.2192e-06	4.0806e-06	906.81	352.97	5.3224e-06	1.1823e-05	380.18	123.88	115.48	38.117	2.2726e-06	42.376	0.00033453	0.00016629	4.2656e-05	909.77	2.0437e-06	1.2788e-06	850.85	331.03	1.9724e-06	1.3458e-05	357.07	115.83	109.05	36.089	7.1541e-06	40.241	513.079	258.603	263.175	181.364	285.513	313.670	180.145	185.669	285.704	349.383	183.593	187.010	188.591	193.890	319.413	191.234	-8191	255	
28288.400	1	1	0	0	0.064194	0.051843	0.14096	0.11957	0.13621	0.17274	0.40694	0.071174	0.24833	0.14207	0.16237	0.064629	0.28841	0.12951	0.11882	0.28786	-1.7042	-1.8458	-2.1583	-2.1188	-1.9333	-2.2396	-2.1271	-2.2271	-2.25	-1.9292	-2.425	-2.1562	-1.85	-2.3958	-2.0167	-2.1729	423.170	441.589	394.981	428.075	360.857	413.337	455.727	196.085	433.157	415.721	361.226	441.229	508.426	256.352	329.608	399.586	0.00067951	0.00047347	0.00012214	976.27	7.7048e-06	4.8058e-06	911.8	353.49	5.9118e-06	6.1227e-06	382.03	124.42	116.84	37.879	2.3332e-06	42.183	0.00033342	0.00016192	3.7833e-05	913.29	4.127e-06	1.6302e-06	853.86	331.68	1.9706e-06	7.6645e-06	357.83	116.22	109.28	36.136	1.3259e-05	40.291	513.554	247.171	256.088	181.516	245.400	315.002	180.053	185.792	290.070	333.659	183.558	186.940	188.809	193.917	413.120	191.478	-8191	255	
28288.521	1	1	0	0	0.28249	0.17214	0.086103	0.38741	0.12281	0.22241	0.22853	0.22728	0.28198	0.093327	0.22562	0.096187	0.23308	0.068026	0.12589	0.30383	-1.7896	-1.7396	-2.0625	-2.2417	-1.8062	-2.3979	-2.1271	-2.025	-2.3104	-2.0438	-2.35	-2.1042	-1.9958	-2.3979	-2.0542	-2.1854	466.241	270.710	196.737	440.610	467.849	216.865	456.012	454.461	492.299	200.620	455.538	491.864	460.712	198.659	394.674	421.728	0.00068465	0.00051589	0.0001418	967.37	6.4313e-06	4.8486e-06	913.26	351.61	4.8594e-06	1.2013e-05	379.75	123.77	116.59	37.804	2.6598e-06	42.546	0.00032973	0.00016839	4.2787e-05	906.45	6.2354e-06	1.261e-06	853.69	331.44	1.9995e-06	1.3805e-05	358.06	116.2	109.3	36.089	7.5812e-06	40.415	512.112	270.257	262.482	181.349	276.900	332.816	179.931	185.703	281.592	353.381	183.540	187.259	188.986	193.582	304.820	191.166	-8191	255	
#DATA ENDS
