BOXY.EXE: ISS Imagent and Oximeter Data Acquisition Program Version 0.80
Ascii Record File

#ACQ INFORMATION
2  Detector Channels 
16  External MUX Channels 
1  Auxiliary Channels 
5000  Waveform (CCF) Frequency (Hz)
1  Waveforms Skipped 
30  Waveforms Averaged 
1  Cycles Averaged 
16  Acquisitions per Waveform 
10.0806  Updata Rate (Hz) 

#FILE INFORMATION
TRUE -- External MUX Channel results are PARSED.
FALSE -- AC DC and Phase are NOT grouped.
TRUE -- Companion Program Settings File CREATED.
FALSE -- AC data not excluded
FALSE -- DC data not excluded
FALSE -- Phase data not excluded
FALSE -- Auxillary Chn. data not excluded
Tab delimiters

#CALIBRATION STATE
TRUE -- Waveform Calibration Values APPLIED.


#AUX CALIBRATION VALUES
Val Type	aux-1	

Term	1.0000e+00	
Factor	0.0000e+00	


#WF CALIBRATION VALUES
A = Detector Channel
Val Type	A-AC1	A-AC2	A-AC3	A-AC4	A-AC5	A-AC6	A-AC7	A-AC8	A-AC9	A-AC10	A-AC11	A-AC12	A-AC13	A-AC14	A-AC15	A-AC16	A-DC1	A-DC2	A-DC3	A-DC4	A-DC5	A-DC6	A-DC7	A-DC8	A-DC9	A-DC10	A-DC11	A-DC12	A-DC13	A-DC14	A-DC15	A-DC16	A-Ph1	A-Ph2	A-Ph3	A-Ph4	A-Ph5	A-Ph6	A-Ph7	A-Ph8	A-Ph9	A-Ph10	A-Ph11	A-Ph12	A-Ph13	A-Ph14	A-Ph15	A-Ph16	

Term	0.00000e+00	0.00000e+00	0.00000e+00	0.00000e+00	0.00000e+00	0.00000e+00	0.00000e+00	0.00000e+00	0.00000e+00	0.00000e+00	0.00000e+00	0.00000e+00	0.00000e+00	0.00000e+00	0.00000e+00	0.00000e+00	0.00000e+00	0.00000e+00	0.00000e+00	0.00000e+00	0.00000e+00	0.00000e+00	0.00000e+00	0.00000e+00	0.00000e+00	0.00000e+00	0.00000e+00	0.00000e+00	0.00000e+00	0.00000e+00	0.00000e+00	0.00000e+00	0.00000e+00	0.00000e+00	0.00000e+00	0.00000e+00	0.00000e+00	0.00000e+00	0.00000e+00	0.00000e+00	0.00000e+00	0.00000e+00	0.00000e+00	0.00000e+00	0.00000e+00	0.00000e+00	0.00000e+00	0.00000e+00	
Factor	1.00000e+00	1.00000e+00	1.00000e+00	1.00000e+00	1.00000e+00	1.00000e+00	1.00000e+00	1.00000e+00	1.00000e+00	1.00000e+00	1.00000e+00	1.00000e+00	1.00000e+00	1.00000e+00	1.00000e+00	1.00000e+00	1.00000e+00	1.00000e+00	1.00000e+00	1.00000e+00	1.00000e+00	1.00000e+00	1.00000e+00	1.00000e+00	1.00000e+00	1.00000e+00	1.00000e+00	1.00000e+00	1.00000e+00	1.00000e+00	1.00000e+00	1.00000e+00	X	X	X	X	X	X	X	X	X	X	X	X	X	X	X	X	

B = Detector Channel
Val Type	B-AC1	B-AC2	B-AC3	B-AC4	B-AC5	B-AC6	B-AC7	B-AC8	B-AC9	B-AC10	B-AC11	B-AC12	B-AC13	B-AC14	B-AC15	B-AC16	B-DC1	B-DC2	B-DC3	B-DC4	B-DC5	B-DC6	B-DC7	B-DC8	B-DC9	B-DC10	B-DC11	B-DC12	B-DC13	B-DC14	B-DC15	B-DC16	B-Ph1	B-Ph2	B-Ph3	B-Ph4	B-Ph5	B-Ph6	B-Ph7	B-Ph8	B-Ph9	B-Ph10	B-Ph11	B-Ph12	B-Ph13	B-Ph14	B-Ph15	B-Ph16	

Term	0.00000e+00	0.00000e+00	0.00000e+00	0.00000e+00	0.00000e+00	0.00000e+00	0.00000e+00	0.00000e+00	0.00000e+00	0.00000e+00	0.00000e+00	0.00000e+00	0.00000e+00	0.00000e+00	0.00000e+00	0.00000e+00	0.00000e+00	0.00000e+00	0.00000e+00	0.00000e+00	0.00000e+00	0.00000e+00	0.00000e+00	0.00000e+00	0.00000e+00	0.00000e+00	0.00000e+00	0.00000e+00	0.00000e+00	0.00000e+00	0.00000e+00	0.00000e+00	-1.74148e+02	-1.27087e+02	-1.30125e+02	-1.81316e+02	-8.55190e+01	-6.66878e+01	-1.57075e+02	-1.62015e+02	-8.14386e+01	-6.69092e+01	-1.71893e+02	-1.70622e+02	-1.79843e+02	-1.76980e+02	-7.36244e+01	-1.49926e+02	
Factor	3.06324e-05	1.62235e-04	4.72445e-05	1.48920e-01	1.49831e-06	1.76165e-06	1.72106e-01	6.28372e-02	1.68338e-06	1.86821e-06	8.65051e-02	2.99025e-02	3.08083e-02	9.61349e-03	1.55958e-06	1.36815e-02	1.62461e-05	2.79970e-05	7.84780e-06	7.48325e-02	2.67660e-07	3.17064e-07	8.15900e-02	3.16269e-02	2.77634e-07	3.15248e-07	4.25007e-02	1.47081e-02	1.57617e-02	4.89367e-03	2.89544e-07	6.76532e-03	X	X	X	X	X	X	X	X	X	X	X	X	X	X	X	X	



#DISTANCE SETTINGS
A = Detector Channel
A-1	A-2	A-3	A-4	A-5	A-6	A-7	A-8	A-9	A-10	A-11	A-12	A-13	A-14	A-15	A-16	

2.5000e+00	3.0000e+00	2.5000e+00	3.0000e+00	2.0000e+00	3.0000e+00	1.5000e+00	3.0000e+00	3.0000e+00	3.0000e+00	3.0000e+00	3.0000e+00	3.0000e+00	3.0000e+00	1.5000e+00	3.0000e+00	

B = Detector Channel
B-1	B-2	B-3	B-4	B-5	B-6	B-7	B-8	B-9	B-10	B-11	B-12	B-13	B-14	B-15	B-16	

1.0000e+01	1.0000e+01	1.0000e+01	1.4400e+00	1.0000e+01	1.0000e+01	1.5100e+00	1.9400e+00	1.0000e+01	1.0000e+01	1.9900e+00	2.4900e+00	2.4100e+00	2.9000e+00	1.0000e+01	2.9800e+00	




#DATA BEGINS
time	group	step	mark	flag	A-AC1	A-AC2	A-AC3	A-AC4	A-AC5	A-AC6	A-AC7	A-AC8	A-AC9	A-AC10	A-AC11	A-AC12	A-AC13	A-AC14	A-AC15	A-AC16	A-DC1	A-DC2	A-DC3	A-DC4	A-DC5	A-DC6	A-DC7	A-DC8	A-DC9	A-DC10	A-DC11	A-DC12	A-DC13	A-DC14	A-DC15	A-DC16	A-Ph1	A-Ph2	A-Ph3	A-Ph4	A-Ph5	A-Ph6	A-Ph7	A-Ph8	A-Ph9	A-Ph10	A-Ph11	A-Ph12	A-Ph13	A-Ph14	A-Ph15	A-Ph16	B-AC1	B-AC2	B-AC3	B-AC4	B-AC5	B-AC6	B-AC7	B-AC8	B-AC9	B-AC10	B-AC11	B-AC12	B-AC13	B-AC14	B-AC15	B-AC16	B-DC1	B-DC2	B-DC3	B-DC4	B-DC5	B-DC6	B-DC7	B-DC8	B-DC9	B-DC10	B-DC11	B-DC12	B-DC13	B-DC14	B-DC15	B-DC16	B-Ph1	B-Ph2	B-Ph3	B-Ph4	B-Ph5	B-Ph6	B-Ph7	B-Ph8	B-Ph9	B-Ph10	B-Ph11	B-Ph12	B-Ph13	B-Ph14	B-Ph15	B-Ph16	aux-1	digaux	

27070.143	1	1	0	256	0.24946	0.22228	0.18433	0.36514	0.13971	0.18936	0.27387	0.053041	0.10625	0.20889	0.11136	0.10811	0.010705	0.15114	0.39966	0.11142	-1.8542	-2.275	-2.2833	-2.3208	-2.5396	-2.5667	-2.3479	-2.7958	-2.1146	-2.4521	-2.6479	-2.2917	-2.5938	-2.3937	-2.1562	-2.6292	68.569	74.075	108.584	168.057	-98.080	-129.602	89.543	-165.419	52.957	134.986	156.050	141.207	-155.463	177.237	-35.451	127.406	0.0007649	0.0006178	0.00014431	1361.8	5.2332e-06	4.4603e-06	1361.3	375.49	6.7279e-06	4.6715e-06	430.22	144.71	125.89	43.338	5.5243e-06	53.517	0.00076563	0.000802	0.00022616	1385.4	8.3136e-06	8.9478e-06	1386.4	382.1	8.5748e-06	8.643e-06	438.31	148.21	128.58	44.576	8.8045e-06	55.283	156.474	-60.475	-81.816	-158.513	-54.571	14.820	-158.985	-154.277	-72.466	-16.229	-154.768	-150.789	-150.447	-145.182	-33.975	-146.053	-8191	255	
27070.238	1	1	0	0	0.10148	0.17983	0.22791	0.1434	0.048115	0.14484	0.38026	0.35811	0.058536	0.13715	0.15327	0.17026	0.21314	0.028802	0.15512	0.281	-1.9292	-2.1854	-2.5708	-2.4896	-2.4437	-2.5396	-2.3354	-2.6979	-2.3083	-2.3229	-2.6625	-2.3917	-2.625	-2.6542	-2.2438	-2.7229	96.564	41.635	44.549	152.992	71.692	106.176	156.616	121.317	-136.103	-92.618	-72.835	186.265	131.435	15.779	90.733	-125.769	0.00076796	0.00063152	0.00015263	1365.1	4.6536e-06	4.3455e-06	1364.1	377.26	5.6546e-06	5.6841e-06	429.98	144.66	126.16	43.594	4.7435e-06	53.584	0.00077443	0.00083046	0.00023365	1387.8	8.583e-06	9.3844e-06	1390	383.34	8.9577e-06	9.4936e-06	438.85	148.49	128.82	44.696	9.4596e-06	55.392	154.935	-92.593	-90.852	-158.535	-58.363	-26.453	-159.003	-154.332	-62.120	-27.201	-154.564	-151.062	-150.424	-145.164	-57.008	-145.794	-8191	255	
27070.336	1	1	0	0	0.10771	0.1984	0.062965	0.50145	0.22425	0.10297	0.16734	0.15716	0.095936	0.19119	0.10925	0.32841	0.046311	0.34571	0.15803	0.30964	-1.9208	-2.3146	-2.4625	-2.5	-2.3187	-2.4708	-2.3312	-2.6792	-2.3333	-2.2104	-2.9708	-2.3292	-2.5375	-2.5875	-2.2417	-2.4813	12.793	-85.183	-37.844	160.472	118.946	-168.164	123.653	95.545	148.226	100.419	28.926	121.618	140.055	-158.830	179.941	-152.469	0.00077659	0.00038716	0.0001377	1367.1	5.1451e-06	4.1009e-06	1371.7	376.94	5.1705e-06	6.6555e-06	430.51	146.02	127.34	43.863	3.8314e-06	54.096	0.00080655	0.00089404	0.00024516	1390.8	9.3871e-06	1.0042e-05	1395	384.34	9.8225e-06	1.0221e-05	440.57	149.49	129.86	45.093	9.9163e-06	55.981	152.810	-103.692	-82.922	-158.565	-57.416	-24.061	-158.836	-154.209	-43.854	-20.302	-154.746	-150.958	-150.388	-145.221	-40.645	-145.994	-8191	255	
27070.455	1	1	0	0	0.14861	0.28797	0.34471	0.35898	0.12288	0.20658	0.37024	0.174	0.22302	0.093835	0.085171	0.24909	0.19823	0.049283	0.20192	0.18589	-1.9396	-2.2104	-2.4021	-2.4708	-2.4583	-2.4521	-2.3146	-2.4354	-2.6188	-2.0708	-2.5958	-2.3875	-2.4458	-2.5708	-2.1396	-2.6	-47.434	139.125	175.823	125.467	-120.474	59.593	101.844	111.256	158.214	173.420	142.039	106.057	141.471	-73.398	130.870	149.696	0.00080101	0.00042749	0.00015506	1381.8	4.073e-06	4.5769e-06	1386.5	383.6	6.2924e-06	6.0343e-06	437.93	149.54	130.41	45.307	5.7776e-06	56.048	0.00084971	0.00091457	0.0002517	1402.9	9.817e-06	1.0645e-05	1409.3	391.25	1.0136e-05	1.0623e-05	448.71	153.34	133.73	46.668	1.0193e-05	57.752	157.542	-93.773	-87.183	-158.745	-58.514	-33.337	-158.955	-154.363	-61.443	-15.412	-154.666	-150.968	-150.503	-145.297	-24.216	-146.142	-8191	255	
27070.527	1	1	0	0	0.086349	0.12307	0.31801	0.24038	0.20713	0.20287	0.07155	0.15596	0.15093	0.19013	0.23806	0.27459	0.20031	0.10909	0.11319	0.11225	-2.2479	-2.1417	-2.5896	-2.4646	-2.1063	-2.525	-2.5687	-2.4917	-2.4396	-2.1958	-2.8583	-2.5396	-2.2042	-2.5854	-2.2375	-2.5542	85.266	-19.247	43.699	108.578	80.679	-79.576	-97.530	162.507	-42.470	-7.227	126.986	141.744	119.394	153.623	69.711	150.683	0.00077133	0.00060274	0.00015146	1413	6.1034e-06	5.386e-06	1410.7	395.16	6.6431e-06	5.9371e-06	448.73	154.98	135.79	47.14	6.6331e-06	57.414	0.00088961	0.00098042	0.00026967	1433.7	1.0444e-05	1.1069e-05	1440.2	402.28	1.0914e-05	1.1254e-05	459.56	158.76	138.92	48.539	1.1042e-05	59.264	156.546	-88.513	-91.495	-158.593	-65.157	-26.658	-158.958	-154.458	-45.261	-20.364	-154.885	-151.311	-150.954	-145.717	-20.824	-146.353	-8191	255	
27070.621	1	1	0	0	0.12605	0.46381	0.22302	0.21479	0.19671	0.088142	0.17885	0.14516	0.0079186	0.049219	0.051736	0.2677	0.12784	0.36152	0.10401	0.15874	-2.2188	-2.1583	-2.4833	-2.6917	-2.0438	-2.7313	-2.6063	-2.35	-2.4729	-2.3292	-2.4792	-2.4792	-2.2208	-2.7917	-2.3958	-2.5583	28.228	3.473	-85.808	185.900	109.671	-123.751	65.117	63.024	152.441	-56.253	-94.803	133.604	175.424	-157.628	-48.534	95.311	0.0008482	0.00058101	0.00017546	1424.1	5.6226e-06	7.5392e-06	1422.6	396.66	6.6936e-06	3.6249e-06	451.25	154.67	134.61	46.632	4.3922e-06	56.343	0.00093381	0.0010145	0.00028028	1446.2	1.0699e-05	1.1103e-05	1448.3	404.91	1.0994e-05	1.1187e-05	461.16	158.37	138.12	47.992	1.0721e-05	58.486	154.836	-93.432	-72.518	-158.686	-62.300	-30.467	-159.089	-154.476	-67.156	-33.029	-154.875	-151.122	-150.654	-145.570	-39.368	-146.409	-8191	255	
27070.719	1	1	0	0	0.29445	0.078288	0.29207	0.37446	0.18664	0.22265	0.21432	0.14382	0.16538	0.097927	0.24735	0.21734	0.23118	0.19196	0.16108	0.24645	-2.2938	-2.1625	-2.5062	-2.8083	-2.1604	-2.5479	-2.5792	-2.3458	-2.4667	-2.1562	-2.5292	-2.4646	-2.2271	-2.7417	-2.4458	-2.4	162.389	137.959	-126.409	143.018	157.525	121.482	109.571	63.873	123.086	159.901	136.986	186.980	159.205	-151.281	-55.149	151.033	0.00081564	0.00041667	0.00018515	1409.6	4.9849e-06	4.5347e-06	1400.6	387.02	6.0971e-06	7.5715e-06	438.97	149.3	128.91	44.186	3.993e-06	54.284	0.00090393	0.00097418	0.00026885	1430.4	9.9397e-06	1.0277e-05	1425.3	394.94	9.915e-06	9.8173e-06	447.87	152.32	131.69	45.53	9.3667e-06	55.967	153.907	-84.122	-80.993	-158.759	-48.793	-19.679	-159.014	-154.390	-70.981	-31.923	-154.437	-151.108	-150.591	-145.452	-35.920	-146.017	-8191	255	
27070.838	1	1	0	0	0.20113	0.078325	0.15869	0.10977	0.30892	0.041424	0.098066	0.18451	0.1817	0.089998	0.17863	0.22329	0.1184	0.012965	0.067956	0.18343	-2.0354	-2.1562	-2.3937	-2.7875	-2.1729	-2.525	-2.7208	-2.2104	-2.6542	-2.3083	-2.6188	-2.5875	-2.3167	-2.4813	-2.4208	-2.1521	38.370	116.279	-138.916	137.331	-167.982	-59.897	-170.995	-161.430	143.905	-37.049	-122.640	-149.788	6.814	-129.130	-99.501	98.197	0.00080589	0.0004025	0.00020802	1370.8	5.9032e-06	3.0274e-06	1367.2	375.79	6.5529e-06	4.1557e-06	427.17	143.69	124.66	42.998	4.0603e-06	53.322	0.00079664	0.00080836	0.00021823	1394.1	8.322e-06	8.3355e-06	1389.7	382.73	7.9502e-06	7.8707e-06	436.2	147.51	127.79	44.24	7.7049e-06	54.919	155.749	-97.694	-82.308	-158.489	-56.603	-1.676	-159.109	-154.349	-62.429	-6.504	-154.548	-151.068	-150.435	-145.046	-44.463	-145.781	-8191	255	
27070.934	1	1	0	0	0.2636	0.020321	0.18471	0.11982	0.28173	0.23795	0.21351	0.28109	0.046747	0.088003	0.11837	0.22496	0.10434	0.13623	0.22205	0.12234	-2.1354	-2.1646	-2.0979	-2.7708	-2.2771	-2.6854	-2.6458	-2.3521	-2.6083	-2.375	-2.3229	-2.7208	-2.1375	-2.5271	-2.5	-2.2771	80.821	-55.749	-73.926	76.407	-83.135	166.195	94.538	150.289	-5.374	-59.312	-169.190	-153.809	150.806	-169.073	7.695	126.142	0.00080299	0.00055023	0.00010678	1358	4.7776e-06	5.6861e-06	1357.3	371.42	5.7664e-06	6.545e-06	425.17	143.33	124.06	42.858	3.9505e-06	52.666	0.00069841	0.0006654	0.00019041	1381.9	7.2564e-06	7.056e-06	1380.5	379.1	7.163e-06	7.7124e-06	433.81	146.41	126.7	43.97	7.4696e-06	54.475	154.828	-87.884	-66.849	-158.658	-68.120	3.942	-159.072	-154.315	-56.785	-19.230	-154.712	-150.968	-150.007	-145.129	-36.353	-145.972	-8191	255	
27071.029	1	1	0	0	0.058784	0.14887	0.11909	0.39757	0.15047	0.19735	0.38482	0.39892	0.093414	0.083908	0.29839	0.16417	0.23734	0.14705	0.19102	0.17968	-2.1979	-2.3229	-2.3292	-2.7313	-2.1208	-2.4458	-2.8521	-2.2375	-2.5875	-2.6542	-2.4354	-2.6458	-2.3542	-2.3937	-2.3521	-2.2833	99.955	-112.234	-133.052	122.317	-6.543	-0.608	94.170	133.359	-64.537	22.344	-34.361	141.790	144.462	-108.780	46.292	176.482	0.00076713	0.00054933	0.00015783	1358.2	4.2345e-06	6.3572e-06	1354.6	371.96	4.3034e-06	4.4728e-06	423.25	142.82	123.4	42.482	5.1716e-06	52.443	0.00066389	0.00067082	0.00018866	1379.2	7.1649e-06	7.344e-06	1377.5	377.63	7.0189e-06	7.1161e-06	432.01	145.85	126.16	43.715	7.0763e-06	54.305	154.324	-74.831	-79.414	-158.725	-44.092	-26.047	-158.877	-154.327	-69.968	-10.715	-154.492	-150.766	-150.237	-145.195	-39.596	-145.670	-8191	255	
27071.127	1	1	0	0	0.21347	0.064705	0.16056	0.28828	0.19327	0.062926	0.22852	0.35903	0.36488	0.11445	0.2398	0.27954	0.057634	0.083816	0.10365	0.15836	-2.1937	-2.3583	-2.1667	-2.825	-2.3375	-2.45	-2.7333	-2.2354	-2.5458	-2.5458	-2.1896	-2.5479	-2.5812	-2.3	-2.4083	-2.325	129.097	-96.288	141.638	145.285	-87.353	71.214	58.630	146.660	86.907	-43.266	-168.837	164.523	157.334	187.327	74.876	-75.512	0.00078319	0.0006122	0.00013179	1353.8	4.4024e-06	5.9628e-06	1346.1	369.35	4.8488e-06	7.6488e-06	419.83	141.99	123.12	42.302	5.0421e-06	52.664	0.00067736	0.0006707	0.00017782	1376.7	6.9753e-06	7.1353e-06	1373.2	375.44	6.8379e-06	7.1213e-06	429.68	144.9	125.48	43.482	6.9442e-06	54.155	155.501	-64.139	-96.913	-158.520	-60.034	-21.793	-159.011	-154.155	-53.117	-22.302	-154.619	-150.774	-150.378	-145.149	-46.723	-146.056	-8191	255	
27071.221	1	1	0	0	0.122	0.25359	0.28286	0.25424	0.201	0.071979	0.27774	0.2945	0.071432	0.0090184	0.18542	0.37727	0.19031	0.074028	0.26024	0.098898	-2.0208	-2.4583	-2.1104	-2.7021	-2.2667	-2.3604	-2.7521	-2.2229	-2.2812	-2.4688	-2.2083	-2.5729	-2.3667	-2.2875	-2.6604	-2.3583	120.478	24.633	-96.384	158.625	-117.536	-143.769	96.065	128.310	-108.125	108.990	-168.453	-162.092	108.438	-151.347	-112.166	176.773	0.00078841	0.00031707	0.00016717	1350.2	4.2763e-06	4.7393e-06	1348.8	368.02	5.6497e-06	4.4799e-06	420.37	141.57	122.09	42.239	3.714e-06	52.262	0.00065188	0.00063845	0.00018159	1370.7	6.9798e-06	7.1894e-06	1370.6	374.1	6.8633e-06	7.3308e-06	429.57	144.66	124.98	43.351	6.9116e-06	54.028	153.940	-89.683	-93.215	-158.621	-62.774	-38.443	-159.032	-154.269	-76.250	-45.123	-154.638	-150.687	-150.424	-145.171	-37.251	-145.914	-8191	255	
27071.316	1	1	0	0	0.23874	0.11675	0.24313	0.053614	0.18137	0.14646	0.29602	0.34871	0.056784	0.17591	0.060293	0.39981	0.25582	0.28329	0.13381	0.17126	-1.85	-2.4896	-2.1375	-2.5917	-2.3771	-2.1917	-2.9125	-2.275	-2.2396	-2.625	-2.4104	-2.5521	-2.4646	-2.1146	-2.4333	-2.3875	-4.035	77.880	43.244	117.638	88.108	-46.251	71.187	116.718	134.374	5.172	-122.016	160.791	136.086	-23.504	72.368	176.558	0.00073426	0.00054541	0.00011846	1347.6	4.6913e-06	3.7622e-06	1342.1	367.3	5.8836e-06	4.7333e-06	419.41	140.93	121.76	42.002	4.4913e-06	52.187	0.00066125	0.00065035	0.00017787	1367.8	6.8984e-06	7.1663e-06	1365.1	373.01	6.8391e-06	6.9085e-06	427.3	144.11	124.54	43.206	6.6854e-06	53.761	156.020	-86.938	-87.096	-158.669	-62.817	-6.657	-158.916	-154.148	-58.258	-44.665	-154.605	-150.807	-150.184	-144.852	-44.408	-145.957	-8191	255	
27071.438	1	1	0	0	0.23814	0.26997	0.16563	0.19039	0.058088	0.15108	0.17065	0.20385	0.1439	0.25659	0.085319	0.20142	0.081933	0.0063544	0.067959	0.17372	-1.9042	-2.5042	-2.1458	-2.8312	-2.5167	-2.2188	-2.7792	-2.3083	-2.2604	-2.6625	-2.3125	-2.5687	-2.4708	-2.3187	-2.625	-2.4	-29.481	65.624	-148.828	-150.170	104.443	165.556	158.154	79.221	10.984	97.579	149.958	28.235	-70.515	22.411	7.646	140.442	0.00075538	0.00060623	0.00015326	1341.8	4.4802e-06	3.7332e-06	1333.3	364.66	4.857e-06	4.5683e-06	415.49	140.33	121	41.905	3.7692e-06	51.835	0.00066271	0.00064008	0.00017389	1361.6	6.7818e-06	6.7779e-06	1357.5	371.06	6.8558e-06	6.8133e-06	425.09	143.52	123.79	43.033	6.6396e-06	53.491	154.172	-80.980	-89.043	-158.585	-63.345	-42.955	-158.942	-154.184	-60.659	7.954	-154.472	-150.769	-150.162	-144.843	-41.632	-145.847	-8191	255	
27071.533	1	1	0	0	0.067153	0.20174	0.22329	0.34857	0.058802	0.13685	0.031764	0.44651	0.18551	0.31508	0.27448	0.24207	0.36966	0.28982	0.21541	0.5346	-1.7583	-2.6562	-2.0333	-2.7271	-2.4458	-2.2667	-2.6958	-2.2917	-2.6021	-2.5479	-2.4313	-2.5312	-2.5729	-2.1688	-2.5271	-2.1792	-96.104	41.255	160.122	135.776	-68.121	66.937	115.738	88.332	29.852	-24.912	177.000	-108.383	186.226	-166.708	28.915	166.544	0.00074455	0.00051081	0.000132	1338.7	5.0308e-06	4.3942e-06	1330	361.79	6.0746e-06	5.3284e-06	415.18	139.21	120.56	41.718	4.4645e-06	51.614	0.00065157	0.00063524	0.00017299	1355.8	6.6686e-06	7.1775e-06	1352	369.31	6.8674e-06	6.8304e-06	423.49	142.57	123.26	42.828	6.5817e-06	53.329	152.196	-84.285	-77.676	-158.550	-51.908	-18.993	-158.922	-154.141	-60.616	-14.276	-154.481	-150.801	-150.441	-144.921	-39.878	-145.848	-8191	255	
27071.631	1	1	0	0	0.14957	0.17272	0.14634	0.23208	0.1515	0.19332	0.34095	0.29196	0.1222	0.045152	0.2631	0.22013	0.1738	0.28406	0.31934	0.1045	-1.6104	-2.7438	-2.0396	-2.4938	-2.5062	-2.0938	-2.6083	-2.5333	-2.2958	-2.5833	-2.4604	-2.5479	-2.6437	-2.1917	-2.5229	-2.6104	-112.539	83.440	113.771	89.706	46.221	10.369	102.304	158.321	-148.948	65.828	59.792	-158.456	-170.446	185.645	105.092	173.064	0.00074723	0.00039663	0.00011721	1328	5.1439e-06	2.073e-06	1328.8	360.92	5.4692e-06	4.7e-06	412.93	139.11	120.24	41.527	6.0877e-06	51.467	0.00065729	0.00061179	0.00017237	1351.4	6.5644e-06	6.8076e-06	1348.3	367.86	6.7297e-06	6.4987e-06	422.03	142.23	122.68	42.616	6.4538e-06	53.119	155.552	-68.838	-81.065	-158.641	-51.966	16.125	-158.979	-154.089	-52.696	-24.748	-154.771	-150.637	-150.121	-144.621	-37.741	-145.751	-8191	255	
27071.727	1	1	0	0	0.25306	0.1976	0.088514	0.28159	0.20423	0.33851	0.054161	0.10823	0.15672	0.10291	0.44608	0.11219	0.043515	0.17196	0.11834	0.37621	-1.7417	-2.5167	-2.3083	-2.4625	-2.7771	-2.2896	-2.6937	-2.5438	-2.1104	-2.5146	-2.5125	-2.4229	-2.6875	-2.3896	-2.5146	-2.6458	164.022	-80.086	28.885	160.796	4.565	-65.743	-118.859	-109.998	-83.116	174.622	146.911	148.954	-156.571	-79.002	-61.085	-169.998	0.00074919	0.00040519	0.00013678	1321.5	3.9963e-06	4.8005e-06	1314.2	357.93	5.0849e-06	6.3095e-06	410.78	138.55	119.55	41.209	4.5111e-06	51.478	0.00063593	0.00059908	0.00016928	1342	6.4266e-06	6.4853e-06	1339.2	365.18	6.5973e-06	6.1697e-06	419.41	141.35	121.91	42.389	6.3784e-06	52.917	152.677	-68.369	-75.067	-158.504	-56.788	-38.305	-158.740	-154.197	-51.285	-33.291	-154.417	-150.668	-149.975	-144.801	-36.980	-145.719	-8191	255	
27071.822	1	1	0	0	0.15466	0.20992	0.14605	0.15927	0.067105	0.11635	0.46875	0.15276	0.15723	0.072001	0.22387	0.19163	0.15649	0.24116	0.24288	0.25438	-1.7396	-2.4229	-2.1833	-2.3708	-2.5479	-2.0417	-2.5583	-2.6188	-1.9521	-2.5229	-2.5208	-2.2833	-2.7021	-2.4875	-2.3375	-2.6688	-106.486	146.605	107.916	116.552	-64.114	-34.927	103.650	111.201	50.393	88.906	180.681	62.657	170.106	149.374	94.936	121.319	0.00074778	0.00039308	0.00013253	1321.8	5.032e-06	4.2205e-06	1312.9	358.26	5.1366e-06	4.5782e-06	410.54	138.22	118.99	41.247	5.7181e-06	51.13	0.00062595	0.00055498	0.00016453	1338.5	6.2153e-06	6.1563e-06	1336.2	364.99	6.2311e-06	5.9805e-06	418.59	141.2	121.49	42.315	6.0913e-06	52.826	157.670	-74.908	-75.358	-158.480	-48.844	-38.965	-158.814	-154.038	-51.707	-25.751	-154.230	-150.677	-150.232	-144.600	-33.683	-145.936	-8191	255	
27071.918	1	1	0	0	0.034773	0.067574	0.19038	0.3418	0.12755	0.14103	0.11528	0.24903	0.2411	0.09227	0.21096	0.25772	0.23485	0.086904	0.079905	0.072254	-1.7	-2.5417	-2.3521	-2.3521	-2.7396	-2.2167	-2.3937	-2.7667	-2.3312	-2.4542	-2.5771	-2.2271	-2.7854	-2.3458	-2.3083	-2.6688	-129.157	37.435	-77.907	153.196	69.459	154.678	63.994	77.797	137.979	82.896	-10.031	145.312	-163.599	104.002	-125.961	166.352	0.000767	0.00037562	0.00011375	1313.2	3.8546e-06	5.5099e-06	1313	357.68	6.4513e-06	4.1687e-06	408.72	138.28	118.88	41.226	5.4509e-06	51.214	0.00060886	0.00053824	0.00015266	1334.2	5.7848e-06	6.2462e-06	1335.8	364.62	6.0385e-06	5.8689e-06	417.97	141.15	121.6	42.305	5.9736e-06	52.836	155.536	-94.673	-90.622	-158.571	-67.301	-13.555	-158.716	-154.109	-58.279	-14.008	-154.525	-150.615	-150.064	-144.934	-29.692	-145.594	-8191	255	
27072.014	1	1	0	0	0.12049	0.21051	0.26466	0.28256	0.18339	0.23184	0.25147	0.065799	0.18682	0.31197	0.32944	0.14204	0.14534	0.28755	0.075975	0.20337	-1.5833	-2.3208	-2.4271	-2.4354	-2.5667	-2.4375	-2.55	-2.7167	-2.0583	-2.4896	-2.5958	-2.3104	-2.4813	-2.7354	-2.2104	-2.7396	-51.557	-13.059	151.984	-157.835	116.536	-130.611	140.540	143.956	165.783	147.539	117.822	-165.859	180.537	-151.153	-40.921	154.436	0.00073117	0.00043187	0.00019218	1315.6	3.9793e-06	5.737e-06	1314.3	359.15	5.4575e-06	3.6625e-06	410.23	137.38	118.96	41.056	3.8382e-06	51.313	0.0006052	0.0005334	0.00015218	1336.6	5.879e-06	6.0368e-06	1337.1	364.9	6.0339e-06	6.0245e-06	418.14	140.98	121.51	42.296	5.9658e-06	52.829	154.400	-63.600	-90.525	-158.678	-62.889	-23.213	-158.852	-153.984	-54.836	-16.856	-154.656	-150.650	-150.095	-144.892	-34.121	-145.736	-8191	255	
27072.109	1	1	0	0	0.19446	0.15202	0.25519	0.11909	0.20369	0.18217	0.35177	0.037073	0.16243	0.11251	0.20778	0.14388	0.031113	0.095279	0.40495	0.079258	-1.8375	-2.3167	-2.5042	-2.3187	-2.5583	-2.625	-2.4396	-2.7062	-2.3021	-2.3396	-2.7854	-2.3625	-2.5604	-2.4938	-2.1792	-2.7375	98.779	187.509	134.605	138.112	-62.553	-127.829	133.599	64.898	180.117	-122.945	132.952	104.272	-37.498	-152.156	143.924	96.643	0.00071726	0.00037189	0.0001408	1317.5	3.4126e-06	4.1464e-06	1320.6	357.62	6.5747e-06	5.1638e-06	409.86	137.81	119.04	41.314	4.1792e-06	50.997	0.00060155	0.00054758	0.00014685	1339.7	5.7112e-06	6.3182e-06	1340.3	364.04	6.138e-06	6.1086e-06	418.2	141.15	121.53	42.364	6.2867e-06	52.766	154.045	-88.240	-81.934	-158.611	-77.102	-21.072	-158.836	-153.952	-47.176	-21.710	-154.399	-150.873	-150.211	-144.888	-22.188	-145.703	-8191	255	
27072.230	1	1	0	0	0.13933	0.23346	0.055764	0.25945	0.33393	0.21266	0.16324	0.26296	0.2786	0.039742	0.20296	0.48249	0.14198	0.063076	0.1866	0.18601	-1.8687	-2.2979	-2.6417	-2.5312	-2.4062	-2.4771	-2.3063	-2.5896	-2.3896	-2.2917	-2.7396	-2.2583	-2.5146	-2.6437	-2.1979	-2.5958	-147.424	-159.075	-75.156	-161.073	-169.957	-99.304	89.239	81.382	-62.608	164.082	104.534	151.065	-148.867	-45.789	38.265	165.939	0.0007131	0.00058873	0.00017433	1319.7	4.3488e-06	4.0959e-06	1317.3	357.02	5.9769e-06	6.4672e-06	409.85	138.25	118.64	41.143	4.1638e-06	51.324	0.00061769	0.0005849	0.00015701	1337.1	6.2973e-06	6.5725e-06	1338.5	364.26	6.4243e-06	6.9033e-06	418.12	141.19	121.49	42.343	6.7216e-06	52.832	155.406	-71.253	-76.810	-158.575	-49.259	-17.092	-158.684	-153.882	-67.985	-18.909	-154.662	-150.793	-149.848	-145.167	-42.067	-145.792	-8191	255	
27072.326	1	1	0	0	0.20648	0.044443	0.21556	0.28834	0.17534	0.23445	0.50564	0.10832	0.08999	0.25158	0.31328	0.06671	0.061693	0.12966	0.069106	0.2341	-1.9146	-2.225	-2.5271	-2.6021	-2.3604	-2.425	-2.3208	-2.5667	-2.4729	-2.2979	-2.5687	-2.4854	-2.4083	-2.6646	-2.0875	-2.6833	-80.823	57.180	13.307	182.304	167.195	20.676	118.648	151.790	3.975	125.394	93.070	-160.720	-150.171	149.638	-64.674	-109.364	0.00070601	0.00030688	0.00012535	1314.5	3.6355e-06	4.0138e-06	1304.9	356.73	6.0348e-06	3.7645e-06	407.74	137.36	118.31	41.023	6.1741e-06	51.202	0.00064358	0.00062013	0.00016977	1331.9	6.6709e-06	6.953e-06	1329.1	362.65	7.06e-06	7.2908e-06	416.82	140.68	121.22	42.242	7.308e-06	52.788	153.495	-83.684	-88.437	-158.533	-47.503	-9.953	-158.861	-154.122	-57.706	-10.157	-154.444	-150.589	-150.141	-145.077	-34.565	-146.024	-8191	255	
27072.396	1	1	0	0	0.11667	0.14095	0.025611	0.28241	0.27626	0.2404	0.18445	0.10155	0.24531	0.094853	0.17793	0.2448	0.20945	0.29764	0.22561	0.079769	-2.0583	-2.2521	-2.4771	-2.5583	-2.4188	-2.5458	-2.1792	-2.5312	-2.5021	-2.2208	-2.8917	-2.4042	-2.2458	-2.6771	-2.3688	-2.4042	-142.180	-71.360	19.258	174.725	150.832	66.094	54.284	169.819	-143.988	-45.392	-138.087	95.235	81.406	-166.013	-45.390	-84.166	0.00075133	0.00031953	0.00013231	1309.3	3.5874e-06	6.2689e-06	1308.7	356.61	4.7009e-06	4.7801e-06	407.47	138.07	118.84	41.069	3.3105e-06	50.952	0.00068904	0.00069853	0.00018715	1327.9	7.4549e-06	7.4748e-06	1329.7	363.21	7.4846e-06	7.8681e-06	417.14	140.87	121.23	42.229	7.6072e-06	52.749	155.815	-73.342	-77.185	-158.470	-56.169	-19.071	-158.865	-153.984	-36.873	-15.647	-154.129	-150.806	-150.224	-145.031	-60.014	-145.574	-8191	255	
27072.518	1	1	0	0	0.22737	0.17174	0.34749	0.41225	0.37477	0.37243	0.050187	0.20624	0.075135	0.032515	0.31451	0.16802	0.37623	0.21484	0.23848	0.092023	-2.1521	-2.1354	-2.4708	-2.6521	-2.1917	-2.6083	-2.4938	-2.5146	-2.3792	-2.1792	-2.6229	-2.3771	-2.3438	-2.6292	-2.1417	-2.4542	50.000	-3.120	-8.945	148.696	63.616	84.058	-135.814	131.417	60.198	29.852	111.818	163.065	109.199	-111.312	75.328	-151.956	0.00074155	0.00056647	0.00013977	1308.6	5.8605e-06	4.6119e-06	1303.5	356.24	4.9985e-06	4.3742e-06	407.84	136.92	118.51	41.101	3.5815e-06	51.137	0.00070945	0.00071678	0.00019322	1327.9	7.5742e-06	7.3955e-06	1328.1	362.68	7.3596e-06	7.5568e-06	416.7	140.56	121.28	42.265	7.2947e-06	52.828	155.785	-75.543	-78.782	-158.475	-53.264	-25.141	-158.736	-154.081	-44.133	-25.207	-154.532	-150.715	-150.035	-144.834	-26.526	-145.728	-8191	255	
27072.613	1	1	0	0	0.11136	0.19437	0.093157	0.3719	0.054087	0.24111	0.15719	0.12796	0.20634	0.12748	0.3575	0.037188	0.051618	0.028403	0.18144	0.1953	-2.0958	-2.0812	-2.5542	-2.6354	-2.1875	-2.5479	-2.4833	-2.3917	-2.4729	-2.2313	-2.4729	-2.4625	-2.2792	-2.5542	-2.325	-2.1396	100.010	-72.746	148.981	153.393	145.980	54.299	150.616	169.653	174.096	-106.376	133.817	87.529	37.417	129.937	-44.475	-110.074	0.00073941	0.00050616	0.00014102	1310.8	5.0395e-06	4.4532e-06	1299.2	356.2	5.6777e-06	4.0409e-06	408.77	137.36	118.81	41.197	4.253e-06	50.84	0.00065448	0.00063308	0.00017711	1327.7	6.9731e-06	6.9028e-06	1325.9	362.69	6.5065e-06	6.6524e-06	416.49	140.8	121.34	42.283	6.4858e-06	52.667	155.524	-74.024	-64.858	-158.444	-69.001	-1.884	-158.833	-154.231	-49.729	-13.948	-154.494	-150.734	-150.238	-144.966	-47.607	-145.574	-8191	255	
27072.711	1	1	0	0	0.087604	0.18194	0.13304	0.33025	0.042101	0.21477	0.25545	0.50677	0.10039	0.082653	0.19154	0.33111	0.16817	0.056114	0.11533	0.025992	-2.1021	-2.2333	-2.2958	-2.5771	-2.1292	-2.6083	-2.3667	-2.3104	-2.5458	-2.2333	-2.5292	-2.6375	-2.2938	-2.7375	-2.3208	-2.3479	-28.575	61.480	126.856	172.720	-90.442	149.517	-169.581	177.594	136.380	8.417	112.357	159.665	92.907	119.729	33.604	117.216	0.00074692	0.00056242	0.00013111	1309	4.0578e-06	3.8942e-06	1307.4	356.54	5.77e-06	3.9856e-06	408.1	137.52	118.61	41.279	3.4813e-06	51.218	0.00061915	0.00056776	0.00016199	1329.4	6.2225e-06	5.8961e-06	1329.3	362.72	5.972e-06	6.102e-06	417.04	140.85	121.34	42.379	5.9055e-06	52.792	157.094	-70.305	-72.184	-158.410	-52.701	-10.511	-158.638	-153.971	-55.111	-20.992	-154.335	-150.681	-149.929	-144.823	-34.507	-145.732	-8191	255	
27072.807	1	1	0	0	0.16237	0.10586	0.1523	0.34757	0.063033	0.24327	0.31939	0.23209	0.13512	0.17578	0.41547	0.2488	0.070851	0.24946	0.051057	0.2305	-2.075	-2.1021	-2.4229	-2.8563	-2.075	-2.5563	-2.5312	-2.2687	-2.4688	-2.4833	-2.4208	-2.7771	-2.2	-2.5646	-2.4396	-2.3917	18.428	62.963	-5.571	98.126	-66.186	91.333	87.541	56.311	-114.433	-28.954	101.588	156.340	144.597	184.427	-108.515	-95.339	0.00075207	0.000407	0.00012058	1311	4.8185e-06	4.2112e-06	1304.6	356.22	4.4967e-06	4.9208e-06	408.34	137.46	118.52	41.215	4.7336e-06	51.035	0.00060111	0.00054443	0.0001486	1329	6.0341e-06	5.9e-06	1328.3	362.54	5.6111e-06	6.0409e-06	416.84	140.75	121.27	42.337	6.1293e-06	52.871	154.743	-104.738	-81.678	-158.307	-63.974	-20.883	-158.970	-154.023	-53.337	-19.748	-154.493	-150.666	-150.100	-144.840	-33.551	-145.789	-8191	255	
27072.928	1	1	0	0	0.1131	0.1524	0.1405	0.32122	0.23673	0.15367	0.12818	0.076148	0.14141	0.50304	0.17065	0.13316	0.34974	0.31372	0.16559	0.18174	-2.1479	-2.3125	-2.2625	-2.8042	-2.1083	-2.5083	-2.7521	-2.2646	-2.5812	-2.4792	-2.3688	-2.5812	-2.5646	-2.5625	-2.3937	-2.2188	10.626	-114.678	104.631	174.565	-72.402	-19.012	154.873	62.294	-106.244	-63.341	-117.189	-141.524	-65.217	-132.973	157.382	-120.453	0.00072622	0.00042891	0.00012552	1303.5	3.7348e-06	4.6052e-06	1300.1	354.91	4.5587e-06	6.5649e-06	407.24	137.69	118.58	41.167	4.5558e-06	51.209	0.00059119	0.00053871	0.00014868	1323.9	5.9359e-06	5.7785e-06	1324.3	361.77	5.7736e-06	5.8735e-06	415.66	140.42	121.18	42.251	5.8621e-06	52.799	156.247	-80.718	-74.425	-158.460	-40.245	-25.474	-158.707	-154.062	-59.300	-25.211	-154.451	-150.738	-150.199	-144.919	-37.822	-145.730	-8191	255	
27073.021	1	1	0	0	0.31332	0.2638	0.027676	0.23684	0.20916	0.21152	0.10965	0.2694	0.13103	0.20589	0.17983	0.052342	0.1733	0.18106	0.16361	0.26959	-2.0625	-2.5062	-2.3479	-2.7917	-2.2687	-2.4667	-2.7062	-2.2896	-2.5604	-2.2458	-2.2958	-2.7146	-2.3396	-2.4583	-2.525	-2.1917	-71.601	77.542	-106.750	179.407	133.076	-119.349	140.674	180.042	2.140	-147.458	103.345	70.369	175.549	167.758	132.270	27.088	0.00070173	0.00045021	0.00013895	1298.2	4.0348e-06	3.9874e-06	1294.8	355.28	5.2983e-06	4.8068e-06	407.94	137.1	117.97	40.987	4.1971e-06	51.132	0.00057826	0.00054139	0.00014661	1317.4	5.9231e-06	5.5962e-06	1317.4	361.04	5.6475e-06	5.8597e-06	415.21	140.37	120.89	42.211	5.7505e-06	52.717	157.298	-77.600	-72.639	-158.481	-54.902	-13.417	-158.656	-153.927	-58.743	-11.762	-154.389	-150.437	-150.147	-144.915	-41.280	-145.778	-8191	255	
27073.117	1	1	0	0	0.23373	0.14067	0.10197	0.30074	0.20857	0.057064	0.24307	0.1285	0.1174	0.1557	0.059258	0.10306	0.20948	0.28334	0.11845	0.16488	-1.9583	-2.2396	-2.0896	-2.6271	-2.2854	-2.1875	-2.7125	-2.4083	-2.4021	-2.5625	-2.2375	-2.5354	-2.3937	-2.5812	-2.4604	-2.2687	-114.060	98.826	-41.124	151.418	158.394	42.739	-164.009	96.121	-102.275	-120.196	-152.270	130.621	-163.975	186.583	128.355	-21.387	0.00073181	0.00059421	0.00013412	1296.1	4.4546e-06	4.1739e-06	1292.4	353.94	5.7242e-06	5.2854e-06	407.25	136.83	118.72	41.132	4.0518e-06	50.923	0.00060019	0.00052926	0.00014592	1315	5.7703e-06	5.8604e-06	1316.1	360.77	5.8309e-06	5.7776e-06	414.71	140.17	121.01	42.165	5.5086e-06	52.628	155.709	-88.813	-90.577	-158.523	-61.033	-26.922	-158.915	-154.160	-75.919	-25.969	-154.534	-150.645	-150.283	-144.838	-32.572	-145.602	-8191	255	
27073.215	1	1	0	0	0.23688	0.13991	0.14662	0.2782	0.058345	0.083653	0.056206	0.097825	0.27629	0.13211	0.17502	0.19294	0.2363	0.21994	0.21644	0.061528	-1.8521	-2.5146	-2.1437	-2.7667	-2.2	-2.1	-2.9021	-2.4688	-2.5312	-2.5479	-2.2333	-2.7229	-2.5312	-2.5563	-2.575	-2.5021	-2.713	-105.235	12.571	165.987	136.818	-166.053	126.160	-149.377	27.297	86.885	-150.301	162.948	134.789	170.888	160.387	159.292	0.00073181	0.00048408	0.00013621	1291.3	5.1148e-06	3.7894e-06	1285.7	353.8	5.1955e-06	3.6056e-06	404.21	136.9	117.82	41.098	3.7418e-06	51.277	0.00059136	0.00053789	0.00014265	1308.6	5.7212e-06	5.8644e-06	1309.8	359.78	5.9124e-06	5.8767e-06	413.08	139.64	120.6	42.123	5.8385e-06	52.655	155.701	-83.299	-74.827	-158.525	-64.389	-19.433	-158.824	-154.151	-49.826	1.774	-154.563	-150.523	-150.132	-145.046	-40.440	-145.713	-8191	255	
27073.311	1	1	0	0	0.045732	0.31324	0.010559	0.10015	0.064868	0.13365	0.24062	0.19039	0.25491	0.16563	0.076227	0.28477	0.13579	0.14188	0.21987	0.24586	-2.0667	-2.4396	-2.3083	-2.6771	-2.4333	-2.5438	-2.7333	-2.2125	-2.2812	-2.6583	-2.25	-2.7958	-2.6583	-2.3667	-2.6	-2.475	-30.833	158.708	-154.092	-18.923	-118.066	39.457	140.733	137.035	58.837	-156.809	-160.900	-157.851	153.681	-151.100	130.453	-168.657	0.00075773	0.00060225	0.00014446	1286.7	5.0248e-06	4.1026e-06	1286.4	352.36	4.2392e-06	5.3491e-06	404.82	136.5	117.79	40.963	3.974e-06	50.759	0.00061234	0.00054629	0.00015576	1306.4	6.0948e-06	6.1438e-06	1309.4	359.39	6.0617e-06	5.9339e-06	413.39	139.44	120.04	42.032	5.8639e-06	52.432	155.129	-82.705	-84.231	-158.580	-63.185	-13.723	-158.725	-154.096	-47.510	-7.355	-154.416	-150.653	-150.147	-145.042	-44.641	-145.774	-8191	255	
27073.406	1	1	0	0	0.1926	0.21592	0.10268	0.31906	0.065132	0.27629	0.12258	0.30366	0.21	0.15253	0.26874	0.25562	0.19574	0.16925	0.3157	0.12613	-2.0396	-2.6271	-2.2729	-2.6271	-2.3583	-2.1312	-2.7812	-2.3438	-2.2729	-2.5354	-2.3646	-2.6958	-2.6354	-2.2875	-2.5958	-2.3771	-96.552	-161.104	159.696	171.893	152.165	85.409	121.019	184.471	-1.345	23.495	171.686	-130.624	-138.464	-34.199	16.523	-64.511	0.00076819	0.00025993	0.00010836	1285.9	3.7733e-06	5.1636e-06	1283.6	351.48	6.0737e-06	5.9695e-06	404.06	136.09	117.21	40.796	5.2007e-06	50.781	0.00060148	0.00052693	0.00015074	1305.9	5.8422e-06	5.9258e-06	1307.7	358.29	5.8801e-06	5.9457e-06	412	139.28	119.68	41.879	5.8621e-06	52.332	155.276	-71.733	-85.746	-158.463	-49.339	-19.103	-158.828	-153.933	-63.473	-12.957	-154.413	-150.554	-149.829	-144.919	-44.391	-145.589	-8191	255	
27073.527	1	1	0	0	0.17572	0.28587	0.016274	0.2277	0.12937	0.1571	0.22921	0.21435	0.063039	0.25922	0.12991	0.19754	0.20834	0.11404	0.12437	0.30875	-1.9625	-2.3979	-2.2604	-2.5792	-2.5583	-2.3125	-2.6854	-2.6729	-2.1354	-2.6292	-2.2125	-2.5625	-2.6437	-2.2417	-2.4938	-2.625	153.712	12.204	-104.148	-141.491	13.214	-78.632	75.034	184.179	132.661	148.673	175.248	-155.981	-114.780	178.247	-104.619	104.618	0.00075217	0.00053183	0.00013102	1288.9	2.8113e-06	2.9787e-06	1287	351.83	6.8471e-06	4.448e-06	403.02	135.71	117.37	40.735	3.9794e-06	50.594	0.00060676	0.00050797	0.00015311	1306.8	5.8952e-06	6.0368e-06	1308.1	358.36	6.2491e-06	5.6915e-06	411.82	138.92	119.71	41.83	6.1359e-06	52.271	154.007	-82.801	-101.591	-158.448	-63.262	-40.061	-158.753	-154.171	-63.142	-10.043	-154.235	-150.707	-150.028	-144.906	-30.201	-145.551	-8191	255	
27073.623	1	1	0	0	0.12254	0.22843	0.30784	0.17848	0.085788	0.10107	0.35049	0.49776	0.048694	0.20063	0.25319	0.31789	0.18218	0.15913	0.14763	0.21037	-1.7542	-2.5187	-2.0667	-2.3729	-2.5521	-2.2125	-2.6396	-2.5417	-2.2	-2.6562	-2.4833	-2.4	-2.575	-2.2479	-2.4458	-2.6354	15.045	-139.523	137.592	140.854	26.489	164.552	119.004	137.327	-71.642	-133.820	25.307	121.794	93.821	85.643	-45.706	-98.637	0.00078355	0.00056036	0.00014452	1286.4	3.9814e-06	4.3045e-06	1284	351.55	4.8998e-06	3.3697e-06	402.94	135.54	116.64	40.49	5.2606e-06	50.356	0.00062097	0.00055294	0.00015383	1306.3	5.9671e-06	6.1233e-06	1306.3	356.75	6.2913e-06	6.1322e-06	410.6	138.74	119.19	41.621	6.145e-06	52.061	154.296	-72.274	-87.918	-158.442	-67.244	-32.502	-158.620	-154.086	-52.731	-21.981	-154.347	-150.584	-150.014	-144.828	-39.423	-145.620	-8191	255	
27073.695	1	1	0	0	0.15543	0.13868	0.12265	0.3327	0.065732	0.15795	0.24264	0.16494	0.090974	0.050264	0.25903	0.25985	0.1697	0.017	0.10937	0.18426	-1.8208	-2.5479	-2.3833	-2.4437	-2.6833	-2.2229	-2.6437	-2.6708	-2.2917	-2.5667	-2.3812	-2.3688	-2.7125	-2.2229	-2.3396	-2.7229	153.175	61.796	-162.019	135.291	101.723	12.607	106.793	175.846	161.362	38.683	92.662	147.318	143.736	63.345	-147.171	70.245	0.0007263	0.00055988	0.00011271	1281.9	3.6778e-06	3.6115e-06	1278.3	350.28	5.3375e-06	5.3428e-06	400.65	135.04	116.53	40.468	4.8082e-06	50.482	0.00061326	0.00055387	0.0001598	1299.9	5.9822e-06	6.0936e-06	1301.3	356.35	6.1704e-06	6.1454e-06	409.92	138.34	118.92	41.575	6.2475e-06	52.056	156.975	-73.008	-90.375	-158.394	-52.838	-44.010	-158.757	-154.123	-70.652	-23.193	-154.605	-150.460	-150.015	-144.901	-35.615	-145.678	-8191	255	
27073.791	1	1	0	0	0.095479	0.070749	0.18115	0.13373	0.22456	0.1454	0.19405	0.18909	0.097717	0.051712	0.36638	0.31386	0.1167	0.15791	0.20982	0.30762	-1.7958	-2.4979	-2.4271	-2.4229	-2.6229	-2.425	-2.6354	-2.6083	-2.2292	-2.5896	-2.4583	-2.5479	-2.7958	-2.35	-2.2375	-2.7354	-144.762	-113.752	55.301	183.516	93.229	106.543	145.289	156.895	127.173	159.517	128.018	137.590	-162.703	101.210	143.105	97.126	0.00071551	0.00043527	0.00013586	1275.7	4.7352e-06	4.1367e-06	1278	348.28	5.2828e-06	4.4426e-06	401.72	135.84	116.34	40.271	5.0478e-06	50.543	0.0006137	0.00057417	0.00016184	1294.8	6.087e-06	6.5196e-06	1299.5	354.99	6.3312e-06	6.2964e-06	409.49	138.35	118.79	41.513	6.2716e-06	52.11	153.663	-77.376	-87.403	-158.310	-53.662	-16.703	-158.751	-153.992	-63.155	-20.391	-154.285	-150.590	-150.106	-144.803	-29.576	-145.628	-8191	255	
27073.910	1	1	0	0	0.072549	0.34661	0.11205	0.10407	0.060908	0.051882	0.13727	0.15198	0.079	0.1101	0.29762	0.45355	0.34868	0.27596	0.089923	0.13778	-1.6688	-2.5146	-2.4854	-2.5083	-2.5271	-2.3729	-2.2167	-2.7646	-2.125	-2.2917	-2.5833	-2.2625	-2.6479	-2.4729	-2.3979	-2.8063	12.816	172.224	-120.440	141.116	-112.841	158.176	142.849	116.735	154.594	-31.528	169.384	153.725	147.049	-11.631	-41.599	82.141	0.00074744	0.00041358	0.00012609	1278.8	5.0578e-06	5.4447e-06	1273.4	349.1	5.8515e-06	6.4293e-06	400.98	135.26	116.32	40.423	5.3873e-06	50.559	0.00062916	0.00056886	0.00015879	1295.9	6.0168e-06	6.6009e-06	1297.8	354.98	6.1964e-06	6.3831e-06	408.65	138	118.7	41.475	6.1534e-06	52.118	156.480	-85.544	-78.137	-158.385	-50.289	-11.626	-158.594	-154.114	-53.790	-19.038	-154.500	-150.683	-150.167	-144.770	-35.907	-145.551	-8191	255	
27074.006	1	1	0	0	0.19057	0.040951	0.13353	0.50602	0.063337	0.18211	0.20021	0.26691	0.37362	0.21822	0.15095	0.14063	0.21727	0.24394	0.395	0.088955	-1.8208	-2.3708	-2.4542	-2.2125	-2.6833	-2.3563	-2.5583	-2.6833	-2.2229	-2.4375	-2.65	-2.2687	-2.4437	-2.5083	-2.2042	-2.6542	21.142	12.556	129.769	144.967	-51.187	-3.295	67.263	158.953	180.153	99.516	157.040	-124.598	152.769	153.381	112.642	50.708	0.00073938	0.00033127	0.00016626	1279.2	4.9742e-06	5.2666e-06	1274.3	349.29	5.5614e-06	4.692e-06	400.63	135.26	115.71	40.289	4.2972e-06	50.37	0.00063928	0.00057161	0.00016166	1296	6.3737e-06	6.55e-06	1298.5	355.75	6.3168e-06	6.366e-06	408.76	138.05	118.49	41.505	6.2958e-06	52.063	155.870	-96.461	-83.397	-158.529	-53.108	-8.352	-158.852	-153.917	-63.393	-3.339	-154.738	-150.618	-150.058	-144.875	-44.119	-145.428	-8191	255	
27074.102	1	1	0	0	0.10119	0.17845	0.21259	0.22575	0.30603	0.14966	0.24777	0.431	0.091581	0.086465	0.41656	0.33622	0.16437	0.07443	0.37833	0.13763	-1.8937	-2.1792	-2.4292	-2.3875	-2.5	-2.3563	-2.6229	-2.8292	-2.2812	-2.3292	-2.8312	-2.4708	-2.5833	-2.4875	-2.1188	-2.6542	81.344	26.968	148.387	121.660	179.424	105.487	89.543	83.313	-53.681	43.658	94.210	-154.605	117.451	144.970	122.856	-77.559	0.00071503	0.00051438	0.00017551	1277.6	2.913e-06	4.916e-06	1276.8	348.77	6.2682e-06	5.6097e-06	401.34	134.83	115.79	40.267	5.0391e-06	50.262	0.00062192	0.0005838	0.00016049	1297.6	6.2393e-06	6.6161e-06	1301.3	355.4	6.5955e-06	6.3897e-06	408.78	138.08	118.66	41.424	6.3905e-06	52.03	156.375	-83.379	-75.777	-158.574	-63.037	-35.299	-158.575	-153.940	-55.569	-22.887	-154.452	-150.440	-150.061	-144.726	-37.700	-145.756	-8191	255	
27074.197	1	1	0	0	0.073997	0.19802	0.41839	0.28591	0.065644	0.18749	0.1238	0.21262	0.17653	0.09385	0.052396	0.15244	0.20597	0.04453	0.1249	0.27456	-1.7854	-2.3479	-2.6125	-2.3271	-2.3292	-2.5604	-2.4458	-2.5833	-2.4521	-2.3604	-2.625	-2.2958	-2.5625	-2.7583	-2.2354	-2.5417	-105.549	40.374	-5.707	131.693	154.979	-56.883	-49.304	97.241	57.937	3.730	141.264	185.705	-91.327	-30.077	75.495	-144.864	0.00068989	0.00049083	9.3515e-05	1276.1	3.2038e-06	4.243e-06	1272.3	348.27	6.2707e-06	5.5029e-06	399.97	134.75	115.34	40.142	4.5019e-06	50.2	0.0006227	0.00058298	0.00016083	1295.9	6.3742e-06	6.5355e-06	1294.3	354.45	6.6806e-06	6.2721e-06	407.69	137.67	117.99	41.309	6.37e-06	51.97	154.357	-62.350	-86.031	-158.332	-75.919	-22.197	-158.761	-153.892	-73.703	-20.749	-154.422	-150.624	-150.021	-144.802	-36.198	-145.626	-8191	255	
27074.318	1	1	0	0	0.15638	0.09568	0.058054	0.20741	0.17278	0.11976	0.043854	0.10219	0.21258	0.096223	0.35921	0.13505	0.26509	0.21837	0.15582	0.25845	-1.8354	-2.3	-2.8	-2.3104	-2.2417	-2.6958	-2.4146	-2.6979	-2.4667	-2.1646	-2.8375	-2.3375	-2.2833	-2.5458	-2.0292	-2.5396	-63.937	58.578	113.125	168.288	-96.803	-116.353	42.323	-170.455	-36.981	122.308	165.613	-71.680	112.655	45.483	141.970	-157.682	0.00072265	0.00031068	0.00010063	1271	4.8589e-06	4.2345e-06	1266.4	346.56	3.7198e-06	3.8826e-06	395.87	134.02	115.41	40.208	3.3718e-06	50.214	0.00062111	0.00055568	0.00015606	1288.5	6.2236e-06	6.1114e-06	1288.8	353.04	6.2254e-06	6.0685e-06	405.59	137.24	117.98	41.302	6.2692e-06	51.802	156.661	-74.759	-99.285	-158.385	-61.656	-8.906	-158.639	-154.087	-57.169	-18.734	-154.438	-150.845	-149.830	-144.645	-54.696	-145.794	-8191	255	
27074.391	1	1	0	0	0.094452	0.15071	0.052125	0.36871	0.20051	0.1755	0.26507	0.1324	0.11686	0.14679	0.18618	0.26904	0.28847	0.20204	0.091333	0.6112	-2.2125	-2.1562	-2.5563	-2.6458	-2.2313	-2.6813	-2.4042	-2.6521	-2.2875	-2.0604	-2.7375	-2.4625	-2.4021	-2.7125	-2.2333	-2.5896	55.768	-17.134	91.940	171.891	-59.176	-60.857	184.352	185.577	92.260	77.406	89.828	65.433	184.583	-46.726	163.194	185.632	0.00073848	0.00061264	0.000145	1274.2	3.5183e-06	4.9649e-06	1270.1	348.14	5.2123e-06	5.6154e-06	399.27	134.76	115.86	40.372	3.44e-06	50.307	0.00061725	0.00057435	0.0001617	1291.1	6.2248e-06	6.3538e-06	1294.6	353.95	6.3237e-06	6.7213e-06	407.89	137.87	118.43	41.588	6.5624e-06	51.988	156.187	-80.016	-82.089	-158.398	-49.211	-21.411	-158.834	-153.834	-67.775	-21.722	-154.360	-150.901	-150.058	-144.749	-34.950	-145.802	-8191	255	
27074.486	1	1	0	0	0.1674	0.20758	0.10196	0.021782	0.093018	0.098652	0.2052	0.22264	0.22009	0.26034	0.12701	0.14664	0.29514	0.30527	0.2226	0.21524	-2.1146	-2.0396	-2.5667	-2.5979	-2.1771	-2.6104	-2.4583	-2.45	-2.6562	-2.2042	-2.6292	-2.1813	-2.2542	-2.6437	-2.2396	-2.4729	-2.103	35.967	174.591	160.111	34.638	47.583	82.457	181.019	166.956	-33.105	158.215	-115.500	-129.795	176.501	65.044	65.467	0.00075655	0.00037165	0.00013788	1285.7	3.7137e-06	5.1552e-06	1281.6	348.43	4.6097e-06	4.4746e-06	401.34	135.04	115.98	40.539	4.4748e-06	50.044	0.0006295	0.00058765	0.00016626	1303.5	6.2593e-06	6.6332e-06	1305.4	355.15	6.396e-06	6.5493e-06	408.61	138.02	118.58	41.563	6.5479e-06	51.794	156.406	-85.018	-88.000	-158.530	-56.516	-14.593	-158.695	-153.932	-47.603	-24.901	-154.326	-150.664	-150.232	-144.815	-33.264	-145.669	-8191	255	
27074.607	1	1	0	0	0.0050462	0.21131	0.24878	0.2909	0.27628	0.31986	0.11266	0.18106	0.27367	0.051261	0.15247	0.22077	0.27044	0.070296	0.20994	0.21801	-1.9125	-1.8833	-2.3646	-2.5	-2.0833	-2.6771	-2.5896	-2.3542	-2.7604	-2.3458	-2.4708	-2.5958	-2.1958	-2.6188	-2.5083	-2.4375	118.193	-0.029	-37.201	156.874	-98.898	49.831	128.566	-168.178	75.722	-105.211	158.996	-145.905	175.676	90.992	-116.831	144.755	0.00071865	0.00041212	0.00012503	1272.3	4.5085e-06	5.1844e-06	1275.5	347.54	5.3532e-06	4.8697e-06	398.91	134.3	116.13	40.421	3.5642e-06	50.299	0.00061688	0.00058881	0.00015758	1294.5	6.1595e-06	6.196e-06	1297.9	353.57	6.0351e-06	6.2196e-06	407.19	137.64	118.71	41.512	6.3199e-06	51.925	156.038	-78.964	-99.346	-158.448	-59.445	-22.727	-158.668	-153.999	-70.308	-37.368	-154.277	-150.715	-150.170	-144.897	-33.659	-145.669	-8191	255	
27074.703	1	1	0	0	0.065493	0.1472	0.092248	0.12281	0.24906	0.16492	0.23214	0.1711	0.20666	0.087264	0.25499	0.15288	0.05641	0.30898	0.16754	0.049878	-2.0042	-2.1875	-2.2583	-2.6229	-2.1042	-2.4125	-2.4542	-2.375	-2.5604	-2.2729	-2.45	-2.7146	-2.1917	-2.5854	-2.4542	-2.1813	123.717	134.182	-28.984	95.064	108.261	4.521	119.018	26.924	-46.442	-35.034	-125.844	114.160	64.308	-139.951	-54.401	181.382	0.00072363	0.00052785	0.00013942	1270.6	4.3892e-06	6.4659e-06	1275.5	346.83	5.2745e-06	4.9196e-06	398.64	134.53	116.18	40.316	3.9158e-06	50.176	0.00059968	0.00058018	0.00015632	1291.9	6.0474e-06	5.9595e-06	1295.4	353.1	5.7864e-06	5.9858e-06	406.5	137.53	118.63	41.557	5.9712e-06	51.854	157.686	-79.787	-59.355	-158.527	-66.690	-22.774	-158.814	-154.012	-69.519	-7.090	-154.564	-150.566	-150.165	-144.965	-67.109	-145.693	-8191	255	
27074.801	1	1	0	0	0.10644	0.10793	0.050139	0.47431	0.12907	0.29122	0.26493	0.10062	0.088855	0.13975	0.2451	0.1038	0.052603	0.077905	0.18198	0.21501	-2.1833	-2.1813	-2.3104	-2.6042	-2.1042	-2.35	-2.5104	-2.4062	-2.6042	-2.0812	-2.3354	-2.7542	-2.1729	-2.5167	-2.4104	-2.3125	-121.316	-129.359	6.084	163.193	92.035	-1.563	-153.631	175.852	163.384	-15.958	156.201	-56.080	57.637	149.159	-122.737	118.618	0.00070906	0.00024224	0.00012507	1272.4	4.1386e-06	4.778e-06	1266.6	345.76	6.3662e-06	4.2198e-06	396.57	133.68	115.13	40.093	3.6832e-06	50.163	0.00057471	0.00052967	0.00014427	1290.4	5.6582e-06	5.5083e-06	1289.8	352.18	5.6244e-06	5.5543e-06	404.97	136.98	117.81	41.33	5.5544e-06	51.668	156.453	-65.454	-97.536	-158.369	-62.581	-24.325	-158.844	-153.915	-50.513	-8.193	-154.441	-150.495	-150.024	-144.695	-37.569	-145.407	-8191	255	
27074.918	1	1	0	0	0.085203	0.25538	0.066106	0.060156	0.14209	0.099738	0.40286	0.085384	0.14103	0.096149	0.083807	0.17764	0.25796	0.15656	0.30322	0.055492	-2.175	-2.2833	-2.2521	-2.8688	-2.35	-2.6104	-2.6479	-2.3521	-2.6333	-2.3875	-2.5062	-2.7375	-2.2208	-2.2896	-2.4792	-2.2229	-115.708	62.972	52.619	-66.025	22.252	-146.326	123.550	55.643	-32.492	-94.818	-169.168	145.179	178.479	-114.934	58.568	139.609	0.00073881	0.0005662	0.00015152	1258.3	3.2002e-06	4.5671e-06	1258.9	344.03	6.2587e-06	6.0794e-06	396.84	132.99	115.43	40.2	3.4996e-06	50.136	0.00059268	0.00052529	0.00014599	1276	5.8238e-06	5.762e-06	1279.2	351.05	5.6296e-06	5.9602e-06	403.93	136.56	117.72	41.225	5.657e-06	51.672	155.059	-79.512	-82.547	-158.475	-59.180	-19.994	-158.735	-153.871	-52.116	-15.132	-154.344	-150.417	-150.070	-144.777	-21.419	-145.523	-8191	255	
27074.990	1	1	0	0	0.10609	0.05706	0.074057	0.061641	0.09242	0.084701	0.1373	0.16915	0.15513	0.24618	0.27031	0.11176	0.12244	0.1339	0.090893	0.098082	-2.1875	-2.3271	-2.2188	-2.7938	-2.1437	-2.2812	-2.8187	-2.2792	-2.3854	-2.5229	-2.2833	-2.6667	-2.2042	-2.3333	-2.5708	-2.2542	79.718	125.986	95.051	126.668	22.706	25.064	118.634	71.370	-115.584	-154.567	-147.387	185.242	-161.434	-84.556	183.934	89.294	0.0007417	0.00047061	0.00012626	1258.4	3.9744e-06	4.3113e-06	1257.1	343.86	3.0782e-06	4.2751e-06	395.93	133.06	115.3	40.273	3.6431e-06	49.942	0.00060327	0.00052471	0.00014533	1276.7	5.7954e-06	5.7006e-06	1278.9	350.38	5.8066e-06	5.7756e-06	403.68	136.53	117.44	41.301	5.7155e-06	51.544	155.455	-85.930	-104.591	-158.376	-52.518	-19.502	-158.786	-154.107	-80.703	-21.102	-154.291	-150.601	-150.105	-144.752	-45.239	-145.515	-8191	255	
27075.086	1	1	0	0	0.25952	0.4009	0.10575	0.35679	0.19391	0.072236	0.25098	0.17341	0.13947	0.12165	0.42336	0.22019	0.13356	0.047949	0.15606	0.15464	-2.0479	-2.3021	-2.0479	-2.8521	-2.4271	-2.3125	-2.9104	-2.4188	-2.6	-2.4	-2.4708	-2.4271	-2.2792	-2.2021	-2.625	-2.2313	174.361	-107.763	-141.920	-19.303	-102.430	-153.076	43.187	161.801	-46.669	26.794	153.525	175.354	-55.366	170.503	-40.917	126.899	0.00075419	0.00051702	0.00012667	1256.4	3.3328e-06	3.6552e-06	1258.6	345.11	4.9565e-06	4.8387e-06	396.2	133.49	114.91	40.092	5.0855e-06	50.107	0.00059857	0.00052594	0.00015431	1277.2	5.8545e-06	5.7897e-06	1281.7	350.85	5.6846e-06	5.796e-06	403.78	136.57	117.44	41.233	5.9236e-06	51.604	154.497	-70.514	-87.700	-158.180	-60.689	-11.038	-158.647	-153.785	-59.980	-32.158	-154.357	-150.433	-149.841	-144.808	-40.392	-145.584	-8191	255	
27075.207	1	1	0	0	0.26133	0.41421	0.31749	0.22348	0.14243	0.18669	0.026965	0.14703	0.18671	0.093875	0.23051	0.092609	0.070933	0.1218	0.066592	0.10216	-1.9312	-2.4375	-2.1875	-2.75	-2.2417	-2.2083	-2.7812	-2.325	-2.425	-2.7521	-2.4083	-2.5167	-2.5542	-2.2062	-2.5229	-2.2438	-142.695	164.695	64.842	-118.123	-27.428	90.994	144.964	-151.378	170.076	148.179	151.245	98.964	150.692	160.783	-29.855	80.143	0.00072657	0.00047762	9.5946e-05	1255.7	4.3341e-06	3.9223e-06	1255.6	343.75	5.5811e-06	5.1157e-06	394.43	133.87	114.73	40.173	4.7695e-06	50.053	0.0005894	0.00052127	0.00014986	1275.7	5.9755e-06	5.9093e-06	1280.1	350.47	5.8939e-06	6.1355e-06	403.98	136.82	117.34	41.269	6.2807e-06	51.624	154.951	-89.480	-90.563	-158.481	-57.129	-30.524	-158.596	-153.952	-65.608	-14.475	-154.280	-150.416	-150.066	-144.826	-31.241	-145.887	-8191	255	
27075.303	1	1	0	0	0.14991	0.27774	0.077409	0.28324	0.025053	0.22881	0.3047	0.053408	0.16073	0.20046	0.2588	0.45834	0.1751	0.19086	0.18635	0.17393	-1.95	-2.5396	-2.1083	-2.6333	-2.4333	-2.2417	-2.7146	-2.4104	-2.3375	-2.7292	-2.3208	-2.5708	-2.475	-2.1896	-2.7083	-2.375	114.986	-161.692	174.308	47.789	-1.683	-170.918	110.271	-89.131	164.102	-109.707	136.021	157.586	17.123	163.233	-104.677	168.807	0.0007425	0.00047921	0.00010373	1258.9	4.4122e-06	3.9009e-06	1263.5	345.71	5.9525e-06	6.0067e-06	394.46	134.16	115.25	40.37	3.4792e-06	50.076	0.00061356	0.00055516	0.00016175	1278	6.2131e-06	6.0434e-06	1283.7	351.57	6.2016e-06	6.1867e-06	404.12	137.12	117.72	41.346	6.2632e-06	51.725	156.568	-79.488	-77.401	-158.365	-69.996	-13.574	-158.917	-153.970	-58.437	-30.321	-154.369	-150.481	-149.977	-144.754	-32.477	-145.587	-8191	255	
27075.398	1	1	0	0	0.049631	0.11218	0.13448	0.069408	0.14763	0.44104	0.16253	0.3087	0.18073	0.19693	0.43105	0.18574	0.40843	0.22635	0.14678	0.24805	-2	-2.6063	-2.2542	-2.6917	-2.5563	-2.0938	-2.8979	-2.5438	-2.2542	-2.6979	-2.2687	-2.5333	-2.6042	-2.1375	-2.4188	-2.4271	162.621	13.299	154.148	-153.269	-84.760	-134.564	126.259	144.220	13.226	105.209	130.934	142.419	-156.302	160.873	69.972	144.780	0.00073158	0.00057159	0.00014578	1261.1	4.3291e-06	3.4252e-06	1262.4	346.18	5.1121e-06	3.4413e-06	395.63	133.99	115.23	40.231	2.8299e-06	50.149	0.00061339	0.00056857	0.00016217	1281.9	6.1171e-06	6.2197e-06	1284.7	351.73	6.1617e-06	6.1014e-06	404.33	137.14	117.72	41.345	6.2306e-06	51.734	155.126	-77.167	-84.765	-158.432	-53.927	-21.526	-158.746	-154.110	-49.725	-6.236	-154.339	-150.611	-149.981	-145.074	-61.595	-145.772	-8191	255	
27075.494	1	1	0	0	0.25131	0.21771	0.28699	0.18028	0.24409	0.13432	0.16716	0.25539	0.15551	0.20284	0.30743	0.10169	0.31291	0.13302	0.15612	0.10625	-1.6187	-2.5062	-2.0229	-2.5771	-2.4458	-2.0771	-2.7917	-2.5229	-2.2604	-2.6437	-2.6021	-2.2917	-2.6312	-2.2188	-2.4875	-2.6667	183.098	98.408	85.308	76.925	11.694	130.974	140.611	116.125	-46.247	6.851	-145.102	178.713	111.510	114.590	132.369	-153.443	0.00076529	0.00051809	0.00016256	1261.3	5.0984e-06	3.3596e-06	1258.8	344.57	4.6217e-06	4.248e-06	395.82	133.71	115.03	40.074	4.4017e-06	50.154	0.00063268	0.00057073	0.00017097	1281.2	6.2593e-06	6.4212e-06	1284	350.83	6.3329e-06	6.1736e-06	404.03	136.85	117.49	41.275	6.2554e-06	51.703	154.846	-61.915	-79.571	-158.264	-61.401	-11.328	-158.699	-153.780	-63.975	-19.897	-154.443	-150.408	-149.974	-144.816	-57.871	-145.501	-8191	255	
27075.566	1	1	0	0	0.096542	0.29758	0.042117	0.20827	0.1643	0.17683	0.17444	0.017527	0.25822	0.13018	0.35771	0.11849	0.25784	0.057338	0.10194	0.028802	-1.6	-2.5229	-2.3625	-2.4562	-2.7125	-2.1625	-2.5896	-2.5458	-2.0563	-2.4083	-2.5146	-2.4083	-2.7062	-2.3521	-2.4708	-2.7833	181.468	66.295	101.737	174.079	51.562	182.255	108.510	166.976	-138.602	3.171	144.535	-130.414	-84.765	-81.178	-114.836	146.418	0.0007462	0.00046127	0.00013252	1257.7	4.7098e-06	4.1126e-06	1256	343.92	4.9519e-06	5.7841e-06	396.33	133.92	114.71	40.072	3.9359e-06	50.026	0.00061502	0.00054868	0.0001625	1276.5	6.3012e-06	6.2356e-06	1280.3	350.41	6.2479e-06	6.0751e-06	403.94	136.73	117.33	41.228	6.0931e-06	51.577	155.090	-64.773	-77.927	-158.538	-52.265	-24.436	-158.663	-153.897	-61.969	-9.287	-154.566	-150.583	-150.065	-144.800	-22.354	-145.315	-8191	255	
27075.688	1	1	0	0	0.25417	0.060766	0.24278	0.29816	0.072274	0.012552	0.19865	0.17575	0.14056	0.13113	0.29154	0.1942	0.11382	0.16304	0.21012	0.080178	-1.7188	-2.4729	-2.3771	-2.3354	-2.8167	-2.4479	-2.4646	-2.7583	-2.2333	-2.75	-2.4188	-2.4708	-2.675	-2.3896	-2.3438	-2.5417	-135.881	-66.509	99.443	124.661	93.600	60.283	164.676	-38.424	135.371	178.017	128.599	-124.994	158.511	-125.942	95.764	-19.690	0.00072796	0.00050636	0.00011038	1254.8	4.0271e-06	3.8418e-06	1256.6	344.38	4.1204e-06	4.6988e-06	395.98	133.52	114.85	40.189	3.9251e-06	50.111	0.0006092	0.00055387	0.00015581	1274.2	6.0943e-06	6.1841e-06	1279.6	350.45	6.2074e-06	5.9792e-06	403.76	136.68	117.38	41.212	6.011e-06	51.615	155.613	-71.440	-80.623	-158.310	-51.760	-10.978	-158.722	-153.941	-69.988	-16.375	-154.370	-150.563	-150.155	-144.652	-23.981	-145.508	-8191	255	
27075.783	1	1	0	0	0.27413	0.10496	0.15279	0.10842	0.085381	0.013909	0.070537	0.085787	0.23381	0.19338	0.042935	0.12413	0.29007	0.18859	0.14719	0.18084	-1.8333	-2.5687	-2.4729	-2.4917	-2.5979	-2.4167	-2.475	-2.8375	-2.1604	-2.3833	-2.7292	-2.3083	-2.5021	-2.3417	-2.4688	-2.6792	154.643	-82.622	34.654	101.546	151.638	-156.954	59.517	97.991	0.915	-169.469	-23.851	-118.901	-166.113	178.862	83.055	143.353	0.00071683	0.00048683	0.00012917	1255.3	4.8966e-06	4.7238e-06	1256.1	344.92	7.0289e-06	5.1595e-06	394.07	133.45	114.86	39.993	3.2518e-06	49.99	0.00060696	0.00054151	0.00015606	1273.3	6.1729e-06	6.3334e-06	1279.5	350.84	6.3081e-06	6.0508e-06	403.39	136.51	117.19	41.159	6.2276e-06	51.664	155.166	-86.687	-74.707	-158.400	-63.357	-20.595	-158.869	-153.974	-59.551	-7.503	-154.412	-150.574	-150.081	-144.833	-56.057	-145.590	-8191	255	
27075.881	1	1	0	0	0.090456	0.19538	0.15418	0.22154	0.1654	0.19705	0.15368	0.10416	0.19416	0.46367	0.12759	0.28954	0.25861	0.21896	0.16095	0.10569	-1.5896	-2.4479	-2.4583	-2.3979	-2.5083	-2.2208	-2.4979	-2.5687	-2.2396	-2.3125	-2.6875	-2.1417	-2.6271	-2.2562	-2.2313	-2.6937	-47.076	111.969	-25.639	115.581	176.158	-127.004	148.773	76.433	-159.615	-125.307	124.244	166.762	64.913	-161.386	-148.628	-27.131	0.00067155	0.00044501	0.00014008	1257.8	3.3008e-06	3.5467e-06	1257.6	345.7	5.5898e-06	3.9591e-06	395.45	133.78	114.68	40.136	3.5795e-06	50.006	0.00059992	0.00057172	0.00015369	1275.4	5.9041e-06	6.3426e-06	1279.3	351.03	6.3272e-06	6.3063e-06	403.88	136.8	117.37	41.208	6.1432e-06	51.66	154.354	-100.612	-58.408	-158.279	-50.745	-29.179	-158.632	-154.065	-41.724	-23.821	-154.494	-150.529	-150.038	-144.925	-43.980	-145.616	-8191	255	
27075.998	1	1	0	0	0.077932	0.21571	0.16902	0.34686	0.22399	0.19119	0.13344	0.15552	0.18637	0.26123	0.14882	0.17049	0.11696	0.24998	0.048824	0.19825	-1.9167	-2.3854	-2.3958	-2.4313	-2.4354	-2.3146	-2.3771	-2.5938	-2.0583	-2.2604	-2.6833	-2.2708	-2.575	-2.725	-2.2729	-2.7292	57.264	60.660	-157.086	127.499	145.253	101.261	70.253	125.874	144.568	73.218	118.648	-22.169	151.293	178.717	-32.916	53.219	0.00071752	0.00041789	0.00015382	1257	3.6522e-06	4.3043e-06	1257.6	343.5	6.7548e-06	3.567e-06	397.63	133.57	114.64	40.16	3.4672e-06	50.181	0.00060801	0.00055918	0.00015508	1275.1	6.0218e-06	6.0691e-06	1279.3	350.35	6.3029e-06	5.9391e-06	404.24	136.55	117.37	41.271	6.0943e-06	51.639	154.858	-70.040	-92.611	-158.521	-62.103	-16.446	-158.749	-153.768	-61.225	-41.907	-154.369	-150.645	-150.054	-144.684	-37.967	-145.567	-8191	255	
27076.096	1	1	0	0	0.081559	0.22165	0.1326	0.15376	0.21149	0.19078	0.062153	0.16515	0.23665	0.22357	0.045323	0.21447	0.12622	0.22017	0.22763	0.1223	-1.6625	-2.2438	-2.5521	-2.3542	-2.4354	-2.4792	-2.3312	-2.7979	-2.3292	-2.2208	-2.8375	-2.2875	-2.5479	-2.5583	-2.1479	-2.7417	-22.131	-102.304	53.971	114.824	-6.774	37.545	60.271	103.673	-163.472	81.914	185.622	110.870	-136.138	165.676	-139.010	177.421	0.00074089	0.00052916	0.00012348	1261.5	5.0778e-06	3.569e-06	1259.7	344.54	6.1538e-06	5.7518e-06	395.56	133.98	115.04	40.038	3.947e-06	50.376	0.0006095	0.00055574	0.00015004	1276.8	5.9532e-06	6.0546e-06	1280.3	350.76	6.0767e-06	5.819e-06	403.69	136.6	117.7	41.246	5.935e-06	51.694	153.927	-83.525	-87.338	-158.530	-72.637	-3.051	-158.756	-153.775	-70.781	-13.296	-154.249	-150.605	-149.855	-145.031	-64.670	-145.788	-8191	255	
27076.191	1	1	0	0	0.20736	0.18818	0.23828	0.10799	0.10046	0.33788	0.40901	0.23521	0.37037	0.22342	0.54947	0.0056195	0.23495	0.21395	0.26092	0.027342	-1.9271	-1.9792	-2.6292	-2.3563	-2.4458	-2.3708	-2.2021	-2.6667	-2.5771	-2.0646	-2.7604	-2.4688	-2.5208	-2.575	-2.2521	-2.7208	-96.196	182.482	113.810	175.987	5.822	164.168	132.940	148.413	-134.724	32.622	154.683	129.759	179.531	107.855	129.913	182.597	0.00070614	0.0004468	7.4309e-05	1257.3	4.2605e-06	4.274e-06	1256.3	344.7	5.9543e-06	4.44e-06	395.49	133.5	115.15	40.168	3.6656e-06	49.797	0.00060419	0.00053107	0.00015269	1275.3	5.8049e-06	5.9443e-06	1278.1	350.91	6.1363e-06	5.8689e-06	404.14	136.79	117.5	41.255	5.9236e-06	51.488	154.542	-90.496	-83.882	-158.377	-56.431	-25.134	-158.537	-153.983	-62.445	-17.789	-154.223	-150.532	-150.078	-144.928	-31.972	-145.722	-8191	255	
27076.287	1	1	0	0	0.098438	0.13633	0.083358	0.32078	0.16354	0.16561	0.14791	0.15286	0.18245	0.28707	0.030448	0.058367	0.17995	0.1178	0.16712	0.24464	-2.05	-2.1208	-2.7833	-2.4833	-2.4271	-2.6042	-2.4229	-2.7	-2.3917	-2.3417	-2.7354	-2.4292	-2.45	-2.7125	-2.1167	-2.5	-47.244	75.079	164.372	137.476	-144.640	73.888	75.520	171.636	31.869	-96.137	70.235	80.081	-169.367	181.338	77.197	35.608	0.0007413	0.00047495	0.00012456	1254.3	2.827e-06	5.4411e-06	1259.3	345.43	4.9125e-06	3.1795e-06	396.75	133.68	114.63	40.163	4.7924e-06	50.129	0.00059566	0.00054524	0.00014285	1273.6	5.85e-06	5.7131e-06	1278.8	350.73	5.8749e-06	5.9096e-06	404.09	136.9	117.7	41.284	6.0901e-06	51.679	156.271	-97.984	-87.163	-158.452	-64.867	-15.287	-158.966	-153.762	-50.390	5.916	-154.261	-150.707	-150.057	-144.607	-41.672	-145.633	-8191	255	
27076.383	1	1	0	0	0.3106	0.36733	0.27018	0.25282	0.27518	0.1015	0.096031	0.28188	0.20705	0.19107	0.12433	0.21449	0.12523	0.16211	0.015498	0.24835	-2.1125	-2.0604	-2.3917	-2.4	-2.2979	-2.5062	-2.4479	-2.4896	-2.65	-2.2375	-2.8438	-2.5042	-2.2062	-2.7896	-2.2354	-2.2917	-15.575	101.329	67.572	158.975	-29.894	-90.244	61.088	176.924	9.826	124.301	-47.045	-67.712	22.088	60.358	99.323	-149.279	0.00071406	0.00040628	0.0001503	1255.1	4.5293e-06	5.3583e-06	1257	344.7	4.8491e-06	5.289e-06	395.61	133.76	115.24	40.305	5.1705e-06	50.313	0.00059116	0.000532	0.00014437	1274	5.7603e-06	5.7032e-06	1279.1	351.15	5.6348e-06	5.6883e-06	404.48	136.82	117.68	41.364	5.7209e-06	51.675	153.022	-72.490	-75.271	-158.355	-70.873	-16.352	-158.646	-153.764	-59.509	-17.852	-154.365	-150.451	-150.145	-144.776	-39.760	-145.597	-8191	255	
27076.480	1	1	0	0	0.057891	0.090944	0.14063	0.19194	0.28854	0.034844	0.11842	0.11542	0.14748	0.089637	0.16056	0.46582	0.11914	0.16434	0.3251	0.26106	-2.3021	-2.2208	-2.5563	-2.5854	-2.2062	-2.6875	-2.4667	-2.475	-2.7375	-2.3271	-2.4271	-2.6083	-2.3729	-2.8083	-2.2083	-2.3333	76.649	-87.849	-64.381	114.992	-13.479	147.999	91.122	-153.948	8.963	-36.225	-129.962	158.269	104.018	155.154	-170.081	-150.647	0.00074248	0.00046442	0.00010804	1255.3	4.6268e-06	4.9828e-06	1258.8	344.6	5.2334e-06	4.9766e-06	396.01	133.52	114.85	40.258	4.5139e-06	50.103	0.00059285	0.00053253	0.00014232	1274.2	5.7051e-06	5.8069e-06	1279.7	350.67	5.7412e-06	6.0193e-06	403.65	136.76	117.71	41.281	5.9284e-06	51.689	156.447	-87.367	-88.859	-158.248	-68.995	-7.523	-158.535	-153.911	-37.281	-20.690	-154.295	-150.463	-150.002	-144.795	-43.835	-145.756	-8191	255	
27076.600	1	1	0	0	0.28331	0.22046	0.22596	0.21834	0.18218	0.27823	0.33646	0.069445	0.11475	0.15095	0.13222	0.1961	0.31007	0.089301	0.079685	0.36486	-2.2313	-2.2062	-2.4813	-2.5187	-2.0687	-2.7042	-2.4875	-2.2083	-2.4479	-2.1562	-2.6688	-2.6229	-2.2313	-2.7125	-2.2771	-2.3271	88.247	36.786	60.875	142.467	7.191	-85.575	132.852	149.112	-55.578	-24.438	-135.844	151.743	103.297	139.165	-147.917	74.827	0.00073202	0.00037415	0.00011526	1253.4	3.2307e-06	3.5889e-06	1256.3	343.6	4.6259e-06	5.3873e-06	394.54	133.74	114.82	40.299	3.4388e-06	50.339	0.00058435	0.00053387	0.00014844	1273.8	5.8651e-06	5.8327e-06	1278.7	350.64	5.7563e-06	5.8478e-06	404.04	136.85	117.61	41.381	5.8041e-06	51.728	156.367	-86.339	-94.145	-158.388	-65.195	-17.373	-158.509	-154.034	-38.287	-13.423	-154.530	-150.486	-149.843	-144.892	-31.115	-145.906	-8191	255	
27076.695	1	1	0	0	0.19655	0.24281	0.067792	0.20394	0.18736	0.12836	0.19608	0.16902	0.06037	0.13617	0.39516	0.11174	0.13487	0.2027	0.083437	0.11614	-2.2687	-2.1458	-2.2917	-2.8229	-2.2521	-2.5646	-2.5167	-2.2542	-2.6188	-2.0979	-2.4521	-2.5646	-2.1542	-2.5583	-2.5667	-2.1792	0.101	49.411	46.793	172.577	145.368	33.500	184.481	156.531	-19.533	12.092	133.590	63.576	-66.449	-102.429	-34.917	-4.637	0.00071698	0.00045084	0.00011036	1258.5	4.1513e-06	3.6306e-06	1258	344.26	4.2154e-06	5.2547e-06	394.69	133.53	115.19	40.161	3.7202e-06	49.884	0.00057592	0.00054128	0.00014669	1274.7	5.7519e-06	5.6992e-06	1279.6	350.85	5.6892e-06	5.9805e-06	404.24	136.72	117.69	41.334	5.7601e-06	51.648	154.885	-83.962	-97.397	-158.316	-58.557	-38.831	-158.873	-153.719	-77.223	-23.597	-154.306	-150.562	-150.141	-144.735	-22.824	-145.670	-8191	255	
27076.793	1	1	0	0	0.11348	0.095461	0.079768	0.18205	0.19392	0.11683	0.1691	0.25287	0.056935	0.038647	0.22378	0.21571	0.10556	0.18167	0.064721	0.40436	-2.1479	-2.225	-2.4479	-2.6979	-2.275	-2.5083	-2.7354	-2.4104	-2.5062	-2.5917	-2.4562	-2.7438	-2.3312	-2.6042	-2.5708	-2.2979	148.735	-134.041	-164.597	178.821	-29.178	-85.272	-147.987	139.438	4.630	9.957	150.045	133.178	156.499	171.704	145.991	96.648	0.00074533	0.00045423	0.00011982	1258.1	3.4989e-06	3.8164e-06	1256.5	345.39	4.7428e-06	5.5059e-06	396.21	133.15	114.97	40.285	3.8886e-06	50.181	0.0005872	0.00052868	0.00014391	1274.6	5.8355e-06	5.7323e-06	1278.1	350.67	5.7852e-06	5.884e-06	403.73	136.68	117.62	41.366	5.8011e-06	51.722	154.571	-83.969	-77.087	-158.264	-54.552	-23.784	-158.806	-154.112	-60.755	-12.098	-154.212	-150.824	-150.096	-144.654	-41.281	-145.753	-8191	255	
27076.863	1	1	0	0	0.10323	0.022026	0.13812	0.30014	0.12057	0.19276	0.34703	0.1873	0.095236	0.055602	0.086121	0.25756	0.29547	0.095742	0.21714	0.29093	-2.2458	-2.2687	-2.2417	-2.875	-2.0792	-2.4167	-2.7396	-2.1896	-2.5292	-2.3688	-2.1583	-2.7438	-2.2854	-2.3021	-2.5979	-2.0563	-65.168	71.722	74.780	153.886	152.963	124.175	122.053	133.830	-89.121	131.947	-98.100	-166.137	130.450	-63.140	-37.370	121.055	0.00069173	0.00042944	0.00017005	1253.7	4.0575e-06	4.0516e-06	1258.7	344.41	4.909e-06	4.6067e-06	396.91	133.91	115.16	40.144	4.0063e-06	49.95	0.00058208	0.00052862	0.00014778	1273.4	6.0235e-06	5.7699e-06	1278.7	350.85	5.5168e-06	5.6613e-06	404.26	136.9	117.73	41.304	5.6147e-06	51.644	152.154	-72.805	-73.163	-158.341	-43.147	-12.378	-158.786	-153.923	-62.694	-18.069	-154.507	-150.695	-150.026	-144.894	-39.665	-145.644	-8191	255	
27076.982	1	1	0	0	0.16853	0.1679	0.26157	0.34843	0.26595	0.11688	0.30862	0.17219	0.089999	0.26712	0.273	0.22207	0.11547	0.26016	0.026332	0.33509	-2.1479	-2.425	-2.1521	-2.875	-2.4104	-2.3375	-2.8125	-2.3417	-2.6146	-2.425	-2.2792	-2.6646	-2.3854	-2.3792	-2.6625	-2.1937	-94.461	-104.968	-122.666	-89.772	123.652	128.290	156.742	61.594	-1.088	-89.616	110.350	147.652	-68.614	124.676	81.237	-127.209	0.0007361	0.0004921	0.00015573	1255.5	3.7905e-06	5.2321e-06	1260.3	343.81	6.5811e-06	4.9514e-06	394.95	133.29	115.09	40.331	4.5721e-06	50.079	0.00058899	0.00052529	0.00014716	1274.5	5.748e-06	5.6556e-06	1279.8	350.8	5.9495e-06	5.7283e-06	404.01	136.66	117.7	41.435	5.6159e-06	51.735	153.727	-86.605	-83.015	-158.324	-55.264	-18.716	-158.835	-153.971	-58.249	-27.892	-154.521	-150.552	-149.912	-144.736	-42.383	-145.617	-8191	255	
27077.078	1	1	0	0	0.46207	0.21457	0.063865	0.23354	0.15612	0.0899	0.18719	0.2498	0.2552	0.35315	0.30202	0.3065	0.18362	0.22053	0.19535	0.10769	-2.075	-2.4625	-2.0187	-2.7479	-2.3042	-2.2354	-2.6229	-2.2	-2.4271	-2.3854	-2.3042	-2.6729	-2.4625	-2.3083	-2.5646	-2.3708	165.800	157.886	165.275	-147.981	116.000	-161.953	176.742	118.504	-107.007	147.011	157.821	166.034	108.783	151.101	-87.150	126.663	0.00073803	0.00053444	0.00016349	1258.5	3.7779e-06	6.1774e-06	1257.4	344.71	5.8905e-06	6.2873e-06	395.15	134.03	114.99	40.369	3.0622e-06	50.012	0.00057819	0.00051106	0.00015145	1276.7	5.8015e-06	5.8313e-06	1278.7	351.17	5.7407e-06	5.4387e-06	404.38	136.96	117.7	41.369	5.7348e-06	51.754	155.169	-78.520	-91.692	-158.329	-57.732	-15.279	-158.598	-153.883	-73.389	-22.173	-154.486	-150.534	-149.907	-144.886	-39.856	-145.610	-8191	255	
27077.176	1	1	0	0	0.18907	0.18061	0.14898	0.14375	0.055032	0.050102	0.19466	0.32819	0.19555	0.23682	0.19046	0.089421	0.35743	0.22748	0.10689	0.10078	-1.8792	-2.3812	-2.0729	-2.6521	-2.3708	-2.2604	-2.6875	-2.2958	-2.3896	-2.525	-2.2979	-2.7042	-2.5187	-2.3458	-2.6688	-2.3354	-73.149	181.240	54.287	178.156	56.271	163.227	128.682	142.420	-13.266	164.417	149.692	-166.924	100.953	164.722	-71.487	70.184	0.00069648	0.00042511	0.00011691	1256.6	5.1248e-06	4.8301e-06	1256.6	344.92	5.2478e-06	4.5788e-06	394.8	133.98	115.21	40.321	5.5363e-06	50.36	0.00058175	0.00050342	0.0001435	1274.5	5.8088e-06	5.9509e-06	1279.2	351.18	5.5787e-06	5.6626e-06	403.74	136.81	117.77	41.439	5.8204e-06	51.819	157.048	-61.678	-95.924	-158.523	-56.422	-36.857	-158.845	-153.839	-73.326	-25.119	-154.292	-150.676	-150.108	-144.796	-22.056	-145.583	-8191	255	
27077.271	1	1	0	0	0.2223	0.12941	0.18741	0.29991	0.10061	0.16712	0.12893	0.34798	0.063963	0.10913	0.10405	0.13202	0.17326	0.13559	0.21645	0.095388	-2.0125	-2.3917	-2.2854	-2.8	-2.4979	-2.1813	-2.7396	-2.4604	-2.3896	-2.55	-2.3583	-2.65	-2.5604	-2.1542	-2.7562	-2.4042	105.645	3.776	82.035	124.865	-144.153	32.632	-12.467	140.748	-74.360	-130.817	-170.776	157.899	-17.537	-143.317	-56.743	141.856	0.00069834	0.00053702	0.00012823	1255.2	3.4547e-06	4.7365e-06	1253.9	344.47	5.6983e-06	4.6801e-06	396	133.59	115.48	40.166	4.3004e-06	50.248	0.00057846	0.00050383	0.00014631	1275	5.5668e-06	5.4846e-06	1278	350.57	5.7112e-06	5.7861e-06	404	136.61	117.74	41.327	5.6051e-06	51.771	155.417	-82.441	-91.007	-158.519	-51.395	-28.024	-158.842	-153.936	-60.535	-18.864	-154.521	-150.424	-150.282	-144.883	-49.209	-145.684	-8191	255	
27077.393	1	1	0	0	0.30508	0.15761	0.29646	0.25232	0.23704	0.36623	0.19799	0.13512	0.13875	0.068544	0.146	0.26484	0.17133	0.15043	0.27212	0.023169	-1.8625	-2.5958	-2.2417	-2.6646	-2.5896	-2.1667	-2.6271	-2.6125	-2.2354	-2.9854	-2.3688	-2.45	-2.6896	-2.375	-2.5292	-2.5	-30.807	176.217	93.268	169.666	141.736	163.388	148.197	170.047	-131.146	112.419	-125.150	-170.833	96.870	120.455	-102.099	63.342	0.00071834	0.0003904	0.00011062	1255.6	4.307e-06	3.9363e-06	1255.2	344.75	4.9639e-06	4.1714e-06	394.73	133.51	115.21	40.242	4.6303e-06	50.275	0.00058554	0.00051264	0.00014079	1273	5.6448e-06	5.8604e-06	1278.5	350.86	5.5891e-06	5.616e-06	403.54	136.81	117.66	41.414	5.7185e-06	51.768	157.075	-80.465	-75.952	-158.360	-65.990	2.490	-158.651	-153.813	-68.177	-20.281	-154.515	-150.504	-149.853	-144.791	-36.822	-145.731	-8191	255	
27077.488	1	1	0	0	0.04253	0.069033	0.31415	0.36636	0.083585	0.11545	0.21439	0.11172	0.051509	0.091897	0.12185	0.10953	0.054695	0.35877	0.069828	0.26106	-1.6646	-2.575	-2.2396	-2.4854	-2.5854	-2.0125	-2.6583	-2.5375	-2.2146	-2.5604	-2.2417	-2.3979	-2.5583	-2.2833	-2.3792	-2.8042	-50.115	-147.132	68.484	84.785	-47.662	-141.335	-165.799	30.238	93.244	87.707	117.849	72.430	134.027	161.367	89.496	64.656	0.00069446	0.00038478	0.00011038	1252.7	4.3646e-06	6.1149e-06	1254	345.17	4.9821e-06	5.768e-06	396.71	133.71	115.48	40.279	5.3872e-06	49.964	0.00058401	0.0005155	0.0001453	1273	5.7045e-06	5.8809e-06	1278.1	351.07	5.6799e-06	5.5438e-06	404.22	136.77	117.69	41.363	5.6135e-06	51.695	154.926	-86.290	-65.851	-158.431	-45.425	-19.048	-158.665	-153.877	-51.499	-24.273	-154.385	-150.510	-149.848	-144.770	-40.582	-145.429	-8191	255	
27077.561	1	1	0	0	0.22863	0.22264	0.2981	0.23051	0.11875	0.057955	0.076194	0.074086	0.22816	0.14243	0.13318	0.027001	0.050685	0.26187	0.19729	0.29751	-1.6688	-2.5958	-2.3771	-2.45	-2.5667	-2.2083	-2.5375	-2.5812	-2.0958	-2.3937	-2.4104	-2.0979	-2.7958	-2.3458	-2.3354	-2.4958	129.879	36.959	-49.528	139.989	45.277	164.355	92.803	57.672	35.000	-70.095	34.795	94.905	126.498	123.832	-62.617	169.902	0.00071249	0.00039109	9.9289e-05	1254.4	4.9909e-06	4.9061e-06	1256.8	344.77	5.5428e-06	4.1378e-06	395.52	133.78	115.41	40.345	4.6417e-06	49.9	0.00058033	0.00050424	0.0001392	1271.6	5.4826e-06	5.7441e-06	1277.8	350.74	5.7198e-06	5.4669e-06	403.35	136.66	117.68	41.434	5.5701e-06	51.669	154.554	-75.262	-60.631	-158.409	-62.993	-16.212	-158.631	-153.911	-58.702	-20.514	-154.454	-150.828	-150.029	-144.821	-32.477	-145.605	-8191	255	
27077.682	1	1	0	0	0.2228	0.42205	0.17283	0.14566	0.06563	0.1754	0.072128	0.10069	0.068099	0.20748	0.28853	0.32211	0.11021	0.022538	0.048355	0.053169	-1.7604	-2.4125	-2.3208	-2.2083	-2.6521	-2.2354	-2.65	-2.7521	-2.1188	-2.4396	-2.5417	-2.2938	-2.625	-2.2521	-2.175	-2.8	-51.463	-89.000	-25.543	-54.526	-11.668	-71.709	131.471	151.872	-31.079	-142.848	144.032	-141.426	137.417	-33.160	-123.585	82.106	0.00069262	0.00043805	0.00013792	1254	4.2247e-06	4.6612e-06	1252.9	344.88	5.5519e-06	4.9214e-06	395.47	133.65	115.13	40.345	3.4213e-06	50.158	0.00057772	0.00052518	0.00013856	1273	5.588e-06	5.7144e-06	1276.6	350.39	5.7274e-06	5.7749e-06	403.68	136.85	117.51	41.462	5.584e-06	51.76	155.073	-98.592	-85.486	-158.334	-61.799	-4.832	-158.776	-153.858	-60.599	-13.383	-154.200	-150.396	-149.975	-144.727	-31.825	-145.519	-8191	255	
27077.777	1	1	0	0	0.084799	0.1067	0.22663	0.25083	0.12162	0.27239	0.25788	0.024828	0.073974	0.2266	0.049049	0.067155	0.094234	0.14906	0.17224	0.17761	-1.6812	-2.45	-2.2521	-2.3958	-2.5312	-2.3333	-2.5458	-2.7562	-2.1854	-2.5604	-2.55	-2.1833	-2.55	-2.45	-2.15	-2.675	-127.285	-145.014	-19.610	178.441	-97.694	-144.298	99.483	142.795	-106.997	92.408	-94.699	144.970	177.252	-157.980	58.229	101.065	0.00071312	0.0005518	0.0001211	1251	5.3671e-06	2.6799e-06	1256.4	344.36	4.4563e-06	5.6206e-06	395.91	133.47	114.99	40.171	4.9041e-06	50.169	0.00057579	0.00050914	0.00013788	1271	5.5868e-06	5.2144e-06	1277.7	350.58	5.7008e-06	5.4781e-06	404.35	136.72	117.59	41.413	5.4742e-06	51.775	154.332	-97.508	-84.052	-158.348	-55.775	-23.940	-158.735	-153.859	-56.393	-23.547	-154.686	-150.669	-150.337	-144.690	-30.989	-145.768	-8191	255	
27077.873	1	1	0	0	0.20205	0.23058	0.2002	0.091161	0.15566	0.24921	0.38905	0.27693	0.10021	0.25827	0.25922	0.24112	0.19359	0.22024	0.22565	0.083727	-1.7125	-2.4188	-2.6146	-2.475	-2.4125	-2.3063	-2.2854	-2.8042	-1.9937	-2.3458	-2.6292	-2.4562	-2.6271	-2.3333	-2.3812	-2.5458	71.735	-130.574	154.146	146.203	46.385	-28.187	99.171	66.676	-153.226	35.995	168.242	-169.227	173.065	2.952	-75.581	118.820	0.00068361	0.00058823	0.00015249	1257.3	3.3305e-06	4.8392e-06	1253.1	344.3	7.0781e-06	4.2617e-06	396.62	133.5	114.83	40.32	4.058e-06	50.182	0.00056415	0.00050517	0.0001366	1272.5	5.5969e-06	5.5605e-06	1275.7	350.95	5.7042e-06	5.3533e-06	404.52	136.76	117.62	41.423	5.6545e-06	51.777	155.238	-70.219	-88.939	-158.369	-56.515	-19.615	-158.684	-154.066	-61.965	-10.716	-154.535	-150.662	-150.060	-144.999	-55.357	-145.595	-8191	255	
27077.969	1	1	0	0	0.23911	0.12926	0.08034	0.26945	0.26569	0.07999	0.27829	0.23837	0.14015	0.075648	0.20918	0.17744	0.057732	0.23814	0.061358	0.17674	-1.8167	-2.1917	-2.5167	-2.2354	-2.5687	-2.3854	-2.3292	-2.6104	-2.5604	-2.3292	-2.7604	-2.3458	-2.5271	-2.5396	-2.2729	-2.7167	-91.211	54.868	182.768	135.682	152.791	-64.741	128.072	103.931	150.082	64.983	57.722	35.161	60.182	-26.382	94.346	-20.279	0.00073937	0.00048524	9.7412e-05	1251.3	5.33e-06	4.376e-06	1253	344.75	4.5691e-06	5.2703e-06	395.75	133.71	115.28	40.368	4.1369e-06	50.107	0.00058489	0.00051217	0.00014224	1272.5	5.5333e-06	5.4218e-06	1276.6	351.36	5.7702e-06	5.6495e-06	404.26	136.91	117.72	41.462	5.6678e-06	51.838	153.508	-73.911	-78.779	-158.362	-72.694	-18.461	-158.695	-154.033	-62.021	-13.308	-154.409	-150.674	-149.823	-145.057	-32.980	-145.661	-8191	255	
27078.088	1	1	0	0	0.2193	0.19565	0.16211	0.32765	0.038461	0.17834	0.23638	0.17934	0.23987	0.27536	0.31282	0.09074	0.43564	0.32124	0.19303	0.19252	-1.6958	-2.425	-2.4604	-2.4208	-2.3688	-2.5729	-2.3396	-2.5521	-2.45	-2.3458	-2.5542	-2.3333	-2.3542	-2.6542	-1.9604	-2.6437	8.918	-56.502	50.352	143.293	-104.248	-77.869	127.944	133.971	91.851	-25.465	68.883	154.173	144.360	-88.905	-170.454	-168.026	0.00070979	0.00041018	0.00015487	1253.9	4.5646e-06	3.7319e-06	1254.8	344.29	5.2721e-06	4.5139e-06	397.59	133.99	115.21	40.401	4.9933e-06	50.102	0.00057853	0.00049957	0.00014301	1272.2	5.4279e-06	5.5143e-06	1276.3	351.01	5.544e-06	5.7756e-06	404.38	136.9	117.56	41.444	5.6437e-06	51.744	154.360	-89.197	-90.169	-158.347	-74.177	-12.990	-158.729	-153.908	-53.146	-13.709	-154.317	-150.772	-150.058	-144.997	-37.855	-145.582	-8191	255	
27078.160	1	1	0	0	0.20201	0.16043	0.11853	0.15489	0.17941	0.21484	0.19942	0.26458	0.19925	0.15931	0.20734	0.12252	0.26062	0.24871	0.095176	0.21077	-1.9562	-2.2188	-2.5896	-2.4625	-2.4313	-2.275	-2.3583	-2.6479	-2.3021	-2.2833	-2.6542	-2.2562	-2.4229	-2.6479	-2.1792	-2.5396	-51.734	166.032	-37.695	128.726	-119.012	31.060	122.602	-125.440	-0.365	-133.853	178.817	148.822	145.417	-5.143	-142.032	72.766	0.00076747	0.00042612	0.00013652	1252	4.0666e-06	7.5186e-06	1251.5	345.28	4.065e-06	4.2796e-06	396.67	133.59	115.61	40.288	4.2568e-06	50.039	0.00060026	0.0005089	0.00014401	1270.3	5.5802e-06	5.795e-06	1273.6	350.86	5.6979e-06	5.7336e-06	404.22	136.92	117.86	41.412	5.9121e-06	51.655	155.717	-86.928	-71.255	-158.230	-69.402	-12.528	-158.727	-153.964	-60.167	-26.546	-154.510	-150.539	-149.984	-144.841	-33.469	-145.507	-8191	255	
27078.279	1	1	0	0	0.093148	0.16146	0.25168	0.35299	0.234	0.15668	0.10774	0.10206	0.21105	0.43282	0.16581	0.30563	0.32844	0.10103	0.13282	0.19622	-1.9229	-2.1813	-2.5312	-2.575	-2.3688	-2.4813	-2.3417	-2.4458	-2.5208	-2.0625	-2.6625	-2.4688	-2.3937	-2.4771	-2.1229	-2.5125	-41.560	149.290	123.394	179.053	71.262	-29.804	135.520	62.751	152.308	170.454	110.852	142.171	127.466	115.904	100.059	129.447	0.00075068	0.00041917	0.00015499	1254.2	4.403e-06	4.0689e-06	1254.2	345.71	6.0152e-06	4.8964e-06	395.01	133.86	115.26	40.247	4.5032e-06	50.084	0.00058188	0.00051835	0.00014419	1271.1	5.5768e-06	5.6398e-06	1275.6	351.04	5.6973e-06	5.7789e-06	404.42	136.81	117.83	41.373	5.8295e-06	51.706	154.403	-70.347	-79.717	-158.365	-42.022	-15.107	-158.803	-153.960	-58.686	-11.444	-154.206	-150.749	-150.241	-144.771	-30.917	-145.714	-8191	255	
27078.377	1	1	0	0	0.13607	0.23612	0.1819	0.25502	0.2089	0.15461	0.12759	0.2928	0.10442	0.21228	0.36636	0.27082	0.051152	0.13464	0.086589	0.37458	-1.875	-2.2854	-2.5229	-2.4917	-2.3375	-2.5125	-2.2438	-2.5167	-2.4083	-2.1479	-2.6458	-2.2687	-2.2771	-2.7188	-2.1708	-2.3771	-150.919	58.552	-116.555	186.982	9.120	-12.216	136.812	107.152	77.688	-141.345	115.198	-160.131	-25.113	141.485	-143.085	116.281	0.00073366	0.00043514	0.00012474	1252	3.688e-06	5.0866e-06	1248.5	344.82	5.6685e-06	6.6878e-06	396.08	133.65	114.66	40.188	5.3552e-06	50.28	0.00057877	0.00054268	0.00014167	1270.4	5.7006e-06	5.6675e-06	1273.2	351.22	5.7661e-06	5.9175e-06	404.08	136.63	117.43	41.398	5.9483e-06	51.802	155.464	-89.874	-100.781	-158.406	-41.394	-5.934	-158.504	-153.911	-69.681	-12.605	-154.365	-150.586	-149.707	-144.868	-34.646	-145.517	-8191	255	
27078.473	1	1	0	0	0.23887	0.1944	0.087777	0.23437	0.053806	0.20478	0.032933	0.28184	0.20434	0.33405	0.29107	0.098621	0.11314	0.057933	0.17473	0.16229	-2.1958	-2.2062	-2.4417	-2.6396	-2.2625	-2.6229	-2.4875	-2.4208	-2.5708	-2.1625	-2.6125	-2.5104	-2.2729	-2.7771	-2.3104	-2.4583	-162.711	-37.395	133.437	121.684	142.507	-103.887	179.336	118.245	140.689	-14.217	59.061	-156.069	70.998	-146.841	113.831	90.012	0.00073804	0.00044431	0.0001706	1248.1	4.6926e-06	4.3562e-06	1252.2	345.23	4.9699e-06	3.415e-06	395.7	134.19	114.99	40.406	3.6917e-06	50.049	0.00058902	0.00053142	0.00014209	1269	5.7056e-06	5.6061e-06	1273.9	351.1	5.5527e-06	5.8025e-06	403.69	136.78	117.55	41.388	5.6262e-06	51.704	156.352	-72.674	-74.633	-158.377	-51.889	-18.646	-158.604	-153.815	-69.128	-34.710	-154.484	-150.715	-150.135	-144.992	-22.757	-145.742	-8191	255	
27078.568	1	1	0	0	0.073883	0.14989	0.23414	0.073019	0.064129	0.022146	0.33807	0.17353	0.081708	0.12186	0.2305	0.28217	0.25036	0.035602	0.17622	0.13704	-2.275	-2.1917	-2.4104	-2.7083	-2.1917	-2.7562	-2.4062	-2.5083	-2.7438	-2.3771	-2.6021	-2.5083	-2.2167	-2.65	-2.3688	-2.3625	-153.370	8.866	5.828	105.337	56.512	16.546	-168.806	-118.566	-46.482	-88.730	-170.821	-2.114	-108.903	133.996	107.254	-101.274	0.0007347	0.00051931	0.00014949	1248.4	3.2814e-06	3.7152e-06	1252.4	344.17	5.6229e-06	5.9093e-06	394.1	133.65	114.71	40.324	4.8175e-06	50.118	0.00058097	0.00051112	0.00014309	1267.2	5.593e-06	5.6305e-06	1273.1	350.74	5.7227e-06	5.8538e-06	403.79	136.75	117.58	41.357	5.5966e-06	51.701	154.172	-79.195	-102.605	-158.404	-64.730	-22.379	-158.750	-153.795	-62.384	-21.333	-154.393	-150.415	-150.089	-144.702	-15.750	-145.783	-8191	255	
27078.689	1	1	0	0	0.12784	0.18989	0.243	0.14364	0.22857	0.15949	0.17416	0.39017	0.096731	0.11423	0.32566	0.16796	0.36163	0.22293	0.078115	0.33796	-2.3187	-2.2146	-2.2583	-2.6896	-2.1688	-2.4854	-2.5458	-2.2438	-2.6188	-2.2792	-2.5187	-2.5542	-2.0958	-2.4292	-2.4604	-2.1583	-50.806	83.649	8.278	101.248	-144.031	5.227	133.574	114.195	-31.735	-30.649	148.187	8.283	92.216	109.718	100.020	170.838	0.00073709	0.00042741	0.00013448	1249.4	4.6092e-06	4.5473e-06	1251.1	344.8	6.8617e-06	4.5107e-06	397.62	133.29	115.47	40.353	4.2649e-06	50.422	0.00057718	0.00051777	0.00013858	1267.4	5.9125e-06	5.3881e-06	1270.3	350.8	5.7574e-06	5.5162e-06	404.49	136.56	117.68	41.382	5.5309e-06	51.757	155.067	-84.149	-86.654	-158.585	-51.998	-16.567	-158.603	-153.882	-66.692	-35.061	-154.377	-150.747	-149.924	-144.904	-29.165	-145.675	-8191	255	
27078.762	1	1	0	0	0.22024	0.077699	0.076743	0.38883	0.21501	0.097658	0.19153	0.084415	0.24135	0.26041	0.20456	0.1722	0.29561	0.26181	0.13512	0.20965	-2.2188	-2.2604	-2.3563	-2.8083	-2.1688	-2.5625	-2.6646	-2.2979	-2.5417	-2.1562	-2.3667	-2.9083	-2.3187	-2.5333	-2.5479	-2.3563	-160.402	150.013	-154.620	150.751	176.292	41.227	-130.673	40.449	-119.414	3.892	158.169	-143.466	45.760	108.914	3.865	153.954	0.00075663	0.00038546	0.00011295	1247.2	4.3348e-06	4.6466e-06	1251.4	344.53	5.1736e-06	5.9993e-06	394.83	133.49	114.72	40.347	4.3834e-06	50.213	0.00056878	0.00050313	0.00013887	1265	5.5818e-06	5.5255e-06	1270.6	350.04	5.4497e-06	5.4761e-06	403.49	136.6	117.51	41.379	5.4181e-06	51.727	153.562	-76.119	-92.144	-158.515	-74.145	-23.261	-158.703	-154.063	-45.466	-13.770	-154.288	-150.732	-150.092	-144.931	-50.135	-145.696	-8191	255	
27078.857	1	1	0	0	0.16793	0.054692	0.16154	0.040177	0.25247	0.12459	0.13996	0.20536	0.054051	0.21746	0.20068	0.18533	0.21751	0.10278	0.14076	0.14896	-2.0604	-2.4271	-2.2542	-2.925	-2.1312	-2.4313	-2.6188	-2.3083	-2.6167	-2.3438	-2.3208	-2.7104	-2.2521	-2.4333	-2.5729	-2.2167	-147.614	-157.908	83.072	136.392	136.249	61.784	-153.636	-150.663	-138.524	-93.163	150.798	183.202	175.778	160.691	-99.054	155.012	0.0007172	0.00044298	0.00012835	1247.3	4.1187e-06	4.3321e-06	1248.6	344.14	5.6099e-06	5.2014e-06	394.51	134	114.93	40.245	6.2219e-06	50.13	0.00056066	0.00049718	0.00013931	1266.8	5.4742e-06	5.2804e-06	1270.1	350.3	5.3803e-06	5.31e-06	403.01	136.91	117.58	41.392	5.3843e-06	51.719	155.243	-73.001	-95.262	-158.323	-56.949	-21.286	-158.865	-153.947	-63.267	-6.550	-154.294	-150.444	-149.943	-144.686	-34.418	-145.715	-8191	255	
27078.953	1	1	0	0	0.28778	0.05333	0.17631	0.2162	0.10336	0.096776	0.34301	0.2478	0.052067	0.11274	0.17159	0.22476	0.044267	0.10288	0.33919	0.30216	-2.1813	-2.5104	-2.3396	-2.7833	-2.2479	-2.3563	-2.6333	-2.4292	-2.5542	-2.4917	-2.2188	-2.5979	-2.2229	-2.3146	-2.6312	-2.3854	27.985	-87.092	-0.827	119.096	69.605	79.316	144.513	50.577	61.626	176.335	-164.769	111.607	-29.154	-65.065	113.976	25.546	0.00073103	0.0005185	0.00016294	1249.9	4.1776e-06	2.9944e-06	1246.8	344.12	4.1372e-06	5.7576e-06	397.32	133.49	116.03	40.325	4.1045e-06	50.224	0.0005612	0.00049362	0.00013909	1267	5.5266e-06	5.4291e-06	1271.5	350.04	5.3109e-06	5.3395e-06	404.19	136.8	117.95	41.477	5.1877e-06	51.781	154.917	-82.037	-84.353	-158.415	-59.186	-30.493	-158.780	-154.051	-50.364	-18.896	-154.280	-150.663	-150.143	-144.955	-38.966	-145.552	-8191	255	
27079.072	1	1	0	0	0.25965	0.057457	0.363	0.2876	0.13611	0.13377	0.20647	0.10214	0.063699	0.067359	0.17844	0.059814	0.15256	0.10696	0.11377	0.23936	-2.1458	-2.4333	-2.0771	-2.7021	-2.3792	-2.2396	-2.8208	-2.3271	-2.4562	-2.4083	-2.1479	-2.7229	-2.4083	-2.2521	-2.6333	-2.3958	-49.013	86.018	67.370	-123.065	175.444	-147.878	161.618	14.727	-8.499	119.027	88.186	30.186	45.065	-121.210	-54.919	-101.230	0.00071155	0.00047087	0.00012706	1248.5	4.145e-06	3.7179e-06	1248	343.7	5.3901e-06	5.2405e-06	394.55	134.25	114.83	40.437	3.778e-06	50.216	0.00055609	0.00049706	0.00013933	1267.1	5.5328e-06	5.4978e-06	1272.1	350.69	5.3578e-06	5.3967e-06	403.57	137.09	117.73	41.55	5.3264e-06	51.821	156.921	-85.425	-75.063	-158.351	-59.835	-6.385	-158.805	-153.882	-57.665	-30.093	-154.348	-150.816	-150.179	-144.842	-27.387	-145.521	-8191	255	
27079.168	1	1	0	0	0.18863	0.20682	0.23291	0.25858	0.2282	0.21811	0.057905	0.2452	0.1652	0.13459	0.18584	0.22268	0.19795	0.19106	0.31011	0.085681	-1.9188	-2.4854	-2.1146	-2.6646	-2.3563	-2.0708	-2.7417	-2.4708	-2.4479	-2.5958	-2.3167	-2.5875	-2.4479	-2.3563	-2.6917	-2.4437	-91.668	58.646	153.876	167.848	-106.536	-136.480	128.502	127.118	137.276	153.300	70.966	165.887	152.813	-92.348	-55.833	53.507	0.00073543	0.00031503	0.00012931	1246.4	4.2553e-06	5.3181e-06	1248.2	345.38	6.0016e-06	4.9465e-06	395.29	133.9	114.89	40.43	3.7051e-06	50.307	0.00056841	0.00049846	0.0001407	1264.9	5.414e-06	5.5143e-06	1271.7	350.77	5.5851e-06	5.5425e-06	403.91	136.95	117.74	41.477	5.2751e-06	51.843	153.668	-77.407	-79.307	-158.477	-75.251	-36.333	-158.719	-153.916	-60.969	-17.530	-154.428	-150.432	-149.899	-144.862	-35.729	-145.629	-8191	255	
27079.264	1	1	0	0	0.046915	0.022534	0.098413	0.28865	0.11414	0.099546	0.44692	0.23279	0.21131	0.19667	0.069975	0.11953	0.17368	0.030756	0.031595	0.09504	-1.7188	-2.5417	-2.1188	-2.6937	-2.5854	-2.0438	-2.6354	-2.4229	-2.2604	-2.7792	-2.3	-2.5187	-2.4188	-2.2687	-2.5	-2.3792	-167.284	-34.920	-124.938	159.645	18.282	135.133	144.594	22.281	118.797	-118.367	-122.752	71.230	78.137	157.670	-55.751	161.081	0.0007041	0.00030616	0.00014492	1249.6	5.0997e-06	3.5898e-06	1247.5	345.2	5.6981e-06	4.3282e-06	395.92	133.93	115.36	40.347	4.8622e-06	50.203	0.00055186	0.00048207	0.00013958	1267.7	5.4307e-06	5.3723e-06	1272.4	350.65	5.4277e-06	5.4374e-06	404.24	137.15	117.92	41.48	5.333e-06	51.827	154.897	-100.551	-70.081	-158.355	-47.535	-14.405	-158.743	-153.958	-62.638	-14.507	-154.409	-150.657	-149.909	-145.002	-47.392	-145.816	-8191	255	
27079.361	1	1	0	0	0.15383	0.05773	0.061221	0.15605	0.15156	0.30835	0.12692	0.20602	0.14434	0.16085	0.2271	0.18264	0.14443	0.27095	0.19179	0.2882	-1.6688	-2.3667	-2.1333	-2.4188	-2.2042	-2.0271	-2.5021	-2.2271	-1.9062	-2.5062	-2.1646	-2.3	-2.4042	-1.85	-2.3812	-2.1542	2.435	-12.010	152.118	132.232	-14.475	166.378	73.062	121.518	-143.223	177.395	117.542	-0.348	129.607	114.258	152.032	124.813	0.00072884	0.000403	0.00015995	1248.2	3.5858e-06	3.2234e-06	1248.4	345.57	4.6547e-06	5.7015e-06	396.47	134.07	115.67	40.225	4.5121e-06	50.336	0.00058134	0.00048995	0.00013858	1268.4	5.4e-06	5.505e-06	1273.3	351.17	5.6435e-06	5.415e-06	404.32	136.99	118.01	41.433	5.4983e-06	51.806	153.782	-67.924	-87.707	-158.357	-66.036	-43.608	-158.806	-153.953	-67.569	-20.689	-154.334	-150.596	-150.056	-144.708	-28.039	-145.682	-8191	255	
27079.457	1	1	0	0	0.41017	0.17306	0.1949	0.30255	0.32803	0.32267	0.20915	0.058507	0.2668	0.24507	0.15975	0.094509	0.095778	0.12747	0.19752	0.19159	-1.3792	-2.3208	-1.9208	-2.3833	-2.3187	-1.7583	-2.6104	-2.3771	-1.9583	-2.3438	-2.0833	-2.0729	-2.4604	-2.1396	-2.3021	-2.3	52.992	-162.490	70.971	157.006	4.987	79.136	41.313	93.326	136.543	-151.236	118.342	68.196	-21.753	118.872	-54.498	-142.594	0.00074307	0.00045378	0.00012081	1250.1	3.3912e-06	4.4358e-06	1249.6	344.42	5.3886e-06	4.5852e-06	395.54	134.51	115.37	40.461	4.615e-06	50.154	0.00057305	0.00047589	0.00013353	1268	5.4619e-06	5.7316e-06	1272.2	351.1	5.4943e-06	5.3776e-06	403.74	137.14	117.85	41.488	5.2407e-06	51.845	153.630	-81.132	-92.296	-158.310	-52.401	-21.286	-158.685	-153.733	-46.196	-32.549	-154.387	-150.716	-150.093	-144.706	-46.104	-145.584	-8191	255	
27079.553	1	1	0	0	0.18412	0.026903	0.111	0.084519	0.16755	0.18245	0.23038	0.17651	0.1377	0.15982	0.14386	0.16875	0.34486	0.085556	0.086151	0.12473	-1.4542	-2.0979	-1.9708	-2.1833	-2.4688	-2.0396	-2.3187	-2.3312	-1.7583	-2.5	-2.2083	-2.1125	-2.4646	-2.0833	-2.2125	-2.5875	-83.199	-94.163	156.693	-106.465	58.664	146.246	142.192	100.587	82.918	172.772	114.399	-120.678	-16.047	-136.271	157.307	37.151	0.00072374	0.00046054	0.00013778	1250.3	4.1545e-06	5.1789e-06	1249.6	343.61	5.789e-06	6.2551e-06	395.73	134.09	115.24	40.527	4.6143e-06	50.258	0.00057433	0.00047612	0.00013941	1268.9	5.3911e-06	5.4799e-06	1271.8	350.8	5.6718e-06	5.2916e-06	404.29	137	117.88	41.458	5.3354e-06	51.807	155.417	-89.417	-96.778	-158.444	-37.300	-33.273	-158.681	-153.824	-55.944	-17.708	-154.269	-150.355	-149.947	-144.815	-37.892	-145.432	-8191	255	
27079.648	1	1	0	0	0.071588	0.071125	0.15972	0.22452	0.075889	0.077851	0.21038	0.25388	0.18524	0.17498	0.019477	0.081183	0.051844	0.19289	0.099963	0.060946	-1.4521	-2.1937	-2.3292	-2.0042	-2.5083	-1.975	-2.1896	-2.3771	-1.7583	-2.1542	-2.3667	-1.9875	-2.4938	-2.3312	-1.7354	-2.3688	60.767	52.077	92.032	144.640	-72.197	-148.977	180.019	171.433	82.059	-158.182	68.644	-94.452	-147.227	171.426	118.217	96.664	0.0007003	0.00052817	9.336e-05	1245.6	5.2353e-06	4.9817e-06	1250.1	343.61	6.6472e-06	4.6976e-06	395.7	133.98	115.59	40.395	3.0539e-06	50.508	0.00056753	0.00048767	0.00013416	1266.1	5.4959e-06	5.4852e-06	1270.5	350.46	5.5932e-06	5.3329e-06	403.6	137.14	117.82	41.442	5.5291e-06	51.951	155.497	-92.874	-62.852	-158.466	-65.614	-13.193	-158.660	-153.776	-63.677	-23.684	-154.403	-150.433	-149.951	-144.833	-53.637	-145.590	-8191	255	
27079.770	1	1	0	0	0.060495	0.064743	0.14335	0.17104	0.028262	0.2418	0.32452	0.30289	0.19762	0.29474	0.15992	0.28861	0.24627	0.18457	0.29329	0.2539	-1.2396	-2.2375	-2.1896	-2.1458	-2.3187	-1.9958	-2.2208	-2.4354	-1.8563	-2.2313	-2.2812	-1.9083	-2.4562	-2.0792	-1.9604	-2.4521	-136.955	-96.519	127.294	136.164	120.892	39.286	82.567	155.281	68.548	85.159	112.426	-97.275	121.026	71.318	-15.608	105.724	0.00074251	0.0004567	0.00014714	1250.3	4.2368e-06	4.5348e-06	1246.5	344.47	6.5473e-06	4.6413e-06	396.97	133.98	115.1	40.262	3.8804e-06	50.242	0.00057552	0.00048866	0.00014059	1265.9	5.3275e-06	5.3326e-06	1269.3	350.89	5.6302e-06	5.3178e-06	404.06	137.04	117.88	41.376	5.5816e-06	51.901	154.263	-89.719	-70.993	-158.449	-81.216	-27.087	-158.745	-154.034	-57.735	-38.145	-154.339	-150.755	-150.062	-144.960	-52.859	-145.454	-8191	255	
27079.863	1	1	0	0	0.31342	0.24811	0.17013	0.40672	0.067626	0.18096	0.13536	0.37732	0.20485	0.060292	0.3055	0.26535	0.049401	0.19035	0.10603	0.26566	-1.3979	-2.175	-2.2625	-2.0521	-2.2521	-2.1458	-2.1896	-2.3271	-2.0396	-2.0875	-2.2417	-2.0104	-2.2667	-2.3375	-1.8896	-2.4646	-138.208	-42.875	-4.661	139.475	156.528	149.466	177.530	178.161	97.640	106.953	146.041	-102.840	90.008	163.322	27.075	110.756	0.00070153	0.00034727	0.00014967	1247.7	3.8957e-06	5.8343e-06	1251.5	344.72	6.1787e-06	4.3097e-06	395.44	133.64	114.83	40.304	5.2344e-06	50.344	0.00057586	0.00048931	0.00013951	1266.8	5.1814e-06	5.4608e-06	1271.3	350.89	5.6036e-06	5.3921e-06	404.05	136.79	117.8	41.402	5.5068e-06	51.898	156.787	-83.917	-80.566	-158.443	-58.476	-27.675	-158.575	-153.969	-65.926	-30.719	-154.365	-150.489	-150.034	-144.878	-36.422	-145.618	-8191	255	
27079.963	1	1	0	0	0.11271	0.2506	0.20433	0.22684	0.09693	0.1372	0.24708	0.10149	0.2726	0.10539	0.11801	0.20256	0.13807	0.13534	0.23141	0.24749	-1.725	-1.9875	-2.2167	-2.2958	-2.2687	-2.2917	-2.0396	-2.5625	-2.0896	-2.0896	-2.4521	-1.8229	-2.2333	-2.3521	-1.9354	-2.2667	60.052	-57.136	10.517	-167.117	163.525	-27.214	139.726	139.903	-30.621	-13.821	-164.452	-163.133	49.491	-95.059	-31.016	144.722	0.00069448	0.0003781	0.0001448	1248.3	4.5203e-06	4.495e-06	1248	343.49	5.0459e-06	3.8845e-06	396.95	133.95	114.88	40.326	4.994e-06	50.061	0.00057782	0.00050453	0.00013958	1266.7	5.5132e-06	5.6748e-06	1272.3	350.35	5.6464e-06	5.7027e-06	404.47	136.98	117.65	41.386	5.9375e-06	51.735	158.558	-91.227	-96.191	-158.225	-65.120	-18.934	-158.838	-154.023	-58.600	-50.633	-154.415	-150.696	-150.193	-144.776	-40.393	-145.582	-8191	255	
#DATA ENDS
