BOXY.EXE: ISS Imagent and Oximeter Data Acquisition Program Version 0.80
Ascii Record File

#ACQ INFORMATION
2  Detector Channels 
16  External MUX Channels 
1  Auxiliary Channels 
5000  Waveform (CCF) Frequency (Hz)
1  Waveforms Skipped 
30  Waveforms Averaged 
1  Cycles Averaged 
16  Acquisitions per Waveform 
10.0806  Updata Rate (Hz) 

#FILE INFORMATION
TRUE -- External MUX Channel results are PARSED.
FALSE -- AC DC and Phase are NOT grouped.
TRUE -- Companion Program Settings File CREATED.
FALSE -- AC data not excluded
FALSE -- DC data not excluded
FALSE -- Phase data not excluded
FALSE -- Auxillary Chn. data not excluded
Tab delimiters

#CALIBRATION STATE
TRUE -- Waveform Calibration Values APPLIED.


#AUX CALIBRATION VALUES
Val Type	aux-1	

Term	1.0000e+00	
Factor	0.0000e+00	


#WF CALIBRATION VALUES
A = Detector Channel
Val Type	A-AC1	A-AC2	A-AC3	A-AC4	A-AC5	A-AC6	A-AC7	A-AC8	A-AC9	A-AC10	A-AC11	A-AC12	A-AC13	A-AC14	A-AC15	A-AC16	A-DC1	A-DC2	A-DC3	A-DC4	A-DC5	A-DC6	A-DC7	A-DC8	A-DC9	A-DC10	A-DC11	A-DC12	A-DC13	A-DC14	A-DC15	A-DC16	A-Ph1	A-Ph2	A-Ph3	A-Ph4	A-Ph5	A-Ph6	A-Ph7	A-Ph8	A-Ph9	A-Ph10	A-Ph11	A-Ph12	A-Ph13	A-Ph14	A-Ph15	A-Ph16	

Term	0.00000e+00	0.00000e+00	0.00000e+00	0.00000e+00	0.00000e+00	0.00000e+00	0.00000e+00	0.00000e+00	0.00000e+00	0.00000e+00	0.00000e+00	0.00000e+00	0.00000e+00	0.00000e+00	0.00000e+00	0.00000e+00	0.00000e+00	0.00000e+00	0.00000e+00	0.00000e+00	0.00000e+00	0.00000e+00	0.00000e+00	0.00000e+00	0.00000e+00	0.00000e+00	0.00000e+00	0.00000e+00	0.00000e+00	0.00000e+00	0.00000e+00	0.00000e+00	0.00000e+00	0.00000e+00	0.00000e+00	0.00000e+00	0.00000e+00	0.00000e+00	0.00000e+00	0.00000e+00	0.00000e+00	0.00000e+00	0.00000e+00	0.00000e+00	0.00000e+00	0.00000e+00	0.00000e+00	0.00000e+00	
Factor	1.00000e+00	1.00000e+00	1.00000e+00	1.00000e+00	1.00000e+00	1.00000e+00	1.00000e+00	1.00000e+00	1.00000e+00	1.00000e+00	1.00000e+00	1.00000e+00	1.00000e+00	1.00000e+00	1.00000e+00	1.00000e+00	1.00000e+00	1.00000e+00	1.00000e+00	1.00000e+00	1.00000e+00	1.00000e+00	1.00000e+00	1.00000e+00	1.00000e+00	1.00000e+00	1.00000e+00	1.00000e+00	1.00000e+00	1.00000e+00	1.00000e+00	1.00000e+00	X	X	X	X	X	X	X	X	X	X	X	X	X	X	X	X	

B = Detector Channel
Val Type	B-AC1	B-AC2	B-AC3	B-AC4	B-AC5	B-AC6	B-AC7	B-AC8	B-AC9	B-AC10	B-AC11	B-AC12	B-AC13	B-AC14	B-AC15	B-AC16	B-DC1	B-DC2	B-DC3	B-DC4	B-DC5	B-DC6	B-DC7	B-DC8	B-DC9	B-DC10	B-DC11	B-DC12	B-DC13	B-DC14	B-DC15	B-DC16	B-Ph1	B-Ph2	B-Ph3	B-Ph4	B-Ph5	B-Ph6	B-Ph7	B-Ph8	B-Ph9	B-Ph10	B-Ph11	B-Ph12	B-Ph13	B-Ph14	B-Ph15	B-Ph16	

Term	0.00000e+00	0.00000e+00	0.00000e+00	0.00000e+00	0.00000e+00	0.00000e+00	0.00000e+00	0.00000e+00	0.00000e+00	0.00000e+00	0.00000e+00	0.00000e+00	0.00000e+00	0.00000e+00	0.00000e+00	0.00000e+00	0.00000e+00	0.00000e+00	0.00000e+00	0.00000e+00	0.00000e+00	0.00000e+00	0.00000e+00	0.00000e+00	0.00000e+00	0.00000e+00	0.00000e+00	0.00000e+00	0.00000e+00	0.00000e+00	0.00000e+00	0.00000e+00	-2.48330e+02	-1.42001e+02	-1.28918e+02	-1.82543e+02	-9.10688e+01	-6.49576e+01	-1.59484e+02	-1.62015e+02	-1.00181e+02	-6.41897e+01	-1.73451e+02	-1.69948e+02	-1.80549e+02	-1.77176e+02	-8.75784e+01	-1.49574e+02	
Factor	5.96916e-05	1.28151e-04	4.06723e-05	1.85368e-01	1.60694e-06	1.57342e-06	1.66390e-01	4.98697e-02	1.84472e-06	1.64029e-06	1.16195e-01	2.94105e-02	3.75885e-02	8.90816e-03	1.48073e-06	1.26652e-02	2.18147e-06	2.27945e-06	6.35774e-07	9.79401e-02	2.48019e-08	2.50556e-08	8.24126e-02	2.63979e-02	2.47667e-08	2.50275e-08	5.87102e-02	1.49757e-02	1.97217e-02	4.72932e-03	2.48310e-08	6.48694e-03	X	X	X	X	X	X	X	X	X	X	X	X	X	X	X	X	



#DISTANCE SETTINGS
A = Detector Channel
A-1	A-2	A-3	A-4	A-5	A-6	A-7	A-8	A-9	A-10	A-11	A-12	A-13	A-14	A-15	A-16	

2.5000e+00	3.0000e+00	2.5000e+00	3.0000e+00	2.0000e+00	3.0000e+00	1.5000e+00	3.0000e+00	3.0000e+00	3.0000e+00	3.0000e+00	3.0000e+00	3.0000e+00	3.0000e+00	1.5000e+00	3.0000e+00	

B = Detector Channel
B-1	B-2	B-3	B-4	B-5	B-6	B-7	B-8	B-9	B-10	B-11	B-12	B-13	B-14	B-15	B-16	

1.0000e+01	1.0000e+01	1.0000e+01	1.4400e+00	1.0000e+01	1.0000e+01	1.5100e+00	1.9400e+00	1.0000e+01	1.0000e+01	1.9900e+00	2.4900e+00	2.4100e+00	2.9000e+00	1.0000e+01	2.9800e+00	




#DATA BEGINS
time	group	step	mark	flag	A-AC1	A-AC2	A-AC3	A-AC4	A-AC5	A-AC6	A-AC7	A-AC8	A-AC9	A-AC10	A-AC11	A-AC12	A-AC13	A-AC14	A-AC15	A-AC16	A-DC1	A-DC2	A-DC3	A-DC4	A-DC5	A-DC6	A-DC7	A-DC8	A-DC9	A-DC10	A-DC11	A-DC12	A-DC13	A-DC14	A-DC15	A-DC16	A-Ph1	A-Ph2	A-Ph3	A-Ph4	A-Ph5	A-Ph6	A-Ph7	A-Ph8	A-Ph9	A-Ph10	A-Ph11	A-Ph12	A-Ph13	A-Ph14	A-Ph15	A-Ph16	B-AC1	B-AC2	B-AC3	B-AC4	B-AC5	B-AC6	B-AC7	B-AC8	B-AC9	B-AC10	B-AC11	B-AC12	B-AC13	B-AC14	B-AC15	B-AC16	B-DC1	B-DC2	B-DC3	B-DC4	B-DC5	B-DC6	B-DC7	B-DC8	B-DC9	B-DC10	B-DC11	B-DC12	B-DC13	B-DC14	B-DC15	B-DC16	B-Ph1	B-Ph2	B-Ph3	B-Ph4	B-Ph5	B-Ph6	B-Ph7	B-Ph8	B-Ph9	B-Ph10	B-Ph11	B-Ph12	B-Ph13	B-Ph14	B-Ph15	B-Ph16	aux-1	digaux	

3168.816	1	1	0	768	0.26844	0.29406	0.2004	0.25644	0.26435	0.24853	0.075424	0.034671	0.2679	0.209	0.31291	0.17338	0.14223	0.057809	0.0090835	0.10351	-0.96875	-1.9312	-1.9604	-1.5688	-2.0687	-1.8417	-1.5542	-2.4021	-1.3979	-1.8021	-2.2625	-1.5438	-2.2625	-1.775	-1.4917	-2.4458	171.303	100.696	43.972	200.916	183.860	192.732	97.919	68.447	-73.039	167.967	142.578	190.935	174.665	-128.669	40.677	97.838	0.00081619	0.00065188	0.00021655	1328.3	5.2852e-06	6.8659e-06	1330.6	373.18	4.4936e-06	1.1753e-05	423.83	142.72	124.16	42.399	6.9743e-06	52.087	0.00080107	0.00079997	0.00022255	1356.9	8.778e-06	8.7809e-06	1358	382.15	8.6401e-06	8.7327e-06	437.63	147	129.17	43.805	8.7273e-06	54.328	82.686	-77.602	-12.715	-120.344	22.724	29.674	-120.487	-115.912	-93.762	-12.646	-116.380	-112.568	-112.057	-107.076	-104.659	-107.947	-8191	255	
3168.912	1	1	0	0	0.10568	0.083406	0.18627	0.16969	0.23652	0.052152	0.12422	0.21786	0.22688	0.22546	0.19277	0.14118	0.17795	0.28442	0.27666	0.10531	-1.125	-1.6292	-2.075	-1.4208	-1.9604	-2.1729	-1.7333	-2.4	-1.4917	-1.55	-2.3417	-1.6479	-2.3	-2.1208	-1.3771	-2.2104	-9.576	83.753	-74.761	100.924	-6.464	-21.887	189.908	221.044	-2.937	190.242	-129.300	-131.508	82.588	187.058	-75.557	72.255	0.0013217	0.0003859	0.00016324	1329.7	4.4527e-06	4.0754e-06	1328.4	374.08	5.9332e-06	1.5935e-06	422.71	141.75	123.87	42.119	7.7907e-06	52.233	0.00080577	0.00080544	0.00022627	1354.6	8.7307e-06	8.7142e-06	1356.4	382.22	8.6483e-06	8.7463e-06	437.16	146.49	128.55	43.687	8.7281e-06	54.367	88.774	-43.523	-15.654	-120.673	1.654	45.304	-120.679	-115.931	-107.549	-70.790	-116.478	-112.267	-112.048	-107.114	-40.124	-107.889	-8191	255	
3169.009	1	1	0	0	0.1827	0.16057	0.23548	0.15959	0.18397	0.12669	0.20392	0.29335	0.097972	0.30561	0.31908	0.049964	0.012939	0.40375	0.041737	0.14762	-1.3417	-1.3958	-2.175	-1.5583	-1.8667	-2.0708	-1.5063	-2.3604	-1.7104	-1.4583	-2.4167	-1.4875	-1.8292	-2.3958	-1.25	-2.2917	123.410	18.458	183.573	116.352	146.480	218.153	219.443	143.412	204.594	205.385	209.808	132.911	-26.066	-123.753	201.330	-131.668	0.0008665	0.00056046	2.7117e-05	1324.1	4.4737e-06	6.2893e-06	1321.7	372.43	4.2197e-06	6.1343e-06	421.71	141.85	124.28	42.095	1.3852e-06	51.874	0.00079384	0.00079367	0.00022418	1352.2	8.7184e-06	8.8099e-06	1352.2	381.42	8.7064e-06	8.6647e-06	436.64	146.28	128.6	43.607	8.7736e-06	54.204	90.651	3.966	-86.040	-120.198	46.221	12.294	-120.767	-115.934	-63.544	-108.902	-116.439	-112.289	-111.907	-106.845	9.182	-107.871	-8191	255	
3169.105	1	1	0	0	0.27375	0.19903	0.18147	0.057159	0.12687	0.07798	0.099607	0.10968	0.078066	0.064173	0.2213	0.31484	0.44051	0.144	0.074268	0.13698	-1.4521	-1.4875	-2.4146	-1.7062	-1.8813	-2.0333	-1.5375	-2.2792	-1.7917	-1.6125	-2.1271	-1.5604	-1.6854	-2.2417	-1.325	-1.9208	26.596	-99.102	-80.245	34.919	102.682	71.955	168.057	224.768	203.911	149.642	145.964	143.563	125.389	52.762	-35.585	76.642	0.0011689	0.00044935	0.00015564	1325.7	2.8028e-06	1.0225e-05	1323	370.94	9.0376e-06	7.419e-06	421.12	141.16	124.14	41.954	1.7066e-06	51.963	0.0007893	0.0008008	0.00022176	1351.9	8.6245e-06	8.7916e-06	1352.5	380.12	8.7199e-06	8.7429e-06	435.7	146.33	128.58	43.537	8.7326e-06	54.126	91.342	-32.587	-34.336	-120.671	137.483	44.053	-120.795	-115.860	14.628	21.072	-116.661	-112.456	-111.996	-106.923	-86.971	-107.541	-8191	255	
3169.201	1	1	0	0	0.16036	0.19716	0.11223	0.36061	0.27331	0.029863	0.23733	0.34506	0.18243	0.38703	0.23966	0.2955	0.27653	0.22685	0.17369	0.099515	-1.4042	-1.275	-2.0896	-1.5979	-1.6604	-2.2771	-1.3979	-2.2479	-1.9854	-1.3104	-2.2687	-1.8354	-1.6	-2.2625	-1.3146	-1.9562	-120.486	-85.210	-89.554	167.729	168.096	-7.503	173.762	201.684	183.954	-61.766	80.657	192.931	206.149	-108.219	61.578	156.370	0.0011804	0.00019301	0.00016362	1319.3	3.1647e-06	4.3527e-06	1318	371.36	6.7259e-06	8.3167e-06	423.65	140.82	124.06	41.85	3.9125e-06	51.696	0.00079597	0.00079731	0.00022083	1348.5	8.6917e-06	8.7172e-06	1349.2	380.49	8.7042e-06	8.7285e-06	436.38	145.84	128.38	43.553	8.726e-06	53.96	97.845	132.185	21.247	-120.522	18.810	29.994	-120.488	-115.596	-37.211	31.531	-116.282	-112.047	-111.887	-106.933	171.851	-107.648	-8191	255	
3169.297	1	1	0	0	0.23934	0.16252	0.28662	0.27068	0.090995	0.24045	0.23602	0.24215	0.1268	0.17197	0.093242	0.20198	0.19389	0.34687	0.14324	0.22294	-1.7104	-1.1667	-2.1937	-1.8646	-1.3438	-2.4521	-1.6625	-1.9083	-2.1792	-1.3271	-2.3583	-1.8188	-1.4062	-2.1729	-1.2792	-1.8833	-8.795	-54.887	-39.867	201.279	189.637	8.393	166.935	166.670	-100.088	93.131	101.258	182.043	204.713	208.197	193.191	197.347	0.0010854	0.00034922	0.00023841	1320.9	4.3976e-06	5.4995e-06	1318.2	369.96	1.3492e-05	4.0202e-06	423.01	142.16	123.08	42.151	5.799e-06	51.411	0.00079065	0.00079334	0.00022028	1350.1	8.6661e-06	8.7566e-06	1349.3	379.79	8.6729e-06	8.7428e-06	436.17	146.08	127.99	43.574	8.7274e-06	53.898	89.239	134.065	-53.236	-120.318	83.229	156.097	-120.545	-115.501	-50.352	74.672	-116.284	-112.168	-111.905	-106.764	-83.606	-107.301	-8191	255	
3169.418	1	1	0	0	0.24714	0.049809	0.044488	0.19593	0.07749	0.17311	0.17222	0.13958	0.12033	0.14236	0.29645	0.027145	0.038529	0.093298	0.12353	0.060791	-1.6479	-1.3979	-2.0229	-2.0187	-1.3125	-2.375	-1.6583	-1.9646	-2.275	-1.5187	-2.0563	-1.9771	-1.5625	-2.4958	-1.5312	-1.8521	71.826	172.067	148.289	-24.159	29.707	195.803	216.115	152.502	82.334	37.795	195.105	197.253	171.112	120.867	185.407	-129.295	0.0009545	0.00024929	6.3851e-05	1319.3	6.5618e-06	5.9791e-06	1322	369.88	1.1563e-05	5.6406e-06	423.42	141.4	123.37	41.876	9.4482e-06	51.892	0.00078497	0.00079142	0.00022221	1349	8.6874e-06	8.6833e-06	1349.7	379.83	8.61e-06	8.6066e-06	436.48	145.76	128.14	43.553	8.7697e-06	53.993	94.524	-30.658	222.743	-120.322	22.393	83.225	-120.345	-115.655	-39.911	-8.850	-116.186	-112.055	-111.865	-106.698	14.461	-107.434	-8191	255	
3169.512	1	1	0	0	0.10999	0.29658	0.16492	0.10215	0.0942	0.075364	0.2318	0.22224	0.15276	0.20543	0.091912	0.18525	0.042115	0.13494	0.17687	0.1139	-2.0458	-1.5125	-1.9229	-2.2917	-1.4083	-2.1146	-1.8375	-1.8167	-2.2896	-1.5354	-2.0875	-2.1521	-1.4583	-2.1979	-1.7042	-1.5042	214.118	57.214	206.321	113.169	109.566	81.539	163.535	178.004	191.618	-127.556	-20.318	32.582	129.059	52.877	69.980	92.951	0.0010852	0.00053337	0.0001498	1318.8	7.1887e-06	1.9524e-06	1324	370.88	9.234e-06	4.2285e-06	424.46	140.84	123.3	41.926	4.4589e-06	51.667	0.0007987	0.00080195	0.00022502	1348.5	8.7644e-06	8.7436e-06	1350.7	379.73	8.7566e-06	8.8523e-06	436.83	145.71	128.06	43.472	8.6796e-06	53.991	80.870	-34.661	-43.157	-120.411	31.889	200.759	-120.472	-115.465	-40.932	64.430	-115.931	-112.191	-111.731	-106.820	-35.573	-107.220	-8191	255	
3169.610	1	1	0	0	0.11638	0.086697	0.07165	0.13632	0.073339	0.090711	0.14966	0.079567	0.19878	0.080184	0.1333	0.18468	0.29107	0.20878	0.17093	0.27094	-2.0458	-1.5438	-1.8	-2.2	-1.3479	-2.1396	-2.0396	-1.5667	-2.0563	-1.4937	-1.8312	-2.2958	-1.4458	-2.2438	-1.9312	-1.5646	-55.971	68.395	-19.452	211.854	157.441	160.905	105.131	161.653	-118.434	55.221	-104.529	50.822	119.415	-43.294	205.836	219.725	0.0012426	0.00034155	0.00013917	1318.5	3.2026e-06	7.9501e-06	1314.6	368.38	2.4925e-06	6.7914e-07	419.24	140.51	122.7	41.77	4.0172e-06	51.68	0.00079193	0.00080256	0.00022311	1345.9	8.701e-06	8.7604e-06	1343.3	377.6	8.7542e-06	8.8322e-06	433.79	145.07	127.49	43.362	8.7632e-06	53.894	104.333	-49.201	-39.806	-120.244	-18.968	-16.151	-120.610	-115.827	65.447	-29.637	-116.451	-112.252	-111.721	-106.691	-1.781	-107.591	-8191	255	
3169.706	1	1	0	0	0.15088	0.11395	0.31983	0.21125	0.19105	0.085098	0.098241	0.050508	0.27154	0.20354	0.10383	0.14972	0.18483	0.34566	0.17006	0.12894	-1.9667	-1.7396	-1.6021	-2.3958	-1.4771	-2.0062	-2.1729	-1.6604	-2.2396	-1.5542	-1.6375	-2.2833	-1.4312	-2.075	-2.1104	-1.5396	78.161	53.585	-11.787	222.702	11.980	-12.679	188.065	-120.955	45.523	-20.640	-131.445	104.796	96.519	185.167	-98.223	151.036	0.00076912	7.6785e-05	0.00028231	1314.8	5.2502e-06	5.6268e-06	1311.7	368.8	6.5599e-06	4.7826e-06	418.77	140.58	122.44	41.692	2.0081e-06	51.672	0.0008081	0.00080801	0.00022625	1343	8.9523e-06	8.9809e-06	1342.4	377.68	8.916e-06	9.0251e-06	433.77	145.28	127.31	43.338	9.0783e-06	53.944	86.134	-14.169	-44.799	-120.342	-12.003	53.470	-120.661	-115.789	-100.874	24.215	-116.007	-112.454	-112.063	-107.165	0.406	-107.880	-8191	255	
3169.801	1	1	0	0	0.18756	0.14763	0.15071	0.060676	0.35039	0.08173	0.28921	0.16559	0.11945	0.20959	0.096343	0.30098	0.17928	0.035037	0.3109	0.27746	-1.6688	-1.5229	-1.3521	-2.4083	-1.45	-1.9688	-2.2583	-1.2917	-2.0458	-1.6917	-1.5979	-2.1958	-1.3771	-1.9292	-2.1583	-1.5542	127.172	-100.253	-100.047	-98.781	113.123	208.374	135.227	-91.005	-76.173	220.845	110.054	141.069	144.472	203.928	72.201	46.147	0.0012338	0.00027481	4.6002e-05	1312.4	5.3442e-06	7.8258e-06	1319.8	369.51	3.1795e-06	5.5131e-06	420.24	140.74	122.8	41.905	8.5487e-06	51.697	0.00082269	0.00083738	0.00023093	1344.6	9.0802e-06	9.1326e-06	1347.2	378.61	8.9676e-06	9.1355e-06	435.58	145.54	127.3	43.356	9.1149e-06	53.906	93.252	192.380	-83.569	-120.191	224.312	72.934	-120.700	-115.775	-123.968	55.042	-116.234	-112.465	-112.020	-106.944	22.050	-107.794	-8191	255	
3169.897	1	1	0	0	0.15838	0.0632	0.18581	0.19833	0.10285	0.18383	0.21258	0.16167	0.089849	0.26993	0.034186	0.20504	0.026185	0.11844	0.079278	0.30084	-1.6917	-1.7354	-1.275	-2.3771	-1.6292	-1.5417	-2.4583	-1.6021	-1.9937	-1.8979	-1.5896	-2.3917	-1.6792	-1.5333	-2.1833	-1.5458	34.535	-59.864	-92.913	186.532	188.848	-89.545	209.605	200.529	124.241	-89.253	89.114	163.036	96.150	-133.209	185.036	106.441	0.00098994	0.00043841	8.7381e-05	1310	4.6942e-06	6.5017e-06	1313.2	367.91	3.8055e-06	7.0328e-06	420.78	140.88	122.63	41.656	4.6908e-06	51.657	0.00081885	0.00082332	0.00023003	1340.7	9.0115e-06	9.1196e-06	1343	377.37	9.0249e-06	9.0418e-06	434.93	145.38	127.56	43.349	9.0183e-06	53.954	105.460	-81.255	-26.007	-120.176	1.683	-46.468	-120.403	-115.595	41.987	14.751	-116.245	-112.190	-111.933	-106.655	-39.011	-107.530	-8191	255	
3170.017	1	1	0	0	0.23066	0.1708	0.15991	0.16589	0.23843	0.26152	0.29945	0.16602	0.077106	0.10273	0.2364	0.1524	0.119	0.20088	0.19436	0.29597	-1.6625	-2.0438	-1.2917	-2.2917	-1.4542	-1.4062	-2.225	-1.4729	-1.8	-2.2167	-1.5229	-2.3917	-1.7354	-1.45	-1.9875	-1.4813	-29.065	195.869	217.948	-133.642	45.146	-80.941	140.748	19.304	-101.813	-87.368	67.812	197.765	-58.563	206.578	53.388	173.510	0.001094	0.00052224	0.00010267	1312.9	5.7065e-06	1.8128e-06	1317.7	368.36	1.6795e-05	1.2375e-05	420.64	140.55	122.26	41.748	6.6473e-06	51.456	0.00082054	0.00083405	0.00023218	1344.1	9.1072e-06	9.1192e-06	1344.7	377.64	9.059e-06	9.0923e-06	434.89	145.35	127.55	43.305	9.1352e-06	53.867	79.174	-50.125	150.778	-120.569	-28.989	-12.750	-120.806	-116.088	-59.055	28.746	-116.836	-112.505	-111.919	-107.070	36.068	-107.915	-8191	255	
3170.113	1	1	0	0	0.16975	0.10685	0.063699	0.35614	0.29797	0.091662	0.22322	0.0477	0.22136	0.15594	0.29029	0.04033	0.21023	0.14687	0.078417	0.18702	-1.4208	-2.1437	-1.3813	-2.2208	-1.7042	-1.5458	-2.4437	-1.65	-1.7583	-1.9979	-1.3958	-2.1792	-1.8813	-1.3875	-2.3479	-1.5812	173.630	193.636	158.631	163.879	50.169	-62.678	180.076	186.017	61.377	-96.048	-98.797	141.886	211.428	-115.614	20.565	-117.742	0.00094366	0.00081514	0.00018289	1312.7	6.5969e-06	8.0184e-06	1317	368.33	1.4079e-05	5.5371e-06	419.04	140.46	122.3	41.635	4.016e-06	51.673	0.00082717	0.0008338	0.0002356	1344	9.0927e-06	9.2059e-06	1346.4	377.78	9.165e-06	9.1931e-06	434.7	145.43	127.51	43.254	9.2525e-06	54.057	84.832	-90.066	-15.521	-120.320	-86.071	5.309	-120.691	-116.029	-60.882	-1.342	-116.572	-112.449	-111.995	-107.006	41.661	-107.846	-8191	255	
3170.210	1	1	0	0	0.060056	0.11423	0.091971	0.049044	0.32173	0.1853	0.26654	0.34898	0.23728	0.23751	0.02509	0.15432	0.16262	0.1322	0.043764	0.30842	-1.2292	-2.1354	-1.3646	-2.225	-1.8896	-1.4979	-2.4583	-1.9188	-1.7083	-2.275	-1.3979	-2.1458	-2.1083	-1.6083	-2.0833	-1.6646	94.853	-51.937	139.255	89.684	-18.102	194.054	165.745	196.913	92.046	-16.361	133.290	-33.805	177.369	83.609	223.403	126.911	0.0011888	0.0011441	4.3151e-05	1316.8	8.9192e-06	4.2818e-06	1320.5	368.65	5.9416e-06	4.5129e-06	421.99	141.38	122.35	41.834	3.728e-06	51.592	0.00083642	0.00084768	0.00023487	1347.6	9.2957e-06	9.3422e-06	1351.3	379.29	9.2473e-06	9.3971e-06	437.2	145.74	127.69	43.447	9.3509e-06	54.113	89.773	-47.989	-67.796	-120.524	-21.360	46.979	-120.835	-116.320	-82.396	42.320	-116.664	-112.433	-112.443	-107.492	-26.792	-107.974	-8191	255	
3170.306	1	1	0	0	0.10917	0.16765	0.054302	0.19504	0.12683	0.082441	0.18119	0.16178	0.24836	0.18907	0.26811	0.38999	0.36736	0.06274	0.14733	0.47976	-0.95	-2.2375	-1.5396	-1.9771	-1.9833	-1.3896	-2.1458	-1.7833	-1.4583	-2.175	-1.5979	-1.6812	-2.2042	-1.4167	-2.0646	-2.0563	-69.839	187.755	208.594	206.191	-50.529	86.131	185.118	128.547	165.425	-76.924	223.189	207.200	193.748	208.127	-42.194	164.548	0.0012157	0.00076495	0.00010971	1317.7	5.9949e-06	1.3301e-05	1319.8	368.85	7.601e-06	8.6421e-06	421.31	140.56	123.06	41.705	2.859e-06	51.821	0.00084628	0.00086044	0.00024084	1351.3	9.3827e-06	9.4159e-06	1351.8	379.9	9.3126e-06	9.3371e-06	437.33	145.66	128.01	43.391	9.3088e-06	54.182	85.624	-0.611	-82.484	-120.307	-18.186	22.477	-120.698	-116.048	-12.744	48.697	-116.508	-112.432	-112.017	-107.135	-25.887	-108.024	-8191	255	
3170.377	1	1	0	0	0.076618	0.1688	0.093557	0.26315	0.16721	0.09209	0.18535	0.38138	0.13771	0.11254	0.25978	0.22966	0.25701	0.12555	0.065786	0.030026	-1.1063	-2.2729	-1.5646	-1.9646	-2.0167	-1.3146	-2.2021	-2.1542	-1.225	-2.175	-1.675	-1.6688	-2.1167	-1.5854	-1.8854	-2.0708	-128.717	2.406	193.388	198.587	5.920	149.867	184.787	161.657	-130.061	-91.653	-98.408	203.471	189.086	108.463	-19.952	-98.914	0.0010379	0.00037331	0.00015701	1326.4	6.0531e-06	8.4742e-06	1320.7	369.42	7.0818e-06	7.1644e-06	424.56	140.58	123.33	41.585	4.1878e-06	51.912	0.00085239	0.00085474	0.00023799	1356	9.3583e-06	9.3857e-06	1353.4	379.31	9.345e-06	9.4358e-06	438.1	145.47	128.07	43.28	9.407e-06	54.253	93.723	-25.129	161.291	-120.386	37.723	12.255	-120.786	-116.102	-117.239	43.516	-116.888	-112.434	-111.898	-107.030	63.599	-107.709	-8191	255	
3170.498	1	1	0	0	0.046853	0.33572	0.18034	0.33128	0.13643	0.16203	0.28489	0.16665	0.32163	0.12912	0.037802	0.19559	0.14937	0.30117	0.12055	0.22731	-0.88125	-2.1188	-1.5271	-1.8	-2.2	-1.3771	-2.1333	-2.1375	-1.2062	-2.2188	-1.8958	-1.6167	-2.4062	-1.5604	-1.9917	-1.9896	173.114	147.298	161.775	-109.555	147.458	191.059	159.122	163.024	35.875	13.588	27.543	147.023	5.924	128.814	180.207	155.071	0.0010252	0.00030675	0.00010256	1327.3	5.7145e-06	8.1095e-06	1327.3	368.53	7.9815e-06	9.3122e-06	422.07	140.51	123.42	41.37	3.3373e-06	51.706	0.00084722	0.00086373	0.00024082	1355.8	9.3116e-06	9.4888e-06	1354.3	379.22	9.2565e-06	9.4366e-06	436.69	145.35	128.24	43.222	9.3999e-06	54.134	87.424	-14.291	-112.272	-120.223	-24.761	86.531	-120.642	-116.205	-64.227	-46.324	-116.397	-112.463	-112.194	-107.230	45.117	-108.114	-8191	255	
3170.594	1	1	0	0	0.1703	0.18509	0.14039	0.14181	0.2147	0.14992	0.44033	0.10567	0.19273	0.24286	0.27265	0.29567	0.048861	0.21186	0.1879	0.14372	-0.85625	-2.1646	-1.5792	-1.5229	-2.0938	-1.5479	-2.0375	-2.2729	-1.3375	-2.2354	-1.9042	-1.5729	-2.2333	-1.5562	-1.725	-2.3292	14.702	110.803	76.551	136.357	14.752	-79.880	196.998	188.128	-35.954	-75.310	144.057	210.811	160.863	183.720	-42.593	202.047	0.0010281	0.00033827	0.00017125	1326.2	1.6644e-06	3.3607e-06	1325.7	369.07	1.0803e-05	7.5577e-06	420.06	139.53	122.32	41.378	2.1164e-06	51.82	0.00085256	0.00086094	0.00024158	1358.1	9.4254e-06	9.5666e-06	1357.6	379.68	9.4607e-06	9.6063e-06	437.38	145.02	128.26	43.2	9.4813e-06	54.085	84.133	-36.005	-65.705	-120.216	-61.185	104.981	-120.574	-116.053	-62.610	-9.426	-116.884	-112.622	-111.666	-107.230	-101.794	-107.701	-8191	255	
3170.690	1	1	0	0	0.1389	0.12189	0.10311	0.17464	0.15295	0.10801	0.10351	0.21881	0.31267	0.058983	0.086698	0.10191	0.1446	0.28391	0.084273	0.18711	-0.80625	-1.8813	-1.875	-1.6167	-2.2542	-1.5896	-1.7687	-2.2979	-1.5729	-1.8438	-2.1021	-1.5167	-2.2417	-1.7333	-1.6896	-2.4125	159.313	-120.919	89.424	208.557	89.681	93.443	-99.360	84.242	19.894	163.880	-110.927	170.626	-130.941	-133.526	33.450	52.073	0.00099302	0.00071372	4.4593e-05	1324.1	1.828e-06	5.8949e-07	1326.2	370.1	1.531e-06	3.194e-06	420.74	139.79	123.49	41.488	7.1945e-06	51.874	0.00085181	0.00086592	0.00024184	1356.8	9.4868e-06	9.5168e-06	1357.5	380.14	9.4352e-06	9.6187e-06	437.84	145.24	128.09	43.206	9.5607e-06	54.138	85.326	-48.400	55.975	-120.460	36.215	131.545	-120.723	-116.087	-70.816	96.147	-116.496	-112.509	-111.984	-107.185	51.379	-107.924	-8191	255	
3170.809	1	1	0	0	0.088792	0.16464	0.17088	0.37573	0.19184	0.088839	0.46895	0.31399	0.10394	0.12353	0.19046	0.13625	0.24233	0.078243	0.023627	0.14897	-0.94583	-1.9083	-1.8563	-1.3	-2.0583	-1.5792	-1.6	-2.3542	-1.3813	-1.8417	-2.0979	-1.4167	-2.1813	-1.7792	-1.4625	-2.1396	-133.134	87.344	32.740	182.413	-91.064	132.014	154.341	132.682	-76.452	6.777	172.613	219.750	158.493	118.078	-25.249	162.493	0.0010829	0.00073041	0.00017672	1324.2	2.4166e-06	6.2515e-06	1329.4	371.75	1.2818e-05	3.7359e-06	420.23	140.34	122.44	41.421	5.589e-06	51.743	0.00087201	0.00088324	0.00024494	1359	9.6294e-06	9.6433e-06	1359.1	381.46	9.6178e-06	9.6128e-06	437.17	145.42	128.04	43.226	9.6069e-06	54.232	79.169	-100.853	-30.521	-120.332	51.817	40.835	-120.647	-116.033	-18.081	-62.185	-116.499	-112.587	-111.741	-107.037	-24.657	-107.870	-8191	255	
3170.905	1	1	0	0	0.26615	0.18179	0.18516	0.18118	0.095713	0.0049692	0.16318	0.2895	0.16944	0.08903	0.043614	0.082791	0.033103	0.15451	0.16611	0.12943	-0.9875	-1.7396	-1.9083	-1.475	-2.0417	-1.7979	-1.5583	-2.2458	-1.7167	-1.6562	-2.2333	-1.5021	-2.1271	-1.9417	-1.3854	-2.1833	54.593	23.308	20.546	-114.203	23.743	-96.317	110.104	124.157	14.288	103.029	-16.567	160.998	153.075	130.477	166.586	188.380	0.0010149	0.00032722	0.00020333	1335.9	1.1987e-05	7.9045e-06	1331.3	369.69	1.2467e-05	5.6559e-06	423.13	140.39	123.45	41.23	3.6929e-06	51.47	0.00087629	0.00088947	0.00024645	1363.5	9.6988e-06	9.6704e-06	1361.5	380.58	9.5142e-06	9.5261e-06	438.14	145.15	128.07	43.037	9.4538e-06	53.935	76.392	-4.893	-68.751	-120.414	-3.430	-25.790	-120.499	-115.912	-44.704	66.657	-116.251	-112.387	-111.557	-107.145	58.331	-107.845	-8191	255	
3170.977	1	1	0	0	0.14992	0.24125	0.26876	0.11033	0.15189	0.19967	0.30103	0.13664	0.19229	0.23869	0.25607	0.19681	0.045495	0.23634	0.11681	0.19809	-1.1417	-1.5979	-2.1292	-1.5562	-2.1229	-2.0896	-1.5292	-2.3625	-1.65	-1.3729	-2.0771	-1.6958	-1.9813	-2.1063	-1.3979	-2.3521	205.603	115.921	149.172	-130.640	-55.697	210.982	208.776	8.582	123.431	219.075	182.706	137.999	77.724	181.474	-97.401	205.442	0.0012974	0.00016849	0.00013691	1329.6	7.3106e-06	1.18e-06	1334.4	370.46	1.2087e-05	3.9756e-06	422.05	139.15	122.16	41.303	5.9599e-06	51.355	0.00086458	0.00086209	0.00024172	1360.8	9.46e-06	9.4452e-06	1358.6	380.22	9.3899e-06	9.4566e-06	437.05	144.49	127.26	42.984	9.4546e-06	53.78	78.837	-24.971	219.427	-120.206	-0.247	139.418	-120.457	-115.726	-34.961	-103.102	-116.301	-112.370	-111.964	-106.763	92.971	-107.993	-8191	255	
3171.098	1	1	0	0	0.15755	0.16688	0.20839	0.27987	0.069431	0.29447	0.24718	0.073662	0.17544	0.37204	0.29554	0.2066	0.46348	0.079361	0.14967	0.055256	-1.2104	-1.5562	-2.2083	-1.7208	-1.8667	-2.0938	-1.7521	-2.2208	-1.775	-1.4479	-2.2	-1.4875	-1.7333	-2.1292	-1.1604	-1.9917	-34.656	38.386	195.691	-121.669	-107.307	-58.939	78.070	145.400	153.676	-103.727	59.552	179.389	-41.923	118.231	-21.801	-58.444	0.00076157	0.00050083	0.00019011	1331	2.721e-06	1.0852e-05	1325.9	368.63	9.6348e-06	6.826e-06	420.38	139.46	121.85	41.334	1.5976e-06	51.259	0.00084901	0.0008578	0.00023781	1359.8	9.269e-06	9.3613e-06	1353.1	378.5	9.2313e-06	9.2459e-06	434.97	144.21	127.05	42.828	9.2319e-06	53.688	72.200	-60.627	-59.870	-120.636	-90.421	11.955	-120.776	-116.067	-56.181	22.186	-116.698	-112.705	-111.859	-107.398	179.445	-107.864	-8191	255	
3171.194	1	1	0	0	0.049329	0.35927	0.12097	0.12538	0.04091	0.10512	0.2871	0.1824	0.27871	0.18495	0.10456	0.21917	0.11027	0.28797	0.097742	0.1513	-1.3625	-1.4729	-2.3104	-1.6562	-1.5104	-2.0958	-1.5208	-2.1083	-1.8375	-1.4396	-2.4396	-1.5458	-1.6333	-2.3146	-1.3062	-1.875	195.418	180.023	125.247	174.901	66.876	67.154	187.774	44.010	42.249	-23.016	222.434	210.226	192.821	162.277	100.877	43.105	0.00088975	8.3085e-05	0.00010008	1324	3.8288e-06	1.2597e-05	1321.5	367.8	5.878e-06	5.6608e-06	419.89	139.06	121.29	41.001	6.0139e-06	51.192	0.00083648	0.00084202	0.00023548	1351.4	9.1585e-06	9.169e-06	1347.1	378.02	9.0434e-06	9.0783e-06	433.99	143.71	126.31	42.683	9.0181e-06	53.448	82.479	74.938	-42.994	-120.495	45.384	41.944	-120.710	-115.921	-133.483	-72.202	-116.325	-112.865	-111.827	-107.212	54.823	-107.471	-8191	255	
3171.290	1	1	0	0	0.327	0.20665	0.12308	0.43432	0.039571	0.10395	0.071633	0.16384	0.10206	0.38563	0.078607	0.15262	0.075184	0.10842	0.28425	0.053845	-1.4854	-1.3396	-2.0542	-1.8208	-1.4708	-2.1083	-1.5479	-2.05	-2.0438	-1.2604	-2.1333	-1.8521	-1.5104	-2.25	-1.3833	-2.0375	-51.512	-85.962	45.884	220.354	96.883	-77.441	206.220	-110.784	-19.574	-77.893	-64.210	36.480	168.501	93.096	185.021	157.203	0.0010064	0.00064542	0.00021203	1314.8	4.798e-06	1.9295e-06	1317.4	367.67	1.1047e-05	2.4877e-06	419.97	138.29	121.12	41.031	4.7343e-06	51.211	0.00082179	0.00082719	0.00023056	1344.6	9.0207e-06	9.0942e-06	1346.5	377.19	9.1463e-06	9.0996e-06	434.3	143.27	126.47	42.6	9.0346e-06	53.409	86.351	-73.765	-62.271	-120.606	35.508	-37.803	-120.887	-116.137	19.814	-20.113	-116.728	-112.714	-112.222	-106.996	-80.468	-107.784	-8191	255	
3171.411	1	1	0	0	0.11725	0.092514	0.12773	0.34728	0.24615	0.27603	0.25693	0.1274	0.25185	0.17688	0.054019	0.2914	0.11505	0.21303	0.13067	0.17472	-1.5375	-1.0625	-2.1208	-1.8521	-1.2625	-2.2188	-1.6562	-1.8083	-2.0479	-1.3396	-2.2062	-1.9833	-1.3667	-2.3125	-1.625	-1.6667	-34.349	21.561	-33.890	-125.574	54.382	-35.425	163.964	107.108	95.087	205.865	-121.198	194.684	-66.326	151.069	-65.065	121.236	0.001145	0.00050785	0.00020653	1316.7	6.1699e-06	8.248e-06	1320.1	367.94	7.4911e-06	5.4701e-06	419.14	138.32	121.05	41.031	2.6383e-06	50.949	0.00083142	0.00084073	0.0002315	1346.8	9.0185e-06	9.108e-06	1348.3	377.09	9.0749e-06	9.0522e-06	433.18	143.38	126.2	42.624	9.0583e-06	53.388	83.454	-80.975	-42.141	-120.590	-45.788	42.226	-120.755	-116.074	25.008	46.244	-116.152	-112.645	-111.816	-107.343	24.941	-107.796	-8191	255	
3171.507	1	1	0	0	0.31228	0.083977	0.25106	0.54883	0.25285	0.25931	0.28869	0.16678	0.12036	0.51086	0.2622	0.10011	0.12116	0.16874	0.35459	0.24072	-1.7979	-1.5458	-1.9354	-2.0021	-1.2896	-2.0271	-1.6521	-1.7396	-2.0229	-1.2771	-1.875	-1.8687	-1.3563	-2.2854	-1.6688	-1.6521	86.305	-0.997	-62.966	192.338	189.755	-3.638	129.248	199.338	14.891	183.842	-99.311	169.141	130.648	-119.062	-79.084	-93.897	0.00094424	0.00029259	0.0002517	1319	5.2018e-06	8.213e-06	1313.8	366.34	4.7208e-06	7.3652e-06	416.38	138.69	120.88	41.022	4.2814e-07	51.072	0.00082836	0.00082707	0.00023126	1345.6	9.1012e-06	9.1069e-06	1345.3	376.23	9.0181e-06	9.0412e-06	432.2	143.47	126.06	42.542	8.9705e-06	53.306	84.897	-91.442	-7.013	-120.534	68.310	106.704	-120.521	-115.790	-37.003	73.320	-116.336	-112.448	-111.878	-106.890	-27.754	-107.717	-8191	255	
3171.601	1	1	0	0	0.25004	0.20477	0.092528	0.14504	0.15514	0.25467	0.26839	0.3899	0.19424	0.12861	0.092983	0.048936	0.31918	0.31708	0.21086	0.22202	-1.7938	-1.3208	-1.8625	-2.3771	-1.2646	-2.2333	-1.9167	-1.5271	-2.0167	-1.3937	-1.9125	-2.35	-1.2687	-2.0958	-1.6042	-1.5104	201.538	107.790	125.070	221.075	99.519	191.866	-117.775	215.132	68.580	-16.342	40.286	139.601	89.720	225.070	6.240	46.666	0.0010507	0.00067555	0.00025494	1312.2	2.498e-06	1.2936e-06	1307.9	365.15	6.4565e-06	4.6688e-06	415.5	138.25	120.57	40.861	5.0124e-06	51.005	0.00080427	0.00082038	0.00022714	1341.2	8.9326e-06	8.9129e-06	1338	374.56	8.8421e-06	8.9323e-06	430.74	143.01	125.78	42.48	8.7978e-06	53.133	92.158	-35.861	15.150	-120.500	10.995	176.741	-120.713	-115.908	-34.282	110.478	-116.646	-112.734	-112.273	-106.928	-59.554	-107.707	-8191	255	
3171.675	1	1	0	0	0.03971	0.15934	0.13656	0.22198	0.25531	0.29855	0.13815	0.28087	0.23943	0.060403	0.10141	0.11732	0.25605	0.26412	0.39379	0.22765	-1.7042	-1.4646	-1.6958	-2.2667	-1.2354	-2.1	-2.2771	-1.5	-2.3458	-1.6063	-1.5104	-2.1875	-1.4312	-1.9	-2.0354	-1.3792	73.867	144.993	-10.408	195.407	45.336	192.896	211.102	172.242	192.237	-118.989	152.999	142.918	182.615	192.045	207.867	79.282	0.00087442	0.00058986	4.9571e-05	1311.9	4.4497e-06	2.9611e-06	1306.9	365.95	6.4263e-06	3.3467e-06	416.69	138.39	120.88	40.749	8.3558e-06	50.801	0.00080528	0.00081002	0.00022691	1338.3	8.8702e-06	8.9474e-06	1337.5	374.56	8.8161e-06	8.8116e-06	430.98	142.87	125.34	42.37	8.8017e-06	53.065	77.868	-119.318	97.460	-120.341	19.868	52.513	-120.755	-115.994	0.900	-23.511	-116.525	-112.590	-111.998	-106.904	-9.187	-107.778	-8191	255	
3171.793	1	1	0	0	0.074732	0.093044	0.19183	0.091253	0.056626	0.12888	0.10703	0.12831	0.24006	0.20078	0.51825	0.15894	0.17746	0.31139	0.15663	0.14063	-1.6667	-1.6229	-1.5458	-2.3563	-1.3333	-1.925	-2.2208	-1.4854	-2.15	-1.4479	-1.5312	-2.4271	-1.6479	-1.8312	-1.9688	-1.575	96.725	186.857	-38.756	-98.993	-7.176	53.996	146.551	208.273	209.411	116.400	202.321	-79.890	153.448	80.398	15.977	10.309	0.0011128	0.00079442	0.00020705	1305.9	6.5923e-06	6.7128e-06	1304.6	364.78	9.0905e-06	5.9271e-06	413.84	136.99	120.62	40.862	3.3497e-06	50.835	0.00080124	0.000799	0.00022555	1332.6	8.7762e-06	8.8422e-06	1331.9	373.49	8.7774e-06	8.9472e-06	429.12	142.27	125.24	42.412	8.7948e-06	53.105	101.334	-13.167	-87.662	-120.215	9.193	59.693	-120.620	-115.845	-65.648	-38.922	-116.469	-112.353	-112.047	-107.017	21.261	-107.616	-8191	255	
3171.890	1	1	0	0	0.40141	0.19637	0.060405	0.094303	0.16324	0.23696	0.28411	0.072704	0.12785	0.085186	0.28573	0.14339	0.18788	0.18867	0.24511	0.20199	-1.8292	-1.6938	-1.2729	-2.3688	-1.3896	-1.7229	-2.2604	-1.4521	-2.1479	-1.8771	-1.5438	-2.4	-1.5646	-1.6417	-2.0396	-1.3667	206.950	-115.649	-93.207	-116.843	185.006	-104.695	124.950	185.343	-39.826	-5.184	145.771	157.403	78.297	225.681	-102.874	204.294	0.0009528	0.00042051	6.9041e-05	1300.5	8.5003e-06	4.1919e-06	1303.9	362.59	6.4065e-06	3.5497e-06	415.32	138.21	119.87	40.506	5.2141e-06	50.914	0.00079986	0.00080559	0.00022352	1329.6	8.7298e-06	8.7762e-06	1331	373.09	8.6992e-06	8.7996e-06	429.69	142.4	125.01	42.252	8.8266e-06	52.989	91.762	19.539	-23.546	-120.420	12.307	95.810	-121.014	-115.898	-80.229	30.120	-116.225	-112.327	-111.967	-106.963	42.840	-107.618	-8191	255	
3171.986	1	1	0	0	0.11567	0.25775	0.11217	0.21439	0.26133	0.27175	0.30289	0.033762	0.18197	0.2267	0.11039	0.12324	0.10338	0.4363	0.14248	0.09911	-1.6979	-1.8979	-1.2208	-2.1562	-1.5208	-1.5354	-2.3146	-1.5688	-1.9438	-2.1646	-1.1437	-2.2833	-1.7667	-1.6375	-2.2062	-1.3563	97.987	32.571	185.760	-24.424	101.540	197.106	202.939	-54.430	128.597	190.888	217.445	206.115	-70.218	-107.786	146.861	157.200	0.00096726	0.00056768	5.0796e-05	1301.7	6.6667e-06	6.5976e-06	1299.8	363.28	4.0023e-06	7.8236e-06	415.55	138.33	120.92	40.554	4.6544e-06	50.819	0.00079815	0.00079719	0.00022623	1330	8.7413e-06	8.8065e-06	1329.9	372.77	8.8277e-06	8.7316e-06	429.84	142.51	125.22	42.3	8.7806e-06	53.012	84.894	-22.281	148.198	-120.432	-6.706	36.008	-120.699	-116.003	-47.681	3.790	-116.719	-112.467	-112.071	-107.228	-19.343	-107.672	-8191	255	
3172.082	1	1	0	0	0.083368	0.15671	0.20531	0.063835	0.17339	0.074425	0.32324	0.31344	0.17141	0.21374	0.3337	0.46996	0.18348	0.30195	0.12129	0.3551	-1.4271	-1.8792	-1.2563	-2.2625	-1.4562	-1.4854	-2.3833	-1.5354	-1.5938	-2.1979	-1.5208	-2.0458	-1.8292	-1.4146	-2.2313	-1.6042	117.328	113.094	-116.841	-74.247	-132.238	88.194	166.143	46.596	169.179	67.435	179.322	203.884	-88.061	205.570	210.139	122.266	0.0010061	0.00067226	0.00011611	1296.9	1.6905e-06	2.3586e-06	1303.8	363.48	4.945e-06	6.8419e-06	415.38	137.34	121.16	40.658	5.938e-06	50.568	0.0008004	0.0008048	0.00022536	1328.7	8.7977e-06	8.9183e-06	1332.3	372.63	8.8706e-06	8.8398e-06	429.16	142.16	125.18	42.32	8.8203e-06	52.932	85.779	-61.373	-36.877	-120.353	179.182	74.751	-120.626	-116.058	212.735	74.085	-116.730	-112.524	-112.113	-107.085	28.751	-107.748	-8191	255	
3172.203	1	1	0	0	0.072771	0.30498	0.21989	0.14158	0.032563	0.029929	0.10064	0.33342	0.16936	0.27443	0.12752	0.4251	0.069355	0.26502	0.10027	0.30462	-1.3083	-2.2583	-1.3125	-2.2687	-1.875	-1.2771	-2.3167	-1.7	-1.7979	-2.1854	-1.5438	-2.1042	-1.9375	-1.5042	-2.1688	-1.5604	55.814	112.432	174.611	-113.554	-102.891	-59.045	55.488	201.499	-46.730	211.418	-50.044	147.511	184.958	62.401	102.963	133.089	0.0010251	0.00029929	0.00019073	1302.4	5.1229e-06	2.7507e-06	1304.5	363.37	8.2756e-06	4.8694e-06	414.15	137.97	120.33	40.528	6.8843e-06	50.786	0.00079716	0.00080675	0.00022479	1331	8.8187e-06	8.8258e-06	1330.6	373.14	8.8713e-06	8.9032e-06	428.79	142.54	125.05	42.304	8.8606e-06	52.943	83.017	-84.862	-80.806	-120.244	11.871	37.391	-120.553	-115.949	-31.448	37.080	-116.336	-112.408	-111.441	-107.215	15.832	-108.002	-8191	255	
3172.274	1	1	0	0	0.020922	0.13495	0.29402	0.36402	0.38179	0.27567	0.14875	0.36587	0.2537	0.28405	0.12197	0.28608	0.026041	0.37268	0.12182	0.070892	-1.2271	-1.9854	-1.2125	-1.9375	-1.8917	-1.2083	-2.2771	-1.7333	-1.4583	-2.0354	-1.5792	-1.7625	-2.0417	-1.45	-2.1208	-1.7917	117.406	2.167	77.115	199.201	-69.048	-119.749	91.724	128.423	-28.820	-67.516	157.738	217.746	-43.867	195.717	28.531	47.597	0.0010713	0.00037566	0.00019806	1302.5	5.4064e-06	1.2004e-05	1301.3	363.26	1.0361e-05	1.7116e-06	413.36	138.05	120.58	40.817	2.7676e-06	50.788	0.00081125	0.00081393	0.00022497	1330.5	8.8461e-06	8.9241e-06	1332	373.09	8.8754e-06	8.8979e-06	429.51	142.71	125.25	42.352	8.859e-06	53.092	82.473	-67.616	-48.420	-120.440	-51.178	-9.290	-120.647	-115.946	-16.278	92.068	-116.236	-112.429	-111.838	-106.906	-65.417	-107.813	-8191	255	
3172.370	1	1	0	0	0.030222	0.11081	0.15641	0.13611	0.17309	0.14881	0.28719	0.33199	0.23919	0.13436	0.31676	0.063199	0.11969	0.29974	0.18086	0.13264	-1.0146	-2.1896	-1.3542	-1.8	-2.1521	-1.2979	-2.0771	-1.9208	-1.325	-2.1354	-1.5562	-1.8312	-2.1312	-1.3958	-1.8396	-1.9833	40.010	-108.997	49.074	123.094	69.212	108.100	195.173	91.121	-65.688	96.308	-103.343	161.348	44.693	144.898	-20.791	104.308	0.0010339	0.00053041	0.00019741	1305.3	5.7506e-06	4.1221e-06	1296.5	364.87	8.5404e-06	5.7964e-06	417.61	137.75	120.51	40.774	5.1969e-06	50.501	0.00080742	0.0008188	0.00022591	1331	8.8851e-06	8.9723e-06	1329.6	373.15	8.8765e-06	8.9306e-06	430.53	142.5	125.3	42.275	8.9392e-06	52.883	88.713	-56.912	-61.363	-120.054	39.605	-5.970	-120.523	-115.662	-16.320	168.190	-116.383	-112.264	-111.866	-106.872	-14.338	-107.384	-8191	255	
3172.491	1	1	0	0	0.17842	0.20698	0.1099	0.11346	0.078272	0.21682	0.25398	0.20843	0.22226	0.017281	0.21907	0.072128	0.18775	0.2358	0.15398	0.085893	-0.825	-1.9521	-1.5729	-1.8167	-2.1021	-1.3	-2.2562	-1.9708	-1.1812	-2.3021	-1.5229	-1.5792	-2.3312	-1.3333	-1.8208	-1.9333	95.573	129.447	50.566	191.741	51.470	33.166	149.026	88.896	77.361	78.349	175.931	0.076	159.639	200.166	151.956	78.243	0.00086608	1.1827e-05	0.00014183	1302	7.5912e-06	7.2763e-06	1303.4	363.96	2.3581e-06	7.4178e-06	416.24	137.94	120.69	40.682	9.4851e-06	50.661	0.00081643	0.0008166	0.00022654	1328.8	8.8471e-06	8.9157e-06	1330.4	373.67	8.9528e-06	8.8795e-06	429.46	142.64	125.4	42.287	8.9075e-06	53.002	95.902	108.168	-51.579	-120.182	13.850	-49.387	-120.458	-115.860	209.879	51.316	-116.428	-112.156	-111.954	-107.053	-25.995	-107.856	-8191	255	
3172.585	1	1	0	0	0.24204	0.039596	0.15948	0.38618	0.11629	0.075113	0.29669	0.27323	0.040931	0.080539	0.34776	0.28661	0.21973	0.18617	0.10152	0.24966	-1.1333	-2.2625	-1.7146	-1.4833	-2.0646	-1.3396	-1.9292	-2.1771	-1.2208	-2.1354	-1.9646	-1.3333	-2.3312	-1.4625	-1.6125	-2.2062	182.206	126.852	-24.154	186.748	-59.478	94.099	199.043	139.552	118.569	-80.936	-119.395	214.685	225.056	156.180	115.190	-119.414	0.0012952	0.00070342	9.703e-05	1298.7	7.6177e-06	7.8167e-06	1301.1	362.68	6.0568e-06	6.5645e-06	414.14	138.19	120.43	40.73	3.9925e-06	50.891	0.00082281	0.00081556	0.0002281	1330.4	8.9386e-06	8.9483e-06	1331.9	373.36	8.8974e-06	8.9784e-06	429.62	142.82	125.24	42.407	8.8663e-06	53.067	80.848	-59.759	15.874	-120.251	-28.845	-5.439	-120.356	-115.969	-70.646	-127.899	-116.283	-112.234	-111.783	-107.103	-41.101	-107.814	-8191	255	
3172.682	1	1	0	0	0.22738	0.49166	0.16085	0.30227	0.10754	0.31391	0.10735	0.14871	0.17662	0.093308	0.13158	0.10572	0.063146	0.28331	0.11866	0.39458	-0.85417	-2.0292	-1.7875	-1.4396	-2.1646	-1.7083	-2.1042	-2.2896	-1.3167	-1.9021	-1.8542	-1.3583	-2.2938	-1.6042	-1.4562	-2.3396	-90.683	-47.821	67.984	187.665	151.523	-116.195	172.741	163.589	185.651	215.477	167.577	116.107	167.551	-118.482	90.146	158.479	0.0011409	0.00045483	7.4303e-05	1304.4	1.9281e-06	4.9635e-06	1303.3	363.89	1.0395e-05	4.1167e-06	414.5	138.4	120.28	40.815	2.7312e-06	50.753	0.00080763	0.00081798	0.00022796	1331.4	8.8856e-06	8.9784e-06	1334.3	373.49	8.857e-06	8.9082e-06	429.58	142.75	125.44	42.347	8.8723e-06	53.046	85.897	209.654	-97.627	-120.247	-73.049	107.152	-120.528	-115.890	-16.686	18.180	-116.581	-112.244	-111.907	-106.914	-4.114	-107.913	-8191	255	
3172.779	1	1	0	0	0.33103	0.23097	0.22282	0.051877	0.02724	0.14693	0.34681	0.3248	0.14165	0.2359	0.27638	0.27796	0.11118	0.28612	0.11614	0.15188	-0.94583	-1.9583	-1.6562	-1.5229	-2.2042	-1.5021	-1.6646	-2.3708	-1.2271	-1.9208	-1.9729	-1.3792	-2.1771	-1.7313	-1.5667	-2.3396	-22.594	19.771	-125.259	152.293	113.940	141.768	-119.831	143.864	7.806	73.669	-105.383	196.778	-28.874	159.198	-32.150	90.281	0.00093509	0.00095221	0.00023416	1299.7	4.1504e-06	9.6112e-06	1301.5	363.98	5.1053e-06	8.909e-06	415.32	138.15	120.34	40.745	1.048e-05	50.906	0.00081485	0.00081969	0.00022675	1331.5	8.8955e-06	8.822e-06	1330.9	373.65	8.8442e-06	8.896e-06	429.38	142.55	125.3	42.305	8.7408e-06	53.066	97.434	-30.712	-83.780	-120.387	-126.207	27.128	-120.354	-115.678	-26.374	22.056	-116.254	-112.041	-111.758	-107.092	-13.260	-107.685	-8191	255	
3172.874	1	1	0	0	0.27942	0.12308	0.055228	0.49583	0.10603	0.10284	0.096752	0.19556	0.082821	0.20046	0.18407	0.40188	0.24999	0.39304	0.21594	0.12542	-0.86875	-1.8771	-2.0021	-1.2812	-2.0833	-1.8854	-1.7708	-2.1729	-1.45	-1.675	-1.9083	-1.3312	-2.05	-1.9708	-1.2812	-2.25	18.538	15.989	-8.769	143.910	-7.461	-70.187	153.305	95.393	92.825	113.482	217.101	168.707	-89.456	-133.093	105.803	-84.858	0.0009237	0.00024252	0.00015864	1302.5	1.0652e-05	4.637e-06	1299.1	364.08	1.1011e-05	2.3663e-06	415.02	138.23	121.26	40.778	6.1831e-07	50.624	0.00079825	0.00080653	0.0002237	1328.7	8.7651e-06	8.7937e-06	1329.9	373.33	8.7292e-06	8.71e-06	429.18	142.46	125.26	42.23	8.7e-06	52.884	101.763	-64.527	-39.671	-119.959	8.021	44.526	-120.409	-115.686	-93.058	170.991	-116.080	-112.281	-111.541	-106.559	79.547	-107.355	-8191	255	
3172.970	1	1	0	0	0.24256	0.091203	0.35693	0.27926	0.082203	0.12004	0.40856	0.25919	0.12865	0.3105	0.071414	0.20608	0.22551	0.10223	0.02493	0.069766	-1.0688	-1.8229	-2.0438	-1.5042	-1.9229	-1.8813	-1.6396	-2.4583	-1.5604	-1.5229	-2.0563	-1.4417	-1.8271	-1.9979	-1.4062	-2.1854	212.465	119.410	99.904	126.179	-24.843	4.597	198.089	-75.886	-128.652	199.416	57.115	-109.681	224.722	-64.229	124.930	-11.434	0.0013612	0.00019171	5.6283e-05	1299.8	2.2831e-06	5.5904e-06	1299.6	362.88	9.7331e-06	6.4179e-06	415.71	137.23	120.37	40.706	4.3856e-06	50.924	0.00079399	0.00079981	0.00022432	1327.5	8.6247e-06	8.7267e-06	1328.8	372.4	8.6155e-06	8.6279e-06	428.28	141.98	125.02	42.24	8.6556e-06	52.934	80.037	3.471	-99.054	-120.094	-62.728	46.542	-120.354	-115.330	-67.608	4.769	-116.052	-111.867	-111.218	-106.539	-17.271	-107.216	-8191	255	
3173.091	1	1	0	0	0.16926	0.22225	0.1056	0.28159	0.076223	0.20769	0.20147	0.36572	0.38085	0.24549	0.1581	0.20467	0.37201	0.12185	0.19316	0.36245	-1.2771	-1.325	-2.1292	-1.5375	-1.7	-1.9604	-1.5979	-2.2354	-1.6333	-1.5042	-2.0812	-1.7417	-1.9896	-2.1146	-1.2792	-2.3521	-78.418	83.586	128.155	199.169	12.353	-23.873	128.612	209.024	-33.019	131.809	-66.330	130.128	25.159	136.906	152.249	146.154	0.00086147	0.00030594	9.4163e-05	1301.3	7.1939e-06	4.8267e-06	1303.3	364.09	8.9355e-06	5.3916e-06	415.55	137.24	119.24	40.666	7.9637e-06	50.614	0.00079064	0.0007905	0.00022018	1326.5	8.6145e-06	8.7032e-06	1328.4	372.3	8.5645e-06	8.6141e-06	427.33	142.07	124.62	42.211	8.5588e-06	52.797	79.178	226.136	-41.886	-119.552	-14.572	-28.760	-120.122	-115.492	5.816	-24.077	-116.348	-112.384	-111.763	-106.912	118.347	-107.653	-8191	255	
3173.187	1	1	0	0	0.27828	0.14769	0.17187	0.25101	0.14246	0.15962	0.11449	0.27703	0.24359	0.18087	0.15489	0.30006	0.29123	0.15465	0.12504	0.094412	-1.2854	-1.4271	-2.1667	-1.6063	-1.6187	-2.1	-1.3958	-2.0104	-1.8146	-1.3354	-2.2771	-1.6667	-1.4292	-2.1229	-1.3771	-2.0667	202.649	204.967	203.981	154.398	91.568	160.199	219.535	206.936	205.177	63.782	-129.712	159.790	-120.207	150.220	210.275	201.758	0.0010958	0.00025591	0.00021146	1294.9	5.3464e-06	1.2193e-06	1301.4	362.84	7.722e-06	1.0924e-05	412.96	137.62	120.38	40.743	3.7407e-06	50.46	0.00079233	0.00079383	0.00021965	1325.3	8.5787e-06	8.5497e-06	1326.4	372.34	8.5211e-06	8.5886e-06	427.06	142.08	124.62	42.171	8.5377e-06	52.783	84.592	184.106	-89.419	-120.526	-102.454	41.185	-120.714	-115.890	-67.825	13.419	-116.392	-112.189	-111.619	-106.893	-93.554	-107.606	-8191	255	
3173.283	1	1	0	0	0.16449	0.024904	0.1405	0.23796	0.060773	0.13719	0.29212	0.049382	0.24012	0.15319	0.22354	0.13344	0.15781	0.18098	0.074494	0.28354	-1.4646	-1.4479	-2.0375	-1.6021	-1.5562	-2.0708	-1.2167	-1.8563	-1.8937	-1.4646	-2.1521	-1.6479	-1.4896	-2.2625	-1.475	-1.95	-105.543	-110.067	207.222	215.270	114.822	185.961	89.700	25.429	90.419	2.227	-117.438	94.052	203.702	114.313	-125.896	198.913	0.00090305	0.00037285	0.00015626	1297.6	9.6697e-06	2.9384e-06	1297.9	362.31	3.4276e-06	4.8901e-07	412.32	136.83	119.92	40.742	9.8359e-06	50.529	0.00077688	0.00078334	0.00021696	1323.5	8.4714e-06	8.6119e-06	1323.6	371.39	8.4498e-06	8.4205e-06	426.12	141.76	124.36	42.13	8.3563e-06	52.693	85.616	-66.012	-102.927	-120.277	-41.690	-12.612	-120.308	-115.646	189.647	176.175	-116.280	-112.003	-111.574	-106.911	-26.557	-107.629	-8191	255	
3173.379	1	1	0	0	0.13079	0.21223	0.14165	0.34491	0.20996	0.14334	0.19736	0.15559	0.30901	0.1667	0.11232	0.12334	0.030019	0.34383	0.25863	0.14803	-1.6271	-1.3333	-2.1292	-1.8208	-1.3229	-2.3583	-1.5375	-1.8729	-1.9312	-1.25	-2.0458	-1.8062	-1.3542	-2.1125	-1.2625	-1.7479	-100.483	221.044	45.727	212.330	217.150	-59.692	136.644	-126.090	178.819	-132.240	36.507	145.501	-94.771	170.399	0.968	141.132	0.00098458	0.00067317	0.00029977	1294.2	1.0642e-05	4.3365e-06	1295.1	363.53	1.0006e-05	6.9354e-06	413.58	137.27	120.11	40.482	7.7957e-06	50.296	0.00076833	0.00077076	0.00021527	1321.6	8.3651e-06	8.3914e-06	1322.1	371.42	8.3258e-06	8.4276e-06	425.92	141.62	124.36	42.01	8.3348e-06	52.655	84.238	218.506	-86.481	-120.330	-9.158	33.373	-120.507	-115.691	-91.755	15.610	-116.222	-112.315	-111.870	-106.908	22.069	-107.096	-8191	255	
3173.500	1	1	0	0	0.34291	0.27249	0.19918	0.36744	0.087528	0.15796	0.15249	0.1782	0.13745	0.20648	0.21749	0.28288	0.22715	0.24602	0.16809	0.1194	-1.6812	-1.2479	-1.9583	-2.0271	-1.2667	-2.1083	-1.8146	-1.7083	-2.1813	-1.5333	-1.9896	-1.9688	-1.2208	-2.3917	-1.7167	-1.7625	24.421	-3.615	-9.515	200.830	161.340	-64.913	120.362	-120.468	120.984	-47.702	-39.096	192.008	-47.043	1.560	200.603	90.177	0.0010681	0.00070951	4.4769e-05	1296.7	6.634e-06	5.1919e-06	1293	362.02	6.1037e-06	9.8078e-06	413.24	136.68	119.77	40.466	6.1059e-06	50.325	0.00076349	0.00077203	0.0002121	1320.6	8.292e-06	8.2901e-06	1320	370.54	8.266e-06	8.3614e-06	425.39	141.28	124.2	41.97	8.2452e-06	52.429	86.084	-62.262	-92.521	-120.396	-100.046	17.784	-120.436	-115.698	8.990	-1.023	-116.266	-112.309	-111.590	-106.736	11.291	-107.443	-8191	255	
3173.571	1	1	0	0	0.40418	0.23554	0.19991	0.30822	0.16125	0.30677	0.28546	0.36458	0.19724	0.21114	0.18021	0.21859	0.079158	0.12938	0.15558	0.22502	-1.8458	-1.4167	-1.7646	-1.9479	-1.5146	-2.175	-1.8146	-1.6667	-2.2354	-1.3083	-1.9312	-2.1146	-1.2833	-2.2042	-1.5812	-1.6562	-13.368	-55.481	143.230	-62.038	119.749	167.491	155.692	210.971	106.475	24.687	-81.971	-132.296	-95.444	4.872	38.555	172.299	0.0010889	0.0003296	0.0003186	1291.6	1.2328e-05	1.3171e-05	1292.3	360.99	4.2349e-06	7.8788e-06	411.2	136.35	119.28	40.413	5.9251e-06	50.241	0.0007502	0.00075577	0.00020991	1315.8	8.215e-06	8.218e-06	1315.9	369.32	8.1399e-06	8.14e-06	423.77	140.85	123.68	41.829	8.0877e-06	52.23	90.528	-78.900	-66.352	-120.056	-11.455	8.123	-120.531	-115.580	-50.808	5.520	-116.001	-112.253	-111.571	-106.533	-38.000	-107.192	-8191	255	
3173.668	1	1	0	0	0.20769	0.045072	0.21079	0.092652	0.30793	0.29213	0.32194	0.28284	0.20651	0.15158	0.018297	0.29518	0.27438	0.08742	0.12226	0.30291	-1.8396	-1.4208	-1.6146	-2.3	-1.3917	-1.9979	-1.8438	-1.5708	-2.0687	-1.6	-1.825	-2.3417	-1.3792	-2.2042	-1.9479	-1.4125	93.833	-63.853	220.036	-3.979	123.378	214.778	212.600	132.965	-95.903	-121.901	-17.110	-83.656	166.198	106.963	145.476	-113.455	0.0008803	0.00028403	1.7566e-06	1283.5	6.931e-06	8.6247e-06	1278.9	357.6	7.7786e-06	7.9061e-06	409.27	136.12	118.71	40.182	4.1462e-06	49.894	0.00073761	0.00073333	0.00020542	1308.1	7.9809e-06	7.9762e-06	1305.1	366.98	7.9048e-06	7.9021e-06	421.58	139.98	122.66	41.555	7.8102e-06	51.818	86.421	-91.572	177.339	-120.121	-0.452	128.042	-120.410	-115.327	-79.143	27.293	-116.066	-112.199	-111.348	-106.566	-46.453	-107.417	-8191	255	
3173.762	1	1	0	0	0.20806	0.32077	0.14975	0.36071	0.18807	0.14617	0.31969	0.40098	0.18357	0.4679	0.17408	0.33178	0.27566	0.23915	0.27733	0.2624	-1.6875	-1.4667	-1.5562	-2.3563	-1.325	-1.9146	-2.1146	-1.5042	-1.9917	-1.6833	-1.5604	-2.3646	-1.4583	-1.8458	-2.0771	-1.5	128.363	-52.823	-58.138	-124.728	116.895	-14.038	124.869	187.704	104.138	89.109	178.437	197.685	168.006	-1.367	25.580	139.553	0.001278	0.00070338	7.1239e-05	1271.8	6.1188e-06	4.1708e-06	1274.6	356.69	7.6787e-06	8.9711e-06	407.62	135.44	117.52	40.011	2.3485e-06	49.803	0.00071393	0.00071292	0.00019791	1296.5	7.7499e-06	7.8206e-06	1299.9	365.13	7.7503e-06	7.7327e-06	418.79	139.27	121.94	41.389	7.7035e-06	51.626	85.511	-35.146	91.439	-119.933	-48.320	31.498	-120.557	-115.799	51.024	-14.814	-116.210	-112.252	-111.877	-106.519	-77.945	-107.495	-8191	255	
3173.883	1	1	0	0	0.014559	0.16592	0.023388	0.26996	0.37306	0.17084	0.14702	0.30235	0.096893	0.19726	0.10161	0.12942	0.07267	0.27829	0.18476	0.11934	-1.6271	-1.6646	-1.5854	-2.4417	-1.325	-1.7812	-2.0104	-1.3021	-2.2	-1.8667	-1.4917	-2.2417	-1.4875	-1.7521	-2.1125	-1.3479	-53.416	13.424	201.160	217.493	130.834	-15.855	-132.453	162.320	-13.175	137.705	-17.212	173.884	139.182	213.657	64.360	181.690	0.0011675	3.4837e-05	7.411e-05	1263.1	9.0772e-06	3.0648e-06	1272.3	356.34	4.1896e-06	8.3182e-06	407.39	135.13	117.81	40.047	3.7291e-06	49.683	0.00070282	0.00069839	0.00019524	1293	7.7684e-06	7.6652e-06	1295.6	363.8	7.5959e-06	7.7073e-06	418.12	139.06	121.58	41.392	7.6965e-06	51.497	87.735	-12.138	-65.351	-120.015	-17.347	-48.440	-120.089	-115.504	-5.616	23.704	-116.103	-111.997	-111.666	-106.511	-35.492	-107.224	-8191	255	
3173.979	1	1	0	0	0.076603	0.13407	0.18906	0.39442	0.37147	0.077488	0.28309	0.17341	0.11618	0.11289	0.2037	0.17547	0.1212	0.2018	0.19339	0.29469	-1.5625	-1.675	-1.1792	-2.1375	-1.3083	-1.5812	-2.2333	-1.3479	-2.1792	-2.0354	-1.4271	-2.3	-1.6771	-1.5229	-2.1688	-1.4104	10.107	-58.179	22.580	165.199	-23.566	-31.045	-117.377	165.410	178.206	30.112	178.082	38.180	-47.208	188.791	70.687	225.135	0.0010092	0.00045848	0.00014891	1263.6	6.1249e-06	4.363e-06	1267.9	355.43	1.2507e-05	5.5283e-06	409.24	134.99	117.91	39.843	4.7087e-06	49.654	0.00070487	0.00070289	0.00019689	1290.6	7.6791e-06	7.7568e-06	1294.7	363.39	7.636e-06	7.6711e-06	418.02	138.95	121.64	41.286	7.6675e-06	51.554	75.858	-30.344	-60.695	-120.206	-66.494	-0.559	-120.343	-115.509	9.372	21.521	-115.969	-112.022	-111.748	-106.677	-15.108	-107.393	-8191	255	
3174.075	1	1	0	0	0.19756	0.1567	0.0084397	0.2522	0.18025	0.21326	0.46389	0.2842	0.25198	0.13221	0.26644	0.14362	0.21646	0.19885	0.27593	0.34303	-1.6125	-1.875	-1.3458	-2.3271	-1.475	-1.4188	-2.4208	-1.375	-1.7958	-2.0958	-1.3188	-2.2438	-1.7625	-1.6542	-2.1604	-1.5063	-17.920	-123.406	220.402	127.910	-101.901	204.732	129.870	172.486	205.574	-18.680	223.805	131.123	87.100	147.782	56.128	182.173	0.0012113	0.00066883	0.00013821	1269.2	5.735e-06	4.1576e-06	1265.4	353.86	7.6585e-06	7.1179e-06	406.65	134.94	118.26	39.862	9.8632e-06	49.382	0.00070361	0.00069731	0.0001945	1291.6	7.6367e-06	7.7655e-06	1290.7	362.41	7.5741e-06	7.721e-06	417.79	138.64	121.58	41.296	7.6166e-06	51.453	88.148	-75.786	-63.187	-120.111	35.374	-52.686	-120.551	-115.547	-75.154	-5.698	-115.751	-112.024	-111.749	-106.700	-37.254	-107.635	-8191	255	
3174.171	1	1	0	0	0.30171	0.18562	0.24416	0.060134	0.23499	0.077044	0.34213	0.39674	0.38659	0.05733	0.13647	0.31288	0.22342	0.064598	0.069447	0.17177	-1.4312	-2.0667	-1.3229	-2.0771	-1.7583	-1.4875	-2.3208	-1.7333	-1.6917	-1.9646	-1.45	-2.0333	-1.8354	-1.625	-2.1771	-1.5625	-28.690	113.508	-47.475	131.852	60.295	141.388	211.603	165.869	77.097	11.856	44.588	193.864	-128.425	9.389	21.328	121.767	0.001157	0.00060069	0.00021778	1265.5	6.4274e-06	5.4502e-06	1272.3	355.79	3.772e-06	5.5438e-06	404.9	134.36	117.24	39.823	6.9954e-06	49.668	0.00071098	0.00070294	0.00019591	1287.8	7.7239e-06	7.7452e-06	1293.5	362.98	7.7109e-06	7.8042e-06	416.56	138.47	121.31	41.247	7.6272e-06	51.487	95.310	-49.775	-28.000	-120.312	30.739	28.095	-120.554	-115.713	-97.402	81.786	-116.437	-112.462	-112.106	-106.893	-4.233	-107.876	-8191	255	
3174.267	1	1	0	0	0.27677	0.31415	0.13647	0.19043	0.12533	0.14811	0.034074	0.28139	0.096372	0.073576	0.32535	0.28702	0.24953	0.40872	0.21871	0.20544	-1.3312	-2.0875	-1.0875	-1.975	-1.9583	-1.3146	-2.0521	-1.9688	-1.5521	-2.1979	-1.4625	-1.9583	-1.9896	-1.4896	-2.2938	-1.7583	-58.600	-67.754	-70.701	178.134	-83.581	112.731	130.362	191.744	196.803	6.186	188.324	224.564	82.880	-113.235	-41.979	217.463	0.0011509	0.0002068	5.6763e-05	1264.3	1.2128e-05	5.7781e-06	1268	354.96	4.9647e-06	6.8363e-06	404.51	134.97	117.65	39.748	1.0534e-05	49.678	0.00071125	0.0007121	0.00019956	1287.3	7.8091e-06	7.7689e-06	1291.5	362.89	7.7416e-06	7.7872e-06	417.66	138.76	121.51	41.206	7.7124e-06	51.567	78.108	-39.005	174.759	-120.410	-38.991	95.924	-120.637	-115.865	-103.504	-9.009	-116.405	-112.339	-111.969	-106.686	6.464	-107.873	-8191	255	
3174.363	1	1	0	0	0.16202	0.10732	0.12988	0.20286	0.13356	0.089535	0.36084	0.36908	0.42973	0.20806	0.20778	0.25622	0.2706	0.19661	0.22693	0.17127	-1.0562	-2.0792	-1.3229	-1.8958	-2.0292	-1.3729	-2.3167	-1.8937	-1.3917	-2.1333	-1.5104	-1.6104	-2.2625	-1.3979	-1.9521	-2.0375	84.500	-88.653	219.123	167.829	164.190	203.371	152.271	123.591	45.963	-130.497	132.323	166.778	218.764	163.101	-28.993	115.441	0.00087593	0.00052591	0.00020187	1262.7	1.009e-05	1.0501e-05	1269.1	354.46	1.0689e-05	4.735e-06	405.66	134.53	117.3	39.824	5.7889e-07	49.514	0.00071433	0.00071498	0.00019868	1288.1	7.7828e-06	7.8433e-06	1293.7	363.34	7.8573e-06	7.9529e-06	417.12	138.75	121.59	41.26	7.8868e-06	51.507	80.391	-61.002	-75.625	-120.236	-36.379	53.394	-120.629	-116.002	-45.365	-1.748	-116.373	-112.490	-112.255	-106.931	-110.050	-107.889	-8191	255	
3174.459	1	1	0	0	0.21847	0.25074	0.14419	0.27624	0.11992	0.13178	0.37934	0.082745	0.045653	0.098047	0.04266	0.042297	0.18058	0.34225	0.12449	0.15674	-0.95	-2.0542	-1.3937	-1.8354	-2.1104	-1.3208	-2.1688	-2.0125	-1.3021	-2.2333	-1.5333	-1.6187	-2.2417	-1.3229	-1.9375	-1.9271	200.909	148.300	-58.782	173.059	194.503	130.813	165.451	129.730	203.415	-79.099	202.193	130.356	121.680	221.613	-32.650	209.380	0.001182	0.00055076	0.00020061	1264.1	5.7681e-06	4.094e-06	1262	355.55	8.4341e-06	5.8985e-06	405.12	134.25	116.71	39.8	5.1864e-06	49.576	0.00071855	0.00071384	0.00020069	1289.7	7.8804e-06	7.8989e-06	1291	363.31	7.8861e-06	7.9135e-06	417.59	138.75	121.36	41.27	7.935e-06	51.522	96.241	-99.609	-69.316	-120.291	11.052	24.070	-120.849	-116.029	-43.758	-3.007	-116.788	-112.244	-111.821	-106.815	-118.045	-107.922	-8191	255	
3174.580	1	1	0	0	0.13445	0.097795	0.19797	0.35963	0.1807	0.22266	0.34963	0.085901	0.13512	0.53717	0.071548	0.39545	0.24013	0.25522	0.11782	0.38295	-0.86875	-2.0812	-1.5562	-1.6458	-2.2438	-1.3438	-2.0521	-2.1708	-1.3104	-1.9792	-1.7896	-1.4958	-2.325	-1.5812	-1.7792	-2.1771	55.778	-28.368	33.465	-76.720	223.866	-24.683	161.989	92.319	112.133	171.900	97.160	95.619	-118.237	210.477	-104.642	130.231	0.0010245	0.0011188	0.00024232	1262.8	4.5714e-06	2.4244e-06	1270.1	354.93	4.4213e-06	4.728e-06	407.3	134.04	118.08	40.056	2.5881e-06	49.519	0.0007189	0.00072251	0.00020204	1289.2	7.9101e-06	7.9463e-06	1294	363.08	7.9326e-06	7.9716e-06	418.24	138.6	121.77	41.32	7.9304e-06	51.577	82.425	-42.996	-47.951	-120.341	29.036	-45.211	-120.566	-115.960	-5.226	134.800	-116.718	-112.365	-112.052	-106.977	7.383	-107.994	-8191	255	
3174.674	1	1	0	0	0.13828	0.11001	0.22146	0.17674	0.062684	0.3283	0.14236	0.25766	0.25779	0.3161	0.33349	0.088932	0.21786	0.20564	0.067877	0.20584	-0.95208	-2.0229	-1.6646	-1.6229	-2.2604	-1.2979	-1.8375	-2.4021	-1.325	-2.0729	-1.8042	-1.4542	-2.3063	-1.6917	-1.6729	-2.2562	194.401	-130.039	158.748	-10.687	97.820	67.149	137.847	135.887	218.362	-25.230	140.448	-128.439	151.471	-93.200	107.451	209.192	0.0010623	0.00046011	0.00012306	1270	2.8518e-06	1.0299e-05	1263.9	354.34	6.1331e-06	9.0805e-06	405.14	134.73	116.98	39.635	1.0714e-06	49.499	0.00072579	0.00072376	0.00020199	1292.1	7.9094e-06	7.9788e-06	1292.8	363.21	7.9148e-06	7.9622e-06	417.35	138.79	121.53	41.183	7.8585e-06	51.464	84.460	-56.454	-17.982	-120.336	-95.856	4.437	-120.619	-115.896	-9.394	-18.814	-116.543	-112.348	-112.214	-106.973	105.321	-107.633	-8191	255	
3174.771	1	1	0	0	0.19827	0.19355	0.12362	0.10897	0.10189	0.07654	0.22294	0.27204	0.24472	0.096489	0.19346	0.12247	0.15001	0.14028	0.16176	0.11027	-0.83542	-2.0208	-1.7708	-1.5688	-2.1229	-1.5625	-1.6187	-2.325	-1.3312	-1.7729	-1.9875	-1.2542	-2.3396	-1.8208	-1.3604	-2.2896	207.294	34.341	144.294	-119.438	-131.855	64.987	165.576	211.701	188.623	-13.312	118.395	113.863	225.654	198.392	114.043	122.769	0.00087878	0.00016468	0.00018775	1265.4	1.0468e-05	2.5792e-06	1270	353.58	7.2909e-06	1.4171e-05	402.66	134.3	117.37	39.728	3.8226e-06	49.657	0.00072058	0.00071475	0.00020195	1289.7	7.8779e-06	7.8705e-06	1295.5	362.75	7.8499e-06	7.8533e-06	416.53	138.59	121.37	41.182	7.8772e-06	51.482	81.076	-76.841	-95.542	-120.269	-33.739	47.153	-120.725	-115.862	-15.444	72.897	-116.626	-112.547	-111.774	-106.712	52.071	-107.864	-8191	255	
3174.867	1	1	0	0	0.063438	0.21206	0.28702	0.038234	0.28528	0.029357	0.15363	0.066899	0.095797	0.084002	0.078515	0.10158	0.18747	0.10174	0.20603	0.18558	-0.82292	-1.8354	-2.2375	-1.5125	-2.1333	-1.6042	-1.6396	-2.2229	-1.3417	-1.6271	-2.0958	-1.5417	-2.1146	-1.7667	-1.3333	-2.4146	-13.640	-90.350	-130.909	-60.486	150.178	51.049	157.170	140.137	83.803	101.538	-83.981	-45.607	161.942	-50.349	173.010	170.429	0.0011884	0.00054999	0.0002214	1268.1	3.149e-06	4.3506e-06	1267.2	354.8	1.1806e-05	7.4998e-06	405.76	134.29	117.06	39.937	8.7942e-06	49.576	0.00072396	0.0007135	0.00020085	1289.5	7.7372e-06	7.8752e-06	1291.9	363.19	7.7735e-06	7.8585e-06	417.11	138.57	121.43	41.191	7.7817e-06	51.501	87.098	-97.950	-95.782	-120.193	-26.154	2.811	-120.530	-115.891	-71.211	2.839	-116.261	-112.577	-111.864	-106.939	-50.750	-107.538	-8191	255	
3174.963	1	1	0	0	0.16536	0.30395	0.07997	0.10929	0.014622	0.20945	0.4183	0.34967	0.21897	0.1186	0.30983	0.17439	0.20019	0.29963	0.32178	0.17199	-0.96458	-1.7188	-2.0917	-1.4562	-1.9229	-1.7354	-1.5354	-2.3542	-1.4396	-1.7125	-2.2687	-1.5792	-2.1104	-1.9438	-1.2917	-2.0563	100.901	-116.225	113.822	184.595	52.937	91.291	138.737	205.466	116.105	-113.548	-109.301	166.461	203.549	70.618	44.524	162.028	0.0012279	0.0005373	0.00022908	1262	1.127e-05	9.3099e-06	1263.2	355.03	4.9724e-06	7.6039e-06	404.2	133.76	117.14	39.862	4.975e-06	49.709	0.00071141	0.00070605	0.0001988	1287.3	7.8978e-06	7.8724e-06	1290.3	363.26	7.8797e-06	7.8592e-06	417.02	138.35	121.25	41.117	7.8279e-06	51.59	86.223	-61.764	-18.189	-120.266	34.436	47.285	-120.440	-115.697	79.464	36.093	-116.493	-112.657	-111.739	-106.844	-9.419	-107.767	-8191	255	
3175.059	1	1	0	0	0.20842	0.13989	0.13652	0.14177	0.2657	0.26484	0.36517	0.2591	0.058456	0.24529	0.14031	0.18073	0.11074	0.056804	0.18482	0.10572	-1.2042	-1.4083	-2.0333	-1.4125	-1.7229	-2.1875	-1.3771	-2.2333	-1.6354	-1.4354	-2.2646	-1.2292	-1.775	-2.0771	-1.25	-2.0687	191.933	113.415	11.692	-108.105	86.879	79.504	189.167	189.364	205.433	52.057	72.922	204.737	50.775	-81.208	192.425	-106.447	0.0010993	0.00020085	0.00024939	1265.5	1.0378e-05	5.5864e-06	1260.8	355.34	2.6863e-06	6.7322e-06	404.71	134.17	117.26	39.746	4.8552e-06	49.406	0.00071233	0.00071237	0.00019704	1287.4	7.83e-06	7.8555e-06	1290.6	363.04	7.7594e-06	7.7281e-06	415.88	138.49	121.55	41.185	7.8108e-06	51.412	90.612	-113.009	-25.147	-120.327	-35.032	-6.090	-120.652	-115.835	125.399	-24.821	-116.298	-112.363	-111.566	-107.068	-28.312	-107.353	-8191	255	
3175.180	1	1	0	0	0.086135	0.22568	0.057617	0.5352	0.19608	0.20413	0.29609	0.069358	0.14986	0.15935	0.21655	0.11599	0.25046	0.051907	0.14979	0.20015	-1.3625	-1.35	-2.2625	-1.4188	-1.6896	-1.975	-1.5312	-2.2687	-1.7229	-1.3104	-2.1229	-1.6292	-1.7979	-2.2792	-1.3062	-2.0708	82.742	-125.597	187.041	205.571	-54.824	-57.790	203.024	158.233	179.769	44.416	168.940	-19.992	222.968	-9.319	214.553	-110.030	0.0011794	0.00010512	0.00018143	1263.7	3.3249e-06	3.3617e-06	1263.7	354.47	6.6693e-06	5.198e-06	405.19	133.89	117.46	39.755	6.8292e-06	49.246	0.00071069	0.0007041	0.00019984	1285.7	7.6985e-06	7.7168e-06	1290.8	362.58	7.6807e-06	7.7624e-06	416.36	138.3	121.18	41.138	7.7215e-06	51.299	86.070	-133.191	-30.243	-120.048	-46.313	35.271	-120.485	-115.772	-54.807	15.446	-116.173	-112.272	-111.420	-106.988	-0.321	-107.516	-8191	255	
3175.276	1	1	0	0	0.19229	0.10076	0.083195	0.090367	0.18715	0.33716	0.10588	0.14154	0.071412	0.059975	0.13734	0.14345	0.25863	0.22918	0.1887	0.11245	-1.4917	-1.4979	-2.1125	-1.7146	-1.5729	-2.2104	-1.5833	-2.1854	-1.7896	-1.1958	-2.4042	-1.6396	-1.3813	-2.2417	-1.1875	-1.9958	205.267	47.623	89.172	-78.891	57.730	187.469	-21.265	157.525	102.168	38.704	141.466	-71.789	-121.373	181.887	-67.376	-41.079	0.00090139	0.00048382	0.00014412	1262.1	5.5005e-07	2.0333e-06	1257.6	352.43	9.4132e-06	1.2296e-05	407.18	134.34	117.19	39.78	1.2298e-05	49.372	0.00071282	0.00071856	0.00019977	1285.7	7.821e-06	7.7977e-06	1287.5	361.76	7.754e-06	7.7978e-06	416.56	138.38	121.27	41.174	7.8735e-06	51.473	77.304	-22.810	-36.690	-120.245	-103.697	20.060	-120.622	-115.730	-48.177	61.545	-116.268	-112.168	-111.582	-106.842	18.926	-107.835	-8191	255	
3175.372	1	1	0	0	0.086492	0.43392	0.099336	0.34515	0.11598	0.17431	0.1517	0.25018	0.071879	0.2134	0.1051	0.090785	0.37603	0.05499	0.1916	0.04103	-1.5771	-1.2417	-1.9271	-1.8146	-1.4562	-2.1604	-1.4021	-1.9396	-2.0812	-1.1812	-2.1292	-1.9083	-1.4625	-2.325	-1.2812	-1.7896	188.368	128.324	108.813	-119.038	55.015	-4.985	136.529	169.184	99.380	123.799	116.787	-61.964	84.864	177.677	59.553	221.206	0.0010141	0.00021629	0.00017487	1264.7	1.0182e-05	1.3218e-06	1265.6	353.9	5.5212e-06	4.9971e-06	404.85	133.79	117.01	39.803	4.6868e-06	49.168	0.00071343	0.00070524	0.00020062	1286.2	7.7653e-06	7.7329e-06	1288.6	361.98	7.7537e-06	7.7902e-06	416.15	138.13	121.17	41.131	7.7253e-06	51.331	88.675	224.602	-81.233	-120.272	-50.045	18.271	-120.446	-115.898	-83.520	47.908	-116.447	-112.601	-111.870	-107.003	54.720	-107.499	-8191	255	
3175.444	1	1	0	0	0.25534	0.051342	0.30154	0.31357	0.084329	0.10953	0.34184	0.067885	0.073103	0.33074	0.17394	0.056424	0.052856	0.01892	0.14955	0.20445	-1.7896	-1.1375	-2.0375	-2.05	-1.2896	-2.1583	-1.5688	-1.6812	-2.0479	-1.3292	-1.9792	-1.8771	-1.4479	-1.9937	-1.4042	-1.6313	146.169	198.994	209.807	164.115	151.533	-34.342	141.298	89.995	213.405	55.553	-128.879	-47.398	66.100	-11.853	-92.116	122.922	0.001014	0.00011458	0.00023809	1260.6	8.633e-06	5.6105e-06	1258.6	354.3	5.9067e-06	7.6325e-06	404.07	133.87	116.91	39.701	6.7845e-06	49.694	0.00071134	0.0007088	0.00019945	1284.5	7.6968e-06	7.7048e-06	1287.1	362.22	7.7114e-06	7.7848e-06	416.79	138.03	121.04	41.173	7.6943e-06	51.332	102.810	-14.779	-44.196	-120.349	-45.897	108.123	-120.706	-115.679	-124.816	-13.619	-116.155	-112.365	-111.698	-106.626	45.083	-107.778	-8191	255	
3175.564	1	1	0	0	0.079105	0.22927	0.031663	0.50032	0.32616	0.20829	0.20443	0.18222	0.044721	0.011866	0.39566	0.33446	0.26971	0.12203	0.24919	0.30971	-1.6583	-1.0208	-1.7542	-2.1021	-1.0271	-2.0021	-1.7667	-1.4646	-2.2562	-1.45	-1.9396	-2.1813	-1.3417	-2.2104	-1.6625	-1.4062	170.217	43.083	170.439	196.501	141.322	-78.368	213.026	220.865	3.012	134.910	220.537	196.723	70.917	8.490	172.401	-90.588	0.00083157	0.00034824	0.00014911	1258.8	6.2649e-06	8.1481e-06	1261.6	354.18	7.303e-06	6.3801e-06	404.92	134.19	117.5	39.817	2.4219e-06	49.516	0.00070848	0.00070141	0.00019853	1283.8	7.6836e-06	7.7709e-06	1287.5	361.96	7.7412e-06	7.7719e-06	416.07	138.28	121.38	41.153	7.7753e-06	51.363	99.296	-71.999	-47.090	-120.390	-31.526	-37.784	-120.583	-115.619	-79.802	-46.022	-116.513	-112.223	-111.453	-106.818	-100.579	-107.263	-8191	255	
3175.659	1	1	0	0	0.16936	0.067318	0.1261	0.43385	0.21243	0.0074265	0.045624	0.21396	0.20835	0.20789	0.34099	0.18802	0.16977	0.16741	0.17992	0.10277	-1.7104	-1.2521	-1.8417	-2.0812	-1.2646	-2.0875	-1.9396	-1.5875	-2.1063	-1.2958	-1.6792	-2.1354	-1.4375	-2.1937	-1.7687	-1.3458	8.322	-46.042	188.217	149.066	21.844	176.821	-96.892	-120.771	-44.347	2.828	-121.496	161.616	-120.383	-127.682	75.384	101.059	0.00097615	0.00035229	0.00014161	1259.7	4.647e-06	2.0968e-06	1258.4	353.07	7.237e-06	8.5206e-06	403.23	134.4	117.26	39.647	3.2173e-06	49.361	0.00070722	0.00071085	0.00019865	1284.4	7.7382e-06	7.7678e-06	1286.4	361.6	7.7409e-06	7.7815e-06	415.48	138.22	121.07	41.111	7.7692e-06	51.259	74.691	-71.807	-11.091	-120.376	6.820	31.839	-120.507	-115.652	-13.763	-85.322	-116.442	-112.428	-111.954	-106.748	6.987	-107.415	-8191	255	
3175.755	1	1	0	0	0.061034	0.14579	0.42376	0.20078	0.2095	0.14664	0.20915	0.33669	0.32662	0.043535	0.11486	0.16277	0.18722	0.30821	0.28685	0.086713	-1.8583	-1.3188	-1.5979	-2.3229	-1.2458	-2.0104	-2.0312	-1.4021	-2.0021	-1.5	-1.7708	-2.1708	-1.3125	-2.1167	-1.8104	-1.2563	123.160	-61.536	-51.588	133.327	168.304	105.446	177.763	139.266	211.218	216.272	4.214	90.034	133.881	-55.798	139.533	-18.605	0.00091873	7.6467e-05	7.6486e-05	1255.8	4.8475e-06	5.0474e-06	1263.3	353.84	4.1369e-06	2.8502e-06	400.72	134.05	117.96	39.868	9.185e-06	49.328	0.00070542	0.00071029	0.00019828	1282	7.6553e-06	7.7023e-06	1285.6	361.62	7.7994e-06	7.7657e-06	415.23	138.01	121.25	41.157	7.7897e-06	51.335	80.080	23.889	-130.688	-120.203	-75.968	-29.639	-120.522	-115.707	-18.069	58.824	-116.325	-112.316	-111.874	-106.905	25.094	-107.512	-8191	255	
3175.853	1	1	0	0	0.24514	0.2142	0.41582	0.23116	0.03718	0.10525	0.43702	0.092798	0.084846	0.18106	0.22054	0.29149	0.29886	0.12822	0.2211	0.16184	-1.6771	-1.6083	-1.3667	-2.2708	-1.4083	-1.9188	-2.2438	-1.3021	-2.1063	-1.6083	-1.5729	-2.2771	-1.3833	-1.8625	-1.9917	-1.4625	8.316	81.723	-107.290	182.792	-93.285	178.711	193.172	-25.792	146.957	127.062	194.171	204.307	181.497	-18.338	-10.837	-83.052	0.0010292	0.00038774	0.00015751	1261.5	5.8244e-06	7.8474e-06	1261	353.08	6.5551e-06	3.8861e-06	404.71	134.12	116.87	39.694	7.4797e-07	49.254	0.00071005	0.00071321	0.00019612	1282.8	7.8071e-06	7.8244e-06	1285.5	361.18	7.7317e-06	7.7143e-06	416.02	138.12	121.16	41.1	7.7708e-06	51.301	82.052	-15.215	31.176	-120.300	-19.909	110.123	-120.754	-115.848	-84.897	-28.934	-116.348	-112.097	-111.761	-106.830	209.110	-107.633	-8191	255	
3175.972	1	1	0	0	0.11832	0.3317	0.11065	0.28785	0.13247	0.2487	0.31319	0.25352	0.20905	0.15056	0.12148	0.15709	0.27957	0.11694	0.043363	0.1207	-1.6271	-1.725	-1.5146	-2.1458	-1.6146	-1.7354	-2.2708	-1.4083	-1.9646	-1.8625	-1.4833	-2.4875	-1.6208	-1.8125	-2.1417	-1.3125	-9.753	95.333	180.777	166.138	115.097	166.308	185.254	-124.732	188.096	167.919	216.667	223.442	29.700	139.871	-73.228	115.234	0.0010493	0.00030798	0.00019441	1257.4	6.2453e-06	3.6747e-06	1264.5	353.63	5.7454e-06	5.4657e-06	402.95	134.56	117.47	39.544	8.5723e-06	49.18	0.00071471	0.00071241	0.00019902	1282.2	7.8513e-06	7.8546e-06	1288	361.88	7.8542e-06	7.906e-06	415.85	138.28	121.29	41.099	7.7967e-06	51.3	81.519	-41.616	-59.217	-120.334	-33.441	-11.098	-120.712	-115.596	173.483	48.303	-116.127	-112.180	-111.850	-106.528	-24.719	-107.147	-8191	255	
3176.043	1	1	0	0	0.15467	0.22752	0.099331	0.0488	0.10653	0.14207	0.27349	0.23018	0.09399	0.15713	0.1924	0.12852	0.3348	0.037757	0.15641	0.13166	-1.7146	-1.8229	-1.1604	-2.2438	-1.4688	-1.4792	-2.2708	-1.6021	-1.7563	-1.8667	-1.4271	-2.1708	-1.7521	-1.4542	-2.0708	-1.2875	-49.247	50.664	-89.201	29.469	165.574	206.183	224.814	-125.953	-94.057	-50.174	94.643	197.036	198.100	87.462	-91.195	100.953	0.00098949	0.00011371	0.00020117	1255.9	2.922e-06	5.2671e-06	1260	352.74	3.7164e-06	7.0425e-06	405.77	134.47	117.84	39.964	3.262e-06	49.273	0.00071142	0.0007088	0.00020107	1284.1	7.8785e-06	7.8832e-06	1287.7	361.59	7.7866e-06	7.8404e-06	416.06	138.4	121.24	41.155	7.8235e-06	51.212	74.247	130.950	7.447	-120.300	42.526	88.082	-120.513	-115.672	-97.364	56.056	-116.183	-112.353	-112.069	-106.691	5.042	-107.461	-8191	255	
3176.139	1	1	0	0	0.18169	0.12653	0.11845	0.12476	0.11154	0.20565	0.23227	0.4347	0.050053	0.036099	0.16049	0.16156	0.084442	0.093552	0.21026	0.24754	-1.4833	-2.1188	-1.3917	-2.275	-1.45	-1.5521	-2.5438	-1.7583	-1.775	-2.1479	-1.4729	-2.2271	-1.7583	-1.3708	-2.2083	-1.7146	203.405	-122.744	-71.384	147.941	-7.202	-54.368	127.776	179.632	-104.621	43.755	39.417	172.569	-127.882	-119.098	81.690	193.687	0.00097791	0.00014918	0.00014452	1262.8	5.7337e-06	5.3046e-06	1258.8	354.66	5.2078e-06	3.4689e-06	404.58	134.34	116.99	39.751	2.2608e-06	49.28	0.00071899	0.00071134	0.00019784	1285.5	7.816e-06	7.7186e-06	1287	361.78	7.7601e-06	7.7988e-06	415.51	138.17	121.07	41.102	7.6818e-06	51.26	93.887	181.515	34.325	-119.987	17.681	23.905	-120.522	-115.795	222.745	20.423	-116.227	-112.030	-111.718	-106.412	-80.215	-107.297	-8191	255	
3176.260	1	1	0	0	0.12442	0.094389	0.14166	0.10939	0.23041	0.18082	0.19929	0.17943	0.42932	0.22533	0.26008	0.25858	0.17293	0.26305	0.23803	0.26079	-1.3104	-2.1896	-1.2167	-2.1875	-1.9542	-1.375	-2.3063	-1.4396	-1.6125	-2.1771	-1.3458	-2.1021	-1.9208	-1.4292	-2.3917	-1.7792	-87.182	53.701	27.252	-65.633	-90.995	49.182	140.650	-80.874	-116.638	89.128	203.972	-115.150	-98.296	222.408	63.330	208.738	0.0012421	0.00028197	0.0001553	1260	7.98e-06	3.8443e-06	1263.9	352.42	7.273e-06	6.3256e-06	403.06	134.19	117.05	39.726	8.0752e-06	49.304	0.00070937	0.00069949	0.00019664	1284	7.6785e-06	7.8267e-06	1284.9	361.21	7.7523e-06	7.7674e-06	415.46	138.24	120.97	41.085	7.7931e-06	51.283	72.983	-53.804	-56.799	-120.182	-11.320	59.610	-120.453	-115.795	-47.347	-13.937	-116.091	-111.881	-111.725	-106.471	-8.840	-107.181	-8191	255	
3176.356	1	1	0	0	0.34284	0.1084	0.2993	0.18785	0.11777	0.15499	0.21929	0.085603	0.13695	0.2332	0.080534	0.23528	0.26565	0.11816	0.2612	0.36108	-1.0458	-2.1667	-1.1854	-1.8271	-1.9688	-1.1479	-2.3833	-1.675	-1.475	-2.2042	-1.4771	-1.9292	-2.05	-1.35	-2.0625	-1.7979	-27.784	-50.537	144.590	172.835	-3.595	189.320	170.944	-72.385	150.275	-19.978	187.097	-122.167	-100.734	181.733	93.229	-98.821	0.0010642	0.0002198	0.00022423	1262.9	1.3374e-06	6.0312e-06	1259.9	351.87	1.5927e-05	4.1547e-06	405.17	134.27	117.15	39.678	3.6021e-06	49.444	0.00071132	0.0007077	0.00020012	1282.5	7.7866e-06	7.7196e-06	1287	360.84	7.8081e-06	7.8351e-06	415.9	138.36	121.11	41.07	7.7252e-06	51.383	84.879	214.283	-55.099	-119.814	27.650	-1.541	-120.132	-115.423	-59.569	-22.968	-116.072	-111.908	-111.592	-106.536	20.027	-107.601	-8191	255	
3176.452	1	1	0	0	0.23147	0.098454	0.094753	0.3533	0.19461	0.14715	0.38158	0.41347	0.25823	0.26909	0.22058	0.063496	0.2884	0.25811	0.21269	0.28111	-1.1437	-2.2208	-1.5229	-1.9125	-2.1125	-1.3146	-2.1604	-2.05	-1.3813	-2.1958	-1.4396	-1.675	-2.3833	-1.3542	-1.9688	-2.0187	159.329	154.140	-15.324	140.126	216.697	-34.825	121.814	-132.780	-25.842	-117.026	-49.708	-117.529	-132.960	-113.279	106.113	129.641	0.0011583	0.00054683	5.4462e-05	1260.4	1.127e-05	5.0266e-06	1263.7	353.36	6.6902e-06	4.9356e-06	405.67	133.82	117.26	39.552	4.6362e-06	49.439	0.00070633	0.00070892	0.00019825	1283.7	7.677e-06	7.8185e-06	1286.5	361.42	7.7307e-06	7.8011e-06	416.34	138.06	121.09	41.087	7.729e-06	51.332	94.687	-52.122	-10.193	-120.005	-9.445	121.321	-120.323	-115.644	-40.725	21.660	-116.036	-112.059	-111.349	-106.791	31.578	-107.413	-8191	255	
3176.573	1	1	0	0	0.084577	0.10439	0.14528	0.25448	0.11722	0.080219	0.16702	0.19145	0.21027	0.24116	0.10839	0.38051	0.13209	0.19878	0.14192	0.20881	-0.75625	-2.025	-1.6875	-1.6688	-1.925	-1.4708	-2.2188	-2.1521	-1.3542	-2.2854	-1.5667	-1.5896	-2.2792	-1.6625	-1.8604	-2.0896	-34.949	-116.538	153.173	-98.812	131.260	-31.637	148.257	151.096	165.072	4.449	73.947	201.559	143.376	-107.549	-55.900	221.939	0.00099566	0.00012041	6.7236e-05	1259.6	6.6886e-06	2.4108e-06	1266.6	353.13	9.748e-06	1.0271e-05	404.16	134.26	117.15	39.832	8.6661e-06	49.33	0.00070457	0.00070609	0.00019545	1284	7.7189e-06	7.7667e-06	1288.5	361.35	7.6632e-06	7.7116e-06	415.3	138.19	121.13	41.105	7.7101e-06	51.245	78.611	-65.968	1.480	-119.839	-78.736	55.508	-120.412	-115.737	44.306	11.574	-116.665	-112.216	-111.635	-106.603	5.730	-107.281	-8191	255	
3176.667	1	1	0	0	0.08706	0.040687	0.22715	0.1618	0.18924	0.20689	0.36445	0.36539	0.15083	0.1903	0.20979	0.25633	0.16335	0.37979	0.24552	0.18053	-0.9125	-2.3667	-1.6917	-1.4417	-1.9875	-1.5417	-2.0167	-2.3021	-1.3917	-2.2792	-1.825	-1.4854	-2.4875	-1.6688	-1.8542	-2.3563	48.349	152.361	124.180	211.207	211.236	38.780	110.587	183.610	76.056	221.099	-120.966	205.439	-45.427	201.641	208.704	173.687	0.0010897	0.00029071	8.3478e-05	1259	4.4327e-06	2.4759e-06	1258.9	352.93	8.0885e-06	1.0581e-05	404.85	133.76	117.39	39.864	4.3202e-06	49.229	0.00070565	0.00071083	0.00019642	1282.3	7.7001e-06	7.6977e-06	1285.1	361.15	7.856e-06	7.7095e-06	415.22	138.06	121.09	41.083	7.6927e-06	51.247	87.593	74.712	-45.238	-119.878	-8.421	-38.558	-120.506	-115.601	-31.878	-55.477	-116.283	-111.881	-111.771	-106.699	-83.281	-107.679	-8191	255	
3176.739	1	1	0	0	0.050757	0.1984	0.14893	0.28728	0.058135	0.32805	0.20527	0.10589	0.12242	0.087181	0.24556	0.15457	0.068538	0.13568	0.047017	0.27598	-1.0792	-2.0646	-1.8021	-1.6042	-2.3854	-1.6542	-1.7417	-2.3542	-1.4875	-2.0271	-2.1375	-1.2396	-2.3833	-1.7792	-1.6417	-2.2917	113.821	-91.296	148.254	127.425	118.261	32.495	184.322	96.959	176.330	136.271	188.637	33.258	23.066	216.901	185.328	166.733	0.00077761	0.0009713	4.522e-05	1249.7	4.1705e-06	9.6941e-06	1258.4	352.45	7.936e-06	5.6484e-06	402.45	133.37	117.21	39.762	8.23e-06	49.433	0.00070708	0.00070787	0.00019779	1277	7.7363e-06	7.8132e-06	1283.9	360.82	7.7162e-06	7.8027e-06	415.14	137.74	120.89	41.131	7.7345e-06	51.248	83.475	-33.753	-40.878	-120.001	83.090	4.844	-120.352	-115.459	-83.483	52.659	-115.910	-112.075	-111.863	-106.762	23.583	-107.474	-8191	255	
3176.860	1	1	0	0	0.13065	0.15677	0.22577	0.29292	0.39814	0.3498	0.44771	0.13375	0.31199	0.043444	0.37938	0.040667	0.27652	0.12217	0.29334	0.25033	-1.1875	-2.1771	-2.0438	-1.4813	-1.9958	-1.7271	-1.8229	-2.3458	-1.3833	-1.7958	-2.1646	-1.4625	-2.0854	-1.8292	-1.3271	-2.2062	135.624	116.770	-21.256	173.867	138.236	223.981	158.911	-127.882	98.302	123.237	216.527	76.248	195.637	-44.951	-26.678	217.351	0.00076225	0.00030565	8.211e-06	1259.4	3.5094e-06	6.3714e-06	1257.7	353.27	5.8076e-06	4.645e-06	405.18	134.12	117.13	39.641	7.415e-07	49.559	0.00070766	0.00070148	0.00019653	1281.1	7.6682e-06	7.5699e-06	1282.2	361.15	7.6484e-06	7.6995e-06	415.45	138.03	120.96	41.112	7.6664e-06	51.322	88.542	-48.699	3.354	-120.003	-7.910	31.810	-120.360	-115.547	-50.162	30.664	-116.026	-112.333	-111.568	-106.625	25.276	-107.566	-8191	255	
3176.956	1	1	0	0	0.3421	0.26501	0.19168	0.31992	0.037295	0.23949	0.14869	0.24337	0.14357	0.24099	0.13432	0.053009	0.17052	0.062627	0.089447	0.047781	-0.96458	-1.625	-1.9708	-1.5271	-2.0938	-1.8896	-1.6375	-2.5479	-1.4958	-1.775	-2.2271	-1.45	-1.9125	-1.7833	-1.2792	-2.3312	0.986	119.180	103.472	181.047	-76.500	136.749	61.104	154.579	181.125	11.511	40.470	-67.246	217.470	148.485	-54.338	-112.298	0.0011188	0.00032561	0.00014939	1255.6	1.0584e-05	3.6011e-06	1259.5	352.49	6.6955e-06	8.337e-06	403.64	134.08	116.9	39.759	3.4348e-06	49.267	0.00070396	0.00070493	0.00019377	1280	7.616e-06	7.7311e-06	1284.7	360.55	7.6346e-06	7.6943e-06	415.01	137.93	121.24	41.108	7.7002e-06	51.195	84.384	208.099	-41.216	-120.027	-8.986	-15.013	-120.303	-115.474	-103.795	44.802	-116.043	-111.816	-111.435	-106.614	-55.263	-107.277	-8191	255	
3177.052	1	1	0	0	0.28486	0.24114	0.29367	0.22554	0.24861	0.27604	0.47969	0.31883	0.052762	0.13054	0.13427	0.098924	0.18658	0.13307	0.071623	0.34444	-1.3062	-1.5771	-2.15	-1.7667	-1.9354	-1.9646	-1.3771	-2.2875	-1.7208	-1.5792	-2.3396	-1.6354	-1.95	-2.1021	-1.1042	-2.4042	-43.491	59.367	147.486	-107.862	215.988	-128.771	176.645	194.470	150.758	-108.539	71.887	98.953	149.111	-81.537	158.043	-130.079	0.00098572	0.0006779	0.00016813	1256.9	5.1008e-06	9.2089e-06	1261.8	353.73	8.0315e-06	4.3815e-06	404.84	134.46	117.46	39.87	1.3538e-06	49.279	0.00070555	0.0006999	0.00019659	1280.6	7.6949e-06	7.7114e-06	1285.1	361.17	7.7945e-06	7.7454e-06	415.6	138.3	121.18	41.104	7.7031e-06	51.187	94.830	-33.809	-38.505	-120.001	-40.608	2.999	-120.295	-115.550	-77.021	-26.821	-115.917	-112.043	-111.543	-106.578	-106.682	-107.521	-8191	255	
3177.148	1	1	0	0	0.24406	0.08963	0.080205	0.18541	0.26547	0.083206	0.18042	0.12733	0.15705	0.22144	0.41914	0.14231	0.16855	0.10976	0.16933	0.2914	-1.2021	-1.5812	-2.1271	-1.4917	-1.8604	-2.2	-1.6875	-2.325	-1.7417	-1.3979	-2.325	-1.4688	-1.8458	-2.2833	-1.2687	-2.2562	-80.823	24.025	-40.205	104.528	84.367	-105.895	-130.447	199.769	66.071	158.368	109.850	119.822	98.665	131.812	5.126	197.496	0.0010805	0.0003357	0.00015804	1254.6	6.4387e-06	4.8731e-06	1263	352.43	4.1127e-06	3.8859e-06	403.19	133.76	116.99	39.634	7.1995e-06	49.314	0.00071378	0.00071099	0.00019449	1278.9	7.7526e-06	7.6683e-06	1285	360.25	7.6621e-06	7.7237e-06	414.65	137.67	120.71	40.986	7.6921e-06	51.197	82.144	-39.225	-131.189	-120.100	36.029	-9.580	-120.366	-115.649	-33.113	48.189	-116.172	-111.981	-111.501	-106.419	4.846	-107.044	-8191	255	
3177.244	1	1	0	0	0.27491	0.037955	0.045165	0.059114	0.042005	0.24197	0.35365	0.21672	0.13511	0.23097	0.23899	0.1216	0.24449	0.085949	0.40342	0.25439	-1.6333	-1.4438	-2.3937	-1.4188	-1.7042	-2.1146	-1.6333	-2.1042	-1.8333	-1.3771	-2.3812	-1.5438	-1.5583	-2.125	-1.4	-2.0458	107.318	155.959	210.500	-88.430	-11.112	-75.285	166.900	92.393	130.247	139.987	179.514	208.674	-111.072	109.873	-25.429	199.686	0.0009982	0.00034511	1.7967e-05	1256.3	3.9571e-07	4.4239e-06	1254.9	353.6	6.9986e-06	7.4674e-06	404.53	133.57	117.38	39.45	5.6952e-06	49.19	0.00070045	0.00070745	0.00019388	1278.3	7.7593e-06	7.6848e-06	1280.6	360.66	7.5748e-06	7.6813e-06	414.77	137.61	120.77	40.989	7.6307e-06	51.237	78.246	3.570	-27.767	-119.923	-60.603	39.685	-120.272	-115.602	-51.643	69.403	-115.938	-112.235	-111.688	-106.577	-85.490	-107.132	-8191	255	
3177.340	1	1	0	0	0.23686	0.15819	0.17193	0.40467	0.24902	0.062663	0.20334	0.13198	0.18274	0.23647	0.16945	0.24514	0.14006	0.15778	0.13444	0.060002	-1.4958	-1.175	-2.1542	-1.7417	-1.3958	-2.1229	-1.6437	-2.0875	-2	-1.4896	-2.2167	-1.5958	-1.4604	-2.2854	-1.2917	-1.9688	-33.666	-133.044	57.140	219.715	-129.078	121.679	40.423	-88.466	212.093	204.578	166.897	31.209	-60.429	166.225	-35.101	103.179	0.00086405	0.0008202	0.00021719	1255.4	3.8621e-06	1.4802e-06	1254.3	353.99	4.9323e-06	1.0643e-05	401.25	133.79	116.44	39.486	7.9169e-06	49.299	0.00069957	0.00069955	0.00019173	1278.4	7.5522e-06	7.607e-06	1280.7	361.28	7.6204e-06	7.6332e-06	414.84	137.86	120.7	40.987	7.6609e-06	51.09	86.501	-51.676	-26.229	-120.116	-71.366	56.276	-120.412	-115.258	-20.480	43.730	-116.009	-111.960	-111.633	-106.543	5.049	-107.434	-8191	255	
3177.437	1	1	0	0	0.11283	0.21052	0.45054	0.19574	0.18232	0.072177	0.18179	0.16425	0.093329	0.19861	0.0933	0.25685	0.27648	0.31171	0.18747	0.3196	-1.8062	-1.4021	-1.8958	-1.8125	-1.5688	-2.2354	-1.7479	-1.8375	-2.0125	-1.4188	-2.1688	-1.8375	-1.2583	-2.375	-1.6729	-1.7437	-48.271	-71.304	-49.642	149.948	-130.571	108.386	165.359	114.613	86.027	-94.744	78.368	155.667	154.963	192.513	94.362	141.902	0.0010799	0.00018473	0.00017069	1250.6	7.1195e-06	2.0097e-06	1257.2	352.03	6.7122e-06	3.1333e-06	404.58	133.91	116.82	39.584	3.6167e-06	49.328	0.0006967	0.00069823	0.0001947	1277.1	7.6326e-06	7.6805e-06	1281.5	360.25	7.6348e-06	7.6192e-06	414.72	137.77	120.69	40.998	7.715e-06	51.203	76.430	17.680	1.546	-119.915	-11.606	129.991	-120.182	-115.585	-74.136	-15.085	-115.985	-112.001	-111.733	-106.313	-5.706	-107.006	-8191	255	
3177.533	1	1	0	0	0.21375	0.14794	0.35629	0.13787	0.080047	0.03569	0.2971	0.27622	0.11467	0.28516	0.18	0.32812	0.18276	0.40832	0.51952	0.3944	-1.8833	-1.3042	-1.975	-1.9833	-1.3583	-2.3354	-1.5792	-1.7729	-2.0771	-1.3833	-1.9333	-2.075	-1.3521	-2.2438	-1.6083	-1.4	-32.738	103.022	49.935	199.425	68.094	165.185	200.590	154.645	-116.813	199.969	153.048	135.765	-102.296	149.491	-51.130	-99.416	0.00091641	0.00048606	0.00017435	1251.7	7.3709e-06	3.4121e-06	1259.7	352.08	8.7426e-06	9.2187e-06	402.64	133.57	116.78	39.608	3.0751e-06	48.896	0.00069658	0.00070461	0.00019755	1277.1	7.6353e-06	7.6788e-06	1281.8	360.33	7.7238e-06	7.7031e-06	414.16	137.58	120.64	41.031	7.7342e-06	51.13	80.569	-73.687	-79.715	-119.830	-1.368	95.254	-120.291	-115.362	-107.872	23.126	-115.951	-111.896	-111.395	-106.309	27.123	-107.135	-8191	255	
3177.653	1	1	0	0	0.055914	0.24295	0.17724	0.10859	0.026705	0.127	0.13232	0.067082	0.12383	0.1728	0.24542	0.23761	0.12478	0.38198	0.12231	0.22255	-1.7792	-1.3333	-1.825	-2.0604	-1.1396	-2.1667	-1.7729	-1.6562	-2.025	-1.1437	-1.6646	-2.2042	-1.3104	-2.1833	-1.7979	-1.5792	-112.241	53.665	192.541	70.263	92.991	155.865	-110.735	-54.617	202.686	131.644	213.026	186.018	-65.212	-126.463	8.694	-78.880	0.0010347	0.00057588	8.1235e-05	1255.7	3.9752e-06	6.0915e-06	1258.9	352.51	3.3123e-06	4.3556e-06	402.31	133.51	116.73	39.491	5.1425e-06	48.845	0.00070639	0.00070737	0.00019731	1275.6	7.8148e-06	7.821e-06	1282.7	360.61	7.7547e-06	7.8203e-06	414.9	137.56	120.66	40.996	7.7503e-06	51.103	78.432	214.726	-10.004	-120.003	14.594	55.199	-120.236	-115.654	-31.138	-22.172	-116.299	-112.304	-111.466	-106.624	27.237	-107.388	-8191	255	
3177.748	1	1	0	0	0.38431	0.40851	0.093852	0.20147	0.060433	0.16989	0.13414	0.10214	0.085313	0.17649	0.20275	0.22489	0.14681	0.17798	0.10468	0.25631	-1.8333	-1.3167	-1.6417	-2.1354	-1.175	-1.9833	-1.8438	-1.5042	-2.0729	-1.7812	-1.6479	-2.2458	-1.3167	-2.0667	-1.7729	-1.3333	156.786	-29.522	199.010	-105.044	-19.130	58.949	160.186	-123.838	43.763	158.265	115.560	219.400	131.876	-25.973	203.073	142.907	0.0008617	0.00039368	0.00011929	1253.3	6.9414e-06	4.3392e-06	1257.6	352.62	5.7193e-06	9.4055e-06	405.65	133.84	117.34	39.799	3.8629e-06	49.072	0.00070722	0.00071176	0.00019947	1276.8	7.8126e-06	7.7659e-06	1279.9	360.68	7.8058e-06	7.7405e-06	415.06	137.7	120.72	41.059	7.6864e-06	51.057	91.507	-74.388	-108.569	-119.904	-52.907	-7.908	-120.535	-115.614	220.845	31.609	-115.843	-111.874	-111.473	-106.576	204.783	-107.337	-8191	255	
3177.844	1	1	0	0	0.35338	0.14096	0.2283	0.063398	0.18828	0.055475	0.28228	0.50767	0.10355	0.047982	0.23243	0.32542	0.12957	0.17874	0.26282	0.11896	-1.7042	-1.7521	-1.4354	-2.3021	-1.5229	-1.9729	-2.1583	-1.5458	-2.1854	-1.7062	-1.6771	-2.1958	-1.4854	-1.8375	-1.9104	-1.525	129.270	135.006	25.986	185.338	-123.515	37.848	161.970	212.517	32.835	76.292	-108.873	216.874	-113.936	-132.462	200.225	42.504	0.00074524	0.00069299	0.00010985	1253.9	4.633e-06	1.0096e-05	1257.9	352.78	6.6627e-06	7.3489e-06	404.59	134.44	116.53	39.615	8.2991e-06	49.335	0.00070792	0.00070799	0.00019772	1278.4	7.7437e-06	7.7895e-06	1281.9	360.31	7.7586e-06	7.7684e-06	415.01	137.94	120.6	40.991	7.7168e-06	51.16	81.311	-119.250	-20.383	-120.023	-38.764	-26.753	-120.461	-115.649	-4.881	-24.271	-116.024	-112.178	-111.566	-106.453	-17.719	-107.460	-8191	255	
3177.940	1	1	0	0	0.14187	0.23599	0.19003	0.13182	0.016288	0.10526	0.3849	0.16661	0.1397	0.15353	0.16982	0.12667	0.24249	0.30616	0.10569	0.20495	-1.6458	-1.6771	-1.4729	-2.3625	-1.3146	-1.7479	-2.2313	-1.5688	-2.0604	-1.9104	-1.6146	-2.2313	-1.6812	-1.7708	-2.0521	-1.4583	132.409	-118.175	157.911	15.623	226.323	-92.330	181.316	194.330	19.492	-73.705	137.461	-118.133	182.294	-107.338	25.326	173.171	0.00075182	0.00048629	0.00017313	1257	6.9244e-06	5.9442e-06	1252	351.51	2.8349e-06	1.2528e-06	401.69	133.7	116.59	39.619	2.5478e-06	49.252	0.00071543	0.00070733	0.00019646	1277.3	7.7128e-06	7.8542e-06	1279.6	360.27	7.7142e-06	7.7676e-06	413.76	137.76	120.68	40.971	7.7289e-06	51.178	83.201	150.888	-42.019	-119.847	34.295	33.009	-120.444	-115.447	31.359	103.389	-116.127	-111.771	-111.557	-106.376	-26.685	-107.169	-8191	255	
3178.036	1	1	0	0	0.10399	0.17067	0.26112	0.061086	0.12207	0.027712	0.3745	0.34379	0.15	0.11689	0.30594	0.095363	0.19051	0.19934	0.013735	0.25124	-1.6812	-1.8521	-1.3417	-2.1271	-1.4896	-1.5917	-2.2354	-1.4937	-1.9333	-1.7229	-1.5042	-2.2354	-1.6396	-1.5979	-2.0833	-1.1729	61.514	-92.062	21.157	192.362	-3.192	117.082	127.168	179.722	81.430	101.147	189.942	-25.951	-112.936	187.474	202.988	103.863	0.0011521	0.0005407	0.00017416	1251.3	5.3134e-06	6.2904e-06	1256	351.02	1.6465e-05	3.4214e-06	403.43	133.52	116.8	39.484	1.734e-06	49.206	0.00070822	0.00070844	0.00019948	1277.4	7.7103e-06	7.8036e-06	1280.2	359.77	7.6357e-06	7.748e-06	414.75	137.56	120.51	40.952	7.7107e-06	51.066	84.937	-71.578	-27.237	-119.969	-1.477	-10.381	-120.252	-115.112	-73.245	74.138	-116.070	-111.823	-111.763	-106.480	1.896	-106.812	-8191	255	
3178.132	1	1	0	0	0.19134	0.14919	0.21616	0.30345	0.093529	0.3108	0.29641	0.19058	0.20579	0.1182	0.28972	0.13613	0.021673	0.12195	0.079979	0.28052	-1.5854	-1.9438	-1.3917	-2.3021	-1.7417	-1.2938	-2.3063	-1.2833	-1.7292	-1.9792	-1.2354	-2.0812	-1.5812	-1.3271	-2.2021	-1.5292	187.403	18.752	19.055	208.096	101.206	208.446	161.396	209.389	61.035	-95.379	168.966	174.631	114.065	-125.889	158.704	206.335	0.0010381	0.00065527	0.00015937	1254.6	7.6206e-06	7.0165e-06	1253.7	352.14	9.5558e-06	7.9438e-06	402.29	133.92	116.78	39.838	8.2711e-06	49.352	0.00071554	0.00071781	0.00019972	1277	7.8139e-06	7.7932e-06	1280.2	359.93	7.6788e-06	7.7304e-06	414.5	137.63	120.49	41.01	7.6229e-06	51.152	83.967	-41.770	-66.815	-119.747	0.181	32.131	-120.320	-115.485	-108.750	-7.483	-116.319	-111.980	-111.586	-106.921	12.628	-107.582	-8191	255	
3178.253	1	1	0	0	0.13225	0.12496	0.079588	0.03621	0.082598	0.041955	0.24055	0.19849	0.15057	0.087821	0.33853	0.14926	0.23711	0.22696	0.077523	0.2729	-1.4417	-1.8771	-1.2083	-2.2917	-1.8792	-1.3417	-2.25	-1.6042	-1.55	-2.0458	-1.275	-1.9958	-1.9042	-1.3958	-1.9708	-1.5146	-47.219	179.614	193.887	164.047	172.338	64.601	151.684	215.762	-106.055	-29.365	215.481	148.417	216.255	-114.339	132.651	-103.689	0.001252	0.00074804	2.5639e-05	1258.2	2.3596e-06	3.7945e-06	1249.7	351.8	7.0073e-06	9.1403e-06	403.12	133.26	116.72	39.585	5.4255e-06	49.318	0.00071065	0.00069792	0.00019596	1278.3	7.5995e-06	7.6797e-06	1279.5	360.28	7.7007e-06	7.6789e-06	414.8	137.46	120.51	40.997	7.6448e-06	51.101	93.492	-40.606	102.615	-119.995	15.182	16.352	-120.359	-115.589	-0.067	11.530	-116.097	-112.127	-111.552	-106.491	17.513	-107.536	-8191	255	
3178.349	1	1	0	0	0.29558	0.31428	0.21816	0.35376	0.39703	0.15506	0.27254	0.066437	0.027943	0.24725	0.069829	0.2791	0.22909	0.14763	0.044226	0.40386	-1.1	-2.1292	-1.3583	-2.0292	-1.9917	-1.3708	-2.2938	-1.7229	-1.5167	-2.0229	-1.4396	-2.0021	-2.1354	-1.6167	-2.1167	-2.0229	130.585	103.722	163.748	175.218	-40.302	-116.297	181.195	-96.749	5.009	81.878	162.977	156.533	186.354	184.849	-39.512	125.183	0.001065	0.0002647	0.00015393	1256	2.2845e-06	5.4672e-06	1259.4	352.97	4.9412e-06	9.2753e-06	401.64	133.29	117.07	39.726	1.3523e-06	49.169	0.00070528	0.00069481	0.00019697	1277.2	7.656e-06	7.6673e-06	1283.3	360.62	7.7387e-06	7.6037e-06	413.76	137.66	120.7	41.041	7.6323e-06	51.036	76.906	-32.237	14.769	-119.932	-18.454	5.551	-120.310	-115.476	-3.523	14.400	-116.247	-111.743	-111.421	-106.404	60.073	-107.435	-8191	255	
3178.445	1	1	0	0	0.3207	0.22003	0.24016	0.39643	0.22054	0.24368	0.30883	0.38341	0.20893	0.083731	0.10497	0.30263	0.29101	0.2025	0.10205	0.14908	-1.0562	-2.1083	-1.2396	-1.825	-2.0646	-1.3042	-2.1875	-1.9146	-1.475	-1.9896	-1.5708	-1.6708	-2.1167	-1.4104	-2.0583	-1.9167	-111.831	219.954	-124.205	199.528	-50.459	-93.850	150.264	216.057	-58.260	-57.999	-27.572	-76.662	180.077	-48.199	75.893	193.514	0.0010598	0.00050452	8.795e-05	1257.1	2.3881e-06	6.2407e-06	1256.1	352.49	9.0824e-06	9.3867e-06	403.13	133.52	116.55	39.625	6.8335e-06	49.16	0.00070291	0.00069704	0.00019444	1277.6	7.6674e-06	7.649e-06	1281.4	360	7.6482e-06	7.6478e-06	413.94	137.57	120.58	40.983	7.6335e-06	51.057	86.942	-23.973	24.902	-119.919	-17.058	6.873	-120.106	-115.480	-24.104	17.793	-116.211	-111.960	-111.637	-106.738	-42.681	-107.072	-8191	255	
3178.541	1	1	0	0	0.061257	0.18995	0.10988	0.15272	0.16795	0.24294	0.074272	0.12391	0.05896	0.30779	0.3926	0.22774	0.24458	0.2254	0.14869	0.11705	-1.0312	-2.075	-1.3458	-1.9438	-2.2354	-1.5771	-2.0792	-2.0604	-1.2167	-2.1396	-1.7604	-1.7396	-2.2375	-1.4896	-2.0438	-2.0438	10.939	208.793	-124.578	-28.710	-10.689	124.309	-117.150	-1.207	-89.801	-24.521	168.345	-110.370	-115.443	146.780	204.839	178.624	0.00095058	0.00023904	0.00015933	1251.1	7.179e-06	5.935e-06	1263.6	351.09	2.1497e-06	3.8814e-06	401.49	133.53	117.23	39.587	5.8566e-06	49.095	0.0006945	0.00068323	0.00019367	1276.7	7.5773e-06	7.6071e-06	1283.1	359.8	7.6065e-06	7.5391e-06	413.5	137.38	120.88	40.975	7.5671e-06	50.953	83.744	-131.679	-27.327	-120.189	11.443	-21.493	-120.439	-115.871	55.495	64.396	-116.523	-112.679	-112.104	-107.100	53.620	-107.917	-8191	255	
3178.636	1	1	0	0	0.079887	0.13604	0.22384	0.25915	0.3393	0.055331	0.17122	0.23112	0.26256	0.27513	0.21163	0.20969	0.1371	0.16595	0.12644	0.036815	-0.93958	-2.0938	-1.4833	-1.3813	-2.2729	-1.1146	-1.8333	-2.1354	-1.1625	-2.1292	-1.7292	-1.5271	-2.3958	-1.5771	-1.625	-2.2917	-104.157	135.956	38.178	212.900	-47.742	10.144	145.983	-123.803	152.511	-86.314	178.736	-125.163	72.018	172.323	-17.898	193.116	0.00085731	0.00053807	0.0001084	1253.1	7.2591e-06	5.381e-06	1256.4	349.48	3.3374e-06	7.3641e-06	400.37	133.77	117.52	39.632	9.6048e-06	49.11	0.00069635	0.00069889	0.00019456	1277.7	7.5597e-06	7.5794e-06	1281.6	359.81	7.5393e-06	7.5988e-06	414.04	137.57	120.68	40.909	7.4883e-06	51.079	76.956	11.361	10.604	-120.293	-14.017	3.297	-120.601	-116.000	-123.264	-30.673	-116.659	-112.456	-112.042	-106.988	-15.321	-107.947	-8191	255	
#DATA ENDS
