BOXY.EXE: ISS Imagent and Oximeter Data Acquisition Program Version 0.80
Ascii Record File

#ACQ INFORMATION
2  Detector Channels 
16  External MUX Channels 
1  Auxiliary Channels 
5000  Waveform (CCF) Frequency (Hz)
1  Waveforms Skipped 
30  Waveforms Averaged 
1  Cycles Averaged 
16  Acquisitions per Waveform 
10.0806  Updata Rate (Hz) 

#FILE INFORMATION
TRUE -- External MUX Channel results are PARSED.
FALSE -- AC DC and Phase are NOT grouped.
TRUE -- Companion Program Settings File CREATED.
FALSE -- AC data not excluded
FALSE -- DC data not excluded
FALSE -- Phase data not excluded
FALSE -- Auxillary Chn. data not excluded
Tab delimiters

#CALIBRATION STATE
TRUE -- Waveform Calibration Values APPLIED.


#AUX CALIBRATION VALUES
Val Type	aux-1	

Term	1.0000e+00	
Factor	0.0000e+00	


#WF CALIBRATION VALUES
A = Detector Channel
Val Type	A-AC1	A-AC2	A-AC3	A-AC4	A-AC5	A-AC6	A-AC7	A-AC8	A-AC9	A-AC10	A-AC11	A-AC12	A-AC13	A-AC14	A-AC15	A-AC16	A-DC1	A-DC2	A-DC3	A-DC4	A-DC5	A-DC6	A-DC7	A-DC8	A-DC9	A-DC10	A-DC11	A-DC12	A-DC13	A-DC14	A-DC15	A-DC16	A-Ph1	A-Ph2	A-Ph3	A-Ph4	A-Ph5	A-Ph6	A-Ph7	A-Ph8	A-Ph9	A-Ph10	A-Ph11	A-Ph12	A-Ph13	A-Ph14	A-Ph15	A-Ph16	

Term	0.00000e+00	0.00000e+00	0.00000e+00	0.00000e+00	0.00000e+00	0.00000e+00	0.00000e+00	0.00000e+00	0.00000e+00	0.00000e+00	0.00000e+00	0.00000e+00	0.00000e+00	0.00000e+00	0.00000e+00	0.00000e+00	0.00000e+00	0.00000e+00	0.00000e+00	0.00000e+00	0.00000e+00	0.00000e+00	0.00000e+00	0.00000e+00	0.00000e+00	0.00000e+00	0.00000e+00	0.00000e+00	0.00000e+00	0.00000e+00	0.00000e+00	0.00000e+00	0.00000e+00	0.00000e+00	0.00000e+00	0.00000e+00	0.00000e+00	0.00000e+00	0.00000e+00	0.00000e+00	0.00000e+00	0.00000e+00	0.00000e+00	0.00000e+00	0.00000e+00	0.00000e+00	0.00000e+00	0.00000e+00	
Factor	1.00000e+00	1.00000e+00	1.00000e+00	1.00000e+00	1.00000e+00	1.00000e+00	1.00000e+00	1.00000e+00	1.00000e+00	1.00000e+00	1.00000e+00	1.00000e+00	1.00000e+00	1.00000e+00	1.00000e+00	1.00000e+00	1.00000e+00	1.00000e+00	1.00000e+00	1.00000e+00	1.00000e+00	1.00000e+00	1.00000e+00	1.00000e+00	1.00000e+00	1.00000e+00	1.00000e+00	1.00000e+00	1.00000e+00	1.00000e+00	1.00000e+00	1.00000e+00	X	X	X	X	X	X	X	X	X	X	X	X	X	X	X	X	

B = Detector Channel
Val Type	B-AC1	B-AC2	B-AC3	B-AC4	B-AC5	B-AC6	B-AC7	B-AC8	B-AC9	B-AC10	B-AC11	B-AC12	B-AC13	B-AC14	B-AC15	B-AC16	B-DC1	B-DC2	B-DC3	B-DC4	B-DC5	B-DC6	B-DC7	B-DC8	B-DC9	B-DC10	B-DC11	B-DC12	B-DC13	B-DC14	B-DC15	B-DC16	B-Ph1	B-Ph2	B-Ph3	B-Ph4	B-Ph5	B-Ph6	B-Ph7	B-Ph8	B-Ph9	B-Ph10	B-Ph11	B-Ph12	B-Ph13	B-Ph14	B-Ph15	B-Ph16	

Term	0.00000e+00	0.00000e+00	0.00000e+00	0.00000e+00	0.00000e+00	0.00000e+00	0.00000e+00	0.00000e+00	0.00000e+00	0.00000e+00	0.00000e+00	0.00000e+00	0.00000e+00	0.00000e+00	0.00000e+00	0.00000e+00	0.00000e+00	0.00000e+00	0.00000e+00	0.00000e+00	0.00000e+00	0.00000e+00	0.00000e+00	0.00000e+00	0.00000e+00	0.00000e+00	0.00000e+00	0.00000e+00	0.00000e+00	0.00000e+00	0.00000e+00	0.00000e+00	-2.48330e+02	-1.42001e+02	-1.28918e+02	-1.82543e+02	-9.10688e+01	-6.49576e+01	-1.59484e+02	-1.62015e+02	-1.00181e+02	-6.41897e+01	-1.73451e+02	-1.69948e+02	-1.80549e+02	-1.77176e+02	-8.75784e+01	-1.49574e+02	
Factor	5.96916e-05	1.28151e-04	4.06723e-05	1.85368e-01	1.60694e-06	1.57342e-06	1.66390e-01	4.98697e-02	1.84472e-06	1.64029e-06	1.16195e-01	2.94105e-02	3.75885e-02	8.90816e-03	1.48073e-06	1.26652e-02	2.18147e-06	2.27945e-06	6.35774e-07	9.79401e-02	2.48019e-08	2.50556e-08	8.24126e-02	2.63979e-02	2.47667e-08	2.50275e-08	5.87102e-02	1.49757e-02	1.97217e-02	4.72932e-03	2.48310e-08	6.48694e-03	X	X	X	X	X	X	X	X	X	X	X	X	X	X	X	X	



#DISTANCE SETTINGS
A = Detector Channel
A-1	A-2	A-3	A-4	A-5	A-6	A-7	A-8	A-9	A-10	A-11	A-12	A-13	A-14	A-15	A-16	

2.5000e+00	3.0000e+00	2.5000e+00	3.0000e+00	2.0000e+00	3.0000e+00	1.5000e+00	3.0000e+00	3.0000e+00	3.0000e+00	3.0000e+00	3.0000e+00	3.0000e+00	3.0000e+00	1.5000e+00	3.0000e+00	

B = Detector Channel
B-1	B-2	B-3	B-4	B-5	B-6	B-7	B-8	B-9	B-10	B-11	B-12	B-13	B-14	B-15	B-16	

1.0000e+01	1.0000e+01	1.0000e+01	1.4400e+00	1.0000e+01	1.0000e+01	1.5100e+00	1.9400e+00	1.0000e+01	1.0000e+01	1.9900e+00	2.4900e+00	2.4100e+00	2.9000e+00	1.0000e+01	2.9800e+00	




#DATA BEGINS
time	group	step	mark	flag	A-AC1	A-AC2	A-AC3	A-AC4	A-AC5	A-AC6	A-AC7	A-AC8	A-AC9	A-AC10	A-AC11	A-AC12	A-AC13	A-AC14	A-AC15	A-AC16	A-DC1	A-DC2	A-DC3	A-DC4	A-DC5	A-DC6	A-DC7	A-DC8	A-DC9	A-DC10	A-DC11	A-DC12	A-DC13	A-DC14	A-DC15	A-DC16	A-Ph1	A-Ph2	A-Ph3	A-Ph4	A-Ph5	A-Ph6	A-Ph7	A-Ph8	A-Ph9	A-Ph10	A-Ph11	A-Ph12	A-Ph13	A-Ph14	A-Ph15	A-Ph16	B-AC1	B-AC2	B-AC3	B-AC4	B-AC5	B-AC6	B-AC7	B-AC8	B-AC9	B-AC10	B-AC11	B-AC12	B-AC13	B-AC14	B-AC15	B-AC16	B-DC1	B-DC2	B-DC3	B-DC4	B-DC5	B-DC6	B-DC7	B-DC8	B-DC9	B-DC10	B-DC11	B-DC12	B-DC13	B-DC14	B-DC15	B-DC16	B-Ph1	B-Ph2	B-Ph3	B-Ph4	B-Ph5	B-Ph6	B-Ph7	B-Ph8	B-Ph9	B-Ph10	B-Ph11	B-Ph12	B-Ph13	B-Ph14	B-Ph15	B-Ph16	aux-1	digaux	

3186.176	1	1	0	256	0.18097	0.32072	0.14515	0.16813	0.18059	0.1226	0.20572	0.10814	0.31816	0.10777	0.1051	0.1111	0.067219	0.21289	0.14163	0.24294	-1.5021	-1.8333	-1.4146	-2.2146	-1.475	-1.5812	-2.1833	-1.4917	-1.8208	-1.8771	-1.2896	-2.1437	-1.5479	-1.4375	-2.1021	-1.3146	-38.464	-47.387	199.568	144.710	-62.102	25.357	161.176	-27.590	40.858	-47.371	-22.953	84.751	165.507	216.321	-109.440	206.798	0.00041769	0.00019669	2.4722e-05	1048.7	3.2296e-06	6.46e-06	1135.1	218.72	4.9816e-06	3.1309e-06	281.83	80.202	63.923	18.372	2.8399e-06	25.477	0.00046021	0.00045575	0.00012761	1035.7	5.1083e-06	5.0808e-06	1127.4	219.22	5.034e-06	5.1155e-06	283.76	82.035	65.526	19.11	5.0005e-06	26.456	89.335	-79.925	126.080	-118.010	-103.271	-16.876	-118.357	-110.492	-12.544	-53.363	-110.859	-105.151	-104.698	-96.628	33.953	-97.268	-8191	255	
3186.270	1	1	0	0	0.25014	0.22997	0.20775	0.1636	0.13945	0.095375	0.12055	0.073319	0.34857	0.17059	0.10609	0.064143	0.23197	0.071608	0.29765	0.1034	-1.4312	-2.2375	-1.2208	-2.2333	-1.4833	-1.4292	-2.3646	-1.5438	-1.8021	-2.0521	-1.4104	-1.9917	-1.7125	-1.4542	-2.3083	-1.5229	-65.863	-70.118	-28.440	197.841	-38.636	2.069	202.371	-99.946	229.444	-82.348	-69.972	-105.221	70.310	-46.137	-8.718	164.677	0.00047419	0.00010017	9.4598e-05	1046.2	4.4762e-06	7.6714e-07	1133.3	217.26	9.1484e-06	1.8563e-06	281.94	79.841	63.34	18.438	5.8599e-06	25.434	0.00045381	0.00045552	0.0001289	1034	5.0283e-06	4.9972e-06	1125.3	218.73	5.0327e-06	4.9934e-06	283.72	81.702	65.196	19.124	5.0562e-06	26.429	63.604	102.183	-88.688	-118.135	24.576	-39.379	-118.198	-110.951	-45.823	2.611	-111.491	-104.616	-104.127	-96.818	49.360	-97.768	-8191	255	
3186.366	1	1	0	0	0.29925	0.22463	0.16645	0.36274	0.065544	0.17161	0.091096	0.15112	0.12152	0.091469	0.24522	0.27373	0.14559	0.17496	0.096701	0.19625	-1.3271	-1.8083	-1.1354	-2.1542	-1.775	-1.4208	-2.3104	-1.4625	-1.525	-1.9896	-1.2812	-2.0479	-1.8729	-1.375	-2.1333	-1.7458	-125.210	60.190	117.687	203.674	188.584	212.604	222.981	148.697	-76.118	-99.989	-78.579	-95.593	211.828	54.875	-103.100	-46.027	0.00064333	0.00059137	0.00016459	1049.9	7.9419e-06	6.6616e-06	1137.1	217.18	7.5803e-06	9.0193e-06	282.26	80.448	63.212	18.479	5.9133e-06	25.4	0.00046134	0.00046698	0.00012952	1036.9	5.0865e-06	5.0869e-06	1125.5	219.08	5.0814e-06	5.1093e-06	284.22	81.993	65.325	19.084	5.096e-06	26.493	83.958	-65.050	-50.684	-117.942	-26.904	77.947	-118.357	-111.026	-23.397	57.138	-111.205	-104.767	-104.689	-96.585	-97.625	-97.163	-8191	255	
3186.462	1	1	0	0	0.28874	0.25873	0.14019	0.16522	0.037947	0.12681	0.14429	0.18021	0.15428	0.035386	0.085777	0.28849	0.22734	0.16561	0.16263	0.11737	-1.0979	-2.1562	-1.2542	-1.8312	-1.9146	-1.475	-2.2792	-1.6104	-1.4438	-1.9083	-1.4083	-1.7938	-2.0458	-1.1063	-2.2146	-1.7188	-76.627	-16.084	173.413	196.302	171.333	54.703	116.195	94.938	-48.835	-106.963	1.005	121.011	221.511	155.650	-111.591	174.265	0.00032221	0.00015402	0.00018696	1045.6	3.4299e-06	2.774e-06	1135.7	218.17	7.1338e-06	1.0528e-05	281.59	80.648	63.733	18.378	6.5276e-06	25.49	0.00045096	0.00045898	0.00012723	1035.6	5.0165e-06	4.9996e-06	1125.5	219.19	5.0775e-06	4.9624e-06	283.23	81.98	65.421	19.061	4.9932e-06	26.462	124.113	17.042	-63.783	-117.770	-114.719	31.850	-117.950	-110.608	-79.858	19.944	-111.092	-104.283	-104.092	-96.422	-42.922	-97.297	-8191	255	
3186.583	1	1	0	0	0.14147	0.22165	0.24233	0.15777	0.11484	0.1751	0.2856	0.19605	0.147	0.17876	0.21075	0.11164	0.17156	0.076421	0.13821	0.16181	-0.84583	-2.1	-1.3167	-1.9625	-2.0208	-1.3542	-2.2042	-1.7687	-1.3667	-2.1854	-1.4896	-1.6479	-2.0917	-1.2708	-1.9521	-1.7104	-4.421	-70.172	-112.200	228.716	-119.175	167.946	165.807	139.552	-3.794	141.521	62.171	-39.555	120.746	70.590	7.972	-125.033	0.00033029	0.00050878	0.00016186	1048.6	7.4663e-06	4.9171e-06	1136	217.69	2.5082e-07	7.5191e-06	280.77	80.892	63.503	18.491	5.5386e-06	25.552	0.00044953	0.00045579	0.00012701	1033.1	5.0189e-06	5.0461e-06	1124.4	219.04	5.0525e-06	5.0357e-06	283.06	82.12	65.212	19.144	5.0068e-06	26.463	94.402	-33.963	-78.661	-117.722	17.156	10.193	-118.160	-110.838	-113.477	-9.151	-110.706	-104.361	-103.807	-96.580	81.921	-97.532	-8191	255	
3186.679	1	1	0	0	0.26516	0.19317	0.16772	0.20044	0.17007	0.12949	0.38536	0.075761	0.39518	0.26716	0.21015	0.18638	0.11143	0.12459	0.20666	0.30626	-0.95833	-2.1813	-1.5333	-1.5292	-2.2562	-1.1875	-2.2021	-2.1188	-1.3646	-2.025	-1.6542	-1.5938	-2.2417	-1.1729	-1.7333	-1.9146	200.914	129.367	5.862	179.403	118.047	56.843	192.502	-102.881	224.582	171.178	0.453	203.062	-57.030	191.555	202.740	70.742	0.00035964	8.378e-05	0.00013334	1043.5	6.3806e-06	7.2516e-06	1131.6	218.91	4.3156e-06	1.1952e-06	281.87	80.403	64.027	18.545	3.3518e-06	25.464	0.00044685	0.00045155	0.00012681	1032.2	4.9618e-06	4.9628e-06	1122.8	219.28	4.9228e-06	4.9449e-06	283.33	81.847	65.537	19.117	4.916e-06	26.401	80.765	9.514	-73.507	-117.943	156.732	-16.470	-117.982	-110.456	31.043	-71.316	-110.879	-104.329	-103.941	-96.458	-10.741	-97.005	-8191	255	
3186.775	1	1	0	0	0.10743	0.24873	0.27955	0.18347	0.089426	0.11656	0.2218	0.17573	0.11616	0.17946	0.087647	0.16001	0.041768	0.22329	0.36396	0.186	-1.1083	-2.1167	-1.5562	-1.4896	-2.2812	-1.0812	-2.1688	-2.2083	-1.1083	-2.075	-1.6938	-1.5375	-2.2771	-1.3896	-1.7646	-2.0229	177.894	-82.201	157.183	180.375	143.949	106.548	142.511	-106.748	125.738	-62.121	-4.931	116.369	-122.544	185.093	214.094	69.659	0.00041095	0.00047731	0.0001689	1038.9	2.599e-06	8.9348e-06	1130.7	217.92	3.7536e-06	9.7609e-07	281.41	80.199	63.293	18.404	4.2121e-06	25.182	0.00045022	0.00044894	0.0001246	1029.6	4.9914e-06	4.9419e-06	1121.9	218.36	4.9038e-06	4.9216e-06	282.71	81.557	65.304	19.047	4.8714e-06	26.185	86.879	-109.550	-97.435	-117.835	37.231	54.545	-118.116	-110.613	-32.473	33.417	-110.853	-105.058	-104.149	-96.618	48.591	-97.250	-8191	255	
3186.872	1	1	0	0	0.10301	0.069449	0.1547	0.26164	0.048843	0.2878	0.21437	0.22668	0.1785	0.10699	0.15131	0.39289	0.11537	0.14397	0.091223	0.13936	-0.85833	-2.1521	-1.7167	-1.3937	-2.0812	-1.3958	-1.7563	-2.1833	-1.2812	-2.1458	-2.0396	-1.2229	-2.1688	-1.2354	-1.6896	-2.2292	34.109	145.827	202.905	163.693	58.559	177.873	-53.896	147.183	-117.363	-94.905	201.264	210.629	-64.868	-114.985	-74.900	144.012	0.00047219	0.00059906	0.00017096	1034.4	3.8217e-06	2.8495e-06	1122.5	216.52	3.6287e-06	2.6662e-06	278	79.655	62.924	18.31	4.8156e-06	25.252	0.00043308	0.00044122	0.00012246	1022.6	4.8526e-06	4.7907e-06	1112	217.34	4.7531e-06	4.7391e-06	279.65	81.088	64.416	18.857	4.6683e-06	26.103	65.386	186.319	-107.211	-118.264	135.001	105.201	-118.253	-110.920	-21.845	68.461	-111.482	-104.588	-104.304	-96.906	12.804	-97.482	-8191	255	
3186.968	1	1	0	0	0.15202	0.093907	0.30768	0.12661	0.18729	0.34485	0.18343	0.14781	0.096617	0.32684	0.081894	0.059285	0.17117	0.18317	0.20165	0.33062	-0.80833	-2.0104	-1.7729	-1.2687	-2.1625	-1.4646	-1.6083	-2.1437	-1.3104	-1.8042	-2.05	-1.3771	-2.1146	-1.5333	-1.4292	-2.2458	81.714	-109.909	103.828	126.510	140.388	-67.216	-20.010	150.847	16.001	24.265	164.665	188.487	-109.349	-123.927	-112.222	120.682	0.0003811	0.00054539	8.4829e-05	1028.6	4.4172e-07	2.3375e-06	1116.1	215.07	3.739e-06	2.2138e-06	275.68	79.011	62.529	18.087	9.8652e-07	25.073	0.00042815	0.00042054	0.00011608	1014.5	4.6537e-06	4.6374e-06	1103.5	215.54	4.5608e-06	4.5085e-06	277.83	80.397	63.829	18.653	4.522e-06	25.847	57.163	-38.293	-78.268	-118.003	228.163	142.616	-118.068	-110.475	-20.688	0.455	-111.049	-104.478	-104.483	-96.702	136.818	-97.153	-8191	255	
3187.064	1	1	0	0	0.24921	0.051727	0.13525	0.12858	0.1037	0.28341	0.31254	0.25781	0.19844	0.11831	0.083705	0.25602	0.27781	0.034301	0.16932	0.061099	-0.90833	-1.6708	-1.9271	-1.3125	-2.0583	-1.7292	-1.5542	-2.2438	-1.5292	-1.7521	-2.2687	-1.3896	-1.9583	-1.8542	-1.4188	-2.2812	-119.136	-91.361	139.342	209.049	222.467	-49.915	206.963	116.343	17.004	-68.818	223.112	128.564	82.596	-20.411	-0.544	229.632	0.00037342	0.00050965	0.00017107	1018.7	5.2927e-06	3.986e-06	1110.3	213.65	5.0142e-06	2.2373e-06	274.81	78.765	62.818	18.079	3.3689e-06	24.862	0.00040149	0.00041282	0.00011449	1007.3	4.4776e-06	4.5267e-06	1096.7	214.1	4.4928e-06	4.5269e-06	276.23	80.114	63.706	18.64	4.409e-06	25.793	80.052	-30.059	230.960	-117.874	-88.303	150.988	-118.189	-110.609	203.136	17.487	-111.239	-104.388	-103.769	-96.700	-29.849	-96.740	-8191	255	
3187.183	1	1	0	0	0.30059	0.17721	0.11579	0.10321	0.11075	0.037242	0.10763	0.038511	0.21409	0.22064	0.2157	0.31169	0.062195	0.27884	0.33217	0.19763	-1.0438	-1.7083	-2.1354	-1.2437	-1.9979	-1.6833	-1.2646	-2.2562	-1.4708	-1.4917	-2.1604	-1.35	-1.7729	-1.8646	-1.2208	-2.1167	224.162	88.013	219.604	-103.302	4.471	66.732	175.333	161.799	128.412	204.722	-40.760	206.825	179.078	-104.513	84.102	158.580	0.00046231	0.00035132	0.00023821	1014.9	2.3406e-06	5.4123e-06	1101.9	213.27	4.434e-06	2.1367e-06	273.85	78.943	62.138	18.122	6.3335e-06	24.949	0.00040224	0.00040663	0.00011184	1002.5	4.434e-06	4.4479e-06	1092.2	213.64	4.3781e-06	4.4287e-06	274.87	79.87	63.378	18.579	4.3718e-06	25.79	102.202	-91.355	-2.819	-117.951	-64.307	-55.499	-118.035	-110.283	-58.104	49.465	-110.892	-104.570	-104.016	-96.146	17.271	-97.056	-8191	255	
3187.279	1	1	0	0	0.25548	0.50447	0.20602	0.2222	0.2779	0.1599	0.34814	0.056298	0.087687	0.26902	0.085574	0.081559	0.18267	0.10363	0.31175	0.051882	-1.175	-1.4125	-2.175	-1.4688	-1.9708	-1.8458	-1.5333	-2.2479	-1.5354	-1.3042	-2.0687	-1.6042	-1.7563	-1.9708	-1.2729	-2.1271	72.084	-65.749	-97.933	59.610	182.729	187.031	172.822	-93.938	168.659	-104.540	182.649	-3.834	-121.926	192.169	19.603	190.285	0.00056338	0.00028976	9.9941e-05	1007.7	5.8625e-07	5.6147e-06	1099.4	212.13	4.9981e-06	6.0658e-06	275.02	78.273	62.054	18.01	5.7979e-06	24.799	0.00038962	0.0004002	0.00011154	997.01	4.3415e-06	4.3891e-06	1088.1	213.41	4.3931e-06	4.344e-06	273.97	79.729	63.323	18.496	4.3139e-06	25.7	72.119	42.224	12.986	-117.732	-71.200	22.536	-118.001	-110.390	78.403	33.496	-111.074	-104.551	-104.088	-96.913	26.616	-97.191	-8191	255	
3187.375	1	1	0	0	0.12354	0.24732	0.17172	0.11992	0.11062	0.28682	0.17625	0.15426	0.25067	0.32294	0.24614	0.17947	0.20176	0.18828	0.15762	0.18645	-1.3375	-1.3354	-2.0917	-1.525	-1.7604	-2.0292	-1.4396	-2.1854	-1.7896	-1.3438	-2.3146	-1.7104	-1.9146	-2.1729	-1.3396	-2.1063	194.287	105.653	216.422	-5.013	101.561	-15.657	190.354	217.730	118.155	83.474	151.381	172.032	212.457	-114.931	119.759	137.451	0.00065868	0.00033542	8.4925e-05	1007.5	3.2881e-06	3.849e-06	1096.9	212.25	7.4496e-07	2.7489e-06	273.62	78.057	61.559	18.022	3.2284e-06	24.847	0.00039264	0.00040116	0.00011071	993.9	4.2983e-06	4.3517e-06	1083.6	213.2	4.3094e-06	4.3509e-06	273.1	79.469	63.055	18.503	4.2463e-06	25.633	79.043	32.783	-3.220	-118.033	-2.153	90.844	-118.124	-110.635	167.912	-85.401	-110.879	-104.174	-104.322	-96.215	-80.400	-97.366	-8191	255	
3187.471	1	1	0	0	0.33087	0.16314	0.17063	0.28973	0.16885	0.054094	0.27411	0.29069	0.10747	0.22212	0.23198	0.38057	0.11896	0.027358	0.17431	0.31523	-1.4208	-1.4333	-1.9521	-1.6208	-1.5917	-2.2375	-1.5812	-2.1146	-1.8208	-1.1479	-2.2417	-1.6583	-1.6292	-2.1979	-1.35	-1.8563	-96.148	114.154	113.163	176.286	-44.674	143.050	180.230	216.578	127.028	-51.766	130.957	145.387	41.223	149.429	-124.608	191.138	0.00026982	0.00022304	0.00015216	1001.1	1.2905e-06	1.2283e-06	1094.7	213.46	2.187e-06	4.1062e-06	272.73	78.637	61.799	17.931	2.6364e-06	25.048	0.00039045	0.00038986	0.00010861	991.99	4.363e-06	4.3618e-06	1082.1	212.49	4.2984e-06	4.2775e-06	272.91	79.232	63.019	18.446	4.2757e-06	25.714	102.843	-3.831	-65.883	-117.794	-83.528	37.368	-117.811	-110.218	-113.267	105.914	-110.459	-104.017	-103.960	-95.646	10.321	-96.198	-8191	255	
3187.567	1	1	0	0	0.099063	0.11319	0.16823	0.092665	0.34846	0.16429	0.28475	0.39122	0.19726	0.010906	0.01418	0.10891	0.15246	0.13037	0.26288	0.076657	-1.6708	-1.2125	-2.2062	-1.9375	-1.3146	-2.3729	-1.5354	-1.7146	-1.9813	-1.3563	-2.2146	-1.7812	-1.3917	-2.0167	-1.5458	-1.6854	36.988	44.158	216.695	185.405	-118.606	-30.906	198.436	188.207	56.774	162.511	-94.489	-91.720	104.933	199.693	-105.914	161.309	0.00034317	0.00015378	0.00013024	1005.1	4.2434e-06	5.7107e-06	1086.9	212.71	7.1424e-06	2.9728e-06	272.38	78.029	61.777	17.954	2.3012e-06	24.742	0.00038549	0.00038511	0.00010791	992.28	4.2056e-06	4.2381e-06	1079.8	212.1	4.2381e-06	4.1868e-06	271.76	78.988	62.946	18.376	4.1399e-06	25.564	70.429	-61.388	-26.716	-117.529	-37.657	28.948	-117.683	-110.300	36.291	-34.013	-110.977	-104.626	-103.980	-96.380	-37.755	-96.452	-8191	255	
3187.663	1	1	0	0	0.10717	0.12575	0.16443	0.21212	0.30001	0.14763	0.27046	0.15567	0.18408	0.23576	0.12858	0.2106	0.17479	0.14212	0.096208	0.17979	-1.6917	-1.2833	-1.9479	-1.8333	-1.2646	-2.175	-1.7687	-1.6021	-2.125	-1.2188	-1.9813	-2.0896	-1.4062	-2.1479	-1.2667	-1.5458	19.978	85.080	-95.273	130.600	17.918	217.655	117.095	219.326	221.551	185.392	170.482	225.724	204.712	210.826	-56.481	209.086	0.00051004	0.00048545	8.2148e-05	1000.8	3.863e-06	6.2143e-06	1090.2	211.92	5.8046e-06	1.7746e-06	271.6	77.942	61.482	18.081	1.6545e-06	24.658	0.0003796	0.00037692	0.00010519	985.99	4.1664e-06	4.099e-06	1078.1	211.16	4.1842e-06	4.1319e-06	272.12	78.969	62.441	18.368	4.0883e-06	25.411	100.083	24.667	15.055	-117.422	-19.495	184.806	-117.316	-109.780	-98.491	120.120	-110.363	-103.884	-103.624	-96.092	-61.872	-96.665	-8191	255	
3187.760	1	1	0	0	0.29566	0.10845	0.05732	0.25613	0.10815	0.086666	0.042656	0.082901	0.15708	0.15228	0.12633	0.35024	0.15042	0.2373	0.2196	0.046345	-1.7062	-1.3646	-1.9083	-1.9729	-1.2563	-2.1646	-1.5938	-1.5417	-2.1833	-1.2833	-1.8479	-2.0687	-1.2458	-2.1021	-1.5729	-1.3896	146.717	120.212	-91.320	117.754	153.834	133.612	37.186	11.535	116.095	60.057	-123.198	204.305	137.408	-122.905	-53.997	-98.404	0.00041252	0.00029785	0.00014967	996.24	4.5563e-06	2.246e-06	1084.9	210.15	5.8035e-06	5.0164e-06	271.16	77.494	61.248	17.816	6.3304e-06	24.653	0.00037233	0.00037118	0.0001044	985.87	4.1453e-06	4.0924e-06	1073.6	210.38	4.1948e-06	4.1273e-06	271.12	78.661	62.431	18.381	4.147e-06	25.406	88.804	57.029	-60.684	-117.629	-2.932	162.645	-117.504	-109.918	49.172	43.444	-110.591	-104.471	-103.546	-96.450	-1.320	-96.425	-8191	255	
3187.856	1	1	0	0	0.26459	0.21287	0.15432	0.4228	0.26117	0.15308	0.27103	0.030299	0.17746	0.14549	0.23662	0.24064	0.14289	0.098717	0.10159	0.16039	-1.8312	-1.3146	-1.6938	-2.3042	-1.2375	-2.0896	-1.8375	-1.4688	-2.1521	-1.3563	-1.6625	-2.1729	-1.3062	-1.9583	-1.925	-1.4521	-53.720	-61.485	189.441	-104.068	160.842	-16.273	127.085	94.770	-114.038	204.505	64.158	-92.141	53.222	182.079	106.457	69.523	0.00041555	0.00044692	0.00016341	998.08	5.7319e-06	5.2514e-06	1083.5	210.9	6.05e-06	4.8228e-06	271.44	77.953	61.043	17.717	6.744e-06	24.673	0.00037566	0.00038045	0.00010381	982.18	4.1164e-06	4.0986e-06	1072.7	210.21	4.1813e-06	4.1748e-06	270.82	78.877	62.357	18.312	4.123e-06	25.39	68.361	-24.016	-115.112	-117.374	-125.389	2.040	-117.535	-110.101	4.142	26.599	-110.489	-104.454	-103.963	-95.710	22.162	-96.811	-8191	255	
3187.976	1	1	0	0	0.18666	0.20805	0.29357	0.21512	0.36258	0.14614	0.26952	0.080684	0.12007	0.16132	0.48176	0.027056	0.25845	0.09692	0.19597	0.16471	-1.7354	-1.4562	-1.4729	-2.3521	-1.2417	-1.8167	-1.9229	-1.4333	-2.1188	-1.5083	-1.4917	-2.1688	-1.4208	-1.9917	-1.8458	-1.4312	-82.624	-94.050	169.108	-112.055	115.574	50.832	139.635	227.846	72.133	-58.852	-125.676	-95.930	-62.998	195.668	-124.634	-19.754	0.00038117	0.00021894	4.6491e-05	993.08	3.7004e-06	4.6135e-06	1086.3	211.54	4.3958e-06	1.5842e-06	268.01	77.452	61.889	17.811	4.5977e-06	24.353	0.00037569	0.0003771	0.00010558	982.56	4.1548e-06	4.148e-06	1071.7	210.79	4.2116e-06	4.1788e-06	269.96	78.655	62.551	18.38	4.1979e-06	25.367	64.907	195.335	37.154	-117.465	-97.252	-77.687	-117.388	-110.050	224.238	112.588	-109.944	-104.657	-103.885	-96.417	-27.828	-96.354	-8191	255	
3188.071	1	1	0	0	0.3573	0.016086	0.22165	0.26257	0.24683	0.078405	0.12143	0.22673	0.22563	0.20592	0.12173	0.076041	0.050827	0.32871	0.2081	0.36138	-1.7583	-1.6437	-1.3062	-2.2146	-1.3521	-1.9062	-2.0312	-1.3646	-2.0083	-1.825	-1.3854	-2.2396	-1.35	-1.65	-1.9688	-1.3542	-70.492	172.755	-62.777	197.692	140.323	45.209	227.958	164.137	38.906	215.423	93.322	126.662	-119.574	151.509	159.431	107.364	0.00050151	0.00017562	0.00013214	998.1	5.0334e-06	4.3443e-06	1084.6	211.04	1.4842e-06	4.5713e-06	271.98	77.713	62.082	17.891	7.4567e-06	24.629	0.00038303	0.00038075	0.00010884	984.44	4.2412e-06	4.2604e-06	1075.1	210.93	4.2906e-06	4.2532e-06	271.71	78.882	62.681	18.384	4.1887e-06	25.455	112.072	-71.935	-58.569	-117.261	-83.920	91.609	-117.411	-110.102	-81.970	43.682	-110.133	-103.930	-103.501	-95.770	-68.675	-97.135	-8191	255	
3188.144	1	1	0	0	0.078402	0.12414	0.21784	0.29616	0.38379	0.14429	0.18517	0.11523	0.11671	0.12319	0.30579	0.030269	0.06027	0.21039	0.097616	0.069782	-1.6	-1.8042	-1.2667	-2.225	-1.4792	-1.4688	-2.3187	-1.3479	-2.0104	-1.8375	-1.3167	-2.225	-1.4625	-1.5042	-2.2229	-1.4667	212.181	110.202	43.657	151.884	81.261	-63.329	166.331	161.710	111.790	-91.039	177.749	161.126	94.013	81.180	-32.714	185.054	0.00031174	0.00026771	0.00015665	1003.4	4.044e-06	7.9809e-06	1088.1	211.73	6.3333e-06	8.6846e-06	271.56	77.999	60.558	17.841	4.1067e-06	24.691	0.00038577	0.00039169	0.00010809	986.74	4.2943e-06	4.291e-06	1076.5	211.28	4.3649e-06	4.3427e-06	271.65	79.021	62.464	18.392	4.4058e-06	25.514	89.496	-66.623	-29.189	-117.375	-68.423	8.173	-117.184	-109.935	-61.325	37.854	-110.249	-103.932	-103.579	-96.319	-22.831	-96.507	-8191	255	
3188.265	1	1	0	0	0.19512	0.23627	0.23248	0.15884	0.15197	0.13568	0.30199	0.35187	0.17665	0.084951	0.34967	0.22679	0.19294	0.22707	0.20157	0.27817	-1.5042	-2.1083	-1.2292	-2.2583	-1.5583	-1.3563	-2.2562	-1.5292	-1.7875	-1.9521	-1.4813	-2.1146	-1.7729	-1.6562	-2.2292	-1.5375	177.627	79.027	76.584	-117.159	-70.870	-54.773	146.244	166.713	198.397	48.294	93.881	-69.112	68.491	-110.201	102.888	-122.380	0.00053902	0.00042397	0.00013421	999.84	6.053e-06	7.518e-06	1094.5	210.29	7.4777e-06	2.9896e-06	271.6	78.163	61.532	17.89	6.3645e-06	24.701	0.00039205	0.0003935	0.00011198	984.43	4.3159e-06	4.3183e-06	1079.6	210.62	4.3692e-06	4.3485e-06	271.78	79.174	62.819	18.404	4.338e-06	25.496	77.305	-18.147	-25.033	-117.467	-43.953	10.615	-117.351	-110.252	-11.294	38.511	-110.203	-103.952	-103.807	-95.403	-96.896	-96.457	-8191	255	
3188.359	1	1	0	0	0.13997	0.23508	0.15515	0.30343	0.15838	0.22664	0.15871	0.20158	0.079903	0.26704	0.23276	0.30689	0.14607	0.19707	0.19592	0.066172	-1.4604	-2.0229	-1.35	-1.8771	-1.5875	-1.2833	-2.5	-1.6125	-1.7	-1.9042	-1.3042	-1.9917	-1.9354	-1.3188	-2.0938	-1.4542	163.654	136.881	-123.316	174.263	-54.774	53.321	174.114	-94.209	82.068	24.075	4.041	105.608	141.830	-107.532	212.967	85.906	0.00053877	0.0005628	7.2804e-05	1001.3	2.936e-06	3.6073e-06	1092.3	211.1	6.4888e-06	3.9212e-06	270.69	77.931	61.341	17.897	2.016e-06	24.569	0.0004001	0.00039596	0.00011043	988.48	4.3266e-06	4.304e-06	1079.3	211.43	4.2997e-06	4.3039e-06	271.74	79.02	62.599	18.384	4.2488e-06	25.492	86.862	-5.532	98.355	-117.537	139.017	127.605	-117.615	-110.297	221.167	63.460	-109.942	-103.566	-103.036	-95.911	11.396	-96.210	-8191	255	
3188.455	1	1	0	0	0.33332	0.17942	0.016678	0.19293	0.16955	0.022198	0.158	0.18011	0.15222	0.19917	0.20331	0.13769	0.20727	0.40839	0.14641	0.092195	-1.1792	-2.1	-1.3167	-2.05	-1.8542	-1.2729	-2.575	-1.6771	-1.5083	-2.1229	-1.2979	-2.0896	-2.0979	-1.2479	-2.0583	-1.6875	27.215	-97.797	-14.446	231.131	-62.708	59.265	65.818	-112.043	218.448	33.812	137.144	188.623	-37.099	-108.030	-125.624	-88.533	0.00037865	0.00018571	0.00024171	999.34	2.267e-06	5.0544e-06	1086.9	211	6.0199e-06	5.9699e-06	271.03	78.565	61.091	17.906	3.6868e-07	24.786	0.00038073	0.0003858	0.00010675	985.03	4.2135e-06	4.2025e-06	1075.2	211.04	4.1968e-06	4.1742e-06	271.68	79.249	62.329	18.389	4.0924e-06	25.444	117.111	-102.346	-40.758	-117.138	-65.822	28.727	-117.052	-110.543	24.992	24.104	-110.820	-104.085	-103.742	-96.037	143.090	-96.228	-8191	255	
3188.576	1	1	0	0	0.18596	0.1343	0.23535	0.12343	0.13208	0.25932	0.045845	0.30989	0.21065	0.060587	0.1262	0.28896	0.37992	0.1823	0.23042	0.2504	-1.0521	-1.9417	-1.3813	-1.8604	-1.8458	-1.1604	-2.175	-1.5875	-1.4854	-2.1833	-1.4875	-1.6417	-1.9646	-1.0688	-2.0021	-1.8083	125.603	132.656	63.951	-96.399	108.997	46.045	192.402	154.768	-30.997	114.589	189.077	168.922	156.035	19.168	205.742	-33.733	0.00031703	0.00039186	2.4793e-05	996.5	1.8736e-06	2.8959e-06	1086	211.19	2.8814e-06	2.8575e-06	269.56	77.846	61.381	17.802	5.254e-06	24.672	0.00037768	0.00037484	0.00010419	981.5	4.1064e-06	4.0944e-06	1071.9	210.89	4.0786e-06	4.0137e-06	269.86	78.713	62.429	18.304	4.0509e-06	25.378	84.093	-87.393	-122.919	-116.930	-106.530	29.922	-117.101	-109.560	-60.649	7.994	-110.308	-103.756	-102.958	-95.373	40.630	-96.312	-8191	255	
3188.672	1	1	0	0	0.19196	0.10538	0.085093	0.11745	0.26958	0.18587	0.29448	0.32011	0.12292	0.21422	0.11122	0.10469	0.049001	0.019921	0.20557	0.23228	-1.0375	-2.2938	-1.3333	-1.9312	-1.9312	-1.3604	-2.2583	-1.9312	-1.4646	-2.2229	-1.6208	-1.5229	-2.0021	-1.3042	-1.8146	-2.0187	165.458	153.532	162.161	182.996	-68.627	47.980	187.465	116.108	-44.376	150.980	215.021	93.994	213.736	-82.606	159.746	221.911	0.00040085	0.00028647	0.00019204	988.68	5.942e-06	4.1057e-06	1085.6	209.21	1.1185e-05	6.8426e-07	268.19	77.051	61.375	17.776	5.1465e-06	24.471	0.0003701	0.0003669	0.00010311	977.84	4.0259e-06	4.068e-06	1070.7	209.69	4.0228e-06	4.081e-06	269.26	78.509	62.377	18.283	4.0202e-06	25.289	70.929	18.791	10.525	-116.619	64.480	35.919	-116.982	-109.671	-67.993	30.957	-110.145	-103.423	-103.319	-95.954	14.698	-96.583	-8191	255	
3188.744	1	1	0	0	0.21727	0.30511	0.07273	0.080181	0.13048	0.038165	0.063722	0.24951	0.051822	0.18827	0.12082	0.22263	0.16948	0.2836	0.27814	0.074317	-0.75208	-2.0167	-1.5354	-1.6771	-1.9646	-1.3062	-1.9729	-1.8521	-1.0396	-2.1729	-1.6042	-1.5375	-2.1688	-1.2812	-1.6583	-1.9167	-101.002	223.702	37.507	-100.527	121.574	-107.561	86.949	95.155	-52.267	148.975	-64.450	219.720	-25.825	187.389	62.990	79.547	0.00057389	0.00035746	9.7301e-05	992.12	1.9192e-06	4.6599e-06	1079.6	208.95	4.3639e-06	5.6995e-06	270.04	78.053	61.212	17.811	2.2142e-06	24.606	0.0003642	0.0003645	0.00010134	976.18	4.0248e-06	4.019e-06	1067.5	209.47	4.0317e-06	4.0627e-06	269.59	78.501	62.299	18.292	4.0105e-06	25.375	85.505	-104.852	-60.036	-117.179	40.619	114.828	-117.616	-110.447	-31.374	44.195	-109.695	-103.647	-103.700	-95.729	6.789	-96.321	-8191	255	
3188.864	1	1	0	0	0.099512	0.042575	0.15296	0.34163	0.10846	0.036986	0.39975	0.20705	0.1551	0.053353	0.044419	0.35471	0.25159	0.21696	0.075205	0.096311	-1.0208	-2	-1.6146	-1.3271	-2.0833	-1.5312	-1.8458	-2.075	-1.1458	-2.1208	-1.7542	-1.3625	-2.1771	-1.3792	-1.7021	-2.2458	99.254	190.371	-64.945	161.398	192.384	53.469	170.339	5.466	68.218	156.894	171.297	223.656	214.226	128.182	-57.817	227.090	0.00021116	0.00054456	4.0173e-05	987.09	2.7684e-06	2.432e-06	1078.4	211.33	8.2415e-06	5.3751e-06	268.69	77.481	61.116	17.657	3.0628e-06	24.844	0.0003606	0.0003674	0.00010128	975.87	4.0514e-06	4.0306e-06	1065.9	209.93	4.0076e-06	3.9106e-06	269.35	78.324	62.098	18.216	3.9892e-06	25.363	106.176	-49.012	-46.492	-117.286	-22.772	46.857	-117.002	-109.617	-77.219	93.157	-110.066	-103.734	-103.506	-96.068	16.669	-96.520	-8191	255	
3188.961	1	1	0	0	0.016432	0.21165	0.19335	0.18125	0.22483	0.22983	0.3197	0.27467	0.13543	0.18913	0.038913	0.098368	0.17919	0.082551	0.19081	0.14929	-0.825	-1.9229	-1.9396	-1.5042	-2.0875	-1.4333	-1.6437	-2.325	-1.2812	-1.7479	-1.9896	-1.3542	-2.0625	-1.7542	-1.5354	-2.1333	104.729	-71.091	-94.586	-96.678	194.716	9.892	129.810	150.150	141.709	61.333	-89.188	-12.903	204.099	230.622	83.031	-71.425	0.00031145	0.00043796	7.8402e-05	986.53	3.8938e-06	9.1757e-06	1084.2	209.24	2.1132e-06	4.846e-06	267.54	78.105	61.347	17.692	7.0187e-06	24.625	0.00036084	0.0003608	0.00010016	972.81	3.9899e-06	3.9942e-06	1064.9	209.07	3.9691e-06	3.9714e-06	267.26	78.487	62.133	18.234	4.0664e-06	25.236	74.991	30.816	-113.362	-117.278	-90.227	51.930	-117.104	-109.899	-99.515	15.611	-110.087	-103.960	-102.998	-96.143	-32.112	-96.165	-8191	255	
3189.057	1	1	0	0	0.2255	0.038152	0.15338	0.38058	0.17838	0.057502	0.11975	0.31368	0.019365	0.22179	0.17195	0.058294	0.15289	0.059857	0.10203	0.12747	-0.90625	-1.6646	-1.9188	-1.2854	-2.1729	-1.5896	-1.7021	-2.3271	-1.3563	-1.7563	-2.1437	-1.5042	-2.1042	-1.7521	-1.2396	-2.1917	156.811	202.244	-56.419	-117.290	178.904	221.222	169.506	75.422	58.791	1.879	213.672	195.425	199.699	226.117	-35.446	19.605	0.00052332	0.00011883	4.9366e-05	982.78	2.9032e-06	3.4445e-06	1077	208.39	1.9074e-06	7.3258e-07	270.62	77.101	60.916	17.601	3.9614e-06	24.486	0.00035911	0.00036356	0.00010029	970.99	3.9634e-06	3.9689e-06	1061.3	209.02	4.0297e-06	3.92e-06	268.83	78.226	61.943	18.186	3.8942e-06	25.218	77.225	-119.558	-85.970	-117.239	-58.166	162.921	-117.120	-109.643	136.553	-3.358	-110.484	-103.451	-103.317	-96.044	-6.909	-96.507	-8191	255	
3189.151	1	1	0	0	0.17465	0.070797	0.10514	0.17065	0.099902	0.097385	0.13547	0.43867	0.28516	0.18803	0.33392	0.086187	0.1896	0.20085	0.13891	0.095737	-0.87917	-1.7062	-2.0333	-1.3563	-1.8229	-1.7896	-1.45	-2.1542	-1.4583	-1.4042	-2.1458	-1.4521	-1.9792	-1.8417	-1.1854	-2.2917	120.317	208.262	-40.382	-102.591	-97.688	220.892	127.150	182.383	-7.756	224.683	-90.087	-75.861	216.587	-69.988	15.305	178.502	0.00035768	0.00048872	6.839e-05	982.93	1.4219e-06	3.7909e-06	1076.2	209.82	1.0402e-05	6.2574e-06	268.48	77.586	61.268	17.734	2.3786e-06	24.809	0.00035834	0.00036134	0.00010029	969.68	3.9493e-06	3.9631e-06	1062.1	208.77	3.9606e-06	3.9073e-06	268.41	78.416	61.891	18.185	3.9359e-06	25.294	85.352	-72.562	-98.888	-117.034	-77.810	146.424	-117.136	-109.713	-24.432	23.108	-109.947	-104.099	-103.007	-95.906	25.935	-96.328	-8191	255	
3189.249	1	1	0	0	0.26243	0.14138	0.22272	0.16348	0.21413	0.1412	0.33582	0.22459	0.15549	0.27049	0.26112	0.29994	0.43008	0.14447	0.11829	0.102	-1.0875	-1.5354	-2.3708	-1.5521	-1.8479	-1.9667	-1.5708	-2.1875	-1.7229	-1.4021	-2.1083	-1.4208	-1.775	-1.9458	-1.2167	-2.0708	-49.020	140.778	-42.023	180.767	-112.857	-81.132	-122.482	-64.701	-25.399	225.225	187.792	169.738	-43.789	48.232	-11.184	-65.560	0.00062728	0.00015232	5.2801e-05	989.02	9.2345e-07	4.6803e-06	1070.5	210.07	1.8421e-06	6.3556e-06	267.57	77.666	60.709	17.769	3.5262e-06	24.573	0.000354	0.00035794	0.00010012	972.54	3.909e-06	3.9534e-06	1059.7	208.81	3.9418e-06	4.0202e-06	268.01	78.402	61.793	18.223	3.921e-06	25.192	85.087	-38.399	-126.783	-116.999	216.401	-20.492	-117.160	-110.071	-53.141	-30.036	-110.073	-103.584	-102.757	-95.977	-124.391	-96.212	-8191	255	
3189.368	1	1	0	0	0.26314	0.24278	0.084788	0.11257	0.27625	0.018554	0.1708	0.24298	0.31246	0.21838	0.026432	0.21368	0.097014	0.40068	0.10275	0.15594	-1.3958	-1.3271	-2.0146	-1.4646	-1.725	-2.0938	-1.5979	-2.0833	-1.9771	-1.3021	-2.2625	-1.425	-1.6396	-2.0542	-1.2542	-2.1292	154.307	-61.830	41.068	3.109	-123.565	154.055	125.639	74.271	-98.916	139.562	-29.683	201.925	122.861	-77.575	-40.462	119.596	0.00045157	0.00052779	3.6e-05	983.77	8.6302e-06	6.6943e-06	1075.1	210.02	4.4692e-06	4.1807e-06	269.81	77.094	61.009	17.744	2.9397e-06	24.561	0.00035666	0.0003589	9.9824e-05	968.97	3.9807e-06	3.9203e-06	1059.8	208.64	3.9632e-06	3.9559e-06	268.16	77.948	61.874	18.182	3.9589e-06	25.296	95.636	-31.358	182.456	-117.473	34.640	-0.528	-117.288	-109.813	-34.677	28.766	-109.311	-103.207	-103.187	-95.573	39.030	-95.777	-8191	255	
3189.440	1	1	0	0	0.38129	0.19378	0.26406	0.14592	0.18198	0.3294	0.12517	0.12453	0.12134	0.20302	0.091184	0.14167	0.047034	0.39893	0.076474	0.16247	-1.4604	-1.3458	-2.1271	-1.4958	-1.6979	-2.1542	-1.6063	-1.8563	-1.6729	-1.2167	-2.1771	-1.475	-1.3604	-2.1708	-1.3417	-2.1063	177.546	83.279	-40.001	229.499	-41.263	100.297	-103.269	196.833	-36.194	-51.970	-37.850	52.016	134.178	197.247	137.819	-91.104	0.0003676	0.00047529	0.00013914	981.41	1.2529e-06	5.0402e-06	1070.5	209.19	4.3514e-06	9.703e-07	267.29	76.869	61.386	17.725	2.8616e-06	24.592	0.000364	0.0003641	0.00010262	969.32	4.0574e-06	3.9899e-06	1059.6	208.78	4.0035e-06	4.0269e-06	267.27	77.839	61.89	18.133	3.9213e-06	25.226	84.551	-91.813	-34.961	-117.168	3.705	15.515	-117.143	-109.685	166.481	-94.486	-110.369	-103.798	-102.962	-95.793	50.073	-95.882	-8191	255	
3189.536	1	1	0	0	0.039095	0.15225	0.083139	0.32805	0.14012	0.024412	0.33561	0.20424	0.1637	0.18191	0.17427	0.37946	0.10572	0.15407	0.33553	0.19245	-1.5833	-1.3646	-2.1437	-1.7313	-1.4292	-2.2667	-1.4854	-2.0354	-1.8875	-1.4708	-2.2292	-1.8188	-1.2833	-2.1542	-1.3521	-1.7229	124.946	8.772	7.657	180.297	127.311	224.843	169.182	198.181	-25.066	222.521	208.759	-34.075	-94.472	20.111	4.880	42.873	0.00036559	0.00051609	0.00017112	980.32	3.9447e-06	2.979e-06	1074.1	208.21	3.1713e-06	3.515e-06	267.75	77.509	60.743	17.787	8.1803e-07	24.342	0.00036139	0.00035519	0.00010127	967.16	4.02e-06	4.0289e-06	1060	208.12	3.9411e-06	3.9841e-06	267.05	77.955	61.817	18.156	3.8744e-06	25.191	103.784	203.744	-21.468	-117.160	-44.487	-38.365	-116.937	-109.707	9.961	214.047	-110.136	-103.797	-103.396	-96.029	-97.564	-96.820	-8191	255	
3189.656	1	1	0	0	0.17992	0.28627	0.25586	0.45301	0.27872	0.1221	0.26329	0.12464	0.19655	0.11815	0.25288	0.20038	0.38817	0.26411	0.069316	0.21455	-1.5375	-1.3104	-1.9708	-1.7417	-1.3375	-2.1208	-1.4354	-1.8125	-2.0479	-1.2521	-1.9583	-1.9562	-1.2208	-2.025	-1.5187	-1.5896	116.171	17.072	-67.387	166.533	-17.201	-62.049	40.728	189.809	-25.919	-16.903	88.484	93.932	180.480	156.475	11.356	192.122	0.00042073	0.00042059	3.531e-05	980.13	1.3099e-06	2.072e-06	1072.1	207.97	6.0854e-06	3.9705e-06	269.53	77.215	60.293	17.37	1.9375e-06	24.351	0.00035327	0.00036025	0.00010076	964.12	3.9586e-06	3.8681e-06	1054.8	207.84	3.923e-06	3.9794e-06	267.71	77.887	61.689	18.024	3.9464e-06	25.153	86.928	190.314	-78.646	-116.988	-64.390	61.785	-117.669	-109.795	5.710	92.383	-110.530	-104.086	-103.444	-95.707	145.785	-96.362	-8191	255	
3189.753	1	1	0	0	0.012566	0.20439	0.17163	0.28096	0.085983	0.13011	0.23341	0.13213	0.17675	0.096254	0.092657	0.31789	0.014303	0.19742	0.15893	0.2851	-1.5479	-1.3396	-1.7042	-1.8729	-1.1604	-2.0521	-1.6604	-1.6104	-2.1146	-1.2792	-1.65	-1.8896	-1.3687	-2.1063	-1.5187	-1.3792	192.003	41.226	153.212	206.570	-62.347	222.155	143.284	217.137	89.296	-64.445	68.074	222.395	158.485	216.386	86.382	-110.075	0.00038367	0.00020764	9.5923e-05	976.59	2.9713e-06	7.1705e-06	1064.8	208.26	9.7354e-06	7.9486e-06	264.92	76.991	60.918	17.674	3.2562e-06	24.439	0.00036216	0.00036177	0.00010158	962.95	3.9904e-06	3.9859e-06	1052.5	207.79	3.9322e-06	4.0204e-06	266.25	77.628	61.746	18.114	4.0299e-06	25.139	61.872	-35.183	-97.522	-117.390	58.230	64.618	-117.837	-110.399	-63.050	109.590	-110.928	-104.733	-104.052	-96.261	-58.282	-96.818	-8191	255	
3189.849	1	1	0	0	0.18869	0.13659	0.069722	0.27162	0.12948	0.11345	0.54563	0.13046	0.093147	0.073672	0.13213	0.13191	0.12247	0.12592	0.29011	0.17326	-1.7271	-1.2313	-1.8771	-2.1646	-1.2292	-2.0292	-1.8375	-1.5083	-2.1104	-1.3521	-1.7229	-1.9792	-1.3833	-2.025	-1.6708	-1.275	12.037	30.831	-71.597	187.520	154.635	138.865	179.458	121.519	230.546	59.024	171.609	175.747	-37.077	-125.590	54.082	113.620	0.0004271	3.916e-05	1.1379e-05	975.84	6.7084e-06	5.3377e-06	1069.2	208.04	1.4694e-06	6.1009e-06	264.4	76.479	60.516	17.779	2.9949e-06	24.421	0.00036498	0.00036387	0.00010152	962.34	4.068e-06	3.9897e-06	1052.3	207.58	4.014e-06	4.0654e-06	265.65	77.562	61.639	18.148	4.0145e-06	25.119	83.868	33.380	66.314	-117.906	-38.937	-46.034	-118.098	-110.314	-78.575	49.763	-110.864	-104.195	-104.056	-96.704	52.539	-97.190	-8191	255	
3189.945	1	1	0	0	0.11489	0.096685	0.13809	0.10032	0.229	0.19728	0.12363	0.2733	0.13201	0.17017	0.18187	0.19155	0.32511	0.11225	0.075992	0.50446	-1.7375	-1.4667	-1.4229	-2.1458	-1.2792	-1.9562	-1.9188	-1.4708	-2.075	-1.4396	-1.5604	-2.1354	-1.2313	-1.9729	-1.7604	-1.4333	-34.795	176.669	196.076	16.385	-5.675	-6.380	133.932	-110.128	91.652	183.801	175.973	17.828	143.505	-101.514	-38.007	172.658	0.00045017	0.00027154	4.4934e-05	973.72	3.9077e-06	9.3837e-07	1063	205.73	6.0559e-06	4.1138e-06	265.85	76.109	60.926	17.496	3.4762e-06	24.351	0.00036819	0.00036493	0.00010352	961.28	4.0539e-06	4.095e-06	1050.9	206.78	4.0083e-06	4.081e-06	266.72	77.608	61.612	18.08	4.0682e-06	25.172	94.145	-66.314	-86.775	-118.273	-14.420	-64.847	-118.405	-110.662	12.945	-2.535	-110.692	-105.017	-103.875	-96.362	158.240	-96.878	-8191	255	
3190.041	1	1	0	0	0.20962	0.22525	0.17976	0.1847	0.24504	0.10545	0.048854	0.35404	0.14937	0.097565	0.45609	0.12737	0.3123	0.1881	0.43627	0.34801	-1.7542	-1.5	-1.4813	-2.0375	-1.425	-1.7625	-2.1354	-1.3062	-2.0708	-1.4937	-1.5104	-2.1833	-1.3104	-1.7875	-2.0396	-1.3042	-102.673	136.354	160.300	-114.760	-53.717	-39.389	130.477	194.908	-64.259	-15.758	108.942	32.018	-82.961	180.927	91.934	123.304	0.0004166	0.00021982	0.00015866	973.53	2.1497e-06	1.3715e-06	1062.1	207.14	3.1262e-06	4.596e-06	266.62	76.731	60.587	17.625	4.9617e-06	24.45	0.00036424	0.00036414	0.00010322	961.46	4.0593e-06	4.0436e-06	1051	207.46	4.0455e-06	4.0138e-06	265.91	77.85	61.547	18.101	4.0015e-06	25.132	80.987	-52.404	-6.454	-117.965	160.200	-95.012	-118.187	-110.696	-58.561	70.912	-110.900	-104.817	-104.609	-96.410	-0.336	-97.530	-8191	255	
3190.137	1	1	0	0	0.22079	0.05933	0.1651	0.41412	0.33915	0.21625	0.35883	0.19403	0.05002	0.038189	0.15281	0.48302	0.23024	0.032893	0.09852	0.37279	-1.65	-1.6583	-1.2417	-2.225	-1.4667	-1.6708	-2.2667	-1.4062	-1.9375	-1.7021	-1.3646	-2.0479	-1.425	-1.5396	-2.125	-1.3188	-92.020	90.729	59.058	153.815	133.161	132.172	131.901	155.454	-75.569	108.189	138.672	171.369	158.818	87.659	-55.010	134.430	0.000459	5.3904e-05	4.2396e-05	974.82	2.7919e-06	4.6147e-06	1062.8	206.87	3.3593e-06	5.6136e-06	265.62	77.12	60.548	17.564	2.5349e-06	24.342	0.00036434	0.00036647	0.00010229	961.61	3.9448e-06	4.0035e-06	1051.9	207.23	4.0747e-06	4.0024e-06	266.19	77.974	61.522	18.119	3.9916e-06	25.129	103.343	190.900	-117.817	-118.165	123.639	141.357	-118.010	-110.409	90.289	3.834	-110.960	-104.536	-104.157	-96.512	79.918	-97.233	-8191	255	
3190.256	1	1	0	0	0.39172	0.18063	0.044878	0.080927	0.24756	0.21774	0.24283	0.26258	0.044502	0.065912	0.1658	0.3716	0.22981	0.24782	0.11081	0.18453	-1.5938	-1.8312	-1.1854	-2.3583	-1.45	-1.4771	-2.3104	-1.3708	-1.7938	-2.0062	-1.3792	-2.2958	-1.5521	-1.4042	-2.1917	-1.3167	9.304	222.497	71.168	-8.960	90.755	-37.611	167.773	186.007	220.787	-120.231	70.876	-87.966	17.325	50.826	117.619	-9.928	0.00030578	0.00046666	0.0001377	974.22	2.9178e-06	4.9804e-06	1066.7	208.32	5.0892e-06	2.5126e-06	265.74	76.876	60.118	17.633	1.2866e-06	24.223	0.00036805	0.00036675	0.00010315	961.37	4.0051e-06	3.9937e-06	1053.3	207.79	4.044e-06	3.9476e-06	266.2	77.776	61.285	18.135	3.9956e-06	25.061	70.509	-25.299	1.099	-117.798	45.118	90.512	-117.961	-110.371	-18.217	-3.843	-111.201	-104.569	-104.413	-96.716	-117.363	-97.271	-8191	255	
3190.352	1	1	0	0	0.12617	0.35043	0.062116	0.2797	0.25109	0.041736	0.30539	0.27765	0.15968	0.51217	0.14194	0.12735	0.24945	0.084019	0.1513	0.28096	-1.4188	-1.8354	-1.2708	-2.0458	-1.6771	-1.4417	-2.3688	-1.4146	-1.6958	-2.1437	-1.4292	-2.2083	-1.775	-1.2333	-2.0771	-1.4562	218.145	202.265	33.572	223.882	-116.100	104.631	-114.084	142.419	-95.042	-68.319	-113.817	56.794	149.844	-56.477	80.515	128.642	0.00036677	0.00081291	0.00020338	972.37	5.5228e-06	2.5425e-06	1068.9	207.21	2.6692e-06	3.0721e-06	265.46	77.031	60.44	17.676	5.5208e-06	24.38	0.00036472	0.00036492	0.00010287	961.81	4.0404e-06	3.9923e-06	1055.2	206.88	3.9636e-06	3.9642e-06	265.59	77.73	61.284	18.107	3.8856e-06	25.116	81.112	-63.567	101.592	-117.895	48.578	22.553	-117.935	-110.751	-108.035	-67.857	-110.926	-104.309	-104.635	-96.710	-21.438	-96.897	-8191	255	
3190.448	1	1	0	0	0.14814	0.056266	0.0090544	0.28382	0.1691	0.2042	0.11118	0.16795	0.17146	0.052063	0.18694	0.061555	0.071422	0.098695	0.15937	0.20167	-1.0688	-2.1	-1.1812	-2.1562	-1.8667	-1.2979	-2.3833	-1.4854	-1.7104	-2.15	-1.3729	-1.9042	-2.0812	-1.1562	-2.1042	-1.5271	66.847	122.442	-10.921	212.838	84.349	113.182	114.859	183.159	194.115	107.926	168.970	216.495	96.709	72.714	2.861	109.481	0.00045152	0.00032454	6.8127e-05	970.72	1.7503e-06	3.2626e-06	1062.8	206.62	3.0655e-06	1.4293e-06	265.34	76.524	60.897	17.587	3.17e-06	24.277	0.00035762	0.00035867	0.00010051	960.57	3.9337e-06	3.9123e-06	1053.3	206.95	3.8842e-06	3.8749e-06	265	77.481	61.495	18.085	3.908e-06	25.057	82.066	217.200	11.250	-118.307	158.633	45.241	-117.988	-110.690	6.198	-52.528	-111.028	-104.629	-104.249	-96.830	-5.032	-97.127	-8191	255	
3190.544	1	1	0	0	0.10511	0.12176	0.090022	0.045148	0.057861	0.067478	0.23567	0.039799	0.080157	0.10324	0.11085	0.10574	0.21767	0.38268	0.11607	0.19738	-1.1417	-2.1063	-1.4104	-1.8958	-1.7771	-1.4042	-2.2625	-1.6021	-1.1792	-2.1042	-1.2125	-1.925	-1.8937	-1.3833	-2.1813	-1.6479	-28.670	172.230	110.942	-127.388	175.656	54.065	159.978	-61.263	9.017	-94.294	200.767	-93.254	-86.925	102.903	168.994	151.774	0.0004618	0.00028609	3.1377e-05	974.62	7.0206e-06	5.1302e-06	1061.2	206.47	2.1444e-07	4.69e-06	265.5	76.744	60.342	17.568	2.0128e-06	24.313	0.00035921	0.00035649	0.00010013	961.83	3.8639e-06	3.9461e-06	1050.9	206.92	4.0065e-06	3.8541e-06	265.9	77.737	61.507	18.074	3.8927e-06	25.091	49.444	-34.737	117.649	-117.843	-8.065	-32.490	-117.886	-110.877	97.925	30.225	-111.466	-104.695	-104.391	-96.874	-55.713	-97.579	-8191	255	
3190.665	1	1	0	0	0.01866	0.0083923	0.07379	0.090334	0.10814	0.127	0.24849	0.20925	0.094909	0.10568	0.13669	0.35048	0.22189	0.1504	0.12012	0.088234	-1.1187	-2.2062	-1.4229	-1.9771	-1.9042	-1.1625	-2.2396	-1.7146	-1.2292	-2.0875	-1.5063	-1.5938	-2.0792	-1.1146	-1.8521	-1.8958	68.358	39.506	197.584	164.936	-94.823	129.955	164.255	216.149	117.769	-84.343	122.286	203.854	58.922	-86.805	11.969	212.319	0.00062445	0.00039972	9.446e-05	974.09	4.754e-06	5.2043e-06	1060.1	206.87	1.4328e-06	6.6321e-06	263.74	76.656	60.055	17.637	4.0783e-06	24.499	0.00036074	0.00035011	0.00010102	960.21	3.907e-06	3.8824e-06	1051.4	206.59	3.9827e-06	3.91e-06	265.22	77.651	61.435	18.036	3.9345e-06	25.159	90.888	-70.075	-23.389	-117.866	31.706	71.639	-118.116	-110.304	-10.757	-67.938	-111.114	-104.363	-103.685	-96.885	-74.653	-97.302	-8191	255	
3190.737	1	1	0	0	0.15281	0.22641	0.022313	0.31044	0.10974	0.12915	0.55606	0.19682	0.16796	0.33308	0.17872	0.032273	0.12953	0.19954	0.22378	0.16105	-0.95208	-2.0438	-1.5542	-1.7375	-1.9083	-1.3083	-2.1333	-1.9333	-1.3021	-2.0687	-1.7667	-1.425	-1.9792	-1.3292	-1.7021	-2.0375	170.517	141.193	157.702	153.367	201.861	21.334	162.750	224.497	207.853	130.596	187.191	60.671	37.324	79.535	198.437	-9.725	0.000287	0.00031655	0.00012734	974.7	6.5361e-06	1.7505e-06	1062.7	206.65	2.4329e-06	1.6796e-06	265.06	76.888	60.781	17.712	6.4409e-06	24.282	0.00035827	0.00036482	0.00010144	961.18	3.9924e-06	3.9649e-06	1050.1	206.83	3.9269e-06	3.9631e-06	264.77	77.637	61.423	18.073	4.0532e-06	25.109	53.977	-113.326	-43.942	-118.227	34.568	118.751	-118.195	-110.649	9.277	-40.973	-110.955	-104.206	-104.348	-97.129	-22.562	-97.435	-8191	255	
3190.833	1	1	0	0	0.11708	0.22058	0.12841	0.12667	0.087041	0.27109	0.17027	0.25692	0.097564	0.20628	0.1762	0.2239	0.2169	0.24289	0.056755	0.021323	-0.83542	-1.9833	-1.7146	-1.4625	-2.0292	-1.2604	-1.9688	-2.2375	-1.1354	-2.0104	-1.6562	-1.5271	-2.1104	-1.4417	-1.6146	-2.0229	138.818	-127.289	91.051	-61.702	-117.745	194.333	-114.285	157.877	67.881	139.603	64.015	191.785	156.221	17.961	-1.899	53.444	0.00026704	0.00043183	0.00012436	973.95	1.4623e-06	4.5445e-06	1063	207.63	6.1366e-06	4.6447e-06	265.71	76.717	60.217	17.671	3.2157e-06	24.404	0.00036369	0.0003708	0.0001028	960.96	4.0557e-06	4.0813e-06	1052.8	207.01	4.0223e-06	4.0152e-06	265.78	77.73	61.471	18.086	4.032e-06	25.097	104.529	-72.536	-13.443	-118.230	225.257	69.346	-117.996	-110.758	10.827	-14.681	-111.226	-104.599	-104.253	-96.578	-61.884	-97.248	-8191	255	
3190.929	1	1	0	0	0.1981	0.10834	0.2811	0.37785	0.20683	0.23695	0.15545	0.22552	0.20971	0.30344	0.3181	0.21659	0.11725	0.22422	0.20643	0.10491	-0.93125	-1.7792	-1.6208	-1.3458	-2.1333	-1.5083	-1.6479	-2.1417	-1.2625	-1.8042	-2.0083	-1.4396	-2.1312	-1.3708	-1.2729	-2.0938	-63.331	-4.820	-80.340	171.141	-125.287	182.098	56.445	148.499	72.824	-82.894	112.495	111.874	-99.105	205.181	-39.759	228.231	0.00045988	0.00015157	0.0001963	977.16	5.3192e-06	2.1499e-06	1062.3	207.42	1.682e-06	3.7851e-06	264.86	76.807	60.225	17.55	5.9002e-06	24.439	0.00036361	0.00036786	0.00010201	963.04	4.0378e-06	3.9985e-06	1052.7	207.41	4.0026e-06	4.0373e-06	265.74	77.645	61.666	18.044	3.9508e-06	25.125	114.768	-79.497	-44.327	-117.976	-28.136	39.617	-118.045	-110.619	-32.838	39.288	-110.952	-104.837	-103.899	-96.544	-1.679	-97.386	-8191	255	
3191.048	1	1	0	0	0.19291	0.14956	0.21501	0.27735	0.14798	0.23129	0.15376	0.13556	0.062733	0.18085	0.088205	0.077659	0.029847	0.13075	0.21619	0.077403	-0.99167	-1.7542	-1.9	-1.2354	-2.1937	-1.6125	-1.6604	-2.2729	-1.3896	-1.8458	-1.9688	-1.3167	-2.0875	-1.7375	-1.2708	-2.1021	139.491	162.853	-92.732	222.320	101.430	150.867	172.168	186.012	73.962	-111.921	202.933	-96.634	-74.685	229.738	-54.566	149.562	0.00057512	0.00028077	7.8164e-05	969.14	1.7753e-06	1.7751e-06	1068.5	207.94	3.6374e-06	6.302e-06	266.29	76.373	60.583	17.679	2.9192e-06	24.295	0.00036431	0.00036619	0.00010242	959.63	4.0036e-06	3.997e-06	1053.7	207.51	3.9521e-06	3.9761e-06	265.46	77.778	61.644	18.154	3.9985e-06	25.118	94.739	-65.966	22.403	-117.868	108.106	-4.711	-118.008	-110.724	-71.394	60.740	-111.394	-104.664	-104.208	-96.387	-55.576	-97.572	-8191	255	
3191.144	1	1	0	0	0.1682	0.031822	0.16307	0.26855	0.2026	0.09016	0.13322	0.11716	0.21999	0.15671	0.17494	0.14181	0.29066	0.043404	0.27175	0.060638	-1.0708	-1.7333	-1.9708	-1.3563	-2.1917	-1.6521	-1.5229	-2.1813	-1.525	-1.6708	-2.0542	-1.1667	-1.8708	-1.8167	-1.3083	-2.1271	-56.297	7.982	-83.324	209.902	61.383	148.160	102.179	229.273	218.289	95.925	179.945	176.938	-30.947	221.911	-108.987	35.858	0.0002816	0.00022608	8.2427e-05	976.05	3.9049e-06	4.6253e-06	1066.6	207.5	8.1416e-06	2.7623e-06	263.79	76.987	60.549	17.563	3.5848e-06	24.6	0.00035595	0.00035945	0.00010086	963.54	3.9503e-06	4.0009e-06	1054.2	207.39	3.9274e-06	3.9813e-06	265.48	77.825	61.364	18.104	4.0289e-06	25.187	124.733	131.226	-75.991	-118.161	31.495	51.845	-118.243	-110.427	-118.212	-48.803	-111.081	-104.595	-104.431	-96.458	12.522	-96.946	-8191	255	
3191.240	1	1	0	0	0.012579	0.34045	0.26922	0.10684	0.18122	0.18987	0.22831	0.2533	0.19911	0.014272	0.054768	0.19113	0.2487	0.088411	0.070247	0.16162	-1.2083	-1.4354	-1.9208	-1.4104	-1.8958	-1.9937	-1.4583	-2.0833	-1.35	-1.5104	-2.0938	-1.2896	-1.8208	-1.9271	-1.2687	-2.1854	20.642	-62.494	94.533	70.951	-8.631	-110.319	120.339	25.294	-86.334	201.416	-3.538	-120.820	-117.291	66.801	-92.542	48.825	0.00036965	0.00029225	4.732e-05	972.51	4.8697e-06	1.714e-06	1064.7	208.13	8.1686e-06	8.628e-06	265.59	77.098	60.515	17.664	3.827e-06	24.416	0.00035912	0.00035843	0.00010224	960.15	3.9574e-06	3.9537e-06	1053.8	207.48	3.9943e-06	3.9805e-06	266.15	77.84	61.539	18.086	3.9266e-06	25.094	115.377	7.044	-62.624	-118.069	46.257	88.339	-118.167	-110.465	-48.424	30.621	-111.073	-104.776	-104.043	-96.851	-16.577	-97.214	-8191	255	
3191.338	1	1	0	0	0.20877	0.27389	0.37143	0.10981	0.11215	0.13976	0.16229	0.10708	0.11058	0.071142	0.17503	0.061333	0.2016	0.11551	0.33799	0.2033	-1.1896	-1.3833	-2.0708	-1.4646	-1.6979	-2.0146	-1.4396	-2.2188	-1.7792	-1.3854	-2.1625	-1.4625	-1.7979	-1.8937	-1.2812	-2.1021	169.242	148.826	-103.375	-14.025	62.211	139.033	156.475	-100.907	-7.335	64.408	155.972	180.981	221.434	-0.663	114.493	-52.742	0.00063987	0.00064293	0.0001732	975.82	3.675e-06	5.1426e-06	1064.4	206.95	7.1898e-07	7.6336e-06	263.69	76.448	60.32	17.472	5.2603e-06	24.556	0.00035654	0.0003572	9.9271e-05	962.63	3.9784e-06	3.9336e-06	1052.5	207.12	3.9372e-06	3.9894e-06	265.16	77.41	61.488	18.059	3.9774e-06	25.164	75.675	-75.237	-24.830	-118.381	-87.331	38.429	-118.003	-110.307	137.309	-11.615	-110.890	-104.433	-104.197	-96.423	13.531	-97.321	-8191	255	
3191.433	1	1	0	0	0.21099	0.037956	0.12181	0.21922	0.20739	0.052962	0.18824	0.22013	0.19509	0.2774	0.26699	0.1263	0.34228	0.17014	0.043023	0.057354	-1.2792	-1.2854	-2.0438	-1.4125	-1.5583	-2.1188	-1.3979	-2.0563	-1.8062	-1.5667	-2.1437	-1.4188	-1.5583	-2.1729	-1.5812	-1.85	136.541	-21.984	43.110	-99.416	-74.926	57.557	151.373	135.095	165.691	211.450	128.853	224.036	-119.752	46.275	-78.912	23.571	0.00034784	0.00035216	0.0001625	975.11	4.2994e-06	7.761e-06	1066.2	207.59	9.4062e-06	6.2295e-06	264.75	76.727	60.454	17.666	4.195e-06	24.48	0.00036821	0.00036767	0.00010209	962.23	3.9864e-06	4.0078e-06	1053.8	207.44	3.9843e-06	4.0293e-06	266.07	77.892	61.47	18.104	3.9724e-06	25.196	83.861	-37.423	-31.211	-118.086	-54.893	48.629	-118.209	-110.746	-42.543	-28.865	-110.984	-104.687	-104.049	-96.898	-23.396	-97.068	-8191	255	
3191.529	1	1	0	0	0.18028	0.077365	0.15267	0.12128	0.34136	0.011998	0.2821	0.066295	0.076172	0.20464	0.30833	0.30705	0.28652	0.10446	0.20099	0.13728	-1.3521	-1.3167	-2.0271	-1.6437	-1.5083	-2.0542	-1.6729	-2.0875	-1.9625	-1.275	-2.1146	-1.4625	-1.325	-2.0229	-1.3729	-1.7313	7.007	-109.428	-43.787	166.556	-79.962	218.277	187.069	187.870	60.714	217.684	82.571	178.290	218.180	-53.964	-85.008	82.204	0.00048517	0.00026207	0.00015251	973.35	5.051e-06	1.0874e-06	1061.6	207.94	9.429e-06	4.127e-06	267.18	76.608	59.835	17.522	3.6657e-06	24.441	0.00036146	0.00036605	0.00010092	961.81	3.9907e-06	3.9696e-06	1052.4	207.33	4.0479e-06	4.059e-06	266.33	77.525	61.319	18.093	4.0259e-06	25.124	102.008	-94.030	-81.858	-118.042	-46.423	-38.327	-118.202	-110.618	27.317	34.319	-110.737	-103.769	-103.981	-96.646	-88.960	-97.150	-8191	255	
3191.625	1	1	0	0	0.083452	0.21044	0.38146	0.24742	0.049528	0.028388	0.22779	0.19277	0.13323	0.34608	0.1422	0.12587	0.18586	0.14066	0.32376	0.078197	-1.5083	-1.2958	-2.1104	-1.8	-1.3396	-2.0958	-1.6896	-1.8604	-2.0187	-1.1083	-2.1688	-1.7792	-1.3417	-2.2521	-1.2542	-1.6542	2.027	169.219	196.740	188.810	-26.191	-89.495	174.131	-128.510	-107.178	-51.312	182.620	196.169	128.220	1.283	-24.347	177.475	0.00046866	0.00015529	7.878e-05	975.21	2.4224e-06	5.0602e-06	1062.1	207.54	3.179e-06	1.0986e-06	265.79	76.473	60.639	17.598	3.4172e-06	24.241	0.00036739	0.00037013	0.00010193	963.08	4.036e-06	4.063e-06	1051.7	207.85	4.0441e-06	4.0517e-06	266.29	77.53	61.605	18.097	4.065e-06	25.147	88.240	223.555	65.258	-117.991	-11.347	-32.176	-118.012	-110.533	-36.638	103.538	-110.634	-104.578	-104.276	-96.658	-2.043	-97.255	-8191	255	
3191.746	1	1	0	0	0.11486	0.30105	0.16945	0.17024	0.11711	0.23016	0.28325	0.12068	0.16574	0.043792	0.097763	0.31052	0.10386	0.058644	0.15076	0.098284	-1.6625	-1.175	-1.9125	-1.9167	-1.2687	-2.0667	-1.6042	-1.8104	-2.0354	-1.4312	-1.975	-1.8312	-1.2625	-2.175	-1.475	-1.6104	95.443	-83.648	148.847	164.256	-85.132	48.545	136.830	228.729	140.684	-5.150	-50.423	-4.683	90.080	66.356	136.778	187.540	0.00051988	5.2965e-05	0.00015635	974.07	4.4394e-06	5.9501e-06	1063.9	208.21	8.5273e-06	1.4756e-06	265.97	77.075	60.638	17.651	1.2614e-06	24.346	0.00036923	0.00036363	0.0001018	962.06	4.0484e-06	4.0491e-06	1052	207.48	4.0062e-06	4.0438e-06	266.33	77.905	61.7	18.116	3.9554e-06	25.133	78.933	75.978	-15.968	-118.015	175.473	144.579	-118.079	-110.453	-116.623	105.291	-110.865	-104.483	-104.052	-96.730	-94.215	-97.092	-8191	255	
3191.842	1	1	0	0	0.35995	0.19096	0.21849	0.26823	0.055515	0.20395	0.31052	0.30384	0.43889	0.19385	0.19534	0.32633	0.22912	0.17261	0.2357	0.11068	-1.6854	-1.1917	-1.7104	-2.0604	-1.2875	-2.1521	-1.7146	-1.5646	-2.0417	-1.5187	-1.6854	-2.0542	-1.3083	-2.0354	-1.7271	-1.2792	-39.828	131.129	12.529	225.794	45.344	128.345	120.561	-111.767	-2.523	86.371	139.350	172.911	-104.474	122.331	38.447	-27.271	0.00029518	0.00021301	0.00019329	974.39	5.0528e-06	3.3209e-06	1060.8	207	3.1874e-06	4.5778e-06	264.63	76.364	60.253	17.701	7.1683e-06	24.527	0.00036562	0.00036528	0.00010191	960.1	3.9941e-06	3.9594e-06	1050.5	207.23	3.9748e-06	3.9984e-06	265.49	77.631	61.685	18.173	3.9681e-06	25.116	86.541	-94.179	-62.120	-117.975	117.299	-95.780	-118.030	-110.768	159.887	15.962	-110.995	-104.411	-104.540	-96.405	-123.121	-97.550	-8191	255	
3191.938	1	1	0	0	0.039707	0.17047	0.32494	0.10639	0.21907	0.18809	0.20963	0.2621	0.25613	0.078761	0.12265	0.067318	0.20885	0.15474	0.16897	0.13103	-1.7167	-1.4917	-1.775	-2.3271	-1.0438	-1.8125	-1.9458	-1.4729	-2.2917	-1.3687	-1.5729	-2.0521	-1.2979	-2.025	-1.8438	-1.3771	-56.560	-77.240	149.165	126.794	189.742	-114.595	118.904	78.442	192.446	138.200	104.636	-56.932	168.474	212.322	68.331	211.743	0.00038653	0.00025782	5.266e-05	979.49	3.1475e-06	8.7526e-06	1059.4	209.1	2.5209e-06	4.2951e-06	265.44	76.557	60.497	17.631	1.0694e-06	24.171	0.00036677	0.00036592	0.00010107	963.04	3.9221e-06	3.9013e-06	1051.4	207.11	3.9274e-06	3.9627e-06	265.54	77.787	61.39	18.104	3.899e-06	24.994	89.326	127.754	68.398	-118.149	49.122	22.170	-118.231	-110.696	-64.352	-32.030	-111.208	-104.625	-104.490	-96.339	5.672	-97.112	-8191	255	
3192.034	1	1	0	0	0.23394	0.07626	0.12551	0.18082	0.089846	0.067041	0.17528	0.067271	0.048378	0.020763	0.16947	0.43084	0.24042	0.13217	0.1278	0.22389	-1.7167	-1.5104	-1.5042	-2.1333	-1.1479	-1.75	-1.9792	-1.3687	-2.125	-1.4354	-1.5542	-2.3125	-1.3792	-1.6271	-1.9562	-1.3729	206.498	-5.196	203.325	203.502	225.802	-44.646	215.758	31.547	88.037	-64.182	58.517	215.125	45.900	-71.163	-127.600	29.524	0.00038803	0.0006764	5.1267e-05	972.17	4.1373e-06	4.0497e-06	1060.9	206.66	3.3718e-06	6.8403e-06	265.56	76.268	60.347	17.701	4.7943e-06	24.251	0.00035585	0.00035888	9.896e-05	959.71	3.9721e-06	3.975e-06	1050.5	206.7	3.9487e-06	3.8643e-06	265.42	77.591	61.377	18.154	3.8832e-06	25.068	65.511	46.054	179.132	-118.073	2.072	-11.289	-117.963	-110.188	-97.332	-26.347	-110.690	-104.607	-104.040	-96.418	46.652	-97.027	-8191	255	
3192.130	1	1	0	0	0.054212	0.039006	0.22275	0.29746	0.03377	0.20508	0.0080005	0.38645	0.010161	0.064626	0.25122	0.20471	0.10467	0.25181	0.22182	0.228	-1.7583	-1.6021	-1.4937	-2.2021	-1.2917	-1.4167	-2.1833	-1.4354	-2.0375	-1.875	-1.4458	-2.225	-1.4521	-1.8625	-2.1542	-1.3458	132.048	-88.252	61.912	110.745	-127.721	99.068	95.997	177.913	45.404	14.582	142.271	8.204	-97.084	-121.864	199.686	201.817	0.00051392	0.00049704	7.1503e-05	972.92	4.5708e-06	1.3778e-06	1060	206.15	7.2123e-06	5.916e-06	265.61	76.559	60.664	17.675	5.1673e-06	24.42	0.00035863	0.00035889	9.7745e-05	960.29	3.911e-06	3.9002e-06	1051.9	206.84	3.9161e-06	3.9022e-06	265.62	77.706	61.529	18.106	3.8602e-06	25.088	95.502	197.335	-59.855	-118.210	49.663	-77.765	-118.160	-110.416	179.368	78.798	-111.247	-104.579	-104.261	-96.954	47.250	-97.384	-8191	255	
3192.225	1	1	0	0	0.24389	0.17968	0.27241	0.16775	0.25267	0.020083	0.041079	0.17718	0.070895	0.21512	0.15459	0.1249	0.28758	0.28357	0.18514	0.10709	-1.525	-1.7417	-1.1313	-2.2729	-1.3458	-1.5896	-2.0021	-1.1979	-1.8167	-1.9042	-1.2625	-2.3167	-1.6333	-1.6375	-2.1646	-1.3792	73.174	224.729	27.381	214.905	66.722	50.780	94.621	7.265	-62.990	-40.250	133.484	69.243	-22.788	182.899	-90.776	102.539	0.00060555	0.00029606	0.000216	973.2	4.4996e-06	4.4147e-06	1060.8	206.95	6.9289e-06	4.619e-06	266.59	76.612	60.287	17.586	2.9168e-06	24.485	0.00035536	0.00035334	0.00010085	959.18	3.9008e-06	3.8571e-06	1050.1	206.53	3.9093e-06	3.9496e-06	265.25	77.677	61.232	18.091	3.9145e-06	25.145	94.870	-46.272	-65.462	-117.803	-50.242	23.662	-118.168	-110.359	2.888	140.748	-111.301	-104.477	-104.059	-96.199	99.227	-96.732	-8191	255	
3192.345	1	1	0	0	0.053424	0.17938	0.18126	0.15214	0.04026	0.17824	0.14628	0.194	0.17136	0.13329	0.21963	0.11712	0.24469	0.11317	0.23997	0.20971	-1.3771	-1.8771	-1.275	-1.9792	-1.475	-1.3687	-2.2687	-1.4354	-1.6771	-1.975	-1.2229	-2.0521	-1.8896	-1.5021	-2.2667	-1.3792	120.110	147.030	89.775	154.915	-110.933	-92.555	133.115	161.263	-7.598	19.521	184.077	218.851	33.048	159.702	-53.461	-0.773	0.00041307	0.00032149	7.4466e-05	979.13	5.018e-06	2.4338e-06	1064.5	206.92	2.3509e-06	5.4745e-06	267.01	76.645	60.205	17.577	2.16e-06	24.243	0.00035209	0.00035291	0.00010131	962.19	3.8762e-06	3.9393e-06	1051.6	206.76	3.9042e-06	3.9167e-06	265.83	77.689	61.299	18.076	3.9066e-06	25.076	73.909	-113.968	-27.165	-117.720	111.824	88.316	-117.846	-110.472	92.167	-47.864	-111.031	-104.834	-104.156	-96.136	-116.338	-96.880	-8191	255	
3192.441	1	1	0	0	0.2114	0.068762	0.099695	0.33823	0.1948	0.3062	0.3089	0.12263	0.14518	0.06162	0.23875	0.38349	0.20431	0.23089	0.20155	0.0753	-1.4083	-1.9271	-1.2687	-2.05	-1.6063	-1.3687	-2.2521	-1.4104	-1.5208	-2.1521	-1.3333	-1.8583	-1.6917	-1.2896	-2.2146	-1.5771	-35.863	11.974	-46.790	229.864	11.796	-92.575	167.942	78.360	114.401	148.867	-25.808	226.675	153.465	87.382	223.638	67.035	0.00035783	0.0002634	8.4352e-05	975.31	5.4935e-06	3.9104e-07	1066.5	206.67	7.8178e-06	4.4047e-06	265.95	76.797	60.371	17.487	4.0556e-06	24.288	0.00035118	0.00035193	9.8398e-05	962.65	3.8928e-06	3.8781e-06	1053.4	206.52	4.0184e-06	3.9637e-06	266.07	77.687	61.411	18.085	3.9358e-06	25.073	98.331	-104.810	-36.949	-117.787	-22.729	-106.008	-117.957	-110.636	-63.972	61.745	-110.656	-104.472	-104.151	-96.326	77.906	-97.011	-8191	255	
3192.537	1	1	0	0	0.23186	0.097276	0.17464	0.13903	0.053066	0.13879	0.18189	0.29221	0.08809	0.11971	0.13821	0.25645	0.29147	0.29826	0.07243	0.31265	-1.1313	-2.1083	-1.3188	-1.975	-1.9208	-1.3292	-2.2604	-1.5708	-1.4854	-2.175	-1.4271	-1.7375	-1.9271	-1.3708	-2.0542	-1.7979	204.300	3.325	101.064	27.932	122.121	46.438	-36.995	164.504	-85.161	38.028	-59.088	199.198	153.748	163.259	58.277	209.916	0.00060796	6.1468e-05	7.5987e-05	975.75	3.3509e-06	6.4369e-06	1067.5	206.76	3.0619e-06	1.5358e-06	265.15	75.815	60.119	17.677	9.5778e-07	24.377	0.00036537	0.00035814	0.00010101	963.49	3.9638e-06	3.9636e-06	1055.2	206.97	3.9695e-06	3.9251e-06	265.73	77.588	61.419	18.137	3.9494e-06	25.17	97.709	201.921	-27.088	-117.837	78.016	58.494	-118.006	-110.691	-63.333	24.808	-110.895	-104.708	-104.484	-96.530	72.918	-96.850	-8191	255	
3192.609	1	1	0	0	0.15683	0.085416	0.14924	0.33132	0.10738	0.18005	0.2678	0.21669	0.081522	0.0088238	0.28344	0.20899	0.017529	0.10223	0.17519	0.1486	-1.1896	-2.1104	-1.3188	-1.8271	-1.9271	-1.2646	-2.1729	-1.7354	-1.4292	-2.2021	-1.3396	-1.8042	-2.1042	-1.2313	-1.9479	-1.6083	225.097	215.793	139.891	-104.470	-63.323	-37.758	164.430	95.864	86.453	117.814	170.766	121.505	137.103	51.582	159.959	8.978	0.00043314	0.00041055	9.5996e-05	974.01	3.6745e-06	4.1174e-06	1064	207.17	2.83e-06	4.9579e-06	265.24	77.3	60.452	17.618	5.6463e-06	24.288	0.0003524	0.00035563	0.00010044	963.19	3.8768e-06	3.911e-06	1054.8	207.19	3.9098e-06	3.9584e-06	265.76	77.969	61.56	18.132	3.9378e-06	25.132	64.009	-101.005	-114.393	-117.776	5.211	120.295	-117.833	-110.456	143.760	37.299	-110.816	-104.405	-103.853	-96.313	7.750	-96.789	-8191	255	
3192.730	1	1	0	0	0.0714	0.28818	0.10961	0.12441	0.058577	0.057449	0.15604	0.25528	0.17131	0.23046	0.15395	0.16451	0.14594	0.20137	0.18087	0.34874	-0.9875	-2.0479	-1.3458	-1.7646	-2.2604	-1.2292	-2.0125	-1.8354	-1.3	-2.0771	-1.5875	-1.5896	-2.1896	-1.3229	-1.8708	-1.9229	131.711	227.466	171.686	-109.020	-97.213	186.071	68.651	201.140	209.098	-56.890	19.576	224.960	173.879	-124.611	-33.442	160.780	0.00043385	0.00067133	9.9811e-05	975.41	4.411e-06	2.0065e-06	1068.6	208.35	8.9045e-07	2.1109e-06	266.71	76.509	60.339	17.654	3.47e-06	24.16	0.00035131	0.00035891	9.9775e-05	963.93	3.9055e-06	3.8645e-06	1057.1	207.39	3.9926e-06	3.9121e-06	266.05	77.579	61.575	18.11	3.9396e-06	25.105	80.791	-106.687	102.478	-117.834	34.636	28.231	-117.710	-110.643	195.743	46.875	-111.117	-104.531	-104.135	-96.930	-90.572	-97.400	-8191	255	
3192.826	1	1	0	0	0.1869	0.13887	0.20405	0.11945	0.074834	0.16491	0.17615	0.26298	0.11258	0.17729	0.15742	0.11633	0.2173	0.31697	0.15076	0.27498	-0.75833	-2.0833	-1.5312	-1.6292	-1.9375	-1.2833	-1.8604	-2.0062	-1.25	-2.1083	-1.5562	-1.4042	-2.3625	-1.1938	-1.6125	-1.9917	-67.569	171.270	227.765	204.654	76.448	-31.142	134.506	116.515	156.461	150.066	-42.652	-99.264	163.604	39.388	53.362	131.142	0.00028067	0.00026248	8.0792e-06	976.77	4.9752e-06	7.86e-06	1070.3	207.92	7.2164e-07	1.8461e-06	265.96	76.809	60.266	17.681	4.1852e-06	24.242	0.00036178	0.00035411	9.8655e-05	963	3.907e-06	3.8958e-06	1055.8	207.68	3.8965e-06	3.8796e-06	265	77.624	61.496	18.138	3.912e-06	25.085	68.814	-52.973	118.756	-118.100	-60.667	12.746	-117.794	-110.410	93.224	52.547	-111.065	-104.226	-104.043	-96.571	-14.284	-96.981	-8191	255	
3192.922	1	1	0	0	0.11419	0.090667	0.079568	0.29995	0.044018	0.16612	0.1031	0.38029	0.2891	0.18698	0.23683	0.16961	0.14458	0.12299	0.21407	0.25447	-0.92083	-1.9958	-1.7375	-1.3271	-2.225	-1.3937	-1.6604	-2.2938	-1.2292	-1.9854	-1.8813	-1.3792	-2.2208	-1.4729	-1.625	-2.2	-127.943	61.926	103.343	101.286	-39.197	79.109	185.351	191.208	76.529	68.562	143.419	142.661	88.507	100.864	16.259	154.583	0.00028039	0.00045202	6.8757e-05	979.55	8.1049e-06	9.1216e-06	1068.9	207.13	1.6407e-06	5.9901e-06	265.27	77.064	60.857	17.68	2.7043e-06	24.504	0.00035519	0.00035436	9.8447e-05	964.41	3.8527e-06	3.9421e-06	1055.5	207.46	3.8922e-06	3.9577e-06	265.54	77.695	61.661	18.139	3.9281e-06	25.156	105.696	-30.012	40.887	-117.808	-36.560	68.465	-117.833	-110.432	-70.713	20.803	-111.060	-104.725	-103.921	-96.582	40.834	-97.262	-8191	255	
3193.018	1	1	0	0	0.14356	0.18245	0.021573	0.11254	0.19098	0.26329	0.22378	0.22817	0.1026	0.092677	0.15937	0.30018	0.21946	0.036556	0.27728	0.19501	-1.0792	-1.8042	-1.8292	-1.2708	-2.125	-1.4625	-1.6063	-2.2833	-1.2313	-1.9146	-2.0708	-1.2625	-2.225	-1.4958	-1.1063	-2.0375	85.717	89.761	42.211	174.619	94.622	119.718	182.678	153.748	9.984	133.589	125.560	181.162	-58.166	206.504	-80.693	49.901	0.00041605	0.00042351	1.8854e-05	975.8	4.014e-06	5.1488e-06	1063.9	207.87	4.1012e-06	4.6123e-06	266.9	76.591	60.186	17.748	4.1218e-06	24.417	0.00035062	0.0003581	9.9397e-05	963.02	3.9393e-06	3.935e-06	1053.7	207.77	3.8827e-06	3.8697e-06	265.38	77.648	61.487	18.16	3.9254e-06	25.137	125.273	20.345	-80.617	-117.955	178.170	-38.364	-117.914	-110.530	-37.688	-14.395	-110.868	-104.401	-103.967	-96.520	-44.993	-97.350	-8191	255	
3193.137	1	1	0	0	0.14582	0.1976	0.019479	0.1645	0.23213	0.22359	0.14821	0.17167	0.33317	0.093822	0.26161	0.32458	0.021172	0.21837	0.16454	0.026094	-0.75833	-1.6771	-1.9167	-1.3458	-2.0354	-1.5833	-1.5125	-2.1479	-1.2542	-1.6354	-2.1417	-1.2333	-2.05	-1.6396	-1.3979	-2.1104	96.105	22.900	128.784	219.494	209.052	-5.224	163.919	184.292	13.862	52.092	192.420	193.369	-0.020	157.341	103.208	136.711	0.0004914	0.00050233	0.00017149	978.04	1.53e-06	4.5691e-06	1066.7	208.17	2.0337e-06	7.823e-06	265.41	76.684	61.219	17.75	4.6414e-06	24.493	0.00035872	0.0003547	9.8949e-05	963.41	3.9291e-06	3.8958e-06	1054.8	207.26	3.922e-06	3.9202e-06	265.95	77.721	61.646	18.21	3.901e-06	25.161	90.445	-72.766	-6.042	-117.608	100.927	32.551	-117.772	-110.445	161.943	76.088	-110.929	-104.722	-103.881	-96.439	-42.878	-96.682	-8191	255	
3193.210	1	1	0	0	0.15785	0.067019	0.1562	0.23731	0.086893	0.42798	0.16005	0.12513	0.017522	0.23017	0.19528	0.27076	0.098703	0.14187	0.087486	0.21413	-1.0354	-1.6	-1.9271	-1.3438	-1.925	-1.7812	-1.4583	-2.1958	-1.5562	-1.7354	-2.1083	-1.3438	-1.8563	-1.8396	-1.4958	-2.2979	206.536	212.476	170.866	-115.264	-34.385	-111.726	176.985	50.643	-52.021	-45.523	157.514	86.288	-62.096	218.220	145.090	157.637	0.00037001	0.00068375	8.1703e-06	978.53	3.3457e-06	6.0743e-06	1064.3	207.47	7.4349e-06	2.7569e-06	265.72	76.928	60.615	17.536	3.6031e-06	24.278	0.00035441	0.00036234	9.9515e-05	963.4	3.8561e-06	3.9468e-06	1053.6	207.37	3.8998e-06	3.9271e-06	265.72	77.84	61.777	18.072	3.8688e-06	25.071	89.487	-61.583	180.591	-117.486	-47.815	76.024	-117.907	-110.494	-72.298	131.347	-111.167	-104.344	-103.626	-96.763	164.079	-97.109	-8191	255	
3193.307	1	1	0	0	0.12933	0.042499	0.17443	0.1538	0.24414	0.19699	0.11396	0.073	0.13731	0.08765	0.21462	0.20343	0.058639	0.22025	0.30323	0.10097	-1.2667	-1.6833	-2.2021	-1.3458	-1.9333	-2.1417	-1.55	-1.9979	-1.3937	-1.6208	-2.2479	-1.4583	-1.7125	-1.9021	-1.0521	-2.0875	67.657	89.089	-36.830	208.861	-2.028	86.497	151.026	-101.241	11.074	103.902	194.560	230.684	205.304	122.037	-16.010	184.654	0.00060146	0.00027885	0.00018045	974.89	5.6273e-06	2.0842e-06	1069.7	208.14	2.6361e-06	1.4916e-06	267.35	76.712	59.854	17.716	4.4023e-06	24.305	0.00036021	0.00036171	9.9042e-05	963.84	3.9252e-06	3.9285e-06	1054.9	207.55	3.9663e-06	3.9683e-06	266.37	77.642	61.338	18.148	3.913e-06	25.135	82.326	-55.003	0.173	-117.964	168.986	-93.874	-118.047	-110.136	-31.226	211.128	-110.921	-104.579	-103.774	-96.583	76.410	-96.807	-8191	255	
3193.426	1	1	0	0	0.066185	0.12679	0.2072	0.081971	0.095374	0.098768	0.08261	0.12267	0.12882	0.1261	0.059225	0.19289	0.26772	0.11537	0.2389	0.12209	-1.2167	-1.3208	-2.3042	-1.4813	-1.6854	-2.0687	-1.4125	-2.1604	-1.8896	-1.2812	-2.3271	-1.5896	-1.5042	-2.3229	-1.4583	-2.1125	112.408	-67.749	69.610	-126.553	-39.653	-125.464	214.425	-99.793	203.697	2.843	77.190	169.616	131.716	139.127	1.828	-105.328	0.00035052	0.00039738	0.00014532	975.73	4.6218e-06	3.4036e-06	1069.5	207.8	6.5644e-06	2.7664e-06	265.04	77.059	60.868	17.667	4.1343e-06	24.417	0.0003613	0.00036128	9.89e-05	961.81	4.0036e-06	3.9006e-06	1053.8	207.53	3.9323e-06	3.902e-06	265.68	77.844	61.783	18.128	3.8429e-06	25.184	74.647	-83.371	-46.214	-118.006	13.330	4.564	-118.145	-110.583	77.816	-18.494	-110.870	-104.633	-104.233	-97.118	1.904	-96.677	-8191	255	
3193.522	1	1	0	0	0.094335	0.11726	0.11874	0.17083	0.094998	0.1519	0.13571	0.20949	0.2208	0.25599	0.33678	0.11686	0.23877	0.30912	0.24013	0.33284	-1.4021	-1.1187	-1.9521	-1.5542	-1.5562	-2.0333	-1.5104	-2.1	-1.9292	-1.3083	-2.2042	-1.5979	-1.5167	-2.2542	-1.1771	-1.975	150.555	-5.256	-53.347	188.818	-28.489	94.895	230.003	168.051	35.320	35.088	148.093	-119.239	4.813	207.713	118.028	-61.436	0.00029983	0.00071964	0.00017321	976.75	1.6198e-06	2.4005e-06	1069.6	208.42	6.1591e-06	1.8493e-06	266.65	76.801	60.132	17.606	5.9453e-06	24.412	0.00035462	0.00035615	0.00010064	963	3.9136e-06	3.969e-06	1055.6	207.7	3.9598e-06	3.9692e-06	266.15	77.653	61.537	18.154	3.9184e-06	25.147	70.169	-69.146	-35.056	-117.935	-34.590	22.591	-118.178	-110.448	-63.409	-28.355	-110.734	-104.457	-103.629	-96.874	-47.459	-96.753	-8191	255	
3193.618	1	1	0	0	0.21144	0.22727	0.075164	0.13921	0.34	0.37355	0.14467	0.11848	0.14219	0.045565	0.26992	0.12666	0.087337	0.26169	0.15916	0.22475	-1.575	-1.1125	-1.975	-1.85	-1.1521	-2.225	-1.6792	-1.8396	-1.9396	-1.2958	-1.9896	-1.6958	-1.4062	-2.2771	-1.3438	-1.7042	91.695	140.792	-32.830	223.570	62.637	128.528	162.093	-103.907	-58.726	130.489	-111.322	210.185	-47.390	211.763	-24.935	127.742	0.00035291	0.00045073	4.8038e-05	977.09	4.9929e-06	7.6126e-06	1068.7	208.05	7.144e-06	3.7458e-06	265.38	76.393	60.595	17.759	5.4167e-06	24.476	0.00036315	0.00036085	0.00010132	965.19	3.9145e-06	3.894e-06	1054.6	207.63	3.9275e-06	3.9417e-06	265.93	77.693	61.594	18.195	4.0097e-06	25.172	86.209	-85.549	43.840	-117.883	-11.352	26.655	-117.968	-110.164	14.738	-20.398	-110.453	-104.170	-104.304	-96.389	33.462	-96.732	-8191	255	
3193.738	1	1	0	0	0.13466	0.33116	0.29343	0.16091	0.27265	0.23892	0.12297	0.47733	0.082253	0.16934	0.31591	0.13889	0.14152	0.055894	0.27386	0.097132	-1.5812	-1.2375	-2.0438	-1.8042	-1.1917	-1.975	-1.7042	-1.6667	-2.0875	-1.3396	-2.0687	-1.7375	-1.2854	-2.1937	-1.3979	-1.675	69.046	200.429	1.241	90.781	34.584	108.239	-1.824	185.530	-111.513	159.465	-89.185	204.186	-109.317	-91.157	-28.072	217.091	0.00029851	5.0132e-05	5.2887e-05	978.11	4.6427e-06	1.1107e-06	1066.9	207.75	3.5367e-06	7.1039e-06	266.02	76.994	61.226	17.65	3.5474e-06	24.508	0.0003637	0.00036978	0.00010212	964.25	4.03e-06	4.0002e-06	1056.5	207.62	4.02e-06	4.0773e-06	266.66	77.911	61.812	18.182	4.0321e-06	25.257	58.135	140.072	78.745	-117.772	-76.450	229.002	-117.612	-110.036	1.915	58.604	-110.367	-104.021	-103.830	-96.253	179.599	-96.437	-8191	255	
3193.835	1	1	0	0	0.25843	0.19082	0.21048	0.075342	0.11834	0.20684	0.49287	0.43495	0.13798	0.13084	0.12895	0.34658	0.13348	0.21717	0.11099	0.11218	-1.5104	-1.2188	-1.7375	-2.0333	-1.3937	-2.0687	-1.5958	-1.5438	-2.1167	-1.2125	-1.8896	-2.0104	-1.4125	-2.0958	-1.6042	-1.2687	94.960	87.020	160.416	132.792	-12.544	48.446	167.543	171.142	200.509	166.666	207.469	196.448	26.530	-105.460	-58.679	17.199	0.00038883	0.00048933	8.8938e-05	980.13	5.4985e-06	3.4206e-06	1066.5	208.11	7.1664e-06	2.4416e-06	266.63	77.042	61.118	17.776	2.5315e-06	24.432	0.00036393	0.00036318	0.00010288	965.74	3.9422e-06	3.9114e-06	1056.5	208.31	3.9428e-06	3.8889e-06	267.29	77.727	61.806	18.214	3.9761e-06	25.144	100.264	-54.537	-2.063	-118.002	-65.175	43.701	-117.712	-110.341	-83.783	9.340	-110.683	-104.168	-103.764	-96.536	79.246	-96.955	-8191	255	
3193.906	1	1	0	0	0.043699	0.22701	0.12112	0.38051	0.22135	0.14746	0.37756	0.22505	0.044197	0.23443	0.20366	0.15179	0.21438	0.1793	0.16444	0.13066	-1.9042	-1.3188	-1.5792	-2.1562	-1.3917	-1.9688	-1.7229	-1.4833	-2.0958	-1.4729	-1.7021	-2.1792	-1.3083	-1.9896	-1.5271	-1.2854	-30.373	170.024	32.952	196.977	205.163	0.349	199.612	220.998	-19.685	212.478	183.581	179.816	93.572	-14.694	-117.517	211.372	0.00037144	0.00027997	2.8352e-05	977.49	2.3933e-06	5.29e-06	1067.8	207.91	4.3878e-06	3.0649e-06	268.14	76.77	61.429	17.605	2.5647e-06	24.425	0.00035525	0.00036252	9.9243e-05	964.39	3.9277e-06	3.9999e-06	1057.4	208.24	3.9028e-06	3.8735e-06	266.84	77.842	61.827	18.137	3.7715e-06	25.152	76.633	-105.779	-60.423	-117.777	163.143	6.700	-117.574	-110.224	107.093	20.298	-110.800	-104.414	-103.684	-96.307	-0.818	-97.241	-8191	255	
3194.027	1	1	0	0	0.02006	0.25371	0.32355	0.14412	0.048362	0.15435	0.35917	0.32303	0.19125	0.031495	0.39024	0.30322	0.094407	0.063621	0.14519	0.13353	-1.8312	-1.4813	-1.5875	-2.0771	-1.275	-1.9708	-1.8417	-1.5167	-2.1312	-1.5729	-1.6812	-2.1	-1.2396	-1.8146	-1.9396	-1.4521	62.126	9.758	71.408	162.114	-21.861	223.725	152.754	-102.959	-118.702	33.520	188.834	148.722	209.752	107.972	-46.157	16.756	0.00053681	0.00033756	0.00017574	978.43	3.5149e-06	4.1083e-06	1064.6	209.02	2.5847e-06	3.7822e-06	267.87	77.294	60.503	17.801	7.8467e-06	24.503	0.00034696	0.00034866	9.5865e-05	965.59	3.7402e-06	3.8003e-06	1055.9	207.97	3.7944e-06	3.7242e-06	266.82	77.871	61.6	18.186	3.7286e-06	25.151	102.670	5.353	-74.216	-117.799	30.259	204.000	-117.720	-110.152	-112.896	36.750	-110.242	-104.607	-103.702	-95.828	11.207	-97.144	-8191	255	
3194.121	1	1	0	0	0.11237	0.29767	0.074478	0.038348	0.14147	0.072867	0.28481	0.30544	0.11987	0.29688	0.2433	0.057338	0.11524	0.027306	0.099832	0.081335	-1.6688	-1.575	-1.3271	-2.1729	-1.3208	-1.9542	-2.3583	-1.3271	-2.1146	-1.6667	-1.4354	-2.3146	-1.2812	-1.7979	-2.0333	-1.3396	25.551	52.415	87.192	102.575	4.908	49.429	143.355	98.235	-115.839	80.960	160.102	-98.575	168.475	161.590	86.610	-101.566	0.00039814	0.00047525	6.3675e-05	981.49	3.7451e-06	3.0845e-06	1071	207.97	1.916e-06	5.136e-07	265.06	77.264	60.199	17.724	6.7165e-06	24.483	0.00034276	0.00034428	9.5341e-05	965.62	3.7512e-06	3.7e-06	1056	207.81	3.7159e-06	3.8015e-06	265.85	77.983	61.451	18.217	3.6868e-06	25.058	86.133	8.596	66.425	-117.706	-65.024	-117.900	-117.721	-110.368	-37.538	110.004	-110.294	-103.793	-103.485	-96.112	-60.444	-96.492	-8191	255	
3194.217	1	1	0	0	0.21289	0.10359	0.18774	0.077235	0.10271	0.10016	0.26306	0.062296	0.09388	0.17628	0.083602	0.026559	0.29263	0.035832	0.25692	0.18052	-1.6292	-1.775	-1.3104	-2.3083	-1.5375	-1.6104	-2.2646	-1.3438	-1.9188	-1.8687	-1.2583	-2.2458	-1.5208	-1.5979	-2.1292	-1.2437	-13.755	-107.985	59.665	-58.968	86.253	146.789	80.958	123.028	130.102	197.739	131.274	155.373	176.469	-8.818	-9.085	100.162	0.0004328	0.00023755	0.00010283	985.06	3.5034e-06	5.591e-06	1067.6	207.92	1.7333e-06	1.9877e-06	264.41	76.677	60.483	17.772	7.7076e-07	24.287	0.00033834	0.00033786	9.5336e-05	967.19	3.7821e-06	3.7431e-06	1056.7	207.41	3.7583e-06	3.6762e-06	265.21	77.793	61.682	18.171	3.7138e-06	25.115	66.602	-100.017	-48.660	-117.580	-19.480	-5.458	-117.628	-110.368	189.886	-70.556	-110.006	-104.233	-103.412	-96.203	-54.352	-96.648	-8191	255	
3194.314	1	1	0	0	0.24878	0.031155	0.053515	0.23927	0.10415	0.076662	0.18564	0.46444	0.15391	0.16794	0.19555	0.16048	0.2465	0.14368	0.10097	0.21306	-1.5875	-1.9625	-1.2771	-2.2417	-1.7125	-1.4438	-2.3187	-1.4146	-1.9417	-1.9021	-1.4354	-2.0604	-1.5896	-1.3792	-1.9312	-1.3042	10.228	8.593	-88.082	221.521	144.175	-45.678	125.803	184.801	-88.443	118.482	145.304	-25.679	60.926	213.704	76.748	-118.104	0.00038535	0.00064105	0.00013489	979.01	2.2693e-06	2.4359e-06	1060.5	207.18	1.8456e-06	6.4552e-06	266.61	76.526	60.492	17.801	2.2792e-06	24.503	0.00034526	0.00034082	9.4101e-05	964.67	3.7053e-06	3.7271e-06	1052.6	207.68	3.6329e-06	3.7721e-06	265.76	77.715	61.494	18.146	3.7083e-06	25.141	104.254	228.694	48.891	-117.064	-3.716	-66.230	-117.333	-110.159	84.186	30.588	-110.834	-103.810	-103.300	-95.908	229.174	-96.445	-8191	255	
3194.434	1	1	0	0	0.17791	0.26064	0.23219	0.3248	0.29348	0.10282	0.30191	0.17433	0.13723	0.1132	0.079557	0.11456	0.10238	0.20749	0.28828	0.26855	-1.2208	-1.9375	-1.3271	-2.1875	-1.6104	-1.4229	-2.3187	-1.2104	-1.5708	-2.1167	-1.2208	-2.0396	-1.9062	-1.3813	-2.05	-1.6542	92.371	132.083	-61.761	220.873	9.989	-79.421	117.443	119.689	-112.739	-50.669	86.739	-33.747	128.927	213.370	-28.852	168.151	0.0003505	0.00026732	7.8998e-05	979.97	5.1042e-06	3.4894e-06	1065.9	207.41	1.9497e-06	2.736e-06	267.32	76.57	60.768	17.879	6.9278e-06	24.387	0.00033745	0.00033451	9.419e-05	964.27	3.6919e-06	3.6868e-06	1054.3	207.49	3.6376e-06	3.6658e-06	265.83	77.749	61.356	18.156	3.7184e-06	25.03	86.245	88.873	180.952	-117.365	-64.290	-85.694	-117.332	-109.847	-108.268	-15.409	-110.328	-103.902	-103.820	-96.083	-11.901	-96.432	-8191	255	
3194.506	1	1	0	0	0.15484	0.13307	0.071199	0.12882	0.22117	0.22008	0.21121	0.13799	0.17092	0.16622	0.15911	0.063358	0.094918	0.33199	0.10615	0.17848	-1.3354	-2.3458	-1.4792	-2.0729	-1.7021	-1.3979	-2.2625	-1.575	-1.4875	-2.15	-1.2208	-1.6729	-1.775	-1.3167	-2.0417	-1.6146	-99.052	147.041	168.447	174.893	20.554	140.335	148.850	226.704	198.570	-23.329	-96.573	-69.542	-53.865	214.029	83.779	155.649	0.00054567	0.00019211	0.00014364	979.68	2.966e-06	6.2189e-06	1070	207.65	5.5288e-06	1.3118e-06	267.65	76.571	60.522	17.788	1.9468e-06	24.593	0.00033733	0.00033692	9.5107e-05	960.51	3.6673e-06	3.7031e-06	1052.5	206.91	3.6634e-06	3.6604e-06	265.94	77.612	61.29	18.123	3.6797e-06	25.17	88.766	-100.699	-22.277	-117.178	85.837	123.653	-117.614	-110.582	-57.868	-0.024	-110.400	-103.988	-103.165	-95.464	-47.032	-96.501	-8191	255	
3194.602	1	1	0	0	0.17584	0.12221	0.1393	0.14919	0.10445	0.16631	0.11312	0.17679	0.22317	0.10885	0.27918	0.12335	0.086965	0.31161	0.11431	0.20277	-1.1458	-2.1521	-1.4312	-1.9958	-1.9375	-1.1729	-2.2438	-1.7812	-1.5604	-2.2313	-1.3021	-1.8521	-2.0958	-1.2479	-2.1854	-1.8354	190.602	-25.025	112.161	-63.729	-77.379	-96.244	202.394	-110.121	224.906	131.388	59.122	-61.108	135.194	206.257	-35.348	15.113	0.00039749	8.8301e-05	0.0001573	971.23	2.9976e-06	4.7609e-06	1063.3	206.98	3.2671e-06	1.7826e-07	263.54	76.29	60.171	17.561	5.1459e-06	24.49	0.0003355	0.00033306	9.241e-05	960.08	3.6759e-06	3.7263e-06	1050.8	207.02	3.6896e-06	3.6944e-06	264.74	77.467	61.225	18.03	3.6912e-06	25.093	91.203	-121.182	-17.299	-117.291	163.082	148.546	-117.722	-110.166	-88.990	-0.721	-110.460	-104.198	-103.778	-96.029	-5.482	-96.773	-8191	255	
3194.698	1	1	0	0	0.18413	0.051204	0.032994	0.40925	0.28659	0.15937	0.058279	0.32174	0.22071	0.14697	0.10288	0.21097	0.11225	0.078623	0.17919	0.18933	-0.91667	-2.1063	-1.3979	-1.8458	-2.0667	-1.2812	-2.15	-1.8667	-1.2	-2.1125	-1.5688	-1.7271	-1.9958	-1.3458	-1.9729	-2.1396	191.520	229.545	-68.880	222.273	152.949	-5.936	73.943	159.157	-107.465	217.108	-36.726	230.080	58.552	111.278	153.544	-25.150	0.00036958	0.00014933	0.00014694	976.66	4.6585e-06	2.4456e-06	1060.1	207.39	4.1888e-06	4.5712e-06	265.17	76.921	60.843	17.601	1.8443e-06	24.424	0.00033311	0.00033261	9.3597e-05	960.32	3.6672e-06	3.6258e-06	1049.4	206.63	3.636e-06	3.7034e-06	265.44	77.601	61.427	18.037	3.663e-06	24.993	87.798	-58.058	-95.162	-117.669	-10.799	63.593	-117.387	-110.307	-94.477	87.255	-110.333	-104.101	-103.913	-96.358	10.277	-96.624	-8191	255	
3194.819	1	1	0	0	0.16969	0.051939	0.2766	0.33089	0.044316	0.076715	0.33407	0.282	0.21231	0.19301	0.046943	0.20811	0.16419	0.22692	0.13748	0.031407	-0.84792	-2.1792	-1.5021	-1.7729	-2.35	-1.4229	-2.075	-2.0271	-1.1854	-2.0958	-1.5875	-1.5271	-2.2042	-1.3354	-1.8458	-1.9729	-57.623	-114.859	6.362	148.081	59.695	181.467	105.833	61.120	-92.197	99.047	-56.404	89.892	42.042	-127.178	19.614	104.295	0.00039649	0.00060162	8.601e-05	975.63	2.9392e-06	1.3207e-06	1066	206.18	5.8849e-06	3.067e-06	265.76	76.595	60.164	17.641	5.4087e-06	24.474	0.00033629	0.00033645	9.3525e-05	959.7	3.6391e-06	3.7181e-06	1050.6	206.48	3.7043e-06	3.6941e-06	264.92	77.429	61.196	18.057	3.6263e-06	25.128	95.576	-70.553	21.049	-117.041	-64.144	164.853	-117.207	-109.669	7.145	11.907	-109.944	-103.636	-103.480	-96.243	-18.329	-96.395	-8191	255	
3194.915	1	1	0	0	0.04633	0.028633	0.15358	0.24046	0.12372	0.14543	0.096301	0.08715	0.068701	0.10476	0.14382	0.16028	0.11761	0.18352	0.13278	0.21238	-0.82083	-1.9875	-1.6313	-1.4729	-2.175	-1.2625	-1.8458	-2.1792	-1.3458	-1.975	-1.7375	-1.3583	-2.2917	-1.5396	-1.6021	-2.0375	203.553	78.846	-88.411	166.662	149.173	17.855	181.814	60.007	156.890	30.751	127.143	195.262	-79.218	-47.533	168.236	-126.532	0.00031375	0.00033811	0.00014827	976.79	3.9183e-06	1.1915e-06	1060.2	206.78	2.4698e-06	1.1066e-05	263.95	76.071	60.023	17.69	5.2083e-06	24.378	0.00033875	0.00033243	9.2877e-05	957.06	3.6486e-06	3.6835e-06	1047.3	206.55	3.6357e-06	3.6289e-06	263.7	77.203	61.049	18.062	3.585e-06	25.032	111.153	219.033	-51.153	-117.273	-42.939	-44.453	-117.468	-110.323	35.851	15.515	-109.983	-103.873	-103.659	-96.347	2.527	-96.799	-8191	255	
3195.011	1	1	0	0	0.11686	0.30221	0.21011	0.31624	0.25735	0.11004	0.21088	0.029273	0.098339	0.25584	0.45649	0.082253	0.15995	0.17595	0.018654	0.1516	-0.90208	-1.9667	-1.8687	-1.4542	-2.1792	-1.6187	-1.4937	-2.4208	-1.3458	-1.8542	-1.8833	-1.4312	-2.3	-1.4708	-1.4396	-2.1813	-118.820	-41.240	228.983	-109.875	-43.665	114.363	66.545	131.482	103.679	-104.306	221.192	-113.209	-89.967	0.010	-3.970	225.335	0.00040859	0.00012471	0.00010347	975	3.7857e-06	2.8751e-06	1058.3	207.49	7.1297e-06	5.8941e-06	265.58	76.721	60.735	17.788	2.5706e-06	24.277	0.00032692	0.00033008	9.2684e-05	956.59	3.6584e-06	3.5799e-06	1044.9	206.63	3.6196e-06	3.612e-06	264.26	77.259	61.063	18.012	3.6193e-06	24.959	97.795	-9.899	-55.647	-117.171	21.994	36.192	-117.117	-109.858	59.865	18.931	-109.830	-103.912	-103.451	-96.197	23.570	-96.072	-8191	255	
3195.107	1	1	0	0	0.10307	0.16815	0.13888	0.28571	0.069712	0.094323	0.18911	0.2923	0.097382	0.18849	0.31787	0.1484	0.16047	0.01487	0.28614	0.14096	-0.825	-2.0333	-1.8417	-1.4021	-2.1542	-1.6417	-1.6896	-2.1708	-1.2583	-1.7313	-2.0396	-1.3854	-2.0167	-1.5833	-1.2958	-2.1625	-60.322	-108.806	66.797	218.398	213.222	84.715	222.089	-121.916	19.130	86.077	86.563	-105.681	170.783	75.413	10.152	198.996	0.00054186	0.00053358	0.00014853	973.18	3.0424e-06	8.4041e-07	1060	205.7	4.3512e-06	5.5511e-06	263.72	76.627	60.106	17.545	6.7253e-06	24.258	0.00032627	0.00032087	8.9616e-05	953.8	3.5788e-06	3.5591e-06	1042.4	205.58	3.5682e-06	3.5355e-06	263.2	77.305	60.7	17.985	3.6068e-06	24.938	94.703	-10.856	-92.168	-116.871	40.080	-9.521	-116.985	-109.904	-98.152	-18.866	-110.081	-103.749	-103.448	-95.449	-100.669	-95.946	-8191	255	
3195.203	1	1	0	0	0.12139	0.022292	0.12659	0.24867	0.10349	0.18682	0.09655	0.030465	0.11879	0.24317	0.14205	0.18113	0.11769	0.037886	0.083282	0.15368	-1.0854	-1.65	-2.1646	-1.5187	-1.85	-1.8833	-1.3396	-2.2917	-1.3208	-1.7458	-2.1937	-1.2208	-1.925	-1.9021	-1.2979	-2.0583	-56.521	119.627	-49.066	196.300	23.012	-89.461	169.701	-125.384	192.316	30.861	-21.148	127.899	91.116	-17.859	-41.540	-95.159	0.00039903	0.00026917	0.00010984	966.03	2.3776e-06	2.1919e-06	1053.7	205.46	1.0957e-05	8.7222e-06	263.45	76.692	59.813	17.722	3.5571e-06	24.472	0.00032408	0.00032969	9.2296e-05	951.58	3.6774e-06	3.6573e-06	1040.6	205.55	3.6267e-06	3.6496e-06	263.64	77.243	61.008	18.016	3.592e-06	24.971	75.201	-70.441	-67.891	-116.642	-62.439	-13.625	-117.750	-110.445	-53.234	8.976	-110.313	-103.943	-103.265	-95.219	-31.272	-95.854	-8191	255	
3195.300	1	1	0	0	0.32093	0.034877	0.13864	0.37339	0.053339	0.066033	0.27842	0.17718	0.10157	0.27435	0.36119	0.04396	0.11392	0.090502	0.07893	0.083727	-0.97708	-1.5271	-2.2146	-1.4125	-1.8104	-1.8854	-1.4937	-2.1583	-1.6083	-1.4208	-2.3688	-1.4292	-1.9188	-1.8917	-1.4042	-2.1375	165.372	146.699	222.356	-97.479	-72.483	143.981	63.587	197.837	200.230	115.535	3.426	162.272	223.831	110.159	117.860	85.377	0.00053809	0.00027597	0.00020626	964.69	4.2398e-06	2.9886e-06	1059.7	206.21	4.2122e-06	2.4023e-06	264.1	76.19	60.264	17.595	3.4329e-06	24.262	0.00033056	0.00033061	9.17e-05	950.94	3.6441e-06	3.6262e-06	1044.7	205.77	3.6393e-06	3.6314e-06	263.26	76.863	61.04	17.969	3.6081e-06	24.953	82.004	-66.279	-37.336	-116.640	-64.764	89.818	-116.764	-109.384	-117.567	92.741	-109.863	-103.421	-102.798	-95.184	70.285	-96.275	-8191	255	
3195.418	1	1	0	0	0.20809	0.45897	0.081023	0.40354	0.17569	0.060462	0.26317	0.20573	0.20064	0.10935	0.38187	0.1132	0.1744	0.0083992	0.19298	0.014981	-1.2729	-1.4458	-1.9479	-1.4688	-1.6479	-2.0479	-1.4458	-2.1146	-1.8708	-1.425	-2.225	-1.3125	-1.7771	-1.9979	-1.0896	-1.9937	81.873	91.902	190.080	184.058	134.694	-42.167	177.309	89.534	170.408	229.742	222.293	42.336	149.052	134.498	75.694	218.404	0.00043505	0.0002248	0.00020333	967.15	3.8234e-06	2.3016e-06	1055.7	205.75	1.9312e-06	2.8766e-06	262.61	76.563	60.207	17.507	7.8491e-07	24.229	0.00033286	0.00033563	9.2575e-05	953.26	3.7048e-06	3.6652e-06	1041.9	205.79	3.6429e-06	3.7079e-06	262.56	77.343	60.99	18.015	3.6473e-06	24.896	66.270	-26.110	-1.572	-117.046	197.303	74.515	-116.953	-109.654	-24.780	-10.754	-110.402	-103.655	-103.576	-95.863	90.013	-96.655	-8191	255	
3195.515	1	1	0	0	0.040372	0.3423	0.10403	0.54411	0.31793	0.010812	0.19752	0.13701	0.19439	0.27514	0.10358	0.031399	0.33806	0.26864	0.067831	0.10166	-1.3792	-1.3833	-2.05	-1.4167	-1.4979	-2.0271	-1.6271	-2.0938	-1.7583	-1.1104	-2.0292	-1.4813	-1.6437	-1.9167	-1.1083	-1.8875	-4.832	28.174	30.818	230.504	-49.423	87.577	199.228	139.972	204.928	160.392	-40.185	-124.065	219.534	6.677	-113.190	-43.012	0.00057055	0.00023874	6.7068e-05	965.57	3.44e-06	3.6687e-06	1057	205.3	3.3303e-06	5.4393e-06	263.47	76.304	60.408	17.627	7.5924e-07	24.374	0.00033017	0.00033287	9.3063e-05	952.28	3.6854e-06	3.6899e-06	1043.2	205.53	3.6195e-06	3.6426e-06	263.77	77.089	61.173	17.977	3.5947e-06	24.954	81.826	0.979	-59.667	-117.463	-19.107	20.594	-117.607	-110.145	-49.766	-47.518	-110.618	-104.595	-103.918	-96.152	151.669	-96.041	-8191	255	
3195.611	1	1	0	0	0.27827	0.17803	0.37577	0.14175	0.17196	0.12217	0.11362	0.021488	0.36445	0.17428	0.046311	0.14724	0.39221	0.14009	0.11255	0.23298	-1.5125	-1.15	-1.9646	-1.5562	-1.6208	-2.1646	-1.4167	-1.7833	-1.8604	-1.2333	-2.2792	-1.6479	-1.3646	-2.2188	-1.3937	-1.7833	92.400	-114.586	-23.456	219.143	212.536	200.930	42.528	209.816	76.334	179.287	89.540	187.575	-123.157	156.227	95.584	204.469	0.00044168	9.1963e-05	0.00013999	964.87	1.3533e-06	3.0421e-06	1050.9	206.1	1.7297e-06	5.5349e-06	264.11	76.757	60.069	17.506	2.2328e-06	24.41	0.00033201	0.00032987	9.3632e-05	951.1	3.6251e-06	3.6681e-06	1041.8	205.34	3.6616e-06	3.6624e-06	263.27	76.962	60.985	17.967	3.5611e-06	24.972	79.764	10.814	-27.011	-117.948	131.317	-1.438	-117.438	-109.708	-86.385	20.933	-110.415	-103.811	-103.002	-95.506	-120.152	-95.869	-8191	255	
3195.707	1	1	0	0	0.056581	0.12686	0.10966	0.35759	0.13333	0.2701	0.51983	0.081011	0.070249	0.015219	0.20287	0.073382	0.13429	0.17918	0.10495	0.24758	-1.5583	-1.2479	-1.9875	-2.0833	-1.3396	-2.1312	-1.5312	-1.5979	-2.0604	-1.2396	-1.9125	-1.8042	-1.3563	-2.2625	-1.5812	-1.7833	140.413	-55.516	-107.496	179.296	-94.966	117.700	165.396	-81.258	-69.655	-59.492	130.485	157.901	28.324	216.433	165.924	173.476	0.00039463	0.00027934	0.00011476	964.36	2.386e-06	4.1304e-06	1054.3	205.43	7.0766e-06	2.5261e-06	264.02	76.231	60.032	17.608	2.3141e-06	24.348	0.00032873	0.00033363	9.1178e-05	950.86	3.5903e-06	3.6004e-06	1042.3	205.34	3.6489e-06	3.6345e-06	263.43	77.079	60.883	17.971	3.5909e-06	24.909	76.014	3.220	-12.459	-117.084	67.478	76.720	-117.516	-109.890	-41.077	-81.809	-109.988	-103.419	-103.720	-95.376	-24.828	-96.274	-8191	255	
3195.803	1	1	0	0	0.14975	0.246	0.091006	0.14936	0.10391	0.27326	0.38128	0.026426	0.34547	0.18381	0.22543	0.048533	0.21831	0.11768	0.0843	0.081112	-1.8021	-1.2313	-2.0229	-1.9813	-1.1875	-2.0854	-1.5667	-1.5	-2.0354	-1.3937	-2.0521	-2.0812	-1.4312	-1.8583	-1.6208	-1.5125	160.146	5.180	-17.319	-100.709	-46.694	22.909	154.087	95.938	-13.181	177.390	-49.529	126.566	-119.193	173.775	-67.747	-3.477	0.00041015	0.00024495	0.00010373	965.04	1.6336e-06	8.5713e-06	1055.8	206.45	4.6576e-06	1.2569e-06	265.41	76.546	60.456	17.54	4.1036e-06	24.469	0.00032586	0.00032383	9.1851e-05	951.59	3.6195e-06	3.5855e-06	1042.7	205.76	3.6215e-06	3.584e-06	264.32	77.147	60.912	17.978	3.5711e-06	25.008	113.107	-27.142	71.238	-116.962	219.873	-27.766	-117.410	-109.937	-52.539	166.589	-109.574	-103.344	-102.985	-95.850	-103.749	-95.583	-8191	255	
3195.899	1	1	0	0	0.39183	0.11836	0.28191	0.026012	0.064681	0.18604	0.29422	0.19318	0.022889	0.075372	0.24158	0.040594	0.19038	0.21907	0.19974	0.35646	-1.8062	-1.4958	-1.8188	-2.1292	-1.45	-2.0792	-1.7625	-1.2625	-2.1542	-1.4583	-1.7375	-2.0333	-1.1792	-2.1083	-1.8	-1.3375	50.628	69.512	183.143	-91.342	134.352	-48.032	11.743	-40.229	-104.602	66.193	193.903	12.352	223.678	187.851	208.870	-98.881	0.00027107	0.00042629	0.0002542	969.08	3.7885e-06	3.8241e-06	1057.2	206.12	8.2068e-07	3.214e-06	264.15	76.567	59.764	17.603	1.2484e-06	24.446	0.00032857	0.00032612	9.0094e-05	952.62	3.5744e-06	3.579e-06	1043.5	205.09	3.5382e-06	3.5651e-06	263.41	77.163	60.951	18.034	3.5219e-06	24.93	86.274	226.078	1.847	-117.012	166.036	17.520	-116.591	-109.265	-45.362	-35.431	-109.458	-103.347	-102.953	-95.461	-72.779	-96.095	-8191	255	
3195.995	1	1	0	0	0.16692	0.15348	0.11664	0.34201	0.19223	0.084809	0.10173	0.28649	0.26114	0.13925	0.19559	0.05085	0.21405	0.045386	0.20007	0.10555	-1.7021	-1.3937	-1.5021	-2.125	-1.3979	-1.8896	-1.7354	-1.3813	-2.0938	-1.6771	-1.7271	-2.2042	-1.4021	-1.8854	-1.8021	-1.1812	-75.043	168.855	204.164	148.044	227.796	223.320	32.291	135.623	152.092	56.397	-81.027	-24.443	-98.922	-112.640	182.258	152.516	0.00051076	0.00018593	0.00013755	962.44	2.6011e-06	6.7951e-06	1055.9	206.25	3.4415e-06	7.8228e-06	264.3	76.338	60.056	17.461	4.9508e-06	24.269	0.00032633	0.0003258	9.0297e-05	950.67	3.5805e-06	3.575e-06	1043.3	205.61	3.5665e-06	3.5779e-06	263.51	76.962	60.805	17.918	3.5557e-06	24.951	69.813	59.614	-38.306	-117.103	59.142	17.794	-117.569	-109.813	8.849	-10.307	-109.768	-104.024	-104.171	-95.647	-51.205	-97.128	-8191	255	
#DATA ENDS
