BOXY.EXE: ISS Imagent and Oximeter Data Acquisition Program Version 0.80
Ascii Record File

#ACQ INFORMATION
2  Detector Channels 
16  External MUX Channels 
1  Auxiliary Channels 
5000  Waveform (CCF) Frequency (Hz)
1  Waveforms Skipped 
30  Waveforms Averaged 
1  Cycles Averaged 
16  Acquisitions per Waveform 
10.0806  Updata Rate (Hz) 

#FILE INFORMATION
TRUE -- External MUX Channel results are PARSED.
FALSE -- AC DC and Phase are NOT grouped.
TRUE -- Companion Program Settings File CREATED.
FALSE -- AC data not excluded
FALSE -- DC data not excluded
FALSE -- Phase data not excluded
FALSE -- Auxillary Chn. data not excluded
Tab delimiters

#CALIBRATION STATE
TRUE -- Waveform Calibration Values APPLIED.


#AUX CALIBRATION VALUES
Val Type	aux-1	

Term	1.0000e+00	
Factor	0.0000e+00	


#WF CALIBRATION VALUES
A = Detector Channel
Val Type	A-AC1	A-AC2	A-AC3	A-AC4	A-AC5	A-AC6	A-AC7	A-AC8	A-AC9	A-AC10	A-AC11	A-AC12	A-AC13	A-AC14	A-AC15	A-AC16	A-DC1	A-DC2	A-DC3	A-DC4	A-DC5	A-DC6	A-DC7	A-DC8	A-DC9	A-DC10	A-DC11	A-DC12	A-DC13	A-DC14	A-DC15	A-DC16	A-Ph1	A-Ph2	A-Ph3	A-Ph4	A-Ph5	A-Ph6	A-Ph7	A-Ph8	A-Ph9	A-Ph10	A-Ph11	A-Ph12	A-Ph13	A-Ph14	A-Ph15	A-Ph16	

Term	0.00000e+00	0.00000e+00	0.00000e+00	0.00000e+00	0.00000e+00	0.00000e+00	0.00000e+00	0.00000e+00	0.00000e+00	0.00000e+00	0.00000e+00	0.00000e+00	0.00000e+00	0.00000e+00	0.00000e+00	0.00000e+00	0.00000e+00	0.00000e+00	0.00000e+00	0.00000e+00	0.00000e+00	0.00000e+00	0.00000e+00	0.00000e+00	0.00000e+00	0.00000e+00	0.00000e+00	0.00000e+00	0.00000e+00	0.00000e+00	0.00000e+00	0.00000e+00	0.00000e+00	0.00000e+00	0.00000e+00	0.00000e+00	0.00000e+00	0.00000e+00	0.00000e+00	0.00000e+00	0.00000e+00	0.00000e+00	0.00000e+00	0.00000e+00	0.00000e+00	0.00000e+00	0.00000e+00	0.00000e+00	
Factor	1.00000e+00	1.00000e+00	1.00000e+00	1.00000e+00	1.00000e+00	1.00000e+00	1.00000e+00	1.00000e+00	1.00000e+00	1.00000e+00	1.00000e+00	1.00000e+00	1.00000e+00	1.00000e+00	1.00000e+00	1.00000e+00	1.00000e+00	1.00000e+00	1.00000e+00	1.00000e+00	1.00000e+00	1.00000e+00	1.00000e+00	1.00000e+00	1.00000e+00	1.00000e+00	1.00000e+00	1.00000e+00	1.00000e+00	1.00000e+00	1.00000e+00	1.00000e+00	X	X	X	X	X	X	X	X	X	X	X	X	X	X	X	X	

B = Detector Channel
Val Type	B-AC1	B-AC2	B-AC3	B-AC4	B-AC5	B-AC6	B-AC7	B-AC8	B-AC9	B-AC10	B-AC11	B-AC12	B-AC13	B-AC14	B-AC15	B-AC16	B-DC1	B-DC2	B-DC3	B-DC4	B-DC5	B-DC6	B-DC7	B-DC8	B-DC9	B-DC10	B-DC11	B-DC12	B-DC13	B-DC14	B-DC15	B-DC16	B-Ph1	B-Ph2	B-Ph3	B-Ph4	B-Ph5	B-Ph6	B-Ph7	B-Ph8	B-Ph9	B-Ph10	B-Ph11	B-Ph12	B-Ph13	B-Ph14	B-Ph15	B-Ph16	

Term	0.00000e+00	0.00000e+00	0.00000e+00	0.00000e+00	0.00000e+00	0.00000e+00	0.00000e+00	0.00000e+00	0.00000e+00	0.00000e+00	0.00000e+00	0.00000e+00	0.00000e+00	0.00000e+00	0.00000e+00	0.00000e+00	0.00000e+00	0.00000e+00	0.00000e+00	0.00000e+00	0.00000e+00	0.00000e+00	0.00000e+00	0.00000e+00	0.00000e+00	0.00000e+00	0.00000e+00	0.00000e+00	0.00000e+00	0.00000e+00	0.00000e+00	0.00000e+00	3.46174e+01	-1.41726e+02	-1.41638e+02	-1.82578e+02	-8.82637e+01	-9.64119e+01	-1.57601e+02	-1.62015e+02	-1.01309e+02	-8.94930e+01	-1.76501e+02	-1.75461e+02	-1.82075e+02	-1.78619e+02	-8.59017e+01	-1.51028e+02	
Factor	5.43218e-05	9.09066e-05	3.08890e-05	1.86882e-01	1.02004e-06	9.71065e-07	1.70451e-01	5.67373e-02	1.06568e-06	8.83568e-07	1.30693e-01	3.60511e-02	2.61244e-02	9.14670e-03	1.13988e-06	1.29127e-02	6.14975e-07	6.21407e-07	1.73172e-07	9.42003e-02	6.80050e-09	6.81149e-09	8.15599e-02	2.85863e-02	6.80842e-09	6.81023e-09	5.99588e-02	1.68107e-02	1.29183e-02	4.52870e-03	6.82171e-09	6.11913e-03	X	X	X	X	X	X	X	X	X	X	X	X	X	X	X	X	



#DISTANCE SETTINGS
A = Detector Channel
A-1	A-2	A-3	A-4	A-5	A-6	A-7	A-8	A-9	A-10	A-11	A-12	A-13	A-14	A-15	A-16	

2.5000e+00	3.0000e+00	2.5000e+00	3.0000e+00	2.0000e+00	3.0000e+00	1.5000e+00	3.0000e+00	3.0000e+00	3.0000e+00	3.0000e+00	3.0000e+00	3.0000e+00	3.0000e+00	1.5000e+00	3.0000e+00	

B = Detector Channel
B-1	B-2	B-3	B-4	B-5	B-6	B-7	B-8	B-9	B-10	B-11	B-12	B-13	B-14	B-15	B-16	

1.0000e+01	1.0000e+01	1.0000e+01	1.4400e+00	1.0000e+01	1.0000e+01	1.5100e+00	1.9400e+00	1.0000e+01	1.0000e+01	1.9900e+00	2.4900e+00	2.4100e+00	2.9000e+00	1.0000e+01	2.9800e+00	




#DATA BEGINS
time	group	step	mark	flag	A-AC1	A-AC2	A-AC3	A-AC4	A-AC5	A-AC6	A-AC7	A-AC8	A-AC9	A-AC10	A-AC11	A-AC12	A-AC13	A-AC14	A-AC15	A-AC16	A-DC1	A-DC2	A-DC3	A-DC4	A-DC5	A-DC6	A-DC7	A-DC8	A-DC9	A-DC10	A-DC11	A-DC12	A-DC13	A-DC14	A-DC15	A-DC16	A-Ph1	A-Ph2	A-Ph3	A-Ph4	A-Ph5	A-Ph6	A-Ph7	A-Ph8	A-Ph9	A-Ph10	A-Ph11	A-Ph12	A-Ph13	A-Ph14	A-Ph15	A-Ph16	B-AC1	B-AC2	B-AC3	B-AC4	B-AC5	B-AC6	B-AC7	B-AC8	B-AC9	B-AC10	B-AC11	B-AC12	B-AC13	B-AC14	B-AC15	B-AC16	B-DC1	B-DC2	B-DC3	B-DC4	B-DC5	B-DC6	B-DC7	B-DC8	B-DC9	B-DC10	B-DC11	B-DC12	B-DC13	B-DC14	B-DC15	B-DC16	B-Ph1	B-Ph2	B-Ph3	B-Ph4	B-Ph5	B-Ph6	B-Ph7	B-Ph8	B-Ph9	B-Ph10	B-Ph11	B-Ph12	B-Ph13	B-Ph14	B-Ph15	B-Ph16	aux-1	digaux	

2105.468	1	1	0	256	0.082581	0.098394	0.13984	0.1385	0.20217	0.035418	0.15748	0.15654	0.23393	0.070428	0.10144	0.27613	0.10775	0.16569	0.11347	0.067634	-1.9833	-2.1917	-2.8333	-2.2687	-2.4021	-2.7938	-2.0979	-2.9562	-2.8312	-2.0667	-2.7667	-2.2583	-2.4125	-2.8208	-2.0583	-2.9	180.205	181.763	185.936	387.429	412.896	217.084	379.974	184.516	109.143	328.818	387.407	377.968	249.713	93.095	184.412	396.802	0.00097812	0.0013285	0.00063601	1168.9	1.108e-05	1.5421e-05	1243	238.11	6.7108e-06	7.7351e-06	297.06	83.581	65.764	19.154	8.2156e-06	26.604	0.0014647	0.0014712	0.00041193	1324	1.6217e-05	1.6226e-05	1370.6	290.28	1.6201e-05	1.6243e-05	406.14	115.77	91.359	28.61	1.6435e-05	39.172	296.148	198.887	186.301	102.311	169.764	421.140	102.622	110.410	142.506	452.137	109.529	117.013	117.185	124.151	172.931	123.391	-8191	255	
2105.564	1	1	0	0	0.028802	0.095603	0.15061	0.21956	0.30149	0.040236	0.14063	0.09645	0.12106	0.38807	0.088978	0.13764	0.26351	0.090354	0.13243	0.28797	-2.1854	-2.1896	-2.8042	-2.4646	-2.1479	-2.8271	-2.2438	-2.75	-2.8042	-2.1604	-2.7771	-2.3521	-2.2667	-2.825	-2.1021	-2.6063	402.695	238.053	149.961	112.256	133.065	104.926	429.076	403.187	162.445	145.722	377.881	408.316	116.621	240.741	160.033	370.072	0.00058516	8.107e-05	7.714e-05	1177.1	7.3476e-06	3.8712e-06	1240.2	237.25	4.5608e-06	7.2021e-06	297.54	83.721	66.215	19.124	1.3802e-05	26.663	0.0014898	0.0015033	0.000419	1334.7	1.6496e-05	1.6442e-05	1373	292.05	1.6403e-05	1.637e-05	407.53	116.34	91.468	28.714	1.6523e-05	39.241	373.073	238.596	438.762	102.267	272.815	421.417	102.653	110.345	439.649	306.754	109.399	116.514	116.826	123.338	352.523	123.329	-8191	255	
2105.659	1	1	0	0	0.090848	0.39465	0.057967	0.46075	0.27572	0.15012	0.34938	0.24501	0.10285	0.22956	0.19247	0.1212	0.088095	0.16099	0.1498	0.16896	-2.3563	-2.1396	-2.7771	-2.6792	-2.0417	-2.7854	-2.2604	-2.6312	-2.8083	-2.1312	-3.0333	-2.7042	-2.1917	-3.0438	-2.3812	-2.2083	397.123	155.833	356.878	444.959	120.848	320.562	416.404	401.572	208.579	394.965	180.094	436.164	92.883	315.038	203.009	223.069	0.00085443	0.00050592	0.00047427	1184	1.2225e-05	1.0426e-05	1250.9	237.88	9.471e-06	1.4424e-05	299.5	84.119	65.432	19.079	6.5657e-06	26.28	0.0014989	0.0015056	0.00042112	1339.7	1.6479e-05	1.6663e-05	1381.3	292.31	1.6551e-05	1.6563e-05	409.24	116.31	91.329	28.657	1.6346e-05	38.952	328.921	92.642	154.109	102.788	254.748	201.476	102.751	110.376	328.169	243.971	110.173	117.046	116.872	124.136	327.749	123.396	-8191	255	
2105.757	1	1	0	0	0.082182	0.044124	0.055188	0.099141	0.12278	0.30673	0.40567	0.043921	0.13814	0.11092	0.30362	0.13938	0.26254	0.2188	0.24737	0.34331	-2.5167	-2.1437	-2.7521	-2.6562	-2.0979	-2.8438	-2.3771	-2.3146	-2.7396	-2.1417	-2.6813	-2.7562	-1.9583	-2.9	-2.3625	-2.3	268.799	270.737	132.230	108.952	422.080	434.788	384.289	100.449	240.092	115.717	450.200	92.683	396.750	398.299	435.355	428.440	0.00056802	0.0003315	0.00015721	1188.3	9.064e-06	2.7698e-06	1250.9	236.84	1.5849e-05	6.9532e-06	300.49	83.826	65.619	19.26	9.5771e-06	26.2	0.0014618	0.0014762	0.00040724	1334.5	1.5931e-05	1.6072e-05	1374.2	289.42	1.603e-05	1.5962e-05	404.84	115.44	90.791	28.536	1.6125e-05	38.711	297.956	177.757	245.266	102.484	210.816	380.462	102.961	110.201	187.667	440.006	109.671	116.554	116.977	123.631	232.746	123.250	-8191	255	
2105.875	1	1	0	0	0.14665	0.2694	0.038392	0.42339	0.20452	0.11735	0.19204	0.25145	0.18264	0.15066	0.12036	0.29292	0.20912	0.18895	0.054113	0.13294	-2.6104	-2.0917	-2.6312	-2.8958	-1.9875	-3.1083	-2.6146	-2.3729	-2.6917	-2.2354	-2.6896	-2.8937	-2.0625	-2.7396	-2.5333	-2.1604	102.924	325.646	117.593	107.113	272.349	292.420	391.263	106.691	94.483	154.457	427.138	440.327	124.058	140.091	141.932	426.238	0.0011167	0.00025706	0.00030296	1186.3	6.4104e-07	5.5053e-06	1254.5	238.17	1.5237e-05	8.7528e-06	300.21	84.361	65.762	19.147	8.8059e-06	26.269	0.0014667	0.0014757	0.0004136	1334.7	1.6178e-05	1.6284e-05	1377.1	290.73	1.6266e-05	1.6328e-05	407.39	116.12	91.409	28.68	1.652e-05	39.148	336.131	300.251	393.484	102.401	432.656	302.951	102.800	110.342	243.540	227.069	109.802	116.556	117.050	123.606	236.773	123.557	-8191	255	
2105.970	1	1	0	0	0.22421	0.14361	0.42301	0.30601	0.20799	0.13088	0.40376	0.044876	0.21874	0.20629	0.15075	0.19525	0.040693	0.1796	0.12248	0.15401	-2.4354	-2.1917	-2.3896	-2.8146	-2.2604	-2.8417	-2.8812	-2.0958	-2.8063	-2.1646	-2.4771	-2.8792	-2.025	-2.6312	-2.4938	-2.2729	99.356	308.838	170.446	116.650	427.436	250.799	362.398	124.603	130.398	372.296	262.422	141.738	153.373	159.344	171.151	127.602	0.00058815	0.00051842	0.00019191	1184.3	3.6949e-06	8.717e-06	1249.5	238.09	1.3957e-05	1.402e-05	296.44	84.418	65.813	19.178	2.3243e-06	26.211	0.0015046	0.0015114	0.0004232	1341.6	1.6646e-05	1.6653e-05	1381.9	292.69	1.6675e-05	1.6647e-05	409.92	116.91	91.868	28.788	1.6615e-05	39.026	363.648	281.392	173.792	102.508	260.151	141.512	102.825	110.139	222.017	316.792	110.160	116.878	117.468	124.079	226.251	123.818	-8191	255	
2106.066	1	1	0	0	0.21157	0.07894	0.11219	0.18894	0.32322	0.11215	0.072019	0.20085	0.19759	0.12011	0.033128	0.090921	0.24634	0.11644	0.069415	0.053939	-2.6813	-2.275	-2.4188	-3.1583	-1.9188	-2.7292	-2.8396	-2.2125	-2.8229	-2.3812	-2.2896	-2.9125	-2.2646	-2.5062	-2.7479	-2.0771	406.920	279.383	325.448	110.617	403.022	393.737	401.863	93.557	195.541	373.690	383.410	409.174	120.946	295.316	240.163	262.068	0.00026723	0.0010462	0.00045491	1189.8	6.455e-06	4.5088e-06	1250.2	236.78	4.7318e-06	7.402e-06	298.51	83.41	65.347	18.865	1.0709e-05	26.14	0.0015005	0.0015052	0.00042155	1339.6	1.651e-05	1.6577e-05	1379.3	292.09	1.6582e-05	1.6658e-05	410.43	116.76	91.772	28.874	1.6815e-05	39.202	357.135	257.593	105.456	102.415	334.929	313.397	102.768	110.362	188.345	190.843	110.394	116.676	117.087	123.896	291.814	123.243	-8191	255	
2106.162	1	1	0	0	0.39329	0.37803	0.095979	0.14088	0.10193	0.26501	0.28648	0.18046	0.20641	0.22745	0.11606	0.050274	0.23899	0.10174	0.13096	0.1341	-2.5146	-2.4229	-2.2708	-3.0292	-2.2271	-2.4479	-2.9667	-2.1542	-2.8146	-2.5896	-2.1604	-2.8667	-2.1896	-2.4458	-2.8542	-2.0062	387.542	387.369	313.988	339.940	273.071	448.428	422.984	446.350	260.916	448.282	211.842	372.861	374.463	220.667	151.761	99.459	0.0010194	0.001051	0.00030047	1182	1.8075e-05	6.4887e-06	1248	237.84	4.7624e-06	1.0675e-05	299.02	82.654	65.386	18.783	9.9616e-06	26.044	0.001521	0.00153	0.00042504	1339.9	1.6603e-05	1.6647e-05	1380.3	291.36	1.6473e-05	1.6427e-05	408.87	115.71	90.998	28.373	1.6322e-05	38.792	317.507	175.159	303.850	102.632	174.714	325.079	102.867	110.260	390.722	285.605	109.951	117.151	117.010	124.523	212.228	122.996	-8191	255	
2106.258	1	1	0	0	0.20611	0.20099	0.15286	0.13051	0.026202	0.15607	0.37282	0.11211	0.11757	0.24454	0.048876	0.068688	0.042138	0.19164	0.27867	0.097674	-2.3083	-2.525	-2.0312	-3.075	-2.2854	-2.4417	-2.9458	-2.0646	-2.6104	-2.6396	-2.2146	-2.8875	-2.2938	-2.2104	-2.9688	-2.1813	104.097	183.321	297.449	378.428	253.180	95.159	415.185	131.642	225.638	215.104	414.284	411.388	227.696	101.135	432.502	185.573	0.0010154	0.00082629	0.00034236	1184.6	1.3657e-05	2.0194e-06	1253.2	238.76	7.8117e-06	5.8904e-06	297.17	83.227	65.255	18.937	3.4025e-06	25.838	0.0014784	0.0014839	0.00041418	1335.1	1.6246e-05	1.624e-05	1375.2	290.89	1.6231e-05	1.6235e-05	405.6	115.28	90.775	28.305	1.6186e-05	38.486	313.947	176.206	110.760	102.381	279.364	309.193	102.812	110.175	129.855	161.332	109.910	116.896	117.494	124.086	155.389	122.842	-8191	255	
2106.354	1	1	0	0	0.21714	0.13767	0.047002	0.24883	0.31489	0.1385	0.16736	0.17838	0.25156	0.051119	0.081324	0.31622	0.30129	0.21446	0.13363	0.09313	-2.3917	-2.7188	-2.05	-2.8854	-2.4417	-2.1792	-3.0187	-2.2917	-2.5896	-2.7292	-2.1771	-3.0187	-2.5792	-2.2917	-2.8729	-2.4167	319.072	427.159	435.995	427.983	369.502	129.702	345.449	343.382	261.816	302.595	394.579	290.204	102.239	448.454	101.821	368.555	0.0008399	0.00066619	0.00010215	1185.5	1.065e-05	1.2807e-05	1247.5	235.14	7.9074e-06	8.9629e-06	296.4	82.947	65.247	18.655	1.5476e-05	25.994	0.0014508	0.0014694	0.00040832	1331.5	1.6012e-05	1.6009e-05	1370.4	288.58	1.5997e-05	1.5956e-05	402.97	114.48	90.087	28.054	1.5852e-05	38.245	305.754	172.771	260.964	102.443	302.961	180.634	103.298	110.022	318.133	328.747	109.845	117.274	116.843	123.966	235.501	123.671	-8191	255	
2106.475	1	1	0	0	0.16183	0.1621	0.043062	0.31574	0.25558	0.23955	0.2614	0.084702	0.27158	0.20757	0.16882	0.046917	0.24354	0.26769	0.065806	0.060102	-2.2229	-2.7771	-2.0396	-2.8063	-2.4979	-2.2146	-2.9875	-2.2812	-2.3958	-2.7958	-2.2729	-2.7208	-2.6688	-2.1083	-2.9875	-2.2667	110.407	141.515	397.877	379.818	289.709	450.801	360.272	236.692	100.526	250.047	334.894	141.153	397.004	423.745	321.684	312.491	0.00060077	0.0008549	0.00030493	1185.9	1.111e-05	1.0287e-05	1249.1	235.9	8.2066e-06	4.1683e-06	297.13	82.783	65.438	19.006	5.9312e-06	26.084	0.0014365	0.0014489	0.00040433	1329	1.5897e-05	1.5824e-05	1368.6	287.63	1.5787e-05	1.5769e-05	400.54	114.14	89.696	28.064	1.5692e-05	38.111	302.250	218.763	407.646	102.560	219.546	325.660	102.987	110.292	139.438	260.279	110.379	116.966	117.283	124.680	368.969	123.291	-8191	255	
2106.571	1	1	0	0	0.075404	0.15494	0.15076	0.061575	0.12496	0.22071	0.21967	0.1561	0.15992	0.22718	0.29779	0.070603	0.24206	0.01431	0.27809	0.1639	-1.9229	-2.8937	-2.125	-2.825	-2.6708	-2.1792	-3.0729	-2.3021	-2.0479	-2.7708	-2.1479	-2.6562	-2.6063	-2.0062	-2.7271	-2.4646	437.477	261.122	143.652	145.041	326.624	305.758	388.607	276.334	314.205	411.746	377.539	167.665	396.658	174.479	345.176	306.052	0.00099196	0.00076152	4.9536e-05	1174.1	7.453e-06	8.5894e-06	1242.8	235.71	7.3968e-06	1.3386e-05	293.31	83.255	65.06	18.893	1.2853e-05	26.05	0.0014133	0.001421	0.00039594	1319.1	1.544e-05	1.5524e-05	1361.1	285.28	1.5376e-05	1.5389e-05	396.63	112.87	88.777	27.719	1.5361e-05	37.635	313.639	414.388	296.638	102.752	368.339	253.641	103.028	110.369	368.292	287.692	110.444	116.794	116.807	123.847	351.702	123.295	-8191	255	
2106.667	1	1	0	0	0.11512	0.23294	0.059966	0.080854	0.032926	0.053304	0.087919	0.13218	0.23911	0.17569	0.084578	0.072192	0.2915	0.088577	0.019416	0.09796	-1.7604	-2.9146	-2.2938	-2.9104	-2.6854	-2.2313	-2.9562	-2.55	-2.3229	-2.9042	-2.2375	-2.4833	-2.8792	-2.1604	-2.7917	-2.6688	315.965	208.276	302.167	258.819	434.867	146.061	163.773	208.211	423.609	227.809	267.234	423.928	413.312	356.626	121.605	345.615	0.001123	0.0006121	0.00010222	1176.6	5.456e-07	1.3793e-05	1237.1	236.34	8.6554e-06	8.9239e-06	295.26	83.131	64.994	18.898	9.1094e-06	25.891	0.0013922	0.001397	0.00038963	1316.1	1.5335e-05	1.5353e-05	1353.5	285.32	1.5346e-05	1.5302e-05	396.18	112.64	88.557	27.765	1.533e-05	37.687	319.833	201.510	403.272	103.095	421.405	153.009	103.006	110.413	186.105	188.878	109.935	117.198	117.549	123.698	239.176	123.681	-8191	255	
2106.764	1	1	0	0	0.29948	0.21026	0.23591	0.33432	0.078485	0.15222	0.09057	0.29212	0.21024	0.26902	0.1595	0.20597	0.11034	0.077361	0.16936	0.41074	-1.8979	-2.8146	-2.2313	-2.5021	-2.8812	-2.1208	-2.95	-2.6583	-2.0417	-2.8812	-2.3542	-2.1958	-2.9938	-2.1042	-2.5333	-2.7188	201.342	295.046	446.029	119.290	359.398	106.203	381.285	415.713	172.831	379.902	429.201	359.366	409.999	406.219	331.118	166.467	0.00061917	0.00032466	0.00023252	1173.3	1.7465e-06	5.3167e-06	1237.1	233.67	8.0384e-06	5.2437e-06	294.51	83.154	64.638	18.725	7.3541e-06	25.81	0.0013898	0.0013908	0.00038867	1309.8	1.5172e-05	1.5222e-05	1353.1	284.13	1.5172e-05	1.5228e-05	393.25	111.96	87.888	27.424	1.4979e-05	37.295	388.796	403.091	209.674	102.761	413.573	220.310	102.958	110.762	206.053	243.516	110.304	116.812	117.399	124.439	239.764	123.204	-8191	255	
2106.835	1	1	0	0	0.06627	0.2237	0.22016	0.13718	0.16746	0.17737	0.11857	0.23167	0.19232	0.11894	0.21228	0.20099	0.088551	0.16529	0.06948	0.15343	-1.7062	-3.0042	-2.2188	-2.4083	-2.8	-2.1708	-2.7979	-2.7	-1.9292	-2.9	-2.4396	-2.425	-2.9333	-2.2229	-2.5021	-2.8771	363.598	109.161	352.292	100.898	356.198	288.720	425.711	415.480	210.021	308.850	155.766	152.528	269.435	427.550	352.785	445.169	0.00078592	0.00028316	3.7412e-05	1174.5	1.0819e-05	4.3417e-06	1238.8	235.58	5.3848e-06	1.3375e-05	292.32	82.957	64.436	19.028	7.7548e-06	25.943	0.0013555	0.0013543	0.00037842	1302.6	1.4691e-05	1.4619e-05	1345.1	281.24	1.4557e-05	1.4519e-05	387.57	110.37	86.671	27.061	1.4399e-05	36.672	344.536	208.875	158.907	102.820	154.220	346.496	103.028	110.626	139.507	174.913	110.245	117.014	116.850	124.165	285.030	123.654	-8191	255	
2106.954	1	1	0	0	0.15524	0.19607	0.19849	0.15149	0.25039	0.094149	0.40106	0.098286	0.11568	0.20011	0.16121	0.10016	0.034536	0.14051	0.02419	0.058932	-1.7896	-2.8583	-2.3	-2.4042	-2.9542	-2.1437	-2.4229	-2.9	-2.1562	-2.7521	-2.7458	-2.1729	-2.8333	-2.2771	-2.2375	-2.9167	257.927	269.408	236.836	113.602	102.378	190.512	406.633	381.532	276.902	429.112	137.266	248.980	155.235	413.817	277.699	166.013	0.0010681	0.00051924	0.00023737	1164.5	5.5165e-06	2.1492e-06	1227.7	233	5.4977e-06	3.381e-06	295.7	82.573	64.449	18.654	7.619e-06	25.556	0.001299	0.0013052	0.00036527	1293.6	1.4275e-05	1.4241e-05	1334.4	278.28	1.4195e-05	1.4196e-05	384.07	109.53	85.926	26.824	1.4122e-05	36.397	370.855	448.011	250.200	103.057	141.642	164.977	103.082	110.344	241.548	280.189	110.040	116.959	117.149	124.734	253.241	123.585	-8191	255	
2107.050	1	1	0	0	0.36581	0.15624	0.1556	0.020063	0.26222	0.14087	0.12163	0.10862	0.063081	0.16756	0.1034	0.1141	0.14426	0.10856	0.11922	0.23759	-1.7125	-2.7313	-2.5563	-2.3292	-2.8521	-2.1458	-2.3792	-3.0708	-2.0312	-2.775	-2.6646	-1.9979	-2.9375	-2.3979	-2.2729	-2.9729	405.137	303.334	436.138	280.927	107.592	120.499	402.266	343.742	219.651	382.286	407.724	346.122	440.007	158.835	338.974	110.276	0.00046723	0.00058883	7.9228e-05	1169.7	1.6325e-05	5.5207e-06	1225.2	233.62	5.0508e-06	7.9828e-06	295.17	82.225	64.612	18.926	3.1879e-06	25.817	0.0012834	0.0012832	0.00035832	1287.7	1.3981e-05	1.4003e-05	1329.7	277.3	1.3902e-05	1.3876e-05	381.16	108.19	85.189	26.476	1.358e-05	35.816	341.142	426.255	262.955	102.926	137.997	350.445	103.054	110.501	446.282	307.890	110.674	117.536	116.989	124.428	277.692	123.743	-8191	255	
2107.146	1	1	0	0	0.15849	0.11645	0.25158	0.038063	0.17868	0.17907	0.13133	0.097555	0.27057	0.26624	0.18274	0.25875	0.15634	0.28639	0.18475	0.16345	-1.6854	-2.7271	-2.6833	-2.2125	-2.9437	-2.3917	-2.4333	-3.0062	-2.1583	-2.4729	-2.7583	-2.1604	-2.8417	-2.5979	-2.2021	-3.0417	385.814	160.188	436.839	136.815	103.056	378.750	362.260	364.357	393.113	238.290	145.769	415.734	414.313	433.409	448.391	360.313	0.0015026	0.00029237	0.00031752	1166.4	1.9421e-05	2.4691e-06	1227	231.69	2.6777e-06	1.6275e-05	295.04	81.817	64.093	18.915	9.0772e-06	25.922	0.0012168	0.0012144	0.00033751	1268.5	1.3011e-05	1.2933e-05	1309.9	271.22	1.2684e-05	1.2621e-05	369.87	105.23	82.941	25.809	1.26e-05	35.139	343.077	168.551	349.843	102.830	181.790	188.397	103.389	110.692	187.302	228.328	110.208	116.950	117.549	124.442	206.663	123.534	-8191	255	
2107.243	1	1	0	0	0.20539	0.10869	0.32482	0.21871	0.17528	0.2368	0.50472	0.10674	0.061083	0.22245	0.039186	0.2874	0.10957	0.08471	0.064877	0.092025	-1.7646	-2.4521	-2.9292	-2.075	-2.7729	-2.5938	-2.2146	-2.8438	-2.2292	-2.4125	-2.7396	-2.0729	-2.9479	-2.7104	-2.1708	-2.8417	315.186	171.032	416.096	280.265	273.710	172.471	396.760	414.665	332.156	407.244	313.625	395.281	94.871	158.207	350.081	404.798	0.00084098	0.00087391	0.00032365	1156.8	4.3458e-06	7.5152e-06	1222.8	232.6	5.3265e-06	1.4108e-05	290.64	81.834	65.061	18.921	1.998e-05	25.839	0.0011472	0.0011592	0.00032334	1259.6	1.282e-05	1.2854e-05	1309.5	271.52	1.296e-05	1.3028e-05	371.21	106.31	84.026	26.236	1.3206e-05	35.834	335.472	381.098	316.235	102.879	131.786	297.059	103.318	110.604	282.622	144.565	110.245	116.982	117.512	124.607	94.290	122.716	-8191	255	
2107.363	1	1	0	0	0.23605	0.23003	0.12923	0.48763	0.27656	0.075795	0.39643	0.28482	0.18655	0.21144	0.21839	0.11462	0.21025	0.07281	0.023944	0.16165	-1.9375	-2.2854	-2.6333	-2.2354	-2.5625	-2.6104	-2.2667	-2.8396	-2.3187	-2.4542	-2.9875	-2.1437	-2.7333	-2.775	-2.0979	-2.825	102.620	355.966	98.832	392.803	129.018	249.962	330.701	357.875	225.067	178.392	140.380	151.651	389.084	441.808	354.210	373.947	0.00055598	0.00091523	7.9992e-05	1155	6.4919e-06	1.5013e-05	1222.6	234.11	9.7059e-06	7.2157e-07	293.12	81.801	64.328	18.96	1.2521e-05	26.025	0.0012032	0.0012177	0.000339	1270.2	1.3364e-05	1.3411e-05	1318.1	274.43	1.3434e-05	1.3466e-05	376.56	107.34	84.76	26.449	1.3501e-05	36.145	353.572	374.592	158.515	102.669	269.868	267.546	103.057	110.383	117.523	118.179	110.019	117.405	117.282	124.049	408.413	123.752	-8191	255	
2107.459	1	1	0	0	0.16646	0.23796	0.051675	0.37246	0.072801	0.18011	0.16191	0.30126	0.11918	0.33464	0.18354	0.12888	0.12962	0.066319	0.11311	0.074168	-2.0771	-2.1167	-2.8979	-2.35	-2.6854	-2.9146	-2.2438	-2.8896	-2.5958	-2.2375	-3.0938	-2.1958	-2.5625	-2.8583	-2.1604	-2.8333	440.149	298.948	123.125	427.983	242.241	229.844	422.075	404.975	171.552	446.423	396.698	316.828	204.061	142.067	441.557	137.599	0.00057795	0.00049529	0.00012072	1155.4	3.7862e-06	9.5502e-06	1221	233.76	3.2703e-06	8.7008e-06	294.68	82.758	64.181	18.692	1.4037e-05	25.723	0.001231	0.0012349	0.0003459	1273.2	1.3594e-05	1.3645e-05	1320.5	275.61	1.38e-05	1.3825e-05	380.79	108.79	85.604	26.738	1.3998e-05	36.513	312.391	269.773	251.243	103.082	237.407	181.400	103.246	110.619	328.762	310.777	110.481	117.058	116.971	124.762	305.379	122.971	-8191	255	
2107.555	1	1	0	0	0.17675	0.15183	0.13796	0.18425	0.196	0.1531	0.28716	0.25732	0.12413	0.30296	0.31625	0.074134	0.28142	0.1412	0.14291	0.0987	-1.9146	-2.1354	-2.85	-2.4917	-2.4125	-2.8271	-2.2333	-2.8896	-2.6708	-2.2167	-3.0479	-2.2896	-2.2854	-2.8833	-1.9562	-2.6333	290.505	95.147	245.021	365.593	245.397	98.474	374.377	418.658	155.965	361.412	388.345	210.334	141.475	433.383	256.853	442.911	0.0010427	0.0014368	0.00029864	1166.3	4.8708e-06	8.4412e-06	1224.7	232.72	7.6421e-06	5.112e-06	292.55	82.741	65.165	18.886	5.5418e-06	25.733	0.0012674	0.0012834	0.00035771	1283.7	1.4045e-05	1.4021e-05	1325	277.04	1.3991e-05	1.411e-05	381.56	108.84	85.925	26.831	1.4111e-05	36.581	324.003	451.370	431.173	102.911	436.018	344.471	103.400	110.591	270.339	254.518	110.593	116.921	117.509	124.375	163.880	124.185	-8191	255	
2107.652	1	1	0	0	0.1412	0.26481	0.2776	0.26507	0.30443	0.22102	0.1824	0.23426	0.067023	0.099763	0.19709	0.21873	0.15925	0.056829	0.19221	0.099021	-2.4208	-2.1646	-2.75	-2.2687	-2.0938	-3.0271	-2.3271	-2.6479	-2.6104	-1.9688	-2.7833	-2.2667	-2.1646	-2.7792	-2.1021	-2.5375	100.549	391.107	394.160	444.952	350.162	354.610	356.412	408.359	365.417	152.220	245.473	361.289	416.724	319.757	340.417	96.187	0.00061952	0.0012392	0.00010789	1160.5	1.0695e-05	2.2713e-06	1225.5	232.02	9.4196e-06	1.0022e-05	293.79	83.064	64.678	19.007	1.248e-05	25.868	0.0012746	0.0012864	0.00035879	1282.9	1.3981e-05	1.4097e-05	1327.9	276.45	1.3951e-05	1.3963e-05	382.22	108.91	85.58	26.78	1.3975e-05	36.624	362.144	196.812	302.873	102.698	442.272	262.987	103.363	111.011	391.198	332.486	110.896	117.383	117.400	124.628	359.655	124.053	-8191	255	
2107.748	1	1	0	0	0.18951	0.10458	0.052413	0.37201	0.11124	0.25137	0.26836	0.16631	0.265	0.092187	0.31706	0.13274	0.21843	0.15825	0.18529	0.1088	-2.4792	-1.95	-2.7229	-2.475	-2.1917	-2.7917	-2.1792	-2.6104	-2.6854	-2.0375	-2.9938	-2.6063	-2.0667	-2.8354	-2.2562	-2.5167	397.079	134.917	449.594	407.977	243.916	130.436	434.782	237.018	265.105	239.947	324.648	436.205	437.276	268.764	391.810	186.444	0.00072253	0.0010538	0.00045949	1157.7	8.9019e-06	5.6893e-06	1231.6	234.76	1.312e-05	1.0592e-05	294.78	82.248	64.63	18.929	6.0538e-06	26.026	0.0012713	0.0012747	0.00035616	1281.6	1.3946e-05	1.4082e-05	1326.3	277.62	1.4025e-05	1.4082e-05	382.67	108.91	85.771	26.834	1.3978e-05	36.692	327.058	178.995	283.671	102.951	263.386	149.381	103.270	110.785	247.574	370.701	110.634	117.080	117.327	124.396	400.935	123.518	-8191	255	
2107.844	1	1	0	0	0.054801	0.25154	0.088577	0.086074	0.082403	0.073487	0.17687	0.051345	0.19171	0.24285	0.05495	0.26505	0.095263	0.0899	0.1761	0.13917	-2.3979	-2.1896	-2.7313	-2.7646	-2.3187	-2.9854	-2.3688	-2.4708	-2.9021	-2.1167	-2.7812	-2.775	-1.9813	-2.9271	-2.3521	-2.2833	382.453	413.230	239.522	99.696	332.681	350.946	324.371	294.396	131.252	114.262	263.476	100.487	357.826	361.605	418.348	351.176	0.0010507	0.00087323	0.00036402	1160.8	7.4977e-06	3.7484e-06	1229.3	233.89	4.0183e-06	2.1896e-06	292.86	82.212	64.868	18.822	4.5915e-06	25.955	0.0012642	0.0012698	0.00035446	1280.5	1.3844e-05	1.3939e-05	1325.2	276.41	1.3782e-05	1.3841e-05	380.4	108.38	85.3	26.666	1.3735e-05	36.39	339.179	325.272	295.895	102.933	326.180	169.028	103.263	110.723	213.896	390.923	110.715	117.142	117.323	124.653	161.500	123.888	-8191	255	
2107.965	1	1	0	0	0.12987	0.078925	0.24176	0.11567	0.26562	0.1555	0.28202	0.095961	0.11228	0.13381	0.30959	0.25195	0.10677	0.089628	0.095063	0.18353	-2.4521	-2.3604	-2.5875	-2.9313	-2.0583	-2.65	-2.5062	-2.5708	-3.0479	-2.2417	-2.5771	-2.7708	-2.1271	-2.8771	-2.5187	-2.0917	113.642	340.372	424.718	383.813	362.712	255.023	363.995	120.632	181.000	173.815	253.896	425.492	107.826	443.140	203.545	123.683	0.00070013	0.00027814	3.4149e-05	1165	7.8766e-06	6.1266e-06	1229.4	233.77	7.1809e-06	4.4696e-06	291.8	82.707	65.037	18.764	4.6163e-06	26.068	0.0012445	0.001255	0.00034852	1279.5	1.3737e-05	1.369e-05	1322.6	275.77	1.3646e-05	1.3659e-05	378.72	108.05	85.142	26.474	1.3658e-05	36.298	370.597	436.414	171.172	102.702	178.660	398.289	103.220	110.897	375.431	118.334	110.550	117.140	117.318	124.527	204.438	123.839	-8191	255	
2108.059	1	1	0	0	0.19308	0.12933	0.057609	0.18866	0.085057	0.19889	0.12981	0.18257	0.30771	0.14796	0.16251	0.01107	0.07778	0.10652	0.14389	0.12692	-2.5312	-2.1271	-2.5938	-2.8354	-2.0062	-2.7313	-2.7021	-2.2354	-2.8063	-2.2438	-2.4562	-2.9667	-2.2292	-2.7313	-2.6417	-2.1833	131.182	157.753	213.024	116.015	177.434	324.860	383.900	355.128	222.014	176.007	190.550	358.850	315.631	334.967	97.236	137.618	0.00061713	0.00080634	0.0003059	1158.4	1.1236e-05	1.792e-05	1232.7	233.06	4.5794e-06	1.0874e-05	291.55	82.221	65.012	18.764	1.4351e-05	26.141	0.0012318	0.0012388	0.00034721	1276.4	1.3632e-05	1.3717e-05	1322.5	275.26	1.3686e-05	1.3601e-05	378.46	107.85	85.012	26.52	1.3609e-05	36.207	350.707	196.986	377.016	103.103	201.964	219.648	103.264	110.683	148.279	290.468	110.395	117.700	117.671	124.789	341.030	123.560	-8191	255	
2108.155	1	1	0	0	0.048863	0.19725	0.18287	0.31252	0.20161	0.1617	0.21967	0.30462	0.18653	0.083146	0.37141	0.13097	0.12253	0.13358	0.29868	0.19018	-2.6479	-2.3875	-2.2833	-2.9833	-2.1458	-2.7625	-2.9521	-2.2146	-2.7104	-2.1354	-2.4771	-3.0146	-2.0938	-2.5812	-2.5917	-2.35	441.727	122.374	289.304	409.273	426.457	228.196	425.707	242.652	187.449	236.671	445.200	449.496	148.543	419.643	125.635	347.077	0.00062868	0.0009766	0.00017195	1160.7	7.3314e-06	8.4673e-06	1220.6	233.04	1.1455e-05	1.2163e-05	293.41	82.758	64.63	18.87	3.9564e-06	26.041	0.0012296	0.0012365	0.00034464	1273.5	1.3436e-05	1.3471e-05	1317	274.05	1.3404e-05	1.3345e-05	375.67	107.13	84.052	26.353	1.3242e-05	35.813	339.275	183.906	402.797	103.015	224.993	355.073	103.331	110.783	450.519	171.935	110.534	117.992	117.473	125.007	310.636	123.860	-8191	255	
2108.251	1	1	0	0	0.10917	0.12167	0.10103	0.16502	0.25126	0.089835	0.2721	0.11807	0.11691	0.26936	0.081612	0.17489	0.19153	0.14033	0.11845	0.11568	-2.4875	-2.4521	-2.1896	-3.0917	-2.2583	-2.5812	-3.0021	-2.3104	-2.9333	-2.3396	-2.1813	-3.0021	-2.2917	-2.5792	-2.7479	-2.2229	324.986	358.871	390.320	372.927	376.159	344.342	107.450	146.316	271.656	186.961	243.125	290.246	421.089	137.898	442.460	327.518	0.001297	0.00053871	0.00054445	1157.6	3.3901e-06	3.999e-06	1220.6	232.66	7.5149e-06	3.337e-06	291.39	82.778	64.618	18.805	2.2002e-06	25.96	0.0012035	0.0012019	0.00033772	1267.4	1.323e-05	1.3189e-05	1313.6	272.64	1.3224e-05	1.3221e-05	374.32	107.13	84.185	26.309	1.3226e-05	35.812	344.712	175.975	179.163	103.162	148.043	345.717	103.384	111.019	418.289	218.429	111.229	117.400	117.673	124.353	104.278	123.775	-8191	255	
2108.347	1	1	0	0	0.15585	0.085213	0.16566	0.27638	0.25558	0.28061	0.041005	0.063135	0.090958	0.21706	0.19858	0.50394	0.18679	0.21077	0.11067	0.19222	-2.3875	-2.5042	-2.0021	-2.8812	-2.2458	-2.3896	-2.9979	-2.1542	-2.6583	-2.5208	-2.0854	-2.9833	-2.3542	-2.3417	-3.05	-2.2583	245.544	396.275	424.231	94.435	326.816	254.947	295.409	413.378	426.552	109.505	135.625	424.470	408.336	207.273	375.582	350.171	0.00085665	0.00057624	0.00014111	1165	3.0932e-06	9.156e-06	1227.5	232.99	1.0159e-05	2.896e-06	291.79	81.497	64.331	18.843	4.6682e-06	26.037	0.0011975	0.0012066	0.00033716	1269.3	1.3166e-05	1.3188e-05	1314.2	272.93	1.3227e-05	1.3185e-05	373.69	106.64	83.894	26.24	1.3187e-05	35.815	319.943	408.446	365.589	103.407	258.074	354.846	102.986	110.885	195.010	216.815	110.431	117.711	117.254	124.871	221.362	124.027	-8191	255	
2108.444	1	1	0	0	0.18678	0.26855	0.13586	0.23051	0.33908	0.20263	0.24021	0.15637	0.081212	0.19185	0.31048	0.12938	0.27447	0.092449	0.36106	0.20764	-2.2021	-2.7833	-2.0729	-3.1083	-2.4875	-2.2958	-3.0917	-2.2542	-2.575	-2.6396	-2.2375	-2.9375	-2.4542	-2.3979	-2.9854	-2.1833	427.481	142.311	106.552	362.146	98.219	267.700	432.550	207.543	209.801	406.368	406.587	399.751	319.120	329.510	449.713	139.768	0.0011025	0.00052351	0.0002339	1155.7	8.1276e-06	4.9344e-06	1225.7	232.67	4.3224e-06	2.7124e-06	291.84	82.056	64.176	18.888	1.5108e-05	25.725	0.0012017	0.0012033	0.00033408	1269.4	1.3123e-05	1.3162e-05	1313.8	272.57	1.3182e-05	1.3119e-05	373.4	106.62	83.997	26.172	1.318e-05	35.676	342.852	415.974	164.367	102.919	207.346	398.714	103.484	110.696	321.847	205.365	110.578	117.263	117.774	124.647	266.008	124.401	-8191	255	
2108.540	1	1	0	0	0.12408	0.17971	0.08331	0.27803	0.16266	0.13419	0.19508	0.20458	0.10154	0.13976	0.29665	0.083021	0.19161	0.18295	0.1293	0.18044	-2.1667	-2.8542	-2.2542	-2.9771	-2.3146	-2.1542	-2.9917	-2.3458	-2.4167	-2.9437	-2.2812	-2.8604	-2.4792	-2.3167	-2.8917	-2.3792	257.298	142.186	260.515	408.370	134.755	291.742	317.738	313.635	426.347	212.946	428.334	431.393	329.718	430.751	388.005	122.802	0.00094168	0.0011871	0.00037114	1159.1	1.0266e-05	1.113e-05	1219.1	231.47	4.6544e-06	9.3286e-06	292.16	82.233	64.511	18.711	8.1071e-06	26.16	0.0011968	0.001204	0.00033403	1270	1.3162e-05	1.3192e-05	1311.5	272.4	1.3216e-05	1.3168e-05	373.33	106.49	83.77	26.223	1.3137e-05	35.749	341.229	135.353	321.378	102.750	445.007	338.933	103.364	110.978	108.641	156.081	110.112	117.527	117.566	123.972	222.662	123.734	-8191	255	
2108.660	1	1	0	0	0.097899	0.16903	0.29073	0.29216	0.12135	0.17535	0.11135	0.17628	0.32472	0.16351	0.17961	0.16954	0.16715	0.26007	0.039672	0.29888	-2.0042	-2.7646	-2.0979	-2.8438	-2.6604	-2.3292	-3.0604	-2.3104	-2.3563	-3.0292	-2.1958	-2.6937	-2.7479	-2.2271	-2.875	-2.45	192.882	223.981	98.222	360.891	230.836	446.990	93.333	186.821	425.419	149.528	418.407	326.621	172.848	412.319	277.250	425.121	0.0010645	0.0005838	0.0004355	1164.7	9.9045e-06	8.2629e-06	1230.1	232.67	3.6291e-06	1.3966e-05	293.43	82.113	64.468	18.781	7.1886e-06	25.852	0.0011944	0.0011961	0.00033309	1268.3	1.3076e-05	1.307e-05	1313.4	272.36	1.3036e-05	1.3063e-05	372.88	106.52	83.672	26.115	1.3121e-05	35.564	298.934	345.482	215.649	103.340	216.407	207.146	103.177	110.476	106.417	183.309	110.492	116.995	117.233	123.993	272.302	123.446	-8191	255	
2108.732	1	1	0	0	0.11877	0.17675	0.11259	0.27073	0.065476	0.16155	0.34831	0.079975	0.10593	0.17579	0.082506	0.17131	0.19455	0.13451	0.18892	0.29295	-1.9021	-3.0271	-2.2854	-2.6437	-2.6271	-2.1792	-2.9375	-2.6354	-2.3083	-2.875	-2.1958	-2.7604	-2.9	-1.9896	-2.8937	-2.4896	250.073	165.538	222.039	434.934	422.621	417.389	437.933	252.901	95.648	347.819	394.343	338.130	409.874	408.905	338.634	344.553	0.00091296	0.00058546	0.00022265	1163	1.2273e-05	4.7873e-06	1227.6	232.13	4.3669e-06	2.8413e-06	295.5	82.23	65.048	18.751	1.2929e-05	26.131	0.0011888	0.0011867	0.00033221	1266.7	1.3039e-05	1.3109e-05	1310	271.88	1.3078e-05	1.3056e-05	373.51	106.43	83.961	26.173	1.3222e-05	35.794	317.785	375.898	224.573	103.203	167.016	268.306	103.478	110.697	191.309	210.350	110.793	117.672	117.742	124.410	199.329	124.050	-8191	255	
2108.828	1	1	0	0	0.16056	0.21538	0.20436	0.32172	0.038365	0.16825	0.15396	0.24484	0.073425	0.065457	0.41014	0.22001	0.24252	0.098544	0.14733	0.086522	-1.7563	-2.8854	-2.1813	-2.625	-2.8042	-2.1042	-2.9125	-2.4917	-2.2021	-3.0125	-2.2896	-2.5687	-2.9437	-2.3104	-2.8354	-2.7354	278.290	222.296	185.935	436.339	208.929	396.976	406.307	442.447	277.335	115.946	206.976	120.589	431.393	390.446	339.056	140.446	0.00064186	0.00049807	0.00017552	1157.6	8.3846e-06	6.1073e-06	1219.2	232.29	9.7245e-06	3.3306e-06	290.1	81.157	64.427	18.831	1.6057e-05	26.047	0.0012026	0.0012153	0.0003385	1270.8	1.3401e-05	1.3511e-05	1315.2	273.53	1.3436e-05	1.3507e-05	376.17	107.42	84.621	26.385	1.3537e-05	36.076	340.001	214.003	255.689	103.499	349.522	192.896	103.554	110.597	222.260	241.215	110.494	117.645	117.281	124.620	392.354	123.402	-8191	255	
2108.924	1	1	0	0	0.1797	0.081062	0.087234	0.13136	0.19877	0.11412	0.28704	0.28767	0.20976	0.063018	0.10575	0.14022	0.24384	0.24631	0.14718	0.4103	-1.8354	-2.7333	-2.2896	-2.4708	-2.9771	-1.9271	-2.8146	-2.6896	-1.9854	-3.0042	-2.4917	-2.3583	-2.7562	-2.2	-2.7521	-2.8312	438.194	149.421	182.776	110.810	141.404	338.276	382.137	314.055	365.530	183.237	175.754	114.445	433.898	423.953	346.765	93.995	0.0011111	0.00079284	0.00037559	1158.9	8.5264e-06	4.0798e-06	1222.7	231.27	2.8714e-06	8.0158e-06	292.62	81.293	64.235	18.602	5.6851e-06	25.812	0.0012358	0.0012343	0.00034296	1271.7	1.3507e-05	1.3511e-05	1317.3	273.68	1.3414e-05	1.3515e-05	376.25	107.34	84.714	26.439	1.3637e-05	36.092	311.143	428.274	387.857	103.472	289.157	96.464	103.612	111.073	177.399	225.495	110.505	117.957	117.868	124.257	297.747	124.002	-8191	255	
2109.043	1	1	0	0	0.13824	0.17551	0.074292	0.37265	0.065856	0.15252	0.32534	0.1753	0.17306	0.14819	0.20168	0.35624	0.15622	0.1316	0.18303	0.099069	-1.9833	-2.9646	-2.4708	-2.3271	-3.0083	-2.05	-2.725	-2.8667	-2.0917	-2.7833	-2.4833	-2.1896	-2.9875	-2.2271	-2.5458	-2.8396	160.259	196.448	97.036	420.897	418.763	196.315	380.361	331.061	221.442	442.598	399.737	407.395	375.777	236.012	268.684	359.386	0.0012202	0.00064448	0.00033642	1159.2	9.5259e-06	2.9876e-06	1224.5	232.35	1.4934e-05	6.3489e-06	292.54	82.347	64.279	18.792	1.1584e-05	25.601	0.0012369	0.0012383	0.00034623	1275	1.3559e-05	1.3521e-05	1317.4	274.34	1.3496e-05	1.3452e-05	376.7	107.6	84.619	26.395	1.3616e-05	35.968	315.352	171.286	172.664	103.529	407.438	119.137	103.708	110.991	346.164	261.747	110.782	118.098	118.235	124.743	109.075	124.563	-8191	255	
2109.139	1	1	0	0	0.076929	0.17269	0.23959	0.29104	0.21116	0.17239	0.41085	0.48541	0.13318	0.26603	0.22306	0.22335	0.057053	0.22099	0.19468	0.12546	-1.85	-2.8917	-2.6229	-2.3896	-2.9042	-2.2729	-2.4083	-2.9646	-2.0479	-2.7167	-2.5896	-2.2917	-2.9479	-2.2833	-2.3146	-3.0125	305.626	357.686	179.423	425.993	145.142	98.300	412.998	393.708	101.565	392.717	97.318	116.224	185.575	393.278	215.243	309.460	0.00029583	0.00017261	5.9266e-05	1162.7	1.0862e-05	1.3522e-05	1222.8	232.38	4.9222e-06	9.4165e-06	291.66	82.151	63.992	18.701	1.7809e-06	26.063	0.0012282	0.0012383	0.00034421	1273.9	1.3559e-05	1.3604e-05	1319.2	274.65	1.3593e-05	1.364e-05	377.65	107.88	84.643	26.442	1.3608e-05	36.176	322.754	282.707	293.283	103.229	231.113	144.531	103.644	110.589	234.018	101.498	111.022	118.029	117.425	124.515	189.743	123.720	-8191	255	
2109.235	1	1	0	0	0.30534	0.11643	0.26842	0.39621	0.12535	0.1325	0.055261	0.11157	0.25139	0.035006	0.13124	0.023116	0.048858	0.22428	0.096598	0.15934	-1.6583	-2.6458	-2.6188	-2.2938	-2.6396	-2.3646	-2.3542	-2.9896	-2.0604	-2.7021	-2.8812	-2.2146	-2.8604	-2.4229	-2.2854	-2.8896	326.956	122.083	401.850	391.882	400.282	451.989	125.029	391.591	153.558	240.645	397.011	128.327	111.526	425.685	185.377	346.755	0.00081436	0.00051182	0.00032579	1160.9	9.7773e-06	3.5389e-06	1220.2	232.09	8.0601e-06	4.3376e-06	289.64	82.901	64.22	18.744	2.881e-06	25.721	0.0012334	0.0012468	0.0003458	1275.2	1.3637e-05	1.3595e-05	1317	274.43	1.3627e-05	1.3647e-05	377.16	107.8	84.806	26.42	1.3638e-05	36.113	351.307	199.938	228.898	103.261	172.316	377.877	103.632	110.912	360.584	152.084	110.110	117.171	117.806	124.786	169.204	123.874	-8191	255	
2109.356	1	1	0	0	0.41262	0.17033	0.070349	0.15679	0.082234	0.1735	0.32505	0.13638	0.13469	0.11387	0.34297	0.20447	0.17313	0.29595	0.19727	0.41132	-1.7042	-2.525	-2.5979	-2.2562	-2.9396	-2.2771	-2.4479	-3.1396	-2.2271	-2.4958	-2.8563	-2.0792	-2.7	-2.5229	-2.3771	-2.9521	449.280	180.468	136.266	420.335	103.068	364.220	421.222	356.023	211.966	326.420	438.378	274.332	415.860	115.220	224.002	305.078	0.00036895	0.0013493	0.00017761	1153.9	6.9484e-06	3.4324e-06	1222.9	232.09	7.3943e-06	7.1486e-07	291.77	82.128	63.799	18.649	1.6335e-05	25.874	0.0012387	0.0012472	0.0003462	1272	1.3699e-05	1.3674e-05	1316.4	274.39	1.3687e-05	1.3634e-05	378.19	107.97	84.817	26.5	1.3781e-05	36.29	353.292	182.918	140.958	103.096	323.421	204.023	103.496	111.140	284.457	246.113	110.912	117.736	117.340	124.392	219.533	123.920	-8191	255	
2109.428	1	1	0	0	0.2962	0.19285	0.43583	0.19251	0.096265	0.082036	0.23042	0.070089	0.37543	0.027784	0.09931	0.044354	0.16737	0.12086	0.36481	0.089988	-1.7687	-2.6104	-2.85	-2.2771	-2.7979	-2.5729	-2.1937	-2.9896	-2.1104	-2.5271	-2.8146	-2.0458	-2.8167	-2.7417	-2.0479	-3.0125	451.901	180.261	115.787	440.598	393.371	182.478	448.284	437.573	311.358	94.499	407.413	104.384	394.912	95.548	348.806	142.621	0.0010369	0.0013186	0.00010017	1156.8	8.7641e-06	7.3279e-06	1222.8	233.26	3.0341e-06	4.4053e-06	290.19	81.685	63.883	18.839	9.6838e-06	25.697	0.0012511	0.001253	0.00035139	1274.4	1.3709e-05	1.3805e-05	1320.3	275.18	1.3759e-05	1.3761e-05	378.75	107.9	85.069	26.515	1.3784e-05	36.187	371.824	127.671	280.032	102.873	239.826	253.021	103.639	110.566	138.783	241.809	110.813	117.726	117.468	124.596	205.737	123.518	-8191	255	
2109.524	1	1	0	0	0.11996	0.23506	0.22644	0.27195	0.31973	0.22951	0.36788	0.17408	0.010121	0.16981	0.31349	0.20025	0.30084	0.047161	0.17502	0.087951	-1.9729	-2.3354	-2.8854	-2.2521	-2.4646	-2.6312	-2.2854	-2.8083	-2.3229	-2.2833	-2.9479	-2.2292	-2.6875	-2.7958	-2.1854	-2.9583	433.594	359.034	224.207	295.334	247.895	361.244	387.253	103.654	108.808	167.773	433.905	360.199	356.762	247.887	308.527	357.833	0.0014128	0.0012059	0.00015267	1158	6.8205e-06	1.1267e-05	1221.5	231.51	5.5232e-06	5.3274e-06	292.81	81.441	64.988	18.797	6.9363e-06	25.973	0.0012462	0.0012597	0.00035077	1275.9	1.3759e-05	1.3775e-05	1320.1	275.38	1.3736e-05	1.3726e-05	378.04	107.9	85.093	26.552	1.3674e-05	36.187	320.454	139.000	394.083	103.179	191.894	110.836	103.664	111.068	188.971	257.760	110.943	117.583	117.536	124.751	247.382	124.106	-8191	255	
2109.645	1	1	0	0	0.30887	0.18991	0.32817	0.3255	0.2063	0.1601	0.50301	0.19959	0.18393	0.1201	0.026252	0.22539	0.1108	0.30885	0.26975	0.12953	-2.0417	-2.0542	-2.6417	-2.2417	-2.4542	-2.6667	-2.1708	-2.8312	-2.4146	-2.0125	-2.9729	-2.2125	-2.5229	-2.9479	-2.0479	-2.7146	104.094	163.306	433.752	394.929	363.069	355.528	410.063	202.126	338.780	200.718	297.548	111.148	357.547	434.085	397.359	384.623	0.00089064	0.00045637	4.285e-05	1163.4	1.4622e-05	6.0928e-06	1229	231.39	3.1023e-06	1.3107e-06	293.6	82.353	64.833	18.855	1.7695e-05	25.772	0.0012385	0.0012491	0.00034713	1275.1	1.3568e-05	1.361e-05	1318.8	273.93	1.3625e-05	1.3635e-05	378.94	107.95	85.013	26.551	1.3729e-05	36.105	352.362	251.020	212.563	103.328	263.952	257.326	103.718	111.072	120.779	287.443	110.443	117.641	118.020	124.781	328.465	123.683	-8191	255	
2109.741	1	1	0	0	0.18824	0.08308	0.12847	0.2273	0.034679	0.1419	0.079628	0.17484	0.37303	0.02585	0.272	0.22748	0.081221	0.11055	0.084603	0.20804	-2.1188	-2.1	-2.9667	-2.4562	-2.4958	-2.95	-2.4625	-2.6958	-2.5687	-2.1813	-2.9354	-2.4354	-2.3854	-3.0396	-2.1813	-2.5896	433.982	195.110	248.788	165.276	202.337	139.941	250.270	168.746	352.788	329.348	101.102	448.168	351.259	166.990	150.123	407.436	0.0013464	0.00042577	0.00017992	1159.9	2.1782e-06	1.8214e-05	1226.1	231.38	1.0695e-05	7.3464e-06	291.84	81.903	63.491	18.645	5.9291e-06	26.018	0.0012438	0.0012427	0.00034687	1274.2	1.3506e-05	1.3566e-05	1316.4	273.51	1.3415e-05	1.3424e-05	375.97	106.88	83.941	26.251	1.3303e-05	35.752	339.079	388.910	123.636	103.311	116.164	229.522	103.491	111.171	281.382	292.478	111.010	117.788	117.670	125.129	110.626	124.396	-8191	255	
2109.837	1	1	0	0	0.10791	0.033661	0.13078	0.23818	0.02465	0.16222	0.30468	0.12417	0.21023	0.18491	0.16115	0.16237	0.25707	0.054583	0.17048	0.24172	-2.2375	-2.0438	-2.6979	-2.4396	-2.2188	-2.9375	-2.3708	-2.5229	-2.8479	-2.0958	-3.0167	-2.3917	-2.2104	-2.925	-2.2292	-2.5521	184.594	426.132	329.145	94.675	326.240	143.653	385.988	336.460	167.278	263.798	108.363	333.921	323.724	227.358	133.836	382.340	0.00059184	0.00075246	0.00025384	1156.5	1.0186e-05	1.0613e-05	1221.4	232.23	4.8305e-06	9.233e-06	292.94	81.554	64.545	18.757	6.2105e-06	25.734	0.0012037	0.0012087	0.00033614	1264.6	1.3186e-05	1.3228e-05	1310.9	272.09	1.3233e-05	1.3293e-05	374.9	106.37	83.945	26.272	1.3421e-05	35.847	328.221	243.837	404.806	103.421	204.609	267.179	103.666	111.196	357.547	343.935	111.226	117.268	117.925	124.922	347.171	124.051	-8191	255	
2109.956	1	1	0	0	0.12014	0.20511	0.22132	0.22497	0.10551	0.11201	0.11616	0.21111	0.081323	0.18751	0.34723	0.18031	0.26465	0.11566	0.32925	0.20146	-2.5958	-1.9167	-2.6292	-2.6354	-2.3646	-2.7625	-2.3146	-2.4229	-2.8042	-2.2542	-2.8792	-2.5229	-2.2521	-3.0583	-2.3083	-2.4875	446.575	177.100	257.150	436.851	196.124	396.274	170.460	284.400	324.901	376.800	98.721	99.735	394.634	317.224	162.380	421.603	0.00088501	0.00092262	0.00028255	1152.3	8.2297e-06	5.1081e-06	1216	230.85	1.4544e-05	6.4963e-06	290.5	81.122	63.746	18.872	1.6759e-05	25.98	0.001227	0.0012315	0.00034422	1267.3	1.3517e-05	1.3589e-05	1311.3	274.13	1.368e-05	1.3794e-05	377.89	107.71	84.903	26.644	1.3921e-05	36.359	303.022	115.801	128.532	103.170	279.725	424.927	103.667	111.224	239.386	138.223	111.009	117.433	117.899	124.933	205.875	123.766	-8191	255	
2110.027	1	1	0	0	0.20527	0.071976	0.27216	0.20096	0.17151	0.1823	0.18386	0.25261	0.13536	0.081545	0.12552	0.15994	0.22445	0.30892	0.16191	0.18098	-2.5104	-2.1188	-2.7208	-2.8125	-2.125	-2.9437	-2.5667	-2.3208	-2.8229	-2.1875	-2.5083	-2.6625	-2.125	-2.7625	-2.5333	-2.1792	115.666	151.026	405.705	401.118	99.622	245.315	331.270	348.147	116.638	402.093	327.301	121.976	297.703	347.362	288.708	345.765	0.0009378	0.0013452	0.00012177	1157.1	1.2791e-05	6.3097e-06	1218.5	232.95	1.3224e-05	2.1832e-06	290.17	82.11	63.99	18.825	5.8633e-06	25.426	0.0012675	0.001272	0.00035584	1275.1	1.395e-05	1.3998e-05	1316.8	276.03	1.3914e-05	1.3947e-05	380.04	108.2	84.797	26.541	1.3885e-05	36.127	332.956	414.642	222.539	103.251	248.836	413.692	103.670	110.975	299.837	317.123	111.286	117.599	117.841	124.553	200.853	124.399	-8191	255	
2110.124	1	1	0	0	0.073893	0.11548	0.1534	0.091107	0.29673	0.32469	0.34962	0.086083	0.16672	0.039645	0.22862	0.033996	0.085352	0.10522	0.097577	0.2848	-2.5	-2.0729	-2.6229	-2.875	-1.9917	-2.6417	-2.5604	-2.0917	-2.6396	-2.1771	-2.5417	-2.8333	-2.0417	-2.6458	-2.4229	-2.1083	100.910	105.408	390.248	279.789	292.026	426.715	368.101	285.457	195.936	202.855	360.516	447.621	443.287	152.073	166.450	447.983	0.0016138	0.00029581	3.3266e-05	1158.5	8.0777e-06	3.8627e-06	1213.2	232.5	9.8832e-06	1.0834e-06	291.25	81.957	64.208	18.608	7.85e-06	25.899	0.0012509	0.0012596	0.00035127	1272.2	1.3749e-05	1.3818e-05	1315.1	274.68	1.3683e-05	1.3748e-05	379.29	107.88	84.606	26.468	1.3813e-05	36.061	347.592	450.296	366.137	103.014	349.912	446.600	103.361	111.046	195.428	177.527	111.391	117.684	118.312	124.885	125.350	123.973	-8191	255	
2110.220	1	1	0	0	0.28012	0.10531	0.051323	0.39196	0.11277	0.084374	0.15297	0.24745	0.14153	0.098936	0.19775	0.1997	0.09081	0.18348	0.078197	0.21998	-2.5062	-2.3021	-2.4	-2.8563	-1.9625	-2.8625	-2.6917	-2.2125	-2.8	-2.3917	-2.2896	-2.9521	-2.0708	-2.6042	-2.7687	-2.3208	229.604	129.924	290.524	366.239	365.579	175.227	395.650	345.011	345.995	163.989	191.908	437.101	372.258	351.029	357.087	268.417	0.0011088	0.0010695	0.00015974	1153.5	1.5187e-05	1.1406e-05	1213.2	232.86	1.0145e-05	3.8615e-06	293.27	81.015	64.326	18.864	4.7094e-06	25.888	0.0012448	0.0012561	0.00035015	1271.4	1.3763e-05	1.3869e-05	1316.7	275.91	1.3914e-05	1.3989e-05	381.69	108.45	85.286	26.78	1.4173e-05	36.476	361.616	309.004	213.771	103.417	300.685	131.719	103.512	110.836	165.091	337.033	110.966	118.189	117.287	125.016	442.557	123.977	-8191	255	
2110.340	1	1	0	0	0.25198	0.11921	0.12939	0.057163	0.14199	0.22452	0.26276	0.089778	0.12747	0.084441	0.26031	0.14829	0.24126	0.21182	0.13573	0.21992	-2.5062	-2.4792	-2.2687	-3.0042	-1.9979	-2.7896	-3.0396	-2.0958	-2.7208	-2.5521	-2.1521	-2.8792	-2.0708	-2.6646	-2.8187	-2.0729	126.947	190.540	322.278	117.891	137.849	349.149	394.018	450.093	192.868	423.472	440.845	447.031	119.572	242.132	415.505	362.141	0.00039093	0.0006443	0.00014986	1146.5	6.5656e-06	1.973e-06	1214.5	232.51	6.8146e-06	1.7989e-06	290.65	81.288	64.466	18.849	1.1707e-05	25.618	0.0012869	0.0012918	0.00036141	1278	1.4201e-05	1.4221e-05	1321.9	276.95	1.4198e-05	1.4237e-05	382.4	108.86	85.822	26.807	1.4154e-05	36.4	368.281	314.201	259.827	103.518	186.816	382.232	103.793	111.354	432.490	353.837	110.491	117.576	118.114	124.551	393.068	124.672	-8191	255	
2110.436	1	1	0	0	0.1246	0.12291	0.094452	0.34799	0.20642	0.069822	0.23047	0.13809	0.16091	0.080704	0.14144	0.225	0.038269	0.26475	0.14592	0.16332	-2.3375	-2.4562	-2.2083	-2.8708	-2.1667	-2.575	-3.1521	-2.0521	-2.6937	-2.6	-2.0229	-2.975	-2.3979	-2.3729	-2.8167	-2.1333	119.817	237.832	318.801	424.960	143.684	95.289	405.770	379.836	187.671	393.843	282.135	449.566	179.429	435.673	192.783	116.396	0.00073631	0.0011207	0.00030565	1154.6	1.2665e-05	3.4515e-06	1217.3	231.48	1.8414e-05	5.3634e-06	291.38	81.539	64.57	18.835	4.2502e-06	25.824	0.0012792	0.0012843	0.00035945	1276.2	1.4067e-05	1.4096e-05	1322.4	276.5	1.4149e-05	1.4113e-05	382.1	108.76	85.389	26.785	1.4149e-05	36.441	354.331	166.603	101.107	103.440	387.454	269.857	103.836	111.077	245.617	266.545	111.382	117.791	118.223	125.085	286.650	124.509	-8191	255	
2110.533	1	1	0	0	0.30938	0.087163	0.0912	0.3397	0.073196	0.11756	0.026482	0.09937	0.092582	0.072084	0.1552	0.16297	0.24973	0.11209	0.14105	0.070855	-2.3854	-2.5271	-2.1604	-2.9979	-2.2333	-2.4646	-3.0667	-2.2958	-2.8292	-2.6229	-2.0646	-2.8833	-2.3875	-2.2271	-2.8458	-2.0646	204.255	156.739	254.833	421.859	211.457	99.936	333.159	278.475	202.826	139.431	377.421	300.530	452.007	207.814	352.469	273.802	0.0007123	0.0003752	0.00024165	1152.4	2.1796e-06	7.5485e-06	1219.5	233.21	1.6177e-05	8.5078e-06	288	81.746	64.356	18.755	9.5284e-06	25.915	0.0012796	0.0012907	0.00036051	1279.6	1.4071e-05	1.4102e-05	1322.4	276.34	1.404e-05	1.4021e-05	379.69	108.57	85.227	26.622	1.4037e-05	36.367	358.239	221.972	389.651	103.627	243.549	246.762	103.910	111.122	439.313	210.193	111.426	118.177	117.575	125.068	144.463	124.616	-8191	255	
2110.629	1	1	0	0	0.22331	0.33683	0.21126	0.24684	0.15726	0.095169	0.16862	0.038881	0.27734	0.1329	0.12227	0.32391	0.13947	0.22764	0.20301	0.25184	-2.1813	-2.7875	-2.0438	-2.9229	-2.4229	-2.2833	-3.1021	-2.3042	-2.4833	-2.9646	-2.1958	-3.1104	-2.6625	-2.2438	-2.9979	-2.1979	447.482	237.967	435.686	404.513	122.466	125.129	389.622	408.754	377.796	353.684	290.399	121.397	119.685	149.255	252.778	207.718	0.00038286	0.00038233	0.00011926	1150.8	1.231e-05	3.9871e-06	1213.5	231.95	7.8793e-06	5.6106e-06	290.28	82.087	63.424	18.687	3.4011e-06	25.806	0.001265	0.001268	0.00035447	1272.9	1.3862e-05	1.3888e-05	1316	275.3	1.3984e-05	1.3977e-05	381.07	108.7	85.096	26.685	1.4133e-05	36.392	372.332	359.504	156.133	103.589	222.464	281.522	104.158	111.360	123.761	120.089	111.115	118.286	117.876	125.289	212.639	124.947	-8191	255	
2110.725	1	1	0	0	0.16455	0.17558	0.18961	0.16138	0.051268	0.187	0.40721	0.27582	0.14001	0.054467	0.2561	0.23812	0.052853	0.1011	0.047539	0.093763	-2.1667	-2.8021	-2.1312	-2.9646	-2.5833	-2.1646	-3.0896	-2.2438	-2.2625	-2.8333	-2.0917	-2.7104	-2.7875	-2.1875	-2.975	-2.45	417.886	112.802	214.131	433.749	314.090	164.879	382.967	312.488	144.217	276.814	345.150	128.865	389.574	430.138	167.353	426.853	0.0013095	0.00052348	0.00037647	1155.3	8.5537e-06	5.7e-06	1214	233.33	8.5382e-06	7.3591e-06	290.64	81.588	63.941	18.645	3.8801e-06	25.76	0.0012818	0.0012884	0.00035898	1276.5	1.4081e-05	1.4103e-05	1320	276.19	1.412e-05	1.4127e-05	380.81	108.46	85.128	26.597	1.3993e-05	36.232	352.629	156.654	300.528	103.798	242.924	187.979	103.976	111.545	415.766	449.712	110.909	118.319	117.968	125.413	317.940	124.654	-8191	255	
2110.821	1	1	0	0	0.16878	0.22315	0.1491	0.47782	0.03818	0.24429	0.18995	0.20336	0.047902	0.10556	0.19142	0.26238	0.1218	0.22641	0.11175	0.34713	-1.9104	-2.7854	-2.1562	-2.8125	-2.6604	-2.2	-3.025	-2.4875	-2.3479	-3.0375	-2.2042	-2.7146	-2.9146	-2.2417	-2.7396	-2.4813	261.272	110.509	199.805	97.748	208.544	392.280	363.130	357.644	296.123	227.104	318.566	226.368	272.498	361.212	113.850	100.534	0.00069361	5.1375e-05	0.00023461	1154.1	6.4163e-06	6.8457e-06	1216.5	233.12	3.1563e-06	4.9123e-06	291.73	81.662	63.836	18.733	9.9453e-06	25.787	0.0012583	0.0012672	0.00035246	1272.2	1.3753e-05	1.3839e-05	1313.6	274.88	1.3743e-05	1.3753e-05	378.25	107.78	84.579	26.513	1.3813e-05	36.156	348.493	208.008	345.171	103.925	301.482	307.482	104.092	111.213	306.647	202.531	111.277	118.319	118.145	124.865	250.119	124.588	-8191	255	
2110.917	1	1	0	0	0.26565	0.28761	0.19729	0.22897	0.22031	0.21722	0.089341	0.31322	0.16555	0.10108	0.32389	0.051676	0.19604	0.050414	0.14014	0.13451	-2.0104	-2.9417	-2.2292	-2.5854	-2.6813	-2.1542	-3.0583	-2.5479	-2.2083	-2.9146	-2.1562	-2.6021	-2.8563	-2.0792	-2.6042	-2.6208	435.335	154.295	167.742	450.415	395.146	447.485	409.553	420.308	430.790	284.261	205.256	139.360	373.192	222.010	98.029	233.614	0.00111	0.00034974	0.00034458	1151.9	6.4302e-06	7.4306e-06	1220.8	231.47	4.7715e-06	6.9533e-06	288.03	81.358	63.69	18.552	9.7176e-06	25.94	0.001257	0.0012576	0.00035256	1271.4	1.3766e-05	1.3983e-05	1317.4	275.59	1.3909e-05	1.4048e-05	380.38	108.32	85.261	26.665	1.4128e-05	36.483	375.036	271.727	386.006	103.696	410.444	378.546	103.967	111.325	196.544	282.560	111.040	118.489	118.247	125.220	153.014	123.943	-8191	255	
2111.036	1	1	0	0	0.20334	0.049259	0.23145	0.090024	0.13017	0.037893	0.40744	0.10945	0.018431	0.20822	0.18429	0.21674	0.17039	0.21286	0.29543	0.10263	-1.7271	-2.9958	-2.2396	-2.4313	-2.9	-2.1375	-2.8208	-2.8208	-2.1292	-3.1188	-2.3271	-2.3729	-2.7708	-2.3146	-2.6063	-2.6333	353.604	184.564	102.427	354.655	428.540	237.456	418.669	363.384	374.323	185.183	415.868	410.783	374.662	337.487	420.236	254.679	0.0011189	0.00091547	0.00021096	1161.6	1.3566e-05	6.6178e-06	1223.2	232.68	7.4446e-06	5.4448e-06	291.05	81.105	63.834	18.48	1.7219e-05	25.933	0.0012718	0.0012843	0.00035905	1277.3	1.4116e-05	1.413e-05	1319.6	275.98	1.4125e-05	1.4126e-05	381.88	108.71	85.495	26.724	1.4207e-05	36.556	323.175	442.142	257.488	103.413	393.515	289.460	103.530	111.065	173.384	378.861	111.126	118.264	117.865	125.003	214.075	124.269	-8191	255	
2111.132	1	1	0	0	0.19257	0.21869	0.15842	0.38662	0.20576	0.22358	0.18455	0.15351	0.20737	0.21414	0.20951	0.14717	0.15321	0.30252	0.12905	0.21104	-1.6771	-2.8083	-2.3271	-2.4375	-2.9021	-2.1688	-2.8146	-2.7896	-2.0292	-2.7083	-2.4562	-2.1875	-3.0083	-2.1896	-2.4354	-2.8	125.472	371.154	404.769	97.964	221.286	409.503	434.107	431.493	115.689	117.767	406.345	228.823	125.648	409.127	147.781	402.989	0.0014214	0.00093645	0.00040519	1153.3	5.2214e-06	6.0729e-06	1220.1	230.83	7.2679e-06	1.1013e-05	291.83	81.279	64.173	18.937	7.0442e-06	25.904	0.0012784	0.0012897	0.00035758	1277.6	1.4053e-05	1.4013e-05	1319.8	275.78	1.4056e-05	1.4054e-05	380.88	108.48	85.295	26.774	1.4211e-05	36.539	329.057	400.082	415.028	103.367	280.319	196.710	103.736	111.092	180.408	224.566	111.077	117.585	118.136	124.897	104.231	123.829	-8191	255	
2111.228	1	1	0	0	0.11188	0.21344	0.31853	0.2062	0.17026	0.03827	0.19432	0.29973	0.32444	0.18443	0.19622	0.14464	0.19714	0.086607	0.19032	0.11482	-1.6104	-2.5292	-2.5604	-2.2521	-2.8729	-2.1125	-2.6979	-2.9854	-2.1042	-2.7146	-2.5896	-2.2	-2.8833	-2.2417	-2.3875	-2.7458	152.913	181.143	257.242	114.734	321.947	294.892	381.445	440.667	145.654	368.860	381.866	97.740	441.949	200.146	148.219	127.191	0.0012505	0.00023334	0.00020088	1157.1	6.0298e-06	1.0539e-05	1221.7	233.34	4.9319e-06	6.3834e-06	291.94	81.773	64.224	18.845	9.1385e-06	25.792	0.0012825	0.0012943	0.00036244	1277.4	1.4086e-05	1.4256e-05	1324.4	276.9	1.4211e-05	1.4222e-05	382.87	108.97	85.614	26.79	1.4232e-05	36.543	321.721	269.061	188.120	103.643	352.199	107.759	103.559	111.121	215.708	340.792	110.306	117.946	117.709	124.613	443.595	123.775	-8191	255	
2111.325	1	1	0	0	0.27748	0.18506	0.03982	0.035374	0.1416	0.086837	0.23527	0.053359	0.19146	0.018852	0.21744	0.15405	0.16436	0.17033	0.16895	0.27858	-1.7292	-2.5958	-2.6354	-2.3833	-2.7729	-2.3042	-2.4479	-2.8146	-2.2687	-2.6104	-2.6562	-2.2062	-2.9583	-2.4188	-2.425	-2.9958	111.243	370.039	377.676	95.192	409.722	128.921	417.529	382.817	439.708	277.227	404.019	129.729	388.170	140.788	287.541	102.881	0.00075697	0.00074683	0.00016613	1155	4.8188e-06	7.0066e-06	1224.1	232.74	4.2712e-06	6.7144e-06	291.55	82.237	64.114	18.764	1.1992e-05	26.13	0.0012922	0.0013038	0.00036282	1280.5	1.4259e-05	1.4259e-05	1324.1	277.9	1.4336e-05	1.4327e-05	383.4	109.4	85.866	26.97	1.4376e-05	36.765	334.082	266.898	339.878	103.768	316.593	212.416	103.789	111.442	96.293	316.753	111.037	117.861	117.651	124.366	416.464	124.412	-8191	255	
2111.421	1	1	0	0	0.138	0.12428	0.16583	0.23947	0.070048	0.058112	0.10519	0.16676	0.17208	0.010703	0.13132	0.11431	0.15823	0.22842	0.099945	0.038177	-1.7375	-2.6542	-2.5687	-2.3583	-2.8979	-2.2917	-2.4125	-3.0812	-2.2229	-2.6771	-2.9437	-2.1104	-2.8208	-2.4854	-2.2583	-2.9813	239.741	426.496	305.049	93.788	257.135	356.858	422.629	416.259	279.768	210.397	111.644	149.917	327.143	110.102	440.833	169.753	0.0015261	0.00081578	0.00020541	1161.1	7.6672e-06	3.8986e-06	1224.6	232.85	6.0429e-06	6.9218e-06	290.93	82.575	64.576	18.693	1.3388e-05	25.979	0.0013023	0.001313	0.00036593	1282.3	1.4296e-05	1.4293e-05	1325.2	277.84	1.4302e-05	1.4316e-05	384.01	109.51	86.073	26.857	1.4334e-05	36.634	339.961	120.939	181.148	103.463	442.853	295.271	103.694	110.985	363.083	415.132	110.809	118.187	117.919	125.107	240.537	123.976	-8191	255	
2111.517	1	1	0	0	0.1253	0.20587	0.046371	0.18566	0.12162	0.058493	0.31161	0.25316	0.14164	0.20002	0.22996	0.33057	0.20786	0.062344	0.12984	0.15175	-1.8021	-2.5333	-2.8104	-2.2042	-2.7875	-2.6979	-2.1646	-2.9917	-2.3479	-2.3937	-3.0354	-2.1229	-2.7208	-2.675	-1.9604	-2.9042	173.533	400.261	119.753	103.521	103.229	330.711	396.024	160.353	236.431	389.484	333.269	351.587	185.538	104.383	270.227	287.319	0.0013182	0.00063745	0.00035333	1158	3.0292e-06	1.1275e-05	1221.4	233.19	5.8436e-06	3.9952e-06	292.7	81.742	63.898	18.896	1.0542e-05	25.845	0.0012997	0.0013056	0.00036536	1282.4	1.4313e-05	1.4337e-05	1324.6	277.75	1.4356e-05	1.4339e-05	384.39	109.48	86.03	26.987	1.4485e-05	36.809	345.107	198.757	193.116	103.511	236.059	348.234	103.819	110.848	198.803	310.666	110.665	117.600	118.098	125.152	254.469	124.343	-8191	255	
2111.637	1	1	0	0	0.060759	0.30481	0.12543	0.31559	0.13872	0.046719	0.29933	0.094452	0.16931	0.026017	0.14442	0.063702	0.1515	0.21641	0.19138	0.10412	-2.1	-2.2938	-2.9771	-2.3458	-2.5917	-2.7292	-2.1146	-2.8042	-2.3417	-2.1583	-2.9292	-2.0479	-2.7271	-2.75	-2.1542	-2.9271	98.283	396.064	424.448	443.993	181.023	367.598	416.771	446.656	298.200	300.588	312.747	432.068	414.057	321.011	209.477	357.938	0.0012772	0.00043222	0.00028488	1154.1	6.2649e-06	7.6827e-06	1220.2	232.58	1.0369e-05	4.2231e-06	291.07	82.195	64.324	18.68	6.2301e-06	25.88	0.0013056	0.001321	0.00036756	1285.2	1.4429e-05	1.4442e-05	1325.8	277.8	1.4361e-05	1.4383e-05	384.1	109.39	86.051	26.926	1.4304e-05	36.751	361.157	167.283	251.532	103.116	210.508	249.661	103.860	110.955	346.798	406.364	110.572	117.068	117.835	124.991	259.343	124.932	-8191	255	
2111.734	1	1	0	0	0.23149	0.093239	0.24508	0.20434	0.1762	0.059754	0.25565	0.1713	0.11074	0.18072	0.060917	0.13441	0.13094	0.064367	0.12968	0.18136	-2.0396	-2.3667	-2.8917	-2.225	-2.4688	-2.4958	-2.1937	-2.8833	-2.5125	-2.1646	-2.925	-2.375	-2.4792	-2.8792	-1.9979	-2.5563	416.963	260.962	203.332	446.565	239.515	384.370	438.309	245.636	369.630	409.416	332.326	161.370	227.614	251.174	397.711	325.326	0.0013438	0.00054201	0.0002001	1153.6	8.1182e-06	4.5229e-06	1214.6	231.58	3.7941e-06	9.8042e-06	293.34	81.877	64.649	18.647	5.3108e-06	25.928	0.0012983	0.0013089	0.00036396	1280	1.426e-05	1.425e-05	1324.2	277.08	1.4205e-05	1.4266e-05	383.81	108.97	85.782	26.869	1.425e-05	36.659	341.527	224.155	113.270	103.462	253.563	150.160	103.915	110.838	153.663	349.327	110.196	117.214	117.629	124.328	300.661	124.012	-8191	255	
2111.830	1	1	0	0	0.15256	0.087371	0.15128	0.070031	0.038828	0.2183	0.34339	0.14004	0.080545	0.30114	0.098905	0.34247	0.30928	0.077045	0.1436	0.099787	-2.0625	-1.9292	-2.85	-2.45	-2.35	-2.7667	-2.0875	-2.6417	-2.6708	-2.1167	-3.1083	-2.3125	-2.2125	-2.7938	-2.0125	-2.825	429.371	243.743	123.771	429.069	143.232	230.139	419.737	395.508	135.356	273.122	124.942	380.068	98.559	238.864	144.603	343.038	0.00075873	0.00053745	0.00022361	1159.1	7.6278e-06	5.9804e-06	1219.7	232.79	5.4487e-06	7.6292e-06	289.63	80.869	64.328	18.722	1.4685e-05	25.915	0.0012907	0.0013049	0.00036217	1281.9	1.4216e-05	1.4305e-05	1323.2	277.31	1.4183e-05	1.4198e-05	382.6	108.77	85.537	26.872	1.4125e-05	36.556	369.843	387.469	125.015	103.355	118.797	189.964	103.100	111.077	99.527	339.688	110.561	116.981	117.301	124.818	234.163	124.239	-8191	255	
2111.901	1	1	0	0	0.090267	0.07917	0.095368	0.33032	0.16302	0.16157	0.57349	0.14319	0.2277	0.07393	0.24336	0.24554	0.083633	0.12333	0.060391	0.23204	-2.225	-2.0542	-2.8417	-2.3625	-2.3688	-2.925	-2.2333	-2.5729	-2.7875	-1.9833	-2.7958	-2.5667	-2.2	-2.8375	-1.9625	-2.45	286.095	302.286	156.612	419.599	103.258	247.456	422.312	235.940	259.343	450.491	104.845	329.659	144.967	339.852	279.489	362.098	0.00095197	0.0008098	0.00016197	1152	8.465e-06	8.793e-06	1221.2	232.9	8.7253e-06	1.027e-05	289.52	82.107	64.572	18.639	2.6561e-06	25.802	0.0012746	0.0012859	0.00035822	1274.4	1.4076e-05	1.4077e-05	1319.8	276.27	1.3972e-05	1.41e-05	381.8	108.75	85.349	26.655	1.3931e-05	36.451	365.948	407.467	447.869	103.225	177.429	387.376	102.995	110.890	141.740	220.891	110.650	117.774	117.815	124.860	193.139	123.286	-8191	255	
2112.020	1	1	0	0	0.24502	0.3752	0.06846	0.093981	0.073504	0.22295	0.24028	0.1051	0.095158	0.30173	0.033704	0.27935	0.11594	0.045769	0.063592	0.20445	-2.4542	-1.9	-2.7021	-2.5083	-2.35	-2.8917	-2.1083	-2.5271	-2.9458	-1.9354	-2.8208	-2.4667	-2.2542	-2.8771	-2.1083	-2.5042	99.948	279.186	435.366	424.551	182.692	419.078	427.731	314.940	439.231	293.907	348.048	431.253	239.449	206.031	194.747	150.133	0.00081788	0.00089984	0.00018294	1158.5	6.1318e-06	3.5202e-06	1214.7	232.6	1.8586e-05	1.5498e-06	290.85	81.478	63.94	18.846	1.115e-05	25.627	0.001267	0.0012743	0.00035508	1274	1.3952e-05	1.3984e-05	1316.3	275.39	1.4002e-05	1.3966e-05	380.21	108.3	84.985	26.62	1.3961e-05	36.261	344.775	163.207	204.957	103.499	177.475	271.535	103.333	111.299	278.798	316.881	111.045	117.671	118.015	124.680	175.920	124.566	-8191	255	
2112.116	1	1	0	0	0.10188	0.1439	0.23348	0.11223	0.23791	0.17836	0.29954	0.021982	0.036186	0.1909	0.21056	0.12028	0.17604	0.13196	0.17808	0.054778	-2.475	-1.8833	-2.6875	-2.8187	-2.1562	-2.9625	-2.375	-2.3479	-2.9875	-2.0458	-2.6271	-2.7583	-1.9875	-2.8438	-2.5146	-2.425	111.905	159.996	203.888	329.102	109.347	434.702	439.087	437.767	392.187	149.853	262.817	101.104	170.790	136.198	160.988	327.119	0.00014003	0.00046016	9.1758e-05	1154.1	8.0814e-06	6.747e-06	1216.9	232.56	4.6808e-06	5.5453e-06	293.17	82.112	64.042	18.651	3.1647e-06	25.945	0.0012609	0.001264	0.00035147	1272.2	1.3711e-05	1.3865e-05	1316.1	275.46	1.3805e-05	1.3857e-05	380.42	108.05	84.895	26.591	1.3909e-05	36.365	137.309	294.955	451.940	103.519	264.563	109.016	103.773	111.380	127.287	108.993	110.910	117.651	118.059	124.726	139.164	124.560	-8191	255	
2112.213	1	1	0	0	0.18267	0.32484	0.12346	0.10322	0.19292	0.090991	0.27665	0.12959	0.26546	0.27396	0.13029	0.11778	0.36982	0.15159	0.14264	0.11937	-2.5396	-2.2125	-2.5792	-2.8083	-1.9417	-2.8688	-2.5792	-2.3125	-2.8937	-2.2208	-2.7687	-2.9562	-2.1458	-2.8542	-2.5854	-2.2313	356.290	98.203	236.955	405.254	290.604	396.361	408.303	204.255	406.441	279.255	310.527	399.072	386.978	415.479	399.855	225.175	0.00096088	0.00078396	0.00010935	1155.7	1.0945e-05	9.3163e-06	1213.8	231.73	4.807e-06	1.5242e-06	294.06	81.91	64.099	18.752	1.0287e-05	25.652	0.0012623	0.0012701	0.00035533	1277.6	1.3917e-05	1.4024e-05	1317.1	275.75	1.3928e-05	1.3983e-05	381.85	108.34	85.057	26.699	1.3972e-05	36.454	369.288	141.013	333.517	103.485	194.710	156.297	103.433	111.262	291.196	220.782	111.144	117.898	118.212	125.311	105.795	124.546	-8191	255	
2112.309	1	1	0	0	0.13293	0.2198	0.33899	0.31066	0.12969	0.19766	0.12512	0.17048	0.11976	0.25517	0.12678	0.31152	0.24809	0.29063	0.10374	0.27262	-2.6562	-2.3229	-2.3979	-3.0625	-2.0438	-2.9521	-2.9188	-2.3729	-3.0021	-2.3354	-2.6479	-2.8688	-1.95	-2.7167	-2.6354	-2.0938	166.334	425.868	311.618	421.804	162.221	238.041	419.503	442.860	178.415	187.226	431.680	362.382	276.471	395.594	97.442	333.027	0.0010563	0.00014088	0.00026751	1152.4	1.3703e-05	9.2586e-06	1228.1	233.39	1.3655e-05	8.374e-06	294.16	81.858	64.167	18.791	9.352e-06	25.783	0.0012765	0.0012833	0.00035924	1278.4	1.4107e-05	1.4172e-05	1324.3	276.96	1.419e-05	1.4219e-05	384.38	108.99	85.744	26.857	1.424e-05	36.478	373.922	255.993	173.683	103.560	182.531	308.318	103.553	111.053	221.729	191.510	111.201	117.873	118.260	125.775	203.855	124.758	-8191	255	
2112.405	1	1	0	0	0.13002	0.16055	0.17973	0.25883	0.30025	0.16649	0.33548	0.065334	0.24572	0.20208	0.29528	0.06047	0.07558	0.17365	0.25265	0.184	-2.4104	-2.425	-2.4	-3.0708	-2.1042	-2.7854	-2.7521	-2.2354	-2.8688	-2.3958	-2.4646	-2.9333	-2.0583	-2.7313	-2.75	-1.9583	111.402	138.775	129.138	430.982	97.452	99.056	429.136	255.993	166.775	366.117	381.142	138.298	360.904	369.592	360.884	411.130	0.0010105	0.0011912	6.3826e-05	1150.5	9.224e-07	2.6567e-06	1217.8	231.5	4.4328e-06	8.874e-06	293.64	82.29	63.728	18.835	1.3874e-05	25.912	0.0012906	0.0012879	0.00035935	1276.5	1.4119e-05	1.4063e-05	1320.4	275.39	1.4065e-05	1.4049e-05	382.05	108.6	85.217	26.771	1.4151e-05	36.603	321.664	136.338	323.708	103.726	262.262	306.651	103.803	111.543	334.003	367.717	111.497	117.834	118.254	125.074	308.935	124.244	-8191	255	
2112.526	1	1	0	0	0.25729	0.24477	0.27888	0.18102	0.22047	0.2056	0.23465	0.44539	0.1133	0.22697	0.066309	0.10429	0.27427	0.059506	0.19295	0.005625	-2.2833	-2.3604	-2.1167	-2.9229	-2.0187	-2.4833	-2.8729	-2.0625	-2.7208	-2.4583	-2.2417	-2.7812	-2.2396	-2.5042	-2.6042	-2.1125	177.947	383.283	107.550	425.203	237.839	346.324	411.595	408.624	141.408	390.019	397.130	427.601	97.875	346.470	300.100	402.883	0.00069872	0.00022745	9.8061e-05	1155.8	1.8553e-06	1.8128e-06	1218.6	232.87	4.5634e-06	1.0211e-05	292.95	82.083	64.613	18.833	5.2712e-06	25.78	0.0012846	0.001294	0.00036133	1277.5	1.4194e-05	1.428e-05	1323.7	277.24	1.4226e-05	1.4251e-05	383.06	109.12	85.782	26.858	1.4271e-05	36.6	338.417	217.295	383.233	103.535	120.721	386.670	103.755	110.906	185.251	193.511	110.929	117.791	118.244	124.716	348.626	124.410	-8191	255	
2112.597	1	1	0	0	0.15279	0.049529	0.20544	0.11137	0.1059	0.30988	0.24932	0.31751	0.11561	0.038095	0.23112	0.026267	0.059217	0.05435	0.047234	0.23783	-2.3292	-2.5542	-2.0646	-3.0854	-2.2875	-2.4396	-2.9938	-1.9937	-2.6042	-2.5146	-2.2396	-2.7812	-2.3063	-2.4854	-2.7854	-2.2167	297.724	243.429	384.793	102.078	327.629	330.596	425.069	126.660	295.611	276.541	106.979	254.391	352.331	193.233	279.475	302.373	0.00092757	0.00019291	0.0001486	1156.2	8.5138e-06	6.1224e-06	1214.8	233.31	1.0709e-05	2.2812e-06	290.37	82.1	63.987	18.695	1.0407e-05	25.879	0.001299	0.001307	0.00036555	1281.6	1.4256e-05	1.4321e-05	1323	277.42	1.4344e-05	1.4393e-05	383.33	109.23	85.771	26.886	1.4359e-05	36.681	335.566	318.497	162.540	103.522	235.387	275.557	104.080	111.566	227.825	169.211	110.530	117.502	118.031	125.079	419.448	124.242	-8191	255	
2112.718	1	1	0	0	0.084343	0.19536	0.16468	0.069668	0.055745	0.2146	0.14907	0.26861	0.097376	0.042271	0.26624	0.14196	0.2357	0.10607	0.077045	0.24392	-2.1604	-2.4813	-2.125	-2.7521	-2.2562	-2.1312	-3.0417	-2.3292	-2.6875	-2.7729	-2.1771	-2.7854	-2.475	-2.05	-2.7167	-2.1479	158.501	369.035	434.152	394.634	155.141	294.312	417.818	411.032	217.470	446.174	452.674	340.079	447.709	135.577	228.980	194.662	0.00093457	0.001357	0.0002938	1152.1	9.0998e-06	8.5782e-06	1226.1	231.63	7.7448e-06	7.3659e-06	292.88	81.799	64.17	18.636	2.1079e-06	25.717	0.0013043	0.001311	0.00036495	1281.1	1.4283e-05	1.4318e-05	1324.3	276.7	1.4259e-05	1.4255e-05	383.51	109.1	85.565	26.789	1.4212e-05	36.6	343.398	223.402	360.992	103.285	160.102	117.898	103.523	110.960	420.578	261.452	111.140	117.528	117.774	125.012	149.606	123.982	-8191	255	
2112.814	1	1	0	0	0.16933	0.4277	0.11486	0.16723	0.30244	0.14639	0.23493	0.15396	0.15408	0.11171	0.25747	0.098882	0.041462	0.2485	0.13464	0.27926	-2.1125	-2.7292	-2.0187	-2.7896	-2.4021	-2.1208	-3.1521	-2.2417	-2.4458	-2.7687	-2.1063	-2.825	-2.5896	-2.1188	-2.7562	-2.2354	288.789	195.351	437.573	315.623	434.659	330.979	95.986	405.998	278.703	351.069	106.223	369.630	277.348	402.535	375.469	150.248	0.0008978	0.00067482	0.0002597	1151.1	2.5957e-06	1.4263e-05	1219.2	232.56	8.18e-06	4.7306e-06	293.04	81.085	64.15	18.696	5.6185e-06	25.872	0.001292	0.0013033	0.00036325	1281.2	1.4243e-05	1.436e-05	1324.4	277.67	1.4295e-05	1.4372e-05	384.75	109.26	85.881	26.904	1.4435e-05	36.713	344.280	237.950	162.258	103.520	247.354	209.715	103.830	111.055	311.125	410.542	111.136	117.838	117.858	125.081	442.314	124.246	-8191	255	
2112.910	1	1	0	0	0.23294	0.29986	0.067676	0.45978	0.146	0.3093	0.25568	0.1668	0.20065	0.25668	0.12326	0.11762	0.17688	0.33901	0.31837	0.25749	-1.9813	-2.8729	-2.1146	-2.6396	-2.7375	-2.1417	-2.8917	-2.1625	-2.2771	-2.9271	-2.2438	-2.5271	-2.9208	-2.0563	-2.8729	-2.5	333.190	221.332	308.993	411.201	196.741	391.615	395.116	450.425	389.546	307.099	159.188	278.013	181.718	381.085	178.522	452.827	0.0008725	0.00065887	0.00034718	1154	1.4149e-05	9.6312e-06	1220.9	231.7	5.5527e-06	7.7222e-06	292.71	81.997	64.292	18.662	1.7042e-05	25.959	0.0012977	0.001311	0.00036299	1280.1	1.4321e-05	1.4277e-05	1325.6	276.69	1.4268e-05	1.4275e-05	382.72	108.97	85.401	26.792	1.4236e-05	36.572	352.007	128.342	152.561	103.203	233.239	248.196	103.614	110.829	215.038	252.898	111.534	117.923	118.123	125.465	140.563	124.592	-8191	255	
2113.006	1	1	0	0	0.3481	0.12503	0.26219	0.19551	0.18182	0.12565	0.083008	0.1033	0.2742	0.2316	0.29858	0.22899	0.39439	0.030105	0.11107	0.24228	-1.8917	-2.8667	-2.1354	-2.7458	-2.8208	-2.0104	-3.1417	-2.5792	-2.3417	-2.7188	-2.2083	-2.4917	-2.8958	-2.2313	-2.725	-2.7354	304.238	264.580	326.456	365.787	367.968	233.756	321.541	345.348	211.115	193.684	364.068	372.328	449.535	272.974	386.526	245.471	0.0011063	0.0011405	5.3043e-05	1153.6	1.0855e-05	2.6333e-06	1221.5	233.14	3.2012e-06	1.2114e-05	292.88	81.788	63.938	18.739	5.8157e-06	25.771	0.0012829	0.001288	0.00036028	1279.1	1.4076e-05	1.4056e-05	1322.3	276.01	1.4007e-05	1.3932e-05	380.63	108.28	84.826	26.566	1.3911e-05	36.213	327.079	416.381	287.121	103.613	203.113	308.215	104.027	111.310	298.020	329.305	111.230	117.815	118.113	124.812	284.783	123.967	-8191	255	
2113.125	1	1	0	0	0.24032	0.25866	0.067021	0.20562	0.19977	0.26852	0.26784	0.27194	0.11039	0.10574	0.2925	0.045931	0.12557	0.28171	0.18934	0.14093	-1.6375	-2.8292	-2.2333	-2.6	-2.9542	-2.2917	-2.8729	-2.7333	-2.2167	-2.8646	-2.425	-2.3979	-2.8958	-2.0646	-2.6375	-2.6625	190.420	100.107	305.817	412.730	417.457	383.228	378.567	338.600	366.818	315.848	426.047	169.975	389.867	102.674	107.685	405.218	0.00099739	0.0003703	0.00024877	1161.3	9.8885e-06	7.1746e-06	1213.3	232	4.0916e-06	1.0104e-05	293.82	81.95	64.451	18.778	4.0115e-06	25.893	0.0012647	0.0012675	0.00035455	1277.1	1.3867e-05	1.4003e-05	1318.7	275.65	1.3979e-05	1.4051e-05	380.33	108.71	85.161	26.619	1.3921e-05	36.228	360.587	180.815	363.579	103.699	298.427	284.166	104.009	111.100	214.513	129.262	111.492	118.027	118.120	125.146	427.340	123.953	-8191	255	
2113.197	1	1	0	0	0.020759	0.15491	0.017864	0.32196	0.21315	0.3734	0.32923	0.30761	0.030758	0.023854	0.24464	0.18474	0.11546	0.071788	0.21935	0.27864	-1.8083	-2.8354	-2.2521	-2.4604	-2.8854	-2.2021	-2.8312	-2.7812	-2.1604	-2.8917	-2.3063	-2.2792	-2.7833	-2.0771	-2.4521	-2.7229	359.093	384.806	132.866	405.403	199.158	181.323	298.898	407.328	251.823	225.952	418.519	408.542	305.016	356.538	240.924	437.871	0.0013326	0.00058127	0.00021723	1156.7	6.8142e-06	4.0375e-06	1218.5	232.77	1.7316e-05	1.355e-05	291.36	81.745	63.772	18.709	7.5047e-06	25.944	0.0012563	0.0012625	0.0003524	1274.9	1.3784e-05	1.3806e-05	1316.5	275.13	1.3847e-05	1.3854e-05	380.07	108.03	85.133	26.568	1.4015e-05	36.353	334.520	204.366	286.765	103.364	212.802	105.537	103.583	111.019	180.073	284.853	111.163	118.026	117.781	125.030	156.058	124.378	-8191	255	
2113.317	1	1	0	0	0.082194	0.15378	0.19169	0.30408	0.3253	0.13435	0.085116	0.26498	0.34427	0.14735	0.067159	0.15732	0.21882	0.12899	0.10679	0.012807	-1.7458	-2.7958	-2.3563	-2.2083	-2.7333	-2.225	-2.6667	-2.9458	-2.0187	-2.7542	-2.5104	-2.1417	-3.0375	-2.3458	-2.4062	-2.8688	418.970	95.238	328.532	94.704	435.441	232.515	393.651	411.873	429.442	273.285	307.290	193.037	177.947	180.824	301.003	232.214	0.00039252	5.93e-05	0.00020203	1157	1.4742e-05	4.7926e-06	1220.2	233.32	9.9953e-06	2.4016e-06	293.48	82.119	64.172	18.712	5.4968e-06	25.92	0.0012685	0.0012806	0.00035869	1276.9	1.402e-05	1.4045e-05	1319.3	275.93	1.4006e-05	1.3921e-05	379.86	107.84	84.92	26.588	1.3801e-05	36.2	370.450	129.585	326.408	103.506	194.385	373.731	103.573	111.013	187.002	267.658	110.582	117.889	118.232	124.550	120.310	124.322	-8191	255	
2113.414	1	1	0	0	0.14753	0.084128	0.13313	0.16199	0.19299	0.25233	0.43851	0.092391	0.13334	0.18237	0.096646	0.29674	0.19354	0.20296	0.090271	0.098226	-1.7854	-2.725	-2.6167	-2.1396	-2.8604	-2.3667	-2.4979	-2.85	-2.0667	-2.6729	-2.7333	-2.2125	-2.7833	-2.3667	-2.3875	-2.8917	361.453	191.202	305.798	433.948	375.654	410.946	326.913	280.937	126.452	340.814	241.002	313.968	112.241	426.589	220.528	135.578	0.00088363	0.00078554	0.0002914	1154.8	6.6508e-06	4.7231e-06	1219.9	231.03	1.1164e-05	1.1182e-06	291.48	81.447	63.866	18.887	5.9161e-06	25.885	0.0012466	0.0012515	0.00034884	1270.8	1.3636e-05	1.3603e-05	1317.6	274.06	1.3589e-05	1.3605e-05	377.17	107.29	84.198	26.417	1.3578e-05	35.967	341.748	177.500	149.859	103.706	178.895	104.911	103.869	111.142	113.417	113.451	111.372	117.907	118.099	124.467	310.528	124.388	-8191	255	
2113.510	1	1	0	0	0.071739	0.11977	0.039323	0.27558	0.2406	0.25011	0.36229	0.10876	0.1872	0.12295	0.24688	0.10507	0.27575	0.024322	0.10376	0.2094	-1.9	-2.5333	-2.675	-2.3	-2.7771	-2.35	-2.375	-2.8688	-2.1479	-2.5333	-2.7729	-2.1312	-2.7667	-2.4688	-2.2375	-3.075	127.068	135.444	243.893	170.736	146.786	280.635	359.471	124.582	130.833	377.994	381.801	433.961	387.944	108.775	384.178	259.449	0.00078371	0.001087	0.00064466	1156.8	1.2635e-05	9.522e-06	1216.9	231.96	3.6664e-06	5.7011e-06	293.02	81.831	64.612	18.676	8.3398e-06	25.695	0.0012386	0.0012433	0.0003465	1269.9	1.3642e-05	1.3599e-05	1313.8	273.7	1.365e-05	1.3558e-05	377.43	107.25	84.631	26.362	1.354e-05	36.025	344.506	401.827	220.983	103.600	342.491	285.039	104.018	111.214	190.952	179.678	110.681	117.941	117.717	124.383	248.579	124.557	-8191	255	
2113.606	1	1	0	0	0.14045	0.24394	0.0377	0.18424	0.058532	0.19937	0.29044	0.18126	0.1739	0.15143	0.03084	0.096108	0.43568	0.27723	0.19278	0.19393	-1.6646	-2.4604	-2.7479	-2.0896	-2.8708	-2.5542	-2.3063	-3.0646	-2.15	-2.3646	-2.8937	-2.1167	-2.8271	-2.6063	-2.1458	-3.0083	104.061	175.013	233.917	407.292	344.616	99.279	99.335	418.202	129.396	344.081	305.266	129.755	427.509	356.000	120.306	110.098	0.00086444	0.001874	0.00037359	1156.6	2.4586e-05	6.2141e-06	1219.7	232.68	3.5875e-06	1.0333e-05	291.3	81.869	64.254	18.502	6.4719e-06	25.721	0.001233	0.0012412	0.00034707	1271.8	1.3602e-05	1.3611e-05	1315.1	274.34	1.3566e-05	1.3618e-05	376.98	107.29	84.402	26.298	1.3592e-05	36.038	352.971	324.076	174.588	103.879	248.805	366.909	103.562	110.833	287.004	325.827	110.932	117.864	118.225	124.763	428.288	123.899	-8191	255	
2113.702	1	1	0	0	0.10993	0.1188	0.042385	0.2714	0.21351	0.26278	0.35517	0.2634	0.17445	0.088866	0.30706	0.023036	0.18137	0.071237	0.20181	0.22673	-2.0604	-2.3458	-2.8	-2.3708	-2.6646	-2.8604	-2.3375	-2.8958	-2.2396	-2.2896	-2.9	-2.0958	-2.65	-2.8521	-2.1562	-2.9979	419.674	155.793	130.499	374.502	418.769	179.891	413.070	380.481	381.570	351.267	340.249	348.795	161.414	410.375	339.899	437.966	0.00093427	0.00051769	2.5353e-05	1156.8	8.8148e-06	1.0291e-05	1226.2	232.96	9.872e-06	6.4676e-06	292.81	81.708	64.128	18.671	1.7359e-06	25.871	0.0012321	0.001247	0.00034415	1269.7	1.3519e-05	1.3511e-05	1315.7	273.87	1.3521e-05	1.3649e-05	377.28	107.44	84.532	26.438	1.3701e-05	36.138	349.714	248.471	375.100	103.194	259.428	265.182	103.713	110.742	205.942	348.542	110.647	117.936	117.672	124.609	219.319	123.607	-8191	255	
2113.821	1	1	0	0	0.1067	0.13965	0.1524	0.15878	0.17995	0.018656	0.028479	0.019138	0.18097	0.11414	0.11197	0.025188	0.13643	0.10031	0.14911	0.24636	-2.0333	-2.2604	-2.9062	-2.2354	-2.6604	-2.9125	-2.2687	-3.0229	-2.6771	-2.0271	-3.0583	-2.2083	-2.6042	-3.0104	-1.8896	-2.8042	157.366	159.083	109.994	424.163	238.774	248.030	338.443	193.528	365.762	409.217	106.346	185.258	413.540	361.281	132.976	200.774	0.0011484	0.0015569	0.00012687	1148.6	9.1903e-06	1.2148e-05	1217.3	231.43	2.492e-06	8.7817e-06	293.11	81.595	64.063	18.765	1.1918e-05	25.824	0.0012407	0.0012474	0.00034815	1270	1.3626e-05	1.3704e-05	1314	273.95	1.3648e-05	1.3757e-05	379.1	107.62	84.647	26.545	1.3814e-05	36.302	348.729	191.376	378.229	103.181	110.529	145.703	103.466	110.810	262.531	356.440	110.866	117.231	118.210	124.218	248.233	124.537	-8191	255	
2113.894	1	1	0	0	0.05681	0.093814	0.05894	0.14669	0.14794	0.39477	0.26783	0.08044	0.05005	0.12097	0.26829	0.22701	0.097391	0.15317	0.21612	0.11296	-2.2146	-2.0917	-3.025	-2.2812	-2.4854	-2.9646	-2.2708	-2.5875	-2.6208	-2.2875	-2.9479	-2.4083	-2.5083	-2.9479	-2.1833	-2.725	252.420	149.358	274.018	406.486	171.266	203.667	425.758	161.976	446.365	183.765	445.508	223.311	195.992	239.726	189.285	400.713	0.00051915	0.00038524	0.00024173	1155.9	9.1988e-06	4.2221e-06	1221.9	232.41	6.472e-06	6.2985e-06	292.1	82.177	63.627	18.856	1.5066e-05	25.912	0.0012566	0.0012586	0.00035265	1273.1	1.386e-05	1.389e-05	1318.6	275.57	1.3874e-05	1.392e-05	379.82	108.01	84.84	26.569	1.3884e-05	36.323	330.519	220.680	297.687	103.117	209.978	199.671	103.435	110.941	148.384	104.734	110.590	117.193	117.794	124.493	395.468	123.872	-8191	255	
2113.991	1	1	0	0	0.040984	0.1321	0.066508	0.078302	0.14299	0.27927	0.15197	0.14902	0.15939	0.043562	0.20854	0.2981	0.040332	0.088145	0.14989	0.219	-2.3125	-2.175	-2.8521	-2.5312	-2.2125	-2.7854	-2.2687	-2.5625	-2.875	-2.1167	-3.0958	-2.5917	-2.1208	-2.9	-1.9375	-2.5396	307.497	432.497	293.270	399.567	113.708	230.534	411.918	356.059	376.455	446.208	150.155	373.876	315.295	296.195	421.397	196.909	0.0010132	0.00050949	0.00043299	1149.7	5.8402e-06	6.3257e-06	1214.4	232.46	1.9862e-05	2.5241e-06	291.5	81.318	63.847	18.81	1.1447e-05	25.889	0.0012582	0.0012709	0.00035342	1273.1	1.3869e-05	1.3892e-05	1315.9	274.84	1.3834e-05	1.3931e-05	380.3	108.03	84.87	26.593	1.3893e-05	36.33	359.012	223.124	129.936	103.265	253.752	126.850	103.685	111.019	193.227	174.619	110.656	117.446	117.915	124.890	215.172	124.591	-8191	255	
2114.087	1	1	0	0	0.25202	0.25155	0.1599	0.092147	0.2172	0.056489	0.13924	0.14813	0.11595	0.11702	0.17943	0.1775	0.32668	0.24335	0.18018	0.12432	-2.2438	-2.1208	-2.6375	-2.5875	-2.3375	-2.9688	-2.3688	-2.7542	-2.9208	-2.1188	-2.8396	-2.6708	-2.3312	-2.8917	-2.2292	-2.6146	131.586	210.656	129.887	182.258	359.291	174.598	320.417	384.980	419.830	378.189	224.512	421.900	352.750	399.851	135.897	301.958	0.0011883	0.00063655	0.0003072	1155.4	7.4835e-06	2.4355e-06	1214.1	231.85	1.9939e-05	5.8652e-06	294.66	81.987	64.207	18.61	5.9107e-06	26.153	0.001262	0.0012686	0.0003539	1273.8	1.3824e-05	1.3879e-05	1315.8	275.31	1.3806e-05	1.388e-05	380.19	107.89	84.993	26.612	1.3841e-05	36.373	318.662	185.888	445.950	103.091	163.915	150.025	103.402	111.251	209.094	311.007	110.672	117.330	118.070	124.803	126.616	123.841	-8191	255	
2114.206	1	1	0	0	0.29705	0.31473	0.24726	0.17587	0.22471	0.19252	0.20737	0.1318	0.11821	0.24059	0.036518	0.075115	0.44788	0.17056	0.27454	0.1766	-2.4917	-2.1188	-2.7	-2.7521	-2.1583	-2.8375	-2.2042	-2.325	-2.8604	-2.1042	-2.7729	-2.8292	-2.1979	-2.7729	-2.2812	-2.4396	204.980	335.734	320.869	422.228	436.526	356.862	352.624	132.646	388.130	448.682	277.210	358.758	447.691	102.015	96.527	398.975	0.00091738	0.0015622	8.6505e-05	1155.5	1.3028e-05	5.0028e-06	1220.6	232.48	5.3629e-06	1.1477e-06	293.46	81.115	63.997	18.73	2.6583e-06	25.917	0.001259	0.0012707	0.00035509	1272	1.3815e-05	1.3917e-05	1317.7	275.06	1.3837e-05	1.3897e-05	380.05	107.86	84.769	26.558	1.3799e-05	36.218	340.554	186.510	240.056	103.216	235.964	438.865	103.333	110.930	322.715	124.333	111.160	117.903	117.884	124.606	243.080	124.335	-8191	255	
2114.302	1	1	0	0	0.13862	0.19099	0.10172	0.073997	0.22545	0.26987	0.33578	0.23875	0.24671	0.22571	0.014051	0.194	0.03469	0.11755	0.21363	0.19006	-2.6625	-2.2354	-2.6437	-2.6688	-2.0771	-2.7583	-2.5563	-2.4458	-2.9896	-2.2396	-2.6333	-2.9437	-2.3688	-2.8229	-2.3937	-2.5062	305.797	416.907	164.280	430.481	423.862	315.070	450.688	416.641	421.045	140.569	159.487	104.464	336.057	150.828	199.813	181.242	0.0011851	0.0012512	0.00031357	1157.2	4.0096e-06	1.0867e-06	1218	232.71	7.2999e-06	3.7716e-06	290.93	81.376	63.806	18.908	9.7309e-06	25.878	0.0012569	0.001261	0.00035097	1272.7	1.3715e-05	1.3795e-05	1316.6	275.01	1.3814e-05	1.3817e-05	379.24	108.27	84.842	26.74	1.3925e-05	36.51	318.253	347.577	100.753	103.230	264.473	106.497	103.632	111.231	243.844	365.577	111.188	117.951	118.301	124.437	240.736	124.533	-8191	255	
2114.398	1	1	0	0	0.18287	0.17947	0.19236	0.15738	0.12897	0.085538	0.25204	0.27481	0.12291	0.10684	0.064781	0.17844	0.31145	0.15863	0.11511	0.14845	-2.5396	-2.2833	-2.5187	-2.95	-2.0208	-2.9104	-2.6479	-2.2229	-2.9417	-2.5812	-2.4667	-2.9333	-2.3125	-2.7146	-2.6312	-2.2146	335.995	267.713	289.652	355.208	261.063	320.541	434.643	304.667	403.067	209.437	392.448	440.912	371.080	379.224	106.716	263.791	0.00095541	0.00026861	0.00035656	1155.6	1.5333e-05	1.195e-05	1215.7	232	5.4414e-06	1.0433e-05	294.01	81.506	63.507	18.6	5.4758e-06	25.791	0.0012632	0.0012735	0.00035462	1274.7	1.3963e-05	1.408e-05	1319.6	275.69	1.4001e-05	1.4028e-05	381.7	108.19	84.955	26.682	1.3943e-05	36.368	321.269	342.208	329.163	103.393	210.752	225.642	103.400	111.349	276.358	189.421	110.730	117.551	118.210	125.319	226.445	124.300	-8191	255	
2114.494	1	1	0	0	0.10346	0.012141	0.031034	0.14896	0.11657	0.19156	0.095457	0.28473	0.1075	0.082153	0.21879	0.29575	0.11386	0.14827	0.02218	0.17761	-2.4042	-2.3604	-2.3917	-3.125	-2.0708	-2.8063	-2.9417	-2.3167	-2.8625	-2.4271	-2.3563	-3.0021	-2.1562	-2.7979	-2.6437	-1.9271	264.332	263.973	127.011	125.399	190.642	412.475	363.418	402.323	119.606	131.180	169.819	341.886	297.161	315.809	446.752	176.414	0.00049294	0.00048568	0.00024108	1159.1	6.5976e-06	1.1623e-05	1220.9	233.48	2.8833e-05	8.3124e-06	292.24	82.095	64.005	18.643	1.8835e-06	25.913	0.0012645	0.0012722	0.00035436	1276.8	1.3878e-05	1.3971e-05	1319.7	275.61	1.4012e-05	1.3989e-05	381.07	108.46	84.955	26.67	1.4026e-05	36.562	360.308	219.137	112.566	103.069	179.139	263.969	103.584	110.765	114.367	200.384	110.639	117.842	117.847	124.744	310.985	124.079	-8191	255	
2114.590	1	1	0	0	0.23766	0.097501	0.11078	0.19097	0.10767	0.11302	0.14576	0.16739	0.12732	0.2315	0.086133	0.1419	0.25552	0.18632	0.066581	0.21251	-2.4625	-2.275	-2.2271	-3.0104	-2.1604	-2.3937	-2.8833	-2.1562	-2.7021	-2.5292	-2.3146	-2.9854	-2.2	-2.4313	-3.0062	-2.2896	434.222	422.772	308.639	433.741	130.465	119.208	383.450	368.937	263.102	450.536	279.578	114.861	131.012	372.088	402.042	448.661	0.00078406	0.0011123	0.0001693	1159.4	1.3309e-05	1.1476e-05	1225.4	232.87	5.2277e-06	1.1796e-05	289.97	82.081	64.479	18.65	9.5271e-06	25.832	0.001273	0.0012873	0.00035797	1278.9	1.4063e-05	1.4078e-05	1324.1	276.17	1.417e-05	1.4144e-05	382.17	109.08	85.542	26.866	1.4254e-05	36.697	328.348	170.170	189.967	103.141	263.507	255.785	103.454	111.207	284.301	171.736	110.972	118.311	117.465	124.655	213.492	123.849	-8191	255	
2114.686	1	1	0	0	0.088461	0.22648	0.17654	0.068102	0.24067	0.13881	0.24544	0.077503	0.066347	0.022904	0.086027	0.13411	0.21816	0.22682	0.081422	0.38797	-2.5833	-2.5042	-2.2729	-3	-2.2917	-2.5333	-3.0438	-2.1854	-2.6562	-2.725	-2.0729	-2.9604	-2.3708	-2.5062	-2.8625	-2.1292	288.923	380.512	411.391	112.193	128.989	144.085	364.581	410.959	314.273	373.889	353.625	370.705	444.926	360.736	194.872	358.915	0.00037643	0.00077236	0.00073851	1154.5	6.0521e-06	1.082e-05	1216.2	231.63	3.5786e-06	6.7455e-06	289.03	81.262	63.906	18.825	1.9693e-05	26.152	0.0012963	0.001304	0.00036545	1280.1	1.4376e-05	1.4346e-05	1323.9	276.67	1.438e-05	1.4336e-05	383.19	109.23	85.593	26.961	1.4412e-05	36.758	402.262	196.517	170.197	103.294	129.549	416.627	103.702	111.292	121.445	111.544	110.445	117.826	118.047	124.903	222.561	124.448	-8191	255	
2114.807	1	1	0	0	0.14193	0.12842	0.12402	0.15081	0.16527	0.11475	0.19433	0.098016	0.10437	0.031315	0.19696	0.1457	0.030857	0.32777	0.065747	0.21508	-2.2646	-2.6896	-2.1375	-3.1833	-2.3646	-2.5312	-3.0458	-2.3604	-2.6458	-2.7875	-2.1688	-3.0208	-2.4979	-2.2896	-2.7687	-2.2875	393.420	399.252	222.159	438.741	420.957	109.041	426.073	403.165	234.261	102.517	381.974	142.346	284.425	317.726	375.009	405.708	0.00098764	0.00062037	7.521e-05	1155.3	1.3089e-05	7.9779e-06	1218.7	230.47	1.1244e-05	6.8594e-06	293.67	81.704	63.97	18.675	1.1778e-05	25.517	0.0012994	0.0013009	0.00036346	1281.9	1.4235e-05	1.4362e-05	1324.6	276.78	1.4301e-05	1.4349e-05	384.15	109.26	85.908	26.911	1.4481e-05	36.789	354.266	351.218	336.807	103.299	326.239	344.914	103.956	111.063	197.825	220.488	110.838	117.381	118.010	124.845	346.918	123.919	-8191	255	
2114.901	1	1	0	0	0.10237	0.17452	0.094171	0.21555	0.22309	0.12326	0.22078	0.27748	0.076629	0.14871	0.21855	0.15714	0.18747	0.076026	0.14052	0.12059	-2.125	-2.75	-1.9854	-2.9313	-2.55	-2.3125	-2.8604	-2.1771	-2.4479	-2.8833	-2.0354	-2.9771	-2.4792	-2.2333	-3.0646	-2.25	166.485	245.975	328.727	346.606	219.328	143.778	402.760	315.583	254.494	395.673	179.253	429.036	124.573	265.164	311.056	439.082	0.00076572	0.00050711	0.00037328	1159.6	1.0597e-05	6.6327e-06	1224	232.87	5.9856e-06	1.2456e-05	291.36	82.459	64.499	18.769	1.5592e-05	25.701	0.0013137	0.0013288	0.00036807	1285.1	1.4404e-05	1.4514e-05	1328.2	277.45	1.4493e-05	1.4501e-05	385.65	109.66	86.116	27.061	1.4498e-05	36.829	336.631	400.778	390.105	103.506	258.452	223.756	103.698	111.648	207.396	281.994	111.214	117.868	118.099	125.154	339.262	124.616	-8191	255	
2114.997	1	1	0	0	0.14952	0.074002	0.18711	0.17235	0.092546	0.19881	0.2181	0.083248	0.23429	0.098786	0.34712	0.25819	0.21252	0.13758	0.092272	0.17305	-1.9937	-2.825	-2.0396	-2.8958	-2.6479	-2.05	-3.1063	-2.4583	-2.3667	-3.0208	-2.2208	-2.6333	-2.8542	-2.2167	-3.0021	-2.4417	324.363	407.161	148.040	402.320	320.421	233.599	396.444	122.457	368.085	278.526	121.797	422.931	251.364	406.196	262.709	265.943	0.00069392	0.00046634	0.00026902	1151.8	5.3061e-06	6.191e-06	1219.1	231.52	4.238e-06	4.1771e-06	292.59	82.131	63.57	18.682	1.6631e-06	25.789	0.0013163	0.001325	0.00036886	1284.2	1.4518e-05	1.4567e-05	1328.4	277.62	1.4586e-05	1.458e-05	385.86	109.99	86.334	27.089	1.4646e-05	36.902	346.381	283.537	200.709	103.688	225.284	318.837	103.668	111.103	171.684	324.096	110.784	118.066	117.864	125.323	331.519	123.886	-8191	255	
2115.094	1	1	0	0	0.40169	0.076621	0.16551	0.29816	0.11961	0.07889	0.095263	0.025598	0.2847	0.057233	0.34713	0.21954	0.29753	0.25929	0.13066	0.056689	-1.95	-2.8771	-1.9354	-2.7042	-2.9667	-2.2604	-3.0292	-2.5312	-2.2604	-3.0104	-2.3563	-2.6604	-2.7604	-2.0104	-2.9917	-2.4271	227.204	176.467	411.380	385.735	207.413	159.200	243.684	189.850	143.916	153.741	398.621	446.766	146.003	425.225	241.526	390.024	0.00066599	0.001227	1.7824e-05	1159.1	4.3845e-06	5.485e-06	1226.5	230.93	1.6271e-05	7.1785e-06	290.96	81.979	63.641	19.002	1.498e-05	25.758	0.0013217	0.0013289	0.00037142	1287.6	1.455e-05	1.4534e-05	1328	277.79	1.451e-05	1.4501e-05	384.85	109.61	86.297	27.065	1.45e-05	36.833	327.602	236.472	300.760	103.562	165.871	189.627	103.397	111.040	368.612	364.892	111.204	117.359	117.778	125.370	263.531	123.582	-8191	255	
2115.190	1	1	0	0	0.29808	0.05413	0.1028	0.30057	0.14241	0.16844	0.26046	0.20069	0.13417	0.27602	0.221	0.042875	0.16819	0.14047	0.053104	0.069183	-1.8146	-3.0021	-2.1667	-2.4583	-2.7979	-2.0604	-3.0687	-2.5354	-2.2646	-2.9083	-2.2833	-2.3604	-2.9458	-2.0896	-2.6875	-2.5938	219.052	236.407	232.798	420.545	236.180	149.926	428.286	421.348	115.602	199.635	231.584	253.895	328.620	446.134	335.051	334.655	0.00083226	0.00044421	0.00016387	1160.5	5.5724e-06	5.9799e-06	1224.4	232.01	5.9673e-06	3.0536e-06	292.81	81.935	64.055	18.785	7.3913e-06	26.093	0.0013057	0.0013193	0.00036498	1282.4	1.4335e-05	1.429e-05	1325.9	276.65	1.4325e-05	1.4357e-05	383.37	109.44	85.592	26.908	1.4329e-05	36.723	400.703	121.284	109.327	103.516	151.889	353.507	103.701	111.152	447.755	133.875	110.839	117.669	118.176	125.099	120.612	124.053	-8191	255	
2115.286	1	1	0	0	0.23494	0.26845	0.16221	0.24438	0.11993	0.16899	0.28893	0.1316	0.15863	0.021735	0.13219	0.18749	0.065527	0.095988	0.042145	0.20818	-1.6708	-2.7938	-2.1646	-2.4646	-2.8958	-2.3042	-2.9083	-2.6104	-2.025	-3.0542	-2.425	-2.3833	-2.9208	-2.0542	-2.5604	-2.8396	331.861	293.479	378.621	404.701	147.026	366.061	429.182	264.972	208.363	146.989	118.303	383.547	424.427	380.646	182.293	427.033	0.0011712	0.00025101	0.00020885	1159.8	4.3674e-06	8.4e-06	1218.1	230.89	8.7402e-06	9.4839e-06	295.81	81.848	63.652	18.662	4.0257e-06	25.973	0.0013038	0.0013068	0.00036542	1283.4	1.4312e-05	1.4342e-05	1326.5	276.33	1.4298e-05	1.4362e-05	384.19	109.2	85.823	26.873	1.4353e-05	36.655	311.552	406.542	365.063	103.695	216.105	231.343	103.777	111.177	223.880	451.052	111.317	117.854	118.178	124.758	158.289	124.297	-8191	255	
#DATA ENDS
