BOXY.EXE: ISS Imagent and Oximeter Data Acquisition Program Version 0.80
Ascii Record File

#ACQ INFORMATION
2  Detector Channels 
16  External MUX Channels 
1  Auxiliary Channels 
5000  Waveform (CCF) Frequency (Hz)
1  Waveforms Skipped 
30  Waveforms Averaged 
1  Cycles Averaged 
16  Acquisitions per Waveform 
10.0806  Updata Rate (Hz) 

#FILE INFORMATION
TRUE -- External MUX Channel results are PARSED.
FALSE -- AC DC and Phase are NOT grouped.
TRUE -- Companion Program Settings File CREATED.
FALSE -- AC data not excluded
FALSE -- DC data not excluded
FALSE -- Phase data not excluded
FALSE -- Auxillary Chn. data not excluded
Tab delimiters

#CALIBRATION STATE
TRUE -- Waveform Calibration Values APPLIED.


#AUX CALIBRATION VALUES
Val Type	aux-1	

Term	1.0000e+00	
Factor	0.0000e+00	


#WF CALIBRATION VALUES
A = Detector Channel
Val Type	A-AC1	A-AC2	A-AC3	A-AC4	A-AC5	A-AC6	A-AC7	A-AC8	A-AC9	A-AC10	A-AC11	A-AC12	A-AC13	A-AC14	A-AC15	A-AC16	A-DC1	A-DC2	A-DC3	A-DC4	A-DC5	A-DC6	A-DC7	A-DC8	A-DC9	A-DC10	A-DC11	A-DC12	A-DC13	A-DC14	A-DC15	A-DC16	A-Ph1	A-Ph2	A-Ph3	A-Ph4	A-Ph5	A-Ph6	A-Ph7	A-Ph8	A-Ph9	A-Ph10	A-Ph11	A-Ph12	A-Ph13	A-Ph14	A-Ph15	A-Ph16	

Term	0.00000e+00	0.00000e+00	0.00000e+00	0.00000e+00	0.00000e+00	0.00000e+00	0.00000e+00	0.00000e+00	0.00000e+00	0.00000e+00	0.00000e+00	0.00000e+00	0.00000e+00	0.00000e+00	0.00000e+00	0.00000e+00	0.00000e+00	0.00000e+00	0.00000e+00	0.00000e+00	0.00000e+00	0.00000e+00	0.00000e+00	0.00000e+00	0.00000e+00	0.00000e+00	0.00000e+00	0.00000e+00	0.00000e+00	0.00000e+00	0.00000e+00	0.00000e+00	0.00000e+00	0.00000e+00	0.00000e+00	0.00000e+00	0.00000e+00	0.00000e+00	0.00000e+00	0.00000e+00	0.00000e+00	0.00000e+00	0.00000e+00	0.00000e+00	0.00000e+00	0.00000e+00	0.00000e+00	0.00000e+00	
Factor	1.00000e+00	1.00000e+00	1.00000e+00	1.00000e+00	1.00000e+00	1.00000e+00	1.00000e+00	1.00000e+00	1.00000e+00	1.00000e+00	1.00000e+00	1.00000e+00	1.00000e+00	1.00000e+00	1.00000e+00	1.00000e+00	1.00000e+00	1.00000e+00	1.00000e+00	1.00000e+00	1.00000e+00	1.00000e+00	1.00000e+00	1.00000e+00	1.00000e+00	1.00000e+00	1.00000e+00	1.00000e+00	1.00000e+00	1.00000e+00	1.00000e+00	1.00000e+00	X	X	X	X	X	X	X	X	X	X	X	X	X	X	X	X	

B = Detector Channel
Val Type	B-AC1	B-AC2	B-AC3	B-AC4	B-AC5	B-AC6	B-AC7	B-AC8	B-AC9	B-AC10	B-AC11	B-AC12	B-AC13	B-AC14	B-AC15	B-AC16	B-DC1	B-DC2	B-DC3	B-DC4	B-DC5	B-DC6	B-DC7	B-DC8	B-DC9	B-DC10	B-DC11	B-DC12	B-DC13	B-DC14	B-DC15	B-DC16	B-Ph1	B-Ph2	B-Ph3	B-Ph4	B-Ph5	B-Ph6	B-Ph7	B-Ph8	B-Ph9	B-Ph10	B-Ph11	B-Ph12	B-Ph13	B-Ph14	B-Ph15	B-Ph16	

Term	0.00000e+00	0.00000e+00	0.00000e+00	0.00000e+00	0.00000e+00	0.00000e+00	0.00000e+00	0.00000e+00	0.00000e+00	0.00000e+00	0.00000e+00	0.00000e+00	0.00000e+00	0.00000e+00	0.00000e+00	0.00000e+00	0.00000e+00	0.00000e+00	0.00000e+00	0.00000e+00	0.00000e+00	0.00000e+00	0.00000e+00	0.00000e+00	0.00000e+00	0.00000e+00	0.00000e+00	0.00000e+00	0.00000e+00	0.00000e+00	0.00000e+00	0.00000e+00	3.46174e+01	-1.41726e+02	-1.41638e+02	-1.82578e+02	-8.82637e+01	-9.64119e+01	-1.57601e+02	-1.62015e+02	-1.01309e+02	-8.94930e+01	-1.76501e+02	-1.75461e+02	-1.82075e+02	-1.78619e+02	-8.59017e+01	-1.51028e+02	
Factor	5.43218e-05	9.09066e-05	3.08890e-05	1.86882e-01	1.02004e-06	9.71065e-07	1.70451e-01	5.67373e-02	1.06568e-06	8.83568e-07	1.30693e-01	3.60511e-02	2.61244e-02	9.14670e-03	1.13988e-06	1.29127e-02	6.14975e-07	6.21407e-07	1.73172e-07	9.42003e-02	6.80050e-09	6.81149e-09	8.15599e-02	2.85863e-02	6.80842e-09	6.81023e-09	5.99588e-02	1.68107e-02	1.29183e-02	4.52870e-03	6.82171e-09	6.11913e-03	X	X	X	X	X	X	X	X	X	X	X	X	X	X	X	X	



#DISTANCE SETTINGS
A = Detector Channel
A-1	A-2	A-3	A-4	A-5	A-6	A-7	A-8	A-9	A-10	A-11	A-12	A-13	A-14	A-15	A-16	

2.5000e+00	3.0000e+00	2.5000e+00	3.0000e+00	2.0000e+00	3.0000e+00	1.5000e+00	3.0000e+00	3.0000e+00	3.0000e+00	3.0000e+00	3.0000e+00	3.0000e+00	3.0000e+00	1.5000e+00	3.0000e+00	

B = Detector Channel
B-1	B-2	B-3	B-4	B-5	B-6	B-7	B-8	B-9	B-10	B-11	B-12	B-13	B-14	B-15	B-16	

1.0000e+01	1.0000e+01	1.0000e+01	1.4400e+00	1.0000e+01	1.0000e+01	1.5100e+00	1.9400e+00	1.0000e+01	1.0000e+01	1.9900e+00	2.4900e+00	2.4100e+00	2.9000e+00	1.0000e+01	2.9800e+00	




#DATA BEGINS
time	group	step	mark	flag	A-AC1	A-AC2	A-AC3	A-AC4	A-AC5	A-AC6	A-AC7	A-AC8	A-AC9	A-AC10	A-AC11	A-AC12	A-AC13	A-AC14	A-AC15	A-AC16	A-DC1	A-DC2	A-DC3	A-DC4	A-DC5	A-DC6	A-DC7	A-DC8	A-DC9	A-DC10	A-DC11	A-DC12	A-DC13	A-DC14	A-DC15	A-DC16	A-Ph1	A-Ph2	A-Ph3	A-Ph4	A-Ph5	A-Ph6	A-Ph7	A-Ph8	A-Ph9	A-Ph10	A-Ph11	A-Ph12	A-Ph13	A-Ph14	A-Ph15	A-Ph16	B-AC1	B-AC2	B-AC3	B-AC4	B-AC5	B-AC6	B-AC7	B-AC8	B-AC9	B-AC10	B-AC11	B-AC12	B-AC13	B-AC14	B-AC15	B-AC16	B-DC1	B-DC2	B-DC3	B-DC4	B-DC5	B-DC6	B-DC7	B-DC8	B-DC9	B-DC10	B-DC11	B-DC12	B-DC13	B-DC14	B-DC15	B-DC16	B-Ph1	B-Ph2	B-Ph3	B-Ph4	B-Ph5	B-Ph6	B-Ph7	B-Ph8	B-Ph9	B-Ph10	B-Ph11	B-Ph12	B-Ph13	B-Ph14	B-Ph15	B-Ph16	aux-1	digaux	

2141.696	1	1	0	256	0.211	0.044661	0.080851	0.18268	0.095665	0.3407	0.28761	0.34125	0.24952	0.15488	0.15429	0.16323	0.03481	0.062596	0.24519	0.11368	-2.1375	-1.9354	-2.5625	-2.5	-2.0083	-3.0021	-2.2375	-2.5708	-2.7521	-1.8708	-2.8979	-2.3563	-2.0375	-2.9292	-2.1375	-2.3312	254.107	99.544	294.768	420.152	299.473	162.924	133.894	397.688	199.357	124.070	443.997	177.877	119.571	305.860	443.854	114.969	0.0010568	0.00067244	8.9672e-05	1222.1	9.0668e-06	1.7367e-05	1296.5	240.17	5.6331e-06	3.4953e-06	302.32	84.312	65.714	19.393	1.914e-05	26.764	0.0014841	0.0014798	0.00041337	1370.4	1.6137e-05	1.6109e-05	1415.1	291.33	1.6003e-05	1.6068e-05	409.22	115.12	90.083	28.387	1.5925e-05	38.843	336.594	136.109	327.238	102.967	201.642	102.016	103.138	110.619	400.877	382.372	110.342	117.147	116.865	123.764	396.159	123.210	-8191	255	
2141.767	1	1	0	0	0.24023	0.121	0.30686	0.055138	0.096805	0.16908	0.37553	0.27491	0.063411	0.085917	0.31641	0.074192	0.11508	0.1428	0.26972	0.32296	-2.4562	-1.775	-2.6021	-2.3125	-2.0521	-2.8937	-2.3833	-2.35	-2.6083	-2.0417	-2.6063	-2.6021	-2.1604	-2.6792	-2.0438	-2.3917	389.679	228.289	159.722	356.259	170.283	192.146	358.976	366.086	304.517	212.009	424.573	418.145	99.503	385.122	97.850	324.109	0.00053358	0.0013209	4.8084e-05	1219.5	1.0023e-05	7.206e-06	1287.2	238.61	1.4141e-05	2.3784e-06	303.04	83.65	65.596	18.94	1.0944e-05	26.391	0.0014279	0.0014381	0.00040029	1357.5	1.563e-05	1.5481e-05	1402	288.04	1.5386e-05	1.5449e-05	402.51	113.52	88.679	27.814	1.5216e-05	38.049	332.616	291.043	419.837	102.516	450.673	306.151	102.902	110.261	200.679	257.930	110.569	116.748	116.575	123.993	346.431	123.231	-8191	255	
2141.888	1	1	0	0	0.26694	0.21021	0.013118	0.15448	0.32092	0.14411	0.28234	0.2177	0.17683	0.10436	0.16299	0.14555	0.29662	0.16629	0.19205	0.19533	-2.2479	-1.95	-2.5208	-2.7271	-1.9688	-2.5563	-2.425	-2.1958	-2.8583	-2.0479	-2.4896	-2.6437	-2.0083	-2.8521	-2.2854	-2.0958	392.749	434.829	203.761	357.496	216.884	444.659	447.737	406.545	211.674	129.536	376.628	279.551	107.289	224.082	108.806	356.155	0.00039713	0.00085647	0.0002666	1214.8	7.6795e-06	1.1486e-05	1286.6	238.53	7.4864e-06	4.1722e-06	300.97	83.658	65.212	19.111	1.1713e-05	26.483	0.001383	0.0013834	0.0003858	1345.7	1.5169e-05	1.5155e-05	1396.5	286.34	1.5086e-05	1.507e-05	399.97	112.69	88.304	27.721	1.503e-05	37.792	363.548	202.027	311.263	102.356	360.615	242.433	102.921	110.344	187.439	223.633	110.189	116.502	117.051	123.862	153.341	123.327	-8191	255	
2141.984	1	1	0	0	0.11551	0.19784	0.12548	0.26843	0.17559	0.12613	0.33702	0.28435	0.10191	0.11855	0.092529	0.068816	0.2574	0.20404	0.32911	0.26013	-2.4354	-2.0771	-2.3625	-2.8542	-2.1208	-2.5812	-2.5354	-2.1646	-2.7333	-2.1375	-2.5292	-2.6583	-1.7479	-2.6354	-2.3958	-1.9875	395.010	112.487	186.987	443.833	235.649	109.470	398.757	363.332	296.377	206.553	372.111	136.478	418.244	143.239	205.906	302.060	0.00070347	0.0007162	0.00036329	1209.8	8.3283e-06	9.4739e-06	1276.5	236.75	1.5114e-05	6.4494e-06	303.97	82.767	64.531	18.958	1.0165e-05	26.434	0.0013561	0.0013661	0.00037825	1338.5	1.4735e-05	1.4812e-05	1386.8	283.83	1.4586e-05	1.4563e-05	395.22	111.09	86.636	27.272	1.4477e-05	37.242	341.407	228.643	260.294	102.545	337.159	281.713	103.074	110.230	195.069	197.434	109.903	117.330	117.455	124.372	226.119	123.573	-8191	255	
2142.080	1	1	0	0	0.15279	0.11588	0.031448	0.18062	0.050666	0.18609	0.35304	0.094561	0.14552	0.12733	0.15344	0.24275	0.18778	0.32055	0.13516	0.14473	-2.1937	-2.2396	-2.0667	-2.9229	-1.8563	-2.5812	-2.5917	-2.1875	-2.9021	-2.0604	-2.2479	-2.7896	-2.0062	-2.5875	-2.575	-2.0646	153.123	193.970	290.373	439.216	420.893	261.695	353.852	197.882	417.865	253.140	430.864	306.433	424.039	220.274	436.731	115.412	0.00092871	0.00021136	0.00017351	1211.5	1.2676e-05	1.0308e-05	1281.8	237.01	1.3412e-05	4.8372e-06	303.8	83.373	64.845	18.978	8.508e-06	26.499	0.0013114	0.0013159	0.0003662	1330.5	1.4422e-05	1.4439e-05	1381.9	281.62	1.4362e-05	1.4404e-05	392.98	110.54	86.415	27.156	1.4421e-05	37.096	358.659	183.449	156.526	102.753	344.152	115.864	103.253	110.244	144.214	248.277	110.799	117.397	117.378	124.632	352.222	123.640	-8191	255	
2142.199	1	1	0	0	0.25468	0.21301	0.21718	0.2115	0.21457	0.052107	0.17666	0.25321	0.14313	0.05767	0.10869	0.084919	0.045883	0.060163	0.11896	0.093533	-2.4437	-2.1667	-2.0021	-2.8396	-2.0542	-2.5687	-2.8438	-2.2	-2.6729	-2.2479	-2.2396	-2.8333	-2.1042	-2.4771	-2.6312	-2.0563	331.013	177.003	258.326	403.534	148.843	298.849	415.335	379.753	272.726	424.781	277.342	257.535	286.048	430.729	346.566	406.709	0.00056386	0.0013106	6.7494e-05	1206.9	1.228e-05	9.3595e-06	1281.8	234.23	4.8789e-06	8.3592e-06	299.76	83.643	64.824	18.873	8.2679e-06	26.202	0.0012962	0.0013075	0.00036441	1329.7	1.4249e-05	1.4263e-05	1377.5	279.92	1.4154e-05	1.4196e-05	390.86	110.43	86.316	27.116	1.4291e-05	37.072	372.416	180.733	147.678	103.105	182.362	294.680	103.253	110.646	251.207	218.201	110.671	117.980	117.263	124.609	190.736	124.453	-8191	255	
2142.295	1	1	0	0	0.071414	0.26198	0.2649	0.20401	0.16512	0.16816	0.24061	0.40562	0.18666	0.23122	0.015301	0.30031	0.21585	0.035624	0.25868	0.10433	-2.4271	-2.2104	-2.0979	-2.8667	-1.9479	-2.3688	-3.0271	-2.0958	-2.5229	-2.4771	-2.0375	-2.9146	-2.35	-2.3375	-2.6937	-1.9792	197.308	165.064	444.796	415.249	415.210	187.047	380.719	405.838	186.480	389.115	131.972	386.982	451.210	319.424	130.706	449.843	0.00060507	0.0011636	0.00055732	1212.9	6.1867e-06	9.5006e-06	1282.9	236.14	1.5953e-05	3.2872e-06	299.48	82.462	64.59	18.888	2.2408e-05	26.282	0.0013075	0.0013172	0.00036657	1332.5	1.4491e-05	1.4541e-05	1384.4	282.23	1.4636e-05	1.4582e-05	393.95	110.91	86.879	27.223	1.4628e-05	37.362	298.527	186.630	152.904	102.885	270.922	401.781	103.196	110.734	256.676	272.300	110.400	117.437	117.776	124.563	186.894	123.579	-8191	255	
2142.392	1	1	0	0	0.31299	0.083016	0.40085	0.2798	0.22357	0.14459	0.19763	0.21308	0.27058	0.18654	0.26049	0.22431	0.10863	0.21239	0.09449	0.3032	-2.2646	-2.3604	-2.0625	-2.8708	-2.0187	-2.2562	-2.9646	-2.0229	-2.5521	-2.4583	-1.8792	-2.7354	-2.2687	-2.2333	-2.8063	-2.0625	390.294	165.743	279.344	355.020	279.051	340.188	312.318	106.664	102.243	351.527	213.346	451.492	164.947	157.410	330.283	215.482	0.0010286	0.0010452	0.0004412	1202.1	9.6346e-06	5.8985e-06	1276.8	236.24	1.0606e-05	1.1343e-05	302.96	83.007	64.331	18.918	2.9928e-06	26.178	0.0013209	0.001329	0.00037146	1331.2	1.4473e-05	1.4538e-05	1377.5	281.02	1.4436e-05	1.4374e-05	392.31	110.49	86.399	27.188	1.4367e-05	37.025	329.586	314.756	279.481	103.158	136.896	158.182	103.234	110.528	210.644	129.129	110.545	117.026	117.689	123.903	211.967	123.976	-8191	255	
2142.488	1	1	0	0	0.23111	0.14832	0.087504	0.30839	0.17154	0.24446	0.27436	0.23048	0.17321	0.14401	0.25571	0.14114	0.20667	0.21309	0.19683	0.033242	-2.0458	-2.4562	-1.8854	-2.9062	-2.2896	-1.9625	-2.8187	-2.1729	-2.5375	-2.6396	-1.9583	-2.6229	-2.3646	-2.2146	-2.8271	-2.1583	349.366	219.091	135.262	386.376	451.663	249.266	344.555	441.408	236.985	122.461	433.845	406.047	297.338	334.613	285.790	418.217	0.00091549	0.0004666	0.00028318	1202.6	3.3227e-06	5.0731e-06	1276	235.27	1.3802e-05	3.5538e-06	299.32	82.597	64.596	18.804	2.1908e-06	26.318	0.001298	0.0013081	0.00036285	1324	1.4199e-05	1.422e-05	1376.8	279.99	1.4153e-05	1.4235e-05	388.41	109.83	85.945	26.953	1.4219e-05	36.89	326.557	175.378	197.752	102.985	339.611	267.739	103.079	110.675	428.978	155.048	110.443	117.580	117.648	125.031	188.279	124.146	-8191	255	
2142.584	1	1	0	0	0.071556	0.13703	0.24176	0.16177	0.081209	0.30784	0.25273	0.11351	0.26852	0.15729	0.24295	0.28681	0.10276	0.29475	0.10959	0.33597	-1.775	-2.675	-1.8896	-2.5187	-2.3021	-1.9229	-2.9875	-2.2604	-2.0854	-2.6937	-1.9	-2.7604	-2.4396	-1.95	-2.7958	-2.4167	132.049	255.935	394.634	429.235	233.519	270.353	358.381	102.975	163.133	201.739	385.792	121.783	141.759	275.763	200.948	129.707	0.00064822	0.00067768	7.2521e-05	1201.7	7.7314e-06	6.1211e-06	1278.2	235.19	1.7494e-06	7.0708e-06	302.39	83.432	64.364	18.805	6.3159e-06	26.236	0.0012833	0.0012879	0.00035957	1323.1	1.4111e-05	1.4171e-05	1375.1	279.38	1.4082e-05	1.4138e-05	389.19	109.97	85.659	26.845	1.4034e-05	36.738	302.985	127.642	223.305	103.282	104.262	171.026	103.433	110.531	137.939	217.370	109.999	117.159	117.365	124.371	239.695	123.949	-8191	255	
2142.680	1	1	0	0	0.13085	0.1421	0.091345	0.15371	0.19238	0.24016	0.2767	0.15001	0.15129	0.090999	0.27244	0.11145	0.18764	0.11414	0.085639	0.29733	-1.9104	-2.8688	-2.0083	-2.7021	-2.575	-1.9167	-2.8854	-2.2271	-2.1521	-2.7208	-2.0396	-2.4062	-2.6875	-1.9604	-2.7229	-2.4167	210.481	134.895	308.992	331.286	311.151	426.255	379.286	357.172	93.322	196.122	407.298	358.389	352.521	398.336	158.017	417.180	0.00097166	0.00074204	0.00024441	1205	7.0942e-06	4.212e-06	1278	235.98	9.1112e-06	3.5948e-06	297.61	82.49	63.996	18.612	6.6205e-06	26.195	0.0012636	0.0012757	0.00035565	1318.5	1.3826e-05	1.3893e-05	1370.2	277.88	1.3845e-05	1.3785e-05	385.92	108.74	84.892	26.656	1.3769e-05	36.449	339.237	406.786	444.661	102.849	187.668	264.260	103.451	110.615	193.445	172.859	110.904	117.849	117.853	124.384	210.094	124.155	-8191	255	
2142.776	1	1	0	0	0.044599	0.14596	0.11012	0.049537	0.10902	0.18534	0.084994	0.13021	0.28552	0.094046	0.17489	0.050787	0.11127	0.031835	0.17046	0.10632	-1.6771	-2.8542	-2.1167	-2.6083	-2.6021	-1.9813	-2.7417	-2.3583	-1.9583	-2.6813	-2.1792	-2.4208	-2.6458	-1.9958	-2.5042	-2.2771	307.174	444.398	213.783	219.827	241.435	291.351	434.699	116.338	148.714	94.014	379.279	402.875	395.377	351.285	268.554	181.785	0.00042579	0.0017428	0.00017515	1202.5	9.3849e-06	8.9696e-06	1269.5	233.47	2.7042e-06	6.4507e-06	296.58	82.155	65.056	18.813	3.7395e-06	26.05	0.0012486	0.0012605	0.00035004	1314.9	1.371e-05	1.3676e-05	1363.6	276.58	1.3695e-05	1.3708e-05	383.94	108.68	84.959	26.542	1.3782e-05	36.47	340.831	217.253	206.635	103.144	93.571	142.219	103.516	111.062	356.052	191.835	111.119	117.405	117.764	125.019	347.186	124.561	-8191	255	
2142.895	1	1	0	0	0.18765	0.19032	0.28954	0.23643	0.13184	0.10466	0.13416	0.40399	0.23063	0.30205	0.26738	0.34015	0.082124	0.249	0.10252	0.24274	-1.6229	-2.7438	-2.3312	-2.4667	-2.7271	-2.1125	-2.6979	-2.5271	-1.9	-2.6958	-2.1562	-2.1979	-2.8375	-1.9125	-2.4042	-2.4458	298.462	204.378	425.253	448.969	110.659	117.696	266.418	388.283	381.687	186.961	423.812	112.963	111.133	383.895	253.203	289.851	0.0010869	0.00083355	0.00027978	1196.9	5.6258e-06	1.2124e-05	1267.3	233.94	4.6042e-06	8.1651e-06	300.21	83.289	64.18	18.857	1.0308e-05	26.298	0.0012558	0.0012569	0.00035174	1313.2	1.3764e-05	1.3794e-05	1364.3	277.49	1.3735e-05	1.385e-05	384.98	109.11	85.066	26.699	1.3954e-05	36.566	339.764	288.582	156.893	102.983	308.925	180.061	103.741	110.794	403.711	248.626	111.032	117.215	117.745	124.706	290.668	123.648	-8191	255	
2142.991	1	1	0	0	0.16856	0.3041	0.31048	0.16187	0.18637	0.076538	0.20546	0.14353	0.18446	0.042099	0.16604	0.165	0.17517	0.13564	0.11504	0.0308	-1.4521	-2.6625	-2.1979	-2.2604	-2.7042	-2.0083	-2.5146	-2.6063	-1.8208	-2.7292	-2.4479	-2.1688	-2.8312	-2.175	-2.5146	-2.6917	423.085	163.953	441.962	426.777	115.626	412.565	372.431	394.245	439.763	200.401	146.306	391.848	426.718	383.953	426.681	417.968	0.00050712	0.0010476	0.00021576	1202.9	1.03e-05	1.0423e-05	1270.4	233.75	2.9603e-06	7.6681e-06	299.64	83.025	64.499	18.723	1.4614e-06	25.983	0.0012671	0.0012711	0.00035585	1314.4	1.3941e-05	1.3934e-05	1365.8	277.54	1.3949e-05	1.3917e-05	386.31	109.14	85.33	26.775	1.3911e-05	36.482	342.614	210.567	304.018	103.148	396.149	389.922	103.302	110.389	139.082	123.560	110.237	117.248	117.392	123.924	188.236	123.306	-8191	255	
2143.065	1	1	0	0	0.23359	0.20419	0.10138	0.098317	0.176	0.058943	0.31913	0.33627	0.2033	0.24575	0.11169	0.06392	0.168	0.13243	0.21538	0.18668	-1.6354	-2.6688	-2.3542	-2.3	-2.8125	-1.9062	-2.5917	-2.8583	-1.9542	-2.6604	-2.4729	-2.0208	-2.9042	-2.1417	-2.3187	-2.9167	117.187	240.740	363.956	283.492	139.007	159.489	392.654	433.075	154.641	210.490	391.565	107.667	222.319	341.433	146.114	428.070	0.00095806	0.00051033	0.00013582	1194	1.0264e-05	4.7329e-06	1267.5	235.13	4.0375e-06	7.0594e-06	296.66	82.156	64.397	18.91	4.0999e-06	26.227	0.0012621	0.0012675	0.00035431	1313.6	1.39e-05	1.3913e-05	1367.2	277.75	1.3866e-05	1.3976e-05	386.32	108.89	85.735	26.762	1.4081e-05	36.85	307.211	372.381	154.127	102.855	192.607	98.857	103.032	110.328	206.565	223.617	110.366	117.394	117.494	124.069	226.724	122.836	-8191	255	
2143.161	1	1	0	0	0.1574	0.2	0.13085	0.14328	0.22348	0.074043	0.41064	0.2911	0.017425	0.27223	0.15428	0.2358	0.24945	0.17766	0.11154	0.12089	-1.4646	-2.4771	-2.5521	-2.1417	-2.7833	-2.1083	-2.3708	-2.8708	-2.1125	-2.5812	-2.775	-1.9417	-2.7333	-2.2167	-2.1583	-2.7	218.168	425.291	168.262	414.577	422.186	372.791	393.960	392.341	429.753	445.250	130.753	172.617	450.278	226.531	443.088	281.757	0.00057605	0.00095612	0.00020158	1198	5.5107e-06	1.7461e-06	1266.4	235.17	1.4253e-05	3.3826e-06	299.45	82.283	65.123	18.782	1.0652e-05	26.27	0.0012774	0.0012973	0.00036301	1320.2	1.4333e-05	1.4378e-05	1374.3	280.13	1.4496e-05	1.4569e-05	392.35	110.73	87.176	27.267	1.466e-05	37.374	258.380	325.009	166.837	102.567	151.312	376.529	103.007	110.243	271.102	423.442	110.276	117.113	117.111	124.043	269.681	123.656	-8191	255	
2143.280	1	1	0	0	0.08482	0.147	0.37151	0.28252	0.16227	0.08698	0.13097	0.19416	0.14351	0.094225	0.13125	0.26516	0.047514	0.19394	0.27026	0.12567	-1.6229	-2.4271	-2.525	-2.2167	-2.725	-2.2604	-2.2271	-2.7833	-1.9021	-2.4562	-2.8125	-2.0521	-2.7708	-2.4396	-1.9979	-2.9083	331.585	372.614	450.585	360.265	334.271	180.226	308.269	378.443	404.859	190.209	434.692	426.499	332.438	135.816	214.778	379.961	0.00039962	0.00039972	0.00025657	1202	4.2941e-06	2.2643e-06	1275	235.2	5.8559e-06	4.7191e-06	297.31	82.846	64.716	19.094	1.4641e-05	26.115	0.001332	0.0013392	0.00037186	1328.7	1.468e-05	1.4606e-05	1381.9	281.5	1.4659e-05	1.4776e-05	393.28	111.39	87.143	27.501	1.4837e-05	37.567	197.928	301.392	212.910	102.655	225.511	143.986	103.201	110.617	170.918	401.244	110.258	116.794	117.176	123.623	211.940	123.201	-8191	255	
2143.376	1	1	0	0	0.21892	0.052439	0.061498	0.14785	0.21147	0.078983	0.14816	0.14592	0.2524	0.078868	0.24007	0.16559	0.2303	0.082798	0.05249	0.11171	-1.6625	-2.3042	-2.6167	-2.1479	-2.4896	-2.3563	-2.0979	-2.8125	-2.0896	-2.2792	-2.7979	-2.0021	-2.6604	-2.4688	-1.8646	-2.7604	278.936	276.344	329.907	307.519	360.689	335.010	284.941	119.737	227.954	440.369	445.653	361.260	310.706	408.827	381.347	297.521	0.000443	0.0011374	0.00016098	1202.7	1.6292e-05	9.8045e-06	1272.4	235.23	1.1493e-05	9.769e-06	298.17	83.038	64.864	18.96	3.898e-06	26.446	0.0013525	0.0013628	0.00037869	1334.2	1.491e-05	1.4985e-05	1384.5	282.91	1.4836e-05	1.4824e-05	394.75	111.58	87.23	27.346	1.4677e-05	37.477	329.616	333.407	243.799	102.437	184.870	363.904	102.903	110.377	417.624	211.308	110.298	116.503	117.326	123.654	447.098	123.726	-8191	255	
2143.472	1	1	0	0	0.15674	0.12482	0.032574	0.39592	0.4268	0.11034	0.20308	0.056216	0.16563	0.26373	0.1285	0.24466	0.14373	0.33789	0.076945	0.058382	-1.8312	-2.2042	-2.6771	-2.2208	-2.5563	-2.45	-2.2542	-2.7271	-2.1479	-2.2042	-2.8542	-2.0646	-2.5917	-2.6875	-1.875	-2.7	256.564	378.494	102.362	425.085	389.639	186.652	376.216	335.497	360.032	117.476	346.743	135.662	151.563	134.452	401.122	277.853	0.0014408	0.00028446	8.0647e-05	1204.1	9.0205e-06	1.2158e-06	1279.2	235.25	1.0856e-05	8.2706e-06	300.17	83.587	65.307	19.089	4.468e-06	26.243	0.0013292	0.0013423	0.00037351	1330.5	1.461e-05	1.464e-05	1382.5	282.37	1.4476e-05	1.454e-05	394.44	111.1	87.295	27.489	1.4759e-05	37.611	314.295	158.368	370.016	102.282	155.965	257.966	102.755	110.195	439.922	412.877	109.764	116.804	117.100	123.611	392.530	123.070	-8191	255	
2143.568	1	1	0	0	0.17077	0.164	0.14335	0.1083	0.13786	0.12773	0.042397	0.31198	0.055234	0.16791	0.1027	0.10863	0.095728	0.22242	0.22056	0.27979	-1.8771	-2.0396	-2.6896	-2.2104	-2.4167	-2.5646	-2.1542	-2.7771	-2.2042	-2.0417	-2.9646	-2.0646	-2.3375	-2.7792	-1.9458	-2.7188	148.620	350.286	313.960	104.332	107.631	425.355	350.049	328.653	149.126	341.596	380.498	432.990	389.963	129.899	443.264	428.680	0.00076491	0.00043133	0.00018055	1207.6	8.1368e-06	1.1129e-05	1278.8	235.64	8.165e-06	8.6697e-06	301.3	83.198	65.569	19.159	9.9373e-06	26.466	0.0013395	0.0013549	0.00037921	1337.7	1.4895e-05	1.4993e-05	1386.9	284.08	1.4951e-05	1.5085e-05	399.75	112.78	88.49	27.876	1.5219e-05	38.258	337.705	397.829	316.428	102.275	220.373	277.803	102.823	110.343	226.775	306.004	109.819	116.855	116.470	123.811	242.685	123.422	-8191	255	
2143.664	1	1	0	0	0.042695	0.15798	0.29289	0.1499	0.030253	0.13773	0.27484	0.28911	0.21962	0.14541	0.053854	0.23173	0.11832	0.065838	0.34254	0.14319	-2.0229	-1.9917	-2.6188	-2.2771	-2.0604	-2.7938	-2.1833	-2.4542	-2.2188	-1.9104	-2.8063	-2.2188	-2.1104	-2.6896	-1.975	-2.7583	310.764	111.178	209.622	110.182	134.992	267.491	413.792	376.261	137.837	346.993	345.107	180.456	118.332	442.835	122.921	254.674	0.0010943	0.0016453	0.00028516	1210.1	3.254e-06	6.6403e-06	1280.1	237.25	1.5577e-05	1.6533e-05	301.85	84.114	65.822	19.154	1.0934e-05	26.52	0.001381	0.001394	0.00038817	1343.3	1.5258e-05	1.529e-05	1391.2	285.92	1.52e-05	1.5177e-05	400.79	112.8	88.301	27.864	1.4988e-05	38.031	370.301	199.363	370.480	102.428	263.127	281.542	102.814	110.239	220.972	332.516	110.215	116.995	117.046	123.875	180.840	123.528	-8191	255	
2143.760	1	1	0	0	0.25998	0.29104	0.13124	0.21606	0.34376	0.28541	0.19145	0.18232	0.15009	0.10865	0.13711	0.23624	0.11492	0.10853	0.46491	0.20502	-2.0875	-1.8542	-2.7917	-2.1979	-2.0771	-2.6604	-1.9708	-2.4833	-2.3354	-1.8563	-2.7292	-2.3208	-1.9458	-2.8167	-2.0083	-2.3312	427.959	341.544	250.380	353.710	439.694	431.108	417.565	162.296	418.634	198.983	416.673	151.879	93.475	396.150	115.165	358.264	0.0013295	0.00029035	0.00020646	1212.5	1.6958e-05	1.0227e-05	1283.2	237.53	1.4502e-05	1.0457e-05	301.31	83.888	65.499	19.221	1.0637e-05	26.602	0.0013513	0.0013603	0.00038014	1340.5	1.4865e-05	1.4859e-05	1389.6	284.44	1.4872e-05	1.4828e-05	397.22	112.03	87.995	27.728	1.4787e-05	37.85	301.906	341.688	445.307	102.130	310.422	188.208	102.767	110.386	192.790	235.083	110.437	116.512	117.050	123.497	365.646	122.830	-8191	255	
2143.881	1	1	0	0	0.20552	0.013627	0.12715	0.21872	0.10544	0.11313	0.20024	0.16237	0.059682	0.15897	0.28681	0.20591	0.096372	0.13121	0.11993	0.1684	-2.2188	-2.0604	-2.6292	-2.4	-1.9958	-2.6292	-2.3271	-2.2521	-2.5875	-1.9396	-2.6271	-2.2687	-2.0396	-2.7938	-2.0271	-2.3583	278.888	208.333	341.196	131.569	298.181	425.105	402.991	383.996	220.049	132.870	431.179	106.273	175.849	408.942	331.340	185.107	0.00078251	0.00075427	0.0001352	1212	8.6606e-06	3.4627e-06	1279.3	237.45	6.4076e-06	9.3062e-06	302.76	83.424	65.511	19.219	1.2088e-05	26.794	0.001333	0.0013449	0.0003751	1337.6	1.4702e-05	1.4643e-05	1386.6	282.93	1.4634e-05	1.4619e-05	395.18	111.78	87.667	27.576	1.4591e-05	37.685	304.338	386.286	176.090	102.546	248.607	106.925	102.599	110.550	255.853	423.686	110.108	116.434	116.966	123.361	294.891	123.186	-8191	255	
2143.975	1	1	0	0	0.15626	0.16001	0.10396	0.55687	0.075434	0.14272	0.17338	0.093218	0.046585	0.18693	0.058843	0.21593	0.030009	0.056362	0.21508	0.15273	-2.2417	-1.8542	-2.6708	-2.5687	-1.9958	-2.8604	-2.3167	-2.2562	-2.6667	-1.8646	-2.6979	-2.5146	-2.0375	-2.8917	-2.3604	-2.1667	246.735	425.714	311.495	407.578	138.358	400.190	315.719	173.706	395.368	305.693	152.122	319.526	108.662	239.940	258.307	102.685	0.00028139	0.0012642	0.00036623	1210.9	1.3422e-05	9.3667e-06	1280.8	236.87	6.298e-06	1.0402e-05	303.74	84.005	65.817	19.161	7.2659e-06	26.91	0.0013162	0.0013269	0.00037006	1335.5	1.4473e-05	1.4629e-05	1386.9	283.7	1.4646e-05	1.4691e-05	397.09	112.15	87.572	27.611	1.4733e-05	37.907	277.062	137.349	121.726	102.383	124.197	218.269	102.885	110.332	155.866	444.061	110.118	116.683	116.920	123.759	376.831	123.172	-8191	255	
2144.072	1	1	0	0	0.060383	0.21216	0.10343	0.17385	0.29241	0.05495	0.30836	0.059459	0.034492	0.2982	0.1508	0.29238	0.1845	0.21633	0.064166	0.22413	-2.3708	-1.9688	-2.4646	-2.6104	-1.7812	-2.6333	-2.3063	-2.1667	-2.6917	-1.9708	-2.4646	-2.8042	-2.1146	-2.7292	-2.3438	-1.9854	392.130	163.454	106.738	378.113	124.036	122.865	445.189	436.380	387.172	345.147	422.654	427.054	411.633	418.556	200.679	94.143	0.00086538	0.00072368	0.00029044	1209.5	5.5557e-06	9.9358e-06	1277.8	238.05	4.8055e-06	3.8953e-06	299.58	83.581	65.574	19.285	2.5255e-05	26.854	0.0013261	0.0013423	0.00037206	1336.5	1.4566e-05	1.4598e-05	1384.9	283.52	1.4622e-05	1.4649e-05	395.3	111.81	87.597	27.622	1.4648e-05	37.81	344.217	385.082	182.351	102.346	275.670	226.871	102.685	109.826	355.195	373.343	109.838	116.809	116.751	123.839	319.564	123.472	-8191	255	
2144.169	1	1	0	0	0.11633	0.17089	0.065129	0.2328	0.1172	0.21514	0.28984	0.1848	0.27804	0.029969	0.19028	0.16634	0.085365	0.24653	0.11389	0.17645	-2.3396	-2.1521	-2.3229	-2.6292	-1.8333	-2.6583	-2.4729	-2.0396	-2.7396	-2.1333	-2.2792	-2.9896	-2.0271	-2.5729	-2.5521	-1.9792	213.977	154.659	285.955	114.778	202.813	303.154	442.938	352.257	436.965	203.643	210.499	238.160	190.214	443.948	361.263	116.462	0.00049749	0.00075421	0.00015765	1211.1	1.2823e-05	1.1012e-05	1283.6	236.26	1.0353e-05	8.7318e-06	299.62	82.845	65.116	19.404	3.6313e-06	26.562	0.0013259	0.0013337	0.00037169	1337.9	1.457e-05	1.4605e-05	1387.8	283.25	1.4581e-05	1.4566e-05	395.71	111.98	87.575	27.666	1.4763e-05	37.89	319.439	301.443	205.998	102.626	416.617	432.134	102.879	110.286	191.902	375.871	110.099	117.085	116.699	123.226	187.939	123.078	-8191	255	
2144.288	1	1	0	0	0.15714	0.10339	0.25156	0.30056	0.27151	0.20294	0.13538	0.10871	0.074835	0.13294	0.096818	0.22238	0.068463	0.1507	0.11141	0.31514	-2.2354	-2.1479	-2.1417	-2.9208	-1.7646	-2.4083	-2.675	-1.9979	-2.6604	-2.2812	-2.1604	-2.7812	-1.9333	-2.4896	-2.6625	-1.8687	266.814	337.748	242.442	413.964	400.936	407.152	372.071	404.168	293.698	249.303	399.132	332.484	242.240	133.565	122.647	434.659	0.0016005	0.00099967	0.00027604	1207.4	8.6326e-06	1.442e-05	1281	236.84	1.0824e-05	4.6661e-06	303.19	82.82	65.406	19.077	9.655e-06	26.546	0.0013367	0.0013483	0.00037527	1339.1	1.4772e-05	1.4821e-05	1388.5	283.27	1.4816e-05	1.479e-05	397.5	112.01	87.77	27.685	1.4845e-05	37.843	340.120	113.025	270.024	102.662	160.568	239.644	102.948	110.577	258.010	254.369	109.928	116.856	116.549	124.339	306.024	123.454	-8191	255	
2144.360	1	1	0	0	0.11744	0.13521	0.027161	0.27521	0.28642	0.066859	0.058403	0.32264	0.035268	0.20175	0.10636	0.21775	0.20443	0.2138	0.12415	0.11997	-2.1583	-2.3312	-2.1417	-3.2292	-2.2313	-2.4708	-2.8917	-2.0354	-2.6583	-2.4896	-1.9521	-2.8229	-2.15	-2.3167	-2.6604	-2.1083	284.429	185.875	287.699	415.660	143.438	267.244	441.159	362.665	288.391	307.103	424.228	371.406	244.498	428.904	267.788	417.405	0.0010849	0.00037877	0.00024125	1207.9	2.7019e-06	1.7025e-05	1282	237.28	8.4773e-06	2.4605e-06	303.55	83.396	64.864	19.188	6.6587e-06	26.695	0.0013401	0.0013459	0.00037463	1335.7	1.467e-05	1.4722e-05	1386.3	283.58	1.4636e-05	1.4624e-05	396.43	111.78	87.548	27.646	1.4639e-05	37.751	346.992	355.504	427.177	102.396	156.604	167.517	102.916	110.430	290.475	244.832	110.369	116.807	117.311	123.516	111.381	123.520	-8191	255	
2144.456	1	1	0	0	0.19221	0.0325	0.10673	0.096592	0.25401	0.096575	0.35323	0.15832	0.20754	0.17493	0.069114	0.10711	0.25422	0.22123	0.20241	0.34957	-2.1208	-2.3646	-1.9167	-2.8229	-2.1604	-2.2812	-2.9021	-2.1375	-2.6333	-2.3937	-2.125	-2.8812	-2.0563	-2.2229	-2.7083	-2.0292	174.015	282.560	230.491	261.719	260.688	282.826	395.723	394.137	356.178	93.828	211.120	128.513	401.459	363.584	125.132	386.945	0.00070473	0.00075353	0.00016158	1211.3	6.7175e-06	1.0766e-05	1275.5	238.26	9.4216e-06	4.1086e-06	300.91	82.986	65.207	19.192	4.129e-06	26.693	0.0013295	0.0013323	0.00037264	1337.1	1.4552e-05	1.4634e-05	1385.5	283.39	1.4531e-05	1.4603e-05	395.07	111.84	87.091	27.66	1.4568e-05	37.696	370.688	193.959	306.745	102.889	313.330	219.680	102.982	110.360	148.215	341.908	110.143	116.883	116.820	124.259	198.181	123.224	-8191	255	
2144.577	1	1	0	0	0.13871	0.069805	0.32674	0.15208	0.21604	0.41908	0.20965	0.25522	0.31276	0.13479	0.28414	0.22524	0.22132	0.2014	0.18341	0.26244	-2.1729	-2.6688	-2.075	-2.925	-2.3604	-2.1312	-2.8812	-2.0438	-2.4875	-2.475	-1.975	-2.6542	-2.3563	-2.0729	-2.8146	-2.1604	124.576	353.832	362.868	415.392	277.645	343.120	398.163	395.929	228.889	250.719	426.276	408.803	194.663	315.758	222.406	429.273	0.00086126	0.00072798	0.00021163	1211	5.5244e-06	1.1343e-05	1285.2	238.98	1.0717e-05	1.1968e-05	301.87	82.979	64.759	19.258	1.2923e-05	26.738	0.0013191	0.001326	0.00037047	1334.6	1.4545e-05	1.4577e-05	1387.1	283.7	1.4545e-05	1.4593e-05	395.28	111.77	87.174	27.519	1.4583e-05	37.638	328.605	142.923	100.416	102.500	372.646	229.420	103.012	110.276	257.224	320.463	110.193	116.705	116.935	123.792	250.123	123.774	-8191	255	
2144.673	1	1	0	0	0.27355	0.048276	0.088231	0.16156	0.35921	0.24475	0.15025	0.29801	0.14509	0.18413	0.25267	0.048318	0.22848	0.12356	0.2635	0.11186	-1.9604	-2.5167	-1.8396	-2.7812	-2.3292	-2.075	-2.9437	-2.2313	-2.2188	-2.5229	-2.1833	-2.6813	-2.3375	-2.0604	-2.8083	-2.0604	313.193	244.185	365.634	106.410	266.929	271.214	328.093	123.578	119.477	270.421	369.899	310.924	421.426	114.963	221.785	439.323	0.0011447	2.1035e-05	0.00026069	1213.8	3.6241e-06	5.455e-06	1284.2	235.48	1.3026e-06	5.568e-06	300.36	83.258	65.203	19.298	4.6091e-06	26.733	0.0013125	0.0013229	0.0003672	1333.1	1.4314e-05	1.4381e-05	1380.9	281.36	1.4315e-05	1.4342e-05	391.93	110.67	86.643	27.317	1.4194e-05	37.362	346.297	234.200	243.306	102.691	207.750	324.776	102.939	110.007	323.560	273.668	110.301	117.032	117.352	123.773	267.192	123.950	-8191	255	
2144.769	1	1	0	0	0.26094	0.14261	0.29611	0.24352	0.20767	0.078534	0.13284	0.25106	0.046237	0.10203	0.14804	0.14361	0.17145	0.038655	0.16074	0.13359	-1.9062	-2.6583	-1.925	-2.6646	-2.4833	-2.1833	-2.9729	-2.2292	-2.05	-2.7229	-1.8375	-2.6667	-2.4292	-1.8458	-2.5729	-2.2188	109.397	315.938	325.520	435.070	148.642	94.809	366.567	424.609	147.304	350.531	321.532	160.562	313.409	272.879	367.015	325.958	0.00066808	0.00065466	6.1406e-05	1208.7	3.6885e-06	1.6588e-05	1282.4	236.89	1.4895e-05	1.7736e-06	301.06	83.899	65.38	19.219	9.5975e-06	26.74	0.0012921	0.0012947	0.0003606	1328.4	1.4049e-05	1.416e-05	1377.9	281.06	1.4162e-05	1.4098e-05	390.14	110.46	86.372	27.125	1.4047e-05	37.13	311.346	321.979	246.069	103.030	194.172	222.211	102.939	110.288	226.592	338.039	110.428	117.468	117.060	124.122	291.217	123.499	-8191	255	
2144.865	1	1	0	0	0.12899	0.11939	0.25117	0.27444	0.079295	0.010423	0.16317	0.063601	0.18034	0.26811	0.1719	0.075661	0.18633	0.097948	0.045562	0.023603	-1.5063	-2.6021	-1.9729	-2.4458	-2.3583	-1.9833	-3.0333	-2.2167	-2.2625	-2.6583	-1.9229	-2.4604	-2.8063	-2.0542	-2.5062	-2.2896	194.809	193.037	121.659	350.251	224.870	439.252	348.673	437.376	331.113	400.354	131.784	243.503	406.742	439.247	452.161	215.042	0.0010599	0.0012822	0.00037683	1205.3	1.4107e-05	4.1807e-06	1283.1	237.02	1.6149e-05	1.2296e-05	301.76	82.817	65.083	19.143	1.8803e-06	26.614	0.0012671	0.0012716	0.00035166	1322.7	1.3752e-05	1.3754e-05	1374.8	278.74	1.3629e-05	1.3682e-05	385.75	108.94	85.302	26.785	1.3632e-05	36.748	344.222	411.477	329.054	102.845	238.874	290.041	102.958	110.638	248.225	388.964	110.598	117.208	117.097	124.170	420.035	123.589	-8191	255	
2144.961	1	1	0	0	0.20113	0.25274	0.14336	0.10749	0.082731	0.19911	0.14046	0.32224	0.20239	0.12877	0.1771	0.14813	0.076043	0.35868	0.17979	0.14599	-1.65	-2.5312	-1.9646	-2.3187	-2.5563	-1.9396	-2.6375	-2.3521	-1.8292	-2.7292	-2.0958	-2.2854	-2.5583	-1.9854	-2.4271	-2.4729	157.687	186.023	286.158	421.784	291.055	425.156	371.967	296.333	274.140	191.525	106.432	345.724	443.280	422.609	206.554	158.820	0.00068675	0.0003344	0.00016706	1207.5	5.3646e-06	8.0896e-06	1277.1	237.25	6.9215e-06	4.0473e-06	301.7	83.762	65.461	19.09	7.0989e-06	26.606	0.0012287	0.0012383	0.00034608	1319.1	1.3437e-05	1.3571e-05	1371.3	278.18	1.3573e-05	1.3537e-05	385.34	108.96	85.355	26.837	1.3603e-05	36.726	312.056	405.004	173.195	102.914	433.239	274.637	103.207	110.804	248.040	361.108	110.218	117.293	117.297	123.928	366.756	123.520	-8191	255	
2145.056	1	1	0	0	0.16822	0.058242	0.059427	0.3063	0.10636	0.084436	0.24259	0.073037	0.32918	0.0028527	0.45154	0.11898	0.21685	0.13173	0.10694	0.053368	-1.6292	-2.5708	-2.0854	-2.2646	-2.6792	-1.8958	-2.8104	-2.6	-1.925	-2.5292	-2.1917	-2.1479	-2.8292	-1.9917	-2.3229	-2.6667	377.497	204.705	265.126	415.961	270.866	301.696	339.345	94.561	425.040	272.838	105.043	230.596	374.898	294.543	376.853	265.482	0.00079784	0.0013771	0.0002247	1208.9	3.4557e-06	9.7802e-06	1284.3	234.91	1.2623e-05	1.0005e-05	300.33	83.587	64.819	19.13	1.3992e-05	26.657	0.0012285	0.0012414	0.00034323	1319	1.3466e-05	1.3464e-05	1370.2	276.72	1.3406e-05	1.3411e-05	383.37	108.62	84.747	26.655	1.3424e-05	36.502	327.533	436.055	153.855	102.611	172.275	345.156	103.494	110.958	228.344	377.774	111.045	117.510	117.587	124.396	330.890	124.113	-8191	255	
2145.152	1	1	0	0	0.3816	0.085318	0.37323	0.18023	0.18419	0.10491	0.29325	0.2571	0.32249	0.13551	0.18049	0.045756	0.32771	0.2052	0.11515	0.28089	-1.5896	-2.7854	-2.3083	-2.2896	-2.7417	-2.1292	-2.7521	-2.6333	-2.0479	-2.7167	-2.3958	-2.1604	-2.4583	-1.9521	-2.2875	-2.6458	200.224	125.876	393.700	399.203	114.398	269.077	368.952	426.276	178.972	139.649	388.345	245.206	393.932	113.712	256.459	104.814	0.00026914	0.00076712	0.00017446	1200.2	1.1454e-05	5.1589e-06	1277.2	237.98	2.1387e-06	4.852e-06	300.46	83.893	65.069	19.077	1.2178e-05	26.503	0.0012154	0.0012231	0.00033853	1311.2	1.333e-05	1.3423e-05	1365.3	277.16	1.3432e-05	1.3379e-05	383.99	108.75	85.227	26.694	1.3528e-05	36.653	370.482	206.380	218.231	103.169	240.081	110.829	103.656	110.643	380.998	171.758	110.365	117.273	117.378	124.728	199.342	124.146	-8191	255	
2145.250	1	1	0	0	0.040596	0.39232	0.1303	0.10516	0.3973	0.10555	0.10884	0.40901	0.1332	0.19779	0.090456	0.17181	0.11089	0.090904	0.061559	0.27286	-1.6063	-2.6292	-2.4125	-1.975	-2.8479	-2.1458	-2.5333	-2.9375	-2.0646	-2.5417	-2.4396	-2.0333	-2.825	-2.1042	-2.0792	-2.6229	222.925	382.286	273.712	325.001	168.257	227.852	372.209	400.948	222.734	303.718	408.011	368.921	137.927	373.474	150.135	439.313	0.00052143	0.00053162	0.0001477	1211.5	2.7551e-06	3.8491e-06	1274	237.53	4.4307e-06	1.0419e-05	301.99	82.628	64.94	19.079	2.0178e-05	26.421	0.0012307	0.0012439	0.00034833	1318.7	1.3662e-05	1.3626e-05	1369	278.55	1.3703e-05	1.3767e-05	386.71	109.35	85.391	26.942	1.3867e-05	36.939	388.301	128.952	102.896	103.275	405.018	168.593	103.747	111.076	306.961	309.954	110.970	117.184	117.524	124.218	233.950	124.010	-8191	255	
2145.369	1	1	0	0	0.32188	0.27983	0.16276	0.39323	0.25951	0.24058	0.12652	0.23355	0.042151	0.080914	0.11615	0.28846	0.093752	0.41135	0.18757	0.28883	-1.4708	-2.575	-2.5312	-2.0354	-2.6875	-2.1479	-2.0583	-2.8896	-1.9896	-2.4604	-2.7313	-1.9792	-2.8646	-2.2604	-2.2542	-2.7083	135.193	193.046	108.206	440.973	288.826	126.114	345.634	420.668	408.333	372.808	241.288	418.601	362.467	350.956	178.755	265.034	0.001129	0.00073094	9.8472e-05	1210.2	6.8034e-06	2.2498e-06	1275	235.58	1.8999e-06	1.4238e-06	301.33	83.612	64.769	19.181	5.3169e-06	26.48	0.0012546	0.0012611	0.00035098	1324.1	1.3844e-05	1.3802e-05	1371.7	279	1.3841e-05	1.3864e-05	387.63	109.73	85.891	27.064	1.403e-05	37.089	357.472	291.721	154.055	102.957	257.042	102.443	103.392	110.681	164.857	92.793	110.723	117.794	117.873	124.801	244.737	123.576	-8191	255	
2145.465	1	1	0	0	0.30178	0.14496	0.069967	0.2109	0.077562	0.082565	0.14878	0.21166	0.40591	0.07582	0.16246	0.08261	0.1261	0.3561	0.1754	0.075433	-1.6812	-2.6729	-2.6604	-2.0583	-2.7146	-2.2625	-2.1854	-2.8375	-2.0604	-2.4083	-2.7021	-1.8375	-2.6833	-2.3854	-1.9438	-2.7479	446.500	105.744	397.117	449.734	95.260	350.625	345.447	302.544	239.520	295.012	370.631	229.048	413.407	311.212	443.503	267.439	0.00044395	0.00076504	0.00023088	1201.2	7.8949e-06	4.4607e-07	1279.5	236.39	1.1056e-05	9.8437e-06	304.77	83.235	64.724	19.255	1.2244e-05	26.501	0.0012755	0.0012881	0.00035851	1323.9	1.4096e-05	1.417e-05	1374.9	279.92	1.4162e-05	1.4127e-05	391.23	110.29	86.242	27.159	1.4193e-05	37.198	358.441	310.515	370.281	103.089	185.047	201.645	103.551	110.587	334.544	406.133	110.686	117.673	117.743	124.035	307.073	123.918	-8191	255	
2145.561	1	1	0	0	0.20804	0.31675	0.38489	0.11775	0.12319	0.45773	0.19297	0.21667	0.098369	0.29894	0.20579	0.098085	0.31197	0.071006	0.31772	0.068514	-1.8042	-2.1271	-2.6375	-2.1458	-2.6188	-2.5021	-2.0333	-2.8854	-1.9896	-2.1542	-2.7646	-1.9604	-2.4417	-2.6167	-2.0708	-2.8688	143.443	170.294	300.533	353.175	302.534	111.336	351.647	393.579	223.898	388.172	118.824	327.513	428.681	430.508	382.566	149.737	0.000817	0.00062977	0.00028094	1205.5	5.7336e-06	7.3878e-06	1284.3	236.24	7.5797e-06	7.7919e-06	303.46	83.656	64.516	19.174	4.9347e-06	26.523	0.0012807	0.0012839	0.0003567	1322.7	1.3993e-05	1.3991e-05	1375.7	279.59	1.3897e-05	1.3878e-05	388.68	109.97	85.937	26.988	1.3904e-05	36.994	349.024	208.356	449.517	103.367	161.891	115.993	103.603	110.897	199.195	334.797	110.996	117.332	118.542	124.001	441.506	123.825	-8191	255	
2145.657	1	1	0	0	0.31757	0.336	0.072711	0.37459	0.099918	0.15267	0.38456	0.0079514	0.10511	0.14953	0.19597	0.27513	0.20844	0.087034	0.060826	0.11569	-1.8333	-2.1188	-2.75	-2.1125	-2.475	-2.4917	-2.05	-2.6729	-2.3896	-2.0854	-2.7875	-2.0604	-2.375	-2.6104	-1.8979	-2.8979	249.421	204.057	332.013	392.009	304.373	380.767	424.712	241.521	273.598	341.633	360.380	93.950	428.605	255.143	154.832	377.716	0.0011825	0.00019813	5.3669e-05	1203.5	2.6747e-06	1.6395e-06	1277.4	236.37	5.5443e-06	1.0011e-06	300.17	82.846	65.078	19.111	2.0697e-05	26.6	0.0012561	0.0012652	0.00035151	1320.9	1.38e-05	1.3846e-05	1371.1	279.24	1.3789e-05	1.3836e-05	386.8	109.34	85.507	26.826	1.3785e-05	36.865	324.238	125.833	281.204	103.098	379.437	414.243	103.431	110.769	111.306	145.774	110.161	118.006	117.896	124.431	245.178	123.941	-8191	255	
2145.753	1	1	0	0	0.3258	0.16309	0.11653	0.12652	0.20024	0.2173	0.27262	0.26892	0.070936	0.12154	0.18057	0.068937	0.30319	0.07175	0.22426	0.18919	-1.9208	-2.05	-2.7562	-2.2896	-2.5458	-2.6604	-2.2417	-2.7146	-2.55	-2.0896	-2.6646	-2.1896	-2.3792	-2.8771	-1.8875	-2.6167	182.716	308.834	329.900	409.956	107.216	116.426	139.618	370.472	256.836	379.430	433.328	130.883	97.565	433.091	416.517	124.269	0.0010341	0.00021505	9.2249e-05	1206.5	1.1955e-05	2.4152e-06	1274.9	234.96	2.2942e-06	6.3861e-06	300.56	83.389	65.478	19.08	1.1796e-05	26.46	0.0012488	0.001254	0.00034943	1318.2	1.3665e-05	1.363e-05	1369.7	277.79	1.3683e-05	1.368e-05	385.5	109.26	85.592	26.83	1.3793e-05	36.823	346.285	203.888	435.705	103.192	321.068	293.421	103.248	110.194	241.707	170.301	109.943	117.206	117.235	123.835	195.013	124.130	-8191	255	
2145.849	1	1	0	0	0.31288	0.26142	0.0040322	0.25667	0.17851	0.10337	0.059438	0.06677	0.1647	0.24015	0.14623	0.29408	0.2421	0.17616	0.14557	0.17669	-2.0708	-1.8896	-2.8187	-2.2188	-2.0167	-2.7292	-2.2188	-2.75	-2.5979	-1.9521	-2.8958	-2.2833	-1.9771	-2.7938	-2.0271	-2.4354	389.305	277.427	199.152	421.957	296.260	309.578	405.033	371.786	230.535	115.393	278.295	133.196	138.259	230.421	423.390	415.739	0.00085144	0.0009502	0.00015533	1201.7	1.0528e-05	1.4412e-05	1276.3	233.71	1.0247e-05	1.0088e-05	300.26	83.398	64.841	19.072	1.0277e-05	26.357	0.0012431	0.0012531	0.00034836	1316.4	1.3607e-05	1.367e-05	1368.5	277.03	1.3671e-05	1.3679e-05	385.79	109.29	85.226	26.82	1.364e-05	36.703	319.859	182.891	111.884	102.905	106.491	317.008	103.146	110.937	448.553	192.019	110.662	117.180	117.508	124.385	179.346	124.371	-8191	255	
2145.970	1	1	0	0	0.18424	0.10672	0.081315	0.30147	0.1156	0.18994	0.36245	0.11617	0.12701	0.17867	0.17306	0.17273	0.30041	0.19673	0.14829	0.10426	-2.1604	-2.0271	-2.7396	-2.5417	-1.9479	-2.7542	-2.1208	-2.5229	-2.5938	-1.9542	-2.6396	-2.3396	-2.0938	-2.6396	-1.9479	-2.2938	99.921	127.456	373.105	429.631	282.498	192.715	364.347	419.882	136.136	418.934	311.453	102.450	258.868	304.129	288.031	138.931	0.0013024	0.000504	0.00026986	1203	4.8099e-06	8.0688e-06	1272.6	235.27	3.6254e-06	8.662e-06	299.48	83.63	64.782	19.121	1.1293e-05	26.609	0.001232	0.001247	0.00034454	1316.2	1.3596e-05	1.3566e-05	1366.6	277.39	1.3642e-05	1.3648e-05	385.14	109.09	85.14	26.774	1.3705e-05	36.853	346.353	292.486	139.219	102.888	194.054	312.695	103.288	110.843	199.725	177.267	111.149	117.849	117.827	124.602	199.893	123.685	-8191	255	
2146.064	1	1	0	0	0.16739	0.40917	0.036753	0.30856	0.23621	0.26182	0.19088	0.10711	0.21298	0.20849	0.10026	0.23009	0.11497	0.18643	0.22652	0.12733	-2.1375	-1.9667	-2.5312	-2.6375	-2.0812	-2.5896	-2.2229	-2.2271	-2.6688	-2.05	-2.8708	-2.4708	-2.1125	-2.8104	-2.1521	-2.4125	245.353	239.310	319.775	356.555	247.330	296.681	349.049	394.436	130.343	204.666	421.205	448.279	434.632	94.229	383.485	108.604	0.0011522	0.0005927	0.00018969	1203	6.9031e-06	2.2868e-06	1274.8	236.99	6.21e-06	1.4814e-06	300.09	83.261	64.941	19.129	4.2876e-06	26.518	0.0012441	0.0012461	0.00034731	1314.6	1.3595e-05	1.3606e-05	1364.6	277.6	1.3571e-05	1.3547e-05	384.93	108.61	84.941	26.767	1.3605e-05	36.659	340.313	172.294	214.037	102.820	223.838	256.871	103.574	110.669	225.271	415.663	111.194	117.768	118.021	124.247	333.905	124.360	-8191	255	
2146.161	1	1	0	0	0.38215	0.081502	0.14653	0.27258	0.038281	0.16933	0.084415	0.26621	0.29624	0.30465	0.2066	0.076367	0.2866	0.074718	0.11965	0.23338	-2.2354	-1.8563	-2.5292	-2.575	-2.0938	-2.6979	-2.4917	-2.1042	-2.7604	-2.0521	-2.675	-2.7333	-1.9375	-2.6729	-2.2687	-2.1937	365.740	303.980	232.649	365.659	305.645	290.876	366.533	187.089	387.651	236.847	379.877	374.577	401.165	350.730	109.644	425.919	0.00078011	0.00083269	0.00048432	1201.7	2.6081e-06	2.0645e-05	1276.7	235.68	7.6135e-06	2.3859e-06	301.35	82.944	64.945	19.254	3.697e-06	26.599	0.0012396	0.0012425	0.00034665	1312.6	1.3536e-05	1.3551e-05	1365.8	277.17	1.3568e-05	1.3675e-05	385.95	109.07	85.54	26.879	1.3759e-05	36.73	346.566	448.811	147.435	103.028	178.306	209.775	103.412	110.999	196.218	248.408	110.826	117.003	117.933	124.512	206.172	124.471	-8191	255	
2146.257	1	1	0	0	0.1813	0.20799	0.20819	0.23988	0.16463	0.14598	0.25564	0.16689	0.088876	0.067752	0.11262	0.10815	0.31831	0.073262	0.09354	0.17847	-2.4021	-2.175	-2.3688	-2.7208	-1.9833	-2.7208	-2.4375	-2.0812	-2.6292	-1.9229	-2.2875	-2.6437	-1.9854	-2.6875	-2.375	-2.1354	451.034	140.821	287.228	105.047	188.144	420.434	365.153	361.048	426.655	271.253	447.802	448.351	390.639	270.708	104.489	388.230	0.00055063	0.00075297	0.00013291	1208.1	4.3784e-06	7.87e-06	1273.9	237.44	8.7364e-06	5.4075e-06	297.26	84.326	65.228	18.995	8.8167e-06	26.445	0.0012483	0.0012537	0.00035089	1318.7	1.3729e-05	1.383e-05	1369.2	278.77	1.3815e-05	1.3882e-05	387.54	109.83	85.672	26.943	1.3923e-05	37.062	310.185	268.599	293.884	103.496	223.933	247.933	103.861	111.375	185.284	215.597	110.835	117.451	118.036	124.776	326.052	124.044	-8191	255	
2146.353	1	1	0	0	0.093759	0.24298	0.14709	0.24226	0.12761	0.17549	0.16232	0.28021	0.11793	0.2878	0.24488	0.25014	0.33317	0.11662	0.35093	0.19262	-2.3688	-2.1958	-2.2687	-2.6583	-1.9438	-2.4875	-2.6458	-2.075	-2.7562	-2.05	-2.2938	-2.9417	-2.1958	-2.4625	-2.4958	-2.2292	214.993	125.565	407.617	437.256	207.333	414.586	370.057	228.180	286.682	252.936	272.935	341.102	170.288	195.664	317.735	129.797	0.00092685	0.0012472	0.00039644	1203.2	6.8657e-06	7.173e-06	1274.8	235.38	7.8986e-06	1.0972e-05	301.8	83.257	64.833	19.138	4.7793e-06	26.806	0.0012648	0.0012776	0.00035651	1319.4	1.3935e-05	1.3958e-05	1369.5	278.96	1.3955e-05	1.4002e-05	388.54	110	85.969	27.108	1.4019e-05	37.149	320.476	172.788	357.347	103.351	229.712	308.670	103.986	111.440	433.662	186.339	110.683	117.999	117.102	124.888	286.463	124.258	-8191	255	
2146.449	1	1	0	0	0.052866	0.19267	0.13841	0.23287	0.1813	0.11818	0.23969	0.22541	0.16167	0.23338	0.14171	0.14898	0.1886	0.16121	0.18988	0.24492	-2.2604	-2.1354	-1.9479	-2.9437	-2.0312	-2.3625	-2.5708	-1.9125	-2.6646	-2.2354	-2.275	-2.8354	-2.1562	-2.3312	-2.5604	-2.0687	117.440	178.958	196.123	138.519	229.506	309.361	411.493	429.933	317.559	263.736	382.430	152.105	318.045	402.805	114.031	448.623	0.00078532	0.00039007	0.00051815	1201.4	6.2151e-06	7.3172e-06	1275	235.25	1.5936e-05	5.8557e-06	300.02	83.276	64.806	19.006	5.5705e-06	26.694	0.0012716	0.0012749	0.00035696	1321.1	1.3896e-05	1.3881e-05	1371.1	278.42	1.3899e-05	1.3912e-05	388.28	109.45	85.923	27.016	1.4046e-05	37.188	342.986	265.917	238.972	103.359	137.945	163.401	103.990	111.219	389.943	424.695	111.342	117.271	118.048	124.484	227.819	124.687	-8191	255	
2146.545	1	1	0	0	0.17371	0.082387	0.28254	0.15522	0.09057	0.11484	0.13958	0.016126	0.1809	0.18275	0.29635	0.18653	0.21704	0.19213	0.062203	0.27315	-2.2833	-2.2979	-1.925	-2.8146	-2.0104	-2.1833	-2.8917	-2.0167	-2.6667	-2.4458	-2.0771	-2.8021	-2.0417	-2.3563	-2.7458	-1.9604	143.230	369.918	263.551	150.923	368.015	440.294	110.145	445.161	323.665	210.327	324.765	260.692	398.760	419.107	224.559	351.978	0.00070835	0.00027258	7.26e-05	1201.9	6.4074e-06	6.5416e-06	1276.8	235.27	8.1115e-06	1.0173e-05	301.59	83.434	64.786	19.295	1.2475e-05	26.491	0.0012726	0.0012899	0.00035842	1321.8	1.4101e-05	1.4037e-05	1374.2	279.91	1.4002e-05	1.3982e-05	389.19	109.7	85.651	27.062	1.3868e-05	36.921	343.567	267.806	408.660	103.521	216.052	254.749	103.648	111.223	335.091	194.172	111.129	117.635	117.927	124.598	267.633	124.365	-8191	255	
2146.641	1	1	0	0	0.11602	0.1361	0.17447	0.27862	0.027566	0.31121	0.176	0.19311	0.16746	0.25088	0.1859	0.14184	0.18313	0.090712	0.042338	0.22117	-2.2958	-2.3958	-2.0062	-2.8458	-2.2042	-2.0396	-3.0125	-2.0792	-2.7625	-2.5417	-2.1229	-2.7021	-2.2292	-2.1354	-2.7896	-1.9104	450.030	371.212	420.873	358.011	123.977	156.714	398.470	286.767	438.831	114.526	392.331	442.194	388.760	391.851	336.621	124.208	0.0010581	0.0001576	0.00023018	1212	9.6635e-06	2.3264e-06	1275.9	234.64	1.2816e-05	1.1827e-05	302.51	82.96	64.389	19.125	3.101e-06	26.561	0.0012454	0.0012566	0.00034913	1317.9	1.3651e-05	1.3688e-05	1367.5	277.52	1.3723e-05	1.3732e-05	386.66	109.17	85.368	26.899	1.3852e-05	36.829	325.906	412.095	186.174	103.366	109.039	179.111	103.685	111.025	282.089	265.116	110.651	117.966	117.987	124.685	420.132	124.274	-8191	255	
2146.762	1	1	0	0	0.16023	0.20099	0.22312	0.15025	0.26481	0.12931	0.11764	0.32386	0.040746	0.15405	0.085996	0.27943	0.14137	0.11186	0.33787	0.18562	-2.1729	-2.7375	-2.0229	-2.8063	-2.1271	-2.2583	-2.9313	-2.05	-2.4375	-2.7146	-2.1625	-2.7188	-2.3479	-2.0917	-2.6396	-2.0375	126.574	443.858	291.024	376.977	119.079	436.564	138.584	432.424	197.880	102.545	429.626	450.922	157.236	180.511	113.058	281.663	0.00083354	0.00083051	0.00033109	1200.4	7.2401e-06	2.6296e-06	1275.5	236.23	5.9602e-06	7.8707e-06	302.24	83.482	65.116	18.938	3.3922e-06	26.673	0.0012505	0.001259	0.00035358	1318.7	1.3837e-05	1.3959e-05	1369.3	278.8	1.3965e-05	1.402e-05	387.85	109.68	86.026	27.032	1.4053e-05	37.068	305.459	292.484	375.618	103.609	223.450	106.696	103.873	111.391	247.173	230.757	110.760	117.709	117.618	125.088	448.812	124.104	-8191	255	
2146.834	1	1	0	0	0.48705	0.16642	0.18757	0.21907	0.087978	0.15752	0.17069	0.090366	0.15781	0.22827	0.36242	0.13099	0.12482	0.080389	0.16811	0.14288	-1.8667	-2.7208	-2.0625	-2.7333	-2.3792	-2.0438	-3.0458	-2.1979	-2.2021	-2.7604	-2.0917	-2.6688	-2.5396	-1.975	-2.7708	-2.2354	310.156	265.052	365.393	389.537	171.495	167.142	121.298	182.545	158.372	344.299	403.805	95.927	337.327	301.463	208.764	185.904	0.0007302	0.0002976	0.00023527	1199.5	9.4956e-06	5.8293e-06	1277.4	237.11	1.2724e-05	3.7812e-06	299.88	82.976	64.807	19.191	1.6081e-05	26.612	0.001268	0.0012864	0.00035564	1318.7	1.4029e-05	1.4004e-05	1371.6	279.54	1.4035e-05	1.3993e-05	387.49	109.66	85.699	27.023	1.3983e-05	37.011	341.709	108.229	209.630	103.434	213.336	220.129	103.784	110.903	202.097	321.323	110.668	117.747	117.801	123.915	290.797	123.778	-8191	255	
2146.930	1	1	0	0	0.16049	0.12507	0.26497	0.084199	0.2141	0.29803	0.26076	0.11272	0.22721	0.13738	0.086587	0.2402	0.22388	0.15643	0.16073	0.064204	-1.8375	-2.8125	-2.0062	-2.5917	-2.6208	-1.9729	-2.9917	-2.2438	-2.2062	-2.6417	-1.9271	-2.6604	-2.5792	-2.0542	-2.6833	-2.4062	314.661	423.728	227.043	438.701	437.621	305.157	398.443	264.808	332.889	228.890	399.604	448.689	383.638	131.032	139.857	387.603	0.00094073	0.0010079	0.00025493	1197.5	1.1583e-05	6.3498e-07	1273.9	235.08	3.3081e-06	4.1189e-06	303.77	83.539	64.698	19.15	4.0262e-06	26.686	0.0012675	0.0012772	0.0003551	1318.9	1.3925e-05	1.3949e-05	1371.2	278.78	1.3964e-05	1.3956e-05	388.47	109.62	85.595	26.933	1.3871e-05	36.937	334.685	100.461	196.333	103.416	93.974	128.539	103.984	110.946	256.164	202.820	110.910	117.766	118.147	125.445	170.838	124.203	-8191	255	
2147.050	1	1	0	0	0.21299	0.25049	0.054537	0.14472	0.2287	0.071112	0.21205	0.21067	0.35376	0.091853	0.17669	0.396	0.054152	0.3639	0.16119	0.055624	-1.7188	-2.6437	-2.0375	-2.5396	-2.6688	-1.9042	-2.8292	-2.4938	-1.9208	-2.9521	-2.3083	-2.4958	-2.7354	-1.9667	-2.6229	-2.4417	234.066	112.969	250.842	135.459	242.699	277.325	392.289	351.972	172.018	112.570	118.572	311.634	336.362	318.987	245.807	230.781	0.00099889	0.00073897	0.00038261	1198.3	8.251e-06	7.8782e-06	1271.9	236.03	1.0998e-05	1.0785e-05	299.76	83.141	64.421	19.091	2.7353e-06	26.664	0.0012518	0.0012601	0.00034944	1315.6	1.3664e-05	1.3805e-05	1367.8	277.94	1.3663e-05	1.3764e-05	384.89	109.31	85.252	26.825	1.381e-05	36.74	325.136	448.730	414.284	103.519	348.013	413.558	103.448	111.422	434.759	219.480	110.126	117.506	117.281	124.494	447.659	123.954	-8191	255	
2147.145	1	1	0	0	0.17612	0.18381	0.31603	0.37577	0.052667	0.18003	0.13314	0.24914	0.36388	0.11354	0.33596	0.33053	0.2246	0.091726	0.19682	0.0726	-1.6979	-2.6937	-1.8917	-2.3875	-2.5771	-2.0292	-2.8896	-2.5979	-1.9312	-2.8583	-2.3271	-2.2354	-2.7917	-2.1604	-2.625	-2.5146	285.123	450.564	404.456	316.586	241.075	134.810	445.627	402.119	440.407	126.685	434.327	431.281	421.249	446.796	330.221	219.695	0.0011452	0.00049447	0.00017357	1202	9.1204e-06	8.0521e-06	1276.9	234.66	3.8105e-06	1.1764e-06	301.49	83.578	64.78	19.105	7.5509e-06	26.423	0.0012542	0.0012632	0.00035255	1317.5	1.3922e-05	1.3926e-05	1370.3	277.85	1.3945e-05	1.41e-05	388.11	109.68	85.83	26.951	1.4008e-05	37.055	332.768	204.364	345.202	103.155	206.620	176.414	103.128	110.738	250.495	252.171	110.643	117.403	116.982	124.576	336.407	123.906	-8191	255	
2147.241	1	1	0	0	0.014574	0.092092	0.096768	0.065824	0.20925	0.059958	0.36342	0.26127	0.084822	0.16184	0.234	0.17901	0.044624	0.30936	0.12713	0.15281	-1.5562	-2.7062	-2.2188	-2.3771	-2.7958	-1.9479	-2.5646	-2.8417	-1.9667	-2.7917	-2.3896	-2.0708	-2.9104	-2.0125	-2.3604	-2.5812	284.674	188.258	104.050	112.305	397.266	157.708	365.886	337.289	98.458	123.978	387.980	422.694	395.012	395.504	452.173	233.891	0.0012794	0.0007686	0.00017818	1199.1	9.6051e-06	3.6145e-06	1280.3	235.56	1.3083e-05	6.022e-06	300.78	82.773	64.576	18.971	1.253e-05	26.73	0.0012692	0.0012757	0.0003553	1320	1.3967e-05	1.4009e-05	1373.1	278.69	1.3994e-05	1.4124e-05	389.32	109.91	86.458	27.102	1.4295e-05	37.337	370.322	147.073	134.476	103.166	289.412	114.726	103.430	110.271	206.977	154.882	110.597	117.843	117.562	124.659	209.627	123.627	-8191	255	
2147.362	1	1	0	0	0.18113	0.12118	0.084148	0.048993	0.033692	0.11259	0.2747	0.15534	0.26897	0.17706	0.24262	0.29777	0.25529	0.14415	0.33377	0.24386	-1.65	-2.7188	-2.2896	-2.1958	-2.7708	-2.1688	-2.6979	-2.7708	-2.0146	-2.4938	-2.3729	-1.95	-2.7896	-2.1167	-2.1937	-2.8146	146.434	324.640	183.776	311.768	198.639	281.261	398.406	381.483	196.718	135.627	371.444	447.724	347.384	264.530	421.530	153.854	0.0003494	0.00051475	9.204e-05	1196.1	5.6666e-06	1.7659e-05	1273.6	235.82	5.6018e-06	4.1364e-06	300.43	83.05	64.807	19.161	4.6122e-06	26.845	0.0012998	0.0013021	0.00036425	1322.7	1.4238e-05	1.4263e-05	1376.3	280.76	1.4152e-05	1.4267e-05	389.47	109.98	86.096	27.107	1.415e-05	37.222	340.092	344.706	101.579	103.228	359.375	423.583	103.348	110.840	432.712	355.796	110.312	117.708	117.791	124.191	116.332	124.116	-8191	255	
2147.458	1	1	0	0	0.48963	0.21545	0.30781	0.46006	0.15155	0.14433	0.059897	0.17755	0.10309	0.011832	0.18697	0.30509	0.10154	0.26601	0.27364	0.26311	-1.4604	-2.5354	-2.4792	-2.0521	-2.8438	-2.0958	-2.4146	-2.7042	-2.0208	-2.6208	-2.7229	-2.0479	-2.8125	-2.2625	-2.275	-2.8354	172.358	332.086	399.387	419.771	148.518	132.353	413.584	304.623	257.986	198.063	373.462	96.066	252.287	425.677	127.325	182.185	0.0011524	0.0012941	6.3907e-05	1207.3	4.4442e-06	8.5191e-06	1274.7	236.24	3.3808e-06	4.3944e-06	299.5	83.23	64.846	18.966	8.4469e-06	26.395	0.0012806	0.0012924	0.00036075	1324	1.4168e-05	1.4142e-05	1375	279.22	1.41e-05	1.4145e-05	388.39	110.16	86.276	27.053	1.4214e-05	37.102	360.649	279.105	302.814	102.897	393.574	97.341	103.550	111.254	193.284	283.192	110.750	118.357	118.147	124.733	431.638	124.187	-8191	255	
2147.529	1	1	0	0	0.089273	0.13738	0.064921	0.16608	0.2004	0.11976	0.23529	0.16888	0.23466	0.070632	0.050581	0.36409	0.10921	0.13033	0.15126	0.23551	-1.5875	-2.4333	-2.6479	-2.0625	-2.5938	-2.2521	-2.4125	-2.8979	-2.0687	-2.3937	-2.7896	-1.9396	-2.7271	-2.5312	-1.9813	-2.9479	314.050	185.278	153.089	406.279	141.488	161.724	390.270	435.242	338.540	126.987	179.579	412.230	445.744	288.230	339.392	415.675	0.00069844	8.102e-05	0.00012994	1201.2	4.4984e-06	8.001e-06	1280.9	234.82	1.5148e-05	5.7321e-06	301	82.714	65.023	19.029	1.4193e-05	26.497	0.0012799	0.0012869	0.00035846	1320.8	1.3996e-05	1.4087e-05	1372.4	279.52	1.4182e-05	1.4232e-05	390.88	110.59	86.608	27.247	1.4478e-05	37.388	317.666	162.026	205.909	103.236	287.308	253.601	103.647	110.986	394.021	164.171	110.998	117.684	117.611	125.072	221.369	124.621	-8191	255	
2147.650	1	1	0	0	0.20957	0.072553	0.077177	0.35711	0.10728	0.18138	0.19142	0.063821	0.12734	0.34477	0.21116	0.046988	0.079052	0.12295	0.056965	0.18446	-1.5854	-2.3083	-2.7646	-1.8208	-2.5687	-2.4271	-2.1562	-2.9188	-2.1396	-2.2687	-2.7896	-1.9958	-2.4896	-2.4313	-1.8417	-2.7146	362.249	439.863	361.752	422.368	99.687	317.898	307.522	137.311	119.243	272.346	290.892	149.067	95.311	125.037	184.482	211.832	0.00072573	0.00029893	0.00032348	1205.5	6.8472e-06	1.5505e-05	1273.2	235.71	8.0908e-06	1.0855e-05	300.62	82.591	64.39	18.98	1.6249e-05	26.566	0.0013104	0.001317	0.00036685	1326.1	1.444e-05	1.451e-05	1375.3	281.1	1.4433e-05	1.4417e-05	391.15	110.53	86.543	27.168	1.4331e-05	37.253	363.660	380.242	119.420	103.375	169.576	95.999	103.965	111.120	220.804	152.861	110.229	117.005	117.445	124.202	264.248	123.222	-8191	255	
2147.746	1	1	0	0	0.14749	0.32488	0.19882	0.2378	0.15569	0.33643	0.16755	0.1977	0.10261	0.090863	0.061586	0.10086	0.14345	0.061351	0.30796	0.33267	-1.7	-2.2229	-2.6937	-2.0604	-2.4542	-2.5	-2.0979	-2.9146	-2.2292	-2.1063	-2.9104	-1.9438	-2.4813	-2.6646	-1.9292	-2.6542	97.958	321.221	394.272	161.719	353.782	225.693	311.378	200.488	197.839	430.541	120.563	398.485	230.114	221.359	327.592	413.201	0.00085677	0.000899	0.00024703	1202.4	1.6192e-05	3.6948e-06	1276.4	237.1	6.8062e-06	3.4481e-06	300.75	83.478	64.992	19.181	6.789e-06	26.739	0.0012967	0.0013075	0.00036515	1324.1	1.4347e-05	1.4347e-05	1378.7	280.71	1.447e-05	1.4519e-05	392.02	111.18	87.012	27.357	1.4565e-05	37.529	326.122	340.497	334.229	103.098	268.391	338.863	103.666	110.860	452.192	424.106	110.225	117.135	117.696	124.445	340.030	123.499	-8191	255	
2147.842	1	1	0	0	0.13589	0.29128	0.069802	0.12323	0.24353	0.080115	0.11143	0.042284	0.091373	0.11935	0.21359	0.31164	0.15477	0.16082	0.21598	0.064415	-1.7188	-2.2167	-2.9292	-2.2354	-2.6125	-2.6771	-2.1208	-2.8438	-2.2562	-2.0708	-2.9542	-2.2021	-2.5771	-2.8375	-1.9229	-2.7083	101.440	418.376	395.731	427.012	108.061	213.566	352.386	268.587	158.762	433.289	262.899	408.538	304.985	315.383	204.757	313.546	0.0011125	0.00046979	0.00016705	1203.5	9.5131e-06	1.1758e-05	1281.2	235.3	6.2085e-06	5.7404e-06	299.54	83.507	65.25	18.969	1.1674e-05	26.608	0.0013165	0.0013213	0.00036706	1326.9	1.4441e-05	1.4472e-05	1378.1	280.39	1.4407e-05	1.4387e-05	390.64	110.73	86.692	27.226	1.4395e-05	37.312	338.223	426.069	149.569	103.013	214.998	424.077	103.409	110.576	228.637	278.001	110.991	117.374	117.261	124.163	357.660	123.875	-8191	255	
2147.963	1	1	0	0	0.24147	0.044992	0.065125	0.2213	0.14153	0.12953	0.19313	0.15636	0.05183	0.23082	0.14525	0.13569	0.37064	0.083143	0.2633	0.10684	-2.0729	-1.9562	-2.5479	-2.2313	-2.2354	-2.6396	-2.225	-2.6354	-2.6396	-1.9083	-2.9417	-2.2479	-2.4167	-2.725	-1.9146	-2.5687	341.627	227.131	96.528	361.427	261.214	421.097	373.708	325.267	120.630	229.920	230.286	378.115	389.103	449.729	219.648	423.801	0.001068	0.00060052	0.00050559	1202.1	4.2151e-06	6.0537e-06	1267.3	234.13	7.1882e-06	5.1444e-06	300	83.529	64.826	19.018	1.2979e-05	26.696	0.0012948	0.0013074	0.00036313	1322.2	1.4185e-05	1.4236e-05	1370.3	279.02	1.4046e-05	1.4043e-05	388.76	109.84	85.953	26.985	1.4048e-05	37.022	354.371	396.680	176.507	103.109	268.677	277.365	103.350	110.930	248.085	270.342	111.079	117.828	117.361	124.094	224.512	124.480	-8191	255	
2148.057	1	1	0	0	0.28333	0.058388	0.15037	0.25245	0.14676	0.10186	0.17027	0.23207	0.11447	0.11286	0.19857	0.16628	0.15406	0.057339	0.16759	0.12215	-2.0438	-2.0062	-2.7833	-2.3688	-2.1146	-2.7812	-2.0854	-2.5167	-2.4417	-2.1	-2.7875	-2.2729	-2.125	-2.8292	-2.0312	-2.6354	354.326	215.519	238.486	418.353	408.758	247.377	134.346	382.683	267.178	153.666	266.377	136.705	451.994	217.629	401.521	350.126	0.0010955	0.0020485	0.00042205	1199.7	1.1103e-05	2.6807e-06	1275.4	235.97	3.0722e-06	4.4089e-06	301.5	83.986	64.493	19.182	1.4031e-05	26.587	0.0012716	0.0012766	0.00035589	1319.9	1.3979e-05	1.3896e-05	1370	278.52	1.3893e-05	1.3969e-05	388.17	109.46	85.504	26.916	1.3833e-05	36.864	325.233	313.259	239.922	103.109	317.316	247.589	103.662	110.843	104.714	302.640	111.547	118.516	118.047	124.756	220.786	124.099	-8191	255	
2148.129	1	1	0	0	0.1735	0.32248	0.21658	0.49795	0.11255	0.21735	0.12179	0.25535	0.2784	0.15275	0.20448	0.13849	0.083943	0.17846	0.05907	0.15199	-2.2021	-1.8958	-2.6562	-2.4875	-2.0875	-2.6104	-2.3333	-2.2958	-2.7313	-1.8833	-2.6708	-2.4875	-1.9792	-2.6542	-2.2687	-2.2188	182.232	309.534	107.253	434.348	208.852	159.025	428.399	370.989	327.014	302.789	237.955	448.850	334.219	409.459	294.305	273.301	0.00055806	0.0005362	0.00024792	1201.5	2.7404e-06	1.3195e-05	1275.8	236.24	3.757e-06	1e-05	299.9	83.501	65.324	19.172	1.4376e-05	26.507	0.0012518	0.0012573	0.00034899	1315.6	1.3739e-05	1.3775e-05	1367.8	278.24	1.3868e-05	1.3878e-05	388.17	109.81	85.97	27.122	1.4336e-05	37.351	323.309	205.709	312.042	103.650	271.071	411.901	104.051	111.640	259.673	267.648	111.531	117.876	118.192	125.282	198.319	124.401	-8191	255	
2148.225	1	1	0	0	0.19222	0.19536	0.18177	0.26604	0.1424	0.33314	0.19004	0.32657	0.20799	0.27888	0.29934	0.027729	0.25063	0.14565	0.27732	0.20962	-2.4062	-1.6688	-2.6	-2.7646	-2.0833	-2.8438	-2.4833	-2.1792	-2.8229	-2.275	-2.7792	-2.5687	-1.8146	-2.6312	-2.1937	-2.0583	195.842	396.120	440.064	100.960	111.283	125.887	415.754	363.324	287.004	413.858	402.935	381.937	405.772	332.206	106.213	140.500	0.0011816	0.0013552	0.00026875	1204.1	3.909e-06	2.322e-06	1281.7	236.45	9.8078e-06	1.0599e-05	300.66	82.897	64.739	19.034	5.7494e-06	26.388	0.0013101	0.0013332	0.0003745	1333.1	1.5053e-05	1.5149e-05	1389.7	285.5	1.5439e-05	1.5445e-05	402.33	113.59	88.853	28.04	1.5518e-05	38.405	305.786	187.363	113.845	103.358	360.318	116.263	104.112	110.972	138.671	230.291	110.376	118.055	117.513	124.517	279.268	124.523	-8191	255	
2148.323	1	1	0	0	0.1609	0.35792	0.13345	0.17637	0.099221	0.17954	0.18691	0.16099	0.064305	0.041915	0.25351	0.13731	0.11418	0.18857	0.13972	0.18409	-2.5333	-1.9854	-2.3833	-2.8146	-2.0458	-2.6979	-2.4917	-1.975	-2.8021	-1.9521	-2.5312	-2.8021	-2.0167	-2.8083	-2.5729	-2.125	419.464	417.545	324.092	318.269	445.041	223.888	362.556	392.114	165.375	351.706	376.820	293.859	419.883	332.650	355.746	352.943	0.0014244	0.00049948	0.00011568	1206.7	1.0556e-05	1.3388e-05	1273.7	234.79	5.479e-06	5.651e-06	299.23	82.979	64.831	19.04	7.9852e-06	26.764	0.0013963	0.0014012	0.00038682	1336.6	1.4968e-05	1.49e-05	1381.3	282.46	1.4774e-05	1.4729e-05	394.49	111.52	87.343	27.587	1.4841e-05	37.821	351.864	237.269	364.084	103.581	333.728	182.700	104.056	111.784	253.477	406.831	111.109	117.874	117.764	124.531	377.803	124.197	-8191	255	
2148.442	1	1	0	0	0.057227	0.095562	0.079353	0.32016	0.13046	0.16367	0.26217	0.20383	0.095979	0.20019	0.17425	0.29319	0.14195	0.14906	0.19128	0.12481	-2.4833	-2.2125	-2.2729	-2.6396	-2.0187	-2.5979	-2.7583	-2.2188	-2.7438	-2.0792	-2.325	-2.8583	-2.0938	-2.6333	-2.4146	-2.1688	396.732	198.009	108.526	409.951	148.178	225.833	387.583	383.432	270.393	357.613	436.170	97.620	121.045	183.272	158.578	429.574	0.00047337	0.00045932	0.00039523	1206.2	3.9168e-06	1.2124e-05	1273.4	236.81	1.234e-05	1.0045e-05	302.43	83.333	64.739	19.247	3.1717e-06	26.618	0.001351	0.0013588	0.00037815	1332.3	1.4904e-05	1.4992e-05	1381.9	283.85	1.5044e-05	1.5065e-05	398.52	112.36	87.812	27.724	1.5005e-05	37.836	326.831	339.585	365.859	103.545	312.950	448.324	103.788	111.344	452.968	170.255	111.018	117.996	117.921	124.306	348.149	124.114	-8191	255	
2148.538	1	1	0	0	0.069407	0.13514	0.27628	0.33834	0.030824	0.1319	0.09341	0.34245	0.19682	0.20415	0.24511	0.32185	0.14849	0.089187	0.10737	0.15858	-2.3958	-1.9292	-2.2021	-3	-2.1813	-2.5875	-2.6292	-2.0104	-2.9146	-2.3792	-1.9813	-2.8625	-2.0146	-2.4771	-2.6083	-2.1542	208.013	126.882	398.163	418.420	125.527	326.101	309.056	388.006	326.190	398.028	348.852	97.180	323.935	335.367	349.423	310.469	0.00014178	0.0010392	0.0003068	1198.7	5.3765e-06	2.9806e-06	1271.7	236.71	1.06e-05	7.6348e-06	298.61	83.348	65.029	19.1	3.2954e-06	26.546	0.0013484	0.0013559	0.00037454	1329.2	1.4599e-05	1.4483e-05	1373.8	281.13	1.4285e-05	1.4214e-05	389.09	110.11	85.974	27.047	1.4089e-05	37.042	296.655	205.653	307.826	103.444	261.982	370.890	103.484	111.420	189.581	103.425	111.411	117.172	117.586	124.878	299.588	123.553	-8191	255	
2148.634	1	1	0	0	0.21461	0.14717	0.24479	0.087317	0.10574	0.25159	0.24173	0.10733	0.20172	0.055426	0.10848	0.089555	0.12357	0.074164	0.19585	0.27986	-2.1729	-2.3917	-2.0312	-2.9417	-2.0292	-2.5271	-2.7396	-1.7708	-2.6937	-2.2625	-2.1604	-2.7875	-2.2042	-2.4125	-2.6458	-2.0604	132.822	355.687	360.080	99.624	402.748	117.884	430.654	407.865	251.658	366.426	417.927	141.723	397.114	217.564	397.665	441.375	0.0013335	0.00057516	0.0004275	1199.6	3.5907e-06	1.0499e-05	1269.5	236.63	6.6355e-06	1.116e-05	298.95	83.251	64.847	19	7.4213e-06	26.646	0.0012737	0.0012772	0.0003554	1319.5	1.3886e-05	1.3971e-05	1367.1	278.83	1.3902e-05	1.3838e-05	387.05	109.24	85.562	26.87	1.3832e-05	36.854	320.710	304.566	359.718	103.717	213.573	422.850	103.933	111.377	283.396	192.363	111.605	117.961	117.855	125.042	126.469	124.098	-8191	255	
2148.730	1	1	0	0	0.20613	0.11756	0.081693	0.39923	0.084012	0.094477	0.1498	0.097442	0.17711	0.29464	0.12682	0.21117	0.35927	0.093646	0.26871	0.22641	-2.2958	-2.5687	-1.9375	-2.975	-2.0604	-2.3042	-2.8167	-1.8875	-2.6458	-2.5896	-1.9417	-2.8	-2.2	-2.2646	-2.7729	-2.0938	353.864	252.768	394.790	390.812	340.473	142.899	440.256	405.054	198.228	235.686	401.863	154.115	114.780	119.196	283.703	296.811	0.00086097	0.00084248	0.00036558	1203.9	5.1985e-06	7.0507e-06	1271.8	236.46	7.8181e-06	3.5416e-06	301.23	83.442	64.565	19.091	6.9119e-06	26.292	0.0012539	0.00125	0.00034773	1314.9	1.3539e-05	1.3502e-05	1363.3	276.21	1.3295e-05	1.3307e-05	381.65	107.73	84.113	26.393	1.3139e-05	36.081	329.962	420.863	169.156	103.352	202.715	278.401	103.621	111.196	131.048	275.986	110.932	117.839	117.560	124.725	198.973	124.176	-8191	255	
2148.827	1	1	0	0	0.10109	0.067277	0.15927	0.16701	0.24402	0.24452	0.38966	0.43919	0.43259	0.23816	0.069316	0.11878	0.21051	0.15355	0.14538	0.25336	-2.0979	-2.4896	-1.8833	-2.8042	-2.2062	-2.3375	-2.7938	-1.9	-2.3083	-2.6646	-2.125	-2.7771	-2.4104	-2.1583	-2.7917	-2.2062	98.669	446.161	133.850	370.495	373.780	377.667	431.328	353.195	191.114	357.076	317.354	253.540	114.610	179.933	185.054	290.926	0.00081364	0.00075635	0.00016541	1201.4	1.0415e-05	3.8515e-06	1267.1	233.2	1.1533e-05	9.198e-06	297.89	83.049	64.786	19.077	1.209e-06	26.245	0.0011834	0.0011906	0.00033121	1302.5	1.2935e-05	1.2995e-05	1353.7	273.31	1.3026e-05	1.3053e-05	378.87	107.03	83.87	26.355	1.3254e-05	36.121	358.333	259.920	195.617	103.454	181.994	308.617	103.759	111.093	222.984	133.911	111.068	117.109	117.769	124.998	276.786	124.467	-8191	255	
2148.923	1	1	0	0	0.21571	0.19426	0.05123	0.11947	0.23504	0.22778	0.17857	0.028412	0.090695	0.12713	0.085727	0.19018	0.13036	0.25203	0.15406	0.031486	-1.8687	-2.4708	-2.1271	-2.9146	-2.2812	-2.1	-2.8354	-2.2729	-2.2833	-2.6562	-1.8354	-2.725	-2.4792	-2.0292	-2.825	-2.1083	287.027	285.894	402.043	323.102	125.809	401.660	388.638	369.385	430.956	131.078	327.071	194.417	334.980	436.547	186.126	103.485	0.00047017	0.00085757	0.00015318	1199.5	2.0432e-06	6.7538e-06	1274.1	233.25	6.8492e-06	3.7231e-06	297.32	82.918	64.265	19.021	1.743e-05	26.215	0.0012008	0.0012023	0.00033471	1303.2	1.3041e-05	1.3032e-05	1356.2	272.74	1.2871e-05	1.2814e-05	375.02	106.32	82.96	26.024	1.269e-05	35.695	304.430	188.158	125.298	103.385	431.768	151.511	103.791	111.322	386.185	180.815	110.762	118.279	117.462	124.981	379.420	124.009	-8191	255	
2149.043	1	1	0	0	0.040589	0.082725	0.11364	0.36291	0.095236	0.1158	0.25392	0.21352	0.053791	0.33906	0.19734	0.095304	0.13896	0.086637	0.093632	0.14974	-1.7812	-2.6854	-1.7958	-2.6417	-2.4792	-1.9562	-2.9375	-2.2479	-2.2542	-2.7625	-2.1	-2.4729	-2.6667	-2.0521	-2.7583	-2.3833	231.131	326.497	392.990	404.770	172.239	310.076	119.600	131.805	366.478	307.231	121.727	288.418	433.767	347.597	353.310	332.886	0.00074886	0.00060965	0.00024184	1192	9.4615e-06	3.8922e-06	1266.3	233.64	1.4033e-05	8.2985e-06	296.89	82.538	64.236	18.908	7.6928e-06	26.031	0.0011591	0.0011611	0.00032579	1297.1	1.2992e-05	1.298e-05	1351.5	273.99	1.3244e-05	1.3298e-05	380.27	107.85	84.418	26.582	1.3609e-05	36.455	355.717	293.479	162.475	103.616	252.152	366.834	103.954	110.920	192.479	274.980	111.263	117.677	117.732	124.452	245.136	124.936	-8191	255	
2149.138	1	1	0	0	0.072697	0.2392	0.17607	0.06929	0.27355	0.08606	0.094466	0.26049	0.26165	0.12348	0.35471	0.25201	0.54765	0.2903	0.048805	0.44671	-1.7375	-2.8667	-1.7146	-2.5208	-2.5542	-1.8646	-2.9146	-2.4083	-2.0625	-2.6167	-2.2167	-2.4188	-2.6521	-2.025	-2.8083	-2.4333	274.036	258.773	135.537	411.990	169.764	136.555	426.287	356.908	361.751	119.431	401.816	293.597	423.818	370.745	119.044	169.786	0.00041393	0.00048023	0.00012462	1192.8	1.8778e-05	1.0553e-05	1267.2	233.98	9.5178e-06	1.0243e-05	298.21	82.999	64.218	19.037	2.8744e-06	26.326	0.0012439	0.001255	0.00035176	1310.1	1.3817e-05	1.3859e-05	1365.2	277.21	1.3918e-05	1.3944e-05	386.5	109.16	85.138	26.801	1.3769e-05	36.577	317.747	185.704	385.666	103.687	146.885	327.781	103.838	111.054	325.919	350.305	111.212	117.298	117.662	125.126	241.966	123.781	-8191	255	
2149.234	1	1	0	0	0.071183	0.2031	0.23495	0.0223	0.087767	0.13238	0.22318	0.29049	0.24108	0.12136	0.39443	0.10372	0.19427	0.24676	0.30688	0.11304	-1.6375	-2.5938	-1.9396	-2.4396	-2.7479	-2.1854	-2.7229	-2.4125	-1.9312	-2.7792	-2.2062	-2.4125	-2.5271	-1.9604	-2.6458	-2.5	231.398	113.783	270.186	413.511	416.140	441.537	389.928	98.822	163.336	280.460	415.415	168.813	226.822	413.932	255.216	138.942	0.00082584	0.00064775	0.00028308	1199	3.2652e-06	8.3858e-06	1261.2	233.56	6.4963e-06	7.361e-06	299.28	82.47	64.847	18.823	6.9029e-06	26.236	0.0012351	0.0012391	0.00034346	1303.9	1.3362e-05	1.3417e-05	1354.6	274.34	1.3243e-05	1.3233e-05	379.04	107.1	83.911	26.184	1.3212e-05	35.884	347.473	265.381	232.037	103.514	266.670	105.641	103.632	111.347	434.416	202.563	111.501	117.683	118.149	125.065	133.211	123.823	-8191	255	
2149.330	1	1	0	0	0.22103	0.094612	0.12074	0.12322	0.17107	0.15188	0.52894	0.25269	0.037981	0.24079	0.11358	0.24142	0.17359	0.11759	0.092976	0.22499	-1.6542	-2.6354	-1.9042	-2.4667	-2.5542	-1.8958	-2.8042	-2.5687	-1.8917	-2.7521	-2.3667	-2.0625	-2.8771	-2.0875	-2.3875	-2.7208	239.850	426.010	367.241	380.167	120.676	138.688	360.936	348.890	353.149	115.424	368.185	264.470	421.703	307.925	249.996	141.594	0.0010791	0.0008701	2.7664e-05	1195.1	6.3376e-06	4.3726e-06	1265.5	233.51	2.0762e-06	1.78e-06	298.63	82.496	64.428	18.824	3.8924e-06	26.102	0.0011925	0.0012003	0.00033363	1299	1.3102e-05	1.3099e-05	1351.1	272.97	1.2961e-05	1.3057e-05	377.46	106.79	83.249	26.126	1.2998e-05	35.749	308.140	252.385	409.174	103.473	166.217	420.073	103.577	111.150	294.599	349.013	110.645	117.443	118.072	124.994	274.122	123.977	-8191	255	
2149.426	1	1	0	0	0.066513	0.12214	0.053604	0.093517	0.18165	0.25015	0.23623	0.094497	0.14643	0.15205	0.035996	0.080438	0.27812	0.12036	0.275	0.09101	-1.4438	-2.6083	-2.3333	-2.3979	-2.8812	-2.0292	-2.5563	-2.7687	-2.1437	-2.7667	-2.5146	-2.2188	-2.725	-1.9833	-2.1583	-2.7562	120.283	245.193	392.692	346.587	98.779	271.746	369.560	255.334	125.782	215.295	291.256	353.564	103.259	187.432	213.766	319.362	0.0014898	0.0010659	0.00043261	1193.6	3.9905e-06	6.4894e-06	1260.8	233.46	1.2352e-05	2.5618e-06	296.79	82.829	63.796	18.846	7.8306e-06	26.245	0.0011807	0.0011879	0.00033087	1298.2	1.3056e-05	1.3146e-05	1350.5	273.79	1.3279e-05	1.3417e-05	379.85	108	84.257	26.486	1.3578e-05	36.441	359.018	204.059	198.785	103.365	222.578	234.688	103.530	110.847	286.204	125.061	110.652	118.035	118.235	125.014	377.541	123.890	-8191	255	
2149.522	1	1	0	0	0.21925	0.27138	0.20716	0.22726	0.037759	0.14393	0.10085	0.20368	0.090997	0.27347	0.22048	0.050855	0.11026	0.22707	0.090094	0.15013	-1.6542	-2.6021	-2.2	-2.1917	-2.8833	-2.225	-2.5104	-2.725	-1.9062	-2.5708	-2.5083	-2.1021	-2.8083	-2.3042	-2.2125	-2.9562	416.682	304.674	199.902	357.416	381.356	346.848	383.837	361.741	245.184	199.515	394.563	357.460	161.579	130.571	413.420	289.726	0.00024783	0.00068693	0.00012966	1189.4	1.2565e-05	4.5669e-06	1260.2	232.76	7.7735e-06	1.9264e-06	295.13	82.083	64.072	18.78	1.387e-05	25.943	0.0012331	0.0012387	0.0003412	1299.3	1.33e-05	1.3244e-05	1347.2	272.61	1.2961e-05	1.2884e-05	374.73	105.61	82.617	25.867	1.2673e-05	35.49	273.554	228.313	327.826	103.383	268.525	98.228	103.485	111.108	174.329	279.480	110.968	117.588	117.580	124.442	199.453	124.413	-8191	255	
2149.619	1	1	0	0	0.19508	0.17671	0.12589	0.2288	0.22003	0.075409	0.11102	0.12083	0.10684	0.036464	0.15425	0.12927	0.19446	0.026357	0.11602	0.030473	-1.5292	-2.6292	-2.525	-1.9646	-2.7896	-2.2875	-2.3917	-2.6937	-2.0458	-2.5521	-2.7104	-2.1021	-2.6813	-2.3354	-2.0812	-2.9792	390.352	185.551	187.489	412.192	293.669	103.765	395.743	308.314	394.814	425.030	342.836	427.564	416.707	134.069	226.059	306.572	0.0010026	0.00064325	0.00034602	1189.2	5.6912e-06	6.331e-06	1259.7	232.08	6.0483e-06	8.8258e-06	298.59	82.594	64.329	18.924	1.1899e-05	26.414	0.0011479	0.0011619	0.00032633	1287.6	1.2835e-05	1.2987e-05	1345.9	272.66	1.3256e-05	1.3374e-05	380.24	107.64	84.571	26.548	1.3714e-05	36.407	335.577	340.971	183.530	103.257	445.129	210.597	103.551	110.904	139.957	181.698	110.758	117.776	117.858	124.802	192.641	124.130	-8191	255	
2149.739	1	1	0	0	0.14421	0.30128	0.23611	0.089126	0.22511	0.092444	0.32845	0.10533	0.096143	0.10222	0.11517	0.14434	0.10679	0.17897	0.23659	0.14248	-1.7375	-2.4938	-2.6146	-2.0896	-2.7125	-2.4521	-2.2042	-3.0458	-2.125	-2.4146	-2.6937	-2.0042	-2.7646	-2.5042	-1.9542	-2.6979	129.694	215.246	136.419	393.943	256.701	419.636	96.312	391.076	349.212	304.311	209.130	445.035	385.804	131.104	232.983	341.920	0.00097307	0.00080336	0.00022831	1184.1	6.0331e-06	5.5914e-06	1261.4	233.15	9.1559e-06	2.5565e-06	294.18	83.534	64.336	18.737	3.2897e-06	26.046	0.0012374	0.0012476	0.00034656	1299	1.3498e-05	1.3359e-05	1348.6	272.85	1.3075e-05	1.3041e-05	375.71	106.23	82.831	25.844	1.2613e-05	35.332	307.888	127.203	379.143	103.314	315.510	168.088	103.476	111.061	256.639	227.322	110.429	117.654	117.897	124.659	257.326	124.348	-8191	255	
2149.835	1	1	0	0	0.37663	0.26691	0.073971	0.37049	0.1425	0.12178	0.20968	0.18185	0.1275	0.090003	0.033829	0.13216	0.047732	0.079925	0.25835	0.14582	-1.6771	-2.2562	-2.6958	-2.0146	-2.4188	-2.5083	-2.125	-2.8854	-2.1146	-2.2938	-2.6125	-1.9604	-2.7417	-2.3063	-1.9208	-2.8812	370.464	271.086	332.949	418.190	157.756	291.490	414.166	348.413	294.992	447.644	158.184	398.094	314.926	266.597	159.018	402.796	0.00066	0.00063969	0.00017564	1184.4	8.4577e-06	6.5153e-06	1264	232.89	1.0059e-05	4.1113e-06	297.51	81.771	63.677	18.754	6.4042e-06	26.184	0.0011343	0.0011397	0.00031695	1284	1.2478e-05	1.2543e-05	1341	270.54	1.2667e-05	1.281e-05	374.75	106.47	83.278	26.142	1.3146e-05	36.008	341.059	155.873	298.033	103.111	167.951	182.361	103.648	111.159	109.684	312.101	110.355	117.632	117.941	124.527	313.537	123.836	-8191	255	
2149.931	1	1	0	0	0.069648	0.12902	0.16549	0.34039	0.016579	0.25467	0.22717	0.1699	0.0042897	0.22317	0.1309	0.082109	0.23019	0.10807	0.28586	0.22622	-1.8	-2.0771	-2.6479	-2.1792	-2.3812	-2.4958	-2.1167	-2.8563	-2.2562	-2.2417	-2.8	-2.1104	-2.4188	-2.7208	-1.8708	-2.9521	200.212	281.095	115.295	428.613	147.616	357.779	98.205	448.328	266.218	244.084	422.163	147.982	109.396	154.112	427.163	427.377	0.00057433	0.00018015	0.00012211	1184.6	9.8945e-06	6.5884e-06	1258.6	232.45	7.7145e-06	1.3401e-05	296.5	82.318	64.072	18.773	3.6888e-06	26.089	0.0011937	0.001211	0.00033555	1294.4	1.313e-05	1.3181e-05	1346.6	272.38	1.2981e-05	1.3002e-05	375.18	106.18	82.881	25.962	1.2849e-05	35.695	315.067	302.648	274.357	103.102	334.514	260.011	103.696	110.911	199.523	215.835	110.747	117.478	117.576	124.534	186.085	124.183	-8191	255	
2150.003	1	1	0	0	0.10918	0.033439	0.21975	0.28184	0.16952	0.066306	0.40168	0.22232	0.30345	0.27325	0.14161	0.1156	0.14626	0.083252	0.16374	0.28137	-1.9333	-2.1979	-2.7	-2.1542	-2.4	-2.7021	-2.225	-2.7333	-2.2833	-2.0125	-2.8042	-2.1625	-2.2729	-2.6958	-1.8521	-2.4771	179.486	381.429	295.284	100.888	400.442	145.892	378.298	400.256	115.404	376.911	169.673	341.206	199.845	401.342	135.612	425.013	0.0016601	0.00059969	0.00024002	1181.4	9.061e-06	1.0455e-05	1256.6	231.2	5.0112e-06	5.404e-06	295.94	81.918	63.831	18.748	1.2829e-05	26.413	0.0011643	0.0011739	0.00032835	1289	1.2878e-05	1.2913e-05	1344.2	271.48	1.295e-05	1.3013e-05	376.9	106.39	83.076	26.087	1.2957e-05	35.828	328.979	296.049	184.229	103.043	365.147	218.756	103.361	110.947	185.547	424.478	110.464	117.771	117.962	124.102	271.835	123.750	-8191	255	
2150.122	1	1	0	0	0.052884	0.25706	0.14575	0.093979	0.22427	0.026115	0.08001	0.17515	0.087129	0.25677	0.38525	0.15712	0.14267	0.25743	0.055656	0.17259	-2.0917	-1.8646	-2.85	-2.2958	-2.2687	-2.7417	-2.1937	-2.6542	-2.4396	-1.975	-2.7896	-2.3333	-2.1667	-2.8729	-1.9562	-2.4833	170.437	222.092	186.235	300.029	308.495	433.766	413.840	413.781	256.396	373.993	97.650	304.283	119.899	430.284	427.427	94.770	0.0010714	0.00059033	8.5683e-05	1186.7	1.3052e-05	2.0253e-06	1260	232.08	9.6062e-06	1.5803e-06	296.09	82.954	63.506	18.893	8.5557e-06	26.187	0.0011774	0.0011753	0.00032867	1288.3	1.2824e-05	1.2833e-05	1344.8	271	1.2842e-05	1.2875e-05	375.02	106	82.946	25.947	1.2903e-05	35.691	346.609	416.162	369.551	103.006	228.662	318.526	103.361	110.921	98.521	387.878	110.291	117.517	117.127	124.452	428.000	124.157	-8191	255	
2150.218	1	1	0	0	0.30347	0.083446	0.26041	0.20395	0.22631	0.10952	0.25965	0.11298	0.13039	0.20688	0.13932	0.16727	0.13596	0.32463	0.1164	0.14305	-2.2271	-1.7687	-2.8354	-2.4875	-1.9417	-2.8208	-2.2938	-2.5625	-2.8125	-1.7729	-2.7021	-2.475	-1.8958	-2.7396	-1.9896	-2.3708	157.222	307.733	101.920	418.301	376.752	339.033	346.827	112.552	173.114	262.960	355.170	412.122	297.797	434.556	358.576	129.228	0.00088943	0.00092138	0.00046474	1191.8	3.8997e-06	1.0869e-05	1262.2	231.84	1.4708e-05	7.2376e-06	296.27	82.303	64.32	18.971	6.6649e-06	26.188	0.0011624	0.0011644	0.00032458	1290.5	1.2687e-05	1.2701e-05	1341.8	270.83	1.2738e-05	1.2757e-05	373.94	105.59	82.877	25.974	1.2771e-05	35.624	363.799	154.862	380.956	103.323	300.253	207.075	103.993	111.178	254.481	431.846	111.445	117.702	118.750	125.322	265.250	123.945	-8191	255	
2150.314	1	1	0	0	0.23313	0.25118	0.22425	0.34953	0.097731	0.047659	0.4259	0.24845	0.026836	0.18574	0.17786	0.12032	0.26261	0.058941	0.19151	0.17563	-2.3042	-1.9604	-2.6083	-2.5438	-1.9208	-2.9417	-2.2833	-2.3854	-2.7458	-1.7458	-2.675	-2.425	-1.9083	-2.9354	-2.0917	-2.1458	95.568	230.272	439.494	423.468	277.746	187.612	396.147	428.437	441.360	260.352	385.899	103.133	410.174	310.287	105.343	315.558	0.00078099	0.00030864	0.00021993	1187.5	1.4059e-06	3.7715e-06	1255.4	233.32	5.544e-06	1.5138e-05	295.43	82.865	64.259	18.962	1.6064e-05	26.536	0.0011541	0.0011603	0.00032436	1289.3	1.2649e-05	1.2746e-05	1342.2	271.79	1.2776e-05	1.2797e-05	373.8	105.81	82.806	26.022	1.2867e-05	35.812	359.429	440.236	382.758	103.498	278.371	345.661	103.863	111.090	248.465	241.547	111.316	118.144	118.477	124.719	187.714	123.987	-8191	255	
2150.410	1	1	0	0	0.1651	0.12285	0.23604	0.18585	0.087524	0.028921	0.18613	0.1857	0.12097	0.1981	0.45021	0.16826	0.050274	0.28082	0.1343	0.25516	-2.5125	-1.7729	-2.475	-2.45	-2.0312	-2.7208	-2.2896	-2.4375	-2.6917	-1.9854	-2.4771	-2.5417	-1.9792	-2.7458	-2.4333	-2.1896	402.021	136.444	315.467	118.394	394.389	249.176	427.117	375.756	166.411	301.410	129.489	272.124	388.112	189.629	402.117	358.585	0.0010482	0.0002057	3.8602e-05	1192.8	8.2188e-06	6.093e-06	1262.9	232.55	1.1163e-05	9.6184e-06	298.57	82.143	63.605	18.749	1.0734e-05	25.75	0.0011682	0.0011675	0.0003262	1288.8	1.2749e-05	1.2723e-05	1342.5	270.71	1.2671e-05	1.26e-05	373.69	105.29	82.425	25.758	1.2578e-05	35.34	342.554	435.173	104.097	103.528	281.732	414.365	103.672	111.321	239.171	226.449	111.324	118.038	118.719	125.069	225.413	124.510	-8191	255	
2150.531	1	1	0	0	0.24042	0.17433	0.05566	0.17728	0.19825	0.19487	0.36134	0.22465	0.074241	0.26435	0.058838	0.066303	0.35153	0.26007	0.087324	0.031996	-2.3187	-2.0792	-2.4271	-2.6083	-1.9396	-2.7708	-2.4021	-2.175	-2.8312	-2.2438	-2.3125	-2.7125	-1.9875	-2.5458	-2.3604	-2.1063	430.036	183.602	403.071	99.470	338.667	337.732	453.212	373.264	151.070	429.523	306.230	306.526	366.933	231.569	168.792	388.390	0.0001873	0.00083565	4.7208e-05	1189.8	6.3435e-06	3.6798e-06	1253.8	232.13	1.496e-05	2.6322e-06	297	82.273	64.189	18.856	5.8851e-06	26.247	0.0011403	0.0011479	0.00031945	1284.8	1.253e-05	1.2663e-05	1338.4	270.91	1.2698e-05	1.2746e-05	374.29	106	82.842	26.041	1.283e-05	35.594	360.008	315.423	273.345	103.497	282.489	273.579	103.803	111.425	184.128	183.121	111.223	118.368	118.034	125.255	252.651	124.926	-8191	255	
2150.627	1	1	0	0	0.20979	0.19062	0.028382	0.33364	0.057363	0.34415	0.32004	0.1876	0.050254	0.33847	0.36065	0.058244	0.1418	0.050354	0.16815	0.074161	-2.4062	-2.1583	-2.2833	-2.7854	-1.9667	-2.5333	-2.7333	-1.9188	-2.9104	-2.3688	-2.2208	-2.7167	-1.9521	-2.7375	-2.5083	-2.0125	293.003	139.706	339.798	428.143	271.241	294.617	401.614	291.244	148.743	351.600	372.318	148.772	412.693	319.048	438.731	411.883	0.00076509	0.00082657	2.9402e-05	1187.2	4.0369e-06	6.4288e-06	1263.9	233.04	6.2751e-06	1.507e-05	295.29	82.314	63.973	18.85	3.3106e-06	25.874	0.0011701	0.0011735	0.00032635	1287.5	1.2816e-05	1.2904e-05	1343.5	271.32	1.2813e-05	1.2868e-05	374.46	106.04	82.898	25.958	1.2799e-05	35.493	357.222	339.753	258.385	103.836	102.251	434.966	104.290	111.656	229.662	203.187	111.425	118.083	118.027	124.938	301.484	124.874	-8191	255	
2150.723	1	1	0	0	0.19897	0.05079	0.15451	0.17743	0.055084	0.048631	0.13334	0.09394	0.21189	0.19781	0.1849	0.17967	0.26774	0.12598	0.091542	0.15804	-2.2604	-2.2417	-2.0708	-2.8833	-1.9542	-2.5708	-2.6521	-2.1125	-2.7188	-2.2229	-2.2042	-2.7333	-2.1458	-2.5792	-2.6229	-1.8542	387.737	265.841	229.219	319.454	306.881	312.393	94.790	145.771	282.626	165.867	402.575	93.598	350.789	111.736	108.918	118.098	0.0011559	0.00036427	5.5613e-05	1191.8	3.4607e-06	7.436e-06	1261.1	233.45	9.9248e-06	7.2168e-06	298.28	81.95	63.551	18.886	7.9025e-06	26.337	0.0011656	0.0011711	0.00032725	1289.7	1.2871e-05	1.2829e-05	1341.5	271.29	1.2887e-05	1.2882e-05	375.13	105.99	83.111	26.11	1.2886e-05	35.742	345.109	275.163	250.059	103.279	198.934	180.015	103.500	110.985	277.553	226.277	110.656	117.548	117.278	124.605	305.917	124.141	-8191	255	
2150.820	1	1	0	0	0.037132	0.24339	0.20218	0.3352	0.1544	0.26539	0.16438	0.26286	0.031693	0.0572	0.26602	0.10322	0.37267	0.19297	0.13782	0.21623	-2.3333	-2.4625	-2.0229	-2.7854	-2	-2.3521	-2.7687	-1.9146	-2.5583	-2.4292	-1.9875	-2.8875	-2.2812	-2.3667	-2.7208	-2.2562	392.224	309.133	428.054	322.325	131.047	375.159	436.974	429.825	237.490	126.694	361.967	97.170	433.341	384.532	349.621	131.380	0.0010456	0.00028203	0.00032893	1183.6	1.1974e-05	9.0906e-06	1262.6	231.64	1.1108e-05	9.5048e-07	294.54	81.113	63.918	18.936	1.5377e-05	26.145	0.0011726	0.0011868	0.00033026	1291.1	1.2973e-05	1.3019e-05	1346.4	271.86	1.3111e-05	1.3098e-05	377.63	106.53	83.742	26.29	1.3227e-05	36.094	348.586	414.687	328.092	103.235	392.970	257.983	103.808	110.896	183.959	256.450	111.076	117.966	117.495	124.503	261.604	124.058	-8191	255	
2150.916	1	1	0	0	0.16628	0.27872	0.14513	0.33691	0.19069	0.28378	0.13789	0.21293	0.06643	0.099179	0.17507	0.37631	0.17258	0.09377	0.25411	0.15328	-2.1771	-2.4958	-1.9479	-2.7792	-2.1167	-2.1958	-2.9521	-1.9229	-2.5542	-2.7396	-1.9125	-2.7313	-2.1125	-2.1521	-2.8063	-2.0229	314.669	344.364	259.360	422.081	420.732	390.376	414.375	349.243	146.830	243.031	443.708	442.725	169.132	254.726	378.694	441.634	0.0010699	0.00034468	8.357e-05	1188.9	5.8725e-06	3.647e-06	1262.9	233.04	1.3947e-05	7.9452e-06	297.83	82.334	64.205	19.023	8.2583e-06	26.399	0.0012079	0.001213	0.00033917	1298.7	1.3373e-05	1.342e-05	1352.3	274.18	1.3374e-05	1.3473e-05	380.5	107.82	84.285	26.497	1.3548e-05	36.401	355.246	272.470	114.251	103.501	155.772	107.944	103.671	111.126	241.188	363.656	111.211	117.542	117.924	124.747	323.979	124.295	-8191	255	
2151.012	1	1	0	0	0.061683	0.31552	0.10084	0.10304	0.21141	0.2206	0.067576	0.096147	0.17951	0.29181	0.14917	0.1643	0.21215	0.15733	0.13712	0.064534	-2.1937	-2.4604	-1.9167	-2.8708	-2.2271	-2.1	-2.9979	-1.9625	-2.3771	-2.6708	-2.1146	-2.725	-2.4646	-1.9083	-2.7979	-1.9333	446.482	376.163	332.793	336.892	161.319	230.784	434.979	374.520	159.906	394.498	360.071	408.486	406.734	220.167	158.122	451.397	0.0012446	0.0017665	0.00038824	1192.2	1.141e-05	1.0279e-05	1272.2	233.28	5.7436e-06	5.1004e-06	297.6	82.656	64.788	18.934	8.4626e-06	26.479	0.0012288	0.0012291	0.00034247	1304.3	1.3479e-05	1.3478e-05	1356.4	275.38	1.3509e-05	1.3571e-05	384.19	108.78	85.218	26.869	1.398e-05	36.981	346.054	97.399	377.524	103.561	198.215	429.349	103.611	111.108	296.178	371.404	110.873	117.830	117.218	124.535	242.995	124.013	-8191	255	
2151.131	1	1	0	0	0.28458	0.15035	0.24401	0.36289	0.28086	0.18613	0.16478	0.28173	0.25999	0.2208	0.024873	0.27079	0.14547	0.36256	0.16647	0.18077	-2.0604	-2.6792	-1.9021	-2.8958	-2.4437	-2.0438	-2.9646	-2.1021	-2.25	-2.7583	-1.9396	-2.4958	-2.4062	-1.9771	-2.8688	-2.2083	224.165	240.585	241.563	93.784	203.790	428.342	443.744	406.024	123.948	276.619	283.820	170.755	414.684	108.393	124.298	415.189	0.00069962	0.00050622	0.00037082	1196.4	1.551e-05	5.4349e-06	1269.4	233.8	1.588e-05	6.4067e-06	301.83	83.259	65.264	19.191	1.3658e-05	26.569	0.0012822	0.0012991	0.00036528	1320.6	1.4382e-05	1.4517e-05	1375.5	280.61	1.4672e-05	1.4824e-05	396.44	112.41	88.16	27.93	1.5339e-05	38.402	322.477	197.269	366.931	103.557	301.664	396.736	103.718	111.106	357.980	111.864	111.275	118.058	117.351	124.389	304.714	123.758	-8191	255	
2151.227	1	1	0	0	0.1101	0.059074	0.025281	0.19038	0.025835	0.1921	0.30216	0.34535	0.084589	0.22036	0.057505	0.27791	0.039208	0.27641	0.17354	0.31469	-1.775	-2.6708	-1.8354	-2.7896	-2.5771	-2.1146	-2.9562	-2.3708	-2.0854	-2.9458	-2.325	-2.5833	-2.4771	-1.9312	-2.6437	-2.4958	266.856	304.338	267.313	391.386	155.676	193.056	390.093	372.529	309.913	419.401	386.544	430.508	362.323	452.430	249.989	98.439	0.00070533	0.0010457	0.00022265	1199.1	3.0311e-06	9.4261e-06	1270	235.71	3.7724e-06	6.9586e-06	302.87	84.131	65.225	19.394	3.0025e-06	26.711	0.0014154	0.0014317	0.00040032	1344.4	1.5778e-05	1.5886e-05	1393.1	287.05	1.5875e-05	1.5825e-05	405.15	114.63	89.643	28.432	1.5696e-05	38.671	352.655	358.186	444.754	103.379	158.457	245.106	103.714	110.911	199.594	355.817	110.522	117.274	117.657	124.399	243.081	124.370	-8191	255	
2151.299	1	1	0	0	0.17438	0.045785	0.099218	0.24303	0.23141	0.12957	0.17195	0.4584	0.15603	0.28091	0.19536	0.049688	0.098154	0.069113	0.12458	0.27371	-1.6271	-2.6958	-1.8604	-2.6604	-2.5979	-2.0312	-2.8937	-2.4354	-2.0958	-2.9542	-2.0625	-2.4354	-2.8	-2.0708	-2.5708	-2.4396	314.950	424.107	339.010	401.969	96.623	349.234	432.116	428.204	259.207	162.373	201.102	185.429	450.330	303.636	212.050	408.158	0.0013694	0.00061449	0.00017578	1208.7	1.8291e-05	1.2685e-05	1282.9	236.16	8.6463e-06	1.211e-05	305.5	84.919	64.953	19.189	2.0853e-05	26.586	0.0014185	0.0014299	0.0003972	1345.5	1.546e-05	1.5517e-05	1395.4	286.46	1.5387e-05	1.5359e-05	401.71	113.35	88.518	27.942	1.5103e-05	38.082	303.022	357.724	429.464	103.429	137.040	393.742	103.842	111.182	197.532	350.437	111.013	117.694	117.972	124.720	230.228	124.359	-8191	255	
2151.419	1	1	0	0	0.21182	0.15632	0.12166	0.23747	0.099454	0.32115	0.33793	0.088508	0.031325	0.085431	0.22117	0.2146	0.040198	0.13242	0.1638	0.041802	-1.7083	-2.7521	-2.2208	-2.5146	-2.7583	-1.9062	-2.8458	-2.4938	-2.0458	-2.6937	-2.2542	-2.3396	-2.7521	-1.9979	-2.6437	-2.6688	140.595	393.854	158.339	349.761	336.723	329.599	412.759	191.742	290.225	272.295	430.233	249.506	103.243	451.508	105.830	262.750	0.00097475	0.001085	0.00032885	1209.2	6.0772e-06	7.6018e-06	1278.6	236.34	2.1005e-05	7.8003e-06	302.01	83.921	65.094	19.31	5.5869e-06	26.648	0.0013532	0.001346	0.0003759	1336.9	1.4617e-05	1.4624e-05	1382.2	282.48	1.4555e-05	1.4681e-05	394.98	112.11	87.379	27.739	1.4913e-05	37.846	307.673	101.766	152.200	103.655	277.560	346.294	103.466	111.365	159.559	148.368	111.278	117.775	118.082	123.891	318.136	123.893	-8191	255	
2151.515	1	1	0	0	0.32411	0.066672	0.10244	0.30093	0.20376	0.11169	0.25237	0.38112	0.18447	0.10828	0.18022	0.070349	0.32675	0.16292	0.38221	0.17689	-1.4417	-2.5646	-2.05	-2.1937	-2.9646	-2.1104	-2.7417	-2.6542	-1.9417	-2.7292	-2.4604	-2.075	-2.6333	-2.1104	-2.4229	-2.5646	371.489	405.832	198.418	443.410	210.165	238.790	274.264	410.448	117.016	100.909	128.567	251.472	303.441	407.528	376.005	351.699	0.0011532	0.0009475	0.00015223	1206.2	6.4744e-06	1.6607e-06	1280.7	237.07	5.2183e-06	9.9656e-06	301.47	83.008	65.198	19.34	1.4205e-05	26.712	0.0013531	0.0013658	0.0003788	1334.4	1.4894e-05	1.4855e-05	1382.9	283.66	1.4687e-05	1.4652e-05	395	111.6	87.082	27.42	1.4484e-05	37.537	311.887	137.786	164.989	102.867	290.773	111.269	103.225	110.797	371.862	125.154	110.776	117.116	117.508	123.854	151.387	122.944	-8191	255	
#DATA ENDS
