BOXY.EXE: ISS Imagent and Oximeter Data Acquisition Program Version 0.80
Ascii Record File

#ACQ INFORMATION
2  Detector Channels 
16  External MUX Channels 
1  Auxiliary Channels 
5000  Waveform (CCF) Frequency (Hz)
1  Waveforms Skipped 
30  Waveforms Averaged 
1  Cycles Averaged 
16  Acquisitions per Waveform 
10.0806  Updata Rate (Hz) 

#FILE INFORMATION
TRUE -- External MUX Channel results are PARSED.
FALSE -- AC DC and Phase are NOT grouped.
TRUE -- Companion Program Settings File CREATED.
FALSE -- AC data not excluded
FALSE -- DC data not excluded
FALSE -- Phase data not excluded
FALSE -- Auxillary Chn. data not excluded
Tab delimiters

#CALIBRATION STATE
TRUE -- Waveform Calibration Values APPLIED.


#AUX CALIBRATION VALUES
Val Type	aux-1	

Term	1.0000e+00	
Factor	0.0000e+00	


#WF CALIBRATION VALUES
A = Detector Channel
Val Type	A-AC1	A-AC2	A-AC3	A-AC4	A-AC5	A-AC6	A-AC7	A-AC8	A-AC9	A-AC10	A-AC11	A-AC12	A-AC13	A-AC14	A-AC15	A-AC16	A-DC1	A-DC2	A-DC3	A-DC4	A-DC5	A-DC6	A-DC7	A-DC8	A-DC9	A-DC10	A-DC11	A-DC12	A-DC13	A-DC14	A-DC15	A-DC16	A-Ph1	A-Ph2	A-Ph3	A-Ph4	A-Ph5	A-Ph6	A-Ph7	A-Ph8	A-Ph9	A-Ph10	A-Ph11	A-Ph12	A-Ph13	A-Ph14	A-Ph15	A-Ph16	

Term	0.00000e+00	0.00000e+00	0.00000e+00	0.00000e+00	0.00000e+00	0.00000e+00	0.00000e+00	0.00000e+00	0.00000e+00	0.00000e+00	0.00000e+00	0.00000e+00	0.00000e+00	0.00000e+00	0.00000e+00	0.00000e+00	0.00000e+00	0.00000e+00	0.00000e+00	0.00000e+00	0.00000e+00	0.00000e+00	0.00000e+00	0.00000e+00	0.00000e+00	0.00000e+00	0.00000e+00	0.00000e+00	0.00000e+00	0.00000e+00	0.00000e+00	0.00000e+00	0.00000e+00	0.00000e+00	0.00000e+00	0.00000e+00	0.00000e+00	0.00000e+00	0.00000e+00	0.00000e+00	0.00000e+00	0.00000e+00	0.00000e+00	0.00000e+00	0.00000e+00	0.00000e+00	0.00000e+00	0.00000e+00	
Factor	1.00000e+00	1.00000e+00	1.00000e+00	1.00000e+00	1.00000e+00	1.00000e+00	1.00000e+00	1.00000e+00	1.00000e+00	1.00000e+00	1.00000e+00	1.00000e+00	1.00000e+00	1.00000e+00	1.00000e+00	1.00000e+00	1.00000e+00	1.00000e+00	1.00000e+00	1.00000e+00	1.00000e+00	1.00000e+00	1.00000e+00	1.00000e+00	1.00000e+00	1.00000e+00	1.00000e+00	1.00000e+00	1.00000e+00	1.00000e+00	1.00000e+00	1.00000e+00	X	X	X	X	X	X	X	X	X	X	X	X	X	X	X	X	

B = Detector Channel
Val Type	B-AC1	B-AC2	B-AC3	B-AC4	B-AC5	B-AC6	B-AC7	B-AC8	B-AC9	B-AC10	B-AC11	B-AC12	B-AC13	B-AC14	B-AC15	B-AC16	B-DC1	B-DC2	B-DC3	B-DC4	B-DC5	B-DC6	B-DC7	B-DC8	B-DC9	B-DC10	B-DC11	B-DC12	B-DC13	B-DC14	B-DC15	B-DC16	B-Ph1	B-Ph2	B-Ph3	B-Ph4	B-Ph5	B-Ph6	B-Ph7	B-Ph8	B-Ph9	B-Ph10	B-Ph11	B-Ph12	B-Ph13	B-Ph14	B-Ph15	B-Ph16	

Term	0.00000e+00	0.00000e+00	0.00000e+00	0.00000e+00	0.00000e+00	0.00000e+00	0.00000e+00	0.00000e+00	0.00000e+00	0.00000e+00	0.00000e+00	0.00000e+00	0.00000e+00	0.00000e+00	0.00000e+00	0.00000e+00	0.00000e+00	0.00000e+00	0.00000e+00	0.00000e+00	0.00000e+00	0.00000e+00	0.00000e+00	0.00000e+00	0.00000e+00	0.00000e+00	0.00000e+00	0.00000e+00	0.00000e+00	0.00000e+00	0.00000e+00	0.00000e+00	3.46174e+01	-1.41726e+02	-1.41638e+02	-1.82578e+02	-8.82637e+01	-9.64119e+01	-1.57601e+02	-1.62015e+02	-1.01309e+02	-8.94930e+01	-1.76501e+02	-1.75461e+02	-1.82075e+02	-1.78619e+02	-8.59017e+01	-1.51028e+02	
Factor	5.43218e-05	9.09066e-05	3.08890e-05	1.86882e-01	1.02004e-06	9.71065e-07	1.70451e-01	5.67373e-02	1.06568e-06	8.83568e-07	1.30693e-01	3.60511e-02	2.61244e-02	9.14670e-03	1.13988e-06	1.29127e-02	6.14975e-07	6.21407e-07	1.73172e-07	9.42003e-02	6.80050e-09	6.81149e-09	8.15599e-02	2.85863e-02	6.80842e-09	6.81023e-09	5.99588e-02	1.68107e-02	1.29183e-02	4.52870e-03	6.82171e-09	6.11913e-03	X	X	X	X	X	X	X	X	X	X	X	X	X	X	X	X	



#DISTANCE SETTINGS
A = Detector Channel
A-1	A-2	A-3	A-4	A-5	A-6	A-7	A-8	A-9	A-10	A-11	A-12	A-13	A-14	A-15	A-16	

2.5000e+00	3.0000e+00	2.5000e+00	3.0000e+00	2.0000e+00	3.0000e+00	1.5000e+00	3.0000e+00	3.0000e+00	3.0000e+00	3.0000e+00	3.0000e+00	3.0000e+00	3.0000e+00	1.5000e+00	3.0000e+00	

B = Detector Channel
B-1	B-2	B-3	B-4	B-5	B-6	B-7	B-8	B-9	B-10	B-11	B-12	B-13	B-14	B-15	B-16	

1.0000e+01	1.0000e+01	1.0000e+01	1.4400e+00	1.0000e+01	1.0000e+01	1.5100e+00	1.9400e+00	1.0000e+01	1.0000e+01	1.9900e+00	2.4900e+00	2.4100e+00	2.9000e+00	1.0000e+01	2.9800e+00	




#DATA BEGINS
time	group	step	mark	flag	A-AC1	A-AC2	A-AC3	A-AC4	A-AC5	A-AC6	A-AC7	A-AC8	A-AC9	A-AC10	A-AC11	A-AC12	A-AC13	A-AC14	A-AC15	A-AC16	A-DC1	A-DC2	A-DC3	A-DC4	A-DC5	A-DC6	A-DC7	A-DC8	A-DC9	A-DC10	A-DC11	A-DC12	A-DC13	A-DC14	A-DC15	A-DC16	A-Ph1	A-Ph2	A-Ph3	A-Ph4	A-Ph5	A-Ph6	A-Ph7	A-Ph8	A-Ph9	A-Ph10	A-Ph11	A-Ph12	A-Ph13	A-Ph14	A-Ph15	A-Ph16	B-AC1	B-AC2	B-AC3	B-AC4	B-AC5	B-AC6	B-AC7	B-AC8	B-AC9	B-AC10	B-AC11	B-AC12	B-AC13	B-AC14	B-AC15	B-AC16	B-DC1	B-DC2	B-DC3	B-DC4	B-DC5	B-DC6	B-DC7	B-DC8	B-DC9	B-DC10	B-DC11	B-DC12	B-DC13	B-DC14	B-DC15	B-DC16	B-Ph1	B-Ph2	B-Ph3	B-Ph4	B-Ph5	B-Ph6	B-Ph7	B-Ph8	B-Ph9	B-Ph10	B-Ph11	B-Ph12	B-Ph13	B-Ph14	B-Ph15	B-Ph16	aux-1	digaux	

2499.315	1	1	0	512	0.15931	0.1505	0.21807	0.092622	0.16924	0.14312	0.035401	0.15298	0.076269	0.10712	0.15716	0.16472	0.1131	0.18117	0.14244	0.22063	-2.0146	-2.8312	-1.9562	-2.7479	-2.3563	-2.0667	-2.8604	-1.9771	-2.4354	-2.5583	-2.0563	-2.8812	-2.3438	-1.9375	-2.6437	-2.1	79.251	176.764	-82.666	-130.869	-21.217	-48.076	-104.416	147.700	-96.307	151.384	28.706	6.924	144.347	-71.159	178.325	-130.083	0.00019493	0.0003048	0.00016619	137.82	3.6172e-06	3.2678e-06	196.06	48.982	8.0627e-06	2.8215e-06	78.991	27.998	20.128	9.2551	4.4225e-06	12.308	0.0007253	0.00073542	0.00020643	246.25	8.118e-06	8.1638e-06	290.12	81.879	8.2283e-06	8.2735e-06	143.51	46.352	34.942	14.314	8.3149e-06	19.042	46.897	37.421	126.734	-121.400	188.958	204.424	-122.844	-115.233	-83.517	-62.203	-119.792	-115.848	-111.269	-106.025	-72.931	-111.647	-8191	255	
2499.411	1	1	0	0	0.16698	0.25603	0.18007	0.1985	0.1176	0.26308	0.068099	0.098454	0.015016	0.13541	0.088745	0.066676	0.26997	0.31626	0.17856	0.18924	-1.9438	-2.55	-2.0833	-2.6937	-2.4083	-1.95	-2.7125	-2.0417	-2.1854	-2.7354	-2.0125	-2.6042	-2.4396	-1.9979	-2.7479	-2.2062	-126.135	-58.086	149.751	142.201	-0.864	-88.843	-104.426	-1.400	-58.939	-126.723	72.493	148.974	45.042	196.564	-128.017	-52.533	0.00042921	0.00057698	0.00016028	139.36	6.2006e-06	3.6634e-06	197.72	50.023	3.546e-06	3.0296e-06	80.29	28.872	21.487	10.377	7.8828e-06	13.843	0.00075643	0.00075827	0.00021112	250.14	8.2847e-06	8.3005e-06	292.24	83.682	8.3855e-06	8.397e-06	146.23	47.63	36.539	15.487	8.5857e-06	20.851	-27.775	154.227	-103.921	-120.729	-86.787	-26.097	-122.780	-114.530	57.248	-72.615	-119.034	-115.304	-110.438	-106.363	-126.604	-111.374	-8191	255	
2499.508	1	1	0	0	0.2668	0.38223	0.086357	0.09762	0.24935	0.14683	0.31454	0.06444	0.039112	0.10355	0.038164	0.064547	0.2245	0.11995	0.025981	0.14654	-1.7333	-2.7854	-1.9604	-2.5875	-2.4688	-1.8	-2.8375	-2.0875	-1.9438	-2.7292	-1.9792	-2.2771	-2.6188	-1.9729	-2.5667	-2.2396	117.709	5.151	109.386	40.175	140.207	-50.250	167.085	24.317	-2.236	46.800	226.352	212.259	-132.983	-121.965	-5.033	121.912	0.00037516	0.0009307	8.1798e-05	140.92	1.4481e-06	1.7444e-06	199.29	52.558	5.2051e-06	4.7655e-06	82.631	30.371	22.811	11.637	6.694e-06	15.925	0.00078824	0.00079809	0.00022217	259.46	8.8345e-06	8.8646e-06	300.79	88.353	8.9909e-06	9.0338e-06	154.51	50.612	39.002	17.213	9.2402e-06	23.231	107.332	-86.097	-99.505	-120.723	-82.396	205.712	-122.943	-115.089	224.563	-40.043	-119.095	-116.167	-110.645	-106.077	-41.153	-111.456	-8191	255	
2499.604	1	1	0	0	0.15427	0.13249	0.09987	0.16719	0.13195	0.089444	0.24941	0.28929	0.31631	0.21655	0.20729	0.25726	0.070027	0.20805	0.1005	0.16456	-1.7083	-2.8771	-2.0271	-2.2167	-2.5583	-1.8667	-2.6688	-2.3417	-2.0271	-2.65	-2.1104	-2.2771	-2.7646	-2.0938	-2.6458	-2.5229	-61.102	29.142	149.971	118.710	-103.798	-112.310	-102.257	162.433	40.627	115.922	207.007	-74.624	-15.391	-130.548	-104.030	199.636	0.00059743	0.00010307	0.00039311	144.54	5.6353e-06	3.947e-06	204.63	55.001	2.949e-06	1.1109e-05	88.561	33.822	26.151	14.159	7.6421e-06	19.277	0.00084982	0.00086688	0.00024333	274.83	9.7462e-06	9.9185e-06	319.08	96.501	1.036e-05	1.0541e-05	174.37	58.208	45.883	20.976	1.1513e-05	28.657	-24.840	186.011	-118.889	-120.946	-80.706	-0.367	-122.374	-114.801	7.905	65.290	-118.800	-115.422	-110.983	-106.527	156.265	-111.379	-8191	255	
2499.700	1	1	0	0	0.22515	0.23	0.10459	0.19641	0.051263	0.13135	0.23042	0.13086	0.15668	0.22907	0.24876	0.18281	0.20342	0.16867	0.19197	0.095935	-1.5646	-2.8604	-2.2167	-2.3458	-2.825	-2.1146	-2.6521	-2.4083	-1.9271	-2.7833	-2.1688	-2.0604	-2.7333	-2.0625	-2.4396	-2.6292	138.477	125.329	185.725	-92.727	-125.077	-111.191	84.240	-30.685	-108.683	-85.142	178.030	196.640	-122.228	-50.795	-71.476	75.963	0.00082433	0.00031491	0.00011395	155.58	2.7193e-06	8.2758e-06	216.11	62.579	5.6361e-06	4.6427e-06	99.715	39.654	30.8	17.296	3.8799e-06	22.748	0.0010859	0.0011082	0.00031659	325.31	1.2922e-05	1.3151e-05	372.37	118.73	1.4035e-05	1.4365e-05	219.56	74.432	58.838	27.036	1.643e-05	36.839	40.130	26.222	12.104	-121.497	9.125	31.444	-121.866	-114.625	-75.068	196.284	-118.811	-114.824	-111.271	-107.507	-61.198	-112.333	-8191	255	
2499.796	1	1	0	0	0.279	0.19988	0.17331	0.18837	0.20223	0.26826	0.13371	0.11145	0.27595	0.25585	0.163	0.21916	0.19799	0.28835	0.24115	0.30686	-1.5375	-2.7292	-2.15	-2.1542	-2.7979	-2.0729	-2.5312	-2.6437	-1.9521	-2.7417	-2.475	-2.3042	-2.925	-2.1188	-2.3125	-2.5042	168.509	12.566	172.195	225.443	-131.873	39.301	205.951	157.245	-46.058	205.724	174.396	-30.326	-82.280	-96.426	204.929	224.992	0.00017654	0.0013162	0.00030637	166.12	1.2351e-05	5.2864e-06	220.72	67.439	6.3687e-06	7.6078e-06	103.71	42.068	32.599	17.689	1.1952e-05	23.09	0.001567	0.0016209	0.000458	413.21	1.848e-05	1.854e-05	443.02	144.07	1.8369e-05	1.8327e-05	253.93	83.981	65.369	28.959	1.8183e-05	38.119	12.274	-66.578	60.570	-120.414	-43.703	20.675	-122.216	-114.499	114.995	-117.822	-118.534	-115.523	-111.895	-107.739	-24.331	-112.411	-8191	255	
2499.915	1	1	0	0	0.098825	0.028131	0.16902	0.26659	0.14831	0.10047	0.26092	0.10631	0.24635	0.13869	0.13025	0.048899	0.34518	0.065412	0.02861	0.32138	-1.5479	-2.575	-2.4396	-1.9688	-2.8375	-2.0625	-2.4437	-2.6188	-2.0062	-2.7417	-2.4271	-1.9854	-2.95	-2.15	-2.1708	-2.6188	-111.460	-94.200	191.157	81.868	6.857	150.628	109.743	-29.507	-1.420	-68.841	185.533	-111.509	174.016	23.631	6.214	154.136	0.0011147	0.00064063	2.6272e-05	166.18	1.2807e-05	1.0656e-05	216.92	67.548	1.0732e-05	2.2618e-06	101.49	41.022	32.116	17.612	1.1568e-05	22.799	0.0016469	0.0016656	0.00046604	411.5	1.842e-05	1.8518e-05	436.51	142.72	1.8631e-05	1.8767e-05	257.81	84.658	66.399	29.3	1.8877e-05	38.369	14.743	142.092	-36.073	-121.047	12.889	129.742	-122.341	-114.704	-90.522	-101.708	-118.933	-114.761	-111.269	-107.411	-130.003	-111.998	-8191	255	
2500.011	1	1	0	0	0.26391	0.1631	0.11074	0.31864	0.12868	0.094795	0.21465	0.055924	0.06555	0.12742	0.04916	0.18238	0.094289	0.20799	0.23765	0.12031	-1.6292	-2.4667	-2.5646	-1.9583	-2.8063	-2.1688	-2.1312	-2.85	-1.9396	-2.5646	-2.6937	-2.0812	-2.825	-2.2354	-2.3021	-2.7833	66.982	65.732	211.229	190.278	129.485	-131.198	71.139	222.930	189.341	-77.551	-26.359	-100.930	-62.840	90.551	57.630	-59.150	6.4295e-05	0.00018561	0.00027115	160.53	5.2158e-06	9.9232e-06	218.46	65.829	1.643e-05	5.8161e-06	100.89	40.822	31.311	17.161	6.688e-06	22.549	0.0017045	0.0017118	0.00047167	410.52	1.8037e-05	1.7869e-05	425.06	136.95	1.7051e-05	1.6835e-05	236.53	77.76	60.068	26.788	1.5547e-05	35.053	128.769	191.148	185.499	-121.334	-89.891	154.362	-122.172	-114.353	88.925	59.959	-119.226	-115.876	-110.438	-107.561	110.758	-112.278	-8191	255	
2500.107	1	1	0	0	0.052859	0.06025	0.1324	0.091053	0.15239	0.091873	0.15411	0.3285	0.32066	0.098932	0.23776	0.28127	0.068131	0.14778	0.2196	0.18002	-1.6729	-2.5125	-2.6208	-1.8542	-2.7167	-2.3854	-2.1521	-2.8646	-2.1188	-2.4562	-2.8458	-2.0812	-2.6542	-2.4313	-2.1167	-2.8563	154.208	175.167	38.819	-0.705	151.724	44.209	51.494	198.963	-44.170	69.040	215.644	104.424	30.107	-131.888	206.801	-29.425	0.00076359	0.00082253	0.00021273	159.05	7.713e-06	8.5654e-06	215.62	64.102	7.0728e-06	1.0795e-05	97.917	40.013	30.686	16.783	3.6771e-06	22.487	0.0013762	0.0013763	0.00038191	360.57	1.4802e-05	1.4789e-05	388.67	123.87	1.4623e-05	1.4615e-05	217.29	72.749	56.264	25.618	1.4363e-05	33.984	3.091	-126.193	160.000	-120.311	167.346	189.501	-122.066	-115.010	174.433	-51.527	-119.027	-115.716	-111.117	-108.317	188.849	-112.348	-8191	255	
2500.203	1	1	0	0	0.085275	0.081467	0.14702	0.46403	0.40017	0.12708	0.17318	0.054579	0.33703	0.45472	0.14858	0.11779	0.099662	0.11773	0.10779	0.23493	-1.7583	-2.2229	-2.8729	-1.8312	-2.6729	-2.3708	-2.0125	-2.6917	-2.1417	-2.1958	-2.6354	-2.0354	-2.6917	-2.6583	-1.9813	-2.7979	-105.992	200.487	212.399	-106.116	-102.406	-126.361	192.189	65.976	139.167	182.329	68.379	-71.367	-115.074	51.325	-76.268	-79.551	0.00022692	0.00030275	0.00039808	161.79	5.8896e-06	4.3746e-06	216.14	65.029	4.5065e-06	5.0002e-06	98.894	40.205	31.205	17.365	8.305e-06	22.824	0.0013028	0.0013176	0.00036669	355.11	1.4551e-05	1.4675e-05	388.4	124.44	1.4954e-05	1.5117e-05	224.31	75.414	59.221	26.927	1.5878e-05	36.021	14.091	53.006	-80.052	-121.245	158.796	100.886	-122.356	-115.095	103.052	-20.565	-119.024	-115.602	-111.953	-107.443	-35.763	-112.005	-8191	255	
2500.299	1	1	0	0	0.32662	0.33167	0.13106	0.11655	0.21316	0.049678	0.1	0.18635	0.23392	0.19072	0.1665	0.082945	0.15624	0.24945	0.23012	0.16941	-1.7458	-2.3354	-2.8167	-1.9854	-2.4979	-2.6188	-1.8875	-2.6937	-2.275	-2.1375	-2.6875	-2.0354	-2.3708	-2.6542	-1.9312	-2.7729	93.915	93.080	-18.623	-10.245	196.041	124.230	-23.877	52.512	97.490	124.589	167.033	-130.003	-52.617	186.425	157.691	56.598	0.00067642	0.00017376	0.00034245	161.55	1.213e-05	7.6941e-06	215.67	66.663	2.5323e-06	3.9536e-06	103.42	40.759	32.099	17.761	8.797e-06	23.442	0.0014689	0.0014955	0.00041758	385.9	1.6558e-05	1.666e-05	414.17	134.42	1.6716e-05	1.6644e-05	238.71	79.293	62.131	28.104	1.6761e-05	37.011	-15.815	-44.958	-90.256	-120.767	33.964	5.757	-122.725	-114.834	118.359	95.523	-118.164	-115.923	-111.297	-108.087	115.795	-112.175	-8191	255	
2500.396	1	1	0	0	0.22607	0.18315	0.27144	0.15658	0.027446	0.14418	0.31527	0.16496	0.25962	0.13169	0.060105	0.031147	0.10031	0.14784	0.24539	0.1813	-2.1104	-1.9042	-2.65	-2.1042	-2.3375	-2.5687	-2.0062	-2.5563	-2.3708	-1.9312	-2.8417	-2.2354	-2.3604	-2.7625	-1.9917	-2.7021	194.261	176.666	147.613	11.936	20.338	-58.011	-13.495	-54.024	12.325	137.597	92.687	165.320	-106.390	6.847	-39.936	75.816	0.00068383	0.00047241	0.00022232	162.26	7.0687e-06	4.0079e-06	217.12	66.752	8.74e-06	3.9995e-06	101.77	41.041	31.786	17.687	1.5e-05	23.25	0.0015108	0.0015153	0.00042208	386.43	1.6476e-05	1.6414e-05	409.26	132.51	1.6048e-05	1.5814e-05	230.06	76.269	59.4	26.938	1.5113e-05	35.199	14.607	188.722	-30.252	-121.701	99.215	116.432	-122.451	-114.587	141.740	118.500	-119.061	-115.685	-111.901	-108.035	190.540	-112.089	-8191	255	
2500.516	1	1	0	0	0.32929	0.066771	0.13265	0.064332	0.13457	0.14775	0.019849	0.19716	0.32963	0.18364	0.18444	0.074796	0.093546	0.062691	0.2652	0.049627	-2.1521	-1.9042	-2.8667	-2.1896	-2.0438	-2.6958	-2.125	-2.4437	-2.5771	-1.9167	-2.6375	-2.075	-2.225	-2.9208	-2.1354	-2.5854	-99.192	-124.483	-52.468	-30.194	112.127	-16.200	-25.824	134.268	112.036	4.795	93.305	-111.896	199.449	1.529	145.179	20.822	0.00046316	0.00073512	3.4913e-05	160.96	1.5056e-05	4.9629e-06	220.74	65.213	4.3973e-07	8.1032e-06	98.288	39.179	30.263	16.599	2.8024e-06	22.105	0.0013483	0.0013464	0.00037229	357.26	1.4455e-05	1.4425e-05	386.28	122.76	1.4125e-05	1.4031e-05	211.77	70.588	54.652	24.848	1.3379e-05	32.642	-13.134	91.184	128.744	-121.382	24.155	198.203	-122.661	-115.442	216.292	-11.617	-119.073	-115.377	-111.246	-107.506	-5.751	-112.283	-8191	255	
2500.611	1	1	0	0	0.073119	0.26433	0.20285	0.19646	0.18102	0.35406	0.0808	0.13968	0.31175	0.22581	0.11173	0.048904	0.31055	0.088757	0.040313	0.23779	-2.1625	-2	-2.6312	-2.2812	-2.1562	-2.9583	-2.1521	-2.3646	-2.4854	-1.9688	-2.6958	-2.3021	-2.0292	-2.6188	-2.125	-2.5021	-14.848	-62.162	-68.017	149.120	-61.358	-75.231	-11.236	91.603	156.095	87.115	36.853	-44.113	109.756	130.445	96.643	186.728	0.00070185	0.00027893	8.2217e-05	157.73	6.341e-06	8.4746e-06	214.42	60.385	1.6408e-06	1.2968e-06	91.731	35.933	27.249	14.817	3.8276e-06	19.423	0.0011812	0.0011794	0.00032349	328.19	1.2479e-05	1.23e-05	354.53	109.41	1.1894e-05	1.1724e-05	185.86	61.299	47.31	21.521	1.0999e-05	28.014	47.107	-86.918	80.554	-121.915	100.983	-36.161	-122.933	-115.880	4.352	15.140	-119.119	-115.235	-111.817	-107.345	203.541	-112.297	-8191	255	
2500.707	1	1	0	0	0.057738	0.1235	0.057007	0.18443	0.12523	0.047144	0.23179	0.24066	0.042322	0.20055	0.13482	0.36768	0.17004	0.3954	0.14281	0.25146	-2.3146	-1.8875	-2.4542	-2.5083	-2.0646	-2.8979	-1.9958	-2.0146	-2.7729	-1.875	-2.5563	-2.5792	-1.7604	-2.6312	-2.1354	-2.3917	-122.766	144.786	-98.850	222.345	84.119	139.633	-99.236	183.075	37.136	-35.246	13.216	62.267	-28.565	-121.631	212.577	200.389	0.00058094	0.00010276	6.1425e-05	151.09	3.5115e-06	4.679e-06	207.5	53.732	3.5273e-06	3.3813e-06	82.547	29.987	22.392	11.979	1.0615e-05	16.089	0.00096485	0.00095335	0.00026291	286.56	9.9196e-06	9.787e-06	315.71	92.301	9.3772e-06	9.2902e-06	155.75	50.567	38.759	17.421	8.9877e-06	23.207	-10.053	-21.789	146.402	-121.640	-31.857	-79.616	-123.243	-115.134	-82.798	-39.995	-120.762	-115.571	-111.389	-107.159	-99.379	-111.795	-8191	255	
2500.780	1	1	0	0	0.22493	0.22144	0.06555	0.18514	0.0088077	0.10318	0.12473	0.26907	0.21779	0.18164	0.1259	0.29838	0.21689	0.18117	0.097524	0.072996	-2.3312	-1.825	-2.5208	-2.5854	-1.9896	-2.8563	-2.1188	-2.1333	-2.8521	-1.9562	-2.4958	-2.7375	-1.9375	-2.7646	-2.3271	-1.975	-44.999	-115.030	180.429	146.651	-28.186	64.451	224.951	-8.761	-50.927	148.016	152.171	94.259	92.029	-125.598	222.655	124.756	0.00025897	0.00053491	0.00015464	145.58	4.2612e-06	3.7356e-06	196.8	50.39	1.506e-06	4.8925e-06	76.339	26.909	19.763	9.9962	1.161e-05	13.608	0.00080699	0.00080873	0.00022434	262.52	8.6766e-06	8.6574e-06	297.49	84.263	8.456e-06	8.4172e-06	143.08	45.527	34.478	15.013	8.2788e-06	20.214	51.729	-110.757	212.978	-121.739	-48.119	109.120	-122.306	-115.529	51.249	3.467	-118.699	-114.596	-111.492	-106.768	139.089	-111.886	-8191	255	
2500.876	1	1	0	0	0.24859	0.099708	0.28409	0.10339	0.15801	0.16732	0.27127	0.1882	0.087803	0.27075	0.13293	0.19032	0.22921	0.17734	0.17731	0.21971	-2.3708	-2.0458	-2.3063	-2.7625	-2.0396	-2.7521	-2.2	-1.9083	-2.7125	-2.1833	-2.2646	-2.5771	-2.0354	-2.4333	-2.3979	-1.8667	-20.005	3.595	161.688	218.826	38.205	5.162	29.911	-96.873	-104.598	118.175	-116.171	-93.067	184.262	133.524	14.787	187.073	0.00072852	0.00032684	0.00023492	144.13	2.3429e-06	1.3302e-06	198.84	48.158	5.3389e-06	1.3879e-06	75.321	25.09	18.13	8.6269	2.9902e-06	11.798	0.00074436	0.00074815	0.00020733	251.4	8.0645e-06	8.0265e-06	289.78	79.617	7.9441e-06	7.9313e-06	137.43	42.911	32.294	13.388	7.8095e-06	18.08	-12.316	22.605	108.720	-121.438	-69.349	-122.318	-123.570	-116.280	-63.050	114.244	-119.501	-116.011	-110.754	-106.286	-62.015	-111.660	-8191	255	
2500.995	1	1	0	0	0.13347	0.19219	0.14648	0.11139	0.075588	0.096604	0.081734	0.089459	0.33166	0.15428	0.07457	0.067373	0.1585	0.17661	0.248	0.075457	-2.35	-2.1937	-2.3104	-2.8229	-1.9083	-2.3688	-2.4313	-1.9021	-2.6188	-2.2812	-1.9271	-2.6896	-2.1208	-2.6188	-2.6021	-2.075	7.908	84.421	-104.904	73.516	91.463	-60.719	5.417	-78.361	121.438	50.427	-53.451	-122.690	-118.021	217.213	180.340	48.036	0.00044174	0.0002618	4.4545e-05	144.19	1.3675e-06	8.4501e-06	199.35	46.676	2.8013e-06	3.5761e-06	72.901	24.183	17.44	7.899	2.8533e-06	10.88	0.00070289	0.00070919	0.00019772	246.42	7.7462e-06	7.7472e-06	287.04	78.061	7.76e-06	7.742e-06	134.67	41.768	31.336	12.638	7.6707e-06	17.069	-60.449	55.923	201.675	-121.824	17.509	-66.821	-123.389	-115.938	-48.883	-89.405	-119.205	-116.260	-110.960	-106.702	130.599	-110.351	-8191	255	
2501.091	1	1	0	0	0.27515	0.16945	0.071823	0.14382	0.15396	0.11047	0.31548	0.077635	0.052657	0.16472	0.21607	0.21947	0.35169	0.10233	0.098964	0.16576	-2.2917	-2.3438	-1.8687	-2.7354	-2.125	-2.3375	-2.5604	-2.0917	-2.5542	-2.2625	-2.0521	-2.4813	-2.0396	-2.425	-2.4896	-1.8604	68.773	216.809	165.325	56.642	171.480	20.733	-97.618	-122.668	-38.840	-133.192	-61.287	1.956	170.073	32.099	33.253	-64.045	0.00014766	0.00046228	6.6295e-05	142.48	4.9185e-06	6.8274e-06	199.08	46.421	4.1679e-06	8.516e-06	74.167	24.869	17.517	7.9338	2.3495e-06	11	0.00069211	0.00069499	0.00019554	244.28	7.6246e-06	7.6842e-06	286.3	77.6	7.7643e-06	7.7793e-06	134.63	42.029	31.761	12.852	7.967e-06	17.511	-61.523	-5.230	-19.862	-121.924	-108.066	-89.960	-123.291	-115.952	-26.702	8.333	-118.843	-116.045	-111.650	-105.796	159.348	-110.968	-8191	255	
2501.188	1	1	0	0	0.21068	0.30784	0.10573	0.12292	0.25051	0.068689	0.27902	0.10457	0.097314	0.25044	0.16145	0.22157	0.12782	0.13293	0.19556	0.08145	-2.2646	-2.3729	-1.8646	-2.8354	-1.8813	-2.2729	-2.8021	-1.8188	-2.5687	-2.4917	-1.9917	-2.6646	-2.1292	-2.1708	-2.775	-2.0771	-107.156	210.461	203.089	225.438	-74.536	175.082	-84.129	-114.289	84.237	126.398	25.322	208.511	-114.551	65.495	15.531	184.388	0.00067305	0.00019644	0.00015127	143.15	2.3565e-06	5.0472e-06	198.89	47.14	2.1059e-06	3.864e-06	74.393	24.904	17.936	8.0109	5.3882e-06	11.102	0.00072754	0.00073547	0.00020635	251.46	8.1772e-06	8.2225e-06	292.62	80.858	8.2494e-06	8.2661e-06	139.69	43.358	32.588	13.022	8.0906e-06	17.511	20.452	-131.942	69.821	-122.015	25.453	207.145	-123.152	-115.316	-5.618	107.408	-119.346	-115.711	-110.922	-106.075	-126.840	-110.819	-8191	255	
2501.308	1	1	0	0	0.20904	0.073326	0.11254	0.15785	0.3073	0.20265	0.097129	0.28874	0.17362	0.16193	0.26746	0.15922	0.19546	0.31457	0.075462	0.30678	-2.2333	-2.5563	-1.7667	-2.7417	-2.4104	-1.9667	-2.7479	-1.9646	-2.4292	-2.5708	-1.9229	-2.8375	-2.2271	-1.9917	-2.7771	-2.0958	82.453	-67.778	15.317	-64.992	25.574	125.823	62.822	176.339	140.584	75.979	64.854	130.981	-66.292	111.893	104.203	91.493	0.00036396	0.00021676	8.3401e-05	143.44	1.8589e-06	4.4147e-06	197.4	47.05	9.6733e-06	3.2574e-06	74.933	26.134	19.295	9.2724	7.2399e-06	13.132	0.00072303	0.00072499	0.00020103	248.39	7.9033e-06	7.9751e-06	290.05	80.141	8.3035e-06	8.4755e-06	144.69	46.058	35.556	14.968	9.494e-06	20.988	-11.143	33.784	179.873	-121.166	55.091	127.167	-123.586	-115.746	28.219	-126.328	-119.310	-115.371	-111.031	-106.324	-70.785	-110.822	-8191	255	
2501.380	1	1	0	0	0.2143	0.26512	0.069952	0.10381	0.09149	0.23376	0.37269	0.094462	0.18961	0.092346	0.10722	0.13633	0.094755	0.18491	0.052919	0.28069	-2.1083	-2.6562	-1.8208	-2.7271	-2.3104	-2.0375	-2.7167	-2.1437	-2.3812	-2.675	-1.8333	-2.5521	-2.4083	-1.9542	-2.8063	-2.2583	201.859	-4.056	14.911	137.848	26.164	146.477	-90.470	25.583	-21.895	46.661	-66.001	-131.056	146.464	125.524	116.052	-123.861	0.00023115	0.00053685	0.00010274	150.54	9.6887e-07	9.0112e-06	206.31	51.496	9.6257e-06	6.7025e-06	79.567	27.59	20.756	9.7423	5.2476e-06	12.943	0.00089163	0.00091047	0.00025746	284.41	1.0216e-05	1.0175e-05	321.92	92.079	9.9691e-06	9.9029e-06	157.81	49.445	37.625	15.703	9.678e-06	20.911	12.096	-85.301	-45.935	-120.610	72.118	18.780	-122.319	-115.571	-72.954	-89.918	-118.933	-115.236	-111.029	-106.659	158.006	-111.104	-8191	255	
2501.476	1	1	0	0	0.13384	0.042068	0.17049	0.2419	0.23401	0.041383	0.048888	0.29537	0.042375	0.040719	0.050732	0.16946	0.16824	0.20028	0.21936	0.060324	-1.8	-2.5563	-2.1188	-2.6604	-2.4521	-2.0438	-2.6688	-2.1833	-2.1771	-2.8083	-2.1229	-2.6583	-2.6937	-1.8958	-2.6854	-2.275	210.686	179.320	-98.826	45.268	13.624	219.095	150.224	127.682	-132.464	51.245	179.518	174.938	-19.435	-79.419	-45.353	117.575	0.00018464	0.00024744	0.00014072	142.16	9.4052e-06	4.7885e-06	195.9	46.589	8.1012e-06	3.5026e-06	71.711	23.467	17.415	8.1609	6.4116e-06	10.874	0.00087381	0.00089013	0.00024693	273.07	9.7313e-06	9.7207e-06	306.15	85.981	9.5385e-06	9.5422e-06	148.45	45.384	34.576	14.048	9.4534e-06	18.691	21.107	-105.358	-44.737	-121.843	187.490	4.002	-123.641	-116.231	110.529	-42.956	-118.941	-114.740	-111.714	-105.924	26.924	-110.446	-8191	255	
2501.597	1	1	0	0	0.17783	0.11947	0.17169	0.04809	0.22747	0.23014	0.12423	0.064519	0.18481	0.34686	0.087432	0.089543	0.086457	0.13691	0.090854	0.28894	-1.7792	-2.7938	-1.9833	-2.4104	-2.3875	-1.8813	-2.6562	-2.3583	-2.0812	-2.7438	-1.925	-2.3021	-2.475	-1.8375	-2.5938	-2.2604	-5.907	-33.730	-121.808	-117.920	-18.056	15.446	222.216	-37.263	-66.151	186.328	135.974	141.673	-13.933	184.891	207.923	-129.732	0.00023485	0.00029371	7.9702e-05	137.17	8.2933e-06	1.557e-06	190.23	45.775	2.7212e-06	6.5294e-07	71.545	23.076	16.999	8.1822	2.5907e-06	11.081	0.00085391	0.00085948	0.00024155	265.13	9.5197e-06	9.5977e-06	300.7	84.639	9.6564e-06	9.7514e-06	149.29	45.4	34.921	14.343	9.8971e-06	19.275	183.523	206.458	11.298	-121.356	209.900	100.940	-122.574	-115.350	57.898	-72.721	-119.043	-114.721	-109.914	-105.836	20.965	-109.809	-8191	255	
2501.691	1	1	0	0	0.17835	0.26091	0.27084	0.034357	0.23195	0.097513	0.44391	0.19458	0.18256	0.31347	0.17823	0.051965	0.11099	0.2586	0.25865	0.12669	-1.6562	-2.6979	-2.0646	-2.4625	-2.6521	-1.9583	-2.6104	-2.4167	-1.85	-2.8375	-1.9979	-2.175	-2.6792	-2.075	-2.2792	-2.4354	169.460	3.810	145.198	-31.930	192.329	138.149	161.190	153.858	21.483	-82.761	176.863	104.898	46.686	-0.637	-127.012	66.268	0.00055247	0.00047031	0.00022113	134.57	2.7557e-06	6.4847e-06	189.11	45.264	4.6903e-06	5.5119e-06	70.725	22.701	16.734	8.2714	1.8518e-06	11.181	0.00089689	0.00090277	0.00025134	268.84	9.9268e-06	9.9243e-06	303.36	85.274	9.8242e-06	9.8303e-06	150.01	45.625	34.998	14.401	9.965e-06	19.402	-2.158	-83.305	147.618	-121.793	155.960	-2.761	-123.957	-114.760	-57.959	-8.304	-118.290	-114.948	-111.265	-105.143	76.162	-110.339	-8191	255	
2501.789	1	1	0	0	0.085911	0.17077	0.10616	0.19784	0.33993	0.20508	0.28084	0.14986	0.24593	0.0627	0.12817	0.04215	0.2477	0.14214	0.12186	0.29033	-1.6292	-2.7896	-2.1583	-2.0917	-2.6562	-1.9708	-2.4083	-2.5125	-1.8563	-2.9229	-2.2042	-1.9646	-2.5792	-2.1458	-2.325	-2.4062	195.162	97.491	-62.410	218.223	16.840	-125.606	38.788	173.068	69.963	97.048	107.768	17.734	39.835	94.277	17.224	71.712	0.00027381	0.00038383	0.00013311	137.41	1.4716e-06	2.4493e-06	187.14	45.021	5.2619e-06	3.5081e-06	68.818	22.383	16.897	8.3316	1.079e-05	11.186	0.00090172	0.00091153	0.00025359	271.57	1.0036e-05	1.001e-05	304.24	85.63	1.0028e-05	1.0056e-05	150.87	45.817	35.031	14.623	1.0075e-05	19.5	-4.822	20.718	-47.989	-121.471	-48.693	132.610	-123.071	-115.003	66.144	40.737	-118.492	-115.240	-110.747	-105.461	179.819	-110.275	-8191	255	
2501.908	1	1	0	0	0.15538	0.30805	0.26207	0.14152	0.38144	0.19418	0.10605	0.33685	0.22245	0.071039	0.048643	0.056635	0.32186	0.055614	0.14242	0.11498	-1.4125	-2.6479	-2.2542	-2.0771	-2.7542	-1.8958	-2.425	-2.5729	-1.8438	-2.6292	-2.3479	-2.0583	-2.9354	-2.1833	-2.2021	-2.6833	196.921	103.314	34.859	-74.979	108.513	134.959	121.962	192.061	-29.606	175.971	95.998	101.509	175.929	141.882	47.525	-40.765	0.00033969	0.00059685	0.00015735	136.49	3.4441e-06	6.4888e-06	186.83	45.126	6.3251e-06	3.0089e-06	70.308	23.17	17.832	8.742	2.7396e-06	11.858	0.0009095	0.00092157	0.00025533	270.74	1.0044e-05	1.0064e-05	303.25	86.193	1.0029e-05	1.0075e-05	151.81	46.458	36.017	15.13	1.0095e-05	20.228	109.762	-79.184	-53.619	-121.246	191.570	52.948	-122.900	-114.871	179.961	88.113	-120.112	-114.410	-110.999	-104.883	106.243	-110.862	-8191	255	
2502.004	1	1	0	0	0.28594	0.21695	0.22813	0.038847	0.065063	0.13641	0.37131	0.08809	0.29289	0.074014	0.11435	0.28432	0.21573	0.14531	0.22071	0.063041	-1.5562	-2.3521	-2.3083	-1.975	-2.7562	-2.0604	-2.3708	-2.7313	-1.8167	-2.4229	-2.4396	-1.85	-2.7625	-2.3771	-2.0625	-2.6604	225.766	-76.562	133.556	-79.004	-25.652	147.056	-58.386	-43.363	207.840	155.790	-85.444	167.930	26.200	148.053	151.589	113.041	0.0005726	0.00074738	0.00012349	134.35	1.3088e-05	6.1506e-06	186.94	45.821	7.7833e-06	5.2261e-06	70.275	23.062	18.233	9.154	5.3284e-06	12.155	0.00091703	0.00091983	0.00025586	269.69	1.0007e-05	1.0043e-05	302.56	85.846	9.8422e-06	9.8871e-06	150.53	46.036	35.738	15.188	9.842e-06	20.319	22.429	157.846	207.391	-121.872	-113.412	226.232	-123.145	-115.660	60.245	-18.818	-118.902	-115.311	-110.388	-105.139	91.166	-110.574	-8191	255	
2502.076	1	1	0	0	0.015642	0.029053	0.047615	0.065353	0.072254	0.13751	0.21581	0.1734	0.12718	0.33044	0.12424	0.070517	0.046353	0.068356	0.18437	0.23179	-1.4667	-2.5042	-2.3771	-1.8708	-2.725	-2.4042	-2.2229	-2.6979	-2.0979	-2.3083	-2.5062	-1.85	-2.6688	-2.2833	-1.8687	-2.6167	-39.317	47.324	-118.016	190.205	27.035	180.613	164.722	80.427	187.424	-101.327	117.852	191.951	-75.941	217.903	60.325	-58.313	0.00032858	0.00056214	7.3995e-05	134.59	4.9039e-06	5.6839e-06	188.52	45.852	5.2854e-06	4.6065e-06	72.469	24.341	18.457	9.5333	4.8606e-06	13.003	0.00089234	0.00089757	0.00025086	265.75	9.8325e-06	9.8833e-06	301.95	86.28	9.8451e-06	9.8446e-06	151.79	46.967	36.019	15.527	9.7508e-06	20.88	-8.702	-40.796	-66.777	-121.013	149.423	163.109	-122.960	-115.439	-84.002	-125.132	-118.920	-115.185	-111.264	-105.465	209.063	-110.868	-8191	255	
2502.196	1	1	0	0	0.12501	0.16072	0.21616	0.13576	0.31454	0.097273	0.10654	0.16492	0.12157	0.17565	0.21463	0.16632	0.15466	0.10642	0.21337	0.26094	-1.8625	-2.5875	-2.6937	-1.7979	-2.5729	-2.2667	-1.9438	-2.6021	-2.0687	-2.2042	-2.6229	-2.0292	-2.65	-2.5646	-1.9937	-2.7833	-29.353	-25.435	-132.681	-57.261	-24.620	-29.355	182.123	26.897	118.860	48.677	-97.927	-24.417	-98.555	45.747	-64.742	151.177	0.00040449	0.00013036	0.00011356	135.62	6.1459e-06	6.1652e-06	190.04	47.612	5.5542e-06	6.6614e-06	71.58	24.683	18.439	9.5044	7.1491e-06	12.981	0.0008738	0.00088286	0.00024504	263.59	9.5895e-06	9.5624e-06	299.68	85.303	9.513e-06	9.5113e-06	149.03	46.268	35.495	15.338	9.4664e-06	20.652	-28.750	-111.936	1.524	-121.001	79.017	52.533	-123.300	-115.608	-94.716	-107.737	-118.269	-114.357	-109.654	-105.964	-7.274	-109.829	-8191	255	
2502.292	1	1	0	0	0.13115	0.23298	0.13972	0.28056	0.24324	0.31399	0.090671	0.043534	0.19744	0.29132	0.16133	0.074171	0.075437	0.19755	0.15179	0.19666	-1.7646	-2.1417	-2.6208	-2.0375	-2.4896	-2.4917	-1.9792	-2.7854	-2.3479	-2.1167	-2.7062	-2.0833	-2.4875	-2.5958	-1.9792	-2.6792	-11.128	-84.370	187.930	82.770	50.301	-98.307	-100.351	13.179	107.527	71.194	103.981	-41.077	118.126	-15.112	-50.497	119.372	0.00028366	0.00048437	0.00020031	135.38	2.4524e-06	6.1671e-06	190.18	46.526	8.1222e-06	8.5925e-06	72.611	24.302	18.677	9.567	5.9365e-06	13.261	0.00085571	0.00085381	0.00023894	260.27	9.3892e-06	9.3628e-06	297.08	84.51	9.3396e-06	9.2946e-06	147.72	45.92	35.159	15.343	9.2763e-06	20.694	-23.351	-1.381	45.890	-120.377	-65.033	-113.444	-122.157	-114.654	16.880	-130.339	-117.881	-114.569	-110.823	-105.716	77.239	-110.775	-8191	255	
2502.389	1	1	0	0	0.17226	0.027023	0.11854	0.32184	0.041557	0.1014	0.25057	0.17542	0.089679	0.25855	0.052908	0.12538	0.13117	0.060858	0.34391	0.22565	-1.7062	-2.0167	-2.6896	-1.8542	-2.3312	-2.7208	-1.8792	-2.6396	-2.3917	-1.9708	-2.85	-2.1708	-2.2188	-2.6292	-2.0417	-2.5	7.084	128.581	18.627	-77.991	183.544	-106.770	64.089	82.984	61.362	-103.607	-61.932	-7.197	-20.600	-123.656	-15.648	-120.550	0.00050759	0.0011534	0.00010004	134.64	1.517e-05	2.8606e-06	189.82	47.329	5.9211e-06	1.1199e-06	76.3	25.62	19.558	10.063	1.3565e-05	13.949	0.0008378	0.0008423	0.00023367	257.63	9.2049e-06	9.2181e-06	295.43	84.33	9.0881e-06	9.1388e-06	148.17	46.388	35.705	15.671	9.1512e-06	21.201	-39.244	-112.708	162.771	-121.733	217.228	-127.352	-122.008	-114.628	-131.456	-88.489	-119.234	-114.183	-110.476	-105.783	-62.883	-110.367	-8191	255	
2502.485	1	1	0	0	0.10439	0.063958	0.17039	0.088483	0.17249	0.099149	0.028135	0.41529	0.075066	0.233	0.17273	0.09153	0.024986	0.026916	0.14038	0.24599	-2.1979	-1.9417	-2.8979	-2.0729	-2.4083	-2.7812	-1.6938	-2.5271	-2.5021	-1.9729	-2.6042	-2.1646	-2.1792	-2.6917	-1.8896	-2.4417	-59.167	73.083	195.470	126.982	185.219	-36.449	200.992	25.866	-130.263	-114.159	156.465	193.333	13.368	-100.321	-69.039	-62.452	0.00024461	0.00017869	0.00045295	134.3	7.0384e-06	4.9399e-06	195.45	48.9	4.9291e-06	6.8783e-06	76.872	26.234	19.368	10.371	5.5967e-06	14.276	0.000821	0.00082897	0.00022907	256.53	8.9924e-06	9.0224e-06	297.9	84.624	8.9999e-06	8.9981e-06	149.07	46.881	35.515	15.729	8.967e-06	21.417	-26.148	180.176	32.369	-120.092	156.123	45.072	-122.304	-114.603	25.710	-104.046	-117.979	-114.641	-110.092	-105.600	148.036	-110.470	-8191	255	
2502.581	1	1	0	0	0.078545	0.24396	0.080937	0.054834	0.056181	0.23931	0.1739	0.086555	0.15632	0.23056	0.34936	0.23355	0.098948	0.066817	0.094883	0.26956	-2.2792	-1.8563	-2.6063	-2.3021	-2.2021	-2.7167	-2.1063	-2.4625	-2.425	-1.8417	-2.8063	-2.2625	-2.0021	-2.7812	-2.1188	-2.4583	62.080	-126.630	57.384	205.734	-55.269	-37.327	4.195	-127.375	22.967	135.326	123.241	214.256	152.833	7.704	74.953	167.286	0.000261	0.00048276	0.00023602	136.75	5.1306e-06	2.7506e-06	195.04	47.779	2.7095e-06	3.3179e-06	75.931	26.181	18.98	9.9802	1.011e-05	13.691	0.00080205	0.00080801	0.00022537	253.84	8.7963e-06	8.7871e-06	295.52	83.251	8.729e-06	8.6744e-06	144.97	45.516	34.509	15.22	8.6297e-06	20.654	-108.008	-123.484	-11.948	-121.304	4.577	10.952	-122.563	-114.573	-15.008	22.832	-118.388	-114.824	-109.836	-105.511	-49.968	-110.665	-8191	255	
2502.677	1	1	0	0	0.084032	0.28434	0.068678	0.071286	0.12877	0.18257	0.27249	0.097764	0.20954	0.14667	0.071167	0.1403	0.11851	0.043463	0.2601	0.13519	-2.3021	-1.9229	-2.6396	-2.4521	-2.0187	-2.9167	-2.1979	-2.1437	-2.7146	-1.7938	-2.55	-2.3667	-1.9958	-2.7917	-1.9146	-2.0896	167.839	148.916	110.346	-128.324	94.685	-126.580	-1.606	48.174	176.860	-52.666	72.601	-105.666	-76.125	206.181	26.128	-44.205	0.00043194	0.00057921	0.00013074	134.3	9.3251e-06	3.1957e-06	193.02	47.693	1.0108e-06	8.8398e-06	74.249	25.773	18.863	9.9221	5.8655e-06	13.869	0.00078013	0.00078174	0.00021851	250.02	8.5567e-06	8.5272e-06	291.01	81.549	8.5029e-06	8.5289e-06	142.45	44.734	34.039	15.01	8.468e-06	20.493	-62.066	3.377	172.207	-121.194	206.584	171.397	-122.718	-114.165	-69.299	-90.215	-117.385	-114.693	-110.637	-104.488	55.575	-110.143	-8191	255	
2502.771	1	1	0	0	0.076016	0.13492	0.033619	0.37158	0.208	0.16145	0.12051	0.10392	0.12833	0.070796	0.22924	0.19445	0.25013	0.13459	0.020108	0.11211	-2.2917	-1.7938	-2.5417	-2.4021	-1.8813	-2.8021	-2.3	-2.1792	-2.8083	-2.0396	-2.2687	-2.4646	-1.7229	-2.5833	-2.2812	-2.1312	-93.476	-124.529	37.000	179.941	-14.908	197.054	-54.441	-74.246	97.021	98.198	172.451	90.872	119.528	-11.958	-113.737	-59.603	0.00046488	0.00012979	4.6896e-05	135.07	5.6826e-06	1.0987e-06	193.6	47.717	5.9946e-06	4.9484e-06	74.675	25.577	19.145	9.7627	2.0539e-06	13.694	0.00076911	0.00077259	0.00021498	247.38	8.4368e-06	8.4597e-06	290.55	81.458	8.4766e-06	8.4747e-06	142.79	44.826	34.121	14.941	8.4489e-06	20.287	-2.218	-26.300	-10.258	-121.153	85.089	27.069	-122.647	-114.742	173.498	-14.432	-118.679	-114.841	-109.604	-105.043	36.439	-110.100	-8191	255	
2502.869	1	1	0	0	0.0043467	0.12915	0.17225	0.38487	0.21061	0.12639	0.12875	0.072261	0.17298	0.24945	0.17982	0.24823	0.089993	0.35559	0.13073	0.15876	-2.4542	-2.2104	-2.3604	-2.6813	-2.0354	-2.65	-2.3146	-2.0875	-2.975	-1.8146	-2.2208	-2.6729	-1.8563	-2.5042	-2.5396	-2.25	118.680	-125.192	0.180	76.689	59.251	161.255	29.172	197.476	147.395	149.235	130.375	53.161	142.272	-43.252	-101.750	179.818	0.00032829	0.00057425	0.0002623	135.46	1.0292e-05	8.9368e-06	193.99	47.286	1.2752e-05	8.1467e-06	74.648	25.615	19.058	9.8532	1.9735e-06	13.727	0.00076533	0.00077142	0.00021434	247.08	8.3765e-06	8.4481e-06	290.39	80.971	8.3836e-06	8.4283e-06	142.23	44.721	33.923	14.943	8.4488e-06	20.443	15.245	53.775	-114.480	-122.051	121.006	-129.040	-122.128	-115.025	-71.066	76.648	-118.392	-114.012	-110.783	-105.244	-105.294	-110.459	-8191	255	
2502.988	1	1	0	0	0.11297	0.13782	0.1536	0.13315	0.15896	0.2649	0.23248	0.044585	0.08178	0.059136	0.42269	0.13871	0.20656	0.36295	0.087755	0.14943	-2.4958	-2.2	-2.1854	-2.7979	-2.0646	-2.7542	-2.3937	-2.0333	-2.7687	-2.0292	-2.2667	-2.7375	-1.9813	-2.5146	-2.7208	-1.9146	63.679	22.114	-76.809	9.541	-122.783	63.594	105.725	-112.912	-24.885	136.467	-61.447	138.500	145.992	192.703	215.876	197.672	0.00041399	0.00030146	8.2487e-05	134.47	9.1475e-06	9.1213e-06	196.32	46.759	5.8483e-06	3.58e-06	73.655	25.423	18.671	9.8939	6.0607e-06	13.703	0.0007628	0.00076622	0.0002138	246.78	8.39e-06	8.4229e-06	290.99	80.887	8.3914e-06	8.3861e-06	141.82	44.642	33.773	15.008	8.401e-06	20.516	9.242	116.468	-75.762	-121.497	-8.644	-82.757	-122.335	-114.649	175.452	135.881	-118.671	-114.716	-110.377	-105.823	18.172	-110.708	-8191	255	
2503.084	1	1	0	0	0.36209	0.18193	0.23704	0.25636	0.14642	0.17598	0.10727	0.15507	0.19986	0.1513	0.15609	0.13688	0.22722	0.16463	0.19251	0.18598	-2.3417	-2.3917	-2.25	-2.7229	-2.0729	-2.2188	-2.5583	-1.8646	-2.7375	-2.4083	-2.0396	-2.725	-2.1688	-2.3771	-2.5563	-2.0167	146.010	-116.490	150.980	-84.018	137.799	133.830	177.093	190.304	200.472	-77.480	-98.779	159.789	-72.352	168.902	173.239	-112.128	0.00018416	0.00090203	0.00032511	136.72	7.1252e-06	7.0642e-06	192.23	47.322	1.0283e-05	3.2904e-06	74.317	25.386	19.106	9.8792	9.2986e-06	13.71	0.00076191	0.0007637	0.00021302	247.24	8.3571e-06	8.3776e-06	289.03	80.695	8.3396e-06	8.3227e-06	140.9	44.339	33.656	14.923	8.3058e-06	20.388	30.713	-33.131	18.093	-120.843	-86.910	87.859	-123.475	-115.207	-124.468	215.340	-119.879	-114.078	-109.549	-105.271	-117.823	-110.986	-8191	255	
2503.180	1	1	0	0	0.17173	0.41406	0.2986	0.25395	0.13023	0.17796	0.19872	0.38714	0.16766	0.068806	0.10111	0.27851	0.32308	0.17296	0.067831	0.10475	-2.2667	-2.3354	-1.9979	-2.8146	-1.9896	-2.3354	-2.8104	-1.8771	-2.5312	-2.5083	-2.0354	-2.9771	-2.2979	-2.2104	-2.8083	-2.1208	139.723	-131.285	-116.543	166.233	132.106	-6.194	149.269	209.002	132.196	-122.430	143.640	16.830	140.097	27.215	187.940	94.200	6.3241e-05	0.00077606	0.00027279	132.29	1.1359e-05	3.9056e-06	194.06	46.361	5.0855e-06	4.2139e-06	73.769	25.855	19.397	9.9349	6.7798e-06	13.947	0.00075079	0.00075452	0.00021201	243.83	8.2511e-06	8.3247e-06	287.88	80.115	8.2334e-06	8.2449e-06	140.3	44.263	33.588	14.93	8.2403e-06	20.502	178.211	73.754	-25.471	-122.710	10.394	87.592	-122.830	-114.545	208.805	21.233	-118.650	-114.201	-111.112	-105.800	74.795	-111.474	-8191	255	
2503.277	1	1	0	0	0.028402	0.10591	0.05962	0.19867	0.20879	0.31125	0.27203	0.083337	0.051745	0.16872	0.18284	0.2454	0.25096	0.081868	0.088367	0.071636	-2.2979	-2.4	-1.8292	-2.7458	-2.0854	-2.1	-2.4729	-1.8958	-2.4854	-2.5979	-1.875	-2.6958	-2.3042	-2.1708	-2.8833	-2.15	215.529	137.295	74.442	180.133	161.713	22.667	38.865	158.321	165.087	222.562	-121.463	-128.495	-18.523	-103.319	42.468	223.895	0.0003593	0.00043516	0.00019882	133.96	9.3437e-06	4.1035e-06	195.09	47.244	1.1682e-05	5.4003e-06	75.525	26.055	19.074	10.028	7.7059e-06	14.145	0.0007469	0.00075341	0.00020897	243.59	8.1637e-06	8.202e-06	287.29	79.804	8.2009e-06	8.2263e-06	140.57	44.557	33.485	15.023	8.2486e-06	20.69	-12.707	1.412	68.000	-121.158	215.010	72.935	-123.017	-114.511	-26.300	-114.295	-120.032	-114.594	-111.389	-105.866	206.873	-110.382	-8191	255	
2503.373	1	1	0	0	0.097538	0.18262	0.17154	0.17495	0.073735	0.15624	0.13721	0.17191	0.14202	0.22068	0.11817	0.18727	0.076866	0.081116	0.11657	0.23789	-1.9229	-2.775	-1.9396	-2.575	-2.2833	-1.9688	-2.8167	-2.1021	-2.3438	-2.6583	-1.975	-2.5854	-2.25	-2.125	-2.8812	-2.0021	-13.196	5.562	187.375	43.224	113.612	62.568	-88.312	208.044	83.790	177.891	-3.065	-33.453	-42.816	214.978	85.169	61.622	0.0003765	0.00021431	0.00020364	133.69	3.5343e-06	2.9196e-06	195.1	47	1.1962e-05	8.8925e-06	76.521	26.567	19.491	10.071	7.383e-06	14.39	0.00074364	0.00074777	0.00020948	244.17	8.1653e-06	8.1834e-06	288.33	80.096	8.1865e-06	8.1678e-06	140.37	44.689	33.744	15.12	8.1362e-06	20.931	-41.772	58.829	157.164	-120.588	114.594	-41.512	-122.957	-115.462	13.816	42.453	-118.562	-114.745	-110.545	-105.742	-98.345	-111.603	-8191	255	
2503.469	1	1	0	0	0.14797	0.12638	0.12298	0.028045	0.10242	0.064007	0.050647	0.090201	0.24073	0.35423	0.12144	0.10207	0.23001	0.15597	0.22759	0.13596	-1.9146	-2.7313	-1.9771	-2.5917	-2.5542	-2.0687	-2.7812	-2.0938	-2.2062	-2.8	-1.9042	-2.5125	-2.5354	-1.9458	-2.5875	-2.3646	-9.808	-34.914	-46.916	54.583	34.397	-112.568	53.534	-83.757	-18.709	-47.855	89.647	80.632	-99.171	145.174	85.080	106.343	0.00036324	0.00064169	9.7512e-05	135.39	8.1743e-06	8.0934e-06	195.66	47.84	4.8615e-06	5.0281e-06	76.331	26.761	19.569	10.497	4.0671e-06	14.891	0.000739	0.00074023	0.00020682	242.61	8.1229e-06	8.1439e-06	287.5	80.368	8.1149e-06	8.0812e-06	140.54	44.958	33.811	15.378	8.0687e-06	21.228	-9.859	-95.864	-51.984	-122.071	-24.917	186.526	-122.930	-114.847	-75.910	-58.319	-119.207	-114.397	-111.484	-105.040	-108.871	-110.619	-8191	255	
2503.590	1	1	0	0	0.18492	0.1255	0.12558	0.10044	0.25508	0.094932	0.090262	0.075915	0.13065	0.27902	0.10577	0.068789	0.17488	0.11455	0.12068	0.12794	-1.7104	-2.6417	-1.8854	-2.5042	-2.525	-1.8833	-2.8438	-2.3771	-1.8833	-2.6396	-1.8292	-2.5417	-2.5458	-1.8813	-2.6125	-2.3021	-45.291	-8.433	-90.194	213.432	107.631	74.178	-41.950	-74.567	1.713	185.019	189.093	-82.780	-74.030	119.143	178.830	-38.900	0.00042344	0.00029043	9.8589e-05	131.87	3.2839e-06	4.0946e-06	195.76	48.462	1.7784e-06	4.3394e-06	75.778	26.861	19.493	10.622	4.4578e-06	14.903	0.00072964	0.00073036	0.00020358	240.35	8.0068e-06	7.9965e-06	285.88	80.071	7.9614e-06	7.9438e-06	139.68	44.804	33.723	15.372	7.9122e-06	21.21	3.271	-110.781	-82.071	-121.598	2.710	23.927	-121.951	-114.762	-11.571	-50.775	-118.002	-115.005	-110.946	-105.909	81.793	-110.552	-8191	255	
2503.686	1	1	0	0	0.28426	0.24933	0.055508	0.1678	0.13651	0.16563	0.13455	0.13138	0.14422	0.06811	0.31723	0.30955	0.24658	0.11618	0.036833	0.19699	-1.6437	-2.5708	-1.9521	-2.3125	-2.4292	-1.9688	-2.7854	-2.3125	-1.9167	-2.8125	-2.0875	-2.2542	-2.7354	-1.9146	-2.6146	-2.4521	-128.132	134.060	178.330	-97.409	212.175	189.247	-45.290	-101.215	96.027	206.260	-31.611	145.537	132.489	48.980	178.498	105.341	0.00030459	0.00012731	9.246e-05	133.58	5.3578e-06	8.9366e-07	195.99	47.701	2.8068e-06	7.0107e-07	76.679	27.219	19.779	10.613	8.662e-06	15.368	0.00071869	0.00072238	0.00020162	239.16	7.9036e-06	7.9193e-06	285.8	79.608	7.8586e-06	7.8871e-06	139.24	44.759	33.712	15.405	7.8886e-06	21.472	-94.628	216.971	-15.316	-120.941	-50.361	158.862	-123.208	-114.144	-81.799	-11.519	-118.948	-115.017	-110.791	-105.547	-111.422	-110.747	-8191	255	
2503.780	1	1	0	0	0.13523	0.13338	0.16276	0.17551	0.046558	0.15315	0.090831	0.17397	0.37088	0.11358	0.18931	0.21034	0.36136	0.15037	0.11864	0.091516	-1.4833	-2.7354	-2.0312	-2.3875	-2.5521	-2.0917	-2.5771	-2.3021	-1.9292	-2.6896	-2.2646	-2.125	-2.75	-1.9917	-2.4292	-2.5667	189.782	13.805	217.770	125.614	-22.203	-123.631	94.917	124.287	-99.228	77.168	14.380	69.804	225.152	149.888	68.562	98.336	0.00032311	0.00071192	0.00015394	133.48	2.3625e-06	5.058e-06	196	48.183	4.8751e-06	1.3717e-06	76.634	27.545	19.763	10.66	3.5023e-06	15.521	0.00071115	0.00071618	0.00019939	238.03	7.8349e-06	7.8545e-06	285.23	79.796	7.8649e-06	7.8507e-06	139.73	44.848	33.701	15.43	7.942e-06	21.649	-91.905	10.299	-11.197	-121.391	221.902	117.789	-122.694	-114.945	125.740	-14.889	-118.937	-114.793	-110.981	-105.634	-36.483	-111.015	-8191	255	
2503.876	1	1	0	0	0.17345	0.092383	0.032674	0.097496	0.18517	0.19994	0.098783	0.33212	0.24293	0.19364	0.21296	0.055363	0.23824	0.089726	0.13792	0.2	-1.5208	-2.5646	-2.2583	-2.1437	-2.8875	-1.9979	-2.5125	-2.5083	-1.8042	-2.8208	-2.325	-1.9896	-2.8438	-2.1688	-2.3563	-2.6854	189.424	-113.101	85.134	63.336	80.011	168.635	-5.980	22.946	68.613	44.795	-113.322	-88.617	68.663	-12.499	-12.385	143.137	0.00032254	0.00016596	0.00030093	133.55	4.7838e-06	4.1977e-06	195.98	48.645	4.5652e-06	5.7236e-06	77.479	27.555	20.198	10.899	9.4493e-07	15.868	0.00071536	0.00071941	0.00020052	238.57	7.885e-06	7.8896e-06	286.43	79.733	7.9168e-06	7.9443e-06	139.71	45.266	34.054	15.638	7.8895e-06	21.942	89.753	-67.648	91.071	-120.498	-35.060	-36.553	-122.924	-114.795	-97.527	144.292	-118.710	-114.385	-110.056	-105.968	-37.929	-110.199	-8191	255	
2503.972	1	1	0	0	0.06984	0.15012	0.35577	0.095435	0.11084	0.076033	0.10864	0.32863	0.073982	0.30511	0.059491	0.13182	0.17927	0.32053	0.22815	0.3253	-1.4937	-2.6729	-2.2854	-2.05	-2.8771	-2.0396	-2.2854	-2.7125	-1.875	-2.6229	-2.4021	-1.9562	-2.9292	-2.1688	-2.1312	-2.8854	-69.082	208.807	180.428	206.666	-106.866	-127.617	-82.024	131.387	-33.187	159.694	85.133	-73.853	47.932	-121.109	-53.554	124.057	0.00015053	0.00040596	7.134e-05	133.46	8.0899e-06	4.3441e-06	194.09	48.344	4.161e-06	3.8946e-06	77.216	27.355	19.789	11.028	1.3869e-05	15.93	0.00071257	0.00071928	0.00020025	238.14	7.8239e-06	7.8663e-06	284.69	79.58	7.8591e-06	7.8447e-06	138.78	45.145	33.709	15.668	7.8983e-06	21.995	-47.675	-29.372	215.885	-121.176	75.308	-55.630	-122.245	-114.874	100.528	-0.928	-118.493	-114.192	-109.690	-106.150	-73.786	-110.552	-8191	255	
2504.069	1	1	0	0	0.22711	0.21514	0.21945	0.059105	0.22671	0.16485	0.18278	0.0081546	0.13574	0.10313	0.29259	0.16213	0.14965	0.30011	0.3626	0.12437	-1.5396	-2.5417	-2.575	-1.9	-2.7125	-2.075	-2.1792	-2.7208	-1.8333	-2.4688	-2.5146	-2.0271	-2.8167	-2.3583	-2.1312	-3.0083	-104.786	-103.900	7.966	79.591	-66.943	-65.338	176.950	176.194	157.480	-111.642	109.054	3.519	71.277	-104.968	203.265	199.256	0.00024587	0.00040786	0.00017536	134.53	4.1814e-06	6.6489e-06	195.05	47.967	2.3307e-06	2.0353e-06	76.927	28.069	20.212	11.129	4.5411e-06	16.181	0.00071559	0.00071667	0.00019983	237.41	7.806e-06	7.8026e-06	285.05	79.412	7.8529e-06	7.8192e-06	139.06	45.372	33.884	15.84	7.8347e-06	22.321	-10.308	67.178	214.148	-120.904	21.087	-31.830	-122.683	-114.423	-64.612	-23.308	-119.176	-114.050	-110.500	-105.876	-116.593	-111.350	-8191	255	
2504.165	1	1	0	0	0.31176	0.1754	0.22966	0.13694	0.13275	0.13673	0.1856	0.10291	0.13198	0.2683	0.21556	0.14818	0.20674	0.10702	0.16063	0.091644	-1.6187	-2.2042	-2.6813	-1.8604	-2.5917	-2.2896	-2.0104	-2.6667	-2.0062	-2.3292	-2.5354	-1.8354	-2.5062	-2.3417	-2.0042	-2.7458	145.826	32.085	-63.207	-45.860	-94.902	64.780	73.260	0.652	193.643	-104.946	-9.466	127.518	192.740	-34.607	-99.957	205.791	0.00056359	0.00056284	0.00024009	130.96	3.98e-06	9.2288e-06	194.92	48.768	9.785e-07	5.6298e-06	78.053	28.097	20.179	11.302	8.0664e-06	16.618	0.00070634	0.00071292	0.00019912	236.83	7.8409e-06	7.8086e-06	285.44	79.863	7.8307e-06	7.8076e-06	139.81	45.667	33.996	15.903	7.85e-06	22.611	-25.696	-22.262	116.208	-121.244	134.738	70.495	-122.488	-114.912	183.918	203.136	-119.355	-114.512	-109.733	-105.808	209.107	-110.689	-8191	255	
2504.261	1	1	0	0	0.14085	0.12629	0.071658	0.071505	0.18804	0.17423	0.21622	0.2597	0.29008	0.14836	0.15303	0.14056	0.23835	0.11099	0.11337	0.15963	-1.7938	-2.1521	-2.7396	-1.9729	-2.4292	-2.6	-1.9604	-2.8542	-2.1333	-2.2021	-2.7854	-2.0917	-2.5146	-2.7583	-2.0771	-2.575	-79.839	155.819	51.363	-69.702	160.561	192.801	-53.298	-71.366	121.374	-47.532	121.321	104.909	225.232	15.115	106.570	-116.892	0.00057813	0.00087721	0.00017297	133.3	5.9177e-06	2.5817e-06	198.38	48.525	4.1645e-06	3.9565e-06	78.353	28.746	20.095	11.42	6.1705e-06	16.399	0.00070605	0.00071133	0.00019913	237.6	7.8207e-06	7.7971e-06	286.49	79.73	7.7903e-06	7.7939e-06	139.07	45.529	33.866	15.938	7.7569e-06	22.506	-54.855	-127.044	-29.157	-121.133	100.019	109.453	-122.516	-113.783	105.371	127.580	-118.834	-114.698	-110.415	-105.530	13.993	-111.215	-8191	255	
2504.381	1	1	0	0	0.2148	0.04683	0.29989	0.25453	0.094486	0.18009	0.25884	0.088611	0.17522	0.19874	0.18592	0.12072	0.096952	0.10973	0.10541	0.2336	-1.9021	-1.8729	-2.8625	-2.0583	-2.3937	-2.6417	-1.8854	-2.7104	-2.2938	-2.1771	-2.7792	-2.0583	-2.2542	-2.6479	-2.0563	-2.8375	12.707	17.511	-75.112	226.473	-53.789	-104.045	192.421	124.535	198.561	111.377	-71.018	222.822	-28.837	65.444	-22.204	166.491	0.00067279	0.00027609	9.7879e-05	130.87	7.0172e-06	3.8139e-06	195.76	47.449	2.4639e-06	2.0876e-06	76.829	28.567	20.006	11.508	2.4389e-06	16.905	0.00069925	0.00070555	0.00019526	234.45	7.7016e-06	7.7084e-06	282.93	78.541	7.6855e-06	7.6951e-06	137.7	45.406	33.648	16.009	7.7259e-06	22.814	22.671	65.653	3.777	-121.132	-57.129	86.418	-122.385	-114.901	119.372	104.307	-118.063	-114.429	-109.888	-105.917	195.035	-110.389	-8191	255	
2504.478	1	1	0	0	0.097385	0.27493	0.091943	0.14423	0.13156	0.11031	0.19793	0.30303	0.016665	0.14114	0.12443	0.287	0.16593	0.076855	0.20747	0.11876	-1.9188	-1.9083	-2.8146	-2.1354	-2.4333	-2.7833	-1.7875	-2.6458	-2.3792	-1.9542	-2.7333	-2.0896	-2.2833	-2.8604	-2.0125	-2.5146	214.892	93.655	24.858	47.276	122.036	211.233	203.186	-113.337	-71.003	-12.317	20.335	-50.132	155.175	214.807	-2.632	94.710	0.00034457	0.00023511	0.00021947	131.22	7.1127e-06	5.5392e-06	192.11	48.157	7.6025e-06	6.8494e-06	77.429	28.842	20.227	11.572	1.8132e-07	17.017	0.00069951	0.00070349	0.00019636	233.77	7.6964e-06	7.7129e-06	281.68	78.833	7.7292e-06	7.7033e-06	137.94	45.869	33.874	16.113	7.7213e-06	23.042	28.087	118.720	-17.548	-121.090	12.532	54.594	-122.884	-114.039	226.184	174.391	-118.680	-114.591	-109.494	-105.773	155.643	-111.021	-8191	255	
2504.549	1	1	0	0	0.13541	0.069448	0.12266	0.29933	0.16986	0.053243	0.1403	0.12658	0.21193	0.2844	0.25227	0.23354	0.15996	0.0060286	0.31611	0.20548	-2.2792	-1.9813	-2.8292	-2.2729	-2.1312	-3.0354	-1.9979	-2.5583	-2.725	-1.9062	-2.6333	-2.4354	-2.2167	-2.8854	-2.0417	-2.3833	54.228	-19.381	38.490	157.107	-33.585	6.405	-114.263	-77.099	99.514	-5.333	129.632	-31.697	-76.637	107.834	-82.863	20.533	9.408e-06	0.00032452	0.00014404	131.73	3.7535e-06	5.8616e-06	196.79	47.667	6.1838e-06	9.2737e-06	78.3	29.928	20.725	11.765	5.6986e-06	17.587	0.00070162	0.00070579	0.00019616	233.65	7.7629e-06	7.7402e-06	284.3	79.298	7.7457e-06	7.728e-06	139.72	46.829	34.35	16.351	7.7547e-06	23.487	-117.040	158.725	-81.507	-121.390	13.059	-5.204	-122.638	-114.710	123.485	-77.736	-118.909	-114.623	-109.521	-105.820	52.149	-111.000	-8191	255	
2504.670	1	1	0	0	0.18252	0.13118	0.040133	0.20375	0.19626	0.12051	0.050511	0.15886	0.24763	0.14079	0.063241	0.15561	0.26107	0.28059	0.23201	0.066417	-2.1521	-2.0479	-2.7687	-2.3167	-2.0104	-2.7375	-2.2271	-2.5396	-2.6125	-1.9896	-2.6417	-2.4667	-2.1875	-2.7833	-2.0604	-2.3	83.185	160.069	-23.286	49.025	-110.873	-4.744	45.284	114.624	0.422	223.008	-99.935	117.337	-81.918	-100.412	52.987	163.105	0.0004157	0.00037371	0.0002508	132.48	5.6679e-06	8.8057e-06	198.25	48.797	5.963e-06	1.5434e-06	78.391	29.4	20.743	11.6	1.1063e-06	17.281	0.00070475	0.00070808	0.00019697	235.05	7.7442e-06	7.7873e-06	285.57	79.626	7.7857e-06	7.7903e-06	139.78	46.793	34.393	16.334	7.8447e-06	23.28	13.827	70.997	-109.108	-121.470	-34.001	-97.245	-122.379	-114.739	157.097	134.799	-117.933	-114.215	-110.285	-105.494	149.841	-110.012	-8191	255	
2504.764	1	1	0	0	0.24474	0.27265	0.081845	0.22954	0.072578	0.056864	0.2331	0.12207	0.20779	0.19427	0.1458	0.16114	0.040878	0.091517	0.18782	0.24953	-2.325	-1.9292	-2.6188	-2.5792	-2.0229	-2.6583	-2.1188	-2.3229	-2.7625	-1.9312	-2.5583	-2.4854	-1.9646	-2.7313	-2.3167	-2.1813	81.870	31.669	-127.720	-131.736	-29.773	59.084	196.398	124.728	143.259	-111.761	226.527	-102.873	215.993	215.473	118.999	-132.480	0.00022408	0.00074401	0.00020098	133	5.8921e-06	1.3763e-06	195.09	47.328	8.3506e-06	7.0913e-06	77.56	29.529	20.604	11.625	4.2715e-06	17.066	0.00071042	0.00071205	0.00019884	235.56	7.7857e-06	7.832e-06	284.35	79.493	7.8677e-06	7.8537e-06	139.74	46.634	34.271	16.261	7.8498e-06	23.06	-4.609	17.477	-88.037	-120.210	165.977	-82.372	-122.781	-114.826	66.698	-88.843	-118.500	-114.618	-110.117	-105.262	10.236	-109.880	-8191	255	
2504.860	1	1	0	0	0.15998	0.1588	0.38274	0.13788	0.13299	0.092758	0.14364	0.12422	0.12069	0.22201	0.27118	0.36847	0.052384	0.013634	0.035125	0.15734	-2.3312	-2.0125	-2.6083	-2.7771	-1.9375	-2.8833	-2.4479	-1.9208	-2.9333	-2.0229	-2.4271	-2.75	-1.9646	-2.6729	-2.2271	-2.1958	-11.029	102.467	198.804	143.373	-73.963	-74.413	46.161	184.816	78.187	80.693	-7.593	128.701	-27.010	-56.646	-64.658	-92.122	0.00034102	0.00030523	0.00011937	131.33	8.0875e-06	2.5031e-06	195.84	47.075	2.815e-06	3.4812e-06	77.877	28.893	19.715	11.21	6.0395e-06	16.437	0.00071095	0.00071602	0.00020008	236.13	7.8755e-06	7.8423e-06	284.91	79.223	7.8125e-06	7.8375e-06	138.87	46.115	33.967	15.923	7.9094e-06	22.667	-73.195	-114.998	4.980	-120.453	-109.828	92.840	-122.180	-114.663	-121.384	0.232	-117.964	-114.376	-109.067	-105.344	-67.172	-110.442	-8191	255	
2504.957	1	1	0	0	0.13956	0.1023	0.21269	0.028754	0.1617	0.29469	0.25776	0.16522	0.27511	0.20023	0.13592	0.13501	0.16071	0.34927	0.086209	0.077954	-2.4479	-2.0521	-2.1333	-2.6437	-1.8521	-2.6667	-2.4229	-2.0563	-2.6458	-2.0958	-2.3354	-2.7354	-1.9479	-2.7313	-2.45	-2.1042	-93.405	33.025	-2.963	221.034	51.500	211.433	124.228	-132.004	198.869	166.270	203.597	-92.917	93.114	101.731	-66.957	-128.010	0.00033083	0.00064126	9.7124e-05	132.47	5.4212e-06	5.8019e-06	196.19	47.542	5.1555e-06	2.3231e-06	77.122	28.612	19.955	11.145	4.5329e-06	16.422	0.00071488	0.00072188	0.00020169	237.13	7.8918e-06	7.9526e-06	286.28	79.328	7.9138e-06	7.9667e-06	139.93	46.284	33.962	15.894	7.982e-06	22.616	-11.519	-114.549	113.100	-121.564	-34.833	36.474	-122.881	-115.325	27.016	177.915	-118.522	-114.047	-109.420	-105.757	-61.214	-110.195	-8191	255	
2505.077	1	1	0	0	0.33936	0.15227	0.25653	0.21495	0.25033	0.27772	0.1995	0.14112	0.075314	0.27076	0.087142	0.073991	0.2063	0.22646	0.033912	0.14898	-2.3729	-2.1667	-2.3417	-2.7208	-2.1562	-2.6208	-2.6354	-2.0229	-2.7188	-2.2438	-2.2062	-2.9958	-1.9333	-2.4854	-2.5438	-1.9604	-37.888	164.591	184.632	-36.217	-16.363	-76.168	-115.507	-106.211	-27.575	-7.126	117.478	-116.984	143.474	-93.102	-69.646	123.367	0.00016835	0.00050658	0.00012835	132.52	2.7456e-06	7.0608e-06	199.94	47.422	4.7543e-06	8.3547e-06	76.406	28.219	19.922	10.952	1.0578e-05	16.391	0.00072011	0.00073027	0.00020351	238.54	8.0072e-06	8.0121e-06	288.01	79.552	8.0443e-06	8.0153e-06	140.79	46.244	34.03	15.829	8.1038e-06	22.646	-115.541	-111.843	128.637	-121.225	101.136	115.171	-122.484	-114.397	-59.265	47.183	-118.523	-114.788	-110.095	-105.540	40.158	-110.768	-8191	255	
2505.173	1	1	0	0	0.12584	0.11291	0.24141	0.11124	0.064673	0.29909	0.27687	0.11817	0.16466	0.20828	0.13643	0.31185	0.16615	0.39407	0.13859	0.27821	-2.6125	-2.3187	-2.1896	-2.8	-1.8604	-2.4167	-2.6562	-2.0292	-2.8438	-2.5417	-2.0583	-2.775	-2.1146	-2.3	-2.6583	-2.0042	11.563	174.882	143.630	10.723	-103.626	112.894	124.639	-54.353	52.273	179.688	-37.445	71.255	133.027	227.028	-84.271	225.728	0.00031596	0.00039544	0.00021777	134.02	6.5637e-06	3.8471e-06	193.96	47.732	3.2993e-06	7.5509e-06	75.757	28.037	19.659	10.983	7.3954e-06	16.27	0.00073526	0.00074162	0.00020664	240.66	8.1211e-06	8.1501e-06	287.79	80.063	8.1694e-06	8.1664e-06	141.88	46.322	34.296	15.983	8.2239e-06	22.663	9.298	-63.081	-124.923	-121.017	17.200	74.099	-122.239	-114.790	23.231	-49.864	-118.901	-114.636	-109.987	-105.917	68.762	-109.921	-8191	255	
2505.270	1	1	0	0	0.061334	0.3153	0.064883	0.047979	0.26598	0.19653	0.20648	0.020955	0.10157	0.017875	0.13185	0.1098	0.14217	0.10307	0.15413	0.25114	-2.3396	-2.45	-2.0563	-2.5896	-2.1688	-2.3354	-2.8104	-2.1396	-2.6437	-2.4896	-2.1125	-2.8146	-2.1229	-2.3479	-2.7229	-2.15	71.477	91.477	121.312	-95.337	-103.981	-126.444	172.910	-90.470	94.851	44.022	87.564	-21.102	182.333	31.683	8.249	218.988	0.00021244	0.00050588	4.8955e-05	129.71	8.1579e-06	1.5965e-06	194.32	46.904	5.3102e-06	6.3166e-06	75.461	28.272	19.574	10.949	2.2609e-06	16.381	0.00074789	0.00075499	0.00021141	242.1	8.3244e-06	8.3598e-06	289.6	80.527	8.4051e-06	8.4029e-06	143.21	46.913	34.47	16.01	8.4909e-06	22.856	176.352	138.179	122.913	-122.172	208.421	166.693	-123.000	-114.339	82.555	-44.621	-117.579	-114.871	-109.609	-105.191	14.528	-110.706	-8191	255	
2505.366	1	1	0	0	0.2913	0.23407	0.38557	0.2075	0.25683	0.13681	0.16002	0.070891	0.073002	0.22437	0.15058	0.25842	0.37413	0.11409	0.081631	0.29314	-2.1583	-2.5396	-2.0333	-2.8	-2.2229	-2.0917	-2.8479	-2.0792	-2.3917	-2.5417	-2.0187	-2.7104	-2.3542	-2.125	-2.9	-1.9167	-132.505	-112.715	152.125	183.631	140.066	181.718	-57.917	-32.137	37.332	69.625	-34.752	22.426	161.879	37.293	-65.300	135.131	0.00029228	0.00075159	0.00025186	131.84	8.7453e-06	2.1013e-06	195.52	46.945	3.3589e-06	2.6031e-06	74.995	28.361	19.586	10.936	4.3838e-06	16.39	0.0007686	0.00077342	0.00021665	245.18	8.5211e-06	8.5722e-06	292.54	81.176	8.5529e-06	8.5304e-06	144.14	47.289	34.875	16.117	8.6458e-06	22.981	-33.351	-37.809	-131.820	-121.193	45.841	139.582	-122.480	-114.961	113.753	-75.805	-118.591	-114.305	-109.988	-105.507	179.253	-110.459	-8191	255	
2505.462	1	1	0	0	0.078568	0.21062	0.28747	0.019516	0.19234	0.041755	0.12796	0.24076	0.36773	0.1827	0.30169	0.10979	0.052552	0.16268	0.091837	0.062521	-2.0687	-2.7729	-1.9708	-2.5875	-2.4625	-1.9667	-2.8937	-2.0146	-2.2479	-2.8292	-1.8813	-2.5	-2.425	-2.1979	-2.7708	-2.1958	29.612	33.489	209.221	-109.423	122.149	-32.377	-69.646	225.772	97.641	170.627	-60.978	-66.815	-61.808	2.916	59.425	7.671	0.00086615	0.00031621	6.2368e-05	131.58	2.5629e-06	3.686e-06	197.23	47.205	5.5994e-06	1.8775e-06	76.344	28.043	19.827	10.972	3.0615e-06	16.239	0.00078216	0.0007864	0.00021883	247.97	8.619e-06	8.6493e-06	295.18	82.072	8.6867e-06	8.6522e-06	145.56	47.433	35.063	16.168	8.6344e-06	22.958	52.307	163.675	-75.289	-121.303	194.874	109.082	-122.099	-114.257	-49.226	-47.686	-118.320	-114.168	-109.361	-105.079	-12.342	-110.001	-8191	255	
2505.558	1	1	0	0	0.042102	0.17117	0.39207	0.20408	0.18081	0.088949	0.16779	0.12372	0.10659	0.042245	0.071307	0.13912	0.13511	0.2586	0.10066	0.10123	-1.9312	-2.7521	-1.8	-2.6375	-2.4	-1.9521	-2.7521	-2.3979	-1.9562	-2.6792	-2.0208	-2.5083	-2.575	-2.05	-2.9688	-2.5146	56.028	226.114	-48.418	-125.331	213.666	164.882	-51.445	22.660	97.514	109.312	81.720	-10.775	179.815	32.580	51.572	-47.966	0.00060032	0.00036013	9.356e-05	131.62	1.4423e-06	6.151e-06	192.25	46.504	1.5444e-06	1.5123e-06	74.378	27.246	18.984	10.669	6.8191e-06	15.635	0.00078294	0.00078547	0.00021966	247.58	8.5924e-06	8.574e-06	291.63	81.125	8.5705e-06	8.567e-06	143.9	46.516	34.501	15.871	8.5677e-06	22.439	4.305	42.099	-91.017	-121.469	94.791	27.979	-121.956	-114.164	-104.881	-54.939	-118.827	-113.957	-109.630	-105.236	6.864	-110.540	-8191	255	
2505.679	1	1	0	0	0.067457	0.12484	0.053655	0.16487	0.16546	0.18984	0.13306	0.10917	0.061658	0.03305	0.072253	0.22322	0.23267	0.24251	0.27625	0.032846	-1.8312	-2.8229	-2.0583	-2.6229	-2.6458	-2.0083	-2.7667	-2.1875	-2.0687	-2.9521	-2.1021	-2.2917	-2.7	-1.875	-2.7313	-2.4792	45.451	173.532	196.669	181.474	-17.661	203.324	-119.152	190.284	-38.807	12.777	154.180	-131.309	-102.993	-31.803	-131.322	164.259	0.00017151	0.00073831	0.00018884	130.98	5.6069e-06	4.805e-06	191.85	46.133	8.6128e-07	9.8187e-07	74.115	27.17	19.286	10.488	4.2157e-06	15.435	0.00077686	0.00078353	0.00021855	245.94	8.5687e-06	8.6588e-06	291.9	80.64	8.6233e-06	8.593e-06	142.62	46.354	34.32	15.751	8.5879e-06	22.33	-61.452	-48.006	-41.340	-121.409	159.777	10.740	-122.398	-114.109	123.433	-46.735	-118.905	-115.078	-110.060	-105.525	129.179	-110.680	-8191	255	
2505.773	1	1	0	0	0.11415	0.16054	0.12191	0.2318	0.057304	0.16793	0.15621	0.13635	0.21925	0.093469	0.030777	0.17665	0.21171	0.22168	0.10013	0.18156	-1.7042	-2.7458	-2.0979	-2.275	-2.6146	-2.1125	-2.5875	-2.5083	-2.1604	-2.85	-2.3563	-2.1937	-2.6312	-1.9458	-2.6292	-2.7	125.282	200.355	140.712	220.368	-31.479	36.728	144.762	180.490	-57.915	-38.704	5.235	-83.683	173.206	184.290	146.160	97.147	0.00079748	0.00082495	0.00016833	130.84	6.5045e-06	6.1521e-06	194.73	45.963	3.1415e-06	1.019e-06	74.948	27.172	18.989	10.407	4.0699e-06	15.522	0.00078157	0.00078173	0.00021824	246.71	8.5861e-06	8.6011e-06	292.18	80.419	8.5635e-06	8.5833e-06	143.26	46.308	34.213	15.69	8.6064e-06	22.336	38.175	7.707	116.557	-121.207	6.195	-23.954	-122.618	-115.038	-110.669	19.723	-119.371	-113.499	-110.051	-105.682	196.377	-110.302	-8191	255	
2505.846	1	1	0	0	0.19558	0.045746	0.17761	0.23157	0.17469	0.11104	0.21628	0.2208	0.33824	0.27235	0.1555	0.3285	0.072689	0.19254	0.20621	0.49636	-1.6063	-2.8187	-2.1667	-2.1375	-2.85	-1.9146	-2.5542	-2.5583	-1.9104	-2.6771	-2.2333	-2.1396	-2.7542	-1.9417	-2.3396	-2.6167	5.908	185.889	-52.064	69.939	40.787	207.801	-132.437	38.450	39.385	74.425	-81.823	219.944	115.160	72.157	145.878	168.732	0.00017034	0.00024047	0.00022265	132.72	6.0793e-06	6.5269e-06	195.21	45.941	9.6657e-06	8.3822e-06	75.133	26.807	19.095	10.379	4.7071e-06	15.545	0.0007758	0.00078313	0.0002179	245.75	8.5689e-06	8.5939e-06	292.64	80.449	8.5793e-06	8.56e-06	142.8	46.125	34.105	15.636	8.5418e-06	22.235	-24.819	226.688	38.915	-121.685	41.730	40.900	-122.912	-114.754	-33.665	-8.483	-118.486	-113.986	-110.250	-105.653	150.834	-110.425	-8191	255	
2505.941	1	1	0	0	0.28827	0.12453	0.066883	0.048065	0.036995	0.082025	0.067387	0.13898	0.1603	0.3742	0.19214	0.10319	0.044552	0.30218	0.19929	0.34967	-1.3854	-2.4958	-2.3375	-2.2146	-2.6667	-2.2375	-2.3354	-2.5146	-2.0271	-2.7625	-2.6354	-2.1125	-2.8604	-2.1458	-2.0771	-2.6312	212.245	66.004	222.745	-31.263	-114.763	-20.158	173.109	126.987	-34.793	-29.081	125.313	20.596	100.113	185.286	170.758	184.969	0.00050789	0.00019511	0.00017959	132.09	4.3109e-06	5.9705e-06	192.85	46.029	6.538e-06	3.7137e-06	73.584	26.779	18.419	10.473	5.4e-06	15.407	0.00077577	0.00078297	0.00021719	245.5	8.5941e-06	8.5779e-06	292.24	80.363	8.5869e-06	8.5682e-06	142.42	46.039	34.126	15.707	8.5758e-06	22.243	44.069	168.594	227.138	-120.987	-82.322	-25.795	-122.523	-113.860	-20.158	4.045	-117.716	-114.455	-109.760	-105.254	204.279	-110.023	-8191	255	
2506.061	1	1	0	0	0.2202	0.067964	0.15271	0.21809	0.27232	0.064824	0.072983	0.18969	0.19976	0.08595	0.15431	0.32872	0.10519	0.040172	0.1571	0.11519	-1.6271	-2.4729	-2.6104	-1.9146	-2.8458	-2.3	-2.2438	-2.8229	-2.0062	-2.4479	-2.4167	-1.9375	-2.7438	-2.3812	-2.225	-2.7604	190.769	199.868	-46.411	133.844	96.396	151.412	82.094	213.867	157.797	207.626	102.481	95.153	125.537	-101.328	216.279	218.569	0.00050894	0.00058808	0.00022992	129.96	6.4053e-06	3.1763e-06	193.95	45.975	4.2862e-06	3.7371e-06	74.741	26.736	18.534	10.501	3.6918e-06	15.405	0.00077626	0.00078007	0.00021805	245.94	8.5258e-06	8.599e-06	291.61	80.275	8.5905e-06	8.5601e-06	142.49	46.081	34.152	15.765	8.5982e-06	22.324	-15.739	13.305	9.929	-121.340	110.159	204.536	-122.700	-114.678	23.396	-107.441	-119.576	-114.685	-110.927	-106.155	-46.507	-110.615	-8191	255	
2506.158	1	1	0	0	0.0081934	0.11121	0.2261	0.16009	0.13906	0.15235	0.27104	0.19224	0.2378	0.074584	0.049056	0.17289	0.038217	0.28506	0.059019	0.23789	-1.6146	-2.6146	-2.5542	-2.0187	-2.8417	-2.3604	-2.2583	-2.6937	-2.2167	-2.4271	-2.7146	-2.0062	-2.5646	-2.3167	-2.2042	-2.8021	166.530	115.987	70.043	198.293	-64.899	-30.117	127.081	-115.491	152.807	-90.870	124.161	37.347	-26.174	139.230	26.461	-3.237	0.00036853	0.00074981	4.8617e-06	129.61	2.7699e-06	5.7078e-06	193.22	46.433	9.7756e-06	7.2628e-06	73.344	27.135	19.155	10.791	6.4525e-06	16.026	0.00077619	0.00078321	0.00021774	245.06	8.5725e-06	8.573e-06	291.08	80.873	8.5109e-06	8.5469e-06	143.51	46.439	34.475	15.927	8.6045e-06	22.75	-2.900	186.346	105.011	-121.437	90.047	116.255	-123.334	-115.198	201.827	75.989	-118.970	-114.351	-110.055	-106.525	136.967	-111.524	-8191	255	
2506.254	1	1	0	0	0.069374	0.32565	0.076937	0.07007	0.077677	0.13595	0.22325	0.17079	0.23048	0.11277	0.13747	0.19325	0.15805	0.063122	0.23032	0.046974	-1.8208	-2.4292	-2.7271	-2.1896	-2.6458	-2.4042	-2.1333	-2.7542	-2.1312	-2.2375	-2.7917	-2.0854	-2.6729	-2.675	-2.0229	-2.9	41.954	-75.265	-67.032	164.267	-74.681	-34.719	161.959	8.740	50.267	-60.419	146.405	174.549	33.114	95.815	-120.076	218.912	0.00065563	0.00077271	0.00035716	130.09	1.2059e-06	4.6312e-06	196.09	46.611	1.1431e-05	7.2945e-06	76.522	27.881	19.563	10.952	5.8384e-06	16.465	0.00077538	0.00078353	0.00021746	245.92	8.5652e-06	8.5571e-06	293.05	80.779	8.5365e-06	8.5094e-06	144.11	47.152	34.569	16.077	8.5345e-06	23.066	-10.083	-60.927	154.913	-121.897	-79.930	-19.546	-122.756	-114.813	98.219	-63.607	-118.733	-114.871	-110.953	-106.280	73.645	-110.462	-8191	255	
2506.350	1	1	0	0	0.078465	0.11317	0.083457	0.38531	0.18707	0.12143	0.20797	0.13572	0.21309	0.30182	0.26664	0.1735	0.12335	0.13835	0.24086	0.02793	-1.7167	-2.3646	-2.725	-2.0771	-2.4813	-2.5938	-2.1875	-2.9042	-2.3146	-1.8854	-2.8979	-2.1146	-2.5312	-2.6312	-2.0667	-2.6604	114.019	7.252	65.032	157.042	1.166	171.284	12.252	-66.981	100.478	-88.153	50.795	184.301	167.537	221.586	-15.646	-45.831	0.00010627	0.00037399	0.00014147	131.94	5.2707e-06	6.23e-07	194.6	46.391	9.8398e-06	3.9097e-06	75.324	27.95	19.487	10.894	6.1404e-06	16.35	0.00077212	0.00077544	0.00021725	245.39	8.4858e-06	8.5262e-06	292.04	80.271	8.4874e-06	8.5176e-06	143.21	46.879	34.66	16.067	8.4665e-06	22.951	-53.493	17.131	97.515	-121.684	-79.165	-18.123	-123.064	-114.503	39.286	215.984	-118.703	-114.984	-110.206	-106.251	-10.837	-111.248	-8191	255	
2506.471	1	1	0	0	0.093191	0.13035	0.084946	0.13416	0.30318	0.15146	0.21159	0.29939	0.10029	0.24445	0.080485	0.14491	0.1201	0.27175	0.21032	0.17959	-1.9583	-2.1417	-2.7313	-1.8563	-2.3979	-2.7625	-1.9146	-2.6562	-2.3667	-2.2104	-2.8896	-2.2375	-2.2333	-2.7396	-1.9479	-2.5896	-124.438	129.142	202.553	216.073	-11.808	201.133	85.602	169.213	-110.958	215.649	31.490	204.923	-32.526	185.508	112.886	-36.552	0.00023868	8.5798e-05	0.00017714	131.44	1.2659e-06	4.6616e-06	191.62	46.506	3.8775e-06	3.7594e-06	75.568	28.258	19.65	11.029	5.7998e-06	16.517	0.00076265	0.00077358	0.00021463	243.31	8.4241e-06	8.4755e-06	289.92	80.432	8.3971e-06	8.4263e-06	142.82	46.946	34.581	16.156	8.4365e-06	23.027	0.105	147.153	203.196	-120.943	-32.949	153.257	-123.119	-114.752	-29.408	-15.463	-119.697	-114.958	-110.469	-106.172	80.034	-110.891	-8191	255	
2506.542	1	1	0	0	0.16625	0.41086	0.10132	0.15126	0.15306	0.16496	0.077205	0.35577	0.090487	0.21328	0.23352	0.19833	0.29828	0.14181	0.08214	0.20243	-2.2417	-1.9937	-2.8312	-2.1521	-2.2438	-2.675	-1.8979	-2.5938	-2.6875	-1.9875	-2.7229	-2.2271	-2.3271	-2.8958	-1.9396	-2.625	58.294	15.414	25.275	122.014	164.800	183.451	-71.843	-130.067	130.262	156.157	146.218	-0.008	24.244	-130.519	-120.331	76.788	0.00018648	0.00044051	5.2698e-05	130	6.8043e-06	3.029e-06	193.5	46.677	8.0882e-06	2.4453e-06	75.893	27.664	19.423	11.011	1.09e-05	16.28	0.00076506	0.00076773	0.00021372	242.36	8.3975e-06	8.399e-06	289.14	80.039	8.3991e-06	8.3532e-06	141.86	46.562	34.463	16.081	8.3966e-06	22.93	42.231	-100.647	77.170	-121.138	37.311	94.821	-122.740	-115.193	-84.499	178.722	-118.120	-115.296	-110.249	-105.988	169.859	-110.270	-8191	255	
2506.638	1	1	0	0	0.062031	0.31509	0.26126	0.015617	0.27197	0.016671	0.26343	0.12969	0.28005	0.097184	0.17398	0.073056	0.19127	0.11458	0.072845	0.36237	-2.1688	-1.9542	-2.7062	-2.3417	-2.0833	-2.7687	-2.1958	-2.5812	-2.6562	-1.9479	-2.675	-2.3229	-2.0104	-2.7042	-1.9396	-2.075	-51.643	204.146	223.528	206.724	34.841	-1.955	26.603	33.291	-6.645	-72.600	-97.803	199.231	3.654	-19.480	91.898	206.551	0.00057677	0.00081374	0.00016174	129.49	5.015e-06	8.7331e-06	193.99	46.688	2.9887e-06	6.6673e-06	75.97	27.765	19.22	10.971	7.5677e-06	16.356	0.00076397	0.00076612	0.00021486	242.61	8.4208e-06	8.4452e-06	290.03	80.459	8.4109e-06	8.4608e-06	142.76	46.744	34.479	16.018	8.4402e-06	22.938	12.570	-60.917	-75.908	-122.309	39.337	69.266	-123.277	-114.885	-129.861	-59.764	-118.702	-114.475	-110.364	-105.818	105.734	-110.303	-8191	255	
2506.759	1	1	0	0	0.19665	0.091723	0.02216	0.16296	0.27454	0.10681	0.17478	0.13066	0.081534	0.20229	0.018247	0.018666	0.16038	0.17798	0.031221	0.22819	-2.1583	-1.8167	-2.6562	-2.2375	-1.8062	-2.8146	-2.225	-2.2542	-2.7542	-2.0563	-2.6354	-2.4875	-2.1771	-2.9208	-2.2521	-2.2396	-71.018	107.021	222.493	18.987	80.040	146.851	210.529	83.790	22.405	201.487	-15.385	15.666	-62.598	5.346	66.337	0.129	0.00028132	0.00043278	0.0002337	130.14	5.3714e-06	4.4563e-06	193.33	46.397	1.4876e-06	1.3686e-06	76.394	27.796	19.369	10.994	5.5554e-06	16.202	0.0007598	0.00076677	0.00021462	243.51	8.4088e-06	8.4557e-06	290.15	80.278	8.369e-06	8.3953e-06	142.65	46.753	34.338	16.01	8.3874e-06	22.788	-31.218	13.126	133.565	-121.090	50.335	-126.369	-122.867	-115.492	49.207	-104.045	-117.539	-114.207	-110.239	-106.058	-67.155	-111.267	-8191	255	
2506.853	1	1	0	0	0.15442	0.2071	0.12878	0.1668	0.18209	0.13975	0.22294	0.14865	0.060143	0.068666	0.12389	0.036046	0.15628	0.090655	0.1895	0.34492	-2.4813	-2	-2.5875	-2.5604	-2.1333	-2.8083	-2.3708	-2.2729	-2.85	-2.1958	-2.3896	-2.6333	-2.0646	-2.6833	-2.3229	-2.4208	175.284	-23.470	47.082	119.072	166.378	-126.101	-78.585	-18.649	-128.571	0.422	-124.465	201.145	-62.295	-87.452	-93.156	-31.757	0.00015607	0.0008842	0.00013158	129.06	5.6528e-06	4.4116e-06	194.39	46.63	4.3633e-06	5.3635e-06	75.237	27.727	19.113	10.95	1.1025e-05	16.39	0.00076025	0.00076443	0.00021464	242.59	8.4109e-06	8.3976e-06	291.06	80.232	8.3831e-06	8.3867e-06	142.71	46.72	34.288	15.942	8.4221e-06	22.907	121.511	30.872	178.173	-121.424	49.629	-61.768	-123.778	-115.185	219.617	-15.745	-118.197	-114.449	-110.303	-105.888	-46.302	-110.352	-8191	255	
2506.950	1	1	0	0	0.061701	0.22445	0.16859	0.030385	0.21262	0.10361	0.23669	0.17284	0.11387	0.074642	0.27862	0.18957	0.15145	0.18698	0.16492	0.19943	-2.5354	-2.1167	-2.2583	-2.5687	-1.9458	-2.5667	-2.2687	-1.8875	-2.8312	-2.2438	-2.4583	-2.8167	-2	-2.7521	-2.3937	-2.0792	-46.892	77.077	134.046	62.366	-84.233	170.255	202.775	-69.707	14.143	120.808	77.004	76.393	223.069	47.686	-126.804	136.455	0.00081777	0.00031379	7.8404e-05	132.3	5.291e-06	4.3715e-06	197.1	46.253	5.7454e-06	4.8301e-06	76.764	28.588	19.548	10.921	3.5626e-06	16.339	0.00075898	0.00076967	0.00021358	243.93	8.42e-06	8.3922e-06	293.84	79.983	8.3906e-06	8.3817e-06	142.86	47.043	34.286	15.966	8.3503e-06	22.954	14.913	-24.094	-4.074	-121.545	-34.130	73.229	-122.933	-114.910	212.322	176.032	-119.069	-114.947	-110.535	-105.476	0.849	-110.754	-8191	255	
2507.070	1	1	0	0	0.27441	0.073999	0.22366	0.22316	0.12693	0.29478	0.28658	0.16286	0.061566	0.10047	0.22852	0.13071	0.018467	0.15718	0.17197	0.17865	-2.2792	-2.1667	-2.2021	-2.6896	-1.9375	-2.7167	-2.4083	-2.0854	-2.5708	-2.1417	-2.25	-2.8479	-1.8354	-2.4208	-2.4146	-2.275	120.190	41.992	40.440	163.098	-4.531	-128.887	143.643	97.255	86.430	-8.833	-130.840	-87.615	52.059	-68.031	-36.398	-128.271	0.0001698	0.00022519	6.9735e-05	131.89	5.1421e-06	8.1778e-06	200.02	46.11	4.4332e-06	6.6874e-06	77.154	28.136	19.267	10.951	8.6306e-06	16.635	0.00075873	0.00076091	0.000213	243.09	8.3756e-06	8.3707e-06	294.52	80.136	8.3295e-06	8.382e-06	143.21	47.041	34.306	16.036	8.3604e-06	23.088	-40.401	148.547	-75.135	-121.763	61.086	-1.469	-123.602	-114.880	178.085	-22.909	-118.629	-114.345	-109.986	-105.825	18.664	-110.669	-8191	255	
2507.142	1	1	0	0	0.31264	0.1487	0.33065	0.063737	0.094698	0.11553	0.06061	0.20639	0.21251	0.054092	0.197	0.057582	0.32696	0.38829	0.16679	0.12151	-2.6021	-2.2917	-2.2396	-2.8146	-2.0687	-2.5187	-2.8875	-1.9479	-2.7583	-2.4062	-2.1646	-2.7562	-2.0938	-2.3917	-2.7729	-2.1854	223.643	-130.102	3.957	61.972	30.014	132.197	-100.974	-113.562	56.427	119.384	-32.830	120.231	176.122	-110.251	167.232	70.786	0.0007096	0.0003977	0.00013747	129.85	9.7248e-06	2.7331e-06	198.5	46.137	1.5688e-06	6.1956e-06	75.474	27.994	19.436	10.826	2.2214e-06	16.13	0.00076021	0.00076045	0.00021333	243.33	8.3432e-06	8.3561e-06	293.14	80.106	8.31e-06	8.2982e-06	142.66	46.631	34.101	15.893	8.2844e-06	22.763	-25.562	64.014	80.539	-122.381	23.875	-72.236	-122.638	-114.790	163.762	70.064	-118.901	-113.826	-110.512	-105.632	100.422	-110.660	-8191	255	
2507.238	1	1	0	0	0.35572	0.078951	0.13497	0.068111	0.098003	0.11069	0.091099	0.29301	0.14913	0.13741	0.30913	0.18396	0.073662	0.27377	0.096568	0.19357	-2.1271	-2.3292	-2.0271	-2.8583	-1.9521	-2.3125	-2.7062	-1.8917	-2.7812	-2.5208	-2.0563	-2.8042	-2.1229	-2.3021	-2.9	-2.0333	-73.584	44.773	-74.905	124.020	171.946	-121.636	-56.530	224.345	-10.893	-40.007	-81.858	195.815	61.374	91.509	-78.207	208.206	0.0005355	0.00047387	0.00016173	133.78	4.1478e-06	4.986e-06	196.78	45.858	6.4947e-06	2.5267e-06	76.275	28.022	18.913	10.874	5.4364e-06	15.955	0.00075017	0.00075216	0.0002094	241.35	8.1701e-06	8.226e-06	290.72	79.188	8.2457e-06	8.2271e-06	141.33	46.077	33.774	15.76	8.2208e-06	22.535	-19.628	-74.454	5.222	-121.652	65.168	-107.010	-122.498	-114.559	195.471	109.238	-118.515	-113.960	-110.648	-105.335	27.823	-110.588	-8191	255	
2507.359	1	1	0	0	0.18874	0.17243	0.046171	0.032146	0.049097	0.37292	0.23692	0.13706	0.18546	0.1181	0.17605	0.10761	0.082672	0.17108	0.21216	0.070795	-2.1667	-2.4729	-2.0354	-2.7313	-2.225	-2.2333	-2.7271	-1.9417	-2.6521	-2.6625	-2.0854	-2.7083	-2.3333	-2.2708	-2.9479	-1.9521	30.401	6.132	-82.901	69.109	131.772	-128.613	-74.242	94.649	50.852	-111.908	-118.723	-127.678	-51.918	134.022	-110.804	42.992	0.00053778	0.00055047	0.00016526	130.1	2.5546e-06	3.0354e-06	197.05	46.904	2.8492e-06	5.0712e-06	77.47	28.101	19.22	10.816	1.775e-06	16.267	0.00074725	0.00074968	0.00020999	240.33	8.246e-06	8.2276e-06	290.76	79.58	8.1908e-06	8.2224e-06	142.09	46.35	33.958	15.765	8.2231e-06	22.642	56.497	-30.599	225.256	-121.404	177.196	76.811	-122.211	-115.554	63.493	163.983	-118.276	-114.494	-110.925	-106.414	41.677	-110.836	-8191	255	
2507.455	1	1	0	0	0.18528	0.15644	0.26334	0.0662	0.11119	0.1921	0.09395	0.067235	0.21769	0.13042	0.10759	0.11116	0.1878	0.30843	0.091196	0.058203	-2.1917	-2.6521	-1.8875	-2.8354	-2.4313	-2.1271	-2.6979	-2.0812	-2.5187	-2.6583	-1.9833	-2.6521	-2.3708	-2.1229	-2.8417	-2.1896	176.706	-115.746	146.792	-55.490	-22.681	36.916	15.092	-0.124	-93.931	214.523	154.927	176.316	110.810	-0.368	-110.449	-105.828	0.00025401	0.00022216	0.00022032	128.97	4.6526e-06	1.0924e-05	198.16	46.113	7.3883e-06	3.9142e-06	76.291	28.313	19.428	10.721	6.9355e-06	16.233	0.00074318	0.00075129	0.0002092	240.99	8.177e-06	8.2063e-06	291.86	79.497	8.2098e-06	8.1902e-06	141.54	46.242	33.938	15.711	8.2169e-06	22.671	29.881	30.137	211.008	-121.575	-47.031	18.743	-122.641	-114.608	137.843	-6.314	-118.652	-114.863	-110.554	-106.033	134.434	-110.484	-8191	255	
2507.551	1	1	0	0	0.068911	0.13908	0.088352	0.12271	0.27949	0.093384	0.13401	0.14743	0.20628	0.02982	0.19333	0.25484	0.12203	0.12	0.16073	0.20702	-2.0146	-2.7729	-1.8708	-2.5625	-2.325	-1.9917	-2.8583	-2.2667	-2.2333	-2.9229	-2.0167	-2.7	-2.6229	-1.9792	-2.7	-2.4125	-129.126	161.553	-53.972	46.145	106.554	-9.080	127.901	148.199	106.522	82.231	223.394	-54.842	-50.291	25.433	-40.488	72.130	0.00037026	0.00071736	0.00017724	131.16	4.6399e-06	3.6229e-06	198.95	45.895	7.1992e-06	4.2278e-06	76.217	28.12	18.956	10.784	6.2019e-06	16.184	0.00074163	0.00075027	0.00020931	241.25	8.1986e-06	8.2097e-06	292.5	79.295	8.2316e-06	8.203e-06	141.67	46.367	33.754	15.733	8.2187e-06	22.552	-28.826	30.938	-22.992	-121.259	206.044	113.713	-122.862	-115.422	29.437	162.538	-118.806	-114.708	-109.744	-105.660	-62.726	-111.664	-8191	255	
2507.647	1	1	0	0	0.22897	0.065527	0.061373	0.11008	0.32058	0.093509	0.1406	0.14563	0.17334	0.15958	0.26808	0.20731	0.17561	0.096263	0.18266	0.13144	-1.7625	-2.6562	-2.1771	-2.5042	-2.7083	-2.0917	-2.6667	-2.4021	-2.1562	-2.8146	-1.9375	-2.4875	-2.6208	-1.9979	-2.7792	-2.3271	32.334	5.241	211.299	-65.989	151.684	-77.606	216.613	82.613	129.012	-110.142	4.777	76.651	-105.933	89.625	-97.251	47.673	0.00021791	0.0008359	0.00026804	132.17	4.2089e-06	5.9467e-06	197.05	46.213	5.3966e-06	3.41e-06	77.64	27.723	19.36	10.718	5.7131e-06	15.987	0.00074271	0.00074688	0.00020872	240.64	8.1583e-06	8.1859e-06	291.22	79.493	8.1733e-06	8.1721e-06	141.47	46.066	33.808	15.667	8.1637e-06	22.445	-59.956	127.370	-89.716	-121.372	24.801	102.096	-123.353	-114.891	105.513	33.467	-118.624	-113.850	-110.891	-106.127	-105.190	-110.752	-8191	255	
2507.741	1	1	0	0	0.2771	0.083118	0.24	0.29366	0.28699	0.1111	0.025336	0.33718	0.15432	0.18664	0.26005	0.079752	0.12828	0.13265	0.13029	0.13162	-1.725	-2.7625	-2.1958	-2.1771	-2.7292	-1.9188	-2.7	-2.5146	-2.1063	-2.9208	-2.0625	-2.2917	-2.8937	-1.9438	-2.7125	-2.45	-5.982	-81.860	-131.209	201.788	141.677	11.202	-24.601	198.342	168.464	58.158	108.909	-124.109	89.119	177.012	121.446	42.499	0.00052557	0.00058959	0.00035535	130.51	2.0473e-06	4.4438e-06	196.8	45.874	5.8353e-06	8.2183e-06	75.844	27.803	19.145	10.729	4.5993e-06	16.142	0.00073961	0.00074657	0.00020748	239.82	8.1488e-06	8.1384e-06	289.34	78.934	8.1868e-06	8.1615e-06	140.47	45.878	33.724	15.667	8.146e-06	22.455	14.486	-58.337	-118.799	-121.533	145.152	155.522	-122.669	-115.052	123.654	-6.746	-118.453	-114.838	-110.878	-105.646	-89.963	-110.722	-8191	255	
2507.838	1	1	0	0	0.11033	0.10477	0.14282	0.019013	0.11153	0.126	0.2679	0.25696	0.089858	0.1697	0.12538	0.097667	0.17994	0.14359	0.21567	0.21798	-1.65	-2.7062	-2.0312	-2.125	-2.8646	-2.0187	-2.5938	-2.5812	-1.9375	-2.9646	-2.3125	-2.1896	-2.7313	-2.1417	-2.4958	-2.6854	13.608	168.056	95.717	184.790	192.201	-82.380	135.933	168.949	117.127	123.394	207.641	95.144	46.375	-95.210	194.416	74.037	0.0007306	0.00052583	0.0001895	129.87	9.1478e-06	1.8014e-06	197.59	46.093	2.3366e-06	3.7305e-06	75.4	28.285	19.112	10.681	5.1234e-06	16.323	0.00073908	0.00074672	0.00020709	239.52	8.1065e-06	8.1579e-06	290.96	79.369	8.1852e-06	8.2255e-06	140.97	46.197	33.745	15.741	8.2058e-06	22.625	60.317	170.095	11.263	-121.549	-37.495	-124.468	-122.672	-114.721	59.458	-79.179	-118.622	-114.289	-110.099	-105.829	-78.591	-110.420	-8191	255	
2507.934	1	1	0	0	0.084701	0.17056	0.066477	0.2808	0.23238	0.1665	0.32492	0.37161	0.14299	0.2194	0.28436	0.15525	0.10328	0.090788	0.074607	0.06151	-1.7396	-2.8146	-2.2854	-2.3146	-2.7687	-2.0354	-2.4521	-2.5875	-2.0271	-2.7042	-2.4	-2.1458	-2.875	-2.1854	-2.475	-2.7396	85.064	-68.184	128.252	6.411	123.272	103.890	95.975	198.504	107.853	-86.799	-69.517	141.025	-119.350	226.843	8.397	197.894	0.00053843	0.00098891	4.4886e-05	131.57	4.8546e-06	6.8065e-06	197.75	46.65	9.3852e-06	1.0349e-05	75.955	28.303	19.337	10.809	1.1489e-05	16.272	0.00074218	0.00074869	0.00020852	241.09	8.2134e-06	8.1901e-06	292.57	79.301	8.2096e-06	8.2172e-06	141.96	46.404	34.004	15.778	8.2452e-06	22.747	-40.068	-62.634	-117.788	-120.918	13.421	-105.790	-122.541	-115.117	59.901	100.317	-118.869	-115.002	-110.459	-105.671	18.914	-110.354	-8191	255	
2508.032	1	1	0	0	0.14158	0.1157	0.10461	0.13312	0.14729	0.21387	0.039058	0.20226	0.14388	0.20063	0.18175	0.26854	0.19742	0.39123	0.26877	0.24803	-1.4	-2.75	-2.4021	-2.1875	-2.925	-2.3125	-2.5042	-2.7208	-2.0708	-2.7083	-2.4917	-2.0938	-2.675	-2.2687	-2.3187	-2.7438	191.749	-104.961	110.119	-126.946	8.834	130.717	-96.759	163.523	17.003	149.888	105.800	164.288	92.236	100.810	114.492	79.266	6.1885e-05	0.00030411	2.4392e-05	131.99	5.2395e-06	2.1944e-06	197.42	47.093	2.7547e-06	1.4623e-06	76.941	27.822	19.341	10.831	4.3648e-06	16.284	0.00074566	0.00075128	0.00020906	241.74	8.2178e-06	8.2461e-06	291.46	79.59	8.2116e-06	8.222e-06	141.38	46.284	33.84	15.771	8.1908e-06	22.523	204.617	7.229	205.701	-122.106	-109.011	23.681	-122.814	-115.170	12.132	-62.523	-118.890	-113.840	-110.490	-105.557	-2.734	-111.292	-8191	255	
2508.151	1	1	0	0	0.089231	0.2151	0.23399	0.071449	0.17924	0.098588	0.22828	0.20729	0.27129	0.10066	0.21143	0.10037	0.15882	0.27099	0.12562	0.13942	-1.4583	-2.5187	-2.4896	-1.8229	-2.8125	-2.1688	-2.1188	-2.8542	-2.0438	-2.6354	-2.7125	-2.0271	-2.9021	-2.3979	-2.0833	-2.8896	-29.066	151.679	97.497	-105.308	68.841	-8.163	15.102	-126.182	162.234	142.217	173.594	44.750	108.026	-130.959	178.557	106.640	0.00054951	0.00040907	0.00014215	130.53	3.0613e-06	1.7978e-06	195.62	45.935	9.7283e-06	3.1692e-06	76.382	27.298	19.154	10.61	6.9916e-06	16.001	0.00074374	0.00074694	0.00020872	239.98	8.2308e-06	8.1942e-06	289.88	79.179	8.2603e-06	8.2326e-06	141.34	46.028	33.908	15.677	8.2788e-06	22.485	-20.779	112.018	151.836	-120.912	-18.008	177.605	-122.582	-114.021	70.330	227.202	-118.934	-114.554	-109.632	-106.119	111.182	-110.688	-8191	255	
2508.247	1	1	0	0	0.15727	0.068449	0.26784	0.24088	0.21251	0.13404	0.14007	0.17765	0.11405	0.13688	0.13131	0.11386	0.088407	0.27508	0.4009	0.16454	-1.5812	-2.3	-2.7625	-2.075	-2.7667	-2.5229	-2	-2.7542	-2.0875	-2.2854	-2.6188	-1.8583	-2.5938	-2.5896	-1.9292	-2.7375	59.309	148.190	-36.746	74.152	175.846	199.440	28.209	124.329	164.840	188.962	-120.424	29.570	-42.130	188.902	-65.309	107.522	0.00024983	0.00016516	0.00025484	131.7	3.3098e-06	5.3088e-06	196.05	46.305	7.2752e-06	3.9743e-06	75.556	27.969	19.08	10.796	1.9699e-06	15.989	0.00075304	0.00076008	0.00021235	241.99	8.3804e-06	8.3623e-06	292.3	80.023	8.3506e-06	8.3721e-06	142.24	46.596	34.096	15.841	8.4038e-06	22.658	-57.898	84.198	-109.503	-120.663	3.970	8.697	-122.755	-114.359	209.875	40.855	-118.084	-114.445	-109.804	-106.082	99.003	-110.312	-8191	255	
2508.343	1	1	0	0	0.17349	0.32441	0.16477	0.064114	0.096479	0.15673	0.13167	0.088418	0.15471	0.18824	0.21011	0.27442	0.074061	0.079203	0.078051	0.090895	-1.6729	-2.1229	-2.6333	-1.9667	-2.65	-2.4042	-2.0917	-2.8	-2.0521	-2.0771	-2.7146	-1.8312	-2.8146	-2.6396	-2.0167	-2.7708	43.728	71.256	89.156	-115.028	97.345	-129.644	60.300	-7.747	146.282	191.138	98.978	198.805	191.942	8.890	-56.905	0.030	0.00057464	0.0006333	8.3911e-05	132.22	2.8629e-06	6.1445e-06	198.05	46.289	5.5247e-06	1.1928e-06	75.507	27.806	19.034	10.644	1.4312e-05	15.916	0.00076046	0.00076551	0.00021308	243.15	8.3883e-06	8.4317e-06	294.14	80.02	8.3872e-06	8.4178e-06	142.86	46.547	34.262	15.752	8.4449e-06	22.639	24.686	-94.031	48.823	-121.666	-96.763	12.213	-122.836	-114.656	-94.818	-131.055	-119.077	-114.549	-110.744	-105.990	-50.337	-110.726	-8191	255	
2508.439	1	1	0	0	0.20158	0.24754	0.20417	0.13092	0.1673	0.11274	0.18722	0.22975	0.078526	0.38722	0.073118	0.31269	0.14422	0.13741	0.062451	0.23021	-1.9083	-2.2542	-3.0125	-2.0479	-2.5563	-2.4854	-2.0312	-2.8271	-2.3167	-2.0667	-2.8854	-2.0042	-2.3875	-2.5979	-1.8375	-2.5667	-122.799	65.574	194.805	-97.693	-97.292	-96.825	212.498	-95.718	145.393	213.588	129.498	79.742	176.627	119.878	3.220	-108.354	0.00063238	0.00059029	7.8593e-05	130.12	6.5868e-07	6.9207e-06	197.69	46.445	3.2935e-06	4.4099e-06	75.193	27.628	19.087	10.604	4.2456e-06	15.874	0.00076772	0.00077164	0.00021519	243.96	8.4817e-06	8.4687e-06	294.1	80.361	8.4571e-06	8.4817e-06	142.73	46.426	34.22	15.738	8.515e-06	22.532	49.112	4.931	9.806	-121.344	21.511	33.611	-123.088	-114.701	-88.432	-78.631	-119.165	-114.598	-110.771	-105.694	-131.890	-110.549	-8191	255	
2508.535	1	1	0	0	0.13111	0.062529	0.29464	0.098942	0.066459	0.49839	0.11984	0.030422	0.063684	0.10516	0.28233	0.23297	0.11062	0.11544	0.31245	0.32076	-1.9583	-1.8438	-2.9646	-2.05	-2.2667	-2.7687	-1.8896	-2.6271	-2.3625	-2.0896	-2.7833	-2.2021	-2.1708	-2.7521	-1.8583	-2.7667	210.880	209.574	154.018	160.199	160.940	47.995	-89.090	141.198	-116.447	-32.271	-62.577	180.692	-12.976	-22.267	103.692	151.986	0.00061286	0.00045612	0.00027138	133.28	4.4086e-06	1.4047e-06	195.01	46.004	5.7602e-06	5.1037e-06	75.552	27.34	19.078	10.681	2.1975e-06	15.786	0.00077304	0.00077795	0.00021698	244.96	8.5226e-06	8.5455e-06	293.94	80.212	8.5333e-06	8.5625e-06	143.16	46.392	34.068	15.748	8.5205e-06	22.466	-13.926	-3.207	189.168	-121.647	53.953	-2.572	-123.031	-115.696	-91.296	-90.573	-117.910	-114.581	-110.305	-106.689	159.538	-110.433	-8191	255	
2508.631	1	1	0	0	0.33894	0.32275	0.1396	0.10935	0.20346	0.24498	0.14396	0.10657	0.22918	0.073475	0.12054	0.085467	0.13215	0.13392	0.12102	0.11231	-2.1229	-1.9042	-2.6604	-2.1354	-2.2208	-2.6708	-1.8417	-2.4792	-2.5458	-2.025	-2.7458	-2.1833	-2.0875	-2.7833	-1.8792	-2.4938	136.850	105.599	-20.761	45.523	136.429	-46.595	68.797	34.664	28.103	-124.521	-80.586	-46.080	185.122	11.626	218.928	-62.443	0.00045233	0.0002064	8.8974e-06	133.73	4.8706e-06	3.3768e-06	197.13	45.588	6.2275e-06	1.5049e-06	75.484	27.289	18.687	10.389	9.1502e-06	15.582	0.00076839	0.00077908	0.00021714	244.38	8.5339e-06	8.5152e-06	293.16	80.178	8.4778e-06	8.4615e-06	143.16	46.332	33.93	15.598	8.5174e-06	22.343	5.310	-116.369	204.680	-121.188	17.471	65.413	-121.801	-114.909	-43.157	196.480	-119.230	-115.495	-110.291	-105.684	-124.170	-110.716	-8191	255	
2508.750	1	1	0	0	0.15839	0.1054	0.081489	0.097544	0.051567	0.23572	0.0299	0.16768	0.11819	0.10469	0.18052	0.13975	0.15768	0.15624	0.081503	0.15499	-2.2146	-1.9792	-2.5396	-2.2667	-2.1958	-2.7792	-1.9979	-2.3458	-2.7167	-2.0896	-2.5542	-2.1937	-1.9917	-2.6771	-2.0521	-2.5042	168.701	-32.849	-88.227	1.076	106.193	65.665	3.943	54.290	-47.750	-112.869	-128.104	-58.659	195.833	123.576	14.074	205.962	0.00014412	5.6627e-05	4.2558e-05	130.72	1.1361e-06	3.8312e-06	195.47	45.597	2.8092e-06	6.0449e-06	74.285	26.931	18.862	10.264	3.2665e-06	15.57	0.00077174	0.0007761	0.00021609	244.97	8.5276e-06	8.5327e-06	293.9	80.075	8.5441e-06	8.5097e-06	143.05	46.256	33.969	15.497	8.5408e-06	22.277	165.453	198.325	8.500	-122.421	180.936	-8.036	-122.657	-114.742	-83.846	55.308	-117.991	-114.379	-110.652	-106.360	-103.855	-110.851	-8191	255	
2508.846	1	1	0	0	0.098161	0.12884	0.24025	0.32536	0.24687	0.074543	0.15976	0.17177	0.071892	0.067648	0.087049	0.29299	0.3726	0.18254	0.11087	0.35197	-2.2771	-1.8292	-2.4083	-2.3271	-1.8813	-2.6562	-2.0625	-2.1437	-2.6708	-2.0979	-2.6125	-2.6083	-1.8458	-2.8521	-2.075	-2.1083	103.342	90.042	-128.345	-9.191	-11.462	-18.040	180.132	102.726	-122.951	-126.072	150.784	8.319	55.547	77.235	-113.561	156.401	0.00046594	0.00080649	6.9754e-05	129.56	9.762e-06	3.4152e-06	194.58	45.767	1.742e-06	2.6334e-06	74.486	26.982	18.698	10.329	5.4894e-06	15.352	0.00077699	0.00078004	0.00021739	245.63	8.5502e-06	8.5516e-06	294.51	80.239	8.5621e-06	8.5642e-06	143.06	46.027	33.801	15.471	8.6035e-06	22.127	65.090	-24.008	-17.919	-120.343	27.092	-63.915	-122.985	-114.693	219.084	40.977	-118.072	-115.455	-110.750	-105.348	144.498	-110.908	-8191	255	
2508.942	1	1	0	0	0.039803	0.065699	0.12184	0.073843	0.081281	0.13752	0.13414	0.25301	0.16119	0.23142	0.049249	0.16818	0.038642	0.19174	0.18668	0.048167	-2.4688	-2.05	-2.35	-2.425	-1.9562	-2.7333	-2.2208	-2.3146	-2.7062	-2.0417	-2.5958	-2.5417	-2.0062	-2.6375	-2.3229	-2.25	106.743	-105.797	-116.116	214.488	-91.350	172.976	-121.190	-106.742	80.476	85.206	103.022	145.723	-97.432	157.075	210.871	-10.859	0.00029679	0.00016234	0.00023579	133.31	7.9068e-06	6.712e-06	194.17	44.954	1.0611e-06	1.5456e-06	73.198	26.434	18.456	9.9526	4.9023e-06	14.917	0.00077425	0.00077816	0.00021731	246.04	8.5775e-06	8.5312e-06	291.73	79.669	8.5217e-06	8.5802e-06	142.32	45.544	33.756	15.264	8.5928e-06	21.795	9.802	154.901	-19.815	-121.298	100.711	73.405	-122.536	-114.549	-122.176	-115.406	-118.376	-113.440	-110.140	-105.353	91.078	-110.273	-8191	255	
2509.014	1	1	0	0	0.32917	0.11309	0.051292	0.14931	0.1171	0.24312	0.25944	0.21593	0.10914	0.16298	0.16751	0.22628	0.061609	0.14475	0.27394	0.30519	-2.4604	-2.0417	-2.2667	-2.6104	-1.9542	-2.5542	-2.5146	-2.05	-2.8375	-2.325	-2.275	-2.9188	-1.8813	-2.8312	-2.6833	-2.0646	-114.754	53.893	168.785	52.355	119.674	-86.914	-122.269	-64.712	154.247	129.280	-20.591	215.180	-40.889	194.898	156.416	-90.762	0.00069345	0.00020776	7.1026e-05	132.12	4.6026e-06	2.8498e-06	194.7	44.866	4.2484e-06	3.7258e-06	73.375	26.068	18.223	9.8735	1.927e-06	14.915	0.00077693	0.00078756	0.00021868	245.98	8.5566e-06	8.6388e-06	292.99	79.883	8.6438e-06	8.6852e-06	142.95	45.654	33.77	15.277	8.6818e-06	21.812	-0.189	195.810	-20.798	-121.735	-84.522	126.297	-122.268	-114.428	-40.653	124.200	-119.229	-114.627	-110.053	-105.924	94.099	-110.134	-8191	255	
2509.135	1	1	0	0	0.10248	0.096117	0.14195	0.33058	0.24193	0.01853	0.21053	0.1888	0.098647	0.28	0.15255	0.34926	0.14629	0.095189	0.046043	0.35951	-2.4958	-2.1833	-2.1937	-2.8479	-2.0292	-2.425	-2.6292	-2.0292	-2.7812	-2.2125	-2.0604	-2.8063	-2.0375	-2.4333	-2.7812	-1.9875	137.271	184.751	76.916	23.027	121.239	136.988	169.845	52.834	111.546	103.362	-5.771	-102.481	-48.376	-17.537	29.327	-93.451	0.0004014	0.00032928	4.3695e-05	131.48	7.0639e-06	1.3939e-06	194.35	45.28	2.2168e-06	4.7546e-06	73.189	26.62	18.083	10.041	7.7049e-06	15.038	0.00078587	0.0007941	0.00022167	247.41	8.7558e-06	8.7843e-06	294.69	80.434	8.7682e-06	8.7157e-06	144.05	45.878	33.904	15.368	8.7584e-06	22.027	-59.806	-57.824	202.598	-121.678	-126.909	29.134	-122.504	-115.293	-25.663	16.204	-118.650	-113.794	-110.252	-105.755	199.903	-109.589	-8191	255	
#DATA ENDS
