BOXY.EXE: ISS Imagent and Oximeter Data Acquisition Program Version 0.80
Ascii Record File

#ACQ INFORMATION
2  Detector Channels 
16  External MUX Channels 
1  Auxiliary Channels 
5000  Waveform (CCF) Frequency (Hz)
1  Waveforms Skipped 
30  Waveforms Averaged 
1  Cycles Averaged 
16  Acquisitions per Waveform 
10.0806  Updata Rate (Hz) 

#FILE INFORMATION
TRUE -- External MUX Channel results are PARSED.
FALSE -- AC DC and Phase are NOT grouped.
TRUE -- Companion Program Settings File CREATED.
FALSE -- AC data not excluded
FALSE -- DC data not excluded
FALSE -- Phase data not excluded
FALSE -- Auxillary Chn. data not excluded
Tab delimiters

#CALIBRATION STATE
TRUE -- Waveform Calibration Values APPLIED.


#AUX CALIBRATION VALUES
Val Type	aux-1	

Term	1.0000e+00	
Factor	0.0000e+00	


#WF CALIBRATION VALUES
A = Detector Channel
Val Type	A-AC1	A-AC2	A-AC3	A-AC4	A-AC5	A-AC6	A-AC7	A-AC8	A-AC9	A-AC10	A-AC11	A-AC12	A-AC13	A-AC14	A-AC15	A-AC16	A-DC1	A-DC2	A-DC3	A-DC4	A-DC5	A-DC6	A-DC7	A-DC8	A-DC9	A-DC10	A-DC11	A-DC12	A-DC13	A-DC14	A-DC15	A-DC16	A-Ph1	A-Ph2	A-Ph3	A-Ph4	A-Ph5	A-Ph6	A-Ph7	A-Ph8	A-Ph9	A-Ph10	A-Ph11	A-Ph12	A-Ph13	A-Ph14	A-Ph15	A-Ph16	

Term	0.00000e+00	0.00000e+00	0.00000e+00	0.00000e+00	0.00000e+00	0.00000e+00	0.00000e+00	0.00000e+00	0.00000e+00	0.00000e+00	0.00000e+00	0.00000e+00	0.00000e+00	0.00000e+00	0.00000e+00	0.00000e+00	0.00000e+00	0.00000e+00	0.00000e+00	0.00000e+00	0.00000e+00	0.00000e+00	0.00000e+00	0.00000e+00	0.00000e+00	0.00000e+00	0.00000e+00	0.00000e+00	0.00000e+00	0.00000e+00	0.00000e+00	0.00000e+00	0.00000e+00	0.00000e+00	0.00000e+00	0.00000e+00	0.00000e+00	0.00000e+00	0.00000e+00	0.00000e+00	0.00000e+00	0.00000e+00	0.00000e+00	0.00000e+00	0.00000e+00	0.00000e+00	0.00000e+00	0.00000e+00	
Factor	1.00000e+00	1.00000e+00	1.00000e+00	1.00000e+00	1.00000e+00	1.00000e+00	1.00000e+00	1.00000e+00	1.00000e+00	1.00000e+00	1.00000e+00	1.00000e+00	1.00000e+00	1.00000e+00	1.00000e+00	1.00000e+00	1.00000e+00	1.00000e+00	1.00000e+00	1.00000e+00	1.00000e+00	1.00000e+00	1.00000e+00	1.00000e+00	1.00000e+00	1.00000e+00	1.00000e+00	1.00000e+00	1.00000e+00	1.00000e+00	1.00000e+00	1.00000e+00	X	X	X	X	X	X	X	X	X	X	X	X	X	X	X	X	

B = Detector Channel
Val Type	B-AC1	B-AC2	B-AC3	B-AC4	B-AC5	B-AC6	B-AC7	B-AC8	B-AC9	B-AC10	B-AC11	B-AC12	B-AC13	B-AC14	B-AC15	B-AC16	B-DC1	B-DC2	B-DC3	B-DC4	B-DC5	B-DC6	B-DC7	B-DC8	B-DC9	B-DC10	B-DC11	B-DC12	B-DC13	B-DC14	B-DC15	B-DC16	B-Ph1	B-Ph2	B-Ph3	B-Ph4	B-Ph5	B-Ph6	B-Ph7	B-Ph8	B-Ph9	B-Ph10	B-Ph11	B-Ph12	B-Ph13	B-Ph14	B-Ph15	B-Ph16	

Term	0.00000e+00	0.00000e+00	0.00000e+00	0.00000e+00	0.00000e+00	0.00000e+00	0.00000e+00	0.00000e+00	0.00000e+00	0.00000e+00	0.00000e+00	0.00000e+00	0.00000e+00	0.00000e+00	0.00000e+00	0.00000e+00	0.00000e+00	0.00000e+00	0.00000e+00	0.00000e+00	0.00000e+00	0.00000e+00	0.00000e+00	0.00000e+00	0.00000e+00	0.00000e+00	0.00000e+00	0.00000e+00	0.00000e+00	0.00000e+00	0.00000e+00	0.00000e+00	3.46174e+01	-1.41726e+02	-1.41638e+02	-1.82578e+02	-8.82637e+01	-9.64119e+01	-1.57601e+02	-1.62015e+02	-1.01309e+02	-8.94930e+01	-1.76501e+02	-1.75461e+02	-1.82075e+02	-1.78619e+02	-8.59017e+01	-1.51028e+02	
Factor	5.43218e-05	9.09066e-05	3.08890e-05	1.86882e-01	1.02004e-06	9.71065e-07	1.70451e-01	5.67373e-02	1.06568e-06	8.83568e-07	1.30693e-01	3.60511e-02	2.61244e-02	9.14670e-03	1.13988e-06	1.29127e-02	6.14975e-07	6.21407e-07	1.73172e-07	9.42003e-02	6.80050e-09	6.81149e-09	8.15599e-02	2.85863e-02	6.80842e-09	6.81023e-09	5.99588e-02	1.68107e-02	1.29183e-02	4.52870e-03	6.82171e-09	6.11913e-03	X	X	X	X	X	X	X	X	X	X	X	X	X	X	X	X	



#DISTANCE SETTINGS
A = Detector Channel
A-1	A-2	A-3	A-4	A-5	A-6	A-7	A-8	A-9	A-10	A-11	A-12	A-13	A-14	A-15	A-16	

2.5000e+00	3.0000e+00	2.5000e+00	3.0000e+00	2.0000e+00	3.0000e+00	1.5000e+00	3.0000e+00	3.0000e+00	3.0000e+00	3.0000e+00	3.0000e+00	3.0000e+00	3.0000e+00	1.5000e+00	3.0000e+00	

B = Detector Channel
B-1	B-2	B-3	B-4	B-5	B-6	B-7	B-8	B-9	B-10	B-11	B-12	B-13	B-14	B-15	B-16	

1.0000e+01	1.0000e+01	1.0000e+01	1.4400e+00	1.0000e+01	1.0000e+01	1.5100e+00	1.9400e+00	1.0000e+01	1.0000e+01	1.9900e+00	2.4900e+00	2.4100e+00	2.9000e+00	1.0000e+01	2.9800e+00	




#DATA BEGINS
time	group	step	mark	flag	A-AC1	A-AC2	A-AC3	A-AC4	A-AC5	A-AC6	A-AC7	A-AC8	A-AC9	A-AC10	A-AC11	A-AC12	A-AC13	A-AC14	A-AC15	A-AC16	A-DC1	A-DC2	A-DC3	A-DC4	A-DC5	A-DC6	A-DC7	A-DC8	A-DC9	A-DC10	A-DC11	A-DC12	A-DC13	A-DC14	A-DC15	A-DC16	A-Ph1	A-Ph2	A-Ph3	A-Ph4	A-Ph5	A-Ph6	A-Ph7	A-Ph8	A-Ph9	A-Ph10	A-Ph11	A-Ph12	A-Ph13	A-Ph14	A-Ph15	A-Ph16	B-AC1	B-AC2	B-AC3	B-AC4	B-AC5	B-AC6	B-AC7	B-AC8	B-AC9	B-AC10	B-AC11	B-AC12	B-AC13	B-AC14	B-AC15	B-AC16	B-DC1	B-DC2	B-DC3	B-DC4	B-DC5	B-DC6	B-DC7	B-DC8	B-DC9	B-DC10	B-DC11	B-DC12	B-DC13	B-DC14	B-DC15	B-DC16	B-Ph1	B-Ph2	B-Ph3	B-Ph4	B-Ph5	B-Ph6	B-Ph7	B-Ph8	B-Ph9	B-Ph10	B-Ph11	B-Ph12	B-Ph13	B-Ph14	B-Ph15	B-Ph16	aux-1	digaux	

2123.833	1	1	0	256	0.078327	0.22459	0.054329	0.20509	0.22867	0.12365	0.12673	0.2766	0.13875	0.23319	0.19778	0.36183	0.17351	0.17442	0.16119	0.048029	-1.575	-2.8896	-2.35	-2.2417	-2.8292	-2.1917	-2.7771	-2.7646	-2.0563	-2.7062	-2.4271	-2.1937	-2.7188	-2.1771	-2.4771	-2.9146	394.141	245.776	446.784	435.198	397.875	343.304	409.858	434.441	231.906	418.940	117.346	108.401	409.064	134.921	130.609	155.926	0.0016469	0.00030944	0.00017071	1490.7	4.8981e-06	3.8904e-06	1456.6	386.52	4.437e-06	1.6443e-06	442.46	147.76	127.87	43.683	9.7385e-06	54.59	0.0007483	0.0007408	0.00020674	1545	8.1175e-06	8.1214e-06	1504.7	403.12	8.1653e-06	8.1557e-06	468.9	155.66	134.35	46.408	8.1456e-06	57.775	342.183	420.367	240.150	100.811	240.436	209.891	100.931	105.809	395.232	285.876	105.213	109.972	110.144	114.673	246.020	113.536	-8191	255	
2123.929	1	1	0	0	0.10757	0.075056	0.1246	0.44405	0.17531	0.11389	0.16937	0.16789	0.1838	0.22381	0.088861	0.13941	0.10878	0.07276	0.045955	0.16049	-1.5458	-2.5938	-2.2708	-2.1583	-2.7896	-2.2104	-2.5333	-2.7854	-1.8792	-2.5646	-2.6312	-2.2042	-3.0021	-2.0667	-2.4125	-2.9271	341.429	188.478	187.168	427.528	182.384	426.972	377.546	413.693	277.057	122.929	221.921	214.332	435.658	412.043	365.369	384.763	0.0017754	0.00023256	3.0232e-05	1490.9	8.2032e-06	1.1785e-06	1453.5	388.22	1.1416e-05	4.8106e-06	442.5	147.33	128.11	43.64	1.1119e-05	54.307	0.00075159	0.00074323	0.00020746	1543.6	8.0957e-06	8.1623e-06	1504.5	403.79	8.1394e-06	8.1679e-06	468.52	155.49	134.39	46.461	8.1289e-06	57.803	336.419	255.899	247.096	100.975	286.823	147.753	100.934	105.678	105.960	192.880	105.320	109.963	110.098	114.431	195.709	113.419	-8191	255	
2124.025	1	1	0	0	0.11434	0.23398	0.047074	0.38905	0.23219	0.14606	0.4404	0.19251	0.19288	0.03068	0.12807	0.14272	0.07334	0.17945	0.056472	0.19351	-1.7771	-2.6042	-2.4667	-2.1125	-2.7583	-2.3937	-2.4604	-2.9604	-2.0646	-2.5	-2.8042	-2.0833	-2.9	-2.3438	-2.0667	-2.7979	157.889	368.475	338.153	406.201	279.777	154.004	403.381	402.379	435.835	95.944	302.286	125.435	326.085	121.912	142.856	144.596	0.0014425	0.00090865	0.00030779	1494.2	5.8159e-06	7.9408e-06	1459.4	387.58	2.1776e-06	4.616e-06	441.3	147.19	128.02	43.953	1.1133e-05	54.293	0.00074769	0.00074301	0.00020735	1545.6	8.135e-06	8.1106e-06	1506.2	403.95	8.1683e-06	8.1691e-06	468.53	155.79	134.24	46.492	8.2111e-06	57.712	332.880	138.573	118.773	100.958	180.717	146.280	100.929	105.801	231.608	270.493	104.957	109.567	110.210	114.385	309.415	113.517	-8191	255	
2124.121	1	1	0	0	0.4146	0.10976	0.20375	0.23406	0.096499	0.14942	0.48385	0.16447	0.13495	0.084744	0.1902	0.28174	0.16811	0.27859	0.15418	0.14252	-1.425	-2.5667	-2.4958	-2.1521	-2.7417	-2.2604	-2.3812	-3.0312	-2.2104	-2.5604	-2.8958	-1.9771	-2.8667	-2.5167	-2.1333	-3	372.072	108.543	429.854	405.465	330.044	332.150	378.619	427.496	385.319	242.508	90.114	377.559	395.202	108.628	298.631	369.665	0.0017827	0.00050866	0.00011695	1495.6	2.4158e-06	3.5938e-06	1453.3	388.77	3.8198e-06	4.3882e-06	440.42	146.8	127.96	43.647	4.4761e-06	54.242	0.00075248	0.00075041	0.00020934	1545.1	8.2208e-06	8.2381e-06	1505.6	404.6	8.2554e-06	8.2914e-06	468.49	155.57	134.59	46.494	8.2731e-06	57.783	331.276	270.276	229.010	100.946	355.732	244.445	101.130	105.829	415.769	223.659	105.428	110.128	110.429	114.528	206.574	113.734	-8191	255	
2124.217	1	1	0	0	0.071454	0.26493	0.17085	0.16351	0.31512	0.2565	0.21335	0.13757	0.084865	0.20617	0.22952	0.033822	0.025014	0.33193	0.095132	0.25473	-1.5375	-2.2125	-2.7208	-2.1333	-2.4667	-2.5292	-2.125	-3.0479	-2.0187	-2.1937	-2.9667	-2.2083	-2.7375	-2.4729	-1.9917	-2.7917	327.124	414.367	264.243	98.903	234.820	109.076	425.257	285.837	389.844	223.793	382.883	314.610	424.197	433.324	390.246	379.154	0.0016423	0.00059367	0.00016041	1490	1.0129e-05	4.8223e-06	1455.7	388.32	4.8232e-06	5.9706e-06	440.37	147.97	127.54	43.645	3.5328e-06	54.346	0.00076204	0.00075474	0.00021048	1543.7	8.2062e-06	8.2131e-06	1504.9	404.35	8.1556e-06	8.1664e-06	468.8	155.71	134.26	46.401	8.1912e-06	57.634	337.438	425.926	175.119	100.990	223.179	336.834	100.915	105.899	255.952	201.188	105.392	110.034	110.217	114.431	229.414	113.657	-8191	255	
2124.314	1	1	0	0	0.04976	0.26041	0.078572	0.21113	0.3113	0.19968	0.57864	0.27635	0.21685	0.23856	0.21607	0.12955	0.15161	0.036008	0.13956	0.28828	-1.6354	-2.15	-2.625	-2.2562	-2.6104	-2.5833	-2.3021	-2.7313	-2.3604	-2.2021	-2.9583	-2.0583	-2.625	-2.6333	-1.9042	-2.9083	334.372	168.755	182.944	370.754	419.121	407.321	383.943	411.838	92.631	104.062	427.286	430.690	411.908	384.060	321.723	439.362	0.0016625	0.00076883	3.4342e-05	1489.8	7.7884e-06	7.1534e-06	1458	387.71	3.6882e-06	8.0059e-06	443.02	147.74	127.79	43.641	6.4385e-06	54.214	0.00074694	0.00074738	0.00020667	1541.9	8.0886e-06	8.0808e-06	1502.7	404.42	8.0848e-06	8.075e-06	468.91	155.24	134.14	46.324	8.0891e-06	57.668	325.426	437.979	166.586	100.887	232.466	205.323	101.043	105.562	194.809	202.546	105.090	109.481	110.124	114.322	266.948	113.280	-8191	255	
2124.432	1	1	0	0	0.16159	0.10687	0.086512	0.11451	0.22328	0.17605	0.23674	0.22317	0.23074	0.20105	0.039927	0.059833	0.24972	0.2124	0.13272	0.35192	-1.9417	-2.0604	-2.9208	-2.1688	-2.5667	-2.6896	-2.3396	-2.9938	-2.4708	-2.0021	-2.8271	-2.0646	-2.5167	-2.8229	-1.9688	-2.8333	201.213	154.679	281.383	391.568	334.930	111.472	411.178	367.559	242.163	392.578	352.226	402.978	398.710	182.272	110.711	410.394	0.0017702	0.0010977	0.00012359	1484.1	1.0787e-06	3.0592e-06	1450.8	385.53	8.1006e-06	6.617e-06	439.79	147.79	127.78	43.693	7.4646e-06	53.987	0.00074236	0.00074	0.00020628	1537.7	8.0888e-06	8.1028e-06	1498.3	403.12	8.1003e-06	8.1185e-06	466.68	155.12	134.15	46.371	8.1185e-06	57.451	329.561	308.211	205.217	100.445	116.559	162.562	100.927	105.655	247.967	274.204	105.297	109.848	110.248	114.426	288.717	113.711	-8191	255	
2124.529	1	1	0	0	0.2733	0.16516	0.18219	0.26135	0.25969	0.030199	0.12125	0.17425	0.17445	0.21124	0.14988	0.15282	0.054014	0.2318	0.24334	0.13944	-1.9208	-1.9625	-2.8438	-2.3833	-2.1375	-2.7875	-2.2	-2.7604	-2.4813	-2.0771	-2.6417	-2.2375	-2.4229	-2.9396	-1.8521	-2.65	130.843	264.383	103.160	442.255	175.368	331.496	98.424	379.457	442.286	158.275	446.166	340.618	115.153	438.697	225.295	334.519	0.0015109	0.00062696	0.00010067	1490.7	2.8962e-06	2.5636e-06	1454.9	386.27	6.9761e-06	4.1796e-06	442.82	147.55	127.56	43.831	5.2588e-06	53.974	0.0007433	0.00073871	0.00020725	1540.7	8.1238e-06	8.1273e-06	1499	403.44	8.0805e-06	8.0827e-06	468.59	155.09	133.85	46.274	8.039e-06	57.502	340.787	261.942	198.712	100.840	211.088	135.634	100.864	106.026	232.870	287.029	105.208	109.858	110.268	114.592	265.223	113.923	-8191	255	
2124.602	1	1	0	0	0.35708	0.1947	0.090544	0.17381	0.20156	0.17598	0.28965	0.21808	0.20776	0.21471	0.085517	0.07996	0.26652	0.16119	0.11862	0.10133	-2.0458	-1.9521	-2.7333	-2.4333	-2.1375	-2.8812	-2.3021	-2.6521	-2.7146	-1.9375	-2.875	-2.5458	-2.3354	-2.8979	-2.0625	-2.7083	350.718	305.736	227.564	143.118	222.221	273.997	434.159	131.382	344.600	332.565	114.637	355.978	100.027	139.703	89.787	437.571	0.0015951	0.00044752	0.00012951	1482.2	8.6317e-06	7.5262e-06	1445.5	388.07	5.7409e-06	7.7314e-06	442.19	146.91	127.36	43.664	8.9084e-06	54.179	0.00073612	0.00073348	0.00020434	1535.5	8.0174e-06	8.0256e-06	1496.1	403.76	7.9966e-06	7.9995e-06	467.2	154.68	133.97	46.308	8.0024e-06	57.518	339.169	133.291	144.849	100.794	254.493	338.917	100.933	105.866	139.963	184.978	105.128	109.792	110.347	114.599	263.472	114.017	-8191	255	
2124.721	1	1	0	0	0.19749	0.15273	0.12078	0.44625	0.30614	0.067117	0.35092	0.2973	0.24394	0.16066	0.14779	0.0932	0.17555	0.44551	0.032072	0.31956	-2.1271	-2.0208	-2.5292	-2.5604	-1.8729	-2.6375	-2.4083	-2.6	-2.7896	-2.1229	-2.7646	-2.6729	-2.2125	-2.9083	-2.1958	-2.5062	314.902	394.603	123.578	382.580	291.536	204.376	343.159	144.199	392.555	147.905	336.861	347.705	383.605	421.033	89.157	431.401	0.0019007	0.00044168	0.00029335	1485	7.0726e-06	6.6203e-06	1455.7	387.18	7.0922e-06	7.0543e-07	440.53	147.54	127.95	43.57	9.8668e-06	54.155	0.00073161	0.00072868	0.00020306	1534.9	7.9654e-06	8.0096e-06	1498.4	402.96	7.9838e-06	8.0034e-06	466.59	155.08	134.12	46.287	8.0149e-06	57.474	336.588	182.357	195.179	100.974	165.062	202.802	100.929	105.821	215.988	400.819	105.306	109.942	110.230	114.703	166.294	113.587	-8191	255	
2124.817	1	1	0	0	0.18824	0.068191	0.17536	0.36108	0.18245	0.12482	0.24326	0.20102	0.019166	0.054435	0.062641	0.14185	0.13459	0.16552	0.13953	0.37082	-2.5917	-2.0583	-2.6229	-2.7521	-2.0646	-2.8833	-2.3375	-2.4792	-2.7208	-2.15	-2.7792	-2.8083	-1.9021	-2.8667	-2.3167	-2.3458	306.740	325.270	156.289	404.614	135.316	305.735	424.103	356.811	212.808	209.841	278.663	362.152	199.493	421.252	306.228	440.764	0.001794	0.00050763	0.00012088	1489.8	7.5797e-06	5.6461e-07	1452.3	386.34	8.0306e-06	2.8852e-06	442.52	148.06	128.09	43.807	1.2026e-06	54.251	0.00073661	0.00073434	0.0002047	1537.4	7.9938e-06	8.0399e-06	1498.3	403.7	8.0759e-06	8.1092e-06	467.47	155.58	134.37	46.422	8.1106e-06	57.566	337.346	177.420	195.395	101.046	221.972	265.039	100.919	105.791	352.139	138.147	105.727	109.770	110.263	114.649	132.040	113.832	-8191	255	
2124.913	1	1	0	0	0.24335	0.22252	0.20327	0.30515	0.22216	0.20846	0.10257	0.21554	0.05559	0.12132	0.22725	0.10528	0.075054	0.16135	0.092473	0.1988	-2.3604	-1.9167	-2.575	-2.7875	-1.8958	-2.8854	-2.6729	-2.2708	-2.75	-2.2396	-2.6063	-2.7646	-2.1125	-2.7812	-2.3458	-2.1771	400.458	390.263	279.980	405.355	255.232	408.920	389.921	396.231	235.777	371.720	359.259	99.481	322.914	230.763	112.644	381.623	0.00132	0.00060802	0.00023626	1492.9	7.5251e-06	2.7811e-06	1455.8	387.56	8.8796e-06	3.7936e-06	441.55	148.5	128.27	43.771	7.5439e-06	54.457	0.00073793	0.0007373	0.00020452	1539.7	8.0118e-06	8.0127e-06	1499	403.43	8.0336e-06	7.9837e-06	467.44	155.5	134.45	46.455	8.0542e-06	57.595	333.192	443.394	137.374	101.192	146.705	313.775	100.845	105.663	177.619	123.327	105.085	109.570	109.935	114.370	242.484	113.871	-8191	255	
2125.034	1	1	0	0	0.12167	0.28654	0.028155	0.334	0.21396	0.16863	0.2836	0.12895	0.1822	0.091739	0.20939	0.23011	0.037018	0.17889	0.27905	0.12199	-2.3417	-2.1875	-2.3479	-2.9208	-2.0375	-2.8583	-2.6292	-2.2521	-2.6833	-2.2021	-2.1958	-2.7562	-1.9625	-2.5979	-2.4938	-2.1583	297.035	121.469	208.942	427.157	200.682	340.294	369.916	406.457	361.544	135.626	384.842	420.913	300.516	387.915	139.806	127.225	0.0022306	0.00022093	6.9657e-05	1491.1	4.8926e-06	8.0148e-06	1453.2	387.8	1.1687e-05	3.4101e-06	444.28	147.29	127.82	43.648	5.2106e-06	54.087	0.00073819	0.00073358	0.00020512	1541.4	7.9929e-06	8.0101e-06	1499.9	403.97	8.037e-06	8.0212e-06	468.33	155.26	134.3	46.46	8.0198e-06	57.563	340.466	158.514	426.124	100.600	221.260	218.665	100.589	105.608	167.408	297.326	105.197	109.557	110.012	114.190	276.723	113.496	-8191	255	
2125.130	1	1	0	0	0.30181	0.052755	0.19227	0.14803	0.22082	0.26831	0.076895	0.22981	0.12344	0.070761	0.29682	0.084152	0.22196	0.12466	0.14555	0.26529	-2.1667	-2.2062	-2.2	-2.9167	-2.1396	-2.5125	-2.7396	-2.2146	-2.725	-2.2667	-2.1771	-2.975	-2.2125	-2.8833	-2.6854	-2.125	222.001	310.895	324.061	391.317	174.370	229.706	418.944	336.762	419.875	151.313	410.754	318.286	137.224	217.053	336.231	369.203	0.0013887	0.00057142	0.00043419	1494.6	7.8371e-06	2.3838e-06	1455.5	389.47	3.1739e-06	1.6185e-06	442.29	148.65	128.19	43.58	4.5741e-06	54.279	0.00073856	0.00073267	0.0002048	1543.6	8.0477e-06	8.1094e-06	1503.2	404.9	8.1361e-06	8.1353e-06	468.69	155.57	134.55	46.503	8.1626e-06	57.75	322.796	158.402	193.941	100.632	229.142	151.540	100.664	105.514	159.404	233.066	105.420	109.884	110.273	114.376	317.131	113.477	-8191	255	
2125.226	1	1	0	0	0.12592	0.21001	0.13144	0.3578	0.24556	0.29006	0.27682	0.42167	0.11099	0.29029	0.18519	0.24806	0.063398	0.11553	0.28124	0.10082	-2.5354	-2.2104	-2.2604	-2.9688	-2.0062	-2.325	-2.9271	-1.9604	-2.4917	-2.4938	-2.2229	-2.8271	-2.1958	-2.5021	-2.5771	-2.0583	237.494	223.245	115.813	447.614	188.500	273.535	327.491	378.431	291.447	176.292	315.775	317.125	294.245	244.083	167.395	112.795	0.0014311	0.00012938	0.0002213	1493.5	1.1598e-05	1.2251e-05	1455.2	388.12	9.9882e-06	2.6351e-06	442.33	147.29	127.82	44.193	3.8727e-06	54.026	0.0007499	0.00074686	0.00020785	1546.6	8.1273e-06	8.1674e-06	1504.1	404.41	8.162e-06	8.1246e-06	469.23	155.52	134.58	46.653	8.1518e-06	57.575	329.290	287.537	151.340	100.776	189.266	178.863	100.721	105.772	254.499	263.136	105.200	109.472	110.059	114.690	367.066	113.515	-8191	255	
2125.322	1	1	0	0	0.034699	0.088427	0.064238	0.49648	0.22528	0.084009	0.075252	0.24408	0.10648	0.081269	0.14943	0.21421	0.11455	0.2418	0.083525	0.31479	-2.2979	-2.3479	-1.8563	-2.9979	-2.0729	-2.3167	-2.9375	-2.1708	-2.5438	-2.4521	-2.2104	-2.7938	-2.3292	-2.2812	-2.6917	-2.1646	117.491	238.368	107.413	420.052	301.737	439.474	107.854	383.051	173.589	248.980	114.102	93.648	139.091	365.481	265.388	320.130	0.0019484	0.00042517	8.3872e-05	1496.4	5.7091e-06	1.9065e-06	1462.4	386.96	5.938e-06	3.2877e-06	443.42	148.03	128.31	43.966	8.6511e-06	54.273	0.00074811	0.00074298	0.00020692	1548.5	8.1258e-06	8.1477e-06	1507.6	403.89	8.1233e-06	8.1302e-06	470.27	155.72	134.57	46.595	8.1417e-06	57.699	340.370	441.100	218.559	100.932	442.469	230.620	101.064	105.730	178.904	90.426	105.253	109.819	110.126	114.565	199.931	113.799	-8191	255	
2125.417	1	1	0	0	0.099836	0.11068	0.21397	0.10098	0.31803	0.099034	0.053748	0.19684	0.24687	0.13717	0.12571	0.095954	0.40818	0.27036	0.20055	0.25694	-2.2917	-2.5375	-2.1208	-3.0208	-2.2229	-2.1875	-2.9771	-2.0979	-2.6417	-2.6917	-2.0896	-2.8104	-2.2417	-2.1958	-2.7542	-2.1167	208.551	337.438	381.863	306.327	388.691	133.712	406.397	226.090	421.673	313.509	121.838	369.434	115.722	389.285	284.445	351.324	0.0012655	0.00061261	0.00028511	1495.8	4.0209e-07	6.611e-06	1457.9	387.21	5.9099e-06	9.0961e-06	443.9	147.89	127.84	43.936	3.0973e-06	54.377	0.00074733	0.00074551	0.00020823	1549.6	8.1776e-06	8.1556e-06	1509.5	404.49	8.1409e-06	8.1495e-06	470.39	155.8	134.74	46.582	8.1396e-06	57.713	337.322	116.118	194.521	101.015	437.504	228.421	100.949	105.651	146.409	201.411	105.322	109.636	110.172	114.777	256.139	113.886	-8191	255	
2125.513	1	1	0	0	0.13246	0.0072228	0.14929	0.08865	0.22406	0.11986	0.21708	0.15183	0.1467	0.18094	0.053132	0.17248	0.16044	0.30684	0.25835	0.081656	-2.125	-2.7521	-1.7646	-2.7104	-2.325	-1.9292	-2.875	-2.2042	-2.2625	-2.4521	-2.0729	-2.7562	-2.6667	-2.0771	-2.8125	-2.3375	435.312	380.520	434.882	395.483	138.344	299.872	166.699	370.113	94.302	116.134	249.148	344.439	433.666	440.383	244.813	175.821	0.0012917	0.00018927	0.00011597	1500.4	3.9141e-07	8.472e-06	1464.9	387.81	7.148e-06	4.3807e-06	443.8	148.94	128.48	43.801	2.7747e-06	54.001	0.00075287	0.00074621	0.00020656	1550.4	8.1361e-06	8.1337e-06	1510.4	404.54	8.1409e-06	8.1113e-06	469.96	156.01	134.82	46.54	8.1612e-06	57.721	362.717	272.043	248.971	100.708	377.600	304.252	100.568	105.342	211.205	229.668	105.177	109.190	109.982	114.035	389.441	113.465	-8191	255	
2125.609	1	1	0	0	0.11697	0.1238	0.27457	0.27552	0.029092	0.163	0.074925	0.11031	0.25814	0.23835	0.27588	0.21882	0.12807	0.1001	0.072003	0.18667	-1.8458	-2.7562	-1.9458	-2.6917	-2.55	-2.05	-3.1896	-2.4562	-2.1958	-2.8604	-2.1833	-2.5396	-2.7896	-2.1229	-2.7479	-2.4833	311.885	103.292	327.841	429.556	225.936	342.311	410.792	402.915	215.550	299.461	101.182	423.226	425.891	417.368	394.692	113.052	0.0014961	0.00098776	0.00024195	1501.4	8.2823e-06	2.2047e-06	1455.1	388.9	9.6262e-06	5.7286e-06	440.64	148.57	129.2	43.944	4.4057e-06	54.487	0.00075103	0.00074444	0.00020794	1554.3	8.1561e-06	8.1813e-06	1507.3	405.08	8.1496e-06	8.136e-06	469.59	156.37	135.03	46.658	8.2075e-06	57.702	327.867	154.001	143.031	100.766	214.415	180.954	100.535	105.257	201.855	223.710	104.939	109.573	109.963	114.488	116.279	113.407	-8191	255	
2125.730	1	1	0	0	0.18617	0.23217	0.30252	0.10191	0.038953	0.17043	0.33897	0.15229	0.1407	0.12406	0.040321	0.15128	0.094378	0.2548	0.18822	0.12365	-1.7812	-2.7417	-2.0271	-2.6708	-2.6458	-2.0375	-3.0312	-2.5083	-2.2021	-2.8625	-2.0125	-2.5104	-2.8646	-2.175	-2.7313	-2.4938	120.883	152.906	298.362	411.116	312.546	302.699	416.692	434.902	244.418	221.147	334.580	375.720	381.290	446.852	429.743	319.845	0.001927	0.00038638	7.875e-05	1502.1	4.1874e-06	6.5451e-06	1460.8	388.68	6.0181e-06	6.5216e-06	443.34	147.42	128.32	43.887	1.1176e-06	54.074	0.00074911	0.00074749	0.00020883	1554.2	8.1824e-06	8.1592e-06	1509.6	405.02	8.1645e-06	8.117e-06	470.52	155.84	134.98	46.677	8.1558e-06	57.723	341.912	404.236	89.053	100.704	272.340	334.752	100.726	105.222	278.775	142.746	105.070	109.621	109.905	114.307	94.179	113.151	-8191	255	
2125.826	1	1	0	0	0.072929	0.17327	0.17851	0.16417	0.081087	0.26715	0.29428	0.11804	0.29979	0.24426	0.24873	0.316	0.11669	0.099855	0.17827	0.18017	-1.5833	-2.9146	-2.1271	-2.4688	-2.7542	-2.1979	-3.025	-2.6771	-2.15	-3.0229	-2.0896	-2.3042	-2.7938	-2.1188	-2.6917	-2.5417	143.159	270.326	114.698	320.790	147.230	295.039	352.136	400.003	160.834	245.779	380.648	413.873	363.888	367.637	172.967	92.062	0.001444	0.00063574	0.00011981	1500.9	1.061e-05	4.6013e-06	1466.8	387.86	6.3634e-06	6.5443e-06	445.32	148.7	128.53	43.992	4.313e-06	54.173	0.00075305	0.00074168	0.00020728	1552.4	8.1192e-06	8.1444e-06	1512.8	405.17	8.1593e-06	8.1468e-06	470.13	156.1	134.95	46.665	8.1425e-06	57.611	326.065	144.497	99.469	100.646	209.216	192.216	100.842	105.474	149.156	244.579	105.059	109.780	109.780	114.136	113.135	113.419	-8191	255	
2125.897	1	1	0	0	0.081099	0.14616	0.11145	0.41786	0.063242	0.13053	0.33967	0.3745	0.16939	0.11109	0.11526	0.18649	0.17378	0.20225	0.15929	0.43717	-1.6	-2.6021	-2.1479	-2.2354	-2.5854	-1.875	-2.7958	-2.6021	-2.025	-2.7104	-2.1771	-2.3729	-2.8042	-2.075	-2.4813	-2.6396	224.152	358.778	391.189	415.725	141.885	202.368	356.784	372.476	200.882	142.333	435.707	409.111	372.297	397.672	327.154	393.746	0.0015936	0.00076768	0.00017809	1500.1	1.3356e-05	3.5642e-06	1461	388.93	6.6326e-06	5.3586e-06	444.23	148.78	128.92	43.988	1.0634e-05	54.334	0.00074788	0.00074115	0.00020854	1554	8.131e-06	8.1165e-06	1508.7	405.11	8.1202e-06	8.1793e-06	470.69	155.95	135.21	46.656	8.2119e-06	57.686	334.652	89.584	339.482	100.605	177.487	327.039	100.717	105.350	227.952	371.912	105.274	109.877	109.774	114.292	198.555	113.124	-8191	255	
2125.994	1	1	0	0	0.079202	0.25658	0.40934	0.049603	0.0805	0.066791	0.32569	0.22534	0.079593	0.21577	0.21206	0.19014	0.27337	0.38543	0.14011	0.15697	-1.6792	-2.7271	-2.45	-2.2542	-2.8646	-2.0771	-2.6917	-2.7438	-1.8729	-2.6729	-2.45	-2.0271	-2.8271	-2.2146	-2.4521	-2.7833	226.561	389.398	133.103	88.558	129.529	151.937	402.767	421.852	103.085	278.698	397.489	412.534	93.829	417.727	197.855	108.539	0.0016127	0.00018915	0.00024819	1499.3	1.9268e-06	4.0622e-06	1466	389.41	1.0428e-05	4.3315e-06	444.94	148.54	128.53	43.801	3.7074e-06	54.345	0.00074699	0.00074866	0.00020763	1553.4	8.1236e-06	8.1664e-06	1511.5	406.18	8.1249e-06	8.1533e-06	470.61	156.09	134.9	46.662	8.1987e-06	57.751	335.884	194.357	195.987	100.893	293.722	389.762	100.791	105.472	231.630	262.229	105.252	109.715	110.340	114.446	145.783	113.496	-8191	255	
2126.114	1	1	0	0	0.30807	0.037691	0.013761	0.054259	0.15245	0.18126	0.159	0.17066	0.078375	0.12973	0.053378	0.058534	0.15173	0.070207	0.16211	0.15736	-1.5	-2.6917	-2.4083	-2.0417	-2.9396	-1.9438	-2.6688	-2.8625	-2.1708	-2.5854	-2.4188	-2.1312	-2.7708	-2.325	-2.0396	-2.8	442.343	210.100	423.361	359.715	186.693	363.014	423.611	436.359	310.175	223.104	100.300	129.070	348.438	159.720	261.424	321.654	0.0019912	0.00015319	0.00016206	1502.7	8.3264e-06	1.0969e-05	1461	389.4	8.3579e-06	2.1377e-07	441.4	148	128.13	43.96	2.6012e-06	54.377	0.00074591	0.0007477	0.00020777	1554.3	8.1434e-06	8.1569e-06	1511.4	405.4	8.1155e-06	8.1797e-06	470.03	155.85	134.89	46.645	8.1546e-06	57.744	329.173	275.149	137.719	100.754	227.908	126.000	100.889	105.468	219.845	277.063	105.134	109.833	109.935	114.009	303.643	113.327	-8191	255	
2126.210	1	1	0	0	0.24227	0.17862	0.33663	0.1257	0.23943	0.37394	0.15767	0.22537	0.23532	0.20469	0.18285	0.29238	0.19658	0.049904	0.12003	0.21852	-1.4917	-2.5229	-2.5917	-2.0542	-2.9979	-2.3292	-2.3292	-3.0208	-2.1375	-2.6458	-2.6312	-2.1021	-2.9021	-2.4396	-1.8833	-2.8771	355.218	244.785	131.522	149.065	333.979	165.568	399.700	383.410	413.598	404.012	348.709	90.972	401.562	128.990	166.396	428.476	0.001819	0.00029591	0.00023446	1505.5	4.1094e-06	5.0248e-06	1461.1	389.35	8.0028e-06	7.819e-06	442.33	148.33	128.48	43.846	7.7748e-06	54.526	0.00074822	0.00074464	0.00020814	1554.8	8.1636e-06	8.1772e-06	1509.9	405.23	8.172e-06	8.2435e-06	469.77	155.86	135.07	46.589	8.2478e-06	57.814	316.610	297.637	244.834	100.755	234.190	205.493	100.898	105.510	226.479	202.909	105.336	109.465	110.118	114.410	260.777	113.720	-8191	255	
2126.306	1	1	0	0	0.042027	0.17268	0.035054	0.39767	0.31908	0.2405	0.30107	0.27559	0.25175	0.15961	0.14848	0.065661	0.12754	0.275	0.16042	0.15089	-1.6	-2.4313	-2.5646	-2.0021	-2.8812	-2.4375	-2.4333	-2.95	-2.2188	-2.4083	-2.6292	-2.1333	-2.6417	-2.5021	-2.1271	-2.8521	261.362	234.735	395.831	429.730	97.192	371.135	394.618	418.973	241.486	95.212	347.636	200.362	443.511	91.547	179.450	387.347	0.0017388	0.0012069	0.0001526	1502.7	6.0702e-06	3.1944e-06	1463.5	389.08	7.7537e-06	3.1882e-06	445.48	149	127.87	43.956	8.9733e-06	54.294	0.00075003	0.00074689	0.00020759	1554.2	8.1908e-06	8.1856e-06	1508.5	405.28	8.1737e-06	8.1888e-06	469.98	156.17	134.78	46.641	8.1952e-06	57.719	338.919	161.726	412.516	100.952	225.067	422.063	101.098	105.594	180.332	383.055	105.331	109.744	110.329	114.840	239.956	113.837	-8191	255	
2126.403	1	1	0	0	0.096174	0.095606	0.22692	0.19483	0.11529	0.4216	0.32636	0.083773	0.21774	0.14588	0.10106	0.092311	0.14224	0.2468	0.015513	0.10746	-1.6104	-2.1646	-2.7875	-2.0875	-2.5833	-2.4271	-2.3708	-3.0667	-2.2208	-2.2	-2.7646	-2.0917	-2.7708	-2.7625	-1.9729	-2.9917	273.667	279.709	102.093	442.292	403.031	403.940	377.243	317.621	289.764	122.148	188.003	140.755	317.683	89.892	353.170	411.021	0.0018782	0.00028513	0.00016819	1503.8	3.2221e-06	3.5711e-06	1460.6	388.39	4.6227e-06	4.4601e-06	446.31	147.63	128.63	43.846	1.0291e-05	54.278	0.00075268	0.00074779	0.00020703	1553.2	8.2039e-06	8.1653e-06	1507.7	405.52	8.1764e-06	8.1707e-06	470.84	155.52	134.93	46.565	8.2476e-06	57.792	335.965	345.003	170.987	100.765	207.664	196.215	100.998	105.754	193.118	180.336	105.430	109.996	110.016	114.420	214.160	113.630	-8191	255	
2126.522	1	1	0	0	0.16014	0.28679	0.19931	0.26849	0.16958	0.0080358	0.20433	0.13538	0.24685	0.16701	0.21417	0.10532	0.30218	0.17935	0.24065	0.16777	-1.8354	-2.0979	-2.7646	-1.9729	-2.4813	-2.6521	-2.2396	-2.95	-2.3104	-2.0896	-2.8937	-2.1604	-2.5812	-2.7562	-1.9979	-2.825	365.452	322.754	243.642	99.949	188.526	378.739	364.617	355.547	117.155	365.926	179.117	429.841	422.203	87.936	430.426	336.068	0.0013978	0.00055546	0.00028183	1502.8	1.1211e-05	2.1251e-06	1463.1	389.46	1.0222e-05	8.0148e-06	441.94	148.55	128.35	43.886	9.8724e-06	54.292	0.00075684	0.00075565	0.00020993	1554.4	8.2495e-06	8.2788e-06	1510.1	405.74	8.2409e-06	8.2842e-06	470.12	156.23	135.01	46.694	8.2327e-06	57.754	315.307	202.156	132.059	100.863	188.419	167.731	101.072	105.676	184.982	308.942	104.988	109.651	110.059	114.462	255.398	113.741	-8191	255	
2126.595	1	1	0	0	0.092271	0.16124	0.10475	0.28218	0.11158	0.21613	0.31257	0.31831	0.20623	0.18696	0.23056	0.31303	0.27342	0.25952	0.25802	0.18705	-1.8771	-2.0833	-2.7896	-2.2708	-2.1667	-2.7229	-2.2479	-2.8375	-2.4229	-1.9937	-2.8229	-2.2521	-2.2438	-2.7687	-2.0042	-2.6479	297.498	107.569	211.040	120.796	323.339	297.667	358.389	287.090	143.933	127.500	350.499	423.832	370.538	94.024	392.332	405.910	0.0015922	0.00040234	0.00030365	1502.2	4.951e-06	3.1078e-06	1463.2	389.13	5.6682e-06	1.8309e-06	443.03	148.56	128.5	43.794	5.532e-06	54.318	0.00075909	0.00075076	0.00021103	1554.7	8.2472e-06	8.2115e-06	1508.6	405.79	8.1898e-06	8.2139e-06	470.16	156.11	134.95	46.623	8.1711e-06	57.813	339.294	162.112	193.003	100.811	123.487	266.208	101.053	105.956	258.996	203.091	105.420	110.306	110.276	114.701	301.507	113.949	-8191	255	
2126.714	1	1	0	0	0.223	0.024289	0.034144	0.34565	0.077727	0.23438	0.52246	0.26224	0.16278	0.11043	0.076153	0.078706	0.10568	0.27378	0.27958	0.24372	-2.1646	-1.9771	-2.7313	-2.3667	-2.2687	-2.8667	-2.0854	-2.7167	-2.4833	-1.9729	-2.8688	-2.3167	-2.2167	-2.8812	-2.0542	-2.5958	412.231	409.496	376.597	406.962	149.981	293.155	371.098	399.248	255.959	179.930	354.123	403.713	114.735	412.402	298.162	354.824	0.0016988	0.00062925	9.6105e-05	1504.8	2.8816e-06	9.7168e-06	1466.5	391.43	6.7733e-06	1.077e-05	445.56	148.53	128.41	44.047	1.1468e-05	54.599	0.00075249	0.0007473	0.00020787	1553.6	8.2025e-06	8.2426e-06	1509	405.94	8.2144e-06	8.2228e-06	471.05	156.15	135.01	46.58	8.2049e-06	57.762	329.768	179.549	210.690	100.883	227.776	91.092	100.953	105.882	233.673	196.844	105.050	109.805	110.055	114.815	141.519	113.844	-8191	255	
2126.810	1	1	0	0	0.069986	0.32307	0.19231	0.29993	0.161	0.23648	0.30081	0.26954	0.11242	0.1225	0.23792	0.3687	0.16093	0.20183	0.40425	0.19317	-2.0625	-1.9625	-2.6937	-2.4792	-1.9479	-2.7313	-2.2833	-2.5729	-2.7562	-2.0604	-2.9813	-2.3667	-2.1417	-2.8021	-2.125	-2.4333	176.527	100.529	380.867	418.976	228.643	428.461	411.177	373.254	144.474	369.675	100.881	99.050	353.746	105.215	440.057	121.438	0.0018336	0.00041277	7.5778e-05	1501.4	1.0602e-05	6.9501e-06	1463.3	389.49	7.3143e-06	8.8889e-07	440.11	147.34	128.53	43.903	2.3292e-06	54.212	0.00075631	0.00075117	0.00020889	1553.4	8.1764e-06	8.185e-06	1510.4	405.37	8.2072e-06	8.2061e-06	469.78	155.8	134.95	46.585	8.2036e-06	57.735	327.108	132.333	253.343	101.256	274.713	432.445	101.336	105.821	212.746	305.225	105.614	110.029	110.482	114.897	331.881	114.361	-8191	255	
2126.906	1	1	0	0	0.11	0.13427	0.14589	0.24927	0.10226	0.16094	0.18787	0.40317	0.044105	0.06819	0.10908	0.32783	0.24311	0.20904	0.11923	0.18168	-2.325	-1.7833	-2.7458	-2.7729	-2.1646	-2.7625	-2.5604	-2.5375	-2.8458	-1.8625	-2.775	-2.6896	-2.1875	-3.0187	-2.1396	-2.2625	101.319	168.345	239.696	433.675	110.987	315.814	432.092	413.368	267.026	191.031	143.629	94.018	312.993	422.655	362.074	376.104	0.001259	0.00045311	0.00025771	1501.9	8.4284e-06	8.0976e-06	1460.2	388.85	2.5442e-06	1.3395e-06	443.83	147.96	128.08	44.171	1.3307e-05	54.255	0.00075657	0.00075049	0.00020869	1552.9	8.1897e-06	8.1587e-06	1507.9	404.93	8.168e-06	8.1248e-06	470.21	155.6	134.81	46.683	8.1677e-06	57.651	336.092	264.035	116.234	101.230	240.136	163.251	101.330	105.801	173.337	197.481	105.214	109.578	110.135	114.604	246.119	113.972	-8191	255	
2127.002	1	1	0	0	0.27486	0.34287	0.041629	0.43021	0.32976	0.063173	0.28711	0.089991	0.093672	0.16913	0.017548	0.25728	0.13578	0.16419	0.19558	0.041238	-2.4062	-1.9937	-2.4938	-2.6604	-1.975	-2.9354	-2.4833	-2.4583	-2.7521	-1.8917	-2.5354	-2.6771	-1.9688	-2.7083	-2.3625	-2.1792	198.321	313.924	371.563	435.234	140.873	239.330	385.223	428.909	372.336	334.191	225.804	319.063	349.410	365.391	260.170	307.105	0.0014845	0.00060717	0.00028292	1505.8	9.3174e-06	7.3547e-06	1457.5	388.19	1.6798e-05	8.789e-06	444.73	147.47	128.57	43.957	3.1358e-06	54.201	0.00075497	0.00074225	0.00020819	1555.4	8.1378e-06	8.156e-06	1508	404.97	8.1379e-06	8.1385e-06	470.55	155.5	134.91	46.597	8.1119e-06	57.684	342.061	106.974	213.599	100.807	218.014	231.307	100.772	105.630	207.984	156.067	105.135	109.479	110.139	114.475	295.386	113.540	-8191	255	
2127.123	1	1	0	0	0.09976	0.079027	0.20072	0.26732	0.14001	0.10744	0.42929	0.29753	0.08267	0.22689	0.037769	0.51976	0.24976	0.24777	0.15092	0.18292	-2.3542	-2.125	-2.4646	-2.8146	-2.0042	-2.6771	-2.6229	-2.0167	-2.6396	-2.0687	-2.4854	-2.8583	-2.0292	-2.7479	-2.5	-2.1167	163.790	101.791	111.570	422.331	230.103	419.758	440.982	371.740	348.082	127.646	148.254	417.322	440.721	396.204	364.408	323.740	0.0017577	0.00036017	0.00018775	1503.6	3.44e-06	3.5219e-06	1460.3	388.24	3.2839e-06	7.343e-06	445.68	147.97	128.48	43.675	1.0844e-05	54.342	0.00074633	0.00074195	0.0002064	1553.7	8.0936e-06	8.0971e-06	1508.8	404.77	8.0979e-06	8.1456e-06	469.9	155.61	134.85	46.507	8.1211e-06	57.656	343.513	127.578	136.884	101.049	297.848	132.319	100.979	105.898	168.330	216.357	105.404	110.035	110.328	114.764	161.660	113.696	-8191	255	
2127.195	1	1	0	0	0.11313	0.090909	0.30573	0.27559	0.11208	0.36816	0.22572	0.43689	0.088371	0.14618	0.038041	0.19123	0.2214	0.19617	0.17457	0.17898	-2.3104	-2.1521	-2.1229	-2.8479	-1.8875	-2.6104	-2.7354	-2.2812	-2.8604	-2.1063	-2.1479	-2.9542	-2.1021	-2.5938	-2.4604	-2.1104	423.696	284.204	420.215	416.207	129.491	403.583	406.008	422.193	154.025	380.373	433.100	344.034	346.782	410.132	220.459	433.907	0.001506	0.00024066	0.00031157	1499.7	7.4817e-06	4.1313e-06	1459.3	388.78	5.499e-06	3.4131e-06	444.06	148.73	128.4	44.001	7.1432e-06	53.881	0.00074406	0.00074229	0.00020587	1551.4	8.0977e-06	8.0964e-06	1506.9	404.89	8.1113e-06	8.0667e-06	470.02	155.92	134.62	46.539	8.1069e-06	57.564	331.696	174.435	209.440	100.941	226.265	389.312	100.996	105.823	149.253	234.996	105.726	109.665	109.768	114.544	253.727	113.621	-8191	255	
2127.291	1	1	0	0	0.23547	0.26638	0.25876	0.2885	0.11894	0.14183	0.40355	0.22072	0.19504	0.15378	0.13615	0.1145	0.2599	0.32378	0.11966	0.24272	-2.5354	-2.3729	-1.9708	-2.9042	-1.9771	-2.4354	-2.7646	-2.2146	-2.7354	-2.3583	-2.2146	-2.9313	-2.2854	-2.4229	-2.6958	-2.0312	337.959	301.274	356.437	423.806	230.020	266.270	414.987	358.998	309.825	269.358	390.012	98.511	416.097	375.725	371.782	310.887	0.0018407	0.00071361	0.00013027	1502.6	6.7122e-06	3.4555e-06	1458.2	389.5	5.2586e-06	4.8569e-06	440.99	147.77	128.25	43.911	4.1901e-06	54.086	0.00074781	0.00074254	0.00020721	1553	8.1523e-06	8.1613e-06	1508.3	405.87	8.1876e-06	8.1717e-06	468.85	155.96	134.77	46.6	8.1629e-06	57.595	326.574	260.386	164.608	100.723	301.932	262.123	101.048	105.877	128.658	208.692	105.432	110.005	110.558	114.779	181.520	114.053	-8191	255	
2127.411	1	1	0	0	0.13511	0.0642	0.17617	0.11389	0.13585	0.018898	0.3817	0.28912	0.22884	0.17748	0.07275	0.10247	0.36901	0.19509	0.049816	0.15737	-2.3792	-2.4979	-1.925	-2.8896	-2.1188	-2.2917	-2.9313	-2.1833	-2.6458	-2.375	-2.3063	-2.85	-2.3458	-2.45	-2.8187	-1.9813	380.741	203.569	297.204	396.424	419.060	119.574	407.304	326.332	382.228	421.401	434.728	121.228	415.797	399.129	131.010	354.035	0.001913	0.00046185	0.00015932	1506.3	1.2132e-05	8.0196e-06	1459.5	388.38	1.2222e-05	2.7878e-06	444.82	148.81	128.39	43.987	3.8893e-06	54.054	0.00074458	0.00073909	0.0002073	1555.3	8.0621e-06	8.1471e-06	1508.3	405.33	8.0926e-06	8.0987e-06	470.51	155.88	134.7	46.553	8.1146e-06	57.607	332.601	178.251	358.197	101.324	214.351	146.969	101.075	105.875	154.884	321.415	105.409	110.015	110.274	114.657	301.386	114.077	-8191	255	
2127.506	1	1	0	0	0.060492	0.17891	0.1273	0.30244	0.056943	0.20094	0.58694	0.34087	0.084904	0.082079	0.12122	0.20749	0.13637	0.18522	0.1447	0.059599	-2.2687	-2.5417	-2.0312	-3.0396	-2.1479	-1.9708	-3.0333	-2.1937	-2.6	-2.6042	-2.1688	-2.9667	-2.3063	-2.1792	-2.9396	-2.125	168.768	278.752	413.250	393.865	135.841	182.521	382.232	91.274	424.336	225.087	108.497	326.324	258.105	393.183	329.113	226.725	0.001371	0.00095203	6.1998e-05	1502.1	8.3889e-06	6.3929e-06	1463.1	388.61	2.2108e-06	7.1311e-06	442.49	148.62	128.18	43.88	5.1339e-06	53.987	0.00074658	0.00073863	0.00020656	1550.9	8.0858e-06	8.0913e-06	1508.5	405.02	8.1009e-06	8.0861e-06	469.9	155.72	134.73	46.56	8.1209e-06	57.527	332.233	162.961	262.690	101.220	314.946	204.016	101.199	105.810	150.575	182.323	105.266	109.813	110.315	114.486	292.486	113.606	-8191	255	
2127.602	1	1	0	0	0.40434	0.16381	0.20362	0.35747	0.19809	0.066438	0.089993	0.11371	0.16346	0.14514	0.16342	0.19967	0.31226	0.15402	0.13832	0.030741	-1.9292	-2.6792	-1.8604	-2.8917	-2.3438	-2.1625	-2.9583	-2.1479	-2.3979	-2.5333	-2.1375	-2.8771	-2.4521	-2.1896	-2.7729	-2.2479	198.824	440.589	191.822	441.177	351.191	224.946	95.996	422.522	194.906	215.600	97.559	359.315	430.741	338.275	392.850	188.836	0.0020611	0.00029569	1.2987e-05	1501	8.1648e-06	1.8203e-06	1461.3	388.86	2.6616e-06	3.1879e-06	445.88	147.68	128.5	43.873	5.2608e-06	53.971	0.00074194	0.00074046	0.00020701	1551.1	8.1304e-06	8.1325e-06	1509	405.12	8.1045e-06	8.0989e-06	471.02	155.54	134.77	46.6	8.1144e-06	57.46	338.796	446.083	239.440	101.354	100.140	169.941	101.314	106.111	193.335	401.255	105.859	110.167	110.563	114.771	92.178	114.021	-8191	255	
2127.698	1	1	0	0	0.13331	0.12809	0.11251	0.1237	0.066971	0.29011	0.3218	0.28839	0.22385	0.1873	0.13435	0.093186	0.15054	0.48863	0.19658	0.21058	-1.9104	-2.575	-1.7125	-2.8729	-2.5042	-1.8021	-3.2625	-2.2854	-2.425	-2.6625	-2.0375	-2.6375	-2.6312	-1.9917	-2.9292	-2.2792	437.644	340.281	374.094	404.385	88.354	366.941	335.934	387.099	143.465	98.522	361.425	133.118	349.628	418.495	193.372	102.147	0.0018438	0.00047596	0.00017557	1500.1	9.178e-06	5.1815e-06	1458.4	389.39	1.4002e-05	5.7464e-06	443.43	148.69	128.01	43.68	3.1086e-06	54.206	0.00074591	0.00073378	0.00020593	1552.3	8.0609e-06	8.0621e-06	1506.5	405.27	8.0667e-06	8.0944e-06	469.03	155.78	134.76	46.508	8.1059e-06	57.572	326.181	194.184	173.006	101.198	260.952	180.354	101.329	105.764	237.277	160.048	105.425	110.052	110.423	115.230	279.381	114.050	-8191	255	
2127.794	1	1	0	0	0.13224	0.23058	0.20466	0.15226	0.14321	0.199	0.13418	0.29576	0.18919	0.19447	0.034035	0.29621	0.25425	0.102	0.053792	0.12381	-1.9417	-2.8271	-1.9708	-2.8104	-2.6562	-2.0042	-3.2313	-2.5042	-2.1896	-2.8417	-2.1375	-2.5521	-2.5646	-2.0396	-2.7229	-2.4625	311.697	300.142	215.169	184.657	157.579	265.761	370.135	342.896	249.622	369.400	302.544	429.174	265.889	444.514	111.383	101.200	0.0017951	9.1912e-05	0.00023943	1499.8	6.0166e-06	6.4399e-06	1467.9	390.19	1.12e-06	1.895e-06	445.03	149.51	128.45	43.832	4.4552e-06	53.988	0.00074372	0.000737	0.00020522	1550.5	8.0689e-06	8.0759e-06	1508.5	405.52	8.0385e-06	8.0447e-06	468.46	155.76	134.4	46.468	8.0552e-06	57.475	326.033	217.909	282.360	101.332	217.109	232.277	101.491	106.301	266.912	91.168	105.625	110.042	110.121	114.622	194.797	113.457	-8191	255	
2127.890	1	1	0	0	0.22273	0.32431	0.20713	0.1259	0.22788	0.1518	0.22437	0.31891	0.13325	0.20186	0.1989	0.18482	0.15085	0.096938	0.17123	0.19715	-1.8	-2.6833	-2.2667	-2.6583	-2.75	-1.9417	-2.9688	-2.4229	-2.0375	-2.7417	-2.1167	-2.5	-2.7375	-2.1583	-2.6583	-2.5812	157.008	170.440	248.407	387.928	396.303	424.451	319.165	413.054	216.344	194.949	432.338	194.231	447.634	91.314	235.115	218.929	0.0015095	0.0010124	0.00030309	1500.2	5.385e-06	3.0646e-06	1463.5	389.03	8.0943e-06	5.1731e-06	444.44	148.71	129.33	43.598	8.7889e-06	54.002	0.00073303	0.00073015	0.00020363	1551.5	8.0005e-06	8.0115e-06	1507.4	404.4	8.0228e-06	8.0279e-06	468.9	155.49	134.68	46.382	8.0161e-06	57.454	332.997	435.052	358.183	100.940	267.282	443.972	100.937	105.752	175.083	230.105	105.352	109.959	110.343	114.727	250.726	113.922	-8191	255	
2127.987	1	1	0	0	0.077809	0.21412	0.18417	0.173	0.16908	0.18057	0.11854	0.15524	0.035471	0.19032	0.17851	0.09555	0.36077	0.34044	0.1307	0.3436	-1.6562	-2.7625	-2.0583	-2.4896	-2.7833	-2.0521	-2.8958	-2.4375	-1.8604	-2.8375	-2.3583	-2.2958	-2.8604	-2.025	-2.45	-2.6833	221.232	313.216	334.097	360.770	315.041	410.738	260.190	383.265	133.029	155.615	91.711	425.633	386.095	90.916	168.519	421.257	0.0018003	0.00067212	0.00022201	1503	7.5488e-06	3.9917e-06	1463.4	389.4	6.442e-06	5.9171e-06	444.13	148.3	128.32	43.715	4.1631e-06	53.961	0.00073447	0.00073228	0.00020293	1550.7	8.0095e-06	8.0139e-06	1508	404.68	8.0313e-06	8.0659e-06	469.74	155.55	134.73	46.455	8.076e-06	57.467	320.181	125.999	125.968	101.166	234.163	178.365	101.037	105.579	169.800	224.152	104.956	109.266	110.019	114.610	369.863	113.453	-8191	255	
2128.083	1	1	0	0	0.067317	0.034259	0.17231	0.14553	0.15729	0.34419	0.26404	0.16444	0.1552	0.15438	0.35557	0.26792	0.2499	0.45438	0.21076	0.15309	-1.2854	-2.8271	-2.0479	-2.1833	-2.7208	-2.1292	-2.5479	-2.8292	-2.0771	-2.6042	-2.4104	-2.2083	-2.9375	-2.2271	-2.4292	-2.7292	354.834	399.847	213.649	368.226	344.340	420.037	363.936	308.029	94.639	423.873	393.318	414.515	114.002	418.807	345.535	325.689	0.0016175	0.00046183	0.00030251	1501.3	7.7478e-06	7.4724e-06	1463.7	389.48	1.0628e-05	3.1826e-06	442.58	148.07	128.34	43.727	7.3041e-06	54.036	0.00073892	0.0007345	0.00020417	1552.9	8.0505e-06	8.0729e-06	1507	405.24	8.0389e-06	8.039e-06	468.91	155.51	134.38	46.434	8.0004e-06	57.378	328.886	219.560	189.398	100.440	343.082	235.420	100.664	105.052	316.320	117.903	104.819	109.332	109.900	114.243	337.228	113.106	-8191	255	
2128.203	1	1	0	0	0.076793	0.046342	0.29918	0.15029	0.18703	0.15374	0.2704	0.25663	0.018811	0.067737	0.19618	0.16195	0.17062	0.16089	0.23384	0.017966	-1.5667	-2.4833	-2.4625	-2.2625	-2.7479	-1.9167	-2.5687	-2.8104	-1.8896	-2.6479	-2.525	-2.1667	-2.8521	-2.1917	-2.2771	-2.9583	315.544	385.866	422.937	314.853	241.748	356.545	338.072	407.247	299.903	445.315	355.569	370.233	139.372	285.512	331.130	190.815	0.0014511	0.0011489	0.00010491	1500.9	4.231e-06	7.5247e-06	1459.5	390.14	7.6219e-06	2.0795e-06	442.42	148.16	127.82	43.932	5.2814e-06	53.824	0.00073504	0.0007341	0.00020507	1550.7	8.0309e-06	7.9978e-06	1506.1	405.19	7.9879e-06	8.0047e-06	468.57	155.58	134.44	46.474	8.0313e-06	57.464	350.339	112.636	426.277	100.597	103.987	220.236	100.498	105.281	175.267	203.410	104.817	109.133	109.791	114.115	203.258	113.383	-8191	255	
2128.299	1	1	0	0	0.090185	0.16424	0.030452	0.11143	0.040756	0.096826	0.25434	0.29121	0.1567	0.14908	0.23627	0.030117	0.21062	0.1808	0.14491	0.2589	-1.5667	-2.6271	-2.4125	-2.1333	-2.7938	-2.0771	-2.325	-2.9771	-1.9604	-2.5729	-2.6375	-2.1375	-2.8229	-2.4938	-2.1688	-2.9083	226.012	211.833	284.027	325.039	89.496	304.831	346.422	385.607	277.384	348.405	376.897	382.779	328.233	93.752	278.673	441.348	0.0022309	0.00069442	0.00021731	1503.2	3.5395e-06	4.7429e-06	1460.5	388.6	6.1082e-06	3.0284e-06	446.44	148.34	128.07	43.783	5.2023e-06	54.494	0.00073577	0.0007326	0.00020382	1550.9	8.0248e-06	7.9955e-06	1506.2	404.61	8.0159e-06	8.0644e-06	469.77	155.71	134.59	46.447	8.1301e-06	57.525	326.404	101.163	178.310	100.812	261.946	130.388	100.988	105.505	165.650	162.032	105.339	109.934	109.983	114.318	181.348	113.418	-8191	255	
2128.396	1	1	0	0	0.11	0.3389	0.073476	0.24125	0.15518	0.053234	0.46622	0.057513	0.22302	0.13933	0.084993	0.11882	0.093396	0.13072	0.31852	0.23236	-1.425	-2.4792	-2.5333	-2.2375	-2.7562	-2.175	-2.4271	-2.9313	-2.0104	-2.3229	-2.5021	-2.1667	-2.7729	-2.3833	-2.1771	-2.85	318.369	320.717	138.729	398.245	202.547	338.896	414.877	386.816	433.069	380.919	170.752	145.807	291.011	368.065	291.382	389.332	0.0020386	0.0003808	0.00023283	1498.4	9.0783e-06	3.0048e-06	1463.8	387.25	1.2886e-06	5.9203e-06	442.23	148.65	128.08	43.683	9.7756e-06	54.172	0.00074632	0.00073703	0.00020515	1550.9	8.0892e-06	8.0719e-06	1507.2	404.33	8.0134e-06	8.0087e-06	468.2	155.52	134.5	46.381	8.0053e-06	57.498	339.992	274.984	173.137	100.937	162.144	237.725	100.914	105.662	145.759	199.728	105.126	109.575	110.148	114.482	327.875	113.693	-8191	255	
2128.492	1	1	0	0	0.36106	0.19035	0.21319	0.15764	0.10371	0.2011	0.11385	0.34745	0.079029	0.32184	0.35007	0.18566	0.1854	0.27814	0.083441	0.10195	-1.5979	-2.3208	-2.4958	-2.0187	-2.5979	-2.3688	-2.0417	-2.7188	-2.1896	-2.25	-2.475	-2.0333	-2.6958	-2.5062	-1.875	-2.9271	441.204	208.464	169.197	410.304	330.010	293.275	384.278	385.836	294.149	121.451	401.282	347.324	441.831	411.980	330.509	297.898	0.0016271	0.00082537	0.00027446	1501.6	3.3531e-06	3.2346e-06	1458.5	387.52	3.8798e-06	4.8514e-07	442.96	147.93	128.26	43.797	1.1568e-05	53.9	0.00073428	0.00072978	0.00020365	1549.8	7.9723e-06	7.9828e-06	1506.8	404.23	7.9752e-06	8.0242e-06	468.33	155.34	134.71	46.385	8.0165e-06	57.479	337.113	205.267	168.740	100.930	249.535	283.153	100.980	105.792	270.957	283.503	105.511	109.663	110.354	114.613	222.344	113.959	-8191	255	
2128.586	1	1	0	0	0.28359	0.17392	0.052956	0.27845	0.11604	0.17842	0.33501	0.38595	0.25297	0.098018	0.33144	0.057522	0.19139	0.24146	0.12784	0.24164	-1.7375	-2.0917	-2.6	-1.975	-2.7188	-2.5667	-2.1375	-2.8771	-2.0854	-2.0438	-2.8354	-2.0667	-2.5292	-2.6708	-2.0542	-2.7479	425.844	257.085	222.630	399.771	189.100	220.358	409.172	331.896	208.334	220.312	383.256	186.190	407.851	366.298	261.983	386.990	0.0010624	0.00022929	0.0001249	1498.4	6.6155e-06	3.2516e-06	1466	390.51	7.8981e-06	3.314e-06	441.31	147.12	128.86	43.8	3.5468e-06	54.019	0.00073121	0.00073134	0.00020319	1547.6	7.9521e-06	7.9788e-06	1508.1	404.82	7.9613e-06	8.0265e-06	468.06	154.97	134.58	46.329	8.0209e-06	57.38	343.039	271.087	386.036	100.899	204.850	438.455	100.816	105.748	167.026	130.963	105.296	109.503	110.294	114.504	227.197	113.774	-8191	255	
2128.684	1	1	0	0	0.10372	0.20513	0.17055	0.24798	0.12689	0.11983	0.13681	0.11681	0.23455	0.22801	0.14648	0.2682	0.17234	0.16253	0.22445	0.12175	-1.9188	-2.2188	-2.725	-2.0521	-2.4667	-2.8958	-2.2667	-2.7812	-2.5417	-1.8917	-2.8896	-2.1708	-2.4437	-2.7729	-1.8542	-2.7938	429.083	165.944	313.929	415.246	180.290	295.607	381.230	379.610	171.532	215.654	425.231	421.996	127.617	90.332	193.919	360.722	0.0016119	0.0002168	0.00023575	1502.9	1.2576e-05	2.1165e-06	1458.4	388.98	8.641e-06	7.2674e-06	444.97	148.98	128.45	43.776	9.4618e-06	54.413	0.00073306	0.00072374	0.00020253	1548.8	7.9046e-06	7.9234e-06	1503.4	404.35	7.8995e-06	7.8959e-06	468.53	155.28	134.27	46.357	7.915e-06	57.45	348.763	183.371	188.230	100.902	226.585	155.142	101.130	106.031	197.578	255.503	105.695	110.170	110.349	114.907	256.998	113.988	-8191	255	
2128.803	1	1	0	0	0.13606	0.071519	0.11001	0.22505	0.055624	0.14693	0.22687	0.16273	0.10641	0.13095	0.36819	0.24467	0.086823	0.32692	0.25864	0.20347	-2.0938	-1.9229	-2.7833	-2.2708	-2.2125	-2.6688	-2.0792	-2.6125	-2.4479	-2.0896	-2.9667	-2.1625	-2.2208	-2.9146	-1.8167	-2.5438	88.711	96.387	340.469	408.940	327.804	161.583	345.018	343.075	108.470	331.708	421.001	304.368	98.764	230.925	406.743	421.685	0.0016326	0.00075752	0.00012055	1501.3	7.0043e-06	9.3722e-06	1459.5	389.58	4.9465e-06	4.2672e-06	443.35	148.2	128	43.733	3.87e-06	54.15	0.00072911	0.00072235	0.00020104	1545.6	7.9197e-06	7.8781e-06	1505	404.59	7.8896e-06	7.9263e-06	468.38	155.02	134.38	46.335	7.9273e-06	57.401	329.003	134.413	199.800	101.312	299.889	257.092	101.002	105.979	268.181	193.906	105.110	109.533	110.139	114.305	205.902	113.417	-8191	255	
2128.899	1	1	0	0	0.11398	0.23398	0.18394	0.36766	0.29755	0.1022	0.14708	0.25931	0.021216	0.13783	0.060796	0.25423	0.042996	0.31125	0.25999	0.11003	-2.1521	-1.7896	-2.6979	-2.3021	-1.9625	-2.575	-2.225	-2.7167	-2.4979	-1.9875	-2.7229	-2.3646	-1.9792	-2.7438	-1.9125	-2.6396	407.175	401.255	320.544	443.341	151.862	285.324	436.474	431.602	366.320	255.690	326.523	431.735	270.694	407.366	134.812	414.051	0.0017616	0.00046902	0.00020119	1497.7	6.5616e-06	4.1929e-06	1458.1	388.14	1.9759e-06	6.431e-06	443.01	147.78	128	43.815	6.7088e-06	54.161	0.00072697	0.00072427	0.00020092	1546.3	7.9542e-06	7.9313e-06	1504.8	403.84	7.8981e-06	7.951e-06	467.92	155.29	134.24	46.411	7.9565e-06	57.358	340.820	215.530	185.761	100.665	323.597	116.391	100.839	105.697	149.979	202.668	105.378	109.849	110.051	114.374	281.356	113.640	-8191	255	
2128.995	1	1	0	0	0.093943	0.026311	0.061193	0.27066	0.15623	0.086985	0.23406	0.13844	0.2399	0.076213	0.32429	0.076967	0.12312	0.20189	0.163	0.14216	-2.4042	-1.9229	-2.4792	-2.6521	-1.9937	-2.8208	-2.2354	-2.4917	-2.7188	-1.9167	-2.6854	-2.6667	-1.9542	-2.9792	-2.1333	-2.35	268.399	362.029	268.067	430.692	357.751	395.975	340.999	312.152	321.632	230.088	299.551	403.074	431.892	376.339	188.871	400.824	0.0011445	0.00026837	0.0001342	1497.6	8.1033e-06	5.187e-06	1459.4	389.73	7.1704e-06	2.87e-07	444.66	147.65	128.21	43.792	2.6189e-06	54.038	0.00072848	0.00072754	0.00020162	1546.9	7.9069e-06	7.9274e-06	1501.9	404.1	7.8923e-06	7.9277e-06	467.64	154.81	134.14	46.306	7.9578e-06	57.315	339.332	311.786	198.369	100.951	191.963	158.298	100.899	105.637	151.069	204.654	104.866	109.461	109.862	114.098	186.915	113.540	-8191	255	
2129.067	1	1	0	0	0.15219	0.14148	0.2619	0.44505	0.2646	0.096713	0.34508	0.14405	0.14057	0.22237	0.24562	0.20122	0.11617	0.096904	0.037979	0.26427	-2.3187	-1.8438	-2.5021	-2.5542	-1.9708	-2.8104	-2.2625	-2.3063	-2.5542	-1.8979	-2.7208	-2.6937	-2.0187	-2.675	-2.2042	-2.2417	325.401	244.493	356.410	421.029	416.867	425.858	403.584	94.192	111.435	367.636	87.954	353.191	403.287	167.094	334.994	400.831	0.0012035	0.00075214	0.00022504	1495.1	4.2481e-06	4.7983e-06	1454.8	388.3	1.3854e-05	3.8165e-06	441.36	148.02	129.41	43.801	6.0825e-06	54.296	0.00072875	0.00072265	0.00020275	1547.1	7.9074e-06	7.918e-06	1504.1	403.6	7.9052e-06	7.9265e-06	466.76	155.2	134.6	46.311	7.9419e-06	57.471	333.915	204.386	141.941	100.560	226.799	236.522	100.634	105.591	280.814	181.410	105.284	109.714	110.097	114.439	186.081	113.506	-8191	255	
2129.188	1	1	0	0	0.13213	0.23119	0.30765	0.099015	0.17745	0.12881	0.21476	0.40332	0.092939	0.023442	0.32427	0.24331	0.36755	0.11567	0.089282	0.1187	-2.3729	-2.0563	-2.5563	-2.7938	-2.0021	-2.7542	-2.45	-2.3583	-2.6833	-2	-2.4458	-2.7	-2.0938	-2.8771	-2.3292	-2.1083	226.300	159.525	205.635	420.139	111.487	346.441	376.212	387.951	226.421	401.993	426.184	438.827	400.420	116.686	194.205	113.800	0.0013073	0.00042544	0.00011141	1501	8.991e-06	6.4657e-06	1459.3	388.14	1.1213e-05	1.347e-05	440.18	147.68	128.03	43.791	8.9568e-06	54.193	0.00072743	0.00072101	0.00020203	1545.6	7.9009e-06	7.9497e-06	1504.8	404.11	7.9044e-06	7.8979e-06	467.59	154.85	133.9	46.331	7.9291e-06	57.387	326.601	101.027	323.087	100.683	294.637	379.656	100.766	105.604	201.734	164.718	105.363	109.795	110.020	114.555	197.947	113.453	-8191	255	
2129.284	1	1	0	0	0.063361	0.07777	0.12287	0.095218	0.24783	0.13631	0.4074	0.3201	0.10706	0.1055	0.17261	0.083209	0.33901	0.15475	0.11904	0.26285	-2.2604	-2.0646	-2.4062	-3.0229	-1.9292	-2.7458	-2.5708	-2.275	-2.8187	-2.1958	-2.3667	-2.8063	-2.0771	-2.8021	-2.4729	-2.1542	326.699	386.227	388.847	172.662	310.678	306.300	429.982	347.606	180.622	387.940	389.431	283.771	410.195	299.378	155.519	444.124	0.0016317	0.00095436	0.00031194	1503.5	7.7655e-06	2.7636e-06	1460.2	388.01	3.2157e-06	2.8909e-06	442.49	147.52	128.31	43.914	3.7189e-06	54.197	0.00073059	0.0007258	0.00020225	1548.2	7.9468e-06	7.9864e-06	1503.2	403.73	7.9547e-06	7.9685e-06	468.12	155.18	134.24	46.428	7.9931e-06	57.479	335.596	225.077	185.608	100.567	125.765	281.606	100.730	105.659	185.843	120.247	105.284	109.673	109.927	114.727	175.721	113.607	-8191	255	
2129.380	1	1	0	0	0.25071	0.21419	0.29303	0.28909	0.082089	0.10675	0.27943	0.20359	0.1389	0.2761	0.17974	0.20687	0.20196	0.21212	0.13336	0.19175	-2.4208	-2.1208	-2.2146	-2.8563	-1.9813	-2.4896	-2.7292	-2	-2.8708	-2.1979	-2.2354	-2.9354	-1.9896	-2.5875	-2.8146	-2.0563	392.100	347.868	173.968	411.427	166.724	179.675	328.474	332.388	281.302	189.129	338.232	352.594	404.092	420.480	318.179	446.052	0.002023	0.00098127	5.3613e-05	1498.3	9.8581e-06	1.1948e-06	1456.7	388.46	1.5356e-05	2.836e-06	442.38	148.09	128.35	43.893	1.1539e-05	53.85	0.00073387	0.00072478	0.00020276	1546.2	7.968e-06	7.9697e-06	1502.8	403.57	7.9126e-06	7.9761e-06	468.17	155.29	134.23	46.378	7.9863e-06	57.295	316.594	181.712	214.840	100.964	245.868	369.455	100.835	105.692	178.948	260.688	105.359	109.670	109.948	114.502	171.144	113.786	-8191	255	
2129.476	1	1	0	0	0.18733	0.19719	0.11195	0.30253	0.27543	0.13376	0.24238	0.20518	0.12095	0.2216	0.14301	0.2214	0.23661	0.079399	0.17772	0.27185	-2.25	-2.1771	-2.2375	-3.0229	-1.9937	-2.4104	-2.7938	-2.0708	-2.6458	-2.2979	-2.1583	-2.9292	-2.0375	-2.4062	-2.8063	-2.0958	181.300	159.165	184.616	423.264	228.009	138.262	432.448	400.016	275.153	131.664	106.975	114.199	394.103	154.405	310.721	89.331	0.0015845	0.00032159	0.00014148	1499.2	8.4855e-06	3.9692e-06	1456.9	388.08	7.8697e-06	7.2756e-06	444.37	148.39	128.67	43.946	9.2985e-06	53.935	0.00072998	0.00072849	0.0002038	1546.1	7.9412e-06	7.9573e-06	1501.4	403.24	7.9297e-06	7.9168e-06	468.24	155.34	134.4	46.38	7.9871e-06	57.379	334.902	312.000	219.482	100.942	236.396	277.071	101.071	106.110	208.319	187.041	105.635	109.785	110.296	114.591	203.207	113.758	-8191	255	
2129.595	1	1	0	0	0.19394	0.1609	0.32497	0.25833	0.070478	0.22482	0.11516	0.19842	0.16768	0.050959	0.21536	0.15864	0.22148	0.042157	0.14981	0.075633	-2.3042	-2.4375	-1.9729	-2.9813	-2.0542	-2.2667	-2.8104	-2.2062	-2.6667	-2.4833	-2.0896	-2.6625	-2.2625	-2.4062	-2.7625	-2.0708	293.641	95.218	402.756	433.637	282.448	207.582	91.275	329.332	304.347	111.747	142.025	303.671	407.013	144.695	430.519	332.790	0.001848	0.00069885	0.00035041	1501.2	3.2645e-06	6.3275e-06	1450.8	388.15	7.1953e-06	6.8711e-06	442.59	147.24	128.01	44.04	4.7089e-06	53.828	0.0007335	0.0007279	0.00020281	1546.8	7.9819e-06	7.9827e-06	1502.1	403.58	7.989e-06	7.9583e-06	467.39	155.26	134.18	46.414	7.985e-06	57.297	317.316	193.193	132.965	100.716	387.937	202.806	100.731	105.709	185.754	288.199	105.241	110.131	110.252	114.908	191.445	113.759	-8191	255	
2129.691	1	1	0	0	0.03035	0.16441	0.15434	0.42438	0.095952	0.27419	0.36707	0.1128	0.12584	0.31585	0.064853	0.28694	0.015373	0.34334	0.21944	0.19198	-2.0854	-2.5771	-1.9021	-2.8229	-2.2208	-2.0771	-3.0854	-1.9729	-2.3229	-2.6208	-1.7896	-2.8708	-2.5229	-2.1854	-2.7542	-2.0792	441.745	424.170	426.099	428.112	270.145	274.571	376.420	101.310	339.440	429.102	237.393	91.218	442.390	313.025	390.711	112.190	0.0015023	0.00081054	0.00010497	1501	6.5326e-06	4.3499e-06	1459.1	388.3	8.4765e-06	4.9711e-06	443	147.83	128.33	43.704	2.0959e-05	54.091	0.00073442	0.00072976	0.00020388	1547	7.9569e-06	8.0079e-06	1503.1	403.33	7.9831e-06	8.0129e-06	467.21	155.23	134.15	46.303	8.0081e-06	57.422	310.999	191.530	88.319	101.216	217.299	408.869	101.240	105.985	236.060	150.310	105.474	110.078	110.278	114.815	280.017	113.378	-8191	255	
2129.764	1	1	0	0	0.23598	0.13702	0.081411	0.25529	0.31155	0.1439	0.1596	0.19145	0.17999	0.0068887	0.2395	0.30591	0.14324	0.2116	0.033891	0.13595	-1.9604	-2.8083	-1.8708	-3.0729	-2.2792	-2.1833	-2.8854	-2.3583	-2.4542	-2.7313	-2.1021	-2.8146	-2.7083	-2.0771	-2.6854	-2.1417	162.882	231.619	200.756	375.747	191.167	150.246	333.695	423.239	409.640	152.018	342.138	109.244	404.743	443.976	319.263	197.518	0.001191	0.00031519	0.00017521	1496.1	3.7818e-06	4.3655e-06	1459.5	388.92	4.4705e-06	2.6912e-06	440.84	148.55	128.11	43.891	1.321e-06	54.149	0.00073919	0.00073425	0.00020487	1546	8.0329e-06	8.0748e-06	1503.5	404.38	8.0818e-06	8.073e-06	467.8	155.56	134.12	46.373	8.0599e-06	57.424	339.841	360.966	173.796	100.639	275.231	282.591	101.033	105.958	235.123	108.926	105.865	109.974	110.197	114.676	447.910	113.827	-8191	255	
2129.883	1	1	0	0	0.12502	0.13572	0.32694	0.28023	0.11226	0.19351	0.3962	0.24427	0.12533	0.13221	0.17955	0.21705	0.15223	0.34132	0.11509	0.13889	-1.8146	-2.9542	-1.8417	-2.7167	-2.6292	-1.8604	-2.9896	-2.4583	-2.0854	-2.6667	-2.1396	-2.75	-2.6063	-2.1625	-2.9521	-2.4313	382.291	170.065	378.210	104.537	144.518	159.764	396.583	337.627	119.985	354.505	398.744	356.810	402.476	419.292	90.753	140.449	0.0019687	0.00048391	0.00046765	1499.9	6.669e-06	7.938e-06	1454.6	388.63	9.0996e-06	7.2672e-06	443.64	148.04	128.24	43.874	1.3099e-05	54.011	0.0007431	0.00073673	0.00020516	1548	8.0689e-06	8.0394e-06	1503.6	403.53	8.0666e-06	8.0849e-06	467.83	155.28	134.26	46.421	8.1109e-06	57.405	336.918	161.182	243.334	101.201	113.860	146.302	101.082	105.739	190.161	270.567	105.483	109.826	110.115	114.705	193.039	113.527	-8191	255	
2129.979	1	1	0	0	0.1646	0.1108	0.19231	0.20752	0.11649	0.069713	0.070175	0.27554	0.096969	0.13827	0.12274	0.10204	0.062078	0.17832	0.070295	0.21521	-1.7583	-2.7667	-1.9771	-2.5125	-2.4562	-1.8875	-2.9125	-2.3271	-2.0354	-2.8	-2.175	-2.5979	-2.6479	-2.0479	-2.6	-2.475	268.734	339.304	256.555	172.389	167.838	349.217	181.340	412.564	412.892	213.322	403.357	427.151	308.368	412.586	275.370	294.017	0.0013975	0.00068652	9.4375e-05	1494.6	1.7238e-05	4.4004e-06	1457.5	386.24	3.0808e-06	5.6827e-06	442.95	148.09	127.8	43.651	5.991e-06	53.95	0.00073659	0.00073723	0.000205	1548.1	8.0682e-06	8.0773e-06	1504.1	403.83	8.0369e-06	8.0233e-06	468	155.16	134.09	46.331	8.0417e-06	57.448	343.123	160.474	197.093	100.833	240.724	256.838	100.635	105.532	421.583	250.536	105.024	109.514	110.133	114.460	319.376	113.257	-8191	255	
2130.076	1	1	0	0	0.19188	0.073349	0.13797	0.17949	0.023747	0.32445	0.083701	0.29796	0.14762	0.13861	0.15988	0.35064	0.30617	0.082099	0.0621	0.038823	-1.4729	-2.7667	-2.0479	-2.6021	-2.6437	-1.7417	-2.675	-2.4771	-1.9667	-2.7917	-2.2938	-2.3354	-2.8292	-1.8563	-2.3917	-2.8625	258.509	275.717	363.958	446.556	409.825	417.846	297.713	362.387	351.421	250.639	384.470	281.211	425.496	121.324	170.372	346.267	0.0016205	0.00035112	0.00014174	1498.5	4.8452e-06	3.2755e-06	1456.7	388.65	3.4269e-06	7.2419e-06	442.97	148.62	128.28	43.77	6.0301e-06	53.983	0.00074178	0.00073764	0.00020545	1547.9	8.0617e-06	8.065e-06	1503	404.36	8.1009e-06	8.089e-06	468.99	155.32	134.22	46.345	8.1333e-06	57.487	345.847	421.678	156.779	100.623	208.567	239.029	100.861	105.422	208.701	273.326	104.977	109.608	110.098	114.354	248.495	113.312	-8191	255	
2130.196	1	1	0	0	0.04681	0.19802	0.24789	0.24019	0.20972	0.19987	0.21354	0.31683	0.15223	0.14303	0.24616	0.29254	0.12725	0.17113	0.13956	0.066929	-1.6104	-2.7917	-1.9604	-2.2812	-2.6292	-1.9292	-2.6688	-2.7	-1.8813	-2.7792	-2.4104	-2.2188	-2.6125	-1.9833	-2.4437	-2.7	373.390	91.190	425.643	446.290	151.731	285.337	348.649	376.113	263.654	332.086	403.639	344.737	368.035	111.725	123.701	339.706	0.0016616	0.00050297	0.00034934	1497.5	1.0525e-05	3.6009e-06	1453.9	388.02	1.4577e-06	8.2296e-06	441.32	148.1	127.47	43.729	2.8101e-06	53.966	0.00074614	0.00074341	0.00020699	1549.1	8.1401e-06	8.1725e-06	1502.7	404.13	8.1309e-06	8.1245e-06	468.31	155.22	134.59	46.413	8.142e-06	57.474	342.384	184.817	163.845	100.869	225.268	365.378	100.625	105.145	183.188	235.382	105.047	109.474	110.068	114.305	145.197	113.369	-8191	255	
2130.292	1	1	0	0	0.19856	0.024609	0.078165	0.20401	0.21945	0.049653	0.011848	0.1674	0.13726	0.050467	0.034054	0.21521	0.36653	0.12222	0.22941	0.13566	-1.3854	-2.7375	-2.2208	-2.25	-2.7917	-2.0083	-2.8563	-2.6979	-1.8229	-2.6437	-2.3833	-1.9792	-2.7729	-2.1375	-2.3458	-2.6917	299.028	276.819	317.325	342.894	228.887	371.447	400.308	431.831	210.160	151.524	424.779	195.899	428.821	304.780	396.993	373.592	0.0020428	0.00074486	0.00021301	1499.8	1.9759e-06	2.2211e-06	1458.7	388.93	8.5562e-06	6.4569e-06	442.22	147.04	128.8	43.748	9.1568e-06	54.047	0.00074529	0.00074426	0.00020764	1551.1	8.1057e-06	8.1017e-06	1503.8	403.97	8.1201e-06	8.1122e-06	469.28	155.06	134.61	46.357	8.064e-06	57.504	334.966	125.517	137.986	100.641	211.055	190.456	100.819	105.291	234.032	259.696	105.155	109.416	110.059	114.188	189.984	113.601	-8191	255	
2130.364	1	1	0	0	0.25655	0.46686	0.12179	0.2598	0.11485	0.058126	0.23621	0.23221	0.078948	0.12936	0.24737	0.024585	0.041128	0.25069	0.14474	0.13637	-1.6125	-2.5646	-2.3646	-2.1	-2.7583	-2.3458	-2.5021	-2.7083	-1.8896	-2.4479	-2.7625	-2.175	-2.8292	-2.3167	-2.1417	-2.8187	400.031	270.709	177.382	431.099	241.268	298.508	428.241	424.096	199.002	257.996	408.132	244.011	251.376	372.180	373.091	340.239	0.0015495	0.00027045	0.00012984	1507	9.3352e-06	5.8989e-06	1455.7	387.84	3.3674e-06	5.8815e-06	443.29	147.78	128.3	43.545	1.2481e-05	54.066	0.0007364	0.00072996	0.00020393	1550.2	8.0077e-06	8.0347e-06	1502.8	403.38	8.0463e-06	8.0843e-06	467.72	155.4	134.48	46.308	8.1165e-06	57.504	327.067	109.157	254.821	100.759	220.215	328.843	100.813	105.570	351.185	262.950	105.156	109.653	109.849	114.180	218.239	113.456	-8191	255	
2130.485	1	1	0	0	0.04485	0.11884	0.059097	0.11727	0.15443	0.22399	0.21851	0.24065	0.078128	0.042428	0.13479	0.1306	0.20591	0.1305	0.078705	0.13524	-1.7229	-2.4729	-2.4021	-1.9583	-2.675	-2.2708	-2.3896	-3.0479	-1.8979	-2.6083	-2.6833	-2.1458	-2.7875	-2.4375	-2.0979	-2.8563	319.807	331.838	331.495	446.961	423.562	115.894	359.767	438.940	398.563	418.724	403.710	115.935	88.202	323.121	200.525	362.700	0.0015435	6.5954e-05	8.1903e-05	1498.1	4.3823e-06	6.1932e-06	1455.3	388.72	3.6938e-06	5.4936e-06	444.83	147.67	128.19	43.789	6.6424e-06	53.998	0.00073957	0.00073558	0.00020507	1545.7	7.9828e-06	8.0359e-06	1502.6	404.01	8.024e-06	8.0309e-06	468.18	155.13	134.36	46.375	8.0529e-06	57.429	342.592	332.804	255.382	100.710	336.181	94.115	100.857	105.285	334.733	271.195	105.263	110.069	109.927	114.200	283.470	113.425	-8191	255	
2130.579	1	1	0	0	0.15202	0.13962	0.08662	0.32757	0.25495	0.13295	0.20856	0.11909	0.21271	0.10611	0.16584	0.13302	0.48063	0.058476	0.29025	0.049676	-1.5646	-2.3729	-2.7083	-2.0396	-2.6979	-2.5021	-2.1333	-2.7479	-2.1729	-2.425	-2.7271	-2.1354	-2.9333	-2.6271	-2.0687	-2.9604	205.642	121.030	405.222	360.198	129.401	115.346	384.021	235.249	364.284	182.305	315.474	403.199	423.517	267.136	97.884	442.794	0.0016898	0.00081416	6.4954e-05	1501.2	5.0261e-06	4.4952e-06	1455.7	388.35	5.8845e-06	9.2248e-06	442.93	147.65	128.19	43.796	7.9639e-06	54.075	0.00074045	0.00073479	0.00020501	1547.3	8.0616e-06	8.0905e-06	1504.5	404.38	8.0224e-06	8.0778e-06	469.45	155.27	134.62	46.365	8.0912e-06	57.503	323.472	197.055	206.774	100.401	259.807	98.974	100.562	105.469	183.208	286.069	105.099	109.694	109.801	114.092	248.130	113.517	-8191	255	
2130.675	1	1	0	0	0.1294	0.23392	0.26022	0.047963	0.094552	0.046915	0.14767	0.12093	0.14815	0.20995	0.26135	0.17057	0.034725	0.36323	0.044329	0.14104	-1.7583	-2.2229	-2.8396	-2.1688	-2.6479	-2.4771	-2.0771	-2.9	-2.2375	-2.375	-2.6729	-2.1396	-2.5917	-2.55	-1.8729	-2.8688	203.692	144.324	363.357	276.536	265.290	151.874	351.189	107.401	244.323	415.558	149.679	333.108	383.298	357.845	359.024	381.957	0.0019685	0.00026461	0.00042872	1500.8	8.1531e-06	5.2027e-06	1453.3	387.04	5.8064e-06	1.114e-06	440.14	147.05	128.01	43.808	8.6581e-06	53.941	0.00074242	0.00074045	0.00020619	1546.8	8.1009e-06	8.1274e-06	1504.5	404.38	8.1075e-06	8.0842e-06	467.76	155.23	134.46	46.426	8.1011e-06	57.483	343.377	174.410	193.168	100.397	184.756	379.982	100.723	105.451	213.560	185.664	105.009	109.389	110.026	114.081	167.268	113.567	-8191	255	
2130.771	1	1	0	0	0.1189	0.22966	0.11941	0.24911	0.12728	0.17011	0.23001	0.25546	0.21867	0.089329	0.18957	0.13267	0.35078	0.1259	0.13249	0.024322	-1.8771	-2.1854	-2.8729	-2.2458	-2.4521	-2.6229	-2.0667	-2.8042	-2.4146	-2.0458	-2.8083	-2.3021	-2.4521	-2.6521	-1.9708	-2.7896	192.641	274.983	312.774	351.969	213.102	307.311	304.001	349.468	378.731	128.894	160.426	346.107	400.079	326.034	87.780	374.280	0.0015985	0.00085293	9.739e-05	1500.5	3.2529e-06	1.2747e-06	1457.4	389.15	4.8816e-06	2.4437e-06	441.93	147.91	127.92	43.877	4.6786e-06	54.144	0.00074514	0.00073928	0.000207	1549.8	8.0929e-06	8.0994e-06	1504.8	404.71	8.113e-06	8.1035e-06	469.17	155.53	134.45	46.565	8.1445e-06	57.481	322.972	240.554	366.003	100.879	153.293	132.992	100.742	105.474	276.141	228.730	105.422	109.812	110.186	114.360	245.694	113.773	-8191	255	
2130.892	1	1	0	0	0.17791	0.22321	0.26003	0.15534	0.15333	0.36371	0.24555	0.087945	0.064123	0.129	0.33568	0.062257	0.2371	0.26668	0.032599	0.27742	-1.9021	-2.0812	-2.7792	-2.2104	-2.4042	-2.7354	-2.025	-2.7417	-2.3125	-1.8729	-2.8729	-2.2208	-2.4583	-2.9479	-2.0292	-2.7083	147.931	310.719	90.568	374.487	287.672	131.807	403.074	348.403	212.964	406.330	428.537	435.221	350.420	431.833	262.770	424.077	0.0017333	0.00035104	0.00017651	1490.7	1.2959e-05	5.3151e-06	1458.2	387.01	6.5269e-06	1.6298e-06	443.09	148.62	128.96	43.587	6.8061e-06	54.135	0.00074572	0.0007409	0.00020699	1546.1	8.1675e-06	8.1311e-06	1505.4	404.01	8.1521e-06	8.1342e-06	469.94	155.42	134.82	46.394	8.1353e-06	57.464	326.199	437.707	189.964	100.591	147.268	232.014	100.983	105.754	259.198	342.865	105.489	109.621	110.011	114.427	217.449	113.512	-8191	255	
2130.964	1	1	0	0	0.16056	0.12956	0.12646	0.22022	0.10024	0.14685	0.2247	0.2623	0.30464	0.31084	0.15542	0.047522	0.20914	0.08771	0.36255	0.11166	-2.0396	-1.8312	-2.5938	-2.3438	-2.3208	-2.7438	-2.0354	-2.7542	-2.3563	-1.9771	-2.9125	-2.3667	-2.1792	-2.7062	-1.9229	-2.425	372.008	406.441	383.587	370.543	417.393	172.837	336.022	424.581	331.195	207.841	398.212	295.961	352.054	411.796	302.491	347.362	0.0016499	0.00050122	0.00018225	1496.3	6.87e-06	1.1186e-05	1457.2	389.54	4.156e-06	1.1968e-05	443.51	147.78	127.83	43.683	1.136e-05	54.083	0.00074706	0.00074542	0.00020678	1548.7	8.1335e-06	8.1404e-06	1504.8	404.69	8.1837e-06	8.2117e-06	470.02	155.39	134.26	46.393	8.2178e-06	57.573	332.566	131.477	148.650	100.835	232.674	217.283	100.766	105.729	178.705	191.882	104.863	109.876	110.372	114.474	146.107	113.426	-8191	255	
2131.060	1	1	0	0	0.16573	0.31617	0.11237	0.14167	0.17532	0.19464	0.27804	0.22934	0.039824	0.24071	0.18191	0.11605	0.091218	0.11528	0.27347	0.50053	-2.3042	-2.0958	-2.625	-2.3771	-1.9875	-2.5979	-2.2292	-2.4229	-2.5458	-1.9667	-2.7625	-2.3917	-1.9583	-2.8458	-2.0479	-2.2625	92.666	301.822	438.391	96.680	234.379	91.675	368.571	389.924	358.627	134.743	387.337	363.956	145.180	354.602	382.471	410.324	0.0012488	0.00047971	0.00017574	1503.3	7.5901e-06	4.9933e-06	1456.5	388.25	6.8801e-06	4.4537e-06	442.33	147.23	127.26	43.689	5.1898e-06	53.924	0.00075191	0.00074963	0.00020871	1551	8.1937e-06	8.1791e-06	1504.4	404.31	8.1914e-06	8.1892e-06	469.89	155.31	134.55	46.443	8.2302e-06	57.441	345.698	218.271	117.820	100.928	117.750	239.566	100.900	105.752	259.370	229.134	105.060	109.348	109.726	114.313	306.914	112.916	-8191	255	
2131.156	1	1	0	0	0.2071	0.16709	0.094325	0.1263	0.10854	0.16258	0.071073	0.094795	0.18998	0.14841	0.22161	0.30701	0.068418	0.31526	0.10912	0.27703	-2.3458	-1.8333	-2.5979	-2.5729	-1.7021	-2.6937	-2.3042	-2.4792	-2.7771	-2.0708	-2.6271	-2.5229	-2.1042	-2.875	-2.0667	-2.1667	419.151	401.906	263.462	353.245	396.267	193.832	391.393	192.745	193.759	203.075	377.506	351.180	334.655	394.132	117.728	403.071	0.0012261	0.00019882	0.00018831	1500.4	4.8271e-06	4.5235e-06	1456.6	386.98	7.2037e-06	7.1148e-06	440.54	147.57	127.84	43.582	3.6161e-06	53.852	0.00075822	0.00074787	0.00020997	1551.2	8.231e-06	8.299e-06	1504.2	405.07	8.2612e-06	8.2695e-06	470.68	155.47	134.79	46.497	8.2939e-06	57.664	325.103	254.069	151.022	100.459	184.182	114.753	100.531	105.368	168.022	214.130	105.174	109.492	109.823	114.466	152.542	113.344	-8191	255	
2131.277	1	1	0	0	0.10535	0.12587	0.24062	0.14101	0.084812	0.13059	0.14236	0.13918	0.16661	0.43383	0.21215	0.13011	0.21949	0.16172	0.20535	0.10167	-2.2646	-1.9771	-2.3438	-2.4042	-1.8771	-2.7083	-2.4208	-1.9375	-2.5083	-1.8104	-2.3792	-2.5979	-1.925	-2.6479	-2.3375	-2.1375	325.003	378.873	406.357	280.935	275.432	340.309	363.564	352.465	230.324	261.026	406.379	105.650	163.813	98.986	293.087	309.482	0.0018336	0.0007462	0.00015337	1500.6	8.0372e-06	4.9197e-06	1458.4	387.42	9.7175e-06	3.4675e-06	444.89	146.91	127.68	43.608	2.0002e-05	54.114	0.00076139	0.0007593	0.00021077	1553.8	8.2853e-06	8.2919e-06	1508.7	404.85	8.2912e-06	8.3321e-06	471.25	155.85	134.95	46.585	8.3724e-06	57.68	340.998	432.698	171.035	100.619	264.543	253.336	100.493	105.348	157.200	311.260	105.085	109.466	110.021	114.594	274.943	113.612	-8191	255	
2131.373	1	1	0	0	0.26469	0.17612	0.11929	0.12003	0.1793	0.16206	0.15512	0.34704	0.31185	0.078455	0.14354	0.11555	0.26592	0.25283	0.078588	0.12814	-2.4208	-1.9917	-2.1813	-2.8229	-1.8396	-2.7771	-2.4729	-2.3896	-2.7542	-2.1125	-2.6125	-2.8375	-1.9979	-2.5792	-2.5083	-2.0396	276.569	237.336	367.846	429.502	128.657	285.103	103.039	430.579	107.901	109.837	437.114	171.798	383.184	416.519	106.757	421.339	0.0012695	0.00028569	0.00018588	1501.9	9.572e-06	2.5992e-06	1461.3	389.29	8.6879e-06	6.1041e-06	441.57	146.99	127.75	43.853	1.1064e-05	53.801	0.00076796	0.00076487	0.00021387	1555.5	8.3786e-06	8.4716e-06	1510.9	405.74	8.519e-06	8.5368e-06	472.56	156.16	135	46.716	8.5951e-06	57.766	319.751	148.665	401.134	100.523	239.682	224.294	100.729	105.347	204.467	241.608	105.162	109.451	110.234	114.359	215.241	113.732	-8191	255	
2131.467	1	1	0	0	0.12879	0.085072	0.17098	0.44448	0.10724	0.10697	0.12663	0.38337	0.23601	0.15092	0.27998	0.25283	0.2162	0.24249	0.21347	0.067498	-2.2208	-2.2125	-2.1125	-2.9167	-1.9146	-2.8063	-2.7104	-2.1792	-2.725	-2.0792	-2.2125	-2.7958	-2.0083	-2.5625	-2.35	-1.95	339.499	273.641	182.908	375.218	398.776	186.201	360.781	406.894	277.649	398.995	119.887	366.768	92.507	407.468	322.075	349.686	0.0016193	0.00012232	3.8814e-05	1503	4.5081e-06	3.2998e-06	1464.9	387.61	5.0168e-06	4.4511e-06	444.16	148.47	127.69	43.539	2.0311e-05	53.721	0.00078998	0.0007879	0.00021945	1562.8	8.6214e-06	8.6602e-06	1516.4	406.61	8.6824e-06	8.7202e-06	474.33	156.77	135.37	46.857	8.7351e-06	57.96	337.339	405.826	291.425	100.708	241.566	121.361	100.978	105.663	146.536	292.006	105.695	109.967	110.003	114.635	185.116	113.684	-8191	255	
2131.565	1	1	0	0	0.25443	0.27528	0.23007	0.218	0.27527	0.17394	0.16921	0.27547	0.025689	0.13761	0.11318	0.073616	0.30407	0.085159	0.22992	0.30674	-2.4625	-2.1937	-2.1396	-2.8542	-2.175	-2.4917	-2.775	-2.0896	-2.6312	-2.2542	-2.1667	-2.95	-2.0417	-2.4417	-2.5708	-2.1208	361.404	278.771	278.695	88.752	347.339	346.172	373.509	369.091	215.536	373.189	272.391	107.183	393.252	391.567	139.353	324.898	0.0012736	0.00056908	0.00014364	1511.1	4.9838e-06	3.9487e-06	1465.1	387.53	5.3652e-06	1.0213e-06	441.44	148.2	128.46	43.745	1.3779e-05	53.976	0.00080212	0.00079846	0.00022351	1569.5	8.7828e-06	8.8276e-06	1519.4	407.39	8.9049e-06	8.8804e-06	476.85	157.15	136.38	47.034	9.0148e-06	58.211	345.690	332.271	187.707	100.934	217.256	200.859	101.001	105.758	237.486	212.006	105.462	109.803	110.363	114.885	286.766	113.820	-8191	255	
2131.659	1	1	0	0	0.23633	0.23457	0.21852	0.46052	0.18799	0.10351	0.21403	0.36947	0.12378	0.14192	0.05731	0.21544	0.33783	0.09653	0.1787	0.43583	-2.3208	-2.2708	-1.9062	-2.8229	-2.1229	-2.3104	-3.0687	-2.0875	-2.8083	-2.4396	-2.0292	-2.8521	-2.1875	-2.3542	-2.8042	-2.0438	97.742	192.048	323.236	417.025	141.084	219.101	303.214	426.320	294.647	339.083	281.450	362.293	364.082	141.613	270.298	385.101	0.0015409	0.00066548	0.00017261	1513.8	2.9094e-06	5.2855e-06	1470.2	388.97	1.0116e-05	1.0003e-06	442.2	147.71	128.34	43.932	4.5108e-06	54.341	0.00082813	0.000827	0.00023135	1577.5	9.1532e-06	9.1169e-06	1530	410.38	9.2397e-06	9.2062e-06	479.04	158.17	137.1	47.348	9.3211e-06	58.618	336.355	196.337	121.714	101.064	311.493	144.686	101.123	105.999	312.140	229.350	105.731	110.133	110.139	114.761	191.476	114.340	-8191	255	
2131.756	1	1	0	0	0.24718	0.073673	0.16244	0.20061	0.16057	0.16984	0.35101	0.22577	0.10815	0.074318	0.22554	0.17669	0.22541	0.034991	0.14103	0.15467	-2.1958	-2.5875	-2	-2.7667	-2.05	-2.2229	-2.8792	-2.2125	-2.4708	-2.5354	-1.9917	-2.6854	-2.3438	-2.1917	-2.7271	-1.9875	274.247	234.278	433.803	389.216	203.657	267.996	393.971	386.784	378.716	288.171	140.721	105.918	353.622	228.855	326.980	415.390	0.0019743	0.00069795	0.00030266	1521.8	1.0102e-05	9.7786e-06	1478.5	389.58	8.7509e-06	4.9991e-06	446.25	148.31	128.51	43.792	5.0943e-06	54.143	0.00086103	0.00085756	0.00024016	1591.4	9.4216e-06	9.4887e-06	1541.2	412.02	9.4968e-06	9.5217e-06	483.91	159.71	137.94	47.504	9.6116e-06	58.862	347.645	436.863	220.045	101.266	199.128	166.921	101.260	106.085	167.092	352.564	105.608	110.454	110.464	114.605	243.028	114.035	-8191	255	
2131.876	1	1	0	0	0.40237	0.1079	0.14907	0.19244	0.14807	0.22727	0.2604	0.21533	0.18523	0.17241	0.23936	0.21348	0.23407	0.23567	0.28185	0.18304	-2.1312	-2.6437	-1.7396	-2.9771	-2.3417	-2.0333	-2.9292	-2.325	-2.2896	-2.5646	-1.9312	-2.6667	-2.4833	-2.2958	-2.7708	-2.1937	373.402	413.774	112.595	404.176	254.698	359.584	311.687	430.146	179.949	215.048	371.343	117.963	123.836	108.285	220.449	370.390	0.0016354	0.0002096	0.00017079	1526.7	2.8641e-06	6.6336e-06	1484.4	392.25	3.0477e-06	3.5245e-06	444.11	148.2	128.67	44.198	7.957e-06	54.039	0.00087999	0.0008802	0.00024492	1598.4	9.6261e-06	9.6241e-06	1546.6	414.7	9.7115e-06	9.7253e-06	485.6	160.06	138.49	47.875	9.8554e-06	59.066	344.719	377.776	327.534	101.068	152.370	255.896	100.910	105.530	284.288	322.878	105.285	109.388	110.125	114.701	140.357	113.798	-8191	255	
2131.972	1	1	0	0	0.019708	0.11216	0.17823	0.30046	0.059335	0.15725	0.028442	0.24391	0.18763	0.10093	0.23789	0.14004	0.27191	0.31562	0.19686	0.17986	-1.9562	-2.7313	-1.9583	-2.7833	-2.4833	-2.1583	-2.8667	-2.45	-2.2083	-2.7479	-1.975	-2.7938	-2.5938	-2.1292	-2.6854	-2.4313	282.254	162.423	179.875	386.833	148.416	249.631	416.713	94.492	144.237	234.823	328.000	400.355	417.244	401.067	169.510	333.802	0.0015613	0.00045606	0.00026896	1539.1	1.1051e-05	5.6729e-06	1484.2	392.34	7.2927e-06	8.8167e-06	445.73	149.18	129.28	43.989	8.5613e-06	54.384	0.00089963	0.00090196	0.000252	1607.4	9.8858e-06	9.9359e-06	1554.5	415.94	9.9682e-06	9.9593e-06	488.88	161.06	139.24	47.962	1.0041e-05	59.286	355.420	249.601	143.980	101.261	245.191	396.302	101.178	105.612	223.077	355.863	105.420	109.989	110.544	114.922	231.540	114.202	-8191	255	
2132.069	1	1	0	0	0.074859	0.1095	0.066484	0.14767	0.32068	0.13477	0.2646	0.28254	0.14929	0.13348	0.11461	0.23233	0.50822	0.068523	0.22745	0.047438	-1.7458	-2.5042	-1.9438	-2.7562	-2.4688	-1.9062	-3.0042	-2.3542	-2.2771	-2.8063	-2.2229	-2.5125	-2.725	-1.9146	-2.8	-2.4562	90.816	185.362	259.842	326.192	126.920	297.374	385.662	384.747	152.436	319.758	343.360	430.956	92.716	122.510	333.548	263.357	0.0020421	0.0002293	0.00023513	1536.9	9.6774e-06	5.8455e-06	1494.7	393.3	5.1852e-06	5.4588e-06	451.68	148.27	129.32	44.011	4.6211e-06	54.259	0.0009126	0.00091239	0.0002545	1611.1	9.9846e-06	9.9774e-06	1562.8	417.15	9.9999e-06	9.9648e-06	490.16	160.68	139.29	47.956	9.9627e-06	59.333	337.921	205.249	246.250	101.346	248.661	255.192	100.952	105.633	207.604	243.009	105.805	109.924	109.931	114.148	276.168	113.460	-8191	255	
2132.165	1	1	0	0	0.1282	0.17149	0.10285	0.20433	0.29867	0.32941	0.11777	0.4093	0.20366	0.078454	0.14866	0.21161	0.092653	0.33344	0.16762	0.19745	-1.7313	-2.8063	-2.2042	-2.5062	-2.6792	-2.0104	-2.7604	-2.5583	-1.9521	-2.625	-2.15	-2.5458	-2.8083	-2.0708	-2.5875	-2.6146	89.794	220.919	174.019	359.432	437.320	137.784	101.248	87.493	322.343	374.905	87.768	363.011	400.017	410.711	317.328	310.323	0.001237	0.00041884	0.00012769	1532.9	1.0142e-05	7.0818e-06	1493.6	392.61	4.875e-06	1.4804e-05	445.83	148.78	130.17	44.257	1.136e-05	54.319	0.00090708	0.00090653	0.00025342	1612.1	9.9018e-06	9.8995e-06	1561.2	416.56	9.847e-06	9.87e-06	489.14	160.83	139.3	47.949	9.8326e-06	59.325	336.009	200.370	313.925	100.746	148.526	141.632	100.735	105.411	206.601	227.680	105.118	109.841	109.750	114.467	188.000	113.647	-8191	255	
2132.261	1	1	0	0	0.13963	0.26665	0.18196	0.30143	0.23386	0.37453	0.061242	0.11984	0.034472	0.16156	0.060524	0.19183	0.19912	0.15045	0.19098	0.17697	-1.4958	-2.6958	-2.175	-2.3271	-2.7188	-1.9583	-2.7479	-2.7583	-1.9813	-2.6813	-2.225	-2.2771	-2.9875	-2.0042	-2.4521	-2.5938	329.927	261.194	187.641	401.818	174.110	360.369	337.241	356.274	135.089	253.055	443.501	92.571	302.021	100.774	162.946	353.543	0.0018068	0.00036322	0.00029776	1541.1	6.398e-06	6.1018e-06	1493.3	394.6	5.5259e-06	3.0319e-06	450.64	149.54	130.12	44.401	5.1513e-06	54.459	0.00089769	0.00089192	0.00024841	1612.4	9.6938e-06	9.7623e-06	1559.6	416.79	9.7349e-06	9.7414e-06	488.28	160.87	139.24	48.02	9.7973e-06	59.377	352.807	102.755	259.009	100.772	330.634	270.214	100.793	105.428	233.558	263.777	104.765	109.898	109.720	114.427	261.432	113.412	-8191	255	
2132.357	1	1	0	0	0.098488	0.20781	0.16121	0.12028	0.18071	0.053179	0.20636	0.2826	0.18089	0.17733	0.18928	0.10551	0.19413	0.072898	0.19712	0.070943	-1.525	-2.7208	-2.2958	-2.4	-2.8396	-1.875	-2.5979	-2.7646	-2.0646	-2.7479	-2.3542	-2.2396	-2.8187	-2.0563	-2.3792	-2.6875	304.237	222.452	168.150	380.943	380.322	190.465	361.192	372.829	353.898	176.072	425.656	263.178	252.768	261.408	417.462	348.346	0.0022313	0.0006658	3.613e-05	1546.5	7.8097e-06	2.1715e-06	1493.1	392.94	1.0458e-05	5.4508e-06	446.47	148.51	129.43	44.126	6.9122e-06	54.413	0.0008925	0.000893	0.00024754	1614.2	9.7188e-06	9.7437e-06	1557.8	416.61	9.7868e-06	9.7823e-06	487.15	160.44	138.92	47.887	9.7292e-06	59.25	340.709	167.846	126.780	100.773	221.123	387.349	100.960	105.487	289.085	239.978	105.196	109.693	109.817	114.443	201.249	113.824	-8191	255	
2132.453	1	1	0	0	0.099092	0.052945	0.10135	0.18899	0.16367	0.048725	0.19974	0.20518	0.1717	0.14503	0.14355	0.086724	0.16531	0.16813	0.098327	0.20564	-1.4104	-2.6813	-2.3479	-2.1479	-2.7792	-2.0271	-2.4771	-2.7979	-1.9375	-2.6729	-2.4542	-2.0812	-2.8833	-2.2292	-2.2	-2.7542	109.985	213.176	340.402	436.252	332.755	120.009	417.506	416.963	186.995	402.422	381.471	222.795	112.753	88.088	348.089	137.991	0.0013744	0.0010687	0.00013569	1541.9	3.9149e-06	8.0651e-06	1494.6	391.66	5.5665e-06	8.312e-06	449.76	149.4	129.46	44.273	1.9208e-06	54.342	0.0008896	0.00088544	0.00024782	1612.4	9.7686e-06	9.7985e-06	1558.4	415.89	9.7594e-06	9.7536e-06	487.81	160.98	138.86	47.95	9.7286e-06	59.176	339.574	153.710	125.743	101.114	153.032	146.498	101.031	105.642	237.152	117.280	105.372	109.968	109.916	114.438	270.320	113.605	-8191	255	
2132.572	1	1	0	0	0.043263	0.26882	0.20417	0.27006	0.19902	0.29372	0.08941	0.11042	0.20984	0.18357	0.10492	0.085913	0.20837	0.18949	0.13809	0.18401	-1.6375	-2.4771	-2.5	-2.0771	-2.6875	-2.3833	-2.1625	-2.7562	-2.0125	-2.3792	-2.6312	-1.9813	-2.9271	-2.3646	-2.2771	-2.95	182.375	111.631	393.153	123.531	312.399	375.841	426.726	446.912	440.666	290.558	301.919	136.881	356.609	334.906	99.574	174.846	0.0018682	0.00060922	0.00036721	1534.1	1.6754e-06	8.1835e-06	1495.2	392.41	3.7282e-06	9.5943e-06	449.24	149.27	129.77	44.167	3.3236e-06	54.132	0.00088935	0.00089787	0.00024878	1609.9	9.7499e-06	9.7895e-06	1558.5	416.08	9.7604e-06	9.7482e-06	487.81	160.59	138.87	47.856	9.7508e-06	59.263	335.283	94.047	89.226	100.873	117.739	218.007	101.216	105.718	154.512	150.039	105.052	109.806	110.275	114.546	191.899	113.726	-8191	255	
2132.668	1	1	0	0	0.03649	0.018725	0.23594	0.10165	0.28433	0.26545	0.25343	0.35647	0.16299	0.15664	0.12559	0.24986	0.1182	0.083487	0.13688	0.28176	-1.7875	-2.4562	-2.6667	-2.1521	-2.6542	-2.25	-2.3208	-2.9	-2.0271	-2.5062	-2.6125	-2.0604	-2.7687	-2.5542	-1.9604	-2.9896	206.002	231.426	288.633	107.134	436.556	168.054	390.814	368.668	96.486	98.131	390.042	104.686	429.912	407.050	399.417	390.424	0.0014232	0.0002625	0.00036435	1535.9	5.9155e-06	4.9742e-06	1488.1	391.62	5.8998e-06	3.3942e-06	447.71	148.54	129.57	43.985	5.9198e-06	54.369	0.00088709	0.00089027	0.00024761	1607.3	9.6213e-06	9.7121e-06	1555.4	415.71	9.668e-06	9.7033e-06	487.41	160.25	138.97	47.804	9.7556e-06	59.234	334.943	187.687	175.265	100.724	167.348	341.187	100.919	105.531	255.420	124.502	105.317	109.747	110.057	114.192	168.102	113.197	-8191	255	
2132.764	1	1	0	0	0.062867	0.31042	0.11784	0.11295	0.078818	0.35865	0.18372	0.26827	0.12223	0.071013	0.024681	0.34306	0.17873	0.10329	0.20147	0.20402	-1.5688	-2.3917	-2.6813	-2.1146	-2.55	-2.4437	-2.1271	-2.9771	-2.2021	-2.4667	-2.7729	-1.9729	-2.8146	-2.6875	-2.0083	-2.6625	271.671	341.602	341.732	272.262	163.206	303.948	402.342	403.701	432.629	326.873	119.016	93.508	164.263	435.501	246.871	156.978	0.0015164	0.00088725	0.00019969	1533.7	4.2953e-06	1.0926e-05	1486.9	392.29	3.1533e-06	4.1972e-06	444.9	149.27	129.59	44.242	6.7135e-06	54.548	0.00089687	0.00089528	0.00024878	1609.9	9.7837e-06	9.8443e-06	1556.8	416.02	9.8248e-06	9.7952e-06	488.6	160.94	139.14	47.926	9.8772e-06	59.397	321.487	380.988	407.916	100.647	139.846	251.334	100.779	105.686	263.523	188.377	105.421	109.679	110.120	114.626	150.776	114.136	-8191	255	
2132.860	1	1	0	0	0.23875	0.11617	0.061278	0.44373	0.13089	0.15016	0.16372	0.28222	0.15034	0.27002	0.16133	0.25468	0.25885	0.34623	0.20899	0.13925	-1.6583	-2.1896	-2.8063	-2.2125	-2.5	-2.5042	-2.2104	-2.8604	-2.3125	-2.2208	-2.9729	-2.0833	-2.5854	-2.6021	-1.8646	-2.8896	169.483	381.656	425.411	88.163	143.208	297.487	406.212	347.637	400.942	152.111	386.209	127.934	397.848	394.010	344.622	333.628	0.0016282	0.00094613	0.00024259	1537.1	7.0508e-06	1.3039e-05	1489.2	392.86	1.1694e-05	4.6549e-06	444.96	148.55	128.84	44.206	8.5147e-06	54.357	0.00090166	0.00089767	0.00025125	1610	9.7962e-06	9.7925e-06	1555.5	415.78	9.794e-06	9.8307e-06	487.8	160.71	138.58	47.908	9.7701e-06	59.289	337.945	187.560	419.616	100.792	287.728	273.223	100.924	105.807	289.857	216.912	105.426	109.966	110.417	114.333	274.501	113.633	-8191	255	
2132.957	1	1	0	0	0.091376	0.11472	0.18317	0.36627	0.10619	0.18877	0.15867	0.13726	0.1139	0.091576	0.11611	0.25855	0.2545	0.029707	0.2148	0.048583	-1.7792	-1.9708	-2.8312	-2.1625	-2.5042	-2.7479	-2.1375	-2.7542	-2.5292	-2.15	-2.7938	-2.1167	-2.5312	-2.7375	-1.9	-2.7833	108.374	182.965	221.065	405.382	307.154	160.738	424.614	116.696	328.580	425.819	362.845	318.083	323.295	446.460	388.648	163.697	0.0020062	0.0010632	0.00015776	1536.7	3.6693e-06	7.3095e-06	1492.5	393.38	1.0882e-05	2.4945e-06	445.7	149.67	129.26	44.125	1.0179e-05	53.975	0.00089639	0.00089306	0.00024767	1606.8	9.7419e-06	9.7105e-06	1554	415.69	9.6953e-06	9.7145e-06	485.95	160.47	138.64	47.735	9.6878e-06	59.173	329.336	146.496	278.130	101.151	170.056	94.961	101.032	105.913	151.506	215.634	105.310	109.767	109.837	114.100	404.556	113.489	-8191	255	
2133.053	1	1	0	0	0.27767	0.14937	0.13194	0.126	0.15318	0.06074	0.30023	0.31541	0.19081	0.0321	0.22792	0.26887	0.078749	0.17359	0.14317	0.087662	-2.1292	-1.7979	-2.8708	-2.4292	-2.2979	-2.8187	-2.2917	-2.7313	-2.55	-1.8896	-2.9292	-2.275	-2.3708	-3.0333	-1.9208	-2.4542	366.094	297.518	339.815	431.431	121.760	325.160	365.366	423.098	101.039	170.412	419.483	365.661	388.637	148.947	275.956	323.536	0.0021786	0.00047045	0.00022576	1536.8	3.7117e-06	6.2732e-06	1486.8	391.11	2.1864e-07	4.8489e-06	445.06	148.97	128.95	44.183	4.5764e-06	54.285	0.00088479	0.00088176	0.00024639	1606.7	9.6223e-06	9.6277e-06	1550.6	414.77	9.5987e-06	9.6163e-06	486.08	160.15	138.46	47.76	9.6136e-06	59.138	326.689	87.679	128.008	100.511	288.624	151.943	100.679	105.407	271.430	356.566	105.030	109.779	110.318	114.569	239.255	113.816	-8191	255	
2133.149	1	1	0	0	0.062139	0.17479	0.1518	0.30066	0.36022	0.11154	0.10078	0.043948	0.10813	0.29241	0.2186	0.19803	0.034193	0.10596	0.046226	0.1852	-2.0979	-1.8563	-2.7208	-2.55	-2.2042	-2.8375	-2.2979	-2.7562	-2.5417	-1.8875	-2.6875	-2.3771	-2.175	-2.7417	-1.9	-2.5563	199.723	187.038	278.776	388.796	248.365	419.482	154.526	237.581	341.305	437.617	433.905	403.096	162.384	287.468	199.394	99.914	0.0016053	0.00050301	0.00015291	1534.6	6.8446e-06	9.0522e-06	1486.2	394.04	5.145e-06	4.6534e-06	445.98	148.26	129.19	44.122	3.2565e-06	53.894	0.00087937	0.00088505	0.00024521	1605	9.6329e-06	9.6917e-06	1551.7	415.97	9.727e-06	9.7182e-06	487.84	160.37	138.72	47.85	9.8194e-06	59.173	328.453	145.093	436.248	100.387	152.084	286.539	100.521	105.362	404.397	88.853	105.117	109.269	109.881	114.293	193.375	113.025	-8191	255	
2133.245	1	1	0	0	0.18168	0.13309	0.17409	0.24841	0.21835	0.018949	0.2055	0.17627	0.050687	0.14412	0.071865	0.057407	0.37624	0.037744	0.12369	0.28245	-2.4938	-1.9583	-2.6396	-2.5479	-2.225	-2.8958	-2.4729	-2.4708	-2.725	-2.1292	-2.7042	-2.5417	-2.2292	-2.9042	-2.2333	-2.5083	109.194	421.226	260.169	90.088	213.022	233.101	395.912	390.929	175.909	194.928	278.677	342.682	335.443	92.804	148.619	426.152	0.0013294	0.0006507	9.6706e-05	1536.3	9.1311e-06	7.5294e-06	1492.4	391.45	1.2607e-05	5.1659e-06	448.72	148	128.48	43.965	5.3915e-06	54.145	0.00089908	0.00090081	0.00025058	1606.6	9.8538e-06	9.893e-06	1556.1	416.33	9.9313e-06	9.9132e-06	489.56	160.5	138.67	47.933	9.9921e-06	59.391	329.132	173.816	227.086	100.114	241.551	289.432	100.495	105.204	365.755	370.520	104.997	109.271	109.775	114.078	134.208	113.344	-8191	255	
2133.366	1	1	0	0	0.15266	0.17991	0.2798	0.19717	0.23141	0.043869	0.36148	0.29553	0.17793	0.29846	0.2813	0.18868	0.097909	0.17247	0.049626	0.080777	-2.3812	-1.8771	-2.5958	-2.775	-1.775	-2.6312	-2.4188	-2.4875	-2.6646	-2.1125	-2.5521	-2.5458	-2.1063	-2.9479	-2.3229	-2.2708	123.663	372.270	305.038	439.815	235.644	367.434	398.456	385.641	441.237	169.510	439.220	328.738	125.620	200.681	142.974	422.415	0.0016548	0.00024623	0.00040346	1533.7	8.0728e-06	5.4187e-06	1481.3	391.91	1.0184e-05	7.7372e-06	445.09	149.23	129.08	43.922	4.5949e-06	54.166	0.000908	0.00090927	0.00025219	1606.3	9.847e-06	9.8867e-06	1551.7	415.18	9.7823e-06	9.7643e-06	486.62	160.35	138.62	47.752	9.6678e-06	59.055	338.933	99.661	101.792	100.255	132.968	214.699	100.260	105.235	176.261	240.115	105.167	109.427	109.829	113.953	275.688	113.429	-8191	255	
2133.460	1	1	0	0	0.068362	0.20074	0.22399	0.27584	0.21911	0.26632	0.32695	0.32968	0.19099	0.12209	0.073721	0.11878	0.14794	0.13082	0.17789	0.061775	-2.6542	-2.0479	-2.5187	-2.8354	-2.0021	-2.7875	-2.6667	-2.2646	-2.8083	-2.2083	-2.5687	-2.8104	-2.3042	-2.7958	-2.4938	-2.3312	309.932	409.778	442.695	403.558	171.473	197.293	370.051	436.897	121.624	162.228	402.187	383.662	344.187	412.115	430.398	443.121	0.0014373	0.0011244	0.00017472	1527.9	4.1161e-06	9.4601e-06	1481.5	393.23	1.1021e-05	8.2539e-06	448.12	148.59	128.82	44.152	1.0332e-05	54.277	0.00088229	0.00088221	0.00024525	1599.7	9.5699e-06	9.5869e-06	1548.2	414.89	9.604e-06	9.5905e-06	485.83	160.02	138.14	47.804	9.6051e-06	59.102	333.196	197.989	252.896	100.383	274.101	287.576	100.597	105.352	231.106	227.102	105.253	109.179	109.863	114.286	224.414	112.889	-8191	255	
2133.558	1	1	0	0	0.20137	0.10078	0.10665	0.20576	0.13176	0.10859	0.2785	0.27212	0.21002	0.17804	0.15802	0.12388	0.17838	0.091451	0.11092	0.1549	-2.3146	-2.0854	-2.2375	-2.9479	-2.0208	-2.7708	-2.6562	-2.175	-2.7542	-2.0521	-2.6021	-2.9292	-2.125	-2.7313	-2.7146	-2.1625	218.788	193.235	377.101	373.156	351.606	196.897	414.692	415.068	365.216	334.360	289.431	190.875	390.778	202.225	318.157	218.324	0.002178	0.00035267	0.00010195	1528.7	6.2857e-06	5.6418e-06	1485	391.77	7.7897e-06	2.5229e-06	447.46	148.97	128.67	44.253	3.1769e-06	54.065	0.00087772	0.00087546	0.00024337	1600	9.5461e-06	9.5075e-06	1548.7	414.18	9.4816e-06	9.4476e-06	484.65	159.83	137.99	47.704	9.4677e-06	58.906	347.103	176.795	224.688	100.464	127.457	259.797	100.489	105.393	223.465	341.831	105.271	109.599	109.479	114.264	243.292	112.947	-8191	255	
2133.654	1	1	0	0	0.052204	0.078279	0.0048311	0.013303	0.22843	0.084022	0.085626	0.036466	0.090107	0.12308	0.077101	0.3421	0.11333	0.1212	0.26105	0.058085	-2.3833	-2.225	-2.0646	-2.8229	-2.1646	-2.4521	-2.7542	-2.2438	-2.6271	-2.0979	-2.3021	-2.8479	-2.1542	-2.5354	-2.5229	-1.9896	341.461	147.512	242.464	125.764	360.069	408.432	317.398	378.331	91.663	226.167	138.113	201.821	168.353	135.626	401.085	436.829	0.0015162	0.00038631	0.00027001	1532.5	6.2761e-06	2.9722e-06	1484.8	392.64	5.6357e-06	2.9949e-06	447.96	149.56	128.85	44.215	9.5569e-06	54.25	0.00086457	0.00086237	0.00024037	1599.1	9.4307e-06	9.4247e-06	1549.6	414.37	9.4376e-06	9.3842e-06	484.98	159.78	138.03	47.75	9.4346e-06	58.941	332.784	243.132	159.514	100.324	187.707	276.881	100.331	105.076	201.615	124.592	104.927	109.236	109.415	114.074	237.760	113.465	-8191	255	
#DATA ENDS
