BOXY.EXE: ISS Imagent and Oximeter Data Acquisition Program Version 0.80
Ascii Record File

#ACQ INFORMATION
2  Detector Channels 
16  External MUX Channels 
1  Auxiliary Channels 
5000  Waveform (CCF) Frequency (Hz)
1  Waveforms Skipped 
30  Waveforms Averaged 
1  Cycles Averaged 
16  Acquisitions per Waveform 
10.0806  Updata Rate (Hz) 

#FILE INFORMATION
TRUE -- External MUX Channel results are PARSED.
FALSE -- AC DC and Phase are NOT grouped.
TRUE -- Companion Program Settings File CREATED.
FALSE -- AC data not excluded
FALSE -- DC data not excluded
FALSE -- Phase data not excluded
FALSE -- Auxillary Chn. data not excluded
Tab delimiters

#CALIBRATION STATE
TRUE -- Waveform Calibration Values APPLIED.


#AUX CALIBRATION VALUES
Val Type	aux-1	

Term	1.0000e+00	
Factor	0.0000e+00	


#WF CALIBRATION VALUES
A = Detector Channel
Val Type	A-AC1	A-AC2	A-AC3	A-AC4	A-AC5	A-AC6	A-AC7	A-AC8	A-AC9	A-AC10	A-AC11	A-AC12	A-AC13	A-AC14	A-AC15	A-AC16	A-DC1	A-DC2	A-DC3	A-DC4	A-DC5	A-DC6	A-DC7	A-DC8	A-DC9	A-DC10	A-DC11	A-DC12	A-DC13	A-DC14	A-DC15	A-DC16	A-Ph1	A-Ph2	A-Ph3	A-Ph4	A-Ph5	A-Ph6	A-Ph7	A-Ph8	A-Ph9	A-Ph10	A-Ph11	A-Ph12	A-Ph13	A-Ph14	A-Ph15	A-Ph16	

Term	0.00000e+00	0.00000e+00	0.00000e+00	0.00000e+00	0.00000e+00	0.00000e+00	0.00000e+00	0.00000e+00	0.00000e+00	0.00000e+00	0.00000e+00	0.00000e+00	0.00000e+00	0.00000e+00	0.00000e+00	0.00000e+00	0.00000e+00	0.00000e+00	0.00000e+00	0.00000e+00	0.00000e+00	0.00000e+00	0.00000e+00	0.00000e+00	0.00000e+00	0.00000e+00	0.00000e+00	0.00000e+00	0.00000e+00	0.00000e+00	0.00000e+00	0.00000e+00	0.00000e+00	0.00000e+00	0.00000e+00	0.00000e+00	0.00000e+00	0.00000e+00	0.00000e+00	0.00000e+00	0.00000e+00	0.00000e+00	0.00000e+00	0.00000e+00	0.00000e+00	0.00000e+00	0.00000e+00	0.00000e+00	
Factor	1.00000e+00	1.00000e+00	1.00000e+00	1.00000e+00	1.00000e+00	1.00000e+00	1.00000e+00	1.00000e+00	1.00000e+00	1.00000e+00	1.00000e+00	1.00000e+00	1.00000e+00	1.00000e+00	1.00000e+00	1.00000e+00	1.00000e+00	1.00000e+00	1.00000e+00	1.00000e+00	1.00000e+00	1.00000e+00	1.00000e+00	1.00000e+00	1.00000e+00	1.00000e+00	1.00000e+00	1.00000e+00	1.00000e+00	1.00000e+00	1.00000e+00	1.00000e+00	X	X	X	X	X	X	X	X	X	X	X	X	X	X	X	X	

B = Detector Channel
Val Type	B-AC1	B-AC2	B-AC3	B-AC4	B-AC5	B-AC6	B-AC7	B-AC8	B-AC9	B-AC10	B-AC11	B-AC12	B-AC13	B-AC14	B-AC15	B-AC16	B-DC1	B-DC2	B-DC3	B-DC4	B-DC5	B-DC6	B-DC7	B-DC8	B-DC9	B-DC10	B-DC11	B-DC12	B-DC13	B-DC14	B-DC15	B-DC16	B-Ph1	B-Ph2	B-Ph3	B-Ph4	B-Ph5	B-Ph6	B-Ph7	B-Ph8	B-Ph9	B-Ph10	B-Ph11	B-Ph12	B-Ph13	B-Ph14	B-Ph15	B-Ph16	

Term	0.00000e+00	0.00000e+00	0.00000e+00	0.00000e+00	0.00000e+00	0.00000e+00	0.00000e+00	0.00000e+00	0.00000e+00	0.00000e+00	0.00000e+00	0.00000e+00	0.00000e+00	0.00000e+00	0.00000e+00	0.00000e+00	0.00000e+00	0.00000e+00	0.00000e+00	0.00000e+00	0.00000e+00	0.00000e+00	0.00000e+00	0.00000e+00	0.00000e+00	0.00000e+00	0.00000e+00	0.00000e+00	0.00000e+00	0.00000e+00	0.00000e+00	0.00000e+00	-2.67937e+02	-1.30297e+02	-1.24741e+02	-1.87822e+02	-6.96048e+01	-6.65855e+01	-1.56226e+02	-1.62015e+02	-6.64801e+01	-6.54146e+01	-1.71993e+02	-1.70449e+02	-1.82921e+02	-1.77447e+02	-7.06104e+01	-1.50185e+02	
Factor	5.08686e-05	1.23101e-04	3.70342e-05	3.47696e-01	1.44184e-06	1.36155e-06	1.51375e-01	4.06272e-02	2.33488e-06	1.39090e-06	7.25516e-02	2.05289e-02	3.17289e-02	6.81532e-03	1.55922e-06	9.51071e-03	2.34709e-05	6.99811e-05	2.09637e-05	1.86283e-01	7.08699e-07	8.53338e-07	7.64441e-02	2.19243e-02	5.51292e-07	8.80824e-07	3.79906e-02	1.07674e-02	1.72504e-02	3.72260e-03	6.45250e-07	5.03074e-03	X	X	X	X	X	X	X	X	X	X	X	X	X	X	X	X	



#DISTANCE SETTINGS
A = Detector Channel
A-1	A-2	A-3	A-4	A-5	A-6	A-7	A-8	A-9	A-10	A-11	A-12	A-13	A-14	A-15	A-16	

2.5000e+00	3.0000e+00	2.5000e+00	3.0000e+00	2.0000e+00	3.0000e+00	1.5000e+00	3.0000e+00	3.0000e+00	3.0000e+00	3.0000e+00	3.0000e+00	3.0000e+00	3.0000e+00	1.5000e+00	3.0000e+00	

B = Detector Channel
B-1	B-2	B-3	B-4	B-5	B-6	B-7	B-8	B-9	B-10	B-11	B-12	B-13	B-14	B-15	B-16	

1.0000e+01	1.0000e+01	1.0000e+01	1.4400e+00	1.0000e+01	1.0000e+01	1.5100e+00	1.9400e+00	1.0000e+01	1.0000e+01	1.9900e+00	2.4900e+00	2.4100e+00	2.9000e+00	1.0000e+01	2.9800e+00	




#DATA BEGINS
time	group	step	mark	flag	A-AC1	A-AC2	A-AC3	A-AC4	A-AC5	A-AC6	A-AC7	A-AC8	A-AC9	A-AC10	A-AC11	A-AC12	A-AC13	A-AC14	A-AC15	A-AC16	A-DC1	A-DC2	A-DC3	A-DC4	A-DC5	A-DC6	A-DC7	A-DC8	A-DC9	A-DC10	A-DC11	A-DC12	A-DC13	A-DC14	A-DC15	A-DC16	A-Ph1	A-Ph2	A-Ph3	A-Ph4	A-Ph5	A-Ph6	A-Ph7	A-Ph8	A-Ph9	A-Ph10	A-Ph11	A-Ph12	A-Ph13	A-Ph14	A-Ph15	A-Ph16	B-AC1	B-AC2	B-AC3	B-AC4	B-AC5	B-AC6	B-AC7	B-AC8	B-AC9	B-AC10	B-AC11	B-AC12	B-AC13	B-AC14	B-AC15	B-AC16	B-DC1	B-DC2	B-DC3	B-DC4	B-DC5	B-DC6	B-DC7	B-DC8	B-DC9	B-DC10	B-DC11	B-DC12	B-DC13	B-DC14	B-DC15	B-DC16	B-Ph1	B-Ph2	B-Ph3	B-Ph4	B-Ph5	B-Ph6	B-Ph7	B-Ph8	B-Ph9	B-Ph10	B-Ph11	B-Ph12	B-Ph13	B-Ph14	B-Ph15	B-Ph16	aux-1	digaux	

1475.649	1	1	0	768	0.41035	0.25592	0.069298	0.3271	0.11945	0.079918	0.30295	0.17677	0.17208	0.22673	0.27928	0.28909	0.21432	0.15532	0.1842	0.048309	-2.7958	-3.2042	-3.7313	-2.9167	-3.4979	-3.4896	-3.0729	-3.7708	-3.0979	-3.1063	-3.8312	-3.1375	-3.5479	-3.4896	-2.9479	-3.9437	40.554	180.760	167.316	153.668	155.572	-30.403	133.338	75.311	24.672	42.222	178.602	111.955	-61.183	-108.832	-101.778	-143.526	0.0017543	0.00039734	0.00014044	835.09	4.3338e-06	3.7134e-06	886.09	254.74	5.8001e-06	3.6696e-06	301.7	109.75	90.232	37.891	5.8969e-06	51.668	0.001456	0.0025944	0.00070189	837.54	2.5921e-05	3.0446e-05	885.05	255.14	2.1134e-05	3.1798e-05	302.47	110.15	90.878	38.493	2.378e-05	52.571	57.672	-97.874	-93.608	-162.168	-20.527	-29.123	-164.322	-157.902	-54.595	-60.522	-160.084	-156.285	-154.271	-149.901	-50.101	-152.925	-8191	255	
1475.745	1	1	0	0	0.2772	0.15768	0.062592	0.18465	0.068056	0.067446	0.32701	0.28974	0.13814	0.068786	0.096881	0.19072	0.063685	0.14243	0.34178	0.16979	-3.0417	-3.1833	-3.6833	-3.0646	-3.3333	-3.6604	-2.8792	-3.6458	-3.1458	-2.9104	-3.7313	-3.2271	-3.2771	-3.7938	-2.7729	-3.75	55.567	-54.911	128.916	-167.086	-115.244	143.832	110.157	139.656	41.413	72.509	156.485	158.324	103.159	171.651	-43.971	140.396	0.0018943	0.00030027	0.0001761	838.45	5.5952e-06	4.4717e-06	889.78	255.9	9.5047e-06	3.9973e-06	302.96	110.03	90.149	37.635	4.8153e-06	51.591	0.0014568	0.0025088	0.00074936	837.01	2.608e-05	2.7175e-05	891.1	256.79	2.0708e-05	3.0418e-05	304.07	110.44	90.878	38.147	2.3815e-05	52.151	62.166	-100.856	-91.230	-162.281	-48.091	-33.310	-163.850	-158.035	-68.468	10.745	-160.064	-155.987	-154.439	-149.889	-53.795	-152.852	-8191	255	
1475.841	1	1	0	0	0.27821	0.061865	0.17481	0.18817	0.1844	0.09501	0.1984	0.1013	0.19864	0.25725	0.030691	0.1098	0.31143	0.19485	0.059591	0.19316	-3.175	-2.9813	-3.6708	-3.1104	-3.2562	-3.8896	-3.075	-3.5646	-3.35	-2.9771	-3.8083	-3.1604	-3.2604	-3.7271	-3.0604	-3.5771	92.615	-140.218	-167.588	90.155	-11.466	-127.260	130.949	161.620	1.836	-153.480	-37.565	121.103	-155.695	116.761	-59.846	94.554	0.0017339	0.0005558	0.00010322	838.04	5.7938e-06	6.3912e-07	895.68	257.28	1.0115e-05	4.825e-06	303.32	109.86	90.925	37.39	4.7498e-06	51.336	0.0013685	0.0024594	0.00070848	845.02	2.5208e-05	2.8448e-05	897	258.33	1.9909e-05	2.964e-05	305.09	110.38	91.099	37.916	2.3139e-05	51.805	59.109	-96.961	-101.798	-162.350	-34.876	-44.806	-163.720	-157.902	-58.895	-48.062	-160.082	-155.937	-154.199	-149.802	-30.876	-152.860	-8191	255	
1475.938	1	1	0	0	0.057897	0.19443	0.10243	0.081427	0.12396	0.034329	0.25593	0.17181	0.31388	0.11427	0.13947	0.31239	0.041222	0.21362	0.085651	0.11371	-2.9854	-2.9417	-3.5563	-3.1896	-3.2083	-3.8021	-3.1479	-3.5458	-3.6125	-3.0833	-3.6854	-3.2812	-3.0083	-3.8833	-3.1042	-3.4813	82.304	-145.832	-172.919	-57.174	-32.163	79.758	-164.967	-17.908	65.315	-54.191	13.160	160.309	177.324	-62.151	11.203	141.944	0.0018119	0.00029198	9.0498e-05	841	5.7507e-06	5.7662e-06	900.8	258.37	9.6475e-06	5.7966e-06	304.19	108.74	90.023	37.068	7.1574e-06	50.058	0.0013799	0.0024364	0.0006939	844.52	2.4719e-05	2.6612e-05	898.95	259.3	1.9968e-05	2.9897e-05	305.17	109.62	90.18	37.458	2.3553e-05	50.793	58.882	-85.267	-76.861	-162.112	-31.631	-19.393	-163.689	-157.782	-33.718	-34.716	-159.850	-156.077	-153.892	-149.943	-59.737	-152.686	-8191	255	
1476.034	1	1	0	0	0.11609	0.076955	0.27354	0.24617	0.13074	0.30774	0.085075	0.28344	0.36511	0.26107	0.054614	0.19833	0.24809	0.31705	0.12794	0.080755	-3.1083	-2.9896	-3.7792	-3.4229	-3.025	-3.6354	-3.3	-3.3917	-3.7271	-3.0167	-3.8104	-3.5292	-3.1125	-3.9667	-3.0542	-3.3792	-32.174	151.012	39.863	-90.089	75.685	18.703	-118.732	173.564	-86.858	181.520	-159.129	93.475	165.318	158.405	-141.429	114.659	0.0017716	0.00037604	0.000104	844.12	3.8668e-06	3.4716e-06	895.2	257.63	8.0283e-06	5.3663e-06	302.49	107.44	89.683	36.5	4.1022e-06	49.362	0.0013591	0.002307	0.00068599	846.13	2.4776e-05	2.7077e-05	892.3	258.42	1.9688e-05	2.9368e-05	303.26	108.12	89.539	37.001	2.2474e-05	49.938	58.781	-73.053	-48.544	-162.581	-34.688	-33.179	-163.868	-157.954	-78.029	-49.775	-160.110	-156.082	-153.994	-149.709	-31.867	-152.675	-8191	255	
1476.130	1	1	0	0	0.39086	0.15124	0.23223	0.10547	0.11635	0.087137	0.010996	0.17206	0.062605	0.2065	0.36647	0.1953	0.087479	0.31834	0.15719	0.26251	-3.3375	-2.8333	-3.6396	-3.3146	-3.0896	-3.7979	-3.3792	-3.2938	-3.7125	-2.9417	-3.6875	-3.7646	-2.8563	-3.7125	-3.0563	-3.2625	115.218	-44.980	-102.258	-145.491	132.087	-44.501	62.253	-43.739	-66.213	-21.929	176.656	160.889	42.933	-147.887	163.540	84.711	0.001745	0.00050861	0.00017984	840.72	5.992e-06	3.8182e-06	892.53	257.38	4.1366e-06	3.4578e-06	303.33	107.42	88.803	36.249	6.1829e-06	48.932	0.0013579	0.0023753	0.00069193	844.53	2.4559e-05	2.7566e-05	893.35	258.41	1.9222e-05	2.8698e-05	303.16	107.99	88.86	36.704	2.2746e-05	49.688	58.920	-87.387	-88.759	-162.597	-46.610	-61.540	-164.340	-158.050	-70.020	-56.099	-160.403	-156.316	-154.233	-149.779	-56.714	-152.909	-8191	255	
1476.249	1	1	0	0	0.084835	0.1158	0.1934	0.12367	0.14207	0.11892	0.090459	0.14872	0.087943	0.13182	0.1843	0.10832	0.032527	0.18729	0.12088	0.11288	-3.4188	-3.1896	-3.4958	-3.3729	-3.0354	-3.725	-3.4104	-3.1125	-3.7833	-3.1625	-3.4292	-3.6813	-2.7583	-3.8688	-3.3688	-3.0729	-123.632	-86.421	-81.887	-37.897	2.011	47.353	108.026	-135.103	106.521	-83.905	20.336	69.446	152.292	-146.463	125.799	-168.172	0.0017842	0.0004716	0.00011587	843.92	5.5689e-06	6.0732e-06	893.57	256.54	8.2433e-06	3.5376e-06	300.95	107.42	88.118	35.876	5.0809e-06	48.805	0.0013381	0.0023035	0.0006801	847.44	2.4595e-05	2.783e-05	894.2	257.51	1.9572e-05	2.9403e-05	302.36	107.53	88.47	36.458	2.2265e-05	49.348	59.957	-96.180	-96.319	-162.655	-35.004	-41.196	-163.874	-157.895	-56.099	-23.186	-160.382	-156.056	-153.981	-149.854	-31.021	-152.689	-8191	255	
1476.345	1	1	0	0	0.18332	0.065185	0.07598	0.047507	0.075647	0.064776	0.15179	0.28227	0.077582	0.053808	0.29065	0.04833	0.10617	0.26784	0.078876	0.17513	-3.4792	-3.0687	-3.4125	-3.8896	-2.9021	-3.65	-3.4938	-3.0792	-3.8333	-3.1479	-3.2292	-3.8292	-3.1042	-3.75	-3.4146	-3.0771	-35.944	63.777	-62.938	-142.624	133.464	34.418	177.915	-168.863	-4.353	102.244	140.854	-139.992	102.927	-151.485	-15.237	104.066	0.0016873	0.00046484	0.00012606	844.14	6.491e-06	1.0612e-06	896.34	256.06	9.7815e-06	2.6923e-06	300.01	106.68	87.567	35.774	4.637e-06	48.132	0.0013616	0.0023454	0.00072635	846.8	2.4434e-05	2.8651e-05	893.05	256.55	2.0197e-05	2.8309e-05	300.86	107.1	88.158	36.142	2.2639e-05	48.759	57.296	-87.459	-76.735	-162.166	-44.463	-52.820	-163.731	-157.959	-43.932	-43.877	-159.901	-156.072	-153.910	-149.743	-32.878	-152.502	-8191	255	
1476.441	1	1	0	0	0.32639	0.32871	0.19613	0.092193	0.059353	0.1106	0.07606	0.14841	0.16324	0.048272	0.084315	0.31168	0.25664	0.11159	0.16242	0.27232	-3.3271	-3.0958	-3.0958	-3.8458	-2.8458	-3.5854	-3.6979	-3.1958	-3.7833	-3.4021	-3.2083	-3.7667	-3.1708	-3.5458	-3.6208	-3.1354	-79.039	-24.132	-133.281	111.589	46.435	49.489	-21.959	128.825	-66.965	-81.443	63.328	121.234	-151.133	155.717	21.608	112.813	0.0017856	0.00052767	0.00014633	833.65	5.3801e-06	5.3962e-06	883.27	251.48	1.0425e-05	4.6402e-06	292.47	105.68	87.714	35.58	5.1558e-06	47.735	0.0013591	0.0024728	0.00072818	839.43	2.4655e-05	2.874e-05	882.6	252.42	2.066e-05	3.1453e-05	294.39	106.53	87.825	36.033	2.3397e-05	48.553	60.077	-81.499	-76.564	-162.105	-48.622	-24.683	-163.786	-157.885	-43.031	-72.333	-160.065	-155.999	-154.024	-149.841	-56.286	-152.730	-8191	255	
1476.537	1	1	0	0	0.35133	0.011605	0.056995	0.10959	0.07609	0.11117	0.10875	0.38977	0.29544	0.17731	0.13852	0.11496	0.19432	0.23076	0.081859	0.16779	-3.275	-3.2729	-3.0625	-3.8854	-3.1396	-3.4354	-3.7458	-3.1521	-3.6083	-3.425	-3.2562	-3.6833	-3.2125	-3.3208	-3.7271	-3.0875	-106.569	78.407	-57.101	-131.453	-33.974	-126.987	154.871	83.683	-31.927	57.294	78.049	-79.566	117.433	-131.600	52.743	143.091	0.0016415	0.00025025	0.00012156	832.17	4.3181e-06	2.8384e-06	878.07	248.41	8.4119e-06	3.6263e-06	293.55	107.05	87.278	35.521	5.9564e-06	48.075	0.0013519	0.0024119	0.00071141	838.44	2.5098e-05	2.9392e-05	879.13	249.76	2.0766e-05	3.0368e-05	294.58	107.41	87.985	36.081	2.3577e-05	49.081	58.260	-102.000	-90.049	-162.065	-31.833	-17.029	-163.710	-157.856	-56.031	-28.564	-160.424	-155.955	-154.153	-149.944	-63.541	-152.690	-8191	255	
1476.633	1	1	0	0	0.23241	0.15423	0.20644	0.12252	0.13705	0.20229	0.3041	0.11397	0.25606	0.17296	0.30912	0.1276	0.22649	0.2118	0.12427	0.38732	-3.3125	-3.3438	-2.9146	-3.8917	-3.0708	-3.2125	-3.8271	-2.95	-3.5125	-3.5312	-3.2313	-3.8688	-3.3729	-3.3354	-3.7687	-3.0833	-153.779	138.458	54.750	133.412	-50.753	176.258	139.602	114.276	9.193	-127.635	154.192	139.770	182.955	-114.366	-123.395	157.544	0.0017523	0.00029815	0.00013033	826.27	4.9353e-06	2.707e-06	879.06	246.78	1.3398e-05	2.9663e-06	293.67	108.08	87.908	35.719	5.7403e-06	49.045	0.0013937	0.0024905	0.00072246	832.47	2.5947e-05	3.0096e-05	880.5	248.77	2.1096e-05	3.1717e-05	295.36	108.74	88.82	36.271	2.3954e-05	49.776	58.441	-86.720	-84.949	-161.875	-30.693	-2.530	-163.975	-157.762	-27.690	-6.158	-160.011	-156.177	-154.460	-150.104	-48.231	-152.884	-8191	255	
1476.729	1	1	0	0	0.16449	0.16035	0.14805	0.11584	0.11645	0.078672	0.13149	0.083509	0.17903	0.13732	0.11912	0.1439	0.14942	0.12951	0.076604	0.32458	-3.2167	-3.4979	-2.9	-3.8167	-3.2583	-3.1167	-3.7979	-3.0625	-3.2562	-3.8312	-3.1875	-3.8354	-3.3625	-3.2271	-3.6167	-3.2271	-113.692	164.146	64.257	-126.398	-129.076	-158.244	101.523	129.494	-109.689	-105.910	31.442	-131.679	-89.539	181.092	153.493	-131.396	0.0016474	0.00044129	0.00011252	833.01	4.162e-06	3.5189e-06	878.66	245.52	8.3833e-06	4.0804e-06	293.16	108.79	88.129	35.592	3.009e-06	48.71	0.0013804	0.0025827	0.00078627	833.76	2.6434e-05	3.0795e-05	882.41	247.81	2.1829e-05	3.1188e-05	295.2	109.39	88.947	36.282	2.4799e-05	49.704	57.365	-107.900	-94.637	-161.843	-37.186	-36.755	-163.665	-157.832	-62.091	-13.427	-160.073	-155.818	-154.299	-149.866	-22.270	-152.796	-8191	255	
1476.850	1	1	0	0	0.17245	0.11234	0.046815	0.13893	0.17558	0.19592	0.249	0.047559	0.15366	0.43945	0.063549	0.26991	0.050291	0.20033	0.23464	0.28991	-2.9562	-3.4417	-2.8083	-3.5062	-3.3688	-2.9062	-3.9396	-3.1354	-3.1333	-3.6604	-3.0521	-3.5833	-3.5042	-3.1146	-3.6917	-3.25	136.979	-127.825	75.912	-28.081	-170.524	-135.906	177.212	34.137	-132.133	117.137	181.654	-147.760	-75.606	167.808	116.371	130.866	0.0017029	0.00057971	0.00010224	824.79	1.7277e-06	4.4334e-06	869.53	244.6	1.0074e-05	4.9486e-06	287.89	107.41	87.494	35.163	5.1664e-06	48.11	0.001444	0.0026715	0.00078806	828.5	2.7159e-05	3.1451e-05	871.99	245.17	2.2755e-05	3.1981e-05	291.03	108.11	87.991	35.804	2.5334e-05	48.943	60.914	-78.181	-72.651	-161.695	-35.807	-7.126	-163.858	-158.232	-50.478	-26.659	-160.294	-155.859	-154.184	-149.913	-33.659	-152.841	-8191	255	
1476.945	1	1	0	0	0.19505	0.064132	0.10783	0.082277	0.13967	0.17949	0.30559	0.29214	0.059781	0.20437	0.14307	0.069554	0.10252	0.19929	0.25331	0.18587	-2.7396	-3.6917	-2.9604	-3.575	-3.6312	-3.0187	-4.0479	-3.4813	-3.1583	-3.7604	-2.9833	-3.5229	-3.7208	-2.8979	-3.7479	-3.3167	-2.297	-8.946	38.714	-105.744	-56.506	62.855	-163.465	129.538	149.421	-106.567	-79.254	-157.625	-80.130	-169.923	-164.470	111.983	0.0017159	0.00048589	0.0001492	810.94	4.3708e-06	5.4195e-06	864.4	242.21	1.046e-05	2.6949e-06	287.94	107.38	87.725	35.093	5.467e-06	48.037	0.0015162	0.0027523	0.00081304	822.61	2.7942e-05	3.2231e-05	867.41	244.16	2.3464e-05	3.2998e-05	291.79	108.27	88.269	35.808	2.5115e-05	49.038	59.749	-61.431	-88.218	-161.895	-28.957	-19.720	-163.799	-157.958	-74.898	-43.814	-159.951	-155.928	-154.151	-149.756	-39.600	-152.700	-8191	255	
1477.041	1	1	0	0	0.096239	0.041205	0.13986	0.22009	0.091146	0.18739	0.18152	0.35832	0.019449	0.076253	0.11957	0.059698	0.15524	0.19763	0.27732	0.13283	-2.6208	-3.7292	-2.9896	-3.2438	-3.6375	-2.8396	-3.775	-3.5687	-3.1396	-3.7792	-3.35	-3.2854	-3.7042	-2.9354	-3.5	-3.3896	-20.085	-167.394	-41.254	-156.526	-14.240	-86.869	133.816	117.631	12.623	77.610	-168.136	52.526	151.869	-117.155	32.700	-143.862	0.0017161	0.00050642	0.00013738	814.28	3.1799e-06	4.548e-06	872.98	244.58	1.5259e-05	5.1391e-06	291.2	108.83	88.782	35.719	3.7557e-06	49.269	0.0014818	0.0027354	0.00082636	820.98	2.7025e-05	3.2427e-05	874.06	245.91	2.2876e-05	3.2838e-05	293.64	109.36	89.232	36.178	2.5579e-05	49.947	60.397	-113.546	-78.586	-161.806	-10.535	-26.247	-163.806	-157.947	-50.204	-36.155	-159.958	-156.185	-154.156	-150.102	-38.523	-153.166	-8191	255	
1477.137	1	1	0	0	0.11759	0.057976	0.13285	0.18041	0.17522	0.087643	0.17076	0.40456	0.32545	0.15347	0.06937	0.27794	0.13147	0.11102	0.11881	0.3062	-2.6604	-3.8104	-2.9062	-3.1479	-3.7083	-3.0854	-3.6458	-3.7333	-3.025	-3.6958	-3.2833	-3.1854	-3.7271	-2.9625	-3.2896	-3.5458	5.081	-9.560	162.925	139.742	39.605	-23.872	-170.850	138.344	-10.435	-73.520	-4.702	69.943	-158.185	118.223	17.480	132.304	0.0017277	0.00023221	0.00011346	818.05	6.0487e-06	3.8075e-06	884.53	247.26	6.7529e-06	5.2009e-06	295.81	110.36	89.321	35.756	7.0851e-06	49.223	0.0014686	0.0026672	0.0008016	824.69	2.7264e-05	3.3643e-05	879.89	247.8	2.2667e-05	3.1994e-05	297.06	110.61	89.753	36.273	2.5911e-05	50.009	60.559	-95.687	-82.385	-162.210	-40.541	-4.839	-164.140	-157.858	-68.765	-27.959	-159.887	-155.902	-154.337	-150.464	-42.515	-153.241	-8191	255	
1477.233	1	1	0	0	0.085899	0.13867	0.1142	0.067595	0.066605	0.20367	0.20046	0.21495	0.17555	0.11799	0.20671	0.15518	0.10427	0.047463	0.26494	0.061112	-2.5187	-3.9229	-3.0042	-3.125	-3.5854	-3.0104	-3.5333	-3.6271	-2.9417	-3.825	-3.3438	-3.1542	-3.6667	-3.1333	-3.4042	-3.7938	-72.502	174.870	19.601	-77.512	70.161	-115.487	114.875	145.737	147.554	171.424	-155.949	-139.974	-171.231	123.526	-1.961	109.436	0.0016886	0.00022474	0.00016249	818.57	3.8821e-06	3.5111e-06	877.86	245.51	1.0953e-05	5.9164e-06	293.05	108.7	88.182	35.435	2.7951e-06	48.654	0.0014789	0.0026361	0.00081029	824.95	2.7012e-05	3.3012e-05	874.68	246.2	2.3099e-05	3.3359e-05	294.83	109.18	88.909	35.913	2.5798e-05	49.282	59.080	-88.655	-79.940	-162.003	-43.814	-10.967	-163.779	-158.066	-40.258	-25.765	-160.272	-156.204	-154.269	-150.032	-86.004	-153.202	-8191	255	
1477.329	1	1	0	0	0.19794	0.13706	0.13112	0.39974	0.12028	0.3248	0.14879	0.23963	0.13567	0.15423	0.12127	0.13491	0.12335	0.21696	0.10345	0.16534	-2.3979	-3.5062	-3.2917	-2.8833	-3.8208	-3.075	-3.3604	-3.7375	-2.9417	-3.5729	-3.2896	-3.1292	-3.6167	-3.2146	-3.1396	-3.7396	122.709	-154.971	-44.148	156.967	35.537	-94.379	-110.137	-151.205	165.809	-29.421	-155.703	15.242	121.817	-137.110	33.870	41.731	0.0016922	0.00036904	7.1497e-05	820.43	5.1994e-06	3.4188e-06	875.5	244.4	6.7088e-06	3.5668e-06	294.14	108.66	88.273	35.388	5.0437e-06	48.487	0.0015062	0.0027551	0.00080706	820.97	2.6901e-05	3.4542e-05	873.78	245.22	2.3128e-05	3.3873e-05	294.22	108.99	88.612	35.792	2.5709e-05	49.272	62.330	-95.420	-65.496	-162.293	-16.972	21.820	-163.816	-157.776	-39.512	-1.331	-160.415	-156.124	-154.045	-150.263	-59.708	-153.098	-8191	255	
1477.425	1	1	0	0	0.095237	0.1096	0.10072	0.057877	0.10036	0.082044	0.047759	0.13744	0.099203	0.18571	0.11564	0.18922	0.096175	0.23086	0.012489	0.069511	-2.4667	-3.3583	-3.4333	-3.0375	-3.6625	-3.0479	-3.4667	-3.9271	-2.9521	-3.6312	-3.5646	-3.0333	-3.7583	-3.175	-3.0146	-3.7438	56.933	56.147	99.223	-116.710	64.182	148.555	68.779	167.522	-140.315	160.266	57.883	143.967	-19.802	49.641	-42.532	8.741	0.0016182	0.00026558	5.9717e-05	823.72	4.3265e-06	4.7228e-06	869.28	243.83	1.1219e-05	5.2522e-06	289.05	107.84	87.669	34.942	5.4807e-06	48.189	0.0015051	0.0027574	0.00081867	822.08	2.8361e-05	3.338e-05	871.35	244.23	2.3182e-05	3.4315e-05	292.06	108.43	87.904	35.468	2.7243e-05	48.969	60.789	-59.751	-61.822	-162.152	-34.759	-58.591	-163.759	-158.037	-52.892	-33.785	-160.236	-155.869	-153.886	-150.067	-42.875	-153.106	-8191	255	
1477.521	1	1	0	0	0.1133	0.10266	0.16892	0.20111	0.10997	0.2771	0.27661	0.15983	0.20699	0.18755	0.18546	0.13616	0.03083	0.11513	0.34028	0.11517	-2.625	-3.2687	-3.5417	-2.9396	-3.6625	-3.2375	-3.0062	-3.7896	-3.0833	-3.3375	-3.6417	-3.0854	-3.6083	-3.4542	-3.0125	-3.7958	181.566	42.388	-166.965	31.055	67.969	-16.763	111.505	148.522	2.445	-86.312	21.338	-6.208	74.409	135.961	94.590	-65.504	0.0016569	0.0002733	0.00010276	817.31	5.56e-06	1.0593e-06	866.83	241.29	9.2853e-06	4.0237e-06	287.94	106.65	86.49	34.476	4.8743e-06	47.606	0.0014884	0.0027383	0.00083444	819.94	2.7689e-05	3.418e-05	866.3	242.04	2.3239e-05	3.4002e-05	290.04	107.27	86.946	35.009	2.7661e-05	48.419	59.496	-111.642	-95.026	-162.152	-54.453	-27.051	-163.802	-157.957	-34.130	-31.336	-160.361	-156.166	-154.278	-149.995	-58.377	-152.925	-8191	255	
1477.618	1	1	0	0	0.13329	0.14607	0.050633	0.19032	0.096082	0.016067	0.24282	0.21449	0.12369	0.011981	0.080418	0.27157	0.28124	0.2144	0.1124	0.2279	-2.5271	-3.1312	-3.55	-2.8479	-3.5854	-3.3771	-3.0417	-3.975	-2.9688	-3.1958	-3.8396	-3.0812	-3.4125	-3.5083	-2.8729	-3.9458	76.590	87.626	-69.588	183.946	-40.125	18.290	92.261	60.659	63.524	61.321	112.549	92.353	-70.461	-129.575	-8.272	39.465	0.0017074	0.00042011	0.00013269	806.08	3.1307e-06	4.5621e-06	855.56	236.53	9.6492e-06	2.9238e-06	280.92	103.77	84.203	33.714	4.6207e-06	46.632	0.0015194	0.0028112	0.00081959	811.25	2.8239e-05	3.4094e-05	854.94	237.21	2.3745e-05	3.469e-05	283.28	104.7	84.917	34.262	2.7492e-05	47.345	60.045	-86.980	-73.868	-162.470	23.569	-34.011	-164.002	-157.912	-44.954	-16.882	-160.063	-156.043	-154.080	-150.495	-40.003	-153.231	-8191	255	
1477.738	1	1	0	0	0.093063	0.23819	0.15463	0.050717	0.27075	0.078914	0.31289	0.28269	0.083768	0.11308	0.16521	0.15052	0.20531	0.035856	0.12637	0.04267	-2.9604	-3.1521	-3.5521	-2.9667	-3.4646	-3.5062	-2.8708	-3.775	-3.1292	-2.9729	-3.775	-2.9604	-3.6188	-3.7646	-2.7417	-3.7208	-82.215	137.213	-166.157	90.454	28.984	87.072	81.620	93.359	-164.308	-0.369	-67.694	164.535	-158.810	-146.338	30.372	79.847	0.001586	0.00048113	0.00012094	795.35	5.6249e-06	3.0888e-06	841.42	231.85	5.0483e-06	4.02e-06	277.35	102.88	83.219	33.217	2.5666e-06	46.209	0.0014857	0.0028918	0.00084488	802.19	2.9337e-05	3.3974e-05	842.34	233.04	2.3966e-05	3.513e-05	280.19	103.59	83.88	33.887	2.7227e-05	46.989	60.579	-65.562	-93.494	-162.361	-41.074	-15.569	-164.029	-157.658	-44.857	-35.855	-159.934	-155.973	-153.965	-150.390	-42.286	-153.244	-8191	255	
1477.810	1	1	0	0	0.18603	0.060438	0.22682	0.15976	0.098892	0.10685	0.083535	0.021863	0.34536	0.15748	0.23199	0.20171	0.053491	0.073912	0.099865	0.23253	-2.7479	-3.0104	-3.725	-3.0958	-3.2729	-3.5	-3.0458	-3.6021	-3.3375	-3.0396	-3.7687	-3.1646	-3.3688	-3.7083	-3.0271	-3.6479	161.652	-150.609	62.385	157.248	-128.440	89.995	168.012	-1.235	133.903	-165.150	-172.429	152.641	-38.861	152.425	-53.254	-136.838	0.0015726	0.00040717	0.00014472	794.14	4.2166e-06	4.141e-06	844.12	229.7	8.1739e-06	4.3871e-06	277.19	102.49	82.242	33.216	4.6336e-06	46.11	0.0015038	0.0028173	0.00086746	799.47	2.9987e-05	3.4294e-05	845.41	231.96	2.4118e-05	3.6088e-05	278.97	103.36	83.366	33.809	2.7872e-05	46.92	60.844	-90.610	-70.964	-162.485	-24.394	-48.223	-163.808	-157.833	-60.999	-28.851	-160.237	-156.128	-154.008	-150.009	-28.210	-153.086	-8191	255	
1477.931	1	1	0	0	0.1706	0.31891	0.1251	0.070994	0.13357	0.043191	0.22623	0.10789	0.16373	0.12883	0.16144	0.14393	0.11871	0.22896	0.095017	0.09856	-3.0292	-2.7812	-3.5542	-3.0583	-3.1896	-3.7104	-3.0146	-3.5333	-3.4375	-2.8208	-3.7687	-3.3563	-3.1208	-3.7729	-3.0333	-3.5083	27.877	163.587	-131.782	111.059	156.172	53.115	112.656	137.764	-173.688	79.559	83.376	181.840	-165.843	39.234	-48.090	-126.104	0.0016128	0.00050666	0.00012812	794.46	3.2459e-06	4.2457e-06	830.01	227.89	9.4565e-06	3.8459e-06	274.41	102.28	82.446	33.007	3.0247e-06	46.014	0.0015116	0.0029245	0.00082632	798.96	2.9652e-05	3.5278e-05	839.5	230.61	2.3859e-05	3.656e-05	278.21	103.33	83.177	33.593	2.8371e-05	46.874	55.897	-88.071	-114.188	-161.970	-60.960	-16.989	-163.821	-157.749	-39.707	-36.229	-160.175	-156.269	-154.146	-149.952	-10.573	-152.973	-8191	255	
1478.025	1	1	0	0	0.33186	0.18763	0.054766	0.18965	0.33304	0.19312	0.098701	0.20962	0.071622	0.17376	0.20542	0.17496	0.10756	0.19163	0.17539	0.22749	-3.1167	-2.9958	-3.5729	-3.2562	-2.9104	-3.6354	-2.9229	-3.3229	-3.6104	-2.8187	-3.7521	-3.2396	-2.9104	-3.8604	-3	-3.2125	-117.406	-34.115	-72.280	113.287	79.698	-132.415	-150.545	164.308	86.459	44.719	-137.796	-124.584	120.404	-149.945	-170.247	115.211	0.0016017	0.00028023	0.00016078	792.67	6.5109e-06	3.805e-06	831.09	226.66	7.4864e-06	2.7702e-06	272.52	101.2	82.13	32.67	4.4895e-06	45.467	0.0015275	0.0030281	0.00091393	796.99	3.1358e-05	3.6038e-05	837.43	229.69	2.4686e-05	3.6754e-05	276.11	102.37	82.813	33.427	2.9124e-05	46.402	58.742	-113.255	-71.770	-162.001	-34.305	-28.530	-163.547	-157.693	-68.692	-35.826	-159.715	-155.963	-153.838	-149.907	-36.323	-153.121	-8191	255	
1478.121	1	1	0	0	0.31598	0.20854	0.042338	0.30255	0.068061	0.13276	0.27245	0.14454	0.12881	0.083816	0.12699	0.15723	0.18027	0.18813	0.33126	0.097915	-3.1479	-2.5687	-3.5521	-3.3708	-2.9729	-3.7292	-3.0917	-3.3396	-3.4708	-2.8396	-3.6708	-3.6042	-2.9458	-3.6271	-3.0583	-3.2729	125.509	91.510	-64.468	92.014	-143.548	-173.355	167.329	61.224	157.645	-174.119	130.980	-154.049	160.749	-142.618	-74.484	89.130	0.0016491	0.00031221	0.00014699	777.7	4.3803e-06	5.354e-06	827.35	224.95	1.1838e-05	2.8321e-06	271.13	100.05	81.193	32.529	4.8947e-06	45.459	0.0015465	0.003076	0.00091956	788.94	3.1555e-05	3.6142e-05	831.35	227.7	2.5013e-05	3.9307e-05	274.31	101.68	82.083	33.268	2.9277e-05	46.272	60.914	-106.293	-82.217	-162.146	-27.624	-51.648	-163.711	-157.292	-49.399	-61.462	-159.668	-156.044	-153.627	-150.139	-36.455	-152.893	-8191	255	
1478.217	1	1	0	0	0.056724	0.25829	0.12091	0.049897	0.12589	0.27789	0.25437	0.14339	0.13706	0.17999	0.18405	0.14951	0.060899	0.23857	0.07599	0.14866	-3.2604	-2.8812	-3.4042	-3.3667	-2.7042	-3.5854	-3.2313	-3.1604	-3.5083	-2.8208	-3.3521	-3.7708	-2.7917	-3.7958	-3.375	-3.0146	-68.089	104.440	-158.798	125.880	-9.021	-86.100	157.935	-80.372	-100.894	-123.067	51.275	72.045	-30.264	112.996	-125.927	27.911	0.0015618	0.00058357	0.00010711	778.85	5.7239e-06	4.289e-06	828.06	225.18	1.0467e-05	1.0828e-06	273.17	100.8	81.408	32.578	5.2133e-06	45.248	0.0015764	0.0032152	0.00092279	788.47	3.2289e-05	3.8694e-05	833.02	227.59	2.5381e-05	3.9468e-05	274.95	102.08	82.307	33.309	3.0112e-05	46.225	61.781	-97.113	-83.318	-162.330	-32.060	-40.923	-163.541	-157.644	-61.005	39.576	-159.714	-156.187	-153.996	-150.170	-10.225	-152.828	-8191	255	
1478.338	1	1	0	0	0.10527	0.091337	0.36792	0.13878	0.037637	0.11818	0.23373	0.20346	0.18954	0.12226	0.091195	0.23967	0.14178	0.28917	0.076068	0.32117	-3.2396	-2.8604	-3.2833	-3.6229	-2.8042	-3.4979	-3.3812	-3.0312	-3.75	-3.0292	-3.2292	-3.7438	-2.825	-3.7125	-3.2396	-2.7854	-39.158	164.086	47.454	-136.754	-60.884	114.906	138.970	90.226	103.628	132.817	170.774	111.598	-82.345	-151.365	163.006	103.899	0.0015238	0.00042414	0.0001263	776.51	1.5284e-06	2.7581e-06	816.09	221.37	6.4051e-06	3.7639e-06	267.84	100.35	79.996	32.088	9.204e-06	44.768	0.0015845	0.0032423	0.00096311	787.38	3.392e-05	3.8238e-05	825.8	224.03	2.6198e-05	3.9498e-05	271.75	101.38	81.154	32.881	3.1141e-05	45.935	60.348	-84.880	-108.029	-162.038	-22.576	-17.918	-163.690	-157.425	-22.941	-44.656	-159.606	-155.904	-154.057	-149.890	-56.746	-153.016	-8191	255	
1478.434	1	1	0	0	0.17946	0.26171	0.14107	0.28344	0.17907	0.29721	0.13462	0.36432	0.19404	0.10125	0.40159	0.23554	0.059081	0.045178	0.03747	0.011437	-3.1729	-2.9417	-3.0438	-3.9792	-2.7896	-3.3396	-3.5083	-3.0417	-3.6146	-3.2062	-3.1958	-3.7333	-2.8271	-3.4958	-3.6188	-2.8937	78.106	-108.751	168.971	74.855	13.742	111.734	75.889	147.967	94.128	-125.307	-88.824	109.129	124.798	134.711	-128.092	69.291	0.0015539	0.00035477	0.00010641	768.3	4.4207e-06	4.0274e-06	805.55	215.32	1.074e-05	3.6949e-06	260.49	96.394	77.421	31.416	4.3528e-06	43.611	0.001627	0.0032403	0.00095769	779.64	3.2594e-05	3.8448e-05	813.7	218.25	2.6162e-05	4.0208e-05	263.8	98.342	78.802	32.033	2.9807e-05	44.629	57.461	-120.270	-83.069	-162.092	-25.200	-8.222	-163.453	-157.733	-50.094	-29.046	-159.948	-155.989	-154.047	-149.857	-39.677	-152.915	-8191	255	
1478.506	1	1	0	0	0.24198	0.15634	0.16279	0.21942	0.13885	0.17589	0.15963	0.33766	0.18562	0.098551	0.32498	0.17836	0.1797	0.34887	0.29237	0.20697	-3.4375	-3.2521	-3.1625	-3.6667	-2.8896	-3.3479	-3.7646	-2.9542	-3.6729	-3.1813	-2.9167	-3.8812	-3.0354	-3.3146	-3.6104	-3.0333	18.873	59.558	78.107	-4.766	-36.584	142.294	145.445	160.596	126.444	93.840	46.826	55.414	-165.297	142.452	-1.143	141.493	0.0015847	0.00055743	0.00012255	754.99	5.7432e-06	2.3371e-06	793.99	211.41	2.1894e-06	4.3735e-06	254.38	95.396	75.966	30.863	2.211e-06	42.902	0.0015752	0.0031806	0.00096114	767.34	3.29e-05	3.8519e-05	800.79	214.24	2.5318e-05	3.9325e-05	258.59	96.482	77.288	31.569	3.0258e-05	44.046	59.218	-89.362	-99.875	-161.807	-24.227	-64.956	-163.679	-157.556	51.110	-43.469	-159.668	-155.882	-154.088	-149.970	15.749	-153.121	-8191	255	
1478.626	1	1	0	0	0.1009	0.12591	0.12023	0.2103	0.048968	0.19113	0.25642	0.22988	0.26109	0.043169	0.2865	0.26948	0.18929	0.27851	0.029403	0.12584	-3.275	-3.2604	-3.0812	-3.6312	-3.1021	-3.1583	-3.7542	-2.9583	-3.5458	-3.2708	-2.9375	-3.7708	-3.0104	-3.2854	-3.6333	-2.8792	-156.217	48.696	113.854	66.133	-39.353	87.088	180.366	154.222	133.407	120.199	136.428	175.550	-44.307	100.904	-44.123	25.898	0.0015524	0.00058167	8.4545e-05	759.37	2.9733e-06	2.2201e-06	790.82	210.83	5.8154e-06	3.897e-06	254.98	95.402	76.603	30.721	8.1006e-06	43.342	0.00157	0.0032314	0.00095061	767.41	3.379e-05	3.8999e-05	801.75	213.56	2.6818e-05	4.0389e-05	259.51	96.752	77.668	31.59	3.117e-05	44.251	61.969	-80.069	-39.790	-161.834	-27.184	23.667	-163.738	-157.622	-80.190	-22.271	-159.436	-155.975	-154.007	-150.069	-49.519	-153.160	-8191	255	
1478.722	1	1	0	0	0.15605	0.14217	0.21736	0.15375	0.1247	0.14488	0.12658	0.067234	0.10673	0.11435	0.13238	0.36597	0.074359	0.23744	0.15364	0.32223	-3.1271	-3.5167	-2.775	-3.7958	-3.15	-3.0729	-3.8479	-3.0167	-3.4938	-3.5021	-2.9021	-3.7062	-3.2646	-3.0187	-3.6937	-2.9667	-59.772	-119.323	28.924	-131.029	-77.524	41.470	155.471	158.581	-104.175	-10.613	-137.254	-111.586	-145.238	103.296	140.153	97.638	0.0015373	0.00045783	8.0875e-05	758.43	2.6624e-06	4.1307e-06	796.92	211.86	8.8066e-06	3.25e-06	256.92	96.077	77.042	30.855	7.2857e-06	43.5	0.001581	0.0032963	0.001009	769.78	3.3647e-05	3.9451e-05	808.01	215.11	2.6521e-05	4.0087e-05	260.42	97.292	78.044	31.7	3.0862e-05	44.464	60.161	-76.642	-73.454	-161.922	-50.497	-27.972	-163.469	-157.355	-53.416	11.649	-159.785	-155.713	-153.923	-149.861	-33.814	-153.147	-8191	255	
1478.819	1	1	0	0	0.27425	0.18102	0.19182	0.13729	0.077208	0.10214	0.021435	0.17063	0.16558	0.11878	0.39594	0.016455	0.1705	0.066342	0.0351	0.45763	-2.7146	-3.5396	-2.7354	-3.5062	-3.2229	-3.1562	-3.9479	-3.1625	-3.1875	-3.6562	-2.9083	-3.5062	-3.4104	-3.1146	-3.8	-3.2167	-76.179	25.326	-32.351	-134.630	-161.743	92.197	154.748	168.960	165.778	-79.527	148.716	-54.109	103.980	-94.102	6.807	121.621	0.0015419	0.00028742	0.00011576	761.63	2.7002e-06	4.7821e-06	801.2	211.57	8.3488e-06	4.9593e-06	255.89	95.976	76.077	30.902	2.7546e-06	42.956	0.0015736	0.0033259	0.00098097	773.96	3.2811e-05	3.8498e-05	809.35	214.83	2.6708e-05	4.0881e-05	260.11	97.078	77.681	31.676	3.0807e-05	44.08	60.616	-137.717	-56.254	-162.228	-11.880	-24.649	-163.429	-157.463	-24.713	-20.548	-159.471	-155.726	-153.934	-150.027	-63.567	-153.089	-8191	255	
1478.915	1	1	0	0	0.029375	0.054192	0.19269	0.18105	0.06602	0.21151	0.093035	0.1318	0.035084	0.14035	0.25519	0.15288	0.251	0.19819	0.11586	0.047742	-2.7167	-3.7333	-2.8604	-3.5125	-3.5062	-2.9583	-3.7771	-3.2292	-3.2188	-3.7708	-3.0312	-3.6979	-3.4313	-2.8542	-3.6021	-3.1104	145.164	-157.717	137.950	174.717	61.433	-25.736	40.440	-171.026	-51.663	-47.855	150.122	175.819	123.387	-166.377	-127.836	127.426	0.0014868	0.00054748	8.3232e-05	756.39	5.1558e-06	3.5551e-06	791.76	209.5	2.6545e-06	3.7896e-06	254.27	94.584	75.068	30.374	2.8964e-06	42.664	0.0015933	0.0032228	0.00098848	768.5	3.4512e-05	4.1104e-05	801.37	213.01	2.7067e-05	4.154e-05	257.33	95.85	76.978	31.269	3.2417e-05	43.673	61.495	-129.235	-57.675	-161.608	-38.899	7.198	-163.668	-157.660	-36.952	10.847	-159.668	-155.797	-153.651	-150.035	-40.610	-153.030	-8191	255	
1479.034	1	1	0	0	0.23618	0.1167	0.33357	0.050797	0.24201	0.14793	0.052107	0.29567	0.056174	0.20672	0.35104	0.10688	0.21838	0.10864	0.2204	0.14253	-2.6083	-3.6208	-2.825	-3.3708	-3.4938	-2.9167	-3.525	-3.3146	-2.9396	-3.9208	-3.0729	-3.5563	-3.6583	-2.9021	-3.7021	-3.4292	29.453	-60.708	-103.979	-50.351	27.799	-41.072	-163.471	71.300	-159.695	53.797	95.528	-61.616	130.274	134.794	-15.764	-142.879	0.0014309	0.00029506	7.1978e-05	753.56	5.1338e-06	5.0286e-06	795.48	211.82	5.9808e-06	6.3231e-06	255.76	95.065	76.507	30.569	5.5316e-06	42.985	0.0016535	0.0033005	0.0010192	766.21	3.4518e-05	4.1049e-05	805.55	214.22	2.7693e-05	4.1646e-05	259.47	96.427	77.965	31.553	3.2728e-05	44.016	62.500	-101.799	-125.042	-161.619	-59.054	-27.221	-163.414	-157.555	-33.674	-29.383	-159.466	-155.691	-154.178	-149.741	-33.890	-153.127	-8191	255	
1479.105	1	1	0	0	0.2275	0.11219	0.1657	0.047205	0.083247	0.18616	0.17765	0.075011	0.13839	0.23427	0.24725	0.13985	0.30303	0.25482	0.31951	0.17898	-2.6896	-3.7125	-3.1042	-3.4521	-3.7625	-2.8	-3.8958	-3.4271	-2.9979	-3.8042	-3.1875	-3.2604	-3.7604	-2.9333	-3.4313	-3.5792	84.183	-68.218	110.788	-166.951	-125.223	177.809	25.841	-120.838	100.658	55.744	-150.556	-137.664	167.160	145.455	98.706	106.089	0.0015099	0.00033344	9.8014e-05	761.28	1.6555e-06	3.4497e-06	800.6	213.72	9.5353e-06	4.1354e-06	258.19	96.261	77.242	31.018	8.1864e-06	43.272	0.0016343	0.0033011	0.0010322	773.99	3.4183e-05	4.1598e-05	812.04	217.04	2.7588e-05	4.1177e-05	263.21	97.871	78.776	31.902	3.121e-05	44.432	60.079	-47.444	-70.935	-161.931	-65.643	-66.481	-163.325	-157.530	-43.859	-40.334	-160.055	-155.891	-153.997	-149.727	-49.231	-153.024	-8191	255	
1479.201	1	1	0	0	0.076513	0.16911	0.16163	0.25345	0.13933	0.38846	0.016767	0.19327	0.23087	0.077583	0.048082	0.084828	0.069477	0.37055	0.1568	0.13567	-2.4479	-3.7188	-3.1333	-3.3229	-3.8833	-2.9	-3.5167	-3.5625	-2.8583	-3.5667	-3.2375	-3.1458	-3.6312	-2.9833	-3.3646	-3.7625	54.212	-60.608	-168.392	-67.142	-33.115	14.537	39.333	-157.085	-77.062	77.140	108.617	151.316	115.198	-158.543	155.815	-141.571	0.001593	0.00035426	9.2619e-05	761.09	3.6593e-06	3.3541e-06	807.42	216.47	8.194e-06	2.9857e-06	261.45	96.757	78.258	31.094	6.1255e-06	43.484	0.0016478	0.0032595	0.0010033	774.44	3.4345e-05	4.0802e-05	817.95	220.01	2.8335e-05	4.1646e-05	265.31	98.404	79.394	32.082	3.1346e-05	44.471	58.761	-56.725	-94.461	-161.541	-25.267	-28.547	-163.330	-157.538	-31.426	-34.419	-159.701	-155.577	-153.601	-149.696	-31.047	-152.829	-8191	255	
1479.299	1	1	0	0	0.19113	0.032481	0.021332	0.26807	0.19231	0.046225	0.20045	0.12152	0.14887	0.23195	0.17836	0.082677	0.17276	0.14235	0.22505	0.41089	-2.4562	-3.6292	-3.3271	-2.9896	-3.575	-2.9792	-3.4	-3.4437	-3.0708	-3.4667	-3.4125	-2.8979	-3.7333	-3.0604	-3.2125	-3.6125	-156.576	-93.347	-97.635	-7.756	120.240	-146.062	146.007	81.081	-128.991	-35.678	-171.343	-29.267	-89.612	-3.678	-134.166	180.837	0.0015616	0.00032003	8.1207e-05	756.46	6.0622e-06	4.3361e-06	800.6	215.34	1.4055e-05	4.5294e-06	256.65	94.832	76.49	30.752	3.834e-06	42.565	0.0016667	0.0033608	0.0010023	773.73	3.4127e-05	4.1682e-05	808.94	217.91	2.7251e-05	4.1601e-05	261.51	96.569	78.271	31.555	3.1697e-05	43.761	57.777	-73.802	-56.477	-161.842	-61.248	-33.635	-163.422	-157.290	-43.353	-38.253	-159.692	-155.477	-153.757	-149.729	-36.199	-152.785	-8191	255	
1479.418	1	1	0	0	0.20187	0.17228	0.081096	0.22013	0.24038	0.04906	0.21358	0.24879	0.086641	0.31746	0.136	0.044556	0.13075	0.048451	0.14711	0.19802	-2.5729	-3.5042	-3.35	-2.9479	-3.7417	-3.0125	-3.35	-3.7417	-2.9083	-3.4792	-3.5771	-2.9833	-3.8958	-3.325	-3.175	-3.8042	94.664	13.426	41.060	-91.821	115.487	143.451	-20.081	177.818	90.007	84.233	172.310	145.423	-157.621	55.061	-151.939	-158.987	0.0016791	0.0004984	0.00012133	757.24	2.8932e-06	2.8573e-06	793.96	211.25	1.0274e-05	2.6836e-06	253.58	93.215	75.486	30.195	3.9799e-06	41.658	0.0016744	0.0034993	0.001033	768.28	3.4527e-05	4.0976e-05	805.46	215.39	2.7614e-05	4.1331e-05	258.18	94.971	76.978	31.044	3.1404e-05	42.827	61.833	-68.687	-93.464	-161.947	-47.787	-41.442	-163.268	-157.287	-40.864	24.046	-159.610	-155.708	-153.807	-149.973	-46.177	-152.515	-8191	255	
1479.514	1	1	0	0	0.28286	0.22163	0.11918	0.16868	0.12693	0.27957	0.032735	0.1358	0.083285	0.095856	0.19749	0.24625	0.42243	0.14055	0.21226	0.18592	-2.6917	-3.3833	-3.5354	-2.9604	-3.6646	-3.3833	-3.2188	-3.6979	-3.0271	-3.3271	-3.6	-2.8729	-3.7125	-3.4813	-3.1562	-3.8021	123.692	180.833	133.366	-143.538	30.246	-125.795	-87.623	-142.866	21.364	41.290	173.470	155.556	172.025	93.680	110.961	154.678	0.0014255	0.00025181	0.00011874	748.91	3.4784e-06	2.7137e-06	789.42	208.3	9.5588e-06	5.0044e-06	249	91.721	73.288	29.601	3.3303e-06	41.071	0.0016062	0.0032863	0.0009901	765.26	3.2808e-05	3.9229e-05	797.24	212.23	2.688e-05	4.1454e-05	253.4	93.068	75.096	30.505	3.025e-05	42.133	60.887	-110.214	-82.094	-161.649	-28.119	-30.262	-163.289	-157.385	-56.232	-30.156	-159.922	-155.706	-153.451	-149.759	-68.807	-152.878	-8191	255	
1479.611	1	1	0	0	0.22297	0.046456	0.10541	0.098021	0.23091	0.071206	0.1537	0.095762	0.14031	0.044255	0.2106	0.083353	0.20755	0.29055	0.17876	0.16545	-2.5312	-3.2458	-3.6979	-2.9188	-3.5854	-3.4229	-3.0729	-3.8708	-3.0854	-3.3792	-3.65	-2.9417	-3.5438	-3.4604	-2.9167	-3.875	-47.750	135.321	-62.069	150.528	155.180	-23.788	19.745	-6.753	14.769	57.495	-111.343	121.997	74.986	128.720	-85.844	98.627	0.0014525	0.00037055	0.00012783	747.75	5.5323e-06	4.7376e-06	787.48	206.56	7.7254e-06	4.4971e-06	245.5	88.779	71.236	28.739	3.837e-06	39.793	0.0015366	0.003078	0.000939	763.97	3.2686e-05	3.7616e-05	794.77	209.49	2.6867e-05	3.9899e-05	249.7	90.586	73.04	29.564	2.9987e-05	40.754	60.467	-87.344	-95.896	-161.951	-10.971	-37.056	-163.452	-157.597	-31.367	-7.185	-159.955	-155.560	-154.031	-149.832	-40.232	-152.802	-8191	255	
1479.707	1	1	0	0	0.25224	0.21871	0.072103	0.12364	0.32485	0.10777	0.032359	0.10977	0.12145	0.18972	0.07694	0.10996	0.038235	0.16781	0.15291	0.18796	-2.7917	-3.1729	-3.9062	-2.7646	-3.6083	-3.4604	-3.2146	-3.7896	-3.025	-3.0979	-3.9625	-3.1042	-3.3771	-3.5333	-2.8604	-3.8604	-128.120	-99.232	2.061	127.892	-165.118	135.421	-51.183	-35.166	89.204	-52.595	-48.229	-103.760	-143.610	-147.460	24.726	60.852	0.0014442	0.00025781	0.00013777	742.51	3.7785e-06	3.144e-06	772.16	200.04	9.5401e-06	6.9726e-07	234.5	84.245	68.135	27.643	5.35e-06	37.701	0.0016011	0.003184	0.00091655	757.62	3.1212e-05	3.6496e-05	781.2	202.86	2.6361e-05	3.9399e-05	238.87	85.592	69.527	28.387	2.9543e-05	38.796	59.328	-96.299	-41.745	-161.804	20.858	-13.267	-163.490	-157.130	-59.936	-109.715	-159.822	-155.690	-153.612	-149.898	-70.730	-152.673	-8191	255	
1479.803	1	1	0	0	0.16591	0.30503	0.20162	0.063079	0.16096	0.14656	0.068385	0.14069	0.28475	0.039466	0.13217	0.23531	0.15715	0.11531	0.13902	0.21649	-2.9333	-3.0479	-3.5375	-2.9771	-3.4146	-3.5708	-3.0021	-3.5271	-3.3021	-2.9021	-3.8979	-3.0104	-3.5458	-3.7583	-2.775	-3.7271	-148.762	75.359	-92.551	-144.106	-81.849	99.639	-150.619	90.564	-9.864	65.595	84.144	180.057	52.885	179.410	100.613	-64.863	0.0012589	0.00036873	5.0743e-05	733.85	3.2252e-06	5.7245e-07	757.68	194.72	5.4465e-06	2.9739e-06	227.67	81.2	65.643	26.906	8.0795e-07	36.967	0.0014857	0.0031	0.00090454	749.97	3.128e-05	3.7282e-05	769.03	197.48	2.581e-05	3.8857e-05	231.59	82.706	67.319	27.569	3.0116e-05	37.996	58.547	-96.169	-66.533	-161.820	-69.260	-67.540	-163.446	-157.502	-41.621	-39.658	-159.576	-155.591	-153.132	-150.197	-73.103	-152.651	-8191	255	
1479.899	1	1	0	0	0.14589	0.21293	0.22868	0.085801	0.095044	0.14135	0.25345	0.030354	0.074583	0.098433	0.049504	0.22053	0.10863	0.11779	0.11423	0.18843	-3	-2.9917	-3.7708	-3.1083	-3.35	-3.7458	-2.9333	-3.5396	-3.3937	-2.7687	-3.7979	-3.1063	-3.3646	-3.7479	-2.9167	-3.5979	-146.242	-67.788	-138.502	-149.034	140.713	-121.570	-150.636	96.446	122.401	36.991	161.245	76.637	106.467	65.495	0.376	-82.827	0.0012634	0.00040434	7.649e-05	727.56	3.7368e-06	6.2893e-06	756.5	191.9	7.1785e-06	1.2605e-06	224.83	80.652	65.665	26.593	4.5301e-06	36.864	0.0014513	0.0031368	0.00092799	744.64	3.1676e-05	3.5824e-05	763.17	194.58	2.5265e-05	3.8987e-05	228.19	82.074	66.902	27.352	2.9098e-05	37.793	54.648	-104.505	-115.345	-161.923	-17.294	-33.728	-163.445	-157.176	-22.647	-12.803	-159.729	-155.619	-153.944	-149.682	-46.281	-152.538	-8191	255	
1480.020	1	1	0	0	0.067766	0.094541	0.12028	0.19353	0.136	0.16274	0.14087	0.18779	0.10224	0.061906	0.11857	0.13756	0.13129	0.21971	0.11861	0.2691	-3.1208	-2.9938	-3.625	-3.25	-3.05	-3.8042	-2.9688	-3.4292	-3.4333	-2.9542	-3.6125	-3.2583	-2.9875	-3.8146	-2.9437	-3.2625	-79.541	0.348	-48.118	-112.954	64.814	29.020	-68.231	139.481	60.509	37.977	-137.029	33.016	-168.370	-163.377	-83.302	25.129	0.0012935	0.00055417	0.0001028	737.4	2.759e-06	4.2104e-07	758.79	192.58	7.4192e-06	3.8479e-06	229.07	82.431	67.556	27.398	3.3301e-06	37.742	0.0014712	0.0031222	0.00091825	746.69	3.1509e-05	3.6075e-05	766.13	195.7	2.5415e-05	3.8512e-05	231.99	83.997	68.752	28.1	2.9706e-05	38.653	57.455	-85.638	-127.687	-162.271	-59.001	105.158	-163.864	-157.278	-57.427	-38.430	-159.694	-155.720	-153.680	-149.493	-56.325	-152.565	-8191	255	
1480.114	1	1	0	0	0.10596	0.26323	0.12276	0.1295	0.24476	0.083595	0.079298	0.35213	0.20057	0.21754	0.16389	0.16644	0.061119	0.14823	0.161	0.20573	-3.2271	-2.8271	-3.4896	-3.3271	-2.9188	-3.8187	-3.2	-3.2146	-3.5833	-2.7167	-3.6667	-3.4208	-3.0563	-3.8792	-2.9417	-3.2854	72.130	-126.491	-8.643	-71.366	100.374	3.497	41.740	116.232	-63.993	-76.673	55.546	92.657	55.957	-49.280	102.968	27.138	0.0013256	0.00045587	0.0001218	740.15	6.005e-06	4.3318e-06	758.85	197.81	5.8848e-06	4.7282e-06	233.25	84.414	69.589	27.828	6.1274e-06	37.944	0.0015061	0.00324	0.00092301	749.84	3.1199e-05	3.8658e-05	769.43	201	2.5114e-05	3.9395e-05	237.33	85.949	70.804	28.671	2.9692e-05	39.011	60.950	-84.596	-66.691	-161.632	-24.201	-41.414	-163.553	-157.218	-64.817	-24.942	-159.390	-155.423	-153.156	-149.641	-78.819	-152.777	-8191	255	
1480.210	1	1	0	0	0.43914	0.22236	0.030509	0.1192	0.089129	0.14532	0.10167	0.041758	0.078798	0.070049	0.23142	0.16897	0.1752	0.26185	0.25434	0.1591	-3.3625	-2.8083	-3.5104	-3.5396	-2.8125	-3.8583	-3.2729	-3.3875	-3.6042	-3.0833	-3.5062	-3.7313	-2.9271	-3.7646	-3.2438	-3.1167	101.878	16.570	-116.558	78.870	139.853	-22.537	160.288	-165.719	3.293	-159.118	153.180	176.091	154.025	-124.354	46.990	103.752	0.0013502	0.00035915	6.5961e-05	736.75	4.3101e-06	4.2789e-06	765.46	201.57	6.6705e-06	3.2724e-06	236.63	86.365	70.724	28.648	5.514e-06	39.025	0.0014813	0.0030381	0.00094157	754.65	3.2017e-05	3.6297e-05	776.29	204.91	2.5064e-05	3.9452e-05	241.86	88.088	72.528	29.402	2.9219e-05	40.033	57.917	-135.306	-124.977	-161.771	-19.686	-27.784	-163.489	-157.354	-45.879	-22.389	-159.904	-155.568	-153.513	-149.561	-36.274	-152.452	-8191	255	
1480.331	1	1	0	0	0.033956	0.11478	0.24638	0.11266	0.15032	0.12356	0.215	0.040024	0.13719	0.42623	0.23097	0.18791	0.066307	0.16051	0.33098	0.075258	-3.4	-3.0396	-3.4708	-3.5042	-2.9062	-3.5167	-3.2729	-3.0354	-3.8458	-2.8729	-3.4271	-3.6771	-3.0938	-3.6188	-3.4021	-2.8792	-57.828	94.333	29.855	-126.107	-130.784	69.456	84.933	-16.410	-49.805	-117.034	-82.197	71.754	28.088	87.173	-156.044	42.197	0.0014365	0.00020912	0.00011377	743.36	3.5696e-06	2.648e-06	778.33	207.38	9.1872e-06	2.2011e-06	243.71	89.25	73.515	29.31	4.1213e-06	39.838	0.0014695	0.0029552	0.00093109	757.35	3.1719e-05	3.6542e-05	787.13	210.1	2.5397e-05	3.7923e-05	248.31	90.913	75.022	30.096	3.0714e-05	41.064	61.940	-51.303	-98.050	-161.505	-2.698	-32.795	-163.408	-157.263	-40.406	-13.493	-159.519	-155.544	-153.952	-149.524	-6.751	-152.461	-8191	255	
1480.402	1	1	0	0	0.14782	0.30109	0.16602	0.11413	0.11214	0.17044	0.053295	0.068255	0.087883	0.18825	0.055287	0.26343	0.14088	0.16316	0.089607	0.41	-3.3688	-2.8354	-3.2042	-3.5958	-2.8563	-3.6042	-3.4062	-3.0792	-3.6521	-3.1229	-3.225	-3.7438	-2.8396	-3.6667	-3.4125	-3.05	-113.775	-89.643	-143.080	-166.438	102.934	-15.222	-174.034	40.855	-28.472	19.574	64.605	96.231	172.807	-116.584	-38.512	123.521	0.0013884	0.00028273	0.0001064	751.93	4.2432e-06	5.0212e-06	789.4	210.57	1.2587e-05	3.0994e-06	249.29	91.305	74.974	29.795	3.8086e-06	40.546	0.0015	0.0030388	0.00092432	766.17	3.1515e-05	3.6624e-05	798.57	214.48	2.5197e-05	3.8375e-05	254.36	93.271	76.795	30.653	2.8244e-05	41.718	58.982	-119.171	-85.818	-161.267	-10.662	-36.563	-163.358	-157.139	-62.826	6.737	-159.434	-155.574	-153.758	-149.299	-76.110	-152.526	-8191	255	
1480.499	1	1	0	0	0.19771	0.077977	0.042145	0.26384	0.1367	0.028473	0.2874	0.10633	0.1257	0.23756	0.16306	0.10814	0.25635	0.10211	0.36316	0.20551	-3.3979	-3.0396	-3.1	-3.6708	-2.8292	-3.5104	-3.625	-2.9708	-3.6729	-3.2208	-2.8917	-3.7687	-2.9667	-3.4479	-3.3937	-2.9333	180.401	76.347	125.838	46.744	-119.943	101.195	120.918	65.412	139.707	59.583	-114.305	-26.404	123.664	-86.020	163.573	113.162	0.0014477	0.00025965	9.2959e-05	754.17	2.2572e-06	2.2757e-06	788.28	212.31	1.125e-05	5.4922e-06	250.02	91.392	75.647	29.908	5.4792e-06	40.672	0.0015314	0.0031032	0.00090925	770.21	3.1435e-05	3.7179e-05	797.91	216.05	2.4739e-05	3.7921e-05	254.62	93.512	77.348	30.813	2.8823e-05	41.799	60.654	-79.864	-68.982	-161.570	-25.216	-3.600	-163.372	-157.174	-45.868	-17.395	-159.456	-155.666	-153.545	-149.424	-1.391	-152.460	-8191	255	
1480.595	1	1	0	0	0.12607	0.14964	0.054941	0.11777	0.11613	0.20157	0.44647	0.22406	0.061321	0.1198	0.11511	0.19242	0.14359	0.11457	0.17852	0.16508	-3.375	-3.1708	-2.875	-3.7	-2.8083	-3.1271	-3.5938	-2.9917	-3.5333	-3.3875	-3.0938	-3.6562	-3.0312	-3.2604	-3.6667	-3.0479	-103.402	-78.306	-1.661	-134.989	36.515	-12.671	159.516	129.752	-150.714	32.359	-141.122	-129.741	136.989	178.591	-71.662	122.824	0.001533	0.00057995	0.00011909	758.11	4.2885e-06	2.4839e-06	790.21	214.18	9.15e-06	2.7859e-06	252.31	92.433	76.044	30.265	4.9211e-06	41.187	0.0015114	0.0030682	0.00092445	770.84	3.1237e-05	3.6601e-05	800.47	218.05	2.5138e-05	3.9261e-05	257.48	94.477	78.109	31.162	2.8402e-05	42.381	58.392	-81.770	-81.012	-161.536	-29.462	-23.794	-163.074	-157.227	-52.192	-31.965	-159.670	-155.560	-153.410	-149.464	-41.355	-152.169	-8191	255	
1480.715	1	1	0	0	0.22491	0.086081	0.1275	0.08464	0.031233	0.1616	0.2673	0.14022	0.15834	0.20322	0.33317	0.12717	0.18501	0.054588	0.2372	0.24661	-3.0479	-3.3542	-2.8042	-3.7313	-2.9813	-3.3563	-3.9542	-3.0146	-3.4708	-3.4188	-3.1208	-3.7854	-3.0979	-3.1792	-3.55	-3.1	10.594	-34.183	55.028	14.205	125.376	149.230	93.939	107.239	-159.486	57.310	-159.712	-160.464	-169.604	-165.780	-123.554	124.461	0.001503	0.00044063	0.00013196	756.89	4.3826e-06	4.1454e-06	792.22	215.86	8.0372e-06	2.1711e-06	256.14	93.722	77.38	30.335	2.9607e-06	41.783	0.0015389	0.0030341	0.00092148	774.63	3.137e-05	3.6638e-05	807.83	220.39	2.4679e-05	3.7395e-05	260.26	95.518	79.052	31.376	2.8891e-05	42.926	59.975	-101.779	-68.685	-161.754	-39.403	-33.928	-163.283	-157.151	-70.549	-16.987	-159.742	-155.729	-153.171	-149.317	-42.889	-152.437	-8191	255	
1480.812	1	1	0	0	0.28628	0.048705	0.16565	0.021837	0.18895	0.038101	0.20978	0.21505	0.042995	0.14996	0.35952	0.090642	0.079718	0.22526	0.0085412	0.27712	-2.8729	-3.4375	-2.6833	-3.6375	-3.1333	-3.3083	-3.7292	-3.0563	-3.2271	-3.5083	-3.0979	-3.6854	-3.2583	-3.1188	-3.6083	-3.1333	168.891	-97.155	167.961	-108.790	96.136	-117.450	113.619	128.720	-142.271	-131.023	144.052	-167.000	-34.552	108.951	90.643	128.577	0.0014421	0.00033938	0.00014055	760.95	3.1425e-06	7.705e-06	798.87	218.45	1.0714e-05	3.5624e-06	258.19	94.871	77.867	30.844	4.3913e-06	41.939	0.0015295	0.0029178	0.00090974	778.79	3.1053e-05	3.778e-05	811.13	222.64	2.4918e-05	3.733e-05	262.15	96.734	79.76	31.652	2.9573e-05	43.173	57.320	-67.482	-70.949	-161.791	-8.354	-25.588	-163.376	-157.048	-29.238	-14.985	-159.650	-155.318	-153.567	-149.323	-12.530	-152.620	-8191	255	
1480.908	1	1	0	0	0.2294	0.16005	0.30378	0.19746	0.25889	0.10419	0.14724	0.35366	0.22093	0.058913	0.2867	0.15691	0.32104	0.27261	0.21634	0.053097	-3.0979	-3.5646	-2.8854	-3.6271	-3.3583	-3.1042	-3.7854	-3.2333	-3.2896	-3.8396	-3.1396	-3.6937	-3.4875	-2.9667	-3.6833	-3.1333	151.381	-90.486	12.953	-82.063	179.276	55.084	179.558	99.238	78.877	140.963	179.771	-139.555	171.868	45.659	113.822	155.823	0.0013268	0.00024561	0.0001277	758.39	3.9396e-06	2.9569e-06	792.58	217.89	6.3328e-06	3.0787e-06	254.5	93.997	77.869	30.468	2.6239e-06	41.447	0.0015406	0.002985	0.0009124	775.44	3.1325e-05	3.597e-05	807.13	221.15	2.5803e-05	3.6595e-05	259.76	95.73	79.385	31.334	2.7789e-05	42.852	61.004	-106.634	-47.147	-161.230	-35.787	-41.468	-163.423	-157.327	-49.765	67.049	-159.637	-155.651	-153.405	-149.493	-22.002	-152.438	-8191	255	
1480.979	1	1	0	0	0.18731	0.18411	0.086098	0.082105	0.17965	0.079798	0.098387	0.24396	0.16727	0.14239	0.26319	0.1073	0.20943	0.24893	0.11778	0.22778	-2.6104	-3.6896	-2.9271	-3.4271	-3.525	-3.1896	-3.6437	-3.3187	-3.0271	-3.7896	-3.2188	-3.6104	-3.6333	-2.8917	-3.6937	-3.4792	28.442	-123.941	83.249	-108.429	-42.235	77.378	37.663	69.593	-136.419	87.469	120.329	88.839	109.948	-169.034	-142.734	160.008	0.0014291	0.00022314	0.00014886	761.03	4.0898e-06	3.0951e-06	793.11	215.86	7.6703e-06	2.8109e-06	252.55	93.944	77.154	30.399	6.5279e-06	41.474	0.0015147	0.0029621	0.00090738	778.18	3.1322e-05	3.6539e-05	806	220.85	2.579e-05	3.6503e-05	258.57	95.518	79.323	31.385	2.9276e-05	42.852	58.808	-103.222	-67.881	-161.683	-37.656	-25.840	-163.130	-157.306	-36.566	-8.932	-159.024	-155.456	-153.757	-149.277	-33.377	-152.399	-8191	255	
1481.098	1	1	0	0	0.10792	0.20196	0.25723	0.29898	0.13435	0.15987	0.054648	0.11103	0.10414	0.18125	0.043303	0.30039	0.12102	0.24279	0.32926	0.27662	-2.6792	-3.7042	-2.9271	-3.2854	-3.5417	-2.9479	-3.7083	-3.4396	-2.7667	-3.8771	-2.9875	-3.3458	-3.7708	-3.0521	-3.4354	-3.4729	127.201	-145.212	84.863	131.739	-51.660	-3.900	133.579	125.780	-86.503	-67.376	149.177	110.060	-80.286	-149.654	-113.384	126.708	0.0014791	0.00027802	9.9117e-05	759.36	2.1665e-06	2.7889e-06	794.37	217.13	7.5543e-06	3.6704e-06	253.69	94.074	77.441	30.616	5.4635e-06	42.018	0.0015213	0.002971	0.00093026	778.49	3.1096e-05	3.6484e-05	807.04	222.15	2.5281e-05	3.7431e-05	260.28	96.093	79.33	31.588	2.8177e-05	43.2	59.963	-123.809	-79.752	-161.270	-63.347	-38.953	-162.736	-156.937	-24.244	-17.087	-159.374	-155.087	-153.374	-149.182	-69.892	-152.528	-8191	255	
1481.194	1	1	0	0	0.13719	0.20526	0.050081	0.23517	0.21736	0.10009	0.26906	0.22751	0.020287	0.13588	0.3425	0.18198	0.13741	0.12169	0.20943	0.24249	-2.6458	-3.6708	-2.9813	-3.1146	-3.5854	-2.9292	-3.4708	-3.4396	-2.9375	-3.6562	-3.2062	-3.0771	-3.6937	-3.025	-3.4521	-3.675	154.756	52.343	5.160	138.604	120.049	123.696	71.180	142.821	-77.101	134.731	131.104	-173.436	-139.110	-171.817	-97.081	-174.267	0.0014307	0.00034222	8.7582e-05	762.51	3.6007e-06	3.0432e-06	794.09	218.26	1.022e-05	4.3575e-06	255.01	94.919	77.979	30.707	6.1362e-06	42.233	0.0015097	0.0030169	0.00090113	782.01	3.0546e-05	3.6942e-05	811.29	222.91	2.5542e-05	3.7286e-05	261.25	96.871	79.996	31.66	2.9089e-05	43.444	60.456	-82.046	-45.056	-161.808	-28.878	-43.121	-163.165	-156.880	-44.701	-30.892	-159.320	-155.332	-153.366	-149.287	-9.393	-152.411	-8191	255	
1481.291	1	1	0	0	0.13202	0.12488	0.096828	0.31468	0.12144	0.14301	0.36307	0.10262	0.31643	0.18122	0.079811	0.14451	0.1986	0.14208	0.11631	0.079789	-2.5083	-3.4313	-3.1125	-2.9875	-3.7438	-2.9562	-3.475	-3.5792	-2.6958	-3.5896	-3.3417	-3.2	-3.8187	-3.2042	-3.3208	-3.6083	-173.629	-1.555	-147.380	103.648	-93.708	55.531	160.627	131.652	146.074	-18.716	149.038	-116.970	4.349	150.857	74.296	172.807	0.0014478	0.00050518	0.00013735	765.71	4.186e-06	4.6659e-06	792.45	217.42	8.4448e-06	4.7364e-06	253.11	93.282	77.301	30.319	3.0765e-06	41.362	0.0015149	0.0030144	0.00090974	777.6	3.0725e-05	3.837e-05	805.51	221.78	2.5166e-05	3.7404e-05	258.34	95.388	79.066	31.333	2.9474e-05	42.697	59.653	-71.635	-67.294	-161.605	-2.946	-45.231	-162.953	-156.924	-38.092	-23.853	-159.552	-155.219	-153.218	-149.002	-42.639	-152.553	-8191	255	
1481.411	1	1	0	0	0.27844	0.12646	0.17083	0.10653	0.16555	0.17491	0.15202	0.3938	0.16535	0.15446	0.18777	0.14272	0.16855	0.14932	0.35491	0.065123	-2.4896	-3.7917	-3.5083	-3.1688	-3.75	-3.1188	-3.4313	-3.7687	-2.8542	-3.7771	-3.4521	-3.1271	-3.8854	-3.1021	-3.1104	-3.8271	-77.674	16.794	66.330	-170.782	-143.351	-106.039	62.755	164.543	-13.591	126.925	-151.009	172.087	86.542	-168.810	-118.572	95.878	0.0014548	0.00050355	9.531e-05	756.1	5.454e-06	5.3985e-06	789.04	215.53	1.2817e-05	5.8888e-06	251.33	92.696	76.888	30.215	5.5494e-06	41.502	0.0015148	0.003	0.00090332	774.91	3.1221e-05	3.7193e-05	802.18	220.72	2.5249e-05	3.7374e-05	257.45	94.905	78.925	31.307	2.8927e-05	42.729	61.164	-70.635	-103.224	-161.271	-30.351	-20.380	-162.897	-157.259	-47.686	-27.644	-159.546	-155.046	-153.165	-149.177	-43.285	-152.184	-8191	255	
1481.507	1	1	0	0	0.097949	0.13983	0.10197	0.35192	0.1241	0.067134	0.15394	0.068919	0.11312	0.096245	0.18638	0.33732	0.17119	0.15582	0.067924	0.1485	-2.4667	-3.6271	-3.5042	-2.9813	-3.5312	-2.9479	-3.3146	-3.7271	-3.0687	-3.3312	-3.4229	-3.0125	-3.7333	-3.3458	-3.0208	-3.7292	78.222	162.507	50.379	158.614	-132.738	-138.624	-70.572	85.126	138.837	-3.979	178.441	169.654	160.752	104.559	170.353	63.618	0.0014182	0.00045761	0.00013422	755.21	2.3849e-06	4.5439e-06	789.56	216.51	6.9781e-06	3.0909e-06	251.91	93.273	76.808	30.418	2.8345e-06	41.946	0.0014853	0.0029867	0.00087226	776.02	3.071e-05	3.6306e-05	803.5	221.5	2.4289e-05	3.7363e-05	257.94	95.417	79.096	31.449	2.9035e-05	43.156	60.477	-115.786	-80.054	-160.945	-50.222	-22.418	-163.126	-156.886	-42.541	-15.163	-159.392	-155.293	-153.492	-149.165	-23.879	-152.440	-8191	255	
1481.603	1	1	0	0	0.25571	0.1348	0.15987	0.17089	0.20035	0.18864	0.14898	0.15257	0.1984	0.18616	0.027499	0.16084	0.078426	0.2072	0.17611	0.16263	-2.5375	-3.4292	-3.4625	-2.9833	-3.5563	-3.3312	-3.0187	-3.7354	-2.9896	-3.3146	-3.5812	-2.9792	-3.3979	-3.4104	-2.9333	-3.6667	105.061	175.809	-21.632	-146.266	127.450	52.786	100.527	141.246	-8.760	175.577	21.429	156.543	143.400	140.385	133.970	172.671	0.0014402	0.0004161	0.00010994	756.2	3.84e-06	4.6193e-06	793.81	217.31	5.8801e-06	3.4241e-06	254.95	93.409	77.319	30.53	6.1279e-06	41.761	0.001466	0.0029436	0.00089213	778.41	2.941e-05	3.5522e-05	808.27	222.14	2.4436e-05	3.783e-05	260.2	96.001	79.731	31.628	2.7648e-05	43.356	61.825	-104.088	-72.640	-161.019	-4.607	-23.337	-162.873	-157.100	-16.363	-53.475	-159.543	-154.993	-152.896	-149.034	-33.688	-151.996	-8191	255	
1481.700	1	1	0	0	0.033278	0.32461	0.18203	0.12052	0.04601	0.10915	0.14504	0.13829	0.099905	0.30993	0.24788	0.37314	0.11847	0.35382	0.41458	0.16836	-2.65	-3.1125	-3.5479	-2.9292	-3.5292	-3.3625	-3.0854	-3.5917	-3.1688	-3.2146	-3.6979	-3.0333	-3.5604	-3.6021	-2.8021	-3.7687	24.430	95.135	11.809	124.037	141.050	61.900	11.335	162.659	29.265	166.544	134.676	141.450	97.518	180.128	85.199	169.224	0.0014565	0.00018746	7.544e-05	753.6	1.6521e-06	1.8658e-06	790.28	216.54	9.8785e-06	2.5995e-06	252.26	93.929	77.524	30.494	6.0662e-06	42.18	0.0014993	0.0029271	0.00084794	776.61	2.9659e-05	3.432e-05	806.58	222.38	2.3754e-05	3.6046e-05	259.39	96.225	79.666	31.666	2.7537e-05	43.517	58.136	-73.950	-67.039	-161.428	27.466	-9.973	-162.819	-156.745	-44.412	-60.983	-159.343	-155.058	-153.369	-149.132	-50.052	-152.069	-8191	255	
1481.796	1	1	0	0	0.061636	0.01194	0.23298	0.094686	0.1125	0.083199	0.23206	0.4031	0.094346	0.12015	0.30822	0.21278	0.20192	0.17961	0.18648	0.23889	-2.7521	-2.9167	-3.4875	-2.9979	-3.3771	-3.4437	-3.1208	-3.8375	-3.1354	-3.1479	-3.75	-3.0021	-3.2167	-3.6083	-2.7083	-3.7104	-52.662	87.949	91.905	-136.671	96.483	-29.365	136.592	179.149	-25.078	-48.675	176.319	-165.454	124.133	-113.567	-48.229	183.235	0.0016409	0.00032062	9.8126e-05	754.55	4.6175e-06	3.6671e-06	792.45	217.46	1.2723e-05	3.1545e-06	253.46	94.549	77.165	30.904	6.6852e-06	42.389	0.0015087	0.0028828	0.00083929	775.28	3.008e-05	3.4695e-05	807.42	223.13	2.3942e-05	3.6138e-05	260.49	97.042	79.941	31.924	2.898e-05	43.864	60.641	-101.837	-46.118	-160.724	-20.452	10.447	-162.895	-156.730	-41.220	-50.427	-158.997	-155.260	-152.944	-148.918	-26.418	-152.045	-8191	255	
1481.892	1	1	0	0	0.053087	0.13324	0.1282	0.20083	0.13048	0.13436	0.08091	0.30854	0.061517	0.08152	0.31499	0.041745	0.1804	0.2811	0.29643	0.02613	-2.8729	-3.0104	-3.6688	-2.8354	-3.3375	-3.6875	-3.0271	-3.6354	-3.3396	-3.15	-3.675	-3.2062	-3.2479	-3.7583	-2.9417	-3.5083	164.782	179.517	49.087	-136.364	30.193	-109.859	-123.828	112.184	161.731	-7.565	170.880	-15.313	178.558	-96.735	96.407	-127.814	0.0016197	0.00039553	0.00015491	757.5	1.8586e-06	3.8536e-06	796.44	218.41	9.1987e-06	3.85e-06	257.29	95.736	78.858	31.233	3.7284e-06	43.263	0.0014767	0.0028962	0.0008589	780.46	2.9504e-05	3.3901e-05	812.88	224.13	2.3835e-05	3.6651e-05	263.18	98.05	80.981	32.312	2.7269e-05	44.734	60.194	-91.157	-102.639	-161.414	-35.276	-15.623	-163.019	-156.771	-50.425	-60.472	-159.229	-155.393	-153.186	-148.720	-52.037	-151.910	-8191	255	
1482.013	1	1	0	0	0.16322	0.26552	0.16383	0.059195	0.080079	0.20708	0.060396	0.12282	0.15728	0.11665	0.1971	0.19627	0.19498	0.10441	0.18987	0.10659	-3.0021	-2.7833	-3.8271	-3.0458	-3.025	-3.6188	-3.0604	-3.4958	-3.4062	-2.8937	-3.7062	-3.1771	-3.0083	-3.7792	-2.9958	-3.3729	-171.684	130.311	-134.653	-153.237	-156.242	81.960	-5.050	119.810	169.142	-119.011	86.788	155.004	123.882	164.328	41.936	-134.632	0.0015749	0.00011365	0.00013188	765.4	3.3455e-06	4.0882e-06	805.97	221.82	7.3339e-06	3.3721e-06	261.68	97.694	80.255	31.737	4.3757e-06	44.6	0.001484	0.0028796	0.00083296	784.06	2.9656e-05	3.4258e-05	822.33	227.05	2.2675e-05	3.5029e-05	267.59	100.16	82.345	33.008	2.7519e-05	46.283	63.412	-62.134	-78.228	-161.219	-67.271	1.805	-162.820	-156.741	-34.919	-3.721	-159.353	-154.944	-152.931	-148.410	-58.929	-151.499	-8191	255	
1482.107	1	1	0	0	0.0097119	0.20083	0.1293	0.13573	0.14947	0.29995	0.2686	0.15585	0.071409	0.11895	0.10827	0.16928	0.084546	0.15972	0.27107	0.24277	-3.3042	-2.9208	-3.4625	-3.2104	-3.1083	-3.6396	-2.9583	-3.2604	-3.5875	-2.8646	-3.5271	-3.5062	-2.8479	-3.825	-2.8542	-3.1667	108.479	49.068	-50.919	133.146	-27.865	-9.626	65.390	42.323	106.724	-84.660	-93.394	93.474	-90.696	164.506	103.873	152.712	0.0015536	0.00040379	0.00013614	775.61	3.7774e-06	5.9774e-06	811.01	221.23	8.12e-06	4.1133e-06	260.61	97.986	79.07	32.352	6.9401e-06	45.824	0.0014852	0.0028504	0.00087536	791.92	3.0603e-05	3.5033e-05	829.4	227.37	2.4891e-05	3.8151e-05	268.5	100.67	82.159	33.701	2.9915e-05	47.535	60.267	-93.842	-91.713	-161.177	-15.419	-31.673	-162.544	-156.336	-52.208	-1.283	-158.642	-154.887	-152.567	-148.193	-48.308	-151.353	-8191	255	
1482.203	1	1	0	0	0.043219	0.014783	0.3153	0.18279	0.058787	0.106	0.020771	0.29612	0.048424	0.21668	0.10417	0.31492	0.23516	0.13164	0.073487	0.032575	-3.1396	-2.8333	-3.4354	-3.45	-2.8875	-3.7521	-3.1021	-3.3167	-3.5083	-2.9104	-3.6458	-3.4833	-2.7958	-3.5687	-3.15	-3.2375	23.162	183.302	-14.286	-73.364	170.120	-41.579	148.216	72.782	-95.352	-90.666	-0.106	-163.780	-19.134	111.526	-154.116	-85.874	0.0015482	0.00058379	9.0207e-05	758.54	2.1119e-06	3.3637e-06	800.68	217.95	5.1378e-06	3.2699e-06	257.82	96.787	78.064	33.124	7.1833e-06	46.836	0.0015794	0.0032387	0.00094764	782.66	3.3461e-05	4.0269e-05	819.27	223.62	2.7003e-05	4.1698e-05	265.78	99.515	80.646	34.431	3.34e-05	48.654	62.300	-98.778	-65.299	-160.764	6.697	-9.721	-162.240	-156.129	-52.521	18.166	-158.211	-154.059	-152.748	-148.025	-41.695	-151.185	-8191	255	
1482.275	1	1	0	0	0.22588	0.3609	0.049123	0.17413	0.12983	0.21566	0.20692	0.12676	0.24693	0.14216	0.11617	0.16655	0.10586	0.085609	0.28856	0.18733	-3.3104	-2.8667	-3.5083	-3.575	-2.8375	-3.7104	-3.3104	-3.1021	-3.7646	-2.9771	-3.3187	-3.5917	-3.0479	-3.7438	-3.2625	-3.1167	120.845	172.906	-58.585	177.149	-67.729	-112.832	171.220	185.404	-32.893	-60.383	-156.473	157.535	-128.862	179.134	-1.553	135.462	0.0017023	0.00027374	0.0002143	743.42	4.5389e-06	4.9715e-06	788.95	211.71	1.0948e-05	2.8329e-06	253.18	95.268	76.966	33.6	5.1581e-06	47.612	0.0017161	0.003456	0.0010861	768.84	3.8484e-05	4.2304e-05	806.95	218.12	3.0381e-05	4.6056e-05	260.97	98.193	79.254	34.988	3.7265e-05	49.617	60.364	-106.304	-76.239	-160.323	-78.920	-15.840	-162.401	-155.879	-50.007	-72.452	-158.184	-154.262	-151.899	-147.754	-32.380	-151.028	-8191	255	
1482.395	1	1	0	0	0.071387	0.046279	0.14821	0.10454	0.12711	0.17858	0.050278	0.24846	0.17131	0.082213	0.21419	0.38497	0.12932	0.33377	0.030802	0.098875	-3.4125	-3.0187	-3.2396	-3.5625	-2.8292	-3.6562	-3.3542	-2.8479	-3.6021	-3.0667	-3.3396	-3.5958	-2.9104	-3.7333	-3.5646	-2.9646	-103.858	91.562	-171.016	156.070	-56.302	3.195	117.984	158.017	41.065	-115.745	82.853	151.734	-20.687	141.927	80.490	181.789	0.0017372	0.00035624	0.00014076	723.72	5.8368e-06	5.4529e-06	759.42	205.63	7.5812e-06	5.9621e-06	245.85	93.752	74.014	33.436	5.9213e-06	48.029	0.0019132	0.0041328	0.0012372	748.74	4.2237e-05	5.0463e-05	781.61	211.87	3.5206e-05	5.5683e-05	253.9	96.889	76.783	34.971	4.5497e-05	50.198	61.263	-70.764	-94.402	-160.555	-12.719	-31.652	-162.107	-155.580	-76.555	-31.190	-158.141	-154.096	-151.930	-147.439	-59.989	-150.357	-8191	255	
1482.492	1	1	0	0	0.23409	0.070804	0.080279	0.19394	0.10892	0.13258	0.31045	0.10881	0.24071	0.13047	0.036581	0.084339	0.067607	0.12912	0.14744	0.21721	-3.4958	-3.1354	-2.9542	-3.725	-3.0417	-3.6042	-3.6896	-2.8333	-3.5062	-3.0771	-3.1229	-3.8187	-2.7208	-3.3229	-3.5187	-2.9125	94.403	103.524	125.449	-132.034	-111.494	87.878	77.057	59.881	36.747	-147.161	159.177	141.187	-101.020	109.061	-123.773	-161.480	0.0016956	0.00078075	0.00010107	691.84	5.5337e-06	5.2122e-06	725.03	196.21	9.4286e-06	2.793e-06	234.89	91.147	71.551	33.012	6.452e-06	47.63	0.0022466	0.0050538	0.0015039	720.95	5.5249e-05	6.6701e-05	746.1	202.9	4.7034e-05	7.5512e-05	244.23	94.727	74.71	34.661	6.3397e-05	49.769	55.910	-81.091	-154.441	-160.218	-39.311	-45.482	-162.039	-155.763	-59.297	-24.754	-157.836	-153.760	-151.696	-147.353	-48.588	-150.524	-8191	255	
1482.588	1	1	0	0	0.030891	0.17946	0.21149	0.28622	0.056676	0.22012	0.2505	0.058356	0.22254	0.17991	0.17032	0.1086	0.074794	0.19307	0.13486	0.24298	-3.2021	-3.1125	-3.1125	-3.6417	-2.9562	-3.4125	-3.6188	-3.0042	-3.575	-3.2792	-2.9896	-3.7417	-3.0792	-3.4146	-3.6146	-2.9833	109.524	-78.036	55.392	83.244	162.305	-107.307	137.148	-24.918	5.313	-130.266	-8.117	-171.189	163.130	157.385	-43.482	116.411	0.0017667	0.00026989	4.9036e-05	661.49	5.1653e-06	5.0978e-06	688.96	188.09	6.7766e-06	5.579e-06	226.46	88.952	70.082	32.444	7.9883e-06	47.18	0.0029451	0.0071308	0.0021595	696.09	7.7979e-05	9.4322e-05	711.93	195.61	6.4957e-05	0.00010374	237.46	93	74.124	34.119	8.3549e-05	49.495	57.989	-133.547	-44.102	-159.999	-70.051	22.736	-161.835	-155.483	33.950	-6.664	-157.374	-153.054	-152.056	-146.881	40.891	-150.207	-8191	255	
1482.684	1	1	0	0	0.045783	0.18363	0.17159	0.098722	0.27041	0.18909	0.2426	0.021227	0.084869	0.095636	0.219	0.050034	0.10234	0.35547	0.18433	0.06033	-3.1021	-3.3875	-2.9896	-3.6437	-2.8875	-3.1583	-3.7146	-2.9125	-3.425	-3.5438	-3.0104	-3.6875	-3.0229	-3.2208	-3.7083	-3.0458	-112.729	54.232	-39.993	89.179	74.500	-98.407	-120.042	40.838	134.196	24.913	-62.878	-61.584	-98.792	-145.548	147.872	58.093	0.0015612	0.00026334	6.1806e-05	627.35	5.3772e-06	2.3263e-06	649.36	179.61	8.2017e-06	3.5623e-06	221.07	91.719	69.423	32.009	6.667e-06	47.304	0.0036796	0.0094219	0.002877	670.29	9.9547e-05	0.00012207	677.19	187.69	8.2049e-05	0.00013355	233.88	95.84	73.935	33.865	9.876e-05	50.083	59.098	-107.332	-101.846	-160.155	-30.752	46.108	-161.793	-155.278	-53.484	-15.934	-157.480	-154.042	-152.423	-147.305	-27.865	-150.752	-8191	255	
1482.780	1	1	0	0	0.3037	0.12801	0.088491	0.025391	0.22573	0.4101	0.20617	0.15825	0.1167	0.13058	0.14584	0.10906	0.21508	0.11367	0.20311	0.34714	-3.0042	-3.4208	-2.8771	-3.8104	-3.0958	-3.0208	-3.7708	-3.0354	-3.4042	-3.3937	-2.9667	-3.8583	-3.2042	-3.0979	-3.7521	-3.0875	-58.004	-46.215	58.111	-137.972	-65.497	58.515	-158.034	182.199	-27.820	-134.901	159.883	182.618	44.639	178.362	-164.111	115.307	0.00156	0.00040797	6.4013e-05	613.84	5.7236e-06	8.0832e-06	637.05	170.29	9.2793e-06	5.125e-06	217.58	87.918	64.493	30.284	4.4065e-06	45.443	0.0040054	0.010234	0.0031481	658.05	0.00010425	0.0001279	664.39	179.24	8.0791e-05	0.00012523	229	92.313	69.177	32.021	8.2058e-05	48.033	59.021	-72.730	-32.233	-159.980	-81.567	-54.462	-161.850	-155.669	-33.703	-52.073	-157.726	-153.627	-152.311	-147.265	-111.267	-150.266	-8191	255	
1482.876	1	1	0	0	0.044567	0.11702	0.17213	0.12008	0.1514	0.21464	0.090865	0.13174	0.10349	0.099897	0.25003	0.094888	0.083827	0.28986	0.17191	0.14966	-2.9667	-3.4708	-2.775	-3.6937	-3.0854	-3.1625	-3.7333	-3.0542	-3.1896	-3.6	-3.025	-3.7292	-3.4667	-3.1417	-3.5438	-3.2	-130.878	-94.098	-132.685	-159.362	130.671	85.485	17.251	174.577	-141.058	-103.922	127.246	31.694	51.821	97.722	-29.944	-168.407	0.0016377	0.00021089	0.00018069	606.35	2.9383e-06	6.8016e-06	629.78	167.33	8.5016e-06	3.8489e-06	212.03	84.518	62.972	28.94	2.2249e-06	43.717	0.0034613	0.0085641	0.0026254	649.08	8.839e-05	0.00010627	656.93	176.08	6.8098e-05	0.00010494	223.54	88.444	66.813	30.808	7.3287e-05	46.301	56.164	-153.317	-31.473	-159.989	-37.666	37.670	-161.363	-155.644	-39.449	-26.541	-157.615	-153.741	-152.251	-147.590	14.763	-150.593	-8191	255	
1482.972	1	1	0	0	0.29849	0.21372	0.089778	0.081201	0.15544	0.15111	0.28338	0.24398	0.2498	0.18776	0.082922	0.1198	0.21445	0.27998	0.058073	0.23502	-2.7458	-3.6271	-2.7479	-3.5229	-3.3583	-2.8146	-3.6813	-3.0583	-3.125	-3.7687	-2.9875	-3.5708	-3.4458	-3.0604	-3.6	-3.2479	33.219	53.704	-98.829	-151.422	157.392	57.279	98.706	178.595	-39.622	-56.333	184.845	-148.635	147.034	79.889	-97.425	165.341	0.0014542	0.00041136	5.247e-05	613.66	5.9366e-06	5.4158e-06	634.49	171.48	9.9807e-06	2.7022e-06	214.73	84.863	64.246	29.108	3.3276e-06	43.904	0.0031191	0.0075513	0.0022157	651.73	7.1971e-05	8.4045e-05	661.38	179.03	5.1632e-05	7.8019e-05	224.51	88.689	67.954	30.702	5.3924e-05	46.195	56.681	-109.890	160.863	-159.856	-74.177	-17.683	-161.647	-155.356	-35.604	-21.242	-157.775	-153.762	-152.146	-147.409	-68.634	-150.785	-8191	255	
1483.093	1	1	0	0	0.29113	0.31031	0.17392	0.04852	0.065658	0.13269	0.039493	0.06182	0.34459	0.10839	0.13328	0.14485	0.066979	0.17419	0.13369	0.23859	-2.7938	-3.7458	-2.8854	-3.4271	-3.55	-2.9896	-3.6146	-3.2458	-3.0333	-3.5604	-2.9833	-3.3125	-3.675	-3.0438	-3.6583	-3.2667	-82.090	103.826	-145.902	176.288	-148.345	40.409	-82.677	-155.559	-11.982	103.518	-167.369	140.099	-138.822	151.293	-143.474	112.984	0.0014919	0.00014397	0.00013676	639.76	5.4454e-06	3.6505e-06	659.85	178.54	1.1619e-05	2.4375e-06	218.87	85.085	65.631	29.307	4.2437e-06	44.259	0.0024287	0.0055753	0.0017062	673.66	5.6432e-05	6.5384e-05	684.77	186.03	4.4888e-05	6.8045e-05	228.66	89.201	68.869	30.865	5.076e-05	46.384	61.421	-132.550	-91.148	-159.932	-33.893	-7.176	-161.369	-155.381	-33.996	5.082	-157.702	-153.942	-151.997	-147.664	-48.538	-150.818	-8191	255	
1483.187	1	1	0	0	0.062136	0.091849	0.13555	0.19441	0.14965	0.12827	0.25802	0.11665	0.14522	0.25098	0.27138	0.17399	0.14528	0.035761	0.15141	0.15199	-2.6146	-3.6625	-2.9562	-3.2917	-3.8396	-2.9562	-3.5833	-3.3958	-3	-3.8604	-3.1208	-3.1458	-3.5833	-3.05	-3.5563	-3.4771	-141.466	21.323	135.337	40.628	67.613	107.134	147.902	53.240	-27.269	23.525	126.339	184.019	-152.642	-13.552	53.260	-14.979	0.0016341	0.00026245	8.7975e-05	646.11	5.3585e-06	4.2796e-06	667.8	180.13	1.007e-05	3.9928e-06	220.06	86.279	65.903	29.533	6.7096e-06	44.309	0.0023621	0.0052888	0.0015814	679.2	5.4286e-05	6.2935e-05	691.93	187.96	4.2367e-05	6.6849e-05	231.05	89.912	69.411	31.05	5.0413e-05	46.598	55.897	-120.156	-92.366	-159.415	-36.183	-56.602	-161.370	-155.344	-51.580	-34.064	-157.915	-153.579	-152.072	-147.367	-52.304	-150.750	-8191	255	
1483.283	1	1	0	0	0.12279	0.12142	0.35414	0.05994	0.13008	0.12778	0.17079	0.044504	0.20334	0.093474	0.33743	0.18904	0.15252	0.2312	0.13232	0.12058	-2.5771	-3.6292	-2.9271	-3.2083	-3.7208	-2.85	-3.6417	-3.5771	-2.8812	-3.6792	-3.1958	-3.1417	-3.7917	-2.9375	-3.4313	-3.6167	151.665	-6.262	-58.388	8.124	-35.789	-153.359	182.024	-35.151	83.360	-15.959	147.598	140.990	-162.113	175.251	58.456	169.910	0.001389	0.00042413	0.00015966	652.59	4.5657e-06	7.4412e-06	672.58	183.38	5.2942e-06	4.51e-06	222.65	86.202	67.719	29.601	8.6394e-06	44.202	0.0023659	0.0053533	0.0016603	683.89	5.4227e-05	6.644e-05	698.56	191.07	4.3365e-05	6.5908e-05	233.5	90.299	71.152	31.279	4.9762e-05	46.269	56.089	-100.242	-129.747	-159.938	-32.161	-33.671	-161.388	-155.652	-32.355	11.525	-157.755	-153.328	-151.394	-147.728	-59.788	-150.878	-8191	255	
1483.380	1	1	0	0	0.1429	0.095169	0.11797	0.15108	0.15571	0.29287	0.42944	0.1958	0.20006	0.11114	0.23713	0.17429	0.13599	0.1615	0.11182	0.098956	-2.5083	-3.7229	-3.2729	-3.1146	-3.7292	-2.9062	-3.4208	-3.7062	-2.925	-3.5292	-3.2313	-3.0146	-3.7167	-3.1542	-3.1667	-3.7479	182.102	184.384	176.782	89.119	148.269	67.357	-29.769	154.510	81.807	139.976	162.405	-133.223	-66.187	75.072	-142.022	133.237	0.0015429	0.00033554	7.8148e-05	671.64	9.6518e-07	2.8745e-06	685.3	189.54	2.868e-06	3.8199e-06	226.36	88.116	69.222	29.936	4.2673e-06	43.914	0.002231	0.0052706	0.0015707	703.74	5.2605e-05	6.2244e-05	713.24	196.93	4.0552e-05	6.2401e-05	236.46	91.245	72.858	31.42	4.7028e-05	46.026	60.838	-82.607	-75.189	-160.405	-91.658	4.671	-161.801	-155.879	-85.508	-95.937	-158.128	-154.053	-152.652	-147.790	-31.791	-150.838	-8191	255	
1483.500	1	1	0	0	0.13386	0.13461	0.13135	0.18787	0.1677	0.31147	0.25562	0.20485	0.22738	0.17277	0.12777	0.056581	0.082574	0.14218	0.25417	0.12685	-2.4792	-3.6479	-3.5375	-2.9	-3.8	-3.0583	-3.2167	-3.7438	-2.7687	-3.3937	-3.4667	-2.9417	-3.6521	-3.3458	-3.0854	-3.8479	53.880	43.034	46.706	-116.199	83.117	9.204	88.695	115.586	-82.760	158.313	-152.385	57.794	124.202	-63.647	-92.715	-25.796	0.0015703	1.8212e-05	0.00014369	672.89	7.0461e-06	4.8529e-06	690.31	191.53	8.7622e-06	3.8661e-06	227.24	88.607	70.219	29.86	2.539e-06	43.76	0.002169	0.0049506	0.0014401	706.22	4.9876e-05	5.7666e-05	714.71	197.94	3.7924e-05	5.7775e-05	237.27	91.984	73.523	31.428	4.1929e-05	45.914	52.617	-150.540	-96.359	-159.538	-23.922	-40.940	-161.592	-156.049	-31.204	-11.528	-158.293	-154.198	-152.349	-147.718	-59.020	-151.291	-8191	255	
1483.572	1	1	0	0	0.23493	0.40005	0.16011	0.19696	0.096766	0.1842	0.05447	0.14855	0.14023	0.1209	0.22284	0.31203	0.10586	0.25076	0.12634	0.087316	-2.5208	-3.4417	-3.5208	-2.8979	-3.4792	-3.1063	-3.0396	-3.7167	-2.9271	-3.3542	-3.8021	-2.8875	-3.7417	-3.3333	-3.2042	-3.8125	-54.627	85.095	-5.511	123.604	68.099	-27.748	133.244	55.506	-160.520	-21.097	-70.430	116.370	106.608	-165.794	-47.374	173.860	0.001621	9.9261e-05	4.9034e-05	685.6	5.1057e-06	2.9963e-06	702.88	191.78	8.4539e-06	3.3628e-06	228.27	88.849	70.954	29.766	3.8898e-06	42.919	0.0020016	0.0041739	0.0012724	712.05	4.2823e-05	5.1446e-05	724.87	198.91	3.3081e-05	5.0649e-05	237.03	92.197	73.919	31.244	3.6186e-05	45.028	57.786	-98.214	-142.116	-159.945	-32.798	16.337	-161.737	-156.030	-59.116	19.115	-157.972	-154.273	-152.561	-148.116	-45.612	-151.439	-8191	255	
1483.693	1	1	0	0	0.031751	0.012406	0.16557	0.29612	0.11802	0.083012	0.086948	0.30451	0.22796	0.085147	0.11459	0.25886	0.20408	0.13372	0.14766	0.15005	-2.8229	-3.2542	-3.4354	-2.9875	-3.5167	-3.4771	-3.05	-3.8896	-3.1917	-3.225	-3.8333	-2.9542	-3.5604	-3.5042	-2.9229	-3.7604	5.306	67.346	-126.977	172.141	57.818	41.754	-156.398	164.191	-134.630	169.501	-165.023	176.307	166.268	-27.457	150.954	77.464	0.0015465	0.0002895	0.00019033	697.89	5.4068e-06	2.4507e-06	710.03	186.57	6.861e-06	2.1958e-06	216.53	84.39	68.468	28.176	3.352e-06	38.366	0.0017095	0.0034437	0.00096022	723.11	2.95e-05	3.2169e-05	734.45	193.55	1.8707e-05	2.6243e-05	225.02	86.768	70.666	29.404	1.7543e-05	40.01	59.142	-120.379	-73.065	-160.390	-34.257	-36.013	-162.167	-155.952	-32.731	-43.800	-158.131	-154.187	-152.277	-148.324	-11.498	-151.747	-8191	255	
1483.789	1	1	0	0	0.070174	0.14218	0.22882	0.21862	0.18966	0.027521	0.3277	0.25653	0.092852	0.081822	0.36407	0.11098	0.20308	0.25141	0.093087	0.09771	-2.8583	-3.0708	-3.6688	-2.9354	-3.4583	-3.3792	-2.9292	-3.6917	-3.2417	-3.1458	-3.8021	-2.8479	-3.1979	-3.5729	-2.9417	-3.6208	170.832	12.981	-170.513	45.748	-63.410	164.578	123.248	175.867	52.656	151.153	149.721	-56.548	-9.225	-172.136	-99.177	-128.827	0.0013647	0.00015438	0.00013101	685.57	3.715e-06	2.9224e-06	685.39	171.83	5.6763e-06	3.0969e-06	193.8	72.963	60.416	25.844	3.9774e-06	35.152	0.0010171	0.0015116	0.00044168	707.85	1.3487e-05	1.5709e-05	705.22	177.62	1.0317e-05	1.5046e-05	200.85	75.423	62.318	26.985	1.1835e-05	36.67	59.555	-94.110	-77.477	-160.552	-33.496	-25.489	-162.474	-156.368	-65.021	-23.426	-158.456	-154.087	-152.500	-148.505	-25.229	-151.728	-8191	255	
1483.885	1	1	0	0	0.16135	0.079132	0.11387	0.12139	0.25251	0.069543	0.13823	0.23908	0.18193	0.18237	0.2732	0.036915	0.094332	0.16337	0.14205	0.052628	-2.8396	-2.85	-3.6583	-2.9583	-3.0521	-3.6021	-2.8667	-3.5687	-3.2729	-2.9917	-3.6771	-3.0667	-3.0833	-3.6312	-2.7375	-3.4667	88.061	-47.867	-115.366	-20.270	-121.378	25.848	128.869	-141.751	113.233	-102.438	-104.559	-138.089	39.203	-92.543	119.046	102.832	0.0012539	0.00021638	8.9835e-05	679.93	3.397e-06	2.9279e-06	675.44	165.08	7.5878e-06	2.532e-06	187.35	69.303	56.827	24.746	3.8859e-06	33.485	0.00081483	0.0011385	0.00031349	696.52	1.1333e-05	1.3056e-05	692.69	170.19	9.2399e-06	1.2777e-05	193.71	71.439	58.422	25.819	1.0914e-05	34.986	58.741	-89.561	-80.223	-161.276	-52.102	-27.599	-162.670	-156.039	-52.647	-33.206	-158.749	-154.563	-152.318	-148.263	-64.887	-151.546	-8191	255	
1483.979	1	1	0	0	0.08719	0.25898	0.14305	0.027027	0.16174	0.088802	0.045509	0.24975	0.19848	0.080442	0.13429	0.10381	0.16322	0.20517	0.30088	0.15763	-2.9417	-2.7917	-3.5833	-3.0708	-3.1188	-3.6104	-2.8854	-3.4771	-3.4	-2.85	-3.6375	-3.125	-3.0021	-3.7146	-2.8563	-3.4979	-142.115	-29.217	33.937	-41.838	13.532	-52.239	-80.923	136.075	57.834	81.340	1.599	167.787	178.105	165.732	117.213	-103.907	0.0011749	0.00034	9.3658e-05	681.48	4.2014e-06	3.2922e-06	677.24	164.32	5.7822e-06	3.9692e-06	187.45	68.076	55.698	24.374	3.1698e-06	33.314	0.0007384	0.0010373	0.00028842	699.67	1.0227e-05	1.1161e-05	695.27	169.06	7.9076e-06	1.1247e-05	192.91	70.225	57.645	25.473	9.2956e-06	34.796	58.263	-103.815	-83.456	-161.259	-21.773	-14.533	-162.661	-156.357	-68.042	-29.711	-158.770	-154.208	-151.951	-148.141	-47.611	-151.471	-8191	255	
1484.075	1	1	0	0	0.26328	0.077118	0.095625	0.29479	0.20194	0.043911	0.17619	0.24436	0.17741	0.13441	0.23126	0.039003	0.11835	0.1453	0.20601	0.21832	-3.1729	-2.8167	-3.5833	-3.2125	-2.9813	-3.6937	-3.1458	-3.4188	-3.5354	-2.8542	-3.7479	-3.3021	-2.9896	-3.7146	-2.8917	-3.2958	41.229	-29.305	-119.315	-137.686	-95.094	143.793	97.330	-54.672	-123.668	-13.870	131.235	-10.242	32.221	-160.989	-136.426	102.169	0.0011322	0.00027756	5.7836e-05	681.94	2.8806e-06	3.9159e-06	678	163.56	5.5197e-06	4.156e-06	187	68.762	56.879	25.001	3.4575e-06	34.476	0.00070916	0.00094562	0.00028991	701.66	1.0118e-05	1.1085e-05	695.88	169	8.2935e-06	1.2508e-05	192.75	70.907	58.799	26.214	9.8118e-06	36.008	58.615	-91.202	-65.983	-160.922	-37.757	-11.991	-162.395	-156.283	-54.918	-33.825	-158.337	-154.510	-152.470	-148.421	-56.484	-151.666	-8191	255	
1484.172	1	1	0	0	0.24491	0.18541	0.12009	0.086255	0.052981	0.14758	0.02424	0.06633	0.11533	0.14643	0.30861	0.16664	0.20142	0.0504	0.18962	0.21563	-3.3396	-3.0687	-3.6854	-3.3438	-2.9354	-3.6167	-3.0958	-3.2854	-3.625	-3.025	-3.5354	-3.4667	-2.85	-3.75	-3.0083	-3.3312	76.151	179.071	134.870	-32.728	26.692	107.405	161.466	51.333	-120.312	32.487	156.781	123.520	100.875	-31.228	-171.995	148.825	0.0012216	0.00024127	8.8242e-05	676.56	4.4717e-06	2.5817e-06	672.89	165.95	5.6685e-06	2.8015e-06	193.89	76.189	62.676	26.93	3.6538e-06	37.117	0.00073239	0.0010507	0.00032725	695.66	1.1586e-05	1.1879e-05	694.84	170.83	9.0308e-06	1.2963e-05	200.78	78.46	64.548	28.262	1.0875e-05	38.624	59.898	-109.739	-108.860	-160.937	-28.148	-44.349	-162.449	-156.047	-44.763	-22.905	-158.275	-154.575	-152.320	-148.522	-39.949	-151.399	-8191	255	
1484.268	1	1	0	0	0.1507	0.10458	0.18363	0.26445	0.27146	0.18549	0.055206	0.13076	0.15847	0.12747	0.14019	0.15983	0.078954	0.13244	0.029547	0.13002	-3.2479	-2.9979	-3.525	-3.4021	-2.9375	-3.7188	-3.2062	-3.0833	-3.6688	-2.95	-3.5312	-3.4854	-2.9896	-3.6188	-3.3083	-3.0854	-110.817	7.947	149.559	-158.360	-68.600	-121.892	-66.950	102.436	22.861	5.041	78.056	112.638	-36.906	140.461	57.490	21.496	0.0013015	0.00025097	9.882e-05	679.72	3.9731e-06	3.9982e-06	680.45	168.22	7.9721e-06	5.6185e-06	197.59	77.544	62.859	27.257	3.8232e-06	37.728	0.00081302	0.0011338	0.00034472	699.07	1.2946e-05	1.4336e-05	700.33	173.28	1.1238e-05	1.8363e-05	204.48	80.046	65.049	28.411	1.5755e-05	39.323	58.014	-69.267	-84.096	-160.956	-15.464	-9.097	-162.562	-156.051	-65.695	-42.402	-158.671	-154.471	-152.862	-148.503	-40.410	-151.899	-8191	255	
1484.364	1	1	0	0	0.096207	0.31618	0.093084	0.10967	0.21544	0.10355	0.19907	0.037471	0.1892	0.16678	0.2603	0.1569	0.053617	0.10014	0.14179	0.19892	-3.3396	-2.7875	-3.3917	-3.3708	-2.9229	-3.5292	-3.4313	-3.1167	-3.6896	-3.1625	-3.3312	-3.8396	-2.9562	-3.7104	-3.4875	-3.1125	-29.786	97.580	176.659	69.128	-27.636	-161.444	164.536	-124.426	-106.739	22.102	127.721	67.139	-50.624	99.871	182.683	134.074	0.0012995	0.00023845	3.7311e-05	672.5	4.104e-06	4.0544e-06	681.88	169.49	9.853e-06	2.7795e-06	203.11	80.43	64.516	27.527	4.2653e-06	38.875	0.0010202	0.0017866	0.00051199	696.62	1.8667e-05	2.1646e-05	699.91	175.34	1.6229e-05	2.5678e-05	209.84	83.09	67.066	28.772	2.2155e-05	40.739	59.899	-93.141	-90.959	-161.209	-29.766	-44.537	-162.337	-156.107	-53.639	-5.616	-158.535	-154.311	-152.731	-148.362	-73.622	-151.787	-8191	255	
1484.460	1	1	0	0	0.13335	0.076448	0.15951	0.10242	0.13021	0.11404	0.15739	0.20869	0.11436	0.2744	0.1169	0.14769	0.38777	0.17686	0.24268	0.10474	-3.4042	-3.0604	-3.1208	-3.7396	-3.0187	-3.6458	-3.65	-2.85	-3.8375	-3.0458	-3.2104	-3.8937	-3.0646	-3.5521	-3.5667	-2.8167	-89.535	-129.542	142.985	141.743	105.297	65.754	-142.622	-134.139	0.220	65.297	176.999	23.539	48.955	59.081	-100.827	-16.603	0.0014247	0.00046994	8.0181e-05	670.72	2.6086e-06	4.2491e-07	684.81	174.16	6.5766e-06	3.2676e-06	207.3	82.539	66.023	27.531	5.2095e-06	38.663	0.0012613	0.0024442	0.00073683	698.6	2.5451e-05	3.015e-05	702.31	180.16	2.0025e-05	3.188e-05	215.13	85.058	68.445	28.766	2.5286e-05	40.586	58.216	-93.305	-59.937	-160.461	-51.477	9.708	-162.319	-156.222	-47.877	-2.461	-158.554	-154.693	-152.642	-148.703	-4.983	-151.354	-8191	255	
1484.581	1	1	0	0	0.011012	0.14703	0.083248	0.22301	0.13226	0.075609	0.14442	0.052059	0.24904	0.095328	0.17157	0.14214	0.21612	0.12137	0.24393	0.26154	-3.3979	-3.1	-3.1271	-3.7104	-2.9833	-3.5042	-3.7917	-2.9938	-3.8125	-3.2979	-3.1104	-3.8292	-2.8625	-3.5542	-3.5229	-2.9396	62.063	-166.776	-6.033	-105.333	136.323	16.299	3.835	-116.869	-155.145	123.823	144.362	-70.931	11.329	-89.186	-115.759	-33.335	0.0013778	0.00029505	0.00011132	674.18	4.6413e-06	2.9832e-06	684.61	177.75	7.8041e-06	3.8907e-06	209.49	81.916	67.303	27.811	5.5971e-06	38.673	0.0013888	0.0026854	0.00080195	699.18	2.5222e-05	2.8333e-05	706.09	183.48	1.8356e-05	2.741e-05	217.3	84.902	69.53	29.046	2.1971e-05	40.359	59.629	-43.535	-88.022	-160.770	-32.943	-24.211	-162.354	-155.937	-50.907	-10.101	-158.079	-154.687	-152.354	-148.544	-7.966	-151.554	-8191	255	
1484.677	1	1	0	0	0.0018081	0.081901	0.25138	0.12924	0.014282	0.16129	0.18435	0.06238	0.12673	0.18168	0.085451	0.017344	0.14588	0.1473	0.18571	0.13733	-3.2854	-3.4	-2.9083	-3.8417	-2.8937	-3.1771	-3.5521	-3.0146	-3.525	-3.5604	-2.9208	-3.9437	-3.0604	-3.3542	-3.7354	-2.9375	180.000	151.056	178.540	60.721	-127.749	79.098	172.544	-155.887	-28.864	-142.630	-53.679	-98.525	139.322	-67.157	81.648	-7.736	0.0014088	0.00035127	5.5825e-05	692.84	3.2494e-06	5.2155e-06	699.38	180.87	5.4732e-06	3.6909e-06	214.45	82.7	68.148	28.218	2.2349e-06	38.895	0.001289	0.0024757	0.00075137	715.67	2.8333e-05	3.3568e-05	721.95	187.91	2.3765e-05	3.633e-05	221.95	85.747	70.682	29.464	2.6443e-05	40.68	61.363	-91.176	-55.478	-161.044	-30.954	-54.439	-162.328	-156.087	-31.688	-9.341	-158.423	-154.143	-152.075	-148.571	-11.911	-151.624	-8191	255	
1484.773	1	1	0	0	0.15227	0.28569	0.18313	0.16436	0.30646	0.16098	0.21679	0.022375	0.18476	0.20783	0.17405	0.32594	0.13962	0.33023	0.1465	0.25682	-3.1042	-3.325	-2.9896	-3.6146	-3.0687	-3.0312	-3.6229	-3.0125	-3.3104	-3.4562	-2.7375	-3.95	-3.1854	-3.1958	-3.775	-3.0292	-131.330	-49.577	159.843	61.575	143.969	79.113	-114.401	-10.832	-17.323	142.508	-134.701	117.890	75.679	151.895	-169.091	-134.448	0.0013851	0.00046714	7.9515e-05	700.05	3.9074e-06	3.8751e-06	718.1	186.79	8.5909e-06	4.4625e-06	219.56	83.786	69.399	28.292	5.3578e-06	38.54	0.0013773	0.002717	0.00082291	726.86	2.7825e-05	3.3115e-05	739.42	193.62	2.2833e-05	3.5594e-05	228.44	87.044	72.332	29.632	2.4761e-05	40.307	58.367	-73.690	-42.262	-160.950	-36.997	-11.393	-162.266	-156.233	-77.385	-35.082	-158.604	-154.071	-152.575	-148.393	-48.703	-151.550	-8191	255	
1484.869	1	1	0	0	0.14723	0.17592	0.16257	0.11385	0.25952	0.15003	0.16882	0.029068	0.21013	0.23864	0.24339	0.16085	0.15131	0.070382	0.025674	0.1485	-3.0333	-3.6875	-2.825	-3.7021	-3.1813	-3.025	-3.9208	-2.8688	-3.3542	-3.675	-2.9979	-3.575	-3.4813	-2.8937	-3.7521	-3.1771	-114.200	50.484	31.173	97.892	-159.464	134.547	121.261	64.328	117.477	26.021	-168.033	137.327	-40.676	-97.530	-83.106	90.022	0.0012862	0.0001821	8.2585e-05	707.67	3.3298e-06	2.9652e-06	722.65	190.64	7.0794e-06	2.2771e-06	221.42	83.623	69.62	28.437	3.7995e-06	38.318	0.0013455	0.0027336	0.0008302	735.47	2.7415e-05	3.4199e-05	746.39	198.12	2.4377e-05	3.7226e-05	230.21	86.588	72.624	29.851	2.973e-05	40.324	59.806	-78.159	-73.533	-160.161	-46.394	-46.915	-162.397	-156.003	-78.868	-4.049	-158.417	-154.210	-152.344	-148.368	-21.229	-151.629	-8191	255	
1484.965	1	1	0	0	0.27022	0.25579	0.25656	0.2713	0.15612	0.36832	0.059002	0.15021	0.074438	0.12212	0.087888	0.083246	0.16757	0.45928	0.34696	0.23693	-2.8208	-3.5708	-2.8646	-3.5333	-3.3646	-2.9146	-3.9479	-3.1562	-3.1167	-3.6521	-2.9604	-3.6708	-3.4542	-3.0771	-3.7417	-3.1146	-62.492	-85.395	92.561	33.743	170.251	-85.267	-167.287	176.256	53.426	135.709	-47.570	66.231	-130.191	174.420	-7.781	-174.357	0.0014109	0.0004025	9.5341e-05	724.24	5.4235e-06	5.2053e-06	738.04	198.21	7.5471e-06	2.0901e-06	228.44	84.586	70.891	29.184	6.098e-06	39.053	0.001584	0.0033872	0.0010246	751.19	3.6629e-05	4.3961e-05	760.91	205.84	3.0122e-05	4.4632e-05	237.78	87.597	74.028	30.559	3.6256e-05	41.034	59.883	-94.413	-77.948	-160.218	-16.764	-0.860	-162.389	-156.570	-37.625	5.779	-158.493	-154.392	-152.493	-148.099	-40.655	-151.245	-8191	255	
1485.061	1	1	0	0	0.11119	0.28642	0.11651	0.23746	0.10712	0.10838	0.13003	0.41101	0.20693	0.21753	0.2438	0.17189	0.08169	0.27448	0.27516	0.091935	-2.8479	-3.7812	-2.8667	-3.4	-3.6542	-2.8479	-3.9667	-3.2667	-3.0833	-3.7521	-2.9771	-3.575	-3.6583	-2.925	-3.7229	-3.3604	-121.981	39.918	-60.756	-39.059	-21.823	-0.934	40.495	123.550	-56.818	-69.763	-122.510	-102.928	-146.678	-42.400	-156.205	-66.171	0.0014242	0.0002477	5.4722e-05	739.66	1.9781e-06	2.1959e-06	751.38	206.03	1.11e-05	4.3121e-06	235.98	86.166	72.819	30.006	3.115e-06	40.516	0.001781	0.0040194	0.0012437	768.79	4.4304e-05	5.5618e-05	779.16	213.89	3.8448e-05	6.165e-05	245.98	89.814	76.247	31.523	4.8005e-05	42.588	56.948	-104.717	-83.480	-160.649	-49.272	-8.710	-162.380	-156.275	-50.136	-41.474	-158.528	-154.311	-152.776	-148.472	-11.492	-151.192	-8191	255	
1485.180	1	1	0	0	0.24104	0.18321	0.19726	0.044858	0.1077	0.018333	0.10547	0.035714	0.10914	0.15177	0.18552	0.083192	0.39552	0.25519	0.024599	0.19691	-2.6542	-3.6813	-3.0854	-3.3479	-3.7021	-3.125	-3.8646	-3.5563	-2.9708	-3.7271	-3.1854	-3.3812	-3.6375	-2.8563	-3.5958	-3.575	-59.216	51.994	-12.336	-88.033	-60.777	120.630	132.934	-59.142	149.015	-81.006	-136.455	55.186	168.906	88.136	95.066	157.526	0.0014015	0.000283	5.3689e-05	737.39	5.1369e-06	4.3336e-06	766.15	207.99	4.1581e-06	9.7483e-06	242.78	91.883	75.88	32.377	6.3498e-06	45.135	0.0022478	0.005207	0.0016086	772.42	5.9625e-05	7.3124e-05	794.84	215.96	5.434e-05	8.4267e-05	255.25	96.135	80.303	34.472	6.966e-05	47.788	57.466	-132.553	-117.328	-160.363	-14.748	-41.283	-161.852	-156.051	-33.749	-20.827	-158.583	-153.763	-152.145	-147.377	-49.121	-150.750	-8191	255	
1485.276	1	1	0	0	0.2298	0.051161	0.19773	0.17549	0.10367	0.16916	0.11511	0.072627	0.1444	0.16501	0.065121	0.11984	0.077378	0.3317	0.086437	0.28076	-2.5146	-3.5708	-3.1063	-3.225	-3.8187	-3.0583	-3.7229	-3.5417	-2.9458	-3.7521	-3.3312	-3.2833	-3.7062	-2.8896	-3.4396	-3.6417	-111.807	181.805	-165.047	-55.103	20.486	148.993	147.487	111.138	7.241	72.695	122.779	-116.481	-109.980	-39.866	94.915	-45.737	0.0015148	0.00020632	0.00013799	741.65	5.6617e-06	4.8137e-06	759.13	205.1	5.7922e-06	2.4631e-06	243.35	90.943	74.37	33.281	2.479e-06	46.95	0.0030652	0.0075803	0.0023479	783.75	8.0144e-05	9.8079e-05	791.98	214.55	6.2985e-05	9.856e-05	255.85	95.399	78.674	35.243	7.2069e-05	49.541	58.673	-159.432	-87.894	-159.933	-58.462	-26.015	-161.478	-155.412	-92.467	-77.499	-157.600	-153.617	-151.761	-147.326	-52.913	-150.863	-8191	255	
1485.373	1	1	0	0	0.17133	0.20326	0.16482	0.085615	0.10161	0.23773	0.34514	0.23818	0.083316	0.041776	0.31865	0.22318	0.10881	0.052712	0.10154	0.25622	-2.5792	-3.7354	-3.2458	-3.1167	-3.7229	-3.0125	-3.2687	-3.6146	-2.9208	-3.5229	-3.4729	-2.9646	-3.6604	-3.0438	-3.1604	-3.6917	-65.824	-161.520	55.710	179.790	-125.978	-22.694	-30.294	-97.119	123.585	-100.680	175.732	-154.013	48.463	21.808	152.260	94.808	0.0017275	0.00052971	0.00011538	717.09	7.4146e-06	5.3918e-06	718.15	196.15	9.6433e-06	5.5943e-06	232.92	88.917	71.832	32.899	6.2951e-06	47.522	0.0031737	0.00771	0.0023101	756.52	7.4778e-05	8.9931e-05	750.73	205.19	5.9843e-05	9.3955e-05	245	93.338	75.959	35.003	7.7371e-05	50.119	64.655	-57.885	-78.427	-160.328	-24.140	-1.932	-161.582	-155.180	-29.328	0.574	-158.023	-153.644	-151.910	-147.445	-72.377	-150.849	-8191	255	
1485.469	1	1	0	0	0.13531	0.087455	0.21595	0.29836	0.22577	0.3596	0.13833	0.11452	0.15197	0.173	0.14004	0.10819	0.24876	0.12628	0.26461	0.27933	-2.4437	-3.425	-3.4271	-3.075	-3.5979	-3.0958	-3.1896	-3.7771	-2.7792	-3.6146	-3.5542	-2.9958	-3.8479	-3.2958	-3.0625	-3.7188	-43.543	-144.722	94.786	119.378	-66.866	48.659	-26.293	62.042	-44.594	132.681	58.268	174.678	-138.900	-123.503	3.963	136.456	0.0016747	0.00056479	0.00020503	687.96	4.374e-06	1.483e-06	689.03	184.43	5.6342e-06	4.3923e-06	222.69	86.301	67.756	31.04	3.7528e-06	45.035	0.0033802	0.00849	0.002462	726.79	8.1407e-05	0.0001001	716.29	193.15	6.1849e-05	9.6494e-05	235.15	90.325	71.594	32.838	6.1744e-05	47.68	57.620	-54.076	-91.617	-160.453	-50.310	-16.253	-161.720	-155.515	-60.119	-45.211	-157.789	-153.584	-152.218	-147.812	-37.331	-150.729	-8191	255	
#DATA ENDS
