BOXY.EXE: ISS Imagent and Oximeter Data Acquisition Program Version 0.80
Ascii Record File

#ACQ INFORMATION
2  Detector Channels 
16  External MUX Channels 
1  Auxiliary Channels 
5000  Waveform (CCF) Frequency (Hz)
1  Waveforms Skipped 
30  Waveforms Averaged 
1  Cycles Averaged 
16  Acquisitions per Waveform 
10.0806  Updata Rate (Hz) 

#FILE INFORMATION
TRUE -- External MUX Channel results are PARSED.
FALSE -- AC DC and Phase are NOT grouped.
TRUE -- Companion Program Settings File CREATED.
FALSE -- AC data not excluded
FALSE -- DC data not excluded
FALSE -- Phase data not excluded
FALSE -- Auxillary Chn. data not excluded
Tab delimiters

#CALIBRATION STATE
TRUE -- Waveform Calibration Values APPLIED.


#AUX CALIBRATION VALUES
Val Type	aux-1	

Term	1.0000e+00	
Factor	0.0000e+00	


#WF CALIBRATION VALUES
A = Detector Channel
Val Type	A-AC1	A-AC2	A-AC3	A-AC4	A-AC5	A-AC6	A-AC7	A-AC8	A-AC9	A-AC10	A-AC11	A-AC12	A-AC13	A-AC14	A-AC15	A-AC16	A-DC1	A-DC2	A-DC3	A-DC4	A-DC5	A-DC6	A-DC7	A-DC8	A-DC9	A-DC10	A-DC11	A-DC12	A-DC13	A-DC14	A-DC15	A-DC16	A-Ph1	A-Ph2	A-Ph3	A-Ph4	A-Ph5	A-Ph6	A-Ph7	A-Ph8	A-Ph9	A-Ph10	A-Ph11	A-Ph12	A-Ph13	A-Ph14	A-Ph15	A-Ph16	

Term	0.00000e+00	0.00000e+00	0.00000e+00	0.00000e+00	0.00000e+00	0.00000e+00	0.00000e+00	0.00000e+00	0.00000e+00	0.00000e+00	0.00000e+00	0.00000e+00	0.00000e+00	0.00000e+00	0.00000e+00	0.00000e+00	0.00000e+00	0.00000e+00	0.00000e+00	0.00000e+00	0.00000e+00	0.00000e+00	0.00000e+00	0.00000e+00	0.00000e+00	0.00000e+00	0.00000e+00	0.00000e+00	0.00000e+00	0.00000e+00	0.00000e+00	0.00000e+00	0.00000e+00	0.00000e+00	0.00000e+00	0.00000e+00	0.00000e+00	0.00000e+00	0.00000e+00	0.00000e+00	0.00000e+00	0.00000e+00	0.00000e+00	0.00000e+00	0.00000e+00	0.00000e+00	0.00000e+00	0.00000e+00	
Factor	1.00000e+00	1.00000e+00	1.00000e+00	1.00000e+00	1.00000e+00	1.00000e+00	1.00000e+00	1.00000e+00	1.00000e+00	1.00000e+00	1.00000e+00	1.00000e+00	1.00000e+00	1.00000e+00	1.00000e+00	1.00000e+00	1.00000e+00	1.00000e+00	1.00000e+00	1.00000e+00	1.00000e+00	1.00000e+00	1.00000e+00	1.00000e+00	1.00000e+00	1.00000e+00	1.00000e+00	1.00000e+00	1.00000e+00	1.00000e+00	1.00000e+00	1.00000e+00	X	X	X	X	X	X	X	X	X	X	X	X	X	X	X	X	

B = Detector Channel
Val Type	B-AC1	B-AC2	B-AC3	B-AC4	B-AC5	B-AC6	B-AC7	B-AC8	B-AC9	B-AC10	B-AC11	B-AC12	B-AC13	B-AC14	B-AC15	B-AC16	B-DC1	B-DC2	B-DC3	B-DC4	B-DC5	B-DC6	B-DC7	B-DC8	B-DC9	B-DC10	B-DC11	B-DC12	B-DC13	B-DC14	B-DC15	B-DC16	B-Ph1	B-Ph2	B-Ph3	B-Ph4	B-Ph5	B-Ph6	B-Ph7	B-Ph8	B-Ph9	B-Ph10	B-Ph11	B-Ph12	B-Ph13	B-Ph14	B-Ph15	B-Ph16	

Term	0.00000e+00	0.00000e+00	0.00000e+00	0.00000e+00	0.00000e+00	0.00000e+00	0.00000e+00	0.00000e+00	0.00000e+00	0.00000e+00	0.00000e+00	0.00000e+00	0.00000e+00	0.00000e+00	0.00000e+00	0.00000e+00	0.00000e+00	0.00000e+00	0.00000e+00	0.00000e+00	0.00000e+00	0.00000e+00	0.00000e+00	0.00000e+00	0.00000e+00	0.00000e+00	0.00000e+00	0.00000e+00	0.00000e+00	0.00000e+00	0.00000e+00	0.00000e+00	-2.67937e+02	-1.30297e+02	-1.24741e+02	-1.87822e+02	-6.96048e+01	-6.65855e+01	-1.56226e+02	-1.62015e+02	-6.64801e+01	-6.54146e+01	-1.71993e+02	-1.70449e+02	-1.82921e+02	-1.77447e+02	-7.06104e+01	-1.50185e+02	
Factor	5.08686e-05	1.23101e-04	3.70342e-05	3.47696e-01	1.44184e-06	1.36155e-06	1.51375e-01	4.06272e-02	2.33488e-06	1.39090e-06	7.25516e-02	2.05289e-02	3.17289e-02	6.81532e-03	1.55922e-06	9.51071e-03	2.34709e-05	6.99811e-05	2.09637e-05	1.86283e-01	7.08699e-07	8.53338e-07	7.64441e-02	2.19243e-02	5.51292e-07	8.80824e-07	3.79906e-02	1.07674e-02	1.72504e-02	3.72260e-03	6.45250e-07	5.03074e-03	X	X	X	X	X	X	X	X	X	X	X	X	X	X	X	X	



#DISTANCE SETTINGS
A = Detector Channel
A-1	A-2	A-3	A-4	A-5	A-6	A-7	A-8	A-9	A-10	A-11	A-12	A-13	A-14	A-15	A-16	

2.5000e+00	3.0000e+00	2.5000e+00	3.0000e+00	2.0000e+00	3.0000e+00	1.5000e+00	3.0000e+00	3.0000e+00	3.0000e+00	3.0000e+00	3.0000e+00	3.0000e+00	3.0000e+00	1.5000e+00	3.0000e+00	

B = Detector Channel
B-1	B-2	B-3	B-4	B-5	B-6	B-7	B-8	B-9	B-10	B-11	B-12	B-13	B-14	B-15	B-16	

1.0000e+01	1.0000e+01	1.0000e+01	1.4400e+00	1.0000e+01	1.0000e+01	1.5100e+00	1.9400e+00	1.0000e+01	1.0000e+01	1.9900e+00	2.4900e+00	2.4100e+00	2.9000e+00	1.0000e+01	2.9800e+00	




#DATA BEGINS
time	group	step	mark	flag	A-AC1	A-AC2	A-AC3	A-AC4	A-AC5	A-AC6	A-AC7	A-AC8	A-AC9	A-AC10	A-AC11	A-AC12	A-AC13	A-AC14	A-AC15	A-AC16	A-DC1	A-DC2	A-DC3	A-DC4	A-DC5	A-DC6	A-DC7	A-DC8	A-DC9	A-DC10	A-DC11	A-DC12	A-DC13	A-DC14	A-DC15	A-DC16	A-Ph1	A-Ph2	A-Ph3	A-Ph4	A-Ph5	A-Ph6	A-Ph7	A-Ph8	A-Ph9	A-Ph10	A-Ph11	A-Ph12	A-Ph13	A-Ph14	A-Ph15	A-Ph16	B-AC1	B-AC2	B-AC3	B-AC4	B-AC5	B-AC6	B-AC7	B-AC8	B-AC9	B-AC10	B-AC11	B-AC12	B-AC13	B-AC14	B-AC15	B-AC16	B-DC1	B-DC2	B-DC3	B-DC4	B-DC5	B-DC6	B-DC7	B-DC8	B-DC9	B-DC10	B-DC11	B-DC12	B-DC13	B-DC14	B-DC15	B-DC16	B-Ph1	B-Ph2	B-Ph3	B-Ph4	B-Ph5	B-Ph6	B-Ph7	B-Ph8	B-Ph9	B-Ph10	B-Ph11	B-Ph12	B-Ph13	B-Ph14	B-Ph15	B-Ph16	aux-1	digaux	

960.882	1	1	0	768	0.22709	0.057768	0.14035	0.16049	0.12598	0.11097	0.15525	0.12974	0.15429	0.15508	0.17109	0.067054	0.21395	0.16513	0.28094	0.3776	-3.1917	-3.6021	-3.9125	-3.4354	-3.8917	-3.7125	-3.6729	-4.2854	-3.7104	-3.5563	-4.2979	-3.4333	-4.0583	-3.8854	-3.1625	-4.0833	43.781	26.335	-41.260	166.331	223.836	57.403	221.754	150.279	-23.108	81.547	-24.291	208.479	-54.232	-36.625	218.466	211.995	0.0010554	0.00058844	0.00013535	1466.4	5.5023e-06	5.2705e-06	1472.5	386.78	7.8938e-06	4.5781e-06	441.52	145.6	126.7	42.932	4.6955e-06	53.431	0.00069743	0.00070389	0.00020505	1472.9	7.6835e-06	7.9734e-06	1473.6	388.86	7.6492e-06	8.0045e-06	443.15	147.18	128.26	43.576	7.7591e-06	54.08	64.750	-37.043	-38.111	-112.481	41.359	30.579	-112.654	-107.952	-21.603	15.787	-108.265	-104.291	-103.596	-98.898	27.554	-99.848	-8191	255	
960.978	1	1	0	0	0.083142	0.16237	0.28575	0.1693	0.10063	0.055134	0.18088	0.14241	0.24484	0.28602	0.2075	0.24267	0.12426	0.11204	0.19891	0.19191	-3.1604	-3.4896	-3.9604	-3.4083	-3.8646	-3.9833	-3.5417	-4.1438	-3.4583	-3.3479	-4.3625	-3.5438	-3.6167	-4.1146	-3.4437	-4.0292	-15.914	78.372	208.949	170.561	99.604	178.902	190.794	211.605	46.939	111.007	193.399	202.248	-67.528	-15.007	-35.415	209.052	0.001079	0.00049043	0.00016087	1473.2	5.0563e-06	4.135e-06	1464.3	386.21	1.0718e-05	4.1422e-06	439.18	146.21	127.78	43.032	5.1529e-06	53.329	0.0007097	0.00074253	0.00019374	1477.6	7.6997e-06	7.3974e-06	1472.3	388.56	7.4229e-06	8.6339e-06	442.66	147.36	128.47	43.592	7.9245e-06	54.009	62.160	-34.436	-32.440	-112.566	21.204	24.992	-112.590	-107.914	-5.406	20.637	-108.314	-104.078	-104.169	-98.809	18.207	-99.551	-8191	255	
961.074	1	1	0	0	0.075906	0.023561	0.12068	0.091407	0.064954	0.19063	0.12721	0.19296	0.11297	0.011451	0.19505	0.19327	0.11046	0.29333	0.22857	0.19667	-3.4271	-3.3417	-4.1646	-3.6437	-3.6521	-4.1396	-3.4917	-4.1604	-3.6875	-3.3917	-4.2479	-3.7917	-3.6792	-4.1646	-3.1688	-3.8979	-110.006	72.930	43.565	148.219	43.042	63.778	133.868	113.145	-23.242	69.909	140.020	187.002	-59.849	179.965	39.428	214.965	0.0010659	0.0006086	0.00011334	1473.1	5.1346e-06	4.9046e-06	1468.7	387.18	8.5137e-06	5.2522e-06	440.65	145.72	126.78	43.04	5.6988e-06	52.958	0.00069107	0.00071993	0.00018662	1475.5	7.5358e-06	7.1983e-06	1471.7	388.37	7.4792e-06	8.7679e-06	442.85	147.03	127.95	43.621	7.7094e-06	53.946	61.880	-37.759	-28.978	-112.422	17.311	28.234	-112.516	-107.810	-12.057	32.397	-108.361	-104.109	-103.654	-98.623	9.463	-99.408	-8191	255	
961.170	1	1	0	0	0.1848	0.10894	0.10886	0.17255	0.26172	0.25476	0.29411	0.22436	0.15631	0.027357	0.11164	0.19094	0.13056	0.07045	0.18315	0.22456	-3.4	-3.2375	-3.9833	-3.7604	-3.3083	-4.1937	-3.6292	-4.0771	-3.8229	-3.4604	-4.0958	-3.7229	-3.3979	-4.2271	-3.3104	-3.9813	-80.775	-9.731	135.267	-122.290	-57.043	37.307	164.853	217.206	-19.689	-61.018	180.744	-102.109	-48.232	62.566	66.091	234.105	0.0010223	0.00045154	0.0001698	1467	6.0033e-06	5.1518e-06	1471.8	386.25	7.6821e-06	5.08e-06	439.37	146.11	126.93	42.983	4.0167e-06	53.287	0.00071552	0.00070798	0.0001899	1473.2	7.6008e-06	7.3334e-06	1472	388.13	7.1071e-06	8.043e-06	441.85	147.15	127.93	43.564	7.5037e-06	53.904	67.358	-31.075	-27.121	-112.297	13.427	14.513	-112.581	-107.743	-16.653	30.938	-108.323	-104.111	-103.708	-99.003	4.092	-99.528	-8191	255	
961.265	1	1	0	0	0.12721	0.044002	0.19389	0.13442	0.25963	0.22818	0.23881	0.09995	0.20287	0.20486	0.21711	0.31931	0.11951	0.19652	0.23029	0.085206	-3.6229	-3.0917	-3.8646	-3.5938	-3.3458	-4.1646	-3.7417	-3.8729	-4.0312	-3.4583	-4.1021	-3.7479	-3.5312	-4.1396	-3.5563	-3.7417	205.319	-55.150	184.689	140.589	-36.664	-78.452	166.523	183.044	-102.651	-46.075	26.951	-115.918	230.535	131.015	229.991	162.886	0.00107	0.00045956	0.00014597	1473.7	5.5732e-06	4.952e-06	1466.7	385.59	7.9989e-06	6.4934e-06	437.46	145.55	126.77	42.898	5.3252e-06	53.037	0.00069924	0.00068873	0.000184	1473.3	8.1323e-06	7.3903e-06	1469.9	387.54	7.1691e-06	8.5954e-06	441.87	146.91	128.01	43.562	7.626e-06	54.017	61.902	-31.254	-33.794	-112.717	18.565	29.058	-113.036	-108.325	-7.828	29.993	-108.783	-104.717	-104.023	-99.371	10.093	-100.014	-8191	255	
961.362	1	1	0	0	0.116	0.12078	0.12977	0.051987	0.2597	0.2081	0.20573	0.2851	0.29278	0.026396	0.058651	0.14998	0.27958	0.16672	0.16136	0.09611	-3.6813	-3.4125	-3.8312	-3.8896	-3.3479	-4.05	-3.6667	-3.8	-4.0604	-3.4333	-4.1	-3.9708	-3.5208	-4.3958	-3.4917	-3.7167	-20.276	-90.612	-28.524	159.812	222.241	14.915	150.364	190.345	111.464	214.659	66.946	192.808	-84.222	179.693	-61.318	137.452	0.0010668	0.00049597	0.00016756	1463.1	5.2895e-06	5.1251e-06	1463.6	385.97	8.3881e-06	6.8339e-06	439.3	145.65	127.45	42.888	5.2709e-06	53.271	0.00068863	0.00069544	0.000203	1472.1	7.6835e-06	6.6667e-06	1467.9	388.1	7.2277e-06	8.5935e-06	441.62	146.8	128.02	43.545	7.6704e-06	53.972	60.498	-42.981	-30.308	-112.732	14.395	29.619	-112.988	-108.258	-20.933	30.458	-108.551	-104.552	-104.130	-99.211	5.201	-99.860	-8191	255	
961.481	1	1	0	0	0.07281	0.092522	0.12082	0.16844	0.095733	0.11458	0.098373	0.090369	0.040437	0.037121	0.099203	0.16438	0.20619	0.15133	0.27856	0.14105	-3.7438	-3.45	-3.9625	-4.0417	-3.3271	-3.9896	-3.8958	-3.7771	-4.175	-3.3563	-3.9604	-4.225	-3.3812	-4.1271	-3.6063	-3.4292	199.603	172.396	232.362	-51.476	-6.675	-87.005	-109.907	-116.856	117.003	-102.508	205.416	132.753	-98.601	-119.743	178.875	220.110	0.0011314	0.00035082	0.00014759	1473.2	5.4075e-06	4.4281e-06	1461.8	385.7	7.7521e-06	5.11e-06	441.61	146.08	126.46	43.007	3.9762e-06	53.431	0.00067904	0.00069179	0.00019522	1474.5	8.026e-06	7.1023e-06	1469	387.41	6.9463e-06	8.3898e-06	443	146.88	127.62	43.562	7.3948e-06	54.086	63.545	-31.316	-31.856	-112.882	18.788	22.920	-112.824	-108.134	-7.979	13.492	-108.508	-104.298	-104.209	-99.310	25.017	-100.218	-8191	255	
961.578	1	1	0	0	0.17852	0.18134	0.11364	0.14466	0.1896	0.087973	0.25361	0.13063	0.12193	0.20971	0.24384	0.18333	0.15307	0.25307	0.21107	0.19227	-3.7938	-3.4354	-3.6396	-3.9271	-3.2979	-4.0146	-3.8083	-3.4437	-4.0104	-3.45	-3.6729	-4.3396	-3.3583	-3.9792	-4.0021	-3.4	59.120	143.679	142.018	63.763	142.293	115.954	194.434	169.158	-56.928	107.262	187.263	198.773	-118.689	192.372	202.449	80.601	0.0010542	0.00058915	0.00013375	1471.9	4.7812e-06	5.1501e-06	1467	385.88	8.5645e-06	5.3381e-06	438.19	146.28	127.07	42.912	5.3987e-06	53.111	0.00068613	0.00069908	0.0001916	1475.8	7.4487e-06	7.3796e-06	1470.6	387.75	7.037e-06	8.6853e-06	441.17	147.17	128	43.526	7.048e-06	53.983	62.066	-39.583	-34.405	-112.651	16.408	14.857	-113.253	-108.221	-12.616	34.642	-108.222	-104.405	-104.335	-99.255	5.595	-100.032	-8191	255	
961.674	1	1	0	0	0.27698	0.086199	0.18633	0.21806	0.043373	0.086108	0.12844	0.2623	0.13144	0.081192	0.095801	0.19952	0.12561	0.14475	0.067974	0.11556	-3.7	-3.4771	-3.4958	-4.2438	-3.3604	-3.7708	-4.0271	-3.6479	-4.2104	-3.6417	-3.4729	-4.3	-3.5583	-3.9188	-4.0771	-3.4479	113.424	-117.352	-107.345	179.163	53.832	-33.604	119.369	-121.499	172.554	201.647	-98.970	188.579	192.778	126.260	152.704	-115.225	0.0010938	0.00045	0.00012402	1480.9	5.9924e-06	4.8643e-06	1461.4	385.02	8.8246e-06	5.8401e-06	439.42	145.65	126.17	42.931	5.3782e-06	53.02	0.00068452	0.0006447	0.00020182	1475.5	7.8533e-06	7.7832e-06	1467.6	387.28	7.2793e-06	7.6375e-06	441.77	146.96	127.78	43.592	7.0561e-06	53.922	63.741	-45.362	-37.332	-112.908	9.798	15.833	-113.015	-108.235	-23.123	24.702	-108.644	-104.305	-103.903	-98.805	8.148	-99.796	-8191	255	
961.770	1	1	0	0	0.19146	0.2052	0.12601	0.22613	0.065791	0.058906	0.29344	0.23584	0.14887	0.11167	0.32046	0.06191	0.29305	0.05285	0.11164	0.16461	-3.7271	-3.6042	-3.4083	-4.0479	-3.5792	-3.8167	-4.4167	-3.4396	-3.9	-3.6667	-3.6583	-4.2292	-3.5167	-3.6125	-4.1146	-3.5625	115.142	130.118	86.772	-102.277	-25.894	42.487	208.923	115.676	-84.605	39.501	199.172	179.704	-85.299	224.616	35.419	175.670	0.0011015	0.00048455	0.00017737	1472.6	5.5434e-06	5.6482e-06	1463.7	384.7	5.8762e-06	4.7027e-06	438.25	145.88	126.19	43.003	5.5704e-06	53.16	0.0006918	0.00067371	0.00021628	1474	7.5388e-06	7.3227e-06	1470.2	387.42	7.1013e-06	7.9384e-06	441.51	147.28	127.74	43.551	6.7415e-06	53.996	65.824	-44.874	-38.559	-113.075	19.785	25.746	-112.847	-108.114	-5.181	22.377	-108.442	-104.214	-104.103	-99.056	-13.815	-99.450	-8191	255	
961.866	1	1	0	0	0.12842	0.3413	0.11538	0.2044	0.22063	0.014938	0.13634	0.23824	0.18859	0.20433	0.050215	0.13839	0.12382	0.3013	0.12967	0.25891	-3.6354	-3.7812	-3.4292	-4.2937	-3.5708	-3.5771	-4.2125	-3.6188	-4.0687	-3.7792	-3.5417	-4.2354	-3.6875	-3.6333	-4.3063	-3.5542	-42.074	-4.964	198.316	-87.677	-87.302	-119.540	140.258	119.352	167.376	226.465	157.911	208.921	30.369	163.363	55.312	-104.979	0.0010702	0.00035739	0.00014535	1472.7	5.8518e-06	4.828e-06	1465.6	385.53	8.3064e-06	4.3832e-06	440.56	145.58	127.22	42.984	4.2445e-06	53.272	0.00068608	0.00066905	0.00022038	1474.2	7.7514e-06	7.7707e-06	1468.2	387.4	7.6756e-06	7.2044e-06	441.84	146.86	128.09	43.645	7.0843e-06	54.046	63.293	-41.272	-30.288	-112.876	16.505	27.216	-112.780	-107.831	4.388	12.884	-108.311	-104.348	-103.829	-99.180	20.873	-99.805	-8191	255	
961.962	1	1	0	0	0.14974	0.1669	0.2413	0.20306	0.15674	0.097956	0.14449	0.25427	0.11469	0.13973	0.17262	0.15648	0.1592	0.15189	0.20881	0.28626	-3.5333	-3.8208	-3.1917	-4.2833	-3.5458	-3.6083	-4.2875	-3.5708	-3.8083	-3.9313	-3.3396	-4.0896	-3.7313	-3.6042	-4.1729	-3.4792	-123.891	-11.199	-0.305	-104.132	-81.634	1.867	216.474	125.330	184.511	-114.462	-118.182	-117.438	226.781	-125.179	-64.706	210.016	0.0010583	0.00051452	0.00014736	1475	5.7597e-06	5.5465e-06	1468.9	385.34	8.1751e-06	4.253e-06	438.39	145.63	127.5	43.075	6.1219e-06	53.124	0.00070085	0.00065622	0.00019348	1476.2	7.5255e-06	7.4525e-06	1472.3	387.83	7.3563e-06	7.0649e-06	441.59	147.01	128.15	43.677	7.3545e-06	53.982	61.264	-41.073	-30.170	-112.608	17.244	25.604	-112.625	-107.948	-6.317	14.976	-108.341	-104.162	-103.721	-98.981	-7.929	-99.715	-8191	255	
962.058	1	1	0	0	0.16948	0.25523	0.23745	0.26037	0.32196	0.15056	0.14998	0.14937	0.11435	0.10589	0.1899	0.089844	0.17557	0.24779	0.16275	0.075893	-3.2792	-3.9583	-3.2354	-4.1	-3.8146	-3.5042	-4.3688	-3.5042	-3.6167	-4.1188	-3.5042	-4.1604	-3.8438	-3.375	-4.0354	-3.4125	-64.709	194.791	107.984	-20.348	72.746	9.453	117.709	-93.596	191.590	172.246	156.564	-107.418	-95.510	206.097	194.241	154.921	0.0010606	0.00053555	0.00017622	1470.1	5.3558e-06	5.2236e-06	1471.7	385.67	7.2574e-06	6.4449e-06	440.54	145.88	127.3	43.146	4.0841e-06	53.116	0.00068594	0.00067488	0.00020553	1472.9	7.2391e-06	8.0409e-06	1470.4	387.7	7.3368e-06	7.6393e-06	441.74	146.96	127.91	43.66	7.1367e-06	53.981	64.249	-37.820	-36.325	-112.341	27.173	14.179	-112.635	-108.110	-20.864	26.468	-108.352	-104.141	-103.953	-99.253	14.170	-100.060	-8191	255	
962.177	1	1	0	0	0.18578	0.17211	0.06591	0.20844	0.020131	0.03549	0.17937	0.13574	0.16758	0.08484	0.098606	0.27298	0.23087	0.17201	0.065113	0.16492	-3.2917	-3.9854	-3.2875	-4.0896	-3.8854	-3.3771	-4.3542	-3.6667	-3.4729	-4.0875	-3.5479	-3.8063	-4.1083	-3.4604	-4.1479	-3.8208	49.222	67.309	113.907	201.976	-36.169	206.699	148.889	192.080	-37.708	82.074	28.159	133.940	213.350	141.323	202.029	138.812	0.0010103	0.00054169	0.00018139	1481.9	4.9175e-06	4.4778e-06	1467.7	384.82	9.7963e-06	6.2078e-06	439.41	145.47	127.24	42.981	5.3706e-06	53.327	0.00066931	0.00062137	0.00021322	1476.9	7.3985e-06	7.84e-06	1470.1	387.03	7.6492e-06	7.9935e-06	441.03	146.99	127.8	43.662	6.7859e-06	54.09	64.995	-31.795	-26.490	-112.754	9.853	13.256	-112.670	-107.982	-14.754	27.698	-108.233	-104.194	-104.062	-98.927	5.391	-99.663	-8191	255	
962.273	1	1	0	0	0.17897	0.073139	0.068136	0.34562	0.21514	0.12608	0.17816	0.24212	0.25336	0.14763	0.057979	0.23711	0.084169	0.090104	0.036934	0.11655	-3.1292	-4.25	-3.2938	-3.9688	-3.9333	-3.3625	-4.2625	-3.8521	-3.4083	-4.1125	-3.4417	-3.9646	-3.9917	-3.3958	-4.0542	-4.0042	183.219	219.612	-21.258	218.095	156.626	-78.801	226.056	182.736	213.351	-30.420	149.780	123.881	201.478	103.094	200.406	-105.098	0.0010396	0.00055406	0.00016005	1481.7	4.6118e-06	5.5036e-06	1465.5	383.21	6.2665e-06	4.286e-06	439.13	145.71	126.67	43.232	6.5733e-06	53.261	0.00069459	0.00065753	0.00019867	1477	7.2479e-06	8.0818e-06	1471.6	386.31	7.1163e-06	7.0558e-06	440.65	146.95	127.79	43.657	7.4997e-06	54.001	64.834	-35.926	-31.870	-112.102	5.567	22.079	-112.528	-107.857	-24.240	8.277	-108.330	-104.081	-103.656	-98.758	13.726	-99.677	-8191	255	
962.369	1	1	0	0	0.11156	0.11265	0.01709	0.082832	0.084151	0.21919	0.13296	0.21358	0.18594	0.17152	0.10138	0.15007	0.084156	0.12188	0.095546	0.25491	-3.1229	-4.1083	-3.4354	-3.5604	-4.1312	-3.3187	-4.175	-3.7583	-3.3312	-4.025	-3.6063	-3.7667	-4.0292	-3.3354	-3.9313	-3.8771	135.770	76.563	-60.937	20.979	25.886	69.807	134.622	197.523	156.260	151.459	-99.352	174.016	184.450	-104.506	-83.171	121.552	0.0010851	0.00039007	0.00010276	1465.2	5.2008e-06	5.1279e-06	1469	384.34	8.2707e-06	4.7032e-06	440.11	146.21	126.52	42.874	6.3494e-06	53.26	0.00070843	0.00065913	0.00019025	1472.5	7.0309e-06	8.0516e-06	1471.9	387.45	7.3241e-06	7.4154e-06	441.9	146.97	127.96	43.596	7.5656e-06	54.075	65.562	-44.074	-34.166	-112.574	34.017	28.931	-112.736	-107.977	-5.282	29.408	-108.610	-103.997	-103.939	-98.957	4.944	-99.808	-8191	255	
962.443	1	1	0	0	0.1037	0.15353	0.15498	0.16675	0.15418	0.084296	0.32433	0.30432	0.1029	0.30025	0.13246	0.20989	0.17814	0.11431	0.21311	0.25013	-3.0979	-3.9667	-3.3708	-3.5083	-4.1438	-3.2812	-4.0604	-4.0521	-3.3375	-4.0771	-3.8479	-3.6813	-4.1438	-3.6229	-3.6542	-4.1458	-64.613	149.240	3.364	102.582	-31.480	-102.749	-110.689	195.742	3.606	1.016	-47.527	219.107	-124.992	148.388	229.447	-109.563	0.0010755	0.00046976	0.00017994	1473.8	3.8535e-06	4.8375e-06	1471.4	384.88	9.4989e-06	5.401e-06	437.98	145.95	126.29	42.952	5.5822e-06	53.042	0.00071004	0.00063522	0.00019134	1476.4	6.9984e-06	7.5592e-06	1470.9	386.64	7.6457e-06	7.454e-06	441.18	146.93	127.67	43.524	7.1515e-06	53.908	66.395	-47.376	-27.404	-112.650	24.200	23.785	-112.507	-107.779	-14.673	29.745	-108.262	-104.058	-103.589	-99.100	23.133	-99.563	-8191	255	
962.562	1	1	0	0	0.061479	0.16824	0.22537	0.012911	0.091387	0.18908	0.18053	0.17552	0.073795	0.28599	0.096571	0.18815	0.034211	0.32492	0.19999	0.1352	-3.0312	-4.0896	-3.6583	-3.6437	-4.2333	-3.4833	-4.0604	-4.1813	-3.4958	-4.0583	-3.9938	-3.5646	-4.1875	-3.6229	-3.6292	-4.2896	-4.610	91.686	163.119	66.072	5.368	189.670	200.747	85.042	63.603	208.664	107.083	216.973	-15.308	205.581	162.409	221.803	0.001079	0.00045467	0.0001599	1473.7	4.5488e-06	4.8672e-06	1471.5	387.06	9.3932e-06	5.9801e-06	438.59	145.6	126.66	42.903	4.7355e-06	53.166	0.00071185	0.00068611	0.00019387	1472.3	6.9659e-06	7.1734e-06	1470.8	387.6	7.7594e-06	8.0779e-06	441.24	146.89	127.92	43.515	7.4298e-06	54.079	64.321	-27.536	-24.723	-112.900	26.133	32.725	-112.386	-107.885	-21.729	18.904	-108.550	-103.886	-103.835	-98.812	6.213	-99.499	-8191	255	
962.658	1	1	0	0	0.020857	0.20303	0.36846	0.14612	0.089893	0.03391	0.27815	0.16104	0.38647	0.13291	0.13524	0.10715	0.17224	0.078176	0.22035	0.12124	-3.0083	-4.0667	-3.7458	-3.3208	-4.0271	-3.6167	-3.675	-4.2688	-3.3833	-3.9208	-3.8875	-3.4458	-4.0625	-3.7083	-3.4708	-4.2271	204.769	73.869	-12.473	3.577	-101.256	-91.012	174.435	149.956	-94.213	64.972	209.884	176.360	150.957	142.583	179.029	151.410	0.0011081	0.00058177	0.0001163	1476.2	5.0549e-06	6.1943e-06	1464	385.77	7.221e-06	5.4133e-06	438.44	145.78	126.96	42.922	5.4123e-06	53.326	0.00066907	0.00066511	0.00018933	1473.9	6.9305e-06	7.9894e-06	1469.8	387.43	7.2805e-06	7.3989e-06	440.99	147.05	128.14	43.592	7.4379e-06	54.107	63.195	-23.080	-41.371	-112.259	22.750	33.393	-113.017	-108.331	-15.676	31.548	-108.634	-104.199	-103.977	-99.240	8.729	-99.855	-8191	255	
962.754	1	1	0	0	0.14836	0.023975	0.22703	0.12842	0.11744	0.20266	0.13659	0.30551	0.079659	0.2871	0.2958	0.1808	0.1103	0.1203	0.30634	0.25762	-3.0542	-3.975	-3.9188	-3.5146	-4.0583	-3.6	-3.7458	-4.3208	-3.5312	-3.7812	-4.0437	-3.3812	-4.1792	-3.8438	-3.4437	-4.2562	46.201	138.381	-63.053	160.314	-119.272	1.531	163.961	180.231	-22.076	144.998	56.821	148.010	182.452	179.837	97.859	182.969	0.001044	0.00046011	0.00014365	1468	3.828e-06	4.7727e-06	1473.4	384.49	7.0375e-06	4.043e-06	437.61	145.74	127.37	42.818	3.9757e-06	53.283	0.00070437	0.00063391	0.0001785	1473.1	7.1652e-06	7.0472e-06	1471.1	386.97	7.0129e-06	7.3365e-06	441.16	146.88	128.04	43.548	7.1515e-06	54.034	67.826	-29.414	-27.007	-112.754	22.260	29.775	-113.301	-108.329	-3.602	14.192	-109.146	-105.043	-104.515	-99.913	-4.347	-100.588	-8191	255	
962.850	1	1	0	0	0.17901	0.082011	0.21549	0.21358	0.14736	0.10252	0.16316	0.25486	0.22187	0.14542	0.21592	0.18464	0.02862	0.26591	0.050282	0.21739	-3.0187	-3.7333	-3.9958	-3.5104	-4.0917	-3.8312	-3.6312	-4.375	-3.4208	-3.5687	-4.2396	-3.4083	-3.9813	-3.8583	-3.2979	-4.1729	1.534	11.805	-125.036	202.046	-0.199	81.284	189.357	185.696	-14.709	116.266	-73.071	179.707	-71.962	204.492	180.717	197.116	0.0011181	0.00059774	0.00013641	1465.6	4.9033e-06	5.4538e-06	1464.5	385.06	7.9309e-06	5.4001e-06	438.72	144.75	127.45	42.878	4.8672e-06	53.3	0.00072197	0.00068684	0.00018911	1475.5	6.9704e-06	7.1058e-06	1468.5	387.35	7.3471e-06	7.7678e-06	440.38	146.5	128.04	43.624	7.3612e-06	53.988	67.000	-30.946	-34.496	-112.967	17.444	28.736	-112.957	-108.259	-22.795	29.531	-108.649	-104.385	-104.040	-99.088	9.918	-99.967	-8191	255	
962.971	1	1	0	0	0.18929	0.079998	0.15988	0.060117	0.10303	0.041966	0.16578	0.048143	0.1267	0.1887	0.22454	0.18756	0.14671	0.28914	0.2302	0.29988	-3.1417	-3.4417	-4.0458	-3.3563	-3.8937	-3.8542	-3.6	-4.1771	-3.6292	-3.5542	-4.2542	-3.5292	-4.0667	-4.3083	-3.4167	-4.1646	137.025	-88.119	221.786	127.439	233.242	-121.966	218.885	18.205	107.388	-104.963	190.776	-97.327	183.326	213.285	-112.296	215.156	0.0010461	0.00043968	0.00015984	1470.7	5.1717e-06	6.1835e-06	1465.5	384.93	1.0644e-05	5.2408e-06	440.12	145.59	126.77	42.955	5.1638e-06	53.293	0.00069425	0.00070506	0.0001902	1472.2	7.1032e-06	7.4116e-06	1469.2	387.44	7.3643e-06	7.8467e-06	441.57	146.78	127.9	43.585	6.966e-06	54.053	65.306	-17.478	-44.504	-112.600	17.063	23.177	-112.718	-107.884	-19.742	16.499	-108.635	-104.413	-103.620	-99.134	9.299	-99.667	-8191	255	
963.042	1	1	0	0	0.14496	0.054781	0.13362	0.26004	0.19486	0.048679	0.3117	0.20779	0.073453	0.23197	0.24376	0.2495	0.16256	0.16162	0.21829	0.13005	-3.2812	-3.3312	-4.1583	-3.4917	-3.8417	-3.8063	-3.5833	-4.0708	-3.5896	-3.3667	-4.2917	-3.5812	-3.6667	-4.0958	-3.3604	-4.0813	52.508	164.636	-65.421	219.460	193.212	-108.350	184.396	143.350	-61.993	32.147	200.089	-124.692	-50.681	-112.518	198.053	-103.969	0.0010266	0.00058081	0.00013132	1477.1	5.1599e-06	4.8376e-06	1467.6	384.67	5.3462e-06	5.8832e-06	437.37	145.27	127.11	43.039	5.3e-06	53.312	0.00067381	0.00070725	0.00017395	1476.7	7.5373e-06	7.2729e-06	1470.4	387.6	7.0898e-06	7.9036e-06	440.92	146.96	128.26	43.591	7.8129e-06	54.177	62.628	-30.101	-36.310	-112.793	20.649	27.142	-112.867	-108.160	-6.103	26.274	-108.833	-104.763	-103.977	-99.354	-1.878	-100.034	-8191	255	
963.163	1	1	0	0	0.09315	0.22528	0.26765	0.067053	0.16775	0.10954	0.16309	0.18082	0.08512	0.080114	0.15092	0.34868	0.20416	0.22377	0.20067	0.20846	-3.5083	-3.3396	-4.0979	-3.4396	-3.475	-4.1312	-3.4813	-3.8667	-3.7208	-3.2583	-4.2562	-3.7104	-3.5417	-4.2979	-3.4354	-3.9375	-40.420	44.967	130.991	134.863	40.100	-111.420	-28.501	144.154	39.120	0.247	165.803	176.498	114.855	195.819	-90.935	156.451	0.0011162	0.00046175	0.00013055	1469.7	5.8216e-06	4.8544e-06	1465.9	385.01	8.8978e-06	5.3483e-06	441.13	145.64	127.06	43.179	4.1397e-06	53.213	0.00070266	0.00067721	0.00020571	1473.4	7.4236e-06	7.0987e-06	1468.8	387.86	7.2219e-06	8.7495e-06	442.33	146.85	128.01	43.679	7.2698e-06	54.069	61.972	-39.037	-25.916	-113.114	20.194	34.777	-113.414	-108.658	-17.962	27.034	-109.031	-104.969	-104.343	-99.688	24.260	-100.313	-8191	255	
963.258	1	1	0	0	0.17726	0.16361	0.089431	0.10823	0.38142	0.21568	0.24169	0.10481	0.093934	0.16872	0.16295	0.402	0.18486	0.20995	0.21062	0.11873	-3.4979	-3.2125	-3.9562	-3.5708	-3.3438	-4.2104	-3.7396	-3.9271	-4.0958	-3.325	-4.2521	-3.8854	-3.5458	-4.1021	-3.3937	-3.7687	31.335	-16.582	179.153	-38.887	-47.732	-47.534	185.902	203.676	25.043	112.540	182.773	218.915	-96.517	186.502	18.292	195.278	0.0010424	0.00050008	0.00017302	1472.8	5.3116e-06	5.1023e-06	1467.4	385.93	8.2235e-06	4.645e-06	439.02	144.99	126.32	42.859	5.087e-06	53.436	0.00067933	0.00070404	0.0002002	1475	7.3926e-06	7.0098e-06	1469.6	387.36	7.3609e-06	8.1495e-06	441.45	146.37	127.73	43.587	7.7726e-06	54.074	66.182	-41.472	-37.249	-113.305	15.322	11.927	-113.328	-108.578	-16.657	24.486	-109.161	-104.965	-104.333	-99.453	4.265	-100.344	-8191	255	
963.354	1	1	0	0	0.11024	0.057173	0.15972	0.13294	0.12587	0.077083	0.30471	0.30186	0.31656	0.10122	0.092375	0.21856	0.17383	0.15448	0.16047	0.2966	-3.6937	-3.1875	-3.975	-3.7229	-3.2812	-3.9938	-3.5125	-3.6521	-4.0292	-3.35	-4.1396	-3.9458	-3.4375	-4.2333	-3.4875	-3.7625	73.085	-12.207	2.010	197.660	-54.465	118.928	180.146	139.811	-70.135	-46.200	202.417	-125.766	-61.226	-60.817	44.459	163.663	0.0010644	0.00053222	0.00015112	1476.3	5.0391e-06	4.4272e-06	1464.1	383.67	8.0703e-06	4.3876e-06	439.39	146.04	127.72	42.969	6.2099e-06	53.11	0.00067004	0.00068173	0.00017867	1472.4	7.8178e-06	7.1769e-06	1465.9	386.42	7.0003e-06	8.2192e-06	441.25	147.03	128.06	43.62	7.4486e-06	53.967	65.344	-33.381	-26.303	-113.182	4.886	21.603	-113.351	-108.325	-19.336	17.047	-108.894	-104.909	-104.543	-99.487	7.375	-100.261	-8191	255	
963.450	1	1	0	0	0.11609	0.12735	0.24206	0.25156	0.080432	0.03062	0.20694	0.25029	0.20148	0.174	0.42963	0.11528	0.21017	0.14596	0.22483	0.2583	-3.6917	-3.1521	-3.8271	-3.9167	-3.2125	-4.1396	-3.8708	-3.5375	-4.1375	-3.5146	-3.8792	-3.9896	-3.3646	-4.0687	-3.6146	-3.5187	98.018	-64.261	230.566	47.432	-84.774	107.004	123.200	213.841	226.258	-60.345	-111.636	94.074	212.428	173.896	203.957	117.339	0.0010024	0.00050771	0.0001245	1474.1	4.9208e-06	4.745e-06	1463.8	385.47	1.099e-05	5.8686e-06	439.86	145.58	126.74	42.884	4.6719e-06	53.424	0.00066339	0.00071979	0.00018924	1471	7.4532e-06	7.0418e-06	1467.8	386.84	7.3207e-06	8.0705e-06	441.29	146.69	128.02	43.554	7.087e-06	54.091	63.039	-47.836	-39.302	-113.223	19.455	21.142	-113.519	-108.486	-13.909	9.796	-108.977	-104.855	-104.472	-99.557	0.269	-100.309	-8191	255	
963.570	1	1	0	0	0.25518	0.056074	0.05846	0.082532	0.10843	0.12715	0.31458	0.012532	0.10794	0.18895	0.064504	0.22645	0.084454	0.093731	0.078407	0.048958	-3.7354	-3.3896	-3.7021	-4.0604	-3.2229	-3.9562	-3.7938	-3.7208	-3.9771	-3.5583	-3.7292	-4.1104	-3.5292	-3.9708	-3.6188	-3.3646	-77.781	216.825	163.601	174.961	-105.614	-111.854	170.807	-85.711	-31.577	141.090	105.661	228.867	128.305	186.223	224.194	113.434	0.001072	0.00043532	0.00014339	1474.4	5.5709e-06	5.8708e-06	1461	384.73	8.1458e-06	4.501e-06	437.57	145.59	126.56	43.011	4.9138e-06	53.331	0.00066838	0.00066263	0.00018348	1470.3	7.5181e-06	7.5556e-06	1467.2	386.56	7.1335e-06	7.6522e-06	440.38	146.6	127.78	43.581	7.1851e-06	54.013	62.529	-33.000	-31.545	-113.204	23.936	20.362	-113.499	-108.480	-13.662	23.330	-108.762	-104.685	-104.512	-99.640	3.056	-100.104	-8191	255	
963.667	1	1	0	0	0.38222	0.026274	0.35379	0.1877	0.1145	0.17701	0.21863	0.13732	0.051985	0.2477	0.16866	0.31452	0.20137	0.11197	0.12347	0.068321	-3.7188	-3.2854	-3.3521	-3.9688	-3.1396	-3.9354	-3.9042	-3.5833	-4.1521	-3.35	-3.5187	-4.2104	-3.3521	-3.9479	-3.9062	-3.3479	-8.931	-71.943	-36.036	-117.045	133.927	60.658	141.497	145.550	69.209	-82.216	-124.037	-93.237	-92.932	199.529	-72.180	-11.847	0.0010339	0.00049728	0.00015023	1468.1	5.5059e-06	4.6609e-06	1466.9	383.97	9.0171e-06	6.1703e-06	439.68	145.59	126.96	42.898	7.252e-06	53.252	0.00069034	0.00072343	0.00019265	1472.4	7.6805e-06	7.2303e-06	1466.7	386.84	7.1967e-06	8.0283e-06	440.41	146.64	127.9	43.585	7.6771e-06	54.001	65.320	-42.530	-31.433	-113.123	12.985	46.998	-113.359	-108.483	-8.083	22.087	-108.833	-105.055	-104.545	-99.602	5.903	-100.550	-8191	255	
963.738	1	1	0	0	0.07967	0.1136	0.25613	0.097332	0.22329	0.2517	0.23261	0.23785	0.095169	0.098047	0.16593	0.045739	0.16373	0.27773	0.12809	0.06706	-3.8104	-3.5104	-3.4875	-4.1292	-3.4396	-3.8104	-4.0188	-3.5458	-3.9542	-3.6583	-3.5125	-4.1646	-3.4813	-3.6729	-3.8667	-3.4437	98.918	16.749	-71.502	182.373	93.054	-6.191	173.771	159.744	180.585	97.987	112.905	-125.929	171.958	-62.799	-69.169	100.496	0.0010322	0.00044074	0.00013145	1465.8	4.7282e-06	5.4375e-06	1465.2	384.26	7.0873e-06	4.8611e-06	438.53	145.49	127.92	42.908	6.5673e-06	53.228	0.00068863	0.00062604	0.00018736	1468.8	7.4236e-06	7.3369e-06	1466.7	386.88	7.2058e-06	7.1805e-06	440.62	146.57	128.03	43.556	7.2255e-06	54.054	66.372	-38.561	-33.749	-113.257	19.548	24.506	-113.126	-108.543	-9.292	28.643	-108.913	-104.614	-104.469	-99.561	-0.914	-100.068	-8191	255	
963.859	1	1	0	0	0.16027	0.068941	0.18242	0.12667	0.25649	0.20853	0.27974	0.1938	0.10375	0.23763	0.087455	0.11229	0.26667	0.12891	0.035202	0.08118	-3.7208	-3.7583	-3.3771	-4.3063	-3.1833	-3.7042	-4.3438	-3.5396	-3.8521	-3.7542	-3.4333	-4.2021	-3.7167	-3.6437	-4.1104	-3.3604	-121.997	205.142	-84.489	-126.396	-75.500	0.867	207.713	223.689	-57.319	12.375	228.963	151.115	183.573	145.723	137.186	-27.631	0.0010827	0.00052517	0.00014212	1471.1	5.0157e-06	4.515e-06	1461.4	383.43	8.7495e-06	5.6935e-06	439.2	144.61	126.83	42.927	5.4701e-06	53.124	0.00067273	0.00070593	0.00020038	1470.1	7.5329e-06	7.136e-06	1465.8	386.78	6.712e-06	7.6577e-06	440.91	146.34	128.05	43.574	7.1569e-06	54.006	64.059	-34.044	-25.264	-112.913	17.318	43.585	-113.705	-108.992	-0.872	23.051	-109.265	-105.268	-104.874	-99.811	0.501	-100.484	-8191	255	
963.955	1	1	0	0	0.051346	0.27718	0.18252	0.15599	0.32319	0.068851	0.10897	0.19588	0.088055	0.24253	0.17501	0.29029	0.064179	0.14717	0.21125	0.10313	-3.7021	-3.7292	-3.4167	-4.2229	-3.5625	-3.4813	-4.3208	-3.4437	-3.6937	-3.9458	-3.2708	-4.1917	-3.6021	-3.4	-3.9917	-3.5333	-78.105	-82.655	-111.470	189.514	199.673	200.679	172.482	196.726	-33.050	208.219	176.338	207.903	138.197	216.570	-47.005	168.068	0.0011335	0.00045624	0.00015962	1470.8	5.2251e-06	4.1783e-06	1464	382.65	8.1866e-06	6.2219e-06	438.9	145.84	127.23	42.691	3.9753e-06	53.249	0.00069395	0.00067007	0.00018776	1473.5	7.1136e-06	7.2409e-06	1466.5	385.89	6.9888e-06	7.531e-06	441.19	146.69	127.78	43.505	6.7012e-06	53.964	62.854	-33.922	-26.323	-113.406	27.683	23.091	-113.816	-108.903	-15.464	16.562	-109.411	-105.290	-104.879	-99.707	6.352	-100.666	-8191	255	
964.051	1	1	0	0	0.13511	0.21038	0.39173	0.076669	0.19459	0.39116	0.14707	0.2818	0.21239	0.14177	0.11678	0.18786	0.42698	0.13119	0.2289	0.25086	-3.3167	-3.8083	-3.2375	-3.8667	-3.4917	-3.4083	-4.3104	-3.4375	-3.5958	-3.9771	-3.4125	-4.0271	-3.625	-3.4125	-4.0417	-3.5687	32.512	104.286	-83.973	213.440	84.000	207.112	168.505	167.993	171.218	-40.424	-23.371	-87.883	202.211	-109.899	-32.334	98.954	0.0010759	0.00045927	0.00017111	1464.9	4.7713e-06	5.5445e-06	1460.6	383.04	9.7214e-06	4.3247e-06	437.58	145.15	126.84	43.003	4.8518e-06	52.999	0.00068872	0.00060898	0.00020413	1467.3	6.9659e-06	7.2072e-06	1462.7	385.59	7.2782e-06	7.2099e-06	439.75	146.6	127.76	43.541	7.0977e-06	53.908	63.324	-41.479	-26.881	-113.071	23.539	19.717	-113.707	-109.109	5.034	19.749	-109.691	-105.072	-105.130	-99.669	13.226	-100.568	-8191	255	
964.147	1	1	0	0	0.063292	0.24637	0.13033	0.12157	0.050684	0.086951	0.10773	0.22053	0.13913	0.13587	0.042317	0.13634	0.083297	0.14093	0.18966	0.14263	-3.2021	-3.7604	-3.1375	-4.0729	-3.8167	-3.3625	-4.1042	-3.7479	-3.4021	-4.0208	-3.4062	-3.8958	-3.8854	-3.2938	-3.9646	-3.6979	-26.062	-59.539	209.089	185.496	187.471	44.351	190.579	168.723	-85.841	140.843	65.363	130.027	-41.683	216.737	-0.263	190.333	0.001109	0.0004975	0.00016157	1471.7	5.4681e-06	5.0625e-06	1459.8	385.93	8.8555e-06	5.4151e-06	438.92	145.42	125.83	42.975	4.5781e-06	52.892	0.00068863	0.00065053	0.0001937	1471.6	7.0693e-06	7.7547e-06	1465.3	386.79	7.5906e-06	7.3218e-06	441.17	146.52	127.57	43.543	6.7926e-06	53.912	62.363	-41.574	-43.042	-113.290	22.108	17.735	-113.556	-108.848	-3.039	32.117	-109.373	-105.332	-104.475	-99.669	0.102	-100.707	-8191	255	
964.266	1	1	0	0	0.11647	0.1204	0.056083	0.080084	0.3348	0.29387	0.45248	0.13026	0.18824	0.055928	0.18627	0.13497	0.042516	0.26317	0.21049	0.17625	-3.0208	-4.0208	-3.225	-3.9146	-3.7687	-3.2729	-4.2333	-3.7917	-3.3167	-4.1771	-3.55	-3.7458	-3.9562	-3.2792	-4.0333	-3.7083	-2.928	58.158	-11.807	-28.101	26.950	-57.150	-123.658	222.154	-91.464	107.810	111.890	124.906	-72.884	127.528	-46.389	-101.490	0.00099504	0.00045998	0.00014239	1469.2	5.7882e-06	4.3153e-06	1461.6	384.22	7.5341e-06	4.0146e-06	437.36	145.35	126.48	43.093	5.4602e-06	52.923	0.00069625	0.00061817	0.0001926	1468	7.3099e-06	7.1414e-06	1463.7	386.37	7.4355e-06	6.8869e-06	439.24	146.56	127.56	43.602	6.7523e-06	53.89	64.451	-43.453	-34.930	-113.429	9.570	28.500	-113.610	-109.014	-15.220	24.444	-109.249	-105.044	-104.685	-99.772	5.700	-100.709	-8191	255	
964.338	1	1	0	0	0.14569	0.15179	0.089756	0.19732	0.1628	0.14122	0.097222	0.20276	0.13469	0.154	0.17462	0.18755	0.12141	0.23025	0.21952	0.16292	-3.1458	-4.1125	-3.4646	-3.5229	-3.8625	-3.1688	-4.2396	-3.8479	-3.1458	-4.1104	-3.6729	-3.7313	-3.9062	-3.4875	-3.7958	-3.9042	-34.681	-92.453	-84.482	216.794	-46.661	216.475	188.598	200.158	152.870	37.272	191.085	228.392	46.517	118.489	222.964	182.991	0.0010686	0.00051073	0.00015042	1463.4	5.2008e-06	5.4709e-06	1460.1	383.99	8.918e-06	6.3458e-06	436.76	145.21	126.68	42.948	4.7745e-06	52.941	0.00069361	0.00064791	0.00019697	1465.7	7.4118e-06	7.7547e-06	1465.5	386.14	7.5768e-06	7.3604e-06	439.48	146.4	127.7	43.472	7.333e-06	53.902	65.995	-43.960	-42.984	-113.080	20.653	14.649	-113.133	-108.899	-11.787	36.189	-109.598	-104.842	-104.790	-99.602	12.589	-100.518	-8191	255	
964.434	1	1	0	0	0.13244	0.20309	0.14108	0.20346	0.15852	0.21187	0.36979	0.19795	0.23537	0.061334	0.27811	0.3363	0.19729	0.11958	0.072605	0.055206	-3.0187	-3.9604	-3.2917	-3.575	-3.9417	-3.2729	-4.1479	-4.075	-3.2979	-3.9125	-3.5479	-3.6167	-4.0083	-3.2875	-3.8896	-3.9708	135.943	-15.166	57.777	-118.806	44.414	157.204	209.807	-90.143	132.725	77.557	204.193	186.852	-65.071	218.821	89.472	108.575	0.0011367	0.00045675	0.000165	1471.4	5.2261e-06	5.2246e-06	1455.2	384.33	9.4909e-06	5.2596e-06	438.77	145.14	127.18	42.938	5.6517e-06	52.94	0.00068217	0.00062239	0.00020536	1468.6	7.2066e-06	7.5965e-06	1462.2	386	7.6595e-06	7.3622e-06	440.39	146.49	127.76	43.478	7.626e-06	53.882	65.311	-26.935	-28.787	-113.082	13.659	27.800	-113.294	-108.549	-11.115	28.546	-109.034	-104.900	-104.536	-99.429	18.283	-100.357	-8191	255	
964.530	1	1	0	0	0.17618	0.18787	0.20421	0.075644	0.345	0.19335	0.27898	0.37323	0.043399	0.2558	0.10635	0.1799	0.13908	0.33829	0.21089	0.22118	-2.8979	-4.0646	-3.5396	-3.5521	-4.1146	-3.3854	-3.8312	-4.2542	-3.3292	-4.0479	-3.7625	-3.4792	-4.1354	-3.5062	-3.6354	-3.9313	67.792	8.003	29.814	144.004	75.089	31.911	189.022	153.102	158.102	84.352	173.062	90.111	-88.718	6.752	171.703	180.052	0.0010907	0.00053867	0.00015629	1462.4	5.9835e-06	6.0585e-06	1463	382.76	7.2999e-06	5.8021e-06	438.39	144.62	126.82	42.842	5.1958e-06	53	0.00069699	0.00066759	0.00019915	1467	7.0279e-06	7.9787e-06	1463.7	385.77	7.1875e-06	7.9568e-06	439.06	146.47	127.57	43.468	7.4419e-06	53.911	63.019	-29.348	-30.154	-113.260	16.713	17.416	-113.266	-108.499	-16.774	33.988	-108.766	-104.877	-104.491	-99.322	6.261	-100.008	-8191	255	
964.651	1	1	0	0	0.088834	0.13948	0.11367	0.38671	0.043434	0.085282	0.096517	0.33352	0.22555	0.27141	0.22216	0.057717	0.14425	0.10524	0.02316	0.15817	-2.8979	-3.9771	-3.6333	-3.2521	-4.0042	-3.4292	-3.9062	-4.1125	-3.2708	-3.9813	-3.9667	-3.5187	-4.2271	-3.5938	-3.3896	-4.2812	-94.533	151.152	-20.267	231.872	119.002	36.812	169.198	218.139	176.159	24.176	202.553	212.052	-94.492	221.364	47.106	216.428	0.0010041	0.0005458	0.00016195	1469.2	4.7458e-06	4.2025e-06	1463.2	384.11	9.2201e-06	5.1214e-06	436.89	145.57	127.15	43.003	5.5687e-06	53.048	0.00069479	0.00064339	0.00018675	1467.1	6.805e-06	8.0587e-06	1461.9	385.48	7.3172e-06	7.4301e-06	439.12	146.57	128	43.552	7.2591e-06	53.896	64.253	-46.501	-27.618	-112.908	14.476	15.370	-113.060	-108.363	-18.072	26.023	-108.925	-104.855	-104.361	-99.583	-6.853	-100.038	-8191	255	
964.747	1	1	0	0	0.089289	0.11969	0.25624	0.5647	0.20583	0.07928	0.2673	0.052014	0.31174	0.20049	0.22522	0.17283	0.25587	0.16921	0.092225	0.29137	-2.7896	-3.7208	-3.6937	-3.1833	-4.0167	-3.5521	-3.6667	-4.2396	-3.4083	-3.8771	-4.0479	-3.3604	-3.9771	-3.6896	-3.3771	-4.1083	-28.725	79.210	-28.267	208.624	180.083	-24.799	144.629	146.644	92.074	7.509	208.140	233.146	-72.081	191.203	-47.067	167.108	0.00105	0.00054008	0.00012341	1466.8	3.8727e-06	4.4832e-06	1459.2	382.73	9.1414e-06	4.2527e-06	436.62	144.84	126.57	42.846	5.2188e-06	53.148	0.00069425	0.00061073	0.00017906	1468	6.7489e-06	6.8694e-06	1460.9	385.2	7.4757e-06	7.4154e-06	438.57	146.27	127.48	43.48	7.0762e-06	54.031	62.686	-31.244	-37.958	-113.158	22.617	22.961	-113.192	-108.680	-11.582	17.540	-109.192	-104.649	-104.712	-99.626	12.280	-100.157	-8191	255	
964.843	1	1	0	0	0.20009	0.088139	0.16935	0.219	0.12601	0.055825	0.24255	0.1477	0.047104	0.033778	0.26843	0.090565	0.17433	0.08701	0.13771	0.17655	-3.0333	-3.6167	-3.7979	-3.2792	-3.8521	-3.7958	-3.4521	-4.2708	-3.5771	-3.5042	-4.1271	-3.4083	-3.8896	-3.8458	-3.2375	-4.2271	127.155	-110.424	59.354	151.990	202.042	106.480	197.376	196.060	162.064	15.958	200.645	167.228	199.963	174.807	207.569	-100.448	0.0011248	0.00044535	0.00015967	1466.1	5.1418e-06	5.055e-06	1456.9	384.86	9.5538e-06	5.4194e-06	438.36	144.62	126.63	42.915	5.6421e-06	53.186	0.00070946	0.00065622	0.00017697	1466.5	7.1416e-06	7.4063e-06	1459.2	386.02	7.5768e-06	8.166e-06	439.38	146.34	127.67	43.534	7.1824e-06	53.995	64.535	-38.640	-31.781	-113.404	29.229	13.831	-113.547	-108.727	-5.922	14.756	-109.125	-105.167	-104.592	-99.874	7.931	-100.693	-8191	255	
964.939	1	1	0	0	0.15106	0.00298	0.40983	0.14266	0.11958	0.25846	0.32834	0.099283	0.11803	0.016302	0.40425	0.13086	0.23874	0.11384	0.14683	0.017088	-2.9646	-3.4917	-4.0167	-3.3187	-3.825	-3.7896	-3.5375	-4.2146	-3.5854	-3.45	-4.0875	-3.2562	-3.8438	-3.9562	-3.4271	-4.1687	81.973	200.042	-85.249	-120.283	77.070	-110.262	185.984	-113.180	-76.582	175.369	161.693	170.532	226.204	131.206	102.375	35.535	0.0010607	0.00044477	0.00015395	1466.4	4.6485e-06	6.6732e-06	1457.7	383.76	7.8763e-06	4.6468e-06	434.99	144.55	126.95	42.93	4.9575e-06	53.436	0.00068002	0.00066715	0.00017483	1466.1	7.0279e-06	7.5414e-06	1460.6	385.79	7.2081e-06	7.3237e-06	439.22	146.16	127.49	43.521	7.294e-06	53.998	63.200	-30.706	-35.656	-113.115	33.885	28.107	-113.474	-108.637	-33.450	27.913	-109.210	-105.230	-104.873	-99.798	-1.349	-100.382	-8191	255	
965.035	1	1	0	0	0.30187	0.096145	0.10783	0.18479	0.098484	0.20673	0.36016	0.30033	0.099042	0.05715	0.12499	0.37168	0.29768	0.092665	0.17909	0.16603	-3.1333	-3.4813	-4.0292	-3.4104	-3.7979	-3.8354	-3.5062	-4.1583	-3.6229	-3.4896	-4.0875	-3.5	-3.6833	-4.0604	-3.2771	-3.9979	231.873	-87.680	-28.857	-70.757	46.858	-16.331	182.912	155.482	-52.554	63.691	-114.414	214.264	232.738	-84.388	91.917	144.554	0.0011048	0.00053519	0.00014999	1469.8	5.7269e-06	4.6225e-06	1453.9	382.91	7.6362e-06	5.0615e-06	435.85	144.3	126.66	42.953	5.5948e-06	53.369	0.00068486	0.00068771	0.00018099	1467.9	7.4827e-06	7.024e-06	1460.9	385.52	7.1277e-06	7.7879e-06	438.77	146.04	127.57	43.495	7.4379e-06	53.953	62.904	-43.523	-43.772	-113.457	23.292	30.574	-113.623	-108.743	-13.450	19.171	-109.436	-105.400	-104.411	-99.907	4.736	-100.499	-8191	255	
965.132	1	1	0	0	0.11925	0.13205	0.10223	0.08099	0.25903	0.17212	0.14292	0.24956	0.075743	0.12455	0.27141	0.2191	0.23965	0.1679	0.084916	0.18208	-3.4271	-3.2042	-4.0062	-3.4813	-3.5812	-4.1104	-3.4938	-4.1062	-3.7646	-3.1167	-4.1562	-3.7021	-3.4729	-3.9667	-3.1021	-3.8271	99.064	-90.911	-86.260	-77.797	125.742	70.274	224.533	209.606	189.185	176.229	182.216	127.579	230.270	187.754	20.432	209.137	0.0010448	0.00051426	0.00018521	1450.7	4.7932e-06	4.334e-06	1456.8	382.99	6.9672e-06	5.7977e-06	438.84	145.09	127.06	42.952	4.7566e-06	53.067	0.0006808	0.00067007	0.00017561	1460.6	7.242e-06	7.2178e-06	1460.1	385.99	6.952e-06	8.3752e-06	439.42	146.17	127.56	43.53	7.3948e-06	53.873	63.946	-31.360	-25.265	-113.263	23.569	26.281	-113.413	-108.704	-23.612	21.806	-109.235	-105.191	-104.645	-99.904	10.207	-100.362	-8191	255	
965.252	1	1	0	0	0.14012	0.092415	0.1542	0.029328	0.2462	0.21689	0.25049	0.19122	0.084711	0.23306	0.086367	0.11257	0.11177	0.17346	0.13701	0.16633	-3.5417	-3.2458	-4.1917	-3.5604	-3.4229	-3.8042	-3.6292	-3.9354	-3.8208	-3.0771	-4.1396	-3.7708	-3.2875	-4.0896	-3.2604	-3.6688	-93.998	39.498	-66.338	-55.824	176.611	55.637	105.870	154.868	67.888	11.867	135.119	216.230	199.467	178.501	-110.680	-91.635	0.0010315	0.00049932	0.00014562	1457.5	5.2178e-06	4.6628e-06	1448.5	382.81	1.0838e-05	4.7959e-06	439.85	144.81	125.84	42.924	4.2172e-06	53.033	0.00064975	0.00067605	0.00017037	1463	7.4591e-06	7.0703e-06	1457.9	385.88	7.4114e-06	8.1935e-06	439.83	146.21	127.38	43.494	7.2281e-06	53.906	64.156	-35.620	-37.305	-113.483	13.897	24.915	-113.291	-108.469	-7.818	12.818	-109.037	-105.003	-104.512	-99.724	30.027	-100.503	-8191	255	
965.347	1	1	0	0	0.098229	0.2528	0.058682	0.2137	0.034485	0.19377	0.24538	0.30041	0.42738	0.19211	0.040906	0.19885	0.28134	0.13702	0.1662	0.14681	-3.5208	-3.1021	-3.8396	-3.6604	-3.3271	-4.025	-3.7062	-3.8042	-3.9271	-3.2583	-4.0271	-3.7646	-3.225	-4.2833	-3.525	-3.6604	171.328	-86.195	-97.495	133.558	84.731	195.412	181.934	-117.162	24.821	-68.059	-63.154	-115.124	197.008	168.222	-87.810	102.578	0.0010761	0.00057787	0.00015871	1468.1	5.5761e-06	4.9717e-06	1460.4	383.8	5.2972e-06	5.3775e-06	436.97	144.89	126.57	43.063	4.7211e-06	53.05	0.00068642	0.00072241	0.00018867	1466.2	7.4207e-06	7.0525e-06	1461.3	385.64	6.9658e-06	8.4981e-06	439.56	146.45	127.56	43.5	7.2564e-06	53.859	62.953	-39.625	-30.693	-113.302	16.028	26.678	-113.604	-108.340	-30.074	35.423	-109.181	-105.093	-104.547	-99.545	13.748	-100.268	-8191	255	
965.443	1	1	0	0	0.073874	0.10889	0.24422	0.12322	0.28459	0.029316	0.40244	0.3005	0.12573	0.42668	0.14956	0.16184	0.43051	0.19069	0.18171	0.2873	-3.6562	-3.225	-3.7125	-3.7396	-3.1937	-4.1271	-3.8312	-3.7333	-3.975	-3.4979	-3.9104	-3.9417	-3.2146	-4.1521	-3.4917	-3.4771	84.193	89.075	29.859	-112.800	172.112	-63.003	154.260	169.649	-49.904	-17.202	153.584	168.661	-88.692	195.184	24.446	-90.773	0.0010552	0.00067503	0.00015527	1459.6	5.5633e-06	5.7316e-06	1464.5	383.92	7.4454e-06	5.1222e-06	436.66	144.82	125.95	43.041	4.5428e-06	53.276	0.00066652	0.00075638	0.0001878	1462.7	7.5432e-06	6.3751e-06	1462.5	385.74	6.766e-06	8.1329e-06	439.92	146.32	127.46	43.525	7.2402e-06	53.97	64.316	-37.722	-38.055	-113.204	24.134	28.401	-113.477	-108.575	-6.223	33.369	-108.895	-105.080	-104.249	-99.638	5.025	-100.324	-8191	255	
965.563	1	1	0	0	0.21759	0.13696	0.18138	0.10874	0.20101	0.17989	0.12223	0.11389	0.18947	0.098049	0.20392	0.22422	0.12147	0.099468	0.095922	0.28899	-3.6688	-3.325	-3.7729	-3.9521	-3.1396	-3.9146	-3.8604	-3.6042	-4.0292	-3.3083	-3.7625	-4.1687	-3.2792	-4.0646	-3.7104	-3.5312	119.800	-35.285	-37.153	-107.618	136.682	33.192	129.894	-94.139	105.239	-44.584	212.571	185.807	81.135	78.256	35.607	176.810	0.0010966	0.00057839	0.00013498	1464.9	5.9791e-06	6.1545e-06	1458.5	382.94	6.9559e-06	5.4879e-06	438.34	144.5	126.01	42.793	4.9873e-06	53.099	0.00069723	0.0007036	0.00018588	1464	7.6318e-06	7.2089e-06	1461.4	386.3	6.3444e-06	7.8724e-06	439.84	146.24	127.48	43.456	6.9136e-06	53.942	66.266	-44.961	-43.322	-113.108	25.095	30.266	-113.301	-108.500	-22.658	29.105	-109.038	-104.848	-104.686	-99.464	8.066	-100.201	-8191	255	
965.635	1	1	0	0	0.072837	0.20978	0.056306	0.063903	0.12488	0.099155	0.028189	0.24512	0.14626	0.12721	0.16861	0.061992	0.14743	0.18194	0.038443	0.21362	-3.5146	-3.2292	-3.6813	-3.8271	-3.225	-3.8458	-4.0542	-3.4792	-4.0729	-3.4604	-3.6458	-4.1937	-3.3	-3.8875	-3.8312	-3.4333	74.574	30.623	-121.942	-3.360	223.412	-105.897	78.921	161.655	-41.802	130.059	116.077	-25.631	-16.620	213.377	158.310	156.816	0.0010775	0.00050789	0.00014604	1465.7	6.0782e-06	4.7093e-06	1462.9	383.35	6.4648e-06	4.8796e-06	436.16	145.17	126.55	42.793	4.6748e-06	53.225	0.00068427	0.00067065	0.00018033	1464.4	7.5211e-06	7.1129e-06	1464.5	385.13	6.6304e-06	8.1586e-06	439.59	146.34	127.58	43.454	6.9929e-06	53.947	62.988	-44.456	-29.916	-112.805	20.739	32.705	-112.964	-108.252	-16.683	19.629	-108.919	-104.787	-104.145	-99.686	1.524	-100.164	-8191	255	
965.731	1	1	0	0	0.10049	0.23685	0.292	0.14481	0.055294	0.1063	0.32401	0.41986	0.25912	0.18521	0.17604	0.4098	0.19752	0.33814	0.078837	0.13093	-3.6375	-3.4625	-3.2917	-4.1208	-3.2542	-3.7542	-4.1229	-3.5458	-4.1583	-3.5167	-3.4958	-4.1229	-3.5417	-3.7167	-3.8625	-3.3542	-113.657	224.418	-100.794	150.878	55.904	-59.880	167.329	190.901	45.487	64.399	203.591	157.965	-115.547	-120.790	215.028	-106.028	0.001022	0.00057673	0.0001273	1460.8	5.818e-06	4.4522e-06	1459.3	383.63	7.8903e-06	5.4854e-06	438.45	145.61	126	43.018	5.02e-06	53.136	0.00067151	0.000702	0.00019173	1466.8	7.7248e-06	7.088e-06	1461.4	385.84	7.315e-06	7.4723e-06	439.84	146.6	127.6	43.525	6.7805e-06	53.976	65.161	-42.346	-43.484	-112.588	14.059	30.579	-113.095	-108.159	-12.660	22.824	-108.464	-104.506	-104.215	-99.241	15.458	-100.026	-8191	255	
965.827	1	1	0	0	0.028727	0.075645	0.13409	0.21388	0.20674	0.19459	0.43379	0.17336	0.025771	0.089741	0.048752	0.28191	0.17308	0.15738	0.075125	0.20675	-3.6146	-3.5958	-3.2042	-4.2021	-3.4	-3.5667	-4.0729	-3.5	-3.9729	-3.6604	-3.5375	-4.1875	-3.5958	-3.6167	-3.9083	-3.3563	103.667	173.311	-109.582	149.281	48.502	208.239	135.054	199.369	121.855	117.543	25.656	180.564	-69.498	225.359	20.987	128.908	0.0010103	0.0005844	0.00016025	1465.3	4.7391e-06	5.313e-06	1461.5	385.07	8.3752e-06	5.5307e-06	437.46	145.48	126.14	42.811	5.2136e-06	53.146	0.00064887	0.00069894	0.00020191	1466.1	7.6731e-06	7.2232e-06	1463.1	386.33	6.8073e-06	7.5732e-06	440.14	146.5	127.31	43.551	6.9391e-06	53.94	64.775	-39.956	-39.273	-113.149	21.867	25.020	-113.316	-108.516	-24.096	24.657	-108.818	-104.679	-104.368	-99.458	19.259	-100.282	-8191	255	
965.948	1	1	0	0	0.28104	0.1247	0.21313	0.14529	0.061741	0.23037	0.21565	0.25255	0.11653	0.15191	0.44439	0.11837	0.11193	0.18656	0.14132	0.22715	-3.5146	-3.5125	-3.0812	-4.1396	-3.4938	-3.6688	-4.2708	-3.5042	-3.7583	-4.0208	-3.2854	-4.1562	-3.6312	-3.5458	-4.2021	-3.5521	199.528	-39.315	-108.026	195.802	117.373	-124.938	160.823	158.411	-112.081	-34.577	219.256	215.049	137.650	-23.108	192.148	-8.441	0.0011051	0.00054094	0.00014481	1466.8	3.779e-06	5.6864e-06	1464.1	382.78	8.3762e-06	5.234e-06	437.27	145.94	126.78	42.909	5.1959e-06	53.355	0.00068315	0.00064849	0.00019763	1470.9	7.4443e-06	7.6569e-06	1465	385.92	7.1909e-06	8.0705e-06	440.09	146.69	127.52	43.53	6.7644e-06	53.963	65.332	-35.588	-34.275	-113.521	21.385	35.545	-113.305	-108.513	-14.656	30.988	-109.029	-104.715	-104.600	-99.762	4.725	-100.317	-8191	255	
966.044	1	1	0	0	0.31376	0.062132	0.24946	0.12216	0.26795	0.1224	0.15987	0.30587	0.27916	0.2513	0.10528	0.25006	0.30497	0.005775	0.11881	0.12596	-3.3563	-3.9646	-3.2167	-4.0625	-3.7125	-3.3812	-4.1854	-3.4938	-3.7167	-3.8667	-3.5208	-4.0625	-3.7396	-3.5583	-3.8312	-3.0917	72.540	132.215	-32.780	-83.739	20.287	-115.272	223.125	177.909	-99.378	-18.903	-77.584	-118.684	140.300	1.162	94.302	-121.587	0.0010518	0.00051916	0.00015465	1470.9	5.505e-06	4.8193e-06	1467.1	382.63	7.9876e-06	4.4141e-06	436.42	144.94	126.12	43.047	4.5508e-06	53.226	0.00067855	0.00065214	0.00020322	1467.8	6.9777e-06	7.7067e-06	1465	385.12	7.1094e-06	6.8924e-06	439.52	146.26	127.46	43.58	6.5479e-06	54.023	64.976	-36.625	-26.977	-113.204	8.848	29.156	-113.485	-108.718	-15.428	33.640	-109.281	-105.109	-104.498	-99.495	5.177	-100.247	-8191	255	
966.139	1	1	0	0	0.082269	0.10588	0.045034	0.043482	0.087919	0.11535	0.087524	0.28665	0.14204	0.41589	0.14162	0.085102	0.44518	0.079639	0.13548	0.216	-3.1583	-3.6292	-3.05	-3.6708	-3.5167	-3.0708	-3.9375	-3.4417	-3.3208	-3.9208	-3.1063	-3.9167	-3.625	-3.2167	-3.7833	-3.3833	-115.920	-117.035	-94.789	-8.501	-81.502	-10.631	-82.624	202.850	-45.638	157.719	86.619	202.188	199.107	49.548	123.083	187.168	0.0011367	0.00048738	0.00015422	1466.2	4.2955e-06	6.166e-06	1462.9	381.93	1.1373e-05	6.142e-06	437.65	144.66	126.56	42.961	5.648e-06	52.86	0.00070613	0.00064441	0.0001916	1466.1	6.9275e-06	8.9156e-06	1462.5	385.84	7.9799e-06	8.2577e-06	439.75	146.02	127.56	43.462	6.9526e-06	53.819	63.913	-24.892	-33.465	-112.682	13.159	24.727	-113.159	-108.336	-6.604	35.186	-109.087	-104.550	-104.360	-99.594	10.423	-100.135	-8191	255	
966.212	1	1	0	0	0.28415	0.082149	0.10335	0.2638	0.14527	0.25104	0.091189	0.26395	0.11512	0.073118	0.061161	0.24126	0.052658	0.063236	0.10197	0.12817	-2.9667	-3.8146	-3.1229	-3.5583	-3.5354	-3.1771	-4.0521	-3.6208	-3.1917	-3.95	-3.2458	-3.8167	-3.8125	-3.1208	-3.7542	-3.4458	-93.026	-49.946	-8.460	228.529	125.565	63.027	160.351	153.258	205.544	104.470	-95.810	170.798	-20.475	167.928	-75.132	226.321	0.0010619	0.00050063	0.0001832	1467.8	4.8136e-06	5.4355e-06	1461.5	383.37	7.6144e-06	6.2777e-06	439.54	144.56	126.57	43.025	4.4048e-06	52.879	0.00071694	0.000631	0.00019601	1466.3	7.3026e-06	7.5503e-06	1462.2	386.11	7.4551e-06	7.887e-06	439.94	146	127.6	43.559	7.1757e-06	53.86	60.898	-43.454	-30.582	-112.713	23.597	27.066	-113.336	-108.743	-7.977	16.733	-109.094	-104.882	-104.579	-99.577	4.060	-100.266	-8191	255	
966.331	1	1	0	0	0.19099	0.12455	0.091266	0.13544	0.068136	0.028609	0.24132	0.28901	0.28053	0.22261	0.22863	0.094647	0.07941	0.10791	0.10587	0.26106	-2.7167	-3.7667	-3.1792	-3.525	-3.6604	-3.1521	-3.8833	-3.4958	-3.1729	-3.7833	-3.2771	-3.4833	-3.8292	-3.0396	-3.6688	-3.5021	-3.981	58.675	-81.455	176.349	-85.473	137.170	151.769	-120.580	43.747	218.932	200.477	218.487	81.474	225.842	151.726	173.788	0.0010299	0.00059751	0.00015376	1465.3	5.4265e-06	4.7201e-06	1458.1	383.45	9.396e-06	5.1372e-06	436.25	145.4	126.61	42.983	5.5385e-06	53.197	0.0006964	0.00064208	0.00020186	1465.1	7.307e-06	8.032e-06	1462.3	385.62	7.3437e-06	6.742e-06	438.65	146.31	127.62	43.465	6.9969e-06	53.947	65.483	-38.701	-40.493	-112.616	22.918	20.038	-113.333	-108.376	-10.920	26.045	-109.140	-104.548	-104.534	-99.375	9.377	-100.025	-8191	255	
966.427	1	1	0	0	0.086208	0.17568	0.12862	0.064076	0.067205	0.070151	0.28457	0.13054	0.099274	0.15963	0.28696	0.092988	0.069999	0.060554	0.20218	0.37007	-2.6583	-3.7729	-2.9396	-3.2208	-3.7938	-3.0292	-3.775	-3.6396	-2.8958	-3.8229	-3.5417	-3.4562	-3.9396	-3.2667	-3.525	-3.5458	130.869	111.321	-89.679	-63.682	70.748	-30.060	170.158	224.802	-103.815	92.236	203.263	45.066	-122.828	200.169	159.303	165.606	0.0011742	0.00047166	0.00014472	1466	6.8521e-06	5.02e-06	1457.9	381.87	8.1831e-06	5.4542e-06	436.28	145.48	126.77	42.859	4.0222e-06	53.298	0.00070329	0.00060913	0.00019636	1462.6	7.2597e-06	7.8152e-06	1460.8	385.28	7.3138e-06	7.4631e-06	439.25	146.2	127.73	43.409	6.9714e-06	53.904	62.075	-41.085	-42.872	-112.733	18.914	26.497	-112.958	-108.504	-11.258	23.006	-108.841	-104.682	-104.279	-99.438	15.119	-100.191	-8191	255	
966.523	1	1	0	0	0.22292	0.096138	0.033223	0.084176	0.2891	0.11065	0.26748	0.34926	0.17068	0.084358	0.161	0.34566	0.13588	0.2757	0.21952	0.15199	-2.7188	-3.7833	-3.2854	-3.3479	-3.8208	-3.1312	-3.5708	-3.75	-3.1063	-3.825	-3.4958	-3.2583	-3.7062	-3.3833	-3.3729	-3.9229	172.275	96.941	-58.288	98.763	-75.491	108.864	173.172	186.468	-24.748	-75.030	152.551	193.088	-79.510	182.481	87.632	185.881	0.0010858	0.00039092	0.00016719	1462.4	5.7759e-06	4.7541e-06	1461.2	384.41	8.9308e-06	4.5101e-06	439.21	145	127.64	42.839	4.917e-06	53.403	0.00070931	0.00060942	0.00018998	1465.5	6.9851e-06	7.7743e-06	1461.7	386.01	7.9478e-06	6.7071e-06	440.08	146.19	128.05	43.469	7.1811e-06	53.926	64.309	-50.524	-27.174	-112.586	17.068	26.361	-113.208	-108.611	-12.626	23.926	-108.795	-104.719	-104.307	-99.592	7.278	-99.881	-8191	255	
966.644	1	1	0	0	0.28884	0.10205	0.050905	0.2016	0.1644	0.30315	0.3295	0.21931	0.051982	0.13768	0.22397	0.19068	0.17116	0.20654	0.082129	0.2657	-2.625	-3.6333	-3.4083	-3.2667	-3.8667	-3.1479	-3.5208	-3.9708	-3.0563	-3.4813	-3.7521	-3.2146	-3.8208	-3.3833	-3.2854	-4.0708	39.049	104.387	66.998	-110.222	-89.777	129.347	179.296	165.781	12.807	-19.009	178.511	-87.137	96.044	-94.365	93.599	123.570	0.0010325	0.00053503	0.0001523	1465.1	4.7424e-06	4.0834e-06	1458.5	383.99	8.3032e-06	4.3643e-06	436.97	145.14	126.93	42.981	5.781e-06	52.682	0.0006831	0.00061729	0.0001861	1467.1	6.929e-06	7.4809e-06	1459.8	385.49	7.1254e-06	8.0981e-06	439.06	146.28	127.54	43.554	7.544e-06	53.789	66.560	-37.502	-25.122	-112.635	7.912	32.348	-113.261	-108.385	-14.498	23.763	-108.759	-104.780	-104.327	-99.492	18.195	-100.322	-8191	255	
966.740	1	1	0	0	0.2845	0.16929	0.039177	0.11633	0.19459	0.10397	0.14522	0.37285	0.07657	0.1193	0.098301	0.25334	0.056089	0.060155	0.086166	0.063588	-2.8146	-3.5042	-3.4833	-3.1312	-3.9	-3.2583	-3.3937	-3.9313	-3.0875	-3.7042	-3.55	-3.2646	-3.6542	-3.3417	-3.2354	-3.9625	199.750	-4.569	-81.348	-109.076	113.876	55.812	-114.132	189.168	181.479	-66.703	66.296	-111.711	79.466	220.431	55.225	-82.329	0.0010887	0.00051325	0.00016082	1462.4	4.6161e-06	4.8677e-06	1459.3	382.05	6.3498e-06	4.2331e-06	437.55	145.09	126.35	42.661	5.0396e-06	53.236	0.00070051	0.00065068	0.00019356	1464.3	7.3985e-06	8.1369e-06	1462	385.02	7.5251e-06	8.1421e-06	439.96	146.31	127.17	43.377	7.6287e-06	53.865	63.223	-39.425	-29.436	-113.014	8.849	10.487	-113.278	-108.586	-16.540	25.932	-108.990	-104.637	-104.682	-99.745	13.225	-100.317	-8191	255	
966.836	1	1	0	0	0.17132	0.25603	0.19273	0.11179	0.16335	0.17118	0.27121	0.25329	0.098572	0.12606	0.26398	0.3045	0.034268	0.3592	0.16137	0.26662	-2.6063	-3.5021	-3.4667	-3.1958	-3.8	-3.4104	-3.2604	-3.9521	-3.1625	-3.6375	-3.7833	-3.2521	-3.7396	-3.6042	-3.3792	-4.0667	64.221	208.205	147.916	-91.286	21.490	-119.701	179.137	177.286	24.792	-105.993	194.113	202.745	225.177	215.368	-94.916	188.200	0.0010683	0.00039902	0.00013987	1465.3	6.1813e-06	5.3236e-06	1451	382.43	8.817e-06	4.6235e-06	435.35	145.6	126.57	42.864	5.2922e-06	53.026	0.00072124	0.00071206	0.00019955	1466.3	7.8267e-06	8.0747e-06	1459.8	385.19	7.7881e-06	8.2192e-06	438.39	146.37	127.21	43.385	8.2874e-06	53.789	65.779	-27.730	-27.647	-113.072	25.805	35.813	-113.304	-108.496	-15.985	28.758	-109.056	-104.916	-104.497	-99.712	23.915	-100.227	-8191	255	
966.932	1	1	0	0	0.078072	0.16357	0.075682	0.16427	0.11655	0.16491	0.19378	0.27403	0.20215	0.18627	0.26709	0.16804	0.13989	0.33319	0.11231	0.027987	-2.8792	-3.3542	-3.8812	-3.0208	-3.6792	-3.5146	-3.1458	-3.9271	-3.3708	-3.3021	-3.9188	-3.2292	-3.6104	-3.7854	-3.1562	-3.9354	-50.613	88.401	82.081	232.068	145.823	187.440	209.977	166.980	-73.401	-88.585	174.953	208.810	-44.969	203.681	38.860	16.655	0.0010548	0.00043543	0.00018176	1466.3	4.2642e-06	5.4619e-06	1458.5	384.19	6.2288e-06	5.044e-06	437.28	145.07	125.64	42.809	3.8293e-06	53.135	0.00070065	0.00073262	0.00021379	1465.6	7.7425e-06	7.9343e-06	1463.2	385.51	7.663e-06	8.9569e-06	439.07	146.03	127.21	43.352	8.3103e-06	53.884	62.159	-25.719	-35.525	-112.976	12.236	37.611	-113.397	-108.567	-18.573	25.864	-109.014	-104.897	-104.466	-99.739	6.352	-100.083	-8191	255	
967.028	1	1	0	0	0.19251	0.15871	0.19046	0.17286	0.066593	0.089456	0.16044	0.27479	0.23068	0.15548	0.062922	0.13146	0.33774	0.24631	0.12033	0.10025	-2.825	-3.1729	-3.85	-3.1458	-3.6	-3.6646	-3.2625	-3.9208	-3.4667	-3.2646	-3.9313	-3.2229	-3.5167	-3.9042	-2.9688	-3.8167	6.526	56.185	217.996	-76.061	39.556	73.583	80.918	143.026	175.691	-71.668	-99.824	-106.321	134.657	197.440	-52.702	229.149	0.0010966	0.00059167	0.0001629	1458.8	5.5388e-06	5.4845e-06	1460	383.51	8.5237e-06	5.2398e-06	437.45	145.46	126.44	42.876	5.7341e-06	52.899	0.00070789	0.00076775	0.00020579	1461.8	7.6584e-06	8.2009e-06	1461.8	385.6	7.8766e-06	8.2302e-06	439.27	146.45	127.35	43.448	8.0307e-06	53.814	66.736	-39.164	-37.640	-113.230	12.938	29.707	-113.166	-108.427	-20.994	38.809	-108.938	-104.797	-104.291	-99.453	9.294	-100.313	-8191	255	
967.125	1	1	0	0	0.22924	0.044203	0.048023	0.21249	0.1164	0.12191	0.3265	0.17293	0.068171	0.36909	0.076589	0.12255	0.226	0.17747	0.08146	0.19956	-3.1937	-3.075	-3.6208	-3.2854	-3.3458	-3.8063	-3.2604	-3.9375	-3.425	-3.0312	-3.825	-3.3875	-3.5229	-3.9042	-2.7729	-4.0042	130.605	45.832	126.218	200.994	77.631	153.304	134.708	169.639	127.107	156.718	174.433	148.416	213.655	-67.367	178.030	195.522	0.0010279	0.00043478	0.00015288	1456.2	5.2582e-06	5.5811e-06	1457.4	383.31	1.0523e-05	5.5614e-06	437.87	144.86	126.01	42.866	5.4491e-06	53.202	0.00068774	0.00076892	0.00020719	1465.7	7.8695e-06	8.4534e-06	1461.7	385.72	7.911e-06	9.0046e-06	439.87	146.11	127.43	43.375	8.3062e-06	53.872	62.446	-37.677	-42.218	-112.936	13.210	21.367	-113.244	-108.220	-12.251	25.965	-108.981	-104.624	-104.138	-99.599	17.105	-99.942	-8191	255	
967.245	1	1	0	0	0.2414	0.18664	0.25109	0.31863	0.17145	0.20725	0.28113	0.20697	0.36415	0.059981	0.21772	0.15092	0.44111	0.15454	0.17957	0.10328	-3.2229	-3.0625	-3.8812	-3.3083	-3.4542	-3.8	-3.1312	-3.7104	-3.5271	-2.9708	-3.9729	-3.4437	-3.3688	-4.0375	-3.0417	-3.6271	144.457	190.122	158.462	-38.638	7.241	65.948	197.773	177.045	213.294	112.859	197.581	22.908	-66.117	218.381	120.799	200.416	0.0010844	0.00042267	0.00014843	1454.8	4.5876e-06	6.0544e-06	1465.1	383.2	1.0514e-05	4.7622e-06	436.76	144.27	126.47	42.974	5.0684e-06	53.327	0.00070662	0.0007609	0.00019391	1463.8	7.4015e-06	7.8187e-06	1463.4	385.75	7.5182e-06	8.6688e-06	438.2	145.86	127.42	43.472	7.5857e-06	53.881	65.457	-40.908	-18.121	-113.472	18.718	22.401	-113.078	-108.461	-8.855	20.157	-108.802	-104.787	-104.179	-99.315	13.166	-99.791	-8191	255	
967.340	1	1	0	0	0.22524	0.12808	0.063387	0.42114	0.17501	0.15265	0.15053	0.22258	0.17581	0.34034	0.1003	0.14158	0.29154	0.28756	0.17561	0.057992	-3.3146	-2.95	-3.6917	-3.4375	-3.1229	-3.8333	-3.6021	-3.6688	-3.9729	-2.9458	-3.8271	-3.6125	-3.2292	-3.9458	-3.1958	-3.5042	31.926	-57.435	-10.754	193.190	215.911	-111.485	197.472	174.410	-28.514	25.198	-76.782	115.915	-110.827	-77.473	104.308	229.290	0.0010435	0.00043989	0.00013637	1467	5.0049e-06	5.4063e-06	1456.6	382.91	8.5829e-06	6.1113e-06	438.41	145.14	126	42.868	4.3481e-06	53.089	0.00069307	0.00077096	0.00018636	1468.7	7.6348e-06	7.2107e-06	1460.4	385.76	7.6009e-06	8.4064e-06	439.82	146.05	127.43	43.406	7.5615e-06	53.83	64.714	-26.182	-53.326	-112.597	22.539	23.721	-113.120	-108.312	-3.431	28.327	-108.993	-104.739	-104.365	-99.314	9.217	-100.121	-8191	255	
967.436	1	1	0	0	0.19245	0.18259	0.081343	0.26415	0.294	0.091259	0.28119	0.32278	0.094212	0.13532	0.23148	0.065349	0.11578	0.23968	0.21561	0.11898	-3.275	-3.1208	-3.6937	-3.5125	-2.8458	-3.8583	-3.3646	-3.5042	-3.8063	-3.0708	-3.6917	-3.6833	-3.0812	-3.825	-3.1937	-3.4479	113.770	41.501	34.532	204.971	-90.852	-87.266	139.002	181.189	-41.378	117.738	219.409	160.089	50.545	227.999	127.898	144.630	0.001117	0.00056721	0.00015614	1464	5.6953e-06	5.9823e-06	1456	381.44	8.7836e-06	6.2785e-06	437.67	145.01	126.03	42.906	5.86e-06	53.018	0.00069146	0.00070521	0.00020103	1463.1	7.9743e-06	8.1067e-06	1460.7	384.77	7.4298e-06	8.8248e-06	439.19	146.23	127.38	43.387	7.5145e-06	53.857	64.164	-37.481	-32.983	-112.946	14.632	24.338	-113.229	-108.352	-18.610	26.249	-108.805	-104.725	-104.548	-99.228	16.932	-100.317	-8191	255	
967.507	1	1	0	0	0.2758	0.10076	0.16612	0.10847	0.13999	0.1116	0.12605	0.03991	0.088786	0.21852	0.19218	0.11854	0.20401	0.257	0.0046998	0.42251	-3.3625	-3.1125	-3.5333	-3.6979	-3.0187	-3.5938	-3.4562	-3.2875	-3.8354	-3.075	-3.5375	-3.8021	-3.0354	-3.9437	-3.2396	-3.2229	-13.817	-88.742	-54.626	202.093	111.548	119.051	154.173	220.488	-75.414	110.362	192.539	101.341	-78.334	211.663	109.359	223.171	0.00111	0.00050048	0.00016503	1455.1	4.2775e-06	4.9087e-06	1463.1	383.77	8.6199e-06	4.5383e-06	436.36	144.95	126.19	42.891	4.4545e-06	52.863	0.00069268	0.00070331	0.00020505	1462.7	8.0186e-06	7.9254e-06	1460.7	385.66	7.4677e-06	8.4688e-06	439.05	146.2	127.4	43.428	7.3464e-06	53.709	62.724	-32.353	-37.440	-113.042	24.986	22.968	-113.162	-108.361	-20.510	19.232	-108.965	-104.803	-104.244	-99.340	5.991	-100.186	-8191	255	
967.605	1	1	0	0	0.045635	0.098121	0.22049	0.19962	0.33947	0.075928	0.12472	0.12118	0.19774	0.11605	0.19844	0.14199	0.25526	0.097024	0.085684	0.16793	-3.3708	-3.1625	-3.3646	-3.8896	-2.9354	-3.7333	-3.6	-3.2083	-3.8187	-3.2	-3.3146	-3.7958	-3.2083	-3.7375	-3.4083	-2.9854	183.841	186.613	158.850	143.500	-50.548	-46.931	172.652	136.893	216.123	195.090	119.983	183.589	128.447	28.611	16.509	135.225	0.0011256	0.00055814	0.00016138	1466	6.1275e-06	3.8332e-06	1457	383.34	6.3582e-06	5.6339e-06	437.12	144.08	127.16	42.974	5.3026e-06	52.829	0.00068863	0.00076323	0.00019204	1467.8	8.2844e-06	7.5769e-06	1458.9	385.66	6.9371e-06	8.5422e-06	438.91	145.98	127.31	43.391	7.454e-06	53.673	64.921	-21.106	-38.504	-113.038	28.399	28.131	-113.464	-108.287	-9.986	23.230	-108.720	-104.979	-104.759	-99.484	21.649	-100.604	-8191	255	
967.724	1	1	0	0	0.117	0.29614	0.26831	0.077014	0.12065	0.083856	0.21316	0.19384	0.26826	0.27262	0.16774	0.02972	0.14471	0.052281	0.13815	0.056134	-3.3187	-3.1937	-3.2292	-3.8354	-2.8833	-3.525	-3.6437	-3.0083	-3.8312	-3.2396	-3.4813	-3.8167	-3.0396	-3.6271	-3.5125	-3.0375	57.211	135.834	-26.714	20.287	21.182	213.105	175.773	207.093	-39.002	167.402	193.195	156.548	-114.897	-92.587	-46.715	140.276	0.0011158	0.00043412	0.00015174	1470.6	5.028e-06	4.648e-06	1459.5	382.62	8.7999e-06	5.7953e-06	436.19	144.82	127.24	42.662	3.936e-06	53.075	0.00069997	0.00069063	0.00019876	1464.7	8.0304e-06	7.0472e-06	1462.5	385.21	7.6285e-06	8.4064e-06	439.81	146.23	127.43	43.311	7.2806e-06	53.75	64.561	-48.267	-37.533	-113.359	4.064	19.960	-113.414	-108.616	-11.461	23.859	-109.014	-105.062	-104.648	-99.433	-6.575	-100.249	-8191	255	
967.820	1	1	0	0	0.10487	0.13199	0.035628	0.074924	0.094618	0.10399	0.22945	0.070523	0.076375	0.16267	0.091941	0.099464	0.14413	0.22018	0.12057	0.22865	-3.3146	-3.2792	-3.0792	-3.8229	-3.1292	-3.4542	-3.8271	-3.1792	-3.6625	-3.275	-3.3479	-3.9313	-3.1958	-3.6063	-3.7229	-3.2313	-94.322	105.145	199.097	232.181	217.712	117.303	224.363	196.707	-102.094	-124.065	-85.844	-61.415	3.872	225.830	157.681	217.889	0.0010796	0.00041002	0.00017811	1461.9	4.1857e-06	5.1652e-06	1461.9	382.5	8.6247e-06	5.1743e-06	436.55	144.72	126.51	42.709	4.5326e-06	53.068	0.0006766	0.00068567	0.00021038	1464.9	7.9921e-06	7.8383e-06	1461.2	385.09	7.3574e-06	7.9237e-06	438.34	146.08	127.06	43.346	7.2954e-06	53.74	65.403	-31.384	-32.402	-112.970	8.529	9.577	-113.384	-108.617	-15.890	40.623	-109.317	-104.731	-104.766	-99.442	14.375	-100.188	-8191	255	
967.916	1	1	0	0	0.20735	0.03667	0.23468	0.16771	0.18204	0.095235	0.21871	0.078262	0.25511	0.11655	0.25285	0.31518	0.051673	0.083678	0.10918	0.23941	-3.3625	-3.4562	-2.925	-3.7979	-3.15	-3.1937	-3.8854	-3.1063	-3.5833	-3.6375	-3.1396	-3.8708	-3.2042	-3.3146	-3.8333	-3.0687	152.605	57.585	50.102	-31.593	-0.789	-98.354	126.545	-108.606	-42.208	-103.731	147.478	151.776	-1.686	230.528	195.609	-79.577	0.0010276	0.00055642	0.00018142	1468.3	5.8104e-06	6.2269e-06	1453.7	382.33	7.0556e-06	4.7573e-06	436.12	144.27	125.08	42.909	4.7147e-06	52.677	0.00069303	0.00069208	0.00020889	1465.8	8.0836e-06	8.0925e-06	1459.2	385.09	7.3138e-06	7.5824e-06	438.23	146.01	126.7	43.422	7.2228e-06	53.71	64.771	-28.410	-31.828	-113.319	11.319	31.633	-113.348	-108.539	-2.724	20.102	-108.897	-104.961	-104.868	-99.418	12.024	-100.339	-8191	255	
968.013	1	1	0	0	0.31158	0.032996	0.12892	0.1489	0.12974	0.052177	0.27812	0.44503	0.15982	0.042191	0.16835	0.14749	0.33848	0.35473	0.27876	0.10252	-3.1979	-3.5729	-3.0729	-3.9	-3.225	-3.1396	-3.8875	-3.2042	-3.3937	-3.8521	-3.2125	-3.9708	-3.4021	-3.3021	-3.875	-3.1813	212.570	48.488	33.335	-77.931	0.289	138.926	135.042	187.510	227.355	-53.191	-90.457	228.450	207.978	203.238	-65.799	3.437	0.0010703	0.00064126	0.00013114	1467.7	5.1774e-06	4.2339e-06	1457.7	382.05	1.1297e-05	4.8252e-06	436.16	144.84	126.25	42.835	5.8639e-06	52.885	0.00070818	0.00075259	0.00021138	1465.7	7.3306e-06	8.0658e-06	1461.5	384.76	7.71e-06	7.3329e-06	439.09	146.11	126.96	43.388	7.2362e-06	53.621	66.579	-40.326	-21.100	-113.486	1.472	16.277	-113.386	-108.614	-13.742	17.623	-109.005	-104.933	-104.885	-99.578	13.395	-100.192	-8191	255	
968.109	1	1	0	0	0.20424	0.13298	0.22224	0.14063	0.075272	0.067995	0.11513	0.23741	0.15331	0.043799	0.11837	0.18763	0.093833	0.074984	0.10419	0.24679	-3.0583	-3.8438	-2.9729	-3.8312	-3.4167	-3.1	-4.275	-3.4208	-3.1583	-3.6937	-3.125	-3.7854	-3.4896	-3.2188	-3.8333	-3.3583	-8.204	42.206	144.537	121.482	41.669	107.857	202.258	172.968	39.238	90.535	174.404	202.721	134.512	-38.246	172.769	103.842	0.0010985	0.00047144	0.00015322	1456.1	4.5915e-06	4.3065e-06	1454.9	382.08	8.5674e-06	5.2725e-06	435.06	144.71	125.82	42.653	4.5201e-06	52.832	0.00070119	0.00067036	0.00020872	1464.5	8.0157e-06	7.8258e-06	1459.5	384.87	7.5872e-06	7.5054e-06	438.04	146.24	126.94	43.342	7.3774e-06	53.609	64.469	-37.598	-30.111	-112.823	26.623	28.209	-113.172	-108.478	-6.548	17.635	-109.238	-104.601	-104.322	-99.327	-9.439	-100.425	-8191	255	
968.205	1	1	0	0	0.12852	0.10601	0.33094	0.10514	0.13748	0.10412	0.26191	0.25665	0.26789	0.09582	0.013007	0.16736	0.33895	0.26277	0.12577	0.20801	-2.8979	-3.8812	-3.0417	-3.8146	-3.6854	-3.0583	-3.9604	-3.5229	-3.2542	-3.8	-3.1896	-3.7125	-3.5687	-3.0542	-3.5479	-3.5271	191.879	223.036	81.588	-55.696	20.085	32.462	156.439	210.059	-61.372	77.118	-62.730	72.610	185.275	209.925	-70.521	61.966	0.0010899	0.00052771	0.00014665	1461.5	5.5281e-06	5.7939e-06	1454.9	383.53	7.3157e-06	5.4413e-06	435.83	144.81	126.65	42.815	4.509e-06	52.688	0.00069337	0.00068859	0.00020841	1465.5	7.5299e-06	8.5903e-06	1460.1	384.67	7.2989e-06	7.7182e-06	437.39	146.03	127.18	43.345	6.962e-06	53.601	64.604	-29.519	-37.030	-112.858	16.125	27.996	-113.210	-108.810	-24.868	30.824	-109.165	-104.726	-104.748	-99.559	4.988	-100.263	-8191	255	
968.324	1	1	0	0	0.10115	0.20024	0.21188	0.28631	0.17764	0.22127	0.074979	0.15108	0.18801	0.040247	0.20993	0.1486	0.16164	0.12873	0.1559	0.26004	-2.8479	-3.7292	-2.9583	-3.6167	-3.7146	-2.9479	-3.9833	-3.4958	-2.9708	-3.7562	-3.3521	-3.4417	-3.7271	-3.2438	-3.7667	-3.6479	-114.591	166.180	122.547	202.570	34.142	110.497	-103.705	-32.339	105.606	157.017	175.686	158.784	-50.843	73.317	195.501	-108.950	0.0010109	0.00047887	0.00013569	1464.4	5.1547e-06	3.8346e-06	1459.2	383.5	7.5883e-06	4.9686e-06	435.67	145.38	125.89	42.771	6.229e-06	52.922	0.00070554	0.00069063	0.00020671	1462.2	7.2435e-06	7.4987e-06	1461	385.36	7.3241e-06	7.5035e-06	438.31	146.12	127.16	43.356	7.462e-06	53.696	65.438	-30.819	-26.491	-113.143	3.835	26.055	-113.044	-108.531	-6.950	26.418	-109.258	-104.657	-104.470	-99.803	6.577	-100.450	-8191	255	
968.420	1	1	0	0	0.17533	0.15658	0.14125	0.053446	0.14498	0.16873	0.20619	0.29298	0.18603	0.11727	0.091411	0.095164	0.086096	0.19826	0.098075	0.11181	-2.5438	-3.7333	-2.8521	-3.4125	-3.8021	-3.0958	-3.9229	-3.4896	-3.0729	-3.7604	-3.3521	-3.4854	-3.9062	-3.1521	-3.5542	-3.7771	168.978	205.092	-93.908	219.168	181.628	157.278	204.202	133.240	89.935	-58.569	195.641	-61.191	180.705	-125.738	-67.474	106.520	0.0010837	0.00050551	0.00011935	1464.4	4.3006e-06	6.2186e-06	1451.6	382.53	7.651e-06	5.3811e-06	437.56	145.13	125.67	42.796	3.3992e-06	52.67	0.00071562	0.00065855	0.00020453	1465.8	6.6765e-06	8.4587e-06	1460.8	384.93	7.6021e-06	7.1916e-06	438.55	146.07	127.05	43.334	7.0305e-06	53.65	65.519	-41.319	-35.992	-113.037	12.670	27.730	-113.169	-108.757	-15.207	23.698	-109.057	-104.652	-103.987	-99.367	9.274	-100.387	-8191	255	
968.516	1	1	0	0	0.16634	0.026397	0.16332	0.13178	0.12967	0.073669	0.29151	0.24507	0.058978	0.067965	0.21786	0.19197	0.10938	0.23901	0.16504	0.1717	-2.5229	-3.7958	-3.2333	-3.2646	-3.6583	-3.2021	-3.8333	-3.7917	-2.95	-3.8292	-3.3187	-3.4125	-3.9125	-3.0187	-3.4521	-3.5812	52.605	-125.368	119.936	107.374	-74.443	223.497	163.688	223.385	33.451	183.806	189.282	151.748	-46.777	-123.355	-38.964	168.246	0.0010704	0.00046443	0.00017246	1462.9	5.5334e-06	6.5433e-06	1456.7	382.2	8.4754e-06	4.7453e-06	435.73	144.59	125.98	42.67	5.9922e-06	53.362	0.00069928	0.00066803	0.00021973	1464.4	7.4236e-06	8.3841e-06	1460.8	385.08	7.8766e-06	7.3696e-06	437.81	145.88	127	43.273	7.2268e-06	53.79	66.313	-25.185	-42.010	-113.375	8.801	24.853	-112.936	-108.527	-8.307	29.612	-108.677	-104.648	-104.285	-99.471	20.133	-100.143	-8191	255	
968.612	1	1	0	0	0.18384	0.18479	0.17759	0.10806	0.12611	0.10531	0.38935	0.27076	0.11137	0.38163	0.1722	0.14753	0.31385	0.15858	0.067148	0.045112	-2.5729	-3.6583	-3.4229	-3.075	-3.7521	-3.3	-3.6625	-3.9562	-3.2021	-3.7208	-3.6208	-3.2229	-3.7479	-3.2667	-3.2896	-3.8812	3.360	36.113	65.549	103.989	203.749	-53.721	153.054	217.579	-59.520	-13.221	152.254	198.207	205.830	200.236	161.551	133.355	0.0010987	0.00051322	0.00014679	1458.4	3.9529e-06	4.1476e-06	1460.8	381.74	7.1507e-06	6.1554e-06	437.57	144.63	125.85	42.553	5.6571e-06	53.019	0.00068941	0.00070754	0.00019134	1462.8	7.2834e-06	8.5974e-06	1461.3	384.76	7.5757e-06	8.0155e-06	438.3	145.89	126.97	43.259	7.782e-06	53.725	65.398	-33.253	-42.895	-112.942	16.627	18.249	-113.277	-108.261	-29.117	17.980	-108.887	-104.583	-104.004	-99.588	3.283	-100.216	-8191	255	
968.733	1	1	0	0	0.048036	0.21103	0.28359	0.31102	0.030933	0.048121	0.20561	0.28247	0.14064	0.19939	0.30075	0.25681	0.17243	0.37072	0.26626	0.059101	-2.7188	-3.6437	-3.3979	-2.925	-3.7396	-3.2292	-3.4688	-3.9771	-3.0938	-3.4562	-3.7583	-3.1688	-3.6917	-3.3979	-3.2521	-3.9688	-10.996	-119.236	142.499	180.195	162.990	19.024	188.076	231.731	145.048	85.939	218.362	201.448	223.489	187.720	36.407	-96.301	0.0011117	0.00048971	0.00015577	1470.2	5.9875e-06	5.2621e-06	1452.9	384.23	8.2841e-06	6.102e-06	434.91	144.55	126.43	42.815	5.2936e-06	52.803	0.00071117	0.00068727	0.0001885	1466.7	7.7278e-06	7.792e-06	1458.6	385.48	7.5722e-06	8.7385e-06	438.41	146.15	127.45	43.329	7.4338e-06	53.653	64.645	-29.508	-33.833	-112.542	20.804	18.612	-112.816	-108.420	-6.254	25.768	-108.866	-105.056	-104.293	-99.248	12.941	-100.118	-8191	255	
968.805	1	1	0	0	0.32683	0.17123	0.10212	0.16316	0.11376	0.018134	0.079745	0.15918	0.16514	0.21576	0.062111	0.25296	0.05985	0.3365	0.11514	0.22039	-2.6667	-3.5083	-3.7042	-3.05	-3.6312	-3.3667	-3.3312	-3.9792	-2.9646	-3.4333	-3.8625	-3.0521	-3.6271	-3.5667	-3.1125	-3.8625	170.507	-96.289	108.804	216.636	71.515	3.331	121.209	-108.343	-10.276	-87.122	112.155	-92.556	-119.377	223.197	28.407	171.538	0.0010618	0.00050316	0.00016994	1458.3	4.6381e-06	4.6616e-06	1457.2	383.37	8.8415e-06	3.7202e-06	435.65	144.88	126.37	42.599	5.325e-06	53.089	0.00067391	0.00065855	0.00020033	1462.4	7.4236e-06	7.8827e-06	1460.3	385.35	7.6492e-06	8.0742e-06	438.88	146.08	127.27	43.278	7.8962e-06	53.714	61.453	-44.629	-30.446	-113.142	19.216	21.882	-113.339	-108.366	-8.838	24.274	-108.969	-104.635	-104.203	-99.367	-2.487	-99.893	-8191	255	
968.925	1	1	0	0	0.17441	0.13994	0.28264	0.21853	0.151	0.032589	0.21298	0.23187	0.29113	0.17765	0.22868	0.10158	0.17589	0.2741	0.16566	0.16523	-2.8104	-3.4333	-3.7229	-3.1312	-3.7604	-3.4583	-3.1375	-3.9583	-3.1333	-3.3542	-4.0188	-2.9583	-3.8292	-3.5104	-2.9646	-4.0146	1.795	0.986	-32.587	-112.584	227.214	45.308	173.297	130.331	-17.127	-78.500	207.618	-103.846	-120.179	119.583	-32.634	146.342	0.0010488	0.00048825	0.00013801	1465.7	5.4432e-06	5.4455e-06	1457.8	383.46	8.9547e-06	4.447e-06	435.97	144.16	125.88	42.753	5.6846e-06	53.095	0.00071444	0.00070696	0.00018749	1465.2	7.3631e-06	7.4632e-06	1459.4	384.98	7.5493e-06	7.9806e-06	438.04	145.88	126.99	43.338	8.1422e-06	53.707	67.329	-40.470	-33.400	-112.811	25.091	23.404	-113.349	-108.545	-19.658	21.022	-109.297	-105.260	-104.502	-99.576	2.644	-100.254	-8191	255	
969.021	1	1	0	0	0.089807	0.042708	0.27148	0.0648	0.33962	0.064886	0.11081	0.1412	0.14807	0.073169	0.25166	0.23202	0.20077	0.31068	0.16796	0.31494	-2.9146	-3.2625	-3.75	-3.1104	-3.6333	-3.7938	-3.1583	-3.9854	-3.2271	-3.3187	-4.0625	-3.15	-3.6958	-3.6542	-2.9458	-3.7438	105.736	52.534	132.494	-72.130	-30.327	-94.965	168.045	-89.711	164.822	-86.106	166.424	-118.680	204.388	220.940	-83.349	168.191	0.0010046	0.00047926	0.00011751	1460.2	5.4761e-06	4.6336e-06	1452.9	381.39	8.5483e-06	4.2974e-06	435.03	145.27	126.32	42.814	5.9351e-06	52.859	0.00069337	0.00068407	0.00018003	1463.2	7.6569e-06	7.5307e-06	1456.5	383.69	7.3138e-06	8.2687e-06	437.76	145.72	127.16	43.333	7.7e-06	53.662	63.651	-39.179	-43.756	-112.945	10.233	19.777	-113.350	-108.652	-25.227	22.655	-109.047	-104.982	-104.479	-99.462	5.158	-100.475	-8191	255	
969.117	1	1	0	0	0.24767	0.11811	0.10039	0.14588	0.11115	0.20016	0.4664	0.39973	0.095325	0.15432	0.21384	0.31217	0.47578	0.11837	0.34473	0.13896	-2.8438	-2.9979	-3.8083	-3.0646	-3.4479	-3.8792	-3.2479	-3.8854	-3.5104	-2.9729	-3.9313	-3.25	-3.4104	-3.9	-2.9417	-3.8229	47.806	229.745	221.834	210.702	212.953	61.264	174.965	171.167	21.099	-66.690	216.542	230.452	197.547	206.321	-14.896	224.515	0.0010213	0.00047072	0.00014726	1461	4.8065e-06	4.6819e-06	1456.8	383.04	7.4538e-06	5.8795e-06	437.75	144.5	125.67	42.542	5.7465e-06	52.872	0.00067933	0.00072168	0.00019937	1460.2	7.7795e-06	7.8952e-06	1457.4	384.69	6.9853e-06	8.2577e-06	438.82	145.71	126.87	43.234	8.0024e-06	53.675	63.325	-34.839	-21.686	-112.761	12.038	24.209	-113.239	-108.535	-17.805	18.650	-108.983	-105.040	-104.441	-99.942	9.035	-100.267	-8191	255	
969.212	1	1	0	0	0.0068863	0.051359	0.20609	0.040987	0.18388	0.14707	0.17113	0.12175	0.11642	0.20744	0.19336	0.24512	0.098969	0.52945	0.17394	0.15782	-3.2188	-2.8833	-3.6562	-3.425	-3.2333	-3.725	-3.275	-3.6708	-3.4688	-2.9646	-3.95	-3.4125	-3.3667	-4.0167	-3.2708	-3.6292	136.350	-65.219	-120.823	133.646	139.248	-28.731	136.425	169.300	-83.408	123.061	-93.723	198.807	-101.905	-123.049	58.683	-120.993	0.0010208	0.00050178	0.00014662	1461.6	5.7589e-06	4.1288e-06	1454.1	382.74	7.9514e-06	6.0869e-06	438.01	144.09	125.62	42.767	4.3972e-06	52.658	0.00066765	0.00074311	0.00018719	1460.6	8.0644e-06	7.776e-06	1457.1	384.47	7.4321e-06	8.0228e-06	438.52	145.65	126.92	43.271	7.2026e-06	53.536	63.064	-31.176	-33.384	-113.413	15.030	15.876	-113.434	-108.646	-9.460	20.963	-109.038	-105.227	-104.311	-99.691	1.854	-100.487	-8191	255	
969.332	1	1	0	0	0.14355	0.077137	0.030151	0.17641	0.27343	0.12339	0.11764	0.20889	0.15428	0.15923	0.16213	0.12983	0.23714	0.14099	0.14116	0.19977	-3.2958	-2.9188	-3.6562	-3.4375	-3.2458	-3.8917	-3.1979	-3.5167	-3.6729	-2.8396	-3.8604	-3.5958	-3.175	-3.9417	-3.0833	-3.4042	-44.460	-108.661	-78.424	229.459	-67.416	82.004	117.022	-96.229	84.041	9.744	-99.273	156.080	174.382	203.205	199.433	170.009	0.0011079	0.00049385	0.00015455	1460.9	4.0946e-06	5.1658e-06	1451.5	382.09	9.7845e-06	4.3487e-06	435.03	144.8	125.9	42.842	5.8708e-06	53.059	0.0007187	0.00071658	0.00020868	1460.8	8.026e-06	7.5005e-06	1456.1	384.38	7.2793e-06	7.8045e-06	437.95	145.56	127.02	43.367	8.3278e-06	53.718	65.332	-39.153	-46.906	-113.131	22.153	29.920	-113.251	-108.546	-17.820	26.386	-109.209	-104.835	-104.515	-99.666	6.939	-100.167	-8191	255	
969.404	1	1	0	0	0.13969	0.21702	0.14614	0.15111	0.1877	0.22394	0.10055	0.32793	0.18304	0.15128	0.018468	0.37776	0.049531	0.14244	0.10449	0.042543	-3.4792	-3.05	-3.7812	-3.4604	-2.8833	-3.7875	-3.3688	-3.5687	-3.8458	-3.0729	-3.8354	-3.65	-3.075	-3.9417	-3.3146	-3.3021	16.069	181.492	178.958	220.773	-83.115	26.674	163.928	184.217	-84.909	45.140	-76.430	132.002	-73.119	-96.328	-17.154	21.204	0.0011685	0.00046091	0.00014801	1457.4	4.8615e-06	4.4664e-06	1448.3	383.46	1.036e-05	4.2247e-06	435.26	144.21	124.94	42.707	4.9049e-06	52.809	0.00070344	0.00068071	0.00017767	1459.8	8.0939e-06	7.4543e-06	1455.1	384.78	7.8456e-06	8.566e-06	437.52	145.79	126.76	43.347	7.5064e-06	53.704	65.194	-52.199	-31.645	-112.937	12.333	22.571	-113.159	-108.358	-1.256	26.258	-108.714	-104.905	-104.216	-99.586	15.555	-100.202	-8191	255	
969.500	1	1	0	0	0.14054	0.14203	0.092072	0.043971	0.11285	0.24759	0.10127	0.14967	0.37176	0.14137	0.16835	0.13921	0.25671	0.25413	0.051164	0.18948	-3.45	-3.0354	-3.6813	-3.6792	-3.0333	-3.9771	-3.425	-3.4271	-3.8417	-3.1208	-3.7271	-3.6729	-3.3104	-3.7979	-3.3771	-3.2896	-55.964	-34.250	75.469	-54.120	-121.927	-4.865	105.470	75.945	-78.771	150.032	188.139	-31.055	-48.252	171.655	202.100	-86.143	0.00099668	0.00051526	0.00014827	1456.9	4.3737e-06	5.7922e-06	1450.8	382.8	6.6718e-06	5.4105e-06	435.01	144.53	126.06	42.65	5.5908e-06	52.938	0.00070178	0.00069558	0.0002092	1457.8	7.6156e-06	7.3867e-06	1454.3	384.7	6.6844e-06	8.6761e-06	438.11	145.71	127.15	43.249	7.5857e-06	53.726	63.169	-32.034	-33.068	-113.146	9.731	17.903	-113.184	-108.180	-17.998	13.288	-108.671	-104.697	-104.259	-99.110	10.499	-100.123	-8191	255	
969.596	1	1	0	0	0.14395	0.22053	0.11667	0.046059	0.35197	0.11486	0.13888	0.094201	0.057667	0.067415	0.15114	0.24284	0.23074	0.31813	0.049152	0.28039	-3.2792	-3.0833	-3.5271	-3.6896	-2.8646	-3.8729	-3.6375	-3.1479	-3.9833	-2.9146	-3.4396	-3.7438	-3.2521	-3.8625	-3.4542	-3.1583	161.542	224.942	-106.286	159.805	117.925	-62.547	175.521	194.976	199.258	13.740	-122.463	160.483	-60.033	-69.014	62.188	180.638	0.0011438	0.00038343	0.00016582	1461	4.7936e-06	5.8296e-06	1452.1	381.24	8.9404e-06	6.027e-06	435.11	143.94	126.03	42.783	5.6082e-06	53.084	0.00068584	0.00074661	0.00020523	1460.7	8.4365e-06	7.8987e-06	1454	384.09	7.145e-06	9.0688e-06	438.32	145.76	126.79	43.334	7.8707e-06	53.671	62.698	-31.346	-22.729	-113.109	12.596	24.164	-113.290	-108.520	-6.047	28.420	-108.807	-104.811	-104.349	-99.225	-2.389	-99.887	-8191	255	
969.693	1	1	0	0	0.1785	0.12342	0.10496	0.19834	0.13151	0.13293	0.16012	0.15742	0.10273	0.3166	0.1458	0.22742	0.11213	0.2878	0.10931	0.15981	-3.3563	-3.0292	-3.2104	-3.7646	-3.0417	-3.8458	-3.8208	-3.15	-3.8104	-3.3458	-3.4083	-3.8312	-3.1708	-3.6896	-3.6104	-3.1229	10.703	5.611	190.230	-26.570	-1.169	72.326	204.789	110.587	69.334	34.440	-39.315	139.351	89.238	224.394	-83.086	150.505	0.0010298	0.00059403	0.00014077	1452.4	4.6469e-06	6.0633e-06	1443.1	382	8.7561e-06	4.9593e-06	437.93	144.97	125.88	42.731	4.5351e-06	52.911	0.00069117	0.00076469	0.00020645	1458.3	8.3818e-06	7.7209e-06	1452.3	384.39	7.3896e-06	8.0779e-06	438.89	145.89	126.86	43.344	7.1354e-06	53.768	63.296	-38.638	-38.452	-112.896	16.312	21.184	-113.236	-108.221	-10.647	32.035	-108.886	-104.790	-104.271	-99.172	-4.172	-99.945	-8191	255	
969.813	1	1	0	0	0.2082	0.18385	0.084624	0.18779	0.138	0.09075	0.33955	0.18122	0.13479	0.080999	0.20219	0.033173	0.15747	0.082059	0.17453	0.21496	-3.3292	-3.2708	-3.3208	-3.9437	-3.0604	-3.4875	-4.0479	-3.1792	-3.7438	-3.1875	-3.3771	-3.9458	-3.1542	-3.4938	-3.6437	-3.1896	210.318	-41.664	-73.867	29.409	229.633	227.958	219.302	213.151	-108.968	-60.600	179.692	144.574	186.503	108.846	181.872	138.179	0.0010309	0.00051014	0.00014305	1454.9	4.0442e-06	4.3686e-06	1452.7	383.59	7.1934e-06	4.5296e-06	436.98	144.93	126.06	42.829	5.0255e-06	53.308	0.0006921	0.0006931	0.00020754	1456.4	7.4118e-06	7.7458e-06	1455.3	384.94	7.2598e-06	7.865e-06	438.92	145.97	126.91	43.416	7.2698e-06	53.865	63.386	-33.967	-34.839	-112.930	8.831	24.698	-113.202	-108.450	-28.015	28.849	-108.759	-104.765	-104.256	-99.277	18.389	-100.134	-8191	255	
969.909	1	1	0	0	0.28301	0.048476	0.052281	0.046032	0.13837	0.099813	0.23115	0.28948	0.13739	0.23992	0.21025	0.13549	0.17153	0.18209	0.081468	0.20714	-3.4604	-3.5167	-3.0083	-3.9667	-3.1604	-3.3229	-4.0708	-3.2687	-3.8125	-3.6458	-3.1604	-3.8104	-3.1312	-3.4292	-3.6813	-3.1063	183.541	200.743	-67.579	196.974	225.976	210.469	138.609	163.553	-22.812	72.357	211.305	96.226	-55.607	-121.815	58.255	146.657	0.0010631	0.00056019	0.0001678	1458.6	4.5673e-06	4.329e-06	1450.7	382.69	8.0666e-06	4.9526e-06	435.57	144.36	126.06	42.821	6.2066e-06	52.691	0.00068999	0.00070083	0.00021169	1461.4	7.9537e-06	8.2952e-06	1454.7	384.74	7.3552e-06	8.4761e-06	437.82	145.93	127.1	43.345	7.3303e-06	53.572	65.109	-40.627	-30.032	-113.433	25.635	38.202	-113.279	-108.293	-16.859	33.063	-108.713	-104.700	-104.339	-99.485	10.029	-100.226	-8191	255	
970.006	1	1	0	0	0.075487	0.13607	0.12167	0.13956	0.19186	0.14372	0.19502	0.33817	0.1101	0.032125	0.080358	0.25955	0.20197	0.13747	0.091516	0.20835	-3.1542	-3.5771	-2.9771	-3.8812	-3.1042	-3.3396	-4.0479	-3.3063	-3.625	-3.5708	-3.1688	-4.1062	-3.2917	-3.3958	-3.8354	-3.2625	-61.704	-25.647	191.858	142.181	-106.629	-112.092	121.438	174.760	138.759	-88.507	135.364	222.816	153.107	195.961	58.752	179.114	0.0010737	0.00047651	0.00013414	1458.4	5.12e-06	4.9917e-06	1453.6	382.23	8.5695e-06	4.0583e-06	435.76	144.76	126.12	42.819	6.1647e-06	52.999	0.00069616	0.00069573	0.00019605	1459.8	7.7632e-06	8.2223e-06	1455.6	384.68	7.4241e-06	7.3329e-06	437.78	145.97	127.18	43.387	7.6301e-06	53.65	65.470	-27.124	-29.080	-112.853	21.890	26.343	-113.256	-108.532	-20.871	25.013	-108.859	-105.055	-104.435	-99.410	9.506	-100.372	-8191	255	
970.102	1	1	0	0	0.16262	0.083395	0.072011	0.088212	0.19975	0.17086	0.19952	0.070062	0.26301	0.22821	0.056444	0.38765	0.25637	0.16924	0.081981	0.16346	-3.0687	-3.7062	-2.9167	-3.8208	-3.4437	-3.2917	-3.9542	-3.3521	-3.4958	-3.8375	-3.3021	-3.8604	-3.3646	-3.2854	-3.8688	-3.4542	181.609	79.298	109.153	1.479	130.941	23.341	218.679	-81.469	23.553	-95.265	179.994	205.670	209.908	199.377	33.045	-119.831	0.0010523	0.00053097	0.00012798	1445.4	5.0399e-06	4.2603e-06	1455.1	383.37	8.9061e-06	4.889e-06	436.58	144.72	126.25	42.605	5.2171e-06	52.872	0.0006874	0.00066234	0.00019605	1457	7.7484e-06	7.8063e-06	1456.3	384.64	7.6009e-06	7.8136e-06	438.59	145.88	127.23	43.366	7.3464e-06	53.702	61.681	-43.017	-30.157	-112.911	15.230	25.485	-113.320	-108.614	-1.335	30.004	-108.989	-104.725	-104.644	-99.357	8.406	-100.397	-8191	255	
970.198	1	1	0	0	0.15891	0.2793	0.10105	0.2544	0.20691	0.21145	0.10184	0.12953	0.17655	0.042526	0.25035	0.059751	0.16751	0.31701	0.18551	0.21536	-2.9167	-3.5521	-2.8583	-3.9375	-3.4854	-3.2083	-3.9562	-3.3146	-3.3875	-3.8667	-3.2146	-3.7458	-3.5708	-3.2292	-3.9771	-3.4042	96.294	104.718	11.800	128.726	189.798	-78.555	-59.601	95.809	206.265	127.944	197.068	-79.945	-37.229	230.078	88.022	185.265	0.0010815	0.00052395	0.00011989	1462.8	4.3411e-06	4.8176e-06	1456.1	381.46	8.2091e-06	5.1078e-06	436.07	144.96	126.34	42.876	6.1538e-06	52.875	0.00071703	0.00069369	0.00022099	1460.8	7.8828e-06	8.0552e-06	1459.6	384.13	7.3069e-06	7.7586e-06	437.98	146.18	127.02	43.373	6.927e-06	53.734	63.880	-38.540	-26.460	-112.836	21.695	15.242	-113.313	-108.591	-16.750	14.309	-108.974	-104.688	-104.589	-99.462	14.471	-100.160	-8191	255	
970.294	1	1	0	0	0.18822	0.036685	0.15566	0.16006	0.07568	0.026752	0.31493	0.22614	0.27278	0.13723	0.069837	0.26081	0.148	0.13405	0.18663	0.044988	-2.9292	-3.7729	-3.0917	-3.6771	-3.5396	-3.1937	-4.0458	-3.2771	-3.2604	-3.9	-3.2854	-3.6667	-3.8625	-3.1375	-3.7125	-3.3563	26.206	65.484	-67.952	-41.067	62.095	-33.901	145.819	179.738	-60.196	-76.183	-104.069	210.495	213.281	-63.989	-119.691	33.198	0.0010178	0.00052083	0.00015011	1457.3	6.34e-06	6.0728e-06	1453.7	381.71	8.2032e-06	5.4135e-06	435.8	144.46	125.61	42.666	5.268e-06	52.703	0.00069542	0.00063231	0.00020164	1459.5	7.7573e-06	7.8063e-06	1456.3	384.8	7.8616e-06	7.3897e-06	437.9	145.8	126.88	43.323	7.3841e-06	53.538	63.202	-25.693	-28.806	-113.014	28.632	30.809	-112.994	-108.280	-13.599	25.371	-108.847	-104.582	-104.381	-99.544	11.592	-100.333	-8191	255	
970.413	1	1	0	0	0.20728	0.21231	0.10802	0.11526	0.070768	0.16746	0.29108	0.25861	0.11086	0.1499	0.19861	0.21755	0.05151	0.054954	0.24768	0.19709	-2.8458	-3.7896	-3.1437	-3.4729	-3.7958	-3.1208	-3.975	-3.5667	-3.0917	-3.8479	-3.4646	-3.4542	-3.8208	-3.0729	-3.5979	-3.7604	-105.724	47.269	-53.252	183.440	140.746	-39.729	194.094	121.923	130.037	136.062	164.583	-34.799	178.596	63.564	188.440	179.703	0.0010004	0.0004795	0.00017184	1466.5	4.7805e-06	6.1718e-06	1452.5	381.95	7.0571e-06	4.7788e-06	435.72	144.79	125.75	42.725	4.7403e-06	53.001	0.00070241	0.00060009	0.00019824	1462.1	6.994e-06	8.6632e-06	1456.7	384.03	7.7411e-06	7.3072e-06	437.64	146.1	127.07	43.267	6.8867e-06	53.706	66.125	-43.214	-31.872	-112.862	14.936	20.960	-113.254	-108.461	-9.312	23.746	-109.331	-104.953	-104.729	-99.383	21.373	-100.514	-8191	255	
970.509	1	1	0	0	0.16781	0.27274	0.0063865	0.12993	0.17453	0.055132	0.15962	0.23102	0.29874	0.27158	0.23002	0.13788	0.17845	0.12563	0.12395	0.075469	-2.5396	-3.8354	-3.1083	-3.2167	-3.7125	-3.1292	-3.9	-3.9292	-2.9104	-3.7938	-3.4771	-3.4458	-3.9188	-3.3042	-3.5667	-3.8521	-0.122	-2.103	-95.847	202.954	-79.661	-33.080	165.294	144.182	-91.823	-90.910	181.820	179.703	-1.280	199.990	-39.679	-13.770	0.0011012	0.00048061	0.00013025	1468.3	5.4724e-06	5.5811e-06	1451.3	381.75	8.9578e-06	4.9447e-06	436.73	144.94	125.38	42.845	4.2959e-06	52.907	0.00071386	0.00063697	0.0001861	1466.4	7.4251e-06	8.1352e-06	1456.5	384.35	7.2127e-06	7.2484e-06	437.94	145.87	126.93	43.319	7.1502e-06	53.751	61.994	-38.923	-35.318	-113.075	8.585	25.914	-113.037	-108.675	-3.646	23.451	-108.961	-104.710	-104.600	-99.622	2.318	-100.448	-8191	255	
970.605	1	1	0	0	0.36684	0.16374	0.13939	0.092729	0.1979	0.035203	0.066522	0.31267	0.36698	0.16523	0.26526	0.04018	0.04655	0.21796	0.14991	0.23039	-2.7667	-3.7333	-3.2896	-3.3187	-3.8396	-3.1417	-3.7438	-3.8375	-3.0042	-3.8208	-3.5729	-3.35	-3.8833	-3.2854	-3.2708	-3.9	-43.130	97.483	79.377	104.934	83.490	73.519	155.793	189.758	167.039	196.229	70.099	199.122	232.071	-84.154	41.636	-122.867	0.0010449	0.0005182	0.00014163	1455.9	3.8969e-06	4.6749e-06	1455.9	381.23	9.4299e-06	4.8669e-06	435.16	144.47	125.85	42.629	4.9489e-06	52.819	0.00068628	0.00062502	0.00019645	1460.9	6.6116e-06	7.5165e-06	1455.9	383.61	7.9145e-06	7.2686e-06	437.27	145.83	127.02	43.226	7.1569e-06	53.6	62.389	-48.075	-34.179	-112.984	17.716	16.570	-113.289	-108.510	-1.588	15.178	-109.062	-104.998	-104.567	-99.839	12.493	-100.521	-8191	255	
970.701	1	1	0	0	0.058114	0.25929	0.065591	0.27592	0.053244	0.011662	0.31735	0.15253	0.1205	0.066668	0.26692	0.12909	0.083547	0.337	0.09534	0.21148	-2.6917	-3.7292	-3.4771	-3.1354	-3.8688	-3.2646	-3.5375	-3.9896	-3.225	-3.7833	-3.7229	-3.15	-3.9042	-3.2854	-3.1833	-4.0896	59.046	209.469	138.889	203.772	-7.877	-37.380	148.143	83.165	-89.668	184.235	171.560	194.664	-104.947	204.853	177.469	126.113	0.0010716	0.00048116	0.00016588	1454.5	4.985e-06	4.6351e-06	1453	382.28	1.0326e-05	4.2175e-06	435.16	145.32	126.13	42.656	5.1863e-06	52.786	0.0006962	0.00064747	0.00019828	1457.1	6.7031e-06	7.5058e-06	1456.6	384.34	7.7055e-06	7.9182e-06	437.74	146.1	126.93	43.331	7.536e-06	53.659	66.293	-35.583	-41.454	-113.274	13.166	30.221	-113.273	-108.547	-11.126	22.409	-109.107	-105.058	-104.761	-99.565	12.024	-100.220	-8191	255	
#DATA ENDS
