BOXY.EXE: ISS Imagent and Oximeter Data Acquisition Program Version 0.80
Ascii Record File

#ACQ INFORMATION
2  Detector Channels 
16  External MUX Channels 
1  Auxiliary Channels 
5000  Waveform (CCF) Frequency (Hz)
1  Waveforms Skipped 
30  Waveforms Averaged 
1  Cycles Averaged 
16  Acquisitions per Waveform 
10.0806  Updata Rate (Hz) 

#FILE INFORMATION
TRUE -- External MUX Channel results are PARSED.
FALSE -- AC DC and Phase are NOT grouped.
TRUE -- Companion Program Settings File CREATED.
FALSE -- AC data not excluded
FALSE -- DC data not excluded
FALSE -- Phase data not excluded
FALSE -- Auxillary Chn. data not excluded
Tab delimiters

#CALIBRATION STATE
TRUE -- Waveform Calibration Values APPLIED.


#AUX CALIBRATION VALUES
Val Type	aux-1	

Term	1.0000e+00	
Factor	0.0000e+00	


#WF CALIBRATION VALUES
A = Detector Channel
Val Type	A-AC1	A-AC2	A-AC3	A-AC4	A-AC5	A-AC6	A-AC7	A-AC8	A-AC9	A-AC10	A-AC11	A-AC12	A-AC13	A-AC14	A-AC15	A-AC16	A-DC1	A-DC2	A-DC3	A-DC4	A-DC5	A-DC6	A-DC7	A-DC8	A-DC9	A-DC10	A-DC11	A-DC12	A-DC13	A-DC14	A-DC15	A-DC16	A-Ph1	A-Ph2	A-Ph3	A-Ph4	A-Ph5	A-Ph6	A-Ph7	A-Ph8	A-Ph9	A-Ph10	A-Ph11	A-Ph12	A-Ph13	A-Ph14	A-Ph15	A-Ph16	

Term	0.00000e+00	0.00000e+00	0.00000e+00	0.00000e+00	0.00000e+00	0.00000e+00	0.00000e+00	0.00000e+00	0.00000e+00	0.00000e+00	0.00000e+00	0.00000e+00	0.00000e+00	0.00000e+00	0.00000e+00	0.00000e+00	0.00000e+00	0.00000e+00	0.00000e+00	0.00000e+00	0.00000e+00	0.00000e+00	0.00000e+00	0.00000e+00	0.00000e+00	0.00000e+00	0.00000e+00	0.00000e+00	0.00000e+00	0.00000e+00	0.00000e+00	0.00000e+00	0.00000e+00	0.00000e+00	0.00000e+00	0.00000e+00	0.00000e+00	0.00000e+00	0.00000e+00	0.00000e+00	0.00000e+00	0.00000e+00	0.00000e+00	0.00000e+00	0.00000e+00	0.00000e+00	0.00000e+00	0.00000e+00	
Factor	1.00000e+00	1.00000e+00	1.00000e+00	1.00000e+00	1.00000e+00	1.00000e+00	1.00000e+00	1.00000e+00	1.00000e+00	1.00000e+00	1.00000e+00	1.00000e+00	1.00000e+00	1.00000e+00	1.00000e+00	1.00000e+00	1.00000e+00	1.00000e+00	1.00000e+00	1.00000e+00	1.00000e+00	1.00000e+00	1.00000e+00	1.00000e+00	1.00000e+00	1.00000e+00	1.00000e+00	1.00000e+00	1.00000e+00	1.00000e+00	1.00000e+00	1.00000e+00	X	X	X	X	X	X	X	X	X	X	X	X	X	X	X	X	

B = Detector Channel
Val Type	B-AC1	B-AC2	B-AC3	B-AC4	B-AC5	B-AC6	B-AC7	B-AC8	B-AC9	B-AC10	B-AC11	B-AC12	B-AC13	B-AC14	B-AC15	B-AC16	B-DC1	B-DC2	B-DC3	B-DC4	B-DC5	B-DC6	B-DC7	B-DC8	B-DC9	B-DC10	B-DC11	B-DC12	B-DC13	B-DC14	B-DC15	B-DC16	B-Ph1	B-Ph2	B-Ph3	B-Ph4	B-Ph5	B-Ph6	B-Ph7	B-Ph8	B-Ph9	B-Ph10	B-Ph11	B-Ph12	B-Ph13	B-Ph14	B-Ph15	B-Ph16	

Term	0.00000e+00	0.00000e+00	0.00000e+00	0.00000e+00	0.00000e+00	0.00000e+00	0.00000e+00	0.00000e+00	0.00000e+00	0.00000e+00	0.00000e+00	0.00000e+00	0.00000e+00	0.00000e+00	0.00000e+00	0.00000e+00	0.00000e+00	0.00000e+00	0.00000e+00	0.00000e+00	0.00000e+00	0.00000e+00	0.00000e+00	0.00000e+00	0.00000e+00	0.00000e+00	0.00000e+00	0.00000e+00	0.00000e+00	0.00000e+00	0.00000e+00	0.00000e+00	1.37173e+01	-1.18228e+02	-1.12758e+02	-1.83080e+02	-7.15389e+01	-7.78103e+01	-1.57142e+02	-1.62015e+02	-8.64581e+01	-8.33328e+01	-1.74681e+02	-1.70893e+02	-1.86226e+02	-1.78823e+02	-6.33234e+01	-1.50760e+02	
Factor	3.86630e-05	1.07672e-04	3.58680e-05	1.52370e-01	1.43992e-06	1.45988e-06	1.51923e-01	5.45124e-02	1.38203e-06	1.18428e-06	1.31598e-01	2.66902e-02	3.84029e-02	8.59656e-03	1.43767e-06	1.22989e-02	8.31094e-07	8.48967e-07	2.35916e-07	7.55567e-02	9.27535e-09	9.30345e-09	7.09969e-02	2.68103e-02	9.28531e-09	9.29857e-09	5.97757e-02	1.26460e-02	1.79984e-02	4.20033e-03	9.30521e-09	5.78123e-03	X	X	X	X	X	X	X	X	X	X	X	X	X	X	X	X	



#DISTANCE SETTINGS
A = Detector Channel
A-1	A-2	A-3	A-4	A-5	A-6	A-7	A-8	A-9	A-10	A-11	A-12	A-13	A-14	A-15	A-16	

2.5000e+00	3.0000e+00	2.5000e+00	3.0000e+00	2.0000e+00	3.0000e+00	1.5000e+00	3.0000e+00	3.0000e+00	3.0000e+00	3.0000e+00	3.0000e+00	3.0000e+00	3.0000e+00	1.5000e+00	3.0000e+00	

B = Detector Channel
B-1	B-2	B-3	B-4	B-5	B-6	B-7	B-8	B-9	B-10	B-11	B-12	B-13	B-14	B-15	B-16	

1.0000e+01	1.0000e+01	1.0000e+01	1.4400e+00	1.0000e+01	1.0000e+01	1.5100e+00	1.9400e+00	1.0000e+01	1.0000e+01	1.9900e+00	2.4900e+00	2.4100e+00	2.9000e+00	1.0000e+01	2.9800e+00	




#DATA BEGINS
time	group	step	mark	flag	A-AC1	A-AC2	A-AC3	A-AC4	A-AC5	A-AC6	A-AC7	A-AC8	A-AC9	A-AC10	A-AC11	A-AC12	A-AC13	A-AC14	A-AC15	A-AC16	A-DC1	A-DC2	A-DC3	A-DC4	A-DC5	A-DC6	A-DC7	A-DC8	A-DC9	A-DC10	A-DC11	A-DC12	A-DC13	A-DC14	A-DC15	A-DC16	A-Ph1	A-Ph2	A-Ph3	A-Ph4	A-Ph5	A-Ph6	A-Ph7	A-Ph8	A-Ph9	A-Ph10	A-Ph11	A-Ph12	A-Ph13	A-Ph14	A-Ph15	A-Ph16	B-AC1	B-AC2	B-AC3	B-AC4	B-AC5	B-AC6	B-AC7	B-AC8	B-AC9	B-AC10	B-AC11	B-AC12	B-AC13	B-AC14	B-AC15	B-AC16	B-DC1	B-DC2	B-DC3	B-DC4	B-DC5	B-DC6	B-DC7	B-DC8	B-DC9	B-DC10	B-DC11	B-DC12	B-DC13	B-DC14	B-DC15	B-DC16	B-Ph1	B-Ph2	B-Ph3	B-Ph4	B-Ph5	B-Ph6	B-Ph7	B-Ph8	B-Ph9	B-Ph10	B-Ph11	B-Ph12	B-Ph13	B-Ph14	B-Ph15	B-Ph16	aux-1	digaux	

2701.656	1	1	0	768	0.18425	0.23849	0.11522	0.24444	0.14592	0.12057	0.30674	0.065668	0.10709	0.04225	0.035108	0.064024	0.16412	0.2543	0.21316	0.23593	-2.3187	-2.9125	-2.7	-2.9813	-3.1021	-2.7771	-3.0938	-2.6063	-2.9167	-2.95	-2.6479	-2.9938	-2.8667	-2.55	-3.0125	-2.8667	45.932	195.900	-92.369	-37.261	155.223	-62.928	81.147	172.097	-9.416	21.023	83.635	31.336	74.639	175.803	-71.648	150.928	0.00026708	7.9558e-05	0.0038487	211.88	1.1607e-06	2.5316e-06	300.19	65.26	8.5667e-05	8.8088e-07	115.6	40.809	19.367	6.0818	5.8382e-07	15.249	3.061e-05	2.4074e-05	0.00029379	224.66	2.6317e-07	3.6995e-07	318.16	92.172	6.2753e-07	2.7194e-07	117.59	42.767	19.683	11.676	2.9073e-07	15.962	-8.517	-28.962	155.236	-141.472	-33.810	75.956	-141.515	-133.696	-111.239	-39.158	-137.520	-132.939	-132.750	-119.352	87.243	-128.955	-8191	255	
2701.752	1	1	0	0	0.082427	0.29286	0.043102	0.19619	0.056527	0.03134	0.081792	0.22213	0.11719	0.18458	0.061772	0.097628	0.17134	0.024178	0.14421	0.21336	-2.4062	-3.0917	-2.6458	-2.9875	-2.8708	-2.725	-3.2146	-2.6542	-2.6833	-2.9771	-2.6854	-2.9292	-2.9146	-2.6167	-2.9083	-2.6437	164.451	86.451	140.512	81.175	150.582	-140.213	-20.351	81.477	-41.075	42.617	208.205	196.381	145.748	-108.008	131.913	-145.015	0.00033467	0.00012715	0.0039734	214.31	7.5003e-07	1.3413e-06	300.46	65.219	7.5658e-05	4.7353e-07	116.99	41.156	19.509	5.9659	1.4092e-06	15.225	3.5966e-05	2.6757e-05	0.00030772	227.19	2.9144e-07	3.9807e-07	319.78	71.099	7.6389e-06	2.9691e-07	118.53	43.065	19.92	11.869	3.1184e-07	15.868	-15.536	-24.824	161.832	-141.633	-33.274	38.915	-141.610	-133.070	-107.479	7.443	-137.142	-133.025	-132.549	-118.425	11.689	-129.334	-8191	255	
2701.848	1	1	0	0	0.35223	0.16266	0.24773	0.27618	0.35377	0.35395	0.32699	0.047865	0.24301	0.12676	0.022818	0.12726	0.19043	0.18039	0.093134	0.27684	-2.4354	-2.9604	-2.6958	-2.8396	-2.9104	-2.625	-3.0396	-2.9042	-2.6646	-3.0958	-2.6875	-3.0625	-2.9958	-2.7583	-2.8729	-2.8646	-78.981	45.767	43.315	34.916	-109.092	0.001	139.058	111.987	52.206	-101.307	126.300	-54.833	118.603	-1.709	149.542	-99.867	0.00030681	9.3779e-05	0.0037957	212.26	1.1173e-06	1.4904e-06	298.03	60.633	0.00015488	5.9983e-07	116.57	41.462	19.467	5.8407	5.8605e-07	15.349	4.1214e-05	2.7659e-05	0.00029475	225.44	2.9874e-07	3.9689e-07	317.37	63.953	1.2124e-05	2.9868e-07	118.17	43.196	19.94	11.666	2.9759e-07	15.976	-6.871	-71.707	169.403	-141.612	-26.488	17.537	-141.690	-136.155	-43.392	-40.171	-137.302	-133.039	-132.261	-119.490	-55.460	-129.298	-8191	255	
2701.942	1	1	0	0	0.025833	0.18721	0.21992	0.13577	0.16103	0.1841	0.031954	0.24356	0.23352	0.36527	0.040929	0.18988	0.2031	0.24978	0.28658	0.13796	-2.3438	-3.0062	-2.7604	-2.85	-2.9396	-2.5979	-2.9896	-2.8104	-2.7271	-3.1354	-2.7771	-2.8771	-2.9729	-2.5875	-2.8792	-2.8312	-28.839	132.584	61.149	80.079	105.885	-88.165	-30.766	-76.061	43.434	143.177	-71.743	37.575	-46.322	-88.877	152.070	-53.886	0.00030138	0.00012925	0.00026452	205.5	1.2394e-06	1.1155e-06	300.31	61.745	0.00014596	4.5489e-07	118.42	41.854	19.822	5.9298	8.9657e-07	15.673	4.0137e-05	2.609e-05	0.0002383	231.59	2.7484e-07	3.4979e-07	318.02	64.704	1.1462e-05	2.6995e-07	119.29	43.933	20.094	11.877	2.8505e-07	16.204	-10.468	-17.905	43.070	-146.344	34.264	63.372	-141.671	-136.239	-39.994	1.466	-137.100	-132.934	-132.797	-120.195	50.334	-128.959	-8191	255	
2702.038	1	1	0	0	0.14292	0.24361	0.086243	0.20834	0.23127	0.23669	0.1464	0.15667	0.23425	0.15839	0.085224	0.16401	0.32164	0.13079	0.047579	0.20068	-2.3667	-2.9333	-2.6771	-2.7396	-2.9646	-2.7271	-3.0604	-2.7771	-2.7521	-2.8979	-2.8792	-2.5687	-2.9	-2.7354	-2.8396	-3.0938	176.358	-126.089	-52.482	-64.160	-70.458	145.667	67.626	51.349	8.868	151.810	53.551	-152.914	-115.255	120.035	168.069	106.642	0.00029604	6.4074e-05	0.00024942	207.92	9.8835e-07	1.2366e-06	301.82	61.908	0.00014806	5.8185e-07	119.17	42.352	19.933	6.0059	6.3686e-07	15.767	3.6437e-05	2.3799e-05	4.9613e-05	287.58	2.4916e-07	3.2591e-07	319.63	64.834	1.1631e-05	2.5486e-07	119.99	44.169	20.204	11.573	2.7854e-07	16.397	-13.144	-40.250	-17.012	-145.786	17.766	76.311	-141.977	-136.696	-33.230	0.291	-137.491	-132.940	-132.827	-120.373	120.679	-129.046	-8191	255	
2702.135	1	1	0	0	0.2535	0.2371	0.095122	0.16076	0.15975	0.093534	0.22512	0.25418	0.12934	0.28513	0.29414	0.19023	0.076526	0.06369	0.12755	0.061652	-2.2375	-2.95	-2.7917	-2.725	-3.0333	-2.9375	-2.9167	-2.8833	-2.7354	-2.8854	-2.8271	-2.7438	-3.0042	-2.8063	-2.8937	-2.8854	12.336	-76.586	98.035	177.670	120.937	-98.154	-24.296	183.033	155.727	-106.020	-139.097	-125.564	49.646	2.364	-137.716	-8.580	0.00026142	4.955e-05	2.5308e-05	211.07	4.7867e-07	3.8634e-07	303.78	62.712	0.00013235	7.4635e-07	119.8	42.606	19.861	6.4716	0.00010637	15.705	3.5933e-05	2.3037e-05	6.0896e-06	316.59	2.4657e-07	3.1483e-07	322.2	65.803	1.0486e-05	2.4655e-07	121.03	44.543	20.363	10.151	1.5093e-06	16.279	-13.937	-52.336	-40.383	-146.274	-51.779	81.920	-141.701	-136.074	-29.126	3.781	-137.406	-132.972	-132.478	-121.320	174.810	-128.968	-8191	255	
2702.255	1	1	0	0	0.03029	0.26379	0.20094	0.10066	0.092021	0.27305	0.20639	0.14881	0.080153	0.12644	0.11565	0.017655	0.10004	0.1941	0.047811	0.33744	-2.2313	-2.9125	-3.0042	-2.7604	-3.2917	-2.9667	-2.7958	-3.0542	-2.7083	-2.9958	-3.1146	-2.7542	-3.1188	-2.575	-2.6688	-2.9771	-71.660	-1.786	-73.528	-44.540	191.809	-76.961	90.704	-132.550	87.584	-52.087	198.534	-105.546	-20.583	34.738	-30.408	162.091	0.00028428	6.2477e-05	8.7781e-06	211.92	1.3078e-06	1.2768e-06	301.47	62.245	0.00013261	1.4532e-06	119.83	42.198	19.926	6.3887	0.00011057	18.849	3.3252e-05	2.4075e-05	5.9805e-06	309.85	2.5183e-07	2.6321e-07	320.36	65.42	1.0867e-05	2.6443e-07	120.75	44.361	20.358	7.0809	8.014e-06	19.175	-15.237	-102.035	-60.512	-145.759	-52.335	-0.295	-141.934	-136.231	-26.144	-35.533	-137.370	-133.136	-132.784	-126.320	175.924	-131.413	-8191	255	
2702.351	1	1	0	0	0.23268	0.046933	0.1173	0.063929	0.048587	0.22203	0.37759	0.08084	0.13057	0.16629	0.046312	0.2603	0.21257	0.28494	0.11342	0.22062	-2.1688	-2.9521	-2.9792	-2.5792	-3.0458	-2.9333	-2.7896	-3.0917	-2.7438	-2.9458	-3.0333	-2.7271	-3.0146	-2.7125	-2.8646	-2.9917	-99.952	141.574	41.367	-27.363	131.596	-93.185	-136.910	-14.074	110.498	139.576	-126.784	-127.132	112.891	-147.442	166.018	-153.051	0.00034983	0.00019854	2.5962e-05	259.38	3.9597e-07	9.4292e-07	367.07	76.133	0.00016827	2.1665e-06	146.82	51.447	24.352	7.512	0.00018433	18.599	4.0961e-05	3.0124e-05	7.5056e-06	377.36	3.1018e-07	2.9354e-07	383.88	78.577	1.2979e-05	3.3436e-07	144.8	52.887	24.255	7.7607	1.3761e-05	18.983	-12.275	-74.708	-22.923	-146.622	10.070	14.517	-142.752	-137.349	-20.008	9.878	-138.192	-134.108	-133.898	-128.659	127.083	-129.971	-8191	255	
2702.447	1	1	0	0	0.16812	0.017025	0.31402	0.24606	0.22504	0.23776	0.31926	0.052807	0.21871	0.06751	0.16048	0.14497	0.2468	0.059378	0.28602	0.074348	-2.2833	-2.8646	-3.0229	-2.6479	-2.8937	-2.9833	-2.8125	-2.9562	-2.7771	-2.7188	-2.9625	-2.5938	-2.9375	-2.8187	-2.7167	-2.8771	-13.167	112.176	-151.937	-56.307	-134.404	164.266	-110.295	-22.692	10.928	85.873	119.416	-109.650	-133.749	54.465	-10.446	-49.466	0.00034354	0.00013526	5.0149e-05	260.57	9.3064e-07	1.2297e-06	367.25	74.81	0.00018927	2.8843e-05	144.02	49.626	23.077	6.9293	0.00017387	17.604	4.2149e-05	3.136e-05	7.9371e-06	378.02	3.2522e-07	2.9756e-07	382.64	77.45	9.6902e-06	2.5427e-06	142.9	50.992	23.276	7.1897	1.3593e-05	17.954	-16.408	-35.355	-30.428	-146.569	-74.007	-15.615	-142.624	-137.040	-3.161	-101.185	-138.054	-134.036	-133.533	-128.218	132.752	-129.893	-8191	255	
2702.544	1	1	0	0	0.050733	0.17959	0.20545	0.08764	0.14458	0.16908	0.05736	0.074691	0.15524	0.13408	0.26936	0.32867	0.021063	0.23944	0.17216	0.098423	-2.1063	-2.7313	-3.0479	-2.65	-2.7812	-2.875	-2.4938	-2.9979	-2.6146	-2.6813	-2.8292	-2.6646	-3.0167	-2.9396	-2.6708	-3.0312	-106.219	-0.080	142.493	148.136	116.723	86.709	31.697	-1.108	7.992	-104.118	-38.414	119.806	-16.779	103.838	127.137	28.703	0.00031331	0.00015079	2.4627e-05	260.94	1.8732e-06	4.9524e-07	366.48	74.125	0.00018024	1.7869e-05	141.6	46.904	21.872	6.3444	0.00018263	16.06	3.5437e-05	3.4335e-05	7.5149e-06	381.58	3.3735e-07	2.9013e-07	382.26	76.726	1.1523e-06	1.0562e-05	140.82	48.128	21.882	6.5449	1.3891e-05	16.447	-7.699	-24.384	-114.169	-147.015	-8.068	188.225	-142.658	-137.588	0.390	-105.528	-137.960	-133.646	-133.403	-128.039	141.020	-129.139	-8191	255	
2702.640	1	1	0	0	0.20189	0.031581	0.10743	0.11264	0.11545	0.27676	0.28166	0.27427	0.28617	0.085582	0.086764	0.22976	0.30567	0.11609	0.1909	0.18397	-2.4333	-2.6583	-3.1021	-2.7083	-2.9125	-2.8396	-2.8104	-3.0062	-2.7208	-2.85	-3.0083	-2.7104	-2.6437	-3.0292	-2.5604	-2.8417	73.209	-135.111	-63.295	-1.815	-63.519	184.066	-151.244	148.742	143.308	-117.844	75.283	140.316	-20.180	-16.480	41.161	194.392	0.0002634	0.00018039	3.6616e-05	259.76	1.1604e-06	1.4815e-06	358.93	71.752	1.2888e-06	0.00015292	135.69	42.926	19.989	5.7564	0.0001756	14.926	3.0723e-05	3.7503e-05	7.4461e-06	372.65	3.1644e-07	2.7709e-07	374.77	73.866	2.7341e-07	1.4072e-05	134.28	43.987	20.049	5.9095	1.35e-05	15.251	-20.167	-45.741	-29.977	-146.511	-35.404	9.450	-142.780	-136.904	-31.758	2.041	-138.028	-133.578	-133.409	-127.801	144.643	-128.900	-8191	255	
2702.736	1	1	0	0	0.20295	0.048131	0.090482	0.12233	0.10827	0.077617	0.12027	0.32729	0.10505	0.044708	0.079347	0.17518	0.12082	0.23983	0.18132	0.18799	-2.3646	-2.5583	-3.0479	-2.5896	-2.7562	-2.6646	-2.7083	-2.8625	-2.9021	-2.5896	-3.0646	-2.8229	-2.8208	-2.8042	-2.675	-2.7687	153.008	-134.347	62.090	-78.220	-67.983	-58.602	-24.964	195.021	-123.751	-83.713	-10.055	189.956	142.439	185.694	78.398	-35.558	0.00027218	0.00019067	3.5641e-05	259.35	0.00017686	9.2866e-07	354.35	70.349	1.8845e-06	0.00015424	134.43	41.691	19.49	5.6201	0.00018091	14.707	2.7412e-05	3.5503e-05	6.8195e-06	334.73	3.1497e-06	2.5534e-07	370.35	72.871	2.5391e-07	1.3498e-05	132.64	42.795	19.64	5.7982	1.409e-05	15.017	-17.245	-26.904	-96.923	-143.003	-123.290	-32.807	-142.753	-137.310	-46.941	6.200	-138.106	-133.460	-134.039	-127.493	148.688	-129.161	-8191	255	
2702.857	1	1	0	0	0.1518	0.22035	0.2719	0.14669	0.093967	0.19102	0.32299	0.26123	0.061157	0.049906	0.10194	0.14223	0.31276	0.13685	0.33358	0.076929	-2.4583	-2.6458	-3.0979	-2.8937	-2.6604	-2.9917	-2.6229	-2.6542	-2.7396	-2.6729	-3.0208	-2.6042	-2.7125	-2.8792	-2.7875	-2.7958	82.383	160.102	153.260	-71.283	-61.854	-51.968	181.456	99.940	187.866	-136.299	191.501	137.987	-53.480	54.106	-56.898	95.761	0.00027874	0.00017045	4.0675e-05	262.34	0.00017391	2.1307e-06	355.77	70.618	1.045e-06	0.00015797	132.94	41.756	19.726	5.6768	0.00017388	14.731	2.6529e-05	3.3799e-05	6.4695e-06	266.15	1.1232e-05	2.5005e-07	371.53	73.086	2.4558e-07	1.4155e-05	131.65	42.657	19.797	5.8636	1.3552e-05	15.093	-18.030	-40.062	-32.683	-142.860	-121.454	-21.469	-142.753	-137.197	-18.698	13.288	-138.168	-133.365	-133.565	-127.042	153.835	-128.403	-8191	255	
2702.951	1	1	0	0	0.14556	0.055717	0.24948	0.16158	0.037977	0.13786	0.25886	0.10102	0.23167	0.15556	0.11674	0.1687	0.13782	0.32353	0.13278	0.21366	-2.5896	-2.6729	-3.1333	-2.8542	-2.6333	-3.0917	-2.8312	-2.8646	-3.2313	-2.7812	-2.9708	-3.05	-2.7	-3.0042	-2.7729	-2.925	57.839	128.456	5.195	125.799	-51.961	-16.288	164.675	61.707	-117.877	53.534	76.244	-112.196	-85.639	-106.791	-41.174	178.532	0.00027782	0.00022445	1.0899e-05	253.5	0.00019093	1.1987e-06	356.4	70.433	1.4479e-06	0.00014923	132.89	40.649	19.179	5.5662	0.00010501	13.606	2.5698e-05	3.314e-05	6.0906e-06	262.93	1.4069e-05	2.389e-07	370.23	72.796	2.3436e-07	1.3433e-05	130.87	41.842	19.345	5.7268	8.2449e-06	16.776	-19.013	-27.095	-125.279	-142.435	-90.440	-47.571	-142.757	-137.116	-62.340	21.225	-137.965	-133.384	-133.472	-127.333	90.813	-133.951	-8191	255	
2703.047	1	1	0	0	0.24134	0.16739	0.19078	0.15174	0.26711	0.072035	0.083285	0.13371	0.070462	0.14306	0.058693	0.085736	0.083446	0.04867	0.1632	0.10794	-2.5792	-2.6958	-3.0021	-2.7375	-2.4292	-3.0333	-3.0333	-2.8396	-3.0979	-2.9083	-3.0146	-3.05	-2.5563	-3.0062	-2.8271	-2.6958	-21.468	-7.968	38.390	58.602	-102.566	153.702	74.862	-82.476	46.840	-73.663	76.248	89.209	-73.777	39.399	89.066	202.857	0.00027209	0.00015872	2.5746e-05	249.92	0.00017913	1.2441e-06	347.52	68.668	1.2151e-06	0.00014769	127.5	39.161	18.585	5.3494	1.6764e-06	13.316	2.3856e-05	2.8283e-05	6.4105e-06	259.5	1.2927e-05	2.1543e-07	360.79	70.862	2.2035e-07	1.3234e-05	126.69	40.183	18.671	5.5587	2.0216e-07	20.853	-14.142	-9.742	10.612	-142.543	-84.668	18.908	-142.587	-137.443	-54.772	25.551	-138.074	-133.771	-133.573	-127.136	33.837	-134.446	-8191	255	
2703.143	1	1	0	0	0.14739	0.18884	0.14699	0.30668	0.16009	0.17103	0.18597	0.25335	0.16838	0.2627	0.22786	0.10115	0.14831	0.091049	0.17816	0.34911	-2.6604	-2.7021	-2.8125	-2.9833	-2.6271	-2.9479	-2.8125	-2.8417	-2.8667	-2.7083	-2.8625	-2.9396	-2.6771	-3.0646	-2.8	-2.85	54.890	-62.403	178.247	154.867	-62.512	60.703	160.187	77.898	-85.404	-133.700	-49.363	10.402	177.422	-119.613	-131.834	203.370	0.0002303	0.00014101	3.1046e-05	246	0.00017352	1.5904e-06	342.1	67.28	4.5901e-07	0.00013253	125.75	38.242	17.966	5.2639	3.0865e-07	12.442	2.2663e-05	2.5869e-05	5.8055e-06	254.83	1.2756e-05	2.0313e-07	355.29	69.625	2.0803e-07	1.2113e-05	124.08	39.03	18.129	5.4186	1.8793e-07	21.532	-6.652	12.613	-18.557	-142.872	-82.186	-16.531	-142.885	-137.148	-46.512	28.486	-138.166	-133.294	-134.077	-127.442	141.876	-132.502	-8191	255	
2703.217	1	1	0	0	0.15268	0.11099	0.068036	0.068306	0.31903	0.26242	0.21095	0.15651	0.064724	0.14688	0.24022	0.065667	0.32465	0.21301	0.074917	0.2389	-2.7021	-2.575	-2.8563	-3.0062	-2.6708	-2.8458	-2.9562	-2.7208	-2.8792	-2.7542	-2.9125	-2.9813	-2.6479	-3.0146	-2.9646	-2.5792	169.123	-135.800	89.644	98.303	183.476	144.234	98.165	201.968	87.289	116.249	-92.946	175.534	66.128	64.624	146.965	-106.572	0.00026004	0.00023508	6.122e-05	246.4	0.00015649	1.0066e-06	342.3	66.481	1.0048e-06	0.00014894	121.21	37.747	17.871	5.1786	1.1279e-06	12.401	2.2562e-05	2.4199e-05	5.4054e-06	254.21	1.1792e-05	2.0229e-07	355.14	69.245	2.0579e-07	6.7701e-06	146.84	38.545	17.877	5.3688	1.8831e-07	20.979	-23.264	-29.760	4.938	-142.474	-75.709	-95.574	-142.868	-137.536	-74.405	21.111	-138.347	-133.242	-133.632	-127.569	37.147	-132.520	-8191	255	
2703.336	1	1	0	0	0.029704	0.099745	0.22788	0.25569	0.17673	0.20785	0.11653	0.16113	0.11375	0.3643	0.034068	0.1348	0.1762	0.19326	0.21536	0.13215	-2.4021	-2.7208	-2.8167	-2.9167	-2.7375	-3.0917	-2.825	-2.7188	-2.8896	-2.7354	-2.8104	-3.0438	-2.825	-2.8812	-2.8521	-2.6437	-22.897	-67.939	-37.795	138.254	-115.233	48.702	-124.299	204.148	96.177	3.809	-54.217	64.670	-129.545	-3.571	9.523	-23.216	0.00027795	0.00016007	1.8184e-05	244.08	0.00015795	1.9692e-06	341.8	66.69	4.5989e-07	5.0223e-07	119.68	37.043	17.4	5.1112	1.0421e-06	12.184	2.2171e-05	1.8449e-05	6.7295e-06	252.85	1.2244e-05	2.1623e-07	354	68.754	1.9793e-07	1.8043e-07	191.5	37.832	17.482	5.2622	1.7825e-07	20.904	-14.285	-35.160	21.712	-142.499	-67.747	-29.736	-143.116	-137.386	-76.541	10.627	-138.865	-133.553	-133.323	-127.564	5.084	-133.239	-8191	255	
2703.432	1	1	0	0	0.24679	0.063216	0.1035	0.31604	0.098103	0.12238	0.032054	0.22533	0.10507	0.24239	0.1498	0.13193	0.11276	0.07867	0.17352	0.068558	-2.5104	-2.7167	-2.4875	-2.8146	-2.7625	-2.8563	-2.8875	-2.7062	-3.0396	-2.8563	-2.6813	-2.9813	-2.5042	-2.8521	-2.9333	-2.5354	-83.841	159.782	154.467	94.063	26.511	-83.134	-14.849	-84.479	-6.827	34.133	8.568	11.652	176.311	-15.612	53.566	23.810	0.00025432	0.00015213	7.6808e-05	240.68	0.00016108	1.3595e-06	335.53	65.121	1.5949e-06	6.0983e-07	120.6	35.973	17.02	4.986	1.4987e-06	11.962	2.1789e-05	1.6137e-05	7.626e-06	249.14	1.188e-05	2.0776e-07	349.04	67.332	1.924e-07	1.72e-07	197.97	36.843	17.093	5.1315	1.8252e-07	20.41	-11.704	-14.129	7.741	-142.660	-63.789	-15.870	-142.784	-137.340	-49.392	28.359	-130.653	-133.152	-133.493	-127.478	-5.924	-133.632	-8191	255	
2703.528	1	1	0	0	0.18182	0.24442	0.23478	0.20741	0.24436	0.075057	0.25473	0.13751	0.047766	0.10346	0.12512	0.13131	0.32675	0.30221	0.090234	0.082363	-2.4646	-2.7562	-2.5396	-3.0125	-2.6396	-2.9229	-3.1458	-2.4604	-2.9292	-2.9292	-2.6854	-3.1354	-2.7438	-2.7812	-3.0312	-2.6521	139.446	24.815	45.332	-20.555	181.205	-5.703	83.853	138.311	48.051	78.794	5.570	9.842	24.347	16.220	195.857	177.059	0.00026313	0.00018252	7.3505e-05	238.52	0.00011546	0.00010791	334.41	63.858	2.3176e-06	1.2006e-07	118.72	35.724	16.817	4.9962	1.8053e-06	12.077	2.2053e-05	1.6309e-05	7.2259e-06	246.38	6.3152e-06	4.3833e-06	346.24	66.489	2.1733e-07	1.7898e-07	195.37	36.603	16.772	5.1215	1.8203e-07	20.456	-31.248	-64.345	-1.738	-142.991	-15.782	-109.181	-142.889	-137.292	-104.135	-69.935	-131.390	-133.235	-133.429	-127.445	-18.036	-133.886	-8191	255	
2703.624	1	1	0	0	0.26336	0.12666	0.29694	0.29656	0.11686	0.07309	0.089629	0.1594	0.16955	0.059942	0.30787	0.019404	0.26897	0.1001	0.065472	0.24969	-2.4667	-2.7771	-2.7333	-3.2542	-2.875	-2.8	-3.0104	-2.7562	-2.7021	-2.9833	-2.7687	-2.8208	-2.8104	-2.6813	-3.0438	-2.6042	-52.431	65.077	20.602	-28.355	180.708	-103.941	191.842	-138.812	26.978	98.084	66.175	115.894	-58.494	14.329	-12.036	168.097	0.00023215	0.00012036	6.7946e-05	237.86	2.5919e-06	0.00010087	332.39	64.018	1.2097e-06	4.877e-07	118.01	35.778	16.953	4.9906	1.0705e-06	12.186	2.2554e-05	1.6323e-05	7.2849e-06	245.51	1.7384e-07	1.1175e-05	345.25	66.387	2.025e-07	1.7454e-07	194.28	36.618	16.783	5.1522	1.7945e-07	19.977	-20.452	-73.564	38.511	-142.730	-40.954	-107.911	-142.777	-137.294	-117.651	16.166	-131.148	-133.401	-132.986	-127.576	12.325	-133.874	-8191	255	
2703.745	1	1	0	0	0.34107	0.39161	0.099611	0.12534	0.25685	0.016591	0.096867	0.11311	0.21401	0.14309	0.14374	0.21675	0.12325	0.044207	0.18653	0.30134	-2.4146	-2.7771	-2.625	-2.9896	-2.7958	-2.6729	-2.9688	-2.7438	-2.8146	-2.9896	-2.7667	-2.9979	-2.6188	-2.4313	-2.8563	-2.6625	-146.186	68.450	177.120	38.022	-24.780	-66.115	-22.284	-61.089	39.017	133.894	-127.118	-104.099	-21.708	-53.446	-70.821	45.136	0.00027184	0.00012971	5.3971e-05	237.31	1.8375e-06	0.00016645	336.09	65.031	1.5323e-06	1.0073e-06	117.75	36.207	17.242	4.9919	1.373e-06	12.646	2.263e-05	1.5826e-05	6.9202e-06	246.34	1.7329e-07	1.1461e-05	347.73	67.025	2.0892e-07	1.7113e-07	189.42	37.04	16.959	5.1829	1.8324e-07	16.249	-20.361	-36.944	-1.628	-142.893	-28.739	-51.756	-142.801	-137.751	-122.942	-56.754	-131.953	-133.462	-133.662	-127.761	-37.495	-128.084	-8191	255	
2703.816	1	1	0	0	0.24745	0.049041	0.21729	0.087249	0.20802	0.28452	0.09127	0.16624	0.10977	0.22103	0.11698	0.070242	0.057668	0.14353	0.14903	0.38418	-2.3021	-2.9229	-2.7354	-2.8688	-2.7542	-2.6875	-2.925	-2.7625	-2.6583	-2.9354	-2.7083	-2.9167	-2.7583	-2.6188	-2.9062	-2.6583	-134.987	75.322	-137.401	-49.787	-3.351	-93.621	-101.329	1.039	-132.965	77.421	164.192	49.036	-135.688	98.401	-139.749	82.427	0.0043856	7.2955e-05	2.6662e-05	238.47	1.2804e-06	0.00013478	337.39	65.421	1.5464e-06	8.7658e-08	117.85	36.786	17.308	5.0399	1.4674e-06	13.08	0.00039839	1.5764e-05	6.2066e-06	248.76	1.7326e-07	1.0588e-05	350.84	67.456	2.5086e-07	1.7315e-07	190.37	37.474	17.21	5.2244	1.8585e-07	13.316	-64.512	-28.118	59.912	-142.853	-34.853	-47.471	-143.203	-137.334	-113.623	-63.832	-132.346	-133.239	-133.654	-127.601	-22.951	-128.805	-8191	255	
2703.937	1	1	0	0	0.095782	0.073064	0.25895	0.10598	0.074701	0.15982	0.12022	0.23895	0.2708	0.17476	0.1033	0.31688	0.067483	0.17852	0.21364	0.023866	-2.2104	-2.8854	-2.4375	-2.6708	-2.8271	-2.5896	-2.9521	-2.8937	-2.5708	-3.0042	-2.5646	-2.9083	-2.7896	-2.6375	-2.8542	-2.8542	133.365	-71.284	64.905	200.036	-139.368	-153.807	-88.136	-101.564	-76.320	63.274	110.331	-85.942	137.793	94.761	41.434	-94.868	0.0038059	0.00010733	2.8466e-05	244.63	1.3477e-06	0.00014735	343.79	67.067	1.3104e-06	6.3695e-07	119.43	37.301	17.428	5.1848	1.7112e-06	13.334	0.00094255	1.6841e-05	6.3678e-06	252.52	1.8224e-07	1.0805e-05	356.77	69.023	2.7924e-07	1.8704e-07	190.08	38.196	17.506	5.3537	1.899e-07	13.573	-72.122	-57.742	-3.899	-142.712	-95.323	-41.859	-142.959	-137.785	-99.422	47.622	-133.450	-133.362	-133.416	-127.058	41.606	-128.824	-8191	255	
2704.031	1	1	0	0	0.42767	0.22525	0.050931	0.085259	0.13857	0.099401	0.2147	0.21265	0.16135	0.13039	0.27298	0.17829	0.16379	0.13958	0.055847	0.17315	-2.2896	-3.0292	-2.5062	-2.7583	-2.8688	-2.6188	-2.8708	-2.9208	-2.6625	-2.8354	-2.725	-2.7458	-2.9583	-2.6437	-2.7792	-2.8458	53.219	86.307	110.821	-124.007	139.883	-36.356	19.723	68.401	-42.289	-152.855	155.042	66.717	-5.947	-108.375	30.420	-153.460	0.0040578	0.00012321	1.5577e-05	245.87	6.5928e-07	0.00014417	346.39	68.516	5.5882e-07	7.4233e-07	128.47	36.307	17.782	5.2284	2.0891e-06	13.63	0.00095778	1.6993e-05	5.8394e-06	254.73	1.9042e-07	1.0245e-05	359.9	70.018	2.7815e-07	1.8444e-07	153.02	44.974	17.781	5.3944	2.1394e-07	13.801	-63.684	-36.124	-35.732	-142.895	-39.867	-34.671	-142.865	-137.518	-78.541	28.924	-132.615	-134.119	-133.589	-127.264	18.610	-128.784	-8191	255	
2704.127	1	1	0	0	0.25973	0.25834	0.21561	0.1947	0.12654	0.093827	0.18791	0.20683	0.1951	0.095686	0.24422	0.19383	0.16882	0.14154	0.21543	0.22235	-2.0687	-3.0333	-2.75	-2.8646	-2.7188	-2.6458	-2.9146	-2.9	-2.4833	-2.8604	-2.7604	-2.6937	-3.0417	-2.6354	-2.8354	-2.9125	-72.540	-72.812	19.305	203.184	163.546	-88.157	-81.290	122.165	123.972	124.440	-0.195	165.373	-44.793	41.068	6.297	107.343	0.0039143	7.1211e-05	2.9071e-05	246.85	1.1101e-06	0.00014121	349.77	68.957	1.251e-06	9.0912e-07	128.54	36.979	18.224	5.3081	1.2963e-06	13.725	0.00091152	1.7715e-05	4.7218e-06	257.27	1.9096e-07	1.0511e-05	364.33	70.877	2.8322e-07	1.9453e-07	127.53	53.123	18.16	5.4912	2.1706e-07	13.996	-57.404	-82.003	0.150	-142.995	-18.952	-29.678	-142.620	-137.155	-101.492	-2.742	-137.959	-130.611	-133.334	-127.286	5.090	-128.671	-8191	255	
2704.224	1	1	0	0	0.13695	0.10897	0.2342	0.09678	0.33951	0.1466	0.26338	0.017295	0.10984	0.15457	0.11416	0.2246	0.079655	0.13882	0.082617	0.040976	-2.1813	-2.8375	-2.6896	-2.7354	-3.175	-2.8	-2.6542	-2.8521	-2.6188	-2.8771	-2.8958	-2.6167	-2.8771	-2.7833	-2.7125	-3.1229	138.728	5.944	102.743	-137.463	195.245	36.794	-4.181	203.594	-104.239	-30.659	77.675	155.489	-106.173	55.836	-71.162	47.369	0.0038431	0.00016398	2.4677e-05	249.02	1.3212e-06	0.00012686	352.58	69.55	2.7966e-07	1.2158e-06	130.57	37.404	18.346	5.3556	1.6376e-06	14.059	0.0009293	1.8966e-05	4.966e-06	259.05	2.0473e-07	9.8056e-06	365.72	71.414	2.8796e-07	2.1429e-07	128.68	54.177	18.291	5.5208	2.4166e-07	14.217	-53.883	-56.610	-15.217	-142.766	-24.598	-5.062	-142.768	-137.347	-94.106	-42.013	-138.180	-131.283	-133.572	-127.572	-1.320	-128.819	-8191	255	
2704.344	1	1	0	0	0.13882	0.036575	0.12726	0.20905	0.26989	0.31679	0.13098	0.054951	0.19661	0.22676	0.066344	0.25823	0.11939	0.10703	0.18446	0.45323	-2.1854	-2.7833	-2.7792	-2.5417	-2.9083	-2.8375	-2.7458	-3.0417	-2.4604	-2.8667	-2.9458	-2.575	-2.9958	-2.8625	-2.6042	-3.0062	30.067	-115.789	-27.955	171.706	116.128	-10.455	-140.138	71.035	33.722	100.466	82.200	180.431	163.423	-78.773	-49.738	113.393	0.0038611	6.735e-05	3.5311e-05	248.36	1.1028e-06	0.00013765	359.2	70.042	1.0917e-06	7.6053e-07	130.77	37.81	18.805	5.4933	3.1078e-06	14.221	0.00091609	2.1084e-05	5.2383e-06	259.78	2.2027e-07	4.0399e-06	407.26	72.006	2.9071e-07	2.2576e-07	130.04	54.845	18.693	5.6305	2.9494e-07	14.458	-47.516	192.062	-62.388	-142.636	-53.065	-0.019	-143.007	-137.466	-120.164	-45.985	-138.163	-131.018	-133.439	-127.744	-17.632	-128.879	-8191	255	
2704.440	1	1	0	0	0.20082	0.11863	0.13442	0.14929	0.15737	0.30856	0.11583	0.02923	0.17979	0.18762	0.1439	0.12973	0.03215	0.027217	0.12128	0.14328	-2.1292	-2.7667	-2.7771	-2.5062	-2.9562	-2.7583	-2.6458	-2.8125	-2.6833	-2.8792	-2.8042	-2.6417	-3.025	-2.7375	-2.7042	-2.8167	36.055	99.081	16.673	-112.601	99.183	110.236	55.424	21.987	-52.681	-94.308	128.618	49.411	170.960	117.061	-122.002	59.992	0.0039992	6.0029e-05	5.7629e-06	251.68	1.252e-06	1.3347e-06	367.73	71.02	2.9486e-06	8.9349e-07	134.47	38.377	19.115	5.5573	2.9034e-06	14.478	0.00097253	2.1695e-05	5.5258e-06	261.59	2.2512e-07	2.126e-07	452.3	72.845	2.9877e-07	2.3911e-07	132.28	56.568	18.961	5.7079	3.206e-07	14.734	-43.074	20.859	-92.297	-142.192	-23.582	-34.630	-141.068	-137.710	-101.373	-34.881	-138.309	-131.202	-133.407	-127.879	-23.093	-128.939	-8191	255	
2704.512	1	1	0	0	0.2288	0.25458	0.11823	0.019979	0.069442	0.21612	0.17014	0.1385	0.24605	0.11999	0.06369	0.035423	0.30961	0.18033	0.27191	0.090658	-2.4708	-2.6083	-2.9083	-2.5167	-2.8479	-2.8479	-2.6167	-3.0563	-2.8521	-2.7062	-3.075	-2.7792	-2.9562	-2.7625	-2.5708	-2.8958	-27.704	-46.829	38.218	-1.569	-106.203	153.283	-140.752	-130.358	-153.453	-52.321	-31.842	48.423	83.046	77.815	-114.315	-11.474	0.00063279	2.0831e-05	3.5242e-05	251.67	1.3743e-06	4.893e-07	368.77	71.069	1.8441e-06	7.5231e-07	134.7	38.914	19.165	5.5592	1.9051e-06	14.687	0.00090893	2.1942e-05	5.4565e-06	261.71	2.2682e-07	2.152e-07	458.88	73.214	2.6185e-07	2.5414e-07	132.96	56.706	19.221	5.7611	3.1744e-07	14.918	32.228	124.084	-41.125	-142.559	-39.748	-1.248	-140.692	-137.561	-84.999	-38.207	-138.017	-131.684	-133.600	-127.183	-12.408	-128.660	-8191	255	
2704.633	1	1	0	0	0.19345	0.15256	0.03309	0.10048	0.08279	0.26349	0.02386	0.14013	0.055123	0.12808	0.12936	0.072762	0.088753	0.093624	0.022579	0.15546	-2.2646	-2.7333	-2.8625	-2.7542	-2.7562	-3.0146	-2.7979	-2.8875	-2.9021	-2.5438	-3.0604	-2.7417	-2.85	-2.8354	-2.5792	-2.8625	161.179	-144.605	113.222	40.205	74.418	30.781	175.046	106.005	164.458	-64.091	-2.235	-119.097	123.244	171.142	-144.010	118.626	0.0010536	0.010822	3.1733e-05	251.81	5.0372e-07	1.617e-06	367.99	71.031	1.6759e-06	1.0089e-06	135.81	38.78	19.208	5.6216	2.4876e-06	14.829	0.00033432	0.00053977	5.5229e-06	261.1	2.4584e-07	2.0989e-07	453.83	73.323	2.1826e-07	3.0404e-07	134.03	57.328	19.301	5.8262	3.2093e-07	15.074	38.250	181.219	-59.950	-142.668	-133.914	-21.187	-140.605	-137.246	-40.426	-96.070	-137.976	-132.000	-132.831	-127.531	12.412	-128.933	-8191	255	
2704.729	1	1	0	0	0.038779	0.15808	0.17269	0.20542	0.15543	0.21241	0.035957	0.11092	0.12777	0.18539	0.1772	0.23221	0.17929	0.049516	0.032137	0.10075	-2.3458	-2.7062	-3.0271	-2.6896	-2.8208	-2.9104	-2.675	-2.7562	-2.8708	-2.7583	-3	-2.6104	-2.7521	-2.9188	-2.7833	-2.8375	-48.015	-84.163	-137.986	62.120	34.308	-2.711	-112.233	-153.296	-36.426	-82.164	156.164	182.944	153.148	-129.408	-79.073	87.474	0.00028171	0.010352	2.7802e-05	248.5	1.057e-06	1.1993e-06	363.92	71.589	6.9801e-07	6.5605e-07	136.35	41.624	19.62	5.7568	3.5935e-06	15.057	2.3582e-05	0.00098531	5.8055e-06	259.25	2.4777e-07	2.2259e-07	456.72	73.65	2.1855e-07	3.2865e-07	134.55	56.126	19.631	5.9235	3.1723e-07	15.322	-18.130	200.121	-53.098	-142.434	88.770	62.419	-140.710	-137.298	-36.746	-77.055	-138.431	-131.061	-133.216	-127.422	50.402	-128.691	-8191	255	
2704.825	1	1	0	0	0.2334	0.066661	0.17359	0.084285	0.1329	0.27827	0.088551	0.098732	0.23233	0.12209	0.24448	0.25057	0.097689	0.32357	0.14167	0.12227	-2.4958	-2.4125	-2.9375	-2.5708	-2.8688	-2.9646	-2.6271	-2.8625	-2.8	-2.7083	-2.85	-2.6937	-2.7729	-2.9938	-2.7354	-2.8	-151.127	-2.334	71.314	-18.573	-120.578	64.755	-37.159	173.620	-55.371	63.089	117.589	58.699	-79.898	165.645	58.420	-86.877	0.00027126	0.010995	1.7676e-05	252.66	1.697e-06	1.163e-06	365.9	72.582	7.3551e-07	1.2135e-06	138.29	42.064	16.463	5.8401	1.336e-06	15.271	2.5333e-05	0.001012	6.0149e-06	261.9	2.7909e-07	2.3195e-07	457.62	74.517	2.3118e-07	3.3874e-07	136.19	47.759	31.849	6.0136	3.0568e-07	15.53	-18.796	-152.386	135.063	-142.332	-152.016	18.569	-140.660	-137.396	-49.203	-91.382	-138.080	-131.204	-137.498	-127.408	45.642	-128.694	-8191	255	
2704.919	1	1	0	0	0.13424	0.29088	0.033008	0.12489	0.17138	0.046565	0.17922	0.17376	0.13986	0.16531	0.14503	0.11122	0.06425	0.16599	0.15579	0.1778	-2.5021	-2.5312	-2.825	-2.8688	-2.6229	-2.9958	-2.5417	-2.7562	-2.7583	-2.625	-2.9313	-2.7792	-2.5271	-3.0146	-2.4417	-2.6437	-9.638	176.735	132.902	118.077	-60.701	142.968	93.903	1.148	27.712	-130.491	-145.616	11.588	-60.624	85.398	32.908	138.313	0.00025305	0.010825	5.3153e-06	253.71	9.2585e-07	3.5005e-07	370.67	73.131	6.0198e-07	1.3495e-06	139.91	43.41	16.777	5.8251	1.6862e-06	15.358	2.5471e-05	0.00097423	6.1648e-06	263.38	3.2995e-07	2.4367e-07	463.43	75.43	2.408e-07	3.3343e-07	138.32	44.385	40.322	6.0497	3.1576e-07	15.649	-19.228	-148.953	-95.153	-142.574	174.124	-96.574	-140.328	-137.099	-125.311	-125.968	-137.704	-133.390	-129.585	-127.753	14.937	-128.677	-8191	255	
2705.040	1	1	0	0	0.11058	0.10298	0.16359	0.015408	0.2416	0.31028	0.090265	0.040542	0.073123	0.083782	0.077055	0.10064	0.18186	0.097091	0.12031	0.13078	-2.4646	-2.65	-2.8125	-2.7667	-2.6104	-2.7979	-2.7396	-2.6	-2.8104	-2.6667	-2.8979	-2.7042	-2.3854	-2.8292	-2.45	-2.6417	151.694	-149.007	108.085	-64.733	-133.670	153.812	130.462	67.685	-143.762	37.510	-53.933	-64.549	-71.215	-25.388	171.063	-128.369	0.00030961	0.010649	4.8311e-05	253.6	1.1105e-06	8.2636e-07	366.86	73.832	9.3545e-07	2.5078e-06	141.31	43.581	16.573	5.9152	2.3434e-06	15.435	2.673e-05	0.00099792	6.2665e-06	263.95	3.486e-07	2.5104e-07	447.64	76.024	2.4647e-07	3.1551e-07	139.09	44.734	41.435	6.1322	2.8142e-07	15.859	-19.837	-139.785	-76.140	-142.557	137.272	93.519	-140.469	-137.571	-44.507	-48.652	-138.293	-133.316	-129.943	-127.618	2.156	-128.727	-8191	255	
2705.112	1	1	0	0	0.034436	0.30102	0.16569	0.063986	0.10749	0.27353	0.19175	0.23083	0.12156	0.24717	0.26004	0.2152	0.049194	0.10904	0.077995	0.26449	-2.3875	-2.4354	-2.6875	-2.7625	-2.5208	-3.0021	-2.7208	-2.7958	-2.7896	-2.6333	-2.8729	-2.7021	-2.55	-2.7229	-2.9729	-2.5875	3.123	13.879	181.360	-107.877	-34.029	126.462	58.149	169.344	153.518	-57.513	171.308	151.748	62.151	-105.909	-101.430	-106.452	0.00029111	0.010571	4.1072e-05	255.38	5.0756e-07	1.6256e-06	370.2	73.593	1.6055e-06	2.1252e-06	142.81	44.661	16.944	6.0046	1.2498e-06	15.845	2.78e-05	0.0009905	7.0849e-06	264.66	3.5834e-07	2.5699e-07	401.23	96.109	2.584e-07	3.3254e-07	140.89	45.677	41.877	6.2512	2.4814e-07	16.215	-19.988	-137.631	-46.752	-142.620	-85.384	50.735	-140.302	-137.579	-109.185	-55.202	-137.824	-133.476	-132.066	-127.567	-18.603	-128.943	-8191	255	
2705.208	1	1	0	0	0.16485	0.061826	0.13715	0.067131	0.08543	0.11557	0.14901	0.19643	0.14786	0.074094	0.09275	0.20493	0.12791	0.16295	0.21933	0.11163	-2.4125	-2.5125	-2.8125	-2.8	-2.6667	-2.9521	-2.6937	-2.7354	-2.9625	-2.5729	-2.85	-2.7646	-2.6354	-2.8667	-2.6771	-2.5458	145.285	24.141	-89.421	7.684	123.147	118.939	115.169	58.682	-88.311	150.022	-89.499	153.882	-63.156	204.557	29.403	0.022	0.00032409	0.011066	5.6979e-05	257.36	4.2754e-07	1.0612e-06	370.61	76.111	1.4254e-06	2.0023e-06	144.39	45.677	17.574	6.1592	1.4924e-06	16.164	2.8726e-05	0.0010401	7.3896e-06	267.75	3.6686e-07	2.7498e-07	385.6	109.36	2.8767e-07	3.5373e-07	143.35	46.769	43.088	6.3829	2.9023e-07	16.566	-13.624	-130.182	-44.466	-142.752	7.795	-8.856	-142.583	-133.241	-76.837	-55.232	-138.094	-133.760	-133.081	-127.577	-98.017	-129.102	-8191	255	
2705.304	1	1	0	0	0.098952	0.24594	0.16193	0.071938	0.12987	0.19348	0.35312	0.13815	0.051847	0.11096	0.17636	0.4341	0.13087	0.13231	0.27644	0.064799	-2.45	-2.5354	-2.7229	-2.7542	-2.4417	-2.8438	-2.7896	-2.3854	-2.925	-2.5146	-2.6312	-2.7375	-2.4958	-2.7333	-2.6396	-2.5833	-118.376	72.556	121.702	141.995	-146.200	-77.765	37.899	39.114	127.574	-47.028	112.371	137.985	19.291	-135.556	-22.810	-74.498	0.00029563	0.0059895	0.0029797	261.19	9.1902e-07	1.2565e-06	375.47	76.477	8.3247e-07	1.2678e-06	145.99	46.061	17.87	6.2289	7.0082e-07	16.139	3.2707e-05	0.00082569	2.0216e-05	271.97	3.8265e-07	3.1886e-07	390.22	111.82	3.2767e-07	3.4178e-07	144.78	47.277	42.755	6.4562	3.1015e-07	16.552	-18.737	-74.241	207.173	-142.567	-23.275	68.810	-142.661	-132.579	-2.395	-58.302	-138.070	-133.344	-134.843	-127.980	-80.174	-129.049	-8191	255	
2705.425	1	1	0	0	0.15838	0.1514	0.17221	0.12743	0.14487	0.14767	0.12097	0.2986	0.27756	0.21395	0.19474	0.13328	0.16572	0.11007	0.040181	0.18889	-2.3708	-2.7438	-2.6479	-2.8854	-2.5667	-2.7042	-2.7396	-2.5229	-2.7604	-2.6271	-2.4979	-2.7375	-2.6833	-2.6063	-2.7562	-2.6417	72.513	64.737	3.274	76.973	-107.661	114.302	-104.012	-145.139	61.182	-102.075	-115.910	-9.786	106.008	-140.787	181.612	178.489	0.00029811	0.006889	0.0029343	262.07	1.545e-06	8.0833e-07	373.32	75.828	7.0363e-07	7.5996e-07	144.1	46.061	17.496	6.1981	1.822e-06	16.015	3.3997e-05	0.00021899	0.00019689	271.37	3.9563e-07	3.4374e-07	387.48	109.99	3.3578e-07	3.1673e-07	143.65	47.077	43.607	6.4212	3.2886e-07	16.528	-16.964	-68.615	-149.854	-142.659	-4.628	126.934	-142.743	-133.109	-13.631	20.170	-138.144	-133.802	-135.665	-127.588	-13.749	-129.037	-8191	255	
2705.521	1	1	0	0	0.17342	0.076001	0.24324	0.15178	0.24805	0.1308	0.21747	0.14483	0.065626	0.057422	0.13018	0.322	0.25049	0.083189	0.14693	0.098734	-2.3354	-2.6104	-2.5938	-2.9437	-2.6979	-2.7833	-2.6396	-2.5729	-2.9271	-2.7042	-2.6708	-2.8	-2.6208	-2.6958	-3.025	-2.7021	-124.193	118.174	21.024	192.772	37.404	71.350	-49.895	-1.764	31.725	14.212	-43.291	124.738	122.556	-26.099	46.777	-55.919	0.0003196	3.665e-05	0.0036584	260.72	4.3793e-07	1.1149e-06	370.13	75.111	7.0255e-07	1.0208e-06	144.86	45.913	20.805	5.4286	1.5177e-06	15.985	3.4771e-05	2.9434e-05	0.00028634	270.49	4.1088e-07	3.5144e-07	386.17	111.43	3.3568e-07	3.1363e-07	143.93	47.068	37.629	6.8313	3.2659e-07	16.44	-22.840	38.977	-108.376	-142.681	194.489	-90.313	-142.843	-132.972	105.185	-24.280	-138.213	-133.921	-129.367	-133.976	-54.509	-128.992	-8191	255	
2705.617	1	1	0	0	0.13906	0.18402	0.23984	0.099818	0.15647	0.037743	0.08652	0.13321	0.23654	0.13844	0.29418	0.14169	0.16461	0.18637	0.057759	0.083457	-2.4771	-2.8229	-2.5	-3.0062	-2.7	-2.7833	-2.8771	-2.75	-2.8146	-2.7792	-2.5812	-2.9938	-2.6708	-2.5563	-3.0167	-2.725	77.250	98.470	-122.701	-55.462	138.543	26.609	208.699	143.020	-120.461	121.333	152.549	182.127	-60.362	144.408	-81.316	-145.008	0.00031322	5.0956e-05	0.0037577	260.3	1.9557e-06	1.4958e-06	372.01	74.454	1.5774e-06	4.0295e-07	144.31	45.848	21.046	5.4579	1.9883e-06	16.072	3.631e-05	2.9618e-05	0.00029774	270.32	3.6305e-07	3.8365e-07	386.98	110.18	3.6013e-07	3.2334e-07	144.12	46.953	24.674	10.048	3.3142e-07	16.418	-10.975	202.450	-103.047	-142.744	1.435	188.325	-142.585	-133.193	-13.563	-17.689	-137.943	-133.382	-129.450	-134.780	28.077	-128.748	-8191	255	
2705.713	1	1	0	0	0.15002	0.11889	0.14157	0.19647	0.16861	0.11581	0.051719	0.25664	0.19147	0.16195	0.1653	0.15473	0.099976	0.21296	0.11712	0.054772	-2.4021	-2.7917	-2.6833	-2.9437	-2.7646	-2.7521	-2.9958	-2.6229	-2.7896	-2.9979	-2.6917	-2.9979	-2.7333	-2.6333	-3.15	-2.6188	-1.909	46.590	105.471	176.186	64.128	-53.187	-102.690	-116.395	26.594	135.460	147.415	-29.060	-122.005	-17.273	-47.711	-93.859	0.0003278	4.2606e-05	0.0035681	261.14	9.3415e-07	1.4078e-06	370.59	73.303	1.7465e-06	1.4122e-06	144.02	45.243	21.341	5.3041	1.2139e-06	15.877	3.6712e-05	2.925e-05	0.0002877	270.65	3.256e-07	4.3875e-07	386.11	110.5	3.6514e-07	3.3368e-07	143.08	46.617	21.356	11.237	3.3536e-07	16.268	-17.100	198.306	-97.069	-142.773	-52.376	-101.366	-142.619	-132.940	-9.444	24.357	-138.253	-133.797	-133.285	-132.023	-69.079	-128.910	-8191	255	
2705.809	1	1	0	0	0.17623	0.22654	0.12979	0.054697	0.19485	0.26537	0.13487	0.12164	0.21312	0.072604	0.081865	0.067635	0.31528	0.072858	0.37156	0.30454	-2.2896	-2.9313	-2.6937	-2.9688	-2.6479	-2.6875	-2.9458	-2.8271	-2.95	-2.8583	-2.5875	-2.8646	-2.7625	-2.4479	-2.9354	-2.6458	-32.356	-35.081	142.754	127.241	114.684	60.441	166.178	107.038	2.432	25.679	62.880	139.927	-116.708	171.671	113.755	26.319	0.00028499	6.3903e-05	0.0038036	256.96	2.6757e-06	6.4504e-07	368.15	74.922	6.4983e-05	8.7799e-07	143.66	45.255	21.128	5.2796	1.3923e-06	15.8	3.657e-05	2.9601e-05	0.00029648	268.36	3.2529e-07	4.1798e-07	383.46	100.1	1.8112e-06	3.1679e-07	142.36	46.517	21.243	11.482	3.1965e-07	16.252	-15.843	-90.940	-92.434	-142.835	-13.250	-68.190	-142.522	-132.673	136.469	-42.118	-138.170	-133.427	-133.000	-133.693	-34.515	-129.007	-8191	255	
2705.905	1	1	0	0	0.13378	0.1016	0.26705	0.1811	0.28423	0.38398	0.15168	0.21713	0.24175	0.21186	0.16713	0.12026	0.25146	0.16223	0.21589	0.089839	-2.225	-2.8917	-2.7292	-2.8146	-2.8292	-2.6771	-2.8542	-2.4708	-2.775	-2.8458	-2.65	-2.8417	-2.8229	-2.5021	-2.9667	-2.8896	205.947	52.940	104.685	72.481	-18.286	67.947	-144.052	172.258	104.188	133.965	-52.964	200.522	43.738	204.808	47.068	121.787	0.00032208	0.0001336	0.0038018	258.41	9.3685e-07	1.609e-06	369.64	74.984	7.3664e-05	4.3658e-07	143.76	45.089	21.296	5.4673	1.0465e-06	15.934	3.8407e-05	2.8854e-05	0.00028611	268.47	3.1557e-07	4.1404e-07	384.29	80.498	8.8256e-06	3.0805e-07	142.77	46.544	21.213	11.273	3.1333e-07	16.317	-33.044	-34.764	-88.627	-142.354	59.952	198.718	-142.770	-132.743	143.753	0.168	-138.067	-133.621	-133.765	-133.209	-36.213	-129.008	-8191	255	
2706.024	1	1	0	0	0.22441	0.066044	0.13334	0.17878	0.086089	0.098509	0.18174	0.18078	0.12622	0.15045	0.098885	0.16308	0.14269	0.17901	0.04169	0.086805	-2.0604	-2.8292	-2.7646	-2.85	-3.0042	-2.6708	-3.175	-2.7458	-2.65	-3.0146	-2.7271	-2.6292	-2.9833	-2.4833	-2.9062	-2.9354	7.265	-117.927	-87.883	-58.596	-21.947	21.352	93.893	123.285	113.799	-23.377	-116.235	159.062	126.150	150.142	-39.257	-154.450	0.0002452	0.00010635	0.0036692	257.26	1.2508e-06	1.5654e-06	370.33	74.976	0.00013762	8.1324e-07	144.62	45.359	21.075	5.5066	4.3977e-07	16.007	4.1352e-05	2.7427e-05	0.00029243	268.39	3.0226e-07	3.92e-07	384.75	77.469	1.1183e-05	3.0061e-07	143.09	46.607	21.256	11.41	3.0058e-07	16.349	-15.207	-41.044	-81.649	-143.006	-15.528	187.642	-142.915	-137.479	65.021	48.871	-137.991	-133.516	-133.273	-134.262	-37.068	-128.714	-8191	255	
2706.120	1	1	0	0	0.15166	0.28357	0.22018	0.073664	0.14106	0.10648	0.16975	0.092631	0.10996	0.21552	0.29477	0.15221	0.051766	0.15683	0.17415	0.15885	-2.0729	-2.9313	-2.6188	-2.7062	-2.8104	-2.5229	-2.8771	-2.8354	-2.475	-3.0667	-2.7583	-2.7917	-2.9479	-2.5771	-2.7542	-2.8396	77.105	34.897	-95.608	44.385	53.270	111.072	-141.016	15.725	85.895	171.508	-34.336	204.437	200.159	155.435	-12.185	-35.397	0.00028092	7.2046e-05	0.0031302	262.3	1.2257e-06	8.7707e-07	371.35	75.196	0.00015599	1.8458e-06	143.29	45.389	21.162	5.5319	4.8768e-07	15.827	4.0864e-05	2.7491e-05	0.00019188	284.74	2.9751e-07	3.6179e-07	386.1	77.463	1.1499e-05	2.9994e-07	142.22	46.559	21.109	11.222	3.2171e-07	16.168	-22.347	-102.867	-50.101	-144.045	-4.961	-40.966	-142.698	-137.071	72.859	44.570	-138.157	-133.531	-133.687	-134.332	-88.141	-129.173	-8191	255	
2706.217	1	1	0	0	0.20566	0.091464	0.16672	0.2758	0.12449	0.12575	0.083229	0.27312	0.12274	0.20659	0.081296	0.28281	0.15019	0.10869	0.12153	0.099542	-2.0917	-2.9667	-2.7604	-2.6937	-2.7833	-2.6167	-2.8771	-2.8958	-2.6396	-2.9167	-2.8875	-2.6312	-2.9104	-2.825	-2.6875	-2.9813	119.010	161.517	42.064	102.537	-83.713	13.650	-56.396	177.639	-7.656	-26.800	-33.170	118.554	47.017	-1.808	32.265	102.633	0.00026244	8.5219e-05	0.0035072	262.92	4.3078e-07	4.0878e-07	368.82	75.038	0.00014074	1.7079e-06	143.01	45.2	21.076	5.5826	1.356e-06	15.808	4.0266e-05	2.7814e-05	2.135e-05	342.27	2.999e-07	3.6435e-07	383.47	77.192	1.1412e-05	3.0368e-07	141.79	46.5	21.112	11.524	3.2617e-07	16.213	-19.981	2.837	-43.438	-144.101	3.680	26.052	-142.509	-137.224	75.942	-20.990	-137.965	-133.595	-133.347	-136.162	-65.892	-129.385	-8191	255	
2706.337	1	1	0	0	0.11912	0.18487	0.1846	0.19666	0.11056	0.13774	0.34383	0.1409	0.12943	0.1484	0.072496	0.046235	0.14231	0.17634	0.10585	0.14349	-2.1375	-2.8042	-2.825	-2.75	-3.1042	-2.6917	-2.7292	-3.0833	-2.7854	-2.875	-2.6771	-2.6625	-2.8479	-2.8771	-2.8479	-3.0021	13.642	-100.798	23.217	147.441	7.781	-54.917	173.311	183.567	167.924	-61.925	170.814	-118.764	29.164	107.951	8.429	76.099	0.00024191	0.00014283	3.9525e-05	273.42	1.2203e-06	1.7577e-06	367.3	74.918	0.00015112	9.3974e-07	143.18	45.395	21.116	6.0806	0.00015955	16.009	4.0149e-05	2.8108e-05	7.4795e-06	360.56	3.1011e-07	3.6956e-07	383.11	77.181	1.1864e-05	3.0554e-07	142.17	46.646	21.142	9.4728	2.8292e-06	16.292	-29.735	-61.449	-50.955	-142.097	-104.550	11.289	-142.692	-137.080	85.871	34.283	-138.209	-133.265	-133.693	-127.319	-132.521	-129.001	-8191	255	
2706.409	1	1	0	0	0.039309	0.16978	0.15948	0.097075	0.11046	0.24146	0.13924	0.096003	0.060158	0.090495	0.05985	0.09385	0.10039	0.082307	0.087753	0.20209	-2.275	-2.6188	-2.7833	-2.7125	-2.8333	-2.7229	-2.6521	-2.9479	-2.5979	-2.7438	-2.8917	-2.5104	-2.95	-2.8792	-2.5521	-3	137.824	59.169	-133.379	189.375	158.814	-2.003	110.165	27.692	-97.599	86.651	70.375	-15.764	-90.783	192.417	127.947	70.866	0.0002428	4.953e-05	3.3883e-05	275.15	1.044e-06	1.2321e-06	369.4	74.768	0.00013978	1.548e-06	144.89	45.745	21.309	6.218	0.00016719	16.209	3.8734e-05	3.0635e-05	7.568e-06	364.06	3.1246e-07	3.2171e-07	385.24	77.332	1.15e-05	3.3035e-07	142.72	47.072	21.391	6.374	1.0006e-05	16.523	-23.294	-2.848	-154.528	-141.641	-19.994	-2.295	-142.440	-137.024	91.305	-26.646	-137.689	-133.447	-133.432	-128.605	-129.389	-129.033	-8191	255	
2706.505	1	1	0	0	0.14203	0.10588	0.27965	0.16899	0.031655	0.021842	0.14746	0.041421	0.078951	0.25366	0.031948	0.14321	0.15144	0.23379	0.14165	0.11093	-2.2313	-2.6771	-2.9646	-2.5292	-2.7188	-2.7917	-2.7542	-2.8625	-2.5354	-2.7542	-2.9208	-2.6688	-2.8583	-2.7917	-2.6104	-2.9479	50.049	158.984	38.285	-138.660	19.848	69.859	152.056	111.584	10.765	83.753	-151.590	-74.567	143.103	-54.031	-126.166	-88.080	0.00022459	0.00013989	4.3443e-05	273.44	1.9714e-06	5.0523e-07	368.15	74	0.00014491	9.7691e-07	144.91	45.38	21.227	6.0999	0.00015142	16.039	3.9093e-05	3.005e-05	7.5749e-06	359.03	3.1219e-07	2.8823e-07	384.89	77.107	1.1668e-05	3.3124e-07	142.24	46.888	21.265	6.3057	1.136e-05	16.389	-21.069	23.002	-48.352	-141.468	63.970	172.228	-142.545	-137.233	95.595	43.822	-137.736	-133.697	-133.395	-127.822	-117.713	-129.028	-8191	255	
2706.601	1	1	0	0	0.24877	0.14474	0.13596	0.22352	0.23393	0.072504	0.38164	0.058274	0.2338	0.13434	0.29159	0.034278	0.091534	0.20912	0.17908	0.044388	-2.2792	-2.7417	-2.7042	-2.7479	-3.0167	-2.7396	-2.6667	-2.9562	-2.7167	-2.7188	-2.95	-2.7104	-2.5958	-2.7542	-2.6625	-3.1146	108.701	63.373	13.391	167.157	5.540	14.124	154.775	-98.684	144.762	7.939	-147.315	-18.789	-132.136	79.407	-134.851	22.126	0.00023554	9.0076e-05	3.5199e-05	270.54	7.5412e-07	4.7572e-07	366.4	73.928	0.00011972	9.5914e-05	142.68	45.355	21.13	6.1078	0.00016218	15.952	3.796e-05	2.982e-05	7.6181e-06	360.07	3.0707e-07	2.9564e-07	380.9	76.492	6.7347e-06	3.2996e-06	141.33	46.66	21.119	6.3004	1.198e-05	16.285	-15.318	-149.575	-4.685	-141.152	-87.564	36.021	-142.811	-137.260	50.331	158.500	-137.867	-133.713	-133.576	-127.689	-111.046	-129.212	-8191	255	
2706.722	1	1	0	0	0.17827	0.15369	0.31362	0.19544	0.10051	0.13801	0.10084	0.3381	0.20937	0.077834	0.081849	0.10476	0.074099	0.030958	0.34001	0.10781	-2.4271	-2.7021	-2.7896	-2.5417	-2.7958	-2.825	-2.5042	-3.0146	-2.725	-2.5604	-2.925	-2.7812	-2.7396	-2.9667	-2.7479	-2.9146	-3.175	10.470	-57.865	173.326	-40.551	103.552	56.259	170.456	-4.276	170.335	-52.763	183.447	8.390	-121.921	133.953	9.496	0.0002689	8.6001e-05	1.6215e-05	268.85	1.6804e-06	2.1202e-06	365.1	73.621	3.3664e-07	0.0001096	142.59	45.6	20.915	6.0462	0.00014893	15.894	3.2996e-05	3.3157e-05	7.4687e-06	357.59	3.3009e-07	2.9288e-07	379.77	76.371	2.8939e-07	1.0768e-05	140.82	46.716	21.078	6.2361	1.1786e-05	16.266	-17.096	109.995	12.475	-140.603	13.366	-19.272	-142.798	-136.961	-61.463	162.503	-138.292	-133.724	-133.216	-127.664	-107.209	-129.261	-8191	255	
2706.818	1	1	0	0	0.088203	0.13655	0.12367	0.18624	0.22941	0.15455	0.21412	0.093004	0.075277	0.33628	0.15982	0.063046	0.16366	0.15304	0.13444	0.17871	-2.4313	-2.6292	-3.0354	-2.6125	-2.6625	-2.8021	-2.6417	-2.9542	-2.7562	-2.6646	-3.1104	-2.5875	-2.7146	-3.0021	-2.6896	-2.7979	-90.850	165.067	-87.288	177.139	-54.914	67.556	149.148	188.083	83.460	118.032	-20.250	-12.052	127.508	-43.395	172.689	-58.777	0.00027719	1.7057e-05	1.6488e-05	268.41	1.8343e-06	1.5756e-06	366.39	73.19	1.5085e-06	0.00012746	141.63	45.314	20.907	6.0761	0.00016669	15.887	3.1301e-05	3.6948e-05	7.741e-06	361.73	3.2591e-07	2.9141e-07	380.18	75.861	2.9585e-07	1.1915e-05	140.57	46.581	20.932	6.2482	1.2391e-05	16.252	-15.219	186.100	-29.872	-140.678	50.279	2.131	-142.792	-137.197	-52.752	113.698	-138.137	-133.673	-133.203	-127.667	-103.547	-129.202	-8191	255	
2706.912	1	1	0	0	0.14479	0.14606	0.24086	0.14905	0.12142	0.13387	0.068458	0.14341	0.12647	0.073539	0.09347	0.18353	0.10841	0.094853	0.2022	0.083862	-2.3625	-2.6771	-2.8729	-2.8479	-2.7271	-3.0375	-2.5479	-2.9083	-2.8146	-2.6604	-2.9729	-2.7771	-2.775	-3.0146	-2.6146	-2.9229	-129.691	76.756	117.370	88.593	-78.713	-150.328	54.911	21.732	-110.334	-7.029	6.979	130.096	-35.949	63.240	48.382	52.771	0.00028148	0.00015284	1.6137e-05	265.31	1.4544e-05	2.228e-06	364.18	72.829	6.6553e-07	0.00013058	140.92	45.029	20.729	5.9646	0.00015148	15.613	3.0969e-05	3.664e-05	7.5813e-06	314.34	4.0004e-06	3.0143e-07	378.78	75.46	2.9653e-07	1.2421e-05	139.64	46.073	20.915	6.1639	1.2075e-05	16.097	-22.335	89.031	-65.175	-140.017	-93.692	29.850	-142.666	-137.159	-85.480	117.465	-138.659	-133.502	-132.927	-127.810	-97.144	-128.938	-8191	255	
2706.986	1	1	0	0	0.27944	0.18809	0.14402	0.13529	0.21464	0.077129	0.060235	0.24948	0.36801	0.05422	0.14337	0.15783	0.22452	0.19769	0.26768	0.28914	-2.4042	-2.4813	-2.8479	-2.7812	-2.7792	-2.9938	-2.6271	-2.5854	-2.8625	-2.7125	-2.9479	-2.9083	-2.5333	-2.9521	-2.8583	-2.6604	-83.324	116.781	16.299	193.820	27.897	21.692	96.800	131.028	-4.134	169.591	18.307	78.283	-120.005	199.277	9.298	-38.617	0.00027134	0.00012829	1.674e-05	250.65	1.3327e-05	1.4967e-06	359.65	72.252	6.7973e-07	0.00012921	140.25	44.742	20.448	5.9198	0.00016948	15.745	3.1604e-05	3.685e-05	7.625e-06	260.33	1.1667e-05	3.0097e-07	374.71	74.982	3.022e-07	1.2205e-05	139.08	45.806	20.871	6.1485	1.2606e-05	16.065	-18.867	81.909	-108.161	-142.802	-112.827	29.610	-142.622	-137.460	62.513	123.217	-137.811	-133.606	-133.674	-127.860	-91.869	-129.569	-8191	255	
2707.105	1	1	0	0	0.15011	0.22515	0.09992	0.33387	0.068016	0.10554	0.23543	0.099433	0.19533	0.21503	0.057167	0.22002	0.058087	0.14333	0.16033	0.065228	-2.4813	-2.6792	-2.825	-2.7708	-2.5187	-2.725	-2.7938	-2.7708	-2.6771	-2.7375	-2.925	-2.9333	-2.6396	-3.0542	-2.7604	-2.8167	49.692	88.924	4.272	146.510	-103.792	6.312	131.721	14.702	176.565	-56.401	-79.447	107.492	100.326	-91.387	2.408	-30.691	0.00029387	7.1353e-05	4.5713e-05	251.16	0.00016691	3.3985e-07	359.92	72.45	1.8943e-06	0.00014304	139.91	44.669	20.852	5.9088	7.344e-05	16.268	3.226e-05	3.7073e-05	7.9666e-06	260.78	1.2324e-05	3.0887e-07	375.1	74.959	3.1143e-07	1.2717e-05	138.91	45.773	21	6.1456	6.198e-06	18.803	-15.921	65.812	-63.164	-142.606	22.621	-8.424	-142.655	-137.315	-57.416	129.420	-137.969	-133.357	-133.542	-127.898	-20.993	-133.547	-8191	255	
2707.201	1	1	0	0	0.26051	0.23813	0.25726	0.024466	0.19816	0.17043	0.075188	0.1088	0.24246	0.16245	0.10948	0.18236	0.085758	0.11803	0.11239	0.11639	-2.6417	-2.6854	-2.9271	-3.0438	-2.6854	-2.9333	-2.6917	-2.8146	-2.9938	-2.6188	-2.9437	-3.0583	-2.5667	-2.8521	-2.6688	-2.8438	203.984	87.138	-14.113	88.167	-97.396	202.196	144.089	80.530	113.332	166.848	155.757	-70.324	88.545	-121.300	54.488	149.926	0.00029367	4.1925e-05	3.9884e-05	248.95	0.00017657	7.859e-07	360.85	72.435	9.2177e-07	0.00014133	139.88	44.799	20.487	5.9181	2.836e-07	16.269	3.2541e-05	3.6095e-05	8.5431e-06	260.81	1.2736e-05	3.1484e-07	374.88	75.115	3.1181e-07	1.2459e-05	139.18	45.861	20.875	6.1533	3.0234e-07	23.859	-14.873	-124.477	-42.478	-142.468	26.445	18.397	-142.579	-136.949	58.726	137.109	-138.569	-133.835	-133.632	-128.222	26.761	-133.113	-8191	255	
2707.299	1	1	0	0	0.12955	0.18545	0.21356	0.21743	0.055951	0.26522	0.13845	0.11357	0.15973	0.16769	0.22998	0.19594	0.16329	0.17534	0.040421	0.30447	-2.6125	-2.5542	-2.6333	-2.8021	-2.6875	-2.925	-2.8708	-2.5542	-2.9813	-2.8125	-2.8167	-2.9083	-2.7313	-2.7958	-3.0438	-2.6458	59.113	128.177	92.504	19.510	24.146	185.018	-15.526	72.740	-141.780	-23.777	-151.902	-138.996	182.565	-17.927	-55.540	-132.538	0.00029287	5.1705e-05	9.8442e-06	249.48	0.0001636	1.2005e-06	358.71	72.15	1.8436e-06	0.00013179	138.89	44.658	20.607	5.9139	1.4892e-06	16.809	3.3242e-05	3.6638e-05	8.7461e-06	260.37	1.2505e-05	3.1733e-07	374.27	74.901	3.2727e-07	1.2822e-05	138.47	45.634	20.712	6.0962	3.1077e-07	23.639	-14.788	100.545	-29.514	-142.389	29.752	38.641	-142.673	-136.781	-35.472	141.008	-137.976	-133.891	-133.000	-127.828	-28.427	-132.093	-8191	255	
2707.418	1	1	0	0	0.11585	0.095403	0.14852	0.054969	0.26454	0.043062	0.099837	0.19454	0.0297	0.096995	0.23806	0.10292	0.062419	0.1342	0.070737	0.23958	-2.6229	-2.5646	-2.6292	-3.0604	-2.6396	-2.9208	-2.8833	-2.4042	-2.8833	-2.7958	-2.9583	-2.9771	-2.6167	-2.825	-2.9125	-2.6375	-134.447	158.447	110.269	186.202	151.652	192.320	186.913	-132.621	86.497	121.390	151.750	129.444	63.740	-148.048	-62.052	-22.763	0.00028454	0.0001483	6.515e-05	247.99	0.00016971	1.2202e-06	358.32	71.613	2.2324e-06	7.0157e-05	128.41	44.415	20.359	5.8911	6.5286e-07	16.886	3.3488e-05	3.4295e-05	8.836e-06	258.07	1.2863e-05	3.3934e-07	371.45	74.262	3.1845e-07	5.7787e-06	169.85	45.355	20.583	6.1084	3.2318e-07	23.898	-15.315	-29.102	150.953	-142.860	39.639	15.482	-142.369	-137.374	-45.050	72.491	-142.772	-133.503	-133.362	-127.877	-103.003	-131.089	-8191	255	
2707.514	1	1	0	0	0.24537	0.15759	0.081214	0.26987	0.28929	0.12225	0.12602	0.12746	0.11642	0.0766	0.19682	0.098784	0.19147	0.26603	0.30485	0.22276	-2.5979	-2.6021	-2.6292	-2.9583	-2.9125	-2.7812	-2.9333	-2.7021	-3.0187	-2.75	-2.6792	-2.9792	-2.5312	-2.65	-2.9562	-2.6896	93.976	198.571	-92.885	-149.886	-58.988	-67.440	-83.964	-37.060	163.227	-132.695	80.979	190.866	-54.465	-138.241	21.017	-83.255	0.00028753	9.2132e-05	8.1052e-05	247.79	0.00017231	2.0825e-06	356.73	71.628	1.3608e-06	1.0371e-06	124.96	44.192	20.411	5.8768	1.7669e-06	16.965	3.4667e-05	3.0299e-05	1.0282e-05	258.24	1.2662e-05	3.5843e-07	372.18	74.378	3.406e-07	3.0755e-07	219.95	45.413	20.663	6.1067	3.2723e-07	23.774	-22.676	-13.805	-145.484	-142.651	42.998	93.626	-142.700	-137.324	-81.518	24.559	-140.869	-133.585	-133.744	-127.608	24.618	-131.069	-8191	255	
2707.610	1	1	0	0	0.15707	0.15793	0.15197	0.09861	0.24846	0.1639	0.15898	0.2058	0.085322	0.20259	0.12944	0.28244	0.11998	0.19475	0.1287	0.19321	-2.5417	-2.7104	-2.6562	-2.9667	-2.7604	-2.6312	-2.9708	-2.5792	-2.8042	-2.9604	-2.5333	-2.9521	-2.6146	-2.6583	-2.9875	-2.7333	-30.123	169.902	90.968	24.186	171.867	117.598	156.457	138.808	-38.803	-20.712	-54.924	159.362	-77.575	-63.861	150.797	137.748	0.00031077	6.4387e-05	5.0391e-05	248.86	0.00017604	1.7231e-06	358.95	71.411	1.8084e-06	6.5359e-07	125.55	44.321	20.358	5.8863	2.3328e-06	17.162	3.4586e-05	2.9158e-05	1.124e-05	259.25	1.2883e-05	3.5725e-07	373.52	74.398	3.3489e-07	3.1317e-07	217.59	45.672	20.663	6.1371	3.313e-07	24.073	-17.016	-105.807	181.000	-142.930	50.239	28.179	-142.654	-137.163	-61.849	-31.654	-141.416	-133.486	-133.771	-127.476	-38.230	-130.115	-8191	255	
2707.706	1	1	0	0	0.19099	0.41394	0.011418	0.12444	0.20212	0.18261	0.11851	0.13765	0.1614	0.35836	0.099926	0.1908	0.092212	0.030543	0.16435	0.13814	-2.4062	-2.8875	-2.5771	-2.9354	-2.6521	-2.7479	-3.0021	-2.6458	-2.9354	-2.9021	-2.6417	-2.925	-2.6417	-2.6937	-3.0917	-2.5292	159.294	28.166	175.545	201.198	-92.564	-9.524	-75.247	125.477	-71.978	-93.670	60.425	13.704	58.409	-8.778	82.595	199.585	0.00035626	0.00012118	5.9633e-05	248.26	0.00018246	5.0757e-05	359.77	71.267	1.1091e-06	3.7438e-07	124.63	44.233	20.317	5.8508	1.7036e-06	17.201	3.6629e-05	2.9114e-05	1.0905e-05	258.66	5.2064e-06	5.8781e-06	373.72	74.194	3.6211e-07	3.2582e-07	219.98	45.442	20.402	6.1383	3.2979e-07	23.728	-13.117	-99.941	152.738	-142.828	36.678	140.634	-142.610	-137.590	-25.190	-10.761	-142.535	-133.418	-133.917	-127.552	-1.163	-129.871	-8191	255	
2707.802	1	1	0	0	0.2026	0.075704	0.23591	0.097078	0.058338	0.12995	0.296	0.067506	0.10948	0.28381	0.22052	0.21699	0.17847	0.19669	0.2983	0.16572	-2.2188	-2.7729	-2.4646	-2.8646	-2.8417	-2.7917	-2.9583	-2.5833	-2.8063	-2.9729	-2.6396	-2.775	-2.7021	-2.6896	-3.0958	-2.7896	170.291	105.962	175.022	40.298	130.209	-93.849	133.169	144.019	13.103	202.324	-45.867	143.312	119.762	29.673	-145.231	-144.765	0.00028536	0.00021835	2.9651e-05	247.56	5.0187e-07	0.00017477	356.27	70.975	2.0186e-06	1.5114e-06	126.64	44.003	20.202	5.8398	1.3709e-06	16.572	3.6748e-05	2.9808e-05	1.1164e-05	257.4	3.2102e-07	1.3162e-05	370.41	73.751	3.6118e-07	3.2467e-07	218.69	45.273	20.311	6.1284	3.3819e-07	23.866	-6.538	-53.547	118.965	-142.792	-45.825	55.643	-142.794	-137.198	-84.327	-16.853	-142.239	-133.695	-133.329	-128.076	46.671	-126.737	-8191	255	
2707.898	1	1	0	0	0.24392	0.15403	0.089961	0.10006	0.22016	0.15911	0.076986	0.34793	0.08688	0.25231	0.03395	0.24559	0.16042	0.068517	0.14069	0.19093	-2.3771	-3.0146	-2.4604	-2.9083	-2.8604	-2.6271	-2.8271	-2.6875	-2.7313	-3.05	-2.8542	-2.8479	-2.8208	-2.5292	-2.9604	-2.7042	-147.719	164.639	9.062	90.777	-108.373	-124.257	150.962	118.789	-95.486	198.112	96.172	-105.134	-53.832	-90.042	158.453	-88.158	0.00029414	0.0001837	8.319e-06	246.65	2.0675e-06	0.000172	354.77	70.8	2.2978e-06	1.7727e-07	127.41	44.143	20.135	5.8498	4.0551e-07	16.674	3.7642e-05	3.0648e-05	1.0901e-05	257.66	3.2761e-07	1.3162e-05	370.29	73.473	3.8027e-07	3.2652e-07	222.97	45.43	20.274	6.1422	3.4373e-07	18.865	-15.472	-24.220	-115.147	-142.879	57.870	60.985	-142.501	-137.170	-30.934	29.162	-142.712	-133.767	-133.539	-127.795	50.104	-126.590	-8191	255	
2708.017	1	1	0	0	0.27999	0.19318	0.15076	0.2403	0.070464	0.062481	0.16454	0.21936	0.083713	0.21686	0.28837	0.14962	0.13674	0.31001	0.25739	0.32622	-2.1104	-2.8875	-2.825	-2.7792	-2.7125	-2.5771	-2.8354	-2.7917	-2.5062	-3.0875	-2.7438	-2.9271	-2.8083	-2.4771	-3.0104	-2.8125	69.156	21.104	23.561	24.793	11.235	201.820	140.238	72.139	149.111	-136.977	-47.680	128.924	-135.415	93.073	7.168	134.280	0.0032419	8.5982e-05	6.4254e-05	247.97	5.1759e-07	0.00019073	353.67	71.129	1.9713e-06	4.8843e-07	127.76	44.554	20.191	5.8335	1.4231e-06	15.728	0.00061047	2.9677e-05	1.0672e-05	257.89	3.371e-07	1.3973e-05	369.88	73.395	4.4755e-07	3.351e-07	224.69	45.571	20.351	6.1498	3.4807e-07	16.058	-16.036	22.409	-138.991	-142.661	-98.460	65.652	-142.885	-137.000	-56.482	-5.440	-143.689	-133.688	-133.000	-127.565	15.103	-128.868	-8191	255	
2708.113	1	1	0	0	0.044909	0.084045	0.15759	0.19488	0.25223	0.28407	0.22189	0.21735	0.36624	0.12278	0.17915	0.054903	0.29367	0.092058	0.087343	0.16818	-2.1896	-2.8875	-2.6562	-2.6708	-2.8396	-2.3937	-2.9292	-2.875	-2.7104	-3.0521	-2.6146	-2.5167	-3.0292	-2.6063	-2.8542	-2.8458	33.656	-113.090	107.339	85.902	-6.166	70.277	179.604	143.384	-138.287	59.186	-29.126	166.476	-104.055	164.215	-144.555	115.640	0.0051907	3.3578e-05	9.7919e-06	246.43	1.6159e-06	0.00018878	355.8	70.39	2.815e-06	1.99e-06	136.78	43.736	19.873	5.7771	2.0656e-06	15.489	0.0012841	3.0821e-05	1.0912e-05	257.52	3.4012e-07	1.3972e-05	370.57	72.937	4.6798e-07	3.454e-07	220.08	45.118	20.116	6.0641	3.4778e-07	15.843	37.839	87.070	-76.434	-142.535	-20.932	68.582	-142.764	-137.241	-53.442	-56.824	-136.758	-133.543	-133.794	-127.084	-57.125	-129.144	-8191	255	
2708.209	1	1	0	0	0.26772	0.25126	0.095114	0.16686	0.034574	0.12709	0.15905	0.12957	0.19874	0.034863	0.20919	0.13534	0.17876	0.16474	0.077296	0.046281	-2.0854	-2.9667	-2.5896	-2.7958	-2.8979	-2.5625	-2.8208	-2.8375	-2.5229	-2.9562	-2.6875	-2.8083	-3.0271	-2.6583	-2.9583	-2.7917	102.350	-110.618	47.982	194.378	85.291	-97.297	91.225	185.333	171.667	178.325	-152.848	-141.515	-99.370	108.454	35.535	9.168	0.0048171	0.00012612	3.3365e-05	244.79	5.3996e-07	0.00020186	350.86	69.092	3.6024e-06	1.0798e-06	133.51	42.139	19.708	5.7303	5.2121e-07	15.259	0.0012585	3.1371e-05	9.8814e-06	254.92	3.3242e-07	1.4535e-05	365.74	71.948	4.6171e-07	3.417e-07	161.93	54.979	19.87	5.982	3.8446e-07	15.584	43.481	-68.003	5.213	-142.903	-99.460	74.809	-142.553	-137.517	-37.633	-48.633	-137.434	-137.979	-133.683	-127.745	-14.521	-129.167	-8191	255	
2708.281	1	1	0	0	0.2315	0.25594	0.11237	0.25288	0.10961	0.23683	0.050761	0.27052	0.043947	0.18896	0.046657	0.25704	0.22497	0.19749	0.14382	0.21644	-2.3646	-2.9	-2.6688	-2.6292	-3.1375	-2.7833	-2.9083	-2.8604	-2.6896	-2.9646	-2.8542	-2.7313	-2.8729	-2.7	-2.7896	-3.1167	105.504	-98.591	33.684	-124.842	174.220	173.439	-129.881	-76.309	-148.445	-80.101	-136.303	37.482	127.722	-31.456	62.975	-63.113	0.0054345	0.00023273	5.6244e-05	243.29	1.2998e-06	0.0002035	347.19	68.892	3.8469e-06	8.122e-07	133.36	41.598	19.583	5.6696	7.0741e-07	15.134	0.0013378	3.0731e-05	8.4463e-06	253.58	3.4742e-07	1.4697e-05	362.42	71.216	4.781e-07	3.4319e-07	132.9	64.764	19.705	5.926	3.7938e-07	15.54	50.701	-37.670	-29.961	-142.506	3.090	80.749	-142.626	-137.329	-26.151	-2.220	-137.821	-138.063	-133.386	-127.888	40.728	-129.149	-8191	255	
2708.402	1	1	0	0	0.087055	0.15964	0.068759	0.24204	0.086292	0.32284	0.10866	0.21345	0.029782	0.12688	0.047443	0.036169	0.053941	0.1916	0.04696	0.14071	-2.1208	-2.9271	-2.6479	-2.6396	-2.8583	-2.8	-2.6542	-2.925	-2.6708	-2.9854	-2.6562	-2.9333	-2.9229	-2.4188	-2.7875	-3.0604	71.498	17.610	127.239	105.578	133.059	-2.853	-39.462	166.023	-60.540	73.139	-135.743	195.314	13.562	102.155	2.455	163.311	0.0054377	0.00014292	3.988e-05	242.47	8.4914e-07	0.00019237	347.61	68.74	3.1527e-06	2.2505e-06	133.09	41.993	19.47	5.6584	7.9224e-07	15.179	0.0013312	3.1811e-05	8.6154e-06	252.56	3.5698e-07	1.3292e-05	362.87	71.128	4.5995e-07	3.6264e-07	132.57	64.013	19.649	5.9139	4.003e-07	15.563	53.509	-40.622	-103.373	-142.955	57.411	50.083	-142.661	-136.960	-38.871	-43.944	-138.084	-138.371	-133.958	-127.752	51.214	-129.048	-8191	255	
2708.498	1	1	0	0	0.05874	0.093554	0.051983	0.080548	0.23184	0.25069	0.30099	0.12313	0.21649	0.15169	0.10271	0.090284	0.11128	0.32632	0.19734	0.089204	-2.1188	-2.8667	-2.8937	-2.6375	-2.9771	-2.5958	-2.6375	-2.975	-2.5521	-2.7979	-2.8833	-2.6937	-2.8479	-2.8854	-2.5583	-2.9792	65.772	-98.023	73.783	-110.510	94.788	187.827	-64.373	25.070	-142.361	11.153	-75.200	-22.340	75.623	134.191	69.721	56.719	0.0055307	0.00010816	3.0345e-05	242.62	9.5323e-07	0.00017339	340.46	68.594	1.9254e-06	2.9104e-07	133.17	42.387	19.393	5.6859	1.6086e-06	15.199	0.0013334	3.5126e-05	8.5603e-06	253.92	3.5478e-07	3.978e-06	428.05	71.297	4.4113e-07	3.7421e-07	132.8	63.734	19.698	5.8948	4.5716e-07	15.589	61.999	-63.892	-2.190	-142.579	154.396	54.805	-144.095	-137.613	9.899	-39.867	-138.297	-138.001	-133.943	-127.788	201.727	-129.364	-8191	255	
2708.594	1	1	0	0	0.17398	0.089278	0.2843	0.13587	0.12979	0.23889	0.23588	0.29218	0.24322	0.15674	0.14494	0.27868	0.032833	0.088139	0.17666	0.2952	-2.3187	-2.8125	-2.7708	-2.5646	-2.9417	-2.9688	-2.6771	-2.7917	-2.6417	-2.7271	-2.9562	-2.6063	-2.8625	-2.8396	-2.6437	-2.9333	-127.019	7.911	-36.090	-29.588	-48.856	109.336	68.270	-37.008	34.843	-84.992	84.813	203.714	-5.042	-126.777	58.476	-140.130	0.0046392	9.8138e-05	3.499e-05	243.12	2.6011e-06	9.2153e-07	333.06	68.567	1.7109e-06	6.8097e-07	134.77	43.164	19.576	5.6632	6.344e-07	15.168	0.0012127	3.256e-05	8.4424e-06	253.48	3.336e-07	3.1727e-07	468.06	71.3	4.1358e-07	3.4916e-07	133.67	62.544	19.766	5.8952	4.5789e-07	15.617	64.731	21.272	-66.977	-142.829	-67.928	13.675	-141.400	-137.318	-27.294	-19.296	-138.332	-137.971	-133.740	-127.858	86.382	-129.024	-8191	255	
2708.690	1	1	0	0	0.21653	0.33077	0.083077	0.16726	0.20021	0.23392	0.23581	0.21075	0.069634	0.054615	0.16407	0.16275	0.18254	0.31586	0.26874	0.16969	-2.2896	-2.6208	-2.7938	-2.5854	-2.8646	-2.7458	-2.4417	-2.8208	-2.5646	-2.7562	-2.9646	-2.6917	-2.7208	-2.8104	-2.7479	-2.875	-55.930	-68.116	48.788	37.485	111.079	151.075	145.053	24.650	-63.340	55.716	31.400	-151.003	-132.793	-50.585	198.192	151.176	0.005121	0.0043283	4.1311e-05	241.77	1.3815e-06	1.0166e-06	329.15	68.63	2.7888e-06	1.8497e-06	134	43.066	19.376	5.6572	1.0579e-06	15.294	0.0010872	5.2977e-05	8.5244e-06	252.87	3.5928e-07	3.3539e-07	476.78	71.373	4.047e-07	4.0867e-07	133.06	65.138	19.829	5.9094	4.8383e-07	15.601	88.682	-133.957	-82.094	-142.936	-90.410	-70.746	-141.933	-137.159	-31.534	-25.087	-138.143	-138.706	-133.587	-128.075	37.470	-128.704	-8191	255	
2708.786	1	1	0	0	0.070465	0.19658	0.10491	0.090193	0.24066	0.25679	0.19645	0.045705	0.24002	0.029767	0.18331	0.13057	0.13182	0.2124	0.16046	0.23889	-2.4458	-2.5792	-3.0667	-2.6229	-2.8375	-2.9104	-2.6896	-2.9292	-2.5458	-2.7708	-2.8708	-2.6875	-2.9	-2.6271	-2.5146	-2.9917	188.543	-97.507	160.672	-62.977	-105.070	141.487	-67.841	-95.981	35.230	-16.711	67.527	-10.650	27.012	59.184	-79.918	137.038	0.0049913	0.003402	4.7081e-05	240.68	1.5449e-06	1.7456e-06	330.5	68.901	5.8881e-07	3.0093e-06	135.12	43.978	19.747	5.7081	2.7601e-06	15.486	0.00030978	0.00085764	8.8813e-06	252.97	3.8044e-07	3.2965e-07	474.07	71.408	3.4071e-07	4.603e-07	133.86	63.229	19.987	5.9422	4.6654e-07	15.814	92.192	-142.059	-99.623	-142.705	-4.824	-21.014	-142.061	-137.226	-124.513	-6.132	-138.171	-137.890	-133.727	-127.990	133.216	-129.511	-8191	255	
2708.883	1	1	0	0	0.26618	0.19296	0.24071	0.24919	0.059267	0.067405	0.18249	0.065377	0.11937	0.23282	0.21842	0.213	0.10811	0.076738	0.015815	0.20395	-2.1729	-2.5854	-2.9604	-2.6479	-2.6958	-2.9042	-2.6354	-2.8875	-2.7083	-2.625	-3.0312	-2.8292	-2.5646	-2.7062	-2.6417	-2.6875	-60.791	-0.652	91.402	-148.215	-55.235	93.653	189.404	103.611	-103.549	-105.760	-155.107	-34.346	91.694	-43.334	17.927	120.093	0.00030429	0.014043	2.0805e-05	243.42	1.7176e-06	2.1081e-06	333.85	69.007	5.9878e-07	3.3541e-06	134.55	44.335	18.254	5.681	1.7654e-06	15.375	3.5018e-05	0.0013069	8.7554e-06	253.99	3.6738e-07	3.3252e-07	474.3	71.487	3.3303e-07	4.6617e-07	133.63	60.368	21.54	5.903	4.3853e-07	15.695	-19.353	-45.928	-133.905	-142.967	-55.582	-23.863	-142.383	-137.402	18.611	-22.579	-137.836	-133.513	-149.186	-127.689	73.207	-129.107	-8191	255	
2708.979	1	1	0	0	0.14744	0.010045	0.23273	0.23053	0.070036	0.19112	0.16921	0.31963	0.24973	0.10464	0.12543	0.25277	0.24631	0.48148	0.26499	0.1325	-2.3187	-2.5812	-2.8125	-2.8125	-2.7792	-3.0396	-2.7146	-2.8375	-2.8458	-2.7146	-2.9125	-2.6688	-2.9146	-2.9229	-2.6083	-2.9292	122.510	-133.820	167.294	203.860	191.368	102.790	72.702	114.690	62.788	-121.025	128.267	192.258	-134.892	-102.345	197.692	5.694	0.00027248	0.01458	2.0449e-05	242.29	3.866e-06	1.4899e-06	326.97	68.438	1.2523e-06	1.8385e-06	133.02	43.792	18.623	5.696	1.7964e-06	15.381	3.4437e-05	0.0013523	8.7397e-06	252.96	4.1486e-07	3.3128e-07	480.38	71.005	3.5124e-07	4.7611e-07	132.81	47.629	39.538	5.9202	4.5057e-07	15.71	-24.040	-39.553	-44.921	-142.762	-93.594	-70.598	-142.697	-137.282	-61.810	17.436	-137.621	-133.378	-149.339	-127.789	175.072	-129.193	-8191	255	
2709.098	1	1	0	0	0.15674	0.13413	0.12124	0.1363	0.19892	0.2922	0.15483	0.065747	0.10149	0.16275	0.15425	0.14432	0.14009	0.25977	0.19463	0.075515	-2.3937	-2.5583	-2.8875	-2.8083	-2.575	-3.0354	-2.6667	-2.4583	-2.9562	-2.55	-3.0771	-2.8208	-2.5687	-2.9917	-2.6813	-2.6875	96.554	-114.906	27.899	82.600	-90.871	78.433	126.225	127.544	-37.392	29.244	-145.493	-32.955	23.290	101.641	-0.422	117.116	0.00028853	0.016015	1.9878e-05	239.63	1.8941e-06	2.2164e-06	327.61	68.281	1.2371e-06	3.6342e-06	133.47	43.385	20.76	5.6964	1.3584e-06	15.334	3.5391e-05	0.0014582	8.7638e-06	250.33	4.9239e-07	3.4155e-07	480.08	70.855	3.4294e-07	4.7417e-07	132.74	44.344	49.44	5.9306	4.4283e-07	15.729	-23.833	-37.035	-61.401	-142.449	-96.330	17.635	-143.446	-137.400	34.397	22.893	-137.955	-133.312	-149.226	-127.732	67.866	-129.133	-8191	255	
2709.194	1	1	0	0	0.33856	0.22205	0.11282	0.3161	0.14753	0.04435	0.057086	0.16738	0.18816	0.20296	0.1638	0.27449	0.30559	0.35633	0.17516	0.19526	-2.4708	-2.5438	-2.8208	-2.9021	-2.5417	-2.9813	-2.7313	-2.6917	-3.0521	-2.6833	-2.9813	-2.8729	-2.5646	-2.8125	-2.5667	-2.7104	-124.256	-151.602	140.615	-42.039	-10.769	-123.084	135.568	-72.721	86.131	99.466	14.193	121.991	-35.535	-84.839	-106.131	-26.172	0.00026789	0.014803	3.7168e-05	242.09	1.8914e-06	5.0152e-07	338.84	64.447	1.6697e-06	2.5838e-06	133.29	43.103	20.957	5.6532	1.6755e-06	15.429	3.4586e-05	0.0013256	8.3362e-06	251.98	4.5372e-07	3.3942e-07	446.01	75.637	3.3595e-07	4.2394e-07	133.11	44.406	46.946	5.9103	3.8529e-07	15.813	-21.043	-30.767	-53.035	-142.686	-53.950	-18.164	-140.884	-141.514	-53.238	-42.031	-137.977	-133.701	-147.915	-127.668	52.432	-128.945	-8191	255	
2709.290	1	1	0	0	0.11328	0.1846	0.17022	0.2405	0.24479	0.0069082	0.21201	0.092484	0.073061	0.27829	0.14565	0.24544	0.15851	0.46371	0.27538	0.2067	-2.3438	-2.5312	-2.9292	-2.7833	-2.4958	-3.1417	-2.9	-2.7083	-3.0021	-2.6125	-3.0167	-2.9771	-2.6521	-2.8042	-2.6125	-2.7729	-71.850	-16.155	-9.499	-24.969	-88.850	183.061	-24.240	54.780	83.499	-59.745	130.124	119.934	-38.364	101.307	-111.936	117.498	0.0003069	0.014308	4.3197e-05	242.47	2.9348e-06	1.4052e-06	341.25	64.696	1.8614e-06	2.8422e-06	133.86	43.134	21.321	5.7264	1.6926e-06	15.314	3.5003e-05	0.0013535	9.6185e-06	253.28	4.709e-07	3.5365e-07	378.57	101.68	3.5286e-07	4.3771e-07	133.03	44.271	48.352	5.9238	3.2661e-07	15.799	-15.214	-23.944	-20.689	-142.486	-42.039	26.172	-141.017	-142.327	-106.012	-22.466	-137.445	-133.486	-147.294	-128.090	-43.270	-129.090	-8191	255	
2709.386	1	1	0	0	0.14114	0.12879	0.11664	0.052288	0.081975	0.11969	0.1049	0.11184	0.16187	0.24269	0.11763	0.30592	0.10788	0.07296	0.20436	0.14676	-2.5333	-2.5833	-2.8896	-2.7375	-2.6708	-2.9125	-2.8896	-2.6312	-2.9125	-2.7646	-2.7583	-2.8896	-2.5729	-2.8417	-2.8563	-2.6667	163.420	-47.073	96.858	169.820	-31.626	80.273	-119.871	-19.785	-9.038	159.240	-145.338	17.423	-35.127	-11.471	-60.461	185.036	0.00026315	0.013998	2.1526e-05	242.78	2.801e-06	1.3144e-07	350.46	62.082	1.8789e-06	1.8427e-06	134.62	43.106	21.655	5.7138	2.3723e-06	15.221	3.5484e-05	0.001275	9.0218e-06	252.41	4.4363e-07	3.2713e-07	363.78	110.25	3.3425e-07	4.0367e-07	133.21	44.321	44.768	5.9031	3.1079e-07	15.727	-16.429	-18.557	-11.758	-142.560	-94.002	195.510	-142.652	-138.897	-45.099	-30.537	-137.593	-133.463	-145.718	-127.244	-22.284	-129.168	-8191	255	
2709.507	1	1	0	0	0.16144	0.13284	0.073006	0.31029	0.056419	0.12976	0.29785	0.098726	0.087143	0.071855	0.028342	0.13098	0.20097	0.16811	0.11283	0.11854	-2.5646	-2.5042	-2.6042	-3.0167	-2.4688	-2.9625	-2.7729	-2.5896	-2.8312	-2.7062	-2.7896	-2.9146	-2.6813	-2.8979	-2.9229	-2.7458	47.761	-121.265	-47.737	134.654	-124.918	12.404	-135.655	110.528	-58.448	-103.745	-55.603	-110.716	48.014	15.415	-15.481	-150.274	0.00027104	0.014882	0.00061528	241.68	2.305e-06	4.8416e-07	346.78	61.924	2.089e-06	2.3982e-06	132.56	43.273	22.094	5.6497	5.4688e-07	15.153	3.3943e-05	0.00089905	6.0359e-05	251.26	4.1304e-07	3.5175e-07	361.57	111.93	3.3425e-07	3.6468e-07	132.3	44.135	49.238	5.8679	3.2667e-07	15.654	-21.613	-18.498	111.887	-142.647	-62.586	-108.623	-142.863	-139.951	-28.755	0.260	-137.896	-133.365	-146.447	-127.647	14.423	-128.968	-8191	255	
2709.578	1	1	0	0	0.23359	0.1378	0.12118	0.01791	0.35422	0.086596	0.13727	0.22067	0.074034	0.21142	0.30666	0.095138	0.15913	0.25527	0.15463	0.030383	-2.3063	-2.6479	-2.7979	-2.9917	-2.6937	-2.9313	-2.9417	-2.5521	-2.8146	-2.825	-2.5417	-3.1958	-2.6583	-2.8438	-3	-2.7062	-51.113	-85.995	5.434	-55.953	172.495	94.288	-66.930	152.040	77.156	90.502	123.216	153.517	83.928	125.433	150.301	138.311	0.00026374	0.016633	0.00095791	241.29	3.5384e-07	2.4005e-06	345.74	60.63	2.0662e-06	1.078e-06	132.55	42.888	22.627	5.6857	2.3903e-06	15.206	3.5633e-05	0.00013706	0.00030533	250.6	4.4083e-07	3.7446e-07	360.5	116.5	3.4969e-07	3.2721e-07	132.54	43.986	49.777	5.8834	3.3433e-07	15.65	-13.072	-16.803	108.135	-142.575	6.683	0.059	-142.594	-140.872	-65.578	12.769	-138.050	-133.592	-145.440	-128.257	46.314	-128.711	-8191	255	
2709.699	1	1	0	0	0.10714	0.083421	0.16758	0.28531	0.2335	0.11687	0.29163	0.14693	0.21227	0.22831	0.048381	0.1603	0.07149	0.17898	0.012005	0.22502	-2.4792	-2.7271	-2.7062	-2.9708	-2.6896	-2.6312	-2.8354	-2.6104	-2.8187	-2.8917	-2.7687	-2.8417	-2.6	-2.4958	-2.8229	-2.6896	10.768	-78.924	136.644	-151.276	87.569	-136.626	82.295	-94.631	78.392	-45.996	4.891	-139.062	-6.271	46.073	-58.167	-82.672	0.00032221	6.5509e-05	0.0054545	240.68	2.1335e-06	9.7002e-07	347.58	62.288	1.4001e-06	1.4854e-06	133.99	43.229	22.815	5.777	9.0368e-07	15.192	3.5502e-05	2.9958e-05	0.00040644	250.73	4.3273e-07	3.525e-07	361.56	112.82	3.3338e-07	3.1598e-07	133.4	44.412	37.618	7.1807	3.3206e-07	15.743	-25.094	76.821	2.962	-142.793	2.261	-39.344	-142.243	-141.061	-10.423	-37.389	-138.077	-133.573	-133.842	-137.112	108.303	-129.117	-8191	255	
2709.795	1	1	0	0	0.31477	0.21033	0.072137	0.099576	0.14004	0.23397	0.17211	0.12117	0.14867	0.24543	0.205	0.11279	0.23868	0.15688	0.22632	0.075377	-2.3771	-2.6646	-2.4979	-2.9625	-2.7979	-2.675	-2.9542	-2.7417	-2.975	-2.8708	-2.7167	-3.0312	-2.6771	-2.5792	-3.0167	-2.6104	44.095	-120.304	142.175	158.795	146.246	15.035	-41.380	-114.191	100.966	108.963	17.201	-106.650	95.436	58.240	107.050	-138.054	0.00030187	0.00010014	0.0045879	241.07	1.0333e-06	2.0595e-06	347.02	62.93	9.8263e-07	7.7519e-07	132.03	42.824	22.924	5.8886	6.7191e-07	15.315	3.7593e-05	2.9151e-05	0.00034883	251.6	3.5627e-07	3.9953e-07	362.7	111.79	3.6385e-07	3.1853e-07	133.26	44.163	20.433	11.241	3.3888e-07	15.704	-26.834	-104.830	7.386	-142.523	-16.277	-45.565	-142.397	-141.418	44.083	-2.962	-138.041	-133.464	-133.701	-136.085	108.458	-129.005	-8191	255	
2709.889	1	1	0	0	0.067224	0.22013	0.10603	0.23637	0.22509	0.2379	0.21742	0.055751	0.14712	0.089215	0.15938	0.14962	0.013339	0.20945	0.27657	0.20063	-2.4167	-2.7979	-2.8083	-2.9667	-2.8458	-2.8833	-2.9313	-2.6125	-2.6312	-2.7354	-2.6	-2.6458	-2.775	-2.7979	-2.9771	-2.7812	-72.071	-148.019	115.218	-2.910	-28.715	60.344	126.704	50.414	-122.939	-64.255	-84.117	180.372	200.022	-121.013	79.074	-153.697	0.00031865	5.9224e-05	0.0053121	239.76	8.0114e-07	2.9266e-06	346.78	63.549	6.5457e-07	1.0561e-06	132.83	43.176	19.585	6.761	2.7646e-07	15.42	3.7565e-05	3.0434e-05	0.00039541	250.89	3.2653e-07	4.7397e-07	360.86	114.68	3.73e-07	3.3163e-07	133.02	44.248	19.612	13.027	3.4204e-07	15.798	-19.108	-60.846	16.908	-142.519	-0.382	-51.338	-142.565	-141.385	-92.107	-127.018	-137.678	-133.232	-133.986	-134.692	-8.890	-129.065	-8191	255	
2709.986	1	1	0	0	0.11345	0.27337	0.12835	0.1325	0.10353	0.21185	0.40939	0.23454	0.082006	0.084303	0.044159	0.15779	0.046845	0.11381	0.16954	0.1515	-2.2396	-2.9917	-2.5417	-2.9667	-2.6875	-2.7	-3.1063	-2.7771	-2.6625	-2.9771	-2.7917	-2.8	-2.8146	-2.7062	-3.0104	-2.7479	204.436	74.282	100.361	-104.909	150.858	-18.344	83.892	-77.423	-39.591	171.054	177.425	48.446	-106.372	-63.186	105.404	-61.017	0.00029332	0.00011581	0.0050313	242.22	1.2982e-06	2.807e-06	348.16	66.244	0.00021512	2.3649e-06	132.95	43.416	19.553	6.8745	6.7499e-07	15.397	3.6109e-05	2.951e-05	0.00038649	251.36	3.2611e-07	4.5953e-07	362.82	97.981	4.1095e-06	3.3688e-07	133.6	44.69	19.828	13.255	3.8043e-07	15.878	-22.462	-16.265	20.258	-142.654	-15.078	-44.906	-142.648	-135.511	187.284	-83.955	-138.115	-133.423	-133.304	-133.647	161.846	-128.857	-8191	255	
2710.082	1	1	0	0	0.41702	0.052925	0.28249	0.12779	0.046843	0.072253	0.11445	0.2993	0.12029	0.16791	0.21097	0.32187	0.22117	0.26135	0.16559	0.073143	-2.2604	-2.8125	-2.6083	-2.9292	-2.8563	-2.5125	-2.8396	-2.6063	-2.5833	-2.9521	-2.7271	-2.7583	-2.8771	-2.6729	-2.8917	-2.8937	-53.973	187.822	-145.853	-76.510	174.614	42.571	-58.468	-150.762	159.381	175.711	-49.272	-93.647	181.241	-147.416	-119.872	-139.677	0.00031772	7.4384e-05	0.0055733	241.84	2.6648e-06	4.8477e-06	348.83	67.556	0.00023305	2.0935e-06	131.71	43.282	19.475	7.0038	2.1689e-06	15.53	4.7208e-05	3.5128e-05	0.00043981	252.75	3.7488e-07	5.3906e-07	363.2	70.306	1.4984e-05	3.7789e-07	132.67	44.615	19.745	13.429	3.5257e-07	15.82	-25.634	-88.582	24.224	-142.746	-41.662	-44.805	-142.765	-137.148	188.891	23.143	-138.165	-133.628	-133.404	-133.589	-78.563	-128.884	-8191	255	
2710.178	1	1	0	0	0.070392	0.094448	0.36029	0.15262	0.12364	0.21645	0.05177	0.22528	0.2446	0.46436	0.12348	0.19707	0.04382	0.18647	0.06166	0.28223	-2.1896	-2.9437	-2.4979	-2.7875	-2.8146	-2.5125	-2.9583	-2.7271	-2.7917	-2.85	-2.7042	-2.6396	-2.6896	-2.5667	-2.7333	-2.7188	-15.746	90.228	80.305	101.690	-59.222	-27.469	25.282	91.028	1.067	74.232	79.994	-0.682	-129.139	79.028	74.380	91.083	0.00036887	7.8532e-05	0.0050133	242.72	5.4367e-07	3.3569e-06	347.85	67.518	0.00019355	4.028e-07	131.83	42.278	18.986	6.6586	1.9275e-06	14.998	4.9485e-05	3.2133e-05	0.00038981	252.5	3.3617e-07	4.6542e-07	363.17	70.098	1.5111e-05	3.3486e-07	131.91	43.521	19.208	12.357	3.3673e-07	15.303	-27.176	-51.163	28.374	-142.582	-92.279	-44.375	-142.689	-137.290	179.666	-55.634	-137.986	-133.232	-133.144	-132.291	-83.144	-128.648	-8191	255	
2710.274	1	1	0	0	0.16562	0.049417	0.12066	0.22054	0.16181	0.2051	0.17243	0.075096	0.21689	0.12887	0.078877	0.12461	0.055705	0.14459	0.040897	0.12175	-2.2104	-3	-2.6521	-2.5563	-2.9958	-2.6	-2.925	-2.7604	-2.8271	-2.9792	-2.6875	-2.6583	-2.6979	-2.6437	-2.6583	-2.8208	-29.638	188.815	35.492	-85.964	-153.840	91.605	202.794	-78.889	23.446	41.360	64.531	-64.181	-69.202	-82.510	28.850	134.333	0.00031798	0.00014574	0.005272	232.23	1.3633e-06	3.3307e-06	348.75	67.621	0.00019342	8.8642e-07	132.03	42.4	19.082	6.7911	1.6176e-06	14.978	4.6588e-05	3.1479e-05	0.00022103	286.89	3.4537e-07	4.4331e-07	361.82	69.99	1.5395e-05	3.5058e-07	131.35	43.752	19.306	12.905	3.7998e-07	15.336	-25.029	22.698	6.432	-142.962	-50.478	-35.851	-142.496	-136.997	184.308	-42.314	-137.796	-133.746	-133.365	-130.621	-15.740	-128.816	-8191	255	
2710.370	1	1	0	0	0.22661	0.42569	0.054765	0.0049415	0.29776	0.21672	0.072895	0.21135	0.20605	0.19598	0.25089	0.13671	0.25802	0.092296	0.07208	0.072344	-2.1021	-2.9375	-2.6125	-2.6312	-2.8625	-2.5979	-2.8271	-2.8021	-2.5	-2.7917	-2.7354	-2.5563	-2.8375	-2.6271	-2.6479	-2.8688	-121.155	-80.818	-78.474	-132.321	-66.931	10.045	10.097	-34.179	17.071	91.503	103.807	146.753	-59.245	157.945	158.334	158.481	0.00034131	0.00013418	2.6309e-05	227.94	1.1483e-06	1.4009e-06	344.61	66.629	0.00023894	4.696e-07	129.5	42.16	18.977	7.0536	1.117e-06	14.901	4.9675e-05	3.2432e-05	8.6783e-06	376.63	3.5573e-07	4.7339e-07	360.4	69.224	1.879e-05	3.7529e-07	129.53	43.577	19.195	14.331	4.0716e-07	15.329	-23.458	-91.765	13.260	-143.375	5.951	-12.297	-142.369	-137.330	191.471	-44.655	-137.971	-133.227	-133.827	-130.751	-7.966	-128.915	-8191	255	
2710.466	1	1	0	0	0.1535	0.1497	0.1623	0.1224	0.19708	0.22151	0.16754	0.13228	0.15356	0.12669	0.24534	0.1186	0.090612	0.12783	0.2637	0.16128	-2.1958	-2.7646	-2.675	-2.6312	-2.8187	-2.5667	-2.7167	-2.9958	-2.5958	-2.875	-2.8458	-2.7271	-2.8063	-2.8146	-2.7021	-2.9208	166.214	-102.201	-63.505	-4.026	144.758	-66.042	-133.112	-77.950	11.322	-145.675	200.216	-153.202	188.019	8.355	84.330	24.586	0.00032134	0.00011246	5.5757e-05	228.6	6.8106e-07	1.9415e-06	345.61	66.783	0.00022137	1.4377e-06	130.45	42.515	19.183	6.7626	0.00010703	14.982	5.2378e-05	3.3511e-05	8.8749e-06	404.25	3.6618e-07	4.5478e-07	359.83	69.237	1.8161e-05	3.578e-07	129.69	43.895	19.319	9.9677	6.2575e-06	15.451	-22.070	-3.109	-40.619	-137.358	42.763	-15.924	-142.816	-137.258	197.274	204.357	-138.452	-133.592	-133.180	-124.046	-81.196	-128.922	-8191	255	
2710.587	1	1	0	0	0.15701	0.035525	0.1577	0.099506	0.30721	0.042161	0.12442	0.23611	0.32667	0.10925	0.10579	0.18114	0.072654	0.19056	0.11438	0.23999	-2.1625	-2.8312	-2.7042	-2.6667	-2.9729	-2.6312	-2.6271	-3.0521	-2.5875	-2.7979	-3.0333	-2.6896	-2.85	-2.6937	-2.6937	-2.9938	119.510	37.337	-3.222	39.303	-40.475	198.109	-25.847	-139.976	94.955	-34.417	-86.058	-35.098	-146.707	-42.961	-17.756	-88.597	0.00034059	0.00012626	5.1605e-05	228.49	1.4865e-06	4.169e-06	347.04	66.656	0.00023581	5.9214e-07	131.02	42.789	19.292	5.6731	9.2009e-05	15.299	4.6167e-05	3.4263e-05	8.3735e-06	394.33	3.4083e-07	3.4642e-07	361.39	69.366	1.8188e-05	3.7764e-07	130.24	44.038	19.405	5.8713	1.7106e-05	15.642	-24.452	-121.656	-58.944	-137.521	18.076	-9.938	-142.534	-137.195	202.782	19.199	-138.088	-133.188	-133.221	-127.957	-81.157	-128.904	-8191	255	
2710.683	1	1	0	0	0.15993	0.0077704	0.20557	0.11825	0.11344	0.12189	0.023721	0.11378	0.21963	0.34131	0.12381	0.072302	0.2033	0.050232	0.090674	0.18752	-2.4313	-2.875	-2.8042	-2.7042	-2.9875	-2.8146	-2.7125	-2.9521	-2.7896	-2.8229	-2.8604	-2.6917	-2.7667	-3.0458	-2.6771	-2.8479	73.536	24.182	133.525	107.282	137.607	139.256	21.228	-77.017	80.671	29.023	1.422	-32.794	120.408	0.350	28.895	-130.771	0.00029842	6.8681e-05	1.4465e-05	222.8	1.5168e-06	6.8419e-07	341.07	66.37	0.00022949	1.3759e-06	130.29	42.682	19.257	5.6756	0.00024933	15.332	4.6186e-05	3.4022e-05	8.4591e-06	399.91	3.4825e-07	3.2954e-07	357.22	68.824	1.8412e-05	3.7824e-07	129.56	44.152	19.475	5.8809	1.9032e-05	15.706	-15.958	-56.979	39.606	-137.648	-42.944	83.986	-142.715	-137.060	-152.789	-55.861	-137.831	-133.505	-133.818	-127.642	-7.443	-129.193	-8191	255	
2710.779	1	1	0	0	0.10414	0.06266	0.20338	0.088974	0.15725	0.10837	0.22821	0.22317	0.062528	0.14365	0.29487	0.22274	0.32053	0.18943	0.083861	0.16787	-2.3646	-2.5708	-2.9313	-2.5062	-2.8375	-2.8125	-2.6625	-3.0229	-2.6125	-2.7021	-2.9375	-2.7354	-2.8063	-2.8292	-2.5896	-3.0146	190.442	-81.123	122.399	24.945	175.457	162.883	-127.649	204.507	29.202	54.324	-76.480	151.529	73.923	149.544	-88.523	-23.649	0.00028662	0.00023399	3.4582e-05	221.73	8.986e-07	1.957e-06	342.09	66.949	2.5957e-05	0.00021291	130.76	42.815	19.342	5.6825	0.00024339	15.279	4.4131e-05	3.4648e-05	8.6296e-06	398.45	3.5901e-07	3.2967e-07	358.69	69.358	9.1282e-06	7.3882e-06	130.07	44.205	19.524	5.8804	1.8697e-05	15.73	-28.813	187.557	-9.713	-137.965	-11.541	1.511	-142.700	-137.445	-32.898	-150.924	-138.330	-133.370	-133.652	-127.807	-1.081	-129.124	-8191	255	
2710.875	1	1	0	0	0.18587	0.11472	0.21452	0.12692	0.18468	0.056981	0.10104	0.19039	0.17244	0.096564	0.20786	0.1599	0.20151	0.20915	0.098554	0.025412	-2.3854	-2.7292	-2.9667	-2.5687	-2.8125	-2.8667	-2.6354	-2.8063	-2.8458	-2.6708	-2.9833	-2.6688	-2.8667	-2.7833	-2.6937	-2.8167	-47.743	-88.618	195.519	37.488	32.125	29.598	109.618	-8.987	-136.194	-69.658	-130.664	124.877	52.718	-93.360	-59.744	93.464	0.00031345	0.00024622	8.0254e-05	219.53	1.154e-06	8.7202e-07	345.94	67.248	6.237e-07	0.00020919	131.94	42.894	19.136	5.6826	0.00025848	15.479	3.5955e-05	4.1737e-05	8.6566e-06	404.86	3.7596e-07	3.3101e-07	360.91	69.5	3.2737e-07	1.8467e-05	130.97	44.41	19.537	5.9028	1.9176e-05	15.803	-19.602	192.484	-63.610	-138.766	21.834	-10.689	-142.782	-137.423	-94.740	-148.944	-137.865	-133.367	-133.792	-127.908	1.722	-128.779	-8191	255	
2710.972	1	1	0	0	0.27815	0.23774	0.25473	0.11812	0.39582	0.1007	0.36215	0.13636	0.0283	0.13717	0.086083	0.07553	0.10393	0.18627	0.24432	0.087108	-2.2396	-2.5812	-2.9479	-2.7604	-2.5812	-3.0125	-2.6583	-2.8875	-2.7646	-2.5458	-3.0833	-2.7438	-2.7833	-2.8542	-2.5479	-2.8354	-16.327	17.836	-12.956	86.074	180.708	-154.372	131.291	68.501	24.243	-127.794	-31.164	144.046	-55.793	-6.082	65.779	84.564	0.00030172	9.2648e-05	2.8676e-05	219.06	1.9601e-06	2.5998e-06	347.74	67.915	1.6615e-06	0.00020859	131.66	42.835	19.316	5.6802	0.00025012	15.286	3.385e-05	4.5342e-05	8.4104e-06	401.76	3.6756e-07	3.2173e-07	363	69.881	3.1949e-07	1.935e-05	131.25	44.278	19.587	5.9031	1.8642e-05	15.717	-23.843	183.205	-63.508	-139.001	94.557	3.061	-142.368	-137.116	-24.469	-132.327	-138.159	-133.249	-133.217	-127.337	8.237	-129.110	-8191	255	
2711.068	1	1	0	0	0.32075	0.11951	0.23012	0.018084	0.12254	0.26563	0.12113	0.28686	0.13436	0.1654	0.029599	0.10746	0.1288	0.10143	0.11112	0.092153	-2.4542	-2.8146	-2.8542	-2.6813	-2.7833	-2.9333	-2.5917	-2.8667	-2.8208	-2.5396	-3.0833	-2.8021	-2.6833	-2.9271	-2.6	-2.9	-18.648	-99.348	-39.541	-141.287	90.111	-37.015	74.787	-15.163	32.481	-52.020	-65.690	-35.664	30.675	-94.352	69.797	-19.096	0.00026172	0.00021081	3.359e-05	237.35	0.00021847	8.734e-07	347.36	67.318	2.2029e-06	0.00019899	131.18	42.597	19.176	5.6744	0.00025707	15.189	3.2497e-05	4.4776e-05	8.1588e-06	317.09	8.3912e-06	3.1376e-07	360.98	69.802	3.1642e-07	1.9023e-05	130.29	43.853	19.594	5.8782	1.9749e-05	15.587	-12.741	-147.297	-51.291	-137.484	173.091	-79.713	-142.884	-137.186	-23.943	-128.122	-138.113	-133.348	-133.359	-127.517	13.441	-129.016	-8191	255	
2711.187	1	1	0	0	0.13703	0.048267	0.13751	0.12888	0.19865	0.27925	0.099081	0.10921	0.29691	0.31974	0.15866	0.10961	0.15384	0.062826	0.19438	0.13654	-2.3625	-2.65	-2.8229	-2.8375	-2.5458	-2.9437	-2.9896	-2.7938	-3.1	-2.6354	-3.0438	-2.8625	-2.5271	-2.8271	-2.7062	-2.8563	-124.096	137.490	-95.658	-135.659	-100.234	-123.198	47.354	44.028	-134.726	98.455	187.191	166.135	-56.601	92.957	-132.192	123.113	0.00030648	0.00021424	2.7957e-05	238.67	0.00025133	2.276e-06	342.78	66.905	1.4966e-06	0.00022209	130.8	42.52	19.065	5.5902	0.00027146	15.061	3.3763e-05	4.522e-05	8.3151e-06	248.64	1.9337e-05	3.3211e-07	359.85	69.523	3.246e-07	1.9965e-05	130.01	43.543	19.651	5.8039	1.9458e-05	15.512	-17.527	-125.211	-47.665	-142.741	126.946	-20.069	-142.748	-137.203	-15.010	-121.389	-137.858	-133.403	-133.606	-127.334	27.942	-128.772	-8191	255	
2711.283	1	1	0	0	0.10589	0.015874	0.22495	0.18206	0.19364	0.1442	0.11533	0.24895	0.0936	0.18539	0.2656	0.24931	0.16144	0.1457	0.15372	0.01035	-2.4625	-2.3792	-2.8479	-2.8229	-2.6771	-3.0563	-2.5729	-2.7875	-3.0333	-2.6917	-2.875	-2.8104	-2.6229	-2.8063	-2.65	-2.8521	-23.671	168.861	-118.982	27.360	152.615	-44.825	-141.665	145.330	-7.962	-55.625	109.962	-79.396	40.610	-47.944	141.166	-141.064	0.00030692	0.00014129	4.5599e-05	238.89	0.00027516	1.0897e-06	343.91	66.466	6.7907e-07	0.00021154	129.82	41.92	18.786	5.5694	0.00028381	15.16	3.4009e-05	4.485e-05	8.2556e-06	248.87	2.0068e-05	3.3543e-07	359.03	69.356	3.2576e-07	1.9803e-05	129.44	43.321	19.499	5.7703	7.89e-06	21.38	-13.556	-48.236	-78.101	-142.779	133.729	-17.838	-142.651	-137.539	-89.063	-114.452	-137.906	-133.080	-133.837	-127.478	28.149	-130.057	-8191	255	
2711.379	1	1	0	0	0.23163	0.15139	0.14761	0.097026	0.11334	0.053234	0.1606	0.087664	0.20384	0.096538	0.069519	0.13603	0.057388	0.40842	0.19995	0.16607	-2.5417	-2.6208	-2.7667	-2.7229	-2.7542	-2.8208	-2.8771	-2.8167	-2.9708	-2.5563	-2.7958	-2.9208	-2.6354	-2.725	-2.7729	-2.5771	-33.148	202.206	84.154	-30.021	33.103	-92.789	191.732	8.331	-17.440	-106.321	162.485	-138.649	35.531	-141.765	184.655	-93.712	0.00030093	0.00018583	5.3641e-05	239.52	0.00025906	1.34e-06	344.44	66.808	7.6921e-07	0.00022454	131.24	41.995	18.898	5.5076	1.9589e-06	15.792	3.4425e-05	4.2072e-05	9.1993e-06	249.16	1.9743e-05	3.3134e-07	359.68	69.504	3.3357e-07	2.0169e-05	129.86	43.282	19.378	5.7343	3.1126e-07	27.436	-26.827	-100.156	-97.808	-142.496	139.377	-5.915	-142.489	-137.058	-74.929	-109.889	-138.127	-133.091	-133.217	-127.326	0.191	-121.017	-8191	255	
2711.475	1	1	0	0	0.056685	0.19749	0.15216	0.066527	0.11063	0.17233	0.20476	0.16406	0.21277	0.078943	0.072927	0.081129	0.022768	0.13609	0.077348	0.14693	-2.55	-2.7667	-2.6604	-2.8771	-2.7313	-2.9792	-2.8604	-2.5583	-2.6354	-2.6188	-2.6375	-2.8937	-2.5542	-2.7854	-2.7917	-2.5417	91.568	152.656	135.985	-120.754	1.980	45.510	48.680	-132.341	181.533	-18.651	-93.908	-3.811	88.603	-80.542	-18.509	128.139	0.00029599	0.00023547	4.4364e-05	237.87	0.0002643	1.644e-06	343.24	66.848	9.5183e-07	9.4816e-05	130.48	41.797	18.805	5.48	1.7039e-06	15.788	3.3424e-05	4.1486e-05	8.9796e-06	247.59	1.9799e-05	3.1814e-07	357.22	69.249	3.2166e-07	1.823e-05	129.65	43.058	19.198	5.7006	3.1324e-07	27.564	-12.909	-114.546	-67.674	-142.920	145.632	-20.013	-142.576	-137.094	18.566	-42.441	-138.127	-133.087	-133.613	-127.789	22.913	-120.607	-8191	255	
#DATA ENDS
