BOXY.EXE: ISS Imagent and Oximeter Data Acquisition Program Version 0.80
Ascii Record File

#ACQ INFORMATION
2  Detector Channels 
16  External MUX Channels 
1  Auxiliary Channels 
5000  Waveform (CCF) Frequency (Hz)
1  Waveforms Skipped 
30  Waveforms Averaged 
1  Cycles Averaged 
16  Acquisitions per Waveform 
10.0806  Updata Rate (Hz) 

#FILE INFORMATION
TRUE -- External MUX Channel results are PARSED.
FALSE -- AC DC and Phase are NOT grouped.
TRUE -- Companion Program Settings File CREATED.
FALSE -- AC data not excluded
FALSE -- DC data not excluded
FALSE -- Phase data not excluded
FALSE -- Auxillary Chn. data not excluded
Tab delimiters

#CALIBRATION STATE
TRUE -- Waveform Calibration Values APPLIED.


#AUX CALIBRATION VALUES
Val Type	aux-1	

Term	1.0000e+00	
Factor	0.0000e+00	


#WF CALIBRATION VALUES
A = Detector Channel
Val Type	A-AC1	A-AC2	A-AC3	A-AC4	A-AC5	A-AC6	A-AC7	A-AC8	A-AC9	A-AC10	A-AC11	A-AC12	A-AC13	A-AC14	A-AC15	A-AC16	A-DC1	A-DC2	A-DC3	A-DC4	A-DC5	A-DC6	A-DC7	A-DC8	A-DC9	A-DC10	A-DC11	A-DC12	A-DC13	A-DC14	A-DC15	A-DC16	A-Ph1	A-Ph2	A-Ph3	A-Ph4	A-Ph5	A-Ph6	A-Ph7	A-Ph8	A-Ph9	A-Ph10	A-Ph11	A-Ph12	A-Ph13	A-Ph14	A-Ph15	A-Ph16	

Term	0.00000e+00	0.00000e+00	0.00000e+00	0.00000e+00	0.00000e+00	0.00000e+00	0.00000e+00	0.00000e+00	0.00000e+00	0.00000e+00	0.00000e+00	0.00000e+00	0.00000e+00	0.00000e+00	0.00000e+00	0.00000e+00	0.00000e+00	0.00000e+00	0.00000e+00	0.00000e+00	0.00000e+00	0.00000e+00	0.00000e+00	0.00000e+00	0.00000e+00	0.00000e+00	0.00000e+00	0.00000e+00	0.00000e+00	0.00000e+00	0.00000e+00	0.00000e+00	0.00000e+00	0.00000e+00	0.00000e+00	0.00000e+00	0.00000e+00	0.00000e+00	0.00000e+00	0.00000e+00	0.00000e+00	0.00000e+00	0.00000e+00	0.00000e+00	0.00000e+00	0.00000e+00	0.00000e+00	0.00000e+00	
Factor	1.00000e+00	1.00000e+00	1.00000e+00	1.00000e+00	1.00000e+00	1.00000e+00	1.00000e+00	1.00000e+00	1.00000e+00	1.00000e+00	1.00000e+00	1.00000e+00	1.00000e+00	1.00000e+00	1.00000e+00	1.00000e+00	1.00000e+00	1.00000e+00	1.00000e+00	1.00000e+00	1.00000e+00	1.00000e+00	1.00000e+00	1.00000e+00	1.00000e+00	1.00000e+00	1.00000e+00	1.00000e+00	1.00000e+00	1.00000e+00	1.00000e+00	1.00000e+00	X	X	X	X	X	X	X	X	X	X	X	X	X	X	X	X	

B = Detector Channel
Val Type	B-AC1	B-AC2	B-AC3	B-AC4	B-AC5	B-AC6	B-AC7	B-AC8	B-AC9	B-AC10	B-AC11	B-AC12	B-AC13	B-AC14	B-AC15	B-AC16	B-DC1	B-DC2	B-DC3	B-DC4	B-DC5	B-DC6	B-DC7	B-DC8	B-DC9	B-DC10	B-DC11	B-DC12	B-DC13	B-DC14	B-DC15	B-DC16	B-Ph1	B-Ph2	B-Ph3	B-Ph4	B-Ph5	B-Ph6	B-Ph7	B-Ph8	B-Ph9	B-Ph10	B-Ph11	B-Ph12	B-Ph13	B-Ph14	B-Ph15	B-Ph16	

Term	0.00000e+00	0.00000e+00	0.00000e+00	0.00000e+00	0.00000e+00	0.00000e+00	0.00000e+00	0.00000e+00	0.00000e+00	0.00000e+00	0.00000e+00	0.00000e+00	0.00000e+00	0.00000e+00	0.00000e+00	0.00000e+00	0.00000e+00	0.00000e+00	0.00000e+00	0.00000e+00	0.00000e+00	0.00000e+00	0.00000e+00	0.00000e+00	0.00000e+00	0.00000e+00	0.00000e+00	0.00000e+00	0.00000e+00	0.00000e+00	0.00000e+00	0.00000e+00	1.37173e+01	-1.18228e+02	-1.12758e+02	-1.83080e+02	-7.15389e+01	-7.78103e+01	-1.57142e+02	-1.62015e+02	-8.64581e+01	-8.33328e+01	-1.74681e+02	-1.70893e+02	-1.86226e+02	-1.78823e+02	-6.33234e+01	-1.50760e+02	
Factor	3.86630e-05	1.07672e-04	3.58680e-05	1.52370e-01	1.43992e-06	1.45988e-06	1.51923e-01	5.45124e-02	1.38203e-06	1.18428e-06	1.31598e-01	2.66902e-02	3.84029e-02	8.59656e-03	1.43767e-06	1.22989e-02	8.31094e-07	8.48967e-07	2.35916e-07	7.55567e-02	9.27535e-09	9.30345e-09	7.09969e-02	2.68103e-02	9.28531e-09	9.29857e-09	5.97757e-02	1.26460e-02	1.79984e-02	4.20033e-03	9.30521e-09	5.78123e-03	X	X	X	X	X	X	X	X	X	X	X	X	X	X	X	X	



#DISTANCE SETTINGS
A = Detector Channel
A-1	A-2	A-3	A-4	A-5	A-6	A-7	A-8	A-9	A-10	A-11	A-12	A-13	A-14	A-15	A-16	

2.5000e+00	3.0000e+00	2.5000e+00	3.0000e+00	2.0000e+00	3.0000e+00	1.5000e+00	3.0000e+00	3.0000e+00	3.0000e+00	3.0000e+00	3.0000e+00	3.0000e+00	3.0000e+00	1.5000e+00	3.0000e+00	

B = Detector Channel
B-1	B-2	B-3	B-4	B-5	B-6	B-7	B-8	B-9	B-10	B-11	B-12	B-13	B-14	B-15	B-16	

1.0000e+01	1.0000e+01	1.0000e+01	1.4400e+00	1.0000e+01	1.0000e+01	1.5100e+00	1.9400e+00	1.0000e+01	1.0000e+01	1.9900e+00	2.4900e+00	2.4100e+00	2.9000e+00	1.0000e+01	2.9800e+00	




#DATA BEGINS
time	group	step	mark	flag	A-AC1	A-AC2	A-AC3	A-AC4	A-AC5	A-AC6	A-AC7	A-AC8	A-AC9	A-AC10	A-AC11	A-AC12	A-AC13	A-AC14	A-AC15	A-AC16	A-DC1	A-DC2	A-DC3	A-DC4	A-DC5	A-DC6	A-DC7	A-DC8	A-DC9	A-DC10	A-DC11	A-DC12	A-DC13	A-DC14	A-DC15	A-DC16	A-Ph1	A-Ph2	A-Ph3	A-Ph4	A-Ph5	A-Ph6	A-Ph7	A-Ph8	A-Ph9	A-Ph10	A-Ph11	A-Ph12	A-Ph13	A-Ph14	A-Ph15	A-Ph16	B-AC1	B-AC2	B-AC3	B-AC4	B-AC5	B-AC6	B-AC7	B-AC8	B-AC9	B-AC10	B-AC11	B-AC12	B-AC13	B-AC14	B-AC15	B-AC16	B-DC1	B-DC2	B-DC3	B-DC4	B-DC5	B-DC6	B-DC7	B-DC8	B-DC9	B-DC10	B-DC11	B-DC12	B-DC13	B-DC14	B-DC15	B-DC16	B-Ph1	B-Ph2	B-Ph3	B-Ph4	B-Ph5	B-Ph6	B-Ph7	B-Ph8	B-Ph9	B-Ph10	B-Ph11	B-Ph12	B-Ph13	B-Ph14	B-Ph15	B-Ph16	aux-1	digaux	

2720.597	1	1	0	256	0.18772	0.16599	0.1212	0.16472	0.048372	0.22479	0.16519	0.10216	0.082921	0.21084	0.1921	0.18766	0.18477	0.16469	0.13539	0.19539	-2.2042	-3.0646	-2.6688	-2.6792	-2.9146	-2.6479	-2.8333	-2.7896	-2.5458	-2.9479	-2.8667	-2.6667	-2.9771	-2.4938	-2.9	-2.7646	-21.052	73.250	162.352	111.268	-71.885	140.031	-128.672	134.982	-95.336	92.902	186.448	75.208	30.000	172.761	85.641	-131.263	0.011561	0.00013267	2.4187e-05	222.84	4.0139e-07	0.0004327	330.1	61.529	6.0668e-06	1.2316e-06	117.37	36.5	17.219	5.0499	3.1055e-06	14.56	0.0028844	3.3449e-05	1.4513e-05	233.56	3.5262e-07	3.2708e-05	344.8	63.62	6.4545e-07	3.5131e-07	241.85	52.163	17.548	5.3891	4.1697e-07	14.892	16.610	-90.858	28.897	-142.954	-97.065	47.274	-142.755	-137.367	-49.381	-79.739	-132.137	-143.663	-133.978	-127.641	75.309	-129.122	-8191	255	
2720.693	1	1	0	0	0.17635	0.14856	0.26224	0.029461	0.2779	0.136	0.17713	0.027658	0.11509	0.24582	0.32203	0.1668	0.093342	0.10551	0.087272	0.3489	-2.0667	-2.8833	-2.6625	-2.5833	-2.9354	-2.5917	-2.925	-2.8521	-2.5062	-2.9521	-2.6917	-2.5917	-2.9375	-2.7896	-2.8583	-2.8792	98.330	-6.339	-109.378	-113.909	-6.336	118.935	38.643	10.148	127.632	-145.425	177.145	156.441	-25.105	-135.807	204.462	107.108	0.011545	0.00014061	3.948e-06	222.47	1.7252e-06	0.00041097	328.42	61.022	6.4369e-06	7.7298e-07	123.67	36.338	17.196	5.0786	2.1762e-06	14.585	0.0028933	3.251e-05	1.0483e-05	233.12	3.5853e-07	3.079e-05	342.21	63.412	6.4355e-07	3.4812e-07	123.16	79.88	17.573	5.3811	4.0877e-07	14.911	22.475	-8.812	-101.393	-142.839	-15.499	54.527	-142.700	-137.240	-61.344	22.500	-138.043	-144.332	-133.816	-128.016	96.943	-129.243	-8191	255	
2720.814	1	1	0	0	0.17642	0.17569	0.3126	0.16729	0.14424	0.25567	0.039262	0.15896	0.14112	0.18801	0.054258	0.19281	0.33908	0.13485	0.25852	0.22284	-2.2042	-2.7125	-2.8167	-2.625	-2.9062	-2.6063	-2.7625	-2.9479	-2.5042	-2.7229	-2.9042	-2.5042	-2.8625	-2.6042	-2.7042	-3.0312	125.956	149.693	37.725	88.317	72.515	2.320	180.324	118.766	48.488	-13.981	77.151	53.769	120.720	143.192	183.638	51.690	0.011377	0.0001079	6.9859e-06	222	1.0142e-06	0.00043328	328.82	61.07	5.854e-06	1.0473e-06	123.55	35.238	17.263	5.0385	1.189e-06	14.493	0.0027752	3.2498e-05	8.8183e-06	234.49	3.5954e-07	3.2766e-05	343.35	63.525	6.4866e-07	3.6375e-07	123.3	84.347	17.574	5.3652	4.2521e-07	14.869	28.187	-46.105	-60.802	-142.655	-52.630	58.929	-142.825	-137.239	-52.044	-41.828	-138.084	-142.263	-133.580	-127.440	88.747	-128.641	-8191	255	
2720.910	1	1	0	0	0.15777	0.1108	0.14847	0.070156	0.070145	0.10543	0.33426	0.050593	0.13498	0.12172	0.31882	0.14212	0.077908	0.017912	0.080476	0.079026	-2.1979	-2.7417	-2.7458	-2.625	-2.8812	-2.7458	-2.7771	-3.0042	-2.7458	-2.8125	-2.8771	-2.9	-2.8042	-2.6479	-2.65	-3.0333	-23.887	55.278	166.307	178.536	44.514	68.189	172.782	167.449	95.795	91.858	-2.119	44.172	-73.866	97.340	-46.626	-102.776	0.011841	0.00023876	2.2925e-05	223.85	1.3479e-06	0.00043212	314.68	61.123	5.0847e-06	3.4927e-06	123.12	35.921	17.268	5.1236	2.7102e-06	14.543	0.0029122	3.3587e-05	8.8778e-06	235.42	3.6415e-07	1.7319e-05	413.65	63.749	5.8946e-07	4.2719e-07	123.47	86.465	17.635	5.3375	5.6159e-07	14.953	34.655	-155.410	-77.800	-142.747	12.315	38.553	-144.527	-137.706	-37.629	1.268	-137.687	-143.132	-133.488	-127.977	122.442	-129.104	-8191	255	
2720.982	1	1	0	0	0.12435	0.51761	0.21002	0.052165	0.15514	0.057352	0.17358	0.085726	0.17003	0.039852	0.20736	0.24694	0.15099	0.11444	0.23793	0.17994	-2.3771	-2.6396	-2.8458	-2.4875	-2.9083	-2.85	-2.85	-2.8	-2.8458	-2.7917	-2.9938	-2.8979	-2.9313	-2.6813	-2.7188	-3.0479	-103.800	177.049	-72.613	-11.367	115.465	160.093	100.636	167.326	133.364	-126.800	-9.632	35.644	116.296	-42.628	-74.172	-12.024	0.010756	0.00027065	2.8665e-06	224.06	1.7334e-06	1.9978e-07	313.28	61.383	1.1789e-06	3.4165e-06	123.34	36.505	17.115	5.0009	4.4127e-06	14.35	0.002781	3.8881e-05	9.0469e-06	235.58	3.7843e-07	3.5638e-07	576.35	63.721	5.9225e-07	4.2675e-07	122.68	84.481	17.463	5.2364	6.7893e-07	14.738	39.276	-62.917	11.257	-142.830	69.785	90.470	-144.827	-137.811	-41.074	-33.682	-138.031	-143.611	-133.205	-127.790	101.703	-129.379	-8191	255	
2721.102	1	1	0	0	0.23294	0.022656	0.069789	0.26406	0.13895	0.25589	0.23967	0.12604	0.13387	0.0030477	0.23542	0.1585	0.23624	0.16547	0.11839	0.23778	-2.5417	-2.6979	-2.8688	-2.625	-2.7354	-2.8667	-2.7083	-3.1646	-2.6167	-2.9104	-3.1854	-2.7833	-2.7667	-2.9125	-2.5479	-2.8812	-138.755	-25.918	-142.496	-129.211	-144.382	130.067	179.187	-117.273	176.362	198.672	-74.227	135.265	28.191	172.604	-67.921	-137.424	0.012018	0.00033905	3.1534e-05	220.48	1.9277e-06	1.0704e-06	299.61	60.679	1.6619e-06	1.3215e-06	122.13	36.862	16.947	4.9859	3.7639e-06	14.333	0.0029839	4.0572e-05	9.329e-06	232.97	3.7424e-07	3.626e-07	587.24	63.103	5.69e-07	4.3231e-07	122.16	87.17	17.41	5.2138	6.6742e-07	14.698	43.493	-63.374	-95.330	-142.709	-14.591	13.493	-137.079	-137.285	-61.274	-25.927	-137.973	-144.243	-133.875	-128.293	94.292	-128.722	-8191	255	
2721.198	1	1	0	0	0.35154	0.24223	0.11365	0.24551	0.12471	0.25789	0.052054	0.035298	0.1033	0.25129	0.17749	0.15841	0.051991	0.048946	0.29332	0.22188	-2.4396	-2.5979	-3.0271	-2.7771	-2.7583	-2.9542	-2.8646	-2.8563	-2.6562	-2.8	-3.0312	-2.725	-2.8688	-2.7062	-2.6625	-3.1229	60.473	54.889	-93.840	168.080	121.940	138.671	203.584	50.311	23.157	-64.765	-121.672	191.381	-102.238	-96.023	141.949	175.530	0.0099481	0.015444	2.7745e-05	221.28	1.0257e-06	1.4845e-06	291.42	60.355	3.554e-06	2.748e-06	122.85	37.341	17.151	5.0132	5.5134e-06	14.324	0.001476	0.0010017	9.4794e-06	232.43	4.4477e-07	3.669e-07	602.65	62.901	4.2838e-07	6.046e-07	122.24	86.565	17.593	5.2274	7.362e-07	14.74	79.982	-139.467	-31.222	-142.874	-104.672	-108.667	-137.099	-137.753	-17.598	-47.227	-138.394	-144.721	-133.346	-128.057	112.422	-129.013	-8191	255	
2721.295	1	1	0	0	0.28906	0.22792	0.045536	0.295	0.29231	0.09222	0.08173	0.14104	0.16167	0.21752	0.25536	0.17811	0.090116	0.30673	0.21885	0.1829	-2.3583	-2.9813	-2.9	-2.9333	-2.7917	-2.7646	-2.7333	-2.8146	-2.9667	-2.5271	-2.9688	-2.8146	-2.75	-2.925	-2.5563	-2.9125	33.819	61.696	21.425	200.404	21.837	-73.789	163.504	-119.080	-72.399	-23.561	-153.175	172.652	72.054	36.244	65.677	85.897	0.00027117	0.015235	6.0992e-05	220.8	3.3555e-06	1.1677e-06	290.27	60.001	1.001e-06	4.6655e-06	122.76	38.399	17.174	5.0123	5.8127e-06	14.327	4.2117e-05	0.0031565	1.1303e-05	233.41	5.1237e-07	4.41e-07	608.17	62.921	4.3954e-07	7.6523e-07	122.92	90.641	17.796	5.2635	7.6359e-07	14.8	-12.265	-134.164	15.048	-142.686	-102.310	-28.314	-137.996	-137.766	-129.838	-23.855	-137.788	-146.074	-133.928	-128.253	122.532	-129.081	-8191	255	
2721.415	1	1	0	0	0.23747	0.11495	0.20913	0.18249	0.19669	0.24989	0.1655	0.14518	0.20707	0.11884	0.13694	0.1334	0.20153	0.10322	0.25262	0.03427	-2.4646	-2.6333	-2.8312	-2.7917	-2.8729	-3.1146	-2.8875	-2.9625	-2.8812	-2.7167	-3.1562	-2.7083	-2.7646	-3.0958	-2.7229	-3.0396	81.922	-140.322	-53.980	-102.216	-84.936	-95.982	-113.671	201.368	-91.835	88.683	-73.207	78.137	181.023	112.787	173.368	137.945	0.00026954	0.034059	3.7981e-05	221.82	5.6251e-06	2.8916e-07	284.83	60.938	1.7875e-06	7.762e-06	122.73	40.863	15.152	4.9993	4.1574e-06	14.349	4.4448e-05	0.0031402	1.1509e-05	234.3	5.4433e-07	4.4715e-07	626.27	63.38	4.673e-07	7.6849e-07	123.01	63.233	42.856	5.2893	7.1813e-07	14.893	-23.738	-69.273	-113.014	-142.719	-116.200	81.354	-138.419	-137.414	-13.033	-14.557	-137.586	-132.281	179.008	-127.424	98.865	-128.929	-8191	255	
2721.510	1	1	0	0	0.11879	0.044516	0.2183	0.19724	0.084408	0.074377	0.25667	0.10682	0.042437	0.16091	0.16617	0.20592	0.068926	0.27589	0.080307	0.11356	-2.6042	-2.7188	-2.9688	-2.85	-2.7167	-3.1417	-2.7542	-2.9646	-2.9854	-2.6979	-2.8333	-2.6917	-2.775	-2.7938	-2.5458	-2.7167	149.918	-99.027	-148.226	131.842	-76.654	144.855	130.437	96.003	-25.845	-89.721	-56.892	-53.654	-47.640	-43.501	-71.872	161.389	0.00030219	0.036082	3.5014e-05	221.7	4.6635e-06	1.2579e-06	286.19	60.672	4.3921e-07	5.5781e-06	123.53	40.096	15.285	5.0106	3.1694e-06	14.25	4.6472e-05	0.0033157	1.2181e-05	232.02	7.0433e-07	4.6705e-07	609.35	63.547	4.7166e-07	8.0818e-07	123.4	41.372	88.105	5.293	7.3135e-07	14.833	-15.064	-64.548	-35.380	-142.605	-109.573	-57.426	-139.526	-137.565	-95.831	-28.958	-137.526	-133.148	179.811	-127.961	109.248	-128.760	-8191	255	
2721.581	1	1	0	0	0.25913	0.16472	0.097224	0.12091	0.34687	0.23849	0.17052	0.16882	0.087304	0.25652	0.12837	0.25182	0.14687	0.096127	0.089612	0.10402	-2.7083	-2.6479	-2.8271	-2.9354	-2.725	-3.0958	-2.6229	-2.6937	-2.8354	-2.8646	-2.8896	-3.025	-2.7562	-3.0625	-2.8458	-2.6792	-82.113	28.712	-12.776	-143.231	28.730	-8.627	190.415	164.779	138.429	-8.596	-91.882	-50.174	168.709	79.990	-98.720	-51.651	0.00025793	0.035489	1.0497e-05	220.48	5.6962e-06	2.1382e-06	279.26	60.581	1.8025e-06	5.5309e-06	121.83	39.855	17.806	4.9853	4.4356e-06	14.183	4.6593e-05	0.0032104	1.2377e-05	231.76	8.1065e-07	4.887e-07	629.22	63.619	4.9526e-07	8.1023e-07	122.86	41.252	84.571	5.2587	6.9334e-07	14.759	-18.270	-58.225	-119.335	-142.807	-114.609	-82.353	-140.000	-137.532	-14.562	0.559	-138.156	-133.638	185.127	-128.179	40.968	-129.072	-8191	255	
2721.702	1	1	0	0	0.1104	0.10838	0.10175	0.2715	0.039731	0.084095	0.11341	0.1024	0.28495	0.10709	0.14105	0.22793	0.11225	0.29388	0.05866	0.1927	-2.6625	-2.675	-2.8438	-2.9125	-2.7042	-3.0583	-2.8771	-2.8667	-3.1042	-2.8646	-2.9354	-3.1229	-2.9542	-2.9271	-2.8604	-2.7208	87.950	99.500	-125.685	-61.537	26.377	-152.447	-93.410	179.629	-83.787	-3.629	-130.813	-144.327	67.192	136.348	71.980	-22.710	0.00023699	0.035875	9.3698e-05	220.45	4.3058e-06	6.478e-07	307.77	50.446	2.1624e-06	3.9144e-06	121.62	39.536	19.018	4.9248	3.989e-06	14.325	4.9788e-05	0.0033721	1.3944e-05	231.83	8.2835e-07	5.115e-07	453.27	105.87	5.1626e-07	7.6186e-07	122.7	40.99	87.775	5.2452	5.3553e-07	14.91	-23.903	-52.891	-68.310	-142.647	-105.633	-82.442	-136.085	-147.218	-104.708	-1.927	-137.900	-133.552	185.441	-127.853	79.937	-128.963	-8191	255	
2721.798	1	1	0	0	0.092811	0.04548	0.21571	0.081771	0.19758	0.15654	0.23627	0.14999	0.093501	0.10077	0.13066	0.082706	0.19034	0.14494	0.17374	0.13829	-2.5062	-2.6771	-2.8604	-2.9375	-2.55	-2.9604	-2.9562	-2.6729	-2.775	-2.8042	-2.8812	-2.9979	-2.7583	-3.0917	-3.0833	-2.5687	-40.700	72.468	62.502	-149.111	70.624	-49.599	-102.551	-3.041	43.594	-95.875	-112.399	-101.954	72.923	115.004	194.209	-127.246	0.00023397	0.033983	4.7471e-05	220.89	5.3231e-06	8.3288e-07	328.04	43.147	3.0777e-06	3.1304e-06	122.04	39.712	19.761	4.9367	6.4164e-07	14.126	5.1581e-05	0.0031379	1.5125e-05	231.79	8.473e-07	5.2033e-07	342.85	168.76	5.3108e-07	7.7556e-07	123.16	41.045	83.714	5.2418	5.2086e-07	14.912	-20.022	-47.272	-23.003	-143.140	-103.533	-25.124	-142.806	-131.696	-44.328	-3.749	-138.482	-133.378	188.977	-127.914	21.386	-128.875	-8191	255	
2721.894	1	1	0	0	0.08909	0.17655	0.090503	0.18508	0.078321	0.15822	0.10906	0.16999	0.25294	0.25711	0.21378	0.096629	0.051764	0.18173	0.07595	0.02049	-2.5917	-2.8583	-2.8625	-3.0083	-2.6937	-2.8917	-2.8458	-2.5604	-3.0542	-2.9375	-2.8688	-3.2458	-2.6667	-2.9354	-2.8333	-2.8396	85.971	-112.145	133.710	-82.618	190.226	-103.718	-144.756	47.461	-115.002	111.574	8.947	170.565	199.776	-152.294	15.567	37.684	0.00026993	0.037097	3.0059e-05	220.76	4.3505e-06	1.4752e-06	325.59	42.353	1.701e-06	3.5123e-06	122.18	39.484	21.824	4.9315	2.704e-06	14.128	5.2224e-05	0.0033693	1.5611e-05	231.57	8.3868e-07	5.4524e-07	340.72	165.91	5.5607e-07	7.2622e-07	123.23	41.016	91.55	5.2942	5.6444e-07	14.903	-21.647	-30.708	-15.309	-142.729	-35.944	-37.282	-142.668	-134.388	-67.549	-23.267	-137.904	-133.648	186.361	-128.591	-7.165	-129.063	-8191	255	
2721.990	1	1	0	0	0.085209	0.16738	0.15958	0.31213	0.1198	0.10455	0.41646	0.31836	0.081567	0.072059	0.050699	0.11085	0.050758	0.18095	0.21173	0.25431	-2.7687	-2.6854	-2.6729	-3.1729	-2.7313	-2.8563	-3.0375	-2.6979	-3.0042	-2.8417	-2.6458	-3.1521	-2.8375	-2.7917	-3.0208	-2.8833	78.102	-127.992	-87.633	109.423	25.151	-107.103	87.902	152.355	60.410	201.871	143.542	-70.275	-61.566	-1.339	-85.393	-129.989	0.00026077	0.038795	0.0011934	218.51	3.3306e-06	3.0652e-06	325.49	41.802	1.5751e-06	3.6637e-06	121.72	39.518	22.128	4.9645	1.8258e-07	14.102	5.5477e-05	0.0012973	0.00045185	231.12	8.4829e-07	6.62e-07	340.93	175.27	5.9213e-07	5.9315e-07	124.54	41.048	87.68	5.3051	5.8297e-07	14.891	-26.605	-29.748	-150.848	-142.618	-91.708	-100.589	-142.608	-136.721	-52.930	-9.274	-137.924	-133.384	191.005	-128.198	120.830	-129.145	-8191	255	
2722.111	1	1	0	0	0.08799	0.070422	0.20912	0.1551	0.14384	0.13934	0.15234	0.15405	0.1263	0.05428	0.019301	0.073368	0.16888	0.087954	0.081935	0.077388	-2.6792	-2.9583	-2.7583	-3.0812	-2.8333	-2.7458	-3.2104	-2.8604	-2.9313	-2.8021	-2.6063	-3.0042	-2.8083	-2.7167	-2.8917	-2.7021	-55.553	-61.045	62.227	-50.984	179.511	-12.309	32.906	192.153	-32.382	-144.429	-59.005	198.160	155.360	141.051	49.473	-73.182	0.00022123	5.8188e-05	0.012595	219.7	3.7833e-06	2.9154e-06	325.44	43.15	6.3815e-07	2.5482e-06	120.49	39.328	22.184	4.9416	1.2997e-06	14.088	5.7375e-05	5.2684e-05	0.00095807	231.36	8.4413e-07	6.5915e-07	340.85	163.14	5.8999e-07	5.7504e-07	124.09	40.907	84.655	5.2855	5.8475e-07	14.835	-15.129	59.066	-25.684	-142.952	-55.138	-61.034	-142.582	-139.525	-59.724	-9.944	-138.222	-133.478	-136.477	-128.077	88.728	-128.913	-8191	255	
2722.207	1	1	0	0	0.23699	0.12881	0.078855	0.11594	0.27465	0.15561	0.12764	0.10633	0.20254	0.28196	0.30752	0.2728	0.023936	0.063215	0.1896	0.4555	-2.4958	-2.8125	-2.8167	-2.9667	-2.9229	-2.775	-3.0208	-2.7396	-2.7396	-2.7708	-2.6875	-3.0563	-2.7396	-2.8	-2.9729	-2.7646	-105.424	89.870	170.567	-77.083	42.934	189.120	180.702	-112.173	178.374	87.851	193.321	-130.649	61.871	-24.472	107.854	191.813	0.0002443	3.8008e-05	0.011128	218.81	3.7408e-06	5.0648e-06	326.67	42.341	1.1974e-06	1.0351e-06	120.71	39.365	21.903	5.1724	8.547e-07	13.975	5.7285e-05	5.2852e-05	0.00089018	231.07	7.6025e-07	7.1394e-07	341.64	169.7	6.7133e-07	5.8054e-07	124.05	40.862	39.478	13.298	5.8507e-07	14.686	-12.797	-149.212	-19.623	-142.909	-79.952	-75.019	-142.571	-141.870	115.018	-99.701	-137.785	-133.322	-135.199	-156.246	125.876	-129.114	-8191	255	
2722.279	1	1	0	0	0.053983	0.20139	0.15833	0.085607	0.11265	0.12317	0.15321	0.17601	0.050644	0.14862	0.15938	0.063769	0.29713	0.16301	0.12044	0.12418	-2.3333	-2.9688	-2.5958	-2.875	-2.7667	-2.7396	-3.0271	-2.75	-2.7875	-2.9521	-2.6208	-2.8729	-2.9104	-2.7792	-2.9333	-2.8292	117.993	156.001	111.814	81.858	-125.198	193.572	120.354	144.432	-70.927	-12.623	23.004	-150.561	9.014	141.801	-120.691	42.592	0.00025016	9.958e-05	0.012166	220.04	2.3463e-06	7.6562e-06	325.41	43.903	2.0215e-06	1.7129e-06	120.46	39.153	16.884	6.7238	1.7057e-06	13.991	6.3454e-05	5.302e-05	0.00094577	231.05	5.9022e-07	8.6222e-07	340.89	163.28	6.6245e-07	5.7884e-07	124.03	40.702	17.429	22.045	5.872e-07	14.696	-35.485	-23.834	-15.698	-143.041	-30.244	-83.672	-142.626	-143.380	159.609	-9.815	-137.402	-133.170	-132.606	-152.455	8.617	-128.869	-8191	255	
2722.375	1	1	0	0	0.21945	0.21225	0.14202	0.063633	0.071851	0.019968	0.19339	0.21345	0.21385	0.0609	0.20856	0.16483	0.21182	0.057494	0.034694	0.058789	-2.4354	-2.8833	-2.6458	-3.0083	-3.0479	-2.7375	-3.0187	-2.8729	-2.8646	-3.0375	-2.6875	-3.0458	-2.8833	-2.6583	-3.075	-3.0042	36.285	53.390	147.435	29.735	-84.330	187.195	129.670	-66.584	74.419	-132.613	-65.656	101.119	-134.046	-111.334	103.425	123.330	0.00027949	0.0001943	0.011885	219.83	2.2138e-06	6.2902e-06	325.1	54.782	2.1164e-06	8.865e-07	122.55	39.503	16.998	6.7496	1.1386e-06	14.094	6.3624e-05	5.3032e-05	0.00090051	231.25	5.8495e-07	9.2932e-07	340.58	160.64	6.8644e-07	5.992e-07	124.57	40.989	17.661	21.273	6.2448e-07	14.75	-35.729	-107.206	-6.927	-142.872	-99.232	-69.073	-142.581	-127.623	173.895	157.006	-137.744	-133.509	-133.203	209.957	164.597	-129.036	-8191	255	
2722.496	1	1	0	0	0.27238	0.10476	0.14864	0.16487	0.23636	0.14149	0.13209	0.13182	0.0064255	0.10823	0.096768	0.18178	0.13649	0.24048	0.075543	0.1674	-2.2771	-3.0125	-2.725	-2.9417	-2.8333	-2.5812	-2.9729	-2.7479	-2.8417	-2.9938	-2.6125	-2.9292	-2.9354	-2.7771	-3.2271	-2.575	-36.401	93.621	138.492	-20.943	-121.078	8.012	118.316	-13.056	-9.914	145.603	-48.937	-62.200	-137.734	-145.640	-105.237	179.308	0.00033888	0.00015904	0.012552	218.79	2.1499e-06	3.951e-06	324.38	54.016	0.00047332	3.695e-07	121.25	39.35	16.782	7.0112	3.4918e-06	14.008	7.198e-05	5.6561e-05	0.0009787	231.86	6.1136e-07	9.5442e-07	341.02	92.417	2.0911e-05	6.2114e-07	123.79	40.932	17.571	22.747	6.4245e-07	14.563	-32.802	139.344	-2.928	-142.890	187.271	-59.033	-142.840	-129.009	176.436	-113.668	-137.535	-133.624	-134.257	210.889	31.827	-128.570	-8191	255	
2722.590	1	1	0	0	0.17647	0.042644	0.050046	0.20073	0.095413	0.046804	0.051401	0.23756	0.12089	0.074746	0.14432	0.12668	0.16002	0.16539	0.35781	0.19311	-2.1104	-2.8917	-2.8417	-3.0375	-2.9833	-2.7167	-3.1271	-2.8667	-2.6479	-3.1	-2.6333	-3.0042	-2.9813	-2.7687	-2.7292	-2.9042	96.168	113.364	-78.389	42.318	-1.754	-147.840	-44.274	-120.528	93.971	-97.515	46.366	78.127	105.728	-22.034	-56.843	-48.305	0.00036739	8.9961e-05	0.011868	218.88	1.7355e-06	7.4631e-06	324.43	59.666	0.00048593	1.3339e-06	121.07	39.203	16.465	7.016	1.0269e-06	14.073	8.8253e-05	5.8174e-05	0.00093948	231.11	6.3188e-07	9.8388e-07	340.47	62.561	3.8785e-05	6.2204e-07	123.77	40.898	17.43	21.357	6.0978e-07	14.578	-35.954	-68.710	2.408	-142.693	-58.240	-76.089	-142.591	-137.729	150.554	-26.072	-137.577	-133.105	-133.344	-146.018	-1.031	-128.974	-8191	255	
2722.686	1	1	0	0	0.15311	0.12486	0.21854	0.21135	0.30746	0.093099	0.11249	0.1235	0.18591	0.28218	0.19354	0.26115	0.1068	0.12087	0.045526	0.16431	-2.1208	-2.9813	-2.7562	-2.8333	-3.0833	-2.8167	-2.9021	-2.9708	-2.6583	-3.0771	-2.8271	-2.5604	-3.15	-2.7479	-2.9479	-2.8812	75.866	-136.917	45.705	-56.750	188.476	125.956	-118.756	199.549	-20.145	181.522	94.947	54.850	170.324	60.194	-59.775	128.667	0.00034029	4.0022e-05	0.01351	220.92	5.6237e-07	7.2811e-06	324.08	59.733	0.00044934	4.9229e-07	121.11	39.223	16.65	7.2012	3.8847e-06	13.954	8.851e-05	5.5915e-05	0.00082925	232.35	6.0338e-07	8.697e-07	340.01	62.397	3.5425e-05	5.9011e-07	122.7	40.828	17.411	21.98	6.5396e-07	14.472	-42.782	98.827	-7.289	-143.415	-6.304	-37.437	-142.740	-137.053	156.748	-62.310	-138.139	-133.297	-133.319	-144.794	-16.535	-128.876	-8191	255	
2722.782	1	1	0	0	0.15643	0.26961	0.098683	0.13873	0.13086	0.17599	0.011415	0.12684	0.27062	0.13467	0.22788	0.090897	0.1013	0.14991	0.10606	0.22986	-2.1583	-3.1396	-2.9354	-2.7021	-3.0958	-2.8208	-2.9083	-3.0396	-2.7313	-3.0146	-2.9437	-2.8146	-2.9521	-2.8438	-2.6521	-3.0167	-94.273	34.247	-33.397	141.355	-153.409	181.318	12.453	87.329	50.043	80.963	182.836	-19.646	-73.353	104.141	-150.547	81.673	0.00036381	0.00014012	0.012239	203.42	1.4889e-06	4.1851e-06	323.83	59.721	0.00047276	1.8771e-07	121.64	39.398	16.9	7.2473	3.0976e-06	14.046	8.5232e-05	5.3181e-05	0.00022268	403.82	5.8435e-07	8.3878e-07	340.28	62.539	3.7342e-05	5.7825e-07	122.05	41.248	17.482	20.875	6.432e-07	14.568	-44.139	-71.983	-4.093	-142.496	-36.609	-54.568	-142.639	-137.590	161.291	125.490	-137.941	-133.061	-134.369	-142.262	-38.617	-128.757	-8191	255	
2722.878	1	1	0	0	0.26089	0.097537	0.11899	0.23095	0.14791	0.14567	0.24169	0.17741	0.066719	0.16381	0.1109	0.24556	0.095211	0.075135	0.1612	0.23319	-2.3167	-2.9917	-2.9562	-2.7958	-3.0021	-2.8396	-2.8542	-3.1167	-2.6937	-3.1333	-2.9042	-2.6813	-2.8563	-2.7292	-2.8812	-3.0771	45.400	88.881	77.635	-84.675	-64.783	-96.318	145.080	200.343	-6.671	-6.878	73.666	-2.532	161.563	52.742	-34.246	198.845	0.00041084	8.9581e-05	5.2939e-06	227.47	3.0129e-06	1.4559e-06	327.04	60.212	0.00043407	1.7571e-06	121.15	39.635	16.891	7.0857	0.00032745	13.999	8.5622e-05	5.2463e-05	1.4195e-05	534.41	5.7206e-07	8.1351e-07	342.52	62.972	3.4926e-05	5.6921e-07	122.56	41.445	17.62	18.784	1.8819e-06	14.591	-41.267	-26.215	86.785	-129.169	-9.233	-43.208	-142.868	-137.350	166.675	-55.935	-138.318	-132.991	-133.700	-126.097	-93.896	-129.045	-8191	255	
2722.975	1	1	0	0	0.25934	0.18335	0.15699	0.049879	0.18097	0.16123	0.043846	0.13773	0.073178	0.028958	0.34137	0.092548	0.066116	0.10837	0.229	0.20569	-2.2438	-3.0708	-2.7625	-2.7854	-2.9271	-2.7667	-2.6813	-2.9917	-2.7562	-3.0458	-2.6896	-2.8396	-3.0312	-2.7646	-2.6292	-2.9333	108.547	-137.617	127.769	122.362	-125.222	115.955	30.940	27.175	107.691	-73.493	-151.265	-108.304	130.168	-92.665	65.598	142.532	0.00033027	0.00017007	1.6833e-05	222.4	2.947e-06	1.9613e-06	330.61	60.362	0.0004715	2.4391e-06	122.59	39.64	17.066	7.0374	0.00028552	14.084	7.8457e-05	5.516e-05	1.4686e-05	519.12	5.9509e-07	7.0344e-07	345.96	63.28	3.7502e-05	6.6382e-07	123.16	41.492	17.661	8.2945	2.3493e-05	14.585	-16.197	128.163	-58.634	-130.058	27.019	17.412	-142.725	-137.335	173.619	-123.580	-138.084	-133.135	-133.686	-125.034	-92.115	-129.040	-8191	255	
2723.095	1	1	0	0	0.059817	0.046659	0.11706	0.097777	0.30328	0.095902	0.13968	0.015172	0.15008	0.16597	0.040581	0.23451	0.11652	0.14591	0.036709	0.055265	-2.275	-2.8854	-3.025	-2.6771	-2.9771	-2.7979	-2.7917	-2.9292	-2.7729	-2.7354	-3.0938	-2.7313	-2.8604	-2.7896	-2.7396	-2.9208	-131.264	82.351	148.890	-121.299	-57.280	67.249	-68.415	49.916	-79.965	171.685	-103.027	182.069	-127.269	-56.233	113.227	70.958	0.00031385	0.00012464	2.0021e-05	218.46	2.7226e-06	4.0879e-07	326.63	60.165	0.0004505	3.0549e-06	120.31	38.939	16.573	4.8017	0.00050333	13.726	8.0677e-05	6.1582e-05	1.5116e-05	541.83	6.0527e-07	5.9864e-07	344.57	62.941	3.5602e-05	6.7066e-07	121.64	40.935	17.369	5.1476	3.8172e-05	14.263	-22.421	190.877	-84.245	-129.026	19.121	-58.140	-142.606	-137.022	180.141	-134.993	-137.664	-133.017	-133.209	-127.391	-37.624	-128.878	-8191	255	
2723.191	1	1	0	0	0.074778	0.10156	0.14902	0.23608	0.13351	0.090955	0.22922	0.16924	0.050045	0.12082	0.21089	0.052439	0.14261	0.091412	0.20983	0.099288	-2.4271	-2.6125	-3.0875	-2.7375	-2.9	-2.8896	-2.65	-3.1083	-3.0729	-2.8063	-3.1417	-2.8	-2.9833	-2.8583	-2.7542	-2.8625	71.308	159.133	-72.953	-78.030	133.534	-137.231	-140.514	57.397	27.344	-150.404	192.222	-98.702	-108.532	77.706	-126.873	202.205	0.00034979	0.00019304	7.0533e-05	211.71	1.5216e-06	1.5305e-06	324.32	59.626	9.1011e-05	0.00044962	120.03	38.711	16.643	4.807	0.00046289	13.561	8.3653e-05	6.1787e-05	1.5479e-05	523.84	6.1874e-07	5.9986e-07	342.83	62.576	2.9515e-05	3.6632e-06	121.29	40.575	17.45	5.1116	3.6271e-05	14.19	-39.946	-124.773	-39.652	-129.545	-36.945	-10.825	-142.657	-137.165	78.316	197.256	-137.976	-133.118	-133.149	-127.360	-32.150	-128.521	-8191	255	
2723.288	1	1	0	0	0.32021	0.18651	0.15881	0.10078	0.26679	0.12167	0.083691	0.24294	0.12816	0.094293	0.20545	0.063026	0.10935	0.19992	0.10899	0.13079	-2.3667	-2.625	-2.8937	-2.8146	-2.8292	-2.8208	-2.5687	-2.9625	-2.4958	-2.7229	-2.9604	-2.7729	-2.8417	-3.0021	-2.6792	-3.0438	-100.993	-27.827	-17.461	34.387	-59.738	130.766	-83.150	26.599	151.727	-34.105	102.748	100.179	-76.237	-64.617	130.682	101.228	0.00024649	0.00051667	2.3869e-05	207.04	3.2955e-06	2.571e-06	327.23	59.592	6.8403e-05	0.00041421	120.54	38.669	16.562	4.7524	0.00050442	13.698	7.0044e-05	7.2558e-05	1.5557e-05	544.5	6.9652e-07	6.0457e-07	344.52	62.598	5.8316e-06	2.543e-05	121.27	40.671	17.471	5.1162	3.8437e-05	14.216	-0.888	181.086	-15.332	-128.767	71.350	7.636	-142.523	-137.197	68.875	200.531	-137.690	-133.293	-133.095	-127.135	-24.533	-128.851	-8191	255	
2723.384	1	1	0	0	0.078749	0.21786	0.18458	0.27327	0.16276	0.26413	0.1097	0.25258	0.12392	0.17599	0.05955	0.10589	0.064289	0.12537	0.24884	0.17003	-2.4208	-2.6208	-2.8354	-2.7854	-2.6188	-3.0271	-2.65	-2.9271	-2.9646	-2.7167	-3.0396	-2.8208	-2.8583	-3.1562	-2.8625	-2.9562	-14.992	164.513	-23.854	-136.075	-131.223	12.480	-67.829	-47.339	-104.017	79.127	-120.619	-60.445	12.692	35.815	-52.320	143.493	0.00027991	0.00041641	2.0794e-05	203.15	7.1244e-07	6.651e-07	327.6	59.632	1.7498e-06	0.00041614	120.38	38.967	16.547	4.8309	0.00047278	13.847	5.8542e-05	8.5576e-05	1.5639e-05	525.32	6.8151e-07	5.9777e-07	346.25	62.815	6.1018e-07	3.8487e-05	121.94	40.839	17.577	5.1506	3.6137e-05	14.298	-15.771	183.818	-154.568	-130.290	-138.951	-106.907	-142.446	-137.178	-34.665	197.593	-138.093	-133.431	-133.719	-127.232	-18.616	-128.837	-8191	255	
2723.503	1	1	0	0	0.073432	0.14671	0.056463	0.17014	0.11157	0.14022	0.31576	0.041162	0.10429	0.07145	0.079757	0.12959	0.21102	0.06079	0.28904	0.14607	-2.5125	-2.7375	-2.8708	-2.825	-2.8354	-3.1396	-2.6833	-3.05	-2.9479	-2.7146	-2.9229	-2.8187	-2.6792	-2.9958	-2.7083	-2.9354	-96.213	-143.775	-135.184	117.840	-64.935	48.852	79.743	-55.311	-110.486	-85.771	4.006	119.038	-57.980	147.706	54.915	-41.681	0.00022147	0.00047029	2.2686e-05	232.1	0.00032485	6.0922e-07	327.39	59.777	1.2946e-06	0.00038388	119.59	38.479	16.282	4.7989	0.00049354	13.681	5.8301e-05	8.6264e-05	1.5494e-05	456.26	5.3592e-06	6.1519e-07	344.27	62.775	6.1364e-07	3.5887e-05	121.22	40.228	17.628	5.1254	3.7975e-05	14.189	-4.592	173.692	45.185	-130.196	160.475	135.262	-142.561	-137.158	37.546	203.784	-138.434	-133.184	-133.012	-128.176	-13.925	-128.575	-8191	255	
2723.574	1	1	0	0	0.15301	0.26539	0.20756	0.20287	0.10981	0.21364	0.2157	0.096631	0.093996	0.28396	0.029875	0.13598	0.025118	0.54085	0.30482	0.1441	-2.5833	-2.6292	-3.0458	-2.7979	-2.8667	-3.175	-2.825	-2.7	-3.1708	-2.8208	-3.1792	-2.8229	-2.7854	-3.0208	-2.8104	-2.8042	60.908	-142.900	73.977	-100.010	167.407	37.430	162.202	50.173	-64.762	94.284	118.904	110.150	123.153	-144.832	93.052	148.611	0.00023234	0.0005215	3.2875e-05	225.8	0.00032327	7.9199e-07	323.91	58.663	2.3618e-06	0.00041904	120.2	38.454	16.243	4.7503	0.00045745	13.624	5.8324e-05	8.6032e-05	1.5517e-05	259.97	2.6614e-05	6.0296e-07	341.38	62.358	6.0863e-07	3.7968e-05	120.69	39.968	17.835	5.1038	3.5579e-05	14.211	-13.161	193.106	-100.464	-130.670	164.092	-46.354	-142.550	-137.191	-46.870	-150.675	-137.630	-133.447	-132.559	-128.166	-7.909	-129.224	-8191	255	
2723.670	1	1	0	0	0.44269	0.074253	0.14302	0.10919	0.11133	0.12252	0.1285	0.16954	0.18833	0.11384	0.32405	0.20076	0.077354	0.19176	0.12591	0.14243	-2.7396	-2.6854	-2.9229	-2.8688	-2.6625	-2.9354	-2.7042	-2.7604	-2.8937	-2.7313	-2.9333	-2.9042	-2.7083	-2.8771	-2.8417	-2.7229	-25.055	22.794	52.708	4.282	-75.166	48.935	2.150	-65.862	132.081	-132.007	-36.841	180.100	47.902	-0.756	199.743	-41.465	0.00026711	0.00044451	3.3095e-05	220.83	0.00049951	1.2517e-06	325.6	59.672	2.0594e-06	0.00038248	120.84	38.6	16.411	4.7801	0.00048396	14.779	5.8151e-05	8.6519e-05	1.5531e-05	231.6	3.7837e-05	6.1288e-07	342.97	62.852	5.9987e-07	3.5615e-05	121.5	40.098	17.987	5.1152	2.5799e-05	18.233	-20.556	-136.952	-106.520	-142.703	102.622	-12.244	-142.688	-137.621	-60.652	-143.704	-138.241	-133.258	-133.810	-127.826	15.258	-131.593	-8191	255	
2723.791	1	1	0	0	0.10384	0.15858	0.057928	0.18091	0.1765	0.21719	0.35479	0.26278	0.13829	0.31176	0.26646	0.14457	0.26865	0.32323	0.25934	0.12687	-2.4958	-2.7542	-2.7938	-2.8354	-2.7125	-2.9458	-2.6292	-2.65	-2.9271	-2.6042	-2.8146	-2.9688	-2.6312	-2.9521	-2.8729	-2.8625	93.313	150.137	71.342	183.092	-57.258	182.130	84.896	-94.604	17.403	47.149	-124.419	-22.670	122.030	114.226	-148.447	32.757	0.00027917	0.00021028	8.044e-05	220.02	0.0004734	8.0937e-07	326.91	59.591	1.5975e-06	0.00041918	121.04	38.861	16.52	4.8249	0.00046795	14.653	5.9496e-05	7.8717e-05	1.7141e-05	232.21	3.5681e-05	6.2075e-07	343.54	63.378	6.209e-07	3.8333e-05	122.04	40.378	18.049	5.1572	2.6255e-06	31.913	-12.936	160.217	181.079	-142.711	110.792	-47.168	-142.568	-137.057	52.335	-138.882	-137.950	-133.293	-132.878	-127.256	17.116	-130.822	-8191	255	
2723.887	1	1	0	0	0.42911	0.032914	0.12872	0.15765	0.25062	0.041067	0.10049	0.19571	0.186	0.16711	0.053858	0.19328	0.32688	0.12431	0.23141	0.2041	-2.5729	-2.7667	-2.7729	-2.9062	-2.7	-2.9188	-2.9813	-2.6875	-3	-2.8187	-2.7438	-3.0917	-2.625	-3.1021	-2.9917	-2.6958	172.015	-97.471	-66.946	78.855	-46.874	143.323	148.809	-138.443	-64.105	69.386	-84.875	95.668	52.309	175.205	18.238	-90.893	0.00025135	0.0002173	8.124e-05	220.88	0.00050456	2.7193e-06	324.84	59.217	1.9764e-06	0.00038763	118.99	38.28	16.283	4.7149	2.9479e-06	16.834	6.0448e-05	8.2014e-05	1.7586e-05	232.32	3.8442e-05	6.2924e-07	340.93	63.23	6.1612e-07	3.6041e-05	120.58	39.804	17.785	5.0835	6.0494e-07	37.909	-10.995	-146.452	-140.094	-142.863	117.139	26.160	-142.767	-137.507	-87.350	-133.254	-138.304	-133.142	-133.438	-127.175	38.361	-117.771	-8191	255	
2723.983	1	1	0	0	0.21693	0.1367	0.17389	0.099251	0.27071	0.077015	0.31195	0.28377	0.16055	0.17279	0.17154	0.061668	0.17847	0.42326	0.10096	0.099159	-2.6271	-2.7687	-2.9083	-3.1375	-2.6667	-2.9354	-2.8375	-2.6854	-3.1104	-3.1042	-2.8417	-3.0062	-2.6958	-2.8271	-2.8042	-2.9	201.973	-81.883	-93.358	43.160	15.048	-52.886	160.620	46.314	170.172	-148.382	-84.867	111.726	-97.000	143.205	49.125	112.270	0.00022058	6.9038e-05	4.406e-05	219.17	0.00045615	2.7533e-06	321.35	59.292	1.3257e-06	0.00010461	123.73	37.914	16.412	4.7201	1.1135e-06	16.319	5.9936e-05	7.8703e-05	1.7222e-05	230.38	3.5721e-05	6.1209e-07	337.82	62.759	6.2539e-07	2.4264e-05	172.44	39.629	17.607	5.0855	6.1436e-07	36.224	-8.315	-128.383	-63.668	-142.837	120.788	-25.907	-142.247	-137.147	45.742	-38.126	199.772	-132.931	-133.607	-127.785	64.598	-116.595	-8191	255	
2724.080	1	1	0	0	0.080482	0.15047	0.068032	0.23977	0.16471	0.15092	0.16988	0.10969	0.099139	0.1321	0.29588	0.09182	0.10831	0.30875	0.172	0.14457	-2.6125	-2.6625	-2.725	-3.1854	-2.8104	-3.0021	-2.9188	-2.6	-3.1083	-2.8771	-2.6937	-2.9667	-2.7104	-2.8583	-2.8521	-2.7667	-76.744	-56.432	-53.416	87.382	69.323	163.965	-64.645	101.610	-153.296	-130.452	54.227	-64.362	62.006	-44.625	87.911	60.207	0.00023539	0.00016343	0.00013787	218.98	0.00050829	1.9317e-06	322.94	59.146	1.05e-06	0.0001197	126.27	38.355	16.28	4.704	1.3807e-06	16.192	5.9195e-05	6.2539e-05	2.0836e-05	230.06	3.7828e-05	6.7483e-07	338.43	62.797	6.2082e-07	1.098e-06	311.89	39.776	17.643	5.0972	6.288e-07	38.045	-24.041	-36.856	-150.933	-142.850	127.634	104.365	-142.884	-136.949	-93.840	-48.107	202.184	-133.556	-133.415	-127.726	5.716	-114.730	-8191	255	
2724.176	1	1	0	0	0.28058	0.31855	0.022728	0.053052	0.17468	0.1857	0.1312	0.2708	0.034781	0.24091	0.16952	0.23707	0.19045	0.098661	0.3126	0.10629	-2.3521	-2.7625	-2.5938	-3.075	-2.6917	-2.8937	-3.1354	-2.6417	-2.8958	-2.7458	-2.8438	-3.0292	-2.8937	-2.6875	-3.1896	-2.7729	170.009	181.014	-31.764	191.170	45.482	-13.354	-84.988	9.960	-67.915	169.711	-147.940	80.793	97.611	123.728	-72.895	-25.889	0.00024551	0.00016015	0.00018066	220.19	0.00048698	1.8434e-06	324.9	59.299	5.377e-07	4.6001e-07	144.97	38.257	16.353	4.7455	1.1821e-06	15.894	6.1918e-05	5.6739e-05	2.4657e-05	231.63	3.6542e-05	7.0722e-07	340.81	63.176	6.4775e-07	6.2833e-07	370.37	39.868	17.698	5.122	6.3601e-07	36.854	-7.722	-145.016	-116.742	-142.795	133.238	134.825	-142.459	-137.068	-35.281	166.059	204.316	-133.665	-133.603	-128.118	-78.984	-114.383	-8191	255	
2724.272	1	1	0	0	0.27634	0.18198	0.13827	0.097519	0.18653	0.12295	0.29494	0.086119	0.11361	0.14357	0.057605	0.26656	0.094009	0.12851	0.10724	0.33678	-2.4458	-2.8167	-2.6063	-2.9938	-2.8417	-2.9542	-2.9375	-2.7458	-2.8354	-2.9208	-2.6854	-2.9771	-2.8875	-2.7646	-2.9208	-2.7604	9.540	158.853	-105.751	110.428	0.297	-46.674	121.286	-59.211	44.462	-136.549	79.079	190.213	87.197	170.709	-137.687	199.580	0.00030264	0.0003372	0.00011278	220.44	0.00035912	0.00049137	325.1	59.14	3.1549e-06	1.5648e-06	144.29	38.563	16.31	4.6885	8.1379e-07	15.788	6.2041e-05	5.8239e-05	2.5261e-05	232.52	2.2834e-05	1.0615e-05	341.76	63.11	7.2716e-07	6.3054e-07	353.3	39.963	17.392	5.2166	6.4964e-07	37.963	-14.694	-92.174	-141.928	-142.485	73.626	174.830	-142.745	-136.900	-9.743	36.159	-153.667	-133.318	-133.290	-127.245	-33.181	-113.580	-8191	255	
2724.368	1	1	0	0	0.16488	0.050231	0.07072	0.1979	0.21356	0.22354	0.17974	0.1612	0.18949	0.22531	0.026368	0.34417	0.18299	0.098029	0.088851	0.07697	-2.3812	-2.8479	-2.6708	-2.8146	-2.8042	-2.7562	-3.1208	-2.7146	-2.85	-3.1292	-2.8625	-2.95	-2.8396	-2.6521	-3.1146	-2.8146	56.607	78.999	94.784	-135.241	-141.955	-27.510	-129.734	188.092	15.224	-109.094	-54.701	168.992	66.634	-51.866	-23.872	118.902	0.0002104	6.058e-05	0.00014808	220.28	1.6389e-06	0.00046502	324.54	59.042	3.4962e-06	2.1311e-07	149.4	38.248	16.456	4.6932	8.1999e-07	15.093	6.9552e-05	5.8481e-05	2.4848e-05	231.83	6.4222e-07	3.196e-05	339.81	62.972	7.3017e-07	6.3538e-07	366.91	39.749	17.224	5.2463	6.5045e-07	36.286	-15.835	-75.656	-125.228	-143.005	-119.483	174.827	-142.563	-137.233	32.153	-50.669	-153.424	-133.482	-133.459	-127.794	-15.955	-113.977	-8191	255	
2724.464	1	1	0	0	0.30407	0.17392	0.12739	0.22594	0.19511	0.071917	0.3782	0.16718	0.14375	0.098197	0.029812	0.08176	0.27896	0.088875	0.11728	0.21448	-2.3958	-3.0375	-2.7125	-2.8937	-2.9896	-2.7708	-3.1333	-2.8125	-3.0062	-3.1604	-2.8917	-2.9437	-2.9167	-2.7833	-2.9917	-2.925	7.219	140.109	-42.360	-42.826	68.819	-11.467	128.497	-105.162	118.482	126.317	68.932	201.829	-137.449	38.631	-75.296	136.590	0.00023167	6.4847e-05	0.00014819	219.43	1.6407e-06	0.00050854	323.24	58.705	1.7852e-06	2.4316e-06	150.35	38.094	16.354	4.6619	7.8324e-07	15.192	7.0021e-05	5.9049e-05	2.53e-05	230.77	6.3814e-07	3.8153e-05	339.14	62.756	7.0849e-07	6.3401e-07	348.17	39.753	17.189	5.2209	6.5431e-07	26.607	-9.867	204.231	-112.858	-142.723	-36.644	143.938	-142.727	-137.398	20.598	-11.652	-151.648	-133.830	-133.590	-127.491	-25.873	-111.816	-8191	255	
2724.583	1	1	0	0	0.11573	0.13903	0.20868	0.043391	0.14877	0.18576	0.18893	0.050505	0.18964	0.092523	0.11035	0.072359	0.14273	0.2696	0.20915	0.092559	-2.2833	-3.0146	-2.8833	-2.7417	-2.9771	-2.7	-3.1	-2.8438	-2.6417	-3.1708	-2.8229	-2.7396	-3.0625	-2.6125	-2.9083	-2.8792	147.797	-40.484	-23.344	-32.596	-117.691	-35.009	-126.245	104.463	-81.340	-74.383	-13.201	-81.015	-51.201	182.943	-51.695	29.698	0.0016018	0.0001105	9.8192e-05	218.74	6.9673e-07	0.00047288	321.95	59.047	1.9228e-06	1.8096e-06	154.99	38.098	16.527	4.7158	3.2669e-07	13.641	0.0010845	5.8273e-05	2.2395e-05	231.29	6.2647e-07	3.5412e-05	338.87	62.155	8.6435e-07	6.2717e-07	361.27	39.827	17.183	5.2223	6.3723e-07	14.088	-111.704	20.583	-87.397	-142.836	-91.835	151.043	-142.517	-136.825	22.617	16.693	-150.560	-133.313	-133.626	-127.355	-127.205	-128.849	-8191	255	
2724.679	1	1	0	0	0.15029	0.1054	0.10387	0.019479	0.19711	0.088871	0.093811	0.1024	0.11153	0.13192	0.04046	0.118	0.07889	0.17836	0.14655	0.17977	-2.5354	-2.9771	-2.7687	-2.8021	-3.0208	-2.6125	-3.0083	-2.7625	-2.7438	-3.1604	-2.7313	-2.6292	-2.9542	-2.7438	-3.0271	-2.9313	-19.287	193.086	52.711	19.467	203.126	103.081	164.434	136.371	-55.449	-49.660	29.668	-104.006	-150.126	-123.929	112.652	-145.740	0.0021803	0.00015065	8.5102e-05	221.13	7.0764e-07	0.00050338	324.15	59.216	3.7768e-06	2.8603e-06	154.3	38.372	16.599	4.7429	1.6286e-06	13.616	0.0029357	5.869e-05	2.2529e-05	232.38	6.3465e-07	3.7899e-05	341.16	62.218	9.506e-07	6.4296e-07	347.08	40.082	17.282	5.2502	6.288e-07	14.142	-120.644	-46.368	-113.244	-142.714	-15.737	153.501	-142.766	-137.688	41.068	-59.914	-148.108	-133.474	-133.671	-127.259	156.647	-128.666	-8191	255	
2724.775	1	1	0	0	0.11717	0.076747	0.08564	0.092246	0.13174	0.078678	0.17605	0.27343	0.13405	0.25408	0.21038	0.1919	0.192	0.19484	0.29203	0.25743	-2.4458	-3.1604	-2.8292	-2.8563	-3.0438	-2.6833	-2.8563	-2.8792	-2.7646	-3.1813	-2.6521	-2.7208	-3.075	-2.7313	-2.7771	-2.8312	-15.652	-128.944	9.795	188.611	85.055	-88.275	107.209	-104.907	189.513	-102.550	-102.782	117.165	161.970	-116.124	-66.143	142.528	0.013303	8.9816e-05	2.753e-05	219.55	1.484e-06	0.00046178	325.49	59.387	4.9093e-06	1.9496e-06	147.49	41.075	16.33	4.7623	2.2655e-06	13.598	0.0033969	5.7546e-05	2.1145e-05	232.09	6.3584e-07	3.5505e-05	341.41	62.318	9.7743e-07	6.3286e-07	240.35	58.319	17.244	5.2372	7.1018e-07	14.116	130.492	5.212	-38.312	-142.588	14.395	159.601	-142.810	-137.169	36.231	-52.123	-135.009	-143.376	-133.634	-127.725	-116.822	-129.251	-8191	255	
2724.871	1	1	0	0	0.18484	0.079717	0.17541	0.30714	0.069066	0.28965	0.19685	0.16918	0.052793	0.1275	0.05989	0.2237	0.15267	0.082951	0.14135	0.042926	-2.3396	-2.8917	-2.8083	-2.8396	-3.0854	-2.7438	-2.7875	-3.0208	-2.4333	-3.075	-2.7521	-2.8063	-2.9479	-2.8208	-2.8542	-3.0292	-154.922	181.087	-42.355	-115.920	128.782	129.752	131.277	-91.608	-152.737	46.522	144.894	158.144	-6.047	148.586	-132.703	-104.276	0.01235	7.1131e-05	9.8893e-05	218.24	2.1587e-06	0.0005049	325.67	59.08	6.6434e-06	9.7935e-07	119.31	40.92	16.349	4.7185	1.7133e-06	13.616	0.0032092	5.9046e-05	1.7294e-05	233.25	6.5188e-07	3.8295e-05	341.35	62.347	9.9022e-07	6.5539e-07	120.92	87.286	17.261	5.2366	7.2393e-07	14.151	135.548	172.908	-38.108	-142.840	-39.025	165.565	-142.851	-137.373	51.838	-74.339	-137.961	-141.823	-133.841	-127.731	-133.020	-128.429	-8191	255	
2724.968	1	1	0	0	0.14753	0.19465	0.23959	0.19673	0.1995	0.10165	0.2434	0.29441	0.27912	0.12883	0.078205	0.15709	0.13101	0.072589	0.042848	0.081622	-2.2146	-2.925	-2.8875	-2.7583	-3.0083	-2.8208	-2.8604	-2.9646	-2.7208	-2.9708	-2.8604	-2.8312	-3.0958	-2.7521	-2.8063	-3.0333	-94.173	-62.054	22.865	128.791	-39.703	-0.064	-34.236	164.734	-78.595	113.486	144.901	21.071	-153.079	26.552	166.776	-121.302	0.013235	5.7048e-05	2.41e-05	220.6	1.6978e-06	0.00048729	323.47	59.094	5.0526e-06	1.7112e-06	118.85	47.293	16.39	4.7453	6.1033e-06	13.572	0.003422	5.9599e-05	1.6285e-05	234.39	6.5615e-07	3.5799e-05	339.93	62.135	1.0071e-06	6.5551e-07	120.43	91.738	17.236	5.1997	7.437e-07	14.139	140.397	-117.903	194.071	-142.828	-67.393	170.986	-142.857	-137.267	27.803	-43.808	-137.895	-138.850	-133.193	-127.538	-131.937	-128.652	-8191	255	
2725.064	1	1	0	0	0.32472	0.16706	0.091743	0.084373	0.23425	0.21677	0.23058	0.014688	0.22874	0.21867	0.2597	0.15227	0.062044	0.049182	0.15883	0.076225	-2.3833	-2.9479	-2.8125	-2.7687	-3.0208	-3.0062	-2.9688	-3.0458	-2.8125	-2.8646	-2.8979	-2.6792	-2.9354	-2.8229	-2.6958	-3.1854	-136.591	-27.675	19.834	-49.429	136.278	144.251	170.166	-26.504	136.855	88.084	-24.309	118.999	160.334	196.405	-72.030	139.995	0.012042	0.00015582	2.6123e-05	219.92	1.171e-06	0.00018136	318.97	58.738	4.4988e-06	2.4487e-06	118.8	46.649	16.12	4.7776	3.2884e-06	13.567	0.0032025	6.406e-05	1.6646e-05	234.35	6.5942e-07	1.7407e-05	457.12	62.157	9.0402e-07	7.2726e-07	120.76	88.602	17.224	5.1149	9.274e-07	14.131	147.887	-34.092	33.937	-142.833	44.823	84.757	-152.987	-137.076	46.847	56.579	-137.834	-137.455	-134.024	-127.569	-133.293	-129.257	-8191	255	
2725.184	1	1	0	0	0.27032	0.18517	0.065681	0.037965	0.26409	0.10288	0.10525	0.20925	0.16482	0.23639	0.084792	0.3598	0.16678	0.11239	0.14486	0.14502	-2.275	-2.7208	-3.0021	-2.6688	-2.9	-2.8083	-2.7167	-2.9604	-2.775	-2.9167	-3.0479	-2.8833	-2.875	-3.0104	-2.7021	-2.9875	-143.427	-73.402	80.463	-46.948	-26.831	15.715	134.434	71.800	80.890	35.831	103.836	64.611	183.891	-110.625	-14.674	62.876	0.013277	0.00026057	5.7878e-05	220.77	2.5816e-07	2.1274e-06	310.33	58.93	2.0378e-06	3.0748e-06	120.04	47.92	16.324	4.7013	6.1824e-06	13.514	0.0034389	6.6669e-05	1.6517e-05	234.32	6.6868e-07	6.5171e-07	622.17	62.027	9.453e-07	7.5369e-07	120.37	94.042	17.278	5.0993	1.0479e-06	14.085	152.536	-8.051	-71.487	-142.803	-16.730	-20.198	-151.362	-137.602	27.913	111.090	-137.465	-136.515	-133.893	-128.220	-142.002	-128.723	-8191	255	
2725.281	1	1	0	0	0.11614	0.171	0.082763	0.031658	0.28744	0.072349	0.22374	0.1432	0.15304	0.27917	0.20787	0.13335	0.21625	0.3171	0.11455	0.14735	-2.5187	-2.7042	-3.0167	-2.6458	-2.9562	-2.95	-2.6937	-2.9313	-2.7854	-2.8063	-3.0771	-2.6458	-3.1479	-2.7729	-2.5708	-3.0417	-136.828	123.249	-51.042	78.815	-89.229	-138.358	197.797	15.566	43.224	-24.975	-34.996	157.450	9.012	201.885	168.149	29.731	0.013381	0.00027415	1.8337e-05	218.34	2.6056e-06	1.8487e-06	311.78	58.251	3.7662e-06	3.0349e-06	118.05	48.239	16.184	4.7808	6.7518e-06	13.604	0.0035128	7.3781e-05	1.833e-05	233.63	7.1457e-07	7.1637e-07	657.4	61.9	9.2836e-07	8.4704e-07	120.48	92.817	17.431	5.1286	1.1127e-06	14.17	157.456	-1.530	-150.740	-142.743	-128.302	11.788	-153.173	-137.604	26.610	90.534	-138.155	-135.171	-133.227	-127.381	-119.107	-128.759	-8191	255	
2725.377	1	1	0	0	0.066194	0.13156	0.097516	0.21672	0.038638	0.13873	0.15214	0.07038	0.32512	0.15993	0.087095	0.028681	0.21551	0.075362	0.14597	0.32445	-2.3708	-2.7792	-2.9542	-2.6437	-2.8208	-2.9292	-2.6229	-3.0667	-2.9104	-2.7021	-3.1208	-2.7313	-2.8521	-3.125	-2.6646	-2.8833	-124.654	24.571	169.123	-150.097	58.190	174.466	61.787	53.694	-80.904	-68.275	-55.281	173.421	13.985	93.814	-34.393	-22.690	0.014033	0.021096	1.8604e-05	218.6	4.3304e-06	7.3908e-07	318.82	58.462	5.8383e-06	5.2406e-07	116.68	47.983	16.239	4.6498	3.3375e-06	13.513	0.0014922	0.0016675	1.8938e-05	232.7	8.1681e-07	7.424e-07	630.85	62.01	7.6664e-07	1.0254e-06	119.63	93.018	17.479	5.1087	1.0973e-06	14.112	132.239	107.263	117.726	-142.699	1.472	-9.434	-152.054	-137.549	13.999	109.770	-137.865	-134.375	-133.529	-127.870	-155.104	-128.774	-8191	255	
2725.448	1	1	0	0	0.21457	0.29006	0.14252	0.037191	0.1796	0.1617	0.2579	0.069684	0.39367	0.15713	0.11496	0.095592	0.091854	0.036035	0.12662	0.13638	-2.4792	-2.6146	-3.0875	-2.9167	-2.8312	-3.1542	-2.7542	-2.9229	-2.8125	-2.6375	-3.0333	-2.8729	-2.8083	-3.0542	-2.7854	-3.0062	166.292	-44.405	-124.873	-131.736	-63.635	201.029	117.838	92.218	119.016	-77.752	171.347	41.584	71.753	157.096	-11.349	195.494	0.00024209	0.036329	6.8485e-05	217.81	4.2045e-06	1.5317e-06	322.81	58.594	4.3801e-07	6.4098e-06	118.46	45.126	16.403	4.6926	1.7316e-06	13.47	6.9666e-05	0.0033628	1.8575e-05	232.72	8.2338e-07	7.334e-07	640.46	61.934	7.2447e-07	1.0743e-06	120.21	88.303	17.459	5.0893	1.0656e-06	14.089	-25.248	35.806	-47.353	-142.841	-30.199	200.211	-152.177	-137.303	75.045	58.910	-137.834	-128.125	-133.898	-127.302	-62.739	-129.043	-8191	255	
2725.567	1	1	0	0	0.12873	0.052992	0.20865	0.029112	0.20869	0.027615	0.16584	0.11041	0.21454	0.21458	0.12637	0.0085232	0.11223	0.078132	0.048821	0.20931	-2.5333	-2.8021	-2.9521	-2.6875	-2.8021	-3.1583	-2.5708	-2.8729	-2.9313	-2.6813	-3.0438	-2.8729	-2.8312	-3.0208	-2.7062	-2.8583	-80.977	196.234	135.093	184.149	-29.474	20.498	-137.179	-21.533	187.201	-135.867	97.015	33.945	-14.580	76.492	175.494	174.536	0.00026943	0.03833	6.2979e-05	217.9	3.8551e-06	1.9191e-06	327.68	58.386	1.4992e-06	4.7712e-06	117.88	45.196	18.776	4.6281	3.4883e-06	13.445	6.9299e-05	0.0035567	1.8459e-05	231.81	8.5463e-07	7.2247e-07	618.85	61.793	7.1998e-07	1.0761e-06	119.53	58.05	53.409	5.0592	9.6825e-07	14.033	-22.145	42.586	9.138	-142.768	-33.483	-53.820	-151.492	-137.808	40.923	99.403	-138.026	-127.572	-151.513	-127.712	-140.604	-128.819	-8191	255	
2725.663	1	1	0	0	0.061008	0.16533	0.12653	0.15234	0.04298	0.15835	0.059923	0.039207	0.087469	0.15786	0.12976	0.16687	0.13787	0.070487	0.158	0.067299	-2.6083	-2.6146	-2.9167	-3.0604	-2.6083	-3.1063	-2.8563	-2.6854	-3.15	-2.7667	-2.8646	-2.9562	-2.8	-2.9542	-3.0229	-2.8042	157.476	64.108	-101.037	-139.367	27.067	-117.390	133.040	203.323	19.831	-46.810	-85.980	150.491	-12.561	-93.112	0.094	161.263	0.0002491	0.035755	3.7667e-05	216.42	4.852e-06	8.1764e-07	332.69	58.338	2.0486e-06	5.3274e-06	117.48	38.084	29.3	4.7088	4.3087e-06	13.477	6.7282e-05	0.0033363	1.7938e-05	228.83	1.0009e-06	7.1695e-07	635.07	61.786	7.0483e-07	1.0517e-06	119.58	39.598	87.135	5.1024	9.8226e-07	14.094	-28.556	48.110	-52.471	-142.684	-11.377	113.096	-152.440	-137.734	-63.933	79.710	-137.566	-133.331	-134.770	-127.792	-119.540	-128.789	-8191	255	
2725.760	1	1	0	0	0.09387	0.090776	0.20526	0.06222	0.054682	0.29882	0.12027	0.28982	0.094714	0.41726	0.14608	0.12962	0.1325	0.090149	0.20399	0.042464	-2.5708	-2.7771	-3.0208	-2.7208	-2.5979	-2.9771	-2.9667	-2.725	-3.0292	-2.6896	-2.7729	-2.7771	-2.8396	-2.9896	-2.8708	-2.6792	127.715	156.970	202.152	109.422	-31.657	24.363	84.173	-35.728	200.783	-9.627	-100.146	118.345	-34.221	92.426	14.804	145.233	0.00019115	0.037291	4.3087e-05	218.18	7.3442e-06	8.9941e-07	326.05	58.562	5.6948e-07	4.7796e-06	117.44	38.093	30.003	4.7397	2.5015e-06	13.431	6.7691e-05	0.0035635	1.831e-05	230.05	1.0503e-06	7.0949e-07	600.28	62.07	7.0831e-07	1.0077e-06	119.83	39.629	91.652	5.1114	8.7095e-07	14.165	-20.629	52.540	68.533	-142.683	13.271	11.868	-142.156	-137.515	0.865	68.529	-138.212	-133.316	-131.402	-127.463	111.002	-129.152	-8191	255	
2725.856	1	1	0	0	0.36943	0.096684	0.12139	0.18655	0.087543	0.14337	0.24065	0.18567	0.32386	0.2003	0.12594	0.26628	0.11205	0.26348	0.085382	0.099579	-2.4854	-2.5896	-3.0875	-3.0958	-2.6729	-2.9854	-2.8083	-2.5521	-3.0438	-3.0229	-2.7479	-3.1604	-2.9083	-3.0333	-2.7562	-2.7146	11.112	-127.405	-153.957	147.319	-39.818	129.679	-145.719	-155.583	-79.355	-142.249	-126.182	78.826	81.091	98.651	138.974	39.207	0.00026372	0.035839	6.8498e-05	220.23	6.9236e-06	1.4445e-06	326.1	62.728	1.7857e-06	4.5369e-06	118.06	38.184	29.154	4.7401	1.9594e-06	13.426	6.726e-05	0.0033433	1.9926e-05	230.6	1.0639e-06	7.1059e-07	431.33	121.98	7.1472e-07	9.7993e-07	120.83	39.739	87.143	5.1217	6.9735e-07	14.285	-16.305	59.425	57.406	-142.882	-7.035	-22.900	-141.866	-156.350	79.580	116.741	-137.824	-133.587	-129.442	-127.870	-68.172	-128.704	-8191	255	
2725.976	1	1	0	0	0.15777	0.11245	0.23222	0.17509	0.20747	0.097896	0.30281	0.1926	0.10006	0.18381	0.16899	0.08056	0.11193	0.27044	0.19259	0.1032	-2.425	-2.7542	-3.0146	-3.0792	-2.55	-2.9083	-2.8438	-2.5833	-2.8917	-2.7271	-2.9396	-3.0854	-2.6979	-2.8271	-2.7667	-2.5875	-101.928	-82.819	-103.394	-55.413	51.223	-39.591	173.236	95.114	59.683	125.785	-110.390	-113.096	68.079	168.910	88.594	138.815	0.00030263	0.037811	2.898e-05	218.18	6.097e-06	1.9029e-06	321.98	64.717	1.0477e-06	4.4153e-06	116.52	37.836	29.56	4.6995	1.1847e-06	13.384	6.7824e-05	0.0035249	1.9965e-05	230.4	1.0453e-06	6.9886e-07	338.63	165.87	7.2037e-07	9.747e-07	119.71	39.476	90.666	5.0673	6.8674e-07	14.176	-13.554	62.913	37.130	-142.849	1.079	-35.553	-142.884	-152.996	-95.357	111.890	-138.061	-133.419	-127.842	-128.328	7.796	-128.822	-8191	255	
2726.048	1	1	0	0	0.13958	0.12576	0.1503	0.053994	0.13054	0.054281	0.032292	0.10272	0.1671	0.061237	0.15786	0.089194	0.17301	0.10725	0.31891	0.12671	-2.8875	-2.9	-2.7958	-3.0917	-2.8812	-2.9333	-3	-2.7812	-3.1188	-2.8521	-2.8708	-3.2167	-2.65	-2.8563	-2.9333	-2.7625	115.262	-64.347	179.922	152.287	-34.034	-152.124	-155.835	31.115	-104.140	150.504	-6.257	-18.715	125.431	-48.651	-104.694	-76.568	0.00028283	0.029323	8.4309e-05	216.1	8.2089e-06	2.5045e-06	319.18	67.074	3.6448e-06	2.7889e-06	116.23	37.831	28.749	4.7149	1.5079e-06	13.45	6.771e-05	0.0029339	2.0147e-05	229.05	1.0033e-06	6.9359e-07	336.34	171.79	7.0872e-07	8.3925e-07	120.06	39.468	86.301	5.1073	6.9535e-07	14.236	-14.736	18.985	-154.380	-143.122	25.781	-127.380	-142.597	-153.704	-41.711	30.217	-137.785	-133.505	-124.748	-127.722	5.228	-128.953	-8191	255	
2726.144	1	1	0	0	0.075342	0.12372	0.12459	0.15876	0.10927	0.1474	0.25293	0.13218	0.15086	0.23857	0.25593	0.27425	0.11692	0.20108	0.16312	0.19891	-2.5771	-2.9	-2.6417	-2.8875	-2.8521	-2.85	-3.0667	-2.7354	-2.9	-2.7458	-2.7542	-2.8875	-2.8771	-2.6437	-2.9938	-2.7583	-21.897	18.768	94.211	116.838	138.701	-84.657	128.096	-131.611	41.182	-89.453	-95.531	-111.079	-133.979	88.476	105.291	181.796	0.0002828	0.030198	0.010863	217.64	2.4675e-06	1.8192e-06	321.95	67.809	5.8234e-07	1.2751e-06	116.59	38.109	29.49	4.7378	1.4726e-06	13.45	6.6938e-05	0.00098357	0.00057753	229.57	9.5814e-07	7.6321e-07	337.67	166.36	6.9651e-07	6.8693e-07	121.8	39.651	91.111	5.1349	7.0421e-07	14.227	-17.137	20.973	132.724	-142.618	-0.587	60.361	-142.628	-151.557	115.797	21.272	-137.658	-133.288	-121.653	-127.365	82.993	-129.162	-8191	255	
2726.265	1	1	0	0	0.12187	0.16456	0.3609	0.12559	0.1673	0.04271	0.19455	0.182	0.071571	0.21755	0.14976	0.093427	0.17727	0.12311	0.21499	0.16869	-2.5687	-2.7896	-2.5938	-2.975	-2.7771	-2.8521	-2.9771	-2.6958	-2.8521	-3.025	-2.7271	-2.9479	-2.9646	-2.7208	-2.9938	-2.7292	-128.333	123.098	13.815	-125.344	11.829	24.414	108.800	-112.371	-127.880	19.427	145.969	-44.277	-167.158	-42.582	155.522	30.705	0.00027892	3.6608e-05	0.012103	218.5	4.1132e-06	3.464e-06	323.11	70.255	2.2102e-06	3.6561e-07	118.37	38.168	28.358	4.9175	5.4414e-08	13.553	6.7145e-05	6.3657e-05	0.00092798	230.85	9.8261e-07	7.8114e-07	339.38	173.02	7.1621e-07	7.1134e-07	122.42	39.715	75.524	5.261	7.1697e-07	14.244	-13.667	70.050	86.418	-142.544	23.592	5.876	-142.652	-152.054	-94.230	-148.467	-137.912	-132.987	-116.971	-132.116	41.794	-128.667	-8191	255	
2726.361	1	1	0	0	0.12447	0.14302	0.25557	0.049334	0.29213	0.12475	0.11227	0.26806	0.22953	0.091147	0.234	0.30991	0.17772	0.2139	0.12488	0.3029	-2.7104	-2.9417	-2.6188	-2.9604	-2.8521	-2.8479	-2.9604	-2.6604	-2.9667	-2.9125	-2.7417	-2.9521	-2.8375	-2.8458	-2.9271	-2.7604	-134.748	48.326	85.112	-143.240	59.545	142.820	180.381	-153.440	158.523	168.511	-109.436	161.549	2.031	148.463	-137.618	-124.844	0.00033436	2.7837e-05	0.012646	218.14	4.6877e-06	3.1086e-06	323.17	70.592	2.4834e-06	1.8328e-06	118.87	37.88	29.09	4.6434	2.4594e-06	13.398	7.0338e-05	6.5837e-05	0.00098073	231.21	8.5886e-07	8.709e-07	340.11	166.55	8.0838e-07	7.2132e-07	122.75	39.648	33.644	15.912	7.6045e-07	14.086	-37.514	-22.955	92.711	-142.891	10.881	54.195	-142.779	-149.520	-9.425	-153.050	-137.991	-133.311	-115.616	-130.182	18.886	-128.797	-8191	255	
2726.457	1	1	0	0	0.13102	0.14756	0.24198	0.11711	0.13003	0.10602	0.24927	0.11407	0.18618	0.48853	0.161	0.17019	0.1667	0.055901	0.21154	0.23782	-2.4083	-3.1146	-2.5417	-2.8833	-2.875	-2.7375	-3.0979	-2.8937	-2.8479	-3.2729	-2.7812	-3.1021	-3.0667	-2.7854	-3.1583	-2.7146	-99.305	135.698	35.750	-136.334	113.129	-157.545	-13.877	-157.855	84.946	101.940	-131.919	150.967	-143.685	27.822	6.435	178.370	0.00025232	0.00011179	0.012394	216.94	1.6608e-06	3.1017e-06	320.1	73.006	2.0622e-06	2.2735e-06	116.87	37.611	16.223	7.158	1.043e-06	13.35	7.8081e-05	6.7353e-05	0.00093669	229.15	7.3231e-07	1.0852e-06	337.2	173.96	8.408e-07	7.6074e-07	121.71	39.286	17.218	21.795	7.7776e-07	14.137	-12.337	-89.613	100.107	-142.942	-99.755	50.486	-142.663	-149.894	-77.724	-56.359	-137.943	-133.260	-134.182	-111.420	122.762	-128.696	-8191	255	
2726.576	1	1	0	0	0.10883	0.16689	0.27036	0.39714	0.17311	0.13622	0.25808	0.16824	0.11582	0.097647	0.03696	0.062195	0.344	0.21194	0.22204	0.069445	-2.5479	-2.9625	-2.8438	-2.9375	-2.9708	-2.6437	-3.1167	-2.8229	-2.8083	-2.8896	-2.9021	-2.9708	-3.0042	-2.7229	-3.0333	-2.7146	76.735	184.045	21.751	197.054	44.239	-50.072	15.374	-62.330	167.745	-125.720	-105.490	75.099	174.448	44.628	165.421	84.796	0.00032442	5.2733e-05	0.012775	215.55	8.0401e-07	6.2155e-06	320.51	66.17	0.00042991	1.6423e-06	117.15	37.602	16.226	7.1597	2.3233e-06	13.332	7.8765e-05	7.0524e-05	0.0010139	229.01	7.601e-07	1.1408e-06	337.06	147.81	2.7071e-06	7.7928e-07	121.13	39.363	17.284	22.988	7.8406e-07	14.015	-10.614	-74.498	104.549	-142.794	140.211	25.912	-142.646	-135.174	-134.016	-10.082	-137.891	-133.263	-134.196	-108.682	4.246	-128.481	-8191	255	
2726.672	1	1	0	0	0.26741	0.11989	0.27804	0.088882	0.18569	0.14539	0.10006	0.24041	0.10267	0.15246	0.085972	0.15675	0.11011	0.11892	0.15197	0.10299	-2.4354	-2.9146	-2.8583	-2.8917	-2.7833	-2.775	-2.9813	-2.9437	-2.8708	-3.1042	-2.925	-2.9333	-2.8646	-2.7292	-2.9167	-3.1437	-117.408	107.142	78.074	-140.164	96.597	1.687	180.400	-119.979	169.501	61.244	92.845	80.195	183.713	171.089	128.283	121.677	0.00034539	0.00011537	0.012214	216.65	2.0469e-06	6.9407e-06	321.81	67.307	0.00044575	6.5451e-08	117.04	37.769	16.336	6.9114	1.7821e-06	13.406	8.9668e-05	7.1835e-05	0.00096366	229.49	7.8118e-07	1.1611e-06	338.14	81.761	2.7177e-05	8.001e-07	121.64	39.604	17.441	22.02	7.994e-07	13.998	-15.574	132.453	109.815	-142.987	113.292	48.080	-142.516	-134.089	-132.535	-57.655	-138.455	-133.128	-133.273	-106.739	94.696	-128.824	-8191	255	
2726.744	1	1	0	0	0.045079	0.20727	0.15945	0.17193	0.281	0.13672	0.15252	0.34617	0.27653	0.26795	0.028976	0.12109	0.14347	0.20806	0.22475	0.31414	-2.1625	-2.9688	-2.6979	-2.9854	-2.9562	-2.5625	-2.9417	-2.8958	-2.7229	-2.9792	-2.8104	-2.8875	-3.1292	-2.5917	-2.875	-3	47.805	-135.901	-130.576	107.044	-38.450	-88.001	136.518	94.299	43.133	-56.310	54.126	193.738	150.430	-5.315	168.039	166.881	0.00035119	0.00020586	0.012926	216.94	1.004e-06	4.7671e-06	322.06	57.754	0.00047445	1.0485e-06	116.28	37.642	16.128	6.7852	1.1241e-06	13.205	0.00010757	7.3476e-05	0.0010113	229.94	7.9664e-07	1.1493e-06	338.04	61.489	3.7692e-05	7.9294e-07	121.15	39.427	17.278	22.745	8.2169e-07	13.88	-13.167	-136.593	113.498	-143.016	-90.696	48.808	-142.612	-137.645	-95.122	0.397	-138.069	-133.250	-133.979	-103.354	35.379	-129.180	-8191	255	
2726.864	1	1	0	0	0.026789	0.10057	0.12201	0.18819	0.042924	0.0034744	0.24048	0.13573	0.1246	0.15366	0.21192	0.1342	0.1377	0.087132	0.19523	0.234	-2.2812	-3.1208	-2.85	-2.9208	-2.9896	-2.6	-3.1312	-3.0771	-2.8042	-3.1813	-2.7625	-2.9333	-3.0146	-2.7667	-2.8583	-2.9562	-132.721	20.920	28.412	-108.489	-112.948	187.227	197.110	154.757	151.377	-149.842	-60.054	-91.838	-128.885	53.725	175.164	146.805	0.00037205	0.00021158	0.0063997	181.1	1.3929e-06	5.633e-06	316.17	57.997	0.0005172	1.0029e-06	115.92	37.003	15.963	6.508	1.1736e-06	13.024	0.00010766	7.5588e-05	0.00072018	258.22	8.3088e-07	1.1056e-06	335.44	61.398	4.0183e-05	8.5526e-07	119.6	39.099	17.262	22.297	9.4739e-07	13.723	-7.010	-81.118	43.448	-154.593	-9.021	34.313	-142.682	-137.131	-90.717	-106.885	-138.057	-133.763	-133.416	-102.630	-81.953	-128.789	-8191	255	
2726.961	1	1	0	0	0.08292	0.22353	0.19081	0.10438	0.2181	0.070939	0.1545	0.042828	0.065368	0.15703	0.25016	0.028797	0.10225	0.052291	0.030722	0.12621	-2.3208	-2.9688	-2.8271	-2.8438	-2.8958	-2.8187	-2.8625	-3.0646	-2.8729	-2.8708	-2.9458	-2.8958	-3.1479	-2.75	-2.7479	-3.25	51.916	-87.945	-106.635	-49.349	194.188	172.207	73.273	-103.449	-39.115	-55.719	192.113	155.768	33.474	-152.200	26.072	-132.372	0.00036427	0.00010273	0.006405	179.16	2.3669e-06	6.6046e-06	315.7	57.288	0.00047912	1.4165e-06	115.45	36.804	15.924	6.3899	3.9148e-06	13.043	0.00011579	8.1554e-05	0.00015624	466.98	8.9378e-07	1.1657e-06	334.16	60.952	3.9553e-05	8.7255e-07	118.05	39.224	17.156	23.638	9.6751e-07	13.675	-1.870	-11.802	45.545	203.552	-18.612	42.275	-142.848	-137.415	-83.989	107.532	-138.069	-133.290	-133.157	-99.518	83.029	-128.908	-8191	255	
2727.057	1	1	0	0	0.23221	0.22618	0.17432	0.24117	0.10761	0.04072	0.26731	0.37297	0.11421	0.11564	0.19543	0.23252	0.098248	0.12323	0.054065	0.26266	-2.3271	-2.9958	-2.9646	-2.7938	-3.0604	-2.9854	-2.8396	-3.1437	-2.6312	-2.9792	-2.7562	-2.7229	-3.0625	-2.8292	-2.7646	-3.2812	79.551	140.771	39.722	-14.533	129.152	-70.911	-147.610	-68.503	-123.237	183.059	-56.920	27.804	-21.400	-139.382	189.473	-34.038	0.00046981	0.00014765	4.8362e-05	162.96	2.2098e-06	7.6383e-06	316.49	57.131	0.00052702	1.2893e-06	114.49	36.871	15.794	6.9417	0.0001827	13.089	0.0001171	8.2366e-05	2.2703e-05	550.1	9.0873e-07	1.1985e-06	333.44	60.86	4.2603e-05	9.0463e-07	118.24	39.397	17.225	17.669	6.5261e-06	13.759	2.226	-41.485	-49.184	-150.592	12.812	53.053	-142.816	-137.179	-79.597	29.517	-137.966	-133.408	-133.078	-103.851	158.084	-129.088	-8191	255	
2727.153	1	1	0	0	0.14283	0.28756	0.1818	0.016598	0.067782	0.22159	0.096439	0.15822	0.39518	0.069832	0.20601	0.3445	0.021931	0.05182	0.18607	0.20584	-2.4167	-2.85	-3.1	-2.7021	-2.9771	-2.875	-3.0042	-2.9479	-2.8563	-2.8646	-3.0458	-2.8792	-3.0187	-2.8646	-2.7583	-3.2375	-74.267	139.301	181.056	-17.736	-151.121	53.409	-141.862	84.876	106.135	64.835	-129.545	-151.586	-32.436	-73.856	2.193	-125.940	0.00028238	0.00022547	3.4275e-05	164.58	8.2287e-07	5.8693e-06	314.76	57.958	0.00048723	2.2062e-06	115.24	37.086	16.057	6.9593	0.00021008	13.125	0.00010996	8.7711e-05	2.2573e-05	566.25	8.8626e-07	9.8355e-07	335.01	61.234	3.9586e-05	9.5258e-07	118.4	39.47	17.245	6.6451	3.2006e-05	13.778	0.219	173.488	-8.989	-152.735	170.458	29.381	-142.621	-137.192	-75.458	25.078	-138.025	-133.272	-133.000	-102.177	160.366	-128.899	-8191	255	
2727.273	1	1	0	0	0.32799	0.068504	0.16772	0.058398	0.015189	0.13224	0.044824	0.035258	0.20575	0.15516	0.24267	0.23125	0.090891	0.23511	0.12458	0.24252	-2.3333	-2.8458	-2.9896	-2.7083	-2.9229	-2.8063	-2.4688	-2.9313	-2.7896	-2.8979	-3.1437	-2.6833	-2.8979	-2.85	-2.7	-3.0167	11.331	-143.525	-53.923	-113.409	-13.986	146.858	-110.059	147.716	56.965	58.118	193.615	-57.882	189.490	121.598	108.648	-133.959	0.00030559	0.00027391	7.1956e-05	173.31	1.1835e-06	2.5621e-06	312.2	56.78	0.00051085	3.4432e-06	115.07	36.781	15.654	4.5769	0.00051272	13.021	0.00010973	8.9126e-05	2.2482e-05	543.73	9.0108e-07	8.7778e-07	333.88	60.736	4.1187e-05	9.5955e-07	117.67	39.112	17.098	5.0283	3.9209e-05	13.733	-1.252	-35.019	-81.658	-153.392	-35.699	-14.797	-142.593	-137.304	-68.728	-21.284	-138.320	-133.625	-133.502	-127.865	78.289	-128.612	-8191	255	
2727.345	1	1	0	0	0.19097	0.24188	0.28456	0.097353	0.06007	0.045881	0.26219	0.084566	0.19457	0.12881	0.044838	0.19609	0.23987	0.048144	0.12597	0.083302	-2.2583	-2.8104	-2.9729	-2.9125	-2.9167	-3.0833	-2.6813	-3.0146	-2.8833	-2.6937	-3.025	-2.4938	-2.8833	-2.9062	-2.6792	-3.0125	-70.496	-87.576	57.666	153.708	20.023	165.566	87.040	-51.318	23.556	154.436	-91.142	69.932	161.434	118.289	-2.081	-74.116	0.00028239	0.00016989	3.7665e-05	175.21	1.4051e-06	4.0054e-06	312.31	57.177	0.00038337	0.00025656	115.26	36.634	15.446	4.5812	0.00053296	12.963	0.00010784	8.8199e-05	2.2198e-05	554.74	8.8369e-07	8.765e-07	333.8	60.843	2.591e-05	7.9906e-06	117.3	38.995	17.217	5.0415	4.0967e-05	13.702	5.876	-107.864	-43.571	-154.947	-41.015	-8.498	-142.634	-137.306	-25.432	-111.159	-137.862	-133.119	-133.798	-128.116	82.277	-129.109	-8191	255	
2727.441	1	1	0	0	0.082269	0.069543	0.10469	0.19705	0.18198	0.10324	0.052608	0.24988	0.10815	0.13242	0.03983	0.09644	0.21064	0.22399	0.22231	0.30264	-2.3771	-2.6	-2.85	-2.7292	-2.8771	-2.9688	-2.6479	-3.1458	-2.9562	-2.7417	-3.2188	-2.7625	-2.7646	-2.9542	-2.7562	-2.9417	-13.191	-61.947	110.979	-114.307	17.432	-0.480	80.736	-137.131	-2.431	180.717	45.045	112.559	113.391	118.365	-62.806	95.662	0.00025195	0.00029991	4.2104e-05	179.54	2.1235e-06	1.3007e-06	310.56	56.771	0.00042112	0.00026075	114.66	36.881	15.844	4.5891	0.00051042	13.094	9.2553e-05	0.00010032	2.2345e-05	537.11	9.6485e-07	8.8332e-07	332.77	60.655	2.5355e-06	3.3358e-05	117.69	39.244	17.364	5.0864	3.9224e-05	13.82	9.289	-80.632	-101.327	-154.773	179.117	-110.961	-142.881	-136.873	-23.468	-108.866	-138.211	-133.551	-133.831	-128.184	85.996	-129.139	-8191	255	
2727.537	1	1	0	0	0.10008	0.25451	0.13766	0.36702	0.20007	0.14488	0.10772	0.4496	0.10188	0.082827	0.27015	0.23613	0.16375	0.068371	0.21971	0.26842	-2.4521	-2.3563	-3.0104	-2.8063	-2.6354	-2.9062	-2.6312	-2.8688	-2.9562	-2.85	-3.0062	-2.9208	-2.9042	-3.1021	-2.6104	-2.9875	9.197	-88.501	43.920	-75.541	-54.792	188.927	122.456	100.057	-41.883	186.942	204.394	42.564	20.637	-55.984	27.034	-126.262	0.00020497	0.00068339	8.7941e-05	185.75	3.4557e-06	3.6075e-07	314.32	56.857	6.7107e-07	0.00043469	115.65	37.16	16.015	4.6496	0.00052516	13.175	8.3738e-05	0.00011551	2.2847e-05	556.81	9.7754e-07	8.9503e-07	335.28	60.762	9.0031e-07	3.9069e-05	118.11	39.308	17.477	5.1024	4.1283e-05	13.854	-26.382	-58.803	-153.269	202.272	-92.111	-86.898	-142.547	-137.255	125.170	-48.258	-138.158	-133.554	-133.301	-127.731	94.443	-129.457	-8191	255	
2727.656	1	1	0	0	0.18247	0.3012	0.09475	0.20091	0.15319	0.26035	0.15999	0.24392	0.17721	0.11964	0.030043	0.2809	0.011952	0.19311	0.18331	0.11322	-2.4042	-2.6896	-3.0458	-2.6146	-2.5417	-3.1583	-2.7458	-2.6792	-2.9542	-2.6146	-2.9479	-2.9208	-2.725	-3.0458	-2.7417	-2.9375	49.607	60.958	-146.530	-46.561	-62.340	-5.920	-33.157	31.592	71.037	5.536	-131.645	203.574	23.473	-67.653	-141.840	135.885	0.0002396	0.00051752	8.5403e-05	209.55	0.00055441	3.0617e-06	313.3	56.546	3.5978e-06	0.00044136	114.36	36.991	16.003	4.6739	0.00050619	13.052	8.4889e-05	0.00011505	2.2916e-05	417.53	9.7966e-06	8.9982e-07	333.49	60.833	9.1381e-07	4.1234e-05	117.56	38.899	17.697	5.0899	3.8924e-05	13.855	-14.719	-51.534	-92.529	-140.898	-146.608	-49.823	-142.862	-137.163	-70.993	-43.282	-138.071	-133.290	-134.214	-128.153	99.200	-128.932	-8191	255	
2727.752	1	1	0	0	0.0073067	0.11334	0.19692	0.24158	0.11501	0.27955	0.15071	0.19857	0.10887	0.10121	0.20868	0.16462	0.036217	0.098787	0.19289	0.2163	-2.5271	-2.6083	-2.9771	-2.8187	-2.6979	-2.8063	-2.6146	-2.65	-2.9708	-2.7333	-2.9667	-2.7979	-2.4667	-3.0271	-2.7042	-2.9542	-108.379	203.045	104.798	37.841	-72.956	-144.041	170.469	24.762	-136.416	109.905	111.321	-55.291	64.353	-37.905	-18.968	47.127	0.0002663	0.00033024	1.8916e-05	213.33	0.00057666	1.9367e-06	313	56.942	2.1924e-07	0.00041581	115.01	37.164	15.834	4.6706	0.00055301	13.064	8.4834e-05	0.00011596	2.3189e-05	224.9	3.5099e-05	9.1373e-07	332.42	61.146	9.1484e-07	3.9088e-05	118.1	38.877	18.024	5.1272	4.1081e-05	13.85	-24.626	-47.263	52.090	-143.282	-145.793	15.819	-142.523	-137.683	-61.519	-37.517	-138.176	-133.543	-133.409	-127.566	104.777	-129.093	-8191	255	
2727.849	1	1	0	0	0.28907	0.10815	0.31184	0.11717	0.17793	0.032887	0.272	0.19045	0.21224	0.19915	0.035469	0.041313	0.17899	0.024886	0.16509	0.21501	-2.6708	-2.4729	-2.7417	-2.8063	-2.9604	-2.8979	-2.6729	-2.7438	-2.7354	-2.7792	-2.9729	-2.8312	-2.6583	-2.8667	-2.7333	-2.6437	120.221	-42.061	71.306	82.348	-154.245	-147.319	50.285	-142.855	-56.930	41.611	97.062	-42.211	189.236	169.098	-83.189	-139.344	0.00020433	0.00053026	3.4436e-05	209.15	0.00050907	3.796e-06	311.77	56.451	1.4686e-06	0.00043705	114.14	36.672	15.816	4.6016	0.00046932	10.697	8.7518e-05	0.00011718	2.3484e-05	223.35	3.8703e-05	9.3399e-07	331.96	60.696	9.3677e-07	4.0894e-05	117.5	38.652	17.983	5.0856	2.2423e-05	20.413	-13.670	-47.404	-79.815	-142.687	-141.709	-44.531	-142.704	-137.363	-65.821	-32.209	-137.948	-133.756	-134.018	-127.773	67.282	-138.311	-8191	255	
2727.945	1	1	0	0	0.040661	0.07879	0.28753	0.16377	0.20464	0.11264	0.16814	0.031471	0.27291	0.079804	0.32671	0.087666	0.18962	0.12409	0.13853	0.058388	-2.5	-2.6625	-2.8583	-2.7542	-2.775	-2.9521	-2.7	-2.7104	-3.0542	-2.8979	-2.8104	-2.8125	-2.6188	-2.9437	-2.8896	-2.6646	-99.110	70.012	71.289	-123.046	53.233	198.895	13.297	-139.184	-18.678	-79.144	5.277	203.230	114.996	-15.481	-25.800	16.278	0.00024004	0.0001891	0.00010254	208.4	0.00053015	1.6485e-06	311.89	56.915	1.4695e-06	0.00041848	115.3	37.095	15.625	4.6309	9.5713e-07	10.573	8.7746e-05	0.00011054	2.5351e-05	224.07	4.065e-05	9.2752e-07	331.3	61.333	9.1932e-07	3.8484e-05	118.25	38.889	17.98	5.0958	9.0799e-07	36.181	-16.449	-20.927	19.978	-142.835	-138.266	-58.501	-142.421	-137.422	48.873	-27.035	-138.230	-133.519	-134.676	-127.405	-140.192	-139.707	-8191	255	
2728.041	1	1	0	0	0.26806	0.27311	0.19807	0.31632	0.26304	0.15751	0.05132	0.24776	0.05105	0.28165	0.12775	0.22077	0.028527	0.06039	0.078348	0.066813	-2.6979	-2.6229	-2.675	-2.8854	-2.6979	-2.9896	-2.9021	-2.6083	-3.1271	-2.9062	-2.8333	-3.0854	-2.5604	-2.8708	-2.7104	-2.75	-74.288	148.996	170.119	77.152	-81.057	21.851	-133.014	84.004	-1.961	169.418	-112.440	168.457	24.978	3.272	-140.089	122.327	0.00022743	0.00040301	4.2335e-05	210.58	0.00049916	3.0864e-06	312.56	56.362	2.6059e-06	0.00042769	114.27	36.908	15.728	4.6478	2.0308e-06	9.1554	8.661e-05	0.00010875	2.5292e-05	224.19	3.8445e-05	9.2015e-07	330.29	61.598	9.3588e-07	4.0798e-05	118.13	38.759	17.964	5.122	9.3428e-07	37.728	-19.909	-45.334	-33.585	-142.798	-129.653	27.933	-142.770	-137.147	-17.661	-20.952	-137.978	-133.450	-133.694	-127.203	-90.743	-121.176	-8191	255	
2728.137	1	1	0	0	0.36009	0.019297	0.19504	0.052933	0.17734	0.13821	0.29154	0.15984	0.0069861	0.034345	0.33688	0.1533	0.060818	0.091362	0.21508	0.27044	-2.4146	-2.5854	-2.9062	-2.8125	-2.7396	-2.95	-2.9292	-2.6833	-3.0583	-2.7521	-2.6063	-3.0167	-2.5854	-2.8625	-3.0396	-2.7021	-4.661	-57.768	64.434	78.659	51.768	-58.310	109.786	56.992	-12.375	-13.241	-125.955	-39.133	66.318	-149.036	45.976	68.449	0.00018096	0.00027329	9.2253e-05	209.46	0.00053734	4.5633e-06	312.45	56.368	1.9011e-06	0.00042139	121.71	36.937	15.858	4.664	1.043e-06	8.8893	8.8982e-05	0.0001079	2.559e-05	223.26	4.0717e-05	9.5802e-07	329.78	61.559	9.4234e-07	2.0834e-05	196.86	38.876	17.886	5.1814	9.5776e-07	39.175	-24.669	-25.364	-35.688	-142.883	-124.568	-128.639	-142.699	-137.187	98.275	-2.572	-142.678	-133.325	-133.898	-127.673	93.098	-123.251	-8191	255	
2728.258	1	1	0	0	0.224	0.17733	0.21646	0.25399	0.036078	0.24221	0.20726	0.24235	0.08768	0.12366	0.096451	0.086068	0.14615	0.11245	0.054489	0.15062	-2.5125	-2.875	-2.8688	-2.9	-2.8229	-2.9771	-2.9583	-2.6437	-2.9167	-2.8792	-2.6562	-2.975	-2.7271	-2.7083	-3.1292	-2.7562	-54.030	202.040	186.270	-125.162	82.689	26.921	72.551	131.996	-132.444	-130.796	-81.443	106.220	102.389	-26.749	125.287	-140.786	0.00024711	0.00028249	0.0001076	209.79	0.00050844	3.4773e-06	311.05	56.012	9.5165e-07	2.7725e-06	120.63	36.654	15.98	4.6281	2.696e-06	8.9808	9.1794e-05	9.3316e-05	3.0906e-05	223.63	3.8947e-05	1.0602e-06	329.67	61.524	9.8581e-07	9.7778e-07	362.26	38.704	17.812	5.1514	9.7869e-07	37.746	-16.629	-71.622	-21.220	-142.236	-120.235	-81.321	-142.875	-137.093	-88.125	-49.737	-141.540	-133.528	-133.715	-127.972	-25.845	-125.392	-8191	255	
2728.354	1	1	0	0	0.11293	0.064171	0.085107	0.22228	0.14674	0.21547	0.1468	0.13402	0.38406	0.085091	0.041782	0.10421	0.1436	0.13149	0.14504	0.15552	-2.4396	-2.8896	-2.4604	-3.1063	-2.8333	-2.5938	-2.9583	-2.6292	-2.7	-2.8604	-2.6958	-2.8958	-2.6125	-2.6063	-2.8937	-2.6833	81.493	166.044	83.332	155.135	150.586	152.462	62.232	53.651	-142.149	32.814	8.427	-109.704	114.033	166.263	-54.282	-89.694	0.00023028	6.9963e-05	0.0001102	208.79	0.00054418	6.3432e-06	312.94	56.28	1.4266e-06	6.5103e-07	151.17	36.557	15.753	4.6123	2.5382e-06	8.8127	9.2788e-05	8.8377e-05	3.4252e-05	222.85	4.0551e-05	1.0522e-06	329.94	61.558	9.9007e-07	9.7614e-07	360.27	38.591	17.674	5.1316	9.5594e-07	38.36	-12.756	-1.565	-24.495	-142.474	-115.229	-85.030	-142.538	-137.568	-16.303	80.350	-126.804	-133.686	-133.478	-128.245	-43.066	-128.539	-8191	255	
2728.448	1	1	0	0	0.084651	0.2348	0.26183	0.10002	0.39795	0.0090274	0.16931	0.056454	0.21845	0.16603	0.10733	0.26153	0.15622	0.079952	0.24586	0.16683	-2.7792	-2.8187	-2.3854	-3.0083	-2.7729	-2.8854	-3.0604	-2.5917	-2.7771	-2.9104	-2.6146	-2.9437	-2.8917	-2.5521	-2.9604	-2.8583	-14.644	121.269	-9.518	7.104	-65.290	181.609	98.410	149.296	164.017	-139.528	33.770	160.730	-53.091	122.696	82.787	173.064	0.00030761	0.00026477	0.0001627	208.8	0.00015056	0.00049597	311.54	56.457	1.4554e-06	7.0962e-07	151.92	36.639	15.952	4.5935	3.3623e-06	9.0867	9.3356e-05	8.5728e-05	3.2462e-05	223.52	1.8383e-05	1.4404e-05	329.55	61.243	1.0069e-06	9.1554e-07	366.97	38.591	17.283	5.1771	9.2122e-07	36.707	-39.085	-46.830	-27.534	-142.594	-32.030	-132.934	-142.829	-137.427	-121.452	29.465	-124.588	-133.637	-133.347	-128.195	-40.736	-130.436	-8191	255	
2728.546	1	1	0	0	0.045616	0.34093	0.09854	0.047279	0.11821	0.17994	0.27885	0.3378	0.14919	0.2136	0.056377	0.09424	0.23947	0.2161	0.12689	0.067039	-2.1	-2.9938	-2.6417	-2.9688	-2.7188	-2.6562	-3.0312	-2.5646	-2.7208	-2.8854	-2.7229	-2.8438	-2.7812	-2.6229	-3.0292	-2.8521	142.385	-134.063	128.386	205.072	96.734	13.971	134.254	-125.183	-109.471	-32.991	-40.194	147.780	46.269	173.504	122.512	-1.844	0.00024365	0.00015957	0.00017476	208.58	1.2552e-06	0.00048968	313.82	57.026	8.491e-07	5.5191e-07	144.83	36.913	16.175	4.6448	1.623e-07	8.9505	9.2094e-05	8.4743e-05	3.2005e-05	222.79	8.9921e-07	3.8863e-05	329.91	61.486	9.8457e-07	9.025e-07	354.7	38.729	17.307	5.267	9.2422e-07	37.942	-30.697	12.223	-4.427	-142.618	-26.793	-131.982	-142.521	-136.814	39.422	-138.339	-123.553	-133.578	-133.497	-127.633	12.982	-133.825	-8191	255	
2728.641	1	1	0	0	0.12527	0.1549	0.075855	0.051294	0.020011	0.17862	0.12714	0.099346	0.14652	0.2263	0.13361	0.32739	0.18641	0.21261	0.20793	0.29608	-2.4979	-2.975	-2.6521	-2.8146	-2.9562	-2.7708	-2.9625	-2.85	-2.6917	-2.9396	-2.7583	-3.0167	-2.9104	-2.5458	-2.9042	-2.8438	123.145	190.679	84.174	35.081	116.624	10.545	-148.633	148.953	106.699	-38.442	172.255	91.297	-96.074	-92.749	134.278	130.444	0.00028218	0.00011896	0.0002195	210.32	2.0636e-06	0.00048391	312.88	57.028	3.2974e-06	2.7622e-07	147.02	36.782	15.839	4.675	2.5282e-06	11.834	9.2608e-05	8.3017e-05	3.2174e-05	223.75	9.1536e-07	3.7194e-05	330.49	61.333	1.0248e-06	9.1804e-07	365.4	38.77	17.194	5.2768	9.1757e-07	23.652	-39.826	127.122	7.848	-142.514	-61.154	-103.932	-142.899	-137.115	171.432	47.183	-121.817	-133.372	-133.218	-128.125	4.866	-117.842	-8191	255	
2728.737	1	1	0	0	0.037114	0.17586	0.32737	0.30965	0.089665	0.19783	0.22358	0.070537	0.14552	0.088966	0.17405	0.11553	0.054747	0.18175	0.051326	0.37177	-2.35	-2.9771	-2.6375	-2.8	-2.8333	-2.6396	-2.9875	-2.7896	-2.7062	-3.1312	-2.8604	-2.7604	-3.0729	-2.6083	-2.8917	-2.9562	-7.472	-32.343	-40.285	-128.360	113.871	-131.073	-112.853	7.466	-96.038	135.800	-151.767	-87.748	21.796	56.461	-101.800	14.595	0.012545	0.0002522	7.3748e-05	210.04	6.0917e-07	0.00051572	313.74	56.907	2.6368e-06	2.816e-07	140.57	36.794	15.734	4.6453	3.0323e-06	13.134	0.0014243	8.4276e-05	3.0126e-05	224.74	9.1876e-07	3.9091e-05	331.67	61.003	1.1818e-06	9.2809e-07	350.93	38.808	17.251	5.2636	9.1687e-07	13.808	-89.856	-39.388	7.622	-142.800	33.977	-98.923	-142.673	-137.134	204.210	188.304	-121.436	-133.727	-133.667	-128.103	-22.245	-128.973	-8191	255	
2728.833	1	1	0	0	0.25611	0.15943	0.18129	0.24705	0.23808	0.22169	0.26741	0.13929	0.23751	0.14226	0.16131	0.035853	0.23589	0.1162	0.11944	0.14175	-2.1896	-3.0417	-2.7646	-2.6583	-3.0458	-2.6625	-2.8125	-2.8521	-2.4875	-3.0458	-2.9125	-2.7854	-2.9042	-2.6333	-2.8896	-2.8021	178.059	86.752	-83.951	129.289	15.599	-71.356	176.572	79.598	-29.829	47.207	13.239	121.117	-146.337	-71.597	114.387	-41.848	0.013223	0.0001185	9.759e-05	210.68	1.54e-06	0.0004868	312.2	56.798	2.9433e-06	7.7979e-07	135.39	36.439	15.708	4.5667	1.971e-06	12.963	0.0034395	8.2801e-05	2.9347e-05	225.3	8.8678e-07	3.6057e-05	331.17	60.595	1.2291e-06	8.7773e-07	355.66	38.543	17.05	5.1514	8.94e-07	13.657	-122.647	-103.979	18.182	-142.517	-154.194	-92.704	-142.874	-137.194	162.288	62.573	-118.420	-133.715	-134.310	-127.718	68.252	-129.110	-8191	255	
2728.953	1	1	0	0	0.05644	0.11962	0.15228	0.066573	0.24347	0.092519	0.14031	0.034448	0.073909	0.095689	0.18902	0.29616	0.29795	0.15047	0.22373	0.17604	-2.3833	-2.7396	-2.6792	-2.8354	-2.9917	-2.7042	-2.9708	-3.0438	-2.7062	-2.9417	-2.7917	-2.6813	-3.1104	-2.6562	-2.6396	-2.9396	67.791	57.640	-23.323	87.960	190.691	-33.660	197.591	-111.221	89.033	147.227	-49.331	-63.475	3.323	49.637	-104.415	34.693	0.012645	9.9777e-05	0.00010451	211.86	8.5467e-08	0.00050303	312.97	57.16	5.1641e-06	1.7177e-06	140.99	35.462	15.784	4.6564	3.9586e-06	13.023	0.0032348	8.1775e-05	2.7109e-05	225.4	8.9592e-07	3.8175e-05	330.88	60.655	1.2266e-06	8.9506e-07	205.87	60.984	17.094	5.1703	9.6146e-07	13.693	-116.917	-55.391	-36.922	-142.630	144.940	-86.359	-142.881	-137.654	191.598	-12.869	-120.010	-133.379	-133.519	-127.654	-34.281	-128.250	-8191	255	
2729.050	1	1	0	0	0.29455	0.32606	0.033564	0.13139	0.15396	0.11384	0.21461	0.1949	0.12547	0.13876	0.013047	0.12966	0.30427	0.22274	0.25032	0.12645	-2.3292	-2.8771	-2.8979	-2.6729	-2.9833	-2.9375	-2.7771	-3.025	-2.6083	-2.9708	-2.8417	-2.5104	-3.0042	-2.7354	-2.6771	-2.9479	35.466	27.001	-99.154	-4.291	20.727	60.427	102.368	118.494	-90.368	14.861	182.810	-91.884	168.384	148.160	-16.722	70.293	0.013311	5.7688e-05	0.00011553	211.92	1.152e-06	0.00049136	313.85	57.233	3.6648e-06	7.4478e-07	114.8	39.759	15.87	4.5958	3.5355e-06	13.057	0.0034129	8.143e-05	2.2998e-05	227.26	8.9223e-07	3.605e-05	332.26	60.767	1.2414e-06	8.846e-07	117.57	90.025	17.15	5.1788	9.5902e-07	13.727	-111.334	-93.581	-31.190	-142.539	65.824	-79.999	-142.803	-137.715	185.514	-145.646	-137.585	-119.468	-133.667	-127.833	-4.623	-129.361	-8191	255	
2729.146	1	1	0	0	0.25447	0.034429	0.01933	0.17144	0.17622	0.44149	0.13742	0.066292	0.082103	0.37856	0.15142	0.078945	0.14166	0.2313	0.055065	0.099651	-2.4854	-2.8021	-2.9271	-2.7167	-3.0458	-2.8583	-2.7458	-2.9375	-2.6042	-2.7333	-2.8438	-2.775	-2.9417	-2.8375	-2.5563	-2.95	-24.659	28.997	-14.971	5.389	-84.426	-57.636	147.313	-56.943	-131.702	-142.561	-119.759	47.244	88.140	188.643	192.893	-64.614	0.012511	0.00020757	5.7938e-05	212.79	1.0288e-06	0.00030558	316.04	57.087	2.9389e-06	2.11e-06	114.71	38.444	15.907	4.5805	4.3819e-06	12.93	0.0032334	8.1823e-05	2.2809e-05	228.82	9.034e-07	3.6652e-05	334.57	61.004	1.2137e-06	9.1465e-07	118.21	87.679	17.208	5.1589	1.0367e-06	13.718	-103.280	-42.236	162.837	-142.495	2.905	-27.385	-142.834	-137.441	-149.282	-30.919	-138.083	-120.383	-133.178	-127.435	-50.651	-128.932	-8191	255	
2729.217	1	1	0	0	0.35427	0.072956	0.085899	0.13868	0.18289	0.11367	0.050209	0.13027	0.10673	0.14655	0.20208	0.12383	0.1539	0.204	0.13449	0.11175	-2.2625	-2.8167	-2.7521	-2.7729	-2.9292	-2.7125	-2.7125	-2.7792	-2.7375	-2.9146	-2.9708	-2.6437	-2.9958	-2.7667	-2.7208	-3.1021	14.687	-28.516	-82.253	-95.240	-36.303	-106.942	-147.612	-115.217	95.022	-149.782	-148.935	33.722	-89.847	-9.598	80.701	43.058	0.01338	0.00021528	4.8667e-05	211.74	1.0582e-06	0.00032153	341.27	56.883	2.4599e-06	1.6458e-06	114.24	37.411	15.596	4.6148	5.2935e-06	12.944	0.0034094	9.1022e-05	2.2996e-05	228.8	9.0966e-07	1.2983e-05	471.96	60.907	1.1881e-06	9.9448e-07	117.55	89.622	17.126	5.0541	1.1874e-06	13.631	-100.008	154.855	5.258	-142.589	-63.152	-21.842	-147.589	-137.165	170.083	-116.884	-137.953	-119.013	-133.544	-127.588	-24.983	-128.764	-8191	255	
2729.338	1	1	0	0	0.17433	0.093596	0.13078	0.16511	0.063318	0.18833	0.23642	0.13196	0.069608	0.21243	0.14035	0.17294	0.095839	0.068705	0.42386	0.058918	-2.1562	-2.7271	-3.0542	-2.6854	-2.8812	-2.7833	-2.6708	-2.9271	-2.7729	-2.7667	-2.9271	-2.6729	-2.9313	-2.9938	-2.6354	-3.0896	60.233	-53.698	17.016	70.918	20.139	-36.580	-111.464	-125.853	77.159	-63.975	152.557	62.806	143.451	199.232	-60.010	176.302	0.012405	0.0001181	2.2588e-05	210.62	2.9562e-07	1.3634e-06	367.51	57.055	2.2446e-06	1.2817e-06	114.49	37.432	15.687	4.5785	6.2895e-06	12.991	0.0031945	8.9248e-05	2.2763e-05	227.4	9.0294e-07	8.8902e-07	617.48	60.555	1.1513e-06	9.5952e-07	117.38	86.571	17.084	5.0659	1.2399e-06	13.665	-94.136	173.734	-104.493	-142.371	33.495	68.234	-143.099	-137.508	163.741	-92.715	-138.222	-120.347	-133.417	-127.718	-31.011	-128.566	-8191	255	
2729.434	1	1	0	0	0.10325	0.097028	0.12811	0.089322	0.052198	0.155	0.14139	0.25109	0.33319	0.069074	0.14545	0.17991	0.085366	0.16168	0.087009	0.042703	-2.3312	-2.7562	-2.9146	-2.4229	-2.8563	-2.8729	-2.6688	-2.8625	-2.8063	-2.8708	-2.9333	-2.7646	-2.7958	-3.0979	-2.6542	-3.0479	-131.366	80.630	85.568	158.027	191.745	69.666	193.638	183.358	171.570	-73.256	64.779	-109.300	122.412	94.141	48.107	165.590	0.0039782	0.00020626	3.495e-05	210.87	1.0343e-06	4.4373e-06	366.58	57.132	1.4262e-06	4.5894e-06	115.09	36.094	15.775	4.5973	6.6175e-06	13.023	0.003089	8.9504e-05	2.2723e-05	227.32	8.983e-07	8.8259e-07	605.89	60.839	1.043e-06	1.0342e-06	117.77	89.307	17.286	5.0663	1.2204e-06	13.694	179.667	192.777	-71.681	-142.431	-0.159	11.994	-142.273	-137.761	150.406	180.012	-138.161	-119.396	-133.186	-128.051	-27.442	-128.341	-8191	255	
2729.529	1	1	0	0	0.12041	0.1558	0.30514	0.21466	0.13762	0.22323	0.20845	0.25425	0.036713	0.13614	0.15385	0.20508	0.16512	0.053776	0.097027	0.086076	-2.4146	-2.6333	-2.9896	-2.7896	-2.9021	-3.0187	-2.6813	-2.8208	-2.7792	-2.7708	-2.9437	-2.7917	-2.7625	-3.0729	-2.7292	-2.8458	9.433	116.689	-34.492	96.379	22.297	2.138	154.697	151.024	-47.739	102.746	65.401	154.113	-110.148	101.867	203.872	129.114	0.0032274	0.037131	4.2407e-05	212.88	4.2768e-06	3.4912e-06	370.96	57.59	4.2428e-06	4.576e-06	115.66	35.677	16.042	4.625	4.8074e-06	13.026	0.0010049	0.0018253	2.2579e-05	229.02	9.6887e-07	8.821e-07	621.86	61.143	8.9096e-07	1.1829e-06	118.77	86.797	17.397	5.1036	1.2343e-06	13.78	174.994	159.369	-96.570	-142.732	110.116	26.169	-141.776	-137.496	-22.030	-154.156	-137.916	-119.621	-133.506	-127.174	-25.395	-128.551	-8191	255	
2729.626	1	1	0	0	0.3659	0.22324	0.15967	0.083528	0.28428	0.081349	0.1341	0.23719	0.17579	0.24372	0.22271	0.1509	0.29509	0.028927	0.21956	0.22748	-2.4354	-2.6083	-2.8896	-2.8667	-2.7542	-3.0021	-2.8	-2.8917	-2.8083	-2.6896	-2.9854	-2.8521	-2.7333	-2.9083	-2.525	-2.9708	140.745	-138.415	111.548	-111.702	-55.044	183.000	29.715	30.380	124.205	-152.627	187.766	-133.774	50.684	136.009	-152.267	6.690	0.00022945	0.037057	5.0417e-05	213.5	2.6713e-06	2.0835e-06	368.4	57.193	8.7523e-07	6.6229e-06	115.16	39.499	15.755	4.5665	4.1352e-06	13.004	8.4425e-05	0.0034546	2.3119e-05	229.18	9.8205e-07	9.0238e-07	609.36	61.208	9.159e-07	1.2422e-06	118.3	82.83	17.362	5.0517	1.1867e-06	13.671	-39.955	149.734	32.319	-142.732	86.658	-99.276	-140.394	-137.634	-14.839	197.852	-137.669	-120.173	-134.751	-127.246	19.064	-128.722	-8191	255	
2729.745	1	1	0	0	0.0698	0.041913	0.16573	0.21483	0.11581	0.20438	0.14421	0.09102	0.12173	0.23255	0.22741	0.043143	0.12078	0.1864	0.432	0.154	-2.4958	-2.4354	-2.875	-2.5771	-2.6875	-3.0417	-2.7396	-2.7479	-2.9021	-2.6	-2.8729	-2.8521	-2.7729	-2.9021	-2.8042	-2.85	-1.630	95.079	-62.265	108.818	-114.920	-10.551	-132.600	-44.418	50.629	192.069	152.491	11.348	-61.655	-2.300	-135.680	23.389	0.00019626	0.035226	5.7222e-05	211.89	5.4962e-06	1.0483e-06	367.96	56.912	2.3107e-06	4.2119e-06	113.78	38.108	8.1737	4.5769	4.933e-06	12.986	8.4372e-05	0.0032684	2.3099e-05	227.66	1.0609e-06	9.1269e-07	621.76	60.882	9.1462e-07	1.251e-06	117.55	50.42	57.548	5.0332	1.1916e-06	13.672	-16.080	156.425	-85.786	-142.462	170.618	-104.541	-139.790	-137.740	-84.084	188.874	-137.800	-120.323	-132.156	-127.620	-20.752	-128.721	-8191	255	
2729.842	1	1	0	0	0.080707	0.25344	0.049725	0.14779	0.4204	0.18207	0.097335	0.14254	0.23535	0.079654	0.12054	0.15012	0.20545	0.23321	0.36399	0.048653	-2.6604	-2.6708	-2.8417	-2.7562	-2.7625	-2.9979	-2.8937	-2.6688	-3.0271	-2.6396	-2.9667	-3.0375	-2.5812	-2.9604	-2.7687	-2.7771	187.300	-20.428	-149.971	-153.373	-60.448	186.995	196.045	32.836	33.954	139.451	-38.135	36.625	-127.703	46.107	184.427	-147.673	0.00025776	0.036235	5.6733e-05	212.33	2.1283e-06	1.4774e-06	363.22	56.818	1.8212e-06	4.2759e-06	114.69	36.751	16.999	4.5819	6.1489e-06	12.869	8.5331e-05	0.0034561	2.313e-05	225.99	1.2096e-06	9.2077e-07	606.27	60.926	9.1335e-07	1.2599e-06	117.76	38.555	89.13	5.0525	1.1799e-06	13.657	-16.172	161.054	-44.498	-142.682	139.918	6.541	-139.354	-137.333	-60.770	-134.481	-138.023	-133.364	-87.455	-127.461	-27.665	-128.246	-8191	255	
2729.938	1	1	0	0	0.14416	0.053171	0.14125	0.10917	0.42501	0.21697	0.20634	0.1793	0.19977	0.2199	0.12746	0.10368	0.094453	0.27671	0.12397	0.1178	-2.5875	-2.7083	-2.8771	-2.8167	-2.5042	-3.0417	-2.725	-2.7167	-3.0646	-2.6771	-2.8583	-2.9208	-2.6542	-2.9958	-2.7833	-2.7104	116.061	-144.381	181.824	90.618	157.087	189.807	121.406	-77.005	106.505	-72.948	-148.771	12.119	40.119	-99.961	-5.412	-1.734	0.0001959	0.034653	9.3821e-05	213.25	4.3304e-06	5.9276e-08	347.27	63.13	1.0176e-06	3.479e-06	115.05	37.131	15.336	4.5585	3.3199e-06	13.118	8.757e-05	0.0032995	2.3585e-05	226.95	1.2622e-06	9.3905e-07	573.7	63.717	9.3143e-07	1.1986e-06	118.72	38.84	86.407	5.0953	1.0827e-06	13.859	-13.027	166.524	-56.736	-142.983	85.809	17.375	-135.984	-142.550	-45.602	-101.495	-138.240	-133.689	-86.321	-128.125	40.981	-128.681	-8191	255	
2730.034	1	1	0	0	0.23045	0.099954	0.18353	0.13313	0.37211	0.096962	0.18681	0.19191	0.44864	0.15511	0.20883	0.14992	0.16205	0.035094	0.22724	0.47809	-2.5333	-2.6208	-2.7917	-3.0146	-2.6625	-3.0583	-2.9771	-2.6875	-3.0625	-2.8604	-2.9479	-3.1271	-2.7021	-2.9062	-2.8271	-2.5396	58.297	83.201	7.687	17.489	53.998	-94.988	162.150	134.675	-23.548	-77.256	153.344	182.084	74.813	10.874	-79.884	49.993	0.00026709	0.035942	2.3174e-05	214.17	6.5182e-06	3.9838e-06	345.3	63.182	1.1876e-06	2.3136e-06	115.64	37.077	14.517	4.6247	6.5599e-07	13.112	8.8811e-05	0.0035043	2.5648e-05	228.3	1.2771e-06	9.3271e-07	393.41	128.13	9.4101e-07	1.21e-06	119.41	38.946	90.24	5.1017	9.3467e-07	13.984	-19.383	171.219	-129.098	-142.650	98.291	-57.659	-135.731	-141.490	55.356	-123.347	-137.685	-133.324	-81.609	-128.082	-78.189	-128.877	-8191	255	
2730.130	1	1	0	0	0.18228	0.074426	0.16835	0.015049	0.25516	0.20634	0.11241	0.10755	0.10003	0.21436	0.12939	0.08654	0.15372	0.20314	0.037932	0.22569	-2.5625	-2.7375	-2.7229	-2.9938	-2.725	-2.8833	-2.9521	-2.6312	-2.9896	-2.775	-2.7062	-2.9833	-2.7417	-2.8563	-2.8917	-2.6708	13.710	210.387	-99.328	-44.225	127.528	-82.144	-8.070	-81.218	130.486	-144.087	-125.077	-65.134	-18.778	-31.560	190.286	169.638	0.00024238	0.035973	0.0001327	213.26	5.5633e-06	1.2198e-06	315.69	74.018	1.8837e-06	4.8976e-06	114.75	36.731	13.353	4.5623	3.1857e-06	13.021	8.95e-05	0.0033234	2.577e-05	227.36	1.2941e-06	9.4546e-07	334.07	169.67	9.4673e-07	1.2071e-06	118.43	38.659	85.78	5.0677	9.3285e-07	13.923	-24.229	175.963	-118.409	-142.585	101.303	-51.918	-142.821	-129.362	-59.832	-107.478	-137.744	-132.856	-83.527	-128.024	-3.219	-128.658	-8191	255	
2730.226	1	1	0	0	0.14402	0.12135	0.19311	0.10812	0.19682	0.20925	0.25605	0.18208	0.12248	0.168	0.33969	0.33591	0.019812	0.069757	0.089983	0.089095	-2.5104	-2.9167	-2.8312	-2.9708	-2.5917	-2.7104	-2.8396	-2.7	-2.8917	-2.6833	-2.6188	-2.8146	-2.6	-2.7188	-2.8438	-2.7396	14.110	61.237	-51.871	104.131	-87.566	126.257	201.349	-15.113	-70.488	104.203	-88.139	111.898	132.626	187.585	-66.826	-10.767	0.00023931	0.0049992	0.012913	212.78	4.1384e-06	8.8702e-07	314.15	72.478	5.7034e-07	4.5638e-07	114.81	36.664	11.939	4.5863	1.5806e-06	12.826	8.9325e-05	0.0027224	8.7426e-05	226.67	1.1968e-06	9.7655e-07	332.92	163.23	9.5757e-07	1.0755e-06	119.26	38.542	89.004	5.0972	9.3636e-07	13.824	-20.544	-64.005	182.307	-142.910	74.365	151.411	-142.258	-128.754	-44.435	0.046	-138.161	-133.293	-79.065	-127.688	13.936	-128.820	-8191	255	
2730.347	1	1	0	0	0.17038	0.071016	0.19318	0.15647	0.14598	0.083544	0.17498	0.086961	0.04348	0.3731	0.096294	0.26677	0.13881	0.14853	0.061295	0.1721	-2.3688	-2.7958	-2.6833	-3.1292	-2.8396	-2.8812	-3.0146	-2.7313	-2.8187	-2.7583	-2.6917	-2.9458	-2.7896	-2.8292	-2.9333	-2.5563	-6.743	-138.079	210.623	192.928	14.095	72.850	57.939	114.198	88.987	-110.108	-37.584	-84.313	93.342	-72.162	141.714	-127.324	0.00027584	0.0063942	0.012151	214.04	4.7155e-06	1.0457e-06	316.35	72.626	1.9977e-06	1.93e-06	114.61	36.67	10.596	4.6188	1.1787e-06	13.034	8.8719e-05	0.00059507	0.00063229	227.14	1.2075e-06	1.0114e-06	334.45	168.84	9.4006e-07	9.383e-07	120.42	38.73	85.486	5.1347	9.3091e-07	13.946	-26.116	-69.410	183.522	-142.503	99.614	110.586	-142.557	-127.619	-104.212	-106.364	-138.242	-133.529	-82.968	-126.938	127.946	-128.389	-8191	255	
2730.441	1	1	0	0	0.093484	0.075633	0.21422	0.16992	0.1007	0.11987	0.41916	0.05184	0.12778	0.059991	0.096986	0.25693	0.24626	0.17152	0.1969	0.21326	-2.4208	-2.7875	-2.6708	-2.8542	-2.7396	-2.6354	-3.025	-2.7229	-2.6896	-3.0125	-2.7542	-2.9292	-2.6708	-2.7396	-2.8688	-2.6604	68.599	14.406	-48.401	101.637	215.253	-50.577	168.224	88.057	2.283	-35.269	130.479	-134.880	-96.497	154.357	-142.457	170.656	0.00026214	0.00021319	0.012742	213.95	2.6745e-06	1.779e-06	318.07	70.976	5.0568e-07	1.6115e-06	116.13	37.114	19.397	2.2947	2.7528e-06	13.103	8.7119e-05	8.4087e-05	0.0009631	228.13	1.1885e-06	9.8933e-07	336.85	163.51	9.3101e-07	9.1635e-07	121.28	38.901	69.88	7.0284	9.1873e-07	13.955	-19.149	-17.503	200.176	-142.631	146.024	114.852	-142.966	-126.332	61.811	-23.979	-138.100	-133.013	-100.546	-144.249	-31.489	-128.683	-8191	255	
#DATA ENDS
