BOXY.EXE: ISS Imagent and Oximeter Data Acquisition Program Version 0.80
Ascii Record File

#ACQ INFORMATION
2  Detector Channels 
16  External MUX Channels 
1  Auxiliary Channels 
5000  Waveform (CCF) Frequency (Hz)
1  Waveforms Skipped 
30  Waveforms Averaged 
1  Cycles Averaged 
16  Acquisitions per Waveform 
10.0806  Updata Rate (Hz) 

#FILE INFORMATION
TRUE -- External MUX Channel results are PARSED.
FALSE -- AC DC and Phase are NOT grouped.
TRUE -- Companion Program Settings File CREATED.
FALSE -- AC data not excluded
FALSE -- DC data not excluded
FALSE -- Phase data not excluded
FALSE -- Auxillary Chn. data not excluded
Tab delimiters

#CALIBRATION STATE
TRUE -- Waveform Calibration Values APPLIED.


#AUX CALIBRATION VALUES
Val Type	aux-1	

Term	1.0000e+00	
Factor	0.0000e+00	


#WF CALIBRATION VALUES
A = Detector Channel
Val Type	A-AC1	A-AC2	A-AC3	A-AC4	A-AC5	A-AC6	A-AC7	A-AC8	A-AC9	A-AC10	A-AC11	A-AC12	A-AC13	A-AC14	A-AC15	A-AC16	A-DC1	A-DC2	A-DC3	A-DC4	A-DC5	A-DC6	A-DC7	A-DC8	A-DC9	A-DC10	A-DC11	A-DC12	A-DC13	A-DC14	A-DC15	A-DC16	A-Ph1	A-Ph2	A-Ph3	A-Ph4	A-Ph5	A-Ph6	A-Ph7	A-Ph8	A-Ph9	A-Ph10	A-Ph11	A-Ph12	A-Ph13	A-Ph14	A-Ph15	A-Ph16	

Term	0.00000e+00	0.00000e+00	0.00000e+00	0.00000e+00	0.00000e+00	0.00000e+00	0.00000e+00	0.00000e+00	0.00000e+00	0.00000e+00	0.00000e+00	0.00000e+00	0.00000e+00	0.00000e+00	0.00000e+00	0.00000e+00	0.00000e+00	0.00000e+00	0.00000e+00	0.00000e+00	0.00000e+00	0.00000e+00	0.00000e+00	0.00000e+00	0.00000e+00	0.00000e+00	0.00000e+00	0.00000e+00	0.00000e+00	0.00000e+00	0.00000e+00	0.00000e+00	0.00000e+00	0.00000e+00	0.00000e+00	0.00000e+00	0.00000e+00	0.00000e+00	0.00000e+00	0.00000e+00	0.00000e+00	0.00000e+00	0.00000e+00	0.00000e+00	0.00000e+00	0.00000e+00	0.00000e+00	0.00000e+00	
Factor	1.00000e+00	1.00000e+00	1.00000e+00	1.00000e+00	1.00000e+00	1.00000e+00	1.00000e+00	1.00000e+00	1.00000e+00	1.00000e+00	1.00000e+00	1.00000e+00	1.00000e+00	1.00000e+00	1.00000e+00	1.00000e+00	1.00000e+00	1.00000e+00	1.00000e+00	1.00000e+00	1.00000e+00	1.00000e+00	1.00000e+00	1.00000e+00	1.00000e+00	1.00000e+00	1.00000e+00	1.00000e+00	1.00000e+00	1.00000e+00	1.00000e+00	1.00000e+00	X	X	X	X	X	X	X	X	X	X	X	X	X	X	X	X	

B = Detector Channel
Val Type	B-AC1	B-AC2	B-AC3	B-AC4	B-AC5	B-AC6	B-AC7	B-AC8	B-AC9	B-AC10	B-AC11	B-AC12	B-AC13	B-AC14	B-AC15	B-AC16	B-DC1	B-DC2	B-DC3	B-DC4	B-DC5	B-DC6	B-DC7	B-DC8	B-DC9	B-DC10	B-DC11	B-DC12	B-DC13	B-DC14	B-DC15	B-DC16	B-Ph1	B-Ph2	B-Ph3	B-Ph4	B-Ph5	B-Ph6	B-Ph7	B-Ph8	B-Ph9	B-Ph10	B-Ph11	B-Ph12	B-Ph13	B-Ph14	B-Ph15	B-Ph16	

Term	0.00000e+00	0.00000e+00	0.00000e+00	0.00000e+00	0.00000e+00	0.00000e+00	0.00000e+00	0.00000e+00	0.00000e+00	0.00000e+00	0.00000e+00	0.00000e+00	0.00000e+00	0.00000e+00	0.00000e+00	0.00000e+00	0.00000e+00	0.00000e+00	0.00000e+00	0.00000e+00	0.00000e+00	0.00000e+00	0.00000e+00	0.00000e+00	0.00000e+00	0.00000e+00	0.00000e+00	0.00000e+00	0.00000e+00	0.00000e+00	0.00000e+00	0.00000e+00	1.37173e+01	-1.18228e+02	-1.12758e+02	-1.83080e+02	-7.15389e+01	-7.78103e+01	-1.57142e+02	-1.62015e+02	-8.64581e+01	-8.33328e+01	-1.74681e+02	-1.70893e+02	-1.86226e+02	-1.78823e+02	-6.33234e+01	-1.50760e+02	
Factor	3.86630e-05	1.07672e-04	3.58680e-05	1.52370e-01	1.43992e-06	1.45988e-06	1.51923e-01	5.45124e-02	1.38203e-06	1.18428e-06	1.31598e-01	2.66902e-02	3.84029e-02	8.59656e-03	1.43767e-06	1.22989e-02	8.31094e-07	8.48967e-07	2.35916e-07	7.55567e-02	9.27535e-09	9.30345e-09	7.09969e-02	2.68103e-02	9.28531e-09	9.29857e-09	5.97757e-02	1.26460e-02	1.79984e-02	4.20033e-03	9.30521e-09	5.78123e-03	X	X	X	X	X	X	X	X	X	X	X	X	X	X	X	X	



#DISTANCE SETTINGS
A = Detector Channel
A-1	A-2	A-3	A-4	A-5	A-6	A-7	A-8	A-9	A-10	A-11	A-12	A-13	A-14	A-15	A-16	

2.5000e+00	3.0000e+00	2.5000e+00	3.0000e+00	2.0000e+00	3.0000e+00	1.5000e+00	3.0000e+00	3.0000e+00	3.0000e+00	3.0000e+00	3.0000e+00	3.0000e+00	3.0000e+00	1.5000e+00	3.0000e+00	

B = Detector Channel
B-1	B-2	B-3	B-4	B-5	B-6	B-7	B-8	B-9	B-10	B-11	B-12	B-13	B-14	B-15	B-16	

1.0000e+01	1.0000e+01	1.0000e+01	1.4400e+00	1.0000e+01	1.0000e+01	1.5100e+00	1.9400e+00	1.0000e+01	1.0000e+01	1.9900e+00	2.4900e+00	2.4100e+00	2.9000e+00	1.0000e+01	2.9800e+00	




#DATA BEGINS
time	group	step	mark	flag	A-AC1	A-AC2	A-AC3	A-AC4	A-AC5	A-AC6	A-AC7	A-AC8	A-AC9	A-AC10	A-AC11	A-AC12	A-AC13	A-AC14	A-AC15	A-AC16	A-DC1	A-DC2	A-DC3	A-DC4	A-DC5	A-DC6	A-DC7	A-DC8	A-DC9	A-DC10	A-DC11	A-DC12	A-DC13	A-DC14	A-DC15	A-DC16	A-Ph1	A-Ph2	A-Ph3	A-Ph4	A-Ph5	A-Ph6	A-Ph7	A-Ph8	A-Ph9	A-Ph10	A-Ph11	A-Ph12	A-Ph13	A-Ph14	A-Ph15	A-Ph16	B-AC1	B-AC2	B-AC3	B-AC4	B-AC5	B-AC6	B-AC7	B-AC8	B-AC9	B-AC10	B-AC11	B-AC12	B-AC13	B-AC14	B-AC15	B-AC16	B-DC1	B-DC2	B-DC3	B-DC4	B-DC5	B-DC6	B-DC7	B-DC8	B-DC9	B-DC10	B-DC11	B-DC12	B-DC13	B-DC14	B-DC15	B-DC16	B-Ph1	B-Ph2	B-Ph3	B-Ph4	B-Ph5	B-Ph6	B-Ph7	B-Ph8	B-Ph9	B-Ph10	B-Ph11	B-Ph12	B-Ph13	B-Ph14	B-Ph15	B-Ph16	aux-1	digaux	

2652.154	1	1	0	768	0.1272	0.1033	0.081001	0.11728	0.21144	0.17021	0.14886	0.088101	0.097086	0.20612	0.14537	0.097027	0.13414	0.067796	0.25777	0.046957	-2.3042	-2.9437	-2.5375	-2.9646	-3.0042	-2.8104	-3.1063	-2.6875	-2.9313	-3.0479	-2.825	-2.8083	-2.7542	-2.7125	-3.0083	-2.825	503.731	178.204	492.787	283.259	278.737	464.380	473.269	454.284	273.029	278.427	405.274	251.310	254.580	200.153	481.649	470.884	0.015281	9.9903e-05	0.00013829	198.64	2.1017e-06	0.00058028	285.7	46.773	4.1005e-06	1.1931e-06	74.916	26.479	11.661	3.1215	1.3503e-06	9.1726	0.0031911	0.00014767	4.8097e-05	220.3	1.6058e-06	4.5276e-05	309.55	52.37	2.0768e-06	1.6085e-06	429.36	29.441	14.277	4.0937	1.6799e-06	10.272	333.433	315.053	499.522	186.565	230.424	398.857	186.241	191.782	269.112	277.710	512.130	196.200	195.754	202.436	310.980	200.753	-8191	255	
2652.250	1	1	0	0	0.11461	0.11518	0.22633	0.019336	0.1855	0.29926	0.035841	0.22739	0.16426	0.24981	0.13452	0.13901	0.04495	0.061055	0.14099	0.22463	-2.3812	-3.0687	-2.7021	-2.9146	-2.8917	-2.6146	-3.0938	-2.7833	-2.6917	-3.1417	-2.7167	-2.8063	-2.8021	-2.5833	-2.9208	-2.7313	187.898	314.299	430.976	189.933	533.713	502.124	354.094	277.885	304.299	176.438	191.419	347.712	308.091	500.931	455.517	473.391	0.015348	0.0001115	0.0001302	199.04	1.7389e-06	0.00066664	286.96	46.664	7.0401e-06	2.2681e-06	75.562	27.282	11.618	3.1601	1.4287e-06	9.3064	0.0040922	0.00014978	4.9203e-05	220.13	1.6095e-06	5.2462e-05	309.35	52.269	2.0386e-06	1.656e-06	319.78	35.158	14.388	4.1169	1.7482e-06	10.421	372.347	344.023	490.094	186.803	215.748	405.151	185.939	191.803	297.448	285.316	200.217	531.589	196.108	202.338	349.017	201.205	-8191	255	
2652.346	1	1	0	0	0.084929	0.15093	0.17173	0.23301	0.15819	0.1442	0.017271	0.22236	0.016779	0.091527	0.12784	0.12767	0.27466	0.25926	0.15351	0.21423	-2.2896	-2.975	-2.8625	-2.8021	-3.0125	-2.8521	-3.0667	-2.9479	-2.6917	-2.9875	-2.8042	-2.8396	-3.0479	-2.5563	-3.0896	-2.8021	488.469	508.549	466.881	441.514	448.559	200.880	188.806	309.394	260.193	305.629	218.795	181.009	343.094	237.718	494.138	403.664	0.018071	0.00019726	2.2631e-05	200.7	1.0339e-06	0.00062706	286.9	47.609	1.0404e-05	1.4265e-06	74.909	29.031	11.65	3.1699	5.2248e-06	9.3485	0.0047291	0.00015275	4.4966e-05	222.36	1.6577e-06	4.641e-05	311.99	52.92	2.0905e-06	1.7014e-06	148.04	79.989	14.46	4.1201	1.7997e-06	10.469	377.587	335.211	283.114	186.345	525.077	410.087	186.209	191.848	322.108	451.803	199.266	528.724	195.802	202.555	402.713	201.503	-8191	255	
2652.442	1	1	0	0	0.15105	0.21637	0.0051736	0.13059	0.24155	0.099167	0.15618	0.18549	0.11652	0.049423	0.09843	0.1866	0.25226	0.12889	0.29205	0.050418	-2.5125	-3.0479	-2.7354	-2.8083	-3.0625	-2.8	-2.8792	-2.7938	-2.3458	-2.8042	-2.7542	-2.9667	-2.9958	-2.575	-2.9542	-2.9417	207.740	330.540	214.785	425.595	188.947	506.811	357.677	511.673	461.494	524.215	421.870	494.240	529.756	532.005	503.257	258.441	0.015794	0.00011209	9.7732e-05	201.34	1.1133e-06	0.00067034	286.97	46.738	6.187e-06	1.4109e-06	94.884	24.912	11.757	3.1451	3.1057e-06	9.341	0.0041047	0.00015559	4.181e-05	223.64	1.6826e-06	5.17e-05	310.98	52.801	2.0539e-06	1.7232e-06	103.6	89.038	14.525	4.1517	1.8148e-06	10.501	385.067	203.667	271.578	186.006	245.049	414.850	186.284	191.729	314.648	354.673	191.457	174.452	196.544	203.191	419.216	201.236	-8191	255	
2652.538	1	1	0	0	0.11704	0.064661	0.11699	0.33814	0.16208	0.10667	0.19756	0.23548	0.17131	0.17692	0.35934	0.26674	0.056004	0.17134	0.09752	0.22961	-2.2896	-2.8563	-2.6813	-2.7271	-2.9604	-2.8229	-2.9021	-3.0354	-2.6458	-3.0833	-2.8063	-2.8125	-3.0542	-2.6458	-2.8937	-3.0271	309.483	366.056	441.648	508.533	448.503	315.330	398.034	235.563	383.854	300.761	389.581	376.757	358.672	288.261	324.366	467.466	0.017544	0.00028692	8.5143e-05	198.13	2.6035e-06	0.0005906	276.81	46.888	4.4345e-06	4.4225e-06	95.303	26.707	11.747	3.1816	5.0906e-06	9.2977	0.0045057	0.00015656	4.1651e-05	221.87	1.6839e-06	3.1524e-05	355.68	52.592	1.9529e-06	1.7632e-06	103.65	95.616	14.492	4.0103	1.8998e-06	10.394	390.369	221.014	431.321	186.019	200.642	397.105	181.677	192.141	269.953	222.552	191.541	530.996	196.000	203.366	523.203	201.325	-8191	255	
2652.635	1	1	0	0	0.1967	0.16957	0.10278	0.13295	0.12275	0.14459	0.23861	0.19013	0.096036	0.035801	0.11478	0.21504	0.17206	0.050246	0.16997	0.078272	-2.3917	-2.9333	-2.8979	-2.7542	-3.0292	-2.6937	-3	-3.1042	-2.4083	-2.9667	-3.0417	-2.6854	-2.8396	-2.7396	-2.7979	-3.1146	273.303	247.642	346.861	385.185	503.247	208.333	518.314	491.690	250.238	422.738	292.076	355.368	436.368	317.327	399.079	505.139	0.014832	0.00020499	4.7433e-05	199.65	8.9659e-07	0.0006615	277.41	47.32	1.3723e-06	1.8572e-06	94.91	27.118	11.701	3.2256	5.9954e-06	9.3485	0.0038825	0.00016078	4.1059e-05	223.12	1.6749e-06	5.9059e-06	594.58	52.743	1.899e-06	1.771e-06	103.55	87.782	14.544	3.9827	2.0917e-06	10.513	394.445	276.582	364.039	186.379	296.459	399.241	180.473	191.921	328.102	325.487	190.936	174.755	195.833	201.982	438.933	200.726	-8191	255	
2652.755	1	1	0	0	0.060604	0.11528	0.13919	0.10722	0.24175	0.14789	0.20581	0.11447	0.10668	0.1868	0.23118	0.36937	0.15383	0.017511	0.21557	0.1624	-2.2938	-2.95	-2.7979	-2.5521	-2.9917	-2.7375	-2.8625	-3.0583	-2.6854	-2.9313	-2.9688	-2.8083	-3.0687	-2.5687	-2.7292	-2.9333	210.230	462.334	360.164	310.011	368.806	510.114	374.628	256.337	375.732	293.493	215.264	310.271	197.690	294.783	270.453	232.119	0.017252	0.00028371	6.1969e-05	201.23	1.2963e-06	1.0954e-06	234.25	47.989	6.4019e-06	3.7984e-06	95.912	29.09	11.791	3.1976	4.8882e-06	9.3936	0.0045041	0.0001624	4.1334e-05	224.39	1.6962e-06	1.6375e-06	650.54	53.412	1.9701e-06	1.7747e-06	104.73	98.043	14.628	4.0036	2.0261e-06	10.525	402.312	344.287	347.543	186.322	506.569	216.399	189.143	191.531	313.625	363.549	191.241	532.510	195.753	202.116	457.733	201.352	-8191	255	
2652.851	1	1	0	0	0.04992	0.22685	0.12294	0.14351	0.19539	0.076592	0.13275	0.052657	0.17087	0.12642	0.041281	0.28329	0.16106	0.13254	0.26846	0.048652	-2.3438	-2.55	-2.7604	-2.6125	-3.0167	-2.7917	-2.6583	-2.9562	-2.7604	-2.8146	-3.0646	-2.6562	-2.9562	-2.8396	-2.6667	-3.1396	519.511	433.951	374.673	255.743	187.854	197.881	326.672	194.802	435.508	406.863	421.364	526.942	312.243	527.617	402.027	490.701	0.013451	0.023037	5.11e-05	201.79	4.0566e-06	1.1959e-06	223.55	47.633	1.7234e-06	5.1059e-06	96.129	29.346	11.632	3.177	7.4707e-06	9.3151	0.0027059	0.00087056	4.1345e-05	223.96	1.7837e-06	1.653e-06	705.96	53.463	1.7869e-06	1.9629e-06	104.94	90.046	14.973	4.0527	2.1974e-06	10.583	439.720	217.589	225.265	185.924	176.978	282.196	188.955	191.759	283.902	299.853	191.529	174.664	195.429	202.458	484.496	201.558	-8191	255	
2652.948	1	1	0	0	0.13337	0.16248	0.23606	0.22565	0.24848	0.13842	0.18049	0.22206	0.08743	0.088662	0.14436	0.075864	0.12706	0.044187	0.25214	0.074801	-2.2875	-2.7542	-2.9458	-2.7354	-2.9792	-2.7938	-2.6875	-3.0042	-2.6125	-2.7562	-3.0958	-2.6646	-2.7729	-3.0479	-2.6312	-2.9208	482.313	344.546	459.660	425.980	356.831	390.333	414.428	473.893	230.408	435.307	255.171	513.282	219.491	430.119	343.094	504.950	0.015767	0.02501	4.8013e-05	201.3	2.0963e-06	1.0891e-06	232.87	47.476	6.6508e-07	8.4917e-06	95.455	30.75	11.594	3.1781	8.8205e-06	9.1942	0.00036784	0.0039556	4.5946e-05	225.03	1.9695e-06	1.8313e-06	659.1	53.662	1.8244e-06	2.2935e-06	105.05	99.924	14.975	4.0224	2.1581e-06	10.466	440.401	220.373	343.816	186.322	273.179	348.948	186.834	192.097	224.357	340.413	191.587	533.127	195.859	201.799	484.482	201.210	-8191	255	
2653.044	1	1	0	0	0.46239	0.23982	0.14478	0.016347	0.15543	0.075013	0.25465	0.27965	0.163	0.24503	0.071904	0.20531	0.16966	0.18313	0.30183	0.079343	-2.5146	-2.7062	-2.9958	-2.5708	-2.9229	-3.0042	-2.8021	-3.0208	-2.9208	-2.7375	-2.9479	-2.5792	-2.7938	-2.8708	-2.725	-2.9417	352.699	339.663	193.425	522.896	486.052	375.783	389.433	255.585	405.299	317.630	466.375	232.066	194.946	514.416	250.281	370.441	0.00022133	0.043785	3.0338e-05	199.01	3.3917e-06	3.3056e-06	221.67	46.91	1.9446e-06	5.4252e-06	94.678	26.499	19.689	3.1505	7.165e-06	9.1488	0.00016111	0.0041192	4.5897e-05	223.26	1.8887e-06	1.7538e-06	704.98	53.018	1.7246e-06	2.1311e-06	104.14	65.948	33.631	3.9856	2.0197e-06	10.488	334.859	286.411	492.274	186.657	274.923	371.359	185.027	192.118	237.682	340.818	190.803	198.618	498.927	201.479	453.680	201.498	-8191	255	
2653.138	1	1	0	0	0.1349	0.25985	0.15847	0.20426	0.13706	0.080569	0.15746	0.16831	0.12044	0.13768	0.25728	0.13657	0.14038	0.11063	0.13039	0.15765	-2.4542	-2.6479	-2.9583	-2.725	-2.75	-2.9771	-2.6208	-2.925	-2.9167	-2.6792	-2.9375	-2.6792	-2.9104	-2.9417	-2.7	-2.875	434.811	501.548	266.752	482.586	308.964	436.865	521.377	440.170	426.716	310.773	485.838	471.750	249.794	187.180	442.704	264.255	0.00025939	0.049304	4.1329e-05	202.08	7.3393e-06	2.6553e-06	231.14	47.362	4.4816e-06	7.1785e-06	96.33	28.391	21.657	3.2287	2.9398e-06	9.329	0.00015174	0.0047135	4.2453e-05	221.51	1.8806e-06	1.6171e-06	642.36	53.466	1.578e-06	1.9971e-06	104.45	30.145	93.118	4.005	1.8582e-06	10.594	328.894	292.084	404.502	186.043	239.010	487.088	183.950	191.808	269.776	360.154	191.422	197.730	498.756	202.520	451.043	200.928	-8191	255	
2653.234	1	1	0	0	0.21316	0.018813	0.17642	0.25241	0.035506	0.098001	0.17772	0.28393	0.016409	0.043063	0.072624	0.17496	0.16607	0.12249	0.057027	0.10286	-2.5292	-2.5729	-3.0646	-2.8125	-2.825	-3.1688	-2.8375	-3.1125	-2.9958	-2.6417	-2.9708	-2.65	-2.7938	-2.9875	-2.5708	-2.8667	492.944	206.907	408.060	336.491	370.854	457.983	350.415	383.074	433.488	347.203	247.197	494.967	232.988	227.165	344.063	388.147	0.00016153	0.039275	3.8981e-05	202.6	6.3524e-06	1.7663e-06	234.18	47.923	2.7302e-06	9.476e-06	97.029	27.33	19.818	3.2857	4.2271e-06	9.4896	0.00014459	0.0038752	4.1637e-05	222.1	1.9952e-06	1.6195e-06	665.95	54.128	1.6117e-06	1.9565e-06	105.76	30.178	93.059	4.0747	1.8913e-06	10.72	325.548	296.372	360.603	186.136	232.835	312.011	182.837	191.828	323.637	357.431	191.555	196.679	509.383	201.927	437.293	201.137	-8191	255	
2653.330	1	1	0	0	0.11973	0.0954	0.17346	0.36905	0.17775	0.25875	0.24922	0.071221	0.076731	0.15382	0.22474	0.061323	0.053364	0.25972	0.12976	0.36652	-2.7604	-2.85	-3.0938	-2.8604	-2.6979	-3.1188	-2.7125	-2.8438	-2.8583	-2.7083	-3.0625	-2.9458	-2.8083	-3.1417	-2.7771	-2.9271	486.811	441.214	276.755	506.749	303.934	366.286	430.438	474.111	428.756	288.355	403.398	273.992	254.222	333.189	187.641	279.444	0.00018625	0.044202	4.2859e-05	204.57	6.5876e-06	2.39e-06	251.53	44.781	6.653e-07	2.7422e-06	96.627	27.509	22.395	3.2648	1.3184e-06	9.3845	0.00014983	0.0042178	4.2944e-05	224.23	2.0036e-06	1.6798e-06	497.4	86.807	1.6545e-06	1.9426e-06	106.49	30.141	101.84	4.0635	1.6974e-06	10.697	352.912	304.553	202.608	186.571	259.278	176.383	192.228	172.815	428.434	343.942	191.554	196.373	511.990	202.184	478.964	200.780	-8191	255	
2653.451	1	1	0	0	0.075338	0.13215	0.13313	0.28995	0.18079	0.067666	0.16946	0.17538	0.29474	0.058749	0.33484	0.1798	0.12952	0.30425	0.095336	0.20608	-2.4583	-2.8292	-2.9938	-2.7958	-2.6208	-3.0563	-2.7833	-2.9542	-2.9396	-2.7687	-2.7333	-2.8667	-2.75	-2.9938	-2.7687	-2.7042	415.788	260.504	167.199	188.517	443.354	324.605	291.524	409.334	480.062	361.028	232.469	189.073	450.235	301.421	476.652	468.157	0.00013839	0.041364	9.6529e-05	202.17	9.3985e-06	1.5139e-06	288.39	44.297	1.6873e-06	6.2914e-06	95.322	26.795	21.458	3.2074	1.1739e-06	9.1849	0.00014967	0.0039434	4.4386e-05	221.79	1.9898e-06	1.6638e-06	311.12	170.8	1.6339e-06	1.8805e-06	104.16	29.53	94.237	3.9706	1.5637e-06	10.6	352.804	308.983	369.708	186.443	243.415	322.305	186.504	170.107	347.707	357.751	191.578	197.003	155.728	202.385	326.715	200.899	-8191	255	
2653.547	1	1	0	0	0.1544	0.20426	0.16964	0.18337	0.18034	0.11883	0.046858	0.20193	0.18494	0.2931	0.19578	0.24235	0.24152	0.042292	0.053973	0.12549	-2.6375	-2.7729	-2.8896	-2.8667	-2.7354	-2.9979	-2.8438	-2.8187	-2.9688	-2.7125	-3.0208	-2.9229	-2.8312	-2.9833	-2.875	-2.6208	288.686	444.659	248.953	354.255	504.901	262.905	396.974	461.836	502.794	209.840	265.065	208.232	209.093	241.799	312.387	413.039	0.00023332	0.042198	2.3371e-05	200.7	6.757e-06	2.219e-06	288.18	30.302	2.884e-06	4.2302e-06	95.451	27.25	23.024	3.2422	2.088e-06	9.3763	0.00014655	0.0040951	4.2756e-05	219.54	1.873e-06	1.6132e-06	309.8	166.07	1.5887e-06	1.7733e-06	104.53	29.773	96.224	4.0217	1.5475e-06	10.731	364.502	314.270	413.958	186.515	255.270	357.615	186.550	178.496	293.388	384.070	191.599	196.841	518.802	200.799	358.435	201.285	-8191	255	
2653.643	1	1	0	0	0.16615	0.036132	0.091638	0.1617	0.11878	0.036363	0.15051	0.3493	0.29522	0.24269	0.16723	0.084044	0.16296	0.091291	0.20743	0.17857	-2.6583	-2.6708	-3.1208	-2.8458	-2.7479	-3.1479	-3.1	-2.8479	-2.9896	-2.8729	-2.7625	-2.9417	-2.7771	-2.9021	-2.7229	-2.6688	270.521	380.991	228.821	466.367	225.706	473.808	416.816	468.987	162.761	427.425	272.503	412.414	320.011	431.532	162.409	427.293	0.00026316	0.039861	0.0016391	200.16	3.2911e-06	2.9456e-06	288.87	30.412	1.2447e-06	5.4103e-06	96.893	27.272	22.764	3.3042	3.0506e-06	9.4314	0.00014828	0.0019944	0.00035226	220.77	1.8717e-06	1.734e-06	311.64	178.22	1.6528e-06	1.6339e-06	106.4	30.032	90.426	4.1004	1.5972e-06	10.824	336.580	328.557	221.749	186.527	266.569	313.621	186.397	174.380	223.793	368.702	191.465	196.662	163.851	201.474	323.016	200.564	-8191	255	
2653.739	1	1	0	0	0.2144	0.13334	0.20374	0.39015	0.18902	0.15474	0.09508	0.30552	0.12225	0.079604	0.14765	0.30686	0.30878	0.28826	0.14479	0.15549	-2.5687	-2.7188	-2.7479	-3.0396	-2.6104	-2.9417	-3.1271	-2.7604	-2.8854	-2.7354	-2.8729	-3.0354	-2.7771	-2.7812	-3.0563	-2.5583	192.792	386.031	206.649	230.109	282.652	183.476	405.688	399.510	199.068	368.840	172.994	305.924	176.785	440.709	261.596	418.681	0.0002122	0.00016628	0.0014547	201.57	3.2053e-06	2.356e-06	290.4	33.99	2.2164e-06	2.2518e-06	96.804	27.634	24.658	3.3074	1.0275e-06	9.5117	0.00015234	0.00014675	0.0010682	222.34	1.8895e-06	1.7571e-06	313.82	168.07	1.6763e-06	1.5995e-06	107.99	30.322	98.513	4.1398	1.633e-06	10.905	343.609	290.589	200.436	186.156	239.252	297.051	186.446	173.662	360.190	375.132	191.484	196.635	166.629	201.541	504.579	201.277	-8191	255	
2653.836	1	1	0	0	0.085547	0.25634	0.24375	0.070222	0.19765	0.082794	0.016203	0.10052	0.12197	0.049276	0.10377	0.16317	0.09143	0.085085	0.1451	0.19328	-2.4458	-2.7875	-2.7562	-3.0312	-2.6354	-2.7833	-2.9104	-2.8	-3.0771	-2.9583	-2.7167	-2.975	-2.8333	-2.6937	-2.975	-2.8396	489.350	166.827	230.142	168.438	293.936	483.726	220.644	421.445	327.664	180.224	252.057	432.098	176.567	290.523	260.611	436.068	0.00021648	0.00030378	0.013056	203.46	4.3986e-06	6.8752e-06	290.67	34.247	4.0251e-06	1.5028e-06	95.921	27.282	17.435	5.0651	1.335e-06	9.4372	0.00015603	0.0001483	0.0010358	223.06	1.8605e-06	1.76e-06	313.07	178.44	1.7434e-06	1.6251e-06	107.11	30.149	50.974	10.499	1.6673e-06	10.753	360.101	402.458	335.574	186.374	269.159	272.163	186.609	168.394	186.402	329.020	191.725	196.716	203.097	168.974	271.890	201.029	-8191	255	
2653.932	1	1	0	0	0.17106	0.20298	0.08876	0.070871	0.090601	0.31792	0.13902	0.21134	0.14554	0.19733	0.11139	0.18037	0.12829	0.14778	0.18829	0.17089	-2.6437	-2.8708	-2.6958	-3.0542	-2.6437	-2.7458	-3.0917	-2.6063	-3.1	-2.9083	-2.625	-2.8854	-2.825	-2.8458	-2.9771	-2.6875	468.699	378.553	360.112	417.820	377.204	427.086	417.699	261.033	174.822	239.916	157.527	475.233	209.716	469.535	228.608	192.010	0.00026049	0.00011258	0.013992	201.65	3.4734e-06	4.5684e-06	290.16	36.693	4.1996e-06	1.5796e-06	94.721	27.09	11.657	5.2525	1.2063e-06	9.3757	0.00016482	0.00014862	0.0011244	222.27	1.6684e-06	1.9241e-06	312.31	166	1.7833e-06	1.6276e-06	106.74	30.029	14.578	23.019	1.6757e-06	10.716	334.563	304.607	341.619	186.148	331.550	299.854	186.357	171.617	155.491	489.165	192.022	196.250	195.821	168.927	172.417	201.031	-8191	255	
2654.028	1	1	0	0	0.16978	0.3338	0.25239	0.23337	0.052629	0.11102	0.23925	0.22477	0.085309	0.11298	0.15979	0.24926	0.056294	0.19336	0.23494	0.1917	-2.5292	-2.7812	-2.8312	-2.9542	-2.9313	-2.8354	-3.1521	-2.6646	-3.0771	-3.0062	-2.7188	-3.0917	-2.8583	-2.8542	-2.9854	-2.7062	468.094	352.338	335.547	350.372	361.722	447.925	422.818	451.920	368.518	490.147	440.937	267.578	231.080	248.172	362.752	286.676	0.00023365	0.00027193	0.013064	200.32	3.1132e-06	5.744e-06	288.36	37.674	2.2093e-06	9.2502e-07	94.769	26.96	11.73	6.0076	1.2447e-06	9.3312	0.00016416	0.00015154	0.0010247	221.66	1.6423e-06	2.0333e-06	311.41	176.3	1.7945e-06	1.6535e-06	106.09	29.824	14.51	21.429	1.7034e-06	10.575	324.196	250.543	348.133	186.458	292.384	287.982	186.139	165.991	161.686	269.053	191.287	196.516	196.213	185.035	473.687	200.958	-8191	255	
2654.124	1	1	0	0	0.24135	0.087566	0.11569	0.16845	0.28776	0.10643	0.21306	0.0756	0.14954	0.24195	0.093295	0.11268	0.1259	0.12175	0.11688	0.11641	-2.4625	-2.9042	-2.7271	-2.8521	-2.8375	-2.7062	-3.2375	-2.8333	-2.9771	-2.9833	-2.6229	-2.8667	-2.8	-2.825	-3.0083	-2.8208	239.050	489.048	471.511	503.751	198.526	428.192	202.339	315.346	388.243	203.765	233.267	210.618	460.874	222.576	521.288	203.407	0.0003458	0.00018353	0.013754	201.19	2.74e-06	9.1457e-06	287.19	37.499	0.00049237	1.4742e-06	95.173	27.274	11.78	6.3559	1.6198e-06	9.3649	0.00016255	0.00015153	0.0011073	221.18	1.6295e-06	1.9977e-06	311.72	101.43	1.7257e-05	1.6605e-06	106.08	30.094	14.556	23.211	1.72e-06	10.537	302.872	186.788	354.220	186.288	274.892	288.762	186.305	196.977	532.856	314.792	191.963	196.734	195.774	186.976	353.933	201.468	-8191	255	
2654.243	1	1	0	0	0.11477	0.20638	0.068781	0.20281	0.25749	0.15051	0.12143	0.16992	0.081563	0.25289	0.12493	0.087889	0.12635	0.043984	0.15284	0.10899	-2.4021	-2.9104	-2.7646	-3.0938	-2.7708	-2.8146	-2.975	-2.8354	-2.8	-3.1708	-2.85	-2.8625	-2.7708	-2.7458	-2.8896	-2.6583	221.155	339.081	186.099	484.285	229.574	307.880	504.513	349.859	244.836	215.899	363.942	357.849	427.063	507.539	353.551	425.347	0.0003809	0.0001835	0.013048	201.42	8.7785e-07	5.5696e-06	289.97	47.72	0.00054186	3.2372e-06	96.288	27.155	11.907	6.3137	2.8778e-06	9.379	0.00017857	0.00015458	0.0010263	223.3	1.6542e-06	2.0559e-06	312.93	53.618	4.4592e-05	1.7163e-06	106.85	30.273	14.767	21.917	1.7499e-06	10.595	297.786	325.718	359.612	186.263	283.990	288.149	186.522	191.949	507.619	271.991	191.494	196.688	195.840	189.469	395.788	200.960	-8191	255	
2654.316	1	1	0	0	0.15655	0.1821	0.20886	0.092485	0.1649	0.04329	0.15308	0.14544	0.15308	0.32929	0.082557	0.2566	0.087681	0.3039	0.12007	0.18899	-2.1458	-2.9479	-2.7396	-2.8479	-2.9896	-2.6125	-2.9542	-2.9437	-2.7958	-3.0438	-2.6479	-2.8792	-2.9688	-2.7062	-2.9208	-2.95	177.331	287.730	329.758	321.836	459.152	281.058	257.315	291.311	192.207	392.250	491.502	250.549	229.971	181.147	175.001	497.768	0.0003438	0.0001154	0.014649	202.6	3.2448e-06	7.8249e-06	289.48	48.204	0.00051153	3.2867e-07	95.62	27.212	11.802	6.6712	3.6584e-06	9.5206	0.00019028	0.00015979	0.0011439	223.98	1.7209e-06	2.0577e-06	313.8	53.923	4.1562e-05	1.7736e-06	106.44	30.397	14.885	24.021	1.8534e-06	10.701	303.610	267.091	366.774	186.714	237.476	362.349	186.643	191.938	513.898	198.709	191.417	196.409	197.200	192.208	256.208	200.963	-8191	255	
2654.435	1	1	0	0	0.21345	0.10801	0.18581	0.23004	0.090607	0.18758	0.10868	0.066392	0.17452	0.096019	0.065602	0.18937	0.094352	0.34532	0.28676	0.37565	-2.2583	-3.0438	-2.6396	-2.8417	-3.1167	-2.6354	-3.1271	-2.8271	-2.6437	-3.1146	-2.7729	-2.7646	-2.9458	-2.7542	-2.7917	-2.9875	358.958	203.579	464.787	260.891	508.864	230.241	514.167	504.375	233.712	423.487	407.299	420.101	449.062	488.647	474.555	428.500	0.00034678	0.00018996	0.014268	188.45	1.426e-06	5.8346e-06	286.95	47.749	0.0005687	1.4462e-06	94.437	26.894	11.696	6.3135	3.9691e-06	9.3282	0.00019211	0.00016489	0.00044165	372.74	1.7742e-06	2.0326e-06	312.59	53.691	4.5609e-05	1.8067e-06	104.7	30.395	14.834	22.179	1.8583e-06	10.533	298.919	278.916	353.888	183.874	326.905	285.182	186.244	191.908	517.532	322.654	191.207	196.447	196.404	195.198	315.773	201.091	-8191	255	
2654.531	1	1	0	0	0.18576	0.21654	0.074616	0.09338	0.1568	0.22766	0.171	0.051041	0.17298	0.1953	0.2325	0.099075	0.27196	0.061241	0.081859	0.27691	-2.1083	-3.1333	-2.7729	-2.9583	-3.0083	-2.6125	-2.8583	-2.7646	-2.675	-3.0479	-2.9521	-2.7854	-3.0646	-2.6792	-2.9062	-2.8937	522.098	309.140	436.849	455.925	437.133	518.225	332.580	519.045	187.882	275.017	441.716	379.499	265.358	421.426	402.140	491.497	0.00034834	0.00025348	4.2699e-05	180.88	3.9459e-06	5.296e-06	286.55	47.278	0.00049614	1.0492e-06	95.126	26.885	11.6	5.3816	1.5148e-06	9.2934	0.00019305	0.00016454	4.391e-05	582.38	1.772e-06	2.0164e-06	310.77	53.258	4.1533e-05	1.7798e-06	103.98	30.348	14.73	23.131	1.8667e-06	10.47	311.134	475.110	296.834	203.538	380.302	270.096	186.541	192.177	522.535	248.340	191.715	196.825	195.913	217.488	291.506	201.102	-8191	255	
2654.628	1	1	0	0	0.038171	0.085375	0.1594	0.11985	0.24837	0.12523	0.072193	0.14865	0.011393	0.094364	0.25549	0.14288	0.10939	0.21941	0.19948	0.069969	-2.3	-3.0604	-2.7458	-2.7958	-2.9604	-2.8583	-3.1042	-2.8354	-2.7542	-2.9792	-2.9125	-2.7833	-3.0354	-2.6667	-2.7958	-3.0333	294.969	398.494	388.076	311.245	400.702	270.669	224.911	259.589	275.829	448.309	378.798	253.388	383.907	394.534	192.469	432.053	0.00030493	0.00017526	5.4483e-05	176.86	2.8941e-06	4.211e-06	287.21	47.135	0.00056216	4.9166e-06	94.274	26.748	11.574	5.2415	0.00035552	9.2301	0.00018515	0.0001608	4.3375e-05	551.25	1.7681e-06	1.9037e-06	311.61	53.247	4.5251e-05	1.8376e-06	103.93	30.169	14.657	10.211	2.1739e-05	10.471	316.060	310.312	404.420	201.046	460.536	359.108	186.166	191.927	529.863	524.379	191.054	196.753	195.527	218.294	265.931	201.509	-8191	255	
2654.724	1	1	0	0	0.24123	0.29291	0.10015	0.23766	0.077486	0.087521	0.082098	0.20127	0.13911	0.19597	0.17949	0.3437	0.072624	0.1901	0.12867	0.28362	-2.3042	-2.9979	-2.6896	-2.6771	-3.0563	-2.8104	-2.7979	-3.1604	-2.9688	-2.7917	-2.9125	-2.6979	-2.9625	-2.7833	-2.7542	-2.8625	252.797	352.152	430.586	466.939	380.863	527.596	283.999	359.270	480.914	485.443	437.214	494.319	319.616	306.944	512.906	454.261	0.00034225	0.00027435	5.6145e-05	169.92	3.0593e-06	3.1658e-06	288.7	47.394	0.00050184	1.1033e-06	95.501	27.179	11.814	3.2563	0.00059919	9.5192	0.00018363	0.00016913	4.2976e-05	584.48	1.7575e-06	1.6996e-06	313.78	53.599	4.1844e-05	1.8412e-06	104.68	30.527	14.883	4.0578	4.6061e-05	10.655	317.323	279.017	357.358	202.718	289.591	374.495	186.581	191.622	175.644	240.049	191.024	196.891	196.344	202.285	319.832	200.726	-8191	255	
2654.844	1	1	0	0	0.070175	0.10587	0.25716	0.32658	0.23067	0.027605	0.14794	0.2145	0.06555	0.16187	0.26763	0.15718	0.092735	0.19961	0.22521	0.084871	-2.3625	-2.7979	-2.8583	-2.6667	-2.9417	-2.7521	-2.8229	-2.9771	-2.7146	-3.025	-3.0583	-2.6188	-3.1333	-2.7375	-2.7313	-2.9042	256.668	309.917	422.863	396.722	424.364	194.425	285.569	376.497	372.810	389.986	501.443	405.271	531.982	260.046	282.293	412.652	0.00026922	0.00019191	9.547e-05	166.97	2.0977e-06	2.6222e-06	288.74	47.552	0.0001379	2.3344e-06	95.377	27.273	11.743	3.227	0.00054789	9.3401	0.00018239	0.00016665	4.3405e-05	556.37	1.7778e-06	1.7076e-06	315.26	53.913	4.2552e-05	1.8783e-06	105.32	30.558	14.874	4.075	4.2472e-05	10.63	322.783	196.562	241.003	199.912	342.869	231.296	186.593	191.980	430.771	226.503	191.425	196.657	196.370	201.767	326.120	201.120	-8191	255	
2654.940	1	1	0	0	0.1293	0.13841	0.23685	0.28081	0.087242	0.16952	0.31472	0.097944	0.25035	0.23949	0.14355	0.29839	0.1927	0.38881	0.25749	0.0701	-2.4437	-2.7938	-2.9042	-2.8521	-2.9875	-2.9333	-2.8292	-3.0563	-2.5854	-2.75	-2.9625	-2.4042	-2.85	-2.7625	-2.7229	-3.175	198.515	484.742	220.859	309.644	219.525	271.299	433.550	379.788	445.203	345.960	463.224	226.877	493.209	269.514	221.105	429.730	0.00014984	0.00058026	8.3631e-05	160.37	4.7781e-06	1.6702e-06	285.56	47.249	9.9177e-05	0.000489	95.165	26.974	11.7	3.2307	0.0005976	9.3431	0.00017353	0.00017425	4.4965e-05	589.71	1.8817e-06	1.7408e-06	313.46	53.59	1.4012e-05	2.4067e-05	104.91	30.433	15.047	4.067	4.6735e-05	10.6	342.251	176.123	243.319	200.338	489.449	526.339	186.903	191.986	431.832	198.669	191.357	196.748	196.117	202.774	330.011	200.825	-8191	255	
2655.012	1	1	0	0	0.17839	0.2518	0.23959	0.17328	0.048742	0.11578	0.11451	0.14782	0.12155	0.053621	0.071894	0.14548	0.11532	0.028709	0.076308	0.20267	-1.9979	-2.8542	-3.0521	-2.6125	-2.9917	-2.9625	-2.7229	-2.9646	-2.8521	-2.7771	-2.9979	-2.6229	-2.8979	-2.8542	-2.7854	-2.9833	418.285	388.178	470.479	429.064	298.047	175.433	510.012	420.902	467.074	324.715	422.560	500.471	301.402	506.994	255.995	392.661	0.00014278	0.00059322	2.205e-05	158.5	3.6895e-06	3.2612e-06	286.3	46.883	3.9694e-06	0.00049205	94.69	26.812	11.344	3.1785	0.0005534	9.2028	0.00015894	0.00019374	4.5954e-05	558.83	1.9016e-06	1.7717e-06	312.88	53.224	1.7452e-06	4.6844e-05	104.06	30.13	14.82	4.0354	4.3034e-05	10.463	364.651	184.400	475.462	197.887	362.558	277.872	186.811	192.428	301.738	195.932	190.960	196.771	195.939	202.431	337.160	200.868	-8191	255	
2655.131	1	1	0	0	0.15332	0.097305	0.11794	0.04683	0.10385	0.15913	0.19685	0.096181	0.13183	0.11207	0.1594	0.2432	0.19043	0.095403	0.22227	0.097159	-2.3875	-2.6333	-3.0125	-2.8104	-2.8479	-2.9062	-2.7521	-2.8875	-2.7896	-2.7646	-3.0375	-2.675	-2.7396	-2.9917	-2.6417	-2.9271	447.920	327.110	457.455	341.037	533.368	307.375	226.446	526.323	254.145	473.535	202.568	493.482	405.522	411.652	485.856	426.466	0.00023734	0.00052365	4.7717e-05	182.58	4.6117e-06	1.3736e-06	285.89	46.839	2.1629e-06	0.00046242	93.588	26.756	11.518	3.1834	0.00060321	9.2701	0.00015997	0.00019907	4.6512e-05	545.46	1.9256e-06	1.7928e-06	311.62	53.097	1.7602e-06	4.3461e-05	104.15	29.878	15.06	4.051	4.7509e-05	10.579	328.988	185.193	274.051	204.777	248.292	230.711	186.625	191.894	235.229	201.375	191.756	196.857	195.934	202.761	342.217	200.921	-8191	255	
2655.227	1	1	0	0	0.083575	0.20021	0.20659	0.28422	0.10552	0.26344	0.09217	0.081815	0.25542	0.03879	0.22746	0.07734	0.093669	0.21523	0.02992	0.18954	-2.4417	-2.5229	-2.9646	-2.7896	-2.8625	-2.9854	-2.7687	-2.8833	-2.8979	-2.7833	-3.1458	-2.7042	-2.5479	-2.8979	-2.7646	-2.7917	441.989	432.628	436.058	372.978	264.999	426.884	517.293	177.293	311.766	461.310	353.266	494.126	204.331	329.876	499.351	418.919	0.00014409	0.00035019	3.2937e-05	180.93	0.00038553	3.0971e-06	286.83	47.392	2.5157e-06	0.00049402	94.76	26.871	11.736	3.163	0.00057099	9.1681	0.0001616	0.00019668	4.6627e-05	307.71	2.6588e-05	1.8047e-06	312.09	53.751	1.7787e-06	4.7766e-05	105.12	29.788	15.474	4.0826	4.3866e-05	10.568	331.491	195.186	272.655	202.552	520.646	378.328	186.531	191.800	275.931	205.608	190.986	196.176	195.203	201.937	350.346	201.638	-8191	255	
2655.323	1	1	0	0	0.18387	0.27265	0.094309	0.29416	0.059175	0.12045	0.34788	0.068128	0.21182	0.10438	0.18631	0.31327	0.11098	0.1966	0.083861	0.088365	-2.5229	-2.4458	-2.8354	-2.6375	-2.6667	-2.7792	-2.85	-2.7479	-3	-2.5563	-2.7854	-2.6604	-2.7792	-2.8312	-2.6146	-2.9146	280.338	428.396	213.368	340.073	318.288	229.709	517.275	197.524	301.469	184.738	395.475	245.510	269.509	340.112	305.224	192.419	0.00021444	0.00062435	4.2486e-05	199.19	0.00062577	3.6843e-06	286.23	46.979	1.8647e-06	0.00045578	94.026	26.871	11.476	3.2049	0.00058164	11.069	0.00016323	0.00020037	4.6724e-05	219.7	4.7616e-05	1.8381e-06	312.05	53.419	1.7856e-06	4.3763e-05	104.57	29.851	15.517	4.0729	3.9814e-05	11.1	329.821	212.569	415.300	186.379	462.087	260.700	186.419	191.830	333.301	212.118	191.093	196.866	196.665	201.994	373.585	199.653	-8191	255	
2655.419	1	1	0	0	0.15053	0.18793	0.28399	0.041089	0.19954	0.22813	0.21196	0.14106	0.12252	0.045948	0.10319	0.16016	0.10255	0.3477	0.034276	0.093771	-2.4625	-2.5146	-2.8812	-2.7625	-2.7979	-2.9938	-2.9021	-2.8333	-2.9667	-2.5812	-2.7958	-2.7896	-2.5458	-3.0604	-2.7333	-2.7292	277.311	250.311	439.703	455.387	308.676	359.189	432.646	459.958	443.453	189.898	472.103	384.941	432.007	363.921	243.078	323.213	0.00023243	0.00036738	0.00012507	200.15	0.00053735	1.3592e-06	284.49	46.951	4.855e-06	0.00049599	94.254	26.663	11.275	3.1845	0.00053848	10.877	0.00016628	0.00018974	4.7478e-05	220.21	4.3628e-05	1.8549e-06	309.78	53.632	1.8185e-06	4.7511e-05	104.57	29.604	15.332	4.0465	1.0441e-05	27.073	339.273	241.279	531.934	186.362	466.742	290.746	186.506	191.837	184.577	218.682	190.896	196.476	196.599	201.711	375.590	199.781	-8191	255	
2655.540	1	1	0	0	0.15446	0.12339	0.1084	0.15593	0.2559	0.15287	0.094259	0.26775	0.16528	0.20069	0.088045	0.17885	0.072923	0.018792	0.16354	0.18599	-2.6271	-2.6458	-2.8271	-2.8625	-2.6813	-2.7667	-2.75	-2.7438	-2.9208	-2.7125	-2.9062	-2.9583	-2.5396	-2.8646	-2.8792	-2.6813	226.553	232.161	428.716	450.864	294.625	189.220	456.924	511.158	236.137	489.900	363.609	508.043	260.571	319.431	487.378	531.714	0.00015928	0.00034632	9.3043e-05	197.66	0.00060577	3.3599e-06	284.07	46.656	6.3691e-07	0.00045083	93.916	26.75	11.325	3.2049	3.1931e-06	11.745	0.00016569	0.00018862	4.8265e-05	218.53	4.7095e-05	1.8314e-06	307.44	53.764	1.7945e-06	4.3215e-05	104.12	29.512	15.304	4.0402	1.7284e-06	39.037	348.494	199.636	282.878	186.759	472.452	272.835	186.106	192.197	278.080	222.970	191.058	196.499	195.668	202.079	456.021	226.503	-8191	255	
2655.612	1	1	0	0	0.10534	0.21254	0.14346	0.050019	0.13487	0.11358	0.16065	0.37372	0.23927	0.17952	0.22392	0.14602	0.040695	0.13304	0.17025	0.15169	-2.6542	-2.5333	-2.7354	-2.8625	-2.7708	-3.1417	-2.9604	-2.6688	-3.0875	-2.8312	-2.6896	-2.9646	-2.6271	-2.9688	-2.75	-2.625	507.135	489.602	257.367	326.388	289.221	236.673	186.438	221.329	330.246	421.542	282.162	184.074	258.748	416.077	479.281	515.561	0.00021719	0.00035475	6.759e-05	198.67	0.00054749	1.9587e-06	284.22	46.888	2.2275e-06	9.942e-05	129.33	26.822	11.42	3.1601	1.8494e-06	11.094	0.00016399	0.00018635	4.7384e-05	219.35	4.3231e-05	1.8029e-06	308.13	54.011	1.8068e-06	3.7474e-05	123.1	29.768	15.09	4.0527	1.7061e-06	36.72	348.642	219.607	230.356	186.553	478.797	493.932	186.479	192.239	441.656	320.314	527.176	196.721	197.399	202.709	326.898	225.915	-8191	255	
2655.708	1	1	0	0	0.19075	0.073416	0.087833	0.11719	0.068952	0.15078	0.26197	0.049876	0.10846	0.081614	0.32883	0.28515	0.09152	0.24934	0.18898	0.20242	-2.4958	-2.7313	-2.7938	-3.0292	-2.6562	-2.9042	-2.9042	-2.5854	-2.9229	-2.7333	-2.5458	-3.1271	-2.6292	-2.9854	-2.9688	-2.7417	384.609	300.623	192.587	384.792	431.643	231.803	495.322	243.958	324.828	477.357	527.434	289.733	505.109	350.797	444.783	376.630	0.00020417	0.00046564	0.00023271	198.85	0.00059802	4.4626e-06	286.53	47.533	2.0199e-06	0.00012156	128	27.121	11.701	3.1922	7.8279e-07	11.007	0.00016227	0.00016874	4.9365e-05	220.19	4.726e-05	1.8529e-06	309.66	54.251	1.7772e-06	8.5789e-06	290.54	29.897	15.241	4.103	1.6949e-06	39.26	348.917	229.292	216.893	186.626	484.201	488.888	186.383	192.218	320.108	316.039	529.783	196.647	195.899	202.497	456.729	229.801	-8191	255	
2655.804	1	1	0	0	0.04423	0.34189	0.15839	0.46372	0.12364	0.25956	0.10281	0.18824	0.083218	0.086967	0.29209	0.15624	0.31108	0.091741	0.15853	0.13993	-2.575	-2.8292	-2.8646	-2.9917	-2.8646	-3.0312	-2.9333	-2.6083	-3.0083	-2.6417	-2.7854	-2.9771	-2.5354	-2.8604	-2.8417	-2.7771	467.415	423.278	271.742	410.834	292.053	200.738	520.658	503.505	361.142	418.811	534.872	509.807	493.866	451.880	501.196	509.417	0.00017462	0.00015858	0.0001683	200.57	0.00054653	2.4259e-06	288.16	47.32	1.7899e-06	2.3742e-06	141.61	27.379	11.736	3.2396	1.9455e-06	10.532	0.00016015	0.000152	5.3164e-05	221.38	4.3048e-05	1.796e-06	310.83	54.543	1.7089e-06	1.6313e-06	392.6	30.076	15.126	4.0935	1.6522e-06	35.808	341.060	443.222	197.285	186.723	489.164	218.387	186.489	193.046	314.759	274.339	176.659	196.417	196.198	202.648	279.799	227.403	-8191	255	
2655.925	1	1	0	0	0.14942	0.30411	0.12223	0.11694	0.093323	0.12952	0.048287	0.10551	0.087402	0.1326	0.24882	0.19385	0.13309	0.097012	0.16452	0.17284	-2.6562	-2.6125	-2.7729	-2.9896	-2.8583	-2.7646	-2.9958	-2.5292	-3.0333	-2.875	-2.6833	-3.3021	-2.5125	-2.7417	-2.9917	-2.7375	253.635	320.474	330.047	434.805	504.047	470.972	513.911	443.146	268.030	246.837	516.871	501.579	501.142	302.552	276.934	364.472	0.00019606	0.00019455	0.00020322	199.6	0.00043183	0.00054682	286.74	46.922	2.3556e-06	7.7161e-07	138.83	27.046	11.682	3.1701	1.2964e-06	10.037	0.00015414	0.00014866	5.1763e-05	220.54	3.365e-05	6.4187e-06	309.31	53.666	1.7166e-06	1.5953e-06	363.02	29.713	14.658	4.0877	1.6669e-06	37.753	339.085	517.493	238.572	186.567	431.985	533.239	186.673	191.999	435.298	440.017	179.632	196.009	196.941	201.314	502.840	231.370	-8191	255	
2656.021	1	1	0	0	0.29778	0.053487	0.069909	0.070778	0.13917	0.09702	0.15785	0.054468	0.037037	0.12598	0.17792	0.027462	0.10867	0.046114	0.20274	0.17477	-2.5958	-2.7875	-2.6375	-2.7833	-2.7333	-2.8146	-2.9417	-2.8312	-2.7875	-2.9792	-2.6979	-2.9583	-2.6958	-2.7583	-3.1021	-2.7104	445.766	263.124	204.406	487.673	283.034	232.679	516.036	308.957	177.301	419.573	520.127	404.785	218.136	333.304	463.033	232.352	0.00013258	0.00012488	9.0037e-05	200.82	0.00036343	0.0005083	287.17	47.869	2.4004e-06	2.6867e-06	145.13	27.294	11.852	3.1832	1.5709e-06	9.4719	0.00015989	0.00015044	5.0327e-05	221.55	6.341e-06	3.0723e-05	310.54	54.035	1.7313e-06	1.6044e-06	386.97	29.897	14.454	4.1625	1.6274e-06	35.401	358.607	310.755	221.762	186.346	434.732	174.742	186.396	192.103	264.978	452.566	180.224	196.675	195.393	202.080	427.963	229.253	-8191	255	
2656.117	1	1	0	0	0.19271	0.054325	0.16182	0.11663	0.12689	0.12035	0.11806	0.10962	0.20085	0.072797	0.078798	0.23789	0.22905	0.14677	0.017119	0.10799	-2.5271	-3.0042	-2.5479	-3.0646	-2.6979	-2.9583	-3.2104	-2.7438	-2.8583	-2.8625	-2.6188	-3.0646	-2.7208	-2.6792	-3.1146	-2.85	490.206	254.117	191.654	416.109	341.011	448.265	524.918	361.523	260.352	202.846	244.756	443.003	528.486	236.645	499.912	204.117	0.00010078	0.00027884	0.00019311	202.52	2.392e-06	0.00059931	292.75	47.571	1.7503e-06	1.1699e-06	143.11	27.274	11.949	3.2177	4.1907e-06	9.4824	0.00015492	0.00014752	4.9369e-05	222.44	1.5479e-06	4.4826e-05	313.8	54.387	1.6551e-06	1.5723e-06	363.38	30.081	14.533	4.1976	1.5936e-06	29.299	313.482	411.570	219.165	186.556	316.270	500.241	186.294	192.444	367.326	478.642	183.170	196.325	196.298	201.386	300.977	233.613	-8191	255	
2656.211	1	1	0	0	0.20747	0.2583	0.35603	0.17547	0.14785	0.22749	0.10481	0.11746	0.20875	0.145	0.13061	0.44573	0.079405	0.30447	0.31062	0.10964	-2.4479	-2.9292	-2.6021	-3.0667	-2.925	-2.7854	-2.9833	-2.7313	-2.8458	-3.0833	-2.825	-2.9042	-2.8625	-2.6479	-3.0042	-2.8146	459.038	463.795	239.519	357.055	437.609	325.953	199.912	382.657	280.358	299.265	179.947	483.494	180.309	526.663	257.364	270.518	0.0018426	0.00022187	0.00012952	205.68	2.6269e-06	0.00054142	294.53	48.587	3.3447e-06	2.9061e-06	150.56	27.532	11.845	3.2621	1.4905e-06	9.1881	0.00074149	0.00014623	4.7022e-05	226.09	1.576e-06	4.1995e-05	316.76	54.31	1.8319e-06	1.6269e-06	390.89	30.226	14.574	4.1852	1.6481e-06	12.343	252.113	252.241	212.582	186.538	254.804	506.574	186.652	192.121	379.878	516.063	184.985	196.535	196.496	201.735	346.492	231.974	-8191	255	
2656.308	1	1	0	0	0.32518	0.26538	0.2767	0.14696	0.039867	0.26716	0.12786	0.14068	0.28906	0.01041	0.22506	0.1495	0.094774	0.21994	0.32449	0.22563	-2.2875	-2.9292	-2.5354	-3.0104	-2.8604	-2.7271	-3.0708	-2.6312	-2.75	-2.8792	-2.8896	-2.9125	-2.7604	-2.6146	-3.0417	-2.7833	355.768	395.898	438.117	395.324	500.076	445.574	274.678	229.800	280.782	274.349	343.242	238.664	446.193	371.581	396.406	508.779	0.0025508	0.00020806	0.00015682	206.03	7.4023e-07	0.00058958	293	48.078	6.2227e-06	1.0556e-06	146.3	27.172	11.834	3.2015	2.5376e-06	9.3223	0.0029307	0.0001475	4.7519e-05	225.98	1.5793e-06	4.524e-05	316.18	53.773	1.98e-06	1.6265e-06	364.72	30.004	14.551	4.1622	1.6435e-06	10.405	239.965	276.235	256.789	186.356	260.647	511.648	186.410	192.298	393.964	179.429	186.334	196.639	196.406	201.373	292.430	200.891	-8191	255	
2656.405	1	1	0	0	0.098948	0.19543	0.16381	0.12348	0.35025	0.17862	0.14401	0.22305	0.16445	0.16124	0.064572	0.25196	0.014103	0.042083	0.024744	0.086904	-2.2271	-3.0042	-2.5812	-2.8917	-2.9146	-2.6813	-2.8583	-2.75	-2.8042	-3.0875	-2.8479	-2.8021	-3.0354	-2.7875	-2.9562	-2.9167	293.235	180.730	194.407	526.597	533.172	284.977	284.359	231.274	206.512	266.466	297.088	403.394	262.367	207.754	230.091	417.023	0.015052	9.877e-05	4.7375e-05	204.36	3.4407e-06	0.000528	290.41	47.728	5.9861e-06	1.6665e-06	121.09	33.849	11.852	3.254	4.0568e-06	9.3566	0.0040401	0.00014696	4.6617e-05	224.11	1.5929e-06	4.1567e-05	313.78	53.571	1.9536e-06	1.6201e-06	286.3	41.916	14.531	4.1331	1.6861e-06	10.433	486.045	303.918	311.801	186.825	298.927	515.799	186.746	192.090	378.719	349.502	201.681	185.899	195.518	201.720	526.205	201.533	-8191	255	
2656.524	1	1	0	0	0.14199	0.1378	0.11157	0.1233	0.054657	0.090052	0.15086	0.045974	0.15887	0.080155	0.13006	0.11152	0.050225	0.055387	0.31841	0.15925	-2.3625	-3.0417	-2.7917	-2.9271	-3.1312	-2.7146	-3	-2.8208	-2.7083	-3.2042	-2.5583	-2.8083	-2.8229	-2.5958	-2.9583	-2.7917	218.899	500.527	226.170	458.915	432.003	247.459	523.305	347.064	331.068	174.314	368.033	237.939	400.824	256.785	393.469	516.877	0.013902	0.00013877	1.3421e-05	203.15	3.5525e-07	0.00056516	290.45	47.656	6.2091e-06	1.6443e-06	120.82	33.352	11.979	3.2044	3.394e-06	9.3314	0.0036906	0.0001475	4.1297e-05	224.83	1.591e-06	4.4694e-05	313.72	53.463	1.9032e-06	1.595e-06	112.36	74.678	14.595	4.1014	1.6767e-06	10.434	491.636	263.819	526.844	186.098	332.527	520.697	186.169	191.974	404.780	501.201	202.099	187.212	195.589	201.972	248.542	201.346	-8191	255	
2656.620	1	1	0	0	0.19529	0.15853	0.015378	0.096733	0.18196	0.060663	0.14052	0.25619	0.14301	0.049589	0.18212	0.25325	0.15535	0.19005	0.073564	0.085958	-2.2083	-2.8396	-2.7104	-2.8521	-2.9125	-2.5604	-2.9146	-2.8917	-2.6917	-2.9542	-2.7521	-2.5083	-3.0062	-2.7208	-2.9208	-2.9437	479.500	444.349	424.952	514.687	438.375	408.679	453.089	302.225	365.936	272.795	517.904	219.107	357.358	317.129	444.210	423.273	0.015557	6.5477e-05	7.6882e-05	205.93	1.7498e-06	0.00054352	291.9	48.036	4.8973e-06	2.8946e-07	97.966	38.648	11.827	3.2051	3.8977e-06	9.2898	0.0040235	0.00014541	3.8555e-05	226.98	1.5869e-06	4.1408e-05	315.46	53.828	1.9244e-06	1.5893e-06	105.11	89.996	14.624	4.1114	1.6611e-06	10.484	497.824	259.691	449.920	186.643	206.876	529.234	186.259	192.049	423.222	323.073	191.442	196.785	195.520	202.761	285.554	201.648	-8191	255	
2656.717	1	1	0	0	0.10182	0.2144	0.18304	0.044556	0.3503	0.069395	0.032523	0.117	0.093006	0.14427	0.10996	0.087043	0.28531	0.26753	0.11552	0.03423	-2.3833	-2.85	-2.7313	-2.6375	-3.0271	-2.8604	-2.9083	-3.0458	-2.6604	-2.9021	-2.7604	-2.6688	-2.8604	-2.7083	-2.7708	-2.9104	443.258	499.016	489.030	360.003	233.328	454.091	384.120	264.699	304.857	282.674	491.702	489.993	306.465	374.021	405.152	277.693	0.013949	0.0001573	8.1043e-05	205.28	1.3295e-06	0.00021917	321.59	48.545	3.6165e-06	3.6987e-06	96.859	37.599	11.964	3.2371	6.1502e-06	9.3704	0.003718	0.00014316	3.8702e-05	227.91	1.5846e-06	2.7717e-05	399.44	54.053	1.8155e-06	1.6716e-06	105.22	85.349	14.677	4.0314	1.823e-06	10.492	503.779	273.771	364.467	186.504	332.498	441.855	175.268	192.259	429.070	429.730	190.986	198.398	196.381	202.498	201.936	201.613	-8191	255	
2656.837	1	1	0	0	0.099479	0.14187	0.13372	0.027687	0.16604	0.18294	0.12757	0.16035	0.25842	0.12019	0.15777	0.084395	0.16108	0.29428	0.025625	0.064633	-2.4542	-3.0292	-2.8396	-2.8167	-2.9667	-2.8229	-2.7271	-3.1292	-2.6396	-2.8583	-2.9229	-2.6646	-3.1188	-2.6188	-2.8688	-3.0604	351.266	384.544	336.265	369.645	291.089	289.271	444.614	525.505	394.158	220.033	210.629	360.209	245.206	206.893	238.985	376.782	0.015282	0.00024954	3.6052e-05	205.15	6.9073e-07	1.1232e-07	321.59	48.639	3.964e-06	4.1669e-06	97.478	38.696	11.903	3.2757	6.2746e-06	9.4021	0.0040519	0.00015309	3.9591e-05	227.75	1.6088e-06	1.5299e-06	587.45	53.999	1.854e-06	1.6897e-06	105.57	90.537	14.655	4.0138	1.9527e-06	10.513	510.317	400.661	253.889	186.618	493.960	368.259	176.458	191.759	434.849	438.534	191.584	200.144	196.872	201.492	188.041	201.133	-8191	255	
2656.909	1	1	0	0	0.10593	0.10257	0.16421	0.14274	0.26624	0.15102	0.1359	0.068743	0.24427	0.27224	0.15844	0.10966	0.18891	0.087997	0.24861	0.058376	-2.3604	-2.9354	-2.9292	-2.6021	-3.0708	-2.7375	-2.9021	-3.0542	-2.7708	-2.9833	-2.9979	-2.6917	-2.8896	-2.8146	-2.7292	-3.0042	208.616	196.525	310.370	465.576	499.439	221.854	429.767	235.450	310.140	331.514	472.039	311.766	488.568	313.017	258.089	207.880	0.01411	0.00051387	7.2742e-05	206.22	9.5237e-07	2.8033e-06	311.78	47.929	4.9406e-06	1.5286e-06	97.156	36.971	11.726	3.1949	7.417e-06	9.2792	0.003741	0.00015477	4.0301e-05	227.52	1.6162e-06	1.5638e-06	658.63	53.622	1.8055e-06	1.6908e-06	105.33	85.11	14.532	3.9654	1.9682e-06	10.395	514.812	433.949	313.229	186.787	260.883	446.891	175.201	192.025	382.678	428.108	191.359	201.424	195.270	202.719	217.103	200.964	-8191	255	
2657.005	1	1	0	0	0.2157	0.12585	0.20025	0.14873	0.12327	0.04564	0.12293	0.12501	0.077318	0.25666	0.34023	0.087257	0.063874	0.068836	0.36391	0.11301	-2.3312	-2.7729	-2.8333	-2.5479	-3.0854	-2.9729	-2.7375	-3.0083	-2.6333	-2.7979	-3.2083	-2.6979	-2.8521	-2.9333	-2.6896	-2.9625	523.558	454.897	247.936	361.136	523.908	229.824	184.571	352.622	420.383	399.660	457.807	461.553	330.467	197.796	491.837	434.185	0.015725	0.021462	7.2936e-05	203.88	4.0494e-06	8.4732e-07	314.47	47.666	3.0635e-06	3.7392e-06	96.708	37.911	11.63	3.2055	7.084e-06	9.2818	0.0023146	0.0013034	4.0521e-05	225.09	1.7089e-06	1.5708e-06	628.22	53.584	1.6144e-06	1.8533e-06	105.01	89.744	14.641	3.9668	1.9281e-06	10.413	491.333	466.607	321.547	186.508	393.201	223.987	176.654	191.631	329.092	509.016	191.517	203.357	195.914	202.399	196.206	200.994	-8191	255	
2657.101	1	1	0	0	0.12791	0.19652	0.18443	0.15917	0.15621	0.091018	0.098046	0.18303	0.037844	0.21992	0.15797	0.049469	0.18665	0.30875	0.19996	0.12936	-2.2	-2.6896	-2.8458	-2.5771	-2.75	-2.8333	-2.6896	-3.075	-2.8104	-2.8896	-2.9146	-2.7229	-2.8563	-2.8042	-2.7083	-3.0125	483.835	489.731	297.615	505.294	250.669	222.063	233.478	340.883	246.773	402.352	473.790	450.206	316.520	401.301	204.811	449.949	0.00020487	0.021951	4.9432e-05	205.27	2.778e-06	1.269e-06	322.11	47.743	4.36e-06	2.5391e-06	96.783	36.506	11.702	3.2136	8.9815e-06	9.2195	0.00014113	0.0034704	4.0479e-05	226.13	1.6961e-06	1.5754e-06	656.79	53.583	1.5539e-06	1.9351e-06	105.14	84.953	14.587	3.9538	1.9491e-06	10.341	337.324	470.225	204.227	186.482	345.246	232.767	176.192	191.741	258.882	460.027	191.278	203.795	196.602	202.491	242.169	200.999	-8191	255	
2657.220	1	1	0	0	0.2711	0.21752	0.090427	0.10792	0.047549	0.074498	0.18579	0.080867	0.20278	0.099134	0.15411	0.34632	0.11361	0.095448	0.20348	0.12563	-2.4542	-2.6771	-3.0167	-2.7708	-2.7021	-2.9583	-2.8292	-2.8354	-2.7042	-2.7771	-3.0062	-2.8083	-2.8458	-2.9854	-2.6312	-3.0646	505.589	353.798	473.503	391.305	218.086	525.865	435.441	259.275	217.529	254.457	325.189	441.123	418.305	270.298	191.208	179.562	0.00022183	0.044558	6.8946e-05	204.51	2.6215e-06	2.3474e-07	325.76	48.037	3.5349e-06	5.0704e-06	96.216	33.063	18.248	3.2359	1.9511e-06	9.2779	0.00014246	0.0041603	4.1107e-05	225.46	1.6839e-06	1.5831e-06	630.74	53.794	1.5683e-06	1.9672e-06	105.46	60.6	43.373	3.9952	1.8444e-06	10.479	330.603	399.489	351.450	186.452	333.216	507.684	177.333	191.559	277.536	453.846	191.449	211.921	179.739	202.383	265.440	200.728	-8191	255	
2657.316	1	1	0	0	0.070461	0.22479	0.076363	0.25362	0.2073	0.34135	0.32293	0.081166	0.13529	0.13442	0.30166	0.3799	0.074994	0.16043	0.20656	0.15957	-2.3771	-2.4771	-2.7625	-2.8312	-2.8417	-2.8083	-2.7604	-2.9062	-2.8563	-2.6083	-3.0563	-2.6021	-2.7021	-3.0979	-2.7792	-2.8708	318.200	206.917	197.555	260.408	342.485	266.472	512.317	347.092	361.947	197.173	184.453	347.031	354.832	271.213	184.093	407.759	0.00019094	0.040497	6.3773e-05	204.3	3.9977e-06	4.6445e-07	333.43	48.139	2.356e-06	3.4292e-06	97.088	27.19	16.429	3.1851	1.5703e-06	9.2468	0.00014514	0.0038606	4.1261e-05	224.52	1.8875e-06	1.6217e-06	661.97	54.087	1.5984e-06	1.9592e-06	105.38	29.741	89.747	3.9985	1.891e-06	10.432	340.444	405.257	487.365	186.628	382.612	344.863	177.255	191.829	499.238	456.110	191.583	196.583	183.168	203.043	261.652	200.867	-8191	255	
2657.412	1	1	0	0	0.19849	0.12831	0.14719	0.057216	0.028619	0.060477	0.28585	0.10785	0.29301	0.10977	0.24082	0.071116	0.2383	0.065	0.15641	0.091853	-2.2833	-2.6771	-2.8479	-2.7625	-2.9333	-2.8958	-2.8208	-2.7938	-2.8792	-2.7146	-2.9771	-2.6604	-2.5833	-3.0646	-2.8563	-2.8521	348.494	251.149	384.912	194.266	363.921	468.187	495.502	356.285	358.516	179.510	352.341	347.582	211.904	318.403	430.570	214.614	0.0002584	0.04312	9.6533e-05	203.5	5.8132e-06	3.3776e-07	332.93	47.797	2.1182e-06	4.9883e-06	96.567	26.944	26.696	3.2072	2.0362e-06	9.2404	0.00014711	0.0041876	4.1716e-05	223.43	1.9964e-06	1.6553e-06	630.62	53.778	1.6214e-06	1.9774e-06	104.88	29.661	100.48	3.9829	1.8059e-06	10.429	335.727	411.950	206.863	186.544	371.100	269.126	178.532	191.767	340.975	439.962	191.067	196.057	213.280	201.745	321.198	200.798	-8191	255	
2657.486	1	1	0	0	0.09237	0.16125	0.16895	0.11111	0.073686	0.18427	0.14051	0.24409	0.37626	0.12594	0.094123	0.11895	0.20492	0.17524	0.11027	0.23533	-2.4979	-2.5146	-2.8375	-2.8646	-2.7125	-2.9437	-2.95	-2.6792	-2.9208	-2.8187	-2.825	-2.8229	-2.6083	-2.9979	-2.7875	-2.6125	162.516	476.569	262.004	396.880	365.829	382.850	163.732	299.401	418.068	234.793	299.466	492.512	361.669	210.253	440.972	286.764	0.00018932	0.041092	5.6345e-05	203.09	1.0325e-05	1.3007e-06	291.37	63.32	5.4242e-06	2.472e-06	95.93	27.004	24.993	3.1505	1.6186e-06	9.2059	0.00014953	0.0038521	4.2821e-05	223.19	2.0053e-06	1.6524e-06	473.26	102.96	1.6305e-06	1.8618e-06	105.28	29.561	93.582	3.945	1.6403e-06	10.472	340.325	416.688	211.149	186.590	351.877	208.146	187.515	172.876	300.633	401.422	191.221	196.203	217.095	201.707	356.263	200.587	-8191	255	
2657.605	1	1	0	0	0.20077	0.043282	0.053881	0.28062	0.2234	0.18014	0.12326	0.20561	0.16064	0.22795	0.0055104	0.19942	0.16412	0.18788	0.40458	0.27486	-2.5229	-2.55	-2.8063	-2.8312	-2.6604	-3.0458	-2.8333	-2.6396	-2.9646	-2.6875	-2.9625	-3.0396	-2.7625	-3.0062	-2.7604	-2.6958	170.001	366.642	432.842	483.158	443.316	220.390	472.971	380.193	191.409	393.767	500.027	215.573	448.438	299.579	444.090	413.607	0.00012107	0.044478	9.3988e-05	203.06	8.0269e-06	2.3331e-06	289.91	60.784	2.9952e-06	3.5385e-06	95.97	26.862	25.872	3.19	1.2718e-06	9.3027	0.00015213	0.0041996	4.4047e-05	222.57	1.9693e-06	1.6574e-06	312.83	171.48	1.649e-06	1.8823e-06	105.21	29.562	101.01	3.9716	1.6126e-06	10.558	341.674	421.153	406.942	186.697	362.586	344.074	186.626	173.981	241.698	471.372	191.501	196.795	220.053	202.166	465.179	200.983	-8191	255	
2657.701	1	1	0	0	0.29183	0.1308	0.34015	0.1551	0.18425	0.25778	0.12651	0.25027	0.079055	0.15717	0.12147	0.095094	0.28677	0.14418	0.080978	0.25481	-2.5438	-2.6562	-2.8708	-2.9583	-2.6813	-2.8667	-2.825	-2.575	-2.8833	-2.8	-3.0167	-3.0229	-2.7833	-2.9667	-2.6917	-2.7854	292.933	372.269	266.199	219.264	503.567	206.182	163.003	429.540	321.244	379.821	334.546	198.444	482.679	465.742	164.858	365.289	0.00017947	0.039267	5.4989e-05	203.19	1.0374e-05	1.2574e-06	291.31	66.544	1.0996e-06	2.9382e-06	95.594	27.02	24.202	3.1925	9.1875e-07	9.2122	0.00015153	0.0038875	4.4464e-05	223.24	1.9744e-06	1.6751e-06	313.55	184.05	1.6637e-06	1.8112e-06	105.79	29.704	94.235	4.0074	1.6344e-06	10.553	348.335	426.449	212.730	186.467	370.650	304.481	186.463	177.689	262.188	418.000	191.133	196.602	221.494	202.319	281.924	201.095	-8191	255	
2657.797	1	1	0	0	0.2096	0.25228	0.46182	0.27212	0.097984	0.11173	0.061896	0.16311	0.20398	0.051802	0.26314	0.051783	0.29278	0.18244	0.10535	0.11641	-2.5312	-2.7062	-2.7208	-3.0771	-2.4083	-2.8812	-2.9875	-2.6188	-3.0292	-2.7375	-2.7521	-3.1437	-2.5583	-2.9083	-2.8042	-2.5604	453.821	449.790	410.419	503.811	495.407	381.810	419.342	459.500	429.896	166.064	383.965	233.790	286.472	418.440	368.008	457.617	0.000294	0.036578	0.012082	202.99	2.6443e-06	4.0005e-07	288.98	65.117	3.4797e-06	3.4964e-06	96.011	27.233	25.301	3.1697	3.8433e-06	9.1685	0.00015189	0.0018616	0.00052616	223.06	1.9008e-06	1.7538e-06	313.53	173.16	1.6601e-06	1.6501e-06	107.06	29.717	101.53	4.0143	1.6566e-06	10.549	332.633	379.356	492.163	186.248	427.907	361.204	186.447	180.192	251.229	442.657	191.315	196.540	226.532	201.967	250.187	200.562	-8191	255	
2657.918	1	1	0	0	0.16926	0.1085	0.10241	0.11435	0.11123	0.079122	0.11269	0.14487	0.1485	0.13858	0.30573	0.12612	0.04404	0.21008	0.19373	0.18125	-2.4062	-2.6125	-2.7729	-3.0167	-2.6625	-2.8854	-2.9125	-2.775	-3.1396	-2.8646	-2.7292	-3.0333	-2.6479	-2.8875	-2.7479	-2.4958	435.514	373.905	387.756	268.178	366.931	359.854	485.444	335.615	515.070	264.571	486.751	496.015	398.702	345.908	385.827	368.572	0.00020908	0.00030123	0.013645	200.83	6.0346e-06	2.302e-06	289.8	67.558	1.8893e-06	2.8583e-06	94.885	26.796	22.552	3.1249	3.4148e-06	9.0846	0.00015337	0.00014831	0.00109	222.21	1.9281e-06	1.7653e-06	313.1	183.66	1.6796e-06	1.6243e-06	106.56	29.496	93.205	3.9836	1.6603e-06	10.405	314.210	268.088	444.361	186.393	391.893	331.028	186.458	181.367	232.541	215.167	191.440	196.645	234.689	202.750	293.250	201.705	-8191	255	
2658.014	1	1	0	0	0.10839	0.2256	0.14364	0.056886	0.0136	0.17458	0.25024	0.20057	0.22108	0.16757	0.15948	0.071318	0.14473	0.39938	0.095814	0.19115	-2.5542	-2.7167	-2.7583	-3.0229	-2.6688	-2.8583	-2.9896	-2.3708	-2.9292	-3.0646	-2.4604	-3	-2.7458	-2.6729	-3.0229	-2.5312	180.436	443.092	417.632	389.939	185.337	250.487	517.836	262.883	256.723	524.339	274.356	480.908	338.001	449.839	213.627	470.371	0.0001893	0.00026022	0.014948	201.3	2.4803e-06	4.8305e-06	287.67	66.153	4.9195e-06	9.7995e-07	94.273	26.663	23.552	3.2742	2.3947e-06	9.0863	0.00015396	0.00014998	0.0011771	220.97	1.8304e-06	1.7891e-06	311.31	172.56	1.7644e-06	1.6467e-06	106.16	29.276	46.796	13.561	1.6816e-06	10.391	346.175	289.791	448.518	186.225	342.431	381.019	186.249	183.230	205.168	472.804	191.287	196.446	236.772	196.626	423.095	201.218	-8191	255	
2658.108	1	1	0	0	0.1591	0.10461	0.10767	0.098325	0.10968	0.10411	0.07942	0.14107	0.15249	0.096634	0.03838	0.092781	0.30446	0.22991	0.16171	0.24784	-2.4437	-2.8146	-2.725	-3.0812	-2.7104	-2.8438	-3.0542	-2.8417	-3.0854	-2.9208	-2.5583	-2.8438	-2.8583	-2.7729	-3.0208	-2.7479	341.001	321.586	168.421	507.686	267.440	329.333	307.965	346.388	308.587	206.605	375.925	249.369	478.332	259.890	424.418	351.531	0.00026181	0.00033559	0.013636	200.77	2.9245e-06	3.3806e-06	288.71	69.907	3.3067e-06	1.5998e-06	95.183	26.684	11.623	5.2805	1.3093e-06	9.1651	0.00016215	0.00015017	0.0010908	221.45	1.6362e-06	1.9921e-06	311.43	183.77	1.7914e-06	1.6462e-06	106.67	29.455	14.398	22.747	1.6845e-06	10.432	346.213	292.123	454.256	186.471	406.318	385.704	186.418	184.255	278.243	473.314	190.854	196.786	197.100	237.794	277.334	201.097	-8191	255	
2658.206	1	1	0	0	0.22787	0.12018	0.17729	0.38828	0.069361	0.034924	0.24701	0.22334	0.35733	0.17663	0.12675	0.011544	0.26351	0.17333	0.078149	0.13713	-2.5271	-2.8729	-2.625	-3.0563	-2.8708	-2.7812	-3.0375	-2.8542	-2.9625	-2.8271	-2.7708	-2.9833	-2.7917	-2.6979	-3.0292	-2.7042	161.053	142.231	117.432	145.326	34.371	-145.901	-162.396	172.242	-130.829	-65.812	-143.698	2.613	-88.491	160.406	163.350	31.274	0.00032778	5.0547e-05	0.014911	201.4	1.5036e-06	8.4177e-06	289.81	53.521	3.4125e-06	8.4288e-07	95.192	26.815	11.588	5.3132	2.4335e-06	9.1741	0.00016145	0.00014979	0.0011832	221.4	1.6205e-06	2.0106e-06	312.52	166.96	1.7719e-06	1.6629e-06	106.39	29.538	14.4	24.332	1.6833e-06	10.418	3.359	23.690	100.149	-173.820	-26.069	35.536	-173.510	-161.513	-117.055	150.292	-168.878	-163.383	-163.683	-116.505	13.414	-158.905	-8191	255	
2658.301	1	1	0	0	0.13861	0.093555	0.22549	0.064327	0.066801	0.1693	0.078546	0.1229	0.29236	0.066976	0.14986	0.096173	0.12201	0.046922	0.2821	0.048963	-2.325	-2.7083	-2.6542	-2.9083	-2.7042	-2.5938	-3.0062	-2.8833	-2.7792	-3.1354	-2.4458	-2.9521	-2.9208	-2.6958	-3.0104	-2.7333	85.975	60.954	139.101	181.994	-8.748	-124.428	16.172	-145.641	65.851	43.119	82.909	158.044	173.406	80.085	6.825	143.582	0.00032862	0.00010441	0.013864	201.15	3.5684e-06	2.9401e-06	288.83	54.895	0.00051822	1.0406e-06	94.415	26.76	11.43	4.8336	1.0358e-06	9.0584	0.00016554	0.00015166	0.00109	222.34	1.654e-06	2.0375e-06	312.97	95.851	2.4857e-05	1.6511e-06	105.66	29.544	14.354	22.549	1.6659e-06	10.19	-14.044	-68.522	106.515	-173.717	50.985	39.131	-173.393	-159.427	-133.002	60.069	-169.096	-163.332	-164.649	-115.584	-118.689	-158.558	-8191	255	
2658.397	1	1	0	0	0.14451	0.16522	0.12283	0.25268	0.09265	0.036443	0.16379	0.078589	0.29756	0.1417	0.23795	0.12467	0.071974	0.21755	0.12202	0.035301	-2.2979	-2.9375	-2.7313	-2.7667	-2.7958	-2.5938	-2.9542	-2.6125	-2.6354	-3.1021	-2.8021	-2.8104	-2.8354	-2.6208	-2.8521	-2.7188	427.040	392.939	356.339	194.291	516.027	357.010	400.327	217.974	427.945	451.530	404.095	527.698	406.632	398.698	184.677	397.002	0.00030995	0.00014772	0.014471	199.25	9.8297e-07	5.1421e-06	287.52	46.888	0.00052185	1.5768e-06	94.449	26.506	11.47	4.9106	3.7627e-06	8.9266	0.00018087	0.00015139	0.0011683	220.82	1.6273e-06	1.9887e-06	310.33	52.505	4.2376e-05	1.6419e-06	105.04	29.33	14.297	24.02	1.6502e-06	10.12	360.549	387.705	471.225	186.432	309.692	398.216	186.402	191.922	260.038	432.121	190.894	196.688	195.762	249.063	512.611	201.082	-8191	255	
2658.517	1	1	0	0	0.062452	0.13912	0.044179	0.27369	0.24848	0.048931	0.17118	0.21279	0.13524	0.2785	0.24361	0.12857	0.092502	0.16605	0.15177	0.12718	-2.2625	-3.0125	-2.7958	-3.0083	-2.7667	-2.6167	-3.0687	-2.7792	-2.7125	-3.0583	-2.6583	-2.7208	-2.8521	-2.7625	-2.8208	-2.9479	498.236	458.875	323.202	439.833	381.181	461.219	438.749	482.420	533.281	521.516	532.646	407.680	383.120	288.402	191.256	494.027	0.00035846	0.0001348	0.0073137	200.6	1.7686e-06	3.5927e-06	288.86	46.734	0.00057034	4.3028e-06	94.532	26.477	11.536	4.4623	2.7387e-06	9.0544	0.00018261	0.00015051	0.00097783	221.72	1.6315e-06	1.9241e-06	311.41	52.709	4.614e-05	1.665e-06	104.69	29.524	14.32	22.545	1.7657e-06	10.201	374.586	468.828	399.830	186.471	195.227	412.391	186.386	191.872	264.618	265.771	191.886	196.291	196.469	249.720	408.585	201.143	-8191	255	
2658.613	1	1	0	0	0.12914	0.10244	0.18153	0.23783	0.088605	0.14298	0.0091791	0.24292	0.24615	0.15055	0.045471	0.072815	0.0072626	0.11043	0.12147	0.096182	-2.1271	-3.0208	-2.7938	-2.9021	-3.1729	-2.7917	-2.95	-2.9062	-2.7417	-3.0021	-2.7125	-2.9271	-2.9604	-2.7438	-2.9479	-2.8333	229.912	357.904	209.475	442.104	469.552	390.233	203.071	190.409	373.539	352.215	527.458	187.696	204.900	362.476	448.811	425.354	0.00033064	0.00012515	0.0076072	200.08	7.3084e-07	1.3184e-06	288.2	47.189	0.00052668	2.0349e-06	95.768	26.822	11.582	4.479	5.2309e-06	9.074	0.00018342	0.00015389	0.00036435	430.99	1.656e-06	1.9028e-06	313.06	53.109	4.3141e-05	1.6853e-06	104.16	30.056	14.422	24.413	1.7863e-06	10.248	363.394	182.863	403.316	526.726	303.678	396.442	186.757	192.287	271.600	216.492	191.450	196.305	196.197	256.442	447.673	201.357	-8191	255	
2658.710	1	1	0	0	0.14854	0.18147	0.21915	0.12106	0.30655	0.20194	0.074988	0.089083	0.094849	0.15311	0.087599	0.17432	0.17481	0.20999	0.075485	0.024892	-2.2375	-2.9021	-2.8896	-2.8479	-3.0812	-2.8875	-2.7562	-2.8563	-2.75	-3.0271	-2.8271	-2.8208	-3.0292	-2.8479	-2.7313	-2.9958	403.236	363.992	376.686	299.784	281.080	519.910	376.182	401.889	217.881	449.686	513.964	411.332	440.506	300.429	376.013	421.190	0.00033997	0.00017987	7.4047e-05	172.87	1.9962e-06	1.6601e-06	289.08	47.665	0.00058714	2.0991e-06	95.512	26.733	11.467	4.8749	1.3449e-05	9.0908	0.00018304	0.00015455	4.1761e-05	563.83	1.6856e-06	1.9462e-06	312.97	53.293	4.6549e-05	1.6784e-06	104.16	29.878	14.327	19.884	1.8194e-06	10.204	360.739	220.030	356.211	531.171	446.428	421.231	186.832	191.901	276.690	443.226	191.197	196.323	195.916	249.485	295.864	201.276	-8191	255	
2658.781	1	1	0	0	0.10652	0.10091	0.1774	0.24932	0.25041	0.26378	0.23018	0.039253	0.088582	0.062893	0.17574	0.10925	0.31084	0.095994	0.18869	0.18455	-2.1625	-2.9104	-2.7771	-2.5958	-3.1958	-2.8396	-2.8688	-2.925	-2.7292	-2.8646	-2.7562	-2.5583	-2.7083	-2.6708	-2.8771	-3.1958	511.281	266.766	471.119	445.076	473.731	473.556	480.931	201.147	215.155	225.853	186.127	290.664	248.090	477.729	211.993	176.621	0.00023848	0.00038656	6.9877e-05	179.3	1.6803e-06	6.6261e-06	286.87	47.12	0.00050466	2.3881e-06	94.765	26.595	11.38	4.8718	0.00022277	8.9943	0.00017499	0.00015349	4.1021e-05	587.34	1.6624e-06	1.7549e-06	312.21	52.802	4.1999e-05	1.7273e-06	103.23	29.664	14.21	8.5988	2.8372e-05	10.143	399.402	191.051	184.859	529.121	373.253	370.069	186.134	192.189	281.779	294.386	191.403	196.136	195.850	252.139	515.993	201.510	-8191	255	
2658.902	1	1	0	0	0.19308	0.1256	0.25083	0.13576	0.050174	0.35401	0.027125	0.13802	0.20849	0.15209	0.10176	0.13372	0.12386	0.037766	0.10679	0.12849	-2.2146	-2.7521	-2.8875	-2.8	-3.0271	-2.8625	-2.6792	-2.9313	-2.6958	-2.7917	-3.025	-2.6417	-2.875	-2.8604	-2.7812	-2.9042	368.091	416.376	363.229	463.622	273.463	288.316	427.849	474.962	321.245	202.847	408.458	448.020	436.404	201.206	285.537	436.956	0.00030373	0.00016187	1.4596e-05	186.36	9.3155e-07	4.0561e-06	288.44	47.156	0.000563	3.3022e-06	95.763	26.786	11.624	3.1679	0.0005541	9.0811	0.00016706	0.00015744	4.0219e-05	553.12	1.6179e-06	1.5539e-06	314.08	52.877	4.522e-05	1.6875e-06	103.85	29.854	14.366	3.9111	4.1932e-05	10.233	351.312	272.115	484.385	530.468	324.510	275.359	186.280	191.561	288.526	346.155	191.480	196.557	196.523	202.607	432.910	201.249	-8191	255	
2658.998	1	1	0	0	0.34538	0.070145	0.086638	0.21948	0.14693	0.20939	0.27341	0.10942	0.21063	0.0097749	0.13784	0.10792	0.17566	0.28226	0.14932	0.14559	-2.2167	-2.7979	-2.9104	-2.7146	-2.8958	-2.8542	-2.7021	-2.8417	-2.6542	-2.725	-2.9146	-2.5646	-2.8042	-2.8146	-2.7458	-2.9771	499.486	193.568	224.409	337.271	532.568	369.836	530.874	478.153	191.620	371.990	267.659	328.921	282.242	376.488	420.329	428.596	0.00028162	0.00028632	8.526e-05	189.73	1.3976e-06	2.1259e-06	288.51	47.774	0.00039804	0.00028547	96.051	26.837	11.589	3.1879	0.0005997	9.1692	0.00016815	0.00015387	4.0239e-05	582.73	1.5968e-06	1.5417e-06	315.29	53.256	3.4388e-05	2.9783e-06	104.19	29.901	14.486	3.9317	4.5629e-05	10.296	351.885	306.949	312.972	529.186	286.634	323.545	186.619	192.271	333.714	247.364	190.882	196.466	196.154	201.897	439.308	200.685	-8191	255	
2659.094	1	1	0	0	0.1744	0.054076	0.041699	0.13939	0.080203	0.20374	0.11339	0.046721	0.26419	0.16203	0.094126	0.2263	0.094518	0.11444	0.22895	0.26307	-2.4604	-2.8021	-2.8875	-2.8625	-2.7938	-2.8375	-2.5104	-2.9667	-2.7792	-2.6688	-3.0042	-2.6708	-2.8187	-2.7417	-2.7771	-3.0125	363.123	338.031	409.902	406.444	238.175	318.497	191.402	228.254	364.934	274.920	402.237	192.158	476.383	332.240	224.852	478.001	0.00025211	0.00022482	6.2952e-05	197.67	4.0541e-06	2.719e-06	289.67	47.921	0.00044427	0.00029966	96.51	26.916	11.752	3.1896	0.00054317	9.3117	0.00015646	0.00016142	4.0427e-05	556.29	1.6918e-06	1.5804e-06	316.57	53.56	1.0036e-05	3.0372e-05	104.98	30.032	14.655	3.9762	4.1954e-05	10.334	378.568	247.086	223.290	530.297	216.942	220.146	186.692	192.503	335.433	248.603	191.073	196.445	195.925	201.955	444.689	200.957	-8191	255	
2659.189	1	1	0	0	0.32971	0.46037	0.1055	0.10655	0.24098	0.023922	0.1023	0.1925	0.2146	0.17007	0.16246	0.25684	0.33667	0.20073	0.17809	0.20775	-2.3083	-2.7167	-3.0646	-2.7812	-2.8875	-3.1	-2.8104	-2.9896	-2.725	-2.7562	-3.0125	-2.7021	-2.7333	-3.1104	-2.8063	-2.9458	260.008	295.997	302.512	407.740	389.966	409.792	436.128	440.622	341.375	226.612	250.189	406.810	451.309	392.250	280.507	250.174	0.00021259	0.00038772	3.0075e-05	202.99	1.5511e-07	2.549e-06	289.84	47.396	4.126e-06	0.00044406	96.128	26.714	11.434	3.1944	0.00055955	9.0992	0.00014295	0.00018044	4.0452e-05	581.72	1.7152e-06	1.583e-06	314.86	53.106	1.5571e-06	4.1588e-05	103.9	29.71	14.414	3.9217	4.4687e-05	10.192	362.448	310.168	240.915	529.014	402.160	477.361	186.299	192.273	200.182	306.685	191.233	196.245	195.509	202.298	450.650	200.881	-8191	255	
2659.286	1	1	0	0	0.16525	0.11415	0.033937	0.042391	0.21059	0.16483	0.15948	0.26586	0.11302	0.16468	0.10196	0.11344	0.24921	0.23932	0.26457	0.18081	-2.5479	-2.6125	-2.9917	-2.8167	-2.7375	-2.7146	-2.7292	-2.8458	-2.9	-2.7208	-3.1208	-2.6229	-2.8729	-2.9688	-2.8167	-2.8646	381.829	447.753	286.526	503.532	337.312	396.210	328.580	276.834	288.246	284.221	330.036	250.134	304.236	446.852	259.574	197.807	0.00014031	0.00052875	5.8623e-05	195.14	0.00057352	1.957e-06	287.75	47.341	1.5138e-06	0.00047314	96.212	26.679	11.676	3.1793	0.0005152	9.1732	0.00014245	0.00017422	4.0296e-05	470.6	4.7172e-06	1.547e-06	312.82	53.145	1.5355e-06	4.4538e-05	103.88	29.499	14.581	3.9168	4.1132e-05	10.311	327.805	311.332	333.134	187.174	211.119	214.839	186.827	191.698	514.284	313.200	191.713	196.754	195.407	202.500	456.050	200.746	-8191	255	
2659.381	1	1	0	0	0.21267	0.21542	0.097526	0.15853	0.10442	0.05094	0.27339	0.085519	0.27738	0.12016	0.020307	0.30621	0.13503	0.24283	0.21916	0.088052	-2.4583	-2.7354	-2.9083	-2.7208	-2.9292	-3.0563	-2.7188	-2.9333	-2.7521	-2.6813	-3.0604	-2.7188	-2.8063	-2.9417	-2.7938	-2.9667	276.276	192.792	502.792	230.366	403.037	306.142	430.730	529.520	295.972	510.445	308.198	226.537	198.303	183.726	468.891	250.513	0.00020262	0.0007911	6.566e-05	195.49	0.00062657	1.9041e-06	288.82	47.637	3.7841e-06	0.00043186	95.439	26.725	11.635	3.1647	0.00057141	9.1442	0.00014207	0.00017454	4.0358e-05	272.72	3.1671e-05	1.5456e-06	313.71	53.265	1.5634e-06	4.1339e-05	104.18	29.385	15.02	3.9403	4.479e-05	10.297	334.679	312.879	296.672	187.659	211.378	395.052	186.437	191.988	243.173	319.415	191.594	196.829	195.691	202.191	462.323	200.677	-8191	255	
2659.479	1	1	0	0	0.23341	0.14412	0.27321	0.084067	0.094321	0.23617	0.18287	0.11801	0.17009	0.23614	0.14218	0.047915	0.14633	0.36285	0.19503	0.12235	-2.3396	-2.7083	-2.7375	-2.5917	-2.6708	-3.0604	-2.65	-2.7938	-2.9917	-2.7375	-3.0958	-2.9083	-2.5354	-2.9562	-2.8021	-2.7812	467.587	330.311	320.942	480.838	279.344	520.212	353.678	264.627	312.826	311.036	523.269	467.970	321.793	457.338	323.237	180.726	0.00019115	0.00033539	5.4904e-05	204.1	0.00054237	1.8211e-06	290.82	47.482	1.3753e-06	0.00047847	96.428	27.15	11.888	3.1678	0.00049623	8.2001	0.00014283	0.00017162	4.0054e-05	222.02	4.1344e-05	1.5718e-06	314.86	53.455	1.566e-06	4.5118e-05	104.85	29.652	15.057	3.9675	3.0752e-05	13.489	332.654	270.919	463.623	186.518	213.271	299.638	186.525	192.276	283.386	325.497	191.082	196.667	195.333	202.291	425.604	181.730	-8191	255	
2659.598	1	1	0	0	0.11253	0.12759	0.14548	0.077932	0.10084	0.073994	0.15084	0.21753	0.33119	0.18425	0.10147	0.068137	0.37594	0.20557	0.1687	0.095901	-2.6354	-2.5479	-3.0146	-2.7729	-2.7229	-3.1042	-2.7854	-2.7938	-2.8563	-2.5354	-2.8771	-2.9917	-2.7979	-2.9229	-2.7146	-2.85	516.298	392.057	455.664	302.542	296.692	230.688	495.119	200.637	442.246	480.694	294.281	395.809	226.501	294.115	420.879	390.889	0.0002336	0.00027563	0.00010187	202	0.00058184	3.6479e-06	288.58	47.13	2.9152e-07	0.00044607	93.837	27.084	11.693	3.1381	0.00053031	8.2492	0.00014411	0.00016927	4.3021e-05	222.02	4.5436e-05	1.6136e-06	313.43	53.729	1.6198e-06	4.2168e-05	104.45	29.474	14.985	3.947	6.1265e-06	30.759	355.027	321.277	215.151	186.424	220.175	299.727	186.584	191.700	446.791	330.025	191.484	196.853	195.009	202.004	427.966	176.992	-8191	255	
2659.694	1	1	0	0	0.080582	0.033971	0.177	0.12858	0.26162	0.13728	0.13224	0.20762	0.21781	0.091092	0.12576	0.095436	0.051613	0.06812	0.058636	0.089872	-2.4188	-2.5125	-2.9688	-2.9562	-2.7521	-3.0187	-2.8917	-2.7125	-3.0333	-2.6958	-2.8104	-3.0521	-2.6937	-2.8917	-2.7313	-2.7125	498.435	434.115	366.200	484.607	398.235	228.886	194.009	397.955	419.478	426.355	411.427	397.789	451.425	298.539	298.739	287.185	0.00028801	0.00022532	5.2477e-05	200.12	0.00054269	5.7498e-07	289.42	46.686	2.9307e-06	0.00048691	94.812	26.716	11.667	3.1162	1.4201e-06	4.8452	0.00014868	0.00016914	4.3766e-05	220.24	4.2017e-05	1.6419e-06	310.43	53.691	1.6111e-06	4.5382e-05	104.13	29.209	14.853	3.9146	1.569e-06	35.505	353.147	240.509	350.191	186.679	225.364	377.607	186.375	191.793	484.950	336.115	191.370	196.769	195.777	202.451	195.152	192.241	-8191	255	
2659.790	1	1	0	0	0.31613	0.22266	0.10204	0.24136	0.2026	0.040667	0.28254	0.2548	0.083485	0.06982	0.13391	0.090731	0.17945	0.089101	0.13757	0.20473	-2.5875	-2.4646	-2.5917	-2.8833	-2.5687	-2.9542	-2.7979	-2.7125	-3.0625	-2.9896	-2.8563	-3.0979	-2.7604	-2.9333	-2.9917	-2.7604	240.128	283.685	525.882	502.793	306.439	480.862	468.445	265.542	354.346	228.769	273.650	212.180	354.916	446.184	497.740	362.790	0.00026211	0.00032414	8.5167e-05	200.13	0.00058165	1.4268e-06	285.32	46.625	6.3354e-07	0.00043229	107.57	26.372	11.482	3.1038	1.615e-06	4.4425	0.00014722	0.0001717	4.2998e-05	219.22	4.5268e-05	1.6223e-06	308.67	53.394	1.5923e-06	2.8721e-05	147.49	29.072	14.666	3.9164	1.543e-06	37.456	339.366	272.691	345.095	186.704	231.454	246.680	186.418	191.757	465.651	357.142	188.741	196.562	195.295	202.277	289.259	185.075	-8191	255	
2659.886	1	1	0	0	0.16524	0.15211	0.19439	0.10852	0.06343	0.11337	0.082674	0.028087	0.1705	0.032706	0.049107	0.15865	0.092017	0.15447	0.22261	0.19026	-2.5	-2.7458	-2.6604	-3.0792	-2.7562	-2.8875	-3.075	-2.6792	-3.0938	-3.0521	-2.8771	-3.1146	-2.6354	-2.8958	-2.9479	-2.8833	256.654	521.883	329.604	421.755	417.089	398.204	374.466	353.160	485.405	202.196	321.689	285.160	355.137	526.783	430.725	485.002	0.00016867	0.00022001	8.4107e-05	199.68	0.00053762	3.9949e-06	288.06	47.001	1.3861e-06	0.00047666	106.49	27.015	11.428	3.1568	9.6631e-07	5.2534	0.00014495	0.00014799	4.4968e-05	219.79	4.14e-05	1.6873e-06	310.6	53.683	1.5851e-06	4.0408e-06	325.53	29.351	14.676	3.9536	1.5299e-06	35.394	336.085	349.832	346.165	186.618	236.036	236.321	186.446	191.988	473.459	358.536	188.440	196.583	195.971	201.963	357.795	184.619	-8191	255	
2660.007	1	1	0	0	0.18982	0.33915	0.19117	0.13195	0.21236	0.071419	0.051346	0.085043	0.12467	0.1852	0.16628	0.085829	0.22588	0.065675	0.093862	0.16131	-2.6688	-2.8542	-2.7958	-3.0583	-2.9188	-3.0917	-3.0854	-2.7271	-3.1104	-2.9292	-2.8458	-2.9813	-2.6708	-2.9667	-3.0458	-2.8208	463.126	176.762	410.415	204.810	189.340	489.583	247.200	269.615	182.913	486.911	256.339	450.535	192.019	191.638	291.423	465.741	0.00024558	0.00015959	0.00017463	202.19	0.00058529	5.0548e-06	290.9	47.346	2.1951e-06	1.9429e-06	122.24	26.962	11.732	3.1693	2.9431e-06	5.2635	0.00014544	0.00013806	4.8599e-05	221.71	4.498e-05	1.6404e-06	313.08	54.03	1.5678e-06	1.5033e-06	365.69	29.538	14.774	3.9646	1.5296e-06	37.666	347.889	388.244	320.829	186.269	243.422	289.228	186.373	191.987	320.113	403.077	213.436	196.577	195.836	201.494	346.716	176.589	-8191	255	
2660.078	1	1	0	0	0.025027	0.021019	0.33907	0.11479	0.11881	0.1066	0.14635	0.35618	0.13432	0.17888	0.18317	0.19224	0.19028	0.10271	0.038539	0.27127	-2.75	-2.8937	-2.8979	-3.0146	-2.7917	-2.9854	-3.0375	-2.8396	-3.0938	-3.0312	-2.8417	-3.1542	-2.7542	-3.0375	-3.1167	-2.9562	351.018	416.176	416.439	501.773	497.461	338.625	422.879	372.472	369.281	268.880	322.755	415.832	363.731	190.627	223.019	483.347	0.00022384	0.00014993	0.00020418	202.36	0.0001577	0.00054066	290.66	47.317	5.3434e-06	1.2895e-06	122.14	26.846	11.687	3.214	6.9885e-07	5.9698	0.00014375	0.00013791	4.7351e-05	221.81	2.6802e-05	1.0174e-05	312.5	53.728	1.6608e-06	1.5236e-06	387.42	29.44	14.394	4.0284	1.5455e-06	35.355	348.999	530.029	340.130	186.630	330.948	225.491	186.722	191.973	515.328	259.120	216.332	196.344	195.417	201.544	390.672	177.649	-8191	255	
2660.197	1	1	0	0	0.13227	0.096816	0.16652	0.18959	0.3084	0.12517	0.12536	0.19084	0.15039	0.18659	0.019816	0.12012	0.20953	0.11537	0.1192	0.36256	-2.5458	-2.975	-2.6729	-3.2062	-2.7479	-2.8229	-3.0312	-2.5708	-2.9917	-2.9688	-2.8167	-2.9604	-2.7938	-2.7792	-3.2125	-2.9083	241.364	267.639	340.036	318.368	338.507	260.281	417.788	457.431	221.755	288.686	181.091	297.692	235.708	438.456	472.316	388.505	0.00022476	0.00016987	9.6964e-05	201.33	0.00019899	0.00057066	289.2	47.432	4.634e-06	1.5743e-06	114.86	26.554	11.535	3.1868	2.6542e-06	6.0808	0.00015196	0.00013954	4.8348e-05	221.25	2.1747e-06	3.7772e-05	311.62	53.487	1.6441e-06	1.5286e-06	361.66	29.278	14.13	4.0543	1.5484e-06	37.103	318.028	277.218	311.909	186.398	324.554	229.254	186.248	192.030	507.646	304.456	215.640	196.436	195.803	201.265	409.107	532.018	-8191	255	
2660.293	1	1	0	0	0.30887	0.060244	0.16447	0.20809	0.14442	0.11817	0.34243	0.061822	0.27331	0.1608	0.1012	0.088227	0.3233	0.20377	0.023164	0.077691	-2.6104	-3.05	-2.6188	-3.0625	-2.8312	-2.8312	-2.9896	-2.8271	-2.9458	-3.2208	-2.8104	-2.8812	-2.8542	-2.7729	-2.9958	-2.8729	508.701	336.215	377.997	387.163	374.409	286.852	406.258	257.215	516.062	402.212	432.625	275.391	390.756	190.362	232.570	413.046	0.00028025	0.00010322	0.00012214	199.5	2.7386e-07	0.0005411	287.25	46.819	2.887e-06	1.8623e-06	112.97	26.599	11.486	3.1712	2.1215e-06	6.4399	0.00014978	0.00014026	4.7229e-05	220.14	1.5205e-06	4.1195e-05	310.3	53.203	1.6263e-06	1.5294e-06	383.98	29.298	14.094	4.0429	1.5588e-06	24.834	306.120	516.700	333.859	186.820	212.906	252.252	186.324	191.800	512.392	442.247	219.456	196.489	195.945	202.084	442.200	212.560	-8191	255	
2660.390	1	1	0	0	0.28721	0.21807	0.14904	0.097605	0.10014	0.098123	0.098945	0.28756	0.090249	0.13884	0.023207	0.24807	0.19443	0.087455	0.095606	0.09717	-2.475	-2.8812	-2.825	-3.2125	-2.9458	-2.7792	-3.0792	-2.9042	-2.825	-3.1896	-2.8208	-3.0729	-2.9708	-2.6479	-2.9417	-2.8146	242.254	270.415	260.833	391.533	493.269	349.322	196.449	475.240	420.523	242.598	298.454	512.803	250.752	271.229	498.221	362.451	0.01367	4.8176e-05	2.9541e-05	200.39	3.6306e-07	0.0005827	290.11	46.739	5.3558e-06	5.6e-07	106.99	26.835	11.698	3.2015	2.326e-06	9.1816	0.0010672	0.0001411	4.5443e-05	221.3	1.5009e-06	4.4877e-05	312.23	52.709	1.739e-06	1.496e-06	360.47	29.475	14.053	4.0408	1.5046e-06	10.177	269.216	272.844	242.381	186.342	472.517	258.965	186.348	192.296	522.590	239.373	218.551	196.675	196.780	202.081	369.012	201.205	-8191	255	
2660.486	1	1	0	0	0.10254	0.24634	0.1763	0.1213	0.20442	0.078615	0.23157	0.059585	0.095411	0.20387	0.26281	0.24157	0.082546	0.15144	0.21806	0.13967	-2.4333	-3.0979	-2.8125	-3.0083	-3.0708	-2.8875	-3.1458	-2.9833	-2.7146	-3.0479	-2.7708	-3.0104	-2.9458	-2.6833	-2.8771	-2.9021	496.358	327.570	259.621	372.824	259.959	377.217	425.221	371.644	511.371	308.567	206.683	474.126	346.832	502.639	226.541	474.043	0.014826	3.4143e-05	9.7636e-05	203.06	9.1041e-07	0.00052424	292.43	48.159	5.1063e-06	2.5923e-06	105.09	27.211	11.817	3.293	1.7938e-06	9.3368	0.0034728	0.00013288	4.2577e-05	222.76	1.4089e-06	4.0314e-05	313.56	53.147	1.775e-06	1.4211e-06	376.23	29.74	14.183	4.0753	1.434e-06	10.327	271.610	249.671	372.782	186.521	328.116	263.139	186.409	191.931	510.671	404.817	220.390	196.536	196.314	202.072	252.171	201.149	-8191	255	
2660.582	1	1	0	0	0.24627	0.07712	0.38319	0.099847	0.082367	0.17532	0.23481	0.083999	0.10409	0.044865	0.10042	0.31479	0.30003	0.25819	0.28628	0.31167	-2.3458	-2.9542	-2.5812	-2.7021	-2.9708	-2.4958	-2.9792	-3.0083	-2.7	-3.1833	-2.8625	-2.8208	-3.0875	-2.5792	-2.8958	-2.9437	368.122	414.527	218.609	366.523	329.962	197.577	457.893	211.137	434.668	452.198	518.254	326.270	388.936	504.276	426.211	184.360	0.013887	0.00014177	0.0001935	207.49	1.7661e-06	0.00054393	294.87	48.791	7.4718e-06	1.1792e-06	107.19	26.411	12.21	3.3508	3.7786e-06	9.4508	0.0035763	0.00012756	4.0553e-05	225.54	1.3648e-06	4.3155e-05	315.99	53.933	1.6821e-06	1.4057e-06	240.18	46.21	14.358	4.1084	1.4738e-06	10.401	238.836	262.001	339.411	186.791	260.118	271.260	186.155	192.008	520.957	259.043	219.001	194.343	196.676	202.232	276.173	200.576	-8191	255	
2660.678	1	1	0	0	0.10483	0.34897	0.20408	0.10798	0.28118	0.22888	0.15551	0.19221	0.35234	0.12313	0.3205	0.10778	0.14293	0.057349	0.22792	0.27772	-2.1208	-2.8417	-2.5479	-2.7771	-2.8833	-2.6792	-2.9313	-3.0646	-2.6583	-3.1521	-2.8875	-2.7729	-2.9042	-2.5521	-2.7562	-2.9667	215.704	341.164	396.446	363.878	285.433	297.552	502.895	206.948	344.706	224.301	416.779	300.837	474.813	466.849	329.574	351.198	0.014855	0.00014028	0.00012567	207.61	2.5915e-06	0.00051723	294.75	48.879	5.3495e-06	8.4726e-07	97.769	26.283	11.959	3.3266	2.6394e-06	9.4097	0.0038543	0.0001277	3.5323e-05	227.44	1.363e-06	3.9956e-05	317	53.807	1.709e-06	1.4071e-06	104.85	83.166	14.317	4.0856	1.4588e-06	10.422	246.247	364.592	344.956	187.068	184.488	275.454	186.343	191.919	175.486	259.412	191.910	193.597	196.429	201.906	339.807	200.980	-8191	255	
2660.774	1	1	0	0	0.11908	0.14132	0.18115	0.1747	0.28478	0.24387	0.061802	0.11003	0.16344	0.049667	0.21594	0.098465	0.10543	0.12732	0.21113	0.17537	-2.1292	-3.0083	-2.8979	-2.7313	-3.0292	-2.7104	-2.8604	-2.9458	-2.7583	-3	-2.9146	-2.9833	-3.0187	-2.5812	-2.825	-2.9854	256.675	378.902	457.819	307.143	426.864	177.030	449.194	185.923	327.280	458.175	533.784	177.406	266.838	402.160	426.034	341.384	0.01363	0.00019148	6.3689e-05	209.34	2.7386e-06	0.00056763	296.45	48.877	4.2466e-06	7.5444e-07	98.187	25.951	12.235	3.3519	7.2461e-06	9.5348	0.00358	0.00012764	3.3932e-05	229.5	1.3819e-06	4.2874e-05	318.09	54.082	1.6557e-06	1.3869e-06	105.14	82.597	14.389	4.0807	1.4089e-06	10.438	251.885	330.273	484.925	186.686	336.497	281.446	186.419	192.018	186.579	259.081	190.889	216.003	195.418	202.740	289.012	201.340	-8191	255	
2660.870	1	1	0	0	0.12154	0.19054	0.21824	0.11312	0.32589	0.14746	0.18413	0.12666	0.24329	0.19888	0.097054	0.21297	0.21082	0.18348	0.1206	0.1405	-2.3917	-2.9604	-2.7021	-2.6896	-2.9646	-2.7625	-2.7458	-2.9958	-2.7375	-2.9188	-2.9458	-2.725	-2.8021	-2.5479	-2.75	-2.8854	211.972	274.071	314.655	448.912	226.717	527.395	358.429	475.617	274.047	431.717	506.196	504.978	273.602	303.274	180.801	453.418	0.014494	0.00024986	2.1828e-05	209.88	5.2907e-07	0.00033763	338.56	49.699	3.9764e-06	4.847e-06	100.32	25.448	12.365	3.4362	3.2424e-06	9.7862	0.0037705	0.00012642	3.2749e-05	230.14	1.3462e-06	2.0037e-05	423	54.518	1.5444e-06	1.4144e-06	106.29	86.051	14.522	4.0542	1.5003e-06	10.637	257.562	176.958	252.251	186.862	366.422	336.755	184.327	191.972	179.690	226.093	191.552	216.199	195.836	202.214	263.990	201.288	-8191	255	
2660.966	1	1	0	0	0.14941	0.046422	0.081326	0.185	0.13373	0.10066	0.14693	0.30377	0.11915	0.099167	0.10329	0.24067	0.092018	0.073986	0.20835	0.13596	-2.1125	-2.8042	-2.8021	-2.65	-2.9521	-2.7771	-2.7812	-2.8833	-2.6562	-2.8542	-3.0292	-2.6396	-3.0167	-2.8812	-2.7	-3.0438	322.804	362.908	474.865	287.773	441.069	306.870	362.179	453.288	389.302	246.157	422.616	176.482	332.483	345.196	227.355	179.416	0.013265	0.00016501	8.0121e-05	213.35	1.086e-06	1.5684e-06	344.91	51.392	6.9252e-06	1.1157e-06	101.61	25.224	12.766	3.5147	6.2008e-06	9.9582	0.0034462	0.00012346	3.1143e-05	233.61	1.2812e-06	1.208e-06	624.46	55.875	1.4696e-06	1.3199e-06	107.97	81.797	14.743	4.1099	1.5355e-06	10.856	263.054	200.841	268.038	186.977	516.035	293.443	184.700	191.779	532.029	249.651	191.054	213.912	196.166	201.500	325.542	200.821	-8191	255	
2661.085	1	1	0	0	0.076073	0.019977	0.24145	0.066552	0.24337	0.24187	0.16386	0.18268	0.076758	0.29788	0.082251	0.12495	0.17862	0.08571	0.12408	0.13893	-2.425	-2.8042	-2.9437	-2.5979	-3.0042	-2.7604	-2.7875	-2.8375	-2.5646	-2.8688	-3.0292	-2.5812	-2.8771	-2.9042	-2.8563	-2.8708	439.705	474.197	415.210	235.433	191.941	335.824	341.080	470.491	190.083	349.861	228.107	413.890	242.330	521.065	358.700	196.452	0.013836	0.00012464	1.7108e-05	214.81	3.1581e-07	1.1214e-06	351.36	51.531	2.5696e-06	5.6602e-06	101.98	24.092	12.869	3.5794	7.2737e-06	10.197	0.0036073	0.00012	3.0087e-05	235.1	1.2361e-06	1.1787e-06	608.75	56.178	1.3756e-06	1.2954e-06	108.2	84.581	14.87	4.1458	1.5084e-06	10.962	266.054	231.741	255.676	186.607	398.870	529.082	190.781	191.741	503.303	188.840	191.175	213.989	195.982	202.131	331.390	200.996	-8191	255	
2661.182	1	1	0	0	0.20217	0.14533	0.032795	0.15204	0.063051	0.24038	0.26183	0.13341	0.1591	0.16796	0.1376	0.15176	0.25191	0.020701	0.061198	0.047665	-2.2833	-2.7375	-2.7479	-2.6063	-3.0146	-2.8125	-2.8354	-2.9604	-2.775	-2.5958	-3.0521	-2.5854	-2.7958	-2.875	-2.4958	-3.2479	517.635	218.482	444.115	499.973	221.745	336.664	401.777	512.094	317.755	412.761	399.296	475.052	387.125	473.632	205.024	428.018	0.0035616	0.039388	5.4209e-05	215.84	2.8248e-06	7.6466e-07	355.72	51.58	3.0767e-06	6.4837e-06	102.57	23.947	12.874	3.5306	9.0918e-06	10.097	0.0015618	0.0014134	3.0372e-05	235.16	1.2991e-06	1.182e-06	629.52	56.336	1.2053e-06	1.4416e-06	108.25	80.883	14.931	4.1319	1.5197e-06	10.91	175.428	516.887	186.204	186.345	464.940	455.369	192.373	192.024	525.826	189.658	191.175	211.766	195.801	202.135	339.186	201.458	-8191	255	
2661.279	1	1	0	0	0.1737	0.065035	0.17179	0.039809	0.17028	0.21806	0.059597	0.04622	0.084488	0.30488	0.2023	0.28696	0.21056	0.089584	0.27394	0.24904	-2.3375	-2.8146	-2.9042	-2.4188	-2.7771	-2.7917	-2.8208	-2.9104	-2.8396	-2.8812	-3.075	-2.775	-2.7479	-3.0667	-2.5938	-2.9604	377.496	281.846	206.746	351.038	270.751	277.092	254.625	454.907	356.941	452.191	412.624	468.469	244.775	379.527	361.705	475.640	0.00021942	0.038096	7.7976e-05	216.55	1.4224e-06	2.8849e-06	348.5	51.652	1.8425e-06	3.996e-06	102.78	22.538	12.771	3.5159	4.0681e-06	9.9696	0.00010702	0.003639	3.1101e-05	235.27	1.3e-06	1.1741e-06	606.91	56.197	1.1824e-06	1.5373e-06	108.31	84.237	14.916	4.1326	1.5153e-06	10.863	341.311	505.152	513.932	186.458	217.411	269.182	192.340	191.915	239.898	234.341	190.902	211.564	196.049	201.796	387.793	200.864	-8191	255	
2661.374	1	1	0	0	0.11252	0.26374	0.16005	0.23982	0.082574	0.071709	0.40851	0.076331	0.01649	0.070112	0.27797	0.082239	0.15935	0.24198	0.25345	0.15609	-2.2375	-2.7854	-3.0083	-2.6354	-2.7271	-2.8792	-2.7875	-2.8167	-2.7417	-2.5167	-2.9771	-2.725	-2.7917	-2.9833	-2.4875	-2.8812	219.943	520.737	468.409	469.716	275.351	176.954	433.730	440.196	181.182	193.969	322.476	325.823	371.107	349.672	393.159	223.194	0.00022039	0.036813	1.4037e-05	216.02	5.5398e-06	3.215e-06	349.64	51.986	2.3827e-06	4.692e-06	103.06	27.082	7.094	3.5665	5.8841e-06	10.032	0.00010946	0.0034291	3.1583e-05	234.72	1.3313e-06	1.2198e-06	630.56	56.715	1.1999e-06	1.5388e-06	109.2	51.723	46.302	4.187	1.483e-06	10.989	336.761	512.167	489.794	186.795	522.752	363.465	193.154	191.564	239.273	225.762	190.642	214.746	529.809	202.231	341.277	201.087	-8191	255	
2661.470	1	1	0	0	0.10361	0.083739	0.19476	0.16048	0.34815	0.1134	0.18556	0.1459	0.26724	0.24569	0.078144	0.17988	0.017839	0.064949	0.19258	0.12593	-2.4271	-2.5792	-2.8417	-2.6542	-2.7354	-2.8354	-2.8063	-2.8021	-2.8479	-2.5417	-3.0312	-2.7542	-2.8042	-2.9604	-2.7375	-2.8688	332.562	475.458	489.189	250.870	336.928	333.904	479.350	340.461	329.558	279.119	468.830	399.155	432.076	470.501	448.562	201.071	0.00021827	0.03786	6.0409e-05	217.04	4.0181e-06	1.7683e-06	342.24	51.88	1.6529e-06	5.1472e-06	102.13	29.037	9.4803	3.5359	4.7832e-06	10.021	0.00011313	0.0037161	3.2342e-05	233.68	1.508e-06	1.2671e-06	613.11	56.723	1.2361e-06	1.5832e-06	108.81	31.308	91.262	4.1859	1.4962e-06	10.983	330.518	518.777	271.233	186.658	505.256	426.840	193.517	192.469	296.411	216.957	191.380	196.573	270.438	202.141	338.348	201.204	-8191	255	
2661.566	1	1	0	0	0.088804	0.055011	0.14889	0.067907	0.25751	0.11545	0.25386	0.23243	0.14351	0.13636	0.084397	0.22207	0.14211	0.23435	0.12664	0.032259	-2.4021	-2.575	-2.9396	-2.8125	-2.6083	-2.9458	-2.6167	-2.8042	-3.1917	-2.8312	-3.0042	-2.7417	-2.7208	-3.0438	-2.7188	-2.8583	426.357	307.843	305.829	297.211	313.122	525.655	451.760	387.914	322.868	518.480	352.050	293.387	220.284	447.189	194.939	227.419	0.00024643	0.036704	4.4397e-05	217.57	3.515e-06	2.387e-06	317.42	51.869	2.1901e-06	2.4371e-06	102.43	29.097	7.8693	3.5523	6.3447e-06	10.01	0.0001159	0.0034741	3.2754e-05	234.23	1.6122e-06	1.301e-06	626.11	56.923	1.2551e-06	1.5351e-06	109.16	31.232	85.763	4.1823	1.4139e-06	10.943	332.724	522.054	435.825	186.440	427.478	319.098	195.730	191.976	174.154	313.841	191.014	196.869	268.394	202.369	368.465	201.134	-8191	255	
2661.687	1	1	0	0	0.22324	0.21026	0.14807	0.15101	0.27007	0.032373	0.10831	0.16578	0.2246	0.2331	0.1353	0.087623	0.13633	0.11253	0.14521	0.054221	-2.5167	-2.6042	-2.7729	-2.8104	-2.5521	-2.8917	-2.65	-2.5563	-3.0521	-2.6521	-2.8104	-2.8271	-2.7271	-3.0062	-2.7313	-2.7458	335.774	465.956	483.305	435.263	317.845	481.107	478.160	421.842	272.333	495.074	489.932	390.555	519.247	230.867	483.087	223.222	0.00023761	0.039404	6.1937e-05	216.45	7.4166e-06	2.8743e-06	308.38	59.376	3.4451e-06	2.3443e-06	103.19	28.889	7.5573	3.5689	5.2831e-06	9.8915	0.00011598	0.0036668	3.4462e-05	233.34	1.5829e-06	1.3158e-06	425.75	107.53	1.2734e-06	1.5034e-06	109.14	31.014	90.081	4.1588	1.2444e-06	10.986	345.486	528.420	521.563	186.232	476.288	284.911	195.642	190.049	305.183	239.436	191.412	196.444	275.601	202.148	354.391	201.011	-8191	255	
2661.783	1	1	0	0	0.054067	0.14684	0.18366	0.28418	0.2106	0.072921	0.013788	0.30342	0.17527	0.20867	0.10196	0.12022	0.078579	0.20957	0.12926	0.18671	-2.3708	-2.7958	-2.7604	-2.8417	-2.575	-2.8854	-2.7188	-2.6813	-2.8333	-2.6771	-2.7687	-2.9125	-2.675	-2.9479	-2.8833	-2.6146	45.983	176.709	64.304	-124.300	90.011	-124.121	-50.071	80.519	139.327	-131.672	-147.892	139.848	48.838	-11.646	-28.159	-88.258	0.00028022	0.036256	0.00012027	215.33	5.4569e-06	1.9203e-06	304.16	64.509	2.0294e-06	3.3603e-06	103.14	28.883	5.9737	3.5541	1.6688e-06	9.9191	0.00011807	0.0034204	3.4439e-05	232.92	1.587e-06	1.3043e-06	324.67	169.74	1.2922e-06	1.5166e-06	109.47	31.249	85.753	4.1834	1.2506e-06	11.095	-17.578	173.973	-157.975	186.375	118.914	-18.812	186.467	-152.498	-41.021	184.819	-168.655	-163.647	-89.588	-157.694	-69.341	-158.595	-8191	255	
2661.879	1	1	0	0	0.16703	0.23798	0.2123	0.024325	0.33339	0.087592	0.143	0.13446	0.31726	0.26369	0.10261	0.14653	0.05993	0.048037	0.23711	0.074283	-2.3979	-2.6667	-2.6167	-3.0667	-2.5208	-2.8979	-2.7542	-2.7479	-3.0708	-2.6375	-2.8083	-2.9938	-2.6542	-2.9604	-2.8708	-2.7646	63.735	34.400	12.755	-89.975	93.531	-43.371	-2.275	127.828	72.300	-150.865	109.717	124.532	-66.070	57.648	31.103	-101.393	0.00022436	0.0042809	3.9974e-05	216.61	4.6591e-06	9.3784e-07	304.51	62.421	2.4064e-06	1.5559e-06	103.04	29.437	4.9723	3.5055	1.2286e-06	9.9303	0.00012056	0.0034486	3.5077e-05	234.37	1.5705e-06	1.3186e-06	326.06	163.61	1.3207e-06	1.4502e-06	110.29	31.519	91.042	4.2493	1.2922e-06	11.122	-19.682	-60.630	-141.091	186.477	122.535	150.827	186.462	-152.505	-119.797	160.356	-168.970	-163.366	-75.785	-157.867	-47.798	-158.370	-8191	255	
2661.975	1	1	0	0	0.17418	0.093557	0.27927	0.21992	0.076489	0.09817	0.18709	0.34797	0.097028	0.16862	0.35977	0.20976	0.16903	0.14997	0.057338	0.15243	-2.6833	-2.7729	-2.7	-2.8667	-2.8292	-2.9313	-2.9917	-2.8021	-2.8896	-2.775	-2.7646	-2.9562	-2.6021	-2.8208	-2.8312	-2.5354	-95.460	167.104	-128.555	145.311	-142.813	19.162	-159.843	146.739	-155.677	129.846	68.540	6.527	20.622	42.240	163.213	131.398	0.00029448	0.0058451	0.012817	218.2	3.5302e-06	3.6967e-06	305.61	61.475	2.9084e-06	1.0939e-06	102.95	29.469	3.0142	3.5553	1.4368e-06	9.9872	0.00012485	0.001173	0.00052758	235.4	1.5641e-06	1.4355e-06	326.67	171.23	1.3825e-06	1.2987e-06	111.41	31.588	86.358	4.2509	1.3342e-06	11.139	-18.269	-64.586	183.251	186.201	137.663	186.379	186.723	-150.274	-141.908	-10.930	191.187	-163.585	-82.112	-158.077	83.367	-158.705	-8191	255	
#DATA ENDS
