BOXY.EXE: ISS Imagent and Oximeter Data Acquisition Program Version 0.80
Ascii Record File

#ACQ INFORMATION
2  Detector Channels 
16  External MUX Channels 
1  Auxiliary Channels 
5000  Waveform (CCF) Frequency (Hz)
1  Waveforms Skipped 
30  Waveforms Averaged 
1  Cycles Averaged 
16  Acquisitions per Waveform 
10.0806  Updata Rate (Hz) 

#FILE INFORMATION
TRUE -- External MUX Channel results are PARSED.
FALSE -- AC DC and Phase are NOT grouped.
TRUE -- Companion Program Settings File CREATED.
FALSE -- AC data not excluded
FALSE -- DC data not excluded
FALSE -- Phase data not excluded
FALSE -- Auxillary Chn. data not excluded
Tab delimiters

#CALIBRATION STATE
TRUE -- Waveform Calibration Values APPLIED.


#AUX CALIBRATION VALUES
Val Type	aux-1	

Term	1.0000e+00	
Factor	0.0000e+00	


#WF CALIBRATION VALUES
A = Detector Channel
Val Type	A-AC1	A-AC2	A-AC3	A-AC4	A-AC5	A-AC6	A-AC7	A-AC8	A-AC9	A-AC10	A-AC11	A-AC12	A-AC13	A-AC14	A-AC15	A-AC16	A-DC1	A-DC2	A-DC3	A-DC4	A-DC5	A-DC6	A-DC7	A-DC8	A-DC9	A-DC10	A-DC11	A-DC12	A-DC13	A-DC14	A-DC15	A-DC16	A-Ph1	A-Ph2	A-Ph3	A-Ph4	A-Ph5	A-Ph6	A-Ph7	A-Ph8	A-Ph9	A-Ph10	A-Ph11	A-Ph12	A-Ph13	A-Ph14	A-Ph15	A-Ph16	

Term	0.00000e+00	0.00000e+00	0.00000e+00	0.00000e+00	0.00000e+00	0.00000e+00	0.00000e+00	0.00000e+00	0.00000e+00	0.00000e+00	0.00000e+00	0.00000e+00	0.00000e+00	0.00000e+00	0.00000e+00	0.00000e+00	0.00000e+00	0.00000e+00	0.00000e+00	0.00000e+00	0.00000e+00	0.00000e+00	0.00000e+00	0.00000e+00	0.00000e+00	0.00000e+00	0.00000e+00	0.00000e+00	0.00000e+00	0.00000e+00	0.00000e+00	0.00000e+00	0.00000e+00	0.00000e+00	0.00000e+00	0.00000e+00	0.00000e+00	0.00000e+00	0.00000e+00	0.00000e+00	0.00000e+00	0.00000e+00	0.00000e+00	0.00000e+00	0.00000e+00	0.00000e+00	0.00000e+00	0.00000e+00	
Factor	1.00000e+00	1.00000e+00	1.00000e+00	1.00000e+00	1.00000e+00	1.00000e+00	1.00000e+00	1.00000e+00	1.00000e+00	1.00000e+00	1.00000e+00	1.00000e+00	1.00000e+00	1.00000e+00	1.00000e+00	1.00000e+00	1.00000e+00	1.00000e+00	1.00000e+00	1.00000e+00	1.00000e+00	1.00000e+00	1.00000e+00	1.00000e+00	1.00000e+00	1.00000e+00	1.00000e+00	1.00000e+00	1.00000e+00	1.00000e+00	1.00000e+00	1.00000e+00	X	X	X	X	X	X	X	X	X	X	X	X	X	X	X	X	

B = Detector Channel
Val Type	B-AC1	B-AC2	B-AC3	B-AC4	B-AC5	B-AC6	B-AC7	B-AC8	B-AC9	B-AC10	B-AC11	B-AC12	B-AC13	B-AC14	B-AC15	B-AC16	B-DC1	B-DC2	B-DC3	B-DC4	B-DC5	B-DC6	B-DC7	B-DC8	B-DC9	B-DC10	B-DC11	B-DC12	B-DC13	B-DC14	B-DC15	B-DC16	B-Ph1	B-Ph2	B-Ph3	B-Ph4	B-Ph5	B-Ph6	B-Ph7	B-Ph8	B-Ph9	B-Ph10	B-Ph11	B-Ph12	B-Ph13	B-Ph14	B-Ph15	B-Ph16	

Term	0.00000e+00	0.00000e+00	0.00000e+00	0.00000e+00	0.00000e+00	0.00000e+00	0.00000e+00	0.00000e+00	0.00000e+00	0.00000e+00	0.00000e+00	0.00000e+00	0.00000e+00	0.00000e+00	0.00000e+00	0.00000e+00	0.00000e+00	0.00000e+00	0.00000e+00	0.00000e+00	0.00000e+00	0.00000e+00	0.00000e+00	0.00000e+00	0.00000e+00	0.00000e+00	0.00000e+00	0.00000e+00	0.00000e+00	0.00000e+00	0.00000e+00	0.00000e+00	1.37173e+01	-1.18228e+02	-1.12758e+02	-1.83080e+02	-7.15389e+01	-7.78103e+01	-1.57142e+02	-1.62015e+02	-8.64581e+01	-8.33328e+01	-1.74681e+02	-1.70893e+02	-1.86226e+02	-1.78823e+02	-6.33234e+01	-1.50760e+02	
Factor	3.86630e-05	1.07672e-04	3.58680e-05	1.52370e-01	1.43992e-06	1.45988e-06	1.51923e-01	5.45124e-02	1.38203e-06	1.18428e-06	1.31598e-01	2.66902e-02	3.84029e-02	8.59656e-03	1.43767e-06	1.22989e-02	8.31094e-07	8.48967e-07	2.35916e-07	7.55567e-02	9.27535e-09	9.30345e-09	7.09969e-02	2.68103e-02	9.28531e-09	9.29857e-09	5.97757e-02	1.26460e-02	1.79984e-02	4.20033e-03	9.30521e-09	5.78123e-03	X	X	X	X	X	X	X	X	X	X	X	X	X	X	X	X	



#DISTANCE SETTINGS
A = Detector Channel
A-1	A-2	A-3	A-4	A-5	A-6	A-7	A-8	A-9	A-10	A-11	A-12	A-13	A-14	A-15	A-16	

2.5000e+00	3.0000e+00	2.5000e+00	3.0000e+00	2.0000e+00	3.0000e+00	1.5000e+00	3.0000e+00	3.0000e+00	3.0000e+00	3.0000e+00	3.0000e+00	3.0000e+00	3.0000e+00	1.5000e+00	3.0000e+00	

B = Detector Channel
B-1	B-2	B-3	B-4	B-5	B-6	B-7	B-8	B-9	B-10	B-11	B-12	B-13	B-14	B-15	B-16	

1.0000e+01	1.0000e+01	1.0000e+01	1.4400e+00	1.0000e+01	1.0000e+01	1.5100e+00	1.9400e+00	1.0000e+01	1.0000e+01	1.9900e+00	2.4900e+00	2.4100e+00	2.9000e+00	1.0000e+01	2.9800e+00	




#DATA BEGINS
time	group	step	mark	flag	A-AC1	A-AC2	A-AC3	A-AC4	A-AC5	A-AC6	A-AC7	A-AC8	A-AC9	A-AC10	A-AC11	A-AC12	A-AC13	A-AC14	A-AC15	A-AC16	A-DC1	A-DC2	A-DC3	A-DC4	A-DC5	A-DC6	A-DC7	A-DC8	A-DC9	A-DC10	A-DC11	A-DC12	A-DC13	A-DC14	A-DC15	A-DC16	A-Ph1	A-Ph2	A-Ph3	A-Ph4	A-Ph5	A-Ph6	A-Ph7	A-Ph8	A-Ph9	A-Ph10	A-Ph11	A-Ph12	A-Ph13	A-Ph14	A-Ph15	A-Ph16	B-AC1	B-AC2	B-AC3	B-AC4	B-AC5	B-AC6	B-AC7	B-AC8	B-AC9	B-AC10	B-AC11	B-AC12	B-AC13	B-AC14	B-AC15	B-AC16	B-DC1	B-DC2	B-DC3	B-DC4	B-DC5	B-DC6	B-DC7	B-DC8	B-DC9	B-DC10	B-DC11	B-DC12	B-DC13	B-DC14	B-DC15	B-DC16	B-Ph1	B-Ph2	B-Ph3	B-Ph4	B-Ph5	B-Ph6	B-Ph7	B-Ph8	B-Ph9	B-Ph10	B-Ph11	B-Ph12	B-Ph13	B-Ph14	B-Ph15	B-Ph16	aux-1	digaux	

2523.612	1	1	0	256	0.22111	0.31667	0.2219	0.2256	0.17433	0.014164	0.27856	0.27408	0.21243	0.11703	0.090915	0.050264	0.11793	0.012674	0.17528	0.035369	-2.6979	-3.1771	-2.8771	-3.35	-3.1813	-3.0708	-3.4125	-3.1354	-3.0229	-3.2979	-2.8896	-3.2042	-3.3583	-2.9271	-3.2083	-3.2917	126.530	374.218	124.584	422.868	282.211	331.267	384.998	371.613	368.323	138.182	381.180	410.232	282.187	126.167	251.813	110.084	0.0013352	0.0005701	0.00032062	1345.9	1.3209e-05	4.1175e-06	1343.4	360.74	7.1764e-06	8.7835e-06	411.11	135.1	118.9	39.265	1.2012e-05	48.988	0.0010577	0.0010667	0.00029632	1422.3	1.1693e-05	1.1704e-05	1414.9	385.55	1.1612e-05	1.162e-05	458.75	146.78	131.86	43.378	1.1629e-05	54.422	332.491	171.740	165.767	109.462	238.595	290.958	109.445	114.302	310.461	233.657	113.363	118.349	119.030	123.061	201.894	122.079	-8191	255	
2523.708	1	1	0	0	0.094272	0.12956	0.18762	0.37193	0.16654	0.27887	0.13697	0.27032	0.28002	0.36272	0.1352	0.040477	0.20259	0.3553	0.23914	0.17163	-2.7771	-3.3229	-2.975	-3.3937	-3.3667	-2.9833	-3.5667	-3.3937	-3.0146	-3.5687	-3.1708	-3.2687	-3.1813	-2.9854	-3.2604	-3.3042	185.101	272.964	374.098	387.428	389.289	118.378	117.582	416.845	260.425	102.328	424.617	335.602	437.605	442.455	353.876	181.306	0.0012072	0.00044117	0.00026946	1342.5	6.0138e-06	2.5945e-06	1345.7	360.03	2.8563e-06	7.3546e-06	411.23	135.69	117.78	39.403	8.8816e-06	48.934	0.0010588	0.0010677	0.00029552	1421.2	1.1641e-05	1.1604e-05	1414.1	385.87	1.1647e-05	1.1586e-05	458.17	146.91	131.18	43.275	1.1563e-05	54.231	310.222	231.618	132.618	109.605	309.410	429.871	109.119	114.306	237.794	236.468	113.422	118.206	118.810	123.326	211.893	122.145	-8191	255	
2523.828	1	1	0	0	0.17897	0.26456	0.22722	0.42735	0.15848	0.17089	0.16632	0.15784	0.1181	0.11608	0.1713	0.22412	0.058213	0.34469	0.14411	0.19205	-2.7917	-3.2333	-3.0917	-3.1312	-3.1979	-2.9479	-3.5021	-3.3625	-2.7479	-3.3208	-3.0917	-3.1063	-3.1833	-3.0771	-3.0646	-3.2771	107.544	266.998	166.531	413.897	452.073	132.759	362.451	366.951	425.978	302.446	121.810	312.951	206.204	422.579	140.531	453.890	0.0010235	0.00031561	0.00018102	1343.9	8.3361e-06	8.4049e-06	1343.4	360.62	1.0222e-05	9.7899e-06	410.3	135.88	118.12	39.29	1.5015e-05	48.702	0.0010441	0.0010506	0.00029287	1420.7	1.1499e-05	1.1484e-05	1412.4	385.78	1.1517e-05	1.1517e-05	458.37	146.79	131.35	43.322	1.1594e-05	54.179	309.601	289.172	206.460	109.504	240.489	227.812	109.356	114.360	224.052	234.762	113.394	118.193	118.930	123.328	290.492	121.993	-8191	255	
2523.924	1	1	0	0	0.11675	0.17257	0.10791	0.1843	0.14339	0.054563	0.083908	0.2396	0.11835	0.14215	0.21597	0.17395	0.1855	0.1693	0.30972	0.2125	-2.4375	-3.2167	-3.1292	-3.2354	-3.3042	-3.0542	-3.4	-3.5208	-2.9125	-3.2646	-3.1979	-3.0896	-3.25	-3.1	-2.9688	-3.2292	232.656	195.695	109.064	426.263	232.852	172.833	313.606	361.650	424.352	268.681	162.011	400.970	96.838	331.812	350.183	283.775	0.0010019	0.00011251	0.0001824	1344.8	2.0728e-06	2.7063e-06	1343.5	360.38	5.3242e-06	1.0599e-05	412.33	134.78	118.28	39.239	2.2774e-06	48.994	0.0010524	0.0010519	0.00029283	1419.1	1.1485e-05	1.1563e-05	1412.7	385.22	1.1478e-05	1.1494e-05	458.03	146.7	131.26	43.317	1.1537e-05	54.27	309.095	288.736	132.955	109.405	282.311	146.715	109.370	114.055	235.044	165.319	113.526	118.155	119.037	123.351	284.059	122.093	-8191	255	
2524.019	1	1	0	0	0.13237	0.10287	0.11665	0.15465	0.086775	0.20627	0.15969	0.36484	0.14745	0.13668	0.13515	0.30915	0.18251	0.34507	0.11341	0.13831	-2.5333	-3.3146	-2.9562	-3.1667	-3.2229	-3.0208	-3.1562	-3.4292	-2.9458	-3.25	-3.2687	-3.0229	-3.4333	-2.9875	-2.9896	-3.4042	231.903	102.434	313.119	413.549	157.683	385.383	428.493	390.793	354.806	360.541	380.071	375.854	400.798	414.313	364.697	103.321	0.0012659	0.00093966	0.00023809	1342.6	6.2586e-06	2.4575e-06	1343.3	361.3	8.5195e-06	2.4876e-06	411.06	135.19	118.68	39.298	1.0635e-05	48.828	0.0010464	0.0010542	0.00029296	1419.8	1.1562e-05	1.1515e-05	1411.5	385.58	1.1543e-05	1.1562e-05	458.52	146.55	131.65	43.322	1.1594e-05	54.221	319.722	201.296	217.288	109.490	167.947	140.984	109.427	114.432	241.615	375.445	113.623	118.158	118.866	123.245	214.340	121.911	-8191	255	
2524.115	1	1	0	0	0.13344	0.10603	0.26025	0.28252	0.029227	0.18707	0.14607	0.14764	0.19546	0.087438	0.10598	0.30383	0.22029	0.17317	0.11205	0.15373	-2.6104	-3.0208	-3.1375	-3.1479	-3.4813	-3.1542	-3.2062	-3.5354	-2.8854	-3.2521	-3.1896	-2.9854	-3.3563	-3.125	-3.0625	-3.3646	390.503	118.676	215.964	330.812	403.395	204.340	404.965	350.761	251.609	319.457	370.876	441.656	287.260	438.607	188.585	390.903	0.0010501	0.00024933	0.00025779	1346.4	1.262e-05	8.8734e-06	1339.9	360.89	6.6214e-06	1.4485e-05	414.43	135.47	118.01	39.05	8.2309e-06	48.951	0.0010566	0.001057	0.00029471	1421.6	1.1565e-05	1.1607e-05	1411.7	385.3	1.1515e-05	1.1556e-05	458.25	146.71	131.38	43.264	1.1545e-05	54.209	319.207	296.676	277.277	109.479	280.321	132.122	109.363	114.279	194.729	227.157	113.778	118.237	118.711	122.983	167.969	121.820	-8191	255	
2524.188	1	1	0	0	0.31018	0.22716	0.15047	0.24084	0.10677	0.032564	0.48081	0.21181	0.057887	0.12448	0.15655	0.29016	0.17381	0.13658	0.088573	0.14819	-2.5167	-3.2812	-3.0917	-3.0146	-3.3729	-3.1063	-3.1458	-3.3354	-2.9188	-2.9958	-3.3479	-2.9313	-3.2708	-3.2042	-2.9229	-3.3354	292.679	401.558	208.609	112.127	257.773	446.672	404.566	402.478	394.848	138.292	345.404	409.910	119.411	411.366	253.321	426.677	0.0011493	0.00022202	0.00033975	1348.1	1.3689e-05	1.8481e-05	1346.6	361.38	1.0831e-05	2.2807e-06	411.68	135.65	118.12	39.213	4.9752e-06	48.876	0.0010405	0.0010528	0.00029127	1420.8	1.1402e-05	1.1434e-05	1411.6	384.38	1.1345e-05	1.1312e-05	456.96	146.34	130.92	43.132	1.1334e-05	54.142	321.512	225.135	229.979	109.510	245.351	280.015	109.358	114.232	277.811	178.216	113.470	118.192	118.936	123.130	243.362	122.094	-8191	255	
2524.307	1	1	0	0	0.09121	0.049814	0.14781	0.19128	0.042933	0.054268	0.23241	0.22852	0.014208	0.062279	0.096141	0.34305	0.16887	0.146	0.12083	0.22124	-2.5438	-3.1354	-3.1021	-3.0167	-3.0979	-3.2354	-3.1562	-3.4458	-3.1	-3.2812	-3.1458	-2.9021	-3.2146	-3.2062	-2.8229	-3.5	452.695	300.398	418.564	278.211	218.512	191.385	427.320	449.742	351.057	257.444	433.339	119.351	417.733	111.407	267.892	101.113	0.0010775	0.00064731	0.00014943	1343	1.3314e-05	1.0931e-05	1343.1	360.71	4.2419e-06	5.0742e-06	409.85	135.21	117.84	39.154	6.1456e-06	48.763	0.0010224	0.0010253	0.00028451	1416.3	1.1151e-05	1.1158e-05	1407.6	383.98	1.1158e-05	1.1114e-05	455.61	145.96	130.4	43.128	1.1218e-05	53.97	322.699	240.664	178.832	109.557	350.954	197.613	109.210	114.268	243.024	359.518	113.898	118.211	118.884	123.184	140.219	122.123	-8191	255	
2524.403	1	1	0	0	0.11102	0.062963	0.090229	0.13389	0.29184	0.16824	0.35292	0.11434	0.18808	0.12598	0.21787	0.15832	0.22258	0.16894	0.16238	0.041111	-2.6542	-2.9479	-3.2792	-3.2646	-3.1188	-3.0646	-3.2958	-3.4437	-3.2938	-3.1042	-3.4104	-2.9833	-3.1688	-3.3167	-2.9562	-3.2313	230.383	294.753	200.872	125.588	417.023	134.736	388.026	355.784	356.964	171.362	427.395	205.241	328.827	427.483	195.203	120.233	0.0011679	0.00056047	0.00024221	1341.7	8.4704e-06	2.4939e-06	1341.3	361.23	8.1225e-06	6.9974e-06	412.93	134.93	118.06	39.179	1.0175e-05	48.608	0.0010223	0.001025	0.00028277	1416.2	1.1081e-05	1.1134e-05	1406.9	383.94	1.104e-05	1.1042e-05	454.55	145.59	130.26	42.972	1.1091e-05	53.8	325.258	175.892	308.233	109.372	236.075	154.701	109.220	114.311	250.872	266.311	113.694	118.142	119.033	123.123	369.719	122.107	-8191	255	
2524.500	1	1	0	0	0.26183	0.35867	0.17474	0.22975	0.14612	0.11091	0.14937	0.1724	0.070415	0.093859	0.22921	0.28185	0.21809	0.15263	0.10478	0.032825	-2.85	-2.9167	-3.2646	-3.1417	-3.05	-3.2979	-3.0812	-3.3604	-3.0146	-3.0042	-3.3	-2.9979	-2.9396	-3.2542	-2.7333	-3.2958	447.385	252.125	268.346	375.083	109.968	355.599	280.093	383.926	252.903	154.295	410.606	111.107	108.108	189.173	187.441	431.700	0.0010383	0.0011945	0.00023613	1343.6	3.4903e-06	1.0918e-05	1340.5	361.24	1.4954e-05	3.9997e-06	412.3	134.73	118.21	39.133	7.7324e-06	48.808	0.001001	0.00101	0.00028065	1414.7	1.1009e-05	1.1032e-05	1405.7	383.91	1.1004e-05	1.1033e-05	455.89	145.52	130.34	42.987	1.103e-05	53.834	311.877	230.384	162.568	109.438	202.511	216.405	109.240	114.140	165.703	288.930	113.393	118.105	119.001	123.013	299.235	121.960	-8191	255	
2524.620	1	1	0	0	0.10263	0.12706	0.09922	0.31181	0.28423	0.067535	0.36441	0.18765	0.19206	0.15036	0.082587	0.23603	0.22152	0.16665	0.10081	0.070501	-2.7833	-2.9625	-3.3208	-3.2562	-3.0292	-3.3292	-3.1604	-3.2438	-3.1021	-2.8688	-3.4562	-3.2146	-3.0292	-3.2625	-3.0687	-3.2042	237.209	292.453	337.650	133.550	203.871	163.906	413.984	422.190	448.367	207.747	449.228	432.109	171.077	185.950	277.307	279.825	0.0013236	0.00022694	0.00018319	1343.6	4.1942e-06	7.0091e-06	1345	360.66	1.2811e-05	1.9854e-06	412.38	135.47	117.85	39.114	9.2723e-06	48.713	0.001006	0.0010121	0.0002827	1415.8	1.107e-05	1.1137e-05	1408.3	383.92	1.1088e-05	1.1083e-05	455.31	145.92	130.44	43.016	1.1098e-05	53.908	319.806	256.950	213.766	109.368	451.684	193.657	109.419	114.344	179.132	295.900	113.540	118.134	119.001	123.051	311.549	122.104	-8191	255	
2524.716	1	1	0	0	0.069036	0.11531	0.13932	0.28246	0.056527	0.29464	0.18497	0.30174	0.086362	0.24757	0.050338	0.24526	0.15373	0.17119	0.1577	0.1185	-2.7208	-2.875	-3.1896	-3.2542	-2.925	-3.3438	-3.0583	-3.3937	-3.0375	-3.0062	-3.3792	-3.2396	-2.9583	-3.2958	-2.9833	-3.1771	298.119	361.241	442.148	391.760	435.747	353.448	383.989	401.951	325.124	420.477	339.586	384.963	152.987	140.067	121.855	403.165	0.0012957	0.0010543	0.00020942	1343.5	7.4127e-06	5.0919e-06	1341.5	360.51	2.7784e-06	5.7516e-06	411.96	135.15	118.48	39.198	8.6202e-06	48.705	0.0010097	0.0010141	0.00028107	1415.9	1.0985e-05	1.1057e-05	1406.6	383.26	1.1051e-05	1.1026e-05	455.66	145.92	130.49	42.996	1.0994e-05	53.82	315.285	200.946	105.641	109.443	267.904	103.077	109.275	114.283	110.887	207.992	113.575	117.916	118.758	123.112	266.608	122.155	-8191	255	
2524.788	1	1	0	0	0.26441	0.1714	0.011536	0.062176	0.074359	0.15742	0.14062	0.089915	0.16454	0.1361	0.22547	0.30012	0.10829	0.043185	0.17159	0.18734	-2.975	-2.875	-3.1458	-3.3146	-3.0125	-3.2771	-3.3271	-3.1521	-3.3312	-2.875	-3.2083	-3.2938	-2.85	-3.4292	-3.1521	-3.2062	231.311	378.854	414.488	362.319	230.615	303.099	378.264	385.828	213.948	188.941	424.590	108.768	249.191	454.543	148.776	379.716	0.0012038	0.00058703	0.00013163	1345.7	3.7064e-06	5.4532e-06	1339.2	360.44	2.8936e-06	7.744e-06	410.88	134.58	117.81	39.175	6.383e-06	48.659	0.001003	0.0010004	0.0002791	1413.4	1.0935e-05	1.0945e-05	1403.9	383.26	1.0877e-05	1.0873e-05	453.5	145.28	129.57	42.856	1.0703e-05	53.593	321.762	206.625	229.046	109.313	292.915	270.874	109.217	114.517	358.067	313.451	113.331	118.155	118.971	123.199	213.783	122.023	-8191	255	
2524.909	1	1	0	0	0.29516	0.20929	0.28865	0.35956	0.090803	0.18134	0.22511	0.1638	0.10527	0.18202	0.159	0.053978	0.13133	0.08761	0.17756	0.16137	-2.825	-3.0104	-3.0958	-3.1833	-2.775	-3.2562	-3.2396	-3.1312	-3.2917	-2.9083	-3.3542	-3.4167	-3.25	-3.3354	-2.9833	-2.9813	404.883	389.559	332.190	378.338	186.048	166.020	394.083	106.102	432.664	417.351	435.331	278.356	399.729	251.543	151.443	395.079	0.0012824	0.00058255	0.00026623	1346.4	3.8842e-06	6.0845e-06	1340.1	359.8	5.7384e-06	9.1837e-06	410.81	135.52	118.43	38.948	9.2605e-06	48.525	0.00097387	0.00097385	0.00027025	1411	1.0551e-05	1.0543e-05	1400.1	381.39	1.0386e-05	1.0386e-05	448.91	144.61	128.68	42.528	1.0191e-05	53.166	308.170	213.126	413.181	109.459	301.566	222.741	109.434	114.191	190.842	252.902	113.913	118.373	118.967	123.137	196.116	121.947	-8191	255	
2525.005	1	1	0	0	0.22945	0.091898	0.13647	0.13247	0.023295	0.093863	0.14243	0.20734	0.099707	0.054576	0.10858	0.26062	0.24522	0.032423	0.14748	0.074766	-2.8542	-2.9833	-3.0292	-3.3042	-2.8479	-3.2125	-3.3146	-3.2812	-3.25	-3.0896	-3.2021	-3.175	-2.8583	-3.2896	-3.1396	-3.0625	325.167	440.119	175.644	162.602	430.947	317.543	411.706	439.290	361.928	381.683	245.746	147.334	97.500	293.189	131.115	319.973	0.0011201	0.0001452	0.00019576	1336.7	1.2804e-05	1.7562e-06	1331	359.32	8.4236e-06	2.0267e-06	407.53	134.74	117.53	39.07	5.3492e-06	48.673	0.00091606	0.00091236	0.00025334	1398.3	9.8154e-06	9.8535e-06	1388.1	378.52	9.7338e-06	9.7596e-06	444.51	143.63	127.42	42.423	9.8225e-06	53.1	328.129	215.404	157.627	109.528	217.310	233.727	109.122	114.294	262.665	275.014	113.871	117.968	119.051	123.174	361.716	122.063	-8191	255	
2525.099	1	1	0	0	0.075465	0.16768	0.1251	0.043562	0.13174	0.19653	0.093925	0.35173	0.12491	0.12564	0.079615	0.050905	0.027561	0.24322	0.091711	0.17886	-2.6708	-3.0021	-2.8187	-3.3583	-2.9521	-3.1896	-3.225	-3.025	-3.3083	-2.9938	-3.0812	-3.3333	-2.8229	-3.1542	-2.95	-2.8896	136.664	269.333	311.665	387.879	117.982	211.430	330.847	408.437	251.494	112.485	412.292	369.611	308.811	426.591	186.643	118.233	0.001108	0.00020259	0.00023192	1340.7	4.426e-06	3.6568e-06	1341.3	358.45	9.1806e-06	4.4637e-06	409.91	135.86	118.36	39.325	5.2244e-06	49.021	0.00090084	0.00090993	0.00025611	1404.6	1.013e-05	1.0193e-05	1399.8	380.66	1.0384e-05	1.0512e-05	451.94	145.7	130.3	43.096	1.1273e-05	54.23	320.560	236.982	243.081	109.499	348.903	269.199	109.163	114.284	244.353	158.648	113.494	118.276	118.875	123.325	274.980	122.008	-8191	255	
2525.220	1	1	0	0	0.15219	0.11211	0.10897	0.11116	0.10839	0.05956	0.35643	0.09296	0.1574	0.032834	0.14794	0.10764	0.01484	0.22843	0.14067	0.30369	-2.7729	-3.075	-3.0542	-3.2	-3.075	-3.2333	-3.425	-3.0812	-3.3083	-3.2062	-3.0167	-3.4021	-2.9875	-3.1437	-3.2313	-3.0146	377.146	442.599	263.499	430.277	271.206	130.173	381.020	437.809	356.917	394.904	128.185	357.865	102.820	400.305	382.967	113.901	0.0015171	0.0002745	0.00027764	1359.9	4.0733e-06	4.242e-06	1366.5	364.17	7.0743e-06	3.8936e-06	417.26	136.7	119.66	39.765	3.5669e-06	49.725	0.0010426	0.0010614	0.00029796	1437.8	1.1927e-05	1.2042e-05	1436.1	390.31	1.2329e-05	1.2401e-05	471.16	149.87	135.64	44.6	1.325e-05	56.121	321.759	198.582	240.524	109.340	175.784	393.321	109.162	114.183	262.011	274.912	113.222	118.163	118.938	122.934	428.865	121.987	-8191	255	
2525.316	1	1	0	0	0.1636	0.15994	0.20348	0.11503	0.072488	0.23664	0.15983	0.12291	0.22841	0.085007	0.225	0.20541	0.10705	0.21306	0.21329	0.10523	-2.8333	-3.2021	-2.8979	-3.4313	-3.0458	-3.2396	-3.5021	-3.1125	-3.1979	-3.0958	-3.0771	-3.4375	-3.3354	-3.2271	-3.2708	-2.9896	363.024	370.702	189.918	417.538	266.117	451.414	366.212	433.484	444.836	430.071	207.341	424.172	437.895	380.409	98.097	389.828	0.0011636	0.00073727	5.7975e-05	1386.3	1.1965e-05	8.6098e-06	1388.7	368.93	1.1675e-05	2.287e-06	423.17	138.97	121.3	40.446	5.9941e-06	50.381	0.0012261	0.0012527	0.00035226	1481.1	1.4081e-05	1.4267e-05	1479.2	402.08	1.4444e-05	1.4514e-05	489.79	154.46	140.48	45.868	1.4607e-05	57.455	304.596	366.732	446.955	109.282	251.154	418.493	109.096	114.041	258.773	209.532	113.523	118.030	118.551	123.043	117.206	122.158	-8191	255	
2525.412	1	1	0	0	0.10076	0.13792	0.1004	0.14653	0.1056	0.14462	0.2914	0.18415	0.078563	0.054806	0.13084	0.1328	0.22379	0.33587	0.25146	0.16677	-2.6917	-3.1063	-2.8833	-3.4792	-3.2271	-3.1604	-3.5833	-3.2042	-3.325	-3.2625	-3.0396	-3.2854	-3.0875	-3.1396	-3.2812	-2.9542	402.589	133.997	391.445	382.368	421.925	211.286	394.245	420.249	266.314	233.916	386.655	355.717	392.465	176.763	102.717	445.514	0.001316	0.00035971	0.00022372	1400.1	1.2158e-05	4.569e-06	1399	372.6	1.6647e-05	6.2438e-06	430.34	140.37	122.45	40.751	1.2617e-05	50.647	0.0013182	0.0013323	0.00037111	1501.7	1.4657e-05	1.4772e-05	1493.8	406.52	1.4909e-05	1.5024e-05	497.38	156.27	142.47	46.421	1.5022e-05	58.122	322.078	126.340	326.713	109.394	241.208	445.130	109.378	114.126	214.028	139.567	113.535	118.007	118.849	123.029	250.538	121.738	-8191	255	
2525.484	1	1	0	0	0.1289	0.11404	0.17673	0.15936	0.24547	0.18591	0.3125	0.34326	0.034108	0.27443	0.10877	0.15955	0.11389	0.24347	0.17894	0.060992	-2.8104	-3.1792	-2.8354	-3.2708	-3.125	-2.9313	-3.4729	-2.9396	-3.225	-3.2958	-2.8771	-3.2938	-3.0542	-2.9688	-3.2667	-3.15	383.140	381.639	270.213	383.128	153.459	197.113	416.463	420.465	298.613	204.471	258.992	411.105	371.001	397.850	176.621	391.714	0.0010732	0.00071933	0.00028223	1408.1	6.3236e-06	5.013e-06	1409.8	376.44	1.6296e-05	1.0149e-06	432.58	140.95	124.01	41.133	9.6866e-06	51.071	0.001357	0.0013667	0.00037909	1512.7	1.4796e-05	1.4804e-05	1501.3	409.13	1.468e-05	1.4835e-05	498.32	156.85	143	46.68	1.5141e-05	58.577	317.124	180.659	161.489	109.179	117.475	294.964	109.221	114.089	258.575	177.413	113.382	117.977	118.689	122.968	268.422	121.950	-8191	255	
2525.604	1	1	0	0	0.19425	0.19457	0.22664	0.27511	0.20264	0.16137	0.084037	0.038157	0.22177	0.20809	0.35198	0.23132	0.11011	0.16879	0.16038	0.17345	-2.55	-3.0875	-3.0333	-3.3625	-3.0271	-2.8521	-3.6125	-3.1104	-3.0312	-3.2958	-3.0021	-3.3312	-3.2833	-3.0417	-3.1708	-3.1125	365.767	346.088	292.649	429.445	402.107	136.223	349.661	107.927	264.426	377.096	108.123	175.869	102.194	453.590	346.572	375.765	0.0015234	0.0015265	0.00027585	1419.2	1.2567e-05	1.5579e-05	1418	377.57	5.614e-06	1.9163e-05	434.76	141.9	124.2	41.443	7.5661e-06	51.588	0.0013786	0.0013934	0.00038957	1523.6	1.5348e-05	1.542e-05	1515.9	414.22	1.5636e-05	1.574e-05	508.04	159.3	146.06	47.386	1.5981e-05	59.505	308.955	374.268	244.689	109.206	254.034	176.392	109.145	114.007	304.926	260.095	113.221	117.940	118.616	122.709	250.107	122.107	-8191	255	
2525.701	1	1	0	0	0.069556	0.37855	0.15372	0.29027	0.24584	0.12469	0.33712	0.18721	0.12972	0.16607	0.22401	0.22114	0.22397	0.10204	0.10728	0.016399	-2.5687	-3.2375	-2.8958	-3.4938	-3.2333	-2.9188	-3.3021	-3.2917	-3.0938	-3.1208	-3.2375	-3.3458	-3.2438	-2.9	-3.225	-3.2271	291.809	106.914	221.375	434.628	197.517	299.526	440.776	446.116	261.456	215.705	434.956	445.874	436.217	384.350	321.176	116.023	0.0011903	0.00026729	0.00027238	1422.9	8.1526e-06	1.0312e-05	1418.1	378.78	2.987e-06	3.3819e-06	437.01	142.82	125.66	41.53	9.6191e-06	51.161	0.0014554	0.0014681	0.00040782	1535.5	1.6085e-05	1.6157e-05	1525.7	417.72	1.6257e-05	1.6367e-05	513.69	160.76	147.58	47.886	1.6664e-05	59.92	317.531	229.019	175.064	109.400	332.544	229.915	109.204	114.182	352.808	374.938	113.763	118.181	118.734	122.921	214.983	121.948	-8191	255	
2525.797	1	1	0	0	0.13974	0.12351	0.11215	0.3457	0.14027	0.1193	0.32424	0.26048	0.14021	0.092539	0.1319	0.26519	0.18788	0.14569	0.20505	0.14471	-2.5125	-3.1958	-2.8	-3.4875	-3.1417	-2.925	-3.45	-3.2104	-2.9125	-3.2708	-3.05	-3.1937	-3.2083	-2.9021	-2.9667	-3.2125	203.443	445.228	166.898	426.324	282.079	408.421	380.732	395.135	340.695	214.194	416.363	341.676	426.704	439.899	450.393	394.470	0.0012195	0.00084872	0.0004915	1425.1	8.7129e-06	1.5695e-05	1425.1	381.18	6.6251e-06	9.1926e-06	438.62	143.59	125.98	41.501	7.2861e-06	51.738	0.0015108	0.0015296	0.00042551	1544.9	1.6697e-05	1.6703e-05	1534.2	420.14	1.6652e-05	1.6721e-05	516.65	161.28	148.05	48.037	1.6697e-05	60.194	323.210	228.767	161.373	109.382	242.151	128.098	109.250	114.216	156.007	133.404	113.717	118.050	118.692	122.921	431.424	121.691	-8191	255	
2525.893	1	1	0	0	0.24177	0.25453	0.097614	0.31222	0.073535	0.11096	0.11416	0.17895	0.24775	0.25684	0.069499	0.12312	0.11435	0.22461	0.23585	0.074116	-2.4437	-3.0271	-2.9479	-3.0125	-3.1542	-3.0104	-3.35	-3.1875	-3.0146	-3.2521	-3.1542	-3.0187	-3.375	-3.0438	-3.1625	-3.1875	158.728	154.678	106.206	439.468	130.631	98.262	98.940	115.468	163.931	319.831	422.718	325.786	219.559	109.346	451.544	139.259	0.0011562	0.00066538	0.00028415	1432.4	9.5248e-06	8.3194e-06	1427.9	382.1	6.7597e-06	6.212e-06	438.87	143.43	125.05	41.814	9.8409e-06	51.573	0.0015149	0.0015296	0.00042581	1547.7	1.6687e-05	1.6778e-05	1536.6	421.61	1.675e-05	1.6795e-05	518.97	161.87	148.47	48.247	1.6989e-05	60.365	324.900	168.053	176.208	109.314	205.198	279.649	109.293	114.050	233.545	287.569	113.092	118.100	118.610	122.787	278.992	121.724	-8191	255	
2526.012	1	1	0	0	0.13391	0.10411	0.12691	0.27751	0.11045	0.18918	0.059391	0.31027	0.07847	0.12041	0.12428	0.19995	0.099699	0.1692	0.18762	0.084777	-2.4562	-3.0417	-3.025	-3.1937	-3.3	-2.9583	-3.3438	-3.3542	-2.9667	-3.2208	-3.25	-2.9667	-3.2062	-2.9479	-2.9625	-3.3646	326.250	224.118	128.718	413.997	135.965	372.828	445.894	346.146	315.713	451.288	426.060	397.051	202.717	406.315	205.801	176.524	0.0013913	0.00028103	9.8999e-05	1434.1	3.968e-06	9.844e-06	1431.8	382.24	1.3097e-05	3.203e-06	440.05	143.38	125.83	41.806	6.4192e-06	51.582	0.0015332	0.0015544	0.00043232	1552.5	1.6966e-05	1.7049e-05	1542.3	422.6	1.6963e-05	1.7079e-05	519.01	162.2	149.04	48.33	1.6983e-05	60.425	316.788	375.680	99.466	109.239	379.424	227.408	109.076	114.165	181.563	400.456	113.384	117.909	118.609	122.784	265.764	121.815	-8191	255	
2526.085	1	1	0	0	0.19694	0.051715	0.028325	0.17449	0.040069	0.26261	0.36755	0.13197	0.25204	0.183	0.1405	0.1068	0.30192	0.15676	0.048969	0.14819	-2.4833	-3.4292	-3.1667	-3.1688	-3.2417	-2.9979	-3.3854	-3.2292	-2.9542	-3.3688	-3.3563	-2.925	-3.3688	-3.1458	-3.0917	-3.3167	223.625	306.582	254.119	384.389	264.858	294.474	402.154	330.601	286.477	135.015	335.681	373.640	155.712	442.064	228.311	444.465	0.0010798	0.00044944	7.9349e-05	1431.2	5.1271e-06	5.1273e-06	1434.4	381.4	1.5029e-05	4.6639e-06	438.33	143.75	125.55	41.988	4.968e-06	51.626	0.0015263	0.0015436	0.00042783	1551.9	1.6659e-05	1.6757e-05	1541.6	422.04	1.6584e-05	1.6731e-05	518.8	161.84	148.65	48.299	1.6698e-05	60.285	309.560	233.424	283.235	109.411	382.509	281.149	109.260	114.121	262.653	258.986	113.361	117.968	118.505	122.775	437.367	121.743	-8191	255	
2526.181	1	1	0	0	0.24149	0.16595	0.13973	0.24615	0.11443	0.15067	0.21436	0.23109	0.23431	0.15382	0.10172	0.20075	0.051782	0.23542	0.3365	0.2023	-2.5542	-3.2146	-3.075	-3.1417	-3.1792	-2.975	-3.2729	-3.3708	-2.9875	-3.1208	-3.225	-2.8271	-3.2479	-3.1917	-3.0229	-3.2625	266.050	447.986	234.757	399.133	400.098	318.000	400.587	425.281	445.588	105.086	211.987	375.133	445.097	454.021	242.213	428.181	0.001235	0.0011414	0.00045237	1439	8.9413e-06	6.7013e-06	1434.8	382.12	1.2855e-05	1.1169e-05	442.06	144.19	126.04	41.801	5.4093e-06	51.765	0.0015123	0.0015295	0.0004264	1553.7	1.6723e-05	1.6721e-05	1544.2	422.13	1.6678e-05	1.6795e-05	519.14	162.36	148.86	48.285	1.6747e-05	60.4	330.831	254.275	226.078	109.297	226.547	353.892	109.123	114.013	151.474	207.417	113.448	117.825	118.798	123.059	197.257	121.995	-8191	255	
2526.300	1	1	0	0	0.081178	0.16537	0.23519	0.27231	0.15023	0.29366	0.24679	0.27712	0.063283	0.24979	0.12613	0.25011	0.28547	0.098663	0.14591	0.1464	-2.5187	-3.0771	-3.2083	-3.2396	-3.2146	-3.0229	-3.2396	-3.4292	-3.05	-2.9938	-3.4521	-2.9104	-3.2625	-3.2562	-3.0729	-3.1792	391.047	187.902	178.870	446.434	253.186	452.727	372.193	425.490	211.398	283.882	324.526	421.500	163.339	228.750	404.970	326.568	0.0012636	0.00023148	0.00011736	1435.9	1.6966e-05	4.4469e-06	1436	382.91	1.142e-05	5.0629e-06	441.61	144.54	126.54	41.892	1.1805e-05	51.808	0.0015269	0.0015398	0.00042688	1555.4	1.6796e-05	1.6799e-05	1543.5	423.11	1.6809e-05	1.6849e-05	520.57	162.45	149.25	48.38	1.6958e-05	60.573	330.879	297.364	213.231	109.245	196.725	211.609	109.214	114.132	226.833	146.602	113.513	118.070	118.893	123.048	341.374	121.833	-8191	255	
2526.396	1	1	0	0	0.17526	0.27537	0.09486	0.33286	0.082285	0.14116	0.11198	0.18372	0.17685	0.20549	0.1636	0.35396	0.028326	0.13271	0.2213	0.061711	-2.5146	-2.9729	-3.4375	-3.2188	-3.1167	-3.0979	-3.075	-3.2687	-2.95	-3.0792	-3.3375	-2.9396	-3.3333	-3.3083	-2.7062	-3.2521	215.505	191.466	161.843	424.329	267.294	141.999	351.322	356.264	248.592	352.397	387.714	401.943	303.225	185.151	398.269	121.754	0.0010706	0.00041221	0.00035816	1440.5	4.935e-06	1.7945e-05	1434.7	384.48	4.0749e-06	8.0701e-06	441.84	144.3	126.27	42.039	9.7446e-06	51.753	0.0015466	0.0015578	0.00043314	1559	1.7001e-05	1.7155e-05	1546.9	423.79	1.7044e-05	1.7171e-05	522.72	162.86	149.72	48.505	1.7139e-05	60.606	312.972	124.902	227.182	109.225	165.071	134.321	108.968	114.274	114.169	306.846	113.637	117.760	118.656	122.920	249.629	121.803	-8191	255	
2526.493	1	1	0	0	0.23622	0.061501	0.16093	0.30229	0.33626	0.10067	0.18157	0.086044	0.2599	0.13269	0.083263	0.3282	0.3061	0.21768	0.21452	0.058257	-2.6646	-2.9292	-3.2167	-3.1333	-3.1146	-3.3021	-3.2792	-3.2708	-3.0917	-2.9896	-3.2771	-2.9917	-3.1104	-3.2812	-2.7667	-3.475	407.467	210.513	358.407	452.258	138.382	212.601	409.552	150.792	247.633	452.094	298.493	195.249	137.090	416.846	435.293	401.477	0.0010248	0.001273	0.00021636	1432.7	3.012e-06	7.4726e-06	1434.7	383.73	1.0513e-05	8.3269e-06	440.75	143.95	126.06	41.992	6.3119e-06	51.944	0.0015494	0.0015654	0.00043608	1557.4	1.7002e-05	1.7042e-05	1545.8	423.36	1.7012e-05	1.7015e-05	521.49	162.66	149.3	48.478	1.6826e-05	60.476	323.662	214.286	255.638	109.200	170.403	308.089	109.115	114.257	324.870	316.357	112.950	118.011	118.337	122.628	251.296	121.845	-8191	255	
2526.589	1	1	0	0	0.14645	0.11888	0.18685	0.15946	0.089405	0.15942	0.32186	0.061688	0.065635	0.12416	0.068345	0.17917	0.092783	0.22677	0.27236	0.18359	-2.6708	-2.8937	-3.1521	-3.1354	-2.9042	-3.1375	-3.2021	-3.3833	-3.1958	-2.9833	-3.4062	-3.1229	-3.2208	-3.4188	-2.8542	-3.0667	159.782	432.812	266.816	429.080	111.531	245.024	377.982	386.733	364.940	132.918	221.736	410.179	350.937	193.557	148.102	445.194	0.001119	0.00072589	0.00020745	1437.6	1.1844e-05	9.882e-06	1434.8	384.02	2.2861e-05	4.9734e-06	441.15	144.02	126.1	41.781	7.7099e-06	52.006	0.0015217	0.001522	0.00042448	1555.7	1.6636e-05	1.6616e-05	1541.1	422.5	1.6498e-05	1.6514e-05	517.96	161.72	148.24	48.074	1.6204e-05	60.085	324.114	246.582	223.680	109.248	208.150	191.261	109.127	114.178	235.799	403.046	113.534	117.868	118.651	122.991	190.392	122.038	-8191	255	
2526.685	1	1	0	0	0.12482	0.136	0.059027	0.17278	0.081912	0.05358	0.15568	0.13113	0.14323	0.30817	0.28452	0.29548	0.11066	0.046685	0.20553	0.22144	-2.6729	-2.8396	-3.0646	-3.2604	-3.1688	-3.3083	-3.0708	-3.3063	-3.0875	-2.9479	-3.4354	-3.25	-3.0396	-3.35	-2.9208	-3.1437	370.645	345.729	226.475	393.957	263.561	446.064	381.096	371.296	437.911	429.929	378.781	398.197	325.246	330.864	208.696	107.034	0.0013841	0.00054587	0.00014507	1441.1	9.5866e-06	1.5855e-05	1433.4	383.72	9.3355e-06	8.3746e-06	439.4	143.96	125.81	41.897	2.7185e-06	51.847	0.0014564	0.0014607	0.00040621	1550.8	1.5811e-05	1.5883e-05	1537.3	419.86	1.567e-05	1.5671e-05	512.07	160.55	146.86	47.747	1.5568e-05	59.717	308.481	221.600	108.023	109.268	191.885	123.117	109.076	114.222	213.140	214.620	113.579	118.049	119.088	122.866	405.434	121.889	-8191	255	
2526.781	1	1	0	0	0.12756	0.12903	0.078449	0.48954	0.041272	0.14639	0.39341	0.089822	0.12129	0.062899	0.079006	0.13569	0.38923	0.20822	0.078092	0.099282	-2.7083	-2.7438	-3.1771	-3.1646	-2.8937	-3.225	-3.125	-3.2062	-3.1896	-2.8042	-3.3271	-3.1688	-2.8917	-3.3312	-2.8958	-3.2875	117.612	96.962	284.327	431.986	356.964	346.885	386.782	129.584	176.896	312.353	142.948	371.185	436.674	409.026	229.366	373.788	0.0010976	0.00081896	0.00037092	1442.8	4.4957e-06	8.5898e-06	1438.1	382.82	8.3742e-06	8.9995e-06	442.79	143.81	125.74	42.062	9.7719e-06	51.781	0.0014028	0.0014168	0.00039425	1548	1.5407e-05	1.5391e-05	1534.9	418.63	1.5307e-05	1.5409e-05	511.17	160.41	146.3	47.771	1.5546e-05	59.686	323.489	99.479	167.166	109.216	260.498	207.563	109.244	114.194	219.033	161.447	113.611	117.842	118.360	122.891	229.086	121.845	-8191	255	
2526.902	1	1	0	0	0.22844	0.23238	0.11172	0.41833	0.13228	0.050377	0.25292	0.11567	0.074082	0.16497	0.14895	0.13441	0.11296	0.13717	0.33286	0.10089	-2.65	-2.6958	-3.1896	-3.1396	-3.0062	-3.15	-3.0312	-3.2021	-3.0125	-2.8854	-3.0396	-3.1583	-3.0083	-3.2396	-3.1333	-3.0958	276.994	198.813	280.116	392.366	286.194	187.595	433.888	174.248	188.707	121.052	437.473	414.707	137.526	122.380	426.648	285.634	0.0012662	0.00083713	8.8952e-05	1444.2	4.2474e-06	5.306e-06	1438.9	383.38	7.7898e-06	1.1052e-05	441.68	144.31	126.77	41.897	1.8239e-05	52.014	0.001406	0.0014199	0.00039575	1547.7	1.5532e-05	1.5546e-05	1537	420.42	1.5567e-05	1.5574e-05	512.29	161.01	146.96	47.866	1.5601e-05	59.753	329.256	252.332	145.622	109.217	440.910	387.037	109.155	113.991	174.736	231.032	113.469	118.051	118.495	123.059	319.601	121.800	-8191	255	
2526.998	1	1	0	0	0.22648	0.38545	0.12171	0.31394	0.26572	0.094233	0.2744	0.16443	0.1163	0.081253	0.1355	0.31263	0.21152	0.18537	0.10092	0.19304	-2.7854	-2.8208	-2.9938	-3.4021	-2.6542	-3.2062	-3.1771	-3.1042	-3.2313	-2.9625	-3.0667	-3.2417	-2.7771	-3.1833	-2.9708	-2.8458	181.724	418.951	414.840	404.080	295.697	413.974	389.052	106.712	382.687	438.988	434.472	401.076	426.785	440.210	271.166	369.344	0.0012781	0.00064918	0.0001664	1443.9	7.7169e-06	2.6135e-06	1437.2	384.16	9.1767e-06	9.7228e-06	439.87	144.77	126.34	42.086	2.8267e-06	51.684	0.001418	0.0014294	0.00039779	1549.4	1.5623e-05	1.5765e-05	1536.7	420.15	1.573e-05	1.581e-05	514.56	161.25	147.48	48.103	1.6068e-05	59.909	328.128	297.103	256.180	109.246	249.983	306.667	108.996	114.179	190.810	251.289	113.382	118.167	118.736	122.847	299.316	122.032	-8191	255	
2527.092	1	1	0	0	0.036029	0.21553	0.14596	0.23808	0.17297	0.13931	0.18754	0.2544	0.10776	0.13095	0.15466	0.096465	0.063491	0.24281	0.15084	0.40096	-2.8354	-2.9646	-3.0438	-3.2104	-2.8688	-3.1375	-3.3646	-3.0167	-3.1104	-2.8937	-3.0312	-3.2021	-2.8229	-3.2687	-3.0042	-2.9771	123.864	164.843	380.888	403.955	250.472	207.521	418.451	361.286	135.319	368.554	377.574	336.627	264.265	354.159	368.070	443.584	0.0013281	0.00035713	0.00022219	1437.3	1.3574e-05	5.079e-06	1433.6	382.55	1.3163e-05	6.5162e-06	443.06	144.12	126.84	41.893	1.1682e-05	52.02	0.0014539	0.0014684	0.00040972	1552.8	1.6005e-05	1.6089e-05	1539.8	420.97	1.5864e-05	1.5891e-05	515.94	161.37	147.55	47.968	1.5775e-05	59.954	308.394	165.679	237.900	109.449	214.652	171.967	108.876	114.212	195.070	185.728	113.501	117.828	118.520	123.129	252.923	121.724	-8191	255	
2527.188	1	1	0	0	0.31067	0.16318	0.22639	0.27799	0.27311	0.13916	0.41975	0.15493	0.13432	0.12425	0.23096	0.16174	0.17422	0.11064	0.15931	0.1124	-2.8083	-2.9667	-2.8896	-3.4625	-2.8771	-3.1667	-3.2208	-3.0667	-3.3021	-2.9479	-3.0229	-3.4771	-3.0938	-3.1208	-3.2042	-2.9771	285.787	113.381	284.552	396.883	209.406	205.711	399.999	377.099	179.049	142.856	145.969	394.213	243.437	102.078	230.782	446.542	0.0010581	0.0010236	8.8824e-05	1436.9	1.5043e-05	4.1999e-06	1437.2	382.45	9.7757e-06	1.1779e-05	440.42	144.06	126.45	42.04	4.5833e-06	51.9	0.001426	0.0014361	0.00039947	1548.9	1.5608e-05	1.5731e-05	1537.6	419.2	1.5694e-05	1.5711e-05	512.79	161.08	147.05	47.957	1.5718e-05	59.863	307.535	309.474	260.205	109.231	296.782	359.477	109.105	114.048	308.986	161.883	113.432	118.002	118.647	122.932	247.809	121.865	-8191	255	
2527.309	1	1	0	0	0.071642	0.17235	0.08009	0.34007	0.12788	0.082894	0.26259	0.046623	0.25409	0.27814	0.099602	0.12257	0.24411	0.071189	0.1193	0.19371	-2.7271	-2.9292	-2.9708	-3.2188	-2.8833	-3.0958	-3.55	-2.9562	-3.1312	-3.1208	-3.075	-3.1458	-2.8875	-2.9708	-3.1375	-3.0542	379.993	229.679	404.540	121.946	373.471	260.913	399.261	176.385	225.807	231.363	99.281	441.015	408.475	356.150	275.949	359.209	0.00095112	0.00013716	0.00038576	1435.4	8.4409e-06	4.1126e-06	1439.1	383.79	1.0908e-05	6.485e-06	443.34	144.31	127.76	41.934	6.6563e-06	51.879	0.001424	0.001435	0.00039753	1548.8	1.5603e-05	1.5664e-05	1540	419.77	1.5637e-05	1.564e-05	513	161.03	147.1	47.853	1.553e-05	59.773	306.511	426.292	158.638	109.435	203.910	186.205	108.922	114.228	155.611	198.125	113.203	117.758	118.763	122.894	318.681	121.851	-8191	255	
2527.381	1	1	0	0	0.22443	0.25048	0.068429	0.16112	0.11667	0.045759	0.23438	0.19303	0.18218	0.24972	0.12386	0.22594	0.23148	0.24859	0.17087	0.35946	-2.7521	-3.0354	-2.875	-3.4104	-2.9708	-3.0021	-3.4083	-2.9729	-3.1375	-3.1688	-2.7208	-3.1979	-2.9625	-3.1083	-3.2583	-3.0187	448.740	269.782	290.072	381.575	455.850	363.827	400.839	400.232	265.308	197.698	379.973	403.746	135.942	423.043	98.829	308.170	0.0013892	0.00067524	0.00013762	1443.2	5.1856e-06	3.0445e-06	1434.1	384.78	1.5568e-05	2.8159e-06	438.34	144.25	125.96	42.128	1.2116e-05	52.12	0.0014059	0.0014198	0.00039574	1549.7	1.5493e-05	1.559e-05	1537.1	419.85	1.5576e-05	1.5584e-05	511.85	161.09	146.75	47.873	1.563e-05	59.821	320.022	248.243	347.347	109.354	187.142	244.461	109.097	114.101	204.660	234.919	113.169	118.085	118.877	122.986	286.099	121.976	-8191	255	
2527.477	1	1	0	0	0.058154	0.18869	0.19874	0.18044	0.057327	0.065225	0.31185	0.23069	0.050062	0.20678	0.43689	0.16702	0.11498	0.15807	0.24298	0.27558	-2.6854	-3.1271	-2.9062	-3.4542	-2.8646	-3.0563	-3.4229	-3.0229	-3.1521	-3.0667	-2.9354	-3.2833	-3.1104	-3.0292	-3.2438	-2.9708	136.975	351.542	138.870	435.524	351.112	96.124	378.790	447.385	355.637	268.129	447.259	359.732	176.781	424.849	343.468	433.209	0.0012705	0.00039649	0.00016283	1440.2	1.2852e-05	6.3055e-06	1442.9	383.56	1.1927e-06	4.2357e-06	439.73	144.25	125.99	42.023	8.7898e-06	51.684	0.0014143	0.0014302	0.00039711	1549.8	1.5623e-05	1.5739e-05	1538.8	419.96	1.571e-05	1.5795e-05	513.44	161.34	147.29	47.976	1.6019e-05	59.989	310.181	126.885	174.606	109.274	190.572	379.601	109.122	114.034	327.601	164.033	113.405	118.150	118.652	122.966	235.362	121.555	-8191	255	
2527.573	1	1	0	0	0.068316	0.049975	0.089107	0.17902	0.14317	0.14972	0.24004	0.31158	0.062464	0.1943	0.13792	0.2185	0.23855	0.1712	0.35717	0.0226	-2.7667	-3.1312	-2.8063	-3.325	-3.0667	-2.9417	-3.4062	-3.0333	-3.0208	-3.0062	-2.7938	-3.3396	-2.9896	-3.0771	-3.1188	-2.9	142.068	385.829	310.417	347.335	170.185	226.074	409.878	393.691	333.964	250.536	188.486	373.076	417.965	452.204	195.425	281.053	0.0012096	0.00082252	0.00040357	1444.9	8.1441e-06	1.1558e-05	1441.2	383.94	1.3493e-05	8.0963e-06	442.36	144.35	126.25	42.144	8.189e-06	51.9	0.00147	0.0014889	0.00041628	1557.8	1.6547e-05	1.6634e-05	1547.4	423.04	1.6882e-05	1.6987e-05	522.97	163.14	149.99	48.709	1.7393e-05	60.931	308.784	332.164	264.693	109.316	231.562	344.967	109.339	113.996	301.385	292.497	113.355	117.997	118.490	122.814	213.129	122.026	-8191	255	
2527.694	1	1	0	0	0.17077	0.24597	0.10014	0.15141	0.10013	0.1869	0.20532	0.089555	0.10444	0.17793	0.033236	0.22461	0.11017	0.099798	0.17041	0.14795	-2.4875	-3.1208	-2.9083	-3.2375	-3.0542	-2.7646	-3.6042	-3.0229	-2.9479	-3.125	-2.9896	-3.2354	-3.0729	-2.9667	-3.2417	-3.0438	209.998	210.150	221.795	386.895	308.412	193.043	421.541	192.692	331.724	198.141	114.615	315.953	370.475	424.375	317.246	112.852	0.0014243	0.0011762	0.00034445	1437.8	5.4691e-06	1.4964e-05	1437	384.03	5.5608e-06	5.6591e-06	440.66	144.23	126.19	41.918	3.0882e-06	51.805	0.0015865	0.001607	0.00044955	1564.8	1.7729e-05	1.7791e-05	1556.3	426.61	1.7852e-05	1.7932e-05	527.8	164.22	151.63	48.874	1.7929e-05	61.211	308.367	188.501	141.896	109.200	258.252	288.259	109.177	114.114	452.682	229.781	113.161	117.843	118.475	122.759	371.007	121.671	-8191	255	
2527.790	1	1	0	0	0.31062	0.13367	0.076891	0.25071	0.10557	0.1616	0.23233	0.26691	0.36752	0.13921	0.22759	0.26636	0.13084	0.19685	0.193	0.32963	-2.3854	-3.2167	-2.8438	-3.25	-3.1937	-2.9667	-3.375	-3.1562	-2.8458	-3.2208	-3.0271	-3.1875	-3.0438	-2.8875	-3.0354	-3.1688	186.836	318.045	391.165	412.162	342.715	267.933	414.728	373.770	121.186	365.038	385.124	382.221	447.132	445.367	344.187	337.722	0.0011923	0.00064794	0.00043371	1443.5	1.0023e-05	1.0068e-05	1440.4	383.74	7.6684e-06	1.045e-06	443.49	144.41	126.92	42.136	3.7022e-06	52.035	0.0016188	0.0016313	0.0004531	1568.8	1.7678e-05	1.7762e-05	1555.1	425.87	1.7541e-05	1.7584e-05	525.31	163.49	150.38	48.682	1.741e-05	60.882	318.312	150.376	255.554	109.551	248.214	255.868	108.955	113.965	168.956	190.047	113.177	117.834	118.592	122.916	356.943	121.903	-8191	255	
2527.886	1	1	0	0	0.14632	0.23971	0.13647	0.1855	0.27503	0.029467	0.24417	0.12278	0.35192	0.27492	0.16665	0.15671	0.10973	0.24012	0.16125	0.32646	-2.4667	-3.0479	-2.9375	-3.1208	-3.1958	-2.7875	-3.3375	-3.1958	-2.7229	-3.2479	-3.0208	-3.1167	-3.2208	-3.0479	-3.075	-3.1896	184.267	436.476	176.334	402.145	381.763	247.015	416.406	308.405	207.657	216.755	411.788	393.758	117.761	350.671	265.453	418.538	0.0015295	0.00034806	0.00017325	1440	6.7166e-06	1.0108e-05	1438.2	383.03	1.8668e-05	4.2362e-06	441.21	144.39	126.29	42.115	1.1128e-05	51.775	0.0015678	0.0015953	0.00044184	1565.2	1.7312e-05	1.7378e-05	1554.1	424.63	1.7249e-05	1.722e-05	523.5	163.28	149.99	48.566	1.7192e-05	60.714	307.328	288.692	217.957	109.330	156.039	412.386	109.100	113.987	236.606	108.271	113.050	117.912	118.579	123.113	227.742	121.739	-8191	255	
2527.982	1	1	0	0	0.19621	0.080866	0.3085	0.15963	0.1173	0.19098	0.43482	0.072552	0.19774	0.15453	0.22745	0.1755	0.28872	0.033888	0.06871	0.029401	-2.4833	-3.125	-2.8833	-3.2417	-3.3042	-2.9583	-3.2917	-3.1937	-2.875	-3.0521	-2.9792	-2.975	-3.2958	-3.0312	-3	-3.2417	265.457	439.831	358.197	325.194	347.535	269.935	391.955	387.209	390.114	371.867	411.333	445.111	413.240	439.543	326.982	376.390	0.0010335	0.00049014	0.00012217	1443.6	1.152e-05	5.0424e-06	1439.7	385.12	1.1429e-05	3.9722e-06	442.81	144.65	127.1	42.088	1.6199e-05	51.996	0.0015495	0.0015665	0.0004358	1564.7	1.7011e-05	1.7072e-05	1551.1	424.29	1.6915e-05	1.692e-05	521.93	162.87	149.46	48.515	1.6792e-05	60.529	323.158	244.794	259.056	109.151	206.365	208.613	109.062	114.172	265.710	230.428	113.742	117.922	118.741	122.764	291.076	121.973	-8191	255	
2528.078	1	1	0	0	0.35204	0.11983	0.043992	0.30845	0.059933	0.10118	0.16955	0.35768	0.23075	0.19765	0.085636	0.14889	0.178	0.26474	0.11767	0.31777	-2.5104	-3.25	-2.8979	-3.0729	-3.2313	-3.0396	-3.3292	-3.3563	-2.8771	-3.2188	-3.1521	-3.0771	-3.2542	-2.9229	-2.975	-3.2583	281.593	393.185	371.596	408.828	285.184	401.034	412.638	366.054	414.036	360.512	285.505	374.301	392.300	101.868	328.964	353.752	0.0012433	0.00083422	0.00038636	1442.8	6.3881e-06	1.2076e-05	1439.1	383.13	1.2167e-05	6.1194e-06	442.11	144.52	125.75	42.079	2.2973e-05	51.838	0.0015145	0.0015297	0.00042563	1561.3	1.6649e-05	1.6693e-05	1548.8	422.68	1.665e-05	1.6683e-05	520.93	162.59	148.86	48.353	1.6688e-05	60.438	324.750	203.525	171.357	109.225	252.031	285.532	109.070	113.998	303.737	213.069	113.517	117.911	118.587	122.972	276.728	121.785	-8191	255	
2528.173	1	1	0	0	0.21173	0.18763	0.048009	0.14116	0.19121	0.21411	0.034946	0.25897	0.14069	0.062724	0.25259	0.18454	0.40341	0.053515	0.16445	0.12305	-2.4562	-3.0708	-3.0458	-3.0229	-2.975	-3.0062	-3.2188	-3.3521	-2.8146	-3.1792	-3.2708	-2.9021	-3.2938	-2.9375	-2.9875	-3.2625	424.870	167.090	396.727	403.893	446.568	150.607	120.577	390.774	150.761	170.023	442.200	186.850	450.334	180.775	315.246	349.610	0.001101	0.00050581	0.00045006	1438.7	1.9849e-06	4.8781e-06	1441.7	384.47	1.49e-05	5.6996e-06	440.48	145.07	126.31	41.909	5.4579e-06	52.259	0.0015004	0.001519	0.00042347	1558.6	1.6593e-05	1.6668e-05	1549.8	422.83	1.6613e-05	1.6684e-05	519.61	162.65	149.04	48.403	1.6693e-05	60.565	308.631	141.878	187.974	109.185	278.940	138.080	108.988	113.902	260.353	169.646	113.420	117.781	118.855	122.845	167.340	121.977	-8191	255	
2528.270	1	1	0	0	0.095486	0.18668	0.1008	0.29974	0.23205	0.12523	0.051686	0.26163	0.090993	0.25151	0.13559	0.04139	0.2186	0.32935	0.23379	0.38072	-2.6729	-3.0667	-3.1458	-2.9875	-3.1188	-2.9708	-3.1583	-3.3583	-2.9188	-3.0271	-3.3438	-3.1	-3.2771	-3.1625	-2.9	-3.3729	395.921	151.777	111.191	409.728	271.073	251.315	447.378	385.706	98.878	172.344	374.324	108.506	455.875	412.299	302.882	424.781	0.0012764	0.00038877	0.00023069	1441.6	1.068e-05	7.0714e-06	1441.9	383.65	1.6014e-05	8.1931e-06	443.89	144.46	126.44	42.104	1.0643e-05	51.776	0.001514	0.0015265	0.00042478	1561.4	1.6589e-05	1.6586e-05	1549.9	422.48	1.6514e-05	1.6559e-05	519.4	162.27	148.67	48.263	1.6444e-05	60.164	308.493	278.895	250.978	109.241	220.424	352.809	109.095	113.995	266.082	313.917	113.587	117.957	118.486	122.851	204.177	121.671	-8191	255	
2528.389	1	1	0	0	0.094124	0.025863	0.20702	0.30616	0.32577	0.098867	0.12208	0.18976	0.070135	0.11393	0.087816	0.17692	0.13433	0.44971	0.24041	0.22475	-2.4083	-3.0771	-3.0792	-3.0375	-3.2604	-3.0479	-3.0583	-3.4479	-2.8583	-3.025	-3.3479	-2.9167	-3.1562	-3.0917	-2.8708	-3.2812	358.904	296.513	357.418	429.585	354.083	180.310	361.155	410.186	320.281	423.483	292.511	97.427	140.440	102.440	171.408	358.764	0.0014748	0.00062088	0.000602	1442.6	8.1625e-06	7.3417e-06	1444.3	382.4	1.5551e-05	1.0191e-05	442.29	144.13	126.19	41.941	5.9695e-06	51.995	0.0014737	0.0014859	0.00041208	1556.9	1.6199e-05	1.621e-05	1546.4	420.99	1.607e-05	1.6188e-05	516.54	161.72	147.94	48.102	1.6066e-05	60.166	321.286	426.991	240.288	109.186	219.615	170.888	108.971	114.154	242.693	361.504	113.503	117.784	118.691	123.122	302.964	121.850	-8191	255	
2528.485	1	1	0	0	0.093984	0.30303	0.20297	0.30444	0.049659	0.037381	0.29326	0.05308	0.23365	0.15452	0.19916	0.077656	0.19996	0.036053	0.26458	0.092946	-2.4396	-2.9125	-3.2167	-3.1375	-3.0625	-2.9604	-3.1188	-3.3271	-2.8604	-3.0375	-3.2646	-3.0146	-3.1208	-3.0708	-2.7646	-3.175	184.255	329.592	229.651	440.652	454.310	147.947	453.379	394.837	415.667	294.853	372.081	400.170	134.592	129.981	314.965	370.253	0.0014326	0.00089987	0.00037791	1442.3	1.3447e-05	9.7452e-06	1441.3	383.53	1.6679e-05	3.627e-06	442.63	144.76	126.86	41.936	8.7269e-06	51.921	0.0014611	0.0014657	0.00040909	1555.6	1.6116e-05	1.6124e-05	1545.7	421.25	1.6165e-05	1.6205e-05	517.17	162.09	148.52	48.174	1.628e-05	60.306	309.370	170.014	283.656	109.325	198.863	228.149	108.895	113.978	219.236	332.163	113.478	118.082	118.786	122.810	251.919	121.849	-8191	255	
2528.582	1	1	0	0	0.051837	0.12313	0.037316	0.33729	0.074436	0.14802	0.38035	0.20447	0.068702	0.21111	0.081667	0.2931	0.093201	0.20254	0.27424	0.019084	-2.5896	-2.6708	-3.1104	-3.0563	-2.9833	-3.1396	-3.1188	-3.3104	-3	-2.8979	-3.3229	-2.9833	-3.0271	-3.2188	-2.7854	-3.1604	453.020	262.134	226.093	369.439	142.527	207.300	372.655	432.829	109.042	317.801	273.912	385.771	206.778	396.520	407.931	323.732	0.0014178	0.0010475	0.00023912	1442.2	9.1045e-06	7.3047e-06	1442.4	383.4	1.1439e-05	7.2292e-06	442.2	143.66	126.31	41.826	8.7994e-06	51.839	0.0014802	0.0014884	0.00041227	1557.7	1.6312e-05	1.626e-05	1546.6	421.83	1.6228e-05	1.6286e-05	517.74	161.66	148.34	48.147	1.6382e-05	60.251	319.341	201.523	214.432	109.295	224.021	218.603	109.160	113.953	258.998	148.302	113.096	117.711	118.700	122.684	209.669	122.049	-8191	255	
2528.678	1	1	0	0	0.27122	0.076894	0.16785	0.15155	0.1676	0.15896	0.22285	0.2022	0.20018	0.077939	0.24211	0.18922	0.22114	0.13933	0.17729	0.24748	-2.5354	-2.8292	-3.1625	-3.0917	-2.9958	-3.1979	-3.0583	-3.1375	-3.2354	-2.7875	-3.2125	-2.9396	-3.1833	-3.2792	-2.9208	-2.9771	425.389	217.898	182.580	373.698	239.268	218.486	362.800	455.152	342.133	260.098	362.407	103.289	446.531	362.152	195.479	349.009	0.0010626	0.0016835	0.00029837	1436.7	1.6306e-05	6.3848e-06	1438.9	383.76	1.0747e-05	9.5094e-06	441.68	144.46	126.38	41.894	1.4114e-05	51.624	0.0014778	0.0014992	0.00041691	1557	1.6352e-05	1.6464e-05	1546.4	422.35	1.6438e-05	1.6471e-05	519.33	162	148.46	48.096	1.6285e-05	60.167	319.044	201.291	115.268	109.247	275.644	191.298	109.156	114.104	226.490	277.625	113.253	118.117	118.362	122.911	254.720	121.843	-8191	255	
2528.774	1	1	0	0	0.036498	0.099876	0.19301	0.073476	0.26323	0.12724	0.24442	0.12076	0.10667	0.14984	0.068641	0.081989	0.19208	0.10691	0.066183	0.2245	-2.7125	-2.9313	-3.2229	-3.2292	-3.0479	-3.2521	-3.1333	-3.2917	-3.0312	-2.7479	-3.2417	-3.1583	-3.0167	-3.3	-2.8833	-3.1188	453.342	391.247	377.405	440.176	270.027	128.207	447.611	357.562	400.215	138.326	436.642	181.342	454.457	155.164	342.395	423.833	0.0015862	0.00046718	0.00033736	1438.3	1.7777e-05	5.5618e-06	1441.5	384.05	1.3691e-05	1.8969e-06	441.7	144.15	126.69	41.95	2.9384e-06	51.973	0.0014695	0.0014778	0.00041066	1556.6	1.6011e-05	1.6091e-05	1542.8	420.92	1.5871e-05	1.595e-05	515.43	161.45	147.72	48.02	1.5925e-05	59.995	315.886	208.670	186.392	109.515	251.197	198.531	109.025	113.951	210.634	308.650	113.517	117.889	118.670	122.916	267.238	121.663	-8191	255	
2528.870	1	1	0	0	0.10843	0.19644	0.062339	0.27109	0.32691	0.16485	0.07774	0.21025	0.11302	0.0879	0.13941	0.28477	0.21113	0.18488	0.079154	0.33363	-2.7438	-2.7479	-3.2646	-3.1375	-2.8604	-3.3292	-3.1146	-3.0833	-3.1917	-2.7792	-3.1021	-3.1312	-2.8625	-3.3833	-2.9042	-3.0604	235.672	240.747	137.740	409.313	417.804	145.562	370.963	106.476	141.933	417.689	259.864	411.668	443.792	373.012	252.979	398.437	0.0013899	0.00090271	0.00021717	1442.2	3.8039e-06	9.2622e-06	1442.4	382.77	1.1017e-05	9.9618e-06	440.52	144.43	126.19	41.991	3.1661e-06	51.934	0.0014408	0.0014607	0.00040623	1555	1.5903e-05	1.611e-05	1543.4	421.2	1.6091e-05	1.6188e-05	517.69	161.96	148.08	48.15	1.6196e-05	60.079	325.816	215.899	230.060	109.137	256.689	290.900	109.206	113.947	205.519	115.349	113.393	117.770	118.693	122.885	213.591	121.669	-8191	255	
2528.991	1	1	0	0	0.17413	0.1581	0.17449	0.15041	0.21611	0.066373	0.22508	0.31375	0.20865	0.098794	0.26019	0.051301	0.20106	0.22927	0.22388	0.29014	-2.6813	-2.8667	-3.1375	-3.2271	-2.6937	-3.0896	-3.1063	-3.0979	-3.1729	-2.9979	-3.0583	-3.275	-2.8937	-3.2104	-2.8438	-2.9667	415.735	219.049	387.329	445.977	416.868	121.323	426.847	421.328	377.462	272.010	355.759	309.983	453.059	301.029	280.677	404.863	0.0014623	0.00060851	0.00020089	1441.9	1.6117e-05	1.1059e-05	1434.6	383.19	3.5788e-06	7.1031e-06	441.72	144.28	126.77	42.059	1.3838e-05	51.642	0.0014654	0.0014753	0.0004112	1555	1.6046e-05	1.6092e-05	1544.6	420.82	1.6114e-05	1.613e-05	516.66	161.56	147.99	48.129	1.6021e-05	60.037	331.765	290.223	208.866	109.236	278.035	212.918	109.242	114.132	178.805	133.371	113.559	117.895	118.630	123.046	205.831	121.676	-8191	255	
2529.085	1	1	0	0	0.12826	0.22396	0.051341	0.11422	0.10942	0.18795	0.2527	0.15611	0.12193	0.21353	0.080573	0.19543	0.035927	0.47699	0.2574	0.31455	-2.8438	-2.75	-2.9313	-3.2396	-2.7542	-3.0104	-3.2958	-2.9354	-3.1813	-2.9792	-3.1396	-3.2979	-2.875	-3.2938	-2.9146	-2.9167	394.105	127.708	160.957	305.116	306.666	118.790	413.313	426.279	201.081	221.959	396.013	301.097	249.005	444.487	209.502	111.769	0.0014052	0.000688	0.00039067	1442.7	8.0154e-06	1.2721e-05	1438.2	383.92	7.2861e-06	5.9607e-06	443.16	144.96	126.73	42.167	3.6991e-06	51.871	0.0014583	0.0014692	0.00040865	1556.4	1.6025e-05	1.6085e-05	1544.6	420.97	1.6089e-05	1.6127e-05	517.03	162	148.33	48.148	1.6029e-05	60.129	328.550	174.159	453.298	109.320	228.959	333.906	109.099	114.005	289.797	230.233	113.601	117.729	118.859	122.801	175.708	121.878	-8191	255	
2529.181	1	1	0	0	0.21965	0.087121	0.12543	0.30346	0.047299	0.16074	0.2415	0.10829	0.063766	0.28798	0.1478	0.33483	0.063864	0.12783	0.10951	0.36499	-2.7188	-2.9542	-3.0854	-3.3042	-2.8458	-3.2292	-3.4479	-2.8375	-3.2188	-2.8604	-3.0625	-3.2604	-2.9188	-3.3104	-3.0021	-3.0521	299.459	270.007	307.392	432.422	373.961	117.982	390.255	199.396	132.206	272.737	423.053	413.893	415.440	372.813	239.073	397.712	0.0011448	0.00024816	0.00033479	1441.4	1.1844e-05	6.7876e-06	1437.4	384.47	1.4543e-05	6.2142e-06	441.3	144.15	126.7	42.087	9.6875e-06	51.918	0.0014563	0.0014788	0.00040858	1555.9	1.6014e-05	1.6023e-05	1542.5	421.31	1.6035e-05	1.6178e-05	516.99	161.93	148.09	48.139	1.6158e-05	60.148	318.715	324.949	247.864	109.091	299.639	304.009	109.198	114.178	152.143	247.185	113.200	118.026	118.836	122.963	223.864	122.111	-8191	255	
2529.255	1	1	0	0	0.10932	0.40962	0.089001	0.29334	0.079084	0.20881	0.13155	0.17235	0.2313	0.16577	0.085889	0.065995	0.094158	0.23097	0.18958	0.04212	-2.7625	-2.9625	-2.7771	-3.3646	-2.8625	-3.0521	-3.4854	-3	-3.2375	-2.8479	-2.9729	-3.3104	-3.0167	-3.0729	-3.0479	-2.8708	300.084	171.459	218.079	454.160	377.526	104.595	251.337	424.162	324.486	206.499	144.743	113.689	392.293	426.903	186.147	221.152	0.0014148	0.00091184	0.00018507	1441.9	4.5025e-06	6.461e-06	1444.1	383.55	1.1845e-05	5.5066e-06	440	144.66	126.33	41.983	4.0865e-06	52.056	0.0014692	0.0014815	0.00041212	1557.3	1.6267e-05	1.6258e-05	1547.3	421.26	1.6235e-05	1.6271e-05	517.29	162.14	148.41	48.177	1.6208e-05	60.216	322.868	282.268	352.271	109.272	346.938	139.064	109.095	114.032	210.910	156.863	113.535	118.017	118.581	122.823	217.354	121.886	-8191	255	
2529.374	1	1	0	0	0.16318	0.15531	0.10981	0.17068	0.19227	0.11197	0.41689	0.51351	0.15554	0.16478	0.16662	0.12678	0.13263	0.10963	0.22917	0.23994	-2.7167	-3.0187	-2.8375	-3.3667	-3.0563	-2.9938	-3.45	-3.0458	-3.1708	-2.975	-2.9875	-3.2812	-2.9437	-3.1896	-3.0687	-2.9562	107.565	344.173	404.163	293.843	395.199	136.365	404.582	434.473	313.308	257.150	340.246	315.122	435.927	113.063	277.192	394.444	0.0013279	0.00032658	5.5799e-05	1441.6	4.494e-06	4.5516e-06	1441.5	383.06	9.3729e-06	9.2832e-06	442.42	143.99	126.52	42.016	9.2117e-06	51.737	0.0014637	0.0014812	0.00041166	1557.1	1.6106e-05	1.6114e-05	1545	420.97	1.5959e-05	1.605e-05	516.06	161.57	147.64	48.029	1.594e-05	59.956	316.074	208.585	282.479	109.456	219.954	170.305	109.055	113.961	229.437	186.679	113.318	118.101	118.504	122.774	187.283	121.454	-8191	255	
2529.470	1	1	0	0	0.12238	0.070026	0.039202	0.24634	0.29834	0.40223	0.24697	0.27653	0.23229	0.22126	0.1178	0.26785	0.3298	0.17546	0.096465	0.17505	-2.7313	-3.0167	-2.8667	-3.3167	-2.8708	-3.0563	-3.4021	-2.9792	-3.1771	-3.2062	-3.1188	-3.2729	-3.0979	-3.0604	-3.2104	-2.8896	399.178	135.386	167.053	421.823	427.922	124.584	354.189	138.584	147.454	105.234	330.824	411.100	433.402	425.874	224.043	376.837	0.0014127	0.00098461	0.00029454	1443.5	6.3476e-06	2.0496e-05	1442.8	382.9	4.4651e-06	6.9378e-06	440.57	144.46	126.85	42.254	8.5424e-06	52.079	0.0014462	0.0014531	0.00040295	1554.8	1.5776e-05	1.5823e-05	1544.3	420.43	1.5765e-05	1.5788e-05	514.68	161.43	147.54	47.994	1.58e-05	59.912	323.275	197.858	214.175	109.017	248.304	188.393	109.058	114.036	158.447	174.129	113.513	118.229	118.259	122.925	234.860	121.868	-8191	255	
2529.566	1	1	0	0	0.17211	0.11763	0.20788	0.20316	0.05533	0.18931	0.26541	0.30307	0.077289	0.12973	0.08405	0.13553	0.075132	0.13961	0.13414	0.12841	-2.4708	-3.1229	-2.8292	-3.4229	-3.1417	-2.8104	-3.4479	-3.0854	-3.0521	-3.1208	-2.875	-3.2042	-3.0208	-2.9292	-3.1167	-2.925	297.768	348.500	319.462	109.323	156.156	348.436	370.294	423.098	288.208	375.204	347.155	168.952	398.457	142.857	438.383	142.653	0.0010213	0.00094627	0.00015621	1440.7	4.8241e-06	2.1759e-06	1441.6	383.01	8.7177e-06	7.3407e-06	443.6	145.13	126.21	41.954	1.2455e-05	52.053	0.0014321	0.0014448	0.0004005	1553.7	1.5765e-05	1.5831e-05	1544.6	420.03	1.5814e-05	1.5781e-05	514.91	161.51	147.48	48.011	1.5794e-05	59.998	308.397	127.263	193.568	109.353	157.377	193.454	109.069	114.133	169.751	103.369	113.460	118.097	118.649	123.030	222.614	121.839	-8191	255	
2529.662	1	1	0	0	0.31789	0.22384	0.18534	0.11823	0.19135	0.1868	0.37909	0.19263	0.10321	0.18167	0.1601	0.19993	0.18408	0.3148	0.072284	0.054729	-2.6188	-3.2083	-2.9167	-3.3875	-3.0271	-2.7146	-3.2958	-3.1333	-2.8729	-3.3187	-2.8479	-3.1417	-2.9479	-2.9917	-3.1542	-3.1333	185.182	183.122	136.412	331.392	334.043	160.965	382.432	329.761	111.246	142.258	147.945	429.109	105.668	412.805	322.367	127.713	0.0013113	0.00091169	0.00028411	1446.4	8.2887e-06	1.0088e-05	1444.9	383.77	5.7055e-06	9.3672e-06	440.06	144.33	127.13	42.07	1.0969e-05	51.831	0.0014345	0.0014403	0.00040309	1556.2	1.5779e-05	1.5909e-05	1543.4	420.58	1.5836e-05	1.587e-05	514.55	161.7	147.8	48.07	1.5889e-05	60.04	322.481	153.785	298.770	109.447	236.280	268.710	109.110	114.077	213.506	245.047	113.293	118.096	118.493	122.935	284.101	122.023	-8191	255	
2529.783	1	1	0	0	0.099341	0.21407	0.069755	0.32129	0.17534	0.11609	0.34451	0.23753	0.057933	0.1169	0.12033	0.26024	0.20729	0.031809	0.13241	0.30622	-2.4958	-3.1937	-2.8604	-3.2854	-3.2125	-2.7458	-3.2292	-3.1292	-2.975	-3.2104	-2.9521	-3.0979	-3.1333	-2.9688	-3.2687	-3.0208	198.170	211.776	302.549	441.450	314.325	439.808	350.767	373.834	394.311	111.403	100.880	106.366	440.063	410.951	433.831	444.634	0.00082091	0.0007573	6.7265e-05	1442.3	1.008e-05	5.6299e-06	1442.8	385.21	8.8142e-06	8.4279e-06	441.46	145.09	126.01	41.97	1.6883e-05	51.946	0.0014435	0.0014548	0.00040574	1556.6	1.5889e-05	1.5973e-05	1546	421.18	1.5946e-05	1.5971e-05	515.63	161.77	147.68	48.06	1.5946e-05	60.072	322.702	132.703	138.157	109.170	246.441	250.974	109.300	113.963	244.970	236.154	113.589	118.140	118.287	122.881	280.083	122.011	-8191	255	
2529.854	1	1	0	0	0.36595	0.13499	0.21557	0.43472	0.23115	0.036625	0.31561	0.53007	0.23649	0.15943	0.20772	0.13962	0.085055	0.12383	0.14188	0.091998	-2.4292	-3.1042	-2.6917	-3.0938	-3.2104	-2.8333	-3.3312	-3.1125	-2.7313	-3.2333	-3.075	-2.9979	-3.0521	-2.9188	-2.9896	-3.0812	329.696	301.643	322.600	449.312	380.231	448.843	407.638	392.894	332.046	325.630	106.452	448.775	230.475	365.540	311.587	98.608	0.0014376	0.00044204	8.4504e-05	1450.5	1.9232e-06	1.0346e-05	1445.3	383.42	8.7654e-06	4.6776e-06	440.39	144.79	126.77	41.947	7.394e-06	52.02	0.0014494	0.0014624	0.0004054	1557.7	1.5855e-05	1.5958e-05	1548.4	420.24	1.5828e-05	1.5886e-05	514.24	161.6	147.59	47.961	1.5716e-05	59.953	319.299	305.591	452.776	109.430	234.015	227.525	109.161	113.990	309.683	104.731	113.574	117.917	118.587	122.825	265.219	121.517	-8191	255	
2529.950	1	1	0	0	0.066379	0.095721	0.12189	0.07512	0.21677	0.24715	0.36957	0.19315	0.13118	0.071533	0.16303	0.25596	0.1449	0.042014	0.16739	0.27593	-2.4	-3.0542	-2.8812	-3.3083	-3.1646	-2.9979	-3.2625	-3.2167	-2.8521	-3.4938	-3.0417	-2.9792	-3.3417	-2.9646	-3.1146	-3.1417	446.266	274.667	179.761	377.767	173.929	102.164	407.605	362.918	429.728	157.892	137.162	419.460	442.521	297.567	313.556	433.771	0.0012078	0.0010557	0.00040388	1440	9.2442e-06	2.9995e-06	1445.1	382.81	8.5988e-06	3.0578e-06	441.81	144.66	125.88	42.022	6.3282e-06	51.907	0.001428	0.0014459	0.00039935	1553.7	1.5691e-05	1.5679e-05	1544.2	419.85	1.5686e-05	1.5706e-05	513.42	161.14	147.04	47.897	1.5737e-05	59.813	334.939	183.202	188.510	109.461	197.104	149.120	108.981	114.044	238.105	321.734	113.420	117.949	118.902	122.778	308.006	122.199	-8191	255	
2530.071	1	1	0	0	0.19523	0.15715	0.19362	0.24749	0.1679	0.33251	0.46504	0.26264	0.12072	0.067126	0.28625	0.44289	0.088495	0.23013	0.13609	0.11067	-2.3792	-3.2896	-2.9271	-3.0604	-3.1208	-2.8417	-3.3167	-3.1604	-2.925	-3.3312	-3.0646	-3.0187	-3.1896	-2.9896	-3.1188	-3.1958	210.377	211.271	445.324	426.717	192.127	286.892	418.712	394.898	218.380	168.683	150.792	418.859	130.776	441.492	385.621	376.430	0.0013169	0.0015828	0.00027594	1447.1	6.0376e-06	5.2764e-07	1441.6	383.89	1.3716e-05	9.1327e-06	443.94	144.71	126.88	42.046	1.4932e-06	51.723	0.0014199	0.0014354	0.00039765	1554.8	1.5582e-05	1.5638e-05	1542.6	419.97	1.5548e-05	1.5666e-05	513.57	161.32	147.31	47.914	1.5712e-05	59.805	332.039	211.270	182.326	109.297	445.257	369.477	109.165	114.071	184.503	246.164	113.644	117.933	118.650	123.056	424.511	121.591	-8191	255	
2530.165	1	1	0	0	0.15123	0.13363	0.25323	0.41086	0.16961	0.31451	0.25826	0.23959	0.16455	0.10519	0.087886	0.10426	0.10494	0.19152	0.21632	0.18564	-2.3021	-3.1354	-2.9313	-3.0667	-3.1333	-2.9646	-3.1688	-3.3458	-2.7812	-3.1437	-3.175	-2.9396	-2.9625	-2.8604	-3.0438	-3.2458	240.391	211.377	211.889	408.853	246.241	439.430	338.277	455.146	98.761	316.901	220.758	434.444	158.528	308.547	401.284	439.902	0.0011183	0.00068898	0.00013204	1448.3	5.9548e-06	1.7324e-05	1446.6	383.02	7.3591e-06	1.2863e-05	442.5	144.66	127.23	41.991	1.0055e-05	52.108	0.0014225	0.0014404	0.00039987	1556.5	1.5639e-05	1.5718e-05	1545.3	420.15	1.57e-05	1.5778e-05	514.04	161.48	147.48	47.987	1.5769e-05	60.004	328.570	203.232	292.532	109.248	170.330	268.054	109.266	114.132	291.650	242.167	113.018	117.826	118.552	122.826	195.499	121.845	-8191	255	
2530.263	1	1	0	0	0.048568	0.1585	0.049555	0.15862	0.15488	0.094506	0.52862	0.16534	0.071043	0.034766	0.21466	0.16947	0.23625	0.1266	0.14068	0.41784	-2.2896	-3.2854	-2.9521	-3.1583	-3.1	-3.1583	-3.1646	-3.3896	-2.7021	-3.0062	-3	-2.9771	-3.2229	-2.9875	-3.0271	-3.2708	141.067	102.082	202.725	417.718	250.820	274.830	388.160	134.259	333.698	130.470	431.521	413.292	382.120	385.491	238.441	394.914	0.0013322	0.00027821	0.00023753	1451.2	8.3438e-06	1.1929e-05	1442.1	383.35	7.7262e-06	6.7963e-06	441.67	144.6	126.99	42.074	1.3198e-05	52.072	0.0014249	0.0014466	0.00039936	1557.3	1.566e-05	1.5745e-05	1544.1	419.71	1.5682e-05	1.5725e-05	513.68	161.53	147.57	47.912	1.5729e-05	59.972	323.462	414.847	110.821	109.332	244.337	241.281	109.184	113.994	348.790	264.548	113.387	118.010	118.535	122.905	293.950	121.961	-8191	255	
2530.382	1	1	0	0	0.1124	0.22882	0.23518	0.11921	0.18515	0.30021	0.32972	0.27658	0.16149	0.32935	0.23051	0.079021	0.10955	0.37533	0.28684	0.33556	-2.3625	-3.1792	-3.0146	-2.9917	-3.2708	-3.0979	-3.125	-3.2271	-2.8833	-2.8708	-3.1063	-2.8458	-3.0625	-3.225	-2.9417	-3.4	302.895	339.058	390.947	108.995	341.033	124.074	391.406	410.292	276.966	190.097	395.171	183.775	219.670	398.964	424.291	381.997	0.0011662	0.00018425	0.00017575	1445	1.3201e-05	6.6272e-06	1444.2	384.8	3.0108e-06	2.7579e-06	441.57	144.24	126.15	41.903	7.2805e-07	52.032	0.0014261	0.0014389	0.00039995	1556.8	1.578e-05	1.5825e-05	1546.2	420.09	1.5728e-05	1.5781e-05	515.19	161.16	147.42	47.946	1.5756e-05	59.963	304.124	113.879	265.817	109.394	299.024	226.847	109.245	114.015	208.560	314.517	113.512	117.909	118.765	122.921	132.005	122.053	-8191	255	
2530.478	1	1	0	0	0.23217	0.16905	0.23286	0.41484	0.058214	0.15059	0.30386	0.44158	0.15467	0.18123	0.18259	0.21675	0.14388	0.40943	0.082122	0.13078	-2.5062	-2.9458	-3.1792	-3.0375	-3.2771	-3.0708	-3.1104	-3.4479	-2.9813	-3.0062	-3.2625	-3.0396	-3.2062	-3.2812	-2.6979	-3.3812	338.601	244.976	106.325	407.340	196.768	373.425	410.050	386.752	229.920	274.064	272.939	143.532	153.594	114.318	441.591	96.750	0.0011308	0.00024509	0.00022153	1442.5	5.9513e-06	9.0324e-06	1445.9	385.07	1.1224e-05	9.8915e-06	442.45	144.57	126.75	41.982	6.7408e-06	52.22	0.0014333	0.00145	0.00040471	1558.6	1.5846e-05	1.6023e-05	1548.3	421.69	1.6091e-05	1.6194e-05	517.34	162.01	148.5	48.242	1.624e-05	60.298	314.685	131.929	278.310	109.365	330.999	311.616	109.268	114.124	246.830	252.031	113.227	117.799	118.696	122.949	433.995	121.788	-8191	255	
2530.550	1	1	0	0	0.22531	0.2259	0.12166	0.22886	0.14329	0.098685	0.37983	0.11391	0.26381	0.16857	0.22258	0.18662	0.14522	0.13969	0.12505	0.27449	-2.3896	-3.1	-3.2104	-3.0292	-3.125	-3.0458	-3.0271	-3.275	-2.8271	-2.9167	-3.2146	-3.0917	-3.0438	-3.0958	-2.925	-3.3146	286.243	307.291	377.753	446.531	345.357	102.013	405.239	99.408	310.236	116.672	432.629	366.458	427.076	387.677	333.443	416.125	0.0012345	0.00057544	0.00017816	1444	1.1413e-05	3.2764e-06	1442.5	384.58	8.4373e-06	1.4188e-05	443	145.38	127.16	42.099	5.548e-06	51.939	0.0014689	0.0014857	0.00041075	1558.9	1.6073e-05	1.6074e-05	1547.3	421.58	1.5963e-05	1.599e-05	517.07	161.91	147.9	48.164	1.6092e-05	60.136	315.860	178.268	168.182	109.413	237.370	434.157	109.028	113.850	225.430	110.311	113.492	117.947	118.383	123.029	209.637	122.016	-8191	255	
2530.646	1	1	0	0	0.10125	0.15533	0.20343	0.24624	0.18294	0.19222	0.24978	0.35877	0.18274	0.25166	0.15311	0.24494	0.20853	0.1898	0.23099	0.16657	-2.5917	-2.8375	-3.1271	-3.2479	-3.0042	-3.2792	-3.1271	-3.2875	-3.2271	-2.7667	-3.3708	-3.0104	-3.1146	-3.2354	-2.9125	-3.3583	296.116	222.497	452.649	116.346	291.208	237.676	389.755	403.211	251.583	186.685	441.734	100.722	422.129	422.092	368.260	426.473	0.0013379	0.0011573	0.00027043	1445.7	1.1652e-05	2.0751e-05	1442.2	383.91	1.1593e-05	1.0738e-05	441.91	144.68	126.16	42.03	7.4816e-06	51.975	0.0014586	0.0014798	0.0004121	1560.7	1.6244e-05	1.6323e-05	1548.9	422.28	1.6345e-05	1.6452e-05	519.54	162.56	148.62	48.344	1.6539e-05	60.444	327.633	334.946	254.764	109.442	273.881	253.120	109.017	114.041	307.484	255.053	113.397	117.806	118.554	122.792	449.779	122.315	-8191	255	
2530.767	1	1	0	0	0.20252	0.10071	0.13317	0.13588	0.12913	0.3076	0.15652	0.064868	0.12546	0.043827	0.14643	0.16775	0.1645	0.22199	0.14919	0.071227	-2.5792	-2.9396	-3.0333	-3.1021	-2.8896	-3.2979	-3.1188	-3.2208	-3.1396	-2.8563	-3.3083	-2.925	-2.9417	-3.2687	-2.7458	-2.9958	185.548	295.840	153.794	408.826	279.250	419.272	368.366	439.935	150.598	359.325	396.525	412.404	450.166	97.674	382.041	383.777	0.0017064	0.00033852	0.00022957	1442.4	1.6584e-05	1.2003e-05	1442.4	384.23	1.4437e-05	6.8318e-06	442.93	144.79	126.81	42.069	1.2028e-05	52.006	0.0014928	0.001505	0.00041802	1561.6	1.6473e-05	1.6524e-05	1548.6	422.52	1.6295e-05	1.6328e-05	518.22	162.01	148.44	48.234	1.618e-05	60.215	315.845	220.565	274.095	109.154	201.695	105.211	109.113	114.061	331.997	424.932	113.416	117.979	118.636	122.848	247.056	121.962	-8191	255	
2530.863	1	1	0	0	0.1112	0.35267	0.17695	0.33681	0.11161	0.27995	0.085565	0.061899	0.018144	0.15592	0.12613	0.016161	0.21968	0.24674	0.11336	0.19242	-2.6333	-2.6583	-3.0625	-3.0979	-2.9167	-3.225	-3.1375	-3.1958	-2.9729	-2.8708	-3.1688	-3.1188	-2.8167	-3.2771	-2.8438	-3.1	288.891	339.630	251.893	409.596	232.739	142.610	286.423	149.646	100.802	106.749	333.543	438.271	198.259	122.951	453.703	394.069	0.0012167	0.00051614	0.00020851	1444.2	8.0899e-06	6.4401e-06	1444.9	383.07	1.3568e-05	6.4903e-06	442.05	144.58	126.28	41.975	1.5166e-05	51.867	0.0014611	0.0014723	0.00041137	1560	1.6107e-05	1.6201e-05	1547.4	421.97	1.6278e-05	1.6323e-05	518.69	162.31	148.56	48.303	1.6552e-05	60.36	328.541	193.747	220.195	109.236	298.063	110.550	109.077	114.159	275.866	252.457	113.603	117.905	118.880	122.750	111.318	122.055	-8191	255	
2530.959	1	1	0	0	0.33412	0.082721	0.17077	0.18193	0.26584	0.21882	0.15119	0.12435	0.26729	0.037012	0.24048	0.16924	0.1425	0.1449	0.2701	0.17941	-2.6104	-2.725	-3.1437	-3.4396	-2.8375	-3.2542	-3.1854	-3.0396	-3.0708	-2.8958	-3.0812	-3.1375	-2.6333	-3.2292	-2.9813	-3.1417	221.882	194.019	216.413	397.916	396.882	109.763	454.074	320.251	161.093	273.037	449.747	380.574	158.512	167.428	120.735	349.258	0.0012349	0.00096916	0.00017858	1444.2	1.8493e-05	4.6924e-06	1441.6	385.01	1.8093e-05	3.0114e-06	440.4	145.41	126.08	41.889	8.881e-06	51.928	0.0015052	0.001519	0.00042354	1562.1	1.6627e-05	1.6776e-05	1552.3	423.36	1.6603e-05	1.6665e-05	520.8	163.01	149.32	48.42	1.672e-05	60.476	314.721	189.550	117.885	109.292	183.035	202.083	108.998	114.169	238.107	227.366	113.688	118.098	118.457	122.945	257.752	121.908	-8191	255	
2531.055	1	1	0	0	0.32221	0.29186	0.35413	0.28986	0.011594	0.2676	0.16397	0.46196	0.1277	0.22602	0.060478	0.23406	0.080864	0.098076	0.14316	0.23328	-2.7687	-2.7729	-3.0958	-3.2833	-2.7938	-3.1667	-3.1792	-2.9667	-3.1604	-2.8833	-2.9792	-3.3333	-3.075	-3.2604	-2.9833	-3.0104	381.722	270.446	237.910	394.815	276.021	192.749	408.252	316.594	97.035	298.225	160.773	450.780	171.685	120.471	164.924	267.293	0.00098739	0.00091461	0.00022922	1444.3	9.8155e-06	4.9451e-07	1441.3	384.67	7.6325e-06	1.7078e-05	441.02	144.57	126.32	41.887	1.708e-05	51.937	0.0015124	0.0015311	0.00042599	1563.9	1.6718e-05	1.6827e-05	1552.2	423.58	1.686e-05	1.701e-05	522.26	163.02	149.74	48.488	1.7016e-05	60.75	334.082	179.324	236.139	109.182	254.636	110.877	109.083	113.915	228.305	259.867	113.549	117.976	118.405	123.071	197.706	121.830	-8191	255	
2531.151	1	1	0	0	0.22016	0.078111	0.063535	0.31086	0.11916	0.21937	0.26579	0.1288	0.053686	0.14077	0.11462	0.096961	0.20924	0.279	0.25733	0.17604	-2.8417	-2.9813	-2.9792	-3.4083	-2.9333	-3.1958	-3.1583	-3.0687	-3.2333	-2.95	-3.0583	-3.2917	-3.025	-3.25	-3.125	-3.0125	350.845	221.856	411.921	405.080	256.531	112.464	403.563	405.833	440.427	212.411	288.203	120.358	399.009	181.399	310.139	260.301	0.0010242	0.0008994	0.00023448	1443.8	5.4607e-06	6.2599e-06	1440.1	385.18	8.9475e-06	1.0119e-05	440.65	144.43	126.05	41.907	3.2388e-06	52.087	0.0015474	0.0015583	0.00043583	1567.9	1.7113e-05	1.7151e-05	1555.2	424.97	1.7139e-05	1.7189e-05	524.13	163.09	149.79	48.569	1.711e-05	60.849	316.407	167.676	284.214	109.110	348.683	443.491	109.139	114.011	176.296	269.509	113.407	118.104	118.502	123.115	228.174	121.481	-8191	255	
2531.246	1	1	0	0	0.33127	0.11092	0.059813	0.36221	0.10891	0.21124	0.20063	0.14094	0.18634	0.022067	0.12732	0.040231	0.38107	0.13939	0.075465	0.20129	-2.9042	-2.9208	-3.0125	-3.4333	-2.8854	-3.1958	-3.3479	-3.0812	-3.2021	-2.9542	-3.0875	-3.3542	-2.8833	-3.1979	-3.0979	-3.0187	454.932	104.276	168.616	370.409	205.530	161.371	335.993	387.212	170.125	195.964	432.837	364.848	100.872	432.376	352.632	441.591	0.00114	0.001285	0.00031662	1446.4	4.4542e-06	1.3212e-05	1439.9	384.01	1.0012e-05	1.7056e-05	445.51	143.96	126.06	42.255	7.6848e-06	52.249	0.0015459	0.0015676	0.0004374	1566.6	1.7175e-05	1.7188e-05	1555	424.59	1.718e-05	1.7163e-05	523.86	163.15	149.82	48.628	1.7062e-05	60.761	336.208	200.458	327.531	109.194	242.421	296.399	109.084	114.028	182.676	223.587	113.292	117.843	118.660	122.774	213.799	121.762	-8191	255	
2531.344	1	1	0	0	0.18651	0.17329	0.24531	0.44968	0.2176	0.1124	0.45143	0.28218	0.17268	0.13181	0.080847	0.096955	0.22632	0.16908	0.089345	0.31745	-2.7833	-3.0021	-2.8812	-3.5125	-2.9604	-3.1667	-3.2542	-2.9396	-3.1917	-3.0396	-2.9333	-3.2896	-3.0208	-3.1708	-3.0979	-2.9792	378.344	439.980	317.116	433.555	366.884	209.631	390.780	400.653	400.515	108.725	448.271	138.093	114.561	328.877	262.351	351.916	0.0014451	0.0010672	0.00014449	1444.4	1.4073e-05	3.7345e-06	1443.4	385.63	1.5532e-05	1.0326e-05	440.37	144.48	126.68	41.915	1.6609e-05	51.934	0.0015361	0.0015433	0.00042753	1564.6	1.6674e-05	1.6729e-05	1551.5	423.9	1.6565e-05	1.6591e-05	519.01	162.71	148.7	48.334	1.6667e-05	60.421	320.240	179.573	256.561	109.160	224.063	204.777	109.146	114.040	196.852	262.039	113.442	118.091	118.639	122.771	238.823	121.837	-8191	255	
2531.463	1	1	0	0	0.16695	0.17044	0.40929	0.21832	0.16298	0.14928	0.20145	0.31752	0.15532	0.19887	0.19907	0.1732	0.13942	0.31076	0.17489	0.049196	-2.8042	-3.0333	-2.9208	-3.4292	-3.0708	-3.0417	-3.4	-2.9375	-3.1292	-3.0167	-2.8521	-3.4375	-3.0104	-2.9042	-3.2604	-2.9604	250.674	367.867	109.841	402.650	267.614	298.114	381.906	357.369	239.909	445.707	111.072	403.283	127.301	102.144	146.965	293.370	0.0011014	0.00039333	0.00036731	1445.6	1.2615e-05	8.6589e-06	1441.9	382.83	2.1185e-05	6.7272e-06	443.79	144.38	126.12	41.956	1.2614e-05	52.013	0.0015015	0.0015212	0.00042277	1564.2	1.6595e-05	1.6608e-05	1549.6	422.71	1.6516e-05	1.6642e-05	520.26	162.71	148.9	48.311	1.6572e-05	60.377	319.716	184.775	204.716	109.368	198.897	390.776	108.940	114.174	197.718	135.711	113.642	117.906	118.760	123.018	234.948	121.999	-8191	255	
2531.559	1	1	0	0	0.28278	0.24249	0.084597	0.31601	0.14922	0.23556	0.25676	0.021264	0.11845	0.056061	0.2039	0.11254	0.27135	0.26552	0.27698	0.20758	-2.7521	-3.0667	-2.8	-3.3708	-2.9688	-2.8563	-3.4458	-3.1417	-3.1167	-2.9521	-2.9125	-3.3063	-2.9917	-3.1167	-2.9938	-2.9271	269.639	447.717	220.744	115.705	250.206	170.910	404.389	326.772	139.118	355.211	402.237	252.282	422.187	455.157	446.982	357.630	0.0012843	0.00062473	0.00035817	1442.3	1.1927e-05	1.3226e-06	1441.4	381.99	8.284e-06	1.0955e-05	441.92	144.84	127.02	41.92	1.0271e-05	51.959	0.0014979	0.0015034	0.00041746	1560	1.6317e-05	1.6361e-05	1548.6	421.67	1.6247e-05	1.6307e-05	517.9	162.13	148.07	48.138	1.6135e-05	60.173	309.914	199.751	220.630	109.356	296.203	193.144	109.128	114.110	212.971	289.840	113.405	117.956	118.504	123.191	239.482	121.771	-8191	255	
2531.655	1	1	0	0	0.10825	0.056023	0.11921	0.23581	0.089541	0.16906	0.14908	0.22651	0.11835	0.1675	0.15164	0.22647	0.036598	0.027046	0.27687	0.25339	-2.5604	-3.0292	-2.725	-3.3812	-3.0542	-2.8833	-3.4625	-2.9479	-2.9979	-3.2271	-2.7354	-3.3125	-2.9271	-2.925	-3.2417	-3.0625	326.231	134.883	137.998	430.640	310.045	182.110	398.814	445.809	254.828	113.228	207.263	430.333	432.727	398.996	452.847	373.065	0.0013072	0.00058242	4.3167e-05	1446.9	1.8037e-05	1.2697e-05	1442.3	383.04	6.9606e-06	5.5631e-06	442.3	144.47	127.33	41.888	4.0252e-06	51.947	0.001454	0.0014671	0.00040846	1560.2	1.6017e-05	1.6066e-05	1546.3	421.34	1.6021e-05	1.6078e-05	516.58	161.84	148.11	48.123	1.6175e-05	60.207	320.547	164.113	430.300	109.376	249.094	237.561	109.087	114.149	284.826	212.474	113.466	117.795	118.812	122.624	197.971	121.923	-8191	255	
2531.751	1	1	0	0	0.17545	0.1767	0.056098	0.076327	0.12979	0.23417	0.011558	0.14069	0.23664	0.15217	0.19044	0.16689	0.30895	0.14564	0.094937	0.15343	-2.6521	-3.2146	-2.7375	-3.3333	-2.8521	-2.9583	-3.475	-3.2188	-3.0083	-3.1208	-2.9833	-3.3167	-3.0167	-2.9604	-3.2208	-3.0687	372.314	390.513	246.216	98.095	202.437	248.662	296.909	114.239	363.863	444.125	111.093	388.012	190.049	449.638	351.441	240.157	0.00092323	0.00034702	0.00016018	1444	6.5433e-06	1.0018e-05	1446.9	383.29	1.3142e-05	6.4137e-06	444.13	144.25	126.39	41.815	2.1911e-06	51.8	0.0014605	0.0014796	0.00041253	1560.5	1.6146e-05	1.6291e-05	1550.2	421.94	1.6237e-05	1.6297e-05	517.83	161.97	148.61	48.192	1.6331e-05	60.312	309.879	169.310	182.378	109.253	205.270	127.216	108.994	114.054	141.394	159.387	113.271	117.953	118.570	122.953	355.874	122.015	-8191	255	
2531.845	1	1	0	0	0.13978	0.2159	0.19721	0.20516	0.15685	0.14221	0.53815	0.1191	0.11288	0.21082	0.14495	0.11958	0.14406	0.24883	0.21552	0.090203	-2.4646	-3.2271	-2.8667	-3.1354	-3.075	-2.8312	-3.4146	-3.0938	-2.7833	-3.1937	-3.0125	-3.1042	-3.1583	-2.9	-3.0167	-3.2062	444.867	318.380	241.948	444.468	242.406	286.280	405.162	101.948	379.430	265.038	279.135	187.335	211.913	107.090	266.425	454.340	0.001055	0.0006397	0.00039901	1445.6	4.4289e-06	1.183e-05	1445	382.75	6.1748e-06	4.3079e-06	440.43	144.89	126.52	42.052	5.7126e-06	52.124	0.0014821	0.0014982	0.00041492	1561.8	1.6343e-05	1.6358e-05	1550	421.7	1.6321e-05	1.6378e-05	518	162.41	148.73	48.276	1.6432e-05	60.454	320.742	360.814	96.082	109.307	336.870	320.584	109.094	113.969	274.544	339.396	113.245	117.687	118.720	123.029	330.321	121.811	-8191	255	
2531.942	1	1	0	0	0.084728	0.18442	0.085506	0.2672	0.075283	0.17844	0.16065	0.19255	0.10926	0.11664	0.17133	0.15269	0.069325	0.231	0.18429	0.16279	-2.5354	-3.1833	-2.8688	-3.2208	-3.0042	-2.7583	-3.55	-3.1479	-3.0062	-3.1521	-2.7542	-3.1708	-3.1667	-3.1146	-3.1771	-3.0979	271.034	329.690	167.233	417.646	187.830	324.346	350.851	387.750	430.517	263.289	338.860	361.078	97.583	422.538	103.221	407.449	0.0013406	0.00070608	0.00013614	1446.1	4.8069e-06	7.4259e-06	1447.2	384.06	1.2932e-05	1.1236e-05	441.1	144.79	126.82	42.03	6.4885e-06	51.931	0.0014865	0.0015021	0.00041904	1563.1	1.6528e-05	1.6695e-05	1551.8	422.98	1.6635e-05	1.6624e-05	519.25	162.71	149.15	48.397	1.6617e-05	60.365	321.508	156.279	100.674	109.281	357.290	280.982	109.171	113.939	238.266	208.038	113.363	118.043	118.674	122.954	139.661	121.742	-8191	255	
2532.062	1	1	0	0	0.1464	0.37061	0.13092	0.41652	0.13245	0.30792	0.31393	0.30898	0.13957	0.2853	0.13356	0.14974	0.24733	0.29122	0.2479	0.25178	-2.6437	-3.2958	-2.95	-3.2	-3.1604	-2.7896	-3.3229	-3.2917	-2.6979	-3.3292	-2.9854	-3.1917	-3.45	-3.0521	-3.2104	-3.2729	407.103	320.112	293.306	452.177	118.367	346.104	455.862	381.794	431.885	319.203	413.862	118.026	147.440	383.490	287.200	408.178	0.0012241	0.0010745	0.00031787	1446.3	7.4145e-06	1.808e-05	1448.2	383.68	8.3661e-06	6.694e-06	441.1	144.24	126.92	41.82	7.111e-06	52.126	0.0015034	0.0015132	0.00041934	1563.1	1.6413e-05	1.6475e-05	1550.6	422.52	1.6373e-05	1.6447e-05	518.84	162.3	149.04	48.238	1.6547e-05	60.44	316.882	150.997	455.089	109.179	303.523	239.977	109.112	114.057	217.328	303.453	113.589	118.135	118.423	122.978	254.060	122.018	-8191	255	
2532.158	1	1	0	0	0.13741	0.081194	0.18341	0.38208	0.048441	0.073973	0.56208	0.30264	0.15177	0.23867	0.15728	0.070349	0.28053	0.098766	0.14052	0.18479	-2.5646	-3.0812	-3.0917	-3.1688	-3.4521	-3.0771	-3.3646	-3.2146	-2.8479	-3.1167	-3.1063	-3.0021	-3.3417	-2.975	-2.9938	-3.3396	376.855	279.270	433.899	403.016	108.520	230.799	408.329	448.333	385.361	136.094	439.388	448.938	160.956	212.573	163.189	446.730	0.0010884	0.00067872	0.0001538	1444.9	2.3733e-05	8.3371e-06	1441	383.44	7.1729e-06	9.2608e-06	442.87	144.33	126.42	41.999	6.2816e-06	51.892	0.0014998	0.0015183	0.00042376	1563.8	1.6614e-05	1.6703e-05	1550.7	423.06	1.6713e-05	1.6842e-05	521.75	162.81	149.52	48.435	1.6881e-05	60.535	313.599	213.765	273.641	109.194	243.113	307.501	109.341	113.825	231.326	264.222	113.326	118.053	118.484	123.132	181.548	121.844	-8191	255	
2532.255	1	1	0	0	0.066093	0.11931	0.11434	0.36452	0.05102	0.16911	0.052696	0.051032	0.19134	0.1891	0.1907	0.12205	0.27808	0.18994	0.12542	0.34406	-2.2646	-3.1354	-3.0125	-3.2604	-3.2479	-3.0708	-3.1792	-3.3375	-3.0583	-3.1375	-3.0375	-2.8729	-3.2792	-3.0771	-2.8833	-3.2938	304.778	162.292	389.887	415.952	455.493	152.470	321.288	231.459	135.400	314.430	347.479	420.248	359.509	404.787	438.786	387.527	0.00097022	0.0010427	0.00015486	1442.3	9.8746e-06	5.2095e-06	1444.3	382.94	1.0145e-05	4.3134e-06	441.09	144.14	126.37	41.911	8.1636e-06	51.875	0.0015198	0.0015373	0.00042685	1563	1.6706e-05	1.6758e-05	1552.7	423.27	1.6697e-05	1.6698e-05	520.02	162.83	149.38	48.401	1.6699e-05	60.558	329.891	161.989	114.773	109.276	226.273	310.510	108.907	114.093	169.884	194.264	113.281	117.944	118.753	123.033	210.690	121.771	-8191	255	
2532.351	1	1	0	0	0.25238	0.093509	0.1468	0.38306	0.021981	0.077391	0.22742	0.23542	0.11686	0.17814	0.33699	0.16312	0.21323	0.086528	0.17468	0.30199	-2.5896	-2.9979	-3.1479	-3.1792	-3.2979	-2.9229	-3.1354	-3.1875	-2.7417	-3.2438	-3.2542	-3.025	-3.2062	-3.1083	-2.8125	-3.3521	358.105	150.587	446.851	378.911	386.375	370.398	392.838	400.320	211.562	295.512	383.760	138.615	430.630	428.267	322.548	430.450	0.000902	0.00016133	0.00020296	1448.8	6.2148e-06	1.5132e-05	1446.6	384.25	7.4349e-06	5.1677e-06	442.54	144.22	126.01	42.073	5.5225e-06	51.91	0.0015154	0.0015331	0.00042722	1565.4	1.676e-05	1.6802e-05	1554.2	423.56	1.6731e-05	1.6779e-05	520.03	162.73	149.38	48.452	1.6794e-05	60.537	334.659	152.388	196.594	109.300	340.798	226.895	109.082	113.839	245.598	158.065	113.504	117.948	118.724	122.858	254.883	121.856	-8191	255	
2532.447	1	1	0	0	0.13463	0.15798	0.15113	0.14577	0.065522	0.21588	0.068404	0.21815	0.16176	0.26179	0.046401	0.15715	0.076115	0.2324	0.23507	0.07518	-2.4417	-2.8438	-3.1396	-3.0708	-3.2854	-3.0979	-3.2833	-3.3417	-2.85	-3.0229	-3.1417	-2.9667	-3.1208	-3.1104	-2.8229	-3.3729	275.676	313.328	308.430	407.952	231.507	108.987	348.618	397.638	360.077	278.190	413.368	183.676	409.359	429.529	183.985	182.238	0.00096812	0.00015215	5.1248e-05	1447.6	1.7518e-05	1.6561e-05	1445.8	384.7	4.1651e-06	2.1567e-06	441.24	145.08	126.72	41.993	3.7694e-06	51.687	0.0015186	0.0015334	0.00042592	1564.8	1.6745e-05	1.68e-05	1553.8	423.45	1.6712e-05	1.6824e-05	521.29	163.05	149.29	48.412	1.6779e-05	60.415	319.987	381.682	234.265	109.272	259.594	275.204	109.239	114.114	220.394	388.820	113.320	117.861	118.830	123.006	344.840	121.882	-8191	255	
2532.543	1	1	0	0	0.27559	0.057209	0.28685	0.18947	0.1652	0.094381	0.38718	0.17998	0.12085	0.14914	0.090591	0.15301	0.25399	0.16186	0.051939	0.074989	-2.2562	-2.9813	-3.2146	-2.9667	-3.0792	-3.0854	-3.1562	-3.3104	-2.9271	-3.1	-3.2417	-2.9271	-3.1604	-3.2333	-2.7875	-3.2875	276.379	165.625	335.778	406.449	288.917	309.960	383.713	399.701	149.455	364.925	436.135	283.362	134.900	150.825	448.130	413.974	0.0011461	0.00087999	0.00016509	1447.5	9.56e-06	2.2695e-06	1450.6	384.5	1.3246e-05	1.6039e-05	442.05	144.38	126.52	42.128	1.0433e-06	52.26	0.0015151	0.0015357	0.00042853	1566.5	1.6786e-05	1.6872e-05	1556.6	423.7	1.6804e-05	1.6808e-05	521.53	163.2	149.46	48.469	1.6798e-05	60.651	318.222	274.286	392.397	109.355	247.012	197.485	109.174	113.919	161.183	265.153	113.595	117.862	118.652	123.041	125.913	121.848	-8191	255	
2532.639	1	1	0	0	0.093301	0.35121	0.25558	0.45989	0.20245	0.22557	0.20687	0.37829	0.20264	0.14399	0.29097	0.023886	0.17014	0.33173	0.3263	0.1165	-2.5062	-2.8708	-3.0667	-3.2104	-2.9125	-3.1854	-3.1479	-3.1958	-2.9333	-2.8667	-3.4146	-3.0354	-3.075	-3.1479	-2.6979	-3.2625	245.296	376.470	103.916	448.179	372.483	301.532	107.976	389.242	295.521	361.629	359.108	403.739	426.592	435.271	275.330	101.094	0.0015295	0.00032225	0.00014889	1444.8	1.3585e-05	1.3171e-05	1445	385.11	1.6366e-05	4.0271e-06	442.53	144.95	125.96	42.055	5.8909e-06	51.997	0.0015167	0.0015319	0.0004245	1566.6	1.6746e-05	1.6797e-05	1553.1	423.23	1.665e-05	1.6709e-05	521.14	162.85	149.22	48.483	1.6808e-05	60.576	317.779	159.690	156.600	109.233	322.496	204.101	109.067	114.072	182.408	408.160	113.421	117.920	118.669	123.037	280.029	121.814	-8191	255	
2532.734	1	1	0	0	0.21139	0.091134	0.17672	0.31853	0.1224	0.14916	0.097051	0.11422	0.19054	0.22714	0.20122	0.11698	0.20968	0.15594	0.045295	0.24906	-2.7104	-2.7458	-3.25	-3.1167	-3.0396	-3.175	-3.0646	-3.325	-3.0687	-2.9625	-3.2333	-3.1854	-3.1292	-3.2	-2.8521	-3.0958	236.967	223.913	260.285	428.290	451.190	112.653	334.097	416.992	106.757	355.104	415.650	396.628	353.638	153.412	301.528	315.235	0.00082702	0.0014801	0.00034631	1447.4	1.8573e-05	5.435e-06	1444.7	384.3	2.8085e-06	4.2875e-06	443.23	144.35	126.93	41.883	6.4085e-06	51.875	0.001517	0.0015387	0.0004281	1565.8	1.689e-05	1.6991e-05	1555.7	424.97	1.7069e-05	1.7274e-05	524.27	163.78	150.75	48.773	1.7502e-05	61.084	309.370	128.705	220.227	109.345	230.887	339.788	109.063	113.921	209.419	304.660	113.501	117.803	118.670	122.831	141.700	121.696	-8191	255	
2532.854	1	1	0	0	0.032138	0.27028	0.19471	0.25959	0.018978	0.2473	0.32563	0.50754	0.049724	0.19641	0.28414	0.19686	0.2605	0.20465	0.24767	0.043349	-2.7417	-2.8083	-3.1458	-3.1437	-2.9646	-3.2896	-3.0333	-3.25	-3.0771	-3.075	-3.2479	-3.1208	-3.1375	-3.3937	-2.8021	-3.0979	213.066	165.371	175.804	403.989	451.156	176.489	394.040	399.662	242.485	239.781	417.791	343.309	417.263	453.894	132.977	270.039	0.0013041	0.0005275	0.00045729	1445.4	8.9015e-06	2.8719e-06	1443.7	384.24	1.499e-05	1.1082e-05	439.29	144.59	126.49	42.119	8.5779e-06	52.083	0.00159	0.0016162	0.0004522	1573.4	1.7818e-05	1.7933e-05	1563.6	427.19	1.7991e-05	1.8102e-05	530.21	164.77	151.79	49.049	1.8009e-05	61.336	315.377	269.753	200.795	109.315	261.125	449.362	109.086	114.037	248.201	124.528	113.412	117.929	118.753	122.951	217.342	121.737	-8191	255	
2532.950	1	1	0	0	0.022737	0.052572	0.1263	0.3032	0.15992	0.10856	0.25004	0.19729	0.19612	0.028656	0.08602	0.15801	0.18326	0.18373	0.050481	0.2551	-2.7917	-2.7146	-3.1167	-3.2687	-2.8417	-3.1292	-3.1583	-3.2083	-3.2083	-3.1667	-3.3042	-3.1208	-2.8333	-3.3063	-2.9896	-3.1354	314.039	351.200	340.124	122.395	314.352	201.942	379.719	337.136	290.139	201.792	96.776	124.250	386.623	282.757	215.782	454.735	0.0012479	0.0005069	0.00042573	1448.7	1.0748e-05	7.0986e-06	1444	385.01	1.993e-06	5.3598e-06	444.3	145.22	126.47	42.233	1.5348e-05	52.224	0.0016175	0.0016243	0.00045144	1574.1	1.7525e-05	1.7585e-05	1559.7	425.48	1.7294e-05	1.7328e-05	525.99	163.84	150.53	48.838	1.7185e-05	61.03	329.219	307.021	189.792	109.400	205.903	160.378	109.352	114.095	306.111	167.809	113.465	118.154	118.423	122.913	269.174	121.763	-8191	255	
2533.022	1	1	0	0	0.38862	0.47801	0.15769	0.47861	0.13519	0.2234	0.22635	0.44574	0.1977	0.16855	0.054302	0.1764	0.20123	0.17266	0.18138	0.3655	-2.8	-2.8583	-3.2	-3.3083	-2.9271	-3.2438	-3.1937	-3.0458	-3.2854	-2.8937	-3.1813	-3.3229	-2.7792	-3.2313	-2.9667	-3.1375	437.011	297.304	256.681	404.812	136.125	237.688	408.938	383.459	247.778	229.941	381.148	444.526	397.149	401.108	278.031	274.799	0.0012519	0.00078353	0.00051376	1445.7	1.2558e-05	6.7731e-06	1445.8	385.47	1.4372e-05	3.6726e-06	446.25	144.8	127.22	42.184	6.8333e-06	51.909	0.001555	0.0015685	0.00043814	1572.1	1.7222e-05	1.7276e-05	1559.3	425.84	1.7295e-05	1.734e-05	526.69	164.19	150.86	48.904	1.731e-05	61.032	322.219	196.511	194.755	109.092	164.457	326.272	109.130	113.944	189.465	361.393	113.314	117.895	118.712	122.929	174.483	121.753	-8191	255	
2533.143	1	1	0	0	0.11485	0.18635	0.1907	0.32856	0.078219	0.21275	0.35522	0.12347	0.13672	0.074321	0.055462	0.049535	0.23554	0.035042	0.11815	0.20882	-2.5396	-2.9354	-3.0208	-3.1833	-2.9521	-3.1292	-3.1562	-3.1937	-3.2625	-2.8896	-3.0979	-3.3104	-2.9958	-3.3521	-3.0104	-2.9125	335.432	163.773	259.596	438.068	390.480	215.514	393.596	394.125	381.477	270.420	302.835	345.267	392.954	121.878	428.276	378.377	0.0011716	0.0012231	0.00038611	1445.6	1.3731e-05	9.2495e-06	1448.9	384.24	8.6165e-06	1.3207e-05	446.99	145.7	127.85	42.277	1.1382e-05	52.347	0.001561	0.001574	0.00043899	1571.3	1.719e-05	1.7187e-05	1560.3	425.91	1.7078e-05	1.7074e-05	526.15	164.33	150.65	48.851	1.7087e-05	61.102	310.369	169.540	255.133	109.338	243.767	164.686	109.255	114.052	123.007	305.177	113.352	118.022	118.337	122.784	324.225	121.728	-8191	255	
2533.239	1	1	0	0	0.069351	0.10755	0.13879	0.19821	0.037029	0.086041	0.23701	0.3808	0.18732	0.19792	0.1589	0.064829	0.13178	0.21888	0.21342	0.39287	-2.7	-2.8333	-3.0396	-3.3979	-3.0771	-3.1813	-3.4479	-3.1771	-3.15	-2.9458	-3.1042	-3.1396	-2.9604	-2.9479	-2.9979	-3.0354	325.906	172.955	236.467	396.413	139.330	237.564	390.906	383.957	149.979	300.011	386.556	443.957	427.329	406.182	385.046	439.592	0.0012671	0.00067108	0.00016208	1452.3	8.7316e-06	1.3883e-05	1447.9	387.37	1.3459e-05	8.1545e-06	448.95	146.26	128.11	42.32	3.3112e-06	52.493	0.0015424	0.0015605	0.00043428	1574	1.7103e-05	1.7293e-05	1562.6	428.09	1.7421e-05	1.7467e-05	531.63	165.91	152.83	49.45	1.7931e-05	61.995	310.671	300.750	426.350	109.234	278.090	321.027	109.155	114.160	230.182	194.463	113.759	117.718	118.560	122.760	197.135	121.763	-8191	255	
2533.335	1	1	0	0	0.077617	0.039717	0.18945	0.24588	0.11312	0.17115	0.47044	0.24762	0.035253	0.21729	0.081559	0.098467	0.3077	0.17896	0.14453	0.40867	-2.8	-2.9938	-2.7979	-3.4854	-2.8792	-3.1292	-3.2562	-3.0708	-3.15	-2.9521	-3.1437	-3.3542	-2.9562	-3.2854	-3.1979	-2.8812	131.001	366.668	205.468	420.962	338.078	167.000	415.777	124.533	250.123	409.757	401.831	388.340	235.391	102.665	422.534	432.475	0.001098	0.00047398	0.00041234	1454.2	1.3173e-05	8.1782e-06	1450.1	384.38	7.2056e-06	1.3928e-05	446.5	146.73	128.77	42.705	1.8752e-05	52.479	0.0016305	0.0016654	0.00046423	1584.5	1.8349e-05	1.8559e-05	1574.5	431.07	1.86e-05	1.8816e-05	539.87	167.43	154.74	50.046	1.8805e-05	62.452	316.485	169.134	173.404	109.160	177.015	174.260	109.136	113.978	368.966	253.105	113.229	117.844	118.663	122.796	217.775	121.698	-8191	255	
2533.431	1	1	0	0	0.17334	0.098312	0.15933	0.2281	0.070123	0.039383	0.1296	0.16317	0.20969	0.23203	0.18919	0.065202	0.19695	0.29978	0.30606	0.2216	-2.6708	-2.9896	-2.9604	-3.4813	-2.7083	-3.0792	-3.5125	-3.2208	-3.4479	-3.0438	-2.9771	-3.4083	-2.8354	-3.0229	-3.1562	-3.05	121.642	167.894	121.557	369.125	277.911	297.469	435.755	125.257	329.188	340.122	114.353	212.911	97.983	444.155	325.391	373.239	0.0011442	0.0013686	0.00034997	1452	3.0304e-06	2.4492e-06	1452.4	387.43	3.027e-06	1.2707e-05	448.95	146.59	128.66	42.811	5.779e-06	52.767	0.0016935	0.0017075	0.00047607	1586.9	1.8407e-05	1.8515e-05	1574.9	430.87	1.8278e-05	1.8383e-05	537.39	166.93	153.95	49.851	1.8183e-05	62.237	315.462	194.679	167.344	109.295	134.772	126.999	109.029	114.076	165.921	438.189	113.445	117.868	118.622	122.938	227.824	121.707	-8191	255	
#DATA ENDS
